BOXY.EXE: ISS Imagent and Oximeter Data Acquisition Program Version 0.80
Ascii Record File

#ACQ INFORMATION
2  Detector Channels 
16  External MUX Channels 
1  Auxiliary Channels 
5000  Waveform (CCF) Frequency (Hz)
1  Waveforms Skipped 
30  Waveforms Averaged 
1  Cycles Averaged 
16  Acquisitions per Waveform 
10.0806  Updata Rate (Hz) 

#FILE INFORMATION
TRUE -- External MUX Channel results are PARSED.
FALSE -- AC DC and Phase are NOT grouped.
TRUE -- Companion Program Settings File CREATED.
FALSE -- AC data not excluded
FALSE -- DC data not excluded
FALSE -- Phase data not excluded
FALSE -- Auxillary Chn. data not excluded
Tab delimiters

#CALIBRATION STATE
TRUE -- Waveform Calibration Values APPLIED.


#AUX CALIBRATION VALUES
Val Type	aux-1	

Term	1.0000e+00	
Factor	0.0000e+00	


#WF CALIBRATION VALUES
A = Detector Channel
Val Type	A-AC1	A-AC2	A-AC3	A-AC4	A-AC5	A-AC6	A-AC7	A-AC8	A-AC9	A-AC10	A-AC11	A-AC12	A-AC13	A-AC14	A-AC15	A-AC16	A-DC1	A-DC2	A-DC3	A-DC4	A-DC5	A-DC6	A-DC7	A-DC8	A-DC9	A-DC10	A-DC11	A-DC12	A-DC13	A-DC14	A-DC15	A-DC16	A-Ph1	A-Ph2	A-Ph3	A-Ph4	A-Ph5	A-Ph6	A-Ph7	A-Ph8	A-Ph9	A-Ph10	A-Ph11	A-Ph12	A-Ph13	A-Ph14	A-Ph15	A-Ph16	

Term	0.00000e+00	0.00000e+00	0.00000e+00	0.00000e+00	0.00000e+00	0.00000e+00	0.00000e+00	0.00000e+00	0.00000e+00	0.00000e+00	0.00000e+00	0.00000e+00	0.00000e+00	0.00000e+00	0.00000e+00	0.00000e+00	0.00000e+00	0.00000e+00	0.00000e+00	0.00000e+00	0.00000e+00	0.00000e+00	0.00000e+00	0.00000e+00	0.00000e+00	0.00000e+00	0.00000e+00	0.00000e+00	0.00000e+00	0.00000e+00	0.00000e+00	0.00000e+00	0.00000e+00	0.00000e+00	0.00000e+00	0.00000e+00	0.00000e+00	0.00000e+00	0.00000e+00	0.00000e+00	0.00000e+00	0.00000e+00	0.00000e+00	0.00000e+00	0.00000e+00	0.00000e+00	0.00000e+00	0.00000e+00	
Factor	1.00000e+00	1.00000e+00	1.00000e+00	1.00000e+00	1.00000e+00	1.00000e+00	1.00000e+00	1.00000e+00	1.00000e+00	1.00000e+00	1.00000e+00	1.00000e+00	1.00000e+00	1.00000e+00	1.00000e+00	1.00000e+00	1.00000e+00	1.00000e+00	1.00000e+00	1.00000e+00	1.00000e+00	1.00000e+00	1.00000e+00	1.00000e+00	1.00000e+00	1.00000e+00	1.00000e+00	1.00000e+00	1.00000e+00	1.00000e+00	1.00000e+00	1.00000e+00	X	X	X	X	X	X	X	X	X	X	X	X	X	X	X	X	

B = Detector Channel
Val Type	B-AC1	B-AC2	B-AC3	B-AC4	B-AC5	B-AC6	B-AC7	B-AC8	B-AC9	B-AC10	B-AC11	B-AC12	B-AC13	B-AC14	B-AC15	B-AC16	B-DC1	B-DC2	B-DC3	B-DC4	B-DC5	B-DC6	B-DC7	B-DC8	B-DC9	B-DC10	B-DC11	B-DC12	B-DC13	B-DC14	B-DC15	B-DC16	B-Ph1	B-Ph2	B-Ph3	B-Ph4	B-Ph5	B-Ph6	B-Ph7	B-Ph8	B-Ph9	B-Ph10	B-Ph11	B-Ph12	B-Ph13	B-Ph14	B-Ph15	B-Ph16	

Term	0.00000e+00	0.00000e+00	0.00000e+00	0.00000e+00	0.00000e+00	0.00000e+00	0.00000e+00	0.00000e+00	0.00000e+00	0.00000e+00	0.00000e+00	0.00000e+00	0.00000e+00	0.00000e+00	0.00000e+00	0.00000e+00	0.00000e+00	0.00000e+00	0.00000e+00	0.00000e+00	0.00000e+00	0.00000e+00	0.00000e+00	0.00000e+00	0.00000e+00	0.00000e+00	0.00000e+00	0.00000e+00	0.00000e+00	0.00000e+00	0.00000e+00	0.00000e+00	1.37173e+01	-1.18228e+02	-1.12758e+02	-1.83080e+02	-7.15389e+01	-7.78103e+01	-1.57142e+02	-1.62015e+02	-8.64581e+01	-8.33328e+01	-1.74681e+02	-1.70893e+02	-1.86226e+02	-1.78823e+02	-6.33234e+01	-1.50760e+02	
Factor	3.86630e-05	1.07672e-04	3.58680e-05	1.52370e-01	1.43992e-06	1.45988e-06	1.51923e-01	5.45124e-02	1.38203e-06	1.18428e-06	1.31598e-01	2.66902e-02	3.84029e-02	8.59656e-03	1.43767e-06	1.22989e-02	8.31094e-07	8.48967e-07	2.35916e-07	7.55567e-02	9.27535e-09	9.30345e-09	7.09969e-02	2.68103e-02	9.28531e-09	9.29857e-09	5.97757e-02	1.26460e-02	1.79984e-02	4.20033e-03	9.30521e-09	5.78123e-03	X	X	X	X	X	X	X	X	X	X	X	X	X	X	X	X	



#DISTANCE SETTINGS
A = Detector Channel
A-1	A-2	A-3	A-4	A-5	A-6	A-7	A-8	A-9	A-10	A-11	A-12	A-13	A-14	A-15	A-16	

2.5000e+00	3.0000e+00	2.5000e+00	3.0000e+00	2.0000e+00	3.0000e+00	1.5000e+00	3.0000e+00	3.0000e+00	3.0000e+00	3.0000e+00	3.0000e+00	3.0000e+00	3.0000e+00	1.5000e+00	3.0000e+00	

B = Detector Channel
B-1	B-2	B-3	B-4	B-5	B-6	B-7	B-8	B-9	B-10	B-11	B-12	B-13	B-14	B-15	B-16	

1.0000e+01	1.0000e+01	1.0000e+01	1.4400e+00	1.0000e+01	1.0000e+01	1.5100e+00	1.9400e+00	1.0000e+01	1.0000e+01	1.9900e+00	2.4900e+00	2.4100e+00	2.9000e+00	1.0000e+01	2.9800e+00	




#DATA BEGINS
time	group	step	mark	flag	A-AC1	A-AC2	A-AC3	A-AC4	A-AC5	A-AC6	A-AC7	A-AC8	A-AC9	A-AC10	A-AC11	A-AC12	A-AC13	A-AC14	A-AC15	A-AC16	A-DC1	A-DC2	A-DC3	A-DC4	A-DC5	A-DC6	A-DC7	A-DC8	A-DC9	A-DC10	A-DC11	A-DC12	A-DC13	A-DC14	A-DC15	A-DC16	A-Ph1	A-Ph2	A-Ph3	A-Ph4	A-Ph5	A-Ph6	A-Ph7	A-Ph8	A-Ph9	A-Ph10	A-Ph11	A-Ph12	A-Ph13	A-Ph14	A-Ph15	A-Ph16	B-AC1	B-AC2	B-AC3	B-AC4	B-AC5	B-AC6	B-AC7	B-AC8	B-AC9	B-AC10	B-AC11	B-AC12	B-AC13	B-AC14	B-AC15	B-AC16	B-DC1	B-DC2	B-DC3	B-DC4	B-DC5	B-DC6	B-DC7	B-DC8	B-DC9	B-DC10	B-DC11	B-DC12	B-DC13	B-DC14	B-DC15	B-DC16	B-Ph1	B-Ph2	B-Ph3	B-Ph4	B-Ph5	B-Ph6	B-Ph7	B-Ph8	B-Ph9	B-Ph10	B-Ph11	B-Ph12	B-Ph13	B-Ph14	B-Ph15	B-Ph16	aux-1	digaux	

2542.962	1	1	0	256	0.27014	0.048504	0.21276	0.16176	0.26697	0.088124	0.25859	0.26587	0.1182	0.26673	0.2514	0.0283	0.14099	0.18332	0.02899	0.098818	-2.625	-2.9583	-3.0729	-3.1979	-3.0792	-3.1479	-3.0729	-3.4313	-3.1354	-3.0604	-3.2417	-3.1354	-2.9667	-3.3396	-2.9729	-3.2687	358.449	193.364	272.630	438.737	253.895	185.187	406.637	421.152	261.394	150.541	442.695	118.455	385.871	379.981	397.062	430.486	0.00063987	0.00053983	0.00017935	1136.6	8.0279e-06	6.5606e-06	1198.9	235.61	4.6241e-06	7.1916e-06	291.13	80.532	64.66	17.901	5.8391e-06	25.336	0.00038536	0.0003856	0.00010609	1121.2	4.1897e-06	4.1615e-06	1181.8	234.85	4.1625e-06	4.1274e-06	291.99	82.35	66.045	18.971	4.2035e-06	26.724	322.349	139.659	226.946	111.236	251.070	266.935	111.442	118.748	195.974	201.815	118.130	124.924	125.409	132.000	329.535	131.581	-8191	255	
2543.083	1	1	0	0	0.17612	0.23249	0.24482	0.066784	0.20522	0.053397	0.34912	0.18451	0.11366	0.18986	0.06275	0.23617	0.11164	0.24895	0.063637	0.28049	-2.8375	-2.7958	-3.0854	-3.3312	-3.0771	-3.1813	-3.325	-3.3479	-3.2375	-3.0042	-3.4125	-3.0875	-3.1104	-3.4188	-3.0104	-3.1271	400.259	269.729	346.057	196.282	178.777	105.543	362.742	426.479	319.413	308.774	336.489	189.192	270.803	107.234	402.944	138.146	0.00070431	0.00033107	7.0309e-05	1133.1	3.5588e-06	6.9552e-06	1202.7	235.72	1.2156e-05	3.8276e-06	290.72	80.401	64.308	17.881	8.9159e-06	25.429	0.00038733	0.00038735	0.000108	1120.8	4.3019e-06	4.2992e-06	1184.6	235.5	4.3045e-06	4.3089e-06	292.58	82.375	66.148	19.017	4.339e-06	26.774	330.086	150.621	187.829	111.529	400.573	209.133	111.469	118.848	365.894	375.212	118.584	124.844	125.441	131.975	251.295	131.710	-8191	255	
2543.179	1	1	0	0	0.25926	0.29334	0.086092	0.16084	0.12315	0.27614	0.2715	0.19197	0.13474	0.13247	0.12093	0.34379	0.16374	0.08056	0.049277	0.22545	-2.6979	-2.825	-3.2417	-3.0563	-2.9042	-3.35	-3.3646	-3.3396	-3.2979	-2.9896	-3.2104	-3.1104	-2.9	-3.1312	-3.0271	-3.0125	347.139	173.903	305.680	437.198	147.428	318.574	396.994	414.858	453.363	427.370	200.555	108.537	334.405	396.574	118.522	286.159	0.00057025	0.0004291	0.00013566	1136.5	4.2835e-06	3.525e-06	1204.7	235.28	8.3556e-06	5.4662e-06	290.23	81.49	64.652	18.069	3.0712e-06	25.569	0.00039627	0.00039272	0.00010984	1124	4.3633e-06	4.3367e-06	1185.3	235.63	4.3766e-06	4.3541e-06	292.86	82.834	66.529	19.15	4.4498e-06	26.882	304.035	266.273	384.883	111.471	236.285	408.531	111.589	118.765	327.790	195.727	118.223	124.992	125.698	132.258	358.227	131.464	-8191	255	
2543.251	1	1	0	0	0.1991	0.10175	0.24236	0.4059	0.13767	0.10292	0.33644	0.17814	0.22177	0.088942	0.10442	0.11524	0.15391	0.026538	0.14329	0.14085	-2.7875	-2.8708	-2.9875	-3.2062	-2.8792	-3.4375	-3.1937	-3.025	-3.3708	-2.8937	-3.2875	-3.2146	-2.7979	-3.3542	-3.0646	-2.9917	157.543	359.014	234.246	413.494	430.094	283.310	357.453	221.636	459.852	295.110	232.243	405.991	262.985	345.388	357.783	297.341	0.00060571	0.00048039	0.00028173	1136.4	7.3877e-06	1.4955e-06	1199.7	234.93	9.1052e-06	1.1169e-05	290.55	81.153	64.389	18.003	3.1371e-06	25.344	0.00040542	0.00040713	0.00011365	1125.5	4.462e-06	4.4272e-06	1185.9	236.2	4.4474e-06	4.4268e-06	293.71	82.948	66.52	19.123	4.4479e-06	26.778	310.931	224.738	210.475	111.428	212.999	252.657	111.380	118.751	249.002	202.741	118.289	124.998	125.594	131.930	394.655	131.400	-8191	255	
2543.347	1	1	0	0	0.20713	0.13841	0.054218	0.15444	0.12539	0.22208	0.31736	0.12968	0.17518	0.073741	0.25398	0.060771	0.18864	0.22335	0.25781	0.11121	-2.7479	-2.9042	-2.9938	-3.425	-2.95	-3.3479	-3.3208	-3.2021	-3.2646	-2.8792	-3.0542	-3.475	-2.9417	-3.2458	-3.0667	-3.1604	354.551	106.146	445.664	364.485	349.490	346.362	336.588	134.663	354.098	102.886	405.954	417.239	357.391	437.869	225.251	169.818	0.00057442	0.00068804	3.8371e-05	1136.6	4.2958e-06	4.8884e-06	1205.7	236.21	6.1247e-06	3.0927e-06	292.17	81.303	63.852	18.031	4.6254e-06	25.241	0.00040381	0.00040591	0.00011303	1126	4.4483e-06	4.4596e-06	1188.5	236.77	4.4137e-06	4.4057e-06	294.26	83.023	66.445	19.157	4.4355e-06	26.809	320.900	214.530	232.591	111.319	156.050	255.241	111.301	118.606	325.109	327.678	118.251	124.889	125.933	132.300	173.211	131.267	-8191	255	
2543.467	1	1	0	0	0.13578	0.18955	0.24232	0.17475	0.14399	0.13201	0.19018	0.16178	0.22103	0.12461	0.1444	0.37651	0.26585	0.043973	0.13863	0.11327	-2.9083	-3	-3.0792	-3.35	-2.9604	-2.9896	-3.3667	-3.0958	-3.2479	-3.1104	-2.9958	-3.3375	-2.9292	-3.3312	-3.1833	-3.0396	372.862	458.903	196.490	421.795	105.134	269.368	382.667	201.482	210.943	359.461	198.769	437.302	413.414	110.422	123.860	451.841	0.00061584	0.00078034	0.0001425	1137.5	6.1163e-06	7.1416e-06	1205.2	235.91	2.9216e-06	3.7322e-06	291.71	81.415	65.023	17.837	1.2957e-05	25.386	0.00040662	0.00040787	0.00011325	1126.9	4.4393e-06	4.4052e-06	1189.2	236.25	4.4792e-06	4.4383e-06	294.18	83.116	66.625	19.112	4.4643e-06	26.873	317.763	267.634	319.367	111.517	281.704	323.366	111.513	119.039	271.636	311.051	118.318	124.654	125.304	132.095	273.558	131.079	-8191	255	
2543.564	1	1	0	0	0.10433	0.24796	0.2668	0.16342	0.10496	0.10658	0.1516	0.10495	0.24124	0.026693	0.06761	0.075143	0.17609	0.15639	0.17609	0.076311	-2.9833	-2.9792	-2.9938	-3.4521	-2.9896	-3.2083	-3.3729	-2.9938	-3.2667	-3.1125	-3.1688	-3.4125	-3.1833	-3.2167	-3.1125	-2.9625	311.186	298.412	455.830	451.811	241.088	186.072	414.717	161.645	401.956	414.285	316.110	323.410	460.720	338.838	253.392	361.641	0.0007125	0.00036232	0.00022711	1137.7	6.0318e-06	5.625e-06	1205	234.15	3.9693e-06	1.0104e-05	291.27	81.472	64.415	17.942	9.5072e-06	25.303	0.00041161	0.00041607	0.00011646	1126.7	4.6124e-06	4.6351e-06	1190.2	237.01	4.6637e-06	4.6651e-06	296.09	83.259	67.062	19.278	4.7196e-06	27.038	325.077	109.357	222.350	111.556	300.893	228.768	111.351	119.096	304.907	288.819	118.661	124.782	125.375	132.085	161.764	130.892	-8191	255	
2543.658	1	1	0	0	0.063195	0.2406	0.32016	0.08738	0.059885	0.012811	0.21717	0.092806	0.25742	0.068236	0.26985	0.18186	0.2418	0.13605	0.3189	0.12355	-2.9062	-3.0458	-3.025	-3.2687	-3.0729	-3.1292	-3.4646	-2.9729	-3.3417	-2.9833	-3.0333	-3.2646	-2.9542	-3.175	-3.3312	-2.9646	225.083	277.743	148.894	435.612	400.785	159.515	434.411	114.638	215.218	208.102	354.307	418.606	448.153	249.250	456.257	419.225	0.00068899	0.00026401	0.00013009	1136.7	1.0296e-05	4.6308e-06	1209.4	236.16	4.2938e-06	1.4438e-06	290.73	81.293	64.063	17.995	1.5342e-06	25.479	0.00042847	0.00043052	0.00011999	1127.9	4.7016e-06	4.7196e-06	1192.7	237.53	4.6727e-06	4.6691e-06	295.51	83.434	66.987	19.242	4.6243e-06	26.911	310.784	120.204	310.288	111.441	181.863	279.340	111.364	118.826	252.596	377.439	118.540	125.226	125.483	132.142	161.611	131.097	-8191	255	
2543.756	1	1	0	0	0.19559	0.073329	0.209	0.2409	0.11318	0.056118	0.21246	0.17722	0.13354	0.15259	0.19676	0.20272	0.11362	0.11243	0.085508	0.27655	-2.7854	-3.1125	-2.775	-3.3854	-2.9771	-3.1312	-3.6063	-3.1042	-3.2354	-3.2875	-2.9146	-3.3083	-3.1292	-3.1562	-3.1625	-3.0042	313.497	450.871	191.207	428.180	119.013	410.212	363.823	141.363	198.191	341.592	399.350	419.363	411.106	125.027	299.371	151.896	0.00069251	0.00022523	0.00012766	1137	6.7556e-06	7.5222e-06	1207.8	235.28	5.7268e-06	1.9012e-06	290.17	80.979	64.565	17.979	4.5613e-06	25.328	0.00041442	0.00041042	0.00011377	1128.4	4.5145e-06	4.4822e-06	1189.4	236.5	4.4914e-06	4.4823e-06	293.94	83.112	66.78	19.126	4.4525e-06	26.895	321.328	124.698	133.897	111.311	266.931	282.611	111.525	118.863	289.044	263.212	118.616	125.050	125.220	132.184	438.521	131.519	-8191	255	
2543.850	1	1	0	0	0.10211	0.2818	0.10532	0.24661	0.14173	0.35178	0.039089	0.18854	0.16608	0.17377	0.12454	0.19828	0.10796	0.13724	0.21195	0.09954	-2.9771	-3.2208	-3.0104	-3.2042	-3.0417	-3.075	-3.4958	-2.925	-3.075	-3.1021	-3.0417	-3.1667	-3.0229	-3.0771	-3.1896	-3.0917	332.598	105.177	366.124	424.624	304.201	172.252	253.548	121.541	129.386	104.135	414.485	284.416	441.634	381.111	209.087	398.661	0.00066985	0.0005318	6.3776e-05	1140.3	1.1864e-05	6.3394e-06	1204.4	234.81	5.954e-06	2.7701e-06	291.71	81.651	64.607	18.02	1.0732e-06	25.417	0.00040375	0.00039848	0.00010987	1126.6	4.3166e-06	4.2808e-06	1187.1	236.02	4.308e-06	4.3035e-06	293.24	82.944	66.403	19.096	4.2622e-06	26.727	331.550	167.312	407.471	111.541	207.942	347.585	111.442	118.989	454.852	316.761	117.907	125.198	125.476	132.317	277.802	131.650	-8191	255	
2543.946	1	1	0	0	0.24396	0.12308	0.12772	0.33421	0.14176	0.22231	0.36549	0.39286	0.045493	0.035768	0.020284	0.12101	0.23726	0.11091	0.03953	0.12691	-2.6688	-3.2417	-2.825	-3.3104	-3.1833	-3.1125	-3.5354	-3.0333	-2.9188	-3.4208	-2.9396	-3.0979	-3.0083	-2.9083	-3.3333	-3.1542	245.839	440.656	269.339	362.779	397.495	104.451	418.848	363.760	403.624	427.967	252.752	423.854	292.348	225.186	444.730	333.772	0.00064876	0.00028163	0.00013911	1136.9	8.23e-06	2.2247e-06	1209.8	235.4	9.156e-06	3.6025e-06	293.37	81.186	64.765	17.989	6.3389e-06	25.407	0.00038664	0.00038926	0.00010738	1124.1	4.1876e-06	4.1583e-06	1189.2	235.99	4.2375e-06	4.2255e-06	293.44	82.778	66.401	19.08	4.2604e-06	26.791	322.045	247.575	183.012	111.616	210.739	269.425	111.554	118.784	237.579	239.017	118.623	125.003	125.855	132.044	285.240	131.600	-8191	255	
2544.067	1	1	0	0	0.1111	0.091774	0.14858	0.30923	0.12546	0.24714	0.091879	0.070712	0.12188	0.096537	0.215	0.046112	0.072681	0.11732	0.12896	0.15731	-2.4167	-3.2646	-3.05	-3.3354	-3.1042	-2.9021	-3.5438	-3.0375	-3.0062	-3.1958	-2.9938	-3.2292	-3.2958	-3.0521	-3.4208	-3.0542	353.681	277.365	301.945	119.212	121.254	315.047	359.954	152.333	285.339	332.648	144.280	304.992	460.846	122.184	287.822	383.809	0.00052679	0.00028387	0.00010889	1142.2	5.7176e-06	6.4206e-06	1205.5	236.32	2.9512e-06	3.913e-06	293.61	81.213	64.775	18.013	5.2006e-06	25.514	0.00039111	0.00038875	0.00010901	1126.8	4.2625e-06	4.2728e-06	1188.9	236.58	4.2599e-06	4.2679e-06	293.71	82.952	66.286	19.039	4.2581e-06	26.807	328.990	336.796	214.214	111.391	213.608	243.169	111.309	118.846	321.225	347.881	118.298	125.028	125.401	131.737	322.458	131.008	-8191	255	
2544.163	1	1	0	0	0.019087	0.49961	0.023674	0.33714	0.22075	0.16156	0.025155	0.24678	0.087338	0.09951	0.057147	0.063048	0.27696	0.22155	0.29956	0.27017	-2.6708	-3.3146	-2.9896	-3.2188	-3.2875	-3.0521	-3.3646	-3.1896	-2.9958	-3.3292	-2.8854	-3	-3.3312	-2.875	-3.4875	-3.0771	330.493	352.035	242.543	440.124	212.729	309.198	119.725	393.250	125.027	347.896	145.642	422.788	310.516	253.631	389.151	138.141	0.00077671	0.00062862	0.00014784	1142.8	7.3897e-06	2.0158e-06	1209.1	235.78	5.4854e-06	5.5383e-07	290.16	81.337	65.291	18.095	9.0396e-06	25.535	0.0003918	0.0003917	0.0001093	1128.7	4.3204e-06	4.3142e-06	1190.6	236.45	4.367e-06	4.3958e-06	293.38	83.041	66.88	19.2	4.4463e-06	26.994	324.183	220.174	267.101	111.409	239.012	191.276	111.446	118.700	331.159	351.159	118.272	124.729	125.629	132.128	262.232	131.645	-8191	255	
2544.259	1	1	0	0	0.14538	0.15057	0.22774	0.16396	0.28224	0.25649	0.20267	0.27362	0.18589	0.10808	0.19586	0.12697	0.23115	0.077371	0.066797	0.1378	-2.4479	-3.1813	-3.075	-3.1625	-3.1417	-2.8875	-3.3833	-3.3021	-2.9167	-3.1896	-2.9958	-2.9646	-3.3708	-3.0646	-3.1083	-3.3	416.641	256.141	232.519	107.193	456.878	337.686	419.452	434.143	459.572	208.158	142.832	443.647	292.295	280.142	270.963	399.675	0.00029731	0.00049958	0.00012486	1142.4	7.2844e-06	4.9817e-06	1210	236.67	2.1272e-06	4.0195e-06	291.62	81.301	64.624	18.09	5.0217e-06	25.509	0.00040246	0.00040131	0.0001114	1130.4	4.2794e-06	4.2606e-06	1190.1	236.21	4.1905e-06	4.2004e-06	293.01	82.822	66.461	19.121	4.206e-06	26.87	338.106	156.297	227.308	111.571	342.883	194.926	111.503	118.910	232.351	315.713	118.210	125.015	125.501	131.924	268.344	131.452	-8191	255	
2544.355	1	1	0	0	0.056207	0.17403	0.14131	0.28737	0.085593	0.30839	0.29509	0.22811	0.43428	0.069085	0.15219	0.069028	0.13134	0.3934	0.27154	0.15392	-2.4292	-3.1625	-3.1396	-3.25	-3.2771	-2.8625	-3.2729	-3.2604	-3.0146	-3.3333	-3.1458	-3.0375	-3.2396	-3.0375	-3.1312	-3.1917	424.672	269.135	101.576	459.135	204.156	353.590	446.288	121.212	404.843	341.136	105.528	370.388	377.013	433.289	454.196	138.664	0.00055301	0.00033862	9.3277e-05	1141.9	2.6364e-06	4.1877e-06	1211.7	235.34	5.7844e-06	6.7038e-06	292.77	81.469	64.687	18.06	1.6363e-06	25.476	0.00038829	0.00039012	0.00010811	1128.6	4.2493e-06	4.249e-06	1191.6	236.4	4.2697e-06	4.335e-06	293.41	83.144	66.699	19.198	4.3657e-06	26.904	308.064	323.985	235.853	111.501	310.602	345.595	111.541	118.864	231.036	344.610	118.145	124.945	125.548	132.160	438.833	131.215	-8191	255	
2544.476	1	1	0	0	0.17417	0.11419	0.17548	0.19166	0.15697	0.22329	0.25124	0.10501	0.10484	0.30943	0.17015	0.29399	0.13665	0.015772	0.065187	0.25699	-2.4271	-3.1542	-2.9875	-3.0875	-3.2062	-3.1083	-3.2208	-3.2792	-2.9604	-3.0333	-3.3187	-2.8312	-3.2938	-3.1104	-2.9042	-3.2958	371.648	214.140	278.716	453.931	127.329	354.204	441.223	427.288	369.416	269.012	200.762	436.767	349.911	413.352	305.944	120.789	0.00057293	0.0007053	0.00021012	1141.1	4.5884e-06	7.6786e-06	1211.1	236.1	8.8842e-06	8.8004e-06	292.99	81.803	65.122	18.124	4.9991e-06	25.696	0.0003959	0.00039385	0.00010905	1129.7	4.292e-06	4.2245e-06	1191.7	235.92	4.1794e-06	4.1885e-06	293.54	83.094	66.626	19.134	4.177e-06	26.915	326.915	163.014	246.698	111.318	174.448	229.792	111.244	118.764	253.695	263.038	118.376	125.039	125.590	132.254	146.529	131.357	-8191	255	
2544.548	1	1	0	0	0.36551	0.18878	0.13705	0.10699	0.10871	0.048906	0.27364	0.15905	0.18517	0.052367	0.21147	0.16407	0.1142	0.097177	0.11902	0.13434	-2.5	-3.0458	-2.9854	-3.1521	-3.2021	-3.0646	-3.3458	-3.3417	-3.0833	-3.2229	-3.2125	-2.7938	-3.3417	-3.0833	-3.1708	-3.2771	215.385	435.106	297.029	189.305	274.993	305.265	368.805	378.587	214.808	296.906	337.415	115.431	157.918	364.525	452.405	149.931	0.00067713	0.00023436	3.7661e-05	1147.2	7.4482e-06	7.758e-06	1213.2	236.89	6.9871e-06	4.1502e-06	292.5	81.821	64.664	18.262	6.0144e-06	25.571	0.00038217	0.00037896	0.00010448	1130.8	4.1173e-06	4.1216e-06	1193.1	236.24	4.1157e-06	4.1022e-06	292.5	83.064	66.318	19.166	4.1843e-06	26.881	322.315	392.112	345.508	111.372	277.501	270.092	111.304	118.910	158.467	314.390	118.159	124.804	125.307	132.036	221.632	131.379	-8191	255	
2544.644	1	1	0	0	0.19444	0.14696	0.037512	0.061114	0.063076	0.26088	0.091998	0.11257	0.16044	0.14387	0.27821	0.26237	0.21045	0.17273	0.20779	0.15631	-2.5646	-3.0875	-3.2479	-3.0458	-2.9625	-3.1479	-3.1604	-3.2208	-2.7354	-3.0917	-3.2812	-3.0438	-3.15	-3.0438	-2.9021	-3.2	132.143	252.046	427.914	348.765	261.963	436.350	363.838	102.692	173.647	308.371	164.701	426.992	429.757	449.609	261.164	432.594	0.00072263	0.0002809	0.00013349	1143.5	5.9348e-06	3.9299e-06	1212.4	235.86	5.6604e-06	2.7797e-06	292.41	81.638	64.624	17.989	2.3036e-06	25.582	0.00038346	0.00038031	0.00010509	1130.4	4.1531e-06	4.1536e-06	1190.4	236.45	4.127e-06	4.1534e-06	292.74	83.001	66.18	19.077	4.1541e-06	26.854	308.389	137.379	208.506	111.435	200.064	198.369	111.367	118.688	184.607	202.766	118.312	124.956	125.512	132.190	180.983	131.313	-8191	255	
2544.740	1	1	0	0	0.19866	0.20728	0.053974	0.39566	0.049702	0.084144	0.17497	0.09221	0.30529	0.11106	0.17821	0.19081	0.11537	0.2101	0.054007	0.041776	-2.6417	-3.0104	-3.2125	-3.0854	-3.2479	-3.0458	-3.0479	-3.3229	-3.0729	-2.8688	-3.2812	-3.1396	-3.0979	-3.1708	-2.9896	-3.3063	404.453	297.798	378.923	404.921	331.554	450.430	441.345	138.083	197.955	429.870	402.040	130.084	124.076	427.085	459.475	294.563	0.00049776	0.00017968	0.00018862	1145.8	4.2836e-06	8.9387e-06	1207.3	235.81	7.2718e-07	2.3299e-06	294.55	81.98	64.7	18.106	2.3477e-06	25.753	0.00038339	0.00038203	0.00010706	1130.2	4.2423e-06	4.2192e-06	1190.8	236.51	4.2709e-06	4.2801e-06	294.05	83.077	66.585	19.23	4.2192e-06	26.88	313.176	370.870	268.903	111.450	119.182	299.992	111.229	119.089	395.820	143.550	118.407	124.830	125.438	132.131	163.755	131.605	-8191	255	
2544.859	1	1	0	0	0.13855	0.24303	0.082418	0.34137	0.17826	0.12088	0.20857	0.26508	0.20036	0.089602	0.24914	0.15558	0.096304	0.18629	0.21908	0.15019	-2.6854	-2.8708	-3.2896	-3.0771	-3.1708	-3.2313	-3.1562	-3.3417	-3.0854	-3.0021	-3.3208	-3.0646	-3.1708	-3.3646	-3.0458	-3.2458	383.879	432.534	212.317	430.293	219.810	434.406	161.477	314.648	375.530	270.733	379.346	183.994	397.859	398.484	157.933	141.058	0.00066604	0.00041095	6.4301e-05	1142	7.6883e-07	4.4895e-06	1211.6	237.2	3.4039e-06	3.4151e-06	291.9	81.547	64.873	18.067	1.1469e-06	25.632	0.00038176	0.00037974	0.00010545	1129.1	4.175e-06	4.1433e-06	1190.5	236.55	4.1679e-06	4.1568e-06	293.34	83.161	66.541	19.102	4.186e-06	26.881	298.149	235.357	120.204	111.460	404.558	373.046	111.446	118.715	247.788	446.709	118.131	125.127	125.750	131.914	246.642	131.320	-8191	255	
2544.955	1	1	0	0	0.11673	0.086003	0.077547	0.11579	0.13515	0.1453	0.18182	0.16459	0.15444	0.029573	0.19092	0.1843	0.20978	0.12366	0.12242	0.017369	-2.7271	-2.9062	-3.3646	-3.2104	-3.0396	-3.1396	-3.0563	-3.375	-3.2042	-2.9125	-3.25	-3.1042	-2.9292	-3.1292	-2.9521	-3.3125	224.971	147.167	132.038	176.911	176.134	331.058	361.116	164.726	212.401	135.036	103.203	378.362	162.640	189.549	284.313	152.397	0.00069972	0.00052501	0.00010735	1138.2	3.6469e-06	4.875e-06	1208	236.34	5.7452e-06	5.3542e-06	291.21	81.689	65.022	18.147	4.6882e-06	25.443	0.00038137	0.00037922	0.00010489	1127	4.1362e-06	4.1378e-06	1188.8	236.49	4.1339e-06	4.1118e-06	292.36	82.876	66.252	19.064	3.9686e-06	26.705	310.075	220.154	250.849	111.145	105.576	152.652	111.568	118.750	309.552	164.103	118.726	125.053	125.235	131.932	447.548	131.181	-8191	255	
2545.051	1	1	0	0	0.15726	0.22236	0.12454	0.2345	0.095509	0.17462	0.35555	0.037703	0.10607	0.25403	0.22975	0.11481	0.2747	0.12281	0.12306	0.1513	-2.6875	-2.9229	-3.3271	-3.0312	-3.0271	-3.2917	-3.0271	-3.3875	-3.2229	-2.9417	-3.2542	-3.2854	-3.0646	-3.4437	-3.0229	-3.0458	171.099	248.992	285.625	436.620	233.206	159.708	433.295	351.020	259.344	257.931	406.175	256.772	398.039	371.717	308.313	290.993	0.00040683	0.00020949	9.1753e-05	1141.7	7.8542e-06	5.2015e-06	1205.9	235.87	4.6968e-06	2.7526e-06	292.74	81.716	64.636	18.055	5.4297e-06	25.666	0.00036253	0.0003595	9.9157e-05	1123.2	3.9701e-06	3.9824e-06	1185.4	235.41	4.0033e-06	3.9861e-06	291.91	82.762	65.915	19.035	4.0757e-06	26.84	326.290	151.148	151.416	111.515	195.010	301.961	111.589	118.994	268.828	368.661	118.665	124.818	125.825	132.353	345.382	131.183	-8191	255	
2545.147	1	1	0	0	0.15518	0.1181	0.027961	0.09882	0.068919	0.20287	0.56706	0.10648	0.19314	0.24178	0.1179	0.0595	0.076701	0.092383	0.08369	0.20635	-2.7438	-2.9	-3.0896	-3.3833	-2.8708	-3.1354	-3.2458	-3.3396	-3.275	-3.025	-3.1188	-3.1146	-2.9479	-3.325	-3.1063	-3.1125	293.698	138.564	460.268	397.596	252.143	112.246	414.149	392.917	153.781	375.405	456.982	446.081	367.470	414.580	426.051	213.001	0.00074217	0.00042374	7.3188e-05	1137.7	8.1058e-06	7.8512e-06	1203	234.64	1.6564e-06	4.6022e-06	291.02	81.55	64.858	18.136	4.011e-06	25.545	0.0003728	0.00037462	0.00010415	1123.8	4.082e-06	4.0893e-06	1185.8	235.35	4.1002e-06	4.0716e-06	292.27	82.721	65.994	19.067	4.073e-06	26.753	324.060	295.892	139.147	111.622	278.525	203.130	111.472	118.887	384.814	277.434	118.564	124.960	125.437	132.309	165.471	131.281	-8191	255	
2545.244	1	1	0	0	0.15594	0.013357	0.15784	0.10126	0.2635	0.10765	0.17486	0.26035	0.081921	0.11749	0.17025	0.12374	0.15197	0.14687	0.26262	0.037244	-2.9729	-2.9875	-3.1417	-3.2396	-2.8521	-3.3271	-3.2979	-3.1458	-3.4042	-3.1208	-3.3208	-3.1063	-2.9313	-3.2271	-3.0187	-3.0354	157.552	178.387	303.312	354.811	249.706	159.868	447.233	401.072	257.650	256.175	369.042	424.675	321.616	405.380	111.475	392.633	0.0005255	0.00028093	0.0001885	1137.9	9.8537e-06	3.8365e-06	1203.3	236.36	2.217e-06	4.2697e-06	293.28	82.164	64.553	18.117	3.6937e-06	25.604	0.00037168	0.00037079	0.00010357	1121.5	4.0644e-06	4.0727e-06	1185	235.6	4.0592e-06	4.0663e-06	292.16	82.982	66.145	19.08	4.0893e-06	26.762	326.745	292.905	161.459	111.517	287.120	201.471	111.546	119.205	460.464	289.437	118.680	125.245	125.964	132.061	371.139	131.687	-8191	255	
2545.340	1	1	0	0	0.17157	0.032936	0.11444	0.21444	0.15094	0.27005	0.18754	0.11371	0.2162	0.011814	0.19852	0.09002	0.20324	0.1408	0.37837	0.088713	-2.7208	-2.9167	-2.9875	-3.0708	-2.8875	-3.2958	-3.1271	-3.1208	-3.2958	-2.8896	-3.1479	-3.1792	-3.0396	-3.0854	-3.2	-2.8063	233.408	316.083	359.072	377.996	374.546	398.938	360.634	423.464	151.558	119.522	387.825	375.522	407.786	447.870	434.296	299.007	0.00066213	5.165e-05	0.00013944	1139.2	5.1296e-06	1.8368e-06	1205.2	235	6.6233e-06	3.1901e-06	291.61	82.005	64.48	18.005	6.3436e-06	25.737	0.00037363	0.00037303	0.00010351	1122.8	4.0712e-06	4.1033e-06	1185.2	235.46	4.0835e-06	4.1263e-06	292.15	82.771	66.339	19.04	4.0393e-06	26.774	325.193	314.177	320.208	111.469	186.444	361.568	111.746	118.986	185.185	445.530	118.429	125.180	125.614	132.538	158.966	131.326	-8191	255	
2545.436	1	1	0	0	0.024514	0.16438	0.035433	0.18959	0.12356	0.08148	0.12177	0.28579	0.0086133	0.35727	0.14137	0.13527	0.12412	0.14375	0.17603	0.17559	-2.8812	-2.9562	-3.0083	-3.4083	-2.8354	-3.2375	-3.15	-2.9813	-3.2979	-2.9729	-3.0167	-3.3063	-2.9146	-3.1417	-3.0271	-2.9583	449.723	231.276	205.219	369.088	123.864	258.386	177.969	401.912	456.623	324.273	358.422	445.499	206.324	287.670	110.011	350.905	0.00067858	0.00042052	4.0385e-05	1135.4	1.1418e-06	2.2785e-06	1202.3	234.47	5.0923e-06	9.4209e-06	293.21	81.668	64.579	18.117	1.8185e-06	25.536	0.00036824	0.00036504	0.00010075	1121.7	3.9498e-06	3.9589e-06	1182.3	234.78	3.9284e-06	3.9476e-06	291.95	82.596	65.855	19.017	3.9423e-06	26.676	313.981	173.953	203.036	111.711	106.445	260.143	111.403	118.785	249.970	448.349	118.833	125.278	125.361	132.230	442.537	131.385	-8191	255	
2545.556	1	1	0	0	0.088775	0.18255	0.12573	0.379	0.12586	0.17918	0.13019	0.26076	0.15476	0.1117	0.042189	0.24774	0.2463	0.11936	0.0065057	0.039408	-2.7875	-3.0417	-2.9	-3.3167	-2.8937	-3.0875	-3.3979	-3.1354	-3.325	-3.1333	-3.0479	-3.3229	-2.9229	-3.0396	-3.1208	-2.9292	376.105	424.297	194.300	384.349	176.706	350.115	373.264	436.182	302.348	260.500	232.050	440.357	412.163	307.100	169.819	298.092	0.00064976	0.00029839	9.8602e-05	1135.9	9.548e-06	4.9965e-06	1202.4	235.08	1.1289e-05	5.9186e-06	293.04	81.513	64.411	17.99	2.7874e-06	25.782	0.00036213	0.00036529	0.00010037	1119.9	4.003e-06	3.9837e-06	1183.5	235.45	4.0551e-06	4.0263e-06	291.53	82.616	66.12	19.068	4.0402e-06	26.834	305.906	259.052	177.568	111.541	190.795	341.165	111.495	118.864	213.710	269.558	118.614	125.066	125.616	131.984	458.344	131.373	-8191	255	
2545.651	1	1	0	0	0.073987	0.10455	0.19018	0.09046	0.10174	0.12111	0.32397	0.25049	0.14566	0.14394	0.035574	0.076784	0.096347	0.15032	0.27051	0.20546	-2.7542	-3.0042	-2.975	-3.4667	-3.0938	-3.1479	-3.5417	-2.7854	-3.1375	-3.1312	-3.0229	-3.1646	-2.9917	-3.0625	-3.4229	-3.0792	215.218	337.431	233.119	455.771	439.555	448.046	404.144	429.019	220.714	160.282	152.007	295.235	359.950	254.643	375.468	397.548	0.00072441	0.00031844	8.2814e-05	1141.3	6.7783e-06	2.1877e-06	1200.5	236.35	1.5446e-06	4.2228e-06	290.07	81.811	64.027	17.985	2.9827e-06	25.696	0.00036663	0.00036562	0.00010059	1122.2	3.9913e-06	3.9646e-06	1182.9	235.43	3.9853e-06	3.9779e-06	290.73	82.648	65.757	18.979	3.9032e-06	26.706	326.820	215.394	234.779	111.368	277.990	135.249	111.431	118.978	291.902	155.384	117.799	125.181	125.415	132.294	417.003	131.577	-8191	255	
2545.749	1	1	0	0	0.14631	0.10168	0.26741	0.11383	0.17013	0.15793	0.41466	0.21104	0.068262	0.17487	0.1655	0.23455	0.21916	0.33125	0.21248	0.078164	-2.7042	-3.0271	-2.9208	-3.3063	-3.1917	-3.1708	-3.3854	-3.0125	-3.0208	-3.1312	-2.9833	-3.375	-3.2354	-3.2083	-3.4604	-3.0104	167.860	298.214	108.282	414.693	201.152	226.537	442.750	270.998	205.795	317.437	397.265	160.788	205.548	393.347	402.723	304.480	0.00073851	0.00050192	5.0304e-05	1136.1	1.4653e-06	5.0172e-06	1203.7	235.39	5.0998e-06	2.9509e-06	292.84	81.707	64.787	18.084	4.9031e-06	25.673	0.00036206	0.00035703	9.8793e-05	1120.8	3.8961e-06	3.8936e-06	1182.5	235.24	3.9427e-06	3.9298e-06	291.7	82.662	65.876	19.023	3.9609e-06	26.734	304.197	280.995	193.665	111.579	125.286	173.879	111.427	119.144	245.134	239.284	118.357	125.181	125.797	132.018	363.922	131.349	-8191	255	
2545.843	1	1	0	0	0.32427	0.23472	0.15548	0.27902	0.16887	0.1586	0.251	0.27675	0.10569	0.14307	0.21538	0.086096	0.28277	0.059818	0.20139	0.22316	-2.825	-3.0896	-2.9646	-3.3187	-3.1208	-2.9688	-3.3667	-3.3187	-3.2021	-3.05	-3.0542	-3.1021	-3.0375	-2.9896	-3.0521	-2.9604	127.814	280.401	441.413	440.134	215.027	158.447	387.692	311.556	252.267	102.728	113.781	402.846	408.362	323.084	347.978	125.834	0.00064743	0.00044882	3.373e-05	1139.8	6.7586e-06	1.6378e-07	1201.6	235.41	6.2704e-06	3.1758e-06	292.45	81.704	65.169	18.083	7.0937e-06	25.566	0.00036476	0.00036165	0.00010061	1121	3.9959e-06	3.9491e-06	1181.2	235.32	3.9813e-06	3.983e-06	291.8	82.723	66.188	18.973	4.0184e-06	26.767	334.460	243.700	237.233	111.407	252.255	232.439	111.436	118.825	175.701	202.878	118.629	125.027	125.165	131.949	399.719	131.287	-8191	255	
2545.939	1	1	0	0	0.21134	0.12432	0.28755	0.48252	0.12621	0.096003	0.13303	0.12109	0.28701	0.18137	0.22225	0.10159	0.15921	0.047031	0.036412	0.10996	-2.4917	-2.9771	-2.8083	-3.3667	-3.0583	-2.9396	-3.3625	-2.9042	-2.9188	-3.2896	-3.0542	-3.2708	-3.1813	-2.9167	-3.2917	-3.2354	353.802	323.215	448.765	444.408	198.213	253.650	360.994	375.420	433.115	117.864	121.139	412.389	413.142	345.534	370.430	419.367	0.00056306	0.0002309	6.3928e-05	1138.9	5.1944e-06	4.0091e-06	1205.5	236.17	1.096e-05	3.8608e-06	292.42	82.196	64.384	18.074	4.1507e-06	25.648	0.00036514	0.00036622	0.00010155	1121.1	3.9895e-06	3.9972e-06	1185	235.32	3.9691e-06	4.0091e-06	291.55	82.851	65.95	19.048	4.0287e-06	26.75	326.271	183.892	276.958	111.467	278.453	321.394	111.471	119.104	215.159	217.639	118.323	125.164	125.881	132.154	238.809	131.471	-8191	255	
2546.035	1	1	0	0	0.10109	0.26622	0.27922	0.030244	0.08229	0.16476	0.16485	0.20193	0.10417	0.25943	0.27953	0.16715	0.071775	0.054016	0.24337	0.16218	-2.7083	-3.0667	-2.9375	-3.2708	-2.9896	-2.9167	-3.425	-3	-2.8521	-3.1937	-3.0771	-3.2646	-3.1542	-3.0083	-3.3167	-3.0854	404.444	182.399	459.704	409.507	415.544	196.763	367.433	384.268	176.405	266.660	103.048	417.308	182.488	183.878	392.719	397.647	0.00091279	0.00030414	7.9566e-05	1136.2	1.8323e-06	3.0157e-06	1203	235.64	2.4839e-06	2.1017e-06	291.34	81.673	63.796	18.138	4.8681e-06	25.602	0.00036393	0.00036436	0.00010145	1120.2	3.95e-06	3.9443e-06	1182.4	235.2	3.9275e-06	3.9351e-06	291.45	82.692	65.674	18.979	3.8916e-06	26.697	332.784	346.418	255.136	111.499	363.764	258.967	111.464	118.813	122.390	156.714	118.334	125.025	125.378	132.254	210.610	131.797	-8191	255	
2546.156	1	1	0	0	0.26095	0.10638	0.081689	0.043891	0.27491	0.20801	0.084104	0.16198	0.094117	0.195	0.16395	0.22704	0.11269	0.071712	0.07363	0.072704	-2.4979	-3.1396	-2.9917	-3.3896	-3.1	-2.8792	-3.3792	-3.0458	-3.1104	-3.0729	-2.9667	-3.1167	-3.2687	-2.8479	-3.1646	-3.0833	394.516	276.197	171.157	372.731	283.904	416.338	450.220	398.333	265.450	261.204	104.385	399.242	415.054	342.227	278.584	434.585	0.00053511	0.00037016	4.2478e-05	1139.5	3.5958e-06	6.3411e-06	1201.1	234.81	4.3789e-06	1.8473e-06	292.88	81.308	64.399	18.01	4.2626e-06	25.401	0.00035768	0.00035471	9.8888e-05	1119.8	3.8772e-06	3.8807e-06	1181.8	235.22	3.9068e-06	3.9109e-06	291.51	82.52	65.738	18.969	3.8775e-06	26.622	334.081	175.874	458.823	111.398	286.822	231.146	111.366	118.937	443.973	116.326	118.069	125.039	125.443	132.511	274.425	131.494	-8191	255	
2546.252	1	1	0	0	0.19356	0.25946	0.097321	0.19085	0.064601	0.11118	0.11004	0.021029	0.21144	0.098907	0.12371	0.19848	0.069603	0.054472	0.054481	0.27064	-2.6354	-3.1625	-2.8458	-3.3396	-3.1188	-2.9604	-3.5354	-3.3833	-2.8896	-3.1771	-3.1063	-3.0583	-3.0542	-2.8958	-3.1813	-3.2771	344.387	424.309	293.281	383.097	288.600	332.240	392.272	266.614	188.888	226.732	143.271	357.336	230.972	349.901	428.056	127.523	0.00051762	0.00066453	0.00015178	1136.4	7.5998e-06	3.9666e-06	1202.3	236.26	3.0213e-06	1.2239e-06	293.63	81.583	63.989	18.048	6.6752e-06	25.572	0.00035466	0.00035184	9.7195e-05	1119.7	3.8551e-06	3.8396e-06	1180.9	235	3.8258e-06	3.8327e-06	291.18	82.341	65.369	18.929	3.8195e-06	26.654	339.027	279.913	231.901	111.361	190.087	315.822	111.413	118.692	254.121	187.684	118.495	125.248	125.737	132.167	320.938	131.512	-8191	255	
2546.348	1	1	0	0	0.24891	0.060321	0.10339	0.10696	0.24062	0.24809	0.11151	0.058071	0.080672	0.083068	0.045715	0.15603	0.041091	0.1539	0.10968	0.12674	-2.35	-3.2562	-2.9833	-3.1188	-3.2062	-3.0625	-3.2271	-3.1729	-3.0229	-3.2958	-3.225	-2.9542	-3.3729	-3.1604	-3.1542	-3.35	338.737	110.392	260.923	339.785	402.049	105.149	453.706	249.433	226.604	256.777	196.274	145.222	382.063	380.586	265.932	374.121	0.0006503	0.00027286	8.0297e-05	1139.8	6.7823e-06	3.0319e-06	1203.9	235.87	8.5599e-07	1.6056e-06	290.5	81.735	65.305	18.007	4.5817e-06	25.444	0.00035256	0.00034821	9.6323e-05	1119.9	3.7965e-06	3.8065e-06	1180.8	235.02	3.7614e-06	3.7975e-06	289.74	82.218	65.653	18.919	3.7942e-06	26.586	310.120	102.782	416.000	111.569	258.697	255.913	111.439	118.907	321.681	144.512	118.135	124.842	125.624	131.885	307.007	131.272	-8191	255	
2546.420	1	1	0	0	0.032833	0.21077	0.11599	0.16391	0.43765	0.068184	0.29133	0.22474	0.022509	0.029797	0.29944	0.066764	0.096988	0.24941	0.23729	0.059533	-2.3688	-3.2167	-3.0333	-3.1458	-3.1958	-2.9646	-3.1917	-3.4396	-2.7896	-3.125	-3.0917	-3.125	-3.375	-2.9521	-3.0187	-3.2042	200.068	144.510	309.424	396.191	344.100	145.812	358.096	397.270	249.573	104.440	429.117	349.471	263.015	457.078	449.029	233.575	0.00053092	0.00026339	5.5933e-05	1132.9	1.2418e-05	7.4994e-06	1204.6	235.45	2.1575e-06	3.907e-06	291.8	81.513	64.655	18.031	7.6432e-06	25.842	0.00034439	0.00034354	9.6258e-05	1118.8	3.769e-06	3.7777e-06	1181.3	234.74	3.759e-06	3.7696e-06	290.11	82.447	65.582	18.933	3.7524e-06	26.571	331.476	200.622	202.291	111.486	268.577	219.302	111.528	119.152	186.547	274.543	118.455	124.996	125.164	132.393	130.069	131.527	-8191	255	
2546.541	1	1	0	0	0.085414	0.090136	0.14267	0.15156	0.11204	0.22745	0.22409	0.19823	0.081454	0.11754	0.12094	0.19896	0.14365	0.38449	0.068584	0.086993	-2.4833	-3.1521	-3.1792	-2.9771	-3.2208	-3.0479	-3.0208	-3.4521	-3.0229	-3.4271	-3.3604	-2.8438	-3.4021	-3.0854	-3.0792	-3.3563	184.841	371.199	322.699	414.152	386.862	449.456	436.942	102.024	279.120	284.535	376.210	262.165	153.513	201.333	420.017	203.376	0.00045777	0.00040748	0.00018597	1135.2	9.1035e-07	1.2236e-06	1199.5	234.64	2.6818e-06	8.6249e-06	290.89	81.579	64.687	18.11	8.2347e-06	25.759	0.00034034	0.00033663	9.409e-05	1118.2	3.6483e-06	3.664e-06	1180.3	234.1	3.6602e-06	3.656e-06	289.11	82.196	65.286	18.889	3.6835e-06	26.623	334.884	350.725	206.294	111.462	433.112	135.324	111.273	118.917	280.269	305.014	118.248	125.081	125.336	132.147	131.415	131.447	-8191	255	
2546.635	1	1	0	0	0.040215	0.087114	0.15998	0.15031	0.056825	0.053945	0.17556	0.20534	0.22973	0.11725	0.11244	0.13814	0.10986	0.12544	0.25228	0.13866	-2.5208	-3.1771	-3.0438	-2.9521	-3.2271	-3.0292	-3.0521	-3.1813	-2.9521	-3.0667	-3.1854	-3.0479	-3.2083	-3.175	-2.9083	-3.2979	202.759	286.315	236.854	390.700	324.490	327.611	416.359	365.616	200.912	175.008	270.173	125.736	393.849	166.055	141.619	155.071	0.00057202	0.00045125	0.00015704	1134.8	1.0656e-06	7.2689e-06	1197.8	236.25	5.7955e-06	5.6246e-06	292	81.089	64.99	18.02	1.0356e-05	25.582	0.0003373	0.00033407	9.2114e-05	1115.5	3.665e-06	3.6447e-06	1178.1	234.38	3.5995e-06	3.6352e-06	288.97	82.082	65.258	18.869	3.6531e-06	26.504	320.987	167.322	258.534	111.717	137.525	335.312	111.536	118.847	342.481	196.135	118.310	125.122	126.129	132.282	246.953	131.189	-8191	255	
2546.731	1	1	0	0	0.2601	0.10758	0.029769	0.18789	0.1938	0.065304	0.12956	0.13837	0.020089	0.19	0.1211	0.25974	0.151	0.15056	0.16271	0.10302	-2.6833	-3.0625	-3.2854	-3.1375	-3.2229	-3.2354	-3.0167	-3.2396	-2.9854	-2.9896	-3.4958	-3.0167	-3.15	-3.1271	-2.8417	-3.3771	278.727	103.898	255.122	440.145	128.664	406.396	342.664	382.112	353.229	388.610	297.257	147.300	219.245	419.940	458.093	297.209	0.00065218	0.00010108	8.48e-05	1135.4	4.049e-06	4.1381e-06	1203.9	234.84	4.8322e-06	3.619e-06	291.08	81.643	64.008	18.042	2.5568e-06	25.461	0.00033722	0.00033487	9.3065e-05	1118	3.6681e-06	3.6678e-06	1179.8	234.19	3.6844e-06	3.6836e-06	289.11	82.112	65.148	18.86	3.682e-06	26.474	328.153	336.451	213.563	111.702	202.578	337.089	111.518	119.237	197.995	230.959	118.629	124.913	125.041	132.596	244.577	131.208	-8191	255	
2546.829	1	1	0	0	0.14484	0.198	0.1565	0.074519	0.13138	0.17649	0.27587	0.17329	0.097339	0.07946	0.15206	0.18097	0.25477	0.099431	0.10068	0.22899	-2.6792	-3.0917	-3.0438	-3.1083	-3.15	-3.4125	-3.0771	-3.3479	-2.775	-2.95	-3.3292	-3.0021	-3.0917	-3.2021	-2.7	-3.2313	167.579	373.762	404.586	289.936	370.304	130.240	412.833	433.241	356.351	175.277	330.665	390.558	289.214	193.353	304.949	330.369	0.00055001	0.00062975	6.9127e-05	1130.2	8.615e-06	2.231e-06	1196	236.82	4.8839e-06	8.2821e-06	291.76	81.446	64.515	17.943	1.0544e-05	25.65	0.00033248	0.00033057	9.2032e-05	1115.1	3.6139e-06	3.6677e-06	1176.2	234.6	3.6151e-06	3.6081e-06	288.89	82.048	65.211	18.852	3.6377e-06	26.534	311.900	284.725	235.499	111.637	297.899	204.012	111.551	118.988	161.468	307.791	118.802	124.960	125.940	132.188	263.922	131.178	-8191	255	
2546.948	1	1	0	0	0.15514	0.23019	0.10066	0.21009	0.056568	0.12623	0.18107	0.24394	0.020605	0.22548	0.09309	0.30462	0.21328	0.15492	0.021014	0.096326	-2.7875	-2.9604	-3.1188	-3.0896	-3.0708	-3.4104	-3.1521	-3.3167	-3.1146	-2.9479	-3.2646	-3.0417	-3.0687	-3.2	-2.9208	-3.1708	362.522	134.493	349.318	408.068	117.390	419.553	379.478	449.501	438.690	423.316	447.109	452.895	136.593	325.131	329.542	167.623	0.00084601	0.00029663	0.0001288	1133.3	4.9014e-06	6.449e-06	1201.6	235.38	1.5452e-06	3.1942e-06	291.77	81.931	65.175	18.11	4.9315e-06	25.669	0.00033129	0.00033515	9.1962e-05	1115.2	3.6589e-06	3.6402e-06	1180.2	233.92	3.6161e-06	3.6102e-06	289.01	82.19	65.248	18.847	3.5645e-06	26.504	322.394	257.600	159.545	111.580	314.514	246.556	111.657	118.741	273.728	119.984	118.455	125.046	125.457	132.369	279.285	131.446	-8191	255	
2547.020	1	1	0	0	0.073759	0.16734	0.077837	0.28491	0.1554	0.36918	0.33387	0.29397	0.093625	0.05518	0.13323	0.11426	0.26972	0.076866	0.06488	0.23081	-2.7208	-3.0042	-3.1562	-3.2104	-2.9458	-3.3229	-3.0667	-3.2167	-3.0729	-2.8708	-3.2958	-3.2292	-2.9896	-3.4313	-2.9062	-3.3083	438.163	233.883	346.723	454.071	241.428	341.880	361.823	375.757	339.795	377.198	387.963	233.555	427.063	153.311	270.913	398.056	0.0006335	0.00061226	0.00010492	1137.9	2.216e-06	5.1541e-06	1204.7	235.25	2.9422e-06	1.7522e-06	291.48	81.465	64.019	18.132	4.5567e-06	25.644	0.0003243	0.00032079	8.9624e-05	1117.7	3.5613e-06	3.5357e-06	1178.5	233.92	3.57e-06	3.588e-06	288.92	82.075	64.997	18.878	3.5987e-06	26.451	317.207	183.278	251.800	111.394	319.161	349.465	111.340	118.684	391.995	178.850	118.441	125.058	125.648	132.154	354.393	131.465	-8191	255	
2547.116	1	1	0	0	0.2429	0.24231	0.28115	0.14292	0.10737	0.20139	0.12154	0.09474	0.22155	0.13805	0.15711	0.18915	0.16248	0.21126	0.12409	0.17689	-2.4458	-2.9229	-3.1625	-3.2271	-2.9688	-3.375	-3.1312	-3.1479	-3.2167	-2.9958	-3.2562	-3.1125	-3	-3.2333	-3.1375	-3.225	381.124	239.873	428.111	411.299	162.836	219.510	427.806	424.935	342.203	359.333	188.773	109.496	230.832	446.298	278.421	433.661	0.00052741	8.9898e-05	0.00031083	1134.4	7.8587e-06	1.7771e-06	1200	235.62	8.8162e-06	4.4605e-06	289.72	81.632	64.655	18.018	6.1538e-06	25.67	0.00032741	0.00032723	8.9824e-05	1116.2	3.5488e-06	3.5262e-06	1176.9	234.15	3.5131e-06	3.506e-06	287.69	81.917	65.183	18.811	3.5232e-06	26.511	321.990	347.658	218.489	111.523	299.815	322.385	111.536	118.846	194.997	238.276	118.495	125.130	125.770	132.332	223.281	131.366	-8191	255	
2547.236	1	1	0	0	0.046321	0.21934	0.1603	0.43932	0.18301	0.091599	0.12667	0.33812	0.15604	0.15221	0.042446	0.076527	0.19132	0.14371	0.15946	0.10815	-2.7521	-2.8979	-3.1875	-3.3479	-3.1396	-3.3542	-3.3354	-3.1979	-3.2313	-3.0062	-3.2917	-3.2396	-3.025	-3.4354	-3.0771	-3.0917	445.384	214.300	433.475	437.229	433.999	378.504	390.289	383.151	102.523	210.789	128.314	144.147	437.299	447.306	333.716	388.099	0.00037794	0.00054496	8.4081e-05	1133.4	6.3709e-06	3.0971e-06	1201.9	236.06	5.5186e-06	4.7698e-07	290.63	81.716	64.194	18.005	4.3433e-06	25.71	0.00032493	0.000323	8.9429e-05	1114.8	3.5441e-06	3.536e-06	1179	234.24	3.5502e-06	3.5377e-06	288.64	82.063	64.901	18.816	3.4681e-06	26.455	290.734	218.612	210.951	111.365	204.136	331.997	111.622	118.912	281.917	259.949	118.218	124.901	125.654	132.253	347.330	131.459	-8191	255	
2547.333	1	1	0	0	0.065218	0.23055	0.23362	0.23075	0.059498	0.095205	0.47638	0.10484	0.065361	0.096556	0.016679	0.19013	0.11617	0.20066	0.2054	0.042202	-2.8812	-2.9292	-3.1	-3.3021	-3.0042	-3.3083	-3.1896	-2.9083	-3.1208	-3.2021	-3.1979	-3.1813	-2.7417	-3.1458	-3.2979	-3.125	243.115	140.818	338.147	387.998	281.147	336.315	408.373	234.909	365.216	221.705	291.794	447.785	135.793	456.785	316.004	170.274	0.00055031	0.0003738	8.6707e-05	1130.8	4.1395e-06	3.2383e-06	1199.2	235.3	2.4058e-06	3.5621e-06	290.95	81.524	63.865	18.114	7.6497e-06	25.455	0.00031874	0.00031604	8.8739e-05	1113.9	3.5328e-06	3.5285e-06	1175.2	233.59	3.5259e-06	3.5503e-06	288.99	82.05	64.963	18.816	3.5344e-06	26.404	319.287	215.992	345.372	111.435	188.559	313.484	111.640	118.936	384.992	247.821	118.051	124.916	125.279	132.425	247.704	131.636	-8191	255	
2547.429	1	1	0	0	0.1746	0.11434	0.09895	0.14038	0.18055	0.096238	0.36387	0.28939	0.035365	0.13479	0.055034	0.13521	0.14373	0.24245	0.066086	0.14386	-2.8	-2.9896	-3.0729	-3.3292	-2.875	-3.3521	-3.3229	-3.0833	-3.2812	-3.0958	-3.1417	-3.3917	-2.9	-3.3688	-3.0812	-2.925	169.415	163.913	363.231	389.369	150.522	200.439	382.054	400.263	333.870	454.090	346.914	127.813	201.385	435.922	135.364	385.065	0.0005896	4.6751e-05	4.2496e-05	1135.4	1.1388e-05	4.991e-06	1203.5	234.17	5.758e-07	1.2036e-06	292.09	81.239	64.634	18.113	2.6845e-06	25.542	0.00031726	0.00031636	8.7204e-05	1112.9	3.4099e-06	3.4093e-06	1176.3	232.99	3.3832e-06	3.3742e-06	287.78	81.651	64.788	18.73	3.3546e-06	26.347	323.985	160.820	421.622	111.482	256.676	255.543	111.221	119.014	330.052	385.570	118.263	125.213	125.610	132.282	361.918	131.235	-8191	255	
2547.549	1	1	0	0	0.009554	0.055938	0.047436	0.087537	0.10776	0.075989	0.34381	0.13042	0.14362	0.15763	0.075533	0.29841	0.22678	0.13854	0.32368	0.3097	-2.9333	-3.0479	-2.8458	-3.5687	-3.0208	-3.2708	-3.3167	-2.9458	-3.2583	-2.9854	-3.0292	-3.4083	-2.9562	-3.1792	-3.2667	-3.0208	215.698	245.630	132.085	403.275	194.184	372.345	412.422	343.753	287.789	418.748	213.087	435.168	163.431	108.646	262.137	311.828	0.00068425	0.00047578	0.00010126	1138.1	6.9994e-06	9.461e-06	1197	234.74	3.9738e-06	3.0437e-06	291.12	81.907	64.985	17.978	2.9973e-06	25.495	0.00030732	0.00030732	8.542e-05	1114.6	3.3798e-06	3.4167e-06	1172.6	232.99	3.3794e-06	3.3769e-06	287.36	81.848	64.81	18.708	3.3522e-06	26.322	320.391	237.669	277.642	111.416	321.786	168.694	111.261	118.934	227.926	271.753	118.727	124.777	125.569	132.465	319.762	131.368	-8191	255	
2547.644	1	1	0	0	0.23484	0.03881	0.23778	0.17507	0.26406	0.17612	0.18698	0.087181	0.13543	0.092663	0.054409	0.22812	0.15236	0.22795	0.24897	0.20951	-2.9146	-2.975	-3.0729	-3.5271	-2.9167	-3.2021	-3.2458	-3.0104	-3.3896	-3.0854	-3.0625	-3.4646	-3.0792	-3.1979	-3.4	-3.0375	288.902	422.773	117.107	325.199	225.767	360.600	398.200	401.324	192.753	225.867	358.965	417.695	271.433	437.351	423.726	430.841	0.00052647	0.0002057	0.00011158	1138.3	5.7505e-06	1.0134e-05	1196.5	235.57	9.2397e-07	1.3625e-06	292.28	81.729	64.332	17.861	6.1474e-06	25.448	0.00030967	0.00030492	8.4265e-05	1112.9	3.3047e-06	3.3097e-06	1172.6	232.91	3.2801e-06	3.2956e-06	287.07	81.637	64.519	18.633	3.3145e-06	26.287	331.336	198.160	199.959	111.453	160.713	213.597	111.494	118.947	136.388	429.020	118.498	125.195	125.044	131.873	250.035	131.760	-8191	255	
2547.717	1	1	0	0	0.07517	0.17317	0.093907	0.11974	0.25782	0.12901	0.091351	0.10134	0.024723	0.10403	0.21269	0.23886	0.085495	0.23617	0.082657	0.10428	-2.8312	-3.0458	-2.9437	-3.4104	-2.9604	-3.0563	-3.5875	-3.0958	-3.0687	-3.0625	-2.975	-3.3854	-3.0229	-3.1479	-3.3812	-2.9854	374.011	352.291	223.128	430.777	342.400	353.717	380.559	181.409	116.951	201.072	177.657	452.736	403.911	209.390	420.285	346.867	0.00062702	0.00041805	7.6834e-05	1133.3	1.1743e-06	7.2905e-06	1205.5	236.39	3.8544e-06	4.1146e-06	289.97	81.688	65.001	18.021	1.7869e-06	25.712	0.00029996	0.00030129	8.3728e-05	1113.2	3.2928e-06	3.2856e-06	1177	233.34	3.3021e-06	3.2801e-06	286.34	81.838	64.538	18.698	3.2897e-06	26.319	321.761	363.604	125.545	111.579	308.214	210.344	111.589	118.813	178.057	237.200	118.180	125.017	125.205	132.197	144.654	131.552	-8191	255	
2547.836	1	1	0	0	0.21313	0.27501	0.27986	0.065338	0.19174	0.17499	0.20427	0.10629	0.2479	0.055646	0.19716	0.31087	0.18709	0.15788	0.15973	0.11661	-2.7292	-3.1604	-2.7354	-3.5375	-3.0229	-2.9771	-3.4604	-3.2125	-3.15	-3.2396	-3.0396	-3.3792	-3.1813	-3.0083	-3.2729	-3.0104	178.450	355.171	412.497	258.958	336.469	344.129	375.452	310.651	257.848	150.020	412.149	411.763	103.810	188.431	389.525	425.457	0.00055286	0.00011548	0.00011435	1133.5	1.9598e-06	3.0819e-06	1201	235.84	7.3785e-06	3.4508e-06	292.23	81.693	64.525	17.955	2.0883e-06	25.511	0.00030174	0.00029546	8.3441e-05	1112.6	3.237e-06	3.2714e-06	1176.7	233.24	3.2605e-06	3.3016e-06	287.14	81.789	64.478	18.722	3.3512e-06	26.29	327.688	191.824	299.701	111.332	353.176	203.983	111.545	118.767	216.489	257.817	118.151	125.150	125.540	132.009	177.638	131.224	-8191	255	
2547.932	1	1	0	0	0.14156	0.11209	0.16683	0.25764	0.20815	0.11875	0.25286	0.23158	0.12272	0.20517	0.298	0.10376	0.1005	0.070066	0.12854	0.27262	-2.6604	-3.2042	-2.9042	-3.4083	-2.9458	-3.0833	-3.4854	-3.0104	-3.1333	-3.1729	-3	-3.3708	-3.1937	-3.0167	-3.1083	-3.0875	260.750	157.553	388.239	404.230	420.542	175.168	107.503	453.181	145.557	402.526	350.140	355.949	105.284	102.428	438.424	328.896	0.00066381	0.00039255	9.314e-05	1136.1	5.9376e-06	7.8971e-06	1200.9	234.36	5.8456e-06	4.2593e-06	292.19	82.142	64.546	17.98	9.5728e-06	25.598	0.00030513	0.00030393	8.4211e-05	1114.5	3.2692e-06	3.3109e-06	1176.8	232.97	3.3082e-06	3.3035e-06	286.86	81.813	64.565	18.675	3.3108e-06	26.376	319.278	199.330	254.102	111.548	257.063	410.745	111.472	118.908	189.037	175.995	118.459	125.105	125.774	132.193	302.525	131.308	-8191	255	
2548.028	1	1	0	0	0.1247	0.077536	0.17121	0.34065	0.082249	0.20848	0.17	0.059836	0.078295	0.13086	0.069038	0.18244	0.20009	0.18625	0.17976	0.11336	-2.6479	-3.2375	-2.8458	-3.3583	-3.2042	-2.9813	-3.4667	-3.1479	-3.1229	-3.4083	-2.9313	-3.1771	-3.0938	-2.7958	-3.2396	-2.9458	215.445	359.910	138.907	351.008	335.180	414.552	405.036	433.929	339.968	178.062	280.343	423.352	394.802	453.534	375.892	388.118	0.00075716	0.00050638	0.00013525	1138.1	5.6084e-06	3.8081e-06	1201.5	235.85	3.56e-06	7.5366e-06	291.63	81.632	64.281	18.171	3.1662e-06	25.614	0.00030415	0.00029781	8.254e-05	1114.8	3.2744e-06	3.2388e-06	1177.5	233.15	3.2445e-06	3.2347e-06	287.17	81.778	64.466	18.735	3.2405e-06	26.252	307.866	230.998	135.171	111.409	190.769	277.967	111.280	118.949	274.945	212.064	118.625	125.301	125.752	132.352	153.221	131.667	-8191	255	
2548.125	1	1	0	0	0.077411	0.13291	0.12981	0.13885	0.073568	0.12357	0.10954	0.37422	0.087611	0.20568	0.19504	0.33508	0.31035	0.26155	0.21702	0.25719	-2.5396	-3.2167	-2.7958	-3.25	-3.0271	-2.8646	-3.4125	-3.1354	-2.9437	-3.1562	-3.0896	-3.1896	-3.3042	-2.9437	-3.1937	-3.05	452.185	433.020	128.972	379.027	406.372	279.165	376.655	430.244	314.812	404.631	253.368	122.352	114.690	441.961	279.136	418.017	0.00077471	0.0003643	0.00012914	1136.4	9.1963e-06	1.2681e-06	1203.7	235.85	2.4797e-06	2.6949e-06	293.2	81.855	65.25	18.105	3.8994e-06	25.581	0.00029819	0.0002948	8.2913e-05	1115.1	3.2579e-06	3.2684e-06	1178.7	233.49	3.289e-06	3.2627e-06	287.19	81.781	64.729	18.724	3.3097e-06	26.3	324.175	162.938	213.232	111.469	232.087	280.822	111.493	118.802	243.364	367.205	118.454	124.990	125.832	132.153	188.910	131.377	-8191	255	
2548.245	1	1	0	0	0.34412	0.18526	0.18095	0.13938	0.14311	0.32744	0.38949	0.21807	0.053316	0.21898	0.10817	0.16696	0.15323	0.10182	0.059191	0.22334	-2.4271	-3.1083	-2.9188	-3.1771	-3.2687	-3.0333	-3.4625	-3.2375	-2.9167	-3.1479	-3.0604	-3.1229	-3.325	-3.0375	-3.1896	-2.9938	352.313	424.147	190.527	417.670	311.096	139.178	391.410	373.570	384.676	266.162	305.858	337.000	330.361	397.765	318.671	135.863	0.00069743	0.00029123	8.4016e-05	1135.9	9.9826e-06	3.0327e-06	1204.7	235.7	5.0515e-06	2.8369e-06	293.01	81.961	64.505	18.125	3.215e-06	25.59	0.00030645	0.00030272	8.4159e-05	1117.1	3.3055e-06	3.3112e-06	1178.9	233.63	3.3108e-06	3.3286e-06	288.33	81.868	64.711	18.78	3.3813e-06	26.394	317.122	177.511	146.593	111.631	220.256	395.482	111.758	118.797	292.821	270.031	118.627	124.682	125.546	132.415	250.578	131.471	-8191	255	
2548.317	1	1	0	0	0.19511	0.28509	0.35297	0.20306	0.040456	0.11614	0.21786	0.20744	0.14385	0.074157	0.24702	0.19933	0.04055	0.060636	0.15292	0.13117	-2.6104	-3.2333	-3.1542	-3.1396	-3.4188	-3.0792	-3.2292	-3.2792	-2.9625	-3.2979	-3.1417	-3.0771	-3.475	-3.0187	-3.0521	-3.1896	105.165	298.630	403.832	379.570	103.798	356.301	432.735	426.690	443.539	207.266	381.551	365.221	211.705	193.755	266.473	249.952	0.00050888	0.00023794	6.0062e-05	1140.3	6.2332e-06	2.6461e-06	1206.8	235.47	4.0766e-06	5.1832e-07	292.55	81.379	64.821	18.05	7.1486e-06	25.671	0.00030693	0.00030567	8.4553e-05	1116.9	3.339e-06	3.3137e-06	1179.2	233.61	3.3177e-06	3.3074e-06	287.35	82.022	64.865	18.776	3.3662e-06	26.417	316.944	246.904	201.545	111.447	233.416	200.881	111.362	118.851	271.129	280.622	118.233	125.340	125.234	132.211	215.251	131.348	-8191	255	
2548.413	1	1	0	0	0.13812	0.068718	0.072236	0.13425	0.081902	0.042341	0.14867	0.045247	0.26227	0.096858	0.30861	0.047931	0.051028	0.17968	0.079171	0.11605	-2.4229	-3.2125	-3.1479	-2.9646	-3.2104	-2.9854	-3.3146	-3.3208	-2.7938	-3.0875	-3.1125	-3.1604	-3.3583	-2.9771	-3.1042	-3.4292	189.023	156.955	410.225	401.206	345.136	354.711	407.001	400.912	455.522	449.243	346.240	219.213	330.972	256.184	172.729	298.285	0.00062197	0.00045079	0.00016478	1138.1	5.9139e-06	3.7653e-06	1205.6	235.09	9.9055e-06	6.4122e-06	293.64	81.877	64.653	18.232	1.2363e-06	25.774	0.00030937	0.00030594	8.4876e-05	1118.4	3.3278e-06	3.2856e-06	1180.1	233.91	3.325e-06	3.2955e-06	287.98	81.858	64.67	18.798	3.2619e-06	26.404	314.438	238.035	320.431	111.297	192.997	181.936	111.380	118.854	236.597	195.257	117.813	125.063	125.645	132.480	238.430	131.567	-8191	255	
2548.509	1	1	0	0	0.16485	0.079663	0.18623	0.25892	0.11883	0.060668	0.1054	0.26603	0.15413	0.11807	0.11577	0.19109	0.22935	0.12107	0.15369	0.33296	-2.525	-3.1875	-2.9979	-3.1292	-3.2292	-3.1312	-3.1792	-3.4208	-3.1042	-3.1583	-3.2375	-3.1083	-3.2792	-3.1104	-3.125	-3.3271	197.009	166.987	321.809	404.303	418.705	130.118	371.580	344.339	197.281	331.238	336.110	423.160	367.219	442.771	259.007	104.170	0.00042954	0.00032185	0.00017573	1138.2	4.2612e-06	4.6842e-06	1205.6	236.5	9.1925e-07	3.4057e-06	290.2	81.707	65.143	18.015	1.0438e-05	25.881	0.00030086	0.00029858	8.2656e-05	1116.4	3.2528e-06	3.2058e-06	1179.7	233.62	3.2496e-06	3.2539e-06	287.05	81.717	64.687	18.724	3.2066e-06	26.345	327.823	254.128	231.519	111.495	264.958	317.569	111.336	119.036	187.356	242.242	118.639	124.974	125.064	132.363	269.565	131.255	-8191	255	
2548.630	1	1	0	0	0.18855	0.034622	0.067811	0.18785	0.12198	0.31031	0.29289	0.16567	0.080379	0.12814	0.082201	0.037417	0.19049	0.15163	0.084185	0.18553	-2.5229	-3.0458	-3.1521	-2.825	-3.2021	-3.1458	-3.2396	-3.2521	-3.15	-3.1771	-3.1583	-2.9146	-3.2708	-3.0958	-3.0792	-3.3667	272.724	181.061	244.350	437.621	448.071	270.768	357.579	394.379	438.187	263.355	407.217	230.237	183.309	103.213	279.504	314.427	0.00057899	0.00039674	9.9882e-05	1136	7.2722e-06	8.3299e-06	1202.9	237	9.6109e-06	4.604e-06	293.78	81.613	64.44	18.227	5.82e-06	25.587	0.00029683	0.00029256	8.1064e-05	1116.8	3.1898e-06	3.1893e-06	1178.6	233.76	3.1669e-06	3.1954e-06	287.43	81.775	64.426	18.737	3.2014e-06	26.306	327.452	187.458	133.018	111.617	225.962	228.323	111.405	119.192	257.587	287.924	118.431	125.352	125.106	132.379	345.425	131.319	-8191	255	
2548.724	1	1	0	0	0.066381	0.047967	0.096245	0.19423	0.11787	0.19149	0.10822	0.20989	0.14819	0.14469	0.26359	0.11765	0.13581	0.11134	0.024013	0.22556	-2.5521	-3.0479	-3.1813	-2.8937	-3.2167	-3.1417	-3.1646	-3.5854	-3.2208	-3.1583	-3.1833	-3.0708	-3.2375	-3.2042	-2.9542	-3.2792	280.046	368.712	133.638	100.952	244.699	254.711	201.656	405.279	232.192	253.201	122.742	161.595	387.786	358.927	134.050	354.312	0.00059352	0.00010967	0.0001971	1141.3	6.5947e-06	4.9737e-06	1205.5	237.75	1.6147e-06	2.1469e-06	294.1	81.425	64.879	18.126	2.7931e-06	25.73	0.00029469	0.00028872	8.0006e-05	1118.1	3.1807e-06	3.1581e-06	1180.4	234.17	3.1885e-06	3.1421e-06	286.82	81.731	64.353	18.677	3.0727e-06	26.253	331.898	366.321	221.293	111.607	175.752	374.330	111.521	118.836	358.878	358.709	118.354	125.281	125.552	132.023	198.492	131.410	-8191	255	
2548.820	1	1	0	0	0.19512	0.17061	0.088382	0.076146	0.062088	0.11539	0.15286	0.15132	0.080095	0.068674	0.33232	0.14114	0.094078	0.041347	0.16477	0.17254	-2.4646	-3.1125	-3.2812	-3.0458	-3.2333	-3.1521	-3.1229	-3.2687	-3.1583	-2.9354	-3.2125	-3.0667	-3.2	-3.1917	-2.8187	-3.1854	332.402	114.617	290.937	268.068	111.262	113.709	365.803	285.289	212.699	425.115	215.907	106.619	408.501	452.596	200.384	339.844	0.00066288	0.00022742	0.00013811	1137	5.5537e-06	5.9132e-06	1209.6	236.62	2.3094e-06	3.3132e-06	293.43	81.934	64.675	18.179	5.9205e-07	25.657	0.00028233	0.00027919	7.7344e-05	1115	3.0871e-06	3.0801e-06	1178.4	233.75	3.0893e-06	3.1139e-06	286.52	81.709	64.35	18.652	3.0815e-06	26.234	309.177	171.306	270.336	111.525	258.639	283.760	111.419	118.847	317.674	219.714	118.231	124.983	125.469	132.333	338.175	131.415	-8191	255	
2548.916	1	1	0	0	0.16121	0.11877	0.097217	0.20673	0.067118	0.20453	0.21614	0.20552	0.087586	0.11856	0.19801	0.080779	0.041654	0.10298	0.21779	0.16925	-2.6375	-2.9896	-3.2938	-3.0062	-3.1729	-3.2562	-3.0292	-3.2792	-3.0271	-3.0938	-3.2625	-3.175	-3.3333	-3.2146	-3.0375	-3.2104	192.359	243.429	338.469	349.677	394.723	267.990	304.627	432.305	194.393	399.136	423.458	425.756	174.072	338.128	356.127	246.464	0.00057751	0.00013806	0.00013938	1139	3.8843e-06	6.7861e-06	1206.5	236.15	1.1255e-05	2.6259e-06	292.25	82.234	64.553	18.173	3.7089e-06	25.633	0.00028193	0.00027815	7.7157e-05	1115.3	3.0304e-06	3.0252e-06	1179.2	233.49	3.0114e-06	3.0279e-06	285.96	81.716	64.199	18.652	3.008e-06	26.218	321.617	313.840	182.925	111.503	197.922	266.398	111.466	118.873	257.242	231.893	118.152	124.882	125.396	132.154	336.109	131.649	-8191	255	
2549.013	1	1	0	0	0.093649	0.039632	0.20464	0.097286	0.062813	0.064926	0.03598	0.038923	0.15453	0.057539	0.12109	0.12711	0.10104	0.16866	0.12226	0.087314	-2.8333	-2.7729	-3.2687	-3.0875	-2.9688	-3.0687	-3.2125	-3.2375	-3.1417	-2.8646	-3.4208	-2.8438	-2.9646	-3.2188	-2.925	-3.2208	451.875	343.013	299.169	346.797	305.415	299.940	384.287	354.553	297.035	387.463	355.345	142.083	322.503	440.782	129.551	147.349	0.00051576	0.00024832	0.00014695	1134.3	5.5007e-06	8.5377e-06	1207.2	236.7	2.7559e-06	5.6559e-06	292.87	81.785	65.015	18.08	1.3058e-05	25.432	0.00027757	0.00027455	7.637e-05	1113.2	3.0002e-06	2.9479e-06	1178.9	233.69	2.9674e-06	2.9853e-06	286.06	81.613	64.39	18.636	2.9633e-06	26.129	315.708	129.211	308.778	111.434	171.275	209.246	111.590	118.911	397.628	191.721	118.795	124.770	125.525	132.392	305.897	131.419	-8191	255	
2549.109	1	1	0	0	0.12537	0.072783	0.19091	0.34116	0.20132	0.17247	0.27164	0.23644	0.050381	0.13511	0.20118	0.35945	0.35418	0.34217	0.060566	0.26766	-2.5792	-2.8396	-3.2708	-3.2354	-2.9062	-3.275	-3.1208	-3.1104	-3.2375	-2.85	-3.2438	-3.2438	-2.9792	-3.1917	-2.9188	-3.2771	380.479	352.444	308.222	413.385	139.967	341.466	369.306	390.320	105.268	204.778	162.464	454.374	375.245	371.067	118.418	340.788	0.0005745	0.00041322	0.0003471	1140	5.8498e-06	2.3993e-06	1203.8	237.73	5.6519e-06	6.5384e-07	292.88	82.168	64.664	18.111	3.505e-06	25.557	0.00027726	0.00027127	7.5774e-05	1115.3	3.0167e-06	2.9776e-06	1177	233.31	3.0053e-06	2.9839e-06	286.18	81.665	64.184	18.605	3.0003e-06	26.212	324.905	204.988	182.311	111.641	210.623	303.540	111.526	119.018	255.826	300.890	118.222	124.894	125.152	132.218	414.814	131.261	-8191	255	
2549.229	1	1	0	0	0.14661	0.25481	0.13017	0.018318	0.25122	0.13738	0.34637	0.17867	0.069276	0.20998	0.21113	0.23246	0.062134	0.16498	0.10597	0.10733	-2.8917	-2.8063	-3.1562	-3.3063	-2.8271	-3.3292	-3.2667	-3.0979	-3.3771	-3.2771	-3.2021	-3.2562	-2.8875	-3.3875	-2.9479	-3.1188	125.896	363.169	265.893	419.569	237.789	216.163	109.733	110.999	365.535	339.272	413.549	383.219	447.064	203.305	426.907	457.088	0.00044616	0.00027609	0.00016042	1140.6	6.0148e-06	2.7865e-06	1203.5	235.64	5.3889e-06	3.6945e-06	294.19	81.894	65.504	18.11	5.6917e-06	25.676	0.00027632	0.00027367	7.625e-05	1115.7	3.0127e-06	3.0066e-06	1177.2	233.11	2.9694e-06	2.9971e-06	286.51	81.376	64.281	18.613	2.9852e-06	26.204	313.170	209.378	254.150	111.455	186.452	236.702	111.359	118.676	265.615	241.316	118.474	124.764	125.432	132.154	275.230	131.314	-8191	255	
2549.324	1	1	0	0	0.18608	0.15615	0.27078	0.21584	0.088796	0.035251	0.25315	0.19298	0.19863	0.32876	0.17816	0.13427	0.19195	0.12138	0.10312	0.18317	-2.8812	-2.9521	-3.1417	-3.1667	-2.9042	-3.1167	-3.1604	-3.0812	-3.2625	-2.9292	-3.1604	-3.3688	-2.7313	-3.2167	-3.0312	-3.2771	260.942	310.138	300.149	406.270	212.484	400.766	103.666	439.193	406.493	131.407	104.230	386.150	332.477	119.199	170.516	426.625	0.00068565	0.00077335	0.00028467	1140.6	9.7838e-06	4.0837e-06	1205.5	235.91	1.1513e-06	3.4174e-06	292.37	81.232	65.077	18.101	2.7553e-06	25.804	0.00027675	0.00027192	7.6257e-05	1115.4	3.0072e-06	2.9956e-06	1176.6	233.04	2.9716e-06	2.9623e-06	285.95	81.552	64.187	18.661	2.9309e-06	26.17	314.069	267.931	186.330	111.548	233.794	255.755	111.204	118.776	450.806	401.421	118.740	124.970	125.562	132.280	382.395	131.611	-8191	255	
2549.420	1	1	0	0	0.10996	0.20439	0.21589	0.11132	0.10059	0.23846	0.24003	0.1114	0.13297	0.13776	0.040144	0.23922	0.094837	0.2792	0.235	0.11574	-2.8312	-3.0521	-2.9208	-3.3333	-2.8521	-3.1979	-3.2458	-2.9521	-3.3167	-3.1667	-3.0979	-3.3479	-3.0083	-3.2375	-3.0104	-2.9729	358.128	262.898	125.941	393.529	255.499	413.347	404.981	407.863	272.142	270.882	272.305	131.725	252.082	420.455	389.706	370.973	0.00061766	0.00024596	2.5973e-05	1135.5	3.7657e-06	9.1295e-06	1204.9	236.61	4.9704e-06	5.4718e-06	294.97	82.101	65.006	18.226	5.4899e-06	25.703	0.00027115	0.0002686	7.4188e-05	1113.3	2.9181e-06	2.9359e-06	1176	233.24	2.9569e-06	2.986e-06	286.51	81.826	64.333	18.677	3.0168e-06	26.23	322.939	171.557	202.304	111.410	204.052	190.633	111.395	118.891	253.043	393.948	118.134	125.074	125.145	131.980	267.276	131.224	-8191	255	
2549.541	1	1	0	0	0.12285	0.16682	0.037898	0.20889	0.14963	0.10286	0.22013	0.20963	0.049255	0.12033	0.23593	0.22476	0.29752	0.19016	0.031327	0.21093	-2.8708	-2.9917	-3.0438	-3.4604	-2.9313	-3.2896	-3.4229	-2.9146	-3.4583	-3.2875	-2.9938	-3.1896	-2.8	-3.2417	-3.2	-2.9146	120.524	438.552	151.985	114.750	109.508	168.786	385.487	334.831	163.632	346.502	414.072	372.531	392.049	281.878	406.656	414.563	0.00061049	0.00027583	6.8227e-05	1141.2	9.0792e-07	6.6723e-06	1205.7	237.27	6.3505e-06	2.0426e-06	294.16	82.22	64.888	18.314	7.8133e-06	25.709	0.00028177	0.00027635	7.6881e-05	1115.9	3.0254e-06	3.0114e-06	1178.8	233.69	3.0353e-06	3.0019e-06	287.24	81.768	64.332	18.73	3.034e-06	26.253	319.831	210.818	195.674	111.735	143.954	251.130	111.384	118.878	203.141	212.487	118.630	124.835	125.363	131.887	287.739	131.172	-8191	255	
2549.612	1	1	0	0	0.13008	0.16492	0.13952	0.1515	0.19298	0.056971	0.27292	0.16208	0.18426	0.13169	0.11976	0.1711	0.17028	0.22733	0.2236	0.18881	-2.9667	-2.9	-2.9729	-3.4646	-3.15	-3.1583	-3.4625	-2.9146	-3.1437	-2.9146	-3.0021	-3.4479	-3.125	-3.1083	-3.2125	-3.0125	287.120	367.007	178.291	255.102	332.053	145.900	401.174	375.078	180.767	120.249	106.840	180.307	404.427	164.042	284.260	436.606	0.00067868	0.00060829	6.8849e-05	1139.7	9.9483e-07	6.6347e-06	1205.8	236.96	2.513e-06	4.7541e-06	292.16	81.994	65.146	18.164	8.5671e-06	25.613	0.00027934	0.00027299	7.6251e-05	1116.8	2.9715e-06	2.9751e-06	1178.1	233.57	2.9366e-06	2.9552e-06	285.67	81.593	64.235	18.63	2.8948e-06	26.12	308.794	205.003	213.389	111.512	249.522	170.289	111.441	118.797	216.651	203.354	118.173	124.998	125.580	132.386	213.479	131.206	-8191	255	
2549.708	1	1	0	0	0.10082	0.31938	0.24419	0.18707	0.046445	0.1006	0.25109	0.24455	0.19476	0.16044	0.22243	0.12011	0.23949	0.16523	0.014437	0.090419	-2.7708	-3.1771	-2.9792	-3.3875	-2.9771	-3.1042	-3.2604	-3.1729	-3.2417	-3.2792	-3.2042	-3.4292	-3.15	-3.0938	-3.2667	-3.0521	432.110	345.419	297.379	413.830	443.346	354.423	406.687	435.870	275.994	155.135	214.979	221.287	391.430	401.158	327.022	392.220	0.00064141	0.00029324	0.00014944	1136	5.9294e-06	2.0392e-06	1207.9	236.83	6.973e-06	9.2604e-07	293.02	82.349	65.051	18.152	9.2186e-06	25.858	0.00026868	0.0002635	7.3947e-05	1113.9	2.9104e-06	2.9068e-06	1178.9	233.23	2.8947e-06	2.9136e-06	285.58	81.688	64.102	18.647	2.9015e-06	26.222	322.612	279.036	148.966	111.435	346.282	232.741	111.550	118.912	290.567	252.527	118.167	124.902	125.363	132.396	240.146	131.195	-8191	255	
2549.805	1	1	0	0	0.12402	0.075571	0.13951	0.082474	0.1758	0.22204	0.24402	0.032714	0.23935	0.34295	0.029494	0.14521	0.18661	0.13885	0.086262	0.12431	-2.7375	-3.0604	-2.9958	-3.4333	-2.9646	-3.1271	-3.4458	-2.9021	-3.2396	-3.2646	-3.0292	-3.3688	-2.9979	-3.0958	-3.1729	-3.0458	141.414	205.474	254.051	288.960	393.186	455.425	442.514	266.694	303.464	232.250	436.170	253.675	130.699	316.110	245.396	191.859	0.00051557	0.00015672	0.00019164	1140.6	7.926e-06	6.9627e-06	1205.4	235.78	2.5295e-06	3.4594e-06	294.89	82.267	65.05	18.261	3.1441e-06	25.757	0.00026881	0.00026109	7.3731e-05	1114.6	2.8948e-06	2.892e-06	1177.3	233.17	2.8565e-06	2.8603e-06	286.09	81.69	64.05	18.637	2.8539e-06	26.19	326.608	413.455	217.052	111.479	229.552	300.662	111.569	118.936	204.280	112.133	118.663	125.167	125.486	132.346	287.471	130.979	-8191	255	
2549.901	1	1	0	0	0.14491	0.16021	0.10458	0.33511	0.11247	0.12786	0.31596	0.1137	0.06966	0.24416	0.13344	0.10986	0.10191	0.059072	0.027852	0.15943	-2.8667	-3.1979	-2.9229	-3.3937	-3.0062	-2.9604	-3.5312	-3.0042	-3.1312	-3.2292	-2.9792	-3.3542	-3.3708	-2.8812	-3.275	-3.1417	320.835	247.750	133.150	459.657	302.367	167.209	112.488	280.917	264.049	137.090	293.548	133.514	412.790	387.261	356.039	200.896	0.00060159	0.00054033	1.0598e-05	1141.9	2.5649e-06	3.4673e-06	1210.5	235.62	6.2396e-06	2.3746e-06	292.84	82.359	65.136	18.134	1.0259e-05	25.786	0.00026369	0.00025924	7.2887e-05	1115.6	2.8536e-06	2.8469e-06	1179.9	232.7	2.8975e-06	2.912e-06	286.25	81.681	64.148	18.637	2.9383e-06	26.173	334.253	242.234	371.358	111.477	205.238	176.769	111.503	118.960	288.920	139.732	118.393	124.981	124.921	132.304	224.950	131.753	-8191	255	
2550.020	1	1	0	0	0.18086	0.20029	0.072867	0.35024	0.21964	0.14198	0.23021	0.35841	0.12767	0.06658	0.10791	0.18133	0.088224	0.30875	0.21749	0.11936	-2.6458	-3.2292	-2.975	-3.4375	-3.1521	-3.0312	-3.5062	-3.2667	-3.2771	-3.3917	-3.1333	-3.3208	-3.1583	-2.9708	-3.3479	-3.1604	231.254	119.356	332.301	454.931	228.919	157.645	353.768	444.202	335.645	414.033	382.826	451.614	428.442	305.457	190.049	375.433	0.00065574	9.4086e-05	5.046e-05	1141.3	4.7971e-06	3.3245e-06	1207.7	235.87	4.0982e-06	3.0028e-06	295.39	82.263	64.627	18.215	4.3959e-06	25.651	0.00027173	0.00027043	7.3634e-05	1116	2.9026e-06	2.8893e-06	1178.7	233.11	2.9313e-06	2.8843e-06	286.59	81.579	64.079	18.615	2.9184e-06	26.181	314.474	321.419	402.456	111.482	235.269	181.641	111.376	118.839	213.887	178.424	118.276	124.936	125.571	132.167	219.529	131.221	-8191	255	
2550.116	1	1	0	0	0.21284	0.22453	0.22876	0.17234	0.18581	0.22779	0.37571	0.092538	0.012138	0.14424	0.17467	0.14919	0.20561	0.33841	0.11032	0.10733	-2.7687	-3.325	-2.8729	-3.3542	-3.2104	-2.6979	-3.3875	-3.0854	-3.0687	-3.4875	-3.1042	-3.075	-3.1708	-3.0208	-3.2583	-3.1604	303.423	372.429	256.806	177.641	452.157	156.440	386.044	359.736	417.830	298.036	293.655	426.562	412.669	390.838	201.105	253.694	0.00049663	0.00040661	2.3917e-05	1140.4	6.3502e-06	5.5683e-06	1210.1	235.6	9.0159e-06	7.2661e-06	293.58	82.1	65.256	18.212	7.6936e-06	25.8	0.00026658	0.00026259	7.3246e-05	1115.3	2.884e-06	2.9028e-06	1178.2	232.88	2.8749e-06	2.8576e-06	285.62	81.671	64.217	18.613	2.8082e-06	26.219	340.760	195.620	245.713	111.444	198.755	182.129	111.380	119.066	256.632	351.280	118.268	125.143	125.316	132.535	260.997	131.493	-8191	255	
2550.189	1	1	0	0	0.075154	0.14531	0.21471	0.24222	0.066557	0.17584	0.23554	0.058587	0.14825	0.0089426	0.18636	0.24131	0.28814	0.36835	0.13678	0.32761	-2.5563	-3.1937	-2.9958	-3.2333	-3.4604	-2.9958	-3.4042	-3.0875	-2.875	-3.2208	-2.95	-3.1833	-3.1604	-3.0042	-3.0479	-3.1146	186.550	343.660	202.135	446.749	314.070	297.062	350.214	179.541	107.459	229.168	365.356	401.500	151.820	162.324	203.337	383.340	0.00049552	0.00024855	0.00015917	1140	6.6583e-06	3.5999e-06	1211.6	237.31	3.9899e-06	2.476e-06	294.88	81.791	64.647	18.096	1.1053e-05	25.764	0.00026207	0.0002556	7.0463e-05	1115.3	2.7862e-06	2.7877e-06	1178.9	233.07	2.7987e-06	2.7816e-06	285.07	81.332	63.949	18.558	2.742e-06	26.148	310.400	201.493	142.309	111.493	247.121	200.999	111.458	118.979	147.794	247.142	118.311	125.347	125.657	132.092	276.428	131.527	-8191	255	
2550.308	1	1	0	0	0.18219	0.32642	0.2391	0.16886	0.089988	0.080553	0.32323	0.32002	0.14439	0.13245	0.27914	0.23413	0.095667	0.12024	0.24502	0.14724	-2.5187	-3.2167	-3.1229	-3.1813	-3.3417	-2.975	-3.3375	-3.2625	-2.9229	-3.4875	-3.3354	-2.9813	-3.3271	-3.0667	-3.05	-3.1646	359.577	395.564	289.848	359.521	151.345	372.512	372.381	436.275	221.333	286.372	420.931	202.861	358.476	443.592	259.304	371.063	0.00050601	0.00020381	0.00024803	1137.8	4.1945e-06	1.3878e-06	1209.8	236.19	9.1917e-07	5.5676e-06	293.78	81.813	65.057	18.071	2.6119e-06	25.678	0.00025262	0.00024849	6.8684e-05	1113	2.7225e-06	2.7097e-06	1177	232.65	2.7358e-06	2.7348e-06	285.33	81.234	63.684	18.55	2.69e-06	26.073	336.409	281.063	198.499	111.506	297.664	220.182	111.501	118.751	307.001	189.777	118.784	125.201	125.618	131.961	290.873	131.236	-8191	255	
2550.404	1	1	0	0	0.11984	0.12839	0.2011	0.13318	0.27298	0.086164	0.13846	0.10384	0.18038	0.025638	0.19575	0.32777	0.12285	0.035996	0.17671	0.095723	-2.5438	-3.2146	-3.0771	-3.1083	-3.1896	-3.1646	-3.3292	-3.2562	-3.0271	-3.3792	-3.2	-2.8771	-3.2687	-3.0625	-3.0854	-3.2917	105.345	256.442	457.673	434.866	259.438	282.876	389.162	327.693	132.040	226.067	358.650	331.356	374.751	313.992	121.020	109.465	0.00053897	0.00042485	3.3039e-05	1138.2	3.3808e-06	5.2587e-06	1208.1	236.59	5.4977e-06	1.8591e-06	292.72	81.786	64.834	18.331	8.2357e-06	25.76	0.00024874	0.00024531	6.6949e-05	1113.1	2.6384e-06	2.6278e-06	1176.4	232.62	2.6882e-06	2.6659e-06	284.41	81.206	63.636	18.525	2.6858e-06	26.031	340.651	245.914	262.513	111.422	240.606	285.266	111.323	118.451	232.012	337.199	118.796	125.257	125.322	132.374	260.866	131.332	-8191	255	
2550.500	1	1	0	0	0.065233	0.17006	0.095413	0.28694	0.24432	0.14558	0.08353	0.16684	0.19363	0.26934	0.15742	0.14596	0.16392	0.18074	0.25755	0.086241	-2.5458	-3.2042	-3.1875	-2.9896	-3.3292	-3.0875	-3.2958	-3.3771	-2.9792	-3.2313	-3.125	-2.9083	-3.3958	-3.1813	-3.0354	-3.3417	191.169	123.114	222.164	407.973	195.747	121.860	364.575	363.494	235.593	288.558	240.749	444.412	127.713	332.298	201.754	409.927	0.00078074	0.00043754	0.00013165	1139.7	6.0024e-06	2.9752e-06	1206.6	237.37	1.9453e-06	2.6823e-06	293.15	81.737	64.949	18.167	4.0441e-06	25.592	0.00024977	0.00024658	6.8337e-05	1112.9	2.6886e-06	2.6727e-06	1176.9	232.67	2.636e-06	2.6258e-06	284.03	81.151	63.685	18.535	2.6564e-06	26.067	320.626	203.777	262.979	111.476	232.397	182.254	111.602	118.774	183.917	334.657	118.444	125.092	126.043	132.100	251.616	131.358	-8191	255	
2550.621	1	1	0	0	0.16502	0.24401	0.3413	0.11946	0.15502	0.070255	0.35328	0.22545	0.10141	0.085791	0.092358	0.13371	0.037409	0.21984	0.1718	0.12486	-2.4875	-3.1729	-3.0521	-3.0708	-3.3729	-2.9771	-3.3604	-3.3875	-2.9271	-3.3625	-3.125	-2.9562	-3.3	-3.1354	-2.9833	-3.3563	139.050	203.468	241.989	290.761	409.399	112.634	421.532	450.859	150.683	112.687	282.985	105.768	449.597	454.187	452.619	406.160	0.00053914	0.00049773	0.00012444	1139	6.0238e-06	3.6221e-06	1204	236.52	3.4806e-06	5.3434e-07	292.46	81.898	65.204	18.157	6.1452e-06	25.583	0.00024484	0.00024184	6.7581e-05	1112	2.6445e-06	2.6496e-06	1175	232.04	2.6377e-06	2.601e-06	283.95	81.056	63.723	18.541	2.5993e-06	25.95	311.930	191.789	109.255	111.398	146.032	122.636	111.419	119.097	222.227	410.677	117.871	125.163	125.780	131.916	262.190	131.416	-8191	255	
2550.717	1	1	0	0	0.089248	0.056642	0.29466	0.38415	0.15157	0.063177	0.21314	0.26053	0.023335	0.13029	0.082629	0.065989	0.21337	0.15918	0.20744	0.08519	-2.6854	-3.1208	-3.2625	-2.9208	-3.2083	-3.0729	-3.1937	-3.25	-3.1312	-2.9167	-3.2875	-2.8333	-3.3146	-3.1813	-3.0042	-3.3312	439.185	120.143	217.350	421.101	151.520	407.943	409.032	336.570	236.963	126.926	458.351	233.865	329.400	131.920	167.794	420.923	0.00062791	0.00031062	4.2939e-05	1140.8	5.1746e-06	2.4147e-06	1207.2	236.72	3.9668e-06	3.4523e-06	293.48	82.185	65.137	18.21	7.3139e-07	25.764	0.00023915	0.00023715	6.4755e-05	1110.6	2.5608e-06	2.552e-06	1173.6	231.85	2.5506e-06	2.5217e-06	283.57	81.124	63.487	18.494	2.5596e-06	26.009	317.487	129.315	209.269	111.528	161.325	168.381	111.490	118.615	179.753	225.588	118.421	125.155	125.515	132.032	255.616	131.368	-8191	255	
2550.813	1	1	0	0	0.17303	0.20629	0.16668	0.19494	0.11595	0.15304	0.23562	0.16673	0.13056	0.20869	0.036047	0.14543	0.11909	0.14865	0.23224	0.15719	-2.5167	-3.0771	-3.4292	-3.1521	-3.2	-3.1312	-3.0542	-3.1604	-2.8042	-2.8667	-3.3479	-3.1208	-3.2271	-3.0771	-2.7729	-3.2062	390.493	181.439	381.239	402.906	361.748	318.487	364.864	373.992	183.384	239.108	357.924	388.431	266.974	134.351	140.614	162.793	0.00055248	0.00065058	0.00010483	1136.9	6.4974e-06	1.8525e-06	1204.9	235.97	4.6952e-06	4.6724e-06	294.42	82.356	65.111	18.087	3.3397e-06	25.676	0.00023656	0.00023347	6.4846e-05	1111.8	2.5642e-06	2.5455e-06	1174.9	232.19	2.5769e-06	2.5365e-06	284.11	81.208	63.493	18.445	2.5739e-06	25.968	329.002	214.260	199.674	111.689	269.448	247.257	111.452	118.653	234.450	151.166	118.368	124.617	125.753	132.120	204.984	131.510	-8191	255	
2550.909	1	1	0	0	0.25224	0.082856	0.12053	0.18435	0.096919	0.37032	0.18433	0.24408	0.10686	0.16335	0.08756	0.020099	0.16547	0.24314	0.22136	0.14875	-2.6583	-2.9833	-3.1542	-3.0708	-3.2021	-2.9625	-3.05	-3.1708	-3.1875	-2.9562	-3.2042	-3.0708	-3.2125	-3.1708	-2.8854	-3.0812	123.448	215.160	449.995	404.641	350.200	230.816	395.551	445.366	107.538	313.109	279.074	435.514	127.856	257.092	261.543	432.369	0.00051539	0.00032221	0.00013947	1133.7	2.1671e-06	5.6632e-06	1208.6	235.68	3.3451e-06	4.4538e-06	293.05	81.535	64.737	18.188	5.7227e-06	25.793	0.00023689	0.00023193	6.4884e-05	1110.1	2.5265e-06	2.5127e-06	1174.7	231.62	2.4768e-06	2.4681e-06	283.05	81.124	63.374	18.455	2.5502e-06	25.999	304.614	427.619	202.202	111.696	261.641	141.521	111.524	118.745	300.356	211.999	118.068	125.249	125.439	132.344	189.683	131.228	-8191	255	
2551.006	1	1	0	0	0.10954	0.21793	0.11213	0.20738	0.19159	0.20248	0.24867	0.23446	0.15881	0.18313	0.11543	0.0013532	0.18429	0.15692	0.27362	0.20662	-2.5021	-2.9125	-3.2396	-3.3208	-3.025	-3.1083	-2.9083	-3.1604	-3.0875	-2.9146	-3.3521	-2.9604	-3.0917	-3.3458	-2.8812	-3.1042	131.169	444.069	238.885	402.786	324.291	347.833	429.560	434.834	254.464	335.897	162.684	180.000	105.394	369.979	200.997	441.112	0.00045709	0.00025367	5.1934e-05	1137.9	2.9288e-06	7.3241e-06	1206.1	234.65	1.8936e-06	4.1154e-06	294.17	81.687	64.778	18.164	3.1988e-06	25.877	0.00023628	0.0002315	6.3828e-05	1111	2.5089e-06	2.5482e-06	1174.1	231.6	2.5724e-06	2.5512e-06	284.13	81.118	63.486	18.492	2.5429e-06	26.015	303.607	157.667	135.936	111.348	196.391	242.952	111.593	118.604	400.751	411.017	118.345	124.721	125.374	132.617	254.830	131.649	-8191	255	
2551.100	1	1	0	0	0.1485	0.13581	0.079185	0.051539	0.12956	0.10093	0.20072	0.054206	0.088683	0.11519	0.23602	0.24509	0.3307	0.2793	0.35014	0.29844	-2.7	-2.7292	-3.1312	-3.2125	-3.0146	-3.275	-3.1521	-3.0917	-3.2646	-2.8458	-3.2417	-3.0833	-2.95	-3.2062	-3.0021	-3.0979	332.366	450.329	234.435	380.406	414.432	278.259	375.105	406.364	325.670	255.580	244.650	376.120	355.810	317.960	434.683	128.717	0.00068602	0.00038628	7.8687e-06	1135.5	4.3348e-06	3.4898e-06	1204.8	236.11	4.4376e-06	3.2311e-06	293.7	81.74	64.874	18.252	9.4755e-06	25.831	0.00023461	0.00023205	6.4443e-05	1110.4	2.5061e-06	2.4903e-06	1173.3	231.79	2.4592e-06	2.4673e-06	283.53	80.9	63.16	18.466	2.4742e-06	25.889	325.375	217.581	184.232	111.395	186.839	155.691	111.645	119.058	234.803	281.512	118.014	124.840	125.842	132.376	279.701	131.186	-8191	255	
2551.221	1	1	0	0	0.1926	0.32574	0.038896	0.01118	0.27223	0.10755	0.16499	0.11594	0.16309	0.20154	0.052484	0.30787	0.20901	0.24071	0.18948	0.09645	-2.7333	-2.8333	-3.2458	-3.4021	-2.9979	-3.3104	-3.1688	-2.9875	-3.1125	-2.9229	-3.2958	-3.2104	-2.9688	-3.2812	-2.9354	-3.1125	184.261	286.605	380.627	101.198	447.772	313.488	410.109	267.722	134.601	431.552	436.220	388.065	453.955	426.343	164.132	303.919	0.00079669	0.00017207	0.00012669	1136.1	2.8504e-06	6.9281e-06	1201.1	236.68	3.2586e-06	5.5082e-06	294.5	82.513	64.571	18.156	9.6805e-06	25.687	0.0002299	0.00022251	6.2989e-05	1110.3	2.4933e-06	2.4755e-06	1174	231.89	2.5069e-06	2.5179e-06	284.48	81.198	63.301	18.452	2.5391e-06	25.98	315.565	407.524	147.096	111.403	222.516	273.603	111.554	119.042	366.254	236.627	118.467	125.376	125.911	132.050	236.625	131.406	-8191	255	
2551.317	1	1	0	0	0.107	0.10707	0.064569	0.42094	0.151	0.29904	0.25893	0.18691	0.10032	0.10852	0.10996	0.26019	0.11285	0.16619	0.075683	0.093231	-2.9271	-2.7979	-3.3354	-3.175	-2.8583	-3.3271	-3.3396	-2.9479	-3.3479	-2.8875	-3.1562	-3.0625	-3.0042	-3.2333	-2.9938	-2.9854	386.112	192.011	272.004	379.049	332.455	267.590	378.105	422.975	145.084	245.493	251.958	445.107	109.572	169.677	222.711	176.407	0.00062708	0.0001983	0.00011582	1137.2	5.9315e-06	5.3596e-06	1206.8	236.51	7.1277e-06	3.228e-06	293.92	82.202	65.235	18.167	5.6986e-06	25.869	0.00023041	0.0002268	6.281e-05	1110.1	2.4595e-06	2.4756e-06	1173	231.75	2.466e-06	2.4297e-06	283.39	81.084	63.436	18.434	2.4556e-06	25.995	335.610	191.138	135.546	111.523	270.233	378.075	111.195	118.834	208.581	304.326	118.215	124.957	125.390	132.161	127.929	131.710	-8191	255	
2551.413	1	1	0	0	0.23771	0.23224	0.22924	0.15306	0.073362	0.19887	0.13876	0.34846	0.26017	0.32087	0.13823	0.25016	0.24663	0.048161	0.3584	0.089335	-2.8688	-2.9854	-3.1479	-3.1937	-2.8542	-3.325	-3.2083	-2.9813	-3.2438	-3.1312	-3.1312	-3.3063	-3.0479	-3.2417	-3.2792	-2.875	252.613	435.502	124.958	313.270	457.756	120.421	320.509	148.737	289.781	371.014	304.209	346.825	226.217	211.063	235.374	130.599	0.00061379	0.00010543	6.3046e-05	1134.5	3.4567e-06	4.8298e-06	1206.4	237.46	4.8181e-06	5.9932e-06	293.29	82.125	65.116	18.109	4.8338e-06	25.889	0.00023026	0.00022653	6.2881e-05	1109.2	2.5246e-06	2.5046e-06	1174.1	232.08	2.535e-06	2.5508e-06	283.88	81.216	63.417	18.471	2.5017e-06	25.994	320.921	259.245	420.023	111.409	228.421	133.896	111.601	118.865	220.938	234.106	118.188	125.096	125.585	132.135	242.290	131.227	-8191	255	
2551.485	1	1	0	0	0.18803	0.092101	0.28737	0.35375	0.14118	0.13089	0.1828	0.22286	0.21021	0.17866	0.06659	0.20768	0.0095333	0.13007	0.28686	0.19733	-2.8563	-2.8542	-3.0458	-3.3375	-2.7396	-3.0729	-3.1833	-2.8125	-3.4437	-2.9458	-3.1771	-3.2875	-2.9521	-3.0771	-3.0667	-2.9354	304.720	432.418	334.620	397.404	150.764	113.940	408.007	391.070	103.658	366.050	414.502	414.090	395.311	335.711	143.166	281.040	0.00081058	0.00017162	0.00020153	1139.3	5.0387e-06	4.4715e-06	1205.8	236.11	4.7995e-06	4.7079e-06	292.92	82.628	64.79	18.205	3.7683e-07	25.641	0.0002317	0.00022532	6.343e-05	1109.6	2.5017e-06	2.4723e-06	1173.3	231.8	2.4593e-06	2.4728e-06	283.07	81.182	63.37	18.458	2.4576e-06	25.973	318.570	257.282	206.154	111.686	233.775	252.427	111.444	119.011	102.312	213.857	118.553	124.983	125.391	132.100	346.182	131.390	-8191	255	
2551.581	1	1	0	0	0.20754	0.16673	0.20552	0.10561	0.34143	0.15881	0.32543	0.040264	0.10086	0.17954	0.052566	0.36359	0.14351	0.16764	0.097451	0.19025	-2.8833	-2.9313	-2.8542	-3.4792	-2.8146	-3.2042	-3.3	-2.9604	-3.2125	-3.1646	-2.8729	-3.3083	-2.9125	-3.2417	-3.1104	-2.8563	280.055	360.634	409.785	447.389	450.158	320.100	373.826	325.638	439.129	420.906	350.871	447.505	344.188	457.032	126.841	397.072	0.00061256	5.8104e-05	0.00015737	1138.9	2.9942e-06	6.3973e-06	1206.7	236.79	7.4284e-06	7.9849e-07	294.16	82.424	64.98	18.224	1.6616e-06	25.675	0.00022811	0.0002279	6.2336e-05	1111.6	2.4827e-06	2.4912e-06	1175.6	232.22	2.5041e-06	2.4822e-06	283.74	81.139	63.459	18.443	2.4741e-06	25.95	316.999	400.984	165.561	111.504	258.063	190.171	111.372	118.853	229.899	109.932	118.353	124.900	125.994	132.098	107.615	131.462	-8191	255	
2551.701	1	1	0	0	0.16244	0.075432	0.31052	0.19969	0.13599	0.29827	0.2899	0.12335	0.21569	0.076491	0.20006	0.10729	0.090414	0.2359	0.28478	0.19523	-2.8229	-3.0896	-2.6646	-3.4396	-2.9875	-3.1833	-3.3896	-3.2083	-3.2125	-2.9437	-3.3	-3.2604	-3.05	-3.1292	-3.3354	-2.8542	152.626	135.211	402.812	345.565	242.346	328.395	378.313	332.991	245.743	251.273	363.213	132.617	399.312	332.332	239.967	275.167	0.00048314	0.00018821	0.0001527	1138.3	4.3226e-06	4.2186e-06	1209.8	237.67	2.7685e-06	5.8214e-06	293.14	82.26	64.667	18.266	2.9689e-06	25.735	0.00022926	0.00022472	6.3341e-05	1112.7	2.487e-06	2.4598e-06	1176.3	232.38	2.4613e-06	2.4425e-06	283.06	81.239	63.306	18.469	2.46e-06	25.912	315.535	242.253	250.103	111.474	218.903	151.016	111.414	118.889	153.034	205.752	118.135	125.008	125.468	132.062	300.431	131.510	-8191	255	
2551.798	1	1	0	0	0.060873	0.046909	0.10899	0.24332	0.071762	0.17612	0.30027	0.44581	0.057742	0.17079	0.17745	0.1966	0.023791	0.065881	0.092161	0.29217	-2.7021	-2.9875	-2.7542	-3.4333	-2.925	-2.9146	-3.25	-2.8688	-3.05	-3.1458	-2.8729	-3.3083	-3.1542	-2.9292	-3.2188	-2.9771	133.492	443.162	377.351	368.010	200.076	104.293	443.635	408.901	325.364	284.899	401.894	188.501	326.085	261.178	394.691	394.682	0.00066721	2.9619e-05	5.0878e-05	1142.1	1.4066e-06	4.1442e-06	1206.3	238.11	3.4227e-06	3.3988e-06	294.24	82.084	65.1	18.062	2.3532e-06	25.945	0.00023017	0.00022495	6.2522e-05	1111.9	2.4909e-06	2.4873e-06	1173.5	232.36	2.4922e-06	2.4563e-06	283.11	81.046	63.386	18.433	2.4614e-06	26.065	319.176	238.677	323.012	111.511	247.877	310.103	111.457	118.894	264.129	177.595	118.148	124.765	125.237	132.136	452.649	131.471	-8191	255	
2551.894	1	1	0	0	0.22212	0.14955	0.12127	0.19526	0.1012	0.099794	0.20992	0.090701	0.1624	0.26731	0.089515	0.081449	0.24274	0.055347	0.046433	0.072696	-2.7771	-3.1188	-2.8583	-3.3646	-2.8937	-2.8729	-3.425	-3.0083	-3.1521	-3.2104	-3.0271	-3.2708	-3.1188	-2.875	-3.2104	-3.0458	166.165	435.653	450.109	123.677	285.524	233.221	436.762	390.614	284.790	168.860	365.770	437.521	130.590	146.964	379.033	303.964	0.00063339	0.00025592	0.00014702	1138.6	7.2693e-06	9.2915e-07	1204.2	238.36	2.6061e-06	3.346e-06	293.08	81.994	65.165	18.326	2.9558e-06	25.637	0.00023174	0.00022481	6.2532e-05	1111.3	2.4624e-06	2.4244e-06	1174.4	232.23	2.4605e-06	2.4329e-06	283.5	81.168	63.254	18.502	2.4486e-06	25.954	316.381	170.313	107.691	111.301	232.626	211.160	111.394	118.879	330.679	389.514	118.297	125.021	125.424	132.393	266.709	131.252	-8191	255	
2551.990	1	1	0	0	0.16252	0.35464	0.26268	0.077533	0.022855	0.039616	0.22465	0.07343	0.067369	0.24519	0.50802	0.21374	0.10633	0.098929	0.17363	0.11345	-2.7271	-3.2313	-2.8146	-3.2417	-3.0146	-2.7958	-3.4958	-2.9813	-3.0187	-3.1979	-2.9062	-3.425	-3.1063	-2.8708	-3.1542	-3.1688	256.757	338.877	353.631	398.675	191.219	397.226	326.436	338.248	165.446	146.695	431.518	377.714	152.660	279.344	449.001	450.084	0.00067684	0.00037151	0.00012871	1139.3	6.2986e-06	6.64e-06	1210.2	236.75	8.9376e-06	1.8103e-06	293.98	82.267	64.758	18.188	4.7636e-06	25.861	0.0002281	0.00022443	6.1517e-05	1109.6	2.4318e-06	2.4106e-06	1175.1	232.16	2.3889e-06	2.3447e-06	282.39	81.111	62.972	18.438	2.3767e-06	25.968	308.475	173.976	127.666	111.499	279.256	264.694	111.423	118.942	270.782	299.792	118.286	125.271	125.611	131.983	285.569	131.223	-8191	255	
2552.086	1	1	0	0	0.26236	0.15224	0.10093	0.28211	0.14088	0.33298	0.1775	0.19566	0.088088	0.060571	0.19899	0.10669	0.1464	0.16632	0.12071	0.052686	-2.625	-3.1312	-2.9208	-3.2875	-3.0104	-2.9021	-3.375	-3.0458	-3.0354	-3.2188	-2.8854	-3.1063	-3.0729	-3.0583	-3.2542	-3.1875	207.210	256.094	439.184	332.568	146.158	243.661	454.802	445.838	347.353	262.249	302.547	389.155	386.043	441.495	403.626	215.420	0.00058895	0.00037889	8.4716e-05	1134.8	5.2461e-06	5.3285e-07	1207.7	236.63	5.0572e-06	1.8849e-06	294.42	82.458	65.096	18.17	5.2626e-06	25.792	0.00022401	0.00021948	6.1379e-05	1108.4	2.4428e-06	2.4218e-06	1174.8	232.21	2.4356e-06	2.4216e-06	283.43	81.301	63.36	18.467	2.442e-06	26.024	301.573	184.482	219.735	111.469	184.103	364.487	111.472	119.135	158.984	157.303	118.409	124.845	125.227	132.494	364.708	131.352	-8191	255	
2552.182	1	1	0	0	0.079344	0.07667	0.28619	0.17772	0.15043	0.046933	0.37636	0.19752	0.17506	0.35854	0.10882	0.067143	0.23396	0.22889	0.19926	0.2063	-2.5187	-3.1417	-2.95	-3.2896	-3.2104	-2.9417	-3.2708	-3.1833	-2.9104	-3.375	-2.9562	-3.2042	-3.1583	-3.0458	-3.1083	-3.1542	283.426	333.554	209.665	345.206	310.314	265.939	410.322	404.754	244.999	419.193	313.989	225.928	299.885	433.594	269.200	362.701	0.00064057	0.00032167	2.9776e-05	1135.5	1.1392e-06	5.9462e-06	1207	236.67	4.8611e-06	3.6335e-06	292.21	81.711	64.876	18.098	2.3914e-06	25.742	0.00022726	0.00022395	6.1868e-05	1110	2.4276e-06	2.456e-06	1174.5	231.92	2.5207e-06	2.5036e-06	283.21	81.148	63.429	18.477	2.5815e-06	26.018	318.438	300.057	194.151	111.600	249.404	227.283	111.475	118.781	215.595	372.167	118.208	125.324	125.198	131.994	249.598	131.310	-8191	255	
2552.301	1	1	0	0	0.19317	0.057859	0.10495	0.25053	0.018449	0.13567	0.22078	0.06243	0.13749	0.18643	0.069752	0.15746	0.12952	0.067457	0.10718	0.38123	-2.5583	-3.3083	-2.8979	-3.3521	-3.1688	-2.9938	-3.4979	-3.0667	-2.8583	-3.3937	-3.0021	-3.1042	-3.2771	-2.9792	-3.1021	-3.2938	198.271	350.501	361.918	361.790	421.056	340.341	354.459	369.830	125.457	254.124	247.301	381.692	355.802	230.489	153.166	383.778	0.0005033	0.00023722	8.9174e-05	1142.7	1.6133e-06	4.2445e-06	1209	237.36	7.8859e-06	1.489e-06	295.95	82.242	64.973	18.211	1.4442e-06	25.693	0.00024057	0.00023455	6.5692e-05	1114.7	2.5369e-06	2.5272e-06	1176.2	232.25	2.5308e-06	2.491e-06	284.12	81.213	63.364	18.447	2.3931e-06	25.927	326.958	208.065	227.095	111.545	245.040	324.309	111.465	119.021	251.731	164.190	118.383	124.941	125.182	132.289	324.433	131.240	-8191	255	
2552.397	1	1	0	0	0.17411	0.2429	0.15411	0.31254	0.14862	0.11539	0.25559	0.31226	0.14351	0.06084	0.21661	0.06652	0.19796	0.15464	0.13306	0.079709	-2.4708	-3.3229	-2.8521	-3.0292	-3.0687	-2.8521	-3.2875	-3.3125	-2.7854	-3.2604	-3.2292	-2.9125	-3.3646	-3.0229	-3.0375	-3.3833	167.941	180.750	283.763	411.194	198.811	127.227	364.208	433.157	309.514	375.653	405.617	162.269	417.888	185.516	101.085	196.941	0.00066542	0.00015408	0.00010984	1139.7	3.9309e-06	7.2377e-06	1209.8	237.04	3.6566e-06	1.726e-06	295.43	82.48	64.73	18.204	5.1605e-06	25.801	0.00022215	0.00021429	6.0145e-05	1108.7	2.3834e-06	2.3358e-06	1173.8	231.48	2.3831e-06	2.3741e-06	283.5	81.133	63.176	18.481	2.4163e-06	25.963	315.047	137.206	242.663	111.592	222.587	305.481	111.588	118.764	185.514	127.488	118.028	125.103	126.368	132.242	228.742	131.333	-8191	255	
2552.493	1	1	0	0	0.21674	0.031435	0.077343	0.16068	0.28878	0.10404	0.2023	0.13351	0.1155	0.21389	0.29311	0.23513	0.015211	0.15364	0.24908	0.17434	-2.625	-3.2417	-2.95	-3.0542	-3.2667	-3.1125	-3.3771	-3.2833	-3.025	-3.2979	-3.2438	-2.8458	-3.4271	-3.0438	-3.0833	-3.4708	294.117	221.275	329.698	413.272	266.708	451.868	382.407	314.242	288.030	201.293	361.361	122.158	112.097	313.465	437.548	228.348	0.00057758	0.00023487	8.7325e-05	1140	6.1442e-06	2.4302e-06	1205.4	236.87	1.6582e-06	1.5593e-06	295.81	82.475	64.744	18.275	2.1432e-06	25.789	0.00022587	0.0002234	6.1584e-05	1110.3	2.4641e-06	2.4337e-06	1172.6	231.89	2.421e-06	2.3977e-06	284.04	81.232	63.256	18.489	2.3731e-06	25.903	320.790	390.315	108.782	111.773	266.005	175.334	111.483	118.823	166.972	227.568	118.195	124.968	125.726	132.065	214.873	131.376	-8191	255	
2552.589	1	1	0	0	0.055365	0.065412	0.22797	0.13624	0.14925	0.12048	0.40133	0.18962	0.096944	0.086023	0.011498	0.08509	0.11545	0.25501	0.36648	0.15494	-2.5375	-3.2229	-3.0729	-3.1542	-3.4104	-3.1208	-3.2625	-3.5396	-2.9604	-3.1375	-3.3917	-2.9625	-3.1833	-3.0833	-3.0854	-3.275	318.894	231.893	402.050	438.798	250.388	168.411	370.587	158.013	228.623	104.016	363.650	355.890	314.884	387.974	440.949	388.885	0.00069658	0.00020593	8.9845e-05	1139.7	3.3219e-06	3.1613e-06	1207.2	236.19	2.2594e-06	4.3386e-06	295.46	82.829	65.275	18.291	4.7597e-06	25.648	0.00022328	0.00021486	5.967e-05	1109.3	2.3665e-06	2.3429e-06	1172.7	231.68	2.3429e-06	2.3362e-06	283.1	81.084	63.316	18.493	2.2883e-06	25.945	307.675	153.400	431.169	111.331	261.325	259.495	111.594	119.171	316.169	288.547	118.331	125.074	125.697	132.158	269.105	131.754	-8191	255	
2552.710	1	1	0	0	0.32491	0.13769	0.11076	0.1823	0.22043	0.089842	0.082621	0.15366	0.27524	0.16642	0.17799	0.1603	0.21598	0.026433	0.11514	0.10114	-2.4792	-3.3021	-3.1729	-3.2313	-3.3542	-2.9271	-3.3625	-3.3625	-2.9271	-3.1813	-3.3125	-2.9708	-3.3396	-3.0729	-2.9208	-3.3583	260.423	430.596	453.354	119.205	454.459	375.036	402.218	378.351	334.549	437.663	188.857	201.280	164.982	283.159	314.593	443.437	0.00059678	0.00031388	0.00014685	1141.9	4.2861e-06	2.0711e-06	1210.1	236.13	2.4994e-06	5.8343e-06	293.94	82.158	64.964	18.343	4.4318e-06	25.945	0.00021542	0.00021133	5.7916e-05	1109.7	2.3e-06	2.2964e-06	1173.7	231.58	2.3426e-06	2.3548e-06	283.08	81.109	63.275	18.478	2.3459e-06	25.995	325.950	193.654	225.032	111.503	201.335	247.143	111.346	118.978	152.216	181.128	118.374	125.222	125.657	132.358	370.224	131.106	-8191	255	
2552.782	1	1	0	0	0.053515	0.14797	0.11951	0.12201	0.23051	0.2147	0.56723	0.11029	0.15908	0.072142	0.31802	0.18198	0.090031	0.14994	0.12507	0.17518	-2.525	-2.9688	-3.2396	-2.8896	-3.2646	-3.2271	-3.0812	-3.2083	-2.9833	-3.125	-3.1833	-3.0896	-3.225	-3.3125	-2.9688	-3.2333	383.600	193.964	380.684	397.649	180.683	262.379	389.954	120.419	258.111	154.199	411.882	403.526	280.848	379.081	160.833	107.297	0.00047486	0.00020724	4.7634e-05	1141.9	5.1003e-06	1.3951e-06	1209	237.26	2.0785e-06	2.7439e-06	295.43	82.72	65.424	18.325	2.7997e-06	25.945	0.0002172	0.00021187	5.948e-05	1110.6	2.3546e-06	2.3232e-06	1173.1	231.89	2.368e-06	2.3297e-06	283.21	81.284	63.391	18.467	2.3626e-06	25.937	319.678	187.260	183.187	111.492	245.585	386.606	111.731	118.859	292.144	208.475	118.436	124.665	125.550	132.199	178.721	131.391	-8191	255	
#DATA ENDS
