BOXY.EXE: ISS Imagent and Oximeter Data Acquisition Program Version 0.80
Ascii Record File

#ACQ INFORMATION
2  Detector Channels 
16  External MUX Channels 
1  Auxiliary Channels 
5000  Waveform (CCF) Frequency (Hz)
1  Waveforms Skipped 
30  Waveforms Averaged 
1  Cycles Averaged 
16  Acquisitions per Waveform 
10.0806  Updata Rate (Hz) 

#FILE INFORMATION
TRUE -- External MUX Channel results are PARSED.
FALSE -- AC DC and Phase are NOT grouped.
TRUE -- Companion Program Settings File CREATED.
FALSE -- AC data not excluded
FALSE -- DC data not excluded
FALSE -- Phase data not excluded
FALSE -- Auxillary Chn. data not excluded
Tab delimiters

#CALIBRATION STATE
TRUE -- Waveform Calibration Values APPLIED.


#AUX CALIBRATION VALUES
Val Type	aux-1	

Term	1.0000e+00	
Factor	0.0000e+00	


#WF CALIBRATION VALUES
A = Detector Channel
Val Type	A-AC1	A-AC2	A-AC3	A-AC4	A-AC5	A-AC6	A-AC7	A-AC8	A-AC9	A-AC10	A-AC11	A-AC12	A-AC13	A-AC14	A-AC15	A-AC16	A-DC1	A-DC2	A-DC3	A-DC4	A-DC5	A-DC6	A-DC7	A-DC8	A-DC9	A-DC10	A-DC11	A-DC12	A-DC13	A-DC14	A-DC15	A-DC16	A-Ph1	A-Ph2	A-Ph3	A-Ph4	A-Ph5	A-Ph6	A-Ph7	A-Ph8	A-Ph9	A-Ph10	A-Ph11	A-Ph12	A-Ph13	A-Ph14	A-Ph15	A-Ph16	

Term	0.00000e+00	0.00000e+00	0.00000e+00	0.00000e+00	0.00000e+00	0.00000e+00	0.00000e+00	0.00000e+00	0.00000e+00	0.00000e+00	0.00000e+00	0.00000e+00	0.00000e+00	0.00000e+00	0.00000e+00	0.00000e+00	0.00000e+00	0.00000e+00	0.00000e+00	0.00000e+00	0.00000e+00	0.00000e+00	0.00000e+00	0.00000e+00	0.00000e+00	0.00000e+00	0.00000e+00	0.00000e+00	0.00000e+00	0.00000e+00	0.00000e+00	0.00000e+00	0.00000e+00	0.00000e+00	0.00000e+00	0.00000e+00	0.00000e+00	0.00000e+00	0.00000e+00	0.00000e+00	0.00000e+00	0.00000e+00	0.00000e+00	0.00000e+00	0.00000e+00	0.00000e+00	0.00000e+00	0.00000e+00	
Factor	1.00000e+00	1.00000e+00	1.00000e+00	1.00000e+00	1.00000e+00	1.00000e+00	1.00000e+00	1.00000e+00	1.00000e+00	1.00000e+00	1.00000e+00	1.00000e+00	1.00000e+00	1.00000e+00	1.00000e+00	1.00000e+00	1.00000e+00	1.00000e+00	1.00000e+00	1.00000e+00	1.00000e+00	1.00000e+00	1.00000e+00	1.00000e+00	1.00000e+00	1.00000e+00	1.00000e+00	1.00000e+00	1.00000e+00	1.00000e+00	1.00000e+00	1.00000e+00	X	X	X	X	X	X	X	X	X	X	X	X	X	X	X	X	

B = Detector Channel
Val Type	B-AC1	B-AC2	B-AC3	B-AC4	B-AC5	B-AC6	B-AC7	B-AC8	B-AC9	B-AC10	B-AC11	B-AC12	B-AC13	B-AC14	B-AC15	B-AC16	B-DC1	B-DC2	B-DC3	B-DC4	B-DC5	B-DC6	B-DC7	B-DC8	B-DC9	B-DC10	B-DC11	B-DC12	B-DC13	B-DC14	B-DC15	B-DC16	B-Ph1	B-Ph2	B-Ph3	B-Ph4	B-Ph5	B-Ph6	B-Ph7	B-Ph8	B-Ph9	B-Ph10	B-Ph11	B-Ph12	B-Ph13	B-Ph14	B-Ph15	B-Ph16	

Term	0.00000e+00	0.00000e+00	0.00000e+00	0.00000e+00	0.00000e+00	0.00000e+00	0.00000e+00	0.00000e+00	0.00000e+00	0.00000e+00	0.00000e+00	0.00000e+00	0.00000e+00	0.00000e+00	0.00000e+00	0.00000e+00	0.00000e+00	0.00000e+00	0.00000e+00	0.00000e+00	0.00000e+00	0.00000e+00	0.00000e+00	0.00000e+00	0.00000e+00	0.00000e+00	0.00000e+00	0.00000e+00	0.00000e+00	0.00000e+00	0.00000e+00	0.00000e+00	1.37173e+01	-1.18228e+02	-1.12758e+02	-1.83080e+02	-7.15389e+01	-7.78103e+01	-1.57142e+02	-1.62015e+02	-8.64581e+01	-8.33328e+01	-1.74681e+02	-1.70893e+02	-1.86226e+02	-1.78823e+02	-6.33234e+01	-1.50760e+02	
Factor	3.86630e-05	1.07672e-04	3.58680e-05	1.52370e-01	1.43992e-06	1.45988e-06	1.51923e-01	5.45124e-02	1.38203e-06	1.18428e-06	1.31598e-01	2.66902e-02	3.84029e-02	8.59656e-03	1.43767e-06	1.22989e-02	8.31094e-07	8.48967e-07	2.35916e-07	7.55567e-02	9.27535e-09	9.30345e-09	7.09969e-02	2.68103e-02	9.28531e-09	9.29857e-09	5.97757e-02	1.26460e-02	1.79984e-02	4.20033e-03	9.30521e-09	5.78123e-03	X	X	X	X	X	X	X	X	X	X	X	X	X	X	X	X	



#DISTANCE SETTINGS
A = Detector Channel
A-1	A-2	A-3	A-4	A-5	A-6	A-7	A-8	A-9	A-10	A-11	A-12	A-13	A-14	A-15	A-16	

2.5000e+00	3.0000e+00	2.5000e+00	3.0000e+00	2.0000e+00	3.0000e+00	1.5000e+00	3.0000e+00	3.0000e+00	3.0000e+00	3.0000e+00	3.0000e+00	3.0000e+00	3.0000e+00	1.5000e+00	3.0000e+00	

B = Detector Channel
B-1	B-2	B-3	B-4	B-5	B-6	B-7	B-8	B-9	B-10	B-11	B-12	B-13	B-14	B-15	B-16	

1.0000e+01	1.0000e+01	1.0000e+01	1.4400e+00	1.0000e+01	1.0000e+01	1.5100e+00	1.9400e+00	1.0000e+01	1.0000e+01	1.9900e+00	2.4900e+00	2.4100e+00	2.9000e+00	1.0000e+01	2.9800e+00	




#DATA BEGINS
time	group	step	mark	flag	A-AC1	A-AC2	A-AC3	A-AC4	A-AC5	A-AC6	A-AC7	A-AC8	A-AC9	A-AC10	A-AC11	A-AC12	A-AC13	A-AC14	A-AC15	A-AC16	A-DC1	A-DC2	A-DC3	A-DC4	A-DC5	A-DC6	A-DC7	A-DC8	A-DC9	A-DC10	A-DC11	A-DC12	A-DC13	A-DC14	A-DC15	A-DC16	A-Ph1	A-Ph2	A-Ph3	A-Ph4	A-Ph5	A-Ph6	A-Ph7	A-Ph8	A-Ph9	A-Ph10	A-Ph11	A-Ph12	A-Ph13	A-Ph14	A-Ph15	A-Ph16	B-AC1	B-AC2	B-AC3	B-AC4	B-AC5	B-AC6	B-AC7	B-AC8	B-AC9	B-AC10	B-AC11	B-AC12	B-AC13	B-AC14	B-AC15	B-AC16	B-DC1	B-DC2	B-DC3	B-DC4	B-DC5	B-DC6	B-DC7	B-DC8	B-DC9	B-DC10	B-DC11	B-DC12	B-DC13	B-DC14	B-DC15	B-DC16	B-Ph1	B-Ph2	B-Ph3	B-Ph4	B-Ph5	B-Ph6	B-Ph7	B-Ph8	B-Ph9	B-Ph10	B-Ph11	B-Ph12	B-Ph13	B-Ph14	B-Ph15	B-Ph16	aux-1	digaux	

3037.552	1	1	0	256	0.21394	0.13742	0.10627	0.14696	0.068275	0.14688	0.25912	0.032249	0.24216	0.1383	0.072936	0.13984	0.034723	0.060452	0.059854	0.19902	-2.1917	-2.7896	-2.9125	-2.6	-2.8708	-2.8458	-2.5625	-3.0312	-2.6396	-2.7562	-2.9333	-2.7375	-2.9083	-2.6771	-2.4771	-2.8563	412.934	412.558	315.067	440.466	229.072	259.946	201.839	330.747	404.536	128.323	441.003	297.043	293.824	455.046	238.591	152.076	0.00030961	2.9115e-05	0.00067665	128.08	9.3467e-07	4.4821e-07	184.92	45.508	2.2507e-05	6.2098e-07	79.511	29.481	15.502	5.1523	4.1659e-07	12.255	4.3522e-05	3.8731e-05	6.2789e-05	146.81	4.274e-07	4.285e-07	209.56	52.901	1.2564e-06	4.2066e-07	87.289	32.998	16.921	6.8298	4.1499e-07	13.673	321.615	239.560	417.067	114.266	230.488	447.393	114.811	120.342	205.985	345.468	119.287	124.259	124.394	131.517	185.994	128.282	-8191	255	
3037.671	1	1	0	0	0.13263	0.15797	0.20323	0.11256	0.39361	0.1575	0.10138	0.03768	0.069987	0.12512	0.14787	0.097564	0.03218	0.10041	0.18668	0.1311	-2.3708	-2.6625	-2.7479	-2.3729	-2.6979	-2.8896	-2.7375	-2.9688	-2.7188	-2.5729	-3.0625	-2.6292	-2.7667	-2.9354	-2.7042	-2.9833	237.726	189.759	223.434	380.039	403.645	132.941	457.583	238.793	435.746	299.856	445.233	442.462	155.285	401.608	344.290	422.092	0.0003387	7.0356e-05	0.00049415	128.36	1.7518e-06	1.2143e-06	183.36	45.346	2.8038e-05	3.5631e-08	79.562	29.15	15.458	5.0889	1.0181e-06	12.071	4.3328e-05	3.8004e-05	5.0307e-05	146.37	4.2597e-07	4.3182e-07	208.56	51.362	2.4886e-06	4.1171e-07	86.662	32.729	16.845	6.5536	4.1383e-07	13.514	321.325	238.120	424.195	114.445	296.789	271.111	114.548	120.257	209.448	440.188	119.213	124.401	124.341	130.697	267.048	128.230	-8191	255	
3037.744	1	1	0	0	0.16797	0.18076	0.18673	0.01214	0.11554	0.25221	0.11631	0.19007	0.0060251	0.023313	0.18652	0.13294	0.18088	0.03561	0.20724	0.14788	-2.2792	-2.6792	-2.8521	-2.6771	-2.8104	-2.9646	-2.8083	-3	-2.8937	-2.5854	-3.0563	-2.6896	-2.7438	-2.8833	-2.6854	-2.9729	446.054	415.843	158.040	373.038	178.999	440.958	302.318	428.608	302.533	314.900	118.440	307.154	194.049	214.408	389.324	302.851	0.00032614	7.5398e-06	0.0005814	128.33	1.1086e-06	1.9449e-07	183.81	45.211	2.2956e-05	1.6027e-06	79.044	29.079	15.427	5.0177	1.0044e-06	11.991	4.445e-05	3.8288e-05	5.7502e-05	146.48	4.2593e-07	4.2461e-07	208.93	51.21	2.0708e-06	4.1355e-07	86.497	32.725	16.843	6.7851	4.2752e-07	13.426	321.749	433.120	377.762	114.844	198.751	197.448	114.810	120.137	212.641	267.395	119.411	124.310	124.769	131.366	230.711	128.295	-8191	255	
3037.840	1	1	0	0	0.12327	0.37274	0.057563	0.12378	0.18513	0.13846	0.092706	0.09175	0.041708	0.1281	0.12247	0.22255	0.17749	0.19996	0.12522	0.1536	-2.3896	-2.6646	-2.9646	-2.525	-2.625	-3.1333	-2.8271	-3.0292	-2.8229	-2.5646	-3.1271	-2.7292	-2.6958	-3.1167	-2.4667	-2.8375	182.330	119.330	241.579	242.135	334.079	455.315	353.073	199.170	389.824	138.320	130.746	124.168	218.953	397.585	213.111	448.851	0.0003496	0.00017526	0.00051556	128.58	8.6725e-07	7.4076e-08	183.02	45.36	2.9273e-05	7.7637e-07	79.464	29.418	15.375	5.0214	1.4024e-06	12.09	4.4555e-05	3.8027e-05	2.2274e-05	154.48	4.2842e-07	4.4067e-07	208.74	51.33	2.6725e-06	4.1131e-07	86.789	32.809	16.848	6.563	4.2734e-07	13.473	319.525	214.429	379.693	113.593	243.357	193.843	114.758	120.089	219.881	207.050	119.265	124.355	124.887	130.710	285.697	128.027	-8191	255	
3037.937	1	1	0	0	0.10647	0.11057	0.035822	0.1818	0.15247	0.028311	0.27181	0.16382	0.13106	0.077699	0.29866	0.20076	0.067956	0.13681	0.065821	0.046847	-2.6375	-2.7042	-2.8604	-2.6896	-2.7458	-3.0333	-2.5938	-2.7	-2.9479	-2.7146	-3.0021	-2.9146	-2.675	-3.0479	-2.6104	-2.7812	193.487	271.688	134.721	111.213	195.512	155.514	337.881	140.532	141.899	183.021	251.561	415.875	413.204	339.600	264.511	452.387	0.00034086	6.9811e-05	2.7145e-05	126.96	1.3644e-06	1.3989e-06	184.05	45.174	2.3962e-05	1.765e-06	79.16	29.32	15.398	4.94	6.7095e-06	12.059	4.4857e-05	3.8361e-05	1.0794e-05	164.85	4.269e-07	4.3519e-07	208.85	51.363	2.1642e-06	4.1665e-07	86.719	32.849	16.855	6.6549	4.5113e-07	13.5	317.795	148.712	214.655	112.882	308.442	278.499	114.856	120.117	226.630	224.385	119.255	124.380	124.821	131.242	276.252	128.225	-8191	255	
3038.055	1	1	0	0	0.12908	0.11309	0.11825	0.072709	0.18717	0.25875	0.25908	0.22272	0.060619	0.11487	0.19566	0.079616	0.10677	0.20384	0.37512	0.25767	-2.5542	-2.6125	-3.0208	-2.8333	-2.7208	-3.0583	-2.7708	-2.7333	-2.8125	-2.6625	-2.7812	-2.7854	-2.8354	-2.9625	-2.8438	-2.7687	409.573	159.582	153.082	109.860	244.875	394.000	451.842	424.603	165.748	373.024	178.903	151.966	157.298	321.787	421.988	332.393	0.00031437	6.396e-05	3.241e-05	126.9	1.1031e-06	1.0647e-06	183.67	45.165	3.0788e-05	1.0226e-06	78.485	29.224	15.387	4.9623	4.8955e-06	12.039	4.3368e-05	3.8085e-05	1.072e-05	160.3	4.1952e-07	4.2802e-07	208.77	51.245	2.6262e-06	4.1611e-07	86.365	32.63	16.776	5.9475	1.4826e-06	13.428	322.051	130.613	210.551	113.482	230.663	155.178	114.656	120.000	232.657	197.733	119.317	124.390	124.729	130.709	277.914	128.285	-8191	255	
3038.152	1	1	0	0	0.14167	0.21759	0.20597	0.30145	0.074388	0.085699	0.10881	0.080068	0.19519	0.23591	0.086978	0.15505	0.17213	0.10399	0.17242	0.14239	-2.5542	-2.4604	-2.8792	-2.7687	-2.4625	-2.8812	-2.7938	-2.7167	-3.0021	-2.7271	-2.7583	-2.7062	-2.6562	-2.8833	-2.7396	-2.65	362.385	269.286	131.272	167.244	405.252	166.950	428.632	355.864	172.474	231.643	372.362	132.818	146.023	103.902	143.377	170.755	0.00030856	0.00010308	1.3483e-05	127.68	8.0214e-07	2.1336e-06	183.33	45.308	2.4129e-05	1.0442e-06	79.083	29.128	15.482	5.0643	2.969e-05	12.041	4.3006e-05	3.9058e-05	1.0654e-05	164.43	4.1146e-07	4.2271e-07	208.6	51.303	2.1282e-06	4.2194e-07	86.586	32.673	16.818	5.789	2.643e-06	13.469	320.586	192.169	304.502	112.710	148.276	242.815	114.840	119.964	236.674	270.123	119.219	124.648	124.955	129.280	375.620	128.328	-8191	255	
3038.248	1	1	0	0	0.23215	0.242	0.23327	0.090356	0.069561	0.25085	0.19189	0.247	0.16253	0.10452	0.24161	0.11924	0.15703	0.1464	0.18535	0.061758	-2.4375	-2.5854	-2.75	-2.8604	-2.7083	-2.9875	-2.7875	-2.5729	-2.9375	-2.525	-2.8958	-2.9542	-2.6063	-2.8958	-2.8688	-2.7042	398.009	169.837	197.226	126.956	357.862	138.492	358.333	189.725	250.542	232.105	102.437	154.428	240.049	340.053	257.341	198.590	0.00031302	0.00016092	4.6396e-05	127.58	6.109e-07	5.9066e-07	183.07	45.3	1.117e-05	2.3907e-05	79.237	29.224	15.356	5.1371	2.07e-05	12.163	4.3681e-05	3.9026e-05	1.0908e-05	160.34	4.1805e-07	4.2676e-07	208.92	51.417	2.1778e-06	5.461e-07	86.77	32.789	16.885	5.8465	2.1081e-06	13.543	321.108	203.864	247.388	113.320	245.181	242.396	114.730	119.842	310.434	227.267	119.281	124.391	124.446	129.640	385.705	128.369	-8191	255	
3038.368	1	1	0	0	0.16034	0.10104	0.13575	0.15684	0.20338	0.253	0.019762	0.12822	0.21813	0.036752	0.047395	0.14858	0.12211	0.19504	0.12121	0.013455	-2.4708	-2.6562	-2.65	-2.9646	-2.6437	-2.6688	-2.7229	-2.7042	-2.9271	-2.7375	-2.5687	-3.0375	-2.6104	-2.7562	-2.8333	-2.5625	176.317	300.747	336.634	318.750	432.325	211.080	197.174	351.838	120.991	163.348	232.788	275.694	420.371	230.865	237.400	449.446	0.00029179	7.9175e-05	1.2867e-05	128.31	1.2731e-06	4.1569e-07	183.33	45.319	9.7941e-06	1.7609e-05	79.074	29.339	15.574	5.1406	2.8901e-05	12.203	4.3598e-05	3.9924e-05	1.0844e-05	164.76	4.3374e-07	4.2935e-07	209.12	51.455	7.2634e-07	1.552e-06	86.954	32.973	16.964	5.8849	2.5944e-06	13.614	320.024	245.296	244.742	113.299	183.733	192.650	114.965	120.254	306.286	224.579	119.440	124.296	124.739	129.849	388.741	128.385	-8191	255	
3038.440	1	1	0	0	0.20447	0.20119	0.13667	0.19557	0.13345	0.1202	0.37654	0.21057	0.17606	0.053844	0.3063	0.31661	0.09323	0.071263	0.097058	0.28629	-2.4083	-2.7042	-2.5521	-2.9167	-2.5729	-2.825	-2.9646	-2.5687	-2.8333	-2.8396	-2.6167	-3.0208	-2.5354	-2.875	-3.1125	-2.6979	350.958	443.651	336.899	364.549	138.489	193.898	337.438	455.165	304.349	459.434	353.706	371.774	311.476	259.667	318.043	370.248	0.00031276	7.8022e-05	1.1603e-05	129.34	1.3116e-06	5.582e-07	183.7	45.436	8.3162e-07	2.5155e-05	79.482	29.468	15.541	5.239	2.147e-05	12.502	4.3354e-05	4.0082e-05	1.0515e-05	160.06	4.267e-07	4.2577e-07	209.12	51.536	4.2743e-07	2.5715e-06	86.926	33.016	17.024	5.9783	2.0596e-06	13.848	321.400	110.527	245.566	113.408	268.571	251.231	114.834	120.312	255.604	256.493	119.219	124.604	124.466	129.332	399.904	128.165	-8191	255	
3038.536	1	1	0	0	0.23447	0.017527	0.092216	0.13152	0.11722	0.22205	0.12444	0.30762	0.12018	0.22836	0.051611	0.21274	0.144	0.15883	0.11687	0.43835	-2.4479	-2.8583	-2.7521	-3.0312	-2.6292	-2.8875	-3.0292	-2.7188	-2.8292	-2.6729	-2.6708	-3.1292	-2.5312	-2.9562	-2.8771	-2.6875	182.207	399.349	402.983	452.967	366.587	362.596	419.416	353.985	460.057	370.052	452.824	155.977	443.758	450.690	300.027	298.959	0.00032863	0.00010578	2.4615e-05	126.05	2.848e-05	1.0447e-06	183.32	45.575	1.4293e-06	2.0354e-05	79.467	29.724	15.709	5.3431	2.4556e-05	12.595	4.3447e-05	3.9843e-05	1.044e-05	159.52	6.3326e-07	4.1606e-07	208.88	51.738	4.2647e-07	2.0294e-06	87.027	33.178	17.127	6.0769	2.4964e-06	14.061	322.560	157.958	161.378	113.948	190.265	197.617	114.672	120.550	227.064	257.889	119.573	124.500	124.993	129.515	402.899	128.236	-8191	255	
3038.657	1	1	0	0	0.22302	0.25242	0.1588	0.24496	0.21447	0.032472	0.095394	0.25194	0.16385	0.071099	0.25767	0.17375	0.028147	0.082033	0.13555	0.098918	-2.4938	-2.725	-2.5812	-2.8688	-2.7729	-2.875	-2.8354	-2.5104	-2.9333	-2.8167	-2.6583	-2.8708	-2.75	-2.825	-2.9354	-2.7583	192.992	235.950	154.641	138.298	156.106	127.422	245.646	452.812	126.426	158.650	446.798	307.496	119.792	273.655	171.998	326.709	0.00032053	8.6586e-05	2.9892e-05	127.23	2.3715e-05	1.9972e-06	184.95	45.845	4.0445e-07	2.4276e-05	79.723	30.025	15.824	5.4379	2.0466e-05	12.76	4.3503e-05	3.9848e-05	1.0424e-05	148.32	1.5448e-06	4.19e-07	209.73	51.914	4.2405e-07	2.4912e-06	87.475	33.532	17.251	6.161	1.9947e-06	14.236	322.967	219.613	203.004	113.979	192.289	242.036	114.715	120.330	163.055	269.383	119.315	124.639	124.592	129.716	415.247	128.277	-8191	255	
3038.751	1	1	0	0	0.39667	0.18571	0.17661	0.22511	0.35393	0.06359	0.12215	0.035403	0.22805	0.084873	0.020467	0.21205	0.2456	0.12247	0.10249	0.16373	-2.4396	-2.9292	-2.5208	-2.8146	-2.7625	-2.7646	-2.9292	-2.5167	-2.825	-3.0917	-2.625	-2.9479	-2.6396	-2.5833	-3.0479	-2.7646	390.735	433.790	325.737	403.730	133.677	434.675	269.022	449.967	452.829	259.126	424.739	303.026	410.775	438.451	354.796	121.149	0.00031165	1.751e-05	1.4603e-05	128.79	3.0195e-05	1.241e-06	184.78	45.807	1.1164e-06	1.9867e-05	80.509	29.887	15.984	5.4618	2.9981e-05	12.744	4.3761e-05	4.0236e-05	1.0636e-05	147.37	2.507e-06	4.191e-07	210.04	52.037	4.266e-07	1.9909e-06	87.891	33.613	17.342	6.203	1.8851e-06	14.431	315.084	145.268	154.865	114.732	160.973	266.710	114.920	119.944	241.528	272.152	119.401	124.616	124.857	129.541	400.799	128.012	-8191	255	
3038.847	1	1	0	0	0.08668	0.079438	0.22029	0.07964	0.52345	0.1147	0.14517	0.1252	0.21516	0.046978	0.14747	0.16592	0.091499	0.11418	0.15286	0.15385	-2.1646	-2.8625	-2.525	-2.9521	-2.7604	-2.625	-2.8542	-2.8042	-2.8063	-3.0396	-2.6729	-3.0042	-2.8771	-2.6229	-3.0417	-2.7604	209.291	387.852	365.344	219.388	119.120	131.747	104.741	106.148	128.163	423.169	109.065	351.778	192.619	305.182	407.953	152.463	0.00030517	0.00015753	2.435e-05	128.02	2.0348e-05	5.0966e-07	183.87	45.419	2.0351e-06	2.3158e-05	79.87	29.739	15.534	5.324	2.208e-05	12.596	4.2976e-05	3.8637e-05	1.0744e-05	146.86	1.9824e-06	4.1451e-07	209.51	51.918	4.1914e-07	2.4612e-06	87.528	33.206	17.08	6.0952	5.5566e-07	14.771	315.890	212.534	171.192	114.337	170.156	248.415	114.393	120.091	275.826	281.081	119.392	124.574	124.800	129.596	403.910	127.984	-8191	255	
3038.968	1	1	0	0	0.26958	0.13195	0.14287	0.18186	0.31522	0.19707	0.26874	0.24547	0.043305	0.15607	0.17016	0.22831	0.029794	0.096388	0.098575	0.091353	-2.2542	-2.95	-2.5667	-2.8688	-2.7979	-2.6771	-3	-2.7062	-2.6312	-2.9917	-2.5042	-2.7396	-2.8479	-2.5646	-2.9542	-2.6063	185.447	377.144	402.028	158.059	413.113	237.744	266.531	126.687	145.785	409.421	414.972	448.496	396.307	156.318	408.371	414.849	0.00030073	0.00019946	3.2899e-05	126.98	2.6112e-05	1.4506e-06	182.95	45.485	9.8689e-07	1.9444e-05	79.213	29.458	15.397	5.3348	7.8636e-07	12.281	4.2727e-05	3.9489e-05	1.0615e-05	145.61	2.4975e-06	4.1344e-07	207.95	51.536	4.0964e-07	2.0376e-06	86.776	32.908	16.874	6.0793	4.1565e-07	15.298	319.462	214.267	233.682	114.507	180.553	221.267	114.811	120.214	252.496	277.821	119.077	124.635	124.838	129.690	247.705	127.699	-8191	255	
3039.040	1	1	0	0	0.14223	0.19865	0.093181	0.056728	0.14905	0.29019	0.18858	0.083598	0.14154	0.12087	0.020318	0.14035	0.1571	0.1326	0.082355	0.12097	-2.3187	-2.8167	-2.5417	-2.8312	-3.0417	-2.6854	-2.8542	-2.8604	-2.6354	-2.9292	-2.7125	-2.8146	-2.8979	-2.6146	-2.7479	-2.9104	395.488	141.069	144.741	371.651	319.134	450.761	447.548	165.087	340.447	155.229	280.183	339.187	325.142	266.577	386.209	261.789	0.00035278	7.7369e-05	5.743e-05	126.76	2.3213e-05	1.513e-06	182.81	45.553	1.9542e-06	1.7145e-05	80.789	29.395	15.448	5.3908	5.0108e-07	12.45	4.2041e-05	3.881e-05	1.0539e-05	145.2	2.0282e-06	4.0708e-07	207.75	51.616	4.089e-07	1.8137e-06	89.448	32.872	16.897	6.111	4.1722e-07	15.064	321.709	262.977	209.487	114.661	175.749	275.373	114.523	120.085	270.140	326.111	120.115	124.502	124.822	129.578	337.330	127.567	-8191	255	
3039.136	1	1	0	0	0.10918	0.12548	0.076905	0.132	0.24803	0.036683	0.2552	0.12243	0.050339	0.043381	0.11234	0.15393	0.26481	0.18956	0.20136	0.072464	-2.1625	-2.8792	-2.6354	-2.8312	-3.0521	-2.4208	-2.8438	-2.6667	-2.7125	-2.9833	-2.6854	-2.8812	-2.9938	-2.8396	-2.7854	-3.0021	428.676	367.124	187.176	108.179	220.599	323.010	207.613	108.255	213.084	281.941	197.760	209.850	417.678	303.557	193.876	287.415	0.00032584	6.1747e-05	1.5245e-05	127.61	2.9085e-05	1.3402e-06	183.87	45.685	7.1912e-07	1.357e-05	81.174	29.637	15.537	5.4527	1.1642e-06	12.62	4.2043e-05	3.8311e-05	1.0749e-05	145.84	2.5075e-06	4.153e-07	208.61	51.884	4.0815e-07	4.7926e-07	95.907	33.287	17.135	6.2373	4.1267e-07	15.625	316.906	235.652	302.098	114.537	188.606	248.037	114.795	120.042	225.097	328.642	119.879	124.541	124.730	129.656	235.559	127.522	-8191	255	
3039.232	1	1	0	0	0.10848	0.12821	0.15245	0.20572	0.02576	0.044741	0.10316	0.18171	0.073304	0.27945	0.11119	0.20382	0.033212	0.017416	0.084662	0.4184	-2.1146	-2.975	-2.7313	-2.6583	-2.9854	-2.5812	-2.8083	-2.8104	-2.4583	-2.8187	-2.8187	-2.8333	-2.8917	-2.6667	-2.9896	-2.8917	141.989	418.060	451.171	326.718	386.930	256.232	152.824	265.896	301.851	214.280	212.254	174.084	125.402	120.721	300.313	322.553	0.00031082	2.2157e-05	1.9312e-05	129.4	2.1837e-05	2.3447e-07	185.26	46.624	6.7116e-07	3.9986e-07	81.053	30.328	16.072	5.5865	2.4003e-06	12.861	4.1409e-05	3.664e-05	1.0395e-05	147.48	1.87e-06	3.9412e-07	211.24	52.636	3.8787e-07	3.8407e-07	100.61	33.984	17.511	6.3289	3.7996e-07	15.292	318.836	205.068	146.904	114.345	196.872	250.251	114.700	119.957	255.088	120.101	120.895	124.318	124.416	129.363	241.798	127.973	-8191	255	
3039.328	1	1	0	0	0.018845	0.11492	0.21618	0.16924	0.14667	0.17804	0.04706	0.40051	0.20574	0.12646	0.065504	0.13846	0.25824	0.11457	0.040913	0.10081	-2.1854	-2.8271	-2.7854	-2.7396	-2.975	-2.6354	-2.7896	-2.8688	-2.6312	-2.9708	-2.8271	-2.5979	-2.9979	-2.7396	-2.725	-2.8333	319.397	332.932	438.783	253.149	421.465	446.155	364.798	104.945	442.317	436.363	396.216	284.573	268.221	391.741	113.823	150.621	0.00029913	9.5343e-05	3.4538e-05	129.68	4.4529e-06	2.533e-05	186.15	46.32	8.0558e-07	6.8088e-07	81.219	30.151	15.921	5.5172	4.1719e-07	12.715	3.9868e-05	3.5078e-05	9.9016e-06	147.71	1.4726e-06	7.9326e-07	210.67	52.523	3.8259e-07	3.8188e-07	96.921	33.753	17.375	6.2603	3.7775e-07	15.402	319.926	170.321	203.004	114.437	448.153	200.939	114.910	120.235	215.276	218.406	120.493	124.143	124.536	129.588	208.729	127.435	-8191	255	
3039.449	1	1	0	0	0.32889	0.17224	0.25806	0.023522	0.19952	0.20458	0.24782	0.17636	0.12336	0.22283	0.18507	0.15335	0.18376	0.13486	0.24091	0.087718	-2.2333	-2.8896	-2.7958	-2.75	-2.7646	-2.6521	-2.7167	-2.8688	-2.6312	-2.7875	-2.95	-2.5771	-2.7583	-2.7208	-2.5604	-3.0146	446.079	347.004	383.956	329.225	458.913	437.737	425.470	320.204	263.658	178.569	107.411	198.087	435.668	335.894	369.928	138.825	0.00035083	0.00012558	4.7631e-05	128.35	8.0701e-07	1.8826e-05	184.61	46.221	1.4166e-06	7.3494e-07	79.559	30.065	15.9	5.5023	5.403e-07	12.681	3.9726e-05	3.4556e-05	9.908e-06	146.89	3.8506e-07	1.4717e-06	209.95	52.243	3.8664e-07	3.7996e-07	99.196	33.647	17.297	6.2308	3.7576e-07	15.084	320.714	168.382	235.469	114.644	267.051	205.048	114.759	119.871	225.349	301.938	120.814	124.438	124.994	129.246	350.483	127.771	-8191	255	
3039.545	1	1	0	0	0.18627	0.069546	0.16379	0.11921	0.11427	0.12216	0.08343	0.19592	0.12509	0.22521	0.094993	0.25588	0.16839	0.043986	0.052656	0.047752	-2.1813	-2.7333	-2.8021	-2.5896	-2.6958	-2.7125	-2.7042	-2.9437	-2.7583	-2.8896	-2.8937	-2.5021	-2.7521	-2.8958	-2.7146	-2.7375	396.855	357.897	401.043	295.967	165.576	267.837	242.264	113.493	232.273	228.771	429.717	300.271	331.210	454.716	181.616	387.831	0.00032553	2.8805e-05	2.7992e-05	129.15	1.5319e-06	2.5394e-05	185.78	46.297	3.606e-07	4.702e-07	80.004	30.031	15.914	5.4474	9.7555e-07	12.604	3.9813e-05	3.4946e-05	1.0055e-05	147.19	3.8545e-07	2.1199e-06	210.48	52.341	3.8658e-07	3.7737e-07	96.398	33.605	17.278	6.1822	3.8339e-07	14.842	318.898	133.828	200.860	114.216	234.460	204.497	114.686	120.540	372.771	197.012	120.590	124.983	125.052	129.789	224.806	127.812	-8191	255	
3039.617	1	1	0	0	0.20811	0.14829	0.31989	0.29686	0.15606	0.18703	0.229	0.12331	0.24677	0.071213	0.25751	0.11821	0.21406	0.19582	0.23563	0.15143	-2.3854	-2.7667	-2.8417	-2.6	-2.8979	-2.8688	-2.6708	-2.8833	-2.7583	-2.7812	-2.925	-2.7104	-2.7833	-2.6958	-2.4437	-2.8917	179.248	239.951	395.787	427.758	303.788	260.239	422.507	438.746	262.466	133.647	414.064	214.199	204.554	362.482	305.732	458.442	0.00057736	5.3412e-05	1.1364e-05	128.32	1.5846e-06	2.0077e-05	185.47	46.068	1.1023e-06	1.0605e-06	79.507	29.925	15.813	5.3919	6.4705e-07	12.665	8.3466e-05	3.4861e-05	9.8893e-06	147.32	3.8294e-07	1.6968e-06	210.11	52.23	3.9575e-07	3.7572e-07	98.928	33.445	17.204	6.142	3.8378e-07	14.077	283.462	163.560	235.489	114.700	267.016	208.464	114.901	120.289	194.291	177.525	120.958	124.559	124.679	129.417	225.744	128.402	-8191	255	
3039.737	1	1	0	0	0.15702	0.2066	0.12226	0.1719	0.18918	0.069701	0.054312	0.1071	0.25675	0.066164	0.35262	0.013987	0.27672	0.05635	0.11342	0.34664	-2.2833	-2.6375	-2.8271	-2.6771	-2.6917	-2.8604	-2.7479	-2.825	-2.6104	-2.5167	-3.15	-2.5333	-2.7417	-2.7167	-2.6229	-2.9938	357.281	256.066	293.315	365.409	314.608	402.301	177.451	376.049	446.361	159.482	402.981	168.823	227.256	123.981	203.438	306.108	0.00051947	5.2481e-05	1.6197e-05	127.9	1.1427e-06	2.2326e-05	185.06	46.079	1.4822e-06	3.5136e-07	79.332	29.897	15.744	5.3804	6.2484e-07	12.682	0.00014422	3.4935e-05	1.012e-05	146.75	3.8015e-07	2.112e-06	209.55	52.15	3.9343e-07	3.777e-07	95.979	33.389	17.165	6.1339	3.8896e-07	14.104	280.150	222.166	213.269	114.471	250.822	213.326	114.647	120.307	202.980	228.951	120.262	124.493	124.618	129.791	219.952	128.206	-8191	255	
3039.833	1	1	0	0	0.059891	0.16144	0.03642	0.058882	0.066428	0.29075	0.34437	0.10615	0.029692	0.065095	0.14062	0.27221	0.20546	0.24508	0.12075	0.15736	-2.5479	-2.5667	-2.9083	-2.7729	-2.7292	-3.05	-2.7354	-2.9146	-2.9	-2.7188	-2.9688	-2.7521	-2.4979	-2.9437	-2.475	-3.0104	227.236	123.890	269.266	264.397	124.529	456.684	381.862	288.453	303.377	221.710	212.915	421.554	158.231	397.086	381.199	151.966	0.00047942	4.8122e-05	2.3013e-05	128.99	1.0416e-06	1.961e-05	184.38	46.201	1.2547e-06	9.185e-07	79.263	30.034	15.828	5.431	1.5491e-06	12.615	0.00019337	3.4916e-05	1.0051e-05	146.87	3.8002e-07	1.6776e-06	209.37	52.117	3.9693e-07	3.7954e-07	93.803	34.18	17.197	6.1673	3.9526e-07	14.083	225.471	237.436	243.857	114.267	254.729	217.718	114.749	120.286	142.352	189.528	120.447	124.559	124.674	129.099	301.576	128.338	-8191	255	
3039.930	1	1	0	0	0.11404	0.25562	0.20863	0.20759	0.11076	0.027369	0.072277	0.053836	0.093841	0.14554	0.028393	0.31051	0.22033	0.15338	0.11732	0.16123	-2.3792	-2.5667	-3.0104	-2.7646	-2.7687	-2.9854	-2.6312	-2.9375	-2.9271	-2.8104	-2.9667	-2.8917	-2.75	-2.9375	-2.6854	-2.9104	323.134	359.456	269.961	336.523	265.583	459.187	134.808	353.931	168.329	423.009	346.506	173.216	400.252	289.823	232.597	357.390	0.00038741	6.4025e-05	2.8845e-05	128.49	6.946e-07	2.4307e-05	184.68	45.894	1.5896e-06	7.2801e-07	80.425	30.013	15.878	5.3812	1.0062e-06	12.57	0.00015784	3.5496e-05	1.0075e-05	146.94	3.9183e-07	2.1648e-06	209.86	52.121	3.9911e-07	3.8916e-07	87.834	35.206	17.202	6.1475	3.9675e-07	14.053	231.453	229.811	200.438	114.410	296.238	222.281	115.054	120.060	238.347	228.470	119.465	124.566	125.165	129.757	279.793	128.253	-8191	255	
3040.048	1	1	0	0	0.14257	0.1839	0.24344	0.10768	0.30877	0.10662	0.033307	0.077851	0.2134	0.064415	0.24075	0.13984	0.13655	0.1742	0.24966	0.31501	-2.4667	-2.4562	-2.75	-2.7396	-2.7521	-2.9708	-2.6562	-2.8063	-2.8167	-2.6562	-2.7729	-2.6188	-2.6	-2.8583	-2.9104	-2.9125	245.590	361.772	334.030	404.308	346.171	402.021	440.259	231.508	349.918	218.192	150.079	231.591	147.219	250.057	274.074	427.732	0.00065659	0.00010953	1.0111e-05	128.81	1.5982e-06	2.222e-05	184.3	45.977	1.811e-06	5.6005e-07	79.47	29.37	15.731	5.3487	9.7457e-07	12.503	0.00020748	3.5996e-05	1.0079e-05	147.33	3.9322e-07	1.8269e-06	210.01	51.945	4.1393e-07	3.9629e-07	87.337	35.872	17.13	6.0632	3.9987e-07	13.908	230.121	253.792	159.989	114.337	238.654	232.069	115.013	120.266	204.786	200.282	119.316	125.143	124.848	130.005	221.222	128.314	-8191	255	
3040.145	1	1	0	0	0.26131	0.14029	0.2399	0.22421	0.15397	0.28307	0.11631	0.17508	0.20811	0.32301	0.2683	0.12488	0.094949	0.23754	0.21087	0.20901	-2.5479	-2.6229	-2.925	-2.8396	-2.6604	-2.9875	-2.8063	-2.8875	-3.0521	-2.7458	-2.9354	-2.8667	-2.5062	-2.8625	-2.8021	-2.8458	255.359	340.806	344.630	158.732	349.501	203.505	112.433	375.410	298.874	134.285	336.013	293.202	189.039	119.003	213.697	234.719	0.00051369	9.975e-05	2.8721e-05	128.1	1.2326e-07	5.4422e-06	185.88	45.756	7.7514e-07	8.2757e-07	79.692	29.186	15.639	5.3164	5.3989e-07	12.414	0.00017279	3.6196e-05	1.0085e-05	146.47	3.9347e-07	1.3286e-06	214.37	51.749	4.106e-07	3.9478e-07	87.156	35.027	17.029	6.0347	4.0836e-07	13.869	238.728	176.061	276.952	114.295	272.071	314.440	115.115	120.164	175.081	230.569	119.088	124.909	124.913	129.622	405.592	128.380	-8191	255	
3040.241	1	1	0	0	0.066789	0.17521	0.13516	0.14401	0.13411	0.16651	0.23069	0.10229	0.056105	0.18842	0.095975	0.14702	0.13148	0.012101	0.067225	0.085458	-2.4375	-2.7708	-2.9188	-3.0208	-2.7896	-2.9146	-2.9896	-2.7521	-3.15	-2.7458	-2.7812	-2.9979	-2.6562	-2.9333	-2.7729	-2.7833	124.505	420.809	189.120	453.703	299.051	252.320	298.881	299.284	448.679	412.390	433.047	451.033	397.987	340.215	414.311	350.415	0.00069641	6.8153e-05	2.8476e-05	127.57	1.4867e-06	5.7445e-07	184.34	45.404	2.4025e-06	1.5866e-06	79.258	29.271	15.694	5.3471	1.2628e-06	12.486	0.00021383	3.6159e-05	9.9915e-06	146.3	3.9099e-07	3.9493e-07	219.78	51.738	4.2438e-07	3.9438e-07	87.191	35.787	17.08	6.0603	4.0177e-07	13.936	241.357	174.221	255.211	114.147	246.261	265.041	115.230	120.570	232.208	224.261	119.013	125.017	124.331	129.737	246.448	128.228	-8191	255	
3040.337	1	1	0	0	0.2062	0.3866	0.1352	0.05956	0.097845	0.12898	0.22251	0.070769	0.14987	0.22828	0.11911	0.21702	0.12458	0.21952	0.21335	0.14284	-2.65	-2.7521	-2.8354	-2.9479	-2.5812	-2.8104	-2.8854	-2.6521	-2.9	-2.9792	-2.8458	-2.8479	-2.6708	-2.9979	-2.9562	-2.5646	412.867	258.816	364.407	130.493	240.294	410.211	416.365	213.137	180.804	424.285	128.844	108.427	155.953	325.075	221.033	200.282	0.00057602	7.6132e-05	1.698e-05	127.51	1.6862e-06	1.4108e-06	185.34	45.858	1.1756e-06	1.1622e-06	80.035	29.328	15.688	5.3829	9.0137e-07	12.566	0.00017059	3.6214e-05	9.8495e-06	146.36	3.9065e-07	4.0022e-07	223.71	51.797	4.0971e-07	3.9689e-07	87.511	35.342	17.153	6.0948	4.1019e-07	14.004	248.214	180.874	222.971	114.260	172.992	197.028	115.634	120.112	265.484	210.886	119.088	124.914	124.414	129.972	270.047	128.099	-8191	255	
3040.433	1	1	0	0	0.13216	0.11094	0.22855	0.18113	0.12337	0.20614	0.21102	0.10489	0.42263	0.077314	0.22961	0.18197	0.21521	0.37244	0.23099	0.11601	-2.6917	-2.7083	-2.6083	-2.9021	-2.7354	-2.9625	-2.7938	-2.6688	-2.9604	-2.7396	-2.6125	-3.0021	-2.7	-2.7604	-2.8396	-2.7042	321.359	404.061	171.689	206.527	227.722	431.085	372.128	459.642	287.775	461.922	397.476	131.301	107.747	202.113	285.567	233.952	0.00020679	0.0018303	3.0047e-05	128.33	1.1266e-06	6.9519e-07	185.71	45.723	4.52e-07	7.2165e-07	79.528	29.144	15.613	5.3134	1.5456e-06	12.469	0.00011742	0.00010926	1.0034e-05	146.75	4.0595e-07	4.0022e-07	221.07	51.84	4.0637e-07	4.1154e-07	87.1	35.917	17.088	6.0492	4.1596e-07	13.899	187.922	135.781	221.051	114.169	228.092	293.498	115.440	120.108	211.132	281.512	119.093	124.809	124.958	129.550	261.130	128.186	-8191	255	
3040.529	1	1	0	0	0.066084	0.090006	0.16073	0.06519	0.2846	0.15638	0.15428	0.32001	0.1843	0.12065	0.2241	0.12144	0.24836	0.25049	0.062186	0.24946	-2.6479	-2.6854	-2.6417	-3.025	-2.7458	-2.8646	-3.0187	-2.5979	-2.875	-2.9	-2.6	-3.0875	-2.8312	-2.6417	-3.0146	-2.6437	136.643	282.314	224.400	460.254	255.349	435.782	455.842	345.197	381.123	314.356	104.128	425.179	188.688	416.334	449.228	432.157	0.00028972	0.0015484	2.508e-05	127.99	1.2311e-06	1.4405e-06	184.87	45.555	4.5293e-07	8.7337e-07	78.855	28.901	15.494	5.2489	7.2323e-07	12.369	4.1343e-05	0.0001793	1.0008e-05	146.08	4.0765e-07	4.0148e-07	224.37	51.532	4.1149e-07	4.0916e-07	86.61	35.214	16.944	5.9985	4.2531e-07	13.792	321.634	455.428	124.349	114.466	227.850	259.181	115.732	120.233	159.823	198.328	119.313	124.702	124.862	129.594	297.062	128.293	-8191	255	
3040.650	1	1	0	0	0.18786	0.089802	0.27458	0.10888	0.19176	0.19747	0.018054	0.20258	0.16393	0.094634	0.13844	0.080673	0.10684	0.14618	0.081356	0.16716	-2.5021	-2.7792	-2.6063	-2.9292	-2.7583	-2.7417	-3.0021	-2.5396	-3	-2.8875	-2.4875	-2.8958	-2.6896	-2.8271	-2.9771	-2.5938	295.054	414.305	205.114	212.466	112.705	442.301	316.970	132.446	338.414	232.522	187.784	431.933	131.583	181.633	315.253	400.406	0.00028144	0.0020228	2.6322e-05	126.7	3.9138e-07	1.2414e-06	184.34	45.342	9.2687e-07	5.1191e-07	78.995	28.815	15.596	5.3294	7.4288e-07	12.393	4.1444e-05	0.00023176	1.0188e-05	145.37	4.0489e-07	3.9654e-07	220.38	51.489	4.0797e-07	4.1902e-07	86.686	34.039	18.839	6.037	4.1757e-07	13.853	316.079	461.630	219.862	114.448	240.238	215.435	115.595	120.108	176.950	151.399	119.447	124.809	124.274	129.430	245.044	128.367	-8191	255	
3040.744	1	1	0	0	0.29754	0.067052	0.058666	0.32477	0.1494	0.37663	0.18661	0.18299	0.14098	0.16876	0.14176	0.10209	0.26427	0.094558	0.27174	0.04521	-2.4188	-2.8146	-2.6292	-3.0042	-2.7583	-2.8667	-3.0292	-2.7188	-2.8	-2.9708	-2.6437	-2.9333	-2.7917	-2.5687	-3.0021	-2.7479	272.120	393.312	300.505	389.368	432.774	120.135	164.406	169.393	359.249	273.545	238.343	306.765	324.121	459.112	160.457	343.079	0.00030749	0.0017298	1.8438e-05	127.79	1.8357e-06	8.8839e-07	183.64	45.892	1.4326e-06	3.6795e-07	79.406	29.536	15.113	5.3554	1.3838e-06	12.526	4.111e-05	0.00018487	1.035e-05	145.77	4.1099e-07	4.0575e-07	224.52	51.72	4.0217e-07	4.1737e-07	87.041	33.129	20.161	6.0708	4.2102e-07	13.978	315.403	110.739	185.914	114.490	233.956	189.788	115.812	119.702	321.740	206.136	119.377	124.825	125.877	129.298	241.349	128.159	-8191	255	
3040.840	1	1	0	0	0.068582	0.086638	0.19608	0.17576	0.070913	0.18084	0.094428	0.037372	0.16716	0.19037	0.17879	0.11289	0.15956	0.15234	0.2819	0.16409	-2.4062	-2.8854	-2.5625	-2.9542	-2.8563	-2.6917	-3.0042	-2.6604	-2.7521	-2.9667	-2.65	-2.8667	-2.8521	-2.5479	-3.0187	-2.7271	176.618	460.922	110.970	374.997	216.197	244.692	346.110	165.774	450.811	270.464	116.660	320.747	210.823	276.631	460.448	432.430	0.00031836	0.0021688	3.3211e-05	127.69	8.8579e-07	1.0655e-06	183	45.54	1.3064e-06	1.313e-06	79.595	29.595	14.892	5.3447	1.4484e-06	12.477	4.1051e-05	0.0002283	1.0295e-05	146.31	4.1488e-07	4.0005e-07	220.73	51.793	4.079e-07	4.2485e-07	87.191	33.155	21.133	6.0723	4.1191e-07	13.936	321.880	116.167	155.041	114.729	233.107	273.967	115.367	120.193	256.859	200.419	119.269	124.487	125.717	129.343	244.942	128.238	-8191	255	
3040.914	1	1	0	0	0.24947	0.27548	0.13454	0.059597	0.21643	0.30511	0.29295	0.20119	0.32102	0.015885	0.1006	0.086783	0.17577	0.16701	0.27766	0.08208	-2.3417	-2.9313	-2.7687	-3.0271	-2.7667	-2.8604	-3.0417	-2.7354	-2.7458	-2.9521	-2.6979	-2.9562	-2.8042	-2.7375	-2.9917	-2.6771	398.459	330.178	338.795	405.899	377.919	340.115	232.004	441.974	314.167	114.161	189.528	228.191	338.194	429.723	186.004	435.188	0.00032311	0.0017098	1.9379e-05	127.09	6.082e-07	7.0397e-07	181.84	46.051	5.1587e-07	1.2373e-06	78.778	29.42	14.847	5.3267	5.4721e-07	12.452	4.0772e-05	0.00018357	1.0386e-05	145.51	4.2122e-07	3.9925e-07	213.05	54.464	4.0254e-07	4.1412e-07	86.594	32.955	20.091	6.0359	4.0815e-07	13.877	321.793	122.518	140.918	114.406	247.675	174.636	115.029	121.098	220.134	209.139	119.428	124.533	125.369	129.757	211.185	128.429	-8191	255	
3041.010	1	1	0	0	0.071834	0.25583	0.32807	0.11624	0.1999	0.12983	0.08018	0.12447	0.0098175	0.072066	0.11434	0.26014	0.022339	0.076774	0.31509	0.22716	-2.3563	-2.9979	-2.7	-2.8125	-2.8583	-2.6708	-2.8875	-2.7687	-2.6667	-3.1562	-2.7812	-2.8312	-3.0229	-2.7229	-2.7271	-2.8021	405.005	448.591	203.074	425.984	409.200	220.188	315.310	206.740	164.966	149.421	406.933	330.207	411.713	434.341	455.175	363.472	0.00032207	0.0020356	3.4746e-05	127	2.5141e-07	3.3836e-07	182.24	45.703	6.5335e-07	4.6324e-07	79.403	29.352	14.622	5.3272	4.9788e-07	12.402	4.0879e-05	0.00023136	1.031e-05	145.14	4.1843e-07	4.0057e-07	207.21	56.178	4.1471e-07	4.2113e-07	86.573	32.916	21.093	6.0432	4.0745e-07	13.835	314.584	122.229	147.564	114.241	247.425	282.273	114.885	121.204	159.071	141.690	119.601	124.362	124.757	130.061	363.792	128.248	-8191	255	
3041.129	1	1	0	0	0.16868	0.022399	0.18085	0.17878	0.19386	0.19701	0.12363	0.056826	0.081992	0.19465	0.01283	0.12716	0.14408	0.037841	0.19738	0.22218	-2.1875	-2.8312	-2.5021	-2.8229	-2.9521	-2.6021	-2.8354	-2.8875	-2.7021	-2.925	-2.6729	-2.8146	-2.9354	-2.7542	-2.9521	-2.8167	405.737	325.488	286.502	312.793	300.628	437.148	324.524	223.766	334.375	117.576	257.536	150.967	180.660	131.043	449.676	152.314	0.00034084	0.00066272	1.6483e-05	127.43	5.6836e-07	8.605e-07	183.52	45.417	1.2946e-06	7.6477e-07	79.148	29.507	14.922	5.3072	1.3456e-06	12.459	4.1669e-05	0.00017287	1.02e-05	145.46	4.2889e-07	4.022e-07	207.64	57.679	4.0457e-07	4.1596e-07	86.617	33.004	20.086	6.0493	4.0059e-07	13.938	322.308	408.405	221.215	114.259	275.544	192.375	114.977	121.383	221.573	163.916	119.381	124.848	125.267	129.283	255.869	128.312	-8191	255	
3041.225	1	1	0	0	0.24141	0.16588	0.22109	0.18663	0.15524	0.034322	0.14088	0.12311	0.27058	0.228	0.24928	0.28564	0.29122	0.079819	0.2315	0.20953	-2.1646	-2.8229	-2.7417	-2.9375	-3.0604	-2.7083	-2.7708	-2.9417	-2.6458	-2.9958	-2.9417	-2.7646	-3.1208	-2.7375	-2.8917	-3.0271	286.939	289.317	356.300	418.416	387.755	447.029	452.523	315.843	397.039	462.869	267.679	157.450	431.421	442.050	371.711	298.418	0.00032488	0.00066769	0.0007291	126.69	9.1805e-07	5.432e-07	183.11	45.795	2.8975e-07	8.7841e-07	79.807	29.586	14.837	5.3514	1.1866e-06	12.377	4.1544e-05	9.4851e-05	3.9889e-05	145.72	4.1646e-07	4.0342e-07	208.14	56.519	4.1031e-07	4.0706e-07	87.203	33.057	21.194	6.0537	4.0319e-07	13.876	314.542	410.300	162.683	114.326	219.740	274.955	115.039	121.262	109.603	265.654	119.079	124.472	124.330	129.418	266.039	128.375	-8191	255	
3041.321	1	1	0	0	0.32547	0.080717	0.056995	0.1398	0.044994	0.22636	0.13763	0.084452	0.27559	0.048895	0.15707	0.14803	0.11884	0.15086	0.039196	0.18509	-2.2479	-2.9104	-2.9083	-2.6937	-2.9979	-2.7479	-2.8229	-2.9062	-2.5271	-3.0729	-2.7771	-2.6688	-3.1063	-2.8292	-2.7708	-2.9125	435.840	295.129	446.192	156.212	236.177	328.801	387.326	433.696	416.302	106.930	331.344	114.165	456.223	439.598	321.348	348.156	0.0003133	6.2718e-05	0.00063203	126.68	2.0302e-07	7.0654e-07	181.6	45.317	6.308e-07	9.94e-07	79.575	29.394	14.893	5.3149	8.5183e-07	12.483	4.1044e-05	3.6527e-05	5.1272e-05	145.16	4.262e-07	4.0782e-07	207.25	57.684	4.0474e-07	3.9598e-07	86.613	32.898	19.661	6.0366	4.0261e-07	13.894	321.905	196.368	146.651	114.450	167.811	200.058	114.672	121.478	233.554	237.671	119.555	124.656	125.672	129.562	278.400	128.422	-8191	255	
3041.417	1	1	0	0	0.10873	0.16555	0.11045	0.060288	0.14884	0.27541	0.14016	0.037887	0.27509	0.17967	0.16673	0.034559	0.12878	0.069974	0.14946	0.13414	-2.2417	-2.6437	-2.9479	-2.6937	-2.95	-2.6979	-2.8333	-3.0687	-2.9	-2.9604	-2.8042	-2.7625	-2.9604	-2.6646	-2.5938	-3.075	118.951	115.101	279.083	185.226	231.672	357.506	433.215	343.949	436.410	432.396	179.699	458.230	239.175	444.997	235.284	125.315	0.00033852	6.9391e-05	0.0007791	126.87	1.4906e-06	7.2301e-07	182.71	45.34	1.0925e-06	1.0199e-06	78.607	29.265	14.685	5.3215	1.6926e-06	12.451	4.1574e-05	3.6737e-05	6.4298e-05	144.98	4.1469e-07	4.0427e-07	207.07	56.045	4.0627e-07	3.9635e-07	86.454	32.882	17.997	6.6154	4.0187e-07	13.901	322.774	166.120	153.009	114.725	260.846	241.363	114.733	120.978	339.376	218.162	119.358	124.316	125.873	128.650	254.597	128.525	-8191	255	
3041.538	1	1	0	0	0.15596	0.082752	0.20438	0.28463	0.27316	0.055704	0.23225	0.10589	0.19004	0.077227	0.04459	0.084669	0.096308	0.061886	0.18002	0.039866	-2.2958	-2.7979	-2.8729	-2.65	-2.9146	-2.8312	-2.7438	-2.9458	-2.725	-2.6854	-3.0521	-2.5771	-2.8729	-2.6667	-2.7292	-3.2042	266.992	131.543	403.196	404.573	117.494	347.792	324.040	210.657	215.731	347.329	237.767	274.872	106.787	117.827	437.843	207.404	0.00029566	2.233e-05	0.00058089	126.66	1.4638e-06	7.4274e-07	183.21	44.852	6.7686e-08	8.2298e-07	78.897	29.585	15.484	5.2049	2.4614e-06	12.49	4.115e-05	3.6403e-05	5.1344e-05	145.13	4.0659e-07	4.1538e-07	207.53	57.543	3.9882e-07	3.9928e-07	86.685	32.996	16.927	6.7848	4.0704e-07	13.925	317.158	282.975	151.746	114.323	193.673	224.430	114.768	121.741	271.300	288.257	119.041	124.505	124.800	129.135	247.063	128.418	-8191	255	
3041.610	1	1	0	0	0.21651	0.29738	0.090084	0.21104	0.11006	0.27876	0.11248	0.17393	0.046665	0.16215	0.16134	0.082089	0.18642	0.138	0.1274	0.40714	-2.2917	-2.7521	-2.8646	-2.6521	-2.95	-2.9729	-2.8979	-2.8	-2.6729	-2.7625	-2.9458	-2.6646	-2.8917	-2.875	-2.7479	-2.9896	156.867	117.299	446.125	258.873	184.697	448.810	277.937	257.472	409.055	323.449	462.120	405.079	316.674	240.219	320.025	208.327	0.00029509	5.0786e-05	0.00075769	127	6.1736e-07	1.4392e-06	182.79	45.085	1.2533e-05	1.1497e-06	79.758	29.623	15.536	5.1646	1.0251e-06	12.441	4.1304e-05	3.6276e-05	6.4288e-05	145.35	3.9886e-07	4.0429e-07	208.11	55.582	4.4382e-07	3.991e-07	87.241	33.078	16.999	7.0061	4.034e-07	13.917	321.418	142.268	164.750	114.268	341.309	284.249	114.815	121.041	250.735	235.379	119.507	124.315	124.861	128.621	279.358	128.363	-8191	255	
3041.730	1	1	0	0	0.37387	0.19876	0.15795	0.021084	0.19452	0.21753	0.0060967	0.14692	0.10383	0.27134	0.1475	0.09699	0.22717	0.097926	0.13533	0.031083	-2.2917	-2.5833	-3.075	-2.6521	-2.8521	-2.9104	-2.5958	-2.9562	-2.9375	-2.7792	-2.8979	-2.7146	-2.7604	-2.7625	-2.7229	-2.7646	250.760	132.162	168.666	336.411	219.301	431.655	461.555	288.578	370.388	431.149	300.185	362.936	380.820	367.081	199.502	343.258	0.00031098	5.1368e-05	0.0005516	127.72	6.5878e-07	8.8257e-07	182.25	44.574	1.2006e-05	4.8207e-07	78.971	29.433	15.537	5.2154	4.6531e-08	12.411	4.1385e-05	3.6242e-05	5.0787e-05	145.37	3.9003e-07	4.1707e-07	207.32	52.615	1.7288e-06	3.966e-07	86.45	32.862	16.9	6.7563	4.0007e-07	13.861	319.914	190.618	165.893	114.468	343.151	233.766	114.788	120.842	240.671	225.481	119.031	124.621	124.915	128.518	321.001	128.496	-8191	255	
3041.825	1	1	0	0	0.21721	0.28447	0.15695	0.19556	0.21102	0.080139	0.24979	0.13117	0.014801	0.076138	0.25633	0.28041	0.25023	0.035145	0.12531	0.22963	-2.4167	-2.5458	-2.9479	-2.7875	-2.75	-2.8708	-2.7167	-2.9313	-2.8042	-2.8438	-3.0354	-2.7313	-2.575	-3.0125	-2.6896	-2.8958	272.114	268.974	423.610	105.832	171.393	339.222	403.009	117.440	387.315	331.969	176.321	324.349	279.120	373.557	219.057	282.134	0.00031916	3.6634e-05	0.00075109	126.79	2.8325e-07	9.8034e-07	182.14	45.483	2.2013e-05	8.1255e-07	78.751	29.395	15.499	5.1935	2.0352e-06	12.444	4.1856e-05	3.652e-05	6.3117e-05	144.98	3.9623e-07	4.1949e-07	207.17	51.304	1.981e-06	4.009e-07	86.683	32.949	16.941	6.9941	3.9927e-07	13.891	323.257	209.246	175.577	114.380	186.384	180.564	114.607	120.182	325.553	199.525	119.482	124.564	124.792	128.448	235.879	128.198	-8191	255	
3041.921	1	1	0	0	0.15967	0.094419	0.25971	0.016118	0.098995	0.13526	0.056352	0.18925	0.047132	0.36646	0.25553	0.18667	0.17513	0.1179	0.085679	0.069193	-2.4875	-2.7833	-2.9333	-2.7396	-2.7521	-3.0625	-2.7771	-2.9792	-2.8187	-2.675	-2.9833	-2.8979	-2.6333	-2.8604	-2.5083	-2.9917	258.468	271.499	377.974	367.798	135.776	146.781	420.545	383.271	120.620	342.420	219.095	285.571	154.778	270.829	307.297	205.008	0.0003257	0.00011207	2.3396e-05	129.22	1.6288e-06	1.0001e-06	182.4	45.398	2.7507e-05	7.5459e-07	79.053	29.363	15.514	5.2213	9.4544e-07	12.541	4.1958e-05	3.6705e-05	4.1562e-05	145.96	4.0448e-07	4.1565e-07	207.66	51.476	2.4851e-06	3.9866e-07	86.659	33.014	16.98	6.7771	4.0379e-07	13.958	327.869	226.815	327.860	114.270	275.390	233.954	114.804	120.055	324.062	222.520	119.354	124.485	125.287	128.597	273.776	128.469	-8191	255	
3042.017	1	1	0	0	0.13865	0.2327	0.14189	0.1064	0.31628	0.13727	0.18559	0.017447	0.1305	0.069338	0.26996	0.22356	0.076541	0.34512	0.11133	0.19774	-2.3521	-2.65	-2.975	-2.8417	-2.7542	-3.1104	-2.7062	-2.6917	-2.8875	-2.6083	-2.8729	-2.7375	-2.6375	-3.0187	-2.6583	-2.8583	219.973	164.650	259.943	368.379	147.097	111.761	362.324	419.672	300.699	382.219	293.034	274.612	266.157	430.953	461.731	354.855	0.00031813	6.7197e-05	5.6437e-05	130.6	1.166e-06	6.4662e-07	182.3	45.598	2.141e-05	1.8236e-06	79.956	29.462	15.557	5.2231	7.211e-07	12.424	4.2439e-05	3.6845e-05	1.8769e-05	157.43	3.9983e-07	4.1866e-07	207.92	51.54	2.023e-06	4.0056e-07	87.238	33.085	17.025	7.0176	3.9819e-07	13.877	317.657	153.757	293.517	114.462	232.558	321.353	114.669	120.071	331.988	245.539	119.590	124.464	124.361	128.117	242.884	128.372	-8191	255	
3042.137	1	1	0	0	0.19649	0.22541	0.13515	0.21738	0.17293	0.033818	0.19234	0.17625	0.196	0.14946	0.33278	0.32035	0.25057	0.2915	0.2148	0.23598	-2.3104	-2.4729	-2.9729	-2.6896	-2.5875	-2.9667	-2.65	-2.8292	-2.825	-2.6104	-2.9313	-2.8708	-2.6667	-2.9917	-2.7542	-2.7521	326.376	366.944	213.062	185.563	213.117	420.529	322.908	453.987	360.962	268.247	357.008	412.961	445.794	218.366	249.308	164.368	0.00030682	0.00012053	2.3869e-05	129.12	9.7511e-07	1.8133e-07	183.48	45.397	2.4475e-05	8.6748e-07	78.948	29.377	15.537	5.1729	1.6888e-05	12.417	4.227e-05	3.6217e-05	1.0089e-05	158.52	4.0448e-07	4.1183e-07	207.48	51.469	2.4913e-06	3.9486e-07	86.511	32.914	16.945	6.5507	5.7857e-07	13.86	319.565	214.216	288.019	114.712	297.284	248.434	114.835	120.511	337.898	250.809	119.106	124.643	124.897	129.784	182.679	128.624	-8191	255	
3042.209	1	1	0	0	0.15232	0.23714	0.040061	0.23085	0.12506	0.19208	0.14416	0.082489	0.12757	0.12624	0.33655	0.25333	0.27276	0.16343	0.061428	0.075067	-2.5083	-2.7479	-2.7833	-2.7125	-2.6667	-3.0312	-2.7396	-2.6896	-2.9396	-2.5687	-3.0333	-2.7896	-2.7083	-3.0708	-2.7208	-2.7313	236.589	349.504	182.988	210.319	183.641	251.382	446.230	401.221	185.976	141.621	410.095	352.660	405.525	439.935	135.999	371.576	0.00029789	2.6785e-05	2.5246e-05	129.79	2.1362e-06	3.2659e-07	182.65	45.302	2.0945e-05	3.2377e-07	79.436	29.4	15.537	5.1652	2.504e-05	12.548	4.286e-05	3.6667e-05	1.0042e-05	162.27	4.0603e-07	4.0433e-07	207.51	51.33	2.0149e-06	4.0121e-07	86.658	32.982	16.959	6.1547	1.9565e-06	13.925	324.512	122.445	194.917	114.367	239.490	231.068	114.830	120.519	338.210	149.851	119.640	124.719	125.063	129.355	185.180	128.433	-8191	255	
3042.305	1	1	0	0	0.22775	0.070895	0.11951	0.21173	0.18462	0.17058	0.3537	0.10331	0.12471	0.079609	0.10122	0.30808	0.12302	0.093174	0.076203	0.33344	-2.4854	-2.775	-2.7292	-2.8833	-2.4562	-2.7417	-2.7062	-2.4771	-2.8187	-2.8021	-2.8438	-2.8833	-2.7604	-2.9417	-2.8146	-2.6125	396.967	183.089	151.729	426.425	339.905	299.802	394.844	334.345	238.921	298.000	258.755	335.546	387.632	188.940	417.528	279.459	0.0003539	4.6786e-05	2.443e-05	128.84	8.8025e-07	1.1257e-06	182.16	45.462	2.7429e-05	4.0553e-07	79.648	29.64	15.576	5.3362	2.2487e-05	12.526	4.2886e-05	3.6801e-05	1.0208e-05	158.62	4.0526e-07	4.0255e-07	208.16	51.483	2.537e-06	3.9817e-07	86.898	33.187	17.013	6.061	2.0344e-06	13.979	320.706	256.108	224.562	114.850	285.898	265.900	114.620	120.377	347.140	261.787	119.389	124.634	124.780	129.923	130.173	128.650	-8191	255	
3042.426	1	1	0	0	0.15961	0.1929	0.11708	0.15763	0.21331	0.10347	0.014837	0.14553	0.1753	0.13205	0.16159	0.083865	0.14368	0.13832	0.079256	0.15058	-2.5771	-2.6083	-2.6104	-2.9188	-2.6521	-2.7854	-2.8396	-2.7417	-2.8812	-2.8	-2.6583	-2.8979	-2.7229	-2.7958	-2.8958	-2.6042	236.605	390.124	402.605	433.664	107.078	177.837	271.993	363.381	408.003	176.216	169.434	319.610	162.048	227.708	236.143	273.671	0.00030889	9.899e-05	1.7412e-05	130	1.6974e-06	7.8298e-07	183.04	45.7	2.1528e-05	2.8392e-06	79.78	29.616	15.649	5.358	2.9164e-05	12.489	4.2852e-05	3.6737e-05	1.0261e-05	163.27	4.0284e-07	4.009e-07	208.28	51.651	1.5342e-06	6.6847e-07	87.286	33.175	17.043	6.0695	2.5342e-06	13.962	324.552	198.907	218.171	115.120	250.653	209.834	114.586	120.328	362.605	252.824	119.356	124.556	124.616	129.642	142.561	128.280	-8191	255	
3042.522	1	1	0	0	0.19847	0.078122	0.075555	0.11313	0.081846	0.27612	0.076251	0.15821	0.25514	0.19302	0.07544	0.21666	0.057366	0.29331	0.10616	0.31817	-2.5938	-2.8042	-2.7208	-2.9562	-2.6083	-2.8375	-3.0187	-2.625	-2.9083	-2.7771	-2.8833	-2.9167	-2.5292	-2.95	-3.0417	-2.6667	214.332	129.097	327.556	384.325	131.067	409.110	396.088	354.391	263.989	381.638	457.389	116.979	129.835	451.117	201.122	193.626	0.00029881	8.096e-05	6.6591e-06	129.86	1.2809e-06	8.8414e-07	182.62	45.228	2.8817e-05	2.785e-06	79.477	29.21	15.525	5.2952	2.0897e-05	12.461	4.1118e-05	3.6728e-05	1.0166e-05	158.82	3.9986e-07	3.9832e-07	207.47	51.325	5.4182e-07	2.0482e-06	86.751	32.898	16.853	6.025	2.0285e-06	13.876	319.728	184.656	232.842	114.989	240.099	235.014	114.911	120.225	365.077	267.416	119.237	124.698	125.021	129.587	148.195	128.706	-8191	255	
3042.618	1	1	0	0	0.13772	0.21471	0.090883	0.24477	0.16977	0.14136	0.20282	0.13657	0.044332	0.23033	0.12837	0.10304	0.082527	0.21688	0.2886	0.074709	-2.4375	-2.7333	-2.7062	-2.8917	-2.625	-2.9854	-2.9	-2.7229	-2.8542	-2.8458	-2.5167	-2.8896	-2.6708	-2.8	-2.9792	-2.8521	351.092	248.361	359.153	456.066	237.858	383.447	461.980	119.531	261.443	265.658	328.841	265.079	389.891	107.131	248.014	437.585	0.00031494	7.5142e-05	1.5854e-05	129.42	9.7682e-07	2.9994e-07	181.76	45.192	2.144e-06	1.7906e-05	79.329	29.426	15.359	5.3225	2.8728e-05	12.507	4.0786e-05	3.8246e-05	1.0148e-05	162.39	3.9928e-07	4.0555e-07	207.15	51.267	3.9871e-07	2.0301e-06	86.582	32.957	16.858	6.0429	2.5458e-06	13.928	321.405	229.508	306.121	115.096	252.226	186.817	114.576	120.079	251.337	365.494	119.424	124.685	125.001	129.637	150.253	128.342	-8191	255	
3042.714	1	1	0	0	0.16838	0.067312	0.1226	0.11684	0.18125	0.14825	0.062392	0.11785	0.095156	0.17887	0.033827	0.28618	0.17647	0.061926	0.17525	0.21514	-2.4458	-2.8646	-2.5	-2.9583	-2.7729	-2.65	-3.1	-2.5938	-2.8542	-2.8937	-2.6708	-2.9146	-2.6958	-2.8	-3.0229	-2.5312	453.871	275.510	228.099	319.449	343.440	213.781	278.239	148.248	211.556	372.915	277.963	458.339	281.113	336.827	286.039	159.827	0.00029605	3.1711e-05	5.9686e-06	126.89	2.0405e-05	2.6711e-07	182.35	45.455	4.5129e-07	2.2978e-05	79.211	29.532	15.556	5.3495	1.98e-05	12.559	4.1212e-05	3.8193e-05	1.0315e-05	153.55	7.3919e-07	4.0631e-07	207.68	51.383	4.0209e-07	2.5546e-06	86.646	33.049	16.968	6.0795	2.0465e-06	14.017	321.410	165.636	176.470	114.959	240.099	148.145	115.107	120.218	239.636	375.365	119.107	124.628	124.416	129.339	159.122	128.777	-8191	255	
3042.811	1	1	0	0	0.23065	0.068799	0.23432	0.20733	0.033422	0.17032	0.33253	0.20681	0.018227	0.12588	0.21118	0.19762	0.23764	0.13579	0.048344	0.14568	-2.4146	-2.8146	-2.5167	-2.9896	-2.775	-2.875	-2.9167	-2.6083	-2.8396	-2.9938	-2.4958	-2.8042	-2.7875	-2.6833	-2.9333	-2.7792	282.439	312.194	230.057	220.775	335.344	300.069	377.043	331.111	283.312	118.269	336.077	194.450	417.776	196.203	327.116	107.163	0.0003161	3.7021e-05	1.7288e-05	126.26	2.6137e-05	7.551e-07	182.47	45.61	1.0323e-07	1.7914e-05	79.679	29.599	15.381	5.401	3.0113e-05	12.531	4.1368e-05	3.875e-05	1.0219e-05	145.35	2.1606e-06	4.0536e-07	207.91	51.552	4.073e-07	2.0591e-06	87.082	33.133	16.99	6.1142	2.5394e-06	14.035	315.680	146.261	277.082	115.028	238.572	246.745	114.693	120.038	198.960	375.694	119.204	124.583	124.765	129.631	161.410	128.369	-8191	255	
3042.905	1	1	0	0	0.12717	0.074988	0.040105	0.079534	0.010256	0.18056	0.16328	0.3537	0.15036	0.11244	0.11832	0.20077	0.10431	0.21664	0.047057	0.21674	-2.2562	-2.8354	-2.7604	-2.8083	-2.8812	-2.725	-3	-2.6312	-2.8667	-2.9854	-2.6333	-2.7958	-2.95	-2.7438	-2.9875	-2.875	110.842	175.315	307.382	351.273	454.432	406.347	138.168	377.361	357.443	353.148	458.510	192.673	208.028	315.243	258.236	343.661	0.00031222	8.5416e-05	2.4091e-05	127.3	2.3079e-05	2.5098e-06	183.11	45.355	1.7567e-06	2.3775e-05	79.186	29.447	15.579	5.3482	9.6571e-06	12.633	4.1305e-05	3.8021e-05	1.0163e-05	145.35	2.0135e-06	4.035e-07	207.63	51.305	4.0279e-07	2.5039e-06	86.54	32.886	16.945	6.0519	1.3472e-06	14.163	323.931	169.873	296.766	114.445	273.196	245.531	114.829	120.076	235.105	380.945	119.396	124.556	124.510	129.642	453.284	128.257	-8191	255	
3043.001	1	1	0	0	0.063923	0.21723	0.023059	0.095817	0.34297	0.075002	0.28706	0.12539	0.15331	0.38289	0.22137	0.1426	0.068811	0.055112	0.12712	0.21927	-2.3292	-2.9667	-2.6	-2.7667	-2.8792	-2.5729	-2.9417	-2.7479	-2.8042	-3.1208	-2.5646	-2.6208	-2.7979	-2.6104	-2.8688	-2.7875	124.398	310.224	288.626	305.619	227.943	216.340	235.059	176.598	272.958	173.264	342.105	299.947	265.888	278.566	226.182	380.057	0.00033345	4.5271e-05	3.363e-05	126.18	2.6131e-05	7.092e-07	182.42	45.08	8.8789e-07	1.5186e-05	79.342	29.272	15.385	5.3196	1.0886e-06	12.654	4.1186e-05	3.7729e-05	1.0133e-05	144.46	2.4902e-06	3.9485e-07	206.9	51.233	4.0302e-07	1.9999e-06	86.587	32.851	16.853	6.025	3.9057e-07	15.045	317.878	184.015	197.957	114.507	278.875	258.967	114.826	120.244	209.563	389.926	119.321	124.745	124.606	129.778	288.647	128.132	-8191	255	
3043.097	1	1	0	0	0.28789	0.11003	0.064776	0.13822	0.082749	0.085719	0.23913	0.037451	0.1669	0.11069	0.28327	0.14276	0.22637	0.15728	0.15795	0.24976	-2.4	-2.8167	-2.5875	-2.6667	-2.9271	-2.9292	-2.8937	-2.725	-2.6	-3.0542	-3.0229	-2.6875	-3.0354	-2.6688	-2.8021	-2.7583	436.106	247.106	377.221	370.094	352.341	266.905	284.211	344.341	299.905	290.133	140.939	353.125	287.417	393.799	333.347	132.637	0.00029076	0.0001102	1.8319e-05	126.7	2.5098e-05	5.1299e-07	182.68	45.391	1.0577e-06	2.2937e-05	78.833	29.362	15.451	5.3086	5.1671e-07	12.648	4.1278e-05	3.7682e-05	1.0091e-05	144.68	2.0169e-06	3.9689e-07	207.02	51.36	4.0527e-07	2.5249e-06	86.464	32.872	16.875	6.0349	4.0563e-07	14.971	318.447	217.425	224.732	114.334	284.507	201.824	114.980	119.925	202.705	394.170	119.477	124.793	124.575	129.596	286.994	127.713	-8191	255	
3043.218	1	1	0	0	0.2335	0.18475	0.088032	0.12245	0.045612	0.23387	0.11635	0.10103	0.088955	0.18769	0.11227	0.14631	0.091676	0.20733	0.20643	0.16513	-2.1229	-3.0062	-2.6417	-2.8083	-3.05	-2.7438	-2.9313	-2.8063	-2.6229	-2.9	-2.6604	-2.65	-3.0292	-2.6875	-2.9521	-2.825	318.227	302.737	409.493	222.111	311.062	350.287	177.635	148.909	118.091	208.976	444.759	216.301	147.281	157.753	307.496	168.477	0.0003165	6.2211e-05	8.1536e-06	126.52	3.1632e-05	1.2324e-06	182.96	45.257	9.8958e-07	1.8005e-05	79.355	29.504	15.454	5.3325	1.9576e-06	12.733	4.2642e-05	3.8317e-05	1.0258e-05	145.07	2.5979e-06	4.0278e-07	207.9	51.383	4.1414e-07	1.3408e-06	90.137	33.044	16.935	6.0633	4.0592e-07	15.41	320.936	230.927	287.157	114.782	285.445	173.814	115.025	120.135	257.707	381.438	118.923	124.826	124.898	129.886	270.986	127.863	-8191	255	
3043.312	1	1	0	0	0.27454	0.22744	0.11897	0.065213	0.060066	0.12715	0.10794	0.33881	0.30725	0.17192	0.031169	0.15755	0.054544	0.10945	0.18443	0.16676	-2.0729	-2.9979	-2.7646	-2.8542	-3.0333	-2.6708	-3.0729	-2.9917	-2.6354	-3.0875	-2.75	-2.7771	-2.9292	-2.6354	-2.7729	-2.9938	201.218	321.736	294.128	164.235	410.034	151.177	254.360	412.083	121.750	137.748	191.474	399.086	460.146	424.829	295.387	440.417	0.00031979	9.5955e-05	1.8245e-05	126.53	2.4404e-05	1.8893e-06	181.9	45.007	1.7324e-06	1.0163e-06	79.194	29.237	15.242	5.2557	1.092e-06	12.577	4.1979e-05	3.7001e-05	1.0633e-05	145	2.097e-06	4.0323e-07	207.33	51.096	4.0859e-07	4.0369e-07	99.593	32.75	16.793	5.9897	4.1181e-07	14.916	323.612	144.928	171.830	114.474	297.640	247.400	114.824	119.986	224.557	319.389	119.003	124.619	124.747	129.697	205.109	128.308	-8191	255	
3043.408	1	1	0	0	0.27243	0.25813	0.11843	0.17668	0.096036	0.29596	0.036944	0.19658	0.11034	0.22691	0.23381	0.27235	0.10487	0.084398	0.067717	0.035073	-2.1271	-2.9292	-2.8208	-2.6125	-2.9396	-2.6479	-2.8625	-3.075	-2.5417	-2.9167	-2.9146	-2.6729	-2.7458	-2.8271	-2.7458	-2.9062	357.629	123.542	116.948	349.594	261.277	131.966	139.658	177.562	245.925	203.827	229.520	386.506	112.267	461.797	139.545	236.249	0.00031483	7.7068e-05	1.8279e-05	125.96	2.956e-05	1.1185e-06	182.38	45.444	1.2182e-06	8.1091e-07	77.058	29.317	15.414	5.2706	9.8329e-07	12.724	4.0772e-05	3.7307e-05	1.0754e-05	144.63	2.6334e-06	4.0697e-07	206.78	51.244	4.0906e-07	4.0788e-07	97.448	32.766	16.807	5.9942	4.1542e-07	15.281	320.972	210.449	318.714	114.807	303.906	196.224	114.906	120.241	237.666	284.162	118.713	124.491	124.607	129.752	256.364	128.232	-8191	255	
3043.505	1	1	0	0	0.35645	0.069341	0.24378	0.23673	0.21012	0.23734	0.11765	0.037049	0.3059	0.096362	0.29454	0.13762	0.099919	0.16562	0.11262	0.16868	-2.2062	-2.8042	-2.7229	-2.5979	-2.7229	-2.7667	-2.7167	-3.025	-2.4625	-2.925	-2.7708	-2.6083	-2.8542	-2.8771	-2.7562	-2.9604	144.779	349.574	181.391	389.844	382.960	331.803	370.676	287.375	124.233	179.641	304.447	405.239	379.795	196.035	269.650	197.243	0.00033721	0.00011123	1.0745e-05	126.55	1.7828e-05	1.6888e-05	182.25	45.122	1.3229e-06	1.688e-06	76.064	29.184	15.311	5.2342	1.3777e-06	12.549	4.1908e-05	3.768e-05	1.082e-05	144.38	1.2889e-06	1.0066e-06	206.6	51.113	4.0923e-07	4.1096e-07	101.39	32.787	16.81	5.9803	4.1269e-07	14.941	318.464	199.081	452.013	114.562	343.705	251.848	114.956	120.282	244.336	265.114	118.436	124.575	125.012	129.508	257.635	128.354	-8191	255	
3043.601	1	1	0	0	0.094526	0.055069	0.41153	0.37436	0.17912	0.041099	0.1156	0.26293	0.1299	0.13605	0.06261	0.08863	0.259	0.20073	0.066289	0.15199	-2.2167	-2.7667	-2.8479	-2.5104	-2.8333	-2.8083	-2.6417	-2.9167	-2.5833	-2.7271	-3.1375	-2.5563	-2.7833	-2.7188	-2.5896	-2.8479	138.574	449.027	428.228	397.097	115.466	381.509	373.230	300.456	203.596	394.551	374.086	393.211	356.796	360.769	276.043	356.743	0.00034081	8.9101e-05	2.539e-05	126.76	8.741e-07	2.1034e-05	182.32	45.184	8.9413e-07	6.2587e-07	78.259	29.378	15.35	5.2544	1.4926e-06	12.696	4.1889e-05	3.7818e-05	1.1026e-05	144.73	4.0902e-07	2.6207e-06	207.37	51.307	4.1517e-07	4.1413e-07	98.372	32.915	16.783	6.0025	4.173e-07	15.327	317.270	245.396	220.980	114.278	292.564	255.127	115.052	119.952	232.606	385.384	118.371	124.528	124.992	129.655	225.506	128.265	-8191	255	
3043.721	1	1	0	0	0.0797	0.069869	0.2229	0.20461	0.13279	0.13599	0.1526	0.18425	0.080659	0.21327	0.073599	0.27713	0.083621	0.17114	0.17452	0.22213	-2.3063	-2.7854	-2.8479	-2.6979	-2.9271	-2.8292	-2.65	-2.7438	-2.5229	-2.8167	-3.0271	-2.6146	-2.6771	-2.8583	-2.7562	-2.8792	328.257	399.009	270.153	281.464	340.591	152.750	262.151	235.939	146.984	354.687	187.004	421.421	391.371	198.452	160.070	430.159	0.00032043	9.4742e-05	2.6263e-05	126.41	9.0948e-07	2.788e-05	182.77	45.018	1.1718e-06	5.7553e-07	77.375	29.247	15.256	5.236	1.358e-06	12.373	4.1866e-05	3.765e-05	1.084e-05	145.23	4.1067e-07	2.1768e-06	207.47	51.062	4.0886e-07	4.0766e-07	101.22	32.715	16.758	5.9782	4.0594e-07	14.317	313.736	189.735	196.278	114.454	297.008	311.203	114.700	120.311	244.789	261.299	118.040	124.383	124.840	129.609	277.134	128.312	-8191	255	
3043.817	1	1	0	0	0.12862	0.1352	0.11374	0.20683	0.18285	0.14523	0.067467	0.07218	0.27112	0.091683	0.10733	0.094832	0.14673	0.17654	0.11917	0.19926	-2.3854	-2.7792	-2.9521	-2.7521	-2.8521	-2.7792	-2.5292	-2.9313	-2.85	-2.5667	-3.0354	-2.625	-2.8187	-2.8125	-2.6937	-2.7896	106.626	271.185	331.018	228.705	220.980	187.590	196.838	405.005	305.001	293.944	380.330	247.932	303.726	128.146	238.882	414.499	0.00098179	9.8948e-05	1.9203e-05	125.87	1.171e-06	2.8962e-05	182.13	45.116	8.9151e-07	6.1368e-07	77.555	29.231	15.353	5.2491	6.5761e-07	12.344	0.0001013	3.6891e-05	1.0755e-05	144.43	4.102e-07	2.6955e-06	206.76	51.033	4.1997e-07	4.0495e-07	97.694	32.721	16.763	5.9836	4.0478e-07	13.82	304.972	244.265	111.819	114.576	244.563	322.266	114.965	120.191	218.201	227.561	118.176	124.426	124.842	129.840	314.535	128.513	-8191	255	
3043.914	1	1	0	0	0.16141	0.21143	0.16504	0.1769	0.033244	0.24293	0.15196	0.14692	0.1865	0.08625	0.080593	0.36636	0.22227	0.2503	0.24924	0.15976	-2.5021	-2.5167	-2.8896	-2.8292	-2.8125	-3.0646	-2.5854	-2.8875	-2.9	-2.7271	-2.9688	-2.7917	-2.6333	-3.1125	-2.8396	-2.7354	449.975	161.141	246.933	348.812	167.384	262.425	189.598	112.749	143.608	168.937	146.831	116.408	200.187	415.062	150.406	440.676	0.0011745	5.9079e-05	3.7925e-05	125.84	1.643e-06	2.4165e-05	181.87	45.096	8.9453e-07	8.2044e-07	77.467	29.314	15.37	5.274	2.1011e-06	12.465	0.00024727	3.7139e-05	1.0688e-05	144.56	4.1681e-07	2.1728e-06	207.13	51.111	4.3523e-07	4.0668e-07	101.61	32.822	16.814	6.0057	4.02e-07	13.912	300.236	166.303	215.654	114.469	256.218	326.320	114.777	120.670	223.213	287.495	117.516	124.491	124.761	129.731	210.647	128.235	-8191	255	
3044.010	1	1	0	0	0.33957	0.3112	0.15452	0.15021	0.33679	0.17081	0.33446	0.16548	0.03636	0.27768	0.16866	0.10964	0.28986	0.18737	0.077632	0.11272	-2.4271	-2.5521	-2.9917	-2.6125	-2.5896	-2.9104	-2.7021	-2.8042	-2.8771	-2.5854	-2.9479	-3.0042	-2.6562	-2.9604	-2.6875	-2.7625	357.801	164.433	181.486	445.857	372.035	250.092	392.245	141.004	458.760	405.188	412.987	205.739	262.109	124.055	438.578	279.681	0.00093367	0.00010974	1.0582e-05	126.45	9.641e-07	3.1586e-05	183.06	45.294	1.3339e-06	1.1296e-06	77.421	29.825	15.547	5.2784	9.2385e-07	12.487	0.00020031	3.7291e-05	1.0769e-05	144.64	4.149e-07	2.7251e-06	207.43	51.221	4.3523e-07	4.0819e-07	91.684	34.072	16.91	6.0377	4.1267e-07	13.955	309.953	200.325	432.238	114.653	168.438	330.048	114.949	120.382	202.737	279.563	119.041	124.186	124.814	129.840	270.372	128.590	-8191	255	
3044.106	1	1	0	0	0.20901	0.14844	0.085294	0.045539	0.1268	0.20798	0.27598	0.20141	0.14818	0.13606	0.10615	0.27036	0.12426	0.18648	0.19194	0.069211	-2.5375	-2.5708	-2.9021	-2.7396	-2.4479	-2.9417	-2.5667	-2.5958	-2.8187	-2.5812	-2.8979	-2.8896	-2.4271	-2.9146	-2.825	-2.7604	400.410	388.073	256.098	323.290	309.304	149.799	360.458	285.937	316.813	201.509	108.408	216.323	276.970	428.874	207.433	107.442	0.0011343	0.00010302	3.2278e-05	126.67	1.4524e-06	2.5935e-05	182.37	45.152	1.4198e-06	9.996e-07	78.95	28.984	15.29	5.2392	1.7706e-06	12.38	0.00025072	3.737e-05	1.054e-05	144.84	4.1954e-07	2.1891e-06	207.31	51.161	4.3931e-07	3.9823e-07	86.451	35.966	16.739	5.9695	4.0945e-07	13.829	311.714	191.099	237.185	114.187	191.715	331.214	114.949	120.190	198.943	254.535	119.260	123.546	124.482	129.808	279.004	128.542	-8191	255	
3044.202	1	1	0	0	0.13863	0.054545	0.19931	0.12263	0.26192	0.08022	0.13206	0.20663	0.022261	0.25422	0.10805	0.12712	0.18783	0.24783	0.126	0.17909	-2.4729	-2.5542	-2.7562	-2.7042	-2.5	-3.1021	-2.8375	-2.7458	-2.8917	-2.7812	-2.7438	-2.7812	-2.6979	-2.9188	-2.7146	-2.6688	217.040	105.897	205.395	335.253	424.446	357.436	442.920	113.213	168.796	405.242	117.114	288.964	262.227	171.700	448.451	152.992	0.00096357	4.985e-05	2.5936e-05	126.23	1.2558e-06	2.9222e-05	180.72	44.872	1.1871e-06	1.1892e-06	78.689	28.992	15.258	5.2366	3.2419e-07	12.371	0.00019685	3.6481e-05	1.0286e-05	144.38	4.0692e-07	2.6514e-06	206.11	50.859	4.2128e-07	3.9715e-07	86.337	35.074	16.705	5.9543	4.217e-07	13.807	314.693	166.272	242.123	114.019	267.439	364.697	114.796	120.309	274.865	250.300	119.282	123.816	125.186	129.886	297.056	128.289	-8191	255	
3044.296	1	1	0	0	0.16895	0.15877	0.1932	0.28254	0.18571	0.090214	0.11675	0.1346	0.30198	0.15724	0.17151	0.071393	0.14031	0.089583	0.30034	0.16791	-2.4292	-2.5708	-2.8417	-2.7833	-2.6708	-2.825	-2.7583	-2.7188	-2.8667	-2.575	-2.8937	-2.8042	-2.6958	-2.9146	-2.7875	-2.7188	156.452	325.531	271.362	118.528	231.836	201.021	371.720	294.859	438.448	445.113	140.390	460.188	451.304	234.346	418.472	119.412	0.0011253	0.00010158	2.268e-05	126.14	1.2426e-07	2.416e-05	181.94	44.971	8.4883e-07	1.7556e-06	79.319	29.137	15.349	5.2372	1.0419e-06	12.415	0.00024526	3.6939e-05	1.0439e-05	144.39	4.0388e-07	1.0542e-06	212.98	51.031	4.2196e-07	4.0594e-07	86.611	35.943	16.693	5.9787	4.2348e-07	13.861	318.044	227.091	225.055	114.295	381.992	358.705	114.887	120.171	211.565	231.669	119.535	123.362	124.845	129.630	271.635	128.341	-8191	255	
3044.393	1	1	0	0	0.098929	0.31425	0.080288	0.14896	0.26595	0.18893	0.2173	0.25536	0.2268	0.15312	0.17096	0.042841	0.14081	0.24292	0.14941	0.15614	-2.6083	-2.6208	-2.8354	-3.0083	-2.7	-3.1063	-2.7917	-2.7583	-3.0062	-2.7396	-2.7062	-2.9396	-2.6917	-2.8812	-2.8208	-2.5687	249.258	245.711	364.533	213.375	173.570	397.869	397.620	295.587	133.427	179.726	443.309	425.243	156.765	256.499	461.836	152.007	0.0009489	6.5583e-05	5.0006e-05	126.37	1.8052e-06	3.173e-07	178.92	45.08	1.0012e-06	8.4984e-07	79.354	29.274	15.297	5.2915	3.9191e-07	12.453	0.00019782	3.7178e-05	1.0509e-05	144.74	4.0949e-07	4.0654e-07	225.05	51.197	4.2068e-07	4.0991e-07	86.792	35.36	16.754	6.0118	4.3517e-07	13.937	323.228	189.207	198.798	114.658	259.888	255.121	115.271	120.251	265.476	227.832	119.261	123.795	125.100	129.713	351.048	128.512	-8191	255	
3044.491	1	1	0	0	0.037056	0.25242	0.059048	0.13052	0.15315	0.10007	0.12719	0.065451	0.14088	0.041823	0.16267	0.04817	0.18244	0.19925	0.14389	0.26066	-2.5792	-2.6396	-2.6417	-2.9062	-2.6167	-2.7167	-2.7188	-2.4979	-2.9875	-2.7188	-2.7104	-2.9896	-2.5354	-2.7604	-2.9437	-2.6688	122.782	216.650	408.000	181.615	199.721	401.929	210.143	383.296	315.746	134.184	443.533	358.190	324.914	176.085	250.723	352.421	0.00028626	0.00012447	2.9541e-05	126.3	1.0535e-06	8.0475e-07	179.82	44.916	6.5114e-07	7.2812e-07	78.637	29.111	15.478	5.2634	5.0976e-07	12.367	0.00023461	3.7924e-05	1.0426e-05	144.83	4.0647e-07	4.1065e-07	220.84	51.023	4.2184e-07	4.1501e-07	86.411	35.89	16.788	5.9744	4.191e-07	13.82	351.609	218.415	316.323	114.457	174.498	263.282	114.722	120.072	214.760	258.801	119.314	123.575	124.862	129.829	282.580	128.438	-8191	255	
3044.609	1	1	0	0	0.065622	0.14714	0.10058	0.28252	0.1364	0.18481	0.03899	0.28514	0.21543	0.1662	0.31949	0.055502	0.27189	0.06621	0.042526	0.23454	-2.6458	-2.7479	-2.525	-2.95	-2.6396	-2.9062	-2.8292	-2.6688	-2.9625	-2.6188	-2.5917	-2.7958	-2.6208	-2.6375	-2.7979	-2.6604	459.622	429.503	388.766	131.006	410.953	213.565	160.570	160.611	460.482	104.563	413.667	443.666	390.192	422.082	149.598	372.347	0.00034966	0.0017207	2.5523e-05	126.42	1.2551e-06	1.7193e-06	177.72	44.835	2.2481e-07	7.7998e-07	78.817	29.202	15.284	5.2386	8.6708e-07	12.38	9.1103e-05	0.00011805	1.0158e-05	144.08	4.0657e-07	3.9927e-07	223.35	50.93	4.0625e-07	4.2088e-07	86.187	35.099	16.724	5.9635	4.2461e-07	13.826	348.671	183.848	225.043	114.322	218.295	280.363	114.755	120.164	220.669	223.183	119.021	123.664	124.641	129.707	237.874	128.507	-8191	255	
3044.706	1	1	0	0	0.21431	0.24362	0.15326	0.29177	0.2073	0.2475	0.045881	0.23005	0.19381	0.12393	0.14059	0.10384	0.1599	0.16846	0.035369	0.12043	-2.4625	-2.725	-2.5271	-2.9708	-2.5208	-2.7333	-2.9292	-2.5604	-2.9313	-2.8063	-2.6312	-2.8583	-2.6854	-2.6604	-2.9354	-2.5771	194.480	168.504	201.391	420.978	354.583	175.855	361.698	158.746	372.318	185.268	449.261	266.592	330.116	408.705	401.608	419.576	0.00032784	0.0022659	2.3463e-05	125.52	6.2472e-07	9.7267e-07	179.08	44.712	4.4072e-07	8.0037e-07	78.692	29.121	15.297	5.206	1.1619e-06	12.318	4.1814e-05	0.00024029	1.0177e-05	144.15	4.0282e-07	4.0391e-07	219.56	50.848	4.0581e-07	4.2024e-07	86.266	35.564	16.733	5.9419	4.1811e-07	13.804	322.431	205.274	214.620	114.567	258.681	395.268	114.850	120.022	202.436	236.965	119.860	124.221	125.101	129.919	305.933	128.467	-8191	255	
3044.802	1	1	0	0	0.21354	0.19613	0.23873	0.068015	0.057886	0.053071	0.26777	0.095374	0.19428	0.24883	0.17273	0.041287	0.16442	0.11862	0.0515	0.089218	-2.3708	-2.6042	-2.5875	-3.0542	-2.725	-2.7667	-2.9833	-2.5	-2.8458	-2.7729	-2.5812	-2.9667	-2.6604	-2.7104	-2.9958	-2.8167	459.985	368.131	348.679	377.617	207.693	308.150	450.910	273.394	241.000	182.402	417.446	346.179	397.944	312.091	304.315	327.833	0.00030712	0.0017511	1.0941e-05	125.74	1.2402e-06	5.5901e-07	178.59	45.152	9.4131e-07	8.2161e-07	79.137	29.187	15.666	5.2358	6.8011e-07	12.379	4.1743e-05	0.00019233	1.0098e-05	144.41	4.1503e-07	3.9902e-07	224.15	51.089	4.0745e-07	4.1506e-07	86.541	33.495	18.716	5.9439	4.2773e-07	13.852	324.376	210.792	231.880	114.412	206.891	346.479	114.682	120.174	243.880	271.921	119.657	124.403	123.065	129.654	337.320	128.443	-8191	255	
3044.898	1	1	0	0	0.12249	0.19997	0.13566	0.28052	0.3169	0.021483	0.37361	0.091284	0.14185	0.14448	0.14402	0.068405	0.14108	0.38226	0.28218	0.044443	-2.4313	-2.8021	-2.5375	-2.9292	-2.8208	-2.5542	-3.0229	-2.5771	-2.7125	-2.8229	-2.6208	-2.9354	-3.0479	-2.4542	-2.8333	-2.6583	110.079	321.054	170.109	448.952	364.819	335.406	327.958	405.463	341.461	351.746	405.484	182.449	391.466	403.655	247.392	241.542	0.00032711	0.0023579	2.3666e-05	126.6	1.7736e-06	1.0346e-07	180.68	45.194	1.2744e-06	9.2747e-07	79.069	29.314	15.306	5.2189	2.8178e-07	12.281	4.1923e-05	0.00024219	1.0084e-05	144.71	4.2095e-07	4.0299e-07	221.09	51.126	4.0921e-07	4.1888e-07	86.309	32.726	21.1	5.9169	4.1061e-07	13.754	320.200	212.906	217.569	114.352	169.141	315.168	114.793	120.442	269.061	176.698	119.364	124.694	121.782	129.897	177.551	128.372	-8191	255	
3044.994	1	1	0	0	0.1753	0.064416	0.19938	0.10211	0.2793	0.061752	0.035566	0.14581	0.22973	0.16657	0.098017	0.10953	0.15882	0.067914	0.16076	0.1782	-2.425	-2.6917	-2.6	-2.9708	-2.7729	-2.7583	-3.0292	-2.6937	-2.8729	-3.0187	-2.85	-2.9125	-2.9792	-2.6083	-2.8604	-2.8167	180.171	220.992	373.070	421.513	132.153	182.363	442.282	189.717	111.160	429.814	433.010	215.135	405.144	283.552	371.176	372.025	0.00032691	0.0018336	3.7724e-05	126.07	7.2989e-07	2.9514e-07	178.52	44.89	4.3925e-07	5.7737e-07	78.943	29.153	15.359	5.1799	9.5881e-07	12.309	4.1553e-05	0.00019452	9.9704e-06	144.16	4.3018e-07	3.9016e-07	221.86	50.847	4.018e-07	4.1439e-07	86.137	32.606	20.076	5.8912	4.147e-07	13.774	319.439	225.141	166.401	114.242	242.148	104.292	114.515	120.276	256.109	291.828	119.164	124.383	121.972	129.852	250.325	128.472	-8191	255	
3045.090	1	1	0	0	0.2369	0.23921	0.11448	0.16914	0.19056	0.083473	0.062212	0.25286	0.30026	0.19189	0.069846	0.10138	0.17518	0.37201	0.16543	0.1664	-2.0938	-3.0417	-2.7812	-2.6458	-2.8667	-2.7313	-3.0042	-2.7104	-2.75	-2.9479	-2.6208	-2.8167	-2.9688	-2.6104	-2.9833	-2.9083	164.902	235.719	107.205	417.461	139.191	215.618	348.759	436.680	243.325	332.938	349.490	218.561	141.090	109.490	213.963	157.518	0.00032782	0.0026876	2.1331e-05	126.24	7.7213e-07	1.2964e-06	179.89	45.06	8.2181e-07	8.7953e-07	78.462	29.214	15.357	5.1944	4.8785e-07	12.346	4.1849e-05	0.00024644	1.0301e-05	144.08	4.2114e-07	3.9514e-07	210.09	54.047	4.077e-07	4.1851e-07	86.424	32.703	21.17	5.9153	4.1414e-07	13.767	318.292	226.194	234.220	114.393	333.820	204.967	114.828	120.343	197.756	267.629	119.542	124.576	121.608	129.905	118.339	128.431	-8191	255	
3045.211	1	1	0	0	0.10972	0.1012	0.26153	0.062447	0.1059	0.11321	0.11711	0.26428	0.20421	0.15651	0.30705	0.10816	0.14748	0.13922	0.066442	0.04694	-2.2479	-2.9208	-2.7979	-2.6208	-2.8917	-2.6396	-2.9833	-2.7083	-2.4292	-2.9604	-2.7875	-2.7979	-3.0333	-2.5646	-3	-2.7542	397.178	165.779	144.977	391.136	297.061	434.558	402.244	185.816	337.775	414.686	323.385	400.808	155.088	354.206	333.510	413.517	0.00034435	0.001804	7.1101e-06	125.52	1.812e-06	7.9456e-07	181.57	43.579	1.902e-06	6.066e-07	78.867	29.332	15.541	5.2141	1.6582e-06	12.387	4.1712e-05	0.00019834	1.0501e-05	144.11	4.3065e-07	3.9373e-07	206.83	57.633	4.0542e-07	4.195e-07	86.508	32.804	20.18	5.934	4.1148e-07	13.828	318.141	229.814	296.800	114.444	235.258	226.491	114.709	119.902	235.858	227.443	119.312	124.661	122.547	129.637	242.845	128.402	-8191	255	
3045.305	1	1	0	0	0.070698	0.295	0.28833	0.21544	0.10973	0.16238	0.22916	0.12309	0.086391	0.1165	0.46102	0.30847	0.20164	0.096048	0.040013	0.25816	-2.2771	-2.8896	-2.6271	-2.7792	-3.0604	-2.7646	-2.9479	-2.8354	-2.6208	-2.8812	-2.7354	-2.4458	-2.7979	-2.4167	-2.7812	-2.7417	188.372	145.722	455.000	386.189	459.279	225.866	148.323	186.308	199.854	300.702	170.699	440.967	187.572	348.239	452.682	104.651	0.00030849	0.0014744	0.00060598	126.53	7.6037e-07	1.4013e-06	182.44	43.977	9.9814e-07	1.6738e-06	78.738	29.276	15.614	5.1602	9.6858e-07	12.234	4.1037e-05	0.00020621	1.2862e-05	144.66	4.1451e-07	4.0757e-07	207.3	56.009	4.0397e-07	4.0615e-07	86.373	32.679	21.066	5.8904	4.1104e-07	13.7	318.007	293.167	207.808	114.773	230.635	250.109	114.892	119.980	280.579	259.805	119.166	124.545	121.717	129.612	295.024	128.485	-8191	255	
3045.401	1	1	0	0	0.14951	0.10438	0.17467	0.1154	0.20311	0.11732	0.12258	0.083719	0.14342	0.032587	0.012438	0.085282	0.12968	0.14485	0.17622	0.31934	-2.2083	-2.9625	-2.7021	-2.6042	-3.0563	-2.5938	-2.7542	-2.9625	-2.7917	-2.7708	-2.8312	-2.6708	-2.8875	-2.7375	-2.8521	-3.0708	355.703	393.389	359.886	384.477	405.684	430.801	275.614	432.296	448.941	157.141	421.151	338.475	240.063	191.549	389.380	382.282	0.00032889	0.00117	0.00048318	125.46	1.3259e-06	1.3696e-06	181.03	43.708	5.4535e-07	2.3732e-07	78.983	29.167	15.573	5.1322	6.4419e-07	12.182	4.0654e-05	6.6034e-05	3.8634e-05	143.76	4.1712e-07	3.9958e-07	205.79	57.257	3.9871e-07	4.061e-07	86.013	32.529	19.97	5.8586	4.0799e-07	13.64	322.234	289.665	214.554	114.519	277.519	169.353	114.772	119.301	238.363	434.957	119.158	124.722	122.581	129.598	244.473	128.262	-8191	255	
3045.497	1	1	0	0	0.13191	0.18194	0.3576	0.13351	0.39598	0.10003	0.32862	0.17414	0.25361	0.30674	0.13676	0.26226	0.09317	0.039296	0.22967	0.056168	-2.1667	-2.9313	-2.7208	-2.4375	-2.9104	-2.7625	-2.7604	-2.9062	-2.5208	-3.0604	-3.0896	-2.6521	-2.9229	-2.7188	-2.5708	-3.0229	326.995	354.824	327.358	370.575	241.435	137.555	173.897	186.318	160.098	319.480	368.012	165.085	203.395	102.821	143.878	380.627	0.0003408	8.8335e-05	0.00074473	125.46	2.2025e-06	1.0757e-06	181.05	43.885	2.0305e-06	8.1717e-07	78.793	29.039	14.886	5.2748	1.0856e-06	12.225	4.0573e-05	3.6965e-05	6.7813e-05	143.62	4.199e-07	4.0361e-07	205.96	55.78	4.0513e-07	4.0245e-07	86.226	32.489	19.921	5.9473	3.9956e-07	13.653	319.940	218.045	253.658	114.397	230.218	143.302	114.838	119.381	231.563	179.114	119.342	124.794	123.941	128.310	272.052	128.655	-8191	255	
3045.594	1	1	0	0	0.1875	0.16896	0.18452	0.24235	0.054278	0.18484	0.20243	0.077006	0.10979	0.11455	0.059495	0.13088	0.18522	0.2562	0.036043	0.23242	-2.2896	-2.8604	-2.7146	-2.8063	-2.8708	-2.7562	-2.7042	-2.8458	-2.6667	-2.6271	-2.8667	-2.525	-3.0167	-2.6917	-2.8	-2.9292	375.836	382.687	105.969	124.889	178.249	430.620	194.799	460.423	224.855	268.962	163.294	147.862	343.757	318.314	297.780	235.697	0.0003107	3.9072e-05	0.00058636	125.25	1.562e-06	2.314e-06	182.25	43.902	6.3764e-07	3.6476e-07	78.646	29.099	15.124	5.3191	4.3851e-07	12.306	4.1466e-05	3.6973e-05	5.4553e-05	143.81	4.153e-07	4.1784e-07	206.87	57.475	4.0985e-07	4.0941e-07	86.428	32.609	17.14	6.4627	4.0501e-07	13.743	321.107	281.428	259.806	114.729	237.790	222.778	114.799	118.871	220.996	279.528	119.122	124.683	124.252	128.363	306.466	128.487	-8191	255	
3045.690	1	1	0	0	0.10767	0.23526	0.073233	0.20006	0.28649	0.082246	0.30535	0.1166	0.12703	0.15283	0.10221	0.17623	0.057628	0.17888	0.23843	0.26854	-2.2479	-2.6729	-2.9771	-2.5896	-2.8208	-2.8312	-2.5771	-2.9896	-2.8063	-2.8458	-2.9167	-2.7354	-2.7604	-2.8021	-2.6333	-2.9958	376.399	407.655	296.386	159.986	223.956	436.093	399.229	287.286	111.284	185.202	345.653	413.933	218.183	366.716	287.473	343.674	0.00032129	6.3179e-05	0.00069487	125.95	1.0284e-06	1.8712e-06	182.81	44.325	1.3224e-06	9.8559e-07	78.774	29.18	15.163	5.3304	1.6098e-06	12.285	4.2017e-05	3.7165e-05	6.8184e-05	144.4	4.1625e-07	4.2408e-07	207.17	56.002	4.1337e-07	3.9908e-07	86.431	32.662	16.647	6.9412	3.9221e-07	13.71	318.621	258.082	273.051	114.358	161.878	222.537	114.778	119.554	276.468	285.406	119.154	124.552	125.154	128.425	273.042	128.398	-8191	255	
3045.786	1	1	0	0	0.18191	0.11955	0.18025	0.075194	0.062074	0.2435	0.19135	0.13461	0.31306	0.24688	0.0094795	0.032809	0.17155	0.21106	0.09275	0.16586	-2.4667	-2.6083	-2.9437	-2.4104	-2.8917	-2.8667	-2.6104	-2.9583	-2.5896	-2.8208	-2.8458	-2.5125	-2.6542	-2.8208	-2.6333	-3.0583	455.270	328.737	381.319	238.629	322.792	211.397	327.779	124.780	411.064	123.041	216.882	208.622	153.643	460.104	118.866	204.083	0.00029766	7.68e-05	0.00059137	125.67	9.6154e-07	1.8811e-06	181.6	43.612	1.4724e-05	1.2483e-07	78.519	29.067	15.193	5.279	1.0979e-06	12.18	4.1136e-05	3.6688e-05	5.4616e-05	143.91	4.1016e-07	4.2096e-07	206.16	55.448	7.0849e-07	4.0185e-07	85.983	32.481	16.613	6.6516	3.964e-07	13.608	321.355	256.514	275.055	114.098	256.715	246.837	114.777	119.733	142.905	345.099	119.705	124.350	124.447	128.446	274.617	128.612	-8191	255	
3045.907	1	1	0	0	0.11778	0.15108	0.13005	0.1018	0.15239	0.12536	0.084828	0.32681	0.17962	0.21942	0.068899	0.26256	0.13053	0.027475	0.26596	0.13505	-2.4583	-2.7	-2.7479	-2.5625	-2.7729	-2.9396	-2.6667	-2.9396	-2.7771	-2.5833	-2.9875	-2.6437	-2.7687	-2.8104	-2.5438	-2.8479	342.856	317.643	348.436	301.734	254.096	307.698	272.891	332.948	301.792	327.968	233.257	389.412	306.911	370.407	431.866	425.266	0.00028996	0.00010811	0.00076843	125.2	1.543e-06	2.3489e-06	180.87	43.919	1.1601e-05	9.2774e-07	78.829	28.894	15.169	5.2687	7.0952e-07	12.138	4.2505e-05	3.6148e-05	6.7878e-05	143.67	4.0879e-07	4.1404e-07	205.49	51.1	1.7189e-06	3.9397e-07	85.994	32.511	16.619	6.8781	4.0016e-07	13.601	313.435	200.852	273.478	114.324	250.383	240.313	115.044	119.852	139.926	229.780	119.443	124.514	124.609	128.588	283.855	128.424	-8191	255	
3045.978	1	1	0	0	0.23765	0.11954	0.24528	0.089815	0.12458	0.10927	0.14453	0.21765	0.1912	0.21974	0.13115	0.21422	0.12142	0.057338	0.082685	0.13793	-2.225	-2.5708	-2.8333	-2.8271	-2.7104	-3.1354	-2.5938	-2.8479	-2.9104	-2.4667	-2.825	-2.7896	-2.5875	-2.9667	-2.4396	-2.8604	422.441	292.392	185.787	385.536	356.398	360.137	428.449	358.929	433.281	253.142	235.891	340.756	432.530	338.016	121.713	428.493	0.00031715	0.00010418	0.0005606	125.05	1.084e-06	1.329e-06	180.89	44.581	2.8753e-05	1.136e-06	78.847	29.123	15.16	5.2473	6.1144e-07	12.189	4.2852e-05	3.6251e-05	5.4942e-05	143.52	4.0166e-07	4.261e-07	205.92	50.611	2.6912e-06	3.9806e-07	86.366	32.549	16.583	6.6398	4.0076e-07	13.638	319.360	211.573	285.529	114.775	275.226	265.851	114.911	120.256	438.953	210.739	118.818	124.764	124.600	128.890	245.244	128.433	-8191	255	
3046.074	1	1	0	0	0.29777	0.024795	0.20454	0.1532	0.094577	0.036302	0.35894	0.11084	0.1524	0.11287	0.28878	0.20926	0.085966	0.43233	0.01908	0.13546	-2.2625	-2.4792	-2.7583	-2.6521	-2.6188	-2.9771	-2.7042	-2.8083	-2.9333	-2.6292	-2.9437	-3.0042	-2.5104	-2.9375	-2.7438	-2.7479	280.755	399.417	187.422	218.804	112.544	210.078	432.729	446.438	230.087	250.303	384.496	112.618	299.031	329.971	254.007	161.920	0.00029504	3.0355e-05	0.00069842	127.21	1.3389e-06	8.1618e-07	181.93	44.921	2.2111e-05	6.3442e-07	78.373	28.988	15.039	5.2802	2.0599e-06	12.139	4.3186e-05	3.6698e-05	5.0177e-05	147.39	4.0425e-07	4.1546e-07	206.59	50.701	2.1718e-06	4.0034e-07	86.011	32.555	16.505	6.8529	4.0958e-07	13.582	319.767	204.646	318.436	114.655	256.956	180.384	114.880	120.003	438.427	158.728	119.285	124.686	124.752	129.007	250.849	128.630	-8191	255	
3046.171	1	1	0	0	0.041483	0.22603	0.19577	0.10537	0.15357	0.14844	0.24404	0.19263	0.037192	0.23727	0.18376	0.060466	0.21091	0.089336	0.1901	0.0844	-2.4771	-2.6271	-2.7208	-3.0062	-2.5479	-3.0021	-2.6104	-2.65	-2.9458	-2.6604	-2.8646	-2.6604	-2.6292	-2.8167	-2.7562	-2.7083	102.295	353.752	348.456	235.497	138.875	296.863	320.313	287.781	327.473	295.593	148.364	288.721	404.271	406.430	408.875	214.067	0.00034283	4.8877e-05	0.00059393	127.08	1.8252e-06	6.6087e-07	180.96	44.714	3.1458e-05	1.8087e-07	78.158	28.876	15.044	5.2616	1.4386e-06	12.121	4.2076e-05	3.604e-05	1.2643e-05	155.31	3.9698e-07	4.1751e-07	205.75	50.526	2.6705e-06	3.905e-07	85.591	32.381	16.488	6.6053	4.041e-07	13.577	320.822	192.355	316.711	114.628	262.981	149.109	114.653	120.127	446.567	225.376	119.496	124.339	124.715	129.705	269.000	128.217	-8191	255	
3046.289	1	1	0	0	0.2484	0.25265	0.19494	0.091012	0.2567	0.036893	0.093024	0.19287	0.32731	0.093397	0.23009	0.13607	0.2094	0.2674	0.078645	0.065274	-2.7	-2.5687	-2.7771	-2.8688	-2.6646	-3.1125	-2.7667	-2.525	-3.0125	-2.5938	-2.825	-2.8187	-2.5021	-2.8146	-2.8646	-2.7021	206.340	183.299	291.282	429.970	400.182	127.631	393.710	246.174	121.142	148.141	164.577	349.543	151.158	194.144	268.526	352.057	0.00031549	4.4933e-05	1.1681e-05	124.76	1.5539e-06	1.1955e-06	181.03	44.439	2.2525e-05	6.2163e-07	78.632	29.03	15.099	5.1001	3.261e-05	12.192	4.2891e-05	3.6251e-05	1.0137e-05	162.55	3.9664e-07	4.1038e-07	206.28	50.488	2.151e-06	4.0063e-07	86.025	32.527	16.544	6.4757	9.1214e-07	13.626	319.597	226.603	310.928	116.036	257.989	223.191	114.953	120.304	450.963	141.971	119.517	124.387	124.825	129.651	228.946	128.286	-8191	255	
3046.386	1	1	0	0	0.066933	0.21671	0.01048	0.25272	0.2544	0.05262	0.022734	0.11814	0.22116	0.10768	0.080349	0.094528	0.16914	0.15649	0.066572	0.011786	-2.6875	-2.5646	-2.6958	-2.9479	-2.5375	-2.9208	-2.7958	-2.7687	-3.05	-2.7854	-2.9062	-2.9813	-2.5833	-2.8792	-2.6333	-2.6417	126.212	245.574	296.363	275.002	213.861	196.988	365.751	355.198	430.612	262.730	188.433	242.195	175.451	434.191	359.922	184.888	0.00030564	8.1997e-05	1.3925e-05	123.83	2.0947e-06	1.1524e-06	182.26	44.631	3.254e-05	6.7731e-07	78.105	29.022	15.255	5.1874	2.7458e-05	12.316	4.227e-05	3.6707e-05	1.0353e-05	158.39	4.005e-07	4.1408e-07	206.6	50.617	2.74e-06	4.071e-07	86.061	32.599	16.679	5.8731	1.9502e-06	13.7	321.011	178.917	199.642	115.431	249.312	215.492	114.945	120.416	459.344	302.093	119.376	124.672	124.674	129.948	236.704	128.222	-8191	255	
3046.483	1	1	0	0	0.17831	0.19121	0.12206	0.17971	0.14268	0.073195	0.098785	0.046493	0.12922	0.1876	0.21771	0.25694	0.25827	0.20417	0.12142	0.15556	-2.6042	-2.775	-2.6562	-2.9479	-2.7208	-2.875	-2.8187	-2.6208	-2.9188	-2.8167	-2.725	-3.0042	-2.6479	-2.7854	-2.9521	-2.6625	384.935	397.061	446.970	230.422	109.618	449.514	323.304	424.775	292.607	339.101	164.828	409.003	299.112	200.003	370.039	150.410	0.00034078	7.4605e-05	3.5911e-05	124.16	1.1466e-06	1.605e-06	181.39	44.75	2.4858e-05	3.6353e-07	78.805	29.083	15.125	5.0907	3.1479e-05	12.134	4.3395e-05	3.7825e-05	1.0325e-05	163.73	4.029e-07	4.1135e-07	206.54	50.657	2.2129e-06	4.0114e-07	86.216	32.621	16.634	5.799	2.7081e-06	13.587	320.134	401.863	201.021	115.656	258.412	236.074	114.979	120.271	102.508	281.209	118.913	124.425	124.912	129.578	247.331	128.638	-8191	255	
3046.602	1	1	0	0	0.23087	0.24155	0.22022	0.13278	0.045244	0.17853	0.13032	0.19175	0.28423	0.065258	0.1322	0.089166	0.16326	0.24373	0.09387	0.18872	-2.5187	-2.7958	-2.7729	-3.0458	-2.6729	-2.9708	-2.8417	-2.6208	-2.8937	-2.6583	-2.7292	-2.9854	-2.8146	-2.6604	-2.8021	-2.7396	372.347	205.849	440.266	123.943	455.579	174.173	411.492	125.675	252.739	314.754	158.880	137.129	361.538	145.452	209.068	257.709	0.00030582	6.0873e-05	2.9204e-05	124.31	1.9619e-06	7.3198e-07	181.2	44.533	2.298e-05	2.0317e-05	78.334	28.838	15.133	5.0662	2.236e-05	12.215	4.1736e-05	3.6445e-05	9.876e-06	157.85	3.9109e-07	3.9592e-07	205.98	50.466	1.6745e-06	9.6746e-07	85.789	32.419	16.513	5.81	2.019e-06	13.61	322.669	438.043	107.367	115.179	264.693	234.052	114.839	119.933	416.170	162.486	119.278	124.486	124.761	129.379	247.431	127.949	-8191	255	
3046.674	1	1	0	0	0.095592	0.14325	0.15325	0.050042	0.022545	0.16774	0.18573	0.16704	0.16561	0.12697	0.09163	0.013027	0.35519	0.054335	0.10888	0.16339	-2.4167	-2.9125	-2.6042	-2.9938	-2.7833	-2.7625	-2.9188	-2.675	-2.8542	-2.9333	-2.6167	-3.1021	-2.5812	-2.7271	-2.9979	-2.5812	269.734	429.408	123.806	124.643	137.276	310.918	442.050	365.710	453.029	414.948	167.276	337.839	426.075	303.946	413.275	252.537	0.00031772	3.039e-05	5.2321e-05	124.15	1.0607e-06	8.3625e-07	181.23	44.556	7.047e-07	1.6292e-05	78.776	28.945	15.233	5.1196	3.0043e-05	12.212	4.063e-05	3.6392e-05	9.6971e-06	161.35	3.9438e-07	3.8582e-07	206.18	50.59	3.9428e-07	1.7899e-06	86.028	32.561	16.649	5.8131	2.4624e-06	13.626	318.355	218.998	217.053	115.438	260.111	242.264	114.562	120.002	236.538	166.065	119.824	124.404	124.311	129.757	255.410	128.493	-8191	255	
3046.770	1	1	0	0	0.11609	0.073959	0.054841	0.30206	0.36661	0.15469	0.1962	0.16493	0.041876	0.18135	0.14908	0.17605	0.044357	0.30037	0.22377	0.14578	-2.525	-2.8083	-2.5604	-3.0146	-2.7083	-2.7792	-3.1583	-2.6896	-2.9083	-2.8479	-2.625	-3.025	-2.7354	-2.6833	-2.9479	-2.8458	178.413	342.459	237.371	353.402	362.147	208.980	443.562	283.200	123.928	338.686	290.889	333.289	381.278	142.923	106.870	368.263	0.00030636	7.3999e-05	3.288e-05	124.21	6.9914e-07	9.3209e-07	181.91	44.806	1.3489e-06	2.2879e-05	79.169	29.188	15.247	5.1583	2.2424e-05	12.264	4.0474e-05	3.6191e-05	9.6386e-06	157.38	3.9107e-07	3.7774e-07	206.9	50.726	3.9093e-07	2.4252e-06	86.282	32.688	16.628	5.8346	1.9188e-06	13.689	320.342	234.849	158.774	115.130	285.197	270.516	114.730	120.268	269.541	117.553	119.309	124.544	124.302	129.506	266.876	128.527	-8191	255	
3046.891	1	1	0	0	0.16347	0.21395	0.14287	0.049959	0.049387	0.19098	0.050864	0.15189	0.15187	0.25521	0.16191	0.16872	0.20296	0.29476	0.21161	0.36514	-2.4917	-2.8167	-2.4042	-3.0438	-2.75	-2.6917	-3.1292	-2.6771	-2.7792	-3.1771	-2.6688	-2.925	-2.7833	-2.4667	-3.1208	-2.9875	110.512	236.184	234.071	408.147	185.253	120.963	248.076	380.803	406.264	172.816	140.600	441.291	110.031	116.515	120.363	367.830	0.00030653	8.5979e-05	3.627e-06	123.76	3.2868e-06	6.252e-07	182.38	44.899	2.8315e-07	1.7178e-05	78.805	29.299	15.289	5.1786	2.8241e-05	12.394	4.0128e-05	3.6419e-05	9.6411e-06	153.57	9.9982e-07	3.8266e-07	207.54	50.915	3.9308e-07	1.924e-06	86.572	32.767	16.731	5.8847	2.3923e-06	13.774	314.037	181.183	369.008	115.189	222.186	106.466	114.693	120.291	310.041	129.560	119.361	124.508	124.662	129.438	269.971	128.243	-8191	255	
3046.987	1	1	0	0	0.12846	0.10087	0.28552	0.12709	0.2586	0.16209	0.27259	0.037885	0.32207	0.28629	0.19175	0.099767	0.11679	0.14958	0.17851	0.16584	-2.1979	-3.1958	-2.4979	-2.8708	-2.775	-2.5917	-3.0167	-2.5438	-2.8583	-3.0208	-2.7562	-3.0083	-2.8563	-2.7271	-2.9542	-2.7417	159.497	454.634	119.277	278.191	441.069	206.783	283.646	161.976	195.540	208.012	130.891	264.889	301.246	159.357	440.477	446.978	0.00028966	6.5521e-05	1.5861e-05	125.78	3.327e-06	4.4061e-07	180.81	44.623	1.1418e-06	2.217e-05	78.961	29.084	15.253	5.1741	2.1578e-05	12.287	3.9712e-05	3.6315e-05	9.8623e-06	144.17	1.8033e-06	3.8152e-07	206.29	50.785	3.8211e-07	2.3895e-06	86.113	32.597	16.622	5.8603	1.9188e-06	13.712	319.870	220.383	139.998	114.551	189.389	425.634	114.734	120.302	266.546	130.706	118.853	124.680	124.613	129.463	273.310	128.239	-8191	255	
3047.083	1	1	0	0	0.06826	0.11164	0.15521	0.13716	0.054285	0.16415	0.095267	0.18283	0.22396	0.15983	0.074008	0.11576	0.19413	0.33156	0.079571	0.030157	-2.3563	-3.0354	-2.7542	-2.7167	-2.7062	-2.675	-2.9354	-2.7229	-2.9313	-3.0708	-2.75	-2.8542	-2.8312	-2.525	-2.8417	-2.8583	377.697	458.831	230.272	287.378	176.338	225.446	349.594	275.676	142.003	390.987	263.090	220.841	124.790	370.027	103.626	237.502	0.00030736	0.00013144	4.7604e-05	125.79	2.7204e-05	8.89e-07	181.23	44.774	1.3793e-06	1.6064e-05	78.57	29.127	15.181	5.1881	1.3157e-05	12.41	3.9212e-05	3.7174e-05	9.7443e-06	143.65	2.3743e-06	3.8412e-07	206.24	50.733	3.8118e-07	1.9012e-06	85.984	32.602	16.647	5.8615	1.373e-06	14.144	322.071	175.830	207.814	114.573	389.746	255.898	114.834	120.255	218.040	133.870	119.053	124.469	124.267	129.207	336.219	128.672	-8191	255	
3047.202	1	1	0	0	0.18345	0.20402	0.2189	0.20709	0.23472	0.31617	0.11919	0.26537	0.057458	0.09852	0.20382	0.17134	0.2027	0.31484	0.1832	0.051633	-2.2229	-2.8229	-2.6917	-2.6437	-3.1208	-2.6063	-2.8792	-2.8771	-2.6625	-2.9771	-2.9479	-2.6958	-2.9083	-2.7062	-2.9896	-2.85	375.885	328.150	256.349	193.399	437.713	427.714	199.016	348.932	172.259	125.872	145.572	342.779	367.298	293.327	308.575	171.219	0.0003205	7.1572e-05	1.3397e-05	126.13	2.009e-05	1.235e-06	181.37	44.98	7.9012e-07	2.2488e-05	78.87	29.08	15.269	5.1946	1.1891e-06	12.408	3.9122e-05	3.6359e-05	9.8682e-06	143.82	1.878e-06	3.8231e-07	206.16	50.787	3.7741e-07	2.3284e-06	86.128	32.596	16.653	5.8871	3.8605e-07	14.649	316.263	200.360	139.208	114.482	398.315	301.970	114.864	120.139	262.238	140.737	119.017	124.504	124.457	129.359	269.260	128.528	-8191	255	
3047.275	1	1	0	0	0.18789	0.19449	0.26341	0.24529	0.17129	0.22965	0.13894	0.08965	0.099942	0.14375	0.35441	0.088645	0.12528	0.093813	0.12483	0.036768	-2.2938	-2.8375	-2.7104	-2.6583	-2.8375	-2.6792	-2.8937	-2.65	-2.6896	-2.9375	-2.7313	-2.6354	-3.0104	-2.4562	-2.7896	-2.8438	381.577	330.681	175.747	305.391	394.557	418.448	242.153	257.890	172.858	427.247	207.947	294.857	333.929	340.781	418.401	348.294	0.00029683	2.2199e-05	3.0813e-05	126.56	2.4079e-05	9.6388e-07	181.56	45.054	9.8111e-07	1.6618e-05	79.047	29.273	15.308	5.1971	1.5633e-06	12.385	3.9179e-05	3.6974e-05	9.9085e-06	144.2	2.3232e-06	3.8683e-07	206.66	50.963	3.8461e-07	1.858e-06	86.689	32.725	16.697	5.8984	3.9276e-07	14.953	314.539	245.522	190.599	114.185	400.275	220.101	114.527	119.889	218.054	149.901	119.218	124.472	125.076	129.562	335.147	129.190	-8191	255	
3047.370	1	1	0	0	0.15094	0.22567	0.3895	0.10644	0.070737	0.071451	0.22737	0.11403	0.09637	0.10904	0.12364	0.21863	0.087412	0.097209	0.18928	0.055866	-2.0646	-2.8833	-2.6125	-2.6917	-2.9792	-2.6083	-2.7854	-2.7792	-2.6167	-2.8854	-2.8292	-2.6688	-2.9646	-2.7687	-2.7125	-2.8708	384.073	313.452	242.968	185.150	418.882	305.559	311.574	174.910	204.193	261.285	435.293	443.228	364.437	171.945	379.022	439.073	0.00032896	8.2501e-05	2.0796e-05	126.27	1.7883e-05	2.3386e-06	181.66	44.921	7.1521e-07	9.3214e-06	80.565	29.174	15.242	5.125	1.5414e-06	12.273	3.9678e-05	3.6368e-05	9.7311e-06	144.52	1.8564e-06	3.8666e-07	206.57	50.891	3.8973e-07	1.2576e-06	91.026	32.51	16.565	5.8285	3.8642e-07	14.574	320.155	232.266	205.610	114.512	402.425	242.765	114.938	120.024	160.171	433.509	118.692	124.579	124.553	129.585	261.486	129.269	-8191	255	
#DATA ENDS
