BOXY.EXE: ISS Imagent and Oximeter Data Acquisition Program Version 0.80
Ascii Record File

#ACQ INFORMATION
2  Detector Channels 
16  External MUX Channels 
1  Auxiliary Channels 
5000  Waveform (CCF) Frequency (Hz)
1  Waveforms Skipped 
30  Waveforms Averaged 
1  Cycles Averaged 
16  Acquisitions per Waveform 
10.0806  Updata Rate (Hz) 

#FILE INFORMATION
TRUE -- External MUX Channel results are PARSED.
FALSE -- AC DC and Phase are NOT grouped.
TRUE -- Companion Program Settings File CREATED.
FALSE -- AC data not excluded
FALSE -- DC data not excluded
FALSE -- Phase data not excluded
FALSE -- Auxillary Chn. data not excluded
Tab delimiters

#CALIBRATION STATE
TRUE -- Waveform Calibration Values APPLIED.


#AUX CALIBRATION VALUES
Val Type	aux-1	

Term	1.0000e+00	
Factor	0.0000e+00	


#WF CALIBRATION VALUES
A = Detector Channel
Val Type	A-AC1	A-AC2	A-AC3	A-AC4	A-AC5	A-AC6	A-AC7	A-AC8	A-AC9	A-AC10	A-AC11	A-AC12	A-AC13	A-AC14	A-AC15	A-AC16	A-DC1	A-DC2	A-DC3	A-DC4	A-DC5	A-DC6	A-DC7	A-DC8	A-DC9	A-DC10	A-DC11	A-DC12	A-DC13	A-DC14	A-DC15	A-DC16	A-Ph1	A-Ph2	A-Ph3	A-Ph4	A-Ph5	A-Ph6	A-Ph7	A-Ph8	A-Ph9	A-Ph10	A-Ph11	A-Ph12	A-Ph13	A-Ph14	A-Ph15	A-Ph16	

Term	0.00000e+00	0.00000e+00	0.00000e+00	0.00000e+00	0.00000e+00	0.00000e+00	0.00000e+00	0.00000e+00	0.00000e+00	0.00000e+00	0.00000e+00	0.00000e+00	0.00000e+00	0.00000e+00	0.00000e+00	0.00000e+00	0.00000e+00	0.00000e+00	0.00000e+00	0.00000e+00	0.00000e+00	0.00000e+00	0.00000e+00	0.00000e+00	0.00000e+00	0.00000e+00	0.00000e+00	0.00000e+00	0.00000e+00	0.00000e+00	0.00000e+00	0.00000e+00	0.00000e+00	0.00000e+00	0.00000e+00	0.00000e+00	0.00000e+00	0.00000e+00	0.00000e+00	0.00000e+00	0.00000e+00	0.00000e+00	0.00000e+00	0.00000e+00	0.00000e+00	0.00000e+00	0.00000e+00	0.00000e+00	
Factor	1.00000e+00	1.00000e+00	1.00000e+00	1.00000e+00	1.00000e+00	1.00000e+00	1.00000e+00	1.00000e+00	1.00000e+00	1.00000e+00	1.00000e+00	1.00000e+00	1.00000e+00	1.00000e+00	1.00000e+00	1.00000e+00	1.00000e+00	1.00000e+00	1.00000e+00	1.00000e+00	1.00000e+00	1.00000e+00	1.00000e+00	1.00000e+00	1.00000e+00	1.00000e+00	1.00000e+00	1.00000e+00	1.00000e+00	1.00000e+00	1.00000e+00	1.00000e+00	X	X	X	X	X	X	X	X	X	X	X	X	X	X	X	X	

B = Detector Channel
Val Type	B-AC1	B-AC2	B-AC3	B-AC4	B-AC5	B-AC6	B-AC7	B-AC8	B-AC9	B-AC10	B-AC11	B-AC12	B-AC13	B-AC14	B-AC15	B-AC16	B-DC1	B-DC2	B-DC3	B-DC4	B-DC5	B-DC6	B-DC7	B-DC8	B-DC9	B-DC10	B-DC11	B-DC12	B-DC13	B-DC14	B-DC15	B-DC16	B-Ph1	B-Ph2	B-Ph3	B-Ph4	B-Ph5	B-Ph6	B-Ph7	B-Ph8	B-Ph9	B-Ph10	B-Ph11	B-Ph12	B-Ph13	B-Ph14	B-Ph15	B-Ph16	

Term	0.00000e+00	0.00000e+00	0.00000e+00	0.00000e+00	0.00000e+00	0.00000e+00	0.00000e+00	0.00000e+00	0.00000e+00	0.00000e+00	0.00000e+00	0.00000e+00	0.00000e+00	0.00000e+00	0.00000e+00	0.00000e+00	0.00000e+00	0.00000e+00	0.00000e+00	0.00000e+00	0.00000e+00	0.00000e+00	0.00000e+00	0.00000e+00	0.00000e+00	0.00000e+00	0.00000e+00	0.00000e+00	0.00000e+00	0.00000e+00	0.00000e+00	0.00000e+00	1.37173e+01	-1.18228e+02	-1.12758e+02	-1.83080e+02	-7.15389e+01	-7.78103e+01	-1.57142e+02	-1.62015e+02	-8.64581e+01	-8.33328e+01	-1.74681e+02	-1.70893e+02	-1.86226e+02	-1.78823e+02	-6.33234e+01	-1.50760e+02	
Factor	3.86630e-05	1.07672e-04	3.58680e-05	1.52370e-01	1.43992e-06	1.45988e-06	1.51923e-01	5.45124e-02	1.38203e-06	1.18428e-06	1.31598e-01	2.66902e-02	3.84029e-02	8.59656e-03	1.43767e-06	1.22989e-02	8.31094e-07	8.48967e-07	2.35916e-07	7.55567e-02	9.27535e-09	9.30345e-09	7.09969e-02	2.68103e-02	9.28531e-09	9.29857e-09	5.97757e-02	1.26460e-02	1.79984e-02	4.20033e-03	9.30521e-09	5.78123e-03	X	X	X	X	X	X	X	X	X	X	X	X	X	X	X	X	



#DISTANCE SETTINGS
A = Detector Channel
A-1	A-2	A-3	A-4	A-5	A-6	A-7	A-8	A-9	A-10	A-11	A-12	A-13	A-14	A-15	A-16	

2.5000e+00	3.0000e+00	2.5000e+00	3.0000e+00	2.0000e+00	3.0000e+00	1.5000e+00	3.0000e+00	3.0000e+00	3.0000e+00	3.0000e+00	3.0000e+00	3.0000e+00	3.0000e+00	1.5000e+00	3.0000e+00	

B = Detector Channel
B-1	B-2	B-3	B-4	B-5	B-6	B-7	B-8	B-9	B-10	B-11	B-12	B-13	B-14	B-15	B-16	

1.0000e+01	1.0000e+01	1.0000e+01	1.4400e+00	1.0000e+01	1.0000e+01	1.5100e+00	1.9400e+00	1.0000e+01	1.0000e+01	1.9900e+00	2.4900e+00	2.4100e+00	2.9000e+00	1.0000e+01	2.9800e+00	




#DATA BEGINS
time	group	step	mark	flag	A-AC1	A-AC2	A-AC3	A-AC4	A-AC5	A-AC6	A-AC7	A-AC8	A-AC9	A-AC10	A-AC11	A-AC12	A-AC13	A-AC14	A-AC15	A-AC16	A-DC1	A-DC2	A-DC3	A-DC4	A-DC5	A-DC6	A-DC7	A-DC8	A-DC9	A-DC10	A-DC11	A-DC12	A-DC13	A-DC14	A-DC15	A-DC16	A-Ph1	A-Ph2	A-Ph3	A-Ph4	A-Ph5	A-Ph6	A-Ph7	A-Ph8	A-Ph9	A-Ph10	A-Ph11	A-Ph12	A-Ph13	A-Ph14	A-Ph15	A-Ph16	B-AC1	B-AC2	B-AC3	B-AC4	B-AC5	B-AC6	B-AC7	B-AC8	B-AC9	B-AC10	B-AC11	B-AC12	B-AC13	B-AC14	B-AC15	B-AC16	B-DC1	B-DC2	B-DC3	B-DC4	B-DC5	B-DC6	B-DC7	B-DC8	B-DC9	B-DC10	B-DC11	B-DC12	B-DC13	B-DC14	B-DC15	B-DC16	B-Ph1	B-Ph2	B-Ph3	B-Ph4	B-Ph5	B-Ph6	B-Ph7	B-Ph8	B-Ph9	B-Ph10	B-Ph11	B-Ph12	B-Ph13	B-Ph14	B-Ph15	B-Ph16	aux-1	digaux	

2483.132	1	1	0	256	0.26671	0.12887	0.16363	0.21715	0.13024	0.35405	0.20897	0.24063	0.21293	0.14752	0.29166	0.1939	0.21373	0.11546	0.18037	0.27594	-2.4479	-3.0521	-2.9688	-3.0062	-3.2188	-2.975	-3.2104	-3.4104	-2.7062	-3.1604	-3.2542	-2.9708	-3.2729	-3.1063	-2.9271	-3.2771	306.133	377.679	102.255	117.352	252.564	394.844	117.732	405.797	200.199	276.943	437.110	377.506	316.766	123.868	328.494	386.581	0.0011694	0.00021348	0.00018924	1344.2	8.1185e-06	4.6665e-06	1354.3	373.18	7.895e-06	4.3083e-06	422.78	140.97	124.18	41.527	6.911e-06	51.846	0.00033858	0.00033018	9.1395e-05	1354	3.6139e-06	3.6251e-06	1355.9	373.32	3.6547e-06	3.6346e-06	416.15	141.35	121.01	41.913	3.636e-06	52.13	312.000	219.671	230.129	109.637	249.548	217.609	109.318	114.270	291.701	245.767	113.830	118.243	118.840	123.039	196.906	122.193	-8191	255	
2483.228	1	1	0	0	0.14151	0.18073	0.26108	0.20158	0.15091	0.32358	0.017854	0.11405	0.23179	0.34426	0.060308	0.15017	0.12102	0.091146	0.096442	0.092335	-2.5	-3.0333	-3.0833	-3.0021	-3.1458	-3.025	-3.2125	-3.35	-2.9375	-3.1479	-3.1729	-2.7833	-3.2792	-2.9875	-2.8896	-3.2438	445.605	114.331	214.356	338.251	298.361	278.593	151.364	117.211	142.164	282.325	294.683	123.801	140.032	216.768	203.093	404.250	0.001244	0.00069473	9.5467e-05	1348.8	8.7972e-06	7.5555e-06	1350.7	372.73	1.5454e-06	7.0563e-06	421.79	141.03	124	41.638	6.6207e-06	51.827	0.00034169	0.00032901	9.2243e-05	1356.4	3.6128e-06	3.6139e-06	1358.3	373.57	3.6248e-06	3.6155e-06	416.12	141.15	120.9	41.999	3.6302e-06	52.067	326.031	214.215	121.383	109.381	255.922	454.639	109.224	114.249	221.239	247.347	113.687	118.306	118.837	122.825	245.138	121.970	-8191	255	
2483.325	1	1	0	0	0.18345	0.14408	0.27291	0.1972	0.10591	0.1228	0.46611	0.12063	0.22134	0.023922	0.079521	0.11661	0.19508	0.27033	0.17529	0.14082	-2.4313	-3.0417	-3.0583	-3.0854	-3.1146	-3.1479	-3.1146	-3.4229	-3.1625	-2.9375	-3.2146	-2.9417	-3.1458	-3.1562	-2.875	-3.3854	275.652	215.065	248.742	357.711	333.911	316.371	361.860	387.050	104.825	303.842	367.623	153.368	438.107	421.826	217.268	258.681	0.0012667	0.00021097	0.00015806	1348	2.7593e-06	1.7975e-06	1352.2	370.55	9.172e-06	3.6119e-06	421.87	141.2	124.14	41.639	1.9787e-06	51.915	0.00034121	0.00032799	9.1353e-05	1358.1	3.617e-06	3.59e-06	1357.8	372.27	3.6088e-06	3.6005e-06	415.31	141.2	121.1	41.95	3.6285e-06	52.122	317.395	177.228	190.531	109.439	337.138	335.407	109.235	114.422	197.292	250.683	113.767	118.023	119.006	123.196	277.225	122.059	-8191	255	
2483.421	1	1	0	0	0.097336	0.11505	0.12586	0.2349	0.05561	0.12301	0.35886	0.20857	0.094083	0.076903	0.22395	0.24461	0.27465	0.14409	0.27584	0.050818	-2.7354	-2.9208	-3.0833	-2.9542	-3.05	-3.2208	-3.1646	-3.3729	-2.975	-2.9333	-3.2646	-3.0479	-3.1771	-3.2021	-2.8292	-3.3417	412.662	281.607	292.780	375.719	202.653	271.525	438.887	411.382	377.825	221.969	144.851	446.439	445.681	439.088	408.609	151.765	0.0012724	0.00055536	0.00016617	1346.2	2.6184e-06	7.5535e-06	1356.9	371.2	2.7594e-06	4.2121e-06	419.61	141.32	123.85	41.451	4.0404e-06	51.667	0.00034121	0.00032753	9.1427e-05	1356.4	3.6001e-06	3.6242e-06	1358.3	372.95	3.5796e-06	3.5799e-06	415.8	141.19	120.77	41.894	3.5774e-06	52.068	324.797	175.476	254.637	109.477	247.345	211.460	109.506	114.450	178.403	289.590	114.136	118.188	118.796	123.312	280.808	122.111	-8191	255	
2483.517	1	1	0	0	0.13201	0.13185	0.094834	0.36886	0.30217	0.20687	0.025149	0.23523	0.23079	0.19972	0.15725	0.16814	0.078337	0.11766	0.14851	0.11922	-2.6292	-3.0625	-3.1917	-3.1937	-3.1312	-3.1562	-3.175	-3.2979	-2.9521	-2.9042	-3.2062	-2.7687	-3.1208	-3.3563	-2.95	-3.1604	397.263	444.044	241.135	409.121	258.749	195.233	357.190	364.183	381.314	120.789	269.396	424.660	123.586	403.019	406.277	376.150	0.001247	4.5132e-05	9.3498e-06	1341.8	7.2544e-06	7.3077e-06	1349.1	372.1	6.244e-06	1.2734e-06	422.49	140.94	123.49	41.548	7.6808e-06	51.868	0.00033677	0.00032744	9.0676e-05	1354.8	3.5867e-06	3.5677e-06	1355.7	372.93	3.5526e-06	3.5512e-06	415.11	141.19	120.77	41.91	3.5718e-06	52.098	319.623	210.980	99.915	109.605	256.350	207.244	109.490	114.617	182.202	420.116	114.004	118.273	118.714	123.268	244.887	121.940	-8191	255	
2483.613	1	1	0	0	0.13163	0.067833	0.2155	0.28056	0.13717	0.072085	0.16941	0.15818	0.059556	0.11687	0.12037	0.13149	0.308	0.15001	0.25932	0.11814	-2.7479	-3.025	-3.2042	-3.2438	-3.0458	-3.3708	-3.0625	-3.275	-2.9938	-2.825	-3.3958	-3.0917	-3.0083	-3.2604	-2.7125	-3.1188	266.769	214.088	263.473	403.552	103.627	323.450	362.864	407.677	207.879	284.493	191.349	355.753	339.251	102.573	251.998	180.157	0.0012187	0.00027212	2.2016e-05	1346.6	8.2143e-06	5.9002e-06	1348.7	372.61	8.8235e-06	8.2058e-06	419.75	141.08	123.54	41.665	6.5972e-06	51.98	0.00033606	0.00032867	9.0843e-05	1356.6	3.5961e-06	3.5666e-06	1356.8	373.39	3.5921e-06	3.5854e-06	415.9	141.23	120.69	41.859	3.5895e-06	52.079	321.444	188.200	142.662	109.574	245.264	270.639	109.281	114.398	217.882	225.100	113.571	118.129	118.783	123.278	219.908	121.858	-8191	255	
2483.734	1	1	0	0	0.058829	0.064623	0.29741	0.3189	0.25461	0.10107	0.22885	0.29648	0.39233	0.13532	0.16081	0.20698	0.19288	0.21838	0.21246	0.11833	-2.5875	-2.7604	-3.0625	-3.1833	-3.0125	-3.5021	-3.2062	-3.4333	-3.1417	-2.7583	-3.3438	-3.0646	-3.0521	-3.3125	-3.0312	-3.15	336.053	242.137	198.907	111.746	150.042	154.833	353.020	382.789	280.823	129.834	305.909	305.805	393.313	423.484	197.882	295.695	0.0013128	0.00064426	8.0231e-05	1353	1.5266e-06	6.1759e-06	1352.7	372.4	6.7172e-06	4.6991e-06	420.9	141.27	124.17	41.554	5.6074e-06	52.091	0.0003406	0.00032512	9.1044e-05	1358.2	3.5684e-06	3.5674e-06	1358.9	373.26	3.5389e-06	3.5601e-06	415.41	141.17	120.88	41.905	3.5427e-06	52.159	315.046	179.078	285.499	109.509	345.323	200.218	109.343	114.394	202.454	221.708	113.518	118.213	118.629	123.251	196.703	122.040	-8191	255	
2483.830	1	1	0	0	0.29139	0.12805	0.15741	0.19847	0.18161	0.21977	0.07895	0.26929	0.044015	0.06144	0.19316	0.1579	0.18258	0.35899	0.31716	0.21723	-2.7208	-2.7792	-3.1063	-3.1646	-2.9604	-3.1729	-3.1208	-3.0354	-3.1292	-3.0729	-3.1354	-3.1312	-2.8875	-3.3354	-2.825	-3.0812	305.165	218.914	400.796	441.119	378.745	366.704	298.305	265.861	344.232	176.059	412.331	158.677	110.971	442.862	430.314	161.218	0.0011887	0.00044798	0.00011094	1349.4	9.6674e-06	2.4987e-06	1351.4	373.27	6.1284e-06	4.7347e-06	423.92	141.01	123.72	41.53	1.0544e-05	51.883	0.00033594	0.0003217	9.0379e-05	1358.1	3.5469e-06	3.5192e-06	1357	373.05	3.5441e-06	3.5211e-06	416.19	141.23	120.93	41.933	3.5299e-06	52.18	317.294	135.866	154.488	109.499	256.964	150.870	109.219	114.418	191.203	260.699	113.737	118.184	118.815	123.188	270.885	122.181	-8191	255	
2483.924	1	1	0	0	0.076129	0.19587	0.28417	0.085611	0.17355	0.14756	0.36088	0.28588	0.087441	0.076428	0.19574	0.35754	0.16144	0.15101	0.11446	0.18807	-2.7292	-2.7917	-3.1146	-3.4292	-2.8271	-3.2583	-3.2521	-3.1104	-3.2042	-2.9708	-3.2708	-3.3	-3.0375	-3.275	-3.0792	-3.275	312.804	448.703	193.860	326.064	289.889	98.753	421.737	390.751	377.999	455.558	391.543	405.234	97.656	122.361	344.836	113.056	0.0011541	0.0002755	0.0001509	1348.9	4.851e-06	3.7004e-06	1356.2	372.58	1.0424e-05	6.8518e-06	421.14	141.42	124.13	41.756	7.2201e-06	51.791	0.00033635	0.00032575	9.0605e-05	1358.8	3.5466e-06	3.5323e-06	1359.7	373.47	3.5169e-06	3.5134e-06	415.56	141.26	120.96	41.971	3.5003e-06	52.077	319.691	212.470	326.701	109.526	289.398	400.049	109.389	114.283	255.158	254.180	113.578	118.028	118.762	123.208	274.951	122.357	-8191	255	
2484.020	1	1	0	0	0.16068	0.13983	0.10956	0.24682	0.1605	0.19097	0.23442	0.10207	0.086732	0.18545	0.11538	0.29783	0.29735	0.2377	0.24256	0.10415	-2.7708	-3.0104	-2.9708	-3.3063	-2.7792	-3.0771	-3.2521	-3.0187	-3.2479	-3.025	-3.2146	-3.1833	-2.9104	-3.0333	-2.8937	-3.1667	181.153	227.218	278.814	109.619	236.796	308.083	378.098	362.682	221.107	406.147	400.398	114.904	455.605	335.045	305.119	401.811	0.0011673	0.00021241	0.00023405	1345.6	6.9605e-06	7.4263e-06	1355.8	371.79	4.0458e-06	6.9206e-06	422.14	140.96	123.81	41.436	5.4567e-06	51.667	0.0003318	0.00032175	8.8487e-05	1357	3.4836e-06	3.4985e-06	1357.8	372.9	3.4855e-06	3.4769e-06	415.65	141.33	120.61	41.906	3.499e-06	52.05	317.753	242.771	130.227	109.709	270.330	259.273	109.252	114.300	251.045	232.493	113.891	118.383	118.718	123.177	224.800	122.201	-8191	255	
2484.141	1	1	0	0	0.14147	0.15138	0.11264	0.3255	0.11552	0.29296	0.36374	0.26488	0.010109	0.40796	0.16512	0.1492	0.13381	0.15258	0.30859	0.19804	-2.8104	-2.9708	-3.0021	-3.5021	-2.7667	-3.1729	-3.3229	-2.9708	-3.0604	-2.9208	-3.0375	-3.2396	-2.8333	-3.2271	-3.0375	-2.8583	368.618	153.221	410.457	437.425	429.422	162.481	373.625	439.183	373.312	242.402	400.536	166.876	168.774	104.440	330.247	415.930	0.0012559	7.4763e-05	9.4047e-05	1349.8	8.2957e-06	8.3221e-06	1352.8	371.54	3.0177e-06	6.6714e-06	422.93	141.38	123.56	41.725	4.2379e-06	51.936	0.00032661	0.00031836	8.8095e-05	1357.1	3.4547e-06	3.4455e-06	1357.9	372.88	3.4868e-06	3.4221e-06	415.14	141.11	120.77	41.865	3.4733e-06	52.013	311.938	158.153	207.799	109.562	267.087	190.918	109.255	114.336	238.485	222.553	113.625	118.208	118.813	123.347	278.251	121.808	-8191	255	
2484.213	1	1	0	0	0.15336	0.13162	0.091145	0.16243	0.16088	0.29903	0.1252	0.36201	0.087108	0.1812	0.18963	0.18947	0.28004	0.17248	0.090501	0.085836	-2.8312	-2.925	-2.875	-3.5167	-2.9125	-3.2812	-3.3604	-2.9854	-3.2375	-3.05	-3.0854	-3.3583	-3.0167	-3.1708	-3.1396	-2.9146	251.639	197.207	392.157	419.384	399.950	222.117	375.676	402.432	438.419	145.445	398.815	391.607	155.673	413.119	445.133	411.319	0.0013029	0.00053116	4.2288e-05	1349.1	1.0138e-05	3.3139e-06	1357.5	372.48	6.2367e-06	3.7661e-06	424.2	141.82	123.8	41.65	3.5888e-06	51.664	0.00032473	0.00031459	8.6837e-05	1357	3.4579e-06	3.4308e-06	1359	373.04	3.4067e-06	3.4455e-06	415.56	141.3	120.7	41.88	3.4307e-06	51.881	312.176	215.980	382.580	109.489	222.248	179.328	109.353	114.352	210.301	281.052	113.782	117.937	118.880	123.194	127.274	122.064	-8191	255	
2484.309	1	1	0	0	0.069858	0.23366	0.12991	0.24331	0.21431	0.15956	0.18439	0.49603	0.14626	0.15196	0.23213	0.22163	0.13673	0.26668	0.22088	0.38045	-2.7479	-3.1958	-2.9354	-3.4458	-3.0625	-3.0542	-3.5292	-2.9479	-3.1729	-3.1437	-3.1188	-3.3646	-3.0812	-3.1979	-3.2104	-3.0208	340.362	425.889	131.270	450.351	107.716	357.540	378.794	437.223	259.967	99.602	409.938	450.728	451.666	447.388	178.849	399.795	0.0012251	0.00061486	7.0469e-05	1351.1	4.2516e-06	4.6915e-06	1352.9	373.24	6.4607e-06	2.983e-06	420.17	141.1	123.05	41.524	1.0319e-06	51.783	0.00032178	0.00031079	8.6293e-05	1357.1	3.3856e-06	3.3588e-06	1358.3	372.22	3.4005e-06	3.3619e-06	413.85	140.99	120.23	41.765	3.3601e-06	51.997	317.616	192.525	207.879	109.560	306.051	249.490	109.481	114.462	218.547	237.595	113.530	118.155	119.105	123.267	223.871	122.158	-8191	255	
2484.405	1	1	0	0	0.065142	0.10213	0.059084	0.15549	0.037848	0.13617	0.25508	0.14943	0.15953	0.092781	0.032152	0.23123	0.053751	0.36327	0.20937	0.25299	-2.5833	-2.9479	-2.9062	-3.3146	-3.0417	-3.0333	-3.4271	-2.9667	-3.1354	-3.0938	-3.0146	-3.1813	-3.0125	-3.1479	-3.3104	-2.9062	201.566	117.862	378.806	363.632	138.823	272.553	378.941	315.212	372.227	218.066	218.536	375.010	351.844	447.952	409.439	408.630	0.0011949	0.00032638	0.00019699	1347.6	1.2624e-06	4.1274e-06	1354	373.01	8.4126e-06	4.987e-06	421.85	141.26	123.55	41.659	1.1687e-05	52.076	0.00031617	0.00030353	8.4262e-05	1356.7	3.3531e-06	3.337e-06	1355.9	372.76	3.3264e-06	3.3526e-06	414.48	141.11	120.48	41.853	3.3632e-06	52.079	315.125	174.868	186.291	109.593	188.867	210.432	109.271	114.453	172.220	226.242	113.888	118.091	118.840	123.407	259.467	122.027	-8191	255	
2484.526	1	1	0	0	0.10242	0.19573	0.1503	0.12963	0.044997	0.19279	0.19817	0.21767	0.1802	0.15386	0.19326	0.33385	0.26744	0.24079	0.090856	0.12714	-2.8354	-3.2188	-2.8354	-3.4813	-3.0312	-3.0417	-3.4354	-3.15	-3.0312	-2.9896	-3.0896	-3.2958	-2.975	-3.0354	-3.2812	-3.0833	314.370	235.030	190.055	449.357	218.064	166.286	365.564	407.802	169.728	420.229	429.111	393.775	417.966	158.343	108.720	445.891	0.0012111	0.00023679	0.00014035	1351.7	1.2508e-05	2.9331e-06	1353.7	371.85	3.5966e-06	5.2239e-06	421.91	141.21	123.88	41.762	2.7672e-06	52.147	0.0003158	0.00030378	8.3922e-05	1357	3.334e-06	3.3723e-06	1357.9	372.75	3.3412e-06	3.3128e-06	414.94	141.18	120.63	41.898	3.3573e-06	52.082	319.630	158.215	219.284	109.606	235.863	250.642	109.417	114.470	276.288	251.585	113.519	117.858	118.783	123.328	299.013	122.296	-8191	255	
2484.622	1	1	0	0	0.21021	0.32988	0.075781	0.28442	0.18292	0.094969	0.30269	0.19364	0.16816	0.24673	0.18398	0.17343	0.069131	0.15384	0.26099	0.15009	-2.6354	-3.2396	-2.7	-3.3042	-3.0417	-2.9083	-3.4583	-2.8583	-3.1875	-3.1354	-2.9062	-3.225	-3.1375	-2.9646	-3.4021	-3.1771	391.653	198.219	334.977	395.538	168.966	455.742	428.849	375.377	347.557	227.440	343.772	436.971	191.581	434.681	247.093	367.659	0.0011135	0.00045208	7.8947e-05	1351.9	1.1759e-05	1.8174e-06	1362.8	372.53	2.3677e-06	2.1042e-06	421.51	141.8	124.47	41.739	5.9426e-06	51.863	0.00031721	0.00030397	8.5087e-05	1360.4	3.3227e-06	3.2898e-06	1360.5	372.83	3.3269e-06	3.2802e-06	414.95	141.34	120.89	41.942	3.3185e-06	52.064	321.303	205.115	192.351	109.405	279.727	221.455	109.350	114.176	193.828	202.830	113.579	117.978	118.824	123.256	260.506	121.989	-8191	255	
2484.718	1	1	0	0	0.23425	0.12487	0.15486	0.33892	0.10622	0.11423	0.17175	0.2342	0.29661	0.24596	0.28697	0.35359	0.075922	0.11549	0.17128	0.12561	-2.6729	-3.2583	-2.9021	-3.2771	-3.1813	-2.8208	-3.4833	-3.2979	-2.9896	-3.3667	-3.0167	-3.2833	-3.2354	-3.0042	-3.2938	-3.0375	172.226	381.830	192.399	447.021	447.966	342.298	440.213	417.151	222.898	353.045	422.108	398.845	169.413	385.426	97.313	422.000	0.0011951	1.9482e-05	0.00012987	1356.9	8.6499e-06	5.881e-06	1365.4	374.86	1.1835e-05	2.6622e-06	422.59	141.95	124.68	42.005	4.3597e-06	52.218	0.00031408	0.00030015	8.3727e-05	1362	3.2798e-06	3.2478e-06	1364.9	374	3.2924e-06	3.3049e-06	415.94	141.81	121.22	42.174	3.3211e-06	52.113	317.444	171.821	124.252	109.410	203.492	220.490	109.363	114.594	241.825	268.204	113.731	118.182	119.068	123.198	265.015	122.060	-8191	255	
2484.814	1	1	0	0	0.044948	0.10271	0.43186	0.38723	0.24115	0.053641	0.29017	0.40391	0.031113	0.11886	0.094757	0.18063	0.082864	0.42978	0.093422	0.2843	-2.5646	-3.2104	-2.9104	-3.3104	-3.2542	-2.8021	-3.2188	-3.1688	-2.8646	-3.3229	-2.9354	-3.2333	-3.3333	-3.0271	-3.1396	-3.2271	380.291	319.905	124.117	415.907	139.173	303.546	409.068	379.061	277.080	180.105	307.300	364.781	440.259	393.061	376.801	439.419	0.0011634	0.00028244	0.00020646	1359.3	9.3285e-06	1.972e-06	1365.1	375.14	3.0773e-06	4.6432e-06	423.66	142.06	124.91	41.985	7.6888e-06	51.948	0.00031463	0.00030207	8.4703e-05	1367.8	3.3676e-06	3.3646e-06	1368.7	375.05	3.4104e-06	3.4161e-06	417.46	142.2	121.96	42.249	3.4286e-06	52.207	316.320	197.188	182.463	109.610	204.838	287.071	109.458	114.436	233.908	164.261	113.471	118.039	118.737	122.963	269.614	121.807	-8191	255	
2484.910	1	1	0	0	0.38673	0.095856	0.25612	0.40432	0.18057	0.15263	0.082797	0.25479	0.26187	0.14988	0.085676	0.064328	0.13902	0.1505	0.088632	0.34675	-2.6083	-3.2708	-3	-3.1063	-3.275	-2.8979	-3.3979	-3.2396	-2.7833	-3.2021	-2.8542	-3.1458	-3.1625	-2.9125	-3.0375	-3.2479	289.749	368.683	366.742	397.812	241.876	399.598	433.852	383.525	455.052	404.716	389.463	363.321	217.922	158.757	276.491	398.637	0.0013213	0.00044743	0.00023176	1368.8	8.5054e-06	4.8732e-06	1371.2	377.63	6.1042e-06	5.026e-06	426.03	142.42	125.87	42.2	7.4405e-06	52.145	0.00032796	0.00031779	8.7651e-05	1376.1	3.4792e-06	3.4499e-06	1374.9	376.69	3.4604e-06	3.4329e-06	418.5	142.33	122.2	42.326	3.4614e-06	52.359	318.171	235.297	181.795	109.576	215.079	242.395	109.210	114.482	271.120	204.027	113.661	118.242	118.887	123.112	208.432	121.925	-8191	255	
2485.006	1	1	0	0	0.046867	0.19227	0.18219	0.089056	0.057039	0.075464	0.40246	0.339	0.19465	0.12398	0.15194	0.084944	0.1161	0.23346	0.07812	0.19529	-2.5938	-3.2938	-2.8417	-3.1396	-3.1917	-2.975	-3.3812	-3.425	-2.8833	-3.3	-3.0292	-3.0229	-3.3854	-2.875	-3.15	-3.3125	168.800	332.672	329.514	220.849	285.109	276.958	431.787	416.360	447.535	273.680	411.137	425.757	410.586	413.009	325.590	147.242	0.0012732	0.00031798	7.0813e-05	1371	3.8524e-06	7.6129e-06	1374.2	376.23	5.0297e-06	8.2489e-06	430.49	143.28	125.92	41.999	6.5993e-06	52.354	0.00032692	0.0003135	8.8351e-05	1377.1	3.4713e-06	3.4592e-06	1377.9	377.31	3.4266e-06	3.4312e-06	420.05	142.89	122.44	42.415	3.4369e-06	52.467	315.241	273.057	203.439	109.374	283.949	228.467	109.268	114.269	186.219	265.030	113.446	118.220	118.906	123.061	210.501	122.109	-8191	255	
2485.102	1	1	0	0	0.11965	0.079533	0.25859	0.28878	0.12851	0.17257	0.17192	0.057108	0.06801	0.11219	0.26694	0.13215	0.090617	0.17747	0.12561	0.33977	-2.4354	-3.0312	-2.975	-3.0333	-3.0646	-2.8854	-3.1729	-3.1292	-2.975	-3.0708	-3.1979	-3.0354	-3.2479	-3.0479	-2.9417	-3.1854	169.479	275.250	343.689	450.222	116.469	200.870	409.640	378.086	160.773	109.510	438.903	362.858	378.097	440.231	191.410	448.995	0.0012935	0.00052918	0.00019092	1379.8	8.4644e-06	6.8916e-06	1380.4	377.92	9.5947e-06	6.6854e-06	430.54	143.96	126.22	42.367	6.9449e-06	52.535	0.00032511	0.00031168	8.7512e-05	1383.9	3.4691e-06	3.4486e-06	1384.3	378.77	3.514e-06	3.5404e-06	422.3	143.58	123.14	42.676	3.5738e-06	52.753	320.196	212.187	196.302	109.574	255.397	206.421	109.253	114.157	200.924	184.475	113.623	118.086	118.834	123.065	230.660	122.018	-8191	255	
2485.221	1	1	0	0	0.11728	0.15078	0.15975	0.26257	0.11088	0.013832	0.3914	0.17178	0.1645	0.26032	0.23351	0.17773	0.38206	0.16531	0.29973	0.071373	-2.4229	-3.1625	-2.9	-3.1729	-3.0333	-3.0021	-3.1375	-3.4688	-2.9104	-3.1854	-3.0375	-2.8896	-3.3271	-3.0917	-2.9083	-3.3438	238.562	192.421	110.758	402.604	438.266	396.287	416.427	421.258	118.781	296.704	168.755	104.181	450.781	446.382	343.306	427.307	0.0011734	0.00026273	6.5772e-05	1385.8	5.672e-06	1.0513e-06	1387.7	378.45	5.0963e-06	3.6494e-07	428.23	143.78	126.81	42.385	2.5423e-06	52.688	0.00033815	0.00032396	9.0323e-05	1391.3	3.5344e-06	3.5197e-06	1391	379.32	3.5038e-06	3.4871e-06	422.29	143.72	123.11	42.679	3.4604e-06	52.804	310.800	257.106	155.141	109.424	213.659	451.991	109.169	114.315	218.708	331.078	113.875	118.052	118.680	122.926	335.491	121.839	-8191	255	
2485.317	1	1	0	0	0.16857	0.1958	0.28446	0.29482	0.1314	0.22193	0.28146	0.3249	0.063856	0.2312	0.07524	0.17061	0.26231	0.078302	0.12469	0.035198	-2.5479	-3.0667	-3.3063	-3.0104	-2.9938	-3.0417	-3.1042	-3.2208	-3.0083	-3.1875	-3.1542	-3.0792	-3.2438	-3.05	-2.7833	-3.1521	179.841	358.782	424.514	430.316	209.015	140.535	386.092	394.779	163.289	310.429	252.071	436.967	423.984	443.651	148.145	306.150	0.0012567	0.00025338	0.00025161	1384.5	7.5181e-06	9.0321e-07	1384.6	378.26	4.0607e-06	3.9821e-06	427.42	144.01	126.57	42.501	5.4137e-06	52.694	0.00032905	0.00031503	8.8073e-05	1391.3	3.4516e-06	3.4738e-06	1389.9	379.58	3.4641e-06	3.4051e-06	420.71	143.67	123.06	42.704	3.4012e-06	52.754	315.748	143.103	172.042	109.494	243.513	124.670	109.282	114.363	179.396	244.239	113.582	118.115	118.622	123.005	280.520	122.124	-8191	255	
2485.414	1	1	0	0	0.20479	0.18575	0.16167	0.51224	0.16629	0.29848	0.4868	0.16226	0.1397	0.19361	0.20692	0.29115	0.11445	0.1606	0.15231	0.24937	-2.3708	-2.95	-3.1667	-3.0542	-3.0396	-3.0708	-2.9292	-3.4042	-2.9604	-3.1063	-3.2583	-2.9125	-3.1521	-3.1813	-2.85	-3.2313	320.525	153.641	177.048	453.527	315.117	209.711	410.831	451.066	315.638	403.886	136.075	110.523	130.270	168.523	172.843	426.353	0.00119	0.00056906	0.00018764	1380.3	8.5849e-06	7.6183e-06	1381.8	378.4	1.3378e-05	1.2278e-06	428.7	143.71	126.72	42.556	1.0771e-05	52.746	0.00032444	0.00031134	8.5721e-05	1388.1	3.362e-06	3.3781e-06	1386.7	379.23	3.3253e-06	3.3119e-06	420.4	143.3	122.83	42.754	3.3187e-06	52.709	320.312	176.897	241.011	109.399	225.238	280.796	109.270	114.356	218.610	329.588	113.645	118.238	118.921	123.182	246.352	121.977	-8191	255	
2485.510	1	1	0	0	0.048294	0.12814	0.29515	0.13379	0.26009	0.26407	0.14857	0.29736	0.26801	0.065852	0.20591	0.24054	0.092234	0.25485	0.068945	0.07415	-2.6375	-2.8563	-2.9729	-2.9042	-3.1146	-3.0438	-3.1312	-3.2479	-3.0938	-2.9292	-3.3729	-3.0167	-2.9562	-3.3042	-2.8833	-3.2771	161.966	283.767	363.460	455.728	108.743	403.267	384.715	395.178	189.839	419.617	293.878	395.622	135.340	435.487	265.404	332.240	0.0012211	0.00028804	0.00023826	1381.2	5.3405e-06	3.8184e-06	1385.3	379.6	9.7245e-06	5.7615e-06	425.05	143.95	126.86	42.264	5.2681e-06	52.814	0.00031366	0.0003029	8.2973e-05	1386	3.3118e-06	3.2889e-06	1385.6	378.73	3.2877e-06	3.2615e-06	419.81	143.49	122.82	42.609	3.2855e-06	52.704	318.180	194.706	191.290	109.493	222.812	209.465	109.335	114.072	253.017	207.092	113.563	118.028	118.722	123.007	263.407	122.307	-8191	255	
2485.606	1	1	0	0	0.26906	0.12005	0.11593	0.3569	0.16833	0.21158	0.35883	0.039424	0.099019	0.12107	0.26118	0.35933	0.2187	0.18811	0.20814	0.097361	-2.6063	-2.8583	-3.2708	-3.2854	-3.025	-3.1083	-3.1604	-3.2771	-3.1479	-2.9292	-3.3958	-3.0958	-3.0563	-3.1917	-2.8563	-3.1583	204.252	300.392	140.601	416.756	271.572	436.807	393.118	201.022	169.650	120.695	393.446	424.260	379.797	366.169	370.216	295.717	0.0012356	0.00046184	5.7861e-05	1380.3	5.3996e-06	9.5454e-06	1381	378.77	1.1613e-05	4.0584e-06	427.01	143.7	126.22	42.434	8.9033e-06	52.621	0.00031039	0.00029669	8.2219e-05	1385.2	3.2653e-06	3.2521e-06	1384	378.37	3.2121e-06	3.2461e-06	419.11	143.25	122.63	42.643	3.2298e-06	52.618	319.751	173.153	138.908	109.449	255.546	252.544	109.304	114.310	203.168	220.134	113.446	118.007	118.580	123.078	210.476	121.870	-8191	255	
2485.702	1	1	0	0	0.157	0.25413	0.16607	0.15246	0.1422	0.049193	0.19388	0.19375	0.088879	0.022512	0.12312	0.11234	0.23059	0.055934	0.17128	0.37582	-2.8417	-2.9271	-3.1167	-3.2229	-2.9958	-3.2479	-3.1979	-3.2167	-3.1	-3.0375	-3.3125	-3.0229	-3.0354	-3.2604	-3.0896	-3.1896	422.509	363.751	356.255	138.364	424.693	195.034	370.683	443.087	439.424	258.885	111.759	432.607	435.835	387.285	173.203	128.967	0.00132	0.00056588	0.00023612	1377.5	9.2495e-06	4.8993e-06	1380.3	378.99	5.1656e-06	5.9194e-06	428.29	143.72	126.38	42.532	8.1629e-06	52.743	0.00030668	0.0002973	8.1078e-05	1383.8	3.2274e-06	3.2122e-06	1383.5	378.4	3.1983e-06	3.1872e-06	419.84	143.37	122.43	42.633	3.2061e-06	52.639	321.501	454.423	218.160	109.368	234.230	267.402	109.296	114.471	214.420	209.348	113.831	118.080	118.800	123.093	277.071	122.231	-8191	255	
2485.823	1	1	0	0	0.22374	0.097318	0.20056	0.3493	0.22163	0.21935	0.44003	0.31595	0.14818	0.10206	0.22002	0.21525	0.07851	0.082003	0.2638	0.12038	-2.7333	-2.8354	-3.2625	-3.1292	-2.9917	-3.3229	-3.2833	-3.0312	-3.1188	-2.8208	-3.1979	-3.1417	-3.0792	-3.3312	-3.0438	-3.2188	346.710	421.238	407.587	434.499	434.593	344.926	373.406	411.762	178.829	195.337	132.723	113.668	265.081	144.954	274.835	144.039	0.0012066	0.00041628	0.00018625	1377.6	6.6622e-06	5.1562e-06	1380.2	379.65	4.9655e-06	2.2458e-06	429.22	143.6	126.04	42.557	5.3222e-06	52.577	0.00030566	0.00028864	8.0291e-05	1383.7	3.1525e-06	3.1455e-06	1381.3	378.48	3.1319e-06	3.0858e-06	418.72	143.18	122.23	42.566	3.1778e-06	52.521	314.272	141.597	239.902	109.515	232.581	253.287	109.127	114.394	192.204	245.170	113.614	117.947	118.784	122.997	292.788	122.102	-8191	255	
2485.917	1	1	0	0	0.1514	0.12586	0.19809	0.29804	0.15888	0.059301	0.35305	0.19239	0.15102	0.13558	0.027917	0.26268	0.14801	0.20869	0.087242	0.16246	-2.7229	-2.8229	-2.9792	-3.3812	-2.8521	-3.3688	-3.2229	-3.0708	-3.2917	-2.8917	-3.2313	-3.1479	-2.9437	-3.5646	-3.1	-3.1354	241.833	239.497	421.351	435.395	443.404	390.532	417.375	422.710	312.445	263.389	384.318	339.937	146.765	151.746	276.986	392.594	0.001262	0.00048991	0.00015395	1379.4	9.8391e-06	8.5496e-06	1376.9	378.09	1.0497e-05	2.5227e-06	427.54	143.64	126.32	42.604	4.6578e-06	52.483	0.00029771	0.00028571	7.8747e-05	1382.8	3.1267e-06	3.1092e-06	1381.2	377.55	3.1104e-06	3.0688e-06	418.24	143.08	122.17	42.618	3.0861e-06	52.583	319.175	212.702	222.607	109.524	238.369	189.209	109.135	114.378	218.852	207.766	113.686	118.142	119.010	122.974	270.100	122.163	-8191	255	
2486.013	1	1	0	0	0.2295	0.021315	0.12164	0.36292	0.10551	0.23674	0.2997	0.19447	0.18082	0.134	0.13448	0.2579	0.058015	0.01139	0.13199	0.27615	-2.9333	-2.9833	-3.0771	-3.3896	-2.6875	-3.1396	-3.0396	-2.9208	-3.2729	-2.9896	-3.0646	-3.2229	-2.8167	-3.4729	-2.9417	-3.0021	157.810	171.261	316.723	99.453	271.852	198.075	399.607	122.013	328.949	360.422	377.718	365.794	101.300	399.179	362.445	316.228	0.0011744	0.0002587	5.7267e-05	1378.5	7.6851e-06	3.7749e-06	1379	377.63	2.7684e-06	2.9033e-06	426.35	143.46	126.23	42.423	2.4646e-06	52.78	0.00029341	0.00027685	7.768e-05	1381.5	3.0366e-06	3.0533e-06	1378.8	377.06	3.0351e-06	3.0052e-06	417.47	142.76	122.08	42.48	3.0317e-06	52.536	319.973	149.512	265.990	109.278	207.297	234.810	109.252	114.485	246.025	233.382	113.605	117.963	118.857	123.171	273.407	122.028	-8191	255	
2486.087	1	1	0	0	0.30529	0.21739	0.24294	0.35063	0.28185	0.16278	0.23719	0.23438	0.061028	0.14329	0.20493	0.18682	0.10136	0.22301	0.17977	0.19257	-2.8333	-2.8521	-3	-3.1604	-2.9583	-3.0646	-3.4313	-3.1958	-3.275	-2.9021	-3.0354	-3.2521	-3.2083	-3.2125	-2.8354	-2.9479	257.854	319.597	356.785	113.616	453.898	348.240	425.444	404.531	328.969	267.284	112.845	354.029	408.296	409.972	446.829	311.473	0.0011821	0.00057373	0.00020845	1375.2	8.0761e-06	6.3705e-06	1380.7	378.72	1.1468e-05	2.4858e-06	426.44	143.98	126	42.427	4.4308e-06	52.432	0.00028937	0.00027564	7.5946e-05	1378.9	3.0136e-06	3.0308e-06	1377	377.18	3.0672e-06	3.0436e-06	416.79	142.93	121.96	42.49	3.0379e-06	52.373	319.520	208.940	196.156	109.518	284.502	246.817	109.352	114.323	214.936	126.628	113.851	118.075	118.680	123.090	282.941	121.920	-8191	255	
2486.206	1	1	0	0	0.20531	0.18243	0.043993	0.46791	0.13085	0.14497	0.23635	0.12825	0.12474	0.17851	0.27017	0.12389	0.42005	0.25037	0.24747	0.15822	-2.7854	-2.875	-2.9167	-3.3625	-2.7812	-3.0896	-3.3542	-3.1854	-3.225	-3.0417	-3.0646	-3.3937	-2.9396	-3.1562	-3.1937	-3.0563	182.069	323.272	370.290	393.169	170.857	298.570	415.994	144.890	210.752	367.221	401.796	388.664	427.751	451.848	368.918	347.665	0.0011575	0.00080786	0.00014932	1374.6	6.9459e-06	2.4195e-06	1376.6	377.09	8.9888e-06	5.7115e-06	427.47	143.63	125.93	42.554	6.0256e-06	52.298	0.00029133	0.00027835	7.7516e-05	1377.3	3.0724e-06	3.0551e-06	1377.6	376.75	3.0637e-06	3.063e-06	417.44	142.67	121.81	42.538	3.0203e-06	52.401	318.491	215.584	217.149	109.376	242.475	214.784	109.177	114.409	217.638	247.612	114.016	118.120	118.575	123.194	238.222	122.168	-8191	255	
2486.302	1	1	0	0	0.012069	0.10897	0.13296	0.25383	0.12265	0.1724	0.11061	0.29019	0.14774	0.064329	0.29151	0.046258	0.17145	0.16469	0.13628	0.27734	-2.9188	-2.9417	-2.9792	-3.2646	-3.0771	-3.0396	-3.3479	-2.9208	-2.9562	-3.0646	-2.9437	-3.3396	-3.0625	-3.0229	-3.1917	-2.9125	324.457	302.498	145.274	372.302	303.918	143.642	426.690	398.233	145.132	98.166	119.378	150.602	175.289	348.179	451.760	420.529	0.0012198	0.00052595	8.1097e-05	1374.1	8.0247e-06	7.8385e-07	1373.4	377.78	8.5543e-06	3.6378e-06	426.13	143.6	125.75	42.338	6.8662e-06	52.577	0.00028966	0.00027201	7.6267e-05	1377.3	3.0187e-06	3.0385e-06	1374.2	376.87	3.0416e-06	3.042e-06	416.99	142.66	121.94	42.48	3.0606e-06	52.463	314.053	167.293	228.749	109.626	219.246	121.017	109.335	114.435	218.793	266.355	113.654	117.899	118.995	122.966	242.078	122.097	-8191	255	
2486.398	1	1	0	0	0.22082	0.21788	0.1319	0.31207	0.10036	0.093639	0.27838	0.12386	0.21935	0.050891	0.09629	0.14054	0.13196	0.13417	0.10581	0.14109	-2.5875	-2.8937	-2.8667	-3.5563	-2.8896	-2.9688	-3.4479	-2.9062	-2.9958	-2.9813	-3.025	-3.2875	-3.1979	-3.0292	-3.4354	-2.9792	149.403	141.953	279.040	409.642	295.728	396.840	378.915	155.901	420.307	288.014	194.997	446.475	424.330	344.255	416.714	361.773	0.0013578	8.9206e-05	4.0664e-05	1370	7.3429e-06	3.3632e-06	1374.1	377.38	6.4501e-06	4.906e-07	424.22	142.83	125.61	42.422	3.0492e-06	52.431	0.00029189	0.00027707	7.7653e-05	1375.8	3.028e-06	3.0324e-06	1374.9	376.66	3.0342e-06	2.9932e-06	416.19	142.48	121.82	42.433	2.9722e-06	52.392	314.750	200.282	204.999	109.613	218.399	272.716	109.230	114.254	259.042	215.145	113.664	118.029	118.834	123.137	257.704	122.184	-8191	255	
2486.494	1	1	0	0	0.099897	0.19656	0.0879	0.094606	0.25362	0.16658	0.28467	0.10683	0.14755	0.28779	0.19107	0.27193	0.16784	0.070341	0.058129	0.21502	-2.6333	-2.8792	-2.8708	-3.275	-3.0667	-2.9729	-3.3667	-3.1417	-2.9313	-3.1458	-2.9208	-3.2979	-3.0104	-3.0125	-3.4	-3.0625	164.314	109.551	329.972	100.168	419.618	218.761	398.855	268.785	274.056	280.683	120.744	313.397	97.614	405.652	383.180	436.781	0.0011874	0.00042589	0.00016911	1370.7	7.0082e-06	1.9656e-06	1370.2	379.38	5.1414e-06	2.3269e-06	427.56	143.91	126.49	42.447	5.618e-06	52.617	0.00028248	0.00026924	7.5104e-05	1374.1	2.9622e-06	2.9683e-06	1373.5	377.14	3.0015e-06	2.9727e-06	416.63	142.56	121.86	42.384	3.0225e-06	52.384	316.557	190.485	219.305	109.442	210.140	184.623	109.241	114.251	320.482	267.223	113.623	118.085	118.646	122.917	222.542	122.011	-8191	255	
2486.615	1	1	0	0	0.12482	0.14795	0.021673	0.39405	0.12824	0.17448	0.091629	0.19598	0.082037	0.27718	0.074878	0.077461	0.123	0.16403	0.14339	0.12582	-2.6375	-3.0167	-2.8187	-3.3646	-2.9938	-2.875	-3.3292	-3.1417	-3.0771	-3.2229	-3.175	-3.2188	-3.2562	-2.9583	-3.1979	-3.2021	392.710	375.183	449.059	385.549	192.035	115.735	434.752	364.472	418.711	390.143	115.066	380.587	107.846	400.365	401.848	423.088	0.0013032	0.00021275	6.6763e-05	1372.8	5.2583e-06	4.9362e-06	1377.1	376.79	6.3512e-06	3.4462e-06	426.28	143.4	125.92	42.486	8.5382e-06	52.429	0.00028866	0.00027451	7.6601e-05	1375.3	3.0582e-06	3.0313e-06	1376	376.27	3.0353e-06	3.0382e-06	416.52	142.67	121.67	42.503	3.0168e-06	52.334	321.937	396.378	176.406	109.389	278.666	256.162	109.238	114.161	206.496	265.757	113.487	118.151	118.649	123.190	256.651	122.302	-8191	255	
2486.686	1	1	0	0	0.25415	0.22152	0.16225	0.40325	0.090394	0.098	0.27696	0.30148	0.15111	0.13145	0.2841	0.17334	0.17814	0.094195	0.077179	0.41644	-2.6167	-3.0542	-2.9437	-3.3333	-3.1854	-2.85	-3.4313	-3.1875	-3.0563	-3.3896	-2.9146	-3.3604	-3.2604	-3.0458	-3.0542	-3.1646	364.029	115.867	144.378	421.809	126.659	428.904	412.526	433.139	347.290	150.598	413.443	119.211	407.315	171.414	272.419	367.472	0.0011156	0.0002892	0.00011956	1376	4.0618e-06	5.3406e-06	1373.4	377	2.8193e-06	3.3544e-06	428.24	143.58	126.09	42.205	2.36e-06	52.373	0.00028689	0.00027186	7.4673e-05	1376.8	3.006e-06	2.9389e-06	1375.2	376.72	3.0028e-06	2.9368e-06	416.69	142.57	121.64	42.363	2.9386e-06	52.181	319.527	148.125	125.173	109.467	203.806	220.074	109.285	114.244	199.407	235.805	113.695	118.187	118.750	123.384	404.464	122.206	-8191	255	
2486.782	1	1	0	0	0.18903	0.15411	0.11429	0.32757	0.070227	0.17007	0.046797	0.26012	0.10453	0.2134	0.20744	0.40508	0.069695	0.20145	0.14412	0.28132	-2.5458	-3.1104	-3.1396	-3.3146	-3.2458	-2.9813	-3.5062	-3.1562	-2.9333	-3.2458	-3.0542	-3.3292	-3.2479	-3.0687	-3.2208	-3.175	437.283	121.438	133.418	442.824	274.710	339.377	330.264	437.675	428.361	265.501	116.681	425.586	348.243	430.568	427.621	378.680	0.0013694	0.00027278	0.00014529	1366.9	9.9853e-06	6.3628e-06	1374.2	377.92	6.691e-06	3.6829e-06	426.29	143.31	125.54	42.403	5.9954e-06	52.355	0.00027758	0.00026509	7.3342e-05	1373.3	2.8928e-06	2.9018e-06	1373.5	376.3	2.9475e-06	2.9431e-06	415.74	142.58	121.63	42.399	2.9495e-06	52.265	314.868	181.328	230.963	109.553	241.371	219.604	109.149	114.323	221.262	264.599	113.973	118.119	118.888	122.960	224.954	121.960	-8191	255	
2486.903	1	1	0	0	0.36619	0.14687	0.12515	0.23328	0.33607	0.044295	0.24428	0.064408	0.093434	0.30317	0.27795	0.15533	0.21816	0.11226	0.12769	0.39908	-2.5938	-3.1271	-3.0792	-3.2771	-3.175	-2.85	-3.4917	-3.2125	-2.9917	-3.2687	-3.0729	-3.1854	-3.2562	-3.0229	-3.2083	-3.3	205.989	175.582	345.300	426.465	256.189	188.852	396.254	290.512	213.116	287.650	408.173	404.102	384.501	189.531	434.158	433.096	0.0012504	0.00035231	0.00012414	1366.5	6.4298e-06	3.9964e-06	1377.7	376.88	1.575e-06	2.2121e-06	425.14	143.22	126.04	42.391	3.3668e-06	52.035	0.00028542	0.00026907	7.5207e-05	1374.3	2.9485e-06	2.9326e-06	1374.8	375.48	2.9647e-06	2.9301e-06	415.82	142.57	121.76	42.408	2.9083e-06	52.184	317.437	193.450	129.214	109.465	224.820	244.946	109.171	114.259	222.020	216.858	113.467	118.061	118.882	123.152	220.210	122.164	-8191	255	
2486.997	1	1	0	0	0.17347	0.23602	0.070672	0.25745	0.066576	0.10725	0.23761	0.21172	0.10984	0.35782	0.11161	0.28977	0.018131	0.25404	0.19303	0.13568	-2.6521	-3.1375	-3.0021	-3.0687	-3.0521	-2.8375	-3.1625	-3.0938	-2.7167	-3.2729	-2.9437	-2.9896	-3.4521	-3.0708	-3.0125	-3.3354	231.528	112.838	121.061	440.647	380.361	97.241	400.152	366.241	199.883	422.820	110.177	303.496	418.676	426.050	197.193	257.938	0.001199	0.00040535	0.00011976	1372.2	7.4885e-06	8.0605e-07	1375.1	377.15	2.7837e-06	8.3472e-06	429.04	143.15	125.79	42.38	3.4155e-06	52.398	0.0002776	0.0002628	7.3362e-05	1372.8	2.8666e-06	2.8642e-06	1374	376.04	2.8798e-06	2.8541e-06	416.38	142.27	121.62	42.296	2.8826e-06	52.237	323.346	198.052	211.612	109.428	295.340	171.000	109.235	114.268	186.321	246.094	113.471	118.096	119.043	122.956	234.504	121.830	-8191	255	
2487.095	1	1	0	0	0.13278	0.20408	0.075553	0.13583	0.11452	0.1936	0.13362	0.19536	0.12352	0.18167	0.33938	0.16317	0.17066	0.26063	0.086622	0.27481	-2.5542	-3.3396	-3.0979	-3.15	-3.3792	-3.0104	-3.1188	-3.1979	-2.8812	-3.2125	-3.0125	-2.9437	-3.2313	-3.05	-3.0833	-3.2812	229.941	133.651	110.646	444.519	401.984	175.445	378.907	379.530	133.874	400.512	410.666	358.030	440.752	106.590	235.746	138.114	0.0012915	0.00053947	4.3519e-05	1369.8	8.7288e-06	1.0117e-06	1374.4	377.12	3.1456e-06	6.5691e-06	425.98	142.96	125.31	42.371	4.5603e-06	52.603	0.00027532	0.00026158	7.3357e-05	1374.9	2.9062e-06	2.8583e-06	1374.9	375.78	2.8933e-06	2.8844e-06	415.61	142.2	121.32	42.345	2.9012e-06	52.25	313.520	192.941	419.632	109.597	223.563	252.417	109.326	114.266	243.481	246.652	113.895	117.998	119.076	123.275	257.989	121.838	-8191	255	
2487.214	1	1	0	0	0.10806	0.14152	0.13952	0.10972	0.09231	0.17902	0.36183	0.4119	0.057034	0.17339	0.017397	0.074253	0.077903	0.15707	0.12179	0.085291	-2.5979	-3.2375	-2.9583	-3.0812	-3.1479	-2.9083	-3.5438	-3.3354	-2.9292	-3.1521	-3.2542	-2.9417	-3.4208	-3.0312	-3.0792	-3.3354	383.566	150.845	150.022	428.636	289.350	450.745	394.056	378.627	283.694	341.608	259.957	279.772	287.304	252.795	281.832	107.326	0.0011615	0.00027354	0.00010742	1369.8	7.3199e-06	4.7467e-06	1376.4	378.26	9.133e-06	7.5497e-06	425.21	143.19	126.41	42.354	5.1478e-06	52.448	0.00027713	0.00026118	7.3782e-05	1374.4	2.9082e-06	2.8858e-06	1374.6	376.46	2.8941e-06	2.8776e-06	415.38	142.45	121.69	42.348	2.9116e-06	52.204	314.584	104.514	147.288	109.480	212.326	188.775	109.216	114.186	227.607	199.631	113.571	118.078	118.712	123.117	191.633	121.950	-8191	255	
2487.310	1	1	0	0	0.11655	0.18871	0.097994	0.27009	0.18789	0.20689	0.39625	0.15504	0.060505	0.1464	0.11558	0.23301	0.1422	0.27345	0.12241	0.12971	-2.5	-3.2438	-3.0896	-2.9979	-3.0917	-3.0187	-3.325	-3.3083	-2.8125	-3.1708	-3.1208	-3.0042	-3.3479	-3.0958	-2.9958	-3.0604	327.189	388.464	167.146	387.697	264.110	404.139	400.041	324.705	396.919	297.277	422.873	387.631	175.588	104.590	191.647	312.010	0.0011642	0.00028155	0.00013118	1370.6	6.8917e-06	6.1692e-06	1375.3	376.63	3.6235e-06	6.0328e-06	424.16	143.53	125.67	42.312	6.7613e-06	52.229	0.00027676	0.00026525	7.3784e-05	1374.3	2.9221e-06	2.8712e-06	1374.2	376.14	2.9057e-06	2.9226e-06	414.98	142.36	121.62	42.318	2.9127e-06	52.148	315.486	161.428	148.014	109.479	241.958	242.118	109.317	114.202	237.259	202.267	113.169	118.174	118.596	123.176	250.329	121.938	-8191	255	
2487.382	1	1	0	0	0.12335	0.24547	0.25206	0.32862	0.061077	0.12122	0.22119	0.075126	0.094518	0.010943	0.11279	0.25042	0.15656	0.37849	0.02751	0.23415	-2.6417	-3.0354	-3.1604	-2.9583	-3.15	-3.0146	-3.1521	-3.3833	-2.8917	-3.2271	-3.2979	-3.0542	-3.0771	-3.2375	-2.8854	-3.2958	188.267	427.003	342.420	402.203	440.101	348.278	442.928	302.262	400.696	385.365	281.904	410.022	120.590	114.547	197.778	387.288	0.0011027	0.0002742	0.00020951	1373.6	9.0452e-06	6.5928e-06	1375.7	377.64	5.5021e-06	4.2867e-06	425.17	142.81	126.18	42.337	2.4168e-06	52.551	0.00027558	0.00026483	7.3185e-05	1376.8	2.866e-06	2.8538e-06	1374.1	376.1	2.8898e-06	2.8575e-06	415.61	142.32	121.7	42.35	2.8978e-06	52.205	315.063	180.466	239.005	109.446	219.693	230.313	109.396	114.275	212.501	231.177	113.806	118.087	118.907	123.038	236.394	122.048	-8191	255	
2487.503	1	1	0	0	0.15873	0.043615	0.27451	0.3	0.11183	0.090152	0.31946	0.29161	0.14473	0.20603	0.11804	0.18733	0.094493	0.065628	0.1362	0.093683	-2.6229	-3.0333	-3.2771	-3.0583	-3.2083	-3.2083	-3.1437	-3.5292	-2.9333	-3.0896	-3.1542	-3.0146	-3.1583	-3.1562	-2.9458	-3.3375	392.515	445.059	277.950	104.821	107.755	170.487	404.473	403.670	250.200	253.588	111.262	414.301	447.371	205.465	331.979	237.714	0.0012201	0.00042989	0.00010682	1371.1	8.4372e-06	4.416e-06	1381.3	376.84	9.0959e-06	6.0421e-06	426.39	143.04	125.64	42.087	9.9659e-06	52.456	0.0002735	0.00026111	7.2368e-05	1373.2	2.8968e-06	2.8501e-06	1376	375.7	2.8637e-06	2.8325e-06	415.48	142.16	121.32	42.288	2.8444e-06	52.221	313.194	232.759	170.817	109.627	269.535	184.434	109.143	114.121	224.709	251.205	113.714	117.955	118.936	123.134	277.084	122.120	-8191	255	
2487.599	1	1	0	0	0.097373	0.10888	0.081591	0.033886	0.13891	0.23519	0.13985	0.13335	0.32403	0.17782	0.27335	0.23199	0.18352	0.081272	0.1302	0.14152	-2.5292	-2.8125	-3.2625	-3.0042	-3.0563	-3.0083	-3.1396	-3.2167	-2.9667	-2.8812	-3.2104	-3.2833	-3.1562	-3.1542	-2.925	-3.3146	264.343	224.057	325.119	165.843	399.890	116.695	430.952	376.464	393.937	191.154	400.591	350.478	268.850	439.412	216.270	399.477	0.0013368	0.00040999	6.4171e-05	1369.5	6.0979e-06	6.3308e-06	1370.8	376.71	7.2418e-06	4.2196e-06	425.23	143.76	126.2	42.34	4.1797e-06	52.485	0.00027202	0.00025831	7.0979e-05	1372.6	2.8458e-06	2.8058e-06	1372.3	375.5	2.811e-06	2.8028e-06	415	142.32	121.57	42.309	2.8434e-06	52.149	319.909	212.873	217.507	109.595	245.236	237.799	109.294	114.307	215.782	282.284	113.691	117.921	118.965	123.058	245.123	121.793	-8191	255	
2487.695	1	1	0	0	0.1817	0.20245	0.25337	0.39584	0.2823	0.10384	0.36677	0.085896	0.14633	0.2492	0.13186	0.11987	0.049751	0.2322	0.10698	0.026259	-2.7792	-2.8458	-3.1396	-3.2125	-2.9708	-3.0292	-3.0333	-3.3063	-3.1875	-2.9604	-3.1542	-3	-2.8979	-3.2458	-2.9708	-3.2313	446.564	106.089	298.155	375.891	152.089	180.235	411.016	446.093	374.023	445.749	350.113	395.694	124.301	143.431	162.082	415.221	0.0013261	0.00030406	0.00013417	1369.7	6.7769e-06	1.1971e-06	1373.8	376.8	5.3369e-06	7.9152e-06	426.5	143.27	125.92	42.324	6.0312e-06	52.245	0.00026994	0.00025789	7.0797e-05	1373.1	2.8323e-06	2.8147e-06	1372.7	375.81	2.8226e-06	2.8036e-06	415.36	142.29	121.26	42.299	2.817e-06	52.18	318.931	151.564	254.047	109.459	264.232	146.971	109.295	114.139	296.129	269.219	113.780	118.213	118.806	123.013	295.360	122.100	-8191	255	
2487.791	1	1	0	0	0.24515	0.23742	0.17093	0.29353	0.058314	0.32096	0.33248	0.23006	0.13876	0.050783	0.14116	0.3651	0.18911	0.21604	0.25535	0.14315	-2.8187	-2.8375	-3.2542	-3.1021	-2.9354	-3.1813	-3.1854	-3.2896	-3.1063	-2.9354	-3.275	-3.0458	-2.975	-3.3458	-2.8917	-3.1625	321.159	147.442	347.713	444.666	420.370	449.802	392.993	379.762	196.217	454.674	300.653	455.772	344.791	402.565	301.226	200.918	0.0010811	0.00047936	9.482e-05	1372.2	3.2923e-06	5.1793e-06	1378.1	376.03	3.9727e-06	2.1508e-06	426.64	143.97	125.84	42.396	7.9379e-06	52.616	0.00027375	0.00025677	7.1488e-05	1376.9	2.8548e-06	2.8234e-06	1375.3	375.44	2.826e-06	2.8356e-06	415.34	142.4	121.41	42.358	2.8142e-06	52.192	321.906	182.959	189.642	109.542	245.067	285.149	109.353	114.094	198.726	215.437	113.637	117.941	118.683	123.304	271.765	122.060	-8191	255	
2487.912	1	1	0	0	0.035473	0.02621	0.19948	0.19609	0.14612	0.32165	0.30474	0.1795	0.27511	0.28378	0.25356	0.1788	0.11246	0.084828	0.031649	0.39316	-2.5458	-2.8542	-3.0396	-3.2729	-2.8833	-3.1896	-3.1688	-2.9583	-3.2708	-2.8229	-3.2	-3.2271	-2.7333	-3.275	-2.7771	-3.0854	241.249	355.762	419.280	120.570	117.841	130.568	364.743	242.929	447.066	335.288	397.965	375.837	227.410	428.750	355.989	378.960	0.0012472	0.00077698	0.00012758	1374.5	7.7141e-06	7.3928e-06	1373.8	377.16	8.7121e-06	7.205e-06	425.91	143.72	125.48	42.294	1.1755e-05	52.619	0.00026868	0.00025645	7.1457e-05	1374.7	2.7845e-06	2.8028e-06	1372.8	375.81	2.7914e-06	2.7556e-06	414.95	142.16	121.22	42.297	2.7869e-06	52.192	316.345	203.102	227.320	109.695	267.373	279.078	109.201	114.188	239.067	255.322	113.677	117.934	118.959	123.000	265.333	122.207	-8191	255	
2487.983	1	1	0	0	0.26006	0.043278	0.26484	0.20971	0.11173	0.28824	0.28067	0.16476	0.087206	0.091543	0.28401	0.16643	0.34188	0.08478	0.15306	0.27182	-2.5667	-2.8104	-3.0979	-3.2104	-2.8896	-3.1312	-3.1708	-3.1708	-3.1979	-2.8563	-3.3521	-3.2354	-2.9646	-3.2417	-2.9188	-2.9833	296.504	244.862	210.467	406.066	345.797	387.362	426.792	352.515	258.672	115.565	377.853	414.829	107.597	351.781	439.430	412.716	0.0010739	0.00035634	0.00011665	1372.9	5.7287e-06	4.2036e-06	1373.4	376.04	6.6518e-06	2.7625e-06	426.81	143.14	125.46	42.12	3.8524e-06	52.357	0.00026833	0.000254	7.0465e-05	1375.2	2.8026e-06	2.768e-06	1372.7	375.26	2.7621e-06	2.786e-06	415.13	142.2	121.19	42.266	2.7787e-06	52.133	320.233	226.664	205.323	109.526	211.125	170.537	109.325	114.195	232.161	213.560	113.556	118.040	118.521	123.206	214.008	122.035	-8191	255	
2488.080	1	1	0	0	0.14729	0.25216	0.20041	0.1747	0.026817	0.23179	0.29473	0.25391	0.27973	0.065743	0.021918	0.21286	0.057922	0.40046	0.18925	0.14883	-2.6979	-2.9	-2.9229	-3.225	-2.8271	-3.0563	-3.2833	-3.0833	-3.2958	-2.7167	-3.1396	-3.3604	-2.8396	-3.1896	-3.0438	-2.9125	361.985	145.492	315.517	401.667	290.212	351.935	399.282	419.000	99.662	234.885	151.594	444.995	393.105	455.032	350.435	372.084	0.0012116	0.00037133	0.0001363	1369.9	5.3148e-06	9.2752e-06	1374.5	376.54	1.0185e-05	4.8154e-06	426.72	143.63	125.75	42.401	4.3929e-06	52.566	0.0002653	0.00025177	7.0336e-05	1373.6	2.7473e-06	2.7311e-06	1371.9	375.52	2.7471e-06	2.7274e-06	415.27	142.17	121.1	42.249	2.7324e-06	52.161	319.817	125.777	176.185	109.525	208.201	201.881	109.301	114.374	243.908	252.627	113.534	118.136	118.943	123.379	267.002	122.204	-8191	255	
2488.176	1	1	0	0	0.097192	0.34932	0.17513	0.20365	0.22797	0.21727	0.2395	0.30008	0.41832	0.21607	0.16699	0.23373	0.11429	0.16599	0.049226	0.22368	-2.9083	-2.7875	-2.9938	-3.2812	-2.8438	-3.075	-3.3958	-2.8917	-3.2104	-3.0583	-3.1562	-3.2792	-2.9708	-3.0979	-3.0604	-3.0667	435.149	163.789	381.877	102.721	395.749	452.815	358.873	385.256	437.246	158.053	135.952	365.036	388.911	393.658	144.231	363.545	0.00131	0.00018517	5.9876e-05	1368.5	5.9628e-06	1.1045e-06	1373.9	375.37	5.491e-06	5.2957e-06	426.74	143.26	126.27	42.378	8.7828e-06	52.598	0.00026179	0.00025021	6.8831e-05	1372.4	2.7229e-06	2.7275e-06	1372.7	374.82	2.6848e-06	2.6998e-06	414.1	141.98	121.22	42.249	2.7227e-06	52.095	317.145	231.401	178.650	109.525	239.648	277.150	109.227	114.356	242.136	155.352	113.852	118.177	118.690	123.094	245.101	121.991	-8191	255	
2488.295	1	1	0	0	0.20048	0.11842	0.09605	0.53316	0.1808	0.1907	0.17206	0.29376	0.21017	0.084665	0.14495	0.21186	0.12217	0.052524	0.066809	0.15838	-2.5125	-2.8417	-2.975	-3.4375	-2.6708	-3.0917	-3.3896	-3.1083	-3.1292	-2.9896	-3.0875	-3.2208	-2.9021	-3.1333	-3.0812	-2.7896	445.223	329.928	249.205	445.135	435.009	345.287	377.814	415.346	197.597	106.274	394.863	416.609	212.154	307.443	188.030	372.968	0.0012244	0.00028701	0.00011748	1371.3	4.5178e-06	3.8508e-06	1373.9	378.36	4.2661e-06	2.3956e-06	426.29	143.16	125.91	42.434	7.5563e-06	52.203	0.00026112	0.0002473	6.8406e-05	1374	2.6962e-06	2.6782e-06	1373.6	375.68	2.7194e-06	2.6973e-06	414.57	142.02	121.08	42.231	2.6936e-06	51.991	322.828	241.472	164.093	109.560	256.609	192.252	109.259	114.418	245.376	271.538	113.654	118.200	118.837	123.166	247.214	122.217	-8191	255	
2488.391	1	1	0	0	0.14685	0.21603	0.26805	0.17849	0.062651	0.16019	0.1589	0.13591	0.079265	0.047559	0.048647	0.080898	0.18331	0.12235	0.38315	0.17942	-2.8104	-3.175	-2.9229	-3.4229	-2.9083	-2.9417	-3.4354	-3.0187	-3.0458	-3.0979	-3	-3.3021	-2.9396	-3.1625	-3.2167	-2.8917	406.168	117.116	199.198	131.326	452.294	263.400	443.217	315.895	131.769	273.057	116.182	191.955	260.660	100.017	326.237	380.431	0.0010925	0.00046632	0.00022838	1376.9	8.0236e-06	2.4471e-06	1374.4	378.41	6.7117e-06	2.9547e-06	424.4	143.12	125.63	42.331	4.3691e-06	52.546	0.00025736	0.00024414	6.7574e-05	1373.5	2.659e-06	2.6786e-06	1371.9	375.55	2.6713e-06	2.6636e-06	413.36	141.96	120.99	42.24	2.6752e-06	52.063	319.660	306.070	218.343	109.524	206.566	303.235	109.198	114.230	209.022	218.220	113.361	118.095	119.051	122.991	224.330	122.056	-8191	255	
2488.487	1	1	0	0	0.2623	0.31284	0.069363	0.13964	0.13628	0.10444	0.32905	0.17734	0.39578	0.19903	0.19901	0.13554	0.16646	0.071124	0.12006	0.32043	-2.7167	-3.0229	-2.8229	-3.3563	-2.9604	-3.0229	-3.375	-3.0354	-3.0958	-2.9917	-2.8229	-3.1521	-2.9292	-3.125	-3.1458	-2.9417	264.638	407.379	107.651	353.942	114.894	311.130	292.332	361.632	454.522	196.306	350.789	422.616	222.369	152.803	244.420	398.173	0.0011204	0.000389	6.338e-05	1371	4.5909e-06	8.4013e-06	1371.4	378.36	7.1701e-06	2.3588e-06	426.65	142.83	125.43	42.274	7.4566e-06	52.52	0.00025743	0.0002452	6.7837e-05	1371.7	2.6756e-06	2.6488e-06	1370.8	375.55	2.664e-06	2.6384e-06	414.03	141.79	120.92	42.181	2.6581e-06	52.027	323.769	190.231	255.835	109.572	235.909	227.619	109.213	114.254	248.588	227.969	113.679	117.999	118.913	123.165	180.176	122.148	-8191	255	
2488.583	1	1	0	0	0.14218	0.025287	0.14315	0.12514	0.10975	0.096855	0.19762	0.21137	0.17838	0.077136	0.19677	0.19567	0.07683	0.20792	0.19637	0.10235	-2.5479	-3.0917	-2.8937	-3.525	-2.9583	-2.9417	-3.4625	-2.8917	-3.1292	-3.3583	-2.8229	-3.3458	-3.0417	-2.9688	-3.1146	-2.925	392.183	364.805	159.710	440.030	402.658	244.279	393.227	363.785	372.697	201.818	162.523	147.543	374.253	422.150	296.282	278.164	0.0012235	0.00019827	5.0966e-05	1372.7	9.8286e-06	8.6317e-06	1371.7	376.02	5.7422e-06	2.4046e-06	425.72	143.19	125.92	42.203	3.1832e-06	52.215	0.00025468	0.00024105	6.7426e-05	1373.1	2.6336e-06	2.6276e-06	1371	374.37	2.6315e-06	2.617e-06	413.59	141.75	120.81	42.183	2.6158e-06	52.001	322.998	142.595	182.359	109.579	225.799	193.358	109.352	114.484	213.585	186.689	113.843	118.208	118.723	123.031	306.834	122.102	-8191	255	
2488.679	1	1	0	0	0.064557	0.068162	0.089616	0.13276	0.28415	0.036445	0.43905	0.23442	0.10861	0.12679	0.097685	0.095297	0.34324	0.08384	0.32284	0.31312	-2.5292	-3.1396	-2.9333	-3.4208	-3.1292	-2.9292	-3.3896	-2.9062	-3.0875	-3.2708	-2.9313	-3.2833	-3.025	-2.9396	-3.2521	-2.9667	263.585	147.623	331.325	302.382	223.638	122.569	362.108	107.810	206.894	143.296	400.833	414.776	382.259	180.659	132.625	394.500	0.0013168	0.00029428	0.00020199	1369.1	6.9639e-06	3.9182e-06	1374.5	377.07	1.3335e-05	3.7036e-06	429.07	143.41	126.05	42.194	1.1145e-05	52.329	0.00025236	0.00023724	6.6025e-05	1371.8	2.6366e-06	2.6114e-06	1371.8	374.84	2.6137e-06	2.6254e-06	414.13	141.65	121.01	42.127	2.6285e-06	51.974	317.995	224.477	202.424	109.507	209.899	269.825	109.228	114.263	206.644	314.487	113.560	118.288	118.851	123.126	270.744	121.844	-8191	255	
2488.775	1	1	0	0	0.032341	0.13602	0.13544	0.26579	0.27995	0.29342	0.39746	0.092017	0.16955	0.12413	0.15717	0.21084	0.32412	0.19613	0.22718	0.23525	-2.6083	-3.2208	-2.9292	-3.3771	-2.8875	-2.7771	-3.4437	-3.2083	-2.9521	-3.2854	-2.7521	-3.0458	-3.15	-2.8833	-3.1771	-3.0854	99.267	227.822	330.345	444.793	330.630	291.784	389.440	149.375	220.665	356.776	263.968	156.314	426.441	169.487	182.865	361.013	0.0012786	0.00012945	0.00013729	1370.3	4.9397e-06	9.088e-06	1373.7	377.4	7.7566e-06	4.6551e-06	425.25	142.97	125.21	42.573	6.0559e-06	52.42	0.00025019	0.00023668	6.6308e-05	1371.5	2.5852e-06	2.5738e-06	1370.6	375.2	2.5942e-06	2.5396e-06	413.18	141.65	120.45	42.258	2.5899e-06	51.98	317.917	304.021	217.562	109.440	207.207	246.379	109.259	114.256	229.929	246.318	113.785	118.064	118.893	123.056	230.869	122.067	-8191	255	
2488.896	1	1	0	0	0.047534	0.15206	0.064025	0.050821	0.21229	0.089703	0.087324	0.38289	0.17774	0.18178	0.13382	0.30355	0.19646	0.17903	0.086853	0.1235	-2.5563	-3.1063	-2.8667	-3.1188	-3.1833	-2.8292	-3.4313	-3.1521	-3	-3.0687	-3.0354	-3.1937	-3.1729	-2.875	-3.2167	-3.0458	383.551	415.960	355.300	377.034	148.050	333.946	327.350	420.843	320.803	219.321	397.918	334.088	351.818	204.774	340.461	395.420	0.0011788	0.00025807	0.00011532	1368.7	8.5716e-06	7.3487e-06	1373.7	378.19	5.8272e-06	1.8752e-06	426.33	142.79	125.31	42.073	6.737e-06	52.503	0.00024898	0.00023457	6.5706e-05	1369.6	2.5755e-06	2.5629e-06	1371.8	374.86	2.5829e-06	2.5478e-06	413.19	141.57	120.69	42.122	2.5542e-06	51.955	320.273	203.340	197.064	109.515	236.170	278.328	109.319	114.265	204.193	174.436	113.273	118.239	118.675	123.324	288.101	121.886	-8191	255	
2488.992	1	1	0	0	0.20959	0.23269	0.10111	0.3062	0.11248	0.33527	0.071075	0.31463	0.17909	0.051731	0.084108	0.36774	0.13692	0.17117	0.25121	0.41262	-2.4708	-3.125	-2.8917	-3.2188	-3.1521	-2.8667	-3.3375	-3.2458	-3.0417	-3.2458	-2.9792	-3.1771	-3.2687	-2.9938	-2.9437	-3.1312	244.292	374.947	429.294	396.251	318.737	425.099	361.006	396.017	276.861	324.103	303.879	381.270	398.212	188.303	383.742	108.554	0.0012271	0.00065905	3.4741e-05	1370.1	6.5598e-06	2.0575e-06	1375.3	377.32	8.6789e-07	1.1626e-06	426.17	143.21	125.74	42.254	5.3078e-06	52.576	0.00024329	0.0002301	6.4216e-05	1369.8	2.5164e-06	2.4995e-06	1371.1	375.12	2.4978e-06	2.4771e-06	412.41	141.45	120.53	42.095	2.5064e-06	51.905	317.813	197.516	193.938	109.375	189.979	246.189	109.153	114.427	175.032	327.428	113.371	118.311	118.894	123.170	293.262	121.917	-8191	255	
2489.087	1	1	0	0	0.088686	0.053933	0.09145	0.27206	0.22504	0.3492	0.29394	0.34352	0.1821	0.021208	0.08252	0.15197	0.088721	0.17561	0.15532	0.09728	-2.3625	-3.3167	-2.9979	-3.2583	-3.1417	-2.6667	-3.3187	-3.1104	-2.9375	-3.3104	-3.0542	-2.9104	-3.2167	-2.9958	-2.9958	-3.2271	409.273	104.943	348.578	391.049	283.527	125.767	407.084	359.743	107.592	134.973	418.340	334.323	121.916	424.058	294.741	441.029	0.0012112	0.00027765	7.2669e-05	1376.1	9.8273e-06	6.4038e-06	1375.9	377.76	1.1296e-05	5.0027e-06	426.06	142.43	125.79	42.302	5.8526e-06	52.505	0.00023844	0.0002264	6.2675e-05	1371	2.4877e-06	2.4663e-06	1370.2	374.75	2.48e-06	2.4583e-06	412.65	141.42	120.65	42.083	2.4953e-06	51.96	312.832	151.564	185.216	109.575	250.035	247.750	109.272	114.322	206.417	214.848	113.730	118.161	118.717	123.076	262.864	121.782	-8191	255	
2489.184	1	1	0	0	0.13593	0.17899	0.2001	0.23297	0.20954	0.0018488	0.22555	0.25668	0.031795	0.14148	0.087492	0.078609	0.2343	0.14009	0.54017	0.1478	-2.3375	-2.8042	-3.0812	-2.9583	-3.3729	-3.05	-3.325	-3.3833	-2.8812	-3.2021	-3.325	-2.9208	-3.2896	-3.0271	-3.0521	-3.2583	279.100	226.297	455.188	438.733	353.963	180.000	407.992	377.044	216.441	421.632	96.953	390.783	423.172	359.561	222.785	179.394	0.0012248	0.00031327	6.5705e-05	1374.1	1.1094e-05	2.1374e-06	1373.7	376.33	4.5039e-06	3.4537e-06	424.47	143.39	125.62	42.215	8.7535e-06	52.409	0.00023866	0.00022721	6.2157e-05	1370.1	2.4723e-06	2.4574e-06	1371	374.2	2.4731e-06	2.4703e-06	411.93	141.67	120.49	42.085	2.4472e-06	51.895	316.013	176.115	173.715	109.444	245.273	448.271	109.391	114.300	231.131	215.801	113.701	118.108	118.856	123.167	277.126	122.024	-8191	255	
2489.279	1	1	0	0	0.2023	0.058978	0.32073	0.23613	0.043929	0.16176	0.36845	0.1598	0.1084	0.098446	0.092395	0.20843	0.25069	0.10167	0.26689	0.24006	-2.5833	-3.0812	-3.1042	-3.0417	-3.1771	-2.85	-3.1396	-3.3688	-3.0208	-3.1562	-3.2854	-2.9542	-3.3042	-3.2208	-2.8917	-3.2604	266.876	237.915	194.078	409.350	390.592	402.695	400.893	353.453	320.591	390.646	316.977	201.727	425.184	127.715	440.782	329.482	0.0011789	0.00030968	0.0001441	1372	4.3601e-06	7.1206e-06	1373.1	378.04	7.2711e-06	1.7697e-06	427.63	143.48	125.59	42.119	6.0829e-06	52.254	0.00023463	0.00021783	6.1347e-05	1370	2.4236e-06	2.4082e-06	1368.5	374.33	2.4175e-06	2.3702e-06	412.04	141.53	120.28	42.074	2.4282e-06	51.865	319.609	172.876	190.246	109.667	260.600	262.464	109.217	114.234	236.060	240.546	113.646	117.841	119.091	123.222	249.619	122.224	-8191	255	
2489.375	1	1	0	0	0.16148	0.20759	0.2067	0.3403	0.24618	0.15132	0.2617	0.097668	0.23443	0.25936	0.28722	0.28755	0.15117	0.11373	0.11978	0.12226	-2.5812	-3.2271	-3.1792	-3.2083	-3.2604	-3.1458	-3.075	-3.4354	-2.7104	-3.2104	-3.2583	-3.0854	-3.2979	-3.2021	-2.95	-3.3229	395.003	238.939	201.898	100.721	253.021	279.851	402.774	197.141	127.446	248.664	148.429	384.213	442.736	144.196	317.545	408.822	0.0011549	0.00013662	6.9357e-05	1369.9	1.2057e-05	5.9813e-06	1374.6	378.23	3.2381e-06	3.7925e-07	425.44	143.03	125.27	42.381	2.803e-06	52.512	0.00023576	0.00021991	6.1354e-05	1370.6	2.4708e-06	2.446e-06	1369.6	374.91	2.4789e-06	2.4664e-06	413.06	141.64	120.61	42.16	2.4678e-06	51.9	318.921	218.246	179.101	109.649	234.799	272.898	109.171	114.244	219.807	313.443	113.681	118.031	118.597	123.105	263.759	122.005	-8191	255	
2489.471	1	1	0	0	0.17383	0.2037	0.10103	0.3018	0.079513	0.22534	0.18307	0.13751	0.072342	0.34691	0.13635	0.15435	0.20043	0.22589	0.13168	0.090414	-2.6042	-2.8583	-3.0896	-2.8042	-3.025	-2.8458	-3.0479	-3.1312	-2.9021	-3.0167	-3.2917	-3.1437	-3.1188	-3.1729	-3.0479	-3.1479	189.922	408.395	171.175	392.772	400.343	441.703	305.777	368.841	140.809	189.882	442.326	138.477	107.942	430.922	158.519	157.028	0.0012195	0.00017444	0.00012732	1375.3	1.6158e-06	4.0773e-06	1373.3	378.32	5.5009e-06	1.1165e-06	425.81	142.96	125.18	42.235	5.0391e-06	52.393	0.0002389	0.00022508	6.1837e-05	1371.8	2.4703e-06	2.4444e-06	1370.3	374.93	2.4367e-06	2.4474e-06	411.77	141.33	120.34	42.062	2.4489e-06	51.903	317.263	283.526	200.093	109.541	276.351	228.683	109.387	114.434	241.251	306.610	113.905	118.114	118.913	123.322	231.991	121.876	-8191	255	
2489.592	1	1	0	0	0.26244	0.17745	0.28139	0.42013	0.20611	0.085022	0.24942	0.21291	0.24537	0.15914	0.23855	0.2322	0.1191	0.22034	0.071926	0.16623	-2.625	-2.9021	-3.1646	-2.9604	-3.2458	-3.1437	-3.1354	-3.3312	-2.9479	-3.0312	-3.3708	-2.9938	-3.1792	-3.2333	-2.9417	-3.225	343.808	337.846	176.208	400.073	301.443	425.794	361.453	451.105	288.390	365.225	100.772	433.531	125.378	395.289	377.591	386.160	0.0012151	0.00019694	0.00019594	1371.6	8.6313e-06	5.5202e-06	1376.3	377.63	6.6465e-06	1.7494e-06	424.12	142.82	126.28	42.349	2.4367e-06	52.381	0.00023464	0.00022084	6.0856e-05	1370.5	2.44e-06	2.3833e-06	1370.8	374.85	2.4466e-06	2.3988e-06	411.87	141.47	120.59	42.074	2.421e-06	51.84	315.405	138.249	172.886	109.461	215.225	261.148	109.121	114.203	231.775	237.397	113.620	117.966	119.105	122.977	215.746	122.049	-8191	255	
2489.688	1	1	0	0	0.28626	0.064255	0.11777	0.30276	0.051273	0.23779	0.26573	0.15586	0.29248	0.27883	0.11274	0.12453	0.038408	0.13288	0.23046	0.15951	-2.7167	-2.8896	-3.2208	-3.2313	-2.9938	-3.2521	-3.1271	-3.4542	-3.2375	-3.0104	-3.4437	-3.2	-3.2021	-3.3104	-3.0125	-3.3083	345.684	394.203	99.887	428.091	354.273	290.204	369.097	373.128	378.941	357.973	379.205	425.317	384.342	451.348	157.399	348.462	0.0011806	0.00042149	0.00012464	1368.1	7.422e-06	6.5633e-06	1373.8	377.48	1.0519e-05	1.5018e-06	427.31	143.48	125.49	42.134	7.0116e-06	52.448	0.00023516	0.00021913	6.1355e-05	1368.8	2.418e-06	2.4101e-06	1368.8	374.46	2.4262e-06	2.4081e-06	412.42	141.67	120.44	42.006	2.3894e-06	51.756	313.287	239.910	215.829	109.434	288.995	196.093	109.286	114.204	210.246	195.649	113.683	118.215	119.053	122.960	174.058	122.013	-8191	255	
2489.784	1	1	0	0	0.038355	0.11316	0.10521	0.26863	0.16607	0.05926	0.24653	0.12381	0.35255	0.36304	0.27238	0.13586	0.10281	0.14028	0.075258	0.1929	-2.7979	-2.8604	-3.1083	-3.2458	-3.0438	-3.3833	-3.0625	-3.0542	-3.0687	-3.0771	-3.3979	-3.1229	-3.0208	-3.1729	-2.7438	-3.2479	194.628	342.238	410.169	376.802	306.358	166.183	405.310	328.689	324.895	318.909	444.644	146.984	110.043	413.417	258.558	419.210	0.0012447	0.00044093	3.7811e-05	1373	4.3885e-06	7.7344e-07	1371.6	377.2	4.6006e-06	4.779e-06	425.64	142.9	126.09	42.282	3.1681e-06	52.353	0.00023132	0.00021578	5.9699e-05	1370	2.362e-06	2.3596e-06	1367.4	373.93	2.3539e-06	2.316e-06	411.69	141.15	120.26	41.984	2.3301e-06	51.744	315.887	182.730	144.494	109.627	242.255	268.892	109.410	114.338	227.154	235.553	113.649	118.177	118.735	123.149	222.267	121.822	-8191	255	
2489.856	1	1	0	0	0.12929	0.22738	0.13245	0.17818	0.12171	0.016387	0.13259	0.31237	0.11481	0.22066	0.06474	0.1103	0.062299	0.080612	0.050831	0.21766	-2.8146	-3.0104	-3.2542	-3.3125	-2.9333	-3.2979	-3.1583	-3.0958	-3.3083	-3.0625	-3.3187	-3.0979	-3.05	-3.2917	-2.9875	-3.2917	428.318	403.130	405.021	450.800	304.295	207.090	422.457	403.286	177.107	452.021	427.063	241.644	146.906	136.129	156.646	444.999	0.0011954	8.1074e-05	0.00016122	1369.8	4.3412e-06	5.0811e-06	1368.9	375.81	3.4937e-06	4.5001e-06	425.24	143.06	125.98	42.242	7.7535e-06	52.513	0.00022349	0.00020945	5.865e-05	1366.8	2.3108e-06	2.2985e-06	1366.5	373.78	2.3024e-06	2.2577e-06	411.09	141.16	120.08	41.957	2.2616e-06	51.811	315.636	124.555	258.473	109.438	238.829	191.940	109.227	114.447	220.458	245.598	113.574	118.058	119.088	123.091	225.839	122.158	-8191	255	
2489.976	1	1	0	0	0.27214	0.092965	0.14751	0.23945	0.086481	0.18876	0.42796	0.12474	0.17132	0.3239	0.026307	0.113	0.27695	0.26332	0.045073	0.19108	-3.0062	-2.8563	-3.2333	-3.2188	-2.8708	-3.175	-3.1958	-3.1479	-3.275	-2.8708	-3.4375	-3.1625	-2.9021	-3.2396	-3.0146	-3.1396	414.823	348.165	384.165	133.456	230.414	219.071	445.453	392.898	416.141	147.643	141.208	374.165	155.680	392.566	176.127	385.878	0.0012562	0.00067183	0.00011999	1367.4	5.3945e-06	3.221e-06	1375.2	377.18	2.5e-06	2.1945e-06	427.41	142.64	125.86	42.386	3.9569e-06	52.246	0.00022024	0.00020561	5.8168e-05	1367.2	2.2923e-06	2.2686e-06	1368	373.9	2.2621e-06	2.2602e-06	411.26	141.24	120.03	41.986	2.2601e-06	51.711	318.352	200.165	276.081	109.488	229.969	250.985	109.277	114.441	210.241	229.011	113.575	117.991	118.730	123.266	240.810	121.922	-8191	255	
2490.071	1	1	0	0	0.19229	0.28871	0.12991	0.21612	0.17951	0.17601	0.39668	0.23335	0.17732	0.15309	0.079734	0.38612	0.089835	0.20435	0.17818	0.37828	-2.8375	-2.8854	-3.0792	-3.4583	-3.0812	-3.2333	-3.2333	-3.2271	-3.4	-3.1562	-3.2	-3.2229	-3.0771	-3.4375	-2.9938	-2.925	247.028	427.210	450.929	376.372	114.524	380.420	384.951	342.956	142.257	268.962	310.211	428.662	410.918	107.401	183.700	436.640	0.0013258	0.00028159	0.00013618	1368	4.7155e-06	2.3308e-06	1374.5	377.4	5.618e-06	3.2138e-06	425.01	143.3	125.7	42.372	3.118e-06	52.516	0.00021694	0.00020587	5.6512e-05	1367.4	2.239e-06	2.2349e-06	1366.2	373.74	2.2739e-06	2.2319e-06	410.96	141.25	120.08	42.041	2.2516e-06	51.783	318.073	261.116	222.295	109.491	227.799	239.036	109.248	114.182	211.713	276.393	113.598	118.103	118.840	123.017	236.453	122.161	-8191	255	
2490.167	1	1	0	0	0.14325	0.24244	0.04129	0.13997	0.28294	0.095053	0.33783	0.25771	0.10643	0.28961	0.23467	0.12987	0.22859	0.21053	0.11946	0.056621	-2.9562	-3.1	-3.0625	-3.4375	-2.8875	-3.0083	-3.3896	-3.1042	-3.2854	-2.9667	-3.2125	-3.4479	-3.025	-3.2562	-3.0708	-2.9104	219.049	420.425	134.022	99.848	393.163	219.163	401.841	425.246	424.995	438.626	454.499	110.187	412.964	347.681	111.253	182.312	0.0012063	0.00025499	0.00012192	1367.7	3.6196e-06	6.0292e-06	1371.4	375.71	3.1269e-06	1.5715e-06	425.79	142.24	125.36	42.173	3.9488e-06	52.367	0.00022046	0.00020643	5.6938e-05	1367.3	2.2393e-06	2.2413e-06	1367.5	373.73	2.2266e-06	2.2096e-06	410.38	140.93	120.05	41.935	2.252e-06	51.765	319.090	184.421	194.133	109.453	219.342	160.061	109.243	114.270	227.360	231.924	113.484	118.140	119.017	123.264	243.757	122.076	-8191	255	
2490.265	1	1	0	0	0.15281	0.048194	0.074885	0.12817	0.09229	0.12564	0.21852	0.31428	0.14439	0.071262	0.16522	0.23695	0.080878	0.14693	0.1509	0.19099	-2.9333	-2.9375	-3.025	-3.5187	-2.9458	-3.0771	-3.4	-2.9458	-3.3833	-2.9125	-2.9979	-3.4917	-2.8646	-3.1688	-3.2521	-3.0917	377.696	417.784	371.215	400.384	213.866	356.880	397.127	409.358	189.039	131.710	341.728	119.284	149.577	451.144	109.211	395.102	0.0012302	0.00014071	8.5136e-05	1365.7	6.2743e-06	6.3165e-06	1371.3	376.86	5.9312e-07	3.5314e-06	427.52	143.21	125.04	42.163	2.5382e-06	52.561	0.00021674	0.00020111	5.6353e-05	1365.2	2.2339e-06	2.1923e-06	1366.2	373.83	2.2574e-06	2.2241e-06	411.03	141.08	119.72	41.918	2.2286e-06	51.725	319.929	221.153	247.833	109.562	246.786	244.400	109.426	114.304	238.717	167.739	113.660	118.187	118.831	122.986	203.488	121.717	-8191	255	
2490.384	1	1	0	0	0.33595	0.059988	0.072183	0.28051	0.05784	0.060546	0.21554	0.28008	0.088313	0.20168	0.13573	0.024857	0.080913	0.026414	0.22011	0.31534	-2.6792	-2.9813	-3.0062	-3.7062	-2.8458	-3.1813	-3.3187	-3.125	-3.2479	-3.1083	-2.975	-3.3646	-3.0792	-3.1667	-3.2062	-3.1437	417.346	248.839	227.993	100.931	356.111	169.307	376.301	363.832	178.012	248.633	137.783	387.643	432.156	395.250	190.437	382.995	0.0012051	0.00028733	0.00010334	1374.8	2.8795e-06	4.8809e-06	1380.4	378.02	2.0344e-06	5.2931e-06	426.03	143.2	125.73	42.236	6.3324e-06	52.365	0.00021808	0.00020499	5.6825e-05	1370.5	2.2541e-06	2.2179e-06	1370	374.05	2.2461e-06	2.2128e-06	410.49	141.02	119.98	41.997	2.2399e-06	51.656	312.710	254.334	150.132	109.426	289.981	229.141	109.212	114.294	265.051	218.922	113.446	117.989	118.707	123.128	253.663	122.007	-8191	255	
2490.480	1	1	0	0	0.035314	0.040437	0.15717	0.19926	0.10636	0.14113	0.28537	0.19491	0.10762	0.024341	0.13606	0.17048	0.070855	0.16485	0.16898	0.1354	-2.7625	-3.0396	-2.9854	-3.6104	-3.0625	-3.1125	-3.4292	-3.1542	-3.2208	-3.3167	-3.1021	-3.3438	-3.175	-3.1375	-3.3563	-3.0208	302.799	253.784	107.962	110.471	154.776	363.889	357.975	358.764	215.812	347.097	375.946	353.797	280.086	389.562	337.543	364.510	0.0011969	0.00022784	1.1217e-05	1371	6.9227e-06	1.204e-06	1372.4	376.77	5.3362e-06	3.5495e-06	427.63	143.38	125.47	42.211	5.5805e-06	52.157	0.00021616	0.0002013	5.6299e-05	1369.8	2.2268e-06	2.1956e-06	1368.4	373.69	2.202e-06	2.1959e-06	411.05	141.2	120.21	41.965	2.2078e-06	51.659	321.633	136.384	168.378	109.630	259.737	337.172	109.372	114.482	206.812	242.013	113.473	118.188	118.934	123.347	267.835	122.023	-8191	255	
2490.576	1	1	0	0	0.22191	0.21977	0.051212	0.032985	0.077807	0.096409	0.26787	0.33356	0.11892	0.19742	0.10002	0.093701	0.1558	0.26946	0.10355	0.25539	-2.825	-3.0229	-2.9562	-3.4042	-3.0458	-3.05	-3.3875	-3.0458	-3.2417	-3.1771	-2.9729	-3.3417	-3.0042	-2.9938	-3.3146	-3.0958	425.823	146.913	349.207	313.354	382.017	207.927	97.121	342.405	348.004	122.304	104.126	116.915	378.443	435.294	154.926	151.881	0.0010694	0.00013612	7.0087e-05	1371.4	8.374e-06	3.7328e-06	1370.4	377.1	5.7285e-06	3.9171e-06	425.8	143.38	125.42	42.201	2.2021e-06	52.602	0.00021608	0.00020054	5.5477e-05	1367.9	2.2036e-06	2.2071e-06	1366.8	373.75	2.212e-06	2.2024e-06	411.27	141.38	120.11	41.918	2.1901e-06	51.796	320.108	132.606	185.819	109.583	217.778	262.618	109.211	114.315	272.328	272.414	113.626	118.102	119.003	123.202	184.909	121.961	-8191	255	
2490.672	1	1	0	0	0.09935	0.076413	0.088404	0.2859	0.10188	0.27879	0.30997	0.40097	0.16372	0.098337	0.19292	0.31526	0.21575	0.29083	0.20628	0.051309	-2.7125	-2.9458	-2.9167	-3.3688	-3.2646	-3.1646	-3.5312	-3.1417	-3.075	-3.2313	-3.0125	-3.3896	-3.0646	-2.9604	-3.2292	-3.1979	353.275	278.426	176.165	451.414	201.638	247.733	388.430	449.125	98.765	209.002	356.164	96.591	418.476	437.518	397.415	322.646	0.0011927	0.00040262	0.00015716	1376.4	3.2053e-06	3.3154e-06	1374.4	375.82	5.7688e-06	4.1522e-06	425.81	142.75	125.8	42.404	3.6849e-06	52.265	0.00021473	0.00020006	5.5528e-05	1369.3	2.2087e-06	2.2013e-06	1368.3	373.43	2.2051e-06	2.1784e-06	410.86	141.08	119.7	42.009	2.206e-06	51.704	315.758	231.184	162.814	109.429	271.328	331.214	109.341	114.245	253.995	242.865	113.745	118.091	118.812	123.182	292.872	122.052	-8191	255	
2490.768	1	1	0	0	0.093254	0.13433	0.20481	0.1458	0.19248	0.18297	0.11234	0.20292	0.14124	0.056761	0.32152	0.18296	0.26306	0.18272	0.26417	0.37527	-2.7521	-3.3167	-2.8854	-3.4292	-3.275	-2.9521	-3.5229	-3.0583	-2.8667	-3.3667	-3.0438	-3.3021	-3.1	-2.9333	-3.1813	-2.9562	321.775	408.084	255.043	430.629	326.049	271.845	369.960	341.547	154.500	373.920	335.705	361.034	119.146	450.286	99.087	393.608	0.0011922	0.00020444	6.3378e-05	1370.8	9.6713e-06	2.9068e-06	1367.9	377.06	6.7516e-06	1.7362e-06	425.81	143	125.13	42.368	5.5242e-06	52.539	0.00021524	0.00020074	5.5659e-05	1366.6	2.1985e-06	2.178e-06	1365.3	373.32	2.225e-06	2.1834e-06	410.51	141.06	120.01	41.971	2.207e-06	51.726	319.905	169.012	343.127	109.636	236.641	217.316	109.221	114.266	244.709	128.269	113.793	118.143	118.857	123.037	245.780	121.972	-8191	255	
2490.864	1	1	0	0	0.093816	0.24882	0.061973	0.077728	0.29968	0.31554	0.42528	0.16734	0.21456	0.1923	0.09714	0.17735	0.16987	0.19976	0.16742	0.18847	-2.5125	-3.2333	-2.7938	-3.2646	-3.1729	-2.9271	-3.2417	-3.1188	-2.9521	-3.3438	-3.0708	-3.3167	-3.0333	-2.9979	-3.1667	-3.1646	111.741	160.468	151.717	385.277	385.622	193.139	356.345	419.094	378.257	96.500	442.705	426.477	428.300	442.574	442.406	360.435	0.0013248	0.0004274	0.0001499	1369.6	5.5034e-06	6.4595e-06	1373.5	376.85	4.5516e-06	1.7465e-06	428.31	143.07	124.99	42.322	6.2146e-06	52.54	0.00021584	0.0002004	5.5166e-05	1367.7	2.1842e-06	2.1707e-06	1367.4	373.33	2.1935e-06	2.1569e-06	411.22	141.09	119.65	41.994	2.1941e-06	51.791	312.460	215.131	172.157	109.494	218.437	263.217	109.383	114.392	244.918	204.058	113.631	118.037	118.840	123.322	234.094	121.853	-8191	255	
2490.985	1	1	0	0	0.09491	0.060617	0.07748	0.31065	0.24801	0.17089	0.20145	0.15456	0.16949	0.037037	0.12544	0.035766	0.18568	0.38312	0.14486	0.32371	-2.4729	-3.2687	-2.9625	-3.1354	-3.2458	-3.0271	-3.4479	-3.1437	-2.7979	-3.1437	-2.9875	-2.9938	-3.3063	-3.0021	-3.35	-3.2854	424.498	341.242	171.340	368.351	428.573	154.988	140.747	346.786	351.782	220.489	297.291	191.346	386.855	455.702	119.956	405.424	0.0011992	0.00032644	0.00015808	1376.7	6.4246e-06	4.8155e-06	1372.9	376.31	7.917e-06	2.7761e-06	425.5	142.96	126.09	42.285	1.7828e-06	52.415	0.00021506	0.00020272	5.5501e-05	1369.3	2.2433e-06	2.1965e-06	1366.1	373.06	2.214e-06	2.1938e-06	410.24	141.12	120.1	41.942	2.2194e-06	51.756	316.347	243.188	179.236	109.481	267.246	261.009	109.205	114.330	229.057	273.936	113.540	118.301	119.029	122.849	288.965	121.927	-8191	255	
2491.080	1	1	0	0	0.073976	0.11561	0.24098	0.33792	0.18626	0.12799	0.19904	0.11268	0.022026	0.032119	0.19745	0.078569	0.063535	0.19452	0.089801	0.12666	-2.5167	-3.1729	-2.8771	-3.125	-3.3125	-3.0208	-3.3292	-3.2042	-2.8771	-3.1833	-3.0292	-3.1063	-3.4521	-3.0333	-2.9	-3.2604	287.827	189.215	455.925	348.587	403.287	200.029	448.347	310.324	305.685	130.455	108.173	246.460	302.647	448.598	318.363	398.243	0.0012762	0.00025263	0.00014581	1368.1	9.1731e-06	8.1691e-06	1369.4	376.74	6.025e-06	3.7959e-06	426.57	143.29	125.2	42.278	2.9504e-06	52.429	0.00021638	0.00020095	5.5128e-05	1365.8	2.1959e-06	2.1713e-06	1364.3	373.01	2.2264e-06	2.1824e-06	410.59	141.22	119.67	41.976	2.1984e-06	51.701	325.492	235.494	213.753	109.492	238.470	255.595	109.176	114.236	188.578	258.234	113.087	118.074	118.681	123.179	316.213	121.859	-8191	255	
2491.153	1	1	0	0	0.29274	0.15967	0.45918	0.11252	0.1291	0.10465	0.16721	0.27766	0.20055	0.27896	0.13447	0.19175	0.31842	0.19732	0.19903	0.11438	-2.4208	-3.3104	-3.0208	-3.2458	-3.3167	-3.0542	-3.1333	-3.2271	-3.0521	-3.2771	-3.0958	-2.9083	-3.2792	-3.1125	-3.025	-3.3312	169.937	310.288	150.039	145.441	231.525	285.733	340.271	346.372	436.784	393.720	126.002	378.208	360.770	135.643	362.850	374.636	0.001215	0.00045689	0.00010847	1371.2	7.4369e-06	6.177e-06	1373.7	375.24	4.1775e-06	3.0543e-06	424.86	143.01	125.57	42.211	6.1905e-06	52.541	0.00021824	0.00020593	5.6848e-05	1367.7	2.2245e-06	2.2343e-06	1366.4	373.31	2.2532e-06	2.2331e-06	410.84	141.3	119.93	41.995	2.2444e-06	51.699	314.750	223.892	268.487	109.521	262.916	244.776	109.363	114.417	237.382	235.300	113.685	118.003	118.885	123.115	243.792	121.954	-8191	255	
2491.247	1	1	0	0	0.27609	0.067948	0.13449	0.15892	0.055706	0.13726	0.17965	0.23741	0.21954	0.17018	0.11453	0.19437	0.060631	0.13333	0.1247	0.026407	-2.2896	-3.0167	-3.0604	-2.9625	-3.3292	-3.0521	-3.2	-3.3229	-2.9813	-3.2104	-3.2	-3.05	-3.3	-3.1125	-3.0896	-3.4062	245.130	108.354	337.432	389.921	424.059	121.789	441.547	150.154	180.129	375.137	240.186	296.792	413.119	236.893	150.759	417.195	0.0012935	0.00033731	0.00011309	1372.9	5.3321e-06	4.217e-06	1371.5	376.4	7.6881e-06	3.3002e-06	423.85	143.23	125.25	42.312	8.1009e-06	52.567	0.00021949	0.00020251	5.6274e-05	1366.5	2.2396e-06	2.2078e-06	1366	373.28	2.2332e-06	2.1885e-06	410.52	141.17	119.76	41.952	2.2389e-06	51.756	317.338	199.527	202.158	109.582	248.552	228.807	109.408	114.378	213.130	242.170	113.544	118.069	118.861	123.343	228.958	122.015	-8191	255	
2491.368	1	1	0	0	0.069393	0.15619	0.18829	0.44515	0.30204	0.15419	0.28967	0.33929	0.22022	0.1457	0.18671	0.049389	0.33834	0.093328	0.17432	0.29625	-2.5812	-3.1813	-3.0229	-2.9875	-3.2792	-3.15	-3.4125	-3.3625	-2.9042	-3.0208	-3.1188	-3.0792	-3.3187	-3.1396	-3.0125	-3.1229	312.022	338.855	198.456	408.032	421.361	110.466	441.177	408.912	354.953	209.183	415.225	126.846	433.180	117.678	303.232	360.314	0.0012604	0.00034184	0.00018474	1371.8	3.9875e-06	7.0475e-06	1373.6	376.99	8.2493e-06	4.4772e-06	423.9	143.27	125.61	42.364	6.2804e-06	52.568	0.00022005	0.00020437	5.6752e-05	1365.8	2.2715e-06	2.2198e-06	1366	373.78	2.2744e-06	2.2593e-06	411.02	141.22	120.02	42.045	2.3049e-06	51.802	323.324	183.383	197.412	109.462	245.670	263.618	109.361	114.308	218.001	204.450	113.638	117.971	118.733	123.217	248.246	121.860	-8191	255	
2491.464	1	1	0	0	0.19435	0.19515	0.2311	0.19122	0.30258	0.071117	0.078095	0.10884	0.1325	0.055067	0.18177	0.061717	0.085176	0.11453	0.20061	0.12158	-2.4813	-2.9479	-3.2583	-3.0542	-3.2333	-3.2	-3.2229	-3.225	-3.0833	-3.0146	-3.2313	-2.8937	-3.2667	-3.3042	-2.9188	-3.3312	375.124	110.157	298.348	372.476	113.289	420.672	316.536	333.463	205.515	293.765	395.727	289.143	378.450	174.766	183.733	143.535	0.0011378	0.00021329	7.0004e-05	1365.8	5.2797e-06	5.435e-06	1367.2	376.62	4.3565e-06	3.4954e-06	426.14	142.57	125.99	42.182	8.2749e-06	52.508	0.00022235	0.00020915	5.7861e-05	1366.6	2.2615e-06	2.2767e-06	1366	373.44	2.258e-06	2.2671e-06	411.64	141	120.09	41.999	2.289e-06	51.787	321.588	320.282	140.829	109.576	225.533	211.851	109.326	114.180	261.062	228.503	113.711	118.149	118.907	122.866	222.810	121.901	-8191	255	
2491.560	1	1	0	0	0.27616	0.2099	0.15579	0.15395	0.30933	0.23079	0.24929	0.30778	0.038661	0.16088	0.053941	0.29681	0.19883	0.086894	0.11452	0.14826	-2.6083	-3.0167	-3.1604	-3.1646	-3.2687	-3.2354	-3.1604	-3.35	-2.8833	-2.9604	-3.3854	-3.2062	-3.1875	-3.2896	-3.0438	-3.425	388.148	421.096	211.782	386.242	213.219	414.660	405.118	419.593	260.767	286.296	425.193	383.899	455.538	434.119	301.367	153.262	0.0011491	0.00023241	0.00012221	1373.3	9.0853e-06	3.7102e-06	1374.9	376.58	5.8711e-06	3.3857e-06	424.9	142.59	125.19	42.158	2.8615e-06	52.569	0.00021945	0.00020838	5.8057e-05	1368.7	2.3221e-06	2.298e-06	1368.4	373.68	2.3316e-06	2.3262e-06	411.56	141.11	120.12	42.036	2.3301e-06	51.907	317.262	202.896	216.352	109.688	200.465	233.522	109.255	114.250	253.906	262.203	113.477	118.015	119.069	123.104	281.803	122.119	-8191	255	
2491.656	1	1	0	0	0.029646	0.16495	0.084699	0.29519	0.09728	0.066131	0.31764	0.091036	0.15649	0.31905	0.27465	0.26427	0.20111	0.1467	0.10141	0.10948	-2.6958	-2.9417	-3.2833	-3.3479	-3.0396	-3.1854	-3.2792	-3.3979	-3.225	-2.8146	-3.4437	-2.9188	-3.1688	-3.3438	-2.8833	-3.3833	259.305	443.945	306.774	396.222	193.865	112.993	386.087	237.407	123.726	257.377	377.813	437.649	423.057	424.060	372.096	416.118	0.0013257	0.00017228	0.00017633	1371.9	5.5134e-06	6.0004e-06	1374.1	377.02	8.6194e-06	3.0906e-06	427.35	143.02	125.64	42.325	7.0006e-06	52.261	0.00022598	0.00021246	5.8595e-05	1368	2.3249e-06	2.3002e-06	1367.2	373.87	2.3303e-06	2.3359e-06	411.71	141.34	120.07	42.06	2.3787e-06	51.778	315.536	200.083	238.471	109.522	258.765	277.802	109.442	114.476	282.680	195.884	113.628	118.145	118.577	123.155	228.203	122.026	-8191	255	
2491.753	1	1	0	0	0.030932	0.24183	0.14021	0.071929	0.13681	0.13691	0.44124	0.21643	0.12084	0.21076	0.27289	0.081149	0.17175	0.10218	0.20085	0.14491	-2.5312	-3.1063	-3.2125	-3.1854	-3.125	-3.1833	-3.1583	-3.1667	-2.9479	-2.8187	-3.1771	-3.0812	-3.0646	-3.1875	-2.8625	-3.3167	217.668	267.783	253.157	441.740	349.791	249.649	381.225	424.228	362.502	150.443	299.289	320.168	136.390	441.595	269.976	398.502	0.0011565	0.00041493	0.00010219	1372.8	5.4507e-06	5.45e-06	1374.1	375.43	7.2723e-06	6.5646e-06	425.71	142.46	125.27	42.223	8.6016e-06	52.532	0.00022862	0.00021483	6.0904e-05	1369.4	2.3902e-06	2.379e-06	1369.8	373.3	2.4063e-06	2.3787e-06	412.25	141.34	120.22	42.103	2.3862e-06	51.909	316.438	181.300	206.627	109.543	214.458	205.710	109.292	114.322	244.893	272.556	113.663	118.021	118.830	122.882	247.173	122.284	-8191	255	
2491.849	1	1	0	0	0.25024	0.11642	0.36363	0.13534	0.17601	0.16579	0.18044	0.20252	0.17836	0.30719	0.20736	0.40693	0.19537	0.16242	0.28253	0.14351	-2.8083	-2.8896	-3.2313	-3.2292	-2.975	-3.1417	-3.0687	-3.2375	-3.0479	-3.0521	-3.2771	-2.9708	-3.05	-3.2479	-2.8479	-3.1688	290.604	301.705	233.436	429.024	234.644	337.389	439.662	128.288	412.108	409.934	405.562	394.028	442.134	443.164	160.949	375.858	0.0012071	0.00059922	9.8753e-05	1367.6	4.5412e-06	4.6663e-06	1371.5	377.28	5.3511e-06	5.45e-06	424.83	142.84	125.46	42.275	1.3494e-06	52.552	0.00023168	0.00021964	5.9934e-05	1367.9	2.371e-06	2.3524e-06	1366.6	373.97	2.335e-06	2.3192e-06	410.84	141.26	120.32	42.11	2.3567e-06	51.927	321.736	196.399	131.356	109.640	276.704	248.953	109.324	114.507	220.457	198.099	113.555	118.006	118.717	123.108	216.359	122.010	-8191	255	
2491.945	1	1	0	0	0.083358	0.049475	0.24	0.076486	0.1199	0.2577	0.29674	0.10053	0.13626	0.11593	0.41053	0.030589	0.028756	0.062399	0.11986	0.13927	-2.6583	-2.8271	-3.2	-3.225	-2.95	-3.4833	-3.2208	-3.1813	-3.1625	-2.9313	-3.1896	-3.1854	-3.1021	-3.2708	-2.925	-3.1833	268.714	98.705	413.614	444.016	173.612	343.866	405.612	347.198	443.235	233.383	451.559	272.974	102.959	408.774	407.956	308.078	0.0011741	0.00036595	0.00020827	1371.3	3.7571e-06	1.3998e-06	1371.4	376.84	5.2079e-06	2.8428e-06	426.29	143.19	125.84	42.467	4.5829e-06	52.448	0.00022918	0.00021436	5.9966e-05	1369.2	2.358e-06	2.3301e-06	1367.2	373.96	2.3371e-06	2.3426e-06	411.59	141.4	120.23	42.133	2.3473e-06	51.885	320.425	171.484	221.799	109.465	242.245	194.229	109.319	114.567	198.380	283.082	113.287	118.077	118.619	123.124	248.712	121.878	-8191	255	
2492.065	1	1	0	0	0.084673	0.17097	0.05212	0.11789	0.061463	0.12926	0.20563	0.2619	0.12237	0.17835	0.20472	0.2198	0.046455	0.0090738	0.10032	0.20662	-2.8521	-2.7438	-3.2042	-3.2458	-2.8167	-3.3042	-3.0208	-3.0938	-3.1958	-3.0396	-3.2417	-3.2687	-2.9292	-3.275	-3.1146	-3.1167	414.499	269.903	98.294	158.820	150.291	355.553	427.848	390.366	109.941	195.917	416.713	380.324	168.158	271.709	312.237	423.891	0.0012318	0.00032227	0.00014705	1366	9.0647e-06	4.8864e-06	1372.2	376.75	7.5962e-06	3.7629e-06	425.07	142.97	125.75	42.314	1.0181e-05	52.458	0.00022527	0.00021196	5.8694e-05	1367.4	2.3424e-06	2.3171e-06	1367.8	374.14	2.3351e-06	2.338e-06	411.12	141.31	120.36	42.089	2.3078e-06	51.885	315.066	202.380	221.587	109.495	201.788	164.356	109.266	114.468	240.153	218.520	113.426	118.043	118.856	123.002	222.134	122.017	-8191	255	
2492.160	1	1	0	0	0.095344	0.1498	0.13516	0.26511	0.14183	0.26026	0.13702	0.36373	0.16777	0.21103	0.17146	0.17833	0.23122	0.11172	0.27759	0.16563	-2.9521	-2.95	-3.1396	-3.2104	-3.0792	-3.2521	-3.2229	-3.1437	-3.1417	-2.8875	-3.0542	-3.2938	-2.9062	-3.1208	-3.1271	-3.0646	389.796	211.388	113.898	406.836	255.649	446.467	365.214	430.720	422.753	401.879	414.190	381.735	173.973	104.447	299.684	215.520	0.0012411	0.00045335	1.5215e-05	1366.7	8.7306e-06	5.4202e-06	1369.5	376.72	5.8864e-06	4.3722e-06	424.19	143.31	125.63	42.373	1.0557e-05	52.646	0.00022363	0.00020948	5.8545e-05	1364.4	2.3271e-06	2.3336e-06	1364.1	372.99	2.3641e-06	2.3416e-06	411.14	141.43	120.33	42.202	2.3544e-06	51.927	320.223	175.578	142.276	109.603	243.814	179.460	108.994	114.301	233.434	221.599	113.376	118.127	118.716	123.039	246.986	122.221	-8191	255	
2492.256	1	1	0	0	0.075843	0.19679	0.19833	0.30893	0.21691	0.057435	0.28787	0.32426	0.24188	0.2086	0.31208	0.03554	0.20822	0.32281	0.071851	0.42097	-2.6667	-2.9562	-3.1937	-3.325	-2.8021	-3.1792	-3.1937	-3.125	-3.1875	-2.925	-3.1667	-3.2708	-2.9938	-3.1979	-3.1771	-3.1292	424.317	397.360	393.792	436.855	240.209	189.237	349.192	423.669	391.675	444.887	403.901	191.478	139.613	99.467	312.116	408.460	0.0011834	0.00024096	0.00018958	1367.1	1.6688e-06	1.903e-06	1371.6	376.96	4.1558e-06	6.793e-06	425.92	143.37	125.47	42.579	3.0515e-06	52.587	0.00022906	0.00021555	6.0366e-05	1365	2.417e-06	2.4041e-06	1366.5	373.85	2.397e-06	2.3665e-06	411.66	141.44	120.36	42.243	2.361e-06	51.973	316.451	104.866	190.675	109.375	262.963	238.050	109.312	114.418	244.373	220.161	113.940	117.882	118.738	123.317	344.917	122.083	-8191	255	
2492.377	1	1	0	0	0.063528	0.053087	0.1823	0.20808	0.067104	0.25582	0.15377	0.29628	0.15148	0.081256	0.11881	0.19853	0.077124	0.13992	0.14385	0.11155	-2.6875	-2.8354	-3.0458	-3.5458	-2.8458	-3.0354	-3.3479	-3.0708	-3.1854	-3.0333	-2.9708	-3.3688	-2.9667	-3.1188	-3.1458	-3.0833	290.259	130.936	165.246	433.427	285.187	221.934	250.906	405.662	104.082	186.102	199.709	392.489	393.593	362.809	356.255	436.018	0.0012001	0.00052389	7.6252e-05	1365.9	5.9987e-06	4.3607e-06	1367.3	375.93	4.7224e-06	1.8372e-06	425.28	142.79	126.02	42.349	4.2564e-06	52.642	0.00022716	0.0002158	5.9795e-05	1364.1	2.3857e-06	2.3451e-06	1363.9	373.26	2.3852e-06	2.3571e-06	411.19	141.53	120.66	42.121	2.3604e-06	51.987	314.900	162.046	285.733	109.430	260.925	314.376	109.237	114.307	241.892	304.370	113.635	117.865	119.205	122.952	236.065	121.821	-8191	255	
2492.448	1	1	0	0	0.078741	0.26452	0.14545	0.31882	0.25819	0.29638	0.38766	0.11955	0.072147	0.15276	0.23063	0.14481	0.20111	0.21945	0.084544	0.099943	-2.75	-2.9771	-2.7708	-3.4771	-2.8667	-3.2521	-3.4354	-2.8771	-3.1188	-3.0083	-2.8854	-3.25	-3.0187	-3.0625	-3.1417	-2.9771	207.420	210.957	360.828	400.882	203.397	297.174	401.553	99.680	418.072	159.574	453.126	397.422	98.840	334.624	191.211	355.019	0.00124	0.00026459	0.00012453	1368	9.4794e-06	6.8195e-06	1372.8	375.94	5.4651e-06	6.4091e-06	425.74	142.78	125.3	42.456	1.0663e-05	52.655	0.0002338	0.00021728	6.0827e-05	1366.2	2.4297e-06	2.4163e-06	1367	373.34	2.4645e-06	2.4214e-06	411.39	141.52	120.57	42.188	2.4695e-06	52.044	313.232	229.632	261.427	109.351	202.155	253.613	109.234	114.241	264.956	176.658	113.604	118.030	118.639	123.070	197.021	121.947	-8191	255	
2492.544	1	1	0	0	0.079714	0.12864	0.12672	0.3044	0.061978	0.23705	0.32674	0.1382	0.17601	0.15787	0.2023	0.053597	0.28416	0.10263	0.16068	0.12239	-2.7313	-2.8312	-2.8563	-3.2792	-2.8688	-2.9417	-3.4188	-2.9562	-3.1792	-3.2667	-2.9417	-3.3625	-3.0479	-2.8563	-3.3187	-3.0042	130.584	410.423	358.843	392.944	219.337	206.804	399.631	181.486	222.389	424.239	105.937	96.464	155.296	154.554	442.539	437.274	0.0011749	0.00050046	0.00020834	1362.9	6.4264e-06	1.5144e-06	1364.8	377.23	5.7843e-06	1.9966e-06	425.69	142.94	125.51	42.472	3.8426e-06	52.7	0.00023755	0.00022447	6.2774e-05	1364.1	2.5045e-06	2.489e-06	1363.5	373.88	2.5271e-06	2.5138e-06	413.1	141.73	120.62	42.189	2.55e-06	52.188	316.117	203.734	221.573	109.258	213.517	307.608	109.398	114.058	207.714	168.671	113.624	118.017	118.766	123.035	263.131	121.970	-8191	255	
2492.665	1	1	0	0	0.10953	0.12558	0.13534	0.28084	0.23603	0.22854	0.33896	0.27726	0.33152	0.27955	0.20814	0.099981	0.21489	0.38147	0.10233	0.25983	-2.5687	-3.1042	-2.9375	-3.3375	-3.1542	-2.9083	-3.4271	-3.1458	-3.0187	-3.0229	-3.0854	-3.2146	-3.0854	-2.9833	-3.1271	-3.0333	394.607	405.812	419.332	433.819	424.416	347.294	409.041	366.555	332.313	342.864	133.259	439.508	274.358	354.201	403.348	406.860	0.0011752	0.00015188	0.00013008	1365	3.8826e-06	1.6091e-06	1365.7	376.46	8.5884e-06	4.9454e-06	426.81	143.02	125.44	42.411	2.7943e-06	52.369	0.00024335	0.0002308	6.426e-05	1365.4	2.5438e-06	2.5071e-06	1363.8	373.53	2.5065e-06	2.5259e-06	411.99	141.65	120.7	42.204	2.5181e-06	51.967	317.354	229.702	219.107	109.544	270.000	252.040	109.352	114.176	228.914	218.988	113.593	117.965	118.803	123.044	220.110	122.059	-8191	255	
2492.761	1	1	0	0	0.22668	0.19696	0.30455	0.27046	0.18452	0.22821	0.25724	0.1461	0.039332	0.21221	0.26814	0.35452	0.28412	0.22754	0.081611	0.091428	-2.6708	-3.1417	-2.9729	-3.3792	-3.1396	-2.8958	-3.3375	-3.1896	-3.0812	-3.2146	-2.9479	-3.4125	-3.4271	-3.1917	-3.2833	-3.1104	286.635	117.755	339.514	450.926	185.447	288.638	381.407	341.679	260.903	293.914	431.327	419.947	426.982	435.588	145.259	390.942	0.0011961	0.00047384	2.7564e-05	1367.8	4.0132e-06	3.1488e-06	1367.5	375.88	4.652e-06	4.5169e-06	428.47	142.72	125.55	42.365	1.1532e-05	52.426	0.00024544	0.00022805	6.4354e-05	1364.9	2.5414e-06	2.5241e-06	1365	373.39	2.5665e-06	2.5353e-06	414.03	141.53	120.79	42.228	2.5925e-06	51.997	319.892	246.764	256.190	109.365	221.066	207.134	109.506	114.284	180.285	253.145	113.320	118.170	118.900	123.233	235.123	121.882	-8191	255	
2492.857	1	1	0	0	0.17054	0.17919	0.086951	0.24046	0.25505	0.31654	0.048037	0.023739	0.14509	0.075012	0.23529	0.035064	0.39491	0.17966	0.20199	0.12129	-2.5104	-3.0958	-2.8979	-3.3208	-3.2229	-2.8792	-3.5417	-3.0896	-2.775	-3.3979	-2.9708	-3.1875	-3.1125	-2.9125	-3.0542	-3.1854	353.002	218.677	139.789	353.863	372.427	398.254	334.771	164.311	410.769	213.429	209.287	124.829	453.522	119.158	332.091	362.851	0.0011066	0.00054451	0.00010543	1366.5	6.927e-06	4.1612e-06	1373.2	376.5	2.9947e-06	5.2344e-06	426.04	143.52	126.09	42.379	1.078e-05	52.592	0.00024999	0.00023505	6.6112e-05	1366.2	2.6094e-06	2.6146e-06	1367.4	374.47	2.6252e-06	2.6018e-06	413.87	142	121.05	42.223	2.636e-06	52.106	317.194	181.893	213.849	109.448	283.702	305.057	109.313	114.248	215.303	112.060	113.662	118.184	118.798	123.165	241.506	121.973	-8191	255	
2492.954	1	1	0	0	0.2161	0.047314	0.1576	0.24702	0.052178	0.33676	0.30332	0.093554	0.13655	0.17955	0.37732	0.20819	0.1881	0.23433	0.28367	0.016063	-2.5625	-3.1625	-2.9979	-3.3229	-3.1375	-2.8063	-3.3125	-3.0333	-3.1125	-3.1292	-3.0667	-3.0375	-3.3167	-2.975	-3.0521	-3.2396	129.055	439.529	110.013	409.972	238.940	431.003	377.812	410.360	168.694	131.476	339.186	380.116	438.636	101.260	249.140	378.465	0.0011231	0.00027333	7.8068e-05	1362	5.2315e-06	5.9894e-06	1368.6	376.5	7.6257e-06	1.2684e-06	426.43	143.14	126.15	42.315	2.9147e-06	52.295	0.00025395	0.00023844	6.6801e-05	1365.8	2.6132e-06	2.583e-06	1365	374.28	2.6212e-06	2.6245e-06	413.29	141.55	121.13	42.19	2.6461e-06	52.089	323.417	155.372	228.872	109.566	228.877	224.986	109.325	114.221	212.997	107.070	113.600	117.999	118.739	123.012	131.055	121.907	-8191	255	
#DATA ENDS
