BOXY.EXE: ISS Imagent and Oximeter Data Acquisition Program Version 0.80
Ascii Record File

#ACQ INFORMATION
2  Detector Channels 
16  External MUX Channels 
1  Auxiliary Channels 
5000  Waveform (CCF) Frequency (Hz)
1  Waveforms Skipped 
30  Waveforms Averaged 
1  Cycles Averaged 
16  Acquisitions per Waveform 
10.0806  Updata Rate (Hz) 

#FILE INFORMATION
TRUE -- External MUX Channel results are PARSED.
FALSE -- AC DC and Phase are NOT grouped.
TRUE -- Companion Program Settings File CREATED.
FALSE -- AC data not excluded
FALSE -- DC data not excluded
FALSE -- Phase data not excluded
FALSE -- Auxillary Chn. data not excluded
Tab delimiters

#CALIBRATION STATE
TRUE -- Waveform Calibration Values APPLIED.


#AUX CALIBRATION VALUES
Val Type	aux-1	

Term	1.0000e+00	
Factor	0.0000e+00	


#WF CALIBRATION VALUES
A = Detector Channel
Val Type	A-AC1	A-AC2	A-AC3	A-AC4	A-AC5	A-AC6	A-AC7	A-AC8	A-AC9	A-AC10	A-AC11	A-AC12	A-AC13	A-AC14	A-AC15	A-AC16	A-DC1	A-DC2	A-DC3	A-DC4	A-DC5	A-DC6	A-DC7	A-DC8	A-DC9	A-DC10	A-DC11	A-DC12	A-DC13	A-DC14	A-DC15	A-DC16	A-Ph1	A-Ph2	A-Ph3	A-Ph4	A-Ph5	A-Ph6	A-Ph7	A-Ph8	A-Ph9	A-Ph10	A-Ph11	A-Ph12	A-Ph13	A-Ph14	A-Ph15	A-Ph16	

Term	0.00000e+00	0.00000e+00	0.00000e+00	0.00000e+00	0.00000e+00	0.00000e+00	0.00000e+00	0.00000e+00	0.00000e+00	0.00000e+00	0.00000e+00	0.00000e+00	0.00000e+00	0.00000e+00	0.00000e+00	0.00000e+00	0.00000e+00	0.00000e+00	0.00000e+00	0.00000e+00	0.00000e+00	0.00000e+00	0.00000e+00	0.00000e+00	0.00000e+00	0.00000e+00	0.00000e+00	0.00000e+00	0.00000e+00	0.00000e+00	0.00000e+00	0.00000e+00	0.00000e+00	0.00000e+00	0.00000e+00	0.00000e+00	0.00000e+00	0.00000e+00	0.00000e+00	0.00000e+00	0.00000e+00	0.00000e+00	0.00000e+00	0.00000e+00	0.00000e+00	0.00000e+00	0.00000e+00	0.00000e+00	
Factor	1.00000e+00	1.00000e+00	1.00000e+00	1.00000e+00	1.00000e+00	1.00000e+00	1.00000e+00	1.00000e+00	1.00000e+00	1.00000e+00	1.00000e+00	1.00000e+00	1.00000e+00	1.00000e+00	1.00000e+00	1.00000e+00	1.00000e+00	1.00000e+00	1.00000e+00	1.00000e+00	1.00000e+00	1.00000e+00	1.00000e+00	1.00000e+00	1.00000e+00	1.00000e+00	1.00000e+00	1.00000e+00	1.00000e+00	1.00000e+00	1.00000e+00	1.00000e+00	X	X	X	X	X	X	X	X	X	X	X	X	X	X	X	X	

B = Detector Channel
Val Type	B-AC1	B-AC2	B-AC3	B-AC4	B-AC5	B-AC6	B-AC7	B-AC8	B-AC9	B-AC10	B-AC11	B-AC12	B-AC13	B-AC14	B-AC15	B-AC16	B-DC1	B-DC2	B-DC3	B-DC4	B-DC5	B-DC6	B-DC7	B-DC8	B-DC9	B-DC10	B-DC11	B-DC12	B-DC13	B-DC14	B-DC15	B-DC16	B-Ph1	B-Ph2	B-Ph3	B-Ph4	B-Ph5	B-Ph6	B-Ph7	B-Ph8	B-Ph9	B-Ph10	B-Ph11	B-Ph12	B-Ph13	B-Ph14	B-Ph15	B-Ph16	

Term	0.00000e+00	0.00000e+00	0.00000e+00	0.00000e+00	0.00000e+00	0.00000e+00	0.00000e+00	0.00000e+00	0.00000e+00	0.00000e+00	0.00000e+00	0.00000e+00	0.00000e+00	0.00000e+00	0.00000e+00	0.00000e+00	0.00000e+00	0.00000e+00	0.00000e+00	0.00000e+00	0.00000e+00	0.00000e+00	0.00000e+00	0.00000e+00	0.00000e+00	0.00000e+00	0.00000e+00	0.00000e+00	0.00000e+00	0.00000e+00	0.00000e+00	0.00000e+00	1.37173e+01	-1.18228e+02	-1.12758e+02	-1.83080e+02	-7.15389e+01	-7.78103e+01	-1.57142e+02	-1.62015e+02	-8.64581e+01	-8.33328e+01	-1.74681e+02	-1.70893e+02	-1.86226e+02	-1.78823e+02	-6.33234e+01	-1.50760e+02	
Factor	3.86630e-05	1.07672e-04	3.58680e-05	1.52370e-01	1.43992e-06	1.45988e-06	1.51923e-01	5.45124e-02	1.38203e-06	1.18428e-06	1.31598e-01	2.66902e-02	3.84029e-02	8.59656e-03	1.43767e-06	1.22989e-02	8.31094e-07	8.48967e-07	2.35916e-07	7.55567e-02	9.27535e-09	9.30345e-09	7.09969e-02	2.68103e-02	9.28531e-09	9.29857e-09	5.97757e-02	1.26460e-02	1.79984e-02	4.20033e-03	9.30521e-09	5.78123e-03	X	X	X	X	X	X	X	X	X	X	X	X	X	X	X	X	



#DISTANCE SETTINGS
A = Detector Channel
A-1	A-2	A-3	A-4	A-5	A-6	A-7	A-8	A-9	A-10	A-11	A-12	A-13	A-14	A-15	A-16	

2.5000e+00	3.0000e+00	2.5000e+00	3.0000e+00	2.0000e+00	3.0000e+00	1.5000e+00	3.0000e+00	3.0000e+00	3.0000e+00	3.0000e+00	3.0000e+00	3.0000e+00	3.0000e+00	1.5000e+00	3.0000e+00	

B = Detector Channel
B-1	B-2	B-3	B-4	B-5	B-6	B-7	B-8	B-9	B-10	B-11	B-12	B-13	B-14	B-15	B-16	

1.0000e+01	1.0000e+01	1.0000e+01	1.4400e+00	1.0000e+01	1.0000e+01	1.5100e+00	1.9400e+00	1.0000e+01	1.0000e+01	1.9900e+00	2.4900e+00	2.4100e+00	2.9000e+00	1.0000e+01	2.9800e+00	




#DATA BEGINS
time	group	step	mark	flag	A-AC1	A-AC2	A-AC3	A-AC4	A-AC5	A-AC6	A-AC7	A-AC8	A-AC9	A-AC10	A-AC11	A-AC12	A-AC13	A-AC14	A-AC15	A-AC16	A-DC1	A-DC2	A-DC3	A-DC4	A-DC5	A-DC6	A-DC7	A-DC8	A-DC9	A-DC10	A-DC11	A-DC12	A-DC13	A-DC14	A-DC15	A-DC16	A-Ph1	A-Ph2	A-Ph3	A-Ph4	A-Ph5	A-Ph6	A-Ph7	A-Ph8	A-Ph9	A-Ph10	A-Ph11	A-Ph12	A-Ph13	A-Ph14	A-Ph15	A-Ph16	B-AC1	B-AC2	B-AC3	B-AC4	B-AC5	B-AC6	B-AC7	B-AC8	B-AC9	B-AC10	B-AC11	B-AC12	B-AC13	B-AC14	B-AC15	B-AC16	B-DC1	B-DC2	B-DC3	B-DC4	B-DC5	B-DC6	B-DC7	B-DC8	B-DC9	B-DC10	B-DC11	B-DC12	B-DC13	B-DC14	B-DC15	B-DC16	B-Ph1	B-Ph2	B-Ph3	B-Ph4	B-Ph5	B-Ph6	B-Ph7	B-Ph8	B-Ph9	B-Ph10	B-Ph11	B-Ph12	B-Ph13	B-Ph14	B-Ph15	B-Ph16	aux-1	digaux	

2775.999	1	1	0	256	0.34427	0.0786	0.15486	0.244	0.19708	0.17855	0.050154	0.17124	0.16162	0.21207	0.098655	0.12477	0.16626	0.22021	0.090156	0.17118	-2.6708	-2.6188	-2.8042	-3.0604	-2.5771	-2.8771	-2.9125	-2.5021	-3.1604	-2.8604	-2.7417	-2.85	-2.6771	-2.9042	-2.9104	-2.6875	302.835	294.990	59.435	286.532	340.470	274.927	-8.100	333.162	-9.804	270.768	292.111	99.443	97.871	137.695	272.972	279.029	0.00011356	4.7862e-05	5.9685e-06	216.12	5.8881e-06	4.8507e-07	318.36	59.448	1.3156e-06	1.3554e-05	112.45	35.265	15.367	4.3899	6.8685e-06	12.363	5.0153e-05	4.8021e-05	1.324e-05	229.3	6.37e-07	5.3578e-07	333.33	62.041	5.4149e-07	1.4674e-06	111.65	36.508	16.085	4.7043	1.0423e-06	12.785	284.043	63.878	295.403	-6.847	233.635	70.439	-6.487	-0.820	101.527	43.553	-1.676	2.942	4.303	8.905	172.381	7.369	-8191	255	
2776.095	1	1	0	0	0.09873	0.10127	0.2953	0.13574	0.19524	0.16169	0.18142	0.044331	0.12325	0.094661	0.063398	0.11829	0.18894	0.27837	0.20123	0.28275	-2.5375	-2.8146	-2.5479	-2.9458	-2.6833	-2.7979	-3.0687	-2.6979	-3.0417	-2.8396	-2.8042	-2.8417	-2.8583	-2.7562	-2.9542	-2.5687	108.213	199.829	112.235	282.347	216.170	53.054	295.130	81.516	179.730	137.831	249.953	228.756	122.858	106.749	0.660	334.546	0.00013861	7.9948e-05	2.5042e-05	216.95	1.1633e-05	1.7985e-06	319.26	59.331	9.9716e-07	7.6723e-06	111.11	35.334	15.483	4.4199	1.4899e-05	12.326	5.0266e-05	4.774e-05	1.3067e-05	227.66	1.3162e-06	5.2437e-07	334.33	62.21	5.4248e-07	1.0247e-06	111.81	36.567	16.118	4.7001	1.4635e-06	12.753	285.225	105.936	233.253	-6.614	239.808	126.525	-6.306	-0.851	285.185	52.913	-1.602	3.147	4.042	8.410	175.579	7.868	-8191	255	
2776.191	1	1	0	0	0.2114	0.22043	0.10994	0.15383	0.27431	0.15864	0.18728	0.12695	0.22473	0.081406	0.2338	0.082642	0.17668	0.31049	0.047276	0.17336	-2.4729	-2.7125	-2.6458	-3.125	-2.7021	-2.7146	-3.1479	-2.7167	-3.1208	-2.9271	-2.5042	-3.1104	-2.7354	-2.725	-3.1	-2.7604	250.796	1.556	196.189	326.086	9.509	301.190	272.994	118.581	311.058	241.009	45.364	86.588	181.882	127.764	73.325	252.537	8.9404e-05	0.00015224	1.2211e-05	217.75	6.589e-06	8.5861e-07	320.3	59.499	8.2034e-07	9.9579e-06	110.83	35.371	15.513	4.3912	4.3429e-06	12.421	5.0648e-05	4.7846e-05	1.3003e-05	227.35	1.0514e-06	5.1615e-07	334.2	62.134	5.2487e-07	1.5231e-06	111.77	36.572	16.077	4.7032	8.6792e-07	12.914	299.460	70.036	123.538	-6.801	315.579	34.306	-6.392	-0.759	98.468	37.286	-1.703	3.301	4.201	8.599	102.534	7.807	-8191	255	
2776.287	1	1	0	0	0.14457	0.24948	0.12965	0.23756	0.034823	0.053059	0.2818	0.27107	0.098987	0.12442	0.095171	0.3098	0.16902	0.27551	0.10076	0.063168	-2.5542	-2.7313	-2.6292	-2.8604	-2.6146	-2.7146	-3.1	-2.6333	-2.9208	-2.9083	-2.65	-2.9625	-2.7292	-2.7125	-3.1188	-2.7438	183.432	212.727	215.260	18.313	235.542	-6.005	289.706	334.112	53.946	50.907	-8.979	65.768	-2.954	16.411	93.652	129.996	0.0001439	6.5551e-05	3.2753e-05	217.36	1.3482e-05	1.6981e-06	319.91	58.909	7.3175e-07	6.6423e-06	111.76	35.256	15.53	4.4095	1.3217e-06	12.548	4.8752e-05	4.6683e-05	1.2778e-05	227.3	1.5222e-06	4.9147e-07	334.19	62.143	5.0758e-07	1.0807e-06	111.9	36.6	16.136	4.7138	5.018e-07	13.396	288.942	74.430	150.019	-6.639	313.019	127.045	-6.287	-0.979	119.157	44.111	-1.850	3.266	4.440	8.107	159.197	8.081	-8191	255	
2776.383	1	1	0	0	0.24935	0.15659	0.10103	0.093484	0.25867	0.10264	0.13407	0.23622	0.27282	0.080196	0.020284	0.18824	0.13959	0.10342	0.19225	0.10092	-2.4062	-2.9062	-2.7167	-2.7833	-2.9313	-2.6875	-2.9542	-2.6875	-2.8187	-2.9437	-2.6583	-2.8063	-2.7917	-2.55	-3.0146	-2.8063	288.078	316.685	206.014	201.982	338.209	229.336	329.529	239.970	74.453	117.028	267.631	196.630	233.526	41.892	264.193	75.365	0.00014269	0.00011342	1.42e-05	217.51	7.1315e-06	2.8248e-06	320.61	59.881	1.2122e-06	1.1185e-05	111.34	35.36	15.589	4.4131	7.263e-07	12.364	4.7187e-05	4.5105e-05	1.2665e-05	227.64	1.0401e-06	4.8455e-07	334.87	62.266	4.8769e-07	1.428e-06	111.74	36.554	16.119	4.6985	4.9128e-07	13.061	298.834	122.265	72.210	-6.440	297.798	182.616	-6.363	-1.276	-4.820	48.334	-1.776	3.158	4.375	8.464	295.610	7.535	-8191	255	
2776.504	1	1	0	0	0.41219	0.10875	0.28895	0.31981	0.40441	0.053521	0.1848	0.21376	0.093592	0.053801	0.20818	0.0047586	0.086327	0.10073	0.10867	0.17346	-2.2167	-2.8125	-2.5062	-2.9833	-2.8083	-2.8438	-3.0417	-2.6458	-2.7	-2.9188	-2.625	-2.9125	-2.925	-2.6208	-2.9646	-2.825	242.419	142.519	146.972	296.751	89.937	287.423	200.716	113.663	286.975	-8.379	241.628	331.701	47.460	169.675	108.196	80.882	6.4265e-05	9.1033e-05	8.4281e-06	217.7	1.359e-05	6.2597e-07	324.08	60.114	1.4499e-06	4.8914e-06	112.74	35.68	15.462	4.5088	1.7531e-06	12.507	4.5603e-05	4.3349e-05	1.1768e-05	227.83	1.3259e-06	4.5897e-07	336.52	62.605	4.4935e-07	6.9916e-07	113.23	36.878	16.125	4.7177	4.5132e-07	13.349	289.803	125.592	14.951	-6.560	304.207	306.590	-6.402	-0.946	164.491	35.520	-1.837	3.181	4.281	8.387	138.952	7.701	-8191	255	
2776.600	1	1	0	0	0.095725	0.25748	0.041303	0.10985	0.19552	0.092612	0.11005	0.24906	0.11383	0.26416	0.096275	0.20973	0.22392	0.27475	0.092489	0.18266	-2.2146	-3.0396	-2.6458	-2.7292	-2.9271	-2.7042	-2.9625	-2.9292	-2.5187	-3.0479	-2.6458	-2.8667	-2.9958	-2.5104	-3.0125	-2.9604	135.047	213.673	-9.694	298.131	147.717	177.298	-5.621	307.145	8.330	251.523	304.401	334.727	-12.860	1.750	-0.747	76.303	0.00014081	6.4282e-05	5.9904e-05	218.98	7.3572e-06	1.2335e-06	324.41	60.016	1.578e-06	9.7202e-07	113.2	35.792	15.738	4.4116	2.662e-06	12.409	4.1735e-05	4.0147e-05	1.0867e-05	228.72	8.5965e-07	4.2478e-07	336.85	62.556	4.273e-07	4.3147e-07	117.25	36.753	16.063	4.68	4.3165e-07	13.026	289.028	58.371	26.836	-6.570	327.552	158.294	-6.386	-1.015	44.849	232.101	-1.370	3.116	3.993	8.459	123.747	7.839	-8191	255	
2776.696	1	1	0	0	0.23237	0.10628	0.14731	0.17348	0.08924	0.065361	0.2406	0.14856	0.22251	0.21106	0.098794	0.098958	0.17716	0.23139	0.051515	0.06892	-2.4167	-3.1083	-2.8625	-2.8167	-2.925	-2.6021	-3.0083	-2.9021	-2.6458	-2.9021	-2.8208	-2.8083	-2.8917	-2.6063	-2.9	-3.0979	232.114	318.085	182.906	331.053	15.534	266.163	239.971	261.119	293.768	203.287	212.180	65.953	285.906	330.173	340.308	89.061	0.00010752	0.00013124	8.463e-06	219.84	9.8318e-06	1.3422e-07	323.93	60.107	2.37e-06	7.8736e-07	113.24	35.7	15.742	4.4725	2.767e-06	12.464	3.9912e-05	3.8386e-05	1.0688e-05	228.75	1.1611e-06	4.0625e-07	336.72	62.819	4.144e-07	4.1985e-07	114.82	36.873	16.123	4.7141	4.13e-07	13.268	287.629	122.104	46.281	-6.444	324.482	100.926	-6.252	-0.744	86.420	47.766	-2.146	3.203	4.034	8.449	137.360	7.720	-8191	255	
2776.793	1	1	0	0	0.035099	0.062929	0.10263	0.12147	0.14493	0.15225	0.128	0.084353	0.11505	0.21541	0.16335	0.20102	0.13008	0.083316	0.19379	0.10193	-2.1917	-2.9188	-2.6604	-2.6688	-3.0146	-2.7438	-2.7604	-2.8521	-2.5292	-3.0208	-2.6146	-2.7521	-3.0146	-2.8542	-3.0417	-3.0542	180.013	78.021	210.547	81.016	175.131	19.542	255.851	210.559	180.129	227.084	-12.262	-18.712	331.746	152.725	307.101	240.702	0.00014782	0.00013548	1.1182e-05	219.82	4.3891e-06	1.1373e-06	323.32	61.16	1.303e-06	1.099e-06	114.14	35.932	15.879	4.5061	1.5689e-06	12.524	3.9072e-05	3.8637e-05	1.0514e-05	229.71	6.138e-07	5.3198e-07	337.19	63.329	4.1097e-07	4.1915e-07	117.4	37.009	16.196	4.7305	4.1218e-07	13.107	304.016	14.881	286.519	-6.582	21.633	283.208	-6.278	-1.200	123.391	-0.605	-1.746	3.086	3.624	8.852	195.393	7.690	-8191	255	
2776.911	1	1	0	0	0.18895	0.21513	0.25383	0.14814	0.17413	0.13343	0.078629	0.090843	0.098131	0.14459	0.34805	0.043764	0.038636	0.11918	0.2333	0.17848	-2.2875	-2.9396	-2.8438	-2.6083	-2.9333	-2.6667	-2.8458	-2.9	-2.7396	-2.8875	-2.8083	-2.6917	-2.9792	-2.8167	-2.875	-2.9292	329.702	156.348	308.946	242.763	236.901	119.841	300.014	9.111	83.814	279.281	337.635	70.365	108.429	135.855	304.111	73.698	0.00013854	7.0029e-05	3.2627e-05	221.6	6.3481e-07	4.3823e-06	323.53	60.674	1.1544e-06	9.7449e-07	113.61	35.792	15.693	4.5335	9.19e-07	12.452	4.0019e-05	3.7415e-05	1.0638e-05	230.73	4.177e-07	1.091e-06	338.33	63.421	4.1664e-07	4.0861e-07	115.69	37.079	16.295	4.747	4.1156e-07	13.368	284.066	307.756	38.048	-6.730	116.028	245.437	-6.016	-1.172	78.048	182.982	-1.980	3.123	4.438	8.731	265.489	7.910	-8191	255	
2776.985	1	1	0	0	0.16713	0.10308	0.063524	0.10238	0.20383	0.23399	0.41542	0.10216	0.27367	0.21337	0.19619	0.35056	0.06705	0.014073	0.24273	0.30122	-1.975	-2.875	-2.9562	-2.6083	-2.8021	-2.7104	-2.9062	-2.95	-2.625	-2.85	-2.8021	-2.6063	-3.0104	-2.7229	-2.6021	-2.9229	151.076	34.905	181.995	70.062	187.351	113.524	315.499	120.816	200.719	238.370	318.839	329.461	97.388	329.826	99.821	37.872	0.00015603	0.00010434	2.8601e-05	221.83	8.6532e-07	4.6065e-06	325.18	61.346	2.7773e-06	5.5779e-07	113.46	35.731	15.543	4.457	2.2477e-06	12.433	3.9524e-05	3.757e-05	1.0286e-05	230.87	4.1457e-07	7.7802e-07	339.35	63.368	4.0122e-07	4.0664e-07	117.46	36.905	16.139	4.6949	4.1234e-07	12.911	278.267	81.431	77.900	-6.649	206.657	331.634	-6.340	-0.900	162.831	197.828	-2.333	3.516	4.557	8.591	87.682	7.487	-8191	255	
2777.079	1	1	0	0	0.10492	0.035246	0.22274	0.16871	0.090023	0.17069	0.16192	0.1596	0.17074	0.070291	0.20772	0.13961	0.15706	0.143	0.34533	0.065892	-2.1729	-2.7875	-2.7229	-2.5458	-2.9667	-2.8333	-2.675	-2.9	-2.8021	-3.0438	-2.8292	-2.5354	-2.8167	-2.7083	-2.6125	-3.1208	198.203	-6.987	254.621	303.628	233.549	-16.466	211.622	33.069	68.995	217.805	121.432	337.473	301.028	284.505	340.554	147.169	0.00026798	0.00013793	1.3828e-05	220.3	6.6975e-07	9.8274e-06	325.66	60.548	3.9074e-07	2.6205e-07	112.9	35.849	15.54	4.4244	1.2459e-07	12.447	5.2207e-05	3.6276e-05	1.0399e-05	230.44	4.1407e-07	1.1327e-06	337.3	63.095	4.0621e-07	4.0174e-07	115.07	36.866	16.052	4.6802	3.9811e-07	12.776	301.021	125.631	302.887	-6.487	79.298	325.503	-6.595	-0.835	61.454	92.172	-1.393	3.207	4.266	8.918	273.975	7.225	-8191	255	
2777.175	1	1	0	0	0.040409	0.083056	0.079253	0.28171	0.1338	0.072939	0.12977	0.27966	0.087145	0.063478	0.07996	0.17817	0.31871	0.14341	0.12239	0.47301	-2.2146	-2.8208	-2.9292	-2.6208	-2.8563	-2.7083	-2.45	-2.9292	-2.8375	-2.8125	-3.0604	-2.575	-2.9437	-3.0375	-2.775	-2.9188	21.446	63.890	218.448	2.980	230.183	152.298	107.079	173.732	311.519	322.973	135.997	280.146	-9.357	253.922	71.750	217.449	0.00040116	4.6638e-05	3.2721e-05	220.06	9.8787e-07	5.6348e-06	324.31	60.732	6.2671e-07	1.2411e-06	113.18	35.574	15.779	4.4443	2.0084e-06	12.497	0.00010627	3.6467e-05	1.0313e-05	230.09	4.0651e-07	8.0202e-07	337.36	63.204	4.0157e-07	3.999e-07	117.44	36.72	16.081	4.6723	3.9322e-07	12.745	300.216	113.326	146.142	-6.501	120.652	10.335	-6.430	-1.129	117.160	131.613	-1.997	2.919	4.303	9.154	135.521	7.375	-8191	255	
2777.296	1	1	0	0	0.0075264	0.17063	0.13455	0.18038	0.11471	0.078729	0.10084	0.05263	0.13919	0.048067	0.096938	0.12172	0.19438	0.12055	0.1477	0.090608	-2.2917	-2.6688	-3.1042	-2.6813	-2.8563	-3.0146	-2.7562	-2.8708	-2.7146	-2.7667	-3.1396	-2.4458	-2.8417	-2.9646	-2.5833	-2.8521	70.390	214.078	298.754	294.807	200.452	2.701	268.033	121.051	228.075	65.915	-6.212	99.995	163.176	151.391	208.444	183.557	0.00025481	0.0001039	5.0344e-05	221.7	1.503e-06	8.1751e-06	325.27	60.569	1.1577e-06	1.2177e-06	112.82	35.954	15.567	4.4692	1.5301e-06	12.517	7.5699e-05	3.6438e-05	1.018e-05	229.99	3.9977e-07	1.1583e-06	337.34	63.108	4.0248e-07	3.9286e-07	113.81	37.099	16.079	4.7084	3.9743e-07	12.828	292.046	42.959	105.101	-6.799	265.251	-11.997	-6.212	-0.957	229.400	138.114	-2.012	3.353	4.704	8.355	51.680	7.543	-8191	255	
2777.392	1	1	0	0	0.30011	0.20792	0.013556	0.17776	0.20168	0.16678	0.14284	0.06961	0.063678	0.067411	0.019676	0.21233	0.21167	0.24997	0.19374	0.11162	-2.2375	-2.7917	-2.9729	-2.5438	-2.7917	-2.9437	-2.7687	-3.1437	-2.8229	-2.6063	-2.7271	-2.5167	-2.7604	-2.8167	-2.8063	-2.8521	277.526	255.543	-10.659	118.845	73.681	19.346	67.755	257.781	-15.008	324.159	149.251	335.121	64.282	311.638	39.905	283.217	0.00043221	8.8085e-05	1.2663e-05	222.14	9.0562e-07	3.1618e-06	323.97	60.45	6.9314e-07	1.3925e-06	113.06	35.965	15.898	4.5369	1.4937e-06	12.512	0.00010787	3.6228e-05	1.0401e-05	230.77	3.9598e-07	8.0645e-07	338.89	63.32	4.0331e-07	3.9161e-07	112.96	38.038	16.163	4.7254	3.9706e-07	12.858	309.227	102.350	225.838	-6.564	77.292	13.931	-6.330	-1.208	19.880	150.888	-1.988	3.387	4.351	8.432	118.095	7.405	-8191	255	
2777.488	1	1	0	0	0.2269	0.27782	0.077571	0.093491	0.17294	0.1265	0.098951	0.15273	0.24166	0.22118	0.1001	0.14679	0.18996	0.065259	0.04691	0.0050735	-2.5458	-2.5062	-3.0521	-2.6917	-2.8792	-3.0271	-2.7021	-2.9833	-2.8187	-2.6688	-3.0542	-2.7146	-2.6333	-3.0583	-2.5979	-3.0042	88.859	241.770	250.498	306.671	302.188	54.538	81.107	208.528	159.443	239.455	39.204	168.684	79.998	116.596	310.913	199.343	0.00022271	7.8016e-05	3.8822e-05	222.31	7.5866e-07	8.165e-06	325.18	60.737	1.1639e-07	1.6884e-07	113	35.965	15.577	4.4973	1.379e-06	12.513	7.5946e-05	3.6546e-05	1.0073e-05	230.91	3.9996e-07	1.1676e-06	338.59	63.199	4.0643e-07	3.9133e-07	112.87	37.522	16.189	4.7427	4.0003e-07	12.818	316.018	88.715	50.765	-6.812	57.813	7.598	-6.336	-0.714	246.172	70.474	-2.398	3.237	3.778	8.378	91.245	7.578	-8191	255	
2777.584	1	1	0	0	0.11417	0.059234	0.064235	0.17725	0.18653	0.12436	0.30309	0.13362	0.13965	0.089873	0.2973	0.048755	0.19121	0.1489	0.24307	0.11766	-2.3229	-2.6583	-2.8125	-2.8042	-2.6437	-2.9583	-2.7375	-2.8875	-3.0167	-2.6167	-2.9979	-2.8667	-2.6417	-2.9771	-2.7562	-3.0583	194.261	132.459	262.621	30.619	84.385	316.563	230.629	334.624	98.650	165.455	22.214	146.077	92.585	131.008	43.212	311.608	0.0004049	6.9911e-05	1.3312e-05	223.52	4.954e-07	6.959e-06	325.08	61.005	1.0577e-06	1.1278e-06	112.44	35.956	15.615	4.4836	1.4167e-06	12.489	0.00010835	3.6714e-05	1.0399e-05	231.47	4.047e-07	5.5367e-07	340.42	63.503	4.1374e-07	4.0166e-07	112.65	38.05	16.148	4.7282	4.0388e-07	12.805	314.550	108.791	168.950	-6.620	135.441	5.131	-6.151	-1.290	49.598	40.139	-1.636	3.249	4.619	8.466	84.903	7.250	-8191	255	
2777.681	1	1	0	0	0.19643	0.025522	0.17048	0.23934	0.13383	0.17039	0.19661	0.035151	0.033579	0.29271	0.21222	0.18943	0.22289	0.023593	0.073453	0.12416	-2.55	-2.7896	-2.7583	-2.7396	-2.6854	-2.8563	-2.9188	-2.875	-2.9396	-2.7292	-2.9292	-2.7917	-2.6021	-3.0062	-2.7479	-2.7313	6.085	196.162	302.209	44.245	289.888	104.370	336.759	116.477	222.142	4.723	77.098	201.980	104.555	328.388	338.740	325.910	0.00026689	0.00013625	7.1464e-05	222.1	2.1118e-06	1.8663e-06	325.75	60.731	1.0614e-06	2.6275e-06	113.33	35.744	15.829	4.4586	6.4926e-07	12.52	7.658e-05	3.6261e-05	1.0382e-05	230.54	3.9677e-07	4.0268e-07	344.23	63.208	4.0683e-07	3.9093e-07	112.37	37.442	16.209	4.6999	4.0609e-07	12.843	314.592	45.407	100.899	-6.673	34.331	129.583	-6.594	-0.940	77.958	132.589	-1.680	3.504	4.471	8.161	7.609	7.390	-8191	255	
2777.777	1	1	0	0	0.043657	0.18253	0.15188	0.077138	0.094412	0.0627	0.27484	0.047897	0.019766	0.18037	0.17844	0.19527	0.25302	0.047057	0.055407	0.19209	-2.625	-2.6437	-2.7292	-2.7583	-2.8125	-2.9646	-2.8979	-2.8937	-2.7792	-2.6146	-2.7917	-2.8854	-2.5875	-2.9021	-2.7125	-2.8563	-3.447	312.088	197.068	246.528	-3.137	94.444	295.187	236.887	209.514	10.383	33.281	76.671	139.152	336.812	318.694	166.371	0.00011382	0.00010784	2.5592e-05	221.82	3.043e-06	1.4214e-06	326.2	60.905	7.9645e-07	9.6476e-07	113.14	35.966	15.693	4.4828	1.4544e-06	12.625	0.00010555	3.6454e-05	1.0022e-05	230.61	3.9619e-07	4.0652e-07	342.15	63.284	4.0159e-07	3.8899e-07	112.89	38.013	16.131	4.7108	3.9148e-07	12.841	-15.159	182.629	168.541	-6.440	104.933	138.187	-6.539	-1.131	188.977	30.980	-2.008	3.265	4.409	7.836	83.134	7.912	-8191	255	
2777.873	1	1	0	0	0.27124	0.10372	0.19829	0.1188	0.18681	0.21376	0.2295	0.21911	0.13336	0.12659	0.16815	0.16619	0.12278	0.12236	0.18112	0.067238	-2.7313	-2.8333	-2.8354	-2.7708	-2.6542	-2.9896	-2.7521	-2.5396	-3.0042	-2.5812	-2.9021	-2.8812	-2.4479	-2.8187	-2.8667	-2.4	104.610	0.275	95.920	109.145	184.769	114.549	248.520	163.127	39.326	27.287	175.281	189.884	338.013	307.552	43.659	322.611	0.00010583	0.00039185	2.5784e-05	220.48	1.8616e-06	7.4846e-07	327.2	60.81	1.181e-06	9.3612e-07	113.63	35.868	15.809	4.507	6.1299e-07	12.581	5.0556e-05	5.4366e-05	1.0014e-05	230.54	3.8794e-07	3.9939e-07	344.77	63.221	4.0695e-07	3.8953e-07	113	37.592	16.183	4.731	3.9121e-07	12.885	325.293	192.789	126.963	-6.342	116.442	112.226	-6.791	-1.313	150.595	161.047	-1.855	3.221	4.026	8.643	177.280	7.448	-8191	255	
2777.994	1	1	0	0	0.36064	0.22597	0.25082	0.23159	0.06052	0.026905	0.18673	0.25584	0.2304	0.13408	0.20076	0.12863	0.13368	0.43542	0.1923	0.16467	-2.4875	-2.75	-2.7083	-2.95	-2.6083	-3.0104	-2.6792	-2.6417	-3.0792	-2.6021	-2.7208	-3.1188	-2.8021	-3.0021	-2.7625	-2.6125	154.375	82.269	217.437	247.207	312.647	-2.552	132.168	24.501	43.751	302.860	-1.618	34.866	70.992	151.969	33.600	154.940	0.00014571	0.0006823	4.41e-05	222.06	1.3254e-06	8.5714e-07	325.33	61.443	9.2347e-07	1.0558e-06	113.03	36.338	15.858	4.5091	1.3852e-06	12.618	3.8187e-05	0.00010614	9.9075e-06	231.53	3.9194e-07	3.9286e-07	342.87	63.583	4.001e-07	3.9674e-07	113.09	38.18	16.288	4.7407	3.9588e-07	12.958	280.500	231.248	86.161	-6.478	56.638	169.128	-6.252	-1.036	85.744	143.036	-2.249	3.047	4.307	8.795	100.470	7.416	-8191	255	
2778.088	1	1	0	0	0.063962	0.046501	0.33506	0.094611	0.20903	0.090168	0.072112	0.047062	0.15578	0.050978	0.09505	0.25071	0.20018	0.13801	0.29797	0.12938	-2.4542	-2.8083	-2.6979	-2.8063	-2.8146	-2.9542	-2.8979	-2.6333	-2.9833	-2.6875	-2.6458	-2.8937	-2.5	-2.7333	-3.0354	-2.6875	122.091	226.168	59.653	290.623	128.634	186.517	238.185	314.881	50.194	186.500	171.031	221.090	108.845	317.460	149.252	94.266	0.00015576	0.00054472	1.9674e-05	222.58	1.6072e-06	1.3431e-06	327.54	60.87	7.2431e-07	1.4316e-06	113.02	36.281	15.906	4.5274	2.6031e-06	12.556	3.8478e-05	7.3142e-05	1.0039e-05	231.87	3.8433e-07	3.9356e-07	345.61	63.416	3.9492e-07	3.9348e-07	112.92	37.424	16.737	4.7682	4.0586e-07	12.931	283.473	225.193	144.626	-6.271	126.510	70.962	-6.595	-1.014	238.373	129.359	-1.836	3.290	4.950	8.584	130.883	7.565	-8191	255	
2778.184	1	1	0	0	0.14356	0.076473	0.28376	0.12468	0.1376	0.081817	0.19073	0.18143	0.1863	0.15114	0.1267	0.38863	0.090471	0.30877	0.098674	0.084646	-2.4313	-2.5333	-2.8063	-2.9458	-2.5333	-2.9104	-2.8063	-2.6208	-2.8312	-2.5854	-2.7521	-3.0812	-2.6333	-2.7438	-2.9375	-2.5104	73.877	181.230	297.360	143.128	273.296	107.384	300.367	87.728	53.462	239.798	118.853	55.665	190.379	83.575	11.726	61.829	0.00011867	0.00073066	6.4015e-05	222.93	1.1459e-06	8.0367e-07	328.09	61.231	1.599e-06	1.4704e-06	113.01	36.357	16.181	4.514	1.7541e-06	12.605	3.8831e-05	0.00010789	1.008e-05	231.91	3.9445e-07	3.9958e-07	343.67	63.605	4.0445e-07	4.0197e-07	113.02	37.302	17.824	4.7526	4.0313e-07	12.941	286.468	231.306	132.360	-6.661	120.897	160.454	-6.384	-0.925	141.358	75.260	-2.044	2.969	4.969	8.826	114.019	7.364	-8191	255	
2778.280	1	1	0	0	0.16064	0.2161	0.042765	0.18145	0.41673	0.1367	0.16822	0.19645	0.083609	0.067153	0.046323	0.12825	0.054458	0.1305	0.11805	0.15044	-2.4833	-2.8708	-2.6208	-2.8354	-2.5521	-2.8021	-2.9083	-2.6333	-3.0062	-2.8979	-2.7313	-3.1104	-2.8854	-2.8167	-3.2021	-2.65	185.196	134.225	246.552	110.144	306.115	2.339	53.563	318.696	293.945	72.398	135.228	309.656	272.950	302.087	70.368	320.796	0.00015475	0.00048758	3.7859e-05	222.05	1.6281e-06	1.5665e-06	326.56	60.755	1.9959e-06	2.1026e-06	112.5	35.979	15.838	4.4736	1.734e-06	12.534	3.9886e-05	7.4265e-05	1.0056e-05	231.24	4.0547e-07	3.9011e-07	344.08	63.145	4.0308e-07	4.0048e-07	112.53	37.037	16.941	4.7151	4.0528e-07	12.864	296.060	225.192	53.016	-6.603	189.119	143.070	-6.429	-1.180	111.559	138.683	-2.250	3.326	4.974	8.339	111.484	7.215	-8191	255	
2778.376	1	1	0	0	0.1235	0.11901	0.26376	0.13169	0.20715	0.20556	0.27455	0.19748	0.17779	0.05642	0.40967	0.29041	0.165	0.072545	0.16176	0.19397	-2.5583	-2.8042	-2.4792	-2.8917	-2.7125	-2.7938	-3.0792	-2.5896	-2.9833	-2.9167	-2.6063	-3.0833	-2.7438	-2.7729	-3.0062	-2.7229	299.889	35.677	263.639	166.550	325.057	274.049	317.133	137.911	11.480	144.718	236.507	191.030	129.223	48.350	327.879	340.401	0.0001518	0.00054627	6.1037e-05	220.15	2.696e-06	6.7257e-07	325.3	60.432	1.3474e-06	1.5154e-06	113.04	35.92	15.804	4.4494	9.0421e-07	12.55	3.9974e-05	0.00010508	1.0298e-05	230.05	4.0912e-07	3.9892e-07	338.88	63.841	4.0966e-07	4.1607e-07	112.55	37.096	17.614	4.7294	4.2279e-07	12.865	282.560	241.151	105.722	-6.625	165.351	169.017	-6.539	-0.919	178.997	112.017	-1.953	3.135	5.309	9.093	292.502	7.225	-8191	255	
2778.473	1	1	0	0	0.12365	0.11837	0.045286	0.20739	0.21198	0.063347	0.25073	0.16176	0.15498	0.27946	0.11047	0.15664	0.15739	0.18174	0.212	0.034694	-2.4771	-2.8042	-2.5583	-2.8667	-2.7583	-2.5667	-3.1	-2.6833	-2.6437	-2.8792	-2.6021	-3.0042	-2.8333	-2.5833	-2.9833	-2.7542	192.785	117.688	6.413	190.541	115.417	220.795	338.299	123.840	83.703	280.224	-7.658	19.692	175.561	309.689	13.140	271.136	0.00011711	0.00038541	8.6108e-06	221.45	8.5721e-07	5.1836e-07	325.28	60.638	1.8398e-06	1.0818e-06	113.29	36.092	15.874	4.549	5.7448e-07	12.672	4.0128e-05	7.4129e-05	1.0282e-05	230.29	4.2516e-07	4.0736e-07	337.78	65.308	4.1799e-07	4.0914e-07	112.6	37.254	16.993	4.755	4.2032e-07	12.987	286.333	236.522	88.041	-6.746	24.050	134.383	-6.431	-1.323	109.279	145.645	-2.110	3.304	4.324	9.051	98.457	7.242	-8191	255	
2778.593	1	1	0	0	0.12722	0.17249	0.13604	0.23347	0.19916	0.06211	0.18219	0.089114	0.16446	0.19949	0.27775	0.081819	0.061402	0.24338	0.051643	0.02372	-2.4437	-2.8458	-2.5458	-2.9583	-3.0458	-2.5792	-2.9688	-2.8771	-2.7562	-2.9604	-2.6542	-2.7687	-2.7833	-2.6	-2.9854	-2.7729	121.721	86.544	100.744	175.211	26.165	67.384	186.794	123.992	81.311	57.986	313.833	241.412	122.897	42.266	285.368	324.652	0.00012273	0.00044008	0.00017363	220.65	1.5261e-06	1.1713e-06	327.73	61.151	5.2062e-07	1.5357e-06	113.28	36.218	16.007	4.4808	1.3817e-06	12.703	4.0097e-05	9.522e-05	1.0914e-05	230.78	4.1368e-07	4.0173e-07	339.98	64.707	4.0029e-07	4.1012e-07	113.21	37.397	17.813	4.7604	4.0584e-07	12.997	282.099	291.805	204.693	-6.648	186.255	-7.474	-6.168	-1.150	263.265	131.523	-1.839	3.183	5.055	8.947	76.490	7.738	-8191	255	
2778.689	1	1	0	0	0.11965	0.13091	0.291	0.25439	0.053508	0.24247	0.2565	0.19026	0.15507	0.18105	0.17186	0.15874	0.05002	0.14627	0.12322	0.14985	-2.4437	-2.9667	-2.6042	-2.9042	-2.9417	-2.5042	-2.9583	-2.7333	-2.7188	-3.1917	-2.6083	-2.7708	-2.8417	-2.5708	-2.8167	-2.8458	83.211	36.115	215.366	320.743	51.389	76.367	219.781	186.819	317.532	193.117	4.019	268.689	56.530	239.366	4.594	338.606	0.00015168	0.00026487	5.3407e-05	222.01	6.941e-07	4.5091e-07	325.45	61.133	1.8011e-06	1.8314e-06	112.05	35.773	15.984	4.4984	1.4072e-06	12.548	3.8954e-05	4.3515e-05	1.6418e-05	230.67	4.0659e-07	3.9075e-07	338.93	65.323	4.0149e-07	4.0654e-07	112.39	37.056	17.033	4.7202	4.0171e-07	12.865	275.101	323.548	202.589	-6.658	117.384	71.978	-6.218	-1.083	135.334	153.271	-2.322	3.098	4.763	8.720	103.098	6.925	-8191	255	
2778.785	1	1	0	0	0.08909	0.057931	0.12149	0.10527	0.084581	0.18327	0.057541	0.1625	0.18877	0.28375	0.18785	0.16662	0.16289	0.12794	0.17775	0.20274	-2.2083	-2.8729	-2.6604	-2.7625	-2.8979	-2.7979	-2.7625	-2.5854	-2.6229	-3.0208	-2.8208	-2.8479	-3.0229	-2.6208	-2.8167	-2.9333	167.580	9.971	3.325	170.243	163.041	122.989	178.128	40.615	84.060	135.800	235.093	311.037	37.278	24.255	311.239	97.670	0.00011262	7.8007e-05	0.00026195	220.67	7.8978e-07	9.7753e-07	324.29	60.733	6.0862e-07	1.2463e-06	112.34	35.814	15.735	4.4399	1.7154e-06	12.544	3.8301e-05	3.6247e-05	2.944e-05	229.95	4.0129e-07	3.9109e-07	337.01	64.066	3.9641e-07	4.0437e-07	112.31	36.91	17.299	4.7163	4.0162e-07	12.834	280.714	31.182	283.506	-6.725	88.216	109.397	-6.369	-1.290	81.022	173.997	-2.302	3.253	4.344	9.378	179.798	7.209	-8191	255	
2778.857	1	1	0	0	0.037248	0.068001	0.16341	0.19897	0.18198	0.054002	0.42316	0.056778	0.2257	0.18158	0.15792	0.096499	0.088156	0.10582	0.15089	0.20471	-2.3375	-2.9729	-2.6063	-2.8208	-2.9708	-2.725	-2.8625	-2.9813	-2.4708	-3.0667	-2.7438	-2.6604	-3.0521	-2.6562	-2.9583	-3.1625	309.113	-5.742	43.085	281.936	27.573	207.762	308.004	64.968	35.869	278.640	-0.278	157.602	119.076	335.801	65.081	93.220	0.00017064	7.2876e-05	5.758e-05	218.97	1.6775e-06	6.3768e-08	323.2	60.69	1.8697e-06	7.1304e-07	111.38	35.624	15.911	4.4503	1.5135e-07	12.444	3.8528e-05	3.6688e-05	2.0379e-05	228.99	4.0655e-07	3.9396e-07	336.97	64.955	4.0232e-07	4.0611e-07	111.83	36.811	16.246	4.8	4.0418e-07	12.761	281.053	47.240	263.374	-6.472	227.803	74.905	-6.563	-1.406	165.449	115.945	-2.072	3.163	3.470	8.910	81.790	7.342	-8191	255	
2778.976	1	1	0	0	0.10836	0.23138	0.06937	0.050514	0.16823	0.085174	0.064185	0.18954	0.13896	0.053369	0.14063	0.17437	0.26447	0.085893	0.11951	0.058769	-2.2417	-3.0625	-2.7188	-2.575	-3.0021	-2.7229	-2.7146	-2.9833	-2.8146	-2.85	-2.7438	-2.6771	-2.9604	-2.7396	-2.8104	-3.1292	132.549	11.465	132.049	340.783	238.295	60.001	228.165	273.493	140.943	144.968	162.817	174.042	239.890	174.072	323.602	112.402	0.00011339	3.2357e-05	0.00024147	221.15	1.5636e-06	3.6517e-07	325.31	60.462	1.5585e-06	1.153e-06	112.48	35.612	15.75	4.4609	6.0531e-07	12.517	3.85e-05	3.5908e-05	3.024e-05	229.74	4.0412e-07	3.9352e-07	338	64.06	3.9304e-07	3.9796e-07	112.08	36.937	16.149	5.0606	4.0687e-07	12.82	287.073	97.508	277.477	-6.341	191.081	308.053	-6.304	-0.808	135.657	58.470	-1.763	3.099	4.701	9.280	137.036	7.254	-8191	255	
2779.072	1	1	0	0	0.14774	0.093417	0.24265	0.11423	0.26374	0.048996	0.069734	0.072554	0.014202	0.26574	0.15875	0.14034	0.23159	0.08078	0.13657	0.2164	-2.175	-2.9396	-2.7042	-2.6229	-3.0542	-2.8604	-2.7604	-3.0062	-2.7417	-2.9521	-2.8417	-2.725	-3.0521	-2.7125	-2.8333	-2.9146	311.969	167.377	-12.945	-17.856	338.406	321.982	190.759	89.110	5.431	293.401	219.312	292.097	49.016	16.649	230.640	45.940	0.00015339	0.00016723	4.5433e-05	221.25	1.7603e-06	1.2076e-06	325.93	61.369	7.6236e-06	1.758e-07	112	35.962	15.584	4.4539	1.4012e-06	12.46	3.9025e-05	3.7164e-05	2.0685e-05	230.19	4.1204e-07	4.0077e-07	338.9	64.797	4.9365e-07	3.9463e-07	112.47	36.927	16.117	4.8809	3.8873e-07	12.803	291.923	113.269	267.545	-6.524	162.512	188.605	-6.324	-1.305	147.009	158.428	-2.001	2.827	4.259	8.830	99.175	7.521	-8191	255	
2779.168	1	1	0	0	0.06585	0.15445	0.23873	0.21285	0.20772	0.022558	0.11479	0.1413	0.13322	0.11289	0.22658	0.1736	0.14953	0.071871	0.29892	0.14228	-2.3583	-2.7021	-2.8458	-2.5792	-2.9646	-2.6458	-2.8	-3.0333	-2.6021	-2.8792	-2.9375	-2.6625	-3.0312	-2.8354	-2.7625	-2.8729	297.995	214.138	96.809	308.140	110.161	177.064	124.851	-8.653	21.506	191.431	14.317	48.500	50.064	34.883	103.016	262.264	0.00010182	9.6995e-05	0.00022826	221.56	1.3499e-06	9.7375e-07	324.8	61.222	6.5791e-06	9.5333e-07	112.81	35.55	15.663	4.4348	7.4768e-07	12.504	3.7522e-05	3.572e-05	3.0572e-05	230.33	3.9554e-07	3.8545e-07	338.1	63.172	7.1073e-07	3.8537e-07	112.33	36.742	16.063	5.0599	3.9681e-07	12.768	280.257	108.268	305.293	-6.846	119.317	293.805	-6.520	-1.551	151.767	110.182	-1.586	3.270	4.735	9.354	79.913	7.340	-8191	255	
2779.264	1	1	0	0	0.16833	0.083547	0.1813	0.16213	0.03729	0.11043	0.23241	0.3067	0.14761	0.053946	0.085989	0.052461	0.11953	0.27556	0.04377	0.044104	-2.3458	-2.7917	-2.8917	-2.5792	-3.0354	-2.9021	-2.8208	-2.8937	-2.7125	-2.8771	-3.1604	-2.5104	-2.95	-2.7875	-2.6771	-2.8271	92.319	226.105	32.133	234.121	101.789	139.142	198.699	190.747	200.454	175.534	160.976	173.487	92.598	80.917	307.168	175.011	0.0001183	0.00020436	0.00016356	220.19	2.1392e-06	1.4579e-06	324.67	60.396	1.42e-05	1.2346e-06	111.28	35.492	15.565	4.4178	2.5057e-06	12.406	3.9332e-05	3.6939e-05	2.1932e-05	229.53	4.1548e-07	4.077e-07	336.97	62.869	1.2405e-06	3.9587e-07	111.65	36.531	15.997	4.866	3.9394e-07	12.72	257.587	62.787	305.191	-6.589	168.928	97.858	-6.340	-1.219	81.089	172.033	-1.660	3.033	4.876	8.941	191.369	7.130	-8191	255	
2779.385	1	1	0	0	0.25199	0.070419	0.20623	0.15639	0.20192	0.064375	0.10334	0.26518	0.11094	0.16291	0.17116	0.22196	0.13037	0.068339	0.14037	0.086973	-2.2479	-2.8208	-3.0563	-2.5979	-3.025	-2.9313	-2.7083	-2.9333	-2.7313	-2.7792	-2.8292	-2.5687	-2.9167	-2.9417	-2.6	-3.0521	4.732	246.569	191.844	267.755	224.588	-16.627	111.229	198.446	202.028	41.364	146.304	-10.744	111.650	253.256	251.517	31.432	0.00010661	5.5066e-05	0.00028257	220.23	1.3662e-06	7.6444e-07	324	60.348	7.2996e-06	1.0501e-06	112.72	35.622	15.459	4.3379	1.8456e-06	12.388	3.9096e-05	3.6228e-05	2.4257e-05	230.15	4.047e-07	3.9951e-07	337.11	62.618	8.4527e-07	3.8973e-07	111.65	36.482	15.91	5.0045	3.913e-07	12.626	280.057	119.002	324.830	-6.589	164.688	134.142	-6.305	-1.226	97.086	108.007	-1.776	3.211	4.271	8.987	111.613	7.305	-8191	255	
2779.457	1	1	0	0	0.18797	0.091025	0.23375	0.23038	0.13754	0.11732	0.16837	0.12794	0.030394	0.16956	0.34226	0.058924	0.065364	0.075084	0.33784	0.23926	-2.325	-2.7125	-2.9021	-2.5896	-2.8937	-2.9417	-2.6229	-3.0167	-2.6854	-2.85	-3.0062	-2.8708	-2.8896	-2.8021	-2.7458	-3.0542	99.783	146.216	66.453	-14.897	30.979	147.400	221.715	97.967	176.598	254.410	226.957	115.354	-17.962	81.361	46.995	251.133	0.00015643	0.00012453	0.00016142	219.71	2.5319e-06	1.0647e-06	324.57	60.143	1.0487e-05	2.3914e-07	111.37	35.069	15.469	4.3179	1.4464e-06	12.246	3.8371e-05	3.5048e-05	1.0579e-05	232.39	4.0013e-07	3.8824e-07	336.63	62.441	1.2212e-06	3.856e-07	110.88	36.219	15.8	4.7747	3.8824e-07	12.537	291.591	70.574	336.256	-6.167	131.680	75.856	-6.031	-0.970	111.739	326.504	-2.017	2.940	4.411	8.975	203.619	7.569	-8191	255	
2779.553	1	1	0	0	0.12974	0.16364	0.056594	0.070866	0.03426	0.09518	0.14439	0.10252	0.26559	0.16427	0.019658	0.093108	0.13957	0.082539	0.152	0.15518	-2.3229	-2.8146	-3.0167	-2.6854	-2.5292	-2.9458	-2.7938	-3.0208	-3.0104	-2.6417	-3.0312	-2.8729	-2.8937	-2.975	-2.6375	-3.0021	58.666	313.556	266.625	37.740	331.399	250.731	254.639	105.335	115.407	37.158	233.546	111.384	337.285	34.129	81.901	-14.616	0.00014677	4.8911e-05	3.3829e-05	218.85	1.0343e-06	1.0385e-06	322.04	59.813	7.4099e-06	1.4693e-06	110.28	35.096	15.138	4.3368	1.1137e-05	12.194	3.8165e-05	3.5577e-05	1.0001e-05	234.8	3.9279e-07	3.9702e-07	334.1	62.075	8.8183e-07	3.9635e-07	110.43	36.119	15.729	4.8373	6.0344e-07	12.51	281.368	303.072	305.319	-6.937	226.204	25.625	-6.437	-0.992	100.180	127.710	-1.606	3.330	3.662	8.723	237.636	7.459	-8191	255	
2779.674	1	1	0	0	0.065069	0.11432	0.077682	0.18808	0.16877	0.23018	0.16041	0.22338	0.23414	0.26709	0.22153	0.21033	0.13091	0.14301	0.12375	0.14303	-2.4813	-2.7458	-3.0292	-2.7062	-2.9354	-2.95	-2.6917	-2.8667	-2.9771	-2.5625	-3.0396	-2.8229	-2.6583	-2.8604	-2.7958	-2.8729	-7.596	325.751	246.279	94.899	305.695	189.086	273.828	262.769	186.469	312.809	290.756	272.458	137.220	-14.588	-9.098	21.961	0.00011044	9.8086e-05	5.1431e-05	218.04	1.0016e-06	1.2817e-06	318.69	59.379	1.308e-05	6.6672e-07	110.91	34.941	15.385	4.2877	5.8472e-06	12.109	4.0483e-05	3.6997e-05	1.0364e-05	231.38	4.1059e-07	4.1333e-07	333.02	61.879	1.3414e-06	3.9964e-07	110.31	36.127	15.726	4.5754	8.3755e-07	12.492	294.297	117.120	99.129	-6.849	102.979	128.813	-6.432	-1.048	120.298	162.537	-1.940	3.246	4.526	8.729	234.035	7.502	-8191	255	
2779.770	1	1	0	0	0.3325	0.099435	0.084356	0.28618	0.15663	0.11022	0.077724	0.1976	0.19742	0.0896	0.28358	0.33172	0.20821	0.13268	0.28633	0.35778	-2.5521	-2.5812	-3.0479	-2.8479	-2.5938	-3.2146	-2.7188	-2.7625	-2.8625	-2.6146	-3.0083	-2.8542	-2.6458	-2.9875	-2.6771	-2.7521	166.051	230.715	101.771	294.439	221.557	110.157	182.307	284.658	122.683	331.785	334.012	30.671	136.526	3.660	329.253	209.164	0.00012452	2.8893e-05	3.8906e-06	217.06	1.2403e-06	1.8407e-06	321.01	59.507	8.2839e-06	1.9933e-06	109.99	34.85	15.488	4.3551	1.4191e-05	12.317	4.015e-05	3.6325e-05	1.0143e-05	234.49	4.0077e-07	4.0418e-07	334.04	61.817	9.3472e-07	3.8978e-07	110.57	36.128	15.792	4.5908	1.3604e-06	12.617	288.805	328.274	227.222	-6.916	80.518	86.014	-6.229	-0.854	130.655	43.153	-1.709	3.343	4.484	8.132	263.852	7.675	-8191	255	
2779.866	1	1	0	0	0.13089	0.1398	0.040068	0.0014873	0.036221	0.29033	0.090359	0.11101	0.032299	0.17182	0.14623	0.22568	0.20586	0.072971	0.089254	0.10502	-2.7771	-2.6604	-2.8625	-2.8521	-2.7542	-2.9688	-2.8167	-2.7938	-3.0917	-2.8146	-2.7958	-2.7125	-2.6437	-2.9583	-2.6958	-2.8312	182.657	205.216	174.276	180.000	240.847	166.676	312.056	12.862	183.738	248.626	14.743	273.120	128.932	184.272	15.769	241.563	0.00012331	9.4166e-05	4.0942e-05	219.22	2.6381e-06	5.5072e-07	324.15	59.836	7.7289e-06	1.0633e-05	110.93	35.053	15.369	4.3506	7.2905e-06	12.127	3.8331e-05	3.491e-05	9.8819e-06	232.54	3.8526e-07	3.9148e-07	335.85	62.119	9.5908e-07	6.2378e-07	110.61	36.127	15.692	4.5773	9.1315e-07	12.494	280.832	110.172	75.922	-7.016	160.656	44.552	-6.117	-0.740	63.220	171.212	-2.003	3.234	4.084	8.517	247.385	7.631	-8191	255	
2779.985	1	1	0	0	0.18923	0.043326	0.054869	0.10233	0.36817	0.12301	0.20291	0.084093	0.19586	0.026404	0.12023	0.18226	0.19151	0.13004	0.09707	0.15178	-2.5104	-2.6208	-2.8667	-2.7313	-2.6375	-3.0354	-2.8917	-2.6312	-2.8708	-2.6979	-2.7854	-2.8563	-2.5708	-3.0604	-2.675	-2.5292	293.875	175.806	38.018	229.597	33.372	333.223	313.883	-18.716	275.818	-1.189	162.185	165.662	-8.865	-12.703	327.347	2.708	0.00013375	0.00010491	4.6986e-05	217.68	1.2134e-06	1.1964e-06	320.36	59.327	2.3558e-06	5.4013e-06	109.47	34.846	15.197	4.3124	1.0978e-05	12.132	3.8061e-05	3.5742e-05	1.0164e-05	234.65	3.9022e-07	3.9912e-07	333.26	61.688	3.9892e-07	8.4036e-07	109.64	35.892	15.624	4.5682	1.3336e-06	12.451	287.916	85.762	132.911	-7.433	100.522	98.103	-6.431	-0.898	120.003	162.317	-1.670	3.042	4.262	8.184	261.684	7.219	-8191	255	
2780.081	1	1	0	0	0.38538	0.083924	0.069466	0.15757	0.24393	0.28115	0.094473	0.14008	0.28601	0.20589	0.098029	0.025828	0.12281	0.14693	0.2142	0.24867	-2.6208	-2.7188	-2.7854	-2.9979	-2.6875	-3.0792	-2.9083	-2.6625	-2.8958	-2.7875	-2.7042	-3.1458	-2.7021	-2.9354	-2.7333	-2.7104	197.018	127.860	144.823	252.170	96.428	131.093	130.858	311.638	291.026	178.837	264.728	268.712	44.935	78.830	127.459	148.626	0.00010004	0.00010166	1.8885e-05	216.68	1.8023e-06	1.1104e-06	319.84	59.385	5.911e-07	9.3192e-06	110.27	34.804	15.292	4.3385	7.2599e-06	12.185	3.894e-05	3.7008e-05	9.993e-06	230.49	3.9523e-07	4.041e-07	332.89	61.669	4.0968e-07	1.323e-06	109.9	35.997	15.689	4.5633	9.1145e-07	12.503	270.542	67.990	28.572	-6.971	158.101	276.984	-6.411	-0.996	182.651	127.251	-1.965	3.249	3.487	8.438	260.972	7.464	-8191	255	
2780.153	1	1	0	0	0.22916	0.16232	0.11265	0.020633	0.12995	0.059511	0.15278	0.21603	0.056631	0.26544	0.17655	0.093635	0.065267	0.10152	0.3292	0.308	-2.4208	-2.675	-2.6875	-2.9375	-2.7479	-2.95	-2.8438	-2.6229	-3.0938	-2.65	-2.7396	-3.0187	-2.4708	-2.7958	-2.9083	-2.6417	2.912	92.291	169.022	138.681	135.748	2.245	82.192	-1.963	87.629	261.332	67.861	0.846	305.974	51.241	273.227	237.270	0.00014342	0.00013525	3.0739e-05	217.98	1.451e-06	1.6027e-06	321.81	59.631	2.6799e-07	6.8036e-06	110.85	35.092	15.432	4.3402	1.3078e-05	12.261	3.866e-05	3.6599e-05	9.8515e-06	230.67	6.7231e-07	3.9082e-07	334.15	61.722	3.8824e-07	8.9129e-07	110.49	36.142	15.769	4.595	1.3115e-06	12.578	274.096	108.966	153.554	-7.088	175.382	101.379	-6.346	-1.014	223.054	138.409	-1.838	3.609	3.560	8.407	282.073	7.372	-8191	255	
2780.273	1	1	0	0	0.087792	0.069732	0.13856	0.080222	0.017114	0.030182	0.11311	0.18788	0.20417	0.10016	0.033995	0.088797	0.35002	0.050076	0.048672	0.15544	-2.4792	-2.6646	-2.6312	-2.9521	-2.6896	-3.0417	-3.0271	-2.6688	-3.1312	-2.9938	-2.6667	-2.9896	-2.5771	-2.9083	-2.875	-2.5771	137.394	16.450	293.745	175.937	283.474	118.535	277.671	264.501	207.710	309.937	124.972	30.478	61.047	248.057	65.850	27.829	0.00010995	8.6897e-05	6.6849e-06	219.19	2.5221e-06	7.5772e-07	323.45	59.556	8.1019e-07	1.1008e-05	111.05	35.048	15.408	4.3697	6.4952e-06	12.297	3.8907e-05	3.5867e-05	9.8456e-06	227.89	8.5625e-07	3.9489e-07	335.88	62.064	3.9389e-07	1.2978e-06	110.84	36.236	15.866	4.6012	8.8384e-07	12.603	280.781	135.740	321.046	-6.502	159.159	51.133	-6.386	-1.210	109.161	143.649	-1.721	2.995	4.337	9.169	271.256	7.406	-8191	255	
2780.369	1	1	0	0	0.252	0.32911	0.22772	0.15877	0.18987	0.047464	0.062422	0.11415	0.12045	0.20473	0.091375	0.073595	0.24854	0.11473	0.11909	0.12989	-2.4083	-2.875	-2.8271	-2.9396	-2.7417	-2.7458	-3.0958	-2.6375	-2.9979	-2.8771	-2.6208	-3.025	-2.6792	-2.7562	-2.8958	-2.5458	323.976	166.386	104.659	225.424	58.840	23.408	198.678	333.700	197.426	43.322	293.372	294.100	-6.485	210.308	271.580	193.271	0.00013666	9.703e-05	3.6733e-05	218.75	1.2011e-05	1.2402e-06	321.86	59.623	9.5923e-07	5.9129e-06	111.65	35.028	15.43	4.3566	7.8015e-06	12.169	3.8791e-05	3.5901e-05	9.8269e-06	227.99	1.2865e-06	3.9439e-07	334.89	61.977	3.9198e-07	8.7271e-07	110.75	36.235	15.853	4.6056	8.4177e-07	12.699	269.812	-10.151	100.872	-6.467	45.745	184.236	-6.233	-1.152	43.230	137.708	-1.926	2.870	4.564	8.910	-5.942	7.965	-8191	255	
2780.465	1	1	0	0	0.20283	0.12599	0.25472	0.36513	0.11091	0.2305	0.14758	0.25542	0.31757	0.18758	0.13438	0.15553	0.18605	0.18266	0.17894	0.096043	-2.5312	-2.8771	-2.6396	-2.8646	-2.5792	-2.8104	-3.125	-2.5438	-2.8458	-2.7583	-2.8542	-2.8104	-2.7229	-2.7042	-3.0125	-2.8937	237.348	226.874	-4.032	272.271	273.963	127.743	325.573	144.022	169.414	116.043	297.399	259.220	64.993	317.784	124.628	324.453	0.00011122	6.2147e-05	4.9353e-05	217.53	6.586e-06	2.1248e-06	321.84	59.468	1.6509e-06	9.8014e-06	111.02	34.761	15.295	4.3564	8.3453e-07	12.084	3.858e-05	3.6661e-05	9.9802e-06	227.19	8.8543e-07	3.9792e-07	334.42	61.875	4.0999e-07	1.2971e-06	110.45	36.029	15.748	4.5681	3.871e-07	12.784	297.806	41.620	55.811	-6.762	56.532	148.803	-6.399	-1.158	122.597	157.645	-2.287	3.094	4.736	8.627	129.119	7.266	-8191	255	
2780.562	1	1	0	0	0.33542	0.064188	0.18445	0.13902	0.080728	0.13993	0.099964	0.12497	0.14549	0.13774	0.13664	0.15718	0.12231	0.15026	0.29602	0.1666	-2.4958	-2.6937	-2.5625	-2.8104	-2.9625	-2.5771	-3.1479	-2.7542	-2.8729	-2.9833	-2.7021	-3.0292	-2.7896	-2.6854	-2.9646	-2.7646	95.615	146.908	-4.623	87.710	251.724	138.498	25.522	195.378	240.679	158.156	74.864	301.843	71.208	179.621	86.714	218.851	0.00011615	6.212e-05	9.7732e-07	217.04	1.3128e-05	9.1225e-07	320.66	59.043	1.0056e-06	5.9563e-06	110.48	35.076	15.314	4.3332	4.0877e-07	12.203	3.8055e-05	3.5924e-05	9.7379e-06	226.43	1.2916e-06	3.8061e-07	333.67	61.723	3.8679e-07	8.8054e-07	110.13	36.03	15.705	4.558	3.8628e-07	13.081	291.859	115.965	14.467	-6.472	46.479	99.613	-6.218	-0.849	236.581	155.590	-2.052	3.189	3.677	8.443	173.705	6.891	-8191	255	
2780.682	1	1	0	0	0.069323	0.25752	0.19757	0.29003	0.060096	0.35846	0.17445	0.16123	0.14506	0.074741	0.1351	0.17376	0.12055	0.053898	0.093613	0.015948	-2.3604	-3.0542	-2.6521	-2.9792	-2.9667	-2.6396	-2.9292	-2.7438	-2.7875	-2.8958	-2.5542	-2.8708	-2.7479	-2.6292	-3.05	-2.8229	117.857	77.544	319.737	133.191	293.415	314.547	282.094	339.748	150.552	231.473	8.853	314.306	67.618	243.993	240.499	306.866	0.00013952	9.4954e-05	3.4658e-05	219.05	5.686e-06	1.6135e-06	321.09	59.212	1.6146e-06	4.0919e-06	110.48	35.057	15.223	4.3342	1.4821e-06	12.281	3.8125e-05	3.6005e-05	9.7237e-06	227.81	8.8274e-07	3.8123e-07	334.71	61.99	3.8726e-07	7.9745e-07	112.74	36.208	15.709	4.5816	3.852e-07	12.855	293.359	-11.629	50.014	-6.651	65.696	106.383	-6.395	-0.941	65.497	91.227	-1.254	3.072	4.638	8.335	174.804	6.940	-8191	255	
2780.754	1	1	0	0	0.15478	0.098373	0.21482	0.14061	0.093235	0.27545	0.27082	0.25365	0.18513	0.30228	0.1791	0.10817	0.14809	0.15262	0.21938	0.2198	-2.4792	-2.9542	-2.5458	-2.8708	-2.9938	-2.7646	-3.0979	-2.875	-2.6729	-3.0042	-2.6437	-2.8187	-2.9104	-2.7083	-2.9625	-2.6542	74.598	283.456	137.752	-11.326	279.113	285.355	270.793	324.770	46.879	150.480	27.289	239.073	184.535	288.276	218.481	-15.341	0.00015154	0.00014239	4.9196e-05	218.65	1.5246e-05	1.6434e-06	322.66	59.594	1.0826e-06	1.1548e-06	110.57	35.34	15.364	4.3781	1.1592e-06	12.208	3.7349e-05	3.5038e-05	9.6303e-06	227.56	1.2826e-06	3.7704e-07	334.5	61.889	3.8356e-07	3.8159e-07	114.01	36.216	15.785	4.5942	3.8783e-07	13.117	281.203	60.436	114.643	-6.409	73.709	121.193	-6.527	-0.983	123.416	117.972	-1.623	3.239	3.895	8.689	221.572	6.458	-8191	255	
2780.850	1	1	0	0	0.22429	0.0027831	0.36379	0.1875	0.067259	0.12852	0.13796	0.35177	0.18774	0.17222	0.1188	0.1737	0.10023	0.22768	0.12479	0.070261	-2.3688	-2.9833	-2.6729	-2.9979	-2.9813	-2.6833	-2.95	-2.75	-2.5979	-3.1146	-2.7333	-2.9604	-2.9167	-2.5563	-2.8958	-2.8542	152.031	259.530	68.573	173.089	185.673	331.553	173.196	18.901	149.644	112.658	-13.676	232.040	71.458	277.571	69.783	235.454	0.00015608	0.00010191	5.4929e-05	218.4	7.4126e-06	4.7258e-07	323.18	60.102	8.9702e-07	3.2292e-07	111.41	35.229	15.577	4.3984	1.3123e-06	12.19	3.6809e-05	3.4763e-05	9.647e-06	227.64	9.1374e-07	3.7698e-07	335.04	62.292	3.8014e-07	3.8328e-07	116.89	36.367	15.919	4.6149	3.9097e-07	12.912	295.281	95.931	74.551	-6.845	79.200	169.477	-6.130	-0.820	50.551	114.303	-1.368	3.338	4.546	8.125	165.707	7.409	-8191	255	
2780.946	1	1	0	0	0.064874	0.075405	0.18571	0.097479	0.18645	0.15176	0.21717	0.17721	0.26417	0.17725	0.19174	0.08225	0.040556	0.11731	0.094482	0.24528	-2.1208	-3.0792	-2.6083	-2.725	-3.025	-2.7167	-3.0333	-2.8229	-2.5938	-3.1375	-2.8375	-2.6646	-2.8625	-2.6104	-2.9792	-2.8292	271.743	200.807	301.341	236.405	177.625	274.603	45.021	154.738	301.090	266.301	192.300	59.846	47.639	215.401	174.396	169.477	0.00013323	6.2887e-05	3.7183e-05	218.2	1.1281e-05	7.3273e-06	323.79	59.663	8.2085e-07	1.715e-06	111.05	35.228	15.602	4.3904	1.3779e-06	12.255	3.7136e-05	3.5257e-05	9.9075e-06	228.27	7.5872e-07	7.7579e-07	335.73	62.264	3.8196e-07	3.9002e-07	113.89	36.319	15.85	4.6121	3.9619e-07	13.1	288.704	50.152	103.704	-6.619	55.657	150.112	-6.174	-1.070	-5.696	145.486	-1.132	3.032	4.293	8.475	128.521	6.717	-8191	255	
2781.065	1	1	0	0	0.22707	0.13017	0.14602	0.14138	0.16531	0.16895	0.050683	0.064808	0.10935	0.14652	0.1656	0.10173	0.18266	0.071381	0.068485	0.0048525	-2.2687	-3.15	-2.6458	-2.9	-2.925	-2.6917	-2.7938	-2.8187	-2.7917	-2.9604	-2.8208	-2.8083	-2.8604	-2.6417	-2.6646	-2.8438	188.976	215.636	139.989	319.819	272.922	316.847	64.438	266.517	46.920	332.899	248.816	301.850	76.516	327.907	96.366	17.084	0.00013106	0.00014321	2.7827e-05	220.21	1.5292e-06	6.8125e-06	323.45	59.68	1.255e-06	9.6555e-07	111.57	35.274	15.548	4.3911	2.7231e-06	12.143	3.7848e-05	3.6766e-05	1.0096e-05	228.92	4.0263e-07	8.4053e-07	336.41	62.403	3.89e-07	3.9335e-07	116.78	36.37	15.858	4.6047	3.8993e-07	12.823	288.391	64.243	56.507	-6.826	90.365	79.435	-6.469	-1.049	143.797	114.716	-1.456	2.893	4.718	8.546	86.812	7.431	-8191	255	
2781.161	1	1	0	0	0.11459	0.067271	0.19254	0.085482	0.15873	0.088531	0.13111	0.084957	0.04587	0.17406	0.1616	0.24138	0.089595	0.23895	0.043834	0.14449	-2.2146	-2.8604	-2.7604	-2.7833	-2.9292	-2.8917	-2.7062	-2.8375	-2.55	-2.9333	-2.8667	-2.5458	-3.1063	-2.7583	-3.0208	-2.9521	235.891	260.629	251.352	169.530	259.606	-7.197	258.098	298.484	129.854	46.314	145.018	5.213	213.687	225.371	12.972	-10.179	0.00012594	0.00019181	4.4073e-05	219.65	2.8943e-06	1.2115e-05	323.24	59.945	7.6905e-07	8.2868e-07	111.19	34.91	15.455	4.3516	1.4415e-06	12.151	3.8185e-05	3.5961e-05	1.027e-05	227.82	3.961e-07	1.2341e-06	335.76	62.226	3.8965e-07	3.8142e-07	113.8	36.168	15.797	4.59	3.8491e-07	12.684	306.125	58.021	125.841	-6.511	98.364	96.583	-6.542	-1.006	100.824	77.330	-1.912	2.757	4.341	8.457	67.104	6.678	-8191	255	
2781.257	1	1	0	0	0.068306	0.090846	0.2183	0.0087854	0.18495	0.13581	0.063344	0.2584	0.127	0.16418	0.080977	0.16573	0.075067	0.080937	0.18378	0.018916	-2.3604	-2.8771	-2.8417	-2.7792	-2.8417	-2.9583	-2.6646	-3.0167	-2.6479	-2.7542	-2.925	-2.6625	-2.9062	-2.8167	-2.8542	-3.125	273.956	165.743	173.703	231.911	72.849	215.688	269.329	239.038	253.694	28.151	199.280	50.682	1.175	84.498	332.912	215.059	0.00021614	0.0001804	1.4033e-05	218.13	1.1203e-06	8.5389e-06	321.6	59.996	1.8751e-06	9.022e-07	111.45	34.998	15.682	4.3685	1.2309e-06	12.278	7.5198e-05	3.52e-05	9.8274e-06	227.8	3.9138e-07	8.5751e-07	334.39	62.22	3.8967e-07	3.8589e-07	116.61	36.187	15.949	4.6078	3.8516e-07	12.537	326.073	50.739	37.234	-6.669	163.070	82.021	-6.392	-1.006	62.235	109.196	-1.088	3.153	4.185	8.328	108.030	7.273	-8191	255	
2781.354	1	1	0	0	0.05123	0.14052	0.33721	0.061992	0.21839	0.23154	0.26815	0.25606	0.12869	0.073806	0.0096972	0.21875	0.17795	0.17565	0.079964	0.32367	-2.3563	-2.9542	-2.9042	-2.7104	-2.8646	-2.9396	-2.9292	-3.0667	-2.8854	-2.8792	-2.9667	-2.6688	-3.0125	-2.8104	-2.8042	-3.0438	167.295	95.046	168.440	195.399	76.153	47.646	264.352	210.848	71.831	108.617	62.034	299.526	334.448	100.048	214.586	122.689	0.00014485	0.00011817	3.1336e-05	218.37	1.7258e-06	1.5885e-05	323.69	59.762	6.1193e-07	1.7448e-06	111.38	35.263	15.508	4.3927	5.2499e-07	12.278	8.0078e-05	3.5504e-05	9.7886e-06	227.96	3.8916e-07	1.2853e-06	335.74	62.469	3.7623e-07	3.8275e-07	114.24	36.304	15.908	4.6173	3.7775e-07	12.604	7.576	173.403	71.982	-6.472	90.538	98.807	-6.589	-0.729	27.458	133.497	-1.563	3.013	4.445	8.837	197.166	7.435	-8191	255	
2781.450	1	1	0	0	0.10913	0.098936	0.14672	0.31146	0.16358	0.15883	0.19235	0.18422	0.14519	0.24865	0.22241	0.088023	0.11648	0.138	0.092931	0.086468	-2.3542	-2.9375	-2.8708	-2.7875	-2.8937	-2.9146	-2.875	-3.0583	-2.8563	-2.7854	-3.2229	-2.6979	-2.6937	-2.95	-2.6667	-2.8812	15.496	218.567	138.415	33.102	234.530	12.493	297.103	316.756	64.237	194.477	151.983	250.309	323.034	311.147	289.727	111.580	0.00021099	6.8332e-05	3.3338e-05	219.4	1.6437e-06	8.7344e-06	324.29	60.324	1.0619e-06	1.985e-07	111.9	35.306	15.47	4.4081	3.4348e-07	12.296	0.00011666	3.5414e-05	9.7409e-06	228.97	3.919e-07	8.8445e-07	337.3	62.67	3.8571e-07	3.75e-07	113.38	37.19	15.983	4.6454	3.7958e-07	12.593	42.878	182.531	155.834	-6.801	157.259	100.323	-6.287	-0.949	120.005	182.165	-2.093	3.209	4.655	8.712	59.265	7.572	-8191	255	
2781.546	1	1	0	0	0.20979	0.17957	0.19397	0.11477	0.090455	0.017229	0.097935	0.063114	0.24554	0.22507	0.18621	0.24137	0.14637	0.25734	0.069636	0.089939	-2.4479	-2.6937	-2.9104	-2.4583	-2.8958	-2.7938	-2.5583	-2.9896	-2.8937	-2.7396	-3.0375	-2.6688	-2.8625	-2.8417	-2.5458	-2.9083	86.312	311.812	23.837	237.980	301.158	315.582	240.122	254.326	-18.931	154.841	164.644	161.639	279.974	311.863	337.488	245.667	0.00015003	8.3062e-05	3.9681e-05	220.75	2.0014e-06	1.4394e-05	323.63	60.197	1.3474e-06	1.0134e-06	112.36	34.955	15.524	4.4204	9.6524e-07	12.189	8.2628e-05	3.4325e-05	9.4883e-06	229.01	3.9067e-07	1.2535e-06	336.83	62.582	3.8455e-07	3.7206e-07	111.15	36.881	15.89	4.615	3.7258e-07	12.497	13.887	202.691	89.163	-6.398	202.644	104.515	-6.285	-1.180	157.638	134.431	-2.185	3.384	4.062	8.516	168.039	7.385	-8191	255	
2781.666	1	1	0	0	0.16682	0.090543	0.15011	0.086586	0.26146	0.38508	0.2703	0.16589	0.20692	0.13635	0.14646	0.0392	0.27972	0.11906	0.21935	0.16738	-2.3146	-2.6937	-2.8854	-2.8083	-2.7792	-2.9313	-2.8917	-2.7667	-2.9854	-2.8333	-3.0917	-2.7917	-2.7062	-3.0542	-2.9292	-3.0312	265.693	109.094	3.761	260.510	69.688	215.070	333.918	338.760	302.278	144.229	102.311	318.300	298.908	78.403	58.334	224.761	0.0002179	5.7804e-05	1.5984e-06	218.85	1.5614e-06	6.259e-06	320.71	59.71	2.2497e-06	1.7783e-06	111.57	35.023	15.545	4.4111	3.8534e-07	12.233	0.00011298	3.384e-05	9.3954e-06	227.99	3.7755e-07	7.7899e-07	335.17	62.409	3.8673e-07	3.6476e-07	111.2	37.445	15.894	4.6203	3.6666e-07	12.504	68.690	4.334	188.612	-6.544	119.401	95.272	-6.566	-1.053	142.095	111.056	-1.426	3.221	4.487	8.101	58.760	7.296	-8191	255	
2781.763	1	1	0	0	0.15469	0.149	0.027709	0.27314	0.036182	0.033259	0.17711	0.068648	0.16418	0.22786	0.073906	0.026336	0.20421	0.15349	0.20823	0.2013	-2.4625	-2.5521	-2.9688	-2.675	-2.8021	-3.1104	-2.8479	-2.9354	-2.8937	-2.5854	-2.8542	-2.6562	-2.6188	-3.0563	-2.7521	-2.7375	147.009	242.263	141.109	313.243	225.443	96.351	299.049	175.143	16.816	115.288	274.930	-8.281	307.622	206.865	205.662	-5.701	8.9034e-05	5.6073e-05	2.6306e-05	220.07	9.2031e-07	1.0645e-05	323.2	60.42	4.8271e-07	5.5307e-07	112.42	35.21	15.525	4.4025	1.4352e-06	12.222	7.817e-05	3.4079e-05	9.4366e-06	228.68	3.7409e-07	6.0982e-07	339.87	62.643	3.8019e-07	3.6975e-07	111.03	36.965	15.849	4.6296	3.7831e-07	12.557	10.827	126.524	104.277	-6.971	117.705	74.415	-6.071	-1.034	32.126	315.562	-1.817	3.009	4.466	9.433	188.369	7.421	-8191	255	
2781.859	1	1	0	0	0.060107	0.040875	0.16722	0.086328	0.27266	0.32753	0.27087	0.30161	0.089418	0.24365	0.077503	0.1437	0.10481	0.026134	0.18725	0.075347	-2.5771	-2.6979	-2.9938	-2.8958	-2.7167	-3.0771	-2.5833	-2.9729	-2.9479	-2.6667	-2.8917	-2.9062	-2.4938	-2.8833	-2.6375	-2.7708	208.009	255.663	54.535	25.967	170.806	221.370	297.149	273.739	213.190	92.470	286.443	257.791	203.673	337.632	140.127	148.962	0.00023509	4.7682e-05	1.8736e-05	219.77	3.999e-07	4.8054e-07	324.35	60.679	1.0374e-06	7.5071e-07	111.62	35.526	15.604	4.4685	1.4345e-06	12.437	0.00011522	3.3396e-05	9.6087e-06	229.12	3.6674e-07	3.7495e-07	341.14	62.916	3.7803e-07	3.7403e-07	111.65	37.845	15.986	4.6778	3.7428e-07	12.668	65.968	65.330	61.410	-6.176	263.823	246.785	-6.618	-1.278	232.051	139.152	-1.505	3.288	4.423	8.283	181.593	7.410	-8191	255	
2781.955	1	1	0	0	0.024569	0.2691	0.27865	0.063364	0.2805	0.15244	0.25777	0.14204	0.31313	0.24307	0.21735	0.21417	0.2107	0.2574	0.10468	0.077055	-2.5292	-2.5812	-2.8146	-2.7333	-2.725	-3.1792	-2.9813	-2.7562	-2.9583	-2.6625	-2.8875	-2.9458	-2.5125	-2.9875	-2.6854	-2.5687	56.519	209.548	-15.964	278.385	73.825	40.230	45.703	-2.825	274.362	94.480	-12.183	33.285	51.654	36.260	337.133	227.377	7.7757e-05	3.0527e-05	2.4845e-05	220.34	1.6393e-06	9.8593e-07	325.83	60.673	2.4506e-06	1.0118e-06	112.82	35.426	15.686	4.4277	1.7925e-06	12.385	7.3908e-05	3.3559e-05	9.5345e-06	229.32	3.6802e-07	3.7165e-07	344.42	63.069	3.7739e-07	3.6791e-07	111.8	37.299	15.981	4.6654	3.8134e-07	12.642	33.102	113.410	113.545	-6.392	207.606	65.036	-6.103	-1.350	76.039	143.597	-1.939	3.561	4.161	8.820	81.748	7.523	-8191	255	
2782.049	1	1	0	0	0.15106	0.20477	0.17201	0.18144	0.21387	0.14207	0.075727	0.28757	0.16181	0.28228	0.16518	0.20675	0.058681	0.019004	0.1229	0.16823	-2.6979	-2.6104	-2.7833	-2.725	-2.5812	-3.1104	-2.7583	-2.8792	-2.9021	-2.6667	-2.6771	-2.8771	-2.6104	-2.8812	-2.7375	-2.6333	121.387	73.496	300.878	101.989	68.198	140.685	267.174	251.753	205.315	80.488	148.391	12.289	309.147	150.946	76.030	76.925	0.00022168	0.00016874	1.3054e-05	220.65	1.6387e-06	5.455e-07	324.03	60.569	1.0376e-06	5.8354e-07	112.64	35.125	15.72	4.455	8.3429e-07	12.29	5.4154e-05	8.2691e-05	9.39e-06	229.03	3.6738e-07	3.6535e-07	340.57	62.952	3.8107e-07	3.677e-07	111.67	37.657	15.956	4.6546	3.7876e-07	12.626	114.231	183.906	265.314	-6.748	117.221	61.546	-6.405	-1.082	107.307	185.897	-1.691	3.046	3.793	8.378	140.730	7.190	-8191	255	
2782.146	1	1	0	0	0.024936	0.16225	0.1406	0.18153	0.065796	0.2652	0.086891	0.1547	0.1016	0.1546	0.17631	0.15076	0.26391	0.10321	0.23576	0.41305	-2.5125	-2.6042	-2.7875	-2.8312	-2.6396	-2.9896	-2.9042	-2.8479	-2.9792	-2.6688	-2.9771	-2.9479	-2.6437	-2.9479	-2.8917	-2.5687	46.112	71.559	259.416	296.867	109.574	45.720	51.905	153.030	105.592	175.416	20.782	248.154	-12.624	340.004	0.339	312.525	0.00015573	0.00059723	3.4915e-05	218.11	2.0892e-06	1.3568e-06	324.51	60.372	1.4213e-06	1.2502e-06	110.67	34.997	15.491	4.3837	1.4459e-06	12.209	3.6232e-05	7.7359e-05	9.5674e-06	228.18	3.6829e-07	3.7315e-07	343.09	62.709	3.7578e-07	3.6648e-07	110.61	36.722	15.911	4.6029	3.7589e-07	12.507	278.942	-8.139	80.825	-6.611	138.326	150.128	-6.251	-1.260	37.054	148.991	-1.627	3.150	4.306	8.430	191.689	7.687	-8191	255	
2782.242	1	1	0	0	0.078882	0.0051493	0.11201	0.25855	0.11843	0.1267	0.15161	0.064866	0.069846	0.23491	0.1366	0.14101	0.18517	0.1331	0.21434	0.20113	-2.5229	-2.5792	-2.6104	-2.9813	-2.6312	-2.975	-2.9917	-2.7125	-2.8708	-2.7979	-2.7271	-3.025	-2.6792	-2.6667	-2.8583	-2.5062	332.699	235.207	219.296	321.536	277.690	30.066	225.744	108.249	310.564	101.564	327.253	297.291	275.633	109.883	138.299	234.602	0.00015008	0.00064481	1.6565e-05	218.87	1.0755e-06	8.2463e-07	322.83	60.182	1.325e-06	1.5137e-06	111.69	35.396	15.352	4.4084	1.3104e-06	12.395	3.6689e-05	0.00011309	9.3521e-06	228.11	3.6696e-07	3.6944e-07	339.86	62.651	3.7429e-07	3.7665e-07	111.36	36.702	17.095	4.6524	3.6792e-07	12.623	290.153	-8.316	136.615	-6.611	161.334	144.023	-6.330	-1.011	242.988	109.946	-2.109	3.049	5.328	8.892	162.488	7.039	-8191	255	
2782.338	1	1	0	0	0.17856	0.13097	0.18599	0.32406	0.27359	0.22926	0.19237	0.072102	0.24844	0.12699	0.10926	0.059452	0.15411	0.20057	0.17494	0.049007	-2.6417	-2.6646	-2.7146	-3.0833	-2.775	-3.0167	-2.8792	-2.5479	-2.8937	-2.8583	-2.6208	-2.9958	-2.7208	-2.8104	-3.0625	-2.5896	21.131	41.825	273.351	247.519	259.312	174.641	250.339	140.752	330.102	18.666	270.093	272.570	138.455	167.585	72.200	73.652	0.00015274	0.00057418	4.2411e-05	221.43	1.8645e-06	1.3554e-06	325.55	60.4	2.0596e-06	1.5306e-06	110.65	35.412	15.345	4.4605	2.7482e-06	12.347	3.6561e-05	7.664e-05	9.5064e-06	229.54	3.7447e-07	3.7055e-07	344.33	62.833	3.737e-07	3.7049e-07	111.25	36.578	16.985	4.6858	3.7603e-07	12.685	288.389	-15.976	55.620	-6.813	169.656	163.620	-6.135	-1.067	163.901	92.659	-2.015	2.965	4.313	8.393	138.176	7.409	-8191	255	
2782.458	1	1	0	0	0.16957	0.13407	0.044035	0.063417	0.1166	0.19639	0.15619	0.11254	0.0087692	0.18674	0.11997	0.050267	0.12064	0.10146	0.15485	0.082805	-2.5417	-2.4688	-2.7583	-2.9375	-2.7687	-2.8146	-3.0917	-2.6167	-2.9375	-2.8833	-2.6417	-2.8563	-2.4729	-2.8833	-3.0354	-2.7979	190.314	156.863	158.553	165.572	-18.548	105.062	285.682	90.126	109.198	271.489	-2.156	16.447	25.452	310.770	257.100	190.706	0.00011827	0.00094156	3.8895e-05	220.13	1.2715e-06	1.5398e-06	324.62	60.367	5.0865e-07	1.3479e-06	111.54	35.503	15.553	4.4719	1.1795e-06	12.513	3.7162e-05	0.00011808	9.2912e-06	229.33	3.8251e-07	3.783e-07	340.1	63.107	3.9279e-07	3.7665e-07	111.59	36.767	17.952	4.7025	3.8558e-07	12.766	294.301	-10.631	92.676	-6.527	164.531	204.616	-6.584	-1.054	133.115	153.044	-1.946	3.004	4.863	8.250	191.042	6.958	-8191	255	
2782.555	1	1	0	0	0.24963	0.14801	0.11411	0.40338	0.088903	0.14386	0.21718	0.0083862	0.085753	0.089426	0.078249	0.2637	0.14776	0.061264	0.22973	0.18754	-2.5062	-2.775	-2.5354	-3.1271	-2.6479	-2.7667	-2.9479	-2.7042	-3.0104	-2.9917	-2.5	-2.85	-2.7146	-2.9646	-2.9542	-2.7375	268.484	248.727	286.495	-13.838	-16.345	147.044	307.128	255.919	210.116	324.667	255.001	103.300	81.807	-6.963	134.134	-15.944	0.00013357	0.00054963	1.9601e-05	220.9	7.3269e-07	6.4651e-07	325.97	60.222	4.4941e-07	4.5711e-07	112.31	35.675	15.454	4.4791	9.9236e-07	12.409	3.7761e-05	8.2367e-05	9.6441e-06	229.37	3.9975e-07	3.8689e-07	338.03	64.756	3.9387e-07	3.8136e-07	111.74	36.788	17.118	4.6993	3.8979e-07	12.687	287.908	8.598	125.745	-6.623	105.628	170.645	-6.161	-0.605	166.226	110.350	-1.929	3.018	4.316	8.333	75.050	7.413	-8191	255	
2782.626	1	1	0	0	0.17221	0.029274	0.091645	0.22824	0.119	0.10232	0.22144	0.27385	0.064396	0.14956	0.22277	0.14261	0.21942	0.21419	0.043578	0.33783	-2.3771	-2.9938	-2.5729	-2.9708	-2.7042	-2.6708	-2.9875	-2.7583	-2.8354	-3.2125	-2.6562	-2.9042	-2.8	-2.8083	-2.9604	-2.8875	-0.993	141.122	253.964	299.111	32.659	27.002	290.071	313.095	46.668	307.916	340.026	297.304	293.338	171.002	94.744	127.554	0.00014413	0.00078145	3.4753e-05	219.63	2.1951e-06	5.2355e-07	323.36	60.799	5.8863e-07	1.746e-06	111.13	35.824	15.501	4.4928	6.2473e-07	12.513	3.7978e-05	0.00011625	9.8308e-06	228.69	3.9283e-07	3.7914e-07	336.11	64.223	3.913e-07	3.9006e-07	111.77	36.824	17.92	4.7375	3.9402e-07	12.808	278.820	4.712	35.079	-6.485	147.954	243.171	-6.271	-0.987	114.983	48.436	-1.695	2.918	4.322	8.681	122.960	7.187	-8191	255	
2782.747	1	1	0	0	0.085706	0.28607	0.025952	0.19859	0.23655	0.12915	0.16379	0.10351	0.037809	0.101	0.14992	0.10101	0.19444	0.098222	0.10282	0.16342	-2.4938	-2.8521	-2.5021	-2.9646	-2.6771	-2.8292	-3.0375	-2.6146	-2.6188	-3.0542	-2.7542	-2.9896	-2.7729	-2.5729	-2.9354	-2.7667	0.200	-11.829	312.879	65.121	307.821	198.927	289.957	290.660	332.971	309.070	79.415	254.291	60.586	112.408	-3.925	198.489	0.00015469	0.00045865	8.5833e-05	219.86	1.5347e-06	5.3791e-07	324.28	60.474	1.04e-06	9.5764e-07	111.29	35.611	15.527	4.465	2.0725e-06	12.447	3.8242e-05	6.7426e-05	1.1424e-05	228.69	3.9627e-07	3.8799e-07	336.95	65.583	3.8509e-07	3.8891e-07	111.3	36.797	17.092	4.711	3.837e-07	12.764	288.758	-4.048	100.933	-6.265	155.600	146.879	-6.375	-0.820	119.861	105.821	-2.003	2.931	4.220	8.764	109.550	7.316	-8191	255	
2782.843	1	1	0	0	0.093274	0.1101	0.15704	0.19977	0.31775	0.12642	0.24912	0.16509	0.06609	0.2005	0.10284	0.19227	0.22186	0.16452	0.36471	0.084769	-2.2208	-2.9688	-2.6188	-2.7229	-2.9688	-2.7062	-3.1521	-2.975	-2.6292	-2.925	-2.7792	-3	-2.925	-2.625	-2.9625	-2.7792	107.967	44.830	127.002	277.176	16.956	175.576	228.147	320.624	84.123	-15.098	36.261	300.149	140.713	-14.849	202.461	214.130	0.00014424	0.00099429	7.3464e-05	219.54	3.6434e-07	8.0315e-07	322.05	60.631	7.531e-07	7.8673e-07	110.79	35.413	15.551	4.4951	8.2752e-07	12.436	3.7458e-05	4.2126e-05	2.7109e-05	228.41	3.8755e-07	3.7493e-07	335.73	64.199	3.7944e-07	3.8401e-07	110.92	36.699	17.91	4.7216	3.8146e-07	12.752	289.666	-8.051	102.976	-6.761	69.879	140.131	-6.601	-0.904	153.140	198.939	-2.001	3.241	4.074	8.267	211.364	7.456	-8191	255	
2782.939	1	1	0	0	0.21278	0.21194	0.30167	0.11504	0.36089	0.26131	0.05678	0.22381	0.28179	0.20369	0.11804	0.23937	0.33689	0.060133	0.054659	0.11457	-2.1521	-3.0333	-2.7375	-2.8625	-2.9437	-2.7458	-2.7979	-2.7604	-2.7833	-2.9375	-2.6292	-2.8354	-2.8771	-2.6208	-2.9396	-2.7896	62.771	-7.548	210.575	195.239	119.276	35.234	305.526	212.349	260.649	11.001	193.609	-12.353	222.530	158.540	254.923	71.118	0.0001275	4.2487e-05	0.00014602	220.41	2.459e-06	1.0102e-06	323.77	60.428	3.0054e-07	1.0157e-06	111.93	35.926	15.838	4.4734	9.1594e-07	12.432	3.7094e-05	3.5197e-05	2.2464e-05	229.05	3.8311e-07	3.6851e-07	336.32	65.648	3.7662e-07	3.8267e-07	111.51	36.961	16.838	4.7805	3.7888e-07	12.775	273.112	60.114	39.053	-6.486	185.465	110.426	-6.244	-0.665	-12.443	26.500	-2.189	3.237	3.717	8.981	39.818	7.499	-8191	255	
2783.035	1	1	0	0	0.1084	0.023436	0.11305	0.16993	0.10167	0.13513	0.17325	0.22083	0.17643	0.12871	0.19041	0.15888	0.22596	0.12952	0.10518	0.22616	-2.1542	-3.0521	-2.7354	-2.7771	-2.9354	-2.5708	-3.0875	-2.7188	-2.6479	-2.9188	-2.7229	-2.7	-2.8083	-2.6583	-2.8271	-2.9708	-10.749	25.469	205.527	267.268	171.992	148.643	339.728	264.510	18.998	9.402	77.268	82.038	97.069	256.497	58.633	72.636	0.00015134	3.6424e-05	0.00030878	221.12	2.2162e-06	5.6078e-07	324.39	60.449	1.1496e-06	1.0546e-06	112.96	35.98	15.675	4.5057	5.6882e-07	12.53	3.7759e-05	3.4963e-05	3.2965e-05	229.44	3.8531e-07	3.7819e-07	337.06	64.588	3.7203e-07	3.8498e-07	112.01	37	16.302	5.1059	3.7946e-07	12.859	301.183	37.948	33.044	-6.409	170.992	97.044	-6.472	-1.109	129.431	54.886	-1.752	3.143	3.791	8.808	112.423	6.851	-8191	255	
2783.154	1	1	0	0	0.17501	0.15853	0.076628	0.3798	0.1686	0.11007	0.16743	0.16213	0.095164	0.23554	0.16215	0.066568	0.32769	0.25076	0.014914	0.26881	-2.4083	-2.9167	-2.7083	-2.7646	-2.9896	-2.7062	-2.9875	-2.9021	-2.4229	-2.9833	-2.6792	-2.7375	-2.9875	-2.6188	-2.7604	-2.9729	183.506	73.163	340.681	317.269	316.290	317.022	338.848	17.698	94.182	196.697	101.776	97.683	59.449	218.909	266.697	82.157	9.0041e-05	0.00012628	0.00017891	221	1.8573e-06	1.7428e-06	324.77	60.656	1.3598e-06	1.732e-06	112.59	35.694	15.696	4.4393	7.8582e-07	12.521	3.6601e-05	3.4815e-05	2.2827e-05	229.93	3.7938e-07	3.7299e-07	337.19	65.748	3.7108e-07	3.6927e-07	111.42	36.847	16.097	4.9688	3.7077e-07	12.754	301.059	82.401	25.591	-6.318	97.315	93.004	-6.348	-0.566	27.193	48.004	-2.032	2.992	4.913	8.334	213.548	7.597	-8191	255	
2783.250	1	1	0	0	0.20189	0.32708	0.25003	0.13074	0.13086	0.04308	0.15691	0.14888	0.05012	0.024255	0.13717	0.22389	0.1078	0.26556	0.20116	0.17007	-2.1188	-2.9729	-2.9646	-2.7521	-3.0646	-2.8563	-2.8875	-2.9917	-2.8583	-3.1688	-2.9375	-2.6167	-2.9625	-2.8167	-2.8396	-3.075	154.446	247.262	277.299	263.243	152.180	109.715	3.821	327.154	-6.622	60.869	43.668	169.937	161.130	23.486	271.484	247.324	9.7669e-05	5.8991e-05	0.00037445	218.98	1.7873e-06	5.4507e-07	322.16	60.204	7.2453e-06	4.5239e-07	111.52	35.706	15.671	4.39	1.2875e-06	12.432	3.6069e-05	3.4157e-05	3.3713e-05	228.37	3.8056e-07	3.7053e-07	334.97	63.431	4.8711e-07	3.8039e-07	111	36.555	16.043	5.1084	3.8184e-07	12.677	278.615	27.051	49.764	-6.837	188.057	60.180	-6.275	-1.276	188.891	238.480	-2.152	2.722	4.165	7.681	276.740	7.253	-8191	255	
2783.347	1	1	0	0	0.22374	0.0056957	0.18451	0.30839	0.2314	0.35341	0.14045	0.12112	0.048896	0.24604	0.15752	0.12756	0.097636	0.086953	0.28439	0.1405	-2.1333	-2.7729	-2.8333	-2.5958	-3.1229	-2.7687	-2.775	-3.0896	-2.6625	-3.0333	-2.8125	-2.7125	-2.9562	-2.7229	-2.6792	-3.125	196.255	104.272	154.805	31.413	292.914	335.740	249.247	320.026	339.425	257.607	237.896	179.085	295.402	267.207	149.756	194.945	0.00014923	0.00014067	0.00023507	220.21	9.0324e-07	1.8174e-06	321.63	60.589	1.1536e-05	2.4081e-06	110.25	35.492	15.676	4.4174	6.056e-07	12.384	3.725e-05	3.4995e-05	2.2812e-05	228.68	3.8441e-07	3.8528e-07	335.45	62.709	1.1857e-06	3.8699e-07	110.78	36.444	16.086	4.9192	3.7946e-07	12.63	284.707	84.729	54.769	-6.589	145.861	103.800	-6.357	-1.266	202.527	130.842	-2.230	3.034	4.667	8.304	88.978	7.036	-8191	255	
2783.443	1	1	0	0	0.19091	0.095859	0.16178	0.1393	0.087073	0.22652	0.23653	0.25974	0.17702	0.11674	0.054459	0.16844	0.076344	0.18518	0.21434	0.12051	-2.2021	-2.8937	-2.9542	-2.6729	-3.1375	-2.8583	-2.6917	-3.1229	-2.8396	-2.9896	-3.0312	-2.675	-2.9708	-2.9271	-2.6208	-2.8688	156.232	328.361	95.720	170.637	45.373	210.598	-18.369	52.672	105.168	316.910	1.817	30.386	109.589	223.472	317.522	314.340	0.00016044	0.00021224	0.0003248	219.64	1.571e-06	1.9868e-07	324.19	59.985	5.5772e-06	1.4778e-06	110.94	35.542	15.828	4.3949	5.0193e-07	12.386	3.8613e-05	3.5662e-05	3.4349e-05	228.89	3.9619e-07	3.9166e-07	335.68	62.69	9.3579e-07	3.8521e-07	110.75	36.493	16.089	5.1409	3.8266e-07	12.692	289.926	99.691	54.201	-6.640	117.138	94.523	-6.303	-1.014	170.992	50.422	-2.182	3.019	4.666	7.763	210.746	6.899	-8191	255	
2783.539	1	1	0	0	0.2852	0.16051	0.077133	0.47231	0.20138	0.20671	0.19297	0.09103	0.043172	0.25807	0.20226	0.13756	0.16434	0.23372	0.083539	0.029253	-2.3208	-2.9333	-2.9604	-2.6104	-2.8708	-2.6979	-2.7458	-2.8646	-2.6167	-2.7417	-2.8854	-2.6063	-2.8625	-2.9146	-2.6771	-3.1375	49.345	195.769	288.627	155.985	105.447	67.654	67.873	87.761	80.910	6.364	130.260	254.190	212.407	221.532	311.180	263.797	0.00012392	0.00011231	0.00018326	221.1	8.7489e-07	2.2465e-06	324.84	60.708	1.0236e-05	4.3575e-07	110.78	35.567	15.702	4.4636	7.5862e-07	12.366	3.8287e-05	3.5282e-05	1.8005e-05	230.53	3.9306e-07	3.9268e-07	337.2	63.035	1.3813e-06	3.75e-07	111.15	36.637	16.119	4.9806	3.9033e-07	12.69	298.824	116.191	20.568	-6.454	159.933	102.261	-6.548	-1.128	220.470	-12.518	-2.000	3.053	4.160	8.375	145.348	6.909	-8191	255	
2783.635	1	1	0	0	0.036575	0.16099	0.14223	0.03185	0.020302	0.15337	0.15348	0.28131	0.20094	0.17096	0.038549	0.21733	0.1075	0.21813	0.10651	0.23827	-2.275	-2.6583	-2.8479	-2.7125	-2.8312	-2.9	-2.6208	-2.8542	-2.8667	-2.7354	-2.9625	-2.6188	-2.7479	-2.8396	-2.6479	-2.9167	33.236	-19.021	261.240	270.390	65.519	-4.146	135.249	306.291	207.335	102.712	166.664	227.107	163.934	222.809	38.742	36.808	0.00015383	0.00014784	3.1132e-05	221.09	1.7076e-06	7.9422e-07	322.87	60.486	8.1544e-06	1.3279e-06	111.83	35.556	15.74	4.4405	1.5198e-06	12.313	3.8068e-05	3.4891e-05	9.9001e-06	236.63	3.8454e-07	3.8635e-07	336.08	62.682	9.6118e-07	3.8153e-07	111.02	36.509	16.069	5.1391	3.8082e-07	12.593	278.309	103.961	95.435	-6.405	111.292	134.377	-6.381	-1.222	220.041	155.113	-2.071	3.387	4.343	7.945	128.097	7.236	-8191	255	
2783.756	1	1	0	0	0.15205	0.14724	0.16477	0.33271	0.22418	0.25785	0.1221	0.22936	0.16861	0.23702	0.025814	0.18801	0.092075	0.1245	0.08149	0.12276	-2.3104	-2.6646	-2.9521	-2.5938	-2.8563	-2.8104	-2.4854	-2.8333	-2.8042	-2.7042	-2.9646	-2.8104	-2.8937	-2.975	-2.5542	-2.9417	-5.236	26.146	150.128	230.563	204.365	222.934	163.089	148.070	279.361	275.097	299.686	301.299	122.691	175.266	217.256	211.413	0.00015327	8.4014e-05	4.8748e-05	220.25	3.0361e-07	7.4284e-07	323.25	60.003	1.1843e-05	9.1878e-07	110.19	35.305	15.674	4.4244	1.6351e-06	12.272	3.7212e-05	3.4756e-05	9.8603e-06	233.4	3.8512e-07	3.7819e-07	335.46	62.685	1.3545e-06	3.7715e-07	110.55	36.378	15.99	4.7964	5.6174e-07	12.556	291.058	57.144	76.094	-6.695	139.802	133.713	-6.492	-1.281	227.088	87.663	-2.373	3.059	4.032	7.786	272.191	7.297	-8191	255	
2783.852	1	1	0	0	0.17803	0.21625	0.098916	0.082079	0.26247	0.13347	0.062887	0.11882	0.21134	0.28405	0.21764	0.26188	0.2314	0.16853	0.15562	0.23617	-2.5312	-2.7833	-3.0979	-2.7667	-2.7833	-2.9354	-2.825	-2.9208	-2.8375	-2.9	-3.0167	-2.8438	-2.7917	-2.8625	-2.6542	-2.9458	263.801	140.256	71.494	264.972	149.956	83.236	203.642	144.648	314.861	60.090	206.991	339.022	146.828	-8.304	46.788	290.016	0.00015915	0.00013402	2.2785e-05	221.01	1.2249e-06	9.2647e-07	322.39	60.226	8.9236e-06	3.6739e-07	111.14	35.113	15.649	4.4324	1.5345e-06	12.258	3.8033e-05	3.5e-05	9.8348e-06	236.72	3.828e-07	3.8092e-07	335.07	62.563	9.4807e-07	3.8235e-07	110.69	36.334	15.94	4.657	1.3009e-06	12.559	288.131	95.666	86.876	-6.404	209.768	253.868	-6.380	-1.288	217.424	27.326	-1.951	2.648	4.574	8.594	277.035	7.307	-8191	255	
2783.923	1	1	0	0	0.090872	0.35558	0.33742	0.072651	0.19806	0.12951	0.1272	0.099907	0.15932	0.15286	0.044021	0.10819	0.12081	0.12389	0.16227	0.16933	-2.3333	-2.7417	-2.7313	-2.9458	-2.8625	-3.1771	-2.7979	-2.8854	-2.8688	-2.8479	-2.9437	-2.8667	-2.7417	-2.9458	-2.6312	-2.8729	112.189	46.347	203.477	304.697	111.576	61.004	239.013	172.097	308.020	80.516	285.519	194.037	111.074	102.933	160.488	198.823	0.00012818	8.3149e-05	1.7666e-05	220.89	1.8329e-06	5.1964e-07	323.81	59.977	1.2436e-05	6.6093e-07	111.4	35.341	15.727	4.4532	9.2035e-06	12.336	3.8502e-05	3.4144e-05	9.7055e-06	233.47	3.8147e-07	3.7875e-07	336.78	62.76	1.3615e-06	3.7001e-07	111.03	36.493	16.01	4.6794	9.4246e-07	12.622	303.123	99.646	122.076	-6.411	133.236	97.639	-6.593	-1.137	228.282	195.779	-1.724	2.976	3.951	8.457	31.904	7.171	-8191	255	
2784.020	1	1	0	0	0.15518	0.18187	0.261	0.14813	0.18219	0.072954	0.22789	0.24389	0.164	0.1068	0.082996	0.10478	0.2206	0.17977	0.18858	0.13938	-2.6146	-2.5167	-3.0792	-2.7417	-2.7646	-3.0583	-2.8667	-2.9646	-2.9396	-2.6958	-2.9875	-2.9188	-2.5729	-2.9479	-2.8625	-2.6583	40.262	227.206	141.143	42.813	110.864	205.931	185.668	28.781	25.242	119.074	197.503	139.050	3.017	211.348	12.951	168.344	0.00015037	8.752e-05	3.6704e-05	221.48	9.9545e-08	1.9354e-06	324.35	60.145	1.895e-06	6.2213e-06	110.99	35.457	15.8	4.4594	1.2093e-05	12.314	3.751e-05	3.4944e-05	9.7021e-06	238.08	3.8568e-07	3.8854e-07	336.8	62.855	6.6168e-07	5.8257e-07	110.83	36.444	16.095	4.6931	1.368e-06	12.606	290.131	140.743	66.783	-6.233	190.475	160.895	-6.262	-1.076	298.139	213.062	-1.670	3.111	3.803	8.544	21.247	7.249	-8191	255	
2784.138	1	1	0	0	0.10948	0.10083	0.28197	0.028788	0.21255	0.051147	0.092089	0.10283	0.033289	0.10614	0.24844	0.068073	0.30572	0.077653	0.17131	0.21665	-2.5708	-2.5062	-2.9437	-2.8812	-2.825	-3.1646	-2.8438	-2.9188	-2.9146	-2.6562	-3.0563	-2.8354	-2.7646	-3.0167	-2.7667	-2.6688	308.787	-5.920	173.625	340.504	208.235	-4.693	152.573	248.547	79.272	286.118	223.026	337.585	14.940	8.475	-14.632	242.811	0.00011932	0.00019758	9.8356e-06	220.77	1.5994e-06	2.0786e-06	325.12	60.197	8.3779e-07	1.1024e-05	111.62	35.388	15.784	4.4287	7.716e-06	12.32	3.7512e-05	3.5209e-05	9.5649e-06	234.02	3.8104e-07	3.9152e-07	337.2	62.983	3.8669e-07	1.3384e-06	111.12	36.459	16.158	4.6858	9.3409e-07	12.62	304.715	80.129	147.396	-6.296	96.653	38.239	-6.212	-1.263	116.082	221.012	-1.961	3.081	3.702	8.670	24.747	7.237	-8191	255	
2784.235	1	1	0	0	0.18347	0.38109	0.17099	0.058912	0.29594	0.12405	0.16264	0.15823	0.19979	0.11967	0.18838	0.18207	0.1814	0.179	0.071811	0.090368	-2.5646	-2.5125	-2.9437	-2.925	-2.7229	-3.1667	-2.8833	-2.6021	-2.9813	-2.7125	-2.8521	-3.0667	-2.4646	-2.9354	-2.9313	-2.6125	126.971	141.823	48.078	333.373	84.319	102.130	298.048	310.274	115.889	78.975	92.731	128.399	72.493	142.629	227.149	53.412	0.00015748	7.7506e-05	2.1014e-05	222.09	8.9774e-07	1.2472e-06	324.22	60.408	6.9056e-07	4.1171e-06	110.76	35.259	15.7	4.4601	1.3089e-05	12.376	3.7806e-05	3.516e-05	9.5772e-06	237.55	3.7747e-07	3.7632e-07	337.39	63.017	3.8563e-07	9.0843e-07	110.95	36.368	16.066	4.6814	1.3361e-06	12.633	284.994	143.086	44.773	-6.370	122.182	150.206	-6.125	-0.766	288.462	248.765	-1.863	2.922	4.155	8.323	35.446	7.139	-8191	255	
2784.331	1	1	0	0	0.24349	0.05727	0.24489	0.1193	0.070196	0.047523	0.088578	0.10652	0.11377	0.23796	0.17959	0.044139	0.014304	0.19224	0.15613	0.10786	-2.7	-2.7042	-2.7708	-3.025	-2.7104	-3.0875	-2.9208	-2.7021	-3.0146	-2.6875	-2.9354	-3.1583	-2.5312	-2.875	-2.8187	-2.7146	283.363	128.457	168.690	320.320	142.740	71.168	42.487	334.459	271.859	63.641	19.923	252.846	42.772	118.981	18.859	285.829	0.00012842	1.2486e-05	4.3726e-05	222.28	6.6336e-06	6.4736e-07	325.38	60.534	1.0164e-06	9.8993e-06	111.07	35.546	15.714	4.4341	8.1365e-06	12.274	3.7591e-05	3.4829e-05	9.6264e-06	231.7	6.0792e-07	3.7892e-07	337.44	63.04	3.9515e-07	1.3264e-06	111.08	36.509	16.066	4.6847	9.2236e-07	12.609	289.268	106.036	54.531	-6.655	178.818	105.014	-6.657	-0.985	141.485	237.061	-1.837	2.962	4.208	8.350	55.105	7.323	-8191	255	
2784.427	1	1	0	0	0.11608	0.13348	0.21018	0.18501	0.11073	0.054131	0.18848	0.27839	0.2655	0.20725	0.36375	0.17278	0.11722	0.069197	0.35519	0.22393	-2.6521	-2.8229	-2.5146	-3.1417	-2.7104	-2.7917	-2.9562	-2.725	-2.9771	-2.8542	-2.7167	-3.0542	-2.6625	-2.8292	-3.0146	-2.5521	-5.794	207.531	335.817	258.961	101.650	276.239	303.835	326.045	187.750	226.969	86.270	272.498	255.099	156.440	286.453	173.425	0.0001841	0.00017185	1.9703e-05	220.78	1.4017e-05	1.9254e-06	324.12	60.218	1.8058e-06	5.242e-06	111.72	35.349	15.654	4.4239	1.3315e-05	12.322	3.7995e-05	3.4962e-05	9.4878e-06	229.03	1.3372e-06	3.6689e-07	336.58	62.825	3.8244e-07	9.236e-07	110.96	36.333	16.025	4.6702	1.3298e-06	12.559	297.480	92.222	101.961	-6.742	149.992	118.000	-6.425	-0.957	106.829	260.001	-1.832	2.784	3.834	8.341	45.209	7.362	-8191	255	
2784.523	1	1	0	0	0.39755	0.38249	0.12118	0.15831	0.22216	0.23142	0.1857	0.21777	0.26064	0.25407	0.27807	0.29324	0.070462	0.21517	0.25434	0.088547	-2.4875	-2.8354	-2.6229	-3.1208	-2.8333	-2.875	-3.0979	-2.6854	-2.9479	-2.7729	-2.6083	-3.0729	-2.5521	-2.8875	-2.9875	-2.6312	121.571	119.157	289.767	336.895	248.404	266.778	43.525	125.411	196.281	300.521	53.561	275.742	112.123	69.074	16.742	262.668	0.00011522	0.00012551	2.8849e-05	220.54	7.7265e-06	6.4014e-07	323.03	61.056	1.8227e-06	9.3586e-06	110.86	35.137	15.75	4.464	7.3815e-06	12.248	3.67e-05	3.4098e-05	9.4052e-06	228.91	9.164e-07	3.665e-07	336.03	63.023	3.8163e-07	1.322e-06	110.82	36.436	16.062	4.7062	5.808e-07	12.752	286.459	133.325	61.704	-6.590	167.474	132.831	-6.366	-0.946	111.594	264.574	-1.770	3.004	3.973	8.300	51.060	7.116	-8191	255	
2784.619	1	1	0	0	0.26274	0.21949	0.13751	0.17088	0.15819	0.22962	0.19475	0.17917	0.20629	0.17742	0.21201	0.26406	0.34482	0.14659	0.1038	0.32078	-2.5208	-3.0229	-2.5521	-3.0104	-2.9083	-2.7896	-2.8396	-2.7125	-2.8458	-3.0583	-2.7313	-3.0896	-2.8104	-2.7208	-2.9917	-2.6917	181.134	148.385	330.844	29.825	218.916	297.319	291.533	136.727	188.399	-13.492	292.050	-17.858	295.209	336.935	300.930	182.101	0.00015041	0.00012302	1.1909e-05	220.89	1.3707e-05	1.0111e-06	324.39	60.79	8.1776e-07	5.5162e-06	112.33	35.393	15.841	4.495	1.8275e-06	12.519	3.643e-05	3.5177e-05	9.2415e-06	229.47	1.3171e-06	3.7654e-07	336.95	63.25	3.917e-07	8.9673e-07	111.77	36.529	16.176	4.7153	3.7368e-07	13.245	287.506	44.762	69.731	-6.492	165.317	185.622	-6.572	-0.939	71.076	280.313	-1.678	3.141	4.093	8.663	121.051	7.074	-8191	255	
2784.715	1	1	0	0	0.27965	0.17871	0.16403	0.047258	0.2747	0.23367	0.052543	0.21743	0.15057	0.22253	0.21161	0.19512	0.040432	0.20436	0.122	0.26404	-2.4604	-3.0417	-2.8125	-2.9708	-2.8708	-2.9667	-3.1479	-2.725	-2.8375	-3.0458	-2.6562	-2.9562	-2.8208	-2.5458	-2.9562	-2.7458	9.079	149.024	74.751	-12.150	278.431	134.394	196.149	232.080	48.713	80.496	324.048	114.585	187.665	29.471	-12.092	9.877	0.00011677	9.3291e-05	2.471e-05	221.93	9.3368e-06	2.4421e-07	326.35	60.834	6.2888e-07	6.4353e-06	113.22	35.493	15.878	4.4898	1.02e-06	12.398	3.7015e-05	3.4272e-05	9.2646e-06	230.85	8.9756e-07	3.6603e-07	338.63	63.259	3.7942e-07	1.2661e-06	112.35	36.564	16.232	4.7068	3.7737e-07	12.977	283.758	91.785	117.509	-6.857	159.052	81.300	-6.429	-1.241	172.616	312.746	-1.654	2.789	4.380	8.776	178.076	6.773	-8191	255	
2784.836	1	1	0	0	0.11431	0.16152	0.12872	0.18445	0.089742	0.153	0.18265	0.16107	0.11246	0.052405	0.33796	0.15153	0.036727	0.13802	0.08064	0.023455	-2.5708	-2.7667	-2.6479	-2.9542	-2.825	-2.8	-3.0375	-2.7979	-2.7	-3.075	-2.6917	-2.9125	-2.8167	-2.6083	-3.0104	-2.8292	340.567	-16.895	37.654	87.784	210.844	273.714	109.248	137.859	168.693	308.209	54.282	194.669	254.571	71.943	326.556	185.788	0.00014354	0.00016439	1.8268e-05	221.54	1.4614e-05	1.2331e-06	324.94	61.063	1.4659e-06	4.3674e-06	111.53	35.275	15.707	4.4804	3.8877e-07	12.335	3.6478e-05	3.4578e-05	9.3207e-06	230.53	1.2786e-06	3.6865e-07	337.98	63.139	3.7325e-07	5.4672e-07	112.96	36.409	16.082	4.6795	3.7331e-07	13.118	276.952	65.968	77.223	-6.581	174.402	138.432	-6.362	-1.189	208.470	2.623	-1.933	2.813	3.877	8.343	131.431	6.903	-8191	255	
2784.932	1	1	0	0	0.16169	0.23508	0.077874	0.16363	0.13613	0.092241	0.093302	0.1304	0.17404	0.084528	0.21065	0.35092	0.2473	0.11682	0.17488	0.079964	-2.4042	-2.9521	-2.5792	-2.9521	-2.8896	-2.6813	-3.1854	-3.0542	-2.7958	-3.1	-2.8438	-2.8854	-2.9104	-2.6167	-3.1542	-2.7438	274.762	174.960	138.620	28.025	99.889	154.869	229.775	235.000	287.275	248.707	168.626	83.288	200.980	192.455	132.059	337.218	0.00014241	0.0001676	5.8534e-05	220.35	7.3837e-06	1.1976e-06	325.39	60.434	1.2177e-06	2.8811e-07	110.39	35.413	15.835	4.4951	8.8334e-07	12.314	3.6852e-05	3.4438e-05	9.4858e-06	229.33	8.6935e-07	3.6119e-07	337.21	63.072	3.7549e-07	3.6266e-07	116.97	36.357	16.133	4.7001	3.7868e-07	12.847	280.663	50.371	14.644	-6.480	178.423	121.703	-6.260	-1.408	140.610	200.727	-2.363	2.835	3.889	8.943	111.221	7.158	-8191	255	
2785.028	1	1	0	0	0.059259	0.11646	0.083168	0.082373	0.13375	0.13158	0.16817	0.041896	0.27357	0.14874	0.17238	0.12563	0.073111	0.24568	0.20858	0.13697	-2.2208	-2.8667	-2.6688	-2.825	-2.9375	-2.6521	-2.9521	-2.85	-2.5	-3.0729	-2.7583	-2.7792	-2.9354	-2.7125	-3.0146	-2.8604	237.479	164.788	325.185	266.240	12.960	334.219	151.790	188.122	29.579	283.353	79.608	188.167	3.571	323.228	-7.717	-2.113	0.00014207	7.7455e-05	1.9852e-05	220.44	6.8289e-06	1.3919e-06	324.32	61.364	7.7887e-07	1.3509e-06	110.97	35.42	15.824	4.4755	2.7324e-06	12.391	3.661e-05	3.4827e-05	9.4961e-06	230.17	1.2195e-06	3.5948e-07	337.55	63.409	3.7424e-07	3.7673e-07	114.34	36.499	16.119	4.6944	3.73e-07	13.147	275.183	198.966	69.908	-6.649	116.271	110.693	-6.566	-1.030	142.616	120.320	-2.214	3.169	4.335	8.740	122.486	6.862	-8191	255	
2785.147	1	1	0	0	0.23083	0.10992	0.13253	0.14686	0.31706	0.096724	0.18318	0.24188	0.10079	0.18937	0.12043	0.10581	0.08887	0.1083	0.17632	0.1669	-2.3896	-3.0042	-2.6375	-2.9688	-2.9813	-2.6021	-3.0333	-3.0729	-2.5958	-2.9396	-2.6854	-2.6958	-3.0312	-2.5354	-2.9146	-3.1188	238.652	130.857	70.105	60.552	96.743	125.956	17.259	248.568	119.389	5.416	76.503	140.165	279.266	31.076	186.557	161.241	0.00017672	8.8345e-05	4.2404e-05	222.49	3.9874e-06	6.7589e-06	325.27	61.225	8.3325e-07	1.538e-06	111.53	35.694	15.841	4.4615	1.6178e-06	12.465	3.5903e-05	3.4415e-05	9.3374e-06	230.95	5.2212e-07	6.3074e-07	338.66	63.542	3.6957e-07	3.757e-07	117.88	36.721	16.225	4.7229	3.7234e-07	12.989	281.507	60.860	72.470	-6.362	123.413	182.413	-6.113	-1.226	281.293	83.966	-2.293	3.319	3.825	8.881	216.355	7.059	-8191	255	
2785.219	1	1	0	0	0.27323	0.13119	0.16279	0.051361	0.042082	0.32487	0.16376	0.14027	0.21321	0.1216	0.020273	0.23102	0.30581	0.25936	0.13734	0.037443	-2.2396	-3.0083	-2.7125	-2.6979	-3.05	-2.7812	-2.9208	-2.9854	-2.6167	-3.1583	-2.8396	-2.75	-2.8646	-2.8604	-2.8271	-3.1188	304.833	305.776	135.672	327.229	50.936	305.833	298.249	333.616	196.829	9.081	82.596	155.112	1.628	38.685	299.309	-15.884	0.00014727	7.7176e-05	1.6888e-05	221.49	8.9907e-07	1.1175e-05	326.65	61.112	1.1837e-06	1.2962e-06	111.26	35.492	15.824	4.4708	1.4498e-06	12.309	3.6398e-05	3.3598e-05	9.4661e-06	230.93	3.7297e-07	1.2601e-06	339.52	63.691	3.7234e-07	3.7262e-07	114.45	36.429	16.136	4.7034	3.7417e-07	13.011	264.362	124.487	88.955	-6.481	146.671	187.043	-6.656	-1.018	64.564	147.248	-2.033	3.046	4.141	8.312	117.392	6.851	-8191	255	
2785.315	1	1	0	0	0.069365	0.10381	0.14238	0.087637	0.14018	0.13543	0.28604	0.072478	0.056545	0.11556	0.098573	0.28135	0.12389	0.15449	0.066702	0.16251	-2.1708	-2.9042	-2.7979	-2.8583	-3.1271	-2.8667	-2.8896	-3.1562	-2.7333	-2.9083	-2.8771	-2.4854	-2.8812	-2.6146	-2.7646	-2.8812	94.451	80.855	89.237	93.696	65.774	-5.081	300.561	160.594	221.138	165.084	182.551	13.067	67.295	307.505	257.942	146.878	8.7989e-05	7.5254e-05	3.4485e-05	220.49	9.5647e-07	7.1848e-06	325.2	60.659	4.597e-07	4.3875e-07	111.46	35.095	15.779	4.4489	3.5305e-07	12.288	3.6274e-05	3.4907e-05	9.6726e-06	229.98	3.7784e-07	8.3186e-07	336.99	63.227	3.7439e-07	3.8196e-07	117.11	36.333	16.079	4.6755	3.7265e-07	12.558	280.119	94.760	183.578	-6.647	147.594	188.979	-6.635	-1.174	132.736	71.287	-1.889	3.129	3.967	8.830	331.185	6.845	-8191	255	
2785.436	1	1	0	0	0.19094	0.13592	0.16297	0.19201	0.21434	0.2639	0.30735	0.18047	0.19491	0.12871	0.21635	0.29282	0.082372	0.054238	0.22334	0.076696	-2.2438	-3.1	-2.8479	-2.45	-2.9646	-2.7125	-2.7479	-3.0479	-2.6542	-3.0917	-2.9396	-2.6958	-2.9062	-2.675	-2.8688	-3.1917	173.063	328.206	177.402	112.051	207.501	331.071	26.862	55.045	137.543	249.357	190.343	259.990	-0.185	312.676	339.387	69.128	0.00020576	0.00011718	8.9212e-06	219.79	2.3934e-06	1.1326e-05	325.68	60.637	3.1695e-07	1.4645e-06	110.53	35.08	15.583	4.472	9.5211e-07	12.095	6.067e-05	3.4029e-05	9.4804e-06	229.58	3.7298e-07	1.2559e-06	337.14	63.085	3.7551e-07	3.7309e-07	113.92	36.199	16.055	4.6609	3.6759e-07	12.45	260.587	66.663	137.395	-6.752	104.581	199.355	-6.323	-0.919	232.581	99.786	-2.488	2.804	4.020	8.076	32.433	7.340	-8191	255	
2785.532	1	1	0	0	0.17749	0.21361	0.2762	0.18499	0.3856	0.12633	0.15841	0.26068	0.20682	0.16938	0.032329	0.3863	0.12608	0.04841	0.054239	0.10628	-2.1583	-2.6562	-2.8875	-2.6521	-2.9354	-2.7062	-2.4583	-3.1042	-2.7583	-2.8854	-2.9854	-2.5583	-2.9292	-2.8521	-2.675	-3.1104	311.227	309.328	-12.198	290.349	266.623	4.498	275.731	219.534	54.509	177.937	261.364	249.519	6.932	284.955	96.400	156.536	0.00036235	9.8047e-05	3.9428e-06	219.33	2.8149e-06	8.1284e-06	324.39	60.681	1.5272e-06	1.1513e-06	111.62	35.009	15.7	4.4872	1.8532e-06	12.225	0.00011493	3.4505e-05	9.5595e-06	229.1	3.7327e-07	8.4743e-07	336.93	63.179	3.8217e-07	3.7144e-07	115.94	36.324	16.133	4.6939	3.6965e-07	12.563	196.727	81.441	133.284	-6.445	138.537	209.477	-6.367	-1.359	67.477	36.524	-2.619	2.950	3.462	8.846	163.541	6.834	-8191	255	
2785.628	1	1	0	0	0.057552	0.08007	0.12175	0.2037	0.23073	0.20898	0.31205	0.093598	0.22343	0.17631	0.31527	0.18282	0.30623	0.077362	0.21392	0.21729	-2.3688	-2.8167	-3.1167	-2.5792	-2.8104	-2.9604	-2.5854	-3.0729	-2.8208	-2.6479	-2.9417	-2.4562	-2.8104	-2.8771	-2.65	-2.9354	214.905	128.769	80.396	246.781	186.681	123.431	314.750	200.582	192.402	25.240	38.781	204.377	243.967	5.972	333.208	300.226	0.00018691	0.00014769	4.1262e-05	220.55	9.108e-07	1.4325e-05	324.28	61.48	1.072e-06	6.8739e-07	111.62	35.486	15.921	4.4642	7.9429e-07	12.278	7.9797e-05	3.3851e-05	9.53e-06	230.18	3.8035e-07	1.2698e-06	337.97	63.466	3.718e-07	3.5575e-07	112.13	36.906	16.15	4.7082	3.662e-07	12.599	219.081	53.755	96.908	-6.852	172.926	202.809	-6.390	-0.805	123.244	162.702	-2.318	2.940	4.055	9.184	112.202	7.652	-8191	255	
2785.724	1	1	0	0	0.15939	0.11202	0.13211	0.10624	0.073773	0.16597	0.04795	0.20078	0.46806	0.062167	0.14317	0.096536	0.23895	0.14537	0.17901	0.28238	-2.2729	-2.7562	-3.075	-2.5354	-3.1167	-2.8729	-2.7687	-3.0792	-2.8063	-2.95	-3.1771	-2.7812	-2.8542	-2.8771	-2.8333	-3.1333	104.095	339.771	66.943	224.807	87.686	23.964	92.422	73.103	74.945	-2.414	9.488	196.607	140.188	47.489	336.110	222.706	0.00034672	0.00014911	3.4856e-05	221.49	1.2749e-06	7.0435e-06	326.42	61.079	1.8968e-06	2.357e-07	111.42	35.262	15.785	4.497	1.2894e-06	12.256	0.00011705	3.3297e-05	9.2627e-06	230.6	3.7836e-07	8.458e-07	338.61	63.404	3.7992e-07	3.5918e-07	111.36	37.677	16.077	4.7226	3.6329e-07	12.582	215.579	91.708	114.849	-6.364	106.934	227.611	-6.594	-1.175	79.046	235.403	-1.556	2.612	3.789	8.494	106.189	7.380	-8191	255	
2785.796	1	1	0	0	0.14355	0.11577	0.16481	0.1142	0.071229	0.0059331	0.078312	0.19392	0.10916	0.33464	0.085543	0.20527	0.10768	0.22428	0.13083	0.20066	-2.4333	-2.5875	-3.0812	-2.5938	-2.8792	-3.1521	-2.7708	-3.0875	-2.9062	-2.8604	-3.05	-2.825	-2.9437	-3.0333	-2.6958	-2.8292	226.775	165.342	283.870	159.191	338.584	111.143	94.504	55.230	121.555	8.509	273.780	313.074	169.162	279.675	308.408	59.662	0.00016342	3.4609e-05	4.9024e-05	220.62	8.3162e-07	7.1803e-07	323.22	61.219	1.2811e-06	5.9546e-07	111.44	35.328	15.851	4.458	1.7904e-06	12.329	7.9054e-05	3.3554e-05	9.5959e-06	230.5	3.732e-07	1.066e-06	338.02	63.525	3.7412e-07	3.6859e-07	111.22	37.152	16.15	4.6937	3.6961e-07	12.538	240.532	130.004	70.621	-6.573	169.376	95.008	-6.058	-0.784	76.201	34.623	-1.723	3.058	4.312	8.779	148.325	7.089	-8191	255	
#DATA ENDS
