BOXY.EXE: ISS Imagent and Oximeter Data Acquisition Program Version 0.80
Ascii Record File

#ACQ INFORMATION
2  Detector Channels 
16  External MUX Channels 
1  Auxiliary Channels 
5000  Waveform (CCF) Frequency (Hz)
1  Waveforms Skipped 
30  Waveforms Averaged 
1  Cycles Averaged 
16  Acquisitions per Waveform 
10.0806  Updata Rate (Hz) 

#FILE INFORMATION
TRUE -- External MUX Channel results are PARSED.
FALSE -- AC DC and Phase are NOT grouped.
TRUE -- Companion Program Settings File CREATED.
FALSE -- AC data not excluded
FALSE -- DC data not excluded
FALSE -- Phase data not excluded
FALSE -- Auxillary Chn. data not excluded
Tab delimiters

#CALIBRATION STATE
TRUE -- Waveform Calibration Values APPLIED.


#AUX CALIBRATION VALUES
Val Type	aux-1	

Term	1.0000e+00	
Factor	0.0000e+00	


#WF CALIBRATION VALUES
A = Detector Channel
Val Type	A-AC1	A-AC2	A-AC3	A-AC4	A-AC5	A-AC6	A-AC7	A-AC8	A-AC9	A-AC10	A-AC11	A-AC12	A-AC13	A-AC14	A-AC15	A-AC16	A-DC1	A-DC2	A-DC3	A-DC4	A-DC5	A-DC6	A-DC7	A-DC8	A-DC9	A-DC10	A-DC11	A-DC12	A-DC13	A-DC14	A-DC15	A-DC16	A-Ph1	A-Ph2	A-Ph3	A-Ph4	A-Ph5	A-Ph6	A-Ph7	A-Ph8	A-Ph9	A-Ph10	A-Ph11	A-Ph12	A-Ph13	A-Ph14	A-Ph15	A-Ph16	

Term	0.00000e+00	0.00000e+00	0.00000e+00	0.00000e+00	0.00000e+00	0.00000e+00	0.00000e+00	0.00000e+00	0.00000e+00	0.00000e+00	0.00000e+00	0.00000e+00	0.00000e+00	0.00000e+00	0.00000e+00	0.00000e+00	0.00000e+00	0.00000e+00	0.00000e+00	0.00000e+00	0.00000e+00	0.00000e+00	0.00000e+00	0.00000e+00	0.00000e+00	0.00000e+00	0.00000e+00	0.00000e+00	0.00000e+00	0.00000e+00	0.00000e+00	0.00000e+00	0.00000e+00	0.00000e+00	0.00000e+00	0.00000e+00	0.00000e+00	0.00000e+00	0.00000e+00	0.00000e+00	0.00000e+00	0.00000e+00	0.00000e+00	0.00000e+00	0.00000e+00	0.00000e+00	0.00000e+00	0.00000e+00	
Factor	1.00000e+00	1.00000e+00	1.00000e+00	1.00000e+00	1.00000e+00	1.00000e+00	1.00000e+00	1.00000e+00	1.00000e+00	1.00000e+00	1.00000e+00	1.00000e+00	1.00000e+00	1.00000e+00	1.00000e+00	1.00000e+00	1.00000e+00	1.00000e+00	1.00000e+00	1.00000e+00	1.00000e+00	1.00000e+00	1.00000e+00	1.00000e+00	1.00000e+00	1.00000e+00	1.00000e+00	1.00000e+00	1.00000e+00	1.00000e+00	1.00000e+00	1.00000e+00	X	X	X	X	X	X	X	X	X	X	X	X	X	X	X	X	

B = Detector Channel
Val Type	B-AC1	B-AC2	B-AC3	B-AC4	B-AC5	B-AC6	B-AC7	B-AC8	B-AC9	B-AC10	B-AC11	B-AC12	B-AC13	B-AC14	B-AC15	B-AC16	B-DC1	B-DC2	B-DC3	B-DC4	B-DC5	B-DC6	B-DC7	B-DC8	B-DC9	B-DC10	B-DC11	B-DC12	B-DC13	B-DC14	B-DC15	B-DC16	B-Ph1	B-Ph2	B-Ph3	B-Ph4	B-Ph5	B-Ph6	B-Ph7	B-Ph8	B-Ph9	B-Ph10	B-Ph11	B-Ph12	B-Ph13	B-Ph14	B-Ph15	B-Ph16	

Term	0.00000e+00	0.00000e+00	0.00000e+00	0.00000e+00	0.00000e+00	0.00000e+00	0.00000e+00	0.00000e+00	0.00000e+00	0.00000e+00	0.00000e+00	0.00000e+00	0.00000e+00	0.00000e+00	0.00000e+00	0.00000e+00	0.00000e+00	0.00000e+00	0.00000e+00	0.00000e+00	0.00000e+00	0.00000e+00	0.00000e+00	0.00000e+00	0.00000e+00	0.00000e+00	0.00000e+00	0.00000e+00	0.00000e+00	0.00000e+00	0.00000e+00	0.00000e+00	1.37173e+01	-1.18228e+02	-1.12758e+02	-1.83080e+02	-7.15389e+01	-7.78103e+01	-1.57142e+02	-1.62015e+02	-8.64581e+01	-8.33328e+01	-1.74681e+02	-1.70893e+02	-1.86226e+02	-1.78823e+02	-6.33234e+01	-1.50760e+02	
Factor	3.86630e-05	1.07672e-04	3.58680e-05	1.52370e-01	1.43992e-06	1.45988e-06	1.51923e-01	5.45124e-02	1.38203e-06	1.18428e-06	1.31598e-01	2.66902e-02	3.84029e-02	8.59656e-03	1.43767e-06	1.22989e-02	8.31094e-07	8.48967e-07	2.35916e-07	7.55567e-02	9.27535e-09	9.30345e-09	7.09969e-02	2.68103e-02	9.28531e-09	9.29857e-09	5.97757e-02	1.26460e-02	1.79984e-02	4.20033e-03	9.30521e-09	5.78123e-03	X	X	X	X	X	X	X	X	X	X	X	X	X	X	X	X	



#DISTANCE SETTINGS
A = Detector Channel
A-1	A-2	A-3	A-4	A-5	A-6	A-7	A-8	A-9	A-10	A-11	A-12	A-13	A-14	A-15	A-16	

2.5000e+00	3.0000e+00	2.5000e+00	3.0000e+00	2.0000e+00	3.0000e+00	1.5000e+00	3.0000e+00	3.0000e+00	3.0000e+00	3.0000e+00	3.0000e+00	3.0000e+00	3.0000e+00	1.5000e+00	3.0000e+00	

B = Detector Channel
B-1	B-2	B-3	B-4	B-5	B-6	B-7	B-8	B-9	B-10	B-11	B-12	B-13	B-14	B-15	B-16	

1.0000e+01	1.0000e+01	1.0000e+01	1.4400e+00	1.0000e+01	1.0000e+01	1.5100e+00	1.9400e+00	1.0000e+01	1.0000e+01	1.9900e+00	2.4900e+00	2.4100e+00	2.9000e+00	1.0000e+01	2.9800e+00	




#DATA BEGINS
time	group	step	mark	flag	A-AC1	A-AC2	A-AC3	A-AC4	A-AC5	A-AC6	A-AC7	A-AC8	A-AC9	A-AC10	A-AC11	A-AC12	A-AC13	A-AC14	A-AC15	A-AC16	A-DC1	A-DC2	A-DC3	A-DC4	A-DC5	A-DC6	A-DC7	A-DC8	A-DC9	A-DC10	A-DC11	A-DC12	A-DC13	A-DC14	A-DC15	A-DC16	A-Ph1	A-Ph2	A-Ph3	A-Ph4	A-Ph5	A-Ph6	A-Ph7	A-Ph8	A-Ph9	A-Ph10	A-Ph11	A-Ph12	A-Ph13	A-Ph14	A-Ph15	A-Ph16	B-AC1	B-AC2	B-AC3	B-AC4	B-AC5	B-AC6	B-AC7	B-AC8	B-AC9	B-AC10	B-AC11	B-AC12	B-AC13	B-AC14	B-AC15	B-AC16	B-DC1	B-DC2	B-DC3	B-DC4	B-DC5	B-DC6	B-DC7	B-DC8	B-DC9	B-DC10	B-DC11	B-DC12	B-DC13	B-DC14	B-DC15	B-DC16	B-Ph1	B-Ph2	B-Ph3	B-Ph4	B-Ph5	B-Ph6	B-Ph7	B-Ph8	B-Ph9	B-Ph10	B-Ph11	B-Ph12	B-Ph13	B-Ph14	B-Ph15	B-Ph16	aux-1	digaux	

2501.883	1	1	0	256	0.15819	0.19783	0.11409	0.20048	0.1845	0.34941	0.34374	0.11301	0.11456	0.3898	0.060869	0.091418	0.18192	0.24378	0.10566	0.22428	-2.7167	-2.9104	-3.2604	-2.8917	-3.1562	-3.1229	-2.8729	-3.2083	-2.7958	-2.8	-3.2271	-2.7917	-3.1854	-3.3312	-2.7667	-3.1354	206.518	260.038	336.044	444.306	285.463	110.506	373.042	158.932	114.207	220.656	136.180	351.529	398.895	388.192	450.366	116.103	0.00067838	0.00014746	0.00010917	1052.8	6.1858e-06	1.7588e-06	1116.2	218.39	4.0794e-06	2.4044e-06	274.67	76.383	59.777	17.052	1.9753e-06	24.331	0.00020277	0.0001998	5.5087e-05	1025.6	2.1893e-06	2.1836e-06	1086.5	213.19	2.1653e-06	2.1662e-06	263.49	75.469	58.459	17.119	2.1844e-06	24.361	323.386	355.626	237.136	111.574	288.121	152.481	111.593	118.721	197.862	224.499	118.363	125.171	125.585	132.070	317.826	131.387	-8191	255	
2501.979	1	1	0	0	0.27845	0.2042	0.24197	0.29398	0.091769	0.095311	0.19303	0.16103	0.20592	0.19316	0.19792	0.16293	0.11314	0.11671	0.25438	0.075563	-2.4208	-2.7396	-2.9938	-3	-3.0271	-3.0833	-3.0375	-3.3375	-3.0375	-2.9604	-3.1021	-2.8375	-2.9604	-3.1625	-2.7271	-3.2687	335.680	308.228	274.485	443.124	306.653	387.343	435.522	397.903	351.411	324.039	321.085	125.012	149.091	400.187	294.452	310.097	0.00065025	0.00013968	7.4382e-05	1051.8	1.5536e-06	1.3886e-06	1119	216.8	2.2833e-06	1.2609e-06	274.02	76.89	60.246	16.792	5.5214e-06	24.182	0.0002064	0.00020381	5.6882e-05	1024.8	2.2361e-06	2.2311e-06	1087.6	213.06	2.2694e-06	2.2371e-06	263.66	75.583	58.752	17.116	2.3194e-06	24.322	317.669	260.516	246.010	111.556	254.401	243.371	111.627	119.059	265.890	198.286	118.414	125.387	125.921	132.622	395.112	131.383	-8191	255	
2502.076	1	1	0	0	0.23762	0.23506	0.19708	0.10912	0.11119	0.395	0.35768	0.17091	0.25404	0.21098	0.21273	0.20812	0.2686	0.14143	0.28019	0.062199	-2.6312	-2.8479	-3.1021	-3.1958	-3.0292	-3.1146	-2.9146	-3.1271	-2.9146	-2.7458	-3.1917	-3.0479	-2.9688	-3.4271	-2.65	-3.0208	174.997	283.600	343.965	118.666	146.894	429.160	395.282	327.355	114.037	307.801	237.431	162.429	126.187	174.886	418.417	125.139	0.00052534	0.00050747	0.00011322	1053.2	6.8641e-06	2.9943e-07	1118	218.68	5.6473e-06	1.7141e-06	275.26	76.949	60.281	16.81	3.6203e-06	24.322	0.00021933	0.00021692	6.0146e-05	1027.4	2.3731e-06	2.3901e-06	1089.6	213.95	2.3956e-06	2.3827e-06	264.87	75.698	59.008	17.17	2.3905e-06	24.443	324.254	382.131	411.873	111.651	288.580	230.543	111.815	118.833	229.650	258.279	118.804	125.161	125.787	132.237	220.187	131.393	-8191	255	
2502.172	1	1	0	0	0.14744	0.10739	0.055467	0.36115	0.30839	0.22859	0.14878	0.28158	0.22974	0.15512	0.086429	0.1737	0.090457	0.097863	0.14831	0.12005	-2.8563	-2.7083	-3.0833	-2.9833	-2.9521	-3.1292	-3.0062	-3.1292	-3.1208	-2.7708	-3.2396	-3.1437	-2.9208	-3.2396	-2.8625	-3	447.346	254.938	331.686	381.861	368.396	325.566	460.303	299.311	202.519	338.650	380.595	133.779	199.995	250.041	105.426	287.225	0.00071558	0.00066266	3.7849e-05	1055.6	2.1197e-06	2.7835e-06	1119.8	217.82	5.6921e-06	3.2531e-06	274.43	76.79	60.493	16.867	7.8185e-06	24.057	0.00022235	0.00021965	6.0754e-05	1030.5	2.3818e-06	2.3953e-06	1089.7	214.06	2.4171e-06	2.3798e-06	265.23	75.848	59.204	17.203	2.4362e-06	24.412	322.615	150.033	273.996	111.259	201.302	267.458	111.460	118.859	213.538	235.835	118.245	125.108	125.466	132.437	268.631	131.300	-8191	255	
2502.268	1	1	0	0	0.13221	0.034323	0.092895	0.14473	0.1129	0.32604	0.25224	0.11899	0.14208	0.21096	0.11771	0.067567	0.20399	0.19642	0.13358	0.11956	-2.6917	-2.9333	-3.175	-3.0938	-2.9583	-3.1208	-2.9813	-3.0229	-3.1146	-2.8604	-3.2167	-3.1583	-2.7458	-3.1271	-3.0083	-3.0042	443.397	306.122	351.240	389.241	373.299	193.500	430.924	152.994	387.424	349.526	197.102	458.025	262.132	272.829	278.825	313.488	0.00046546	0.00032868	8.4509e-05	1054.6	1.4861e-06	5.7459e-06	1121.5	217.98	3.3824e-06	2.8654e-06	274.87	76.567	59.91	16.896	9.2552e-06	24.309	0.00022668	0.00022078	6.1602e-05	1031.7	2.443e-06	2.4018e-06	1091.9	214.55	2.4229e-06	2.4344e-06	265.85	75.833	59.116	17.21	2.462e-06	24.456	320.066	318.195	215.102	111.468	180.230	252.645	111.235	118.989	271.531	227.217	118.557	124.934	125.629	132.481	203.575	131.384	-8191	255	
2502.389	1	1	0	0	0.24621	0.20197	0.14506	0.34031	0.23617	0.16848	0.28041	0.25693	0.16009	0.22598	0.13206	0.16289	0.030605	0.16376	0.18551	0.33337	-2.8271	-2.8438	-2.8312	-3.3021	-2.7938	-3.2208	-3.0687	-2.8396	-3.2083	-2.9062	-3.3167	-3.0354	-2.8146	-3.1375	-2.9583	-2.9062	330.569	261.099	449.330	436.822	420.285	382.691	431.119	369.490	205.882	327.651	273.774	411.758	220.683	315.873	448.220	406.123	0.0005529	0.00016761	8.3295e-05	1061.5	2.6878e-06	3.3714e-06	1125.9	216.95	4.9267e-07	4.0208e-06	275.9	77.169	60.564	16.845	5.0597e-06	24.272	0.00022705	0.0002225	6.2454e-05	1033.2	2.5121e-06	2.4951e-06	1093.7	214.26	2.5059e-06	2.4693e-06	266.53	75.969	59.197	17.221	2.4912e-06	24.457	314.028	143.197	205.624	111.404	230.715	202.173	111.583	118.887	263.247	156.792	118.403	124.952	126.020	132.064	287.935	131.280	-8191	255	
2502.483	1	1	0	0	0.03359	0.070164	0.23111	0.17597	0.20651	0.081799	0.13061	0.1119	0.24856	0.089089	0.069883	0.35958	0.072505	0.13812	0.12036	0.21933	-2.8021	-2.8333	-2.9667	-3.1688	-2.7792	-3.1333	-3.125	-2.8708	-3.0604	-3.0229	-3.0417	-3.1104	-2.7438	-3.1292	-2.8521	-2.8312	396.087	408.246	221.984	130.713	405.385	413.305	418.502	413.035	290.951	154.754	207.557	419.496	334.342	419.060	169.286	114.405	0.00043844	0.00020807	0.00016093	1056.4	1.7578e-06	1.6559e-06	1123.8	217.72	4.7542e-06	8.2018e-07	274.06	76.138	60.335	16.928	3.698e-06	24.209	0.00023195	0.00022959	6.2436e-05	1033.1	2.4955e-06	2.4701e-06	1093.3	214.27	2.4727e-06	2.503e-06	265.75	75.869	59.244	17.248	2.4954e-06	24.518	325.489	410.548	173.248	111.514	326.183	205.701	111.690	119.209	293.541	186.463	118.423	125.416	125.499	132.413	247.717	131.937	-8191	255	
2502.581	1	1	0	0	0.084238	0.032033	0.1297	0.10501	0.070166	0.15904	0.098784	0.18701	0.10417	0.1335	0.19682	0.24067	0.1746	0.25222	0.28696	0.18234	-2.8521	-2.8521	-2.9854	-3.2104	-2.8021	-3.0625	-3.0583	-2.9104	-2.9938	-2.6917	-2.8979	-3.0875	-2.7958	-2.9729	-2.9646	-3.0333	315.460	191.608	333.849	365.340	375.871	198.466	278.244	362.993	205.993	263.910	281.102	201.544	180.525	189.430	316.359	276.711	0.00069288	0.00030727	0.00016109	1056.7	5.2273e-06	2.1471e-06	1125.1	217.71	5.0341e-06	7.4826e-06	274.67	76.477	60.218	16.88	6.1408e-06	24.412	0.00022658	0.00022454	6.1808e-05	1032.3	2.4742e-06	2.4652e-06	1093.6	214.13	2.4769e-06	2.442e-06	266.17	75.839	59.175	17.219	2.4496e-06	24.518	341.465	423.877	286.312	111.392	232.354	367.804	111.438	118.938	186.585	255.852	118.552	125.384	125.336	132.278	377.869	131.113	-8191	255	
2502.675	1	1	0	0	0.030609	0.2547	0.15631	0.23129	0.29737	0.10668	0.27154	0.22877	0.066211	0.02592	0.14436	0.17597	0.39675	0.13201	0.056419	0.29765	-2.7313	-2.7917	-2.9458	-3.2812	-2.7687	-3.0438	-3.0375	-2.8021	-3.0833	-2.9813	-2.975	-3.1937	-2.9188	-3.025	-3.0896	-2.8604	422.201	202.005	293.121	119.803	203.336	161.565	433.740	419.487	430.144	452.283	321.595	298.727	112.820	456.965	357.505	140.805	0.00052351	6.9835e-05	1.6328e-05	1056.1	3.5091e-06	7.6804e-07	1116.6	218.03	5.0826e-06	2.5453e-06	274.44	76.307	60.231	17.004	2.9383e-06	24.076	0.00022968	0.00022563	6.1769e-05	1032.4	2.4622e-06	2.4636e-06	1090.6	214.17	2.4491e-06	2.4558e-06	265.76	75.764	59.069	17.248	2.4469e-06	24.452	323.550	444.197	241.312	111.485	188.185	245.747	111.566	118.592	267.518	161.312	118.359	124.964	125.195	132.230	293.455	131.268	-8191	255	
2502.771	1	1	0	0	0.052898	0.2681	0.20308	0.26364	0.2127	0.24511	0.24261	0.16443	0.17366	0.12114	0.088898	0.11494	0.083524	0.17512	0.081059	0.18496	-2.7646	-2.9437	-2.75	-3.1146	-2.8833	-2.9938	-3.1937	-2.8396	-3.1354	-2.975	-3.0125	-3.3479	-2.9292	-3.0375	-3.1167	-2.8479	186.413	372.389	166.184	444.271	316.310	265.743	363.340	447.240	181.340	352.271	157.412	117.253	430.879	115.368	173.292	313.351	0.00052641	0.00043487	0.00014327	1056.9	8.6987e-06	5.2077e-06	1116.9	218.57	6.7426e-06	2.3512e-06	273.7	76.607	60.631	16.954	5.1536e-06	24.238	0.00022485	0.00022198	6.1279e-05	1031.1	2.4441e-06	2.4452e-06	1091	214.21	2.4763e-06	2.4174e-06	265.58	75.838	59.167	17.192	2.4448e-06	24.506	325.387	153.908	218.878	111.672	171.749	378.394	111.582	118.876	212.189	202.450	118.842	125.474	125.442	132.398	303.489	131.316	-8191	255	
2502.868	1	1	0	0	0.089116	0.16566	0.16837	0.2694	0.075026	0.10923	0.19841	0.28771	0.017506	0.070967	0.11455	0.20302	0.20039	0.19605	0.072477	0.26265	-2.5563	-2.9458	-2.6854	-3.2271	-2.8792	-3.0521	-3.2479	-2.9437	-3.1854	-3.1063	-2.875	-3.2687	-2.9792	-2.9188	-3.2396	-3.0229	324.633	414.227	194.844	416.605	159.646	264.785	405.453	430.402	438.790	441.919	369.264	450.014	148.929	314.742	240.359	458.593	0.00057552	0.00035311	0.00021746	1060	9.1619e-06	2.7627e-06	1122.8	217.68	3.6856e-06	5.5925e-06	272.44	76.636	60.571	16.858	2.5067e-06	24.352	0.00022661	0.00021947	6.1645e-05	1032.5	2.419e-06	2.4218e-06	1090.8	214.17	2.46e-06	2.4199e-06	265.22	75.864	59.256	17.237	2.449e-06	24.471	329.051	138.112	248.555	111.511	215.415	193.823	111.551	118.998	259.347	196.048	118.471	125.282	125.968	132.434	343.387	131.662	-8191	255	
2502.988	1	1	0	0	0.10186	0.18111	0.090283	0.24608	0.1343	0.14032	0.43412	0.072485	0.17086	0.14555	0.099216	0.11917	0.22931	0.25083	0.23742	0.051513	-2.5312	-3.0229	-2.8917	-3.2313	-2.8833	-2.8479	-3.1708	-2.9833	-3.0458	-3.2188	-2.7167	-3.1646	-3.0542	-2.6229	-3.125	-2.7542	254.325	377.869	385.991	417.203	197.053	415.665	395.221	350.203	125.418	162.416	333.290	113.561	244.813	374.741	361.396	456.748	0.00060224	0.00019516	8.7514e-05	1058.1	3.7374e-06	5.7238e-06	1125	218.03	3.9488e-06	1.1883e-06	270.78	76.292	60.37	16.835	3.9667e-06	24.085	0.00022892	0.00022399	6.2647e-05	1031.2	2.4677e-06	2.4807e-06	1093	214.22	2.4682e-06	2.4919e-06	265.02	76.02	59.072	17.211	2.4791e-06	24.475	323.000	276.021	222.940	111.571	259.413	391.997	111.682	118.912	257.822	373.612	118.713	125.001	125.434	132.243	239.061	131.607	-8191	255	
2503.084	1	1	0	0	0.051087	0.046803	0.039355	0.17213	0.061195	0.15594	0.097647	0.18738	0.094961	0.25297	0.41365	0.15528	0.04963	0.31517	0.12771	0.16168	-2.5208	-3.1729	-2.7938	-3.1771	-3.0375	-2.9354	-3.3979	-2.8458	-3.0875	-3.1083	-2.8563	-2.9979	-3.0354	-2.6896	-3.0542	-2.9167	278.217	367.190	411.602	414.314	320.456	428.453	267.345	376.420	231.715	185.980	344.690	382.557	113.091	426.949	237.559	402.052	0.00049715	0.00041237	6.5552e-05	1052.9	4.125e-06	5.1863e-06	1120	216.55	2.868e-06	2.0098e-06	275.15	76.933	60.155	16.931	3.0619e-06	24.261	0.00023021	0.00022377	6.2022e-05	1029.7	2.4456e-06	2.4369e-06	1088.7	213.57	2.4615e-06	2.4458e-06	265.9	76.04	59.085	17.25	2.4886e-06	24.491	305.127	198.941	368.763	111.819	221.179	229.395	111.747	118.903	165.190	211.481	118.684	125.278	125.427	132.198	157.716	131.634	-8191	255	
2503.180	1	1	0	0	0.14369	0.030707	0.10963	0.29169	0.10802	0.095779	0.29036	0.11511	0.11051	0.20993	0.1557	0.21389	0.10103	0.22965	0.22272	0.12026	-2.5646	-3.1146	-2.8187	-3.1375	-2.9104	-2.7708	-3.3271	-2.8479	-2.8354	-3.1333	-2.875	-3.0021	-3.0438	-2.8625	-3.1979	-2.9167	449.176	156.348	373.086	360.389	114.938	151.501	433.474	379.759	389.207	131.455	237.266	130.843	337.217	136.631	137.872	421.804	0.00063197	0.00052189	3.6426e-05	1059.7	6.8711e-06	2.3983e-06	1116.9	218.01	2.8582e-06	2.6795e-06	273.15	76.421	60.179	16.908	1.7334e-06	24.209	0.00023063	0.0002245	6.2617e-05	1032.2	2.4686e-06	2.4667e-06	1089.8	214.04	2.4709e-06	2.4726e-06	265.25	76.034	59.099	17.217	2.4979e-06	24.488	320.282	287.481	403.964	111.738	339.268	144.564	111.467	118.706	284.713	263.763	118.333	125.241	125.792	132.566	211.928	131.696	-8191	255	
2503.277	1	1	0	0	0.13288	0.098887	0.043097	0.091382	0.25348	0.18054	0.03626	0.1834	0.22217	0.088669	0.2037	0.055537	0.26454	0.11497	0.18997	0.23684	-2.4854	-3.2396	-2.9729	-3.2417	-3.1271	-2.8479	-3.2583	-3.0708	-2.8396	-3.1125	-2.8563	-2.9458	-3.1896	-2.9125	-3.1458	-3.025	218.371	419.649	222.213	328.259	369.543	429.444	238.157	101.911	267.386	172.921	324.489	302.548	362.572	209.147	413.417	367.898	0.00052787	0.00017727	0.00019861	1055.5	7.6856e-06	3.4781e-06	1116.6	216.77	4.6138e-06	2.4783e-06	272.69	76.823	60.738	16.871	7.1753e-06	24.106	0.0002338	0.00022797	6.3773e-05	1031.5	2.4941e-06	2.5004e-06	1089.7	213.59	2.5506e-06	2.5112e-06	265.26	75.949	59.107	17.238	2.5159e-06	24.41	323.014	111.222	209.638	111.381	231.197	336.568	111.321	119.106	241.699	308.081	118.423	125.133	125.588	132.486	306.398	131.384	-8191	255	
2503.373	1	1	0	0	0.10996	0.23472	0.224	0.21407	0.21187	0.272	0.25914	0.26448	0.1149	0.079063	0.13429	0.23972	0.25888	0.055919	0.13137	0.18129	-2.4292	-3.0854	-2.7562	-3.1604	-3.1063	-2.9458	-3.2062	-3.2208	-2.6542	-3.2208	-3.0438	-2.9708	-3.2375	-2.9729	-3.1063	-3.3625	439.271	218.142	201.198	309.079	293.609	264.473	395.216	421.718	186.655	285.232	159.670	446.224	377.759	146.415	396.093	275.517	0.0005207	0.00026841	0.00015938	1055	3.1862e-06	2.744e-06	1115.2	217.47	4.4586e-06	3.2633e-06	274.55	76.734	60.536	16.919	6.1777e-06	24.15	0.0002321	0.00022991	6.3193e-05	1030.8	2.5505e-06	2.5264e-06	1089.1	213.87	2.5093e-06	2.5093e-06	265.41	75.813	59.156	17.187	2.5003e-06	24.473	327.885	262.133	436.767	111.502	229.489	261.545	111.516	118.847	209.584	233.470	118.462	125.040	125.546	132.474	260.980	131.550	-8191	255	
2503.469	1	1	0	0	0.15972	0.21454	0.21482	0.35831	0.083166	0.097582	0.33525	0.2386	0.15669	0.161	0.22109	0.09544	0.20808	0.1756	0.30855	0.11549	-2.4458	-3.0938	-2.9646	-3.025	-3.1	-2.6937	-3.1292	-2.9313	-2.7917	-3.1625	-2.9708	-2.9896	-3.1229	-2.9083	-3.1354	-3.1771	105.228	427.878	332.990	419.074	379.937	208.040	407.170	344.992	143.350	296.054	430.006	395.507	333.107	333.267	366.909	386.776	0.00059631	0.00049307	8.7389e-05	1052.6	5.3703e-06	3.1081e-06	1120.1	218.17	5.3567e-06	5.5172e-06	274.65	76.238	59.958	16.894	6.5106e-06	24.117	0.0002332	0.00022853	6.4285e-05	1029.3	2.525e-06	2.5038e-06	1087.6	214.2	2.4935e-06	2.5096e-06	266.06	75.748	59.057	17.212	2.5555e-06	24.492	317.120	210.960	290.352	111.498	243.314	220.969	111.683	118.841	276.136	186.822	118.593	125.335	125.655	132.605	274.973	131.727	-8191	255	
2503.565	1	1	0	0	0.13493	0.27	0.063677	0.14772	0.039109	0.30835	0.29306	0.11922	0.13877	0.089245	0.1932	0.30285	0.11305	0.11642	0.18737	0.16341	-2.2687	-2.9271	-2.9188	-3.0583	-3.1375	-2.925	-2.9437	-3.275	-2.8104	-3.0146	-3.05	-2.85	-2.9875	-2.9104	-2.8542	-3.1292	147.035	169.400	334.749	421.773	136.264	391.729	399.010	369.634	143.357	357.893	118.159	418.578	399.021	227.963	318.959	203.782	0.00059518	0.00037986	0.00013112	1052.4	7.6429e-06	1.2118e-06	1115.4	217.68	4.8314e-06	2.3576e-06	273.41	76.215	60.189	16.848	2.2507e-06	24.189	0.00023716	0.00023371	6.5337e-05	1028.7	2.6174e-06	2.6011e-06	1087.7	213.94	2.5767e-06	2.6054e-06	266.03	75.668	59.184	17.252	2.5713e-06	24.461	321.702	236.413	459.372	111.399	234.780	339.347	111.501	118.838	289.856	250.949	118.358	125.203	125.359	132.252	177.126	131.355	-8191	255	
2503.661	1	1	0	0	0.11357	0.18477	0.11216	0.26818	0.096697	0.094774	0.099823	0.047608	0.19106	0.053887	0.020674	0.34415	0.074219	0.034297	0.16221	0.082729	-2.45	-3.1229	-3.0396	-2.8271	-3.0917	-3.0333	-2.9375	-3.1396	-2.6813	-3.1021	-3.0729	-2.8812	-3.2042	-3.0062	-2.8146	-3.1458	303.057	181.985	365.295	112.621	417.003	139.938	371.327	295.764	131.772	302.936	201.439	353.678	141.831	303.394	406.471	124.076	0.00080384	0.0003856	5.4258e-05	1049.4	8.8899e-06	2.2202e-06	1109.4	216.99	5.2228e-06	1.6812e-06	272.67	75.717	59.878	16.809	9.2283e-06	24.112	0.0002366	0.00023227	6.4399e-05	1026	2.5449e-06	2.5064e-06	1083.5	213.27	2.5201e-06	2.5069e-06	264.93	75.362	59.103	17.165	2.5551e-06	24.425	313.516	200.048	200.006	111.607	266.991	124.526	111.602	118.861	229.925	116.089	118.814	125.277	125.514	131.990	223.474	131.337	-8191	255	
2503.780	1	1	0	0	0.095673	0.19541	0.1596	0.24413	0.34933	0.096274	0.2941	0.027826	0.11036	0.041273	0.32175	0.075823	0.10837	0.10427	0.0325	0.26175	-2.5187	-2.9437	-3.075	-3.0229	-3.1854	-3.0458	-3.1542	-3.275	-3.0208	-2.9313	-3.2229	-2.7292	-3.0563	-2.9854	-2.8187	-3.2542	382.186	253.432	210.355	394.780	229.673	171.670	381.229	114.379	165.903	297.191	110.528	151.854	382.717	180.912	101.565	144.121	0.00048827	0.00033135	0.00011546	1049.8	7.0311e-06	1.8563e-06	1112.4	216.67	4.9897e-06	1.6997e-06	272.88	76.488	60.406	16.867	1.6014e-06	24.226	0.00023649	0.00023329	6.4704e-05	1025.7	2.5414e-06	2.528e-06	1083.8	212.88	2.4916e-06	2.5175e-06	264.67	75.638	58.974	17.161	2.4803e-06	24.439	322.640	281.069	241.668	111.441	219.295	261.464	111.446	119.015	210.253	225.561	118.363	125.112	125.201	132.621	202.391	131.827	-8191	255	
2503.852	1	1	0	0	0.15959	0.20048	0.37983	0.28569	0.08736	0.12502	0.35816	0.17314	0.15066	0.27632	0.31363	0.2133	0.22962	0.24607	0.1512	0.11505	-2.5	-2.9083	-3.1	-3.0208	-3.2313	-3.0563	-2.9396	-3.3083	-2.9979	-3.0458	-3.2313	-3.0021	-3.0458	-3.1375	-2.9062	-3.3292	304.505	444.049	359.454	410.754	278.015	107.725	387.831	426.500	307.810	165.772	240.379	111.213	415.128	102.598	430.077	278.426	0.00054762	0.0001108	0.00012118	1052.6	1.3659e-06	8.9785e-06	1116.6	217.82	5.778e-06	6.6867e-06	273.83	76.652	59.83	16.71	4.6098e-06	24.078	0.00023082	0.00022651	6.257e-05	1026.7	2.4946e-06	2.465e-06	1084.1	213.45	2.5011e-06	2.5071e-06	265.37	75.63	59.008	17.158	2.5585e-06	24.409	330.300	302.633	238.219	111.653	372.775	190.447	111.545	118.946	210.168	305.831	118.352	125.348	126.363	132.401	207.274	132.063	-8191	255	
2503.948	1	1	0	0	0.13284	0.11936	0.14687	0.17341	0.036046	0.02216	0.27047	0.2746	0.22137	0.082177	0.19133	0.16188	0.05276	0.048127	0.16734	0.10351	-2.6479	-2.8604	-3.2479	-3.0646	-3.1625	-3.2125	-3.0542	-3.3542	-2.9396	-2.8896	-3.325	-3.0354	-2.9771	-3.1437	-2.7792	-3.2104	177.481	164.838	442.963	391.972	349.744	411.410	460.481	424.176	185.405	141.862	422.665	331.259	433.519	432.001	169.243	441.953	0.00053339	0.00020395	5.3414e-05	1051.9	4.9244e-06	3.066e-06	1109.7	216.53	6.9362e-06	3.6486e-06	273.11	76.52	60.112	16.819	5.5664e-06	24.254	0.00023791	0.00023769	6.5367e-05	1026.3	2.5917e-06	2.5785e-06	1084.1	213.41	2.586e-06	2.5878e-06	265.03	75.72	59.037	17.186	2.5378e-06	24.436	309.918	241.027	425.280	111.346	280.886	294.784	111.597	119.088	289.747	112.791	118.726	125.013	125.632	131.991	276.389	131.760	-8191	255	
2504.069	1	1	0	0	0.23716	0.12412	0.23464	0.44692	0.26284	0.12307	0.21445	0.062799	0.30114	0.10977	0.10881	0.055935	0.092193	0.11275	0.06991	0.23288	-2.55	-2.85	-3.275	-2.7771	-3.1333	-3.2208	-3.0479	-3.2479	-2.9646	-2.9208	-3.0729	-3.0083	-3.0667	-3.3333	-2.9125	-3.1104	280.613	176.551	213.484	413.968	270.308	313.978	420.055	245.651	400.917	138.863	375.768	321.206	208.105	421.100	159.826	380.742	0.00049099	0.00035125	8.2267e-05	1048.9	1.5779e-06	4.559e-06	1106.9	214.88	4.9775e-06	3.6299e-06	274.33	76.62	59.979	16.864	3.6252e-06	24.072	0.00023435	0.00023025	6.3506e-05	1025.5	2.4852e-06	2.4761e-06	1082.1	212.56	2.4735e-06	2.4305e-06	264.27	75.742	58.806	17.177	2.4612e-06	24.367	303.396	164.314	221.975	111.601	406.607	173.884	111.573	118.891	288.004	197.930	118.966	124.970	126.008	132.257	250.447	131.860	-8191	255	
2504.165	1	1	0	0	0.29049	0.14847	0.15039	0.3447	0.12235	0.15729	0.36711	0.21019	0.15002	0.17414	0.12118	0.33355	0.21601	0.087008	0.15996	0.052507	-2.6333	-2.8187	-3.2146	-2.9917	-2.8937	-3.0979	-2.8271	-3.2125	-2.9688	-2.8792	-3.2812	-2.9167	-2.9437	-3.35	-3.0354	-2.9104	110.666	247.122	313.001	432.374	254.769	287.995	330.632	450.663	296.862	252.758	380.121	397.800	444.320	265.019	203.511	308.439	0.00068635	0.00026946	8.2638e-05	1047	7.4622e-06	3.3753e-06	1109.9	216.77	3.8733e-06	5.6051e-06	274.7	76.391	60.087	16.822	5.5731e-06	24.2	0.00022861	0.00022429	6.2315e-05	1022.6	2.4704e-06	2.4297e-06	1082.2	212.75	2.4555e-06	2.4422e-06	264.97	75.493	58.838	17.115	2.4302e-06	24.394	314.670	211.472	226.966	111.474	279.690	228.085	111.392	119.247	255.320	264.034	118.373	125.126	125.832	132.464	293.221	131.221	-8191	255	
2504.261	1	1	0	0	0.042096	0.049146	0.23652	0.14324	0.076582	0.2488	0.091721	0.27213	0.10624	0.13989	0.09654	0.13746	0.20879	0.21911	0.024483	0.18757	-2.7646	-2.7375	-3.0104	-2.9854	-2.9729	-3.1146	-2.9396	-3.0938	-3.0958	-2.8688	-3.1688	-3.0229	-3.0375	-3.1167	-2.9062	-2.9771	220.099	442.707	407.942	427.958	285.353	246.980	154.193	381.640	341.331	411.623	370.417	392.007	326.543	378.710	128.232	350.590	0.00054562	0.00035791	6.5276e-05	1051.1	2.4415e-06	9.3236e-06	1110.8	216.26	6.1351e-06	4.9245e-06	273.02	76.209	59.937	16.806	4.2241e-06	23.949	0.00022803	0.00022225	6.2158e-05	1024.7	2.4634e-06	2.4034e-06	1082	212.56	2.3919e-06	2.4015e-06	264.55	75.332	58.761	17.105	2.4183e-06	24.313	315.762	207.834	224.626	111.641	285.021	244.006	111.360	119.122	282.539	222.359	118.354	125.063	125.823	132.549	149.563	131.423	-8191	255	
2504.381	1	1	0	0	0.09961	0.10131	0.21116	0.25441	0.055417	0.029767	0.1895	0.42286	0.23012	0.030325	0.073666	0.1941	0.048739	0.12103	0.092146	0.3124	-2.9125	-2.8042	-3.1146	-2.9813	-2.9167	-3.2938	-3.0021	-3.0146	-3.2396	-2.7313	-3.2938	-3.0292	-2.8125	-3.2646	-3.1188	-3.0021	117.017	256.610	444.323	380.516	421.131	166.150	378.119	162.043	307.600	252.393	416.274	430.476	320.744	410.798	276.977	400.895	0.00050783	0.00022735	1.7906e-05	1049.4	4.2392e-06	2.7148e-06	1106.4	216.57	6.9732e-06	4.2012e-06	270.96	76.395	59.749	16.905	2.6744e-06	24.2	0.00022326	0.00021768	6.1105e-05	1023.7	2.4273e-06	2.407e-06	1079.4	212.76	2.4402e-06	2.4376e-06	264.25	75.746	58.953	17.172	2.5009e-06	24.439	325.794	207.844	177.859	111.636	273.794	268.975	111.472	118.798	288.814	257.700	118.488	124.950	125.698	132.402	263.749	131.218	-8191	255	
2504.453	1	1	0	0	0.1196	0.33224	0.093198	0.40425	0.037453	0.35242	0.14618	0.29283	0.26218	0.087847	0.086203	0.14237	0.23311	0.25867	0.23342	0.17632	-2.8458	-2.9104	-2.9167	-3.125	-2.7771	-3.2917	-3.0667	-2.8417	-3.1583	-3.0167	-3.0854	-3.3375	-2.8646	-3.4521	-2.9688	-2.8729	344.072	234.780	268.066	420.997	403.290	143.859	378.035	431.435	101.783	115.359	337.179	390.791	102.813	288.533	338.625	365.816	0.00055296	0.00030941	0.0001665	1049.8	7.6673e-06	6.9304e-06	1112.3	216.96	5.863e-06	4.2005e-06	272.26	76.233	59.973	16.963	6.758e-07	24.211	0.00023326	0.00022986	6.3722e-05	1025.7	2.4846e-06	2.5031e-06	1083.9	212.84	2.5029e-06	2.499e-06	264.23	75.573	58.991	17.194	2.4534e-06	24.418	319.310	266.371	291.243	111.453	284.781	206.485	111.472	119.232	228.175	225.424	118.584	125.344	125.774	132.302	300.187	131.552	-8191	255	
2504.549	1	1	0	0	0.14142	0.029511	0.11939	0.18204	0.31409	0.15931	0.37912	0.15496	0.15646	0.18984	0.17654	0.059028	0.12149	0.16823	0.10227	0.17726	-2.7167	-2.9583	-3.0104	-3.2438	-2.9521	-3.0708	-3.0312	-3.05	-3.1583	-2.9021	-3.0458	-3.2542	-2.9562	-3.3333	-3.125	-2.9292	224.626	104.225	344.494	402.537	440.097	334.060	424.503	355.123	211.967	249.543	421.515	429.625	132.903	318.483	264.291	111.197	0.00067731	0.000392	0.00013311	1050.9	6.7294e-06	4.0352e-06	1110.5	216.72	8.7592e-06	7.5032e-06	273.36	76.258	59.84	16.79	6.1087e-06	24.045	0.00022783	0.00022573	6.2327e-05	1024.3	2.4965e-06	2.5003e-06	1082.6	212.81	2.4925e-06	2.4719e-06	264.55	75.574	58.862	17.095	2.4896e-06	24.389	318.148	231.152	157.435	111.617	284.426	291.302	111.478	118.848	220.050	190.424	118.611	125.313	125.748	132.726	309.112	131.617	-8191	255	
2504.668	1	1	0	0	0.17578	0.1398	0.13787	0.28587	0.23616	0.074526	0.35801	0.12113	0.13483	0.058808	0.13607	0.14263	0.12101	0.183	0.10208	0.22722	-3	-2.8958	-3.0854	-3.3125	-2.8604	-3.2042	-3.4229	-2.8167	-3.3354	-3.0375	-3.0563	-3.3688	-2.7333	-3.0646	-2.9938	-2.9542	105.868	404.494	413.330	386.364	279.481	181.935	417.817	380.283	273.884	422.915	239.898	443.572	324.900	280.623	191.671	405.570	0.00061368	0.00010045	8.6633e-05	1050.6	4.3994e-06	4.0736e-06	1109.8	215.8	2.8774e-06	2.4581e-06	273.96	76.046	59.765	16.723	1.0123e-06	24.161	0.00023201	0.00022537	6.3728e-05	1025	2.5215e-06	2.5092e-06	1082.7	212.57	2.4963e-06	2.5004e-06	264.54	75.639	58.91	17.162	2.4951e-06	24.332	326.839	456.512	420.350	111.565	282.835	287.179	111.375	119.006	171.351	160.945	118.566	125.401	125.513	132.578	235.152	131.062	-8191	255	
2504.764	1	1	0	0	0.11914	0.16788	0.047999	0.18357	0.13514	0.088342	0.15787	0.15096	0.13091	0.26357	0.079796	0.25437	0.13158	0.24321	0.15158	0.14586	-2.4771	-2.9979	-2.9104	-3.2354	-2.9	-3.0542	-3.3875	-2.8958	-3.1437	-3.0375	-2.9854	-3.2583	-2.8521	-3.0417	-3.0646	-2.9688	179.642	369.494	132.786	124.653	134.949	401.988	443.838	105.239	348.245	400.839	409.879	434.837	278.057	459.580	153.691	102.867	0.00049345	0.00020614	7.2993e-05	1048.7	1.0623e-06	2.7304e-06	1109	217.87	1.3752e-06	1.6223e-06	272.82	76.137	59.881	16.918	5.8556e-06	24.11	0.00023123	0.00022834	6.238e-05	1023.8	2.49e-06	2.4959e-06	1081.7	213.17	2.508e-06	2.4968e-06	264.66	75.518	58.788	17.19	2.4609e-06	24.342	330.469	139.691	204.928	111.388	222.333	381.375	111.416	118.935	224.978	315.399	118.601	125.063	125.673	132.309	251.754	131.476	-8191	255	
2504.860	1	1	0	0	0.28237	0.18189	0.062127	0.29378	0.35421	0.27646	0.29396	0.15966	0.20147	0.082768	0.19832	0.24225	0.079043	0.11583	0.10764	0.356	-2.7792	-3.1083	-2.8792	-3.3167	-2.8708	-3.0396	-3.2854	-3.0396	-3.0167	-3.0354	-2.8	-3.2896	-3.1333	-3.1	-3.1937	-2.7875	352.718	189.650	113.794	427.334	456.337	122.888	415.469	101.174	259.979	231.668	407.263	454.200	277.743	365.372	212.325	150.558	0.00071699	0.00010041	0.0001192	1051.1	2.2458e-06	3.0489e-06	1113.5	215.97	5.6381e-06	5.9831e-06	272.14	76.043	59.952	16.861	6.3426e-06	24.015	0.00022937	0.00022724	6.3044e-05	1024.3	2.4914e-06	2.4726e-06	1083.8	212.81	2.5092e-06	2.4902e-06	264.77	75.553	59.04	17.172	2.4727e-06	24.291	315.783	243.060	159.759	111.749	138.080	116.757	111.536	119.044	226.807	263.206	118.768	125.129	125.812	132.330	446.596	131.376	-8191	255	
2504.957	1	1	0	0	0.097152	0.24354	0.26562	0.32704	0.25392	0.12713	0.03874	0.35041	0.089659	0.24135	0.26446	0.30317	0.20112	0.28375	0.12495	0.20697	-2.6813	-3.1125	-2.8312	-3.45	-2.9271	-3.0792	-3.3187	-2.85	-3.0771	-3.2188	-2.8979	-3.1354	-2.9708	-2.8104	-3.2188	-2.8521	291.497	229.588	360.517	448.972	362.476	228.033	402.064	387.455	357.328	350.962	236.074	371.294	339.381	422.376	105.094	436.579	0.00063533	0.00023863	9.2921e-05	1055.6	3.025e-06	3.5178e-06	1117.4	217.48	3.9388e-06	4.3454e-06	274.62	75.89	60.356	16.893	2.9596e-06	24.068	0.00023353	0.00022801	6.335e-05	1027.4	2.5047e-06	2.5113e-06	1084.7	212.91	2.5271e-06	2.4928e-06	264.66	75.584	58.981	17.179	2.5483e-06	24.394	323.221	105.221	286.638	111.535	143.258	317.743	111.572	119.202	221.982	198.422	118.785	125.306	125.717	132.297	268.075	131.562	-8191	255	
2505.077	1	1	0	0	0.20121	0.26461	0.17542	0.16079	0.13528	0.14127	0.30945	0.21417	0.17522	0.14133	0.15764	0.14231	0.12401	0.26	0.14825	0.039187	-2.5375	-3.1937	-2.8729	-3.4271	-2.95	-3.0833	-3.4083	-3.0187	-3.0125	-3.4396	-2.9083	-3.1271	-2.8979	-2.7646	-3.1063	-2.9938	264.525	377.553	420.524	387.492	402.237	414.738	400.774	310.643	174.699	439.604	112.040	124.146	405.051	231.844	235.165	200.386	0.0005132	0.00074827	0.00015055	1051	5.8997e-06	7.6146e-07	1109.6	216.88	5.3432e-06	3.8356e-06	273.62	76.329	59.702	16.965	1.1033e-06	24.035	0.00023557	0.00023277	6.445e-05	1025.7	2.5636e-06	2.5253e-06	1083.2	212.71	2.553e-06	2.5396e-06	265.03	75.609	58.996	17.203	2.51e-06	24.463	323.032	209.710	228.840	111.412	242.453	164.033	111.806	119.098	292.156	242.439	118.414	125.098	125.955	132.525	415.832	131.483	-8191	255	
2505.149	1	1	0	0	0.12945	0.21613	0.21564	0.15641	0.10311	0.1313	0.30249	0.21049	0.26383	0.090242	0.14708	0.084282	0.077674	0.16299	0.10909	0.063753	-2.5375	-3.1063	-2.7	-3.1896	-3.2729	-2.8354	-3.2146	-2.9167	-3.0583	-3.1375	-2.8708	-3.1292	-3.2667	-3.075	-3.1021	-3.0208	257.211	438.794	171.702	456.355	255.949	251.558	366.175	421.585	310.100	222.542	343.034	313.221	215.771	446.929	407.156	311.202	0.00063095	8.0765e-05	5.5614e-05	1048.9	5.5137e-06	3.0462e-06	1110.8	216.36	6.3129e-06	3.9201e-06	273.54	75.974	60.585	16.84	1.9364e-06	24.065	0.00023424	0.00023306	6.495e-05	1025.8	2.5498e-06	2.5607e-06	1083.1	213.03	2.5461e-06	2.5461e-06	265.61	75.575	59.1	17.227	2.5425e-06	24.455	310.580	172.339	108.562	111.527	247.089	194.873	111.839	119.172	229.553	290.812	118.520	125.190	125.883	132.546	357.210	131.530	-8191	255	
2505.245	1	1	0	0	0.17379	0.16178	0.048462	0.044524	0.18897	0.12291	0.18253	0.15518	0.18587	0.18896	0.34069	0.11668	0.25887	0.052274	0.12084	0.096481	-2.3187	-3.1562	-3.0479	-3.2271	-3.075	-2.7021	-3.3417	-3.1542	-2.8917	-3.325	-2.9708	-3.15	-3.1271	-2.9604	-3.1917	-3.0104	374.226	231.381	301.325	224.180	308.774	363.497	142.738	431.613	292.958	397.392	176.596	339.085	406.963	139.529	341.157	290.421	0.00068108	0.00038232	0.00013893	1053.2	7.3026e-06	5.5767e-06	1110	216.03	4.3082e-06	2.0784e-06	273.47	76.565	59.953	16.853	3.2341e-06	24.005	0.00023812	0.00023199	6.4786e-05	1027.5	2.5811e-06	2.5491e-06	1083.4	212.75	2.5899e-06	2.5587e-06	265.57	75.926	58.967	17.231	2.5699e-06	24.465	336.912	197.277	449.910	111.673	297.021	235.601	111.652	118.704	235.793	146.424	118.250	125.315	125.994	132.428	126.422	131.769	-8191	255	
2505.341	1	1	0	0	0.17364	0.12443	0.079275	0.31165	0.064558	0.025922	0.18598	0.1171	0.12175	0.1128	0.012528	0.031275	0.05491	0.073351	0.1008	0.046423	-2.3792	-3.2542	-2.9375	-3.2729	-3.4458	-3.0208	-3.3375	-3.1188	-2.9354	-3.3396	-3.0021	-3.3063	-3.3479	-3.0146	-3.2313	-3.2417	124.082	377.817	225.145	112.602	141.944	321.362	407.542	374.346	185.218	179.048	112.639	422.786	406.539	143.562	105.806	239.061	0.00061362	0.00017336	0.00012961	1049.3	6.9802e-06	4.9753e-06	1110.4	216.2	3.3701e-06	1.3346e-06	274.31	76.315	60.246	16.781	7.5047e-06	24.039	0.00023855	0.00023575	6.5856e-05	1027.6	2.6105e-06	2.6206e-06	1085.8	213.33	2.594e-06	2.5953e-06	266.29	75.863	59.24	17.244	2.6531e-06	24.441	341.041	163.894	179.572	111.562	230.707	196.116	111.583	119.058	218.925	188.620	118.524	125.444	125.634	132.492	320.552	131.809	-8191	255	
2505.460	1	1	0	0	0.26411	0.072949	0.10777	0.046354	0.26019	0.12167	0.23552	0.21691	0.1424	0.2234	0.18099	0.17284	0.20981	0.17494	0.07483	0.17997	-2.3	-3.1958	-2.9521	-3.1375	-3.0396	-2.9375	-3.2521	-3.1958	-3.0167	-3.2438	-3.0417	-2.8979	-3.4167	-2.9813	-3.0625	-3.2896	267.140	446.320	180.938	410.531	217.614	304.252	409.160	424.911	419.474	365.567	398.027	198.543	403.634	127.995	325.879	399.323	0.00053525	0.00011576	4.307e-05	1054	3.5218e-06	3.5836e-06	1115.6	217.23	9.1488e-07	2.0082e-06	275.54	76.471	60.569	16.954	4.6677e-06	24.155	0.0002485	0.0002415	6.6989e-05	1028.8	2.6376e-06	2.6689e-06	1088	213.78	2.6653e-06	2.631e-06	266.75	75.974	59.311	17.293	2.6381e-06	24.462	320.760	187.549	392.329	111.601	267.364	380.810	111.491	119.107	435.672	439.268	118.252	124.987	125.973	132.577	365.370	132.045	-8191	255	
2505.556	1	1	0	0	0.39299	0.024828	0.36739	0.37089	0.086781	0.10391	0.15332	0.21631	0.10893	0.2797	0.16069	0.030634	0.063362	0.28679	0.028684	0.17927	-2.3479	-3.2	-2.9667	-3.0958	-3.2271	-2.8333	-3.2333	-3.3792	-2.9521	-3.075	-3.0646	-2.8958	-3.2062	-2.7812	-2.9313	-3.2021	276.102	159.881	333.025	458.730	357.440	160.876	387.285	346.437	431.050	425.051	402.563	450.479	214.828	376.423	379.784	292.875	0.00063857	0.00031294	0.00014741	1051.7	4.6251e-06	5.1776e-06	1111.9	217.52	5.936e-06	1.5046e-06	272.72	76.985	60.858	16.803	1.0822e-05	24.235	0.00024459	0.00024246	6.7172e-05	1028.8	2.6461e-06	2.6714e-06	1085.5	214.23	2.7082e-06	2.6582e-06	265.91	76.127	59.487	17.274	2.6951e-06	24.539	320.654	224.784	262.713	111.599	278.663	116.008	111.515	118.918	193.402	240.386	118.665	125.198	125.894	132.049	210.634	131.332	-8191	255	
2505.652	1	1	0	0	0.16508	0.094131	0.16467	0.15979	0.20684	0.2617	0.24376	0.079877	0.26422	0.054896	0.17637	0.23108	0.094071	0.083969	0.1768	0.048633	-2.5104	-3.0312	-3.1333	-2.9708	-3.1042	-2.9375	-3.2812	-3.4375	-2.8396	-3.1771	-3.2833	-2.9729	-3.2604	-3.0417	-3.0375	-3.3729	275.298	288.992	246.763	420.417	460.694	144.781	435.166	403.906	290.469	208.554	423.049	392.910	359.542	146.207	369.429	193.137	0.00046417	5.1132e-05	3.8536e-05	1051.6	2.8753e-06	4.7725e-06	1113.8	217.77	4.1872e-06	3.7204e-06	274.72	76.266	60.301	16.805	6.8697e-06	24.009	0.00024665	0.00024317	6.7938e-05	1028.7	2.6624e-06	2.6435e-06	1088.2	214.17	2.6593e-06	2.6451e-06	266.7	75.837	59.407	17.224	2.6623e-06	24.489	328.305	401.538	268.190	111.464	236.909	257.871	111.528	119.060	144.222	359.686	118.082	125.166	125.587	132.777	226.557	131.494	-8191	255	
2505.750	1	1	0	0	0.27348	0.1365	0.089385	0.13324	0.13724	0.086065	0.17634	0.057154	0.085903	0.067359	0.16775	0.15826	0.12653	0.41572	0.22055	0.23017	-2.4417	-3.0417	-3.0604	-2.925	-3.2646	-3.0667	-3.2208	-3.2458	-3.0062	-3.1125	-3.1	-2.85	-3.1437	-2.9667	-3.0771	-3.2458	397.561	422.265	157.038	113.717	289.225	360.625	298.384	396.733	432.733	457.117	432.680	301.898	172.455	423.155	185.009	283.160	0.00070625	0.00012123	4.099e-05	1054.8	5.2773e-06	4.2621e-06	1119.2	217.17	2.7896e-06	1.7225e-06	273.69	76.829	59.843	16.859	3.7702e-06	24.1	0.00024793	0.0002427	6.7209e-05	1028.9	2.6824e-06	2.6855e-06	1089	213.49	2.628e-06	2.6358e-06	266.49	75.933	59.323	17.282	2.6661e-06	24.46	331.364	357.275	455.217	111.546	163.689	216.222	111.441	119.067	248.837	160.907	118.519	125.087	125.397	132.659	205.563	131.639	-8191	255	
2505.845	1	1	0	0	0.15493	0.25724	0.13637	0.32579	0.23436	0.14744	0.18469	0.11533	0.27137	0.048356	0.31676	0.11174	0.077027	0.098176	0.094889	0.1518	-2.4604	-2.9958	-3.0854	-2.9813	-3.2375	-3.0312	-2.9875	-3.3021	-2.9542	-3.0604	-3.2771	-2.8167	-3.0896	-3.0208	-2.8479	-3.3417	287.178	343.224	257.973	131.439	276.948	316.660	445.660	386.716	276.658	450.899	270.456	390.191	378.385	334.231	301.300	141.803	0.00059907	0.00016069	0.00010506	1052.7	6.9707e-06	2.6969e-06	1111.7	216.64	2.942e-06	2.1873e-06	271.24	76.558	60.119	16.884	4.3511e-06	24.124	0.00024438	0.00024277	6.7278e-05	1028.1	2.6724e-06	2.6827e-06	1085.7	213.54	2.6631e-06	2.6511e-06	265.85	75.835	59.274	17.232	2.6351e-06	24.5	321.970	261.204	180.530	111.658	258.068	232.618	111.581	118.956	230.114	217.659	118.616	125.413	125.762	132.551	294.079	131.505	-8191	255	
2505.941	1	1	0	0	0.23733	0.23759	0.17408	0.077858	0.10963	0.13901	0.34382	0.06649	0.17817	0.33849	0.22542	0.053731	0.18941	0.19219	0.18907	0.20501	-2.6271	-2.85	-3.2625	-3	-3.1875	-3.1354	-2.9479	-2.9437	-3.0042	-3.0438	-3.3167	-2.9813	-3.1917	-3.1292	-2.8042	-3.2812	311.886	350.323	121.812	445.728	351.496	257.002	381.667	370.398	215.018	455.626	128.404	346.789	403.352	393.530	190.381	307.793	0.00053863	0.00050868	2.6889e-05	1051.6	5.9759e-06	6.0856e-07	1115.2	216.63	2.2591e-06	4.0154e-06	271.89	76.659	60.278	17.019	4.818e-06	24.185	0.00024676	0.00024449	6.7545e-05	1028.6	2.677e-06	2.6359e-06	1088.4	213.68	2.6753e-06	2.6695e-06	266.62	75.973	59.361	17.313	2.6923e-06	24.567	314.622	202.678	114.597	111.559	211.553	409.367	111.638	119.294	125.157	234.085	118.716	125.226	125.568	132.462	201.155	131.703	-8191	255	
2506.061	1	1	0	0	0.26439	0.072584	0.077821	0.28924	0.13477	0.16458	0.28541	0.15711	0.16761	0.056333	0.13118	0.082039	0.21434	0.22044	0.1366	0.030453	-2.5583	-2.9375	-3.1208	-2.9958	-3.0104	-3.1729	-3.0938	-3.3583	-3.0687	-3.0333	-3.1292	-3.1167	-3.0167	-3.1979	-2.9479	-3.0979	122.550	209.634	280.601	441.099	459.383	186.413	343.322	376.804	113.694	402.481	335.066	341.366	401.868	395.479	309.295	145.207	0.00046888	0.00011744	0.00011267	1051.8	3.2464e-06	5.8655e-06	1115.8	215.92	5.4176e-06	6.6107e-06	275.91	75.97	60.349	16.884	3.019e-06	24.194	0.00025144	0.00024614	6.8567e-05	1029.5	2.7015e-06	2.7084e-06	1086.9	213.7	2.694e-06	2.7081e-06	267.03	75.87	59.252	17.327	2.7106e-06	24.543	320.901	195.511	323.593	111.692	206.372	243.986	111.826	118.990	220.638	181.468	118.781	124.975	125.764	132.499	310.702	131.606	-8191	255	
2506.158	1	1	0	0	0.090675	0.036161	0.19193	0.39759	0.21337	0.025281	0.2562	0.35312	0.049449	0.10322	0.1824	0.1181	0.16985	0.26494	0.071199	0.078985	-2.7438	-2.8	-3.2896	-3.1146	-2.9625	-3.2229	-3.1354	-3.1542	-3.125	-2.8167	-3.1562	-3.1688	-2.9833	-3.2667	-2.8208	-3.2854	351.432	220.261	325.659	413.375	180.923	426.654	400.522	361.690	265.459	209.397	383.602	414.546	394.449	212.895	294.060	449.571	0.00054495	0.000297	4.2871e-05	1051.6	2.6253e-06	2.1163e-06	1113.9	216.06	7.5334e-06	4.7403e-06	273.45	76.625	60.041	16.961	5.4711e-06	24.194	0.00025223	0.0002471	6.9192e-05	1030.2	2.7402e-06	2.7208e-06	1089.2	213.68	2.7128e-06	2.7312e-06	266.84	76.102	59.356	17.301	2.7569e-06	24.603	317.106	276.001	117.695	111.482	429.286	239.579	111.556	119.091	202.339	130.883	117.919	125.108	125.548	132.303	188.975	131.775	-8191	255	
2506.254	1	1	0	0	0.18271	0.1376	0.056554	0.3096	0.1913	0.24236	0.1374	0.22286	0.28575	0.085899	0.13519	0.23822	0.13159	0.16428	0.10652	0.12694	-2.7188	-2.9417	-3.2125	-3.0083	-3.0333	-3.3146	-3.0271	-3.15	-2.9562	-2.7979	-3.2438	-3.0979	-2.7375	-3.2938	-2.8646	-3.1562	389.789	458.166	437.253	412.560	239.195	263.224	365.250	183.899	213.434	135.074	387.329	146.885	428.962	441.864	220.175	247.619	0.00054093	0.00034078	0.00012379	1049.1	6.7086e-06	4.5951e-06	1116.7	217.72	7.1199e-06	2.2623e-06	273.8	76.585	60.073	16.935	7.4099e-06	24.269	0.00025368	0.0002509	7.0032e-05	1029.2	2.723e-06	2.7434e-06	1089.9	213.85	2.7267e-06	2.733e-06	267.5	76.014	59.498	17.383	2.7944e-06	24.619	316.219	161.748	387.927	111.476	248.347	330.772	111.661	118.845	238.246	219.409	118.740	124.896	125.438	132.297	259.020	131.489	-8191	255	
2506.350	1	1	0	0	0.23795	0.14309	0.068019	0.5011	0.057698	0.20784	0.43583	0.06161	0.42142	0.14192	0.06525	0.11085	0.21568	0.12388	0.22647	0.14393	-2.7042	-2.9688	-3.1604	-3.3604	-2.7812	-3.225	-2.9292	-3.1771	-3.2833	-2.9958	-3.3208	-3.2188	-2.7771	-3.0958	-3.0854	-2.9458	441.662	336.085	440.350	111.217	113.418	219.949	380.357	432.204	426.190	266.559	428.543	220.646	132.069	126.671	294.626	458.162	0.00059238	0.00061181	8.477e-05	1052.6	7.0575e-06	4.2981e-06	1114.5	216.29	4.694e-06	1.8894e-06	273.77	76.55	60.393	16.826	4.7011e-06	24.014	0.00025396	0.00025338	6.9604e-05	1031.6	2.7718e-06	2.7354e-06	1088.5	214.33	2.7517e-06	2.7491e-06	267.89	76.123	59.708	17.327	2.7998e-06	24.582	329.359	202.050	226.674	111.490	182.908	214.698	111.286	118.921	239.280	262.605	118.582	124.981	125.026	132.308	231.878	131.629	-8191	255	
2506.446	1	1	0	0	0.33657	0.13839	0.072528	0.15135	0.19262	0.20798	0.061784	0.27423	0.12901	0.097994	0.15379	0.099642	0.21939	0.12699	0.052108	0.17591	-2.8521	-2.8438	-3.0354	-3.2917	-2.7167	-3.2938	-3.3	-3.0667	-3.2521	-2.8958	-3.1937	-3.1333	-2.8396	-3.2208	-2.9292	-2.9667	182.128	122.910	196.738	126.633	157.960	296.451	441.729	402.632	164.801	363.798	130.630	407.431	170.396	334.521	102.668	315.993	0.0006099	0.00028734	0.00011767	1055.1	4.1302e-07	7.4521e-07	1115.4	217.06	3.9319e-06	5.5472e-07	275.74	76.732	59.983	17.06	2.0552e-06	24.228	0.00025982	0.00025677	7.0886e-05	1033.5	2.7909e-06	2.8145e-06	1090.7	214.76	2.8092e-06	2.797e-06	268.18	76.226	59.589	17.422	2.7831e-06	24.625	317.319	219.150	137.080	111.506	249.840	241.434	111.394	118.827	224.963	130.697	118.919	125.144	125.685	131.914	117.369	131.568	-8191	255	
2506.542	1	1	0	0	0.1084	0.12735	0.12935	0.26386	0.17354	0.23217	0.14725	0.21558	0.12585	0.15447	0.21895	0.14408	0.26375	0.09014	0.17156	0.091737	-2.8333	-2.8896	-3.0917	-3.2479	-2.8646	-3.1854	-3.0917	-3.1292	-3.1417	-3	-3.1542	-3.325	-2.9646	-3.1771	-3.1917	-2.8771	322.427	258.547	410.565	398.737	428.394	333.726	331.032	411.614	245.754	226.398	231.951	234.013	255.178	419.129	176.015	328.582	0.00057809	0.00040815	0.000168	1057.7	5.2241e-06	1.6815e-06	1117	217.56	5.828e-06	4.633e-06	273.87	76.914	60.039	16.859	4.6335e-06	24.118	0.00026146	0.00025408	7.1369e-05	1034.1	2.8202e-06	2.8175e-06	1090.8	214.57	2.8166e-06	2.8162e-06	267.96	76.331	59.66	17.366	2.8158e-06	24.559	323.109	110.629	112.446	111.495	403.199	250.644	111.384	118.597	226.778	331.287	118.577	125.093	125.445	132.158	187.417	131.890	-8191	255	
2506.637	1	1	0	0	0.10431	0.16093	0.022756	0.26174	0.046142	0.10248	0.15192	0.15905	0.22265	0.15672	0.18766	0.13388	0.21243	0.15264	0.127	0.29808	-2.7812	-2.875	-2.9479	-3.3354	-2.775	-3.1333	-3.175	-3.1604	-3.3	-3.125	-2.9458	-3.325	-2.9521	-2.9813	-3.1625	-3.0312	260.411	411.295	208.435	435.825	321.897	109.974	380.726	427.844	117.560	424.166	168.799	423.469	432.816	425.782	242.225	387.274	0.00058571	0.00034608	0.00012753	1056.4	4.7111e-06	4.0492e-06	1120	217.42	5.007e-06	4.5509e-06	275.81	76.419	60.016	16.917	3.3044e-06	24.27	0.00025727	0.00025724	7.2025e-05	1032.9	2.8505e-06	2.8323e-06	1092.5	214.42	2.8111e-06	2.8255e-06	268.75	76.195	59.813	17.386	2.8528e-06	24.703	309.944	248.327	206.224	111.650	351.527	305.488	111.511	119.195	244.991	396.368	118.778	124.985	125.632	132.342	366.586	131.495	-8191	255	
2506.757	1	1	0	0	0.16803	0.10098	0.041801	0.17896	0.11711	0.19806	0.32518	0.036662	0.099128	0.21261	0.33018	0.23727	0.12014	0.06324	0.1964	0.11777	-2.8667	-3.0083	-3.0292	-3.3563	-2.9542	-3.2875	-3.4062	-2.9062	-3.1312	-3.1063	-3.0354	-3.4854	-2.9271	-3.1896	-3.4375	-2.9042	448.280	448.225	389.209	452.095	370.442	352.914	441.210	178.578	385.760	274.831	137.404	115.090	373.742	256.316	130.162	208.077	0.0004184	0.00075198	8.2618e-05	1059.7	9.6668e-06	3.0281e-06	1113.7	219.42	4.4448e-06	1.68e-06	275.72	76.849	60.511	17.102	6.286e-06	24.181	0.00026054	0.00025969	7.1256e-05	1036.2	2.8741e-06	2.8468e-06	1092.7	215.34	2.8206e-06	2.7911e-06	268.29	76.292	59.822	17.388	2.7877e-06	24.603	309.853	213.628	222.415	111.601	197.861	450.655	111.268	118.917	335.407	189.487	118.291	125.057	125.676	132.179	258.548	131.181	-8191	255	
2506.853	1	1	0	0	0.23457	0.1317	0.095165	0.049127	0.19945	0.26709	0.12416	0.2978	0.098647	0.09908	0.23664	0.26208	0.11218	0.25923	0.17004	0.11098	-2.85	-2.9	-3.0187	-3.3563	-2.7917	-3.0563	-3.3583	-2.9062	-3.1937	-3.1813	-2.9938	-3.4396	-2.9271	-2.9625	-3.2042	-2.9688	295.307	382.910	185.740	227.713	149.458	163.047	373.814	452.278	241.456	300.929	455.494	140.668	347.413	344.499	459.423	359.665	0.00053884	0.00034136	0.00012907	1057.2	1.2716e-06	5.9915e-06	1108.7	216.87	8.2114e-06	2.1015e-06	275.24	76.39	60.593	16.813	6.0732e-06	24.209	0.00025893	0.00025736	7.0988e-05	1034.5	2.8311e-06	2.7909e-06	1089.3	214.12	2.8e-06	2.8295e-06	268.23	76.275	59.95	17.363	2.8379e-06	24.611	327.386	186.130	289.023	111.561	294.521	331.985	111.659	119.047	175.873	303.448	118.531	125.191	125.298	132.386	223.549	131.581	-8191	255	
2506.950	1	1	0	0	0.086771	0.19996	0.12258	0.47864	0.044166	0.1708	0.28018	0.17555	0.20227	0.21268	0.052299	0.31759	0.12249	0.14591	0.18334	0.06439	-2.6958	-2.9417	-2.6271	-3.2917	-3.0375	-3.0146	-3.2646	-2.9417	-3.1312	-2.9979	-2.7562	-3.3708	-2.9729	-3.0521	-3.0542	-2.9688	184.461	441.353	176.680	421.469	417.823	314.156	406.863	379.406	347.176	438.762	298.707	446.555	130.737	128.104	151.461	397.911	0.00073798	3.2741e-05	7.7195e-05	1060	2.8318e-06	8.8007e-06	1117.9	217.77	6.267e-06	1.1792e-06	272.86	76.602	60.268	16.969	2.9842e-06	24.16	0.00026277	0.00025906	7.1134e-05	1034.7	2.8245e-06	2.8141e-06	1093.5	214.77	2.7869e-06	2.8061e-06	268.53	76.224	59.782	17.355	2.7894e-06	24.602	326.271	454.654	203.569	111.448	256.607	267.521	111.302	118.986	247.240	122.644	118.123	125.000	125.134	132.836	338.443	131.581	-8191	255	
2507.023	1	1	0	0	0.17447	0.085166	0.21289	0.19511	0.36754	0.13028	0.14046	0.11772	0.12538	0.15933	0.19433	0.13878	0.08645	0.10883	0.14595	0.07909	-2.7	-3.2729	-2.9792	-3.2583	-2.8521	-2.9146	-3.3208	-2.925	-3.0583	-3.175	-3.0625	-3.025	-3.0375	-2.9542	-3.1896	-2.8271	238.989	294.458	155.578	329.391	405.403	401.711	401.642	302.449	420.454	284.175	396.602	172.161	133.024	401.843	301.041	401.287	0.00070723	0.00010104	0.00010794	1053.8	1.5593e-06	4.2052e-06	1117.4	217.6	4.1708e-06	2.127e-06	275.27	76.223	59.958	16.921	8.4088e-06	24.171	0.00026117	0.00025682	7.1241e-05	1033	2.8205e-06	2.844e-06	1090.6	214.92	2.8042e-06	2.8025e-06	267.95	76.12	59.571	17.349	2.8181e-06	24.616	328.348	225.328	316.116	111.653	312.961	102.052	111.478	119.046	260.042	203.633	118.440	125.125	124.999	132.492	300.542	131.385	-8191	255	
2507.142	1	1	0	0	0.17271	0.18433	0.058197	0.044654	0.056544	0.14336	0.13057	0.43231	0.16822	0.20901	0.2151	0.1344	0.14715	0.15748	0.17214	0.13742	-2.7812	-3.0896	-2.8333	-3.3646	-3.0312	-2.7938	-3.4167	-2.925	-3.025	-3.2979	-2.975	-3.1229	-3.0854	-2.8396	-3.1688	-2.9813	360.679	313.099	159.205	427.120	377.432	306.385	385.911	401.589	451.122	138.536	354.468	375.594	332.979	303.498	297.589	237.071	0.0005751	0.00022533	0.00011811	1058.8	6.133e-06	6.1494e-06	1123.4	217.57	7.6739e-06	8.7657e-06	276.61	76.461	60.342	16.939	4.1904e-06	24.213	0.00026158	0.00025898	7.3031e-05	1035.9	2.8208e-06	2.827e-06	1094.2	214.8	2.8167e-06	2.7969e-06	268.56	76.146	59.897	17.379	2.8236e-06	24.634	313.996	450.092	278.804	111.542	204.767	230.665	111.585	119.069	276.136	217.588	118.632	124.861	125.834	131.982	373.818	131.234	-8191	255	
2507.238	1	1	0	0	0.10719	0.11703	0.099466	0.42842	0.089791	0.21939	0.12506	0.14973	0.18793	0.12284	0.29734	0.21461	0.26187	0.26703	0.16294	0.11517	-2.5646	-3.2438	-2.9521	-3.2083	-3.0271	-2.9062	-3.4229	-3.0687	-2.8229	-3.3604	-2.8875	-3.0875	-3.1146	-2.9646	-3.0729	-3.0438	453.051	249.282	427.486	393.530	259.762	319.448	329.746	127.195	183.733	234.155	347.990	262.516	235.968	257.249	452.619	277.742	0.00057114	0.00048678	3.7836e-05	1053.1	1.7995e-06	3.1077e-06	1117.9	218.19	2.4046e-06	1.5774e-06	274.08	76.322	60.565	16.895	4.6246e-06	24.245	0.00026054	0.00025618	7.2132e-05	1032.7	2.8286e-06	2.8465e-06	1091.4	214.96	2.8241e-06	2.8292e-06	268.21	76.161	59.744	17.365	2.8231e-06	24.647	321.138	204.257	287.173	111.608	101.515	341.433	111.719	119.043	156.017	236.784	118.418	125.544	125.325	133.082	196.619	131.667	-8191	255	
2507.334	1	1	0	0	0.13879	0.034571	0.14271	0.039906	0.053819	0.15036	0.25362	0.1297	0.047571	0.19283	0.14521	0.13772	0.042037	0.062046	0.1708	0.12563	-2.3542	-3.0896	-2.9542	-3.1	-3.0333	-2.8438	-3.275	-3.2458	-2.8646	-3.2042	-3.0875	-3.0021	-3.3729	-2.8812	-3.1688	-3.1625	182.700	165.661	369.827	434.672	385.339	395.329	389.170	203.166	149.339	199.643	235.447	257.058	265.825	104.146	376.629	359.956	0.00058638	0.00027047	0.00011983	1057.9	9.944e-06	5.9948e-06	1116.5	217.39	1.6845e-06	1.5902e-06	274.62	76.477	59.924	16.959	7.7528e-06	24.216	0.00026257	0.00025471	7.1584e-05	1034.5	2.8159e-06	2.7958e-06	1092.5	214.5	2.7831e-06	2.8156e-06	268.3	76.092	59.564	17.398	2.8083e-06	24.644	320.325	359.474	140.155	111.420	286.773	226.454	111.336	119.089	452.957	171.827	118.536	125.061	125.263	131.920	301.470	131.635	-8191	255	
2507.430	1	1	0	0	0.28587	0.094905	0.15773	0.2174	0.19803	0.14842	0.08587	0.078122	0.21032	0.035911	0.086994	0.14907	0.19086	0.10932	0.03601	0.26446	-2.5083	-3.1521	-2.9292	-3.0979	-3.2604	-3.0021	-3.3208	-3.1271	-3.0833	-3.2146	-3.1125	-3.0896	-3.4833	-2.9479	-3.1417	-3.3396	241.792	146.083	451.091	372.725	377.903	145.868	445.797	405.613	423.565	137.548	333.091	115.781	240.444	382.433	161.348	443.857	0.00064159	0.00058006	0.00015939	1055.6	5.096e-06	1.3304e-06	1116.1	217.35	3.9045e-06	5.7315e-07	274.62	76.619	59.975	16.904	1.2999e-06	24.198	0.00025816	0.00025586	7.1231e-05	1035	2.8018e-06	2.8042e-06	1092.7	214.68	2.8556e-06	2.8431e-06	268.58	76.261	59.847	17.398	2.8234e-06	24.652	317.318	238.773	143.868	111.375	157.811	416.399	111.553	119.158	231.752	242.288	118.490	125.322	125.435	132.099	387.142	131.553	-8191	255	
2507.549	1	1	0	0	0.059519	0.26984	0.063385	0.19341	0.034676	0.0785	0.22729	0.19189	0.050156	0.09398	0.23571	0.11879	0.13368	0.12811	0.17278	0.034795	-2.4542	-3.2854	-2.9854	-2.9938	-3.3854	-2.95	-3.1437	-3.0458	-2.6188	-3.1667	-3.0604	-2.8812	-3.25	-2.9167	-3.0146	-3.1896	396.620	289.454	235.681	430.238	240.538	225.614	436.505	443.138	397.963	306.268	298.303	392.109	145.396	411.159	237.436	145.716	0.00049167	0.00053439	2.3327e-05	1058	4.8787e-06	2.7792e-06	1117.1	217.84	3.1892e-06	6.4092e-06	275.17	76.162	60.47	16.868	7.5947e-06	24.239	0.00026085	0.00025477	7.0925e-05	1035.3	2.7888e-06	2.7668e-06	1091.4	214.83	2.7978e-06	2.7854e-06	268.45	76.109	59.912	17.321	2.82e-06	24.605	312.618	213.521	255.424	111.579	338.018	224.221	111.591	119.131	387.564	268.144	118.454	124.919	125.581	132.789	339.030	131.603	-8191	255	
2507.623	1	1	0	0	0.19931	0.19191	0.22029	0.32443	0.14715	0.30608	0.11902	0.18797	0.035373	0.07444	0.14994	0.32598	0.055795	0.098949	0.10052	0.093963	-2.3375	-3.2042	-3.0958	-2.9708	-3.2125	-2.9437	-3.2375	-3.4333	-2.8271	-3.1708	-3.0687	-2.9146	-3.3292	-3	-2.9979	-3.0854	220.806	284.265	418.589	432.711	210.066	453.017	130.654	421.037	109.718	173.410	407.565	109.608	327.752	456.267	123.126	335.318	0.00056658	0.00043113	0.0002239	1060.2	7.4407e-06	3.4528e-06	1116.4	218.61	6.5117e-06	4.7256e-06	275.43	76.769	60.287	16.97	7.5861e-06	24.143	0.00026124	0.00025833	7.0871e-05	1035.7	2.8256e-06	2.8143e-06	1092.5	215.25	2.8257e-06	2.8083e-06	268.65	76.292	59.664	17.384	2.8082e-06	24.566	314.671	207.556	207.978	111.538	229.413	219.357	111.607	119.027	195.086	150.708	118.510	124.774	125.752	132.338	341.690	131.360	-8191	255	
2507.741	1	1	0	0	0.1906	0.076946	0.046336	0.30176	0.10627	0.068794	0.32943	0.035266	0.0087337	0.22907	0.14837	0.096403	0.034421	0.20962	0.10871	0.10332	-2.3187	-3.1604	-2.9917	-2.9042	-3.0354	-3.0333	-3.1792	-3.2125	-2.8104	-3.1708	-3.075	-2.9667	-3.1354	-2.9813	-2.8729	-3.1625	392.678	347.304	296.975	424.767	158.307	405.230	350.187	360.498	369.039	347.293	456.120	154.924	309.848	167.449	359.700	177.739	0.00053915	0.00021966	0.00017614	1055.2	4.0548e-06	4.1305e-06	1115.9	216.83	4.9616e-06	6.4733e-06	273.65	76.298	59.93	16.866	1.0753e-05	24.117	0.00025949	0.00025883	7.1548e-05	1034.8	2.8497e-06	2.8597e-06	1091	214.91	2.8639e-06	2.8777e-06	268.44	76.223	59.806	17.422	2.9162e-06	24.627	329.451	295.529	207.128	111.593	237.960	296.909	111.433	119.337	126.582	178.649	118.478	124.962	125.474	132.174	274.953	131.568	-8191	255	
2507.838	1	1	0	0	0.26975	0.14571	0.10535	0.25095	0.18342	0.2136	0.22814	0.1667	0.072336	0.47321	0.36744	0.090425	0.09538	0.034089	0.093356	0.18378	-2.5229	-3.1104	-3.0312	-3.0396	-3.0417	-2.9146	-3.1542	-3.1625	-2.85	-3.0271	-3.0208	-2.9354	-3.1146	-2.9875	-2.7354	-3.1125	435.770	310.893	187.326	366.889	233.646	440.595	105.533	460.578	104.361	320.740	436.932	200.333	322.466	267.847	272.822	446.157	0.00051692	0.00044479	0.00014281	1054.2	5.1557e-06	3.6573e-06	1127	218.21	2.7705e-06	3.5203e-06	274.76	76.184	60.343	16.757	3.0185e-06	24.254	0.00026989	0.00026456	7.3932e-05	1035.6	2.9276e-06	2.9182e-06	1096.6	215.32	2.8728e-06	2.8829e-06	269.49	76.363	59.884	17.37	2.8948e-06	24.687	326.903	234.798	294.437	111.569	239.164	244.782	111.452	119.206	288.063	177.496	118.144	125.243	125.544	132.185	424.962	131.756	-8191	255	
2507.934	1	1	0	0	0.22899	0.13033	0.095602	0.11338	0.38716	0.20875	0.29343	0.077392	0.3314	0.082606	0.20025	0.042178	0.09508	0.21549	0.081792	0.11698	-2.425	-2.9042	-3.0667	-2.9167	-3.2417	-3.0229	-2.9375	-3.2438	-2.9396	-3.0521	-3.2896	-2.7833	-3.0042	-3.1542	-2.9521	-3.1917	277.116	128.853	142.542	367.770	437.618	403.199	405.791	390.974	281.668	123.523	200.733	354.719	348.946	108.725	433.281	400.366	0.00061471	0.00050277	0.00014425	1058.3	2.5539e-06	2.2819e-06	1121.2	217.32	1.1051e-06	2.0476e-06	274.86	77.091	60.546	16.993	3.5329e-06	24.16	0.00026714	0.0002606	7.3028e-05	1035.7	2.8335e-06	2.8506e-06	1093.5	215.15	2.9091e-06	2.8858e-06	268.57	76.675	60.075	17.495	2.9347e-06	24.72	323.808	160.972	238.911	111.841	279.488	119.733	111.736	119.013	221.522	297.119	118.261	125.367	125.778	132.335	324.225	131.611	-8191	255	
2508.030	1	1	0	0	0.16117	0.15128	0.21933	0.18413	0.29336	0.18022	0.21857	0.097104	0.075985	0.13635	0.012782	0.22484	0.061062	0.081137	0.28395	0.13875	-2.5312	-2.7687	-3.1688	-3.1063	-2.9542	-3.2188	-3.0208	-3.05	-3.0708	-2.9292	-3.1479	-3.0375	-3.2833	-3.0083	-2.9292	-3.1917	156.329	108.928	374.683	431.064	268.095	282.567	110.459	196.289	414.156	373.283	143.316	419.714	277.440	351.386	441.678	203.791	0.00069006	0.00041816	9.0918e-05	1060.9	2.1754e-06	9.2265e-06	1120.8	218.3	8.3157e-06	4.1409e-06	275.49	76.839	60.104	17.032	5.7848e-06	24.22	0.00027151	0.00027079	7.5877e-05	1041.5	3.0181e-06	2.9979e-06	1100.4	216.2	3.0082e-06	2.9913e-06	270.49	76.805	60.209	17.511	2.9611e-06	24.853	314.876	209.760	138.696	111.593	189.927	326.723	111.509	119.278	280.635	334.394	118.664	125.213	125.564	132.439	283.892	131.396	-8191	255	
2508.151	1	1	0	0	0.087701	0.078464	0.064881	0.21573	0.25089	0.17372	0.35521	0.14096	0.28131	0.14899	0.23783	0.37538	0.055405	0.195	0.2743	0.23089	-2.5792	-2.7917	-3.2417	-2.9542	-2.9938	-3.1667	-3.1042	-3.3792	-3.225	-2.8937	-3.2188	-3.0062	-2.8708	-3.2646	-2.9313	-3.1562	331.032	403.443	386.856	346.010	342.842	307.575	404.104	425.627	125.365	458.426	360.740	432.192	415.276	431.379	415.810	345.214	0.00068152	0.00042677	0.00018393	1063.2	6.4055e-06	2.013e-06	1125	219.21	6.7613e-06	3.3254e-06	276.04	76.961	61.001	16.912	3.9527e-06	24.094	0.00027082	0.00027217	7.4799e-05	1042.4	2.9808e-06	2.9507e-06	1099.5	216.33	2.9445e-06	2.9789e-06	270.26	76.952	60.577	17.541	3.0377e-06	24.845	309.553	205.936	242.513	111.568	207.174	161.436	111.409	118.893	324.957	101.474	118.412	125.275	125.581	132.277	292.895	131.248	-8191	255	
2508.247	1	1	0	0	0.23107	0.30658	0.11089	0.53837	0.23124	0.2714	0.242	0.19111	0.12321	0.26098	0.20325	0.019266	0.15971	0.16813	0.23707	0.10959	-2.7896	-2.8604	-3.2708	-3.1104	-3.0208	-3.2083	-2.9083	-3.1521	-3.1958	-2.8417	-3.1937	-2.8771	-2.9917	-3.0854	-2.8604	-3.1667	358.498	106.481	210.010	440.762	273.463	196.792	101.343	457.089	246.348	193.512	111.504	419.067	360.455	288.071	315.365	356.264	0.00060787	0.00024239	9.2583e-05	1066.4	4.0333e-06	9.0572e-08	1124.5	218.88	6.0736e-06	3.534e-06	275.56	76.641	60.412	17.07	6.1602e-06	24.179	0.00027724	0.00027184	7.5559e-05	1045.7	3.0298e-06	2.9876e-06	1101.2	216.39	2.9605e-06	2.9488e-06	270.48	76.786	60.291	17.526	2.9274e-06	24.787	317.980	108.590	141.089	111.567	220.130	449.204	111.576	118.956	230.313	260.473	118.818	125.226	125.795	132.398	293.157	131.891	-8191	255	
2508.318	1	1	0	0	0.27579	0.38177	0.27517	0.35316	0.19491	0.33811	0.15935	0.10601	0.045591	0.081831	0.23039	0.23228	0.055225	0.04059	0.074002	0.096251	-2.5958	-2.8187	-3.3417	-3.1625	-2.8458	-3.2625	-3.0646	-3.2375	-3.0417	-2.6437	-3.3	-2.9938	-2.9021	-3.1458	-2.8854	-3.0708	250.550	325.143	268.300	408.822	166.043	201.086	181.034	351.560	368.151	432.795	327.908	415.883	265.459	331.731	261.806	456.548	0.00049576	0.00040295	0.0001023	1061.3	1.0225e-06	7.1718e-06	1128.2	219.32	5.3138e-06	1.8279e-06	276.72	76.98	60.892	16.874	1.8559e-06	24.199	0.00027334	0.00026584	7.448e-05	1041.3	2.9086e-06	2.884e-06	1101.6	216.26	2.9223e-06	2.9214e-06	270.33	76.783	60.456	17.503	2.9107e-06	24.871	312.933	399.494	258.443	111.519	229.827	244.983	111.508	119.072	272.230	285.219	118.639	125.114	125.282	132.716	268.561	131.435	-8191	255	
2508.439	1	1	0	0	0.096349	0.074752	0.19141	0.26113	0.21067	0.11657	0.043468	0.32109	0.14195	0.26869	0.099786	0.29469	0.11603	0.16926	0.45303	0.19916	-2.7292	-3.0479	-2.9938	-3.1896	-2.9958	-3.2625	-3.2583	-3.0333	-3.1188	-2.9125	-3.1312	-3.0958	-2.8667	-3.2292	-2.9729	-2.9708	406.443	381.735	267.972	423.570	379.722	264.745	437.336	393.967	355.099	300.324	131.195	310.811	232.714	343.882	282.161	107.144	0.00048731	0.00029628	0.00027966	1066.1	5.0157e-06	1.3089e-06	1123.4	219.26	3.1784e-06	6.9587e-07	278.01	77.349	60.887	17.108	2.397e-06	24.316	0.0002683	0.00026591	7.4221e-05	1046	2.9337e-06	2.9107e-06	1102.1	216.83	2.9198e-06	2.9187e-06	271.29	76.988	60.549	17.623	2.9315e-06	24.864	317.316	329.556	171.718	111.401	308.096	446.953	111.522	119.289	351.227	197.774	118.419	124.676	125.391	132.240	131.763	131.148	-8191	255	
2508.533	1	1	0	0	0.21412	0.10163	0.030109	0.19398	0.12227	0.10407	0.20698	0.20005	0.27215	0.16354	0.071977	0.16416	0.10536	0.12633	0.02423	0.04402	-2.5896	-2.7771	-3.0542	-3.3312	-2.8208	-3.2938	-3.3208	-2.9792	-3.3104	-2.8104	-3.0167	-3.1646	-2.8167	-3.1667	-3.1521	-3.0396	135.029	125.907	404.457	389.488	141.203	348.277	363.837	221.546	429.212	322.031	411.542	164.896	401.316	391.480	116.986	370.930	0.00066897	0.00081403	6.9617e-05	1075.6	2.3606e-06	8.2936e-06	1130.3	218.55	3.1451e-06	1.5886e-06	276.07	77.068	60.903	16.973	7.0811e-06	24.388	0.00027131	0.00027022	7.5063e-05	1048.6	3.0099e-06	2.9804e-06	1105.9	216.63	2.9858e-06	2.9845e-06	270.9	77.155	60.77	17.647	3.042e-06	24.978	334.929	202.325	285.356	111.522	196.191	203.637	111.630	118.937	366.973	269.201	118.257	125.280	125.559	132.298	215.046	131.148	-8191	255	
2508.630	1	1	0	0	0.13988	0.18347	0.16879	0.28124	0.20043	0.13901	0.10247	0.18639	0.33519	0.19899	0.25095	0.055161	0.24384	0.18251	0.1997	0.05917	-2.9229	-2.6979	-3.0021	-3.3229	-2.7958	-3.125	-3.0563	-2.9188	-3.2979	-2.9562	-3.0792	-3.3146	-2.9042	-3.1521	-3.1063	-3.0896	105.532	135.341	148.821	343.436	228.778	413.198	381.179	422.195	189.444	404.457	198.086	207.511	220.232	381.113	444.102	441.756	0.00049385	0.00030946	0.00017229	1070.2	1.2181e-06	6.0414e-06	1127.1	219.76	7.2074e-06	2.4094e-06	278.72	77.451	60.704	17.089	6.5273e-06	24.338	0.00028013	0.00027675	7.7539e-05	1049.9	3.068e-06	3.08e-06	1106.6	217.65	3.0702e-06	3.0763e-06	272.42	77.315	60.926	17.719	3.0893e-06	25.043	318.474	228.872	221.851	111.595	260.320	289.477	111.401	118.908	270.990	290.376	118.647	125.085	125.991	132.107	284.545	131.555	-8191	255	
2508.726	1	1	0	0	0.15767	0.18755	0.19285	0.092268	0.20432	0.39055	0.45007	0.28698	0.12658	0.040822	0.039098	0.23175	0.13839	0.10731	0.15311	0.073177	-2.9104	-2.9792	-2.8292	-3.2896	-2.8458	-3.1604	-3.3063	-2.9437	-3.275	-3.1167	-2.9417	-3.1271	-3.0062	-3.0708	-3.0938	-2.8375	297.444	291.687	331.332	320.345	162.162	239.208	370.667	396.988	133.707	256.095	361.554	444.762	107.039	328.441	140.435	368.839	0.00059731	0.00042768	0.00025592	1073.6	5.4989e-06	2.8914e-06	1134.5	220.61	1.6061e-06	3.3854e-06	276.57	77.467	60.978	17.053	2.6978e-06	24.547	0.00029219	0.00028753	8.0139e-05	1052.6	3.1743e-06	3.1781e-06	1111.5	218.5	3.1739e-06	3.175e-06	272.22	77.619	61.344	17.74	3.1803e-06	25.162	322.465	147.727	239.254	111.564	211.741	224.309	111.159	119.098	324.325	186.788	118.389	125.125	125.416	132.110	243.726	131.308	-8191	255	
2508.846	1	1	0	0	0.10414	0.037903	0.079934	0.16619	0.12425	0.099931	0.25404	0.18398	0.15712	0.1909	0.11875	0.20733	0.2423	0.11116	0.090721	0.16642	-2.8083	-2.9167	-2.8167	-3.3292	-2.9729	-3.1312	-3.2229	-2.8604	-3.1604	-3.0104	-2.9854	-3.4792	-2.8667	-3.1354	-3.1271	-2.7583	232.524	323.603	230.198	392.451	189.323	210.801	421.971	121.118	303.952	429.006	338.982	123.652	340.062	365.693	455.303	252.963	0.00046575	0.0005741	0.00027138	1074.7	9.0001e-07	7.6941e-06	1136.7	220.46	6.6566e-06	4.4695e-06	277.13	77.437	60.629	17.145	5.355e-06	24.58	0.00029475	0.00029317	8.1139e-05	1056.3	3.1941e-06	3.1753e-06	1113.4	218.33	3.1821e-06	3.1558e-06	272.91	77.646	61.013	17.781	3.1491e-06	25.158	307.063	284.190	169.372	111.420	211.936	198.662	111.423	118.853	283.732	207.618	118.324	125.342	125.323	132.362	210.402	131.227	-8191	255	
2508.918	1	1	0	0	0.25733	0.13719	0.13004	0.21362	0.23132	0.11104	0.14334	0.24005	0.051451	0.15965	0.069784	0.039741	0.1201	0.20091	0.11571	0.13856	-2.8625	-3.0625	-3.0146	-3.3792	-2.8563	-3.15	-3.3271	-3.0292	-3.1958	-3.1958	-2.8208	-3.3063	-2.9708	-2.9271	-3.3417	-2.9062	188.771	353.373	215.953	413.080	433.991	397.697	404.539	108.382	136.225	106.487	426.586	321.629	445.451	247.611	231.405	147.824	0.00058863	0.00012356	0.00016463	1079.9	8.558e-06	1.7802e-06	1140.8	220.31	1.3803e-06	1.8368e-06	276.72	77.81	61.343	17.154	9.0909e-06	24.661	0.00028663	0.00028761	7.9359e-05	1057.3	3.198e-06	3.2117e-06	1114.2	219.07	3.2681e-06	3.2512e-06	273.82	78.053	61.515	17.898	3.2572e-06	25.309	315.817	149.989	151.338	111.535	259.068	339.174	111.377	119.049	382.426	369.059	118.350	124.887	125.669	132.281	309.737	131.204	-8191	255	
2509.014	1	1	0	0	0.11653	0.047232	0.21575	0.31789	0.20219	0.20231	0.32367	0.27441	0.14881	0.029587	0.086691	0.093272	0.13851	0.21389	0.12062	0.11602	-2.6646	-3.0271	-2.9354	-3.2875	-3.0833	-2.9688	-3.3792	-2.9667	-3.1125	-3.2979	-3.0167	-3.2292	-3.0667	-2.9583	-3.1063	-3.0333	291.823	282.514	234.533	436.383	372.142	240.716	372.868	344.934	345.632	147.114	327.554	227.639	331.825	331.661	297.951	430.372	0.00058222	3.589e-05	0.00012767	1082.5	6.1552e-06	1.0141e-06	1142.7	220.78	1.0824e-05	2.1604e-06	276.84	77.965	60.975	17.292	5.3575e-06	24.415	0.00030136	0.00029887	8.3072e-05	1060.7	3.2673e-06	3.2788e-06	1119.1	219.44	3.2727e-06	3.2758e-06	274.2	78.209	61.515	17.889	3.2871e-06	25.273	326.556	438.237	291.626	111.428	235.389	452.320	111.317	119.055	240.406	383.311	118.677	125.399	125.495	132.299	186.700	131.560	-8191	255	
2509.110	1	1	0	0	0.22242	0.14028	0.21219	0.15327	0.30633	0.27892	0.25688	0.19622	0.17371	0.048977	0.2078	0.14735	0.18235	0.046362	0.1458	0.10912	-2.5958	-3.0563	-2.65	-3.3125	-2.9229	-2.8875	-3.3354	-2.9583	-3.2104	-3.2146	-2.7667	-3.2333	-2.9375	-2.8021	-3.2667	-2.8896	413.320	163.772	273.944	378.212	376.674	314.859	423.927	371.609	406.152	427.595	170.576	320.724	273.776	453.396	440.414	128.356	0.00057354	0.00021052	1.2864e-05	1083.6	6.5423e-06	6.9525e-06	1148.3	221.85	3.4027e-06	4.4374e-06	279.28	77.824	61.304	17.274	7.4153e-06	24.594	0.00030376	0.00030018	8.2768e-05	1063.2	3.3152e-06	3.3096e-06	1121.9	219.69	3.2778e-06	3.2847e-06	274.77	78.034	61.555	17.896	3.3084e-06	25.305	325.272	180.231	219.216	111.493	251.557	302.381	111.300	119.049	129.736	242.191	118.567	125.309	125.564	131.967	305.883	132.047	-8191	255	
2509.231	1	1	0	0	0.088721	0.08788	0.10108	0.092681	0.26404	0.099523	0.36911	0.2336	0.15103	0.12185	0.28242	0.27908	0.12742	0.23705	0.32506	0.26886	-2.5521	-3.0292	-2.6979	-3.325	-2.9833	-3.0729	-3.3875	-2.9917	-2.9792	-3.1063	-2.6979	-3.2292	-3.0604	-2.9521	-3.3042	-3.1646	141.604	147.768	362.997	429.220	376.650	290.955	403.529	391.262	231.157	362.880	201.668	399.353	276.633	392.548	239.391	432.406	0.00041743	0.00036554	8.3522e-05	1077.6	8.3277e-06	2.1666e-06	1140	223.09	3.738e-06	6.3672e-06	278.65	78.279	61.702	17.154	5.5962e-06	24.612	0.00030169	0.00030275	8.3254e-05	1061.9	3.2819e-06	3.2751e-06	1118.5	219.95	3.3086e-06	3.3027e-06	274.49	78.239	61.85	17.872	3.3071e-06	25.326	312.448	213.827	197.644	111.650	279.417	182.542	111.337	118.554	185.190	306.175	118.111	124.984	125.522	132.002	268.945	131.621	-8191	255	
2509.327	1	1	0	0	0.073648	0.24404	0.095428	0.16456	0.17313	0.12505	0.17724	0.30337	0.089488	0.16538	0.11094	0.13936	0.16065	0.11995	0.1448	0.41651	-2.575	-3.0604	-2.6854	-3.0604	-3.1708	-3.0792	-3.3833	-3.0208	-2.9042	-3.1375	-2.9479	-2.9562	-3.1146	-2.7938	-3.0583	-2.9688	331.402	302.803	415.425	377.547	437.898	460.190	326.238	124.581	160.143	135.021	418.529	142.814	450.792	458.057	211.770	369.957	0.0006147	0.00044304	1.5751e-05	1085.6	5.6987e-06	4.1264e-06	1144.1	220.75	4.9385e-06	4.705e-06	277.93	77.55	61.059	17.234	2.7387e-06	24.484	0.00030666	0.0002997	8.378e-05	1065.6	3.2859e-06	3.2486e-06	1120.1	219.91	3.2612e-06	3.2395e-06	274.11	78.039	61.5	17.871	3.1744e-06	25.257	317.647	422.956	180.433	111.303	224.749	290.620	111.293	119.125	181.736	215.202	118.407	124.583	125.791	132.223	193.460	131.442	-8191	255	
2509.423	1	1	0	0	0.069548	0.09618	0.1227	0.3424	0.26642	0.18091	0.39656	0.14314	0.1592	0.30794	0.3124	0.2778	0.2521	0.30615	0.15833	0.2395	-2.5187	-3.2771	-2.8854	-3.2188	-3.0396	-2.8958	-3.4104	-3.0938	-3.0938	-3.3083	-3.0083	-3.0208	-3.2938	-2.9479	-3.2667	-3.1125	113.261	104.325	238.369	373.086	108.231	445.255	356.309	441.026	319.337	291.182	389.159	438.223	113.782	101.251	339.411	132.255	0.00062005	0.0004336	0.00016331	1084.6	5.9405e-06	5.3953e-06	1146.2	221.14	6.2285e-06	1.6301e-06	278.56	78.346	61.243	17.195	8.9808e-06	24.384	0.00029666	0.00029048	8.1113e-05	1063.1	3.1387e-06	3.163e-06	1121	219.47	3.1878e-06	3.2021e-06	274.76	78.262	61.484	17.866	3.1858e-06	25.261	323.799	235.110	276.560	111.469	346.918	232.069	111.412	119.104	396.811	386.897	118.749	125.187	125.075	132.045	289.464	131.551	-8191	255	
2509.544	1	1	0	0	0.20404	0.16144	0.10343	0.2862	0.022148	0.046515	0.054274	0.18684	0.083855	0.33339	0.058683	0.23278	0.083382	0.20689	0.14795	0.16698	-2.375	-2.9875	-3.0062	-2.9604	-3.2646	-3.0021	-3.2604	-3.1792	-2.8812	-3.1854	-3.0729	-3.0021	-3.2896	-2.9646	-3.1583	-3.0958	380.665	125.630	391.809	136.572	156.483	121.087	335.484	123.065	183.913	177.311	460.138	139.248	372.782	234.928	169.754	194.203	0.00049044	0.00032268	8.29e-05	1089.7	3.6215e-06	4.5136e-06	1147.9	222.41	1.2512e-06	1.1451e-06	279.04	78.386	61.763	17.067	1.015e-05	24.579	0.00029752	0.00029505	8.3056e-05	1065.9	3.2694e-06	3.2481e-06	1124.2	220.21	3.258e-06	3.2857e-06	274.86	78.304	61.737	17.818	3.2744e-06	25.335	317.334	204.097	331.579	111.291	174.302	267.639	111.434	119.028	342.615	139.290	118.573	125.028	125.216	132.254	290.789	131.343	-8191	255	
2509.614	1	1	0	0	0.20296	0.05185	0.053989	0.33942	0.12135	0.009957	0.27081	0.24274	0.17815	0.12378	0.079442	0.074345	0.079742	0.24684	0.15448	0.15855	-2.4354	-3.0896	-3.1312	-3.1688	-3.1312	-2.9604	-3.2438	-3.1625	-2.8542	-3.3667	-3.0896	-3.0563	-3.2917	-2.9646	-2.9625	-3.1813	335.482	144.598	321.967	435.155	261.494	142.063	363.551	405.698	439.446	400.367	326.422	420.583	435.235	205.258	228.776	349.673	0.0007595	2.743e-05	6.5308e-05	1085.7	7.7627e-06	6.9758e-06	1147.9	222	4.3569e-06	5.6546e-06	278.65	78.324	61.56	17.275	5.886e-06	24.807	0.00029945	0.00029758	8.2464e-05	1063.3	3.2648e-06	3.2581e-06	1123.6	220.68	3.2229e-06	3.2235e-06	274.17	78.277	61.752	17.895	3.2199e-06	25.372	320.566	356.591	404.486	111.360	273.648	308.697	111.504	118.888	224.422	212.841	118.341	125.121	125.326	132.026	237.144	131.017	-8191	255	
2509.712	1	1	0	0	0.10067	0.25154	0.17646	0.057738	0.20634	0.10233	0.30383	0.31696	0.099703	0.18899	0.047275	0.31982	0.071619	0.07354	0.22805	0.073083	-2.4875	-3.1771	-2.9292	-3.0563	-3.2	-2.9729	-3.1604	-3.2833	-2.9188	-3.1708	-3.1583	-3.1396	-3.3021	-3.1646	-3.0125	-3.2604	258.417	138.795	143.939	398.076	107.697	433.138	401.820	383.887	380.201	182.392	456.632	377.763	410.853	438.210	194.883	381.111	0.00053731	0.000322	5.4354e-05	1084.1	4.9521e-06	8.5825e-07	1147	222.12	3.3055e-06	6.2702e-06	279.04	78.455	61.968	17.217	6.551e-06	24.67	0.00029674	0.00029567	8.261e-05	1064.1	3.2406e-06	3.2239e-06	1122.5	220.03	3.2246e-06	3.2165e-06	275.12	78.341	61.729	17.919	3.2251e-06	25.352	315.289	209.641	390.494	111.423	260.985	284.183	111.362	119.021	204.799	268.696	118.405	125.069	124.881	132.270	309.883	131.519	-8191	255	
2509.831	1	1	0	0	0.20988	0.092369	0.10031	0.10204	0.14896	0.26365	0.30252	0.035469	0.23629	0.17871	0.071773	0.091858	0.23512	0.23476	0.1746	0.074938	-2.4854	-3.0979	-3.0854	-3.0583	-3.1271	-3.0521	-3.1083	-3.3042	-2.9042	-3.3104	-3.2021	-2.8979	-3.2958	-3.0021	-2.7938	-3.3688	436.911	137.402	178.707	354.580	381.381	120.517	386.356	373.275	134.209	273.781	452.905	202.824	419.386	379.618	237.050	431.065	0.0004077	3.3171e-05	0.00025862	1081.4	4.8005e-06	1.9709e-06	1146.9	221.36	9.1464e-07	5.2916e-06	278.89	77.615	61.592	17.182	5.9894e-06	24.559	0.00029582	0.00029713	8.2394e-05	1063.3	3.2398e-06	3.2659e-06	1124.1	220.12	3.2302e-06	3.2192e-06	274.65	78.257	61.738	17.897	3.2629e-06	25.33	329.965	341.606	242.526	111.425	281.276	123.546	111.258	119.097	320.765	325.113	118.591	124.867	125.473	131.886	256.375	131.410	-8191	255	
2509.927	1	1	0	0	0.23519	0.26272	0.065205	0.25224	0.098088	0.059948	0.20438	0.21791	0.16038	0.20685	0.13	0.13519	0.15057	0.048664	0.16802	0.12345	-2.5771	-2.975	-3.2917	-2.9917	-3.275	-2.9333	-3.1583	-3.1729	-2.9021	-3.1063	-3.4042	-2.8854	-3.1875	-3.2	-3.0708	-3.3625	394.845	331.849	282.257	424.475	185.896	445.596	411.821	418.244	395.460	449.210	110.432	401.770	443.728	458.681	385.957	390.563	0.00059534	0.00033253	0.00013339	1081.5	7.1479e-06	1.7054e-06	1144.6	221.64	3.1342e-06	7.2457e-06	279.3	78.215	61.392	17.101	2.1454e-06	24.581	0.00030162	0.00030054	8.3346e-05	1064	3.3116e-06	3.2902e-06	1123.8	220.75	3.3483e-06	3.2884e-06	275.17	78.379	61.873	17.914	3.3396e-06	25.344	326.452	262.579	126.222	111.423	386.359	455.449	111.459	119.014	146.002	314.655	118.456	125.356	125.894	132.281	300.905	131.783	-8191	255	
2510.023	1	1	0	0	0.025783	0.12212	0.22661	0.082846	0.26318	0.067579	0.18874	0.1186	0.14022	0.1686	0.14206	0.17961	0.26777	0.12756	0.068824	0.24088	-2.5583	-2.9625	-3.1896	-3.0396	-3.2854	-3.1292	-3.1875	-3.2104	-3.1396	-3.1792	-3.3042	-3.1271	-3.1792	-3.2083	-2.8	-3.4104	404.605	453.273	407.136	425.217	170.573	273.944	389.837	377.185	335.433	339.554	398.890	341.477	185.736	312.607	101.389	422.597	0.00065714	0.0002561	0.00011936	1084.4	7.6129e-06	6.1864e-06	1151.3	222.25	1.5534e-06	3.4135e-06	277	78.158	61.825	17.281	2.9006e-06	24.518	0.00030507	0.00030329	8.4701e-05	1066.3	3.3212e-06	3.3514e-06	1126.6	220.82	3.3027e-06	3.2799e-06	275.02	78.12	61.829	17.903	3.2899e-06	25.404	330.797	322.717	202.672	111.332	290.410	147.920	111.428	118.828	115.975	331.585	118.070	124.829	125.712	132.397	302.295	131.669	-8191	255	
2510.119	1	1	0	0	0.23898	0.2922	0.099493	0.027766	0.28129	0.11301	0.19085	0.25474	0.11662	0.41119	0.079936	0.12553	0.07688	0.18967	0.14647	0.077516	-2.625	-2.775	-3.2167	-3.1375	-3.0729	-3.1521	-2.9688	-3.0917	-3.1104	-3.0521	-3.1875	-2.9	-3.0896	-3.0438	-2.7812	-3.0958	396.082	329.507	372.024	357.738	242.418	134.355	396.905	406.910	448.441	178.156	365.879	378.802	250.629	371.877	366.298	395.122	0.00066663	0.00023955	0.00013105	1083.7	3.9098e-06	4.6948e-06	1144.3	221.2	2.8243e-06	4.8388e-06	278.92	77.968	61.332	17.147	1.3098e-06	24.736	0.0003032	0.00030001	8.3425e-05	1066.3	3.2965e-06	3.2686e-06	1124	220.58	3.3481e-06	3.3719e-06	275.81	78.344	62.043	17.971	3.478e-06	25.479	330.980	114.369	183.374	111.350	220.582	186.444	111.510	118.688	148.893	269.875	118.342	125.290	125.667	132.285	114.176	131.475	-8191	255	
2510.215	1	1	0	0	0.2294	0.17039	0.15419	0.24271	0.12813	0.08161	0.23049	0.072232	0.16704	0.26232	0.21077	0.12793	0.11526	0.19353	0.12632	0.12963	-2.6854	-2.7854	-3.1604	-3.0667	-2.9375	-3.3375	-3.125	-3.2271	-3.2	-2.8229	-3.2458	-3.1375	-3.1312	-3.375	-2.8875	-3.3042	446.282	160.338	220.773	391.220	421.341	278.954	401.415	295.560	253.870	172.124	405.033	234.496	333.099	136.186	303.944	185.707	0.00070915	0.00046862	0.00021297	1085.7	2.8556e-06	3.1893e-06	1145.9	222.37	4.1278e-06	5.1441e-06	279.44	78.066	61.626	17.372	4.3819e-06	24.623	0.00032394	0.00032179	9.0404e-05	1068.1	3.5759e-06	3.5582e-06	1126.7	221.35	3.6013e-06	3.599e-06	277.05	78.838	62.401	18.102	3.6235e-06	25.595	319.543	177.437	195.713	111.515	270.934	224.591	111.267	118.854	237.469	348.958	117.843	124.865	125.723	131.735	339.188	131.304	-8191	255	
2510.311	1	1	0	0	0.13492	0.12178	0.14495	0.27566	0.25731	0.038952	0.15878	0.061021	0.2075	0.052025	0.16339	0.11722	0.10566	0.42301	0.09512	0.3458	-2.5583	-2.9292	-3.25	-3.3875	-2.9021	-3.2292	-3.1083	-3.2417	-3.0708	-2.8771	-3.2708	-3.1729	-2.9146	-3.2354	-2.9521	-3.1437	193.289	248.508	365.245	390.381	235.208	101.367	365.681	105.894	409.590	244.969	125.142	426.767	257.770	437.150	132.694	392.803	0.00059564	9.3149e-05	8.5777e-05	1087.5	3.2012e-06	3.2859e-06	1152.1	222.14	3.1265e-06	3.121e-06	278.21	77.821	61.473	17.315	2.7288e-06	24.485	0.00033139	0.00032792	9.0697e-05	1070.8	3.6035e-06	3.584e-06	1130.2	221.73	3.5966e-06	3.6338e-06	277.45	78.922	62.453	18.146	3.6424e-06	25.61	323.039	205.493	203.370	111.157	201.809	316.879	111.557	118.824	351.697	167.141	118.331	125.035	125.414	132.099	269.291	131.235	-8191	255	
2510.407	1	1	0	0	0.066087	0.25381	0.14351	0.039457	0.21638	0.19587	0.005619	0.24048	0.22053	0.28307	0.26274	0.092231	0.21811	0.21307	0.22652	0.29533	-2.6417	-2.7271	-3.1833	-3.2729	-3.0062	-3.2229	-3.0812	-3.3917	-3.075	-2.9354	-2.9958	-3.0875	-2.9125	-3.2062	-3.0792	-3.1333	187.347	304.177	362.738	261.459	375.025	202.639	426.677	361.716	319.281	275.105	452.175	364.886	200.642	357.608	424.231	357.919	0.00060458	5.3777e-05	0.00010239	1089.6	6.8517e-06	2.1933e-06	1153.6	223.72	3.8809e-06	3.5594e-06	278.93	78.382	62.067	17.539	4.6078e-06	24.531	0.00032966	0.00032613	9.1301e-05	1072.7	3.5848e-06	3.5485e-06	1133.3	222.61	3.5808e-06	3.5572e-06	278.09	78.905	62.55	18.124	3.5346e-06	25.488	315.486	198.943	339.254	111.435	246.219	337.113	111.360	118.887	206.296	374.515	118.504	125.038	125.852	132.457	316.777	131.707	-8191	255	
2510.504	1	1	0	0	0.23085	0.05873	0.096272	0.29814	0.11528	0.14179	0.16678	0.31073	0.15287	0.20829	0.19657	0.14928	0.27788	0.087083	0.10866	0.13896	-2.8375	-2.8708	-3.1625	-3.3083	-3.0958	-3.4146	-3.0938	-2.9771	-3.2354	-2.9188	-3.1979	-3.3229	-2.8125	-3.1771	-2.9688	-3.175	156.975	330.680	312.942	403.870	406.042	272.850	106.733	441.629	326.942	184.269	394.156	399.973	409.190	242.656	189.385	385.729	0.00058739	0.00016566	8.3666e-05	1089.4	3.2217e-06	1.0232e-06	1154.5	222.89	5.2495e-06	4.9649e-06	280.97	78.492	61.553	17.243	1.0058e-05	24.844	0.00032109	0.00031615	8.7194e-05	1071.8	3.4462e-06	3.4725e-06	1131.4	221.79	3.5009e-06	3.4979e-06	278.27	78.938	62.439	18.11	3.6117e-06	25.674	329.585	247.710	282.779	111.308	396.545	381.165	111.461	118.926	160.178	231.606	118.132	125.107	125.259	132.085	221.854	131.293	-8191	255	
2510.622	1	1	0	0	0.12355	0.079245	0.11153	0.21003	0.16828	0.097017	0.22081	0.30703	0.10888	0.14174	0.23309	0.11488	0.14433	0.11308	0.23394	0.04824	-2.8729	-2.8937	-3.1625	-3.3125	-2.9042	-3.2958	-3.5458	-3.0792	-3.0833	-2.9437	-3.3	-3.2917	-2.8729	-3.225	-2.9875	-3.1521	344.882	338.796	310.863	311.055	109.787	141.599	401.994	399.874	328.247	183.448	403.478	292.339	118.975	423.326	339.211	283.129	0.00064121	8.9818e-05	7.9617e-05	1089.2	8.7587e-06	1.8999e-06	1159.5	223.2	6.7534e-06	7.9857e-06	280.01	78.323	61.375	17.466	2.3654e-06	24.674	0.00033048	0.00032788	9.0143e-05	1073.1	3.5598e-06	3.5422e-06	1132.8	222.01	3.5154e-06	3.5029e-06	277.73	78.84	62.368	18.107	3.4836e-06	25.546	320.294	212.366	424.276	111.257	268.894	196.912	111.147	119.000	194.972	240.284	118.307	124.888	125.462	132.388	396.888	131.413	-8191	255	
2510.719	1	1	0	0	0.30169	0.050038	0.070805	0.11298	0.15405	0.24032	0.36312	0.15922	0.20202	0.24993	0.046526	0.18029	0.12466	0.030682	0.19221	0.22421	-2.8896	-2.9604	-2.8458	-3.4813	-2.8458	-3.1417	-3.2062	-3.0771	-3.2729	-2.925	-3.0417	-3.2479	-2.9437	-3.0792	-3.1896	-2.8917	204.400	255.921	376.954	221.680	118.810	165.454	381.960	433.704	197.281	146.988	458.152	329.003	332.000	370.130	251.102	421.841	0.00052524	0.00044904	0.00020319	1095.3	1.061e-05	6.1877e-07	1160.1	223.38	2.8308e-06	5.9084e-06	282.04	77.982	61.594	17.327	3.392e-07	24.599	0.00032073	0.00032401	9.0114e-05	1074.2	3.5599e-06	3.5531e-06	1135	222.29	3.5686e-06	3.5295e-06	278.64	78.776	62.356	18.073	3.495e-06	25.54	342.080	446.179	256.178	111.161	278.117	137.180	111.524	118.914	233.133	221.629	118.302	125.262	125.913	132.601	375.940	131.588	-8191	255	
2510.792	1	1	0	0	0.20862	0.21822	0.24823	0.31843	0.11602	0.28021	0.21937	0.12785	0.048623	0.14138	0.13254	0.26312	0.14317	0.18991	0.042915	0.1369	-2.7188	-3.0208	-2.9729	-3.3146	-2.8229	-3.1167	-3.425	-2.9708	-3.1271	-3.0875	-2.9146	-3.3104	-2.7125	-3.1458	-3.1854	-2.8667	106.527	296.492	144.644	416.790	458.800	411.957	379.251	164.000	213.568	181.741	373.285	385.375	282.900	303.424	271.536	374.426	0.00064766	0.00040749	6.8252e-05	1091.9	1.1199e-06	1.3526e-05	1154.1	223.1	1.6945e-06	5.0162e-06	279.44	78.317	61.908	17.45	2.2042e-06	24.712	0.00032181	0.00032133	8.9937e-05	1073.1	3.5658e-06	3.6093e-06	1132.5	222.42	3.6151e-06	3.6378e-06	278.69	78.96	62.79	18.216	3.7572e-06	25.721	315.445	202.312	107.014	111.281	450.949	203.232	111.239	118.813	260.067	290.410	118.141	124.779	125.838	132.108	387.993	131.497	-8191	255	
2510.911	1	1	0	0	0.057515	0.059156	0.060891	0.36914	0.04941	0.030396	0.3455	0.027165	0.093189	0.12532	0.15842	0.17125	0.092204	0.26686	0.14974	0.11162	-2.7812	-3.2562	-2.8479	-3.2062	-2.8979	-2.9792	-3.2375	-2.9083	-3.1312	-3.0104	-3.0312	-3.1813	-3.0229	-3.0458	-3.3083	-2.9479	226.695	144.348	448.746	389.857	322.103	291.200	406.303	346.714	187.018	342.825	419.268	173.989	177.593	458.776	145.571	219.008	0.00059785	0.00036196	7.5001e-05	1093.7	6.4585e-06	2.7506e-06	1160.7	223.3	1.6453e-06	5.6966e-06	281.51	77.953	62.513	17.244	5.9567e-06	24.673	0.00034874	0.00034817	9.7347e-05	1078	3.8056e-06	3.7822e-06	1136.2	222.9	3.7414e-06	3.713e-06	279.98	79.1	63.118	18.185	3.691e-06	25.695	308.993	314.223	392.303	111.337	213.776	208.770	111.392	118.841	214.050	202.881	118.310	124.931	125.841	132.251	168.093	131.217	-8191	255	
2511.007	1	1	0	0	0.17323	0.086548	0.21646	0.18005	0.23218	0.17024	0.052897	0.33748	0.1405	0.063503	0.1872	0.26618	0.16951	0.04223	0.034464	0.21725	-2.775	-3.1167	-2.9833	-3.375	-3.2042	-2.9875	-3.4771	-2.9417	-3.0875	-3.0521	-2.8063	-3.2208	-3.075	-2.8896	-3.1917	-2.9938	427.452	380.687	125.523	346.875	312.975	144.725	338.244	440.467	211.150	231.229	116.455	386.072	266.984	176.301	341.723	426.002	0.00051457	2.6695e-05	4.336e-05	1096.9	2.7058e-06	3.9067e-06	1158	223.04	5.918e-06	7.018e-06	280.82	78.572	61.595	17.467	4.5232e-06	24.677	0.00034276	0.00034086	9.5821e-05	1080	3.7905e-06	3.8029e-06	1138.9	223.24	3.822e-06	3.8499e-06	280.86	79.514	63.228	18.321	3.8596e-06	25.805	310.942	314.970	432.318	111.179	183.544	182.220	111.288	118.830	148.176	165.144	118.332	125.035	125.706	132.392	366.347	131.296	-8191	255	
2511.103	1	1	0	0	0.18351	0.061486	0.040277	0.13795	0.22792	0.08499	0.57016	0.27715	0.137	0.24378	0.22754	0.064961	0.064214	0.25965	0.16851	0.19004	-2.7812	-3.2938	-2.8812	-3.2458	-2.9396	-2.8896	-3.4604	-2.9938	-3.0708	-3.1708	-3.0125	-3.325	-3.2917	-2.9833	-3.1854	-2.9458	260.529	367.704	162.966	402.172	368.243	302.872	410.638	329.375	358.517	330.175	410.045	438.986	400.620	428.967	127.413	446.236	0.000554	0.00011761	6.6098e-05	1101.4	4.44e-06	3.3802e-06	1161.2	223.89	8.3955e-06	1.7524e-06	280.42	78.076	61.907	17.41	3.8091e-06	24.8	0.00035098	0.00034793	9.7016e-05	1084.8	3.7767e-06	3.7561e-06	1142.1	223.91	3.7288e-06	3.7577e-06	280.1	79.418	63.157	18.306	3.8193e-06	25.829	322.217	308.763	157.943	111.554	245.374	244.425	111.368	118.808	256.361	425.711	118.452	125.066	125.215	132.257	285.454	131.461	-8191	255	
2511.224	1	1	0	0	0.10724	0.078429	0.18192	0.16891	0.12479	0.14146	0.076297	0.16891	0.23382	0.10631	0.0094012	0.12021	0.2637	0.069921	0.082586	0.080627	-2.6229	-3.2938	-2.8729	-3.4417	-3.1958	-2.8458	-3.3875	-3.0687	-3.0938	-3.2458	-2.8625	-3.2125	-3.2042	-2.7792	-3.2646	-3	210.183	356.167	132.297	366.859	116.517	111.632	450.470	154.400	303.983	228.187	120.698	165.236	177.917	399.215	260.537	285.721	0.00052108	0.00019402	4.3382e-05	1101.2	7.623e-06	6.2101e-06	1169.2	224.02	1.0691e-06	3.2091e-06	279.5	78.495	61.709	17.405	4.8365e-06	24.77	0.00034728	0.00034802	9.7072e-05	1085.6	3.8469e-06	3.8607e-06	1144.9	224.35	3.8196e-06	3.7998e-06	280.68	79.743	63.357	18.307	3.8027e-06	25.834	314.388	132.683	161.645	111.465	265.528	336.185	111.276	118.891	209.761	214.835	118.450	124.930	126.125	132.329	149.103	131.313	-8191	255	
2511.320	1	1	0	0	0.12093	0.12489	0.23428	0.11537	0.21679	0.10356	0.25352	0.10258	0.21109	0.054085	0.2714	0.0054732	0.31253	0.13509	0.11431	0.26438	-2.5938	-3.1104	-2.9833	-3.2604	-3.0521	-3.0229	-3.4708	-3.0979	-3	-3.2646	-3.0687	-3.2812	-3.3396	-2.9062	-3.2438	-3.2042	122.688	445.407	378.301	388.694	109.482	138.612	398.164	379.371	208.119	455.189	414.200	345.319	441.325	238.028	109.413	308.707	0.00056725	0.00094902	7.7739e-05	1102.3	7.8782e-07	5.8393e-06	1161.9	225.18	2.7856e-06	3.8727e-06	279.68	77.932	61.536	17.326	6.8467e-06	24.577	0.00034583	0.00034618	9.5393e-05	1085.5	3.7584e-06	3.7419e-06	1144.3	224.01	3.7511e-06	3.777e-06	280.38	79.515	63.07	18.301	3.7822e-06	25.789	325.130	167.684	348.478	111.684	127.789	219.405	111.361	118.903	116.600	459.586	118.639	124.724	125.518	132.259	237.753	130.969	-8191	255	
2511.416	1	1	0	0	0.18388	0.24167	0.040217	0.30649	0.057529	0.15269	0.32442	0.2789	0.021541	0.083083	0.19032	0.071876	0.25289	0.25571	0.081839	0.20682	-2.5542	-3.175	-2.9625	-3.275	-3.2604	-2.9667	-3.1375	-3.4062	-2.9521	-3.2354	-3.0563	-3.2604	-3.1333	-2.9875	-3.3604	-3.2188	345.289	182.129	121.900	439.309	243.641	254.831	104.437	406.661	376.202	266.601	149.651	400.382	212.200	418.591	135.894	413.783	0.00067165	0.00067724	0.00013329	1099.8	5.0049e-06	1.7646e-06	1170	224.86	4.6629e-06	8.6512e-06	283.12	78.447	61.6	17.42	4.3385e-06	24.802	0.00035103	0.00035221	9.7253e-05	1085.5	3.8696e-06	3.8751e-06	1144.1	224.53	3.8314e-06	3.8161e-06	282.31	79.503	63.183	18.252	3.7691e-06	25.862	313.612	269.353	272.373	111.393	295.382	163.410	111.479	118.752	244.867	279.745	118.314	124.941	125.462	132.003	206.532	131.253	-8191	255	
2511.512	1	1	0	0	0.23691	0.17004	0.057032	0.1334	0.3075	0.027113	0.42875	0.042961	0.38261	0.10522	0.16849	0.21425	0.047442	0.1818	0.20184	0.040209	-2.5729	-3.3333	-2.9313	-3.2708	-2.9958	-2.8979	-3.2646	-3.1854	-2.7938	-3.0771	-3.0354	-3.0583	-3.35	-2.9729	-3.1437	-3.2854	195.675	170.153	389.231	367.642	217.342	105.154	366.839	421.867	364.411	298.784	356.086	427.837	148.427	115.639	275.676	291.540	0.00051845	0.00027936	0.00015265	1101	8.2945e-06	6.7758e-06	1165.5	224.88	9.0897e-06	9.6536e-06	280.9	78.694	62.2	17.435	2.9715e-06	24.775	0.00034249	0.0003426	9.5142e-05	1084.8	3.7346e-06	3.7064e-06	1144.5	224.39	3.7533e-06	3.7291e-06	280.62	79.507	63.158	18.294	3.7768e-06	25.77	348.017	147.732	229.189	111.502	214.078	276.287	111.354	118.812	292.554	228.894	118.741	124.906	125.320	132.119	301.642	131.390	-8191	255	
2511.607	1	1	0	0	0.18745	0.1059	0.081725	0.25419	0.087631	0.11886	0.13188	0.022171	0.06579	0.21008	0.23306	0.17139	0.17385	0.15235	0.38314	0.15863	-2.3688	-3.1854	-2.8521	-3.2188	-3.3125	-2.6354	-3.2208	-3.2042	-2.8708	-3.3729	-3.0396	-3.075	-3.1646	-3.0396	-3.0583	-3.3958	190.378	159.003	335.126	342.485	366.014	212.211	427.698	427.376	230.885	410.238	405.755	362.514	372.547	381.063	220.806	162.782	0.00081581	0.00015255	0.00011373	1098.4	2.1212e-06	2.7541e-06	1161.3	224.29	8.0835e-06	2.5538e-06	280.85	78.553	62.025	17.394	3.3165e-06	24.871	0.00034597	0.0003409	9.5764e-05	1084.8	3.7963e-06	3.7864e-06	1144.3	224.52	3.8651e-06	3.8274e-06	281.36	79.574	63.343	18.299	3.7866e-06	25.885	311.860	276.688	344.017	111.421	216.474	341.973	111.476	118.748	430.405	299.180	118.318	124.863	125.663	132.415	174.729	131.590	-8191	255	
2511.703	1	1	0	0	0.22469	0.14151	0.16648	0.45146	0.098758	0.2337	0.41402	0.19007	0.22872	0.25414	0.076359	0.06694	0.1568	0.088863	0.035224	0.15632	-2.5104	-3.1646	-3.1083	-2.9708	-3.075	-2.9646	-3.2625	-3.3083	-2.6688	-3.1146	-3.2125	-3.0125	-3.2417	-3.2292	-3.025	-3.3125	185.201	455.516	433.795	459.929	346.756	175.218	369.514	325.193	372.781	275.006	166.706	124.900	107.971	106.253	368.838	377.552	0.00073725	0.00031768	8.5017e-05	1105.6	6.7766e-06	4.7151e-06	1165.4	225.13	4.7304e-06	6.566e-06	283.23	78.112	62.253	17.351	3.1064e-06	24.817	0.00034247	0.00033753	9.4299e-05	1086.6	3.6914e-06	3.7085e-06	1145	224.47	3.7241e-06	3.6899e-06	280.73	79.567	63.337	18.247	3.7225e-06	25.826	316.543	421.187	458.300	111.523	124.317	292.650	111.506	118.911	160.429	207.935	118.222	124.790	125.675	132.182	111.270	131.636	-8191	255	
#DATA ENDS
