BOXY.EXE: ISS Imagent and Oximeter Data Acquisition Program Version 0.80
Ascii Record File

#ACQ INFORMATION
2  Detector Channels 
16  External MUX Channels 
1  Auxiliary Channels 
5000  Waveform (CCF) Frequency (Hz)
1  Waveforms Skipped 
30  Waveforms Averaged 
1  Cycles Averaged 
16  Acquisitions per Waveform 
10.0806  Updata Rate (Hz) 

#FILE INFORMATION
TRUE -- External MUX Channel results are PARSED.
FALSE -- AC DC and Phase are NOT grouped.
TRUE -- Companion Program Settings File CREATED.
FALSE -- AC data not excluded
FALSE -- DC data not excluded
FALSE -- Phase data not excluded
FALSE -- Auxillary Chn. data not excluded
Tab delimiters

#CALIBRATION STATE
TRUE -- Waveform Calibration Values APPLIED.


#AUX CALIBRATION VALUES
Val Type	aux-1	

Term	1.0000e+00	
Factor	0.0000e+00	


#WF CALIBRATION VALUES
A = Detector Channel
Val Type	A-AC1	A-AC2	A-AC3	A-AC4	A-AC5	A-AC6	A-AC7	A-AC8	A-AC9	A-AC10	A-AC11	A-AC12	A-AC13	A-AC14	A-AC15	A-AC16	A-DC1	A-DC2	A-DC3	A-DC4	A-DC5	A-DC6	A-DC7	A-DC8	A-DC9	A-DC10	A-DC11	A-DC12	A-DC13	A-DC14	A-DC15	A-DC16	A-Ph1	A-Ph2	A-Ph3	A-Ph4	A-Ph5	A-Ph6	A-Ph7	A-Ph8	A-Ph9	A-Ph10	A-Ph11	A-Ph12	A-Ph13	A-Ph14	A-Ph15	A-Ph16	

Term	0.00000e+00	0.00000e+00	0.00000e+00	0.00000e+00	0.00000e+00	0.00000e+00	0.00000e+00	0.00000e+00	0.00000e+00	0.00000e+00	0.00000e+00	0.00000e+00	0.00000e+00	0.00000e+00	0.00000e+00	0.00000e+00	0.00000e+00	0.00000e+00	0.00000e+00	0.00000e+00	0.00000e+00	0.00000e+00	0.00000e+00	0.00000e+00	0.00000e+00	0.00000e+00	0.00000e+00	0.00000e+00	0.00000e+00	0.00000e+00	0.00000e+00	0.00000e+00	0.00000e+00	0.00000e+00	0.00000e+00	0.00000e+00	0.00000e+00	0.00000e+00	0.00000e+00	0.00000e+00	0.00000e+00	0.00000e+00	0.00000e+00	0.00000e+00	0.00000e+00	0.00000e+00	0.00000e+00	0.00000e+00	
Factor	1.00000e+00	1.00000e+00	1.00000e+00	1.00000e+00	1.00000e+00	1.00000e+00	1.00000e+00	1.00000e+00	1.00000e+00	1.00000e+00	1.00000e+00	1.00000e+00	1.00000e+00	1.00000e+00	1.00000e+00	1.00000e+00	1.00000e+00	1.00000e+00	1.00000e+00	1.00000e+00	1.00000e+00	1.00000e+00	1.00000e+00	1.00000e+00	1.00000e+00	1.00000e+00	1.00000e+00	1.00000e+00	1.00000e+00	1.00000e+00	1.00000e+00	1.00000e+00	X	X	X	X	X	X	X	X	X	X	X	X	X	X	X	X	

B = Detector Channel
Val Type	B-AC1	B-AC2	B-AC3	B-AC4	B-AC5	B-AC6	B-AC7	B-AC8	B-AC9	B-AC10	B-AC11	B-AC12	B-AC13	B-AC14	B-AC15	B-AC16	B-DC1	B-DC2	B-DC3	B-DC4	B-DC5	B-DC6	B-DC7	B-DC8	B-DC9	B-DC10	B-DC11	B-DC12	B-DC13	B-DC14	B-DC15	B-DC16	B-Ph1	B-Ph2	B-Ph3	B-Ph4	B-Ph5	B-Ph6	B-Ph7	B-Ph8	B-Ph9	B-Ph10	B-Ph11	B-Ph12	B-Ph13	B-Ph14	B-Ph15	B-Ph16	

Term	0.00000e+00	0.00000e+00	0.00000e+00	0.00000e+00	0.00000e+00	0.00000e+00	0.00000e+00	0.00000e+00	0.00000e+00	0.00000e+00	0.00000e+00	0.00000e+00	0.00000e+00	0.00000e+00	0.00000e+00	0.00000e+00	0.00000e+00	0.00000e+00	0.00000e+00	0.00000e+00	0.00000e+00	0.00000e+00	0.00000e+00	0.00000e+00	0.00000e+00	0.00000e+00	0.00000e+00	0.00000e+00	0.00000e+00	0.00000e+00	0.00000e+00	0.00000e+00	1.37173e+01	-1.18228e+02	-1.12758e+02	-1.83080e+02	-7.15389e+01	-7.78103e+01	-1.57142e+02	-1.62015e+02	-8.64581e+01	-8.33328e+01	-1.74681e+02	-1.70893e+02	-1.86226e+02	-1.78823e+02	-6.33234e+01	-1.50760e+02	
Factor	3.86630e-05	1.07672e-04	3.58680e-05	1.52370e-01	1.43992e-06	1.45988e-06	1.51923e-01	5.45124e-02	1.38203e-06	1.18428e-06	1.31598e-01	2.66902e-02	3.84029e-02	8.59656e-03	1.43767e-06	1.22989e-02	8.31094e-07	8.48967e-07	2.35916e-07	7.55567e-02	9.27535e-09	9.30345e-09	7.09969e-02	2.68103e-02	9.28531e-09	9.29857e-09	5.97757e-02	1.26460e-02	1.79984e-02	4.20033e-03	9.30521e-09	5.78123e-03	X	X	X	X	X	X	X	X	X	X	X	X	X	X	X	X	



#DISTANCE SETTINGS
A = Detector Channel
A-1	A-2	A-3	A-4	A-5	A-6	A-7	A-8	A-9	A-10	A-11	A-12	A-13	A-14	A-15	A-16	

2.5000e+00	3.0000e+00	2.5000e+00	3.0000e+00	2.0000e+00	3.0000e+00	1.5000e+00	3.0000e+00	3.0000e+00	3.0000e+00	3.0000e+00	3.0000e+00	3.0000e+00	3.0000e+00	1.5000e+00	3.0000e+00	

B = Detector Channel
B-1	B-2	B-3	B-4	B-5	B-6	B-7	B-8	B-9	B-10	B-11	B-12	B-13	B-14	B-15	B-16	

1.0000e+01	1.0000e+01	1.0000e+01	1.4400e+00	1.0000e+01	1.0000e+01	1.5100e+00	1.9400e+00	1.0000e+01	1.0000e+01	1.9900e+00	2.4900e+00	2.4100e+00	2.9000e+00	1.0000e+01	2.9800e+00	




#DATA BEGINS
time	group	step	mark	flag	A-AC1	A-AC2	A-AC3	A-AC4	A-AC5	A-AC6	A-AC7	A-AC8	A-AC9	A-AC10	A-AC11	A-AC12	A-AC13	A-AC14	A-AC15	A-AC16	A-DC1	A-DC2	A-DC3	A-DC4	A-DC5	A-DC6	A-DC7	A-DC8	A-DC9	A-DC10	A-DC11	A-DC12	A-DC13	A-DC14	A-DC15	A-DC16	A-Ph1	A-Ph2	A-Ph3	A-Ph4	A-Ph5	A-Ph6	A-Ph7	A-Ph8	A-Ph9	A-Ph10	A-Ph11	A-Ph12	A-Ph13	A-Ph14	A-Ph15	A-Ph16	B-AC1	B-AC2	B-AC3	B-AC4	B-AC5	B-AC6	B-AC7	B-AC8	B-AC9	B-AC10	B-AC11	B-AC12	B-AC13	B-AC14	B-AC15	B-AC16	B-DC1	B-DC2	B-DC3	B-DC4	B-DC5	B-DC6	B-DC7	B-DC8	B-DC9	B-DC10	B-DC11	B-DC12	B-DC13	B-DC14	B-DC15	B-DC16	B-Ph1	B-Ph2	B-Ph3	B-Ph4	B-Ph5	B-Ph6	B-Ph7	B-Ph8	B-Ph9	B-Ph10	B-Ph11	B-Ph12	B-Ph13	B-Ph14	B-Ph15	B-Ph16	aux-1	digaux	

2755.064	1	1	0	768	0.1246	0.21565	0.18401	0.097601	0.0089107	0.12206	0.277	0.076094	0.22901	0.18058	0.21293	0.15803	0.12289	0.25781	0.24934	0.027371	-2.275	-2.6271	-2.6271	-3.0583	-2.6458	-2.9	-2.8625	-2.6333	-2.8583	-2.6771	-2.7917	-2.9396	-2.6292	-2.8312	-2.7625	-2.6375	23.856	282.889	227.245	322.336	-1.910	102.005	315.750	302.976	70.475	177.381	288.031	-5.891	119.819	188.378	215.696	43.687	0.00014966	6.8079e-05	4.4134e-05	212.98	1.6947e-06	5.601e-07	314.58	57.678	1.2933e-06	2.8024e-05	111.89	34.174	14.96	4.3213	2.403e-05	12.129	6.1478e-05	6.0317e-05	1.632e-05	238.2	6.4319e-07	6.4994e-07	328.1	60.893	6.5479e-07	2.6434e-06	112.23	35.691	15.846	4.6577	2.5465e-06	12.567	297.835	203.951	134.962	-7.032	170.602	249.093	-6.198	-0.843	147.647	195.200	-2.037	3.267	4.036	8.427	327.249	7.106	-8191	255	
2755.161	1	1	0	0	0.2457	0.048933	0.16129	0.15325	0.15078	0.37158	0.1247	0.22808	0.20206	0.054052	0.35762	0.13606	0.06221	0.087223	0.30306	0.14133	-2.5521	-2.5625	-2.6896	-2.8896	-2.8625	-3.0292	-2.8583	-2.6042	-3.1167	-2.8	-2.7146	-3.1229	-2.7021	-2.6854	-2.9354	-2.7958	96.103	169.776	230.084	278.096	-0.715	189.247	-7.614	271.252	63.562	260.120	243.990	-3.405	14.311	334.434	164.764	321.228	0.00018834	9.3262e-05	5.9919e-06	213.85	1.0439e-06	6.9316e-07	312.62	57.506	1.4399e-06	2.3996e-05	109.4	34.521	14.876	4.2909	3.1182e-05	12.138	6.1709e-05	6.172e-05	1.662e-05	240.9	6.5382e-07	6.5196e-07	327.1	60.863	6.6477e-07	2.5685e-06	111.71	35.776	15.804	4.6697	3.0307e-06	12.576	299.627	168.453	67.611	-7.061	170.013	119.852	-6.109	-1.025	115.861	183.378	-1.870	3.326	4.562	8.359	325.875	7.286	-8191	255	
2755.257	1	1	0	0	0.0051499	0.063719	0.20094	0.27174	0.39989	0.20045	0.084681	0.37817	0.15537	0.16221	0.23313	0.11265	0.044714	0.18743	0.17275	0.13973	-2.5708	-2.7875	-2.7208	-2.9062	-2.7042	-3.0354	-2.9062	-2.7875	-2.8542	-2.9188	-2.7083	-3.0167	-2.6688	-2.7646	-3.0312	-2.5312	284.889	138.513	109.945	300.568	292.378	93.566	203.954	-16.019	267.272	69.179	99.730	327.192	203.113	217.045	54.869	315.155	0.00014879	0.00011556	3.2519e-05	212.5	1.4207e-05	9.8915e-07	312.25	57.794	1.9048e-06	2.8172e-05	109.72	34.016	14.812	4.2919	2.5041e-05	12.017	6.0936e-05	6.1034e-05	1.6498e-05	231.21	1.2013e-06	6.533e-07	326.85	60.837	6.5962e-07	3.0629e-06	111.91	35.565	15.752	4.646	2.6294e-06	12.561	316.513	41.990	80.394	-7.074	158.374	123.532	-6.097	-0.761	130.605	193.516	-1.962	3.386	4.395	8.906	335.061	7.971	-8191	255	
2755.353	1	1	0	0	0.16753	0.1826	0.18108	0.14473	0.31148	0.29725	0.31234	0.08591	0.2261	0.080922	0.15887	0.046403	0.26907	0.28184	0.12919	0.14565	-2.425	-2.9021	-2.5687	-2.9458	-2.6167	-2.8375	-2.9417	-2.7042	-2.6521	-2.7125	-2.55	-2.8146	-2.5938	-2.7208	-3.0271	-2.8771	198.103	146.352	287.435	66.094	196.605	141.704	58.502	334.426	305.069	50.018	309.649	-8.545	94.276	319.968	233.808	3.966	0.00015989	0.0001197	2.5032e-05	209.53	1.9589e-05	1.8848e-06	313.4	57.851	3.1623e-06	2.6052e-05	110.6	34.295	14.916	4.2817	3.6498e-05	12.1	6.1678e-05	6.1978e-05	1.6558e-05	221.69	2.8595e-06	6.4961e-07	328.03	60.777	6.6187e-07	2.7511e-06	111.97	35.664	15.858	4.6501	3.3429e-06	12.549	263.937	157.081	101.456	-6.587	158.864	111.931	-6.134	-0.612	151.350	197.989	-1.741	3.302	4.464	9.149	-15.818	7.494	-8191	255	
2755.449	1	1	0	0	0.19588	0.19816	0.12999	0.23701	0.19521	0.074677	0.29596	0.25136	0.24674	0.032186	0.10921	0.28151	0.11581	0.21997	0.25223	0.27912	-2.4562	-2.9979	-2.675	-3.0542	-2.5979	-2.6333	-3.0687	-2.7625	-2.9792	-2.9792	-2.7229	-2.9062	-2.9271	-2.575	-3.1188	-2.7167	176.701	150.040	212.831	134.604	278.506	241.502	265.848	50.899	29.606	162.727	188.575	180.307	73.560	128.799	87.839	222.471	0.00011006	0.00013988	4.8605e-05	210.41	3.5499e-05	1.0509e-06	313.03	58.007	1.2264e-06	3.9696e-05	109.93	34.084	14.773	4.2944	3.73e-05	11.945	6.2123e-05	6.1782e-05	1.6538e-05	221.54	3.0568e-06	6.5539e-07	327.06	60.751	6.6096e-07	3.6524e-06	111.62	35.489	15.731	4.6369	2.073e-06	13.053	287.398	154.300	104.984	-6.278	89.315	13.617	-6.293	-1.138	149.277	204.322	-2.170	2.996	4.206	8.614	10.359	7.201	-8191	255	
2755.545	1	1	0	0	0.19426	0.30287	0.16248	0.2144	0.14453	0.30764	0.16918	0.12011	0.30601	0.2232	0.29702	0.12413	0.093451	0.13459	0.20271	0.15079	-2.5438	-2.7875	-2.8021	-2.9313	-2.9	-2.6729	-2.9854	-2.7562	-2.9104	-2.9104	-2.475	-3.0146	-2.8	-2.5104	-2.8958	-2.5833	131.837	196.985	292.823	79.589	226.218	336.414	334.658	243.333	281.485	147.054	-9.486	316.545	46.294	99.985	333.627	5.108	0.0001766	0.00011842	8.7042e-05	209.97	5.2546e-05	2.4567e-06	311.41	57.213	1.1645e-06	3.6636e-05	109.72	34.075	14.964	4.2848	1.5856e-06	11.912	6.1397e-05	6.2758e-05	1.6586e-05	220.74	3.9584e-06	6.5111e-07	325.75	60.54	6.5856e-07	3.6581e-06	111.23	35.576	15.833	4.6406	6.7331e-07	14.559	283.848	108.824	105.779	-6.711	101.350	216.409	-6.181	-1.127	260.967	211.847	-1.713	3.431	4.541	8.167	41.576	7.414	-8191	255	
2755.664	1	1	0	0	0.21987	0.36481	0.081761	0.2626	0.1389	0.15689	0.08942	0.16024	0.281	0.076685	0.046982	0.22973	0.22235	0.25703	0.056715	0.13034	-2.5021	-2.8646	-2.5812	-2.775	-2.7875	-2.6292	-3	-2.8187	-2.8417	-3.1813	-2.7417	-2.9083	-2.8708	-2.7167	-2.9521	-2.7542	116.980	116.142	198.408	309.398	119.094	150.943	186.643	138.649	216.699	250.214	199.100	142.932	282.101	-4.686	200.298	224.627	0.00010474	7.2513e-05	4.8833e-05	209.85	3.8999e-05	1.5251e-06	310.16	56.976	8.9005e-07	3.5489e-05	108.95	34.068	14.702	4.2667	1.7075e-06	11.969	6.3134e-05	6.3802e-05	1.7464e-05	220.97	3.6872e-06	6.9146e-07	325.81	60.485	7.2611e-07	3.9146e-06	111.34	35.589	15.909	4.6626	7.4657e-07	14.218	294.104	307.203	110.582	-6.885	112.135	106.988	-6.461	-0.414	42.080	220.023	-1.687	3.254	4.493	8.561	136.170	5.785	-8191	255	
2755.760	1	1	0	0	0.23356	0.23171	0.13859	0.069831	0.043849	0.10125	0.18221	0.16039	0.088797	0.18764	0.31802	0.08585	0.23459	0.086102	0.16675	0.067132	-2.25	-3.0083	-2.6042	-2.8083	-2.8729	-2.5833	-2.9917	-2.7062	-2.8271	-3.0292	-2.8875	-2.8375	-2.9229	-2.675	-2.9167	-2.675	25.314	335.701	232.474	265.525	225.977	-4.611	198.570	41.512	153.350	313.816	23.041	80.316	118.277	155.958	252.739	-1.480	0.00013375	0.00016665	3.2811e-05	209.36	3.9146e-05	1.5375e-06	311.96	57.314	2.4427e-06	4.8753e-06	108.23	34.879	15.027	4.44	2.6065e-06	12.471	7.155e-05	7.0586e-05	1.9491e-05	221.83	3.4456e-06	7.767e-07	327.34	60.991	8.0962e-07	1.8635e-06	118.21	36.509	16.321	4.8546	8.39e-07	14.717	304.699	88.137	67.415	-6.762	116.618	131.850	-6.123	-1.203	131.239	334.604	-0.670	2.823	4.171	8.683	107.636	6.179	-8191	255	
2755.856	1	1	0	0	0.035168	0.16116	0.095385	0.16795	0.10417	0.040134	0.071536	0.23883	0.11628	0.082376	0.079151	0.097214	0.1078	0.24066	0.11569	0.059264	-2.3208	-2.9729	-2.7292	-2.8375	-2.925	-2.8438	-2.9854	-2.8292	-2.7667	-2.9521	-2.6604	-2.7812	-3.05	-2.6542	-2.8542	-2.7917	238.143	130.641	15.987	319.615	307.554	142.587	81.380	324.991	156.533	248.198	-12.962	261.896	20.384	12.827	8.050	-4.135	6.4646e-05	0.00021897	3.1894e-05	210.73	2.4171e-05	2.5804e-06	312.11	57.521	3.5382e-07	4.9786e-07	109.32	35.439	15.308	4.5319	1.6159e-06	12.782	7.9208e-05	7.7507e-05	2.2324e-05	223.88	3.0504e-06	8.8544e-07	329.82	61.59	8.9565e-07	9.1796e-07	129.79	37.27	16.784	5.0095	9.1484e-07	14.801	270.585	26.425	325.753	-6.492	106.316	101.100	-6.244	-1.341	299.523	22.967	-0.559	2.874	3.770	8.188	109.453	6.652	-8191	255	
2755.952	1	1	0	0	0.28912	0.27562	0.015613	0.15512	0.064176	0.14697	0.14514	0.33816	0.24633	0.18502	0.12628	0.059105	0.23277	0.16282	0.21943	0.13337	-2.0625	-2.8	-2.675	-2.7854	-2.8771	-2.6708	-2.8396	-2.975	-2.6625	-2.7792	-2.8875	-2.6688	-3.0125	-2.7146	-2.9021	-2.8792	6.765	320.190	60.780	22.754	13.646	210.429	251.714	3.391	164.537	76.530	123.966	82.114	242.275	303.820	206.878	255.505	0.0001044	0.00014697	6.4178e-05	213.46	3.2877e-05	1.6076e-06	312.67	57.879	7.5537e-07	1.5855e-06	108.25	35.835	15.639	4.6359	1.6786e-06	13.19	8.4619e-05	8.467e-05	2.4071e-05	225.96	3.4562e-06	9.4068e-07	330.26	61.892	9.3983e-07	9.4688e-07	128.61	37.758	17.016	5.1372	9.4421e-07	15.453	284.886	151.160	147.545	-6.266	121.346	135.560	-6.144	-1.064	56.569	108.368	-0.725	3.183	3.748	8.422	168.809	5.759	-8191	255	
2756.049	1	1	0	0	0.27111	0.091787	0.2926	0.11935	0.13939	0.14147	0.16571	0.14163	0.14072	0.13741	0.12528	0.093308	0.26192	0.13349	0.24385	0.12721	-2.2687	-2.9375	-2.7271	-2.7062	-2.8271	-2.8021	-2.8229	-2.925	-2.4313	-2.8187	-2.8854	-2.4896	-2.8667	-2.6958	-2.7104	-2.8771	276.520	313.683	245.115	57.632	288.963	47.857	130.087	84.328	226.123	60.722	300.542	232.801	275.321	233.445	330.816	165.715	0.00012678	0.00021426	6.3351e-05	213.88	2.5263e-05	2.6595e-05	314.92	58.242	2.5018e-06	2.4313e-06	109.9	36.282	15.5	4.7671	2.0385e-06	13.344	8.71e-05	8.6998e-05	2.4528e-05	227.42	1.9183e-06	1.8765e-06	333.3	62.38	9.395e-07	9.3015e-07	132.06	38.097	17.145	5.2445	9.4768e-07	15.391	277.800	78.758	103.725	-6.207	73.825	164.710	-6.439	-1.189	134.392	89.717	-0.835	3.582	4.645	8.455	172.093	6.096	-8191	255	
2756.145	1	1	0	0	0.26238	0.064507	0.18626	0.16452	0.065364	0.028622	0.21206	0.091017	0.12889	0.17602	0.1916	0.18318	0.22383	0.23792	0.047579	0.10052	-2.2083	-2.9938	-2.9146	-2.7208	-2.9167	-2.7625	-2.7229	-2.9083	-2.6958	-2.8042	-2.9417	-2.5333	-2.8354	-2.65	-2.6917	-2.8729	6.629	169.588	113.977	145.713	182.213	241.675	244.336	64.491	297.898	327.976	238.707	110.977	53.639	325.230	128.632	-12.517	0.00015788	7.675e-05	3.9825e-05	215.62	1.9003e-06	3.5626e-05	318.34	58.511	5.8414e-07	2.6069e-06	109.27	36.544	15.731	4.7479	3.6903e-06	13.469	8.882e-05	8.6545e-05	2.4679e-05	228.94	9.6365e-07	3.6095e-06	335.32	62.85	9.8279e-07	9.8604e-07	130.82	38.426	17.379	5.2969	9.9364e-07	15.797	295.075	268.917	232.113	-6.717	189.340	121.721	-5.992	-1.026	299.689	140.680	-1.060	3.032	4.062	9.147	71.749	6.184	-8191	255	
2756.241	1	1	0	0	0.069171	0.21875	0.20038	0.19594	0.25888	0.073985	0.13289	0.010908	0.19508	0.026432	0.10848	0.2619	0.14698	0.16691	0.32625	0.24021	-2.4188	-2.8438	-2.9479	-2.6917	-2.9458	-2.7417	-2.7104	-2.9104	-2.6854	-2.8521	-2.9604	-2.7458	-2.9292	-2.7125	-2.5083	-2.7938	203.283	285.937	-4.472	49.120	278.934	169.572	301.257	284.948	318.351	22.317	330.889	217.579	-1.821	122.502	135.009	10.549	0.00016242	0.00016956	6.5275e-05	216.82	6.7621e-07	3.7931e-05	317.25	58.472	1.1216e-06	2.8786e-06	108.02	36.379	15.719	4.7917	2.1869e-06	13.512	9.5165e-05	9.1414e-05	2.638e-05	229.89	1.027e-06	3.4104e-06	335.57	62.919	1.0363e-06	1.0431e-06	133.57	38.503	17.43	5.3429	1.0568e-06	14.768	281.013	72.434	36.148	-6.533	208.416	136.091	-6.274	-0.956	326.508	51.487	-1.141	3.017	4.704	7.871	22.915	5.918	-8191	255	
2756.360	1	1	0	0	0.14828	0.18727	0.14335	0.15108	0.057454	0.19892	0.24382	0.08403	0.21433	0.14557	0.22368	0.22724	0.37542	0.089996	0.20296	0.13657	-2.1604	-2.6625	-2.9521	-2.6042	-2.8667	-2.8	-2.8021	-3.0104	-2.8208	-2.7771	-3.1292	-2.4958	-3.0271	-2.7854	-2.7438	-2.9979	82.329	319.566	200.336	223.331	191.824	167.670	279.913	110.096	4.641	331.062	113.362	254.677	323.218	8.119	191.177	250.732	0.00019756	0.00022699	5.2771e-05	214.92	9.5726e-07	3.9865e-05	317.93	58.265	1.731e-06	1.3347e-06	108.55	36.181	15.648	4.8117	1.4887e-06	13.477	0.00019732	9.8068e-05	2.7781e-05	229.53	1.0999e-06	3.871e-06	334.86	62.785	1.1378e-06	1.1022e-06	130.64	38.31	17.495	5.3738	1.1056e-06	14.181	302.805	106.957	271.673	-6.301	63.864	136.405	-5.985	-1.090	180.190	116.641	-1.234	3.204	4.959	8.474	33.536	7.398	-8191	255	
2756.456	1	1	0	0	0.024002	0.13985	0.11453	0.2016	0.19495	0.035327	0.12215	0.16798	0.15357	0.2023	0.1192	0.13985	0.2509	0.31752	0.14714	0.16185	-2.4625	-2.5333	-2.9042	-2.6042	-2.7875	-3.0187	-2.7771	-2.8792	-2.8667	-2.525	-3.0167	-2.7917	-2.9354	-2.8667	-2.7042	-3.025	330.821	168.684	88.940	58.664	186.839	101.250	88.623	53.917	2.245	270.925	55.269	329.381	106.721	86.854	307.528	270.820	0.00082484	0.00015594	5.6931e-05	214.48	2.27e-07	3.0104e-05	315.19	57.745	3.7577e-06	1.2842e-06	110.13	35.974	15.512	4.6563	2.297e-06	13.255	0.0003438	0.00010142	2.8723e-05	229.6	1.129e-06	3.3847e-06	332.9	62.317	1.1437e-06	1.1215e-06	131.13	38.063	17.35	5.2907	1.147e-06	14.012	131.227	52.061	100.406	-6.472	257.465	148.509	-6.174	-0.926	104.035	170.018	-2.789	3.331	4.195	8.608	163.169	6.750	-8191	255	
2756.552	1	1	0	0	0.10193	0.14547	0.21407	0.059058	0.25612	0.13141	0.21527	0.056004	0.25245	0.13743	0.086812	0.2162	0.16805	0.1582	0.048342	0.17651	-2.3563	-2.8646	-3	-2.6562	-2.7917	-2.9625	-2.6208	-2.9146	-2.7333	-2.7125	-3.0146	-2.5187	-2.9062	-3.0062	-2.7958	-2.8917	219.114	143.242	118.682	74.852	19.104	137.047	310.097	-5.580	142.438	236.927	237.639	152.933	85.047	271.738	206.441	147.283	0.00081304	0.000105	9.5748e-06	212.31	4.7372e-07	3.6143e-05	314.67	58.169	1.636e-06	2.0834e-07	110.08	35.532	15.551	4.7377	3.2978e-07	13.312	0.0002991	0.00010308	2.9231e-05	227.93	1.13e-06	3.7446e-06	332.66	62.139	1.135e-06	1.114e-06	119.25	39.478	17.349	5.3048	1.107e-06	14.114	116.882	23.769	-6.976	-6.505	287.865	143.814	-6.153	-0.992	89.293	140.040	-2.326	3.628	4.403	7.987	278.086	7.032	-8191	255	
2756.625	1	1	0	0	0.077589	0.14283	0.27853	0.3158	0.21847	0.098183	0.11826	0.085064	0.21227	0.1422	0.15723	0.078684	0.27444	0.037164	0.086407	0.086319	-2.2375	-2.7562	-3.1333	-2.8104	-2.7646	-3.0042	-2.7062	-2.9083	-2.8167	-2.6146	-2.975	-2.7271	-2.8	-2.9542	-2.6813	-2.9292	280.749	0.282	306.281	-10.547	72.462	222.623	173.446	44.847	76.300	308.111	190.368	161.890	32.621	112.653	37.908	23.262	0.0009025	7.0738e-05	1.9788e-05	213.1	1.9737e-06	3.4593e-05	314.69	57.837	1.814e-06	2.4273e-06	110.9	35.346	15.522	4.7715	2.8059e-06	13.373	0.00034416	0.00010083	2.8035e-05	228.65	1.1072e-06	3.3882e-06	333.45	62.274	1.1419e-06	1.1008e-06	114.9	41.924	17.318	5.3239	1.1022e-06	14.107	121.967	278.036	316.481	-6.575	118.829	154.517	-6.278	-0.980	172.906	166.162	-1.816	3.330	4.436	8.297	183.595	6.902	-8191	255	
2756.744	1	1	0	0	0.12636	0.063777	0.22732	0.22608	0.22319	0.15011	0.14747	0.024911	0.25237	0.15869	0.11203	0.12607	0.086822	0.43382	0.14171	0.13	-2.5104	-2.6229	-2.8	-2.7646	-2.8833	-3.05	-2.8417	-2.9542	-2.8979	-2.7313	-3.1083	-3.0042	-2.6604	-2.9229	-2.7083	-2.9313	307.496	269.733	307.117	68.333	288.590	178.405	283.342	150.970	126.499	186.706	332.364	48.809	278.843	23.808	73.264	296.865	0.0006696	0.00011504	3.6851e-05	214.28	9.6729e-07	1.9488e-05	315.01	58.211	1.1223e-06	1.6598e-06	111.58	35.631	15.676	4.791	4.2663e-06	13.4	0.00031325	0.00010121	2.775e-05	228.54	1.0928e-06	3.6509e-06	333.3	62.471	1.1059e-06	1.0863e-06	115.29	41.635	17.449	5.3638	1.0883e-06	14.189	127.085	232.219	135.677	-6.669	197.081	85.429	-6.178	-1.202	196.926	26.817	-1.561	2.817	4.008	8.398	122.702	7.071	-8191	255	
2756.841	1	1	0	0	0.19028	0.14081	0.30725	0.16288	0.25407	0.20909	0.19093	0.23259	0.28167	0.21525	0.17722	0.21982	0.12766	0.28356	0.15286	0.2336	-2.4667	-2.6125	-2.6708	-2.9313	-2.6896	-3.0208	-2.85	-2.9542	-2.8187	-2.65	-2.8	-2.95	-2.7313	-2.9417	-2.8	-2.8646	2.673	127.295	234.699	119.218	297.351	25.509	72.121	202.545	158.907	194.164	31.078	271.161	327.077	325.584	14.253	50.392	0.00093965	0.00014481	6.7211e-05	214.3	2.2852e-06	1.0795e-05	315.63	58.442	4.75e-07	2.488e-06	110.86	35.726	15.67	4.8126	7.5102e-07	13.331	0.00035429	9.8418e-05	2.764e-05	229	1.0656e-06	1.8016e-06	344.86	62.765	1.1163e-06	1.0809e-06	115.22	42.532	17.476	5.3595	1.1204e-06	14.129	144.511	87.152	155.188	-6.418	56.921	83.461	-5.665	-0.987	283.012	82.455	-1.636	3.000	4.522	8.570	152.212	7.422	-8191	255	
2756.937	1	1	0	0	0.31994	0.18814	0.20663	0.25166	0.37191	0.14517	0.3074	0.29695	0.086725	0.048862	0.14318	0.27264	0.37558	0.41576	0.062121	0.21399	-2.5646	-2.6042	-2.975	-2.9646	-2.6396	-3.0687	-2.8292	-2.7979	-3.2167	-2.575	-2.9	-2.8667	-2.5083	-2.8167	-2.7646	-2.8583	300.977	245.837	47.136	332.439	248.057	93.138	294.892	311.594	311.054	235.033	265.757	186.286	258.842	36.516	219.167	330.917	0.00076694	0.00024116	3.6593e-05	212.74	3.1667e-06	1.2839e-06	316.11	58.224	1.951e-06	1.5765e-06	111.4	35.678	15.9	4.8093	8.3795e-07	13.43	0.0003212	9.9251e-05	2.7765e-05	228.61	1.0831e-06	1.0924e-06	358.08	62.56	1.1214e-06	1.1054e-06	115.32	41.921	17.562	5.3624	1.1369e-06	14.165	150.204	169.753	124.535	-6.767	198.608	34.171	-5.324	-1.116	119.811	85.634	-1.441	2.904	4.425	8.250	256.837	7.637	-8191	255	
2757.057	1	1	0	0	0.037289	0.14614	0.19789	0.082114	0.19626	0.084223	0.18298	0.2075	0.21376	0.35338	0.1659	0.02465	0.15638	0.09668	0.23583	0.155	-2.4479	-2.5333	-2.9271	-2.9104	-2.7	-2.9979	-3.0396	-2.7771	-3.1104	-2.7104	-2.9521	-2.8688	-2.3958	-2.9396	-2.7979	-2.7083	213.715	117.586	30.541	-12.446	111.186	61.152	124.510	128.087	330.335	9.103	93.678	127.668	115.997	310.435	-4.148	89.823	0.0010382	7.0768e-05	6.0091e-05	213.82	1.6842e-06	1.4379e-06	315.46	57.844	1.4569e-06	1.572e-06	110.27	35.52	15.68	4.7227	2.023e-06	13.351	0.00033994	0.00010436	2.8601e-05	229.75	1.1158e-06	1.1259e-06	352.14	62.41	1.1439e-06	1.1333e-06	115.09	42.464	17.484	5.2972	1.1768e-06	14.083	135.683	211.111	77.143	-6.390	138.982	209.751	-5.617	-1.084	97.792	181.276	-1.757	2.662	3.917	8.068	287.315	7.839	-8191	255	
2757.153	1	1	0	0	0.088313	0.14876	0.34393	0.20678	0.14404	0.28845	0.23309	0.088087	0.02281	0.24164	0.075759	0.10202	0.17392	0.089236	0.14126	0.11864	-2.7083	-2.7208	-2.7292	-3.025	-2.6708	-2.8438	-2.9167	-2.6375	-2.7208	-2.6875	-2.6854	-3.1437	-2.7375	-2.7875	-2.9188	-2.7	102.523	196.988	177.472	40.308	138.049	127.794	277.108	323.343	52.784	110.527	-17.433	24.873	10.663	209.760	190.426	29.235	0.00073621	0.00081967	3.296e-05	212.67	1.8875e-06	8.1926e-07	310.76	57.429	2.0821e-06	1.9085e-06	110.02	35.683	15.677	4.6935	2.7825e-06	13.061	0.00015936	0.0002343	2.9398e-05	227.61	1.1782e-06	1.1605e-06	355.97	62.168	1.1617e-06	1.1622e-06	114.61	41.716	17.471	5.2783	1.1958e-06	13.885	132.563	101.384	46.212	-6.736	150.069	80.521	-5.569	-1.043	101.097	157.641	-1.514	2.744	4.778	8.247	99.333	7.420	-8191	255	
2757.225	1	1	0	0	0.084453	0.081083	0.23151	0.13523	0.043469	0.35132	0.14782	0.19792	0.32162	0.33573	0.085488	0.031001	0.28961	0.18982	0.10783	0.17642	-2.3333	-2.8083	-2.6458	-2.9562	-2.6	-2.9625	-2.7833	-2.5729	-2.9667	-2.7062	-2.8542	-3.0938	-2.6458	-2.8771	-2.7854	-2.7833	130.663	228.533	111.921	20.470	242.626	23.854	263.572	314.219	55.449	311.718	197.330	128.416	204.264	-18.235	311.920	285.397	0.00014481	0.0035188	5.1713e-06	212.46	7.8888e-07	1.9393e-06	313.47	57.811	8.2805e-07	9.8834e-07	109.72	35.741	14.907	4.7326	1.2791e-06	13.034	0.00010635	0.00042841	2.8962e-05	227.2	1.1436e-06	1.1348e-06	357.09	62.158	1.122e-06	1.1517e-06	114.76	43.188	17.669	5.272	1.1256e-06	13.889	261.027	24.014	-11.249	-6.361	110.201	115.048	-5.032	-1.199	255.099	14.299	-1.558	2.215	5.940	7.961	34.363	7.179	-8191	255	
2757.346	1	1	0	0	0.042242	0.24198	0.22092	0.15974	0.061843	0.19707	0.1265	0.19055	0.21324	0.10445	0.14482	0.1481	0.22656	0.22129	0.1463	0.037067	-2.5479	-2.8542	-2.6667	-2.9979	-2.6167	-2.8375	-2.9333	-2.7188	-2.9146	-2.725	-2.7	-2.9354	-2.7875	-2.6937	-2.9375	-2.7042	238.063	83.067	16.307	332.244	172.204	81.176	185.965	19.131	275.621	16.480	114.507	117.290	154.902	127.295	240.208	329.187	0.00014851	0.0038948	9.2896e-05	211.61	1.0011e-06	2.4389e-06	311.26	57.603	3.3479e-06	2.6262e-06	110.37	35.845	15.125	4.7024	3.0623e-06	13.153	0.00010138	0.00044764	2.8056e-05	226.97	1.101e-06	1.0911e-06	370.23	62.001	1.0925e-06	1.1281e-06	115.03	39.184	22.465	5.21	1.1106e-06	13.811	280.158	27.567	95.589	-6.491	325.815	28.974	-5.469	-1.048	50.845	75.587	-1.593	2.009	5.671	8.167	155.174	7.209	-8191	255	
2757.440	1	1	0	0	0.046667	0.097585	0.02989	0.21461	0.07771	0.26087	0.17679	0.10261	0.011128	0.1812	0.24103	0.24688	0.2192	0.079518	0.12853	0.028707	-2.275	-2.9708	-2.6521	-2.9333	-2.6813	-2.7583	-3.0146	-2.6833	-2.8667	-2.7479	-2.475	-3.1188	-2.8229	-2.6604	-3.0208	-2.6604	12.636	128.459	275.869	25.275	23.708	95.863	310.345	33.851	57.023	178.307	257.159	197.926	185.028	293.516	306.278	331.984	0.00017344	0.0051332	9.6678e-06	211.81	3.8683e-06	3.8723e-06	312.69	57.346	2.735e-06	1.8186e-06	110.53	35.9	14.021	4.5601	1.4788e-06	12.949	9.8741e-05	0.00055724	2.679e-05	227.16	1.1021e-06	1.0701e-06	364.92	62.021	1.0449e-06	1.0864e-06	114.59	37.834	27.05	5.1228	1.0594e-06	13.628	254.162	38.233	161.476	-6.373	176.280	258.237	-5.312	-0.901	152.174	60.474	-1.662	3.421	0.340	9.230	180.597	7.171	-8191	255	
2757.536	1	1	0	0	0.16642	0.1894	0.20769	0.079711	0.2501	0.11859	0.27574	0.063651	0.18427	0.19864	0.19852	0.26329	0.10645	0.17725	0.15232	0.12797	-2.4813	-2.8	-2.6333	-2.8729	-2.8021	-2.8854	-3.0187	-2.6521	-2.675	-2.9313	-2.7542	-2.9958	-2.7979	-2.5333	-2.925	-2.6063	-7.151	31.397	240.145	280.843	105.537	141.783	56.331	70.222	322.249	186.554	152.672	26.896	219.666	61.048	236.952	57.164	0.00012944	0.0042717	6.9614e-05	212.01	1.3111e-06	2.2764e-06	313.73	56.014	2.5372e-06	2.1612e-06	109.52	35.66	14.689	4.5804	1.4284e-06	12.843	9.4855e-05	0.00045515	2.5513e-05	225.56	1.0529e-06	9.9343e-07	358.79	62.74	1.0025e-06	1.0289e-06	113.68	37.508	23.763	5.0727	1.0085e-06	13.503	261.824	50.159	28.832	-6.445	46.632	174.925	-5.924	1.335	92.320	148.730	-1.532	3.388	1.526	8.419	110.832	6.991	-8191	255	
2757.657	1	1	0	0	0.13979	0.38249	0.28156	0.071365	0.29024	0.031298	0.060992	0.22145	0.21928	0.11746	0.28947	0.065961	0.094041	0.23644	0.34126	0.13367	-2.4958	-2.8542	-2.5667	-2.9875	-2.9104	-2.6146	-2.9917	-2.7854	-2.8854	-2.9896	-2.6792	-2.9792	-2.8271	-2.6917	-3.0708	-2.6688	123.295	78.129	35.414	307.580	18.764	248.436	135.569	45.266	38.726	70.060	115.122	225.532	290.012	256.049	100.304	245.197	0.00014062	0.004074	7.8182e-05	210.97	2.2002e-06	1.1168e-06	311.47	56.232	3.3942e-06	5.4982e-07	110.14	35.446	14.66	4.5135	5.6879e-07	12.661	9.1226e-05	0.00046626	2.5202e-05	224.9	1.0254e-06	9.7783e-07	332.45	67.569	9.8525e-07	1.0167e-06	113.54	37.334	22.853	5.025	9.8816e-07	13.352	278.336	55.269	40.826	-6.466	91.305	311.088	-6.306	0.336	86.608	154.116	-1.598	3.313	1.646	8.311	293.334	7.344	-8191	255	
2757.753	1	1	0	0	0.36945	0.025545	0.24886	0.18327	0.12034	0.18619	0.29698	0.3055	0.23995	0.15562	0.16872	0.22304	0.27354	0.29774	0.32129	0.2005	-2.4417	-3.0563	-2.5625	-3.0104	-2.8625	-2.5333	-2.9208	-2.7292	-2.6688	-2.9021	-2.6854	-2.9604	-2.9375	-2.625	-3.1104	-2.7833	289.349	283.525	331.097	309.488	156.001	227.513	231.447	299.612	269.632	340.232	140.026	204.054	306.148	270.346	157.092	116.121	0.00016701	0.0020816	7.2983e-05	209.51	2.1047e-06	2.0216e-06	310.09	56.302	1.5484e-06	1.0324e-06	109.73	35.149	14.908	4.4587	1.1502e-06	12.723	9.0643e-05	0.00026942	2.5026e-05	223.53	1.0132e-06	9.8516e-07	327.72	67.913	9.8829e-07	9.8607e-07	112.92	37.055	19.85	4.9695	9.7964e-07	13.322	275.966	55.725	107.999	-6.163	59.095	100.810	-5.970	0.392	142.454	136.909	-1.539	3.519	2.786	8.914	109.136	7.558	-8191	255	
2757.849	1	1	0	0	0.16027	0.23245	0.17648	0.10298	0.16255	0.062481	0.23963	0.050458	0.090529	0.24995	0.37558	0.35786	0.24127	0.24419	0.14574	0.16783	-2.35	-2.9833	-2.7292	-2.7521	-2.7875	-2.6937	-2.8917	-2.75	-2.7625	-3.1625	-2.7729	-2.7438	-2.8937	-2.7583	-2.9771	-2.9437	318.765	307.031	263.579	15.191	175.055	302.995	244.549	222.862	201.051	1.746	265.176	283.731	252.369	285.808	10.016	262.346	9.938e-05	0.0015859	0.0004336	210.44	1.2162e-06	7.5804e-07	310.81	56.662	1.0573e-07	1.7974e-06	109.24	35.226	14.992	4.4567	2.5173e-06	12.502	8.9736e-05	0.00020038	2.948e-05	223.65	9.606e-07	9.4965e-07	327.72	63.899	9.4799e-07	9.5696e-07	112.56	36.997	18.919	4.9616	9.4019e-07	13.202	312.815	16.611	122.740	-6.423	2.532	206.093	-6.331	-0.591	226.354	62.196	-1.867	3.239	3.093	8.561	55.643	7.731	-8191	255	
2757.921	1	1	0	0	0.047559	0.22309	0.036963	0.17771	0.21628	0.051391	0.14558	0.12866	0.072127	0.11418	0.25105	0.19114	0.2406	0.18226	0.1735	0.31366	-2.3688	-2.9938	-2.6917	-2.7687	-2.9333	-2.7146	-2.8458	-2.9542	-2.6604	-3.1188	-2.7062	-2.4667	-3.0458	-2.6167	-2.9771	-2.9167	174.999	83.391	27.200	34.511	176.225	30.525	245.932	108.959	135.087	67.338	188.266	239.199	324.902	287.439	-16.931	336.349	0.00013582	0.00035303	0.00010034	210.16	1.3951e-06	2.6408e-06	312.37	56.362	1.1898e-06	2.0617e-06	109.17	35.216	15.105	4.4642	1.7672e-06	12.623	8.6643e-05	9.1826e-05	3.4934e-05	223.76	9.5273e-07	9.3178e-07	328.29	63.163	9.4557e-07	9.5566e-07	112.63	37.042	17.504	4.9649	9.5609e-07	13.259	296.077	33.739	149.919	-6.464	35.456	128.575	-6.167	-0.544	122.323	106.928	-1.557	3.140	2.962	8.569	183.125	7.733	-8191	255	
2758.042	1	1	0	0	0.073048	0.24632	0.016305	0.14444	0.1688	0.11905	0.24414	0.12018	0.18552	0.090783	0.30085	0.082717	0.16905	0.090893	0.15226	0.026621	-2.1667	-2.9375	-2.8458	-2.5187	-3.2229	-2.6542	-2.8729	-2.8917	-2.6188	-3.0938	-2.7875	-2.7375	-2.8146	-2.6646	-2.7583	-3.0042	56.517	304.067	173.614	91.562	22.526	336.422	16.348	153.647	265.404	266.749	152.419	247.273	141.933	282.436	173.976	231.299	0.00014072	0.00015314	0.00024712	210.37	4.0782e-07	2.6645e-06	312.61	57.118	1.6669e-06	1.9325e-06	108.53	35.293	15.334	4.5236	7.8373e-07	12.575	8.7332e-05	8.5808e-05	3.9017e-05	224.17	9.4721e-07	9.2502e-07	328.72	62.221	9.3435e-07	9.2928e-07	112.76	37.119	17.565	5.0151	9.1992e-07	13.262	270.680	73.299	86.480	-6.346	155.556	129.138	-5.941	-0.900	153.429	64.207	-1.640	3.486	3.623	8.185	268.081	7.474	-8191	255	
2758.138	1	1	0	0	0.15414	0.39574	0.13107	0.16329	0.057238	0.30841	0.18375	0.26273	0.1284	0.093527	0.031671	0.039479	0.087958	0.29617	0.12037	0.1451	-2.0979	-2.6021	-2.725	-2.6875	-2.7896	-2.8021	-2.9021	-3.0292	-2.8208	-2.9938	-2.7542	-2.5875	-3.0458	-2.7521	-2.8292	-2.975	58.575	192.349	131.247	-14.241	67.985	138.898	252.121	115.038	319.285	45.449	146.359	232.891	96.863	319.654	44.924	43.123	0.00014267	0.00018397	0.00013519	210.76	2.203e-06	2.843e-06	310.54	56.873	2.5438e-06	2.3613e-06	110.19	35.336	15.347	4.4798	1.8824e-06	12.515	8.5473e-05	8.3696e-05	2.9884e-05	224.3	9.1242e-07	8.9788e-07	327.8	62.548	9.0406e-07	9.0277e-07	112.71	36.971	16.731	5.0245	9.0421e-07	13.181	291.151	291.504	100.338	-6.390	203.565	85.355	-6.099	-0.772	168.645	38.851	-1.602	3.286	4.190	9.333	23.846	7.342	-8191	255	
2758.234	1	1	0	0	0.19952	0.14848	0.14013	0.17839	0.1733	0.22773	0.10252	0.1559	0.23637	0.050455	0.11787	0.22334	0.33555	0.21835	0.19583	0.20951	-2.3187	-2.8958	-2.7812	-2.6854	-3.0917	-2.7687	-2.7417	-3.0062	-2.6688	-2.825	-2.8458	-2.5438	-2.8771	-2.7646	-2.8271	-3.0292	113.015	87.019	-3.672	163.709	237.093	-4.168	242.354	38.974	129.982	278.678	259.698	299.290	176.799	90.437	202.145	260.579	0.00012582	8.3836e-05	0.00016028	211.39	1.905e-06	1.9684e-06	311.57	57.154	1.0778e-06	8.3755e-07	109.77	35.094	15.336	4.3934	1.1351e-06	12.557	8.4088e-05	8.2511e-05	3.5711e-05	224.19	8.989e-07	9.0011e-07	328.42	61.836	8.91e-07	8.9412e-07	112.98	36.856	16.703	5.129	8.9512e-07	13.159	267.130	112.327	85.069	-6.561	140.736	74.058	-6.393	-0.399	60.731	235.601	-1.947	3.439	4.452	8.218	160.518	7.431	-8191	255	
2758.330	1	1	0	0	0.15382	0.16092	0.20238	0.18688	0.10618	0.067959	0.11064	0.3306	0.048563	0.11744	0.03608	0.18039	0.18451	0.26004	0.10427	0.31557	-2.2333	-2.7708	-2.7771	-2.7875	-2.9667	-2.8875	-2.8292	-3.0458	-2.7313	-2.7562	-2.9625	-2.7875	-2.8958	-2.8625	-2.6125	-3.0479	250.048	271.088	75.936	265.126	257.469	98.675	70.367	53.911	206.536	151.862	156.003	166.305	340.830	2.248	237.683	62.856	0.00014683	7.4592e-05	9.1257e-05	209.98	2.7109e-06	2.3451e-06	309.59	57.026	6.042e-06	9.6784e-07	108.77	34.742	15.311	4.4118	6.7182e-07	12.429	8.2166e-05	8.1476e-05	2.7375e-05	223.47	8.8054e-07	8.7879e-07	326.68	61.723	9.5871e-07	8.6814e-07	111.98	36.64	16.536	4.9704	8.737e-07	13.043	272.217	302.019	63.490	-6.605	152.413	269.211	-6.254	-1.171	212.144	185.247	-1.248	3.008	5.048	7.902	190.395	7.500	-8191	255	
2758.449	1	1	0	0	0.2594	0.087699	0.11779	0.047088	0.22783	0.057412	0.13101	0.21155	0.17277	0.15245	0.40372	0.055464	0.066836	0.14953	0.093572	0.020464	-2.2354	-2.6854	-2.8333	-2.5771	-2.8521	-2.7292	-2.6729	-2.8854	-2.7417	-2.8438	-2.8875	-2.7667	-3.1333	-2.7521	-2.7208	-2.8854	110.139	216.147	62.237	244.873	188.452	340.612	293.253	310.647	276.345	48.572	222.511	62.304	249.084	-10.667	60.920	169.623	0.00015472	0.00020183	0.00012515	211.04	1.3913e-06	3.1711e-06	309.55	57.249	3.4444e-06	1.534e-06	108.97	34.923	15.305	4.408	6.3179e-07	12.416	7.9775e-05	7.9614e-05	3.3126e-05	222.84	8.7679e-07	8.6861e-07	326.46	60.883	1.0247e-06	8.6238e-07	112.09	36.729	16.555	5.106	8.6021e-07	13.027	320.209	56.460	92.361	-6.488	150.580	139.267	-6.130	-1.373	228.120	82.649	-1.727	3.570	4.483	7.899	65.385	7.528	-8191	255	
2758.522	1	1	0	0	0.17583	0.17056	0.094731	0.16673	0.049099	0.19349	0.12683	0.15278	0.088353	0.18376	0.127	0.30086	0.16223	0.032673	0.052215	0.18937	-2.2875	-2.8125	-2.7083	-2.4583	-2.7667	-2.9708	-2.6708	-2.95	-2.8438	-2.5458	-3.1271	-2.6125	-2.8083	-3.0125	-2.6146	-2.8333	37.624	281.452	148.299	272.772	266.629	49.291	97.162	300.994	255.211	298.544	-16.874	286.742	42.995	109.098	233.110	261.501	0.00019369	0.00014013	0.00018329	211.04	2.693e-06	2.6331e-06	311.02	57.112	7.7728e-06	1.375e-06	109.64	34.992	15.339	4.5061	3.0708e-06	12.562	8.0588e-05	7.9039e-05	2.8384e-05	223.19	8.4643e-07	8.5617e-07	327.21	61.05	1.3134e-06	8.4946e-07	112.37	36.695	16.576	5.0261	8.4685e-07	13.115	282.126	30.126	104.872	-6.700	148.461	95.159	-6.034	-0.668	230.521	88.640	-1.293	3.174	4.740	7.965	128.483	7.667	-8191	255	
2758.618	1	1	0	0	0.20682	0.14949	0.22746	0.1922	0.18392	0.1854	0.013703	0.29702	0.17259	0.205	0.086188	0.28364	0.22404	0.020838	0.097039	0.17993	-2.2458	-2.6917	-3.1479	-2.7208	-2.9062	-3.0646	-2.4375	-2.7875	-2.7583	-2.6146	-2.9125	-2.7854	-2.9188	-2.7604	-2.7438	-2.8583	329.997	10.335	80.535	271.778	270.569	332.129	131.870	252.222	287.121	225.626	152.214	41.197	340.605	205.234	45.642	185.482	0.00010546	0.0001268	0.00017078	212.14	9.4983e-07	1.5822e-06	312.89	57.721	4.8957e-06	1.8506e-06	109.99	35.031	15.396	4.4549	2.3273e-06	12.522	7.7901e-05	7.4479e-05	2.9029e-05	225.23	8.1899e-07	8.031e-07	328.31	61.317	1.0238e-06	7.7517e-07	112.38	36.766	16.42	5.0489	7.2588e-07	13.05	285.702	123.787	63.058	-6.178	168.987	80.500	-6.167	-0.988	257.770	113.292	-1.562	3.095	4.219	8.515	261.997	7.478	-8191	255	
2758.737	1	1	0	0	0.35397	0.1978	0.14849	0.19616	0.24576	0.1398	0.29493	0.26237	0.1513	0.25179	0.1509	0.2352	0.25224	0.04824	0.10723	0.18982	-2.375	-2.7667	-2.9479	-2.7667	-2.6458	-2.9917	-2.7917	-2.8208	-2.8792	-2.7125	-3.0625	-2.7562	-2.6562	-2.925	-2.7208	-2.7271	294.953	287.395	156.122	-10.541	250.527	207.839	6.213	292.819	252.447	188.123	180.223	253.630	264.147	283.862	330.895	299.718	0.00012901	0.00016397	9.9681e-06	211.25	1.1479e-06	5.0053e-07	312.86	57.969	8.1984e-06	1.6556e-06	108.93	34.994	15.305	4.4418	2.2235e-07	12.268	6.6636e-05	6.3701e-05	1.7582e-05	223.83	6.697e-07	6.5469e-07	326.74	60.59	1.0465e-06	5.9236e-07	110.66	36.256	16.029	4.8291	5.531e-07	12.8	263.822	98.864	181.447	-6.439	182.051	141.468	-6.245	-1.243	275.258	60.070	-1.653	3.271	4.620	8.958	-4.583	7.813	-8191	255	
2758.833	1	1	0	0	0.15774	0.13886	0.098669	0.18082	0.12865	0.25908	0.38092	0.048578	0.19804	0.17479	0.15697	0.22562	0.17546	0.18039	0.15544	0.059744	-2.3604	-2.6604	-2.8792	-2.5875	-2.7896	-3.0396	-2.6625	-2.8563	-2.8479	-2.4125	-3.0312	-2.8083	-2.7271	-2.9729	-2.7146	-2.5896	243.407	199.562	317.476	265.717	89.720	234.946	65.031	191.191	236.037	328.295	317.449	190.756	-7.433	207.550	18.260	70.358	0.00013348	6.6878e-05	3.2295e-05	211.32	7.1268e-07	6.3605e-07	311.78	57.579	1.6084e-06	1.4507e-06	109.82	34.903	15.326	4.4493	1.6389e-06	12.382	5.1945e-05	4.8034e-05	1.3181e-05	223.81	5.0868e-07	5.0308e-07	324.01	60.095	5.9943e-07	4.646e-07	109.6	36.05	15.752	4.7673	5.6595e-07	12.719	292.211	212.524	105.637	-6.356	169.992	242.609	-6.176	-1.227	171.334	55.922	-1.952	3.149	3.923	8.442	194.512	7.225	-8191	255	
2758.930	1	1	0	0	0.19257	0.30721	0.28545	0.056499	0.066644	0.14872	0.28655	0.23352	0.10363	0.17305	0.094164	0.13076	0.15058	0.19487	0.084386	0.13156	-2.5333	-2.5208	-2.8104	-2.5708	-2.6396	-2.9792	-2.6583	-2.8042	-2.9854	-2.5104	-3.0125	-3	-2.5333	-2.9479	-2.8063	-2.6437	170.508	196.280	161.060	87.217	296.870	83.572	291.034	210.490	139.478	336.495	177.776	41.035	328.844	3.739	266.478	99.137	0.00018331	9.4016e-05	5.6281e-05	210.5	1.2787e-06	1.1831e-06	309.55	56.958	4.3611e-06	1.2844e-06	108.73	34.759	15.344	4.4036	8.0824e-07	12.437	4.4443e-05	4.1732e-05	1.1771e-05	220.53	4.7119e-07	4.7056e-07	322.94	59.745	7.3799e-07	4.6904e-07	109.42	36.068	15.743	4.7	5.6812e-07	12.852	274.569	69.923	114.435	-6.522	109.012	-9.460	-6.185	-1.374	259.013	113.535	-1.573	3.159	4.283	8.310	174.959	7.846	-8191	255	
2759.026	1	1	0	0	0.056243	0.025459	0.091953	0.2591	0.28943	0.28617	0.34637	0.14052	0.38841	0.13602	0.05133	0.09303	0.15252	0.15513	0.041594	0.086518	-2.5333	-2.5812	-2.9333	-2.9188	-2.625	-2.9625	-2.7313	-2.7542	-3.0292	-2.675	-2.9104	-2.8063	-2.3896	-2.9938	-2.7375	-2.8	128.702	177.537	40.904	49.052	303.469	216.351	260.753	277.302	177.876	28.846	246.991	161.033	38.502	133.399	297.774	277.955	0.00013018	0.00015829	5.7298e-05	211.28	7.6023e-07	7.8666e-07	312.16	57.56	9.9823e-07	9.3126e-07	109.51	34.948	15.308	4.4367	4.8204e-06	12.518	4.754e-05	4.4534e-05	1.2616e-05	222.83	5.0437e-07	5.2313e-07	325.59	60.12	6.5167e-07	5.3839e-07	110.6	36.321	15.968	4.7612	8.9627e-07	12.925	296.618	171.748	81.831	-6.440	-5.154	236.052	-6.026	-0.979	169.130	104.110	-1.520	3.067	4.747	8.693	98.276	7.660	-8191	255	
2759.122	1	1	0	0	0.10078	0.20704	0.085566	0.048967	0.14053	0.2244	0.15743	0.13085	0.14002	0.17574	0.097934	0.15279	0.08467	0.20737	0.27585	0.23226	-2.5229	-2.5354	-2.8729	-2.9083	-2.5792	-2.8563	-2.8625	-2.6667	-3.1312	-2.8604	-2.7479	-2.9229	-2.6333	-2.975	-2.7979	-2.6896	303.996	336.092	208.144	166.449	316.690	121.150	142.924	28.735	228.871	210.940	300.602	-15.654	22.182	120.842	222.982	22.240	0.00016975	0.00011635	7.503e-05	212.45	2.1685e-06	8.293e-07	311.78	57.588	4.2467e-06	3.629e-06	110.36	35.04	15.356	4.4742	2.9192e-06	12.401	5.3664e-05	5.043e-05	1.4372e-05	223.35	5.6284e-07	5.6018e-07	325.65	60.511	8.1237e-07	7.2992e-07	110.73	36.361	15.978	4.7841	8.9221e-07	12.851	286.435	188.492	66.261	-6.517	184.117	93.454	-6.352	-0.969	326.911	243.494	-2.130	2.975	4.444	8.315	80.486	7.701	-8191	255	
2759.218	1	1	0	0	0.24874	0.14684	0.24739	0.077009	0.1111	0.26498	0.079599	0.19373	0.0926	0.13913	0.21704	0.085248	0.014352	0.36545	0.13922	0.17502	-2.5812	-2.6792	-2.7042	-3.0438	-2.4542	-2.8646	-2.775	-2.5542	-2.9396	-2.7354	-2.6917	-3.0021	-2.6667	-2.8979	-2.8229	-2.6813	19.165	97.546	100.396	271.550	178.498	337.425	331.044	195.119	303.185	247.860	309.025	1.676	244.558	152.015	184.116	169.951	0.00016728	6.4082e-05	8.9993e-05	210.34	1.0221e-06	7.5363e-07	311.57	57.165	2.9056e-07	4.1813e-06	108.85	34.666	15.218	4.3981	7.7675e-06	12.454	5.4755e-05	5.3667e-05	1.4642e-05	226.15	5.7942e-07	5.8955e-07	324.85	60.37	5.9861e-07	8.866e-07	110.25	36.19	16.012	4.7587	1.2291e-06	12.834	275.136	26.590	78.422	-6.070	218.956	107.722	-6.006	-1.022	32.752	192.830	-1.712	3.294	4.133	8.490	70.139	7.712	-8191	255	
2759.339	1	1	0	0	0.15939	0.49964	0.0103	0.3114	0.05667	0.20635	0.20444	0.25287	0.17114	0.093012	0.1045	0.30033	0.12875	0.13346	0.33486	0.21575	-2.6042	-2.7646	-2.6729	-2.9917	-2.7354	-2.7938	-3.0229	-2.4188	-3.0792	-2.8292	-2.7458	-2.9229	-2.8187	-2.6375	-3.0208	-2.5083	308.794	107.006	193.379	37.075	32.045	108.034	7.558	303.908	117.460	323.522	256.946	203.727	315.466	11.633	76.962	87.296	0.00015632	0.00011161	3.2342e-05	209.82	2.1033e-06	4.8197e-07	308.19	56.866	2.1134e-06	4.2539e-06	108.4	34.764	15.256	4.3679	2.8109e-06	12.222	5.9977e-05	5.7174e-05	1.5917e-05	223.47	6.3279e-07	6.3506e-07	323.4	59.909	6.3964e-07	1.1744e-06	109.66	35.905	15.985	4.7187	8.245e-07	12.69	288.192	69.623	164.217	-6.318	137.948	69.679	-6.372	-0.904	195.700	294.205	-1.846	3.136	4.135	8.160	130.238	7.921	-8191	255	
2759.435	1	1	0	0	0.12556	0.24188	0.19113	0.12202	0.17357	0.072598	0.17209	0.096994	0.24956	0.07585	0.14153	0.20205	0.15302	0.14778	0.060834	0.17875	-2.6917	-2.6646	-2.5354	-2.8937	-2.375	-2.9646	-3.0104	-2.6333	-2.8708	-2.825	-2.5896	-2.9292	-2.6625	-2.8063	-3.0542	-2.6	268.780	112.403	118.951	332.949	198.301	47.409	313.124	268.553	275.858	229.099	328.954	209.250	198.286	81.694	110.755	192.374	0.00010976	0.00014738	4.7746e-05	209.28	5.7943e-06	2.0838e-06	310.78	56.803	1.1558e-06	9.9124e-07	108.87	34.702	14.978	4.341	6.8433e-06	12.303	6.246e-05	5.8775e-05	1.6135e-05	221.15	7.7735e-07	6.3948e-07	323.4	59.801	6.267e-07	7.8275e-07	109.7	35.966	15.881	4.6994	1.0625e-06	12.7	287.697	143.538	42.076	-6.553	209.851	186.708	-6.443	-0.866	236.050	42.981	-2.124	3.296	3.887	8.140	88.857	7.177	-8191	255	
2759.529	1	1	0	0	0.017092	0.072884	0.12666	0.18692	0.40988	0.042377	0.21052	0.074199	0.10017	0.047865	0.39789	0.10366	0.17778	0.21117	0.11282	0.34837	-2.5438	-2.7812	-2.5938	-3.0687	-2.7604	-2.7625	-2.9979	-2.6729	-2.9917	-2.8812	-2.6771	-3.0458	-2.7875	-2.7292	-2.9958	-2.725	105.658	27.701	105.519	328.577	313.856	291.185	235.055	339.673	203.716	172.475	-4.170	70.597	276.818	319.884	252.605	207.859	0.00014462	5.3173e-05	2.7818e-05	210.22	8.0542e-07	1.6666e-06	309.82	56.839	4.8644e-07	4.153e-06	107.98	34.513	15.084	4.3704	3.0267e-06	12.247	5.8031e-05	5.5676e-05	1.4992e-05	219.69	7.7173e-07	6.0412e-07	323.01	59.736	6.0544e-07	1.0685e-06	109.56	35.825	15.845	4.6902	9.1495e-07	12.661	273.134	-0.860	41.386	-6.516	199.993	97.012	-6.129	-0.380	17.752	289.936	-1.585	3.078	3.809	8.437	115.202	7.090	-8191	255	
2759.625	1	1	0	0	0.26973	0.042926	0.11448	0.20939	0.25494	0.17989	0.17374	0.33023	0.18535	0.058188	0.33347	0.17316	0.19514	0.14813	0.12773	0.29554	-2.3021	-3.0458	-2.6146	-3.0021	-2.9417	-2.6875	-3.1167	-2.6542	-2.9958	-3.1354	-2.7167	-2.8667	-2.7375	-2.8229	-2.8979	-2.6354	248.483	217.039	16.012	-18.339	64.451	233.396	302.989	167.513	-5.551	170.768	47.741	300.097	296.861	334.101	-0.397	281.490	0.00014592	0.00014525	3.8794e-05	208.42	1.0749e-05	2.1104e-07	309.41	56.643	2.0795e-06	1.1475e-06	108.55	34.257	15.108	4.3454	6.1607e-06	12.161	5.7676e-05	5.6573e-05	1.5641e-05	219.25	1.2288e-06	6.1275e-07	323.26	59.73	6.2566e-07	9.0859e-07	109.8	35.877	15.922	4.7102	8.5932e-07	12.79	293.460	66.242	117.043	-6.679	205.402	214.656	-6.239	-0.945	74.967	289.477	-1.860	3.374	4.982	7.931	73.221	7.444	-8191	255	
2759.746	1	1	0	0	0.32873	0.1497	0.036526	0.33117	0.1954	0.16886	0.19184	0.023839	0.34346	0.12022	0.085488	0.086467	0.21463	0.12544	0.13744	0.10282	-2.35	-2.9167	-2.7562	-3.0062	-2.9	-2.6146	-3.0396	-2.725	-2.7125	-3.0563	-2.6688	-3.0396	-2.8917	-2.7771	-2.9729	-2.7	215.341	108.711	329.553	0.678	242.259	303.800	262.965	272.200	319.826	96.322	-17.764	281.671	224.251	129.997	35.867	16.697	0.00015456	7.1665e-05	3.6475e-05	207.63	2.3712e-06	1.2606e-06	306.93	56.255	1.5581e-06	4.9696e-06	106.66	34.202	14.731	4.3026	1.9833e-06	12.076	6.0954e-05	5.921e-05	1.6375e-05	219.29	8.9298e-07	6.5901e-07	321.44	59.463	6.6481e-07	1.0999e-06	108.68	35.488	15.746	4.6509	6.7876e-07	12.617	276.519	195.568	70.566	-6.535	237.286	103.730	-6.158	-1.182	19.322	317.623	-1.303	3.317	4.655	8.322	124.443	7.406	-8191	255	
2759.818	1	1	0	0	0.093974	0.10485	0.084965	0.17394	0.17962	0.098918	0.13958	0.11782	0.32488	0.22426	0.12776	0.10553	0.40382	0.099741	0.12894	0.13476	-2.2083	-3.1	-2.5708	-2.9188	-2.8479	-2.7417	-2.9896	-3.0104	-2.85	-2.9146	-2.8312	-2.9562	-2.8458	-2.5438	-2.8563	-2.8479	44.954	104.059	110.469	111.566	212.578	322.128	257.457	33.998	112.368	120.663	246.809	162.268	166.672	294.794	87.149	294.102	0.00011859	0.00024088	4.4919e-05	207.17	6.4496e-06	2.4447e-06	305.78	56.165	1.4584e-06	1.2958e-06	106.92	33.874	14.797	4.3342	2.6039e-07	11.895	6.4147e-05	6.2924e-05	1.7244e-05	218.62	1.0956e-06	6.7762e-07	321.02	59.199	6.9493e-07	8.5148e-07	108.71	35.336	15.745	4.6521	7.1107e-07	12.638	285.665	105.605	113.995	-6.429	225.426	80.133	-6.149	-1.059	217.837	-17.359	-1.587	3.163	4.295	8.365	189.945	7.835	-8191	255	
2759.914	1	1	0	0	0.15936	0.09115	0.12658	0.11107	0.22142	0.13213	0.21094	0.16128	0.15042	0.1917	0.16472	0.089376	0.16087	0.10266	0.18325	0.16271	-2.2896	-2.9958	-2.575	-2.8333	-2.7208	-2.5812	-2.9083	-2.8729	-2.6229	-3.2062	-2.7042	-2.6333	-2.9167	-2.5625	-2.9188	-2.8875	224.700	27.029	235.834	8.701	50.952	305.713	-15.476	-3.250	260.947	215.405	70.472	-6.174	181.358	204.360	-11.656	295.160	0.00014472	0.00014557	6.1096e-05	207.46	2.4793e-06	6.6603e-07	306.68	55.431	1.2955e-06	3.2495e-06	106.31	33.569	14.679	4.236	1.945e-06	11.905	6.5224e-05	6.5293e-05	1.7824e-05	218.25	8.1648e-07	7.0423e-07	320.85	59.011	7.0429e-07	8.3782e-07	109.56	35.126	15.729	4.6002	7.1394e-07	12.447	299.725	-10.237	58.169	-6.663	233.092	254.283	-5.939	-1.223	192.227	-10.845	-1.558	3.555	4.116	8.396	140.451	7.404	-8191	255	
2760.010	1	1	0	0	0.16854	0.10885	0.24625	0.18252	0.14192	0.059231	0.35837	0.2947	0.15457	0.19298	0.15829	0.09647	0.20181	0.11264	0.14645	0.1477	-2.2542	-2.8563	-2.7417	-2.7854	-3.0354	-2.7458	-2.9229	-2.9333	-2.5167	-2.9271	-2.8146	-2.8104	-2.9521	-2.6729	-2.8688	-2.8812	228.429	94.408	92.744	265.181	155.041	36.565	220.251	137.493	194.415	283.386	211.261	30.294	61.645	325.288	18.864	222.353	0.00011236	6.2469e-05	8.8802e-06	206.41	3.769e-06	2.6953e-06	303.99	55.773	5.9518e-07	1.2593e-06	106.27	33.9	14.581	4.2064	6.4899e-07	12.004	6.5558e-05	6.3899e-05	1.7888e-05	217.57	1.0375e-06	6.8749e-07	319.31	59.079	6.8642e-07	6.9759e-07	109.46	35.199	15.72	4.6139	7.0574e-07	12.669	299.930	-2.880	72.215	-6.561	217.937	50.729	-6.056	-1.061	12.137	17.045	-1.630	2.860	3.261	8.655	155.018	7.417	-8191	255	
2760.131	1	1	0	0	0.029957	0.22862	0.20031	0.052993	0.31029	0.15382	0.21414	0.13739	0.072808	0.19173	0.086923	0.22988	0.073144	0.10278	0.14075	0.013492	-2.1542	-2.9146	-2.7125	-2.6354	-3.0354	-2.8167	-2.9938	-3.0396	-2.7729	-3.0229	-2.7104	-2.8187	-3.0104	-2.6271	-2.7167	-2.9437	48.002	9.906	210.632	177.378	246.622	241.575	172.454	62.524	240.557	290.689	314.568	268.370	261.528	81.252	241.130	183.615	4.0209e-05	0.00013988	6.101e-05	205.84	1.6811e-06	9e-07	307.03	56.066	2.1353e-06	1.1131e-06	106.15	33.741	14.799	4.274	2.0544e-06	11.9	6.532e-05	6.3669e-05	1.7648e-05	217.67	8.5171e-07	6.9886e-07	320.68	59.179	6.9013e-07	7.1225e-07	110.85	35.204	15.738	4.623	7.1231e-07	12.49	299.755	108.920	53.613	-6.574	73.435	151.543	-6.330	-0.759	130.945	172.142	-1.709	3.042	4.440	8.401	203.001	7.452	-8191	255	
2760.227	1	1	0	0	0.071516	0.15045	0.25786	0.26088	0.19654	0.087658	0.1407	0.15678	0.20758	0.16737	0.16554	0.29627	0.27958	0.27212	0.28585	0.091961	-2.3563	-2.6979	-2.8354	-2.4604	-2.9646	-2.6437	-2.7667	-2.925	-2.5187	-2.9938	-2.9229	-2.5479	-2.9542	-2.6937	-2.7042	-2.9042	110.930	298.558	294.196	251.708	166.597	37.145	324.521	286.999	22.478	39.971	112.055	264.449	315.346	19.318	-15.366	227.262	0.00015072	0.00015997	7.6652e-05	206.45	1.2913e-06	7.149e-06	305.95	56.33	2.1186e-06	9.8972e-07	107.21	33.849	14.746	4.25	8.0024e-07	11.982	6.5393e-05	6.5806e-05	1.8191e-05	217.46	8.3863e-07	9.0203e-07	320.56	59.452	7.1224e-07	7.1543e-07	109.59	35.31	15.803	4.646	7.3058e-07	12.63	312.087	173.938	51.910	-6.668	249.878	231.326	-6.342	-1.109	166.158	135.939	-1.813	3.197	4.120	8.798	252.477	7.537	-8191	255	
2760.323	1	1	0	0	0.29205	0.10869	0.16099	0.21237	0.143	0.25498	0.077236	0.18343	0.11727	0.042462	0.13728	0.16972	0.1512	0.10883	0.096958	0.10387	-1.9979	-2.7396	-2.7313	-2.4854	-2.8333	-2.7479	-2.9188	-2.9771	-2.7375	-2.8708	-2.85	-2.7042	-2.8937	-2.7146	-2.6792	-2.9146	81.452	-11.872	289.361	266.282	58.329	6.821	55.754	150.966	146.781	246.300	314.059	245.784	279.394	53.465	133.812	28.373	0.00017399	0.00013659	3.5814e-05	206.95	1.138e-06	2.0206e-06	304.84	56.268	1.0876e-06	6.3775e-07	105.65	33.81	14.769	4.257	1.1492e-06	11.912	6.536e-05	6.5139e-05	1.7787e-05	217.47	7.0247e-07	8.2803e-07	320.01	59.289	6.8671e-07	6.8164e-07	110.42	35.245	15.764	4.6235	6.7726e-07	12.456	273.477	126.216	136.435	-6.616	47.709	150.122	-6.244	-0.842	127.722	201.724	-2.137	3.227	4.438	8.428	123.178	7.209	-8191	255	
2760.419	1	1	0	0	0.1123	0.038471	0.2708	0.15859	0.053253	0.12605	0.096741	0.14946	0.29138	0.15118	0.23432	0.13939	0.19773	0.1114	0.19807	0.094938	-2.2167	-2.8187	-2.8729	-2.5208	-2.9583	-2.8854	-2.7833	-3.0479	-2.6583	-2.8292	-3.0042	-2.7042	-2.8979	-2.8646	-2.7104	-2.9583	130.403	85.768	158.591	84.922	224.036	65.291	165.594	19.920	143.196	208.617	102.965	277.503	306.026	1.871	134.608	67.468	8.9361e-05	0.00013533	7.9084e-05	207.39	4.5595e-07	4.9626e-06	305.83	56.232	1.086e-06	1.2441e-06	107.49	33.918	14.822	4.2622	1.2068e-06	12.107	6.2422e-05	6.1055e-05	1.6892e-05	217.58	6.7177e-07	9.9791e-07	319.03	59.278	6.5696e-07	6.4387e-07	109.22	35.342	15.77	4.6415	6.2928e-07	12.543	290.562	136.109	101.815	-6.721	249.923	261.828	-6.172	-0.830	80.334	114.720	-1.486	3.228	4.213	8.185	65.324	7.469	-8191	255	
2760.513	1	1	0	0	0.11418	0.127	0.11316	0.14436	0.088723	0.21599	0.21063	0.28922	0.11353	0.3522	0.099815	0.19612	0.21915	0.12537	0.08031	0.066038	-2.3146	-2.7167	-2.9396	-2.6417	-3	-2.9083	-2.7938	-2.8479	-2.8458	-2.8354	-2.975	-2.725	-2.8583	-2.7521	-2.775	-3.0438	65.507	19.826	307.936	268.230	108.166	305.407	246.414	242.950	167.769	334.388	127.323	226.077	-16.947	174.293	-16.200	282.652	0.00027588	7.9406e-05	5.1493e-05	207.2	1.3438e-06	1.3452e-06	307.96	56.868	1.1714e-06	1.5333e-06	108.67	34.357	15.156	4.3708	1.7045e-06	12.076	7.5195e-05	5.6241e-05	1.5606e-05	218.39	6.2114e-07	7.1939e-07	321.24	59.941	6.0256e-07	6.0324e-07	111.18	35.611	15.802	4.6654	5.8603e-07	12.534	284.150	153.212	69.082	-6.440	185.178	249.257	-6.311	-0.863	123.121	133.307	-1.697	3.379	3.767	8.665	303.454	7.111	-8191	255	
2760.610	1	1	0	0	0.12956	0.14825	0.066833	0.024677	0.18677	0.15273	0.23003	0.077787	0.053831	0.17724	0.30033	0.198	0.033737	0.2122	0.16601	0.27897	-2.2729	-2.7229	-2.7625	-2.6021	-2.8104	-2.9271	-2.5667	-3.0938	-2.8833	-2.7792	-2.975	-2.5292	-2.8063	-2.6521	-2.6292	-2.8708	72.278	83.924	266.166	9.846	25.828	192.191	282.312	277.258	177.480	149.434	54.586	304.622	118.003	120.626	189.479	216.172	0.00015767	7.8468e-05	5.9391e-06	209.6	9.4937e-07	1.8604e-06	309.4	57.299	2.6273e-07	1.3708e-06	108.12	34.588	15.247	4.385	8.5767e-07	12.162	6.5921e-05	5.5162e-05	1.5091e-05	219.39	6.0531e-07	8.8637e-07	322.72	60.145	5.9457e-07	5.971e-07	110.3	35.874	15.994	4.7036	5.9383e-07	12.652	260.560	51.271	335.708	-6.914	243.971	251.847	-6.352	-1.204	259.844	153.796	-2.189	3.336	4.205	8.489	118.148	7.272	-8191	255	
2760.707	1	1	0	0	0.21677	0.16486	0.28816	0.086692	0.19043	0.057851	0.26756	0.092397	0.13993	0.16723	0.16545	0.19828	0.17125	0.26065	0.2498	0.18116	-2.2521	-2.6271	-2.9396	-2.6813	-2.8458	-2.8042	-2.5042	-2.875	-2.7375	-2.6542	-3.0083	-2.5646	-2.7396	-2.9958	-2.6521	-2.9521	224.790	35.246	209.663	125.074	80.795	247.068	160.197	152.644	111.851	315.929	262.932	139.526	115.799	24.216	285.263	86.419	0.00016759	0.00013798	2.6791e-05	209.37	9.9233e-07	1.3291e-06	310.18	57.868	1.8199e-06	1.4462e-06	109.52	34.766	15.264	4.4368	1.7042e-06	12.225	8.1161e-05	5.4039e-05	1.501e-05	220.4	5.9418e-07	6.863e-07	323.73	60.555	5.8623e-07	5.8087e-07	110.66	36.296	16.022	4.732	5.857e-07	12.699	253.900	122.631	291.315	-6.895	126.288	151.569	-6.161	-0.976	86.022	205.018	-1.951	3.394	4.249	8.500	20.266	7.411	-8191	255	
2760.826	1	1	0	0	0.16173	0.062127	0.031704	0.11515	0.33053	0.069727	0.096968	0.11528	0.16077	0.12446	0.15508	0.22148	0.084884	0.2008	0.15383	0.19608	-2.3646	-2.5833	-2.8063	-2.8646	-2.75	-2.8979	-2.475	-2.9667	-2.7854	-2.7271	-3	-2.7854	-2.7313	-3.0375	-2.5833	-2.8396	277.915	233.059	179.452	226.299	160.574	115.704	219.100	298.435	169.860	136.247	321.712	334.196	35.259	186.098	336.801	26.143	0.00016034	0.00016657	2.6642e-05	209.45	1.2985e-06	3.5012e-06	311.36	57.687	1.5938e-06	1.2459e-06	109.27	34.612	15.363	4.3829	5.1732e-07	12.299	6.4263e-05	5.3695e-05	1.4778e-05	220.18	5.8274e-07	8.4972e-07	324.03	60.678	5.8755e-07	5.7802e-07	110.2	36.037	16.018	4.7248	5.7842e-07	12.661	276.779	83.670	9.404	-6.636	199.588	260.930	-5.893	-0.564	147.025	149.863	-1.811	3.183	4.129	9.124	45.676	6.916	-8191	255	
2760.923	1	1	0	0	0.17233	0.33961	0.10767	0.12314	0.094785	0.074505	0.13473	0.35641	0.10548	0.19127	0.15744	0.18308	0.10226	0.12915	0.19311	0.066558	-2.4479	-2.5854	-2.9417	-2.8792	-2.7188	-2.9208	-2.8563	-2.8937	-3	-2.6937	-2.8958	-2.8833	-2.6271	-3.0354	-2.6375	-2.7646	-11.204	193.426	100.419	37.283	196.546	157.305	66.330	207.353	61.999	335.452	305.760	253.386	174.837	126.124	282.172	44.169	0.00019	0.00018655	3.2941e-05	210.65	2.9624e-06	1.0596e-06	309.03	57.562	7.5579e-07	9.288e-07	109.04	34.308	15.152	4.3428	8.5335e-07	12.09	8.0209e-05	5.2164e-05	1.4904e-05	220.97	5.804e-07	6.6586e-07	323.02	60.479	5.86e-07	5.77e-07	109.81	36.077	15.894	4.6738	5.8466e-07	12.509	266.500	87.232	101.068	-6.646	142.194	265.767	-6.291	-1.169	102.257	119.689	-1.721	3.117	3.899	8.859	108.901	7.209	-8191	255	
2761.019	1	1	0	0	0.24854	0.2209	0.13901	0.17144	0.17994	0.10833	0.0055646	0.15163	0.066295	0.26789	0.062787	0.24949	0.29723	0.137	0.085659	0.097589	-2.55	-2.6104	-2.8021	-2.9417	-2.4562	-2.8688	-2.8688	-2.7313	-3.1958	-2.65	-2.8438	-2.8458	-2.5479	-2.9771	-2.8167	-2.6708	133.054	314.802	41.276	-10.121	216.781	310.613	182.533	324.440	10.006	43.271	301.917	58.095	200.569	324.768	214.517	173.635	0.00018286	3.3899e-05	4.8747e-05	209.37	6.3715e-07	9.0005e-07	309.63	57.647	5.0212e-07	2.2356e-07	109.22	34.383	15.328	4.3457	1.3836e-06	12.169	6.3979e-05	5.2786e-05	1.5017e-05	220.4	5.874e-07	6.4048e-07	324.96	60.421	5.8973e-07	5.755e-07	109.92	35.844	15.938	4.6813	5.9131e-07	12.55	282.482	117.236	92.014	-6.474	180.279	-17.735	-6.445	-1.218	89.217	260.986	-1.706	3.236	3.861	8.546	182.298	7.055	-8191	255	
2761.115	1	1	0	0	0.12323	0.1563	0.23678	0.21972	0.23712	0.17685	0.24763	0.28024	0.1204	0.02765	0.13594	0.17496	0.23885	0.21768	0.15606	0.36145	-2.2833	-2.5875	-2.7833	-2.7729	-2.5771	-2.9021	-2.7583	-2.6229	-3.0042	-2.6	-2.8729	-3.0396	-2.7313	-2.7708	-2.6854	-2.7896	326.180	-3.048	289.225	190.428	110.437	160.976	242.478	42.670	28.033	134.220	136.702	13.967	27.581	334.943	111.412	-9.566	0.00023034	0.00018523	2.3759e-05	208.93	1.0011e-06	7.0609e-07	308.43	57.602	1.1472e-06	1.233e-06	108.1	34.291	15.008	4.3474	1.6336e-06	11.999	7.9241e-05	5.274e-05	1.5137e-05	220.21	5.7488e-07	5.9234e-07	323.82	60.233	5.9308e-07	5.7915e-07	109.23	35.904	15.762	4.6516	5.7745e-07	12.453	264.277	42.525	78.248	-6.391	320.620	188.229	-6.221	-0.724	186.255	12.858	-2.186	2.769	4.660	8.809	74.739	7.452	-8191	255	
2761.211	1	1	0	0	0.17819	0.09094	0.17515	0.25455	0.037376	0.092274	0.11768	0.2	0.10186	0.40105	0.1182	0.20252	0.096061	0.3756	0.18257	0.19653	-2.5646	-2.7104	-2.7438	-2.9771	-2.6167	-2.8312	-2.9	-2.7104	-2.9833	-2.8396	-2.8917	-2.8708	-2.6417	-2.8979	-2.7562	-2.8354	193.865	80.642	265.716	287.631	283.931	154.964	148.837	116.726	206.160	38.774	244.034	222.102	141.568	62.921	108.782	194.084	6.8371e-05	0.00017603	5.0676e-05	209.49	1.1866e-06	3.7011e-07	307.12	57.116	7.2492e-07	1.4659e-06	108.53	34.392	15.021	4.3188	4.6719e-07	11.923	6.214e-05	5.3496e-05	1.4794e-05	219.94	5.7173e-07	5.9164e-07	323.55	59.974	5.849e-07	5.8507e-07	109.44	35.655	15.814	4.6671	6.0075e-07	12.44	279.183	152.298	64.055	-6.789	297.438	257.043	-6.435	-1.083	57.535	254.406	-1.882	2.864	4.336	7.979	223.310	7.152	-8191	255	
2761.307	1	1	0	0	0.2646	0.088652	0.26307	0.21955	0.13577	0.25155	0.19867	0.083146	0.14376	0.30697	0.093617	0.10863	0.20757	0.13205	0.14872	0.037109	-2.7083	-2.7125	-2.775	-2.8708	-2.5542	-2.85	-2.8375	-2.7583	-3.0479	-2.9417	-2.7438	-3.0479	-2.5042	-2.9583	-2.8771	-2.6354	299.377	330.582	19.118	230.823	328.869	105.859	42.037	242.506	151.310	75.661	82.926	336.344	38.462	253.010	339.010	176.888	0.00014929	0.0004701	2.5544e-05	208.9	1.8199e-07	1.7954e-06	309.68	57.678	8.7183e-07	1.4385e-06	108.41	34.33	14.95	4.384	5.1023e-07	12.014	6.0511e-05	7.2875e-05	1.5263e-05	219.91	5.9225e-07	6.0341e-07	323.69	60.376	6.0558e-07	5.9168e-07	109.11	35.938	15.908	4.6715	5.9885e-07	12.478	254.297	141.839	165.298	-6.772	3.498	112.853	-6.389	-0.851	189.711	278.727	-1.658	3.037	4.918	8.190	49.703	7.536	-8191	255	
2761.428	1	1	0	0	0.11198	0.18331	0.18079	0.14617	0.14096	0.2015	0.24817	0.061846	0.12073	0.076021	0.10164	0.038007	0.069171	0.12465	0.08518	0.081184	-2.5146	-2.7062	-2.6583	-2.8646	-2.7417	-3.075	-2.7708	-2.7104	-2.9396	-2.8167	-2.6	-2.8375	-2.7812	-2.6083	-3.0625	-2.6688	188.171	236.818	308.776	208.832	124.436	267.040	284.934	191.426	56.020	10.564	25.121	68.340	72.072	279.779	163.917	26.419	0.00014138	6.2938e-05	2.4291e-05	209.99	2.4245e-06	1.8146e-06	308.1	57.698	1.036e-06	8.0077e-07	108.07	34.401	15.205	4.3969	1.797e-06	12.154	5.8313e-05	6.3858e-05	1.5219e-05	220.37	6.0286e-07	6.0127e-07	325.43	60.37	6.0136e-07	5.9648e-07	109.74	35.857	16.029	4.7141	6.0119e-07	12.565	279.748	187.858	31.324	-6.769	138.773	118.538	-6.399	-1.082	102.901	232.908	-1.865	3.102	4.297	8.581	157.818	7.881	-8191	255	
2761.522	1	1	0	0	0.26421	0.30042	0.19777	0.069129	0.066958	0.13782	0.14873	0.18721	0.066735	0.015078	0.09139	0.3824	0.13937	0.18051	0.15021	0.065737	-2.4208	-2.7042	-2.5312	-3.0375	-2.6958	-2.9688	-3.0167	-2.6729	-2.9625	-2.8312	-2.5667	-3.0292	-2.6771	-2.6125	-2.9292	-2.5604	244.952	207.266	319.501	296.254	25.093	12.847	299.934	241.931	211.444	106.059	247.480	253.894	335.409	72.769	271.096	-3.425	0.00013871	0.00044366	5.3569e-05	210.11	1.1887e-06	7.2248e-07	309.31	57.488	2.0658e-07	1.2867e-06	108.08	34.336	15.213	4.366	5.547e-07	11.983	5.7181e-05	8.3236e-05	1.5007e-05	220.42	5.926e-07	6.0248e-07	324.72	60.405	6.0552e-07	5.9137e-07	109.42	35.699	16.421	4.6788	5.9061e-07	12.462	301.255	157.262	31.250	-6.530	88.375	138.423	-6.199	-0.902	103.332	253.260	-1.905	3.128	4.187	8.110	150.161	7.193	-8191	255	
2761.618	1	1	0	0	0.16215	0.1699	0.053762	0.17093	0.25837	0.070901	0.13086	0.12843	0.11884	0.1351	0.058625	0.16945	0.11387	0.29986	0.13929	0.080471	-2.475	-2.6083	-2.5938	-2.8604	-2.9125	-2.7083	-2.8875	-2.6667	-3.0896	-2.875	-2.7	-2.95	-2.8167	-2.6583	-3.0417	-2.8563	273.541	226.174	220.293	41.312	234.142	305.368	96.158	213.116	23.872	263.924	70.488	43.875	222.871	20.716	326.172	265.289	0.00015228	0.00029734	1.9657e-05	209.18	5.7675e-07	9.91e-07	306.96	57.368	1.6468e-06	8.8731e-07	108.41	34.279	15.262	4.3408	1.3265e-06	12.039	5.6539e-05	6.7638e-05	1.4722e-05	219.87	5.9134e-07	5.8265e-07	325	60.131	5.8871e-07	5.8474e-07	109.24	35.586	16.221	4.6534	5.9991e-07	12.448	281.798	120.513	166.737	-6.296	327.603	313.979	-6.195	-0.965	84.815	102.939	-1.971	3.326	4.562	8.418	87.201	7.744	-8191	255	
2761.690	1	1	0	0	0.27791	0.12306	0.10005	0.2675	0.3182	0.055044	0.12766	0.37659	0.051861	0.19078	0.26279	0.19206	0.10836	0.19322	0.13426	0.1294	-2.4542	-2.7958	-2.425	-2.8396	-2.9229	-2.7208	-3.0438	-2.8208	-2.8708	-3.1667	-2.6833	-2.8458	-2.9167	-2.7229	-2.9	-2.9062	203.927	146.867	250.600	6.615	-11.736	98.563	221.663	200.066	14.557	272.233	237.726	162.597	286.222	124.935	127.521	263.749	0.00012938	0.00046074	5.4065e-05	209.66	6.6919e-07	1.6488e-06	308.57	57.116	9.4236e-07	1.5725e-06	108.07	34.129	15.045	4.3383	7.5196e-07	11.929	5.51e-05	9.2995e-05	1.4658e-05	219.74	5.8437e-07	5.6741e-07	322.57	60.177	5.8405e-07	5.8825e-07	109.18	35.437	16.608	4.6434	5.896e-07	12.384	316.197	158.346	-4.385	-6.322	328.270	213.600	-6.100	-0.665	131.000	43.845	-1.370	3.501	3.724	8.763	149.063	7.222	-8191	255	
2761.788	1	1	0	0	0.054652	0.10865	0.26382	0.018644	0.26305	0.086852	0.18027	0.10538	0.18791	0.052496	0.1325	0.054258	0.058711	0.16651	0.34493	0.1289	-2.3667	-2.8688	-2.4646	-2.8937	-2.7083	-2.7042	-2.9208	-2.9542	-2.7167	-2.9354	-2.7854	-2.975	-2.8917	-2.4708	-2.8375	-2.7021	199.976	53.185	147.799	220.409	146.318	66.281	147.972	136.360	20.172	133.124	-11.505	52.857	58.497	193.888	41.708	334.091	0.00012025	0.00013991	4.4956e-05	208.81	1.7996e-06	1.4581e-06	307.52	57.485	1.7966e-06	9.6784e-07	108.46	34.068	15.003	4.3513	1.6617e-06	12.133	5.5462e-05	6.9575e-05	1.4552e-05	219.33	5.8197e-07	5.69e-07	321.78	61.191	5.6476e-07	5.7124e-07	109.1	35.395	16.138	4.6604	5.8318e-07	12.505	271.614	107.120	60.430	-6.344	130.327	188.943	-6.199	-1.054	77.961	161.893	-1.689	3.118	4.096	8.385	135.297	7.277	-8191	255	
2761.907	1	1	0	0	0.17113	0.15839	0.089643	0.2611	0.06868	0.10594	0.094907	0.40971	0.10318	0.12611	0.14733	0.21157	0.13395	0.056202	0.10724	0.19005	-2.3187	-2.9208	-2.6	-2.8333	-2.8771	-2.6417	-2.9958	-2.7062	-2.7188	-3.05	-2.7438	-2.9396	-3.0333	-2.6479	-2.9917	-2.5979	99.127	85.688	-11.088	51.925	249.772	35.203	263.868	40.001	88.444	295.894	41.597	279.408	41.964	0.817	243.573	329.965	0.0001204	0.00044531	7.8391e-05	210.2	1.8623e-06	2.1231e-06	307.91	57.317	2.7849e-06	1.3313e-06	108.76	34.181	15.308	4.3453	2.1264e-06	12.091	5.4968e-05	9.1596e-05	1.4645e-05	220.14	5.8193e-07	5.715e-07	322.4	60.701	5.7608e-07	5.7736e-07	109.24	35.624	16.664	4.6905	5.9489e-07	12.532	282.526	158.652	107.472	-6.605	131.677	158.790	-6.104	-1.220	41.457	154.497	-1.808	3.065	3.559	8.558	173.645	7.330	-8191	255	
2762.003	1	1	0	0	0.027614	0.18228	0.12007	0.31653	0.22413	0.27812	0.15226	0.17388	0.14007	0.089817	0.13011	0.11955	0.26896	0.26289	0.18627	0.19613	-2.3187	-2.8583	-2.6521	-2.8854	-2.8625	-2.5729	-2.8729	-2.8042	-2.4542	-2.7979	-2.9188	-2.7438	-2.9396	-2.5687	-2.8021	-2.8	230.697	47.619	275.186	156.809	240.061	238.663	54.761	33.219	303.651	243.710	25.457	49.707	49.119	279.159	185.430	284.062	0.00015327	0.0001822	5.2579e-05	208.02	9.5532e-07	2.4229e-06	308.1	57.363	9.2101e-07	4.282e-07	108.93	34.144	15.269	4.4117	1.5125e-07	12.143	5.5614e-05	6.4189e-05	1.576e-05	219.6	5.9869e-07	5.9267e-07	322.73	61.624	6.0469e-07	6.0693e-07	109.59	35.739	16.388	4.7406	6.3116e-07	12.637	281.140	43.395	129.162	-6.592	145.699	172.416	-6.118	-1.028	66.616	83.374	-1.725	3.244	3.830	8.112	159.101	7.309	-8191	255	
2762.099	1	1	0	0	0.15348	0.32313	0.13212	0.090739	0.063921	0.10754	0.17217	0.051336	0.18651	0.15216	0.14429	0.20647	0.10923	0.066294	0.1457	0.072073	-2.1375	-2.8937	-2.5687	-2.8042	-2.9167	-2.6104	-2.875	-2.8812	-2.525	-3.0021	-2.7271	-2.8125	-2.9271	-2.5896	-2.7625	-2.8312	265.907	38.178	141.132	301.550	271.007	59.541	252.080	147.502	34.581	20.388	223.935	-11.226	108.205	199.871	120.787	47.955	9.8946e-05	0.00012969	0.00013928	208.38	1.6266e-06	1.0334e-06	308.64	57.713	1.3707e-06	3.7442e-07	108.62	34.292	15.521	4.4065	8.6128e-07	12.15	5.8796e-05	5.8897e-05	2.507e-05	219.96	6.3395e-07	6.3002e-07	322.44	60.952	6.4165e-07	6.4385e-07	109.75	35.742	16.886	4.74	6.446e-07	12.614	314.308	328.713	160.912	-6.936	90.551	114.589	-5.970	-1.040	130.962	153.348	-1.724	3.497	4.437	8.681	168.860	7.916	-8191	255	
2762.220	1	1	0	0	0.36535	0.12395	0.13436	0.20048	0.24332	0.13249	0.14439	0.20729	0.14069	0.21954	0.090139	0.28036	0.43017	0.11587	0.27794	0.077239	-2.1583	-2.9042	-2.7625	-2.5896	-3.0875	-2.6375	-2.8104	-2.8896	-2.7396	-3.0271	-2.7604	-2.5938	-3.025	-2.7417	-2.7	-2.9292	229.394	63.584	176.429	182.178	185.341	106.609	287.749	322.526	300.598	60.649	266.160	318.878	6.052	213.479	254.095	2.814	0.00011395	7.6344e-05	3.8166e-05	207.68	6.2345e-07	9.0564e-07	307.38	57.737	2.1792e-06	1.8614e-06	108.43	34.641	15.113	4.3952	1.5525e-06	12.16	5.9266e-05	5.9026e-05	2.0414e-05	219.4	6.4788e-07	6.2922e-07	321.83	61.641	6.3953e-07	6.4848e-07	109.84	35.859	16.25	4.7651	6.3111e-07	12.649	275.021	34.357	159.285	-6.421	320.514	182.692	-6.063	-1.127	51.565	91.200	-2.087	3.008	4.174	9.090	76.948	7.188	-8191	255	
2762.291	1	1	0	0	0.15444	0.17155	0.14335	0.15194	0.11116	0.32775	0.20252	0.19985	0.1893	0.21703	0.24306	0.022658	0.17345	0.28534	0.22724	0.22949	-2.1312	-2.9542	-2.9125	-2.5625	-3.0833	-2.8042	-2.6917	-2.8854	-2.6208	-2.9875	-2.9625	-2.5479	-2.7854	-2.5708	-2.6604	-2.7417	308.165	26.865	212.790	98.051	6.756	77.093	84.178	-17.436	270.404	301.949	275.236	268.186	128.028	199.159	285.190	211.859	0.00011667	0.00021263	5.3051e-05	208.38	2.1074e-06	1.1398e-06	308.67	57.294	7.4547e-07	7.7785e-07	108.07	34.328	15.227	4.3794	3.3456e-06	12.137	5.9276e-05	5.8122e-05	2.6078e-05	219.29	6.2864e-07	6.074e-07	322.01	60.741	6.1107e-07	6.1088e-07	109.06	35.74	15.995	4.8883	5.9666e-07	12.581	270.743	48.038	182.512	-6.303	125.692	148.697	-6.304	-1.240	253.812	328.493	-1.687	2.974	4.365	8.446	116.027	7.228	-8191	255	
2762.388	1	1	0	0	0.056401	0.074091	0.25009	0.22751	0.12283	0.19713	0.17797	0.04976	0.27079	0.16988	0.092853	0.091411	0.17153	0.01283	0.22359	0.22832	-2.35	-2.8521	-2.8208	-2.5354	-3.0062	-2.7875	-2.4979	-3	-2.8417	-2.8667	-2.9917	-2.6792	-2.9958	-2.8438	-2.6833	-3.0208	158.504	324.608	227.477	244.723	147.225	281.133	109.108	258.215	4.801	93.110	289.563	266.384	25.633	331.346	327.472	22.384	0.00010001	2.0792e-05	4.3895e-05	207.75	2.0739e-06	1.0266e-06	306.3	57.397	2.1381e-06	2.5273e-06	108.49	34.512	15.293	4.5051	8.6457e-07	12.24	5.6256e-05	5.5478e-05	1.872e-05	218.53	5.8759e-07	5.8744e-07	321.1	61.541	5.8113e-07	5.807e-07	109.15	35.815	16.006	4.8198	5.6779e-07	12.654	290.494	59.092	197.317	-6.346	64.499	169.598	-6.093	-1.548	115.041	92.898	-1.988	3.092	4.348	8.391	101.980	7.434	-8191	255	
2762.508	1	1	0	0	0.22587	0.11426	0.040002	0.095871	0.030786	0.21379	0.10777	0.055565	0.071751	0.29832	0.13177	0.053434	0.20073	0.030737	0.17808	0.17644	-2.3646	-3.0708	-2.9396	-2.5292	-2.8729	-2.8667	-2.8042	-2.9083	-2.6854	-2.8229	-3.0625	-2.6104	-2.9521	-2.8875	-2.4313	-2.95	-10.709	129.405	302.162	332.469	257.401	199.019	281.052	52.225	100.516	81.012	330.793	72.999	36.424	335.992	12.073	107.625	0.00014594	0.00019291	0.00010011	207.47	1.8264e-06	8.7957e-07	308.06	57.436	5.0256e-07	9.8841e-07	107.95	34.574	15.323	4.4722	1.648e-06	12.333	5.3988e-05	5.2806e-05	2.4632e-05	218.76	5.7841e-07	5.6689e-07	321.76	60.678	6.1492e-07	5.6539e-07	109.15	35.944	16.03	4.9401	5.5568e-07	12.7	290.089	154.269	186.227	-6.710	69.066	120.320	-6.200	-1.025	332.077	162.071	-1.849	3.301	3.740	8.498	111.391	7.319	-8191	255	
2762.603	1	1	0	0	0.11295	0.18596	0.033972	0.12816	0.30666	0.14259	0.26608	0.14441	0.23768	0.19422	0.22672	0.20429	0.23418	0.27747	0.25637	0.095551	-2.2292	-2.8958	-2.7542	-2.6792	-2.95	-2.9667	-2.5125	-2.8771	-2.7396	-2.6979	-2.9313	-2.5958	-2.7438	-2.8187	-2.6854	-2.925	277.055	211.617	208.528	47.354	297.517	315.249	209.787	133.052	132.872	258.812	230.396	36.845	47.239	47.537	221.340	-6.645	0.00013448	0.00017159	1.856e-05	210.26	4.5811e-07	1.665e-06	308.25	57.857	2.4629e-06	9.2462e-07	108.92	34.738	15.3	4.5016	9.133e-07	12.346	5.2982e-05	5.1552e-05	1.7927e-05	219.77	5.753e-07	5.7034e-07	322.49	60.64	9.2325e-07	5.6289e-07	109.88	36.125	16.155	4.8753	5.6297e-07	12.803	269.038	28.160	232.828	-6.274	340.214	14.731	-5.904	-0.910	107.989	129.082	-1.645	3.166	4.078	8.969	13.395	7.440	-8191	255	
2762.699	1	1	0	0	0.07604	0.1421	0.051676	0.13051	0.21658	0.19384	0.106	0.27542	0.19526	0.31908	0.068463	0.061898	0.1286	0.12159	0.13177	0.096059	-2.2167	-2.6312	-2.9271	-2.6312	-2.7479	-2.95	-2.6229	-2.9813	-2.7729	-2.9042	-2.8458	-2.5083	-2.8229	-2.9875	-2.7687	-3.0021	25.211	6.129	110.635	192.658	62.735	281.319	-7.984	168.497	125.208	103.692	110.355	318.427	31.470	280.404	212.554	65.979	0.00012172	0.00016633	0.00012046	211.4	2.0098e-06	1.7003e-06	311.37	58.129	2.3198e-06	2.3705e-06	109.93	35.309	15.549	4.5617	1.2578e-06	12.46	5.4203e-05	5.1385e-05	2.4342e-05	221.46	5.6555e-07	5.6133e-07	324.7	61.031	7.1195e-07	5.6016e-07	110.89	36.474	16.246	5.0417	5.6994e-07	12.91	262.421	117.920	186.817	-6.816	119.017	75.200	-6.247	-1.395	9.780	95.418	-1.650	3.192	3.925	8.714	64.096	7.619	-8191	255	
2762.819	1	1	0	0	0.060205	0.22052	0.35717	0.26966	0.068215	0.074257	0.10082	0.11047	0.20592	0.056908	0.14006	0.10562	0.16218	0.053398	0.1471	0.074915	-2.3292	-2.7167	-2.8312	-2.6688	-2.875	-2.9167	-2.6896	-2.925	-2.8354	-2.4833	-2.9333	-2.7583	-2.7396	-2.9604	-2.6562	-2.925	269.526	-7.283	7.558	333.239	3.469	96.294	111.525	198.541	16.478	253.272	260.133	221.610	293.803	279.291	311.325	319.681	0.00016796	7.4288e-05	2.0959e-05	210.6	1.4081e-06	3.1187e-06	310.57	57.745	5.6653e-06	2.5809e-06	110.37	35.108	15.63	4.5127	8.6928e-07	12.454	5.3545e-05	5.1536e-05	1.6011e-05	221.23	5.6641e-07	5.7214e-07	324.16	61.046	9.388e-07	5.5857e-07	110.51	36.43	16.33	4.902	5.6114e-07	12.9	288.089	133.190	200.203	-6.481	192.559	119.754	-6.156	-1.028	37.639	131.455	-1.721	3.576	4.164	9.173	92.598	7.430	-8191	255	
2762.915	1	1	0	0	0.14867	0.16167	0.061544	0.16222	0.024813	0.33977	0.17533	0.12757	0.2996	0.18922	0.048686	0.12568	0.21605	0.17312	0.10766	0.075086	-2.2979	-2.7125	-2.9125	-2.6708	-2.6271	-2.8396	-2.8042	-3.0667	-2.7375	-2.5417	-3.0021	-2.825	-2.7833	-2.9167	-2.7313	-2.7313	220.463	41.535	108.703	9.879	199.403	299.824	39.486	-12.243	330.148	85.271	285.576	196.000	291.066	-17.846	114.395	285.904	0.00015392	0.00028492	1.4599e-05	210.61	8.9768e-07	1.2018e-06	310.29	58.04	8.311e-07	1.0762e-06	109.09	34.88	15.53	4.526	1.9419e-06	12.314	5.4864e-05	5.1617e-05	1.4561e-05	223.94	5.7975e-07	5.7583e-07	324.12	61.065	7.1315e-07	5.8039e-07	110.36	36.32	16.204	5.0023	5.8338e-07	12.79	272.142	77.131	52.904	-6.913	15.559	56.470	-6.266	-1.212	39.463	145.437	-1.807	3.274	4.663	8.562	113.687	7.156	-8191	255	
2762.987	1	1	0	0	0.11703	0.055302	0.074225	0.1565	0.13872	0.17095	0.14051	0.06568	0.15865	0.093864	0.095323	0.073424	0.126	0.23696	0.022641	0.10426	-2.5667	-2.6646	-2.9167	-2.9562	-2.6813	-3.0125	-2.8667	-2.6646	-2.9167	-2.7229	-2.8354	-2.8354	-2.6312	-2.8333	-2.6562	-2.7146	23.377	208.018	34.491	189.486	213.268	122.843	182.690	48.191	155.553	264.020	321.736	-10.178	229.375	180.456	225.179	207.648	0.00012988	0.00025372	4.5198e-05	209.23	1.5086e-06	8.7119e-07	308.65	58.106	4.6167e-06	1.5345e-06	108.35	34.939	15.23	4.4917	2.9673e-06	12.322	5.6274e-05	5.3473e-05	1.4869e-05	221.65	5.8452e-07	5.8242e-07	323.11	61.028	9.6558e-07	5.942e-07	110.15	36.215	16.144	4.8626	6.5069e-07	12.787	293.493	149.821	14.429	-6.601	161.981	155.712	-6.183	-1.289	3.615	189.213	-1.642	3.302	4.414	8.519	175.445	7.465	-8191	255	
2763.083	1	1	0	0	0.10574	0.039244	0.11422	0.063054	0.27034	0.30909	0.083982	0.53233	0.081884	0.19722	0.10085	0.11232	0.23424	0.12631	0.16251	0.19106	-2.425	-2.5938	-2.9104	-2.75	-2.6458	-3.0375	-2.8979	-2.6333	-2.9146	-2.625	-2.8312	-3.0042	-2.6417	-2.9896	-2.7333	-2.5625	116.974	242.294	139.679	340.169	262.820	233.067	160.814	243.946	44.158	273.683	97.041	-12.466	50.667	89.579	259.199	47.197	0.00014659	3.53e-05	2.9753e-05	208.55	9.7494e-07	2.1747e-06	308.69	58.083	1.9482e-06	6.7331e-07	108.91	34.693	15.294	4.4847	7.4059e-06	12.244	5.7418e-05	5.3902e-05	1.5297e-05	223.41	5.9505e-07	6.0459e-07	323.31	60.709	7.3029e-07	5.9116e-07	109.83	36.028	16.101	4.8004	9.7435e-07	12.695	281.441	62.327	100.589	-6.389	69.750	98.653	-6.193	-1.244	69.995	35.961	-1.802	3.357	4.338	8.732	164.092	7.487	-8191	255	
2763.204	1	1	0	0	0.2054	0.22832	0.071275	0.23311	0.061918	0.24654	0.069939	0.141	0.063481	0.13856	0.28193	0.1309	0.25464	0.025995	0.14145	0.13779	-2.6458	-2.7333	-2.8125	-2.9	-2.6646	-3.05	-2.7354	-2.7188	-3.1146	-2.6104	-2.7583	-2.8917	-2.6146	-2.9208	-2.9292	-2.6875	221.498	26.190	163.562	135.841	206.439	-7.345	280.262	245.654	253.581	273.337	338.673	294.597	68.957	297.584	141.101	50.170	0.00014601	9.5631e-05	7.9452e-06	208.91	1.2897e-06	1.485e-06	308.38	57.223	7.1152e-06	1.5836e-06	107.4	34.546	15.36	4.413	4.9045e-06	12.258	5.6587e-05	5.398e-05	1.5376e-05	220.73	5.976e-07	6.0928e-07	321.8	60.316	9.8513e-07	5.844e-07	109.16	35.913	16.041	4.7736	7.355e-07	12.675	290.145	70.636	65.978	-6.568	209.690	73.797	-6.473	-0.888	52.293	78.140	-1.698	3.169	4.548	8.818	137.754	7.383	-8191	255	
2763.300	1	1	0	0	0.16918	0.27892	0.31039	0.13046	0.26333	0.21398	0.16903	0.20297	0.13663	0.18897	0.16423	0.21733	0.082659	0.182	0.2528	0.23112	-2.4125	-2.6542	-2.8042	-2.8688	-2.5021	-3.0521	-2.7604	-2.6167	-2.9792	-2.6021	-2.8563	-2.975	-2.6333	-2.9146	-2.9	-2.6333	125.235	167.443	84.153	200.529	321.221	184.634	94.003	190.352	26.385	29.909	330.162	256.675	176.247	256.431	25.017	156.239	0.00014484	0.00017703	2.4173e-05	208.43	1.8948e-06	2.7032e-06	308.95	57.583	2.4225e-06	6.6632e-07	109.17	34.6	15.319	4.4585	5.518e-06	12.231	5.7231e-05	5.4265e-05	1.5332e-05	222.78	5.8983e-07	5.9798e-07	322.08	60.582	6.6022e-07	6.5948e-07	109.81	35.953	16.114	4.7885	9.886e-07	12.722	299.109	148.760	75.367	-6.633	257.321	46.692	-5.895	-1.210	77.973	68.272	-1.696	3.273	4.137	8.631	181.099	7.403	-8191	255	
2763.396	1	1	0	0	0.071458	0.1645	0.31337	0.12896	0.42054	0.15256	0.13425	0.017704	0.053035	0.022207	0.1085	0.31268	0.12277	0.16651	0.069844	0.099711	-2.5125	-2.6042	-2.7792	-3.0563	-2.7417	-2.9188	-2.8771	-2.6021	-2.9437	-2.7854	-2.6312	-2.9354	-2.4542	-2.8187	-2.7979	-2.5271	215.531	155.283	281.256	325.470	-1.087	70.840	49.089	276.653	334.679	290.214	197.653	38.756	149.846	37.159	154.603	222.275	0.00013728	4.9517e-05	9.6996e-06	207.88	8.8922e-07	1.231e-06	307.52	57.789	1.1835e-06	5.1617e-06	108.43	34.829	15.241	4.5109	3.7713e-06	12.254	5.7358e-05	5.5008e-05	1.5142e-05	220.55	5.9225e-07	6.0157e-07	321.83	60.656	6.0937e-07	9.649e-07	109.81	36.134	16.076	4.8144	7.3845e-07	12.775	296.654	167.769	272.282	-6.488	110.172	178.217	-6.356	-0.877	99.178	65.339	-1.909	3.109	4.956	8.766	147.479	7.550	-8191	255	
2763.491	1	1	0	0	0.17566	0.18471	0.14825	0.068899	0.1378	0.067578	0.10895	0.13712	0.15499	0.21854	0.11532	0.058387	0.23753	0.1052	0.19647	0.14497	-2.5458	-2.6437	-2.6813	-3.0208	-2.6958	-2.8312	-3.1792	-2.6479	-2.9208	-2.7979	-2.5917	-2.9021	-2.5875	-2.8271	-2.7667	-2.6	167.424	229.338	314.645	78.653	207.727	57.292	0.054	65.322	71.309	213.350	272.303	226.767	27.053	312.479	158.105	131.611	0.00017025	0.0001086	5.0249e-05	209.84	9.2159e-07	2.536e-06	309.35	58.049	1.5744e-06	2.9161e-06	109.15	34.805	15.418	4.5118	3.9577e-06	12.295	5.7609e-05	5.525e-05	1.5182e-05	223.57	5.9401e-07	6.0112e-07	323.42	60.838	6.0287e-07	7.2984e-07	110.3	36.24	16.166	4.8342	9.892e-07	12.806	291.150	65.742	35.525	-6.280	106.315	122.780	-6.369	-0.861	68.832	55.854	-1.521	3.188	4.644	8.915	194.063	7.635	-8191	255	
2763.587	1	1	0	0	0.027572	0.10362	0.17266	0.078303	0.30734	0.44202	0.02635	0.15439	0.37958	0.32287	0.15572	0.1028	0.13537	0.020824	0.048778	0.12144	-2.7146	-2.7438	-2.6396	-2.8833	-2.65	-3.0333	-2.7625	-2.6125	-2.9146	-2.9146	-2.5958	-2.9729	-2.4979	-2.7146	-3.0396	-2.6854	279.920	215.408	12.106	250.344	215.319	-4.333	-8.315	99.233	134.777	86.483	317.524	325.020	282.307	301.991	-7.166	167.226	0.00014584	0.00010515	1.3846e-05	210.16	3.0609e-06	1.4746e-06	309.77	58.156	1.0022e-06	4.4234e-06	109.47	34.855	15.563	4.5165	2.2409e-06	12.386	5.6776e-05	5.4166e-05	1.4989e-05	221.31	6.6315e-07	5.8575e-07	323.97	60.942	6.0322e-07	9.7228e-07	110.49	36.274	16.352	4.8511	7.5291e-07	12.847	306.473	78.273	111.109	-6.469	257.756	42.970	-5.853	-0.703	186.713	54.496	-1.524	3.408	4.925	8.171	218.943	7.506	-8191	255	
2763.683	1	1	0	0	0.13606	0.14721	0.25327	0.17801	0.18747	0.25554	0.1737	0.11834	0.1725	0.1716	0.1173	0.15531	0.086706	0.044171	0.096855	0.078354	-2.5625	-2.8604	-2.5354	-2.8771	-2.7979	-2.6792	-3.0917	-2.7208	-2.9833	-2.8812	-2.5292	-2.8063	-2.7958	-2.4417	-2.9458	-2.7896	107.681	290.654	97.260	240.012	76.389	293.114	145.118	312.384	156.938	204.376	119.798	178.779	238.222	89.382	201.607	62.733	0.00016306	8.9796e-05	4.1057e-05	210	2.8838e-06	2.0551e-06	308.76	58.246	1.015e-06	2.2332e-06	109.47	35.021	15.44	4.5693	2.9364e-06	12.381	5.7962e-05	5.554e-05	1.4947e-05	220.91	9.7834e-07	6.0414e-07	323.85	61.171	6.1184e-07	7.4915e-07	110.51	36.426	16.323	4.8729	9.741e-07	12.88	286.593	114.512	108.272	-6.313	301.224	125.585	-6.350	-0.673	85.169	96.552	-1.908	3.306	4.098	8.643	84.291	7.934	-8191	255	
2763.781	1	1	0	0	0.26938	0.12534	0.21952	0.16829	0.060967	0.29747	0.014891	0.16054	0.15199	0.15422	0.072785	0.18287	0.24025	0.12017	0.12213	0.12751	-2.5042	-2.9917	-2.6729	-2.9333	-2.8292	-2.6562	-2.8542	-2.7896	-2.7792	-3.1667	-2.75	-2.9333	-2.7917	-2.5375	-3.0354	-2.7646	-17.162	27.946	201.359	259.643	56.680	230.767	37.439	318.062	315.745	99.710	111.340	25.569	-4.555	-7.758	-3.642	252.297	0.0001303	0.00014804	7.1364e-05	209.36	3.1237e-06	1.7747e-06	308.78	57.747	1.2818e-06	5.3274e-06	108.16	34.788	15.496	4.558	1.1908e-06	12.37	5.7382e-05	5.5494e-05	1.5106e-05	220.67	7.6284e-07	6.0976e-07	323.36	61.01	6.0579e-07	1.0248e-06	110.18	36.287	16.273	4.8553	6.7616e-07	12.901	290.310	74.616	76.983	-6.504	306.433	5.557	-6.090	-0.807	119.567	73.214	-1.598	3.156	4.452	8.572	168.370	7.371	-8191	255	
2763.900	1	1	0	0	0.34059	0.26	0.08665	0.18732	0.15013	0.22389	0.04724	0.24947	0.07591	0.053564	0.073648	0.21294	0.085043	0.12151	0.14423	0.071778	-2.3167	-2.875	-2.5687	-2.9042	-2.9313	-2.7042	-3.0625	-2.7562	-2.8688	-3.0854	-2.6833	-2.7229	-2.9021	-2.5687	-2.9021	-2.5875	199.639	169.114	126.220	80.775	195.354	106.605	60.043	131.874	251.366	108.167	232.226	122.135	32.111	332.513	79.767	87.164	7.2279e-05	3.5164e-05	3.7168e-05	210.06	6.9618e-06	2.7677e-07	309.55	58.056	2.1017e-06	2.521e-06	108.54	34.838	15.264	4.4898	1.7431e-06	12.276	5.8268e-05	5.7967e-05	1.555e-05	220.98	1.0354e-06	6.0302e-07	323.76	60.912	6.1691e-07	7.7624e-07	109.85	36.201	16.153	4.8059	6.3374e-07	13.062	305.670	32.792	141.477	-6.481	317.363	180.875	-6.192	-0.755	135.546	62.458	-1.640	3.628	4.253	9.024	143.906	7.754	-8191	255	
2763.996	1	1	0	0	0.098836	0.16801	0.23652	0.28457	0.15219	0.094888	0.079092	0.14749	0.15106	0.11153	0.116	0.094771	0.09411	0.19012	0.19695	0.30279	-2.2	-3.1167	-2.4167	-2.6979	-2.7125	-2.7646	-3.0271	-2.6604	-2.5521	-2.9646	-2.7167	-2.8833	-2.8125	-2.5771	-3.0479	-2.8958	41.531	287.289	256.547	240.166	64.066	217.463	46.112	40.458	-4.129	324.376	34.401	218.334	286.896	278.570	171.898	258.273	0.00015367	0.00015577	4.3719e-05	207.99	2.9865e-06	8.9346e-07	308.52	57.577	1.8028e-06	5.2431e-06	106.94	34.443	15.405	4.4412	7.4983e-07	12.295	5.819e-05	5.716e-05	1.567e-05	219.76	7.8464e-07	6.1242e-07	322.43	60.654	6.1745e-07	9.8162e-07	109.47	35.975	16.185	4.8017	6.2864e-07	12.858	291.517	61.062	86.298	-6.309	-14.889	144.813	-5.917	-0.788	186.715	53.364	-1.966	3.352	4.288	8.578	141.564	7.297	-8191	255	
2764.092	1	1	0	0	0.089764	0.2261	0.053004	0.036459	0.09083	0.33294	0.055516	0.10959	0.29029	0.17116	0.14045	0.074092	0.16502	0.25606	0.23539	0.25374	-2.2104	-3.0125	-2.6583	-2.725	-2.9604	-2.6958	-3.125	-2.8438	-2.5083	-3.1583	-2.7104	-2.6875	-2.8583	-2.7396	-2.9542	-2.8958	301.176	194.612	199.283	332.682	201.225	106.790	334.894	29.014	290.404	217.709	79.309	-0.977	-14.896	97.071	-6.947	253.382	0.00016555	0.00010694	5.422e-05	208.93	6.0977e-06	6.4076e-07	308.27	57.47	1.4703e-06	1.8948e-06	108.56	34.803	15.397	4.4854	3.711e-07	12.14	5.8817e-05	5.7502e-05	1.5427e-05	219.49	1.0215e-06	6.1697e-07	322.33	60.677	6.1877e-07	6.6167e-07	110.53	36.129	16.269	4.8315	6.2277e-07	13	294.049	76.117	77.329	-6.356	324.309	153.260	-6.644	-0.663	84.048	53.069	-1.746	3.567	4.239	8.841	109.751	7.623	-8191	255	
2764.188	1	1	0	0	0.058238	0.1187	0.21134	0.25153	0.12734	0.098701	0.16989	0.03327	0.1871	0.10447	0.053248	0.18367	0.23817	0.089813	0.063236	0.11459	-2.3208	-2.9354	-2.6688	-2.7562	-2.9813	-2.8125	-2.9229	-2.7292	-2.65	-2.8896	-2.7792	-2.6312	-3.0812	-2.7479	-2.8021	-2.7417	28.249	55.652	114.716	272.270	113.347	210.005	201.478	110.319	147.544	55.664	-3.984	111.268	165.554	276.653	206.381	135.839	0.00010443	0.00011722	3.5265e-05	208.6	2.5214e-07	2.0416e-06	307.94	57.835	1.2599e-06	1.3001e-06	108.89	34.768	15.457	4.5669	3.8664e-07	12.413	5.7622e-05	5.6432e-05	1.531e-05	219.23	7.6612e-07	5.9945e-07	322.09	60.746	6.0637e-07	5.9929e-07	112.29	36.247	16.259	4.8577	6.1015e-07	12.952	276.597	-16.523	109.080	-6.474	105.588	119.447	-6.334	-0.750	304.091	153.974	-1.597	3.277	4.204	8.692	212.137	7.301	-8191	255	
2764.284	1	1	0	0	0.19202	0.28665	0.22655	0.0055885	0.1332	0.13217	0.11096	0.04684	0.22545	0.23545	0.22411	0.075623	0.27965	0.076021	0.14242	0.23761	-2.1208	-2.9458	-2.7833	-2.6375	-3.0958	-2.6937	-2.825	-2.7438	-2.7396	-2.9125	-2.7812	-2.5979	-2.95	-2.4708	-2.8396	-2.9396	109.136	232.770	183.484	209.756	105.758	134.923	13.633	125.013	146.508	211.595	129.790	224.944	198.853	243.727	258.212	148.734	0.00012591	0.00010467	1.8424e-05	210.17	6.6253e-06	1.8651e-06	309.17	58.016	5.3152e-07	4.5841e-07	110.08	35.083	15.407	4.5748	2.2217e-06	12.438	5.752e-05	5.6014e-05	1.5461e-05	220.35	9.5362e-07	6.0957e-07	323.3	60.931	5.9972e-07	6.033e-07	111.52	36.466	16.301	4.8839	5.991e-07	13.158	261.822	19.339	77.209	-6.533	35.850	326.784	-6.302	-1.198	132.502	83.902	-2.026	3.024	4.037	8.790	124.712	7.702	-8191	255	
2764.380	1	1	0	0	0.18247	0.098453	0.19666	0.15671	0.21288	0.063302	0.18773	0.1638	0.21036	0.15006	0.13019	0.14476	0.1277	0.29835	0.22843	0.23214	-2.2812	-3.0104	-2.7812	-2.5875	-2.9	-2.7479	-2.6604	-2.8479	-2.4938	-2.8708	-2.7979	-2.6104	-3.0458	-2.6188	-2.6958	-2.9792	226.766	188.375	-7.333	43.974	48.750	155.771	272.982	-10.908	198.906	302.320	33.938	283.039	244.302	257.266	146.265	221.225	9.8641e-05	0.00014517	7.5483e-05	210.04	9.1882e-07	9.156e-07	310.58	58.457	1.0804e-06	2.8091e-07	109.99	35.05	15.525	4.5198	1.0686e-06	12.441	5.6648e-05	5.4916e-05	1.5147e-05	220.53	6.382e-07	6.8838e-07	323.76	61.171	5.9405e-07	6.0336e-07	113.01	36.319	16.291	4.8741	6.0703e-07	12.995	304.842	82.639	118.045	-6.512	46.320	24.643	-5.994	-1.148	199.097	139.346	-1.516	3.235	4.553	8.855	192.543	7.233	-8191	255	
2764.499	1	1	0	0	0.057217	0.07776	0.19969	0.066974	0.1403	0.088034	0.34924	0.17229	0.21432	0.090104	0.047951	0.14587	0.17819	0.1133	0.024786	0.037813	-2.3042	-2.6917	-2.8312	-2.5854	-2.8563	-2.7292	-2.5938	-3.0625	-2.5396	-2.8438	-2.8187	-2.65	-2.9333	-2.6937	-2.6083	-3.0458	337.720	182.323	312.278	179.212	177.101	67.723	186.541	76.803	111.927	151.482	336.654	-15.263	299.055	-14.353	-4.305	241.715	0.00015174	0.00018096	5.9435e-05	209.96	1.3115e-06	4.3272e-06	308.96	57.92	7.4227e-07	7.9988e-07	109.34	34.812	15.493	4.534	1.5099e-06	12.552	5.7326e-05	5.5388e-05	1.5478e-05	220.66	6.1666e-07	1.0217e-06	323.13	61.193	6.0712e-07	6.2277e-07	111.42	36.324	16.322	4.8741	6.1106e-07	13.125	295.158	112.269	90.341	-6.760	160.320	-16.220	-6.024	-0.507	161.927	221.952	-2.001	3.302	4.676	8.504	140.017	7.485	-8191	255	
2764.595	1	1	0	0	0.041487	0.10592	0.094808	0.25302	0.24426	0.073531	0.11462	0.079739	0.11784	0.36216	0.11678	0.036042	0.25703	0.17921	0.086103	0.15103	-2.1542	-2.5292	-2.8812	-2.4896	-2.925	-2.9417	-2.6896	-3.0667	-2.9021	-2.8021	-2.9875	-2.7354	-2.9792	-2.7396	-2.4604	-2.9938	200.117	202.504	312.990	73.284	67.665	11.546	10.897	101.808	88.810	-3.890	42.037	11.866	42.608	203.400	258.701	285.720	0.00029654	0.00012564	7.2406e-05	209.09	1.7243e-06	3.7635e-06	310.26	57.652	8.7947e-07	1.0777e-06	110.09	34.495	15.369	4.5069	1.6195e-06	12.406	5.9299e-05	5.4864e-05	1.5567e-05	219.83	6.1923e-07	7.9021e-07	323.26	60.896	6.1809e-07	6.0251e-07	113.03	36.131	16.294	4.8487	6.036e-07	12.9	295.548	74.771	59.083	-6.380	172.103	3.436	-6.108	-1.075	154.243	46.514	-1.238	3.436	4.583	9.260	160.213	7.360	-8191	255	
2764.692	1	1	0	0	0.062932	0.24345	0.17099	0.15579	0.16007	0.39459	0.0911	0.11801	0.22498	0.22316	0.24759	0.019446	0.131	0.18381	0.079941	0.19729	-2.2854	-2.7458	-2.9792	-2.4792	-2.8708	-2.9333	-2.6396	-2.9854	-2.8312	-2.8667	-3.1354	-2.5854	-2.9896	-2.8521	-2.6646	-3.1729	249.021	7.004	73.907	231.749	296.658	111.181	302.307	75.312	224.473	24.517	164.993	337.671	150.803	294.207	42.099	202.473	0.00014515	3.8148e-05	2.0178e-05	210.44	1.5648e-06	7.608e-06	310.28	57.83	2.2434e-06	6.8733e-07	109.55	34.985	15.329	4.4978	8.8773e-07	12.399	6.9059e-05	5.4933e-05	1.5362e-05	220.57	6.034e-07	1.0377e-06	323.47	60.925	5.9973e-07	5.9693e-07	111.42	36.25	16.194	4.8367	5.9458e-07	12.817	301.725	166.617	93.905	-6.150	220.106	-0.982	-6.340	-1.080	122.405	71.230	-1.826	3.581	4.459	8.765	329.480	7.417	-8191	255	
2764.788	1	1	0	0	0.1305	0.25636	0.032028	0.21555	0.1353	0.41008	0.14024	0.078338	0.070449	0.35079	0.17041	0.19073	0.093198	0.091532	0.055849	0.06588	-2.2625	-2.6958	-2.9333	-2.4292	-2.8479	-2.8979	-2.5396	-2.8667	-2.6896	-2.7625	-2.9313	-2.65	-2.8646	-2.8812	-2.5125	-2.8854	115.740	91.637	138.537	235.192	59.600	238.602	298.799	5.199	168.940	162.949	66.978	106.450	326.609	150.741	37.710	255.661	0.00026313	8.5009e-05	4.5775e-05	207.53	1.4281e-06	1.6562e-06	306.56	57.621	5.9056e-07	9.7963e-07	108.94	34.926	15.435	4.465	1.1015e-06	12.389	9.5631e-05	5.5204e-05	1.5125e-05	219.09	6.0218e-07	7.7905e-07	322	60.875	6.0827e-07	5.9728e-07	112.03	36.257	16.256	4.832	6.0724e-07	12.791	324.472	-16.649	83.333	-6.586	10.762	41.882	-6.117	-1.051	-14.728	213.498	-1.703	3.524	4.841	8.693	171.922	7.034	-8191	255	
2764.884	1	1	0	0	0.098178	0.16128	0.14384	0.10339	0.2805	0.060938	0.095233	0.16645	0.20996	0.2574	0.025282	0.10788	0.096738	0.17078	0.15263	0.11879	-2.275	-2.5687	-2.9021	-2.6708	-2.6125	-2.8937	-2.5667	-2.7917	-2.8563	-2.5979	-2.9542	-2.7146	-2.5854	-2.9479	-2.6292	-2.9354	201.749	62.328	22.909	246.428	26.068	125.131	154.884	147.340	322.299	28.461	291.860	249.010	62.865	-6.280	311.844	127.176	0.00016397	0.00010483	7.5958e-05	209.76	8.1094e-07	3.7086e-06	309.81	57.407	9.1782e-07	1.8726e-06	109.91	34.858	15.664	4.5333	1.0551e-06	12.536	7.4442e-05	5.5754e-05	1.5687e-05	220.05	6.1577e-07	1.0519e-06	322.87	60.842	6.2341e-07	6.1053e-07	110.51	36.439	16.344	4.8657	6.0835e-07	12.872	305.029	62.583	107.704	-6.459	136.875	9.474	-6.104	-0.499	308.260	88.042	-1.885	3.253	4.480	9.145	156.368	7.150	-8191	255	
#DATA ENDS
