BOXY.EXE: ISS Imagent and Oximeter Data Acquisition Program Version 0.80
Ascii Record File

#ACQ INFORMATION
2  Detector Channels 
16  External MUX Channels 
1  Auxiliary Channels 
5000  Waveform (CCF) Frequency (Hz)
1  Waveforms Skipped 
30  Waveforms Averaged 
1  Cycles Averaged 
16  Acquisitions per Waveform 
10.0806  Updata Rate (Hz) 

#FILE INFORMATION
TRUE -- External MUX Channel results are PARSED.
FALSE -- AC DC and Phase are NOT grouped.
TRUE -- Companion Program Settings File CREATED.
FALSE -- AC data not excluded
FALSE -- DC data not excluded
FALSE -- Phase data not excluded
FALSE -- Auxillary Chn. data not excluded
Tab delimiters

#CALIBRATION STATE
TRUE -- Waveform Calibration Values APPLIED.


#AUX CALIBRATION VALUES
Val Type	aux-1	

Term	1.0000e+00	
Factor	0.0000e+00	


#WF CALIBRATION VALUES
A = Detector Channel
Val Type	A-AC1	A-AC2	A-AC3	A-AC4	A-AC5	A-AC6	A-AC7	A-AC8	A-AC9	A-AC10	A-AC11	A-AC12	A-AC13	A-AC14	A-AC15	A-AC16	A-DC1	A-DC2	A-DC3	A-DC4	A-DC5	A-DC6	A-DC7	A-DC8	A-DC9	A-DC10	A-DC11	A-DC12	A-DC13	A-DC14	A-DC15	A-DC16	A-Ph1	A-Ph2	A-Ph3	A-Ph4	A-Ph5	A-Ph6	A-Ph7	A-Ph8	A-Ph9	A-Ph10	A-Ph11	A-Ph12	A-Ph13	A-Ph14	A-Ph15	A-Ph16	

Term	0.00000e+00	0.00000e+00	0.00000e+00	0.00000e+00	0.00000e+00	0.00000e+00	0.00000e+00	0.00000e+00	0.00000e+00	0.00000e+00	0.00000e+00	0.00000e+00	0.00000e+00	0.00000e+00	0.00000e+00	0.00000e+00	0.00000e+00	0.00000e+00	0.00000e+00	0.00000e+00	0.00000e+00	0.00000e+00	0.00000e+00	0.00000e+00	0.00000e+00	0.00000e+00	0.00000e+00	0.00000e+00	0.00000e+00	0.00000e+00	0.00000e+00	0.00000e+00	0.00000e+00	0.00000e+00	0.00000e+00	0.00000e+00	0.00000e+00	0.00000e+00	0.00000e+00	0.00000e+00	0.00000e+00	0.00000e+00	0.00000e+00	0.00000e+00	0.00000e+00	0.00000e+00	0.00000e+00	0.00000e+00	
Factor	1.00000e+00	1.00000e+00	1.00000e+00	1.00000e+00	1.00000e+00	1.00000e+00	1.00000e+00	1.00000e+00	1.00000e+00	1.00000e+00	1.00000e+00	1.00000e+00	1.00000e+00	1.00000e+00	1.00000e+00	1.00000e+00	1.00000e+00	1.00000e+00	1.00000e+00	1.00000e+00	1.00000e+00	1.00000e+00	1.00000e+00	1.00000e+00	1.00000e+00	1.00000e+00	1.00000e+00	1.00000e+00	1.00000e+00	1.00000e+00	1.00000e+00	1.00000e+00	X	X	X	X	X	X	X	X	X	X	X	X	X	X	X	X	

B = Detector Channel
Val Type	B-AC1	B-AC2	B-AC3	B-AC4	B-AC5	B-AC6	B-AC7	B-AC8	B-AC9	B-AC10	B-AC11	B-AC12	B-AC13	B-AC14	B-AC15	B-AC16	B-DC1	B-DC2	B-DC3	B-DC4	B-DC5	B-DC6	B-DC7	B-DC8	B-DC9	B-DC10	B-DC11	B-DC12	B-DC13	B-DC14	B-DC15	B-DC16	B-Ph1	B-Ph2	B-Ph3	B-Ph4	B-Ph5	B-Ph6	B-Ph7	B-Ph8	B-Ph9	B-Ph10	B-Ph11	B-Ph12	B-Ph13	B-Ph14	B-Ph15	B-Ph16	

Term	0.00000e+00	0.00000e+00	0.00000e+00	0.00000e+00	0.00000e+00	0.00000e+00	0.00000e+00	0.00000e+00	0.00000e+00	0.00000e+00	0.00000e+00	0.00000e+00	0.00000e+00	0.00000e+00	0.00000e+00	0.00000e+00	0.00000e+00	0.00000e+00	0.00000e+00	0.00000e+00	0.00000e+00	0.00000e+00	0.00000e+00	0.00000e+00	0.00000e+00	0.00000e+00	0.00000e+00	0.00000e+00	0.00000e+00	0.00000e+00	0.00000e+00	0.00000e+00	1.37173e+01	-1.18228e+02	-1.12758e+02	-1.83080e+02	-7.15389e+01	-7.78103e+01	-1.57142e+02	-1.62015e+02	-8.64581e+01	-8.33328e+01	-1.74681e+02	-1.70893e+02	-1.86226e+02	-1.78823e+02	-6.33234e+01	-1.50760e+02	
Factor	3.86630e-05	1.07672e-04	3.58680e-05	1.52370e-01	1.43992e-06	1.45988e-06	1.51923e-01	5.45124e-02	1.38203e-06	1.18428e-06	1.31598e-01	2.66902e-02	3.84029e-02	8.59656e-03	1.43767e-06	1.22989e-02	8.31094e-07	8.48967e-07	2.35916e-07	7.55567e-02	9.27535e-09	9.30345e-09	7.09969e-02	2.68103e-02	9.28531e-09	9.29857e-09	5.97757e-02	1.26460e-02	1.79984e-02	4.20033e-03	9.30521e-09	5.78123e-03	X	X	X	X	X	X	X	X	X	X	X	X	X	X	X	X	



#DISTANCE SETTINGS
A = Detector Channel
A-1	A-2	A-3	A-4	A-5	A-6	A-7	A-8	A-9	A-10	A-11	A-12	A-13	A-14	A-15	A-16	

2.5000e+00	3.0000e+00	2.5000e+00	3.0000e+00	2.0000e+00	3.0000e+00	1.5000e+00	3.0000e+00	3.0000e+00	3.0000e+00	3.0000e+00	3.0000e+00	3.0000e+00	3.0000e+00	1.5000e+00	3.0000e+00	

B = Detector Channel
B-1	B-2	B-3	B-4	B-5	B-6	B-7	B-8	B-9	B-10	B-11	B-12	B-13	B-14	B-15	B-16	

1.0000e+01	1.0000e+01	1.0000e+01	1.4400e+00	1.0000e+01	1.0000e+01	1.5100e+00	1.9400e+00	1.0000e+01	1.0000e+01	1.9900e+00	2.4900e+00	2.4100e+00	2.9000e+00	1.0000e+01	2.9800e+00	




#DATA BEGINS
time	group	step	mark	flag	A-AC1	A-AC2	A-AC3	A-AC4	A-AC5	A-AC6	A-AC7	A-AC8	A-AC9	A-AC10	A-AC11	A-AC12	A-AC13	A-AC14	A-AC15	A-AC16	A-DC1	A-DC2	A-DC3	A-DC4	A-DC5	A-DC6	A-DC7	A-DC8	A-DC9	A-DC10	A-DC11	A-DC12	A-DC13	A-DC14	A-DC15	A-DC16	A-Ph1	A-Ph2	A-Ph3	A-Ph4	A-Ph5	A-Ph6	A-Ph7	A-Ph8	A-Ph9	A-Ph10	A-Ph11	A-Ph12	A-Ph13	A-Ph14	A-Ph15	A-Ph16	B-AC1	B-AC2	B-AC3	B-AC4	B-AC5	B-AC6	B-AC7	B-AC8	B-AC9	B-AC10	B-AC11	B-AC12	B-AC13	B-AC14	B-AC15	B-AC16	B-DC1	B-DC2	B-DC3	B-DC4	B-DC5	B-DC6	B-DC7	B-DC8	B-DC9	B-DC10	B-DC11	B-DC12	B-DC13	B-DC14	B-DC15	B-DC16	B-Ph1	B-Ph2	B-Ph3	B-Ph4	B-Ph5	B-Ph6	B-Ph7	B-Ph8	B-Ph9	B-Ph10	B-Ph11	B-Ph12	B-Ph13	B-Ph14	B-Ph15	B-Ph16	aux-1	digaux	

2462.294	1	1	0	768	0.091702	0.1059	0.17778	0.31532	0.095596	0.21886	0.35187	0.16976	0.22777	0.063914	0.060066	0.087053	0.041638	0.049925	0.29575	0.025813	-3.0104	-3.2729	-3.0104	-3.3667	-3.1458	-3.2521	-3.6833	-3.0146	-3.2917	-3.3792	-3.1458	-3.3396	-3.1688	-3.0917	-3.4104	-3.0563	276.034	401.328	147.656	406.304	405.726	105.553	376.625	122.944	278.579	407.600	316.787	336.157	117.924	435.755	227.830	252.471	0.0005675	0.00023497	0.00012904	1210.3	5.5814e-06	3.5098e-06	1281.1	248.46	8.9093e-06	3.4205e-06	311.13	86.26	68.429	19.325	5.1866e-06	26.895	0.00031938	0.00031575	8.7383e-05	1188.6	3.4765e-06	3.4645e-06	1253.1	245.88	3.4618e-06	3.4637e-06	303.99	85.978	68.303	19.871	3.466e-06	27.662	319.789	174.920	206.329	111.253	375.489	220.294	111.148	118.546	226.792	278.111	117.670	124.828	125.011	131.908	203.755	130.863	-8191	255	
2462.390	1	1	0	0	0.23177	0.12151	0.17676	0.25469	0.058558	0.29964	0.175	0.21854	0.041377	0.14866	0.15264	0.20796	0.24359	0.207	0.15615	0.25356	-2.9896	-3.2	-3	-3.4125	-3.2708	-2.9333	-3.6333	-3.1104	-3.2	-3.3083	-3.1896	-3.3292	-3.0125	-3.0479	-3.3	-2.8063	218.056	325.386	227.860	426.632	291.302	369.194	437.888	123.597	331.179	377.633	210.174	365.724	436.187	387.331	191.137	443.847	0.00056925	0.0003196	8.8743e-05	1213.1	4.7992e-06	6.0441e-06	1285.5	248.6	2.615e-06	1.577e-06	309.05	85.593	68.299	19.229	2.5405e-06	26.7	0.00032049	0.00032079	8.819e-05	1188.2	3.5687e-06	3.5004e-06	1253.6	245.96	3.5194e-06	3.5099e-06	303.4	85.868	68.33	19.83	3.5191e-06	27.618	338.778	434.696	163.291	111.050	288.020	408.714	111.219	118.267	242.607	454.851	118.042	124.526	125.450	131.745	291.937	130.833	-8191	255	
2462.484	1	1	0	0	0.083769	0.14421	0.11368	0.15268	0.2476	0.064832	0.35491	0.11502	0.056388	0.048249	0.13167	0.097436	0.18548	0.094906	0.2605	0.063702	-2.7958	-3.1229	-3.0167	-3.55	-3.3042	-2.9521	-3.4896	-3.1729	-3.0542	-3.2438	-3.1167	-3.2167	-3.3021	-3.2375	-3.3625	-2.925	200.771	355.459	345.481	110.623	149.967	448.714	387.912	422.683	445.413	136.905	221.786	431.225	452.201	345.938	381.359	158.420	0.00084546	0.00040081	0.00010783	1209.4	5.3146e-06	3.2185e-06	1278.3	246.87	4.5489e-06	1.0366e-05	307.43	85.312	68.143	19.037	6.308e-06	26.743	0.00032074	0.00031823	8.8584e-05	1185.1	3.5159e-06	3.4515e-06	1249.5	245.28	3.4431e-06	3.4646e-06	302.71	85.5	68.048	19.714	3.4583e-06	27.543	309.546	103.459	139.619	111.147	113.486	370.466	111.205	118.455	249.748	218.005	117.962	124.922	124.973	132.075	322.481	130.950	-8191	255	
2462.581	1	1	0	0	0.024068	0.16931	0.10794	0.21829	0.19921	0.067306	0.14998	0.18572	0.034633	0.1266	0.022554	0.11126	0.21018	0.25114	0.090605	0.11973	-2.55	-3.2458	-2.9437	-3.3667	-3.1667	-2.9854	-3.5146	-3.225	-3.075	-3.4021	-3.1375	-3.2958	-3.3167	-2.9583	-3.3896	-3.0375	332.338	153.768	190.827	110.113	382.721	451.604	459.085	358.649	166.872	228.813	398.728	416.568	316.299	377.436	380.779	339.241	0.0002418	0.0006998	5.9202e-05	1202.7	1.3453e-06	2.7121e-06	1267.8	247.01	4.0426e-06	5.3606e-06	307.31	85.401	67.819	19.03	2.3136e-06	26.544	0.00031705	0.00031708	8.7731e-05	1182.2	3.4612e-06	3.4337e-06	1245.7	244.27	3.4499e-06	3.4378e-06	302.03	85.417	67.882	19.726	3.4682e-06	27.496	337.867	173.108	339.785	111.123	250.273	447.650	111.029	118.491	193.989	233.851	118.055	124.426	125.516	131.642	182.221	131.088	-8191	255	
2462.677	1	1	0	0	0.11652	0.042377	0.16429	0.13438	0.072621	0.23495	0.2034	0.12469	0.099976	0.19118	0.1964	0.12042	0.12008	0.20798	0.11057	0.22161	-2.6292	-3.1875	-2.9479	-3.3771	-3.1229	-2.9958	-3.3917	-3.1417	-3.0917	-3.3688	-3.175	-3.1188	-3.3	-2.9167	-3.3917	-3.1917	202.761	369.279	312.588	420.943	295.575	117.199	319.371	379.860	107.502	253.911	322.873	248.518	248.419	397.304	294.938	159.275	0.00057677	0.00033886	0.00015984	1208.6	5.5226e-06	1.811e-06	1275.8	247.06	3.5823e-06	5.9975e-06	308.08	85.529	68.288	18.971	3.4389e-06	26.835	0.00032063	0.00031422	8.824e-05	1184.5	3.4846e-06	3.48e-06	1249.5	244.95	3.4756e-06	3.4878e-06	302.65	85.52	68.137	19.719	3.4662e-06	27.549	302.838	176.673	131.949	111.264	244.160	144.046	111.027	118.606	316.565	272.545	117.760	124.716	124.951	131.613	273.660	130.892	-8191	255	
2462.773	1	1	0	0	0.1711	0.19003	0.098217	0.38911	0.11803	0.15182	0.13869	0.11627	0.28997	0.32316	0.14036	0.33623	0.1651	0.10874	0.22535	0.20746	-2.5854	-3.2354	-2.8021	-3.3625	-3.3583	-3.0104	-3.5062	-3.2188	-3.0208	-3.3208	-3.2875	-3.0083	-3.3458	-2.8604	-3.0229	-3.2583	234.034	282.530	207.898	392.099	167.910	178.114	356.743	188.878	372.716	324.404	440.990	387.110	419.076	104.710	444.141	352.833	0.00072014	0.00041127	7.5045e-05	1204.9	1.0149e-05	3.882e-06	1270.8	246.61	3.9337e-06	3.4543e-06	308.22	85.466	67.621	18.967	2.925e-06	26.471	0.00032061	0.00031542	8.7342e-05	1183.1	3.4381e-06	3.4393e-06	1247.3	244.34	3.4884e-06	3.4742e-06	302.53	85.382	67.735	19.749	3.4909e-06	27.444	314.559	163.787	327.208	111.125	278.119	154.152	111.030	118.853	109.008	167.158	118.136	124.366	124.867	131.867	288.273	130.840	-8191	255	
2462.894	1	1	0	0	0.22953	0.026729	0.16561	0.3367	0.22429	0.043252	0.2977	0.35284	0.21239	0.11604	0.29537	0.16909	0.18577	0.27419	0.18881	0.088705	-2.4958	-3.1958	-3.0979	-3.2479	-3.2938	-3.1292	-3.5292	-3.2896	-3.0021	-3.2292	-3.275	-3.1417	-3.3646	-3.1583	-3.1708	-3.2375	400.188	161.755	331.965	433.823	233.198	225.188	410.546	449.134	230.355	187.702	369.506	200.161	261.807	436.819	330.767	440.008	0.00065615	0.00033136	0.00014831	1208.5	1.1049e-05	2.0552e-06	1274.3	245.53	3.806e-06	9.5875e-07	306.22	85.081	67.704	19.015	6.3625e-06	26.684	0.00032519	0.00032166	8.9137e-05	1183.8	3.5138e-06	3.515e-06	1246.9	243.56	3.4939e-06	3.5097e-06	301.45	85.371	67.85	19.71	3.4833e-06	27.468	321.006	171.591	112.827	111.277	220.644	225.365	111.363	118.391	448.473	360.424	117.979	124.746	125.301	131.587	311.364	131.303	-8191	255	
2462.990	1	1	0	0	0.14242	0.030006	0.24245	0.31273	0.27152	0.22878	0.20001	0.30124	0.095997	0.21799	0.19463	0.32789	0.18075	0.19418	0.049073	0.13214	-2.5583	-3.2896	-3.0646	-3.2188	-3.3583	-2.9771	-3.4292	-3.5604	-3.1167	-3.075	-3.2167	-3.0292	-3.4146	-2.8979	-3.0438	-3.4229	320.440	356.492	324.605	450.765	119.901	118.815	103.562	154.587	274.931	225.989	397.101	127.143	146.484	215.722	275.801	338.735	0.00067585	0.00033361	0.00012496	1202.5	6.4096e-06	3.9784e-06	1273.4	244.68	5.3363e-06	5.0486e-06	306.86	84.781	67.255	18.959	3.2788e-06	26.646	0.00031981	0.00031995	8.8858e-05	1180.6	3.4779e-06	3.4455e-06	1245	243.16	3.4316e-06	3.4343e-06	300.57	84.935	67.686	19.615	3.4059e-06	27.403	324.790	241.635	199.670	111.114	268.287	264.762	111.136	118.497	440.276	211.140	117.686	124.587	125.262	132.013	219.728	131.281	-8191	255	
2463.086	1	1	0	0	0.18356	0.16136	0.18246	0.41805	0.16775	0.22444	0.37592	0.18038	0.13286	0.032396	0.22694	0.091563	0.12997	0.29643	0.062719	0.21107	-2.4417	-3.3542	-3.0417	-3.2604	-3.4437	-3.0438	-3.25	-3.2417	-2.9729	-3.275	-3.2396	-2.9708	-3.4292	-3.2042	-3.0833	-3.2562	241.656	307.295	228.035	417.442	175.420	395.479	419.572	459.614	233.483	165.316	450.644	249.732	115.645	410.400	164.164	275.596	0.00069368	0.00027058	0.00013826	1198.5	6.434e-06	1.6532e-06	1268.3	245.1	3.5481e-06	1.3744e-06	304.49	85.039	67.69	18.915	5.0701e-06	26.749	0.00031424	0.00031093	8.6342e-05	1177.2	3.4196e-06	3.4331e-06	1241.4	242.93	3.4395e-06	3.3833e-06	299.86	85.176	67.558	19.621	3.4205e-06	27.423	312.601	156.629	108.007	111.145	277.707	201.427	111.244	118.563	184.687	223.545	118.120	124.644	125.135	131.898	202.021	131.084	-8191	255	
2463.182	1	1	0	0	0.11853	0.21553	0.50921	0.17254	0.23641	0.2775	0.18404	0.35849	0.066913	0.068651	0.14811	0.17792	0.16531	0.067557	0.22605	0.15383	-2.7021	-3.0292	-3.1688	-3.0187	-3.2708	-3.1604	-3.1917	-3.525	-3.0396	-3.1854	-3.3958	-2.9417	-3.0917	-3.15	-2.9292	-3.4042	214.740	291.890	165.875	398.673	343.171	310.839	400.220	419.666	276.283	131.568	269.266	413.366	189.304	365.203	443.009	250.835	0.00062715	0.00024588	2.5186e-05	1200.6	4.2425e-06	3.2043e-06	1269	245.56	2.1487e-06	3.015e-06	305.07	84.987	67.068	18.921	4.2713e-07	26.625	0.00031208	0.00031194	8.568e-05	1175.6	3.3858e-06	3.4083e-06	1240	242.74	3.3995e-06	3.3672e-06	299.52	84.839	67.226	19.542	3.3877e-06	27.367	316.727	277.592	102.415	111.262	247.715	204.783	111.025	118.523	241.430	417.511	118.076	124.593	125.320	131.907	249.194	130.968	-8191	255	
2463.278	1	1	0	0	0.13584	0.015039	0.11603	0.20706	0.21274	0.13046	0.29124	0.18952	0.038039	0.086793	0.3385	0.16074	0.10754	0.2363	0.21762	0.12675	-2.5938	-3.2167	-3.1875	-3.0542	-3.2604	-3.3063	-3.1188	-3.5208	-3.1229	-3.2354	-3.3646	-3.075	-3.2625	-3.2458	-3.0062	-3.2896	253.074	249.488	199.895	428.226	307.849	310.647	410.324	427.542	374.258	259.141	235.848	422.716	342.129	423.376	392.058	339.987	0.0006445	0.00055963	0.0001467	1197	7.584e-06	2.5141e-06	1264.5	244.38	9.3988e-06	3.0202e-06	305.87	84.411	68.22	18.914	9.7914e-06	26.539	0.00031188	0.00030665	8.4075e-05	1172.9	3.3657e-06	3.3139e-06	1238.7	242.32	3.3459e-06	3.3072e-06	299.1	84.735	67.438	19.507	3.3431e-06	27.253	322.508	202.813	301.525	111.174	240.092	226.301	111.240	118.470	234.844	218.517	117.902	124.462	125.812	131.766	298.862	130.999	-8191	255	
2463.374	1	1	0	0	0.15938	0.073812	0.35589	0.15129	0.057372	0.13595	0.16727	0.38098	0.01275	0.038477	0.091645	0.2643	0.3049	0.37492	0.21587	0.15997	-2.6188	-2.9625	-3.3458	-3.2687	-3.2708	-3.2396	-3.1271	-3.2917	-2.975	-3.0729	-3.4646	-3.0958	-3.1542	-3.3667	-3.0708	-3.2604	257.693	440.027	435.716	458.251	298.096	429.591	203.233	432.840	395.398	435.993	150.186	398.232	105.667	448.972	273.916	455.369	0.0007464	0.00040305	0.00013665	1197	8.5035e-06	1.1372e-06	1264.2	245.37	6.1481e-06	4.5539e-06	303.7	84.228	67.587	18.897	6.3274e-06	26.502	0.00030336	0.00030455	8.4059e-05	1171.8	3.3153e-06	3.2682e-06	1233.9	241.69	3.2825e-06	3.2633e-06	297.85	84.218	67.196	19.424	3.3083e-06	27.2	322.474	163.200	264.215	111.187	238.350	171.607	111.282	118.392	369.553	265.446	118.049	124.618	125.403	131.759	267.336	130.718	-8191	255	
2463.493	1	1	0	0	0.31169	0.095639	0.1725	0.20085	0.27084	0.094688	0.24116	0.19762	0.25313	0.04496	0.14782	0.21086	0.29463	0.062333	0.48062	0.052908	-2.5604	-3.0896	-3.3625	-3.2208	-3.175	-3.3271	-3.175	-3.4375	-3.1937	-2.9875	-3.3208	-3.1417	-3.0917	-3.2708	-2.9896	-3.1958	247.190	394.062	226.174	454.480	246.925	288.631	401.787	416.450	449.883	184.640	314.562	429.838	217.715	266.178	166.936	159.531	0.00068449	6.0824e-05	0.00027332	1193.2	7.9527e-06	4.7818e-06	1260.2	245.45	2.338e-06	1.6608e-06	303.11	84.032	67.626	18.943	6.4464e-06	26.405	0.0003011	0.0003004	8.3571e-05	1169	3.3059e-06	3.2795e-06	1232.3	241.45	3.296e-06	3.3089e-06	297.69	84.339	67.039	19.484	3.3091e-06	27.121	323.613	295.049	255.150	111.155	231.613	245.224	111.087	118.600	284.534	301.390	118.306	124.682	125.357	131.913	377.889	130.873	-8191	255	
2463.589	1	1	0	0	0.31348	0.31267	0.20275	0.089549	0.078241	0.21751	0.2039	0.22307	0.19982	0.12663	0.21496	0.32146	0.17093	0.039927	0.15843	0.2511	-2.8417	-2.8688	-3.3063	-3.0812	-2.9938	-3.2562	-3.1958	-3.1	-3.3167	-3.1562	-3.3354	-3.0042	-3.0438	-3.4458	-3.1625	-3.2438	414.078	409.882	259.958	407.455	133.802	266.625	404.965	436.957	193.329	306.204	384.762	110.610	380.898	235.358	324.613	417.874	0.00064597	0.00038895	0.00017092	1189.3	8.6538e-06	3.9212e-06	1261.7	242.52	5.7412e-06	3.3331e-06	304.88	84.509	67.264	18.866	5.8559e-06	26.684	0.00030515	0.00030264	8.3869e-05	1166.9	3.3053e-06	3.3207e-06	1230.2	240.81	3.3432e-06	3.3264e-06	298.52	84.608	67.108	19.511	3.3886e-06	27.283	322.729	211.408	220.453	111.189	281.188	316.709	111.028	118.426	200.681	254.852	118.444	124.777	125.567	132.201	239.552	131.151	-8191	255	
2463.685	1	1	0	0	0.19244	0.20109	0.18531	0.26383	0.19382	0.15798	0.24142	0.075085	0.14225	0.14342	0.11518	0.17388	0.074937	0.074662	0.065661	0.036583	-2.7521	-2.8292	-3.3875	-3.1958	-3.0333	-3.3833	-3.1854	-3.2625	-3.35	-2.8104	-3.1271	-3.2625	-3.1437	-3.3208	-2.9458	-3.2438	406.307	154.019	350.891	372.276	394.965	112.899	448.972	343.174	224.110	446.009	457.739	399.831	385.718	362.366	167.593	211.039	0.00072848	0.00010552	0.00019199	1192.7	4.799e-06	1.1878e-06	1260.7	244.61	5.8385e-06	3.9555e-06	306.4	84.579	67.225	18.826	2.0892e-06	26.645	0.0003106	0.00031062	8.6891e-05	1169.2	3.4399e-06	3.4296e-06	1232.8	241.63	3.4301e-06	3.4149e-06	299.83	84.572	67.397	19.532	3.4627e-06	27.391	312.293	147.081	179.039	111.514	297.129	224.167	111.226	118.456	217.755	187.194	117.919	124.646	125.158	132.118	294.098	131.315	-8191	255	
2463.782	1	1	0	0	0.079333	0.066596	0.089659	0.27331	0.047555	0.074396	0.10896	0.30917	0.053759	0.082891	0.19516	0.23356	0.081299	0.031014	0.15267	0.16046	-2.8625	-3.0479	-3.3333	-3.2146	-3.0458	-3.2646	-3.175	-3.0667	-3.2604	-3.0438	-3.1458	-3.2062	-2.9625	-3.3792	-3.0125	-3.0958	161.397	355.537	215.116	435.997	169.206	163.551	381.631	444.416	316.302	181.517	407.447	281.140	110.550	315.496	285.887	123.448	0.0008142	0.00038029	9.2113e-05	1196.5	3.0626e-06	9.2496e-07	1260.1	242.75	5.4925e-06	3.1273e-06	305.38	84.701	67.157	18.852	3.996e-06	26.651	0.00031788	0.00031706	8.8257e-05	1172.7	3.485e-06	3.4724e-06	1235.2	241.25	3.4555e-06	3.4495e-06	299.56	84.765	67.127	19.527	3.4028e-06	27.301	319.067	114.392	122.072	111.116	249.514	177.044	111.137	118.618	112.005	284.728	117.930	124.791	125.094	131.490	394.237	130.976	-8191	255	
2463.878	1	1	0	0	0.13858	0.068704	0.1698	0.25068	0.21086	0.075091	0.25037	0.14104	0.049335	0.19957	0.19482	0.23669	0.1685	0.27485	0.123	0.099076	-2.8063	-2.8021	-3.0125	-3.2687	-2.8646	-3.3104	-3.3875	-3.1188	-3.3292	-2.9875	-3.2458	-3.1854	-2.9292	-3.3542	-3.0646	-3.1646	168.018	165.745	361.415	408.980	202.580	349.745	410.878	348.482	139.207	130.779	219.001	110.170	307.599	416.678	101.705	137.862	0.00060523	0.00014111	0.00010514	1195.2	3.5616e-06	4.1592e-06	1264.5	244.84	6.1575e-06	1.9535e-06	303.02	84.552	67.029	18.911	6.8957e-07	26.633	0.00031088	0.00030464	8.4938e-05	1170.2	3.395e-06	3.3759e-06	1233.8	242.09	3.4316e-06	3.4342e-06	298.99	84.595	67.254	19.564	3.4524e-06	27.338	301.596	187.436	133.135	111.456	293.289	378.383	111.067	118.577	310.525	142.156	118.071	124.890	125.099	131.672	329.752	131.138	-8191	255	
2463.974	1	1	0	0	0.055896	0.22944	0.067748	0.14243	0.057977	0.016629	0.35002	0.19049	0.1051	0.17953	0.11348	0.23589	0.062882	0.16924	0.050508	0.13644	-2.8625	-2.8604	-3.1937	-3.3167	-2.825	-3.3312	-3.2792	-3.0312	-3.2104	-2.8854	-2.975	-3.2875	-3.1188	-3.1396	-3.1063	-2.9208	195.011	424.853	350.512	385.850	300.539	197.843	406.232	361.764	431.420	209.901	384.080	361.846	208.296	256.915	131.487	102.380	0.0005162	0.00013533	0.00011805	1197.1	2.2114e-06	5.304e-06	1263.9	244.1	4.541e-06	7.913e-07	305.11	84.052	66.859	18.784	4.1511e-06	26.609	0.00031409	0.00031404	8.5766e-05	1172.1	3.3847e-06	3.3585e-06	1236.3	241.74	3.3512e-06	3.3245e-06	298.42	84.413	66.785	19.437	3.3017e-06	27.225	311.152	431.202	131.249	111.217	269.593	106.930	111.091	118.704	268.712	294.879	118.403	124.661	124.962	132.162	236.807	130.992	-8191	255	
2464.070	1	1	0	0	0.47581	0.066494	0.17702	0.15988	0.1321	0.025348	0.35889	0.023403	0.067777	0.044015	0.055015	0.25131	0.087805	0.28044	0.25043	0.24086	-2.9833	-2.9417	-3.0208	-3.525	-2.9	-3.0208	-3.3708	-2.9167	-3.3292	-2.9771	-3.1979	-3.2146	-3.0854	-3.2792	-3.2625	-3.1437	192.432	382.069	409.585	104.213	308.370	395.148	335.322	315.500	185.474	277.862	273.000	388.447	234.448	452.244	223.712	112.152	0.0006614	0.00032711	0.00010636	1196.1	3.8317e-06	4.3836e-06	1259.7	243.6	2.0022e-06	5.4595e-06	303.04	84.714	67.438	18.955	5.0136e-06	26.644	0.00030562	0.00030693	8.4499e-05	1170.7	3.3392e-06	3.3656e-06	1234.4	241.22	3.3982e-06	3.4352e-06	298.6	84.815	67.454	19.653	3.4378e-06	27.313	324.555	218.689	327.258	111.103	291.561	125.744	110.925	118.716	254.103	204.732	117.888	124.561	125.172	131.802	332.958	131.055	-8191	255	
2464.166	1	1	0	0	0.10858	0.25044	0.095566	0.27364	0.16021	0.095009	0.43678	0.12463	0.24244	0.18598	0.042983	0.11544	0.12488	0.35598	0.44128	0.18201	-2.7333	-3.0833	-2.8646	-3.45	-3.075	-3.0875	-3.6833	-2.8625	-3.2917	-3.25	-2.9688	-3.4	-2.9729	-2.9917	-3.1042	-2.9562	287.330	258.280	312.750	110.748	175.681	138.034	381.660	266.602	194.196	107.191	325.174	271.563	348.640	421.342	351.722	434.152	0.00074801	0.00046513	3.3471e-05	1196.6	4.688e-06	8.3054e-06	1269.2	244.79	5.3759e-06	1.8316e-06	304.06	85.076	67.602	18.919	8.1533e-06	26.57	0.00031552	0.00031123	8.662e-05	1174.7	3.4214e-06	3.3802e-06	1237.3	242.06	3.4038e-06	3.3093e-06	298.53	84.71	67.248	19.553	3.2789e-06	27.319	328.814	137.270	166.346	111.281	297.139	238.512	110.978	118.578	230.081	284.330	118.533	124.742	124.993	131.857	297.812	130.756	-8191	255	
2464.262	1	1	0	0	0.18129	0.15147	0.30145	0.31463	0.035173	0.35818	0.34574	0.19844	0.33734	0.19072	0.23988	0.24309	0.2749	0.059444	0.089834	0.25258	-2.6333	-3.1625	-3.0417	-3.2896	-3.0125	-3.1792	-3.5187	-3.0354	-3.175	-3.3208	-3.0021	-3.4646	-3.15	-2.9792	-3.1708	-3.0417	422.516	329.922	253.500	348.876	339.219	316.572	322.498	426.951	185.840	207.289	355.271	336.451	287.208	234.183	118.725	387.197	0.00067691	0.00054736	3.8381e-05	1198.4	8.2766e-06	2.0733e-06	1267.4	244.08	3.43e-06	2.2483e-06	305.85	84.193	67.832	18.981	7.5286e-06	26.656	0.00030409	0.0002972	8.3165e-05	1175.7	3.3212e-06	3.3048e-06	1240.5	241.91	3.3388e-06	3.3427e-06	299.46	84.783	67.597	19.633	3.3635e-06	27.326	328.479	129.844	299.136	111.110	228.883	312.174	111.141	118.510	252.103	251.913	117.848	124.579	124.686	131.600	299.637	131.037	-8191	255	
2464.381	1	1	0	0	0.19765	0.29328	0.24376	0.16779	0.061428	0.11817	0.18915	0.12966	0.22975	0.028594	0.025134	0.16947	0.10467	0.18426	0.21996	0.11578	-2.8396	-3.0125	-2.8937	-3.3187	-2.9458	-3.1021	-3.5083	-3.0833	-3.1896	-3.3521	-3.0417	-3.475	-3.1542	-3.0333	-3.3167	-3.0187	174.101	420.467	219.189	111.284	447.546	333.566	106.631	168.861	449.859	171.092	119.413	382.957	141.325	204.444	103.991	256.782	0.00074809	0.00018564	0.00013745	1205.8	3.1513e-06	4.7995e-06	1274.5	244.75	4.4775e-06	8.6508e-07	303.69	84.988	67.969	18.958	2.1661e-06	26.568	0.00031287	0.00031295	8.5712e-05	1181.1	3.4104e-06	3.4349e-06	1244.8	242.62	3.429e-06	3.4577e-06	300.24	85.251	67.83	19.741	3.4762e-06	27.517	309.406	263.051	196.265	111.029	276.089	161.829	111.253	118.448	153.408	200.249	118.162	124.389	125.592	131.311	309.206	130.738	-8191	255	
2464.455	1	1	0	0	0.18078	0.017252	0.046896	0.090203	0.29454	0.099777	0.259	0.054999	0.10546	0.26682	0.23148	0.088057	0.12907	0.071473	0.12987	0.23702	-2.7875	-3.1854	-2.9271	-3.3521	-3.1042	-3.0292	-3.5271	-2.9604	-3.075	-3.2583	-2.8688	-3.3083	-3.1854	-3.0458	-3.3563	-3.1479	155.954	379.985	359.698	368.097	356.568	190.753	383.629	442.674	320.039	148.285	364.005	249.078	443.409	130.191	110.414	458.740	0.00073021	0.00035638	6.2995e-05	1207.8	8.3033e-06	3.211e-06	1279.6	246.74	4.3137e-07	9.5072e-07	305.67	85.469	67.851	19.057	4.1219e-06	26.817	0.00032141	0.00032125	8.8283e-05	1186.2	3.4692e-06	3.4177e-06	1250.3	243.72	3.4637e-06	3.4361e-06	300.06	85.396	67.941	19.763	3.3523e-06	27.543	337.399	264.047	210.153	111.192	260.667	163.491	111.165	118.433	246.062	138.752	117.935	124.406	125.219	131.775	282.927	131.328	-8191	255	
2464.574	1	1	0	0	0.035564	0.32219	0.09886	0.33874	0.039257	0.13418	0.38093	0.26184	0.32575	0.22651	0.11746	0.17929	0.13642	0.088921	0.23624	0.15845	-2.5479	-3.2771	-2.7313	-3.4979	-3.0542	-2.9958	-3.4188	-3.2208	-3.1396	-3.1063	-2.9479	-3.2583	-3.1479	-2.9417	-3.1521	-3.1125	321.675	318.516	420.039	398.600	424.800	235.170	407.422	428.774	275.587	372.411	253.449	204.211	131.843	403.489	384.526	131.532	0.00076618	0.00035348	3.0996e-05	1212.4	5.0255e-06	6.083e-06	1282.7	246.71	6.874e-06	3.4495e-06	307.12	85.812	68.564	19.238	2.9649e-06	26.822	0.00030886	0.00030556	8.4739e-05	1188.5	3.3229e-06	3.2933e-06	1251.7	243.53	3.2777e-06	3.2812e-06	300.31	85.464	67.944	19.729	3.2855e-06	27.513	314.641	189.271	163.560	111.176	266.114	434.829	110.984	118.681	295.056	454.649	117.738	124.606	124.810	131.820	141.549	130.760	-8191	255	
2464.670	1	1	0	0	0.17971	0.11408	0.023977	0.20438	0.1343	0.20714	0.23226	0.1974	0.10148	0.058867	0.072278	0.095401	0.24441	0.063323	0.086052	0.17897	-2.6125	-3.2917	-2.8896	-3.3854	-3.1958	-2.8438	-3.3667	-3.1521	-3.0687	-3.2062	-3.0438	-3.0687	-3.2625	-2.9188	-3.2396	-3.0438	218.823	245.121	217.816	384.445	242.109	210.535	401.427	452.978	262.150	195.202	309.838	103.316	405.178	108.282	188.144	443.710	0.00050395	0.0002537	8.491e-05	1210.4	2.6556e-06	6.1731e-06	1276.7	246.72	3.5399e-06	3.1577e-06	306.22	84.879	67.771	19.03	6.9967e-06	26.887	0.00029974	0.00029984	8.435e-05	1184.8	3.2874e-06	3.2934e-06	1247.5	243.89	3.4015e-06	3.4027e-06	300.67	85.319	67.601	19.752	3.4775e-06	27.595	320.680	154.277	273.814	111.147	239.989	196.645	111.122	118.535	202.963	281.938	118.304	124.833	125.475	131.878	270.015	130.760	-8191	255	
2464.766	1	1	0	0	0.18414	0.098333	0.24134	0.13945	0.16574	0.1344	0.1647	0.035102	0.19295	0.17011	0.10185	0.13883	0.051253	0.36012	0.23951	0.38411	-2.5896	-3.1771	-2.9083	-3.3146	-3.2021	-3.0167	-3.4396	-3.2979	-3.0521	-3.3187	-3.1354	-3.2854	-3.3354	-3.0417	-3.1312	-3.3333	106.133	173.595	411.257	381.215	109.995	275.063	408.386	360.295	110.619	289.415	174.668	427.932	348.376	190.803	169.713	142.780	0.00059231	0.00024766	0.00023243	1208.9	7.8786e-06	3.1456e-06	1280.7	247.27	7.2322e-06	4.7888e-06	307.76	85.461	68.39	19.214	4.6609e-06	26.734	0.00031774	0.00031461	8.6823e-05	1187.2	3.4227e-06	3.4089e-06	1250.7	244.04	3.3871e-06	3.3522e-06	301.15	85.343	67.829	19.785	3.3394e-06	27.514	327.908	296.326	204.063	111.289	263.928	156.545	111.025	118.496	235.885	282.496	118.200	124.446	125.117	132.027	163.024	130.871	-8191	255	
2464.862	1	1	0	0	0.18892	0.25555	0.2156	0.26578	0.13716	0.25505	0.049668	0.39733	0.11012	0.11911	0.29089	0.24024	0.16819	0.28	0.082898	0.12932	-2.5833	-3.2292	-3.1083	-3.0833	-3.3854	-2.9708	-3.3187	-3.375	-3.0604	-3.3917	-3.2313	-2.9583	-3.2292	-3.0729	-3.2625	-3.1813	415.203	441.115	163.009	445.642	377.993	424.498	371.647	401.375	397.978	386.662	423.256	333.413	144.284	323.647	236.788	269.591	0.00074894	0.0003281	1.3092e-05	1210	7.2e-06	7.3108e-06	1275.9	247.71	3.6622e-06	6.0864e-06	306.58	85.804	67.725	19.127	6.7228e-06	26.803	0.00030214	0.00030105	8.4145e-05	1184.1	3.348e-06	3.3313e-06	1248.4	244.22	3.4016e-06	3.4111e-06	301.06	85.612	67.934	19.807	3.4695e-06	27.562	319.429	397.653	107.408	111.235	259.702	231.685	110.862	118.398	132.756	295.305	117.925	124.678	124.692	131.936	278.104	130.950	-8191	255	
2464.983	1	1	0	0	0.05189	0.15782	0.12282	0.12894	0.14346	0.12936	0.30872	0.13177	0.14773	0.14088	0.17622	0.17968	0.10251	0.085208	0.19487	0.16697	-2.55	-3.1229	-3.1167	-3.1729	-3.1354	-3.0104	-3.2542	-3.2542	-2.9958	-3.3896	-3.1458	-3.05	-3.3583	-3.0938	-3.0667	-3.2625	341.895	289.891	233.534	432.519	116.117	311.072	437.561	431.054	146.959	356.485	153.782	425.267	336.887	260.200	140.022	437.939	0.00058956	7.2656e-05	0.00010794	1212.3	1.0326e-05	5.4394e-06	1282.2	247.71	7.3981e-06	8.2089e-07	306.92	85.143	67.887	19.067	5.6432e-06	26.757	0.00031313	0.00031284	8.7579e-05	1187.3	3.4158e-06	3.4337e-06	1250.3	244.59	3.4339e-06	3.4444e-06	301.73	85.396	67.98	19.766	3.4216e-06	27.499	324.573	210.296	312.413	111.131	183.185	190.593	110.992	118.450	284.372	200.947	117.830	124.451	124.530	132.011	267.074	131.045	-8191	255	
2465.079	1	1	0	0	0.11422	0.19642	0.061804	0.10381	0.12284	0.15604	0.12165	0.10312	0.17065	0.083612	0.26836	0.37242	0.23377	0.03731	0.12825	0.10686	-2.55	-3.1917	-3.175	-3.0396	-3.2062	-2.9771	-3.0938	-3.3917	-3.0167	-3.2188	-3.1792	-3.0542	-3.2833	-3.0854	-3.1146	-3.3125	424.439	137.741	205.369	334.758	104.809	353.432	398.107	312.034	456.864	287.431	291.616	448.926	311.064	383.685	150.484	131.877	0.0005426	0.00055434	6.5573e-05	1205.9	1.7101e-06	5.0602e-06	1277.7	245.41	7.3455e-06	3.7382e-06	306.99	85.177	67.674	19.188	4.3198e-06	26.868	0.0003153	0.00031417	8.6416e-05	1185.3	3.4693e-06	3.4592e-06	1249.1	243.72	3.4914e-06	3.5149e-06	301.06	85.594	68.241	19.899	3.5674e-06	27.662	318.164	253.210	223.816	111.077	241.252	305.588	111.217	118.643	221.126	216.830	118.037	124.941	125.148	131.834	260.656	131.216	-8191	255	
2465.150	1	1	0	0	0.26461	0.080815	0.17747	0.23169	0.12395	0.37508	0.17659	0.24166	0.05672	0.0894	0.076501	0.20057	0.25724	0.24699	0.29305	0.26867	-2.5687	-3.1542	-3.2854	-3.2125	-3.2896	-3.1417	-3.1625	-3.3021	-3.0125	-3.2333	-3.2854	-2.9708	-3.3187	-3.1583	-2.9333	-3.2292	264.608	247.243	189.281	450.743	216.205	437.224	317.442	423.538	250.498	320.065	164.254	363.380	326.398	290.899	425.202	368.088	0.00046867	0.00027244	0.00010108	1207	9.6484e-07	4.2467e-06	1272.6	246.36	7.4984e-06	4.1134e-06	306.93	85.384	68.883	19.045	3.5142e-06	26.77	0.00033118	0.00032819	9.0224e-05	1185.4	3.5476e-06	3.5561e-06	1247.3	244.62	3.5328e-06	3.5499e-06	302.01	85.685	68.441	19.754	3.4985e-06	27.552	325.415	228.384	301.238	111.063	358.946	211.558	111.207	118.529	214.017	329.128	118.251	124.225	125.017	131.972	238.473	130.621	-8191	255	
2465.271	1	1	0	0	0.17384	0.045122	0.1905	0.19252	0.13366	0.31409	0.10713	0.015718	0.10084	0.20916	0.23405	0.068205	0.12929	0.073382	0.13512	0.23834	-2.7729	-3.0417	-3.3	-2.9896	-3.2375	-3.0896	-3.0271	-3.3688	-2.9896	-3.1021	-3.3438	-2.9104	-3.15	-3.1396	-2.9292	-3.3271	280.134	207.791	149.925	101.407	371.185	299.285	374.449	129.877	111.806	142.498	356.258	459.471	239.313	385.753	325.594	273.060	0.0006753	0.00064415	0.00010637	1204.5	3.6672e-06	3.0849e-06	1274.3	247.36	5.9696e-06	2.2756e-06	303.94	85.301	67.709	19.043	1.3894e-06	26.737	0.00031608	0.00031209	8.6188e-05	1182.3	3.3623e-06	3.3461e-06	1246.2	244.07	3.3851e-06	3.3694e-06	300.08	85.255	67.78	19.723	3.4553e-06	27.455	324.941	273.686	230.172	111.239	145.641	231.456	111.242	118.546	254.692	332.441	118.406	124.820	125.146	131.408	195.685	130.922	-8191	255	
2465.367	1	1	0	0	0.20983	0.05942	0.085118	0.14071	0.1398	0.26428	0.36059	0.096951	0.18592	0.046421	0.041976	0.13874	0.20047	0.13491	0.018828	0.23988	-2.4729	-2.975	-3.375	-3.0229	-3.1312	-3.225	-3.0875	-3.3937	-3.0062	-2.9479	-3.3667	-3.1833	-3.0792	-3.2896	-2.9521	-3.2396	287.174	244.242	397.194	456.606	383.207	305.159	416.568	116.312	222.081	238.445	230.354	401.177	382.525	400.470	428.076	104.498	0.00071313	0.00023476	6.3197e-05	1200.6	6.8983e-06	6.3642e-06	1271.8	246.85	7.8298e-06	4.6543e-06	308.78	85.375	67.821	19.027	2.7754e-06	26.719	0.00032019	0.00031575	8.8397e-05	1182.5	3.5116e-06	3.5465e-06	1247.2	244.27	3.611e-06	3.5897e-06	302.4	85.45	67.973	19.824	3.5583e-06	27.497	310.967	458.557	296.522	111.066	257.583	327.001	111.192	118.366	263.845	210.552	117.982	124.842	124.950	131.784	243.544	131.066	-8191	255	
2465.462	1	1	0	0	0.13693	0.11335	0.15558	0.19621	0.17939	0.075216	0.27468	0.155	0.18481	0.19559	0.12327	0.1355	0.23506	0.11065	0.047478	0.23084	-2.7229	-2.8812	-3.1813	-3.2542	-3.15	-3.2375	-3.1646	-3.4646	-3.1625	-3.0146	-3.5458	-3.0271	-3.0938	-3.2188	-2.9562	-3.2771	282.638	316.159	209.462	449.226	279.951	360.960	101.750	113.708	177.080	359.504	417.357	390.276	255.950	261.955	264.244	280.176	0.00084949	0.00026528	0.00017374	1204.5	7.8547e-06	3.8336e-06	1278.8	245.66	1.4779e-06	3.1847e-06	305.84	84.588	67.508	19.117	4.9268e-06	26.671	0.00032638	0.00032408	9.0242e-05	1183.7	3.5816e-06	3.5725e-06	1246	244.3	3.5717e-06	3.5885e-06	301.36	85.343	68.142	19.822	3.644e-06	27.627	317.461	187.295	304.097	111.135	274.995	276.049	111.005	118.487	200.071	269.278	118.252	124.560	125.074	131.852	135.604	130.536	-8191	255	
2465.582	1	1	0	0	0.11209	0.22255	0.25855	0.14158	0.020248	0.060059	0.43253	0.14024	0.08473	0.14505	0.16457	0.14023	0.12035	0.36306	0.19528	0.12455	-2.6771	-2.9271	-3.2896	-3.1292	-3.0875	-3.2354	-3.0646	-3.3083	-3.1146	-2.8937	-3.2792	-2.9896	-2.8604	-3.2292	-2.7229	-3.3271	162.611	102.017	319.835	391.378	143.899	384.863	436.440	304.680	166.554	308.217	172.960	156.151	250.201	135.029	158.765	409.283	0.00078103	0.00037731	1.923e-05	1202.5	2.7396e-06	4.7481e-06	1275	246.41	2.8588e-06	3.9065e-06	307.56	84.756	67.713	18.975	4.9105e-06	26.617	0.00033163	0.00033111	9.2452e-05	1183.4	3.6035e-06	3.6394e-06	1246.7	244.56	3.6847e-06	3.6322e-06	302.84	85.329	68.163	19.789	3.6776e-06	27.575	323.399	242.839	104.660	111.314	310.890	293.708	111.052	118.742	200.086	338.916	118.248	124.634	125.149	131.688	241.594	130.775	-8191	255	
2465.678	1	1	0	0	0.097102	0.026553	0.098384	0.29688	0.20351	0.16609	0.43633	0.03838	0.097902	0.096679	0.052153	0.16164	0.11069	0.1238	0.10531	0.27873	-2.65	-2.9813	-3.2417	-3.2833	-3.0333	-3.3312	-3.2208	-3.2292	-3.2687	-2.9271	-3.3104	-3.1833	-2.8542	-3.4479	-3.0896	-3.0104	445.745	398.957	147.929	454.902	157.602	193.147	408.837	388.111	246.862	331.653	293.438	437.203	212.880	167.658	416.572	438.126	0.00066686	0.00012047	4.6984e-05	1200.9	2.4988e-06	2.7852e-06	1273.1	246.22	2.7875e-06	2.4286e-06	304.98	84.883	68.414	19.026	4.3436e-06	26.728	0.00033232	0.00033324	9.3247e-05	1183	3.615e-06	3.6425e-06	1246.7	244.37	3.6002e-06	3.5855e-06	302.27	85.306	68.234	19.749	3.6159e-06	27.575	313.468	315.021	255.861	111.166	246.718	333.086	111.014	118.425	283.404	384.445	117.945	124.710	125.228	131.884	305.925	131.301	-8191	255	
2465.750	1	1	0	0	0.30373	0.13727	0.13091	0.48954	0.20336	0.072531	0.40908	0.095762	0.25974	0.14643	0.10236	0.21671	0.15663	0.0096744	0.092335	0.14379	-2.7479	-2.9188	-3.1604	-3.1854	-2.8271	-3.4958	-3.3417	-3.1208	-3.2833	-2.8312	-3.2271	-3.1167	-2.775	-3.225	-2.8479	-3.1333	358.138	100.747	231.199	409.610	390.172	388.008	414.688	221.761	396.823	235.692	338.357	102.557	185.850	259.251	316.299	155.938	0.00060488	0.00019419	0.00021079	1205.5	8.8986e-06	3.9822e-06	1266.4	244.97	3.9325e-06	3.4308e-06	307.18	85.046	67.545	19.044	3.5974e-06	26.898	0.00032909	0.00032588	9.0743e-05	1182.2	3.5925e-06	3.5819e-06	1244.5	243.47	3.5665e-06	3.6134e-06	302.2	85.228	67.898	19.761	3.5996e-06	27.57	308.654	213.592	209.875	111.328	251.713	310.367	111.209	118.407	268.048	265.297	117.843	124.493	125.001	131.495	282.714	131.314	-8191	255	
2465.846	1	1	0	0	0.17775	0.089375	0.20476	0.27448	0.08278	0.15459	0.099942	0.11932	0.15667	0.16022	0.25473	0.16513	0.19479	0.1478	0.10867	0.31905	-2.7604	-2.85	-3.2208	-3.3417	-2.9271	-3.1875	-3.2562	-3.0458	-3.2667	-3.0021	-3.3063	-3.2917	-2.8917	-3.2167	-3.1208	-2.8979	145.461	242.354	325.561	443.975	128.518	179.734	102.579	331.610	165.809	403.049	134.397	428.127	386.111	304.765	304.026	177.380	0.00062031	0.00014799	0.00017815	1201.7	4.6303e-06	9.1322e-07	1267.8	246.41	1.6875e-06	2.8413e-06	306.32	85.266	67.423	18.957	4.4352e-06	26.649	0.00033203	0.00033322	9.264e-05	1180	3.6648e-06	3.617e-06	1243.5	244.04	3.6189e-06	3.6138e-06	301.82	85.345	67.883	19.721	3.6328e-06	27.541	323.053	117.003	162.335	111.191	265.707	202.005	111.124	118.373	126.073	294.994	118.043	124.616	125.678	132.131	365.039	131.332	-8191	255	
2465.942	1	1	0	0	0.056516	0.093315	0.23757	0.23466	0.16952	0.091814	0.10165	0.13894	0.21494	0.22706	0.17346	0.097046	0.12219	0.22068	0.050541	0.084348	-2.9417	-2.9396	-2.9313	-3.3979	-2.9896	-3.2292	-3.3396	-3.15	-3.2792	-3.0062	-3.1396	-3.275	-2.9417	-3.3312	-3.3417	-2.8729	335.208	159.342	319.454	410.680	214.900	276.840	316.625	411.561	221.953	341.902	453.911	356.083	211.184	449.714	236.053	404.411	0.00057863	0.00017994	6.0174e-05	1204.2	1.3117e-05	3.7658e-06	1270.7	245.99	7.814e-06	6.2291e-06	305.6	84.232	67.885	19.052	2.8623e-06	26.889	0.00033009	0.00032938	9.2839e-05	1181.6	3.6464e-06	3.6316e-06	1245.5	244.06	3.6269e-06	3.6168e-06	301.67	85.185	68.121	19.711	3.5803e-06	27.594	325.642	371.640	213.520	111.382	255.880	137.371	111.286	118.521	107.377	239.992	118.172	124.929	125.016	131.705	173.169	131.064	-8191	255	
2466.063	1	1	0	0	0.085787	0.13838	0.19806	0.29789	0.064635	0.319	0.36473	0.41069	0.29511	0.2055	0.16537	0.26069	0.14914	0.12761	0.17696	0.27687	-2.7354	-2.9083	-2.9771	-3.4958	-2.875	-3.0833	-3.1937	-2.8583	-3.3667	-3.0083	-3.2229	-3.4021	-2.8354	-3.2062	-3.2271	-2.9313	102.926	244.362	112.877	423.818	107.758	192.260	432.066	411.024	373.435	180.287	406.448	417.992	107.098	315.864	103.967	202.127	0.00076654	0.00059074	0.00019844	1202.2	7.7812e-06	2.0391e-06	1269	245.52	5.6514e-06	3.5317e-06	304.18	84.607	67.844	19.096	7.1041e-06	26.623	0.00033121	0.00032496	9.0546e-05	1179.3	3.5325e-06	3.5472e-06	1242.8	243.71	3.5187e-06	3.5325e-06	301.35	85.23	67.854	19.719	3.546e-06	27.506	308.004	219.122	123.892	111.394	311.760	232.444	111.152	118.689	216.162	235.359	117.956	124.654	124.828	131.254	321.739	130.881	-8191	255	
2466.159	1	1	0	0	0.10985	0.079054	0.098249	0.13345	0.25717	0.036691	0.24269	0.30156	0.22766	0.18849	0.20812	0.18415	0.1245	0.081226	0.061634	0.059552	-2.7958	-3.0875	-2.8187	-3.4583	-2.9875	-3.3042	-3.1875	-2.8312	-3.1854	-3.2292	-3.0812	-3.3792	-2.9896	-3.0438	-3.1208	-2.9604	109.964	407.570	389.113	114.484	396.654	424.136	346.656	435.074	416.455	104.505	445.190	429.341	372.341	215.936	448.141	228.887	0.00055936	0.00019695	0.00014035	1203.4	1.1703e-05	1.9873e-06	1264.1	245.91	2.0307e-06	2.6127e-06	306.2	85.305	67.645	19.021	8.7795e-06	26.515	0.00032761	0.00032541	9.0018e-05	1181.2	3.5553e-06	3.4986e-06	1240.5	243.73	3.5313e-06	3.5167e-06	301.16	85.276	67.912	19.688	3.4679e-06	27.411	322.990	131.641	181.844	111.124	185.936	280.414	111.135	118.357	253.650	423.998	117.823	125.087	125.441	131.926	267.049	131.126	-8191	255	
2466.255	1	1	0	0	0.047413	0.12378	0.069784	0.26838	0.19326	0.12428	0.21971	0.19551	0.34504	0.17216	0.10702	0.2021	0.12304	0.20121	0.075681	0.23224	-2.8042	-3.0312	-2.9146	-3.3187	-3.0312	-2.9979	-3.525	-3.0375	-3.1229	-3.0938	-3.0604	-3.2562	-3.0667	-3.0479	-3.2042	-3.0583	116.872	386.897	311.537	434.696	434.306	248.671	453.501	452.465	175.029	349.263	410.097	430.070	449.745	427.633	263.772	286.043	0.00066521	0.0003744	0.00011999	1199.3	4.6137e-06	4.757e-06	1267.8	245.09	6.0487e-06	4.7403e-06	304.94	84.622	67.81	18.955	4.6103e-06	26.531	0.00032161	0.00031891	8.8587e-05	1175.6	3.4329e-06	3.4659e-06	1239.2	242.79	3.5048e-06	3.4634e-06	300.26	84.969	67.659	19.677	3.508e-06	27.408	321.047	306.380	307.839	111.184	226.883	130.353	111.348	118.645	254.895	295.484	118.526	124.491	124.934	131.940	391.351	130.699	-8191	255	
2466.351	1	1	0	0	0.14947	0.17094	0.10112	0.30222	0.10437	0.064532	0.3336	0.11468	0.18857	0.13021	0.084626	0.087187	0.24625	0.028292	0.20647	0.13172	-2.5958	-3.2042	-2.875	-3.2521	-2.9979	-2.9979	-3.5021	-3.075	-3.3312	-3.2854	-2.9688	-3.3229	-2.8521	-3.0375	-3.4958	-2.9458	431.676	396.334	393.249	370.809	406.991	421.368	403.065	255.859	106.684	296.755	109.460	385.908	428.260	178.980	406.606	413.550	0.00068069	0.00011303	8.7972e-05	1203.2	4.4925e-06	3.4369e-06	1264.2	244.6	6.4069e-06	3.5063e-06	305.28	85.066	67.739	18.855	8.9681e-07	26.688	0.0003215	0.00031671	8.8017e-05	1176.9	3.4727e-06	3.4597e-06	1237.4	242.47	3.4904e-06	3.4528e-06	299.83	84.925	67.644	19.625	3.4724e-06	27.428	319.027	337.415	247.922	111.264	240.946	251.525	111.068	118.555	276.268	446.427	118.149	124.674	124.916	132.095	316.868	131.043	-8191	255	
2466.448	1	1	0	0	0.25769	0.18308	0.18689	0.23592	0.1749	0.054126	0.12678	0.14659	0.21057	0.23716	0.10323	0.086873	0.052825	0.20282	0.1068	0.14503	-2.8542	-3.0333	-2.8417	-3.3708	-3.2521	-2.9	-3.4917	-3.1833	-3.2125	-3.1083	-2.9813	-3.2313	-3.2042	-3.0125	-3.3312	-3.1021	444.674	223.426	457.896	392.604	300.073	239.746	402.088	111.474	181.401	409.990	381.892	101.170	145.789	255.931	135.152	441.922	0.00082495	0.0003442	4.413e-05	1196.3	6.8516e-06	4.8348e-06	1263.4	245.45	9.1703e-07	2.591e-06	306.97	84.627	67.394	19.008	1.3408e-05	26.718	0.00031795	0.00031703	8.8345e-05	1174.1	3.5045e-06	3.4587e-06	1237.2	243.08	3.4757e-06	3.4667e-06	300.38	84.95	67.536	19.657	3.5239e-06	27.386	314.682	222.727	392.728	111.384	219.621	177.520	111.093	118.431	253.897	195.163	118.283	124.581	124.802	131.744	254.743	131.291	-8191	255	
2466.544	1	1	0	0	0.22062	0.078487	0.27544	0.23813	0.29657	0.077286	0.29549	0.2678	0.10957	0.077732	0.18314	0.13358	0.35493	0.063634	0.13219	0.11658	-2.8458	-3.1562	-2.8583	-3.4479	-3.1083	-2.8292	-3.6458	-3.1917	-3.0958	-3.225	-3.1125	-3.3812	-3.2479	-2.9417	-3.3521	-3.0583	358.354	312.105	391.771	417.993	307.495	125.062	351.218	107.667	235.473	412.554	427.316	313.246	221.806	159.022	148.815	368.675	0.0005622	0.00037864	0.00038303	1197.1	3.0797e-06	8.9584e-06	1267	244.64	1.121e-05	7.0567e-06	303.7	84.798	67.489	18.993	1.3528e-06	26.656	0.00032371	0.00031851	8.8398e-05	1174.5	3.4902e-06	3.5095e-06	1237.9	242.67	3.5005e-06	3.5439e-06	299.78	85.141	67.608	19.652	3.5201e-06	27.515	337.055	181.536	181.388	111.197	388.287	147.537	111.320	118.554	246.356	219.915	118.330	124.559	124.945	131.988	223.378	130.820	-8191	255	
2466.663	1	1	0	0	0.08513	0.073951	0.070002	0.16705	0.16277	0.072175	0.015299	0.24681	0.10107	0.14627	0.28039	0.22005	0.13	0.016222	0.20402	0.24286	-2.7354	-3.2625	-3.1208	-3.2958	-3.3104	-3.0125	-3.4437	-3.0854	-3.0583	-3.2542	-3.1188	-3.2771	-3.1396	-3.0187	-3.4021	-3.3021	434.750	453.046	386.498	428.997	351.815	391.665	283.642	403.637	366.204	275.953	420.704	116.316	199.320	343.696	272.917	107.825	0.00062929	0.00025888	0.00011023	1196.2	6.9875e-06	4.6975e-06	1264.9	245.12	6.6139e-06	3.0382e-06	305.3	84.224	67.6	18.89	7.6391e-07	26.374	0.000324	0.00032373	8.9378e-05	1174.4	3.5388e-06	3.528e-06	1237.3	243.02	3.5193e-06	3.5631e-06	300.73	84.787	67.757	19.652	3.5615e-06	27.423	312.406	261.741	250.688	111.435	298.993	207.269	111.182	118.531	301.799	255.772	118.056	124.686	125.141	131.350	333.512	131.001	-8191	255	
2466.759	1	1	0	0	0.15343	0.11339	0.1734	0.14557	0.30778	0.11224	0.15128	0.41525	0.16279	0.27761	0.14974	0.22404	0.10922	0.20023	0.1489	0.16623	-2.675	-3.2021	-3.1104	-3.3292	-3.1375	-2.9688	-3.5062	-3.2125	-2.9437	-3.3563	-2.9437	-3.1292	-3.2562	-3.1458	-3.2083	-3.2667	106.953	452.300	394.687	339.380	208.848	219.397	453.267	403.047	389.060	367.001	309.396	304.392	137.163	408.529	231.645	387.320	0.00085905	0.00034114	0.00019438	1195.6	5.8256e-06	3.9489e-06	1265	244.2	6.42e-06	3.5606e-06	304.15	84.465	67.547	18.933	3.5171e-06	26.517	0.00032584	0.00032592	9.0113e-05	1174.1	3.5757e-06	3.563e-06	1237.7	243.1	3.5584e-06	3.57e-06	299.92	85.019	67.826	19.634	3.5729e-06	27.421	323.684	234.301	222.041	111.265	243.356	207.126	111.360	118.755	224.924	406.522	117.848	124.925	124.872	131.587	373.453	131.018	-8191	255	
2466.855	1	1	0	0	0.34282	0.042647	0.067786	0.20225	0.13915	0.10361	0.034347	0.12787	0.20451	0.18308	0.39407	0.35058	0.10155	0.21778	0.11132	0.27112	-2.6229	-3.2083	-2.9083	-3.2833	-3.2229	-2.9938	-3.4542	-3.3438	-2.8917	-3.3	-3.15	-3.0896	-3.4771	-3.0083	-3.1813	-3.2396	294.840	456.604	278.422	349.034	307.560	187.059	387.500	105.346	371.407	240.344	105.975	407.753	332.581	378.869	106.373	419.568	0.00073292	8.5744e-05	0.00025655	1198.9	6.7044e-06	4.04e-06	1266.2	244.05	1.0927e-05	1.7906e-06	305.01	84.671	67.253	18.913	4.0224e-06	26.417	0.00032886	0.00032396	9.0164e-05	1173.5	3.5048e-06	3.5251e-06	1236.8	242.57	3.5453e-06	3.5229e-06	300.12	84.994	67.567	19.626	3.5292e-06	27.363	330.525	436.839	224.899	111.074	194.183	214.839	111.166	118.384	215.265	455.607	117.995	124.593	125.255	131.576	189.181	131.201	-8191	255	
2466.976	1	1	0	0	0.26022	0.034723	0.11148	0.10158	0.040265	0.35033	0.056976	0.11073	0.40035	0.1561	0.17039	0.086412	0.23233	0.14052	0.078026	0.14214	-2.5854	-3.2875	-3.0312	-2.8937	-3.3521	-2.9667	-3.3917	-3.3042	-3.0458	-3.3375	-3.25	-3.1292	-3.35	-3.0979	-3.2896	-3.25	175.061	182.331	178.158	124.831	206.450	412.409	245.843	451.209	274.200	215.657	421.637	389.760	282.330	106.161	116.372	107.340	0.0007023	0.00046518	0.00021884	1203.1	8.7862e-06	1.7837e-06	1267.3	243.88	4.6581e-06	1.7806e-06	303.1	84.562	67.721	18.855	4.4953e-06	26.626	0.00032464	0.00032443	8.8972e-05	1175.4	3.5289e-06	3.531e-06	1236.3	242.23	3.5006e-06	3.4939e-06	299.24	84.686	67.608	19.597	3.5327e-06	27.429	313.923	175.042	169.565	111.192	281.984	346.707	111.136	118.479	422.645	319.345	118.279	124.393	124.929	131.831	306.206	131.148	-8191	255	
2467.047	1	1	0	0	0.16401	0.10831	0.24329	0.55355	0.1045	0.10744	0.38929	0.015526	0.16567	0.085944	0.076293	0.099464	0.14637	0.11651	0.099512	0.11193	-2.6604	-3.1792	-3.1708	-2.9313	-3.2687	-3.0563	-3.3667	-3.35	-2.9271	-3.4417	-3.2438	-2.8792	-3.3688	-3.15	-3.1125	-3.4688	358.665	298.009	107.054	448.800	285.745	450.221	355.735	294.140	173.027	229.397	109.727	323.349	278.142	156.913	334.549	442.900	0.00070533	0.00023884	0.00010334	1193	6.5714e-06	4.1768e-06	1260.8	243.43	1.0893e-05	4.1103e-06	305.07	84.284	67.802	19.068	1.1398e-05	26.6	0.00032484	0.00032247	8.9468e-05	1172.7	3.5558e-06	3.5459e-06	1233.9	241.93	3.5875e-06	3.5873e-06	299.59	84.909	67.789	19.663	3.567e-06	27.334	331.007	117.499	162.456	111.339	217.107	322.281	111.223	118.822	343.198	185.548	118.173	124.703	124.725	131.829	255.660	131.153	-8191	255	
2467.143	1	1	0	0	0.081215	0.14715	0.14652	0.25093	0.28062	0.29811	0.17846	0.12707	0.46221	0.032535	0.081845	0.046772	0.077528	0.12829	0.09874	0.085913	-2.6229	-3.1771	-3.225	-2.9896	-3.2562	-3.125	-3.0896	-3.3854	-2.9333	-3.1875	-3.1667	-2.9396	-3.3521	-3.1604	-3.0438	-3.3104	398.691	194.727	243.728	406.520	239.727	275.982	421.449	403.534	411.135	196.527	338.025	287.574	434.601	101.254	218.864	384.601	0.00058196	0.0002845	4.1064e-05	1190.6	6.829e-06	6.3476e-06	1260.4	244.34	7.8922e-06	4.2955e-06	302.21	84.55	66.992	18.839	9.4227e-06	26.525	0.00032802	0.00032301	8.9793e-05	1170.4	3.5887e-06	3.5909e-06	1234	241.95	3.5937e-06	3.5938e-06	299.37	84.878	67.533	19.643	3.6667e-06	27.389	313.243	200.291	211.775	111.161	250.697	255.571	111.306	118.977	291.667	207.577	118.050	124.499	125.260	131.922	326.203	131.399	-8191	255	
2467.239	1	1	0	0	0.12258	0.2131	0.18227	0.15253	0.09332	0.24618	0.36395	0.14643	0.070018	0.11285	0.15309	0.088404	0.37867	0.17367	0.12811	0.1676	-2.5708	-3.1521	-3.0604	-3.1479	-3.1396	-3.0604	-3.1375	-3.3396	-3.025	-3.2646	-3.1667	-2.9417	-3.4646	-3.2	-2.9792	-3.4437	127.874	401.937	192.171	401.254	320.919	224.482	438.597	460.153	310.228	396.357	183.754	173.706	109.572	431.165	344.691	227.888	0.00070547	0.0001407	0.00012571	1189.6	2.8055e-06	8.2869e-06	1267.2	245.15	5.3137e-06	3.3024e-06	304.38	85.005	66.79	18.866	3.7285e-06	26.553	0.00033738	0.00033752	9.3439e-05	1173	3.7206e-06	3.7274e-06	1237.2	242.51	3.6936e-06	3.6968e-06	300.25	85.057	67.652	19.645	3.6838e-06	27.418	324.890	287.895	270.581	111.313	248.949	325.099	111.052	118.492	252.180	193.312	118.105	124.835	124.461	131.879	236.432	131.220	-8191	255	
2467.358	1	1	0	0	0.30014	0.17692	0.039482	0.2214	0.076153	0.11299	0.27907	0.22109	0.039175	0.24127	0.27111	0.1908	0.14301	0.093211	0.20034	0.20204	-2.4604	-3	-3.0979	-3.1	-3.0687	-3.0792	-3.1354	-3.4458	-3.0229	-3.2458	-3.2938	-3.0104	-3.0271	-3.0729	-3.0208	-3.3458	244.486	366.116	153.495	445.833	167.501	369.751	453.927	135.398	349.275	166.981	116.994	124.822	433.841	343.944	382.772	394.420	0.00063557	0.00053198	7.6481e-05	1188.9	8.5647e-06	1.3998e-05	1257.5	244.7	1.0869e-05	1.2015e-06	303.89	84.02	66.958	18.908	5.3016e-06	26.652	0.00033398	0.00033104	9.1693e-05	1171	3.6131e-06	3.6189e-06	1233	242.11	3.6189e-06	3.6335e-06	300.27	84.718	67.682	19.605	3.73e-06	27.473	321.175	175.569	262.432	111.106	229.581	216.546	111.227	118.508	211.784	292.697	118.121	124.704	125.633	132.112	263.893	130.751	-8191	255	
2467.455	1	1	0	0	0.13259	0.23382	0.13761	0.21385	0.28206	0.12577	0.21296	0.11892	0.049826	0.15886	0.08165	0.42741	0.025798	0.15304	0.15644	0.32765	-2.7146	-2.9125	-3.2042	-3.1583	-3.1708	-3.4667	-3.1375	-3.1542	-3.0333	-3.0729	-3.3542	-2.9562	-3.0563	-3.3271	-2.9021	-3.3688	281.419	327.601	159.199	422.196	178.762	282.901	350.801	145.175	263.349	382.260	446.809	439.239	445.419	454.448	250.923	337.849	0.00066083	0.00030811	0.00026394	1195.8	3.0903e-06	3.2704e-06	1260.5	244.58	4.0744e-06	5.0392e-06	302.85	84.548	66.865	18.841	3.762e-06	26.433	0.00033864	0.00033692	9.3822e-05	1174.1	3.7089e-06	3.6962e-06	1235.9	242.66	3.751e-06	3.7348e-06	300.38	85.033	67.818	19.668	3.7559e-06	27.395	310.536	423.182	250.328	111.291	175.298	332.943	111.086	118.567	257.183	135.245	118.393	124.591	124.954	132.019	267.434	131.244	-8191	255	
2467.551	1	1	0	0	0.12973	0.21065	0.17835	0.19041	0.32517	0.27232	0.093326	0.3113	0.14766	0.20843	0.2177	0.095695	0.20661	0.052069	0.12296	0.12769	-2.6354	-3.0167	-3.2083	-3.2396	-3.0396	-3.2292	-3.0875	-3.1792	-3.3458	-3.1292	-3.2708	-3.1625	-3.3333	-3.2896	-2.9167	-3.1604	173.390	389.040	118.113	361.516	454.129	299.611	344.097	380.740	406.589	130.194	409.117	102.680	136.492	343.719	446.832	427.520	0.0004882	0.00029779	0.00013524	1195.7	5.6088e-06	2.6552e-06	1259.8	244.08	4.1102e-06	4.1754e-06	304.59	84.092	66.851	18.796	6.3447e-06	26.579	0.00034253	0.00034183	9.4177e-05	1173.8	3.7064e-06	3.679e-06	1234.5	242.18	3.6431e-06	3.657e-06	299.7	84.612	67.258	19.559	3.5708e-06	27.286	324.282	296.983	193.732	110.988	267.218	286.384	111.179	118.668	284.430	196.168	118.025	124.470	125.845	131.679	247.981	131.044	-8191	255	
2467.624	1	1	0	0	0.14542	0.079939	0.21482	0.27439	0.16361	0.22645	0.11269	0.37723	0.26081	0.18043	0.29122	0.068871	0.30334	0.039602	0.13791	0.16469	-2.8271	-2.9292	-3.2979	-3.2917	-3.1104	-3.3042	-3.1	-3.0958	-3.0417	-3.0104	-3.3063	-3.2167	-2.9833	-3.275	-3.0146	-3.3	101.349	182.952	323.671	441.106	255.790	230.620	300.486	447.260	183.309	124.604	126.448	256.924	228.993	216.935	271.614	110.957	0.00057526	9.8825e-05	7.4592e-05	1187.4	8.2729e-06	1.5859e-06	1254.9	244.17	2.7567e-06	5.7472e-06	302.22	84.705	67.121	18.873	9.2485e-06	26.413	0.0003303	0.00032629	9.107e-05	1168	3.6132e-06	3.6538e-06	1229.9	241.83	3.6593e-06	3.6781e-06	299.56	84.899	67.6	19.622	3.6979e-06	27.372	323.782	226.691	199.471	111.007	260.947	394.350	111.127	118.471	305.190	317.046	117.749	124.591	124.939	131.921	217.453	131.239	-8191	255	
2467.743	1	1	0	0	0.24439	0.13359	0.036898	0.24161	0.1208	0.10983	0.11846	0.22613	0.11212	0.2468	0.30604	0.18313	0.10084	0.032562	0.12632	0.35723	-2.675	-2.9938	-3.1979	-3.3542	-3.0687	-3.3708	-3.3271	-3.4125	-3.425	-2.8229	-3.2125	-3.2625	-3.1813	-3.3646	-3.0646	-3.075	457.256	376.033	425.298	444.203	156.420	424.415	420.167	353.142	442.807	138.140	178.393	113.688	206.192	281.358	190.198	405.848	0.00059464	0.00039455	0.00010693	1189.8	4.9858e-06	9.9394e-06	1260	243.89	5.9888e-06	3.2533e-06	302.46	84.376	67.51	18.86	6.0253e-06	26.453	0.00034064	0.00034131	9.4704e-05	1169	3.719e-06	3.7261e-06	1233.9	241.99	3.7027e-06	3.6938e-06	298.86	84.72	67.585	19.624	3.6093e-06	27.346	313.283	184.140	250.518	111.336	217.897	233.299	111.047	118.436	259.143	210.361	117.784	124.930	125.179	131.793	270.463	131.479	-8191	255	
2467.839	1	1	0	0	0.1362	0.096668	0.10197	0.30446	0.13547	0.080516	0.057614	0.43335	0.077239	0.12771	0.22598	0.052628	0.13108	0.075573	0.090604	0.15659	-2.9062	-2.9062	-3.1146	-3.3667	-2.9646	-3.2875	-3.15	-3.1604	-3.3417	-2.8875	-3.2271	-3.3604	-3.1083	-3.2771	-3.1229	-3.1479	417.819	347.427	193.974	403.232	166.568	439.321	366.248	414.253	264.458	151.430	392.368	364.672	413.115	261.701	241.276	118.589	0.00069043	0.00041795	0.00017637	1189.5	2.1893e-06	4.034e-06	1254	243.82	5.2094e-06	4.3706e-06	302.78	83.437	67.13	18.641	4.5659e-06	26.331	0.00033242	0.00032651	9.0673e-05	1166.9	3.565e-06	3.5512e-06	1227.9	241.32	3.5266e-06	3.5153e-06	297.99	84.267	67.265	19.429	3.5556e-06	27.265	329.860	376.300	243.904	111.247	281.814	215.738	111.166	118.463	282.602	291.135	117.977	124.684	124.879	132.003	259.023	131.279	-8191	255	
2467.935	1	1	0	0	0.20439	0.1239	0.076983	0.39968	0.12803	0.024738	0.26086	0.035206	0.042879	0.23978	0.030328	0.18349	0.20599	0.11265	0.15252	0.2054	-3	-2.9042	-3.1771	-3.4437	-3.0833	-3.2979	-3.3792	-3.2625	-3.2771	-3.0062	-3.0771	-3.4646	-2.8333	-3.2562	-3.1521	-3.0354	370.769	149.490	276.870	373.646	427.993	287.619	392.452	335.381	439.065	308.759	285.832	413.983	122.612	427.385	369.229	381.759	0.00056713	0.00046518	0.00015809	1184.7	9.8171e-06	4.2319e-06	1254.2	242.52	6.7878e-06	6.2319e-06	304.21	83.961	67.138	18.698	1.0411e-05	26.404	0.00032434	0.00032239	8.9721e-05	1162.6	3.4955e-06	3.4883e-06	1226.2	240.55	3.4654e-06	3.4622e-06	298.3	84.37	67.219	19.451	3.5168e-06	27.207	327.294	215.935	171.480	111.094	236.195	224.235	111.196	118.657	276.682	121.798	118.236	124.699	125.111	131.874	210.677	131.498	-8191	255	
2468.056	1	1	0	0	0.054595	0.14895	0.37508	0.2929	0.12528	0.20507	0.27393	0.17321	0.08218	0.050991	0.19132	0.16781	0.095571	0.049109	0.04041	0.060535	-3.0458	-3.0354	-3.2	-3.3688	-3.0062	-3.3229	-3.4521	-3.15	-3.2083	-3.0125	-3.2687	-3.4938	-2.9792	-3.2667	-3.3021	-3.1167	123.166	395.124	269.134	408.448	318.036	274.813	459.475	337.429	378.651	252.414	328.431	444.772	384.963	190.664	172.039	446.571	0.00080288	0.00013008	9.6405e-05	1181.4	7.333e-06	1.4404e-06	1248	242.95	2.8667e-06	8.6751e-07	299.4	83.873	66.962	18.89	5.6234e-06	26.464	0.00032071	0.00032019	8.8306e-05	1162.5	3.4704e-06	3.4915e-06	1223.7	240.35	3.4378e-06	3.4521e-06	297.38	84.201	67.025	19.509	3.4977e-06	27.252	330.333	387.635	330.522	111.207	233.618	307.546	111.225	118.743	173.515	181.112	118.011	125.018	124.953	131.869	434.621	131.323	-8191	255	
2468.152	1	1	0	0	0.1494	0.15103	0.39668	0.30056	0.12879	0.19398	0.2537	0.33143	0.27237	0.23566	0.10221	0.22653	0.063581	0.18608	0.099754	0.056558	-2.8812	-3.1021	-3.0604	-3.5042	-3.0729	-3.2188	-3.4	-2.9854	-3.2313	-3.075	-3.1958	-3.3208	-3.0229	-3.0563	-3.3438	-3.0979	361.089	118.493	358.615	446.446	234.036	269.564	381.110	109.107	345.112	347.208	226.998	318.682	300.386	315.669	280.410	121.065	0.00073706	0.00029537	0.00010985	1185	1.3012e-06	7.0205e-06	1252.4	241.76	4.5623e-06	3.3576e-06	303.57	83.765	66.676	18.884	3.5937e-06	26.401	0.00032473	0.00032038	8.8047e-05	1164.5	3.5319e-06	3.4951e-06	1226.8	240.16	3.5078e-06	3.5234e-06	298.2	84.165	67.194	19.547	3.5729e-06	27.275	316.728	198.543	160.260	111.328	337.895	337.563	111.038	118.682	253.334	280.711	117.839	124.751	124.834	131.681	265.667	130.779	-8191	255	
2468.248	1	1	0	0	0.10775	0.074874	0.18976	0.33643	0.2425	0.21261	0.41336	0.083701	0.19062	0.0853	0.13006	0.091729	0.091717	0.097193	0.12813	0.1403	-2.8708	-2.9646	-2.9417	-3.4562	-2.9979	-3.1562	-3.6167	-3.0104	-3.2458	-3.3417	-2.9125	-3.2917	-3.1396	-3.1792	-3.3333	-2.9625	333.055	304.256	368.032	418.910	338.636	347.106	420.928	345.605	144.122	173.364	389.802	214.166	329.803	396.483	170.545	241.419	0.0008092	0.00080159	0.00024	1189.3	9.45e-06	6.2457e-06	1255.3	242.56	6.7867e-06	2.2444e-06	304.43	84.179	66.795	18.701	3.5981e-06	26.32	0.00033071	0.00032787	9.2294e-05	1167.3	3.5994e-06	3.6173e-06	1226.9	241.12	3.594e-06	3.6162e-06	298.8	84.327	67.24	19.517	3.6087e-06	27.232	318.639	256.490	188.563	111.167	263.724	248.367	111.326	118.567	209.948	262.800	118.534	124.799	124.620	131.984	182.903	131.113	-8191	255	
2468.344	1	1	0	0	0.17951	0.19694	0.072958	0.23548	0.11384	0.14585	0.24013	0.097005	0.21974	0.28251	0.37541	0.086122	0.036713	0.24349	0.13726	0.15868	-2.6521	-3.2125	-2.9854	-3.3854	-3.1229	-3.0125	-3.3896	-3.1021	-3.2104	-3.2292	-3.2687	-3.2938	-3.0938	-3.2062	-3.2979	-3.2042	171.251	330.461	415.193	403.998	103.872	190.116	382.623	329.101	207.862	349.740	440.057	317.827	318.185	363.622	254.238	343.352	0.00057827	0.00050329	0.00013314	1185.9	5.0638e-06	6.2735e-06	1257.4	241.63	1.1353e-05	1.7693e-06	300.86	83.551	67.191	18.75	1.9734e-06	26.462	0.00032971	0.00032784	9.1118e-05	1165.3	3.5866e-06	3.5502e-06	1227.1	240.33	3.4947e-06	3.5082e-06	297.49	84.263	67.339	19.467	3.4953e-06	27.194	324.307	245.625	407.506	111.228	167.336	162.271	111.450	118.592	256.909	277.363	118.318	124.784	124.871	131.868	253.438	131.212	-8191	255	
2468.441	1	1	0	0	0.027723	0.079933	0.23494	0.15968	0.16053	0.040669	0.28751	0.0098148	0.18562	0.16381	0.10979	0.23635	0.20148	0.083895	0.28527	0.16326	-2.7417	-3.1875	-2.8104	-3.4646	-2.9833	-2.9667	-3.4458	-3.1979	-3.0583	-3.2125	-2.9125	-3.475	-3.1854	-3.0646	-3.2417	-2.925	139.832	252.316	373.781	243.163	108.101	266.843	377.319	418.438	446.806	264.690	208.414	449.349	291.089	155.442	443.511	156.351	0.00060386	8.8292e-05	0.00024825	1191.4	3.6299e-06	4.2857e-06	1251.1	241.42	3.718e-06	2.8233e-06	304.31	83.795	67.118	18.738	2.6757e-06	26.335	0.00032099	0.00031689	8.9061e-05	1164.1	3.5495e-06	3.5731e-06	1224.9	240.19	3.5208e-06	3.4985e-06	298.15	84.397	67.218	19.471	3.5727e-06	27.149	324.485	361.009	172.142	111.282	141.087	271.299	111.428	118.650	106.454	288.878	118.282	124.637	125.532	131.719	372.907	131.006	-8191	255	
2468.535	1	1	0	0	0.33488	0.060081	0.21584	0.16277	0.15257	0.12303	0.1772	0.16231	0.10496	0.10874	0.086015	0.081196	0.17214	0.13889	0.31047	0.079544	-2.8208	-3.1833	-2.9125	-3.3187	-3.1292	-2.9771	-3.4792	-3.225	-2.9792	-3.2229	-2.8917	-3.2854	-3.2354	-3.0312	-3.3688	-3.1417	123.104	158.993	357.973	424.372	420.159	158.235	393.722	121.535	368.558	291.128	208.313	309.542	121.648	446.399	397.425	352.384	0.00067278	0.00025841	7.7558e-05	1182.5	6.9288e-06	3.4458e-06	1250.2	242.57	4.5933e-06	3.0192e-06	302.45	83.916	66.912	18.796	1.2994e-06	26.38	0.00032687	0.00032088	9.015e-05	1162.8	3.4974e-06	3.5149e-06	1223.6	239.82	3.4534e-06	3.452e-06	297.73	84.034	66.905	19.443	3.5049e-06	27.132	325.567	196.882	447.790	111.122	252.778	370.507	111.323	118.698	115.993	363.382	118.389	124.613	125.544	131.848	116.371	131.079	-8191	255	
2468.656	1	1	0	0	0.083384	0.22486	0.18826	0.2659	0.18267	0.20431	0.31246	0.11917	0.049693	0.3053	0.10638	0.062111	0.12986	0.27276	0.043313	0.088909	-2.7125	-3.2583	-2.8729	-3.4479	-3.2062	-3.0958	-3.4417	-3.2313	-2.925	-3.3708	-3.125	-3.3104	-3.2687	-3.0521	-3.1937	-3.2062	226.790	397.554	339.018	406.609	370.890	198.466	406.247	129.428	233.632	434.698	440.950	317.431	349.412	445.510	379.692	388.091	0.00059007	3.8231e-05	9.4857e-05	1188.8	4.0868e-06	5.4294e-06	1252.6	242.31	3.3727e-06	2.6862e-06	302.61	83.59	66.637	18.758	7.6866e-06	26.366	0.00032651	0.00032024	8.9261e-05	1164	3.5623e-06	3.528e-06	1226.7	240.61	3.5667e-06	3.6145e-06	298.28	84.265	67.214	19.565	3.6835e-06	27.353	320.976	433.644	422.225	111.375	394.592	291.103	111.210	118.849	367.726	159.199	118.120	124.434	125.324	131.959	291.316	131.048	-8191	255	
2468.752	1	1	0	0	0.19742	0.13022	0.13848	0.3842	0.15079	0.18978	0.21708	0.178	0.30408	0.21225	0.14376	0.17295	0.078289	0.057712	0.21256	0.094553	-2.7833	-3.2771	-2.8812	-3.2042	-3.2625	-2.8958	-3.4771	-3.3167	-2.9667	-3.3333	-3.0604	-3.1875	-3.4042	-2.8979	-3.2521	-3.4771	321.038	271.833	365.762	161.784	202.935	252.911	367.840	414.892	323.823	211.235	104.980	434.065	116.066	115.568	349.932	192.652	0.00060552	0.00028442	0.00014562	1190.3	2.9111e-06	4.741e-06	1254.8	243.24	2.042e-06	7.4626e-06	302.15	83.918	66.473	18.799	6.8325e-06	26.33	0.00033422	0.00033417	9.3791e-05	1168	3.6713e-06	3.6261e-06	1229.9	241.12	3.6402e-06	3.6327e-06	298.28	84.37	67.031	19.504	3.582e-06	27.234	318.154	266.531	366.695	111.230	267.097	245.106	111.059	118.543	233.588	195.030	118.292	124.874	125.420	131.538	204.840	130.912	-8191	255	
2468.848	1	1	0	0	0.16227	0.064967	0.25378	0.3937	0.037193	0.092382	0.10291	0.17277	0.14099	0.12493	0.40813	0.24333	0.052516	0.21415	0.14492	0.32342	-2.6646	-3.35	-3.0604	-3.2854	-3.1875	-2.8958	-3.4646	-3.2687	-2.8792	-3.2208	-2.9729	-3.075	-3.4104	-3.0229	-3.0458	-3.2417	151.704	411.721	160.475	425.062	358.948	215.339	447.407	273.075	438.702	431.549	134.706	158.171	140.003	367.167	192.934	264.765	0.000724	0.00026783	8.011e-05	1181.7	7.6169e-06	2.6637e-06	1258.1	242.88	3.5048e-06	3.8527e-06	303.26	83.8	66.982	18.749	6.6583e-07	26.453	0.00032335	0.00031934	8.9263e-05	1163.8	3.4898e-06	3.5056e-06	1227.5	240.47	3.5173e-06	3.5651e-06	298.75	84.292	67.303	19.509	3.6271e-06	27.254	320.014	326.241	265.778	111.328	195.573	412.919	111.426	118.716	300.686	170.967	117.884	124.712	124.859	131.916	365.608	131.240	-8191	255	
2468.920	1	1	0	0	0.16362	0.25941	0.12062	0.10339	0.11905	0.010067	0.24958	0.050837	0.19648	0.058379	0.18418	0.38323	0.33066	0.048287	0.1586	0.11673	-2.5625	-3.0354	-3.1021	-3.1167	-3.1708	-2.7958	-3.3521	-3.1208	-2.8896	-3.3771	-3.1021	-2.9938	-3.2979	-2.9729	-2.9854	-3.1458	387.128	274.057	226.135	418.574	441.015	291.882	459.819	417.612	448.947	388.346	176.562	100.727	186.761	419.637	419.060	430.913	0.00069374	0.00014302	0.00014493	1185.5	3.2683e-06	4.7744e-06	1256.1	242.86	3.5496e-06	6.0457e-06	301.53	84.182	66.399	18.978	1.5094e-06	26.548	0.00033477	0.00033395	9.2748e-05	1168.5	3.645e-06	3.6352e-06	1228.9	241.19	3.6509e-06	3.5983e-06	298.4	84.466	67.297	19.553	3.5661e-06	27.294	327.543	127.523	179.628	111.109	243.030	233.649	111.027	118.477	456.279	458.824	118.241	124.686	125.507	131.679	399.715	130.607	-8191	255	
2469.040	1	1	0	0	0.23323	0.36484	0.19366	0.36254	0.056913	0.14858	0.17417	0.068332	0.20167	0.161	0.37047	0.16837	0.23691	0.044084	0.30085	0.11956	-2.5458	-3.2	-3.0875	-3.0333	-3.2271	-3.1708	-3.2938	-3.2146	-3.0687	-3.3229	-3.2854	-2.9479	-3.3354	-3.05	-3.0354	-3.3771	415.711	212.471	153.348	392.820	440.588	243.300	410.646	287.953	346.456	359.965	460.136	186.913	330.384	160.110	378.176	399.979	0.00069852	0.00053661	0.0001599	1185.6	4.1161e-06	1.0077e-05	1250.2	243.43	3.7577e-06	4.2151e-06	301.31	83.748	66.954	18.783	8.8882e-06	26.571	0.00032849	0.00032344	9.0104e-05	1164.8	3.536e-06	3.5371e-06	1225.8	240.75	3.5497e-06	3.5291e-06	298.13	84.18	67.146	19.488	3.5633e-06	27.291	314.793	180.337	163.005	111.075	287.115	327.926	111.238	118.835	230.662	354.807	118.305	124.707	125.024	131.537	279.064	130.738	-8191	255	
2469.136	1	1	0	0	0.11562	0.32045	0.05193	0.18392	0.22807	0.23368	0.10223	0.18144	0.15156	0.31107	0.1654	0.11843	0.17552	0.083671	0.1372	0.078092	-2.2833	-3.2562	-3.1437	-3.1688	-3.3167	-3.1708	-3.1813	-3.5229	-3.1896	-3.2146	-3.3104	-2.9188	-3.2729	-3.1937	-3.0708	-3.2812	229.405	188.753	303.681	450.286	438.565	389.612	420.474	110.217	181.444	345.372	333.823	213.808	368.270	349.407	166.012	215.796	0.00074829	0.00054306	7.1917e-05	1187.7	4.6462e-06	1.2275e-05	1255.2	243.24	5.2574e-06	6.7295e-06	300.96	84.426	67.213	18.838	4.5989e-06	26.457	0.00033078	0.00032759	9.1643e-05	1166.9	3.6322e-06	3.66e-06	1229	241.25	3.599e-06	3.6e-06	297.67	84.405	67.331	19.551	3.5546e-06	27.182	321.545	251.994	315.595	111.215	322.286	190.549	111.273	118.606	219.051	160.134	118.414	124.525	125.055	131.914	279.170	131.084	-8191	255	
2469.232	1	1	0	0	0.13234	0.044659	0.31734	0.049926	0.077805	0.15326	0.21465	0.054945	0.07919	0.22073	0.10263	0.10092	0.20099	0.33502	0.20951	0.18304	-2.6958	-3.1229	-3.0375	-3.1437	-3.2812	-3.1979	-3.1146	-3.4417	-3.1958	-3.0062	-3.3667	-2.925	-3.1458	-3.1875	-2.8208	-3.3688	420.650	316.548	100.835	397.812	359.323	296.974	414.589	362.467	143.774	405.181	429.734	167.611	369.609	416.429	152.960	420.773	0.00056772	0.00036049	7.2868e-05	1183.8	4.1116e-06	4.3883e-06	1252.3	243.05	6.6392e-06	1.0276e-06	303.14	83.884	66.651	18.9	6.6967e-07	26.506	0.00032343	0.00032132	8.8593e-05	1165.3	3.5311e-06	3.5032e-06	1228.4	240.95	3.509e-06	3.5035e-06	298.63	84.316	67.025	19.491	3.4724e-06	27.182	318.327	352.245	423.211	111.330	259.804	189.026	111.189	118.680	158.598	265.280	118.343	125.133	125.348	131.866	234.490	131.484	-8191	255	
2469.329	1	1	0	0	0.032769	0.1146	0.1359	0.24051	0.082486	0.19711	0.19211	0.12772	0.21522	0.15382	0.1429	0.16303	0.21977	0.10789	0.2159	0.238	-2.6188	-2.8896	-3.3563	-3.1979	-3.25	-3.2104	-3.1625	-3.3688	-3.2771	-3.0396	-3.1896	-3.0396	-3.2313	-3.225	-2.9083	-3.3333	264.530	324.629	351.117	120.314	361.850	309.155	386.077	353.105	290.288	358.507	104.590	420.858	283.068	424.475	199.949	210.567	0.00060796	0.00035497	0.00010162	1186.1	5.8977e-06	8.1393e-06	1255.7	242.86	1.8603e-06	2.0993e-06	301.41	84.228	67.299	18.762	7.9168e-06	26.387	0.00031304	0.0003118	8.7519e-05	1164.4	3.4508e-06	3.4491e-06	1226.1	240.4	3.4469e-06	3.4873e-06	298.01	84.309	67.134	19.475	3.5037e-06	27.179	319.386	135.028	248.300	111.175	258.989	330.884	110.936	118.702	201.940	187.144	117.910	124.315	124.893	131.802	239.043	131.047	-8191	255	
2469.425	1	1	0	0	0.065074	0.037184	0.10174	0.14061	0.078681	0.23352	0.17539	0.10851	0.26041	0.22978	0.22832	0.1171	0.20688	0.050863	0.11877	0.17036	-2.7667	-3.0229	-3.425	-3.0583	-3.1333	-3.2354	-3.3021	-3.2771	-3.1917	-3.0479	-3.3375	-3.1125	-3.1417	-3.275	-3.0458	-3.1021	283.941	115.996	139.563	430.175	299.079	138.524	432.609	407.195	343.766	368.738	380.199	403.950	332.463	105.185	254.159	410.285	0.00068374	0.00048575	7.7568e-05	1186.4	1.1565e-06	8.0254e-06	1254.9	243.21	3.3964e-06	3.595e-06	302.2	83.974	67.406	18.763	6.5285e-06	26.325	0.00032009	0.00031598	8.7515e-05	1164.9	3.4528e-06	3.4266e-06	1227.8	240.31	3.4383e-06	3.4406e-06	297.94	84.195	66.946	19.457	3.4891e-06	27.122	321.588	194.562	451.610	111.177	104.876	304.110	111.149	118.489	276.483	179.793	118.268	124.774	125.444	132.007	237.002	131.099	-8191	255	
2469.521	1	1	0	0	0.18793	0.17587	0.13895	0.16738	0.16987	0.12669	0.046797	0.14325	0.21961	0.11425	0.12385	0.15288	0.13681	0.20087	0.36535	0.17793	-2.8021	-3.0062	-3.3208	-3.225	-3.1813	-3.2979	-3.0896	-3.3187	-2.9938	-2.9042	-3.2875	-3.2521	-2.9667	-3.4583	-3.0312	-3.2917	319.763	310.940	195.532	447.590	308.586	437.601	175.710	436.425	314.688	452.061	265.773	266.878	392.512	114.214	258.556	265.436	0.00075431	0.0004496	5.443e-05	1189.6	5.3476e-06	9.6063e-06	1254.4	242.33	3.4093e-06	4.4547e-06	303.97	83.759	66.717	18.862	7.2807e-06	26.408	0.00032718	0.00032116	9.0119e-05	1166	3.5244e-06	3.5165e-06	1226.8	240.64	3.5079e-06	3.5056e-06	298.44	84.191	66.944	19.503	3.45e-06	27.127	329.694	209.178	313.853	111.183	276.181	151.290	111.291	118.743	302.981	270.071	118.043	124.668	125.477	131.929	103.098	131.009	-8191	255	
2469.617	1	1	0	0	0.084704	0.26649	0.13959	0.15727	0.097247	0.16241	0.26439	0.20669	0.17243	0.20685	0.19566	0.11482	0.31642	0.15781	0.2835	0.24421	-2.9333	-2.8458	-3.3604	-3.0646	-2.9625	-3.4646	-3.2021	-3.2062	-3.1292	-2.8833	-3.4125	-3.2313	-2.9833	-3.3146	-2.8083	-3.2729	275.080	382.592	234.222	400.622	312.126	254.079	359.515	386.162	303.402	384.808	428.150	111.607	408.050	404.069	264.946	133.065	0.00053618	0.00031728	0.00013859	1190.1	5.5891e-07	7.2246e-06	1253.1	242.77	2.3166e-06	5.0741e-06	304.04	84.148	66.627	18.823	8.1122e-06	26.298	0.00031461	0.00031271	8.6228e-05	1166.7	3.4204e-06	3.4068e-06	1227.2	240.3	3.4187e-06	3.4242e-06	297.51	84.164	67.022	19.448	3.4356e-06	27.166	322.911	269.474	254.764	111.302	354.324	192.311	111.330	118.750	219.671	161.833	118.133	124.925	125.725	131.887	227.615	130.683	-8191	255	
2469.736	1	1	0	0	0.043544	0.26587	0.22461	0.16081	0.23207	0.17833	0.18615	0.345	0.20837	0.23821	0.3508	0.12015	0.22723	0.084558	0.1473	0.11839	-2.8083	-2.925	-3.3	-3.2854	-2.9188	-3.2375	-3.1917	-3.0771	-3.2333	-3.0958	-3.325	-3.1333	-2.9062	-3.2542	-3.2167	-3.1667	258.414	291.677	292.221	440.837	368.530	357.531	388.647	395.611	277.863	119.115	419.318	150.296	364.492	341.849	414.444	273.283	0.00056927	0.00021425	0.00019062	1188.4	3.6495e-06	2.1204e-06	1250.9	242.36	1.1346e-06	2.1149e-06	301.51	84.583	66.899	18.814	3.8429e-06	26.374	0.0003163	0.00031527	8.7994e-05	1164.9	3.4491e-06	3.4529e-06	1226.8	240.42	3.4751e-06	3.4287e-06	297.5	84.333	66.959	19.491	3.4238e-06	27.109	326.218	241.641	296.150	111.186	285.045	180.610	111.189	118.769	285.755	255.134	118.234	124.754	124.739	131.737	338.599	130.802	-8191	255	
2469.832	1	1	0	0	0.059046	0.16314	0.19423	0.14347	0.035426	0.19108	0.097399	0.11362	0.073702	0.13851	0.12289	0.20293	0.19689	0.071093	0.02961	0.28895	-2.8	-2.8646	-3.1458	-3.2583	-2.9292	-3.1792	-3.2167	-3.1292	-3.2042	-3.0958	-3.3104	-3.3104	-2.9542	-3.3312	-3.0646	-3.1188	168.792	333.173	207.240	406.167	202.000	378.615	396.139	353.698	211.835	420.197	441.717	281.049	416.900	155.247	263.447	376.014	0.00062427	0.00018745	5.7657e-05	1186.6	4.0438e-06	4.4575e-06	1256.3	242.73	4.6489e-06	9.0988e-07	303.69	83.518	67.102	18.739	4.9251e-06	26.413	0.00031236	0.00031154	8.6562e-05	1165	3.3634e-06	3.3892e-06	1225.5	240.66	3.4436e-06	3.4014e-06	297.61	84.138	66.975	19.43	3.4119e-06	27.117	315.234	175.388	146.737	111.293	211.701	141.151	111.334	118.478	303.222	444.999	118.033	124.471	125.258	131.524	217.280	131.177	-8191	255	
2469.928	1	1	0	0	0.20447	0.025127	0.21921	0.42654	0.12261	0.030775	0.43638	0.22097	0.047936	0.1691	0.19435	0.13835	0.29495	0.13998	0.085277	0.15827	-2.8917	-2.9771	-3.1896	-3.2792	-2.725	-3.2521	-3.3479	-3.1646	-3.3583	-3	-3.1375	-3.1229	-3.0354	-3.2729	-3.2292	-2.9167	185.626	426.797	183.219	102.281	180.937	338.187	385.141	107.022	404.428	343.479	112.189	418.427	411.959	212.092	311.068	224.989	0.00080879	0.00013304	0.00012274	1183.3	3.9633e-06	3.7546e-06	1252.5	241.46	6.2477e-06	2.6934e-06	302.56	83.799	66.903	18.746	5.9538e-06	26.336	0.00031601	0.00031103	8.641e-05	1162.2	3.4097e-06	3.4083e-06	1224.3	239.58	3.395e-06	3.3873e-06	296.95	83.985	66.734	19.414	3.3308e-06	27.058	331.439	431.702	401.854	111.329	179.835	133.267	111.225	118.543	205.194	233.805	117.991	124.639	125.179	131.778	222.183	130.992	-8191	255	
2470.024	1	1	0	0	0.079327	0.11485	0.10567	0.3436	0.22909	0.29502	0.10588	0.17497	0.23437	0.13044	0.14355	0.13096	0.27895	0.20201	0.12966	0.041913	-2.8479	-3.0479	-3.1188	-3.2917	-3.0021	-3.3229	-3.2979	-3.0875	-3.5	-3.1021	-3.1437	-3.5187	-2.9042	-3.2354	-3.1292	-3.0333	442.931	173.579	314.850	439.462	290.636	215.679	334.979	145.852	139.043	440.085	411.597	365.373	113.652	184.420	302.247	320.085	0.00074309	0.00010042	7.4821e-05	1187.3	5.8683e-06	2.8543e-06	1252.6	243.37	7.2804e-06	2.5993e-06	302.4	84.601	66.76	18.699	2.6544e-06	26.324	0.00030694	0.00030665	8.5729e-05	1164.9	3.3679e-06	3.3993e-06	1225.7	240.21	3.4241e-06	3.4196e-06	296.99	84.305	66.934	19.403	3.3975e-06	27.103	322.943	336.213	163.308	111.265	235.623	285.234	111.496	118.634	242.833	352.208	118.072	124.644	125.182	131.768	275.106	131.193	-8191	255	
2470.145	1	1	0	0	0.074084	0.16725	0.14327	0.018889	0.22271	0.027988	0.29053	0.10147	0.17211	0.073155	0.25307	0.14628	0.30737	0.15592	0.08296	0.06619	-2.8354	-2.9104	-3.0896	-3.5958	-2.9604	-3.2396	-3.4562	-3.0333	-3.3812	-3.0917	-3.1375	-3.2062	-3.0958	-3.1063	-3.2708	-2.9458	246.533	432.745	291.938	417.578	286.609	162.572	437.127	454.176	261.074	155.393	384.405	334.100	309.787	233.042	156.991	365.155	0.00069727	0.00019356	0.00010971	1186.9	4.1676e-06	1.0684e-05	1251.8	242.67	3.7191e-07	1.9609e-06	301.69	83.625	67.808	18.78	4.207e-06	26.366	0.000315	0.00031197	8.63e-05	1163.6	3.4062e-06	3.3864e-06	1227.7	239.94	3.4065e-06	3.4001e-06	296.92	84.006	67.036	19.422	3.4018e-06	27.122	323.363	104.929	400.680	111.171	201.070	124.544	111.153	118.652	284.415	158.161	118.293	124.694	125.175	131.968	202.190	131.120	-8191	255	
2470.217	1	1	0	0	0.19286	0.18839	0.2002	0.28347	0.10204	0.11672	0.14983	0.18634	0.11781	0.11515	0.062096	0.21914	0.093987	0.066536	0.10025	0.29235	-2.925	-3.175	-2.7583	-3.3729	-2.9813	-3.225	-3.3271	-2.9771	-3.2417	-3.1958	-3.0146	-3.2771	-3.2208	-3.1042	-3.0896	-2.9604	410.731	206.170	333.564	440.399	378.857	210.633	112.314	451.165	226.355	453.338	123.041	388.218	345.064	204.790	428.578	215.114	0.00069765	0.00038375	0.00013224	1183.6	5.1709e-06	5.3805e-06	1253.4	242.97	2.9032e-06	8.622e-06	302.12	83.959	66.822	18.777	5.5992e-07	26.5	0.00031234	0.00030674	8.6508e-05	1163.1	3.4089e-06	3.3983e-06	1226.3	240.25	3.4532e-06	3.4137e-06	297.75	84.274	66.939	19.484	3.4325e-06	27.193	322.140	146.121	282.621	111.168	363.724	270.063	111.255	118.653	254.543	301.577	118.051	124.921	125.057	131.968	340.430	131.140	-8191	255	
2470.337	1	1	0	0	0.016393	0.14848	0.11712	0.16352	0.020425	0.26769	0.31535	0.09715	0.30459	0.049394	0.16893	0.033543	0.33033	0.1964	0.25771	0.15719	-2.7042	-2.9854	-2.9292	-3.3312	-3.1208	-3.1063	-3.4938	-2.8396	-3.1271	-3.1729	-3.0271	-3.2687	-3.1333	-3.1875	-3.25	-2.9688	375.027	340.966	408.811	326.838	169.162	445.187	384.176	137.989	183.496	295.700	127.068	427.068	114.485	427.942	415.032	422.332	0.00044344	0.00071496	0.0001214	1187.4	5.0201e-06	5.6502e-06	1248.3	242.37	5.2447e-06	3.9122e-06	302.22	84.722	67.054	18.849	4.2125e-06	26.241	0.00031548	0.00031227	8.6801e-05	1163.1	3.4016e-06	3.3975e-06	1224.7	240.5	3.4257e-06	3.3966e-06	296.92	84.211	66.962	19.453	3.4546e-06	27.09	325.288	226.873	160.514	111.295	169.622	264.260	111.254	118.493	319.100	350.018	118.035	124.850	124.978	131.932	295.679	131.077	-8191	255	
2470.432	1	1	0	0	0.051757	0.045448	0.27871	0.30624	0.11495	0.1348	0.19201	0.063688	0.32011	0.14366	0.13082	0.19717	0.17059	0.11917	0.16968	0.075571	-2.8792	-3.2146	-2.9042	-3.4354	-3.1479	-3.2042	-3.3667	-3.0708	-3.3	-3.3146	-3.0708	-3.3	-3.0604	-3.0458	-3.3396	-3.0646	130.400	118.218	145.154	423.059	163.355	270.223	432.091	443.161	264.582	225.723	454.293	363.425	444.177	204.544	376.941	449.994	0.00068768	0.00042064	0.00013251	1185.5	1.011e-05	9.0935e-06	1254.6	242.59	5.7274e-06	2.1595e-06	301.68	83.989	66.991	18.85	4.8882e-06	26.23	0.00031661	0.00031296	8.7206e-05	1162.9	3.4253e-06	3.4277e-06	1225.3	240.04	3.4128e-06	3.3877e-06	296.62	84.165	66.726	19.359	3.4181e-06	27.088	320.980	173.554	188.778	111.182	281.181	329.827	111.450	118.930	186.641	323.323	118.251	124.640	125.340	131.766	253.879	130.839	-8191	255	
2470.528	1	1	0	0	0.2311	0.11243	0.19504	0.36571	0.17114	0.08676	0.43352	0.16543	0.33642	0.12908	0.099326	0.15506	0.028135	0.19349	0.086773	0.14877	-2.4813	-3.2958	-2.925	-3.4146	-2.9771	-2.9875	-3.4375	-3.1104	-3.0479	-3.0667	-2.9896	-3.1688	-3.1104	-2.9938	-3.2021	-3.1854	257.429	142.954	232.400	395.186	427.409	412.021	412.195	411.338	402.693	307.344	154.587	415.293	390.128	450.167	213.509	350.591	0.00061917	0.00020117	2.5954e-05	1183.4	4.6192e-07	7.3004e-06	1256.1	242.69	7.6137e-06	3.002e-06	302.13	83.765	67.067	18.859	2.6013e-06	26.411	0.0003121	0.00030568	8.6139e-05	1162.8	3.4008e-06	3.3976e-06	1225.9	240.06	3.3896e-06	3.3703e-06	296.98	84.232	67.004	19.535	3.4126e-06	27.15	310.284	240.033	265.753	111.168	397.221	204.389	111.299	118.655	223.217	383.489	118.143	124.886	125.068	131.707	243.475	130.942	-8191	255	
2470.624	1	1	0	0	0.31663	0.13943	0.11393	0.027691	0.16138	0.25516	0.091618	0.21301	0.10889	0.17181	0.23815	0.087876	0.15541	0.32815	0.1745	0.11351	-2.6333	-3.3229	-2.8583	-3.3083	-3.2625	-2.9125	-3.2854	-3.2229	-3.0542	-3.3208	-2.9875	-3.1479	-3.2521	-2.925	-3.3021	-3.1875	136.615	286.755	354.299	182.333	139.400	403.519	363.271	349.592	325.616	320.495	118.119	222.865	438.864	357.166	399.312	277.852	0.00046717	0.0003525	0.00013967	1184.5	8.5218e-06	5.668e-06	1254.2	243.11	3.4858e-06	6.1146e-06	303.62	84.1	67.033	18.747	4.6277e-06	26.248	0.00031303	0.00030987	8.5831e-05	1162.2	3.361e-06	3.3373e-06	1224.1	240.41	3.3612e-06	3.3429e-06	296.64	84.153	66.826	19.396	3.349e-06	27.093	316.838	344.410	249.407	111.372	265.568	373.832	111.068	118.415	241.489	230.035	117.989	124.838	125.174	131.792	148.599	131.082	-8191	255	
2470.745	1	1	0	0	0.16996	0.056108	0.17157	0.27213	0.34604	0.33651	0.30324	0.11981	0.34412	0.11862	0.11482	0.14114	0.13609	0.103	0.23633	0.13774	-2.6271	-3.4792	-2.9208	-3.2708	-3.1792	-2.8937	-3.3292	-3.2354	-3.1333	-3.4375	-3	-3.2104	-3.0625	-2.9375	-3.3083	-3.2542	413.150	449.500	434.220	445.652	429.560	364.711	425.439	180.495	400.053	430.754	139.431	267.592	459.166	224.245	123.967	440.614	0.00078091	0.00037084	0.00010619	1183.8	4.9038e-06	2.0695e-06	1253.4	241.92	5.5034e-06	3.8708e-06	302.43	84.116	66.425	18.829	6.2913e-06	26.463	0.00031025	0.00030576	8.5391e-05	1162.2	3.3568e-06	3.3526e-06	1224.1	239.35	3.3421e-06	3.3535e-06	297.28	84.108	66.673	19.439	3.3483e-06	27.129	321.162	232.815	245.888	111.199	250.680	181.448	111.254	118.377	170.835	229.190	118.280	124.753	125.456	131.828	242.170	131.183	-8191	255	
2470.816	1	1	0	0	0.056772	0.11442	0.12408	0.26788	0.17463	0.083688	0.20357	0.23603	0.049892	0.074441	0.16038	0.16902	0.038265	0.098877	0.34076	0.096251	-2.6063	-3.3292	-2.9146	-3.2812	-3.3125	-2.9354	-3.3604	-3.1375	-2.9708	-3.1625	-2.9417	-3.1875	-3.375	-2.8937	-3.1479	-3.1375	374.525	113.679	356.783	357.191	333.364	110.471	308.796	156.717	239.209	247.261	367.337	154.199	390.502	435.145	219.062	102.062	0.00051886	0.00022393	0.00013406	1185.2	8.9599e-06	2.0584e-06	1253.6	242.82	9.1206e-06	4.4199e-06	303	84.294	67.407	18.802	6.2507e-06	26.371	0.00030782	0.00030688	8.5474e-05	1162.9	3.3759e-06	3.332e-06	1224.5	240	3.3609e-06	3.4037e-06	296.81	84.186	66.833	19.448	3.4187e-06	27.163	334.217	144.608	140.943	111.196	220.887	292.288	111.189	118.582	235.312	162.779	117.982	124.667	124.997	131.834	359.213	131.119	-8191	255	
2470.912	1	1	0	0	0.092827	0.17909	0.25805	0.24463	0.17521	0.2857	0.44849	0.1746	0.087991	0.018951	0.22092	0.07779	0.25237	0.079944	0.027493	0.21825	-2.5563	-3.2354	-3.075	-3.2	-3.2125	-3.0208	-3.4208	-3.3854	-2.9688	-3.2604	-3.1521	-3.15	-3.3083	-3.075	-3.0542	-3.2625	275.785	278.749	113.080	391.745	270.272	124.126	372.502	425.743	104.377	239.320	311.676	428.841	457.811	124.012	427.378	445.332	0.00048067	0.00043675	0.0001623	1185.3	2.3764e-06	3.1605e-06	1252.2	240.97	3.9014e-06	6.6821e-06	301.22	83.765	66.81	18.829	7.9105e-06	26.458	0.00031557	0.00031083	8.6578e-05	1162.5	3.4432e-06	3.4219e-06	1224.6	240.1	3.4093e-06	3.4121e-06	297.14	84.133	66.896	19.48	3.4233e-06	27.192	320.758	189.801	152.662	111.236	190.971	214.927	111.217	118.589	121.116	234.252	118.102	124.563	124.889	131.861	279.101	131.273	-8191	255	
2471.009	1	1	0	0	0.11152	0.21343	0.091296	0.39371	0.1102	0.25778	0.34027	0.096702	0.22572	0.22047	0.053471	0.067389	0.050743	0.14384	0.081399	0.12343	-2.3917	-3.1771	-3.1521	-3.0021	-3.325	-2.9667	-3.3896	-3.3833	-3.0271	-3.0583	-3.3	-3.2229	-3.3917	-3.0354	-3.2396	-3.3187	350.751	284.801	156.862	422.958	298.353	318.497	427.681	211.481	432.307	351.398	365.032	192.652	158.402	131.033	449.882	371.194	0.00060617	0.00041708	0.00010485	1189	2.823e-06	2.6474e-06	1249.1	241.66	3.8795e-06	1.1641e-06	303.85	84.211	67.195	18.77	5.6635e-06	26.424	0.00031662	0.00031617	8.6967e-05	1164.2	3.4485e-06	3.4273e-06	1225.5	239.92	3.4461e-06	3.4586e-06	298.09	84.194	67.042	19.452	3.4783e-06	27.189	327.756	214.073	171.514	111.256	248.676	455.144	111.233	118.682	302.340	418.649	118.217	124.838	125.253	132.083	387.665	130.572	-8191	255	
2471.105	1	1	0	0	0.068802	0.14488	0.15783	0.1536	0.18591	0.10269	0.057873	0.13316	0.12446	0.047253	0.12385	0.36692	0.24819	0.079069	0.17824	0.26497	-2.7458	-3.2625	-3.3146	-2.9875	-3.2896	-3.1063	-3.275	-3.3937	-3.0375	-3.1979	-3.375	-2.9375	-3.4062	-3.0417	-3.1292	-3.3625	323.347	393.290	364.123	437.989	247.282	456.973	115.639	222.699	105.002	116.436	451.693	423.277	146.213	138.250	385.884	350.001	0.00067409	0.00021496	6.2676e-05	1184.9	4.5026e-06	1.9741e-06	1252.8	241.66	7.3462e-06	6.8705e-06	303.22	83.769	67.43	18.826	6.9424e-06	26.309	0.00031801	0.00031318	8.7545e-05	1162.5	3.4468e-06	3.4715e-06	1226.1	239.68	3.4445e-06	3.4627e-06	297.98	84.094	67.107	19.512	3.4585e-06	27.15	320.696	190.725	196.538	111.379	283.688	257.630	111.246	118.669	180.199	268.757	118.181	124.721	124.855	131.707	252.886	131.244	-8191	255	
2471.225	1	1	0	0	0.12077	0.10485	0.1477	0.20881	0.22527	0.26357	0.33463	0.26112	0.21179	0.13258	0.27918	0.15007	0.11365	0.17329	0.17067	0.24643	-2.575	-3.1271	-3.1312	-3.0917	-3.2042	-3.2208	-3.0396	-3.3458	-3.0542	-3.1083	-3.4375	-2.9833	-3.2292	-2.9729	-2.9625	-3.3333	231.493	338.254	111.197	416.174	265.654	198.468	408.897	439.109	436.330	271.110	342.423	436.387	263.369	153.394	389.012	124.914	0.00064483	0.0002653	0.00015403	1186.6	8.9635e-06	2.8314e-06	1252.2	242.66	6.7924e-06	3.7473e-06	301.47	84.318	67.242	18.845	3.3254e-06	26.379	0.00031849	0.00031622	8.8243e-05	1164.4	3.4836e-06	3.4723e-06	1225.8	240.16	3.5132e-06	3.444e-06	297.85	84.136	67.082	19.451	3.4591e-06	27.206	327.903	141.255	231.015	111.144	256.840	313.058	111.358	118.613	244.065	314.475	118.157	124.752	125.110	131.894	114.647	131.338	-8191	255	
2471.322	1	1	0	0	0.27893	0.17027	0.19553	0.067981	0.082872	0.12042	0.18749	0.24086	0.3208	0.034727	0.20236	0.076206	0.15986	0.19594	0.033381	0.20245	-2.6583	-2.9917	-3.1208	-3.1437	-3.2083	-3.0583	-3.1521	-3.3104	-3.0563	-3.0521	-3.1958	-2.9854	-3.2375	-3.1604	-2.9667	-3.4771	218.401	442.768	256.957	406.990	174.588	311.967	105.311	123.312	227.027	351.960	261.846	319.532	347.650	172.888	379.432	456.789	0.00080037	0.00033818	2.9672e-05	1186.2	9.9892e-06	5.8318e-06	1254.1	242.63	3.3649e-06	3.1492e-06	301.97	83.956	67.136	18.814	4.0439e-06	26.669	0.00032119	0.00031903	8.8319e-05	1165.1	3.4748e-06	3.4303e-06	1225.4	240.25	3.4435e-06	3.4459e-06	297.55	84.339	67.024	19.444	3.5041e-06	27.21	325.716	169.917	428.111	111.157	227.471	265.867	111.285	118.637	435.490	372.404	118.074	124.722	124.935	131.784	177.166	130.778	-8191	255	
2471.418	1	1	0	0	0.24675	0.086687	0.017019	0.31824	0.16408	0.049473	0.24554	0.074921	0.16839	0.22229	0.23668	0.062587	0.17546	0.16191	0.16184	0.12411	-2.675	-3.0333	-3.2604	-3.1042	-2.9854	-3.2375	-3.0062	-3.2729	-3.1875	-3.0125	-3.3896	-2.9021	-3.0563	-3.1667	-2.9792	-3.2146	411.656	363.551	245.895	424.827	150.583	259.976	394.184	181.602	101.418	221.733	400.218	211.480	444.000	197.516	217.185	408.014	0.00057714	0.00047589	0.00017675	1189.2	6.2581e-06	6.3171e-06	1253.5	240.91	5.4753e-06	9.9911e-07	302.07	84.235	66.968	18.724	6.874e-06	26.165	0.00032071	0.00031678	8.8508e-05	1164.1	3.4564e-06	3.4579e-06	1225	240.07	3.4822e-06	3.4508e-06	297.15	84.344	66.913	19.455	3.4914e-06	27.125	302.982	251.425	317.022	111.346	216.914	240.379	110.996	118.582	223.783	356.523	118.061	124.855	125.410	131.725	169.362	131.172	-8191	255	
2471.514	1	1	0	0	0.37407	0.21722	0.098913	0.11834	0.044265	0.18041	0.13928	0.074194	0.23396	0.094843	0.20839	0.19899	0.19252	0.17665	0.15463	0.13984	-2.7562	-2.9188	-3.2062	-3.3771	-3.0521	-3.0583	-3.0542	-3.375	-3.0687	-3.0542	-3.3604	-3.0229	-2.9688	-3.2479	-2.8208	-3.2188	120.618	178.099	238.167	386.169	224.428	301.099	383.854	280.182	169.363	324.950	105.395	433.985	333.494	117.194	316.119	328.011	0.00075889	0.00031915	0.00016248	1185.1	1.1412e-06	3.5732e-06	1251.5	242.63	4.6337e-06	2.5685e-06	303.19	84.063	66.765	18.731	4.3968e-06	26.347	0.00032465	0.00031853	8.7865e-05	1164.2	3.505e-06	3.4786e-06	1225.5	240.09	3.5154e-06	3.5046e-06	298.7	84.365	67.068	19.473	3.491e-06	27.215	307.945	222.155	141.382	111.307	308.625	306.392	111.349	118.625	266.141	378.824	118.247	124.723	124.906	131.684	195.669	131.548	-8191	255	
2471.608	1	1	0	0	0.21232	0.21916	0.132	0.26662	0.26957	0.13225	0.30555	0.22152	0.24192	0.057741	0.19843	0.18381	0.16163	0.16933	0.12126	0.096681	-2.825	-2.7438	-3.1917	-3.1063	-3.0208	-3.3333	-3.1083	-3.2917	-3.0583	-3.0333	-3.1854	-3.1854	-3.1396	-3.25	-2.8604	-3.2917	319.385	230.518	157.998	100.931	179.074	125.635	410.138	105.917	234.762	223.687	123.699	171.630	334.205	383.780	354.144	181.535	0.00068764	0.00033962	0.00020033	1186.5	6.1534e-06	5.2471e-06	1253.6	241.8	9.8868e-07	4.9494e-06	301.92	83.896	66.985	18.752	4.3189e-06	26.424	0.00032499	0.0003228	8.9575e-05	1163.8	3.5071e-06	3.5026e-06	1226.3	240.12	3.5312e-06	3.5019e-06	297.74	84.184	66.936	19.447	3.4525e-06	27.172	326.421	219.266	185.542	111.111	243.958	252.658	111.324	118.806	199.856	214.847	118.076	124.322	125.179	132.369	259.849	130.764	-8191	255	
2471.706	1	1	0	0	0.26761	0.094017	0.065153	0.11315	0.38199	0.22626	0.12589	0.27412	0.20241	0.057148	0.12271	0.032329	0.17271	0.081016	0.076857	0.12468	-2.7021	-2.8063	-3.1937	-3.3292	-2.8438	-3.3312	-3.1354	-3.2562	-3.1521	-2.9479	-3.4292	-3.0667	-3.0438	-3.3	-3.1021	-3.1583	134.438	445.891	177.028	309.479	171.555	310.053	425.689	446.105	277.917	324.878	231.456	354.475	337.004	166.956	137.004	190.068	0.00071241	6.8383e-05	2.4415e-05	1182	8.0882e-06	3.9502e-06	1250.9	241.38	7.4488e-06	3.0653e-06	299.92	83.958	66.524	18.852	3.8164e-06	26.233	0.00031948	0.00031451	8.803e-05	1161.5	3.4692e-06	3.4224e-06	1223.4	240.13	3.4595e-06	3.4633e-06	296.85	84.172	66.897	19.437	3.5035e-06	27.165	335.561	258.199	116.605	111.060	246.933	197.514	111.185	118.499	220.753	243.367	118.019	124.740	125.039	131.981	181.316	131.335	-8191	255	
2471.825	1	1	0	0	0.14713	0.05454	0.21708	0.13111	0.14981	0.20291	0.095483	0.22366	0.17802	0.27452	0.091847	0.18587	0.10658	0.15221	0.35335	0.15108	-2.8354	-2.8958	-3.2792	-3.2938	-2.8333	-3.5042	-3.1021	-3.2042	-3.1208	-2.8646	-3.1312	-3.2438	-2.8563	-3.3729	-2.9625	-3.0125	340.097	390.659	108.950	108.693	215.965	203.492	421.764	424.943	353.617	455.308	353.469	233.685	223.395	108.401	242.255	430.865	0.00067571	9.2976e-05	0.00011879	1185.1	3.4387e-06	2.862e-06	1246.5	242.38	7.3381e-06	4.234e-06	300.07	83.434	67.24	18.673	2.9933e-06	26.191	0.00031915	0.00031799	8.9367e-05	1163.9	3.5447e-06	3.513e-06	1224.4	240.4	3.5348e-06	3.5195e-06	297.09	84.147	67.06	19.455	3.5022e-06	27.155	322.180	321.977	251.569	111.113	105.739	142.170	111.257	118.449	250.563	219.383	118.163	124.980	125.537	131.831	284.434	131.305	-8191	255	
2471.921	1	1	0	0	0.1973	0.045182	0.088295	0.21506	0.20378	0.12558	0.30213	0.18167	0.028772	0.10203	0.12978	0.18782	0.22257	0.15744	0.18551	0.18203	-2.8146	-2.8604	-3.1646	-3.4271	-2.9125	-3.1583	-3.3604	-3.0375	-3.1604	-3.0354	-3.1146	-3.2271	-3.05	-3.2542	-3.0979	-3.0042	373.363	104.713	371.221	401.484	178.351	321.593	407.281	193.353	139.591	188.891	366.434	276.107	181.080	368.224	381.001	327.655	0.00077376	0.00021743	0.00012457	1183.4	4.1387e-06	5.5956e-06	1250.3	241.76	5.7387e-06	2.0567e-06	301.54	84.29	66.931	18.897	5.7621e-06	26.372	0.00032072	0.00031694	8.8062e-05	1164.2	3.5023e-06	3.5201e-06	1225.2	240.24	3.534e-06	3.4842e-06	297.91	84.329	67.269	19.489	3.5374e-06	27.143	321.620	218.832	260.087	111.197	130.272	227.681	111.048	118.482	195.043	328.052	118.424	124.871	125.141	132.010	174.113	130.999	-8191	255	
2472.017	1	1	0	0	0.082612	0.1588	0.098007	0.27505	0.10764	0.18207	0.29334	0.070484	0.24326	0.06034	0.2551	0.11328	0.078872	0.17005	0.066286	0.11139	-2.875	-2.9875	-3.0021	-3.4292	-3.1125	-3.2625	-3.45	-2.8542	-3.4229	-3.0854	-3.2167	-3.3896	-2.8854	-3.1229	-3.2562	-3.0729	234.301	401.453	326.106	307.742	230.468	288.447	367.505	364.675	351.697	319.991	244.762	160.022	123.987	105.534	194.302	382.086	0.00065708	0.00084529	0.00013744	1185.1	9.2941e-06	1.7313e-06	1254.2	241.89	7.7649e-06	5.0106e-06	300.21	83.25	66.988	18.78	3.5351e-06	26.31	0.00032248	0.00032282	8.9501e-05	1164.2	3.484e-06	3.5038e-06	1225.1	240.06	3.5309e-06	3.4301e-06	296.8	83.988	67.058	19.482	3.477e-06	27.115	313.313	175.361	241.590	111.277	261.243	198.133	111.211	118.712	200.464	266.882	118.613	124.815	125.097	131.748	319.212	131.221	-8191	255	
2472.113	1	1	0	0	0.2237	0.043022	0.26527	0.30959	0.031284	0.27931	0.051405	0.070282	0.37725	0.12558	0.036246	0.078763	0.14606	0.12509	0.092886	0.059508	-3.0042	-2.8729	-2.9875	-3.3187	-2.8604	-3.2687	-3.4146	-2.9938	-3.1958	-2.9708	-3.0167	-3.35	-2.8854	-3.0625	-3.2729	-2.9583	168.672	204.571	222.300	418.673	239.621	418.262	440.556	292.927	392.485	388.129	276.947	406.212	226.454	213.532	445.389	446.012	0.00058984	0.00035722	0.00019725	1187.9	6.9594e-06	8.3354e-06	1250.1	242.58	2.1365e-06	4.5463e-06	300.95	84.075	66.33	18.824	2.0367e-06	26.463	0.00031777	0.00031564	8.8419e-05	1164.7	3.4948e-06	3.4901e-06	1224.2	240.22	3.5245e-06	3.4971e-06	297.59	84.404	67.014	19.463	3.5106e-06	27.252	330.867	189.691	238.546	111.076	241.213	219.718	111.324	118.670	183.842	258.829	117.825	124.711	124.994	131.982	196.796	131.525	-8191	255	
#DATA ENDS
