BOXY.EXE: ISS Imagent and Oximeter Data Acquisition Program Version 0.80
Ascii Record File

#ACQ INFORMATION
2  Detector Channels 
16  External MUX Channels 
1  Auxiliary Channels 
5000  Waveform (CCF) Frequency (Hz)
1  Waveforms Skipped 
30  Waveforms Averaged 
1  Cycles Averaged 
16  Acquisitions per Waveform 
10.0806  Updata Rate (Hz) 

#FILE INFORMATION
TRUE -- External MUX Channel results are PARSED.
FALSE -- AC DC and Phase are NOT grouped.
TRUE -- Companion Program Settings File CREATED.
FALSE -- AC data not excluded
FALSE -- DC data not excluded
FALSE -- Phase data not excluded
FALSE -- Auxillary Chn. data not excluded
Tab delimiters

#CALIBRATION STATE
TRUE -- Waveform Calibration Values APPLIED.


#AUX CALIBRATION VALUES
Val Type	aux-1	

Term	1.0000e+00	
Factor	0.0000e+00	


#WF CALIBRATION VALUES
A = Detector Channel
Val Type	A-AC1	A-AC2	A-AC3	A-AC4	A-AC5	A-AC6	A-AC7	A-AC8	A-AC9	A-AC10	A-AC11	A-AC12	A-AC13	A-AC14	A-AC15	A-AC16	A-DC1	A-DC2	A-DC3	A-DC4	A-DC5	A-DC6	A-DC7	A-DC8	A-DC9	A-DC10	A-DC11	A-DC12	A-DC13	A-DC14	A-DC15	A-DC16	A-Ph1	A-Ph2	A-Ph3	A-Ph4	A-Ph5	A-Ph6	A-Ph7	A-Ph8	A-Ph9	A-Ph10	A-Ph11	A-Ph12	A-Ph13	A-Ph14	A-Ph15	A-Ph16	

Term	0.00000e+00	0.00000e+00	0.00000e+00	0.00000e+00	0.00000e+00	0.00000e+00	0.00000e+00	0.00000e+00	0.00000e+00	0.00000e+00	0.00000e+00	0.00000e+00	0.00000e+00	0.00000e+00	0.00000e+00	0.00000e+00	0.00000e+00	0.00000e+00	0.00000e+00	0.00000e+00	0.00000e+00	0.00000e+00	0.00000e+00	0.00000e+00	0.00000e+00	0.00000e+00	0.00000e+00	0.00000e+00	0.00000e+00	0.00000e+00	0.00000e+00	0.00000e+00	0.00000e+00	0.00000e+00	0.00000e+00	0.00000e+00	0.00000e+00	0.00000e+00	0.00000e+00	0.00000e+00	0.00000e+00	0.00000e+00	0.00000e+00	0.00000e+00	0.00000e+00	0.00000e+00	0.00000e+00	0.00000e+00	
Factor	1.00000e+00	1.00000e+00	1.00000e+00	1.00000e+00	1.00000e+00	1.00000e+00	1.00000e+00	1.00000e+00	1.00000e+00	1.00000e+00	1.00000e+00	1.00000e+00	1.00000e+00	1.00000e+00	1.00000e+00	1.00000e+00	1.00000e+00	1.00000e+00	1.00000e+00	1.00000e+00	1.00000e+00	1.00000e+00	1.00000e+00	1.00000e+00	1.00000e+00	1.00000e+00	1.00000e+00	1.00000e+00	1.00000e+00	1.00000e+00	1.00000e+00	1.00000e+00	X	X	X	X	X	X	X	X	X	X	X	X	X	X	X	X	

B = Detector Channel
Val Type	B-AC1	B-AC2	B-AC3	B-AC4	B-AC5	B-AC6	B-AC7	B-AC8	B-AC9	B-AC10	B-AC11	B-AC12	B-AC13	B-AC14	B-AC15	B-AC16	B-DC1	B-DC2	B-DC3	B-DC4	B-DC5	B-DC6	B-DC7	B-DC8	B-DC9	B-DC10	B-DC11	B-DC12	B-DC13	B-DC14	B-DC15	B-DC16	B-Ph1	B-Ph2	B-Ph3	B-Ph4	B-Ph5	B-Ph6	B-Ph7	B-Ph8	B-Ph9	B-Ph10	B-Ph11	B-Ph12	B-Ph13	B-Ph14	B-Ph15	B-Ph16	

Term	0.00000e+00	0.00000e+00	0.00000e+00	0.00000e+00	0.00000e+00	0.00000e+00	0.00000e+00	0.00000e+00	0.00000e+00	0.00000e+00	0.00000e+00	0.00000e+00	0.00000e+00	0.00000e+00	0.00000e+00	0.00000e+00	0.00000e+00	0.00000e+00	0.00000e+00	0.00000e+00	0.00000e+00	0.00000e+00	0.00000e+00	0.00000e+00	0.00000e+00	0.00000e+00	0.00000e+00	0.00000e+00	0.00000e+00	0.00000e+00	0.00000e+00	0.00000e+00	-7.29439e+01	-1.30021e+02	-1.24914e+02	-1.83134e+02	-5.27761e+01	-7.14236e+01	-1.56866e+02	-1.62015e+02	-4.78778e+01	-6.48767e+01	-1.71930e+02	-1.71556e+02	-1.81736e+02	-1.77926e+02	-6.22738e+01	-1.50417e+02	
Factor	1.73134e-05	1.66260e-04	4.88759e-05	1.86492e-01	1.60179e-06	1.93899e-06	1.62677e-01	5.60871e-02	1.18118e-06	1.74570e-06	9.94639e-02	3.03487e-02	2.65711e-02	9.45456e-03	1.78352e-06	1.32450e-02	1.24241e-05	2.32072e-05	6.46118e-06	9.55684e-02	2.33110e-07	2.58720e-07	7.83537e-02	2.89116e-02	2.27059e-07	2.59205e-07	4.96099e-02	1.52121e-02	1.38846e-02	4.91572e-03	2.39358e-07	6.66233e-03	X	X	X	X	X	X	X	X	X	X	X	X	X	X	X	X	



#DISTANCE SETTINGS
A = Detector Channel
A-1	A-2	A-3	A-4	A-5	A-6	A-7	A-8	A-9	A-10	A-11	A-12	A-13	A-14	A-15	A-16	

2.5000e+00	3.0000e+00	2.5000e+00	3.0000e+00	2.0000e+00	3.0000e+00	1.5000e+00	3.0000e+00	3.0000e+00	3.0000e+00	3.0000e+00	3.0000e+00	3.0000e+00	3.0000e+00	1.5000e+00	3.0000e+00	

B = Detector Channel
B-1	B-2	B-3	B-4	B-5	B-6	B-7	B-8	B-9	B-10	B-11	B-12	B-13	B-14	B-15	B-16	

1.0000e+01	1.0000e+01	1.0000e+01	1.4400e+00	1.0000e+01	1.0000e+01	1.5100e+00	1.9400e+00	1.0000e+01	1.0000e+01	1.9900e+00	2.4900e+00	2.4100e+00	2.9000e+00	1.0000e+01	2.9800e+00	




#DATA BEGINS
time	group	step	mark	flag	A-AC1	A-AC2	A-AC3	A-AC4	A-AC5	A-AC6	A-AC7	A-AC8	A-AC9	A-AC10	A-AC11	A-AC12	A-AC13	A-AC14	A-AC15	A-AC16	A-DC1	A-DC2	A-DC3	A-DC4	A-DC5	A-DC6	A-DC7	A-DC8	A-DC9	A-DC10	A-DC11	A-DC12	A-DC13	A-DC14	A-DC15	A-DC16	A-Ph1	A-Ph2	A-Ph3	A-Ph4	A-Ph5	A-Ph6	A-Ph7	A-Ph8	A-Ph9	A-Ph10	A-Ph11	A-Ph12	A-Ph13	A-Ph14	A-Ph15	A-Ph16	B-AC1	B-AC2	B-AC3	B-AC4	B-AC5	B-AC6	B-AC7	B-AC8	B-AC9	B-AC10	B-AC11	B-AC12	B-AC13	B-AC14	B-AC15	B-AC16	B-DC1	B-DC2	B-DC3	B-DC4	B-DC5	B-DC6	B-DC7	B-DC8	B-DC9	B-DC10	B-DC11	B-DC12	B-DC13	B-DC14	B-DC15	B-DC16	B-Ph1	B-Ph2	B-Ph3	B-Ph4	B-Ph5	B-Ph6	B-Ph7	B-Ph8	B-Ph9	B-Ph10	B-Ph11	B-Ph12	B-Ph13	B-Ph14	B-Ph15	B-Ph16	aux-1	digaux	

725.815	1	1	0	768	0.37519	0.11702	0.10489	0.12192	0.16924	0.016527	0.14864	0.15062	0.29987	0.14197	0.26508	0.12438	0.14797	0.14017	0.10531	0.1557	-2.6875	-2.8375	-3.375	-3.2375	-2.9083	-3.3896	-3.2667	-3.2542	-3.1458	-2.8708	-3.4521	-3.3083	-2.9167	-3.5417	-3.2167	-2.9458	31.432	124.253	90.832	143.026	-64.920	-62.396	143.514	101.038	-5.059	-70.852	201.646	-85.722	-74.262	-76.095	-79.099	162.289	0.00027251	0.00045187	0.00013155	1067.1	2.6827e-06	4.535e-06	1071.9	276.35	3.0164e-06	4.7618e-06	344.88	118.23	101.91	35.593	4.1616e-06	44.266	0.00031806	0.00029652	7.3913e-05	1074.2	3.3097e-06	2.9408e-06	1084.5	280.49	3.097e-06	2.9722e-06	349.54	120.87	104.08	36.372	3.0239e-06	45.202	-102.192	-43.106	-48.516	-125.805	-8.159	5.865	-125.961	-121.552	-2.806	25.963	-121.951	-117.652	-116.880	-112.207	26.128	-113.025	-8191	255	
725.912	1	1	0	0	0.19992	0.17428	0.2531	0.23033	0.15671	0.028234	0.13915	0.29865	0.1939	0.19313	0.06283	0.09198	0.24075	0.18899	0.045345	0.17107	-2.7292	-2.6562	-3.2625	-3.2979	-2.9146	-3.1562	-3.1396	-3.1188	-3.4188	-2.9813	-3.0708	-3.1479	-2.9146	-3.3792	-3.1458	-3.1437	16.497	5.689	216.868	-58.157	-99.796	7.653	211.290	151.758	-9.246	-23.176	67.083	-128.556	-71.703	135.892	-29.419	86.109	0.00025966	0.00042242	0.00011391	1063.3	2.8758e-06	5.1828e-06	1072.2	276.48	2.2154e-06	3.513e-06	344.69	118.44	101.55	35.679	3.1157e-06	44.191	0.00031645	0.0002826	7.3913e-05	1073	3.2208e-06	3.0012e-06	1084.3	280.31	3e-06	2.9296e-06	349.98	120.7	103.97	36.39	2.991e-06	45.147	-103.222	-43.844	-40.806	-126.146	28.337	22.651	-125.956	-121.201	-4.732	23.976	-121.895	-117.313	-117.025	-112.175	-13.039	-113.262	-8191	255	
726.008	1	1	0	0	0.12579	0.11914	0.10443	0.21763	0.022698	0.054027	0.11674	0.31185	0.10709	0.12752	0.053068	0.21506	0.097396	0.15194	0.052981	0.11689	-3.0312	-2.9167	-2.9396	-3.1083	-2.8958	-3.3083	-3.3333	-3.0729	-3.4583	-2.9375	-3.0062	-3.1792	-2.9792	-3.4146	-3.1208	-3.0292	79.301	-65.250	-100.896	95.520	17.044	184.259	155.056	163.328	108.659	104.519	-46.262	210.964	21.292	172.764	164.400	142.449	0.0002733	0.00041214	0.00014308	1064.7	3.3329e-06	5.2442e-06	1069.3	275.86	2.4603e-06	4.1932e-06	343.67	117.99	102.23	35.699	4.2635e-06	44.65	0.00031373	0.00026766	7.6969e-05	1074.7	3.3461e-06	2.9327e-06	1083.4	280.22	2.9901e-06	2.9053e-06	349.92	120.66	104.28	36.42	3.1236e-06	45.367	-103.503	-68.798	-34.449	-125.648	-4.157	18.695	-125.758	-121.390	-2.119	8.039	-122.092	-117.427	-116.878	-112.249	0.712	-113.225	-8191	255	
726.104	1	1	0	0	0.18084	0.16872	0.24774	0.18262	0.11214	0.17029	0.20713	0.37654	0.14222	0.2244	0.060483	0.068117	0.01039	0.15857	0.031213	0.026721	-2.9354	-3.0438	-3.1354	-3.2729	-3.0125	-3.0792	-3.0771	-2.8396	-3.2104	-2.9604	-3.2	-3.1917	-2.8875	-3.1583	-3.0354	-2.8438	-87.773	-50.133	16.254	161.194	66.383	108.094	127.397	166.003	111.242	82.321	187.676	123.674	-62.043	124.588	172.741	63.025	0.00028242	0.00034416	0.00011792	1063.4	3.6757e-06	4.6258e-06	1071.5	276.29	2.8677e-06	3.2155e-06	345.01	118.22	101.96	35.527	2.5928e-06	44.296	0.00031681	0.00026553	7.9001e-05	1073.3	3.1572e-06	2.8901e-06	1083.1	281.1	3.2001e-06	2.8577e-06	350.14	121.02	104.31	36.435	2.9765e-06	45.242	-102.194	-49.851	-37.204	-125.694	13.995	-9.099	-125.945	-121.459	4.158	15.305	-121.602	-117.324	-116.901	-112.301	3.313	-112.988	-8191	255	
726.200	1	1	0	0	0.20447	0.27783	0.20411	0.032892	0.12087	0.031881	0.25923	0.42109	0.25864	0.17102	0.071653	0.12997	0.30596	0.043213	0.12851	0.090859	-2.8	-3.1479	-2.8875	-3.3312	-2.775	-3.1271	-3.2854	-2.8688	-3.2188	-3.0625	-2.9083	-3.4562	-3.025	-3.4771	-3.2542	-2.7854	-43.077	24.762	188.834	184.404	192.114	-135.519	150.785	128.360	143.927	-112.620	167.037	-78.119	196.633	-136.514	6.628	-106.839	0.00026098	0.00045599	0.00016118	1066.3	2.8869e-06	4.2952e-06	1074.3	276.29	2.6873e-06	2.8458e-06	344.28	118.32	101.88	35.722	5.009e-06	44.353	0.00031565	0.00027921	8.3538e-05	1074.6	3.3369e-06	2.9349e-06	1086.2	280.86	3.1599e-06	2.9566e-06	350.33	121.12	104.34	36.563	3.0379e-06	45.417	-99.571	-38.564	-57.523	-125.769	19.734	20.165	-125.816	-121.306	-19.852	19.917	-121.882	-117.653	-117.017	-112.252	-8.941	-113.196	-8191	255	
726.296	1	1	0	0	0.20074	0.13613	0.14394	0.26097	0.093271	0.083403	0.29179	0.46447	0.19183	0.25872	0.13746	0.044841	0.094251	0.15063	0.17076	0.25014	-2.6271	-3.0458	-2.9229	-3.4896	-3.0375	-3.1333	-3.3187	-3.0438	-3.2188	-3.0646	-2.9688	-3.15	-2.9729	-3.0042	-3.2083	-3.0208	-29.676	141.499	52.914	138.921	184.968	191.539	107.951	169.723	7.787	-63.490	154.237	-76.231	199.154	168.915	-136.479	-57.097	0.00026599	0.00041076	0.00011643	1066.4	3.4955e-06	4.3073e-06	1073.2	277.35	2.324e-06	4.5394e-06	347.1	118.95	102.2	35.791	3.5246e-06	44.803	0.00032036	0.000265	8.0751e-05	1075	3.1688e-06	3.0071e-06	1087.2	281.26	3.1897e-06	3.0376e-06	350.91	121.23	104.45	36.525	3.172e-06	45.464	-103.172	-73.887	-42.141	-125.874	4.916	23.215	-125.921	-121.344	-17.609	13.612	-121.779	-117.662	-116.987	-112.308	25.654	-113.238	-8191	255	
726.417	1	1	0	0	0.22769	0.16495	0.35523	0.21541	0.087881	0.10071	0.22667	0.21283	0.099101	0.22842	0.11628	0.16569	0.24856	0.19223	0.10649	0.29299	-2.8271	-3.1562	-2.9583	-3.3	-2.9875	-2.8229	-3.2417	-2.8729	-3.1917	-3.0271	-2.9437	-3.3812	-3.0062	-2.9458	-3.2458	-3.0208	60.884	-2.858	205.331	-130.589	-2.336	0.376	-131.504	128.954	28.369	217.334	-63.364	-136.776	178.848	173.661	59.672	212.404	0.0002912	0.00042614	0.0001014	1070.7	2.229e-06	4.7088e-06	1075.8	277.45	3.6076e-06	2.9868e-06	346.33	119.08	102.41	36.038	4.2035e-06	44.569	0.00030734	0.00027878	8.3672e-05	1079.7	3.2971e-06	3.1106e-06	1089.6	281.81	3.1968e-06	2.8388e-06	352.25	121.7	104.71	36.752	3.0912e-06	45.585	-101.597	-48.231	-46.428	-125.758	28.226	-9.317	-125.940	-121.317	-9.002	15.550	-121.910	-117.309	-117.060	-112.474	7.786	-113.273	-8191	255	
726.513	1	1	0	0	0.13004	0.22475	0.22071	0.15995	0.23998	0.13942	0.092778	0.13601	0.11685	0.082003	0.015525	0.24197	0.36264	0.30228	0.27111	0.15667	-2.6083	-3.0875	-2.7646	-3.325	-3.0229	-3.0417	-3.4583	-3.0187	-2.8479	-3.3	-2.9125	-3.2438	-2.925	-2.9208	-3.3979	-3.0521	-107.815	16.554	135.572	147.078	-41.028	189.492	116.336	204.722	24.299	-98.048	214.298	162.999	194.389	131.060	-121.825	-129.321	0.00028325	0.00025866	0.00012943	1073.7	4.005e-06	3.9736e-06	1086.2	277.52	2.9979e-06	3.8782e-06	346.09	119.16	102.41	35.971	4.2353e-06	44.513	0.00032517	0.00027452	8.2232e-05	1082.1	3.1334e-06	3.0556e-06	1092.6	282.13	3.1046e-06	3.0786e-06	351.56	121.76	104.85	36.749	3.0967e-06	45.498	-101.508	-40.110	-34.133	-125.611	4.322	19.260	-126.027	-121.410	1.407	18.479	-121.885	-117.368	-117.044	-112.415	6.410	-113.209	-8191	255	
726.609	1	1	0	0	0.20108	0.055112	0.21858	0.26544	0.24995	0.093939	0.12123	0.15248	0.3011	0.16545	0.19612	0.065142	0.081991	0.32549	0.15331	0.10477	-2.5146	-3.1813	-2.9208	-3.1854	-3.2854	-3.0354	-3.375	-3.1167	-3.2375	-3.2896	-3.0208	-3.2896	-3.3563	-3.1021	-3.3042	-3.1042	146.080	198.655	-111.260	-80.004	36.447	-40.542	144.663	-131.125	-21.780	-102.151	-29.923	117.186	-116.733	176.454	-96.086	105.960	0.00026753	0.00042611	8.3935e-05	1073.9	3.3486e-06	3.9928e-06	1081.4	278.04	2.5136e-06	5.4501e-06	347.8	118.64	102.34	35.916	4.5087e-06	44.619	0.0003288	0.00027742	8.2017e-05	1082	3.2252e-06	3.2782e-06	1092.3	281.71	3.3382e-06	3.0392e-06	351.63	121.38	104.5	36.645	3.0433e-06	45.403	-103.330	-46.642	-32.056	-125.692	32.930	-14.980	-126.061	-121.217	-2.939	9.977	-121.620	-117.422	-116.951	-112.329	-7.775	-113.014	-8191	255	
726.705	1	1	0	0	0.26074	0.25255	0.18131	0.27126	0.22216	0.28682	0.056759	0.3053	0.34088	0.29302	0.19226	0.25864	0.1386	0.29185	0.13794	0.21136	-2.3458	-3.5062	-2.7896	-3.1604	-3.0417	-2.9271	-3.4562	-3.0687	-3.1063	-3.35	-2.9979	-3.1854	-3.2125	-2.9938	-3.3604	-3.1146	12.333	102.551	83.802	220.164	-116.249	-66.978	176.111	-96.222	-86.895	205.115	-54.978	-20.952	-117.411	183.043	148.518	156.673	0.00028369	0.00048438	0.00012155	1069.8	2.7407e-06	5.6008e-06	1080.3	277.33	3.3337e-06	4.6446e-06	345.93	118.67	101.9	35.636	3.0311e-06	44.438	0.00033734	0.00028221	8.3228e-05	1080.4	3.1329e-06	3.124e-06	1091.3	281.25	3.4844e-06	3.0694e-06	350.64	121.16	104.3	36.427	3.1595e-06	45.358	-100.207	-45.712	-50.259	-125.923	25.856	17.533	-125.935	-121.460	-4.462	2.333	-121.859	-117.367	-116.680	-112.338	10.981	-113.355	-8191	255	
726.801	1	1	0	0	0.34391	0.17482	0.11332	0.11211	0.15651	0.070622	0.20067	0.094098	0.16852	0.076397	0.059623	0.1888	0.29887	0.099493	0.29828	0.030124	-2.3229	-3.2271	-2.9708	-3.2229	-3.2771	-2.9188	-3.4062	-2.9417	-2.9354	-3.3917	-3.1292	-3.2083	-3.3146	-2.8729	-2.9958	-3.0458	195.067	-122.334	39.780	219.776	-5.265	-116.774	-110.186	22.731	-139.175	131.488	141.846	-123.810	-67.972	-81.521	53.924	56.387	0.00027187	0.00038094	0.00011871	1074.1	3.1502e-06	4.7103e-06	1078.8	277.16	3.5704e-06	3.9401e-06	345.44	118.79	102.05	35.611	2.7589e-06	44.241	0.00032955	0.00028772	7.9257e-05	1080.6	3.3043e-06	3.3213e-06	1090.6	281.16	3.3747e-06	2.9382e-06	350.17	121.11	104.23	36.423	3.0628e-06	45.186	-103.164	-56.030	-53.825	-125.896	17.413	-3.330	-125.866	-121.323	-3.243	22.480	-121.847	-117.226	-116.780	-112.256	11.525	-112.931	-8191	255	
726.896	1	1	0	0	0.22014	0.35852	0.095743	0.16912	0.090034	0.25795	0.22315	0.20678	0.10495	0.24723	0.12683	0.34708	0.10235	0.0099403	0.11947	0.28708	-2.4208	-3.3688	-2.9813	-3.225	-3.2354	-2.8354	-3.3229	-2.9792	-2.9042	-3.3896	-3.1396	-3.15	-3.2896	-2.9938	-3.2917	-3.3438	152.897	-134.240	150.941	216.224	-1.100	-104.624	202.460	165.691	-70.553	-94.259	168.679	138.979	176.283	113.968	126.653	213.275	0.00027803	0.00058792	0.0001176	1075.1	1.3663e-06	3.6999e-06	1080.6	276.67	2.4735e-06	3.3042e-06	345.58	118.37	102.08	35.527	4.576e-06	44.321	0.0003421	0.00028337	7.9661e-05	1079.5	3.0431e-06	3.2243e-06	1090	281.19	3.4125e-06	3.0592e-06	349.76	120.87	104.16	36.352	3.2583e-06	45.193	-99.701	-41.624	-42.656	-125.978	22.261	8.600	-125.832	-121.524	30.419	2.407	-121.609	-117.560	-117.148	-112.275	0.598	-113.054	-8191	255	
727.016	1	1	0	0	0.13694	0.14089	0.17072	0.056436	0.10333	0.15776	0.42911	0.11744	0.095	0.078248	0.13579	0.059924	0.073096	0.050303	0.2108	0.22341	-2.4062	-3.1792	-3.1604	-3.1979	-3.0875	-2.7396	-3.0854	-3.4437	-2.8583	-3.2271	-3.1688	-3.0667	-3.3812	-3.0563	-2.9188	-3.3812	202.836	105.087	91.823	-86.545	8.003	16.135	179.180	155.872	-87.444	173.373	127.517	73.616	112.764	184.120	99.988	-126.365	0.00028986	0.00042219	0.00017066	1072.2	3.5712e-06	4.6904e-06	1079.6	276.89	2.1152e-06	4.5835e-06	346.06	117.61	102.2	35.625	2.6116e-06	44.343	0.00033053	0.00029212	8.1949e-05	1080.1	3.3267e-06	3.227e-06	1090.1	280.9	3.3917e-06	3.1396e-06	350.13	120.56	104.17	36.372	3.2189e-06	45.191	-100.634	-37.259	-51.318	-125.708	25.095	-3.470	-125.808	-121.377	-13.955	26.057	-121.774	-117.651	-116.901	-112.522	10.940	-113.200	-8191	255	
727.113	1	1	0	0	0.037261	0.12849	0.016029	0.094557	0.066553	0.11199	0.12887	0.21085	0.27971	0.23868	0.25662	0.19909	0.20975	0.26186	0.16098	0.012875	-2.4229	-3.2458	-3.2333	-3.3229	-3.2146	-3.0104	-3.1688	-3.2896	-2.8583	-3.2854	-3.2167	-2.9604	-3.2562	-3.1583	-3.0896	-3.5083	-96.016	-131.498	-56.160	204.701	101.328	-124.097	144.319	212.686	-3.939	-85.567	201.666	157.582	-112.689	202.592	34.174	-102.835	0.00027818	0.00044742	0.00015687	1069.8	4.2272e-06	3.1058e-06	1083.9	276.39	2.1091e-06	3.7322e-06	344.94	117.83	101.62	35.536	4.4186e-06	44.077	0.00034026	0.00027994	8.0482e-05	1079.1	3.1892e-06	3.0362e-06	1090.4	280.67	3.3662e-06	2.8729e-06	349.72	120.55	104.02	36.295	3.3979e-06	45.011	-103.943	-51.158	-39.808	-125.931	1.083	2.629	-126.048	-121.511	20.893	21.115	-121.730	-117.555	-117.251	-112.530	7.661	-113.349	-8191	255	
727.209	1	1	0	0	0.10901	0.25461	0.147	0.16382	0.16976	0.21572	0.17652	0.30354	0.32152	0.29922	0.14729	0.2583	0.086079	0.14994	0.053869	0.16618	-2.5167	-3.15	-3.1875	-3.0208	-3.2521	-3.0375	-3.1458	-3.3333	-3.0062	-3.2396	-3.075	-3.0958	-3.4313	-3.0896	-2.9458	-3.4313	4.218	-7.610	-10.987	188.914	148.724	-111.882	169.589	156.260	0.395	-14.322	163.849	-65.741	36.503	195.218	64.918	181.742	0.00026695	0.00040588	0.00010994	1068.5	2.6962e-06	4.6937e-06	1078.2	275.5	2.4207e-06	3.6726e-06	344.16	117.31	100.97	35.369	2.7053e-06	43.879	0.0003288	0.00029256	7.8651e-05	1076.9	3.2796e-06	3.2092e-06	1088.5	279.97	3.3264e-06	3.1423e-06	349.12	120.22	103.21	36.091	3.4857e-06	44.816	-99.994	-34.471	-42.321	-126.102	1.438	7.471	-125.878	-121.429	-9.321	33.163	-121.732	-117.060	-117.044	-112.415	12.432	-113.233	-8191	255	
727.305	1	1	0	0	0.24206	0.22638	0.14574	0.45895	0.084631	0.34446	0.18864	0.26741	0.22599	0.18151	0.091418	0.23967	0.10122	0.20575	0.19565	0.22764	-2.4875	-3.0917	-3.2438	-2.8229	-3.2271	-3.0938	-3.0875	-3.1896	-3.0875	-3.0938	-3.4083	-3.1375	-3.4646	-2.9917	-3.0917	-3.3375	-24.876	-118.461	209.480	148.264	76.177	200.214	186.835	97.343	44.077	132.210	-33.055	41.169	189.662	220.565	109.546	154.021	0.00027144	0.00038616	0.00013353	1066.2	3.5872e-06	3.5282e-06	1074.2	275.69	2.4088e-06	3.8414e-06	343.66	117.07	101.09	35.27	3.0177e-06	43.849	0.00033413	0.00029546	8.164e-05	1076.1	3.3801e-06	3.2254e-06	1086.1	279.67	3.4428e-06	3.2698e-06	348.37	119.88	103.36	35.983	3.4124e-06	44.75	-103.863	-54.912	-22.980	-125.797	18.635	-6.719	-125.855	-121.249	-4.923	11.493	-121.710	-117.542	-116.882	-112.496	3.071	-112.899	-8191	255	
727.401	1	1	0	0	0.30406	0.051355	0.27255	0.28398	0.23332	0.21426	0.18549	0.16629	0.13834	0.087338	0.12971	0.20701	0.34686	0.11078	0.20965	0.26231	-2.625	-3.0667	-3.0333	-2.9375	-3.1375	-3.1229	-3.0187	-3.4771	-3.0187	-3.0042	-3.4583	-3.2062	-3.1958	-3.4292	-3.0563	-3.2354	202.306	76.512	50.219	160.335	215.846	-3.668	120.724	115.105	139.244	33.090	62.441	-23.242	202.006	208.131	-52.287	200.803	0.00028636	0.00034041	0.00015268	1065.7	3.6189e-06	5.1575e-06	1070.4	275.36	2.6462e-06	3.5246e-06	344.36	116.89	100.81	35.208	4.1899e-06	43.736	0.00033227	0.00029778	8.304e-05	1076.8	3.351e-06	3.2318e-06	1085.5	279.41	3.4319e-06	3.3718e-06	348.49	119.57	103.07	35.935	3.6123e-06	44.677	-101.010	-55.642	-40.747	-125.814	6.934	17.068	-125.936	-121.456	5.388	6.486	-121.590	-117.646	-116.686	-112.572	5.347	-113.094	-8191	255	
727.497	1	1	0	0	0.13899	0.1566	0.23731	0.22239	0.16713	0.066524	0.16723	0.048275	0.11661	0.26592	0.17421	0.18912	0.15438	0.1998	0.11205	0.31259	-2.7875	-3.0625	-3.2458	-3.0812	-3.0812	-3.1917	-2.95	-3.4917	-3.0938	-2.8875	-3.4458	-2.9813	-3.125	-3.1979	-2.8563	-3.3521	145.699	58.505	-104.491	-102.784	175.203	-54.893	134.971	-43.769	149.161	-11.939	200.969	-101.305	-138.030	145.458	-70.532	61.216	0.00026873	0.00044774	0.0001365	1062.5	2.441e-06	3.2329e-06	1073.1	274.9	2.5234e-06	3.918e-06	343.32	116.82	100.63	34.988	4.193e-06	43.583	0.00033341	0.00030334	8.4292e-05	1074.4	3.3607e-06	3.2286e-06	1085.6	279.09	3.3761e-06	3.4069e-06	348.19	119.4	103	35.814	3.6472e-06	44.641	-99.699	-57.595	-44.273	-125.810	0.790	-3.370	-125.921	-121.301	-11.798	13.329	-121.633	-117.454	-116.770	-112.331	13.038	-113.415	-8191	255	
727.593	1	1	0	0	0.29007	0.19888	0.054739	0.16994	0.16262	0.079192	0.27061	0.21859	0.1273	0.037479	0.010433	0.14388	0.3002	0.13782	0.22621	0.040193	-2.5896	-2.6146	-3.275	-3.1167	-3.1396	-3.0771	-3.0167	-3.1208	-3.0771	-3.0646	-3.3833	-2.9208	-3.1	-3.2979	-2.9792	-3.4271	194.640	183.633	200.568	197.724	-21.763	108.922	-125.271	146.316	178.979	54.174	205.930	177.710	-128.352	-14.495	-66.794	108.363	0.00027392	0.00049972	0.00010664	1067.2	3.8863e-06	4.1583e-06	1075.1	274.84	3.428e-06	5.4018e-06	343.97	116.81	100.68	34.897	3.156e-06	43.7	0.0003347	0.00034463	8.1115e-05	1075.8	3.5841e-06	3.2146e-06	1086.9	278.97	3.641e-06	3.4334e-06	348.53	119.29	103.04	35.799	3.5824e-06	44.588	-98.456	-56.132	-57.713	-125.772	13.021	19.736	-125.754	-121.469	6.444	34.788	-121.706	-117.492	-116.819	-112.522	7.108	-113.087	-8191	255	
727.689	1	1	0	0	0.059832	0.29139	0.30701	0.41265	0.21514	0.21905	0.17394	0.13774	0.24267	0.17073	0.23619	0.26501	0.17552	0.074955	0.20665	0.21385	-2.9417	-2.925	-3.2354	-2.9667	-3.0021	-3.2333	-3.1479	-3.2979	-2.9833	-2.75	-3.2646	-2.8604	-3.1646	-3.3688	-2.9646	-3.2792	108.056	142.804	155.845	176.874	-90.045	-81.120	100.568	107.762	33.922	-86.752	117.039	-136.800	-25.944	-89.749	147.332	126.535	0.00027522	0.00041974	0.00011987	1065.7	3.8227e-06	4.3896e-06	1074.2	273.96	2.9944e-06	4.6599e-06	342.26	116.24	100.25	34.817	3.7235e-06	43.576	0.00033674	0.00032582	8.2649e-05	1076.4	3.7322e-06	3.2033e-06	1087.1	278.7	3.5327e-06	3.5198e-06	347.19	118.83	102.63	35.608	3.726e-06	44.472	-100.253	-50.821	-58.544	-125.850	25.484	20.669	-126.237	-121.221	0.218	16.254	-121.845	-117.707	-116.877	-112.490	7.141	-112.843	-8191	255	
727.786	1	1	0	0	0.081709	0.22754	0.058433	0.077427	0.031515	0.12121	0.25297	0.14762	0.17521	0.084766	0.061724	0.31142	0.23767	0.1894	0.099887	0.092244	-2.6958	-2.9771	-3.2812	-3.05	-3.0583	-3.4125	-2.8771	-3.1146	-3.1917	-2.9625	-3.1437	-3.025	-3.0021	-3.5625	-2.8792	-3.0021	163.700	137.182	-134.533	132.888	109.486	-13.861	156.220	169.931	-115.814	-128.778	146.205	-96.201	210.011	133.128	55.658	-119.062	0.00027615	0.00042478	0.00012392	1067.8	5.2701e-06	5.1204e-06	1078.9	273.68	2.9092e-06	2.5948e-06	341.5	116.51	99.873	34.867	4.0592e-06	43.38	0.00034635	0.00034279	8.8087e-05	1077.8	3.8604e-06	3.5321e-06	1087.3	278.15	3.6613e-06	3.7336e-06	347.11	118.8	102.53	35.639	3.7509e-06	44.315	-102.812	-51.300	-43.399	-126.050	14.605	-7.806	-125.915	-121.232	-8.401	24.847	-121.673	-117.276	-116.895	-112.450	19.537	-113.095	-8191	255	
727.904	1	1	0	0	0.10813	0.10905	0.13798	0.069821	0.11717	0.12445	0.20371	0.33603	0.12252	0.10669	0.30936	0.14483	0.16054	0.1415	0.17626	0.091782	-2.6375	-2.9917	-3.1771	-3.1333	-2.9042	-3.1188	-2.9562	-3.0479	-3.2	-2.9021	-3.3063	-3.1521	-2.6437	-3.275	-3.2458	-2.8896	-59.786	124.479	63.641	-61.561	-52.988	100.356	139.419	214.186	53.743	-48.687	174.720	159.101	102.805	-52.485	115.004	146.700	0.00027736	0.00034306	0.00014486	1072.1	3.3928e-06	3.8326e-06	1083.3	275.25	3.4963e-06	4.5421e-06	343.01	116.28	99.755	35.008	3.1749e-06	43.589	0.00034334	0.00034434	0.00010125	1080.3	4.11e-06	3.8177e-06	1092.7	279.38	3.8037e-06	4.0749e-06	347.86	119.01	102.55	35.643	4.1589e-06	44.423	-101.534	-55.211	-34.998	-125.874	-8.447	8.623	-125.957	-121.458	-4.794	19.560	-121.753	-117.453	-116.870	-112.373	0.482	-113.085	-8191	255	
727.978	1	1	0	0	0.055713	0.12159	0.25298	0.0337	0.21906	0.16513	0.27781	0.055229	0.13119	0.18379	0.17406	0.055159	0.087679	0.1573	0.11913	0.15768	-2.9521	-2.8229	-3.0833	-3.0938	-2.9583	-3.1937	-3.2521	-3.1958	-3.2021	-2.7958	-3.1688	-3.2708	-2.9542	-3.1833	-2.8167	-2.8854	110.238	-94.317	127.200	132.426	134.498	-63.746	147.334	-20.907	89.152	-33.950	87.444	-29.330	127.237	-79.959	219.317	191.762	0.00027494	0.00025594	0.00012459	1077.6	3.0788e-06	2.1481e-06	1085.2	274.27	2.8837e-06	3.7272e-06	343.21	115.72	100.36	34.665	2.6957e-06	42.919	0.0003698	0.00040245	0.00011407	1086.5	4.6991e-06	4.1789e-06	1098	278.96	4.3761e-06	4.4767e-06	347.8	118.62	102.55	35.487	4.7203e-06	44.122	-99.854	-57.609	-44.353	-125.861	27.028	31.649	-125.916	-121.400	16.854	-9.134	-122.086	-117.578	-117.154	-112.211	2.641	-113.256	-8191	255	
728.097	1	1	0	0	0.20659	0.077547	0.21241	0.1586	0.32894	0.22838	0.33008	0.19635	0.11975	0.17018	0.14258	0.2381	0.21014	0.27628	0.21626	0.19333	-2.9875	-2.825	-2.9604	-3.2958	-3.0021	-3.1854	-3.25	-2.9875	-3.3896	-2.8771	-3.1854	-3.3625	-3.1562	-3.3333	-3.2042	-2.8021	108.073	0.490	86.741	39.566	-74.107	-52.968	149.277	144.643	1.521	-120.729	56.864	156.426	-58.913	118.255	31.998	122.866	0.00027992	0.00023794	0.00018163	1085.8	2.7545e-06	5.0779e-06	1091.8	275.58	2.6469e-06	3.8236e-06	343.54	115.32	100.01	34.91	4.2942e-06	43.219	0.000394	0.00043209	0.00011836	1094.1	4.8152e-06	4.3136e-06	1102.8	279.67	4.4854e-06	4.67e-06	348.26	118.3	102.5	35.509	4.6575e-06	44.205	-103.457	-47.872	-37.588	-126.041	12.250	1.424	-125.917	-121.533	-17.836	26.775	-121.740	-117.571	-117.051	-112.409	-4.208	-113.131	-8191	255	
728.193	1	1	0	0	0.1075	0.39554	0.020019	0.11944	0.066006	0.14317	0.2806	0.12125	0.07627	0.16035	0.26158	0.21223	0.069001	0.25948	0.14809	0.15097	-2.9229	-2.8375	-2.6875	-3.4646	-3.075	-3.1312	-3.3792	-2.8042	-3.3063	-2.9	-2.8854	-3.3458	-3.1458	-3.0375	-3.0729	-3.0917	-50.689	124.718	-66.578	101.448	-89.797	69.460	158.984	207.527	-129.026	-85.280	-132.897	173.265	-77.791	214.681	106.858	195.050	0.00026326	0.00044367	0.00012497	1088.7	3.4049e-06	3.7281e-06	1088.2	275.17	2.7578e-06	3.8824e-06	343.43	115.65	99.91	34.521	3.5023e-06	43.402	0.00039459	0.00042406	0.00011688	1095.4	4.5787e-06	4.5147e-06	1102.8	279.39	4.6093e-06	4.7742e-06	348.13	118.4	102.24	35.369	4.646e-06	44.269	-99.676	-28.168	-56.068	-126.024	5.345	-10.480	-125.915	-121.514	4.994	24.494	-121.647	-117.445	-116.749	-112.250	-2.809	-113.004	-8191	255	
728.289	1	1	0	0	0.14402	0.042038	0.13032	0.31521	0.32948	0.09221	0.21956	0.12853	0.13966	0.10525	0.40488	0.09235	0.11234	0.2967	0.11385	0.16649	-2.9188	-3.1688	-2.8521	-3.4854	-3.0125	-3.1667	-3.2667	-2.9396	-3.1063	-2.9833	-2.8812	-3.4458	-3.1667	-3.0292	-3.0146	-2.9083	99.516	-132.774	113.129	204.654	28.965	-23.470	117.436	-87.470	93.443	121.228	-113.426	130.688	-64.053	145.316	-23.426	-107.379	0.0002745	0.00030136	0.00012292	1085.9	3.1043e-06	4.1186e-06	1089.4	274.23	2.4513e-06	4.0055e-06	339.85	115.17	99.627	34.555	2.9628e-06	42.788	0.00039478	0.00042344	0.00012278	1094.4	4.5918e-06	4.6974e-06	1100.5	278.48	4.5095e-06	4.7489e-06	346.08	118.03	102.15	35.306	4.8211e-06	44.005	-100.582	-40.895	-20.299	-125.918	22.773	-1.714	-125.977	-121.547	-17.378	23.652	-121.806	-117.557	-116.899	-112.105	-1.777	-113.343	-8191	255	
728.385	1	1	0	0	0.066333	0.088018	0.017571	0.30927	0.027726	0.23091	0.12618	0.4024	0.3312	0.20726	0.26318	0.15925	0.21226	0.14102	0.068575	0.19468	-2.6479	-2.9104	-2.9562	-3.5	-2.8646	-3.1437	-3.35	-2.9625	-3.3104	-3.0458	-2.9437	-3.4458	-2.8417	-3.0458	-3.4292	-3.0521	-135.554	-58.033	46.151	191.625	129.702	138.771	76.311	152.596	-107.877	22.869	139.080	-92.049	-127.600	-37.126	-37.950	151.956	0.00027302	0.00036313	0.00012492	1084.8	2.5765e-06	4.4131e-06	1089	273.32	3.5438e-06	3.9358e-06	341.18	114.81	99.797	34.589	4.9238e-06	42.876	0.00040474	0.00043262	0.00012358	1093.9	4.7836e-06	4.8009e-06	1101.7	278	4.7668e-06	4.8045e-06	346.31	117.84	102.03	35.332	4.7184e-06	43.931	-100.329	-42.989	-34.938	-125.867	-7.960	0.337	-126.273	-121.262	21.997	16.992	-121.503	-117.457	-116.971	-112.223	9.065	-113.111	-8191	255	
728.506	1	1	0	0	0.18142	0.079612	0.13438	0.15541	0.162	0.22775	0.2394	0.098542	0.27387	0.14313	0.21389	0.17101	0.087895	0.13694	0.17353	0.26722	-2.7146	-3.0521	-2.7583	-3.2333	-3.0167	-3.0625	-3.3479	-3.1417	-2.8563	-3.1688	-2.9188	-3.2917	-3.1042	-3.0687	-3.2417	-3.0104	-4.214	22.715	17.470	120.604	159.823	-90.275	179.334	-70.622	38.198	37.404	-75.696	166.281	-20.432	202.110	30.155	172.501	0.00026426	0.00042363	8.9494e-05	1086.8	2.8821e-06	3.9194e-06	1087.8	273.61	2.1202e-06	3.3307e-06	341.62	115.56	99.845	34.416	3.4679e-06	42.965	0.00039912	0.00044983	0.00012687	1095.6	4.6967e-06	4.9227e-06	1101.5	278.17	4.8487e-06	4.8677e-06	347.16	117.96	102.02	35.254	4.7119e-06	44.013	-100.142	-66.943	-37.774	-125.943	-12.468	8.742	-126.032	-121.598	10.169	24.134	-121.577	-117.262	-117.186	-112.338	34.225	-112.867	-8191	255	
728.602	1	1	0	0	0.13528	0.20159	0.25614	0.31046	0.10079	0.09049	0.22079	0.099062	0.044724	0.036091	0.081502	0.12782	0.048241	0.24387	0.1265	0.11688	-2.8146	-3.0646	-2.7562	-3.1604	-3.1937	-2.9021	-3.3417	-2.9604	-2.9854	-3.0792	-2.8563	-3.3604	-3.2125	-2.9333	-3.3417	-3.1229	-135.560	-94.062	-74.256	154.343	25.207	-78.178	200.856	-64.667	63.844	-99.489	-55.405	156.295	147.522	44.779	64.521	-118.500	0.00027327	0.0004323	0.00017597	1086.2	1.9278e-06	5.6372e-06	1090.2	273.33	2.8877e-06	4.0632e-06	340.78	114.81	99.447	34.25	2.7513e-06	43.035	0.00040803	0.00043016	0.00012606	1095.4	4.8589e-06	4.9626e-06	1101.7	277.29	4.9021e-06	4.6905e-06	346.53	117.7	101.9	35.166	4.676e-06	43.921	-101.043	-38.043	-45.466	-125.954	3.714	9.149	-126.131	-121.440	13.864	14.071	-121.648	-117.657	-116.938	-112.320	-10.543	-113.162	-8191	255	
728.674	1	1	0	0	0.1374	0.23299	0.12452	0.15015	0.11784	0.077695	0.20159	0.1509	0.14818	0.10374	0.14891	0.072328	0.12032	0.16494	0.22198	0.28804	-2.5708	-3.1188	-2.8312	-3.2104	-3.0062	-2.8229	-3.3396	-3.075	-2.8729	-3.1562	-3.0187	-3.2917	-3.1396	-3.0042	-3.1437	-3.1854	-93.222	141.245	-48.490	169.881	-99.469	155.891	152.078	188.158	86.520	-29.932	199.392	167.635	110.043	127.255	-125.267	-76.989	0.00028603	0.00051273	0.0001162	1086.5	1.4476e-06	4.7745e-06	1090.1	272.26	2.6868e-06	4.2658e-06	341.49	114.86	99.316	34.392	2.4947e-06	42.922	0.00040329	0.00044089	0.00012722	1095.1	4.6675e-06	4.9561e-06	1101.8	277.32	4.7247e-06	4.5134e-06	346.14	117.7	101.96	35.232	4.7323e-06	43.895	-102.209	-30.788	-42.236	-126.017	14.289	8.311	-126.162	-121.422	-5.419	14.842	-121.692	-117.859	-116.779	-112.396	-3.158	-113.145	-8191	255	
728.793	1	1	0	0	0.19952	0.11092	0.23442	0.052756	0.085836	0.15584	0.24738	0.077039	0.19614	0.16409	0.14734	0.15472	0.46356	0.12016	0.10581	0.14934	-2.5083	-3.1104	-2.7625	-3.1458	-3.0854	-2.8167	-3.4854	-3.0354	-2.9	-3.425	-2.9021	-2.9229	-3.2833	-2.8708	-3.1542	-3.2812	111.824	125.485	-128.111	-25.275	78.963	-2.797	174.487	122.351	206.107	-131.100	-127.404	170.208	215.367	102.515	98.330	19.925	0.00027437	0.00033197	0.00014682	1082.3	2.9344e-06	4.7408e-06	1087.7	274.27	2.5007e-06	3.9745e-06	341.43	114.64	99.448	34.507	2.5262e-06	42.847	0.00040042	0.00040821	0.00011856	1093.6	4.7273e-06	4.9405e-06	1099.7	277.76	4.7181e-06	4.5912e-06	346.47	117.57	101.82	35.201	4.6032e-06	43.929	-103.855	-64.934	-41.705	-125.876	10.461	7.852	-126.132	-121.145	0.290	5.836	-121.679	-117.713	-116.843	-112.107	-3.590	-113.017	-8191	255	
728.889	1	1	0	0	0.15554	0.17103	0.29437	0.059528	0.2553	0.14737	0.20962	0.23444	0.17112	0.11111	0.21641	0.084984	0.12711	0.24154	0.16927	0.22947	-2.5833	-3.1083	-2.7875	-3.3458	-3.1104	-2.9229	-3.2396	-3.1729	-2.9562	-3.1396	-2.9562	-3.1979	-3.4208	-2.6937	-3.1396	-3.2958	200.949	-111.778	15.666	130.775	172.702	-49.614	93.919	-130.940	-136.999	-60.524	17.176	34.925	156.698	-128.697	59.188	132.776	0.00026719	0.00035272	0.00013357	1083.2	3.15e-06	4.3371e-06	1081.7	272.95	2.3192e-06	2.5535e-06	341.5	114.7	99.593	34.43	4.0059e-06	42.925	0.00039664	0.00041618	0.0001249	1093	4.6729e-06	4.6952e-06	1098.4	277.63	4.8983e-06	4.6435e-06	346.37	117.8	101.97	35.229	4.5872e-06	43.943	-102.403	-57.271	-57.238	-126.065	2.879	7.282	-125.885	-121.484	-4.433	13.249	-121.905	-117.426	-117.259	-112.618	7.805	-113.090	-8191	255	
728.985	1	1	0	0	0.21859	0.3609	0.13376	0.10578	0.010266	0.16946	0.065315	0.29113	0.21155	0.11303	0.15826	0.15726	0.32365	0.13752	0.1414	0.1404	-2.4667	-2.9458	-2.8729	-3.1625	-3.3417	-2.9208	-3.1521	-3.2438	-2.9458	-3.1271	-3.2042	-3.0417	-3.1896	-2.8396	-3.2104	-3.3146	36.225	46.083	-16.385	-49.701	57.914	-18.493	70.165	125.215	1.904	-130.988	50.415	194.009	207.269	-138.659	214.020	18.676	0.00024947	0.00034233	0.00012612	1078.9	2.7973e-06	3.9848e-06	1086	273.22	2.8469e-06	4.5285e-06	341.4	115.08	99.228	34.425	5.1214e-06	42.832	0.00039115	0.00041705	0.00012142	1090.6	4.398e-06	4.651e-06	1099.6	277.44	4.6079e-06	4.4664e-06	346.25	117.77	101.76	35.216	4.6765e-06	43.857	-98.084	-58.736	-73.037	-126.061	41.711	1.722	-126.060	-121.179	-22.326	-4.048	-121.752	-117.442	-116.915	-112.291	11.867	-112.918	-8191	255	
729.081	1	1	0	0	0.36446	0.22877	0.16281	0.13443	0.13213	0.076858	0.20236	0.2524	0.11647	0.14319	0.20296	0.34988	0.22962	0.030747	0.072045	0.36659	-2.3646	-3.225	-3.0208	-3.1292	-3.0583	-2.9813	-3.1604	-3.0667	-2.7333	-3.1458	-3.1542	-2.9313	-3.2042	-2.9583	-3.0271	-3.2562	-78.127	161.961	202.286	-53.857	4.935	-82.264	144.734	182.146	82.552	-90.392	199.213	163.079	-105.628	-134.118	-74.520	76.328	0.00024559	0.00023714	0.00015422	1082.2	2.9349e-06	3.5634e-06	1089.1	272.39	2.7255e-06	4.4097e-06	339.71	115.2	99.306	34.417	4.6952e-06	42.845	0.00040044	0.00043804	0.00011636	1091.4	4.5558e-06	4.6176e-06	1098.1	276.86	4.703e-06	4.7904e-06	345.43	117.68	101.97	35.202	4.6401e-06	43.746	-102.653	-32.216	-55.565	-125.961	0.770	0.112	-125.969	-121.271	-4.602	28.477	-122.081	-117.622	-116.817	-112.391	21.501	-113.053	-8191	255	
729.202	1	1	0	0	0.047536	0.11155	0.19322	0.2731	0.24165	0.060403	0.227	0.11953	0.13499	0.066853	0.17857	0.35253	0.19993	0.11049	0.18698	0.1598	-2.525	-3.0375	-3.0958	-3.0146	-3.2333	-2.9229	-3.275	-3.1312	-2.7438	-3.2833	-3.1917	-2.8063	-3.2583	-2.9188	-2.8937	-3.4625	-133.448	-26.625	69.855	177.787	-128.063	-45.178	216.261	203.859	-76.384	123.411	213.790	168.779	86.496	-139.197	-46.646	187.495	0.00027301	0.00047717	0.00014025	1084.2	3.4817e-06	4.9914e-06	1083.3	272.63	2.5536e-06	4.6396e-06	340.12	114.54	98.781	34.492	4.6775e-06	42.647	0.00040754	0.00042634	0.00011921	1091.9	4.5456e-06	4.7012e-06	1096.2	276.81	4.6448e-06	4.8196e-06	345.11	117.39	101.58	35.14	4.7109e-06	43.806	-102.236	-53.026	-47.817	-125.953	38.050	-4.282	-126.070	-121.486	1.223	2.528	-121.671	-117.623	-116.935	-112.380	-2.249	-113.325	-8191	255	
729.273	1	1	0	0	0.16112	0.25705	0.14521	0.11443	0.20785	0.08511	0.15229	0.13313	0.28249	0.23205	0.2146	0.26674	0.11983	0.13929	0.032202	0.057762	-2.3667	-3.0125	-2.9167	-2.7167	-3.1771	-3.1104	-2.8521	-3.1813	-2.8833	-2.9542	-3.3771	-3.1458	-2.9958	-3.0667	-3.0479	-3.4042	-33.151	-55.961	175.416	159.313	203.322	172.941	31.539	81.834	-108.240	-96.346	-135.746	-117.999	169.043	-126.385	-68.314	-45.858	0.00028507	0.00030181	8.4136e-05	1082	2.9197e-06	5.0845e-06	1086.2	272.09	2.5152e-06	3.6058e-06	341.97	114.3	99.145	34.456	4.8687e-06	42.894	0.00040029	0.00043378	0.00011788	1090.8	4.5515e-06	4.5141e-06	1097.8	276.81	4.5327e-06	4.6095e-06	345.59	117.29	101.52	35.151	4.7064e-06	43.869	-102.269	-65.839	-49.412	-125.713	-9.220	-3.106	-126.019	-121.658	27.709	27.902	-121.979	-117.451	-116.844	-112.149	3.934	-113.208	-8191	255	
729.369	1	1	0	0	0.10594	0.15645	0.087257	0.094883	0.093618	0.056539	0.11883	0.15053	0.15416	0.24838	0.21692	0.27283	0.26613	0.14559	0.16404	0.20244	-2.3	-2.8979	-3.2188	-2.8063	-3.0438	-3.2188	-3.0208	-3.4083	-2.9146	-2.9021	-3.2854	-2.875	-3.1021	-3.075	-2.8625	-3.2854	25.788	15.467	180.528	-109.639	-29.193	166.975	22.920	-126.904	-117.487	181.120	-129.851	-138.017	184.025	207.408	-78.580	-20.072	0.00028256	0.00038948	0.00012248	1080.2	3.0137e-06	4.5092e-06	1084.9	273.15	2.9981e-06	3.485e-06	339.17	114.25	99.284	34.357	3.4063e-06	42.864	0.00040433	0.00043828	0.00011566	1090.2	4.5898e-06	4.5416e-06	1096.8	276.39	4.5984e-06	4.7019e-06	345.17	117.36	101.65	35.148	4.7597e-06	43.838	-100.271	-53.605	-39.404	-125.854	6.171	39.114	-126.041	-121.416	-10.242	12.049	-121.908	-117.418	-117.095	-112.464	20.390	-113.031	-8191	255	
729.466	1	1	0	0	0.12169	0.3064	0.27766	0.2689	0.089552	0.13275	0.17883	0.17338	0.10273	0.23524	0.057893	0.078934	0.06153	0.17193	0.0837	0.1605	-2.6167	-2.8083	-3.25	-2.9708	-3.2542	-3.1771	-2.9771	-3.4708	-2.9104	-2.8625	-3.4958	-3.0083	-3.0229	-3.1792	-2.5375	-3.3583	-101.115	-60.657	103.839	169.555	21.717	-29.864	122.919	189.765	-55.752	23.707	213.208	176.244	51.009	145.672	152.249	182.703	0.00026429	0.00047072	0.00012522	1077.5	2.6984e-06	2.7836e-06	1086.8	273.07	2.0968e-06	4.2125e-06	339.07	114.57	99.392	34.55	3.56e-06	42.899	0.00040425	0.00042479	0.00011404	1088.4	4.786e-06	4.4813e-06	1098.3	276.98	4.6675e-06	4.6948e-06	345.46	117.34	101.59	35.116	4.6441e-06	43.866	-100.037	-41.980	-53.312	-125.954	24.353	13.426	-126.081	-121.389	-14.009	-1.395	-121.996	-117.550	-117.076	-112.205	6.016	-112.869	-8191	255	
729.586	1	1	0	0	0.34702	0.11035	0.26664	0.18749	0.28266	0.14886	0.23104	0.25133	0.052363	0.30156	0.10353	0.074327	0.19315	0.13522	0.037057	0.17223	-2.7479	-2.7021	-3.3229	-2.9375	-3.0062	-3.2042	-2.8667	-3.35	-3.0729	-2.7958	-3.3167	-3.2333	-3.1813	-3.3979	-2.725	-3.2958	30.988	-37.598	22.953	198.477	-117.267	-28.783	168.938	212.867	-19.833	197.248	134.558	211.316	136.599	-71.600	81.987	91.393	0.00027507	0.00054744	0.00011576	1077.3	2.7208e-06	4.6035e-06	1084.1	271.98	2.8982e-06	4.0016e-06	340.91	114.6	99.545	34.476	3.5764e-06	42.896	0.00039082	0.00044708	0.00011228	1091.6	4.754e-06	4.3562e-06	1096.6	276.59	4.6287e-06	4.6565e-06	345.41	117.49	101.87	35.204	4.669e-06	43.908	-100.237	-52.651	-57.039	-125.883	2.112	23.136	-125.977	-121.270	11.582	16.649	-121.860	-117.363	-117.129	-112.357	20.849	-113.030	-8191	255	
729.682	1	1	0	0	0.056455	0.12101	0.097941	0.20819	0.073032	0.17545	0.047744	0.23622	0.085783	0.15064	0.083187	0.20043	0.15748	0.025233	0.39229	0.096456	-2.5687	-2.9667	-3.1229	-2.9917	-3.1583	-3.3521	-3.0958	-3.2354	-3.0458	-2.7938	-3.3271	-3.0042	-2.9625	-3.2292	-2.7938	-3.1479	79.000	-8.908	69.437	163.304	157.177	168.016	110.084	210.943	189.224	-132.530	91.384	156.150	164.545	43.596	2.178	195.943	0.00025807	0.00037239	0.00012659	1079.7	3.6434e-06	3.1304e-06	1086.8	272.56	1.9028e-06	2.3646e-06	341.27	115.03	99.751	34.513	4.0491e-06	43.133	0.00038913	0.00044302	0.00011218	1090.8	4.8196e-06	4.4279e-06	1098.3	276.53	4.5388e-06	4.6743e-06	345.37	117.69	101.75	35.254	4.7208e-06	43.915	-104.332	-54.598	-50.582	-125.870	-0.863	21.168	-126.006	-121.247	-21.968	45.649	-121.882	-117.583	-116.847	-112.175	14.822	-113.019	-8191	255	
729.779	1	1	0	0	0.18157	0.30703	0.24247	0.23023	0.25016	0.14003	0.14013	0.15525	0.22165	0.16196	0.13324	0.2279	0.017878	0.05112	0.080328	0.2169	-2.675	-2.7438	-3.1063	-3.3438	-2.8625	-3.3542	-3.0792	-3.0812	-3.3729	-2.7771	-3.2208	-3.0312	-3.0125	-3.425	-2.8021	-3.1937	67.911	80.998	172.469	-113.482	143.371	-56.503	97.448	204.586	161.263	-2.749	39.479	194.788	-78.663	101.429	-72.399	90.663	0.00024032	0.00039515	0.00013675	1082	3.6123e-06	3.9906e-06	1085.8	272.83	2.1927e-06	3.0804e-06	343.09	114.65	99.311	34.514	3.7926e-06	42.778	0.00038354	0.00043011	0.00011754	1090.7	4.7389e-06	4.5039e-06	1098	277.07	4.4764e-06	4.6333e-06	346.21	117.6	101.74	35.19	4.6096e-06	43.816	-100.607	-59.355	-50.542	-125.986	4.970	15.982	-125.946	-121.268	10.692	9.777	-121.916	-117.514	-116.944	-112.220	-0.433	-113.165	-8191	255	
729.873	1	1	0	0	0.29676	0.14268	0.27407	0.069427	0.27872	0.08669	0.11447	0.074332	0.267	0.23219	0.08313	0.078543	0.4295	0.12125	0.12365	0.078095	-2.6542	-2.7708	-3.25	-3.0917	-2.8542	-3.1646	-2.8354	-3.0312	-3.2	-3	-3.25	-2.9729	-2.9729	-3	-3.0021	-3.0646	-36.355	-106.705	186.649	-11.525	-124.688	34.389	211.603	97.342	-20.772	-136.722	-22.984	201.047	152.078	-81.674	-1.936	-109.534	0.00026667	0.00039013	0.00012832	1076.8	3.8871e-06	5.2654e-06	1082.5	272.38	2.7042e-06	4.821e-06	342.3	114.82	99.622	34.506	4.2687e-06	42.97	0.00038491	0.00044297	0.00011368	1090.6	4.5918e-06	4.2818e-06	1096.4	276.92	4.4248e-06	4.4724e-06	346.1	117.67	101.82	35.236	4.5279e-06	43.947	-99.705	-30.079	-58.640	-125.854	13.979	1.892	-125.851	-121.380	15.810	21.822	-121.683	-117.261	-116.737	-112.185	21.655	-113.040	-8191	255	
729.969	1	1	0	0	0.13782	0.095773	0.32489	0.1305	0.17798	0.11078	0.15117	0.13442	0.41976	0.28583	0.045791	0.39213	0.12553	0.071684	0.27907	0.22139	-2.675	-2.8688	-3.1458	-3.0229	-2.875	-3.1521	-3.1729	-2.8937	-3.1417	-3.0062	-3.0958	-3.2667	-2.925	-3.2167	-2.8333	-2.8812	216.511	190.328	-20.183	121.094	48.749	13.475	211.681	-11.827	29.829	-5.298	72.219	163.116	-107.051	-102.961	-80.175	-53.092	0.0002627	0.00041054	0.00011242	1079.5	3.3607e-06	4.3369e-06	1088.7	273.57	2.493e-06	3.2811e-06	340.05	114.84	99.701	34.465	3.0017e-06	42.838	0.00038836	0.00039626	0.00011561	1089.7	4.6826e-06	4.256e-06	1097.1	277.46	4.5251e-06	4.7132e-06	345.83	117.88	102.01	35.238	4.4012e-06	43.88	-100.608	-58.407	-43.230	-125.943	-2.156	20.700	-126.034	-121.588	11.679	2.474	-121.859	-117.612	-116.853	-112.282	4.200	-113.207	-8191	255	
730.067	1	1	0	0	0.24364	0.086564	0.12836	0.096458	0.1008	0.07418	0.17936	0.12493	0.13861	0.41784	0.18506	0.32942	0.19336	0.35583	0.081387	0.19965	-2.7521	-2.9375	-3.0979	-3.1063	-2.8021	-3.1604	-3.0875	-3.1063	-3.2375	-2.9479	-3.1354	-3.2313	-2.8646	-3.0375	-2.9938	-2.8312	177.905	-94.699	-46.558	-132.969	-42.685	124.655	125.948	23.705	-55.344	-123.624	182.128	176.466	206.076	129.219	213.534	166.438	0.00026841	0.00042914	0.00013518	1077.2	1.9455e-06	4.9012e-06	1084	273.62	2.9413e-06	2.8744e-06	340.81	115.3	99.381	34.388	3.5807e-06	42.972	0.0003735	0.00043417	0.00011458	1088.6	4.5626e-06	4.4651e-06	1095.7	277.82	4.3666e-06	4.6349e-06	346.5	117.81	101.76	35.198	4.5702e-06	43.93	-98.962	-37.086	-62.994	-125.685	22.058	2.751	-126.069	-121.415	17.791	31.275	-121.942	-117.626	-117.001	-112.488	8.402	-113.154	-8191	255	
730.186	1	1	0	0	0.085324	0.30462	0.12572	0.19989	0.21807	0.079911	0.35508	0.14329	0.094986	0.08639	0.28435	0.14552	0.1838	0.17345	0.09039	0.14486	-2.775	-2.9729	-2.6979	-3.175	-2.8292	-3.0771	-3.2396	-3.0312	-2.9896	-2.9708	-3.0729	-3.0646	-2.9958	-3.0229	-3.0354	-2.8208	-35.914	-65.982	-7.984	154.841	173.865	142.355	159.478	-84.200	-110.977	-122.801	46.057	-81.675	-88.124	195.419	-4.648	211.389	0.00026272	0.00037423	0.00012664	1081.1	2.6694e-06	3.5157e-06	1084.8	273.85	3.2187e-06	4.6673e-06	342.02	115.5	99.648	34.464	2.5194e-06	43.138	0.00037529	0.00041241	0.0001195	1090.5	4.5068e-06	4.4511e-06	1097.2	277.81	4.3728e-06	4.4259e-06	346.56	117.87	101.97	35.221	4.3075e-06	43.985	-100.297	-42.746	-42.186	-125.990	5.155	17.778	-126.012	-121.442	-19.629	5.637	-122.015	-117.513	-116.658	-112.438	43.102	-113.031	-8191	255	
730.282	1	1	0	0	0.27014	0.18692	0.093583	0.33461	0.067568	0.16101	0.12919	0.21393	0.13074	0.24145	0.30293	0.11674	0.36117	0.13526	0.076511	0.32593	-2.7062	-2.7729	-2.8854	-3.3063	-2.8563	-3.0125	-3.3271	-2.85	-3.2542	-2.9896	-2.7708	-3.3	-2.7604	-3.0687	-3.0229	-2.9958	205.645	-35.951	33.452	172.866	-50.836	-54.240	216.399	-121.344	-8.495	38.981	160.044	51.105	196.840	134.123	148.905	86.733	0.00027619	0.00051367	6.1637e-05	1078.6	3.179e-06	5.8137e-06	1087.2	272.54	2.6448e-06	2.9095e-06	340.28	114.86	99.705	34.558	4.3328e-06	43.136	0.00038251	0.00042121	0.00011325	1089.2	4.5898e-06	4.3972e-06	1096.3	277.31	4.5592e-06	4.427e-06	345.75	117.63	102.01	35.302	4.3473e-06	43.977	-102.087	-49.429	-62.708	-125.978	-0.440	19.626	-125.931	-121.310	2.596	27.327	-121.656	-117.582	-116.904	-112.417	0.665	-113.034	-8191	255	
730.378	1	1	0	0	0.16193	0.24751	0.036935	0.24939	0.16219	0.1311	0.37154	0.21017	0.054976	0.12351	0.25296	0.20966	0.27253	0.13307	0.19087	0.35688	-2.5687	-3.0042	-2.9	-3.3187	-3.0917	-2.9688	-3.4313	-2.7042	-2.9938	-3.0354	-2.8875	-3.1646	-2.9417	-3.0979	-3.3917	-2.8021	68.760	70.840	4.385	179.564	-59.739	-104.764	170.564	-137.024	7.786	-52.578	76.282	154.683	183.718	178.286	-29.959	127.156	0.00028481	0.0003546	0.00011378	1079	3.3184e-06	3.9452e-06	1083.6	273.04	2.2948e-06	4.8422e-06	341.05	115.23	99.801	34.528	3.5875e-06	43.104	0.00038258	0.00041478	0.00011329	1089.7	4.584e-06	4.4274e-06	1096.3	277.35	4.5062e-06	4.1608e-06	346.26	117.94	102.01	35.33	4.3104e-06	43.962	-98.497	-38.384	-33.515	-125.780	34.180	-6.418	-125.971	-121.215	25.787	21.888	-121.803	-117.414	-116.800	-112.445	4.240	-113.056	-8191	255	
730.499	1	1	0	0	0.094021	0.15287	0.12971	0.20525	0.42865	0.14321	0.33779	0.18365	0.097793	0.14431	0.19155	0.2391	0.057831	0.11476	0.16092	0.023958	-2.6396	-2.9042	-2.7125	-3.2938	-2.9542	-3.0521	-3.2667	-2.9625	-3.0021	-3.1042	-2.8521	-3.3208	-3.1146	-3.1063	-3.2042	-2.7812	-9.562	-58.132	-16.769	172.114	-18.293	188.332	183.774	119.825	158.152	167.349	200.446	212.581	19.558	202.528	78.081	30.819	0.00026908	0.00031879	0.00012956	1080.4	3.6064e-06	4.1367e-06	1082.7	272.76	2.5415e-06	3.5885e-06	341.53	115.03	99.645	34.627	2.3074e-06	43.099	0.00037883	0.00041391	0.00011596	1090.1	4.4257e-06	4.4058e-06	1095.4	277.5	4.2739e-06	4.2985e-06	346.5	117.89	101.91	35.337	4.295e-06	43.985	-100.874	-58.281	-41.690	-126.095	10.571	8.086	-126.090	-121.086	11.266	-6.225	-121.722	-117.328	-117.003	-112.239	-21.049	-113.307	-8191	255	
730.570	1	1	0	0	0.15572	0.25965	0.20126	0.26088	0.10103	0.22309	0.37906	0.20548	0.093773	0.23572	0.14856	0.037668	0.23014	0.16123	0.042298	0.21866	-2.6417	-2.9646	-2.7687	-3.325	-2.8542	-2.8417	-3.2667	-3.0396	-2.9479	-2.9188	-2.9958	-3.2167	-3.0229	-2.9313	-3.2062	-2.9562	58.072	-83.663	155.024	-124.688	218.402	207.852	171.190	-136.105	-81.366	124.134	-29.099	181.773	152.118	95.268	131.150	205.135	0.00026327	0.00042923	0.00015713	1081.9	4.0329e-06	4.6509e-06	1086.2	273.54	2.716e-06	3.2965e-06	341.51	115.11	99.627	34.643	3.3862e-06	43.07	0.00037798	0.00039665	0.00011586	1091.1	4.5826e-06	4.3497e-06	1097.5	277.81	4.3515e-06	4.3044e-06	345.77	117.86	102.09	35.349	4.1269e-06	43.983	-103.080	-50.050	-54.515	-125.643	17.180	1.764	-126.139	-121.269	6.478	-4.957	-121.829	-117.453	-116.837	-112.349	11.907	-113.068	-8191	255	
730.667	1	1	0	0	0.23522	0.12584	0.11345	0.15478	0.070496	0.015607	0.17019	0.14836	0.1623	0.09245	0.10383	0.29389	0.19932	0.24131	0.088294	0.2412	-2.7479	-3.1458	-2.6917	-3.2354	-3.0187	-2.875	-3.3625	-2.8792	-2.95	-3.1813	-2.7833	-3.1	-3.1562	-3.025	-3.3125	-3.1417	-77.128	6.909	82.880	170.005	-134.794	146.945	164.943	120.118	31.051	134.374	183.851	135.159	151.191	177.041	36.515	187.268	0.00026459	0.00041181	0.00016095	1080.1	3.5744e-06	4.5965e-06	1087.6	272.51	2.9829e-06	4.1389e-06	341.94	114.93	99.707	34.465	3.0361e-06	43.221	0.00038535	0.00038244	0.00011498	1089.4	4.3635e-06	4.5308e-06	1097.4	277.42	4.2886e-06	4.2547e-06	346.77	117.98	102.08	35.302	4.2466e-06	44.035	-98.711	-49.716	-59.842	-125.986	14.107	-17.656	-126.110	-121.533	-14.054	23.577	-122.078	-117.464	-116.594	-112.323	-0.361	-112.923	-8191	255	
730.763	1	1	0	0	0.24623	0.060473	0.16206	0.15824	0.036536	0.17824	0.24984	0.07654	0.095847	0.15536	0.2307	0.033202	0.15282	0.36501	0.037452	0.32953	-2.4375	-2.9458	-2.7271	-3.0333	-3.1417	-3.0042	-3.2042	-3.3042	-2.8	-3.3271	-2.8896	-3.2583	-3.2458	-2.9521	-3.1667	-3.2875	86.060	-42.897	91.116	-75.824	64.670	136.028	160.638	-6.782	64.008	-80.588	55.617	160.063	196.073	176.001	100.672	193.277	0.00027309	0.00031539	0.00012908	1082	2.85e-06	4.7794e-06	1087.6	273.86	2.5032e-06	3.4675e-06	342.72	115.04	100.07	34.764	4.3078e-06	43.109	0.00038266	0.00040279	0.00011	1090.2	4.3771e-06	4.353e-06	1098.6	278.38	4.3056e-06	4.015e-06	347.23	118.25	102.16	35.43	4.2521e-06	44.126	-101.935	-52.188	-50.376	-125.937	9.747	-8.753	-126.013	-121.290	-0.201	36.482	-122.202	-117.798	-117.096	-112.520	16.701	-113.118	-8191	255	
730.882	1	1	0	0	0.22212	0.2516	0.072592	0.15349	0.055922	0.057946	0.16938	0.19995	0.18541	0.23271	0.28639	0.32027	0.12199	0.15279	0.18565	0.12889	-2.4562	-3.2958	-2.7667	-3.1021	-2.9979	-2.8792	-3.3812	-3.05	-2.8	-3.3937	-2.8854	-2.9854	-3.4062	-2.8479	-2.9292	-3.1042	135.184	-110.360	-43.313	41.678	-62.385	77.548	159.762	180.112	-137.038	-82.389	202.433	218.269	-16.133	-133.567	191.676	79.683	0.00027614	0.00032989	0.00011484	1079.1	2.8269e-06	4.9679e-06	1088.7	273.56	3.2149e-06	2.5965e-06	343.22	115.17	100.17	34.61	3.24e-06	43.372	0.00038644	0.00037842	0.0001154	1090.8	4.1023e-06	4.2786e-06	1098.4	278.06	4.273e-06	4.1349e-06	347.36	118.19	102.29	35.461	4.2391e-06	44.153	-102.499	-39.594	-51.600	-125.934	11.413	3.434	-125.855	-121.428	-12.214	8.804	-121.881	-117.512	-117.126	-112.260	3.914	-113.154	-8191	255	
730.978	1	1	0	0	0.15358	0.13168	0.1079	0.26764	0.14113	0.13427	0.27106	0.061424	0.3392	0.17626	0.074449	0.17838	0.022118	0.055731	0.21822	0.17647	-2.4521	-3.2271	-2.9146	-2.9688	-3.0312	-2.9958	-3.3479	-3.2042	-2.5333	-3.3458	-2.9667	-2.9458	-3.3396	-2.9125	-3.2146	-3.1917	-107.339	-118.252	-15.141	174.784	-138.053	95.384	79.069	-40.760	178.767	56.462	160.496	-110.143	-82.522	-28.733	131.273	138.112	0.00027172	0.00043042	0.00013768	1081.7	3.0445e-06	5.2215e-06	1085.9	273.75	2.0395e-06	4.4886e-06	342.17	115.58	100.38	34.693	3.3102e-06	43.238	0.00038838	0.00039665	0.00010942	1091	4.2528e-06	4.3573e-06	1098.9	278.66	4.3997e-06	4.1775e-06	347.33	118.35	102.56	35.432	4.4331e-06	44.219	-100.916	-19.926	-49.568	-125.856	12.636	6.046	-125.980	-121.352	-12.377	14.049	-121.748	-117.335	-116.727	-112.189	2.578	-113.066	-8191	255	
731.074	1	1	0	0	0.090466	0.21939	0.35512	0.023901	0.12987	0.1736	0.16257	0.12024	0.044559	0.24841	0.14488	0.059497	0.13802	0.084542	0.13022	0.1383	-2.2062	-3.1875	-2.9104	-2.8958	-3.1833	-2.8958	-3.1125	-3.2125	-2.8312	-3.2208	-3.1646	-3.0208	-3.2021	-2.8833	-3.0167	-3.2313	20.281	162.866	125.149	-60.822	36.824	-125.222	77.967	143.210	-121.820	85.358	186.833	108.828	146.400	-45.786	-125.329	150.461	0.00024921	0.00030441	0.00010388	1080.8	4.3203e-06	3.7314e-06	1084.2	275.59	3.3329e-06	4.5969e-06	342.76	115.57	100.01	34.836	5.1888e-06	43.042	0.00038264	0.0003688	0.00010755	1091.2	4.2246e-06	4.2651e-06	1098.7	278.8	4.2238e-06	4.3671e-06	348.2	118.54	102.5	35.559	4.2681e-06	44.171	-98.947	-57.136	-37.051	-125.966	29.091	31.289	-125.920	-121.613	-7.753	29.536	-121.889	-117.301	-116.907	-112.294	-3.661	-112.924	-8191	255	
731.147	1	1	0	0	0.16518	0.2481	0.090518	0.20892	0.19839	0.10816	0.16485	0.44456	0.21698	0.1745	0.18238	0.098979	0.2053	0.097007	0.12978	0.055016	-2.2083	-2.9979	-2.8771	-2.8688	-3.2875	-2.7958	-3.0938	-3.3104	-2.7729	-3.2729	-3.2	-2.7521	-3.4188	-3.0542	-2.95	-3.3417	-133.911	23.120	82.501	-99.170	89.519	195.092	-137.567	118.939	57.493	180.245	-84.226	-84.610	127.969	167.576	184.617	0.052	0.00028083	0.00050629	0.00010958	1082.9	3.672e-06	4.0835e-06	1087.5	274.59	2.503e-06	3.9021e-06	341.63	115.68	100.28	34.726	4.3309e-06	43.22	0.00038859	0.00040439	0.00010743	1092.1	4.2028e-06	4.2047e-06	1097.8	279.13	4.2749e-06	4.2294e-06	347.67	118.48	102.6	35.504	4.3279e-06	44.278	-100.668	-38.710	-58.533	-125.881	12.595	-2.624	-125.882	-121.267	-19.275	1.747	-121.703	-117.451	-117.000	-112.330	-6.227	-113.249	-8191	255	
731.266	1	1	0	0	0.20117	0.37572	0.052745	0.32002	0.27162	0.091004	0.199	0.3059	0.11374	0.12149	0.024207	0.094598	0.23768	0.084068	0.070644	0.099228	-2.4604	-2.9708	-3.025	-2.9458	-2.9917	-3.1458	-3.0833	-3.0458	-2.925	-2.9771	-3.0625	-2.7417	-3.4229	-3.1667	-2.6312	-3.1167	68.511	-101.624	46.943	220.013	47.904	-43.610	174.308	167.432	169.119	-68.146	188.843	-70.188	143.069	171.826	182.271	176.532	0.00026259	0.00034637	0.00016783	1078.4	3.9811e-06	4.6554e-06	1088	275.56	2.9586e-06	3.5898e-06	342.52	116.17	100.12	34.81	3.6854e-06	43.303	0.00037839	0.00037978	0.00010633	1091.3	4.2062e-06	3.952e-06	1099.1	279.48	4.2678e-06	4.0922e-06	347.94	118.85	102.62	35.615	4.3563e-06	44.382	-103.049	-45.832	-23.901	-125.963	-2.583	19.506	-125.906	-121.241	2.508	-3.318	-121.854	-117.720	-117.049	-112.510	6.917	-113.077	-8191	255	
731.362	1	1	0	0	0.12577	0.12254	0.26705	0.17617	0.23934	0.24383	0.23268	0.051818	0.16379	0.13668	0.22723	0.29114	0.073175	0.14836	0.061027	0.32494	-2.5396	-2.9396	-3.0062	-2.975	-3.3312	-3.1396	-2.9688	-3.2104	-2.9188	-2.9667	-3.3063	-2.9208	-3.0875	-3.0417	-2.8292	-3.3146	-17.439	-83.745	80.806	138.121	202.109	-136.703	144.515	173.417	149.869	-125.108	126.824	170.776	129.656	-127.523	48.898	142.850	0.00025843	0.00045069	0.00012091	1084.3	3.7285e-06	5.5428e-06	1088.5	275.24	3.0756e-06	4.9226e-06	343.75	116.09	100.22	34.68	2.785e-06	43.42	0.00036848	0.00040695	0.0001047	1092.1	4.2479e-06	4.2824e-06	1100.4	279.42	4.1769e-06	4.3098e-06	348.07	118.78	102.76	35.544	4.2496e-06	44.333	-103.482	-48.936	-53.851	-125.865	24.797	14.297	-125.980	-121.525	-19.115	13.532	-121.752	-117.529	-116.879	-112.541	-5.284	-112.952	-8191	255	
731.459	1	1	0	0	0.030953	0.22432	0.097421	0.34123	0.063601	0.097227	0.078718	0.10323	0.065616	0.025594	0.27473	0.42615	0.16495	0.2867	0.066393	0.16313	-2.5938	-2.7687	-3.0896	-2.825	-3.0438	-2.9896	-3.1083	-3.2812	-3.0563	-2.9313	-3.2104	-2.6792	-3.1917	-3.0792	-2.9	-3.0646	-13.098	51.239	168.288	173.661	-46.485	-60.758	163.474	195.455	138.900	-134.574	193.166	176.760	195.258	-110.268	-67.863	173.770	0.00028759	0.0004457	0.00011483	1085.4	4.2892e-06	5.5776e-06	1089	275.31	3.413e-06	4.8963e-06	342.52	115.63	99.797	34.757	2.6957e-06	43.331	0.00038541	0.00039704	0.00010378	1092.6	4.1591e-06	4.1891e-06	1100	279.22	4.3274e-06	4.3914e-06	348.09	118.55	102.45	35.546	4.3638e-06	44.306	-100.263	-46.701	-60.212	-126.216	10.554	6.997	-125.905	-121.333	-6.220	4.705	-121.875	-117.757	-116.778	-112.247	10.664	-113.042	-8191	255	
731.579	1	1	0	0	0.20267	0.060616	0.017866	0.013317	0.12917	0.031884	0.43383	0.19379	0.062277	0.18536	0.16063	0.28552	0.19434	0.14865	0.080406	0.14239	-2.575	-2.9292	-2.9646	-2.8708	-3.0708	-3.3125	-3.075	-3.1625	-3.0312	-2.9646	-3.3167	-2.85	-3.0438	-3.1125	-2.7333	-3.2167	-62.986	45.487	115.013	189.031	93.584	-77.699	161.960	189.845	56.370	217.201	177.510	136.529	181.318	-115.873	-92.656	141.731	0.00026754	0.00036381	0.00013191	1085.1	3.2686e-06	4.526e-06	1090.3	275.4	2.3049e-06	3.4049e-06	344.92	115.98	100.44	34.861	3.2418e-06	43.384	0.000378	0.0003776	0.00010464	1091.1	4.1615e-06	3.9676e-06	1099.5	279.53	4.2545e-06	4.245e-06	348.16	118.76	102.69	35.561	4.5453e-06	44.297	-100.043	-57.523	-57.574	-125.833	-12.889	19.789	-125.915	-121.206	15.466	11.230	-121.780	-117.690	-116.910	-112.326	-10.921	-113.299	-8191	255	
731.675	1	1	0	0	0.15028	0.11597	0.14175	0.2556	0.057356	0.25364	0.14962	0.11782	0.06733	0.1797	0.080069	0.25337	0.4049	0.15282	0.08269	0.21821	-2.65	-2.8646	-3.2792	-2.9521	-3.0187	-3.1833	-2.7375	-3.0167	-3.2146	-2.8146	-3.4083	-2.7354	-3.0479	-3.2438	-2.8375	-3.1583	-35.521	86.076	-41.022	191.169	203.263	-125.420	217.687	161.710	138.091	-45.636	193.515	75.249	-101.441	5.709	194.065	189.232	0.00026101	0.00026215	0.00014876	1080.4	2.8098e-06	4.3854e-06	1087.4	274.42	2.4871e-06	4.0274e-06	344.12	116.38	100.47	34.689	3.6354e-06	43.551	0.00036876	0.0003894	0.00010341	1091.6	4.2324e-06	4.0253e-06	1100.1	279.26	4.1997e-06	4.251e-06	348.62	118.91	102.74	35.592	4.2661e-06	44.438	-103.725	-51.159	-33.970	-125.803	23.846	22.484	-126.000	-121.520	-3.714	7.509	-121.617	-117.522	-117.003	-112.305	14.940	-113.029	-8191	255	
731.770	1	1	0	0	0.13139	0.15519	0.28515	0.32073	0.19414	0.19178	0.30511	0.078786	0.23406	0.15295	0.092484	0.18916	0.13975	0.10202	0.20842	0.083382	-2.3812	-2.8333	-3.0729	-3.1188	-2.8229	-3.2354	-3	-3.0583	-3.0125	-2.6854	-3.2021	-2.8667	-3.0771	-3.2958	-2.7062	-3.0917	193.485	-129.517	143.658	207.578	-74.794	38.220	100.175	138.395	-15.050	-37.287	154.716	193.587	-7.195	146.494	-36.191	80.401	0.00028386	0.00052126	0.00013076	1083.8	2.7177e-06	3.5081e-06	1090.4	273.84	3.6347e-06	4.7727e-06	342.52	116.56	100.72	35.048	4.079e-06	43.681	0.00038331	0.00038451	0.00010522	1092.4	4.2309e-06	3.9218e-06	1100.7	278.97	4.1013e-06	4.1419e-06	348.37	119.14	102.9	35.708	4.3084e-06	44.51	-98.020	-40.103	-25.899	-125.883	-7.000	16.484	-126.136	-121.512	-4.208	5.750	-121.851	-117.627	-116.905	-112.546	-11.027	-112.940	-8191	255	
731.868	1	1	0	0	0.047784	0.14721	0.019198	0.20209	0.31736	0.10815	0.031758	0.29976	0.11515	0.22676	0.085613	0.14576	0.13838	0.25526	0.092819	0.18753	-2.6271	-2.8229	-2.9875	-2.8688	-2.9813	-3.1708	-3.0687	-3.0917	-3.0396	-2.9083	-3.2354	-3.0479	-2.7542	-3.1063	-3.0333	-3.15	51.902	-11.248	54.788	209.863	-37.764	124.043	52.842	145.186	212.296	89.275	166.335	117.070	-92.191	87.310	-66.059	160.309	0.00027433	0.00035672	0.00013266	1085.1	3.6224e-06	2.8822e-06	1089.1	276.2	2.8777e-06	3.897e-06	344.59	116.28	100.12	34.957	2.5964e-06	43.321	0.00036972	0.00038084	0.00010362	1093.1	4.2227e-06	3.9255e-06	1100.6	280.08	4.1003e-06	4.1959e-06	349.59	119.11	102.8	35.67	4.1324e-06	44.397	-97.468	-44.771	-60.193	-125.840	35.614	-0.707	-125.922	-121.577	0.835	36.819	-121.696	-117.491	-116.885	-112.316	24.550	-112.959	-8191	255	
731.962	1	1	0	0	0.16878	0.1287	0.36382	0.18523	0.096452	0.12793	0.2026	0.11709	0.12231	0.12951	0.1284	0.27314	0.12979	0.42156	0.18677	0.051616	-2.7521	-2.5938	-3.05	-3.2104	-2.7438	-3.2021	-3.0542	-3.1583	-3.3	-2.9562	-3.1958	-3.0583	-2.7583	-3.2062	-3.0792	-3.0208	-78.321	-71.911	-94.179	190.992	-127.482	196.000	182.543	115.732	67.903	-122.463	-131.401	76.542	191.639	-115.482	50.777	15.055	0.00027914	0.0003502	0.00010773	1083.1	3.2733e-06	6.4021e-06	1088.4	275.74	3.4644e-06	4.5286e-06	343.48	115.97	100.58	34.961	3.845e-06	43.425	0.000367	0.00038698	0.00010416	1091.4	4.1994e-06	4.063e-06	1099.6	279.82	4.054e-06	4.1613e-06	349.13	119.15	102.97	35.745	4.0237e-06	44.495	-101.849	-52.783	-57.164	-125.808	8.505	32.049	-125.959	-121.492	-10.562	5.274	-121.912	-117.380	-116.755	-112.308	-7.058	-112.888	-8191	255	
732.058	1	1	0	0	0.29705	0.014472	0.12967	0.15161	0.14044	0.08969	0.23876	0.091827	0.21872	0.30746	0.059093	0.062843	0.14246	0.11837	0.14634	0.17812	-2.6771	-2.8021	-3.1583	-3.2875	-2.7521	-3.2125	-3.1271	-3.0021	-3.1417	-2.7271	-3.0521	-3.1708	-3.0292	-3.2208	-2.7479	-2.9354	99.359	-90.711	124.314	169.997	33.787	-100.457	2.428	169.352	-95.310	-21.294	-110.607	199.469	109.913	-107.908	-14.856	59.151	0.00026465	0.0003118	0.00012295	1083.6	2.9834e-06	5.2624e-06	1090.1	276.22	2.99e-06	3.2637e-06	345.59	116.53	100.62	35.134	4.4016e-06	43.698	0.00036485	0.00038563	0.00010517	1092.8	4.3261e-06	4.0323e-06	1101.2	280.21	4.0625e-06	4.2812e-06	349.75	119.22	103.01	35.797	4.0192e-06	44.502	-106.706	-33.099	-65.549	-125.791	24.184	6.009	-126.088	-121.479	-8.396	31.662	-121.759	-117.591	-116.764	-112.379	-6.206	-113.209	-8191	255	
732.179	1	1	0	0	0.14552	0.18323	0.1258	0.035318	0.26886	0.065559	0.11018	0.19786	0.099905	0.11667	0.074152	0.20158	0.17492	0.32832	0.34369	0.25631	-2.7562	-2.9542	-2.9917	-2.9917	-2.6958	-3.2125	-3.0479	-2.9146	-3.1792	-2.9542	-3.1833	-3.3021	-2.6958	-3.2479	-3.0833	-2.8312	208.853	147.603	168.674	10.882	-1.370	164.425	-134.346	190.423	-126.718	-64.631	63.306	186.669	9.503	145.512	36.121	17.057	0.00028258	0.00051363	0.0001305	1082.9	3.1441e-06	4.743e-06	1085.8	276.51	3.6639e-06	4.3052e-06	343.83	116.13	100.96	35.002	3.3929e-06	43.486	0.00036993	0.00038137	0.00010665	1090.5	4.3762e-06	3.9891e-06	1100.1	280.29	4.1419e-06	4.1354e-06	349.4	119.12	102.97	35.76	3.8926e-06	44.501	-99.418	-55.988	-49.278	-125.939	4.589	37.952	-126.070	-121.312	1.176	16.047	-121.740	-117.483	-116.964	-112.457	-33.379	-113.021	-8191	255	
732.275	1	1	0	0	0.085858	0.31799	0.20525	0.10383	0.090041	0.066754	0.18742	0.13232	0.29847	0.29721	0.16891	0.116	0.23232	0.29634	0.11968	0.23275	-2.7729	-2.9625	-2.9979	-3.1667	-2.6458	-3.125	-3.0687	-2.7458	-3.1958	-3.0521	-3.0667	-3.2104	-2.9708	-3.3	-2.8729	-2.8646	132.649	-128.308	25.868	208.251	70.014	166.623	184.896	48.026	-111.906	20.531	162.848	-80.709	-106.466	-130.125	-85.863	215.964	0.00028715	0.00046423	0.00013932	1082.8	3.1089e-06	3.7178e-06	1085.9	276.1	2.5849e-06	3.095e-06	343.96	116.38	101.01	34.958	4.3167e-06	43.664	0.00036636	0.00038244	0.00010246	1092.5	4.2343e-06	4.1217e-06	1100.2	280.28	4.071e-06	3.8389e-06	349.53	119.3	103.26	35.791	3.9743e-06	44.639	-101.335	-51.505	-54.548	-125.797	33.044	6.879	-125.897	-121.328	12.859	20.895	-121.895	-117.257	-116.727	-112.574	6.509	-112.969	-8191	255	
732.371	1	1	0	0	0.29275	0.16563	0.12816	0.097622	0.23021	0.20361	0.23661	0.35476	0.16236	0.05996	0.12253	0.060602	0.092271	0.045213	0.13823	0.20095	-2.7042	-2.9813	-2.775	-3.5146	-2.8896	-3.0146	-3.2313	-2.6646	-3.3521	-2.7188	-2.7208	-3.3104	-3.1729	-3.2521	-3.0042	-2.7542	73.941	141.747	220.567	-84.244	-22.718	-24.503	160.799	-131.514	208.912	-130.938	-48.969	164.922	26.866	207.764	63.626	188.671	0.00027111	0.0002844	0.00010254	1084	3.8263e-06	4.7445e-06	1090.4	274.68	3.3043e-06	3.6344e-06	344.23	116.93	101.2	35.233	3.2284e-06	43.618	0.00037262	0.00037354	0.00010429	1093.5	4.0867e-06	3.7757e-06	1101.8	280.45	4.0445e-06	3.8589e-06	350.25	119.7	103.4	35.896	4.0282e-06	44.631	-98.845	-51.143	-49.464	-125.885	6.980	24.642	-125.974	-121.352	-0.744	8.098	-122.089	-117.501	-116.850	-112.255	-0.725	-113.044	-8191	255	
732.443	1	1	0	0	0.14296	0.24806	0.083717	0.29015	0.14158	0.18451	0.24644	0.068638	0.28857	0.2111	0.14491	0.2103	0.05299	0.096528	0.11274	0.19954	-2.6917	-3.1375	-3.0333	-3.3812	-2.8187	-2.7125	-3.2146	-2.9708	-3.1937	-3.0917	-2.9625	-3.3937	-2.7292	-2.9542	-3.2771	-3.1979	150.991	219.609	6.359	180.360	-81.740	212.691	118.139	195.109	148.372	197.123	213.767	79.817	-114.230	98.515	-86.978	44.824	0.00027363	0.00046783	8.4599e-05	1083.4	4.1528e-06	5.835e-06	1087.1	276.92	2.8143e-06	3.1962e-06	346.04	116.73	101.1	35.113	3.7697e-06	43.647	0.00036672	0.00035381	0.00010362	1094.2	3.994e-06	4.0253e-06	1100.7	281.35	3.8084e-06	3.7774e-06	350.42	119.58	103.45	35.976	3.8995e-06	44.691	-97.817	-52.570	-38.453	-125.942	-0.775	10.526	-126.116	-121.488	3.640	42.565	-121.780	-117.560	-116.893	-112.245	-19.935	-113.140	-8191	255	
732.563	1	1	0	0	0.12588	0.14514	0.2287	0.22512	0.0156	0.2327	0.050278	0.24163	0.19255	0.16584	0.1382	0.15493	0.077635	0.14273	0.16763	0.14564	-2.8187	-3.2125	-2.8812	-3.2021	-2.8708	-2.9458	-3.4833	-3.0042	-3.0563	-3.1229	-2.7438	-3.175	-3.2771	-2.9688	-3.1333	-2.875	-78.291	203.455	-61.679	185.418	10.086	131.051	189.464	-62.531	-80.763	220.554	6.865	51.324	-83.682	211.442	-86.128	143.637	0.00027206	0.00035779	0.00014992	1084.1	3.5686e-06	4.1336e-06	1087.8	277.2	2.7773e-06	3.6396e-06	344.8	116.85	101.35	35.116	1.892e-06	43.766	0.00035564	0.0003482	9.9906e-05	1093.9	3.9842e-06	4.1541e-06	1100.3	280.98	4.001e-06	3.8325e-06	351.07	119.78	103.62	35.92	4.0531e-06	44.648	-98.765	-43.706	-40.593	-125.942	28.506	1.241	-125.965	-121.443	-1.340	17.145	-122.216	-117.430	-117.121	-112.431	25.511	-113.119	-8191	255	
732.660	1	1	0	0	0.063391	0.20111	0.1323	0.33415	0.14602	0.099637	0.25082	0.08634	0.12576	0.17609	0.14174	0.084604	0.30593	0.077096	0.25547	0.21004	-2.7375	-3.2417	-2.8396	-3.2646	-2.925	-3.0854	-3.6021	-3.0333	-2.8937	-3.0625	-2.875	-3.1479	-3.1146	-2.9938	-3.2542	-2.9833	167.457	19.746	-92.848	192.507	107.838	-55.887	177.543	147.062	67.947	83.825	115.492	84.222	158.040	20.808	-69.246	50.988	0.00028523	0.00042154	0.00011573	1082.8	1.9052e-06	5.5899e-06	1085.5	277.05	2.5978e-06	4.2665e-06	347.11	116.88	101.28	35.02	3.1358e-06	43.631	0.0003676	0.00035459	0.00010377	1094.2	4.0989e-06	3.9105e-06	1101.6	281.33	4.0156e-06	3.8325e-06	351.33	119.6	103.6	35.95	3.8796e-06	44.641	-100.132	-54.644	-38.353	-125.875	-10.496	-17.100	-126.064	-121.438	3.421	28.561	-121.737	-117.499	-117.078	-112.289	-3.125	-113.092	-8191	255	
732.756	1	1	0	0	0.095001	0.12099	0.22203	0.19095	0.040236	0.11926	0.32752	0.16828	0.086878	0.017895	0.19872	0.16052	0.19774	0.28963	0.13176	0.28259	-2.6292	-3.2667	-2.55	-3.0792	-2.9896	-2.8396	-3.325	-3.0021	-2.9229	-3.1437	-2.9333	-3.1458	-3.125	-2.9208	-3.0938	-2.8187	97.091	-82.427	142.804	7.491	180.283	201.938	165.197	188.673	-54.416	187.135	135.184	64.559	16.012	134.807	146.836	144.518	0.00028261	0.00030909	0.00016993	1087	2.6957e-06	3.8487e-06	1089.4	276.17	1.8248e-06	3.6188e-06	344.77	116.57	100.8	35.091	2.5872e-06	43.789	0.00035675	0.00035783	9.8816e-05	1095.2	4.0012e-06	4.0517e-06	1102.2	280.86	4.0421e-06	3.8751e-06	350.11	119.55	103.34	35.86	3.8507e-06	44.701	-101.291	-50.423	-49.256	-125.827	15.157	18.113	-125.987	-121.362	-7.740	14.816	-121.636	-117.534	-116.765	-112.230	-4.552	-113.205	-8191	255	
732.852	1	1	0	0	0.33191	0.24049	0.11799	0.37826	0.044091	0.089291	0.25046	0.088577	0.070547	0.11462	0.29347	0.25908	0.29912	0.14283	0.20999	0.15214	-2.3521	-3.2896	-2.6125	-2.975	-2.9833	-2.8563	-3.3458	-2.9604	-2.925	-3.225	-2.9188	-3.0021	-3.1146	-2.7729	-2.9979	-3.0417	45.082	86.769	-18.717	210.597	-10.427	71.958	214.804	72.331	25.800	155.850	123.707	-82.374	162.627	128.020	72.260	-64.082	0.00025582	0.00044391	6.7088e-05	1081.9	3.3256e-06	5.9745e-06	1087.7	277.56	3.0298e-06	2.4654e-06	345.03	117.29	100.81	35.168	4.226e-06	43.627	0.00036749	0.00035328	0.00010538	1092.1	3.9745e-06	3.9859e-06	1101.3	281.21	3.9839e-06	3.7698e-06	350.27	119.68	103.22	35.924	3.9644e-06	44.684	-102.113	-43.334	-26.123	-125.796	8.155	-13.325	-125.936	-121.445	4.290	19.147	-121.765	-117.596	-116.882	-112.327	18.531	-113.154	-8191	255	
732.948	1	1	0	0	0.2189	0.11013	0.32609	0.11504	0.1521	0.28492	0.27057	0.20527	0.15906	0.17029	0.21808	0.1461	0.14708	0.11302	0.1671	0.47027	-2.4167	-3.0146	-2.8542	-3.2042	-3.2625	-3.0687	-3.2458	-3.05	-2.8	-3.2125	-3.1771	-3.0646	-3.1854	-2.6854	-3.1	-3.1437	40.667	45.894	-74.361	-122.877	-122.920	114.188	189.545	151.629	-86.411	164.632	-88.942	155.065	43.819	-63.579	63.484	204.158	0.00028324	0.0003628	0.00013002	1081.5	2.5426e-06	3.6824e-06	1086.6	276.95	3.4478e-06	3.965e-06	344.03	117.48	101.16	35.06	3.636e-06	43.638	0.00036322	0.00034061	9.9866e-05	1093.3	3.8847e-06	3.8787e-06	1100.2	281.32	4.0965e-06	3.8433e-06	349.98	119.7	103.53	35.948	3.9629e-06	44.648	-101.446	-58.643	-50.188	-125.938	13.178	8.274	-125.729	-121.411	1.300	3.553	-121.883	-117.522	-116.933	-112.074	6.556	-112.994	-8191	255	
733.042	1	1	0	0	0.076125	0.25314	0.1519	0.27222	0.11512	0.11005	0.38255	0.19898	0.30303	0.13331	0.21622	0.16765	0.21064	0.33021	0.16988	0.11064	-2.3958	-3.0062	-2.9813	-3.1625	-3.3708	-2.9437	-3.2604	-3.2854	-2.6625	-3.1437	-2.7729	-2.85	-3.3771	-3.0479	-3.0458	-2.8563	119.997	68.799	44.611	193.737	-49.336	157.996	170.452	105.980	168.656	34.482	183.796	169.242	155.363	-101.339	178.120	-82.988	0.00027197	0.0002956	0.00012812	1083.9	3.8844e-06	5.5011e-06	1089.2	276.85	2.9464e-06	3.234e-06	343.83	117.43	100.98	35.13	3.1264e-06	43.533	0.00037407	0.00035241	9.9785e-05	1092.7	3.8351e-06	3.9568e-06	1100.4	280.82	4.0582e-06	3.9513e-06	349.99	119.96	103.4	35.922	3.908e-06	44.653	-101.480	-41.161	-26.096	-126.004	9.317	30.816	-125.988	-121.491	-4.354	10.676	-121.894	-117.513	-116.981	-112.584	23.989	-113.141	-8191	255	
733.140	1	1	0	0	0.046036	0.21675	0.22076	0.14519	0.30932	0.26402	0.19557	0.40433	0.02713	0.3379	0.15793	0.062829	0.2869	0.15747	0.14084	0.33282	-2.2396	-3.075	-2.9313	-3.025	-3.2083	-2.9771	-3.175	-3.3167	-2.6937	-3.175	-2.9938	-2.9833	-3.2812	-3.0083	-2.9875	-3.2729	-129.185	-2.287	41.375	-121.035	118.606	4.046	-128.946	113.179	-78.858	181.992	-110.072	-30.114	154.799	107.026	102.322	-124.416	0.00027149	0.00040323	9.5324e-05	1085.2	2.4958e-06	3.1743e-06	1093	278	2.462e-06	3.5806e-06	345.84	117.32	101.53	35.081	3.0714e-06	43.768	0.00037145	0.00035217	9.9058e-05	1094.3	3.9172e-06	3.9261e-06	1100.7	281.46	4.106e-06	3.826e-06	350.75	119.76	103.35	35.855	3.9065e-06	44.729	-97.405	-40.651	-35.400	-125.921	33.938	16.463	-125.939	-121.335	-14.536	0.036	-121.593	-117.469	-116.823	-112.064	18.366	-113.335	-8191	255	
733.259	1	1	0	0	0.1104	0.25469	0.24463	0.19454	0.14137	0.15128	0.088575	0.3235	0.28625	0.082609	0.33372	0.11005	0.13514	0.099349	0.059491	0.11054	-2.3354	-2.9854	-2.8146	-2.95	-3.3479	-2.9083	-3.25	-3.1875	-2.9083	-3.1688	-2.8917	-2.6104	-3.2812	-3.0583	-3.1	-3.4167	-25.904	-81.460	81.842	107.355	208.903	-110.774	-17.929	171.780	-11.437	-104.225	174.003	-56.351	158.085	215.331	-26.427	81.824	0.00027448	0.00045898	9.3595e-05	1087.3	3.8007e-06	3.5815e-06	1091.5	277.69	2.7287e-06	3.5804e-06	344.78	117.74	101.48	35.168	4.646e-06	43.975	0.00036302	0.00034777	9.856e-05	1094.3	3.9216e-06	3.9196e-06	1101.5	281.72	3.9641e-06	3.8595e-06	350.26	119.94	103.68	36	3.9988e-06	44.865	-104.127	-50.819	-62.649	-125.920	28.463	6.845	-125.947	-121.337	1.713	-6.331	-122.028	-117.530	-116.921	-112.284	-4.698	-112.913	-8191	255	
733.355	1	1	0	0	0.31456	0.21206	0.2359	0.26707	0.17235	0.021761	0.2621	0.16674	0.056001	0.15726	0.2876	0.068652	0.075135	0.23948	0.067198	0.061612	-2.5583	-3.0458	-2.9667	-2.7083	-2.9146	-2.9271	-3.0333	-3.4021	-3.0438	-3.0229	-3.1813	-2.7021	-3.1146	-2.8104	-2.8979	-3.1937	-88.943	147.620	27.107	177.052	-132.210	129.726	106.721	-132.296	-0.434	64.921	160.391	-12.184	-18.923	188.500	-51.113	135.448	0.00025833	0.0004378	0.00012537	1087	3.6038e-06	4.642e-06	1090.7	277.18	3.3915e-06	4.0616e-06	345.52	117.49	101.1	35.235	3.1657e-06	43.676	0.00036322	0.0003558	9.5464e-05	1094.6	3.9774e-06	3.7541e-06	1102.6	281.61	3.983e-06	3.6688e-06	350.38	119.93	103.43	35.945	4.0905e-06	44.801	-99.195	-53.311	-43.239	-126.012	20.951	3.218	-126.109	-121.554	-3.314	20.605	-121.979	-117.516	-116.835	-112.545	-9.821	-113.090	-8191	255	
733.451	1	1	0	0	0.14633	0.052006	0.14637	0.30133	0.053816	0.11505	0.016685	0.20956	0.16838	0.049747	0.24617	0.090547	0.09486	0.15689	0.41486	0.26156	-2.5292	-3.0583	-2.9667	-2.9958	-3.3312	-3.1917	-2.9688	-3.2292	-2.9375	-2.9958	-3.2417	-2.6917	-3.0896	-3.0604	-2.9083	-3.3042	-73.021	112.797	-43.755	125.553	-119.429	31.439	27.787	136.431	-25.189	160.986	136.273	176.912	180.278	190.911	69.107	182.175	0.00026037	0.00040889	0.00012728	1082.5	3.2397e-06	3.5384e-06	1090.7	276.85	2.9282e-06	3.6459e-06	346.67	117.52	101.57	35.247	2.7971e-06	43.958	0.0003647	0.00036271	0.00010079	1092.7	3.9347e-06	3.7234e-06	1102.2	281.69	4.0171e-06	3.6245e-06	350.99	120.19	103.79	36.047	3.9245e-06	44.855	-101.536	-47.097	-47.059	-125.874	26.962	-4.735	-125.827	-121.639	4.584	28.884	-121.807	-117.226	-116.794	-112.264	0.654	-113.237	-8191	255	
733.548	1	1	0	0	0.10581	0.08045	0.23003	0.27092	0.2741	0.18573	0.2378	0.15733	0.25312	0.15922	0.19356	0.13308	0.2813	0.24291	0.17751	0.14792	-2.5125	-2.8438	-3.0833	-2.9479	-2.8312	-2.9208	-3.0167	-3.4333	-3.1458	-3.0479	-3.1625	-2.6729	-3.0271	-3.1021	-2.8292	-3.3771	164.036	36.458	61.819	-82.246	105.673	9.822	123.356	209.938	207.892	195.667	-118.051	22.584	183.107	200.297	-96.008	170.869	0.00027921	0.00025871	9.275e-05	1085.2	3.4486e-06	4.6473e-06	1090.5	277.47	2.9224e-06	4.1682e-06	348.65	117.69	101.75	35.262	4.748e-06	43.902	0.00036325	0.0003497	9.2503e-05	1095.2	3.7448e-06	3.5321e-06	1102.8	281.5	3.7583e-06	3.7488e-06	351.63	120.37	103.9	36.107	4.0307e-06	44.892	-96.779	-36.038	-76.803	-125.703	-3.359	7.384	-126.021	-121.548	-8.656	10.436	-121.806	-117.452	-116.834	-112.641	-4.403	-113.161	-8191	255	
733.668	1	1	0	0	0.21488	0.15367	0.24671	0.14592	0.19807	0.17601	0.33888	0.22043	0.35345	0.081546	0.27394	0.32952	0.16022	0.20527	0.20038	0.094739	-2.5729	-2.7333	-3.1271	-2.9021	-3.075	-3.1479	-2.8354	-3.0667	-2.9771	-2.8833	-3.25	-2.8396	-2.75	-3.0187	-2.6063	-3.1958	-64.088	-110.021	73.370	173.168	-107.266	8.048	145.375	-107.949	-118.965	89.975	-126.851	158.549	-123.299	-6.461	112.432	-134.664	0.00027442	0.00038465	0.00012708	1088.4	3.4391e-06	2.9165e-06	1089.5	277.48	2.1906e-06	3.242e-06	345.78	118.07	101.96	35.27	3.6288e-06	44.057	0.0003465	0.00034313	9.3014e-05	1095.4	3.6069e-06	3.4857e-06	1102.3	281.93	3.5804e-06	3.6872e-06	350.88	120.37	103.87	36.136	4.0496e-06	44.96	-100.175	-73.480	-47.134	-125.935	19.007	-16.561	-126.056	-121.375	1.034	0.558	-121.654	-117.310	-117.048	-112.562	9.976	-112.917	-8191	255	
733.740	1	1	0	0	0.079622	0.20057	0.048659	0.27872	0.070013	0.10462	0.37086	0.19121	0.079689	0.12628	0.16588	0.14513	0.19971	0.15626	0.038797	0.17844	-2.4313	-2.8917	-3.1063	-2.8646	-2.7875	-3.0625	-2.9688	-3.0812	-3.0146	-2.8312	-3.2229	-3.0667	-2.9042	-3.1583	-2.9646	-3.2771	203.139	179.357	54.616	197.601	-46.270	-110.033	-138.187	208.704	121.643	-75.316	-55.739	99.462	-117.100	177.975	168.061	61.800	0.00027421	0.00035728	9.07e-05	1086.8	2.088e-06	6.0267e-06	1090.8	278.9	2.6058e-06	3.6707e-06	347.76	117.76	101.66	35.691	5.7878e-06	44.241	0.00035869	0.00035401	9.6056e-05	1095.4	3.7273e-06	3.5633e-06	1103	282.45	3.7134e-06	3.8524e-06	352.13	120.35	104.01	36.274	3.8671e-06	45.04	-100.250	-72.877	-24.629	-125.833	-6.529	21.761	-125.814	-121.340	11.315	35.143	-121.816	-117.368	-116.822	-112.194	19.708	-112.979	-8191	255	
733.861	1	1	0	0	0.096508	0.1777	0.094972	0.2625	0.26585	0.15977	0.16641	0.21382	0.28636	0.25797	0.15692	0.20174	0.16962	0.14333	0.14133	0.28435	-2.5104	-2.7708	-3.1937	-3.2208	-2.7792	-3.3187	-3.0104	-3.0167	-3.0354	-2.7667	-3.3229	-3.125	-3.0458	-3.2	-2.8729	-3.0354	-106.836	-80.697	-95.073	201.896	58.243	-49.623	-116.213	-124.907	220.312	155.419	167.269	198.232	-106.652	111.911	-127.039	141.912	0.00026574	0.00047233	0.00011786	1090.8	2.4463e-06	4.8036e-06	1094	277.34	2.4256e-06	4.4999e-06	347.13	117.8	102.22	35.513	5.0763e-06	44.08	0.00035054	0.00033636	8.6593e-05	1096.9	3.8317e-06	3.3779e-06	1104.7	282.6	3.4404e-06	3.6499e-06	352.52	120.8	104.54	36.326	3.6013e-06	45.145	-101.861	-45.154	-26.475	-125.870	8.965	10.771	-126.052	-121.327	3.710	5.722	-121.767	-117.385	-116.936	-112.261	4.733	-113.105	-8191	255	
733.955	1	1	0	0	0.099633	0.11552	0.18503	0.26372	0.137	0.1015	0.13201	0.14984	0.12734	0.22488	0.22107	0.053282	0.2112	0.10517	0.23811	0.29832	-2.6479	-2.8438	-3.2875	-2.9688	-2.9104	-3.2896	-3.2104	-3.0271	-3.1188	-2.8688	-3.0938	-3.0729	-3.0333	-3.2667	-2.7438	-3.1146	103.907	-86.956	88.404	199.483	-27.606	120.422	104.123	-16.781	-55.468	184.453	176.047	186.529	165.666	122.098	7.132	146.467	0.00027504	0.00038193	0.00011567	1087.8	3.4822e-06	4.7309e-06	1092.2	278.88	3.0602e-06	3.9212e-06	346.29	118.37	101.97	35.311	3.8718e-06	43.942	0.00032631	0.00031973	8.5934e-05	1096.3	3.588e-06	3.2717e-06	1104.9	282.91	3.5052e-06	3.4712e-06	352.11	120.83	104.42	36.259	3.4273e-06	45.049	-98.997	-52.608	-44.382	-125.657	7.231	31.573	-126.049	-121.534	-1.782	23.024	-122.065	-117.640	-116.581	-112.284	-8.314	-113.253	-8191	255	
734.051	1	1	0	0	0.21053	0.29249	0.27465	0.17421	0.20743	0.24746	0.29537	0.23755	0.091181	0.21753	0.2133	0.11193	0.21576	0.12108	0.19235	0.045899	-2.6583	-2.9313	-3.1521	-3.175	-2.7417	-3.1229	-3.1792	-3.125	-3.225	-2.6312	-3.0646	-3.1917	-2.8937	-3.225	-3.0333	-2.9958	73.788	46.165	13.977	-48.230	-126.842	86.665	183.934	-95.427	-87.850	148.366	164.272	-100.491	-34.772	-88.667	-77.462	-135.592	0.00027408	0.00059488	0.00014	1086.1	3.279e-06	3.519e-06	1093.3	279.64	3.1709e-06	4.3581e-06	346.15	117.8	102.49	35.526	3.1081e-06	44.143	0.00033289	0.00032829	8.4615e-05	1096.5	3.4962e-06	3.3995e-06	1105	283.34	3.4868e-06	3.5398e-06	351.53	120.45	104.42	36.306	3.4443e-06	45.107	-103.132	-62.054	-54.929	-125.986	17.330	-7.040	-125.901	-121.535	-14.844	6.518	-121.856	-117.693	-116.966	-112.473	18.720	-113.083	-8191	255	
734.147	1	1	0	0	0.073272	0.13053	0.21777	0.09564	0.083866	0.097281	0.20041	0.10922	0.044482	0.095603	0.17558	0.20445	0.17678	0.083512	0.25311	0.27673	-2.7208	-2.8833	-3.0187	-3.0708	-2.7687	-3.1167	-3.1417	-2.8979	-3.1271	-2.8438	-2.8375	-3.1979	-2.9417	-3.0479	-2.8937	-3.0438	206.154	-96.858	194.372	36.428	-41.881	6.741	151.441	21.995	126.612	125.784	-75.849	156.114	-97.604	17.769	100.784	177.619	0.0002653	0.00043143	0.00011052	1089.1	3.4458e-06	4.8929e-06	1093.5	279.18	2.8442e-06	3.3645e-06	346.91	118.14	102.34	35.548	4.6378e-06	44.286	0.00033053	0.00030943	8.9191e-05	1098	3.8313e-06	3.344e-06	1104.9	283.05	3.378e-06	3.5263e-06	352.67	120.98	104.59	36.396	3.6013e-06	45.268	-99.448	-58.754	-48.281	-125.767	21.717	2.826	-126.040	-121.396	9.294	23.489	-121.927	-117.761	-116.596	-112.367	-4.460	-112.987	-8191	255	
734.268	1	1	0	0	0.14097	0.085492	0.14564	0.20251	0.11537	0.19576	0.21158	0.16574	0.2293	0.073922	0.17678	0.18283	0.13012	0.062981	0.10107	0.24782	-2.875	-2.7896	-2.8354	-3.0125	-2.6979	-3.0458	-3.2542	-3	-3.2542	-2.9521	-2.9917	-3.1167	-2.7021	-3.0687	-3.1458	-2.7667	50.311	121.885	38.642	94.263	-18.308	97.241	135.607	-105.834	184.962	106.110	164.597	204.843	183.074	156.072	75.244	131.777	0.0002753	0.00035737	0.00011815	1091.2	3.4874e-06	5.6488e-06	1094.7	278.68	2.7768e-06	4.7281e-06	349.19	118.27	102.38	35.792	3.9408e-06	44.394	0.00033623	0.00033143	9.4508e-05	1097.6	3.8415e-06	3.6048e-06	1106.1	283.13	3.6817e-06	3.5338e-06	353.68	121.02	104.65	36.451	3.6333e-06	45.327	-101.588	-46.067	-34.610	-125.883	9.528	-0.201	-125.873	-121.496	1.049	22.895	-121.742	-117.515	-117.116	-112.422	1.412	-112.876	-8191	255	
734.340	1	1	0	0	0.066064	0.17067	0.14712	0.32756	0.29322	0.28481	0.14649	0.3137	0.15294	0.065252	0.22527	0.023392	0.1891	0.058863	0.11778	0.021849	-2.5917	-2.9229	-2.7958	-3.4188	-3.0042	-3.1708	-3.2729	-2.7479	-3.1625	-3.0979	-2.9083	-3.1417	-2.7229	-3.0917	-3.1125	-3.0708	73.785	131.817	-115.899	208.691	-32.512	-77.638	160.871	163.903	3.987	-23.052	-97.463	-43.104	79.367	158.995	-62.642	116.527	0.00028402	0.00046717	0.00014853	1086.8	2.5548e-06	5.0975e-06	1093.9	279.66	3.824e-06	3.7584e-06	348.79	118.65	102.14	35.811	4.8086e-06	44.384	0.00033341	0.00033298	9.3351e-05	1096.6	3.839e-06	3.4819e-06	1105.4	283.28	3.6836e-06	3.4264e-06	353.31	121.07	104.85	36.493	3.7115e-06	45.298	-102.814	-50.147	-50.446	-125.780	-7.838	-13.325	-125.887	-121.529	-1.710	21.807	-121.715	-117.527	-116.988	-112.552	4.315	-113.076	-8191	255	
734.436	1	1	0	0	0.16553	0.11751	0.26228	0.061625	0.28744	0.21801	0.15295	0.3402	0.089996	0.054447	0.34765	0.2731	0.14977	0.076202	0.086405	0.10194	-2.7104	-2.8667	-2.8875	-3.35	-2.9271	-2.8833	-3.2042	-2.8	-2.9688	-2.975	-2.8729	-3.4125	-3.1042	-3.0958	-3.2833	-2.8458	-8.459	98.298	-26.355	10.647	152.709	89.511	165.028	189.059	-130.443	195.140	177.342	166.606	74.324	178.894	68.123	195.961	0.0002748	0.00035311	0.00012921	1089.5	3.0498e-06	4.5724e-06	1095.2	280.05	2.6222e-06	4.2367e-06	347.57	118.94	101.84	35.725	3.8485e-06	44.299	0.00034754	0.00032393	9.6447e-05	1098.8	3.7502e-06	3.5057e-06	1107.1	284.12	3.615e-06	3.4188e-06	353.22	121.51	104.71	36.521	3.5709e-06	45.327	-101.363	-55.340	-45.024	-125.799	23.736	4.505	-125.887	-121.482	-14.320	21.805	-121.688	-117.429	-117.102	-112.300	14.156	-113.102	-8191	255	
734.532	1	1	0	0	0.052431	0.25029	0.12146	0.14269	0.22345	0.069194	0.094202	0.43068	0.24251	0.22812	0.14336	0.061402	0.062419	0.14963	0.17313	0.24374	-2.5708	-3.0333	-2.7812	-3.3438	-3.0833	-3.3333	-3.3583	-2.6229	-2.9083	-3.0563	-3.15	-3.2583	-3.0583	-3.1125	-3.2583	-2.7979	-29.669	-35.932	30.502	132.308	-88.275	-41.552	149.941	172.516	120.867	59.666	-44.653	204.794	-71.657	122.970	49.643	-83.794	0.00028729	0.00038046	0.00014169	1088.5	4.231e-06	4.9501e-06	1098.4	278.62	2.4032e-06	4.7197e-06	348.15	118.68	102.32	35.757	4.1917e-06	44.357	0.00034829	0.0003321	9.2341e-05	1098.9	3.5671e-06	3.5461e-06	1110	283.29	3.7186e-06	3.6116e-06	353.45	121.23	104.81	36.483	3.5934e-06	45.266	-102.434	-45.773	-44.343	-125.833	14.403	20.436	-125.859	-121.455	-6.625	1.082	-121.936	-117.470	-116.805	-112.462	-3.042	-113.056	-8191	255	
734.628	1	1	0	0	0.27978	0.11806	0.20487	0.41889	0.034644	0.034101	0.062213	0.19178	0.10531	0.12047	0.19964	0.14067	0.32471	0.14035	0.088913	0.089301	-2.5583	-2.7958	-2.9458	-3.2771	-2.9604	-2.9188	-3.2938	-3.0958	-3.1437	-3.3083	-3.1188	-3.2438	-2.9625	-2.9479	-3.3542	-2.9396	-26.046	-137.013	-110.688	177.547	141.568	-105.845	19.967	90.195	138.363	19.599	111.366	-70.951	-132.856	102.764	-12.122	-0.594	0.00026714	0.0004991	0.00012341	1090.2	3.6476e-06	5.3797e-06	1100.8	278.9	2.7932e-06	3.2981e-06	348.69	118.6	102.5	35.752	3.4539e-06	44.161	0.00034226	0.00033849	9.5652e-05	1099.5	3.6287e-06	3.7417e-06	1110.7	283.46	3.8335e-06	3.4955e-06	353.76	121.27	104.85	36.447	3.718e-06	45.218	-100.444	-65.242	-52.549	-126.014	14.019	0.242	-126.151	-121.730	-9.964	22.502	-121.796	-117.484	-116.998	-112.471	9.638	-112.853	-8191	255	
734.749	1	1	0	0	0.090437	0.066997	0.29016	0.21099	0.15893	0.094304	0.19711	0.18715	0.090923	0.093072	0.2391	0.12768	0.22004	0.11148	0.13728	0.082916	-2.6208	-3.0979	-2.8021	-3.0667	-3.2042	-3.1813	-3.3208	-2.9604	-2.8229	-3.2687	-2.9604	-3.3125	-3.1937	-2.775	-3.1437	-3.0896	-75.393	-79.459	-90.630	207.776	-31.358	-52.770	141.986	164.261	102.289	30.094	-120.777	198.088	104.777	115.728	101.905	-4.092	0.00027966	0.00038659	0.00010208	1087.9	2.4943e-06	3.3208e-06	1098.6	279.09	1.789e-06	4.6801e-06	348.06	118.47	102.46	35.758	3.7538e-06	44.33	0.00035479	0.00032693	9.4091e-05	1100.2	3.8837e-06	3.904e-06	1109.6	283.84	3.7801e-06	3.5457e-06	353.33	121.3	104.57	36.427	3.7704e-06	45.184	-99.651	-59.000	-53.952	-125.936	14.006	1.211	-125.863	-121.378	-13.462	17.789	-121.660	-117.752	-116.946	-112.444	22.777	-113.208	-8191	255	
734.843	1	1	0	0	0.21076	0.080143	0.38464	0.080384	0.083905	0.098225	0.19265	0.082038	0.057545	0.091773	0.20444	0.1905	0.10246	0.20588	0.23533	0.14114	-2.5208	-3.1896	-2.6521	-3.2417	-3.1229	-2.6937	-3.2979	-3.1813	-2.8854	-3.2396	-2.85	-2.9375	-3.2125	-2.8292	-3.1167	-2.725	132.528	-116.386	38.330	145.721	-80.462	84.809	130.954	198.132	125.017	101.254	108.196	199.443	-89.615	173.153	-96.873	140.766	0.00027809	0.00035676	9.2653e-05	1096.3	2.0401e-06	4.5458e-06	1097.7	280.42	2.3882e-06	4.0873e-06	348.03	118.57	102.34	35.699	5.756e-06	44.355	0.00035411	0.00034352	9.9085e-05	1101.4	3.7691e-06	3.7568e-06	1110	283.47	3.9489e-06	3.4588e-06	352.84	121.03	104.68	36.486	3.7724e-06	45.318	-103.488	-33.017	-31.872	-125.780	20.024	22.439	-126.008	-121.429	-8.339	15.845	-121.752	-117.607	-116.931	-112.428	-7.038	-113.165	-8191	255	
734.941	1	1	0	0	0.093834	0.16295	0.1573	0.12706	0.20196	0.38168	0.28814	0.091806	0.15866	0.052627	0.20974	0.11084	0.16034	0.093058	0.28571	0.24131	-2.5583	-3.3375	-2.6688	-2.9833	-3.1833	-2.9375	-3.2333	-3.0563	-3.0854	-3.2313	-2.9896	-2.9854	-3.1979	-2.8688	-3.0208	-2.9667	113.248	-119.501	13.673	211.517	-111.372	199.537	171.871	214.002	163.614	33.277	152.234	215.471	-110.390	-8.072	-95.796	183.239	0.0002795	0.00034312	0.00011778	1093.8	2.8476e-06	3.4451e-06	1098.2	279.15	2.7486e-06	3.0611e-06	348.17	118.48	102.32	35.647	2.8844e-06	44.236	0.00036597	0.00033312	9.7483e-05	1100.8	3.6147e-06	3.7229e-06	1108.4	283.7	4.0421e-06	3.4701e-06	353.45	121.05	104.69	36.468	3.7629e-06	45.238	-99.938	-54.799	-44.204	-125.834	-0.877	-18.138	-125.805	-121.418	-10.282	-2.929	-121.609	-117.472	-117.042	-112.331	5.025	-113.127	-8191	255	
735.035	1	1	0	0	0.052915	0.29987	0.032505	0.077387	0.22743	0.034793	0.28701	0.18529	0.16118	0.13459	0.28953	0.16912	0.069384	0.051031	0.09596	0.23056	-2.5438	-3.1688	-2.8312	-3.1396	-3.1917	-2.7854	-3.2896	-3.1979	-2.7958	-2.9479	-2.9521	-3.1396	-3.2438	-2.9208	-2.9292	-3.1458	159.355	-107.231	209.403	-104.212	18.956	-47.973	146.910	180.402	118.227	62.030	-100.675	-12.150	120.234	-100.482	-71.234	144.234	0.00027912	0.00036358	9.381e-05	1091.9	4.9184e-06	4.7716e-06	1097.3	279.7	3.8099e-06	3.2974e-06	349.18	118.86	102.56	35.735	6.3669e-06	44.114	0.00035792	0.0003205	9.7375e-05	1101.2	3.8405e-06	3.8355e-06	1110.4	284.05	3.9494e-06	3.6078e-06	353.86	121.3	104.81	36.484	3.9354e-06	45.205	-102.755	-59.582	-44.881	-125.705	6.485	7.730	-125.929	-121.516	-4.778	21.219	-121.933	-117.619	-116.907	-112.715	18.990	-112.966	-8191	255	
735.131	1	1	0	0	0.11964	0.17068	0.13186	0.278	0.17199	0.10959	0.21626	0.25749	0.12665	0.11634	0.28452	0.19077	0.24673	0.24028	0.095986	0.084132	-2.7417	-3.0375	-2.9479	-3.0958	-3.0146	-2.9833	-3.3271	-3.2208	-2.7313	-3.1875	-3.2208	-2.9062	-3.2917	-3.0771	-2.8833	-3.1771	202.715	161.084	-26.240	178.788	62.565	-80.083	143.387	-82.270	73.817	14.649	164.078	217.000	-122.583	207.374	139.854	147.082	0.00026533	0.00037703	0.00014658	1097	4.0495e-06	4.8608e-06	1097.8	279.25	2.4495e-06	5.4004e-06	347.74	118.51	102.22	35.54	4.416e-06	44.297	0.00036265	0.00034289	9.3404e-05	1101.9	3.7778e-06	3.7024e-06	1109.6	283.5	3.8288e-06	3.6251e-06	353.01	121.13	104.69	36.384	3.8641e-06	45.277	-103.431	-74.453	-34.921	-125.667	15.449	11.222	-125.929	-121.403	-19.610	13.340	-121.983	-117.692	-117.098	-112.403	18.852	-113.021	-8191	255	
735.228	1	1	0	0	0.095316	0.22001	0.083567	0.30198	0.25576	0.12665	0.12316	0.19549	0.20399	0.2711	0.26003	0.29079	0.26196	0.12291	0.173	0.14064	-2.4229	-3.3417	-3.1667	-3.1063	-3.2271	-2.9542	-3.1854	-3.1688	-2.7583	-2.9917	-3.1104	-2.9562	-3.1312	-2.9104	-2.9479	-3.2729	180.804	109.910	95.959	168.314	122.968	-17.050	167.291	109.959	-25.596	-12.232	160.945	200.457	8.709	148.227	-15.091	128.850	0.00027354	0.00045464	0.00013441	1093	3.7285e-06	3.6569e-06	1099.1	278.74	3.2969e-06	3.8879e-06	348.54	117.79	102.12	35.643	3.2669e-06	44.144	0.00036201	0.00035144	9.6864e-05	1101.2	3.8259e-06	3.8948e-06	1111	283.05	3.9537e-06	3.685e-06	352.89	120.82	104.55	36.396	3.9225e-06	45.166	-98.070	-66.039	-54.951	-125.998	-10.760	26.180	-126.011	-121.149	-13.226	-0.189	-121.538	-117.565	-116.853	-112.241	0.942	-113.244	-8191	255	
735.348	1	1	0	0	0.015383	0.14808	0.16233	0.1676	0.14818	0.12117	0.19385	0.21885	0.20787	0.16776	0.14241	0.19449	0.21525	0.10843	0.089607	0.20984	-2.2708	-2.9292	-2.7313	-2.85	-3.2104	-3.1417	-2.9958	-3.0375	-2.7583	-3.3167	-3.4437	-2.9354	-3.325	-3.0438	-3.025	-3.2896	-106.891	-8.799	145.640	181.123	-66.127	41.658	165.905	185.928	-90.727	-93.028	-0.755	119.093	-72.636	160.398	127.592	129.297	0.00026447	0.00048885	0.00015245	1093.3	3.5298e-06	4.8232e-06	1100.1	280.39	2.3735e-06	4.0135e-06	349.17	117.98	102.4	35.632	1.8834e-06	44.184	0.00036524	0.00035497	9.8775e-05	1101.5	3.8293e-06	3.773e-06	1110.9	283.81	3.9669e-06	3.7412e-06	353.6	120.9	104.74	36.41	4.0656e-06	45.171	-99.347	-34.306	-32.335	-125.633	-5.880	3.353	-126.022	-121.404	-30.302	16.800	-121.995	-117.428	-116.687	-112.396	10.519	-113.224	-8191	255	
735.444	1	1	0	0	0.06551	0.063725	0.06499	0.42343	0.18687	0.25374	0.069885	0.20519	0.34849	0.15869	0.16197	0.17745	0.16593	0.30359	0.15833	0.26075	-2.4917	-3.0687	-3.1917	-3.0979	-3.1917	-2.9021	-3.1437	-3.5417	-2.8875	-2.9417	-3.2958	-3.1188	-3.1292	-2.9458	-2.6854	-3.4417	94.964	105.497	-6.443	146.182	-3.977	-57.709	37.229	179.591	-123.895	64.492	47.132	-99.613	213.594	163.010	-113.840	155.057	0.00027035	0.00032947	0.00012399	1094.5	4.3979e-06	4.2019e-06	1096	279.18	2.7497e-06	3.1131e-06	347.8	118.15	102.14	35.814	3.3208e-06	44.255	0.00035051	0.00035536	9.6945e-05	1102.4	3.8915e-06	3.7234e-06	1108.5	283.95	3.8241e-06	3.8659e-06	352.87	121.22	104.57	36.514	3.9669e-06	45.255	-98.908	-41.222	-25.518	-125.869	13.966	19.199	-126.039	-121.421	2.900	27.119	-121.747	-117.611	-116.915	-112.425	4.753	-113.165	-8191	255	
735.541	1	1	0	0	0.11471	0.17122	0.20179	0.048752	0.071571	0.08459	0.20991	0.21024	0.24961	0.30569	0.19322	0.068482	0.26126	0.37769	0.082503	0.078261	-2.4521	-2.9583	-3.0354	-2.7583	-3.2354	-3.1771	-3.0646	-3.1583	-3.0271	-3.0979	-3.3021	-2.95	-3.2354	-3.1688	-3.1083	-3.1333	98.941	157.674	75.150	191.776	-129.762	-116.504	135.325	146.935	-63.356	106.175	171.208	81.120	192.859	195.504	38.295	97.042	0.00026839	0.00050158	0.00014608	1093.2	2.7349e-06	4.8575e-06	1096.8	278.49	3.1878e-06	2.9252e-06	347.34	118.56	102.41	35.72	3.9695e-06	44.221	0.0003545	0.00035004	9.3929e-05	1103	3.8366e-06	3.6566e-06	1109.5	283.2	3.8141e-06	3.7785e-06	353.17	121.13	104.7	36.484	3.9564e-06	45.248	-104.155	-46.157	-40.148	-125.875	-9.252	22.003	-125.762	-121.333	10.530	31.721	-121.848	-117.577	-117.064	-112.580	18.223	-113.247	-8191	255	
735.637	1	1	0	0	0.12262	0.13044	0.26231	0.23156	0.18344	0.12574	0.13476	0.28211	0.2082	0.27895	0.26796	0.1507	0.17793	0.24085	0.064854	0.067012	-2.5563	-2.85	-3.3438	-3.1312	-3.0875	-3.1583	-2.85	-3.0667	-3.0875	-2.9021	-3.3917	-2.9292	-3.2313	-3.1813	-2.7125	-3.1729	-82.175	-130.034	188.167	-92.563	101.235	25.297	194.342	206.058	-88.222	216.021	69.641	87.477	-67.623	-47.573	-77.544	72.100	0.00027852	0.00045511	0.00015144	1093.3	2.4178e-06	4.2946e-06	1096.7	279	2.9469e-06	5.8602e-06	347.29	118.62	102.47	35.759	3.1303e-06	44.372	0.00036167	0.00035821	9.5868e-05	1102.7	3.8803e-06	3.5181e-06	1109.5	283.49	4.0057e-06	3.7963e-06	353.54	121.3	104.83	36.497	3.9853e-06	45.362	-100.052	-49.973	-46.714	-125.963	8.247	5.623	-125.891	-121.274	10.638	8.312	-121.712	-117.304	-116.831	-112.311	5.380	-113.185	-8191	255	
#DATA ENDS
