BOXY.EXE: ISS Imagent and Oximeter Data Acquisition Program Version 0.80
Ascii Record File

#ACQ INFORMATION
2  Detector Channels 
16  External MUX Channels 
1  Auxiliary Channels 
5000  Waveform (CCF) Frequency (Hz)
1  Waveforms Skipped 
30  Waveforms Averaged 
1  Cycles Averaged 
16  Acquisitions per Waveform 
10.0806  Updata Rate (Hz) 

#FILE INFORMATION
TRUE -- External MUX Channel results are PARSED.
FALSE -- AC DC and Phase are NOT grouped.
TRUE -- Companion Program Settings File CREATED.
FALSE -- AC data not excluded
FALSE -- DC data not excluded
FALSE -- Phase data not excluded
FALSE -- Auxillary Chn. data not excluded
Tab delimiters

#CALIBRATION STATE
TRUE -- Waveform Calibration Values APPLIED.


#AUX CALIBRATION VALUES
Val Type	aux-1	

Term	1.0000e+00	
Factor	0.0000e+00	


#WF CALIBRATION VALUES
A = Detector Channel
Val Type	A-AC1	A-AC2	A-AC3	A-AC4	A-AC5	A-AC6	A-AC7	A-AC8	A-AC9	A-AC10	A-AC11	A-AC12	A-AC13	A-AC14	A-AC15	A-AC16	A-DC1	A-DC2	A-DC3	A-DC4	A-DC5	A-DC6	A-DC7	A-DC8	A-DC9	A-DC10	A-DC11	A-DC12	A-DC13	A-DC14	A-DC15	A-DC16	A-Ph1	A-Ph2	A-Ph3	A-Ph4	A-Ph5	A-Ph6	A-Ph7	A-Ph8	A-Ph9	A-Ph10	A-Ph11	A-Ph12	A-Ph13	A-Ph14	A-Ph15	A-Ph16	

Term	0.00000e+00	0.00000e+00	0.00000e+00	0.00000e+00	0.00000e+00	0.00000e+00	0.00000e+00	0.00000e+00	0.00000e+00	0.00000e+00	0.00000e+00	0.00000e+00	0.00000e+00	0.00000e+00	0.00000e+00	0.00000e+00	0.00000e+00	0.00000e+00	0.00000e+00	0.00000e+00	0.00000e+00	0.00000e+00	0.00000e+00	0.00000e+00	0.00000e+00	0.00000e+00	0.00000e+00	0.00000e+00	0.00000e+00	0.00000e+00	0.00000e+00	0.00000e+00	0.00000e+00	0.00000e+00	0.00000e+00	0.00000e+00	0.00000e+00	0.00000e+00	0.00000e+00	0.00000e+00	0.00000e+00	0.00000e+00	0.00000e+00	0.00000e+00	0.00000e+00	0.00000e+00	0.00000e+00	0.00000e+00	
Factor	1.00000e+00	1.00000e+00	1.00000e+00	1.00000e+00	1.00000e+00	1.00000e+00	1.00000e+00	1.00000e+00	1.00000e+00	1.00000e+00	1.00000e+00	1.00000e+00	1.00000e+00	1.00000e+00	1.00000e+00	1.00000e+00	1.00000e+00	1.00000e+00	1.00000e+00	1.00000e+00	1.00000e+00	1.00000e+00	1.00000e+00	1.00000e+00	1.00000e+00	1.00000e+00	1.00000e+00	1.00000e+00	1.00000e+00	1.00000e+00	1.00000e+00	1.00000e+00	X	X	X	X	X	X	X	X	X	X	X	X	X	X	X	X	

B = Detector Channel
Val Type	B-AC1	B-AC2	B-AC3	B-AC4	B-AC5	B-AC6	B-AC7	B-AC8	B-AC9	B-AC10	B-AC11	B-AC12	B-AC13	B-AC14	B-AC15	B-AC16	B-DC1	B-DC2	B-DC3	B-DC4	B-DC5	B-DC6	B-DC7	B-DC8	B-DC9	B-DC10	B-DC11	B-DC12	B-DC13	B-DC14	B-DC15	B-DC16	B-Ph1	B-Ph2	B-Ph3	B-Ph4	B-Ph5	B-Ph6	B-Ph7	B-Ph8	B-Ph9	B-Ph10	B-Ph11	B-Ph12	B-Ph13	B-Ph14	B-Ph15	B-Ph16	

Term	0.00000e+00	0.00000e+00	0.00000e+00	0.00000e+00	0.00000e+00	0.00000e+00	0.00000e+00	0.00000e+00	0.00000e+00	0.00000e+00	0.00000e+00	0.00000e+00	0.00000e+00	0.00000e+00	0.00000e+00	0.00000e+00	0.00000e+00	0.00000e+00	0.00000e+00	0.00000e+00	0.00000e+00	0.00000e+00	0.00000e+00	0.00000e+00	0.00000e+00	0.00000e+00	0.00000e+00	0.00000e+00	0.00000e+00	0.00000e+00	0.00000e+00	0.00000e+00	-7.29439e+01	-1.30021e+02	-1.24914e+02	-1.83134e+02	-5.27761e+01	-7.14236e+01	-1.56866e+02	-1.62015e+02	-4.78778e+01	-6.48767e+01	-1.71930e+02	-1.71556e+02	-1.81736e+02	-1.77926e+02	-6.22738e+01	-1.50417e+02	
Factor	1.73134e-05	1.66260e-04	4.88759e-05	1.86492e-01	1.60179e-06	1.93899e-06	1.62677e-01	5.60871e-02	1.18118e-06	1.74570e-06	9.94639e-02	3.03487e-02	2.65711e-02	9.45456e-03	1.78352e-06	1.32450e-02	1.24241e-05	2.32072e-05	6.46118e-06	9.55684e-02	2.33110e-07	2.58720e-07	7.83537e-02	2.89116e-02	2.27059e-07	2.59205e-07	4.96099e-02	1.52121e-02	1.38846e-02	4.91572e-03	2.39358e-07	6.66233e-03	X	X	X	X	X	X	X	X	X	X	X	X	X	X	X	X	



#DISTANCE SETTINGS
A = Detector Channel
A-1	A-2	A-3	A-4	A-5	A-6	A-7	A-8	A-9	A-10	A-11	A-12	A-13	A-14	A-15	A-16	

2.5000e+00	3.0000e+00	2.5000e+00	3.0000e+00	2.0000e+00	3.0000e+00	1.5000e+00	3.0000e+00	3.0000e+00	3.0000e+00	3.0000e+00	3.0000e+00	3.0000e+00	3.0000e+00	1.5000e+00	3.0000e+00	

B = Detector Channel
B-1	B-2	B-3	B-4	B-5	B-6	B-7	B-8	B-9	B-10	B-11	B-12	B-13	B-14	B-15	B-16	

1.0000e+01	1.0000e+01	1.0000e+01	1.4400e+00	1.0000e+01	1.0000e+01	1.5100e+00	1.9400e+00	1.0000e+01	1.0000e+01	1.9900e+00	2.4900e+00	2.4100e+00	2.9000e+00	1.0000e+01	2.9800e+00	




#DATA BEGINS
time	group	step	mark	flag	A-AC1	A-AC2	A-AC3	A-AC4	A-AC5	A-AC6	A-AC7	A-AC8	A-AC9	A-AC10	A-AC11	A-AC12	A-AC13	A-AC14	A-AC15	A-AC16	A-DC1	A-DC2	A-DC3	A-DC4	A-DC5	A-DC6	A-DC7	A-DC8	A-DC9	A-DC10	A-DC11	A-DC12	A-DC13	A-DC14	A-DC15	A-DC16	A-Ph1	A-Ph2	A-Ph3	A-Ph4	A-Ph5	A-Ph6	A-Ph7	A-Ph8	A-Ph9	A-Ph10	A-Ph11	A-Ph12	A-Ph13	A-Ph14	A-Ph15	A-Ph16	B-AC1	B-AC2	B-AC3	B-AC4	B-AC5	B-AC6	B-AC7	B-AC8	B-AC9	B-AC10	B-AC11	B-AC12	B-AC13	B-AC14	B-AC15	B-AC16	B-DC1	B-DC2	B-DC3	B-DC4	B-DC5	B-DC6	B-DC7	B-DC8	B-DC9	B-DC10	B-DC11	B-DC12	B-DC13	B-DC14	B-DC15	B-DC16	B-Ph1	B-Ph2	B-Ph3	B-Ph4	B-Ph5	B-Ph6	B-Ph7	B-Ph8	B-Ph9	B-Ph10	B-Ph11	B-Ph12	B-Ph13	B-Ph14	B-Ph15	B-Ph16	aux-1	digaux	

766.894	1	1	0	256	0.050912	0.02773	0.10558	0.33761	0.11462	0.11357	0.23153	0.12388	0.093223	0.15158	0.27726	0.17132	0.090305	0.28432	0.062176	0.40115	-2.6583	-2.9583	-3.2062	-2.9542	-2.8937	-3.0396	-3.2313	-3.0563	-3.1688	-2.8771	-3.0479	-3.2458	-2.7271	-3.2417	-2.9625	-2.9042	131.032	-48.124	-48.696	-109.228	60.502	-78.930	169.862	108.442	63.595	91.267	149.795	196.640	-77.227	-125.508	-14.691	-112.750	0.00027074	0.00030996	0.0001134	1126.8	4.742e-06	4.8489e-06	1133.1	286.78	2.3803e-06	4.619e-06	358.24	121.47	105.91	36.419	3.8948e-06	45.262	0.00045053	0.00052883	0.00014628	1135.3	5.7821e-06	5.5215e-06	1144.3	291.61	5.2706e-06	5.5556e-06	363.58	124.39	107.96	37.197	5.3008e-06	46.369	-99.543	-34.593	-44.616	-125.741	-10.768	-19.100	-125.991	-121.448	11.610	6.414	-121.538	-117.529	-116.847	-112.070	13.854	-112.816	-8191	255	
766.990	1	1	0	0	0.20024	0.1856	0.098757	0.15261	0.062414	0.22817	0.035205	0.22951	0.19277	0.1289	0.25639	0.026452	0.17581	0.24573	0.2915	0.29765	-2.9062	-2.7042	-3.1292	-3.0792	-3.1292	-3.2354	-3.2354	-3.0979	-3.2833	-2.9646	-3.2167	-3.2604	-3.0917	-3.2313	-3.1063	-2.925	174.235	-77.548	101.373	160.790	44.147	29.357	64.576	88.940	55.450	-138.335	-122.652	-86.322	167.711	-25.118	-128.100	197.940	0.00027365	0.0004275	0.00012414	1125.4	3.5715e-06	4.4173e-06	1129.4	289.3	2.8295e-06	3.4971e-06	359.24	122.85	106.53	37.013	3.0994e-06	45.402	0.00042123	0.00048295	0.00013068	1133.7	5.0711e-06	4.8618e-06	1143.1	293.65	4.5e-06	4.7575e-06	364.39	125.76	109.14	37.629	4.6336e-06	46.553	-97.491	-59.778	-60.951	-125.629	10.015	14.673	-125.859	-121.107	3.450	3.270	-121.529	-117.601	-116.575	-112.214	20.347	-112.682	-8191	255	
767.087	1	1	0	0	0.098902	0.24279	0.12374	0.04187	0.17834	0.2931	0.24456	0.1289	0.21216	0.10843	0.31077	0.17829	0.33516	0.18287	0.15658	0.09502	-2.6688	-2.9417	-2.9708	-3.4271	-2.7646	-2.9437	-3.2333	-2.8708	-3.1083	-2.9292	-2.9104	-3.3187	-2.7292	-2.9021	-3.2479	-2.7792	-15.693	99.250	-61.753	205.046	-13.419	161.306	85.256	208.846	-35.970	-128.992	-97.237	176.085	-54.226	-83.370	134.825	91.671	0.0002692	0.00043291	0.00010762	1111.7	3.6777e-06	4.1343e-06	1119.4	285.17	1.4372e-06	3.4661e-06	355.03	120.2	104.41	35.802	2.0677e-06	44.752	0.00038543	0.00040845	0.00011714	1122.9	4.8006e-06	4.6748e-06	1131.3	290.27	4.5535e-06	4.8066e-06	360.34	123.25	106.88	36.657	4.9707e-06	45.645	-101.929	-71.611	-39.346	-125.685	-1.148	-7.094	-125.560	-121.100	5.344	21.181	-121.340	-117.244	-116.802	-112.141	-2.508	-112.657	-8191	255	
767.183	1	1	0	0	0.10618	0.21168	0.16737	0.18456	0.18708	0.17131	0.16396	0.31726	0.070742	0.19654	0.16117	0.20941	0.19083	0.2613	0.20213	0.27124	-2.7375	-2.8083	-2.9146	-3.2708	-2.8479	-3.0875	-3.175	-3	-3.2062	-3.0354	-2.9604	-3.325	-3.0354	-3.1833	-3.15	-3	-64.400	-113.277	-124.116	132.237	-97.036	-92.628	192.057	182.346	55.048	210.308	-108.044	119.076	-121.983	197.350	172.486	134.701	0.00026797	0.00027563	0.00012468	1113	2.5645e-06	3.8737e-06	1119.5	282.71	2.6179e-06	5.6188e-06	352.86	119.72	103.72	35.526	4.5991e-06	44.264	0.00042296	0.00048682	0.00014461	1122.8	5.4693e-06	5.5533e-06	1131.5	288.34	5.7086e-06	5.8548e-06	358.85	122.3	106.2	36.424	5.769e-06	45.325	-101.410	-59.309	-35.519	-125.503	9.396	1.883	-125.863	-121.207	2.477	4.846	-121.409	-117.408	-116.679	-112.074	10.987	-112.872	-8191	255	
767.303	1	1	0	0	0.062758	0.08612	0.12541	0.17357	0.22712	0.20895	0.15388	0.1508	0.080838	0.029611	0.15224	0.12561	0.062857	0.14412	0.16116	0.23029	-2.8333	-3.0375	-2.7042	-3.4646	-2.9604	-2.9771	-3.3125	-2.8688	-3.2792	-3.0292	-3.0292	-3.3542	-3.1312	-3.0083	-3.3771	-2.7771	40.321	125.845	199.598	219.620	143.277	32.919	136.033	145.933	30.117	131.414	9.602	-125.627	24.425	152.004	94.233	-65.260	0.0002834	0.00035374	0.00012912	1114.9	4.1298e-06	4.6693e-06	1119.2	282.06	1.8445e-06	3.0036e-06	349.27	118.53	102.56	35.437	3.8874e-06	43.791	0.00046394	0.0005489	0.00016028	1123.7	5.9768e-06	6.116e-06	1132	286.19	5.931e-06	6.0551e-06	355.43	121.36	105.24	36.193	5.7591e-06	45.044	-102.050	-48.906	-34.087	-125.670	-5.495	15.789	-125.753	-121.082	-1.509	21.936	-121.552	-117.500	-116.514	-111.928	12.998	-112.736	-8191	255	
767.375	1	1	0	0	0.25197	0.2104	0.13635	0.21382	0.21198	0.11216	0.18057	0.29043	0.09367	0.024023	0.17086	0.12491	0.18782	0.26533	0.29356	0.14916	-2.6792	-2.9354	-2.9938	-3.2917	-3.0125	-3.1125	-3.4125	-3.0167	-2.9125	-3.1021	-2.975	-3.3771	-2.9854	-2.825	-3.2792	-2.8396	-101.858	81.398	173.775	181.671	11.691	213.708	196.359	204.615	33.797	-119.307	180.364	157.650	184.872	-117.356	156.276	-84.049	0.00028502	0.00033901	0.00010037	1107.6	3.6032e-06	4.8495e-06	1108.9	277.88	1.5147e-06	3.9486e-06	347.38	117.36	102.1	35.016	4.6848e-06	43.771	0.00047336	0.00055045	0.00016033	1117.3	6.2954e-06	6.5575e-06	1122.2	282.96	6.2195e-06	6.4682e-06	352.79	120.5	104.44	35.867	5.964e-06	44.704	-103.777	-47.008	-18.937	-125.441	18.172	3.150	-125.800	-121.091	-3.837	39.030	-121.631	-117.213	-116.656	-111.970	0.996	-112.760	-8191	255	
767.471	1	1	0	0	0.087222	0.10093	0.009133	0.1175	0.36395	0.25391	0.15219	0.31747	0.24906	0.1773	0.19308	0.28345	0.085303	0.27347	0.17125	0.27158	-2.7062	-3.125	-2.9021	-3.1583	-2.9188	-2.7812	-3.3375	-3.0104	-3.0458	-3.1271	-2.8375	-3.3458	-3.125	-3.0187	-3.2521	-3.0062	-99.797	-66.539	-25.248	9.805	-8.645	-113.033	209.182	-134.703	-49.370	78.857	18.225	179.355	-68.944	-100.459	5.237	47.493	0.00028107	0.00030923	0.00011763	1102.9	3.679e-06	4.1369e-06	1102.9	277.63	3.2478e-06	2.9154e-06	347.83	117.17	101.66	35.024	3.5515e-06	43.717	0.00048656	0.00059493	0.00016889	1110.6	6.4469e-06	6.6707e-06	1116.3	282.35	6.1864e-06	6.2684e-06	352.27	120.29	104.2	35.816	6.1331e-06	44.728	-103.337	-66.326	-57.899	-125.792	17.934	0.714	-125.825	-121.209	0.727	46.411	-121.335	-117.174	-116.592	-111.866	27.743	-112.332	-8191	255	
767.592	1	1	0	0	0.089902	0.17668	0.11004	0.2542	0.12919	0.20711	0.29201	0.24181	0.19273	0.16744	0.13999	0.25085	0.075842	0.12212	0.19968	0.25566	-2.6708	-3.0312	-2.6625	-3.2271	-3.3083	-2.9792	-3.2854	-3.1271	-2.9146	-3.1958	-2.8063	-3.25	-3.15	-2.8875	-3.0542	-3.0042	120.972	-41.322	-114.460	135.850	169.846	56.110	116.933	-132.129	45.282	119.963	184.501	165.947	-119.232	-127.121	21.510	156.546	0.00026715	0.00054891	0.00010414	1102.4	5.1047e-06	5.5106e-06	1106.5	277.87	2.5611e-06	4.1777e-06	346.93	117.6	102.46	35.178	3.3788e-06	44.063	0.00047662	0.00057399	0.00016814	1111.3	6.3153e-06	6.5348e-06	1119.4	282.45	6.0365e-06	6.1016e-06	353.23	120.5	104.48	36.033	5.8713e-06	44.97	-99.700	-68.437	-33.168	-125.448	16.575	19.647	-125.769	-121.238	19.761	48.610	-121.484	-117.338	-116.537	-112.303	18.408	-112.486	-8191	255	
767.688	1	1	0	0	0.17804	0.25849	0.15541	0.093458	0.16712	0.26432	0.19886	0.11098	0.22635	0.025472	0.24245	0.17581	0.13882	0.17783	0.060157	0.2025	-2.4437	-3.25	-2.7479	-3.1688	-2.9917	-2.8458	-3.2479	-3.1437	-2.8438	-3.3646	-2.9208	-3.2479	-3.4417	-2.6708	-3.1417	-3.0438	210.549	203.416	193.859	212.809	151.947	174.249	154.888	181.724	-107.882	-99.508	159.634	37.430	152.544	-1.589	130.991	183.115	0.00025021	0.00044699	9.6611e-05	1101.7	4.9999e-06	4.9591e-06	1110.8	277.48	1.492e-06	4.7348e-06	347.69	116.78	101.75	34.955	5.4016e-06	43.662	0.00047268	0.00055499	0.00016047	1111.8	6.0138e-06	6.0929e-06	1121.3	282.32	6.1192e-06	5.8953e-06	351.95	120.03	104.1	35.773	6.1136e-06	44.668	-101.758	-42.523	-24.181	-125.459	18.467	4.012	-125.715	-121.197	-44.848	11.316	-121.164	-117.119	-116.245	-111.987	-1.147	-112.809	-8191	255	
767.784	1	1	0	0	0.12507	0.17723	0.25273	0.17676	0.14318	0.16513	0.15727	0.20616	0.23474	0.21275	0.14964	0.081646	0.117	0.40383	0.12736	0.074056	-2.4771	-3.3583	-2.925	-3.2146	-3.1896	-2.6063	-3.3563	-3.0187	-2.9667	-3.3833	-2.9083	-2.9646	-3.4875	-2.7062	-3.2	-3.1125	-123.227	213.638	40.923	186.033	87.693	18.722	181.051	212.116	-61.226	-133.493	-131.049	-77.806	171.018	93.179	144.126	-38.146	0.00027453	0.00031756	0.0001361	1098.8	4.4809e-06	2.891e-06	1099.5	276.38	2.943e-06	3.2904e-06	343.5	115.97	101.02	34.599	3.4846e-06	43.228	0.0004901	0.00057191	0.00016301	1105.7	6.2415e-06	6.5575e-06	1112	280.85	6.4054e-06	6.4499e-06	349.28	119.3	103.46	35.494	6.4083e-06	44.352	-100.083	-71.263	-63.503	-125.528	6.040	20.184	-125.729	-121.003	-21.862	45.859	-121.252	-117.212	-116.811	-111.873	47.539	-112.579	-8191	255	
767.903	1	1	0	0	0.1809	0.13959	0.12548	0.41383	0.20402	0.23371	0.30507	0.26063	0.12924	0.18743	0.025513	0.18783	0.10252	0.074681	0.099212	0.066994	-2.4083	-3.0042	-2.9417	-2.9813	-3.1583	-2.8271	-3.2687	-2.9833	-2.8729	-3.1292	-3.0979	-2.8979	-3.3333	-2.8896	-3.0458	-3.0979	139.848	44.313	83.210	178.867	-33.289	171.461	128.604	134.838	-97.760	-5.916	-87.986	196.202	-31.021	87.156	28.928	65.384	0.00026521	0.00057431	8.0053e-05	1089.9	4.3586e-06	4.5194e-06	1098.5	276.02	3.3943e-06	4.836e-06	343.02	117.08	101.21	34.7	5.7699e-06	43.395	0.00049549	0.00059962	0.00017368	1102.4	6.5251e-06	7.0108e-06	1111.4	280.4	6.8695e-06	6.9715e-06	349.54	119.42	103.43	35.575	6.7923e-06	44.546	-104.612	-58.257	-42.800	-125.584	7.655	32.791	-125.703	-121.184	4.867	15.691	-121.585	-117.318	-116.562	-112.074	7.953	-112.827	-8191	255	
767.975	1	1	0	0	0.16758	0.20767	0.035682	0.14639	0.2816	0.072356	0.22779	0.2889	0.12261	0.047342	0.25848	0.028966	0.10779	0.33298	0.083222	0.11391	-2.5292	-3.0021	-3.0187	-3.0333	-3.2208	-2.8292	-3.2438	-3.0708	-3.0792	-3.2396	-3.2062	-3.0292	-3.2562	-3.0875	-3.0604	-3.3896	221.052	219.300	37.045	201.596	19.122	213.147	174.310	145.574	171.932	-121.256	118.162	-122.995	187.276	205.055	209.274	-109.232	0.00026382	0.00037426	0.00013084	1094.5	3.7028e-06	4.6679e-06	1099.9	277.5	2.4957e-06	5.1253e-06	346.03	117.32	101.6	34.986	4.9378e-06	43.82	0.00051311	0.00063332	0.00017696	1105.2	6.3955e-06	6.5564e-06	1114.8	281.86	6.0677e-06	6.323e-06	351.76	120.17	104.22	35.866	6.0917e-06	44.893	-104.991	-69.580	-42.351	-125.703	12.508	-9.392	-125.637	-120.766	-10.511	12.911	-121.395	-117.168	-116.741	-112.168	4.760	-112.868	-8191	255	
768.073	1	1	0	0	0.09402	0.29558	0.15308	0.19113	0.29512	0.14651	0.34531	0.21857	0.021706	0.1212	0.14741	0.061648	0.24148	0.23711	0.12951	0.14597	-2.2854	-3.075	-2.9604	-3.0771	-3.1813	-2.7354	-3.2479	-3.0125	-2.8625	-3.0958	-3.0417	-2.9375	-3.1604	-3.1917	-2.7521	-3.2625	183.034	-123.525	-82.310	128.340	-52.806	-29.673	194.110	162.449	58.936	-114.475	208.366	188.042	106.933	63.855	-82.547	-124.588	0.00028292	0.00054288	0.00016026	1096.3	3.0419e-06	4.1499e-06	1106.1	277.09	2.4805e-06	3.0584e-06	345.81	116.89	101.47	34.973	3.9524e-06	43.647	0.00048185	0.0005695	0.00015461	1106.6	6.1036e-06	6.4535e-06	1115.6	282.01	6.3548e-06	6.5071e-06	351.35	119.9	104.02	35.744	6.6063e-06	44.74	-100.683	-53.476	-56.548	-125.628	4.437	11.678	-125.687	-121.083	-13.365	20.871	-121.588	-117.008	-116.531	-112.151	-9.010	-112.976	-8191	255	
768.191	1	1	0	0	0.18475	0.18515	0.39865	0.17836	0.24771	0.10463	0.026528	0.021734	0.23933	0.27037	0.20067	0.18061	0.079778	0.18944	0.025807	0.3224	-2.4208	-3.0271	-2.975	-2.9229	-3.0563	-2.9542	-2.8812	-3.2042	-2.7	-3.1333	-3.1792	-2.8271	-3.3604	-2.9562	-2.9917	-3.2729	-13.731	189.870	140.645	188.949	93.822	-45.656	-127.277	-27.396	107.643	139.593	104.756	142.565	171.628	137.934	-29.375	151.912	0.00028071	0.00044097	0.00011166	1096.7	3.2057e-06	6.5828e-06	1108.2	275.93	3.2654e-06	5.6454e-06	345.23	116.57	101.46	34.94	3.0065e-06	43.424	0.00051443	0.00064419	0.00017751	1109	6.8631e-06	7.2932e-06	1120.9	281.33	6.9698e-06	7.4057e-06	350.86	119.55	103.82	35.709	7.2421e-06	44.506	-102.301	-49.640	-59.848	-125.645	14.127	-9.781	-125.708	-120.968	4.269	22.280	-121.503	-117.108	-116.531	-112.110	12.725	-112.516	-8191	255	
768.288	1	1	0	0	0.19118	0.20352	0.078312	0.21649	0.20632	0.24215	0.21221	0.17676	0.22114	0.16463	0.13666	0.35776	0.068837	0.035492	0.18534	0.2595	-2.4354	-2.9479	-3.025	-2.6833	-3.1708	-2.9979	-2.9562	-3.3458	-2.9354	-2.9042	-3.1562	-2.7396	-3.375	-3.0333	-2.8292	-3.3396	82.885	49.446	70.047	198.572	115.413	46.624	211.706	-109.315	165.596	-39.260	-76.523	215.913	201.342	198.494	201.143	114.619	0.00025884	0.00067323	0.00014884	1099.7	3.7879e-06	4.1737e-06	1104.4	276.45	2.9093e-06	3.9993e-06	342.98	117.02	101.16	34.85	3.7165e-06	43.346	0.0005478	0.00071058	0.00019515	1111.2	7.6013e-06	7.9864e-06	1118	281.17	7.5161e-06	7.7297e-06	350.16	119.73	103.77	35.646	7.1708e-06	44.584	-96.418	-58.341	-29.127	-125.549	31.509	22.652	-125.712	-121.311	-19.617	25.211	-121.621	-117.169	-116.672	-111.988	15.275	-112.536	-8191	255	
768.384	1	1	0	0	0.17742	0.071509	0.11983	0.24207	0.23445	0.021658	0.33877	0.13699	0.087219	0.094189	0.2985	0.15849	0.16852	0.19667	0.13981	0.20099	-2.3979	-2.8104	-3.15	-3.0021	-3.1646	-2.9938	-3.1833	-3.1083	-3.0708	-2.7708	-3.3167	-2.9917	-3.3708	-3.0583	-2.8771	-3.3312	26.512	50.112	50.738	198.160	139.118	97.482	157.955	-126.136	128.412	-136.479	84.288	216.014	82.597	-64.972	4.784	117.316	0.00025754	0.00046294	0.00016777	1101.2	3.4085e-06	6.7785e-06	1105.3	276.07	2.311e-06	4.2403e-06	347.6	117.58	102.09	35.139	4.3354e-06	43.868	0.00052849	0.00065889	0.00017783	1110.1	6.8238e-06	6.8335e-06	1117.5	281.86	6.6642e-06	7.0002e-06	352.24	120.03	104.17	35.867	6.4367e-06	44.871	-98.564	-41.195	-50.646	-125.784	-18.543	9.926	-125.824	-121.128	12.199	1.902	-121.579	-117.001	-116.554	-111.864	-15.787	-112.745	-8191	255	
768.504	1	1	0	0	0.080508	0.13463	0.088298	0.25808	0.16259	0.16732	0.32074	0.069968	0.026424	0.35535	0.13833	0.16713	0.1875	0.20585	0.2328	0.1628	-2.5021	-2.8854	-3.1771	-2.8604	-3.2021	-3.0979	-2.8417	-3.1688	-2.8979	-3.0042	-3.1646	-3.0062	-2.8917	-3.1271	-2.8958	-3.3063	-27.520	-135.064	-40.001	165.260	180.518	-75.861	183.580	27.849	124.364	78.736	-99.957	-122.469	52.654	-117.134	-34.906	-84.781	0.00027938	0.00023243	0.00015144	1095.9	2.7372e-06	4.5059e-06	1100.8	278.08	2.7416e-06	2.0656e-06	346.83	116.96	102.25	35.227	3.8912e-06	43.803	0.00050108	0.00060871	0.0001578	1106.5	6.4028e-06	6.4206e-06	1115.8	282.51	6.0388e-06	6.2344e-06	352.67	120.01	104.46	35.971	6.1999e-06	44.876	-105.624	-74.149	-46.579	-125.615	20.892	7.430	-125.604	-121.067	8.799	52.203	-121.577	-117.315	-116.456	-112.011	-15.366	-112.716	-8191	255	
768.601	1	1	0	0	0.15129	0.030269	0.040166	0.2805	0.243	0.20395	0.31867	0.26211	0.016953	0.17792	0.16866	0.13169	0.22057	0.27442	0.17816	0.1823	-2.4146	-2.975	-3.0208	-3.0958	-3.0833	-3.0833	-3.1083	-3.3229	-2.8958	-2.75	-3.3979	-2.9188	-2.9062	-3.2979	-2.7604	-3.125	-91.142	35.492	-97.230	193.047	182.864	114.051	135.493	109.565	214.874	-48.805	207.129	198.115	117.531	-120.922	90.337	154.298	0.00026506	0.00050877	8.9342e-05	1099.5	3.4285e-06	4.8732e-06	1102.1	276.86	2.7448e-06	3.5578e-06	348.38	117.49	102.31	35.052	4.4985e-06	44.092	0.00046383	0.00058714	0.00015142	1108.8	5.9021e-06	6.0665e-06	1115.7	282.11	5.9579e-06	6.2755e-06	353.26	120.2	104.51	35.927	6.3191e-06	44.944	-97.063	-29.945	-40.487	-125.642	31.573	11.233	-125.752	-121.231	-5.817	-1.625	-121.446	-117.387	-116.318	-112.132	11.048	-112.660	-8191	255	
768.672	1	1	0	0	0.24238	0.14874	0.14433	0.22132	0.34844	0.11997	0.31127	0.096626	0.22023	0.080444	0.12857	0.27831	0.099547	0.17649	0.0045672	0.13941	-2.8229	-2.5979	-3.2	-2.9833	-2.8104	-3.4813	-2.8479	-3.1896	-3.2167	-2.7042	-3.3625	-3.1	-2.9437	-3.2833	-2.6021	-3.2167	-79.172	36.604	-137.220	164.063	-51.828	-52.318	139.297	189.853	32.116	170.628	143.042	211.547	148.363	-44.357	94.301	54.850	0.00028163	0.00049375	0.00014562	1096.2	2.6103e-06	4.3255e-06	1100	277.44	2.9853e-06	4.8535e-06	346.89	117.91	101.66	35.121	3.6676e-06	43.792	0.00046536	0.00057999	0.00015764	1106.4	6.0832e-06	6.0018e-06	1114.2	282.32	6.0057e-06	6.3937e-06	352.14	120.22	104.15	35.843	6.3609e-06	44.74	-99.536	-45.263	-38.646	-125.598	30.576	6.538	-125.756	-121.128	6.780	27.954	-121.480	-117.021	-116.641	-112.033	-6.763	-112.875	-8191	255	
768.768	1	1	0	0	0.20307	0.37269	0.062259	0.10235	0.21343	0.084801	0.34707	0.026956	0.25195	0.14473	0.066077	0.095476	0.089557	0.18155	0.33069	0.08196	-2.5958	-2.7104	-3.2354	-2.9708	-3.0125	-2.9917	-3.025	-3.2125	-3.025	-2.8021	-3.0917	-3.1063	-3.0312	-3.2792	-2.8979	-2.9771	145.171	-14.639	123.632	-92.785	12.919	33.032	176.401	-129.270	68.345	75.144	217.309	87.174	195.514	-60.725	-118.003	4.185	0.00026367	0.00040203	9.7826e-05	1094.6	1.794e-06	4.6953e-06	1100.6	276.7	2.6756e-06	5.4012e-06	345.47	117.13	101.45	35.086	5.3721e-06	43.64	0.00048169	0.00061944	0.00016378	1103.9	6.3032e-06	6.6599e-06	1113.3	281.44	6.1585e-06	6.6821e-06	351.39	119.77	103.86	35.817	6.3978e-06	44.701	-97.708	-47.387	-19.920	-125.645	-25.801	-3.382	-125.712	-121.116	3.680	38.932	-121.500	-117.195	-116.538	-112.037	-1.654	-113.083	-8191	255	
768.864	1	1	0	0	0.20308	0.31061	0.23866	0.1484	0.13623	0.22827	0.35078	0.099623	0.2605	0.23957	0.139	0.078652	0.49467	0.1393	0.080874	0.02912	-2.9271	-2.8563	-3.1479	-2.9854	-2.7896	-3.2875	-2.9958	-2.8937	-2.9604	-2.9938	-3.1479	-3.1604	-2.9292	-3.2375	-2.8083	-3.0083	-1.048	-53.242	10.496	-17.277	30.615	-2.965	173.959	175.015	-119.723	213.407	-79.986	-16.338	215.120	213.215	-63.459	129.245	0.00026574	0.00044032	0.00011549	1087.6	3.575e-06	1.9987e-06	1096.4	276.44	1.4689e-06	3.766e-06	345.86	117.19	101.19	34.875	5.1518e-06	43.601	0.00047866	0.00061963	0.0001683	1101	6.6975e-06	6.875e-06	1109.7	281.2	6.3496e-06	6.8581e-06	350.32	119.67	103.58	35.723	6.6542e-06	44.579	-102.963	-35.930	-52.213	-125.588	-2.465	0.529	-125.710	-121.094	-13.679	22.993	-121.550	-117.213	-116.641	-112.130	-5.898	-112.667	-8191	255	
768.983	1	1	0	0	0.11906	0.11287	0.1775	0.16599	0.10112	0.16774	0.18986	0.074804	0.17296	0.17858	0.12608	0.19397	0.092029	0.30075	0.14462	0.093201	-2.6875	-2.8667	-2.925	-3.1542	-2.8	-3.1958	-3.1542	-3.0187	-3.1729	-2.8896	-3.0708	-3.3083	-2.9729	-3.3354	-2.85	-3.0375	-60.092	32.817	121.990	219.726	-134.794	-101.512	149.671	49.535	-7.670	161.354	160.311	139.799	70.338	184.459	114.972	99.969	0.00027212	0.00023903	0.00011944	1089.6	1.5225e-06	2.0476e-06	1096.7	277.03	2.5133e-06	6.5638e-06	344.86	116.69	100.64	34.765	2.9098e-06	43.44	0.00050993	0.00066629	0.00018274	1101.9	6.9554e-06	7.1116e-06	1110.2	281.13	6.65e-06	7.5736e-06	349.68	119.39	103.39	35.648	6.9349e-06	44.533	-103.123	-28.350	-27.977	-125.528	22.122	-52.981	-125.768	-121.019	-7.331	14.030	-121.504	-117.223	-116.828	-112.055	-7.192	-112.771	-8191	255	
769.080	1	1	0	0	0.13415	0.013646	0.22183	0.32237	0.20355	0.21472	0.11052	0.13847	0.23775	0.15539	0.12327	0.20423	0.11933	0.089777	0.28779	0.21755	-2.7479	-2.9458	-3.0646	-3.4083	-2.7354	-3.2146	-3.1562	-2.8521	-3.2667	-2.8396	-3.2208	-3.1875	-2.8937	-3.0792	-2.9479	-2.8875	97.642	135.869	-133.386	128.813	35.299	-28.572	-20.396	-93.577	57.248	144.368	172.562	123.714	69.626	-108.240	35.193	-117.250	0.0002729	0.0003731	0.00014475	1089.6	3.3838e-06	5.65e-06	1095	274.74	3.401e-06	4.7325e-06	342.9	115.76	100.16	34.665	4.3818e-06	43.21	0.00051907	0.00068824	0.00019756	1100	7.5018e-06	7.6118e-06	1106.5	279.35	7.2848e-06	7.6816e-06	347.44	118.61	102.91	35.444	6.9633e-06	44.304	-101.666	-50.298	-38.881	-125.696	9.268	27.031	-125.562	-120.938	-23.590	26.441	-121.540	-117.097	-116.659	-111.932	15.910	-112.804	-8191	255	
769.176	1	1	0	0	0.049213	0.101	0.052308	0.11873	0.087572	0.041201	0.086863	0.17161	0.13892	0.27757	0.26852	0.43261	0.050251	0.25499	0.13174	0.25938	-2.8729	-3.0771	-3.1521	-3.1479	-2.6646	-3	-3.175	-2.8583	-3.1042	-3.0292	-2.9708	-3.1562	-2.7188	-3.1083	-3.0521	-3	-34.450	71.451	70.144	120.585	9.576	41.789	101.640	145.828	6.764	29.962	-127.453	189.407	-100.424	-36.166	58.351	-95.770	0.00025777	0.00038071	8.8442e-05	1082.8	4.2433e-06	2.2946e-06	1087.1	273.21	3.944e-06	3.5306e-06	339.85	114.86	99.68	34.445	3.7407e-06	43.109	0.00051671	0.0006952	0.00019085	1094	7.5601e-06	7.6495e-06	1098.5	277.82	7.1935e-06	8.2303e-06	345.2	117.69	102.27	35.204	7.4246e-06	44.016	-100.765	-71.229	-43.511	-125.859	15.369	-3.761	-125.610	-120.903	20.263	4.551	-121.610	-117.206	-116.394	-112.014	-26.769	-112.770	-8191	255	
769.272	1	1	0	0	0.15084	0.21867	0.15082	0.18051	0.19252	0.2011	0.22239	0.15482	0.19157	0.15541	0.19866	0.086185	0.2252	0.20091	0.12819	0.1604	-2.725	-3.0375	-2.9042	-3.3417	-2.9917	-2.9479	-3.2479	-2.8708	-3.1271	-3.1958	-2.8167	-3.3896	-2.7917	-3.0146	-3.1	-2.8292	19.197	-30.524	-70.891	-114.583	-37.653	-64.646	161.106	122.731	175.349	33.426	-82.821	-9.792	195.054	-111.302	180.140	94.157	0.00025929	0.00051639	0.00013367	1084.3	5.168e-06	4.8625e-06	1082.6	271.85	2.445e-06	4.1095e-06	338.04	114.11	98.874	34.261	4.5148e-06	43.084	0.00056059	0.00074727	0.00020634	1091.5	8.1239e-06	8.1551e-06	1096.2	276.8	7.8203e-06	8.2994e-06	344.36	117.27	101.78	35.084	7.8704e-06	43.982	-102.689	-26.361	-62.872	-125.542	21.650	18.815	-125.775	-120.983	-5.542	51.243	-121.457	-117.464	-116.583	-111.923	32.789	-112.528	-8191	255	
769.368	1	1	0	0	0.27582	0.2691	0.067629	0.20247	0.13214	0.099382	0.24261	0.084164	0.13599	0.12454	0.059723	0.23327	0.1395	0.34434	0.14506	0.1339	-2.625	-3.1646	-2.6813	-3.1771	-2.9208	-3.0542	-3.3146	-2.7146	-3.1104	-2.975	-2.9938	-3.3104	-2.8812	-2.9792	-3.3292	-2.9729	68.557	163.511	1.537	176.330	85.460	99.691	125.904	137.424	-41.164	149.723	150.231	217.920	87.590	192.059	-121.876	-136.698	0.00025633	0.00036923	0.00015296	1076.1	3.7425e-06	3.9586e-06	1080	271.31	2.1288e-06	4.0977e-06	337.54	114.49	98.943	34.346	4.8401e-06	42.587	0.00056597	0.00072281	0.00020793	1086.8	8.0243e-06	7.8144e-06	1093.5	276.37	7.4622e-06	7.6255e-06	343.54	117.2	101.56	35.051	7.4012e-06	43.754	-99.360	-71.417	-45.989	-125.294	8.366	-7.009	-125.739	-120.999	28.452	27.660	-121.371	-117.218	-116.544	-111.903	29.394	-112.531	-8191	255	
769.464	1	1	0	0	0.16851	0.089671	0.037883	0.28124	0.031427	0.13041	0.043565	0.09256	0.12445	0.090381	0.31863	0.029074	0.11018	0.11983	0.039733	0.11308	-2.7583	-3.325	-2.6896	-3.4958	-2.85	-2.9271	-3.4604	-2.8646	-3.025	-2.9208	-2.9625	-3.2271	-3.0875	-3.0938	-3.3312	-3.0625	213.859	176.724	161.217	202.181	-123.751	95.731	109.431	141.772	-51.507	-75.017	-132.747	-74.641	161.861	199.515	68.424	-62.830	0.00025158	0.00041326	0.00014827	1071.4	4.2989e-06	3.8773e-06	1072.7	270.84	3.0083e-06	3.5836e-06	337.99	113.83	99.207	34.278	3.2406e-06	42.579	0.00052052	0.00066402	0.0001989	1081	7.0113e-06	7.1649e-06	1088.2	275.83	7.0459e-06	7.1848e-06	342.98	116.86	101.48	35.06	6.9923e-06	43.845	-102.527	-45.601	-33.331	-125.695	-11.494	56.184	-125.644	-121.154	-19.059	5.585	-121.533	-117.183	-116.451	-111.992	19.593	-112.874	-8191	255	
769.585	1	1	0	0	0.26792	0.066804	0.121	0.25212	0.1332	0.12201	0.2063	0.16669	0.13165	0.22132	0.27733	0.12224	0.14883	0.16935	0.081965	0.16037	-2.6	-3.1521	-2.6375	-3.3875	-2.9979	-3.0375	-3.3396	-3.1479	-3.25	-3.2083	-2.925	-3.15	-3.1375	-2.7896	-3.3604	-3.0833	114.072	130.274	218.182	193.704	-93.553	109.537	183.747	173.523	-5.458	158.234	-76.409	161.480	-9.761	149.164	-135.619	163.376	0.00028656	0.00024563	0.00013429	1068.9	2.1485e-06	4.3342e-06	1074.4	270.33	2.9645e-06	3.9318e-06	338.31	114.09	99.001	34.146	4.0582e-06	42.861	0.00052637	0.00065754	0.00019402	1080.8	6.9472e-06	7.4792e-06	1086.2	275.62	7.0147e-06	7.1638e-06	343.3	117.09	101.5	35.025	7.0825e-06	43.858	-100.849	-44.936	-45.129	-125.435	-5.575	3.975	-125.768	-120.931	-1.777	23.537	-121.284	-117.229	-116.623	-112.077	-9.785	-112.499	-8191	255	
769.681	1	1	0	0	0.22533	0.10904	0.16918	0.14263	0.14651	0.15077	0.17114	0.085635	0.13177	0.16913	0.30882	0.12714	0.17358	0.18284	0.13532	0.14553	-2.7958	-3.1312	-2.65	-3.2021	-3.1208	-3.0438	-3.4104	-3.2333	-3.0146	-3.425	-2.9729	-3.2896	-3.0833	-2.875	-3.1542	-3.1542	171.229	-81.200	-43.438	67.305	212.921	-60.869	153.583	114.938	39.295	11.924	73.321	158.533	-40.889	173.453	187.577	128.766	0.00027278	0.00021618	7.4862e-05	1066.1	2.1775e-06	6.0964e-06	1075	271.2	2.1443e-06	2.8367e-06	336.45	114.48	98.813	34.224	6.5112e-06	42.651	0.00050605	0.0006278	0.0001848	1076.3	6.9836e-06	7.3477e-06	1084.8	275.51	6.8913e-06	6.6799e-06	342.72	117.03	101.38	35.043	6.9264e-06	43.769	-102.085	-59.835	-40.736	-125.438	15.975	-16.167	-125.589	-121.226	-36.709	2.104	-121.205	-117.087	-116.587	-111.904	4.940	-112.659	-8191	255	
769.777	1	1	0	0	0.089941	0.056387	0.10568	0.42639	0.11202	0.077238	0.14057	0.067109	0.12557	0.23601	0.28292	0.21916	0.21636	0.088089	0.223	0.26171	-2.6688	-3.3063	-2.8937	-3.3917	-2.9396	-2.9229	-3.3771	-3.1458	-2.8896	-3.2917	-3.0062	-3.0938	-3.3354	-2.9396	-3.0083	-3.1042	-43.242	100.024	-73.699	218.605	115.450	61.886	-56.652	145.150	49.406	-126.008	151.263	180.443	169.224	50.636	49.453	107.354	0.00026118	0.00044518	0.00011597	1066.4	4.9147e-06	4.5465e-06	1069.5	270.24	2.1929e-06	3.3635e-06	337.1	114.28	98.432	34.354	3.5813e-06	42.721	0.00051495	0.0006265	0.00018109	1077.2	6.6971e-06	7.0437e-06	1082.9	275.41	6.8359e-06	6.9181e-06	342.62	117	101.2	35.062	6.8526e-06	43.86	-100.810	-50.284	-42.282	-125.370	-2.558	10.299	-125.450	-120.909	-9.453	3.564	-121.390	-117.095	-116.474	-111.907	-12.955	-112.606	-8191	255	
769.873	1	1	0	0	0.18909	0.15335	0.22665	0.22055	0.15905	0.17165	0.26463	0.17878	0.014539	0.086104	0.15459	0.25936	0.090638	0.052225	0.12033	0.14796	-2.5021	-3.2854	-3.0458	-3.2167	-3.0875	-2.8396	-3.1771	-3.2625	-2.8104	-3.2021	-3.1729	-2.9	-3.2396	-3.0812	-2.9667	-3.0104	-10.877	-100.960	148.201	162.487	-59.582	216.682	142.957	139.396	-47.476	19.670	111.575	212.173	99.613	19.639	-48.802	-56.865	0.00024641	0.00044923	0.00013596	1065.7	3.9735e-06	6.5773e-06	1069.1	272.37	1.8725e-06	3.9449e-06	337.41	114.51	99.156	34.396	4.3135e-06	42.817	0.00051363	0.00063917	0.00018274	1076.4	6.6844e-06	7.2156e-06	1082.8	275.65	6.7262e-06	6.8392e-06	342.57	117.28	101.56	35.126	6.7344e-06	43.944	-100.472	-49.074	-79.922	-125.497	-0.256	-7.586	-125.455	-121.111	-18.163	1.277	-121.042	-117.184	-116.223	-111.829	17.944	-112.744	-8191	255	
769.968	1	1	0	0	0.037346	0.27404	0.052374	0.29447	0.20488	0.089157	0.066598	0.14326	0.040949	0.062387	0.09406	0.17407	0.12817	0.11671	0.15598	0.061517	-2.4042	-3.1083	-2.7708	-3.1208	-3.075	-2.7354	-3.3146	-3.1708	-2.8667	-3.2146	-2.925	-2.8312	-3.1146	-2.9229	-2.9229	-3.0146	184.520	112.860	17.444	159.794	128.989	1.936	37.027	191.836	208.764	52.133	158.877	92.797	192.830	218.760	-41.868	-42.493	0.00027349	0.00033295	0.00016033	1060.4	3.2103e-06	3.9665e-06	1071.4	271	2.1331e-06	3.0699e-06	336.99	114.44	99.291	34.429	2.8695e-06	42.999	0.00052373	0.00063008	0.00017429	1075.4	6.8316e-06	7.345e-06	1084.4	275.71	6.8804e-06	6.836e-06	342.71	117.04	101.5	35.143	6.8731e-06	43.939	-101.575	-45.528	-47.272	-125.447	-15.410	16.646	-125.634	-120.883	-16.768	25.718	-121.284	-117.207	-116.281	-112.114	-10.926	-112.771	-8191	255	
770.064	1	1	0	0	0.085716	0.16812	0.15427	0.2307	0.1788	0.23148	0.10843	0.17794	0.10543	0.14471	0.24005	0.1454	0.17093	0.076866	0.097929	0.19456	-2.3354	-3.0771	-2.9854	-2.8896	-3.0208	-2.875	-3.3646	-3.2208	-2.7812	-2.9479	-3.1146	-3.1312	-3.1458	-2.975	-3.0271	-3.2417	-101.523	186.220	102.512	-111.537	-25.823	28.845	-127.158	-81.183	-44.538	-30.181	101.702	24.249	199.491	-35.944	-21.713	183.948	0.00027221	0.00033854	0.00013119	1061.1	4.2436e-06	2.9202e-06	1066.8	270.26	2.3036e-06	3.2224e-06	336.87	113.97	99.189	34.234	3.6106e-06	42.939	0.00051948	0.00062336	0.00017958	1074	6.6956e-06	7.0291e-06	1080.4	275.26	6.7574e-06	6.9613e-06	341.71	117.03	101.48	35.059	6.8661e-06	43.862	-99.197	-60.112	-40.437	-125.463	9.134	0.953	-125.791	-120.913	-28.144	28.816	-121.533	-117.310	-116.554	-111.860	3.347	-112.762	-8191	255	
770.160	1	1	0	0	0.097622	0.23665	0.33006	0.19059	0.13505	0.18002	0.11153	0.19734	0.10911	0.086237	0.20217	0.26215	0.058748	0.27779	0.14676	0.11197	-2.2979	-3.2021	-3.0062	-2.9542	-3.1083	-2.9875	-3.1708	-3.3063	-2.9625	-3.1646	-2.9542	-2.9062	-3.3729	-2.9146	-3.1125	-3.4229	-76.917	193.813	143.620	-132.040	-28.957	77.495	117.375	176.977	207.112	190.994	-39.801	-130.926	8.728	202.971	23.355	188.865	0.00025168	0.00043756	0.00014222	1061.3	4.2217e-06	4.7851e-06	1067.6	270.88	3.6398e-06	3.5205e-06	334.71	114.37	98.804	34.089	3.701e-06	42.775	0.00052929	0.0006395	0.0001744	1073.2	6.6849e-06	7.1385e-06	1081.3	275.13	6.7787e-06	7.2124e-06	341.31	117.06	101.3	34.982	6.4502e-06	43.817	-98.972	-37.695	-37.924	-125.369	21.315	21.404	-125.530	-120.941	0.849	6.366	-121.670	-117.431	-116.451	-111.711	6.535	-112.734	-8191	255	
770.281	1	1	0	0	0.15235	0.13601	0.069807	0.3163	0.10046	0.26256	0.18638	0.14891	0.1229	0.2139	0.15284	0.14569	0.090134	0.15495	0.22295	0.35955	-2.3125	-3.1021	-3.1146	-2.9208	-3.125	-2.9854	-3.1979	-3.2938	-2.8104	-3.1063	-3.1375	-2.9188	-3.1229	-2.7687	-2.9646	-3.1521	69.073	88.993	179.827	167.169	-102.421	41.378	154.392	176.733	198.219	125.278	-135.855	-64.561	79.118	156.085	151.677	104.223	0.00026737	0.00028962	0.00010371	1059.6	2.5444e-06	4.3519e-06	1061.4	269.9	2.3591e-06	4.9766e-06	336.35	114	98.929	34.322	3.7178e-06	42.65	0.00050165	0.00059676	0.0001645	1070	6.2687e-06	6.4777e-06	1076.1	274.86	6.1912e-06	6.2528e-06	341.75	116.9	101.35	35.043	6.1435e-06	43.833	-99.094	-66.049	-36.962	-125.413	47.541	25.082	-125.624	-120.944	-7.143	2.913	-121.400	-116.973	-116.517	-111.542	0.270	-112.743	-8191	255	
770.377	1	1	0	0	0.26406	0.060069	0.19128	0.080598	0.10255	0.12162	0.36702	0.34891	0.082988	0.008977	0.18708	0.24057	0.051396	0.11411	0.24149	0.19372	-2.4208	-2.9917	-3.1875	-2.8375	-3.175	-2.8917	-3.0812	-3.2771	-2.8812	-3.0625	-3.1458	-2.8417	-3.2812	-3.0521	-2.9146	-3.2833	53.187	157.824	210.202	92.212	122.907	-134.020	145.950	-131.295	16.117	6.935	219.896	-99.619	-120.100	-79.352	19.057	38.977	0.00025376	0.0005711	0.00014661	1056.8	2.814e-06	4.2153e-06	1061.4	270.6	2.498e-06	3.3378e-06	334.28	113.56	98.943	34.309	4.0786e-06	42.963	0.00046909	0.00057051	0.00015586	1066.8	6.057e-06	5.9872e-06	1072.4	274.37	5.9097e-06	6.0757e-06	340.19	116.43	101.32	35.047	6.2363e-06	43.844	-99.969	-63.025	-50.117	-125.612	20.712	-4.133	-125.537	-121.048	-5.897	-9.491	-121.571	-117.101	-116.260	-112.030	-17.617	-112.583	-8191	255	
770.473	1	1	0	0	0.07369	0.12987	0.10464	0.26702	0.1364	0.10224	0.14713	0.2796	0.097921	0.24755	0.17657	0.12866	0.13644	0.099386	0.19588	0.39887	-2.2646	-2.9125	-2.9771	-2.9292	-3.0104	-3.1063	-3.075	-3.1396	-3.0292	-2.8042	-3.1271	-2.6979	-3.1021	-3.1979	-2.6458	-3.4062	-113.309	58.138	-103.293	206.835	18.996	106.821	110.957	196.223	130.384	176.992	-82.313	150.054	-37.692	24.631	199.582	142.342	0.00026549	0.00057546	0.00014928	1046.3	2.3463e-06	4.5431e-06	1059	268.59	3.2457e-06	4.0503e-06	334.29	114.11	98.89	34.272	3.0889e-06	42.954	0.00047439	0.00056597	0.00015458	1059.8	6.0419e-06	6.2459e-06	1069.6	273.69	5.9877e-06	6.1275e-06	340.34	116.78	101.27	35.096	6.0972e-06	43.953	-100.722	-62.835	-48.676	-125.437	-4.897	-17.108	-125.539	-120.885	4.064	16.508	-121.247	-117.005	-116.442	-112.179	3.818	-112.242	-8191	255	
770.544	1	1	0	0	0.15115	0.12914	0.21867	0.19669	0.15424	0.16576	0.11248	0.04365	0.17289	0.31777	0.17049	0.10117	0.11195	0.14293	0.13555	0.21916	-2.5312	-2.9771	-3.0604	-2.8833	-3.0333	-3.0687	-2.9396	-3.1792	-3.1458	-2.7521	-3.4062	-2.8854	-3.0563	-3.2188	-2.8979	-3.1417	118.166	146.874	211.961	140.590	138.680	108.398	169.799	173.117	-131.610	-1.398	193.379	166.441	147.683	-44.073	91.374	136.486	0.00027468	0.00035268	0.00012996	1046	2.8589e-06	4.3057e-06	1054.7	269.92	2.4596e-06	3.923e-06	335.69	115.03	99.521	34.722	3.884e-06	43.457	0.00045454	0.00055881	0.00014348	1058.3	5.5582e-06	5.5981e-06	1069	274.18	5.307e-06	5.8732e-06	341.52	117.44	101.94	35.375	5.1871e-06	44.334	-101.611	-41.048	-57.226	-125.465	4.391	30.016	-125.506	-121.050	14.281	21.377	-121.432	-117.175	-116.408	-111.879	-13.706	-112.703	-8191	255	
770.665	1	1	0	0	0.1565	0.42116	0.051171	0.17573	0.087542	0.19751	0.38427	0.15206	0.16993	0.14673	0.097131	0.25821	0.16586	0.025212	0.09577	0.32268	-2.525	-2.7771	-3.2375	-2.8646	-3.0083	-3.2333	-2.9813	-3.2104	-2.8937	-2.9521	-3.0042	-3.0833	-2.8396	-3.1562	-2.7687	-3.2792	4.499	22.774	-102.535	184.094	203.532	-36.678	151.625	153.543	99.798	205.074	185.025	169.982	199.131	-77.062	121.272	81.672	0.00024897	0.00047287	0.00017319	1045.4	2.9721e-06	5.2341e-06	1052.5	269.45	2.3395e-06	2.9015e-06	336.42	115.02	99.53	34.546	2.6528e-06	43.303	0.00041823	0.00050036	0.00013039	1058.1	5.1071e-06	5.2326e-06	1066.6	274.04	5.1514e-06	5.4622e-06	342.31	117.45	102.02	35.374	5.2215e-06	44.284	-100.553	-43.692	-52.904	-125.433	18.512	-7.233	-125.408	-120.798	27.094	-20.029	-121.352	-117.234	-116.543	-111.947	-21.397	-112.938	-8191	255	
770.761	1	1	0	0	0.15999	0.14952	0.21991	0.049874	0.23975	0.11327	0.3242	0.3883	0.19229	0.3208	0.067972	0.29281	0.14122	0.045169	0.2479	0.12301	-2.525	-2.9104	-3.1771	-3.0687	-2.9021	-3.2042	-3.0333	-3.1667	-3.0292	-2.6875	-3.2562	-2.9792	-2.9562	-3.3146	-2.8771	-3.0708	116.448	74.468	60.064	109.941	117.716	-112.729	79.041	156.322	-49.534	4.533	97.077	-91.831	214.079	42.400	129.073	173.736	0.00027644	0.0004456	9.5068e-05	1043.5	2.0422e-06	2.5775e-06	1055.3	270.29	3.0725e-06	3.8044e-06	334.19	114.45	99.438	34.707	2.2947e-06	43.173	0.00042817	0.00048111	0.00013575	1055.7	5.2299e-06	5.1626e-06	1065.7	273.98	5.0776e-06	5.2581e-06	341.7	117.39	101.83	35.38	5.2774e-06	44.197	-96.852	-38.802	-56.734	-125.565	-7.283	3.789	-125.230	-120.953	13.831	-23.331	-121.152	-117.117	-116.522	-111.893	22.093	-112.715	-8191	255	
770.857	1	1	0	0	0.15387	0.14397	0.25731	0.12975	0.23034	0.18801	0.16429	0.25599	0.29195	0.1714	0.10865	0.08448	0.26502	0.15953	0.079733	0.18043	-2.8312	-2.7792	-2.8958	-3.0896	-2.8708	-3.2812	-3.1354	-2.9938	-3.175	-2.9542	-3.2354	-3.1312	-2.9083	-3.2979	-2.8333	-3.0458	-5.268	199.213	138.032	173.622	-4.941	-106.640	177.983	158.470	56.564	118.752	207.067	75.319	175.485	164.451	-78.920	85.986	0.00027205	0.00038498	9.2173e-05	1041.3	3.4602e-06	3.9394e-06	1050.3	269.47	3.1688e-06	4.868e-06	336.74	114.26	99.133	34.528	2.5325e-06	43.11	0.00041587	0.00050103	0.00013266	1052.5	5.0692e-06	5.0963e-06	1062.6	273.28	4.9717e-06	5.2899e-06	341.08	117	101.46	35.229	5.1881e-06	44.091	-98.030	-37.103	-51.081	-125.446	-15.268	34.826	-125.294	-120.874	-20.802	28.088	-121.304	-116.836	-116.371	-111.680	43.979	-112.238	-8191	255	
770.954	1	1	0	0	0.11317	0.19836	0.11885	0.15276	0.10586	0.29255	0.12554	0.29093	0.14576	0.04488	0.099247	0.17525	0.26372	0.14592	0.077514	0.23352	-2.8042	-2.7396	-3.1229	-3.2333	-2.8271	-3.1417	-3.0396	-3.0812	-3.0625	-2.8917	-3.0938	-3.0708	-2.8438	-3.1625	-2.8125	-2.8896	49.285	-37.049	-25.579	121.354	-60.756	-123.922	164.155	117.037	210.515	-84.655	-52.533	183.755	-53.441	-133.170	219.843	177.475	0.00027092	0.00047906	0.00010538	1043.4	3.7758e-06	3.082e-06	1052	268.67	2.3805e-06	3.3519e-06	336.29	114.47	99.241	34.322	3.3084e-06	42.793	0.00042573	0.00049504	0.00013342	1051.9	5.3222e-06	5.0779e-06	1062.6	273.06	5.0719e-06	5.5362e-06	341.31	116.9	101.46	35.17	5.3576e-06	43.896	-102.152	-64.327	-40.210	-125.534	16.943	10.175	-125.675	-120.814	6.525	29.368	-121.434	-117.188	-116.293	-111.902	11.902	-112.963	-8191	255	
771.072	1	1	0	0	0.28895	0.28055	0.056134	0.067149	0.20806	0.18809	0.10133	0.071182	0.2021	0.018701	0.17213	0.023291	0.079808	0.076847	0.083889	0.054699	-2.7167	-2.9021	-2.975	-3.1896	-2.7917	-3.2521	-3.1542	-3.0312	-3.2438	-2.8583	-2.8333	-3.275	-2.9021	-3.2	-2.8771	-2.9125	-113.028	44.282	54.202	-95.013	78.563	190.283	72.811	53.595	212.369	-45.715	215.138	151.941	-85.332	-67.861	-16.752	-41.800	0.00026472	0.00057079	0.00010102	1036.7	2.6227e-06	5.5565e-06	1048.9	266.59	2.9596e-06	4.0003e-06	335.56	113.83	98.807	34.259	3.8527e-06	42.777	0.00042024	0.00052231	0.00013789	1050.6	5.5689e-06	5.3517e-06	1060.6	272.27	5.2976e-06	5.6296e-06	340.22	116.43	100.86	35.021	5.4758e-06	43.822	-100.115	-46.364	-37.135	-125.573	32.124	-3.040	-125.492	-121.028	23.663	8.161	-121.206	-117.103	-116.285	-111.904	-27.392	-112.702	-8191	255	
771.146	1	1	0	0	0.15423	0.15686	0.095326	0.42306	0.086512	0.13911	0.24108	0.089245	0.094163	0.22264	0.11196	0.11608	0.33117	0.088641	0.15299	0.15524	-2.8229	-2.8167	-2.9188	-3.2812	-2.7333	-3.2	-3.2521	-2.8021	-3.0771	-2.8271	-3.0479	-3.2438	-2.8542	-3.1458	-3.2188	-2.7521	-128.600	155.370	123.886	160.488	-61.991	-37.715	146.130	62.542	211.305	119.367	-126.182	111.632	211.902	212.229	155.146	-88.648	0.00024534	0.00022267	8.9229e-05	1039.1	3.3758e-06	4.3798e-06	1048.7	267	3.2835e-06	5.2877e-06	332.21	113.07	98.056	34.04	2.9948e-06	42.461	0.00043772	0.00051979	0.00014278	1049.6	5.9127e-06	5.6018e-06	1059	271.59	5.6869e-06	6.1351e-06	337.44	115.83	100.2	34.698	5.8693e-06	43.354	-100.824	-67.459	-40.517	-125.396	42.561	20.413	-125.550	-120.840	3.050	6.223	-121.297	-116.785	-116.322	-111.949	6.872	-112.649	-8191	255	
771.265	1	1	0	0	0.143	0.21455	0.19895	0.23172	0.25503	0.14835	0.16314	0.12764	0.21772	0.076119	0.15514	0.22819	0.096862	0.23398	0.20874	0.018663	-2.7833	-2.7771	-2.9521	-3.2062	-3.075	-3.0312	-3.3542	-2.9313	-3.2917	-3.1875	-2.8604	-3.2	-2.9521	-3.0479	-2.9958	-2.8021	11.463	198.126	127.182	209.941	108.458	-28.964	198.827	87.254	197.434	213.317	173.090	-103.999	-119.965	92.925	-65.159	-102.210	0.00027589	0.00035522	8.4565e-05	1035.2	2.1821e-06	4.2644e-06	1044.8	265.62	2.6506e-06	3.9406e-06	331.35	111.74	97.369	33.607	4.1338e-06	42.202	0.00047041	0.00058632	0.00015872	1046.5	6.4911e-06	6.3122e-06	1056.4	270.4	6.237e-06	6.6907e-06	336.68	114.95	99.786	34.459	6.4447e-06	43.204	-95.741	-52.601	-29.647	-125.461	-8.835	18.878	-125.567	-120.715	-5.800	2.231	-121.304	-117.314	-116.222	-111.746	15.187	-112.510	-8191	255	
771.361	1	1	0	0	0.1113	0.31143	0.09247	0.27563	0.074447	0.22014	0.12073	0.12808	0.085596	0.0087753	0.17733	0.16453	0.060159	0.38515	0.16639	0.24858	-2.6646	-2.9542	-2.8604	-3.2062	-2.7687	-3.1458	-3.3688	-2.75	-3.0896	-3.0583	-2.8875	-3.3438	-3.1312	-3.075	-3.0312	-2.9938	68.537	-3.761	-88.744	181.725	-89.306	-14.678	143.032	-69.023	-90.452	-46.190	-68.417	69.873	96.765	140.300	31.205	-105.577	0.00025449	0.00045509	8.8748e-05	1038.9	3.6159e-06	3.1344e-06	1046	266.47	2.0407e-06	3.0572e-06	330.44	112.04	96.99	33.702	2.2443e-06	42.368	0.00048977	0.0006102	0.0001697	1045.8	6.5023e-06	6.8033e-06	1058.4	270.67	6.2001e-06	6.4515e-06	336.98	114.86	99.62	34.506	6.4253e-06	43.292	-98.540	-60.646	-47.522	-125.457	21.358	23.005	-125.683	-120.762	-7.018	0.482	-121.046	-117.022	-116.392	-111.938	1.911	-112.820	-8191	255	
771.457	1	1	0	0	0.20916	0.072163	0.063451	0.1126	0.12917	0.052799	0.26836	0.35198	0.17986	0.22542	0.0055956	0.049417	0.076322	0.030516	0.09531	0.079074	-2.6271	-3.0271	-2.8125	-3.2	-2.825	-3.05	-3.3479	-3.0271	-3.0312	-3.1167	-2.9938	-3.175	-2.9896	-3.0167	-3.1188	-2.8021	130.511	40.001	-75.210	136.501	61.959	-7.425	190.436	194.591	-26.052	157.787	125.195	-92.864	131.601	28.005	-5.348	-11.309	0.0002603	0.00031446	0.00014175	1035.7	2.4768e-06	4.8077e-06	1040.3	265.22	2.8944e-06	4.6544e-06	330.98	112.29	96.97	33.737	2.7592e-06	42.2	0.00048262	0.00057728	0.00017125	1045.9	6.3926e-06	6.6189e-06	1055.1	270.39	6.2971e-06	6.3133e-06	336.7	114.97	99.441	34.491	6.3545e-06	43.25	-104.159	-16.044	-44.387	-125.607	30.261	7.744	-125.567	-120.855	-5.771	6.882	-121.246	-117.036	-116.561	-111.988	2.970	-112.147	-8191	255	
771.553	1	1	0	0	0.25169	0.064945	0.11627	0.15767	0.13273	0.11821	0.18031	0.11123	0.049757	0.14774	0.13001	0.074535	0.21012	0.16249	0.063657	0.14197	-2.5583	-2.9125	-2.7646	-3.3333	-2.8667	-2.9229	-3.1979	-3.0563	-3.0312	-3.2313	-2.9313	-3.1896	-3.0708	-2.9792	-3.2854	-2.7687	153.803	206.001	-4.523	216.836	-116.218	-129.968	208.640	-135.892	-77.662	139.246	-115.291	177.545	-92.833	206.282	63.057	-122.613	0.00024292	0.00034333	0.00014192	1033.3	2.1173e-06	2.9405e-06	1041.6	266.65	2.1848e-06	4.1852e-06	332.18	111.63	96.889	33.51	3.7169e-06	42.176	0.00048084	0.00061842	0.00017518	1044.2	6.6194e-06	6.9175e-06	1055.1	270.3	6.4863e-06	6.8111e-06	336.87	114.73	99.498	34.43	6.5829e-06	43.252	-102.483	-14.087	-29.298	-125.248	14.275	20.150	-125.620	-120.731	-46.677	24.662	-121.231	-117.273	-116.600	-111.816	7.933	-112.402	-8191	255	
771.674	1	1	0	0	0.15439	0.11784	0.12045	0.099753	0.2426	0.11522	0.29125	0.22543	0.091787	0.12321	0.11966	0.09039	0.19889	0.039269	0.10013	0.27271	-2.7938	-3.1	-2.9354	-3.3646	-2.9313	-2.9521	-3.2354	-3.1104	-2.9396	-3.2562	-3.0187	-2.9896	-3.0896	-2.8833	-3.3708	-3.0083	-48.656	57.531	-36.740	219.923	109.217	153.707	100.781	186.057	48.844	-129.688	75.371	84.687	188.335	50.994	-133.825	-81.138	0.00025459	0.00043959	0.00011574	1033.6	1.2981e-06	4.0602e-06	1040.3	266.37	2.3919e-06	3.5441e-06	332.28	111.77	97.348	33.528	4.1985e-06	42.056	0.00049611	0.00061528	0.00018576	1044.6	6.5358e-06	6.9413e-06	1055.4	270.49	6.6983e-06	6.9532e-06	336.36	114.67	99.413	34.39	6.6307e-06	43.157	-106.710	-41.220	-51.570	-125.448	12.088	-12.109	-125.378	-120.865	-10.828	2.957	-121.531	-116.969	-116.630	-111.877	1.767	-112.488	-8191	255	
771.770	1	1	0	0	0.16874	0.10115	0.081314	0.31315	0.044432	0.091052	0.059579	0.072662	0.10021	0.28522	0.11434	0.22474	0.11253	0.24207	0.26223	0.31311	-2.6625	-3.0062	-2.8083	-3.0583	-3.2	-2.8229	-3.5021	-3.0125	-2.95	-3.1833	-2.9521	-3.0896	-3.1771	-2.8479	-3.0396	-2.9167	-12.066	108.980	134.866	14.084	-7.497	112.226	171.968	107.695	34.898	-28.672	163.189	-58.837	-112.123	-74.993	207.207	77.287	0.00025813	0.00020244	6.8943e-05	1035.2	1.6945e-06	2.2069e-06	1044.5	266.88	2.7816e-06	3.5664e-06	331.52	112	96.393	33.62	4.2376e-06	42.436	0.00051275	0.00063917	0.00017441	1045.7	6.7743e-06	7.0571e-06	1056.1	270.99	6.5861e-06	6.8652e-06	336.81	114.8	99.357	34.455	6.5464e-06	43.207	-101.603	-59.785	-13.523	-125.523	21.053	28.108	-125.539	-120.950	8.593	26.860	-121.381	-116.877	-116.235	-111.819	19.639	-112.578	-8191	255	
771.842	1	1	0	0	0.058541	0.17764	0.27371	0.21537	0.014243	0.072624	0.16986	0.29457	0.12269	0.10162	0.036132	0.16162	0.035558	0.1573	0.18504	0.25908	-2.4458	-3.025	-2.6771	-3.2083	-3.0583	-2.7667	-3.2271	-3.1833	-2.6917	-3.2729	-2.8208	-3.0417	-3.15	-2.6146	-2.8646	-2.9896	-79.359	-64.544	-129.901	192.291	83.106	-38.215	130.500	182.266	144.814	-135.699	193.527	122.273	35.747	-130.905	-134.654	-33.213	0.00024883	0.00042505	0.00012879	1033.6	2.6463e-06	4.3091e-06	1041.1	265.54	3.5152e-06	4.1425e-06	332.73	111.74	96.82	33.701	3.1373e-06	41.894	0.00050082	0.00061364	0.00017343	1044.2	6.6485e-06	7.1213e-06	1054.4	270.63	6.5975e-06	6.6448e-06	337.51	114.65	99.427	34.475	6.7923e-06	43.115	-104.120	-51.929	-64.341	-125.370	24.604	3.076	-125.537	-120.943	14.766	12.469	-121.245	-117.235	-116.189	-111.640	34.535	-112.702	-8191	255	
771.961	1	1	0	0	0.083984	0.27176	0.28387	0.2264	0.28382	0.15214	0.22776	0.16487	0.052626	0.19337	0.10703	0.18947	0.23903	0.076035	0.14795	0.20287	-2.2792	-3.1312	-2.6521	-2.9396	-3.1729	-2.5792	-3.2979	-3.1271	-2.6875	-3.2771	-2.8	-2.9688	-3.0187	-2.8875	-3.1375	-3.2229	25.333	63.543	75.952	-91.856	-20.297	167.057	132.363	160.755	-7.516	-103.740	157.488	-137.542	-89.660	85.400	-124.052	-70.595	0.00025751	0.0005174	9.5724e-05	1034	4.2243e-06	5.005e-06	1041.1	266.18	2.2118e-06	4.1307e-06	331.9	111.87	96.973	33.54	2.1757e-06	42.115	0.0005098	0.00061538	0.00017737	1044.3	6.7009e-06	7.1083e-06	1054.7	270.46	6.8879e-06	6.674e-06	337.13	114.91	99.334	34.432	6.6965e-06	43.143	-98.255	-50.039	-53.640	-125.467	12.771	3.162	-125.519	-120.899	-2.522	17.992	-121.509	-117.031	-116.306	-111.650	7.369	-112.598	-8191	255	
772.057	1	1	0	0	0.24807	0.15694	0.028798	0.060649	0.080362	0.10033	0.30584	0.076857	0.36268	0.31554	0.19146	0.035158	0.16693	0.07032	0.17154	0.13543	-2.3146	-3.2708	-2.8458	-3.0604	-3.2188	-2.9542	-3.3875	-3.2146	-3.0812	-2.9979	-2.9667	-3.075	-3.3604	-3.0396	-2.9479	-3.2792	-38.877	116.106	-89.906	-117.604	-69.489	-72.147	166.878	206.245	13.002	47.539	202.990	185.716	187.452	-38.284	94.848	44.731	0.00026034	0.00056079	8.5665e-05	1032.2	3.7474e-06	4.1541e-06	1045.1	265.08	2.1758e-06	3.1579e-06	331.38	112.17	96.301	33.654	3.1152e-06	42.179	0.00051068	0.0006017	0.00017332	1044.3	6.5407e-06	7.0857e-06	1056.1	270.26	6.7271e-06	6.9267e-06	336.79	114.73	99.289	34.431	6.6357e-06	43.212	-103.458	-52.571	-28.018	-125.259	13.226	2.554	-125.488	-120.768	-18.187	28.748	-121.457	-117.242	-116.247	-111.884	26.841	-112.450	-8191	255	
772.153	1	1	0	0	0.18315	0.083707	0.08349	0.20925	0.21179	0.097608	0.088858	0.16458	0.35147	0.22597	0.18998	0.23705	0.087268	0.38598	0.13301	0.11006	-2.3917	-3.1917	-3.0021	-3.0354	-3.2646	-2.8979	-3.1875	-3.1021	-2.7	-3.1646	-3.3292	-2.925	-3.2896	-3.0396	-3.0438	-3.2562	35.461	203.945	-47.277	-107.608	-11.989	134.614	-120.588	-99.116	-121.460	171.214	141.917	160.892	68.538	145.422	-31.094	194.241	0.00025377	0.00045382	6.7819e-05	1032.4	4.0935e-06	4.9507e-06	1045.2	266.36	2.7126e-06	4.3809e-06	330.11	111.76	97.342	33.716	3.5556e-06	42.212	0.00051544	0.00062311	0.00017776	1043	6.6475e-06	7.1094e-06	1056.7	270.72	6.8742e-06	6.7415e-06	336.67	114.75	99.427	34.418	6.9439e-06	43.157	-103.354	-50.139	-21.167	-125.385	18.209	5.276	-125.423	-120.926	24.075	15.790	-121.050	-117.233	-116.327	-111.775	30.736	-112.604	-8191	255	
772.249	1	1	0	0	0.22124	0.21096	0.34368	0.1533	0.094168	0.080802	0.13964	0.014348	0.15623	0.065134	0.18187	0.27931	0.18212	0.13479	0.28667	0.067541	-2.3771	-3.0771	-3.1875	-2.8354	-3.3937	-3.0896	-3.1042	-3.0375	-2.7313	-3.0771	-3.3375	-2.9625	-3.1958	-2.8417	-2.8354	-3.3292	-110.763	41.979	180.908	177.320	76.273	-78.927	184.930	99.071	-94.270	18.646	169.964	170.165	175.129	-127.992	-61.179	195.698	0.000256	0.00045776	0.00011321	1032.6	3.7835e-06	2.6898e-06	1041.7	265.77	2.4153e-06	4.3391e-06	330.07	112.41	96.874	33.513	2.145e-06	42.058	0.00050134	0.00062263	0.00017605	1044.3	6.631e-06	6.9795e-06	1054.7	270.34	6.6216e-06	6.8662e-06	336.28	114.89	99.229	34.361	7.0017e-06	43.127	-101.564	-31.009	-47.408	-125.535	35.186	-1.557	-125.433	-120.865	-2.554	29.852	-121.341	-117.157	-116.278	-111.860	5.581	-112.802	-8191	255	
772.370	1	1	0	0	0.035445	0.17734	0.10408	0.16143	0.15853	0.27169	0.14014	0.10234	0.089569	0.030915	0.18948	0.20993	0.023386	0.12516	0.21074	0.071137	-2.4396	-2.9813	-2.9583	-3.0125	-3.1625	-3.0292	-3.1375	-3.25	-2.925	-2.9813	-3.2958	-2.7229	-3.2229	-3.0354	-2.9625	-3.3438	70.362	-32.924	166.972	182.880	25.429	100.671	108.823	174.889	-97.055	20.419	-95.244	148.741	87.671	31.721	180.804	75.445	0.00025588	0.00029314	0.00011039	1033.4	2.8908e-06	4.0277e-06	1037.6	265.73	3.2435e-06	4.5071e-06	332.33	112.28	96.687	33.655	3.1637e-06	42.21	0.00051079	0.00061475	0.00017308	1043.8	6.6242e-06	6.7693e-06	1053.7	270.37	6.6897e-06	7.0536e-06	336.55	114.83	99.181	34.45	6.7075e-06	43.231	-102.159	-44.341	-3.422	-125.394	21.114	-4.365	-125.548	-120.845	-10.473	22.792	-121.266	-116.858	-116.608	-112.142	3.628	-112.680	-8191	255	
772.441	1	1	0	0	0.056138	0.14806	0.074834	0.18412	0.090012	0.31213	0.10947	0.17742	0.16691	0.22002	0.28963	0.12526	0.13119	0.099452	0.1529	0.31239	-2.525	-3.0375	-3.0354	-3.0146	-3.1646	-3.1021	-3.0646	-3.3187	-2.9854	-3.1	-3.1667	-2.8167	-3.2562	-3.0375	-2.8063	-3.3271	-56.661	-3.457	-100.161	90.145	108.580	92.709	6.329	189.081	46.910	106.860	-77.763	82.220	-50.535	-68.749	91.802	166.758	0.00026923	0.00047705	0.00013014	1032	4.052e-06	4.2064e-06	1038.1	266.17	2.5854e-06	3.2115e-06	331.88	111.32	97.015	33.678	4.3935e-06	42.133	0.00051169	0.00060668	0.00017728	1043.4	6.6228e-06	6.5596e-06	1052.6	270.11	6.6282e-06	6.8608e-06	336.58	114.45	99.36	34.455	6.9878e-06	43.172	-98.144	-35.169	-60.367	-125.384	11.997	-10.450	-125.379	-120.704	8.239	1.394	-121.510	-117.091	-116.535	-111.947	26.370	-112.640	-8191	255	
772.537	1	1	0	0	0.16989	0.013392	0.10053	0.17573	0.1172	0.1657	0.13989	0.23844	0.078351	0.095753	0.06656	0.28829	0.22436	0.048553	0.11572	0.15639	-2.6375	-2.8563	-3.3104	-2.9542	-3.1	-3.2062	-2.9188	-3.5396	-2.9333	-3.0917	-3.1583	-3.2229	-3.1042	-3.2062	-2.9	-3.0729	17.696	-28.156	-32.383	157.518	-51.565	-34.362	109.370	98.588	-39.779	-46.793	-85.902	206.291	27.160	114.669	117.108	102.539	0.00026169	0.00051643	9.7037e-05	1032.1	4.0941e-06	3.2683e-06	1041.8	266.13	2.9917e-06	4.9236e-06	330.44	111.46	96.792	33.568	4.1238e-06	42.137	0.00049647	0.00063931	0.00017165	1041.7	6.4397e-06	6.9148e-06	1052	270.2	6.4442e-06	7.2691e-06	335.43	114.49	99.354	34.372	6.6975e-06	43.11	-99.481	-47.386	-74.592	-125.455	-8.071	19.043	-125.614	-120.915	-5.788	4.041	-121.214	-117.026	-116.467	-111.747	14.838	-112.459	-8191	255	
772.634	1	1	0	0	0.17623	0.13784	0.17797	0.18103	0.080228	0.1405	0.2653	0.079891	0.14493	0.035228	0.15058	0.075892	0.19145	0.35763	0.13124	0.12	-2.6312	-2.8875	-3.2479	-3.075	-3.1271	-3.2708	-3.1021	-3.325	-3.0292	-3.0312	-3.3187	-3.0146	-3.1	-3.4	-2.875	-3.1583	-67.356	208.086	-45.218	157.595	68.538	178.753	139.409	-89.200	101.551	15.677	-47.699	135.467	125.406	-111.870	71.028	48.257	0.00025524	0.00033375	0.0001554	1030.4	1.8827e-06	3.0808e-06	1035.3	265.57	2.908e-06	3.0554e-06	329.55	110.88	96.984	33.404	2.9116e-06	42.25	0.0004907	0.00063481	0.00016994	1040.7	6.5907e-06	6.6939e-06	1049.2	269.89	6.5298e-06	6.9737e-06	335.66	114.39	99.386	34.333	6.7853e-06	43.22	-101.718	-48.584	-41.255	-125.332	33.810	-3.988	-125.663	-120.815	13.134	17.652	-121.104	-117.227	-116.309	-111.877	3.769	-112.452	-8191	255	
772.754	1	1	0	0	0.10089	0.22771	0.07711	0.35177	0.098773	0.22903	0.091892	0.078836	0.061528	0.12923	0.25715	0.21168	0.066455	0.07234	0.26116	0.2161	-2.5812	-2.8625	-3.2687	-3.1146	-3.0792	-3.1792	-3.2854	-3.0729	-3.0875	-2.8688	-3.3104	-3.0229	-3.1958	-3.4313	-2.7188	-3.1208	-113.144	-87.336	91.525	186.729	122.910	-101.391	198.060	-79.988	93.896	-102.432	-48.390	-131.531	181.570	-88.188	100.973	151.816	0.00025224	0.00035111	8.5576e-05	1032.4	3.464e-06	4.4352e-06	1041.6	265.34	3.3981e-06	2.8079e-06	330.64	111.48	96.843	33.465	4.2659e-06	42.128	0.00048992	0.00063892	0.00016717	1041.6	6.6208e-06	6.7057e-06	1051.8	269.75	6.4073e-06	6.8997e-06	336.05	114.47	99.258	34.366	6.6217e-06	43.13	-99.331	-49.275	-45.567	-125.400	21.263	6.393	-125.624	-120.882	-10.575	28.708	-121.314	-116.981	-116.317	-111.895	19.029	-112.649	-8191	255	
772.850	1	1	0	0	0.061501	0.37519	0.087923	0.16902	0.18621	0.175	0.34398	0.058664	0.02835	0.14214	0.1343	0.16161	0.24922	0.20791	0.044	0.18869	-2.7521	-2.7979	-3.025	-2.875	-2.8812	-3.0812	-3.0229	-3.1875	-3.0333	-2.9188	-3.0917	-2.95	-3.125	-3.2687	-2.7729	-2.9625	-10.817	48.838	-113.781	129.044	87.397	160.584	178.447	144.245	37.677	26.115	-128.720	-74.134	90.468	214.865	-20.510	85.026	0.00025276	0.00031746	9.5324e-05	1028.5	2.9932e-06	4.5334e-06	1034.8	266.37	2.1885e-06	4.5238e-06	331.36	111.62	96.99	33.628	4.1015e-06	42.053	0.00049129	0.00063888	0.0001709	1038.8	6.6033e-06	6.6071e-06	1050.6	270.51	6.6174e-06	6.9624e-06	336.12	114.55	99.161	34.386	6.6691e-06	43.065	-98.164	-70.205	-17.635	-125.464	19.641	24.505	-125.512	-120.908	-4.777	27.155	-121.376	-117.168	-116.234	-111.724	17.934	-112.664	-8191	255	
772.946	1	1	0	0	0.12463	0.37031	0.17876	0.11944	0.10137	0.23817	0.17881	0.043049	0.10411	0.21288	0.01739	0.086508	0.041622	0.050264	0.13909	0.17093	-2.6063	-2.8229	-3.0979	-3.1917	-2.7792	-3.1708	-2.8187	-3.2938	-3.1583	-3.0125	-3.1437	-3.0333	-2.9437	-3.2687	-2.7667	-2.9146	49.072	113.085	-82.532	-118.343	175.271	3.718	-37.188	-61.777	-138.429	-101.362	21.277	189.173	-10.548	3.038	71.217	212.277	0.00027231	0.00025994	0.00013653	1028.1	3.0496e-06	5.9033e-06	1033.2	264.97	2.4543e-06	5.2069e-06	331.42	111.08	97.168	33.593	3.3184e-06	42.008	0.00049236	0.00065004	0.00017036	1038.7	6.7952e-06	6.7052e-06	1048.4	269.9	6.3449e-06	6.8349e-06	335.62	114.4	99.229	34.411	6.5564e-06	43.166	-101.745	-25.404	-42.159	-125.316	-16.642	-12.199	-125.585	-120.888	-0.845	9.694	-121.280	-117.001	-116.007	-111.778	3.939	-112.738	-8191	255	
773.065	1	1	0	0	0.11006	0.068266	0.091314	0.17154	0.25864	0.058732	0.22477	0.019799	0.12333	0.090827	0.25807	0.15333	0.12173	0.16883	0.30309	0.13824	-2.75	-2.8312	-3.05	-3.1063	-2.7771	-3.2875	-3.2583	-3.0875	-3.2417	-2.9479	-3.1646	-3.0479	-2.7646	-3.2438	-3.0125	-3.0854	78.871	12.004	212.877	180.446	144.128	156.620	115.629	9.383	132.004	-125.397	8.206	194.145	200.496	-121.498	16.144	144.875	0.00027819	0.00050391	9.7065e-05	1031.7	3.2192e-06	4.1824e-06	1040.6	264.75	3.0808e-06	3.4712e-06	331.2	111.79	96.769	33.525	2.8676e-06	42.02	0.00048218	0.0006176	0.0001702	1040.3	6.732e-06	6.6885e-06	1049.1	269.78	6.3875e-06	6.6043e-06	335.85	114.59	99.157	34.376	6.4692e-06	43.032	-104.011	-52.637	-48.106	-125.444	22.390	13.095	-125.448	-120.943	-14.759	40.988	-121.375	-117.095	-116.374	-111.776	16.883	-112.436	-8191	255	
773.137	1	1	0	0	0.11499	0.1534	0.24328	0.22664	0.25501	0.17019	0.12959	0.14445	0.29378	0.046616	0.27635	0.11159	0.1076	0.037491	0.082067	0.31706	-2.7396	-2.8604	-2.925	-3.1896	-2.6042	-3.1688	-2.9458	-2.9875	-3.2104	-3.1083	-3.1979	-3.2104	-2.925	-3.3187	-2.9792	-2.7604	-44.657	-126.555	70.103	191.557	0.629	191.083	19.561	-117.156	131.133	181.770	200.756	-36.699	-103.960	209.737	46.912	188.105	0.00026651	0.00032523	9.9375e-05	1028.5	2.9447e-06	4.6851e-06	1038.2	266.14	2.1498e-06	2.6252e-06	331.55	111.12	96.861	33.635	2.9763e-06	42.269	0.0004987	0.00062645	0.00016704	1036.7	6.6922e-06	6.6222e-06	1047.8	270.07	6.2701e-06	6.5514e-06	336.18	114.28	99.163	34.375	6.4357e-06	43.112	-103.354	-57.597	-78.587	-125.428	6.636	-2.277	-125.442	-120.891	-1.301	-0.300	-121.291	-116.972	-116.263	-111.795	20.824	-112.550	-8191	255	
773.233	1	1	0	0	0.14006	0.12459	0.21156	0.14317	0.064062	0.091462	0.14135	0.3246	0.22915	0.24618	0.21685	0.24386	0.25286	0.1713	0.089916	0.34685	-2.8708	-2.7917	-2.9104	-3.15	-2.7292	-3.1625	-3.0333	-2.9958	-3.0646	-3.0938	-2.9792	-3.225	-2.7771	-3.1604	-3.1146	-2.8646	-99.970	-13.060	195.362	207.471	100.049	-50.044	76.641	205.777	218.856	-117.177	202.118	-127.713	-71.006	137.800	-94.676	200.412	0.00025086	0.00051094	0.00012703	1026.5	4.7469e-06	3.8976e-06	1037.2	266.13	3.2005e-06	6.2173e-06	329.59	111.5	96.373	33.692	4.7319e-06	41.871	0.00047626	0.00062563	0.00017276	1037.4	6.5946e-06	6.4632e-06	1049.5	270.11	6.1178e-06	6.5746e-06	335.75	114.41	99.044	34.456	6.5235e-06	43.042	-99.237	-42.671	-38.993	-125.532	22.967	10.370	-125.576	-120.848	13.025	-3.753	-121.177	-117.347	-116.239	-111.913	6.468	-112.880	-8191	255	
773.354	1	1	0	0	0.33346	0.44493	0.16878	0.16679	0.048801	0.053643	0.27037	0.28067	0.12334	0.25337	0.1038	0.11091	0.38611	0.12209	0.21818	0.13164	-2.7396	-2.7583	-2.8083	-3.0917	-2.9021	-3.0417	-3.3146	-2.9188	-3.0875	-2.8375	-3.05	-3.2458	-2.7354	-3.0521	-3.0438	-2.9354	196.696	31.745	-22.266	-137.848	81.656	-120.096	121.345	185.056	-138.489	-131.115	35.831	-123.375	187.997	-6.107	114.604	107.627	0.00026445	0.00038258	7.9643e-05	1022.7	1.9977e-06	2.8689e-06	1037.4	266.08	2.0313e-06	4.5554e-06	329.7	111.61	97.074	33.639	3.7864e-06	42.183	0.00047372	0.00062103	0.00017461	1035.4	6.6014e-06	6.5322e-06	1047.8	270.15	6.2157e-06	6.5579e-06	335.08	114.48	99.219	34.383	6.2567e-06	43.086	-103.971	-49.719	-34.213	-125.464	2.812	6.768	-125.533	-120.971	3.884	13.143	-121.257	-116.803	-116.335	-111.728	17.212	-112.260	-8191	255	
773.450	1	1	0	0	0.16074	0.1049	0.27158	0.31891	0.049463	0.15749	0.07734	0.23531	0.15654	0.1504	0.1513	0.28662	0.13758	0.23482	0.22372	0.34633	-2.6833	-2.9688	-2.7896	-3.4062	-2.9208	-2.9938	-3.2042	-2.8458	-3.2188	-3.1604	-2.9292	-3.2042	-3.0479	-3.1042	-3.2292	-3.0167	-110.718	130.830	217.768	175.560	156.365	-0.119	136.217	117.697	113.628	-65.413	-94.962	-125.569	-56.016	91.877	-100.541	121.588	0.00026101	0.00026971	0.00010009	1026.6	2.7629e-06	1.59e-06	1035.9	265.28	3.2242e-06	4.8277e-06	330.85	111.89	96.992	33.528	4.2915e-06	42.279	0.00048252	0.00061465	0.00016843	1037	6.3658e-06	6.4906e-06	1047.1	269.71	6.1164e-06	6.6929e-06	335.17	114.4	99.011	34.36	6.2697e-06	43.096	-101.623	-22.503	-44.675	-125.561	24.739	-2.971	-125.532	-120.917	-21.695	-2.486	-121.055	-116.982	-116.416	-111.790	6.143	-112.823	-8191	255	
773.546	1	1	0	0	0.11553	0.25587	0.2028	0.34188	0.34595	0.17705	0.17994	0.034894	0.09822	0.075946	0.15229	0.17141	0.10687	0.12642	0.20117	0.22888	-2.6396	-3.0708	-2.8083	-3.3125	-2.7896	-2.8667	-3.3229	-2.9104	-3.075	-3.0646	-2.8688	-3.2062	-3.0708	-2.9083	-3.1125	-2.7188	-121.320	84.583	-35.182	-120.469	193.728	15.283	135.855	187.780	-119.425	195.811	173.538	214.315	-80.757	137.688	74.028	149.473	0.00025161	0.00054667	4.8288e-05	1025.1	2.78e-06	5.3469e-06	1031	265.17	2.1517e-06	3.8763e-06	328.24	111.34	97.05	33.615	5.4516e-06	42.054	0.00047931	0.00060271	0.00017461	1035.6	6.2197e-06	6.4583e-06	1046.5	269.64	6.256e-06	6.3322e-06	334.84	114.26	99.179	34.419	5.9974e-06	43.097	-106.555	-25.201	-89.966	-125.416	12.080	8.942	-125.554	-120.842	-8.145	14.008	-121.513	-117.039	-116.452	-111.743	21.907	-112.626	-8191	255	
773.667	1	1	0	0	0.20394	0.10495	0.11062	0.16821	0.22069	0.084213	0.13004	0.11916	0.13487	0.16679	0.2052	0.041217	0.24318	0.18794	0.011695	0.07082	-2.5729	-2.9917	-2.7167	-3.2146	-2.9229	-2.8583	-3.2188	-3.05	-3.0208	-3.2292	-2.7333	-3.0875	-2.8937	-2.8792	-3.2458	-2.8583	-33.150	-70.955	190.463	210.862	-24.313	198.490	162.538	188.137	190.564	-5.514	-122.198	-60.897	148.386	184.314	37.379	-16.756	0.0002555	0.00045275	0.00012753	1024.6	2.246e-06	4.402e-06	1034.5	265.02	1.9002e-06	3.732e-06	330.81	111.57	96.661	33.709	3.7964e-06	42.15	0.00047017	0.00056838	0.00016242	1035.4	6.0686e-06	6.3381e-06	1046.7	269.61	6.0582e-06	6.1199e-06	336.11	114.35	99.035	34.461	5.7351e-06	43.145	-102.214	-72.187	-63.728	-125.514	32.384	-8.997	-125.369	-120.718	22.987	1.371	-121.364	-117.176	-116.593	-112.080	-9.073	-112.226	-8191	255	
773.738	1	1	0	0	0.11368	0.10109	0.037105	0.040803	0.28844	0.3064	0.21586	0.21872	0.19009	0.10706	0.21333	0.083261	0.10797	0.12646	0.19525	0.24545	-2.4688	-2.9542	-2.6833	-3.1021	-2.8021	-2.8417	-3.2458	-2.8125	-2.9604	-3.0938	-2.8458	-3.0229	-3.2729	-2.9437	-3.0583	-2.9708	114.923	68.978	-44.577	183.833	59.216	87.383	132.420	195.828	23.331	-102.314	167.280	-63.474	-99.182	171.583	83.163	86.824	0.00024178	0.00047864	0.00015437	1025.7	2.9787e-06	2.2731e-06	1029	265.98	2.8582e-06	4.1749e-06	330.29	111.91	96.715	33.692	4.1915e-06	42.238	0.00045343	0.00057244	0.0001567	1034.1	5.9628e-06	6.2508e-06	1043.6	269.55	6.0781e-06	6.0735e-06	335.66	114.64	99.132	34.485	6.0288e-06	43.192	-105.251	-53.302	-42.624	-125.503	15.754	30.079	-125.547	-120.829	8.776	20.668	-121.245	-116.724	-116.218	-111.649	24.874	-112.381	-8191	255	
773.835	1	1	0	0	0.25484	0.12841	0.067113	0.23182	0.20175	0.071856	0.15869	0.14997	0.10321	0.10962	0.1554	0.10192	0.19788	0.050137	0.025051	0.3242	-2.6083	-3.0646	-2.6875	-3.1354	-2.8271	-2.8417	-3.15	-2.9458	-2.9688	-3.0438	-2.8	-2.9146	-3.2042	-2.8042	-3.1125	-2.9021	-124.311	-133.158	-19.971	153.098	8.413	-90.306	108.180	115.079	-73.418	-112.187	1.310	-123.575	-135.870	-119.844	-112.637	67.208	0.00024497	0.00034938	0.00014274	1024.5	3.4573e-06	3.8284e-06	1031.6	265.88	3.2624e-06	4.2592e-06	330.42	111.81	97.621	33.679	3.4905e-06	42.344	0.00046808	0.00054943	0.00015761	1034.9	5.9671e-06	6.0993e-06	1045.7	270.04	6.1727e-06	5.8694e-06	335.84	114.87	99.477	34.526	5.772e-06	43.253	-101.684	-42.262	-59.561	-125.333	6.826	19.785	-125.567	-120.915	4.706	6.176	-121.155	-117.219	-116.547	-111.544	5.726	-112.786	-8191	255	
773.931	1	1	0	0	0.31118	0.16707	0.065943	0.22232	0.15814	0.25426	0.058565	0.16662	0.19902	0.090835	0.11467	0.048026	0.16718	0.11765	0.13816	0.10898	-2.4417	-3.025	-2.8396	-3.0875	-3.0958	-2.5875	-3.3125	-2.9417	-3.1	-3.2021	-2.9062	-3.1458	-3.2542	-2.8312	-3.2667	-3.0312	-55.223	-69.665	94.406	184.868	162.695	-15.619	-30.060	145.129	71.465	5.912	219.528	177.770	128.459	177.804	133.681	-1.923	0.00026321	0.00028271	0.00012254	1026.3	2.9644e-06	3.5055e-06	1034.7	264.45	2.2863e-06	4.5185e-06	328.59	112.08	97.481	33.821	4.0969e-06	42.129	0.00045811	0.00052506	0.00015514	1035.2	5.8889e-06	6.0136e-06	1046.2	269.85	5.7446e-06	5.9525e-06	335.09	114.83	99.544	34.613	5.8468e-06	43.185	-102.107	-46.859	-51.669	-125.205	19.704	33.932	-125.548	-121.054	-7.390	35.230	-121.150	-117.043	-116.343	-111.802	-0.724	-112.647	-8191	255	
774.050	1	1	0	0	0.11994	0.066648	0.027278	0.092833	0.2247	0.18066	0.07961	0.27988	0.08398	0.27634	0.22381	0.063023	0.022473	0.25105	0.059869	0.13028	-2.2687	-3.2	-2.7917	-2.9875	-3.2188	-2.85	-3.3	-3.3063	-2.7208	-3.0646	-2.8542	-3.0687	-3.1	-2.8438	-2.9354	-3.1854	59.957	84.582	67.561	188.414	216.006	177.429	-33.352	139.443	69.111	88.126	-83.609	-97.169	-107.955	119.206	214.150	116.367	0.00026471	0.00034228	0.00010376	1021.6	3.0227e-06	2.2804e-06	1033.1	265.51	2.2934e-06	5.3151e-06	330.91	111.78	97.162	33.788	2.8095e-06	42.194	0.0004657	0.00054145	0.00015448	1033.9	5.6422e-06	5.9797e-06	1045.7	270.24	5.8108e-06	5.9056e-06	336.15	114.54	99.314	34.529	5.9605e-06	43.239	-99.381	-46.196	-38.711	-125.245	29.600	29.955	-125.457	-120.853	-1.350	2.662	-121.451	-117.109	-116.238	-111.850	-22.909	-112.314	-8191	255	
774.146	1	1	0	0	0.20183	0.15253	0.26113	0.060614	0.19508	0.12877	0.16879	0.14092	0.10434	0.079168	0.34558	0.29261	0.31636	0.37235	0.082279	0.073015	-2.3917	-3.15	-3.1104	-3.025	-3.1188	-2.8375	-2.9792	-3.0958	-2.8292	-3.0167	-3.1417	-2.7646	-3.2771	-2.8125	-3.1354	-3.2208	35.649	128.514	117.703	178.547	-105.553	161.452	41.023	142.712	167.722	170.810	207.536	58.717	125.220	169.843	-103.457	192.597	0.00025895	0.00038646	7.4552e-05	1021.2	4.1102e-06	4.8094e-06	1031.8	265.38	2.0639e-06	1.4485e-06	329.57	111.62	97.291	33.829	2.9737e-06	42.331	0.00047118	0.00053575	0.00015446	1035	5.6316e-06	6.1991e-06	1045.5	270	6.0795e-06	6.1842e-06	335.62	114.69	99.492	34.558	5.8603e-06	43.323	-100.355	-70.554	-40.646	-125.284	-9.083	0.733	-125.301	-120.995	1.246	19.793	-121.228	-117.082	-116.283	-112.027	-8.113	-112.599	-8191	255	
774.242	1	1	0	0	0.34403	0.16272	0.39503	0.28527	0.15502	0.15889	0.11157	0.022721	0.34645	0.036198	0.096586	0.16428	0.108	0.099714	0.081272	0.11959	-2.2917	-3.0438	-2.9813	-2.95	-3.2958	-2.7771	-3.2083	-3.1146	-2.8312	-3.1792	-3.0958	-3.0229	-3.2458	-3.025	-3.0271	-3.2104	12.433	80.671	30.478	201.266	-123.171	-65.683	203.315	44.873	-76.488	217.529	-113.591	-99.043	-128.366	197.997	-129.256	-29.957	0.00028054	0.00044626	0.00014282	1027.5	2.9126e-06	5.0903e-06	1037.9	266.14	2.969e-06	3.2221e-06	331.5	112.55	97.134	33.84	3.8761e-06	42.457	0.00045868	0.00052555	0.00015538	1035	5.5878e-06	6.1144e-06	1046.7	270.11	5.8633e-06	6.0686e-06	336	115.25	99.531	34.601	5.799e-06	43.338	-97.891	-62.921	-44.100	-125.337	-18.214	5.056	-125.439	-121.054	20.704	27.263	-121.281	-117.313	-116.214	-111.746	4.659	-112.751	-8191	255	
774.314	1	1	0	0	0.092689	0.18144	0.15195	0.18622	0.013064	0.1548	0.13215	0.17703	0.0050189	0.083656	0.18823	0.22822	0.13337	0.070033	0.18086	0.13585	-2.5563	-2.9062	-2.9188	-3.0438	-2.9979	-2.8708	-2.9458	-3.1854	-2.9146	-3.1437	-2.9979	-2.9542	-3.1729	-2.8958	-2.7521	-3.3187	19.905	-111.700	48.646	-98.587	91.282	155.469	105.745	151.168	208.885	176.672	129.616	-134.300	185.562	-113.075	-105.926	64.840	0.00024226	0.00042578	0.00015337	1029.9	3.9119e-06	5.1348e-06	1035.9	266.13	3.7769e-06	3.2985e-06	330.61	112.2	97.492	33.886	3.4027e-06	42.352	0.00045307	0.00053497	0.0001503	1036.2	5.8481e-06	6.1964e-06	1046.5	270.04	5.9267e-06	6.0465e-06	336.39	114.96	99.636	34.624	6.14e-06	43.34	-100.775	-38.281	-39.009	-125.382	31.223	1.776	-125.544	-120.986	6.728	2.695	-121.147	-116.863	-116.243	-111.684	11.851	-112.722	-8191	255	
774.434	1	1	0	0	0.19001	0.11488	0.42703	0.20259	0.38205	0.10645	0.12129	0.26974	0.26947	0.20476	0.17748	0.22403	0.15059	0.14721	0.096698	0.048248	-2.5167	-2.9854	-2.8208	-2.8125	-3.0604	-2.9083	-2.8	-3.2583	-2.9646	-3.0167	-3.0708	-2.8167	-3.125	-3.05	-2.7729	-3.1875	-117.303	41.179	-61.935	91.095	-2.891	102.321	93.163	129.828	198.082	116.503	170.794	207.074	82.699	204.685	180.924	-98.321	0.0002696	0.00036162	0.00014433	1020.9	2.3265e-06	5.0014e-06	1035.5	265.29	2.7074e-06	3.2996e-06	331.73	111.62	97.305	33.696	4.4177e-06	42.216	0.00046629	0.00054962	0.00015305	1035.1	5.8404e-06	6.0185e-06	1046	270.13	5.711e-06	6.1982e-06	336.18	114.81	99.619	34.556	6.0423e-06	43.18	-104.035	-30.192	-59.794	-125.348	18.716	19.023	-125.605	-120.869	-17.701	40.499	-121.257	-116.759	-116.372	-111.673	15.517	-112.672	-8191	255	
774.530	1	1	0	0	0.031017	0.21789	0.26609	0.18372	0.24091	0.2271	0.087742	0.072384	0.2555	0.062875	0.14312	0.13196	0.23252	0.3271	0.14002	0.14638	-2.6021	-2.9938	-3.0271	-2.8688	-3.1021	-3.1521	-2.8083	-3.2729	-2.7396	-3.0667	-3.0854	-2.7104	-3.0979	-2.9813	-2.6417	-3.0312	-25.030	197.902	-69.722	206.321	142.596	215.451	-135.752	-87.656	-63.615	51.982	182.179	156.524	214.092	172.222	126.447	137.954	0.00025792	0.00047037	0.0001299	1022.1	3.0287e-06	4.6831e-06	1034.2	265.53	3.6922e-06	3.3423e-06	330.15	112.04	96.896	33.769	2.7364e-06	41.993	0.00046432	0.00054247	0.00014501	1034.1	5.9501e-06	5.7926e-06	1044.6	269.95	5.9319e-06	6.2215e-06	335.51	114.78	99.412	34.547	6.1001e-06	43.254	-100.402	-60.263	-60.696	-125.330	11.392	27.173	-125.457	-121.048	-11.632	39.948	-121.393	-116.675	-116.406	-111.950	29.404	-112.607	-8191	255	
774.626	1	1	0	0	0.1154	0.31946	0.02589	0.30696	0.287	0.3601	0.050634	0.25573	0.18417	0.090092	0.17659	0.11338	0.12916	0.13961	0.25581	0.43527	-2.4688	-2.7854	-3.1896	-2.7729	-2.9958	-3.1479	-2.8146	-3.2458	-2.7667	-2.8333	-3.1417	-2.7875	-3.0771	-3.1667	-2.6833	-3.0271	-20.991	94.892	76.435	215.624	60.887	-4.406	129.213	150.223	-14.310	207.483	61.118	21.069	88.569	219.776	-79.283	102.425	0.00026263	0.00034855	0.0001024	1019.8	2.2953e-06	2.7432e-06	1030.7	264.09	2.6124e-06	5.6899e-06	330.51	112.02	97.423	33.612	1.9906e-06	42.21	0.0004659	0.00056248	0.00015022	1031.2	5.9832e-06	5.7765e-06	1042.1	269.68	5.7919e-06	5.8991e-06	335.67	114.95	99.42	34.435	5.9889e-06	43.206	-99.293	-7.562	-22.948	-125.370	27.719	28.512	-125.560	-121.112	-2.240	18.529	-121.438	-117.123	-116.319	-111.478	3.465	-112.555	-8191	255	
774.747	1	1	0	0	0.13365	0.22305	0.32004	0.084047	0.12103	0.10124	0.071719	0.14927	0.034546	0.29389	0.22518	0.084141	0.12855	0.086181	0.24778	0.12226	-2.2708	-2.9167	-3.4354	-2.8875	-2.9625	-3.1396	-2.9083	-3.1708	-2.8083	-2.8771	-3.1146	-3.05	-2.9688	-3.2917	-2.7625	-3.1979	69.306	210.776	103.603	-118.652	61.748	-38.793	182.561	-78.553	-2.327	39.400	-95.104	62.070	207.830	197.000	-58.431	11.245	0.00025381	0.00048967	8.8406e-05	1022.9	1.9729e-06	3.4458e-06	1033.4	264.57	2.9735e-06	4.758e-06	330.39	111.98	97.076	33.726	4.4666e-06	42.262	0.00045767	0.00055978	0.00014674	1032.7	5.8953e-06	5.8341e-06	1044.4	269.55	5.6415e-06	6.0476e-06	335.5	114.37	99.363	34.463	6.1784e-06	43.151	-105.680	-64.440	-58.656	-125.371	21.526	-24.264	-125.424	-120.755	-13.326	11.690	-121.243	-117.007	-116.422	-111.526	-5.364	-112.558	-8191	255	
774.843	1	1	0	0	0.1634	0.23877	0.1621	0.1211	0.036158	0.28457	0.26058	0.31447	0.048624	0.099037	0.28351	0.18181	0.15507	0.15063	0.22125	0.059135	-2.6646	-2.7458	-3.1271	-3.1104	-2.8458	-3.1667	-2.9479	-3.1708	-3.0625	-2.8187	-3.1958	-3.0021	-2.8479	-3.0521	-2.85	-3.1667	-109.786	-42.456	12.350	87.233	-72.293	176.843	150.121	219.645	-15.614	122.823	-93.778	167.862	-76.618	209.442	-26.828	-87.413	0.00027015	0.00027705	8.9156e-05	1022.1	2.5945e-06	6.4669e-06	1030.8	264.13	2.9926e-06	2.5654e-06	330.86	111.77	96.837	33.656	4.8962e-06	42.21	0.00045703	0.00055929	0.00014781	1030.6	6.1187e-06	5.9516e-06	1041.8	269.28	5.9291e-06	6.1432e-06	335.27	114.8	99.351	34.526	6.1914e-06	43.221	-101.536	-65.436	-44.167	-125.412	-0.301	9.536	-125.351	-120.777	4.224	-2.493	-121.449	-116.852	-116.105	-111.792	19.362	-112.690	-8191	255	
774.938	1	1	0	0	0.17512	0.06355	0.054681	0.11513	0.097301	0.12718	0.12537	0.18776	0.10675	0.13478	0.26334	0.15871	0.26386	0.18976	0.32105	0.12683	-2.5417	-2.7042	-2.8583	-3.0396	-2.9	-3.2792	-2.9313	-3.0229	-3.0729	-2.8646	-2.9958	-3.2083	-2.9396	-3.1688	-2.8354	-3.0125	-3.810	204.897	85.935	152.653	-84.808	-80.592	147.325	135.798	58.493	29.687	-83.932	182.205	188.610	141.028	213.367	-42.700	0.00024826	0.00048359	0.00011698	1020.6	2.3388e-06	3.9199e-06	1028.6	264.97	1.5937e-06	3.6155e-06	330.81	111.64	97.068	33.641	3.0156e-06	42.033	0.00045074	0.00055765	0.00015721	1030.6	6.0099e-06	5.8277e-06	1041.8	269.38	5.6363e-06	6.2938e-06	335.02	114.55	99.371	34.492	6.142e-06	43.145	-103.228	-46.772	-48.007	-125.484	20.065	49.421	-125.374	-120.842	13.817	24.178	-121.182	-117.075	-116.406	-111.775	4.933	-112.658	-8191	255	
775.036	1	1	0	0	0.17738	0.074852	0.12691	0.12228	0.033021	0.14125	0.12161	0.16306	0.21051	0.02006	0.16702	0.17431	0.34266	0.20044	0.15529	0.053045	-2.6333	-2.7521	-3.2	-3.0083	-2.9938	-3.125	-3.2271	-3.1042	-3.0667	-2.8792	-3.1229	-3.275	-2.9208	-3.1312	-2.8292	-2.9042	-17.997	-128.417	81.096	-18.210	-21.409	-69.262	119.455	155.668	156.840	-10.859	158.108	-51.912	19.628	202.841	211.294	-73.239	0.00026688	0.00034739	0.00012532	1019.6	1.9649e-06	3.8509e-06	1028.1	265	2.0689e-06	3.9736e-06	330.96	110.91	96.75	33.606	2.9336e-06	42.08	0.00044848	0.00059019	0.00015682	1028.7	6.5402e-06	6.2858e-06	1039.6	269.13	5.8562e-06	6.5222e-06	334.69	114.21	98.948	34.388	6.4248e-06	43.038	-98.428	-22.849	-25.614	-125.378	22.064	11.104	-125.441	-120.718	-3.921	-12.797	-121.007	-117.187	-116.388	-111.834	-1.027	-112.531	-8191	255	
775.130	1	1	0	0	0.21221	0.05777	0.077895	0.23776	0.17044	0.13166	0.23687	0.22737	0.24764	0.22584	0.30468	0.19185	0.53777	0.13546	0.16262	0.16573	-2.4688	-2.8042	-2.9938	-3.1958	-2.9458	-3.2062	-3.1813	-3.0812	-3.1271	-2.7354	-3.1063	-3.1875	-2.9021	-3.2	-2.8292	-3.1896	48.585	-21.571	-80.092	-133.602	51.624	100.613	217.993	171.697	-45.326	-9.814	85.731	8.038	-125.540	208.890	140.831	-101.138	0.00026235	0.00035853	0.00012409	1021	3.0132e-06	4.5261e-06	1031.1	264.02	2.4272e-06	3.8715e-06	330.07	111.39	96.599	33.409	3.2617e-06	41.938	0.00047721	0.00061141	0.00016519	1029.5	6.5101e-06	6.6141e-06	1040.4	269.1	6.2157e-06	6.9386e-06	335.23	114.04	99.011	34.231	6.7738e-06	42.926	-99.961	-51.328	-54.520	-125.354	-26.931	13.396	-125.695	-120.774	-9.845	2.064	-121.336	-116.864	-116.410	-112.113	-23.115	-112.908	-8191	255	
775.226	1	1	0	0	0.096584	0.15623	0.087171	0.16283	0.12599	0.080993	0.27432	0.35133	0.27456	0.18261	0.089642	0.09901	0.10685	0.14211	0.0085717	0.13123	-2.7667	-2.7562	-2.8021	-3.2062	-2.7333	-3.1562	-3.0271	-2.9479	-3.0792	-2.9333	-2.8312	-3.2375	-2.7521	-3.0938	-3.1083	-2.7458	117.456	-114.307	-45.509	148.899	-66.324	201.668	169.921	181.820	69.155	-11.277	-104.805	42.446	-85.975	132.762	-95.796	77.778	0.00025782	0.00021299	9.4817e-05	1020.7	3.3598e-06	3.0636e-06	1027.7	264.01	2.618e-06	3.6733e-06	329.71	111.26	96.576	33.39	2.8519e-06	41.951	0.00049003	0.00064352	0.00017308	1030.8	6.6859e-06	6.7542e-06	1039.5	269.22	6.3269e-06	7.0509e-06	335.15	114.06	98.768	34.26	6.8137e-06	42.958	-100.096	-56.387	-26.588	-125.379	-18.379	-1.504	-125.653	-120.872	-20.566	10.234	-121.178	-116.948	-116.437	-111.892	-16.319	-112.653	-8191	255	
775.322	1	1	0	0	0.11125	0.2534	0.10371	0.39327	0.03611	0.1493	0.10021	0.26161	0.080327	0.19809	0.19824	0.12809	0.087489	0.17682	0.17455	0.26624	-2.6167	-2.7021	-2.7854	-3.2271	-2.6104	-3.1188	-3.0958	-3.125	-3.1396	-2.9875	-2.875	-3.1896	-2.8417	-3.0771	-3.1042	-2.725	27.555	177.693	201.520	216.171	170.411	-107.918	-86.384	209.788	72.406	65.313	185.523	15.901	-102.734	203.896	-42.579	135.737	0.0002775	0.00032529	0.00013134	1016.8	2.8268e-06	4.4921e-06	1022.9	264.37	2.0013e-06	2.5694e-06	328.72	111.89	96.744	33.378	3.0665e-06	41.831	0.00049497	0.00065106	0.00016612	1028.4	6.8879e-06	6.6885e-06	1038.4	268.81	6.0947e-06	6.5465e-06	334.16	114.13	98.865	34.263	6.2203e-06	42.969	-94.864	-59.181	-41.160	-125.218	18.063	-0.325	-125.536	-120.743	12.807	32.957	-121.132	-117.134	-116.401	-111.777	10.305	-112.384	-8191	255	
775.443	1	1	0	0	0.042889	0.073034	0.26961	0.33651	0.089095	0.22252	0.085896	0.37256	0.23801	0.042046	0.055427	0.13465	0.14944	0.053344	0.10812	0.2153	-2.725	-2.8625	-3.1125	-3.2396	-2.95	-2.9208	-3.4417	-2.625	-3.1625	-2.9021	-2.9979	-3.2667	-3.0042	-2.9583	-3.1354	-2.7292	182.948	-86.044	-84.649	193.399	-57.676	123.892	96.583	175.806	97.529	111.388	91.279	125.229	-134.078	142.981	-126.926	-113.479	0.00025125	0.00047443	0.00012294	1012.6	3.2971e-06	4.043e-06	1025.3	264.4	3.7471e-06	5.7702e-06	327.35	111.68	96.701	33.683	3.7612e-06	41.938	0.00047716	0.00058806	0.00016512	1025.8	6.2464e-06	6.3209e-06	1036.6	268.49	5.9613e-06	6.0562e-06	333.84	114.18	99.022	34.471	5.7022e-06	43.074	-100.973	-51.212	-60.876	-125.420	12.519	-4.318	-125.344	-120.786	-8.253	9.662	-121.131	-117.093	-116.286	-111.848	15.537	-112.195	-8191	255	
775.539	1	1	0	0	0.18119	0.278	0.28854	0.1105	0.16993	0.1688	0.21855	0.093468	0.030352	0.11508	0.40569	0.19352	0.1871	0.1839	0.038322	0.15162	-2.5833	-2.6417	-2.9042	-3.1521	-2.9313	-2.9792	-3.2438	-2.8563	-3.225	-3.0833	-2.8771	-3.3812	-2.7833	-3.1	-2.9583	-2.7833	-121.172	-54.641	-11.282	176.391	100.602	218.607	177.165	-58.496	-74.597	210.019	-93.770	157.627	141.587	75.235	-128.651	-95.590	0.00026424	0.00042428	8.2845e-05	1013.9	3.0633e-06	4.5141e-06	1020.8	264.25	2.2924e-06	3.1959e-06	329.62	111.46	97.005	33.721	3.0143e-06	42.279	0.00045169	0.00053942	0.00015056	1024.7	5.6908e-06	5.7727e-06	1035.4	268.82	5.5989e-06	5.6571e-06	334.92	114.27	99.282	34.458	5.3447e-06	43.181	-103.030	-30.043	-40.737	-125.348	29.599	23.534	-125.528	-120.727	-6.750	21.484	-121.098	-117.096	-116.483	-111.775	12.798	-112.391	-8191	255	
775.611	1	1	0	0	0.049001	0.30952	0.27008	0.10186	0.1091	0.27906	0.11359	0.27799	0.13459	0.10887	0.28837	0.22888	0.17587	0.16672	0.31962	0.11494	-2.6125	-3.1646	-2.6583	-3.2146	-2.9604	-2.975	-3.3792	-3.0229	-3.0125	-2.8896	-2.7896	-3.2875	-3.0208	-2.95	-3.1813	-3.0563	-133.757	-120.088	-28.696	-132.724	66.281	110.708	141.739	-105.582	66.977	166.678	175.312	162.461	198.759	72.864	183.072	-98.241	0.00026234	0.00032425	9.7851e-05	1014.7	3.2082e-06	2.8629e-06	1025.9	264.37	2.4745e-06	4.1654e-06	329.58	111.55	96.852	33.668	3.2765e-06	42.136	0.0004336	0.00050248	0.00014905	1025.3	5.5519e-06	5.7808e-06	1037.5	268.7	5.4731e-06	5.7689e-06	334.5	114.6	99.216	34.473	5.5521e-06	43.146	-101.696	-38.225	-62.133	-125.356	29.930	9.688	-125.399	-120.716	-11.463	13.615	-121.321	-117.021	-116.452	-111.685	3.500	-112.437	-8191	255	
775.707	1	1	0	0	0.11505	0.15775	0.27805	0.24926	0.1161	0.080096	0.36599	0.16778	0.077193	0.085234	0.24886	0.17645	0.22433	0.16184	0.21559	0.17955	-2.6083	-3.1521	-2.7375	-3.3438	-2.9333	-2.925	-3.1042	-3.0438	-3.0438	-3.2	-2.9813	-3.1583	-3.1771	-2.8937	-3.3312	-2.8167	182.280	-52.567	-115.466	205.689	-73.743	-24.614	-107.835	63.851	147.310	-94.480	174.969	-137.517	182.055	91.834	18.680	136.871	0.00025181	0.00042364	0.00011201	1013	2.545e-06	4.1496e-06	1021.8	264.39	2.6701e-06	3.0037e-06	329.73	111.84	96.958	33.611	2.6694e-06	42.122	0.00044393	0.00051167	0.00014726	1025.4	5.5553e-06	5.6649e-06	1036.6	268.7	5.4821e-06	5.4293e-06	334.55	114.66	99.174	34.474	5.395e-06	43.198	-100.786	-46.743	-36.365	-125.312	-0.255	-29.835	-125.495	-120.746	-2.885	1.134	-121.177	-117.044	-116.410	-111.660	-33.011	-112.711	-8191	255	
775.828	1	1	0	0	0.21198	0.04146	0.21538	0.17861	0.10469	0.17762	0.12907	0.11461	0.1563	0.26415	0.081158	0.23751	0.19765	0.2911	0.086516	0.3214	-2.6333	-2.9917	-2.9354	-3.0833	-3.0292	-2.8021	-3.6458	-2.8187	-2.9708	-3.05	-2.9188	-3.0896	-3.2208	-2.9333	-3.2167	-2.9562	-68.121	90.434	-19.405	212.171	-50.841	137.507	-63.754	204.455	170.332	144.632	212.048	-114.905	-124.681	176.173	-61.856	138.489	0.00027099	0.0003475	0.00015097	1013	4.3783e-06	5.5219e-06	1025	265.18	2.2715e-06	3.6546e-06	328.72	111.54	97.273	33.62	3.5158e-06	42.187	0.00044734	0.00050321	0.00014888	1025	5.6898e-06	5.977e-06	1037.5	269	5.4811e-06	5.5016e-06	334.24	114.43	99.276	34.447	5.7002e-06	43.09	-99.160	-73.036	-44.406	-125.387	28.699	3.344	-125.605	-120.927	0.301	-7.910	-121.241	-117.215	-116.525	-111.594	17.511	-112.270	-8191	255	
775.922	1	1	0	0	0.2049	0.070697	0.21453	0.21443	0.13351	0.33074	0.14429	0.09204	0.14509	0.13192	0.12132	0.21349	0.15135	0.088301	0.20997	0.15711	-2.4021	-3.0875	-2.7625	-3.0604	-3.0792	-2.7479	-3.4	-2.8688	-2.9021	-3.1146	-2.9062	-3.0521	-3.1396	-2.7146	-3.2854	-2.8104	-63.257	134.103	-83.992	164.060	4.329	-43.717	173.159	-31.243	-47.572	88.093	154.650	145.945	180.592	-80.879	-1.470	-10.242	0.00025451	0.00033856	0.00010391	1014.2	1.882e-06	5.9368e-06	1026.1	263.55	2.3126e-06	4.6954e-06	330.02	111.31	96.7	33.652	3.5755e-06	41.983	0.00043572	0.00053488	0.00015096	1024.8	5.787e-06	6.1042e-06	1036.9	268.37	5.4901e-06	5.662e-06	334.08	114.33	99.135	34.441	5.8134e-06	43.088	-102.086	-42.773	-42.721	-125.274	45.987	4.268	-125.681	-121.054	3.473	42.794	-121.297	-117.127	-116.494	-111.623	10.626	-112.738	-8191	255	
776.018	1	1	0	0	0.26348	0.26177	0.15935	0.20244	0.14839	0.077222	0.16575	0.33771	0.10975	0.054332	0.24062	0.030818	0.057132	0.20843	0.23986	0.10999	-2.4854	-3.0563	-2.9458	-2.8958	-3.1604	-2.7375	-3.2438	-2.9229	-3.0521	-3.2354	-2.8854	-3.1479	-3.1167	-2.9896	-3.1542	-3.1208	173.740	197.050	-89.917	197.672	125.720	-111.935	156.852	73.104	14.148	-22.098	-96.317	192.564	155.970	187.772	-5.449	193.768	0.00027195	0.00030668	0.00011261	1012.3	3.1877e-06	5.31e-06	1023.9	265.54	2.4425e-06	4.6023e-06	329.2	111.67	97.396	33.605	3.683e-06	42	0.00045583	0.0005358	0.00015504	1024.8	5.5621e-06	6.0298e-06	1036.7	268.73	5.728e-06	5.7149e-06	334.16	114.57	99.341	34.458	5.5711e-06	43.105	-102.520	-37.670	-16.544	-125.301	8.572	21.697	-125.667	-120.733	-13.125	13.650	-121.196	-116.992	-116.107	-111.599	-0.947	-112.459	-8191	255	
776.116	1	1	0	0	0.12357	0.13581	0.16709	0.069448	0.19541	0.14696	0.13164	0.060119	0.19948	0.21707	0.21409	0.14773	0.12337	0.020094	0.12625	0.20177	-2.3812	-3.0875	-2.8146	-3.0062	-3.0417	-2.7958	-3.3875	-3.3	-2.9333	-3.2354	-2.9167	-2.9208	-3.1083	-2.6875	-3.1854	-3.0792	-120.696	-113.238	210.014	-49.332	97.352	181.035	213.577	87.036	13.872	-37.459	-15.822	-93.128	193.559	-18.882	-97.047	166.255	0.00025473	0.00036646	0.00010029	1018.9	1.7561e-06	3.6072e-06	1023.2	264.57	1.0545e-06	4.1018e-06	329.86	111.8	96.845	33.721	2.6167e-06	42.194	0.00044517	0.00051897	0.00015104	1027.2	5.4766e-06	5.8503e-06	1038.5	268.93	5.6311e-06	5.7781e-06	334.82	114.72	99.257	34.507	5.6613e-06	43.206	-101.999	-27.877	-62.145	-125.535	-8.467	3.048	-125.488	-120.820	29.458	12.348	-121.191	-116.828	-116.557	-111.961	24.414	-112.408	-8191	255	
776.235	1	1	0	0	0.03418	0.11954	0.10083	0.096843	0.17613	0.18158	0.11347	0.055227	0.14079	0.23476	0.072791	0.20943	0.1879	0.20395	0.066605	0.17238	-2.5667	-3.0563	-2.7771	-3.0375	-3.1896	-3.1479	-3.1979	-3.0875	-2.8271	-3.075	-2.9417	-2.7771	-3.1792	-2.7833	-3.025	-3.0667	174.405	-133.658	187.671	137.152	40.543	42.893	147.723	53.590	121.873	2.668	190.410	-110.425	120.663	171.055	137.580	189.333	0.0002674	0.00048589	8.365e-05	1014.4	4.9508e-06	2.8279e-06	1023	264.45	2.164e-06	2.9578e-06	329.71	112.28	97.06	33.675	4.4482e-06	42.238	0.00044957	0.00053686	0.00014461	1026.8	5.5072e-06	5.9597e-06	1038.5	269.18	5.7295e-06	5.2759e-06	334.89	114.89	99.452	34.525	5.7835e-06	43.216	-102.979	-45.374	-46.569	-125.294	11.002	28.769	-125.440	-120.980	-1.314	42.101	-121.205	-116.912	-116.436	-111.700	9.650	-112.528	-8191	255	
776.307	1	1	0	0	0.036543	0.13594	0.087573	0.10118	0.18767	0.20082	0.10673	0.30292	0.16074	0.25029	0.36902	0.34866	0.079962	0.11742	0.19716	0.22954	-2.3396	-2.9271	-3.0854	-2.8354	-3.1188	-2.8937	-3.1583	-3.2812	-2.75	-3.1125	-3.1729	-2.9396	-3.0417	-2.8792	-2.5354	-3.1937	0.575	12.713	65.105	168.735	102.686	-23.770	172.234	-86.161	15.070	-11.359	216.299	172.481	-111.841	-117.133	-57.020	-102.919	0.00027381	0.00041633	0.00011729	1019.2	3.1719e-06	4.7027e-06	1028.4	265.17	2.7805e-06	3.2417e-06	330.1	112.41	97.086	33.781	4.2872e-06	42.386	0.00045824	0.0005358	0.00014281	1026.9	5.3873e-06	5.728e-06	1039.6	269.33	5.7493e-06	5.8354e-06	335.31	115.15	99.436	34.535	5.5287e-06	43.232	-102.425	-44.617	-24.475	-125.384	-7.264	27.697	-125.283	-120.959	0.005	-1.743	-121.166	-116.979	-116.389	-111.891	7.421	-112.604	-8191	255	
776.427	1	1	0	0	0.16918	0.11768	0.30817	0.13666	0.10744	0.25438	0.25803	0.24098	0.053041	0.23921	0.090737	0.198	0.22882	0.15337	0.21989	0.22281	-2.45	-3.025	-2.9625	-2.9604	-3.2083	-2.8396	-3.2146	-3.1771	-2.5	-3.0104	-2.9854	-2.8854	-3.2833	-2.9813	-2.9833	-3.1042	196.568	51.411	106.409	-73.891	39.428	194.173	174.742	145.618	38.142	159.094	195.714	-111.131	122.739	-33.280	-10.722	2.478	0.00024989	0.00036795	0.00012052	1016.8	2.2723e-06	5.7303e-06	1026.6	264.72	3.0817e-06	4.0256e-06	329.06	112.05	97.203	33.81	4.3142e-06	42.421	0.00045281	0.00051771	0.00014067	1026.8	5.5849e-06	5.8164e-06	1040.1	269.35	5.614e-06	5.702e-06	335.16	115.03	99.524	34.571	5.6703e-06	43.355	-98.886	-44.066	-59.706	-125.537	6.027	28.336	-125.472	-120.835	11.523	-5.058	-121.241	-116.997	-116.521	-111.690	-5.753	-112.527	-8191	255	
776.523	1	1	0	0	0.093402	0.096173	0.18903	0.2593	0.067554	0.11901	0.19065	0.26628	0.10844	0.15236	0.14509	0.11434	0.15097	0.077544	0.1277	0.17915	-2.4333	-2.8917	-2.9104	-3.0896	-3.0604	-2.9958	-3.075	-3.1688	-2.9188	-2.7854	-3.3354	-2.8021	-2.9875	-2.9875	-2.7083	-3.2792	150.842	71.167	-74.609	-129.927	136.425	88.923	117.359	-51.090	166.769	135.281	119.981	192.176	93.141	-131.230	21.602	-42.077	0.00025831	0.00032424	0.00011442	1019.9	1.5588e-06	3.0763e-06	1027	265.15	2.8023e-06	3.343e-06	331.93	112.45	97.125	33.79	4.1791e-06	42.582	0.00044411	0.00052178	0.00014161	1030.2	5.601e-06	5.6665e-06	1040	269.34	5.6363e-06	5.7182e-06	336.22	115.19	99.562	34.617	5.6917e-06	43.435	-103.006	-44.583	-43.009	-125.364	29.963	10.604	-125.483	-120.995	9.367	1.894	-121.176	-116.909	-116.286	-111.633	15.331	-112.659	-8191	255	
776.619	1	1	0	0	0.34079	0.18513	0.10933	0.16152	0.19009	0.079443	0.27457	0.053493	0.052824	0.029429	0.19895	0.028563	0.082159	0.16107	0.12031	0.12477	-2.3354	-2.9667	-3.1188	-2.9042	-3.2354	-2.8937	-3.0062	-3.3896	-2.8438	-2.7625	-3.3563	-2.6958	-3.0125	-3.1958	-2.6667	-3.1021	183.760	131.809	28.569	113.168	187.365	-74.902	164.892	186.079	191.247	-46.172	-37.565	202.936	167.005	53.491	173.134	125.680	0.00024758	0.00055813	0.00015346	1019.7	1.1502e-06	4.91e-06	1026.6	265.61	3.7094e-06	3.6537e-06	331.84	112.35	97.132	33.93	2.6846e-06	42.314	0.00043678	0.00053565	0.00013636	1028.3	5.5456e-06	5.4385e-06	1041.8	270.03	5.4721e-06	5.6868e-06	336.21	115.27	99.881	34.666	5.6668e-06	43.481	-103.270	-48.320	-52.161	-125.419	48.359	-7.916	-125.395	-120.724	7.119	19.052	-121.142	-116.867	-116.528	-111.901	23.029	-112.526	-8191	255	
776.716	1	1	0	0	0.37777	0.0895	0.25257	0.082301	0.26129	0.14326	0.19446	0.11053	0.247	0.35856	0.15875	0.26279	0.25244	0.24046	0.19369	0.29409	-2.6708	-2.9333	-3.2333	-2.9354	-3.0625	-3.2687	-2.9104	-3.2562	-3.2021	-2.75	-3.2396	-2.7917	-2.9646	-3.225	-2.7979	-3.3542	156.224	54.593	-10.122	204.145	-31.156	-90.587	138.283	-30.456	100.065	58.101	186.934	153.815	121.372	-121.736	210.007	168.540	0.00024351	0.00046883	9.2899e-05	1016.9	3.0091e-06	1.9828e-06	1030.2	264.82	2.4947e-06	4.7307e-06	331.8	112.18	98.024	33.918	4.0648e-06	42.539	0.00042739	0.00051182	0.00013857	1029.1	5.3445e-06	5.4148e-06	1042.4	269.77	5.2314e-06	5.6782e-06	336.41	115.31	100.14	34.711	5.6668e-06	43.44	-96.120	-57.795	-40.362	-125.323	14.269	46.535	-125.618	-120.930	20.587	6.376	-121.448	-116.977	-116.107	-111.743	12.043	-112.502	-8191	255	
#DATA ENDS
