BOXY.EXE: ISS Imagent and Oximeter Data Acquisition Program Version 0.80
Ascii Record File

#ACQ INFORMATION
2  Detector Channels 
16  External MUX Channels 
1  Auxiliary Channels 
5000  Waveform (CCF) Frequency (Hz)
1  Waveforms Skipped 
30  Waveforms Averaged 
1  Cycles Averaged 
16  Acquisitions per Waveform 
10.0806  Updata Rate (Hz) 

#FILE INFORMATION
TRUE -- External MUX Channel results are PARSED.
FALSE -- AC DC and Phase are NOT grouped.
TRUE -- Companion Program Settings File CREATED.
FALSE -- AC data not excluded
FALSE -- DC data not excluded
FALSE -- Phase data not excluded
FALSE -- Auxillary Chn. data not excluded
Tab delimiters

#CALIBRATION STATE
TRUE -- Waveform Calibration Values APPLIED.


#AUX CALIBRATION VALUES
Val Type	aux-1	

Term	1.0000e+00	
Factor	0.0000e+00	


#WF CALIBRATION VALUES
A = Detector Channel
Val Type	A-AC1	A-AC2	A-AC3	A-AC4	A-AC5	A-AC6	A-AC7	A-AC8	A-AC9	A-AC10	A-AC11	A-AC12	A-AC13	A-AC14	A-AC15	A-AC16	A-DC1	A-DC2	A-DC3	A-DC4	A-DC5	A-DC6	A-DC7	A-DC8	A-DC9	A-DC10	A-DC11	A-DC12	A-DC13	A-DC14	A-DC15	A-DC16	A-Ph1	A-Ph2	A-Ph3	A-Ph4	A-Ph5	A-Ph6	A-Ph7	A-Ph8	A-Ph9	A-Ph10	A-Ph11	A-Ph12	A-Ph13	A-Ph14	A-Ph15	A-Ph16	

Term	0.00000e+00	0.00000e+00	0.00000e+00	0.00000e+00	0.00000e+00	0.00000e+00	0.00000e+00	0.00000e+00	0.00000e+00	0.00000e+00	0.00000e+00	0.00000e+00	0.00000e+00	0.00000e+00	0.00000e+00	0.00000e+00	0.00000e+00	0.00000e+00	0.00000e+00	0.00000e+00	0.00000e+00	0.00000e+00	0.00000e+00	0.00000e+00	0.00000e+00	0.00000e+00	0.00000e+00	0.00000e+00	0.00000e+00	0.00000e+00	0.00000e+00	0.00000e+00	0.00000e+00	0.00000e+00	0.00000e+00	0.00000e+00	0.00000e+00	0.00000e+00	0.00000e+00	0.00000e+00	0.00000e+00	0.00000e+00	0.00000e+00	0.00000e+00	0.00000e+00	0.00000e+00	0.00000e+00	0.00000e+00	
Factor	1.00000e+00	1.00000e+00	1.00000e+00	1.00000e+00	1.00000e+00	1.00000e+00	1.00000e+00	1.00000e+00	1.00000e+00	1.00000e+00	1.00000e+00	1.00000e+00	1.00000e+00	1.00000e+00	1.00000e+00	1.00000e+00	1.00000e+00	1.00000e+00	1.00000e+00	1.00000e+00	1.00000e+00	1.00000e+00	1.00000e+00	1.00000e+00	1.00000e+00	1.00000e+00	1.00000e+00	1.00000e+00	1.00000e+00	1.00000e+00	1.00000e+00	1.00000e+00	X	X	X	X	X	X	X	X	X	X	X	X	X	X	X	X	

B = Detector Channel
Val Type	B-AC1	B-AC2	B-AC3	B-AC4	B-AC5	B-AC6	B-AC7	B-AC8	B-AC9	B-AC10	B-AC11	B-AC12	B-AC13	B-AC14	B-AC15	B-AC16	B-DC1	B-DC2	B-DC3	B-DC4	B-DC5	B-DC6	B-DC7	B-DC8	B-DC9	B-DC10	B-DC11	B-DC12	B-DC13	B-DC14	B-DC15	B-DC16	B-Ph1	B-Ph2	B-Ph3	B-Ph4	B-Ph5	B-Ph6	B-Ph7	B-Ph8	B-Ph9	B-Ph10	B-Ph11	B-Ph12	B-Ph13	B-Ph14	B-Ph15	B-Ph16	

Term	0.00000e+00	0.00000e+00	0.00000e+00	0.00000e+00	0.00000e+00	0.00000e+00	0.00000e+00	0.00000e+00	0.00000e+00	0.00000e+00	0.00000e+00	0.00000e+00	0.00000e+00	0.00000e+00	0.00000e+00	0.00000e+00	0.00000e+00	0.00000e+00	0.00000e+00	0.00000e+00	0.00000e+00	0.00000e+00	0.00000e+00	0.00000e+00	0.00000e+00	0.00000e+00	0.00000e+00	0.00000e+00	0.00000e+00	0.00000e+00	0.00000e+00	0.00000e+00	-7.29439e+01	-1.30021e+02	-1.24914e+02	-1.83134e+02	-5.27761e+01	-7.14236e+01	-1.56866e+02	-1.62015e+02	-4.78778e+01	-6.48767e+01	-1.71930e+02	-1.71556e+02	-1.81736e+02	-1.77926e+02	-6.22738e+01	-1.50417e+02	
Factor	1.73134e-05	1.66260e-04	4.88759e-05	1.86492e-01	1.60179e-06	1.93899e-06	1.62677e-01	5.60871e-02	1.18118e-06	1.74570e-06	9.94639e-02	3.03487e-02	2.65711e-02	9.45456e-03	1.78352e-06	1.32450e-02	1.24241e-05	2.32072e-05	6.46118e-06	9.55684e-02	2.33110e-07	2.58720e-07	7.83537e-02	2.89116e-02	2.27059e-07	2.59205e-07	4.96099e-02	1.52121e-02	1.38846e-02	4.91572e-03	2.39358e-07	6.66233e-03	X	X	X	X	X	X	X	X	X	X	X	X	X	X	X	X	



#DISTANCE SETTINGS
A = Detector Channel
A-1	A-2	A-3	A-4	A-5	A-6	A-7	A-8	A-9	A-10	A-11	A-12	A-13	A-14	A-15	A-16	

2.5000e+00	3.0000e+00	2.5000e+00	3.0000e+00	2.0000e+00	3.0000e+00	1.5000e+00	3.0000e+00	3.0000e+00	3.0000e+00	3.0000e+00	3.0000e+00	3.0000e+00	3.0000e+00	1.5000e+00	3.0000e+00	

B = Detector Channel
B-1	B-2	B-3	B-4	B-5	B-6	B-7	B-8	B-9	B-10	B-11	B-12	B-13	B-14	B-15	B-16	

1.0000e+01	1.0000e+01	1.0000e+01	1.4400e+00	1.0000e+01	1.0000e+01	1.5100e+00	1.9400e+00	1.0000e+01	1.0000e+01	1.9900e+00	2.4900e+00	2.4100e+00	2.9000e+00	1.0000e+01	2.9800e+00	




#DATA BEGINS
time	group	step	mark	flag	A-AC1	A-AC2	A-AC3	A-AC4	A-AC5	A-AC6	A-AC7	A-AC8	A-AC9	A-AC10	A-AC11	A-AC12	A-AC13	A-AC14	A-AC15	A-AC16	A-DC1	A-DC2	A-DC3	A-DC4	A-DC5	A-DC6	A-DC7	A-DC8	A-DC9	A-DC10	A-DC11	A-DC12	A-DC13	A-DC14	A-DC15	A-DC16	A-Ph1	A-Ph2	A-Ph3	A-Ph4	A-Ph5	A-Ph6	A-Ph7	A-Ph8	A-Ph9	A-Ph10	A-Ph11	A-Ph12	A-Ph13	A-Ph14	A-Ph15	A-Ph16	B-AC1	B-AC2	B-AC3	B-AC4	B-AC5	B-AC6	B-AC7	B-AC8	B-AC9	B-AC10	B-AC11	B-AC12	B-AC13	B-AC14	B-AC15	B-AC16	B-DC1	B-DC2	B-DC3	B-DC4	B-DC5	B-DC6	B-DC7	B-DC8	B-DC9	B-DC10	B-DC11	B-DC12	B-DC13	B-DC14	B-DC15	B-DC16	B-Ph1	B-Ph2	B-Ph3	B-Ph4	B-Ph5	B-Ph6	B-Ph7	B-Ph8	B-Ph9	B-Ph10	B-Ph11	B-Ph12	B-Ph13	B-Ph14	B-Ph15	B-Ph16	aux-1	digaux	

1933.181	1	1	0	256	0.11792	0.17569	0.26944	0.13741	0.17709	0.040853	0.30047	0.27351	0.051493	0.2606	0.14187	0.13633	0.22914	0.20138	0.11744	0.23608	-2.3958	-2.7417	-2.8563	-2.7479	-2.8417	-2.8104	-2.7271	-3.0854	-2.7188	-2.6333	-3.1354	-2.6958	-3.1354	-3.1396	-2.5917	-3.1167	331.286	332.058	299.868	510.313	390.196	260.352	505.229	516.576	346.083	387.773	516.308	504.607	465.024	246.431	425.844	463.182	0.0013561	0.00025921	0.00027464	810.25	3.9092e-06	6.0776e-06	743.69	292.74	6.0256e-06	1.0961e-05	335.31	144.91	142.37	75.079	8.5429e-06	73.563	0.01049	0.0039319	0.0010059	773.96	3.9022e-05	4.0679e-05	746.65	280.43	4.0078e-05	4.4734e-05	322.69	148.38	137.2	72.13	4.3966e-05	70.321	297.435	275.359	242.659	186.647	284.869	340.802	185.220	192.198	354.871	298.137	189.703	192.854	197.321	201.441	299.252	197.510	-8191	255	
1933.277	1	1	0	0	0.12313	0.15298	0.14243	0.26185	0.17586	0.18079	0.23738	0.021949	0.12605	0.2713	0.086976	0.18399	0.15096	0.19268	0.23916	0.081731	-2.5354	-2.725	-3.0563	-2.6688	-2.8229	-3.0667	-2.7771	-3.0521	-2.6625	-2.7229	-3	-2.8271	-3.0271	-2.9917	-2.45	-2.9417	340.900	469.224	188.156	518.627	435.194	237.215	516.626	307.204	177.118	311.743	504.567	465.902	463.030	469.579	391.168	175.496	0.00089453	0.00066042	0.00015324	808.35	6.0743e-06	6.7984e-06	746.72	292.99	5.3702e-06	1.7145e-06	338.32	146.39	142.4	75.633	1.5537e-05	74.08	0.0075361	0.0040302	0.0010429	772.92	3.8889e-05	4.0407e-05	764.93	279.81	3.814e-05	4.5803e-05	325.29	146.5	137.55	72.745	4.4675e-05	71.246	293.540	278.446	239.674	186.887	342.179	368.585	185.383	192.208	312.451	284.312	189.287	193.307	197.145	201.356	313.851	197.269	-8191	255	
1933.373	1	1	0	0	0.19127	0.085916	0.12849	0.13057	0.15006	0.25702	0.1726	0.22933	0.155	0.27823	0.16029	0.20173	0.21123	0.12151	0.30159	0.11977	-2.425	-2.7646	-2.9562	-2.7729	-2.6875	-2.9354	-2.8312	-3.1229	-2.8542	-2.6083	-3.1458	-2.8333	-2.9667	-3.1917	-2.6417	-2.9125	401.629	403.324	373.796	476.081	450.051	445.436	477.503	403.455	413.613	441.334	329.379	474.490	218.725	443.661	183.302	346.970	0.00092147	0.0046304	0.00023274	817.53	8.1014e-06	7.1467e-06	755.66	294.08	4.9282e-06	9.557e-06	341.49	147.9	144.87	75.902	4.0992e-06	74.352	0.0051895	0.01091	0.0010489	777.85	3.9619e-05	4.0546e-05	754.49	281.89	3.665e-05	4.6819e-05	328.67	150.7	138.94	73.04	4.4327e-05	71.348	316.498	221.883	263.081	186.970	307.961	334.788	184.590	192.315	368.691	290.876	190.004	193.063	196.982	201.611	343.549	197.306	-8191	255	
1933.469	1	1	0	0	0.25313	0.3266	0.29916	0.12955	0.040488	0.17255	0.093718	0.239	0.21629	0.078035	0.20205	0.15392	0.16598	0.162	0.11004	0.11293	-2.4729	-2.6875	-3.1229	-2.9333	-2.7812	-3.1125	-2.6188	-3.1792	-2.9437	-2.5604	-3.0458	-2.8812	-2.9	-3.0542	-2.5667	-2.9229	194.272	443.963	360.725	398.220	218.194	478.757	342.376	499.272	400.748	429.921	389.182	478.369	195.091	524.610	297.685	493.189	0.00063064	0.0054772	0.00015671	807.49	6.3889e-06	8.533e-06	745.48	292.05	4.2658e-06	1.1098e-05	337.59	144.99	142.21	74.58	2.7456e-06	72.804	0.0023147	0.013544	0.0010636	772.03	3.9938e-05	4.0829e-05	758.78	280.01	3.6176e-05	4.6189e-05	324.73	144.33	137.35	71.933	4.3744e-05	69.873	252.274	287.661	240.318	186.960	375.760	422.554	185.169	191.906	297.911	330.430	189.967	193.707	197.415	201.512	296.887	197.435	-8191	255	
1933.565	1	1	0	0	0.16421	0.21442	0.087979	0.35559	0.1581	0.014631	0.13896	0.19454	0.18496	0.10868	0.1859	0.15275	0.12948	0.15331	0.20711	0.25432	-2.4646	-2.7333	-2.9042	-2.6729	-2.6	-2.8521	-2.8021	-3.0146	-3.0625	-2.7042	-2.9521	-2.8812	-2.5771	-3.1833	-2.7958	-2.9083	188.002	503.117	451.844	501.528	265.285	451.493	339.663	435.282	190.374	279.557	445.969	180.192	382.440	450.398	372.134	459.568	0.00066935	0.0080867	4.7592e-05	808.69	2.3565e-06	5.4219e-06	741.32	291.91	4.3483e-06	8.3385e-06	338.02	144.51	141.92	74.476	6.2974e-06	72.339	0.0022569	0.016735	0.0010536	769.05	4.0688e-05	4.1016e-05	739.8	279.71	3.5056e-05	4.7062e-05	323.88	140.56	140	71.599	4.1944e-05	69.599	257.217	297.127	274.269	186.858	235.233	195.909	185.165	192.269	356.675	325.474	189.414	193.772	196.731	201.837	333.962	197.591	-8191	255	
1933.662	1	1	0	0	0.082207	0.099725	0.13183	0.16277	0.15259	0.071875	0.3152	0.11135	0.16301	0.087989	0.25896	0.11158	0.20209	0.17725	0.33884	0.19568	-2.575	-2.5687	-3.1	-2.9938	-2.5854	-3.1104	-2.8729	-2.8417	-2.9708	-2.5833	-2.9896	-2.9021	-2.6354	-3.1542	-2.7167	-2.8792	224.997	298.384	302.069	460.149	416.248	340.391	408.366	450.474	196.477	295.269	438.802	467.592	203.240	522.858	175.463	484.627	0.00062429	0.0041154	0.00017384	793.94	6.0037e-06	5.2874e-06	734.81	286.39	6.7519e-06	7.5276e-06	332.68	142.18	137.71	72.083	4.7009e-06	70.462	0.0022582	0.010804	0.0010558	757.48	4.1537e-05	4.0725e-05	728.88	274.4	3.6309e-05	4.7619e-05	320.22	136.43	135.33	69.593	4.2879e-05	67.85	248.120	298.756	302.072	186.841	376.767	361.433	185.148	192.188	340.410	301.927	189.497	193.650	197.490	201.664	258.353	197.361	-8191	255	
1933.782	1	1	0	0	0.090442	0.041312	0.045929	0.08594	0.10849	0.10834	0.19988	0.098264	0.25349	0.1954	0.18743	0.10448	0.084409	0.2047	0.063585	0.04191	-2.3167	-2.6	-2.8917	-2.7833	-2.4958	-2.9854	-2.8167	-2.8104	-3.1104	-2.6979	-2.925	-2.9437	-2.6896	-3.3375	-2.7792	-2.9188	481.606	518.018	324.497	471.358	383.918	395.728	202.566	355.497	402.079	441.923	198.481	292.640	436.217	521.281	393.750	451.257	0.00065458	0.0025801	0.00012439	779.77	6.9379e-06	6.9016e-06	730.1	281.1	4.9002e-06	6.9072e-06	328.1	138.22	135.07	70.493	1.137e-05	69.614	0.0023829	0.0080067	0.0011367	744.73	4.4526e-05	4.4442e-05	702.6	269.66	3.9074e-05	4.9223e-05	316.29	133.23	131.93	67.993	4.1749e-05	66.945	251.940	293.243	210.923	186.520	331.048	314.429	185.531	192.265	352.535	379.512	189.817	193.665	197.323	201.721	323.857	197.558	-8191	255	
1933.877	1	1	0	0	0.039346	0.14867	0.16204	0.14387	0.25242	0.07872	0.36628	0.11169	0.30184	0.084339	0.26476	0.1459	0.12629	0.121	0.32088	0.42765	-2.4646	-2.7167	-2.8667	-3.025	-2.6604	-3.0104	-2.7896	-2.6437	-2.85	-2.7979	-2.8375	-2.8458	-2.5667	-3.1979	-2.8292	-2.7208	444.413	377.787	258.683	489.701	324.457	322.199	487.742	405.616	247.702	518.885	482.908	462.102	488.516	294.778	520.470	426.765	0.00064154	0.0016082	0.00011925	783.56	2.7204e-06	6.705e-06	731.18	278.47	5.5005e-06	1.0877e-05	325.68	135.68	132.5	68.248	8.7896e-06	66.972	0.0024888	0.0056624	0.0011482	745.36	4.4908e-05	4.5963e-05	695.82	269.24	4.0525e-05	4.8147e-05	312.53	129.96	128.42	66.141	4.2061e-05	64.537	252.277	293.371	291.257	186.884	302.653	304.379	185.379	192.240	334.870	359.940	189.790	193.560	197.099	201.661	339.897	197.536	-8191	255	
1933.975	1	1	0	0	0.19012	0.17183	0.15619	0.22536	0.23718	0.15909	0.3646	0.25449	0.049598	0.051941	0.13957	0.23754	0.17923	0.1935	0.27248	0.2356	-2.6437	-2.6667	-2.8729	-3.1292	-2.6375	-2.9938	-2.9979	-2.6688	-3.2521	-2.7333	-2.9375	-3.0896	-2.6813	-3.0312	-2.7708	-2.7562	532.994	322.100	493.260	240.336	200.207	457.046	473.562	405.941	367.874	246.154	526.532	214.570	531.987	489.495	302.366	473.104	0.00051054	0.00081766	7.7543e-05	778.71	3.7897e-06	9.073e-06	723.08	277.9	3.1868e-06	5.1682e-06	319.17	132.85	130.19	67.232	6.5888e-06	66.166	0.0024449	0.005119	0.0011637	742.79	4.4788e-05	4.5732e-05	688.66	267.4	4.0539e-05	4.6862e-05	309.07	127.61	126.85	65.217	4.0784e-05	63.769	254.868	301.155	249.715	186.926	244.628	295.948	185.238	192.219	425.166	258.954	189.640	193.841	197.385	202.029	254.713	197.863	-8191	255	
1934.071	1	1	0	0	0.093619	0.2128	0.24884	0.12529	0.082161	0.2282	0.093845	0.15292	0.20521	0.20886	0.23164	0.19752	0.31725	0.092875	0.12564	0.19673	-2.4813	-2.6646	-2.725	-3.1646	-2.7771	-2.9604	-2.9437	-2.7167	-3.0812	-2.8708	-2.8	-3.1021	-2.6583	-2.8812	-2.9417	-2.6063	479.006	282.684	217.681	493.117	217.017	204.970	474.571	456.022	519.226	377.195	524.076	521.193	190.903	208.876	375.027	469.715	0.00060357	0.00063679	0.0001978	782.5	3.0664e-06	5.7959e-06	729.68	278.97	4.5087e-06	6.8348e-06	323.09	133.94	132.11	68.228	3.8197e-06	66.718	0.0024861	0.0044363	0.0011962	747.13	4.3811e-05	4.5596e-05	691.23	267.71	4.0799e-05	4.5283e-05	311.43	129	127.69	65.877	4.2059e-05	64.281	254.132	285.764	233.353	187.030	336.947	357.580	185.257	192.369	379.231	380.146	189.881	193.738	197.654	201.766	280.299	197.476	-8191	255	
1934.165	1	1	0	0	0.16674	0.16931	0.28348	0.097897	0.14724	0.055959	0.083812	0.16642	0.11041	0.26534	0.054852	0.13307	0.10548	0.30683	0.21024	0.10872	-2.6792	-2.8146	-2.7792	-3.1792	-2.8937	-2.7562	-2.9292	-2.5854	-2.8917	-2.775	-2.8833	-3.0792	-2.8104	-2.9875	-2.9833	-2.7396	416.668	308.504	334.002	509.970	529.883	303.532	412.815	514.181	329.036	466.700	440.045	481.581	503.677	492.423	208.414	435.805	0.00060155	0.00064151	7.9912e-05	784.46	8.5326e-06	5.9422e-06	731.7	278.61	5.2223e-06	4.9322e-06	321.16	133.76	132.57	68.373	6.7067e-06	67.165	0.0025168	0.0041861	0.0012805	750.39	4.4358e-05	4.6427e-05	695.56	268.29	4.0186e-05	4.5075e-05	311.12	129.06	128.07	66.156	4.2218e-05	64.879	253.168	263.353	213.081	186.655	346.326	310.913	185.469	192.626	332.821	364.364	189.760	193.856	197.362	201.675	292.067	197.900	-8191	255	
1934.261	1	1	0	0	0.16374	0.17849	0.18124	0.13807	0.083993	0.25957	0.14934	0.077191	0.1424	0.19776	0.13537	0.21596	0.06984	0.28361	0.16587	0.37077	-2.5271	-2.7458	-2.5958	-3.0604	-2.7	-2.6813	-2.9167	-2.6458	-2.8438	-2.8875	-2.6312	-3.0042	-2.9292	-2.8375	-3.0375	-2.6562	278.997	206.290	447.788	342.260	487.147	308.334	367.899	447.445	410.388	300.021	323.914	449.835	507.931	521.066	396.540	405.080	0.00061107	0.00040834	0.0002156	785.27	6.808e-06	1.1346e-05	736.38	281.78	7.893e-06	8.2906e-06	326.02	136.01	134.68	69.24	4.0231e-06	67.238	0.002549	0.0040239	0.0013192	750.96	4.4463e-05	4.8893e-05	699.39	271.5	4.2651e-05	4.675e-05	315.79	131.12	130.06	66.996	4.4732e-05	65.117	253.266	284.490	268.493	187.004	351.885	313.025	185.302	192.256	321.980	362.982	189.655	193.913	197.271	201.754	324.275	197.790	-8191	255	
1934.382	1	1	0	0	0.069573	0.34074	0.24006	0.13638	0.31303	0.23681	0.19473	0.19272	0.21797	0.21887	0.22803	0.16965	0.21006	0.12712	0.057743	0.058979	-2.4333	-2.8563	-2.4688	-2.95	-2.7271	-2.7667	-2.9938	-2.6979	-2.7958	-2.8083	-2.5563	-2.8833	-2.9083	-2.8792	-2.9854	-2.6188	532.965	481.418	279.960	530.390	364.621	299.714	458.184	470.231	494.692	472.323	421.403	415.863	493.126	458.590	395.994	486.306	0.00055953	0.00066972	0.00024687	789.36	4.3487e-06	6.8069e-06	734.11	282.56	6.3656e-06	1.0854e-05	325.68	135.44	135.01	68.919	7.92e-06	65.947	0.002586	0.0041204	0.001338	752.56	4.3161e-05	4.9922e-05	698.27	271.44	4.2214e-05	4.7467e-05	315.37	130.63	130.29	66.679	4.546e-05	63.855	259.521	298.466	267.261	187.034	314.527	223.560	185.734	192.387	299.783	320.874	190.210	194.092	197.314	202.022	354.822	197.550	-8191	255	
1934.478	1	1	0	0	0.10659	0.16546	0.10984	0.17079	0.12006	0.087967	0.47695	0.14797	0.12913	0.13503	0.17349	0.35297	0.10559	0.1942	0.2768	0.16589	-2.2604	-2.85	-2.6	-2.85	-2.6562	-2.6896	-3.025	-2.6146	-2.8417	-2.9417	-2.5354	-2.9708	-2.9542	-2.6771	-3.0479	-2.6	247.391	315.581	375.892	505.996	439.227	356.788	448.557	459.718	430.050	429.585	530.371	196.671	179.467	490.053	328.900	300.928	0.00060569	0.0010532	0.00017174	783.6	2.6843e-06	1.2093e-05	734.32	281.25	6.7843e-06	5.4408e-06	326.26	136.61	134.46	69.079	6.8025e-06	66.476	0.0027046	0.0043815	0.0013657	752.15	4.1799e-05	5.1576e-05	697.49	271.66	4.3478e-05	4.6165e-05	315.55	131.14	130.39	66.702	4.5035e-05	64.01	250.751	245.189	273.717	187.217	356.647	363.303	185.263	192.440	317.311	355.146	189.776	194.177	197.242	201.832	337.580	197.754	-8191	255	
1934.574	1	1	0	0	0.12753	0.057919	0.17568	0.13908	0.37886	0.24192	0.27755	0.13659	0.062181	0.10246	0.33231	0.14187	0.049123	0.058316	0.20216	0.21821	-2.3312	-3.0354	-2.6292	-3.0792	-2.9521	-2.5187	-3.1021	-2.7917	-2.8104	-2.9333	-2.8021	-2.7792	-3.0646	-2.8937	-2.9562	-2.7146	418.071	227.410	509.152	181.753	335.645	193.971	464.302	454.607	455.577	453.733	479.042	373.123	250.501	305.987	228.627	401.581	0.00056007	0.0011669	0.00039124	786.37	3.3467e-06	8.2598e-06	738.31	282.63	7.6784e-06	9.4849e-06	325.19	135.37	135.31	68.784	7.3187e-06	66.622	0.0026684	0.0042726	0.0013503	752.07	4.3499e-05	5.3368e-05	701.04	271.46	4.5649e-05	4.8925e-05	315.22	130.39	130.43	66.561	4.5049e-05	64.029	247.120	259.506	243.587	186.940	270.261	308.845	185.593	192.285	326.845	309.836	189.932	193.717	197.315	201.854	231.197	197.496	-8191	255	
1934.670	1	1	0	0	0.12121	0.13719	0.16168	0.31982	0.14637	0.23109	0.16803	0.23747	0.14266	0.16321	0.11748	0.30728	0.24219	0.39497	0.056657	0.15456	-2.4604	-3.0333	-2.6208	-2.7875	-2.8625	-2.4521	-3.1792	-2.6417	-2.7812	-2.9417	-2.7583	-2.725	-2.9458	-2.6813	-2.9083	-2.9167	333.772	334.918	175.717	195.409	317.209	367.745	349.279	526.133	177.921	222.900	362.468	511.155	481.003	201.772	220.356	472.268	0.00061177	0.00015235	0.00014225	787.6	5.9773e-06	6.0049e-06	735.91	284	1.4217e-06	7.7011e-06	328.28	136.33	134.98	69.299	5.8091e-06	66.757	0.0027659	0.0043201	0.0013233	751.17	4.4127e-05	5.3032e-05	699.47	272.63	4.7384e-05	4.914e-05	317	131.16	130.86	66.861	4.5266e-05	64.255	252.418	345.528	259.515	187.039	303.070	307.398	185.538	192.561	241.872	301.033	189.771	193.584	197.371	201.746	248.066	197.160	-8191	255	
1934.766	1	1	0	0	0.11382	0.15345	0.13313	0.2344	0.1313	0.11724	0.16778	0.21475	0.18375	0.060295	0.16607	0.079898	0.095269	0.26613	0.15078	0.12819	-2.2562	-2.9833	-2.5875	-2.8271	-2.95	-2.6979	-3.0396	-2.8646	-2.6104	-3.0292	-2.7333	-2.9542	-2.9813	-2.6937	-2.8333	-3.0333	220.653	282.085	303.301	370.313	373.439	385.887	378.134	517.519	186.837	217.993	520.465	402.471	445.121	478.840	517.796	294.573	0.00063255	0.00070876	0.00013469	790.63	3.32e-06	4.8116e-06	736.41	284.56	3.671e-06	3.6755e-06	328.24	135.21	135.61	68.325	5.4844e-06	65.379	0.0028632	0.0044763	0.0012902	754.69	4.4119e-05	5.2729e-05	701.26	273.11	4.8198e-05	4.8938e-05	315.54	130.05	130.54	66.091	4.5999e-05	62.759	253.417	284.824	258.287	187.015	351.092	431.900	185.339	192.233	303.613	202.218	190.105	193.735	197.255	201.817	340.016	197.596	-8191	255	
1934.863	1	1	0	0	0.10378	0.066688	0.29663	0.16997	0.042478	0.23027	0.077477	0.28609	0.10893	0.028224	0.11251	0.23306	0.21914	0.25884	0.077157	0.090862	-2.1771	-2.9229	-2.8375	-2.7042	-2.8729	-2.6208	-2.9604	-2.8417	-2.6479	-3.0021	-2.85	-2.9229	-3.0083	-2.7521	-2.8812	-2.6792	488.554	347.469	358.996	469.583	359.701	479.086	508.328	476.918	261.085	480.134	440.212	447.962	402.207	219.145	183.008	404.142	0.00059161	0.00074989	0.00011659	790.64	7.6676e-06	1.4423e-05	737.51	284.42	7.3759e-06	5.3548e-06	328.82	135.24	136.26	69.131	3.7954e-06	65.886	0.0028496	0.0044614	0.0012774	757.39	4.3326e-05	5.1928e-05	700.51	273.43	4.8738e-05	4.8839e-05	316.17	130.52	132.02	66.884	4.536e-05	63.449	252.466	307.269	290.729	187.031	357.514	293.059	185.466	192.097	290.642	293.424	189.555	193.657	197.468	201.834	296.485	197.576	-8191	255	
1934.959	1	1	0	0	0.26649	0.091848	0.063851	0.37409	0.070638	0.35973	0.14091	0.094077	0.049546	0.19505	0.085034	0.10664	0.15282	0.079427	0.10852	0.17289	-2.0125	-2.9875	-2.5854	-2.7062	-2.9625	-2.7104	-2.8187	-2.8875	-2.6354	-2.8583	-2.7292	-2.8458	-3.0854	-2.8167	-2.7833	-3.0375	321.506	511.671	394.897	501.778	216.077	240.747	503.587	212.826	223.695	504.378	522.269	496.824	177.961	467.349	299.254	403.146	0.00059848	0.0004005	5.2303e-05	788.79	5.353e-06	5.2265e-06	736.58	288.46	4.3036e-06	6.2592e-06	329.84	135.74	137.45	69.58	5.6331e-06	66.74	0.0028272	0.0044124	0.0012351	757.09	4.3902e-05	5.0608e-05	702.94	275.34	4.8681e-05	4.7831e-05	317.4	131.36	132.62	67.359	4.6992e-05	64.199	254.037	228.370	284.850	187.181	317.734	373.840	185.321	192.431	376.038	257.224	189.970	193.779	197.430	201.820	333.069	197.655	-8191	255	
1935.055	1	1	0	0	0.19256	0.098068	0.22494	0.16675	0.19219	0.065802	0.17782	0.12113	0.26208	0.17578	0.20466	0.13327	0.10543	0.13077	0.18022	0.10557	-2.1333	-2.8708	-2.825	-2.6396	-2.9917	-2.7812	-2.9375	-3.1042	-2.6208	-2.8083	-2.8417	-2.6875	-2.875	-2.7875	-2.8396	-3.1125	236.512	310.594	239.609	257.816	350.856	452.808	321.721	489.781	508.139	287.560	200.919	507.580	182.267	196.254	255.836	468.144	0.00060981	0.00071615	4.0581e-05	795.09	8.4464e-06	3.7191e-06	742.29	288.46	4.7414e-06	2.315e-06	331.52	138.95	139.39	70.091	3.4313e-06	67.332	0.002811	0.0043441	0.00122	761.49	4.3356e-05	4.9526e-05	709.01	276.86	4.7566e-05	4.8906e-05	321.18	134	134.25	67.732	4.8994e-05	64.988	253.358	322.837	320.606	186.994	365.433	266.551	185.501	192.416	351.894	237.215	190.025	193.428	197.291	201.956	307.518	197.511	-8191	255	
1935.174	1	1	0	0	0.13438	0.17827	0.12023	0.27523	0.021753	0.12174	0.26234	0.18636	0.10084	0.2561	0.21209	0.21738	0.15924	0.34862	0.054988	0.14041	-2.2229	-2.8375	-2.9896	-2.7604	-3.0438	-2.8167	-2.8479	-3.0833	-2.5729	-3.0667	-2.9729	-2.7687	-3.1625	-3.0417	-2.8604	-3.2167	218.143	212.655	333.182	183.632	492.475	180.275	488.536	420.552	230.157	475.255	179.606	481.699	496.675	478.267	218.133	178.575	0.00054879	0.0012585	8.0596e-05	801.92	5.0994e-07	6.0737e-06	747.68	289.19	8.303e-06	7.8876e-06	333.5	140.36	139.62	70.688	7.4616e-06	67.153	0.0027465	0.004388	0.0012035	766.35	4.2881e-05	4.8151e-05	712.55	278.38	4.6182e-05	4.9032e-05	322.63	135.03	134.68	68.022	4.9071e-05	64.618	255.033	216.021	213.096	186.962	320.102	313.535	185.601	192.297	303.458	320.255	190.243	193.757	197.534	201.561	299.654	196.939	-8191	255	
1935.270	1	1	0	0	0.028244	0.14136	0.15784	0.10745	0.11855	0.23643	0.30003	0.12218	0.11962	0.2937	0.13076	0.21079	0.24857	0.23753	0.15906	0.031458	-2.2562	-2.8354	-3.0271	-2.6833	-3.0812	-2.7562	-2.875	-3.0563	-2.7167	-2.8333	-2.8354	-2.7792	-3.0604	-3.0292	-2.7292	-3.2021	329.117	456.031	410.446	197.494	346.351	509.995	474.427	219.300	177.788	247.130	188.386	503.752	378.248	503.725	474.340	464.351	0.00060624	8.3712e-05	0.00021958	791.36	4.1095e-06	1.6466e-05	743.18	289.48	5.3363e-06	4.1096e-07	333.37	139.1	139.96	70.253	8.3481e-06	66.373	0.0027094	0.0043842	0.0011873	759.15	4.3386e-05	4.7996e-05	708.28	277.77	4.521e-05	4.9968e-05	321.7	133.79	135.05	67.889	5.0669e-05	64.264	261.447	360.730	294.866	186.825	316.366	283.457	185.329	192.484	347.419	292.193	189.841	193.437	197.289	201.391	235.872	197.582	-8191	255	
1935.342	1	1	0	0	0.22413	0.14655	0.10424	0.18778	0.25669	0.22703	0.24054	0.35026	0.042002	0.19588	0.29268	0.032969	0.14634	0.23129	0.12157	0.18869	-2.1729	-2.7229	-2.8167	-2.7021	-2.9667	-2.7167	-2.725	-2.925	-2.8479	-2.7812	-3.0146	-2.4958	-2.9062	-2.9375	-2.6	-3.0125	242.747	431.098	201.028	499.804	234.639	410.650	519.348	195.187	401.347	205.384	508.938	395.421	213.220	481.089	453.544	418.633	0.00056411	0.0013283	0.00035113	792.54	1.1112e-05	2.7187e-06	741.78	288.45	4.7179e-06	1.1547e-05	330.41	137.23	138.1	69.913	1.1387e-05	66.536	0.0027389	0.004488	0.0011952	760.62	4.3615e-05	4.8556e-05	707.77	277.1	4.4385e-05	5.2073e-05	318.61	132.28	133.4	67.457	5.0766e-05	63.984	253.270	285.566	220.738	186.993	332.707	313.289	185.477	192.721	309.099	302.870	189.494	194.136	197.498	201.636	257.868	197.419	-8191	255	
1935.462	1	1	0	0	0.061952	0.1811	0.14824	0.078188	0.20075	0.21576	0.07407	0.35028	0.31002	0.10682	0.21161	0.14726	0.075916	0.15661	0.30959	0.4417	-2.3375	-2.6688	-2.9417	-2.7583	-2.9271	-2.9875	-2.8688	-3.1063	-2.9125	-2.7125	-3.0312	-2.7667	-3.0583	-3.1292	-2.7	-3.0604	308.451	520.247	407.370	473.368	223.898	387.489	303.072	476.773	490.455	320.974	280.299	491.692	284.459	524.197	494.207	430.166	0.00060794	0.00018087	0.00011622	783.67	2.7078e-06	5.5392e-06	736.48	286.55	3.491e-06	3.6782e-06	331.6	137.01	137.52	69.705	9.4278e-06	66.685	0.002619	0.0045439	0.0011711	755.04	4.3386e-05	4.6616e-05	703.94	273.86	4.238e-05	5.3221e-05	318.32	131.98	132.32	67.013	4.9724e-05	64.01	253.218	184.586	177.146	186.813	373.485	259.042	185.262	192.189	307.767	270.468	190.136	193.459	197.526	201.574	345.869	197.434	-8191	255	
1935.558	1	1	0	0	0.095844	0.014617	0.051802	0.14829	0.12582	0.36634	0.23767	0.18354	0.29354	0.052709	0.28332	0.32189	0.22594	0.047015	0.18832	0.36754	-2.4917	-2.5042	-3.0458	-2.6792	-2.8937	-2.9521	-2.6208	-3.0687	-2.5896	-2.5938	-3.0729	-2.6813	-3.0229	-3.1188	-2.3479	-2.9354	360.008	330.768	454.850	522.983	322.898	297.857	354.650	329.308	221.316	262.191	185.034	493.903	520.164	277.491	396.042	502.418	0.0005324	0.00067978	7.9839e-05	788.39	1.0006e-05	8.8649e-06	742.26	286.88	6.602e-07	8.0414e-06	331.28	137.68	137.53	69.842	4.6486e-06	66.785	0.0026073	0.0046617	0.0011737	757.34	4.4351e-05	4.7285e-05	705.77	274.8	4.2436e-05	5.3018e-05	318.87	132.55	132.76	67.276	4.9272e-05	64.192	250.763	216.113	230.233	187.307	355.129	275.803	185.662	192.637	380.352	278.005	190.080	193.627	197.439	201.585	339.397	197.458	-8191	255	
1935.655	1	1	0	0	0.22618	0.11973	0.19097	0.23692	0.18394	0.084912	0.19633	0.21932	0.093124	0.10466	0.10355	0.16191	0.1524	0.23746	0.14567	0.092336	-2.4833	-2.55	-2.8583	-2.7271	-2.6813	-3.0563	-2.6417	-2.8708	-2.8396	-2.6729	-3.0625	-2.7562	-2.7479	-2.9708	-2.4042	-3.0187	273.157	332.047	239.145	418.257	326.099	491.441	494.200	403.559	521.374	470.249	266.318	178.902	442.374	472.413	341.759	458.749	0.00060798	0.00083364	0.00037032	790.97	9.9586e-06	5.336e-06	736	285.19	5.2806e-06	1.698e-05	327.95	135.37	136.57	69.096	2.4325e-06	65.232	0.0026039	0.0046585	0.0011597	754.7	4.6409e-05	4.7093e-05	704.47	274.95	4.1996e-05	5.4323e-05	316.39	130.8	132.36	66.682	4.8046e-05	63.21	254.854	265.016	258.472	187.182	329.373	298.540	185.652	192.404	354.408	313.179	190.150	193.987	197.277	201.634	186.503	197.415	-8191	255	
1935.775	1	1	0	0	0.19011	0.12354	0.10834	0.1806	0.20597	0.17015	0.10782	0.10234	0.094063	0.25024	0.087685	0.10245	0.13758	0.16808	0.086546	0.11362	-2.4104	-2.5771	-2.8125	-2.8187	-2.6396	-3.1042	-2.5771	-2.8958	-2.8688	-2.7208	-2.9604	-2.8167	-2.6146	-3.125	-2.675	-3.0708	311.110	486.438	307.841	532.471	437.754	382.488	297.260	234.899	357.336	495.995	524.532	442.491	473.845	491.337	458.258	200.958	0.00058034	0.00060644	0.00018803	787.55	1.0626e-05	7.307e-06	734.48	286.54	5.8324e-06	6.664e-06	328.57	134.68	137.18	69.135	2.8082e-06	65.448	0.0025532	0.004674	0.0011757	752.09	4.784e-05	4.6289e-05	700.1	274.92	4.1987e-05	5.3259e-05	316.02	130.24	132.5	66.872	4.9008e-05	63.319	253.934	215.971	267.911	186.935	362.804	332.559	185.530	192.357	304.678	278.746	190.130	193.699	197.652	201.752	438.696	197.320	-8191	255	
1935.871	1	1	0	0	0.11642	0.090812	0.060087	0.30078	0.27544	0.11029	0.34899	0.20473	0.11667	0.066233	0.21356	0.073756	0.18153	0.36137	0.12257	0.24003	-2.4188	-2.5833	-2.8604	-2.8063	-2.6437	-3.0667	-2.7812	-2.9562	-2.9542	-2.4813	-2.8667	-2.8063	-2.6521	-3.2	-2.7313	-2.9104	442.476	345.049	294.517	459.424	293.860	273.424	361.853	179.154	400.809	513.154	477.615	527.905	191.597	465.262	332.120	431.153	0.00052841	0.001005	0.00017346	792.34	7.7758e-06	1.4164e-05	743.47	286.09	3.5508e-06	6.3682e-06	329.68	135.94	136.09	69.433	9.0448e-06	66.054	0.0025929	0.0046822	0.0011845	756.67	4.777e-05	4.6141e-05	705.08	274.85	4.1147e-05	5.2325e-05	317.55	130.62	131.82	66.866	4.6231e-05	63.9	254.670	316.285	271.873	187.107	310.838	295.330	185.629	192.094	288.319	287.487	189.879	193.726	197.094	201.646	313.899	197.527	-8191	255	
1935.943	1	1	0	0	0.22587	0.28368	0.11162	0.16124	0.093097	0.10799	0.23104	0.059538	0.31187	0.087559	0.16674	0.19565	0.18838	0.18676	0.20839	0.11916	-2.4208	-2.5667	-2.7938	-2.8563	-2.6	-3.0479	-2.8771	-2.8667	-2.9583	-2.6813	-2.8854	-3.0312	-2.7292	-3.0646	-2.7812	-2.8875	207.363	491.783	519.120	256.859	489.841	362.856	505.388	444.771	403.609	474.645	459.773	492.031	516.394	529.169	494.712	223.061	0.00059455	0.00064732	0.00019062	788.99	1.9786e-06	1.5448e-05	739.14	285.42	2.7871e-06	6.6058e-06	331.13	136.55	136	69.408	2.6762e-06	67.006	0.0025336	0.0045351	0.0012217	755.93	4.8743e-05	4.5903e-05	705.16	274.54	4.1596e-05	5.1151e-05	318.63	131.12	132.02	67.047	4.5122e-05	64.687	256.562	223.252	246.415	187.430	443.740	295.610	185.469	192.171	291.060	324.334	189.657	193.913	197.592	201.941	304.945	197.563	-8191	255	
1936.064	1	1	0	0	0.072954	0.17123	0.083903	0.077642	0.13553	0.21714	0.13705	0.22412	0.21895	0.067514	0.063402	0.15174	0.17778	0.19192	0.090815	0.2012	-2.5104	-2.4417	-2.7188	-3.0604	-2.6354	-2.9583	-2.8187	-2.85	-3.1083	-2.5542	-2.7812	-2.9896	-2.6958	-3.2292	-2.7708	-2.8021	305.745	204.795	267.872	356.989	433.921	313.478	469.253	468.324	385.810	352.479	441.821	209.885	232.827	175.906	516.641	420.119	0.00057661	3.1387e-05	0.00013604	783.57	3.1936e-06	6.9221e-06	741.4	285.08	4.8381e-06	2.3205e-06	328.86	136.13	136.69	69.625	5.2894e-06	66.397	0.0025004	0.0044018	0.0012099	751.45	4.7631e-05	4.5706e-05	703.5	273.59	3.9499e-05	5.2968e-05	318.5	131.04	132.01	66.951	4.4123e-05	64.198	251.945	454.628	309.145	187.007	331.245	276.507	185.530	192.404	353.452	258.370	190.216	193.772	197.219	201.812	315.569	197.648	-8191	255	
1936.158	1	1	0	0	0.11544	0.17416	0.13413	0.082776	0.030547	0.17282	0.24842	0.27583	0.16068	0.12602	0.087909	0.065072	0.067792	0.17822	0.24631	0.078049	-2.4375	-2.55	-2.8208	-3.0646	-2.4958	-2.9896	-2.7687	-2.9396	-3.0521	-2.7646	-2.8937	-2.9521	-2.5958	-2.9813	-2.7833	-2.6375	222.485	260.070	196.955	507.979	241.794	315.612	504.049	421.876	364.909	477.889	382.485	236.840	188.655	484.797	353.629	470.347	0.00055834	0.00079039	0.00026569	784.78	9.1003e-06	4.3799e-06	734.15	285.36	5.5771e-06	5.027e-06	329.88	136.11	136.81	69.579	9.2759e-06	66.458	0.0024475	0.00432	0.0012256	750.75	4.9346e-05	4.5663e-05	700.23	274.27	3.8724e-05	5.0764e-05	318.18	130.97	132.24	67.168	4.3873e-05	64.142	251.427	323.313	266.000	186.934	278.852	248.076	185.365	192.252	334.933	300.912	189.841	193.541	197.193	201.796	336.761	197.260	-8191	255	
1936.254	1	1	0	0	0.17456	0.11903	0.12745	0.20905	0.074703	0.10456	0.13807	0.21834	0.16896	0.21642	0.10145	0.069922	0.13815	0.20185	0.21809	0.36345	-2.45	-2.5062	-2.6583	-2.9792	-2.6625	-2.9021	-2.8563	-2.7313	-2.8208	-2.6021	-2.7021	-3.1437	-2.7083	-2.8688	-2.8292	-2.8187	264.161	415.296	529.115	231.796	340.763	289.394	477.506	429.673	316.684	360.473	229.898	520.362	223.980	501.479	432.520	178.213	0.00058451	0.00079119	0.00025152	791.72	5.8211e-06	7.4549e-06	733.62	286.07	4.7058e-06	9.6863e-06	329.05	135.92	137.21	70.071	5.6322e-06	66.998	0.0024696	0.004309	0.0012268	754.56	4.8057e-05	4.7936e-05	700.34	274.74	4.0023e-05	4.7142e-05	319.48	131.22	132.58	67.538	4.2629e-05	64.792	258.907	243.905	262.273	187.079	342.602	362.946	185.211	192.379	318.474	363.575	189.899	193.896	197.666	201.727	344.266	197.916	-8191	255	
1936.350	1	1	0	0	0.21816	0.18261	0.17661	0.057439	0.022146	0.14369	0.13105	0.19297	0.26002	0.089457	0.38817	0.19958	0.089683	0.20042	0.14695	0.027862	-2.4917	-2.8854	-2.8167	-3.0625	-2.6208	-2.7354	-3.0979	-2.6063	-2.8229	-2.7479	-2.6979	-3.025	-2.6604	-2.8854	-2.8979	-2.8458	191.012	409.734	394.401	235.818	451.197	214.933	462.662	356.294	480.488	526.906	199.395	530.514	522.445	454.678	445.918	371.652	0.00063259	0.00085292	0.00010241	780.75	5.1867e-06	4.3023e-06	736.91	284.82	5.3051e-06	2.6148e-06	328.63	137.5	137.36	70.059	8.0629e-06	67.928	0.0024671	0.0042504	0.0012362	748.88	5.0467e-05	4.8055e-05	699.52	274.03	4.079e-05	4.6992e-05	318.99	132.06	132.69	67.85	4.1495e-05	65.692	250.628	277.116	200.614	187.060	276.208	311.700	185.408	192.371	292.790	387.022	189.884	193.742	197.352	201.570	285.781	197.714	-8191	255	
1936.471	1	1	0	0	0.38782	0.16812	0.058802	0.13542	0.26952	0.21184	0.16959	0.10972	0.18946	0.14054	0.064375	0.23753	0.20172	0.10312	0.19706	0.29774	-2.4688	-2.7375	-2.5687	-3.0375	-2.6688	-2.8104	-3.0354	-2.5458	-3.0687	-2.8854	-2.8583	-3.1562	-2.7083	-2.8542	-2.9188	-2.6813	395.584	175.577	407.813	243.527	416.013	260.046	469.866	415.517	213.209	490.046	516.397	362.914	188.649	252.016	472.222	475.736	0.0006293	0.00093354	0.00016057	786.32	3.1204e-06	4.4473e-06	739.19	286.59	4.3653e-06	6.3009e-06	332.02	137.8	137.13	70.238	2.1584e-06	67.329	0.0024987	0.0041771	0.0012094	750.65	4.6205e-05	5.1397e-05	702.88	274.79	4.1369e-05	4.5467e-05	321.96	132.28	132.5	67.837	4.0391e-05	65.144	253.181	250.227	279.216	186.937	348.126	191.101	185.074	192.577	321.348	345.959	189.885	193.906	197.488	201.927	407.723	197.491	-8191	255	
1936.567	1	1	0	0	0.095716	0.063905	0.33756	0.071553	0.017922	0.1531	0.12718	0.0082868	0.27618	0.13805	0.18923	0.062764	0.20575	0.24008	0.1506	0.057949	-2.4979	-2.7917	-2.6458	-2.9625	-2.7604	-2.7083	-3	-2.6208	-2.7792	-2.7917	-2.6292	-2.8917	-2.8083	-2.8271	-2.975	-2.6979	196.866	401.966	417.149	340.212	286.572	250.322	223.651	248.864	450.005	476.385	311.577	404.350	227.149	494.527	187.662	298.593	0.00059372	0.0010598	5.6425e-05	783.93	1.6797e-05	1.2819e-05	736.58	283.57	4.4415e-06	9.6042e-06	326.79	135.23	135.9	69.219	1.2416e-05	66.61	0.0024874	0.0040824	0.0012125	747.64	4.1789e-05	6.2293e-05	697.65	272.39	4.0712e-05	4.4664e-05	317.44	130.23	130.81	66.915	4.0485e-05	64.281	253.369	307.275	284.140	187.044	339.929	528.020	185.333	191.975	322.841	351.526	189.705	193.632	197.073	201.542	321.650	197.451	-8191	255	
1936.639	1	1	0	0	0.19213	0.10718	0.063112	0.29771	0.092195	0.14555	0.24091	0.33766	0.19955	0.11631	0.0087073	0.28327	0.22274	0.1247	0.21823	0.13143	-2.6146	-2.8625	-2.5938	-3.0312	-2.7667	-2.7792	-3.1021	-2.9354	-2.9917	-3.025	-2.6729	-2.9083	-2.7667	-2.6625	-3.1208	-2.8042	323.973	423.411	316.945	435.008	330.114	486.749	518.935	463.941	307.252	362.676	408.561	414.702	451.762	529.292	396.328	229.613	0.00057551	0.00052469	7.2926e-05	783.11	7.3573e-06	5.7144e-06	733.2	282.8	5.9207e-06	7.2876e-06	329.2	136.73	137.16	70.252	1.333e-05	67.384	0.0025797	0.0039769	0.0012158	748.71	4.2351e-05	5.8551e-05	696.43	272.27	4.1769e-05	4.3512e-05	320.03	131.13	131.88	67.838	4.0827e-05	65.108	252.707	294.620	211.475	186.990	344.671	198.223	185.715	192.268	312.702	331.086	189.917	193.869	197.436	201.760	300.226	197.513	-8191	255	
1936.735	1	1	0	0	0.070103	0.026285	0.30435	0.12545	0.12323	0.33705	0.35933	0.22472	0.082898	0.14536	0.079723	0.11812	0.18921	0.23511	0.16899	0.35348	-2.4813	-2.8271	-2.6375	-2.9042	-2.8479	-2.7104	-3.0479	-2.8896	-2.7667	-2.8792	-2.8021	-3.0167	-2.8917	-2.7208	-2.9292	-2.7938	469.184	511.500	303.275	499.372	244.286	432.214	511.693	513.018	275.320	533.656	478.788	511.725	522.556	506.609	529.139	475.505	0.00070255	0.00097175	0.00011596	786.06	1.0489e-06	1.0173e-05	738.47	285.73	1.3062e-06	1.0301e-05	330.71	137.81	137.08	70.54	8.4213e-06	68.448	0.0028215	0.0039184	0.0012004	750.47	4.0478e-05	6.3365e-05	699.52	273.36	4.2123e-05	4.2755e-05	320.64	132.17	132.16	68.175	4.1085e-05	65.723	249.789	220.514	299.443	186.944	215.935	203.745	185.370	192.230	195.329	293.055	189.596	193.911	197.551	201.668	337.962	197.408	-8191	255	
1936.856	1	1	0	0	0.20494	0.10802	0.28869	0.25414	0.18248	0.18207	0.10175	0.12561	0.080126	0.15621	0.14615	0.17195	0.2801	0.1411	0.052924	0.27092	-2.0563	-2.8521	-2.6333	-2.9458	-2.7979	-2.725	-3.1021	-2.9646	-2.7375	-3.0417	-2.6958	-2.8438	-3.0167	-2.8	-2.8896	-2.875	188.574	242.425	333.551	489.626	174.355	468.469	278.361	459.280	269.547	263.082	204.265	366.310	485.823	499.611	420.032	474.936	0.00055447	0.00070284	0.00019049	784.93	6.3845e-06	7.6023e-06	740.11	285.15	6.3084e-06	2.1965e-06	331.51	139.22	137.79	70.81	7.3524e-06	68.875	0.0033624	0.0037836	0.0011992	751.97	4.0166e-05	5.9822e-05	702.9	274.48	4.2107e-05	4.3652e-05	322.73	133.7	132.98	68.452	4.2233e-05	66.259	253.113	251.763	264.129	186.823	362.010	290.208	185.398	192.318	344.711	289.828	189.734	193.838	197.421	201.595	351.923	197.735	-8191	255	
1936.952	1	1	0	0	0.29143	0.25246	0.03418	0.1375	0.18707	0.30902	0.12095	0.14839	0.072902	0.098797	0.039659	0.2772	0.10157	0.17413	0.31956	0.27154	-2.3042	-2.8875	-2.625	-2.9437	-2.9208	-2.6188	-3.0104	-2.8187	-2.6458	-3.075	-2.7958	-2.9792	-2.9062	-2.6896	-2.7938	-2.6688	489.407	304.244	388.769	261.522	268.511	534.228	444.539	529.953	195.387	218.613	386.059	254.599	457.832	200.170	437.343	478.680	0.00059966	0.0010698	0.00022802	784.9	8.8817e-06	1.0306e-05	734.28	285.57	7.6907e-06	2.7485e-06	333.51	137.84	137.66	70.872	8.6109e-06	67.784	0.0031936	0.0038314	0.0011814	751.47	3.8613e-05	6.6321e-05	701.61	274.02	4.1708e-05	4.2843e-05	320.36	133.18	132.54	68.319	4.3096e-05	65.313	249.504	267.625	468.152	186.839	380.293	234.094	185.639	192.342	346.620	307.642	189.656	193.653	197.170	201.688	299.245	197.647	-8191	255	
1937.046	1	1	0	0	0.16359	0.27779	0.19664	0.088123	0.26311	0.21333	0.22681	0.33098	0.16384	0.037236	0.19925	0.1665	0.39107	0.30576	0.22606	0.4312	-2.3063	-2.9979	-2.5292	-2.8354	-2.975	-2.3583	-3.1958	-2.7812	-2.7167	-3.0938	-2.8583	-3.0396	-3.1	-2.8229	-3.0687	-3.0375	449.728	190.116	322.606	489.788	362.247	516.524	483.784	498.545	280.700	305.071	254.935	478.842	492.477	500.828	246.629	448.452	0.00052153	0.00098661	0.0001879	786.86	6.4282e-06	1.5577e-05	741.09	286.91	4.6412e-06	4.535e-06	333.83	138.09	138.92	71.098	7.4009e-06	68.328	0.0033232	0.0039439	0.0011938	754.22	3.8663e-05	6.1027e-05	703.36	274.75	4.2718e-05	4.4393e-05	320.34	134.28	133.72	68.772	4.359e-05	65.823	251.498	274.066	259.450	187.070	350.302	307.105	185.544	192.549	328.330	380.024	189.982	193.960	197.439	201.640	338.880	197.668	-8191	255	
1937.144	1	1	0	0	0.24812	0.16959	0.090847	0.13893	0.10758	0.27287	0.10732	0.10303	0.19269	0.2581	0.38622	0.29528	0.28945	0.20691	0.079727	0.17738	-2.1229	-2.9938	-2.8563	-2.8646	-2.9021	-2.5792	-2.9167	-2.8646	-2.7979	-3.0354	-2.7854	-2.7458	-2.8604	-2.7396	-2.7667	-3.0563	275.035	281.780	515.941	280.210	399.173	469.808	396.647	505.021	437.617	338.312	487.990	491.953	191.362	490.616	433.304	449.667	0.00055156	0.00021053	9.9052e-05	793.73	9.8117e-06	9.3194e-06	742.97	287.91	6.0695e-06	2.5718e-06	332.64	139.35	139.14	71.196	1.0221e-05	68.633	0.0032421	0.0040277	0.0011843	757.5	3.9585e-05	6.4936e-05	707.29	276.15	4.3172e-05	4.5681e-05	320.15	134.61	133.73	68.806	4.3516e-05	66.048	246.780	305.204	315.763	187.210	278.668	303.318	185.509	192.461	320.325	329.320	189.869	193.522	197.520	201.760	271.340	197.483	-8191	255	
1937.238	1	1	0	0	0.020685	0.24633	0.2187	0.068581	0.25115	0.23947	0.32247	0.17803	0.19815	0.20578	0.081519	0.1674	0.17186	0.27141	0.016025	0.10218	-2.1229	-2.8875	-2.6813	-2.7021	-3.0187	-2.7771	-2.9667	-2.8854	-2.6583	-2.8625	-2.8792	-2.7292	-3.1312	-2.7208	-2.8438	-2.9167	409.776	392.559	311.971	463.229	451.149	292.792	511.685	472.669	228.581	271.486	431.189	195.769	486.194	478.267	445.991	243.764	0.00055031	0.00081625	0.00023788	787.63	5.3755e-06	4.1761e-06	739.57	286.9	5.4085e-06	9.0157e-06	331.61	138.75	137.98	70.966	9.042e-06	68.873	0.003568	0.0040631	0.0011366	753.99	3.8902e-05	5.2364e-05	706.46	274.12	4.3157e-05	4.5701e-05	319.52	134.93	132.91	68.591	4.4011e-05	66.381	246.672	256.780	271.827	186.745	315.151	288.095	185.189	192.365	287.071	290.739	189.728	194.000	197.313	201.777	324.631	197.741	-8191	255	
1937.335	1	1	0	0	0.24608	0.17064	0.21135	0.31637	0.024383	0.082223	0.16917	0.10748	0.24313	0.20062	0.080191	0.234	0.0613	0.4821	0.052669	0.10796	-2.2604	-2.9	-2.8458	-2.5687	-2.9313	-2.7604	-2.8042	-3.2021	-2.5167	-2.9271	-2.7562	-2.8854	-3.0896	-2.9104	-2.7021	-3.1312	444.806	331.976	424.512	484.328	490.957	515.806	504.894	294.072	348.907	328.942	466.512	509.351	475.391	202.783	529.864	425.374	0.00055829	0.0010104	0.00032118	786.01	9.6449e-06	9.9033e-06	743.85	286.24	5.281e-06	7.9383e-06	331.63	139.71	138.01	71.534	6.9765e-06	68.8	0.0033598	0.0041593	0.0010987	750.86	4.0027e-05	4.6564e-05	711.81	274	4.2642e-05	4.5382e-05	319.1	135.38	133.17	68.727	4.4594e-05	66.107	253.723	246.514	308.780	187.015	352.724	310.997	185.291	192.170	299.640	367.956	189.745	193.825	197.075	201.490	377.341	197.322	-8191	255	
1937.455	1	1	0	0	0.18532	0.14944	0.11642	0.1859	0.091771	0.20326	0.51874	0.17193	0.21579	0.099214	0.38177	0.097932	0.1454	0.1905	0.030368	0.2633	-2.1979	-2.9125	-2.7708	-2.6979	-3.0146	-2.7146	-2.8292	-3.1979	-2.6562	-3.1229	-2.9688	-2.7313	-2.9792	-2.9042	-2.7354	-2.9625	428.164	490.817	310.335	496.992	492.787	514.253	446.283	461.558	230.408	467.617	475.011	378.379	517.468	506.109	205.565	481.570	0.00047213	0.00064041	0.00018539	787.34	1.6044e-06	4.6913e-06	733.6	286.07	7.246e-06	4.4951e-06	330.04	137.98	137.57	71.033	8.8279e-06	68.156	0.0035856	0.0041515	0.0010829	751.74	4.0835e-05	4.6267e-05	704.58	273.28	4.2591e-05	4.5807e-05	316.81	134.28	132.88	68.358	4.3737e-05	65.51	265.505	271.189	245.280	186.822	526.538	308.744	185.493	192.299	365.090	285.867	189.766	193.663	197.813	201.607	283.750	197.478	-8191	255	
1937.551	1	1	0	0	0.089858	0.11905	0.31097	0.22151	0.22073	0.31793	0.11384	0.25021	0.14044	0.090601	0.20326	0.076475	0.29059	0.063411	0.2831	0.11416	-2.2375	-2.7396	-2.8563	-2.5292	-3.0271	-3.0687	-2.6417	-3.2188	-2.7417	-2.6667	-3.0563	-2.8	-3.0167	-2.9396	-2.7146	-3.1375	520.699	261.336	251.400	223.061	298.389	390.582	464.127	419.621	348.400	311.732	467.932	465.867	484.570	518.132	367.529	181.743	0.00053057	0.00056997	0.00032155	786.81	9.78e-06	6.3836e-06	740.84	286.7	9.8857e-06	1.367e-06	331.71	139.65	138.74	71.688	1.2426e-05	68.569	0.0028449	0.0050519	0.0010844	753.44	4.1554e-05	4.4303e-05	709.81	274.46	4.1849e-05	4.5986e-05	318.47	135.51	134.07	69.117	4.3774e-05	66.313	255.384	497.902	270.650	187.208	329.363	353.836	185.309	192.307	309.231	332.378	189.677	193.700	197.418	201.587	348.948	197.576	-8191	255	
1937.648	1	1	0	0	0.06262	0.15	0.24503	0.27328	0.084922	0.098788	0.29005	0.11914	0.0093655	0.11715	0.21016	0.20578	0.40096	0.14585	0.19358	0.22778	-2.2104	-2.7146	-2.7854	-2.5938	-2.8083	-2.8333	-2.8292	-2.9896	-2.5812	-2.8271	-3.0021	-2.6292	-2.8229	-2.9979	-2.5625	-3.1896	182.566	388.831	436.890	216.767	530.637	418.947	458.416	284.857	470.466	289.629	460.838	482.437	491.204	493.461	203.115	486.043	0.00062365	0.00073683	0.00026642	794.38	4.9851e-06	7.2927e-06	740.56	287.09	1.1539e-06	7.9609e-06	331.39	140.89	139.85	72.362	4.5092e-06	70.104	0.0025402	0.0064992	0.0010758	755.4	4.1365e-05	4.3428e-05	709.11	275.29	4.1278e-05	4.6084e-05	320.12	136.94	135.19	69.705	4.5136e-05	67.325	255.174	394.239	274.721	187.041	310.966	344.013	185.422	191.931	268.078	396.924	189.941	193.857	197.049	201.461	302.019	197.516	-8191	255	
1937.744	1	1	0	0	0.035788	0.25422	0.20299	0.14305	0.16662	0.18581	0.15146	0.25162	0.053197	0.052788	0.33006	0.31111	0.32368	0.25613	0.15483	0.24946	-2.1125	-2.5854	-2.9167	-2.7062	-2.9479	-2.7583	-2.5083	-3.0021	-2.625	-2.5312	-3.0667	-2.5271	-2.8125	-2.9104	-2.3958	-3	417.329	358.119	335.465	461.981	512.255	193.153	486.259	514.945	200.413	208.523	429.423	518.764	474.423	484.327	419.622	455.700	0.00064153	0.00083267	0.00016735	790.42	5.6342e-06	4.4038e-06	746.38	289.46	6.8869e-06	3.8818e-06	338.74	143.79	141.6	73.308	4.1415e-06	71.311	0.0025242	0.0060558	0.0010885	757.81	4.1053e-05	4.2339e-05	718.07	277.57	4.0072e-05	4.6165e-05	324.64	138.38	137.3	70.63	4.5946e-05	68.872	253.848	426.077	265.026	186.966	353.633	324.461	185.353	192.310	299.632	429.295	189.813	193.988	197.396	201.402	361.637	197.499	-8191	255	
1937.864	1	1	0	0	0.17855	0.078762	0.18346	0.064856	0.15865	0.040076	0.030487	0.24283	0.051144	0.091146	0.054764	0.33554	0.34073	0.36451	0.041096	0.11714	-2.3146	-2.6583	-2.7771	-2.5687	-2.6125	-2.6833	-2.625	-2.7625	-2.6354	-2.7167	-3.0833	-2.6396	-2.7125	-2.8833	-2.5104	-2.8167	416.390	533.502	278.599	471.785	395.569	351.327	185.571	458.483	195.429	189.922	525.219	470.507	197.655	504.132	205.795	427.911	0.00060865	0.0013034	0.00016035	792.28	8.7847e-06	9.9918e-06	749.33	289.94	3.7672e-06	4.2721e-06	337.99	143.84	142.35	73.175	5.725e-06	70.804	0.0024291	0.006734	0.0010762	758.03	4.1463e-05	4.3161e-05	717.47	278.79	3.8735e-05	4.6791e-05	325.06	137.99	138.73	70.574	4.5243e-05	68.077	253.684	430.163	265.503	187.292	339.961	300.200	185.735	192.186	286.983	235.950	189.768	193.730	197.282	201.580	447.820	197.451	-8191	255	
1937.936	1	1	0	0	0.13574	0.15601	0.13881	0.16196	0.32695	0.13762	0.22498	0.066817	0.0097076	0.12192	0.20811	0.12285	0.22989	0.3579	0.051021	0.36834	-2.15	-2.6688	-2.8146	-2.5604	-2.5917	-2.9375	-2.5354	-2.8458	-2.8563	-2.4625	-2.9854	-2.5896	-2.6917	-3.0667	-2.4021	-2.7875	319.763	369.824	241.771	210.935	378.673	245.003	520.979	365.913	373.172	446.221	235.357	495.958	225.168	206.684	428.881	474.096	0.00065334	0.00028284	0.00014358	790.9	2.5175e-06	3.7859e-06	747.47	291.72	4.8461e-06	4.5507e-06	334.71	143.43	142.6	73.518	6.6967e-06	70.758	0.0023902	0.0061612	0.0011132	756.03	4.1363e-05	4.2971e-05	716.34	278.61	3.8254e-05	4.8586e-05	324.24	138.01	138.7	70.829	4.4281e-05	68.196	258.220	487.461	284.940	186.823	321.913	179.515	185.766	192.326	312.247	301.911	189.741	193.785	197.432	201.667	337.074	197.376	-8191	255	
1938.032	1	1	0	0	0.1781	0.24668	0.1267	0.38203	0.14244	0.041864	0.10536	0.35286	0.15429	0.12358	0.061295	0.23594	0.30849	0.41489	0.064508	0.2148	-2.2979	-2.4688	-2.9125	-2.7792	-2.6042	-2.9729	-2.7458	-2.8563	-2.8333	-2.5167	-2.9771	-2.6708	-2.6917	-3.0708	-2.5458	-2.825	443.264	439.487	219.993	412.472	452.715	279.898	474.648	525.693	256.697	317.771	391.576	441.728	525.904	512.826	241.918	496.336	0.00066294	0.0014919	0.00017009	794.98	4.9008e-06	4.0874e-06	748.63	290.24	3.1611e-06	9.3584e-06	338.96	143.5	141.96	73.203	6.9434e-06	70.479	0.002371	0.0068675	0.0011217	757.23	4.2058e-05	4.3304e-05	710.95	279.84	3.7432e-05	4.7693e-05	325.4	137.96	138.51	70.624	4.3886e-05	68.047	253.649	462.306	250.746	186.958	328.887	288.229	185.628	192.477	364.938	348.969	190.026	193.717	197.512	201.449	326.562	197.621	-8191	255	
1938.128	1	1	0	0	0.087628	0.10589	0.11274	0.13929	0.06413	0.077344	0.084547	0.19769	0.16485	0.12783	0.15854	0.115	0.28803	0.20796	0.10562	0.27743	-2.5292	-2.4688	-2.8688	-2.5687	-2.5646	-2.9188	-2.7667	-2.9562	-2.8729	-2.5167	-2.8688	-2.8646	-2.8229	-2.9562	-2.6708	-3.0479	217.865	400.427	531.863	256.050	486.177	186.142	182.813	363.592	207.795	249.426	348.822	475.957	504.742	439.778	453.044	469.475	0.00057515	0.0011106	6.1125e-05	794.69	1.1975e-05	9.885e-06	747.75	291.93	6.7472e-06	6.7521e-06	338.46	143.91	141.61	73.491	9.5599e-06	71.227	0.002355	0.0061002	0.0011438	755.94	4.2758e-05	4.4366e-05	710.77	281.2	3.7746e-05	4.7591e-05	325.53	138.33	138.15	70.771	4.282e-05	68.691	257.056	505.123	443.609	186.897	329.030	290.889	185.644	192.510	351.301	339.080	190.291	193.667	197.311	201.651	349.710	197.408	-8191	255	
1938.247	1	1	0	0	0.041799	0.10562	0.14858	0.1453	0.18883	0.2276	0.027743	0.29593	0.18115	0.14193	0.25825	0.032704	0.2275	0.35255	0.18716	0.15671	-2.3458	-2.3958	-2.8417	-2.7438	-2.4313	-2.8583	-2.6646	-2.7542	-2.9854	-2.4833	-2.9521	-2.9354	-2.5563	-3.1063	-2.7104	-2.7812	428.181	475.881	499.262	347.185	438.982	245.010	484.384	446.461	308.113	515.225	466.713	479.863	470.548	478.963	244.261	187.798	0.00065773	0.0011325	0.00037374	797.21	5.6265e-06	1.5473e-06	745.64	288.66	8.8626e-06	5.6354e-06	336.34	141.67	140.35	72.595	7.0493e-06	70.062	0.0023929	0.0061014	0.0011817	757.05	4.3038e-05	4.385e-05	709.03	279.35	3.8162e-05	4.7672e-05	323.79	136.54	137.14	69.904	4.1477e-05	67.646	251.066	339.091	509.390	187.188	353.531	356.614	185.701	192.530	366.812	359.261	189.737	193.792	197.164	201.645	337.048	197.328	-8191	255	
1938.343	1	1	0	0	0.24641	0.24654	0.13851	0.039095	0.12439	0.19577	0.35143	0.19234	0.028903	0.2193	0.17736	0.28055	0.25702	0.046267	0.27481	0.20561	-2.4583	-2.5833	-2.9729	-3.0021	-2.4979	-2.7667	-2.8271	-2.6271	-2.8979	-2.6813	-2.8021	-2.9292	-2.5833	-2.9708	-2.775	-2.8354	425.996	335.650	471.185	221.370	402.215	520.031	508.827	510.623	219.695	216.396	443.325	521.887	269.641	528.941	198.764	508.391	0.000526	0.00018181	0.00026959	780.08	6.9131e-06	9.9536e-06	736.34	286.35	4.8862e-06	6.479e-06	333.65	141.48	139.39	72.094	8.4328e-06	70.09	0.0023618	0.0045145	0.0014276	747.98	4.4041e-05	4.4604e-05	700.05	276.85	3.814e-05	4.6264e-05	320.24	135.28	135.82	69.602	4.0403e-05	67.316	253.188	362.250	189.925	186.884	357.305	251.952	185.621	192.266	289.724	310.242	189.694	193.574	196.929	201.765	335.647	197.605	-8191	255	
1938.439	1	1	0	0	0.089571	0.16311	0.15672	0.15556	0.17581	0.33605	0.14414	0.13512	0.077507	0.24409	0.22852	0.18054	0.17358	0.11503	0.11811	0.31894	-2.6271	-2.4979	-2.7833	-2.8771	-2.6	-3.0438	-2.7542	-2.7708	-3.0812	-2.75	-2.6188	-2.7625	-2.6063	-2.7354	-2.6167	-2.5062	420.735	188.524	420.669	518.631	227.283	288.828	479.650	190.455	259.580	355.568	504.259	517.926	468.426	187.519	205.226	468.337	0.00062592	0.0005485	0.000556	786.31	3.7508e-06	8.108e-06	737.73	286.91	4.7974e-06	6.0929e-06	333.4	140.67	139.4	72.415	6.801e-06	70.382	0.0023896	0.0041277	0.0017661	750.66	4.3916e-05	4.4366e-05	698.57	277.06	3.876e-05	4.5439e-05	320.63	135.59	135.77	69.996	3.8923e-05	67.776	255.466	394.328	491.898	186.999	360.570	349.779	185.310	192.204	323.568	369.868	190.062	193.722	197.595	201.585	294.979	197.515	-8191	255	
1938.536	1	1	0	0	0.13169	0.16076	0.22752	0.09921	0.25332	0.048399	0.20043	0.081067	0.22939	0.094499	0.34471	0.13013	0.26099	0.17522	0.17885	0.13721	-2.5854	-2.4271	-2.5604	-3.0167	-2.5021	-2.8417	-2.9208	-2.5812	-2.9458	-2.6583	-2.6875	-2.8438	-2.6354	-3.1021	-2.7438	-2.5729	445.632	500.975	252.798	451.435	381.661	421.612	493.119	489.235	176.967	478.137	498.512	441.631	182.405	416.267	206.764	392.674	0.00062715	0.0007301	0.00010553	781.92	5.2663e-06	3.0964e-06	738.42	289.61	7.3593e-06	3.5793e-06	333.59	142.71	141.29	73.119	4.7632e-06	71.35	0.0023996	0.0039851	0.001611	746.57	4.3314e-05	4.4027e-05	700.62	279	3.8314e-05	4.3356e-05	321.67	137.18	136.15	70.715	3.9675e-05	68.906	250.870	271.771	480.735	187.017	335.140	340.931	185.354	192.508	317.168	339.970	189.929	193.918	197.616	201.394	272.666	197.397	-8191	255	
1938.632	1	1	0	0	0.19755	0.2261	0.067006	0.16196	0.31368	0.17325	0.0664	0.046143	0.22314	0.17576	0.23505	0.17538	0.3024	0.40063	0.063228	0.18923	-2.2708	-2.6417	-2.5125	-3.0104	-2.6	-2.7208	-2.8187	-2.4125	-2.8625	-2.7	-2.5625	-2.8187	-2.7458	-2.8271	-2.8312	-2.5375	480.976	178.874	321.097	452.491	491.414	256.228	402.005	280.293	207.861	411.514	345.921	200.709	194.559	524.594	389.055	426.356	0.00066798	0.00035702	0.00042634	788.62	3.8146e-07	5.634e-06	744.65	291.29	5.2338e-06	8.3152e-06	341.85	145.56	142.69	74.274	7.0508e-06	72.96	0.0024146	0.0038427	0.0018539	751.81	4.1649e-05	4.4934e-05	706.8	281.63	3.9312e-05	4.2584e-05	328.71	140.05	137.82	72.337	3.9353e-05	70.19	255.714	326.545	193.640	187.003	329.934	298.458	185.134	192.110	300.706	347.703	190.345	193.564	197.456	201.523	300.907	197.515	-8191	255	
1938.728	1	1	0	0	0.2051	0.14997	0.17539	0.12599	0.063001	0.087433	0.13362	0.28991	0.12625	0.29224	0.0048774	0.31264	0.44059	0.12324	0.10664	0.057559	-2.6042	-2.6896	-2.4437	-2.9542	-2.4437	-2.6792	-3.0187	-2.6146	-2.7833	-2.7146	-2.4458	-3.0417	-2.7042	-2.7979	-2.8083	-2.6	480.526	454.935	442.480	432.549	521.297	444.606	421.296	400.181	387.007	374.349	336.419	511.441	529.576	510.527	344.225	358.176	0.0006045	0.00070608	0.00027745	795.68	1.2558e-05	7.2022e-06	747.15	290.58	1.3786e-05	8.9048e-06	339.19	144.58	142.26	73.607	6.8733e-06	71.666	0.0024567	0.0038736	0.0018316	757.14	4.0977e-05	4.5198e-05	708.37	281.3	4.3873e-05	4.1655e-05	327	139.67	137.49	71.439	3.997e-05	68.94	257.777	312.942	534.570	186.768	404.872	374.023	185.412	192.563	292.899	318.852	189.780	193.710	197.240	201.659	303.798	197.352	-8191	255	
1938.824	1	1	0	0	0.34202	0.23842	0.24956	0.25461	0.16617	0.13668	0.2134	0.018117	0.25683	0.13574	0.1466	0.015944	0.19643	0.10514	0.23509	0.22117	-2.0979	-2.7125	-2.5417	-2.9292	-2.6562	-2.7833	-2.9042	-2.6917	-2.6667	-2.9625	-2.5458	-2.9667	-2.8771	-2.6937	-2.875	-2.5667	454.034	475.507	354.452	188.391	269.878	472.672	442.277	525.411	507.558	356.655	456.792	448.926	500.711	273.580	531.359	518.852	0.00063218	0.00019053	0.00067444	786.96	6.3631e-06	1.9609e-06	739.63	290.01	7.5711e-06	1.2394e-05	338.1	144.73	142.12	73.067	9.7603e-06	71.069	0.0024138	0.0038023	0.0020424	754.38	3.9751e-05	4.5481e-05	704.6	277.93	5.6746e-05	4.3166e-05	325.17	138.54	136.83	71.456	3.9972e-05	68.621	252.871	232.662	526.994	186.781	340.016	362.561	185.331	192.472	322.020	307.179	190.015	193.730	197.227	201.834	314.882	197.587	-8191	255	
1938.945	1	1	0	0	0.12105	0.13113	0.19577	0.36937	0.19542	0.10924	0.1159	0.12442	0.23178	0.061136	0.11355	0.071191	0.10779	0.16121	0.13022	0.21933	-2.3729	-2.7333	-2.4813	-2.7542	-2.7438	-2.6417	-2.9813	-2.6063	-2.625	-2.6604	-2.5125	-2.8125	-2.6625	-2.6104	-2.675	-2.7583	185.675	413.374	268.451	493.537	309.637	231.940	396.522	396.307	434.935	362.797	263.482	486.054	446.906	422.015	331.926	438.163	0.00065295	0.0011399	0.00049637	789.05	8.211e-06	2.6451e-06	737.05	284.81	1.4031e-05	7.6531e-06	333.83	142.94	139.83	72.497	2.481e-06	71.122	0.0024839	0.0038805	0.0017994	753.2	3.8652e-05	4.7351e-05	701.14	274.7	6.7948e-05	4.2143e-05	322.03	136.75	134.51	70.454	4.0332e-05	68.413	251.529	236.186	199.096	187.053	369.936	241.278	185.307	192.427	349.803	302.524	189.719	193.767	197.243	201.665	461.650	197.516	-8191	255	
1939.039	1	1	0	0	0.40921	0.19093	0.11862	0.041103	0.32533	0.11733	0.23368	0.25656	0.20586	0.31909	0.097652	0.077522	0.092558	0.32877	0.16611	0.035806	-2.2062	-2.925	-2.3583	-2.8604	-2.9583	-2.6729	-3.1167	-2.5958	-2.5542	-2.775	-2.7354	-2.8917	-2.7292	-2.7917	-2.9229	-2.6104	311.596	515.625	495.802	533.463	492.184	423.637	358.270	528.052	287.290	470.010	402.611	330.622	451.194	185.887	500.368	447.576	0.00069553	0.00059617	1.8927e-05	788.37	6.014e-06	1.5448e-05	735.84	284.7	1.3612e-05	5.2727e-06	332	142.8	139.19	72.279	9.7305e-06	71.4	0.0024928	0.0038285	0.0016624	751.01	3.8523e-05	4.687e-05	698.41	272.71	6.093e-05	4.2278e-05	320.77	136.78	133.98	70.59	4.071e-05	68.757	253.691	245.125	381.478	186.884	338.284	312.748	185.449	192.303	350.032	317.382	189.604	193.859	197.055	201.656	286.488	197.305	-8191	255	
1939.135	1	1	0	0	0.090002	0.16248	0.15171	0.23877	0.11108	0.14862	0.086986	0.14774	0.14149	0.056037	0.14462	0.22158	0.087143	0.10632	0.27143	0.19285	-2.1063	-2.8646	-2.5	-2.7854	-2.6354	-2.6917	-3.0396	-2.5917	-2.6125	-2.9229	-2.65	-2.8542	-2.8438	-2.7062	-2.8812	-2.9062	260.736	449.094	442.227	504.178	317.356	515.269	466.413	487.858	390.603	521.463	458.951	456.945	197.412	529.853	280.396	455.710	0.00059508	0.00059161	0.00020602	785.77	7.3488e-06	2.0937e-06	739.58	287.91	1.8582e-05	3.1153e-06	332.71	142.21	139.21	72.3	5.5211e-06	70.624	0.0025074	0.0038534	0.0011624	756.97	3.7925e-05	4.74e-05	701.48	274.6	6.7905e-05	4.283e-05	321.54	136.84	134.17	70.495	4.0528e-05	68.044	249.975	256.334	205.085	186.500	351.226	337.363	185.274	192.228	378.954	281.224	189.888	193.536	197.145	201.731	332.510	197.449	-8191	255	
1939.233	1	1	0	0	0.031416	0.11963	0.24081	0.27765	0.085089	0.106	0.18529	0.15019	0.097843	0.1639	0.24381	0.06313	0.16738	0.24343	0.065424	0.23011	-2.1125	-2.6479	-2.5458	-2.7604	-2.8167	-2.4792	-2.9896	-2.6333	-2.8271	-2.9292	-2.6583	-2.9104	-3.0021	-2.4833	-2.9521	-2.8771	387.536	352.508	356.824	533.953	251.903	308.124	524.064	199.616	486.144	255.424	505.247	439.714	184.276	187.549	315.002	359.038	0.00055887	0.0010478	0.00014762	784.36	3.2672e-06	1.1819e-05	735.29	284.73	1.1573e-05	8.0675e-06	329.83	141.3	139.33	72.6	1.3178e-05	70.387	0.0025654	0.0038296	0.001111	760.44	3.7626e-05	4.7483e-05	697.83	273.2	6.1765e-05	4.2956e-05	318.81	136.18	134.36	70.314	4.8142e-05	67.751	259.727	256.209	246.791	187.083	357.169	303.050	185.173	192.449	366.354	315.826	189.596	193.523	197.111	201.713	533.116	197.544	-8191	255	
1939.328	1	1	0	0	0.16437	0.34289	0.30041	0.065071	0.15481	0.27005	0.18141	0.21882	0.13848	0.049188	0.33138	0.036667	0.24936	0.33466	0.38186	0.21243	-2.2542	-2.8021	-2.5667	-2.7583	-2.8458	-2.5333	-3.0917	-2.9313	-2.5792	-3.05	-2.6979	-2.6979	-2.9521	-2.7667	-2.9271	-2.9813	422.350	373.540	449.403	520.385	530.560	517.246	414.622	472.234	295.552	302.970	229.175	318.899	516.983	178.995	444.594	463.925	0.00065281	0.0011009	0.00020237	784.25	7.3842e-06	1.0827e-05	738.51	287.26	1.2162e-05	1.0708e-05	334.43	143.15	140.31	73.258	1.0655e-05	71.098	0.0025838	0.0038988	0.0010884	758.23	3.7809e-05	4.6562e-05	700.36	274.59	6.9857e-05	4.3273e-05	320.85	137.6	135.48	70.54	5.9445e-05	68.443	258.664	254.017	241.625	186.964	319.817	320.764	185.560	192.443	373.025	347.640	189.933	193.614	197.497	201.603	189.832	197.366	-8191	255	
1939.424	1	1	0	0	0.23638	0.13147	0.42183	0.26872	0.060615	0.15727	0.2093	0.17947	0.19217	0.1019	0.2088	0.23137	0.2296	0.22475	0.069031	0.09999	-1.9271	-2.9688	-2.6229	-2.6417	-2.9313	-2.5833	-3.0354	-2.8521	-2.5021	-3.0104	-2.6458	-2.6312	-3.0792	-2.7271	-2.6667	-2.95	408.085	446.210	460.039	495.871	333.228	177.982	516.188	312.390	320.637	324.208	214.985	225.331	476.404	492.719	286.794	506.110	0.00062903	0.00073339	0.00031049	786.2	3.2792e-06	8.1213e-06	737.2	284.73	1.3826e-05	3.6074e-06	336.22	144.57	141.09	73.041	1.2367e-05	72.275	0.0025962	0.0038623	0.001117	761.75	3.8337e-05	4.5707e-05	700.98	274.13	6.074e-05	4.2703e-05	322.38	138.63	135.51	70.466	6.8676e-05	69.279	252.962	254.496	293.696	186.659	299.452	294.971	185.285	192.181	353.368	207.791	189.972	193.718	197.240	201.749	532.876	197.368	-8191	255	
1939.544	1	1	0	0	0.12997	0.094827	0.069464	0.39513	0.12072	0.23876	0.19469	0.13005	0.15249	0.17274	0.14987	0.15528	0.23843	0.071607	0.078425	0.18742	-2.1229	-2.8354	-2.8042	-2.7229	-2.9458	-2.7	-2.9375	-3.0312	-2.5104	-2.8375	-3.0292	-2.8354	-3.1104	-2.7979	-2.8292	-3.0167	425.196	403.290	338.091	467.339	441.871	297.789	491.408	200.877	436.175	311.194	503.352	526.804	508.520	200.861	355.507	497.281	0.00062492	0.00060924	0.0001352	781.5	1.0059e-06	1.2452e-05	745.87	287.53	1.0964e-05	9.992e-06	337.83	145.59	141.47	73.674	7.3461e-06	72.33	0.0026209	0.0038134	0.0010776	757.47	3.8802e-05	4.5083e-05	706.23	275.79	5.4747e-05	5.1309e-05	324.25	139.92	136.42	71.177	6.2533e-05	69.632	251.672	271.894	279.655	186.765	381.419	374.751	185.312	192.252	360.528	289.771	190.352	193.768	197.257	201.588	206.187	197.408	-8191	255	
1939.640	1	1	0	0	0.22091	0.3372	0.18405	0.10773	0.11476	0.18979	0.085941	0.29454	0.083047	0.095908	0.0081736	0.06381	0.08497	0.088364	0.15575	0.23592	-2.0833	-2.9021	-2.7875	-2.5229	-2.6583	-2.6729	-2.8063	-2.9646	-2.3937	-2.7417	-2.7208	-2.6979	-3.0583	-2.8271	-2.7458	-2.9667	500.231	479.538	458.935	300.856	465.037	422.219	280.730	471.275	492.911	213.581	446.706	381.544	263.408	500.965	276.089	325.967	0.0006138	0.00030819	0.00023799	787.37	2.7544e-06	8.6756e-06	734.55	288.12	5.7211e-06	1.082e-05	335	143.76	141.24	72.353	1.2338e-05	70.722	0.0025566	0.0039045	0.001065	762.25	3.8913e-05	4.3999e-05	702.01	275.34	4.0987e-05	6.2452e-05	321.7	138.16	135.25	70.06	6.6206e-05	68.06	252.402	251.897	282.121	186.862	384.276	322.533	185.287	192.106	300.583	337.487	189.934	193.665	197.519	201.685	178.232	197.549	-8191	255	
1939.737	1	1	0	0	0.26925	0.19456	0.080868	0.16277	0.1269	0.19779	0.44545	0.090639	0.16527	0.10015	0.18219	0.22768	0.056211	0.128	0.15039	0.22261	-2.0625	-2.9167	-2.7062	-2.5938	-2.7125	-2.6792	-2.8396	-3.025	-2.5604	-2.6979	-3.0146	-2.6063	-3.0292	-2.8542	-2.7229	-3.0812	359.982	176.070	530.101	408.061	267.200	409.913	495.937	505.439	383.499	285.717	221.609	189.428	465.731	388.898	290.389	327.167	0.00053561	0.00010381	0.00022626	782.7	5.5962e-06	8.6004e-06	737.12	286.19	1.4225e-06	1.5309e-05	334.34	142.69	139.59	72.359	1.2736e-05	71.176	0.0024919	0.0040093	0.00107	756.04	3.791e-05	4.2876e-05	700.19	273.75	3.9671e-05	7.1905e-05	320.33	137.32	134.32	69.936	6.1819e-05	68.273	254.897	214.527	337.964	187.016	343.531	268.459	185.254	192.159	282.381	383.612	189.825	193.780	197.254	201.838	185.997	197.478	-8191	255	
1939.808	1	1	0	0	0.17979	0.10653	0.1121	0.51615	0.246	0.18416	0.026189	0.13404	0.20545	0.13762	0.37907	0.16674	0.17538	0.22811	0.064652	0.21104	-2.0292	-2.6958	-2.7542	-2.7542	-2.8917	-2.7146	-2.4583	-2.9729	-2.6146	-2.6813	-2.9229	-2.5167	-2.9271	-2.9792	-2.4417	-3.1708	273.516	467.971	512.320	500.004	343.288	330.396	382.228	483.022	386.309	389.334	182.129	263.792	439.707	183.059	276.548	460.429	0.00060389	0.00077374	0.00013434	786.44	1.2795e-05	9.9094e-06	735.12	285.26	7.9932e-06	1.9334e-05	335.78	142.93	139.51	72.999	6.2752e-06	71.407	0.0024786	0.0040556	0.0010582	754.16	4.7497e-05	4.2805e-05	700.64	273.57	3.9364e-05	6.6291e-05	321.09	137.42	134.89	70.149	6.9547e-05	68.569	254.925	256.206	271.732	187.022	281.575	342.119	185.261	192.498	351.103	364.033	189.849	193.595	197.450	201.686	213.356	197.560	-8191	255	
1939.929	1	1	0	0	0.16018	0.2277	0.20326	0.108	0.091909	0.26415	0.11773	0.01322	0.25429	0.11784	0.27834	0.32212	0.12199	0.30403	0.163	0.30169	-2.0458	-2.6646	-2.9813	-2.6542	-2.9875	-2.8708	-2.6458	-2.7208	-2.5917	-2.7958	-3.0062	-2.6167	-2.8625	-2.9479	-2.7562	-2.9188	458.232	384.681	518.400	220.345	395.832	478.868	422.010	359.219	529.828	265.287	261.430	513.056	449.368	175.454	255.848	403.897	0.0006128	0.00053683	0.00031408	780.83	1.5209e-05	4.1308e-06	737.37	285.07	4.5665e-06	1.8715e-05	334.76	142.63	139.73	72.497	1.2017e-05	71.552	0.0024496	0.0040979	0.0010681	746.72	5.6626e-05	4.2299e-05	701.27	273.04	3.9119e-05	7.2268e-05	321.22	137.41	134.56	69.885	6.3694e-05	68.937	256.170	322.551	240.274	186.873	261.607	293.366	185.482	192.141	254.139	374.534	189.420	193.597	197.253	201.583	188.786	197.436	-8191	255	
1940.023	1	1	0	0	0.29717	0.070055	0.21828	0.22186	0.24391	0.081526	0.32367	0.25302	0.28626	0.20341	0.11337	0.27036	0.21937	0.14999	0.33265	0.072022	-2.2479	-2.6646	-2.8458	-2.6417	-2.8792	-2.7812	-2.5417	-2.875	-2.8187	-2.675	-3	-2.7208	-2.825	-3.0458	-2.4604	-3.1354	473.527	216.446	322.744	191.745	304.369	259.159	217.052	505.669	488.541	261.682	227.755	373.161	235.046	270.727	346.379	317.749	0.00060783	0.00025124	0.00025954	779.83	1.8182e-05	3.2862e-06	734.81	283.53	6.4982e-06	2.0159e-05	332.89	141.35	138.34	71.542	7.4655e-06	70.239	0.0024196	0.0041926	0.0010675	745.88	6.5406e-05	4.201e-05	700.2	271.91	3.8517e-05	6.5913e-05	319.37	135.92	133.3	69.085	5.4098e-05	68.01	249.242	186.187	287.322	187.004	281.627	324.265	185.324	192.167	343.712	398.575	189.679	193.730	197.099	201.544	388.914	197.313	-8191	255	
1940.119	1	1	0	0	0.13466	0.060836	0.11367	0.15229	0.16338	0.14773	0.36074	0.20606	0.054315	0.069536	0.034025	0.12239	0.12401	0.26979	0.33384	0.14751	-2.1437	-2.7146	-3.1042	-2.7417	-2.8479	-2.7292	-2.6458	-2.9333	-2.6292	-2.7375	-2.9042	-2.6104	-2.7562	-3.0229	-2.5521	-2.9292	193.917	280.808	488.217	312.263	440.879	512.767	412.748	437.248	292.779	280.937	450.440	237.622	198.045	193.906	253.282	494.924	0.00064313	0.00070762	0.00028737	779.92	1.8687e-05	5.4969e-06	732.53	283.67	6.9053e-06	1.7016e-05	331.28	141.98	138.43	72.322	7.931e-06	70.36	0.0024275	0.0041759	0.0010561	742.44	6.0713e-05	4.1785e-05	695.09	271.73	3.7666e-05	7.615e-05	318.15	136.23	133.73	69.692	4.2874e-05	68.528	252.922	226.237	228.351	186.803	314.047	304.939	185.514	192.374	348.450	410.352	189.812	193.488	197.297	201.623	301.639	197.225	-8191	255	
1940.217	1	1	0	0	0.17763	0.24126	0.035713	0.12927	0.13249	0.054804	0.023659	0.097319	0.24774	0.11642	0.28332	0.15131	0.037027	0.24239	0.072772	0.14966	-2.3125	-2.6208	-3.0479	-2.8125	-2.7333	-3.0167	-2.525	-2.8729	-2.9562	-2.5854	-2.8771	-2.7438	-2.7792	-3.1813	-2.5	-2.95	511.375	514.998	431.363	442.419	415.190	271.730	447.882	472.815	413.223	325.880	411.606	262.973	415.500	530.051	232.286	463.479	0.00065154	0.0012396	0.00010642	782.78	2.7387e-05	1.0106e-05	734.97	284.51	6.5518e-06	1.8543e-05	333.17	142.95	139.47	72.785	8.6649e-06	71.451	0.0023606	0.0041831	0.0010417	747.21	6.7718e-05	4.1341e-05	698.91	274.22	3.7672e-05	6.9928e-05	320.95	137.03	134.84	70.235	4.216e-05	69.539	249.891	285.416	244.666	186.894	324.955	313.179	185.497	192.354	347.817	374.000	189.366	193.400	197.333	201.689	311.600	197.303	-8191	255	
1940.336	1	1	0	0	0.44797	0.27002	0.37368	0.2674	0.20207	0.27545	0.29294	0.087774	0.25618	0.18237	0.13408	0.29882	0.13889	0.14851	0.1659	0.064626	-2.3542	-2.4167	-2.7875	-2.8104	-2.5104	-2.8958	-2.4208	-2.9104	-2.8438	-2.6333	-2.9521	-2.6625	-2.5375	-2.9562	-2.4396	-2.7687	465.232	401.489	354.316	483.100	341.842	387.819	410.316	191.547	367.564	429.463	467.511	394.711	500.648	530.998	349.283	521.524	0.0005916	0.00083404	0.00030906	782.48	1.4125e-05	7.3633e-06	736.95	286.1	2.9521e-06	2.9097e-05	335.83	144.36	140.17	73.313	4.352e-06	72.219	0.0023418	0.0041254	0.0010729	745.89	6.021e-05	4.083e-05	700.36	273.84	3.7116e-05	5.8496e-05	324.95	138.75	135.95	70.77	4.1593e-05	70.348	248.484	246.729	239.403	186.855	352.994	331.663	185.379	192.521	357.258	385.158	189.827	193.304	197.314	201.716	339.988	197.321	-8191	255	
1940.408	1	1	0	0	0.066381	0.3197	0.20467	0.34932	0.27988	0.10677	0.071903	0.15658	0.18163	0.21681	0.2065	0.13876	0.24369	0.11832	0.14889	0.1556	-2.4188	-2.6833	-2.6167	-2.7687	-2.7083	-2.8042	-2.7771	-2.6208	-2.7958	-2.6937	-2.975	-2.8354	-2.6167	-3.0854	-2.5521	-2.9208	450.335	380.257	359.489	496.121	397.030	512.007	319.021	424.981	495.225	331.082	505.330	175.700	496.143	487.625	220.567	462.056	0.00063938	0.00047295	0.00015403	790.12	2.2004e-05	4.5443e-06	744.24	288.41	3.9751e-06	7.5993e-06	339.27	144.58	140.59	73.678	6.8887e-06	72.252	0.0023669	0.0042398	0.0010859	751.31	6.7725e-05	4.1907e-05	706.81	276.43	3.7321e-05	4.5665e-05	329.95	139.37	136.35	70.979	4.141e-05	70.42	252.073	227.542	215.726	187.128	328.208	279.784	185.477	192.030	326.741	378.461	189.783	193.803	197.143	201.698	300.221	197.633	-8191	255	
1940.504	1	1	0	0	0.19328	0.11235	0.25427	0.18391	0.16233	0.18963	0.023147	0.050442	0.33195	0.1004	0.25276	0.13818	0.21019	0.35253	0.46094	0.044724	-2.4104	-2.6063	-2.7938	-2.8479	-2.5438	-2.9479	-2.6229	-2.6396	-2.9083	-2.4646	-2.8917	-2.9333	-2.8083	-3.0583	-2.7083	-2.7667	500.770	284.474	256.507	479.118	533.072	498.060	202.232	439.570	293.918	176.245	440.737	475.764	470.052	511.986	527.639	213.037	0.00061964	0.00070144	0.00016272	783.87	1.0904e-05	7.3658e-06	734.97	288.56	6.1197e-06	3.111e-06	336.07	144.19	139.56	72.657	2.4602e-06	71.363	0.0023229	0.004128	0.0011082	751.59	6.1e-05	4.2454e-05	702.4	276.12	3.7016e-05	4.5863e-05	329.3	137.81	135.17	70.112	4.1479e-05	69.132	251.378	244.759	245.030	187.057	345.190	366.093	185.368	192.199	320.360	330.244	189.935	193.976	197.271	201.775	301.745	197.603	-8191	255	
1940.625	1	1	0	0	0.076927	0.13098	0.12518	0.32088	0.087334	0.18846	0.25048	0.11605	0.41015	0.23915	0.11718	0.24994	0.087675	0.30562	0.15362	0.097922	-2.5771	-2.6688	-2.6813	-2.7313	-2.4854	-2.8271	-2.8563	-2.6708	-2.9542	-2.4125	-2.8563	-2.9042	-2.5938	-3.0292	-2.7417	-2.7271	386.831	348.488	279.753	410.703	257.333	270.844	450.424	530.095	338.682	344.446	266.813	509.945	423.143	197.007	499.513	275.177	0.00063458	0.000948	4.6022e-05	785.61	2.0048e-05	1.7367e-05	736.45	286.22	4.682e-06	7.0241e-06	332.5	144.08	140.01	72.583	1.3446e-05	71.69	0.0023274	0.0040794	0.0011405	746.39	5.0797e-05	5.6928e-05	699.72	274.85	3.6928e-05	4.4607e-05	326.1	137.9	135.27	70.115	4.0518e-05	69.554	254.713	245.423	368.453	186.668	359.982	308.322	185.552	192.216	323.172	319.815	189.614	193.703	197.032	201.412	345.652	197.166	-8191	255	
1940.721	1	1	0	0	0.087684	0.2054	0.15333	0.2654	0.24782	0.25301	0.2379	0.32814	0.25931	0.083762	0.27392	0.0076561	0.146	0.21433	0.10389	0.10214	-2.5417	-2.6813	-2.7458	-2.8125	-2.6688	-3.0646	-2.9	-2.6958	-3.0021	-2.7521	-2.7771	-2.8708	-2.5542	-3.0563	-2.8729	-2.6208	325.283	203.763	225.157	507.013	480.348	375.449	471.164	529.355	340.960	318.811	452.795	433.916	392.120	486.162	334.492	457.139	0.00070972	0.0011924	0.00014177	785.03	3.6632e-06	2.2797e-05	736.57	285.25	4.0141e-06	8.5968e-06	333.95	142.43	139.71	72.828	1.5618e-05	71.931	0.0023524	0.0040019	0.0011439	746.74	4.178e-05	6.5213e-05	699.89	273.89	3.7379e-05	4.4645e-05	328.34	137.55	134.64	70.217	4.0611e-05	69.716	252.780	267.485	316.062	186.895	398.952	319.844	185.136	192.666	283.395	320.666	189.471	193.799	197.121	201.640	308.860	197.631	-8191	255	
1940.817	1	1	0	0	0.14871	0.31872	0.15285	0.18303	0.082043	0.057716	0.432	0.14231	0.061384	0.13707	0.16453	0.2142	0.053617	0.15263	0.073083	0.25872	-2.5792	-2.6021	-2.6458	-3.0229	-2.4896	-2.6708	-2.9458	-2.7354	-2.9479	-2.6167	-2.7812	-3.0896	-2.6854	-2.8563	-2.8688	-2.5979	230.772	483.347	218.351	494.031	294.883	407.492	471.614	178.070	286.724	382.436	415.426	431.762	512.385	488.187	525.653	495.652	0.00061793	0.001026	0.00039538	784.25	6.0133e-06	2.3951e-05	732.88	285.44	4.0898e-06	6.2536e-06	335.37	144.13	138.72	72.924	8.9832e-06	72.172	0.0023794	0.0040596	0.0011669	747.29	4.1115e-05	7.4484e-05	700.57	274.04	3.8227e-05	4.4754e-05	327.45	137.9	134.38	70.238	4.0409e-05	69.586	250.875	284.290	285.974	186.833	373.214	321.655	185.772	192.310	321.959	338.661	189.513	193.664	197.188	201.551	327.650	197.491	-8191	255	
1940.938	1	1	0	0	0.30572	0.25869	0.32458	0.1637	0.098406	0.13759	0.19337	0.15969	0.099713	0.32288	0.26545	0.13137	0.22344	0.31572	0.07646	0.040331	-2.2812	-2.7958	-2.5292	-3.0833	-2.5771	-2.7	-3.0125	-2.6792	-2.7854	-2.7313	-2.5146	-2.975	-2.6021	-3.0021	-2.9896	-2.6542	260.743	452.242	225.668	450.016	530.435	188.530	474.094	492.735	469.083	409.690	475.833	403.400	226.322	500.549	209.467	477.863	0.00071319	0.00091307	0.00018339	783.54	5.3711e-06	1.6694e-05	734.67	281.88	8.1576e-06	6.498e-06	332.47	141.85	138.26	71.668	7.1313e-06	70.289	0.0032067	0.003966	0.0011527	745.12	4.1581e-05	6.728e-05	700.24	271.77	3.8628e-05	4.3486e-05	325.98	135.91	132.72	69.27	3.8265e-05	67.852	247.807	248.818	327.205	187.088	329.715	346.911	185.261	192.289	329.764	329.228	189.936	193.524	197.333	201.489	314.139	197.719	-8191	255	
1941.034	1	1	0	0	0.25496	0.024912	0.19274	0.19305	0.054994	0.17983	0.21492	0.20017	0.24725	0.068012	0.16297	0.23015	0.20804	0.17051	0.079938	0.23891	-2.4167	-2.5604	-2.4562	-3.1458	-2.5438	-2.6792	-2.9562	-2.7438	-3.0687	-2.8167	-2.7313	-3.0708	-2.8438	-2.8042	-2.9375	-2.6771	352.690	376.481	178.914	478.247	336.041	302.912	394.785	521.405	401.508	489.783	447.180	420.493	236.797	434.752	402.532	501.135	0.00074172	0.00023539	0.00019705	777.66	1.167e-05	2.5887e-05	734.92	281.65	5.1178e-06	5.1164e-06	334.59	141.22	138.18	71.844	9.9366e-06	70.728	0.0034636	0.0038411	0.0011604	741.79	4.1038e-05	7.4597e-05	695.96	271.02	3.9588e-05	4.2496e-05	323.97	135.87	133.38	69.457	3.8656e-05	68.275	247.873	534.177	212.512	186.995	325.922	343.908	185.371	192.223	320.668	306.056	190.225	193.969	197.237	201.763	325.969	197.492	-8191	255	
1941.105	1	1	0	0	0.23781	0.26492	0.074539	0.12248	0.034058	0.22854	0.21122	0.42236	0.20044	0.20076	0.13476	0.16977	0.19384	0.22249	0.26763	0.039366	-2.2875	-2.6063	-2.6	-3.0083	-2.8438	-2.6458	-2.9875	-2.5479	-2.8542	-2.9271	-2.6125	-3.1208	-2.7021	-2.7146	-2.85	-2.6208	230.930	410.176	476.534	351.401	337.163	198.867	427.575	435.166	294.473	206.060	203.200	497.707	461.795	472.827	342.937	532.540	0.0007484	0.00074661	0.00040272	788.01	7.6846e-06	1.7973e-05	740.75	284.71	6.5595e-06	4.43e-06	333.99	142.69	139.26	72.419	8.6146e-06	71.493	0.0037852	0.0038296	0.0011786	747.53	4.0647e-05	6.7803e-05	701.51	273.54	3.9786e-05	4.1776e-05	323.6	138.4	134.41	70.184	3.984e-05	69.077	252.283	185.989	281.526	187.154	362.480	374.453	185.491	192.225	284.006	398.665	189.795	193.717	197.692	201.612	329.380	197.459	-8191	255	
1941.224	1	1	0	0	0.28174	0.20119	0.15436	0.15249	0.10468	0.06605	0.15069	0.21649	0.13194	0.027264	0.10603	0.13296	0.063606	0.51405	0.029027	0.17129	-2.1458	-2.8042	-2.4229	-3.0479	-2.6521	-2.6188	-3.2021	-2.6729	-2.6813	-2.8854	-2.4271	-2.85	-2.7917	-2.6458	-2.7896	-2.5354	360.194	447.650	369.098	499.163	194.228	431.984	523.537	453.604	495.547	430.608	397.794	178.513	362.219	491.864	378.072	493.570	0.00081055	0.00062472	0.00021778	786.99	5.5081e-06	2.5953e-05	738.64	285.66	7.0545e-06	6.7662e-06	335.55	144.12	139.34	72.886	1.1344e-05	72.884	0.003505	0.003795	0.0011677	748.14	3.9385e-05	7.3426e-05	701.99	273.7	4.0847e-05	4.1758e-05	323.29	139.78	134.66	70.511	3.957e-05	69.9	252.958	207.324	266.229	186.888	362.543	364.316	185.512	192.576	317.572	338.851	189.999	193.298	197.244	201.888	304.300	197.711	-8191	255	
1941.320	1	1	0	0	0.15718	0.25529	0.16184	0.30496	0.10762	0.17592	0.13668	0.23897	0.025753	0.19183	0.22716	0.028499	0.094984	0.18547	0.20043	0.084056	-2.3396	-2.8417	-2.5208	-2.7708	-2.7687	-2.6333	-2.9458	-2.675	-2.5583	-2.8271	-2.5479	-2.9854	-2.7854	-2.6	-2.8542	-2.7104	200.007	499.877	465.609	359.887	245.611	459.697	174.539	444.824	412.459	474.005	277.554	433.990	413.262	223.557	510.476	179.987	0.00088245	0.0007311	0.00019194	779.38	6.1121e-06	1.9438e-05	740.77	285.77	2.7049e-06	6.3772e-06	337.64	144.14	139.13	73.068	5.9843e-06	71.529	0.003904	0.0037415	0.0011611	747.07	3.9307e-05	6.4277e-05	703.05	273.42	4.1421e-05	4.1497e-05	324.49	140.67	134.2	70.387	4.0619e-05	69.085	247.845	255.930	236.602	187.061	382.717	360.410	185.327	192.288	266.756	350.278	189.958	193.848	197.416	201.792	286.745	197.433	-8191	255	
1941.417	1	1	0	0	0.20018	0.1868	0.053756	0.18076	0.25058	0.070742	0.090438	0.1043	0.21674	0.11143	0.12008	0.23851	0.13885	0.21763	0.1191	0.015236	-2.0333	-2.8542	-2.5021	-2.8312	-2.8667	-2.6625	-2.9	-2.9271	-2.6479	-2.7812	-2.6937	-2.9125	-2.9854	-2.6688	-2.8937	-2.7917	461.593	325.196	504.034	242.161	266.710	372.685	363.746	497.071	334.073	494.663	506.720	222.327	332.445	496.086	426.264	513.166	0.0007979	0.00060676	8.6653e-05	783.8	3.6902e-06	2.8556e-05	739.72	284.05	4.765e-06	1.3023e-05	334.67	142.69	138.36	72.3	6.4068e-06	71.246	0.0035478	0.0037162	0.0011519	746.15	3.8011e-05	5.2509e-05	705.44	272.22	4.1152e-05	4.1953e-05	321.92	138.83	133.44	69.742	4.1408e-05	68.506	249.060	261.042	381.038	186.989	341.033	375.592	185.054	191.993	296.745	290.361	189.813	193.928	197.133	201.622	364.867	197.533	-8191	255	
1941.513	1	1	0	0	0.16112	0.38859	0.08825	0.3154	0.11049	0.23805	0.10435	0.10808	0.17277	0.057732	0.26843	0.08857	0.081342	0.21447	0.16477	0.10835	-1.9208	-3.0563	-2.5458	-2.8604	-2.9146	-2.4688	-2.9396	-2.7146	-2.5625	-2.8688	-2.5646	-2.7271	-2.8792	-2.7521	-2.6667	-2.8729	456.557	385.378	296.799	196.841	309.088	464.714	327.011	189.759	201.135	334.080	478.990	303.390	466.235	424.839	255.765	342.646	0.00078432	0.001178	0.00015655	778.65	3.5327e-06	1.0398e-05	736.49	284.23	4.2255e-06	2.0367e-06	333.98	142.24	137.96	71.836	5.3218e-06	71.183	0.0039314	0.0038513	0.001156	743.94	3.7946e-05	4.6725e-05	705.86	272.31	4.0814e-05	4.196e-05	321.28	138.6	132.8	69.426	4.2575e-05	68.392	257.129	259.883	314.846	187.133	375.729	324.484	185.372	192.087	333.839	343.794	189.722	193.707	197.531	201.886	325.739	197.850	-8191	255	
1941.633	1	1	0	0	0.14486	0.076977	0.16147	0.014527	0.069494	0.10099	0.33841	0.11127	0.25503	0.065694	0.18859	0.42921	0.11907	0.077509	0.11335	0.27747	-1.9271	-2.9208	-2.6604	-2.6167	-2.9062	-2.6688	-3.0146	-2.8583	-2.5917	-2.8875	-2.8187	-2.7021	-2.9979	-2.6833	-2.7354	-2.8104	451.311	420.655	333.553	327.335	454.287	471.722	406.376	226.940	307.554	240.256	467.353	470.087	341.927	479.631	444.975	523.018	0.00063308	0.0012981	0.00013795	774.43	8.3499e-06	1.4599e-05	736.05	282.35	4.0263e-06	2.0621e-06	332.79	141.84	136.87	71.281	1.2298e-05	71.182	0.0033489	0.0039495	0.0011372	741.63	3.7964e-05	4.6701e-05	706.31	269.88	4.1322e-05	4.3334e-05	319.19	137.4	131.71	68.906	4.1972e-05	68.444	256.397	203.945	334.533	187.115	333.460	336.721	185.441	192.234	273.254	197.646	189.518	193.870	197.483	201.705	298.427	197.630	-8191	255	
1941.705	1	1	0	0	0.066738	0.28499	0.15731	0.21629	0.11941	0.18032	0.05023	0.18614	0.16294	0.13588	0.081821	0.048526	0.24125	0.028855	0.28459	0.22064	-2.0104	-2.7458	-2.6521	-2.6875	-3.1063	-2.4542	-2.9146	-2.8312	-2.4875	-2.9625	-2.8167	-2.8042	-2.9208	-2.8083	-2.7271	-2.95	269.799	184.718	321.161	418.802	386.284	314.469	309.936	177.442	235.031	489.339	180.418	492.648	519.279	481.179	436.473	477.093	0.00062215	0.0014858	0.00028806	772.29	6.989e-06	1.5406e-05	730.6	281.42	3.9933e-06	1.6371e-06	331.67	142.43	136.77	71.469	1.4392e-05	71.692	0.0027799	0.0056242	0.0010971	741.13	3.769e-05	4.6185e-05	703.02	269.51	4.1289e-05	4.4291e-05	319.89	138.54	131.72	69.018	4.1785e-05	68.709	258.001	225.060	309.450	186.779	341.871	310.263	185.338	192.068	316.014	340.526	189.759	193.591	197.240	201.773	275.266	197.363	-8191	255	
1941.801	1	1	0	0	0.43419	0.13442	0.08442	0.35373	0.14988	0.077748	0.19988	0.085947	0.16031	0.12644	0.13366	0.17515	0.25573	0.19751	0.1936	0.25009	-2.1708	-2.8458	-2.7729	-2.6021	-2.9625	-2.6396	-2.9062	-2.7208	-2.5417	-2.7812	-2.8083	-2.5333	-2.9729	-2.7062	-2.6646	-2.9646	226.780	218.516	381.638	492.699	465.437	244.449	456.425	296.340	358.179	243.595	333.856	472.483	220.864	509.928	203.166	477.028	0.00065677	0.0027638	0.00021663	774.19	3.1006e-06	1.3357e-05	732.83	281.98	7.574e-06	3.6653e-06	331.35	140.95	135.37	71.218	1.2254e-05	70.14	0.0025658	0.0059589	0.0010826	741	3.8619e-05	4.5786e-05	705.03	269.33	4.1131e-05	4.4292e-05	318.22	136.56	131.13	68.505	4.2841e-05	67.602	253.133	228.076	263.920	187.068	249.984	372.052	185.371	192.246	336.810	281.405	189.831	193.950	197.136	201.687	320.022	197.692	-8191	255	
1941.897	1	1	0	0	0.3607	0.14747	0.15333	0.27215	0.051472	0.025119	0.19853	0.13616	0.14678	0.20341	0.1424	0.11639	0.033386	0.29064	0.16142	0.079225	-1.9396	-2.8083	-2.6271	-2.5167	-2.9875	-2.6583	-2.7021	-2.9938	-2.3958	-2.7167	-2.9333	-2.4917	-2.9292	-2.7667	-2.5896	-3.1521	286.144	263.858	283.028	515.724	424.675	359.478	492.755	471.331	378.538	513.460	472.459	528.047	457.748	498.942	263.015	425.754	0.00060778	0.0019783	0.00018844	777.85	4.4883e-06	1.4582e-05	732.63	281.95	7.8237e-06	8.2822e-06	330.1	140.15	137.49	71.394	6.5116e-06	71.081	0.0025526	0.0064801	0.0010657	741.59	3.9953e-05	4.4148e-05	702.64	269.87	4.1209e-05	4.5601e-05	318.13	135.93	133.39	68.955	4.3048e-05	68.196	251.662	219.180	316.525	186.993	375.026	365.964	185.801	192.380	346.194	296.493	189.838	193.780	197.263	201.522	317.986	197.398	-8191	255	
1942.016	1	1	0	0	0.26658	0.22867	0.14041	0.21511	0.25715	0.14275	0.10112	0.38818	0.5039	0.047538	0.27611	0.22129	0.18111	0.18955	0.056252	0.52484	-2.2	-2.7208	-2.9562	-2.6	-2.85	-2.7479	-2.7125	-2.9854	-2.4396	-2.7146	-2.825	-2.45	-2.95	-2.8937	-2.3646	-3.0208	333.131	405.597	472.616	184.426	475.565	492.034	383.727	431.929	206.309	453.734	520.115	210.130	191.951	479.589	244.706	478.696	0.00064507	0.0023471	0.00025459	780.6	2.5567e-06	4.8711e-06	736.92	284.52	1.0501e-06	9.7112e-06	334.92	143.65	138.57	72.677	4.3121e-06	72.335	0.0025378	0.0059876	0.001038	745.12	4.0904e-05	4.3649e-05	709.63	271.95	4.1103e-05	4.5001e-05	321.93	138.24	135.48	69.954	4.315e-05	69.367	255.066	248.458	241.082	186.980	373.316	339.346	185.475	191.992	372.164	359.222	189.822	193.790	196.968	201.609	272.679	197.607	-8191	255	
1942.112	1	1	0	0	0.37491	0.22518	0.25197	0.27279	0.26188	0.25617	0.23616	0.24186	0.15408	0.071409	0.054501	0.24338	0.33506	0.36259	0.12268	0.31102	-2.1083	-2.6896	-2.975	-2.6229	-2.8937	-2.7583	-2.5604	-3.0271	-2.6708	-2.7229	-2.8396	-2.6542	-2.7875	-2.9667	-2.6354	-3.0438	228.516	330.583	374.373	180.928	488.705	466.149	484.732	525.117	463.560	366.339	448.794	489.242	506.514	508.353	484.148	189.985	0.00061786	0.0017358	0.0002559	783.71	8.8152e-06	6.4957e-06	735.94	285.34	6.5364e-06	5.678e-06	335.09	144.91	138.98	72.518	3.6661e-06	73.272	0.0025252	0.0067536	0.0010466	748.52	4.1456e-05	4.3258e-05	705.09	273.54	3.994e-05	4.5505e-05	322.67	139.06	135.85	70.119	4.3496e-05	70.137	254.804	259.238	261.225	186.989	259.057	324.910	185.259	192.122	341.681	344.826	189.698	193.649	197.552	201.674	295.257	197.438	-8191	255	
1942.209	1	1	0	0	0.20341	0.048177	0.15008	0.1202	0.18422	0.18504	0.17591	0.12607	0.15243	0.10646	0.25565	0.079874	0.1462	0.089623	0.10437	0.17947	-2.2917	-2.8104	-2.8917	-2.5896	-2.7792	-2.8375	-2.5104	-2.9813	-2.7417	-2.825	-2.9354	-2.7146	-2.7646	-2.875	-2.3563	-2.8396	201.294	361.356	332.328	405.926	444.614	490.859	501.390	272.425	500.102	409.815	435.231	336.882	459.997	531.865	343.812	436.957	0.0006899	0.0017848	0.00026737	782.8	4.795e-06	6.211e-06	740.1	286.99	5.6125e-06	8.8599e-06	338.19	145.56	139.7	73.052	3.4575e-06	72.442	0.0025018	0.0061595	0.0010488	745.55	4.1056e-05	4.1602e-05	705.27	276.58	3.9571e-05	4.5678e-05	324.46	140.1	136.2	70.238	4.4046e-05	69.736	260.655	233.210	268.896	187.198	344.061	314.805	185.484	192.315	348.644	277.020	189.728	193.658	197.435	201.569	295.391	197.460	-8191	255	
1942.305	1	1	0	0	0.21946	0.18761	0.0694	0.2616	0.065366	0.25395	0.020421	0.1778	0.11799	0.20249	0.099995	0.32317	0.16018	0.10945	0.11198	0.25476	-2.3063	-2.6771	-2.8688	-2.7771	-2.7917	-2.9083	-2.5854	-3.1896	-2.7	-2.8271	-2.9167	-2.6729	-2.9479	-2.9729	-2.6229	-2.9896	263.315	441.069	426.727	500.978	479.454	275.769	458.270	405.917	280.864	507.447	239.596	481.257	508.754	502.837	386.788	507.533	0.00065997	0.0029993	0.00022928	778.65	3.3855e-06	7.1316e-06	738.01	283.92	8.3308e-06	4.0453e-06	336.45	144.87	139.54	72.798	1.0016e-05	71.918	0.0024163	0.0069615	0.0010558	744.11	4.0802e-05	4.1852e-05	700.55	275.14	3.79e-05	4.5852e-05	323.46	138.86	136.47	70.068	4.4511e-05	69.259	255.721	256.239	229.425	187.012	354.711	355.837	185.570	192.316	341.787	412.228	189.672	193.844	197.534	201.899	316.988	197.421	-8191	255	
1942.401	1	1	0	0	0.19121	0.31792	0.10992	0.24175	0.23045	0.18655	0.24666	0.22743	0.29549	0.1949	0.078428	0.24252	0.16371	0.11082	0.27665	0.18581	-2.3688	-2.5958	-2.8854	-2.7333	-2.7938	-2.9333	-2.6083	-2.8083	-2.9	-2.65	-2.9542	-2.6146	-2.6312	-2.9583	-2.425	-2.8521	268.580	446.256	511.273	525.686	310.515	178.982	471.235	418.446	427.197	258.422	267.013	500.232	522.268	436.343	399.380	503.034	0.00058979	0.0023924	0.0005481	781.5	2.9184e-06	1.1216e-05	737.94	283.55	5.6086e-06	1.4019e-05	337.32	144.38	137.7	72.243	9.6341e-06	71.531	0.0023604	0.0055806	0.0011997	744.84	4.0831e-05	4.1642e-05	701.63	276.61	3.7131e-05	4.6954e-05	322.64	138.27	134.82	69.476	4.318e-05	68.957	256.256	287.779	248.356	186.828	332.766	324.921	185.543	192.356	323.542	345.134	189.663	193.869	197.246	201.749	298.366	197.579	-8191	255	
1942.497	1	1	0	0	0.34603	0.036365	0.080444	0.15669	0.073207	0.15702	0.17054	0.22519	0.14765	0.14825	0.33945	0.2527	0.19746	0.18141	0.11382	0.071352	-2.4417	-2.3979	-2.6896	-2.7625	-2.5979	-3.0604	-2.6042	-2.8521	-2.8979	-2.3646	-2.8438	-2.9021	-2.8146	-2.9313	-2.4688	-2.9125	193.337	481.099	326.215	357.439	293.474	190.142	443.920	461.122	232.483	391.428	425.142	465.596	417.365	442.120	459.084	397.074	0.0006765	0.0021481	0.0004736	775.22	2.178e-06	7.4254e-06	731.56	279.7	6.4875e-06	9.9108e-06	334.95	142.93	136.77	71.019	3.6966e-06	71.118	0.0023237	0.0043433	0.0017456	740.56	4.0808e-05	4.1948e-05	697.02	272.53	3.6452e-05	4.7636e-05	320.94	136.85	133.86	68.808	4.3223e-05	68.735	248.486	279.971	214.101	187.013	361.498	305.303	185.128	192.288	347.088	292.139	189.506	193.979	197.092	201.771	309.650	197.837	-8191	255	
1942.618	1	1	0	0	0.17608	0.15254	0.085442	0.12289	0.18133	0.13131	0.23397	0.17247	0.24623	0.30282	0.23493	0.13702	0.25441	0.20774	0.046313	0.17926	-2.4188	-2.3771	-2.8354	-2.6625	-2.7313	-2.9896	-2.4979	-2.8458	-2.8396	-2.5396	-3.0354	-2.8625	-2.5646	-3.0292	-2.575	-2.6792	509.249	228.032	287.274	428.895	435.305	465.404	394.176	449.588	318.824	456.486	486.118	287.764	482.100	185.274	404.308	309.522	0.0006625	0.00080356	0.00065752	779.52	8.9849e-06	1.4653e-06	736.12	280.27	5.9141e-06	5.5447e-06	334.56	143.52	136.58	71.322	5.6148e-06	71.754	0.0022958	0.0042618	0.0017002	739.16	4.1744e-05	4.2321e-05	698.9	273.25	3.7172e-05	4.7671e-05	321.23	137.47	133.13	69.075	4.3057e-05	69.059	256.698	255.028	268.421	187.092	327.848	337.035	185.466	192.095	283.893	331.997	190.042	193.847	197.459	201.658	315.793	197.582	-8191	255	
1942.714	1	1	0	0	0.11298	0.2956	0.071899	0.16442	0.12615	0.18724	0.16657	0.19222	0.058034	0.046581	0.21234	0.19369	0.1834	0.14995	0.057226	0.20506	-2.5062	-2.4958	-2.8917	-2.8625	-2.5292	-3.0604	-2.7062	-2.6021	-2.9479	-2.3937	-2.9437	-2.6708	-2.6146	-3.0604	-2.7396	-2.8958	356.261	312.656	487.215	437.902	521.113	401.144	236.713	484.650	235.184	275.824	393.232	510.826	178.205	515.400	492.637	458.820	0.00069559	0.00062535	0.00083774	773.74	4.6775e-06	6.9075e-06	728.31	279.73	2.6879e-06	8.3635e-06	330.4	140.45	135.9	70.275	3.7489e-06	69.738	0.0023429	0.0042744	0.0019341	738.07	4.2115e-05	4.3848e-05	693.96	271.13	3.67e-05	4.6642e-05	317.87	135.21	130.52	68.383	4.0542e-05	67.506	250.938	200.455	287.910	186.892	333.764	326.098	185.272	192.522	356.569	338.590	189.665	193.967	197.459	201.782	405.860	197.485	-8191	255	
1942.810	1	1	0	0	0.19577	0.20269	0.11903	0.15764	0.41844	0.085844	0.12826	0.13863	0.23012	0.15844	0.18318	0.43908	0.34576	0.31674	0.083306	0.3196	-2.3688	-2.5833	-2.675	-2.8521	-2.4771	-2.8021	-2.6542	-2.8229	-2.9604	-2.5792	-2.8396	-2.8312	-2.575	-2.8396	-2.6521	-2.6063	280.953	355.718	183.647	270.646	189.694	239.417	219.501	435.842	522.286	257.119	413.428	509.618	467.988	452.549	197.455	494.649	0.00065134	0.00049173	0.00050762	770.32	9.3354e-06	4.9637e-06	730.61	280.91	7.7338e-06	7.9957e-06	331.35	143.06	136.57	71.832	9.3513e-06	71.646	0.0023132	0.0042146	0.0017091	735.45	4.3155e-05	4.3304e-05	693.54	273.6	3.8124e-05	4.5874e-05	319.53	136.83	132.38	69.588	3.9629e-05	68.734	253.080	240.488	271.495	186.810	355.080	280.316	185.450	192.066	328.341	321.503	189.398	193.827	197.334	201.813	277.390	197.663	-8191	255	
1942.906	1	1	0	0	0.11645	0.11992	0.056588	0.21398	0.023522	0.093892	0.18709	0.21943	0.16646	0.086957	0.23236	0.16806	0.095328	0.26553	0.21653	0.083381	-2.3688	-2.4104	-2.7188	-2.9917	-2.3792	-2.7812	-2.7729	-2.6813	-2.7979	-2.5021	-2.8708	-2.8688	-2.5979	-3.0438	-2.7542	-2.7896	319.792	279.135	331.093	196.261	358.725	273.463	425.202	191.322	402.861	358.951	506.645	403.516	492.938	505.381	385.550	201.008	0.00060443	0.00072624	0.00075685	780.09	1.047e-06	1.0136e-06	732.02	282.59	6.4852e-06	8.463e-06	335.81	144.43	138.99	72.48	7.3508e-06	72.235	0.0023764	0.0041324	0.0018887	740.71	4.2436e-05	4.2989e-05	697.34	273.64	4.293e-05	4.4572e-05	323.19	138.33	134.04	70.397	3.9375e-05	69.482	252.062	310.099	291.381	186.897	409.926	293.120	185.533	192.178	233.878	399.672	189.959	193.678	197.567	201.721	312.858	197.571	-8191	255	
1943.002	1	1	0	0	0.22545	0.079071	0.056077	0.13616	0.16273	0.21915	0.27412	0.15638	0.034697	0.11946	0.10032	0.1964	0.33384	0.21544	0.075685	0.10672	-2.4479	-2.7729	-2.7167	-2.8792	-2.4417	-2.8854	-2.8542	-2.7354	-2.8708	-2.6937	-2.5042	-2.9396	-2.7271	-3.1479	-2.7958	-2.5229	404.632	470.204	519.355	476.471	421.226	265.645	491.508	466.870	248.528	326.458	471.400	447.225	498.634	498.953	297.129	285.526	0.0006017	0.00044302	0.0005082	779.15	9.4871e-06	1.026e-05	737.08	284.8	6.4388e-06	8.36e-06	338.7	145.66	139.83	72.873	1.208e-05	73.479	0.0023959	0.0040014	0.0017322	744.36	4.2689e-05	4.4261e-05	703.2	273.34	6.3416e-05	4.3956e-05	325.95	139.77	134.74	70.762	3.9269e-05	70.531	248.254	252.714	275.537	186.927	322.762	296.304	185.346	192.295	227.106	356.660	189.844	193.673	197.261	201.581	324.388	197.503	-8191	255	
#DATA ENDS
