BOXY.EXE: ISS Imagent and Oximeter Data Acquisition Program Version 0.80
Ascii Record File

#ACQ INFORMATION
2  Detector Channels 
16  External MUX Channels 
1  Auxiliary Channels 
5000  Waveform (CCF) Frequency (Hz)
1  Waveforms Skipped 
30  Waveforms Averaged 
1  Cycles Averaged 
16  Acquisitions per Waveform 
10.0806  Updata Rate (Hz) 

#FILE INFORMATION
TRUE -- External MUX Channel results are PARSED.
FALSE -- AC DC and Phase are NOT grouped.
TRUE -- Companion Program Settings File CREATED.
FALSE -- AC data not excluded
FALSE -- DC data not excluded
FALSE -- Phase data not excluded
FALSE -- Auxillary Chn. data not excluded
Tab delimiters

#CALIBRATION STATE
TRUE -- Waveform Calibration Values APPLIED.


#AUX CALIBRATION VALUES
Val Type	aux-1	

Term	1.0000e+00	
Factor	0.0000e+00	


#WF CALIBRATION VALUES
A = Detector Channel
Val Type	A-AC1	A-AC2	A-AC3	A-AC4	A-AC5	A-AC6	A-AC7	A-AC8	A-AC9	A-AC10	A-AC11	A-AC12	A-AC13	A-AC14	A-AC15	A-AC16	A-DC1	A-DC2	A-DC3	A-DC4	A-DC5	A-DC6	A-DC7	A-DC8	A-DC9	A-DC10	A-DC11	A-DC12	A-DC13	A-DC14	A-DC15	A-DC16	A-Ph1	A-Ph2	A-Ph3	A-Ph4	A-Ph5	A-Ph6	A-Ph7	A-Ph8	A-Ph9	A-Ph10	A-Ph11	A-Ph12	A-Ph13	A-Ph14	A-Ph15	A-Ph16	

Term	0.00000e+00	0.00000e+00	0.00000e+00	0.00000e+00	0.00000e+00	0.00000e+00	0.00000e+00	0.00000e+00	0.00000e+00	0.00000e+00	0.00000e+00	0.00000e+00	0.00000e+00	0.00000e+00	0.00000e+00	0.00000e+00	0.00000e+00	0.00000e+00	0.00000e+00	0.00000e+00	0.00000e+00	0.00000e+00	0.00000e+00	0.00000e+00	0.00000e+00	0.00000e+00	0.00000e+00	0.00000e+00	0.00000e+00	0.00000e+00	0.00000e+00	0.00000e+00	0.00000e+00	0.00000e+00	0.00000e+00	0.00000e+00	0.00000e+00	0.00000e+00	0.00000e+00	0.00000e+00	0.00000e+00	0.00000e+00	0.00000e+00	0.00000e+00	0.00000e+00	0.00000e+00	0.00000e+00	0.00000e+00	
Factor	1.00000e+00	1.00000e+00	1.00000e+00	1.00000e+00	1.00000e+00	1.00000e+00	1.00000e+00	1.00000e+00	1.00000e+00	1.00000e+00	1.00000e+00	1.00000e+00	1.00000e+00	1.00000e+00	1.00000e+00	1.00000e+00	1.00000e+00	1.00000e+00	1.00000e+00	1.00000e+00	1.00000e+00	1.00000e+00	1.00000e+00	1.00000e+00	1.00000e+00	1.00000e+00	1.00000e+00	1.00000e+00	1.00000e+00	1.00000e+00	1.00000e+00	1.00000e+00	X	X	X	X	X	X	X	X	X	X	X	X	X	X	X	X	

B = Detector Channel
Val Type	B-AC1	B-AC2	B-AC3	B-AC4	B-AC5	B-AC6	B-AC7	B-AC8	B-AC9	B-AC10	B-AC11	B-AC12	B-AC13	B-AC14	B-AC15	B-AC16	B-DC1	B-DC2	B-DC3	B-DC4	B-DC5	B-DC6	B-DC7	B-DC8	B-DC9	B-DC10	B-DC11	B-DC12	B-DC13	B-DC14	B-DC15	B-DC16	B-Ph1	B-Ph2	B-Ph3	B-Ph4	B-Ph5	B-Ph6	B-Ph7	B-Ph8	B-Ph9	B-Ph10	B-Ph11	B-Ph12	B-Ph13	B-Ph14	B-Ph15	B-Ph16	

Term	0.00000e+00	0.00000e+00	0.00000e+00	0.00000e+00	0.00000e+00	0.00000e+00	0.00000e+00	0.00000e+00	0.00000e+00	0.00000e+00	0.00000e+00	0.00000e+00	0.00000e+00	0.00000e+00	0.00000e+00	0.00000e+00	0.00000e+00	0.00000e+00	0.00000e+00	0.00000e+00	0.00000e+00	0.00000e+00	0.00000e+00	0.00000e+00	0.00000e+00	0.00000e+00	0.00000e+00	0.00000e+00	0.00000e+00	0.00000e+00	0.00000e+00	0.00000e+00	-7.29439e+01	-1.30021e+02	-1.24914e+02	-1.83134e+02	-5.27761e+01	-7.14236e+01	-1.56866e+02	-1.62015e+02	-4.78778e+01	-6.48767e+01	-1.71930e+02	-1.71556e+02	-1.81736e+02	-1.77926e+02	-6.22738e+01	-1.50417e+02	
Factor	1.73134e-05	1.66260e-04	4.88759e-05	1.86492e-01	1.60179e-06	1.93899e-06	1.62677e-01	5.60871e-02	1.18118e-06	1.74570e-06	9.94639e-02	3.03487e-02	2.65711e-02	9.45456e-03	1.78352e-06	1.32450e-02	1.24241e-05	2.32072e-05	6.46118e-06	9.55684e-02	2.33110e-07	2.58720e-07	7.83537e-02	2.89116e-02	2.27059e-07	2.59205e-07	4.96099e-02	1.52121e-02	1.38846e-02	4.91572e-03	2.39358e-07	6.66233e-03	X	X	X	X	X	X	X	X	X	X	X	X	X	X	X	X	



#DISTANCE SETTINGS
A = Detector Channel
A-1	A-2	A-3	A-4	A-5	A-6	A-7	A-8	A-9	A-10	A-11	A-12	A-13	A-14	A-15	A-16	

2.5000e+00	3.0000e+00	2.5000e+00	3.0000e+00	2.0000e+00	3.0000e+00	1.5000e+00	3.0000e+00	3.0000e+00	3.0000e+00	3.0000e+00	3.0000e+00	3.0000e+00	3.0000e+00	1.5000e+00	3.0000e+00	

B = Detector Channel
B-1	B-2	B-3	B-4	B-5	B-6	B-7	B-8	B-9	B-10	B-11	B-12	B-13	B-14	B-15	B-16	

1.0000e+01	1.0000e+01	1.0000e+01	1.4400e+00	1.0000e+01	1.0000e+01	1.5100e+00	1.9400e+00	1.0000e+01	1.0000e+01	1.9900e+00	2.4900e+00	2.4100e+00	2.9000e+00	1.0000e+01	2.9800e+00	




#DATA BEGINS
time	group	step	mark	flag	A-AC1	A-AC2	A-AC3	A-AC4	A-AC5	A-AC6	A-AC7	A-AC8	A-AC9	A-AC10	A-AC11	A-AC12	A-AC13	A-AC14	A-AC15	A-AC16	A-DC1	A-DC2	A-DC3	A-DC4	A-DC5	A-DC6	A-DC7	A-DC8	A-DC9	A-DC10	A-DC11	A-DC12	A-DC13	A-DC14	A-DC15	A-DC16	A-Ph1	A-Ph2	A-Ph3	A-Ph4	A-Ph5	A-Ph6	A-Ph7	A-Ph8	A-Ph9	A-Ph10	A-Ph11	A-Ph12	A-Ph13	A-Ph14	A-Ph15	A-Ph16	B-AC1	B-AC2	B-AC3	B-AC4	B-AC5	B-AC6	B-AC7	B-AC8	B-AC9	B-AC10	B-AC11	B-AC12	B-AC13	B-AC14	B-AC15	B-AC16	B-DC1	B-DC2	B-DC3	B-DC4	B-DC5	B-DC6	B-DC7	B-DC8	B-DC9	B-DC10	B-DC11	B-DC12	B-DC13	B-DC14	B-DC15	B-DC16	B-Ph1	B-Ph2	B-Ph3	B-Ph4	B-Ph5	B-Ph6	B-Ph7	B-Ph8	B-Ph9	B-Ph10	B-Ph11	B-Ph12	B-Ph13	B-Ph14	B-Ph15	B-Ph16	aux-1	digaux	

633.828	1	1	0	768	0.10418	0.13126	0.079422	0.18722	0.13251	0.16259	0.15902	0.45792	0.10483	0.13612	0.12255	0.18174	0.30959	0.15429	0.16586	0.17577	-2.6813	-3.3396	-3.0667	-3.1083	-3.4208	-3.0438	-3.3625	-3.3521	-2.8229	-3.2313	-3.0604	-3.1063	-3.4583	-3.1396	-2.9938	-3.2271	48.599	80.459	203.043	248.533	189.244	245.241	214.232	257.677	31.874	33.074	13.470	294.188	-15.586	282.291	93.956	215.039	0.00020996	0.00053699	0.00012447	1378.1	3.4294e-06	5.3323e-06	1384.6	371.46	2.4867e-06	3.5176e-06	423.54	140.24	122.34	42.003	4.1881e-06	52.362	0.00032228	0.00029207	8.3672e-05	1390.5	3.3864e-06	3.3741e-06	1389	376.31	3.6311e-06	3.044e-06	428.23	143.1	124.85	42.904	3.3974e-06	53.232	197.347	65.884	66.021	-11.291	154.224	113.283	-11.115	-6.401	170.090	130.286	-6.992	-2.383	-1.675	2.388	139.816	1.528	-8191	255	
633.924	1	1	0	0	0.21563	0.17485	0.21691	0.077141	0.10218	0.16522	0.10742	0.18958	0.25624	0.11131	0.34573	0.1641	0.27752	0.18084	0.24595	0.14775	-2.5667	-3.2229	-3.2479	-3.2812	-3.1188	-3.0958	-3.2438	-3.5146	-2.8354	-3.1937	-3.0979	-3.2313	-3.4917	-3.0875	-3.0854	-3.2208	-12.739	275.019	117.046	16.267	263.310	161.008	55.018	213.466	135.796	43.385	304.410	255.384	30.611	268.812	73.329	268.797	0.00021048	0.00059938	0.00014227	1382.4	4.2395e-06	5.3413e-06	1378.2	370.12	3.1502e-06	5.6881e-06	423.8	140.24	122.05	42.212	4.1087e-06	52.286	0.00032901	0.00030034	7.8113e-05	1392.3	3.4627e-06	3.1779e-06	1389	375.77	3.5128e-06	3.1731e-06	429	143.09	124.85	42.951	3.3924e-06	53.158	192.346	56.804	74.824	-11.221	132.337	120.817	-11.220	-6.412	186.778	117.966	-7.261	-2.443	-1.841	2.350	145.266	1.674	-8191	255	
634.020	1	1	0	0	0.26798	0.21402	0.37284	0.22081	0.1859	0.090521	0.16531	0.24026	0.1524	0.11585	0.13004	0.20946	0.22778	0.25237	0.15841	0.28735	-2.4271	-3.3583	-3.1813	-3.2167	-3.2771	-3.0792	-3.3021	-3.4333	-2.8875	-3.0458	-3.5271	-3.1875	-3.3208	-3.2167	-2.9854	-3.5687	266.600	83.586	50.151	299.868	26.872	225.948	290.856	333.294	303.079	81.042	10.020	286.586	309.371	-18.398	227.696	265.728	0.00019982	0.00065219	0.00013178	1382.2	4.7431e-06	5.8539e-06	1379.7	371.16	2.3374e-06	3.5139e-06	423.62	139.53	121.87	41.909	4.9356e-06	52.383	0.00033581	0.00029609	7.7548e-05	1391.8	3.3646e-06	3.0227e-06	1387.2	376.34	3.4868e-06	3.286e-06	427.97	142.96	124.76	42.901	3.2518e-06	53.21	192.519	61.446	73.506	-11.261	178.899	125.265	-10.995	-6.323	185.438	132.181	-7.218	-2.384	-1.908	2.508	151.241	1.665	-8191	255	
634.116	1	1	0	0	0.18595	0.14754	0.18283	0.27133	0.14951	0.089398	0.16487	0.21512	0.16821	0.25581	0.054079	0.28735	0.074152	0.14488	0.26946	0.10362	-2.7833	-3.3563	-3.2438	-2.9917	-3.2188	-3.4313	-3.2896	-3.2229	-3.0896	-3.1375	-3.2896	-3.0812	-3.1896	-3.2333	-3.0417	-3.3208	263.417	39.874	46.429	277.734	40.887	234.670	312.924	319.632	96.499	65.773	150.394	-15.160	90.512	324.505	191.985	235.499	0.00020283	0.0004468	0.00012674	1379	4.179e-06	5.9507e-06	1379.9	370.42	2.3138e-06	4.6625e-06	423.1	140.15	121.84	41.946	5.8622e-06	52.401	0.00031619	0.00030914	7.4882e-05	1388.5	3.4646e-06	3.0421e-06	1387	375.93	3.4012e-06	3.0176e-06	428.24	142.87	124.75	42.842	3.4532e-06	53.203	195.470	63.192	80.145	-11.252	137.784	121.696	-10.971	-6.435	162.384	140.744	-7.204	-2.291	-1.915	2.286	145.363	1.868	-8191	255	
634.210	1	1	0	0	0.18289	0.12397	0.11971	0.36285	0.21676	0.12176	0.15584	0.25123	0.15782	0.14335	0.21494	0.20334	0.23898	0.15701	0.13354	0.19649	-2.8	-3.2188	-3.1271	-3.0771	-3.3458	-3.0896	-3.3021	-3.4021	-3.0708	-3.1521	-3.3729	-3.0854	-3.3187	-3.1604	-3.1271	-3.3833	105.959	292.735	60.490	15.215	115.706	318.235	304.786	291.159	233.266	-19.580	-22.312	250.183	331.807	274.944	329.338	307.667	0.00019673	0.00045393	0.00013122	1376.9	5.321e-06	5.1771e-06	1373.3	369.29	3.7459e-06	4.4887e-06	424.27	139.87	122.24	41.978	4.7747e-06	52.36	0.00032127	0.00029536	7.7238e-05	1388.9	3.5253e-06	2.8734e-06	1384.8	375.23	3.5175e-06	3.1596e-06	427.78	142.88	124.71	42.859	3.5375e-06	53.184	198.549	68.736	78.227	-11.248	152.896	102.142	-11.052	-6.530	162.847	135.442	-7.412	-2.243	-2.006	2.284	134.150	1.662	-8191	255	
634.308	1	1	0	0	0.11531	0.099086	0.16477	0.14143	0.16996	0.075654	0.2757	0.15682	0.17408	0.19736	0.084073	0.34716	0.27251	0.037804	0.21893	0.11596	-2.6542	-2.9729	-3.1937	-3.2167	-3.3354	-3.0771	-3.0292	-3.4917	-3.0458	-3.0667	-3.4437	-3.1792	-3.1042	-3.3083	-3.0062	-3.4437	273.701	121.763	241.984	16.276	299.497	138.836	279.959	281.989	127.268	186.579	241.448	236.189	233.304	215.250	46.130	7.936	0.00022179	0.00049261	0.00014181	1376.9	4.2604e-06	4.6542e-06	1377.2	370.31	2.7262e-06	4.5714e-06	420.29	140.16	121.34	42.022	5.3617e-06	52.063	0.00033131	0.00029038	8.1074e-05	1387.4	3.3116e-06	2.9877e-06	1386.3	375	3.282e-06	3.1807e-06	426.58	142.77	124.35	42.901	3.3999e-06	53.028	185.879	79.016	74.158	-11.138	153.266	111.263	-11.101	-6.461	164.006	128.472	-7.141	-2.430	-1.567	2.209	143.416	1.658	-8191	255	
634.427	1	1	0	0	0.19913	0.055251	0.13399	0.1927	0.067435	0.089745	0.42592	0.24273	0.1689	0.21507	0.23597	0.14997	0.16881	0.23724	0.30325	0.25173	-2.9625	-2.9208	-3.3125	-3.0229	-2.9813	-3.3979	-3.3104	-3.4375	-3.0292	-2.8354	-3.55	-3.2417	-3.2313	-3.3688	-2.8125	-3.3167	77.269	9.311	-15.024	0.474	169.735	52.072	258.693	114.505	91.872	35.086	238.204	209.574	-6.926	333.577	129.400	279.173	0.00022851	0.00034334	0.00011881	1380.4	3.7852e-06	3.8029e-06	1373.1	369.97	3.1351e-06	4.9436e-06	423	139.92	121.43	42.007	4.0407e-06	52.438	0.00032292	0.00029589	7.4936e-05	1388.6	3.4253e-06	2.9834e-06	1384.8	375.06	3.2328e-06	3.2498e-06	427.09	142.72	124.49	42.862	3.4557e-06	53.189	190.565	53.120	68.751	-11.308	150.654	119.459	-11.064	-6.391	168.320	133.191	-7.218	-2.336	-1.838	2.296	143.267	1.440	-8191	255	
634.523	1	1	0	0	0.14537	0.08444	0.064271	0.1367	0.13335	0.13033	0.15316	0.12667	0.14329	0.10501	0.24129	0.18468	0.29562	0.22243	0.10997	0.18135	-2.8292	-2.8979	-3.3229	-3.0854	-3.0312	-3.2167	-3.0917	-3.5521	-3.2083	-3.0062	-3.4104	-3.15	-3.0938	-3.3375	-3.0062	-3.2188	240.686	298.157	284.228	319.091	117.482	161.953	196.515	203.036	243.254	30.510	260.246	24.064	251.266	309.507	-13.145	304.952	0.0002032	0.00039268	0.00011464	1379.2	4.8876e-06	4.7003e-06	1370.3	369.38	2.7153e-06	5.7866e-06	421.23	139.43	121.91	41.766	4.0385e-06	52.149	0.00030757	0.00031015	7.5838e-05	1385.2	3.5034e-06	2.8616e-06	1382.8	374.86	3.1169e-06	3.1785e-06	426.33	142.66	124.57	42.723	3.4503e-06	53.062	198.973	56.446	80.833	-11.350	163.792	116.105	-11.133	-6.422	158.459	140.804	-7.115	-2.214	-1.772	2.520	139.397	1.795	-8191	255	
634.620	1	1	0	0	0.10367	0.25242	0.20009	0.05171	0.24927	0.27351	0.25687	0.18546	0.085602	0.23554	0.077384	0.12227	0.22693	0.14532	0.18873	0.25278	-2.8083	-2.9792	-3.3979	-3.3792	-3.1437	-3.5729	-2.9625	-3.1083	-3.1375	-2.7104	-3.1937	-3.1792	-3.0521	-3.3479	-3.2167	-3.3292	146.895	202.293	109.575	174.143	-11.644	328.223	269.119	303.239	59.505	277.021	223.610	86.301	320.173	84.221	46.458	256.792	0.00021901	0.00054523	0.00012749	1370.7	4.4173e-06	5.569e-06	1375.3	369.15	2.4175e-06	4.5951e-06	422.01	139.9	121.26	42.072	4.88e-06	52.096	0.00031803	0.00030426	8.1478e-05	1383.9	3.6142e-06	3.0939e-06	1383.4	374.84	3.2233e-06	3.3011e-06	426.74	142.84	124.34	42.877	3.2398e-06	53.057	195.057	63.080	80.802	-11.119	158.588	114.145	-10.897	-6.455	159.024	125.859	-7.428	-2.237	-1.578	2.460	158.065	1.693	-8191	255	
634.716	1	1	0	0	0.15265	0.02913	0.12526	0.15436	0.01832	0.17965	0.36289	0.36949	0.11679	0.13845	0.058537	0.15268	0.2298	0.19037	0.13376	0.18149	-2.9021	-2.9146	-3.0354	-3.2938	-2.9583	-3.2667	-3.3521	-3.0833	-3.2562	-2.9938	-3.3458	-3.3187	-3.1063	-3.4167	-2.9833	-2.9625	155.019	100.225	65.204	335.627	162.722	93.008	259.652	289.764	81.100	83.252	330.622	64.979	327.762	305.555	149.243	257.553	0.00020815	0.00068996	0.00014431	1379.9	3.4368e-06	4.9199e-06	1371.6	368.45	3.4525e-06	5.4221e-06	420.77	139.75	122.01	41.904	4.9196e-06	52.142	0.00030788	0.00032558	7.9284e-05	1386	3.4894e-06	3.1693e-06	1381.8	374.75	3.3321e-06	3.192e-06	426.96	142.7	124.65	42.793	3.364e-06	53.056	193.609	68.396	81.944	-11.321	142.767	111.903	-11.122	-6.342	162.219	116.057	-7.206	-2.291	-1.725	2.153	132.130	1.601	-8191	255	
634.812	1	1	0	0	0.16453	0.18204	0.21234	0.25298	0.21842	0.1501	0.18045	0.12096	0.21673	0.061873	0.13847	0.37009	0.22424	0.11156	0.079357	0.069879	-2.8146	-2.9437	-3.1333	-3.375	-3.0396	-3.3563	-3.2104	-3.0146	-3.3	-3.0708	-3.1937	-3.2979	-3.2146	-3.4729	-3.1958	-2.9542	118.122	217.749	99.880	314.881	228.857	280.112	205.104	255.235	226.513	122.948	306.004	272.729	290.896	66.290	116.502	315.767	0.00022349	0.00056593	0.0001185	1379.6	4.5495e-06	4.3394e-06	1377.7	369.19	2.3492e-06	4.8531e-06	422.04	139.51	122.06	42.107	4.5824e-06	51.78	0.00031228	0.00031344	8.0765e-05	1384.5	3.6069e-06	2.9694e-06	1381.6	374.34	3.3671e-06	3.1164e-06	426.39	142.53	124.59	42.855	3.1296e-06	52.916	196.897	47.487	76.546	-11.194	153.093	111.840	-11.211	-6.523	167.960	120.526	-7.077	-2.219	-1.977	2.327	143.244	1.593	-8191	255	
634.908	1	1	0	0	0.22728	0.21255	0.016392	0.1638	0.18771	0.10087	0.17231	0.33775	0.049173	0.22023	0.18582	0.094878	0.07237	0.25205	0.19892	0.1753	-2.6646	-2.8417	-2.9104	-3.1771	-2.85	-3.1521	-3.3333	-3.1146	-3.3021	-3.1688	-3.1896	-3.4208	-2.7542	-3.1729	-3.2313	-2.975	77.621	50.643	195.046	277.310	323.738	168.523	269.562	294.082	3.922	158.595	313.396	25.935	6.029	-7.345	196.995	241.375	0.0002221	0.00043848	0.0001511	1376.2	4.7845e-06	5.091e-06	1369.4	370.12	2.2384e-06	3.4819e-06	421.8	139.99	121.76	41.96	5.1582e-06	52.187	0.00031436	0.00029599	8.3605e-05	1384.2	3.537e-06	2.9122e-06	1380.9	374.75	3.2668e-06	2.9728e-06	426.66	142.65	124.56	42.835	3.0099e-06	53.067	191.017	69.840	78.261	-11.281	161.310	123.997	-10.986	-6.404	164.475	126.276	-6.979	-2.487	-1.599	2.592	141.335	1.179	-8191	255	
635.004	1	1	0	0	0.080538	0.10342	0.081451	0.20859	0.25408	0.13789	0.20752	0.23012	0.24103	0.16824	0.23049	0.11673	0.27703	0.18992	0.2217	0.25278	-2.7604	-3.0625	-2.9062	-3.5625	-2.9354	-3.0604	-3.2854	-3.0687	-3.1167	-3.0875	-3.2375	-3.425	-3.0938	-3.1396	-3.2729	-2.8771	201.302	315.728	154.202	2.448	8.163	130.795	270.914	296.168	223.488	179.684	234.210	246.814	317.712	297.231	21.337	205.779	0.00019999	0.00041133	0.00017487	1378.4	4.2578e-06	5.4742e-06	1375.2	367.84	2.9028e-06	4.1262e-06	421.26	139.21	121.56	41.925	4.3327e-06	52.222	0.00032026	0.00029763	8.4547e-05	1385.6	3.5569e-06	3.0987e-06	1382.5	374.7	3.3595e-06	2.9544e-06	427.1	142.38	124.59	42.867	3.2064e-06	53.055	192.022	59.834	79.500	-11.198	169.986	130.484	-11.075	-6.236	162.371	130.503	-7.195	-2.378	-1.693	2.367	134.675	1.708	-8191	255	
635.123	1	1	0	0	0.072699	0.13622	0.098642	0.21003	0.064689	0.11717	0.29638	0.27479	0.10054	0.1754	0.14445	0.30338	0.23231	0.16581	0.29559	0.36982	-2.6083	-2.9188	-2.7375	-3.2917	-2.9437	-3.2667	-3.5625	-3.0604	-3.3771	-3.2021	-3.0312	-3.2729	-3.2521	-2.8667	-2.9688	-3.1125	139.841	286.150	159.500	3.952	148.140	230.441	303.826	273.823	192.928	36.736	-16.802	312.230	163.162	30.458	182.850	-20.564	0.00020409	0.00042581	0.00016281	1375.2	4.6583e-06	4.973e-06	1372.8	368.55	2.925e-06	4.3382e-06	422.47	139.14	121.53	41.896	4.3625e-06	52.33	0.00031718	0.00028211	8.6634e-05	1385.3	3.5821e-06	2.9871e-06	1383.1	374.71	3.3704e-06	2.9171e-06	427.1	142.62	124.3	42.808	3.2034e-06	53.141	198.475	61.123	71.091	-11.382	140.987	122.597	-11.187	-6.321	172.116	126.006	-7.166	-2.302	-1.692	2.423	147.594	1.579	-8191	255	
635.219	1	1	0	0	0.44037	0.1531	0.13284	0.22131	0.2399	0.1846	0.18377	0.22185	0.15443	0.14102	0.15416	0.099114	0.27671	0.14547	0.15093	0.13694	-2.6542	-3.3146	-2.8354	-3.5125	-2.9667	-3.0146	-3.4792	-3.0125	-3.2333	-3.3729	-2.9167	-3.3479	-3.1854	-2.95	-3.2458	-2.8458	-23.115	318.649	154.088	284.297	9.614	167.113	218.229	309.478	29.120	139.795	302.208	286.559	238.418	81.851	119.521	5.141	0.0002123	0.00050974	8.6092e-05	1376.7	3.7542e-06	5.3396e-06	1368.8	369.33	2.6667e-06	4.503e-06	419.48	138.74	121.95	41.961	4.8799e-06	52.042	0.00032448	0.00028221	7.6928e-05	1384.7	3.3976e-06	3.1117e-06	1379.7	374.86	3.4144e-06	2.8712e-06	426.61	142.48	124.4	42.79	3.3914e-06	53.074	196.184	73.326	70.952	-11.271	153.081	137.574	-11.045	-6.475	147.401	127.815	-7.097	-2.304	-1.732	2.383	149.269	1.828	-8191	255	
635.315	1	1	0	0	0.22342	0.1141	0.13371	0.023462	0.12564	0.15524	0.21015	0.13187	0.099524	0.044986	0.44117	0.095668	0.12582	0.032686	0.10029	0.20419	-2.5062	-3.0083	-2.7125	-3.2938	-2.9292	-3.0625	-3.7333	-3.2708	-3.2833	-3.2854	-3.0333	-3.2208	-3.175	-2.8625	-3.275	-3.2062	30.966	275.855	285.161	287.966	117.679	24.803	328.985	10.088	-15.342	305.798	295.865	202.885	330.730	283.644	115.298	184.448	0.00021895	0.00063445	0.00013698	1374.2	3.8046e-06	4.299e-06	1373	368.36	2.5602e-06	3.7807e-06	421.36	139.38	121.36	42.009	4.0635e-06	52.029	0.00033167	0.00029463	8.5072e-05	1385.2	3.2412e-06	3.227e-06	1381.3	374.6	3.3917e-06	2.8426e-06	426.27	142.59	124.3	42.85	3.0932e-06	52.959	196.046	64.496	69.370	-11.292	158.630	130.879	-11.084	-6.351	161.211	130.180	-7.230	-2.402	-1.575	2.321	131.171	1.511	-8191	255	
635.389	1	1	0	0	0.065443	0.21984	0.19219	0.12756	0.1507	0.038708	0.43733	0.1628	0.2682	0.095413	0.20591	0.27524	0.11046	0.11983	0.10178	0.31288	-2.65	-3.4167	-2.8125	-3.25	-3.1833	-3.1688	-3.3396	-3.2417	-2.9667	-3.225	-2.9979	-3.3438	-3.1854	-2.9354	-3.3146	-2.9271	119.172	190.289	-5.731	329.686	122.685	52.482	266.356	226.442	207.395	259.929	-19.288	330.093	296.504	177.948	188.867	-23.480	0.00021507	0.00043375	0.00014703	1372.6	3.031e-06	5.5912e-06	1375	370.4	1.6366e-06	3.4988e-06	421.58	139.65	122.14	42.052	3.2502e-06	52.28	0.00032134	0.00027786	8.4655e-05	1385.3	3.1373e-06	3.2189e-06	1382.5	374.73	3.3576e-06	3.0554e-06	426.45	142.59	124.41	42.806	3.1865e-06	53.062	192.984	52.877	58.082	-11.361	156.839	127.072	-11.117	-6.419	174.981	115.213	-6.902	-2.325	-1.716	2.216	169.531	1.477	-8191	255	
635.508	1	1	0	0	0.1491	0.18597	0.088499	0.38818	0.058918	0.26733	0.13812	0.34636	0.11492	0.22954	0.039182	0.13678	0.10118	0.10678	0.14192	0.049924	-2.6167	-3.3375	-3.0333	-3.2292	-3.0979	-3.0125	-3.3208	-2.9083	-2.925	-3.2125	-3.0167	-3.1917	-3.4083	-3.1708	-3.3354	-3.1917	31.336	56.406	151.171	281.175	264.450	57.017	243.357	264.246	131.220	178.194	278.645	278.173	48.815	228.162	129.735	29.829	0.00021218	0.00051676	0.00013778	1375.1	2.9062e-06	4.9212e-06	1368.1	369	2.7302e-06	4.926e-06	421.11	138.81	121.79	41.841	5.0619e-06	52.196	0.00032417	0.00028951	8.3659e-05	1384.2	3.2451e-06	3.4787e-06	1379.2	374.52	3.5724e-06	3.0786e-06	425.87	142.33	124.23	42.785	3.2483e-06	53.065	194.891	78.425	53.356	-11.273	157.889	113.478	-10.977	-6.177	156.617	122.618	-7.109	-2.136	-1.797	2.188	141.838	1.675	-8191	255	
635.604	1	1	0	0	0.17277	0.24968	0.12348	0.15389	0.217	0.14027	0.20305	0.23159	0.10044	0.079109	0.35804	0.083387	0.2	0.087734	0.13617	0.30378	-2.5729	-3.4375	-2.7583	-3.2333	-3.375	-3.1312	-3.6667	-3.3312	-2.9167	-3.0687	-3.1771	-3.0917	-3.3937	-3.1083	-3.1479	-3.2792	153.910	319.876	134.656	-3.454	206.180	3.689	276.011	268.132	270.396	7.179	323.062	-10.537	323.218	23.010	164.574	235.828	0.00021313	0.00046311	0.00016734	1369.4	4.0386e-06	4.5184e-06	1373.3	368.3	1.7808e-06	4.2612e-06	421.05	139.36	121.82	41.957	6.1522e-06	52.094	0.00033255	0.00026906	8.5166e-05	1382.7	3.3349e-06	3.2211e-06	1380.8	374.41	3.5606e-06	2.962e-06	425.98	142.27	124.29	42.772	3.3191e-06	53.036	191.850	63.304	61.018	-11.226	171.664	117.950	-11.023	-6.153	156.138	150.584	-7.250	-2.212	-1.777	2.463	146.237	1.760	-8191	255	
635.700	1	1	0	0	0.21431	0.090277	0.1114	0.051578	0.12932	0.13654	0.46883	0.065208	0.15847	0.16675	0.20354	0.18198	0.28563	0.28189	0.16192	0.32426	-2.5542	-3.15	-2.9583	-2.8583	-3.1292	-2.8604	-3.3375	-3.5062	-2.8854	-3.2854	-3.0833	-3.0979	-3.4854	-3.0958	-3.0771	-3.0958	201.651	249.475	182.672	311.230	9.715	308.939	309.891	285.727	-2.139	324.817	262.541	301.237	6.675	50.923	297.673	261.141	0.00019965	0.00060399	0.00013023	1375.7	4.3821e-06	4.8041e-06	1371.2	370.46	2.8903e-06	4.6189e-06	419.61	139.46	121.51	41.903	5.0154e-06	51.857	0.00032329	0.00029372	7.9526e-05	1384.6	3.3238e-06	3.1068e-06	1380.4	375.02	3.4664e-06	2.8723e-06	426.45	142.51	124.36	42.718	3.2792e-06	52.932	196.411	63.079	61.537	-11.238	156.576	104.283	-11.187	-6.519	163.624	110.977	-7.316	-2.155	-1.624	2.434	142.621	1.566	-8191	255	
635.796	1	1	0	0	0.20652	0.12638	0.20838	0.27291	0.13092	0.099787	0.50287	0.47263	0.19634	0.12261	0.32861	0.095078	0.30586	0.080751	0.045204	0.29651	-2.3979	-3.25	-2.9854	-3.1813	-3.3854	-2.9688	-3.3583	-3.3396	-3.0125	-3.3187	-3.3229	-2.9917	-3.3042	-3	-3.0229	-3.5208	75.725	-11.376	249.081	268.477	302.696	137.332	270.137	249.726	74.030	183.015	81.475	139.005	116.761	328.526	87.497	226.232	0.00019528	0.00056373	0.00015514	1368.5	3.7785e-06	4.9074e-06	1371.9	367.96	3.5564e-06	4.9059e-06	420.19	138.79	121.3	41.884	4.8744e-06	51.858	0.00032528	0.00029053	7.9271e-05	1380.6	3.3204e-06	3.0524e-06	1380.7	373.74	3.6287e-06	3.0592e-06	425.31	142.39	124.27	42.741	3.2997e-06	52.975	195.832	59.126	70.198	-11.103	140.652	130.082	-11.067	-6.502	158.008	123.776	-6.981	-2.326	-1.873	2.396	154.003	1.470	-8191	255	
635.917	1	1	0	0	0.19879	0.14796	0.29574	0.27258	0.17311	0.11929	0.46326	0.416	0.23858	0.27526	0.020415	0.10714	0.34272	0.06291	0.19762	0.12624	-2.5125	-3.1312	-3.2812	-2.9896	-3.3417	-3.0438	-3.0292	-3.2708	-2.875	-3.2417	-3.1542	-2.7375	-3.4021	-2.9562	-2.85	-3.4	50.867	87.024	106.996	322.762	44.599	116.980	232.386	285.777	-1.890	10.329	202.430	265.567	-11.079	160.898	149.921	288.349	0.00020406	0.0003898	0.00014552	1371.3	4.1047e-06	5.7398e-06	1369.8	369.24	2.8539e-06	4.7141e-06	420.96	139.64	121.87	42.025	4.4915e-06	52.179	0.00031575	0.00026925	7.4102e-05	1383	3.365e-06	3.0928e-06	1378.7	374.09	3.5175e-06	3.0629e-06	426.11	142.36	124.41	42.791	3.339e-06	53.02	193.180	61.586	63.718	-11.092	158.314	126.026	-11.033	-6.360	160.941	124.563	-7.039	-2.234	-1.702	2.255	138.486	1.529	-8191	255	
635.988	1	1	0	0	0.095907	0.10539	0.1577	0.072894	0.19083	0.035734	0.22242	0.22194	0.13846	0.11431	0.079964	0.37891	0.24295	0.090231	0.14046	0.21443	-2.3854	-3.0583	-2.9875	-3.0604	-3.2771	-3.1542	-3.0729	-3.4021	-3	-3.2	-3.2167	-3.0687	-3.3583	-3.3208	-3.2333	-3.5812	182.281	333.421	245.190	251.890	124.281	238.698	220.416	252.139	1.079	208.485	268.045	318.515	315.048	-21.861	76.922	234.821	0.0002014	0.00044101	0.00012943	1370.7	3.4055e-06	5.5357e-06	1375.1	368.86	2.2241e-06	3.9642e-06	421.84	139.76	121.76	41.894	2.8978e-06	52.098	0.00032836	0.00029923	7.643e-05	1382.7	3.4335e-06	2.9392e-06	1380.6	374.18	3.5331e-06	2.9776e-06	426.39	142.43	124.13	42.69	3.3346e-06	53.012	196.248	64.113	70.425	-11.293	168.785	132.093	-11.043	-6.412	158.721	113.608	-6.759	-2.293	-1.540	2.448	141.453	1.791	-8191	255	
636.109	1	1	0	0	0.21967	0.19689	0.23344	0.27679	0.16236	0.042837	0.16342	0.254	0.057934	0.11847	0.11404	0.35296	0.040441	0.063782	0.11827	0.27414	-2.5646	-3.1146	-3.1896	-2.9062	-3.1813	-3.0167	-3.0354	-3.2771	-3.0333	-3.0979	-3.3979	-3.0542	-3.2146	-3.1729	-2.8542	-3.3458	113.873	304.336	60.385	281.980	117.055	95.756	299.529	262.506	186.297	294.917	332.508	319.957	286.983	150.303	52.935	322.907	0.0001947	0.00048607	0.00019088	1374.4	4.3517e-06	3.7477e-06	1371.5	369.25	1.4229e-06	3.5967e-06	421.47	139.53	121.52	41.932	3.2159e-06	52.001	0.00031932	0.00028584	7.9217e-05	1382	3.4039e-06	2.8594e-06	1379.1	374.22	3.2384e-06	3.0019e-06	426.09	142.4	124.19	42.752	3.4233e-06	52.88	193.246	67.437	65.667	-11.161	153.879	108.424	-11.203	-6.164	181.527	118.705	-7.158	-2.267	-1.643	2.549	148.912	1.586	-8191	255	
636.203	1	1	0	0	0.30329	0.14687	0.28973	0.1718	0.023718	0.13016	0.2651	0.3324	0.14884	0.17707	0.032846	0.17126	0.011434	0.12634	0.33023	0.1631	-2.725	-2.9667	-3.0521	-3.0792	-3.2729	-3.2396	-3.0667	-3.3292	-3.1063	-3.0833	-3.3187	-2.975	-2.9583	-3.0979	-2.9979	-3.2896	22.819	56.192	-9.437	315.955	256.248	187.534	249.014	247.200	15.006	91.736	290.522	281.470	221.306	-12.536	329.176	261.924	0.00020528	0.00049979	0.00014539	1374	4.3059e-06	5.5557e-06	1370.5	369.18	2.9165e-06	3.9435e-06	421.48	139.36	121.53	41.917	4.9457e-06	52.341	0.00031291	0.00030706	7.9876e-05	1381.9	3.4053e-06	2.8815e-06	1381.2	373.87	3.289e-06	2.9868e-06	426.51	142.48	124.44	42.782	3.6028e-06	53.131	196.167	63.970	77.319	-11.270	154.711	124.163	-11.288	-6.414	157.846	118.546	-6.811	-2.226	-1.699	2.319	141.898	1.588	-8191	255	
636.300	1	1	0	0	0.16035	0.11991	0.12497	0.41249	0.069272	0.077521	0.078917	0.12742	0.15385	0.18643	0.13085	0.11107	0.31274	0.18552	0.19337	0.20192	-2.6688	-2.9437	-3.1979	-3.0333	-3.1542	-3.1208	-2.9896	-3.3042	-3.2417	-3.0333	-3.2875	-3.075	-3.2625	-3.0875	-2.7854	-3.3937	188.804	-9.815	106.625	299.537	80.965	114.868	331.276	185.030	334.417	-4.817	279.190	264.164	300.629	-17.500	157.132	84.325	0.00019793	0.00046581	0.00010713	1373.7	5.1243e-06	4.4003e-06	1371.4	369.61	3.3764e-06	4.3334e-06	421.45	140.21	121.35	41.816	2.7745e-06	52.063	0.00031174	0.00028482	7.7642e-05	1383.1	3.52e-06	2.8475e-06	1379.8	373.88	3.2711e-06	3.2784e-06	426.45	142.59	124.26	42.708	3.362e-06	53.021	197.302	58.934	62.249	-11.060	152.506	133.177	-11.164	-6.156	169.442	124.716	-7.016	-2.197	-1.848	2.467	129.784	1.490	-8191	255	
636.396	1	1	0	0	0.2802	0.15754	0.068595	0.1098	0.26454	0.26491	0.30218	0.087197	0.058407	0.21502	0.27848	0.073555	0.13531	0.19182	0.066396	0.22418	-2.8063	-2.9583	-3.3187	-3.3208	-2.9688	-3.1354	-3.2604	-3.3375	-3.2687	-3.0062	-3.4188	-2.85	-2.8875	-3.2646	-2.9688	-2.9625	-6.294	263.901	203.861	311.133	124.865	304.812	323.872	139.131	291.179	317.921	320.717	191.962	31.241	52.669	3.125	316.041	0.00019831	0.00055243	0.0001806	1372.9	3.559e-06	5.332e-06	1366.5	367.72	2.7927e-06	4.6505e-06	421.93	138.79	121.87	41.899	4.7015e-06	52.005	0.00031392	0.00031252	7.5609e-05	1383.7	3.434e-06	2.8335e-06	1378	373.64	3.2692e-06	3.1321e-06	426.33	142.31	124.34	42.733	3.365e-06	52.995	191.463	63.695	61.636	-11.290	149.125	126.568	-11.174	-6.493	182.680	120.262	-7.241	-2.315	-2.014	2.595	141.225	1.707	-8191	255	
636.516	1	1	0	0	0.13805	0.22866	0.13065	0.0162	0.14007	0.1931	0.19156	0.22975	0.16216	0.055848	0.11435	0.079153	0.15116	0.12764	0.20893	0.40908	-2.7375	-2.7583	-3.1125	-3.05	-3.0438	-3.1625	-3.2104	-3.2292	-3.1917	-3.0938	-3.3229	-3.1792	-2.9479	-3.3292	-2.9042	-3.1188	143.962	-11.359	262.524	186.551	144.399	-18.286	207.422	237.844	149.388	265.161	5.045	228.754	170.340	17.220	12.682	-19.996	0.00021278	0.00053551	0.00014637	1369.9	3.468e-06	6.298e-06	1368.1	367.4	2.6209e-06	5.1136e-06	419.29	139.32	121.42	41.921	4.7844e-06	51.905	0.0003179	0.00030856	7.6605e-05	1380.2	3.4942e-06	3.1111e-06	1379.5	373.53	3.1727e-06	3.4042e-06	425.45	142.4	124.04	42.779	3.4323e-06	52.958	195.450	46.343	68.648	-11.341	164.782	124.755	-11.137	-6.256	154.209	145.715	-6.966	-2.140	-1.575	2.498	136.577	1.816	-8191	255	
636.612	1	1	0	0	0.14763	0.33282	0.15394	0.17682	0.12304	0.17118	0.33476	0.28177	0.064557	0.13913	0.17701	0.039982	0.19745	0.20395	0.05503	0.088302	-2.8896	-2.875	-3.3563	-3.5625	-3.0458	-3.3375	-3.2375	-3.4229	-3.4042	-3.0792	-3.3771	-3.3333	-2.9958	-3.4521	-3.0083	-2.9979	156.004	77.404	243.566	220.741	202.515	309.966	256.620	254.717	150.010	106.427	221.860	88.634	86.672	312.329	2.342	36.266	0.00021037	0.00045095	0.00014582	1369.9	3.4184e-06	5.8535e-06	1368.5	368.75	2.4254e-06	5.2498e-06	423.45	139.55	121.41	41.739	4.7699e-06	52.029	0.00031216	0.00030111	7.3671e-05	1381.9	3.4267e-06	3.0561e-06	1377.4	373.92	3.2261e-06	3.4507e-06	426.72	142.45	124.19	42.696	3.1391e-06	52.965	192.994	63.930	70.862	-11.151	160.570	127.127	-11.001	-6.345	182.564	126.098	-7.124	-2.184	-1.540	2.394	131.399	1.578	-8191	255	
636.684	1	1	0	0	0.046512	0.23077	0.16414	0.31571	0.13573	0.087422	0.012732	0.33307	0.21608	0.19988	0.15079	0.25563	0.19071	0.063205	0.06942	0.17135	-2.6375	-2.9729	-2.9875	-3.4125	-2.7646	-3.1958	-3.2812	-3.1958	-3.3229	-2.9562	-3.2458	-3.2687	-3.0958	-3.5271	-2.9938	-3.0271	166.994	107.969	297.559	299.186	129.155	-6.223	9.197	310.231	271.374	109.770	18.792	331.833	12.802	264.299	266.144	295.516	0.00019817	0.0004976	0.0001475	1370.9	5.2263e-06	6.2808e-06	1366.7	368.05	3.3025e-06	4.5437e-06	420.22	139.61	121.34	41.834	3.7404e-06	52.104	0.00030835	0.00030305	7.8328e-05	1379.2	3.6351e-06	3.0815e-06	1377.7	373.61	3.1708e-06	3.2174e-06	425.61	142.6	124.1	42.669	3.2014e-06	53.012	203.448	66.923	80.562	-11.164	148.279	131.098	-11.016	-6.215	152.848	143.678	-7.062	-2.390	-1.791	2.543	139.990	1.831	-8191	255	
636.805	1	1	0	0	0.19818	0.17864	0.094327	0.089883	0.15815	0.22315	0.21089	0.20317	0.067972	0.058243	0.11983	0.11243	0.10057	0.070736	0.21426	0.27546	-2.7854	-3.0938	-3.0563	-3.4083	-3.0604	-3.3146	-3.5187	-2.9333	-3.15	-2.9875	-3.1188	-3.4188	-3.0729	-3.4333	-3.3521	-3.1167	321.358	177.556	271.467	308.094	272.725	-11.077	276.829	283.130	62.985	135.846	273.711	291.947	113.462	242.141	333.992	228.685	0.00021716	0.00052326	0.00016009	1369.4	4.2242e-06	5.1788e-06	1366.7	368.37	2.9011e-06	5.672e-06	423.06	139.2	121.83	41.918	4.6249e-06	52.237	0.00031216	0.00029135	8.1021e-05	1381	3.4967e-06	3.0642e-06	1378.2	373.86	3.2058e-06	3.3324e-06	426.78	142.46	124.31	42.675	3.166e-06	53.117	192.253	72.501	71.030	-11.115	160.174	137.442	-10.975	-6.523	173.414	118.512	-7.199	-2.509	-1.578	2.398	148.738	1.923	-8191	255	
636.901	1	1	0	0	0.041253	0.10391	0.0487	0.19378	0.30326	0.29787	0.45351	0.06223	0.10925	0.25476	0.14555	0.21742	0.12446	0.080227	0.038912	0.097829	-2.9062	-3.1479	-2.8438	-3.4167	-2.8417	-3.1521	-3.3833	-3.1958	-3.375	-3.1708	-3.0687	-3.4917	-3.1688	-3.275	-3.1854	-2.8917	259.505	92.298	-23.990	287.814	72.021	260.885	258.759	180.315	119.366	126.356	281.860	-21.135	322.471	147.296	133.952	-19.794	0.00020695	0.00049222	0.00015945	1367.9	3.1385e-06	6.0652e-06	1371.8	368.29	2.8503e-06	4.2466e-06	420.55	139.52	121.96	41.839	4.2505e-06	52.035	0.00031914	0.00028124	8.3417e-05	1381	3.4257e-06	3.0599e-06	1380.1	374.02	3.2228e-06	2.9474e-06	426.52	142.58	124.51	42.743	3.1845e-06	52.964	194.479	62.966	75.451	-11.247	138.928	121.087	-11.066	-6.299	159.069	122.296	-7.021	-2.340	-1.942	2.324	129.031	1.791	-8191	255	
636.997	1	1	0	0	0.11458	0.15777	0.13822	0.34364	0.074658	0.16336	0.14249	0.033342	0.064547	0.044693	0.19225	0.14328	0.27324	0.26541	0.17196	0.091837	-2.7812	-3.0938	-3.0938	-3.5667	-3.0104	-3.2521	-3.2917	-2.8771	-3.1229	-2.9854	-2.9688	-3.2104	-3.0896	-3.15	-3.1208	-2.8125	218.868	65.265	297.187	324.281	78.317	49.624	-16.553	331.657	-7.140	238.733	268.290	33.553	301.572	302.382	74.858	37.061	0.00021374	0.00041169	0.00011783	1369.9	4.5626e-06	6.1983e-06	1371.3	368.37	2.6865e-06	5.7628e-06	420.57	139.31	121.68	41.753	4.5273e-06	52.199	0.00031335	0.00026935	8.5853e-05	1382.1	3.435e-06	3.0912e-06	1381	374.55	3.4234e-06	2.9139e-06	425.6	142.59	124.2	42.703	3.185e-06	53.006	194.683	61.062	74.115	-11.138	148.607	130.909	-11.203	-6.544	168.894	123.506	-7.015	-2.331	-1.754	2.484	131.612	1.649	-8191	255	
637.093	1	1	0	0	0.0096614	0.037577	0.082198	0.13174	0.10911	0.18423	0.40568	0.026327	0.15177	0.17688	0.061606	0.089235	0.041308	0.093603	0.30531	0.26835	-2.6229	-3.1729	-2.9167	-3.6083	-3.0187	-3.0083	-3.3646	-3.0875	-3.0104	-3.2167	-3.1063	-3.4437	-3.1208	-3.1188	-3.3667	-2.9875	224.910	72.359	152.636	209.413	192.095	285.054	279.468	48.070	53.545	29.400	289.547	83.117	62.907	199.002	120.938	311.292	0.00022342	0.00057499	0.00013412	1374.5	3.6136e-06	4.0719e-06	1371.4	368.33	2.5472e-06	4.3632e-06	421.45	138.84	122.31	41.794	4.2732e-06	52.236	0.00032494	0.00028888	8.3632e-05	1382.9	3.4019e-06	3.1656e-06	1379.8	374.19	3.2611e-06	2.9819e-06	426.5	142.51	124.64	42.777	3.2194e-06	53.091	191.120	66.791	71.105	-11.183	157.621	126.614	-11.024	-6.406	172.284	131.208	-7.022	-2.249	-1.694	2.378	146.349	1.793	-8191	255	
637.212	1	1	0	0	0.24229	0.047345	0.11721	0.25883	0.23909	0.28829	0.11667	0.29033	0.1341	0.19454	0.095956	0.23327	0.37157	0.14855	0.2056	0.21767	-2.6458	-3.0833	-2.9208	-3.2917	-2.8958	-2.7938	-3.3146	-2.9479	-3.2313	-3.3854	-3.0771	-3.4875	-3.2854	-3.1604	-3.3937	-3.0708	204.320	-0.946	166.111	313.808	290.310	176.014	257.013	333.983	145.404	157.324	248.988	281.516	272.618	13.250	255.889	114.159	0.00020224	0.00048108	0.00017313	1370.5	3.7377e-06	4.8445e-06	1373.2	370.25	2.7758e-06	5.1436e-06	422.63	139.86	121.46	42.116	4.7586e-06	52.071	0.00032023	0.00028651	8.6795e-05	1382.9	3.3548e-06	3.2712e-06	1383	374.96	3.333e-06	3.1688e-06	427	142.67	124.26	42.913	3.2378e-06	53.049	196.940	74.371	71.415	-11.223	164.116	118.310	-11.099	-6.231	173.551	138.418	-7.152	-2.227	-1.662	2.451	132.461	1.598	-8191	255	
637.284	1	1	0	0	0.31088	0.17339	0.089892	0.19524	0.22892	0.040024	0.2208	0.047916	0.19333	0.25239	0.21205	0.14939	0.26828	0.15288	0.035086	0.37252	-2.5458	-3.225	-2.9125	-3.3688	-3.3063	-3.0729	-3.5812	-3.2438	-3.0938	-3.2062	-2.9479	-3.1958	-3.1417	-2.975	-3.2354	-3.3312	146.096	40.175	175.209	321.447	-2.145	119.358	294.767	287.659	264.976	72.591	274.466	270.424	326.805	180.984	194.729	297.837	0.00021947	0.00054509	0.00014025	1371	4.0014e-06	5.1513e-06	1370.8	369.63	2.5138e-06	4.0887e-06	421.28	139.9	121.62	42.059	5.2754e-06	52.168	0.00032287	0.00028468	8.8087e-05	1383.5	3.3174e-06	3.248e-06	1381	375.1	3.4716e-06	3.0068e-06	426.66	142.73	124.39	42.884	3.2378e-06	53.092	192.856	67.818	73.118	-11.153	150.431	124.071	-11.010	-6.478	171.975	131.117	-7.279	-2.250	-1.532	2.215	143.004	1.739	-8191	255	
637.380	1	1	0	0	0.086224	0.10829	0.046358	0.32419	0.18879	0.18935	0.1176	0.022359	0.26845	0.20392	0.30122	0.15276	0.20185	0.21327	0.24793	0.16054	-2.8354	-3.2708	-2.7938	-3.3417	-3.1708	-3.1771	-3.5854	-3.3896	-3.2229	-3.1292	-2.9167	-3.1437	-3.2229	-3.0375	-3.2542	-3.1667	273.712	166.253	47.911	319.021	248.191	168.153	260.555	228.567	218.066	152.587	54.610	66.434	-23.827	250.576	64.271	183.344	0.00020766	0.00043197	0.00015018	1371.8	3.7664e-06	4.7003e-06	1374.6	369.41	3.037e-06	4.81e-06	423.12	139.08	121.24	41.964	4.9588e-06	52.226	0.00032794	0.00029106	8.0051e-05	1383.5	3.2043e-06	3.2874e-06	1381.8	374.88	3.298e-06	2.9782e-06	427.43	142.45	124.14	42.835	3.2159e-06	53.108	199.334	62.202	65.274	-11.244	124.046	123.194	-11.065	-6.397	163.804	139.290	-7.221	-2.233	-1.799	2.356	132.680	1.840	-8191	255	
637.478	1	1	0	0	0.13136	0.091487	0.035259	0.24356	0.21339	0.1008	0.38769	0.12828	0.16465	0.32218	0.084936	0.1296	0.21476	0.091906	0.099519	0.15193	-2.5521	-3.2729	-2.9667	-3.0479	-3.1771	-2.7417	-3.3792	-3.2646	-2.9604	-3.3563	-3.1667	-3.1188	-3.3208	-2.925	-3.0896	-3.4042	329.461	109.347	231.304	297.312	31.766	40.463	263.359	238.163	159.592	200.208	123.611	84.891	221.584	102.502	195.624	184.048	0.00019834	0.00047826	0.00014296	1376.2	4.9179e-06	5.1638e-06	1373.1	368.85	2.1932e-06	3.8152e-06	422.68	139.98	121.84	42.038	5.4484e-06	52.162	0.00031904	0.00028231	7.8584e-05	1382.8	3.2956e-06	3.1726e-06	1381	374.76	3.4962e-06	2.8718e-06	426.57	142.56	124.36	42.854	3.0713e-06	53.06	194.915	62.823	73.619	-11.183	154.609	112.226	-11.115	-6.292	167.726	127.558	-7.119	-2.399	-1.710	2.219	140.935	1.668	-8191	255	
637.597	1	1	0	0	0.19355	0.22237	0.047607	0.1837	0.11948	0.13106	0.1946	0.16468	0.18016	0.083574	0.15163	0.038967	0.3758	0.28737	0.13578	0.17586	-2.525	-3.3875	-3.1833	-3.2479	-3.1604	-3.1021	-3.3	-3.1188	-2.9062	-3.2812	-3.0521	-3.0542	-3.5146	-2.9437	-3.1333	-3.1604	185.520	242.054	285.236	331.359	187.929	65.468	249.316	323.523	6.648	155.744	132.170	71.825	288.558	328.075	181.394	219.296	0.00023435	0.00050617	0.0001238	1378.3	3.5576e-06	5.2958e-06	1370.3	368.33	2.0367e-06	5.3609e-06	419.94	139.78	121.89	41.864	4.388e-06	52.248	0.00032864	0.00028289	7.8948e-05	1384.6	3.3548e-06	3.0852e-06	1380.3	374.08	3.4783e-06	3.0862e-06	426.01	142.78	124.46	42.786	3.2832e-06	53.105	191.428	67.054	58.483	-11.218	141.770	128.682	-11.026	-6.375	169.774	144.087	-7.047	-2.221	-1.851	2.322	141.997	1.646	-8191	255	
637.693	1	1	0	0	0.058853	0.2606	0.13074	0.17917	0.34902	0.28103	0.3137	0.32747	0.098758	0.19199	0.065335	0.20317	0.23924	0.12473	0.022635	0.22963	-2.3937	-3.1792	-3.0375	-3.0646	-3.2458	-2.8208	-3.2667	-3.2521	-2.9688	-3.4146	-3.3396	-3.1229	-3.5792	-3.1417	-3.1771	-3.4604	86.444	172.459	265.364	5.492	186.316	164.691	309.935	285.574	118.747	30.186	-18.854	298.182	75.959	221.461	289.654	322.789	0.00020596	0.00057551	0.00012865	1370.5	4.9772e-06	5.762e-06	1375.7	368.58	2.6095e-06	5.189e-06	419.78	139.01	121.72	41.943	3.9245e-06	52.323	0.00032771	0.00028695	7.9567e-05	1383	3.3947e-06	3.0394e-06	1381.9	374.15	3.466e-06	2.9798e-06	425.76	142.38	124.27	42.828	3.35e-06	53.114	194.738	64.480	81.051	-11.235	166.157	129.483	-11.069	-6.325	157.341	130.055	-7.039	-2.398	-1.790	2.580	158.623	1.570	-8191	255	
637.789	1	1	0	0	0.090433	0.17164	0.03892	0.074888	0.073335	0.081396	0.25817	0.34583	0.024873	0.13477	0.32206	0.34189	0.066981	0.14377	0.054506	0.055999	-2.3854	-3.0396	-2.8917	-3.075	-3.3792	-3.0187	-3.2812	-3.4688	-2.8458	-3.1729	-3.2854	-3.0417	-3.5625	-3.1125	-3.15	-3.3625	131.522	25.305	132.418	256.053	27.204	234.388	216.162	294.133	118.594	250.214	274.520	300.753	265.023	300.309	220.011	164.262	0.00019488	0.00052148	0.00018477	1378	3.8406e-06	5.6347e-06	1374	370.24	2.5666e-06	4.7439e-06	421.01	139.89	121.29	41.96	4.9726e-06	51.962	0.00033004	0.00029778	8.1034e-05	1386.2	3.3762e-06	3.1817e-06	1382.9	375.17	3.4381e-06	2.9193e-06	427.11	142.6	124.41	42.819	3.4044e-06	52.971	192.098	59.042	66.313	-11.282	144.187	122.992	-11.173	-6.483	168.279	121.042	-7.065	-2.152	-1.624	2.402	144.032	1.819	-8191	255	
637.885	1	1	0	0	0.081225	0.034626	0.42489	0.36424	0.21522	0.17496	0.42049	0.3251	0.2106	0.092023	0.17289	0.095558	0.22864	0.059046	0.26031	0.18565	-2.5021	-3.0438	-3.0458	-3.0854	-3.3937	-3.1604	-3.2729	-3.5375	-2.9938	-3.1208	-3.1833	-2.7812	-3.0438	-3.0812	-2.9792	-3.45	-12.109	29.363	84.748	301.249	117.406	3.101	307.614	333.703	136.120	192.073	210.723	155.668	8.749	-9.224	4.152	280.574	0.00021124	0.00049968	0.00015159	1375.9	3.8119e-06	4.1729e-06	1375.6	369.2	2.596e-06	4.4205e-06	422.73	140.06	122.44	41.952	5.6045e-06	52.19	0.000328	0.00028405	7.7305e-05	1383.9	3.3495e-06	2.861e-06	1381.5	374.09	3.4234e-06	2.9495e-06	426.84	142.67	124.54	42.798	3.4478e-06	53.087	195.576	69.979	72.258	-11.129	169.141	106.866	-10.980	-6.268	149.055	118.425	-7.117	-2.129	-1.732	2.470	141.876	1.912	-8191	255	
637.981	1	1	0	0	0.3268	0.074135	0.29644	0.34455	0.12617	0.14013	0.016413	0.23896	0.058385	0.094015	0.4315	0.016227	0.12239	0.2245	0.1549	0.28137	-2.4229	-2.9833	-3.2458	-3.0146	-3.3146	-3.0458	-3.0583	-3.2667	-2.8833	-3.2792	-3.3958	-2.9875	-3.2667	-3.3167	-3.05	-3.5604	-9.284	242.983	11.820	295.623	148.060	141.520	61.731	240.796	268.354	245.816	317.319	235.679	301.521	306.853	91.342	272.450	0.00021459	0.00050817	0.00011822	1374.2	4.085e-06	5.7803e-06	1366.6	369.31	2.3025e-06	5.1095e-06	424.07	139.37	121.91	41.841	5.0981e-06	52.288	0.0003253	0.00028119	7.6982e-05	1383.3	3.2325e-06	2.709e-06	1378.8	374.51	3.3061e-06	3.2217e-06	427.13	142.54	124.6	42.788	3.4697e-06	53.095	190.353	61.851	56.177	-11.187	161.900	136.897	-10.985	-6.310	157.126	119.410	-6.993	-2.338	-1.568	2.341	137.212	1.660	-8191	255	
638.077	1	1	0	0	0.25618	0.34487	0.10238	0.20373	0.38326	0.19107	0.14729	0.17939	0.10097	0.17101	0.03384	0.057111	0.023191	0.082619	0.20002	0.25353	-2.5687	-2.8646	-3.5646	-3.0354	-3.1417	-3.3271	-3.325	-3.55	-2.9167	-2.8958	-3.3896	-3.1708	-3.3125	-3.225	-2.7687	-3.1937	328.474	107.494	44.793	326.153	71.261	127.988	147.469	312.956	217.036	313.644	210.200	43.353	206.075	305.429	70.291	299.372	0.00021978	0.00038919	0.00013403	1369.6	4.8553e-06	4.8837e-06	1369.3	368.09	2.594e-06	3.9358e-06	422.68	139.53	121.14	41.82	5.3152e-06	52.066	0.00031663	0.0002824	7.6592e-05	1381.4	3.2927e-06	2.826e-06	1377.8	374.08	3.351e-06	3.0797e-06	426.89	142.65	124.28	42.78	3.3769e-06	52.984	194.894	60.574	58.585	-11.102	155.089	125.336	-11.078	-6.638	162.797	124.642	-6.987	-2.202	-1.584	2.344	139.161	1.471	-8191	255	
638.198	1	1	0	0	0.11043	0.16361	0.05692	0.36818	0.28795	0.18487	0.34338	0.16865	0.079723	0.20447	0.37652	0.31652	0.2119	0.21023	0.27139	0.11664	-2.5833	-3.1167	-3.375	-3.1188	-3.1562	-3.1896	-3.0208	-3.375	-3.2375	-2.8458	-3.3917	-3.1312	-3.0812	-3.1146	-2.6521	-3.1688	15.432	164.501	58.495	315.673	4.239	335.089	260.570	164.418	249.830	29.968	239.363	250.531	331.029	296.325	64.858	229.497	0.00020008	0.00046099	0.00015233	1373.6	5.0614e-06	5.1648e-06	1373.1	368.06	3.2386e-06	5.8709e-06	420.82	139.03	121.67	41.944	4.7062e-06	52.185	0.00031544	0.00029439	7.2123e-05	1381.7	3.4204e-06	2.9936e-06	1380.8	374.42	3.3614e-06	3.2077e-06	425.89	142.56	124.51	42.77	3.4168e-06	53.036	195.514	60.942	72.676	-11.306	139.102	120.251	-11.047	-6.415	155.693	150.548	-7.146	-2.436	-1.613	2.138	143.222	1.875	-8191	255	
638.292	1	1	0	0	0.17425	0.18976	0.14329	0.24914	0.078063	0.12732	0.23875	0.16381	0.18481	0.17588	0.1311	0.12386	0.27032	0.29014	0.27115	0.14129	-2.7333	-2.85	-3.2042	-3.1625	-3.0771	-3.1375	-3.1375	-3.1354	-3.0292	-2.7604	-3.3125	-3.1375	-3.1792	-3.3917	-3.1292	-3.2729	1.520	325.948	279.198	326.821	211.613	189.896	249.842	266.725	110.670	58.334	-16.636	300.135	314.563	312.732	62.132	170.333	0.00020778	0.00056215	0.00013134	1373.8	4.3543e-06	5.0831e-06	1367.4	368.51	2.6189e-06	5.7398e-06	422.13	139.27	121.88	41.916	3.6838e-06	52.123	0.00031436	0.00030136	7.604e-05	1382	3.484e-06	2.799e-06	1378	374.08	3.1774e-06	3.3259e-06	425.73	142.62	124.31	42.802	3.4478e-06	53.028	195.678	76.056	66.606	-11.249	143.346	115.044	-11.040	-6.407	172.742	134.844	-7.282	-2.042	-1.673	2.520	148.455	1.704	-8191	255	
638.389	1	1	0	0	0.11878	0.2252	0.078708	0.31871	0.13524	0.18744	0.12454	0.03097	0.10918	0.24247	0.16852	0.19545	0.12599	0.20505	0.037882	0.10352	-2.8146	-2.9917	-3.3937	-3.2354	-2.975	-3.1021	-3.2396	-3.0833	-3.3167	-3.0292	-3.5062	-3.2458	-3.2438	-3.4437	-2.7438	-3.0208	291.477	199.311	281.537	309.864	135.720	246.664	7.499	335.506	67.362	229.680	269.441	238.398	284.089	-22.991	5.996	145.114	0.00020927	0.00039269	0.00013233	1365.7	3.2093e-06	4.2061e-06	1366.2	368.14	3.4814e-06	5.0521e-06	420.68	139.54	121.77	41.84	4.3251e-06	51.997	0.00030677	0.00030208	7.5636e-05	1379	3.3942e-06	2.9467e-06	1377.2	373.72	3.255e-06	3.1634e-06	426.51	142.58	124.43	42.77	3.2493e-06	52.991	193.525	62.076	76.484	-11.290	140.894	142.256	-11.038	-6.498	177.055	134.408	-7.266	-2.103	-1.947	2.224	144.670	1.822	-8191	255	
638.509	1	1	0	0	0.21921	0.085684	0.043757	0.43346	0.090587	0.11347	0.18818	0.192	0.046405	0.18032	0.1227	0.049535	0.24705	0.081732	0.044689	0.19995	-2.7708	-2.8896	-3.225	-3.1958	-3.0792	-3.325	-3.4	-3.2	-3.1792	-2.8875	-3.4125	-3.2583	-3.0667	-3.4646	-3.0687	-3.1875	40.235	291.772	97.610	-23.279	191.037	12.613	301.664	91.782	260.198	228.559	258.322	335.649	316.943	101.726	-7.927	127.450	0.00020891	0.00054347	0.00014483	1369	6.0532e-06	5.4126e-06	1368.1	369.22	2.3242e-06	4.4815e-06	421.39	140.35	121.39	41.979	3.3403e-06	52.098	0.00031661	0.00030194	7.779e-05	1380.2	3.4947e-06	2.8723e-06	1377.6	374.12	3.1793e-06	3.178e-06	426.29	142.62	124.35	42.817	3.0927e-06	53.046	198.916	72.941	83.535	-11.148	151.972	127.827	-10.964	-6.329	176.430	150.456	-7.149	-2.328	-1.699	2.108	157.185	1.748	-8191	255	
638.581	1	1	0	0	0.20754	0.11774	0.21586	0.40189	0.15265	0.13396	0.11033	0.21024	0.052541	0.084429	0.033504	0.1828	0.02728	0.12826	0.10241	0.091289	-2.8021	-2.9104	-3.1229	-3.3979	-3.2208	-3.3187	-3.1521	-3.2	-3.1625	-2.8563	-3.1833	-3.3	-3.05	-3.4021	-3.0979	-3.0875	315.340	239.869	21.387	-7.870	288.465	294.097	327.786	303.068	191.811	69.549	-2.548	36.873	275.035	-1.463	293.292	229.425	0.00022316	0.00057425	0.0001385	1367.8	4.0904e-06	5.7926e-06	1372.2	367.9	2.4388e-06	3.5883e-06	420.81	139.04	121.34	41.731	4.2329e-06	52.289	0.00031153	0.0003014	7.6202e-05	1380.5	3.4612e-06	2.8028e-06	1379.6	373.63	3.1869e-06	3.1013e-06	426.11	142.4	124.23	42.692	3.1949e-06	53.077	193.881	68.390	66.516	-11.309	168.432	118.347	-11.039	-6.116	181.231	125.274	-6.954	-2.134	-1.444	2.366	168.421	1.823	-8191	255	
638.677	1	1	0	0	0.18233	0.13282	0.087074	0.26766	0.13212	0.15138	0.085671	0.28641	0.26116	0.074583	0.22737	0.031183	0.19321	0.13498	0.064986	0.29795	-2.9271	-2.8771	-3.1125	-3.3583	-2.8812	-3.3688	-3.1333	-3.1208	-3.3292	-2.8417	-3.2229	-3.3167	-2.8667	-3.2938	-3.2375	-3.0208	291.492	304.801	6.276	318.781	176.753	8.864	248.597	303.644	0.324	8.662	236.517	66.514	22.815	-20.050	187.403	308.349	0.00021303	0.00051058	0.00010755	1372	4.5363e-06	4.5073e-06	1364.4	367.75	1.5097e-06	5.1081e-06	420.43	139.51	121.66	41.742	4.2107e-06	52.101	0.00031397	0.0002972	7.5986e-05	1378.6	3.5141e-06	2.9726e-06	1375.3	373.71	3.1968e-06	2.9431e-06	426.17	142.49	124.21	42.71	3.1151e-06	53.005	195.134	67.833	84.317	-11.281	161.591	120.598	-11.174	-6.298	169.708	141.053	-6.954	-2.218	-1.628	2.306	151.736	1.608	-8191	255	
638.773	1	1	0	0	0.11662	0.11122	0.059729	0.4961	0.17944	0.33201	0.11892	0.1785	0.077131	0.11995	0.15248	0.14315	0.22492	0.25125	0.075426	0.14248	-2.7896	-2.9917	-3.0687	-3.4396	-2.9521	-3.2542	-3.425	-2.8604	-3.4	-3.0542	-3.25	-3.425	-2.8875	-3.3458	-3.2729	-3.2771	311.818	295.974	86.571	278.870	206.476	230.752	290.553	279.884	246.461	141.241	64.669	161.230	251.822	284.006	180.458	318.190	0.0002097	0.00045876	0.00013949	1364.9	5.0814e-06	4.5892e-06	1362.5	368.2	2.2963e-06	4.8165e-06	420.54	139.4	121.43	41.952	3.3619e-06	52.002	0.00030473	0.00028057	7.8638e-05	1376.9	3.4495e-06	2.8966e-06	1374.7	373.81	3.1424e-06	2.9717e-06	426.24	142.52	124.18	42.774	3.0204e-06	52.899	197.110	71.023	70.954	-11.189	146.443	129.003	-11.046	-6.274	163.937	130.730	-7.178	-2.404	-1.760	2.328	149.328	1.609	-8191	255	
638.894	1	1	0	0	0.28838	0.25035	0.15027	0.38007	0.20347	0.13434	0.12435	0.14951	0.097321	0.18532	0.11921	0.24856	0.1419	0.071523	0.30505	0.046772	-2.9583	-2.7667	-3.0187	-3.3812	-2.8708	-3.2396	-3.3646	-3.1583	-3.3937	-3.1375	-2.9896	-3.2833	-2.7812	-3.0083	-3.1146	-3.1604	58.113	276.116	160.497	4.309	71.008	-23.721	265.256	304.045	122.044	157.009	300.625	27.792	74.802	253.990	50.505	24.857	0.00020425	0.00050726	0.00016791	1363.7	5.3894e-06	5.3094e-06	1365.1	368.16	2.2991e-06	5.7884e-06	419.73	139.53	121.4	41.967	4.4073e-06	52.095	0.0003069	0.00029028	7.9567e-05	1377.8	3.3529e-06	3.0658e-06	1375.7	373.77	3.2242e-06	3.0095e-06	425.61	142.57	124.17	42.795	3.1451e-06	52.976	195.109	62.166	62.796	-11.180	154.049	115.768	-10.905	-6.407	158.894	121.412	-6.766	-2.307	-1.782	2.356	157.910	1.638	-8191	255	
638.990	1	1	0	0	0.19411	0.19223	0.092393	0.30346	0.13305	0.13058	0.097656	0.048601	0.025416	0.09021	0.22148	0.10441	0.16345	0.1069	0.13394	0.093964	-2.8521	-2.8875	-2.7417	-3.4875	-3.0375	-3.1354	-3.4208	-3.1188	-3.2146	-2.9833	-2.9188	-3.325	-2.8812	-2.9417	-3.2521	-3.3083	-4.151	144.338	279.499	264.300	166.580	193.530	257.415	235.745	131.602	335.058	-8.722	278.583	3.064	332.453	258.675	78.938	0.00020194	0.00056821	0.00013886	1368.5	4.2716e-06	4.7047e-06	1364.9	367.23	3.4106e-06	3.4829e-06	421.45	138.99	121.46	41.768	6.5597e-06	52.137	0.00030959	0.00028221	8.207e-05	1379.1	3.3471e-06	3.0367e-06	1374.2	373.14	3.3094e-06	2.9436e-06	425.89	142.16	124.12	42.739	3.1695e-06	52.912	192.990	66.837	69.971	-11.367	154.052	120.880	-11.126	-6.463	169.769	123.279	-7.148	-2.137	-1.670	2.207	155.301	1.995	-8191	255	
639.086	1	1	0	0	0.30306	0.35343	0.16021	0.094851	0.149	0.18915	0.045418	0.41408	0.12555	0.12501	0.063745	0.11097	0.30427	0.2444	0.032236	0.23813	-2.8646	-3.3479	-2.9417	-3.5104	-3.1188	-3.1333	-3.3438	-2.9479	-3.05	-3.0938	-2.9688	-3.4646	-3.2604	-3.2396	-3.4562	-3.0354	-23.008	247.765	183.036	15.803	236.507	-23.081	237.746	273.600	279.490	24.800	18.592	10.218	86.082	313.679	207.469	277.174	0.00020781	0.0004474	9.5332e-05	1365.2	3.3113e-06	4.4845e-06	1364.1	367.3	2.0395e-06	4.5558e-06	420.81	139.33	121.36	41.839	5.1424e-06	51.93	0.00031503	0.00028337	8.2394e-05	1376.5	3.3097e-06	3.0998e-06	1373.6	372.91	3.2351e-06	2.8966e-06	425.3	142.37	123.95	42.753	3.1256e-06	52.884	196.566	69.319	67.582	-11.137	167.916	111.934	-11.111	-6.348	147.929	134.439	-6.999	-2.318	-1.784	2.272	142.638	1.866	-8191	255	
639.158	1	1	0	0	0.2564	0.08663	0.26814	0.088377	0.13248	0.13923	0.30337	0.26398	0.14831	0.09898	0.2295	0.1236	0.23224	0.30847	0.20177	0.13107	-3.0167	-3.1937	-2.7792	-3.2729	-3.0208	-2.8563	-3.55	-3.1625	-3.1042	-3.4208	-3.1208	-3.3333	-3.175	-2.9458	-3.1979	-3.0271	323.039	283.967	222.404	320.315	220.863	53.730	237.108	280.067	248.766	93.163	271.998	62.471	302.846	35.595	219.494	284.244	0.00021559	0.00058512	0.00014844	1368.2	3.8772e-06	5.1271e-06	1364	368.17	3.7697e-06	4.8671e-06	422.01	138.96	121.53	41.769	4.8518e-06	52.078	0.0003134	0.00026862	8.3928e-05	1375.7	3.3767e-06	3.0249e-06	1375.4	373.19	3.3397e-06	2.8464e-06	425.5	142.39	123.97	42.727	3.164e-06	52.955	194.980	83.090	72.194	-11.193	139.285	121.920	-11.118	-6.282	159.713	131.159	-7.168	-2.299	-1.837	2.284	141.336	1.613	-8191	255	
639.277	1	1	0	0	0.20398	0.25314	0.15826	0.053822	0.16665	0.23667	0.56532	0.35933	0.057779	0.28466	0.062215	0.13137	0.21922	0.18651	0.12852	0.32637	-2.6667	-3.1979	-2.7771	-3.2417	-3.0229	-2.9938	-3.5021	-3.0917	-3.1417	-3.3083	-2.9583	-3.2896	-3.2646	-2.8854	-3.1063	-3.0646	95.661	39.082	115.862	321.904	45.977	324.109	257.324	287.097	244.024	108.290	67.599	323.466	334.859	285.170	254.525	-7.531	0.00021956	0.00048689	0.00016786	1371.1	4.2315e-06	4.3042e-06	1363.9	368.04	3.2264e-06	3.7464e-06	421.04	139.16	120.88	41.865	4.044e-06	52.125	0.00032222	0.00026016	8.0792e-05	1378.8	3.317e-06	3.1284e-06	1373.9	373.31	3.5336e-06	2.7881e-06	425.42	142.27	123.86	42.672	3.0418e-06	52.944	190.056	80.145	74.008	-11.248	161.157	129.928	-11.120	-6.446	185.800	121.122	-6.989	-2.278	-1.693	2.386	136.404	1.938	-8191	255	
639.373	1	1	0	0	0.14433	0.11386	0.09269	0.18056	0.19154	0.050034	0.26244	0.23326	0.10665	0.12476	0.2051	0.31211	0.22539	0.19986	0.24889	0.10903	-2.4271	-3.1813	-2.7125	-3.1042	-3.3125	-2.8917	-3.3354	-3.1083	-2.7083	-3.2438	-3.0542	-3.0458	-3.2896	-3.0604	-3.2062	-3.1667	293.904	116.868	114.599	279.718	145.964	309.273	276.767	231.134	134.613	-18.491	303.701	268.506	286.532	316.845	323.824	114.934	0.00020914	0.00049284	0.00015514	1365.6	4.1077e-06	4.041e-06	1364.9	367.68	2.905e-06	2.6208e-06	420.1	139.32	121.38	41.787	5.6672e-06	52.091	0.00031648	0.00028086	8.1667e-05	1376.9	3.2189e-06	3.1823e-06	1375.1	373.23	3.3189e-06	2.9479e-06	426.15	142.29	124.08	42.701	3.2159e-06	52.985	191.885	79.688	77.152	-11.364	149.702	121.445	-11.081	-6.280	147.592	140.185	-6.867	-2.242	-1.719	2.549	142.470	1.546	-8191	255	
639.471	1	1	0	0	0.22523	0.022836	0.3087	0.16749	0.15644	0.054082	0.12615	0.02708	0.28917	0.27555	0.15214	0.070482	0.22849	0.091896	0.11522	0.17258	-2.5583	-3.2042	-2.875	-3.1958	-3.2083	-2.8312	-3.3979	-3.05	-2.9104	-3.2438	-3.1104	-3.0563	-3.3396	-3.1042	-3.3208	-3.2271	154.487	1.185	237.151	311.607	185.152	202.925	242.531	289.089	153.246	33.701	-21.790	88.373	315.229	195.807	104.040	248.771	0.00021117	0.00053553	0.00013152	1364.9	5.7294e-06	6.5575e-06	1366	367.79	3.1824e-06	5.8705e-06	420.22	139.44	121.27	41.881	5.6268e-06	51.946	0.00031917	0.00027486	7.8167e-05	1377.7	3.368e-06	3.2168e-06	1375	373.3	3.501e-06	2.9836e-06	425.39	142.35	123.97	42.756	3.1381e-06	52.84	194.256	69.785	62.233	-11.190	153.461	110.348	-11.053	-6.257	176.825	140.538	-7.140	-2.281	-1.767	2.477	126.354	2.074	-8191	255	
639.590	1	1	0	0	0.33362	0.12491	0.21936	0.24809	0.13295	0.098547	0.085335	0.16268	0.19421	0.17316	0.14475	0.28023	0.25028	0.14635	0.072434	0.16938	-2.4188	-3.5104	-2.9229	-3.0792	-3.3292	-3.0938	-3.4396	-3.3396	-3.05	-3.2667	-3.2396	-3.1	-3.3833	-3.0125	-2.9437	-3.2604	-22.861	62.027	241.616	-17.291	218.086	128.255	21.820	228.289	165.043	240.050	263.088	275.893	269.872	18.094	314.727	13.148	0.00020349	0.00050203	0.00012602	1364.7	4.0269e-06	4.7494e-06	1367.6	368.37	2.7035e-06	5.2276e-06	421.18	138.68	121.34	42.03	4.4192e-06	51.845	0.00032064	0.00026505	7.6915e-05	1376.8	3.2679e-06	3.0712e-06	1376.8	373.8	3.3874e-06	2.8594e-06	425.56	142.13	124.09	42.788	3.2598e-06	52.848	193.369	55.753	63.739	-10.999	165.406	133.340	-11.120	-6.361	185.057	129.906	-6.896	-2.346	-1.741	2.317	147.891	1.834	-8191	255	
639.686	1	1	0	0	0.21989	0.064547	0.24575	0.053043	0.1585	0.18934	0.35667	0.059593	0.17905	0.10426	0.10609	0.10012	0.24023	0.28454	0.061494	0.16295	-2.5271	-3.1875	-3.1333	-3.3167	-3.3583	-2.9958	-3.2313	-3.325	-2.6667	-3.1833	-3.3063	-2.9667	-3.3896	-3.1729	-3.1063	-3.3104	63.677	-16.423	143.239	167.339	225.007	155.457	305.229	289.813	57.136	271.817	271.682	306.120	4.272	-6.098	213.317	226.390	0.00021052	0.00034667	0.00013553	1369	3.5354e-06	5.8431e-06	1366.4	367.91	3.8743e-06	4.9142e-06	420.62	138.74	121.36	41.878	5.3459e-06	52.042	0.00032673	0.00028206	7.6969e-05	1377.6	3.2606e-06	2.9925e-06	1375.5	373.42	3.3368e-06	2.9436e-06	425.51	142.14	124.13	42.728	3.2857e-06	52.98	193.967	69.433	68.113	-10.970	146.213	127.976	-11.132	-6.325	170.706	139.325	-6.832	-2.187	-1.811	2.310	150.359	1.648	-8191	255	
639.782	1	1	0	0	0.10626	0.22878	0.3131	0.17444	0.3093	0.11974	0.28816	0.16512	0.075803	0.16003	0.12969	0.18379	0.12811	0.10441	0.36278	0.14361	-2.6833	-3.2167	-3.2375	-3.1333	-3.2917	-3.1188	-3.2604	-3.4479	-2.8708	-3.075	-3.1354	-2.9458	-3.2083	-2.9813	-3.1604	-3.3042	131.354	180.200	-13.432	324.778	19.802	-18.204	250.853	286.187	196.010	105.502	295.396	54.273	317.435	-14.750	171.091	312.717	0.00021307	0.00055201	0.00015407	1367.1	3.1838e-06	4.5514e-06	1364.2	368.77	2.8547e-06	5.5139e-06	421.15	139.27	121.68	41.818	4.2111e-06	51.972	0.00031208	0.00028221	7.7548e-05	1378.6	3.078e-06	2.9791e-06	1374.9	373.63	3.2777e-06	2.9868e-06	425.13	142.31	124.22	42.696	3.3934e-06	52.985	199.861	68.971	76.350	-11.262	154.295	129.706	-10.902	-6.213	188.515	131.641	-7.158	-2.081	-1.623	2.687	138.252	1.610	-8191	255	
639.878	1	1	0	0	0.11584	0.32556	0.1537	0.086456	0.22525	0.017437	0.19499	0.42464	0.1552	0.30487	0.34293	0.16058	0.19609	0.16705	0.031812	0.063359	-2.5479	-3.1021	-3.2979	-2.9354	-3.2667	-3.0792	-3.1312	-3.3854	-2.8625	-3.0854	-3.2021	-3.0083	-3.2375	-3.0521	-2.8375	-3.2958	45.823	124.252	308.495	-22.826	176.977	65.914	221.093	304.274	217.669	187.327	301.826	303.172	276.330	16.583	-4.809	296.604	0.00019559	0.00062182	0.00012639	1367.7	4.8857e-06	4.9554e-06	1367.9	368.24	2.0856e-06	4.7351e-06	421.05	139.16	121.75	41.693	4.1583e-06	52.145	0.00030724	0.00027752	7.503e-05	1377.7	3.2519e-06	2.9602e-06	1376.1	373.37	3.263e-06	3.0592e-06	425.33	142.35	124.18	42.732	3.3405e-06	52.983	194.834	63.510	48.826	-11.131	149.942	114.522	-10.962	-6.089	160.877	126.552	-7.278	-2.177	-1.666	2.440	146.986	1.653	-8191	255	
639.974	1	1	0	0	0.11238	0.085249	0.15649	0.062468	0.26336	0.25733	0.18071	0.34148	0.20196	0.24355	0.058939	0.065993	0.076147	0.17449	0.20976	0.086006	-2.4375	-2.9562	-2.9458	-2.7604	-3.1229	-3.1021	-3.1458	-3.4521	-2.7792	-3.0667	-3.3146	-2.8729	-3.0708	-3.2146	-2.8667	-3.3458	210.826	331.489	139.830	324.582	189.864	313.856	266.677	313.342	-23.389	299.617	304.959	299.635	283.858	155.303	97.740	225.955	0.00022191	0.00037574	0.00019379	1369.4	3.8132e-06	4.9113e-06	1373.7	367.3	3.534e-06	4.6256e-06	420.17	139.34	121.28	41.662	5.1531e-06	52.052	0.00033333	0.00029792	7.6417e-05	1377.9	3.3495e-06	2.9855e-06	1377.2	373.5	3.2971e-06	3.2168e-06	425.63	142.18	124.12	42.67	3.5949e-06	52.961	195.479	61.785	77.734	-11.242	145.130	125.361	-10.950	-6.334	165.623	120.489	-6.904	-2.195	-1.729	2.222	144.205	1.708	-8191	255	
640.070	1	1	0	0	0.26379	0.098491	0.13942	0.26774	0.15798	0.11616	0.25633	0.19217	0.11014	0.1674	0.093607	0.20723	0.17489	0.13652	0.15498	0.27475	-2.6875	-3.2146	-3.3917	-3.1292	-3.1146	-3.1542	-3.0417	-3.2979	-3.1188	-3.1875	-3.3896	-3.1479	-3.1479	-3.3167	-2.7979	-3.1354	299.071	247.522	135.750	283.197	163.149	290.427	295.140	311.832	273.272	321.241	288.551	31.271	272.486	263.411	64.095	12.981	0.00019623	0.00057688	0.00015609	1371.5	3.7505e-06	4.7436e-06	1367.9	368.39	2.7994e-06	4.4269e-06	420	138.95	120.95	41.816	3.949e-06	52.038	0.00031687	0.0002883	7.4304e-05	1377.2	3.2499e-06	3.0017e-06	1375.7	373.9	3.2924e-06	3.0073e-06	425.71	142.3	124.05	42.816	3.3869e-06	52.999	194.829	72.927	63.108	-11.187	149.446	114.814	-11.050	-6.367	166.517	122.439	-6.969	-2.143	-1.546	2.343	138.823	1.829	-8191	255	
640.191	1	1	0	0	0.087018	0.15938	0.17077	0.13397	0.24728	0.1602	0.22177	0.12061	0.30138	0.092686	0.1896	0.10097	0.225	0.15751	0.10027	0.12934	-2.4833	-2.8771	-3.4792	-3.2229	-3.0396	-3.3833	-3.2438	-3.4562	-3.2562	-3.0083	-3.3729	-3.1333	-3.0708	-3.4125	-2.9562	-3.1937	224.820	178.090	240.738	-2.652	322.812	155.827	208.316	35.024	88.983	-23.565	297.026	332.580	-8.253	321.769	119.391	-0.321	0.0002	0.00046902	0.00013532	1366.6	4.8378e-06	5.1712e-06	1367.2	367.42	2.589e-06	3.3769e-06	421.06	139.28	121.93	41.826	4.5841e-06	51.871	0.00031283	0.00029638	7.3025e-05	1377.7	3.4345e-06	2.9424e-06	1374.1	373.14	3.3534e-06	3.1261e-06	425.69	142.27	124.17	42.723	3.1625e-06	52.92	194.751	64.231	74.809	-11.248	146.966	121.275	-10.915	-6.275	151.999	120.002	-7.154	-2.166	-1.681	2.482	133.760	1.972	-8191	255	
640.285	1	1	0	0	0.12337	0.10114	0.12107	0.2683	0.1026	0.14112	0.054533	0.18418	0.21554	0.095988	0.03415	0.21657	0.1008	0.17067	0.03514	0.091011	-2.7771	-2.6583	-3.1312	-3.2562	-3.0646	-3.4167	-3.2521	-3.2354	-3.2062	-3.0458	-3.5417	-3.3771	-3.2083	-3.4417	-2.8354	-3.1625	201.957	169.444	218.964	268.756	17.402	-4.060	52.425	304.198	204.243	299.342	299.969	245.085	-15.940	-11.537	97.153	52.445	0.00019821	0.00049855	0.00016255	1367.8	4.3379e-06	4.9248e-06	1366.7	368.71	2.0736e-06	3.7075e-06	419.5	139.18	121.12	41.888	4.5674e-06	52.211	0.00030996	0.00028985	7.4304e-05	1377.2	3.4053e-06	2.9047e-06	1376.4	373.89	3.123e-06	3.1709e-06	425.17	142.4	123.95	42.682	3.2179e-06	52.914	194.189	53.878	68.555	-11.179	168.995	114.407	-11.027	-6.473	163.117	133.992	-7.132	-2.093	-1.702	2.455	152.736	1.204	-8191	255	
640.382	1	1	0	0	0.023683	0.059236	0.13201	0.29149	0.24408	0.1688	0.21521	0.29446	0.16597	0.084194	0.24011	0.20331	0.32637	0.21274	0.19452	0.11874	-2.95	-3.0708	-3.3187	-3.2313	-2.9708	-3.4708	-3.0563	-3.1854	-3.2646	-2.5583	-3.1813	-2.9688	-3.1729	-3.275	-3.0292	-3.275	16.101	178.154	284.935	293.044	315.873	40.750	281.946	240.580	74.817	-9.662	-12.527	263.801	309.791	14.384	67.191	200.376	0.00019987	0.00058399	0.00015182	1364.7	4.8154e-06	5.135e-06	1368.3	368.6	3.1786e-06	4.3036e-06	418.85	139.55	121.1	41.831	4.4995e-06	52.103	0.00030509	0.0002971	7.3604e-05	1376.9	3.4287e-06	2.7424e-06	1376.3	373.74	3.219e-06	3.1547e-06	425.22	142.42	124.03	42.678	3.1331e-06	52.99	195.403	59.234	59.919	-11.120	160.252	115.014	-11.133	-6.474	182.877	113.570	-6.946	-2.424	-1.670	2.211	141.079	1.619	-8191	255	
640.453	1	1	0	0	0.1979	0.29876	0.179	0.32739	0.18579	0.3787	0.2016	0.30942	0.17299	0.18633	0.23342	0.1704	0.2593	0.069466	0.14398	0.15591	-2.8292	-2.7062	-3.1292	-3.2687	-2.775	-3.225	-3.4354	-3.0312	-3.3771	-2.8146	-2.9833	-3.1375	-2.8854	-3.525	-3.1396	-3.225	278.385	-20.491	121.041	-7.358	39.680	-21.351	238.383	317.727	6.038	110.997	114.872	259.930	290.359	290.006	55.343	63.616	0.0002087	0.00037303	0.00016388	1370	4.887e-06	6.369e-06	1365.8	368	2.3427e-06	3.802e-06	420.91	139.48	121.64	41.746	4.8775e-06	52.142	0.00030656	0.00029318	7.6363e-05	1378.6	3.5962e-06	2.8971e-06	1375.5	373.34	3.1807e-06	3.1186e-06	426.14	142.31	124.44	42.718	3.2278e-06	52.984	195.901	69.734	59.498	-11.136	169.154	127.359	-11.107	-6.296	157.603	127.274	-6.951	-2.237	-1.765	2.470	134.587	1.797	-8191	255	
640.551	1	1	0	0	0.032292	0.076676	0.10787	0.40994	0.13539	0.089398	0.2475	0.26297	0.086497	0.099647	0.30217	0.018046	0.16541	0.1529	0.17178	0.20648	-2.7458	-2.7938	-3.0792	-3.2	-2.8479	-3.3229	-3.2333	-3.1292	-3.4688	-3.1063	-3.3625	-3.2708	-2.9896	-3.1458	-3.1604	-2.9833	230.217	15.678	133.673	315.359	282.441	178.895	304.741	-5.221	135.113	197.832	-15.112	317.775	249.677	255.456	200.249	286.839	0.00020924	0.00045304	0.00015825	1367.3	5.0417e-06	4.3171e-06	1365.6	368.14	3.284e-06	4.8752e-06	422	139.52	121.29	41.978	4.5997e-06	52.133	0.00030436	0.00028584	7.884e-05	1378.1	3.5374e-06	2.7624e-06	1375.6	373.77	3.1689e-06	3.0505e-06	426.18	142.42	124.07	42.717	3.1695e-06	52.981	198.662	77.131	70.615	-11.125	161.891	133.602	-10.997	-6.381	163.454	117.317	-7.258	-2.167	-1.549	2.540	133.459	1.893	-8191	255	
640.670	1	1	0	0	0.22425	0.18447	0.15452	0.15147	0.055907	0.25805	0.19236	0.13304	0.12481	0.080898	0.27104	0.12143	0.046216	0.41543	0.062662	0.11464	-3.0021	-3.0854	-3.2417	-3.6063	-2.8667	-3.3	-3.225	-2.7854	-3.0938	-3.0333	-3.0583	-3.3479	-3.1771	-3.4167	-3.175	-3.025	159.937	255.996	23.348	292.557	62.427	145.117	302.808	292.734	198.964	87.802	245.537	252.068	313.847	-0.667	70.572	-22.389	0.00021413	0.00041715	0.00015794	1365.7	4.0814e-06	6.3475e-06	1367.7	368.68	2.4028e-06	4.6234e-06	420.92	139.18	121.85	41.525	5.0623e-06	52.06	0.00030612	0.00027762	8.2865e-05	1377.3	3.4219e-06	2.8411e-06	1375.9	373.59	3.175e-06	2.9414e-06	426.02	142.17	124.42	42.662	3.0294e-06	52.905	197.939	71.496	81.785	-11.120	146.915	134.278	-11.073	-6.234	194.877	132.048	-6.957	-2.107	-1.684	2.531	139.326	1.896	-8191	255	
640.766	1	1	0	0	0.11955	0.19713	0.15381	0.11148	0.19826	0.066164	0.22172	0.10837	0.15068	0.11236	0.29969	0.226	0.077557	0.11057	0.0321	0.13202	-3.0938	-3.1583	-3.0854	-3.4417	-2.7083	-3.0979	-3.2	-2.9562	-3.3667	-3.0979	-3.3271	-3.5875	-3.15	-3.1688	-2.9458	-2.8542	203.034	2.116	254.107	272.824	324.472	-12.971	283.272	26.550	221.997	312.644	290.810	271.843	128.535	271.724	190.039	21.680	0.00021422	0.00039078	0.00013784	1361.2	4.3019e-06	5.0061e-06	1366.3	367.12	3.1227e-06	5.997e-06	420.54	139.69	121.55	41.957	5.3627e-06	52.043	0.00029976	0.00027718	7.713e-05	1376	3.2951e-06	2.9726e-06	1374.8	373.53	3.0956e-06	3.0467e-06	425.94	142.48	124.09	42.759	3.1311e-06	52.871	194.460	70.312	73.246	-11.193	148.618	117.334	-11.261	-6.223	180.586	122.871	-6.843	-2.105	-1.714	2.516	144.302	1.853	-8191	255	
640.862	1	1	0	0	0.097163	0.32266	0.23574	0.16084	0.1833	0.10116	0.32725	0.15104	0.19605	0.11995	0.10488	0.25612	0.095358	0.083828	0.27939	0.047579	-2.8438	-3.0187	-3.1208	-3.5104	-2.9292	-3.0062	-3.3583	-3.1708	-3.1417	-3.1542	-2.8667	-3.5187	-3.1188	-3.2729	-3.2687	-3.2062	263.080	118.936	217.007	267.372	301.063	53.002	270.238	264.064	253.464	125.388	162.713	299.844	108.714	126.453	-1.155	294.121	0.00022658	0.00043245	0.00014066	1365	5.2243e-06	5.8878e-06	1365.9	367.8	2.4223e-06	4.2995e-06	419.99	139.17	121.38	41.793	5.2001e-06	51.938	0.00030993	0.00027965	7.9405e-05	1375	3.3495e-06	2.9985e-06	1374.3	372.98	3.2276e-06	2.8502e-06	425.6	142.22	124.07	42.68	2.986e-06	52.929	194.324	69.843	61.563	-11.164	160.091	117.957	-11.120	-6.382	164.682	129.451	-7.066	-2.117	-1.551	2.494	139.666	1.739	-8191	255	
640.958	1	1	0	0	0.17977	0.16623	0.20074	0.32512	0.2103	0.31147	0.148	0.16625	0.057029	0.15733	0.17728	0.11565	0.34048	0.058373	0.16613	0.33802	-2.8312	-3.1	-3.0292	-3.4313	-3.0563	-3.1708	-3.2438	-2.9167	-3.2104	-3.275	-3.1708	-3.3042	-3.0896	-3.0812	-3.4896	-2.8208	151.635	104.519	209.141	246.476	273.435	54.140	207.649	258.174	162.766	169.775	58.939	-0.526	286.027	296.757	130.330	179.505	0.00020085	0.00049539	0.00012799	1366.3	4.4612e-06	4.7068e-06	1363.9	368.41	3.0167e-06	5.2917e-06	420.8	139.03	121.2	41.912	4.8573e-06	52.032	0.00031454	0.0002738	7.775e-05	1376.4	3.3106e-06	2.9424e-06	1373.2	373.57	3.307e-06	2.8675e-06	425.64	142.19	124.09	42.685	3.0782e-06	52.915	191.370	74.901	78.884	-11.075	148.921	129.600	-10.878	-6.241	175.759	118.183	-7.064	-2.171	-1.667	2.337	128.732	1.479	-8191	255	
641.055	1	1	0	0	0.079569	0.1463	0.10554	0.15424	0.060139	0.2441	0.16414	0.23056	0.075108	0.1904	0.13108	0.25731	0.19536	0.16884	0.19053	0.12415	-2.7333	-3.1	-2.85	-3.4729	-3.1771	-3.1042	-3.4875	-3.2	-2.9917	-3.1417	-3.0292	-3.3	-3.1063	-2.8146	-3.0729	-2.975	27.894	222.653	21.462	294.342	303.451	189.345	241.949	311.362	142.395	33.792	-22.977	264.204	2.871	7.102	154.575	199.279	0.0002138	0.00053449	0.00016363	1364.2	4.9931e-06	4.2228e-06	1365.6	368.78	3.1389e-06	4.9396e-06	420.02	139.12	121.44	41.856	5.21e-06	51.997	0.0003178	0.00026664	7.9526e-05	1374.1	3.2723e-06	2.9893e-06	1374.2	373.51	3.1987e-06	2.7908e-06	424.91	142.28	124	42.752	3.1271e-06	52.928	193.264	55.320	55.268	-11.165	161.729	137.165	-11.086	-6.392	161.482	116.873	-7.227	-1.825	-1.707	2.696	141.783	1.746	-8191	255	
641.151	1	1	0	0	0.11553	0.30257	0.14249	0.2707	0.19799	0.1346	0.22272	0.13504	0.046033	0.18354	0.13635	0.24909	0.26983	0.063006	0.15452	0.12689	-2.8083	-3.3458	-3.0667	-3.3729	-2.9917	-2.9354	-3.4229	-3.2438	-3.0771	-3.2958	-3.0542	-3.3833	-3.3042	-2.9896	-3.1083	-2.9458	-9.301	153.145	103.969	298.499	-16.328	38.940	315.435	284.653	216.607	333.858	222.443	335.758	283.885	53.421	241.125	-9.104	0.00021333	0.00040195	0.00012624	1364.9	4.9873e-06	5.7646e-06	1365	367.98	2.8745e-06	4.6922e-06	419.91	139.22	121.5	41.72	3.2833e-06	51.933	0.0003193	0.00026461	7.9244e-05	1375.2	3.315e-06	3.1666e-06	1375.2	373.31	3.3174e-06	2.9258e-06	424.64	142.31	124.19	42.66	2.9017e-06	52.852	191.260	66.452	70.096	-11.189	156.345	107.429	-10.956	-6.239	165.706	121.953	-7.055	-2.287	-1.811	2.462	138.209	1.787	-8191	255	
641.271	1	1	0	0	0.15728	0.27569	0.13762	0.15487	0.074951	0.23721	0.24421	0.091933	0.037541	0.46727	0.049288	0.11665	0.13792	0.31062	0.11741	0.065402	-2.625	-3.1958	-2.925	-3.2208	-3.1333	-2.8292	-3.3063	-3.0583	-2.8771	-3.2313	-2.8333	-3.1125	-3.2104	-2.9792	-3.2583	-3.2083	299.654	308.358	319.470	309.644	81.644	4.101	285.604	311.305	287.079	70.031	-14.293	331.724	298.770	179.570	93.738	259.039	0.00021566	0.00050361	0.00014193	1362	4.9356e-06	4.8776e-06	1359.9	366.72	3.0744e-06	5.4293e-06	419.47	139.12	121.59	41.832	5.5041e-06	51.985	0.00031819	0.00027423	7.7601e-05	1374.9	3.2713e-06	3.2076e-06	1372.1	372.92	3.431e-06	2.8702e-06	425.23	142.2	123.98	42.716	3.0962e-06	52.862	195.000	66.448	62.573	-11.051	150.180	125.012	-11.007	-6.327	172.728	130.483	-6.951	-2.299	-1.835	2.313	135.708	1.844	-8191	255	
641.366	1	1	0	0	0.11499	0.19175	0.057313	0.27653	0.047879	0.045785	0.42744	0.1834	0.10354	0.22222	0.25627	0.16028	0.12211	0.083453	0.20228	0.071487	-2.5438	-3.2333	-2.6375	-3.1958	-3.0542	-2.8312	-3.35	-3.2646	-3.0125	-3.2812	-2.8854	-3.1813	-3.4583	-2.9813	-3.0771	-3.1708	138.058	-0.497	136.926	286.906	151.305	15.195	271.185	-20.512	223.176	37.272	10.970	139.863	288.012	285.551	-11.489	10.002	0.00020944	0.00043692	0.00012334	1363.6	4.1508e-06	4.7517e-06	1357.7	367.56	2.732e-06	4.6217e-06	421.39	139.23	121.23	41.86	4.7122e-06	51.962	0.00031738	0.00026176	7.6834e-05	1374.5	3.3626e-06	3.0701e-06	1370.2	372.86	3.4537e-06	2.9614e-06	424.68	142.24	123.94	42.663	3.2313e-06	52.899	194.241	61.607	82.878	-11.251	152.413	120.927	-11.022	-6.248	178.144	147.042	-7.038	-2.185	-1.680	2.306	146.110	1.930	-8191	255	
641.462	1	1	0	0	0.33342	0.15508	0.14298	0.20392	0.18523	0.25131	0.075515	0.33697	0.056259	0.26289	0.13827	0.11379	0.32651	0.21154	0.13905	0.29731	-2.4938	-3.3604	-2.8771	-3.0083	-3.1729	-2.7979	-3.4208	-3.4667	-2.9479	-3.2167	-3.1958	-2.8333	-3.3521	-3.1813	-3.2583	-3.2104	31.222	6.767	160.602	235.678	289.851	148.986	27.970	273.551	230.009	130.227	233.542	312.986	252.035	306.362	27.442	29.933	0.00022029	0.00045192	0.00017995	1364.6	4.7065e-06	4.6135e-06	1364.2	367.51	3.2856e-06	4.0651e-06	420.2	139.22	121.18	41.632	4.9328e-06	52.072	0.00031878	0.000256	7.8571e-05	1374.2	3.1669e-06	3.0437e-06	1371.3	372.57	3.3118e-06	2.8118e-06	424.46	142.21	123.95	42.638	3.0927e-06	52.899	195.369	62.846	60.538	-11.322	171.090	105.415	-11.045	-6.276	176.111	129.991	-6.955	-2.127	-1.686	2.385	145.752	1.571	-8191	255	
641.558	1	1	0	0	0.12217	0.13017	0.31389	0.16927	0.24651	0.058458	0.30349	0.2425	0.19393	0.11917	0.076096	0.1483	0.11558	0.20445	0.14938	0.16064	-2.4	-3.3917	-3.1375	-3.0354	-3.2542	-2.9354	-3.4062	-3.4542	-2.9396	-3.2854	-3.4208	-3.075	-3.4417	-2.9271	-2.9333	-3.2667	21.545	107.196	82.683	37.883	292.802	-5.248	289.967	271.808	8.565	113.057	300.770	287.869	159.202	130.260	226.053	249.900	0.00020423	0.00055937	0.00016698	1362.8	5.1559e-06	4.8157e-06	1365.1	368.08	2.7586e-06	4.6183e-06	420.22	138.57	121.79	41.602	4.0035e-06	51.875	0.00031759	0.00027297	7.1908e-05	1373.5	3.1266e-06	2.9203e-06	1372.5	372.8	3.3846e-06	2.7368e-06	425.17	141.98	123.98	42.614	3.184e-06	52.866	194.107	69.105	68.652	-11.227	147.870	126.154	-11.115	-6.286	151.875	119.827	-7.116	-2.263	-1.629	2.406	145.617	1.397	-8191	255	
641.679	1	1	0	0	0.16989	0.08157	0.105	0.30963	0.23068	0.10414	0.33216	0.24527	0.32236	0.10738	0.13525	0.32674	0.062518	0.13055	0.18021	0.2016	-2.6833	-3.1458	-3.0229	-2.7812	-3.1312	-3.0042	-3.2458	-3.4583	-2.8729	-3.2	-3.2771	-2.9125	-3.1083	-2.9729	-3.0146	-3.3792	201.522	286.827	235.804	-12.326	81.165	0.707	279.418	297.228	135.230	158.478	262.226	-19.510	322.960	268.975	77.138	243.742	0.00020025	0.00052871	0.00011966	1365.4	2.6052e-06	5.3306e-06	1360.8	368.78	3.1232e-06	3.6202e-06	416.53	139.27	121.55	41.746	3.99e-06	52.12	0.00031586	0.00026616	7.6511e-05	1372.5	3.1096e-06	2.7899e-06	1372.4	372.85	3.1514e-06	2.9501e-06	424.11	141.98	124.01	42.676	3.339e-06	52.947	194.231	70.648	74.725	-11.175	144.958	124.988	-10.924	-6.265	161.826	141.162	-6.948	-2.156	-1.693	2.409	132.331	2.173	-8191	255	
641.750	1	1	0	0	0.20696	0.22825	0.1386	0.16422	0.46111	0.12284	0.32352	0.37971	0.20135	0.26815	0.070288	0.18083	0.20093	0.084885	0.28931	0.15451	-2.5521	-3.0521	-3.1312	-2.9792	-3.1875	-3.0083	-3.0563	-3.3146	-2.8229	-3.1042	-3.375	-2.9604	-3.3333	-3.1875	-2.9667	-3.1958	298.248	88.791	171.694	317.975	131.907	104.790	262.533	292.321	328.637	201.149	-11.763	35.386	9.709	249.687	-7.828	259.861	0.00021408	0.00040175	0.00017173	1364.8	4.7591e-06	4.2798e-06	1362.4	367.48	2.762e-06	4.7992e-06	421.37	138.98	121.2	41.792	4.2603e-06	52.159	0.00031687	0.00028124	7.3173e-05	1374	3.2101e-06	2.7963e-06	1370.3	372.53	3.1646e-06	2.8972e-06	424.71	141.94	123.97	42.679	3.3181e-06	52.889	191.252	71.047	76.431	-11.064	156.376	115.909	-11.182	-6.399	179.006	114.747	-7.142	-2.368	-1.776	2.533	134.803	1.760	-8191	255	
641.871	1	1	0	0	0.073347	0.30033	0.13477	0.16674	0.17259	0.17684	0.073367	0.042691	0.18892	0.18215	0.047998	0.050564	0.097334	0.20227	0.12785	0.17394	-2.5563	-3.1896	-3.375	-3.0396	-3.2833	-2.9854	-3.1521	-3.2479	-2.9313	-3.1083	-3.3021	-2.8917	-3.2979	-3.0896	-2.8979	-3.2333	53.425	31.804	109.596	264.637	4.577	273.571	28.839	-9.987	21.358	41.628	142.995	20.519	129.630	4.739	49.071	161.216	0.00021656	0.00044213	0.00016532	1361.9	4.141e-06	6.9309e-06	1362.6	365.57	2.3654e-06	4.6707e-06	421.89	139.13	121.42	41.747	3.4382e-06	52.157	0.00032277	0.00027254	7.7023e-05	1372.8	3.1217e-06	3.0454e-06	1370.6	372.25	3.2966e-06	3.1078e-06	424.98	142.14	123.96	42.692	3.348e-06	52.896	191.009	64.688	77.265	-11.214	161.493	127.259	-10.943	-6.246	170.081	126.797	-7.356	-2.259	-1.574	2.493	142.069	1.645	-8191	255	
641.967	1	1	0	0	0.31582	0.215	0.16552	0.12113	0.032379	0.11089	0.086496	0.14692	0.13118	0.092567	0.24023	0.2114	0.060792	0.14198	0.057327	0.22606	-2.4854	-3.0271	-3.3646	-3.1292	-3.3792	-3.3187	-3.0458	-3.3667	-3.0104	-2.9458	-3.325	-3.0292	-3.3896	-3.2	-2.7208	-3.2438	35.997	291.254	10.774	269.774	83.864	88.553	188.804	303.532	65.558	270.815	285.324	22.754	271.989	185.920	256.457	255.247	0.0002205	0.00045694	0.00014204	1365.5	3.978e-06	5.1003e-06	1364.7	366.54	2.3722e-06	4.9439e-06	417.53	139.4	121	41.74	5.3283e-06	52.155	0.00030801	0.00027573	7.0602e-05	1372	3.2135e-06	2.8562e-06	1371.7	372.48	3.3278e-06	2.9204e-06	424.09	142.17	123.85	42.596	3.3151e-06	52.931	195.742	64.468	77.765	-11.199	145.686	115.954	-10.941	-6.341	172.171	119.853	-7.163	-2.131	-1.630	2.282	138.685	1.654	-8191	255	
642.063	1	1	0	0	0.25408	0.1748	0.051904	0.23355	0.192	0.085261	0.22777	0.27271	0.17095	0.070546	0.043733	0.10281	0.070964	0.03892	0.16506	0.21838	-2.5875	-2.7854	-3.3521	-3.3167	-2.9979	-3.1021	-2.8896	-3.2292	-2.9375	-2.7729	-3.3292	-2.9833	-3.0833	-3.2896	-2.8937	-3.2708	102.266	41.983	254.736	270.723	70.480	312.662	261.033	-16.958	258.100	145.881	117.566	325.228	-9.723	259.383	334.300	240.572	0.00020517	0.00050622	0.00015687	1363.8	4.2627e-06	4.0515e-06	1360.6	367.65	3.0456e-06	5.2733e-06	420.75	139.1	121.14	41.865	4.3175e-06	51.79	0.00031309	0.0002869	7.4088e-05	1372.1	3.2393e-06	2.8977e-06	1370.4	372.93	3.1552e-06	3.2212e-06	425.13	142.02	123.98	42.66	3.1326e-06	52.853	196.741	57.926	66.772	-11.251	165.446	113.192	-11.047	-6.365	168.542	124.423	-7.050	-2.085	-1.724	2.603	157.242	1.980	-8191	255	
642.159	1	1	0	0	0.12338	0.10952	0.059621	0.19842	0.29649	0.14489	0.27885	0.087601	0.062413	0.082853	0.28773	0.32826	0.22802	0.11408	0.065636	0.21042	-2.5875	-2.7729	-3.1458	-3.1854	-3.2458	-3.2479	-3.0687	-3.1729	-3.1792	-2.8187	-3.3812	-2.9917	-2.9792	-3.3396	-3.0125	-3.4396	95.353	328.872	187.297	328.801	181.125	296.169	286.084	251.381	214.310	275.005	-11.709	280.055	295.693	-8.753	-0.873	323.380	0.00021865	0.00041013	0.00014566	1360.3	3.6991e-06	4.7366e-06	1364.3	368.85	2.7801e-06	5.7704e-06	421.15	139.21	121.05	41.706	6.1199e-06	52.004	0.00030933	0.00028356	6.9444e-05	1372.1	3.4282e-06	2.8341e-06	1370.8	373.42	3.08e-06	3.232e-06	425.21	142.18	124.04	42.621	3.2428e-06	52.856	197.020	69.794	72.775	-11.086	140.752	117.278	-10.926	-6.323	170.032	148.628	-6.962	-2.175	-1.533	2.545	145.862	1.451	-8191	255	
642.254	1	1	0	0	0.18514	0.08804	0.15477	0.16657	0.083225	0.12431	0.1808	0.23366	0.076875	0.27001	0.098975	0.2714	0.086567	0.10495	0.22733	0.11923	-2.8458	-3	-3.4354	-3.2396	-2.8479	-3.25	-2.8854	-2.9458	-3.2083	-2.9646	-3.5625	-3.2375	-3.0396	-3.2375	-2.8167	-3.1479	147.313	184.765	318.206	-4.297	278.581	252.606	218.459	271.910	250.766	156.238	249.743	269.700	170.905	-1.747	278.938	-21.670	0.00021113	0.00059393	0.00013016	1363.5	4.0238e-06	3.4525e-06	1361.7	366.89	3.0404e-06	4.4908e-06	419.37	139.31	121.29	41.772	5.241e-06	51.864	0.00030059	0.00028912	7.1531e-05	1371.9	3.4923e-06	2.7365e-06	1370.2	372.59	3.1883e-06	2.8172e-06	424.14	141.99	123.87	42.621	3.171e-06	52.8	197.660	57.858	62.747	-11.155	150.795	126.833	-10.959	-6.401	170.268	131.327	-7.016	-2.423	-1.785	2.307	153.097	1.509	-8191	255	
642.350	1	1	0	0	0.095325	0.16934	0.15909	0.087721	0.24475	0.16962	0.14611	0.20044	0.12573	0.10049	0.1244	0.12096	0.15691	0.20317	0.12634	0.22285	-2.8354	-2.7729	-3.1729	-3.0521	-2.8312	-3.2313	-3.3542	-3.2646	-3.4167	-3.0354	-3.3271	-3.1396	-2.9938	-3.2979	-3.1229	-3.2146	305.524	7.139	-15.793	-22.142	142.240	-21.144	285.160	305.466	266.201	202.361	213.501	221.049	323.568	255.201	54.208	306.506	0.00020351	0.0005742	0.00016833	1365.9	3.9972e-06	5.2435e-06	1363.4	366.71	2.5308e-06	3.6092e-06	419.88	138.8	120.93	41.634	3.8705e-06	52.032	0.00029259	0.00028318	7.9782e-05	1373.8	3.5695e-06	2.9419e-06	1370.7	372.69	2.9172e-06	2.9296e-06	424.42	141.92	123.8	42.582	3.2034e-06	52.894	200.697	64.723	64.318	-11.212	167.337	126.504	-10.924	-6.199	148.813	149.010	-7.036	-2.051	-1.513	2.208	145.354	1.930	-8191	255	
642.446	1	1	0	0	0.036896	0.17778	0.11156	0.39034	0.1453	0.0743	0.28624	0.10795	0.024286	0.065736	0.015372	0.052589	0.26415	0.23941	0.12691	0.2153	-2.7771	-2.8042	-2.7979	-3.1583	-2.6917	-3.1771	-3.1063	-2.9813	-3.1792	-2.7292	-3.3021	-3.2333	-3.0708	-3.575	-3.2	-3.0729	191.737	164.412	160.923	6.359	251.305	149.778	17.396	297.734	238.652	203.784	22.401	98.836	319.520	-20.871	258.281	317.981	0.0001925	0.00061715	0.00014358	1359.4	5.6677e-06	5.5193e-06	1357.2	365.28	3.0461e-06	5.2341e-06	420.82	138.78	121.09	41.771	5.9812e-06	51.817	0.00029999	0.00028453	7.6498e-05	1370.5	3.349e-06	2.7581e-06	1369.7	371.96	3.0956e-06	3.0689e-06	425.34	141.81	123.9	42.629	3.2687e-06	52.763	198.509	66.313	76.462	-11.174	150.065	111.986	-10.956	-6.103	162.293	135.602	-6.873	-2.263	-1.618	2.382	137.763	1.803	-8191	255	
642.542	1	1	0	0	0.08113	0.21444	0.13085	0.22053	0.13398	0.026883	0.28988	0.14621	0.082198	0.25801	0.045416	0.14102	0.21818	0.19101	0.17755	0.26623	-2.55	-2.8604	-3.1646	-3.5187	-3.0062	-3.3438	-3.3667	-3.1354	-3.4042	-3.2917	-3.2792	-3.4771	-3.1375	-3.2104	-3.1625	-2.9771	322.619	295.503	159.697	299.798	65.202	291.359	327.473	284.513	221.538	238.973	294.054	0.410	280.369	93.681	186.182	298.126	0.00020406	0.00046836	0.00016829	1360.9	5.0174e-06	4.3615e-06	1361.5	367.24	2.9588e-06	4.8622e-06	419.57	138.57	121	41.735	3.8353e-06	51.763	0.00030646	0.00029106	7.9136e-05	1370.1	3.4053e-06	2.8276e-06	1368.6	372.67	3.0724e-06	2.8286e-06	424.32	141.82	123.91	42.633	2.8967e-06	52.781	190.555	68.740	59.338	-11.157	152.602	120.598	-10.942	-6.369	154.109	132.511	-6.998	-1.987	-1.511	2.396	162.098	2.003	-8191	255	
642.638	1	1	0	0	0.18746	0.039203	0.21209	0.4147	0.10686	0.34242	0.3713	0.40433	0.10825	0.26113	0.32247	0.15737	0.13705	0.18196	0.15385	0.39191	-2.8729	-2.9125	-2.8583	-3.2792	-2.9167	-3.3	-3.5	-3.3208	-3.2042	-3	-3.1021	-3.2708	-3.0646	-3.4375	-3.3833	-3.1292	167.053	135.189	129.906	314.995	89.248	89.014	279.280	289.476	196.533	148.121	257.233	307.676	272.122	287.774	112.447	195.000	0.00020476	0.00052115	0.000153	1360.5	4.5572e-06	5.6597e-06	1360.5	366.46	3.0363e-06	5.5721e-06	418.56	138.46	121.3	41.579	4.2948e-06	51.857	0.00030077	0.00028231	7.7453e-05	1370.8	3.3315e-06	2.8416e-06	1368.3	372.14	3.0894e-06	2.7697e-06	424.06	141.64	123.79	42.528	2.9436e-06	52.792	191.245	67.469	72.454	-11.268	154.922	123.406	-10.866	-6.197	184.109	130.937	-6.837	-2.126	-1.615	2.412	137.465	1.845	-8191	255	
642.759	1	1	0	0	0.046194	0.17027	0.052247	0.1974	0.16494	0.10576	0.40587	0.35559	0.26335	0.054324	0.1762	0.16755	0.31438	0.20248	0.27065	0.1083	-2.9958	-3.15	-3.1667	-3.5042	-2.9833	-3.0417	-3.2958	-2.9271	-3.1229	-3.0563	-3.125	-3.3167	-3.1854	-3.2583	-3.0167	-2.8625	295.135	112.672	208.194	331.088	40.266	118.493	307.170	312.108	-0.972	192.924	285.216	262.519	307.098	318.747	205.089	328.508	0.00022248	0.00060338	0.00013548	1364.8	4.828e-06	4.1167e-06	1359	366.21	2.3955e-06	4.4981e-06	419.28	138.64	121.29	41.668	5.493e-06	51.885	0.00030584	0.00027563	8.0657e-05	1370.8	3.3913e-06	3.026e-06	1370.2	371.99	3.0369e-06	2.8399e-06	424.18	142.08	123.93	42.617	2.9346e-06	52.765	192.180	60.462	65.615	-11.140	147.327	131.625	-10.949	-6.218	161.584	118.426	-7.017	-2.274	-1.570	2.506	135.423	1.595	-8191	255	
642.855	1	1	0	0	0.1285	0.11099	0.29772	0.21472	0.12976	0.15269	0.28985	0.10232	0.39465	0.16009	0.10569	0.15957	0.09544	0.0038371	0.067315	0.20788	-2.6708	-3.0271	-2.8458	-3.3937	-3.0896	-3.1146	-3.5625	-3.1437	-3.3375	-3.2687	-3.0167	-3.4417	-3.1083	-3.3438	-3.325	-3.15	245.929	78.694	109.921	46.280	198.043	322.204	251.853	257.985	119.309	254.631	261.642	-19.457	57.059	119.037	334.100	261.967	0.00020132	0.000443	0.00012833	1360.3	4.0107e-06	5.0906e-06	1360.4	366.79	2.8931e-06	3.5266e-06	421.19	138.96	120.87	41.868	4.1569e-06	52.031	0.00030941	0.00026679	7.9513e-05	1369.4	3.1878e-06	3.0993e-06	1368.8	371.95	3.1859e-06	2.814e-06	424.85	141.99	123.71	42.675	2.8309e-06	52.836	194.044	57.829	58.372	-11.199	150.502	112.694	-10.921	-6.245	155.431	129.392	-7.065	-2.170	-1.564	2.571	141.066	1.728	-8191	255	
642.951	1	1	0	0	0.15302	0.066655	0.10622	0.10488	0.025564	0.27624	0.35217	0.24681	0.1523	0.22995	0.28845	0.21308	0.025294	0.19895	0.024491	0.25549	-2.975	-3.1583	-2.9417	-3.5542	-3.1375	-3.2188	-3.5375	-3.1792	-3.225	-3.2833	-2.8937	-3.4062	-3.1021	-3.1312	-3.3771	-2.9104	36.805	101.218	20.087	3.666	13.713	303.247	256.889	281.990	48.456	283.677	24.181	-6.651	-1.182	324.206	163.313	291.060	0.00020315	0.00055714	0.00011641	1363.8	4.2517e-06	5.7526e-06	1362.3	366.15	2.5623e-06	3.9707e-06	420.76	138.98	121.3	41.895	4.8536e-06	51.914	0.00030589	0.00026084	7.7575e-05	1370.7	3.111e-06	2.9834e-06	1369.9	372.33	3.1542e-06	2.8156e-06	424.4	142.03	123.98	42.653	2.8753e-06	52.809	198.169	73.428	68.393	-11.171	152.433	128.989	-11.161	-6.336	156.376	124.439	-7.049	-2.079	-1.942	2.385	137.500	1.610	-8191	255	
643.048	1	1	0	0	0.22154	0.13733	0.28568	0.16186	0.14053	0.22135	0.2173	0.23371	0.035125	0.092974	0.19421	0.11151	0.17804	0.12937	0.081473	0.2249	-2.5708	-3.0667	-2.7354	-3.3937	-2.9667	-3.0229	-3.5667	-3.2854	-3.0438	-3.4021	-3.0667	-3.3625	-3.1771	-2.9083	-3.1188	-3.1646	91.077	313.854	23.321	293.108	233.379	268.907	256.463	238.288	299.606	48.942	-17.828	333.322	305.146	326.805	312.342	298.692	0.00021715	0.00053597	0.0001809	1366.6	4.9487e-06	5.1509e-06	1357.4	368.52	2.3736e-06	3.6924e-06	420.91	138.59	121.33	41.793	3.4493e-06	51.803	0.00031738	0.00028632	7.8301e-05	1372.4	3.2189e-06	3.0578e-06	1368.7	372.68	3.2805e-06	2.7919e-06	424.24	141.95	123.9	42.634	2.9431e-06	52.823	193.122	57.663	64.856	-10.976	146.039	136.280	-11.033	-6.431	160.544	128.467	-7.194	-2.324	-1.520	2.547	151.508	1.845	-8191	255	
643.144	1	1	0	0	0.085611	0.056608	0.08192	0.17916	0.30339	0.18939	0.22262	0.06049	0.13572	0.23093	0.099175	0.21524	0.15461	0.27939	0.12489	0.23625	-2.7542	-3.25	-2.9688	-3.5729	-3.0563	-3.025	-3.3708	-3.1146	-3.0708	-3.5625	-3.1625	-3.3542	-3.3458	-3.2521	-3.3833	-3.2271	97.224	40.125	13.660	313.893	-19.106	185.128	279.746	69.587	94.399	63.523	268.791	-10.586	331.589	309.135	244.697	331.049	0.00021226	0.00048034	0.00014498	1361.2	4.8945e-06	4.1955e-06	1357.6	366.92	4.0687e-06	4.5943e-06	419.27	138.87	121.3	41.819	4.7996e-06	51.903	0.00030967	0.00025383	7.678e-05	1371.9	3.146e-06	2.9726e-06	1368.9	372.69	3.3714e-06	2.7146e-06	424.59	141.93	123.85	42.696	2.9725e-06	52.895	193.504	60.264	60.575	-10.990	155.304	134.200	-10.876	-6.212	165.067	122.552	-7.069	-2.211	-1.464	2.674	147.303	1.826	-8191	255	
643.240	1	1	0	0	0.097892	0.19464	0.20383	0.19354	0.20264	0.19585	0.36221	0.14372	0.17129	0.14508	0.11476	0.072338	0.072494	0.099715	0.11219	0.28532	-2.65	-3.3333	-2.8583	-3.2167	-3.3271	-2.9583	-3.5229	-3.4083	-2.9229	-3.5312	-3.3688	-3.2188	-3.3958	-3.0875	-3.2792	-3.3229	57.708	122.761	96.206	322.118	-15.595	241.399	271.505	271.352	144.692	162.361	256.162	290.779	306.199	271.768	316.378	316.010	0.0002004	0.00050747	0.00012451	1358.1	2.9207e-06	5.557e-06	1363.3	367.68	2.0314e-06	5.694e-06	419.56	139.56	121.32	41.698	5.4845e-06	51.881	0.00031746	0.00027056	7.6848e-05	1369.9	3.2422e-06	2.9079e-06	1370.3	373.21	3.1542e-06	2.8464e-06	424.65	142.18	123.82	42.616	3.0468e-06	52.845	188.624	77.681	75.798	-11.168	158.879	110.901	-11.052	-6.217	140.782	138.769	-6.929	-2.300	-1.809	2.579	145.674	1.824	-8191	255	
643.359	1	1	0	0	0.061522	0.19434	0.078565	0.25605	0.29991	0.20669	0.20839	0.16212	0.084665	0.13545	0.24571	0.15375	0.12707	0.22029	0.091299	0.057712	-2.65	-3.35	-3.0208	-3.175	-3.1	-2.8083	-3.4813	-2.9979	-2.7729	-3.2917	-2.9188	-3.0021	-3.3312	-3.0229	-3.1458	-3.2708	130.239	141.626	97.871	301.243	189.218	109.951	255.364	-17.136	32.645	134.921	240.168	13.869	-9.958	326.165	241.688	299.855	0.00020605	0.00044722	0.00014862	1362.6	4.7192e-06	5.6156e-06	1365.4	367.02	3.1193e-06	5.076e-06	417.98	138.65	121.98	41.796	4.0078e-06	52.241	0.0003128	0.00026132	7.5717e-05	1370.8	3.2363e-06	3.013e-06	1370.2	372.59	3.1656e-06	2.7357e-06	423.86	142.09	124.2	42.679	3.0743e-06	52.911	195.972	57.449	72.802	-11.200	146.063	125.164	-11.027	-6.376	161.441	147.693	-7.361	-2.093	-1.684	2.505	136.559	1.594	-8191	255	
643.455	1	1	0	0	0.12311	0.35997	0.19276	0.22769	0.17174	0.17455	0.19794	0.19306	0.080637	0.021246	0.2591	0.25939	0.27477	0.21081	0.25278	0.35905	-2.4708	-3.1937	-3.1542	-3.2167	-3.1792	-2.9313	-3.4292	-3.4396	-3.1063	-3.3729	-3.2938	-3.1854	-3.2458	-3.0812	-3.2208	-3.2042	80.997	21.017	91.490	289.772	284.182	164.026	267.143	33.720	66.646	38.105	284.834	30.061	246.928	259.812	161.833	266.150	0.0002016	0.00053703	0.00012984	1358.5	4.6367e-06	5.0573e-06	1362.6	367.78	3.2214e-06	5.121e-06	419.46	139.52	120.97	41.736	5.9735e-06	51.979	0.00030726	0.00026055	7.2756e-05	1371.2	3.0571e-06	2.8346e-06	1371.2	372.61	3.2801e-06	2.6331e-06	424.89	142.36	123.77	42.66	3.1296e-06	52.827	189.293	66.192	59.878	-11.340	151.801	128.497	-11.032	-6.409	169.921	136.369	-7.025	-2.258	-1.622	2.370	147.940	1.835	-8191	255	
643.551	1	1	0	0	0.19742	0.040671	0.094034	0.17503	0.10747	0.30258	0.22624	0.24335	0.02472	0.18533	0.07146	0.20644	0.055283	0.33609	0.18698	0.32406	-2.3875	-3.1437	-3.1437	-3.2646	-3.3646	-3.0687	-3.2667	-3.2646	-2.7521	-3.2188	-3.2833	-3.2292	-3.5062	-3.2542	-3.0542	-3.1312	182.834	235.114	68.231	-4.438	178.417	147.999	263.470	298.111	4.445	54.716	128.586	258.558	90.832	290.036	44.258	275.468	0.00021556	0.00045404	0.00016673	1363.7	3.724e-06	5.6672e-06	1358.1	365.15	2.2786e-06	4.7016e-06	420.18	139.5	121.39	41.799	3.4863e-06	51.997	0.00031133	0.00026413	7.425e-05	1372.1	3.1528e-06	2.8368e-06	1367.9	371.88	3.2616e-06	2.9285e-06	424.56	142.2	123.83	42.595	3.2413e-06	52.857	200.898	69.259	70.361	-10.994	146.851	140.340	-11.125	-6.339	153.823	136.886	-6.983	-2.124	-1.663	2.478	143.655	1.696	-8191	255	
643.647	1	1	0	0	0.22521	0.085063	0.15588	0.1743	0.111	0.16187	0.32433	0.30339	0.067709	0.44897	0.14542	0.17149	0.15248	0.20538	0.042686	0.2185	-2.3729	-3.1417	-3.1813	-3.2812	-3.4	-3.0438	-3.1167	-3.2979	-2.9979	-3.0687	-3.1917	-2.8187	-3.45	-3.2125	-2.8688	-3.2896	138.078	-18.001	260.907	276.426	293.789	286.882	335.015	202.037	275.955	154.589	281.894	304.085	154.179	270.137	144.203	7.229	0.00020243	0.00045417	0.000144	1360.8	3.465e-06	4.6405e-06	1356.6	367.05	3.0813e-06	5.1806e-06	420.46	138.68	121.29	41.694	3.6301e-06	51.997	0.00030374	0.00026427	7.2459e-05	1369.6	3.129e-06	2.9004e-06	1368.4	372.35	3.1807e-06	2.9279e-06	424.43	142.17	123.85	42.602	3.1705e-06	52.878	193.254	68.080	75.284	-11.118	170.247	109.612	-10.984	-6.269	165.237	117.055	-6.825	-2.145	-1.603	2.513	129.365	1.787	-8191	255	
#DATA ENDS
