BOXY.EXE: ISS Imagent and Oximeter Data Acquisition Program Version 0.80
Ascii Record File

#ACQ INFORMATION
2  Detector Channels 
16  External MUX Channels 
1  Auxiliary Channels 
5000  Waveform (CCF) Frequency (Hz)
1  Waveforms Skipped 
30  Waveforms Averaged 
1  Cycles Averaged 
16  Acquisitions per Waveform 
10.0806  Updata Rate (Hz) 

#FILE INFORMATION
TRUE -- External MUX Channel results are PARSED.
FALSE -- AC DC and Phase are NOT grouped.
TRUE -- Companion Program Settings File CREATED.
FALSE -- AC data not excluded
FALSE -- DC data not excluded
FALSE -- Phase data not excluded
FALSE -- Auxillary Chn. data not excluded
Tab delimiters

#CALIBRATION STATE
TRUE -- Waveform Calibration Values APPLIED.


#AUX CALIBRATION VALUES
Val Type	aux-1	

Term	1.0000e+00	
Factor	0.0000e+00	


#WF CALIBRATION VALUES
A = Detector Channel
Val Type	A-AC1	A-AC2	A-AC3	A-AC4	A-AC5	A-AC6	A-AC7	A-AC8	A-AC9	A-AC10	A-AC11	A-AC12	A-AC13	A-AC14	A-AC15	A-AC16	A-DC1	A-DC2	A-DC3	A-DC4	A-DC5	A-DC6	A-DC7	A-DC8	A-DC9	A-DC10	A-DC11	A-DC12	A-DC13	A-DC14	A-DC15	A-DC16	A-Ph1	A-Ph2	A-Ph3	A-Ph4	A-Ph5	A-Ph6	A-Ph7	A-Ph8	A-Ph9	A-Ph10	A-Ph11	A-Ph12	A-Ph13	A-Ph14	A-Ph15	A-Ph16	

Term	0.00000e+00	0.00000e+00	0.00000e+00	0.00000e+00	0.00000e+00	0.00000e+00	0.00000e+00	0.00000e+00	0.00000e+00	0.00000e+00	0.00000e+00	0.00000e+00	0.00000e+00	0.00000e+00	0.00000e+00	0.00000e+00	0.00000e+00	0.00000e+00	0.00000e+00	0.00000e+00	0.00000e+00	0.00000e+00	0.00000e+00	0.00000e+00	0.00000e+00	0.00000e+00	0.00000e+00	0.00000e+00	0.00000e+00	0.00000e+00	0.00000e+00	0.00000e+00	0.00000e+00	0.00000e+00	0.00000e+00	0.00000e+00	0.00000e+00	0.00000e+00	0.00000e+00	0.00000e+00	0.00000e+00	0.00000e+00	0.00000e+00	0.00000e+00	0.00000e+00	0.00000e+00	0.00000e+00	0.00000e+00	
Factor	1.00000e+00	1.00000e+00	1.00000e+00	1.00000e+00	1.00000e+00	1.00000e+00	1.00000e+00	1.00000e+00	1.00000e+00	1.00000e+00	1.00000e+00	1.00000e+00	1.00000e+00	1.00000e+00	1.00000e+00	1.00000e+00	1.00000e+00	1.00000e+00	1.00000e+00	1.00000e+00	1.00000e+00	1.00000e+00	1.00000e+00	1.00000e+00	1.00000e+00	1.00000e+00	1.00000e+00	1.00000e+00	1.00000e+00	1.00000e+00	1.00000e+00	1.00000e+00	X	X	X	X	X	X	X	X	X	X	X	X	X	X	X	X	

B = Detector Channel
Val Type	B-AC1	B-AC2	B-AC3	B-AC4	B-AC5	B-AC6	B-AC7	B-AC8	B-AC9	B-AC10	B-AC11	B-AC12	B-AC13	B-AC14	B-AC15	B-AC16	B-DC1	B-DC2	B-DC3	B-DC4	B-DC5	B-DC6	B-DC7	B-DC8	B-DC9	B-DC10	B-DC11	B-DC12	B-DC13	B-DC14	B-DC15	B-DC16	B-Ph1	B-Ph2	B-Ph3	B-Ph4	B-Ph5	B-Ph6	B-Ph7	B-Ph8	B-Ph9	B-Ph10	B-Ph11	B-Ph12	B-Ph13	B-Ph14	B-Ph15	B-Ph16	

Term	0.00000e+00	0.00000e+00	0.00000e+00	0.00000e+00	0.00000e+00	0.00000e+00	0.00000e+00	0.00000e+00	0.00000e+00	0.00000e+00	0.00000e+00	0.00000e+00	0.00000e+00	0.00000e+00	0.00000e+00	0.00000e+00	0.00000e+00	0.00000e+00	0.00000e+00	0.00000e+00	0.00000e+00	0.00000e+00	0.00000e+00	0.00000e+00	0.00000e+00	0.00000e+00	0.00000e+00	0.00000e+00	0.00000e+00	0.00000e+00	0.00000e+00	0.00000e+00	-7.29439e+01	-1.30021e+02	-1.24914e+02	-1.83134e+02	-5.27761e+01	-7.14236e+01	-1.56866e+02	-1.62015e+02	-4.78778e+01	-6.48767e+01	-1.71930e+02	-1.71556e+02	-1.81736e+02	-1.77926e+02	-6.22738e+01	-1.50417e+02	
Factor	1.73134e-05	1.66260e-04	4.88759e-05	1.86492e-01	1.60179e-06	1.93899e-06	1.62677e-01	5.60871e-02	1.18118e-06	1.74570e-06	9.94639e-02	3.03487e-02	2.65711e-02	9.45456e-03	1.78352e-06	1.32450e-02	1.24241e-05	2.32072e-05	6.46118e-06	9.55684e-02	2.33110e-07	2.58720e-07	7.83537e-02	2.89116e-02	2.27059e-07	2.59205e-07	4.96099e-02	1.52121e-02	1.38846e-02	4.91572e-03	2.39358e-07	6.66233e-03	X	X	X	X	X	X	X	X	X	X	X	X	X	X	X	X	



#DISTANCE SETTINGS
A = Detector Channel
A-1	A-2	A-3	A-4	A-5	A-6	A-7	A-8	A-9	A-10	A-11	A-12	A-13	A-14	A-15	A-16	

2.5000e+00	3.0000e+00	2.5000e+00	3.0000e+00	2.0000e+00	3.0000e+00	1.5000e+00	3.0000e+00	3.0000e+00	3.0000e+00	3.0000e+00	3.0000e+00	3.0000e+00	3.0000e+00	1.5000e+00	3.0000e+00	

B = Detector Channel
B-1	B-2	B-3	B-4	B-5	B-6	B-7	B-8	B-9	B-10	B-11	B-12	B-13	B-14	B-15	B-16	

1.0000e+01	1.0000e+01	1.0000e+01	1.4400e+00	1.0000e+01	1.0000e+01	1.5100e+00	1.9400e+00	1.0000e+01	1.0000e+01	1.9900e+00	2.4900e+00	2.4100e+00	2.9000e+00	1.0000e+01	2.9800e+00	




#DATA BEGINS
time	group	step	mark	flag	A-AC1	A-AC2	A-AC3	A-AC4	A-AC5	A-AC6	A-AC7	A-AC8	A-AC9	A-AC10	A-AC11	A-AC12	A-AC13	A-AC14	A-AC15	A-AC16	A-DC1	A-DC2	A-DC3	A-DC4	A-DC5	A-DC6	A-DC7	A-DC8	A-DC9	A-DC10	A-DC11	A-DC12	A-DC13	A-DC14	A-DC15	A-DC16	A-Ph1	A-Ph2	A-Ph3	A-Ph4	A-Ph5	A-Ph6	A-Ph7	A-Ph8	A-Ph9	A-Ph10	A-Ph11	A-Ph12	A-Ph13	A-Ph14	A-Ph15	A-Ph16	B-AC1	B-AC2	B-AC3	B-AC4	B-AC5	B-AC6	B-AC7	B-AC8	B-AC9	B-AC10	B-AC11	B-AC12	B-AC13	B-AC14	B-AC15	B-AC16	B-DC1	B-DC2	B-DC3	B-DC4	B-DC5	B-DC6	B-DC7	B-DC8	B-DC9	B-DC10	B-DC11	B-DC12	B-DC13	B-DC14	B-DC15	B-DC16	B-Ph1	B-Ph2	B-Ph3	B-Ph4	B-Ph5	B-Ph6	B-Ph7	B-Ph8	B-Ph9	B-Ph10	B-Ph11	B-Ph12	B-Ph13	B-Ph14	B-Ph15	B-Ph16	aux-1	digaux	

790.208	1	1	0	256	0.23055	0.1859	0.14083	0.13337	0.11368	0.15111	0.22505	0.22544	0.092768	0.062065	0.19693	0.033923	0.11723	0.2047	0.12425	0.2342	-2.4521	-3.0062	-2.7021	-3.2562	-2.8521	-2.9458	-3.2708	-2.875	-3.0708	-3.0812	-2.7125	-3.275	-2.8292	-3.0771	-3.2062	-2.8958	-75.450	105.950	214.683	198.436	211.431	114.715	168.382	69.210	218.572	169.653	182.290	32.970	46.423	-29.058	-65.534	81.656	0.00011444	0.00019776	4.2986e-05	824.72	2.3929e-06	2.6159e-06	907.18	167.58	1.4413e-06	1.9745e-06	227.82	65.561	51.555	15.487	2.9523e-06	21.795	0.00019907	0.00021965	6.0937e-05	812.04	2.4535e-06	2.2412e-06	889.95	165.54	2.4395e-06	2.2421e-06	226.19	66.138	51.964	15.653	2.1891e-06	22.038	-97.886	-34.133	-23.908	-122.711	19.035	20.758	-122.719	-115.657	29.173	22.517	-115.711	-108.887	-108.765	-100.674	11.517	-101.999	-8191	255	
790.304	1	1	0	0	0.082356	0.10894	0.1843	0.16438	0.27194	0.082238	0.16453	0.16662	0.22528	0.090759	0.27932	0.16709	0.14567	0.2094	0.22858	0.11204	-2.7542	-2.8271	-2.825	-3.4729	-2.9562	-3.0729	-3.175	-2.8771	-3.0771	-3.2875	-3.05	-3.1	-2.9125	-2.7979	-3.1792	-2.95	-65.997	2.829	226.264	208.553	103.694	-63.626	121.979	163.449	83.687	-5.738	221.332	217.231	56.845	119.677	-54.658	-80.266	0.00011172	0.00017085	8.8144e-05	826.74	9.2229e-07	1.6086e-06	899	166.93	1.3648e-06	1.9303e-06	227.98	66.011	51.948	15.575	2.0072e-06	21.897	0.00018882	0.00021215	5.8797e-05	811.75	2.4098e-06	2.3226e-06	889.2	165.54	2.246e-06	2.133e-06	225.83	66.402	52	15.621	2.1303e-06	22.05	-99.655	-76.269	-35.336	-122.974	-22.335	18.588	-122.730	-115.228	31.710	1.442	-115.444	-109.131	-108.337	-101.414	17.153	-101.784	-8191	255	
790.425	1	1	0	0	0.13898	0.066232	0.31617	0.30256	0.1225	0.27688	0.13723	0.1735	0.11926	0.10168	0.18918	0.31612	0.11298	0.073739	0.11126	0.21934	-2.5563	-3.1458	-2.6583	-3.2479	-2.9562	-2.8167	-3.4333	-2.7792	-3.0208	-3.1271	-2.8042	-3.2667	-3.0896	-2.6688	-3.4958	-2.9062	-107.098	-130.278	22.013	198.183	9.888	56.432	133.179	80.534	169.806	72.954	143.811	-79.069	-55.439	-92.286	-25.299	80.162	0.00010398	0.00032306	7.4093e-05	826.39	1.2612e-06	4.5824e-06	902.51	166.37	7.4301e-07	1.816e-06	226.3	65.435	51.263	15.369	2.9183e-06	21.527	0.00019483	0.00019044	5.7881e-05	810.55	2.3194e-06	2.2854e-06	887.19	165.34	2.194e-06	2.1082e-06	225.02	66.005	51.765	15.572	2.0485e-06	21.836	-99.188	-61.702	-47.628	-122.521	18.704	18.877	-122.822	-115.059	2.982	3.426	-115.557	-109.088	-108.135	-100.914	36.398	-101.757	-8191	255	
790.521	1	1	0	0	0.18044	0.026061	0.22025	0.44599	0.025931	0.10559	0.12325	0.090407	0.20525	0.14384	0.21299	0.074249	0.13934	0.03624	0.29235	0.12261	-2.6542	-3.1333	-2.6937	-3.0708	-3.1271	-2.9729	-3.2521	-3.0292	-2.8958	-3.3292	-2.8771	-3.1479	-3.0354	-2.775	-3.1396	-3.1104	95.410	125.898	16.663	98.873	77.083	-100.523	1.425	96.399	-51.795	-67.740	157.600	-27.565	179.412	-125.895	104.681	83.892	0.00010626	0.0002894	8.203e-05	820.46	1.5738e-06	2.5112e-06	893.79	165.78	1.7027e-06	3.6826e-06	226.29	65.397	51.624	15.375	2.6088e-06	21.648	0.00018266	0.00019615	5.7855e-05	805.93	2.3933e-06	2.2951e-06	882.34	164.98	2.1027e-06	2.1444e-06	225.1	65.857	51.722	15.519	2.0335e-06	21.819	-96.865	-20.563	-58.826	-122.618	-3.442	32.891	-122.610	-115.325	14.225	11.915	-115.920	-108.632	-107.775	-101.126	39.912	-101.226	-8191	255	
790.615	1	1	0	0	0.15816	0.15865	0.16547	0.053304	0.04429	0.28323	0.055997	0.14168	0.18553	0.044724	0.21941	0.068425	0.061781	0.051894	0.12308	0.25778	-2.4479	-2.9833	-2.8625	-3.275	-3.2208	-2.8521	-3.3208	-3.0167	-2.8896	-3.1854	-2.8021	-3.0208	-3.0021	-2.8854	-3.0292	-3.1063	97.062	-11.846	58.504	130.649	-125.150	-56.826	218.006	163.897	210.112	-129.937	-132.067	152.867	201.725	213.138	-23.864	-102.339	0.00011263	0.00035895	5.1798e-05	820.76	2.662e-06	3.4986e-06	894.34	166.94	2.3409e-06	2.6631e-06	227.29	65.749	51.326	15.401	3.5071e-06	21.671	0.00018582	0.00022028	5.5633e-05	803.68	2.1514e-06	2.3932e-06	880.45	165.17	2.1992e-06	2.1951e-06	225.41	65.893	51.638	15.532	2.3133e-06	21.831	-103.351	-25.880	-24.852	-122.447	-1.515	42.804	-122.655	-115.477	22.154	28.028	-115.945	-108.951	-107.974	-100.650	36.625	-101.715	-8191	255	
790.712	1	1	0	0	0.16691	0.10239	0.33702	0.14118	0.14597	0.13484	0.045218	0.31014	0.28202	0.022843	0.10422	0.1517	0.19307	0.12504	0.17633	0.18143	-2.4375	-3.2271	-2.6604	-3.1208	-2.9104	-2.7729	-3.0417	-2.9854	-2.7229	-3.1958	-2.7833	-3.0042	-3.1521	-2.8771	-3.0708	-2.9875	199.409	213.410	-43.030	149.777	-86.570	-102.025	-79.926	163.295	126.787	45.548	-31.789	-38.110	159.075	108.002	-74.119	48.787	0.00011582	0.00026691	5.5065e-05	816.54	2.9628e-06	2.9779e-06	893.53	166.87	1.5388e-06	3.615e-06	227.82	64.561	51.421	15.473	2.676e-06	21.434	0.00018854	0.00018464	5.8204e-05	801.94	2.4161e-06	2.2239e-06	881.57	165	2.3373e-06	2.2848e-06	224.63	65.524	51.681	15.536	2.3432e-06	21.772	-105.968	4.086	-70.982	-122.880	24.816	-13.666	-122.622	-115.354	-8.174	1.436	-115.684	-109.106	-108.158	-100.871	-10.074	-101.707	-8191	255	
790.832	1	1	0	0	0.20768	0.034703	0.21523	0.25652	0.11983	0.20752	0.25404	0.03219	0.093384	0.086439	0.081046	0.088428	0.049893	0.12913	0.099912	0.24184	-2.4542	-3.0812	-2.8771	-3.075	-3.0646	-2.9854	-3.1937	-3.1625	-2.6458	-3.2792	-2.7125	-2.9688	-3.1021	-2.9229	-3.0021	-3.2542	4.190	-16.224	168.240	145.830	126.715	-24.345	211.252	149.687	-93.986	-52.991	71.646	222.546	154.447	-85.797	-67.927	-29.115	0.00010936	0.00019278	6.6745e-05	817.02	1.6984e-06	1.9261e-06	893.96	167.29	1.2209e-06	2.4543e-06	225.88	65.221	51.678	15.277	2.2558e-06	21.713	0.0001947	0.00018861	5.877e-05	803.27	2.2024e-06	2.19e-06	881.85	165.18	2.3321e-06	2.2459e-06	224.18	65.979	51.713	15.442	2.2943e-06	21.863	-99.288	-61.574	-18.174	-122.532	20.550	-4.061	-122.591	-115.385	-44.667	63.375	-115.485	-108.679	-108.037	-101.153	31.396	-101.419	-8191	255	
790.904	1	1	0	0	0.35467	0.13303	0.14183	0.19244	0.022671	0.17213	0.32369	0.1493	0.034944	0.22701	0.053664	0.11052	0.12739	0.34362	0.24006	0.23542	-2.375	-3.2958	-2.9604	-2.8104	-3.3521	-2.8646	-3.1208	-3.1292	-2.7667	-3.0563	-3.1	-3.0083	-3.1708	-2.8312	-2.8729	-3.1271	-28.140	-20.222	189.654	158.751	-115.325	207.618	172.459	72.656	-84.135	-69.521	-71.939	-99.925	-118.287	120.586	93.552	50.985	0.00012573	0.00017097	1.6393e-05	820.31	2.1266e-06	3.0685e-06	901.2	166.71	1.7556e-06	1.8785e-06	225.06	65.516	51.166	15.425	2.8142e-06	21.537	0.00019803	0.00020534	5.7208e-05	806.33	2.3112e-06	2.2282e-06	885.15	165.41	2.5374e-06	2.2551e-06	224.51	65.891	51.624	15.504	2.3662e-06	21.836	-100.611	-37.751	-114.272	-122.629	30.566	13.662	-122.580	-115.043	22.639	7.057	-115.484	-108.955	-108.496	-101.069	8.805	-101.595	-8191	255	
791.000	1	1	0	0	0.2065	0.36773	0.13337	0.063257	0.072035	0.19316	0.24131	0.0082673	0.11238	0.13257	0.18754	0.081878	0.06366	0.11554	0.089166	0.063658	-2.4271	-3.0854	-2.9146	-2.9833	-3.2313	-2.8479	-3.1458	-3.0687	-2.9625	-3.0479	-3.0687	-2.725	-3.3417	-2.8208	-2.9354	-3.1854	219.932	70.112	40.057	211.034	27.291	-91.938	148.722	17.825	104.159	133.796	-88.903	11.268	-34.460	10.144	28.296	133.318	0.00012096	0.00024352	8.7174e-05	820.39	2.4054e-06	3.2636e-06	898.92	165.78	1.9967e-06	2.1219e-06	226.56	65.488	51.547	15.369	3.7987e-06	21.588	0.00020249	0.00021936	6.1704e-05	806.08	2.4428e-06	2.4029e-06	885.19	164.88	2.4863e-06	2.3766e-06	225.1	65.97	51.602	15.484	2.4684e-06	21.787	-103.680	-15.050	-45.733	-122.626	35.761	5.147	-122.679	-115.372	-53.528	30.665	-115.515	-108.698	-108.314	-100.887	12.261	-102.055	-8191	255	
791.096	1	1	0	0	0.1782	0.30953	0.20846	0.33839	0.11588	0.11031	0.14172	0.12084	0.06357	0.064581	0.12979	0.15232	0.14563	0.31081	0.12958	0.11742	-2.4792	-2.9854	-2.9708	-2.875	-2.9771	-2.9979	-3.0021	-3.1604	-2.9208	-3.1813	-2.9896	-2.7667	-3.1	-2.9479	-2.6958	-3.1042	74.788	-73.100	-9.949	222.035	-41.721	-73.134	103.433	151.646	-13.678	217.232	198.485	200.198	172.546	-116.496	169.024	180.312	0.00011969	0.00024969	7.9861e-05	818.52	1.9113e-06	2.1549e-06	896.63	166.03	1.6303e-06	2.7911e-06	226.67	65.3	51.437	15.342	2.8948e-06	21.463	0.00019889	0.00019997	6.0775e-05	805.85	2.4569e-06	2.3129e-06	883.54	165.28	2.4499e-06	2.3458e-06	224.79	65.793	51.693	15.454	2.4006e-06	21.802	-105.608	-70.054	-49.061	-122.716	20.438	42.980	-122.554	-115.329	4.947	54.426	-115.493	-108.396	-108.578	-100.638	10.330	-101.043	-8191	255	
791.217	1	1	0	0	0.045598	0.12072	0.25847	0.22967	0.16565	0.1173	0.29353	0.037159	0.058999	0.042276	0.029503	0.24814	0.050987	0.06997	0.30666	0.076809	-2.2542	-2.9667	-3.0479	-2.9271	-3.3375	-2.975	-2.9896	-3.1604	-3.0563	-3.1312	-3.2479	-2.8375	-3.1125	-2.9625	-2.8937	-3.0812	13.506	113.450	3.698	193.199	41.582	212.214	129.869	-25.372	184.642	-32.891	-104.681	175.536	178.946	-8.623	170.422	101.784	9.371e-05	0.00027588	5.8896e-05	821.61	1.2097e-06	4.1577e-06	899.27	165.54	1.5573e-06	1.6653e-06	225.87	65.622	51.352	15.371	6.8501e-07	21.575	0.00019653	0.00022588	5.9335e-05	805.38	2.3976e-06	2.3231e-06	883.54	165.21	2.5104e-06	2.3771e-06	224.48	65.902	51.641	15.47	2.5402e-06	21.72	-95.144	-43.504	-28.155	-122.561	57.658	22.158	-122.693	-114.912	23.810	10.906	-115.845	-109.046	-108.314	-100.904	-16.505	-101.177	-8191	255	
791.313	1	1	0	0	0.1015	0.15064	0.11125	0.079551	0.010663	0.32324	0.11577	0.14095	0.12546	0.071544	0.13837	0.36801	0.30119	0.054983	0.091326	0.28898	-2.65	-3	-3.1437	-2.9188	-2.9562	-3.1354	-3.1396	-3.1958	-2.9708	-2.8937	-3.3042	-2.7854	-3.1854	-3.0917	-2.7687	-3.2854	206.291	-13.117	147.331	89.375	-57.227	110.917	162.335	185.360	25.401	-15.690	-36.845	-95.018	-54.574	-17.005	195.684	187.083	9.5921e-05	0.00023574	7.0511e-05	823.18	1.3593e-06	3.2985e-06	898.23	166.33	1.6345e-06	1.1813e-06	225.64	65.749	51.697	15.303	1.6229e-06	21.529	0.00019972	0.00023246	6.2404e-05	806.19	2.4894e-06	2.3969e-06	882.83	165.47	2.5213e-06	2.5137e-06	225.05	65.947	51.775	15.478	2.4888e-06	21.772	-94.449	-46.467	-54.288	-122.708	18.322	8.274	-122.528	-115.321	-10.225	21.465	-115.252	-109.173	-108.309	-101.089	23.843	-101.682	-8191	255	
791.407	1	1	0	0	0.098229	0.0072862	0.19501	0.27096	0.15037	0.18339	0.24983	0.22845	0.15821	0.26688	0.11682	0.033932	0.12666	0.34616	0.037254	0.32968	-2.4708	-2.8896	-3.0792	-2.9271	-2.8729	-3.1042	-2.7687	-3.2812	-2.8104	-2.9271	-3.2625	-2.9083	-3.2646	-3.1875	-2.8375	-3.2062	149.388	98.623	-0.902	144.940	-87.000	156.956	95.162	96.263	-88.538	-37.731	152.310	201.187	-52.701	210.364	-114.050	-108.283	0.00010986	0.00028354	0.00010753	820.95	1.8611e-06	3.2117e-06	897.59	166.14	1.9539e-06	2.293e-06	226.17	65.256	51.578	15.367	1.6886e-06	21.566	0.00020132	0.00022202	6.2404e-05	806.4	2.5642e-06	2.4702e-06	883.31	165.08	2.4451e-06	2.6801e-06	224.49	65.714	51.684	15.459	2.4679e-06	21.766	-100.771	-63.011	-37.401	-122.804	76.166	19.219	-122.362	-115.197	30.595	40.865	-115.629	-108.536	-108.187	-100.859	-0.853	-101.689	-8191	255	
791.505	1	1	0	0	0.046864	0.063976	0.095442	0.25291	0.13398	0.19928	0.36418	0.23733	0.045185	0.20776	0.090142	0.14332	0.3243	0.17359	0.14686	0.11094	-2.6792	-2.8292	-3.2667	-3.0104	-3.1917	-3.1542	-2.8812	-3.1437	-2.9938	-2.9354	-3.2021	-2.9354	-3.0375	-3.2	-2.9417	-3.0812	-85.953	-10.515	158.691	184.478	206.073	10.454	193.318	147.119	103.444	186.323	85.582	36.720	-55.694	139.802	139.886	225.297	0.00011388	0.00024102	6.6156e-05	821.94	9.6096e-07	2.9398e-06	895.13	166.25	9.955e-07	1.4488e-06	225.61	65.229	51.356	15.316	1.9476e-06	21.41	0.00019946	0.00023396	5.7774e-05	805.61	2.4875e-06	2.3894e-06	881.21	165.07	2.3718e-06	2.3393e-06	224.62	65.574	51.598	15.416	2.3442e-06	21.716	-98.446	-35.205	6.404	-122.587	0.591	10.328	-122.560	-115.320	9.627	14.245	-115.634	-109.139	-108.363	-101.078	13.385	-101.434	-8191	255	
791.600	1	1	0	0	0.12673	0.054697	0.14982	0.16033	0.059505	0.31323	0.23262	0.093369	0.23396	0.14207	0.12841	0.21756	0.11907	0.10263	0.10698	0.22399	-2.4625	-2.8167	-2.9354	-3.0396	-2.9667	-3.1083	-2.8667	-3.1167	-3.1063	-2.8729	-3.2104	-3.0354	-2.9313	-3.2313	-2.825	-3.2	117.726	-80.146	-12.084	84.359	155.006	-94.736	189.715	-90.507	-72.934	-64.146	106.604	-15.264	-27.456	107.724	89.810	39.629	0.00011296	0.00028969	8.0989e-05	816.35	2.6545e-06	4.3399e-06	893.47	164.79	1.0571e-06	1.9044e-06	224.57	64.977	51.011	15.353	1.9566e-06	21.505	0.00019661	0.0002166	5.4368e-05	803.15	2.4787e-06	2.3053e-06	880.37	164.51	2.2739e-06	2.4122e-06	223.52	65.503	51.25	15.42	2.1727e-06	21.741	-97.684	-58.039	-21.664	-122.652	-7.523	16.704	-122.550	-115.276	30.195	22.030	-115.231	-108.701	-108.350	-100.840	37.318	-101.832	-8191	255	
791.696	1	1	0	0	0.19073	0.040314	0.090118	0.34433	0.081827	0.11884	0.26105	0.33905	0.11567	0.038743	0.10157	0.14559	0.17999	0.022009	0.23656	0.2234	-2.5979	-2.8083	-3.2458	-2.9729	-2.9688	-3.2208	-2.9562	-3.1083	-3.0771	-2.8042	-3.2438	-3.0062	-2.825	-3.1521	-2.9604	-3.0604	-118.370	2.256	-15.648	-114.232	200.922	-80.506	149.295	91.609	-42.231	-33.103	128.810	-106.870	164.983	143.092	4.833	213.557	0.00012771	0.00011895	6.9753e-05	818.92	2.1735e-06	2.2907e-06	890.87	165.51	1.3099e-06	2.0685e-06	225.4	65.179	50.955	15.367	2.7956e-06	21.442	0.0001816	0.00021771	5.5001e-05	802.34	2.4413e-06	2.3344e-06	878.57	164.57	2.2342e-06	2.4365e-06	223.83	65.643	51.344	15.442	2.3382e-06	21.719	-97.706	-39.450	-35.561	-122.520	61.955	60.772	-122.371	-115.140	-14.263	25.444	-115.753	-108.914	-108.379	-100.989	9.663	-100.904	-8191	255	
791.792	1	1	0	0	0.037919	0.11234	0.12301	0.027725	0.1323	0.17447	0.14584	0.010746	0.12768	0.22944	0.088667	0.15422	0.33219	0.19235	0.12698	0.23398	-2.7604	-2.8667	-3.025	-3.1833	-2.7438	-3.3979	-2.9604	-3.1292	-3.0271	-2.8688	-3.1833	-2.8937	-2.9979	-3.1333	-2.925	-2.925	-8.912	117.966	4.286	-18.678	-36.689	92.781	-124.765	159.067	215.629	-57.643	102.065	26.232	174.604	192.810	-19.111	0.183	0.00011276	0.00018177	5.3921e-05	816.79	1.2488e-06	2.2429e-06	896.75	166.49	1.5178e-06	2.9617e-06	226.66	65.125	51.407	15.326	1.7898e-06	21.637	0.00018722	0.0002238	5.3318e-05	801.74	2.4715e-06	2.1355e-06	881.68	165.24	2.1679e-06	2.1741e-06	224.68	65.697	51.527	15.417	2.1991e-06	21.754	-100.609	-16.162	-50.475	-122.680	56.470	22.457	-122.564	-115.536	3.078	31.245	-115.300	-108.896	-107.819	-101.322	-13.536	-101.835	-8191	255	
791.913	1	1	0	0	0.29348	0.26715	0.13816	0.10086	0.19029	0.14366	0.13497	0.049125	0.1956	0.023579	0.12146	0.17231	0.097688	0.20742	0.20613	0.2421	-2.6375	-2.8083	-3.15	-3.1521	-2.7792	-3.1458	-3.1063	-2.9417	-3.15	-2.9313	-3.0979	-3.1354	-2.8292	-3.2021	-2.8958	-2.7833	-77.334	31.523	-28.917	39.143	-30.805	0.219	-131.210	-99.412	-78.849	190.781	-58.422	101.372	-127.852	-126.589	173.485	43.390	0.00013137	0.00015084	5.1761e-05	817.16	2.9178e-06	2.3956e-06	901.3	166.54	1.528e-06	2.3875e-06	227.18	65.597	50.882	15.394	2.4236e-06	21.39	0.00018592	0.00021041	5.7181e-05	804.93	2.5045e-06	1.9965e-06	885.08	165.14	2.2176e-06	2.3636e-06	225.02	65.825	51.53	15.478	2.3218e-06	21.745	-103.225	-51.275	-34.185	-122.633	20.595	29.828	-122.568	-115.229	16.915	18.133	-115.229	-109.152	-108.233	-100.602	21.595	-101.299	-8191	255	
792.009	1	1	0	0	0.041028	0.18567	0.14133	0.05998	0.18956	0.081246	0.085937	0.20521	0.06599	0.32609	0.13967	0.1351	0.069289	0.32919	0.32845	0.057767	-2.6771	-2.7292	-2.9646	-3.2562	-2.8042	-3.1375	-2.9542	-2.9417	-3.2125	-3.0792	-3.0229	-3.1917	-2.7792	-3.0563	-2.9208	-2.8479	-74.503	49.997	201.974	-59.418	199.765	5.014	143.556	24.095	-49.202	-37.427	47.811	-124.649	217.447	-127.188	88.868	214.384	0.00012076	0.00025477	7.4349e-05	821.63	9.1171e-07	1.9528e-06	901.73	166.51	1.3079e-06	9.5947e-07	225.54	64.906	51.588	15.216	2.09e-06	21.509	0.00019972	0.00021849	5.8824e-05	806.31	2.4715e-06	2.1334e-06	885	165.24	2.2928e-06	2.268e-06	225.04	65.537	51.806	15.417	2.2993e-06	21.714	-104.110	-64.825	-66.825	-122.660	-24.632	-26.752	-122.465	-115.350	3.473	-27.776	-115.291	-109.277	-107.926	-100.588	27.974	-101.107	-8191	255	
792.105	1	1	0	0	0.056475	0.19721	0.12485	0.21377	0.089766	0.12686	0.50164	0.063181	0.21548	0.28703	0.018289	0.21665	0.11988	0.11627	0.10637	0.1594	-2.7812	-2.725	-3.0125	-3.1958	-2.725	-3.3187	-3.0563	-2.9062	-3.0042	-3.0417	-3.0396	-3.0646	-2.8729	-3.0396	-3.0938	-2.8896	-16.018	-76.939	207.046	167.328	47.951	212.973	162.222	-22.925	206.442	198.452	104.970	203.088	-29.903	192.714	-67.023	-128.739	0.00010659	0.00022087	6.6855e-05	823.29	1.7825e-06	3.251e-06	896.03	166.19	2.0647e-06	2.6183e-06	225.16	65.262	51.226	15.361	3.0384e-06	21.438	0.00018978	0.00020983	6.5689e-05	806.46	2.4622e-06	2.1932e-06	884.42	165.1	2.3321e-06	2.2815e-06	225.05	65.88	51.586	15.47	2.2754e-06	21.798	-96.295	-21.269	-46.809	-122.634	5.380	20.260	-122.652	-115.382	3.685	23.696	-115.555	-108.831	-108.443	-101.137	2.492	-101.521	-8191	255	
792.201	1	1	0	0	0.078789	0.2625	0.16526	0.16376	0.085066	0.13603	0.19109	0.11058	0.085571	0.17712	0.026695	0.090861	0.28997	0.19944	0.10192	0.23863	-2.7292	-2.9188	-2.9333	-3.25	-2.7167	-3.0167	-3.1479	-2.7646	-3.2875	-3.0333	-2.7792	-3.2729	-2.9458	-2.9875	-3.1063	-3.0979	151.166	112.822	-7.201	-10.839	-25.921	13.574	112.698	119.167	27.596	202.084	205.074	213.601	-106.413	191.601	133.422	194.136	0.00011427	0.00021443	6.5403e-05	826.96	2.1049e-06	2.8905e-06	902.1	166.07	8.7399e-07	1.533e-06	228.17	65.43	51.382	15.342	1.7124e-06	21.701	0.00018636	0.00021239	6.2095e-05	811.12	2.3253e-06	2.3285e-06	888.14	165.45	2.3889e-06	2.3766e-06	225.9	66.005	51.768	15.53	2.4115e-06	21.842	-107.918	-45.763	-24.321	-122.925	9.685	27.173	-122.405	-115.253	22.746	-5.437	-115.424	-108.860	-108.432	-101.073	-11.405	-101.643	-8191	255	
792.297	1	1	0	0	0.12718	0.13249	0.090371	0.17016	0.30162	0.05169	0.29203	0.12785	0.078678	0.20123	0.062627	0.18752	0.18791	0.12125	0.10883	0.030932	-2.7104	-2.9313	-2.8354	-3.1417	-2.9813	-2.8021	-3.3208	-2.7333	-3.0875	-2.9146	-3.0292	-3.3146	-2.8625	-2.8792	-3.1479	-2.8708	-37.776	21.723	-88.621	-35.409	67.539	67.024	159.080	6.630	52.355	6.831	-103.465	191.066	94.246	-25.523	-81.569	-49.996	0.00010435	0.0001426	5.5331e-05	825.15	1.1181e-06	2.8836e-06	901.2	166.48	1.2852e-06	2.0218e-06	226.53	65.036	51.596	15.455	1.7071e-06	21.625	0.0001947	0.00022076	6.8879e-05	812.01	2.621e-06	2.6066e-06	888.27	165.38	2.4712e-06	2.8275e-06	225.22	65.823	51.764	15.497	2.8314e-06	21.889	-96.927	-60.408	-19.149	-122.776	48.219	-4.441	-122.683	-115.298	-4.917	51.445	-115.350	-109.171	-108.525	-101.122	-39.082	-101.723	-8191	255	
792.393	1	1	0	0	0.25513	0.20307	0.043324	0.26611	0.045099	0.3203	0.21749	0.17092	0.15678	0.018776	0.18818	0.14774	0.22736	0.028955	0.12659	0.10605	-2.3042	-3.0104	-2.6937	-3.2875	-2.8063	-2.9833	-3.2667	-2.8042	-2.9917	-3.1312	-2.8896	-3.0542	-2.9646	-2.6729	-3.2729	-2.775	-71.897	133.750	72.213	173.617	-53.720	-32.817	75.988	147.494	97.827	2.009	-65.560	140.423	164.892	7.302	154.009	126.939	0.00010601	0.00027612	5.7205e-05	830.95	1.722e-06	2.1408e-06	903.97	166.72	1.8471e-06	1.3805e-06	226.53	65.642	51.59	15.537	2.4596e-06	21.798	0.00021667	0.00027447	7.9553e-05	814.78	2.9921e-06	2.9844e-06	890.4	165.4	2.9485e-06	2.9879e-06	225.41	65.918	51.896	15.58	2.9082e-06	21.907	-96.841	-35.408	-39.370	-122.827	26.910	-8.543	-122.620	-115.801	18.183	-51.013	-115.377	-108.940	-108.265	-101.218	24.391	-101.888	-8191	255	
792.512	1	1	0	0	0.29189	0.10626	0.23712	0.32711	0.10909	0.24564	0.1139	0.32082	0.076204	0.11288	0.12327	0.11275	0.27673	0.013825	0.1289	0.12117	-2.5729	-3.0375	-2.5729	-3.1146	-2.7958	-2.8708	-3.3792	-2.95	-2.8833	-3.0021	-2.8854	-3.225	-2.8458	-2.9062	-3.1562	-3.0229	-37.041	57.047	143.570	-128.967	-34.756	61.835	194.351	131.373	64.883	-2.046	-93.882	81.639	119.977	124.341	124.229	174.125	0.00010662	0.00018388	0.00010249	828.4	1.9703e-06	3.1837e-06	905.1	166.7	1.3632e-06	1.7358e-06	226.92	65.063	51.446	15.411	1.033e-06	21.603	0.00022472	0.00026558	7.4021e-05	811.89	3.0144e-06	2.9289e-06	890.11	165.78	2.8638e-06	2.8291e-06	225.42	65.749	51.754	15.538	2.5113e-06	21.839	-101.537	-32.175	-68.833	-122.731	-3.240	15.247	-122.730	-115.541	29.716	18.432	-115.458	-109.085	-108.386	-100.865	19.542	-101.522	-8191	255	
792.608	1	1	0	0	0.29453	0.12745	0.046242	0.32217	0.11443	0.1637	0.11756	0.15822	0.19001	0.19716	0.18404	0.24085	0.17698	0.072695	0.11419	0.27049	-2.35	-3.1292	-2.7167	-3.1188	-2.95	-2.8563	-3.0125	-2.9479	-2.7958	-3.2479	-2.8812	-3.1437	-2.8229	-2.8729	-3.0812	-2.9542	132.463	27.571	31.664	209.997	161.953	-4.374	-53.328	204.027	210.153	79.607	-123.082	218.534	-9.332	-74.664	115.409	-57.748	9.5227e-05	0.00022131	8.1317e-05	828.54	1.6797e-06	2.6582e-06	902.03	166.22	1.5597e-06	2.0647e-06	225.92	65.518	51.452	15.271	1.8094e-06	21.64	0.00021535	0.00024218	6.9969e-05	813.22	2.8405e-06	2.722e-06	889.48	165.49	2.676e-06	2.5607e-06	225.02	65.914	51.604	15.509	2.3657e-06	21.807	-92.523	-48.255	-30.919	-122.768	17.314	46.969	-122.404	-115.588	-5.889	4.010	-115.925	-109.030	-108.088	-101.242	17.441	-101.761	-8191	255	
792.704	1	1	0	0	0.17792	0.12426	0.041887	0.2405	0.077669	0.23905	0.40175	0.21799	0.074347	0.3167	0.12246	0.25097	0.2637	0.14221	0.08287	0.13242	-2.2604	-3.0833	-2.7021	-3.0542	-3.0833	-2.7125	-3.0958	-2.9979	-2.7771	-3.2771	-2.7958	-3.0979	-3.0812	-2.6562	-3.2271	-2.9333	-105.108	1.974	158.019	-117.212	-124.009	106.085	113.318	187.998	9.768	-65.774	-87.215	9.728	77.202	-86.316	18.579	27.373	0.00011321	0.00024423	9.4022e-05	824.33	2.4469e-06	3.582e-06	896.91	166.97	1.6783e-06	1.3769e-06	225.58	65.098	51.254	15.4	2.0177e-06	21.416	0.00020694	0.00022579	6.5796e-05	810.4	2.5462e-06	2.6395e-06	885.28	165.3	2.6377e-06	2.4975e-06	224.18	65.588	51.403	15.504	2.2968e-06	21.698	-105.678	-54.990	-28.323	-122.751	50.510	37.192	-122.579	-115.235	28.150	-1.203	-115.445	-108.829	-108.301	-101.198	1.277	-101.387	-8191	255	
792.776	1	1	0	0	0.10147	0.29859	0.18356	0.16296	0.20415	0.07322	0.2743	0.14461	0.14117	0.037674	0.16695	0.065604	0.23371	0.15188	0.27004	0.22923	-2.4521	-3.1292	-2.9125	-3.1312	-3.15	-2.7458	-3.1312	-2.8771	-2.7604	-3.2021	-2.7583	-3.075	-3.2229	-2.7604	-3.1312	-3.0729	80.387	42.402	108.775	-117.445	-118.063	-50.545	177.693	-130.347	-60.135	53.372	-101.279	-0.709	-85.267	-41.774	-81.236	156.077	0.00010431	0.00027039	7.3563e-05	820.1	2.5005e-06	2.0386e-06	893.82	167.03	1.2463e-06	2.5493e-06	225.34	65.091	51.203	15.414	2.4021e-06	21.503	0.00021046	0.00021583	5.9901e-05	806.5	2.5861e-06	2.6643e-06	883.25	164.9	2.6287e-06	2.3852e-06	223.92	65.531	51.505	15.492	2.4674e-06	21.748	-101.327	-30.056	-39.163	-122.762	30.474	19.616	-122.574	-115.486	3.975	33.412	-115.279	-108.734	-108.022	-101.038	16.828	-101.703	-8191	255	
792.897	1	1	0	0	0.23637	0.13317	0.050868	0.085065	0.1138	0.15058	0.17021	0.27128	0.25351	0.057029	0.19363	0.12406	0.21393	0.051143	0.11227	0.25946	-2.5417	-3.2	-2.6833	-2.9813	-3.1479	-2.8417	-3.0854	-3.2729	-2.8396	-2.9813	-3.0792	-2.8875	-2.9646	-2.8563	-3.0687	-3.2438	19.629	-25.904	142.820	191.705	-44.729	-128.018	189.285	117.842	-75.399	34.388	214.958	105.661	-23.687	43.787	-13.061	2.188	0.00011346	0.0001599	5.366e-05	821.33	2.4488e-06	2.8413e-06	896.08	165.43	1.4725e-06	2.6586e-06	223.43	64.397	50.869	15.349	3.3395e-06	21.46	0.00020585	0.00022008	6.2431e-05	805.62	2.6254e-06	2.6276e-06	882.22	164.33	2.4887e-06	2.3161e-06	222.91	65.261	51.324	15.402	2.3936e-06	21.712	-99.847	-51.518	-12.271	-122.565	-1.204	4.527	-122.339	-115.161	-10.962	-20.508	-115.576	-109.032	-108.256	-100.988	40.318	-101.610	-8191	255	
792.993	1	1	0	0	0.1807	0.090502	0.18958	0.17114	0.20861	0.042277	0.45588	0.20262	0.18017	0.1764	0.22106	0.10333	0.258	0.32531	0.095556	0.085016	-2.2521	-3.1896	-3.0354	-2.9562	-3.2042	-2.7458	-2.9042	-3.0521	-2.7	-3.2188	-3.1208	-2.9167	-3.2646	-2.8063	-2.9208	-3.1937	-10.563	-120.998	215.119	-102.917	43.621	-20.955	139.572	145.376	-81.759	-48.004	-55.132	40.256	-129.279	61.819	142.862	-69.641	0.0001236	0.00011492	9.2888e-05	826.63	9.8938e-07	3.4242e-06	894.89	164.43	2.5266e-06	9.7714e-07	223.43	64.823	50.572	15.226	2.5255e-06	21.432	0.00021338	0.00021597	6.5285e-05	805.94	2.3437e-06	2.529e-06	879.97	163.82	2.6765e-06	2.3847e-06	222.95	65.249	51.011	15.382	2.5173e-06	21.596	-109.281	-40.178	-36.177	-122.833	46.856	20.427	-122.317	-115.239	-18.138	58.710	-115.476	-108.794	-107.818	-101.088	-17.822	-101.539	-8191	255	
793.089	1	1	0	0	0.16891	0.19678	0.2321	0.37789	0.17785	0.15481	0.27683	0.077976	0.1606	0.15729	0.30159	0.069361	0.15987	0.22462	0.17577	0.21054	-2.2104	-3.2333	-2.8083	-2.9938	-3.0833	-2.8583	-3	-3.3125	-2.6958	-3.0146	-3.0979	-2.8312	-3.2062	-2.8646	-2.95	-3.1167	-4.641	149.822	216.312	219.031	-44.305	-120.706	135.878	194.634	-54.298	141.292	186.663	19.050	207.528	-75.332	125.980	-1.938	0.00010674	0.00017239	0.00010187	818.08	2.4532e-06	5.9222e-07	889.85	164.8	2.0468e-06	3.0243e-06	223.49	64.5	50.788	15.247	1.3271e-06	21.424	0.0001993	0.00022086	6.1879e-05	801.79	2.4724e-06	2.4525e-06	877.96	163.53	2.6277e-06	2.4333e-06	222.38	64.921	51.096	15.358	2.3313e-06	21.577	-99.003	-33.352	-39.907	-122.662	7.756	193.885	-122.469	-115.386	5.250	20.893	-115.389	-108.659	-108.267	-100.852	102.651	-101.579	-8191	255	
793.185	1	1	0	0	0.061412	0.15305	0.15316	0.030053	0.1802	0.12951	0.11167	0.11042	0.058344	0.16574	0.25918	0.15072	0.034922	0.21476	0.2068	0.059434	-2.3563	-2.9979	-2.8875	-2.8771	-3.1521	-2.9896	-2.9437	-3.3229	-2.7729	-2.9833	-3.0292	-2.8771	-3.0917	-2.9021	-2.8896	-3.3771	-129.331	-17.260	134.891	-130.822	27.036	-31.551	175.554	110.891	1.836	-39.945	118.845	164.943	221.560	-10.617	-91.649	213.289	0.0001085	0.00026252	7.512e-05	813.49	1.2838e-06	2.3259e-06	888.34	165.08	1.3649e-06	1.9054e-06	224.93	64.194	50.473	15.157	6.974e-07	21.349	0.00020841	0.00021795	6.192e-05	798.41	2.4175e-06	2.4967e-06	875.78	163.56	2.4773e-06	2.4279e-06	223.18	64.913	50.963	15.357	2.625e-06	21.604	-106.386	-59.342	-42.186	-122.622	-8.864	17.241	-122.743	-115.284	43.057	25.536	-115.491	-108.904	-108.504	-101.012	40.688	-101.586	-8191	255	
793.306	1	1	0	0	0.21082	0.29821	0.10031	0.046018	0.086969	0.084789	0.171	0.2179	0.36076	0.093794	0.14895	0.18255	0.28234	0.25219	0.14921	0.1373	-2.2604	-2.8875	-2.9104	-2.9521	-3.2771	-2.8771	-2.8417	-3.1854	-2.7375	-2.975	-3.1104	-2.8625	-3.0521	-2.9021	-2.975	-3.3312	200.843	72.455	214.218	224.797	-37.271	220.855	184.640	207.060	-13.454	-121.142	92.709	96.275	-18.110	-82.205	199.299	-80.686	0.00010675	0.0002646	7.3719e-05	811.49	2.1302e-07	2.1323e-06	889.98	164.14	1.8838e-06	2.6179e-06	222.93	64.101	50.63	15.11	3.3854e-06	21.276	0.0002043	0.00022559	5.8851e-05	799.26	2.4399e-06	2.3511e-06	875.33	162.89	2.4797e-06	2.322e-06	222.08	64.817	50.899	15.274	2.3896e-06	21.524	-104.277	-47.136	-48.745	-122.687	-12.510	7.438	-122.370	-115.120	3.226	-0.675	-115.488	-108.912	-108.536	-100.887	-10.956	-101.758	-8191	255	
793.378	1	1	0	0	0.06969	0.33364	0.16623	0.084681	0.067658	0.22924	0.070114	0.26158	0.031076	0.17026	0.1352	0.19939	0.070556	0.077848	0.17689	0.15061	-2.4188	-2.8063	-3.1417	-2.775	-3.1521	-3.1125	-2.825	-3.2062	-2.8375	-3.0979	-3.2958	-2.9083	-2.9938	-3.0646	-2.7833	-3.2188	40.851	9.152	134.768	-105.637	-56.925	205.965	120.336	131.912	81.983	-125.372	171.277	106.530	-68.063	150.536	-126.523	189.459	0.00010474	0.00023568	7.2751e-05	812.37	8.3575e-07	2.4882e-06	885.7	164.39	9.8277e-07	1.5147e-06	223.69	64.859	50.059	15.188	3.0456e-06	21.273	0.00018954	0.00021602	6.0372e-05	797.24	2.3457e-06	2.3021e-06	872.78	162.9	2.3912e-06	2.2837e-06	222.09	64.827	50.662	15.314	2.3567e-06	21.539	-96.881	-16.589	-44.338	-122.815	31.577	13.324	-122.534	-115.558	4.666	28.212	-115.316	-108.863	-107.999	-100.991	36.294	-101.604	-8191	255	
793.474	1	1	0	0	0.050601	0.16152	0.1729	0.30457	0.056264	0.15015	0.4507	0.26505	0.18083	0.11614	0.12443	0.20829	0.03933	0.12106	0.12679	0.12321	-2.5708	-2.9667	-3.1813	-2.8333	-2.8854	-3.1083	-2.8479	-3.1188	-2.8521	-3.0292	-3.1042	-2.8104	-2.875	-3.1521	-2.7208	-3.1813	43.226	79.531	111.501	-124.576	118.570	213.611	145.226	50.054	105.370	-107.237	92.759	2.277	100.777	-60.146	209.063	106.511	0.00010769	0.00026798	8.3165e-05	811.14	2.6716e-06	3.4479e-06	882.42	163.35	8.1375e-07	2.5669e-06	223.12	64.403	50.781	15.128	2.115e-06	21.29	0.00019467	0.00021201	5.7208e-05	796.02	2.5462e-06	2.3835e-06	868.73	162.62	2.2611e-06	2.2751e-06	221.81	64.578	50.821	15.252	2.4479e-06	21.542	-102.153	-43.683	-37.852	-122.746	10.705	17.653	-122.586	-115.002	8.904	39.064	-115.250	-108.964	-108.531	-100.581	29.373	-101.004	-8191	255	
793.593	1	1	0	0	0.12026	0.087426	0.28124	0.40714	0.15255	0.25272	0.2723	0.13831	0.23064	0.060127	0.29979	0.10808	0.23552	0.11178	0.215	0.19486	-2.5938	-3.1146	-3.1021	-2.7917	-3.0729	-2.9958	-3.0187	-3.2292	-2.8771	-2.9	-3.0354	-3	-2.9604	-3.3521	-2.6542	-3.0438	110.121	-31.644	97.010	-128.999	66.843	-7.015	138.616	-56.298	11.959	59.350	199.855	158.945	-113.354	186.189	-113.434	62.564	0.00011207	0.00023372	9.4361e-05	811.32	1.6415e-06	2.1848e-06	882.01	163.6	1.7204e-06	1.9173e-06	224.12	64.514	49.93	15.114	1.8732e-06	21.415	0.00019206	0.00021704	5.811e-05	795.27	2.3452e-06	2.2767e-06	871.15	162.81	2.3075e-06	2.3048e-06	221.87	64.862	50.556	15.303	2.3263e-06	21.506	-94.860	-31.656	-45.169	-122.667	2.088	23.517	-122.682	-115.198	-2.422	24.009	-115.920	-108.609	-108.322	-101.173	3.541	-101.271	-8191	255	
793.689	1	1	0	0	0.21471	0.08223	0.25675	0.024789	0.30094	0.19055	0.046782	0.099732	0.087397	0.33514	0.19618	0.14935	0.064287	0.05635	0.17296	0.05059	-2.6125	-2.8146	-3.1688	-2.8438	-3.05	-3.0604	-2.8458	-2.9625	-3.1458	-2.8583	-3.2438	-3.0104	-2.8708	-3.2271	-2.5812	-3.175	65.376	-92.005	129.395	-129.258	18.167	-78.691	202.512	151.328	210.636	-11.762	-124.926	-61.667	125.310	-90.523	-79.828	56.748	0.00010983	0.00025915	4.1806e-05	811.2	1.7842e-06	2.0729e-06	881.34	163.9	5.2972e-07	1.3768e-06	222.9	64.305	50.37	15.098	2.095e-06	21.43	0.00019312	0.00022777	6.1745e-05	794.24	2.4642e-06	2.2282e-06	868.96	162.55	2.3056e-06	2.288e-06	221.91	64.756	50.677	15.242	2.3557e-06	21.583	-96.251	-55.527	-23.571	-122.396	42.468	-4.784	-122.632	-115.049	-2.302	30.923	-115.391	-108.661	-108.493	-100.824	40.725	-101.121	-8191	255	
793.785	1	1	0	0	0.21249	0.052562	0.054785	0.084605	0.23892	0.09009	0.19528	0.15199	0.18685	0.30738	0.069033	0.068183	0.2821	0.24164	0.096284	0.14114	-2.6729	-2.925	-3.0333	-2.8937	-2.9604	-3.0667	-2.9583	-3.0125	-3.0396	-2.7979	-3.2646	-3.0854	-2.7167	-3.4333	-2.9188	-3.0958	18.292	-76.604	101.072	-61.077	184.038	52.649	169.302	-63.517	119.120	182.743	-96.908	195.347	182.148	169.684	168.708	-59.556	0.00010105	0.00019463	5.1371e-05	807.16	1.4592e-06	2.7084e-06	880.11	164.03	1.062e-06	3.1821e-06	223.55	64.54	50.473	14.995	2.5686e-06	21.266	0.00020218	0.00022932	5.6778e-05	793.24	2.4355e-06	2.2493e-06	869.25	162.58	2.3907e-06	2.4797e-06	222.09	64.691	50.753	15.239	2.4913e-06	21.529	-101.570	3.871	-8.928	-122.734	22.645	34.345	-122.579	-115.341	0.766	38.115	-115.610	-108.504	-107.928	-100.496	25.495	-101.411	-8191	255	
793.905	1	1	0	0	0.12826	0.091344	0.096128	0.28751	0.095066	0.24918	0.21996	0.17053	0.16902	0.15249	0.30825	0.25096	0.096855	0.14903	0.18261	0.14454	-2.5521	-2.7271	-3.1771	-3.1667	-2.8396	-3.2667	-3.0896	-3.0729	-2.9771	-2.9667	-3.0938	-3.1479	-2.7583	-3.4188	-2.7021	-2.9958	-29.559	186.919	8.741	187.250	-99.462	143.425	204.755	179.518	17.587	155.610	-120.627	29.206	-119.129	143.835	-4.888	195.641	0.00010379	0.00020254	6.5479e-05	809.48	2.3241e-06	3.2919e-06	879.92	164.36	1.7201e-06	4.841e-07	224	64.125	50.55	15.159	2.782e-06	21.317	0.00018781	0.0002226	6.0372e-05	794.86	2.5725e-06	2.2611e-06	868.93	162.45	2.3822e-06	2.4484e-06	221.97	64.81	50.726	15.312	2.5452e-06	21.49	-95.033	-21.801	-30.707	-122.358	-2.730	3.936	-122.465	-115.134	26.721	14.858	-115.122	-108.657	-107.673	-100.714	28.265	-101.457	-8191	255	
794.002	1	1	0	0	0.1036	0.12237	0.16876	0.18714	0.41523	0.036922	0.12051	0.2418	0.31528	0.13177	0.12193	0.11259	0.073484	0.2025	0.2058	0.089234	-2.6542	-2.625	-3.1271	-2.9938	-2.6625	-3.1458	-3.0792	-2.9021	-3.0958	-2.9042	-3.0625	-2.9938	-2.7375	-3.0354	-2.9646	-2.8792	-93.756	130.750	-110.023	176.453	149.652	209.442	110.719	139.203	-19.527	155.651	93.959	159.492	-119.501	41.615	-62.069	19.145	0.00010139	0.00023634	6.1493e-05	806.93	1.3733e-06	2.0258e-06	883.57	163.5	2.0716e-06	1.8998e-06	222.39	64.051	50.31	15.137	2.5618e-06	21.227	0.00018243	0.00021737	6.0089e-05	793.68	2.5326e-06	2.3301e-06	869.86	162.62	2.2961e-06	2.4462e-06	221.65	64.658	50.738	15.323	2.5242e-06	21.489	-102.505	-17.897	32.206	-122.708	5.356	0.739	-122.646	-115.191	37.718	-0.191	-115.560	-108.958	-108.156	-100.945	3.112	-101.936	-8191	255	
794.073	1	1	0	0	0.13629	0.20286	0.088844	0.1188	0.25427	0.10452	0.22862	0.048276	0.21031	0.084583	0.23283	0.26497	0.2121	0.14678	0.12068	0.12645	-2.6333	-2.7375	-2.9521	-2.9	-2.6375	-3.0083	-2.8958	-3.0646	-2.9583	-2.7562	-3.1937	-2.8979	-2.9104	-3.125	-3.1708	-2.8958	-62.821	105.530	-74.402	138.177	140.975	-66.239	-96.912	205.408	177.916	-113.379	-15.733	112.864	200.775	181.875	76.494	139.639	0.00010426	0.00023492	5.6173e-05	811.47	1.4891e-06	2.31e-06	884.09	163.34	9.2668e-07	2.4124e-06	223.17	64.079	50.818	15.193	3.0975e-06	21.509	0.00019167	0.00023961	6.0627e-05	796.08	2.6201e-06	2.426e-06	870.26	162.4	2.3931e-06	2.5386e-06	221.78	64.582	50.76	15.308	2.7102e-06	21.6	-104.391	-59.010	-63.949	-122.623	-11.846	29.392	-122.581	-115.028	33.166	47.767	-115.707	-108.751	-108.256	-101.283	35.978	-101.342	-8191	255	
794.169	1	1	0	0	0.076007	0.11367	0.076012	0.18389	0.30493	0.20146	0.033888	0.37869	0.12804	0.22753	0.046802	0.13675	0.24016	0.083373	0.3182	0.094908	-2.7833	-2.6625	-2.9396	-3.2917	-2.7146	-3.1104	-3.0708	-2.9292	-3.125	-3.0021	-2.8521	-3.3521	-2.8583	-3.05	-3.2292	-2.7958	25.098	51.574	41.372	-109.703	31.741	-100.105	-132.670	193.512	164.301	87.105	102.868	91.004	-50.086	107.289	-114.664	-25.903	0.00011606	0.00013513	5.3555e-05	812.95	1.2232e-06	3.2567e-06	887.52	162.89	1.7566e-06	2.0149e-06	223.19	63.602	50.785	15.139	1.2226e-06	21.264	0.00021419	0.00025547	7.1611e-05	798.45	2.9799e-06	2.9392e-06	873.67	162.42	2.7521e-06	2.9868e-06	222.63	64.609	50.955	15.343	2.8294e-06	21.503	-100.070	-2.300	-36.859	-122.481	11.621	-16.414	-122.698	-115.304	-2.551	-48.737	-115.813	-108.741	-107.886	-101.070	-5.405	-101.327	-8191	255	
794.290	1	1	0	0	0.10825	0.22594	0.21403	0.27003	0.15919	0.16668	0.16795	0.06323	0.089432	0.045906	0.06091	0.23457	0.20731	0.098232	0.24395	0.12279	-2.8104	-2.8417	-2.9271	-3.125	-2.85	-3.1021	-3.4021	-2.6937	-3.3104	-2.8417	-2.9062	-3.2313	-2.9146	-3.2125	-3.225	-2.8271	13.135	65.421	32.734	-103.517	-114.104	-87.325	183.836	222.776	-31.246	-66.514	9.422	170.100	-61.964	154.907	-53.044	84.142	0.0001217	0.00026056	7.6548e-05	815.25	1.697e-06	1.2397e-06	886.56	164.31	9.7894e-07	2.1612e-06	224.82	64.381	50.638	15.175	1.1966e-06	21.253	0.00021895	0.00026248	7.3079e-05	799.72	3.1203e-06	3.0615e-06	875.36	163.16	2.7299e-06	2.9852e-06	222.98	64.715	50.846	15.273	2.6828e-06	21.467	-98.432	-31.123	-20.466	-122.781	41.681	83.096	-122.609	-115.605	33.224	47.155	-115.816	-108.847	-108.389	-101.309	6.649	-101.786	-8191	255	
794.386	1	1	0	0	0.1609	0.17693	0.22769	0.086442	0.11941	0.1636	0.17966	0.0037317	0.24004	0.051899	0.17494	0.22201	0.13686	0.14097	0.11652	0.10459	-2.8271	-2.8438	-2.9583	-3.2729	-2.9896	-2.8792	-3.175	-2.9208	-3.1354	-2.9146	-2.8146	-3.2833	-2.7625	-3.0792	-3.0812	-2.8479	-102.100	56.961	-92.433	69.577	209.937	-62.073	-129.707	1.173	129.871	220.266	109.384	217.426	-16.393	83.796	165.156	133.897	0.00011502	0.00024126	7.1331e-05	812.94	1.0511e-06	3.1308e-06	887.71	164.33	1.3295e-06	1.1517e-06	223.06	63.85	50.793	15.253	3.0633e-06	21.248	0.00021696	0.00026263	7.608e-05	799.95	3.0183e-06	2.8362e-06	874.19	162.74	2.8179e-06	2.8388e-06	222.89	64.498	50.846	15.275	2.7047e-06	21.461	-99.562	-23.026	-31.454	-122.464	-2.023	10.050	-122.545	-115.299	-40.436	17.665	-115.558	-108.777	-108.268	-100.966	3.861	-101.551	-8191	255	
794.481	1	1	0	0	0.060631	0.066191	0.095797	0.20599	0.10159	0.25307	0.30294	0.16527	0.28242	0.088506	0.14151	0.30895	0.1111	0.2067	0.055005	0.13571	-2.9	-3.0792	-2.6958	-3.1167	-3.0125	-2.7979	-3.2083	-2.6625	-2.9396	-2.8187	-2.7979	-3.1083	-2.9333	-2.825	-3.2542	-2.7979	-104.566	171.217	148.518	147.905	72.587	59.998	159.462	-65.826	-54.411	9.567	94.599	-109.364	190.563	108.958	143.345	212.193	0.00011214	0.00013699	9.0161e-05	814.67	1.0611e-06	1.2292e-06	887.22	163.83	1.4461e-06	2.5872e-06	225.1	63.955	50.26	15.081	7.7155e-07	21.241	0.00021535	0.00024604	7.1598e-05	800.91	2.8333e-06	2.8761e-06	874.14	162.99	2.8222e-06	2.6752e-06	222.25	64.552	50.701	15.214	2.5392e-06	21.388	-92.372	-72.540	-35.956	-122.625	81.603	41.782	-122.704	-115.264	21.433	28.511	-115.539	-108.909	-108.045	-101.005	16.721	-101.880	-8191	255	
794.577	1	1	0	0	0.073921	0.23254	0.13251	0.14011	0.22114	0.2502	0.27868	0.10853	0.2089	0.24829	0.052228	0.22212	0.22168	0.051095	0.1956	0.023878	-2.6229	-2.95	-2.6375	-3.2062	-2.8646	-2.875	-3.0833	-2.8458	-2.9938	-3.0875	-2.7687	-3.1375	-2.8521	-2.8917	-3.1167	-2.9562	164.965	207.681	218.122	65.655	210.696	193.556	183.592	-54.551	169.340	-29.690	36.221	202.053	200.238	-3.085	-89.037	87.454	0.00010783	0.00022707	7.7485e-05	809.88	1.4668e-06	1.5583e-06	882.97	162.93	1.4413e-06	1.9893e-06	224.01	63.901	50.536	15.044	2.1374e-06	21.261	0.0002139	0.0002445	6.7466e-05	797.32	2.993e-06	2.8492e-06	872.19	162.44	2.7843e-06	2.5715e-06	221.49	64.33	50.593	15.179	2.427e-06	21.439	-94.253	-42.462	-20.715	-122.589	20.667	68.765	-122.282	-115.466	5.192	14.237	-115.516	-108.538	-108.271	-100.823	26.801	-101.481	-8191	255	
794.673	1	1	0	0	0.22712	0.12138	0.09321	0.20859	0.093096	0.073822	0.28852	0.21172	0.21935	0.18868	0.081937	0.17749	0.25185	0.16025	0.13158	0.045428	-2.6458	-2.9625	-2.5125	-3.1917	-2.9	-2.7271	-3.3146	-2.8771	-3.0042	-3.1333	-2.7333	-3.1917	-3.0042	-2.7625	-3.1146	-2.8583	97.263	158.782	166.561	155.229	91.211	61.072	159.865	207.743	-130.485	186.848	-29.690	-123.506	116.033	34.623	-62.606	140.247	9.6387e-05	0.0001646	6.6695e-05	805.81	7.1598e-07	1.7964e-06	887.32	162.99	2.3326e-06	1.4239e-06	221.81	63.85	50.245	15.024	2.214e-06	21.137	0.0002086	0.00023183	6.8031e-05	795.41	2.8551e-06	2.6018e-06	871.56	161.94	2.6585e-06	2.4997e-06	220.96	64.308	50.507	15.169	2.5103e-06	21.328	-100.215	-74.787	-34.601	-122.774	27.392	-2.899	-122.511	-115.503	-12.631	-10.396	-115.207	-108.929	-108.453	-101.004	17.151	-101.455	-8191	255	
794.769	1	1	0	0	0.067479	0.085062	0.19269	0.074773	0.18548	0.12625	0.50475	0.21893	0.17081	0.11157	0.083972	0.058027	0.14389	0.24521	0.2067	0.36753	-2.4875	-2.9917	-2.8563	-3.0854	-3.05	-2.9958	-3.3958	-2.8646	-2.6917	-3.1833	-2.8604	-3.1354	-3.0938	-2.8792	-2.9792	-3.1896	-125.920	17.475	133.500	35.448	66.926	59.673	163.836	216.485	-42.621	165.437	-11.059	218.046	-35.853	-4.271	-93.195	59.415	0.00010258	0.00022535	0.0001243	804.57	5.5234e-07	2.135e-06	881.27	164.01	2.1441e-06	1.5143e-06	223.65	63.571	50.283	15.056	1.7544e-06	21.092	0.00021913	0.00023797	6.9862e-05	795.24	2.6128e-06	2.6616e-06	869.21	162.19	2.7919e-06	2.3555e-06	221.79	64.3	50.468	15.17	2.5272e-06	21.316	-96.073	-44.843	-39.978	-122.818	33.104	6.794	-122.732	-115.136	21.525	-0.291	-115.609	-108.686	-108.097	-100.830	-27.046	-101.682	-8191	255	
794.865	1	1	0	0	0.21892	0.17734	0.32575	0.23257	0.19832	0.18297	0.38584	0.091965	0.25439	0.26498	0.23604	0.17483	0.20272	0.14612	0.0625	0.14147	-2.4667	-3.025	-2.7604	-3.0729	-2.9062	-2.8208	-3.1312	-2.9104	-2.9083	-3.1292	-2.8812	-2.9979	-2.9875	-2.7167	-3.0604	-2.8854	89.489	196.661	-24.016	215.945	32.632	-128.994	209.677	-16.799	-128.593	67.469	161.142	203.959	76.705	177.604	-132.340	-55.998	0.00011774	0.00032525	4.3706e-05	809.91	1.5064e-06	2.4216e-06	882.84	163.08	2.3431e-06	1.0093e-06	222.19	63.775	50.109	15.135	2.082e-06	21.21	0.00020088	0.00022559	6.3845e-05	792.9	2.5875e-06	2.7494e-06	870.02	161.9	2.5497e-06	2.4846e-06	220.67	64.19	50.404	15.181	2.5566e-06	21.3	-88.417	-44.437	-11.660	-122.694	38.831	-6.122	-122.610	-115.112	4.289	45.532	-115.844	-108.551	-108.064	-101.017	-8.332	-101.558	-8191	255	
794.986	1	1	0	0	0.25316	0.18406	0.20298	0.15369	0.11102	0.25173	0.19818	0.22262	0.090445	0.22541	0.098773	0.21708	0.28586	0.093713	0.19497	0.11829	-2.5729	-2.9292	-2.7958	-2.8917	-3.2792	-2.6708	-3.0083	-3.0396	-2.6104	-3.2271	-3.1063	-2.9375	-3.0354	-2.8375	-3.0375	-2.9562	12.602	100.856	-41.209	-12.551	-15.887	-99.867	209.742	175.590	-130.860	28.974	-96.038	13.318	159.086	204.301	-4.645	225.100	0.00011223	0.00024687	7.8861e-05	809.47	1.6492e-06	1.1016e-06	881.34	162.82	1.921e-06	3.2115e-06	222.48	63.343	50.344	15.041	1.3134e-06	21.196	0.00021305	0.00023507	6.7492e-05	793.32	2.7041e-06	2.6896e-06	869.03	161.82	2.6173e-06	2.6326e-06	220.41	64.156	50.571	15.127	2.4908e-06	21.271	-99.904	-25.349	-12.885	-122.481	8.085	-19.225	-122.487	-115.349	-19.303	38.027	-115.396	-108.827	-107.689	-100.831	-10.277	-101.754	-8191	255	
795.082	1	1	0	0	0.18408	0.18003	0.20695	0.087779	0.081698	0.23866	0.10453	0.22362	0.17397	0.05335	0.24737	0.076356	0.29716	0.16294	0.19357	0.049646	-2.1333	-3.0125	-2.8521	-2.8979	-3.15	-2.7792	-2.9542	-3.0687	-2.7083	-3.2271	-3.0396	-3.0917	-3.1104	-2.8875	-2.9	-3.3958	226.473	-80.294	-1.803	-68.152	136.238	-47.472	109.530	209.467	88.195	-92.062	-63.605	108.266	-128.320	65.548	-119.157	36.556	9.9771e-05	0.00023146	7.4852e-05	808.06	2.7214e-06	1.6211e-06	881.59	163.13	1.1981e-06	1.3794e-06	221.74	63.148	50.068	15.011	1.3304e-06	21.072	0.00019819	0.00023952	6.7062e-05	793.48	2.5705e-06	2.5414e-06	868.87	161.57	2.5823e-06	2.5305e-06	220.92	64.003	50.312	15.16	2.4155e-06	21.278	-106.880	-30.956	-34.780	-122.699	13.595	7.651	-122.452	-115.311	-8.786	14.524	-115.369	-108.786	-108.449	-100.906	-5.681	-101.471	-8191	255	
795.178	1	1	0	0	0.11571	0.41086	0.27756	0.12857	0.21727	0.25154	0.128	0.071911	0.15697	0.13042	0.010214	0.033359	0.17926	0.12031	0.1485	0.23123	-2.2375	-3.1896	-2.8312	-3.0083	-2.9833	-2.8958	-3.0833	-3.1604	-2.8417	-3.1458	-3.0104	-2.9188	-3.1188	-2.8312	-2.8708	-3.2375	-23.982	191.054	219.179	181.426	-107.193	-52.545	195.172	196.424	148.665	-56.932	-102.521	220.202	207.469	87.471	174.621	118.499	0.00011369	0.00015963	4.7617e-05	808.74	1.7185e-06	1.4252e-06	878.33	163.06	1.9732e-06	2.1241e-06	221.94	63.924	49.813	15.085	2.16e-06	21.046	0.00019286	0.00021578	6.4181e-05	791.64	2.5025e-06	2.6632e-06	864.85	161.55	2.7942e-06	2.4489e-06	220.41	64.111	50.368	15.187	2.5731e-06	21.237	-104.604	-41.777	-15.333	-122.824	0.942	13.147	-122.423	-115.379	-4.602	3.891	-115.974	-108.683	-108.250	-100.636	-16.988	-101.700	-8191	255	
795.274	1	1	0	0	0.22607	0.057123	0.089268	0.13554	0.1562	0.13741	0.13357	0.078311	0.08972	0.13231	0.096779	0.14692	0.14238	0.081975	0.11429	0.19716	-2.2708	-3.1437	-2.85	-2.9271	-3.1917	-2.9854	-3	-3.2021	-2.7896	-3.1083	-2.975	-2.9625	-3.2313	-2.9625	-2.9437	-3.0771	-114.293	117.634	-77.988	199.919	-15.862	224.155	130.956	170.648	55.293	214.422	-111.620	201.013	-74.004	128.300	-23.762	121.653	0.00011136	0.00015381	5.8806e-05	804.97	2.3323e-06	4.0726e-06	876.25	161.55	1.257e-06	2.2235e-06	222.09	63.533	49.836	14.943	2.1569e-06	20.999	0.00020143	0.00022289	5.9402e-05	791.11	2.4112e-06	2.2897e-06	863.81	160.94	2.4527e-06	2.2875e-06	220.23	64.027	50.246	15.08	2.231e-06	21.236	-102.103	-61.039	-58.135	-122.651	18.554	20.768	-122.396	-115.177	41.717	70.649	-115.504	-108.594	-108.181	-100.646	13.239	-101.312	-8191	255	
795.369	1	1	0	0	0.34395	0.20073	0.040172	0.033814	0.17224	0.18041	0.097326	0.18509	0.15299	0.10302	0.084047	0.18615	0.09742	0.20207	0.14092	0.071318	-2.525	-2.8688	-2.9437	-2.8146	-3.0479	-2.6667	-3.0938	-3.2229	-2.8438	-2.8604	-3.0625	-2.7938	-3.2896	-2.8625	-2.8771	-3.3458	-38.781	-113.366	-28.788	46.706	-25.664	225.703	-31.714	120.615	-115.796	97.287	-20.684	182.228	-95.533	118.588	214.476	166.646	0.00010579	0.00026855	9.4291e-05	800.43	1.2442e-06	2.8755e-06	874.21	162.31	1.7912e-06	2.8655e-06	220.77	63.384	49.924	14.951	2.4377e-06	21.119	0.00018649	0.00023483	5.9362e-05	785.7	2.3107e-06	2.3242e-06	861.43	161.16	2.4442e-06	2.4716e-06	219.94	63.986	50.253	15.118	2.2958e-06	21.274	-100.330	-21.669	-23.966	-122.548	58.575	8.797	-122.640	-115.217	12.438	31.962	-115.391	-109.633	-108.181	-100.930	2.071	-101.421	-8191	255	
795.465	1	1	0	0	0.12235	0.10074	0.17054	0.32302	0.21728	0.21127	0.093612	0.18466	0.083634	0.24598	0.14978	0.24479	0.096242	0.10989	0.20134	0.25772	-2.2792	-2.9542	-3.0083	-2.8396	-3.2021	-2.975	-2.9	-3.2646	-2.8604	-2.9542	-3.2938	-2.8521	-3.1708	-2.8354	-2.8917	-3.0521	31.920	16.425	125.844	130.755	-2.196	-117.223	-99.783	207.682	127.698	141.258	115.966	73.984	181.893	167.071	108.086	23.693	0.00011319	0.0003341	0.00011413	806.58	8.2304e-07	2.2244e-06	878.23	162.45	1.2666e-06	2.5067e-06	221.57	63.37	49.995	14.993	1.7407e-06	21.121	0.00020891	0.00023338	6.5043e-05	791.25	2.5234e-06	2.5204e-06	866.44	161.17	2.4721e-06	2.6207e-06	220.2	64.091	50.328	15.118	2.4385e-06	21.264	-99.430	-59.978	-33.174	-122.864	28.912	15.495	-122.581	-115.401	1.214	16.761	-115.157	-108.521	-108.336	-100.606	-1.412	-101.535	-8191	255	
795.586	1	1	0	0	0.16745	0.12555	0.055641	0.17092	0.12766	0.1538	0.14284	0.20654	0.10726	0.27293	0.22785	0.13063	0.23194	0.17592	0.099868	0.14374	-2.5625	-2.8187	-3.1271	-2.8417	-3.0083	-3.0271	-2.9854	-3.2167	-2.9729	-2.9458	-3.2062	-2.825	-3.1104	-2.8729	-2.8729	-3.0375	181.450	191.550	58.149	216.932	215.489	46.794	-114.706	38.634	12.082	132.743	212.591	19.508	162.172	-90.067	-50.261	212.745	0.00011922	0.00024518	0.0001037	803.66	2.0643e-06	3.0692e-06	877.44	162.09	1.1363e-06	2.4545e-06	222.77	63.932	50.095	14.958	2.14e-06	21.147	0.0002015	0.00021438	6.3118e-05	790.51	2.6725e-06	2.4465e-06	865.52	161.37	2.5549e-06	2.4986e-06	220.55	64.146	50.355	15.109	2.5621e-06	21.338	-105.126	-48.257	-45.543	-122.647	0.651	27.027	-122.478	-115.191	-0.191	-4.880	-115.833	-108.724	-107.721	-100.892	14.025	-101.621	-8191	255	
795.682	1	1	0	0	0.10783	0.31906	0.071795	0.34046	0.1357	0.16775	0.14655	0.096001	0.39532	0.25714	0.35231	0.10757	0.17196	0.050201	0.14401	0.088529	-2.5563	-2.7562	-3.2562	-2.8563	-2.9292	-3.1688	-2.9375	-3.0729	-3.0396	-2.8708	-3.0396	-2.9354	-2.9333	-3.1833	-2.7875	-3.1896	123.031	-91.259	48.661	-110.959	-63.915	-32.274	-22.765	-124.906	172.566	32.962	-110.151	158.722	-106.443	131.128	200.985	196.765	0.00011737	0.00033121	9.2394e-05	804.52	1.9824e-06	3.2592e-06	880.64	162.7	2.136e-06	2.5751e-06	218.59	63.846	50.186	15.078	2.3827e-06	21.222	0.00020634	0.00023807	6.4235e-05	789.67	2.5399e-06	2.3641e-06	866.07	161.22	2.4305e-06	2.4009e-06	219.8	64.186	50.37	15.166	2.3771e-06	21.326	-96.265	-53.555	-43.578	-122.829	12.007	17.705	-122.418	-115.370	14.286	26.522	-115.161	-108.712	-108.301	-100.945	-4.364	-101.375	-8191	255	
795.776	1	1	0	0	0.19275	0.10397	0.16755	0.033927	0.28678	0.078449	0.043165	0.1449	0.13167	0.16792	0.13234	0.066194	0.19974	0.11873	0.27859	0.17283	-2.4333	-2.6875	-3.2104	-2.6083	-2.9292	-3.0458	-2.7083	-3.2375	-2.9354	-3.0521	-3.0771	-2.8958	-2.8854	-3.075	-2.6979	-3.2042	-112.638	25.212	-128.619	168.134	-97.950	-90.089	84.928	89.676	179.482	-32.810	171.014	-110.328	102.564	63.033	91.754	166.787	9.8926e-05	0.00012375	8.9899e-05	800.21	2.6101e-06	2.0018e-06	876.7	162.32	1.8953e-06	2.3472e-06	221.38	63.503	50.292	14.931	2.0503e-06	21.078	0.00018817	0.00021602	5.8501e-05	787.9	2.4802e-06	2.0816e-06	862.83	161.27	2.3453e-06	2.369e-06	220.18	63.925	50.474	15.161	2.3038e-06	21.299	-102.185	-56.141	-40.867	-122.620	21.440	0.286	-122.569	-115.025	25.979	13.706	-115.501	-108.568	-108.117	-100.741	27.312	-101.815	-8191	255	
795.872	1	1	0	0	0.13589	0.060115	0.11322	0.20222	0.26394	0.2072	0.12104	0.067365	0.031517	0.10767	0.37363	0.029774	0.16481	0.020138	0.012708	0.099162	-2.5625	-2.6271	-3.1854	-2.9062	-2.8604	-3.0687	-3.0208	-3.0104	-3.1146	-3.0292	-3.1312	-2.8604	-2.7229	-3.0687	-2.8104	-2.9958	27.230	28.013	82.943	169.776	-28.849	35.757	26.496	23.855	-26.931	138.798	179.822	-62.775	-84.651	192.000	6.463	106.500	0.00011466	0.00029088	6.4652e-05	801.49	2.6349e-06	1.9186e-06	874.3	161.45	1.3654e-06	1.4494e-06	222.09	63.749	49.827	15.271	2.4206e-06	21.02	0.00018711	0.00022231	5.7006e-05	787.76	2.4384e-06	2.3096e-06	862.15	160.82	2.2843e-06	2.4948e-06	220.65	64.17	50.307	15.207	2.594e-06	21.343	-92.641	-58.391	-42.826	-122.366	42.690	99.341	-122.504	-115.245	-12.696	36.552	-114.991	-108.831	-108.205	-101.228	15.955	-101.489	-8191	255	
795.968	1	1	0	0	0.11786	0.2581	0.10655	0.16018	0.23397	0.19026	0.29675	0.058305	0.15638	0.10718	0.17869	0.16808	0.2268	0.2341	0.11521	0.40358	-2.7208	-2.7417	-2.9417	-3.1771	-2.7229	-3.3104	-2.75	-3.0667	-2.9229	-2.6729	-3.0521	-3.1583	-2.7875	-3.1896	-2.9854	-3.0854	-21.639	114.174	183.688	220.458	110.096	50.675	123.023	208.936	-59.555	-38.214	202.747	190.197	-95.983	6.960	74.464	178.461	0.00011346	0.00033596	4.6396e-05	805.44	1.9428e-06	3.6717e-06	878.31	162.68	1.8717e-06	1.4556e-06	221.62	63.748	50.374	15.034	2.3927e-06	21.309	0.00019477	0.00022187	6.3387e-05	791.59	2.657e-06	2.5182e-06	865.66	161.52	2.4049e-06	2.5445e-06	220.11	64.102	50.477	15.204	2.3961e-06	21.408	-94.945	-63.118	-63.671	-122.619	21.729	-1.799	-122.463	-115.380	-29.598	-0.157	-115.510	-108.896	-107.899	-101.203	33.328	-101.522	-8191	255	
796.065	1	1	0	0	0.13441	0.20174	0.2147	0.021245	0.25443	0.11353	0.10139	0.078674	0.19507	0.11303	0.24144	0.097428	0.13061	0.18411	0.19253	0.23574	-2.8333	-2.5479	-3.0312	-3.1292	-2.5187	-3.2917	-2.8354	-2.8646	-3.1875	-2.8083	-3.05	-2.9188	-2.7021	-3.2146	-2.8875	-2.9437	79.538	125.389	4.868	82.629	40.291	163.271	-51.555	-124.664	157.889	82.488	145.773	120.998	1.967	-58.474	-47.831	132.591	0.00010478	0.00027621	9.0016e-05	805.63	1.3686e-06	1.963e-06	879.73	162.59	1.1685e-06	2.7667e-06	221.98	63.506	50.422	14.943	2.6584e-06	21.204	0.00019677	0.00022675	5.9874e-05	790.9	2.6288e-06	2.4929e-06	867.26	161.64	2.4868e-06	2.4651e-06	220.48	64.001	50.44	15.13	2.5173e-06	21.357	-101.355	-16.554	-54.999	-122.432	-4.563	41.853	-122.532	-115.194	-10.196	16.592	-115.207	-108.827	-108.196	-101.626	9.425	-101.472	-8191	255	
796.161	1	1	0	0	0.11183	0.12537	0.2318	0.15996	0.19921	0.12943	0.2925	0.1143	0.13198	0.16699	0.19198	0.16932	0.19748	0.11205	0.13192	0.27373	-2.6958	-2.8333	-3.1083	-2.9313	-2.925	-3.0333	-3.1208	-2.8479	-3.2062	-2.6083	-3.2479	-3.0229	-2.7792	-3.0083	-2.9917	-2.8604	47.130	65.187	-63.823	170.337	219.910	-47.331	209.860	-59.700	224.393	178.032	-34.281	90.794	143.605	215.083	-86.671	135.568	0.00011218	8.4361e-05	5.1972e-05	803.19	1.6707e-06	3.2481e-06	874.69	162.1	2.2305e-06	2.0096e-06	222.35	63.842	50.536	15.007	2.0098e-06	21.128	0.00019159	0.00023159	5.8299e-05	790.31	2.4904e-06	2.301e-06	864.33	161.08	2.4002e-06	2.511e-06	220.44	64.119	50.433	15.151	2.3462e-06	21.375	-103.714	3.732	-51.671	-122.651	28.408	26.898	-122.584	-115.306	7.009	22.069	-115.277	-109.027	-108.268	-100.670	15.999	-101.546	-8191	255	
796.257	1	1	0	0	0.22653	0.17984	0.14415	0.30724	0.14453	0.098845	0.13015	0.083916	0.074112	0.2005	0.067831	0.04021	0.1872	0.061763	0.18104	0.1072	-2.8187	-2.6979	-2.7833	-3.0125	-2.7375	-3.1729	-2.8604	-2.9292	-3.1458	-2.8438	-3.1583	-3.0646	-2.7062	-3.0083	-2.9896	-2.8458	149.227	-108.746	-24.363	207.142	-88.542	107.506	-27.883	-60.460	-76.573	35.981	-81.187	93.539	-79.461	-78.243	224.039	161.147	0.00010358	0.00017993	6.0552e-05	805.02	1.0558e-06	2.9946e-06	874.75	161.95	1.8242e-06	1.3041e-06	222.76	64.164	49.702	14.983	2.8412e-06	21.274	0.00019351	0.00022443	5.9308e-05	789.08	2.6691e-06	2.2541e-06	863.55	161.25	2.2115e-06	2.4867e-06	220.45	64.077	50.226	15.154	2.4554e-06	21.371	-105.386	-42.596	-51.096	-122.835	-16.835	1.573	-122.325	-115.329	28.659	2.430	-115.487	-108.677	-108.104	-101.012	35.988	-101.528	-8191	255	
796.377	1	1	0	0	0.050005	0.10175	0.16016	0.087284	0.10906	0.090545	0.11071	0.083798	0.11718	0.13558	0.29075	0.16253	0.17276	0.19939	0.0083995	0.18459	-2.7667	-2.6458	-2.9354	-3.0417	-2.95	-2.9146	-3.1292	-2.85	-3.1083	-2.9417	-2.8917	-3.1542	-2.775	-2.9333	-3.0896	-2.8063	216.509	-37.033	-57.189	98.054	177.150	37.367	23.141	-127.341	-8.844	178.188	182.229	116.012	-17.954	75.635	63.880	-23.820	0.00012807	0.00019607	7.8481e-05	803.56	1.4045e-06	3.0134e-06	879.76	162.39	1.621e-06	1.4707e-06	222.01	63.58	49.998	15.045	2.139e-06	21.151	0.00019343	0.00022709	6.1112e-05	789.27	2.3724e-06	2.3975e-06	863.86	161.43	2.4943e-06	2.4041e-06	220.08	64.099	50.355	15.163	2.3881e-06	21.362	-101.856	-47.255	-12.108	-122.574	23.348	27.349	-122.656	-115.491	1.452	-10.155	-115.295	-108.962	-108.058	-100.918	31.242	-101.626	-8191	255	
796.474	1	1	0	0	0.21425	0.019249	0.11366	0.07639	0.085323	0.1826	0.20987	0.27449	0.14466	0.040893	0.034443	0.084978	0.20183	0.18036	0.031896	0.10418	-2.6271	-2.8771	-2.9062	-3.0667	-2.6688	-3.1271	-3.1375	-2.6667	-3.0958	-2.9813	-2.75	-3.1354	-2.8417	-3.025	-2.9208	-2.9125	-53.670	181.739	113.408	29.549	-0.317	-105.325	136.072	154.018	54.961	-17.351	-31.456	-75.329	180.731	182.000	-69.013	-47.448	0.00010722	0.00020592	4.925e-05	802.96	2.0399e-06	1.943e-06	877.81	162.48	1.2367e-06	1.1096e-06	221.48	63.591	50.463	15.027	2.3034e-06	21.143	0.00019229	0.00022666	6.2889e-05	789.48	2.7337e-06	2.3716e-06	864.53	161.27	2.4679e-06	2.5024e-06	220.28	64.097	50.381	15.173	2.3213e-06	21.384	-102.102	-38.954	-33.548	-122.221	0.738	63.689	-122.456	-115.283	10.885	69.636	-115.558	-108.832	-108.377	-100.805	-2.214	-101.210	-8191	255	
796.545	1	1	0	0	0.031904	0.17884	0.25685	0.12573	0.10994	0.16143	0.32546	0.21117	0.22713	0.090801	0.46607	0.2056	0.044034	0.20797	0.24692	0.39006	-2.5646	-3.0563	-2.7229	-3.2625	-2.7562	-3.0667	-3.0187	-2.8042	-2.9062	-2.9562	-2.5062	-3.125	-2.7458	-3.0875	-3.0312	-2.9062	-1.093	36.866	-13.714	-113.609	143.304	-131.554	136.255	181.663	206.816	95.372	128.462	18.376	134.292	95.075	128.594	176.998	0.00010407	0.00018133	6.4846e-05	802.9	2.3072e-06	2.9625e-06	875.53	162.95	7.2359e-07	1.5814e-06	221.5	63.613	50.273	15.002	1.9704e-06	21.258	0.00020073	0.00021157	6.8112e-05	789.96	2.6589e-06	2.5117e-06	863.86	161.21	2.5757e-06	2.3409e-06	220.36	64.114	50.376	15.147	2.3607e-06	21.397	-101.200	-58.463	-51.570	-122.459	38.129	-4.382	-122.362	-115.283	54.266	58.576	-115.524	-108.391	-108.084	-100.845	39.253	-101.561	-8191	255	
796.666	1	1	0	0	0.47148	0.095957	0.13926	0.13096	0.045292	0.43761	0.31418	0.16884	0.23564	0.10147	0.20535	0.16353	0.19692	0.082614	0.22973	0.18717	-2.675	-2.9917	-2.7021	-3.3063	-2.8708	-2.9604	-3.3	-2.9062	-3.0146	-2.9938	-2.8042	-2.9854	-3.0333	-2.8812	-3.1729	-2.6729	-7.902	109.432	100.218	62.232	139.727	135.410	143.406	-76.382	-112.542	15.413	94.235	-4.417	-18.096	192.364	120.445	74.985	0.00012241	0.00026951	9.8574e-05	801.34	2.274e-06	3.4977e-06	876.77	162.7	1.2136e-06	1.8906e-06	223.13	63.564	50.282	14.896	2.1674e-06	21.252	0.00020313	0.00023768	6.9794e-05	789.31	2.6817e-06	2.4692e-06	865.17	161.36	2.4943e-06	2.4084e-06	221.02	64.186	50.404	15.11	2.3677e-06	21.4	-100.162	-67.685	-55.438	-122.623	23.853	29.762	-122.461	-115.318	-14.376	16.617	-115.755	-109.052	-108.583	-100.415	27.133	-101.664	-8191	255	
796.762	1	1	0	0	0.34718	0.12226	0.58823	0.19115	0.13989	0.0755	0.39923	0.12103	0.19387	0.20398	0.099789	0.15061	0.205	0.26178	0.083764	0.21877	-2.4771	-2.8292	-2.7812	-3.2271	-2.9708	-2.7354	-3.2229	-2.9896	-2.9813	-3.0667	-2.7646	-3.1792	-2.9313	-2.8604	-3.3229	-3.0479	-130.702	-46.758	-78.629	-61.755	111.847	222.507	160.995	180.415	154.470	82.923	194.323	-5.780	81.972	86.909	-104.608	-27.019	0.0001114	0.00029136	5.8608e-05	801.41	1.0355e-06	2.4759e-06	877.72	162.5	1.8853e-06	1.4973e-06	222.74	63.844	50.295	15.078	1.5346e-06	21.007	0.00019951	0.00023135	6.7735e-05	789.15	2.6283e-06	2.5721e-06	863.67	161.4	2.6126e-06	2.4408e-06	220.71	64.139	50.358	15.159	2.422e-06	21.35	-98.740	-57.002	-43.508	-122.701	15.116	22.180	-122.347	-115.446	19.649	41.859	-115.426	-108.853	-107.671	-100.667	-9.852	-102.034	-8191	255	
796.858	1	1	0	0	0.035094	0.2232	0.094641	0.25528	0.093762	0.18648	0.063644	0.21549	0.11101	0.037923	0.11491	0.087999	0.087697	0.071765	0.14848	0.18744	-2.4229	-2.85	-2.7521	-3.1729	-2.9646	-2.7562	-3.125	-2.7896	-2.9458	-3.0521	-2.9792	-3.0229	-2.9854	-2.9083	-3.2354	-2.9667	-81.570	-51.967	50.055	162.640	54.547	203.865	-100.673	164.364	225.363	97.900	66.651	-59.716	140.801	195.870	131.580	170.325	0.00010923	0.00030813	5.1822e-05	803.94	6.5623e-07	2.8325e-06	877.83	161.6	1.3606e-06	1.0967e-06	221.66	63.229	50.238	15.064	1.5903e-06	21.166	0.00020916	0.00022366	6.6954e-05	790.47	2.64e-06	2.4654e-06	863.88	161.45	2.579e-06	2.3247e-06	220.73	63.952	50.313	15.165	2.3442e-06	21.33	-102.538	-29.277	-22.802	-122.789	29.830	24.001	-122.453	-115.322	-0.444	41.317	-115.302	-108.919	-108.211	-100.670	-33.568	-101.724	-8191	255	
796.954	1	1	0	0	0.22306	0.26519	0.19044	0.23125	0.12576	0.041578	0.064455	0.15091	0.1537	0.093799	0.14334	0.097774	0.056023	0.1418	0.17484	0.069865	-2.3854	-3.025	-2.6229	-3.1937	-3.1479	-2.6292	-3.3958	-2.975	-2.9562	-3.2417	-2.9062	-3.1583	-3.0917	-2.8771	-3.1562	-2.8417	194.855	168.399	194.691	167.605	153.102	-18.399	179.071	-19.414	96.854	-116.046	157.965	173.234	192.439	2.122	199.937	-27.799	0.00011996	0.00011701	6.4305e-05	804.26	2.9235e-06	2.1008e-06	879.25	161.54	1.5361e-06	2.2173e-06	221.46	63.882	49.888	15.006	1.2342e-06	21.008	0.00019948	0.00021878	6.6766e-05	790.09	2.6288e-06	2.5107e-06	865.19	160.87	2.5535e-06	2.2956e-06	220.48	64.284	50.341	15.192	2.4604e-06	21.336	-103.031	-22.561	-35.779	-122.721	37.210	12.169	-122.392	-115.288	26.295	-12.753	-115.382	-108.380	-108.632	-100.576	44.922	-101.928	-8191	255	
797.073	1	1	0	0	0.040054	0.066827	0.090956	0.11604	0.26091	0.080453	0.10741	0.16843	0.38251	0.062663	0.134	0.22767	0.23034	0.097941	0.14415	0.11797	-2.4708	-3.2562	-2.8521	-3.1979	-3.2167	-2.8125	-3.2167	-3.1104	-2.6854	-3.2167	-2.7729	-3.0083	-3.1146	-2.9125	-3	-2.8854	-18.102	-21.292	200.458	125.414	25.185	3.021	164.855	210.204	206.840	154.688	-92.631	203.988	69.771	-0.154	-111.871	186.446	0.00011853	0.00017297	5.0229e-05	803.71	1.5018e-06	1.6104e-06	878.32	163.13	1.0001e-06	2.1748e-06	222.03	63.512	49.693	15.09	3.7709e-06	21.02	0.0002014	0.00022501	6.1543e-05	788.77	2.3243e-06	2.4665e-06	865.6	161.86	2.4442e-06	2.2416e-06	220.83	64.25	50.263	15.17	2.4479e-06	21.288	-99.633	-49.204	-21.370	-122.728	74.186	37.762	-122.431	-115.417	-12.220	43.939	-115.601	-108.555	-108.395	-100.801	16.713	-101.640	-8191	255	
797.169	1	1	0	0	0.12575	0.13638	0.2944	0.25911	0.23844	0.035299	0.065626	0.099175	0.10654	0.11547	0.06096	0.11739	0.14723	0.15511	0.028415	0.13498	-2.2229	-3.175	-2.7521	-2.9104	-3.1625	-2.8354	-3.2396	-3.0083	-2.8083	-3.2521	-2.9542	-2.8646	-3.2417	-2.8167	-3.0687	-2.9708	225.470	-126.964	10.136	116.290	81.664	-116.399	191.496	-124.439	2.887	-1.995	121.275	-29.254	0.651	164.991	-107.485	-119.955	0.00010767	0.00018506	7.6016e-05	800.49	1.2174e-06	3.2959e-06	874.46	162.05	1.5495e-06	2.0859e-06	222.41	64.014	49.995	15.094	1.811e-06	20.916	0.00018714	0.00021157	6.1583e-05	785.92	2.2971e-06	2.4223e-06	862.29	160.85	2.2228e-06	2.2248e-06	220.79	64.138	50.285	15.179	2.24e-06	21.285	-95.635	-52.477	-47.183	-122.695	30.267	6.032	-122.297	-115.374	8.067	30.013	-115.262	-109.003	-108.190	-100.831	-30.811	-101.661	-8191	255	
797.266	1	1	0	0	0.099883	0.17098	0.1258	0.12206	0.05919	0.21242	0.26756	0.36112	0.029052	0.15106	0.26387	0.13629	0.0095012	0.28069	0.17415	0.22464	-2.4125	-3.0062	-2.8521	-3.0167	-3.2313	-2.8375	-3.3083	-3.1333	-2.9562	-3.0875	-3.1229	-2.8667	-3.1979	-2.8542	-2.9417	-3.1458	50.135	-10.951	-0.845	122.712	-46.586	220.379	14.768	197.720	-94.312	198.838	174.555	214.195	-40.555	174.638	-23.456	147.631	0.00012506	0.00026545	5.2524e-05	802.4	2.442e-06	2.3419e-06	877.29	163.2	1.4157e-06	1.8669e-06	221.83	63.74	49.967	15.323	1.258e-06	21.154	0.00019485	0.00020732	5.6805e-05	788.21	2.4962e-06	2.3996e-06	862.8	161.51	2.4849e-06	2.1822e-06	220.34	64.035	50.362	15.217	2.2295e-06	21.342	-95.970	-60.049	-36.210	-122.565	15.472	37.777	-122.306	-115.312	33.504	2.527	-115.515	-109.038	-108.012	-100.997	-13.797	-101.038	-8191	255	
797.362	1	1	0	0	0.11977	0.06278	0.18422	0.14013	0.068716	0.1161	0.11504	0.20241	0.031545	0.051005	0.12159	0.18318	0.23173	0.038188	0.14398	0.19089	-2.2313	-3.0542	-2.9938	-3.0417	-2.9354	-2.9208	-3.2292	-3.3375	-2.6708	-3.1521	-3.0396	-2.9688	-3.1104	-2.975	-2.85	-3.1625	96.488	-103.389	-102.003	194.222	192.825	-41.297	131.701	-62.890	-77.649	129.238	-112.941	84.763	-110.849	43.460	-59.544	-49.579	0.00011517	9.3259e-05	7.7997e-05	804.36	2.2473e-06	2.3592e-06	876.53	162.66	1.2899e-06	3.156e-06	221.88	63.359	49.795	14.949	1.5506e-06	21.044	0.00019995	0.0002138	5.5337e-05	789.4	2.3981e-06	2.2455e-06	862.84	161.28	2.4229e-06	2.3118e-06	220.29	64.116	50.374	15.182	2.2814e-06	21.36	-92.339	3.382	-45.810	-122.370	50.883	36.245	-122.427	-115.059	-10.859	15.956	-115.383	-108.263	-108.134	-101.300	-0.908	-101.578	-8191	255	
797.458	1	1	0	0	0.10629	0.043024	0.11318	0.16087	0.18509	0.12189	0.20214	0.052004	0.20153	0.035778	0.18806	0.089882	0.14566	0.18681	0.052063	0.042266	-2.3542	-2.8833	-3.1167	-2.7271	-3.1688	-2.9208	-3.0667	-3.0917	-2.6479	-2.9896	-3.1583	-2.7854	-2.9688	-2.8042	-2.7458	-3.0104	-69.339	151.191	68.550	-68.453	70.563	-67.898	193.606	38.937	-79.851	187.081	152.942	157.667	211.698	-93.329	166.344	180.034	0.00011465	0.00019126	7.9075e-05	804.59	2.095e-06	2.5276e-06	875.35	162.43	1.3904e-06	1.7414e-06	221.8	63.701	49.944	15.024	1.8045e-06	21.12	0.00019431	0.0002063	5.7828e-05	788.82	2.4379e-06	2.3441e-06	863.3	161.11	2.3803e-06	2.2443e-06	220.48	64.08	50.313	15.161	2.3322e-06	21.33	-107.392	-25.920	-73.745	-122.863	28.787	-3.160	-122.501	-115.492	2.707	34.754	-115.289	-108.704	-108.530	-100.973	-30.861	-101.228	-8191	255	
797.554	1	1	0	0	0.041403	0.1128	0.091077	0.17242	0.2348	0.29605	0.19209	0.18202	0.25401	0.10776	0.050027	0.13077	0.020106	0.31782	0.06074	0.21328	-2.2292	-2.9833	-2.9375	-2.8042	-3.2042	-2.7708	-3.0208	-3.4313	-2.8021	-3.0521	-3.0687	-2.8021	-2.9854	-3.0125	-2.8333	-3.1521	-107.993	-4.318	-83.828	-102.594	33.305	164.076	-129.354	209.040	-4.575	-112.346	-118.369	10.420	163.103	217.151	-10.744	175.191	0.00011995	0.00015305	6.6173e-05	799.57	1.3304e-06	1.9536e-06	871.94	161.32	6.381e-07	3.212e-06	222.98	63.124	50.092	15.035	2.1124e-07	21.201	0.00020168	0.00021824	5.7141e-05	788.28	2.351e-06	2.3447e-06	861.16	161.11	2.3113e-06	2.3442e-06	220.42	63.799	50.262	15.177	2.2684e-06	21.359	-96.431	-58.302	-53.255	-122.312	-4.756	38.140	-122.556	-115.219	-37.088	14.834	-114.970	-108.818	-108.329	-101.021	119.274	-101.338	-8191	255	
797.675	1	1	0	0	0.17385	0.069436	0.27412	0.18131	0.18173	0.12529	0.2608	0.14493	0.25527	0.081421	0.16194	0.26924	0.13376	0.39689	0.19028	0.15947	-2.2979	-3.0687	-3.025	-2.7125	-3.0667	-3.0021	-2.8896	-3.075	-2.9042	-2.975	-3.1146	-2.85	-3.1229	-3.1125	-2.5563	-3.2229	217.730	162.547	-74.999	139.611	104.480	131.116	169.163	-92.328	151.606	24.273	195.013	37.145	-69.926	140.052	-21.982	101.064	0.00012502	0.00028469	6.6264e-05	803.63	1.4573e-06	1.2449e-06	876.26	163.15	1.55e-06	1.6384e-06	220.25	63.604	50.262	15.18	3.0214e-06	21.16	0.00018191	0.00020567	5.5135e-05	787.52	2.2136e-06	2.1743e-06	861.3	161.15	2.3335e-06	2.2702e-06	219.98	63.946	50.295	15.216	2.2998e-06	21.315	-99.124	-23.823	-56.718	-122.735	2.502	51.106	-122.652	-115.522	18.197	-2.062	-115.745	-108.804	-107.946	-100.817	4.643	-101.733	-8191	255	
797.769	1	1	0	0	0.08594	0.22579	0.10732	0.2602	0.063801	0.18046	0.22173	0.17211	0.059391	0.10365	0.2797	0.22877	0.13572	0.011202	0.10751	0.18281	-2.3063	-2.9562	-3.1562	-2.9437	-3.0687	-3.0958	-2.8479	-3.1875	-2.9229	-2.6167	-3.1271	-2.8	-2.9729	-3.0125	-2.7521	-2.9771	-2.108	-18.394	165.208	116.441	183.371	-131.502	181.338	70.292	59.588	-78.061	186.320	172.237	206.044	219.493	147.185	-96.209	0.00010891	0.00012767	6.2016e-05	801.29	2.0398e-07	2.9074e-06	873.9	162.99	1.2684e-06	1.9746e-06	224.44	63.639	50.032	15.127	1.0589e-06	21.047	0.00018628	0.00021215	5.2578e-05	784.97	2.2286e-06	2.2482e-06	861.09	161.24	2.2294e-06	2.1033e-06	220.82	64.09	50.328	15.183	2.2924e-06	21.332	-95.246	-40.645	-20.380	-122.815	120.601	-1.921	-122.366	-115.330	17.889	28.662	-115.593	-108.852	-108.292	-100.822	-49.528	-101.331	-8191	255	
797.842	1	1	0	0	0.15184	0.13236	0.25119	0.3038	0.031852	0.16536	0.50471	0.45686	0.071548	0.1533	0.074196	0.15043	0.13618	0.2621	0.19118	0.12972	-2.5458	-2.6396	-3.1271	-2.7417	-3.1688	-3.0417	-3.0062	-3.0458	-3.0479	-2.7083	-3.1437	-2.7979	-3.0458	-3.0208	-2.8125	-3.1417	-50.991	226.405	32.084	187.769	209.929	-98.813	176.644	158.769	-31.067	162.346	105.578	184.025	52.028	-86.649	155.647	137.164	0.00011611	0.00025049	7.5928e-05	800.21	1.4695e-06	2.3145e-06	875.03	162.45	1.8009e-06	2.8576e-06	220.97	63.88	49.921	15.002	2.4331e-06	21.158	0.00017999	0.00021675	5.6199e-05	787.5	2.299e-06	2.1215e-06	860.81	161.39	2.2082e-06	2.2464e-06	219.45	64.159	50.254	15.145	2.1777e-06	21.367	-99.657	-28.027	-16.526	-122.447	50.044	50.605	-122.265	-115.307	-0.876	25.588	-115.675	-108.819	-108.443	-100.601	4.727	-101.164	-8191	255	
797.939	1	1	0	0	0.1405	0.17388	0.15667	0.23806	0.18668	0.19197	0.16152	0.11546	0.13498	0.023489	0.15177	0.084415	0.060092	0.18684	0.11412	0.073596	-2.5771	-2.8896	-3.1021	-3.1542	-2.9625	-3.0479	-2.725	-3.1063	-2.9708	-2.8833	-3.0833	-3.0583	-2.7667	-3.2542	-2.7292	-3.0125	-64.583	124.787	-93.057	104.684	-133.031	0.667	-64.769	-96.888	-120.789	-99.353	-126.066	106.293	177.882	53.414	-86.541	-124.291	0.00011589	0.00022322	8.0945e-05	797.87	2.8093e-06	1.6876e-06	876.26	162.16	8.273e-07	2.6832e-06	220.48	63.928	49.643	15.005	1.5504e-06	21.125	0.00018408	0.00021563	5.4287e-05	784.09	2.4943e-06	2.1431e-06	860.17	161.31	2.175e-06	2.321e-06	219.63	64.132	50.181	15.088	2.3567e-06	21.325	-99.912	-30.044	-45.183	-122.687	21.601	50.210	-122.392	-115.229	26.885	12.115	-114.960	-108.578	-108.217	-100.824	32.146	-101.190	-8191	255	
798.057	1	1	0	0	0.18793	0.068922	0.32147	0.060575	0.19888	0.21439	0.20314	0.1647	0.10177	0.061527	0.24992	0.1565	0.15495	0.15732	0.12735	0.29759	-2.6854	-2.8271	-3.0438	-2.9167	-3.0292	-3.0771	-3.0208	-2.9917	-3.0625	-2.6437	-3.1063	-2.9896	-2.8229	-3.0229	-2.7167	-2.9188	103.567	2.391	-129.388	-95.968	177.071	184.810	185.598	111.765	-123.141	56.787	211.932	209.763	137.026	161.156	-55.637	172.703	0.00010532	0.00018828	7.7783e-05	800.24	2.1282e-06	2.0302e-06	873.26	161.86	1.3777e-06	1.6395e-06	221.01	63.395	49.781	15.034	2.3143e-06	21.08	0.00018238	0.00020741	5.8151e-05	785.81	2.6001e-06	2.1215e-06	859.41	161.03	2.2559e-06	2.5294e-06	219.61	64.049	50.267	15.175	2.3527e-06	21.368	-108.252	-46.774	6.236	-122.609	25.294	-3.409	-122.496	-115.467	15.294	42.452	-115.214	-108.588	-107.911	-100.725	9.985	-101.121	-8191	255	
798.154	1	1	0	0	0.058908	0.13253	0.13272	0.14535	0.13044	0.16348	0.31539	0.19333	0.29193	0.070034	0.23929	0.28812	0.15717	0.15849	0.10536	0.19319	-2.6458	-2.7396	-3.0042	-2.9938	-2.8208	-3.2062	-2.6583	-2.9875	-2.9292	-2.8646	-2.9104	-3.1333	-2.9646	-3.1104	-2.8917	-2.825	52.292	56.800	-100.452	109.156	-95.181	189.873	155.947	190.080	-103.343	170.700	116.188	204.688	-63.122	187.190	166.776	-79.504	0.00011132	0.0002553	4.1756e-05	797.67	1.4045e-06	2.4988e-06	876.13	161.77	1.9075e-06	2.2956e-06	221.97	63.57	50.226	15.094	1.6468e-06	21.179	0.00018776	0.00021505	5.7181e-05	783.17	2.4375e-06	2.0778e-06	859.83	160.83	2.2531e-06	2.3733e-06	220.05	64.101	50.338	15.177	2.3153e-06	21.331	-96.929	-36.091	-34.901	-122.546	-5.098	-4.108	-122.541	-115.058	-5.427	18.090	-115.608	-108.978	-108.114	-100.768	-10.434	-101.648	-8191	255	
798.250	1	1	0	0	0.20646	0.28907	0.18087	0.21807	0.065487	0.10679	0.16031	0.12455	0.27999	0.19943	0.26564	0.048942	0.1372	0.14445	0.088357	0.22132	-2.7104	-2.5479	-2.9375	-3.075	-2.5875	-3.2229	-2.9271	-3.1208	-3.0438	-2.8042	-2.9938	-3.0479	-2.7375	-3.1542	-2.7771	-2.7729	183.512	12.417	192.993	140.015	151.722	181.829	165.516	77.404	0.840	-78.623	73.009	154.261	-3.408	-124.605	41.670	-59.948	0.00011012	0.00040898	4.407e-05	801.61	1.6658e-06	2.3685e-06	871.31	162.05	1.4877e-06	1.7716e-06	220.92	63.273	50.272	14.941	1.9779e-06	20.979	0.00018983	0.00021844	5.772e-05	785.24	2.4025e-06	2.2298e-06	859.36	161.07	2.3061e-06	2.2421e-06	220.24	63.875	50.402	15.105	2.1762e-06	21.249	-101.454	-55.799	-25.769	-122.536	30.886	5.151	-122.608	-115.346	9.463	23.079	-115.276	-109.039	-108.240	-100.686	11.414	-101.614	-8191	255	
798.346	1	1	0	0	0.14068	0.19661	0.041313	0.10765	0.16666	0.14065	0.076897	0.12383	0.026672	0.17243	0.027664	0.095306	0.10268	0.20987	0.17354	0.23621	-2.6437	-2.6188	-2.7104	-3.1063	-2.5646	-3.1229	-3.175	-2.9583	-3.0542	-2.8458	-3.1042	-3.1708	-2.7146	-3.0312	-2.9813	-2.6667	51.895	-54.137	-130.295	169.759	27.773	190.130	-7.542	135.073	187.607	52.919	-84.293	60.714	-75.230	209.047	-124.373	34.600	9.3754e-05	0.00027625	5.2021e-05	799.61	2.6555e-06	2.3934e-06	867.61	161.93	1.9722e-06	2.1878e-06	221.34	63.069	50.173	14.984	2.3558e-06	21.072	0.0001817	0.00021128	5.7814e-05	783.95	2.4355e-06	2.1916e-06	856.86	160.87	2.3477e-06	2.1698e-06	219.98	63.818	50.251	15.087	2.2205e-06	21.288	-105.405	-59.727	-46.919	-122.577	32.902	-8.321	-122.364	-115.400	2.041	54.995	-115.380	-109.186	-108.233	-100.971	48.165	-101.434	-8191	255	
798.467	1	1	0	0	0.04604	0.065187	0.16187	0.15342	0.057804	0.056724	0.27875	0.2761	0.29557	0.14124	0.13556	0.086812	0.21435	0.2531	0.2658	0.066339	-2.4979	-2.7167	-2.8812	-3.0375	-2.7	-3.0521	-2.9792	-2.6437	-2.9875	-2.7333	-2.8604	-3.15	-2.7646	-3.1813	-3.0354	-2.8021	125.206	112.134	174.852	220.902	172.014	186.587	184.656	158.935	-91.773	17.560	99.275	143.059	-92.310	-125.910	-130.139	-5.700	0.00012497	0.00014045	3.6245e-05	796.8	2.0475e-06	2.1942e-06	873.72	160.61	8.1301e-07	2.7853e-06	220.24	63.329	50.163	15.023	1.0152e-06	21.099	0.00019187	0.0002253	5.6428e-05	782.88	2.536e-06	2.1544e-06	858.29	160.51	2.2583e-06	2.1978e-06	219.46	63.969	50.246	15.139	2.3527e-06	21.293	-96.009	-44.861	-28.410	-122.774	14.921	9.077	-122.573	-114.960	9.896	19.613	-114.926	-109.008	-108.284	-101.065	48.194	-101.439	-8191	255	
798.538	1	1	0	0	0.083671	0.014554	0.19636	0.35772	0.042306	0.20388	0.15129	0.17064	0.29984	0.1679	0.083688	0.06721	0.048011	0.17654	0.13461	0.24672	-2.6729	-2.9042	-3.025	-3.2333	-2.7021	-3.0687	-3.1063	-2.6375	-3.0833	-2.9271	-2.8292	-3.325	-2.9062	-2.8688	-3.2062	-2.8458	23.000	6.426	130.889	223.177	29.151	-89.576	-107.403	-81.451	117.589	180.648	52.553	74.290	69.875	-69.040	-99.462	-128.850	0.00011273	0.00024285	7.5373e-05	795.84	2.6125e-06	1.8809e-06	871.77	162.25	5.2646e-07	2.2867e-06	221.37	63.308	49.854	15.016	7.444e-07	21.027	0.00018266	0.00021602	5.8124e-05	782.69	2.2937e-06	2.211e-06	857.53	160.91	2.2573e-06	2.267e-06	219.96	63.752	50.208	15.164	2.2325e-06	21.273	-98.047	-48.582	-9.391	-122.739	-14.207	-15.261	-122.501	-115.191	28.655	4.702	-115.457	-108.952	-108.304	-101.046	-37.863	-101.619	-8191	255	
798.634	1	1	0	0	0.21004	0.2529	0.14026	0.074945	0.13888	0.20806	0.12778	0.24946	0.13859	0.23818	0.13846	0.25681	0.22867	0.20292	0.19288	0.15526	-2.7792	-2.8854	-2.8833	-3.3333	-2.6354	-2.9833	-3.2604	-2.8625	-3.1	-2.9188	-2.875	-3.3167	-2.8667	-3.0563	-3.2417	-2.7542	149.784	110.708	35.964	-121.210	-130.630	168.989	118.970	149.074	56.893	58.035	43.425	222.467	157.820	171.243	182.853	152.736	0.00010172	8.0958e-05	5.2838e-05	797.95	2.0202e-06	1.7933e-06	871.69	162.38	1.9842e-06	6.1071e-07	220.85	63.718	49.628	15.119	2.0061e-06	21.241	0.00018297	0.0001916	5.9941e-05	784.12	2.3199e-06	2.1603e-06	858.08	160.88	2.2271e-06	2.3555e-06	219.68	64.027	50.129	15.199	2.3188e-06	21.319	-99.534	-38.285	-22.173	-122.736	34.422	11.166	-122.679	-115.511	-5.749	22.126	-115.576	-108.692	-108.121	-100.894	22.780	-101.279	-8191	255	
798.755	1	1	0	0	0.12751	0.13061	0.10357	0.33729	0.18366	0.10853	0.32985	0.1781	0.068952	0.22107	0.086717	0.032044	0.13825	0.034555	0.26887	0.16353	-2.7625	-3.0583	-2.7125	-3.2667	-2.9479	-2.8271	-3.3375	-3.0521	-2.9667	-3.0271	-2.9479	-2.9979	-3.0146	-2.8187	-3.1854	-2.8729	117.119	108.936	22.511	199.880	2.827	130.341	136.327	5.004	84.775	202.741	129.612	-92.523	204.796	28.558	-45.491	134.611	9.7597e-05	0.00028796	6.8876e-05	793.29	1.6414e-06	2.1019e-06	867.48	161.44	1.7776e-06	3.4413e-06	220.32	63.541	49.759	15.063	3.1976e-06	21.132	0.0001801	0.00020799	5.8204e-05	781.93	2.4554e-06	2.3506e-06	856.94	160.36	2.2294e-06	2.2059e-06	219.17	63.963	50.144	15.195	2.1128e-06	21.306	-104.488	-51.917	-33.834	-122.639	-17.088	60.016	-122.402	-115.087	12.827	29.567	-115.286	-108.686	-108.159	-101.046	22.725	-101.792	-8191	255	
798.849	1	1	0	0	0.15395	0.1685	0.12159	0.31757	0.25283	0.10953	0.059295	0.06694	0.049684	0.078452	0.16008	0.19809	0.2007	0.31283	0.24891	0.37615	-2.6354	-3.0771	-2.6542	-3.0396	-2.9208	-2.9208	-3.3063	-2.9417	-2.8854	-3.0729	-2.9042	-3.0312	-3.1625	-2.7125	-3.2667	-2.85	69.312	26.773	222.233	-114.430	191.806	-101.519	193.905	-70.448	-97.339	23.485	190.718	189.896	-41.361	-79.838	58.885	196.405	0.00011472	0.00029695	4.6983e-05	798.91	5.1166e-07	1.793e-06	868.48	160.84	1.3857e-06	3.4236e-06	222.16	63.241	49.945	15.046	2.6813e-06	20.932	0.00019431	0.00020712	5.9631e-05	782.36	2.4156e-06	2.2519e-06	857.51	160.54	2.2867e-06	2.0871e-06	220.44	63.919	50.174	15.162	2.1851e-06	21.259	-95.065	-31.348	-49.055	-122.531	29.713	-23.878	-122.534	-115.258	10.593	0.786	-115.401	-108.712	-108.005	-100.417	7.332	-101.387	-8191	255	
798.947	1	1	0	0	0.033003	0.16504	0.014193	0.18519	0.29277	0.18019	0.18036	0.24278	0.085193	0.055327	0.22966	0.19709	0.26091	0.11574	0.13213	0.032314	-2.6229	-3.25	-2.6188	-3.1063	-2.8896	-2.7917	-3.2625	-2.6979	-2.9062	-3.2146	-2.6979	-2.9417	-3.0875	-2.6979	-3.1937	-2.9542	-14.748	-71.442	-45.947	-120.453	-118.086	-129.297	149.489	76.076	48.020	14.536	-17.643	129.231	167.610	195.223	-57.099	77.521	0.00011064	0.00017884	8.556e-05	798.6	1.0459e-06	2.1842e-06	869.55	161.61	1.3026e-06	2.9866e-06	222.29	63.572	49.816	14.934	1.8434e-06	20.89	0.00019428	0.00019451	5.9389e-05	783.69	2.3971e-06	2.1485e-06	855.58	160.54	2.3458e-06	2.078e-06	219.87	63.912	50.163	15.091	2.0824e-06	21.277	-97.117	-49.374	-59.316	-122.268	-22.644	13.458	-122.566	-115.117	2.123	24.607	-115.496	-109.067	-108.078	-100.933	-9.618	-101.948	-8191	255	
799.066	1	1	0	0	0.21836	0.070406	0.13735	0.18898	0.07652	0.047154	0.24304	0.21176	0.12435	0.1552	0.28032	0.14452	0.16	0.19722	0.085381	0.2896	-2.3292	-3.1208	-2.7167	-3.0167	-3.0479	-2.7562	-3.1104	-2.9583	-3.1188	-3.1479	-2.7188	-2.8771	-3.0083	-2.7938	-3.0521	-3.1542	215.798	40.765	-73.720	201.283	89.691	18.974	-131.989	96.649	211.299	215.915	-131.655	-6.110	-60.671	-16.377	-44.509	98.755	0.00012028	0.00040988	5.3085e-05	791.57	7.3853e-07	1.59e-06	868.7	162.4	2.0628e-06	2.8335e-06	221.08	63.48	49.887	15.113	2.4522e-06	21.039	0.00018248	0.00021162	5.8878e-05	781.19	2.3734e-06	2.2309e-06	857.58	161.24	2.2985e-06	2.1887e-06	219.56	63.894	50.221	15.191	2.1203e-06	21.267	-104.822	-20.515	-52.199	-122.490	40.877	32.889	-122.431	-115.358	-14.124	15.421	-115.240	-108.636	-108.028	-100.877	25.961	-101.516	-8191	255	
799.138	1	1	0	0	0.13022	0.19821	0.22741	0.22083	0.30163	0.12134	0.089383	0.27579	0.10017	0.14151	0.094995	0.25746	0.059178	0.31619	0.028393	0.14301	-2.4562	-3.0146	-2.75	-2.8646	-3.0521	-2.7708	-3.0333	-2.9646	-3.05	-3.1562	-2.7062	-3.1	-3.0396	-2.7521	-2.8229	-3.0208	202.371	211.619	-98.169	148.973	103.230	9.116	104.533	203.657	-45.226	-56.614	8.856	204.288	-69.100	-110.186	-109.559	-39.310	0.00010792	0.00026526	9.4223e-06	797.84	2.9016e-06	1.4198e-06	872.35	161.75	1.2814e-06	1.4257e-06	220.97	63.738	50.494	14.927	1.3635e-07	21.102	0.00019433	0.00020485	5.8258e-05	782.74	2.2699e-06	2.3425e-06	857.18	160.48	2.3302e-06	2.2551e-06	220.21	63.933	50.312	15.142	2.1258e-06	21.362	-103.948	-50.155	-21.424	-122.610	29.976	23.355	-122.367	-115.295	39.515	-31.125	-115.505	-108.893	-108.182	-101.214	-20.201	-101.180	-8191	255	
799.234	1	1	0	0	0.15547	0.16412	0.20885	0.10691	0.15983	0.11475	0.22112	0.17773	0.21769	0.089828	0.051918	0.20435	0.12939	0.3024	0.21927	0.27102	-2.4562	-3.0417	-2.8417	-3.0104	-3.0583	-2.8479	-3.2188	-3.1792	-2.8333	-3.2042	-3.0792	-2.7146	-3.1521	-2.8937	-3.1333	-3.0271	-19.191	53.313	146.486	131.284	54.492	-95.163	190.820	34.842	81.865	177.027	140.752	95.691	-104.683	183.348	179.565	135.968	9.8285e-05	0.00019471	8.3817e-05	798.21	1.5324e-06	1.947e-06	870.12	160.76	1.4448e-06	3.118e-06	221.75	63.246	49.93	14.888	3.6512e-06	21.062	0.00019118	0.00019151	5.8931e-05	781.43	2.3457e-06	2.2967e-06	858.24	160.28	2.457e-06	2.3512e-06	220.01	63.895	50.192	15.068	2.4684e-06	21.31	-97.542	-33.510	-43.506	-122.449	-19.998	-11.092	-122.627	-114.818	1.961	21.060	-115.582	-108.816	-108.303	-101.263	26.123	-101.593	-8191	255	
799.355	1	1	0	0	0.0097044	0.14678	0.053806	0.10561	0.1234	0.47185	0.28709	0.21753	0.20914	0.23063	0.31139	0.11147	0.10407	0.15925	0.28326	0.21434	-2.2833	-2.9896	-2.9104	-2.9271	-3.2313	-2.7271	-3.1167	-3.2042	-2.6437	-3.1479	-2.9938	-2.7979	-3.2542	-2.6875	-2.9896	-3.2062	-131.534	179.434	139.716	-85.442	-40.332	80.748	152.597	75.903	-121.337	-117.640	174.474	5.785	-127.547	-76.349	-4.951	110.735	0.00010094	0.00028494	6.4054e-05	796.24	1.5572e-06	2.0676e-06	869.34	160.86	1.8102e-06	1.787e-06	220.92	63.15	50.036	15.001	1.767e-06	20.911	0.00019539	0.00021297	5.8945e-05	781.74	2.4035e-06	2.4417e-06	856.64	160.63	2.4806e-06	2.2799e-06	219.42	63.922	50.238	15.133	2.4444e-06	21.261	-102.515	-55.099	-2.733	-122.340	-19.160	0.156	-122.535	-115.182	7.059	55.523	-115.174	-108.637	-108.255	-100.706	7.787	-101.978	-8191	255	
799.451	1	1	0	0	0.25816	0.067707	0.036776	0.20209	0.10227	0.15158	0.18876	0.12603	0.072217	0.095542	0.13321	0.14306	0.24369	0.15859	0.21981	0.10146	-2.3979	-2.9437	-3.1521	-2.9062	-2.9583	-2.7771	-3.2396	-2.9958	-2.675	-3.2417	-2.9146	-2.7792	-3.1583	-2.8208	-2.9562	-3.0312	113.567	177.141	25.974	-120.300	29.536	50.550	193.848	155.875	16.529	209.906	-61.021	-102.737	212.506	163.902	-11.791	221.741	0.00011191	0.00017084	3.3083e-05	797.55	1.771e-06	2.8551e-06	868.12	161.74	5.997e-07	2.1766e-06	220.62	63.463	49.829	14.899	2.0674e-06	21.024	0.00019539	0.00020137	5.7868e-05	783.45	2.3131e-06	2.294e-06	855.97	160.84	2.3799e-06	2.3766e-06	219.33	63.965	50.295	15.128	2.3437e-06	21.242	-100.402	-45.116	-82.470	-122.590	20.304	21.444	-122.539	-115.037	-20.710	25.384	-115.322	-108.696	-108.406	-100.788	22.685	-101.352	-8191	255	
799.547	1	1	0	0	0.041311	0.10387	0.15651	0.12562	0.14766	0.29709	0.11083	0.10782	0.1095	0.10006	0.14864	0.11593	0.18452	0.12517	0.080499	0.079411	-2.2646	-3.2396	-2.6833	-2.8104	-3.2208	-2.7542	-3.0396	-3.0938	-2.6729	-3.2875	-3.1604	-2.7625	-3.2896	-2.8104	-2.7875	-3.1083	3.575	13.984	-18.048	177.700	-68.578	-29.916	211.586	175.063	-118.463	-77.200	-27.668	147.256	66.077	141.157	-118.488	-120.921	0.0001057	0.00025183	5.332e-05	797.38	1.8342e-06	1.6275e-06	870.27	161.77	1.0689e-06	1.8436e-06	221.45	63.414	50.176	15.015	1.1197e-06	21.167	0.00019387	0.00020316	5.7531e-05	782.13	2.2651e-06	2.4088e-06	856.9	160.51	2.29e-06	2.2243e-06	220.34	63.865	50.161	15.151	2.3941e-06	21.314	-99.475	-46.377	-32.251	-122.465	17.236	-1.930	-122.204	-115.224	24.936	-10.560	-115.785	-108.601	-108.181	-100.888	21.662	-101.176	-8191	255	
799.643	1	1	0	0	0.26157	0.22056	0.12693	0.071856	0.35819	0.061233	0.033173	0.12173	0.046734	0.15175	0.16702	0.1649	0.1314	0.07888	0.11917	0.089018	-2.3479	-2.9625	-3.0146	-2.6042	-3.2687	-2.7938	-2.9813	-3.2687	-2.8	-2.9896	-3.2292	-2.5292	-2.9896	-2.725	-2.7146	-3.1771	163.158	76.226	192.058	126.510	54.182	207.225	-33.460	68.107	-14.374	-48.782	-99.884	172.294	103.995	4.724	48.907	172.453	0.00011801	0.00021037	5.9857e-05	798.17	9.7151e-07	2.886e-06	870.72	161.55	6.8264e-07	2.6985e-06	220.81	63.626	49.738	14.951	1.5898e-06	21.054	0.00019332	0.00021559	5.2093e-05	782.38	2.5045e-06	2.4228e-06	856.1	160.52	2.3316e-06	2.3264e-06	219.77	64.165	50.09	15.101	2.5467e-06	21.255	-98.589	-66.553	-34.631	-122.361	29.201	13.672	-122.489	-115.366	21.923	13.741	-115.303	-108.782	-107.916	-101.022	-56.479	-101.311	-8191	255	
799.739	1	1	0	0	0.18829	0.11912	0.18108	0.11896	0.080811	0.18929	0.062184	0.099703	0.084553	0.15636	0.21027	0.12308	0.24437	0.22823	0.059075	0.37798	-2.3458	-3.0625	-3.0083	-2.8208	-2.9938	-3.025	-2.8167	-3.1417	-2.8021	-3.0354	-3.3375	-2.7229	-3.2313	-2.9521	-2.7208	-3.0521	-65.358	-125.122	198.963	169.254	17.827	-13.812	75.754	-36.784	177.866	-108.010	-65.395	-41.023	152.844	190.520	106.484	225.041	0.00012236	0.00014027	6.6501e-05	799.63	5.8012e-07	2.655e-06	874.55	161.11	1.2697e-06	8.8266e-07	221.78	63.422	50.328	15.024	2.0353e-06	21.093	0.00019141	0.00020954	5.4893e-05	782.74	2.3734e-06	2.2627e-06	858.27	160.32	2.5152e-06	2.2659e-06	219.59	63.797	50.411	15.164	2.3587e-06	21.315	-101.491	-49.371	-27.431	-122.343	22.656	11.191	-122.286	-114.970	19.710	26.583	-115.207	-108.653	-107.808	-100.703	12.247	-101.627	-8191	255	
799.835	1	1	0	0	0.21151	0.056406	0.099574	0.13367	0.062643	0.056026	0.16712	0.18674	0.13399	0.090444	0.050649	0.094084	0.28343	0.20709	0.051458	0.078358	-2.2896	-2.8917	-3.1354	-2.8542	-3.0458	-3.0229	-2.9646	-3.1292	-2.7771	-2.7958	-3.1771	-2.7562	-2.9354	-3.0396	-2.9083	-3.2188	184.464	-96.570	-111.836	220.652	89.590	127.941	175.985	133.233	174.687	147.175	44.752	143.713	222.141	114.559	-122.124	79.589	0.0001053	0.00030616	5.4059e-05	790.88	1.6649e-06	8.5905e-07	868.09	160.85	1.5197e-06	1.7803e-06	220.51	63.507	49.847	15.032	2.0388e-06	21.041	0.00019581	0.0002109	5.776e-05	781.25	2.4015e-06	2.2714e-06	855.06	160.32	2.3184e-06	2.4878e-06	219.24	63.967	50.119	15.146	2.3298e-06	21.322	-96.518	-42.965	0.660	-122.460	16.307	121.088	-122.396	-115.294	-1.861	14.334	-115.336	-108.743	-108.081	-100.793	31.420	-101.513	-8191	255	
799.931	1	1	0	0	0.10275	0.1191	0.17922	0.17994	0.15065	0.2784	0.35568	0.18768	0.19356	0.26092	0.16435	0.14793	0.099307	0.17879	0.060319	0.047392	-2.6104	-2.9854	-2.8812	-2.6521	-3.0083	-3.0417	-2.8	-2.9583	-3.0521	-2.6688	-3.1875	-2.7104	-2.85	-2.9292	-2.6312	-2.9792	-129.434	-6.164	-120.634	215.063	-29.763	135.640	121.102	131.136	13.561	-50.342	-9.099	150.052	-128.858	-115.948	216.403	137.854	0.00011395	0.00019022	4.128e-05	794.04	1.4205e-06	3.244e-06	869.83	161.98	1.6693e-06	1.9523e-06	221.23	63.517	49.476	14.948	1.887e-06	21.134	0.00019283	0.00020461	5.6589e-05	781.09	2.3384e-06	2.2827e-06	855.68	160.42	2.3557e-06	2.4489e-06	219.45	63.998	50.085	15.112	2.1966e-06	21.272	-96.143	-37.516	-57.306	-122.533	13.485	17.131	-122.645	-115.046	-32.014	14.822	-115.493	-109.003	-107.896	-101.096	28.195	-101.505	-8191	255	
800.028	1	1	0	0	0.12842	0.1704	0.20925	0.23908	0.27422	0.08135	0.086126	0.2381	0.18342	0.018802	0.11312	0.018572	0.26454	0.054447	0.16852	0.070207	-2.5771	-2.6333	-3.1542	-2.7396	-3.1333	-2.875	-3.0646	-3.1229	-3.0875	-2.8812	-3.0333	-3.1333	-2.8146	-3.075	-2.7562	-3.0271	73.198	-131.778	119.026	178.034	-95.808	4.921	179.104	134.564	130.823	-92.967	223.291	206.586	147.399	192.699	168.825	183.362	0.00010393	0.00021039	4.8016e-05	796.1	1.4799e-06	2.9128e-06	867.74	161.39	9.975e-07	2.0384e-06	220.3	62.875	49.762	15.002	3.5225e-06	21.143	0.00019208	0.00020964	5.531e-05	780.11	2.454e-06	2.142e-06	855.53	160.37	2.2186e-06	2.2113e-06	219.3	63.628	50.098	15.117	2.3108e-06	21.25	-100.802	-52.083	-44.843	-122.517	9.011	24.949	-122.463	-115.160	20.442	-5.600	-115.525	-109.077	-107.993	-100.817	46.151	-101.396	-8191	255	
#DATA ENDS
