BOXY.EXE: ISS Imagent and Oximeter Data Acquisition Program Version 0.80
Ascii Record File

#ACQ INFORMATION
2  Detector Channels 
16  External MUX Channels 
1  Auxiliary Channels 
5000  Waveform (CCF) Frequency (Hz)
1  Waveforms Skipped 
30  Waveforms Averaged 
1  Cycles Averaged 
16  Acquisitions per Waveform 
10.0806  Updata Rate (Hz) 

#FILE INFORMATION
TRUE -- External MUX Channel results are PARSED.
FALSE -- AC DC and Phase are NOT grouped.
TRUE -- Companion Program Settings File CREATED.
FALSE -- AC data not excluded
FALSE -- DC data not excluded
FALSE -- Phase data not excluded
FALSE -- Auxillary Chn. data not excluded
Tab delimiters

#CALIBRATION STATE
TRUE -- Waveform Calibration Values APPLIED.


#AUX CALIBRATION VALUES
Val Type	aux-1	

Term	1.0000e+00	
Factor	0.0000e+00	


#WF CALIBRATION VALUES
A = Detector Channel
Val Type	A-AC1	A-AC2	A-AC3	A-AC4	A-AC5	A-AC6	A-AC7	A-AC8	A-AC9	A-AC10	A-AC11	A-AC12	A-AC13	A-AC14	A-AC15	A-AC16	A-DC1	A-DC2	A-DC3	A-DC4	A-DC5	A-DC6	A-DC7	A-DC8	A-DC9	A-DC10	A-DC11	A-DC12	A-DC13	A-DC14	A-DC15	A-DC16	A-Ph1	A-Ph2	A-Ph3	A-Ph4	A-Ph5	A-Ph6	A-Ph7	A-Ph8	A-Ph9	A-Ph10	A-Ph11	A-Ph12	A-Ph13	A-Ph14	A-Ph15	A-Ph16	

Term	0.00000e+00	0.00000e+00	0.00000e+00	0.00000e+00	0.00000e+00	0.00000e+00	0.00000e+00	0.00000e+00	0.00000e+00	0.00000e+00	0.00000e+00	0.00000e+00	0.00000e+00	0.00000e+00	0.00000e+00	0.00000e+00	0.00000e+00	0.00000e+00	0.00000e+00	0.00000e+00	0.00000e+00	0.00000e+00	0.00000e+00	0.00000e+00	0.00000e+00	0.00000e+00	0.00000e+00	0.00000e+00	0.00000e+00	0.00000e+00	0.00000e+00	0.00000e+00	0.00000e+00	0.00000e+00	0.00000e+00	0.00000e+00	0.00000e+00	0.00000e+00	0.00000e+00	0.00000e+00	0.00000e+00	0.00000e+00	0.00000e+00	0.00000e+00	0.00000e+00	0.00000e+00	0.00000e+00	0.00000e+00	
Factor	1.00000e+00	1.00000e+00	1.00000e+00	1.00000e+00	1.00000e+00	1.00000e+00	1.00000e+00	1.00000e+00	1.00000e+00	1.00000e+00	1.00000e+00	1.00000e+00	1.00000e+00	1.00000e+00	1.00000e+00	1.00000e+00	1.00000e+00	1.00000e+00	1.00000e+00	1.00000e+00	1.00000e+00	1.00000e+00	1.00000e+00	1.00000e+00	1.00000e+00	1.00000e+00	1.00000e+00	1.00000e+00	1.00000e+00	1.00000e+00	1.00000e+00	1.00000e+00	X	X	X	X	X	X	X	X	X	X	X	X	X	X	X	X	

B = Detector Channel
Val Type	B-AC1	B-AC2	B-AC3	B-AC4	B-AC5	B-AC6	B-AC7	B-AC8	B-AC9	B-AC10	B-AC11	B-AC12	B-AC13	B-AC14	B-AC15	B-AC16	B-DC1	B-DC2	B-DC3	B-DC4	B-DC5	B-DC6	B-DC7	B-DC8	B-DC9	B-DC10	B-DC11	B-DC12	B-DC13	B-DC14	B-DC15	B-DC16	B-Ph1	B-Ph2	B-Ph3	B-Ph4	B-Ph5	B-Ph6	B-Ph7	B-Ph8	B-Ph9	B-Ph10	B-Ph11	B-Ph12	B-Ph13	B-Ph14	B-Ph15	B-Ph16	

Term	0.00000e+00	0.00000e+00	0.00000e+00	0.00000e+00	0.00000e+00	0.00000e+00	0.00000e+00	0.00000e+00	0.00000e+00	0.00000e+00	0.00000e+00	0.00000e+00	0.00000e+00	0.00000e+00	0.00000e+00	0.00000e+00	0.00000e+00	0.00000e+00	0.00000e+00	0.00000e+00	0.00000e+00	0.00000e+00	0.00000e+00	0.00000e+00	0.00000e+00	0.00000e+00	0.00000e+00	0.00000e+00	0.00000e+00	0.00000e+00	0.00000e+00	0.00000e+00	-7.29439e+01	-1.30021e+02	-1.24914e+02	-1.83134e+02	-5.27761e+01	-7.14236e+01	-1.56866e+02	-1.62015e+02	-4.78778e+01	-6.48767e+01	-1.71930e+02	-1.71556e+02	-1.81736e+02	-1.77926e+02	-6.22738e+01	-1.50417e+02	
Factor	1.73134e-05	1.66260e-04	4.88759e-05	1.86492e-01	1.60179e-06	1.93899e-06	1.62677e-01	5.60871e-02	1.18118e-06	1.74570e-06	9.94639e-02	3.03487e-02	2.65711e-02	9.45456e-03	1.78352e-06	1.32450e-02	1.24241e-05	2.32072e-05	6.46118e-06	9.55684e-02	2.33110e-07	2.58720e-07	7.83537e-02	2.89116e-02	2.27059e-07	2.59205e-07	4.96099e-02	1.52121e-02	1.38846e-02	4.91572e-03	2.39358e-07	6.66233e-03	X	X	X	X	X	X	X	X	X	X	X	X	X	X	X	X	



#DISTANCE SETTINGS
A = Detector Channel
A-1	A-2	A-3	A-4	A-5	A-6	A-7	A-8	A-9	A-10	A-11	A-12	A-13	A-14	A-15	A-16	

2.5000e+00	3.0000e+00	2.5000e+00	3.0000e+00	2.0000e+00	3.0000e+00	1.5000e+00	3.0000e+00	3.0000e+00	3.0000e+00	3.0000e+00	3.0000e+00	3.0000e+00	3.0000e+00	1.5000e+00	3.0000e+00	

B = Detector Channel
B-1	B-2	B-3	B-4	B-5	B-6	B-7	B-8	B-9	B-10	B-11	B-12	B-13	B-14	B-15	B-16	

1.0000e+01	1.0000e+01	1.0000e+01	1.4400e+00	1.0000e+01	1.0000e+01	1.5100e+00	1.9400e+00	1.0000e+01	1.0000e+01	1.9900e+00	2.4900e+00	2.4100e+00	2.9000e+00	1.0000e+01	2.9800e+00	




#DATA BEGINS
time	group	step	mark	flag	A-AC1	A-AC2	A-AC3	A-AC4	A-AC5	A-AC6	A-AC7	A-AC8	A-AC9	A-AC10	A-AC11	A-AC12	A-AC13	A-AC14	A-AC15	A-AC16	A-DC1	A-DC2	A-DC3	A-DC4	A-DC5	A-DC6	A-DC7	A-DC8	A-DC9	A-DC10	A-DC11	A-DC12	A-DC13	A-DC14	A-DC15	A-DC16	A-Ph1	A-Ph2	A-Ph3	A-Ph4	A-Ph5	A-Ph6	A-Ph7	A-Ph8	A-Ph9	A-Ph10	A-Ph11	A-Ph12	A-Ph13	A-Ph14	A-Ph15	A-Ph16	B-AC1	B-AC2	B-AC3	B-AC4	B-AC5	B-AC6	B-AC7	B-AC8	B-AC9	B-AC10	B-AC11	B-AC12	B-AC13	B-AC14	B-AC15	B-AC16	B-DC1	B-DC2	B-DC3	B-DC4	B-DC5	B-DC6	B-DC7	B-DC8	B-DC9	B-DC10	B-DC11	B-DC12	B-DC13	B-DC14	B-DC15	B-DC16	B-Ph1	B-Ph2	B-Ph3	B-Ph4	B-Ph5	B-Ph6	B-Ph7	B-Ph8	B-Ph9	B-Ph10	B-Ph11	B-Ph12	B-Ph13	B-Ph14	B-Ph15	B-Ph16	aux-1	digaux	

655.556	1	1	0	256	0.15215	0.16166	0.18463	0.28171	0.17287	0.29756	0.23965	0.14724	0.42268	0.067069	0.16268	0.17615	0.10996	0.10936	0.06622	0.049732	-2.7854	-3.2146	-3.2521	-2.9854	-3.225	-3.2208	-3.0667	-3.3917	-2.9604	-3.0104	-3.5354	-3.0708	-3.2687	-3.2521	-3.1917	-3.35	79.805	20.469	212.135	276.278	181.066	122.217	326.798	274.960	175.581	54.519	188.036	215.972	54.695	-9.874	23.865	42.070	0.00012554	0.00015196	7.007e-05	1144.6	3.41e-06	1.6649e-06	1243.2	205.68	1.4832e-06	2.2798e-06	298.55	83.807	66.177	19.643	2.0583e-06	27.226	0.00039998	0.00056036	0.00015785	1126.6	6.2095e-06	5.887e-06	1221.5	205.25	5.8912e-06	6.2404e-06	297.41	84.219	66.262	19.854	5.8862e-06	27.571	198.241	43.760	94.275	-8.603	157.521	91.149	-8.279	-0.394	181.933	135.852	-1.290	5.774	6.220	12.783	141.095	12.392	-8191	255	
655.675	1	1	0	0	0.2702	0.11379	0.26231	0.18993	0.11232	0.071531	0.31643	0.11878	0.29191	0.1637	0.17211	0.16513	0.20108	0.098987	0.37243	0.064922	-2.6917	-3.1042	-3.2771	-3.2	-3.2333	-3.0854	-3.15	-3.3479	-3.1271	-3.075	-3.2917	-3.05	-3.1104	-3.3271	-3.0021	-3.2229	97.016	41.370	-6.894	312.404	265.242	267.287	139.400	204.069	130.796	204.338	324.779	283.557	335.893	85.662	122.851	143.950	0.00013191	0.00042226	6.4466e-05	1149.7	3.6387e-06	4.6675e-06	1247.4	205.74	1.6122e-06	8.8258e-07	299.89	83.795	65.821	19.401	2.2811e-06	27.195	0.00038667	0.00055369	0.00015092	1126.1	5.8326e-06	6.0977e-06	1223.9	205.3	5.5861e-06	6.485e-06	297.14	84.324	66.313	19.781	5.7735e-06	27.556	191.518	70.396	48.615	-8.703	152.425	143.602	-8.212	-0.228	176.953	160.229	-1.144	5.732	5.977	12.840	134.680	12.123	-8191	255	
655.746	1	1	0	0	0.11839	0.26608	0.13593	0.099167	0.15526	0.081353	0.17945	0.034137	0.13828	0.12043	0.12018	0.07431	0.38139	0.32835	0.16702	0.16248	-2.7833	-2.9188	-3.175	-3.1229	-3.1896	-3.1417	-3.2	-3.2083	-3.1813	-2.8063	-3.2729	-3.1813	-2.9583	-3.0021	-2.7875	-3.0729	245.094	214.653	309.519	266.258	255.776	289.861	249.838	84.040	41.123	104.089	223.647	321.142	337.416	-17.075	109.333	159.291	0.00012971	0.00042443	7.8569e-05	1146	2.6589e-06	4.2185e-06	1245.4	205.44	1.6908e-06	3.6746e-06	298.55	83.165	66	19.557	2.4173e-06	27.176	0.00037497	0.00056867	0.00014956	1124.6	6.0026e-06	5.846e-06	1221.3	205.17	5.852e-06	6.0902e-06	296.73	84.129	66.355	19.757	5.5367e-06	27.596	198.389	79.995	59.587	-8.772	188.362	115.637	-8.367	-0.251	213.839	146.762	-1.582	5.402	6.120	12.868	151.372	12.402	-8191	255	
655.842	1	1	0	0	0.15937	0.085034	0.061385	0.1698	0.017731	0.23704	0.068276	0.088398	0.10537	0.22152	0.25241	0.22673	0.13884	0.11625	0.18873	0.22964	-2.5354	-2.9313	-3.3396	-3.1229	-2.9396	-3.2729	-3.1979	-3.0938	-3.1479	-2.9125	-3.3292	-3.0458	-2.8167	-3.2167	-2.8688	-3.1917	79.711	279.303	143.185	279.786	74.304	184.042	201.180	140.695	234.511	12.415	-7.302	270.012	36.228	300.028	168.768	137.038	0.00013246	0.00026338	0.00011369	1145.4	2.7386e-06	3.192e-06	1240.6	205.83	3.0585e-06	5.0906e-06	299.82	83.581	66.245	19.525	5.2835e-06	27.303	0.00037661	0.00052081	0.00014583	1123.8	5.7059e-06	5.8654e-06	1219.2	205.12	5.5019e-06	5.8391e-06	297.03	84.126	66.236	19.742	5.7396e-06	27.597	206.578	74.351	93.900	-8.735	183.123	144.312	-8.319	-0.470	165.909	147.382	-1.641	5.721	6.227	12.892	152.472	12.258	-8191	255	
655.939	1	1	0	0	0.12539	0.10695	0.18176	0.34758	0.27654	0.28961	0.21299	0.20384	0.3725	0.17261	0.067623	0.071755	0.10452	0.20915	0.41475	0.21881	-2.7875	-2.8542	-3.2771	-3.1604	-2.8958	-3.2583	-3.1729	-3.1437	-3.175	-2.7562	-3.3354	-3.0687	-2.8771	-3.2375	-2.9646	-2.9667	115.546	71.970	60.980	313.846	70.976	282.004	215.129	265.322	79.616	231.772	137.261	101.363	321.408	7.264	171.563	111.167	0.00012098	0.0005299	4.6658e-05	1142.1	3.0544e-06	2.003e-06	1238.3	205.75	2.38e-06	3.6452e-06	298.25	83.383	65.74	19.58	9.4604e-07	27.181	0.00036692	0.00054634	0.00014819	1120.9	5.7617e-06	5.7511e-06	1217	204.77	5.4892e-06	5.8715e-06	296.81	83.957	66.073	19.767	5.6957e-06	27.513	195.151	87.867	60.224	-8.691	194.262	104.899	-8.286	-0.486	189.829	91.750	-1.696	6.170	6.341	13.324	67.900	12.051	-8191	255	
656.059	1	1	0	0	0.16243	0.33173	0.39632	0.13338	0.16856	0.21027	0.35452	0.013946	0.046664	0.13036	0.15228	0.19845	0.10078	0.22885	0.084898	0.078471	-2.6917	-2.8708	-3.0854	-3.2042	-2.85	-3.1417	-3.1875	-3.3937	-3.4708	-3.0312	-3.2938	-3.2938	-2.9062	-3.2	-3.0271	-3.2125	93.647	78.376	160.657	318.453	310.153	119.934	320.742	99.348	259.484	225.833	310.839	242.296	217.738	-15.426	78.669	281.869	0.00012929	0.00025007	0.0001119	1141.8	3.7918e-06	3.187e-06	1241.8	205.47	2.5469e-06	2.9579e-06	298.18	83.184	65.606	19.446	2.5483e-06	27.311	0.00036141	0.00054281	0.00014645	1121.2	6.0647e-06	5.9333e-06	1218.8	204.87	5.2848e-06	6.1156e-06	296.78	83.743	66.02	19.69	5.6598e-06	27.582	193.252	40.542	69.652	-8.648	205.757	111.412	-8.476	-0.182	194.754	115.278	-1.500	5.712	6.460	12.719	168.271	12.661	-8191	255	
656.155	1	1	0	0	0.20994	0.37846	0.13972	0.2459	0.26462	0.17061	0.34289	0.18273	0.32868	0.038624	0.21828	0.090523	0.22829	0.32042	0.080608	0.088499	-2.9417	-2.8708	-2.9771	-3.1917	-2.8083	-3.2042	-3.3604	-3.0187	-3.3104	-2.9813	-3.1667	-3.4896	-2.9542	-3.2771	-3.0292	-2.8438	32.997	278.557	72.362	300.094	244.522	179.669	288.606	215.863	319.403	119.937	285.416	219.973	302.368	9.389	166.650	105.167	0.00011895	0.00024124	5.0465e-05	1140.6	1.7279e-06	4.0601e-06	1240.5	204.89	1.805e-06	2.6854e-06	299	82.941	65.457	19.399	3.3899e-06	27.151	0.00037127	0.00054614	0.00014958	1122.1	6.0346e-06	6.0902e-06	1219.4	205.05	5.343e-06	5.8429e-06	296.35	83.734	66	19.714	5.6289e-06	27.551	190.682	58.628	83.330	-8.446	210.023	126.725	-8.379	-0.543	169.112	136.949	-1.366	6.027	6.166	13.184	131.422	12.666	-8191	255	
656.252	1	1	0	0	0.20693	0.12161	0.083647	0.35135	0.053404	0.031371	0.17047	0.17252	0.20326	0.15106	0.036859	0.013167	0.17056	0.17492	0.11222	0.12388	-2.9396	-2.9021	-2.9375	-3.3458	-2.9979	-3.0687	-3.1688	-2.975	-3.2646	-3.0542	-3.275	-3.4229	-3.0771	-3.3542	-3.2375	-3.2062	20.625	278.640	120.649	312.898	12.106	225.809	304.792	96.825	89.085	164.621	298.405	55.515	179.007	335.873	96.417	293.878	0.00013024	0.00022372	8.3054e-05	1139.8	3.7363e-06	2.433e-06	1235.6	205.53	2.3184e-06	4.8031e-06	296.35	83.068	65.66	19.424	3.4755e-06	27.119	0.00037679	0.00055233	0.00015049	1121.4	5.9987e-06	6.0956e-06	1215.9	205.02	5.7082e-06	6.0049e-06	295.37	83.73	66.158	19.684	5.9411e-06	27.426	193.348	87.303	133.511	-8.744	170.965	54.537	-8.235	-0.250	171.235	131.209	-1.417	5.863	6.349	12.947	154.927	12.094	-8191	255	
656.348	1	1	0	0	0.25857	0.31259	0.13167	0.07128	0.16452	0.13637	0.40482	0.21057	0.1121	0.10949	0.072655	0.22971	0.063854	0.15436	0.33502	0.30535	-3.1125	-3.2667	-3.0438	-3.4688	-2.95	-2.9792	-3.4104	-3.0396	-3.2188	-2.9667	-2.8854	-3.4125	-2.8583	-3.0104	-3.0458	-2.8646	211.759	13.146	240.457	-4.755	-4.110	82.951	295.697	-17.796	57.812	135.591	70.446	157.167	42.180	175.318	237.912	291.521	0.00010305	0.00027568	0.00011672	1137.8	2.6875e-06	3.188e-06	1235.4	204.36	1.4041e-06	8.612e-07	297.89	82.73	65.26	19.366	1.7909e-06	27.189	0.00037829	0.0005651	0.0001531	1118.5	5.8593e-06	6.1753e-06	1212.7	203.91	5.6363e-06	6.1637e-06	294.51	83.387	65.646	19.596	5.7202e-06	27.4	192.097	72.056	91.138	-8.571	146.866	103.023	-8.469	-0.554	188.696	97.582	-1.182	5.902	5.935	13.112	103.558	12.374	-8191	255	
656.444	1	1	0	0	0.25262	0.17879	0.33037	0.16616	0.028065	0.14453	0.15767	0.19229	0.24833	0.31103	0.20351	0.074199	0.10838	0.33311	0.11982	0.24258	-2.8375	-2.75	-2.7146	-3.3479	-3.0771	-3.3063	-3.4583	-3.0417	-3.1271	-3.2188	-2.7188	-3.1688	-2.8729	-3.0708	-3.2229	-3.0229	156.606	70.479	310.754	287.429	318.717	190.567	299.637	49.681	216.781	170.961	58.032	157.821	298.055	278.192	103.394	8.912	0.00012107	0.00042551	0.00010513	1136.7	1.5855e-06	4.7712e-06	1231.6	203.36	2.5102e-06	1.8418e-06	294.6	82.624	64.833	19.312	3.9375e-06	26.873	0.0003779	0.00054721	0.00015881	1116.6	5.9229e-06	6.1107e-06	1209.6	203.14	5.6415e-06	6.1221e-06	292.92	83.154	65.312	19.526	5.7506e-06	27.243	191.715	83.136	79.934	-8.640	131.558	156.701	-8.472	-0.371	186.434	200.666	-1.095	5.870	6.203	12.851	152.785	12.390	-8191	255	
656.540	1	1	0	0	0.050971	0.17962	0.31685	0.16216	0.093817	0.14949	0.13585	0.1474	0.22011	0.10666	0.091865	0.17144	0.27094	0.10136	0.029788	0.30825	-2.8229	-3.2104	-3.0125	-3.5417	-3.0583	-3.2062	-3.4958	-2.8271	-3	-3.4167	-3.0938	-3.3729	-2.9729	-2.8417	-3.2292	-3.0292	27.718	128.480	265.511	236.582	207.677	270.765	293.635	12.354	77.220	317.553	-14.241	316.129	36.896	309.307	159.981	244.830	0.00011801	0.00021001	8.0955e-05	1129	2.4042e-06	3.9115e-06	1227.2	203.15	1.2512e-06	3.2846e-06	293.46	81.835	64.81	19.297	4.5208e-06	26.92	0.00037355	0.00052912	0.00015126	1110.9	5.8919e-06	5.8988e-06	1206.2	202.79	5.5421e-06	5.7592e-06	291.4	82.659	65.217	19.468	5.7516e-06	27.112	185.703	51.778	82.430	-8.317	185.407	109.521	-8.414	-0.370	173.425	114.557	-1.164	6.014	5.965	12.950	169.851	12.497	-8191	255	
656.636	1	1	0	0	0.109	0.1325	0.23828	0.12071	0.10274	0.24692	0.050718	0.12587	0.11841	0.15479	0.12705	0.090972	0.1936	0.19372	0.3658	0.20986	-2.7792	-2.9813	-2.6104	-3.3021	-3.1521	-2.9813	-3.5458	-2.9833	-3.0625	-3.0792	-2.9396	-3.3229	-3.0896	-2.9792	-3.1312	-2.8854	307.547	125.258	100.911	-11.998	83.746	45.554	228.531	26.965	309.239	5.089	250.963	31.015	248.109	75.042	24.915	-17.005	0.00012005	0.00036314	0.00010976	1123.1	2.4122e-06	4.8221e-06	1221.2	202.78	2.5037e-06	1.705e-06	294.24	82.261	64.703	19.109	2.7934e-06	26.728	0.00037283	0.00053067	0.00015068	1106.8	5.8695e-06	5.9856e-06	1201.1	202.49	5.3898e-06	5.8256e-06	290.86	82.518	65.125	19.411	5.4963e-06	27.056	194.485	72.151	77.029	-8.643	128.534	108.321	-8.352	-0.348	181.435	143.096	-1.150	5.926	6.198	12.896	193.360	12.691	-8191	255	
656.755	1	1	0	0	0.28727	0.16455	0.22127	0.13389	0.065397	0.076175	0.22219	0.24898	0.1657	0.17896	0.036001	0.18665	0.061811	0.16915	0.05274	0.16857	-2.6542	-3.2875	-2.9458	-3.2583	-2.9479	-2.8229	-3.4771	-3.0771	-3.2021	-3.4021	-3.1312	-3.15	-3.0292	-2.8083	-3.2083	-3.1771	150.048	323.042	6.430	161.768	98.015	-12.074	236.438	154.205	-15.910	218.878	38.356	321.580	80.311	29.756	298.554	322.583	0.00011099	0.00019749	3.4305e-05	1129.7	2.9143e-06	2.4395e-06	1220.9	203.44	2.2883e-06	2.0749e-06	292.11	81.953	64.536	19.16	2.9376e-06	26.706	0.0003786	0.00051718	0.0001476	1107.8	5.8151e-06	5.9597e-06	1199.5	202.41	5.5402e-06	5.5583e-06	290.18	82.561	64.945	19.375	5.3327e-06	26.994	189.153	116.308	87.206	-8.576	155.801	124.046	-8.328	-0.675	159.454	113.432	-1.492	6.038	6.356	13.259	157.178	12.607	-8191	255	
656.851	1	1	0	0	0.29636	0.067522	0.27203	0.05198	0.14755	0.20924	0.33567	0.21316	0.11156	0.18125	0.20232	0.25993	0.086472	0.127	0.063319	0.20876	-2.7083	-3.125	-2.7771	-3.1333	-3.1042	-2.9896	-3.5333	-3.3312	-2.9417	-3.3583	-3	-3.1396	-3.1542	-2.9188	-3.3125	-3.0354	188.874	235.006	4.491	74.829	282.246	203.982	285.870	257.301	336.057	330.915	3.040	323.211	22.938	8.872	306.211	26.727	0.0001145	0.00030853	8.6175e-05	1126	2.7997e-06	2.6233e-06	1217.8	202.31	1.8887e-06	2.5596e-06	290.64	81.738	64.363	19.123	4.9239e-06	26.762	0.00036291	0.00050727	0.00015014	1106.1	5.6961e-06	5.8886e-06	1197	201.98	5.4712e-06	5.5562e-06	289.27	82.245	64.907	19.395	5.5436e-06	27.045	200.346	86.394	73.356	-8.689	207.599	121.737	-8.287	-0.759	177.061	131.600	-1.349	6.155	6.402	12.921	142.149	12.373	-8191	255	
656.947	1	1	0	0	0.19423	0.16814	0.25799	0.13037	0.21215	0.12536	0.16364	0.40986	0.22351	0.14147	0.13153	0.074302	0.045314	0.20254	0.086705	0.2359	-2.6437	-3.4167	-2.9646	-3.1354	-3.0417	-2.8479	-3.2167	-3.0417	-2.8792	-3.3229	-3.0417	-3.0896	-3.3729	-3.1125	-3.5	-3.2083	95.819	43.019	166.615	241.541	74.760	126.130	305.192	-13.001	335.949	156.895	326.918	64.425	211.106	145.331	107.347	23.072	0.00011997	0.00029555	9.5296e-05	1126.1	4.0227e-06	2.4853e-06	1217.9	202.41	1.7661e-06	9.8734e-07	290.3	81.355	64.084	19.084	2.8201e-06	26.662	0.0003574	0.00050132	0.00014998	1102.8	5.582e-06	5.9053e-06	1195	201.78	5.6386e-06	5.6399e-06	288.53	82.261	64.758	19.356	5.3746e-06	26.983	198.365	74.664	119.539	-8.841	185.709	112.153	-8.209	-0.454	153.110	97.181	-1.337	5.901	6.258	12.648	147.827	12.435	-8191	255	
657.044	1	1	0	0	0.20003	0.20095	0.31383	0.15621	0.13711	0.060569	0.38695	0.21864	0.26809	0.30281	0.17929	0.15914	0.058561	0.18565	0.17437	0.15793	-2.4979	-3.2521	-2.9604	-3.0646	-3.475	-2.7958	-3.3583	-3.0812	-2.7958	-3.2812	-3.1104	-3.0854	-3.5854	-2.9	-3.2604	-3.3625	253.903	207.772	65.270	104.469	41.128	312.073	232.376	4.371	261.873	336.160	327.204	311.024	220.106	214.215	24.016	309.168	0.00011545	0.00017621	9.8566e-05	1119.7	2.5896e-06	2.8399e-06	1216	202.23	2.0785e-06	2.763e-06	289.92	81.622	64.032	19	3.6841e-06	26.733	0.00035178	0.00051423	0.00014991	1099.5	5.429e-06	5.4326e-06	1192.8	201.77	5.3979e-06	5.6215e-06	288.42	81.953	64.574	19.286	5.402e-06	26.921	189.911	111.065	70.107	-8.709	140.992	109.378	-8.367	-0.675	153.279	146.605	-1.394	5.618	6.673	12.827	138.148	12.309	-8191	255	
657.140	1	1	0	0	0.041562	0.18922	0.37912	0.24259	0.04536	0.0096463	0.13292	0.19334	0.38102	0.23385	0.055324	0.27284	0.1115	0.085905	0.098249	0.17102	-2.3625	-3.2562	-3.0958	-3.2562	-3.5104	-3.075	-3.2458	-3.3375	-2.8896	-3.1646	-3.2229	-3.0479	-3.4125	-3.025	-3.2042	-3.3271	148.705	286.049	199.347	28.665	34.933	123.870	275.111	175.048	103.106	335.428	130.464	-10.290	181.892	159.158	6.000	271.268	0.00011596	0.00023039	0.00010616	1123.1	3.1737e-06	3.7186e-06	1215.7	201.76	2.0523e-07	9.8164e-07	291.27	81.612	63.922	19.132	3.2594e-06	26.482	0.00036506	0.00048972	0.00014341	1099.5	5.6019e-06	5.6396e-06	1191.7	201.12	5.3969e-06	5.8105e-06	288.47	82.032	64.457	19.301	5.3726e-06	26.926	193.587	124.361	73.177	-8.731	199.785	179.113	-8.373	-0.592	223.357	164.445	-1.469	6.003	6.256	13.122	160.046	12.730	-8191	255	
657.236	1	1	0	0	0.24917	0.089963	0.2543	0.05577	0.021499	0.18674	0.18565	0.15393	0.088776	0.2248	0.27743	0.25116	0.12271	0.2228	0.12322	0.2735	-2.3104	-2.9375	-2.8896	-3.1312	-3.2417	-3.1375	-3.1229	-3.2333	-2.8104	-3.1375	-3.0771	-2.7438	-3.3896	-3.1021	-2.9583	-3.1979	314.909	318.876	32.276	45.706	121.430	314.706	277.206	162.192	11.130	254.349	315.114	28.586	302.119	16.580	143.909	232.685	0.00013966	0.00023216	9.8289e-05	1121.7	2.4216e-06	1.7726e-06	1206.3	200.97	1.1205e-06	2.321e-06	288.49	81.441	64.161	18.874	4.2142e-06	26.53	0.00037485	0.00050988	0.00014729	1098.5	5.6097e-06	5.8417e-06	1189	200.9	5.5313e-06	5.9428e-06	287.73	81.979	64.429	19.2	5.391e-06	26.881	200.430	55.879	71.360	-8.668	181.784	136.232	-8.118	-0.390	202.258	141.891	-0.885	5.814	6.174	13.022	156.681	12.839	-8191	255	
657.356	1	1	0	0	0.087069	0.066989	0.21937	0.11231	0.14731	0.091258	0.33248	0.14824	0.16414	0.10798	0.26387	0.077003	0.077405	0.25459	0.11049	0.35949	-2.2667	-3.1896	-3.1146	-3.0896	-3.2333	-2.9437	-3.0396	-3.3667	-2.9708	-3.1604	-3.3333	-3.1146	-3.3979	-3.2417	-3.0229	-3.3604	289.257	140.081	99.505	53.278	221.413	227.921	255.048	313.960	160.639	116.971	302.484	118.901	273.799	-13.186	160.048	114.552	0.00012712	0.00023123	0.00011226	1117.1	1.7877e-06	2.9021e-06	1208.6	201.57	1.9633e-06	2.31e-06	289.1	80.881	64.443	19.022	2.7044e-06	26.601	0.00037451	0.00053478	0.00014104	1096.1	5.6184e-06	5.8137e-06	1189.2	200.66	5.4735e-06	5.8224e-06	287.45	81.764	64.545	19.2	5.5676e-06	26.814	194.866	66.328	74.849	-8.577	200.257	96.333	-8.207	-0.532	152.676	124.861	-1.603	5.845	6.398	13.139	158.361	12.604	-8191	255	
657.453	1	1	0	0	0.1367	0.2339	0.068551	0.36171	0.22694	0.18024	0.15303	0.041876	0.019818	0.048901	0.22159	0.33096	0.32668	0.14206	0.20716	0.16455	-2.2646	-3.0833	-3.1562	-2.9583	-3.3104	-2.8917	-3.0771	-3.2208	-3.0146	-3.0646	-3.4417	-3.1625	-3.2729	-3.0458	-2.9958	-3.4271	15.411	10.534	84.734	317.187	10.239	18.795	285.652	281.013	146.234	213.511	291.167	298.229	317.046	301.385	157.530	229.481	0.00012277	0.00026295	9.2629e-05	1116.9	1.8161e-06	3.5603e-06	1214.8	200.98	1.3722e-06	2.8735e-06	288.16	80.649	63.838	19.011	1.9044e-06	26.638	0.00037614	0.0005153	0.00014001	1094.9	5.5568e-06	5.6466e-06	1187.2	200.23	5.2578e-06	5.7608e-06	286.53	81.584	64.243	19.219	5.4838e-06	26.765	188.890	54.218	73.703	-8.375	177.236	133.180	-8.372	-0.318	154.214	148.886	-1.500	5.909	6.284	13.083	212.601	12.726	-8191	255	
657.549	1	1	0	0	0.15107	0.10077	0.29286	0.13433	0.069822	0.090591	0.091179	0.29854	0.086925	0.23679	0.031628	0.24906	0.17675	0.16147	0.12132	0.076826	-2.5854	-3.075	-3.1146	-2.9583	-3.2438	-3.3542	-3.2354	-3.3563	-3.0833	-3.0187	-3.2958	-2.8958	-3.4458	-3.1688	-2.8604	-3.3667	222.427	246.353	228.179	328.501	207.952	26.401	72.734	315.757	14.402	280.507	297.245	255.919	312.045	37.479	10.072	114.106	0.00010299	0.00046135	8.5889e-05	1111.3	2.4926e-06	1.8728e-06	1205.2	200.36	1.7619e-06	1.8543e-06	289.18	81.223	63.568	18.889	1.6958e-06	26.47	0.00035259	0.00053236	0.00014107	1092.8	5.6286e-06	5.4245e-06	1186.3	200.38	5.3709e-06	5.7354e-06	287.2	81.632	64.276	19.119	5.1981e-06	26.766	186.598	33.298	71.426	-8.430	152.255	138.674	-8.130	-0.732	173.409	123.407	-1.403	5.666	6.389	13.059	133.794	12.544	-8191	255	
657.620	1	1	0	0	0.30715	0.08987	0.22602	0.21649	0.0077982	0.20181	0.31366	0.12013	0.13631	0.11005	0.075617	0.13382	0.066398	0.15621	0.26289	0.21783	-2.4729	-2.9604	-3.3542	-3.1083	-3.0708	-3.2562	-3.0979	-3.4271	-3.1354	-2.9375	-3.2583	-3.0438	-3.1583	-3.3583	-2.8979	-3.275	158.852	213.093	13.180	322.229	48.899	219.701	262.875	338.373	97.803	88.646	332.852	278.734	37.688	28.459	4.203	20.829	0.00011893	0.00030145	4.5625e-05	1114.1	2.9224e-06	4.916e-06	1201.1	199.92	1.9951e-06	3.9628e-06	287.9	80.555	63.688	18.948	6.1319e-06	26.413	0.00036123	0.00053725	0.00013769	1093	5.6544e-06	5.7565e-06	1183.3	199.74	5.4882e-06	5.8435e-06	286.45	81.486	64.241	19.15	5.7112e-06	26.734	193.762	116.271	37.803	-8.491	191.292	115.000	-8.298	-0.413	192.867	164.525	-1.146	6.108	6.506	13.006	147.305	12.627	-8191	255	
657.739	1	1	0	0	0.17275	0.051123	0.16531	0.21811	0.1469	0.095457	0.24394	0.11885	0.17566	0.07929	0.42068	0.10481	0.19168	0.072417	0.10453	0.15087	-2.7	-2.8021	-3.2812	-3.3167	-3.1813	-3.275	-3.0708	-3.225	-3.225	-3.0604	-3.4042	-2.8917	-3.0417	-3.2396	-3.0542	-3.2062	242.683	-1.331	89.093	181.412	148.030	104.883	286.930	37.988	318.575	213.245	289.819	334.410	63.869	325.980	55.129	54.418	0.00013251	0.00026823	0.00010057	1112.5	1.293e-06	4.5865e-06	1206.5	201.07	2.2304e-06	3.2277e-06	289.42	81.041	63.882	18.915	3.8952e-06	26.554	0.00038745	0.00055538	0.0001487	1091.7	5.8826e-06	5.9091e-06	1186.6	200.21	5.553e-06	6.0875e-06	286.91	81.48	64.299	19.195	5.8438e-06	26.833	190.505	60.067	85.107	-8.400	175.984	130.217	-8.246	-0.194	156.634	138.229	-0.996	6.110	6.204	13.037	164.153	12.715	-8191	255	
657.835	1	1	0	0	0.076488	0.10868	0.40134	0.41278	0.26068	0.055182	0.10071	0.13976	0.22499	0.073183	0.36821	0.17727	0.20754	0.018586	0.14077	0.082659	-2.5833	-2.875	-3.3688	-3.2229	-3.0292	-3.1896	-3.1542	-3.1312	-3.2146	-2.7542	-3.2958	-3.1792	-2.9229	-3.4375	-2.8937	-3.2167	59.683	37.622	256.533	288.740	110.186	279.038	253.924	65.956	159.332	340.676	311.660	162.086	-5.612	259.494	27.258	41.021	0.00011198	0.00024536	0.00010377	1113.7	2.8042e-06	2.6306e-06	1204.5	200.77	1.5648e-06	2.4269e-06	287.85	80.767	63.441	18.873	4.5339e-06	26.546	0.00037617	0.000543	0.0001518	1093.4	5.886e-06	5.7873e-06	1185.2	200.33	5.2985e-06	5.837e-06	286.9	81.456	64.156	19.142	5.6823e-06	26.742	186.382	54.371	75.162	-8.763	151.309	157.910	-8.318	-0.182	232.050	115.848	-1.168	6.312	6.218	13.035	141.268	12.664	-8191	255	
657.932	1	1	0	0	0.16635	0.198	0.08292	0.42383	0.059744	0.082645	0.23315	0.18449	0.043009	0.076382	0.11989	0.17721	0.10731	0.044034	0.097872	0.14102	-3.0333	-2.9875	-3.0917	-3.0708	-2.9729	-3.3792	-3.1208	-3.1	-3.1937	-2.9813	-3.2771	-3.275	-2.9	-3.3021	-2.9354	-3.1979	15.159	318.258	140.519	329.727	44.469	302.550	312.551	301.977	265.247	164.471	-9.481	306.492	15.395	15.381	331.126	260.486	0.00011152	0.00026903	3.4823e-05	1110	1.7799e-06	2.0962e-06	1207.8	201.94	1.0356e-06	2.1028e-06	286.68	81.155	63.54	18.965	3.6682e-06	26.42	0.00037303	0.00055204	0.00015685	1091.5	6.0978e-06	5.8315e-06	1185.9	200.43	5.5138e-06	6.1432e-06	286.35	81.462	63.965	19.137	5.8513e-06	26.695	198.421	60.756	105.494	-8.428	163.646	98.691	-8.069	-0.799	154.387	173.551	-0.987	5.877	6.405	13.518	135.292	12.282	-8191	255	
658.028	1	1	0	0	0.1795	0.15457	0.096399	0.11256	0.22749	0.037975	0.17653	0.42849	0.063496	0.080972	0.095654	0.075169	0.2671	0.21443	0.026886	0.11535	-2.8229	-2.9688	-3.2313	-3.4021	-3.0208	-3.2833	-3.2354	-2.8333	-3.3021	-2.8479	-3.1833	-3.3583	-3.2	-3.4062	-3.0958	-2.9875	333.418	25.250	126.060	13.400	12.455	63.432	291.599	314.155	171.797	196.312	273.090	-13.838	331.573	228.179	121.300	329.964	0.00013844	0.00023002	8.3538e-05	1112	2.4049e-06	4.8062e-06	1202.4	200.54	6.226e-07	2.8298e-06	288.68	80.595	64.097	18.974	1.7047e-06	26.382	0.00037171	0.00056026	0.00014831	1091.3	5.9885e-06	5.8374e-06	1183.3	199.9	5.7446e-06	5.9898e-06	286.74	81.204	64.358	19.174	5.7815e-06	26.731	189.056	73.660	93.267	-8.258	189.003	103.464	-8.262	-0.406	118.759	129.702	-1.153	5.615	6.217	13.073	184.745	12.391	-8191	255	
658.148	1	1	0	0	0.095824	0.02959	0.23167	0.089016	0.18265	0.21691	0.31126	0.13819	0.094318	0.17303	0.21744	0.28181	0.1554	0.10529	0.15361	0.30106	-2.9313	-2.9833	-3.0938	-3.3688	-2.9458	-3.4771	-3.1083	-2.7458	-3.2667	-3.0292	-3.2729	-3.3729	-2.9333	-3.1792	-3.225	-2.8312	180.708	64.026	225.318	1.654	-8.983	27.967	289.570	-7.715	290.404	261.534	330.217	216.581	-8.823	120.287	93.741	297.364	0.00010999	0.0004571	8.7213e-05	1113.5	2.4199e-06	2.5571e-06	1207.3	200.59	2.1785e-06	2.8826e-06	288.35	80.634	63.661	18.911	3.2262e-06	26.494	0.00036638	0.0005548	0.00015384	1092.2	5.8855e-06	6.129e-06	1184.4	199.88	5.4873e-06	5.6993e-06	286.73	81.411	64.132	19.147	5.6369e-06	26.703	201.952	58.940	93.921	-8.789	166.190	132.908	-8.177	-0.464	150.206	96.129	-1.350	6.010	6.398	13.178	129.754	12.655	-8191	255	
658.220	1	1	0	0	0.11379	0.2401	0.24692	0.26434	0.13566	0.1539	0.19523	0.12024	0.20261	0.13262	0.10444	0.14851	0.24832	0.071011	0.068465	0.17549	-2.9083	-2.95	-2.9062	-3.3354	-2.8958	-3.2021	-3.3771	-3.1063	-3.1104	-3.0917	-3.2542	-3.4271	-3.0771	-3.225	-3.2687	-2.7708	184.450	195.171	31.177	317.493	115.063	290.130	295.978	286.886	34.245	144.922	24.860	-10.086	340.135	218.423	283.322	22.880	0.00012333	0.00013034	7.4576e-05	1110.9	3.187e-06	2.0812e-06	1204.4	201.07	1.5634e-06	7.161e-07	289.06	80.719	63.912	19.023	2.0499e-06	26.439	0.00036592	0.00051597	0.00014952	1090.4	5.8447e-06	6.102e-06	1184.4	200.33	5.3733e-06	6.0665e-06	286.68	81.379	64.198	19.219	5.8024e-06	26.734	198.121	81.069	54.190	-8.615	158.286	135.435	-8.308	-0.540	220.449	59.461	-1.494	5.924	6.235	13.443	134.878	12.377	-8191	255	
658.316	1	1	0	0	0.35767	0.16263	0.17359	0.076167	0.12348	0.10126	0.3413	0.092818	0.15347	0.10209	0.026808	0.16716	0.18639	0.13597	0.054881	0.15814	-2.9604	-3.1771	-3.0167	-3.2521	-3.0708	-3.2667	-3.2333	-2.8521	-3.4729	-3.1604	-2.9688	-3.2833	-3.0125	-3.15	-3.2604	-2.8479	164.376	23.856	132.978	336.746	274.401	98.665	282.513	34.127	187.709	326.761	15.584	165.037	235.508	114.320	-5.725	302.715	9.7639e-05	0.00020571	6.9785e-05	1113.7	2.5254e-06	2.654e-06	1209.5	200.26	2.1089e-06	3.8739e-06	286.94	81.083	64.23	18.78	2.343e-06	26.458	0.00036682	0.00054697	0.00014792	1092.7	5.9885e-06	6.0729e-06	1185.5	199.96	5.623e-06	6.0411e-06	286.05	81.403	64.283	19.126	5.4708e-06	26.721	200.893	85.974	80.576	-8.681	142.670	120.389	-8.127	-0.540	173.568	120.513	-1.141	6.118	6.528	13.034	190.824	12.430	-8191	255	
658.437	1	1	0	0	0.13723	0.12594	0.08875	0.26313	0.12209	0.32088	0.13457	0.076001	0.11594	0.27992	0.20506	0.14829	0.15072	0.17811	0.054596	0.12153	-2.7458	-3.1729	-3.0917	-3.2583	-3.0979	-3.2708	-3.5229	-3.0292	-3.2979	-3.2292	-3.2896	-3.425	-3.0146	-2.9188	-3.1792	-2.9708	178.039	37.653	-10.916	332.637	12.729	122.740	202.743	114.037	54.369	273.908	12.921	277.411	149.988	285.470	216.152	285.620	0.00010016	0.00034042	0.00011039	1109.4	1.7712e-06	1.8886e-06	1208.3	201.28	2.4939e-06	3.542e-06	289.37	80.615	63.602	18.873	2.3899e-06	26.384	0.0003839	0.00054373	0.00015083	1091.9	5.9249e-06	5.8886e-06	1186.4	200.44	5.791e-06	5.9099e-06	286.88	81.412	64.147	19.136	5.7271e-06	26.682	195.056	61.027	94.847	-8.485	168.691	141.560	-8.231	-0.848	159.299	123.931	-1.250	6.004	6.604	12.778	139.260	12.495	-8191	255	
658.533	1	1	0	0	0.28827	0.18623	0.039821	0.19997	0.45378	0.071614	0.47166	0.081349	0.25163	0.34728	0.26903	0.075055	0.14841	0.16552	0.33558	0.16683	-2.7625	-2.8854	-2.7646	-3.3812	-3.0521	-2.9813	-3.3417	-2.9625	-3.1208	-3.1021	-2.6667	-3.45	-3.2083	-2.9437	-3.3833	-3.0875	189.577	104.054	153.692	326.635	-16.901	253.137	272.782	244.821	33.370	105.196	191.507	-10.760	268.797	283.722	261.893	146.069	0.00012222	0.000313	0.00011164	1113.1	3.1248e-06	3.1459e-06	1207.1	200.95	1.9293e-06	2.7694e-06	288.18	80.672	63.842	18.788	2.2445e-06	26.529	0.00036866	0.00052748	0.00015138	1094.3	5.8962e-06	5.8541e-06	1186.4	200.06	5.3657e-06	5.8856e-06	286.73	81.451	64.225	19.127	5.5641e-06	26.769	180.250	76.118	61.665	-8.541	146.602	105.247	-8.256	-0.424	152.876	168.826	-1.410	5.686	6.442	12.816	162.347	12.962	-8191	255	
658.629	1	1	0	0	0.34504	0.11696	0.22327	0.13576	0.10485	0.46008	0.088525	0.21146	0.071066	0.048168	0.24706	0.18497	0.19821	0.12045	0.19495	0.18815	-2.7188	-2.9938	-2.8521	-3.2396	-3.1417	-2.8292	-3.4813	-3.0292	-3.0479	-3.2542	-2.9375	-3.2521	-3.0292	-2.8563	-3.1479	-3.1271	132.518	252.469	232.474	258.588	24.356	38.888	288.863	255.087	228.761	148.197	241.329	276.291	279.394	339.443	256.743	120.438	0.00012438	0.00030036	9.2255e-05	1112.1	3.4957e-06	3.3839e-06	1205.5	200.44	1.0505e-06	3.6934e-06	287.31	80.96	63.677	19.001	5.013e-06	26.497	0.00037891	0.0005312	0.00014663	1094	5.8103e-06	6.102e-06	1185.8	200.06	5.6202e-06	5.8715e-06	286.86	81.392	64.203	19.208	5.4673e-06	26.764	195.055	78.327	73.771	-8.617	200.089	116.605	-8.275	-0.415	166.015	147.878	-1.515	6.039	6.244	13.283	167.760	12.483	-8191	255	
658.748	1	1	0	0	0.11944	0.22584	0.10458	0.13676	0.14294	0.2218	0.32852	0.354	0.066407	0.082289	0.052172	0.029416	0.073956	0.07544	0.16133	0.054744	-2.6083	-3.1688	-2.6583	-3.2062	-3.1937	-3.1625	-3.4354	-3.1437	-3.1771	-3.3208	-2.8625	-3.1875	-3.4271	-2.8312	-3.2687	-3.2438	135.915	76.486	293.060	270.416	178.088	108.378	-14.994	289.446	26.653	220.287	261.576	132.568	157.949	191.615	-0.611	189.837	0.00011674	0.00034534	0.00014676	1114.6	2.5802e-06	2.5653e-06	1202.8	200.66	4.0384e-07	1.0968e-06	287.46	80.931	63.704	18.904	2.1398e-06	26.369	0.00036752	0.00051626	0.00015161	1093	5.5942e-06	5.9468e-06	1184.3	199.94	5.474e-06	5.8305e-06	286.68	81.418	64.283	19.151	5.3596e-06	26.716	194.868	58.674	102.007	-8.504	164.347	139.196	-8.185	-0.646	172.858	247.766	-1.001	5.692	6.224	12.933	138.240	12.595	-8191	255	
658.844	1	1	0	0	0.22262	0.16555	0.015592	0.22968	0.094674	0.19598	0.2523	0.090523	0.06779	0.065312	0.097809	0.15136	0.088835	0.19559	0.14513	0.14638	-2.6458	-3.1667	-2.8875	-3.2687	-2.9083	-2.8896	-3.5271	-3.1729	-2.8375	-3.3438	-3.0958	-3.1583	-2.9604	-2.9562	-3.1396	-3.1188	61.660	87.397	14.055	155.375	337.919	-3.392	274.250	329.177	231.169	17.197	94.484	131.671	-18.193	42.962	169.585	288.423	0.00010221	0.00050026	4.8986e-05	1113.3	1.9295e-06	3.6035e-06	1208.7	200.51	2.7099e-06	3.835e-06	287.03	80.631	63.827	18.975	2.6509e-06	26.553	0.00037728	0.0005299	0.00014302	1093	5.5563e-06	5.9182e-06	1185.3	199.86	5.4054e-06	5.6906e-06	286.49	81.388	64.26	19.189	5.3247e-06	26.81	185.457	78.138	114.370	-8.656	187.271	109.702	-8.171	-0.630	141.533	137.661	-1.127	5.588	6.315	13.488	133.598	12.436	-8191	255	
658.916	1	1	0	0	0.090831	0.13319	0.06639	0.091644	0.16524	0.27304	0.18911	0.016821	0.037293	0.14716	0.093075	0.17125	0.1497	0.23367	0.11062	0.051763	-2.4021	-3.2625	-2.9917	-3.4083	-3.3667	-2.7646	-3.2458	-3.1562	-2.8792	-3.1708	-3.0208	-3.2021	-3.3937	-2.7667	-3.15	-3.3229	146.419	15.329	214.090	333.929	51.344	286.544	229.477	270.952	-2.113	145.313	83.069	259.985	34.649	130.776	138.269	79.942	0.00010651	0.00046039	0.00010604	1112.3	2.4044e-06	2.03e-06	1208.6	200.38	9.3396e-07	3.1429e-06	287.29	80.436	63.476	18.928	4.9449e-06	26.524	0.00036529	0.00052883	0.0001452	1093	5.3402e-06	5.8023e-06	1185.8	200.27	5.2583e-06	5.7349e-06	285.89	81.395	64.139	19.157	5.7551e-06	26.688	194.710	64.849	81.508	-8.544	188.231	134.017	-7.976	-0.365	240.376	140.215	-1.163	6.091	6.514	12.828	165.524	12.686	-8191	255	
659.036	1	1	0	0	0.23278	0.1399	0.077072	0.21659	0.056533	0.095614	0.17396	0.12032	0.17633	0.19035	0.18407	0.17813	0.10396	0.15046	0.055275	0.13989	-2.4562	-3.2521	-2.7646	-2.9771	-3.4104	-2.8833	-3.3854	-3.2292	-2.8667	-3.3812	-3.2417	-2.9292	-3.2979	-3.0083	-3.1229	-3.3792	222.956	137.671	54.866	48.466	242.605	279.122	326.427	78.768	26.353	34.652	257.185	79.340	184.692	317.599	-16.219	117.981	9.0713e-05	0.00019464	7.7307e-05	1109.8	1.8304e-06	2.9892e-06	1205.1	199.86	2.487e-06	2.5057e-06	288.89	80.713	63.805	18.877	1.6488e-06	26.308	0.00035582	0.00053705	0.00014736	1090.6	5.4761e-06	5.6024e-06	1184.1	199.6	5.5478e-06	5.5346e-06	286.66	81.36	64.232	19.184	5.5312e-06	26.751	198.210	111.231	59.619	-8.184	224.586	135.415	-8.266	-0.088	187.921	168.219	-1.165	5.869	6.118	13.515	124.044	12.465	-8191	255	
659.133	1	1	0	0	0.12871	0.15908	0.10148	0.091741	0.027337	0.19205	0.18062	0.2008	0.20025	0.067044	0.1715	0.10439	0.066058	0.25655	0.092409	0.12671	-2.3583	-3.1875	-2.8833	-3.0521	-3.1333	-2.9562	-3.2667	-3.3958	-2.7375	-3.1604	-3.1542	-3.0729	-3.4042	-3.1479	-3.0271	-3.3063	214.448	209.980	264.522	251.416	110.384	139.423	281.939	294.108	37.876	141.079	60.084	250.825	16.457	246.158	80.702	330.914	0.00010164	0.0003333	7.2268e-05	1110.2	1.101e-06	4.0962e-06	1206.2	199.39	1.1647e-06	2.6283e-06	288.86	80.479	63.794	18.829	2.1905e-06	26.521	0.00036328	0.00051022	0.00014562	1091.8	5.4213e-06	5.6579e-06	1185.3	199.91	5.4466e-06	5.8867e-06	286.76	81.218	64.173	19.133	5.3098e-06	26.792	186.234	70.764	79.088	-8.521	117.586	143.292	-8.316	-0.397	171.783	136.832	-1.509	5.858	6.361	12.825	113.980	12.515	-8191	255	
659.229	1	1	0	0	0.020251	0.13759	0.23903	0.041219	0.15698	0.098867	0.15063	0.068694	0.091347	0.11248	0.21519	0.083714	0.19902	0.067235	0.27108	0.28713	-2.3604	-3.2	-3.2562	-3.0687	-3.2854	-2.9521	-3.2667	-3.2917	-3.0042	-3.1562	-3.2188	-2.7062	-3.2188	-3.0833	-3.0833	-3.2604	271.752	301.408	-10.775	59.695	170.764	106.402	249.647	29.666	332.833	37.883	277.792	171.030	194.692	212.192	83.285	35.766	0.00010571	0.00022393	8.9549e-05	1110.4	2.4366e-06	2.5296e-06	1209.6	200.33	1.9936e-06	4.4138e-06	287.83	81.645	63.829	18.818	1.3737e-06	26.446	0.00036066	0.0005006	0.0001322	1092.2	5.4922e-06	5.5544e-06	1184.5	199.84	5.2332e-06	5.5788e-06	286.44	81.476	64.133	19.116	5.5382e-06	26.808	190.636	78.716	105.669	-8.486	186.772	117.519	-8.114	-0.505	169.966	145.532	-1.642	5.810	6.591	13.083	139.629	12.227	-8191	255	
659.325	1	1	0	0	0.21579	0.15181	0.080758	0.096266	0.20041	0.24964	0.088728	0.18762	0.26578	0.19374	0.24813	0.18735	0.090451	0.10586	0.15223	0.033968	-2.4146	-3.2438	-3.2146	-3.1417	-3.1542	-2.9896	-3.025	-3.1917	-3.0396	-3.075	-3.2583	-2.9813	-3.2271	-2.9229	-2.8958	-3.2438	188.252	255.599	324.308	11.264	110.829	-7.848	273.273	330.094	266.450	271.429	267.561	25.636	-10.674	302.286	325.244	119.274	0.00013136	0.00036613	4.0858e-05	1114.7	2.8722e-06	3.6912e-06	1207.7	201.4	2.0416e-06	3.0434e-06	289.33	80.697	63.547	18.952	3.486e-06	26.543	0.00036721	0.00050418	0.00013863	1092.4	5.6583e-06	5.86e-06	1184.2	200.11	5.3908e-06	5.7965e-06	286.75	81.415	64.26	19.151	5.6264e-06	26.761	189.333	58.009	69.303	-8.569	162.574	127.767	-8.200	-0.225	171.764	104.501	-1.511	6.169	6.220	13.327	136.830	12.541	-8191	255	
659.446	1	1	0	0	0.3037	0.075446	0.033162	0.22882	0.12947	0.22586	0.27176	0.057929	0.21007	0.19953	0.13434	0.25868	0.0928	0.11074	0.12949	0.15	-2.6562	-3.1042	-3.2521	-2.7812	-2.9521	-3.0896	-3.0563	-3.4333	-3.1042	-3.0083	-3.3583	-2.8854	-3.125	-3.0583	-3.0563	-3.5167	264.624	237.130	238.968	287.389	176.168	162.860	287.470	16.578	51.438	166.478	321.571	-17.238	248.230	235.188	2.475	23.910	0.00013621	0.00016524	9.7958e-05	1115.4	2.9118e-06	3.1818e-06	1207.5	200.67	1.6932e-06	2.531e-06	287.78	80.178	63.598	18.953	3.6167e-06	26.48	0.00037184	0.00051327	0.00014021	1092.8	5.6034e-06	5.6811e-06	1184.5	199.8	5.2261e-06	5.8726e-06	285.78	81.224	64.123	19.13	5.5486e-06	26.729	196.467	75.705	115.197	-8.583	211.031	139.428	-8.163	-0.257	185.451	134.778	-1.166	5.581	6.437	12.961	153.417	12.734	-8191	255	
659.517	1	1	0	0	0.20103	0.069974	0.043929	0.22549	0.085521	0.10769	0.30555	0.17192	0.23656	0.24937	0.20086	0.06916	0.15794	0.28484	0.084931	0.28066	-2.8542	-3.0062	-3.2125	-2.9604	-3.0625	-3.1125	-3.1375	-3.3333	-3.0792	-3.0479	-3.3979	-3.0958	-3.0479	-3.2562	-2.7604	-3.3667	44.979	323.081	155.665	296.146	148.832	43.769	295.913	270.693	306.758	194.271	11.157	277.723	226.756	320.705	23.918	307.795	0.00012937	0.00018201	8.0367e-05	1114	2.1353e-06	2.6834e-06	1204	200.32	1.8188e-06	3.6317e-06	287.69	80.813	64.044	18.897	2.7081e-06	26.566	0.00036418	0.00051796	0.00014625	1091.4	5.6549e-06	5.5663e-06	1182.7	199.7	5.2143e-06	5.4989e-06	286.41	81.332	64.211	19.125	5.5591e-06	26.775	190.072	109.162	103.836	-8.316	185.087	118.020	-8.196	-0.407	167.808	123.446	-1.286	5.959	5.804	13.032	172.866	12.653	-8191	255	
659.613	1	1	0	0	0.12121	0.20942	0.13635	0.10601	0.12005	0.23263	0.44793	0.06063	0.34627	0.14902	0.14976	0.096747	0.14774	0.11222	0.31341	0.095702	-2.825	-3.0625	-3.1979	-2.9792	-2.8896	-3.2854	-2.975	-3.2958	-3.2062	-3.05	-3.3688	-3.0708	-3.0667	-3.1958	-2.9562	-3.4583	212.253	87.797	149.696	294.061	119.481	136.795	271.306	88.576	259.395	320.095	29.968	36.657	2.103	158.262	153.387	184.142	0.0001303	0.00033565	8.045e-05	1112.7	3.8632e-06	7.5243e-07	1205.5	200.43	3.1002e-06	2.4683e-06	288.31	80.828	63.878	18.87	4.3225e-06	26.662	0.00035771	0.00053299	0.00014196	1090.7	5.6238e-06	5.6309e-06	1183.4	199.71	5.2512e-06	5.7808e-06	287.18	81.256	64.104	19.186	5.6489e-06	26.818	190.426	68.569	97.251	-8.471	140.198	167.193	-8.250	-0.181	170.276	111.316	-1.392	5.862	6.274	12.931	176.041	12.275	-8191	255	
659.709	1	1	0	0	0.14037	0.022636	0.13777	0.10919	0.17284	0.24741	0.16865	0.15986	0.21543	0.24205	0.085126	0.071277	0.28854	0.16685	0.071213	0.073119	-2.5167	-2.9208	-3.0833	-2.9396	-2.8021	-3.3021	-3.0438	-3.1937	-3.2792	-2.9625	-3.3896	-2.9562	-2.8729	-3.1625	-2.8021	-3.0896	154.218	171.938	336.253	203.559	248.351	124.235	323.454	292.414	64.662	97.623	317.574	321.100	21.824	254.663	277.926	251.404	0.00012042	0.00026123	9.5461e-05	1111.5	2.5923e-06	2.262e-06	1201.8	201.32	1.479e-06	2.195e-06	288.63	80.421	63.767	18.912	4.0693e-06	26.412	0.00035784	0.00052593	0.00013931	1090.9	5.6923e-06	5.6159e-06	1181.8	200.02	5.2484e-06	5.6831e-06	286.47	81.241	64.215	19.178	5.4429e-06	26.68	193.011	68.271	122.619	-8.478	183.235	153.834	-8.217	-0.738	210.915	156.018	-1.361	5.740	6.464	12.904	159.954	12.869	-8191	255	
659.828	1	1	0	0	0.14449	0.066456	0.017105	0.048846	0.056992	0.14238	0.24011	0.1129	0.26259	0.15887	0.13218	0.14629	0.19947	0.12449	0.16096	0.25721	-2.8438	-3.0375	-3.1854	-3.2625	-3.0708	-3.1979	-3.0833	-3.0292	-3.1562	-2.9958	-3.375	-3.1875	-2.9833	-3.2396	-2.7375	-3.075	253.654	5.704	125.050	132.015	319.160	152.428	253.576	292.917	14.031	186.985	208.112	324.418	270.218	9.809	294.939	271.064	0.00011597	0.00026861	2.259e-05	1111.7	2.0458e-06	6.2839e-07	1199.3	200.21	2.5315e-06	1.744e-06	288.6	80.333	63.907	18.847	2.8805e-06	26.339	0.00035313	0.00050413	0.00013469	1090.3	5.4689e-06	5.5496e-06	1181.4	199.83	5.0275e-06	5.7614e-06	286.79	81.369	64.276	19.124	5.3925e-06	26.633	203.750	138.690	62.605	-8.148	145.086	179.705	-8.079	-0.462	182.222	71.014	-0.998	5.940	6.264	13.241	180.667	12.335	-8191	255	
659.925	1	1	0	0	0.096577	0.13487	0.2814	0.18759	0.21009	0.2182	0.19243	0.15839	0.1855	0.11227	0.1874	0.077303	0.15664	0.11614	0.16783	0.17242	-2.7	-2.875	-3.1167	-3.3271	-2.925	-3.3604	-3.1188	-2.9833	-3.2458	-3.1333	-3.1354	-3.2	-3.0083	-3.3458	-3.0938	-3.1188	156.455	80.738	306.777	317.199	288.065	318.598	4.857	271.835	78.524	106.691	96.132	190.733	244.115	325.569	195.644	202.419	0.00010208	0.00025178	0.00010568	1111	3.014e-06	4.5649e-07	1197.6	200.29	1.5844e-06	2.62e-06	288.32	80.788	63.864	18.911	3.6864e-06	26.33	0.00035517	0.0005093	0.00014469	1090.1	5.4222e-06	5.4353e-06	1178.7	199.51	5.1845e-06	5.7257e-06	285.93	81.32	64.217	19.129	5.3801e-06	26.699	187.274	60.384	77.443	-8.264	189.085	198.767	-8.117	-0.716	166.328	100.074	-1.538	6.091	6.617	13.743	150.210	12.601	-8191	255	
660.021	1	1	0	0	0.3349	0.1889	0.22496	0.1336	0.24269	0.093448	0.12993	0.10865	0.22699	0.36264	0.10016	0.12706	0.18973	0.069244	0.12012	0.0073992	-2.9125	-2.8146	-2.9896	-3.1583	-2.9875	-3.5125	-3.1167	-2.9479	-3.3063	-2.9062	-3.2167	-3.3271	-2.9021	-3.1688	-3.1	-2.9229	140.957	-15.919	180.257	-3.946	62.219	66.868	281.626	19.744	145.255	148.673	36.094	285.251	309.394	300.891	306.487	220.279	0.00011108	0.00029578	9.4427e-05	1108	5.0251e-06	3.2544e-06	1201.1	200.65	2.1318e-06	3.235e-06	286.59	80.684	63.984	18.917	2.1753e-06	26.46	0.00035233	0.00052327	0.0001438	1090.1	5.5461e-06	5.293e-06	1181.4	199.96	5.2957e-06	5.5346e-06	285.95	81.118	64.153	19.162	5.4514e-06	26.742	185.603	76.649	89.245	-8.569	192.739	109.229	-8.126	-0.473	172.102	103.768	-1.320	5.778	6.110	13.288	143.144	12.375	-8191	255	
660.117	1	1	0	0	0.13073	0.14205	0.16539	0.056286	0.17842	0.143	0.14159	0.17984	0.081184	0.26878	0.20779	0.29545	0.27542	0.27304	0.088078	0.20993	-2.8104	-2.7583	-2.9938	-3.2438	-2.9375	-3.3187	-3.3104	-2.8542	-3.3063	-2.8396	-3.175	-3.2438	-2.8312	-3.2583	-3.3083	-3.1354	176.119	244.286	273.701	120.920	83.386	283.284	310.975	325.662	19.245	170.576	181.051	275.407	275.790	247.183	235.545	65.388	0.00011244	0.00030783	9.6509e-05	1109.6	2.1843e-06	1.8481e-06	1201.4	200.74	1.7894e-06	4.2667e-06	288.16	80.702	63.718	18.844	3.4518e-06	26.354	0.00035414	0.00052627	0.00013826	1088.7	5.7996e-06	5.4374e-06	1181.6	199.89	5.2276e-06	5.6798e-06	286.08	81.333	64.178	19.121	5.1876e-06	26.646	192.022	48.872	65.098	-8.405	200.486	172.477	-8.267	-0.742	158.285	144.276	-1.000	6.066	6.043	13.558	146.816	11.983	-8191	255	
660.213	1	1	0	0	0.031271	0.12934	0.14334	0.19278	0.23793	0.15557	0.37806	0.19161	0.091352	0.084329	0.10372	0.053687	0.09429	0.2783	0.11884	0.095911	-2.8833	-2.8729	-3.1021	-3.5417	-2.8479	-3.2229	-3.1771	-2.9229	-3.4188	-3.2458	-3.075	-3.2687	-2.9354	-3.3312	-3.2833	-2.9104	289.213	87.790	336.363	310.030	163.240	268.434	259.328	13.201	260.103	239.231	302.757	314.437	336.703	275.830	102.772	37.994	0.00011454	0.00019831	5.9571e-05	1105.1	3.5357e-06	2.7603e-06	1199.5	200.16	1.0274e-06	2.2798e-06	287	80.201	63.56	18.953	1.1124e-06	26.424	0.00033369	0.00050601	0.00013947	1086.8	5.4441e-06	5.2051e-06	1179.2	200.15	5.0289e-06	5.379e-06	286.35	81.078	63.959	19.136	5.0759e-06	26.67	188.986	95.124	124.940	-8.386	182.218	87.475	-8.326	-0.585	172.258	118.499	-1.429	5.831	6.466	13.338	119.874	12.954	-8191	255	
660.309	1	1	0	0	0.27991	0.1884	0.37049	0.2188	0.065622	0.16954	0.22979	0.23803	0.1786	0.235	0.082794	0.29697	0.19018	0.27433	0.25829	0.33144	-2.875	-2.9375	-2.9479	-3.45	-3.0083	-3.2125	-3.4271	-2.675	-3.2229	-3.25	-3.0042	-3.3333	-2.8729	-3.0833	-3.3146	-2.8333	214.259	128.368	216.248	340.216	91.012	-5.926	308.495	299.665	294.784	31.798	222.808	-10.661	318.506	9.460	172.550	-10.751	0.00011257	0.00019187	0.00010483	1110.9	1.8365e-06	3.4779e-06	1200.8	199.96	1.6139e-06	2.8991e-06	287.58	80.851	63.707	19.061	3.0794e-06	26.468	0.00036214	0.00049165	0.00013434	1089.5	5.4349e-06	5.521e-06	1179.1	199.51	4.887e-06	5.1366e-06	285.52	81.31	64.01	19.188	4.8994e-06	26.726	187.646	63.351	73.836	-8.607	181.330	141.129	-8.216	-0.427	203.160	128.702	-1.068	6.227	6.338	13.240	154.051	12.423	-8191	255	
660.430	1	1	0	0	0.18817	0.033019	0.1877	0.41409	0.10853	0.041415	0.18976	0.19439	0.17453	0.13687	0.070754	0.11349	0.30569	0.16507	0.08997	0.021644	-2.6125	-2.9333	-3.0146	-3.4646	-2.9062	-3.1562	-3.5563	-2.9271	-3.3104	-3.2104	-2.7938	-3.4521	-3.2729	-3.1271	-3.3438	-3.0667	212.908	122.956	270.102	326.915	149.277	205.313	277.877	283.346	206.586	191.625	307.409	309.634	320.911	268.179	322.557	320.961	0.00013671	0.00031344	5.4098e-05	1108.2	2.7093e-06	3.065e-06	1201.8	200.29	2.1582e-06	2.3205e-06	287.97	80.655	64.046	18.822	4.064e-06	26.361	0.00035051	0.00046352	0.00013228	1086.3	5.2124e-06	5.2935e-06	1178.8	199.26	4.9707e-06	5.4114e-06	285.93	81.078	64.149	19.113	4.8305e-06	26.657	189.929	64.079	70.196	-8.517	187.148	80.330	-8.120	-0.166	206.289	150.143	-1.264	5.731	6.297	13.752	130.151	12.545	-8191	255	
660.526	1	1	0	0	0.22223	0.24006	0.36504	0.29753	0.068222	0.26472	0.11625	0.032097	0.067746	0.24898	0.37922	0.16862	0.14991	0.27142	0.12835	0.25552	-2.4042	-2.9	-2.7458	-3.3312	-3.0083	-2.9875	-3.6271	-3.0792	-3.1333	-3.3063	-2.9771	-3.3479	-3.2333	-2.9313	-3.1271	-3.0687	221.402	84.460	160.350	140.293	322.883	314.208	308.315	89.750	3.508	262.358	262.601	59.521	-12.759	9.282	165.956	309.615	0.00012264	0.000301	0.00011569	1108	2.6616e-06	1.8909e-06	1202.2	199.88	1.8081e-06	2.0103e-06	286.6	80.168	63.271	18.892	2.4306e-06	26.418	0.0003339	0.00047299	0.00014093	1088.3	5.176e-06	5.3259e-06	1180	199.28	4.8354e-06	5.2802e-06	285.03	81.041	63.821	19.131	4.9727e-06	26.665	194.470	93.767	71.047	-8.395	188.593	108.903	-8.163	-0.646	154.786	161.800	-1.330	5.891	6.282	13.161	136.603	12.671	-8191	255	
660.620	1	1	0	0	0.27976	0.10353	0.12173	0.058005	0.14773	0.11917	0.37523	0.098725	0.064624	0.12102	0.19582	0.1356	0.096891	0.17312	0.11872	0.078814	-2.8583	-3.1021	-2.8	-3.3208	-3.2521	-3.0333	-3.4729	-2.9333	-3.0104	-3.0708	-2.9	-3.0708	-2.8375	-2.7542	-3.3104	-2.9229	113.419	101.806	280.365	182.844	84.479	-3.161	246.272	20.733	260.964	201.380	17.521	333.043	-3.197	322.478	196.149	161.888	0.00012262	0.00023156	8.7191e-05	1104.5	2.6518e-06	3.9388e-06	1198.4	199.2	6.6793e-07	3.1252e-06	286.43	80.758	63.654	18.873	2.7579e-06	26.422	0.00034746	0.0004858	0.00014169	1084.8	5.3261e-06	5.6061e-06	1177.4	199.11	5.1084e-06	5.2716e-06	285.91	81.209	63.919	19.162	5.0225e-06	26.678	198.338	51.342	58.759	-8.424	165.698	129.955	-8.198	-0.519	193.562	158.727	-1.663	5.859	6.402	13.361	141.843	12.733	-8191	255	
660.718	1	1	0	0	0.15493	0.12123	0.17252	0.47845	0.20883	0.12382	0.060441	0.35341	0.071213	0.30324	0.16481	0.18158	0.33691	0.13209	0.20274	0.34368	-2.5875	-3.2521	-2.775	-3.1188	-2.9813	-2.8125	-3.5021	-3.0958	-3	-3.3688	-2.9396	-3.2229	-3.3312	-2.9667	-3.4938	-3.2208	275.286	236.265	56.711	331.080	36.429	135.507	54.162	200.279	50.438	294.353	39.050	31.692	341.414	161.669	49.102	6.543	0.00010923	0.00026371	3.1557e-05	1106.6	3.6261e-06	2.697e-06	1192.7	199.76	2.1733e-06	6.2833e-06	286.08	80.121	63.639	18.955	2.6745e-06	26.183	0.00035341	0.00048329	0.00014067	1087.1	5.4319e-06	5.2736e-06	1176.1	199.38	5.1117e-06	5.1981e-06	284.83	81.018	63.941	19.117	5.1038e-06	26.584	195.666	75.721	98.625	-8.332	166.752	140.225	-8.299	-0.362	170.125	141.603	-1.123	6.002	6.477	13.062	148.178	12.281	-8191	255	
660.813	1	1	0	0	0.10229	0.15019	0.26011	0.16673	0.073794	0.18998	0.20605	0.2437	0.21517	0.019249	0.055864	0.13622	0.15475	0.073981	0.28844	0.38351	-2.5812	-3.3979	-2.9667	-3.3396	-3.2479	-3.1083	-3.5312	-3.1604	-3.1625	-3.45	-3.125	-3.2188	-3.2	-3.0625	-3.1333	-3.1771	3.342	245.279	91.048	327.154	-16.896	134.049	225.131	266.571	8.854	-17.858	67.510	249.359	69.836	299.532	165.319	207.294	0.0001242	0.00025967	7.7255e-05	1107.9	5.1881e-06	1.4311e-06	1193.4	198.51	1.0246e-06	3.866e-06	287.28	80.409	63.373	18.879	1.977e-06	26.284	0.00034891	0.00047613	0.0001307	1086.5	5.0653e-06	5.3862e-06	1174.5	199.05	4.9963e-06	5.0739e-06	285.12	81.133	63.856	19.121	4.9767e-06	26.641	194.040	79.866	36.036	-8.345	168.134	119.892	-8.065	-0.725	191.143	125.978	-1.469	6.111	6.241	12.966	159.162	12.538	-8191	255	
660.909	1	1	0	0	0.046293	0.086701	0.07857	0.22664	0.19123	0.10177	0.07751	0.3314	0.1194	0.23727	0.13889	0.096183	0.18314	0.19997	0.15702	0.089668	-2.475	-3.4771	-2.8958	-3.2229	-3.3792	-3.0646	-3.4062	-3.2042	-2.95	-3.1271	-3.0187	-3.0354	-3.2417	-3.0333	-3.2167	-3.0938	274.230	211.222	269.054	16.556	246.590	181.590	283.043	65.456	225.726	186.340	296.796	336.606	272.068	284.669	177.905	142.452	0.00010043	0.00034868	7.1079e-05	1102.1	2.8334e-06	7.042e-07	1195.4	200.96	1.8259e-06	3.332e-06	286.95	80.206	63.256	18.961	3.3787e-06	26.302	0.00034718	0.00047981	0.00013039	1085.6	5.2081e-06	5.1178e-06	1175.7	199.32	5.2025e-06	5.3547e-06	285.18	80.886	63.818	19.099	5.0525e-06	26.58	191.416	82.329	86.849	-8.446	165.540	142.883	-8.004	-0.297	201.908	117.065	-1.019	5.747	6.461	13.214	148.426	12.322	-8191	255	
661.005	1	1	0	0	0.1134	0.32726	0.18259	0.26491	0.19975	0.10865	0.15856	0.33528	0.19671	0.13853	0.40271	0.086462	0.10328	0.047134	0.26341	0.20325	-2.4333	-3.3812	-3.1208	-3.3917	-3.425	-2.9458	-3.3229	-3.3333	-2.975	-3.3812	-3.2833	-2.8979	-3.3646	-3.0083	-3.1333	-3.3187	125.430	243.396	178.080	279.288	296.195	22.081	291.507	223.796	138.035	81.911	58.089	43.926	39.394	126.400	17.689	231.237	0.00011166	0.00021781	7.9856e-05	1102.1	1.7149e-06	4.2864e-06	1197.5	199.92	1.0923e-06	9.6068e-07	285.67	80.496	63.421	18.928	9.4389e-07	26.386	0.00036105	0.00049286	0.00013135	1083.6	5.2056e-06	5.2294e-06	1174.7	199.18	5.0975e-06	4.8007e-06	284.46	81.136	63.907	19.082	5.0031e-06	26.616	199.232	86.015	92.471	-8.239	222.159	110.957	-8.226	-0.405	123.960	68.112	-1.674	6.009	6.488	12.869	93.228	12.123	-8191	255	
661.126	1	1	0	0	0.34996	0.12332	0.071235	0.068183	0.21592	0.13807	0.24407	0.17207	0.17733	0.17177	0.14173	0.17872	0.16374	0.17381	0.20815	0.10038	-2.3958	-3.2	-3.0146	-3.0875	-3.3729	-3.0271	-3.2958	-3.5042	-2.9854	-3.2729	-3.1958	-2.9729	-3.4146	-2.9583	-2.9667	-3.2708	333.186	323.456	251.292	114.429	244.587	170.174	298.247	27.107	58.198	212.567	247.386	49.777	156.712	5.114	175.459	196.769	0.00011377	0.00048099	0.00011101	1100.4	1.2354e-06	1.7137e-06	1194.4	199.25	1.14e-06	3.1021e-06	287.04	80.436	63.248	18.856	2.5761e-06	26.341	0.00033418	0.00048024	0.00013186	1082.2	5.158e-06	5.4482e-06	1174.4	198.99	5.1632e-06	5.2025e-06	285.26	81.016	63.708	19.051	4.9308e-06	26.655	193.551	60.370	56.425	-8.566	179.701	110.582	-8.145	-0.233	60.475	157.481	-1.206	5.824	6.331	13.541	142.779	12.388	-8191	255	
661.222	1	1	0	0	0.152	0.2108	0.24786	0.2762	0.23678	0.10103	0.087835	0.11988	0.11856	0.24434	0.11923	0.21391	0.2399	0.28079	0.1186	0.14161	-2.5604	-3.1312	-2.9437	-3.0021	-3.2042	-3	-3.0667	-3.3521	-2.9083	-3.1063	-3.2292	-2.9729	-3.3396	-2.8958	-2.85	-3.1312	282.120	177.816	105.544	313.925	-18.212	21.424	-16.995	244.705	291.811	232.375	307.441	76.472	228.968	303.831	-7.674	238.151	0.00010812	0.00022773	4.8575e-05	1099.5	2.6628e-06	3.6563e-06	1190.1	199.39	1.5255e-06	4.1753e-06	285.54	80.244	63.507	18.699	2.3752e-06	26.24	0.00034485	0.00046854	0.00012609	1081.4	4.991e-06	5.1954e-06	1172.8	198.93	4.9092e-06	5.3645e-06	284.63	80.936	63.82	19.037	5.022e-06	26.653	187.941	98.534	131.818	-8.563	166.058	123.579	-8.057	-0.548	148.205	138.195	-1.358	5.831	6.213	13.585	148.588	12.403	-8191	255	
661.318	1	1	0	0	0.13796	0.082689	0.19398	0.22973	0.31156	0.15473	0.20326	0.14479	0.14393	0.23671	0.1763	0.12042	0.19393	0.071127	0.17957	0.058388	-2.3417	-2.9813	-3.1292	-2.9542	-3.3542	-3.0771	-3.1458	-3.3792	-3.0167	-3.0542	-3.2313	-2.9479	-3.1292	-3.3125	-3.0312	-3.3937	105.090	-11.922	283.912	283.926	75.264	147.464	170.635	274.237	195.829	59.353	171.099	70.147	334.613	268.139	71.678	109.890	0.00011602	0.00041323	0.00018572	1101.2	1.6162e-06	2.6435e-06	1195.2	199.51	5.6437e-07	2.9342e-06	287.39	80.321	63.731	18.915	4.5981e-06	26.443	0.00034925	0.00046337	0.00013169	1082	5.042e-06	4.9141e-06	1172.9	198.99	4.9423e-06	5.1722e-06	284.6	80.982	64.045	19.097	5.0574e-06	26.646	188.051	89.608	78.705	-8.459	160.906	138.954	-8.160	-0.269	195.423	150.079	-1.190	5.800	6.183	13.249	146.696	12.447	-8191	255	
661.389	1	1	0	0	0.31316	0.084572	0.076516	0.25952	0.20705	0.19987	0.30344	0.083732	0.13066	0.18045	0.20436	0.12565	0.031481	0.38306	0.07117	0.10568	-2.5375	-3.0729	-3.2687	-2.9333	-2.8438	-3.0375	-2.8792	-3.1937	-2.9208	-2.8729	-3.2917	-3.0187	-3.1521	-3.2146	-2.8958	-3.2	39.610	278.464	160.368	295.441	164.316	37.405	278.736	193.058	202.198	98.301	263.404	304.052	205.194	307.092	302.265	280.764	0.00011842	0.00010684	0.00011438	1101.6	2.4547e-06	4.657e-06	1193	199.24	1.3531e-06	1.9288e-06	286.34	79.942	62.933	18.782	2.9454e-06	26.317	0.00035075	0.00048082	0.00012912	1082.4	5.0133e-06	5.0353e-06	1172	198.44	4.94e-06	5.4044e-06	284.21	80.807	63.715	19.031	5.0285e-06	26.556	190.650	14.047	79.973	-8.518	187.376	148.503	-8.103	-0.214	146.896	121.514	-1.226	6.105	6.718	12.942	129.145	12.305	-8191	255	
661.510	1	1	0	0	0.22154	0.070483	0.26163	0.069099	0.15588	0.14915	0.3614	0.1245	0.26977	0.19977	0.20393	0.12329	0.18013	0.16573	0.12622	0.18995	-2.5271	-2.9875	-3.2125	-2.8812	-2.8771	-3.1208	-2.9833	-3.2938	-3.0062	-2.9854	-3.2708	-2.8771	-3.1333	-3.1417	-2.7792	-3.1479	116.312	146.334	45.305	298.538	290.605	70.699	282.336	337.653	313.848	213.136	-6.458	193.091	264.949	-14.799	196.901	-1.507	0.00014904	8.3668e-05	0.00010798	1101.2	4.0076e-06	2.5435e-06	1192.9	199.91	1.1709e-06	3.7776e-06	286.47	80.132	63.372	18.821	1.8245e-06	26.644	0.00033685	0.00047435	0.00013252	1081.3	5.3557e-06	5.2283e-06	1173.6	198.82	5.0961e-06	5.2219e-06	284.18	80.686	63.747	19.044	5.1502e-06	26.663	193.464	90.339	89.391	-8.511	159.449	150.444	-8.285	-0.362	164.940	113.132	-1.236	5.868	6.613	13.298	147.702	12.350	-8191	255	
661.606	1	1	0	0	0.12851	0.10115	0.10478	0.16863	0.23986	0.099282	0.22941	0.31042	0.050549	0.19451	0.34764	0.20571	0.077927	0.21664	0.19172	0.13293	-2.5917	-2.6521	-3.0792	-3.0438	-2.9083	-3.1479	-3.0312	-3.0187	-2.8125	-2.8292	-3.1625	-2.9333	-2.9667	-3.0792	-2.7229	-3.2083	39.422	323.278	6.110	330.685	11.775	156.706	337.514	316.402	260.955	274.836	240.571	40.576	-2.108	90.321	150.363	-8.959	0.00010975	0.00021395	9.5111e-05	1100.8	2.3086e-06	2.5899e-06	1197.9	199.13	1.6876e-06	2.2633e-06	288.03	80.025	63.911	18.766	4.6089e-06	26.424	0.00033061	0.00047647	0.00012613	1080.3	5.1483e-06	5.1033e-06	1172.4	198.66	4.8501e-06	5.3078e-06	285.25	80.762	64.028	19.052	5.0879e-06	26.672	183.757	86.871	54.787	-8.315	147.338	126.647	-8.274	-0.310	196.019	103.854	-1.469	5.848	6.253	13.175	156.410	12.325	-8191	255	
661.702	1	1	0	0	0.33109	0.29006	0.15748	0.030856	0.14229	0.084814	0.21486	0.39953	0.051275	0.10536	0.11436	0.030649	0.12862	0.14326	0.19911	0.12841	-2.6896	-2.925	-3.4396	-3.3167	-3.0396	-3.2917	-2.9646	-3.0333	-3.0458	-2.9729	-3.225	-2.9979	-3.0458	-3.2833	-2.8958	-3.1937	94.028	148.674	166.194	47.874	154.235	153.154	322.746	53.893	97.106	97.517	333.541	335.851	46.241	29.801	103.076	128.074	0.00013114	0.00025059	5.6734e-05	1100.3	3.4941e-06	2.3017e-06	1191.7	199.11	1.8703e-06	3.0014e-06	286	80.874	63.489	18.926	2.3891e-06	26.325	0.00033382	0.00049103	0.00012982	1079.9	5.2469e-06	4.9885e-06	1171.3	198.57	4.7384e-06	5.0345e-06	284.7	80.964	63.848	19.085	4.844e-06	26.667	189.290	92.465	70.068	-8.568	197.273	151.874	-8.075	-0.089	163.624	147.460	-1.407	5.590	6.641	13.091	157.934	13.130	-8191	255	
661.799	1	1	0	0	0.23532	0.17954	0.08938	0.066199	0.17681	0.21593	0.33803	0.12425	0.10854	0.10981	0.21671	0.18041	0.13422	0.21602	0.22891	0.20404	-2.5604	-2.7083	-3.1021	-3.0687	-2.9125	-3.3521	-3.1229	-3.1104	-3.2417	-2.7938	-3.2021	-3.1333	-3.0917	-3.475	-2.9688	-2.9604	92.244	-16.878	190.326	145.844	61.408	305.890	-10.353	323.754	96.420	226.655	-2.028	6.498	338.707	285.019	121.085	75.065	0.00014075	0.00013301	0.00010544	1101.7	3.5788e-06	3.527e-06	1190.3	199.03	2.111e-06	2.5486e-06	287.16	80.605	62.969	18.81	2.617e-06	26.288	0.00034039	0.00046753	0.00012699	1078.7	5.2294e-06	4.8472e-06	1170.2	198.53	4.7801e-06	5.0977e-06	284.84	81.054	63.757	19.034	4.7577e-06	26.666	181.068	68.897	82.898	-8.619	163.045	145.997	-8.229	-0.508	181.476	133.142	-1.457	6.071	6.707	13.152	135.887	12.812	-8191	255	
661.917	1	1	0	0	0.044112	0.17016	0.046973	0.13093	0.32584	0.11052	0.11786	0.12135	0.22474	0.093167	0.22104	0.12114	0.14816	0.23919	0.23791	0.22221	-2.8021	-3.0187	-3.1542	-3.3292	-2.7792	-3.0854	-2.9521	-3.1312	-3.2062	-3.0104	-3.3229	-3.2646	-2.9562	-3.1813	-2.9313	-2.8375	93.368	162.746	213.221	-4.458	270.711	163.541	248.149	210.433	215.864	75.520	209.778	154.779	300.594	111.727	63.790	5.500	0.00011065	0.00020724	0.00013283	1104.4	2.0578e-06	2.8597e-06	1195.9	199.45	9.4087e-07	9.7926e-07	285.19	80.171	63.45	18.903	2.792e-06	26.241	0.00033959	0.0004904	0.00012976	1081.6	5.1401e-06	5.0839e-06	1170.9	198.64	4.5932e-06	5.0982e-06	284.17	80.896	63.675	19.096	4.6226e-06	26.55	184.794	53.194	82.069	-8.394	165.074	130.213	-7.997	-0.398	190.034	122.728	-1.367	5.923	6.438	13.133	136.087	12.570	-8191	255	
662.014	1	1	0	0	0.083096	0.10488	0.021546	0.30986	0.084151	0.12919	0.029014	0.26042	0.146	0.13972	0.11299	0.32622	0.19019	0.099986	0.17496	0.069871	-2.8021	-2.9833	-3.0146	-3.1625	-2.7542	-3.1104	-3.3146	-3.1083	-3.2354	-2.8563	-3.0958	-2.9521	-2.8375	-3.3667	-2.9458	-2.9667	41.377	293.155	319.410	270.989	297.603	35.742	34.943	209.572	155.120	93.895	270.081	288.203	273.083	205.817	64.610	276.587	0.00012376	0.00033726	4.6021e-05	1095.6	3.1623e-06	3.8424e-06	1187.7	198.28	1.1722e-06	3.3537e-06	287.45	80.364	63.289	18.794	3.0622e-06	26.415	0.00033413	0.00046898	0.00012523	1076.8	5.1814e-06	4.9852e-06	1169.7	198.2	4.6599e-06	5.0021e-06	284.96	80.779	63.734	19.032	4.6665e-06	26.655	194.540	88.147	85.382	-8.591	166.536	85.658	-8.103	-0.661	149.220	117.170	-1.037	5.827	6.370	13.170	151.009	12.690	-8191	255	
662.110	1	1	0	0	0.12578	0.093999	0.089995	0.28497	0.15056	0.21467	0.082352	0.17031	0.23478	0.13134	0.084166	0.31791	0.2274	0.2574	0.26782	0.10996	-2.9271	-2.9562	-2.9833	-3.2708	-2.9792	-3.1979	-3.175	-2.9542	-3.025	-2.8083	-2.9083	-3.2021	-2.9042	-3.0229	-2.8771	-2.7625	53.354	166.823	-17.689	19.846	182.296	272.106	331.150	264.795	173.823	96.564	98.450	155.070	242.426	264.032	200.263	230.788	0.00011555	0.0001462	8.4918e-05	1099	2.5952e-06	1.5066e-06	1184.7	199.47	2.9868e-06	2.9025e-06	286.5	80.678	63.04	18.933	1.8468e-06	26.424	0.00031863	0.0004612	0.00012897	1078.7	5.1017e-06	4.8941e-06	1167.7	198.54	4.7413e-06	5.0372e-06	284.43	80.992	63.682	19.123	4.7931e-06	26.612	185.517	33.547	78.782	-8.650	192.036	121.549	-8.025	-0.220	179.298	83.648	-1.369	5.995	6.669	13.067	120.875	12.371	-8191	255	
662.206	1	1	0	0	0.10155	0.11398	0.16489	0.29781	0.14506	0.1826	0.30491	0.13669	0.068715	0.11633	0.19302	0.11296	0.089364	0.042793	0.22695	0.10563	-2.7896	-2.9354	-3.0354	-3.3604	-2.8292	-2.8438	-3.075	-2.775	-3.0104	-2.9542	-3.1271	-3.3063	-2.9625	-3.25	-3.325	-3.1833	227.597	159.123	70.758	309.060	64.369	200.396	237.927	228.134	242.053	6.393	162.543	109.594	324.725	287.804	76.458	241.130	0.00011984	0.00035516	8.7147e-05	1097.7	4.4945e-06	3.2035e-06	1191.4	198.34	2.7005e-07	2.3075e-06	285.56	80.497	63.642	18.946	2.383e-06	26.33	0.00032952	0.00046869	0.00012614	1078.8	5.1051e-06	4.9793e-06	1169.4	197.91	4.5431e-06	5.1198e-06	283.92	80.907	63.829	19.073	4.7513e-06	26.604	190.919	80.123	96.379	-8.710	174.767	135.887	-8.178	-0.148	134.197	136.928	-1.342	5.877	6.277	13.197	148.456	12.985	-8191	255	
662.302	1	1	0	0	0.073484	0.28421	0.15167	0.18376	0.18466	0.23964	0.207	0.20732	0.21444	0.22079	0.18639	0.24222	0.078738	0.24084	0.14844	0.11446	-2.8208	-2.9	-2.9167	-3.5771	-2.8979	-3.1896	-3.3833	-2.8333	-3.1583	-3.1063	-2.8708	-3.3021	-3.0062	-3.2292	-3.2042	-2.7	34.177	234.181	216.156	39.599	128.597	92.040	248.218	315.042	334.153	297.850	235.004	216.138	233.672	291.189	202.690	297.045	0.00013261	0.00018857	5.7908e-05	1097.6	2.6733e-06	4.0355e-06	1186.4	199.01	4.2472e-07	1.3661e-06	286.97	80.823	63.421	18.887	3.6751e-06	26.245	0.00033734	0.00047788	0.00013255	1077.6	4.9473e-06	5.0876e-06	1167.9	198.66	4.5715e-06	5.2116e-06	284.11	80.906	63.826	19.048	4.6086e-06	26.58	191.250	42.557	106.060	-8.610	208.789	122.643	-8.184	0.026	216.955	114.285	-1.271	5.761	6.407	13.168	127.993	12.660	-8191	255	
662.398	1	1	0	0	0.22921	0.12584	0.19759	0.096205	0.13867	0.25147	0.10196	0.09573	0.037227	0.077895	0.17287	0.18186	0.12862	0.14054	0.18275	0.16648	-2.6542	-3.1125	-2.7146	-3.2229	-2.7687	-2.7042	-3.2667	-2.8375	-2.9854	-2.9708	-2.8688	-3.1875	-2.8812	-2.8583	-3.4	-2.9354	5.237	340.657	265.226	35.091	190.624	322.992	271.108	248.550	156.659	71.431	296.627	117.112	203.406	111.283	238.389	224.138	9.6849e-05	0.00022248	5.8587e-05	1094.9	2.1825e-06	4.8947e-06	1189.6	198.35	2.4704e-06	1.8745e-06	283.62	79.876	63.373	18.838	4.0635e-06	26.095	0.00032497	0.00044974	0.0001331	1076.7	4.8832e-06	5.0089e-06	1167.9	197.92	4.5313e-06	4.7116e-06	283.92	80.768	63.762	19.037	4.7732e-06	26.555	191.317	92.594	113.576	-8.369	136.725	132.822	-8.284	-0.171	156.977	138.890	-0.994	5.846	6.639	12.799	165.941	12.722	-8191	255	
662.519	1	1	0	0	0.26753	0.14862	0.21456	0.22172	0.28655	0.15496	0.2695	0.35058	0.13592	0.11037	0.33408	0.10742	0.17977	0.28348	0.17988	0.053609	-2.7375	-3.0333	-2.825	-3.2583	-2.95	-2.9771	-3.225	-2.9062	-2.9896	-2.8729	-2.9167	-3.3896	-3.2104	-2.9521	-3.4271	-3.0062	-11.242	331.644	282.898	205.250	-5.916	-4.777	204.313	284.121	78.637	229.303	315.376	86.513	255.002	339.590	0.408	3.815	0.00012751	0.00022857	9.9487e-05	1098.7	3.4984e-06	1.89e-06	1189.2	197.42	2.7757e-06	1.1859e-06	285.33	80.625	62.94	18.963	3.1397e-06	26.33	0.00033706	0.00042996	0.00012773	1076.5	4.837e-06	4.9814e-06	1167.3	197.64	4.6784e-06	4.8488e-06	283.87	81.087	63.576	19.113	4.664e-06	26.617	194.755	41.460	62.754	-8.678	172.348	131.220	-7.976	-0.391	168.980	104.217	-1.409	6.190	6.740	13.233	140.770	12.614	-8191	255	
662.613	1	1	0	0	0.26375	0.15315	0.064356	0.13104	0.16514	0.2086	0.13157	0.083183	0.27164	0.092602	0.084874	0.17843	0.090473	0.23317	0.086308	0.062284	-2.7313	-3.1042	-2.8958	-3.3	-3.2479	-3.1458	-3.3688	-3.0021	-2.9833	-3.0729	-3.0312	-3.2271	-3.1354	-2.8312	-3.1583	-2.9646	248.865	67.362	221.864	254.015	237.565	289.390	291.462	276.422	19.505	185.861	314.470	37.525	85.624	47.371	151.896	25.462	0.00010807	0.00042047	8.2637e-05	1094.8	1.452e-06	4.563e-06	1189.5	200.08	1.4896e-06	3.927e-06	284.71	79.918	63.203	18.783	2.5198e-06	26.373	0.00032994	0.00044432	0.00012335	1075.1	4.8939e-06	5.0914e-06	1166.9	198.67	4.8444e-06	4.933e-06	283.57	80.855	63.704	19.035	4.5423e-06	26.569	197.122	66.481	104.337	-8.444	186.064	130.863	-8.203	-0.408	203.483	175.100	-1.313	5.654	6.602	13.240	131.927	12.173	-8191	255	
662.687	1	1	0	0	0.13399	0.085477	0.14062	0.18293	0.052067	0.12405	0.24406	0.27304	0.14585	0.07652	0.24671	0.037785	0.14463	0.11547	0.25074	0.2033	-2.575	-3.2604	-2.9271	-3.3354	-3.025	-2.7875	-3.5021	-3.3	-3.1208	-3.2854	-2.8875	-3.25	-3.0167	-2.9021	-3.1958	-3.1729	207.607	150.279	89.870	-10.914	45.148	152.812	290.479	157.964	113.468	118.259	332.730	174.337	70.758	-15.058	316.502	-1.413	0.00010083	0.00020911	0.00010528	1096.4	2.6117e-06	2.7498e-06	1193.9	198.57	1.5936e-06	1.8842e-06	286.43	80.163	63.391	18.825	3.2415e-06	26.178	0.00032515	0.00044901	0.00011948	1075.3	4.8487e-06	5.0898e-06	1167.9	197.97	4.5251e-06	4.7764e-06	283.98	80.887	63.762	19.046	4.6585e-06	26.595	193.909	57.537	70.132	-8.563	140.154	90.361	-8.106	-0.205	145.154	142.113	-1.246	5.712	6.447	12.601	154.784	12.361	-8191	255	
662.783	1	1	0	0	0.30058	0.090155	0.26438	0.17679	0.066651	0.10573	0.23044	0.18604	0.046549	0.13671	0.1795	0.14018	0.18209	0.19997	0.15998	0.030319	-2.5208	-3.3292	-2.8771	-3.1688	-3.2667	-2.7833	-3.2854	-3.0229	-2.8667	-3.1833	-3.0312	-3.0687	-3.3521	-2.9875	-3.35	-3.0812	118.218	127.982	243.145	241.773	16.434	305.781	213.743	18.059	134.235	144.583	247.780	329.728	292.591	289.612	300.061	177.493	0.00012853	0.00035539	3.0431e-05	1094.2	3.4777e-06	1.0104e-06	1186.9	198.62	1.8716e-06	1.9307e-06	286.26	80.844	63.253	18.835	3.7171e-06	26.501	0.00032124	0.00044099	0.00012298	1074.6	4.8375e-06	4.7971e-06	1166.5	197.99	4.7489e-06	4.7813e-06	283.45	81.028	63.581	19.052	4.7109e-06	26.593	185.028	95.682	93.976	-8.333	184.992	155.384	-8.127	-0.275	162.517	120.574	-1.238	5.719	6.517	13.331	146.812	12.922	-8191	255	
662.902	1	1	0	0	0.1687	0.24917	0.11495	0.17844	0.044944	0.17788	0.33443	0.10126	0.14928	0.097991	0.079578	0.33029	0.10108	0.11058	0.22115	0.13294	-2.4583	-3.0563	-2.9146	-3.1729	-3.5542	-3.225	-3.4083	-3.2812	-2.9271	-3.3833	-3.3	-3.0583	-3.4792	-3.0833	-3.1437	-3.2042	221.713	274.140	45.164	7.791	-0.836	296.133	248.570	337.816	20.496	-1.937	182.432	318.736	241.591	196.533	268.118	42.181	0.00010182	0.00018432	8.318e-05	1097.5	3.3259e-06	5.433e-06	1186.4	198.68	2.6895e-06	2.8453e-06	285.94	80.674	63.666	18.822	3.9435e-06	26.31	0.00033447	0.00043465	0.00012376	1076.7	4.7069e-06	5.0213e-06	1166	198.2	4.6344e-06	4.7143e-06	283.61	80.952	63.644	19.069	4.5473e-06	26.583	179.262	68.249	96.370	-8.500	176.579	140.752	-8.152	-0.196	196.280	147.222	-1.148	5.915	6.278	12.812	171.112	12.802	-8191	255	
662.998	1	1	0	0	0.12243	0.045958	0.12076	0.035439	0.2006	0.26817	0.21416	0.12766	0.13192	0.12572	0.3106	0.11841	0.053341	0.092851	0.10369	0.077944	-2.5625	-3.1854	-2.8875	-3.0958	-3.1688	-2.9938	-3.3229	-3.3333	-2.7583	-3.3292	-3.2333	-2.8771	-3.2021	-2.7917	-2.9833	-3.2521	251.777	175.169	143.095	-15.714	296.229	180.399	311.678	112.600	224.163	227.553	318.728	200.969	230.915	12.388	243.777	62.649	0.00011203	0.00025455	7.8325e-05	1097.2	4.1731e-06	3.5714e-06	1188.9	198.6	2.5835e-06	2.8409e-06	286.61	80.509	63.275	18.861	8.4663e-07	26.241	0.00033131	0.00045486	0.00012243	1076.7	4.8574e-06	4.9895e-06	1167.3	197.9	4.6221e-06	5.0075e-06	283.98	80.805	63.738	19.052	4.7413e-06	26.569	195.964	105.918	85.895	-8.343	174.620	105.086	-8.220	-0.694	172.808	131.593	-1.234	5.888	6.388	13.403	76.627	12.805	-8191	255	
663.094	1	1	0	0	0.22831	0.1181	0.25454	0.3127	0.25474	0.21791	0.11941	0.14717	0.097065	0.12719	0.067846	0.12847	0.15657	0.022258	0.17652	0.12944	-2.4688	-3.2125	-3.0938	-3.1333	-3.1354	-2.8583	-2.9688	-3.3479	-2.9583	-3.4229	-3.325	-3.0479	-3.3688	-3.0458	-2.9604	-3.4646	82.140	286.319	299.188	282.488	116.190	144.378	297.388	-2.698	263.401	155.230	80.484	123.648	148.864	177.529	131.888	247.894	0.000111	0.00023128	8.8597e-05	1095.8	9.4311e-07	2.8559e-06	1188.4	197.81	1.9903e-06	4.2743e-06	286.99	80.488	63.357	18.815	4.0488e-06	26.4	0.00032712	0.00044626	0.00012457	1075.2	4.8409e-06	4.9599e-06	1166.1	197.84	4.6699e-06	4.7299e-06	283.86	80.809	63.657	19.013	4.7393e-06	26.578	209.789	48.112	71.254	-8.385	120.434	131.197	-7.943	-0.524	171.910	130.650	-1.589	6.291	6.595	13.073	126.819	12.750	-8191	255	
663.190	1	1	0	0	0.018627	0.11232	0.06347	0.32893	0.1415	0.1234	0.022009	0.25996	0.14122	0.054324	0.092664	0.18762	0.021011	0.089988	0.12094	0.12827	-2.6396	-3.075	-3.1375	-2.9646	-3.3667	-3.0687	-3.2958	-3.3833	-2.7396	-3.2083	-3.5	-2.8792	-3.3583	-3.0125	-2.8479	-3.3875	267.198	281.906	259.612	279.202	237.483	287.792	-7.004	265.491	46.115	244.923	332.457	299.971	337.915	253.698	25.436	13.593	0.00012073	0.00025147	9.8696e-05	1091	2.5738e-06	2.924e-06	1189.4	197.69	5.4752e-07	2.5206e-06	286.16	80.435	63.514	18.695	3.7218e-06	26.238	0.00032722	0.00043523	0.0001219	1075.2	4.8152e-06	4.6074e-06	1165.8	197.87	4.6751e-06	4.7899e-06	283.68	80.712	63.715	19.014	4.7179e-06	26.521	199.528	64.511	67.964	-8.207	163.708	115.936	-8.350	-0.529	126.467	135.256	-1.224	5.772	6.425	12.927	148.370	12.369	-8191	255	
663.286	1	1	0	0	0.072973	0.16607	0.31114	0.2427	0.16347	0.098742	0.085677	0.2124	0.20667	0.34199	0.25112	0.0364	0.12646	0.076662	0.16117	0.11401	-2.5104	-3.2479	-3.1792	-3.0667	-3.2313	-3.0833	-3.0062	-3.3167	-2.7292	-2.9938	-3.2854	-2.9333	-3.3521	-3.3167	-3.0667	-3.4354	161.224	326.595	-2.704	290.553	240.902	330.694	337.712	272.064	328.035	47.876	285.629	26.271	322.386	162.457	146.651	326.545	0.00013886	0.00022852	9.5512e-05	1091.4	2.0195e-06	4.8776e-06	1186.6	198.85	2.0324e-06	2.4029e-06	284.7	80.149	63.292	18.852	4.6824e-06	26.359	0.00033066	0.00044969	0.0001222	1074.4	4.7341e-06	4.533e-06	1165.9	197.82	4.5913e-06	4.8493e-06	283.4	80.773	63.62	19.019	4.4341e-06	26.608	192.751	87.251	48.888	-8.429	168.338	156.374	-8.225	-0.134	176.189	124.650	-1.050	6.318	6.335	13.494	162.172	13.127	-8191	255	
663.382	1	1	0	0	0.12718	0.46562	0.1541	0.18671	0.28985	0.16447	0.10071	0.14049	0.041009	0.067696	0.064773	0.17352	0.12503	0.1003	0.20939	0.12506	-2.4917	-2.9562	-3.1979	-3.2208	-3.1583	-3.1958	-3.1292	-3.1708	-3.0854	-3.0771	-3.4521	-3.075	-3.225	-2.9271	-2.85	-3.2917	222.112	43.006	203.635	266.344	108.221	293.325	23.077	185.666	54.976	115.298	283.949	314.159	24.924	325.430	1.909	44.954	0.00010114	0.00033541	8.5592e-05	1092.9	2.2305e-06	2.7281e-06	1183.8	199.35	2.1324e-06	2.9007e-06	285.82	79.85	63.246	18.835	2.4556e-06	26.213	0.00031811	0.0004288	0.00011887	1074.4	4.634e-06	4.7249e-06	1163.4	197.8	4.4745e-06	4.8326e-06	283.17	80.561	63.665	19.035	4.7543e-06	26.535	198.718	87.236	91.595	-8.431	236.679	98.996	-8.059	-0.520	168.234	109.163	-0.863	5.901	6.571	13.347	163.283	12.469	-8191	255	
663.479	1	1	0	0	0.12972	0.20471	0.16259	0.077215	0.092395	0.10076	0.40492	0.22726	0.15596	0.22035	0.22462	0.15723	0.15643	0.16113	0.13994	0.072752	-2.8417	-3.1562	-3.4458	-3.0208	-3.1188	-3.0438	-2.8812	-3.1854	-2.9021	-2.9125	-3.2	-2.9979	-3.1646	-3.3083	-2.9062	-3.1813	272.923	32.369	334.332	306.127	53.131	142.932	223.814	254.255	97.610	324.169	286.653	184.211	53.029	324.475	82.726	291.938	0.0001122	0.00018766	0.00012684	1094.5	2.4729e-06	3.2749e-06	1189.5	198.57	1.3936e-06	1.8642e-06	286.44	80.239	63.392	18.763	3.2423e-06	26.362	0.00031342	0.00045718	0.00011924	1073	4.94e-06	4.9017e-06	1165.3	198.04	4.5625e-06	4.7786e-06	284.08	80.748	63.616	18.97	4.7149e-06	26.59	192.406	44.783	56.927	-8.469	164.742	94.159	-8.135	-0.355	172.388	114.948	-1.291	6.232	6.329	13.087	136.921	12.511	-8191	255	
663.599	1	1	0	0	0.24228	0.11081	0.1017	0.39471	0.35596	0.16617	0.24867	0.21558	0.15536	0.25895	0.046556	0.079016	0.19949	0.11407	0.11659	0.047323	-2.5021	-3.0521	-3.2542	-3.0187	-2.9917	-3.0771	-2.9938	-3.15	-3.0833	-3.0646	-3.2958	-3.0167	-2.8917	-3.3396	-3.0062	-3.3125	252.172	305.007	248.042	15.752	164.182	217.512	324.525	238.746	202.755	23.152	254.455	299.086	201.109	31.485	207.805	129.107	0.00010656	0.00035159	0.00010307	1095.2	2.489e-06	2.9007e-06	1185.6	197.67	2.8368e-06	3.7452e-06	285.68	80.121	62.899	18.793	2.4299e-06	26.364	0.00032442	0.00045418	0.00012108	1073.3	4.6719e-06	4.5389e-06	1164.8	197.6	4.6325e-06	4.8984e-06	283.86	80.819	63.574	18.961	4.5423e-06	26.567	190.453	84.590	70.374	-8.405	180.663	100.852	-8.245	-0.360	177.102	136.676	-1.081	5.965	6.306	13.288	146.008	12.479	-8191	255	
663.694	1	1	0	0	0.33438	0.16988	0.10206	0.074382	0.23166	0.11437	0.24603	0.15052	0.20418	0.27524	0.16641	0.20778	0.17731	0.12064	0.10036	0.15052	-2.6604	-2.6896	-3.2667	-3.2542	-3.0417	-3.3396	-3.0312	-3.2604	-3.1042	-2.9479	-3.2896	-3.0833	-3.0687	-3.2125	-2.7562	-3.1562	184.526	326.493	280.158	289.438	329.887	91.771	41.723	226.114	125.971	324.946	317.136	304.894	251.709	301.867	245.241	271.026	0.00013301	0.00017024	0.00011614	1094.4	2.2822e-06	3.6864e-06	1177.6	196.84	1.2493e-06	2.1827e-06	283.67	80.208	63.367	18.831	4.4356e-06	26.36	0.00032595	0.00043968	0.0001178	1072.2	4.7938e-06	4.7486e-06	1162.7	197.33	4.4863e-06	5.0162e-06	282.18	80.725	63.679	18.997	4.7642e-06	26.537	199.429	102.229	96.890	-8.552	124.547	158.888	-7.861	-0.460	151.364	119.831	-1.203	5.961	6.365	13.655	123.391	12.536	-8191	255	
663.792	1	1	0	0	0.15135	0.15204	0.087656	0.14307	0.14003	0.17995	0.11921	0.17146	0.054346	0.21819	0.15785	0.030783	0.052736	0.092634	0.16201	0.13386	-2.9688	-2.85	-3.15	-3.2	-3.0521	-3.3271	-2.7271	-2.9104	-3.3333	-3.0229	-3.225	-2.9771	-2.9854	-3.3021	-2.925	-3.1	132.371	70.871	104.607	326.201	82.645	72.111	277.833	193.122	228.781	309.546	119.091	262.325	332.885	88.688	246.423	122.384	0.0001199	0.0003512	7.6656e-05	1094.6	1.3808e-06	4.1125e-06	1186.5	198.63	1.7075e-06	2.1891e-06	285.15	80.626	62.716	18.805	2.8922e-06	26.396	0.00031272	0.00045776	0.00011839	1073.2	4.787e-06	4.7702e-06	1165.2	197.53	4.3841e-06	4.6965e-06	283.05	80.736	63.362	18.961	4.4949e-06	26.574	183.980	93.906	67.898	-8.408	183.590	106.330	-8.180	-0.176	186.775	111.420	-0.944	6.376	6.708	12.782	140.499	12.729	-8191	255	
663.910	1	1	0	0	0.16019	0.12695	0.12762	0.28532	0.25386	0.14147	0.14358	0.16267	0.083499	0.37781	0.053451	0.2043	0.13713	0.30986	0.17789	0.15321	-2.7438	-2.8896	-3.2521	-3.2458	-2.8563	-3.1667	-3.0833	-3.1271	-3.2896	-2.8646	-3.2104	-3.2125	-2.7021	-3.3187	-3.0417	-3.1021	6.440	315.197	67.916	-7.531	63.232	31.983	206.827	283.267	214.656	224.303	86.853	274.060	85.349	210.082	57.433	335.635	0.00011803	0.00036435	0.00010187	1093.3	4.3747e-06	2.7581e-06	1183.4	197.77	1.1965e-06	3.9118e-06	285.14	79.796	63.427	18.669	2.0637e-06	26.249	0.00031153	0.00045298	0.00011788	1072.6	4.7511e-06	4.4063e-06	1160.7	197.69	4.2924e-06	4.8725e-06	282.42	80.402	63.546	18.961	4.4371e-06	26.515	191.166	83.050	72.709	-8.254	169.558	146.107	-7.904	-0.568	206.924	142.785	-1.480	6.191	6.488	13.268	174.097	12.762	-8191	255	
663.982	1	1	0	0	0.18819	0.17241	0.066756	0.062389	0.30265	0.20199	0.2331	0.13982	0.18704	0.23149	0.1684	0.14614	0.30204	0.13082	0.1313	0.099797	-2.7542	-2.8187	-3.0917	-3.3854	-3.0333	-3.3354	-3.2292	-3.05	-3.2708	-2.8312	-3.2083	-3.2125	-2.9833	-3.3563	-3.0729	-3.0187	164.268	26.749	106.494	16.835	199.052	113.366	322.175	230.443	315.898	69.689	21.264	184.395	10.764	173.499	126.692	307.289	0.00012491	0.00020759	7.9655e-05	1093.3	2.3133e-06	1.8003e-06	1181.8	197.22	1.7921e-06	3.8233e-06	284.09	80.207	63.345	18.704	7.8055e-07	26.234	0.00030517	0.00043194	0.00011669	1070.3	4.6258e-06	4.6413e-06	1161.3	197.25	4.3917e-06	4.6727e-06	282.91	80.715	63.588	18.993	4.5588e-06	26.495	192.650	67.142	62.133	-8.344	141.380	147.528	-8.070	-0.292	179.636	148.118	-1.261	6.322	6.787	12.898	183.115	12.552	-8191	255	
664.078	1	1	0	0	0.17818	0.27357	0.25602	0.059887	0.20559	0.13719	0.34196	0.17871	0.1635	0.13246	0.077843	0.24682	0.16043	0.12681	0.057163	0.14682	-2.7812	-2.8542	-3.2625	-3.2062	-2.725	-3.3583	-3.3708	-3.0333	-3.35	-3.0396	-3.175	-3.1125	-2.9292	-3.35	-3.2188	-2.9271	125.534	265.616	65.042	288.972	54.202	308.370	213.982	107.225	-8.487	288.227	78.212	36.072	-4.632	178.561	101.556	101.712	0.00013556	0.00012322	5.4961e-05	1082.1	3.2272e-06	3.1636e-06	1179.7	199.16	2.0407e-06	1.6208e-06	283.49	79.933	63.544	18.701	1.5387e-06	26.367	0.00031894	0.00045128	0.00012029	1067.3	4.5962e-06	4.6758e-06	1160.3	197.93	4.3799e-06	4.6376e-06	282.56	80.456	63.471	18.943	4.5732e-06	26.554	197.280	64.422	63.366	-8.756	200.797	122.059	-8.015	-0.301	158.321	121.917	-1.286	6.183	6.525	13.083	118.856	12.227	-8191	255	
664.199	1	1	0	0	0.10238	0.28287	0.01233	0.38891	0.15882	0.19572	0.039444	0.16679	0.068887	0.092891	0.29	0.13212	0.27853	0.094994	0.26374	0.13371	-2.8542	-2.9896	-3.0042	-3.325	-2.6562	-3.2687	-3.3479	-2.7042	-3.0938	-3.1208	-3.0521	-3.4458	-3.0979	-2.9938	-3.1333	-2.9792	26.897	282.097	294.452	-5.332	-11.550	71.284	-4.694	272.977	172.188	132.243	311.961	199.112	332.383	169.444	68.898	328.270	0.00011914	8.196e-05	7.6883e-05	1088.1	5.9899e-07	2.6378e-06	1180.6	198.07	1.661e-06	3.283e-06	284.68	80.046	63.236	18.823	3.9028e-06	26.327	0.00030838	0.00041077	0.00011891	1070.1	4.7705e-06	4.8456e-06	1160.9	197.44	4.3822e-06	4.5679e-06	282.65	80.593	63.56	18.989	4.483e-06	26.545	180.866	18.129	75.828	-8.645	132.739	157.524	-8.008	-0.580	193.308	130.825	-1.011	5.971	6.321	13.595	157.542	12.891	-8191	255	
664.295	1	1	0	0	0.19302	0.1162	0.20303	0.1919	0.14038	0.19377	0.18235	0.14902	0.1765	0.2669	0.23994	0.18418	0.093626	0.15684	0.10039	0.22064	-2.8542	-3.1437	-2.9375	-3.2792	-2.6854	-3.1292	-3.2958	-3.1167	-3.2438	-2.9604	-2.9562	-3.5312	-3.0146	-3.0646	-3.0646	-2.8312	330.992	1.589	6.759	312.833	324.721	288.394	258.982	298.371	146.715	243.617	9.221	-10.875	136.114	63.132	247.034	161.908	0.00012692	0.00029997	0.00010012	1088.8	2.0872e-06	2.5272e-06	1181.3	198.66	1.9579e-06	4.1193e-06	285.5	79.707	63.322	18.855	2.6394e-06	26.223	0.00031461	0.00043262	0.00011653	1067.6	4.6821e-06	4.5729e-06	1159	197.38	4.2077e-06	4.6759e-06	283	80.426	63.422	18.988	4.6071e-06	26.495	198.940	90.433	122.019	-8.483	130.907	127.501	-7.900	-0.345	205.460	131.000	-1.150	6.052	6.401	13.436	161.387	12.992	-8191	255	
664.391	1	1	0	0	0.17124	0.085949	0.19746	0.22668	0.14771	0.1467	0.28168	0.16038	0.096462	0.16718	0.12734	0.16899	0.22893	0.16506	0.17325	0.1151	-2.8292	-3.05	-3.0375	-3.4792	-2.9729	-3.0833	-3.4854	-3.0812	-3.15	-3.1021	-2.8021	-3.1188	-3.1146	-3	-3.3354	-2.9104	331.045	297.320	69.385	249.659	92.609	84.140	-10.382	42.922	125.334	151.255	214.817	36.658	-15.840	319.614	42.603	111.007	0.0001149	0.0003035	6.422e-05	1089.2	1.0438e-06	2.9411e-06	1180.7	196.95	1.7865e-06	2.8727e-06	283.61	79.65	63.222	18.658	1.8486e-06	26.299	0.0003135	0.00042319	0.00011654	1066.5	4.4956e-06	4.6807e-06	1159.6	196.91	4.298e-06	4.805e-06	282.15	80.325	63.548	18.979	4.3219e-06	26.534	195.178	86.926	95.822	-8.525	222.430	128.401	-7.990	-0.387	207.857	119.850	-0.989	5.907	6.403	13.297	171.468	12.751	-8191	255	
664.487	1	1	0	0	0.15885	0.092098	0.31498	0.045776	0.28413	0.27858	0.25289	0.11398	0.11067	0.25529	0.226	0.18425	0.20017	0.1319	0.14337	0.072624	-2.7542	-3.3667	-3.0187	-3.3354	-2.9354	-2.8063	-3.5	-2.9708	-3.2417	-3.2854	-2.975	-3.3021	-3.1417	-2.8542	-3.1333	-2.85	80.040	278.680	253.467	163.958	64.684	163.467	276.449	223.932	311.374	94.045	237.048	245.126	227.086	66.894	111.813	297.279	0.0001101	0.00023554	6.49e-05	1089.5	1.2235e-06	3.5168e-06	1176.9	196.68	2.0365e-06	3.6395e-06	284.24	80.412	63.044	18.814	1.469e-06	26.283	0.00031568	0.00042339	0.00012267	1068	4.4174e-06	4.8494e-06	1157.5	196.56	4.2233e-06	4.562e-06	282.63	80.448	63.454	19.027	4.3399e-06	26.476	188.018	67.603	36.367	-8.579	249.876	126.492	-8.150	-0.389	183.626	128.143	-1.226	5.979	6.367	13.625	155.919	12.756	-8191	255	
664.583	1	1	0	0	0.10651	0.31958	0.15982	0.22463	0.083475	0.044659	0.27376	0.16821	0.050184	0.23613	0.19251	0.24926	0.078385	0.26247	0.14384	0.12951	-2.6521	-3.2708	-2.7896	-3.4771	-3.025	-2.9313	-3.4104	-2.8312	-2.9	-3.3563	-3.0229	-3.2979	-3.3125	-3.0229	-3.1542	-2.8875	63.028	49.916	238.122	267.012	195.091	330.355	-13.191	58.932	311.762	51.424	193.939	340.859	333.429	109.544	14.875	41.852	0.00011274	0.00023011	4.1174e-05	1085.2	2.2914e-06	2.196e-06	1177.3	197.52	2.171e-06	1.3413e-06	283.88	80.03	63.214	18.787	1.0736e-06	26.168	0.00030638	0.00040748	0.00011633	1065.2	4.4621e-06	4.7411e-06	1158.5	196.99	4.3874e-06	4.4994e-06	282.01	80.409	63.603	18.974	4.2327e-06	26.484	183.116	92.933	16.765	-8.196	173.782	138.998	-8.050	-0.393	132.664	96.422	-1.317	5.886	6.670	13.115	110.652	12.634	-8191	255	
664.680	1	1	0	0	0.1249	0.11091	0.18008	0.27957	0.13222	0.12721	0.13086	0.054527	0.16764	0.13828	0.12749	0.13443	0.2694	0.21398	0.14731	0.17323	-2.6479	-3.3521	-2.9896	-3.3937	-3.3187	-2.9479	-3.3104	-2.9917	-2.7812	-3.3667	-2.9875	-3.2188	-3.1792	-2.9271	-3.2042	-2.9938	304.508	-10.467	108.050	303.488	274.208	59.128	218.499	277.831	61.573	-7.057	198.388	30.657	296.156	118.791	41.398	174.584	0.00012621	0.00035918	0.00010181	1088.3	2.3826e-06	4.2046e-06	1179.5	198.28	1.9899e-06	2.579e-06	285.65	79.696	63.333	18.818	1.8323e-06	26.194	0.00030747	0.00040313	0.00011415	1067	4.4709e-06	4.7594e-06	1157.8	196.9	4.333e-06	4.3357e-06	282.15	80.519	63.601	18.982	4.1424e-06	26.449	192.774	64.469	97.375	-8.566	199.931	125.343	-8.196	-0.267	166.304	108.298	-0.596	5.875	6.600	13.345	146.182	12.857	-8191	255	
664.776	1	1	0	0	0.14712	0.2238	0.074003	0.18414	0.12713	0.091915	0.14406	0.055483	0.45554	0.26809	0.18317	0.18531	0.028241	0.1423	0.092859	0.013399	-2.3854	-3.2792	-3.1979	-3.4396	-3.1833	-2.7812	-3.4167	-3.0458	-2.9646	-3.4354	-3.1292	-3.225	-3.1729	-2.8083	-3.1979	-3.2687	-0.293	-13.046	125.734	340.809	5.832	271.006	242.561	203.284	329.802	201.853	293.581	141.642	291.927	287.288	197.521	266.218	9.6116e-05	0.00041084	9.2782e-05	1086.2	1.7372e-06	3.1622e-06	1176.3	197.34	1.8926e-06	3.1768e-06	285.97	79.949	63.07	18.657	1.8426e-06	26.203	0.00031348	0.0003997	0.0001129	1067.1	4.3873e-06	4.7411e-06	1156.8	196.87	4.4262e-06	4.6668e-06	282.86	80.538	63.416	18.925	4.3379e-06	26.494	187.685	88.745	63.013	-8.342	196.743	112.009	-8.216	-0.353	137.464	158.181	-0.937	6.208	6.448	13.227	93.007	12.841	-8191	255	
664.872	1	1	0	0	0.13776	0.074158	0.23161	0.33336	0.33442	0.1209	0.30776	0.22737	0.12965	0.10739	0.23659	0.16236	0.23783	0.11613	0.15854	0.1584	-2.4271	-3.1125	-2.975	-3.0792	-3.2396	-3.1208	-3.3729	-3.2583	-2.9396	-3.4021	-2.9938	-2.9042	-3.2646	-3.2167	-3.2229	-3.2521	97.444	108.770	181.395	326.038	64.699	261.947	266.098	261.969	223.113	34.083	317.964	-6.252	256.645	129.282	193.704	247.403	0.00011619	0.0002595	8.9974e-05	1089.9	3.3703e-06	1.9378e-06	1178.3	197.15	2.609e-06	3.5667e-06	285.54	79.433	63.04	18.742	3.299e-06	26.341	0.00030977	0.00041633	0.00011557	1066.8	4.5286e-06	4.6182e-06	1156.9	196.82	4.2063e-06	4.5701e-06	282.55	80.132	63.36	18.952	4.0761e-06	26.493	190.768	67.503	62.437	-8.409	182.099	169.374	-7.936	-0.119	174.455	144.983	-0.902	6.148	6.680	13.215	147.891	12.929	-8191	255	
664.991	1	1	0	0	0.079003	0.28273	0.032095	0.25545	0.16941	0.064844	0.32389	0.29411	0.23327	0.11272	0.27329	0.043495	0.080348	0.051661	0.19866	0.21193	-2.3937	-3.0208	-3.0833	-3.0062	-3.3438	-2.8292	-3.2667	-3.2812	-2.9542	-3.2771	-3.1979	-2.8771	-3.1688	-2.7021	-3.2438	-3.4875	303.223	190.764	245.927	293.442	115.750	81.560	256.560	244.491	45.678	169.289	248.908	128.541	-17.978	240.113	248.318	111.512	0.00011241	0.0003243	9.5288e-05	1086.2	3.6488e-06	3.8707e-06	1177.4	196.95	2.0637e-06	1.2683e-06	284.89	79.832	62.64	18.71	1.9298e-06	26.166	0.00031195	0.00039385	0.00011489	1064.6	4.3902e-06	4.4807e-06	1156.7	196.5	4.2659e-06	4.4173e-06	282.03	80.413	63.269	18.966	4.3917e-06	26.53	193.579	69.992	108.994	-8.317	158.735	131.567	-8.265	-0.410	209.055	105.941	-1.254	6.125	6.594	13.362	204.774	12.496	-8191	255	
665.087	1	1	0	0	0.20832	0.16174	0.23212	0.14701	0.16837	0.21742	0.1488	0.1029	0.28656	0.061467	0.12113	0.16109	0.15201	0.028251	0.15406	0.13357	-2.4083	-3.1292	-2.9646	-3.0583	-3.2708	-2.9354	-3.1729	-3.3917	-3.0333	-3.2812	-3.2188	-2.8438	-3.3604	-3	-3.1875	-3.3917	244.001	174.323	234.806	231.399	141.047	171.808	310.580	10.029	60.917	244.991	224.490	279.527	78.624	210.146	324.397	288.553	0.00011774	0.00027782	0.00013531	1083.9	3.0768e-06	3.3869e-06	1175.9	197.03	1.7132e-06	2.0941e-06	284.06	79.791	63.22	18.66	3.9705e-06	26.378	0.00030325	0.00040932	0.00010888	1064.6	4.3645e-06	4.3772e-06	1155.7	196.73	4.1845e-06	4.2191e-06	282.06	80.381	63.431	18.908	4.3473e-06	26.433	188.754	86.443	81.324	-8.315	159.772	163.508	-7.869	-0.043	176.798	109.072	-1.204	5.897	6.181	12.882	170.928	12.733	-8191	255	
665.183	1	1	0	0	0.085811	0.24163	0.1045	0.24396	0.23617	0.11937	0.28323	0.26681	0.1796	0.065123	0.17272	0.11557	0.15617	0.070215	0.12625	0.096411	-2.4313	-3.0958	-3.0375	-2.9875	-3.3854	-2.7417	-3.1688	-3.4042	-2.9562	-3.2667	-3.1667	-2.7708	-3.4271	-3.0708	-2.9562	-3.2583	336.310	279.428	280.416	259.213	235.330	50.417	250.278	310.390	272.049	91.636	12.294	244.041	-7.821	286.049	226.637	160.348	0.00011088	0.00032918	9.1602e-05	1080.7	1.8509e-06	3.4885e-06	1176	197.95	1.9516e-06	3.2717e-06	285.35	79.792	62.828	18.744	4.5042e-06	26.016	0.00029986	0.00039873	0.00010996	1063.7	4.3339e-06	4.2004e-06	1154.1	196.94	4.1751e-06	4.4497e-06	282.24	80.394	63.201	18.917	4.3548e-06	26.463	188.607	63.536	78.742	-8.522	144.978	127.628	-8.261	-0.400	148.958	148.603	-1.474	5.898	6.482	13.308	134.293	12.709	-8191	255	
665.279	1	1	0	0	0.35304	0.1994	0.035192	0.31607	0.14031	0.18854	0.25159	0.18498	0.10082	0.043513	0.25331	0.22204	0.19211	0.12526	0.048124	0.09042	-2.4979	-3.1979	-2.9729	-2.9208	-3.1937	-3.1813	-3.0125	-3.4125	-2.9896	-3.0604	-3.1937	-2.9354	-3.3125	-2.95	-3.0021	-3.3292	243.476	56.601	67.760	333.128	194.090	108.025	228.748	-15.304	140.919	36.659	30.145	-14.445	8.414	307.661	4.942	271.857	0.00013419	9.2917e-05	0.00010137	1083.2	9.7869e-07	2.0349e-06	1173.1	196.35	1.3025e-06	2.4362e-06	282.03	79.613	62.612	18.716	3.0124e-06	26.176	0.00030141	0.00039858	0.00010513	1063.4	4.3601e-06	4.3487e-06	1154	195.96	4.1892e-06	4.4362e-06	281.52	80.3	63.162	18.917	4.2411e-06	26.447	194.916	73.094	78.867	-8.433	153.060	126.102	-8.188	-0.098	198.131	109.897	-1.196	6.030	6.815	12.853	123.904	12.617	-8191	255	
665.375	1	1	0	0	0.22627	0.11748	0.042609	0.13951	0.1235	0.12246	0.28455	0.092851	0.067383	0.11953	0.14447	0.20812	0.15985	0.069559	0.19392	0.13472	-2.4896	-3.0125	-3.1104	-2.6125	-3.2854	-3.2208	-3.125	-3.5167	-3.1208	-3.05	-3.2875	-3.0396	-3.1333	-3.1562	-3.0563	-3.4208	131.113	233.585	38.968	289.709	193.723	160.976	291.377	129.773	265.781	171.562	242.571	101.084	264.959	296.454	340.660	106.351	9.9268e-05	0.00048745	8.7038e-05	1084.3	2.694e-06	1.3713e-06	1179.5	197.24	8.0597e-07	1.6336e-06	285.8	79.843	63.512	18.886	2.5322e-06	26.126	0.00030033	0.00041966	0.0001082	1063.4	4.4976e-06	4.2899e-06	1155.7	196.55	4.0454e-06	4.1376e-06	282.54	80.252	63.472	18.975	4.2481e-06	26.454	195.260	73.332	92.724	-8.346	165.653	133.408	-8.040	-0.161	210.268	166.531	-0.858	5.778	6.250	13.427	146.233	12.672	-8191	255	
#DATA ENDS
