BOXY.EXE: ISS Imagent and Oximeter Data Acquisition Program Version 0.80
Ascii Record File

#ACQ INFORMATION
2  Detector Channels 
16  External MUX Channels 
1  Auxiliary Channels 
5000  Waveform (CCF) Frequency (Hz)
1  Waveforms Skipped 
30  Waveforms Averaged 
1  Cycles Averaged 
16  Acquisitions per Waveform 
10.0806  Updata Rate (Hz) 

#FILE INFORMATION
TRUE -- External MUX Channel results are PARSED.
FALSE -- AC DC and Phase are NOT grouped.
TRUE -- Companion Program Settings File CREATED.
FALSE -- AC data not excluded
FALSE -- DC data not excluded
FALSE -- Phase data not excluded
FALSE -- Auxillary Chn. data not excluded
Tab delimiters

#CALIBRATION STATE
TRUE -- Waveform Calibration Values APPLIED.


#AUX CALIBRATION VALUES
Val Type	aux-1	

Term	1.0000e+00	
Factor	0.0000e+00	


#WF CALIBRATION VALUES
A = Detector Channel
Val Type	A-AC1	A-AC2	A-AC3	A-AC4	A-AC5	A-AC6	A-AC7	A-AC8	A-AC9	A-AC10	A-AC11	A-AC12	A-AC13	A-AC14	A-AC15	A-AC16	A-DC1	A-DC2	A-DC3	A-DC4	A-DC5	A-DC6	A-DC7	A-DC8	A-DC9	A-DC10	A-DC11	A-DC12	A-DC13	A-DC14	A-DC15	A-DC16	A-Ph1	A-Ph2	A-Ph3	A-Ph4	A-Ph5	A-Ph6	A-Ph7	A-Ph8	A-Ph9	A-Ph10	A-Ph11	A-Ph12	A-Ph13	A-Ph14	A-Ph15	A-Ph16	

Term	0.00000e+00	0.00000e+00	0.00000e+00	0.00000e+00	0.00000e+00	0.00000e+00	0.00000e+00	0.00000e+00	0.00000e+00	0.00000e+00	0.00000e+00	0.00000e+00	0.00000e+00	0.00000e+00	0.00000e+00	0.00000e+00	0.00000e+00	0.00000e+00	0.00000e+00	0.00000e+00	0.00000e+00	0.00000e+00	0.00000e+00	0.00000e+00	0.00000e+00	0.00000e+00	0.00000e+00	0.00000e+00	0.00000e+00	0.00000e+00	0.00000e+00	0.00000e+00	0.00000e+00	0.00000e+00	0.00000e+00	0.00000e+00	0.00000e+00	0.00000e+00	0.00000e+00	0.00000e+00	0.00000e+00	0.00000e+00	0.00000e+00	0.00000e+00	0.00000e+00	0.00000e+00	0.00000e+00	0.00000e+00	
Factor	1.00000e+00	1.00000e+00	1.00000e+00	1.00000e+00	1.00000e+00	1.00000e+00	1.00000e+00	1.00000e+00	1.00000e+00	1.00000e+00	1.00000e+00	1.00000e+00	1.00000e+00	1.00000e+00	1.00000e+00	1.00000e+00	1.00000e+00	1.00000e+00	1.00000e+00	1.00000e+00	1.00000e+00	1.00000e+00	1.00000e+00	1.00000e+00	1.00000e+00	1.00000e+00	1.00000e+00	1.00000e+00	1.00000e+00	1.00000e+00	1.00000e+00	1.00000e+00	X	X	X	X	X	X	X	X	X	X	X	X	X	X	X	X	

B = Detector Channel
Val Type	B-AC1	B-AC2	B-AC3	B-AC4	B-AC5	B-AC6	B-AC7	B-AC8	B-AC9	B-AC10	B-AC11	B-AC12	B-AC13	B-AC14	B-AC15	B-AC16	B-DC1	B-DC2	B-DC3	B-DC4	B-DC5	B-DC6	B-DC7	B-DC8	B-DC9	B-DC10	B-DC11	B-DC12	B-DC13	B-DC14	B-DC15	B-DC16	B-Ph1	B-Ph2	B-Ph3	B-Ph4	B-Ph5	B-Ph6	B-Ph7	B-Ph8	B-Ph9	B-Ph10	B-Ph11	B-Ph12	B-Ph13	B-Ph14	B-Ph15	B-Ph16	

Term	0.00000e+00	0.00000e+00	0.00000e+00	0.00000e+00	0.00000e+00	0.00000e+00	0.00000e+00	0.00000e+00	0.00000e+00	0.00000e+00	0.00000e+00	0.00000e+00	0.00000e+00	0.00000e+00	0.00000e+00	0.00000e+00	0.00000e+00	0.00000e+00	0.00000e+00	0.00000e+00	0.00000e+00	0.00000e+00	0.00000e+00	0.00000e+00	0.00000e+00	0.00000e+00	0.00000e+00	0.00000e+00	0.00000e+00	0.00000e+00	0.00000e+00	0.00000e+00	-7.29439e+01	-1.30021e+02	-1.24914e+02	-1.83134e+02	-5.27761e+01	-7.14236e+01	-1.56866e+02	-1.62015e+02	-4.78778e+01	-6.48767e+01	-1.71930e+02	-1.71556e+02	-1.81736e+02	-1.77926e+02	-6.22738e+01	-1.50417e+02	
Factor	1.73134e-05	1.66260e-04	4.88759e-05	1.86492e-01	1.60179e-06	1.93899e-06	1.62677e-01	5.60871e-02	1.18118e-06	1.74570e-06	9.94639e-02	3.03487e-02	2.65711e-02	9.45456e-03	1.78352e-06	1.32450e-02	1.24241e-05	2.32072e-05	6.46118e-06	9.55684e-02	2.33110e-07	2.58720e-07	7.83537e-02	2.89116e-02	2.27059e-07	2.59205e-07	4.96099e-02	1.52121e-02	1.38846e-02	4.91572e-03	2.39358e-07	6.66233e-03	X	X	X	X	X	X	X	X	X	X	X	X	X	X	X	X	



#DISTANCE SETTINGS
A = Detector Channel
A-1	A-2	A-3	A-4	A-5	A-6	A-7	A-8	A-9	A-10	A-11	A-12	A-13	A-14	A-15	A-16	

2.5000e+00	3.0000e+00	2.5000e+00	3.0000e+00	2.0000e+00	3.0000e+00	1.5000e+00	3.0000e+00	3.0000e+00	3.0000e+00	3.0000e+00	3.0000e+00	3.0000e+00	3.0000e+00	1.5000e+00	3.0000e+00	

B = Detector Channel
B-1	B-2	B-3	B-4	B-5	B-6	B-7	B-8	B-9	B-10	B-11	B-12	B-13	B-14	B-15	B-16	

1.0000e+01	1.0000e+01	1.0000e+01	1.4400e+00	1.0000e+01	1.0000e+01	1.5100e+00	1.9400e+00	1.0000e+01	1.0000e+01	1.9900e+00	2.4900e+00	2.4100e+00	2.9000e+00	1.0000e+01	2.9800e+00	




#DATA BEGINS
time	group	step	mark	flag	A-AC1	A-AC2	A-AC3	A-AC4	A-AC5	A-AC6	A-AC7	A-AC8	A-AC9	A-AC10	A-AC11	A-AC12	A-AC13	A-AC14	A-AC15	A-AC16	A-DC1	A-DC2	A-DC3	A-DC4	A-DC5	A-DC6	A-DC7	A-DC8	A-DC9	A-DC10	A-DC11	A-DC12	A-DC13	A-DC14	A-DC15	A-DC16	A-Ph1	A-Ph2	A-Ph3	A-Ph4	A-Ph5	A-Ph6	A-Ph7	A-Ph8	A-Ph9	A-Ph10	A-Ph11	A-Ph12	A-Ph13	A-Ph14	A-Ph15	A-Ph16	B-AC1	B-AC2	B-AC3	B-AC4	B-AC5	B-AC6	B-AC7	B-AC8	B-AC9	B-AC10	B-AC11	B-AC12	B-AC13	B-AC14	B-AC15	B-AC16	B-DC1	B-DC2	B-DC3	B-DC4	B-DC5	B-DC6	B-DC7	B-DC8	B-DC9	B-DC10	B-DC11	B-DC12	B-DC13	B-DC14	B-DC15	B-DC16	B-Ph1	B-Ph2	B-Ph3	B-Ph4	B-Ph5	B-Ph6	B-Ph7	B-Ph8	B-Ph9	B-Ph10	B-Ph11	B-Ph12	B-Ph13	B-Ph14	B-Ph15	B-Ph16	aux-1	digaux	

1950.635	1	1	0	256	0.39936	0.29098	0.15439	0.21739	0.1381	0.1737	0.27345	0.18465	0.16948	0.08068	0.05888	0.10045	0.26147	0.25264	0.076028	0.18255	-2.0187	-2.9417	-2.7417	-2.7042	-2.8792	-2.6208	-2.8604	-2.8458	-2.4771	-2.8771	-2.6917	-2.7938	-2.925	-2.8063	-2.8812	-3.1333	225.230	425.788	466.843	527.796	185.932	311.464	456.110	177.532	229.071	266.683	286.539	241.697	491.513	497.007	342.418	403.778	0.00069851	0.010285	0.00028662	800.14	5.5782e-06	1.4832e-05	760.18	306.06	3.1812e-06	6.7433e-06	363.18	163.73	158.52	80.814	3.1837e-06	79.574	0.0023001	0.019235	0.00099171	761.12	3.4191e-05	4.0186e-05	721.64	305.79	3.6582e-05	3.9271e-05	346.27	156.9	163.28	77.702	3.7748e-05	76.015	256.488	177.001	248.620	187.068	327.786	337.376	185.570	192.679	341.360	356.446	189.609	193.739	197.152	201.323	358.807	197.263	-8191	255	
1950.731	1	1	0	0	0.06977	0.13216	0.1059	0.15213	0.099456	0.29806	0.16658	0.25443	0.051443	0.10844	0.051758	0.19853	0.16121	0.034674	0.18314	0.089898	-2.1729	-2.8979	-2.7729	-2.7188	-2.9958	-2.675	-2.8708	-2.8833	-2.5667	-2.8792	-2.7667	-2.7	-3.1583	-2.9313	-2.6021	-3.2646	180.255	425.990	385.173	265.207	398.573	426.239	475.586	497.225	302.924	248.958	246.646	179.937	286.661	510.119	322.226	387.527	0.00072078	0.0018977	0.0020022	799.8	2.9159e-06	2.1482e-06	753.79	307.62	2.5203e-06	1.2319e-05	363.1	164.33	159.96	80.797	5.3672e-06	79.279	0.0023621	0.0085594	0.0020442	760.3	3.5365e-05	4.0607e-05	719.19	312.28	3.6378e-05	3.9869e-05	346.83	157	160.37	77.861	3.7505e-05	76.164	256.652	279.372	179.137	187.038	325.569	377.013	185.460	193.078	381.286	316.626	189.945	193.771	197.015	201.303	334.232	197.625	-8191	255	
1950.827	1	1	0	0	0.021196	0.11145	0.11171	0.067641	0.064378	0.19164	0.19321	0.36153	0.41242	0.094932	0.037939	0.23603	0.1455	0.074685	0.28339	0.29384	-2.2292	-2.8021	-2.6833	-2.7375	-2.9562	-2.7292	-2.9688	-3.2625	-2.6854	-3.0062	-2.9604	-2.7021	-3.0167	-3.1375	-2.7667	-3.2958	311.570	377.208	236.174	453.654	368.173	388.087	403.790	489.763	292.946	521.737	209.888	475.962	195.207	471.346	244.973	198.411	0.00077185	0.001243	0.0029945	798.85	6.4726e-06	1.4795e-05	762.4	307.08	5.0746e-06	7.5569e-06	361.27	162.48	158.06	80.691	7.1056e-06	79.989	0.002343	0.003542	0.0050894	759.04	3.5032e-05	3.939e-05	721.39	304.73	3.6655e-05	3.958e-05	345.88	156.33	161.58	77.674	3.7766e-05	76.55	254.431	263.897	179.258	187.115	324.008	327.637	185.592	192.753	367.098	335.418	190.116	193.707	196.910	201.258	290.211	197.194	-8191	255	
1950.948	1	1	0	0	0.1349	0.30282	0.12601	0.094985	0.1567	0.25509	0.23076	0.093383	0.23057	0.18369	0.2182	0.15283	0.044239	0.2691	0.27103	0.073745	-2.0771	-2.9542	-3.0229	-2.7583	-3.0458	-2.8333	-2.8625	-3.0417	-2.7771	-2.9229	-3.0229	-2.7313	-3.0583	-2.9333	-2.7958	-3.2167	247.411	425.908	489.099	521.402	337.824	227.880	255.435	482.750	305.355	179.079	393.993	503.598	435.714	506.321	374.094	269.102	0.00069094	0.00060945	0.0017076	798.64	8.4089e-06	4.122e-06	762.98	306.44	7.0692e-06	4.4267e-06	360.69	164.42	158.57	80.657	7.9898e-06	80.024	0.00235	0.0035769	0.0035929	761.11	3.6319e-05	3.8945e-05	722.82	309	3.6807e-05	3.9937e-05	345.91	157.12	154.88	78.652	3.7234e-05	76.699	250.935	303.453	201.139	187.195	337.073	294.801	185.561	192.996	327.945	333.250	190.003	193.646	197.235	201.047	277.773	197.207	-8191	255	
1951.044	1	1	0	0	0.23765	0.10317	0.27727	0.17101	0.14175	0.22248	0.1502	0.10006	0.14989	0.085824	0.17155	0.13134	0.29475	0.23226	0.17246	0.31444	-2.1875	-2.6688	-2.925	-2.8521	-3.0146	-2.8312	-2.7687	-3.1	-2.625	-2.7354	-2.9646	-2.6312	-2.8792	-3.0167	-2.6521	-3.0833	477.394	354.559	316.874	299.500	232.484	240.945	277.179	514.330	242.423	506.940	512.661	482.179	442.714	510.713	296.572	408.955	0.00070304	0.00076169	0.0024829	792.33	5.9646e-06	5.4373e-06	755.03	301.46	5.0641e-06	1.0602e-05	353.59	160.19	155.36	78.671	1.2985e-05	77.97	0.0023361	0.0035244	0.0044512	754.01	3.5371e-05	3.8193e-05	715.06	298.8	3.5154e-05	3.8952e-05	339.39	153.2	149.27	78.912	3.7474e-05	74.648	255.184	239.394	211.769	186.990	342.435	283.589	185.173	192.971	351.603	326.224	189.863	193.549	197.113	201.094	339.045	197.013	-8191	255	
1951.140	1	1	0	0	0.11753	0.10946	0.048905	0.010707	0.12387	0.045576	0.18784	0.12224	0.12555	0.030772	0.20143	0.26282	0.41967	0.49829	0.17233	0.27226	-2.2583	-2.7979	-2.9083	-2.6458	-2.9917	-2.9	-2.5938	-2.9437	-2.8729	-2.6813	-3.0146	-2.8354	-3.05	-2.9792	-2.575	-3.0979	251.881	363.575	288.910	468.921	269.964	420.908	448.249	468.794	476.797	315.347	421.956	190.965	469.105	530.233	452.271	423.552	0.00071941	0.00061975	0.0018579	790.07	4.5742e-06	7.1535e-06	748.24	297.07	6.1429e-06	5.2819e-06	351.01	158.68	155.35	78.886	4.7194e-06	77.999	0.0022454	0.0035685	0.0031853	751.29	3.5227e-05	3.7845e-05	708.14	299.7	3.4509e-05	4.0002e-05	337.35	152.01	149.05	78.108	3.8576e-05	74.744	255.811	247.903	210.272	187.228	365.656	320.220	185.133	192.597	304.074	344.472	189.712	193.492	196.989	201.217	318.345	197.390	-8191	255	
1951.236	1	1	0	0	0.02234	0.25941	0.2751	0.061047	0.19813	0.060266	0.13187	0.11863	0.20935	0.2375	0.15142	0.058646	0.11647	0.40545	0.24645	0.36943	-2.2625	-2.7562	-3.05	-2.6396	-2.7812	-2.9792	-2.6625	-3.0875	-2.7708	-2.6542	-3.1604	-2.6437	-3.075	-2.9729	-2.5187	-2.7646	256.848	275.305	473.099	376.761	220.261	195.673	177.123	482.678	184.798	252.259	485.049	388.201	498.540	465.595	499.568	368.321	0.00062801	0.00041869	0.0022548	786.88	4.0123e-06	9.4864e-06	748.23	298.82	1.5947e-06	3.2688e-06	352.15	157.79	154.06	79.094	6.865e-06	78.099	0.0022362	0.0036509	0.0040572	751.23	3.5919e-05	3.79e-05	710.26	289.25	6.7578e-05	3.9987e-05	337.51	151.25	147.75	78.735	3.8589e-05	74.909	253.011	221.215	219.709	186.689	264.876	291.161	185.774	192.751	408.711	322.359	189.780	193.414	197.148	201.095	310.171	197.450	-8191	255	
1951.332	1	1	0	0	0.1078	0.18398	0.16192	0.3428	0.29787	0.093237	0.023056	0.029598	0.10045	0.21076	0.12063	0.067114	0.15952	0.23437	0.20707	0.32272	-2.2854	-2.6354	-2.9062	-2.7042	-2.8729	-2.825	-2.7292	-2.975	-2.7521	-2.6833	-3.0479	-2.9354	-3.0208	-3.1625	-2.8521	-2.9396	406.045	273.824	294.382	453.394	446.615	414.333	432.419	336.945	407.981	277.121	447.186	208.625	216.111	494.782	365.006	524.820	0.00067953	0.00030408	0.0015045	785.45	1.0411e-05	1.5886e-06	743.73	296.72	4.8677e-05	1.0353e-05	348.48	155.88	151.82	78.837	8.3058e-06	77.904	0.0022061	0.0035597	0.0030703	748.32	3.5954e-05	3.7266e-05	707.19	283.16	0.00013753	4.0796e-05	333.8	149.54	145.98	77.453	3.8703e-05	74.788	259.787	202.002	223.962	187.115	356.248	251.964	185.719	192.226	415.609	276.877	189.901	193.578	197.092	200.965	320.748	197.149	-8191	255	
1951.428	1	1	0	0	0.096332	0.26761	0.12858	0.078693	0.089607	0.085273	0.19112	0.13336	0.067828	0.075123	0.079406	0.44388	0.12764	0.17972	0.13417	0.24977	-2.5187	-2.2938	-2.9354	-2.9125	-2.6104	-3.0292	-2.7	-2.975	-2.6813	-2.6604	-3.1708	-2.8812	-2.7896	-3.2354	-2.7021	-2.9667	244.950	347.332	440.026	385.860	380.698	347.509	479.722	176.362	324.617	184.683	326.598	500.813	502.594	514.404	497.615	419.685	0.00066417	0.00058946	0.0013638	783.96	4.5912e-06	9.8655e-06	745.9	297.18	3.1163e-05	3.9348e-06	346.83	154.81	151.38	77.48	9.8836e-06	76.419	0.0021929	0.0036534	0.0037677	746.88	3.6203e-05	3.7364e-05	706.73	282.45	0.00010382	4.0719e-05	332	147.94	144.82	77.246	3.8053e-05	73.319	253.495	256.203	269.299	187.252	375.468	310.845	185.400	192.218	417.392	342.083	189.865	193.381	196.845	201.197	282.974	197.200	-8191	255	
1951.549	1	1	0	0	0.20153	0.17079	0.15382	0.23401	0.17381	0.097583	0.1782	0.1942	0.13283	0.17173	0.034208	0.087033	0.13165	0.34984	0.24629	0.33987	-2.5187	-2.6208	-2.8854	-3.05	-2.6542	-3.0208	-2.8333	-2.9313	-2.8479	-2.625	-3.1417	-2.9667	-2.8521	-3.1063	-2.5938	-2.9583	381.800	332.775	423.464	527.793	227.844	455.457	336.290	532.010	202.991	234.642	192.619	440.183	481.926	509.132	521.343	431.571	0.0006836	0.00043603	0.0010306	786.36	1.0645e-05	7.1734e-06	736.31	294.67	3.936e-05	7.2566e-06	342.56	151.21	149.02	77.795	4.7658e-06	76.185	0.0021468	0.0037271	0.0016379	756.95	3.5829e-05	3.8484e-05	698.9	279.45	0.00012916	4.1228e-05	327.68	145.16	143.24	76.306	3.6855e-05	72.889	260.705	292.921	286.359	186.802	331.993	368.489	185.746	192.447	424.691	326.920	189.783	193.699	196.988	201.063	345.462	197.317	-8191	255	
1951.643	1	1	0	0	0.11871	0.13739	0.11552	0.27541	0.0053444	0.20231	0.34851	0.27397	0.10767	0.35492	0.032817	0.28893	0.18038	0.12569	0.032156	0.17784	-2.4771	-2.7188	-2.9125	-2.8563	-2.7208	-3.0479	-2.7271	-2.9729	-2.8	-2.4938	-3.0083	-3.0333	-2.6437	-3.0208	-2.6354	-2.9521	506.365	381.084	292.277	514.499	319.326	344.799	465.614	464.389	255.498	286.801	532.954	494.599	469.058	482.410	181.839	192.540	0.00063785	0.00032835	0.00018249	787.9	1.0137e-05	1.1299e-05	743.45	293.95	3.0553e-05	1.5154e-05	345.73	154.03	151.59	79.055	6.8499e-06	77.37	0.0020913	0.0035682	0.00093215	786.32	3.5482e-05	3.6504e-05	704.32	281.81	9.9857e-05	3.9445e-05	331.39	147.53	145.79	78.243	3.4665e-05	74.277	253.397	241.152	296.037	186.855	314.258	318.796	185.304	192.285	436.664	374.282	190.167	193.448	197.088	201.256	319.310	197.159	-8191	255	
1951.740	1	1	0	0	0.14134	0.16949	0.26328	0.25182	0.17226	0.15913	0.099845	0.25433	0.18167	0.066038	0.020337	0.31751	0.12138	0.26603	0.16349	0.091401	-2.525	-2.7042	-2.7292	-2.9417	-2.5458	-3.0563	-2.9021	-2.7583	-3.1042	-2.5292	-3.0333	-3.0375	-2.7292	-3.1375	-2.7021	-2.7646	451.035	259.830	346.983	530.542	252.625	425.328	416.112	521.737	425.360	367.699	226.538	432.899	457.229	183.461	299.344	346.051	0.00066379	0.00080637	0.00026936	793.74	8.4471e-06	7.9579e-06	754.89	299.99	4.7158e-05	1.051e-05	351.43	158.41	154.77	80.075	5.9208e-05	78.332	0.002033	0.0033625	0.00089649	785.02	3.4696e-05	3.5639e-05	715.19	286.27	0.00014224	3.7865e-05	336.69	151	148.45	77.544	7.9205e-05	75.166	258.885	254.630	239.351	187.020	303.900	336.691	185.711	192.450	443.054	343.862	189.764	193.643	197.139	201.124	227.106	197.101	-8191	255	
1951.811	1	1	0	0	0.074341	0.073619	0.0080058	0.19893	0.26761	0.15795	0.39208	0.26188	0.057863	0.087283	0.21553	0.36727	0.25575	0.10531	0.12257	0.28658	-2.6583	-2.5438	-2.6729	-2.8417	-2.5	-3.1021	-2.9458	-2.8542	-3.0438	-2.5792	-2.7396	-3.0979	-2.5	-3.1021	-2.7812	-2.8646	354.883	310.573	197.717	514.781	288.944	385.307	480.824	477.425	290.536	502.560	514.752	480.079	465.257	489.715	184.036	534.443	0.00071879	0.0005716	0.00024498	805.03	7.4836e-06	1.4336e-05	763.67	303	3.6604e-05	4.3434e-06	356.88	158.74	154.62	80.069	8.6226e-05	77.658	0.0020424	0.0032801	0.00088882	810	3.4006e-05	3.4695e-05	719.96	288.83	0.00012136	3.62e-05	340.14	151.31	148.53	76.795	0.00016993	74.616	251.049	288.928	251.892	186.893	350.250	351.296	185.336	192.446	454.576	411.449	190.017	193.126	196.912	201.127	202.162	197.211	-8191	255	
1951.932	1	1	0	0	0.26589	0.08343	0.21931	0.10622	0.16256	0.091697	0.18518	0.13012	0.054256	0.30138	0.16794	0.31031	0.060309	0.049929	0.16542	0.10619	-2.5312	-2.8604	-2.6854	-2.8563	-2.4938	-2.9354	-3.0729	-2.725	-2.9125	-2.7313	-2.7812	-3.1312	-2.8042	-3.1104	-2.7708	-2.7083	516.573	441.077	525.242	387.939	480.472	495.778	381.477	408.574	336.159	476.323	441.552	460.714	509.360	208.211	525.559	177.366	0.00070525	0.00072449	0.00020191	805.89	5.2124e-06	6.0998e-06	756.35	296.78	5.9313e-05	7.049e-06	347.09	153.76	149.62	77.44	6.3941e-05	75.202	0.002028	0.0032513	0.00087634	797.84	3.3807e-05	3.4564e-05	714.53	284.2	0.00014424	3.4679e-05	332.27	146.33	143.86	74.383	0.00012412	72.118	249.891	283.180	220.854	186.735	322.166	368.440	184.992	192.065	420.224	324.541	189.575	193.130	196.944	201.292	209.156	197.363	-8191	255	
1952.028	1	1	0	0	0.12718	0.22036	0.088753	0.23881	0.089605	0.12292	0.25028	0.081843	0.16811	0.116	0.12592	0.13084	0.16038	0.13255	0.051022	0.29124	-2.4146	-2.7292	-2.7146	-3.1521	-2.6625	-2.9458	-2.9979	-2.7687	-2.9688	-2.9667	-2.8979	-3.1042	-2.7625	-2.9333	-3	-2.7812	331.056	388.709	447.977	466.450	478.133	463.297	491.947	508.787	194.031	359.830	328.236	450.571	204.106	198.749	439.873	507.280	0.00067941	0.00094973	0.00025899	799.38	6.75e-06	6.5725e-06	748.57	294.4	5.0789e-05	3.249e-05	345.17	152.56	149.54	77.848	0.0001086	76.262	0.0020127	0.0031017	0.00085969	805.35	3.3219e-05	3.4893e-05	708.09	281.67	5.5287e-05	0.00010001	329.96	145.27	143.89	74.727	0.00018191	72.971	254.405	311.260	231.429	187.388	392.800	292.788	185.635	191.992	424.293	184.881	189.424	193.298	196.933	201.311	219.415	197.188	-8191	255	
1952.124	1	1	0	0	0.15318	0.27113	0.14476	0.069909	0.068507	0.18351	0.32697	0.1953	0.10304	0.1585	0.19046	0.12772	0.20727	0.33917	0.16607	0.16216	-2.6146	-2.6562	-2.6083	-3.0812	-2.6854	-2.8021	-2.9062	-2.7729	-2.8333	-2.8542	-2.7625	-3.1604	-2.9313	-2.8208	-2.9479	-2.7354	206.422	218.183	237.104	466.551	419.528	433.559	489.058	462.316	417.750	231.170	522.880	429.060	478.667	513.776	200.537	476.310	0.0006638	0.00022773	0.00018035	800.33	9.6541e-06	9.7534e-06	745.61	295.9	7.3481e-06	8.9041e-05	342.83	151.6	148.23	77.067	7.4419e-05	76.059	0.0020114	0.0031448	0.00089078	795.77	3.2484e-05	3.493e-05	707.76	282.37	3.0622e-05	0.00019064	328.49	144.79	142.51	74.371	0.00013494	72.822	257.072	179.780	233.879	186.977	282.504	319.737	185.542	192.082	356.940	446.854	189.537	193.407	197.063	201.230	232.372	197.610	-8191	255	
1952.220	1	1	0	0	0.29451	0.040337	0.071938	0.25104	0.077049	0.21986	0.28211	0.25503	0.20254	0.19244	0.040697	0.3338	0.17358	0.25184	0.066324	0.19656	-2.3667	-2.7875	-2.6625	-3.0521	-2.6688	-2.9292	-3.0375	-2.6208	-2.8146	-2.8917	-2.8875	-2.9917	-2.7104	-2.8104	-2.9562	-2.8167	382.061	468.802	430.606	406.806	417.920	416.349	432.410	481.140	239.161	313.236	270.337	199.009	178.078	183.042	262.413	437.290	0.00071384	0.00069615	0.0002129	802.39	3.7368e-05	9.5438e-06	749.88	293.22	4.3453e-06	5.3371e-05	344.18	150.11	146.13	76.704	9.3248e-05	75.429	0.0019965	0.0031345	0.00094164	804.49	3.4376e-05	3.5425e-05	708.47	280.29	3.0428e-05	0.00014688	328.04	143.18	140.56	73.683	0.00018098	72.301	255.648	328.824	250.580	187.627	292.317	339.255	185.245	191.907	313.718	459.420	189.281	193.507	196.997	201.455	231.051	197.175	-8191	255	
1952.341	1	1	0	0	0.1508	0.18639	0.02406	0.30805	0.12825	0.066044	0.21828	0.23852	0.076663	0.23885	0.28216	0.20567	0.23096	0.24326	0.16697	0.38317	-2.5083	-2.9	-2.6542	-3.0187	-2.8979	-2.7646	-2.9562	-2.6583	-2.9083	-3.0771	-2.5187	-2.9333	-2.9667	-2.8646	-3.0604	-2.6396	178.121	294.961	349.015	527.047	236.702	473.208	356.269	482.752	186.794	447.790	469.727	431.076	516.428	499.182	465.318	485.929	0.00063596	0.00025965	0.00021424	789.82	1.7349e-05	6.8558e-06	747.41	290.89	5.5976e-06	9.3319e-05	337.64	147.07	143.82	75.178	7.0721e-05	73.34	0.0019793	0.0030183	0.00093652	756.9	9.4791e-05	3.5802e-05	704.56	277.43	3.0884e-05	0.00019286	322.79	140.36	138.13	72.362	0.00013394	70.275	256.668	247.798	286.671	187.325	296.185	273.177	185.562	192.194	364.493	465.443	189.776	193.081	196.867	201.131	232.587	197.117	-8191	255	
1952.435	1	1	0	0	0.14854	0.082753	0.33319	0.26396	0.15181	0.088502	0.21858	0.27086	0.078678	0.11908	0.2225	0.08316	0.14952	0.36815	0.16994	0.099533	-2.4833	-2.8937	-2.5187	-3.0708	-2.7458	-2.8396	-3.1542	-2.825	-3.0021	-2.8854	-2.6083	-2.8021	-2.8292	-2.8875	-3.1146	-2.6583	211.501	508.722	200.999	508.317	240.643	268.170	505.622	463.418	502.748	319.689	439.327	360.738	531.333	472.794	488.031	217.803	0.00067966	0.00031978	0.00025357	781.77	7.6263e-05	3.6902e-06	731.72	284.76	4.6005e-06	4.7426e-05	328.02	141.36	139.48	73.72	1.7738e-05	72.447	0.0020179	0.0030396	0.00091723	741.33	0.00017143	3.6764e-05	692.74	272.05	3.1611e-05	0.00014144	314.77	135.61	133.79	70.802	0.00014795	69.212	252.450	265.340	253.881	186.532	362.709	330.521	185.184	192.096	281.003	464.967	189.392	193.608	196.982	201.257	368.064	197.067	-8191	255	
1952.509	1	1	0	0	0.15763	0.059046	0.30922	0.45181	0.26227	0.15359	0.33177	0.077194	0.23364	0.14227	0.12914	0.05449	0.33243	0.18128	0.19647	0.30097	-2.3854	-2.9708	-2.5271	-2.8646	-2.9625	-2.6583	-2.9958	-2.9521	-2.7938	-3.125	-2.7938	-2.9792	-3.0875	-2.9229	-3.0104	-2.8292	496.632	418.344	252.837	190.651	491.954	506.758	495.453	515.047	313.520	494.866	179.448	359.634	510.678	533.811	384.299	498.452	0.00065305	0.00052587	0.00012759	773.41	7.045e-05	5.3471e-06	725.56	279.37	3.2302e-06	8.4304e-05	319.42	137.51	135.19	71.436	2.1126e-05	71.183	0.0020381	0.0030724	0.00094755	734.99	0.00012775	3.711e-05	685.11	266.84	3.1996e-05	0.00018912	306.79	131.31	129.52	68.952	4.9487e-05	69.926	252.964	221.408	309.234	186.867	368.896	280.479	185.271	192.084	367.804	488.807	189.734	193.885	197.027	201.303	347.103	197.047	-8191	255	
1952.629	1	1	0	0	0.11088	0.089209	0.068836	0.23254	0.035501	0.15345	0.42376	0.35831	0.21173	0.075539	0.12389	0.22036	0.071553	0.16934	0.13236	0.06896	-2.2354	-2.9896	-2.625	-2.7687	-2.8312	-2.6688	-3.1667	-3.05	-2.8333	-3.0833	-2.8688	-2.9667	-2.9208	-2.7833	-2.8292	-2.9688	215.567	478.577	402.029	202.002	492.752	324.386	440.970	436.123	520.998	325.962	259.207	180.898	438.690	494.728	444.480	448.304	0.0006067	0.00055409	0.00020623	767.39	9.714e-05	1.1029e-05	716.54	273.74	5.2378e-06	6.6894e-05	316.47	134.64	130.65	70.529	9.1886e-06	70.718	0.0020537	0.0031782	0.00094998	729.46	0.00018466	3.8363e-05	677.03	261.58	3.3019e-05	0.00015383	302.33	128.78	125.84	67.885	3.2199e-05	71.588	255.845	309.076	239.509	187.088	373.577	302.560	185.654	192.094	311.817	486.292	189.642	193.451	197.442	201.617	317.878	197.044	-8191	255	
1952.724	1	1	0	0	0.15291	0.13337	0.060165	0.36533	0.23634	0.15447	0.0095732	0.21803	0.1262	0.13437	0.31175	0.19808	0.22583	0.24832	0.099696	0.1219	-2.1312	-3.1271	-2.65	-2.7667	-3.0062	-2.55	-2.9271	-2.8625	-2.7354	-3.1021	-2.6	-2.7708	-3.1521	-2.6417	-2.925	-3.0708	357.000	248.666	364.681	496.792	280.175	514.235	352.471	382.297	384.970	320.097	184.675	336.237	384.853	510.091	290.881	474.514	0.00061193	0.00098496	0.00011168	754.36	6.3217e-05	7.1753e-06	701.75	266.66	3.7028e-06	8.2661e-05	301.78	129.13	126.75	68.504	7.7051e-06	68.772	0.0020955	0.0031466	0.00090541	716.71	0.00013332	3.7626e-05	664.14	253.78	3.2849e-05	0.00016407	295.54	123.72	121.38	65.789	3.207e-05	68.63	255.209	240.489	324.163	186.719	366.791	316.271	185.256	192.003	296.689	430.699	188.742	193.723	197.085	201.502	328.242	197.097	-8191	255	
1952.820	1	1	0	0	0.2194	0.085707	0.16805	0.23417	0.21501	0.11454	0.27089	0.14595	0.22757	0.096491	0.07207	0.11434	0.37701	0.31549	0.015175	0.26376	-2.125	-2.9021	-2.6896	-2.7771	-2.925	-2.5896	-3.0812	-2.9604	-2.6	-2.975	-2.7354	-2.675	-3.0271	-2.8542	-2.85	-2.8771	195.823	484.621	204.930	520.250	217.288	211.852	410.553	361.503	358.695	445.842	507.817	498.745	258.184	510.117	328.635	487.485	0.00062794	0.00045718	0.00031607	746.69	0.00010238	7.0806e-06	683.9	260.04	3.0639e-06	5.8701e-05	295.17	124.79	122.18	66.53	3.0873e-06	67.164	0.0020819	0.0030504	0.00087202	709.26	0.00019234	3.6454e-05	650.14	248.06	3.2208e-05	4.8294e-05	301.77	119.55	117.36	63.962	3.0934e-05	68.812	253.475	233.386	243.600	186.885	389.180	283.216	185.248	192.265	308.105	436.327	189.202	193.974	197.548	201.791	288.914	196.906	-8191	255	
1952.941	1	1	0	0	0.044385	0.23999	0.042047	0.22877	0.054564	0.24941	0.16717	0.10235	0.15037	0.021523	0.09801	0.081671	0.062535	0.10964	0.097939	0.20858	-2.0812	-2.9958	-2.8333	-2.5875	-2.8646	-2.5479	-3.1	-2.8688	-2.4625	-3.1333	-2.6896	-2.85	-3.1042	-2.8583	-3.0042	-3.1104	321.915	292.401	330.946	464.722	304.964	429.294	355.919	519.745	475.454	391.125	204.077	201.457	192.891	176.178	402.447	189.551	0.00059758	0.00076391	0.00014125	739.61	6.5366e-05	5.8762e-06	677.75	258.04	5.8747e-06	7.6478e-06	286.84	123.23	120.89	66.195	1.2095e-05	67.083	0.0020345	0.0029548	0.0008361	703.89	0.00015474	3.4377e-05	643.56	246.4	3.2132e-05	3.2476e-05	320.25	118.32	116.41	63.812	3.0897e-05	67.498	254.255	263.859	319.931	186.440	390.206	343.407	185.313	192.039	327.505	333.868	189.183	194.015	197.375	201.591	277.364	197.252	-8191	255	
1953.037	1	1	0	0	0.079227	0.10306	0.1216	0.22145	0.065018	0.091313	0.143	0.097976	0.053477	0.29723	0.33247	0.033969	0.078474	0.025893	0.011288	0.24391	-2.1146	-2.8771	-2.6542	-2.6417	-2.7375	-2.7188	-2.9042	-2.9313	-2.6771	-2.9208	-2.8312	-2.7958	-3.075	-2.9771	-2.8104	-2.8438	433.533	339.308	279.660	488.469	262.582	380.569	186.208	448.719	353.834	212.994	470.266	240.594	233.064	251.089	225.053	431.763	0.00060516	0.00023207	0.00011484	731.51	0.00012385	1.3315e-05	669.56	251.93	6.0539e-06	2.1039e-06	283.26	119.14	116.43	64.54	8.9238e-06	66.833	0.0019897	0.0028391	0.00082223	697.87	0.00016565	6.5794e-05	631.96	240.76	3.0876e-05	3.0815e-05	303.24	114.53	112.21	62.186	3.0943e-05	68.812	255.658	279.621	301.145	186.816	397.814	499.351	184.875	192.269	361.701	292.155	188.978	193.982	197.482	201.779	326.703	197.418	-8191	255	
1953.108	1	1	0	0	0.20644	0.061576	0.13422	0.15943	0.26713	0.10642	0.060966	0.27302	0.15735	0.043393	0.28495	0.17281	0.020148	0.22421	0.22164	0.071815	-2.2125	-2.7271	-2.8	-2.6063	-2.9542	-2.7562	-2.6896	-3.1146	-2.6625	-2.6854	-3.0396	-2.6562	-2.8875	-2.8792	-2.9188	-3.1958	434.946	476.562	320.425	202.094	188.595	468.753	305.961	477.858	316.136	507.064	321.790	432.882	179.131	482.730	441.829	303.201	0.00059665	0.00058703	0.00018222	718.55	9.415e-05	1.0093e-05	646.18	238.77	2.2829e-06	7.9899e-06	263.28	109.3	106.33	58.629	5.5416e-06	61.822	0.0018963	0.0027219	0.00077822	682.68	3.7126e-05	0.00014873	613.24	227.97	2.8526e-05	3.0588e-05	298.77	105.16	102.14	56.71	3.0829e-05	62.303	254.178	250.872	237.316	187.093	399.419	519.711	185.217	192.055	370.581	267.448	188.334	193.767	197.088	202.026	261.760	197.532	-8191	255	
1953.229	1	1	0	0	0.10132	0.068177	0.18646	0.11379	0.0658	0.12371	0.21902	0.27244	0.086549	0.12891	0.15452	0.17194	0.21198	0.30145	0.27277	0.23086	-2.2417	-2.7083	-2.7958	-2.5417	-3	-3.0187	-2.5146	-3.0375	-2.5125	-2.7521	-2.9958	-2.7083	-3.0187	-3.0583	-2.7729	-3.2292	454.372	406.038	489.542	487.926	319.773	203.048	448.205	497.018	489.438	410.131	496.708	513.474	498.103	525.465	524.996	424.779	0.00048006	0.00042138	0.00022558	702.42	4.7943e-06	0.00013598	629.22	227.56	5.3565e-06	5.4701e-06	251.01	103.74	100.83	55.812	2.9735e-06	59.143	0.0018044	0.0028544	0.00079232	665.68	2.7523e-05	0.00023766	595.64	217.06	2.8339e-05	3.1751e-05	271.78	99.5	97.089	53.857	3.205e-05	60.078	255.212	259.123	366.229	186.581	335.569	392.702	185.063	192.220	329.176	296.714	188.614	193.939	197.498	202.114	351.900	197.919	-8191	255	
1953.325	1	1	0	0	0.26649	0.25536	0.2301	0.035452	0.11768	0.069365	0.14547	0.32605	0.0835	0.1022	0.11038	0.16495	0.1358	0.17141	0.21949	0.16176	-2.2646	-2.7542	-2.8312	-2.925	-3	-2.9042	-2.9042	-3.0563	-2.625	-3.0167	-2.9958	-2.7979	-2.9562	-3.0563	-2.8958	-3.225	344.593	404.328	323.941	431.997	315.562	513.561	465.622	443.498	486.724	459.951	195.718	386.461	496.702	202.593	318.893	231.847	0.0014382	0.00024977	7.8489e-05	695.32	6.1551e-06	0.00010782	616.24	225.89	4.354e-06	9.8382e-06	243.89	100.3	98.951	55.451	4.0761e-06	59.136	0.0038188	0.0028623	0.00076669	662.09	2.7792e-05	0.00018623	585.9	214.81	2.9075e-05	3.2632e-05	284.29	96.601	95.207	53.29	3.2229e-05	56.368	250.791	260.543	294.176	186.731	336.504	402.349	185.163	192.091	339.235	348.659	188.311	193.581	197.490	202.426	303.073	198.190	-8191	255	
1953.421	1	1	0	0	0.13622	0.12028	0.19109	0.17433	0.2076	0.18135	0.052532	0.23653	0.3584	0.30188	0.065807	0.097317	0.19693	0.16031	0.34097	0.1818	-2.4021	-2.6312	-2.9313	-2.6854	-3.0125	-2.9271	-2.6917	-3.0354	-2.7708	-2.6729	-3.1167	-2.7687	-2.9292	-3.0375	-2.6125	-3.0854	221.273	528.107	239.971	519.953	444.151	377.473	297.990	467.265	356.894	251.822	263.928	475.328	468.423	509.121	324.208	243.615	0.0011642	0.00045711	7.2494e-05	702.76	5.2513e-06	0.0001494	622.19	225.87	3.1594e-06	5.2704e-06	245.22	100.21	97.743	54.571	1.0524e-05	58.235	0.0079761	0.0029234	0.00080638	667.21	2.8143e-05	0.0002586	589.34	214.91	2.8953e-05	3.2776e-05	267.81	96.167	94.302	52.468	3.1917e-05	55.862	251.827	274.125	239.077	186.851	359.616	410.835	185.310	192.068	327.904	289.115	188.223	193.947	197.476	202.733	314.449	198.218	-8191	255	
1953.518	1	1	0	0	0.24318	0.1535	0.22186	0.19242	0.14137	0.10247	0.12778	0.18225	0.17697	0.11129	0.29971	0.43939	0.26266	0.021819	0.14657	0.20326	-2.4625	-2.7604	-3.0896	-2.7167	-2.8875	-3.0646	-2.7354	-2.9833	-2.8167	-2.5521	-3.0333	-2.8083	-2.7708	-3.1458	-2.6604	-3.0104	517.342	298.619	237.441	416.519	313.071	468.727	231.482	221.211	308.434	351.366	405.729	530.269	496.449	391.194	466.048	484.653	0.0016609	0.00070645	5.8245e-05	700.39	5.1748e-06	0.00010259	621.16	225.75	2.5493e-06	9.8854e-06	246.43	100.12	98.486	54.695	2.99e-06	58.943	0.012566	0.0030495	0.00079466	664.57	2.9897e-05	0.00019023	589.76	214.94	2.9954e-05	3.5128e-05	267.31	99.529	94.98	52.786	3.3527e-05	56.432	286.703	246.793	306.581	186.963	326.252	414.070	185.164	191.986	348.421	369.774	189.898	192.193	197.548	202.467	334.538	198.031	-8191	255	
1953.636	1	1	0	0	0.092009	0.16587	0.27653	0.11996	0.065567	0.06667	0.41393	0.15657	0.28057	0.11176	0.033758	0.15526	0.17156	0.1247	0.054744	0.097458	-2.4667	-2.6208	-3.0958	-2.7625	-2.7687	-3.0604	-2.7708	-3.0521	-2.7	-2.5042	-2.9979	-2.8521	-2.6979	-2.9667	-2.6979	-3.1125	340.720	224.541	309.441	181.885	240.306	249.644	522.266	516.738	276.028	449.893	513.141	203.142	433.099	231.397	479.039	519.022	0.0013786	0.0008779	0.00028226	702.91	4.2781e-06	0.00014033	618.26	226.09	3.3149e-06	5.0701e-06	246.5	98.024	96.242	53.159	1.0578e-05	57.5	0.0096447	0.0032024	0.00081746	669.83	3.1728e-05	0.00026084	587.07	214.93	2.987e-05	3.6088e-05	236.38	102.38	92.947	51.459	3.3739e-05	54.817	285.316	202.628	255.978	186.898	317.189	419.275	185.256	191.860	253.011	428.144	189.756	192.996	197.593	202.557	318.494	197.975	-8191	255	
1953.733	1	1	0	0	0.11375	0.25033	0.038613	0.15335	0.024745	0.066903	0.34881	0.22969	0.030602	0.14914	0.10502	0.10911	0.036634	0.089859	0.22527	0.12402	-2.3729	-2.7375	-2.9396	-2.8854	-2.6667	-3.0104	-2.7854	-3.0792	-2.875	-2.7771	-3.0583	-2.8833	-2.8312	-3.1479	-2.6021	-2.9875	222.792	523.576	436.880	514.591	329.409	345.624	221.650	471.052	373.196	301.201	407.858	464.502	524.613	238.824	489.257	408.019	0.0016389	0.00086328	0.0002149	699.45	4.1788e-06	9.2231e-05	618.98	224.57	4.248e-06	3.7873e-06	246.67	98.349	97.723	53.939	4.6969e-06	57.268	0.012506	0.0032371	0.00082338	668.09	3.2059e-05	0.00018797	585.77	214.95	3.0953e-05	3.5632e-05	237.18	108.47	94.37	52.003	3.2407e-05	55.166	288.922	283.126	280.499	186.636	336.470	438.303	184.992	192.096	330.559	329.905	189.900	192.871	197.636	202.725	322.887	197.967	-8191	255	
1953.804	1	1	0	0	0.071375	0.28448	0.061925	0.15349	0.14783	0.32157	0.27717	0.25965	0.055807	0.28961	0.2589	0.24811	0.099079	0.085324	0.046951	0.075786	-2.7625	-2.6375	-3.0417	-3.15	-2.7083	-3.0417	-2.8875	-2.7396	-2.7979	-2.6312	-3.0646	-2.9667	-2.8354	-3.2313	-2.7979	-2.9646	309.730	329.839	375.858	496.556	194.524	310.780	467.391	414.964	351.215	390.684	354.238	194.911	479.675	485.224	239.569	206.982	0.0012951	0.00069251	7.3578e-05	706.96	7.324e-06	0.0001447	617.9	225.17	6.8108e-06	5.8219e-06	246.45	99.193	97.2	53.68	4.467e-06	57.771	0.0095309	0.0032897	0.00082809	670.47	3.3031e-05	0.00015757	606.74	215.21	2.9824e-05	3.7402e-05	237.66	104.15	94.365	51.946	3.3833e-05	55.604	284.777	263.285	495.178	186.610	292.127	404.224	184.805	192.555	336.195	301.092	189.761	193.434	197.398	202.653	332.673	197.787	-8191	255	
1953.900	1	1	0	0	0.009399	0.16342	0.16881	0.029265	0.34798	0.23267	0.16885	0.21382	0.061268	0.13875	0.18782	0.053832	0.070949	0.093957	0.22961	0.12544	-2.6833	-2.7271	-2.9521	-2.8667	-2.6333	-3.0479	-2.8979	-2.9354	-2.9979	-2.6813	-2.9292	-2.9396	-2.8354	-3.1771	-2.9417	-2.9729	442.085	180.277	331.036	175.080	325.895	433.288	512.771	518.458	414.286	475.154	205.513	193.415	230.829	511.693	339.545	529.578	0.0016656	0.00017106	0.00023375	703.53	3.8335e-06	5.2635e-06	618.71	225.85	5.192e-06	6.3103e-06	250.84	99.418	98.15	54.289	4.5381e-06	57.89	0.01244	0.0032817	0.00086241	669.37	3.4076e-05	3.2664e-05	633	215.89	3.0825e-05	3.6348e-05	239.57	109.11	94.839	52.299	3.3591e-05	55.941	303.564	339.263	258.727	186.867	354.311	281.389	184.533	192.166	299.771	348.369	189.765	192.795	197.689	202.478	272.296	197.815	-8191	255	
1954.021	1	1	0	0	0.12624	0.03092	0.1054	0.34707	0.1296	0.23755	0.24259	0.1997	0.010577	0.078549	0.075481	0.17841	0.080121	0.282	0.086386	0.1866	-2.7042	-2.5854	-2.8667	-2.7188	-2.6625	-2.9938	-2.8438	-2.6604	-3.0979	-2.775	-2.9958	-2.9875	-2.5542	-3.15	-2.9542	-2.7708	392.868	298.527	531.011	524.610	204.522	478.604	463.006	423.748	512.874	287.790	399.335	187.778	439.100	492.742	426.347	441.955	0.0012622	0.00041599	7.8391e-05	701.32	5.8691e-06	5.2083e-06	606.03	224.55	4.4724e-06	2.4492e-06	246.49	99.462	96.268	53.766	4.5907e-06	57.342	0.0093983	0.0032491	0.00087795	669.5	3.4172e-05	3.2533e-05	655.68	215.02	3.0306e-05	3.6327e-05	237.61	104.69	93.431	51.795	3.3813e-05	55.172	296.888	294.277	298.048	186.899	342.233	303.776	185.291	191.718	326.148	455.249	189.218	193.485	197.614	202.302	360.026	197.589	-8191	255	
1954.117	1	1	0	0	0.12871	0.15686	0.084684	0.26728	0.11228	0.15148	0.31587	0.1964	0.31691	0.19836	0.20361	0.13724	0.11804	0.071285	0.22982	0.17004	-2.7417	-2.7354	-2.7458	-3.0375	-2.7167	-2.8375	-2.9979	-2.8271	-3.1771	-2.6333	-2.6229	-2.9833	-2.6958	-3.1271	-2.7583	-2.7042	394.792	343.979	526.352	460.949	459.542	289.049	468.345	346.670	464.381	247.594	193.060	509.482	529.429	511.500	194.861	489.488	0.0011595	0.0060996	0.00020252	697.14	1.5959e-06	6.7489e-06	602.69	223.03	5.764e-06	6.7922e-06	243.22	98.245	94.896	52.552	1.3759e-06	56.002	0.0073715	0.009674	0.00091078	660.87	3.4627e-05	3.4245e-05	623.65	212.22	2.9034e-05	3.657e-05	233.66	106.82	92.129	50.818	3.2939e-05	54.052	328.106	217.309	245.252	186.612	283.101	372.013	184.463	192.130	329.363	313.474	189.654	192.547	197.201	202.491	239.475	197.938	-8191	255	
1954.213	1	1	0	0	0.11603	0.26934	0.1364	0.017379	0.031759	0.35432	0.119	0.036656	0.16626	0.10028	0.20459	0.080644	0.10211	0.27666	0.10768	0.072991	-2.6479	-2.7146	-2.8417	-3.1562	-2.7562	-2.9313	-3.0771	-2.8771	-2.9562	-2.7417	-2.7417	-3.0062	-2.7625	-3.0646	-2.8646	-2.7646	291.695	452.778	191.552	394.440	304.930	496.505	533.141	495.953	212.804	488.613	345.452	495.917	485.398	511.084	435.995	477.067	0.00044753	0.0023083	0.00029761	691.57	7.5665e-06	5.9858e-06	593.75	218.9	7.1771e-06	5.8713e-06	240.72	98.833	95.92	53.112	6.563e-06	56.709	0.0018392	0.016146	0.00089676	656.26	3.292e-05	3.3792e-05	638.78	210.32	2.9449e-05	3.5201e-05	233.1	103	92.526	51.26	3.2323e-05	54.798	251.813	196.107	297.104	186.508	313.497	361.528	184.983	192.111	319.919	323.974	189.498	193.097	197.708	202.486	193.497	197.743	-8191	255	
1954.309	1	1	0	0	0.028064	0.25434	0.10919	0.055875	0.37519	0.020777	0.11895	0.20876	0.27534	0.13174	0.16206	0.25649	0.16355	0.14808	0.028719	0.25162	-2.6	-2.6917	-2.7687	-3.1042	-2.7417	-2.8667	-3.0729	-2.6979	-2.9146	-2.9917	-2.6937	-3.2083	-2.9938	-2.8271	-3.2104	-2.8604	350.831	342.133	452.163	423.977	176.356	476.340	285.891	494.421	251.419	372.521	231.511	529.171	250.447	491.849	387.008	459.755	0.00047918	0.012867	0.00020521	691.44	6.9721e-06	4.0447e-06	598.27	220.98	7.0879e-06	3.6567e-06	244.35	99.131	97.743	54.085	1.7424e-06	58.157	0.0018259	0.022425	0.00091501	658.44	3.2018e-05	3.4901e-05	617.87	212.3	2.9557e-05	3.5957e-05	234.8	101.1	98.281	52.321	3.1121e-05	55.88	253.757	280.894	280.225	186.561	288.420	350.805	184.813	191.980	342.378	353.073	189.560	194.157	196.431	201.859	212.301	197.756	-8191	255	
1954.406	1	1	0	0	0.32239	0.15817	0.041919	0.067097	0.17087	0.21296	0.22933	0.29683	0.10125	0.053855	0.31905	0.11751	0.059854	0.19601	0.19865	0.14326	-2.7562	-2.775	-2.7604	-3.0833	-2.6312	-2.9646	-3.0646	-2.7	-3.1208	-2.9562	-2.5938	-3.15	-2.8625	-3.0375	-2.9917	-2.8125	497.398	465.030	397.675	193.636	440.949	363.520	490.051	272.620	498.018	289.872	479.399	523.332	227.650	187.707	226.887	434.014	0.00051127	0.0084711	0.00012162	695.03	6.3818e-06	3.3085e-06	600.62	224.95	2.438e-06	8.3451e-06	250.41	104.79	102.14	57.461	2.6483e-06	60.479	0.0018676	0.015534	0.00089996	660.29	3.2578e-05	3.4825e-05	637.49	215.39	2.9825e-05	3.4353e-05	241.84	100.34	105.31	55.235	3.097e-05	58.363	248.162	293.709	302.546	186.271	315.524	205.067	184.772	191.635	322.378	366.209	189.874	193.735	196.893	201.754	333.622	197.584	-8191	255	
1954.502	1	1	0	0	0.099145	0.029374	0.20184	0.35465	0.079911	0.12029	0.20527	0.48115	0.0093638	0.15587	0.056137	0.2036	0.056831	0.13531	0.21826	0.25769	-2.6396	-3.0917	-2.6167	-2.9417	-2.7146	-2.8958	-3.05	-2.7354	-2.9188	-3.0854	-2.6708	-3.0292	-2.7521	-3.0833	-3.3063	-2.7917	205.372	306.808	423.666	501.457	374.008	450.694	521.453	469.585	382.154	466.974	409.503	197.155	466.688	530.094	248.837	477.680	0.00055912	0.011391	0.00023848	703.25	4.1119e-06	5.1188e-06	613.13	230.15	3.2385e-06	3.4578e-06	259.24	108.32	105.92	59.569	3.4611e-06	61.746	0.0018879	0.019798	0.00089059	665.65	3.1919e-05	3.5195e-05	622.93	220.23	2.9988e-05	3.3652e-05	248.29	104.14	111.26	57.169	3.012e-05	59.213	256.253	295.176	364.981	186.630	353.473	327.883	185.002	191.859	359.415	328.712	189.257	193.657	196.744	201.750	324.030	197.151	-8191	255	
1954.621	1	1	0	0	0.24453	0.15373	0.16968	0.18837	0.29391	0.12924	0.26451	0.13807	0.023183	0.15805	0.088555	0.162	0.15596	0.032031	0.13506	0.053367	-2.5417	-3.0146	-2.7479	-3.0771	-2.6667	-2.825	-3.2188	-2.775	-2.9646	-3.1937	-2.8625	-3.1042	-2.8917	-2.8104	-3.1188	-2.7583	240.838	282.666	426.484	346.436	174.943	446.821	498.807	470.850	195.161	414.989	486.623	531.600	511.178	430.661	368.766	460.573	0.0005902	0.0068601	0.00012126	696.76	3.8985e-06	1.0302e-05	614.82	235.18	3.6854e-06	1.4353e-06	264.79	113.15	110.85	61.401	7.3086e-06	63.52	0.0018867	0.013351	0.00087676	666.08	3.1709e-05	3.503e-05	610.86	232.84	3.0846e-05	3.2714e-05	255.89	108.28	111.81	59.145	2.9995e-05	61.104	249.431	300.891	281.660	186.564	345.022	284.312	185.334	191.159	359.543	294.573	189.680	193.872	196.770	201.734	306.423	197.063	-8191	255	
1954.717	1	1	0	0	0.091514	0.1015	0.1774	0.27039	0.17957	0.21048	0.20785	0.33434	0.15051	0.29561	0.094531	0.10466	0.17218	0.52851	0.13201	0.16156	-2.4	-2.9917	-2.7896	-3.0563	-2.8937	-2.6792	-3.0167	-2.6937	-2.8083	-3.1646	-2.6917	-2.9708	-2.9667	-2.7958	-3.1312	-2.9667	329.587	210.244	405.725	433.710	306.514	470.845	455.608	495.224	324.661	203.957	423.171	456.362	476.341	201.638	326.290	529.995	0.00057591	0.0098426	0.00014418	712.82	7.4701e-06	3.9378e-06	638	242.9	3.9515e-06	5.233e-06	279.49	119.26	116.3	63.809	3.4409e-06	65.443	0.0019674	0.016614	0.00089338	677.29	3.0084e-05	3.5812e-05	605.64	245.58	3.0373e-05	3.2729e-05	266.64	114.41	118.83	61.533	3.0064e-05	62.693	256.300	306.157	237.961	186.796	367.097	324.818	185.053	191.755	299.579	356.104	189.590	193.497	196.829	201.331	266.689	197.048	-8191	255	
1954.813	1	1	0	0	0.22624	0.18284	0.16565	0.1345	0.18072	0.17866	0.14948	0.12673	0.1151	0.12662	0.08085	0.18929	0.17516	0.26434	0.12097	0.24966	-2.4458	-2.9917	-2.6833	-3.0687	-2.8646	-2.7208	-3.1271	-2.7792	-2.8625	-3.1875	-2.8146	-3.1708	-2.975	-2.75	-2.9313	-3.1312	330.752	241.676	350.359	411.306	531.125	199.632	459.061	199.147	399.286	301.947	354.021	458.491	505.531	486.356	220.158	533.225	0.00058689	0.0053026	0.00015721	719.77	1.3035e-05	3.2561e-06	647.71	247.49	3.1851e-06	7.8021e-06	283.55	121.69	118.61	64.821	3.6325e-06	66.525	0.0020224	0.01173	0.00088113	684.14	2.9974e-05	3.5344e-05	614.93	254.29	3.1554e-05	3.1733e-05	272.76	116.88	118.78	62.322	3.0637e-05	63.726	257.005	326.071	276.280	186.615	359.244	257.284	185.380	191.795	262.876	295.204	189.405	193.798	196.702	201.562	268.340	197.207	-8191	255	
1954.909	1	1	0	0	0.33111	0.067128	0.24548	0.21013	0.13601	0.24354	0.12743	0.24149	0.13112	0.13697	0.049721	0.030742	0.23289	0.3191	0.099316	0.15836	-2.2	-3.1417	-2.6146	-3.0312	-3.1562	-2.7542	-3.2083	-2.9729	-2.7229	-2.9708	-2.7542	-3.0396	-3.0646	-2.9167	-3.0667	-3.1896	393.147	435.598	526.564	178.250	461.198	225.278	511.982	492.158	409.847	294.925	514.912	362.285	336.140	438.114	201.544	459.337	0.00061636	0.0087018	0.00025778	723.12	6.771e-06	8.9872e-06	659.52	250.41	2.6234e-06	1.0043e-05	288.63	123.44	119.74	64.83	6.6246e-06	65.703	0.002	0.0077497	0.0024913	689.45	2.9432e-05	3.5136e-05	623.54	251.09	3.1821e-05	3.2344e-05	275.92	118.05	121.91	62.323	3.1247e-05	62.902	252.494	322.863	503.015	186.869	320.455	290.623	185.377	191.949	310.826	293.204	189.431	193.587	196.761	201.388	302.657	197.205	-8191	255	
1955.005	1	1	0	0	0.064422	0.26287	0.18975	0.33152	0.23236	0.028092	0.25474	0.10246	0.28599	0.16407	0.050998	0.036677	0.39067	0.18116	0.057109	0.13266	-2.1854	-3.075	-2.6188	-2.9771	-2.9167	-2.7146	-3.1312	-2.8583	-2.6542	-3.2583	-2.8792	-2.9104	-2.9646	-2.7313	-2.7667	-3.0312	429.648	257.232	232.798	511.418	314.630	516.315	495.216	213.048	330.670	250.888	403.582	302.406	495.926	477.800	177.663	216.918	0.00062886	0.00077158	0.0014606	722.82	6.0334e-07	6.7452e-06	656.56	250.53	4.8627e-06	5.559e-06	286.79	123	119.82	64.76	7.2602e-06	65.204	0.0020209	0.0028543	0.0031999	687.24	2.9589e-05	3.5676e-05	621.1	255.9	3.1121e-05	3.1763e-05	275.69	117.7	119.32	62.339	3.1546e-05	62.717	257.214	281.183	331.840	186.820	385.617	325.978	185.278	191.244	332.835	322.945	189.823	193.406	197.318	201.194	272.509	197.312	-8191	255	
1955.101	1	1	0	0	0.19628	0.13765	0.095711	0.12037	0.13431	0.31802	0.36864	0.14549	0.14589	0.26913	0.20754	0.18225	0.18954	0.074763	0.22452	0.28629	-2.2271	-2.9688	-2.7646	-2.7708	-3.0521	-2.6708	-3.0708	-2.9625	-2.6292	-3.0708	-2.95	-2.7188	-3.0542	-2.8917	-2.7583	-3.1979	318.326	401.361	403.508	388.352	518.389	369.751	524.397	460.732	499.311	194.315	376.484	214.902	480.179	512.995	459.356	432.429	0.00059603	0.00079743	0.0019909	725.3	7.3401e-06	7.8055e-06	659.34	251.39	6.3948e-06	4.9991e-06	287.39	124.18	121.21	65.146	6.8177e-06	65.888	0.0019712	0.0028661	0.0042369	689.69	2.9391e-05	3.5099e-05	624.57	251.78	3.127e-05	3.3449e-05	277.03	118.81	117.71	63.957	3.2351e-05	63.132	247.795	242.998	334.239	186.819	404.121	277.690	185.157	191.991	349.056	324.558	189.479	193.732	197.037	201.103	300.128	197.017	-8191	255	
1955.198	1	1	0	0	0.38495	0.12838	0.056106	0.07188	0.081417	0.058195	0.18224	0.30089	0.14045	0.3035	0.18527	0.2732	0.12611	0.10353	0.22291	0.1007	-2.1896	-3.1042	-2.7812	-2.875	-3.1208	-2.775	-2.9625	-3.2	-2.7146	-2.8958	-2.7875	-2.6729	-3.1833	-2.9292	-2.8146	-3.1542	442.889	463.886	329.024	223.107	301.087	482.726	368.170	484.509	388.758	368.243	198.205	457.219	174.159	386.243	359.464	494.738	0.00053721	0.00064604	0.0016325	728.55	4.9686e-06	1.4996e-05	661.78	250.57	2.6317e-06	9.083e-06	288.68	122.18	119.14	64.641	9.3038e-06	65.901	0.0020654	0.0030275	0.0031791	692.99	2.9203e-05	3.6759e-05	626.7	257.41	3.2629e-05	3.4791e-05	276.45	118	114.44	64.182	3.4392e-05	63.101	256.855	268.676	339.752	187.152	287.543	326.114	184.968	191.660	416.171	301.872	189.255	193.977	197.267	201.603	328.095	197.114	-8191	255	
1955.318	1	1	0	0	0.10997	0.16963	0.17876	0.074746	0.079489	0.060665	0.056661	0.28628	0.17154	0.034198	0.21033	0.31212	0.15393	0.30304	0.064212	0.23599	-2.3146	-2.9958	-2.8937	-2.9188	-2.9625	-3.0125	-2.8896	-3.1917	-2.7188	-2.9729	-2.8583	-2.5479	-3.05	-2.9521	-2.7229	-3.0396	314.549	358.271	354.765	351.692	495.926	465.161	443.380	503.179	358.252	347.408	439.796	202.744	257.397	179.493	369.910	458.648	0.0006119	0.00075545	0.0026726	729.69	7.0117e-06	9.9383e-06	658.29	248.35	4.7657e-06	2.4086e-06	286.16	120.07	115.85	63.876	6.6734e-06	64.452	0.0020756	0.0031775	0.0048774	692.25	3.0289e-05	3.677e-05	625.41	251.4	3.294e-05	3.5707e-05	273.36	115.67	112.04	64.289	3.3596e-05	61.756	252.047	336.969	348.111	186.818	377.446	341.331	185.152	192.445	350.305	372.905	189.494	193.963	197.075	201.651	324.897	197.296	-8191	255	
1955.414	1	1	0	0	0.11173	0.19532	0.22082	0.10491	0.19214	0.20309	0.35577	0.19703	0.23296	0.086129	0.31957	0.23433	0.12345	0.2014	0.18573	0.090362	-2.2854	-2.9625	-2.9688	-2.6188	-3.0292	-2.9646	-2.8667	-3.2417	-2.8021	-2.8875	-3.0146	-2.6771	-3	-2.9271	-2.6188	-3.1771	236.544	261.859	178.337	189.304	437.192	396.526	500.685	533.635	194.200	462.866	472.496	489.047	491.121	234.711	471.168	273.810	0.00057644	0.0011453	0.0024331	725.43	5.2e-06	9.5947e-06	656.21	247.28	8.6855e-05	5.9695e-06	281.57	118.64	115.37	63.099	8.0793e-06	63.933	0.0020771	0.0032209	0.0041571	690.27	3.1903e-05	3.7174e-05	621.71	243.91	0.00012892	3.6451e-05	269.53	114.07	111.32	63.084	3.4933e-05	61.318	252.046	260.120	355.161	186.943	303.854	331.147	185.151	192.005	226.472	325.573	189.716	194.177	197.601	201.808	352.344	197.470	-8191	255	
1955.509	1	1	0	0	0.24084	0.14883	0.18999	0.29733	0.10994	0.11415	0.16536	0.071148	0.17088	0.2659	0.13803	0.058439	0.30044	0.52615	0.14154	0.074511	-2.3292	-2.8542	-2.8937	-2.6354	-3.0896	-2.9083	-2.8271	-3.225	-2.7417	-3.0333	-3	-2.8146	-3.2333	-2.9521	-2.6813	-3.1875	177.666	488.269	518.510	484.060	452.608	203.115	451.734	484.707	425.860	177.711	469.172	276.431	224.496	470.308	382.840	485.093	0.0005743	0.00077475	0.0034352	726.57	6.4143e-06	5.1777e-06	658.19	246.35	5.1385e-05	4.9721e-06	278.72	116.49	113.3	62.066	7.3476e-06	63.163	0.0021657	0.0032181	0.0060157	691.79	3.2657e-05	3.5936e-05	622.69	235.91	0.00016232	3.7603e-05	266.24	111.64	108.97	63.341	3.5751e-05	60.603	254.903	298.664	363.970	186.738	322.859	360.007	185.062	192.279	207.098	385.884	189.959	193.972	197.438	202.176	357.766	197.645	-8191	255	
1955.605	1	1	0	0	0.10299	0.13381	0.059878	0.14992	0.10558	0.21286	0.29814	0.096472	0.22154	0.19482	0.24403	0.11604	0.031189	0.094663	0.13681	0.17998	-2.2687	-2.8125	-2.9771	-2.7667	-2.9688	-2.7396	-2.7854	-3.2667	-2.7812	-2.8979	-3.25	-2.8792	-3.075	-3.0667	-2.5625	-3.2188	465.551	273.978	355.521	486.661	284.837	493.188	458.582	411.594	295.888	533.772	514.199	374.822	477.276	177.679	520.747	465.551	0.00053858	0.00029417	0.0028284	723.39	4.1691e-06	5.6777e-06	645.57	238.65	9.167e-05	1.2674e-06	267.71	112.59	109.2	59.906	8.1481e-06	62.448	0.0021286	0.0034726	0.004278	688.51	3.3235e-05	3.6317e-05	613.32	228.96	0.00023456	3.8737e-05	257.2	108.06	105.44	60.504	3.7051e-05	60.105	247.581	175.143	342.006	186.875	305.542	371.500	185.499	192.457	219.175	387.032	190.121	194.488	198.082	202.335	294.072	198.259	-8191	255	
1955.701	1	1	0	0	0.10776	0.38308	0.21881	0.10156	0.16965	0.024015	0.089141	0.3282	0.12332	0.15875	0.071583	0.039256	0.27311	0.43078	0.21054	0.26278	-2.4938	-2.7938	-3.2854	-2.6937	-2.8896	-2.7875	-2.6333	-3.0708	-2.8604	-2.8021	-3.0896	-2.9188	-2.9333	-3.15	-2.6583	-3.2208	414.957	333.402	519.379	502.030	189.741	276.678	527.777	424.592	481.668	240.306	209.708	487.707	234.177	508.891	509.274	488.586	0.00057724	0.00035397	0.0041777	716.14	4.6836e-06	5.3655e-06	647.7	239.8	7.3554e-05	7.415e-06	269.6	112.54	109.66	60.796	9.6745e-06	63.58	0.0021771	0.0034378	0.0023586	745.24	3.5176e-05	3.5908e-05	617.11	230.72	0.00018222	3.8926e-05	259.92	108.5	105.83	62.61	3.8582e-05	61.182	254.137	288.775	348.640	186.319	354.427	303.392	185.568	192.709	216.884	316.863	189.657	194.385	197.593	202.387	312.338	198.034	-8191	255	
1955.797	1	1	0	0	0.13641	0.1251	0.18786	0.28716	0.15715	0.25152	0.19615	0.25345	0.14747	0.12155	0.11638	0.23145	0.10567	0.15385	0.097094	0.28694	-2.5167	-2.7167	-2.9688	-2.6979	-2.9833	-3.1792	-2.6583	-2.9021	-2.9604	-2.9521	-3.0542	-2.8521	-2.9479	-3.2979	-2.7896	-3.0521	230.059	438.887	285.693	183.786	220.260	284.272	445.045	437.999	302.340	223.341	238.295	487.235	375.387	179.276	332.876	469.032	0.00061137	0.00086324	0.00039688	720.91	6.1361e-06	3.3037e-06	652.33	242.04	9.638e-05	4.0467e-06	270.59	112.5	109.96	60.959	6.4692e-05	63.288	0.0021301	0.0036042	0.00089932	762.89	3.4897e-05	3.6549e-05	618.9	232.27	0.0002604	3.9238e-05	260.54	108.57	106.23	61.348	4.1755e-05	61.078	248.306	245.522	296.094	187.641	313.776	249.493	185.095	192.098	226.360	278.926	189.790	194.087	197.403	202.558	280.703	198.008	-8191	255	
1955.893	1	1	0	0	0.22045	0.25571	0.1303	0.083686	0.27942	0.23564	0.11769	0.10808	0.2082	0.057805	0.069027	0.39004	0.31518	0.11764	0.090997	0.23365	-2.3937	-2.6854	-3.1958	-2.9833	-2.9167	-2.9667	-2.8271	-3.0333	-2.9354	-2.5854	-3.2333	-2.8729	-2.8292	-3.1417	-2.6146	-2.9896	246.410	338.669	294.624	414.129	386.405	423.247	389.664	311.348	455.493	508.891	441.154	521.151	476.631	503.839	358.745	528.267	0.00050256	0.00060107	0.00024184	720.26	7.4995e-06	2.6262e-06	648.07	240.7	7.6319e-05	2.962e-06	269.78	113.17	109.71	60.843	8.3626e-05	64.087	0.0021158	0.0035929	0.00090894	793.4	3.5024e-05	3.6627e-05	615.74	231.54	0.00019182	4.0923e-05	259.78	108.93	106.21	59.197	0.00019697	61.708	256.888	202.415	269.751	187.450	323.924	328.597	185.817	192.025	234.518	320.430	189.877	193.887	197.473	202.868	280.768	197.983	-8191	255	
1955.989	1	1	0	0	0.29369	0.10477	0.33757	0.073334	0.18932	0.24259	0.22626	0.14292	0.086034	0.301	0.31276	0.084617	0.099109	0.32381	0.20426	0.17873	-2.5833	-2.6333	-3.0104	-2.8646	-2.7542	-3.0438	-2.7562	-3.0646	-2.9667	-2.5896	-3.1208	-2.8438	-2.8312	-3.0292	-2.7313	-2.8812	180.498	188.547	504.632	458.068	253.466	192.857	431.513	406.533	265.086	214.449	179.194	424.191	499.707	195.019	215.380	202.630	0.00063188	0.00022096	0.00020872	712.39	6.363e-06	6.1391e-06	644.22	239.35	0.00010226	7.8419e-06	267.11	111.47	108.11	59.042	0.00012563	63.312	0.0020725	0.0037045	0.00094969	763.7	3.5946e-05	3.6384e-05	613.52	229.66	0.0002697	4.191e-05	256.61	107.22	104.42	57.179	0.00021561	60.74	254.023	240.956	245.109	187.304	340.960	311.496	185.437	192.672	243.422	315.805	189.883	194.370	197.819	202.345	343.345	198.071	-8191	255	
1956.110	1	1	0	0	0.27851	0.12677	0.33547	0.073493	0.38652	0.16842	0.18798	0.11916	0.095926	0.14705	0.11324	0.15446	0.070202	0.21236	0.20683	0.33067	-2.4875	-2.5125	-2.8854	-3.0187	-2.8	-3.0771	-2.8125	-2.975	-3.1208	-2.7458	-2.9854	-2.8396	-2.7771	-3.1875	-2.9521	-2.7271	359.555	327.715	485.963	368.758	258.177	196.476	181.834	438.758	377.467	259.690	523.299	477.708	274.277	491.667	411.268	503.898	0.00051019	0.00040244	0.00011698	706.34	3.9401e-06	5.0781e-06	643.23	235.91	4.9595e-06	0.00011839	262.39	109.12	105.53	57.716	0.00015985	62.215	0.0021105	0.0037926	0.00096873	791.56	3.7749e-05	3.7389e-05	610.35	226.17	0.00016569	5.5861e-05	253.08	105.27	102.33	55.733	0.00028768	59.832	252.855	232.297	287.150	187.322	414.339	309.362	185.124	192.484	327.867	227.605	189.867	194.250	197.616	202.973	356.198	198.381	-8191	255	
1956.206	1	1	0	0	0.09778	0.13472	0.17952	0.20597	0.19785	0.058078	0.070808	0.29031	0.15376	0.18659	0.068654	0.2066	0.21734	0.18674	0.05458	0.052183	-2.7583	-2.5792	-2.9938	-3.075	-2.6104	-2.9313	-3.0083	-2.7687	-2.9688	-2.4917	-3.0458	-3.1833	-2.7854	-3.2229	-2.8917	-2.9396	184.203	331.398	471.991	447.466	457.643	431.543	233.516	490.746	266.960	478.827	379.167	425.438	466.839	531.577	252.737	292.603	0.00055759	0.00091272	0.00013489	709.91	5.451e-06	4.2472e-06	639.29	232.52	8.9836e-06	0.00016896	257.93	106.6	103.95	56.32	0.00012297	60.317	0.002099	0.0038826	0.0010015	760.99	3.8377e-05	3.9265e-05	606.66	223.35	7.047e-05	0.00022833	249.06	102.94	100.52	54.377	0.00021181	58.196	250.918	274.068	278.008	187.071	282.137	397.970	185.120	192.420	381.436	232.069	189.582	193.951	198.045	202.562	359.252	198.419	-8191	255	
1956.302	1	1	0	0	0.1107	0.067404	0.12605	0.069226	0.05539	0.20216	0.17473	0.35164	0.14096	0.19452	0.15839	0.32204	0.13165	0.20808	0.18401	0.030303	-2.7271	-2.6562	-2.6375	-3.0021	-2.4625	-2.8312	-2.8229	-2.9458	-3.0333	-2.8521	-2.9125	-3.0417	-2.675	-3.1021	-2.9958	-2.7167	415.954	228.826	351.877	333.477	340.877	259.208	268.957	521.074	317.265	231.163	179.459	522.837	400.469	200.660	208.388	414.955	0.00057334	0.00053993	0.00019208	706.35	4.2947e-06	8.1154e-06	630.93	231.13	3.8495e-06	0.00010966	255.01	105.57	103.14	55.524	0.00014863	59.939	0.0021165	0.0040181	0.0010162	783.79	3.9359e-05	3.9392e-05	601.3	222.98	3.4469e-05	0.00022674	246.98	101.6	99.603	53.782	0.00026835	57.582	253.350	275.947	217.333	187.183	360.077	323.006	185.170	192.395	376.686	245.935	189.863	194.198	197.813	202.475	361.461	197.927	-8191	255	
1956.399	1	1	0	0	0.17499	0.16414	0.25197	0.17127	0.27674	0.23962	0.18681	0.041103	0.17623	0.21713	0.064111	0.12958	0.059281	0.25629	0.18802	0.1478	-2.6354	-2.7479	-2.7438	-3.1688	-2.7313	-3.1042	-2.9583	-2.7542	-3.0542	-2.9917	-2.7917	-2.9229	-2.675	-3.0104	-2.9917	-2.6875	262.192	238.146	278.747	324.984	381.605	456.596	497.792	502.661	227.954	323.243	390.069	180.306	449.120	471.351	506.123	524.813	0.00053262	0.0006252	0.00015377	713.49	7.9177e-05	7.5551e-06	633.21	232.36	1.5928e-06	0.00013301	256.67	105.65	103.13	55.907	0.00011483	60.357	0.0021757	0.0038917	0.0010413	735.29	5.7736e-05	4.0519e-05	600.71	223.66	3.5064e-05	0.0002836	247.38	101.74	100.46	54.15	0.00019443	58.003	258.422	248.512	249.161	187.063	197.202	355.548	184.775	192.598	373.508	249.221	189.394	194.073	197.953	202.539	371.372	198.220	-8191	255	
1956.495	1	1	0	0	0.027083	0.12829	0.10748	0.046483	0.16896	0.17568	0.21081	0.21933	0.11265	0.0058674	0.18462	0.2996	0.20979	0.12785	0.13941	0.24972	-2.6875	-2.8625	-2.725	-3.1167	-2.8083	-2.8979	-3.2021	-2.6	-3.0812	-2.7146	-2.7375	-3.1813	-2.675	-3.0042	-3.0792	-2.8833	250.499	261.036	322.128	486.517	403.459	519.932	418.013	511.960	198.031	251.178	477.535	186.147	472.665	476.680	251.995	490.706	0.0005544	0.00076668	0.00015068	716.6	0.00010647	8.9417e-06	631.96	234.75	5.06e-06	9.3763e-05	258.45	106.18	103.84	55.583	0.00013601	59.538	0.0022501	0.0038617	0.001044	698.81	0.00019311	4.1404e-05	603.19	225.41	3.5618e-05	0.00020825	249.51	102.38	100.58	53.912	0.00024427	57.824	254.072	219.625	226.868	187.507	195.194	303.408	185.476	192.074	375.424	249.636	189.723	194.198	197.590	202.737	374.937	198.265	-8191	255	
1956.591	1	1	0	0	0.14057	0.14994	0.04844	0.15751	0.19241	0.13244	0.10974	0.074519	0.10502	0.092885	0.15628	0.095765	0.22102	0.31863	0.12962	0.014867	-2.5625	-2.8979	-2.7146	-3	-2.7375	-3.0396	-2.9729	-2.8688	-2.9583	-2.9625	-2.7292	-3.1833	-2.5583	-2.9208	-3.1083	-2.8146	477.030	209.899	488.168	495.587	321.056	429.560	515.974	493.639	388.723	323.755	177.752	473.369	306.992	504.182	209.566	282.730	0.0005008	0.00097058	0.00010667	721.72	7.6974e-05	2.1946e-06	638.98	232.98	6.3536e-06	0.00014401	258.57	105.14	103.17	55.038	0.000111	59.493	0.0022016	0.0037322	0.001063	689.34	0.00018981	4.1915e-05	604.76	224.62	3.7011e-05	0.00027216	249.68	101.59	100.05	53.448	0.00014348	58.18	252.301	248.835	228.799	186.736	508.801	391.311	185.286	192.361	287.762	263.554	189.215	194.040	197.511	202.602	384.306	197.955	-8191	255	
1956.710	1	1	0	0	0.14122	0.16849	0.17198	0.1358	0.2597	0.24221	0.13782	0.16289	0.27826	0.22208	0.0512	0.34498	0.22975	0.11394	0.1285	0.1227	-2.5979	-2.8354	-2.6437	-3.2125	-2.9167	-2.7104	-3.1625	-2.7458	-3.0812	-2.9208	-2.7042	-3.0875	-2.8833	-2.925	-2.9938	-2.7625	383.454	474.728	304.874	221.104	259.706	196.048	493.819	514.208	510.671	252.586	185.866	207.170	205.832	308.528	513.857	285.146	0.0005215	0.00074284	0.00013749	725.44	0.00011383	2.5481e-06	631.78	233.09	4.9229e-06	8.6269e-05	256.81	104.5	102.27	55.35	0.00014866	59.055	0.0022317	0.0036452	0.001119	690.65	0.00024777	4.1772e-05	602.52	224.41	3.6811e-05	0.00021017	248.54	100.93	99.592	53.388	5.1501e-05	61.682	257.269	230.261	238.403	186.738	509.500	268.035	185.390	192.376	329.289	269.908	189.860	194.066	197.699	202.502	388.258	197.926	-8191	255	
1956.806	1	1	0	0	0.10389	0.24871	0.41655	0.12539	0.069857	0.084007	0.28471	0.2694	0.020581	0.12918	0.22138	0.30492	0.18566	0.021914	0.11848	0.13346	-2.6104	-2.8771	-2.6917	-2.9938	-2.9729	-2.9333	-3.0646	-2.7854	-2.9375	-2.9375	-2.6208	-2.9688	-3.0167	-2.9833	-3.0354	-2.7687	321.772	231.682	407.933	355.999	309.660	360.955	469.225	457.274	381.393	216.636	428.441	416.249	488.677	330.782	437.510	494.270	0.00050477	0.0006809	0.00021254	728.68	8.7518e-05	6.6126e-06	636.81	236.1	1.552e-06	0.00014328	258.17	105.91	104.93	55.647	3.2558e-06	59.402	0.0022942	0.0035655	0.0011162	692.87	0.00018777	4.2789e-05	604.82	226.28	3.6873e-05	0.00027292	250.53	102.17	100.91	53.942	3.7045e-05	61.801	252.639	285.491	270.702	186.788	519.527	267.231	185.199	192.234	232.390	276.271	189.738	194.163	197.560	202.521	188.087	198.833	-8191	255	
1956.902	1	1	0	0	0.063673	0.063924	0.15956	0.061544	0.032542	0.10277	0.28907	0.21509	0.1159	0.22855	0.17021	0.092194	0.23182	0.10073	0.048105	0.10219	-2.5812	-2.9604	-2.6792	-3.0875	-2.9958	-2.8271	-3.1771	-2.8854	-2.7729	-3.0479	-2.9375	-2.9167	-3.0812	-2.9583	-3.1479	-2.9188	387.632	278.564	252.942	208.912	479.533	530.599	197.136	451.889	446.966	237.371	405.210	431.604	384.685	177.676	373.612	196.956	0.00051484	0.00052313	0.00010449	724.33	0.00011884	6.0352e-06	637.38	235.44	4.26e-06	4.79e-05	262.16	105.55	103.67	55.137	4.1667e-06	59.079	0.0022495	0.0037285	0.0011411	692.87	0.00025204	4.3627e-05	609.1	226.14	3.7744e-05	0.00015539	257.48	102.2	100.37	53.602	3.7996e-05	63.83	252.622	209.335	397.962	186.632	526.565	297.368	185.434	192.280	250.460	323.711	188.855	194.468	198.118	202.500	296.439	199.011	-8191	255	
1956.974	1	1	0	0	0.2432	0.13929	0.19333	0.15084	0.1781	0.1949	0.17177	0.017581	0.14448	0.14452	0.17234	0.22508	0.20324	0.23454	0.2818	0.2341	-2.3458	-2.9125	-2.6375	-2.9396	-3.075	-2.7938	-3.2083	-2.8625	-3.0021	-3.1125	-2.9062	-3.1562	-3.0187	-2.8271	-2.8083	-2.8271	486.304	446.220	407.213	198.156	290.377	363.939	507.247	262.659	462.595	390.094	365.191	512.881	465.327	469.997	240.025	508.698	0.00049647	0.00090789	6.655e-05	725.51	9.098e-05	3.4392e-06	641.87	234.36	2.133e-06	8.3397e-05	267.87	106.92	103.7	55.429	7.2191e-06	59.854	0.0023054	0.0036518	0.0011375	691.15	0.0001999	4.5716e-05	608.14	225.08	3.8313e-05	4.6101e-05	293.56	103.06	100.39	53.72	3.8157e-05	63.156	245.080	251.111	306.488	186.734	176.679	391.872	185.320	192.251	301.558	335.318	188.878	193.857	197.669	202.260	304.318	198.934	-8191	255	
1957.094	1	1	0	0	0.12628	0.10852	0.092192	0.065183	0.1364	0.11732	0.056401	0.19922	0.15462	0.21448	0.25886	0.076789	0.23203	0.18691	0.20918	0.05785	-2.3896	-3.3125	-2.8042	-3.0917	-2.8896	-2.8958	-3.1625	-2.9771	-2.8167	-3.1208	-2.7771	-3.0521	-3.2083	-2.8646	-3.0375	-2.9146	484.601	490.747	514.514	446.024	195.342	342.170	200.312	451.361	285.553	182.647	501.264	207.734	510.716	515.163	213.938	351.070	0.00059157	0.00040952	0.00015509	726.75	0.0001369	2.1356e-06	642.49	234.8	3.4274e-06	1.952e-06	265.9	105.85	102.34	54.785	7.4047e-06	57.979	0.0023177	0.0035543	0.0011461	693.85	0.00027017	4.4897e-05	610.7	225.1	3.8465e-05	3.9789e-05	288.22	102.08	99.112	52.998	3.7941e-05	63.931	252.663	285.245	309.931	186.855	178.880	319.793	184.951	192.535	370.790	414.538	189.697	194.216	197.638	202.625	332.147	199.456	-8191	255	
1957.190	1	1	0	0	0.081325	0.084216	0.053493	0.1715	0.1016	0.051508	0.23696	0.17179	0.076926	0.070212	0.17676	0.28301	0.20822	0.13757	0.11024	0.47234	-2.3896	-2.8792	-2.8604	-3.1063	-3.1292	-2.7687	-3.0833	-3.1875	-2.8854	-3.0646	-2.9042	-2.9333	-3.1333	-2.8958	-3.1333	-3.1479	234.330	464.228	305.087	436.733	352.109	458.401	496.664	444.879	451.406	267.745	461.062	202.802	419.129	504.142	363.675	188.003	0.00051632	0.00047047	0.00035917	723.25	5.3202e-05	0.00013788	637.18	230.84	2.0451e-06	6.3061e-06	263.51	102.2	99.863	53.049	1.244e-06	56.417	0.0023281	0.0035608	0.0010858	690.02	0.0001455	9.4318e-05	603.1	221.68	3.8948e-05	4.0123e-05	301.16	98.785	96.45	51.248	3.7867e-05	60.751	256.132	316.986	276.665	187.144	470.839	199.508	185.110	192.047	291.652	313.799	189.699	194.806	197.762	202.773	507.370	198.984	-8191	255	
1957.287	1	1	0	0	0.22319	0.20295	0.14084	0.07059	0.14022	0.19676	0.22409	0.092316	0.063861	0.083627	0.27749	0.23876	0.265	0.05221	0.079113	0.16462	-2.2375	-2.9813	-2.775	-2.9125	-3.1104	-2.8812	-3.0896	-3.0125	-2.9708	-3.1479	-3.0938	-2.925	-3.25	-2.9167	-2.9437	-3.1625	420.744	264.689	375.937	325.500	287.077	190.773	486.873	308.123	318.752	464.919	506.877	175.492	415.473	498.529	342.483	454.340	0.00045509	0.00014183	0.00029793	717.82	4.5861e-06	0.00021135	628.21	226.55	4.7564e-06	6.1746e-06	252.2	97.467	94.356	49.728	2.8041e-06	53.431	0.0023787	0.0035248	0.0010774	685.46	3.4595e-05	0.00031326	596.04	216.71	3.8395e-05	3.9802e-05	281.17	94.23	91.533	48.248	3.8277e-05	60.653	253.020	265.370	278.783	186.921	344.540	197.375	184.993	192.416	361.033	409.675	189.722	194.289	197.752	203.239	235.992	199.600	-8191	255	
1957.383	1	1	0	0	0.22486	0.1204	0.16889	0.14557	0.11466	0.27268	0.10754	0.18448	0.22575	0.17857	0.16593	0.10874	0.076973	0.20072	0.14496	0.18877	-2.3625	-2.9604	-3.0083	-2.7438	-3.2562	-2.8292	-3.1917	-3.1292	-2.9417	-3.3125	-2.8771	-2.8479	-3.1854	-2.975	-2.8229	-3.2583	258.136	186.352	352.516	230.038	178.833	312.315	179.800	505.925	255.664	189.756	442.311	484.446	430.991	298.290	255.030	479.336	0.00046684	0.00097328	0.00025165	712.16	5.8831e-06	0.00014735	618.85	220.79	9.9237e-07	2.1414e-06	251.73	93.416	91.455	47.609	7.5291e-06	52.326	0.0023943	0.0035622	0.0010339	682.02	3.54e-05	0.00027404	590.39	211.85	3.9787e-05	4.0284e-05	297.37	90.703	88.788	46.245	3.8805e-05	54.614	251.088	221.951	296.454	186.972	346.742	179.434	185.170	192.288	338.331	316.108	190.866	193.739	198.110	203.260	298.887	199.705	-8191	255	
1957.502	1	1	0	0	0.17193	0.17362	0.041464	0.14788	0.16082	0.078329	0.20703	0.07349	0.16381	0.20073	0.10504	0.32361	0.20178	0.18293	0.095589	0.062518	-2.5042	-3.1229	-3.025	-2.9917	-3.1771	-2.725	-3.075	-3.3333	-2.7375	-3.0917	-2.9646	-2.8583	-3.325	-3.0125	-3.0125	-3.1917	303.062	209.503	349.155	518.470	175.188	267.170	192.546	478.725	353.465	307.459	523.783	504.780	263.252	487.328	201.649	500.314	0.00061094	0.00012391	0.00026926	714.2	4.3248e-06	0.00021906	612.67	219.4	3.9622e-06	4.4191e-06	245.02	90.593	89.054	45.655	6.9838e-07	50.532	0.0057975	0.0036254	0.0010318	683.57	3.5712e-05	0.0003738	585.89	210.75	3.988e-05	3.9301e-05	278.25	87.669	86.16	44.234	3.8808e-05	48.857	191.838	259.377	269.163	187.009	183.733	187.790	185.049	192.294	264.630	383.694	190.498	194.263	197.929	203.278	486.554	198.693	-8191	255	
1957.575	1	1	0	0	0.15027	0.049019	0.10451	0.15947	0.16532	0.075284	0.1113	0.07378	0.16756	0.11649	0.13072	0.069938	0.25215	0.29672	0.060259	0.076386	-2.3958	-2.9354	-2.9875	-2.7583	-3.2646	-2.9896	-3.0417	-3.3021	-2.7812	-3.1542	-3.1771	-2.8708	-3.0625	-3.2167	-2.8417	-3.3875	286.843	311.412	377.897	488.862	324.765	464.688	419.975	516.842	451.558	270.705	407.423	483.001	459.670	175.055	318.697	495.351	0.0011044	9.1262e-05	7.7456e-05	712.73	6.7691e-06	0.0001769	610.15	216.43	1.4873e-06	2.5638e-06	242.45	88.959	87.537	44.838	2.8391e-06	49.838	0.019151	0.0035625	0.0010015	681.04	3.5449e-05	0.00033234	580.5	207.56	4.0186e-05	3.9017e-05	297.15	86.383	84.781	43.55	3.896e-05	48.288	176.656	347.230	323.589	186.890	361.519	195.765	185.153	192.333	467.043	328.458	191.475	194.517	197.826	203.526	328.779	198.944	-8191	255	
1957.671	1	1	0	0	0.4165	0.19251	0.34953	0.21242	0.19502	0.10898	0.11769	0.2303	0.15648	0.13449	0.16587	0.16093	0.18884	0.11172	0.056679	0.22812	-2.6104	-3.05	-3.1792	-2.7625	-3.0604	-3.0271	-3.0625	-3.3	-2.8292	-3.0187	-3.2292	-2.8396	-3.1917	-2.9979	-2.6333	-3.1771	183.196	504.508	249.249	494.330	378.181	277.471	372.987	454.787	479.359	523.616	514.544	491.144	471.827	250.185	533.830	425.583	0.0010589	0.00075306	6.9213e-05	710.31	6.9433e-06	0.00022363	610.81	217.91	5.6628e-06	9.2514e-06	238.28	92.204	88.943	45.953	8.2413e-06	51.408	0.014827	0.0035544	0.00098701	680.88	3.4497e-05	0.00040993	583.58	209.25	3.6934e-05	3.9486e-05	254.2	93.239	86.261	44.492	3.9487e-05	49.64	438.052	268.760	349.273	186.841	314.075	197.857	184.980	192.413	376.364	319.935	191.761	193.917	198.389	203.369	243.523	198.775	-8191	255	
1957.790	1	1	0	0	0.057988	0.14086	0.030249	0.16884	0.17137	0.047318	0.27929	0.14155	0.32334	0.21806	0.29435	0.2461	0.12624	0.29873	0.13684	0.045986	-2.4729	-2.9333	-2.9417	-2.8208	-3.1042	-3.1833	-2.8563	-3.2771	-2.9396	-2.9583	-3.2562	-2.8688	-3.2313	-3.1167	-2.7375	-3.1063	277.561	481.859	266.201	446.938	531.932	207.247	531.465	196.464	260.104	327.377	469.763	523.441	272.332	444.190	532.027	281.891	0.0017845	0.00064501	0.00014113	715.88	9.2225e-06	0.00016899	615.44	220.31	4.6881e-06	1.4009e-06	239	94.846	90.734	46.83	1.1029e-05	52.656	0.019854	0.003627	0.00092729	684.65	3.5209e-05	0.00031611	588.53	210.6	3.729e-05	4.0413e-05	229.65	112.06	87.727	45.117	3.95e-05	50.752	446.453	260.821	264.389	186.719	350.809	207.884	185.320	192.494	407.996	356.170	190.457	193.739	197.868	203.397	299.512	198.728	-8191	255	
1957.886	1	1	0	0	0.31072	0.035243	0.01886	0.275	0.11353	0.21291	0.18221	0.021562	0.060187	0.077471	0.18819	0.12296	0.28424	0.2461	0.2004	0.23817	-2.6229	-2.8771	-3.325	-2.8438	-3.0417	-3.0917	-2.8083	-3.2604	-2.9792	-2.8438	-3.1708	-2.8354	-3.0604	-3.2292	-2.9021	-3.1917	373.627	413.413	526.967	517.910	454.323	340.640	434.399	315.252	531.573	182.853	514.737	268.404	262.687	501.289	266.373	480.739	0.0010912	0.00019746	0.00017717	719.26	5.1127e-06	0.00024976	622.69	220.53	4.205e-06	4.25e-06	241.32	97.123	92.258	47.617	4.9607e-06	53.732	0.015379	0.0036778	0.00092727	688	3.4519e-05	0.00041931	593.87	211.78	3.5369e-05	4.197e-05	232.15	108.35	88.881	46.083	3.9329e-05	51.779	452.861	262.142	267.827	186.670	348.616	217.420	185.070	192.091	325.273	345.647	190.150	195.560	197.475	203.316	254.542	198.767	-8191	255	
1957.982	1	1	0	0	0.13543	0.33489	0.24682	0.13292	0.036488	0.15124	0.1258	0.12126	0.11535	0.2008	0.16086	0.091897	0.08265	0.038282	0.094905	0.17818	-2.4771	-2.8271	-3.0438	-2.7458	-2.9958	-3.1354	-2.8271	-3.1833	-3.0292	-2.7938	-3.2062	-3.0167	-3.0771	-3.3021	-2.6917	-3.2104	414.945	437.548	377.375	181.008	391.554	319.048	217.782	379.647	192.253	505.909	186.137	205.588	473.979	464.847	486.919	518.510	0.0017853	0.00063139	0.00019731	720.22	8.7296e-06	1.5651e-05	631.21	220.33	1.0433e-06	6.5012e-06	245.34	98.84	93.301	48.616	4.3455e-06	54.412	0.021075	0.0036706	0.00093639	686.19	3.5214e-05	0.00017315	627.08	212.27	3.4705e-05	4.2354e-05	233.13	116.21	90.451	47.074	3.9891e-05	52.526	458.768	462.971	192.739	186.898	432.237	375.590	184.076	192.081	369.484	273.297	189.862	196.152	197.634	203.012	264.309	198.621	-8191	255	
1958.103	1	1	0	0	0.22335	0.31888	0.12335	0.17021	0.12935	0.1844	0.20464	0.055494	0.26889	0.094948	0.26945	0.11828	0.062148	0.20756	0.32467	0.15508	-2.6229	-2.8354	-3.2687	-3.0021	-2.7979	-3.0938	-2.8417	-3.1688	-3.1042	-2.5812	-3.2333	-2.9604	-3.1083	-3.3833	-2.9271	-3.3771	394.930	347.781	523.479	440.906	251.063	397.287	444.983	426.161	269.151	321.513	506.053	419.649	458.271	447.228	331.555	529.574	0.0012564	0.00049074	0.00011768	721.11	3.7194e-06	3.416e-06	642.01	224.09	5.8957e-07	4.9605e-06	249.14	102.05	97.049	50.862	1.6955e-06	56.939	0.015522	0.0038237	0.00093348	689.32	3.6491e-05	3.6433e-05	715.07	215.43	3.4199e-05	4.2238e-05	239.38	113.49	94.143	49.19	4.004e-05	55.08	470.440	258.227	177.949	186.562	301.243	332.652	183.785	192.325	183.566	363.798	189.907	195.755	197.580	202.960	255.450	198.255	-8191	255	
1958.175	1	1	0	0	0.12647	0.20941	0.062149	0.1685	0.12547	0.25951	0.22131	0.32189	0.23329	0.25632	0.12449	0.16561	0.35421	0.14747	0.066791	0.15328	-2.6833	-2.7854	-3.1229	-3.0479	-2.6104	-3.0854	-2.8604	-2.9313	-3.0729	-2.8333	-3.125	-3.0187	-2.9333	-3.2771	-2.8792	-3.2146	352.284	507.230	255.206	467.511	446.321	415.560	389.271	413.684	315.512	233.150	308.642	448.218	177.946	485.741	433.183	469.629	0.00173	0.00030479	0.00011054	724.29	7.2828e-06	5.5671e-06	646.36	230.54	6.6897e-07	2.9593e-06	253.68	107.15	100.17	52.924	1.8334e-06	59.235	0.019996	0.0038202	0.00092264	691.58	3.7147e-05	3.6559e-05	687.84	220.11	3.4044e-05	4.2763e-05	244.5	122.71	97.259	51.065	3.8146e-05	56.894	475.534	384.247	301.054	186.770	355.696	265.767	184.301	192.105	341.456	271.002	189.843	195.993	197.778	202.888	274.157	198.603	-8191	255	
1958.271	1	1	0	0	0.18314	0.32958	0.17163	0.089541	0.18723	0.00064625	0.033363	0.20201	0.079694	0.18503	0.13195	0.19088	0.10688	0.1035	0.1892	0.23608	-2.8792	-2.7562	-2.9729	-2.9208	-2.7354	-3.0896	-3.0042	-2.8937	-3.0042	-2.9562	-2.9917	-2.9708	-2.7979	-3.2708	-2.8312	-2.9396	183.379	449.872	387.471	391.586	260.353	180.000	473.943	178.129	522.764	356.719	182.633	515.118	238.885	438.961	298.995	433.196	0.0009069	0.012548	2.6117e-05	730.86	4.1118e-06	3.1595e-06	661.04	232.26	9.6596e-06	6.1821e-06	259.73	109.12	103.21	54.647	1.3162e-05	61.189	0.0073905	0.013709	0.0009148	694.24	3.753e-05	3.6388e-05	722.27	222.68	3.1985e-05	4.1811e-05	249.81	119.07	99.691	52.803	3.8117e-05	58.92	424.568	474.045	212.359	186.356	439.605	318.767	184.104	192.178	352.634	354.254	189.923	195.696	197.258	202.865	283.599	198.246	-8191	255	
1958.391	1	1	0	0	0.078283	0.16656	0.10857	0.072743	0.06416	0.23702	0.066886	0.098683	0.25916	0.040968	0.221	0.22831	0.11517	0.34963	0.18694	0.14125	-2.5083	-2.7792	-2.9833	-2.9521	-2.7479	-3.2917	-2.9	-2.9958	-3.0667	-2.8979	-2.9437	-2.8604	-2.6229	-3	-2.8604	-2.9292	270.135	213.341	220.792	338.450	356.258	231.403	416.146	203.313	400.745	235.047	180.862	499.039	206.776	524.368	523.410	487.877	0.00051548	0.020826	0.0002538	731.08	5.6441e-06	5.9549e-06	658.92	234.31	4.4578e-06	7.5237e-06	262.63	109.85	104.75	55.347	8.052e-06	61.313	0.0019785	0.035181	0.00093229	695.62	3.75e-05	3.5267e-05	691.96	224.78	3.1363e-05	4.2177e-05	252.01	125.66	101.05	53.379	3.5942e-05	59.149	255.659	420.564	261.376	186.725	321.074	388.619	184.663	192.436	378.443	319.156	189.670	195.965	197.519	202.505	303.456	198.108	-8191	255	
1958.486	1	1	0	0	0.086886	0.059871	0.25313	0.071638	0.23208	0.13824	0.32084	0.50327	0.18594	0.16162	0.21105	0.13849	0.032295	0.22517	0.19886	0.33008	-2.7917	-2.7292	-3.0125	-2.9938	-2.6917	-3.1271	-2.9688	-2.95	-3.1875	-2.775	-2.7708	-3.0104	-2.8146	-3.1854	-2.9875	-3.0083	258.827	197.908	495.859	529.220	248.949	525.471	509.149	184.510	418.464	195.650	195.273	422.152	265.466	175.350	375.250	464.398	0.00057637	0.013107	0.00021962	724.22	8.6267e-06	4.91e-06	663.97	234.87	3.8107e-06	2.5045e-06	263.24	111.3	106.06	56.141	9.5017e-06	62.18	0.0019713	0.025529	0.00093041	690.26	3.7192e-05	3.5328e-05	715.69	225.64	3.1167e-05	3.9887e-05	253.49	111.52	108.35	54.116	3.6694e-05	59.858	250.003	426.220	289.962	186.539	339.842	350.132	184.727	192.346	366.673	385.330	189.390	195.403	197.227	202.512	273.035	198.151	-8191	255	
1958.582	1	1	0	0	0.16288	0.10086	0.20311	0.12292	0.087708	0.091671	0.18635	0.094205	0.14071	0.27919	0.015789	0.13112	0.033422	0.28031	0.13908	0.2186	-2.5208	-2.8563	-2.9375	-3.1167	-2.4896	-2.9313	-3.0938	-2.9188	-3.1333	-2.95	-2.9854	-3.2062	-2.7771	-3.0667	-3.1229	-2.8083	227.247	226.608	496.644	222.760	272.720	506.785	426.467	218.796	519.523	192.755	498.790	346.293	319.134	234.395	475.505	212.694	0.00050656	0.017614	9.2101e-05	718.83	2.1451e-06	8.5055e-06	659.73	238.14	5.9901e-06	3.4611e-06	263.43	112.34	107.85	56.527	7.6577e-06	62.828	0.0019776	0.033345	0.00097283	687.95	3.8009e-05	3.6598e-05	687.79	226.96	3.0896e-05	4.0516e-05	256.06	107.74	121.1	54.625	3.489e-05	60.472	252.460	430.676	321.501	186.665	364.872	371.974	185.367	192.171	341.899	407.392	190.050	193.829	199.090	202.573	283.934	198.297	-8191	255	
1958.678	1	1	0	0	0.050854	0.20332	0.086793	0.039628	0.25918	0.18205	0.18942	0.2269	0.046785	0.15386	0.13846	0.22783	0.19866	0.28548	0.37664	0.19381	-2.7083	-2.8896	-2.8625	-3.0687	-2.6625	-3.1083	-2.9667	-2.7542	-3.1792	-2.7708	-2.8438	-3.1292	-2.7417	-3.0563	-2.9208	-2.7375	245.793	406.647	214.084	199.602	212.035	243.959	431.893	188.738	206.505	286.057	224.506	484.008	491.418	476.385	406.408	356.455	0.00051626	0.012899	0.00024984	729.56	4.4622e-06	7.473e-06	653.75	236.02	1.9825e-06	2.0499e-06	270.09	113.3	107.65	57.059	3.8958e-06	63.449	0.0020055	0.024657	0.0009726	693.18	3.7673e-05	3.7935e-05	711.27	227.51	3.1749e-05	3.8375e-05	259.05	108.88	116.84	55.258	3.3881e-05	61.333	252.947	440.358	280.244	186.865	346.069	332.107	185.774	192.346	264.762	401.650	189.848	194.543	198.746	202.419	296.553	198.148	-8191	255	
1958.799	1	1	0	0	0.10761	0.15792	0.25948	0.37061	0.237	0.21491	0.089684	0.18271	0.031123	0.23294	0.030677	0.06122	0.27628	0.21916	0.19905	0.083856	-2.6208	-2.8708	-2.7938	-3.1646	-2.8417	-2.8271	-3.1208	-2.8042	-2.9313	-2.8771	-2.8563	-3.2604	-2.7792	-2.9354	-3.1312	-2.8208	518.601	255.778	403.537	505.452	292.989	254.733	404.655	328.485	415.750	336.214	453.105	525.417	455.219	197.760	439.688	489.970	0.00056425	0.017009	5.5237e-05	728.5	5.5739e-06	6.4911e-06	655.09	243.44	5.7524e-06	1.9838e-06	272.87	114.25	109.99	57.985	5.7154e-06	63.661	0.002029	0.032048	0.0010245	693.41	3.6413e-05	3.8245e-05	644.56	243.3	3.2548e-05	3.9284e-05	262.08	110.05	122.19	55.754	3.2329e-05	61.368	251.657	445.382	505.747	186.529	340.889	300.528	185.555	191.468	355.844	196.233	189.746	193.965	199.067	202.603	295.250	197.879	-8191	255	
1958.870	1	1	0	0	0.044962	0.17862	0.12968	0.085732	0.14641	0.17472	0.16416	0.1015	0.20893	0.016628	0.18034	0.13138	0.074422	0.2875	0.12934	0.23616	-2.6083	-2.9146	-2.6479	-3.1729	-2.7375	-2.8042	-3.1188	-2.875	-2.9104	-3.0104	-2.5375	-3.2167	-2.9646	-2.8958	-3.0542	-2.9125	401.420	488.191	533.087	370.556	303.863	304.486	482.750	174.422	382.489	480.652	221.676	214.556	413.288	359.567	392.799	503.128	0.00057846	0.011986	0.00021371	728	4.5678e-06	6.3665e-06	654.71	246.87	1.1775e-06	4.5044e-06	271.7	115.11	108.98	57.908	5.9721e-06	63.336	0.0020308	0.023252	0.0010239	694.71	3.6395e-05	3.9158e-05	620.86	265.25	3.174e-05	3.7459e-05	262.56	110.3	117.36	55.821	3.3027e-05	61.247	253.852	456.244	235.472	186.577	379.105	333.928	185.458	192.218	403.517	522.654	189.779	194.516	198.310	202.397	268.030	197.980	-8191	255	
1958.967	1	1	0	0	0.067318	0.21096	0.35589	0.09785	0.19702	0.14551	0.30191	0.15137	0.18315	0.025063	0.16936	0.16218	0.12994	0.062445	0.2771	0.34752	-2.325	-2.9146	-2.5979	-3.1688	-2.675	-2.9125	-3.1396	-2.9125	-2.8646	-3.1125	-2.7479	-3.1917	-2.9229	-2.7687	-3.1375	-2.9437	279.998	191.989	347.624	337.551	516.997	226.748	427.426	472.482	485.347	333.400	300.827	520.729	457.531	181.488	195.887	402.716	0.00061503	0.010222	0.00013024	734.6	6.5321e-06	6.2515e-06	660.01	248.52	6.9946e-06	3.5715e-06	278.72	116.75	111.39	59.227	1.4366e-06	64.958	0.0020781	0.027519	0.0010218	698.14	3.5466e-05	3.8981e-05	625.35	258.66	3.2945e-05	3.7141e-05	268.66	112.63	123.48	57.273	3.2998e-05	62.65	258.488	382.180	335.738	186.751	382.425	379.395	184.748	192.057	303.782	223.786	189.578	194.085	198.857	202.305	333.853	198.063	-8191	255	
1959.063	1	1	0	0	0.1157	0.035841	0.37052	0.22217	0.17584	0.13719	0.059569	0.31094	0.2161	0.22869	0.18421	0.17911	0.2249	0.067125	0.12567	0.30794	-2.4104	-3.0563	-2.6437	-3.0875	-2.925	-2.8375	-3.1229	-2.8833	-2.825	-3.1333	-2.6146	-3.2917	-2.9875	-2.7375	-3.0354	-2.7875	390.223	201.572	243.740	229.727	452.656	371.033	389.834	488.223	341.076	308.765	496.392	528.184	176.162	534.009	369.885	449.172	0.00057308	0.0057097	0.0034745	742.07	8.0219e-06	5.7425e-06	672.92	256.77	2.5326e-06	6.7171e-06	289.12	122.14	115.67	61.773	5.8749e-06	67.476	0.0021583	0.0086343	0.0038989	704.79	3.5284e-05	4.0487e-05	635.79	272.25	3.4423e-05	3.5676e-05	277.15	117.11	122.46	59.741	3.3331e-05	65.074	249.001	386.285	508.654	186.787	352.632	280.659	185.277	192.219	384.853	336.478	189.451	194.025	198.236	202.569	346.216	197.983	-8191	255	
1959.183	1	1	0	0	0.084403	0.16745	0.27715	0.21112	0.056589	0.29254	0.49781	0.15717	0.13349	0.16827	0.11524	0.059646	0.21257	0.20979	0.26508	0.27821	-2.3667	-3.0542	-2.6292	-3.0062	-3.0333	-2.65	-3.1937	-2.9667	-2.75	-3.0875	-2.6521	-3.275	-3.1021	-2.9396	-3.1625	-3.0208	254.958	479.508	249.695	526.306	531.433	437.240	506.201	413.315	509.181	473.450	183.580	406.687	219.870	523.779	229.850	466.925	0.00060324	7.173e-05	0.0047251	748.1	5.3074e-06	9.6229e-06	682.84	260.02	7.848e-06	9.666e-06	297.33	125.75	117.69	63.29	8.5645e-06	68.692	0.0021815	0.003186	0.0081477	711.92	3.4637e-05	4.1885e-05	648.98	268.02	3.5628e-05	3.5705e-05	286.58	120.9	126.95	61.173	3.4441e-05	66.013	247.872	312.817	475.300	186.870	405.398	267.327	184.864	192.287	308.069	315.799	189.806	193.913	198.745	202.009	297.081	198.007	-8191	255	
1959.280	1	1	0	0	0.016437	0.19596	0.14803	0.11152	0.19063	0.15994	0.03885	0.24974	0.13924	0.22439	0.11061	0.098783	0.10915	0.33782	0.29959	0.074202	-2.3708	-3.0958	-2.5667	-2.9271	-3.0312	-2.5187	-3.1896	-2.9708	-2.85	-3.225	-2.8021	-2.9667	-3.2188	-2.8438	-2.8646	-2.9833	435.352	333.565	429.024	252.594	236.372	484.240	487.692	461.548	457.669	412.623	189.731	202.418	507.212	177.098	451.896	521.007	0.00066821	0.00050415	0.0030052	753.01	6.9484e-07	1.3971e-06	684.56	263.62	6.7401e-06	1.4104e-05	298.52	126.39	119.21	63.599	8.3185e-06	68.992	0.0023194	0.0033252	0.0059055	716.91	3.5247e-05	4.2613e-05	651.97	279.39	3.7279e-05	3.6985e-05	288.29	121.47	117.49	64.232	3.5548e-05	66.257	258.315	295.645	483.198	186.510	303.557	203.720	185.158	192.571	324.986	302.083	189.635	194.248	198.045	202.127	289.010	197.826	-8191	255	
1959.376	1	1	0	0	0.033965	0.024719	0.15768	0.24347	0.066119	0.24156	0.22872	0.14678	0.35584	0.20222	0.10814	0.17039	0.19389	0.30383	0.13654	0.14309	-2.2292	-3.0375	-2.7521	-2.8708	-3.0104	-2.6312	-3.1833	-2.9167	-2.6396	-3.0333	-2.875	-2.8021	-3.125	-2.9146	-3.0146	-3.0292	515.756	326.073	360.421	429.984	371.300	443.941	494.208	176.663	491.120	532.506	420.809	501.284	443.382	175.653	178.152	486.570	0.00058424	0.00030259	0.0041438	757.62	6.0169e-06	3.7361e-06	693.03	261.14	5.4233e-06	5.4236e-06	301.62	127.68	119.15	64.243	5.479e-06	69.274	0.0023877	0.0033711	0.0080659	718.48	3.4622e-05	4.3307e-05	656.3	270.68	3.8076e-05	3.798e-05	291.04	122.86	115.33	67.185	3.8714e-05	66.844	256.350	188.416	489.252	186.858	338.198	360.266	185.536	192.241	320.298	357.837	189.604	194.298	197.352	202.523	266.982	197.662	-8191	255	
1959.472	1	1	0	0	0.1548	0.17588	0.084301	0.20228	0.017975	0.102	0.095659	0.072243	0.24356	0.082007	0.13129	0.20878	0.044554	0.178	0.26575	0.18529	-2.4833	-3.0521	-2.6917	-2.6917	-3.0042	-2.6354	-3.0938	-3.0417	-2.6021	-3.1458	-3.0125	-2.8708	-3.1271	-2.7667	-3.0292	-3.0729	363.972	278.107	506.321	518.665	193.097	188.471	465.784	194.675	354.307	267.750	504.733	501.551	491.787	496.382	337.008	353.150	0.0005872	0.00097369	0.0023465	754.58	1.1027e-05	4.0812e-06	695.71	262.33	5.0744e-05	3.811e-06	304.85	129.18	121.12	65.134	5.3076e-06	70.573	0.0023709	0.0035212	0.004839	718.08	3.5318e-05	4.4537e-05	659.66	268.05	4.4069e-05	3.9743e-05	293.12	124.21	116.48	66.05	3.9593e-05	68.06	250.621	264.988	497.250	186.608	359.478	183.482	185.287	192.939	288.716	453.459	189.764	194.389	197.139	202.249	300.851	197.726	-8191	255	
1959.568	1	1	0	0	0.30309	0.19383	0.16112	0.11906	0.14639	0.11431	0.14779	0.19577	0.12911	0.15634	0.16758	0.065441	0.21432	0.22006	0.27204	0.10239	-2.2083	-3.0292	-2.8208	-2.8563	-3.3646	-2.6854	-3.1396	-3.1917	-2.7854	-3.0792	-2.9479	-2.7917	-3.3625	-2.8792	-3.0604	-3.1417	515.907	417.016	365.648	440.812	305.310	237.973	355.379	527.150	406.243	385.513	216.528	436.421	221.042	507.736	260.936	474.935	0.00064528	0.0010039	0.0027933	752.5	4.5346e-06	4.6456e-06	699.38	261.49	3.755e-05	2.4192e-06	305.71	130.36	121.85	66.585	1.2405e-05	72.871	0.0024773	0.0037012	0.0062113	719.49	3.6739e-05	4.5139e-05	661.46	253.05	0.00013392	4.3071e-05	295.34	125.97	117.37	69.703	4.1783e-05	70.046	250.638	246.420	497.958	186.667	376.765	308.635	185.500	192.625	293.778	299.677	189.912	194.261	197.367	202.546	332.900	197.462	-8191	255	
1959.664	1	1	0	0	0.26619	0.30823	0.051036	0.15758	0.1716	0.20121	0.11391	0.24783	0.051797	0.026703	0.10605	0.11298	0.32643	0.31448	0.13276	0.13204	-2.225	-2.9813	-2.7562	-2.8812	-3.1396	-3.0875	-2.8646	-3.2042	-2.6708	-3.1083	-3.0771	-2.8083	-3.1396	-2.9542	-2.75	-3.0979	258.316	360.688	450.308	506.853	345.083	344.538	486.586	467.763	322.142	316.387	341.577	482.837	481.569	493.967	236.529	198.931	0.00062566	0.00086162	0.0030621	761.11	2.9629e-06	3.6868e-06	705.98	263.85	0.00011814	8.9559e-06	311.62	135.54	124.8	69.735	5.3158e-06	75.303	0.002606	0.0038702	0.0057502	727.05	3.8316e-05	4.7056e-05	669.29	252.44	0.00028177	4.3972e-05	300.58	129.86	120.64	71.97	4.2272e-05	72.231	255.799	280.149	515.044	187.069	380.849	252.794	185.503	192.259	344.678	409.788	189.666	193.957	197.761	202.211	348.342	197.665	-8191	255	
1959.783	1	1	0	0	0.31284	0.25654	0.15955	0.16515	0.18066	0.027419	0.25607	0.10601	0.041081	0.15808	0.092003	0.28458	0.22006	0.34508	0.07311	0.078555	-2.125	-3.0042	-2.8271	-2.6792	-3.0354	-2.9708	-2.9188	-3.1729	-2.6562	-3.0354	-3.1437	-2.8	-3.3187	-3.1125	-2.7812	-3.1958	494.496	348.272	277.662	264.776	281.791	497.863	453.154	307.972	251.555	228.078	356.345	497.025	507.222	511.458	531.967	424.019	0.00068247	0.00088181	0.00014355	768.44	1.3066e-05	9.2961e-06	708.66	269.93	9.5293e-05	1.1674e-05	322.32	141.47	131.11	72.032	3.241e-06	77.078	0.002601	0.0039466	0.0068275	737.99	3.7118e-05	4.4162e-05	673.87	258.28	0.00023277	4.3513e-05	309.78	136.19	126.23	75.994	4.1923e-05	73.881	252.066	223.814	400.757	185.594	345.020	335.283	185.371	192.079	351.674	303.811	190.120	194.105	197.431	201.996	406.335	197.542	-8191	255	
1959.879	1	1	0	0	0.059402	0.17359	0.13171	0.11437	0.034989	0.050847	0.086164	0.013745	0.043971	0.13437	0.28288	0.19541	0.10411	0.27707	0.15887	0.11001	-2.3021	-3.0021	-3.0396	-2.7125	-3.075	-2.9938	-2.7271	-3.2729	-2.8333	-2.7938	-3.0833	-3.0333	-3.1917	-3.0354	-2.8479	-3.4125	290.010	494.128	472.814	220.859	296.553	196.256	222.508	491.447	188.291	256.583	179.239	519.120	357.621	502.907	374.022	499.217	0.00072045	0.00063864	0.00030878	772.35	6.2951e-06	8.3705e-06	716.25	273.18	0.00012007	2.8825e-06	326.45	145.67	133.94	73.142	6.0135e-06	77.705	0.0025587	0.003932	0.0018142	786	3.8606e-05	4.4544e-05	679.87	261	0.00028232	4.3503e-05	314.32	139.74	129.21	74.719	4.2432e-05	74.763	259.005	195.535	320.407	185.796	323.595	375.474	185.221	192.286	360.015	246.078	189.797	194.415	197.249	201.759	237.077	197.774	-8191	255	
1959.975	1	1	0	0	0.16996	0.1951	0.12489	0.25624	0.18939	0.1911	0.021207	0.13547	0.10396	0.15829	0.27668	0.23984	0.14993	0.049535	0.20797	0.30798	-2.4313	-2.8104	-3.1771	-2.7812	-3.1771	-2.9708	-2.9062	-3.2167	-2.8563	-2.7792	-3.125	-2.8521	-3.0625	-3.2333	-2.7667	-3.3187	494.300	177.908	287.855	494.039	406.379	487.843	457.891	430.131	394.402	381.474	504.781	268.094	443.040	370.944	439.373	475.134	0.00071263	0.00066665	4.7992e-05	771.87	3.7283e-06	1.1499e-05	725.97	277.74	7.8422e-05	3.6716e-06	336.52	151	138.76	75.019	0.00010847	79.666	0.0025887	0.0039286	0.0010059	835.04	3.8818e-05	4.2976e-05	688.58	266.16	0.0002009	4.3758e-05	322.78	144.92	133.8	76.305	6.9879e-05	76.518	258.049	248.278	232.028	185.649	331.937	321.747	185.330	192.185	360.418	396.906	189.984	193.930	197.327	202.069	182.548	197.550	-8191	255	
1960.071	1	1	0	0	0.14294	0.074949	0.13063	0.26562	0.18397	0.19722	0.16906	0.16694	0.044076	0.30241	0.10731	0.31682	0.1209	0.15369	0.099355	0.2401	-2.3542	-2.8729	-2.9479	-3.0479	-2.9292	-3.1167	-2.6167	-3.1688	-3.0438	-2.8521	-3.1	-2.7604	-2.9562	-3.0062	-2.775	-3.0812	438.376	527.321	458.879	206.058	297.092	387.453	432.284	527.421	225.109	217.237	473.301	420.490	417.689	491.796	392.340	226.173	0.00071343	0.00066166	0.00016525	787	4.1451e-06	6.5513e-06	741.2	285.68	9.2125e-05	3.1095e-06	342.11	153.94	141.28	75.008	7.4607e-05	78.504	0.0024448	0.0039493	0.00097879	806.05	3.8581e-05	4.0841e-05	702.93	272.5	0.00023984	4.4114e-05	328.9	147.49	136.26	72.69	0.00015166	75.284	255.522	246.026	266.510	185.971	366.882	393.216	185.437	192.219	375.728	320.751	189.865	193.731	197.395	201.762	179.184	197.489	-8191	255	
1960.168	1	1	0	0	0.10336	0.28786	0.11719	0.28188	0.16132	0.17955	0.097881	0.099112	0.028218	0.215	0.18516	0.17692	0.16814	0.18703	0.14296	0.12779	-2.5375	-2.5396	-3.0104	-2.7521	-3.0125	-3.1312	-2.7833	-3.1708	-2.8667	-2.6896	-3.1188	-2.9479	-2.9104	-3.1958	-2.6146	-3.0875	336.330	201.133	371.410	494.536	229.684	296.380	418.744	238.129	212.933	226.367	438.566	287.644	335.811	512.322	230.437	398.350	0.00069112	0.00067826	0.00025986	782	4.5551e-06	2.8448e-06	732.44	285.33	6.9378e-05	1.1574e-05	338.45	150.56	139.87	73.354	0.00011502	75.739	0.0023771	0.0039601	0.00097455	822.52	3.8108e-05	3.8274e-05	696.35	271.73	0.00017065	4.2639e-05	325.65	145.02	134.41	70.564	0.00023393	73.064	247.693	226.802	233.789	185.919	347.599	325.886	185.517	191.970	375.033	326.219	189.823	193.707	197.264	201.428	489.337	197.588	-8191	255	
1960.264	1	1	0	0	0.10642	0.10789	0.099837	0.076849	0.26289	0.17187	0.24292	0.17707	0.083392	0.12892	0.16525	0.2291	0.090058	0.14164	0.116	0.10148	-2.2812	-2.7271	-3.0708	-2.9437	-2.9458	-3.1292	-2.7042	-3.0208	-2.8604	-2.8083	-3.275	-2.9396	-2.9437	-3.2479	-2.6937	-3.1562	452.086	511.717	373.243	446.068	416.010	306.929	510.475	472.978	431.108	436.759	521.660	210.525	199.010	401.353	271.273	360.342	0.00068847	0.00084197	0.00019035	777.66	8.2153e-06	1.2458e-05	731.1	283.16	8.3764e-05	2.7873e-05	339.15	150.32	139.55	72.966	8.1463e-05	75.776	0.0022715	0.0038666	0.00098358	791.05	3.8039e-05	3.8025e-05	696.27	270.17	0.00016056	7.7447e-05	325.82	144.12	133.89	70.251	0.00017785	72.967	253.035	307.321	298.051	186.231	304.314	338.471	185.473	192.130	388.742	277.891	189.684	193.580	197.311	201.445	489.200	197.565	-8191	255	
1960.360	1	1	0	0	0.14005	0.18598	0.15231	0.36799	0.1853	0.085939	0.14867	0.25237	0.16153	0.06484	0.1422	0.11149	0.18881	0.27789	0.13241	0.025927	-2.4417	-2.6854	-3.0333	-2.9167	-2.725	-3.1125	-2.8708	-3.1458	-3.0208	-2.7625	-2.9417	-2.9979	-2.825	-3.1063	-2.8438	-3.0667	360.477	260.066	465.762	507.367	377.601	452.965	519.316	452.654	231.361	375.913	203.773	531.663	254.019	180.410	189.989	260.129	0.00068945	0.00072153	0.00013558	777.43	4.4093e-06	3.3582e-06	728.51	283.52	6.2458e-05	1.8134e-05	334.83	147.25	136.76	71.439	0.00011773	75.162	0.002211	0.0038899	0.00097564	812.89	3.802e-05	3.7645e-05	693.63	269.26	4.2115e-05	0.00015847	321.93	141.37	131.05	68.684	0.00022719	71.979	252.976	276.677	297.295	185.685	294.236	208.099	185.273	192.110	395.000	273.021	189.808	194.077	197.330	201.445	496.323	197.812	-8191	255	
1960.479	1	1	0	0	0.38463	0.054786	0.091732	0.13532	0.15915	0.27572	0.16172	0.17323	0.10234	0.1621	0.090134	0.096022	0.40468	0.14358	0.14758	0.19745	-2.4625	-2.6479	-2.9688	-3.0292	-2.8583	-3.2438	-2.8771	-3.1312	-3.1896	-2.6437	-3.1146	-3.0729	-2.8937	-3.25	-2.8875	-3.0167	209.569	344.574	378.171	203.597	198.499	446.875	477.488	510.283	387.167	391.622	476.477	349.520	516.039	197.587	272.347	474.884	0.0006262	0.00047587	0.00037852	771.55	2.2576e-06	5.2388e-06	720.7	277.7	6.345e-06	0.00012053	333.54	146.98	135.78	70.738	9.5102e-05	73.887	0.0021189	0.0039071	0.00098711	784.83	3.7914e-05	3.7572e-05	688.04	265.25	3.2405e-05	0.00025309	320.58	140.65	129.91	68.074	0.00017842	70.968	254.037	341.994	288.341	186.419	300.329	251.311	185.164	192.139	355.431	375.801	189.904	193.964	197.299	201.582	497.206	197.256	-8191	255	
#DATA ENDS
