BOXY.EXE: ISS Imagent and Oximeter Data Acquisition Program Version 0.80
Ascii Record File

#ACQ INFORMATION
2  Detector Channels 
16  External MUX Channels 
1  Auxiliary Channels 
5000  Waveform (CCF) Frequency (Hz)
1  Waveforms Skipped 
30  Waveforms Averaged 
1  Cycles Averaged 
16  Acquisitions per Waveform 
10.0806  Updata Rate (Hz) 

#FILE INFORMATION
TRUE -- External MUX Channel results are PARSED.
FALSE -- AC DC and Phase are NOT grouped.
TRUE -- Companion Program Settings File CREATED.
FALSE -- AC data not excluded
FALSE -- DC data not excluded
FALSE -- Phase data not excluded
FALSE -- Auxillary Chn. data not excluded
Tab delimiters

#CALIBRATION STATE
TRUE -- Waveform Calibration Values APPLIED.


#AUX CALIBRATION VALUES
Val Type	aux-1	

Term	1.0000e+00	
Factor	0.0000e+00	


#WF CALIBRATION VALUES
A = Detector Channel
Val Type	A-AC1	A-AC2	A-AC3	A-AC4	A-AC5	A-AC6	A-AC7	A-AC8	A-AC9	A-AC10	A-AC11	A-AC12	A-AC13	A-AC14	A-AC15	A-AC16	A-DC1	A-DC2	A-DC3	A-DC4	A-DC5	A-DC6	A-DC7	A-DC8	A-DC9	A-DC10	A-DC11	A-DC12	A-DC13	A-DC14	A-DC15	A-DC16	A-Ph1	A-Ph2	A-Ph3	A-Ph4	A-Ph5	A-Ph6	A-Ph7	A-Ph8	A-Ph9	A-Ph10	A-Ph11	A-Ph12	A-Ph13	A-Ph14	A-Ph15	A-Ph16	

Term	0.00000e+00	0.00000e+00	0.00000e+00	0.00000e+00	0.00000e+00	0.00000e+00	0.00000e+00	0.00000e+00	0.00000e+00	0.00000e+00	0.00000e+00	0.00000e+00	0.00000e+00	0.00000e+00	0.00000e+00	0.00000e+00	0.00000e+00	0.00000e+00	0.00000e+00	0.00000e+00	0.00000e+00	0.00000e+00	0.00000e+00	0.00000e+00	0.00000e+00	0.00000e+00	0.00000e+00	0.00000e+00	0.00000e+00	0.00000e+00	0.00000e+00	0.00000e+00	0.00000e+00	0.00000e+00	0.00000e+00	0.00000e+00	0.00000e+00	0.00000e+00	0.00000e+00	0.00000e+00	0.00000e+00	0.00000e+00	0.00000e+00	0.00000e+00	0.00000e+00	0.00000e+00	0.00000e+00	0.00000e+00	
Factor	1.00000e+00	1.00000e+00	1.00000e+00	1.00000e+00	1.00000e+00	1.00000e+00	1.00000e+00	1.00000e+00	1.00000e+00	1.00000e+00	1.00000e+00	1.00000e+00	1.00000e+00	1.00000e+00	1.00000e+00	1.00000e+00	1.00000e+00	1.00000e+00	1.00000e+00	1.00000e+00	1.00000e+00	1.00000e+00	1.00000e+00	1.00000e+00	1.00000e+00	1.00000e+00	1.00000e+00	1.00000e+00	1.00000e+00	1.00000e+00	1.00000e+00	1.00000e+00	X	X	X	X	X	X	X	X	X	X	X	X	X	X	X	X	

B = Detector Channel
Val Type	B-AC1	B-AC2	B-AC3	B-AC4	B-AC5	B-AC6	B-AC7	B-AC8	B-AC9	B-AC10	B-AC11	B-AC12	B-AC13	B-AC14	B-AC15	B-AC16	B-DC1	B-DC2	B-DC3	B-DC4	B-DC5	B-DC6	B-DC7	B-DC8	B-DC9	B-DC10	B-DC11	B-DC12	B-DC13	B-DC14	B-DC15	B-DC16	B-Ph1	B-Ph2	B-Ph3	B-Ph4	B-Ph5	B-Ph6	B-Ph7	B-Ph8	B-Ph9	B-Ph10	B-Ph11	B-Ph12	B-Ph13	B-Ph14	B-Ph15	B-Ph16	

Term	0.00000e+00	0.00000e+00	0.00000e+00	0.00000e+00	0.00000e+00	0.00000e+00	0.00000e+00	0.00000e+00	0.00000e+00	0.00000e+00	0.00000e+00	0.00000e+00	0.00000e+00	0.00000e+00	0.00000e+00	0.00000e+00	0.00000e+00	0.00000e+00	0.00000e+00	0.00000e+00	0.00000e+00	0.00000e+00	0.00000e+00	0.00000e+00	0.00000e+00	0.00000e+00	0.00000e+00	0.00000e+00	0.00000e+00	0.00000e+00	0.00000e+00	0.00000e+00	-7.29439e+01	-1.30021e+02	-1.24914e+02	-1.83134e+02	-5.27761e+01	-7.14236e+01	-1.56866e+02	-1.62015e+02	-4.78778e+01	-6.48767e+01	-1.71930e+02	-1.71556e+02	-1.81736e+02	-1.77926e+02	-6.22738e+01	-1.50417e+02	
Factor	1.73134e-05	1.66260e-04	4.88759e-05	1.86492e-01	1.60179e-06	1.93899e-06	1.62677e-01	5.60871e-02	1.18118e-06	1.74570e-06	9.94639e-02	3.03487e-02	2.65711e-02	9.45456e-03	1.78352e-06	1.32450e-02	1.24241e-05	2.32072e-05	6.46118e-06	9.55684e-02	2.33110e-07	2.58720e-07	7.83537e-02	2.89116e-02	2.27059e-07	2.59205e-07	4.96099e-02	1.52121e-02	1.38846e-02	4.91572e-03	2.39358e-07	6.66233e-03	X	X	X	X	X	X	X	X	X	X	X	X	X	X	X	X	



#DISTANCE SETTINGS
A = Detector Channel
A-1	A-2	A-3	A-4	A-5	A-6	A-7	A-8	A-9	A-10	A-11	A-12	A-13	A-14	A-15	A-16	

2.5000e+00	3.0000e+00	2.5000e+00	3.0000e+00	2.0000e+00	3.0000e+00	1.5000e+00	3.0000e+00	3.0000e+00	3.0000e+00	3.0000e+00	3.0000e+00	3.0000e+00	3.0000e+00	1.5000e+00	3.0000e+00	

B = Detector Channel
B-1	B-2	B-3	B-4	B-5	B-6	B-7	B-8	B-9	B-10	B-11	B-12	B-13	B-14	B-15	B-16	

1.0000e+01	1.0000e+01	1.0000e+01	1.4400e+00	1.0000e+01	1.0000e+01	1.5100e+00	1.9400e+00	1.0000e+01	1.0000e+01	1.9900e+00	2.4900e+00	2.4100e+00	2.9000e+00	1.0000e+01	2.9800e+00	




#DATA BEGINS
time	group	step	mark	flag	A-AC1	A-AC2	A-AC3	A-AC4	A-AC5	A-AC6	A-AC7	A-AC8	A-AC9	A-AC10	A-AC11	A-AC12	A-AC13	A-AC14	A-AC15	A-AC16	A-DC1	A-DC2	A-DC3	A-DC4	A-DC5	A-DC6	A-DC7	A-DC8	A-DC9	A-DC10	A-DC11	A-DC12	A-DC13	A-DC14	A-DC15	A-DC16	A-Ph1	A-Ph2	A-Ph3	A-Ph4	A-Ph5	A-Ph6	A-Ph7	A-Ph8	A-Ph9	A-Ph10	A-Ph11	A-Ph12	A-Ph13	A-Ph14	A-Ph15	A-Ph16	B-AC1	B-AC2	B-AC3	B-AC4	B-AC5	B-AC6	B-AC7	B-AC8	B-AC9	B-AC10	B-AC11	B-AC12	B-AC13	B-AC14	B-AC15	B-AC16	B-DC1	B-DC2	B-DC3	B-DC4	B-DC5	B-DC6	B-DC7	B-DC8	B-DC9	B-DC10	B-DC11	B-DC12	B-DC13	B-DC14	B-DC15	B-DC16	B-Ph1	B-Ph2	B-Ph3	B-Ph4	B-Ph5	B-Ph6	B-Ph7	B-Ph8	B-Ph9	B-Ph10	B-Ph11	B-Ph12	B-Ph13	B-Ph14	B-Ph15	B-Ph16	aux-1	digaux	

746.656	1	1	0	256	0.2288	0.19218	0.28253	0.036312	0.31647	0.08145	0.2303	0.035687	0.14132	0.2093	0.064561	0.12323	0.073536	0.11857	0.089955	0.1002	-2.8458	-2.9042	-2.9271	-3.3583	-3.05	-2.9833	-3.325	-2.975	-3.2313	-3.0542	-3.0104	-3.0875	-2.9979	-2.7854	-2.9792	-2.9313	50.763	77.413	84.674	71.530	-66.491	93.005	179.832	-48.538	130.624	186.684	72.600	201.467	206.145	94.387	128.673	65.168	0.00012151	0.00019272	9.3828e-05	866.72	2.8868e-06	1.8366e-06	938.6	168.52	1.0983e-06	1.6568e-06	231.64	66.894	52.381	15.545	1.8699e-06	21.858	0.00022622	0.00028719	8.0832e-05	849.68	3.2529e-06	3.1763e-06	924.95	167.89	3.1594e-06	3.1947e-06	230.58	67.196	52.518	15.73	3.0433e-06	22.11	-106.239	-47.786	-36.788	-123.125	27.903	34.127	-123.070	-115.747	-19.770	-8.486	-116.131	-108.997	-108.253	-101.391	9.983	-102.124	-8191	255	
746.752	1	1	0	0	0.16373	0.057572	0.09603	0.30428	0.07152	0.18247	0.13477	0.039283	0.060963	0.058538	0.059868	0.040438	0.10591	0.14965	0.16563	0.079154	-2.6771	-3.1625	-2.7583	-3.2333	-2.8208	-2.9729	-3.0542	-2.7979	-2.9	-2.9729	-2.8583	-3.0729	-2.9021	-2.8479	-3.2146	-2.7729	117.760	-56.237	3.341	-122.906	-48.188	57.334	142.387	-65.365	37.983	225.733	71.607	-75.578	5.470	206.513	129.285	58.816	0.00011262	5.243e-05	7.3914e-05	862.85	1.4451e-06	1.9617e-06	936.3	169.28	1.8731e-06	2.0988e-06	229.95	66.312	52.409	15.604	1.4066e-06	21.867	0.00023658	0.00027694	8.0805e-05	847.48	3.0571e-06	3.0443e-06	925.26	168.05	3.1968e-06	3.0948e-06	229.71	67.092	52.536	15.682	2.9576e-06	22.167	-101.390	-44.248	-21.345	-123.075	-41.231	11.547	-122.874	-115.690	13.072	-42.007	-115.934	-109.425	-108.218	-101.546	-26.290	-102.208	-8191	255	
746.848	1	1	0	0	0.17115	0.16191	0.30563	0.41836	0.26283	0.18565	0.21234	0.094914	0.074146	0.11643	0.24436	0.085852	0.15088	0.085063	0.1765	0.18458	-2.6083	-3.0292	-2.7521	-3.3083	-2.9104	-2.8667	-3.3417	-2.8042	-3.1771	-3.2417	-2.9042	-3.2667	-2.9625	-2.8688	-3.2562	-3.0792	149.025	56.249	24.676	206.680	28.763	-96.743	147.575	-117.082	160.785	-55.882	8.843	69.515	-59.959	159.422	151.525	-49.498	0.00010152	0.0002201	5.9529e-05	863.68	2.209e-06	2.6514e-06	941.35	169.05	1.5234e-06	2.1818e-06	230.88	66.176	52.04	15.703	4.2114e-06	22.005	0.00023018	0.00026983	7.7426e-05	846.69	3.0212e-06	3.0793e-06	925.86	168.11	3.0705e-06	3.0376e-06	229.84	67.016	52.475	15.754	2.8499e-06	22.193	-97.458	-63.976	-18.273	-123.167	21.579	3.975	-123.114	-115.752	26.598	-3.918	-116.049	-108.982	-108.551	-101.545	51.436	-101.838	-8191	255	
746.944	1	1	0	0	0.1711	0.10874	0.07568	0.12051	0.049563	0.3198	0.3435	0.24565	0.18511	0.15971	0.18475	0.028902	0.31364	0.14984	0.083635	0.093041	-2.4833	-3.1521	-2.7188	-3.3187	-2.9167	-2.9083	-3.25	-2.9083	-2.8667	-3.0625	-2.6833	-3.0146	-3.0875	-2.8354	-3.2979	-2.8167	134.132	12.904	-30.010	117.165	-127.719	-0.651	208.565	169.363	122.878	176.829	174.195	221.399	-72.215	-105.636	58.883	-29.268	0.00010761	0.00033167	8.398e-05	859.85	2.0008e-06	3.5173e-06	939.36	168.92	1.0559e-06	2.3786e-06	230.81	66.574	52.329	15.546	2.4212e-06	21.874	0.00023476	0.00028864	8.1505e-05	847.01	3.1042e-06	3.1084e-06	923.86	167.9	3.0308e-06	2.9809e-06	229.51	67.09	52.52	15.712	2.7197e-06	22.074	-93.205	-32.195	15.287	-123.028	16.164	11.341	-123.444	-115.943	-15.324	15.011	-116.123	-109.273	-108.713	-101.314	29.037	-102.017	-8191	255	
747.040	1	1	0	0	0.066751	0.16231	0.081837	0.020486	0.18222	0.091542	0.15325	0.18722	0.16082	0.27516	0.14921	0.2548	0.1737	0.11779	0.15443	0.1649	-2.5208	-3.0896	-2.7792	-3.2896	-2.9562	-2.8167	-3.3854	-2.825	-3.125	-3.1667	-2.8896	-3.3771	-3.0667	-2.7167	-3.0604	-2.8292	111.864	144.102	48.417	209.417	188.858	183.944	-107.740	-104.259	72.187	33.504	178.558	-92.540	72.374	-103.448	-126.043	92.017	0.00011647	5.705e-05	8.5172e-05	863.33	3.5194e-06	2.069e-06	938.58	168.38	1.5213e-06	2.4469e-06	232.45	66.621	52.012	15.6	2.0706e-06	21.95	0.00023383	0.00027665	7.5946e-05	846.28	3.1669e-06	3.0901e-06	924.44	168.05	2.9565e-06	2.9846e-06	230.06	66.973	52.361	15.691	2.9631e-06	22.12	-100.604	87.342	-15.527	-123.264	42.209	0.995	-123.024	-115.697	-16.845	-17.243	-116.106	-109.531	-108.679	-101.362	-14.842	-101.951	-8191	255	
747.136	1	1	0	0	0.18827	0.068257	0.10146	0.072136	0.015325	0.12681	0.059005	0.27788	0.10782	0.086954	0.054545	0.24927	0.19333	0.086465	0.30585	0.044437	-2.425	-3.2	-2.8854	-3.1729	-2.9333	-2.8167	-3.2812	-2.9146	-3.0042	-3.1917	-2.9354	-2.9813	-3.2396	-2.9271	-2.9813	-2.9604	-21.197	-123.276	17.994	79.312	-92.040	123.509	-71.893	-71.191	-22.248	128.003	84.530	197.193	182.200	88.347	61.071	-81.374	0.00012896	0.00027028	5.6479e-05	862.97	4.6577e-07	2.8079e-06	938.99	169.34	1.3797e-06	2.8118e-06	231.11	66.461	52.045	15.525	1.9101e-06	21.921	0.00023471	0.0002883	8.1909e-05	845.99	3.2164e-06	3.1084e-06	923.53	168	3.1206e-06	3.0608e-06	229.7	66.903	52.488	15.729	2.971e-06	22.108	-105.357	-40.760	-52.356	-122.943	-9.739	32.815	-123.130	-116.117	3.953	-5.744	-116.051	-109.243	-108.637	-101.627	3.203	-102.056	-8191	255	
747.257	1	1	0	0	0.24325	0.041984	0.020518	0.15782	0.15392	0.17394	0.22049	0.087472	0.28937	0.067674	0.19	0.29464	0.10134	0.095391	0.13221	0.15061	-2.4604	-3.1917	-2.8	-2.9125	-3.0542	-2.8583	-3.1896	-2.975	-2.8625	-2.9771	-2.9708	-2.8542	-3.2104	-2.8042	-3.0979	-2.9875	-4.246	-13.526	167.315	-87.879	2.417	6.267	191.098	10.198	121.701	-46.809	214.275	91.735	-6.763	107.844	-48.754	124.563	0.00011944	0.00027332	8.3078e-05	864.5	1.853e-06	3.4138e-06	938.23	169.03	2.3133e-06	2.5262e-06	231.77	66.472	52.124	15.482	2.6378e-06	21.883	0.00023321	0.00027752	7.8988e-05	845.93	3.1509e-06	3.3202e-06	924.45	168.11	3.1358e-06	3.0241e-06	229.7	67.066	52.437	15.68	3.1705e-06	22.157	-103.307	-45.264	-38.651	-123.229	5.359	25.050	-122.974	-115.814	35.653	8.470	-115.645	-109.504	-108.310	-101.023	28.304	-102.028	-8191	255	
747.353	1	1	0	0	0.14984	0.14685	0.12888	0.19354	0.10895	0.054633	0.30161	0.10557	0.21241	0.30199	0.053671	0.21731	0.11586	0.28259	0.089081	0.10145	-2.375	-3.2	-2.7354	-2.9979	-3.0438	-2.8729	-3.2438	-3.2104	-2.8812	-3.1	-3.1875	-2.9354	-3.1792	-2.7854	-2.8917	-3.1125	-131.123	23.614	-111.662	143.897	-122.814	-90.320	213.680	-13.028	-75.995	-0.401	221.400	-56.081	-72.083	-124.146	109.898	-30.206	0.00011979	0.0002357	3.6821e-05	864.39	1.5486e-06	3.9814e-06	936.93	168.81	1.1833e-06	1.8168e-06	230.25	66.713	52.137	15.619	2.1271e-06	21.974	0.0002351	0.00030493	7.9123e-05	846.93	3.0008e-06	3.0993e-06	923.58	167.86	3.0833e-06	3.0835e-06	229.62	67.121	52.374	15.705	3.1914e-06	22.199	-94.886	-10.142	31.137	-122.872	50.704	28.478	-122.896	-115.613	-31.723	-56.904	-115.728	-109.220	-108.712	-101.260	13.683	-101.885	-8191	255	
747.447	1	1	0	0	0.14043	0.1703	0.14164	0.26857	0.13166	0.23141	0.19698	0.10891	0.20182	0.057863	0.18771	0.18996	0.0577	0.068068	0.26627	0.1789	-2.1771	-3.1583	-2.775	-3.0333	-3.0812	-2.8854	-3.0771	-3.1333	-2.6708	-3.15	-3.0729	-2.7292	-3.0917	-2.8479	-3.1729	-2.9833	-91.427	138.542	-125.988	206.844	-98.444	220.963	201.396	23.668	-122.760	214.339	-110.152	72.463	-42.646	130.676	134.409	118.352	0.00011376	0.00032095	5.3547e-05	862.17	2.5632e-06	2.0394e-06	937.02	169.22	1.1169e-06	2.3406e-06	230.14	66.469	52.074	15.506	2.2359e-06	21.909	0.00024856	0.00030856	8.3174e-05	846.05	3.1208e-06	3.2281e-06	924.83	167.73	3.3974e-06	3.2104e-06	229.34	66.928	52.367	15.71	3.1984e-06	22.1	-105.550	-28.687	-44.605	-123.056	-7.531	39.135	-122.888	-115.867	19.992	22.365	-115.872	-109.251	-109.442	-101.430	-27.431	-102.151	-8191	255	
747.544	1	1	0	0	0.1961	0.040374	0.25357	0.090232	0.038866	0.17112	0.13273	0.21282	0.122	0.16892	0.21942	0.071358	0.1116	0.12519	0.19383	0.085758	-2.2708	-3.1396	-2.9375	-2.9104	-3.2958	-2.9417	-2.9354	-3.2021	-2.9896	-3.1167	-3.2375	-2.8229	-3.3958	-2.9104	-3.0917	-3.0854	192.441	-131.714	104.124	-117.046	98.127	-90.191	216.569	56.618	16.840	9.962	187.171	149.556	100.372	85.050	103.962	-82.067	0.00011021	0.00016946	8.1968e-05	861.13	1.1003e-06	1.9747e-06	936.86	169.48	1.6872e-06	2.5912e-06	230.51	66.301	52.247	15.511	3.6501e-06	21.793	0.00024154	0.00030841	8.172e-05	845.27	3.2572e-06	3.421e-06	923.35	167.9	3.3449e-06	3.3081e-06	228.91	66.977	52.381	15.658	3.3705e-06	22.094	-105.050	-27.553	-20.576	-123.074	47.134	33.234	-123.007	-115.952	37.126	6.436	-116.240	-108.881	-108.971	-101.155	-9.851	-102.210	-8191	255	
747.664	1	1	0	0	0.20374	0.32577	0.23665	0.14777	0.040152	0.099193	0.16876	0.089474	0.1341	0.24521	0.18341	0.090134	0.11297	0.03925	0.18294	0.13895	-2.5958	-3.0333	-3.1312	-2.9437	-3.2708	-2.9771	-3.0625	-3.4417	-2.8875	-3.1063	-3.1854	-2.5417	-3.325	-3.1292	-2.9104	-3.0687	93.396	-70.792	25.778	-22.414	161.666	-64.618	207.056	143.118	22.715	20.419	-126.866	12.095	13.868	42.068	-64.756	182.541	0.00011995	0.00024969	5.0806e-05	860.93	1.6389e-06	3.2264e-06	939.55	168.67	1.1287e-06	2.1413e-06	232.19	65.897	51.753	15.455	3.5883e-06	21.676	0.0002454	0.00029004	7.9661e-05	844.55	3.1586e-06	3.2195e-06	924.44	167.94	3.202e-06	3.3313e-06	229.78	66.689	52.262	15.642	3.0902e-06	22.033	-101.018	-79.500	-55.002	-123.191	56.396	15.261	-123.134	-115.735	23.372	4.503	-116.195	-109.408	-108.769	-101.436	25.056	-101.958	-8191	255	
747.736	1	1	0	0	0.24951	0.39967	0.17186	0.10363	0.16792	0.10473	0.18279	0.2648	0.03266	0.28104	0.2579	0.11972	0.21821	0.2013	0.16056	0.18312	-2.2333	-2.9583	-3.1729	-2.825	-3.0875	-3.0583	-2.9167	-3.2917	-2.8187	-3.0646	-3.2313	-2.9688	-3.0479	-3.1042	-2.7292	-3.1729	140.078	6.450	113.600	217.436	-80.998	195.392	161.792	162.414	8.635	16.867	-3.131	148.124	127.256	-125.321	-46.891	180.140	0.00010114	0.00036353	7.0567e-05	858.11	3.3134e-06	2.9129e-06	937.62	168.94	2.4642e-06	1.3569e-06	229.97	66.733	51.931	15.435	1.8711e-06	21.814	0.00024481	0.00030406	7.9957e-05	842.3	3.3296e-06	3.3321e-06	921.91	167.45	3.299e-06	3.1952e-06	228.63	67.052	52.433	15.665	3.2623e-06	22.077	-95.312	-15.126	-69.741	-123.245	-1.321	13.813	-122.984	-115.727	22.389	67.631	-116.058	-109.536	-108.711	-101.522	-10.771	-101.913	-8191	255	
747.832	1	1	0	0	0.17585	0.077072	0.0529	0.070475	0.20507	0.19295	0.11456	0.17449	0.26757	0.12645	0.17447	0.11728	0.083872	0.14643	0.05901	0.07089	-2.4542	-2.9271	-3.2021	-2.8646	-3.3125	-3.1729	-2.7812	-3.2	-2.9771	-2.8688	-3.2167	-2.7917	-3.1292	-3.0229	-2.7771	-3.2104	-130.396	-65.940	95.198	-130.611	51.134	-26.573	196.717	146.772	209.035	-88.523	205.601	152.628	135.569	48.348	16.574	1.243	0.00011285	0.00031532	4.6345e-05	859.06	2.2287e-06	8.5836e-07	936.46	169.51	1.212e-06	3.463e-06	228.83	66.464	52.18	15.449	2.1088e-06	21.901	0.0002431	0.00031388	8.2501e-05	843.51	3.3383e-06	3.0675e-06	920.95	167.55	3.0596e-06	3.3238e-06	229.12	66.779	52.369	15.653	3.342e-06	22.07	-102.362	-60.314	-41.942	-123.027	9.471	99.432	-122.930	-115.578	-33.672	24.771	-115.759	-108.933	-108.706	-101.503	23.277	-101.794	-8191	255	
747.928	1	1	0	0	0.35671	0.13551	0.11467	0.30776	0.25485	0.19143	0.19895	0.15936	0.1009	0.1007	0.19311	0.28624	0.38182	0.19927	0.062833	0.23786	-2.5938	-2.7958	-3.2625	-2.8187	-3.0062	-2.975	-3.0167	-3.1229	-3.1083	-2.875	-3.3896	-3.0042	-3.1479	-3.1937	-2.9375	-3.1583	-117.962	-78.242	186.402	194.243	-80.056	152.125	158.237	-47.095	81.589	79.845	214.342	-129.293	192.444	23.260	150.159	-102.303	0.00011565	0.00036007	5.5771e-05	860.58	1.8702e-06	3.158e-06	937.69	168.3	1.1964e-06	3.2345e-06	231.21	66.363	51.775	15.494	1.7877e-06	21.859	0.00024258	0.00031204	7.9796e-05	843.07	3.5593e-06	3.1122e-06	921.55	167.32	3.2843e-06	3.3572e-06	229.51	66.768	52.191	15.636	3.1885e-06	22.068	-98.793	-33.059	-27.279	-123.072	39.380	21.672	-122.923	-115.466	-15.079	2.879	-115.909	-109.701	-108.773	-101.747	5.699	-102.316	-8191	255	
748.049	1	1	0	0	0.18339	0.25829	0.06989	0.15654	0.2981	0.15881	0.29068	0.12104	0.091111	0.18281	0.18206	0.038973	0.13142	0.03383	0.21233	0.057495	-2.5812	-2.8604	-3.1396	-2.8167	-3.0021	-2.95	-2.8063	-3.1479	-3.0729	-2.75	-3.275	-2.95	-2.9688	-3.275	-2.7375	-3.1188	161.379	117.647	-30.139	-129.389	222.777	58.775	-124.891	173.560	133.225	-34.035	-99.613	33.437	158.455	-87.837	146.403	138.754	0.00010333	0.00021037	5.9583e-05	859.74	2.5351e-06	3.0454e-06	931.32	168.16	1.1242e-06	1.6971e-06	231.94	66.301	51.891	15.457	1.9024e-06	21.744	0.00024807	0.00031146	8.168e-05	842.69	3.3471e-06	3.2604e-06	920.37	167.26	3.079e-06	3.5527e-06	228.96	66.876	52.256	15.687	3.2677e-06	22.048	-91.867	-83.255	-52.625	-122.916	34.373	-9.133	-123.003	-115.790	-26.895	52.780	-115.705	-109.379	-108.600	-101.400	1.624	-102.313	-8191	255	
748.145	1	1	0	0	0.12507	0.129	0.22364	0.095859	0.091004	0.17598	0.23645	0.10328	0.12027	0.1745	0.043201	0.20424	0.21579	0.16167	0.18292	0.24806	-2.5187	-2.7562	-3.0417	-3.0563	-2.8063	-3.2271	-3.0479	-3.0021	-3.1271	-2.8521	-2.9958	-3.1792	-2.9437	-3.1583	-2.5604	-3.0667	198.984	13.551	-44.706	120.424	165.686	99.915	128.919	-125.746	190.335	134.665	76.594	25.622	204.539	29.426	-90.405	91.150	0.00011705	0.00018145	5.4762e-05	858.37	1.4823e-06	2.4261e-06	934.45	168.61	2.213e-06	2.0863e-06	230.55	66.612	51.905	15.397	4.336e-06	21.921	0.00023668	0.00030924	8.0024e-05	842.97	3.3029e-06	3.3801e-06	921.16	167.55	3.1481e-06	3.3259e-06	229.05	67.036	52.279	15.627	3.3011e-06	22.061	-105.605	-97.365	-1.360	-123.123	33.333	18.655	-123.048	-115.869	-8.082	32.148	-116.038	-109.310	-108.837	-101.403	27.722	-101.627	-8191	255	
748.241	1	1	0	0	0.11108	0.29084	0.2715	0.079051	0.12367	0.11188	0.26867	0.093075	0.13478	0.092002	0.28457	0.10009	0.309	0.055143	0.039933	0.13322	-2.6021	-2.5938	-3.3312	-3.2083	-2.8708	-3.2604	-3.1	-2.9833	-3.1146	-2.7104	-3.175	-3.0854	-2.8187	-3.3187	-2.9333	-3.0479	-88.564	194.714	101.400	214.522	4.748	49.071	-126.775	148.507	72.161	-64.337	-111.252	128.132	-75.382	224.206	25.437	74.439	0.0001045	0.00020075	7.4171e-05	860.41	1.9656e-06	1.0245e-06	937.42	168.07	1.4361e-06	1.555e-06	230	66.528	52.317	15.314	1.9864e-06	21.663	0.00024224	0.0003104	8.7886e-05	844.28	3.5102e-06	3.3817e-06	922.36	167.5	3.1391e-06	3.3794e-06	229.05	67.04	52.47	15.561	3.2308e-06	22.001	-91.885	-24.558	-37.204	-123.445	59.772	37.844	-123.250	-115.723	4.462	-24.852	-116.358	-109.420	-109.031	-101.395	101.550	-101.815	-8191	255	
748.337	1	1	0	0	0.13986	0.045139	0.16287	0.15981	0.12237	0.1424	0.23626	0.24032	0.18385	0.044045	0.1182	0.1545	0.051325	0.2666	0.087876	0.23516	-2.6437	-2.6604	-3.1896	-3.2354	-2.9875	-3.2729	-3.0187	-2.9813	-3.1813	-2.9792	-3.1125	-3.0625	-2.7771	-3.2271	-3.0604	-3.0208	-82.546	-9.567	17.994	-133.161	-104.310	96.678	172.834	-26.351	169.900	101.778	164.983	-32.403	29.071	-83.979	46.157	218.660	0.00011891	5.8439e-05	7.0902e-05	861.73	7.0001e-07	3.3202e-06	933.7	167.46	9.4332e-07	2.4808e-06	230.58	66.583	51.847	15.448	2.7508e-06	21.766	0.00024341	0.0003192	8.4278e-05	844.33	3.4486e-06	3.4598e-06	921.3	166.95	3.2384e-06	3.6067e-06	229.12	66.922	52.339	15.621	3.189e-06	22.068	-101.799	-37.264	-39.445	-123.334	49.205	-40.130	-123.280	-115.609	69.085	-17.237	-115.865	-109.437	-109.006	-101.023	-16.034	-101.942	-8191	255	
748.432	1	1	0	0	0.091413	0.13353	0.14304	0.35309	0.076848	0.071633	0.19372	0.13179	0.16553	0.21363	0.23352	0.10483	0.12485	0.25465	0.10097	0.22415	-3.0521	-2.6625	-3.0938	-3.1312	-2.8187	-3.1375	-3.2	-2.9667	-3.3708	-2.8896	-3.1521	-3.2792	-2.9646	-3.1063	-2.7208	-2.8854	49.771	83.570	118.071	-98.718	-85.116	46.938	113.638	149.215	179.957	36.740	195.038	-82.399	70.254	71.439	25.557	110.865	0.00012016	4.6979e-05	9.3172e-05	859.04	5.9578e-07	9.9301e-07	934.79	169.15	3.1471e-06	2.292e-06	229.78	66.085	51.632	15.506	1.0474e-06	21.769	0.00024248	0.00031586	8.3793e-05	843.03	3.2597e-06	3.317e-06	920.78	167.91	3.2503e-06	3.3081e-06	228.95	66.831	52.239	15.644	3.2777e-06	22.078	-99.150	-14.708	-37.183	-123.179	6.632	40.076	-122.927	-115.876	41.414	51.521	-116.027	-109.190	-108.799	-101.409	24.707	-101.964	-8191	255	
748.528	1	1	0	0	0.20254	0.1119	0.16456	0.11726	0.054327	0.08823	0.18077	0.060418	0.095992	0.11056	0.099301	0.043796	0.15817	0.10734	0.054931	0.055749	-2.6937	-2.9229	-2.9562	-3.1083	-2.7667	-3.0792	-3.3563	-2.8	-3.2042	-2.7313	-2.9979	-3.0292	-2.8333	-3.1167	-3.1854	-2.7167	-19.152	120.001	118.972	199.696	225.444	166.343	112.659	168.099	-48.769	108.522	-117.508	151.140	71.643	-31.625	204.193	-120.254	0.00013622	0.00045942	6.9437e-05	859.47	1.148e-06	1.5202e-06	935.02	169.37	1.3508e-06	2.0275e-06	230.21	66.115	51.992	15.481	2.5743e-06	21.7	0.00024843	0.00030068	8.2299e-05	842.51	3.3388e-06	3.2313e-06	921.37	167.78	3.1358e-06	3.2919e-06	229.09	66.651	52.29	15.627	3.3131e-06	22.011	-106.944	-40.258	-42.927	-123.291	40.966	51.574	-123.024	-115.635	59.738	45.872	-115.863	-109.037	-108.667	-101.206	-12.782	-102.070	-8191	255	
748.624	1	1	0	0	0.13821	0.13227	0.1593	0.13061	0.13622	0.013078	0.18412	0.19676	0.27314	0.06965	0.24564	0.23312	0.065176	0.1651	0.05409	0.13099	-2.8458	-2.7875	-2.6833	-3.2646	-2.8625	-2.9313	-3.2896	-2.9	-3.0187	-2.8354	-2.9354	-3.3771	-3.025	-3.0375	-3.0563	-2.9188	26.297	22.346	176.349	-67.255	225.510	-10.219	161.482	158.103	81.363	18.462	-21.326	172.858	-108.341	11.008	-57.767	-116.579	9.7633e-05	0.00012535	6.2345e-05	859.76	1.2619e-06	3.9975e-06	938.79	169.48	1.7538e-06	1.4556e-06	231.1	66.261	51.979	15.459	3.0956e-06	21.969	0.00023528	0.00030711	8.2892e-05	842.32	3.5447e-06	3.151e-06	921.04	167.68	3.2105e-06	3.3864e-06	229.15	66.836	52.358	15.644	3.1949e-06	22.078	-101.122	-23.852	-17.202	-122.998	-28.989	-7.303	-123.211	-115.908	11.589	43.673	-115.620	-109.173	-108.800	-101.066	-0.329	-102.165	-8191	255	
748.745	1	1	0	0	0.15165	0.31689	0.15694	0.16223	0.085968	0.20427	0.22017	0.12718	0.058711	0.15132	0.13972	0.036369	0.07511	0.093283	0.21827	0.23631	-2.7125	-2.9896	-3.0146	-3.2021	-2.8937	-3.1167	-3.1833	-2.9333	-3.0104	-3.3208	-2.7646	-3.1792	-3.1583	-2.7917	-2.9917	-2.8458	148.192	18.305	163.887	221.589	146.176	129.469	194.117	-18.080	156.053	21.206	77.096	-97.008	61.689	173.132	-40.289	-119.177	0.0001142	0.000267	7.6967e-05	857.1	1.9605e-06	1.8617e-06	935.78	169.2	1.405e-06	1.2217e-06	229.92	66.146	52.182	15.579	1.0896e-06	22.023	0.00022752	0.00032234	8.4009e-05	842.39	3.4253e-06	3.2496e-06	920.63	167.31	3.1386e-06	3.4166e-06	228.64	66.939	52.44	15.662	3.339e-06	22.085	-98.889	-51.206	-38.238	-123.267	-11.834	23.374	-123.116	-116.042	35.468	8.574	-115.854	-109.239	-108.944	-100.908	18.657	-102.123	-8191	255	
748.841	1	1	0	0	0.10267	0.30013	0.08492	0.17805	0.079515	0.22057	0.17362	0.22276	0.15616	0.14231	0.053302	0.20297	0.12757	0.070812	0.076946	0.32701	-2.7125	-2.8812	-2.7542	-3.4354	-2.7479	-2.95	-3.4958	-2.9104	-3.0438	-3.0833	-2.7313	-3.1542	-2.8771	-2.9938	-3.175	-2.9521	-59.195	-10.461	120.481	184.688	103.884	-14.709	41.107	6.461	-37.832	198.835	-8.396	207.610	132.145	-96.880	-98.148	224.165	0.00010866	0.00028309	8.323e-05	856.5	1.6563e-06	4.0844e-06	937.46	167.98	1.557e-06	1.1383e-06	230.57	66.004	52.096	15.478	1.774e-06	21.782	0.00025223	0.00029609	8.8195e-05	841.37	3.3116e-06	3.3634e-06	922.27	167.28	3.2999e-06	3.2957e-06	228.94	66.562	52.293	15.651	3.1675e-06	22.033	-97.173	-56.368	-63.379	-123.263	5.920	16.879	-123.234	-115.633	32.092	22.476	-115.780	-109.239	-108.370	-101.302	46.455	-102.071	-8191	255	
748.937	1	1	0	0	0.066836	0.26785	0.32012	0.098623	0.080103	0.20633	0.063961	0.1204	0.14504	0.026725	0.084126	0.20751	0.09551	0.22624	0.18264	0.091823	-2.7667	-3.1396	-2.5354	-3.4396	-2.7396	-2.7375	-3.3104	-2.725	-3.0687	-2.9917	-2.6688	-3.375	-3.0667	-2.725	-3.3312	-2.875	203.607	113.841	118.321	214.516	-113.898	-80.422	-29.295	181.056	148.707	-15.880	173.646	154.114	226.103	-96.832	102.630	162.128	0.00012566	0.00024674	5.2387e-05	859.81	1.8336e-06	2.4522e-06	934.3	168.87	8.0176e-07	1.2987e-06	230.31	66.052	52.048	15.551	3.0918e-06	21.989	0.00025278	0.00030725	8.8505e-05	842.04	3.2713e-06	3.4399e-06	920.57	167.65	3.0644e-06	3.3972e-06	228.88	66.723	52.392	15.687	3.1949e-06	22.06	-101.290	-17.298	-104.478	-123.084	38.507	5.453	-123.076	-115.668	9.394	-5.951	-116.115	-109.390	-108.833	-101.342	17.352	-101.463	-8191	255	
749.033	1	1	0	0	0.26626	0.16846	0.065518	0.1115	0.1028	0.16835	0.093764	0.10616	0.22766	0.15474	0.24511	0.14633	0.33875	0.076062	0.19498	0.089205	-2.6688	-2.8333	-2.6937	-3.3646	-2.9167	-2.8708	-3.3604	-2.9979	-3.0521	-3.2542	-2.9562	-3.1792	-3.1833	-2.7208	-3.25	-2.9896	-48.236	42.103	-110.287	-131.255	-38.771	-92.821	179.008	-38.405	117.528	104.671	-101.030	138.763	197.823	89.316	177.469	9.346	0.00012676	0.00028292	6.8662e-05	854.38	2.0954e-06	4.0126e-06	934.11	168.95	1.861e-06	1.5702e-06	231.27	66.508	51.839	15.624	1.2588e-06	21.886	0.00023417	0.0002986	8.798e-05	840.23	3.5559e-06	3.3639e-06	919.51	167.55	3.2673e-06	3.2768e-06	229.12	66.826	52.215	15.686	3.0169e-06	22.064	-103.044	-17.822	-16.701	-123.284	74.126	41.759	-123.275	-115.565	1.894	48.866	-115.855	-109.162	-108.893	-101.196	28.414	-102.331	-8191	255	
749.129	1	1	0	0	0.34625	0.14843	0.22443	0.10359	0.31475	0.20242	0.26539	0.18773	0.19031	0.09451	0.16582	0.18438	0.082651	0.18522	0.10024	0.15692	-2.3771	-3.1479	-2.8292	-3.2979	-2.95	-2.7479	-3.0958	-2.9604	-2.8021	-3.3104	-2.9125	-3.1979	-3.0979	-2.775	-3.2687	-3.1292	-102.365	-86.628	187.452	107.700	103.911	90.906	149.541	205.110	-89.480	-124.284	138.383	97.145	-98.610	-65.905	170.457	182.386	0.00011739	0.00011181	5.0923e-05	861.25	1.9777e-06	3.2736e-06	934.93	168.54	1.8507e-06	2.0923e-06	230.43	66.235	51.766	15.46	3.2162e-06	21.798	0.00023808	0.00028361	9.0403e-05	842.7	3.2669e-06	3.6038e-06	920.97	167.73	3.3827e-06	3.233e-06	228.88	66.65	52.238	15.609	3.2179e-06	22.044	-103.868	-60.360	-73.163	-123.222	-2.909	26.530	-122.705	-115.841	10.934	24.078	-115.616	-109.320	-108.583	-101.690	46.792	-102.453	-8191	255	
749.225	1	1	0	0	0.071084	0.13648	0.19138	0.28923	0.093048	0.15745	0.35732	0.21463	0.19762	0.12977	0.15294	0.17796	0.12596	0.18387	0.075654	0.29997	-2.6167	-3.2542	-2.825	-3.0583	-3.1063	-2.6479	-3.3646	-2.9708	-2.9771	-3.3187	-2.9833	-3.2188	-3.1562	-2.9396	-3.1729	-2.8958	-82.170	182.042	24.417	159.008	84.813	-79.094	103.874	205.492	-59.511	64.810	120.661	97.577	171.592	-48.258	161.453	206.300	0.00012245	0.00026266	5.3452e-05	855.36	2.2475e-06	1.9388e-06	938.9	168.06	1.0733e-06	2.5801e-06	230.97	65.983	52.136	15.527	1.9119e-06	21.705	0.00025441	0.0002957	8.4224e-05	842.79	3.2563e-06	3.3617e-06	921.02	167.17	3.2872e-06	3.2719e-06	228.6	66.54	52.251	15.629	3.1446e-06	22.017	-96.962	-34.830	-59.980	-123.174	-18.467	30.872	-123.028	-115.818	-38.169	8.385	-115.868	-109.329	-108.828	-101.395	10.993	-102.102	-8191	255	
749.346	1	1	0	0	0.088609	0.30429	0.12266	0.18383	0.27359	0.10582	0.15081	0.34206	0.24753	0.12636	0.25473	0.22886	0.047084	0.32613	0.0098912	0.20126	-2.4292	-3.1604	-3.0021	-2.9375	-3.05	-2.6	-3.3937	-3.1333	-2.8854	-3.1958	-2.9292	-2.9104	-3.1583	-2.8354	-3.1958	-2.9375	171.342	-97.010	-11.672	220.355	-44.466	-0.031	-110.566	184.076	-12.741	51.972	186.624	177.320	218.367	-123.146	58.338	1.990	0.00013573	0.00017389	9.9676e-05	856.24	2.0633e-06	3.832e-06	929.18	169.19	1.8787e-06	1.5219e-06	232.94	65.917	52.088	15.517	1.5324e-06	21.67	0.00024636	0.00028695	8.312e-05	840.67	3.3718e-06	3.2178e-06	917.9	167.69	3.4669e-06	3.4053e-06	229.62	66.555	52.183	15.661	3.161e-06	21.97	-98.566	-59.376	-25.254	-123.023	22.063	-3.387	-122.902	-115.748	1.261	21.305	-116.088	-109.193	-108.824	-101.389	30.935	-102.021	-8191	255	
749.440	1	1	0	0	0.30486	0.042459	0.19276	0.24237	0.1596	0.15202	0.35877	0.11157	0.052882	0.14843	0.080618	0.24379	0.26167	0.202	0.12607	0.31662	-2.3896	-3.0125	-2.9938	-2.875	-3.2938	-2.7333	-3.2979	-2.9188	-3.0062	-3.3271	-2.8875	-2.9396	-3.0458	-2.9667	-2.9958	-3.1271	-19.617	-7.782	201.402	177.309	98.586	200.262	179.314	-113.821	215.172	42.213	33.483	-58.876	-96.233	-96.023	113.079	199.918	0.00011112	0.00020455	5.4238e-05	857.5	1.4718e-06	1.767e-06	935.07	169.4	9.3324e-07	1.7012e-06	230.64	66.391	51.876	15.439	2.0195e-06	21.685	0.00025798	0.00029763	8.1801e-05	840.77	3.2529e-06	3.289e-06	919.83	167.53	3.3822e-06	3.1245e-06	228.52	66.716	52.261	15.606	3.1675e-06	21.996	-104.428	22.857	-53.603	-122.820	-14.141	5.571	-123.304	-115.527	55.173	26.043	-115.994	-109.271	-108.903	-101.015	16.553	-101.446	-8191	255	
749.537	1	1	0	0	0.050911	0.41198	0.092145	0.058009	0.20868	0.09043	0.019752	0.11656	0.042536	0.10958	0.17253	0.13054	0.14013	0.10907	0.11578	0.18881	-2.2625	-3.1125	-2.8458	-2.9021	-3.1125	-2.8187	-3.025	-3.0354	-2.85	-2.9771	-3.0938	-2.8729	-3.3312	-2.8375	-2.9917	-3.1375	-101.762	199.710	122.111	91.666	171.809	216.699	-115.985	183.849	82.438	-68.962	203.018	-10.494	-41.675	90.656	95.347	159.219	0.00012332	0.00025397	6.7939e-05	857.2	2.9352e-07	1.8813e-06	931.14	168.8	9.5358e-07	1.5413e-06	229.37	66.225	51.861	15.513	3.246e-06	21.956	0.00025324	0.00028917	8.4332e-05	841.42	3.2538e-06	3.2335e-06	918.39	167.66	3.342e-06	3.3756e-06	228.62	66.727	52.051	15.649	3.2224e-06	22.032	-103.118	-55.097	-13.335	-122.939	43.922	-15.574	-123.122	-115.667	2.780	45.716	-116.276	-109.385	-108.523	-101.440	29.172	-101.949	-8191	255	
749.608	1	1	0	0	0.06734	0.1028	0.30812	0.069357	0.11933	0.12339	0.10902	0.32644	0.15037	0.11427	0.19452	0.22519	0.2048	0.12137	0.21867	0.18756	-2.3583	-2.95	-3.1937	-2.7938	-3.2104	-2.7938	-3.2125	-3.2979	-3.0312	-3.1208	-3.2458	-2.7479	-3.1312	-2.9667	-2.8271	-3.1417	-60.651	-133.346	126.441	225.070	16.896	97.587	206.933	200.019	199.132	-128.686	-37.504	-100.020	188.739	56.488	205.174	207.741	0.00012583	0.00020942	8.2725e-05	853.18	3.1737e-06	1.6901e-06	930.37	167.9	1.6647e-06	2.318e-06	231.41	66.67	51.906	15.487	2.3416e-06	21.765	0.00024519	0.00029338	8.2178e-05	839.8	3.3072e-06	3.3661e-06	917.65	167.29	3.0691e-06	3.1979e-06	228.81	66.751	52.186	15.616	3.1456e-06	22.005	-96.960	8.877	-49.548	-123.002	7.360	19.367	-123.091	-115.957	22.965	24.892	-116.007	-109.055	-108.914	-101.396	14.115	-101.919	-8191	255	
749.729	1	1	0	0	0.096117	0.20588	0.14603	0.16782	0.16685	0.068229	0.076473	0.26166	0.22192	0.13774	0.17053	0.17583	0.18425	0.10199	0.13116	0.16451	-2.2479	-3.0667	-3.0146	-2.8958	-3.0958	-3.0458	-3.0563	-2.9813	-3.0354	-2.9562	-3.0521	-2.75	-3.1979	-2.9688	-2.75	-3.2562	219.473	10.069	-63.472	150.839	-79.226	147.158	-103.505	163.824	197.782	-42.426	-37.785	140.901	147.394	-49.727	29.370	-78.851	0.00011543	0.00027231	7.8882e-05	853.97	1.6918e-06	1.7632e-06	928.44	168.72	1.2983e-06	2.6194e-06	229.59	66.378	52.109	15.419	1.9406e-06	21.673	0.00024074	0.00030484	8.1842e-05	839.28	3.3665e-06	3.2545e-06	915.63	167.64	3.3326e-06	3.3238e-06	228.79	66.702	52.178	15.584	3.2508e-06	21.967	-101.390	-69.955	-8.442	-123.311	35.975	-1.833	-123.004	-115.469	12.103	30.787	-116.112	-109.311	-108.927	-100.960	-12.191	-102.002	-8191	255	
749.825	1	1	0	0	0.12477	0.056555	0.08004	0.092089	0.14565	0.29224	0.27971	0.061065	0.16001	0.13617	0.072141	0.14166	0.051667	0.082611	0.044907	0.21934	-2.3917	-2.9167	-3.1604	-2.9938	-3.3083	-3.1667	-2.9542	-3.3146	-2.9562	-3.0896	-3.1229	-2.875	-3.1479	-2.8979	-2.7917	-3.1292	179.089	146.722	-103.272	-78.736	169.049	54.439	-84.981	-70.927	95.332	-81.908	-85.372	41.679	191.940	39.940	165.658	-76.178	0.00011334	0.00020129	8.1845e-05	854.96	7.9354e-07	1.4353e-06	932.16	167.97	1.9058e-06	2.6611e-06	230.46	66.264	51.538	15.525	2.8993e-06	21.775	0.0002417	0.00028453	8.0846e-05	837.67	3.2378e-06	3.3073e-06	918.1	167.35	3.3288e-06	3.1558e-06	228.86	66.753	52.028	15.585	3.2672e-06	21.996	-102.341	-29.587	2.992	-123.258	17.963	16.309	-123.228	-115.547	29.148	-49.962	-116.049	-109.272	-108.529	-101.191	34.811	-101.733	-8191	255	
749.921	1	1	0	0	0.1263	0.15633	0.22999	0.17213	0.23193	0.21119	0.079427	0.24274	0.029515	0.10833	0.14504	0.10592	0.1834	0.10441	0.082283	0.21092	-2.5833	-2.8292	-3.1479	-2.95	-2.9417	-3.2479	-2.9229	-3.1917	-3.1312	-2.7417	-3.3354	-2.8708	-3.0208	-3.0875	-2.7625	-3.15	25.151	39.115	85.905	106.963	-54.817	25.838	128.549	-75.344	-85.443	-4.715	206.338	-101.289	-122.331	160.236	-117.203	-52.129	0.00011062	0.00020136	0.00010464	856.42	1.7019e-06	2.6936e-06	931.84	167.88	2.5057e-06	2.2477e-06	228.13	66.123	51.835	15.581	2.3766e-06	21.747	0.00024134	0.00032219	8.2501e-05	840.77	3.2582e-06	3.0529e-06	918.75	167.13	3.3127e-06	3.2957e-06	227.94	66.561	52.139	15.625	3.3011e-06	21.932	-96.647	-38.663	-11.011	-123.282	37.886	-18.538	-123.062	-115.946	30.052	14.629	-115.953	-109.167	-108.626	-101.543	26.031	-102.008	-8191	255	
750.017	1	1	0	0	0.066578	0.17986	0.13571	0.18877	0.23024	0.16994	0.041583	0.24081	0.069078	0.32327	0.14146	0.18724	0.042105	0.22766	0.16405	0.093554	-2.2667	-2.8729	-3.4333	-2.8771	-2.9125	-3.2375	-2.8104	-3.2021	-2.9562	-2.8812	-3.3063	-2.8063	-3.1312	-3.2021	-2.875	-3.2458	52.700	211.433	170.299	-51.661	4.170	194.294	130.518	76.531	152.763	-97.714	98.939	124.491	-74.942	-9.238	180.429	8.818	0.00012562	0.00018255	8.3536e-05	853.43	1.253e-06	1.9058e-06	929.89	168.18	2.8403e-06	2.7837e-06	229.13	65.901	51.49	15.473	1.9227e-07	21.779	0.00024377	0.00030977	8.4103e-05	838.41	3.3835e-06	3.2626e-06	917.09	167.17	3.1949e-06	3.2357e-06	228.56	66.564	51.974	15.582	3.36e-06	22.039	-96.627	-30.378	-15.153	-123.202	13.728	8.544	-123.079	-115.781	7.847	5.410	-115.717	-109.618	-108.630	-101.507	-52.416	-102.086	-8191	255	
750.138	1	1	0	0	0.26476	0.34037	0.12838	0.089543	0.17721	0.13289	0.20458	0.33837	0.22085	0.10285	0.32073	0.20575	0.034545	0.080464	0.11491	0.11562	-2.6792	-2.725	-3.2229	-3.0812	-2.9292	-3.4104	-2.8646	-3.0833	-3.1292	-2.8083	-3.3042	-3.0125	-2.8896	-3.3792	-2.7167	-3.1354	-5.631	130.558	53.466	-124.863	-75.333	-68.103	155.012	-113.303	-115.029	70.328	152.084	-101.406	77.478	88.807	0.643	-32.594	0.00011694	0.00023822	9.0745e-05	855.87	2.6562e-06	3.2509e-06	931.49	168.79	1.5179e-06	2.8252e-06	229.56	66.326	51.523	15.467	2.8723e-06	21.623	0.00023598	0.00030672	7.9432e-05	840.76	3.2805e-06	3.1785e-06	917.19	167.03	3.2252e-06	3.3794e-06	228.69	66.659	52.071	15.62	3.2837e-06	21.973	-108.669	-64.409	-39.186	-123.346	-16.892	15.963	-123.077	-115.570	26.476	22.640	-115.943	-109.249	-108.721	-101.315	30.474	-101.989	-8191	255	
750.210	1	1	0	0	0.084647	0.14665	0.28629	0.11292	0.088679	0.2902	0.097085	0.21424	0.097807	0.076733	0.14829	0.085886	0.28839	0.17653	0.072516	0.12876	-2.6229	-2.6354	-3.1	-3.2083	-2.8479	-3.3563	-3.0667	-3.0812	-3.2896	-2.8667	-3.4188	-2.9958	-2.9521	-3.1875	-2.925	-3.35	-4.078	190.067	37.293	168.534	75.850	-92.537	-125.141	-127.235	90.540	159.070	130.088	-99.136	174.490	16.340	213.642	-124.115	0.0001088	0.00037675	6.523e-05	856.33	2.7943e-06	2.8283e-06	931.57	168.35	2.2583e-06	7.1571e-07	229.18	65.97	51.759	15.482	1.7436e-06	21.729	0.0002381	0.00032408	7.9728e-05	838.68	3.3956e-06	3.1769e-06	917.29	167.09	3.2635e-06	3.1828e-06	228.07	66.645	52.04	15.644	3.1022e-06	21.982	-102.389	-43.378	-35.008	-123.266	6.801	-26.325	-123.061	-116.048	21.683	9.706	-115.900	-109.442	-108.968	-101.611	31.495	-101.801	-8191	255	
750.306	1	1	0	0	0.16679	0.14409	0.24697	0.24382	0.17424	0.18021	0.098175	0.1776	0.22007	0.22438	0.29943	0.1474	0.27909	0.041764	0.051957	0.075279	-2.5896	-2.8375	-3.2396	-3.0167	-2.9083	-3.4542	-3.0625	-3.2125	-3.175	-2.8417	-3.2042	-3.1021	-2.7	-3.4771	-2.9083	-2.9917	-55.626	-121.756	-8.432	170.527	139.110	114.154	-25.718	-132.432	-106.004	168.428	-64.659	-101.284	208.871	53.480	-122.899	-95.226	0.00011	0.000344	9.8125e-05	852.41	1.935e-06	2.3918e-06	929.29	167.93	1.6218e-06	4.0082e-06	230.89	66.026	51.883	15.36	2.7235e-06	21.791	0.00023769	0.00029522	7.8207e-05	838.46	3.4034e-06	3.027e-06	915.09	167.02	3.1968e-06	3.5138e-06	228.75	66.506	52.076	15.592	3.2927e-06	21.996	-86.715	-39.106	-37.249	-123.154	15.744	-8.598	-123.060	-115.919	-14.000	3.833	-116.075	-109.556	-108.800	-101.286	29.686	-102.019	-8191	255	
750.426	1	1	0	0	0.22065	0.18032	0.22477	0.30288	0.075977	0.11031	0.34591	0.28954	0.16399	0.06851	0.073372	0.26469	0.084894	0.038471	0.1576	0.12792	-2.7604	-2.7792	-2.875	-3.0979	-2.9813	-3.0917	-3.1	-3.0375	-3.1396	-2.8896	-3.2271	-2.9896	-2.975	-3.1875	-3.025	-2.8958	34.806	21.431	111.224	158.483	56.088	47.532	126.546	214.704	180.366	30.491	170.072	138.920	167.847	15.139	224.774	-76.324	0.0001102	0.00033263	5.8472e-05	850.33	2.5329e-06	1.8509e-06	934.23	168.29	1.6068e-06	2.5316e-06	229.86	66.102	51.449	15.437	2.7101e-06	21.705	0.00023518	0.00030571	7.9365e-05	837.12	3.4136e-06	2.9408e-06	915.71	167.15	3.1684e-06	3.2741e-06	228.31	66.422	52.003	15.607	3.1565e-06	21.952	-100.821	-51.668	-35.799	-123.081	31.171	5.839	-122.932	-115.836	-26.130	6.497	-116.373	-108.885	-108.740	-101.468	35.370	-101.726	-8191	255	
750.521	1	1	0	0	0.12513	0.19631	0.05952	0.25222	0.097115	0.09913	0.18245	0.045419	0.28273	0.31524	0.065873	0.09362	0.040756	0.19956	0.15413	0.16799	-2.9396	-3.0187	-3.0542	-3.1917	-2.9146	-2.9104	-3.2771	-2.8688	-3.3	-2.8729	-3.1083	-3.2	-2.9292	-3.2958	-3.0292	-2.8354	150.176	14.784	42.655	-122.525	34.852	-111.303	146.562	159.700	1.580	172.710	146.352	-19.934	-114.034	-98.886	-108.699	137.878	0.00011166	0.00020972	0.00011256	852.75	1.3183e-06	2.1761e-06	929.33	168.42	1.8362e-06	2.8662e-06	230.13	66.304	52.21	15.472	2.259e-06	21.721	0.00022979	0.00028255	7.8207e-05	837.86	3.2524e-06	3.1305e-06	916.03	167.27	3.035e-06	3.1385e-06	228.64	66.606	52.215	15.602	3.0997e-06	21.978	-94.875	-15.102	-59.666	-123.332	24.238	29.335	-123.237	-115.574	-6.162	45.489	-116.128	-109.357	-108.663	-101.173	17.858	-101.949	-8191	255	
750.617	1	1	0	0	0.10186	0.19976	0.20505	0.1235	0.31652	0.043264	0.13415	0.22921	0.21698	0.10207	0.081522	0.12378	0.18463	0.24575	0.16973	0.20071	-2.7687	-2.7875	-3.0208	-3.2146	-2.9062	-3.1208	-3.125	-2.9667	-3.1604	-2.9729	-3.1708	-3.2417	-2.9396	-3.1437	-3.0187	-2.9396	110.229	61.716	-92.036	38.054	-71.029	10.332	123.851	209.728	96.215	97.551	13.225	19.943	224.711	78.837	-13.521	-22.838	0.00010076	0.00022188	5.4774e-05	855.49	8.4752e-07	3.8864e-06	927.86	168.35	1.4982e-06	2.4956e-06	228.68	65.884	51.864	15.408	3.0452e-06	21.804	0.00022617	0.00029725	7.9863e-05	838.4	3.2291e-06	3.2825e-06	915.71	166.87	3.0194e-06	3.3065e-06	228.15	66.577	52.149	15.557	2.9157e-06	22.021	-102.491	-54.271	-45.817	-122.982	32.520	34.289	-123.024	-115.820	23.575	3.505	-115.931	-108.862	-108.779	-101.220	-2.976	-102.034	-8191	255	
750.738	1	1	0	0	0.13986	0.22012	0.14027	0.20516	0.22176	0.095321	0.19	0.08168	0.26875	0.19051	0.14872	0.070667	0.14065	0.20679	0.034509	0.18076	-2.9354	-2.9375	-2.7458	-3.35	-2.8438	-2.8937	-3.2604	-2.9542	-3.3125	-3.0792	-3.0354	-3.3042	-2.8458	-3.075	-3.1646	-2.85	-59.744	172.752	152.681	75.611	-65.412	-58.724	69.515	178.359	79.335	115.568	33.681	178.258	-133.277	125.550	139.296	156.302	0.00011494	0.00026174	7.7839e-05	851.85	1.2705e-06	3.008e-06	929.58	168.02	1.8399e-06	2.2582e-06	228.97	66.426	51.517	15.426	3.1207e-06	21.742	0.00022614	0.00030382	8.9595e-05	837.2	3.113e-06	3.2987e-06	914.3	167.13	2.9338e-06	3.2838e-06	228.21	66.72	51.962	15.629	2.9995e-06	21.957	-107.358	-40.464	-11.435	-123.391	19.166	1.891	-123.056	-115.745	5.933	38.680	-116.095	-108.943	-108.811	-101.707	16.804	-101.738	-8191	255	
750.834	1	1	0	0	0.22671	0.22618	0.13385	0.05421	0.15792	0.21546	0.13835	0.14994	0.17818	0.079725	0.10877	0.23435	0.12925	0.11574	0.15787	0.095556	-2.9188	-3.0438	-2.9833	-3.1437	-3.1562	-3.0104	-3.3333	-2.8729	-3.0042	-3.0729	-3.0438	-3.2354	-2.9188	-3.1125	-3.1833	-2.9083	36.233	167.361	-104.372	119.991	-53.566	-30.123	146.733	-56.533	-98.109	98.068	89.081	-63.373	-19.507	78.461	44.982	-105.661	0.00012112	0.00021743	8.2127e-05	849.09	1.5078e-06	3.8428e-06	925.99	167.62	1.9834e-06	1.1591e-06	229.89	66.251	51.844	15.404	5.5436e-07	21.676	0.00023533	0.00028434	8.2851e-05	836.59	3.3456e-06	3.275e-06	913.84	166.81	3.132e-06	3.0068e-06	228.24	66.642	52.077	15.565	3.0892e-06	21.94	-96.914	-47.244	-36.814	-123.063	38.195	23.121	-123.026	-115.792	18.167	-3.204	-116.137	-109.231	-108.417	-101.797	-14.970	-102.050	-8191	255	
750.905	1	1	0	0	0.32256	0.11498	0.20934	0.097388	0.1384	0.099516	0.28574	0.28851	0.13475	0.14409	0.1	0.1094	0.064855	0.38244	0.22752	0.28914	-2.725	-3.0042	-2.8937	-3.2354	-2.8396	-3	-3.4667	-2.7792	-3.1875	-3.0187	-2.9729	-3.1167	-2.9042	-3.0396	-3.0521	-2.9479	166.988	-122.975	-15.442	59.955	-103.773	134.654	-129.343	216.536	-119.280	192.454	-94.715	-106.398	-93.447	-106.176	59.466	207.769	0.00010136	0.00014791	6.5825e-05	854.1	1.2203e-06	3.5928e-06	924.7	168.27	1.1705e-06	1.507e-06	229.63	66.045	51.79	15.423	1.2505e-06	21.834	0.00023603	0.00028758	8.7064e-05	837.91	3.2213e-06	3.2998e-06	913.96	166.88	3.1292e-06	3.2363e-06	228.57	66.589	52.115	15.591	3.0907e-06	22.052	-102.333	-77.600	-23.497	-123.211	8.890	1.802	-123.070	-115.679	-26.490	76.107	-115.650	-109.293	-108.669	-101.579	15.707	-101.648	-8191	255	
751.026	1	1	0	0	0.097432	0.17012	0.12239	0.46047	0.083896	0.11999	0.12953	0.11021	0.096703	0.036231	0.067165	0.13823	0.15327	0.091911	0.34345	0.1674	-2.6271	-2.9396	-2.7521	-3.0833	-3.0396	-2.8333	-3.5417	-2.9333	-2.9458	-3.2729	-2.9021	-3.1208	-3.15	-2.9146	-3.2833	-2.9792	200.254	74.969	28.808	176.873	189.017	-119.311	-100.695	87.663	210.810	-64.759	56.340	-92.461	141.714	191.401	178.230	-52.487	0.00011017	0.00023132	9.2847e-05	856.54	2.1016e-07	1.3656e-06	928.97	168.77	1.8503e-06	3.9351e-06	229.03	66.148	51.691	15.382	1.7439e-06	21.592	0.00024012	0.00028651	8.6109e-05	837.6	3.1674e-06	3.2065e-06	914.9	167.19	3.1864e-06	3.0278e-06	227.76	66.692	52.134	15.563	2.8912e-06	21.957	-108.710	-50.433	-28.912	-123.051	2.699	-32.429	-122.890	-115.801	-2.839	36.558	-115.992	-109.103	-108.753	-101.445	49.570	-102.104	-8191	255	
751.122	1	1	0	0	0.14246	0.1899	0.021648	0.29178	0.20608	0.11007	0.22292	0.14194	0.19015	0.11082	0.14058	0.1339	0.12007	0.12719	0.13276	0.092922	-2.6167	-3.1542	-2.9062	-3.0917	-2.9917	-2.9542	-3.025	-2.9938	-3.0292	-3.2229	-2.9625	-3.0208	-3.2083	-2.65	-3.3125	-3.0812	200.516	59.061	94.939	203.686	-60.486	51.047	163.990	-75.806	-43.072	-67.065	224.685	198.269	116.141	-8.669	-43.221	136.159	0.00011894	0.00018074	6.6254e-05	848.96	1.8386e-06	2.931e-06	928.11	167.78	7.4636e-07	1.7451e-06	229.14	66.16	51.783	15.438	1.5332e-06	21.774	0.00023971	0.00029729	8.1222e-05	835.62	3.1902e-06	3.3758e-06	914.43	166.79	3.2588e-06	3.401e-06	227.96	66.509	52.156	15.581	3.0673e-06	21.97	-107.196	-40.687	-52.176	-123.068	-28.707	15.486	-123.092	-115.717	54.043	-21.443	-115.604	-109.624	-108.602	-101.445	35.115	-101.816	-8191	255	
751.218	1	1	0	0	0.056085	0.23467	0.056828	0.086933	0.04363	0.11838	0.083685	0.20486	0.074145	0.28553	0.22204	0.076508	0.097758	0.15339	0.2749	0.024276	-2.3875	-3.2208	-2.9271	-3.3021	-3.1188	-2.8646	-3.2188	-2.9771	-2.9042	-3.1937	-3.0271	-3.0125	-3.4083	-2.8125	-3.1104	-3.0833	12.561	-19.327	2.350	130.612	183.872	20.201	140.084	43.888	-16.974	95.626	-38.916	74.751	82.524	166.662	-2.132	12.579	0.00010618	0.00024275	3.5222e-05	858.33	1.9896e-06	3.1828e-06	927.4	168.78	8.6696e-07	3.206e-06	229.41	65.892	51.989	15.479	2.5328e-06	21.781	0.00024255	0.00029584	8.2515e-05	839.61	3.2475e-06	3.275e-06	915.58	167.31	3.1367e-06	2.9927e-06	228.33	66.492	52.189	15.606	2.9426e-06	22.01	-109.590	-55.970	-52.859	-123.293	24.435	31.667	-122.843	-115.730	6.088	37.244	-115.710	-109.421	-108.715	-101.113	34.242	-102.078	-8191	255	
751.314	1	1	0	0	0.21653	0.11673	0.21451	0.02087	0.1598	0.093186	0.1634	0.25265	0.18676	0.19717	0.21455	0.20997	0.22576	0.23923	0.1696	0.27869	-2.4042	-3.1917	-2.9479	-3.3354	-3.1667	-3.0521	-3.2271	-3.225	-3.0062	-3.2792	-2.7354	-3.1917	-2.9	-2.9042	-3.2521	-2.9625	90.581	-56.574	-53.662	150.288	141.659	194.046	-127.444	117.975	-86.191	89.302	-113.895	1.942	184.930	106.653	-131.386	86.773	0.00012118	0.00037762	4.7269e-05	852.39	1.9865e-06	1.3089e-06	925.7	168.79	9.3215e-07	2.813e-06	230.94	65.81	51.967	15.492	1.5262e-06	21.779	0.00023639	0.00027665	8.2905e-05	838.25	3.3174e-06	3.2723e-06	915.53	167.04	3.4452e-06	3.0845e-06	229.02	66.433	52.188	15.633	3.176e-06	22.012	-106.017	-52.244	-3.032	-122.959	14.398	28.157	-122.872	-115.866	-4.436	12.206	-116.042	-109.057	-108.882	-101.216	18.113	-102.312	-8191	255	
751.433	1	1	0	0	0.095591	0.091908	0.21206	0.091818	0.19708	0.076972	0.085592	0.12706	0.24374	0.20511	0.24755	0.19463	0.089172	0.15122	0.065035	0.14667	-2.5042	-3.0042	-2.7062	-3.0771	-3.2417	-2.7792	-3.2687	-3.1271	-2.9292	-3.1771	-3.0271	-2.9896	-3.1875	-2.9271	-3.1146	-3.0208	-53.499	-6.711	199.196	213.672	176.912	-112.299	124.176	213.593	-69.328	182.321	-105.235	200.800	206.937	185.536	-94.624	215.182	0.00010413	0.00034584	5.3601e-05	857.27	1.9452e-06	1.272e-06	930.5	168.06	2.1872e-06	2.0846e-06	229.61	65.775	51.877	15.414	2.493e-06	21.832	0.00024442	0.00030759	8.452e-05	838.65	3.1771e-06	3.3326e-06	916.32	167.32	3.1916e-06	3.1477e-06	228.6	66.568	52.279	15.608	3.0034e-06	22.062	-102.473	-47.126	-80.917	-123.015	55.090	-19.402	-122.884	-115.645	13.564	30.594	-115.832	-109.151	-108.608	-101.259	7.532	-102.075	-8191	255	
751.505	1	1	0	0	0.1902	0.10905	0.25138	0.31207	0.18728	0.14001	0.21601	0.18846	0.20143	0.16832	0.10427	0.11254	0.10511	0.29016	0.31816	0.23814	-2.3083	-3.3438	-3.0354	-2.9917	-3.1479	-3.05	-3.1188	-3.1021	-2.8542	-3.0792	-3.0771	-2.8021	-2.95	-3.15	-2.8854	-3.1771	197.368	42.117	18.814	-101.552	-120.234	182.641	69.334	127.930	165.040	219.626	74.231	182.424	-32.236	-102.976	111.014	197.780	0.00011737	0.00029147	5.4973e-05	857.17	2.8508e-06	2.0433e-06	928.98	168.17	2.0108e-06	2.2471e-06	227.31	66.096	51.759	15.48	1.742e-06	21.773	0.00024126	0.00029178	8.2474e-05	838.74	3.2577e-06	3.1715e-06	916.55	166.97	3.2592e-06	3.266e-06	227.23	66.555	52.14	15.596	3.1725e-06	21.982	-98.462	-72.550	-21.139	-123.228	-2.787	3.411	-122.907	-116.142	21.802	12.128	-116.008	-109.371	-108.754	-101.397	-1.428	-102.057	-8191	255	
751.601	1	1	0	0	0.11277	0.11988	0.12384	0.038156	0.094578	0.2673	0.22742	0.13158	0.45021	0.12463	0.20433	0.17866	0.38889	0.10134	0.20192	0.035965	-2.1708	-3.3063	-2.9562	-2.9583	-3.1375	-2.9604	-3.1188	-3.2417	-3.0375	-3.0021	-3.1	-2.925	-3.0646	-2.7812	-2.9875	-3.0938	18.709	-117.117	37.902	-36.372	154.774	166.744	191.026	-60.852	-123.455	-101.559	220.242	163.326	-100.196	190.326	-100.963	-43.768	0.00010964	0.00025272	8.5936e-05	854.67	2.1167e-06	2.1737e-06	932.63	169.35	2.4499e-06	2.2846e-06	229.96	65.738	52.256	15.492	1.492e-06	21.878	0.00022982	0.00027385	8.4345e-05	839.13	3.1941e-06	3.1887e-06	915.82	167.47	3.1315e-06	3.179e-06	228.72	66.584	52.242	15.625	3.0748e-06	22.017	-107.978	-48.144	-48.618	-123.099	11.672	11.995	-123.120	-115.660	-18.136	20.589	-116.020	-109.307	-108.806	-101.294	23.179	-102.008	-8191	255	
751.697	1	1	0	0	0.34061	0.024715	0.16802	0.33793	0.18905	0.083234	0.3141	0.048422	0.10752	0.18782	0.1517	0.1851	0.16734	0.018534	0.12553	0.21985	-2.3042	-2.9125	-3.1021	-2.8333	-3.0354	-3.0146	-2.9313	-3.3625	-2.8937	-2.9917	-3.0563	-2.8688	-3.2417	-3.1479	-2.7021	-3.2104	125.711	13.352	67.403	-113.685	109.467	-69.561	162.227	93.637	-50.298	111.222	195.433	-128.238	-42.304	61.099	-29.594	193.698	0.00011241	0.00020712	6.4616e-05	859.52	3.1602e-06	2.9034e-06	930.71	167.72	1.613e-06	2.1709e-06	230.85	65.889	51.655	15.485	2.2548e-06	21.855	0.00022816	0.00027824	7.2325e-05	839.44	3.1008e-06	2.923e-06	915.73	166.84	2.9461e-06	2.8e-06	228.31	66.585	52.1	15.577	2.809e-06	22.034	-105.936	-30.167	-33.964	-123.151	24.885	11.678	-122.946	-115.682	-30.084	-13.463	-116.154	-109.021	-108.716	-101.557	20.070	-102.146	-8191	255	
751.818	1	1	0	0	0.1118	0.36404	0.27842	0.057826	0.18115	0.07644	0.20378	0.091167	0.16582	0.1913	0.09362	0.13718	0.11697	0.10581	0.18477	0.14519	-2.2208	-2.9896	-3.2479	-2.9396	-3.1396	-3.0083	-3.0354	-3.2333	-2.9	-2.9167	-3.0354	-2.7542	-3.0333	-3.0542	-2.8104	-3.1271	58.149	92.228	117.377	217.244	169.969	212.054	126.905	181.814	-101.576	-25.858	-19.455	140.419	-122.423	35.859	137.752	143.425	0.00011919	5.7957e-05	4.1514e-05	854.43	1.7649e-06	2.9486e-06	929.88	168.03	1.9284e-06	1.7316e-06	230.76	66.07	51.617	15.516	2.3022e-06	21.869	0.00022708	0.00027162	6.7641e-05	838.54	2.9542e-06	2.8093e-06	916.13	166.94	2.9934e-06	2.9452e-06	228.38	66.656	52.027	15.626	2.8608e-06	21.979	-98.674	-93.317	25.925	-123.096	-11.611	21.265	-122.919	-115.943	5.473	-3.598	-115.828	-108.958	-108.836	-101.616	27.413	-101.837	-8191	255	
751.914	1	1	0	0	0.051896	0.13252	0.24545	0.28349	0.11556	0.16293	0.22689	0.10642	0.17589	0.13759	0.034857	0.18035	0.085142	0.31163	0.15226	0.24508	-2.6104	-2.9208	-3	-2.8812	-2.9667	-3.0021	-2.9146	-3.0938	-2.9667	-2.9708	-3.2354	-2.9562	-2.9292	-3.05	-2.6583	-3.0896	189.452	138.590	-103.816	205.685	184.692	68.178	140.753	30.500	161.206	-0.544	-28.219	150.462	-83.170	214.003	52.013	171.462	0.00010548	0.00016886	8.6329e-05	848.48	1.9374e-06	9.3805e-07	929.83	168.64	1.9722e-06	1.9705e-06	228.2	65.971	51.941	15.463	1.8776e-06	21.813	0.00021983	0.00027834	7.1167e-05	836.94	3.0338e-06	2.8998e-06	915.92	167.1	2.9139e-06	2.9333e-06	228.09	66.606	52.218	15.558	3.0518e-06	22.019	-106.161	-84.618	-13.586	-122.920	18.034	71.195	-123.306	-115.845	10.945	26.701	-115.971	-109.816	-108.899	-101.572	-38.729	-101.839	-8191	255	
752.010	1	1	0	0	0.20131	0.1474	0.17188	0.03145	0.22958	0.062669	0.17172	0.10121	0.15737	0.078216	0.029373	0.15305	0.054261	0.19744	0.35505	0.12459	-2.4104	-2.7229	-3.2375	-2.8104	-3.0292	-3.05	-2.9729	-3.1021	-2.9688	-2.8583	-3.05	-2.7604	-3.0833	-3.1146	-2.9271	-3.1271	64.242	198.661	86.802	133.665	-0.562	-123.213	-103.047	-54.300	-96.894	86.400	-57.676	5.581	84.130	69.402	20.657	95.379	8.9276e-05	0.00024192	5.8128e-05	858.02	9.9573e-07	3.0821e-06	930.67	167.91	9.2187e-07	2.763e-06	228.36	66.095	51.746	15.372	3.0675e-06	21.86	0.00022402	0.00027723	7.3577e-05	837.97	3.0052e-06	2.7936e-06	916.85	167.13	2.9328e-06	3.1407e-06	227.89	66.66	52.116	15.562	2.9646e-06	22.056	-103.420	-44.464	-46.920	-123.331	1.625	16.259	-122.947	-115.585	28.051	1.385	-115.791	-109.324	-108.919	-101.618	13.755	-102.172	-8191	255	
752.106	1	1	0	0	0.36705	0.13137	0.11308	0.25526	0.18229	0.16533	0.015605	0.076446	0.067217	0.064614	0.077992	0.12133	0.22693	0.080883	0.10109	0.2932	-2.7458	-2.7562	-3.2188	-2.9604	-3.1104	-3.2438	-3.1167	-3.0812	-3.0062	-2.8417	-3.2188	-2.9208	-3.0583	-3.0125	-2.8458	-3.3271	46.043	77.411	137.416	-63.467	-80.420	-53.264	-84.040	28.083	84.594	175.953	162.608	210.028	220.563	-106.122	182.598	-117.347	0.00011495	0.00027019	4.958e-05	850.06	1.8091e-06	3.0604e-06	929.36	169.8	1.0735e-06	1.8217e-06	229.85	65.556	51.887	15.415	2.7316e-06	21.705	0.00023008	0.00028115	7.2311e-05	838.38	3.128e-06	2.916e-06	915.62	167.45	2.8122e-06	3.0397e-06	228.67	66.492	52.11	15.573	2.8937e-06	21.96	-100.298	-42.577	-6.398	-122.931	-18.194	31.695	-123.203	-115.658	-56.938	70.410	-115.894	-109.120	-108.957	-101.441	-2.418	-102.448	-8191	255	
752.203	1	1	0	0	0.157	0.3364	0.10578	0.081284	0.087013	0.12902	0.11134	0.28725	0.095594	0.23831	0.17152	0.24448	0.037999	0.085906	0.18141	0.16779	-2.6854	-2.7208	-3.1937	-2.8937	-3.0167	-3.1521	-3.0146	-3.175	-2.9458	-2.7812	-3.0875	-2.9896	-2.9021	-3.3	-3.0167	-3.1833	117.509	-39.879	45.722	222.618	7.285	49.403	174.588	163.591	208.374	-82.293	175.477	-54.185	56.799	151.693	-12.495	147.170	0.00012437	0.00018718	6.6007e-05	853.57	1.8439e-06	2.6836e-06	932.47	168.4	1.3917e-06	2.5843e-06	229.37	66.106	52.01	15.488	8.6177e-07	21.747	0.00021957	0.0002709	7.4909e-05	837.72	3.0722e-06	2.8341e-06	916.89	167.25	2.9281e-06	2.8194e-06	228.27	66.51	52.229	15.635	2.9456e-06	22.031	-99.469	-37.498	-40.157	-123.160	-6.924	-4.996	-123.019	-115.713	2.498	14.705	-115.743	-109.645	-108.620	-101.451	39.174	-101.588	-8191	255	
752.299	1	1	0	0	0.20777	0.10333	0.16556	0.10157	0.094879	0.25753	0.24769	0.23798	0.13136	0.44225	0.11482	0.11769	0.038337	0.11092	0.18148	0.097774	-2.7542	-2.75	-3.2021	-3.0812	-2.8875	-3.2188	-3.1104	-3.0479	-3.1188	-2.8563	-3.1229	-3.0792	-2.9667	-3.0583	-3.0187	-3.1125	69.465	137.513	49.373	-106.516	33.957	30.090	137.654	172.943	16.131	89.284	115.922	166.763	128.024	185.069	196.980	164.470	0.0001349	0.00022706	7.4782e-05	855.32	1.9324e-06	4.4647e-07	930.54	169.05	2.3965e-06	3.3898e-06	230.47	66.02	51.954	15.352	2.7104e-06	21.843	0.0002235	0.0002899	7.5542e-05	839.41	3.1013e-06	2.7532e-06	916.02	167.34	2.8851e-06	2.9971e-06	228.36	66.668	52.211	15.611	2.9675e-06	22.053	-105.365	-39.771	-66.404	-122.880	5.760	118.549	-123.239	-115.895	-2.728	29.311	-115.763	-109.287	-108.725	-101.621	-24.234	-102.037	-8191	255	
752.418	1	1	0	0	0.079049	0.10398	0.18362	0.23364	0.0082381	0.15297	0.1695	0.2561	0.080689	0.19901	0.18403	0.18873	0.10733	0.13342	0.15083	0.086178	-2.6979	-2.9	-3.0187	-3.2	-2.8396	-3.2208	-3.0292	-2.8083	-3.1479	-2.8896	-2.9688	-3.2562	-2.6917	-3.2521	-2.7646	-3.0583	35.107	187.805	-87.887	213.605	-112.141	5.777	182.693	112.441	-95.220	-31.796	205.196	173.718	24.776	214.363	47.386	0.557	0.00012131	0.00020097	5.6035e-05	851.11	9.3026e-07	1.9941e-06	929.35	168.34	7.6078e-07	2.7719e-06	230.72	65.9	51.771	15.533	2.5022e-06	21.81	0.0002212	0.00026722	7.4209e-05	836.67	3.0586e-06	2.9219e-06	916.43	167.26	2.8283e-06	3.1979e-06	228.84	66.614	52.158	15.63	3.0728e-06	22.037	-100.504	17.873	-28.479	-123.092	35.632	52.041	-122.892	-115.786	14.892	21.576	-115.646	-109.174	-108.373	-101.547	10.069	-101.883	-8191	255	
752.514	1	1	0	0	0.17472	0.22419	0.099241	0.29365	0.32862	0.10365	0.28413	0.12074	0.13916	0.17067	0.14978	0.23376	0.087554	0.09737	0.20172	0.15025	-2.7938	-2.9354	-2.9917	-3.2208	-2.8896	-3.2687	-3.0583	-2.975	-3.3021	-2.7396	-3.1625	-3.1146	-2.7167	-3.0917	-3.1333	-2.8708	191.989	43.330	69.538	135.387	-34.704	207.029	-54.871	-41.568	-116.252	-50.361	-69.026	184.812	193.991	99.854	51.262	205.892	0.00011415	0.00021878	7.6409e-05	852.22	8.1054e-07	3.4537e-06	931.2	168.08	1.5247e-06	3.4615e-06	228.72	66.004	52.049	15.525	8.2956e-07	21.789	0.00022594	0.00028129	7.8423e-05	835.88	3.1752e-06	2.9796e-06	916.87	167.27	2.8283e-06	3.0581e-06	228.03	66.604	52.253	15.594	2.9356e-06	22.011	-93.376	-70.016	-46.845	-123.375	-6.313	8.597	-122.978	-115.658	-16.843	22.011	-115.561	-109.305	-108.887	-101.480	20.959	-101.989	-8191	255	
752.610	1	1	0	0	0.25491	0.16843	0.051107	0.18481	0.074607	0.37976	0.021875	0.32129	0.059327	0.24829	0.24482	0.038171	0.16407	0.20306	0.10856	0.13616	-2.9208	-2.8438	-3.1333	-3.1792	-2.8833	-3.4542	-3.0771	-2.8271	-3.2583	-2.7417	-3.1083	-3.2562	-2.925	-3.1896	-3.1167	-2.6854	38.265	217.767	216.409	213.724	-82.358	17.753	86.581	41.126	114.816	176.416	160.976	-51.823	214.200	163.844	42.392	24.360	0.00010789	0.00019474	5.4934e-05	849.05	2.7787e-06	1.7579e-06	929.98	167.55	1.4335e-06	2.9485e-06	230.38	66.159	51.987	15.427	1.3304e-06	21.665	0.00021613	0.00028052	7.9432e-05	834.82	3.3607e-06	3.0427e-06	914.87	166.85	2.9267e-06	3.0349e-06	228.78	66.636	52.158	15.592	2.8658e-06	21.995	-96.108	-67.131	-26.432	-122.952	12.403	72.181	-123.003	-115.715	15.799	30.098	-115.809	-109.113	-108.697	-101.665	21.503	-101.965	-8191	255	
752.706	1	1	0	0	0.12411	0.10809	0.070023	0.17363	0.055252	0.19463	0.12785	0.19459	0.098941	0.13332	0.095398	0.10417	0.25046	0.34342	0.14345	0.24724	-2.7083	-2.8396	-2.8521	-3.1729	-2.8729	-3.0687	-3.0938	-2.9437	-3.2917	-2.9729	-2.9229	-3.2854	-2.7583	-3.0021	-3.0708	-2.9375	-73.700	23.809	113.607	183.133	102.063	217.104	147.043	-132.511	175.237	-8.299	153.535	-18.044	198.048	156.583	56.287	18.630	0.00010109	0.00017546	6.4761e-05	848.92	2.8313e-06	2.6101e-06	929.17	168.55	1.8173e-06	2.5856e-06	230.1	66.253	51.861	15.502	2.1843e-06	21.621	0.00022369	0.00028313	8.3242e-05	835.83	3.2694e-06	3.0082e-06	914.01	167.22	3.0525e-06	3.1531e-06	228.57	66.52	52.069	15.64	2.9616e-06	21.976	-101.816	53.537	-77.670	-123.023	18.572	20.408	-123.158	-115.581	-4.548	50.934	-115.885	-109.250	-108.285	-101.153	-11.016	-101.610	-8191	255	
752.802	1	1	0	0	0.18466	0.08093	0.10703	0.39412	0.096648	0.043113	0.19486	0.035314	0.055091	0.057247	0.21418	0.17712	0.20178	0.21054	0.19627	0.070142	-2.6167	-2.9042	-2.6771	-3.225	-2.9229	-2.9437	-3.2792	-3.0479	-3.2271	-2.9313	-3.0854	-3.175	-2.7958	-3.0687	-3.225	-2.9771	111.846	15.962	-30.849	166.743	76.001	167.261	140.977	66.506	-31.243	-75.091	87.964	174.635	-116.209	121.626	-105.971	16.438	0.00010285	0.00022637	7.2081e-05	852.95	1.8799e-06	2.9084e-06	930.49	166.92	1.1407e-06	1.196e-06	230.72	66.369	51.5	15.497	2.8588e-06	21.951	0.00022754	0.00029101	7.7898e-05	836.33	3.1591e-06	3.0761e-06	915.37	166.76	2.9338e-06	3.2654e-06	228.68	66.721	52.069	15.637	3.0204e-06	22.066	-98.733	-8.759	-27.953	-123.222	32.527	16.314	-122.938	-115.505	-3.769	18.113	-115.857	-109.551	-109.022	-101.635	-19.454	-101.693	-8191	255	
752.898	1	1	0	0	0.081996	0.16132	0.20567	0.17419	0.19085	0.15055	0.073783	0.19392	0.19025	0.077192	0.23566	0.1356	0.1904	0.25271	0.1924	0.15794	-2.7521	-2.9229	-2.8688	-3.3417	-2.975	-2.9521	-3.2146	-3.1542	-3.1396	-3.0604	-2.9042	-3.2708	-2.925	-2.8771	-3.2625	-2.9125	-50.611	-7.756	148.696	102.692	218.066	-63.161	12.442	-125.792	191.979	168.867	-132.873	-54.892	33.889	142.277	163.919	193.265	0.00010938	0.000276	5.3178e-05	855.89	2.6531e-06	2.6117e-06	927.64	168.53	2.5607e-06	2.4643e-06	230.08	65.452	51.791	15.436	1.2485e-06	21.755	0.00023142	0.00026505	8.0711e-05	838.12	3.3116e-06	3.0777e-06	914.86	167.39	3.1259e-06	3.0052e-06	228.95	66.491	52.199	15.602	2.8494e-06	22.044	-103.220	-51.952	-25.753	-123.002	12.689	33.678	-123.163	-115.879	1.866	22.259	-115.994	-109.385	-108.867	-101.521	42.174	-102.101	-8191	255	
752.994	1	1	0	0	0.086636	0.088726	0.023196	0.10969	0.057494	0.12095	0.12654	0.1664	0.17106	0.19583	0.38307	0.044478	0.04976	0.19927	0.10876	0.23169	-2.7604	-3.0812	-2.8688	-3.1667	-3.0333	-3.0854	-3.3083	-2.8021	-3.25	-3.1437	-2.8917	-3.1292	-3.0292	-2.9437	-3.2062	-3.0396	190.076	-20.501	185.010	91.161	71.850	151.997	114.725	215.409	216.120	139.039	167.688	-48.964	-69.331	-111.588	206.684	182.210	0.00012272	0.00025017	4.461e-05	852.09	6.8178e-07	2.2162e-06	928.46	167.85	1.7683e-06	2.7468e-06	229.39	65.705	52.21	15.521	2.6957e-06	21.655	0.0002336	0.00028332	7.6767e-05	834.96	3.2563e-06	3.0691e-06	915.08	167.13	3.0705e-06	3.0781e-06	228.82	66.463	52.292	15.659	2.8957e-06	22.008	-104.662	-28.328	-31.127	-123.368	-41.167	37.808	-123.134	-115.985	23.189	22.417	-115.622	-109.218	-108.851	-101.647	40.701	-101.628	-8191	255	
753.115	1	1	0	0	0.066121	0.10983	0.067884	0.18976	0.16046	0.067715	0.17426	0.070399	0.069256	0.19846	0.3402	0.35755	0.077045	0.12709	0.16714	0.090916	-2.525	-2.9375	-2.6083	-3.2833	-3.0583	-2.9292	-3.5062	-3.1125	-2.8708	-3.1521	-2.8042	-3.3333	-3.0187	-2.9333	-3.1813	-3.0146	26.584	-42.269	-6.381	60.685	-58.183	80.748	85.074	43.770	54.360	-43.916	106.179	175.631	-74.401	59.137	-69.923	120.882	0.00011024	0.00035107	8.4246e-05	852.98	1.495e-06	1.9526e-06	927.54	167.74	7.6585e-07	1.2088e-06	230.63	66.235	51.395	15.465	1.5986e-06	21.733	0.00022035	0.00027041	7.9836e-05	836.68	3.2839e-06	2.978e-06	913.52	167.04	3.0208e-06	3.0797e-06	228.54	66.583	52.045	15.599	2.9561e-06	22.003	-99.553	-65.223	-35.844	-123.134	75.956	-24.515	-123.112	-115.938	-4.404	10.444	-116.004	-109.204	-108.822	-101.136	10.696	-101.873	-8191	255	
753.211	1	1	0	0	0.22933	0.15518	0.16555	0.35102	0.15669	0.01925	0.094873	0.19851	0.070163	0.056527	0.27783	0.2645	0.099429	0.11378	0.11045	0.18011	-2.55	-2.9875	-2.8563	-3.2458	-2.9729	-2.8937	-3.4292	-2.9958	-2.8854	-3.3583	-2.9792	-3.125	-3.2708	-2.5917	-3.2771	-3.2188	150.652	53.788	-101.045	183.155	134.980	154.323	60.232	207.955	53.354	105.021	-39.147	34.366	48.556	-55.719	149.460	121.060	0.00011495	0.00030493	0.00010632	853.65	1.9568e-06	3.0308e-06	928.18	166.96	9.8478e-07	2.804e-06	229.57	66.147	51.553	15.559	1.2952e-06	21.643	0.00023339	0.00027641	7.853e-05	837.48	3.0688e-06	3.2847e-06	914.59	166.78	3.1206e-06	2.9744e-06	228.25	66.668	52.098	15.64	3.0862e-06	21.97	-99.397	-37.822	-22.272	-123.177	36.615	0.743	-122.981	-115.915	-1.980	17.299	-116.141	-109.464	-108.654	-101.042	-36.451	-101.927	-8191	255	
753.307	1	1	0	0	0.18724	0.11282	0.20597	0.030033	0.12384	0.13443	0.2093	0.14724	0.092773	0.064804	0.048374	0.084384	0.1916	0.22015	0.21371	0.18804	-2.3771	-3.0917	-2.7958	-3.0375	-2.9104	-2.85	-3.425	-2.7771	-2.7958	-3.2604	-2.9521	-3.075	-3.2104	-2.8937	-3.0375	-3.1125	211.758	1.929	163.856	-87.862	113.951	-55.912	67.676	90.363	149.277	107.156	170.017	49.933	-98.477	-43.649	-39.610	6.179	0.00012852	0.00025975	4.955e-05	853.25	2.0391e-06	1.5758e-06	931.02	167.52	2.0341e-06	3.2511e-06	227.84	65.927	51.788	15.515	1.2546e-06	21.806	0.00023489	0.00027631	7.8773e-05	837.91	3.2937e-06	3.1952e-06	915.34	166.72	3.0762e-06	3.097e-06	227.73	66.563	52.197	15.66	3.1092e-06	21.997	-93.566	-83.035	-44.710	-123.348	17.145	3.171	-123.021	-115.867	17.893	30.567	-116.086	-109.149	-108.571	-101.231	-13.577	-101.966	-8191	255	
753.379	1	1	0	0	0.19683	0.15696	0.10345	0.064605	0.15642	0.15728	0.13644	0.047618	0.14514	0.2097	0.14223	0.13412	0.33153	0.041607	0.15324	0.16105	-2.4583	-3.1583	-2.8292	-3.1167	-2.8833	-2.65	-3.5062	-3.1958	-2.7687	-3.2125	-3.0271	-2.9979	-3.2	-2.8083	-3.0854	-3.1188	-84.253	28.981	111.512	33.252	195.721	38.745	125.273	-7.598	-34.787	127.682	226.138	-46.275	168.132	169.585	79.756	-12.848	0.00010127	0.0001555	5.0427e-05	852.93	9.2952e-07	3.5055e-06	929.18	168.45	2.3417e-06	1.7833e-06	229.98	66.268	51.823	15.531	2.4526e-06	21.923	0.00023158	0.00028037	7.8746e-05	836.5	3.0669e-06	3.1974e-06	915.65	167.32	3.0847e-06	2.9809e-06	228.72	66.704	52.14	15.644	3.0698e-06	22.063	-99.132	20.522	-26.090	-122.884	22.431	30.860	-122.976	-115.534	-20.076	32.175	-115.913	-109.191	-108.481	-101.602	26.037	-101.831	-8191	255	
753.498	1	1	0	0	0.23812	0.30676	0.054191	0.15433	0.13576	0.028728	0.2122	0.15724	0.096371	0.40137	0.060252	0.095141	0.13609	0.18903	0.038259	0.24382	-2.5146	-3.2	-3.05	-2.9667	-3.1375	-2.7646	-3.0604	-3.1958	-2.8208	-3.0917	-2.9708	-2.8729	-3.1792	-3.1208	-3.1	-3.1854	8.766	-61.825	198.480	-118.925	-106.310	-59.701	90.841	131.583	-116.020	-26.458	-128.408	46.350	-83.236	70.738	-38.928	224.497	0.00012826	0.00023609	7.9782e-05	847.51	2.6618e-06	2.9796e-06	930.94	168.62	2.6038e-06	2.3456e-06	229.43	66.138	52.25	15.531	2.4397e-06	21.64	0.00023885	0.00026833	7.7157e-05	836.26	3.0727e-06	3.1736e-06	915.72	167.14	3.1784e-06	3.084e-06	228.26	66.699	52.335	15.628	3.1047e-06	21.99	-105.786	-28.221	-33.144	-123.255	-23.033	12.985	-123.050	-115.833	21.788	32.500	-116.053	-109.123	-108.425	-101.417	35.016	-102.157	-8191	255	
753.594	1	1	0	0	0.094581	0.14019	0.35093	0.20411	0.12928	0.098258	0.117	0.2266	0.097621	0.13768	0.17528	0.34381	0.10541	0.044748	0.055433	0.2966	-2.4583	-3.3521	-2.9125	-2.9938	-3.2042	-2.8438	-3.2125	-3.1167	-2.8438	-3.2	-2.9979	-2.925	-3.3792	-2.8458	-3.0583	-3.1854	-116.829	162.652	126.710	69.286	130.988	35.271	-6.228	100.348	104.744	168.771	143.728	156.637	206.377	41.775	-82.118	88.354	0.00011868	0.00021435	0.00011568	850.46	1.6952e-06	1.6737e-06	926.63	168.13	9.2372e-07	1.6472e-06	229.05	65.928	51.853	15.499	2.5634e-06	21.706	0.00022555	0.00027921	8.2838e-05	836.33	3.1747e-06	3.0572e-06	913.55	167	3.1088e-06	3.0246e-06	228.25	66.481	52.173	15.588	2.9895e-06	21.997	-97.314	-0.356	-67.139	-122.961	38.191	30.251	-122.770	-115.538	13.023	12.191	-115.988	-109.088	-108.634	-101.377	38.661	-102.310	-8191	255	
753.690	1	1	0	0	0.17092	0.030647	0.24445	0.15254	0.17752	0.071242	0.028762	0.19927	0.21647	0.15921	0.022508	0.44191	0.093019	0.35941	0.26049	0.10714	-2.3167	-3.3125	-3.0687	-2.8021	-3.3688	-2.7062	-2.8896	-3.3187	-2.825	-3.1646	-3.2604	-2.8354	-3.2	-3.1021	-3	-3.2292	198.231	3.483	187.439	-107.256	-95.990	-6.557	145.241	-24.582	132.032	218.384	143.254	-114.143	177.259	-123.680	-104.600	23.941	0.00011414	0.00011847	5.5342e-05	847.06	3.52e-06	2.6709e-06	927.55	168.45	1.0751e-06	1.502e-06	230.24	66.462	52.124	15.518	2.7386e-06	21.936	0.00022563	0.00028115	7.7198e-05	834.09	3.1931e-06	3.0712e-06	913.84	166.89	3.1292e-06	3.0457e-06	228.53	66.663	52.203	15.606	2.999e-06	22.046	-101.392	-36.293	-60.884	-123.085	28.536	16.614	-122.843	-115.711	21.171	40.186	-115.810	-109.170	-108.573	-101.448	7.101	-101.858	-8191	255	
753.786	1	1	0	0	0.20579	0.060132	0.21978	0.25831	0.15089	0.15736	0.31632	0.20753	0.20865	0.20447	0.19725	0.067838	0.068305	0.25041	0.22211	0.23357	-2.4708	-3.0479	-3.1	-2.9208	-3.0604	-2.8875	-3.1646	-3.2333	-2.9958	-3.0479	-3.2208	-2.8875	-3.2375	-3.05	-2.9479	-3.4458	63.336	173.289	170.321	93.985	184.223	58.504	171.225	163.434	207.816	165.483	202.750	68.880	-130.505	156.939	-68.854	137.338	0.00010381	0.00030823	6.5735e-05	853.76	1.1662e-06	2.7104e-06	927.08	168.55	6.5774e-07	2.1392e-06	229.67	65.9	51.959	15.485	1.2688e-06	21.778	0.00024395	0.00028255	7.8032e-05	836.97	3.1926e-06	3.0534e-06	912.83	167.02	3.2413e-06	3.1072e-06	228.72	66.636	52.163	15.592	3.1072e-06	22.049	-94.267	-52.692	-6.159	-123.382	8.556	15.163	-122.893	-115.733	2.695	34.567	-116.190	-109.187	-108.436	-101.365	-15.211	-102.175	-8191	255	
753.907	1	1	0	0	0.13946	0.14304	0.025236	0.094179	0.28256	0.25135	0.0059858	0.14802	0.19202	0.28609	0.084692	0.15487	0.071448	0.14468	0.2475	0.022731	-2.5187	-2.9896	-3.2375	-2.9729	-3.1708	-3.0687	-3.0583	-3.1979	-2.9354	-3.225	-3.1167	-2.9604	-3.2104	-3.0833	-2.9021	-3.3458	212.694	-22.435	207.694	161.849	193.938	6.023	107.076	222.004	183.180	151.824	168.495	219.108	97.914	-67.704	118.683	3.657	0.00010893	0.00017921	2.6814e-05	849.37	1.8554e-06	2.081e-06	931.82	168.58	4.2427e-07	2.8816e-06	230.54	66.628	52.063	15.52	1.93e-06	21.733	0.00023461	0.00027965	7.6296e-05	836.15	3.2019e-06	3.1273e-06	914.83	167.05	3.0653e-06	3.0953e-06	228.2	66.714	52.24	15.644	3.1092e-06	21.96	-108.281	-1.347	-59.240	-122.983	-2.959	-3.348	-123.286	-115.382	45.167	45.809	-116.042	-109.530	-108.484	-101.881	33.669	-101.940	-8191	255	
754.003	1	1	0	0	0.22989	0.028917	0.33538	0.29188	0.09822	0.21257	0.21513	0.15407	0.19892	0.1457	0.12847	0.045185	0.08733	0.34598	0.034747	0.12922	-2.3208	-3.0875	-3.0854	-2.8312	-3.0646	-3.0667	-2.9271	-3.1479	-3.1396	-2.8937	-3.0979	-2.8646	-3.1229	-2.6979	-3.0583	-3.2875	28.505	-63.696	-40.585	172.387	-2.115	32.454	212.594	-68.841	-46.094	106.356	141.762	145.285	122.934	197.012	-119.358	-99.001	0.00010678	0.00021214	0.00010767	849.79	1.7712e-06	3.7024e-06	928.48	168.16	1.983e-06	1.981e-06	230.67	65.863	51.515	15.435	2.158e-06	21.745	0.00022459	0.00028308	7.3873e-05	834.52	3.179e-06	3.0637e-06	913.94	166.92	3.0118e-06	3.1213e-06	228.86	66.426	52.017	15.615	3.0628e-06	21.976	-95.077	-40.276	-64.030	-123.002	33.523	33.017	-123.086	-115.909	-2.605	-11.773	-115.985	-109.050	-108.517	-101.288	36.125	-102.137	-8191	255	
754.099	1	1	0	0	0.10725	0.27908	0.10988	0.063873	0.18332	0.07902	0.29391	0.051551	0.2175	0.21067	0.19833	0.13358	0.15076	0.26127	0.12976	0.081639	-2.6271	-2.9521	-3.1042	-2.9354	-3.1167	-3.0771	-2.8375	-3.1125	-3.0042	-2.9083	-3.1458	-2.9938	-2.9083	-3.0271	-2.8792	-3.1437	10.451	82.431	99.878	106.877	167.004	155.245	87.640	83.895	104.460	115.885	167.929	172.092	136.969	214.999	162.268	131.047	0.00010925	0.00019717	8.1898e-05	847.19	1.5088e-06	2.458e-06	929.99	167.92	1.31e-06	2.6448e-06	230.01	65.939	51.62	15.491	3.4672e-06	21.869	0.00023665	0.0002882	7.3927e-05	833.68	3.0979e-06	2.9187e-06	914.98	167.08	3.0133e-06	3.1958e-06	228.45	66.655	52.136	15.592	3.0099e-06	21.985	-103.707	-57.033	-40.492	-123.080	54.896	3.413	-122.847	-115.860	63.745	23.108	-115.586	-108.950	-108.401	-101.138	24.275	-102.006	-8191	255	
754.195	1	1	0	0	0.21543	0.31674	0.035651	0.23333	0.21065	0.056504	0.13737	0.19828	0.0065239	0.16709	0.21414	0.088665	0.088541	0.060987	0.2166	0.18336	-2.5479	-2.7104	-3.05	-2.9313	-3.1521	-3.2083	-2.8917	-3.3583	-3.0979	-2.9708	-3.2417	-3.1104	-3.0083	-3.1896	-2.8458	-3.2417	9.913	-81.336	108.042	-81.999	15.910	43.979	165.237	109.885	-76.547	-124.161	187.964	195.142	-112.469	189.584	-87.404	-90.612	0.00011735	0.00022667	7.9691e-05	848.29	1.4914e-06	1.599e-06	926.84	167.61	1.4289e-06	2.5335e-06	230.29	66.093	52.01	15.542	1.7685e-06	21.808	0.00023474	0.00028153	7.8019e-05	835.12	3.0649e-06	2.9052e-06	912.85	166.73	3.1557e-06	3.158e-06	227.84	66.578	52.038	15.611	3.0433e-06	21.982	-105.943	-39.721	-44.736	-123.327	48.433	22.484	-122.901	-115.657	3.832	53.962	-115.463	-109.623	-108.523	-101.736	30.447	-101.871	-8191	255	
754.292	1	1	0	0	0.16208	0.19329	0.15952	0.25658	0.17379	0.21338	0.24043	0.07965	0.20413	0.10142	0.056919	0.025593	0.21194	0.11312	0.030888	0.34466	-2.7646	-2.7521	-3.1104	-2.7958	-3.0604	-3.1958	-3.0792	-3.1604	-3.1771	-2.8458	-3.3208	-2.9562	-2.9104	-3.1042	-2.7333	-3.2562	-86.254	47.673	166.910	225.296	-4.782	117.035	94.738	158.943	189.853	4.194	-129.893	153.909	148.662	167.669	203.627	-95.512	0.00013108	0.00027798	7.18e-05	848.42	1.2234e-06	3.0856e-06	927.6	168.72	1.7056e-06	2.8391e-06	230.76	65.645	51.861	15.443	1.4533e-06	21.835	0.00022925	0.00029314	7.8086e-05	833.96	3.1606e-06	2.9068e-06	913.71	166.94	3.0194e-06	3.2476e-06	228.21	66.487	52.165	15.609	3.0349e-06	22.039	-106.740	-34.177	-5.869	-123.207	32.820	64.983	-123.055	-115.636	-10.469	17.797	-115.811	-109.248	-108.519	-101.002	-23.664	-101.765	-8191	255	
754.388	1	1	0	0	0.14723	0.19734	0.1907	0.06912	0.15749	0.011362	0.19485	0.1391	0.23187	0.11128	0.13932	0.21363	0.047027	0.064856	0.22497	0.20102	-2.775	-2.7542	-3.075	-3.2188	-2.8875	-3.2396	-3.0771	-3.1125	-3.2333	-2.7792	-3.1958	-3.1521	-2.7729	-3.2083	-2.8688	-3.1	175.220	196.030	-81.149	-88.026	-118.669	-32.291	157.092	218.333	192.486	-18.035	198.586	157.829	205.455	-75.564	-44.835	66.373	0.00011448	0.00019933	7.2266e-05	851.21	3.4945e-06	1.7465e-06	925.75	168.52	1.087e-06	2.1362e-06	229.65	66.017	51.665	15.516	2.3823e-06	21.706	0.00023368	0.00029541	7.4411e-05	834.71	3.1965e-06	3.0928e-06	912.72	167.29	2.8136e-06	3.1024e-06	228.53	66.568	51.997	15.617	3.0184e-06	21.989	-97.751	-59.125	2.855	-123.034	-2.742	8.155	-123.104	-115.661	4.121	14.418	-116.023	-109.201	-108.893	-101.678	14.776	-102.613	-8191	255	
754.507	1	1	0	0	0.16326	0.22227	0.17562	0.35175	0.045297	0.37255	0.24877	0.12884	0.1971	0.046688	0.10113	0.24141	0.3293	0.13885	0.072597	0.36067	-2.7812	-2.7083	-3.2042	-2.9771	-2.95	-3.2271	-3.1875	-3.0563	-3.2021	-2.875	-3.3125	-3.1042	-2.7687	-3.2854	-3.0417	-3.0292	48.059	31.960	-130.353	205.569	171.167	215.338	156.455	123.999	206.982	-125.253	210.121	-120.406	213.089	83.000	-38.619	-131.461	9.9865e-05	0.00023193	5.5085e-05	850.97	1.1017e-06	4.1908e-06	927.78	167.56	1.3343e-06	1.9622e-06	228.48	66.088	51.794	15.51	1.8613e-06	21.607	0.00022213	0.00028448	7.5152e-05	835.91	3.1795e-06	3.047e-06	913.14	166.7	2.9953e-06	3.3356e-06	227.84	66.633	52.107	15.582	3.1894e-06	21.959	-105.193	-41.499	-32.476	-122.987	26.400	5.918	-122.906	-115.719	33.671	-5.878	-116.149	-109.271	-108.297	-101.902	61.099	-102.249	-8191	255	
754.603	1	1	0	0	0.13001	0.25077	0.10676	0.18494	0.13999	0.10536	0.049299	0.31475	0.19088	0.077059	0.20372	0.29603	0.11588	0.24734	0.10955	0.0827	-2.7604	-3.0167	-3.0292	-3.2021	-2.7104	-3.0875	-3.1354	-2.9833	-3.1458	-2.9896	-3.1604	-3.1208	-2.8292	-3.1083	-3.0542	-2.8208	-109.597	-115.676	98.700	206.987	168.373	51.363	179.293	118.181	221.266	215.118	-61.559	-132.812	94.074	-39.873	135.128	95.203	0.00010643	0.00026112	3.2226e-05	846.76	2.8417e-06	1.4786e-06	925.45	168.36	1.5882e-06	1.934e-06	230.36	66.278	51.896	15.374	1.6955e-06	21.792	0.00022195	0.00027747	7.6686e-05	832.69	3.3009e-06	3.0782e-06	912.64	166.8	2.903e-06	2.9987e-06	228.61	66.742	51.993	15.582	2.9286e-06	22.016	-95.958	-40.444	-31.616	-122.909	-19.519	60.653	-122.929	-115.777	47.678	4.029	-115.921	-109.259	-108.802	-101.507	7.719	-102.078	-8191	255	
754.674	1	1	0	0	0.17841	0.067444	0.11546	0.20551	0.18582	0.25173	0.082829	0.143	0.2295	0.047362	0.2021	0.25515	0.15597	0.088594	0.061538	0.20628	-2.7542	-3.0542	-2.9396	-3.1542	-2.8104	-3.2104	-3.1958	-2.8375	-3.3792	-2.8958	-3.3167	-3.225	-2.8875	-3.1125	-3.125	-2.7062	-120.264	118.243	-94.164	194.113	215.528	-16.593	101.385	105.664	22.726	35.010	-119.275	171.112	99.794	122.293	17.790	182.357	8.6608e-05	0.00027095	5.0628e-05	849.16	1.0833e-06	2.5515e-06	927.4	167.87	1.5753e-06	2.5979e-06	229.77	65.756	51.973	15.491	3.7298e-06	21.657	0.00022182	0.00029217	7.9405e-05	833.17	3.1912e-06	3.1063e-06	912.25	166.87	3.0189e-06	3.0802e-06	228.19	66.5	52.139	15.616	2.7686e-06	21.981	-107.438	-26.575	-2.643	-123.246	70.879	10.320	-123.076	-115.265	-5.872	-34.052	-116.053	-109.081	-108.569	-101.378	7.484	-101.921	-8191	255	
754.771	1	1	0	0	0.093527	0.24205	0.095423	0.22061	0.089945	0.22121	0.15545	0.17217	0.051829	0.028	0.33368	0.18513	0.029015	0.17001	0.23058	0.094212	-2.7687	-2.7979	-2.9292	-3.1417	-2.8312	-2.9833	-3.15	-3.0625	-3.1042	-3.0938	-3.2313	-3.4125	-2.9313	-3	-3.0771	-2.8333	-72.329	-129.297	-113.035	182.813	116.277	-116.235	-80.288	171.878	61.467	-95.676	-102.697	-130.769	168.942	-41.961	-95.716	-43.376	0.0001023	0.00024958	4.4437e-05	847.63	2.6794e-06	2.8448e-06	925.15	167.2	5.9735e-07	2.743e-06	230.51	65.656	51.359	15.493	1.7968e-06	21.721	0.00022969	0.00027723	7.3873e-05	832.92	3.197e-06	3.0378e-06	912.01	166.74	2.8241e-06	2.9981e-06	228.28	66.416	52.022	15.609	2.8449e-06	21.95	-97.980	-32.361	-53.113	-123.053	29.416	17.044	-122.954	-115.586	-14.709	39.079	-115.664	-109.309	-108.597	-101.784	58.418	-101.711	-8191	255	
754.891	1	1	0	0	0.072373	0.11683	0.17377	0.35755	0.26442	0.14004	0.29489	0.23453	0.099953	0.34858	0.11167	0.1048	0.21349	0.12275	0.022803	0.18282	-2.7854	-2.9	-2.875	-3.2229	-3.0667	-2.9437	-3.3125	-2.6375	-3.1937	-2.9875	-2.9688	-3.3104	-3.1146	-2.9938	-3.1667	-2.825	63.998	65.177	104.413	207.851	176.248	-62.423	117.418	216.798	216.192	-3.173	-83.022	210.851	128.507	-80.589	12.929	-85.071	0.00010883	0.00019526	5.6178e-05	848.89	9.4491e-07	2.8488e-06	929.34	167.88	1.3175e-06	2.3698e-06	229.36	66.102	52.047	15.508	1.1747e-06	21.632	0.0002218	0.00027902	8.0859e-05	833.83	3.2961e-06	2.8907e-06	912.7	166.87	3.15e-06	2.881e-06	228.31	66.613	52.078	15.574	2.8947e-06	21.991	-93.171	-43.432	-39.555	-123.072	58.182	36.509	-123.235	-115.754	27.956	17.236	-115.531	-109.010	-108.932	-101.423	-22.311	-101.742	-8191	255	
754.987	1	1	0	0	0.15437	0.07578	0.32118	0.11922	0.13249	0.14865	0.25755	0.035286	0.18445	0.1337	0.21831	0.26857	0.24644	0.34501	0.15166	0.067986	-2.8063	-2.925	-2.825	-3.175	-3.0979	-2.9229	-3.4792	-2.8042	-3.1583	-3.0792	-2.9229	-3.45	-2.825	-2.8812	-3.1375	-2.8875	17.628	-90.367	181.899	136.513	38.526	58.842	196.696	166.091	-49.849	-26.854	165.528	-122.659	54.078	-36.081	165.239	142.976	0.00012583	0.00026346	9.2515e-05	851.82	3.1608e-06	2.1916e-06	925.81	168.3	1.5825e-06	3.5256e-06	229.53	65.606	51.702	15.452	2.6893e-06	21.61	0.00022902	0.00028042	8.0307e-05	834.33	3.2281e-06	2.9947e-06	912.32	167.15	2.9253e-06	2.9949e-06	228.13	66.339	52.155	15.591	2.7407e-06	21.946	-101.714	-54.181	-38.206	-123.230	-42.716	7.448	-123.232	-115.902	67.132	16.408	-115.947	-108.893	-108.950	-101.725	33.709	-102.012	-8191	255	
755.084	1	1	0	0	0.24143	0.12112	0.13245	0.21735	0.11823	0.025333	0.29474	0.15908	0.024057	0.079044	0.17844	0.1806	0.049356	0.19147	0.18033	0.051034	-2.8729	-2.9771	-2.8688	-3.0875	-3.1063	-2.9646	-3.4146	-2.8958	-3.0167	-3.1125	-2.7354	-3.2271	-3.0792	-2.9896	-3.2875	-2.9521	12.372	113.266	-37.673	131.317	-43.982	-73.252	191.256	76.368	25.592	210.627	-73.205	-85.943	-76.332	213.820	-21.822	92.851	0.00011647	0.00031133	5.136e-05	849.54	2.2394e-06	2.729e-06	928.04	167.69	9.0404e-07	2.5543e-06	229.66	65.76	52.029	15.443	2.0262e-06	21.856	0.00022788	0.00027824	8.2232e-05	833.45	3.1834e-06	2.9974e-06	912.28	167.03	2.9343e-06	2.6925e-06	228.48	66.355	52.125	15.603	3.0538e-06	21.941	-94.600	-58.721	-54.561	-123.203	-6.186	19.514	-123.067	-115.847	12.205	27.398	-115.651	-109.412	-108.684	-101.376	-8.993	-101.660	-8191	255	
755.180	1	1	0	0	0.18694	0.10458	0.27764	0.22308	0.27718	0.11697	0.26466	0.012964	0.13242	0.13341	0.22607	0.2315	0.18644	0.094951	0.16157	0.1137	-2.6104	-3.1333	-2.8229	-3.2208	-3.1771	-2.8312	-3.5521	-3	-2.9104	-3.1688	-2.8812	-3.3021	-3.2	-2.9062	-3.1354	-3.0021	37.115	30.041	125.859	109.678	225.588	210.109	100.817	201.769	-100.109	3.461	121.994	196.757	205.225	161.963	-84.299	-72.899	0.00010714	0.00014116	9.2675e-05	846.82	1.3753e-06	3.1553e-06	925.7	167.24	8.4617e-07	2.404e-06	229.73	66.695	52.162	15.492	2.6793e-06	21.802	0.00023453	0.00029091	8.2717e-05	833.62	2.9974e-06	3.3224e-06	911.77	166.66	3.0634e-06	2.9436e-06	227.78	66.791	52.115	15.597	2.978e-06	21.962	-99.936	-31.236	-12.125	-123.049	40.071	-18.259	-122.821	-115.550	-12.366	0.396	-115.806	-109.174	-108.868	-101.019	-7.311	-102.375	-8191	255	
755.276	1	1	0	0	0.27926	0.12969	0.36117	0.11428	0.22582	0.15675	0.33869	0.08126	0.2505	0.10662	0.022396	0.14099	0.1731	0.22843	0.1652	0.18686	-2.6063	-2.8729	-2.9354	-3.1417	-3.0271	-2.9896	-3.2229	-3.2583	-2.9167	-3.3458	-2.8417	-3.1688	-3.2542	-2.6937	-3.1458	-3.0312	90.506	11.383	129.317	205.481	-57.770	-72.921	161.770	142.147	110.741	173.810	96.105	130.026	183.156	-74.400	57.598	-1.200	0.00011482	0.00032911	5.6616e-05	850.51	5.0284e-07	2.7096e-06	924.65	167.31	2.1008e-06	1.6926e-06	230.93	66.169	51.768	15.377	3.6108e-06	21.819	0.00022736	0.00028115	7.9405e-05	834.52	3.1072e-06	3.1289e-06	911.31	166.42	3.1348e-06	3.098e-06	228.52	66.601	52.059	15.554	2.9646e-06	22.016	-99.804	-54.343	-30.167	-122.991	-14.965	-8.804	-122.757	-115.590	-2.554	52.875	-116.001	-109.276	-108.523	-101.077	-3.172	-102.429	-8191	255	
755.372	1	1	0	0	0.17077	0.12216	0.15204	0.20491	0.11401	0.25431	0.11088	0.019847	0.046986	0.2916	0.16998	0.35012	0.15888	0.10039	0.45297	0.18564	-2.6437	-3.1188	-2.7792	-3.1104	-3.2396	-2.9771	-3.2833	-2.9354	-2.9896	-3.225	-2.7146	-3.1083	-3.1542	-2.8021	-3.2083	-2.8417	-125.770	82.369	185.949	181.666	172.297	-130.190	108.001	170.784	88.450	-70.791	-75.084	-81.671	143.072	188.081	183.177	185.316	0.00010226	0.00034366	8.8216e-05	847.05	1.1548e-06	3.6089e-06	921.63	167.66	7.3163e-07	3.3058e-06	229.8	65.821	51.675	15.477	2.4139e-06	21.593	0.00023062	0.0002577	7.6888e-05	833.05	3.0834e-06	3.0243e-06	910.92	166.67	2.9177e-06	3.0473e-06	228.24	66.59	52.043	15.604	2.7935e-06	21.967	-107.729	-25.017	-28.034	-123.159	-18.222	8.632	-123.008	-115.746	-74.678	23.434	-115.614	-109.420	-108.517	-101.610	54.496	-102.076	-8191	255	
755.468	1	1	0	0	0.19739	0.15533	0.093332	0.16771	0.11255	0.1273	0.13732	0.082681	0.21083	0.045521	0.1401	0.16743	0.14315	0.019805	0.018866	0.23646	-2.5229	-3.1833	-2.9042	-2.9813	-3.0354	-2.9521	-3.2271	-3.1417	-2.825	-3.3167	-3.0646	-2.875	-3.2042	-2.8417	-3.1042	-3.0854	-5.581	-19.760	-78.546	72.082	-102.333	181.755	101.880	155.721	-60.867	39.610	123.271	20.104	50.001	-18.095	-71.933	162.299	0.00011163	0.00023064	6.1345e-05	848.92	2.9983e-06	2.8524e-06	929.17	168.51	2.0075e-06	1.4176e-06	231.36	65.945	51.949	15.444	1.4586e-06	21.723	0.00023194	0.00027742	7.9432e-05	834.99	3.1251e-06	3.1963e-06	913.21	167.15	3.1306e-06	2.9323e-06	228.67	66.409	52.16	15.618	3.153e-06	21.965	-100.499	-27.083	-36.686	-122.780	-6.586	12.652	-122.998	-115.442	-34.685	19.260	-115.471	-109.237	-109.021	-101.587	58.510	-101.924	-8191	255	
755.587	1	1	0	0	0.072927	0.21866	0.22229	0.11424	0.078143	0.088209	0.12593	0.10119	0.12427	0.12782	0.032661	0.097211	0.070077	0.17239	0.20016	0.032447	-2.4125	-3.1354	-2.9417	-2.9771	-3.0333	-2.95	-3.1708	-3.2354	-2.9417	-3.0563	-3.0167	-3.0875	-3.2375	-2.8896	-3.2229	-3.0938	40.915	107.850	107.613	-82.087	-104.970	-26.139	95.854	8.722	-57.777	-45.155	-112.731	174.484	-64.154	165.797	223.778	98.519	0.00011656	0.00024085	5.4133e-05	846.16	1.2686e-06	5.1394e-07	926.47	168.15	1.5153e-06	2.8934e-06	229.94	66.573	51.976	15.47	2.662e-06	21.686	0.00022733	0.00028714	7.1571e-05	833.11	3.1227e-06	2.9025e-06	912.14	166.99	2.9541e-06	3.0365e-06	228.18	66.711	52.181	15.615	3.0389e-06	21.941	-105.668	-49.657	-52.603	-123.224	19.605	-9.200	-123.084	-115.566	-7.665	54.499	-116.054	-109.292	-108.417	-101.138	32.971	-102.148	-8191	255	
755.683	1	1	0	0	0.16979	0.2568	0.094107	0.18117	0.078013	0.068937	0.21909	0.15408	0.22158	0.17115	0.15881	0.041538	0.075715	0.048894	0.044792	0.162	-2.7667	-2.9917	-2.9958	-3.0833	-3.1604	-3.0062	-3.3187	-3.1354	-2.75	-3.2	-3.0187	-2.9667	-3.2667	-2.8833	-3.1896	-3.2667	35.919	-118.453	-12.264	180.097	86.487	-87.832	172.081	209.952	200.896	148.796	208.135	-43.671	180.127	-36.701	170.662	-118.493	0.00010464	0.00022676	6.9584e-05	849.7	2.4919e-06	3.4448e-06	925.09	169.03	1.0786e-06	1.6837e-06	229.42	65.557	51.868	15.529	2.3963e-06	21.669	0.00023003	0.000278	7.7184e-05	834.69	3.1883e-06	3.0243e-06	911.11	167.13	3.0672e-06	2.8707e-06	228.16	66.432	52.175	15.61	2.9391e-06	21.982	-95.020	-53.382	-41.658	-122.959	13.719	-12.089	-122.687	-115.819	-35.571	13.082	-115.792	-109.319	-108.545	-101.199	32.274	-101.786	-8191	255	
755.779	1	1	0	0	0.22463	0.18993	0.12746	0.079227	0.12297	0.033512	0.23071	0.024136	0.21535	0.28129	0.14248	0.19632	0.074786	0.082728	0.1267	0.25371	-2.4354	-3.0667	-3.2375	-2.7646	-3.1063	-3.175	-3.0563	-3.3312	-2.8375	-3.1021	-3.2604	-2.8333	-3.3958	-2.925	-2.9271	-3.4979	69.814	-85.143	75.523	66.076	199.409	-29.606	198.159	-103.535	214.493	196.485	166.189	135.262	174.373	-22.772	202.502	121.794	0.00012131	0.00019316	9.0947e-05	849.02	8.6938e-07	3.5446e-06	927.65	168.26	1.5403e-06	1.9438e-06	230.39	66.688	51.555	15.427	2.8825e-06	21.905	0.0002257	0.00028163	7.6888e-05	834.82	3.0037e-06	3.2329e-06	911.56	167.2	2.9385e-06	3.0079e-06	228.5	66.895	52.113	15.548	3.0787e-06	22.047	-98.584	-36.570	-30.763	-123.059	38.715	21.183	-123.050	-115.828	13.301	20.180	-115.838	-109.212	-108.395	-101.771	28.947	-102.146	-8191	255	
755.900	1	1	0	0	0.11422	0.074272	0.19314	0.19041	0.2628	0.10627	0.25961	0.075872	0.10268	0.18481	0.13945	0.31921	0.1663	0.31046	0.22293	0.060692	-2.5187	-2.8979	-3.0771	-3.0042	-3.2333	-2.9583	-3.1292	-3.2062	-2.8854	-3.1542	-3.2313	-2.8604	-3.1146	-3.0583	-2.7917	-3.1479	210.862	47.418	135.888	189.237	-15.482	6.141	199.234	-83.291	23.139	-32.640	192.094	41.698	141.553	102.659	51.789	-18.438	0.0001014	0.00011072	9.1931e-05	852.55	1.9578e-06	3.5417e-06	926	168.65	1.0625e-06	3.8713e-06	231.03	65.778	52.008	15.556	2.4147e-06	21.595	0.00023399	0.00027873	7.4452e-05	835.48	3.1523e-06	3.11e-06	911.72	166.97	2.8581e-06	2.8421e-06	228.31	66.575	52.173	15.62	2.9436e-06	21.966	-103.295	-117.610	-59.439	-122.905	-3.373	8.254	-123.059	-115.618	12.902	27.398	-115.679	-109.251	-108.625	-101.721	22.871	-101.549	-8191	255	
755.972	1	1	0	0	0.18383	0.20601	0.18442	0.11428	0.1051	0.044212	0.10736	0.24308	0.073093	0.037393	0.1156	0.11478	0.18319	0.10729	0.21065	0.223	-2.5625	-3.0479	-3.1271	-2.8312	-2.9813	-2.9896	-3	-3.2458	-2.9188	-3.0229	-3.1271	-2.95	-2.9938	-3.0938	-2.9333	-3.1271	172.857	-22.819	177.262	211.414	199.004	107.557	-58.842	202.244	64.855	153.452	193.557	110.860	89.235	-88.462	70.382	209.847	0.00011636	0.00034679	7.5001e-05	845.93	2.0573e-06	2.5989e-06	926.33	167.33	1.8229e-06	2.0428e-06	231.15	65.986	51.922	15.408	4.3152e-06	21.846	0.00022884	0.00028709	7.39e-05	834.39	3.1834e-06	2.8378e-06	912.92	166.76	3.0156e-06	2.9198e-06	228.7	66.48	52.225	15.614	2.8264e-06	22.035	-106.408	-60.658	-50.789	-122.938	29.378	40.013	-122.819	-115.771	44.373	23.176	-115.639	-108.831	-108.869	-101.197	-3.368	-101.750	-8191	255	
756.068	1	1	0	0	0.25909	0.053045	0.1977	0.081901	0.21545	0.14776	0.12564	0.072917	0.28747	0.04854	0.098355	0.088093	0.21952	0.34523	0.057744	0.2267	-2.525	-2.9062	-3.0396	-2.7604	-3.1875	-2.9625	-2.9	-3.2521	-2.8396	-3.1333	-3.3125	-2.7917	-3.2062	-3.0542	-2.6271	-3.0104	98.516	-114.880	-16.106	180.527	160.179	112.811	100.468	165.831	88.658	-37.584	-28.718	166.599	7.671	187.317	-97.814	-124.310	0.00010711	0.00021104	6.3797e-05	848.98	1.5367e-06	1.5335e-06	924.04	168.32	2.7116e-06	3.2714e-06	228.87	66.174	51.832	15.523	3.7758e-06	21.529	0.0002321	0.00027525	7.608e-05	833.87	2.962e-06	2.9494e-06	912.29	167.05	3.1774e-06	3.1547e-06	227.73	66.559	52.126	15.602	3.0399e-06	21.952	-95.279	-66.995	-16.983	-122.952	16.687	27.384	-122.723	-115.885	-1.233	22.161	-115.785	-109.140	-108.433	-101.532	-18.084	-102.077	-8191	255	
756.188	1	1	0	0	0.20746	0.18895	0.079238	0.089475	0.15701	0.1573	0.30294	0.052885	0.094606	0.17961	0.066537	0.2572	0.13181	0.17022	0.15339	0.1368	-2.6604	-2.8583	-3.1417	-3.1042	-2.9604	-2.9813	-3.0917	-3.175	-2.9229	-2.9708	-3.3542	-2.9979	-3.0917	-3.2	-2.8208	-3.3167	-10.143	-0.811	17.211	-107.634	-121.777	52.801	104.164	12.435	162.070	-14.025	-68.767	-4.106	-26.612	128.605	-11.749	-20.567	0.00013088	0.00025714	8.4621e-05	850.58	2.4266e-06	3.1805e-06	922.01	167.79	1.9985e-06	2.3431e-06	230.69	66.195	51.817	15.491	1.2907e-06	21.826	0.00022332	0.00028656	7.6807e-05	834.47	3.1771e-06	2.9079e-06	912.73	167.01	2.9868e-06	3.0489e-06	228.88	66.698	51.994	15.637	3.0074e-06	22.009	-95.607	-53.836	-43.418	-122.992	-3.330	34.437	-123.003	-115.849	-41.266	19.613	-115.835	-108.881	-108.107	-101.462	-5.841	-101.663	-8191	255	
756.283	1	1	0	0	0.16334	0.13242	0.10774	0.14454	0.026127	0.11493	0.27904	0.25733	0.40126	0.036722	0.040436	0.19338	0.10198	0.25816	0.11737	0.28045	-2.5729	-2.9625	-3.4125	-2.925	-2.9271	-3.1688	-2.8771	-3.0083	-3.0125	-3.125	-3.3792	-2.9458	-2.9521	-3.2979	-2.8708	-3.0667	185.525	99.478	-47.303	170.846	-114.907	178.848	189.843	73.737	-48.645	137.706	94.381	218.953	-55.546	-123.727	120.513	-56.350	0.00011999	0.00018098	3.1363e-05	850.43	2.9133e-06	2.1591e-06	925.09	168.53	1.2924e-06	3.5498e-07	230.2	65.654	51.763	15.438	2.0184e-06	21.761	0.00021874	0.00028144	7.1975e-05	834.76	3.0916e-06	2.7511e-06	912.84	167.04	2.8505e-06	2.956e-06	228.17	66.568	52.142	15.57	3.0239e-06	22.024	-98.174	-44.832	16.768	-123.131	17.073	21.713	-122.784	-115.542	18.684	5.674	-115.873	-109.499	-108.655	-101.595	25.316	-102.163	-8191	255	
756.379	1	1	0	0	0.16871	0.21719	0.2951	0.17397	0.20958	0.12736	0.037933	0.1269	0.097789	0.32284	0.32559	0.15887	0.20661	0.12369	0.11494	0.11615	-2.7833	-2.8187	-3.1521	-2.8875	-2.8604	-3.2	-2.9708	-2.9458	-3.1958	-2.825	-3.2708	-3.0896	-3.0646	-3.2562	-2.8354	-3.2062	-26.918	224.545	-27.308	-131.264	112.561	56.266	-24.859	17.224	-121.345	112.528	217.328	-99.227	191.301	85.471	112.908	-92.137	0.00011302	0.00012072	0.00010881	848.9	1.6689e-06	2.925e-06	922.72	168.32	1.2846e-06	4.8009e-06	230.93	66.007	52.354	15.492	3.1619e-06	21.795	0.00021949	0.00028061	7.4896e-05	833.59	3.2257e-06	3.0087e-06	911.5	167.15	2.9627e-06	3.0905e-06	228.31	66.491	52.217	15.587	3.0907e-06	21.95	-96.609	-26.094	-62.611	-122.939	-27.591	-3.939	-123.023	-115.458	-25.505	19.104	-116.010	-109.450	-108.529	-101.287	-11.405	-101.888	-8191	255	
756.475	1	1	0	0	0.087783	0.20629	0.092305	0.29083	0.090425	0.21704	0.089145	0.26261	0.11064	0.15415	0.13293	0.11212	0.072737	0.18143	0.21081	0.12638	-2.7792	-2.7083	-3.1292	-3.2188	-2.7687	-3.3292	-3.2	-2.9771	-3.1875	-2.9479	-3.175	-3.125	-2.7812	-3.2062	-3.025	-2.8937	-39.412	207.309	221.754	182.923	170.077	-132.673	-31.726	157.741	67.929	-108.538	-81.423	-67.860	-79.692	223.510	-98.419	-92.195	0.00011973	0.00040274	3.7495e-05	849.34	1.6365e-06	1.4604e-06	927.56	167.89	1.7409e-06	2.7706e-06	229.25	65.862	51.95	15.546	2.0652e-06	21.654	0.00022361	0.00029517	7.5111e-05	834.43	3.1178e-06	2.9392e-06	911.98	167.05	2.7933e-06	3.0732e-06	228.09	66.429	52.194	15.606	2.8005e-06	21.982	-101.972	-58.381	-20.417	-123.032	-25.587	-14.216	-123.190	-115.671	1.153	23.959	-115.762	-109.166	-108.845	-101.450	-3.119	-101.832	-8191	255	
#DATA ENDS
