BOXY.EXE: ISS Imagent and Oximeter Data Acquisition Program Version 0.80
Ascii Record File

#ACQ INFORMATION
2  Detector Channels 
16  External MUX Channels 
1  Auxiliary Channels 
5000  Waveform (CCF) Frequency (Hz)
1  Waveforms Skipped 
30  Waveforms Averaged 
1  Cycles Averaged 
16  Acquisitions per Waveform 
10.0806  Updata Rate (Hz) 

#FILE INFORMATION
TRUE -- External MUX Channel results are PARSED.
FALSE -- AC DC and Phase are NOT grouped.
TRUE -- Companion Program Settings File CREATED.
FALSE -- AC data not excluded
FALSE -- DC data not excluded
FALSE -- Phase data not excluded
FALSE -- Auxillary Chn. data not excluded
Tab delimiters

#CALIBRATION STATE
TRUE -- Waveform Calibration Values APPLIED.


#AUX CALIBRATION VALUES
Val Type	aux-1	

Term	1.0000e+00	
Factor	0.0000e+00	


#WF CALIBRATION VALUES
A = Detector Channel
Val Type	A-AC1	A-AC2	A-AC3	A-AC4	A-AC5	A-AC6	A-AC7	A-AC8	A-AC9	A-AC10	A-AC11	A-AC12	A-AC13	A-AC14	A-AC15	A-AC16	A-DC1	A-DC2	A-DC3	A-DC4	A-DC5	A-DC6	A-DC7	A-DC8	A-DC9	A-DC10	A-DC11	A-DC12	A-DC13	A-DC14	A-DC15	A-DC16	A-Ph1	A-Ph2	A-Ph3	A-Ph4	A-Ph5	A-Ph6	A-Ph7	A-Ph8	A-Ph9	A-Ph10	A-Ph11	A-Ph12	A-Ph13	A-Ph14	A-Ph15	A-Ph16	

Term	0.00000e+00	0.00000e+00	0.00000e+00	0.00000e+00	0.00000e+00	0.00000e+00	0.00000e+00	0.00000e+00	0.00000e+00	0.00000e+00	0.00000e+00	0.00000e+00	0.00000e+00	0.00000e+00	0.00000e+00	0.00000e+00	0.00000e+00	0.00000e+00	0.00000e+00	0.00000e+00	0.00000e+00	0.00000e+00	0.00000e+00	0.00000e+00	0.00000e+00	0.00000e+00	0.00000e+00	0.00000e+00	0.00000e+00	0.00000e+00	0.00000e+00	0.00000e+00	0.00000e+00	0.00000e+00	0.00000e+00	0.00000e+00	0.00000e+00	0.00000e+00	0.00000e+00	0.00000e+00	0.00000e+00	0.00000e+00	0.00000e+00	0.00000e+00	0.00000e+00	0.00000e+00	0.00000e+00	0.00000e+00	
Factor	1.00000e+00	1.00000e+00	1.00000e+00	1.00000e+00	1.00000e+00	1.00000e+00	1.00000e+00	1.00000e+00	1.00000e+00	1.00000e+00	1.00000e+00	1.00000e+00	1.00000e+00	1.00000e+00	1.00000e+00	1.00000e+00	1.00000e+00	1.00000e+00	1.00000e+00	1.00000e+00	1.00000e+00	1.00000e+00	1.00000e+00	1.00000e+00	1.00000e+00	1.00000e+00	1.00000e+00	1.00000e+00	1.00000e+00	1.00000e+00	1.00000e+00	1.00000e+00	X	X	X	X	X	X	X	X	X	X	X	X	X	X	X	X	

B = Detector Channel
Val Type	B-AC1	B-AC2	B-AC3	B-AC4	B-AC5	B-AC6	B-AC7	B-AC8	B-AC9	B-AC10	B-AC11	B-AC12	B-AC13	B-AC14	B-AC15	B-AC16	B-DC1	B-DC2	B-DC3	B-DC4	B-DC5	B-DC6	B-DC7	B-DC8	B-DC9	B-DC10	B-DC11	B-DC12	B-DC13	B-DC14	B-DC15	B-DC16	B-Ph1	B-Ph2	B-Ph3	B-Ph4	B-Ph5	B-Ph6	B-Ph7	B-Ph8	B-Ph9	B-Ph10	B-Ph11	B-Ph12	B-Ph13	B-Ph14	B-Ph15	B-Ph16	

Term	0.00000e+00	0.00000e+00	0.00000e+00	0.00000e+00	0.00000e+00	0.00000e+00	0.00000e+00	0.00000e+00	0.00000e+00	0.00000e+00	0.00000e+00	0.00000e+00	0.00000e+00	0.00000e+00	0.00000e+00	0.00000e+00	0.00000e+00	0.00000e+00	0.00000e+00	0.00000e+00	0.00000e+00	0.00000e+00	0.00000e+00	0.00000e+00	0.00000e+00	0.00000e+00	0.00000e+00	0.00000e+00	0.00000e+00	0.00000e+00	0.00000e+00	0.00000e+00	-7.29439e+01	-1.30021e+02	-1.24914e+02	-1.83134e+02	-5.27761e+01	-7.14236e+01	-1.56866e+02	-1.62015e+02	-4.78778e+01	-6.48767e+01	-1.71930e+02	-1.71556e+02	-1.81736e+02	-1.77926e+02	-6.22738e+01	-1.50417e+02	
Factor	1.73134e-05	1.66260e-04	4.88759e-05	1.86492e-01	1.60179e-06	1.93899e-06	1.62677e-01	5.60871e-02	1.18118e-06	1.74570e-06	9.94639e-02	3.03487e-02	2.65711e-02	9.45456e-03	1.78352e-06	1.32450e-02	1.24241e-05	2.32072e-05	6.46118e-06	9.55684e-02	2.33110e-07	2.58720e-07	7.83537e-02	2.89116e-02	2.27059e-07	2.59205e-07	4.96099e-02	1.52121e-02	1.38846e-02	4.91572e-03	2.39358e-07	6.66233e-03	X	X	X	X	X	X	X	X	X	X	X	X	X	X	X	X	



#DISTANCE SETTINGS
A = Detector Channel
A-1	A-2	A-3	A-4	A-5	A-6	A-7	A-8	A-9	A-10	A-11	A-12	A-13	A-14	A-15	A-16	

2.5000e+00	3.0000e+00	2.5000e+00	3.0000e+00	2.0000e+00	3.0000e+00	1.5000e+00	3.0000e+00	3.0000e+00	3.0000e+00	3.0000e+00	3.0000e+00	3.0000e+00	3.0000e+00	1.5000e+00	3.0000e+00	

B = Detector Channel
B-1	B-2	B-3	B-4	B-5	B-6	B-7	B-8	B-9	B-10	B-11	B-12	B-13	B-14	B-15	B-16	

1.0000e+01	1.0000e+01	1.0000e+01	1.4400e+00	1.0000e+01	1.0000e+01	1.5100e+00	1.9400e+00	1.0000e+01	1.0000e+01	1.9900e+00	2.4900e+00	2.4100e+00	2.9000e+00	1.0000e+01	2.9800e+00	




#DATA BEGINS
time	group	step	mark	flag	A-AC1	A-AC2	A-AC3	A-AC4	A-AC5	A-AC6	A-AC7	A-AC8	A-AC9	A-AC10	A-AC11	A-AC12	A-AC13	A-AC14	A-AC15	A-AC16	A-DC1	A-DC2	A-DC3	A-DC4	A-DC5	A-DC6	A-DC7	A-DC8	A-DC9	A-DC10	A-DC11	A-DC12	A-DC13	A-DC14	A-DC15	A-DC16	A-Ph1	A-Ph2	A-Ph3	A-Ph4	A-Ph5	A-Ph6	A-Ph7	A-Ph8	A-Ph9	A-Ph10	A-Ph11	A-Ph12	A-Ph13	A-Ph14	A-Ph15	A-Ph16	B-AC1	B-AC2	B-AC3	B-AC4	B-AC5	B-AC6	B-AC7	B-AC8	B-AC9	B-AC10	B-AC11	B-AC12	B-AC13	B-AC14	B-AC15	B-AC16	B-DC1	B-DC2	B-DC3	B-DC4	B-DC5	B-DC6	B-DC7	B-DC8	B-DC9	B-DC10	B-DC11	B-DC12	B-DC13	B-DC14	B-DC15	B-DC16	B-Ph1	B-Ph2	B-Ph3	B-Ph4	B-Ph5	B-Ph6	B-Ph7	B-Ph8	B-Ph9	B-Ph10	B-Ph11	B-Ph12	B-Ph13	B-Ph14	B-Ph15	B-Ph16	aux-1	digaux	

1916.015	1	1	0	768	0.33124	0.13409	0.22677	0.11465	0.12501	0.086705	0.17325	0.20663	0.17652	0.099342	0.15826	0.064214	0.37791	0.26771	0.14964	0.14109	-2.5958	-2.5354	-2.7188	-2.7708	-2.6604	-3.1354	-2.8896	-2.7417	-3.0958	-2.7583	-2.7625	-2.9083	-2.5729	-3.0917	-2.8604	-2.6667	307.329	230.679	314.894	244.425	519.387	310.554	333.044	184.243	447.630	286.051	307.913	471.897	494.225	454.145	464.541	402.966	0.00082205	0.00046345	6.1767e-05	803.92	6.8129e-06	0.00015725	678.87	272.1	4.8247e-06	2.9137e-06	294.67	114.62	123.25	65.823	1.302e-05	63.561	0.0069487	0.0037797	0.0010464	760.13	3.8839e-05	0.00028264	645.16	260.34	3.6325e-05	4.2402e-05	312.52	110.16	118.96	63.46	3.6976e-05	61.02	198.796	217.367	197.693	186.574	326.328	208.058	185.474	192.153	348.391	374.969	189.998	194.029	197.191	201.962	324.806	197.271	-8191	255	
1916.112	1	1	0	0	0.20054	0.058183	0.16488	0.16389	0.17981	0.22776	0.18817	0.28155	0.2459	0.10819	0.14118	0.059636	0.072713	0.22221	0.12729	0.27333	-2.3958	-2.5312	-2.8229	-2.925	-2.4979	-3.0542	-2.8479	-2.6875	-3.0646	-2.6562	-2.8667	-3.1271	-2.6146	-3.0563	-2.7917	-2.8104	261.003	506.736	188.344	258.899	378.667	480.493	320.748	477.957	448.148	252.645	269.857	265.742	211.582	520.990	496.064	434.935	0.00079501	5.6788e-05	0.00016299	800.96	5.0671e-06	0.00010294	685.07	273.38	2.2353e-06	7.3441e-06	293.75	115.56	123.59	65.884	8.4395e-06	63.171	0.013937	0.0036792	0.0010446	761.96	3.8443e-05	0.00020884	648.9	261.16	3.6546e-05	4.1654e-05	319.6	110.6	118.72	63.623	3.7909e-05	61.103	467.522	188.908	242.357	186.671	399.777	205.360	185.119	191.941	230.766	381.797	190.729	193.422	196.931	201.945	247.200	197.493	-8191	255	
1916.208	1	1	0	0	0.1641	0.33811	0.40987	0.20279	0.19017	0.1049	0.031059	0.22382	0.11406	0.061128	0.33066	0.081648	0.25607	0.21117	0.22923	0.050488	-2.6688	-2.6229	-2.6937	-2.9042	-2.5729	-3.0979	-2.8375	-2.6854	-3.0229	-2.7583	-2.7833	-3.0521	-2.6125	-3.1125	-2.8937	-2.5333	436.091	456.007	270.367	176.275	257.603	358.264	343.441	178.497	259.299	285.520	452.723	274.318	190.851	181.338	223.249	287.679	0.00035868	0.0012743	0.00023269	804.95	4.6522e-06	0.00016708	688.35	273.76	4.5267e-06	9.2979e-06	295.51	117.38	124.53	65.968	9.0406e-06	64.121	0.0099888	0.0036602	0.0010757	763.75	3.9102e-05	0.00028306	650.99	261.92	3.6715e-05	4.1049e-05	289.9	118.33	119.9	64.006	3.7358e-05	61.815	484.257	293.860	285.206	186.919	311.650	222.538	184.629	191.908	308.779	336.856	190.418	193.492	197.125	202.098	317.711	197.554	-8191	255	
1916.304	1	1	0	0	0.30118	0.028384	0.28466	0.2754	0.1622	0.034784	0.14885	0.034221	0.17705	0.42948	0.14133	0.27885	0.083332	0.32389	0.15111	0.04399	-2.5083	-2.6708	-2.7271	-2.9521	-2.4792	-2.7521	-2.7979	-2.6479	-2.8771	-2.6583	-2.8896	-3.0104	-2.6979	-3.05	-2.7271	-2.725	387.501	490.450	454.400	495.512	439.307	519.917	460.103	175.798	222.963	345.879	219.079	462.191	478.932	508.446	265.097	189.346	0.00099358	0.0010236	0.00022968	803.68	9.7116e-06	0.00010832	688.25	272.25	2.2787e-06	7.5097e-07	292.13	116.42	121.76	64.734	4.6589e-06	62.431	0.013735	0.0036353	0.0010748	763.66	3.8129e-05	0.00020563	650.73	260.64	3.6632e-05	4.0118e-05	280.87	124.53	117.65	62.663	3.6686e-05	60.285	483.252	278.332	245.536	186.928	348.788	231.265	184.885	192.022	399.232	227.322	189.506	194.546	197.107	201.981	302.623	197.562	-8191	255	
1916.400	1	1	0	0	0.054595	0.11106	0.26096	0.16163	0.33123	0.15867	0.090945	0.42271	0.20561	0.087358	0.12669	0.27378	0.32173	0.33993	0.24885	0.31496	-2.5417	-2.7292	-2.5979	-3.1188	-2.7792	-2.9125	-3.0167	-2.6437	-2.7833	-2.7167	-2.6937	-3.1458	-2.8021	-3.0021	-3.0646	-2.8688	399.592	187.128	253.097	519.446	266.749	360.052	483.128	450.124	229.258	445.745	352.986	525.093	441.244	201.357	291.387	475.766	0.00069175	0.00048066	0.00017602	795.74	4.6403e-06	2.1103e-05	681.27	267.93	6.7042e-06	5.5037e-06	284.94	112.51	120.57	64.603	4.0006e-06	61.926	0.010165	0.0035304	0.0010541	756.27	3.66e-05	0.00022529	645.94	257.08	3.649e-05	3.9452e-05	276.69	117.91	116.49	62.321	3.647e-05	59.7	499.939	324.875	278.140	186.568	367.865	329.394	184.207	192.298	363.448	323.527	189.722	194.238	196.905	201.785	344.884	197.081	-8191	255	
1916.496	1	1	0	0	0.2371	0.23862	0.2497	0.0052676	0.14139	0.12576	0.41359	0.07894	0.27706	0.018284	0.18606	0.047876	0.29914	0.23247	0.39013	0.11665	-2.525	-2.7167	-2.6333	-3.1604	-2.6021	-2.7958	-3.2333	-2.8125	-3.0187	-2.675	-2.7396	-3.1875	-2.8229	-2.8979	-2.9562	-2.775	354.117	209.839	483.680	406.588	464.413	477.783	518.845	294.275	530.500	530.271	472.342	529.694	194.867	516.726	485.806	431.718	0.0012085	0.00087425	0.00022228	793.21	3.1144e-06	1.9831e-05	684.27	269.84	1.9056e-06	2.0713e-06	287.87	114.07	121.89	65.268	7.5378e-06	63.197	0.013791	0.0035552	0.0010682	759.26	3.6431e-05	6.8526e-05	675.7	258.76	3.7452e-05	3.9652e-05	278.47	122.67	117.57	62.81	3.699e-05	60.445	507.526	262.796	271.337	186.259	275.329	326.743	184.623	192.167	349.913	318.115	190.156	194.628	197.353	201.958	320.280	197.175	-8191	255	
1916.615	1	1	0	0	0.13643	0.11309	0.21421	0.084503	0.27921	0.074774	0.42114	0.16929	0.30785	0.19209	0.25202	0.10447	0.022641	0.084674	0.077595	0.078509	-2.4104	-2.6813	-2.4417	-2.9667	-2.7562	-2.6542	-2.9917	-2.6417	-2.8021	-2.9313	-2.7875	-3.0771	-2.6833	-2.7042	-3.1521	-2.6708	330.279	406.807	401.002	518.114	403.221	176.242	183.940	373.263	183.607	504.954	285.354	434.212	387.602	183.049	315.393	236.084	0.00060655	0.00046786	8.6359e-05	795.16	6.211e-06	6.4742e-06	694.65	270.99	5.3652e-06	5.5794e-06	290.29	114.85	122.53	65.454	3.1402e-06	63.488	0.0099353	0.0034867	0.0010604	758.95	3.5646e-05	4.1863e-05	719.89	258.89	3.7134e-05	3.8641e-05	279.44	119.28	117.94	63.19	3.8201e-05	61.049	517.452	273.067	248.115	186.955	327.130	361.032	184.834	191.924	314.875	384.141	189.414	194.257	197.113	201.918	310.596	197.283	-8191	255	
1916.711	1	1	0	0	0.16187	0.22637	0.18136	0.33147	0.1312	0.10361	0.33279	0.22224	0.29298	0.042712	0.31367	0.24551	0.19023	0.10583	0.22348	0.13646	-2.3563	-2.9	-2.5208	-2.7729	-2.9083	-2.6813	-3.1479	-2.7229	-2.8396	-2.8854	-2.6354	-2.9646	-2.8417	-2.4938	-2.7833	-2.7979	354.802	336.785	281.659	424.641	461.171	262.282	481.875	196.746	374.984	402.676	430.533	227.081	526.930	453.038	466.228	496.223	0.00056801	0.011237	0.00020964	804.01	8.0899e-06	5.4662e-06	695.08	271.18	2.7013e-06	1.1338e-05	295.09	117.08	124.44	66.442	1.1521e-05	64.27	0.010723	0.0058291	0.0010572	763.88	3.6517e-05	4.3134e-05	703.19	260.6	3.7414e-05	3.9994e-05	283.09	126.85	119.72	64.147	3.7495e-05	61.992	429.498	482.737	302.820	186.720	328.198	338.691	184.823	192.265	244.162	315.726	189.566	194.992	197.299	202.130	331.050	197.567	-8191	255	
1916.807	1	1	0	0	0.065765	0.14342	0.19405	0.21231	0.23505	0.16543	0.1191	0.2981	0.081739	0.11805	0.11403	0.22146	0.19313	0.33903	0.068583	0.061833	-2.2604	-2.7542	-2.4354	-2.8229	-2.9521	-2.5479	-3.0646	-2.7333	-2.6229	-2.8312	-2.6583	-2.7438	-2.9208	-2.6063	-2.9625	-2.6375	208.683	203.778	321.553	451.832	485.175	210.011	472.568	491.514	232.461	178.377	205.882	418.948	436.154	498.105	326.604	410.693	0.00020726	0.0086319	0.00013363	803.87	1.0983e-05	3.0046e-06	704.32	273.62	2.4619e-06	5.4458e-06	292.08	116.03	124.81	66.899	9.7609e-06	64.093	0.0032644	0.014561	0.0010397	766.67	3.6098e-05	4.1856e-05	731.99	262.13	3.7147e-05	3.9808e-05	282.24	122.78	120	64.346	3.9965e-05	61.63	429.623	489.994	305.714	186.753	342.275	428.160	185.015	191.888	255.021	238.048	189.663	194.529	197.019	202.039	290.358	197.174	-8191	255	
1916.904	1	1	0	0	0.27683	0.15147	0.061206	0.025407	0.14102	0.17	0.098764	0.12011	0.17137	0.25508	0.054236	0.073436	0.13068	0.28575	0.1919	0.032518	-2.1354	-2.8646	-2.4021	-2.8021	-2.9125	-2.6292	-3.0125	-2.8229	-2.5292	-2.7938	-2.6333	-2.7229	-2.925	-2.5646	-2.9021	-2.7083	381.905	330.201	486.427	448.364	318.216	377.338	383.635	383.281	503.325	201.822	432.850	503.832	512.501	448.876	419.600	414.436	0.00063115	0.015183	0.00022842	805.83	6.6566e-06	2.5825e-06	698.78	277.07	5.5882e-06	3.049e-06	293.49	117.18	124.83	67.211	1.0596e-05	63.92	0.0023332	0.027163	0.001027	768.64	3.558e-05	4.1924e-05	707.34	263.59	3.7208e-05	4.0426e-05	282.69	123.37	122.5	64.567	3.8579e-05	61.633	253.371	442.736	274.646	186.781	392.799	291.318	185.374	192.173	339.614	272.704	189.286	195.152	196.985	201.743	317.003	197.770	-8191	255	
1917.000	1	1	0	0	0.10634	0.089736	0.050533	0.21496	0.29283	0.10494	0.1855	0.15938	0.18668	0.06927	0.053367	0.17354	0.30766	0.26187	0.080155	0.43484	-2.1854	-2.8271	-2.7167	-2.7083	-3.0458	-2.3417	-2.8812	-2.6875	-2.6979	-2.9583	-2.6208	-2.6167	-2.8958	-2.6854	-2.7	-2.9896	492.897	246.226	370.082	513.746	276.382	454.286	379.744	459.216	343.340	237.929	416.733	493.600	189.844	188.633	197.395	500.476	0.00056813	0.0093448	0.00010217	804.65	2.1384e-06	6.9617e-06	699.15	271.34	5.5056e-06	3.5097e-06	290.63	115.77	123.54	66.015	1.9497e-06	63.458	0.0023448	0.019423	0.0010314	765.68	3.681e-05	4.1472e-05	730.47	260.75	3.7917e-05	4.0053e-05	280.57	111.94	126.65	63.634	3.9533e-05	61.158	251.562	458.912	306.257	186.738	356.234	315.146	185.294	192.174	282.296	321.899	190.000	194.708	197.200	201.810	325.290	197.315	-8191	255	
1917.096	1	1	0	0	0.052322	0.15857	0.16966	0.24328	0.015772	0.23288	0.14865	0.24338	0.1927	0.080676	0.14741	0.36533	0.20605	0.076508	0.21421	0.096269	-2.0458	-2.8187	-2.5625	-2.8042	-3.0604	-2.475	-2.8625	-2.9375	-2.3854	-2.8	-2.6958	-2.6396	-3.0208	-2.7042	-2.9708	-2.9938	460.807	433.768	373.145	180.709	394.724	508.966	485.093	533.159	514.845	284.830	522.565	202.734	499.336	357.964	360.144	422.705	0.00052781	0.012742	0.00030926	800.45	6.7909e-06	4.072e-06	694.23	272.62	4.2803e-06	4.8101e-06	293.17	116.01	123.07	65.778	1.0023e-05	63.873	0.0023212	0.026624	0.00099277	762.51	3.64e-05	4.1715e-05	704.34	260.14	3.7814e-05	4.1007e-05	281.47	111.4	132.95	63.594	3.9249e-05	61.327	251.837	448.956	256.340	186.492	356.241	291.622	185.439	192.054	303.918	335.993	189.545	193.908	198.113	202.163	295.449	197.197	-8191	255	
1917.216	1	1	0	0	0.15337	0.068523	0.12669	0.30606	0.082501	0.22917	0.14405	0.25373	0.25376	0.17662	0.045481	0.25102	0.39426	0.26739	0.17212	0.28762	-2.175	-2.9708	-2.6979	-2.5438	-3.0687	-2.6521	-3.0021	-2.8875	-2.5146	-2.9646	-2.9625	-2.725	-3.0312	-2.75	-2.7125	-2.7958	398.141	374.430	202.575	462.800	408.804	319.399	414.752	180.748	190.663	182.592	401.617	364.185	234.948	195.320	450.908	473.477	0.00055168	0.0096897	0.00016084	804.95	8.2158e-06	4.2326e-06	688.89	274.72	5.7981e-06	7.7792e-06	290.99	115.12	122.32	65.597	5.9493e-06	63.066	0.0023186	0.019851	0.00099998	765.28	3.6662e-05	4.1353e-05	704.45	265.34	3.6997e-05	4.0286e-05	280.08	110.5	127.94	63.118	3.8974e-05	60.498	257.018	461.923	333.618	186.702	315.992	342.068	185.826	191.732	360.505	277.777	189.657	193.338	197.927	201.928	271.392	197.365	-8191	255	
1917.313	1	1	0	0	0.12807	0.18203	0.18497	0.12671	0.27374	0.1063	0.037663	0.15321	0.20131	0.027664	0.032654	0.047894	0.16098	0.26147	0.093103	0.041825	-2.1937	-2.9354	-2.6333	-2.6292	-3.0083	-2.7875	-2.8937	-2.9542	-2.4354	-2.7812	-2.6979	-2.5875	-3.025	-2.7812	-2.6813	-2.9708	475.896	405.037	510.748	527.441	328.807	197.041	514.182	528.755	248.268	459.558	433.617	507.622	451.412	481.456	512.771	336.923	0.00056633	0.013455	0.00010905	796.3	1.9824e-06	7.3423e-06	680.98	273.88	1.3524e-06	1.2366e-06	289.86	114.68	122.8	65.69	4.1501e-06	62.993	0.0023334	0.02725	0.0010021	759.91	3.6348e-05	4.0377e-05	647.26	276.85	3.6961e-05	4.2113e-05	279.26	110.11	133.52	63.446	3.9372e-05	60.742	252.949	464.248	276.322	186.704	456.802	355.100	185.797	191.671	315.224	265.177	189.121	193.335	198.420	201.540	265.762	197.211	-8191	255	
1917.407	1	1	0	0	0.082103	0.057466	0.15714	0.12226	0.10258	0.084738	0.18572	0.14109	0.091896	0.17668	0.092803	0.19742	0.17726	0.29768	0.064636	0.10948	-2.2687	-2.8812	-2.8688	-2.525	-2.9542	-2.7313	-2.7604	-2.8792	-2.6688	-2.7292	-2.8271	-2.5271	-2.9833	-2.8104	-2.5396	-2.9979	175.874	499.606	182.657	494.820	359.389	293.199	477.905	525.490	416.287	436.589	199.605	175.502	445.170	512.603	229.380	208.664	0.00059823	0.0092949	0.0002545	805.11	6.8089e-06	4.3428e-06	688.53	279.59	3.7481e-06	5.7168e-06	295.85	115.73	123.79	66.743	6.4171e-06	64.232	0.0022879	0.019944	0.0009753	765.33	3.8321e-05	4.0544e-05	651.62	292.55	3.7378e-05	4.2259e-05	282.31	111.78	129.97	64.384	3.9605e-05	61.672	255.129	467.910	284.450	186.621	321.863	317.604	185.014	192.473	306.089	333.479	189.516	193.591	198.090	201.961	302.916	197.484	-8191	255	
1917.503	1	1	0	0	0.31148	0.2005	0.095291	0.13947	0.15129	0.13224	0.037446	0.0706	0.11408	0.23925	0.19075	0.085071	0.21783	0.334	0.40493	0.26634	-2.1125	-2.6917	-2.7625	-2.5187	-2.8125	-2.5229	-2.6188	-3.0062	-2.4729	-2.8229	-2.8563	-2.5792	-2.8771	-2.8875	-2.4958	-3.0708	358.339	282.389	344.806	256.358	339.940	455.730	480.004	273.087	297.791	519.360	423.004	522.252	248.530	425.158	271.746	483.252	0.00053137	0.0047042	0.0044505	802.95	2.393e-06	3.6207e-06	689.05	278.81	4.2062e-06	4.2777e-06	296.99	117.02	124.37	67.259	1.0519e-05	65.162	0.0023038	0.017846	0.0025008	767	3.7622e-05	4.0183e-05	655.54	283.75	3.7463e-05	4.2542e-05	284.85	112.89	135.1	64.887	4.0405e-05	62.448	250.396	388.928	511.222	186.611	374.038	316.676	185.583	192.346	345.872	230.362	189.744	193.699	198.462	201.778	333.176	197.463	-8191	255	
1917.599	1	1	0	0	0.11815	0.12172	0.088054	0.22126	0.083091	0.39053	0.37678	0.28749	0.13942	0.14741	0.24368	0.30746	0.12269	0.25594	0.125	0.40082	-2.3333	-2.6729	-2.8333	-2.6688	-2.825	-2.8417	-2.6125	-2.9646	-2.8208	-2.7208	-3.1	-2.65	-3.0062	-3.1042	-2.6188	-3.0021	343.376	339.516	267.525	501.005	382.979	428.511	446.279	501.318	462.664	480.109	468.090	499.837	351.395	501.805	441.645	517.940	0.00058554	0.0007694	0.003004	804.14	9.6931e-06	6.6345e-06	696.96	281.37	4.1833e-06	1.1409e-05	300.85	117.91	124.63	66.94	3.4391e-06	64.496	0.0023404	0.0038351	0.0047651	770.36	3.9904e-05	3.9705e-05	660.1	293.45	3.6469e-05	4.2257e-05	287.03	113.4	130.75	64.542	4.0539e-05	62.109	256.781	259.668	513.231	186.726	312.512	266.587	185.140	192.508	350.098	340.252	189.683	193.972	197.812	201.721	295.027	197.453	-8191	255	
1917.695	1	1	0	0	0.15903	0.14861	0.033937	0.08817	0.35926	0.1848	0.053447	0.053705	0.22602	0.11495	0.091761	0.077739	0.18623	0.21043	0.15384	0.2059	-2.3854	-2.8458	-2.9333	-2.7292	-2.6667	-2.8167	-2.4417	-3.0187	-2.8042	-2.7167	-3.1104	-2.6896	-2.7958	-3.0396	-2.5229	-3.0938	406.758	438.943	449.510	470.807	268.819	484.808	259.737	219.699	419.870	523.782	193.356	406.496	465.041	181.533	225.612	438.856	0.00064169	0.00043681	0.0045108	806.15	1.3245e-05	4.999e-06	689.48	278.92	5.5089e-06	6.6842e-06	294.97	116.82	124.55	66.677	6.5426e-06	63.951	0.0022824	0.003848	0.0075164	769.39	3.9412e-05	4.0018e-05	655.89	284.29	3.6753e-05	4.3314e-05	283.94	112.42	128.33	65.905	4.1237e-05	61.596	252.167	248.837	500.555	186.757	342.075	235.178	185.223	192.433	347.209	348.247	189.663	194.125	198.568	201.710	321.522	197.233	-8191	255	
1917.792	1	1	0	0	0.13008	0.27451	0.013585	0.19474	0.14423	0.05982	0.14461	0.2254	0.16648	0.23129	0.11961	0.095701	0.091387	0.16365	0.32207	0.090728	-2.3229	-2.6396	-2.8375	-2.6729	-2.6937	-2.8125	-2.5104	-2.975	-2.8438	-2.6708	-3.1625	-2.6729	-2.6167	-3.1521	-2.5917	-2.9708	409.765	516.486	427.591	205.112	292.445	472.419	199.809	489.968	511.153	194.498	440.354	452.852	528.458	529.564	363.982	460.559	0.00054899	0.00021027	0.003241	805.33	4.2635e-06	6.1095e-06	684.26	278.39	6.0901e-06	2.5576e-06	291.93	115.79	123.31	66.027	4.6799e-06	63.298	0.002268	0.003918	0.0054969	766.99	3.8858e-05	4.107e-05	652.2	291.81	3.6252e-05	4.2835e-05	281.73	111.3	119.62	66.918	4.0433e-05	61	253.885	222.618	507.460	186.751	330.828	340.907	185.006	192.568	326.993	329.334	189.894	193.518	197.170	201.715	433.836	197.365	-8191	255	
1917.888	1	1	0	0	0.252	0.062635	0.15792	0.066708	0.097401	0.11894	0.17558	0.35746	0.32209	0.13718	0.17088	0.21691	0.22944	0.2754	0.24836	0.027317	-2.3542	-2.5979	-2.8312	-2.7125	-2.6021	-2.8104	-2.6167	-2.8521	-2.7646	-2.5833	-3.05	-2.7	-2.75	-3.1292	-2.5812	-3.0125	369.130	227.090	199.604	220.510	339.202	280.335	380.122	501.512	442.293	322.351	453.047	452.920	446.588	428.942	513.643	418.148	0.00063526	0.00034979	0.0041306	804.11	1.355e-06	6.395e-06	686.7	274.9	4.8146e-06	6.3948e-06	292.61	114.73	122.47	64.81	5.2719e-06	63.097	0.0022483	0.0038932	0.0072489	764.37	3.8486e-05	4.0155e-05	651.83	281.24	3.5673e-05	4.3548e-05	281.05	110.31	118.46	68.308	3.9903e-05	60.942	252.473	233.396	512.128	186.877	223.742	382.579	185.234	192.442	325.821	300.174	189.465	193.519	197.538	202.331	298.458	197.550	-8191	255	
1917.984	1	1	0	0	0.026765	0.22966	0.27076	0.21746	0.20287	0.21536	0.28986	0.18821	0.081917	0.14528	0.21719	0.075024	0.095037	0.33606	0.20145	0.36954	-2.2792	-2.5312	-2.7958	-2.9708	-2.5417	-3.0479	-2.6667	-2.9271	-2.9979	-2.4958	-2.7917	-2.6958	-2.6063	-3.1021	-2.7417	-2.9042	508.508	363.401	290.893	407.061	439.396	326.636	521.894	457.604	382.612	501.330	276.863	516.685	507.558	193.501	208.114	495.255	0.00060918	0.00091332	0.003006	802.11	6.0622e-06	9.0696e-06	686.83	273.54	4.8142e-05	1.396e-06	291.86	116.24	122.62	65.854	8.7087e-06	64.07	0.0021902	0.0038896	0.0053959	763.8	3.9077e-05	4.1876e-05	653.36	275.89	0.00010987	4.2993e-05	282.74	111.49	118.75	67.413	3.9893e-05	61.648	251.290	236.455	518.727	186.665	280.476	214.988	185.189	193.285	299.101	357.571	189.318	193.858	197.213	201.941	326.257	197.203	-8191	255	
1918.105	1	1	0	0	0.095414	0.20952	0.11904	0.12069	0.073311	0.086835	0.1743	0.42758	0.069255	0.0846	0.07787	0.10021	0.17317	0.43887	0.14217	0.40485	-2.4167	-2.6	-2.9271	-2.9604	-2.6792	-3.0458	-2.7958	-3.0438	-3.0125	-2.6417	-2.9479	-2.975	-2.8312	-3.05	-2.6521	-2.8	494.393	333.800	487.378	191.403	342.377	187.507	434.376	491.246	220.094	322.148	480.819	493.885	485.445	177.083	511.201	442.307	0.00062691	0.00081888	0.0036795	803.72	1.0668e-06	8.0463e-06	682.58	273.13	3.24e-05	6.5506e-06	295.05	116.41	123.31	65.312	8.2348e-06	63.664	0.0022545	0.0039121	0.007577	766	3.9017e-05	4.1271e-05	652.33	261.53	0.00018758	4.311e-05	283.3	111.37	119.2	68.936	3.856e-05	61.168	254.406	349.986	525.824	186.491	274.363	308.305	185.324	192.097	296.944	280.440	189.564	193.523	197.015	202.124	314.662	197.039	-8191	255	
1918.176	1	1	0	0	0.1371	0.22115	0.064399	0.33322	0.15706	0.12506	0.086531	0.18768	0.18218	0.14656	0.064779	0.074756	0.17087	0.16244	0.23891	0.28599	-2.2875	-2.5375	-2.6125	-2.9208	-2.8063	-2.8896	-2.9188	-2.6688	-2.8854	-2.6437	-2.8187	-2.6583	-2.8	-2.9896	-2.5833	-2.8125	307.367	522.399	264.071	381.326	242.582	420.257	422.999	366.558	278.073	177.566	399.472	391.930	452.878	519.568	469.233	474.136	0.00061296	0.00027763	0.0027147	801.86	6.4193e-06	8.7719e-06	684.35	275.71	0.0001222	7.9456e-06	294.59	116.78	124.02	66.483	4.5713e-06	64.146	0.0022296	0.003855	0.005727	762.8	3.9194e-05	4.269e-05	651.52	262.41	0.00027241	4.3263e-05	284.09	112.01	120.24	68.242	3.9063e-05	61.685	250.093	269.960	174.998	186.393	388.806	332.756	185.053	191.818	372.933	334.676	189.288	193.338	197.107	202.081	333.162	197.434	-8191	255	
1918.297	1	1	0	0	0.18606	0.18045	0.1108	0.20162	0.23246	0.12944	0.22793	0.21694	0.19881	0.065569	0.04877	0.22847	0.30032	0.22824	0.21052	0.16556	-2.3917	-2.5458	-2.65	-2.95	-2.6312	-2.8854	-2.9125	-2.6813	-2.9313	-2.5729	-2.8292	-2.8604	-2.7625	-3.0687	-2.8021	-2.7313	289.484	288.064	500.226	216.538	271.150	386.939	468.518	459.958	312.196	509.068	308.608	177.299	525.655	266.358	362.603	476.486	0.00053492	0.0014505	0.00047869	813.51	5.2026e-06	9.2123e-06	688.75	276.53	8.1304e-05	6.4809e-06	295.11	116.6	125.18	66.333	1.1078e-05	64.375	0.002294	0.0038698	0.0042181	807.71	3.9139e-05	4.2151e-05	654.37	264.03	0.00019861	4.1989e-05	284.83	112.39	120.62	69.935	3.8496e-05	61.886	252.914	288.013	265.283	185.538	313.641	291.330	185.444	191.811	379.496	363.942	189.648	193.643	197.277	202.190	272.389	197.581	-8191	255	
1918.391	1	1	0	0	0.063034	0.29032	0.16322	0.12397	0.12282	0.17946	0.24545	0.24036	0.20858	0.23293	0.080899	0.23399	0.27829	0.05099	0.24135	0.16446	-2.5062	-2.6875	-2.7667	-2.9396	-2.7146	-2.9854	-2.95	-2.8708	-2.8167	-2.6875	-2.7875	-2.8208	-2.5792	-3.1437	-2.8688	-2.7458	473.074	290.681	275.619	463.748	476.284	447.266	413.864	495.492	386.559	458.266	245.416	404.029	195.562	500.274	253.268	424.405	0.00053127	0.00063349	7.3457e-05	809.61	2.5611e-06	6.3826e-06	690.93	275.8	0.00010939	3.4719e-06	297.07	118	125.69	66.697	5.6728e-06	64.869	0.0022881	0.0037934	0.0010465	835.33	3.9563e-05	4.385e-05	657.08	264.23	0.00026989	4.1969e-05	285.82	113.34	121.16	68.42	3.8048e-05	62.568	254.925	226.798	193.972	185.982	355.691	279.732	185.176	192.216	377.548	297.927	189.803	193.409	197.120	202.120	335.185	197.221	-8191	255	
1918.487	1	1	0	0	0.16332	0.27248	0.1905	0.2631	0.15605	0.026779	0.015234	0.30237	0.087377	0.17874	0.18594	0.17531	0.32765	0.10798	0.19488	0.24019	-2.6917	-2.5354	-2.7542	-3.0229	-2.6708	-2.925	-3.1208	-2.7146	-3.0604	-2.7917	-2.6104	-2.9833	-2.5812	-2.9333	-2.675	-2.6958	497.603	533.776	465.388	464.009	408.699	347.780	455.542	367.376	287.377	388.685	519.580	459.049	470.302	430.172	188.918	181.806	0.00055216	0.00031842	0.00041049	823.46	9.6946e-06	8.2848e-06	694.12	275.32	7.503e-05	4.7934e-06	295.92	116.72	124.22	65.627	0.00014788	63.654	0.0024002	0.0037587	0.0010956	870.4	3.9181e-05	4.3067e-05	659.4	263.79	0.00019374	4.0872e-05	284.71	111.98	119.87	65.955	0.00013811	61.398	251.734	384.204	268.042	185.851	359.730	355.922	184.979	192.445	382.619	305.579	189.841	193.515	197.366	202.450	189.568	197.503	-8191	255	
1918.585	1	1	0	0	0.21143	0.13545	0.24091	0.16555	0.080964	0.14329	0.23959	0.15595	0.24351	0.052758	0.18831	0.03454	0.23918	0.22049	0.16972	0.16177	-2.4125	-2.7875	-2.6292	-3.0333	-2.5812	-2.8708	-3.1208	-2.5125	-2.9875	-2.8417	-2.5167	-2.9208	-2.7625	-2.8604	-3.0729	-2.5938	229.046	202.921	276.311	432.808	494.918	405.466	177.711	460.770	441.218	419.917	408.640	215.067	250.884	495.938	461.898	528.821	0.00058108	0.00055952	0.00011267	806.17	3.4578e-06	5.9171e-06	685.64	269.7	9.0931e-05	7.2568e-06	288.44	112.36	120.74	64.585	0.00011123	62.447	0.0023319	0.003685	0.001043	830.51	3.7861e-05	4.0836e-05	648.37	259.11	0.00025902	3.9887e-05	278.31	108.62	117.02	62.416	0.00019877	60.109	256.877	273.673	211.362	186.195	381.200	306.472	184.977	192.060	390.636	281.197	189.553	193.788	197.282	202.110	507.116	197.114	-8191	255	
1918.704	1	1	0	0	0.10191	0.10142	0.10415	0.40301	0.17937	0.21388	0.17501	0.30018	0.2075	0.20733	0.16302	0.036399	0.26084	0.25549	0.10479	0.13161	-2.2792	-2.7708	-2.5208	-2.7875	-2.6813	-2.6042	-2.9208	-2.6437	-2.8729	-2.9	-2.6312	-2.9854	-2.8125	-2.5917	-2.8146	-2.6396	263.297	375.133	401.973	210.311	211.613	350.636	498.666	479.336	404.496	324.160	439.072	218.314	187.463	186.920	268.906	471.448	0.00052378	0.00025518	8.725e-05	812.67	3.2664e-06	1.3578e-05	677.95	271.48	7.2352e-05	7.0483e-06	291.77	114.49	123.22	66.007	0.00013895	63.078	0.0023522	0.0035199	0.0010658	860.36	3.6994e-05	4.0642e-05	647.96	260.15	0.00019431	3.9341e-05	281.37	110.38	118.86	63.653	0.00027883	60.986	250.567	385.202	285.471	186.051	306.223	335.253	185.190	191.951	411.350	389.678	189.653	193.579	197.649	201.901	507.536	197.480	-8191	255	
1918.800	1	1	0	0	0.10009	0.10511	0.25644	0.15362	0.040338	0.070966	0.2055	0.035012	0.16693	0.074362	0.19366	0.42468	0.24836	0.25807	0.21845	0.2023	-2.525	-2.7042	-2.5458	-2.95	-2.7167	-2.5146	-3.1021	-2.5917	-2.8646	-2.7479	-2.6104	-2.7458	-2.7812	-2.7979	-3.0396	-2.6792	388.927	375.975	532.445	465.218	502.569	494.047	408.727	378.240	186.633	180.800	529.835	472.714	503.935	203.073	336.574	192.353	0.00055877	0.00064976	0.00021165	815.55	1.0404e-05	6.4438e-06	688.53	272.3	0.0001183	7.812e-06	294.16	115.58	123.9	65.858	9.8387e-05	63.454	0.0023233	0.0035121	0.0010737	834.44	3.7069e-05	4.1324e-05	654.75	261.64	0.0001257	0.00016161	282.39	110.8	119.33	63.56	0.00020648	61.153	248.892	261.524	346.025	186.196	337.667	330.677	185.391	192.313	400.055	507.624	189.549	193.445	196.999	201.791	513.596	197.601	-8191	255	
1918.896	1	1	0	0	0.16768	0.29804	0.2422	0.16751	0.30712	0.12463	0.075438	0.19779	0.1903	0.21649	0.091931	0.36445	0.070371	0.3058	0.058027	0.057076	-2.2354	-2.95	-2.5958	-2.8667	-2.7417	-2.5979	-3.1104	-2.9625	-2.7458	-2.8271	-2.5646	-2.9521	-2.775	-2.8625	-2.9021	-2.8396	269.264	223.766	522.465	461.850	266.278	360.094	317.333	510.119	505.393	207.712	187.166	474.322	481.987	470.576	516.857	499.063	0.00055975	0.00085328	0.00017435	817.7	8.6346e-06	3.8718e-06	685.48	274.18	2.8312e-06	0.00010838	294.07	115.64	123.16	65.759	0.00016563	63.714	0.0022449	0.0035973	0.0010591	862.4	3.6279e-05	4.2131e-05	653.26	261.21	3.5791e-05	0.00022051	283.51	111.32	118.68	63.501	0.00028503	61.17	252.688	249.199	243.173	186.275	300.188	279.635	185.214	191.941	291.556	388.841	189.609	193.700	197.220	202.228	517.430	197.459	-8191	255	
1918.993	1	1	0	0	0.07104	0.054239	0.074607	0.22249	0.2068	0.13046	0.029107	0.14049	0.12657	0.22385	0.2282	0.072661	0.19108	0.063735	0.073137	0.2752	-2.0938	-2.7896	-2.5708	-2.9042	-2.7375	-2.6271	-3.0417	-2.7854	-2.7	-2.8833	-2.6792	-2.6937	-3.025	-2.8688	-3.0021	-2.7792	270.514	440.041	445.614	425.354	511.996	259.543	392.883	445.053	316.498	191.932	207.498	427.811	458.580	521.355	183.652	489.167	0.00054508	0.00027708	8.5257e-05	807.31	8.4949e-06	8.3613e-06	684.65	271.02	7.7331e-07	0.00016076	289.55	113.06	122.03	65.199	0.00011882	62.605	0.0022377	0.0036157	0.0010874	829.04	3.4632e-05	4.2309e-05	648.51	259.07	3.6506e-05	0.00030358	278.84	109.48	117.56	62.891	0.00020595	60.17	254.291	214.152	268.301	186.877	331.622	340.616	185.241	192.224	333.818	406.746	189.420	193.349	196.928	201.942	521.495	197.261	-8191	255	
1919.089	1	1	0	0	0.12693	0.18954	0.099328	0.11023	0.26672	0.087525	0.13457	0.15401	0.078956	0.09796	0.045908	0.019386	0.097551	0.26155	0.20676	0.13351	-2.2625	-2.9292	-2.7229	-3.0625	-2.75	-2.6146	-2.8958	-2.8167	-2.825	-2.9042	-2.6396	-2.8979	-2.8417	-2.8104	-2.8167	-2.7812	430.856	358.587	326.964	199.082	177.966	203.169	365.939	461.203	493.885	531.990	487.205	367.481	456.089	521.764	375.345	195.360	0.00055645	0.00042089	0.00025466	801.04	0.00012519	4.936e-06	681.17	270.99	5.9231e-06	0.00010313	292.01	114.16	123.61	66.057	0.00015996	63.515	0.0022738	0.0037134	0.0010582	793.77	0.00016143	4.3874e-05	648.58	259.64	3.6953e-05	0.00022906	280.51	110.34	118.78	63.615	0.00029168	60.96	255.746	273.740	249.286	186.933	271.558	382.019	185.007	192.041	334.895	403.345	189.620	193.682	197.129	201.961	174.618	197.449	-8191	255	
1919.185	1	1	0	0	0.10305	0.14975	0.064284	0.080009	0.12324	0.092818	0.17559	0.28694	0.17172	0.16547	0.17206	0.085474	0.22874	0.11769	0.0057099	0.11009	-2.15	-2.8958	-2.5375	-2.9104	-2.9688	-2.525	-2.8812	-2.8521	-2.5521	-2.9167	-2.5938	-2.8625	-2.9667	-2.8021	-3.0438	-2.9396	232.687	188.106	442.694	532.571	505.813	373.173	227.989	474.858	195.718	418.490	329.930	235.529	185.150	484.237	274.031	524.169	0.00058833	0.00091953	0.00014585	807.45	0.00011378	4.8212e-06	687.56	273.96	4.3918e-06	0.00017207	296.13	116.81	124.8	66.772	4.8213e-05	64.705	0.0023263	0.0036662	0.0010465	766.11	0.00020988	4.3019e-05	654.85	262.18	3.7546e-05	0.00032895	283.97	112.53	120.21	64.319	0.00020156	61.961	249.773	293.909	216.694	186.488	297.780	311.711	184.956	192.121	340.006	416.012	189.624	193.461	197.115	201.916	454.986	197.553	-8191	255	
1919.306	1	1	0	0	0.15188	0.060934	0.07916	0.091821	0.080762	0.14179	0.23189	0.24023	0.049772	0.1209	0.042494	0.14223	0.11979	0.28533	0.21519	0.30563	-2.0083	-2.6729	-2.7104	-2.6958	-2.8479	-2.5833	-3.0583	-2.8708	-2.5771	-2.9292	-2.775	-2.6917	-2.9562	-2.7	-2.875	-2.85	418.913	365.958	403.550	209.724	457.929	396.762	189.732	202.424	227.592	390.850	181.629	525.240	183.118	498.618	420.529	444.000	0.00056254	0.00033279	0.00018832	807.9	0.00015378	6.9673e-06	690.22	273.85	7.2522e-06	0.00011792	297.14	119.28	125.69	67.152	7.6176e-05	65.729	0.002348	0.003786	0.0010125	767.71	0.00028404	4.1733e-05	658.23	262.46	3.7751e-05	0.00022971	285.91	114.32	121.11	64.867	0.00011244	66.896	245.817	251.072	203.124	186.828	309.910	357.703	185.103	192.106	353.606	422.188	189.529	193.908	197.293	201.982	449.235	196.367	-8191	255	
1919.400	1	1	0	0	0.20023	0.27437	0.27459	0.31934	0.19651	0.12757	0.15584	0.19999	0.11355	0.10734	0.11293	0.20866	0.099858	0.15263	0.38136	0.21639	-2.3021	-2.8458	-2.6063	-2.8083	-2.9646	-2.6083	-2.7729	-2.8208	-2.5646	-2.8625	-2.8417	-2.5875	-3.0042	-2.6333	-2.85	-3.0187	489.167	179.783	252.961	491.375	302.577	245.757	218.593	473.915	405.735	512.144	450.812	490.949	229.080	485.755	435.634	456.901	0.00059405	0.00054403	0.00022318	810.45	0.00010982	5.1718e-06	698.74	275.68	5.0564e-06	0.00015465	298.73	120.07	125.83	67.052	8.6766e-06	65.251	0.002388	0.0036829	0.0010111	772.17	0.00020371	4.2368e-05	663.31	263.87	3.8356e-05	0.00031006	286.86	115.4	121.25	64.656	3.8073e-05	67.494	250.752	256.394	267.816	186.571	318.641	313.468	184.911	191.955	319.002	426.264	189.812	193.536	197.494	202.079	313.789	196.674	-8191	255	
1919.473	1	1	0	0	0.15721	0.098233	0.13775	0.17037	0.15356	0.080825	0.21713	0.10898	0.20849	0.17212	0.2846	0.28482	0.042389	0.14416	0.12865	0.13393	-2.0021	-2.7521	-2.725	-2.6875	-3.1042	-2.5563	-2.8667	-3.0521	-2.4354	-2.8187	-2.6688	-2.7313	-3.125	-2.8312	-2.6875	-3.0604	194.424	230.365	486.357	399.417	242.504	516.214	510.736	263.259	506.701	357.843	515.752	205.027	218.674	478.859	243.408	492.032	0.00062127	0.00045897	0.00033962	805.42	0.00015274	1.1484e-05	694.54	275.51	3.0024e-06	0.0001192	298.9	119.35	125.44	66.76	7.3409e-06	65.175	0.0023758	0.0037895	0.0009854	767.54	0.0002854	4.0675e-05	658.76	262.61	3.8273e-05	0.00020264	285.77	114.97	121.28	64.565	3.9353e-05	69.827	257.887	296.731	258.848	186.946	322.108	321.314	185.468	192.203	343.235	409.444	189.580	193.543	197.408	201.997	344.664	196.444	-8191	255	
1919.570	1	1	0	0	0.136	0.144	0.12952	0.23687	0.041943	0.12247	0.029497	0.047226	0.041235	0.17366	0.087621	0.12195	0.3488	0.18979	0.086176	0.054281	-2.0083	-2.7188	-2.6583	-2.625	-2.9313	-2.7188	-2.7167	-3.0042	-2.5917	-2.9292	-2.7812	-2.4979	-3.0563	-2.8417	-2.6	-3.1521	333.254	241.558	491.979	450.462	327.668	353.643	315.853	179.963	352.746	478.120	208.225	457.639	508.174	496.005	184.499	455.232	0.00052819	0.00055608	0.00017342	808.43	0.00010051	8.7101e-06	691.39	274.4	6.6647e-06	0.00018728	290.6	118.29	124.24	65.866	6.4002e-06	64.505	0.002382	0.0037595	0.00099716	771	0.00021214	4.0633e-05	659.19	262.82	3.8321e-05	0.00011116	316.41	114.03	119.88	63.594	3.9195e-05	66.847	257.226	269.726	380.298	186.833	322.943	331.119	185.518	192.230	328.914	410.579	188.961	193.813	197.184	202.262	336.616	196.641	-8191	255	
1919.666	1	1	0	0	0.17787	0.12884	0.085248	0.1066	0.065962	0.051327	0.24868	0.13919	0.089322	0.16613	0.085777	0.20731	0.27709	0.20023	0.16591	0.083364	-1.9479	-2.7375	-2.7583	-2.6521	-2.9604	-2.9104	-2.9938	-3.1083	-2.725	-2.8042	-2.9938	-2.6625	-2.9917	-2.8292	-2.6729	-3.1354	296.224	225.398	241.110	320.209	253.706	261.980	220.771	276.284	281.819	397.973	387.507	413.903	197.218	442.571	249.453	516.446	0.00062538	0.0012005	9.8518e-05	797.5	0.00015887	8.1488e-06	691.81	271.14	6.3752e-06	8.429e-06	285.92	116.18	121.46	64.937	5.4403e-06	63.9	0.0023255	0.0036046	0.0010069	762.26	0.00028548	3.9527e-05	655.83	258.77	3.6431e-05	4.0506e-05	317.63	112.24	118.08	62.663	3.991e-05	68.625	249.362	305.303	412.850	186.614	332.437	304.396	185.603	191.914	331.036	339.074	190.017	193.705	197.478	202.178	337.103	196.193	-8191	255	
1919.785	1	1	0	0	0.16842	0.18198	0.44173	0.09343	0.1762	0.038483	0.37767	0.12423	0.055597	0.26426	0.093411	0.26437	0.3646	0.38724	0.0327	0.19241	-2.2604	-2.7687	-2.6958	-2.6	-2.9313	-2.8063	-2.5625	-2.9813	-2.6646	-2.8625	-3.0417	-2.5708	-3.025	-3.1292	-2.5187	-2.9979	323.633	467.035	399.299	215.854	423.924	519.257	431.804	300.528	449.200	247.779	518.093	335.320	531.127	481.029	325.404	488.961	0.00054987	0.00057767	0.00025994	793	9.4064e-05	5.9679e-05	693.08	269.59	3.8829e-06	4.8091e-06	283.91	116.58	122.43	64.296	9.6552e-06	63.914	0.0022867	0.0036892	0.0010021	760.88	0.00017529	4.3414e-05	655.08	257.52	3.6658e-05	4.0931e-05	333.45	112.04	117.43	62.188	4.124e-05	65.995	257.724	241.112	312.842	186.462	367.163	275.973	185.064	191.844	297.802	294.648	189.778	193.539	197.445	201.789	341.916	197.003	-8191	255	
1919.881	1	1	0	0	0.15278	0.045936	0.23209	0.33612	0.18068	0.22334	0.14699	0.068287	0.055321	0.29504	0.10223	0.12685	0.14426	0.22059	0.2066	0.16268	-2.1979	-2.7729	-2.8271	-2.6292	-2.7792	-3	-2.7146	-2.9917	-2.7375	-2.7313	-3.0583	-2.5646	-2.9437	-2.9313	-2.4208	-2.9833	286.448	258.789	520.809	528.134	288.496	204.983	410.276	190.233	417.788	410.346	349.882	455.660	526.199	217.442	429.426	521.826	0.00051472	0.00041817	7.5493e-05	790.63	0.00012547	8.6979e-05	684.65	266.54	3.1962e-06	6.559e-06	281.12	114.81	120.98	64.122	7.3342e-06	63.296	0.0022051	0.0037131	0.0010378	757.61	8.6042e-05	0.00021108	648.99	255.48	3.4989e-05	4.1723e-05	313.88	110.31	116.26	61.683	4.0577e-05	67.383	251.534	525.054	304.642	186.709	373.817	274.103	185.405	191.743	324.014	301.354	189.941	193.870	197.449	202.099	349.828	196.875	-8191	255	
1919.977	1	1	0	0	0.16302	0.052621	0.091119	0.15455	0.26067	0.33696	0.29855	0.17334	0.080908	0.20375	0.13897	0.25443	0.16404	0.21408	0.22318	0.25629	-2.3375	-2.6458	-2.7958	-2.7167	-2.7167	-2.9604	-2.5646	-2.7958	-2.8542	-2.6937	-3.1104	-2.7104	-2.7958	-2.9833	-2.5021	-2.8958	355.922	436.366	505.042	352.318	406.876	460.883	436.796	455.944	420.162	238.706	501.549	440.161	217.112	447.853	337.455	479.265	0.00054306	0.00098671	4.5069e-05	796.34	9.3632e-06	0.00014028	685.76	269.23	5.13e-06	1.8044e-06	281.46	115.98	122.85	65.112	9.9625e-06	64.153	0.0021815	0.0037964	0.0010188	759.61	3.6977e-05	0.00022565	651.92	257.57	3.4962e-05	4.358e-05	334.15	112.15	118.18	62.931	4.0548e-05	65.467	256.804	301.291	291.629	186.656	299.654	335.387	185.220	192.256	286.427	396.501	190.164	193.655	197.184	201.817	323.718	197.715	-8191	255	
1920.073	1	1	0	0	0.04259	0.085944	0.096936	0.23909	0.16307	0.036195	0.14701	0.33712	0.17366	0.15571	0.2141	0.23857	0.35936	0.21546	0.030835	0.20623	-2.3792	-2.6271	-2.9542	-2.75	-2.6417	-2.8688	-2.5104	-3.0208	-2.6917	-2.5146	-3.0417	-2.8167	-2.8312	-3.0917	-2.5812	-3.0354	198.733	217.964	297.804	499.293	279.025	319.740	253.206	492.032	262.339	371.620	175.118	479.209	494.093	451.835	206.186	472.204	0.0016886	0.00030373	0.00029368	801.94	6.597e-06	0.00016036	692.91	270.89	6.87e-06	1.1212e-05	289.44	117.67	124.8	66.094	9.5991e-06	64.703	0.0027859	0.0038539	0.0010514	765.36	3.8277e-05	0.00031003	654.6	260	3.537e-05	4.3732e-05	319.43	113.27	119.74	63.565	4.0387e-05	63.32	231.660	286.568	225.371	187.034	308.892	341.619	185.215	192.220	326.618	343.735	189.836	193.801	197.444	202.279	350.843	197.754	-8191	255	
1920.169	1	1	0	0	0.14442	0.13003	0.15862	0.27331	0.32347	0.08444	0.22425	0.28975	0.15373	0.097714	0.29474	0.059149	0.069607	0.24795	0.11459	0.030116	-2.4979	-2.5292	-3.1333	-2.8292	-2.3917	-2.8479	-2.7188	-2.9854	-2.6042	-2.5917	-2.925	-2.8875	-2.6625	-3.1771	-2.6063	-2.9354	512.977	194.244	232.811	445.534	357.564	514.052	401.057	181.171	381.511	351.790	214.504	229.458	507.709	479.524	277.257	263.940	0.0020762	0.00012974	0.00018988	803.78	7.349e-06	0.00011997	696.52	272.56	3.4165e-06	8.3273e-06	288.2	119.37	125.56	66.47	4.6939e-06	65.703	0.011036	0.0039445	0.0010477	766.55	3.9845e-05	0.00022603	660.7	261.52	3.7017e-05	4.4473e-05	337.11	115.01	120.8	64.181	3.9753e-05	63.067	233.376	269.712	275.129	186.616	357.069	353.826	185.121	192.191	330.245	326.447	190.221	193.737	197.266	202.110	279.926	197.531	-8191	255	
1920.265	1	1	0	0	0.080375	0.15502	0.18558	0.18346	0.15094	0.25322	0.1654	0.29944	0.087194	0.037973	0.12493	0.069763	0.32101	0.34838	0.13297	0.12366	-2.5104	-2.4458	-2.8083	-2.8792	-2.8125	-2.9229	-2.8396	-2.6458	-2.8688	-2.7667	-3.0708	-2.7521	-2.7229	-3.2188	-2.6979	-2.8604	353.951	460.334	249.638	436.101	180.674	191.277	205.355	514.448	301.666	181.288	380.687	466.934	494.330	515.718	533.420	462.464	0.0016407	0.00064003	0.00016573	810.95	2.2564e-06	0.00017904	697.15	274.7	2.1734e-06	5.4582e-06	293.27	117.97	124.01	66.285	7.3938e-06	64.87	0.010866	0.0039647	0.0010553	768.26	3.9995e-05	0.00030815	661.31	262.17	3.692e-05	4.4071e-05	310.45	115.64	120.24	63.826	3.8919e-05	62.262	241.178	269.927	214.055	186.683	397.822	358.620	185.023	192.010	336.294	388.912	190.616	193.192	197.640	202.277	281.175	197.710	-8191	255	
1920.386	1	1	0	0	0.075072	0.2419	0.19009	0.15354	0.13391	0.10884	0.25404	0.1281	0.29358	0.13215	0.061246	0.36638	0.27117	0.31427	0.14238	0.18898	-2.5625	-2.6417	-2.8125	-2.7542	-2.4708	-2.8667	-2.8	-2.8292	-2.9458	-2.6271	-2.8667	-2.9229	-2.625	-3.0917	-2.8146	-2.9458	466.029	482.495	512.909	199.324	193.003	462.092	454.467	456.893	492.059	215.159	516.773	483.133	517.136	200.243	305.319	323.815	0.0021021	0.00087754	8.8019e-05	800.65	9.3385e-06	0.00010526	689.01	272.58	7.898e-06	5.3171e-06	290.17	117.55	124.57	65.88	5.4798e-06	64.066	0.014785	0.003961	0.0010355	765.05	3.9824e-05	0.00022549	656.77	260.88	3.7321e-05	4.3457e-05	289.95	125.19	119.98	63.742	3.7984e-05	61.97	239.039	296.205	230.398	186.585	343.639	359.086	185.540	192.059	301.922	368.328	190.446	192.627	197.482	202.095	275.930	197.677	-8191	255	
1920.480	1	1	0	0	0.095866	0.18101	0.22504	0.28762	0.10238	0.24171	0.18656	0.13896	0.045946	0.21381	0.13449	0.16211	0.032927	0.17498	0.12992	0.2218	-2.5	-2.6104	-2.8125	-3.0604	-2.5396	-3.0604	-2.7875	-2.7792	-2.8083	-2.5646	-2.7417	-2.8667	-2.6354	-2.9104	-2.8875	-2.6875	364.971	292.634	241.954	485.807	512.485	365.841	394.051	288.217	406.389	365.987	480.388	437.415	471.636	465.650	428.867	194.335	0.0017681	0.00055628	0.00035364	806.87	8.5452e-06	0.00017286	689.86	273.8	7.2628e-06	1.4668e-05	292.92	115.74	123.33	65.485	6.2182e-06	63.75	0.010921	0.0038763	0.0010418	768.72	4.0635e-05	0.00029803	656.24	261.74	3.7427e-05	4.344e-05	282.74	123.22	118.97	63.131	3.853e-05	61.545	250.116	354.826	265.370	186.702	359.715	364.963	185.070	192.549	298.870	349.760	189.605	193.521	197.160	202.035	273.043	197.330	-8191	255	
1920.576	1	1	0	0	0.43814	0.17166	0.34631	0.10013	0.12254	0.067815	0.11968	0.27192	0.13507	0.074693	0.1904	0.14844	0.065352	0.40355	0.12782	0.17887	-2.5062	-2.4188	-2.7917	-2.825	-2.55	-2.9604	-2.7313	-2.5646	-3.0292	-2.675	-2.7875	-3.025	-2.6521	-3.0646	-2.8604	-2.7771	458.531	206.679	513.487	530.611	298.116	366.321	375.520	530.806	435.649	525.853	185.435	525.760	499.093	484.422	408.132	410.586	0.0021214	0.00051365	0.00018802	802.35	8.4084e-06	0.00014257	689.94	271.51	4.4849e-06	3.112e-06	291.88	112.79	123.02	65.016	4.5506e-06	64.01	0.014745	0.0038299	0.0010456	763.89	4.0091e-05	0.00016292	665.8	260.36	3.7827e-05	4.2147e-05	282.49	126.43	118.63	62.646	3.9112e-05	61.471	251.080	276.734	240.027	186.671	304.036	372.316	185.106	192.155	317.397	351.391	189.483	193.096	197.459	202.299	354.325	197.872	-8191	255	
1920.697	1	1	0	0	0.13581	0.1589	0.08042	0.12836	0.10093	0.19364	0.16265	0.10803	0.15172	0.2226	0.049009	0.15229	0.2521	0.236	0.20656	0.21403	-2.5958	-2.4313	-2.6688	-2.9042	-2.5833	-2.7875	-2.9062	-2.6146	-2.9958	-2.6083	-2.7521	-3.1292	-2.6042	-3.0208	-2.9188	-2.8458	321.087	328.567	278.403	363.821	370.518	490.104	427.361	528.233	264.421	499.090	403.712	350.140	474.447	225.220	267.608	424.557	0.0017211	0.00067877	0.00020582	805.69	5.2365e-06	0.0001892	693.75	272.78	8.9329e-06	3.9921e-07	297.1	115.75	123.21	65.388	9.1871e-06	63.799	0.010786	0.0038479	0.0010636	766.77	4.0837e-05	5.983e-05	721.59	261.74	3.7734e-05	4.1085e-05	284.98	123.33	119.03	63.081	3.9004e-05	61.622	254.745	288.413	191.184	186.523	344.684	379.668	184.958	192.061	332.772	328.087	189.784	193.224	197.315	202.158	344.359	197.703	-8191	255	
1920.769	1	1	0	0	0.23944	0.17381	0.11185	0.34621	0.089937	0.2231	0.23698	0.30765	0.15591	0.35432	0.045492	0.18141	0.19184	0.19295	0.14896	0.14442	-2.4375	-2.6688	-2.5917	-2.9542	-2.7438	-2.8917	-2.9604	-2.6458	-2.9583	-2.8187	-2.6104	-2.9896	-2.6896	-2.9688	-2.9479	-2.7396	403.670	441.072	259.076	512.330	498.205	275.725	369.014	509.808	367.822	341.984	259.225	489.974	197.115	176.885	375.427	525.846	0.0021546	0.00028867	0.00012511	802.72	4.9169e-06	3.297e-06	684.42	274.56	6.5068e-06	2.4328e-06	293.47	116.81	123.89	65.478	2.4742e-06	63.986	0.014212	0.0037166	0.0010931	764.57	3.8544e-05	4.1242e-05	710.63	261.95	3.7661e-05	4.1324e-05	283.85	128.67	119.56	63.315	3.8481e-05	61.756	266.983	293.237	244.302	186.729	367.786	294.320	185.869	192.209	341.410	295.149	189.581	193.105	197.295	201.914	405.782	197.881	-8191	255	
1920.865	1	1	0	0	0.21509	0.02894	0.066753	0.10485	0.16809	0.19122	0.12133	0.17307	0.020713	0.13165	0.19898	0.16348	0.071516	0.23225	0.26837	0.27124	-2.4062	-2.7229	-2.5854	-2.9792	-2.5312	-2.7292	-2.9958	-2.8021	-2.9354	-2.8187	-2.4938	-2.9958	-2.6063	-2.7438	-2.9542	-2.6958	314.387	296.054	260.813	454.087	428.952	328.693	532.019	475.679	357.360	434.310	460.903	233.408	526.930	202.703	349.420	354.267	0.00092045	0.0076087	0.00022723	806.26	1.6156e-06	4.1541e-06	695.45	278.66	2.1813e-06	1.1493e-05	299.63	118.99	126.27	66.974	1.0756e-05	65.118	0.0076248	0.0067319	0.0011166	769.2	3.7861e-05	4.2176e-05	742.43	265.33	3.6554e-05	4.0654e-05	288.54	126.15	121.89	64.699	3.9638e-05	62.756	292.554	192.231	264.112	186.795	245.349	332.193	186.235	191.962	354.138	333.704	189.600	193.080	197.456	202.162	387.409	197.274	-8191	255	
1920.961	1	1	0	0	0.1471	0.33372	0.15609	0.31521	0.19755	0.022717	0.092114	0.07082	0.15616	0.092754	0.16797	0.22309	0.18126	0.14626	0.26262	0.068702	-2.3688	-2.8333	-2.3521	-2.875	-2.6333	-2.7062	-3.05	-2.7542	-2.8646	-2.9479	-2.5625	-2.9896	-2.725	-2.6104	-2.9021	-2.7896	186.652	176.818	470.744	511.084	451.821	282.233	402.292	526.344	275.766	297.762	178.733	468.508	209.699	489.136	476.524	464.824	0.0010893	0.012352	0.00036018	812.35	4.9228e-06	4.3343e-06	698.24	277.64	4.1229e-06	5.5514e-06	301.46	120.29	126.44	67.501	4.0466e-06	65.776	0.0025257	0.022317	0.0011074	774	3.6787e-05	4.3241e-05	719.73	266.22	3.6606e-05	4.3077e-05	290.12	131.73	122.23	65.16	3.9545e-05	63.477	297.642	196.115	282.884	186.903	358.498	277.066	185.967	192.177	314.595	370.881	189.539	192.703	197.242	202.121	367.197	197.252	-8191	255	
1921.082	1	1	0	0	0.1501	0.12008	0.38601	0.14061	0.21345	0.086349	0.11677	0.22585	0.099415	0.16303	0.29165	0.26077	0.12162	0.29997	0.13053	0.23377	-2.2562	-2.6167	-2.3083	-2.8937	-2.6333	-2.5646	-3.15	-2.5875	-2.7438	-2.7542	-2.5104	-2.9354	-2.9437	-2.8833	-2.8604	-2.75	382.369	368.292	450.735	506.133	357.423	304.225	293.721	239.090	387.153	373.314	485.609	189.456	273.278	522.601	194.281	368.330	0.00060437	0.0096694	0.00011199	819.29	2.0556e-06	5.6643e-06	697.04	279.26	3.9547e-06	4.3603e-06	304.26	122.47	126.82	67.95	1.0718e-05	66.463	0.0023177	0.019366	0.0010997	778.35	3.6678e-05	4.4089e-05	749.72	267.54	3.747e-05	4.1673e-05	292.89	124.61	125.6	65.505	3.9585e-05	64.054	250.926	232.003	210.715	186.864	303.415	295.822	186.282	192.151	323.560	369.306	189.895	194.041	196.514	202.149	341.831	197.669	-8191	255	
1921.178	1	1	0	0	0.083892	0.22237	0.15647	0.078782	0.21283	0.074636	0.29476	0.031345	0.036731	0.086823	0.20023	0.23276	0.25424	0.19039	0.071585	0.15905	-2.4542	-2.9521	-2.4437	-2.8438	-2.8104	-2.5438	-3.1125	-2.6958	-2.7479	-2.75	-2.5708	-2.8563	-2.9313	-2.7833	-2.9542	-2.7188	309.729	327.323	252.164	229.331	425.993	313.885	469.927	482.675	343.282	420.382	378.799	263.880	249.697	519.597	227.800	267.095	0.00063457	0.014453	3.6162e-05	814.53	3.2069e-06	8.6136e-06	700.25	277.38	3.294e-06	9.4003e-06	301.5	120.73	125.61	66.721	1.5499e-06	65.207	0.0023333	0.025983	0.0011089	776.48	3.6793e-05	4.3895e-05	725.71	266.48	3.8199e-05	4.2159e-05	290.49	116.22	133.72	64.529	3.8631e-05	62.716	253.873	230.350	441.528	186.609	380.452	325.586	185.734	191.975	328.560	299.258	189.559	193.776	196.437	201.679	213.601	197.464	-8191	255	
1921.274	1	1	0	0	0.19286	0.33621	0.016471	0.32416	0.095106	0.13299	0.078041	0.16926	0.090528	0.073049	0.10783	0.50381	0.27757	0.39362	0.16177	0.25482	-2.2938	-2.9062	-2.5604	-2.8563	-2.9188	-2.4958	-3	-2.675	-2.6896	-3.0312	-2.4646	-2.85	-3.1396	-2.7646	-2.7938	-2.8979	455.894	300.728	175.011	187.515	325.309	511.172	525.338	215.116	360.120	466.334	416.971	480.605	449.080	527.454	414.057	527.050	0.00053547	0.0096372	8.262e-05	812.22	4.2197e-06	8.4165e-06	689.99	274.08	2.7981e-06	3.2398e-06	299.73	120.57	125.23	67.002	1.0724e-05	65.4	0.002339	0.018885	0.0010689	772.76	3.7536e-05	4.4316e-05	743.36	264.17	3.7809e-05	4.0858e-05	288.92	115.69	131.18	64.616	3.9147e-05	62.775	257.793	242.410	378.660	186.988	313.688	304.993	185.885	191.954	337.640	334.049	189.506	193.808	196.658	201.811	321.063	197.707	-8191	255	
1921.346	1	1	0	0	0.14468	0.071209	0.19586	0.071214	0.1058	0.16437	0.20132	0.18481	0.23581	0.27071	0.17791	0.26478	0.15222	0.36867	0.086408	0.087535	-2.1271	-2.9208	-2.4813	-2.95	-2.9396	-2.4646	-2.9167	-2.9167	-2.6458	-2.9146	-2.7667	-2.8479	-2.9083	-2.5146	-2.9417	-2.85	235.160	454.828	191.961	493.114	486.536	306.690	409.147	450.928	472.536	406.370	417.002	517.489	405.933	479.765	191.215	391.984	0.0005075	0.014069	0.00015167	811.63	3.3994e-06	6.6934e-06	701.36	277.09	5.7411e-06	1.3007e-06	300.36	121.2	125.48	66.951	8.3885e-06	65.365	0.00238	0.025862	0.001055	773.39	3.7642e-05	4.3742e-05	697.09	271.17	3.8777e-05	4.1782e-05	289.02	116.14	135.34	64.662	3.8116e-05	62.922	250.550	250.100	275.871	186.532	297.692	346.231	185.938	191.825	362.351	368.927	189.450	193.839	196.584	202.183	342.250	197.520	-8191	255	
1921.466	1	1	0	0	0.17924	0.096253	0.23673	0.14418	0.077801	0.27746	0.12404	0.29726	0.1867	0.20433	0.15637	0.22003	0.13598	0.29333	0.21873	0.15983	-2.0938	-2.8583	-2.6312	-2.6583	-2.8625	-2.5771	-2.9646	-2.8688	-2.5625	-2.9708	-2.8146	-2.6937	-2.9083	-2.7208	-2.8833	-3.0375	310.178	318.546	509.853	477.317	234.827	342.704	448.893	373.716	208.812	340.898	500.933	373.449	451.466	178.194	434.257	494.097	0.00054338	0.0094961	0.00024513	813.18	5.6769e-06	1.5879e-06	706.45	276.69	6.8764e-06	6.0261e-06	303.38	121.52	126.88	67.117	5.998e-06	66.216	0.0024407	0.019029	0.0010454	775.47	3.7972e-05	4.2644e-05	670.58	291.52	3.8771e-05	4.0993e-05	291.61	117.19	131.68	64.812	3.9012e-05	63.681	250.254	252.531	317.550	186.737	254.787	470.441	185.433	191.560	349.795	322.963	189.542	193.812	196.583	201.869	242.506	197.322	-8191	255	
1921.561	1	1	0	0	0.43778	0.15287	0.11559	0.28787	0.25656	0.26289	0.12705	0.28923	0.10064	0.27266	0.18547	0.099322	0.007233	0.21067	0.26516	0.21946	-2.1625	-2.9	-2.7042	-2.5542	-2.7562	-2.6458	-2.8458	-2.8479	-2.3833	-2.8312	-2.7687	-2.7792	-2.8812	-2.7521	-2.6937	-3.0729	287.570	275.078	461.649	431.076	439.446	328.419	417.032	468.604	357.711	225.026	283.798	426.735	461.466	442.796	291.246	402.372	0.00057812	0.014097	0.00026667	815.22	2.44e-06	1.2078e-05	708.83	276.04	5.1108e-06	1.3953e-05	303	122.08	126.55	67.399	2.7088e-06	65.685	0.0023773	0.025862	0.0010313	777.07	3.6269e-05	4.1888e-05	672.79	286.65	3.7901e-05	4.193e-05	291.62	117.38	136.26	64.965	3.9682e-05	63.47	261.472	259.636	260.078	186.828	243.196	340.215	185.419	192.506	337.102	307.071	189.347	193.634	196.176	202.011	226.388	197.495	-8191	255	
1921.659	1	1	0	0	0.063678	0.162	0.15374	0.18154	0.067028	0.26742	0.23941	0.15425	0.14637	0.18174	0.19875	0.054514	0.11368	0.22867	0.064482	0.22923	-2.1854	-2.8021	-2.6937	-2.6854	-3.0333	-2.7479	-2.8271	-3.1167	-2.65	-2.9167	-2.7417	-2.7292	-2.825	-2.9562	-2.7729	-3.0021	264.310	370.921	524.228	286.378	515.208	245.450	384.220	530.996	208.208	475.630	214.767	264.513	274.816	467.184	429.130	445.531	0.00060962	0.0077435	0.0014778	817.19	1.16e-06	4.7476e-06	705.29	274.94	6.2811e-06	5.1795e-06	300.38	122.13	128.17	67.961	1.8986e-06	66.178	0.0024056	0.011624	0.0024388	777.45	3.7377e-05	4.2798e-05	667.95	295.41	3.8433e-05	4.1276e-05	290.72	117.98	132.83	65.512	4.0752e-05	63.821	256.085	289.850	215.755	186.766	406.363	347.570	185.291	192.498	303.337	333.524	190.002	193.599	196.841	202.046	303.604	197.514	-8191	255	
1921.777	1	1	0	0	0.34273	0.084944	0.10303	0.21527	0.27863	0.21073	0.22879	0.26684	0.18053	0.27911	0.13931	0.22843	0.18704	0.04335	0.017954	0.40215	-2.2896	-2.8042	-2.6354	-2.5396	-2.8708	-2.5146	-2.9354	-2.8021	-2.5333	-2.8083	-2.8771	-2.6063	-3.0938	-2.7875	-2.6604	-3.0667	300.383	409.344	476.294	418.560	461.600	400.924	418.231	462.614	467.292	234.182	473.538	525.430	270.153	391.940	433.317	494.300	0.00061919	0.00014118	0.0014437	816.61	8.3162e-06	1.2277e-05	702.24	275.44	6.0891e-06	8.7397e-06	304.36	122.38	128.3	67.375	1.4225e-05	66.586	0.0023899	0.0037268	0.0069056	776.88	3.6762e-05	4.3017e-05	670.51	285.96	3.797e-05	4.184e-05	292.71	118.24	136.46	65.424	4.0945e-05	64.073	255.183	257.842	207.744	186.740	286.095	255.034	184.960	192.173	339.420	338.800	190.050	193.745	196.335	201.985	300.774	197.393	-8191	255	
1921.874	1	1	0	0	0.12056	0.1181	0.011227	0.082904	0.16868	0.26108	0.078985	0.30564	0.086368	0.21072	0.17207	0.059173	0.084704	0.24754	0.083418	0.061881	-1.9104	-2.7771	-2.7479	-2.5083	-2.9562	-2.6083	-2.7792	-2.9708	-2.6833	-2.8604	-2.8312	-2.6208	-2.9979	-2.8063	-2.7062	-3.1354	338.026	300.616	431.193	271.266	198.945	517.742	192.602	533.069	178.160	431.556	302.357	477.951	215.907	452.905	492.429	511.031	0.00057321	0.00070983	0.0027225	812.41	5.8287e-06	2.8739e-06	704.12	274.31	2.8979e-06	5.7356e-06	303.55	122.59	127.56	67.747	4.4221e-06	67.144	0.0023595	0.0038061	0.0051316	775.16	3.7789e-05	4.1812e-05	669.45	293.17	3.7859e-05	4.212e-05	292.18	118.22	127.55	66.728	4.0921e-05	64.586	251.873	311.238	272.185	186.546	305.104	508.711	185.211	192.185	303.354	286.770	189.547	193.538	197.540	201.523	416.493	197.747	-8191	255	
1921.970	1	1	0	0	0.15763	0.01861	0.15715	0.0069131	0.2495	0.05127	0.10279	0.14263	0.18135	0.16914	0.057904	0.26871	0.21724	0.16918	0.23572	0.2873	-2.1083	-2.6229	-2.8833	-2.4854	-2.8688	-2.7854	-2.5771	-3.1417	-2.5563	-2.7458	-2.8438	-2.5312	-2.8438	-2.9417	-2.7188	-3.0125	332.472	390.332	261.017	479.182	433.779	499.276	521.334	505.502	482.252	379.733	404.448	506.854	526.923	475.478	402.960	458.536	0.00061416	0.00048256	0.0042463	814.79	1.5449e-06	5.5496e-06	707.31	276.12	6.39e-07	9.5221e-06	304.21	123.37	127.38	67.887	4.3493e-06	66.721	0.0023515	0.0038042	0.0070844	777.87	3.7839e-05	4.1511e-05	673.37	286.36	3.8149e-05	4.276e-05	292.9	118.36	122.87	70.272	4.0928e-05	64.202	253.650	248.906	286.819	186.756	233.281	376.098	185.039	192.358	231.224	306.217	189.565	193.609	197.435	201.424	316.773	197.684	-8191	255	
1922.066	1	1	0	0	0.22444	0.44134	0.23239	0.13324	0.16419	0.63019	0.044675	0.11396	0.18066	0.12318	0.25799	0.23808	0.15427	0.239	0.1771	0.45648	-2.2354	-2.5604	-2.8875	-2.6646	-2.7896	-2.7604	-2.6604	-2.9583	-2.5333	-2.5333	-3.0646	-2.5896	-2.9437	-2.9083	-2.4542	-2.8875	291.308	243.301	465.718	340.564	275.561	414.600	501.926	479.780	456.476	319.677	418.414	213.411	199.702	500.711	256.350	198.945	0.00061828	0.00062905	0.0032912	810.41	6.077e-06	6.0201e-06	699.66	272.23	2.2677e-06	6.8471e-06	301.33	120.34	125.98	66.45	9.0547e-06	65.066	0.0023074	0.0039406	0.0051983	772.66	3.8152e-05	4.2462e-05	665.96	292	3.7396e-05	4.2675e-05	289.1	115.49	120.82	67.304	3.9957e-05	62.742	253.574	293.310	291.372	186.979	351.890	326.578	185.256	192.145	394.740	362.542	189.593	193.767	197.114	201.609	310.011	197.745	-8191	255	
1922.162	1	1	0	0	0.15021	0.16355	0.13275	0.40186	0.14889	0.12514	0.075292	0.26221	0.26909	0.26382	0.39464	0.18524	0.12772	0.24539	0.11114	0.18378	-2.3229	-2.7771	-3.0125	-2.5583	-2.775	-3.0854	-2.6937	-2.9813	-2.6437	-2.6771	-3.0042	-2.7438	-2.9813	-3.1167	-2.4938	-3.0354	323.542	363.943	378.942	522.974	308.071	455.705	264.395	503.882	450.929	297.063	467.026	463.654	416.691	498.470	364.728	383.403	0.00055362	0.00019336	0.0036903	808.91	6.6053e-06	4.7642e-06	701.12	272.39	5.1686e-05	8.4964e-06	299.61	119.71	125.78	67.529	3.9095e-06	65.695	0.0022861	0.0039343	0.0070476	769.44	3.7792e-05	4.1918e-05	665.51	271.61	9.882e-05	4.3449e-05	289.1	115.79	121.38	69.449	4.0164e-05	63.306	253.357	181.550	297.917	186.631	341.248	360.949	185.429	192.467	199.520	326.677	189.833	194.059	197.340	201.222	327.005	197.499	-8191	255	
1922.258	1	1	0	0	0.2028	0.1176	0.16223	0.26248	0.24375	0.26643	0.16016	0.14256	0.12103	0.18918	0.16121	0.16087	0.28364	0.14397	0.13314	0.11837	-2.2	-2.6417	-2.95	-2.5646	-2.7458	-2.825	-2.6396	-3.0146	-2.7146	-2.6917	-2.8646	-2.6479	-2.6813	-3.0771	-2.6917	-2.8812	445.098	455.791	527.907	405.529	225.472	446.234	210.745	425.678	311.268	373.307	178.486	369.367	462.396	395.421	339.850	396.834	0.00063256	0.00049597	0.0024469	808.05	3.2859e-06	1.2775e-05	707.97	277.54	9.3421e-05	5.5005e-06	300.53	121.11	126.68	67.593	2.1575e-06	66.584	0.0023248	0.003918	0.0051501	772.79	3.8276e-05	4.2016e-05	670.66	264.56	0.0002486	4.2612e-05	289.49	116.79	122.22	68.279	3.9826e-05	64.109	249.519	315.832	307.453	186.855	306.305	308.669	185.396	192.285	504.033	323.831	189.636	193.750	197.390	201.707	187.332	197.718	-8191	255	
1922.379	1	1	0	0	0.1154	0.14397	0.3304	0.15724	0.53319	0.28984	0.12655	0.22553	0.3417	0.0083274	0.025492	0.043177	0.046364	0.36163	0.10378	0.09453	-2.3917	-2.5958	-2.8271	-2.7313	-2.6146	-2.8083	-2.5833	-2.7833	-2.8125	-2.6479	-2.9417	-2.7333	-2.65	-3.0417	-2.4208	-2.975	190.385	528.895	259.201	522.762	497.244	197.914	494.157	407.931	370.168	258.141	280.579	511.459	474.855	179.753	295.430	210.793	0.00056736	0.0007791	0.0042349	810.94	8.9847e-06	6.5954e-06	710.55	279.19	5.9089e-05	5.7822e-06	304.24	122.73	128.22	68.496	3.9118e-06	67.425	0.0022857	0.0039236	0.0069212	774.13	3.8679e-05	3.9992e-05	671.6	266.58	0.00018051	4.2608e-05	293.76	118.41	123.34	70.198	3.9486e-05	64.809	249.761	273.894	320.596	186.364	325.509	277.716	185.300	192.059	511.990	309.392	189.458	194.019	197.449	201.408	317.488	197.649	-8191	255	
1922.473	1	1	0	0	0.32016	0.35144	0.095137	0.15543	0.046927	0.31936	0.17371	0.17262	0.090823	0.15018	0.064987	0.27802	0.094715	0.10729	0.10721	0.33203	-2.5042	-2.4104	-2.7438	-2.6604	-2.5854	-2.8979	-2.5771	-2.5708	-3.0187	-2.6583	-3.1479	-2.7542	-2.7812	-3.1167	-2.8021	-2.7854	297.627	321.784	482.873	450.037	482.584	189.894	187.609	417.606	430.131	381.758	488.708	523.364	303.757	492.539	465.940	488.285	0.00061424	0.001094	0.0028342	820.35	7.7791e-06	4.5634e-06	708.27	279.8	9.6141e-05	8.7396e-06	305.46	124.02	127.78	68.56	4.9843e-06	67.141	0.0022333	0.0038479	0.0025828	804.77	3.8462e-05	4.0609e-05	674.61	267.5	0.00024644	4.2849e-05	293.36	118.93	123.38	68.803	3.9801e-05	64.46	258.779	246.354	321.273	186.757	287.463	343.052	185.683	192.107	517.749	322.615	189.485	193.870	197.363	201.616	272.003	197.504	-8191	255	
1922.569	1	1	0	0	0.11096	0.17553	0.23882	0.18349	0.086365	0.27644	0.070875	0.16077	0.22037	0.11407	0.14264	0.43086	0.3282	0.15828	0.12142	0.14105	-2.3521	-2.5542	-2.8958	-2.8271	-2.5292	-2.8771	-2.6833	-3.0708	-2.6312	-2.6125	-2.8771	-2.8708	-2.5938	-3.0646	-2.6875	-2.7396	443.643	436.920	397.868	458.453	412.040	370.039	382.945	245.417	360.365	287.914	490.446	531.165	215.496	484.096	239.211	209.368	0.00055523	0.0003938	0.00022917	813.76	5.1591e-06	4.0297e-06	708.22	278.82	5.3494e-05	6.43e-06	306.8	123.61	127.64	68.202	1.034e-05	66.792	0.002277	0.0038573	0.0010238	864.99	3.9023e-05	4.1101e-05	671.43	267.21	0.0001803	4.3094e-05	293.37	118.56	123.37	70.04	4.005e-05	64.377	257.433	271.792	288.508	187.798	309.465	304.465	185.160	192.065	526.375	319.287	189.528	193.635	197.243	201.950	285.665	197.719	-8191	255	
1922.641	1	1	0	0	0.22725	0.20239	0.34811	0.18084	0.13821	0.14315	0.21363	0.32827	0.22568	0.096065	0.15588	0.21209	0.093728	0.23319	0.1679	0.19734	-2.325	-2.4417	-2.5312	-2.8	-2.4854	-2.9437	-2.7833	-2.8771	-2.8542	-2.5708	-2.8333	-2.8208	-2.5479	-2.9125	-2.6292	-2.7583	484.614	523.918	382.914	413.245	339.932	510.454	371.632	480.225	526.039	194.869	487.500	477.197	433.668	498.912	338.161	176.251	0.00056994	0.00032936	0.00019857	818.52	7.3716e-06	5.0913e-06	707.95	280.38	8.6009e-05	2.1523e-06	307.48	123.05	128.03	67.946	9.1887e-05	66.557	0.0022446	0.0038697	0.0010381	841.02	3.9466e-05	4.1258e-05	673.09	268.22	0.00024385	4.3373e-05	294.44	118.17	123.47	66.444	0.00011796	64.299	248.632	250.993	325.087	187.628	331.212	457.491	185.375	191.897	530.162	242.000	189.555	193.637	196.946	202.005	253.424	197.634	-8191	255	
1922.762	1	1	0	0	0.05925	0.069145	0.34909	0.26276	0.24195	0.041683	0.22212	0.12621	0.075703	0.1274	0.20463	0.038292	0.027917	0.23637	0.13601	0.059339	-2.4917	-2.5625	-2.7167	-3	-2.4667	-2.8438	-2.8229	-2.5687	-3.0417	-2.6188	-2.7271	-2.8833	-2.6083	-3.0375	-2.6729	-2.6271	204.862	301.382	492.802	519.027	331.352	194.570	431.086	423.623	373.521	433.380	479.267	507.041	467.624	305.968	470.553	403.530	0.00062508	0.00067874	0.00013796	816.02	8.5409e-07	7.2121e-06	714.9	277.11	5.2132e-05	5.0585e-06	306.75	122.83	127.13	67.322	0.0001501	66.904	0.0022429	0.0038438	0.0010268	867.88	3.8646e-05	4.0968e-05	674.11	266.24	0.00018066	4.304e-05	294.1	118.08	122.76	64.959	0.00026182	64.443	250.672	265.832	200.840	187.617	230.142	347.316	184.968	192.163	183.911	374.011	189.494	193.895	197.301	202.042	289.794	197.474	-8191	255	
1922.858	1	1	0	0	0.094668	0.23976	0.16665	0.078905	0.1837	0.13607	0.18202	0.30747	0.26756	0.24749	0.14203	0.14816	0.16612	0.33219	0.11482	0.24619	-2.4854	-2.6104	-2.7	-3.0312	-2.6437	-2.6958	-2.6854	-2.5396	-2.9958	-2.6729	-2.7792	-2.9813	-2.6167	-2.8896	-2.95	-2.6833	206.122	435.123	510.644	412.761	229.729	407.497	389.515	435.753	449.383	276.583	252.504	178.321	500.515	186.000	426.162	493.350	0.00061288	0.00035456	0.00012514	812.56	8.6837e-06	2.4743e-06	712.01	277.08	5.0154e-05	1.0149e-05	306.97	123.71	127.17	67.697	0.00012038	66.379	0.0022661	0.00382	0.001054	842.15	3.9326e-05	4.1333e-05	675.65	267.04	0.00023159	4.2486e-05	294.56	118.55	122.79	65.173	0.000191	64.235	253.587	277.673	253.487	187.691	318.894	370.304	185.117	192.472	484.209	360.844	190.074	193.535	197.482	202.047	293.528	197.471	-8191	255	
1922.954	1	1	0	0	0.15239	0.1572	0.060737	0.097324	0.07582	0.3001	0.079416	0.18188	0.13973	0.23301	0.12756	0.22275	0.12427	0.3585	0.11081	0.14803	-2.3458	-2.8083	-2.5292	-3.0104	-2.5563	-2.8625	-2.8063	-2.7646	-2.8	-2.7479	-2.7208	-2.7896	-2.7812	-2.7958	-2.85	-2.5875	430.044	276.262	476.128	211.995	181.561	319.829	440.316	186.719	270.089	384.871	447.628	497.659	206.449	492.210	490.332	509.650	0.00059633	0.00031144	0.00027841	810.03	3.4083e-06	9.1044e-06	708.21	277.46	3.9163e-05	0.00010557	303.02	121.88	126.59	67.066	0.00015037	66.137	0.0022808	0.0037776	0.0010701	865.72	4.0184e-05	4.1832e-05	669.95	265.2	8.0519e-05	0.00013673	291.54	117.21	122.21	64.736	0.00026709	63.499	248.995	280.196	269.027	188.029	272.486	392.390	185.285	191.853	473.550	206.391	189.435	193.754	197.613	201.876	299.195	197.394	-8191	255	
1923.050	1	1	0	0	0.21453	0.048559	0.10495	0.34016	0.11752	0.15007	0.065288	0.17991	0.023293	0.15522	0.085203	0.046307	0.17349	0.18311	0.099373	0.15673	-2.3396	-2.5438	-2.675	-3.0271	-2.6	-2.6813	-2.9292	-2.4958	-2.8312	-2.8771	-2.5708	-3.0104	-2.7333	-2.7667	-2.8312	-2.6458	519.865	395.049	194.769	462.964	280.124	507.933	464.212	189.203	359.226	371.684	352.939	454.921	464.557	482.117	328.700	303.329	0.0005614	0.0006613	0.00018727	810.96	8.1916e-06	4.5023e-06	705.81	277.91	1.7897e-06	0.00013819	302.99	122.78	127.02	67.773	0.00012406	66.83	0.0022324	0.0037983	0.0010657	837.34	3.9183e-05	4.1672e-05	669.14	266.33	3.7256e-05	0.00028861	293.01	117.85	123.26	65.378	0.00019753	64.244	251.325	246.074	212.555	187.510	351.405	300.971	185.411	192.127	299.082	180.646	189.437	193.757	197.444	201.944	302.242	197.649	-8191	255	
1923.146	1	1	0	0	0.18083	0.16499	0.26283	0.15283	0.19791	0.16105	0.3078	0.18319	0.20297	0.044961	0.29195	0.19597	0.1323	0.26668	0.14164	0.31407	-2.2833	-2.9917	-2.5208	-2.9833	-2.4688	-2.65	-2.9417	-2.5771	-2.9229	-2.9146	-2.5917	-2.9146	-2.7604	-2.9167	-2.7875	-2.5792	520.688	180.392	406.060	460.694	212.408	306.446	476.102	445.850	199.362	228.946	498.387	501.104	485.544	524.170	393.423	466.871	0.0006596	0.00029588	0.00013778	816.06	4.1389e-06	7.848e-06	709.3	281.21	5.4915e-06	9.5499e-05	305.88	123.96	128.96	68.559	0.00014297	68.094	0.002285	0.0038011	0.0010661	855.63	3.8354e-05	4.2173e-05	675.07	268.63	3.7264e-05	0.00020741	295.99	119.73	124.43	66.064	0.00026529	65.278	254.504	246.266	261.321	187.803	305.918	339.251	185.165	192.300	308.530	186.250	189.714	193.679	197.400	201.832	304.843	197.438	-8191	255	
1923.242	1	1	0	0	0.079265	0.043254	0.24556	0.090471	0.2368	0.15517	0.097726	0.11546	0.16096	0.17749	0.15135	0.13428	0.08678	0.37355	0.10358	0.20052	-2.25	-2.75	-2.4979	-3.0167	-2.7771	-2.675	-2.9875	-2.525	-2.6979	-2.8146	-2.5417	-2.8917	-2.7562	-2.8771	-3.0292	-2.8292	366.419	311.385	530.820	340.742	460.762	485.353	529.663	208.720	532.953	175.782	520.141	520.570	480.078	530.478	405.363	532.001	0.00058252	0.00062081	0.00020504	819.92	3.3902e-05	8.5877e-06	717.64	281.28	4.2771e-06	0.00013801	311.73	125.99	130.04	68.614	0.00010658	68.263	0.0023477	0.0036634	0.0010984	795.89	0.00013054	4.3132e-05	679.83	269.41	3.6868e-05	0.00028432	299.56	121.4	125.17	66.274	0.00019751	65.737	257.903	267.506	312.195	187.908	175.483	343.488	185.285	191.914	372.961	192.948	189.776	193.945	197.090	201.688	312.971	197.430	-8191	255	
1923.339	1	1	0	0	0.13142	0.084261	0.13785	0.17332	0.1691	0.1778	0.30255	0.45305	0.14784	0.075527	0.22376	0.26198	0.26173	0.21617	0.26694	0.11747	-2.3083	-3.0604	-2.3854	-2.8958	-2.7396	-2.6083	-2.925	-2.6813	-2.6333	-2.9688	-2.6229	-3.0042	-2.7979	-2.9875	-2.8708	-2.8875	343.739	530.996	311.336	453.688	529.518	237.925	488.911	477.006	506.848	198.200	521.692	197.479	211.568	301.186	382.197	455.768	0.00058205	0.00073879	5.2308e-05	815.94	0.00013769	1.4107e-05	714.31	278.55	3.9914e-06	9.4406e-05	310.02	123.73	128.13	67.777	0.00011425	67.832	0.0022979	0.003739	0.0011031	779.03	0.00026155	4.2044e-05	679.06	267.74	3.6523e-05	0.00021142	296.74	119.55	123.69	65.326	0.00022679	64.625	255.511	211.772	274.527	186.602	446.976	278.337	185.373	192.213	304.432	206.225	189.447	193.859	197.316	201.894	361.209	197.534	-8191	255	
1923.459	1	1	0	0	0.17156	0.037976	0.12901	0.32324	0.24306	0.18744	0.048545	0.17403	0.1633	0.19242	0.27359	0.20064	0.12592	0.19648	0.2363	0.24069	-2.2771	-2.5521	-2.4646	-2.8271	-2.95	-2.6396	-2.9896	-2.7583	-2.7	-3.0021	-2.75	-2.9437	-3.1125	-2.5563	-2.8167	-2.875	430.742	337.703	230.662	517.329	412.008	342.720	409.088	530.088	182.655	453.596	456.281	210.421	486.817	454.884	534.064	384.127	0.00061316	0.00052834	0.00021892	813.92	9.7027e-05	5.1483e-06	712.11	280.67	7.4173e-06	0.00014428	307.34	124.34	128.45	67.885	9.3234e-05	67.376	0.0022842	0.0035307	0.0010825	776.1	0.0001938	4.302e-05	674.69	268.29	3.6709e-05	0.00028997	295.97	119.49	124.09	65.465	6.9448e-05	67.545	258.917	244.135	244.671	186.830	450.055	267.244	184.997	192.093	340.712	203.319	189.228	193.511	197.133	201.977	359.409	197.550	-8191	255	
1923.554	1	1	0	0	0.18339	0.096041	0.0044672	0.14197	0.19987	0.032178	0.15323	0.098402	0.23705	0.10293	0.1748	0.13606	0.1237	0.34575	0.12714	0.22141	-2.1417	-2.9833	-2.7771	-2.8812	-2.9104	-2.6083	-2.8812	-2.8708	-2.6188	-3.1333	-2.7625	-2.7333	-3.1125	-2.8083	-2.8708	-3.0062	269.977	199.826	325.489	532.226	223.651	393.355	446.436	404.104	271.940	340.037	427.680	515.476	488.253	476.032	518.363	177.121	0.00059931	0.00012726	0.000235	816.32	0.00015168	6.4113e-06	711.4	279.81	4.9104e-06	0.0001052	308.79	123.97	127.48	67.649	8.2192e-06	68.304	0.0023139	0.0036914	0.001085	776.86	0.0002605	4.2198e-05	675.8	268.17	3.726e-05	0.00021511	295.76	119.4	123.38	65.279	3.8404e-05	71.34	249.813	308.845	240.211	186.625	463.691	344.323	185.035	192.203	368.622	214.998	189.367	193.861	197.186	202.062	322.660	198.122	-8191	255	
1923.650	1	1	0	0	0.067197	0.17486	0.080849	0.21862	0.1693	0.28635	0.16399	0.13316	0.1095	0.06245	0.39161	0.17641	0.066721	0.47636	0.37219	0.11794	-2.15	-2.8021	-2.6167	-2.5875	-2.8187	-2.4542	-2.9188	-2.8438	-2.4437	-2.8771	-2.8354	-2.7958	-3.0083	-2.7271	-2.8271	-2.8167	288.836	261.744	354.479	528.562	410.275	400.114	442.386	518.381	254.056	299.398	467.995	381.702	371.253	506.550	502.598	505.055	0.00054947	0.00090872	0.00014875	812.62	9.7793e-05	7.2053e-06	711.51	279.23	2.2125e-06	2.493e-05	312.28	124.26	127.43	67.802	8.0238e-06	68.526	0.0023591	0.0037304	0.0010647	776.89	0.00019182	4.3783e-05	678.65	267.48	3.7643e-05	0.00023655	300.04	119.7	123.24	65.456	3.8696e-05	70.15	248.695	304.815	217.707	186.734	460.971	345.964	185.123	192.014	337.645	461.429	188.197	193.833	197.484	201.861	296.030	198.033	-8191	255	
1923.746	1	1	0	0	0.08838	0.25164	0.12591	0.32413	0.060443	0.3422	0.15803	0.36031	0.34212	0.1614	0.17884	0.16761	0.18307	0.36384	0.12769	0.036297	-2.1104	-2.7438	-2.5458	-2.6771	-3.0229	-2.5167	-2.9125	-3.0104	-2.425	-2.9042	-2.7604	-2.7771	-3.1146	-2.675	-2.6896	-2.8438	391.927	320.031	396.067	482.245	255.013	210.660	455.184	516.363	297.179	430.617	443.793	199.185	203.502	505.164	201.102	290.729	0.00054714	0.00058258	0.0002865	820.02	0.00012258	1.6904e-06	722.17	280.51	1.3329e-06	1.5298e-05	314.61	126.09	128.39	68.2	6.2187e-06	68.571	0.0023987	0.0037434	0.0010609	778.8	0.00026092	4.3795e-05	683.03	268.68	3.7937e-05	6.7317e-05	322.97	121.35	124.27	65.858	3.836e-05	72.016	250.232	301.688	214.251	186.871	474.262	359.852	185.650	192.075	336.889	410.764	188.795	193.909	197.215	201.906	331.186	198.322	-8191	255	
1923.867	1	1	0	0	0.067725	0.21301	0.27733	0.31522	0.23369	0.30392	0.10575	0.092351	0.23739	0.019146	0.094404	0.16068	0.12748	0.013708	0.20923	0.086406	-1.9333	-2.9625	-2.6354	-2.5354	-3.0625	-2.8063	-2.7313	-2.9479	-2.6958	-2.7812	-2.4479	-2.5625	-2.8542	-2.6646	-2.7521	-2.8958	321.206	175.377	288.678	506.250	434.354	492.920	355.117	421.235	372.671	348.715	405.565	530.751	176.756	380.398	446.719	531.009	0.00066269	0.00074546	0.0001856	813.02	9.0369e-05	7.8242e-06	716.89	282.18	4.1845e-06	1.7103e-06	313.74	125.08	128.55	68.404	8.7348e-06	68.354	0.0024328	0.0036334	0.0010362	776.83	0.00019264	4.263e-05	679	268.94	3.8525e-05	4.059e-05	346.95	120.71	124.2	65.981	3.8898e-05	69.96	246.287	249.635	237.148	186.914	482.060	357.720	185.453	192.303	317.048	407.485	187.888	193.682	197.350	201.841	286.611	198.204	-8191	255	
1923.938	1	1	0	0	0.071854	0.38102	0.2385	0.088374	0.14826	0.20404	0.20356	0.15178	0.10736	0.20557	0.079735	0.27295	0.14137	0.33061	0.17141	0.1429	-2.0229	-2.8812	-2.6979	-2.4938	-2.8792	-2.7125	-2.7583	-2.8229	-2.4333	-2.9104	-2.7562	-2.5604	-3.1354	-2.55	-2.5417	-2.9583	434.292	220.833	396.498	200.538	239.376	499.364	446.060	462.300	192.409	509.128	459.576	299.326	439.215	185.883	490.501	456.386	0.00065537	0.00033019	7.372e-05	819	0.00012323	0.00012028	721.09	281.72	3.4686e-06	7.5359e-06	314.5	126.36	129.8	68.58	6.8651e-06	68.707	0.0023861	0.0036726	0.0010538	780.03	0.00020385	7.1784e-05	682.8	269.48	3.8801e-05	4.1032e-05	332.1	121.5	125.16	66.188	3.8747e-05	72.433	248.711	293.960	321.500	186.975	433.742	531.885	185.585	191.879	278.022	264.527	188.611	193.975	197.166	201.898	305.586	198.400	-8191	255	
1924.059	1	1	0	0	0.18611	0.047262	0.23678	0.18188	0.2924	0.23472	0.39278	0.073525	0.091993	0.13138	0.32676	0.22059	0.36124	0.12026	0.10208	0.18767	-1.9292	-2.8229	-2.7292	-2.6708	-2.7542	-2.7292	-2.7812	-3.0229	-2.5312	-2.7125	-2.7667	-2.5625	-2.9583	-2.6333	-2.6646	-3.0521	371.428	499.987	369.663	197.344	468.754	270.774	494.188	441.201	379.383	487.699	472.941	483.224	200.581	495.503	278.088	188.244	0.00056314	0.00034307	9.1493e-05	823.37	8.5915e-05	8.9125e-05	721.87	282.92	3.0051e-06	8.9381e-06	316.65	126.21	130.01	68.501	2.6252e-06	68.799	0.0023961	0.0036991	0.00099771	782.41	5.4658e-05	0.00016951	682.56	269.55	3.9e-05	4.1258e-05	348.14	122.02	124.81	66.304	4.0282e-05	70.596	255.923	373.122	296.798	186.800	433.066	178.811	185.440	192.256	366.757	337.274	187.888	193.731	197.227	201.865	320.188	198.063	-8191	255	
1924.155	1	1	0	0	0.13279	0.30619	0.15152	0.23062	0.19215	0.14035	0.21729	0.076608	0.1546	0.13443	0.10639	0.17589	0.30763	0.095606	0.084341	0.26299	-2.2229	-2.75	-2.7542	-2.7146	-2.9104	-2.8958	-2.7062	-2.9354	-2.5146	-2.7292	-2.8312	-2.5417	-2.9417	-2.7875	-2.5771	-3.0438	265.529	242.470	385.717	202.662	267.525	180.059	250.047	190.284	210.815	371.935	406.493	225.052	480.445	429.928	334.318	457.125	0.00061443	0.00054039	0.00011213	820.29	4.4499e-06	0.00016737	717.15	283.81	5.0147e-06	3.8112e-06	320.29	128.78	130.17	68.727	4.032e-06	68.767	0.002383	0.0037461	0.001053	783.14	3.7157e-05	0.0002924	686.55	270.83	3.819e-05	4.1398e-05	335.66	123.26	125.28	66.401	4.0772e-05	70.616	252.749	221.075	275.593	187.171	380.582	477.058	185.193	191.596	312.014	341.008	188.788	194.046	197.327	201.608	282.275	198.611	-8191	255	
1924.251	1	1	0	0	0.17235	0.1194	0.10339	0.34361	0.16517	0.15382	0.062274	0.23575	0.12904	0.11093	0.22667	0.086899	0.11304	0.26154	0.28904	0.13937	-2.1042	-2.5875	-2.7667	-2.5521	-2.9562	-2.75	-2.5312	-2.9896	-2.9062	-2.6188	-2.925	-2.65	-2.9188	-2.8125	-2.55	-3.1208	480.011	286.304	271.076	459.882	356.835	205.105	233.047	464.187	213.287	246.586	470.083	285.522	379.450	530.167	250.653	531.200	0.00072971	0.00032504	6.7859e-05	819.28	7.8092e-06	9.7228e-05	715.78	278.25	6.9757e-06	8.8799e-06	313.37	124.84	127.78	66.927	4.955e-06	66.742	0.004273	0.0037665	0.0010037	780.69	3.7273e-05	0.00021241	680.76	267.09	3.745e-05	4.1134e-05	344.3	120.12	122.53	64.715	4.0385e-05	64.622	261.509	356.737	261.466	186.918	369.323	483.203	185.213	192.116	308.528	337.908	188.285	193.537	197.268	201.921	382.308	198.278	-8191	255	
1924.347	1	1	0	0	0.07343	0.069207	0.10594	0.30323	0.1689	0.13058	0.22454	0.17841	0.20918	0.3709	0.12914	0.33192	0.24712	0.091755	0.066174	0.18587	-2.2	-2.6958	-2.9146	-2.5208	-2.5583	-2.7604	-2.6083	-2.8208	-2.65	-2.4562	-2.9646	-2.5062	-2.8625	-2.9021	-2.4375	-2.9521	292.260	223.567	452.961	196.133	279.521	274.555	420.408	291.609	214.391	208.749	379.664	424.622	222.875	377.591	384.879	181.295	0.00068793	0.00048439	0.00020854	808.83	8.3423e-06	0.00014941	715.54	278.72	4.1877e-06	4.9528e-06	309.83	124.26	127.58	67.164	8.4841e-06	67.143	0.0086731	0.0037571	0.0010315	772.56	3.7022e-05	0.00028904	674.44	265.93	3.6398e-05	4.207e-05	328.31	119.42	122.39	64.834	4.0079e-05	64.686	252.131	244.000	263.467	186.543	322.427	491.397	184.959	192.042	367.530	289.829	188.743	193.604	197.353	201.778	328.921	197.498	-8191	255	
1924.443	1	1	0	0	0.13943	0.21509	0.11258	0.013831	0.090877	0.26864	0.31442	0.16769	0.11689	0.17939	0.12997	0.1983	0.23174	0.16776	0.14977	0.15124	-2.3854	-2.4083	-2.8625	-2.6333	-2.6833	-2.8167	-2.5687	-2.9354	-2.7958	-2.4354	-2.8625	-2.6917	-2.7333	-3.1125	-2.4458	-3.0187	402.623	234.049	533.340	479.799	427.699	481.626	180.183	495.810	518.155	268.984	221.112	296.544	502.521	512.178	363.677	494.090	0.0012689	0.00078274	0.00017691	819.8	8.201e-06	0.00011051	714.85	279.92	5.0037e-06	8.4545e-06	311.49	126.26	127.6	67.847	5.8768e-06	67.825	0.014378	0.0038183	0.0010406	778.59	3.7443e-05	0.00021162	678.91	267.18	3.718e-05	4.3683e-05	327.8	123.17	123.04	65.33	4.0673e-05	65.269	348.415	298.027	322.654	186.661	317.314	500.007	185.253	192.159	346.682	350.493	189.820	192.783	197.326	201.661	304.972	197.700	-8191	255	
1924.538	1	1	0	0	0.12417	0.23664	0.39562	0.30257	0.32604	0.057601	0.093037	0.079528	0.14356	0.16283	0.18431	0.2869	0.091312	0.10719	0.20464	0.16716	-2.2479	-2.4958	-2.7979	-2.8208	-2.8187	-3.025	-2.8125	-2.8229	-2.7438	-2.5875	-2.8958	-2.8896	-2.7438	-3.1813	-2.5521	-2.8146	396.566	229.964	295.875	483.284	237.792	416.100	372.116	378.856	213.964	374.691	337.946	174.811	232.493	487.612	304.633	285.614	0.00074385	0.00049074	3.8413e-05	817.92	8.9411e-06	0.00017242	714.43	278.66	8.7275e-06	6.2252e-06	311.59	127.19	127.58	67.975	8.2924e-06	68.441	0.010608	0.0039188	0.0010181	778.52	3.8637e-05	0.00029393	680.95	267.04	3.5801e-05	4.3078e-05	298.47	130.39	123.6	65.618	4.0091e-05	65.99	353.636	283.431	489.750	186.828	306.406	505.160	185.514	192.401	381.293	287.098	189.724	193.306	197.178	201.850	270.846	197.654	-8191	255	
1924.634	1	1	0	0	0.086957	0.061387	0.07387	0.27055	0.15059	0.15271	0.077928	0.23038	0.03212	0.15125	0.25348	0.19981	0.1731	0.075492	0.10959	0.16751	-2.4708	-2.4333	-2.8937	-2.8688	-2.6021	-3.0104	-2.7292	-2.8187	-2.8187	-2.5271	-2.9229	-2.8812	-2.6104	-2.9771	-2.7438	-2.8125	461.964	352.922	275.835	199.001	371.891	300.065	405.549	477.094	440.139	342.889	243.249	529.991	461.254	532.723	430.240	468.577	0.0013222	0.00072747	0.00023493	825.67	7.5122e-06	0.00011276	716.86	278.2	3.2465e-06	1.9474e-06	310.84	129.42	128.32	67.679	3.7186e-06	68.174	0.014382	0.0039235	0.00099	779.83	3.8692e-05	0.00021745	680.82	266.88	3.6729e-05	4.3442e-05	297.92	138.1	123.93	65.505	3.8566e-05	65.838	367.291	227.690	303.092	186.770	332.829	512.452	185.334	192.028	339.027	291.660	189.482	193.574	197.449	201.714	335.067	197.158	-8191	255	
1924.730	1	1	0	0	0.13027	0.14946	0.046113	0.068704	0.22957	0.25227	0.40191	0.10309	0.1281	0.11691	0.15898	0.16483	0.19646	0.14553	0.12081	0.10005	-2.3146	-2.4062	-2.8104	-2.7146	-2.5729	-2.8708	-2.8146	-2.8417	-2.6396	-2.5458	-2.8854	-2.9188	-2.6396	-3.0083	-2.7542	-2.7417	243.758	332.828	473.249	403.203	373.373	395.723	531.617	201.414	269.850	301.425	470.455	416.188	490.442	493.652	406.767	423.711	0.00081482	0.0011522	0.00022326	818.63	4.7525e-06	9.7538e-05	719.26	278.64	7.4912e-06	9.4211e-06	309.25	129.38	128.94	67.849	2.6326e-06	68.616	0.011058	0.0038704	0.0010076	776.05	3.9638e-05	0.00019674	700.04	267.08	3.548e-05	4.393e-05	297.36	133.49	124.27	65.644	3.9986e-05	65.867	372.512	272.732	224.688	186.722	345.407	435.878	184.040	191.658	359.982	340.539	189.979	193.233	197.020	202.049	261.190	197.269	-8191	255	
1924.828	1	1	0	0	0.12787	0.21759	0.13763	0.21466	0.32992	0.1476	0.064445	0.18036	0.078554	0.10064	0.080323	0.12816	0.32296	0.29639	0.0081489	0.19852	-2.4688	-2.5521	-2.7229	-2.7917	-2.4521	-3.1354	-2.7354	-2.8625	-2.9562	-2.6042	-2.8542	-2.8354	-2.7354	-3.0375	-2.8667	-2.7	391.150	403.068	268.404	440.908	417.943	492.092	429.041	504.595	318.146	426.513	458.143	403.466	494.264	465.039	242.854	518.280	0.0011703	0.00039215	0.00014954	811.56	8.4419e-06	1.031e-05	721.17	279.64	4.2406e-06	3.4923e-06	310.88	130.34	127.82	67.777	2.5664e-06	68.05	0.014939	0.0038964	0.0010123	774.96	3.9329e-05	3.9813e-05	729.81	267.29	3.614e-05	4.2606e-05	297.2	138.27	123.55	65.32	3.8222e-05	65.629	383.600	316.399	271.487	187.001	291.102	305.742	184.326	192.070	402.637	331.062	189.191	193.505	197.232	202.211	532.564	197.781	-8191	255	
1924.947	1	1	0	0	0.27951	0.042214	0.17969	0.1593	0.1628	0.19083	0.1587	0.15281	0.20082	0.0099477	0.085726	0.17009	0.23653	0.11146	0.097211	0.13133	-2.4708	-2.5854	-2.7729	-2.9021	-2.3167	-2.8125	-2.8563	-2.8646	-2.8625	-2.6188	-2.7625	-3.0792	-2.5167	-3.2292	-2.6854	-2.6229	324.955	481.181	205.105	393.697	212.597	185.656	496.841	254.196	513.804	268.904	321.666	472.391	468.817	206.610	281.872	413.498	0.00056749	0.00053135	0.00023501	813.54	1.017e-05	8.2717e-06	712.72	277.27	4.1298e-06	4.9645e-06	309.38	129.92	127.85	67.704	1.0123e-05	68.563	0.0109	0.0037865	0.0010013	774.08	3.8988e-05	3.9393e-05	760.16	266	3.6066e-05	4.1464e-05	297.54	134.07	123.37	65.231	3.8809e-05	65.955	383.276	271.712	282.856	186.841	340.384	316.939	184.223	192.075	295.588	364.785	189.896	193.773	196.991	201.765	335.689	197.466	-8191	255	
1925.043	1	1	0	0	0.15718	0.16316	0.080776	0.23451	0.38237	0.06197	0.41159	0.18183	0.17354	0.1056	0.11707	0.21059	0.28452	0.26391	0.11194	0.16893	-2.3875	-2.6354	-2.7167	-2.9813	-2.575	-2.8563	-2.8417	-2.6271	-3.0542	-2.7438	-2.7167	-2.925	-2.6604	-2.8479	-2.8292	-2.7208	218.710	199.994	506.465	527.164	460.940	265.165	448.339	185.795	209.548	434.421	204.686	443.944	446.037	180.562	460.287	457.141	0.0013732	0.0042715	0.00023748	815.38	4.0174e-06	3.0339e-06	714.08	277.98	5.1322e-06	5.4471e-06	308.39	130.72	126.99	67.206	1.2076e-05	68.157	0.0094889	0.010958	0.0010289	774.93	3.915e-05	3.9432e-05	739.3	265.76	3.4851e-05	4.216e-05	298.15	139	122.96	64.833	3.7601e-05	65.581	377.989	446.065	282.077	186.933	361.789	299.475	184.186	191.947	353.826	308.036	189.839	193.787	197.155	201.950	309.967	197.708	-8191	255	
1925.139	1	1	0	0	0.14645	0.041367	0.15277	0.010929	0.17391	0.063307	0.21769	0.23792	0.23961	0.07362	0.27648	0.16454	0.094906	0.18417	0.20508	0.1407	-2.5646	-2.5354	-2.5563	-3.0062	-2.5625	-2.7562	-2.925	-2.5938	-2.9062	-2.7562	-2.6042	-2.9479	-2.7021	-2.8	-2.7125	-2.5812	339.631	449.467	475.589	397.426	237.831	498.236	505.771	532.910	181.251	458.687	511.294	491.370	332.401	414.359	493.031	432.278	0.00066199	0.0034627	9.5254e-05	806.44	6.9645e-06	7.0044e-06	713.74	276.65	7.8936e-06	5.0006e-06	303.89	126.18	125.09	66.127	9.5245e-06	66.961	0.0021492	0.019289	0.0010318	769.27	3.846e-05	3.8979e-05	758.68	262.92	3.522e-05	4.0053e-05	293.33	130.71	120.75	63.759	3.8754e-05	64.354	256.589	458.299	298.680	186.816	334.296	329.442	183.902	191.950	321.449	327.962	189.164	193.907	197.099	201.952	279.485	197.662	-8191	255	
1925.235	1	1	0	0	0.15649	0.17619	0.12078	0.33324	0.2346	0.24433	0.065909	0.42984	0.095672	0.17375	0.075724	0.39656	0.32391	0.19827	0.23577	0.26345	-2.5812	-2.6	-2.6771	-3.0438	-2.6271	-2.7896	-2.975	-2.4896	-2.9562	-2.6437	-2.5708	-3.1083	-2.6813	-2.9396	-2.9375	-2.6354	309.469	270.263	277.075	483.326	214.224	330.845	277.458	531.742	365.301	334.012	492.920	469.899	208.487	191.478	474.677	491.881	0.00058589	0.013781	0.00020969	808.31	4.3013e-06	6.3248e-06	710.19	273.67	7.9019e-06	9.5205e-06	303.61	125.85	126.37	66.659	7.9632e-06	67.211	0.0021907	0.028378	0.0010481	766.96	3.6815e-05	4.0746e-05	731.18	262.72	3.4764e-05	4.1423e-05	294.06	128.32	126.31	64.233	3.6781e-05	64.75	253.324	364.780	281.816	186.672	342.123	367.166	184.592	192.058	341.343	309.307	189.614	194.640	196.366	201.987	287.750	197.358	-8191	255	
1925.332	1	1	0	0	0.096744	0.21534	0.29791	0.060486	0.17091	0.17449	0.12549	0.23092	0.10444	0.26672	0.048264	0.16891	0.46314	0.074579	0.13687	0.18708	-2.3792	-2.5542	-2.625	-2.8917	-2.6521	-2.6167	-2.9396	-2.4042	-2.8792	-2.7687	-2.5146	-2.8792	-2.6917	-2.8688	-2.8979	-2.75	384.286	301.129	353.540	234.958	468.598	303.166	247.047	477.898	501.424	406.514	396.282	454.262	177.895	487.280	282.682	471.025	0.00058736	0.0093107	0.00021574	810.46	8.3275e-06	6.9774e-06	715.57	274.01	1.3909e-06	3.5756e-06	306.56	125.82	126.95	66.437	8.9869e-06	67.344	0.0021994	0.021213	0.0010555	770.58	3.7844e-05	4.127e-05	759.05	263.19	3.4684e-05	3.9629e-05	293.54	120.3	131.74	64.106	3.737e-05	64.988	255.406	368.730	373.789	186.748	350.047	298.300	184.302	192.150	282.410	516.721	189.539	193.779	196.791	202.116	258.914	197.627	-8191	255	
1925.428	1	1	0	0	0.037893	0.33215	0.20013	0.32547	0.094923	0.12816	0.11429	0.12724	0.07775	0.19379	0.38386	0.1784	0.095409	0.21554	0.10112	0.062589	-2.4354	-2.7771	-2.4375	-2.9813	-2.8146	-2.8271	-3.1396	-2.5917	-2.8833	-2.8083	-2.5312	-2.7667	-2.8833	-2.7125	-3.0042	-2.6875	220.880	340.948	501.686	424.497	409.761	343.856	331.233	211.717	310.405	493.581	445.789	220.823	324.790	505.262	196.426	174.299	0.00058593	0.01604	0.00029881	808.2	5.3732e-06	6.0001e-06	714.37	274.59	6.6726e-06	3.4457e-06	306.39	126.46	128.51	66.485	4.621e-06	68.281	0.0021904	0.028843	0.0010772	768.42	3.7178e-05	4.1231e-05	734.49	262.36	3.5411e-05	4.1647e-05	295.07	121.38	136.95	64.272	3.7133e-05	65.581	252.729	381.664	290.036	187.197	338.916	282.642	184.363	192.112	347.286	362.481	189.554	193.880	197.646	201.830	350.682	197.156	-8191	255	
1925.548	1	1	0	0	0.27855	0.20838	0.17894	0.10284	0.16511	0.24499	0.31008	0.20187	0.16774	0.12692	0.24201	0.16959	0.20353	0.27449	0.25529	0.1835	-2.3146	-2.8937	-2.5687	-3.05	-2.6125	-2.5479	-2.9375	-2.8208	-2.4667	-2.8542	-2.5208	-2.9833	-2.7708	-2.7292	-2.8375	-2.8208	342.883	367.053	523.246	213.497	491.770	270.832	428.509	439.279	181.317	295.805	422.282	412.602	389.311	491.463	208.627	256.183	0.00057022	0.010931	0.00020619	801.55	6.6277e-06	9.6687e-06	709.03	277.33	6.3955e-06	2.2278e-06	304.18	125.95	127.19	66.331	5.0984e-06	67.528	0.0022344	0.020545	0.0010768	766.18	3.7701e-05	4.2446e-05	713.45	273.78	3.5438e-05	3.949e-05	293.35	120.83	131.96	64.013	3.6046e-05	64.954	252.131	380.460	276.792	186.535	384.418	354.789	185.199	191.051	353.489	329.733	189.814	193.914	197.640	201.628	333.190	197.585	-8191	255	
1925.643	1	1	0	0	0.26951	0.29715	0.18757	0.061306	0.13941	0.22529	0.07003	0.095368	0.12939	0.20659	0.17528	0.052888	0.21079	0.16969	0.21219	0.4888	-2.2979	-2.9437	-2.4062	-2.7812	-2.7	-2.5417	-3.1271	-2.9333	-2.5958	-3.0167	-2.6167	-2.9625	-3.0042	-2.7708	-2.9604	-2.8208	303.475	210.992	322.012	230.187	255.800	374.588	511.023	227.014	328.283	484.116	332.190	527.240	399.136	366.771	452.484	502.364	0.00064958	0.016839	0.00016761	802.91	7.2746e-06	9.6043e-06	707.75	276.19	5.4867e-06	3.1766e-06	305.85	126.72	128.75	66.257	1.0055e-05	67.559	0.0022413	0.02833	0.0010664	765.81	3.6316e-05	4.1746e-05	670.32	284.76	3.6123e-05	4.0439e-05	293.76	121.3	136.96	64.195	3.5443e-05	64.953	255.258	392.185	276.023	186.587	336.888	367.018	185.239	191.408	358.021	448.479	189.603	193.787	197.539	201.886	279.417	197.626	-8191	255	
1925.739	1	1	0	0	0.16835	0.27627	0.10417	0.20263	0.25747	0.14991	0.12203	0.21907	0.19323	0.26443	0.076622	0.10172	0.18133	0.23246	0.18006	0.23565	-2.2417	-3.0271	-2.5667	-3.0708	-2.7313	-2.5563	-3.0021	-2.7958	-2.6458	-3.0292	-2.7687	-2.825	-3.0125	-2.8646	-2.8958	-2.6708	361.958	262.966	322.350	485.476	199.579	304.457	353.191	448.058	521.677	187.472	285.738	179.182	506.748	527.698	369.776	420.255	0.00061436	0.010524	0.0003041	808.8	5.4939e-06	8.1473e-06	707.81	278.46	1.3935e-06	1.018e-05	303.5	125.84	127.07	66.08	8.5614e-06	67.41	0.0023575	0.021333	0.0010503	769.43	3.7941e-05	4.2074e-05	672.09	295.6	3.7006e-05	3.9038e-05	293.24	120.76	131.73	63.773	3.5568e-05	64.779	250.441	398.061	255.209	186.719	350.200	333.975	185.061	191.038	391.349	354.044	189.750	193.822	197.759	201.806	356.932	197.351	-8191	255	
1925.835	1	1	0	0	0.079398	0.072766	0.41927	0.21011	0.084054	0.043563	0.11295	0.33355	0.18513	0.15432	0.23675	0.13092	0.21213	0.20802	0.10559	0.092933	-2.2792	-3.0271	-2.6167	-2.7479	-2.8812	-2.5208	-3.0333	-2.8812	-2.6646	-2.875	-2.8625	-2.7479	-3.0396	-2.7354	-2.7896	-2.9958	337.734	241.204	337.405	298.086	434.582	211.614	419.612	456.948	203.978	348.515	437.046	471.338	445.738	510.585	462.813	202.098	0.000611	0.015281	0.0036006	801.6	7.6961e-06	8.682e-06	709.11	274.61	2.918e-06	2.5724e-06	302.17	124.16	125.9	65.286	7.0961e-06	67.048	0.0023509	0.014214	0.0040654	764.42	3.5791e-05	4.275e-05	669.59	282.37	3.7104e-05	3.7568e-05	291.24	119.83	135.26	63.06	3.7001e-05	64.641	253.254	357.741	468.640	186.640	323.543	328.616	185.349	191.363	363.812	361.552	189.693	193.882	197.983	201.939	291.906	197.491	-8191	255	
#DATA ENDS
