BOXY.EXE: ISS Imagent and Oximeter Data Acquisition Program Version 0.80
Ascii Record File

#ACQ INFORMATION
2  Detector Channels 
16  External MUX Channels 
1  Auxiliary Channels 
5000  Waveform (CCF) Frequency (Hz)
1  Waveforms Skipped 
30  Waveforms Averaged 
1  Cycles Averaged 
16  Acquisitions per Waveform 
10.0806  Updata Rate (Hz) 

#FILE INFORMATION
TRUE -- External MUX Channel results are PARSED.
FALSE -- AC DC and Phase are NOT grouped.
TRUE -- Companion Program Settings File CREATED.
FALSE -- AC data not excluded
FALSE -- DC data not excluded
FALSE -- Phase data not excluded
FALSE -- Auxillary Chn. data not excluded
Tab delimiters

#CALIBRATION STATE
TRUE -- Waveform Calibration Values APPLIED.


#AUX CALIBRATION VALUES
Val Type	aux-1	

Term	1.0000e+00	
Factor	0.0000e+00	


#WF CALIBRATION VALUES
A = Detector Channel
Val Type	A-AC1	A-AC2	A-AC3	A-AC4	A-AC5	A-AC6	A-AC7	A-AC8	A-AC9	A-AC10	A-AC11	A-AC12	A-AC13	A-AC14	A-AC15	A-AC16	A-DC1	A-DC2	A-DC3	A-DC4	A-DC5	A-DC6	A-DC7	A-DC8	A-DC9	A-DC10	A-DC11	A-DC12	A-DC13	A-DC14	A-DC15	A-DC16	A-Ph1	A-Ph2	A-Ph3	A-Ph4	A-Ph5	A-Ph6	A-Ph7	A-Ph8	A-Ph9	A-Ph10	A-Ph11	A-Ph12	A-Ph13	A-Ph14	A-Ph15	A-Ph16	

Term	0.00000e+00	0.00000e+00	0.00000e+00	0.00000e+00	0.00000e+00	0.00000e+00	0.00000e+00	0.00000e+00	0.00000e+00	0.00000e+00	0.00000e+00	0.00000e+00	0.00000e+00	0.00000e+00	0.00000e+00	0.00000e+00	0.00000e+00	0.00000e+00	0.00000e+00	0.00000e+00	0.00000e+00	0.00000e+00	0.00000e+00	0.00000e+00	0.00000e+00	0.00000e+00	0.00000e+00	0.00000e+00	0.00000e+00	0.00000e+00	0.00000e+00	0.00000e+00	0.00000e+00	0.00000e+00	0.00000e+00	0.00000e+00	0.00000e+00	0.00000e+00	0.00000e+00	0.00000e+00	0.00000e+00	0.00000e+00	0.00000e+00	0.00000e+00	0.00000e+00	0.00000e+00	0.00000e+00	0.00000e+00	
Factor	1.00000e+00	1.00000e+00	1.00000e+00	1.00000e+00	1.00000e+00	1.00000e+00	1.00000e+00	1.00000e+00	1.00000e+00	1.00000e+00	1.00000e+00	1.00000e+00	1.00000e+00	1.00000e+00	1.00000e+00	1.00000e+00	1.00000e+00	1.00000e+00	1.00000e+00	1.00000e+00	1.00000e+00	1.00000e+00	1.00000e+00	1.00000e+00	1.00000e+00	1.00000e+00	1.00000e+00	1.00000e+00	1.00000e+00	1.00000e+00	1.00000e+00	1.00000e+00	X	X	X	X	X	X	X	X	X	X	X	X	X	X	X	X	

B = Detector Channel
Val Type	B-AC1	B-AC2	B-AC3	B-AC4	B-AC5	B-AC6	B-AC7	B-AC8	B-AC9	B-AC10	B-AC11	B-AC12	B-AC13	B-AC14	B-AC15	B-AC16	B-DC1	B-DC2	B-DC3	B-DC4	B-DC5	B-DC6	B-DC7	B-DC8	B-DC9	B-DC10	B-DC11	B-DC12	B-DC13	B-DC14	B-DC15	B-DC16	B-Ph1	B-Ph2	B-Ph3	B-Ph4	B-Ph5	B-Ph6	B-Ph7	B-Ph8	B-Ph9	B-Ph10	B-Ph11	B-Ph12	B-Ph13	B-Ph14	B-Ph15	B-Ph16	

Term	0.00000e+00	0.00000e+00	0.00000e+00	0.00000e+00	0.00000e+00	0.00000e+00	0.00000e+00	0.00000e+00	0.00000e+00	0.00000e+00	0.00000e+00	0.00000e+00	0.00000e+00	0.00000e+00	0.00000e+00	0.00000e+00	0.00000e+00	0.00000e+00	0.00000e+00	0.00000e+00	0.00000e+00	0.00000e+00	0.00000e+00	0.00000e+00	0.00000e+00	0.00000e+00	0.00000e+00	0.00000e+00	0.00000e+00	0.00000e+00	0.00000e+00	0.00000e+00	-1.60646e+02	-1.31022e+02	-1.25289e+02	-1.86209e+02	-7.18792e+01	-6.66958e+01	-1.58474e+02	-1.62015e+02	-7.97830e+01	-6.76213e+01	-1.72128e+02	-1.71386e+02	-1.83279e+02	-1.77394e+02	-7.09845e+01	-1.49699e+02	
Factor	2.28142e-05	1.35801e-04	4.02598e-05	2.77733e-01	1.31646e-06	1.49048e-06	1.53129e-01	4.67114e-02	1.21370e-06	1.46712e-06	7.52218e-02	2.47388e-02	3.57489e-02	7.91092e-03	1.34422e-06	1.11941e-02	1.85564e-05	4.45642e-05	1.25709e-05	1.49093e-01	4.45853e-07	5.11453e-07	7.76909e-02	2.52998e-02	4.01722e-07	5.10017e-07	3.95400e-02	1.30392e-02	1.96821e-02	4.33613e-03	4.36568e-07	5.95756e-03	X	X	X	X	X	X	X	X	X	X	X	X	X	X	X	X	



#DISTANCE SETTINGS
A = Detector Channel
A-1	A-2	A-3	A-4	A-5	A-6	A-7	A-8	A-9	A-10	A-11	A-12	A-13	A-14	A-15	A-16	

2.5000e+00	3.0000e+00	2.5000e+00	3.0000e+00	2.0000e+00	3.0000e+00	1.5000e+00	3.0000e+00	3.0000e+00	3.0000e+00	3.0000e+00	3.0000e+00	3.0000e+00	3.0000e+00	1.5000e+00	3.0000e+00	

B = Detector Channel
B-1	B-2	B-3	B-4	B-5	B-6	B-7	B-8	B-9	B-10	B-11	B-12	B-13	B-14	B-15	B-16	

1.0000e+01	1.0000e+01	1.0000e+01	1.4400e+00	1.0000e+01	1.0000e+01	1.5100e+00	1.9400e+00	1.0000e+01	1.0000e+01	1.9900e+00	2.4900e+00	2.4100e+00	2.9000e+00	1.0000e+01	2.9800e+00	




#DATA BEGINS
time	group	step	mark	flag	A-AC1	A-AC2	A-AC3	A-AC4	A-AC5	A-AC6	A-AC7	A-AC8	A-AC9	A-AC10	A-AC11	A-AC12	A-AC13	A-AC14	A-AC15	A-AC16	A-DC1	A-DC2	A-DC3	A-DC4	A-DC5	A-DC6	A-DC7	A-DC8	A-DC9	A-DC10	A-DC11	A-DC12	A-DC13	A-DC14	A-DC15	A-DC16	A-Ph1	A-Ph2	A-Ph3	A-Ph4	A-Ph5	A-Ph6	A-Ph7	A-Ph8	A-Ph9	A-Ph10	A-Ph11	A-Ph12	A-Ph13	A-Ph14	A-Ph15	A-Ph16	B-AC1	B-AC2	B-AC3	B-AC4	B-AC5	B-AC6	B-AC7	B-AC8	B-AC9	B-AC10	B-AC11	B-AC12	B-AC13	B-AC14	B-AC15	B-AC16	B-DC1	B-DC2	B-DC3	B-DC4	B-DC5	B-DC6	B-DC7	B-DC8	B-DC9	B-DC10	B-DC11	B-DC12	B-DC13	B-DC14	B-DC15	B-DC16	B-Ph1	B-Ph2	B-Ph3	B-Ph4	B-Ph5	B-Ph6	B-Ph7	B-Ph8	B-Ph9	B-Ph10	B-Ph11	B-Ph12	B-Ph13	B-Ph14	B-Ph15	B-Ph16	aux-1	digaux	

36177.199	1	1	0	256	0.34799	0.18875	0.018507	0.13123	0.14964	0.15288	0.25041	0.46143	0.1143	0.24155	0.27005	0.36878	0.065883	0.45173	0.2296	0.078819	-1.8458	-2.3979	-2.9854	-2.3167	-2.7146	-2.6458	-2.3708	-3.0563	-2.2812	-2.3708	-3.05	-2.3646	-2.6458	-2.9521	-2.0104	-3.0292	170.570	279.346	259.465	95.477	158.667	228.330	432.737	379.290	347.281	411.016	385.770	389.456	362.419	92.885	316.073	109.505	0.0010335	0.00086424	0.00022185	1618.8	2.7779e-06	5.6474e-06	1688.8	443.25	7.2318e-06	6.999e-06	507.18	188.38	165.6	67.437	1.0787e-05	78.572	0.0030494	0.0064963	0.0017525	1417.8	6.3476e-05	7.3065e-05	1468.8	387.23	5.8017e-05	7.4285e-05	449.65	165.53	147.48	60.125	6.545e-05	70.198	139.308	149.127	196.510	100.366	162.031	211.299	100.148	106.330	241.578	206.904	104.580	108.968	111.772	116.183	256.717	113.151	-8191	255	
36177.297	1	1	0	0	0.10742	0.18013	0.16727	0.26298	0.060194	0.061692	0.24754	0.12676	0.097677	0.01543	0.21696	0.36611	0.2382	0.34748	0.050525	0.20991	-1.9958	-2.3479	-3.0583	-2.5062	-2.5417	-2.7438	-2.3438	-2.9125	-2.6229	-2.2354	-3.1562	-2.4792	-2.6917	-2.9479	-2.1917	-2.9271	235.397	308.149	295.863	89.268	416.090	312.937	358.744	366.916	414.676	181.220	416.919	120.165	135.127	95.765	362.870	413.786	0.0010142	0.00039773	4.2347e-05	1620.6	7.0474e-06	9.9469e-06	1678.5	440.04	1.4973e-05	6.1143e-06	515.13	188.25	167.09	67.678	9.2996e-06	79.103	0.003216	0.0065707	0.0018132	1411.4	6.5195e-05	7.1786e-05	1464.2	385.52	5.7845e-05	7.3344e-05	450.42	164.98	147.26	60.142	6.2823e-05	69.985	134.919	143.446	191.539	100.363	225.504	236.205	99.394	106.015	224.846	207.865	104.162	108.181	110.744	115.570	221.947	112.485	-8191	255	
36177.395	1	1	0	0	0.13334	0.14926	0.16156	0.26117	0.10769	0.15026	0.10645	0.25492	0.16914	0.36733	0.11309	0.31684	0.22401	0.2064	0.058375	0.18294	-2.225	-2.2146	-2.9583	-2.4938	-2.2625	-2.7104	-2.4375	-3.0146	-2.5604	-2.1104	-3.1646	-2.5375	-2.625	-2.9354	-2.1813	-2.8438	220.342	392.520	372.490	133.089	374.044	260.223	343.808	368.535	325.149	374.762	95.116	93.145	445.555	438.555	132.540	115.467	0.0010361	0.0011353	6.8998e-05	1615.6	1.5632e-05	9.8506e-06	1678.8	439.39	1.03e-05	4.5948e-06	511.57	187.38	165.39	67.364	6.8757e-06	78.564	0.0031299	0.0065504	0.0017672	1406.8	6.5678e-05	7.2808e-05	1458.1	384.77	5.769e-05	7.3777e-05	449.46	164.89	146.67	59.74	6.4898e-05	69.611	140.409	190.071	195.631	99.832	229.778	197.277	99.254	105.850	222.625	199.550	104.436	108.227	110.950	115.404	235.897	112.432	-8191	255	
36177.488	1	1	0	0	0.19296	0.12633	0.15741	0.34395	0.11664	0.15886	0.24156	0.28232	0.11302	0.15412	0.27172	0.17525	0.29396	0.32333	0.24847	0.16168	-2.3271	-2.1854	-2.7562	-2.3479	-2.3479	-3.0417	-2.3958	-2.8021	-2.8937	-2.3396	-3.0479	-2.6312	-2.3104	-2.7917	-2.1562	-2.7083	199.515	320.771	390.284	436.722	160.731	443.887	367.830	403.327	185.771	130.945	96.153	150.979	373.569	418.932	447.916	410.696	0.00096739	0.00028271	0.00025982	1608.1	6.9186e-06	1.5362e-05	1686.2	441.79	7.1439e-06	1.0587e-05	511.55	187.37	164.81	67.043	4.2337e-06	78.853	0.003285	0.0066022	0.0018435	1409.6	6.8621e-05	7.7606e-05	1462.5	385.5	6.0383e-05	7.613e-05	448.87	165.01	146.14	59.571	6.5362e-05	69.865	144.880	284.522	220.027	100.237	260.305	201.169	99.262	106.099	189.447	268.798	103.959	108.140	110.680	115.551	197.290	112.667	-8191	255	
36177.609	1	1	0	0	0.11359	0.15105	0.17635	0.1589	0.12544	0.20414	0.1921	0.074401	0.17976	0.31968	0.19607	0.23831	0.096834	0.22848	0.1954	0.3757	-2.5417	-2.3396	-2.7354	-2.7125	-2.2083	-3.0042	-2.4125	-2.6083	-2.8312	-2.0896	-2.8	-2.9292	-2.1854	-3.0479	-2.3958	-2.5708	364.711	372.913	290.213	331.931	225.225	198.574	348.586	386.528	105.634	189.474	442.662	406.880	332.808	428.954	321.675	379.415	0.00094524	0.0012127	0.00027004	1608.9	8.0399e-06	8.2882e-06	1654.6	439.46	1.0313e-05	1.2096e-06	512.1	186.43	164.6	66.789	1.3749e-05	78.821	0.0032311	0.0065561	0.0018485	1405.9	6.6336e-05	7.37e-05	1446.4	384.41	5.9529e-05	7.2262e-05	448.38	163.83	145.61	59.306	6.1851e-05	69.693	137.621	164.559	172.624	99.475	217.195	255.608	99.070	105.971	240.162	278.395	104.050	108.059	110.497	115.294	237.197	112.153	-8191	255	
36177.703	1	1	0	0	0.13175	0.10583	0.29536	0.1554	0.25387	0.18032	0.24455	0.35416	0.13521	0.1801	0.31044	0.1467	0.26897	0.32258	0.28369	0.13915	-2.5292	-1.975	-2.6792	-2.6146	-2.1667	-2.8563	-2.5708	-2.3375	-2.9313	-2.0187	-2.4729	-2.8458	-2.3937	-2.9833	-2.3937	-2.4667	143.047	256.537	409.414	144.819	369.016	446.715	393.179	428.297	143.591	205.700	440.735	278.321	93.272	88.323	170.445	120.424	0.00096573	0.0011607	0.00014577	1597.4	7.4981e-06	6.2242e-06	1650.4	437.52	1.1355e-05	1.1365e-05	506.66	186.07	163.66	67.184	4.1577e-06	77.822	0.0032465	0.0064516	0.00177	1392.3	6.2809e-05	6.9722e-05	1440	382.3	5.9498e-05	7.1158e-05	445.64	163.87	145.73	59.488	6.2837e-05	69.385	138.692	174.063	325.362	100.366	282.443	214.880	99.598	105.898	247.157	210.466	104.011	107.946	110.766	115.677	183.162	112.406	-8191	255	
36177.777	1	1	0	0	0.23402	0.15652	0.15667	0.38263	0.10017	0.25092	0.34375	0.23638	0.14671	0.11911	0.42649	0.21165	0.041286	0.4489	0.075824	0.23909	-2.5354	-2.3458	-2.5521	-3.0104	-2.1729	-2.7521	-2.7812	-2.5917	-2.9437	-2.2979	-2.7292	-3.0104	-2.2542	-2.8854	-2.7188	-2.3833	119.646	326.922	304.012	380.593	245.062	383.141	404.041	294.246	176.978	436.549	386.531	97.236	131.735	435.275	336.448	416.576	0.00088106	0.001053	0.00039001	1581.5	5.6772e-06	9.0413e-06	1661.3	438.71	7.5986e-06	1.4565e-05	508.33	186.3	164.38	67.238	1.0362e-05	78.499	0.0032339	0.0064331	0.0018657	1388.8	6.5054e-05	7.2957e-05	1444.4	382.11	5.8859e-05	7.4656e-05	446.67	163.69	145.49	59.553	6.6692e-05	69.729	137.561	166.840	219.018	100.118	230.584	185.665	99.435	105.989	233.956	300.241	103.908	108.140	110.699	116.022	266.986	112.763	-8191	255	
36177.871	1	1	0	0	0.21257	0.16605	0.11366	0.0032985	0.29252	0.3231	0.1628	0.36294	0.16893	0.02606	0.28318	0.33383	0.37998	0.24464	0.1459	0.47111	-2.6417	-2.2229	-2.3854	-2.9292	-2.3104	-2.6854	-2.8812	-2.5687	-2.7958	-2.2812	-2.5583	-3.0312	-2.2687	-2.7958	-2.7729	-2.3	380.299	331.272	264.766	227.444	280.270	175.897	116.836	364.268	372.002	344.096	408.206	427.172	421.375	418.980	114.858	442.831	0.00091767	0.00073222	0.00014029	1591.7	9.5765e-06	1.6125e-05	1661.7	436.77	8.2011e-06	6.2744e-06	509.41	188.14	167.05	67.293	1.1235e-05	78.821	0.0033145	0.0066423	0.0018186	1389.5	6.6987e-05	7.4243e-05	1444.3	381.92	6.0086e-05	7.65e-05	447.28	165.28	146.45	59.535	6.5095e-05	69.957	136.046	175.123	236.691	100.134	226.912	210.637	99.596	105.895	233.843	183.564	103.863	108.365	111.230	116.018	221.288	112.974	-8191	255	
36177.992	1	1	0	0	0.19212	0.109	0.094079	0.12118	0.10917	0.29065	0.3483	0.15951	0.2247	0.13754	0.051724	0.12279	0.12545	0.088318	0.29192	0.060746	-2.5458	-2.4979	-2.4417	-3.0521	-2.2562	-2.6167	-2.9604	-2.3167	-2.8208	-2.5396	-2.5521	-3.2271	-2.2771	-2.7958	-2.8625	-2.1958	291.067	133.983	390.745	286.820	239.495	417.673	362.700	375.587	225.230	373.212	415.420	353.108	421.294	353.022	99.539	228.480	0.00093656	0.0014388	0.00034255	1593.1	6.4133e-06	4.9027e-06	1668.2	437.52	1.0926e-05	7.9595e-06	510.82	188.15	164.69	66.554	8.4014e-06	78.023	0.0031752	0.0067761	0.0019097	1395.8	6.5091e-05	7.5905e-05	1449.4	382.51	6.0878e-05	7.7255e-05	448.29	164.46	145.49	59.035	6.7332e-05	69.134	142.433	187.482	249.124	100.229	288.252	173.783	99.407	106.059	184.753	277.175	104.342	108.636	111.108	115.847	278.645	112.849	-8191	255	
36178.090	1	1	0	0	0.1167	0.24908	0.23621	0.21036	0.13792	0.26007	0.24592	0.29135	0.2221	0.23048	0.24732	0.19131	0.16223	0.12331	0.073948	0.24941	-2.3042	-2.475	-2.3292	-3.0979	-2.1646	-2.5667	-3.2167	-2.2146	-2.7	-2.6854	-2.2125	-3.1437	-2.2146	-2.6125	-3.1437	-2.2896	422.465	356.703	354.941	357.582	407.431	197.385	376.499	416.185	443.784	108.558	447.069	430.615	127.317	349.222	223.880	371.854	0.00088753	0.00085372	0.00033235	1599.4	6.1334e-07	8.136e-06	1654.5	435.18	8.5324e-06	1.1515e-05	507.36	184.75	163.01	66.084	7.5422e-06	77.429	0.0032672	0.0069513	0.0019469	1396.6	6.8042e-05	7.6929e-05	1439.8	380.95	6.2318e-05	7.5853e-05	445.65	162.21	144.4	58.614	6.6737e-05	68.405	135.168	205.846	190.236	100.460	175.747	223.598	99.805	106.154	263.532	193.727	104.066	108.482	110.845	115.765	260.437	112.901	-8191	255	
36178.184	1	1	0	0	0.05853	0.18385	0.28685	0.26503	0.10166	0.30663	0.13854	0.25563	0.11195	0.1535	0.13719	0.032897	0.084708	0.30639	0.11541	0.2063	-2.4104	-2.8396	-2.2229	-2.9667	-2.5042	-2.4083	-3.1854	-2.2708	-2.6833	-2.8563	-2.3604	-3.0229	-2.5208	-2.5479	-2.8708	-2.3583	343.747	212.830	177.322	415.183	416.632	89.008	102.845	122.670	197.012	93.921	421.859	368.169	406.492	443.294	245.582	322.033	0.0010206	0.0013174	9.9676e-05	1603.5	7.8537e-06	4.2067e-06	1650	435.28	1.9602e-06	6.6273e-06	505.03	184.18	162.15	65.767	5.7774e-06	76.978	0.003362	0.0067091	0.0018927	1395.7	6.9551e-05	7.7841e-05	1436.2	380.25	6.168e-05	7.7441e-05	443.7	161.8	143.71	58.375	6.6977e-05	68.299	140.635	124.391	248.833	100.856	291.385	149.219	99.740	106.365	189.209	217.327	104.315	108.548	111.301	115.756	120.468	112.865	-8191	255	
36178.281	1	1	0	0	0.11955	0.1835	0.12427	0.38127	0.19611	0.29708	0.41202	0.061963	0.19572	0.10242	0.27542	0.12503	0.39666	0.25651	0.068369	0.16572	-2.3729	-2.8604	-2.0708	-2.9146	-2.3333	-2.2313	-3.175	-2.3875	-2.3354	-2.9979	-2.2604	-2.8896	-2.6813	-2.4583	-2.9583	-2.5333	359.943	172.941	190.492	405.167	98.622	133.355	388.135	196.521	113.170	225.574	154.966	409.701	446.780	421.615	342.712	444.417	0.00102	0.0016495	0.00030164	1604.6	4.4786e-06	1.0611e-05	1659.4	434.43	1.3957e-05	9.664e-06	504.74	184.01	161.85	66.084	8.0771e-06	77.028	0.0033428	0.0067922	0.0018329	1395.5	6.7558e-05	7.7916e-05	1441.8	380.1	6.1185e-05	7.508e-05	445.75	162.52	143.98	58.669	6.6763e-05	68.302	136.605	158.775	191.831	100.923	236.087	232.197	99.885	106.142	209.073	253.627	104.852	108.857	110.846	116.421	239.482	112.986	-8191	255	
36178.379	1	1	0	0	0.37506	0.19834	0.039755	0.23632	0.23845	0.1583	0.34643	0.34762	0.088474	0.13632	0.3672	0.14567	0.13884	0.01324	0.18502	0.1882	-1.9458	-2.7521	-2.2646	-2.8229	-2.6771	-2.3021	-3.1979	-2.5542	-2.4542	-3.2	-2.2521	-3	-2.8479	-2.225	-2.8063	-2.4938	95.120	336.459	381.759	93.264	113.545	323.521	444.080	413.305	355.422	218.781	409.447	363.660	132.208	122.542	344.386	327.732	0.0010018	0.00047732	0.00026786	1597.3	8.5554e-06	1.0078e-05	1663	433.99	5.8326e-06	9.141e-06	507.54	184.83	163.33	65.932	1.1039e-05	77.046	0.0033708	0.0068006	0.0019067	1396.1	6.8409e-05	7.7728e-05	1446	380.07	6.3315e-05	7.6969e-05	444.89	162.63	144.82	58.409	6.6492e-05	68.302	139.568	168.155	196.167	101.043	270.690	229.480	99.820	106.185	239.447	235.601	104.634	109.158	111.342	116.128	268.122	113.154	-8191	255	
36178.473	1	1	0	0	0.10621	0.18105	0.34718	0.22832	0.054159	0.084344	0.19011	0.31838	0.16521	0.2764	0.35989	0.17076	0.1622	0.21034	0.23819	0.23087	-1.9792	-2.9813	-2.1333	-2.725	-2.8875	-2.2104	-3.0646	-2.6896	-2.4354	-3.075	-2.3646	-2.8667	-2.9833	-2.3	-2.9146	-2.7	115.171	315.204	118.031	404.869	288.287	158.806	341.506	371.959	383.807	263.017	417.339	392.374	390.008	106.141	288.344	386.235	0.0010841	0.00065106	0.00040409	1601.9	1.0226e-05	8.212e-06	1658.8	434.6	7.6865e-06	8.0618e-06	501.96	184.18	162.19	65.214	1.3544e-05	76.03	0.0033582	0.0069521	0.0019681	1398.2	6.8828e-05	8.1095e-05	1442.4	380.3	6.5473e-05	7.804e-05	440.91	161.38	143.34	57.931	6.7617e-05	67.398	136.046	226.061	196.863	100.814	198.754	254.100	99.998	106.793	238.242	253.089	104.810	109.381	111.029	116.359	228.482	113.183	-8191	255	
36178.570	1	1	0	0	0.29762	0.082652	0.2286	0.23341	0.24752	0.08559	0.20602	0.11927	0.098377	0.29812	0.3405	0.12613	0.19697	0.29833	0.16338	0.09505	-2.0042	-3.0479	-2.1729	-2.6375	-3.0917	-2.0667	-3.1875	-2.6667	-2.3438	-2.9792	-2.425	-2.7687	-2.9229	-2.5604	-2.9062	-2.7958	236.402	156.643	440.568	288.461	417.560	370.994	447.866	387.578	102.373	264.644	355.208	401.440	407.012	113.433	268.693	400.715	0.0010277	0.00090905	4.2949e-05	1593.4	9.9864e-06	2.9289e-06	1644.4	432.37	1.5077e-05	6.8653e-06	499.72	183.28	161.34	65.292	8.5962e-06	75.856	0.0034329	0.0068349	0.0019632	1394.4	7.156e-05	7.9405e-05	1430.7	378.15	6.3436e-05	7.4732e-05	439.59	160.7	142.8	57.825	6.7332e-05	67.177	148.232	194.654	233.962	101.111	273.713	252.163	100.060	106.478	227.807	240.927	104.688	109.051	111.428	116.188	207.538	113.411	-8191	255	
36178.691	1	1	0	0	0.13513	0.1133	0.16585	0.054166	0.24936	0.066756	0.14259	0.46777	0.075497	0.15845	0.12171	0.063857	0.1529	0.36669	0.18285	0.23055	-1.8312	-2.9542	-2.6375	-2.5521	-3.1125	-2.1083	-2.9938	-2.9479	-2.1896	-2.8542	-2.9042	-2.4854	-3.0104	-2.4854	-2.6583	-2.9646	392.179	329.363	192.708	370.085	194.276	212.578	370.237	386.163	267.635	386.158	339.477	189.420	418.218	371.261	279.405	382.577	0.00098569	0.0010052	0.0001051	1591.2	8.2502e-06	5.5565e-06	1644.3	428.13	7.6501e-06	1.2162e-05	504.9	182.39	161.16	65.346	6.5169e-06	76.174	0.0033657	0.0063796	0.0018878	1389.4	6.6387e-05	7.6991e-05	1436.2	377.41	6.2557e-05	7.6294e-05	442.01	160.93	143.29	57.938	6.594e-05	67.719	141.001	216.278	235.707	101.049	216.685	179.797	100.273	106.514	162.079	238.268	104.419	108.941	111.298	116.407	284.184	112.962	-8191	255	
36178.785	1	1	0	0	0.16086	0.12423	0.077502	0.0742	0.20333	0.16561	0.34563	0.33165	0.10237	0.14126	0.11382	0.26136	0.11821	0.18662	0.10764	0.22845	-1.7208	-2.7146	-2.5229	-2.3333	-3.0563	-2.2896	-2.6167	-2.9375	-2.3229	-2.8187	-2.7271	-2.3438	-2.9104	-2.3167	-2.5438	-3.1312	103.407	230.198	222.872	386.326	191.391	343.182	377.005	416.583	288.640	420.203	286.187	428.820	436.697	423.956	435.717	446.778	0.001006	0.00094879	5.5163e-05	1589.4	7.4411e-06	7.9803e-07	1650.5	430	2.805e-06	1.3708e-05	508.25	186.13	163.09	65.487	6.7772e-06	76.887	0.0033766	0.0066508	0.0019463	1390.1	6.8812e-05	7.7725e-05	1437.1	378.24	6.4498e-05	7.9581e-05	444.09	162.64	144.21	58.18	6.8053e-05	68.534	140.195	199.677	169.243	100.832	215.775	288.828	100.280	106.673	269.548	279.036	104.398	109.072	111.114	116.251	220.546	113.280	-8191	255	
36178.883	1	1	0	0	0.06599	0.025905	0.12464	0.19533	0.11403	0.080418	0.1535	0.20557	0.19301	0.050368	0.1457	0.2216	0.28179	0.16682	0.22839	0.28831	-1.6625	-2.9146	-2.4896	-2.2667	-2.85	-2.3792	-2.4583	-2.8854	-2.2104	-2.8625	-2.9375	-2.15	-2.9062	-2.5625	-2.3	-2.9958	95.593	402.336	291.415	439.228	173.206	261.990	92.483	438.434	303.879	191.950	96.849	425.746	438.811	125.615	270.564	131.904	0.00087863	0.00084496	0.0001429	1578.4	1.2375e-05	3.9734e-06	1651.2	431.48	3.5498e-06	6.4876e-06	507.9	185.43	160.12	65.735	1.461e-05	77.862	0.0034796	0.0071795	0.0019948	1385.3	7.0136e-05	8.0551e-05	1439.3	378.82	6.5231e-05	8.0822e-05	445.55	163.06	143.07	58.394	6.9955e-05	69.03	142.332	166.358	190.102	101.228	239.315	254.200	100.034	106.591	236.215	232.363	104.280	108.900	111.051	115.986	230.810	112.980	-8191	255	
36179.000	1	1	0	0	0.20956	0.21761	0.12793	0.024377	0.046128	0.053817	0.13291	0.28699	0.21252	0.13409	0.11324	0.37031	0.37832	0.16485	0.093436	0.17983	-1.7188	-2.6167	-2.6271	-2.2458	-2.9229	-2.3187	-2.3917	-3.2896	-2.3792	-2.5146	-2.7333	-2.3375	-2.9542	-2.5917	-2.3792	-3.1	184.344	344.212	144.311	402.711	173.531	369.197	378.306	374.086	216.198	271.158	335.951	390.825	416.897	430.228	262.319	397.063	0.00098729	0.00089523	0.00042829	1565	1.2606e-05	3.4687e-06	1642.5	433.02	7.4642e-06	8.1663e-06	508.48	185.37	162.46	66.01	1.1027e-05	77.646	0.0033434	0.0071942	0.0019776	1378.1	6.8481e-05	7.9524e-05	1434	379.44	6.2762e-05	7.8832e-05	446.61	163.22	144.58	58.7	6.8437e-05	69.133	141.012	164.430	157.796	100.400	257.874	355.509	100.015	106.132	217.206	265.639	104.326	108.710	111.245	115.837	243.239	112.787	-8191	255	
36179.074	1	1	0	0	0.1141	0.33922	0.22672	0.15283	0.15327	0.14954	0.19979	0.18105	0.15981	0.076714	0.3346	0.50468	0.19544	0.24414	0.076329	0.32432	-1.7542	-2.575	-2.9125	-2.0167	-2.8	-2.6	-2.5208	-3.0458	-2.2771	-2.4771	-3.1646	-2.3312	-2.7792	-2.85	-2.2208	-3.1063	277.216	399.070	179.499	363.833	276.014	292.841	413.101	104.596	253.281	277.102	430.802	89.982	151.144	410.988	124.158	316.210	0.00099991	0.0010518	0.0003435	1564.7	8.5885e-06	4.6842e-06	1640	435.75	1.1951e-05	1.8146e-05	506.42	184.91	161.07	66.48	1.6298e-05	78.079	0.0035315	0.0071101	0.0020183	1377	7.2665e-05	8.2696e-05	1433.1	381.13	6.9107e-05	8.6387e-05	446.19	163.57	144.03	58.969	7.5709e-05	69.269	135.633	175.959	172.111	100.630	225.843	277.653	100.025	106.454	223.466	216.044	103.991	108.710	111.269	116.002	247.226	113.270	-8191	255	
36179.168	1	1	0	0	0.10093	0.2512	0.058059	0.17374	0.11664	0.069021	0.40787	0.13725	0.082876	0.10881	0.13492	0.29684	0.33014	0.036577	0.26619	0.14928	-2.0042	-2.1333	-2.8688	-2.25	-2.8042	-2.5812	-2.3958	-3.0396	-2.4813	-2.3312	-3.1604	-2.3229	-2.5625	-2.8354	-2.1479	-3.0167	445.148	310.206	261.884	311.773	379.089	158.826	350.714	95.902	293.921	374.018	257.034	408.271	344.422	437.592	291.174	351.532	0.0010545	0.00073245	0.00030928	1552.2	1.0311e-05	7.6552e-06	1658.8	436	7.3563e-06	6.6799e-06	509.55	188	162.39	66.928	8.5667e-06	79.353	0.0036555	0.0076652	0.0020734	1370.8	7.6372e-05	8.5345e-05	1441.9	381.37	6.7754e-05	8.4123e-05	450.43	164.95	145.37	59.285	7.3866e-05	70.602	140.513	222.818	226.697	100.310	272.966	252.923	100.120	106.530	249.587	271.426	104.599	108.801	111.122	116.318	220.993	113.318	-8191	255	
36179.289	1	1	0	0	0.20445	0.080766	0.21907	0.11395	0.19762	0.09715	0.37871	0.26899	0.23308	0.2676	0.10176	0.2692	0.090755	0.30865	0.42927	0.27763	-2.1417	-2.2542	-2.7604	-2.3875	-2.575	-2.9042	-2.3479	-3.0979	-2.5771	-2.1312	-2.9458	-2.4792	-2.5396	-3.0167	-2.1729	-2.8979	96.760	174.356	179.944	397.520	335.976	227.721	386.509	375.112	125.913	295.628	117.082	392.165	151.284	413.987	124.122	416.933	0.00097344	0.00044063	0.00026587	1571.1	9.9834e-06	1.0344e-05	1666.9	439.48	1.0459e-05	7.2188e-06	521.08	190.74	165.41	68.061	9.5964e-06	81.221	0.0035786	0.0074501	0.002042	1374.3	7.4022e-05	8.3808e-05	1449.5	385.2	6.6628e-05	8.2618e-05	456.77	167.67	146.71	60.275	7.2022e-05	71.875	137.084	259.935	191.273	100.432	223.268	241.719	100.382	106.663	258.033	242.698	104.957	108.893	111.589	115.872	237.822	113.071	-8191	255	
36179.387	1	1	0	0	0.15237	0.18133	0.10011	0.19742	0.090245	0.072346	0.21223	0.35722	0.11163	0.26457	0.11941	0.32821	0.38477	0.12466	0.17974	0.089685	-2.2938	-2.3021	-2.8604	-2.3729	-2.4854	-2.9646	-2.4104	-2.8958	-2.8146	-2.2583	-3.0667	-2.6167	-2.3083	-3.0375	-2.2	-2.7708	317.731	291.428	290.237	386.815	306.553	95.113	436.620	375.737	402.261	377.635	125.162	387.539	94.967	436.624	321.693	153.857	0.000984	0.00062863	0.00027837	1568.1	9.0089e-06	6.0368e-06	1672.1	444.16	8.8569e-06	1.3991e-05	522.85	190.85	165.28	67.673	2.9591e-06	80.525	0.0036008	0.0073116	0.0020652	1381.3	7.1871e-05	8.45e-05	1454.9	387.26	6.8344e-05	8.489e-05	459.02	167.99	146.94	60.384	7.0063e-05	71.55	134.553	90.693	187.218	100.782	240.295	240.550	100.081	106.718	211.624	261.215	104.736	108.659	111.342	116.376	161.509	113.265	-8191	255	
36179.480	1	1	0	0	0.12719	0.2676	0.3407	0.44255	0.081707	0.15503	0.14609	0.35084	0.097718	0.08068	0.044753	0.33686	0.15299	0.23865	0.028824	0.27311	-2.3083	-2.0833	-3.0312	-2.625	-2.3896	-2.9562	-2.3896	-2.7083	-2.6333	-2.2438	-3.1042	-2.6271	-2.3771	-2.9271	-2.1333	-2.7646	272.362	375.732	210.293	441.338	154.033	376.840	394.850	370.931	269.701	126.224	218.802	403.975	338.238	145.203	271.898	345.352	0.0010018	0.0011144	0.00011589	1580.5	4.319e-06	1.223e-05	1675.2	442.5	1.0356e-05	3.4797e-06	521.82	190.34	165.04	67.894	8.7357e-06	80.22	0.0035907	0.0073068	0.0020008	1384	7.3005e-05	8.1543e-05	1457.8	387.9	6.6986e-05	8.3832e-05	458.88	168.1	146.8	60.494	7.2443e-05	71.432	131.677	173.249	210.405	101.145	314.387	270.580	100.203	106.721	227.481	200.488	105.002	109.037	111.767	116.339	252.667	113.524	-8191	255	
36179.578	1	1	0	0	0.084575	0.081523	0.1093	0.26376	0.25315	0.21015	0.28698	0.086239	0.19472	0.30156	0.16726	0.24102	0.32928	0.35355	0.12408	0.33487	-2.4479	-2.0583	-2.7562	-2.6	-1.9875	-2.9813	-2.5708	-2.5125	-2.7625	-2.0938	-2.9188	-2.7083	-2.3104	-3.1625	-2.1688	-2.6292	344.168	113.306	297.407	134.971	438.181	253.767	389.326	398.807	411.305	388.049	433.599	392.722	366.217	431.678	358.185	361.089	0.00093544	0.00081473	0.00032552	1578.1	7.9527e-06	4.7518e-06	1685.1	442.87	7.7648e-06	9.6165e-06	525.98	190.77	165.32	67.91	6.1013e-06	80.455	0.0034962	0.007328	0.0021302	1388.1	7.2395e-05	8.5335e-05	1462.3	388.22	6.6473e-05	8.2079e-05	460.73	168.18	146.63	60.433	7.2529e-05	71.676	136.842	199.774	170.298	101.407	205.294	98.791	100.314	106.651	210.335	250.583	105.047	109.136	111.126	116.557	247.237	113.366	-8191	255	
36179.672	1	1	0	0	0.21986	0.23672	0.16701	0.19383	0.25426	0.059782	0.26149	0.16228	0.33362	0.13175	0.22963	0.36236	0.039889	0.066909	0.25255	0.34262	-2.4417	-2.2938	-2.725	-2.6917	-2.0875	-3.0125	-2.6625	-2.3937	-2.9479	-2.275	-2.8563	-2.7729	-2.1833	-2.9042	-2.5083	-2.4313	316.885	135.886	308.267	105.712	207.124	224.612	371.442	433.712	448.115	140.216	415.897	351.819	291.162	93.641	380.534	413.564	0.0010234	0.00054315	0.00020711	1576.7	1.0786e-05	5.7146e-06	1678.7	444.27	7.389e-06	7.5873e-06	525.78	193.31	164.98	68.564	3.12e-06	81.361	0.0035173	0.007267	0.0020555	1383.3	7.3976e-05	8.0697e-05	1465.1	389.63	6.4213e-05	8.2151e-05	461.9	169.74	147.59	60.762	7.0388e-05	72.292	127.246	142.513	175.517	100.704	252.672	193.172	100.001	106.665	242.819	188.031	104.750	109.244	111.312	116.387	240.562	113.391	-8191	255	
36179.770	1	1	0	0	0.12892	0.17267	0.22725	0.22282	0.34264	0.096562	0.26672	0.095828	0.12853	0.21025	0.41376	0.16614	0.036611	0.37822	0.11667	0.4767	-2.575	-2.1792	-2.5854	-2.9792	-2.0042	-2.8708	-2.8	-2.4958	-2.9417	-2.3979	-2.6083	-3.0438	-2.2979	-2.9688	-2.4146	-2.4896	176.082	99.174	343.831	390.606	385.052	444.665	364.760	401.198	328.454	373.465	385.048	431.047	433.683	424.905	89.887	411.926	0.0010085	0.00097446	0.00025304	1588.3	8.5712e-06	8.7123e-06	1676.2	445.52	8.6752e-06	4.5147e-06	524.35	193.25	166.2	68.109	8.5252e-06	80.689	0.00347	0.0070738	0.0019857	1389.3	7.0063e-05	8.1648e-05	1464.2	390.12	6.3802e-05	8.0966e-05	461.96	169.27	147.28	60.477	7.1108e-05	71.661	141.848	184.388	179.111	101.289	230.492	258.614	100.029	106.881	213.791	244.744	104.512	108.902	111.380	116.157	221.987	113.662	-8191	255	
36179.863	1	1	0	0	0.19968	0.1102	0.031517	0.26601	0.047784	0.18902	0.4686	0.27221	0.11941	0.28065	0.1809	0.16548	0.17598	0.33028	0.21328	0.16769	-2.575	-2.375	-2.4625	-2.95	-2.0542	-2.8583	-2.9375	-2.3688	-2.9479	-2.4417	-2.6063	-3.2146	-2.275	-2.8187	-2.6958	-2.2708	438.606	393.118	223.845	435.808	315.078	283.601	401.908	376.960	437.812	276.615	392.095	375.681	387.853	418.025	247.968	356.817	0.0011063	0.00052198	0.00032619	1581.5	5.0186e-06	5.1556e-06	1674.6	444.92	6.7371e-06	1.1829e-05	522.93	190.55	165.4	68.383	9.0612e-06	80.089	0.0035198	0.0070546	0.0020707	1385.3	7.1148e-05	8.2477e-05	1457.9	388.72	6.3494e-05	8.1357e-05	459.23	167.53	146.73	60.414	6.9898e-05	70.899	140.782	170.448	169.866	100.933	252.199	213.805	99.771	106.429	193.820	230.718	104.586	108.538	111.036	116.133	211.981	112.929	-8191	255	
36179.965	1	1	0	0	0.42612	0.10063	0.27933	0.12282	0.15643	0.17572	0.23654	0.36303	0.080159	0.20278	0.40709	0.40074	0.20509	0.38807	0.11254	0.23079	-2.5375	-2.4667	-2.2729	-3.0375	-2.3063	-2.7875	-3.0104	-2.3979	-2.8688	-2.5958	-2.6042	-3.0229	-2.4667	-2.6688	-2.9229	-2.4875	270.448	163.463	303.907	363.029	142.227	440.852	341.114	388.587	170.730	320.728	380.623	420.799	131.432	353.427	328.620	385.954	0.0010463	0.00066398	0.00016586	1566	9.9149e-06	7.3106e-06	1670.5	443.05	6.5666e-06	6.0587e-06	522.83	188.98	165.38	67.539	7.822e-06	79.583	0.0035025	0.0069478	0.0019654	1375.6	6.9885e-05	7.9873e-05	1456	388.88	6.2926e-05	7.773e-05	459.12	166.75	146.71	60.096	6.835e-05	70.691	131.468	219.201	113.451	100.250	231.478	279.105	99.483	106.283	243.796	225.217	104.366	108.845	111.600	116.165	225.869	112.738	-8191	255	
36180.082	1	1	0	0	0.017133	0.19658	0.076062	0.12569	0.15917	0.22861	0.526	0.17289	0.1791	0.19248	0.060897	0.27823	0.12889	0.31148	0.041768	0.26893	-2.55	-2.5062	-2.1104	-3.0979	-2.3667	-2.4062	-3.0958	-2.2583	-2.8333	-2.6542	-2.3104	-3.225	-2.3646	-2.6562	-2.8688	-2.225	389.500	153.795	262.930	295.397	100.208	241.136	393.059	383.101	143.281	370.280	365.159	438.387	429.310	405.090	223.082	238.561	0.0010213	0.0013109	0.00036829	1586.1	8.6372e-06	6.2666e-06	1678.3	445.55	1.1808e-05	9.5508e-06	524.89	190.24	164.26	67.24	6.1732e-06	79.826	0.0035144	0.0071881	0.0019066	1388.3	7.0743e-05	8.0862e-05	1461.9	388.11	6.3403e-05	7.9983e-05	459.63	167.01	146.14	59.77	6.9503e-05	70.699	140.281	151.320	171.056	100.937	244.667	258.081	99.686	106.383	181.935	164.888	105.059	109.317	111.000	116.217	225.961	113.227	-8191	255	
36180.180	1	1	0	0	0.24572	0.17631	0.29472	0.11326	0.21445	0.076689	0.20965	0.407	0.12291	0.047329	0.2515	0.24824	0.1967	0.37694	0.19569	0.31791	-2.3917	-2.7062	-2.1292	-2.9188	-2.5563	-2.3125	-3.1271	-2.2938	-2.7271	-2.6917	-2.2062	-2.9854	-2.4917	-2.3438	-3.0083	-2.225	164.155	292.156	143.525	218.804	156.651	216.684	390.364	404.271	280.397	131.778	376.212	397.736	347.006	409.083	260.181	371.726	0.0010574	0.00023179	9.4538e-05	1590.3	1.2913e-05	7.6149e-06	1682.2	443.84	7.5241e-06	4.0308e-06	521.69	189.63	164.75	67.219	1.1859e-05	79.558	0.0034588	0.0070004	0.0019721	1392.1	7.2452e-05	7.7744e-05	1464.6	387.42	6.5068e-05	7.9182e-05	458.58	166.87	145.82	59.635	6.7171e-05	70.493	140.408	220.485	232.616	100.722	229.901	277.077	99.855	106.176	219.800	256.833	104.378	108.835	111.331	116.372	250.435	113.353	-8191	255	
36180.273	1	1	0	0	0.35769	0.089459	0.096715	0.22177	0.25725	0.18892	0.18854	0.12782	0.11198	0.075596	0.12452	0.28606	0.19106	0.45944	0.14453	0.29474	-2.1354	-2.7375	-2.0104	-2.9708	-2.475	-2.325	-3.2125	-2.3479	-2.4771	-2.8479	-2.1958	-3.0396	-2.6792	-2.4958	-2.8937	-2.4042	118.114	355.506	206.765	373.878	168.263	396.943	390.766	394.179	329.307	243.923	395.900	387.678	418.865	380.278	329.043	397.981	0.00094677	0.00068548	0.00015795	1587.8	6.7188e-06	4.8957e-06	1675.6	440.47	1.1393e-05	5.1715e-06	517.21	187.89	164.95	66.928	7.8719e-06	78.614	0.0034626	0.0069202	0.0019378	1387.9	7.0122e-05	7.9624e-05	1455.3	385.86	6.4737e-05	7.8228e-05	454.84	164.91	145.6	59.321	6.7628e-05	69.795	137.267	225.741	136.108	100.867	227.935	245.880	99.920	106.319	216.937	250.976	104.465	109.225	111.449	116.513	210.367	113.276	-8191	255	
36180.371	1	1	0	0	0.39607	0.24097	0.059088	0.15862	0.18086	0.20363	0.26985	0.30814	0.18276	0.059849	0.28583	0.19735	0.31368	0.039683	0.02787	0.050611	-1.9229	-3.125	-2.0958	-2.8979	-2.5646	-2.2583	-3.075	-2.4854	-2.3979	-2.8667	-2.2812	-2.8854	-2.8521	-2.4229	-2.775	-2.4021	181.952	160.308	243.388	387.681	267.100	116.152	376.186	396.999	338.023	118.982	435.074	431.945	126.669	404.884	445.078	285.866	0.00099974	0.001264	0.00031918	1575.1	6.5809e-06	8.5084e-06	1653.4	440.78	4.6457e-06	9.0789e-06	513.88	185.2	161.38	66.36	1.4241e-05	77.655	0.0033845	0.006773	0.0019607	1378.5	6.8963e-05	7.8412e-05	1441.3	384.38	6.3691e-05	7.9976e-05	452.28	163.36	143.76	58.919	6.8568e-05	68.995	139.666	201.982	187.452	100.708	245.641	193.969	100.076	106.426	195.248	224.173	104.838	108.949	111.337	116.299	201.624	113.492	-8191	255	
36180.465	1	1	0	0	0.1368	0.20123	0.13175	0.28877	0.13052	0.12494	0.29371	0.16974	0.33916	0.16565	0.2227	0.1078	0.12873	0.037971	0.039098	0.14413	-1.8625	-2.7396	-1.9104	-2.825	-2.6813	-2.1625	-3.1833	-2.7438	-2.3979	-3.0563	-2.4062	-2.7625	-2.8417	-2.2062	-2.9833	-2.7208	330.299	427.887	284.998	318.061	289.245	375.809	409.199	421.157	321.269	338.496	423.901	381.841	322.413	330.127	249.881	409.932	0.00089429	0.00066188	0.00011375	1581.4	7.6347e-06	1.0011e-05	1654.9	437.24	1.1872e-05	1.1154e-05	510.07	186.2	161.68	65.648	7.7198e-06	77.764	0.0034722	0.0067478	0.0019202	1378.6	6.9272e-05	7.8609e-05	1442.4	383.11	6.2331e-05	7.7135e-05	448.41	163.3	143.88	58.48	6.6945e-05	68.919	135.173	216.954	385.551	101.208	215.098	252.925	99.795	106.256	243.989	242.199	104.955	109.304	111.320	116.170	197.211	113.343	-8191	255	
36180.562	1	1	0	0	0.046734	0.069431	0.27369	0.20806	0.22026	0.16637	0.10556	0.41893	0.038996	0.275	0.12987	0.018929	0.17572	0.18578	0.19732	0.17362	-1.9188	-3.1021	-2.2021	-2.5271	-2.8771	-2.3937	-3.1396	-2.9167	-2.2854	-2.95	-2.5979	-2.5792	-3.0938	-2.3625	-2.6021	-2.8812	253.620	242.413	434.546	294.372	402.426	265.236	402.449	394.354	213.635	361.101	399.478	200.725	422.283	428.360	93.535	413.467	0.0010218	0.0010869	0.00038453	1577.5	1.0588e-05	1.1388e-05	1651.5	437.85	1.1509e-06	1.1106e-05	509.95	186.79	162.61	66.223	9.6327e-06	78.315	0.0033462	0.0066627	0.0018769	1379	6.611e-05	7.7792e-05	1443.1	383.74	6.0967e-05	7.258e-05	449.97	163.64	144.34	58.862	6.5891e-05	69.374	134.957	179.741	158.896	101.073	204.172	173.765	100.160	106.644	152.461	181.418	104.809	109.109	111.150	115.787	236.567	112.962	-8191	255	
36180.684	1	1	0	0	0.13856	0.036753	0.090225	0.22382	0.13116	0.1937	0.30876	0.26296	0.26417	0.29208	0.13398	0.4048	0.20639	0.27054	0.23544	0.20061	-1.9271	-2.9667	-2.3396	-2.5563	-2.9333	-2.1667	-2.875	-2.9104	-2.2229	-2.8833	-2.7188	-2.4458	-3.0729	-2.3208	-2.6917	-2.9708	346.653	141.523	220.785	340.729	337.825	263.112	367.756	395.682	127.087	443.532	323.971	400.478	396.382	391.498	363.200	360.439	0.001025	5.3323e-05	0.00023633	1576.6	1.9498e-06	1.7528e-05	1658.1	438.25	7.3094e-06	6.3985e-06	510.9	186.76	161.85	66.552	8.7066e-06	77.838	0.0033134	0.0063905	0.0018494	1379.8	6.4812e-05	7.5062e-05	1448.8	383.95	5.9267e-05	7.4233e-05	450.38	163.69	143.92	58.767	6.4449e-05	68.992	138.667	215.833	166.628	100.316	173.658	256.901	99.587	106.005	259.474	249.141	104.264	108.493	110.903	116.013	201.746	112.830	-8191	255	
36180.777	1	1	0	0	0.15244	0.097068	0.22691	0.28211	0.1064	0.1852	0.12013	0.15488	0.044997	0.22231	0.087918	0.29954	0.021734	0.38727	0.31239	0.11902	-1.7188	-2.7188	-2.4062	-2.3479	-3.0771	-2.2625	-2.4979	-2.9792	-2.1896	-2.8333	-2.7396	-2.4167	-2.8771	-2.4729	-2.5771	-3.0833	243.159	201.049	330.978	411.167	251.387	115.454	108.759	372.283	285.077	345.507	314.680	409.969	389.912	105.390	367.986	189.920	0.00091819	0.00033043	0.00022879	1582.9	6.8933e-06	6.1137e-06	1642.2	436.05	9.0385e-06	8.929e-06	506.56	183.9	162.57	65.19	1.2551e-05	76.082	0.0031928	0.0065065	0.0018313	1381.5	6.3461e-05	7.4419e-05	1437.2	381.19	5.8917e-05	7.5009e-05	443.88	161.61	143.14	58.054	6.6578e-05	67.637	142.023	175.104	193.693	100.525	217.596	263.184	99.381	105.857	207.188	243.644	104.271	108.931	110.851	115.530	216.819	112.421	-8191	255	
36180.875	1	1	0	0	0.045317	0.23542	0.11402	0.040932	0.24776	0.022275	0.70824	0.24501	0.057906	0.098606	0.053811	0.26062	0.12029	0.22237	0.24074	0.39559	-1.8375	-2.8667	-2.7083	-2.6083	-3.0312	-2.3958	-2.6771	-3.1458	-2.1312	-2.7708	-2.7708	-2.3083	-3.0083	-2.7667	-2.3667	-3.1896	321.255	359.931	416.483	219.906	350.477	106.620	416.895	388.724	179.144	190.493	181.643	411.427	436.724	367.142	271.656	316.852	0.00092509	0.00012769	6.9667e-05	1564.7	7.5684e-06	8.1155e-06	1642.2	431.46	1.0984e-05	7.1386e-06	504.57	182.54	160.37	65.274	5.9333e-06	75.795	0.0033813	0.0066461	0.0018738	1374	6.6433e-05	7.351e-05	1430.4	379.08	5.9081e-05	7.3058e-05	443.06	160.57	142.74	57.78	6.4428e-05	67.325	141.738	164.806	181.751	99.943	218.469	256.654	99.353	105.660	255.023	252.501	103.659	107.869	110.398	115.616	250.456	112.080	-8191	255	
36180.969	1	1	0	0	0.091579	0.042605	0.16706	0.13199	0.21068	0.20777	0.19835	0.14182	0.23851	0.19154	0.35825	0.24163	0.1716	0.16627	0.26853	0.17859	-1.7854	-2.6021	-2.5729	-2.2875	-2.7396	-2.4104	-2.5083	-3.2229	-2.1521	-2.6917	-2.9333	-2.2854	-3.0417	-2.7083	-2.2792	-3.2208	376.852	113.242	326.197	438.648	369.536	120.007	402.980	420.672	146.937	410.990	416.234	341.543	341.145	387.612	214.814	332.831	0.00094493	0.0010868	0.0003932	1584.4	5.0804e-06	5.3338e-06	1639.8	433.34	7.2308e-06	1.3692e-05	505.35	182.12	161.19	65.435	6.9548e-06	76.07	0.0032232	0.0066354	0.0018125	1379.6	6.5908e-05	7.5738e-05	1427.9	378.9	6.068e-05	7.3006e-05	443.02	160.19	142.75	57.816	6.3512e-05	67.389	137.647	139.185	202.443	99.867	262.812	275.252	99.348	105.837	258.280	243.367	103.819	108.377	110.807	115.758	220.453	112.487	-8191	255	
36181.066	1	1	0	0	0.40886	0.065343	0.0825	0.19559	0.099229	0.084476	0.1185	0.27081	0.12356	0.27091	0.25444	0.11496	0.19591	0.19906	0.1077	0.29432	-1.7646	-2.4146	-2.9917	-2.3646	-2.8146	-2.5687	-2.3521	-3.1854	-2.2708	-2.4396	-3.0208	-2.3688	-2.7396	-2.7188	-2.2458	-3.1833	291.390	351.063	142.580	430.138	362.902	298.663	415.632	414.442	203.469	412.017	389.810	378.164	412.029	406.408	398.967	329.844	0.00090418	0.0013319	0.00029593	1572.4	5.0313e-06	1.0151e-05	1635.1	433.07	7.3031e-06	1.4113e-05	503.22	181.68	159.94	64.641	9.2786e-06	75.383	0.0032868	0.0066625	0.0018701	1373	6.5567e-05	7.7267e-05	1427.3	378.25	6.033e-05	7.6396e-05	441.88	160.01	141.74	57.369	6.4879e-05	66.935	139.296	222.380	195.582	100.161	163.609	215.466	99.455	105.863	167.226	244.446	104.024	108.388	110.797	115.708	211.613	112.617	-8191	255	
36181.160	1	1	0	0	0.19964	0.10732	0.028412	0.12912	0.22907	0.1457	0.21004	0.11722	0.35662	0.18156	0.24042	0.16947	0.28198	0.22036	0.096449	0.19216	-1.9375	-2.4583	-2.7771	-2.3854	-2.7792	-2.6042	-2.2938	-3.0729	-2.4688	-2.4688	-3.1562	-2.3479	-2.6604	-2.8583	-2.2458	-3.05	246.603	170.078	311.506	428.400	252.463	188.008	423.036	382.088	217.439	319.810	356.178	328.651	438.463	416.139	291.118	441.178	0.00096245	0.00091754	0.0002783	1576.2	4.4934e-06	8.4926e-06	1638.8	430.24	8.1544e-06	1.0284e-05	499.12	180.96	158.67	64.655	1.7137e-05	74.51	0.0033062	0.0066797	0.001814	1379.2	6.4764e-05	7.391e-05	1424.3	376.75	5.8174e-05	7.5898e-05	438.46	158.71	141.55	57.113	6.2661e-05	66.277	133.761	203.459	119.215	100.822	231.236	273.142	99.728	106.252	218.232	221.070	104.471	108.224	110.893	115.617	240.641	112.897	-8191	255	
36181.258	1	1	0	0	0.081864	0.10465	0.066312	0.16974	0.25069	0.18685	0.26991	0.27353	0.14455	0.11749	0.15182	0.17068	0.053451	0.25341	0.35188	0.23696	-2.0958	-2.3458	-2.8146	-2.425	-2.5271	-2.7104	-2.4437	-3.1125	-2.525	-2.4708	-3.0938	-2.3792	-2.6312	-3.1896	-2.125	-2.7875	253.269	179.390	133.922	376.666	342.903	346.193	366.353	375.483	385.662	373.485	374.386	96.420	101.827	132.149	150.538	412.164	0.00084415	0.00096368	0.00025521	1562	3.2541e-06	2.1245e-06	1623	433.4	8.8005e-06	4.032e-06	498.42	180.45	159.67	64.367	6.6222e-06	74.668	0.0031649	0.0063633	0.0017316	1368.1	6.2092e-05	7.2315e-05	1411.3	376.71	5.6124e-05	7.1695e-05	438.21	158.56	141.55	56.965	6.1014e-05	66.195	136.908	187.272	154.134	100.320	368.906	257.370	99.361	105.999	205.597	242.418	104.425	108.382	110.946	115.902	259.312	112.856	-8191	255	
36181.379	1	1	0	0	0.13219	0.040839	0.17963	0.11488	0.17281	0.16043	0.55668	0.20759	0.2205	0.094436	0.28655	0.18672	0.1349	0.34258	0.25018	0.1281	-2.2938	-2.2729	-3.0167	-2.4188	-2.5583	-3.0208	-2.4313	-2.9208	-2.6292	-2.2625	-3.0042	-2.6729	-2.5438	-3.1354	-2.2792	-2.9229	252.109	190.210	344.838	365.434	312.864	390.900	395.065	404.928	273.500	172.759	413.047	398.462	333.911	385.911	310.476	404.094	0.00077883	0.001474	0.00019883	1565.3	7.065e-06	5.2748e-06	1629.8	431.99	3.9833e-06	3.2388e-06	496.6	180.22	159.64	64.395	7.7686e-06	75.233	0.0030906	0.0062905	0.001706	1368.4	6.2571e-05	6.9518e-05	1412.7	377.06	5.5663e-05	7.1307e-05	438.19	158.56	141.47	56.89	6.2583e-05	66.493	136.935	148.574	148.224	100.577	251.960	267.075	99.649	105.858	238.591	366.751	104.438	108.689	111.097	116.074	214.076	112.969	-8191	255	
36181.477	1	1	0	0	0.064223	0.17196	0.16995	0.24702	0.22928	0.039385	0.24504	0.074371	0.069595	0.25357	0.17332	0.053786	0.13086	0.33286	0.17574	0.14235	-2.4604	-1.9958	-2.9708	-2.6833	-2.3458	-3.0875	-2.5104	-2.875	-2.9042	-2.25	-2.9896	-2.7062	-2.3646	-3.1396	-2.25	-2.5812	139.444	313.045	142.331	413.709	113.210	444.025	372.510	111.588	306.419	105.695	425.011	178.096	300.819	429.228	200.381	378.661	0.00092755	0.0010108	0.00017925	1572.2	5.231e-06	1.0079e-05	1631	431.82	7.8575e-06	1.1312e-05	501.45	180.57	159.2	64.459	1.0332e-05	75.461	0.0030708	0.0062992	0.0017557	1374	6.141e-05	6.9254e-05	1419	376.7	5.7104e-05	7.2881e-05	439.62	158.83	141.43	57.222	6.2473e-05	66.782	136.067	169.405	208.319	100.587	190.455	246.612	99.495	106.173	271.301	274.605	104.587	108.467	111.308	116.185	184.797	112.946	-8191	255	
36181.547	1	1	0	0	0.14952	0.18195	0.13805	0.17619	0.067225	0.073237	0.14983	0.31895	0.16396	0.21053	0.27216	0.1516	0.29108	0.28371	0.3192	0.013273	-2.5521	-2.125	-2.7625	-2.5271	-2.0458	-2.9833	-2.5396	-2.6271	-2.9479	-2.2562	-2.7771	-2.7521	-2.2896	-3.1792	-2.2667	-2.5458	259.065	183.548	106.536	377.222	203.315	320.606	345.707	424.048	276.867	120.809	436.944	97.499	165.838	424.144	408.649	262.967	0.00092493	0.00047839	0.00032341	1574	2.7644e-06	9.2938e-06	1625	433.3	5.2878e-06	7.0567e-06	499.09	181	160.96	64.972	9.9831e-06	75.539	0.0031259	0.0061805	0.0017666	1373.1	6.395e-05	7.0778e-05	1416.8	377.61	5.5405e-05	7.2184e-05	440.38	159.38	142.33	57.633	6.0704e-05	66.954	133.443	186.796	153.044	100.346	268.096	233.403	99.903	106.339	274.585	220.694	104.639	108.543	111.321	116.354	225.482	113.003	-8191	255	
36181.645	1	1	0	0	0.26397	0.12061	0.053158	0.089246	0.024002	0.19327	0.25609	0.32098	0.15933	0.14251	0.22591	0.16321	0.11051	0.23067	0.17919	0.065286	-2.4417	-2.2917	-2.8208	-2.9167	-2.1271	-2.8167	-2.5042	-2.4271	-2.9167	-2.1813	-2.6854	-3.0083	-2.3812	-3.0042	-2.5604	-2.6229	333.209	401.913	188.546	346.457	290.846	399.089	403.325	353.330	158.234	415.629	434.112	112.314	393.530	408.054	421.201	333.724	0.00097952	0.00011504	0.0002597	1561	5.184e-06	1.2595e-05	1622.3	429.95	2.9622e-06	1.2197e-05	503.31	181.79	159.37	64.808	4.9838e-06	75.27	0.0031242	0.0063325	0.0018078	1368.2	6.4727e-05	7.2876e-05	1415.7	377.09	5.7724e-05	7.3601e-05	441.08	159.33	141.76	57.512	6.3558e-05	67.08	135.722	176.886	204.801	100.719	243.126	275.921	99.838	106.604	275.551	221.029	104.690	109.129	111.317	116.330	182.797	112.847	-8191	255	
36181.762	1	1	0	0	0.22684	0.1857	0.1868	0.15663	0.11155	0.28248	0.27324	0.20154	0.34532	0.14846	0.23945	0.2902	0.044678	0.018509	0.21356	0.18053	-2.6521	-2.1667	-2.5438	-2.925	-2.2625	-2.9896	-2.8125	-2.4708	-2.9062	-2.3146	-2.7417	-3.0667	-2.0792	-2.8187	-2.5771	-2.275	315.528	427.554	283.041	431.309	443.202	216.111	364.224	369.401	374.393	330.351	419.931	88.865	395.963	337.830	202.389	236.952	0.00079189	0.00059874	0.00035478	1554.5	8.4713e-06	9.7005e-06	1624.5	433.31	5.787e-06	6.5762e-06	502.48	181.87	160.36	65.376	1.1253e-05	76.533	0.0031922	0.0063955	0.0018386	1365	6.5161e-05	7.5584e-05	1412.8	377.6	5.9293e-05	7.4832e-05	442.21	160.24	142.22	57.976	6.2563e-05	67.736	138.755	272.078	173.531	100.771	245.244	291.724	100.079	106.434	215.046	255.138	104.787	108.923	111.641	116.551	230.436	113.288	-8191	255	
36181.859	1	1	0	0	0.20201	0.024259	0.17111	0.26185	0.081402	0.17989	0.27031	0.11817	0.21945	0.16136	0.096217	0.30497	0.19028	0.53912	0.064803	0.19619	-2.7687	-2.2542	-2.3625	-2.9437	-2.0646	-2.5854	-2.8792	-2.3479	-2.9792	-2.3458	-2.6167	-3.1125	-2.3229	-2.7104	-2.6146	-2.3354	315.258	376.291	280.977	446.239	299.805	308.245	391.283	134.272	144.469	111.803	120.753	353.676	114.681	410.647	411.099	401.466	0.0011242	0.00094865	0.0002353	1553.5	1.7097e-06	1.2087e-05	1634.4	431.86	1.2175e-05	7.9911e-06	507.1	184.82	159.97	65.767	7.5789e-06	77.727	0.0032558	0.0067644	0.0018313	1360.6	6.7324e-05	7.7339e-05	1420.9	378.84	5.9664e-05	7.8045e-05	446.05	162.22	143.11	58.578	6.5026e-05	68.774	138.462	217.471	225.732	100.899	219.088	225.014	99.709	106.654	229.315	184.339	104.916	108.898	111.368	115.823	211.579	113.026	-8191	255	
36181.953	1	1	0	0	0.10311	0.15192	0.10396	0.25292	0.21422	0.23807	0.24096	0.3292	0.24403	0.079366	0.12141	0.24332	0.11086	0.1214	0.029901	0.35638	-2.3312	-2.4437	-2.1771	-3.1188	-2.3625	-2.5292	-3.1	-2.2313	-2.9188	-2.4667	-2.3021	-3.0875	-2.3354	-2.8417	-3.0583	-2.3417	101.355	433.337	337.894	409.888	203.310	107.732	330.557	432.864	446.248	315.096	378.663	398.074	141.836	149.045	421.928	403.095	0.00092133	0.0011504	0.00037793	1561.2	6.45e-06	7.0039e-06	1646.9	436.43	1.4698e-06	8.0942e-06	510.77	186.94	161.83	66.916	7.9002e-06	77.8	0.0032625	0.0065541	0.0018487	1366.7	6.6953e-05	7.6089e-05	1434.5	381.73	6.1415e-05	7.761e-05	450.33	164.03	144.08	59.256	6.7522e-05	69.506	138.769	170.367	170.344	100.425	210.460	231.472	99.399	106.584	272.405	340.432	104.348	108.502	111.145	116.051	233.526	112.626	-8191	255	
36182.051	1	1	0	0	0.081379	0.056299	0.077714	0.17662	0.07898	0.16375	0.18715	0.15368	0.18117	0.3125	0.32394	0.088556	0.19624	0.35505	0.20962	0.11812	-2.4125	-2.5167	-2.1292	-3.1188	-2.3812	-2.5187	-3.1229	-2.3125	-2.85	-2.6042	-2.3354	-3.1479	-2.2979	-2.5938	-3.0208	-2.3667	309.479	107.095	299.006	407.977	326.210	403.975	418.283	371.911	347.604	357.841	387.020	391.428	348.834	98.936	286.725	387.205	0.00086428	0.0020216	0.00012652	1564.9	8.2946e-06	1.232e-05	1651.7	437.48	5.1226e-06	6.7044e-06	510.13	185.84	163.02	66.154	1.2948e-05	78.017	0.0034787	0.0069142	0.0019416	1373.8	7.0219e-05	7.9649e-05	1437.2	381.87	6.5481e-05	8.0375e-05	450.07	163.65	144.21	58.817	7.1377e-05	69.276	143.411	144.093	156.010	100.474	247.215	208.709	99.955	106.108	285.917	264.146	104.317	108.701	110.701	115.881	218.378	112.873	-8191	255	
36182.172	1	1	0	0	0.070393	0.19071	0.1385	0.13899	0.057527	0.20293	0.051723	0.44737	0.030467	0.23624	0.25289	0.14895	0.31268	0.46293	0.21311	0.32587	-2.3604	-2.6875	-1.8833	-3.0208	-2.4708	-2.6146	-3.2188	-2.2438	-2.6562	-2.75	-2.4	-3.2271	-2.6521	-2.375	-3.0042	-2.3	403.723	170.189	277.392	89.440	178.096	361.769	367.889	352.148	165.343	349.018	118.342	424.995	404.518	377.368	88.718	440.701	0.0010732	0.00063984	0.00024112	1560.8	4.8871e-06	1.4461e-05	1650.4	438.44	9.1997e-06	5.8529e-06	511.99	185.79	161.92	66.671	1.3081e-05	77.872	0.0036483	0.0071632	0.0020499	1371.2	7.4349e-05	8.4918e-05	1435.3	382.25	6.7165e-05	8.2109e-05	450.53	163.55	143.99	59.154	7.0945e-05	69.28	138.068	155.286	156.099	100.908	223.971	236.419	99.783	106.144	217.142	215.015	104.353	108.786	111.108	116.160	184.709	112.760	-8191	255	
36182.242	1	1	0	0	0.18921	0.065528	0.15036	0.14665	0.10488	0.20706	0.2988	0.23479	0.10051	0.16465	0.066392	0.16882	0.13166	0.098521	0.10996	0.10163	-2.1979	-3.0187	-2.2021	-2.7646	-2.5458	-2.2583	-3.2479	-2.3917	-2.4646	-2.8979	-2.0187	-2.9333	-2.6375	-2.25	-2.9021	-2.5729	372.014	149.629	309.923	423.337	176.882	155.790	370.642	442.739	328.950	335.195	155.775	285.513	413.474	330.390	328.389	416.908	0.00086586	0.00066506	0.00023627	1561.8	1.0377e-05	8.0471e-06	1660.3	436.2	8.6276e-06	2.1148e-06	517.38	186.97	161.79	66.287	9.0044e-06	78.117	0.0034894	0.0071204	0.0020216	1366.4	7.0638e-05	8.0514e-05	1438.8	382.49	6.4151e-05	8.0526e-05	453.15	164.49	144.26	59.06	6.884e-05	69.605	143.389	151.616	202.342	100.569	245.320	239.690	99.585	106.077	195.742	204.224	104.290	108.783	110.909	115.840	242.170	112.756	-8191	255	
36182.363	1	1	0	0	0.05374	0.18038	0.21566	0.19841	0.13583	0.10814	0.56754	0.35005	0.34005	0.12252	0.20119	0.17867	0.13897	0.13788	0.10622	0.25434	-1.9333	-2.875	-2.1396	-2.9	-2.7292	-2.0792	-3.1917	-2.3458	-2.3	-2.9396	-2.2875	-2.7687	-2.8354	-2.275	-2.9917	-2.6688	170.747	233.765	382.557	312.569	441.559	170.626	391.053	317.596	303.758	298.522	152.966	440.603	117.862	321.860	401.947	428.708	0.00088462	0.00084088	0.00024686	1571.8	1.3425e-05	1.2009e-05	1666.4	439.11	1.3324e-05	8.8472e-06	518.42	188.59	163.28	67.057	7.7858e-06	79.015	0.0034623	0.0069641	0.0020021	1375.7	7.0587e-05	8.079e-05	1445.3	383.5	6.4581e-05	7.8184e-05	454.55	165.68	144.9	59.591	6.9663e-05	70.065	136.850	177.390	190.635	100.773	226.525	193.290	100.092	106.096	213.414	242.071	104.609	109.236	111.254	116.006	240.577	113.206	-8191	255	
36182.461	1	1	0	0	0.051981	0.16258	0.047328	0.12598	0.13225	0.13459	0.16726	0.35763	0.25783	0.10917	0.23787	0.027408	0.092001	0.087758	0.10063	0.045793	-1.9542	-3.1521	-2.1417	-2.6437	-2.875	-2.2396	-3.2021	-2.4083	-2.4333	-2.8875	-2.4125	-2.6729	-3.0021	-2.1896	-2.7938	-2.6958	202.134	436.406	298.522	343.076	183.225	133.220	442.230	380.591	324.645	448.088	135.405	368.508	444.874	386.273	166.262	438.263	0.001095	0.00086782	0.00030082	1578.8	1.0292e-05	6.5154e-06	1671.6	441.38	5.4862e-06	1.0955e-05	516.56	188.13	163.5	66.868	1.5355e-05	77.972	0.003433	0.0067441	0.0019592	1379.5	6.6431e-05	7.5741e-05	1454.5	386.01	6.1378e-05	7.4972e-05	454.89	165.52	144.92	59.466	6.5675e-05	69.589	135.888	120.806	172.294	101.334	202.966	199.006	100.154	106.646	268.054	216.133	104.125	109.108	111.595	116.312	262.204	113.403	-8191	255	
36182.555	1	1	0	0	0.16073	0.1072	0.050007	0.24377	0.16238	0.26254	0.30824	0.27418	0.10832	0.16034	0.1319	0.22407	0.28294	0.39919	0.097696	0.16758	-1.9083	-2.8396	-2.3271	-2.3312	-2.7146	-2.1688	-2.9292	-2.8187	-2.2146	-3.0479	-2.4062	-2.625	-2.9833	-2.4208	-2.6396	-2.8833	274.913	171.558	154.140	447.052	265.699	269.770	390.507	382.666	377.376	185.660	359.698	436.789	437.998	435.122	403.490	386.448	0.0010895	0.0012876	0.0002838	1583.3	8.0744e-06	2.7147e-06	1663.2	437.42	5.3155e-06	5.1811e-06	512.48	186.53	162.81	66.519	7.0016e-06	77.641	0.0033872	0.0068842	0.0018669	1382.6	6.7106e-05	7.8013e-05	1448.1	383.66	6.3084e-05	7.8028e-05	450.82	163.83	144.48	58.831	7.0746e-05	68.804	140.191	203.895	136.024	100.070	265.557	237.654	100.036	106.602	263.807	199.348	104.122	108.755	110.949	116.193	259.336	113.085	-8191	255	
36182.652	1	1	0	0	0.22465	0.25715	0.11158	0.25399	0.26182	0.17503	0.38244	0.17583	0.074399	0.063477	0.16256	0.12771	0.10988	0.34567	0.082866	0.22659	-1.7979	-3.0208	-2.3125	-2.4542	-3.0833	-2.3042	-3.0062	-2.8896	-2.0917	-2.9313	-2.5854	-2.4167	-3.2083	-2.3229	-2.6562	-2.9979	229.457	370.279	402.558	411.862	406.870	322.908	381.328	357.665	415.051	398.124	389.813	371.168	420.832	433.508	140.962	412.521	0.00088192	0.00085661	0.00010606	1566.2	2.9859e-06	1.2319e-05	1660	436.49	5.2159e-06	1.7036e-05	508.3	186.04	162.52	65.941	6.9832e-06	76.811	0.0035647	0.0069989	0.0020272	1379.3	7.3484e-05	8.423e-05	1442.2	382.07	6.8381e-05	8.365e-05	448.06	162.99	143.97	58.385	7.458e-05	68.297	143.339	202.640	147.956	100.689	209.533	326.974	99.981	106.011	241.098	293.336	104.225	108.969	111.274	116.207	205.478	112.880	-8191	255	
36182.770	1	1	0	0	0.14072	0.062425	0.16903	0.023791	0.10487	0.050123	0.14688	0.1523	0.070927	0.031679	0.1807	0.20308	0.043918	0.12532	0.1233	0.21793	-1.8417	-2.7854	-2.4958	-2.4896	-2.8937	-2.3271	-2.9042	-2.9833	-2.0458	-2.7938	-2.6562	-2.3125	-3.0104	-2.5104	-2.3521	-3.0438	137.962	96.114	294.597	315.339	115.137	425.207	426.774	405.159	280.852	316.188	97.746	175.631	131.773	380.765	196.435	390.944	0.0010203	0.00056938	0.00015332	1575.1	1.1761e-05	1.275e-05	1655.7	435.63	9.896e-06	7.0065e-06	514.2	184.42	161.67	65.717	8.5852e-06	77.383	0.003817	0.0075247	0.0021149	1380.9	7.5452e-05	8.6902e-05	1442.7	382.86	6.847e-05	8.3028e-05	449.92	162.6	144.1	58.515	7.2466e-05	68.656	136.450	239.690	232.835	100.755	207.763	241.756	99.818	106.306	224.240	248.751	104.340	109.085	111.235	116.322	232.733	113.345	-8191	255	
36182.844	1	1	0	0	0.14959	0.29752	0.073731	0.02922	0.21887	0.13588	0.17818	0.30883	0.049732	0.10116	0.19184	0.13459	0.27649	0.17793	0.15002	0.13632	-1.6542	-2.7042	-2.6729	-2.3583	-3.0208	-2.4021	-2.6771	-2.9479	-2.1354	-2.6354	-2.9958	-2.4375	-3.0917	-2.6375	-2.25	-3.025	343.394	426.925	396.628	90.580	408.908	428.655	390.256	398.499	213.375	117.125	393.022	409.139	368.156	108.640	217.518	302.700	0.00089695	0.00014734	0.00030221	1567.4	9.7784e-06	9.7453e-06	1652.2	437.81	5.0898e-06	8.0411e-06	513.85	186.33	162.96	66.277	1.2517e-05	76.974	0.0034839	0.0071916	0.0019775	1376.1	7.1532e-05	8.2846e-05	1443.6	383.47	6.2619e-05	7.921e-05	451.56	163.96	144.58	58.678	6.5496e-05	68.722	138.361	180.954	183.903	100.816	196.119	238.906	100.058	106.086	205.020	216.882	104.360	108.755	111.005	116.133	257.334	113.102	-8191	255	
36182.938	1	1	0	0	0.061298	0.12428	0.13981	0.18919	0.064914	0.2292	0.3012	0.29619	0.18799	0.11279	0.17185	0.15291	0.28631	0.1039	0.019767	0.25068	-1.9958	-2.6771	-2.8458	-2.1917	-2.8167	-2.5292	-2.5396	-3.1042	-2.2562	-2.6917	-3.1271	-2.3688	-2.7625	-2.7188	-2.0021	-3.0771	177.981	265.588	156.961	110.906	223.413	261.128	327.459	379.475	118.935	260.175	414.389	345.151	121.464	361.590	306.034	327.730	0.001047	0.00056951	0.0002059	1582.9	4.238e-06	1.3302e-06	1663.1	440.32	8.9338e-06	4.9873e-06	511.48	184.74	161.44	65.236	8.2783e-06	76.193	0.0034134	0.0069118	0.0018849	1380.9	6.9705e-05	7.6116e-05	1446.7	384.58	6.2104e-05	7.9662e-05	448.37	162.5	143.62	58.082	7.1749e-05	67.999	136.150	259.861	155.825	100.861	283.313	176.518	99.688	106.154	208.070	230.250	104.615	108.872	111.234	115.861	234.945	113.066	-8191	255	
36183.035	1	1	0	0	0.2689	0.034316	0.15637	0.17558	0.089225	0.10729	0.21588	0.17006	0.043268	0.10527	0.56027	0.13984	0.068847	0.2032	0.18976	0.30565	-1.85	-2.5708	-2.7167	-2.2042	-2.8021	-2.4979	-2.4354	-3.0812	-2.3625	-2.4458	-3.2042	-2.1521	-2.8604	-2.8187	-2.1125	-2.9708	349.977	431.043	276.047	341.649	365.648	351.879	427.687	436.888	349.494	262.365	395.590	419.801	377.192	381.395	103.036	376.297	0.00098417	0.0011316	6.346e-05	1569.7	7.7478e-06	1.2844e-05	1646.2	433.2	7.1369e-06	7.2888e-06	505.5	182.64	160.36	64.776	1.0341e-05	75.759	0.0034737	0.0072355	0.0019803	1378.2	7.1085e-05	8.0697e-05	1435.9	380.46	6.4826e-05	8.2446e-05	444.37	159.98	142.52	57.593	6.971e-05	67.246	144.315	180.274	216.294	100.865	230.990	198.495	100.001	106.686	214.597	284.597	104.894	108.711	111.355	115.990	210.044	112.977	-8191	255	
36183.156	1	1	0	0	0.22242	0.1141	0.15547	0.11593	0.053136	0.098589	0.26659	0.28319	0.33209	0.18943	0.18271	0.32227	0.039722	0.30976	0.20717	0.074708	-2.0687	-2.4333	-2.7604	-2.2229	-2.5521	-2.7	-2.475	-2.9813	-2.4521	-2.2833	-3.1229	-2.3521	-2.7833	-2.8729	-2.1833	-3.0896	372.831	301.317	247.292	93.890	420.594	405.101	380.972	402.615	255.177	243.389	104.182	424.383	99.904	426.261	228.017	333.923	0.00087123	0.00048475	0.00023795	1582.7	8.3185e-06	2.3013e-07	1644.7	432.19	1.2008e-05	2.2957e-06	499.95	181.07	161.53	65.064	5.7373e-06	75.961	0.003405	0.0068169	0.0019372	1379.1	6.9129e-05	7.524e-05	1432.3	379.35	6.1129e-05	7.6417e-05	441.7	160.43	142.85	57.701	6.7548e-05	67.362	149.694	175.358	106.058	101.047	219.101	232.753	100.303	106.686	223.394	267.131	104.764	109.143	111.649	116.444	318.727	113.073	-8191	255	
36183.250	1	1	0	0	0.24029	0.17835	0.19087	0.18248	0.11482	0.05403	0.14084	0.1237	0.2188	0.22552	0.062723	0.076512	0.20251	0.18789	0.18949	0.10689	-1.9583	-2.0979	-3.0271	-2.4771	-2.6208	-2.8187	-2.4313	-3.0687	-2.4688	-2.2875	-2.9958	-2.3792	-2.4167	-2.9708	-2.2396	-2.7812	366.872	415.598	329.738	428.510	349.822	393.504	362.664	293.538	108.335	379.113	116.442	378.953	160.221	92.522	224.258	344.452	0.00099794	0.00058626	0.00013776	1565.1	6.244e-06	6.6001e-06	1643	434.18	1.0821e-05	7.8855e-06	505.34	183.38	162.39	65.596	6.662e-06	75.993	0.0033588	0.0065617	0.0018526	1370.5	6.7686e-05	7.6139e-05	1431.7	380.98	6.0821e-05	7.532e-05	444.17	161.24	143.25	58.154	6.3492e-05	67.629	133.996	197.589	194.663	100.518	208.264	336.847	99.514	106.485	191.754	256.785	104.415	108.538	110.845	116.268	234.817	112.973	-8191	255	
36183.348	1	1	0	0	0.15447	0.15894	0.10939	0.22729	0.087914	0.14027	0.21406	0.27691	0.41225	0.2406	0.28525	0.31238	0.31089	0.29358	0.23371	0.097758	-2.2125	-2.1917	-3.0104	-2.5	-2.4417	-2.9292	-2.3167	-2.7687	-2.5667	-2.125	-3.0479	-2.6312	-2.5938	-3.0687	-2.1208	-2.9375	112.923	367.586	311.958	429.823	258.516	436.930	375.977	342.085	279.136	436.575	424.200	431.825	427.879	416.572	287.040	315.547	0.0008422	0.00031379	0.00024012	1571.4	7.0852e-06	4.4631e-06	1646.5	438.19	7.7275e-06	7.3549e-06	510.8	185.53	161.29	65.356	5.1586e-06	75.859	0.0031319	0.0064789	0.0017892	1371.1	6.2448e-05	7.0723e-05	1435.5	382.7	5.5505e-05	7.1683e-05	447.61	162.11	143.69	58.121	6.1284e-05	67.668	142.634	217.686	208.474	100.766	230.564	224.458	99.994	106.527	243.078	258.668	104.863	109.105	111.627	116.422	308.072	113.540	-8191	255	
36183.441	1	1	0	0	0.1144	0.082961	0.045967	0.16115	0.27143	0.14078	0.16022	0.12252	0.047559	0.10831	0.19781	0.21629	0.21411	0.19975	0.18835	0.1027	-2.35	-2.2729	-2.8917	-2.6042	-2.3187	-3.0479	-2.475	-2.7	-2.8438	-2.0646	-2.9375	-2.6354	-2.2792	-3.1208	-2.2417	-2.7604	332.054	232.560	356.119	414.004	417.975	348.026	378.864	380.081	299.950	138.757	335.873	319.031	322.534	443.266	290.539	376.853	0.0010097	0.0010074	2.592e-05	1566.2	7.6597e-06	9.434e-06	1642.5	437.8	9.9596e-06	3.4813e-06	506.04	182.94	161.54	65.174	9.4371e-06	75.668	0.003095	0.0063237	0.0017436	1368.8	6.1263e-05	7.078e-05	1427.5	381.97	5.7491e-05	7.2006e-05	444.01	161.11	143.01	57.949	5.9699e-05	67.34	135.654	198.131	258.937	100.805	161.878	234.429	99.826	106.899	251.803	272.759	105.146	108.686	111.576	116.535	202.024	113.340	-8191	255	
36183.539	1	1	0	0	0.094176	0.074907	0.14504	0.25786	0.083999	0.1393	0.23632	0.24152	0.24686	0.24704	0.18469	0.15649	0.17142	0.11527	0.2169	0.17948	-2.625	-2.175	-2.6229	-2.7021	-2.1979	-3.0354	-2.5417	-2.5542	-2.9792	-2.2417	-2.7729	-2.9396	-2.2625	-2.9646	-2.2292	-2.3812	431.412	195.373	119.220	429.269	166.944	373.542	370.919	415.742	377.768	216.654	278.980	392.054	413.002	388.038	217.800	366.607	0.00088176	0.0013562	6.88e-05	1563.3	5.9073e-06	1.0766e-05	1638.3	435.32	1.6313e-06	1.3874e-05	504.41	183.12	160.94	65.301	7.1985e-06	75.331	0.0030147	0.0061572	0.0017312	1365.3	6.3093e-05	7.1071e-05	1423.3	381.07	5.5051e-05	7.1419e-05	443.49	160.17	142.75	57.927	6.1045e-05	67.208	141.120	193.573	148.937	100.741	242.600	272.823	99.913	106.812	173.667	238.594	104.995	108.930	111.568	116.539	233.656	113.376	-8191	255	
36183.633	1	1	0	0	0.051298	0.28753	0.064606	0.25234	0.321	0.11834	0.096653	0.17361	0.069423	0.1795	0.24213	0.1565	0.19823	0.19065	0.066189	0.2986	-2.5729	-2.1188	-2.5187	-2.7188	-2.1417	-2.9062	-2.6708	-2.5875	-3.0104	-2.2896	-2.8333	-2.6813	-2.0438	-3.0104	-2.55	-2.4917	194.276	182.479	220.331	412.508	181.287	298.607	120.748	365.280	371.450	219.862	344.862	304.636	266.791	384.215	185.832	403.443	0.0010284	0.00038766	0.00022666	1562.8	5.2439e-06	4.1545e-06	1625.7	431.69	8.6975e-06	7.3104e-06	502.14	182.92	161.08	65.417	1.0285e-05	75.736	0.0030324	0.0062209	0.0017089	1371.2	5.9305e-05	7.0456e-05	1422.8	380.19	5.6673e-05	6.944e-05	443.27	161.03	142.92	57.983	5.9807e-05	67.298	139.091	168.804	185.824	101.314	230.563	198.281	100.113	106.697	207.577	224.964	104.969	109.182	111.049	116.281	235.159	113.332	-8191	255	
36183.730	1	1	0	0	0.066117	0.14161	0.16586	0.34525	0.04418	0.13135	0.050809	0.18687	0.29495	0.18827	0.30743	0.31739	0.085389	0.12176	0.071457	0.18421	-2.5458	-2.2458	-2.6542	-3.1188	-2.15	-2.9542	-2.8375	-2.4208	-2.8375	-2.3417	-2.4458	-2.9625	-2.3937	-3.0896	-2.8208	-2.5083	364.812	239.995	405.478	439.514	210.511	116.133	390.273	347.640	193.801	132.335	343.115	397.218	405.610	281.562	130.719	379.274	0.00088468	0.00099253	0.00021877	1562.9	4.6435e-06	7.2744e-06	1638.8	434.68	2.0794e-06	1.2995e-05	508.13	183.09	161.08	65.074	8.4042e-06	75.205	0.0030214	0.0062215	0.001716	1373.2	6.3686e-05	7.1968e-05	1430.1	380.54	5.7965e-05	7.1121e-05	446.25	161.05	142.8	57.97	6.0475e-05	67.169	141.492	208.928	212.607	101.091	194.661	276.479	100.328	106.485	198.992	220.192	104.671	109.188	111.527	116.512	265.407	113.329	-8191	255	
36183.852	1	1	0	0	0.25057	0.23638	0.12969	0.19187	0.3054	0.31701	0.15817	0.36345	0.081454	0.17391	0.23859	0.23158	0.28733	0.18743	0.19655	0.14812	-2.5542	-2.3625	-2.4313	-3.15	-2.1875	-2.8542	-2.9792	-2.2854	-2.8937	-2.4938	-2.7458	-3.2438	-2.2833	-2.9417	-2.8083	-2.2417	253.655	410.291	379.573	381.585	140.884	203.894	408.331	93.826	179.986	386.221	98.957	397.049	399.470	113.547	165.440	396.301	0.00089483	0.0005235	0.0003585	1557.9	4.0338e-06	4.9265e-06	1632.3	433.07	2.3185e-06	1.2852e-05	500.21	180.7	159.39	64.801	8.6362e-06	74.511	0.0031555	0.0062585	0.0017459	1373.3	6.3918e-05	7.0838e-05	1427	380.2	5.6988e-05	6.9201e-05	442.83	159.75	141.99	57.878	5.8575e-05	66.726	149.404	158.186	189.344	100.834	176.394	233.471	100.243	106.424	268.499	226.008	104.710	109.008	111.684	116.979	203.716	113.229	-8191	255	
36183.945	1	1	0	0	0.055252	0.1138	0.18852	0.22503	0.08536	0.039009	0.23414	0.2231	0.091548	0.078872	0.29277	0.045566	0.034669	0.30195	0.02749	0.42605	-2.5146	-2.5	-2.2708	-3.3063	-2.4521	-2.7083	-3.0833	-2.3625	-2.8521	-2.5833	-2.4938	-3.0292	-2.2875	-2.5917	-3.0021	-2.275	235.886	429.433	147.650	133.537	328.899	120.251	423.944	424.292	434.248	439.164	427.182	416.177	386.646	437.342	390.457	377.350	0.00088164	0.00058417	0.00028708	1557.1	4.8581e-06	8.231e-06	1618.6	429.78	6.7219e-06	7.3702e-06	494.41	178.37	158.65	64.094	1.1302e-05	73.401	0.0030572	0.0059848	0.0016823	1366.4	5.9642e-05	6.7056e-05	1418.2	378.67	5.6498e-05	6.7437e-05	439.63	158.81	141.76	57.452	6.107e-05	66.069	137.778	170.218	224.225	100.682	263.708	185.521	100.241	106.775	224.255	284.209	104.879	109.209	111.143	116.693	209.818	113.468	-8191	255	
36184.043	1	1	0	0	0.069065	0.18563	0.2125	0.19942	0.19423	0.17177	0.062602	0.22178	0.040402	0.0054065	0.10472	0.30192	0.36431	0.44594	0.012275	0.19235	-2.5229	-2.5479	-2.3	-3.05	-2.4271	-2.5021	-3.05	-2.4104	-2.6	-2.7812	-2.3563	-3.0563	-2.4875	-2.7271	-3.0917	-2.3896	131.195	340.054	267.863	429.753	343.713	210.654	429.506	110.842	288.094	284.424	377.484	417.667	447.733	103.074	145.787	371.776	0.0010215	0.00032953	0.0002841	1530.4	4.6432e-06	8.4428e-06	1609.1	427.72	6.9834e-06	1.0259e-05	494.72	178.71	159.15	63.803	9.6129e-06	73.707	0.0030651	0.0060474	0.0016967	1362.9	6.2927e-05	7.0351e-05	1416.1	378.15	5.704e-05	6.8465e-05	438.62	158.89	141.8	57.318	6.1259e-05	66.36	140.204	195.874	146.005	101.141	293.969	250.491	100.324	106.619	210.234	277.178	104.992	108.790	111.579	116.826	216.524	113.509	-8191	255	
36184.141	1	1	0	0	0.12409	0.15054	0.27051	0.09641	0.15098	0.082539	0.43651	0.43559	0.061353	0.083301	0.40631	0.22033	0.14451	0.28921	0.1231	0.31698	-2.5729	-2.7146	-2.2375	-3.0333	-2.3792	-2.5396	-3.1833	-2.225	-2.6958	-2.775	-2.3333	-2.9604	-2.5792	-2.4938	-3.0187	-2.4042	280.460	308.226	201.731	287.025	323.948	444.913	382.008	393.367	321.485	407.779	425.650	442.924	230.503	357.983	235.608	427.466	0.0010258	0.00044016	0.00029076	1531.8	4.7351e-06	6.5752e-06	1597.8	425.24	8.9425e-06	2.8131e-06	498.04	179.96	159.58	64.369	9.8643e-06	74.487	0.0030687	0.0061451	0.0018302	1361	5.9899e-05	6.9143e-05	1413.4	376.95	5.6471e-05	6.9e-05	442.61	159.37	142.51	57.641	6.0685e-05	66.697	138.543	273.146	163.311	101.330	242.564	189.074	100.505	106.421	242.971	232.173	104.722	109.374	111.389	116.657	258.198	113.519	-8191	255	
36184.234	1	1	0	0	0.050746	0.26266	0.1342	0.33158	0.20393	0.1455	0.28995	0.084958	0.16865	0.12503	0.14711	0.3752	0.2895	0.34032	0.04274	0.16689	-2.2875	-2.6583	-2.2125	-2.9146	-2.7958	-2.3104	-3.2646	-2.5375	-2.5771	-3.0083	-2.5479	-2.9333	-2.9	-2.3312	-3.0396	-2.3667	120.164	225.590	206.804	412.233	171.565	271.721	384.341	164.368	367.075	281.354	430.885	397.414	411.316	405.426	285.478	135.962	0.0009751	0.00042394	4.7732e-05	1542.3	8.1217e-06	1.0625e-05	1608.7	429.54	2.9527e-06	7.7445e-06	498.89	180	160.01	64.573	9.2971e-06	74.452	0.002995	0.0059615	0.0017614	1365.8	5.8855e-05	6.9532e-05	1419.1	379.35	5.4042e-05	6.9401e-05	442.85	160.23	142.98	57.906	5.8749e-05	66.928	141.902	164.692	182.327	100.955	178.228	210.553	100.212	106.919	303.490	264.776	104.809	109.133	111.231	116.902	223.823	113.184	-8191	255	
36184.328	1	1	0	0	0.12776	0.17811	0.33789	0.42762	0.22367	0.21123	0.35542	0.23675	0.026709	0.18563	0.39902	0.26863	0.22464	0.19164	0.066733	0.111	-2.0646	-2.9667	-2.1458	-2.8771	-2.6625	-2.3333	-3.2417	-2.4021	-2.5	-3.0729	-2.3271	-2.9292	-2.8646	-2.3229	-2.9562	-2.6729	300.442	284.828	377.353	401.605	425.935	428.955	375.417	407.098	253.061	420.746	433.555	387.569	193.117	96.887	309.366	319.547	0.00087073	0.001546	8.1901e-05	1541.1	7.2954e-06	2.9823e-06	1611.7	427.08	6.2397e-06	1.2684e-05	497.44	180	158.63	64.649	3.5769e-06	74.848	0.0030142	0.0060645	0.0016799	1366.1	6.0805e-05	6.8572e-05	1422	378.64	5.3784e-05	6.7255e-05	442.57	159.82	142.42	57.968	5.9807e-05	67.041	145.057	162.725	240.217	101.324	242.918	284.151	100.526	106.319	278.450	240.386	104.850	109.373	111.649	116.688	265.937	113.140	-8191	255	
36184.449	1	1	0	0	0.14555	0.1336	0.12424	0.11146	0.19371	0.24574	0.30543	0.10226	0.20506	0.031695	0.22094	0.086639	0.26068	0.10364	0.10854	0.23069	-1.9792	-2.8812	-2.1333	-2.8438	-2.6542	-2.2875	-3.1333	-2.7458	-2.3375	-3.0187	-2.525	-2.6917	-2.85	-2.3208	-2.8458	-2.7313	194.278	328.396	365.973	301.091	325.929	204.905	368.535	379.853	359.736	253.633	130.540	104.214	378.524	401.943	251.979	402.514	0.00092508	0.00076116	0.00013968	1541.8	5.3511e-06	1.2169e-05	1596	428.66	7.7694e-06	6.0698e-06	495.79	178.94	161.2	64.555	8.6728e-06	75.07	0.0029892	0.0059635	0.0016817	1364.5	6.0024e-05	7.0356e-05	1415.4	379.42	5.4324e-05	6.6491e-05	442.78	160.25	143.73	58.211	5.8e-05	67.594	142.017	192.631	166.464	101.116	237.159	272.043	100.247	106.767	248.759	265.279	105.391	109.429	111.804	116.572	270.608	113.291	-8191	255	
36184.547	1	1	0	0	0.29779	0.14338	0.011632	0.19092	0.049766	0.052775	0.34785	0.32737	0.26858	0.11976	0.18638	0.52151	0.16044	0.3223	0.11087	0.16879	-1.9229	-2.8979	-2.3125	-2.6146	-3.0292	-2.2146	-3.0958	-2.8104	-2.275	-3.0083	-2.6292	-2.4188	-3.1	-2.3771	-2.7854	-2.8708	93.907	388.820	164.874	302.310	253.686	360.017	433.931	402.125	188.117	162.715	417.669	373.034	237.980	122.617	93.142	233.574	0.0009908	0.00020202	8.6453e-05	1539.2	7.23e-06	5.5918e-06	1608.6	426.8	1.2532e-05	6.7958e-06	498.05	181.77	159.81	65.336	4.9501e-06	76.266	0.0029399	0.0057264	0.0016309	1369.2	5.6979e-05	6.7256e-05	1430.1	381.69	5.2848e-05	6.5144e-05	447.42	163.04	144.55	59.052	5.5872e-05	68.836	143.918	427.099	132.766	101.393	236.676	268.157	100.641	106.960	231.480	242.278	105.171	109.411	111.875	116.813	244.482	113.393	-8191	255	
36184.645	1	1	0	0	0.22663	0.20338	0.18372	0.37607	0.18875	0.058804	0.55467	0.32432	0.37167	0.020194	0.13901	0.053867	0.24582	0.27904	0.1482	0.24594	-1.6958	-2.8854	-2.4333	-2.3396	-2.9938	-2.2562	-2.9042	-2.9458	-2.0771	-2.9688	-2.7833	-2.4625	-3.1437	-2.3604	-2.5292	-3.2125	312.325	127.509	172.869	402.369	389.552	365.661	419.440	411.647	357.454	221.815	90.413	437.976	418.170	131.407	179.688	407.180	0.00093185	0.0010778	0.00036426	1533.7	1.0323e-05	3.0029e-06	1625.3	433.4	9.7176e-06	7.5251e-06	507.57	184.35	161.03	65.703	8.9633e-06	76.947	0.0029117	0.0056478	0.0015982	1373.4	5.7005e-05	6.4724e-05	1444.3	386.15	5.3778e-05	6.3391e-05	454.48	165.79	145.85	59.766	5.4481e-05	70.08	138.317	174.243	176.635	101.042	242.185	404.139	100.737	106.939	185.236	229.975	104.996	109.228	112.047	116.931	242.233	113.511	-8191	255	
36184.715	1	1	0	0	0.40191	0.2298	0.31386	0.10102	0.29836	0.22067	0.2813	0.14576	0.21546	0.12753	0.2806	0.19702	0.21601	0.22927	0.23928	0.19478	-1.8104	-2.9125	-2.6875	-2.2313	-3.1083	-2.3667	-2.9042	-3.1854	-2.3271	-2.8792	-2.6958	-2.3937	-3.1854	-2.5667	-2.4396	-3.0958	362.966	212.240	360.308	111.260	320.829	241.043	406.796	330.397	323.451	221.632	372.746	435.375	91.816	414.227	258.574	441.256	0.00099317	0.0012816	0.00024397	1566.9	4.4524e-06	6.9885e-06	1646.4	435.73	1.2928e-05	1.2342e-05	510.1	186.79	163.97	66.529	3.9481e-06	77.931	0.0029084	0.0056534	0.0015409	1385.9	5.6901e-05	6.304e-05	1457.5	389.31	5.315e-05	6.4379e-05	457	167.39	147.17	60.124	5.7048e-05	70.269	136.124	162.436	144.532	101.216	248.977	206.311	100.524	106.878	227.466	261.780	105.051	109.372	111.882	116.466	278.384	113.367	-8191	255	
36184.836	1	1	0	0	0.12787	0.26094	0.14225	0.15613	0.10959	0.23433	0.1782	0.12812	0.024244	0.05877	0.32497	0.28336	0.12004	0.098543	0.072433	0.1261	-1.8479	-2.7562	-2.4583	-2.3583	-3.0646	-2.5438	-2.6542	-3.1688	-2.15	-2.7042	-2.8979	-2.4521	-2.8521	-2.7104	-2.3792	-3.0646	439.688	417.808	305.091	356.834	96.605	121.946	416.023	439.277	421.072	166.943	369.700	427.537	252.249	364.095	288.172	323.636	0.00098011	0.0010384	0.00014929	1545.8	8.9196e-06	1.0124e-05	1638.1	434.1	4.2847e-06	4.9548e-06	516.25	185.67	161.99	66.075	1.0167e-05	76.911	0.0029616	0.0055521	0.0015774	1378.4	5.6199e-05	6.5138e-05	1455.6	388.78	5.1697e-05	6.3101e-05	460.16	167.24	146.78	60.031	5.9416e-05	69.893	141.186	211.344	196.607	101.277	242.621	215.828	100.408	107.049	222.194	266.357	105.128	109.127	111.672	116.526	262.246	113.381	-8191	255	
36184.930	1	1	0	0	0.086169	0.061728	0.062117	0.18014	0.16232	0.22508	0.18175	0.2806	0.056579	0.27227	0.53516	0.057752	0.29377	0.28257	0.28008	0.35227	-1.7146	-2.5687	-2.9	-2.3104	-2.9208	-2.6396	-2.475	-3.1708	-2.2604	-2.6875	-3.0958	-2.2021	-3.0229	-2.6188	-2.2708	-3.1625	303.953	318.501	185.793	122.845	387.732	209.103	93.277	420.591	271.090	374.658	402.658	357.061	97.043	431.110	185.038	378.459	0.00097301	0.00075201	5.2699e-05	1586.6	4.5734e-06	7.3638e-06	1674.3	447.21	5.7114e-06	4.9509e-06	523.25	188.62	164.01	67.054	7.2348e-06	78.121	0.0029803	0.0058857	0.0017058	1391.7	6.0944e-05	7.1759e-05	1464.9	391.11	5.6896e-05	6.9117e-05	460.78	166.94	146.49	59.935	6.5535e-05	69.933	139.338	178.404	342.796	100.723	147.858	268.086	100.151	106.765	181.662	227.528	104.403	109.130	111.860	116.498	249.231	113.249	-8191	255	
36185.027	1	1	0	0	0.2376	0.1171	0.054978	0.2603	0.1766	0.11051	0.54248	0.49583	0.17347	0.093226	0.11531	0.1404	0.25118	0.11051	0.046364	0.20002	-1.8896	-2.6979	-2.8583	-2.3646	-2.8917	-2.7396	-2.5229	-3.1417	-2.4021	-2.4083	-3.0625	-2.35	-3.0187	-2.7771	-2.1104	-3.0479	114.232	428.935	431.124	125.510	203.504	332.399	397.657	370.138	380.589	340.633	431.961	139.194	434.011	396.023	400.440	432.193	0.00093686	0.0011459	0.00039173	1579.7	2.7914e-06	5.1133e-06	1672	441.47	6.2697e-06	1.0505e-05	517.22	186.42	163.24	66.447	5.9492e-06	76.864	0.0032611	0.0064165	0.0018522	1391.9	6.6447e-05	7.3375e-05	1467.9	389.13	6.0855e-05	7.6553e-05	457.2	165.64	145.71	59.315	6.8918e-05	69.176	141.066	212.257	167.975	101.019	290.498	208.112	100.246	106.891	195.815	219.453	105.087	109.149	111.648	116.893	273.927	113.504	-8191	255	
36185.121	1	1	0	0	0.13106	0.25392	0.1451	0.017534	0.1649	0.18302	0.39862	0.43711	0.0065995	0.086941	0.11343	0.31612	0.053989	0.45505	0.19477	0.20286	-2.1146	-2.5104	-2.8854	-2.3167	-2.6354	-2.9479	-2.4938	-3.1417	-2.5208	-2.4708	-3.0563	-2.4708	-2.7146	-2.8479	-2.2792	-2.9708	254.164	197.530	116.321	391.079	95.367	97.199	394.573	397.692	425.881	163.794	446.546	444.687	370.011	421.278	230.123	336.090	0.00083027	0.00055982	0.00029526	1569.4	8.4761e-06	5.8897e-06	1664.4	438.73	1.4357e-05	1.21e-05	511.74	186.25	161.42	65.924	5.519e-06	76.995	0.0033127	0.0069049	0.0019057	1391.5	6.776e-05	7.7436e-05	1471.4	390.23	5.9413e-05	7.5372e-05	456.73	165.93	145.8	59.421	6.665e-05	69.333	137.161	164.003	172.538	101.044	233.878	261.340	100.251	107.071	207.588	249.252	105.008	109.185	111.512	116.220	201.824	113.837	-8191	255	
36185.242	1	1	0	0	0.13617	0.21518	0.11765	0.22746	0.27997	0.26176	0.18819	0.2022	0.024795	0.10142	0.14803	0.13052	0.077838	0.23081	0.17768	0.28664	-2.1458	-2.4	-2.9958	-2.4688	-2.5771	-2.9479	-2.4271	-3.0979	-2.675	-2.3729	-3.1708	-2.4667	-2.6521	-3.0396	-2.3937	-3.0646	237.025	418.474	381.008	286.497	168.065	112.805	385.214	404.552	264.333	435.544	427.250	374.583	411.975	102.945	413.955	366.627	0.0010008	0.001115	0.00023908	1556.9	8.0133e-06	3.1385e-06	1650.7	435.49	7.7393e-06	1.1748e-05	507.81	184.08	159.75	65.266	1.1614e-05	75.923	0.0032586	0.00681	0.0018787	1389.3	6.8717e-05	7.5774e-05	1462.8	387.44	6.037e-05	7.7436e-05	454.55	164.22	144.95	58.956	6.6731e-05	68.566	133.265	183.698	162.062	101.075	257.173	251.878	100.409	106.929	252.505	203.362	104.974	109.143	112.003	116.917	211.347	113.835	-8191	255	
36185.340	1	1	0	0	0.048185	0.16235	0.052448	0.29937	0.18148	0.11422	0.5595	0.36993	0.061947	0.11249	0.32648	0.091477	0.40182	0.11367	0.10856	0.078789	-2.2958	-2.2042	-3.0229	-2.4917	-2.5896	-3.0938	-2.5458	-2.9604	-2.6854	-2.2521	-3.0771	-2.6146	-2.3979	-3.1208	-2.2729	-2.8646	196.577	150.746	352.924	405.597	89.664	392.407	368.026	403.549	148.013	146.735	387.974	389.051	125.234	433.067	173.544	227.601	0.00095969	0.0010964	8.9752e-05	1556.5	8.3754e-06	6.343e-06	1640.5	433.38	2.9964e-06	1.0701e-05	507.02	183.71	160.88	64.891	6.4899e-06	74.976	0.003355	0.0068874	0.0019316	1389.1	6.6838e-05	7.6321e-05	1457.6	386.16	6.0036e-05	7.4871e-05	453.77	163.75	144.96	58.851	6.4647e-05	68.213	134.958	190.732	143.008	101.141	296.105	184.615	100.226	107.110	246.367	257.172	105.120	109.328	111.912	116.804	257.069	113.627	-8191	255	
36185.410	1	1	0	0	0.15306	0.17793	0.32569	0.043082	0.15156	0.17496	0.31769	0.40874	0.27082	0.20618	0.079194	0.2095	0.10021	0.37844	0.13858	0.14938	-2.4188	-2.2292	-2.9375	-2.7333	-2.3438	-3.1396	-2.3667	-2.8771	-2.9042	-2.275	-3.1708	-2.8063	-2.3563	-3.125	-2.2521	-2.8312	224.938	253.781	356.514	126.971	211.307	444.010	381.515	416.180	281.674	280.141	447.366	426.942	138.722	420.668	272.421	386.941	0.0009722	0.0010486	0.00031202	1557.6	7.286e-06	1.122e-05	1640.4	430.29	1.0108e-05	9.5185e-06	504.81	181.21	161.25	64.779	1.2358e-05	75.512	0.0033227	0.0064584	0.0017984	1387.4	6.659e-05	7.5455e-05	1459.2	385.94	6.0011e-05	7.5373e-05	453.07	163.38	145.13	58.743	6.3354e-05	68.396	136.639	174.955	176.068	101.401	247.713	308.951	100.369	107.080	217.321	271.696	105.343	109.339	111.804	116.888	241.574	113.673	-8191	255	
36185.531	1	1	0	0	0.17333	0.30843	0.029575	0.13533	0.1369	0.13594	0.22001	0.2547	0.04125	0.064583	0.13417	0.05882	0.13417	0.31125	0.052492	0.36032	-2.6188	-2.0708	-2.8646	-2.9313	-2.1958	-2.7958	-2.6167	-2.6729	-3.0021	-2.1958	-3.125	-2.7979	-2.3292	-3.0563	-2.4917	-2.5667	106.862	446.267	216.245	136.478	106.105	437.670	363.052	421.753	367.462	219.605	437.373	383.228	427.714	401.729	183.987	408.503	0.00092445	0.00074241	0.00037933	1552.9	5.1349e-06	6.5426e-06	1642.2	432.64	9.4833e-06	1.1675e-05	508.96	183.2	159.58	65.015	9.9878e-06	75.503	0.0031801	0.0063093	0.0017878	1386.6	6.6235e-05	7.1189e-05	1461.5	386.75	5.8626e-05	7.3219e-05	455.93	163.89	144.52	58.868	6.2052e-05	68.369	137.370	141.940	178.910	101.057	228.136	261.309	100.358	107.012	233.779	206.342	105.092	109.373	111.826	117.005	259.736	113.262	-8191	255	
36185.629	1	1	0	0	0.16601	0.12553	0.20773	0.2396	0.11556	0.25361	0.32873	0.19876	0.18368	0.20058	0.26389	0.15927	0.17871	0.23325	0.11574	0.31349	-2.6333	-2.3896	-2.6625	-2.8917	-2.2083	-2.9708	-2.8583	-2.6458	-3.0042	-2.3708	-2.8542	-2.975	-2.3104	-3.2417	-2.65	-2.4479	92.417	448.679	399.368	109.236	119.408	441.226	379.545	393.722	223.335	390.511	439.269	316.974	349.424	89.419	302.918	398.338	0.00099031	0.0010109	0.00023561	1553.7	6.7526e-06	3.2604e-06	1640	430.15	5.2184e-07	3.7539e-06	502.37	181.46	158.73	64.258	8.3922e-06	74.038	0.0031832	0.0064163	0.0017259	1391.4	6.3649e-05	7.3143e-05	1461.1	386.38	5.9381e-05	7.211e-05	452.76	162.79	143.86	58.369	6.3724e-05	67.505	140.362	199.677	223.675	100.910	275.713	227.591	100.526	107.156	348.748	197.567	105.071	109.393	111.924	116.804	233.697	113.759	-8191	255	
36185.723	1	1	0	0	0.13733	0.097671	0.088579	0.279	0.21646	0.11626	0.22047	0.0872	0.14737	0.19997	0.22313	0.3976	0.15341	0.27581	0.21023	0.025724	-2.7917	-2.3688	-2.6167	-3.0167	-2.0792	-2.9146	-2.7562	-2.5229	-3.0104	-2.4625	-2.7583	-3.0583	-2.4313	-3.0729	-2.6583	-2.5438	380.519	410.351	184.629	414.046	319.490	272.951	436.824	173.503	254.085	107.134	431.449	431.768	339.117	110.603	347.296	434.973	0.00088284	0.00052582	0.00010995	1550.6	1.07e-05	4.3214e-06	1619.4	427.27	1.0402e-05	9.7577e-06	495.25	179.04	156.04	63.688	5.2307e-06	73.651	0.0031089	0.0062914	0.0017883	1390.6	6.6576e-05	7.1454e-05	1446.9	383.25	5.9263e-05	7.1437e-05	446.86	161.08	142.69	57.743	6.106e-05	66.938	140.954	132.559	172.746	101.380	232.422	258.560	100.160	107.103	242.981	220.909	105.715	109.302	111.834	116.616	398.694	113.764	-8191	255	
36185.844	1	1	0	0	0.10358	0.081034	0.070787	0.11997	0.1486	0.070405	0.22044	0.17112	0.1634	0.08859	0.22741	0.1616	0.28115	0.29739	0.10946	0.37746	-2.5917	-2.3958	-2.2667	-3.1396	-2.3021	-2.7667	-3.1521	-2.3375	-3.0021	-2.6042	-2.7313	-3.2167	-2.4	-2.8688	-2.8438	-2.4833	422.352	225.775	165.160	121.671	338.728	362.363	436.280	357.426	363.737	180.030	404.109	416.162	424.630	388.883	323.168	313.458	0.00091684	0.00057148	0.00023704	1535.4	4.3981e-06	9.0358e-06	1612	424.61	6.7338e-06	7.9819e-06	497.11	178.52	157.65	63.368	7.4831e-06	73.123	0.0030808	0.006278	0.0018168	1377.3	6.3432e-05	7.1695e-05	1441.2	382.94	5.7277e-05	7.0893e-05	448.07	160.82	142.82	57.73	6.1148e-05	66.6	142.021	132.548	199.773	101.432	244.163	256.193	100.447	107.336	211.791	242.455	105.179	109.332	111.764	117.025	264.903	113.728	-8191	255	
36185.941	1	1	0	0	0.14558	0.15678	0.083117	0.288	0.12446	0.18714	0.32074	0.26254	0.10665	0.063121	0.18717	0.19267	0.022624	0.15164	0.22318	0.17237	-2.6792	-2.4708	-2.3521	-3.1146	-2.3312	-2.7896	-3.1271	-2.5792	-2.8167	-2.6271	-2.375	-3.2292	-2.4792	-2.9271	-3.0312	-2.3896	282.319	231.697	131.258	430.315	431.094	108.018	416.562	357.235	157.694	447.057	433.338	444.961	93.166	100.615	410.484	292.640	0.00088165	0.00039136	0.00012947	1536.5	8.4475e-06	2.0024e-06	1614.9	426.44	6.3819e-06	8.9522e-06	498.1	178.88	157.5	63.427	7.3804e-06	73.696	0.00304	0.0061118	0.0017653	1381.3	6.0866e-05	7.0642e-05	1444.2	382.92	5.3961e-05	6.7675e-05	447.71	161.27	143.2	57.892	5.9912e-05	66.992	140.928	163.324	229.251	101.369	254.782	207.568	100.823	106.997	270.822	241.739	105.406	109.375	112.149	117.299	196.673	113.857	-8191	255	
36186.012	1	1	0	0	0.10031	0.13815	0.097461	0.4118	0.2771	0.16445	0.20122	0.34809	0.17432	0.14456	0.057202	0.25426	0.12354	0.30997	0.26868	0.14318	-2.4896	-2.6667	-2.1771	-3.1625	-2.4458	-2.625	-3.3187	-2.4708	-2.775	-2.8688	-2.475	-3.1625	-2.5292	-2.6708	-2.9729	-2.5604	112.030	383.802	417.165	401.963	223.363	418.302	364.807	399.585	214.766	96.970	208.092	189.018	145.155	392.143	425.358	338.363	0.00087266	0.00090925	0.00023583	1529.9	8.0694e-06	5.3148e-06	1613.8	426.24	3.0356e-06	4.8324e-06	494.35	178.95	157.13	63.274	9.6528e-06	72.889	0.0030828	0.0060168	0.0017318	1381	6.032e-05	7.0191e-05	1447.2	382.22	5.4164e-05	7.0123e-05	447.11	161.51	142.37	57.711	6.124e-05	66.682	141.607	172.662	201.674	101.275	293.489	322.484	100.601	107.065	221.557	272.830	105.386	109.453	112.081	117.266	252.333	113.948	-8191	255	
36186.133	1	1	0	0	0.05962	0.14143	0.040485	0.22618	0.25537	0.27214	0.13626	0.26524	0.20683	0.10724	0.24767	0.19981	0.2416	0.21058	0.20722	0.21615	-2.3312	-2.7625	-2.1813	-2.9833	-2.5438	-2.425	-3.0479	-2.4938	-2.7125	-2.9646	-2.5021	-2.9979	-2.6188	-2.5	-2.9896	-2.5208	318.669	125.260	325.688	397.804	410.224	379.575	418.638	424.112	346.388	274.642	386.392	435.703	430.897	405.140	187.345	395.352	0.00091378	0.00092136	0.00023316	1527.9	5.1914e-06	6.5729e-06	1617.5	423.24	8.6435e-06	1.0553e-05	492.12	174.6	155.13	62.585	8.3864e-06	71.092	0.0029948	0.0059468	0.0017135	1379.6	6.0093e-05	6.8725e-05	1444.4	380.97	5.5269e-05	6.8543e-05	443.02	158.96	141.4	57.109	6.0665e-05	65.234	141.073	154.926	174.542	101.409	239.719	272.631	100.705	107.284	218.333	164.993	105.149	109.723	112.056	117.236	256.814	113.620	-8191	255	
36186.227	1	1	0	0	0.17301	0.25736	0.04061	0.16194	0.1004	0.1091	0.03555	0.18125	0.19217	0.15813	0.18438	0.32191	0.093227	0.13145	0.056367	0.37326	-2.1146	-2.9437	-2.3083	-2.9479	-2.5521	-2.2979	-3.3458	-2.5354	-2.6667	-3.1167	-2.3792	-2.7875	-2.7146	-2.4271	-3.175	-2.5563	164.616	93.547	314.213	436.028	335.589	407.887	377.924	275.821	210.573	278.164	309.272	382.641	107.302	331.246	119.634	403.156	0.00085175	0.00065874	0.00033296	1524.5	8.5292e-06	6.2865e-06	1594.3	418.66	5.1966e-06	8.2077e-06	484.14	173.55	153.44	62.149	1.308e-05	70.978	0.0030639	0.0060966	0.0017441	1377	6.142e-05	7.3087e-05	1433.5	378.17	5.7291e-05	6.8644e-05	439.48	157.84	140.4	56.744	6.0452e-05	65.111	135.365	233.732	209.679	101.206	236.619	251.320	100.609	107.073	237.506	255.675	105.062	109.097	111.711	117.301	270.017	113.876	-8191	255	
36186.324	1	1	0	0	0.21002	0.077381	0.20931	0.16856	0.065401	0.1484	0.35934	0.346	0.13968	0.27615	0.32895	0.073001	0.34185	0.085628	0.046586	0.17079	-2.1208	-3.1396	-2.3792	-2.8	-2.7438	-2.3708	-3.2417	-2.65	-2.5292	-2.9083	-2.3563	-2.9625	-2.9354	-2.1667	-3.0646	-2.6479	435.650	115.235	245.336	368.428	215.084	90.874	386.157	410.153	360.665	125.558	435.914	349.194	433.064	448.376	197.749	375.356	0.0008876	0.00065461	0.00012924	1521.7	6.3356e-06	1.2796e-05	1581.7	415.05	8.3114e-06	6.5116e-06	481.52	172.45	154.44	61.654	8.3085e-06	71.152	0.0030794	0.006021	0.0017281	1374.9	6.011e-05	7.1826e-05	1428.8	376.83	5.5213e-05	6.9185e-05	438.87	157.03	141.12	56.7	5.9214e-05	65.126	133.679	168.191	198.202	101.661	251.985	208.732	100.928	107.552	212.445	202.078	105.241	109.958	112.039	117.374	242.696	113.398	-8191	255	
36186.418	1	1	0	0	0.18966	0.20809	0.095291	0.37804	0.068283	0.027088	0.11913	0.40595	0.32406	0.05225	0.039956	0.31834	0.15489	0.33318	0.20845	0.32763	-2.0812	-3.0875	-2.2458	-2.8625	-3.0479	-2.2333	-3.2604	-2.6729	-2.3667	-2.9813	-2.4229	-2.7438	-2.9854	-2.4688	-2.7771	-2.7833	184.620	358.323	229.655	394.628	386.557	369.772	405.916	431.955	108.003	320.629	386.923	444.395	366.817	93.224	173.202	438.860	0.00088349	0.0010605	0.00027711	1512.3	9.6932e-06	6.5415e-06	1594.8	419.22	9.6342e-06	7.169e-06	483.18	174.16	155.58	63.024	9.0267e-06	72.582	0.0030332	0.0057966	0.0016894	1372.6	5.6878e-05	6.7819e-05	1430.5	377.93	5.4367e-05	6.5074e-05	439.18	157.4	140.89	56.892	5.8532e-05	65.326	147.937	135.731	146.436	101.730	247.145	217.687	100.518	106.973	212.335	243.060	105.205	109.286	111.578	116.548	237.297	113.564	-8191	255	
36186.539	1	1	0	0	0.16692	0.16725	0.32699	0.13094	0.12082	0.10985	0.25366	0.3766	0.26997	0.13075	0.13788	0.15417	0.30355	0.54491	0.31578	0.11431	-1.7812	-2.8479	-2.4062	-2.4875	-2.9313	-2.15	-2.9646	-2.8167	-2.2167	-2.9167	-2.6479	-2.5563	-3.0792	-2.3958	-2.8271	-2.9521	141.105	102.825	300.678	153.340	318.484	97.677	416.286	438.600	351.405	88.885	417.155	418.538	179.886	424.481	120.684	365.853	0.00094438	0.0011915	0.00030136	1544.6	5.4975e-06	7.6652e-06	1613.5	422.05	1.1652e-05	5.2444e-06	490.18	175.04	155.22	62.216	5.8536e-06	71.349	0.0029114	0.0059776	0.0016942	1373.7	5.8415e-05	6.8929e-05	1430.7	375.65	5.5013e-05	6.7852e-05	437.15	156.44	140.26	56.362	5.8912e-05	64.583	140.162	159.311	203.003	101.263	254.730	190.120	100.509	106.806	240.687	213.850	104.865	109.607	111.375	116.895	246.605	113.225	-8191	255	
36186.637	1	1	0	0	0.036217	0.17263	0.17804	0.038532	0.14041	0.14375	0.21001	0.16954	0.32106	0.078729	0.30239	0.1538	0.20977	0.04707	0.030143	0.057419	-1.8396	-3.0229	-2.4104	-2.4146	-2.8896	-2.2375	-2.9562	-3.2062	-2.3167	-2.8979	-2.9875	-2.6542	-2.9813	-2.525	-2.6396	-3.0187	425.219	194.756	377.373	112.558	332.905	335.783	413.612	344.059	294.091	148.586	433.241	388.241	375.200	357.022	214.800	316.645	0.00085879	0.00092833	0.00032774	1525.3	9.903e-06	3.8304e-06	1591.2	417.63	8.1919e-06	1.5752e-05	479.17	172.89	152.67	61.406	1.4073e-05	70.316	0.0030217	0.0059849	0.0016876	1366.1	6.1012e-05	6.9001e-05	1418.3	372.37	5.5066e-05	6.7707e-05	430.79	154.92	139.02	55.823	6.0796e-05	63.724	132.060	181.932	157.373	100.962	224.981	229.861	100.601	107.029	186.397	221.493	105.311	109.572	111.834	116.983	241.569	113.442	-8191	255	
36186.707	1	1	0	0	0.064368	0.056847	0.10318	0.16636	0.10725	0.34393	0.22848	0.49539	0.27131	0.15034	0.24478	0.28715	0.021608	0.22394	0.15223	0.19915	-1.8896	-3.0021	-2.6146	-2.2854	-3.0625	-2.2479	-2.675	-2.8583	-2.2083	-3	-3.0417	-2.4604	-3.1521	-2.3979	-2.6312	-2.9042	219.179	149.876	394.050	426.759	206.642	272.559	372.810	368.199	118.342	274.304	95.904	413.928	240.013	393.519	280.456	410.601	0.00082649	0.0013869	4.0032e-05	1548.1	5.7198e-06	4.6993e-06	1590.6	412.65	7.6518e-06	4.0495e-06	478.24	170.75	152.38	61.068	9.2215e-06	69.84	0.0029574	0.0059922	0.0016951	1371.6	5.9896e-05	6.7057e-05	1415.2	370.66	5.4993e-05	6.7711e-05	431.11	153.51	138.99	55.54	6.0266e-05	63.54	143.374	156.372	177.259	101.441	152.592	166.120	100.768	107.195	277.696	352.648	105.015	109.458	111.488	116.885	232.755	113.510	-8191	255	
36186.805	1	1	0	0	0.32895	0.25296	0.033051	0.13996	0.11764	0.15392	0.3027	0.28838	0.11009	0.27567	0.11725	0.27626	0.32876	0.1121	0.17912	0.11082	-1.825	-2.8542	-2.7458	-2.3167	-3.075	-2.5312	-2.6021	-3.1917	-2.1604	-2.7104	-2.9542	-2.2521	-3.0438	-2.6625	-2.2917	-2.975	218.396	374.037	147.280	95.984	254.612	421.345	392.606	404.781	151.269	263.154	219.793	424.110	109.111	400.853	330.329	373.938	0.00093908	0.00024661	0.00019645	1527.9	5.6591e-06	4.0321e-06	1582.7	416.33	7.0712e-07	6.8531e-06	480.88	171.47	152.58	61.701	7.3951e-06	70.551	0.0029509	0.0060355	0.0016519	1363.4	6.0439e-05	6.7605e-05	1413.4	370.75	5.4027e-05	6.8113e-05	432.09	154.01	138.54	55.703	6.1039e-05	63.693	136.009	95.806	196.304	101.282	184.804	155.354	100.175	106.934	445.530	224.321	104.987	109.302	111.961	116.578	251.960	113.423	-8191	255	
36186.926	1	1	0	0	0.086587	0.24781	0.19886	0.24195	0.19988	0.24081	0.32396	0.049172	0.048841	0.088632	0.16539	0.26093	0.27936	0.30673	0.16033	0.30485	-1.8646	-2.8917	-2.7396	-2.2208	-2.8583	-2.5958	-2.4375	-3.1437	-2.3875	-2.5292	-2.9417	-2.2979	-2.9042	-2.8542	-2.2375	-3.1667	121.279	250.755	151.163	409.346	146.857	120.685	420.452	362.762	404.579	373.712	114.457	394.928	424.497	416.006	191.434	407.422	0.00092356	0.0004427	0.00019217	1531.1	6.4225e-06	5.518e-06	1583.1	418.85	5.0314e-06	6.1093e-06	481.91	172.98	152.4	61.466	5.0226e-06	69.743	0.0029528	0.0060231	0.001741	1365.1	6.0469e-05	6.743e-05	1411.3	372.2	5.5101e-05	6.8495e-05	432.35	154.75	138.22	55.648	5.9513e-05	63.297	138.772	149.579	203.792	101.221	241.603	260.710	100.495	106.567	202.530	308.381	105.052	108.978	111.731	116.477	216.126	113.812	-8191	255	
36187.020	1	1	0	0	0.049228	0.11556	0.05496	0.21451	0.017436	0.17664	0.28704	0.2109	0.16973	0.16089	0.11307	0.2756	0.14339	0.11451	0.091641	0.24728	-2.0458	-2.4667	-2.8917	-2.1937	-2.7479	-2.6667	-2.425	-3.075	-2.35	-2.3271	-3.0687	-2.45	-2.9354	-3.0729	-2.2729	-3.2	219.184	92.461	96.063	372.868	396.844	359.070	396.332	412.376	390.673	346.583	346.746	90.382	284.691	343.709	359.751	416.793	0.0009073	0.00073264	2.126e-05	1521.5	1.08e-05	7.1112e-06	1572.8	411.16	1.0837e-05	9.0316e-06	475.96	169.33	151.54	60.683	2.8184e-06	68.919	0.0029795	0.0059736	0.0017024	1362.9	5.9845e-05	6.9825e-05	1406.2	369.4	5.4269e-05	6.9093e-05	428.11	152.5	138.04	55.323	6.1894e-05	62.891	141.421	111.646	234.564	101.403	202.341	247.012	100.654	107.404	230.292	207.906	105.187	109.491	112.084	116.928	182.721	113.496	-8191	255	
#DATA ENDS
