BOXY.EXE: ISS Imagent and Oximeter Data Acquisition Program Version 0.80
Ascii Record File

#ACQ INFORMATION
2  Detector Channels 
16  External MUX Channels 
1  Auxiliary Channels 
5000  Waveform (CCF) Frequency (Hz)
1  Waveforms Skipped 
30  Waveforms Averaged 
1  Cycles Averaged 
16  Acquisitions per Waveform 
10.0806  Updata Rate (Hz) 

#FILE INFORMATION
TRUE -- External MUX Channel results are PARSED.
FALSE -- AC DC and Phase are NOT grouped.
TRUE -- Companion Program Settings File CREATED.
FALSE -- AC data not excluded
FALSE -- DC data not excluded
FALSE -- Phase data not excluded
FALSE -- Auxillary Chn. data not excluded
Tab delimiters

#CALIBRATION STATE
TRUE -- Waveform Calibration Values APPLIED.


#AUX CALIBRATION VALUES
Val Type	aux-1	

Term	1.0000e+00	
Factor	0.0000e+00	


#WF CALIBRATION VALUES
A = Detector Channel
Val Type	A-AC1	A-AC2	A-AC3	A-AC4	A-AC5	A-AC6	A-AC7	A-AC8	A-AC9	A-AC10	A-AC11	A-AC12	A-AC13	A-AC14	A-AC15	A-AC16	A-DC1	A-DC2	A-DC3	A-DC4	A-DC5	A-DC6	A-DC7	A-DC8	A-DC9	A-DC10	A-DC11	A-DC12	A-DC13	A-DC14	A-DC15	A-DC16	A-Ph1	A-Ph2	A-Ph3	A-Ph4	A-Ph5	A-Ph6	A-Ph7	A-Ph8	A-Ph9	A-Ph10	A-Ph11	A-Ph12	A-Ph13	A-Ph14	A-Ph15	A-Ph16	

Term	0.00000e+00	0.00000e+00	0.00000e+00	0.00000e+00	0.00000e+00	0.00000e+00	0.00000e+00	0.00000e+00	0.00000e+00	0.00000e+00	0.00000e+00	0.00000e+00	0.00000e+00	0.00000e+00	0.00000e+00	0.00000e+00	0.00000e+00	0.00000e+00	0.00000e+00	0.00000e+00	0.00000e+00	0.00000e+00	0.00000e+00	0.00000e+00	0.00000e+00	0.00000e+00	0.00000e+00	0.00000e+00	0.00000e+00	0.00000e+00	0.00000e+00	0.00000e+00	0.00000e+00	0.00000e+00	0.00000e+00	0.00000e+00	0.00000e+00	0.00000e+00	0.00000e+00	0.00000e+00	0.00000e+00	0.00000e+00	0.00000e+00	0.00000e+00	0.00000e+00	0.00000e+00	0.00000e+00	0.00000e+00	
Factor	1.00000e+00	1.00000e+00	1.00000e+00	1.00000e+00	1.00000e+00	1.00000e+00	1.00000e+00	1.00000e+00	1.00000e+00	1.00000e+00	1.00000e+00	1.00000e+00	1.00000e+00	1.00000e+00	1.00000e+00	1.00000e+00	1.00000e+00	1.00000e+00	1.00000e+00	1.00000e+00	1.00000e+00	1.00000e+00	1.00000e+00	1.00000e+00	1.00000e+00	1.00000e+00	1.00000e+00	1.00000e+00	1.00000e+00	1.00000e+00	1.00000e+00	1.00000e+00	X	X	X	X	X	X	X	X	X	X	X	X	X	X	X	X	

B = Detector Channel
Val Type	B-AC1	B-AC2	B-AC3	B-AC4	B-AC5	B-AC6	B-AC7	B-AC8	B-AC9	B-AC10	B-AC11	B-AC12	B-AC13	B-AC14	B-AC15	B-AC16	B-DC1	B-DC2	B-DC3	B-DC4	B-DC5	B-DC6	B-DC7	B-DC8	B-DC9	B-DC10	B-DC11	B-DC12	B-DC13	B-DC14	B-DC15	B-DC16	B-Ph1	B-Ph2	B-Ph3	B-Ph4	B-Ph5	B-Ph6	B-Ph7	B-Ph8	B-Ph9	B-Ph10	B-Ph11	B-Ph12	B-Ph13	B-Ph14	B-Ph15	B-Ph16	

Term	0.00000e+00	0.00000e+00	0.00000e+00	0.00000e+00	0.00000e+00	0.00000e+00	0.00000e+00	0.00000e+00	0.00000e+00	0.00000e+00	0.00000e+00	0.00000e+00	0.00000e+00	0.00000e+00	0.00000e+00	0.00000e+00	0.00000e+00	0.00000e+00	0.00000e+00	0.00000e+00	0.00000e+00	0.00000e+00	0.00000e+00	0.00000e+00	0.00000e+00	0.00000e+00	0.00000e+00	0.00000e+00	0.00000e+00	0.00000e+00	0.00000e+00	0.00000e+00	-1.74110e+02	-1.49463e+02	-1.54163e+02	-1.83559e+02	-9.67051e+01	-8.85097e+01	-1.58120e+02	-1.62015e+02	-7.57778e+01	-9.11998e+01	-1.70546e+02	-1.71093e+02	-1.79028e+02	-1.76657e+02	-7.54591e+01	-1.49556e+02	
Factor	3.07533e-05	1.16140e-04	3.88137e-05	1.69307e-01	1.12974e-06	1.04412e-06	1.84577e-01	5.88378e-02	1.11002e-06	1.29812e-06	9.83490e-02	3.36173e-02	3.12576e-02	1.02943e-02	1.39422e-06	1.47485e-02	9.99033e-07	1.02388e-06	2.85475e-07	7.71054e-02	1.12068e-08	1.12247e-08	7.91330e-02	2.67211e-02	1.11987e-08	1.12333e-08	4.26404e-02	1.45631e-02	1.40376e-02	4.62015e-03	1.12025e-08	6.38598e-03	X	X	X	X	X	X	X	X	X	X	X	X	X	X	X	X	



#DISTANCE SETTINGS
A = Detector Channel
A-1	A-2	A-3	A-4	A-5	A-6	A-7	A-8	A-9	A-10	A-11	A-12	A-13	A-14	A-15	A-16	

2.5000e+00	3.0000e+00	2.5000e+00	3.0000e+00	2.0000e+00	3.0000e+00	1.5000e+00	3.0000e+00	3.0000e+00	3.0000e+00	3.0000e+00	3.0000e+00	3.0000e+00	3.0000e+00	1.5000e+00	3.0000e+00	

B = Detector Channel
B-1	B-2	B-3	B-4	B-5	B-6	B-7	B-8	B-9	B-10	B-11	B-12	B-13	B-14	B-15	B-16	

1.0000e+01	1.0000e+01	1.0000e+01	1.4400e+00	1.0000e+01	1.0000e+01	1.5100e+00	1.9400e+00	1.0000e+01	1.0000e+01	1.9900e+00	2.4900e+00	2.4100e+00	2.9000e+00	1.0000e+01	2.9800e+00	




#DATA BEGINS
time	group	step	mark	flag	A-AC1	A-AC2	A-AC3	A-AC4	A-AC5	A-AC6	A-AC7	A-AC8	A-AC9	A-AC10	A-AC11	A-AC12	A-AC13	A-AC14	A-AC15	A-AC16	A-DC1	A-DC2	A-DC3	A-DC4	A-DC5	A-DC6	A-DC7	A-DC8	A-DC9	A-DC10	A-DC11	A-DC12	A-DC13	A-DC14	A-DC15	A-DC16	A-Ph1	A-Ph2	A-Ph3	A-Ph4	A-Ph5	A-Ph6	A-Ph7	A-Ph8	A-Ph9	A-Ph10	A-Ph11	A-Ph12	A-Ph13	A-Ph14	A-Ph15	A-Ph16	B-AC1	B-AC2	B-AC3	B-AC4	B-AC5	B-AC6	B-AC7	B-AC8	B-AC9	B-AC10	B-AC11	B-AC12	B-AC13	B-AC14	B-AC15	B-AC16	B-DC1	B-DC2	B-DC3	B-DC4	B-DC5	B-DC6	B-DC7	B-DC8	B-DC9	B-DC10	B-DC11	B-DC12	B-DC13	B-DC14	B-DC15	B-DC16	B-Ph1	B-Ph2	B-Ph3	B-Ph4	B-Ph5	B-Ph6	B-Ph7	B-Ph8	B-Ph9	B-Ph10	B-Ph11	B-Ph12	B-Ph13	B-Ph14	B-Ph15	B-Ph16	aux-1	digaux	

18944.072	1	1	0	256	0.15682	0.11834	0.27429	0.1004	0.0736	0.1002	0.10569	0.19999	0.09255	0.091435	0.076846	0.10368	0.3123	0.18973	0.15005	0.037795	-4.0396	-4.2021	-5.0583	-4.2146	-4.2438	-4.8688	-4.1146	-4.8083	-4.4812	-4.1188	-4.9667	-4.1375	-4.5896	-4.9125	-3.8604	-4.8938	169.736	171.050	317.516	323.314	179.401	161.105	261.758	265.933	187.310	202.472	255.209	41.880	15.159	90.929	126.612	15.329	0.00026068	0.00032359	0.00014007	1156.7	3.1931e-06	3.4148e-06	1272.5	231.8	4.4362e-06	3.5008e-06	297.51	81.908	63.953	18.747	1.5899e-06	26.34	0.00011	0.0001086	3.0473e-05	1112.6	1.2125e-06	1.1876e-06	1223.7	224.27	1.2017e-06	1.1908e-06	284.4	79.523	61.955	18.399	1.2212e-06	25.554	114.741	124.652	103.268	-7.118	154.408	72.691	-7.254	0.520	169.449	106.698	-0.141	6.925	7.005	14.328	185.418	13.784	-8191	255	
18944.168	1	1	0	0	0.099785	0.22494	0.058688	0.065473	0.10247	0.1093	0.26769	0.21091	0.10722	0.13418	0.13909	0.2044	0.10578	0.030786	0.17498	0.22378	-4.3125	-3.9208	-5.1562	-4.3375	-4.4958	-4.9042	-4.1771	-4.8688	-4.6896	-3.9917	-5.0146	-4.2021	-4.3542	-5.0333	-3.925	-4.7125	103.836	83.022	95.802	286.706	127.282	103.375	278.775	278.766	262.228	156.091	209.765	47.606	319.757	145.100	246.513	252.879	0.00020913	5.8025e-05	0.0001388	1159	3.8936e-06	1.3643e-06	1272.2	231.16	1.7287e-06	2.841e-07	296.51	82.118	64.546	18.82	3.8029e-06	26.017	0.00011501	0.00010894	3.0201e-05	1114.8	1.2224e-06	1.196e-06	1224.3	224.79	1.2046e-06	1.1676e-06	284.38	79.666	62.13	18.358	1.2075e-06	25.46	115.919	126.763	56.919	-7.451	212.035	145.267	-7.245	0.465	87.251	16.053	-0.078	6.747	7.505	14.219	189.662	13.774	-8191	255	
18944.264	1	1	0	0	0.11183	0.099129	0.20916	0.052285	0.28522	0.19935	0.19056	0.20776	0.077099	0.094615	0.22435	0.24672	0.1989	0.21536	0.16411	0.26587	-4.3979	-3.9938	-5.1062	-4.5958	-4.025	-4.8979	-4.0875	-4.6188	-4.7542	-3.9771	-4.8896	-4.3917	-4.0188	-5.0437	-4.1729	-4.5687	57.984	195.078	108.410	90.041	289.362	259.117	211.990	291.663	-8.344	216.590	23.116	-1.710	-8.701	212.476	218.578	75.920	0.00017797	0.00020615	5.1222e-05	1160.5	3.0159e-06	3.4772e-06	1271.9	230.57	4.4199e-07	6.5682e-06	295.38	81.979	64.156	18.726	2.9995e-06	26.419	0.0001145	0.00011121	3.02e-05	1113.4	1.2321e-06	1.1904e-06	1223.5	223.71	1.2246e-06	1.2097e-06	283.69	79.435	62.002	18.312	1.2129e-06	25.649	86.474	114.907	27.603	-7.051	191.797	89.661	-7.171	0.069	44.208	132.365	-0.195	6.741	7.337	14.140	255.355	14.163	-8191	255	
18944.383	1	1	0	0	0.14431	0.085425	0.17858	0.093321	0.15706	0.10101	0.12423	0.096523	0.050626	0.1692	0.21674	0.13915	0.13215	0.11254	0.10189	0.13845	-4.6458	-4.0792	-4.7688	-4.6646	-4.0417	-5.0042	-4.275	-4.3792	-4.9667	-4.0021	-4.7021	-4.5792	-4.1271	-4.8875	-4.1625	-4.2771	66.684	301.301	311.323	332.429	216.805	309.463	298.672	171.009	194.671	27.224	307.785	91.987	-3.051	324.810	213.231	138.138	0.0001826	0.00034755	0.00016265	1161.1	3.1454e-06	1.2802e-06	1271.5	231.95	2.8398e-06	5.0815e-06	295.92	81.599	64.473	18.847	3.4951e-06	26.368	0.00011319	0.00011262	3.1189e-05	1114.8	1.2464e-06	1.2137e-06	1223.8	224.86	1.248e-06	1.2283e-06	284.21	79.562	62.25	18.402	1.2513e-06	25.609	90.005	79.588	54.216	-7.350	133.839	121.706	-7.176	0.141	114.407	93.211	-0.363	6.938	6.898	14.423	65.942	13.418	-8191	255	
18944.479	1	1	0	0	0.0657	0.26274	0.15394	0.27169	0.15985	0.13387	0.16464	0.31	0.21678	0.071121	0.10737	0.036182	0.03915	0.12131	0.12262	0.039644	-4.6104	-3.8688	-4.7271	-4.6875	-4.0958	-4.9812	-4.4583	-4.3833	-4.7979	-3.9417	-4.7438	-4.8604	-4.0396	-4.8979	-4.2604	-4.1229	87.675	319.420	314.108	6.603	125.782	262.094	275.832	265.486	98.222	243.140	-6.404	48.543	-5.551	288.847	0.284	10.115	0.00022506	0.00024833	0.00012142	1157.3	7.8488e-06	4.0747e-06	1271.1	231.56	1.1568e-06	1.6153e-06	297.71	82.102	64.517	18.605	1.9386e-06	26.338	0.00011526	0.00011465	3.0905e-05	1116.4	1.2588e-06	1.2329e-06	1225.7	224.43	1.2506e-06	1.2421e-06	284.71	79.516	62.161	18.358	1.2466e-06	25.654	105.246	19.177	52.600	-7.076	107.053	109.136	-7.421	0.201	223.045	77.294	-0.490	7.155	6.884	13.896	164.196	13.480	-8191	255	
18944.551	1	1	0	0	0.32197	0.14187	0.12609	0.22467	0.13524	0.057802	0.040675	0.29105	0.043688	0.083899	0.14652	0.044655	0.20287	0.18567	0.13683	0.06091	-4.7729	-4.1208	-4.6917	-4.8854	-4.0896	-4.8583	-4.6292	-4.0542	-4.9292	-4.0813	-4.6375	-4.9229	-4.0938	-4.9708	-4.6167	-4.0792	330.837	198.383	14.131	-17.339	220.693	-10.436	292.836	259.501	195.609	82.874	-13.127	205.311	312.158	44.474	72.201	122.632	0.00019037	0.00039126	0.00010661	1160	2.703e-06	2.3185e-06	1270.8	231.76	4.7916e-07	2.1656e-06	298.16	82.172	64.239	18.801	2.3103e-06	26.18	0.00012068	0.00011671	3.2193e-05	1117.6	1.2839e-06	1.2587e-06	1226.3	224.56	1.2966e-06	1.2758e-06	285.29	79.855	62.115	18.44	1.2227e-06	25.711	85.446	114.474	80.737	-7.050	168.602	148.279	-7.371	-0.446	17.982	45.842	-0.136	6.985	7.096	13.957	-10.149	13.515	-8191	255	
18944.648	1	1	0	0	0.04001	0.072271	0.27158	0.17193	0.049226	0.088656	0.12393	0.13123	0.14182	0.19989	0.019776	0.058181	0.15591	0.069889	0.16016	0.13075	-4.7937	-4.0958	-4.4104	-5.0833	-3.9688	-4.6625	-4.7708	-4.3187	-4.8	-4.0729	-4.3333	-4.85	-3.8542	-4.575	-4.6979	-4.0542	229.532	324.667	30.797	325.725	312.502	254.723	247.171	281.892	340.070	111.338	148.924	160.767	324.338	290.360	91.762	188.225	0.00017634	0.00024853	5.4899e-05	1163.1	1.6427e-06	1.9486e-06	1268.3	232.08	2.9926e-06	3.3377e-06	295.42	81.792	64.493	18.677	4.0222e-06	26.338	0.00011931	0.00011471	3.155e-05	1119.8	1.2687e-06	1.2352e-06	1227.6	224.96	1.2627e-06	1.2612e-06	284.82	79.805	62.229	18.431	1.2823e-06	25.703	91.170	45.870	24.545	-6.999	165.202	123.160	-7.438	0.397	254.286	127.830	-0.423	6.450	6.839	14.260	72.960	13.888	-8191	255	
18944.768	1	1	0	0	0.07671	0.10994	0.076183	0.17816	0.16339	0.16251	0.12084	0.26559	0.083984	0.057014	0.060706	0.14599	0.18232	0.12733	0.20539	0.14369	-4.6333	-4.2875	-4.1667	-5.1312	-4.0583	-4.65	-4.925	-4.0062	-4.9396	-4.4167	-4.3208	-5.0375	-4.2	-4.5563	-4.8792	-3.9938	151.443	173.072	285.319	297.437	102.919	299.160	198.786	215.834	-14.865	277.993	323.480	23.718	53.567	56.189	153.950	71.079	0.00019346	0.00035697	6.9374e-05	1164.2	2.675e-06	3.6341e-06	1273.1	231.5	2.5175e-06	2.3216e-06	297.71	82.073	63.926	18.666	3.4878e-06	26.278	0.0001208	0.00011696	3.252e-05	1118.9	1.3444e-06	1.2666e-06	1229.5	225.19	1.2854e-06	1.2956e-06	284.79	79.91	62.236	18.437	1.2716e-06	25.699	87.623	76.154	50.793	-7.367	73.558	147.311	-7.100	-0.031	175.776	244.182	-0.001	6.971	6.991	13.990	94.570	12.922	-8191	255	
18944.863	1	1	0	0	0.16122	0.04705	0.26077	0.20994	0.14302	0.21973	0.12802	0.20593	0.15457	0.13274	0.21395	0.14953	0.16439	0.3395	0.12071	0.26803	-4.5188	-4.5083	-4.2667	-5.2792	-4.1417	-4.5167	-5.2125	-4.0854	-4.9979	-4.475	-4.0917	-5.15	-4.2708	-4.3896	-4.9729	-3.8688	224.341	300.270	85.521	294.869	126.845	101.035	306.772	5.230	160.761	243.001	283.018	268.746	9.659	32.810	279.058	47.580	0.00025788	0.00029997	6.9814e-05	1165	2.1068e-06	6.1617e-07	1274.5	232.92	3.3265e-06	1.8029e-06	297.27	82.403	64.611	18.922	4.6337e-06	26.294	0.0001203	0.0001179	3.273e-05	1120.6	1.34e-06	1.2621e-06	1231.9	225.75	1.3189e-06	1.2794e-06	284.7	79.928	62.438	18.466	1.3003e-06	25.715	91.016	28.339	61.368	-7.226	258.573	160.382	-7.197	-0.117	119.043	20.943	-0.232	6.749	7.364	14.605	140.366	14.039	-8191	255	
18944.961	1	1	0	0	0.065929	0.14831	0.10784	0.29565	0.25356	0.11776	0.09593	0.053323	0.17682	0.25448	0.053237	0.081204	0.052921	0.1139	0.14666	0.12343	-4.475	-4.7417	-4.1333	-5.1312	-4.3021	-4.3167	-5.1312	-4.2	-4.8208	-4.7875	-4.2208	-4.9917	-4.4875	-4.2812	-4.9667	-4.1542	104.008	80.803	304.711	310.771	-5.664	284.820	-0.167	166.254	318.219	123.655	204.927	303.761	327.393	314.277	90.875	335.439	0.00029123	0.00044423	0.00012946	1165.8	4.4333e-06	3.7909e-06	1278.2	231.49	2.157e-06	3.8641e-06	296.21	82.389	64.445	18.871	2.957e-06	26.404	0.00012091	0.00011853	3.3121e-05	1120.8	1.3343e-06	1.2872e-06	1231.6	225.41	1.3131e-06	1.3e-06	284.61	79.962	62.418	18.505	1.2885e-06	25.768	100.858	66.256	75.924	-7.189	162.099	98.205	-7.102	0.099	60.862	108.599	-0.615	6.832	7.138	13.888	121.339	13.931	-8191	255	
18945.057	1	1	0	0	0.32268	0.19558	0.19815	0.1719	0.21686	0.10917	0.23537	0.29502	0.19761	0.18542	0.41755	0.13368	0.16637	0.040554	0.15149	0.18653	-4.4167	-4.75	-4.1083	-5.05	-4.3458	-4.2167	-5.2292	-4.2125	-4.4917	-4.8833	-4.0417	-4.9958	-4.5062	-4.1479	-4.9271	-4.2083	91.572	65.350	201.174	249.576	37.242	274.813	295.019	285.706	328.208	136.503	330.650	163.410	-13.282	149.255	20.786	272.103	0.00015172	0.00035017	0.00011205	1167.4	2.4945e-06	5.1149e-06	1279.8	232.56	8.5859e-07	2.3097e-06	296.54	81.841	64.238	18.741	4.9623e-06	26.471	0.00012246	0.00011682	3.2357e-05	1120.6	1.2981e-06	1.284e-06	1231.7	225.39	1.286e-06	1.2985e-06	284.84	79.734	62.338	18.428	1.2668e-06	25.738	90.547	177.316	6.346	-7.020	71.941	157.665	-7.295	0.204	308.914	28.170	0.065	6.899	6.824	13.592	181.044	12.679	-8191	255	
18945.152	1	1	0	0	0.094324	0.16602	0.28435	0.36143	0.060079	0.07036	0.12117	0.080999	0.19006	0.17462	0.25562	0.10704	0.066248	0.29056	0.1014	0.1039	-4.1792	-4.7208	-3.925	-4.8375	-4.5312	-4.0229	-5.2646	-4.3896	-4.4167	-4.9958	-3.9854	-4.8063	-4.5792	-4.125	-4.8875	-4.0917	71.287	46.864	176.017	277.861	180.387	190.622	291.416	176.709	167.613	79.904	83.134	44.459	85.418	57.601	294.995	228.118	0.0002319	0.00047339	5.9649e-05	1172.1	5.5185e-07	2.7089e-06	1284.8	234.3	1.8285e-06	2.9206e-06	302.44	83.818	65.63	19.135	1.8121e-06	27.054	0.00012126	0.00011665	3.3229e-05	1122.7	1.3204e-06	1.2981e-06	1232.8	226.01	1.3534e-06	1.3438e-06	286.61	80.231	62.766	18.633	1.3856e-06	25.942	88.148	71.601	45.725	-8.258	225.303	61.354	-8.213	-0.456	92.020	47.405	-3.031	4.807	4.703	12.272	145.084	10.421	-8191	255	
18945.248	1	1	0	0	0.1493	0.106	0.10116	0.345	0.054489	0.39363	0.080566	0.22052	0.080955	0.19744	0.26684	0.1254	0.0547	0.051773	0.34619	0.17799	-3.9688	-4.8979	-3.9104	-4.9187	-4.5938	-3.9021	-5.05	-4.425	-4.0667	-4.8042	-3.9896	-4.7125	-4.8667	-4.1771	-4.825	-4.5375	2.041	91.227	293.818	309.962	158.160	165.775	274.416	326.551	173.416	22.230	328.395	3.507	111.404	271.604	163.010	332.545	0.0002536	0.00024253	0.00012357	1198.7	5.0688e-06	1.9452e-06	1313.6	239.25	2.088e-06	2.8243e-06	303.57	84.642	66.707	19.422	3.5881e-06	27.062	0.00013105	0.00012744	3.5782e-05	1131.1	1.4219e-06	1.3886e-06	1241.6	227.38	1.4108e-06	1.3822e-06	287.33	80.571	63.137	18.688	1.3829e-06	25.962	86.567	47.021	57.559	-10.482	175.176	89.875	-10.248	-3.081	43.730	124.644	-3.268	3.705	4.428	10.869	141.265	10.527	-8191	255	
18945.369	1	1	0	0	0.073756	0.12804	0.16972	0.34089	0.12715	0.038122	0.25021	0.26985	0.30856	0.068019	0.13509	0.17591	0.087109	0.083769	0.054838	0.26631	-3.8187	-4.9958	-4.1104	-4.5813	-4.8271	-4.075	-5.075	-4.6729	-4.1542	-4.9021	-4.1271	-4.5104	-4.7729	-3.7146	-4.7271	-4.7438	150.908	224.142	7.675	268.498	235.646	112.207	197.696	218.109	127.521	185.542	272.857	246.543	260.623	1.907	286.069	286.608	0.0002031	0.00056007	7.2706e-05	1195.6	4.9442e-06	3.0659e-07	1313.5	240.51	1.1755e-06	4.7662e-06	306.81	84.445	66.471	19.276	6.0961e-06	26.896	0.00012957	0.00012504	3.5918e-05	1130.9	1.4036e-06	1.3778e-06	1241.9	227.91	1.3702e-06	1.3803e-06	287.75	80.452	62.9	18.649	1.403e-06	25.958	75.848	52.241	29.015	-10.404	140.515	230.855	-10.130	-2.911	119.946	137.343	-3.298	3.359	3.765	10.867	90.814	10.812	-8191	255	
18945.463	1	1	0	0	0.31934	0.020672	0.044663	0.16385	0.046664	0.20333	0.094365	0.037329	0.27591	0.013822	0.21639	0.19297	0.034693	0.074949	0.065912	0.14378	-3.8812	-4.9958	-4.3771	-4.6646	-4.9417	-3.9771	-4.9333	-4.7208	-3.9667	-4.9854	-4.4229	-4.3708	-5.0208	-4.075	-4.5708	-4.6229	37.898	70.508	145.620	301.974	81.315	25.199	98.864	185.524	112.635	49.560	-19.884	261.588	174.455	324.067	291.791	108.038	0.00028779	0.00015906	0.00012022	1201.7	4.4899e-06	2.6005e-06	1312.7	239.12	3.7503e-06	3.5451e-06	306.2	85.238	66.563	19.287	5.4339e-06	27.051	0.00013135	0.00012763	3.6047e-05	1132.7	1.4432e-06	1.4203e-06	1244.7	227.17	1.463e-06	1.4271e-06	288.33	80.811	63.014	18.678	1.4486e-06	25.937	124.602	76.514	-8.328	-10.336	124.872	66.333	-10.360	-2.801	107.714	130.800	-3.438	3.747	3.854	11.110	141.783	10.431	-8191	255	
18945.559	1	1	0	0	0.31649	0.17675	0.10965	0.062886	0.0055162	0.16408	0.31846	0.04137	0.24144	0.12062	0.16914	0.18352	0.053565	0.10668	0.2959	0.089013	-3.6479	-5.0042	-4.3667	-4.3708	-5.0167	-4.1417	-4.7771	-4.7688	-4.0125	-4.9375	-4.5729	-4.2542	-5.0104	-4.1542	-4.5625	-4.8292	253.426	219.121	152.123	330.434	50.978	314.577	274.978	62.194	214.599	87.432	266.536	35.359	-8.658	10.455	278.586	-0.497	0.00025039	0.00015146	0.00014783	1201.4	4.7153e-06	2.3946e-06	1318.7	239.61	1.3453e-06	3.6831e-06	306.82	84.585	65.884	19.281	2.8035e-06	26.971	0.00013246	0.00012938	3.647e-05	1132.7	1.4283e-06	1.4229e-06	1246.6	227.95	1.4496e-06	1.3975e-06	288.3	80.583	63.043	18.64	1.3965e-06	25.933	87.979	39.624	-1.825	-10.288	153.507	66.057	-10.450	-2.676	165.216	164.680	-2.903	3.315	3.738	11.226	116.830	10.454	-8191	255	
18945.656	1	1	0	0	0.2192	0.16151	0.11333	0.27046	0.093039	0.026382	0.21943	0.075255	0.17386	0.068576	0.19857	0.043746	0.030544	0.069866	0.12257	0.095937	-3.6937	-4.8333	-4.3958	-4.2063	-4.9979	-4.1146	-4.6521	-4.9604	-3.9437	-4.6667	-4.6854	-4.0604	-5.1229	-4.1229	-4.3333	-4.9667	284.206	5.896	296.752	281.632	183.611	339.141	-14.051	30.987	-6.257	253.276	172.222	273.246	125.955	249.465	23.660	76.686	0.00013693	0.00046363	7.7869e-05	1197.6	3.4097e-06	4.1096e-06	1313.4	240.79	2.7914e-06	7.8865e-07	303.98	84.319	65.93	19.281	9.0747e-07	27.013	0.0001301	0.00012615	3.5199e-05	1131.5	1.3769e-06	1.3646e-06	1243.3	227.71	1.3763e-06	1.372e-06	286.98	80.35	62.924	18.611	1.4031e-06	25.941	94.929	-11.577	6.470	-10.486	109.668	74.883	-10.523	-2.642	57.321	103.990	-2.686	3.984	4.378	11.143	171.497	11.193	-8191	255	
18945.775	1	1	0	0	0.20509	0.11962	0.17002	0.44032	0.21886	0.22103	0.10179	0.31351	0.086011	0.15282	0.11559	0.26124	0.2709	0.17842	0.13373	0.049387	-3.7104	-4.7354	-4.5479	-4.1062	-4.975	-4.3542	-4.4833	-4.9563	-4.125	-4.675	-4.7542	-4.3375	-4.9812	-4.4812	-4.2271	-4.9979	69.434	153.154	148.018	311.744	35.019	26.661	260.424	197.003	294.122	88.343	288.852	265.165	303.018	56.972	203.016	226.992	0.00024191	0.00047236	0.00013939	1200.9	1.9901e-06	5.4656e-06	1316.7	240.07	3.5213e-06	4.507e-06	305.53	83.794	66.429	19.365	2.3906e-06	26.941	0.00013674	0.00013261	3.6453e-05	1135.1	1.5118e-06	1.494e-06	1245.9	228.59	1.5351e-06	1.5438e-06	289.03	80.766	63.282	18.804	1.563e-06	26.049	107.042	51.193	-1.737	-10.220	93.394	41.726	-10.212	-2.648	160.966	140.183	-2.876	3.527	4.128	11.316	126.401	11.213	-8191	255	
18945.848	1	1	0	0	0.084542	0.14202	0.10601	0.17149	0.2288	0.084926	0.20723	0.11631	0.17182	0.1425	0.16957	0.16997	0.083716	0.093959	0.13689	0.12241	-3.8333	-4.525	-4.9021	-4.2396	-4.825	-4.3479	-4.3313	-5.0896	-4.0792	-4.4896	-4.9938	-4.0646	-4.9563	-4.5896	-4.1417	-4.9792	134.229	211.690	183.609	328.218	122.666	63.675	285.278	68.297	12.283	178.564	251.206	25.300	117.629	316.128	-14.201	47.234	0.0002496	0.000292	0.00015064	1202.5	3.162e-06	4.2539e-06	1315	241.19	1.9993e-06	2.6084e-06	307.16	84.887	66.339	19.449	2.435e-06	26.926	0.00014355	0.00013797	3.8285e-05	1137.5	1.5321e-06	1.5177e-06	1247.5	229.59	1.5144e-06	1.4951e-06	289.64	80.967	63.289	18.779	1.4777e-06	26.004	106.471	158.422	99.699	-9.932	145.751	96.611	-10.024	-2.769	193.399	110.265	-3.230	3.906	4.440	11.386	47.822	10.746	-8191	255	
18945.943	1	1	0	0	0.16574	0.075643	0.18174	0.075587	0.12745	0.11363	0.11928	0.10808	0.26987	0.12907	0.15351	0.26622	0.21937	0.30918	0.07653	0.20494	-3.8042	-4.4542	-4.8354	-4.1208	-4.6562	-4.5083	-4.3042	-5.0167	-4.2354	-4.2688	-5.0375	-4.0521	-4.6646	-4.7708	-4.025	-5.0312	320.752	237.985	71.421	214.277	9.440	182.379	197.360	251.094	188.691	217.802	303.513	172.815	331.643	9.179	33.792	301.733	0.00015948	0.00052585	0.00013772	1198.4	1.2562e-06	1.6108e-06	1312.8	240.09	2.5134e-06	3.3494e-06	306.4	84.16	66.43	19.324	3.2678e-06	27.008	0.00014142	0.00013571	3.7824e-05	1134.9	1.5028e-06	1.4785e-06	1245.7	228.67	1.4779e-06	1.4464e-06	289.13	80.857	63.099	18.639	1.4044e-06	25.965	113.666	25.862	125.268	-10.161	222.315	179.428	-9.990	-2.355	62.129	159.273	-2.974	3.728	3.927	11.291	135.637	10.559	-8191	255	
18946.039	1	1	0	0	0.2169	0.27617	0.1211	0.22432	0.14958	0.043249	0.35021	0.24516	0.19413	0.12432	0.13695	0.06086	0.28274	0.16567	0.093547	0.096357	-3.7479	-4.2604	-4.9333	-4.2146	-4.7292	-4.625	-4.1479	-4.9646	-4.3146	-4.1146	-4.9896	-4.175	-4.6188	-4.9042	-4.0687	-4.9437	187.811	287.578	294.447	35.833	190.056	35.285	290.424	265.964	42.758	86.470	258.630	307.765	283.117	50.531	322.732	190.190	0.00015452	0.0001255	0.00010882	1199	2.3494e-06	3.1045e-06	1311.5	239.59	2.5799e-06	4.0712e-06	304.43	84.507	65.978	19.225	3.3006e-06	26.787	0.0001306	0.00012338	3.4939e-05	1134.8	1.3954e-06	1.3631e-06	1245.1	228.31	1.4294e-06	1.4118e-06	288.05	80.932	62.981	18.662	1.4295e-06	25.95	91.298	62.488	26.703	-10.037	153.545	79.028	-10.062	-2.692	188.481	201.893	-2.578	3.981	4.161	12.067	68.127	10.711	-8191	255	
18946.160	1	1	0	0	0.25575	0.054627	0.16351	0.066572	0.24953	0.15344	0.081837	0.10022	0.16555	0.17969	0.085752	0.14831	0.24203	0.064398	0.17322	0.22197	-4.2104	-4.175	-5.0646	-4.1687	-4.4271	-4.8583	-4.1958	-4.9375	-4.3438	-4.1354	-4.9146	-4.2458	-4.4375	-4.8958	-3.9813	-4.8729	223.644	61.300	-10.962	284.656	101.216	145.936	314.315	304.258	198.851	238.686	40.753	166.700	-16.239	241.664	259.600	183.678	0.00013058	0.00016131	3.0886e-05	1202.1	2.4053e-06	2.8581e-06	1308.6	239.81	5.0968e-06	3.1185e-06	306.08	84.142	65.988	19.367	2.7117e-06	26.887	0.00013188	0.00013035	3.5824e-05	1136	1.432e-06	1.4125e-06	1245.8	228.44	1.4217e-06	1.4183e-06	288.52	80.694	63.125	18.705	1.4324e-06	25.962	78.935	132.412	47.064	-10.091	190.815	169.763	-9.957	-2.647	140.728	54.947	-2.952	3.742	4.115	11.140	117.302	10.485	-8191	255	
18946.258	1	1	0	0	0.16216	0.089024	0.10037	0.055819	0.18965	0.054476	0.19731	0.27199	0.077178	0.16907	0.15097	0.15115	0.12837	0.15503	0.054626	0.15292	-4.3938	-4.0333	-4.9146	-4.4187	-4.4208	-4.85	-4.1542	-4.7667	-4.5333	-4.1396	-4.9979	-4.3646	-4.3958	-5.0875	-3.8667	-4.7	298.952	338.271	288.123	299.398	300.743	56.713	233.339	268.351	101.230	-12.352	285.812	300.626	301.500	9.087	25.528	251.631	0.00018325	0.00036269	0.00016353	1200.3	4.3498e-06	1.3784e-06	1309.8	239.04	2.1495e-06	9.1043e-06	304.75	84.289	65.758	19.515	3.0336e-06	26.934	0.00013148	0.00012875	3.5373e-05	1135.9	1.4038e-06	1.411e-06	1244.2	228.33	1.3973e-06	1.3911e-06	288.38	80.652	62.876	18.74	1.3881e-06	25.974	116.276	80.738	50.146	-9.940	108.059	163.014	-10.043	-2.557	69.871	108.843	-2.720	3.755	4.073	11.784	160.953	10.904	-8191	255	
18946.354	1	1	0	0	0.074951	0.10198	0.13624	0.35038	0.14352	0.10848	0.077418	0.24485	0.03673	0.26931	0.16088	0.095969	0.11542	0.072151	0.083483	0.26901	-4.3271	-4.0146	-5.0021	-4.45	-4.1312	-5.1042	-4.1188	-4.6396	-4.8167	-4.0604	-5.1146	-4.5667	-4.2771	-5.0583	-4.075	-4.5563	6.404	190.573	272.008	42.607	199.493	42.139	-0.299	288.411	201.744	113.557	293.510	73.373	263.025	284.466	313.732	173.809	0.00034431	0.00039315	9.0693e-05	1198	3.06e-06	7.7056e-07	1307.5	239.02	4.4901e-06	3.1241e-06	305.53	83.764	65.745	19.169	9.5078e-07	27.033	0.00012897	0.00012512	3.4699e-05	1134.2	1.375e-06	1.3647e-06	1240.6	227.7	1.3271e-06	1.3362e-06	287.99	80.388	62.823	18.558	1.3418e-06	25.89	95.727	86.154	54.463	-9.790	135.256	331.995	-10.032	-2.521	130.636	130.411	-2.581	4.115	4.690	11.937	259.426	11.452	-8191	255	
18946.449	1	1	0	0	0.1887	0.20043	0.26287	0.26414	0.1776	0.0728	0.29858	0.070287	0.1075	0.15224	0.15873	0.10826	0.15925	0.22449	0.17671	0.16043	-4.5875	-4.0021	-4.7729	-4.7042	-4.1354	-5.0104	-4.2708	-4.4688	-4.8458	-4.0479	-4.7312	-4.6292	-4.0604	-5.0167	-4.2438	-4.3562	18.683	157.759	69.139	308.879	72.406	-15.677	292.523	298.520	-4.419	77.063	35.474	188.976	261.839	47.947	121.287	283.715	0.00022282	0.00039453	0.00015179	1195.7	2.1767e-06	1.9817e-06	1306.5	237.19	2.7111e-06	3.8237e-06	306.71	84.359	65.7	19.341	1.5708e-06	27.01	0.0001246	0.00012296	3.3986e-05	1130.9	1.3824e-06	1.3173e-06	1240.9	227.56	1.3776e-06	1.3514e-06	287.89	80.426	62.802	18.611	1.3335e-06	25.847	93.835	-7.737	23.317	-9.729	110.980	278.786	-9.851	-2.381	219.783	75.088	-2.894	4.035	4.298	11.835	236.101	11.049	-8191	255	
18946.545	1	1	0	0	0.51254	0.082332	0.093228	0.17496	0.16269	0.075723	0.075957	0.079597	0.26981	0.24968	0.1214	0.16238	0.071505	0.14726	0.29476	0.24166	-4.6417	-3.75	-4.8438	-4.7521	-4.1687	-5.0167	-4.3875	-4.3063	-4.9104	-4.1687	-4.6625	-4.7854	-3.8979	-5.0875	-4.3625	-4.2979	87.630	68.914	296.996	25.861	45.872	38.883	220.271	219.178	165.659	64.915	0.119	218.171	26.288	-17.656	305.581	17.165	0.0003343	0.00012978	0.00012568	1191.2	4.0126e-06	2.0553e-06	1294.4	238.59	2.1941e-06	3.1845e-06	302.89	83.715	65.818	19.265	1.8653e-06	26.88	0.00012288	0.00011797	3.3603e-05	1130.1	1.3453e-06	1.282e-06	1237.2	227.26	1.289e-06	1.2948e-06	286.21	80.396	62.771	18.628	1.276e-06	25.862	90.001	-5.090	67.825	-9.621	160.465	125.698	-9.630	-1.998	91.924	83.953	-2.795	4.328	4.583	12.024	149.485	10.997	-8191	255	
18946.641	1	1	0	0	0.042419	0.086659	0.10894	0.30991	0.13372	0.3125	0.21973	0.02438	0.12755	0.32779	0.098444	0.093724	0.022094	0.16619	0.2068	0.31476	-4.6125	-3.9854	-4.4354	-4.9479	-3.9667	-4.9271	-4.6229	-4.2312	-4.9667	-4.1625	-4.5583	-4.9854	-3.9875	-4.8812	-4.325	-4.1583	138.163	97.476	308.635	316.850	26.771	16.949	306.820	69.161	22.192	329.280	181.878	311.218	320.011	-4.890	162.257	329.811	0.00021983	0.00027937	1.9351e-05	1191.8	3.5989e-06	2.961e-06	1307.5	238.36	1.3285e-06	1.4725e-06	305.91	84.178	65.889	19.175	4.1247e-06	26.703	0.00012041	0.00011659	3.2494e-05	1128.4	1.2752e-06	1.2225e-06	1237.5	226.88	1.1801e-06	1.1974e-06	286.78	80.152	62.481	18.497	1.2061e-06	25.722	101.732	48.049	6.219	-9.321	172.672	114.043	-9.601	-2.221	191.452	83.917	-2.691	4.807	4.679	12.045	172.703	11.394	-8191	255	
18946.736	1	1	0	0	0.20544	0.086147	0.13878	0.14877	0.068171	0.042216	0.24728	0.17783	0.15934	0.043487	0.093236	0.086109	0.22368	0.1279	0.12721	0.26408	-4.7646	-4.2333	-4.4437	-5.0229	-3.9354	-4.8063	-4.7542	-4.0083	-5.0354	-4.2979	-4.4688	-5.1333	-3.9125	-4.6583	-4.7167	-4.1562	280.411	272.940	35.828	212.048	172.144	242.164	239.030	19.550	55.659	240.362	218.743	254.134	38.193	0.813	128.694	315.548	0.00019906	0.00034327	0.00010145	1186.2	1.2903e-06	1.1959e-06	1300.5	237.21	4.0765e-06	3.8847e-06	303.63	83.901	65.489	18.972	3.5765e-06	26.678	0.00011347	0.00010907	3.054e-05	1125.8	1.22e-06	1.1736e-06	1232.3	226.19	1.1924e-06	1.1872e-06	286.21	79.966	62.138	18.409	1.1576e-06	25.685	75.927	44.730	79.146	-9.512	226.513	100.774	-9.460	-2.285	132.271	85.457	-2.393	4.603	5.043	11.536	169.483	12.113	-8191	255	
18946.857	1	1	0	0	0.12724	0.087339	0.030771	0.074641	0.071753	0.15118	0.25001	0.31032	0.1706	0.21287	0.15067	0.12384	0.15386	0.22292	0.31963	0.15626	-4.575	-4.3396	-4.1167	-5.1875	-3.9333	-4.6167	-4.8187	-4.1146	-4.9042	-4.2542	-4.1708	-4.9917	-4.1021	-4.4042	-4.7188	-3.9583	192.402	186.760	106.395	144.015	46.749	259.958	250.842	293.129	127.013	141.362	-15.843	10.286	104.519	284.725	51.545	199.077	0.00029646	0.0002519	0.0001214	1182.3	1.3253e-06	1.8672e-06	1297.6	236.42	2.3839e-06	2.7109e-06	302.68	83.594	65.013	18.971	5.674e-07	26.622	0.00011048	0.00010973	3.0416e-05	1123.7	1.2396e-06	1.2068e-06	1232.5	226.21	1.2595e-06	1.261e-06	285.71	80.067	62.355	18.455	1.2192e-06	25.753	93.659	146.774	3.932	-9.213	124.628	116.955	-9.357	-1.891	128.657	48.795	-2.309	4.801	5.077	11.956	18.810	11.779	-8191	255	
18946.953	1	1	0	0	0.18091	0.16923	0.26363	0.21162	0.20913	0.37568	0.14856	0.056005	0.090232	0.15759	0.27048	0.064609	0.22235	0.20918	0.36532	0.072894	-4.7292	-4.4479	-3.9542	-5.1292	-4.0104	-4.5896	-4.9833	-3.9938	-4.8521	-4.525	-4.075	-5.1104	-4.1792	-4.4	-4.7083	-4.0917	298.375	119.081	49.559	270.770	334.893	36.637	231.822	281.404	239.912	176.978	304.404	238.502	22.335	-6.718	61.354	184.917	0.00013527	0.0003533	0.0001349	1188.4	1.4365e-06	2.2772e-06	1296.7	237.16	2.4107e-06	3.9217e-06	299.91	82.116	64.344	18.812	1.3285e-06	26.159	0.0001147	0.00010924	3.0363e-05	1124.5	1.1915e-06	1.1706e-06	1233	226.23	1.1815e-06	1.1507e-06	284.45	79.604	62.169	18.422	1.1661e-06	25.584	106.312	86.885	329.661	-9.359	131.120	139.048	-9.129	-1.944	111.947	123.944	-1.160	5.930	6.159	13.754	302.885	13.648	-8191	255	
18947.049	1	1	0	0	0.05557	0.085235	0.24788	0.24834	0.1119	0.12435	0.08132	0.037497	0.13336	0.15099	0.11015	0.12387	0.067869	0.18482	0.23358	0.16132	-4.3688	-4.6146	-4	-5.1521	-4.3958	-4.4021	-5.1708	-4.0583	-4.7833	-4.7292	-4.0208	-4.9792	-4.4667	-4.3083	-4.8562	-4.0646	286.334	207.837	-1.506	286.314	205.494	4.020	298.500	16.140	56.722	43.833	241.726	227.349	231.859	309.289	274.929	336.481	0.00021495	0.00037654	3.5864e-05	1160.8	3.324e-06	1.6441e-06	1277.7	233.56	2.8812e-06	1.428e-06	296.74	81.826	64.528	18.753	3.2688e-06	26.315	0.00011101	0.00010686	3.0105e-05	1119	1.201e-06	1.1457e-06	1231.2	225.43	1.1739e-06	1.1191e-06	284.04	79.638	62.283	18.359	1.1136e-06	25.542	98.892	13.767	129.271	-7.080	199.646	119.179	-6.885	0.566	90.595	7.461	-0.126	6.805	7.645	14.487	158.005	14.026	-8191	255	
18947.145	1	1	0	0	0.24155	0.10128	0.044499	0.2266	0.17801	0.086398	0.23336	0.082998	0.018732	0.088954	0.1387	0.12346	0.15915	0.22707	0.19993	0.057866	-4.3479	-4.6708	-3.9396	-5.0708	-4.4437	-4.2167	-5.1667	-4.025	-4.4125	-4.9354	-4.1958	-4.9375	-4.3938	-4.1937	-5.0521	-4.1146	95.488	41.000	56.319	-16.859	-1.752	210.651	323.734	124.049	205.835	-8.469	-15.765	172.156	47.434	2.689	-8.298	307.969	0.00026593	0.00018078	0.00010672	1164.7	3.8306e-06	5.1136e-06	1277.9	231.77	1.0885e-06	1.2151e-06	297.41	82.53	64.478	18.82	4.2554e-06	26.036	0.00010473	0.00010005	2.7286e-05	1120	1.1148e-06	1.0573e-06	1228.6	225.35	1.048e-06	1.0338e-06	284.29	79.69	62.017	18.371	1.0229e-06	25.528	85.448	24.862	7.126	-7.025	149.591	66.071	-7.047	0.752	261.211	163.364	0.162	7.108	6.856	14.517	109.653	13.756	-8191	255	
18947.240	1	1	0	0	0.14594	0.10732	0.032068	0.25519	0.36893	0.078161	0.25402	0.23777	0.37826	0.17427	0.21914	0.12856	0.14866	0.075543	0.02839	0.33459	-4.075	-4.7937	-4.1042	-4.8792	-4.4396	-4.0583	-5.2271	-4.3438	-4.3688	-4.9688	-4.2167	-4.9208	-4.6438	-4.0604	-4.975	-4.3688	14.597	57.069	242.020	293.098	26.900	12.581	276.456	297.147	63.807	255.982	229.293	234.099	279.767	298.899	177.023	290.012	0.00031981	0.00020006	0.00012095	1159.2	2.4017e-06	3.0284e-06	1274.2	231.22	4.8381e-06	4.7728e-06	298.56	81.745	64.718	18.807	1.2304e-06	26.006	9.9437e-05	9.5396e-05	2.6459e-05	1118.2	1.065e-06	1.0367e-06	1229.4	224.92	1.0451e-06	1.0132e-06	284.58	79.452	62.059	18.359	1.0004e-06	25.521	75.072	117.794	55.510	-7.132	128.093	111.820	-6.879	0.301	134.839	148.310	0.312	6.499	7.308	14.640	134.436	14.143	-8191	255	
18947.338	1	1	0	0	0.11232	0.039933	0.092914	0.30978	0.11118	0.14599	0.11091	0.086146	0.086702	0.087701	0.088684	0.15528	0.18099	0.15031	0.33927	0.15673	-3.8875	-4.9938	-3.9417	-4.9521	-4.6646	-4.0625	-5.2604	-4.3875	-4.25	-5.0792	-4.1813	-4.6188	-4.8396	-3.9542	-4.9854	-4.6083	172.495	251.451	337.621	251.217	-14.289	292.517	267.632	54.850	164.274	143.778	64.009	248.686	9.925	161.854	255.621	342.151	0.0001818	0.00020277	2.904e-05	1163.7	2.1031e-06	3.4443e-06	1273.6	232.14	4.4613e-06	1.1318e-06	297.62	81.94	64.146	18.825	1.2687e-06	26.127	9.5493e-05	9.2088e-05	2.6488e-05	1118.2	1.0473e-06	1.0223e-06	1229.5	224.44	1.0234e-06	1.0105e-06	284.12	79.531	61.935	18.33	1.0121e-06	25.515	99.252	332.783	237.776	-6.974	93.177	177.573	-6.776	0.356	104.053	96.502	-0.043	7.068	7.414	14.491	108.713	13.657	-8191	255	
18947.455	1	1	0	0	0.11249	0.18999	0.23176	0.20245	0.18264	0.10564	0.14538	0.14199	0.069527	0.22563	0.13218	0.31308	0.26566	0.19522	0.048086	0.20868	-3.8292	-5.0979	-4.2021	-4.5938	-4.7917	-3.9313	-5.0188	-4.6583	-4.1875	-5.0208	-4.2458	-4.45	-5.0333	-4.125	-4.75	-4.6771	220.785	135.241	113.369	318.460	306.426	280.606	258.399	334.350	82.315	101.886	172.006	241.867	167.768	44.915	209.695	102.860	0.00021785	0.00022118	3.0314e-05	1162.9	2.8823e-06	3.0161e-06	1275.8	231.29	3.7805e-06	3.2306e-06	296.89	82.552	64.278	18.778	8.0086e-07	26.187	9.7816e-05	8.934e-05	2.5931e-05	1119.6	1.007e-06	9.9217e-07	1228.2	224.74	1.0113e-06	9.9672e-07	284.16	79.482	62.067	18.373	9.8816e-07	25.465	122.660	106.821	105.460	-6.879	23.338	100.276	-6.876	0.331	153.687	207.995	0.068	6.946	7.361	14.593	234.542	13.686	-8191	255	
18947.553	1	1	0	0	0.17537	0.24094	0.34109	0.10964	0.074547	0.18396	0.12441	0.084328	0.07494	0.21522	0.21801	0.16357	0.15205	0.24819	0.074565	0.17607	-3.8646	-4.9417	-4.1625	-4.5146	-4.8063	-4.0542	-4.8979	-4.7167	-4.1604	-5.0938	-4.4375	-4.4042	-5.0333	-3.9583	-4.5896	-4.7771	286.915	19.759	247.409	-3.259	16.779	148.724	311.322	314.291	266.606	328.096	50.627	17.648	-6.515	321.315	39.243	27.050	0.00019661	0.00017967	4.9924e-05	1161.6	2.0933e-06	1.3897e-06	1267	232.27	8.3666e-07	7.0753e-07	296.58	82.432	64.247	18.83	2.6521e-06	26.33	9.8161e-05	9.2909e-05	2.6463e-05	1118.1	1.0546e-06	1.023e-06	1228.3	225.39	1.0818e-06	1.0517e-06	284.45	79.668	62.162	18.376	1.0745e-06	25.657	78.230	78.367	19.622	-6.963	34.281	104.940	-7.107	0.541	159.457	98.603	-0.085	6.734	7.435	14.261	288.190	13.514	-8191	255	
18947.648	1	1	0	0	0.077173	0.28141	0.16033	0.12726	0.16818	0.10026	0.30027	0.085501	0.10748	0.23777	0.15948	0.11124	0.14023	0.20538	0.066884	0.22212	-3.6583	-4.9042	-4.5146	-4.3354	-4.8875	-4.0229	-4.8812	-4.9313	-4.0333	-4.8354	-4.5042	-4.2063	-5.0792	-4.0417	-4.4812	-4.8958	109.867	294.956	37.243	316.664	129.280	25.606	261.760	84.838	200.506	209.996	145.072	254.681	22.341	-1.680	164.208	298.634	0.00027014	0.00012985	2.2213e-06	1162.6	1.2171e-06	1.1492e-06	1270.5	232.56	1.2329e-06	2.4952e-06	297.46	82.262	64.407	18.751	4.0027e-06	26.225	9.9627e-05	9.4485e-05	2.5812e-05	1120.8	1.0256e-06	9.9898e-07	1228.8	224.97	9.9211e-07	9.8577e-07	284.16	79.412	61.976	18.303	9.6101e-07	25.434	94.556	69.843	319.698	-7.077	103.545	218.448	-7.065	0.723	89.491	190.174	0.100	7.100	7.223	14.383	139.192	13.593	-8191	255	
18947.721	1	1	0	0	0.082293	0.067219	0.22933	0.20697	0.099119	0.11313	0.18572	0.18818	0.14185	0.1145	0.17209	0.20307	0.085198	0.20348	0.12807	0.016854	-3.7	-4.9229	-4.6	-4.2771	-5.1	-4.3063	-4.6771	-5.0292	-3.9938	-4.7542	-4.8333	-4.1396	-4.9229	-4.1333	-4.3083	-5.0646	41.679	114.988	312.175	213.178	321.465	137.546	193.322	340.494	288.174	146.261	116.286	293.817	103.101	301.513	324.286	-6.461	0.00019567	0.0003312	7.0332e-05	1164.6	2.728e-06	5.8583e-07	1277.7	232.08	1.3662e-06	2.3235e-06	295.05	81.588	63.637	18.738	4.3065e-06	26.27	9.2731e-05	8.7148e-05	2.4328e-05	1118.6	9.6712e-07	9.5873e-07	1230.5	224.31	9.8863e-07	9.5914e-07	282.89	79.12	61.733	18.325	1.0101e-06	25.578	84.061	18.706	63.865	-7.095	129.337	232.975	-7.178	0.300	72.119	102.847	0.175	6.884	7.460	14.227	164.583	13.252	-8191	255	
18947.842	1	1	0	0	0.10842	0.15066	0.22777	0.1988	0.23313	0.049494	0.095438	0.13955	0.18673	0.092448	0.018152	0.18505	0.056988	0.16785	0.067536	0.14867	-3.7687	-4.7417	-4.4958	-4.2229	-4.8938	-4.3604	-4.5333	-5.0229	-4.1062	-4.85	-4.8313	-4.1958	-5.0813	-4.4583	-4.0771	-5.0125	98.811	139.786	245.642	263.539	341.591	234.509	243.792	114.162	8.227	12.948	141.632	3.269	178.015	-16.957	250.591	308.331	0.00022858	0.00037019	1.0108e-05	1159.2	1.0041e-06	3.8899e-06	1274.5	231.74	4.7211e-06	2.264e-06	298.14	81.881	64.743	18.866	3.9364e-06	26.177	9.8917e-05	9.2248e-05	2.6447e-05	1116.6	1.0312e-06	1.0393e-06	1229.7	224.82	1.0708e-06	1.0315e-06	284.38	79.492	62.028	18.329	1.0627e-06	25.599	86.525	12.017	126.549	-7.140	96.863	138.137	-6.906	0.431	139.624	175.341	0.247	6.806	7.565	14.137	128.691	13.888	-8191	255	
18947.938	1	1	0	0	0.17338	0.1522	0.2443	0.14294	0.14969	0.037512	0.16533	0.098954	0.048306	0.053434	0.10969	0.27034	0.17589	0.18231	0.096155	0.20127	-3.6729	-4.6417	-4.7146	-4.3167	-4.8729	-4.5375	-4.2708	-5.075	-4.1875	-4.5271	-4.8875	-3.9229	-4.9229	-4.5687	-4.2083	-4.9854	96.734	263.650	261.781	209.815	260.363	35.368	278.178	260.517	159.636	103.524	46.770	244.521	240.880	-11.688	11.953	25.679	0.00024003	0.00015066	7.4351e-05	1162.3	3.6854e-06	3.3382e-06	1272.2	233.4	1.241e-06	2.0227e-06	296.89	82.214	64.593	18.813	3.5759e-06	26.378	9.9221e-05	9.4667e-05	2.702e-05	1119.1	1.0704e-06	1.0667e-06	1228.6	225.05	1.0791e-06	1.0707e-06	284.25	79.617	62.006	18.381	1.0636e-06	25.596	110.610	96.484	58.445	-6.914	124.846	29.696	-7.063	0.466	223.955	117.288	-0.172	6.683	7.282	14.605	117.684	14.123	-8191	255	
18948.033	1	1	0	0	0.11319	0.086	0.2309	0.30633	0.1852	0.19585	0.15466	0.26606	0.14046	0.12893	0.19128	0.27424	0.29941	0.06315	0.19556	0.11614	-3.7583	-4.4542	-4.9458	-4.2312	-4.8	-4.6667	-4.2708	-5.1479	-4.2542	-4.5229	-5.0062	-4.0896	-4.8042	-4.8042	-3.9938	-5.0312	304.392	134.687	27.442	316.416	274.336	235.833	307.571	288.192	49.750	306.643	228.631	314.820	271.358	31.890	231.042	-10.201	0.00020909	7.2977e-05	0.00017359	1166.5	5.945e-06	2.3814e-06	1274.6	232.32	4.2851e-06	5.9423e-06	297.91	81.836	64.563	18.822	2.1182e-06	26.272	0.00010209	9.87e-05	2.7213e-05	1119.9	1.0973e-06	1.0671e-06	1230.1	225.13	1.0916e-06	1.0556e-06	284.1	79.546	62.007	18.397	1.0648e-06	25.59	100.242	38.879	-1.625	-6.907	119.395	77.712	-7.235	0.043	158.781	71.043	-0.057	6.874	6.852	14.542	81.331	13.805	-8191	255	
18948.129	1	1	0	0	0.2853	0.21941	0.19752	0.11142	0.15582	0.11578	0.016223	0.22798	0.16283	0.20542	0.1082	0.23115	0.16722	0.051201	0.18723	0.1293	-4.0667	-4.2229	-4.9917	-4.1042	-4.6667	-4.7688	-4.1771	-4.9729	-4.2792	-4.1042	-5.0646	-4.2771	-4.5458	-4.8688	-3.9875	-5.0083	78.629	119.535	135.047	321.561	27.088	79.301	160.201	290.277	72.535	142.033	327.575	2.482	174.160	332.400	233.369	276.571	0.00019837	0.00034457	0.00010996	1167.1	1.18e-06	1.6818e-06	1274.3	232.53	3.978e-06	3.7312e-07	295.26	81.551	64.582	18.763	2.4022e-06	26.418	0.00010112	9.9839e-05	2.653e-05	1120	1.0926e-06	1.0549e-06	1229.9	225.04	1.0882e-06	1.067e-06	284.34	79.36	62.126	18.408	1.0772e-06	25.616	96.152	33.650	24.263	-7.294	96.136	60.540	-6.853	0.394	108.419	140.160	0.095	7.093	7.298	14.510	68.477	13.605	-8191	255	
18948.248	1	1	0	0	0.15091	0.14491	0.14234	0.066476	0.088769	0.054789	0.025429	0.16879	0.037248	0.27375	0.15226	0.23141	0.090948	0.098933	0.14326	0.064259	-4.2063	-4.1458	-4.9729	-4.3438	-4.5312	-4.8521	-4.325	-4.9604	-4.55	-4.1438	-5.1312	-4.2271	-4.3562	-4.9688	-4.0917	-4.9958	124.044	252.324	122.282	143.234	271.447	275.712	23.592	282.691	8.552	34.278	308.225	300.884	328.380	310.143	49.020	28.262	0.00030829	9.6715e-05	6.0966e-05	1161.9	2.6013e-06	3.7789e-06	1276.2	233.78	1.9891e-06	3.8175e-06	297.55	82.369	64.08	18.799	3.0798e-06	26.476	0.00010368	9.9434e-05	2.788e-05	1119.5	1.1154e-06	1.0843e-06	1229.2	225.55	1.1006e-06	1.0967e-06	284.3	79.749	62.053	18.418	1.1188e-06	25.628	98.634	243.687	34.148	-7.193	109.743	98.828	-7.132	0.174	155.474	91.447	0.049	6.761	7.259	14.030	86.110	13.889	-8191	255	
18948.322	1	1	0	0	0.21241	0.37979	0.13429	0.16556	0.068398	0.12365	0.31269	0.33461	0.056146	0.085871	0.10477	0.15814	0.097148	0.041936	0.13268	0.10825	-4.3562	-4.2875	-4.9771	-4.3562	-4.2188	-4.9854	-4.1562	-4.9208	-4.6771	-4.1292	-4.9958	-4.5646	-4.2479	-5.0542	-3.9854	-4.6729	6.582	300.513	155.874	127.699	243.584	102.642	309.676	287.883	70.386	229.295	229.109	36.442	282.663	65.306	327.534	207.293	0.00016518	0.00027385	9.6401e-05	1168.3	2.5463e-06	8.5121e-07	1273.6	231.11	8.21e-07	3.9672e-06	296.29	81.97	64.686	18.977	3.339e-06	26.232	0.00010551	0.00010189	2.7674e-05	1121.1	1.1196e-06	1.0806e-06	1228	225.1	1.1127e-06	1.0987e-06	283.85	79.507	62.158	18.432	1.1291e-06	25.601	84.113	39.539	55.098	-7.022	152.043	11.009	-7.139	-0.016	145.851	133.945	-0.116	7.039	7.411	14.158	113.446	14.233	-8191	255	
18948.418	1	1	0	0	0.33445	0.066167	0.12496	0.21662	0.080655	0.029667	0.22719	0.089052	0.17656	0.11383	0.073604	0.15287	0.15614	0.069968	0.05185	0.23145	-4.5229	-4.0896	-5.0625	-4.5625	-4.1021	-5.0708	-4.1083	-4.7125	-4.8875	-3.9521	-4.9146	-4.5062	-4.2583	-5.0896	-4.1104	-4.4354	19.918	303.742	157.316	261.046	34.776	114.762	304.127	293.271	20.467	324.991	298.920	282.239	135.066	269.860	214.896	289.937	0.00018446	0.0002177	4.5367e-05	1165.9	7.3408e-07	3.1787e-06	1278.7	231.58	3.6391e-06	4.5331e-06	297.03	82.248	63.927	18.845	1.5898e-06	26.359	0.00010597	0.00010154	2.8131e-05	1119.3	1.137e-06	1.0834e-06	1229.8	225	1.1116e-06	1.1058e-06	284.32	79.795	62.09	18.447	1.1321e-06	25.636	95.947	185.010	304.037	-7.258	158.673	117.900	-6.966	0.098	229.437	101.925	0.336	6.939	6.920	14.827	205.383	13.991	-8191	255	
18948.537	1	1	0	0	0.13859	0.16066	0.12272	0.09291	0.038129	0.23509	0.026845	0.16262	0.028343	0.19656	0.080952	0.14316	0.11812	0.050376	0.23068	0.182	-4.6229	-3.8958	-4.825	-4.7271	-4.1396	-5.0938	-4.3812	-4.5146	-4.9604	-4.0792	-4.8438	-4.7042	-4.1479	-5.0417	-4.2562	-4.3063	155.183	154.609	105.474	221.263	333.165	139.543	7.555	232.982	110.335	7.930	222.892	132.616	173.032	221.985	84.077	335.538	0.00024458	0.0001035	5.8888e-05	1163.6	1.9862e-06	1.9629e-06	1273.7	232.6	3.0153e-06	2.7714e-06	298.77	81.986	64.504	18.821	3.1486e-06	26.255	0.00010657	0.00010315	2.772e-05	1121.2	1.151e-06	1.125e-06	1229.5	225.11	1.1205e-06	1.1066e-06	284.86	79.625	61.968	18.383	1.1064e-06	25.593	82.230	19.304	16.396	-6.981	126.312	129.196	-7.028	0.165	138.156	177.007	-0.227	7.035	7.595	14.595	137.720	13.892	-8191	255	
18948.633	1	1	0	0	0.14271	0.085453	0.32466	0.23611	0.17318	0.056571	0.27148	0.044646	0.032135	0.068581	0.16163	0.074106	0.091471	0.21959	0.088453	0.029889	-4.65	-3.9604	-4.7542	-4.8	-4.2104	-5.1333	-4.5396	-4.4167	-5.0479	-3.9833	-4.7229	-4.7625	-3.9979	-5	-4.3042	-4.2646	40.973	209.324	152.057	19.702	316.873	274.391	286.699	-15.383	-8.614	254.022	317.429	222.254	331.823	27.481	90.222	244.887	0.00020464	0.00015415	0.00011059	1164.6	1.9978e-06	2.3984e-06	1282.2	232.83	2.8661e-06	3.0405e-06	298.59	82.468	64.577	18.765	6.0419e-06	26.317	0.00010298	0.0001004	2.7762e-05	1121.5	1.1191e-06	1.0877e-06	1232.3	225	1.0789e-06	1.1003e-06	284.58	79.675	62.135	18.385	1.0977e-06	25.618	100.834	75.896	8.216	-6.887	157.410	113.699	-6.876	0.359	143.224	136.693	-0.069	7.029	6.913	14.367	122.166	13.787	-8191	255	
18948.729	1	1	0	0	0.11521	0.10627	0.05746	0.25244	0.087238	0.12699	0.23834	0.22972	0.1265	0.30587	0.08379	0.09636	0.075553	0.13493	0.11454	0.11842	-4.6625	-4.15	-4.6646	-4.9771	-4.0062	-4.825	-4.5833	-4.3063	-5.1208	-4.275	-4.5646	-4.8083	-3.9896	-4.9625	-4.7146	-4.0896	16.255	76.114	195.079	311.304	254.000	218.820	22.007	281.193	39.567	314.805	342.066	300.213	293.282	-5.890	35.007	183.168	0.0001775	0.00016622	4.6374e-05	1166.4	2.4063e-06	7.3251e-07	1275.4	231.56	8.3759e-07	2.4816e-06	297.54	81.772	63.651	18.824	8.6154e-07	26.602	0.00010522	0.0001019	2.7313e-05	1121.8	1.108e-06	1.0998e-06	1231.1	225.31	1.0999e-06	1.0755e-06	284.34	79.659	61.81	18.424	1.0639e-06	25.627	72.931	297.806	179.863	-6.933	137.089	333.861	-6.747	0.675	193.244	62.769	-0.016	7.008	6.853	14.616	146.953	14.064	-8191	255	
18948.850	1	1	0	0	0.073315	0.04179	0.12596	0.1544	0.055646	0.078049	0.11578	0.31122	0.198	0.33526	0.25136	0.096098	0.31799	0.12051	0.04028	0.055756	-4.8042	-4.1896	-4.4542	-5.1687	-3.9958	-4.8375	-4.9125	-4.2125	-4.9833	-4.2438	-4.3979	-5.1083	-4.0167	-4.6729	-4.6062	-4.2604	253.063	293.705	264.763	235.791	86.571	203.919	301.125	302.460	75.743	271.669	302.822	305.883	52.148	136.387	184.544	92.711	0.00017542	0.00024469	0.00010046	1166	2.3598e-06	4.2912e-06	1278.6	233.1	1.1491e-06	2.0207e-06	297.81	81.877	64.606	18.75	2.9837e-06	26.389	0.00010285	9.8468e-05	2.7434e-05	1122.2	1.1034e-06	1.0436e-06	1232	225.23	1.0861e-06	1.0464e-06	284.33	79.53	62.113	18.367	1.0288e-06	25.636	129.797	66.787	17.937	-6.831	42.685	76.191	-7.099	0.411	159.469	136.332	-0.170	6.870	7.461	13.910	103.098	13.936	-8191	255	
18948.945	1	1	0	0	0.061743	0.060882	0.12602	0.052068	0.19579	0.31616	0.36549	0.086528	0.12827	0.16079	0.26861	0.18777	0.10969	0.18872	0.13974	0.13732	-4.5354	-4.3688	-4.2438	-5.1396	-4.1042	-4.6	-4.9229	-4.0208	-5.0188	-4.4271	-4.2396	-5.0542	-4.1062	-4.7333	-4.8396	-4.0625	25.515	142.822	173.913	294.421	246.162	50.002	306.476	303.361	133.124	89.703	330.946	-4.816	-1.625	279.008	195.245	292.033	0.00021797	0.00033981	0.00010088	1166.5	3.8795e-06	1.5761e-06	1274.9	231.57	1.4268e-06	1.633e-06	297.81	82.325	64.096	18.937	2.8758e-06	26.464	9.706e-05	9.3508e-05	2.623e-05	1122.4	1.0552e-06	1.045e-06	1231.6	224.78	1.0524e-06	1.0367e-06	284.53	79.704	62.043	18.4	1.0315e-06	25.616	101.001	99.635	9.168	-7.017	104.260	152.874	-6.819	0.098	180.607	103.935	-0.118	6.891	7.170	14.814	65.966	13.534	-8191	255	
18949.018	1	1	0	0	0.068154	0.075875	0.14901	0.37875	0.20414	0.15922	0.32347	0.22689	0.16186	0.16494	0.14212	0.13381	0.044826	0.12222	0.20005	0.3285	-4.7021	-4.5792	-4.1979	-5.1917	-4.0312	-4.4396	-5.0229	-4.0292	-4.8042	-4.6083	-4.3125	-5.1396	-4.1438	-4.4146	-5.0146	-4.1188	112.062	320.266	169.671	340.778	219.276	215.065	286.275	186.129	9.716	196.204	340.129	295.256	45.845	250.635	5.214	214.228	0.00020022	0.00015833	1.8109e-05	1167.1	9.3462e-07	2.1312e-06	1275.3	232.14	3.8553e-06	1.2251e-06	297.49	81.965	64.19	18.86	4.6987e-06	26.361	9.7177e-05	9.401e-05	2.6785e-05	1122.3	1.0638e-06	1.0411e-06	1231.5	224.72	1.0433e-06	1.0239e-06	284.36	79.621	62.094	18.374	1.0296e-06	25.605	99.134	51.143	170.246	-6.939	127.015	85.495	-6.876	0.370	166.009	94.043	0.388	6.726	7.501	14.265	158.730	13.420	-8191	255	
18949.139	1	1	0	0	0.2254	0.18178	0.084153	0.16378	0.17858	0.078586	0.14416	0.034668	0.12838	0.17224	0.18425	0.067313	0.17417	0.17668	0.15941	0.29609	-4.5271	-4.6125	-4.2271	-5.1271	-4.2375	-4.2417	-5.1125	-4.1542	-4.7229	-4.8333	-4.2729	-5.0583	-4.4187	-4.3	-5.0396	-4.1062	-10.848	69.481	245.446	298.455	327.480	234.255	262.274	101.078	4.416	112.420	13.881	199.493	246.061	18.498	158.884	284.934	0.00025179	0.00038197	0.00013117	1160.4	5.7453e-07	4.9478e-06	1279.3	231.91	2.1446e-06	1.2755e-06	297.59	81.996	64.038	18.925	4.0305e-06	26.195	9.8359e-05	9.431e-05	2.6189e-05	1120.5	1.0692e-06	1.0297e-06	1231.4	225.22	1.0502e-06	1.0304e-06	284.33	79.83	61.951	18.448	1.0452e-06	25.578	93.573	12.721	38.740	-7.116	134.754	100.814	-6.783	0.166	144.030	116.630	0.058	7.109	7.182	14.024	73.643	13.481	-8191	255	
18949.234	1	1	0	0	0.041152	0.11712	0.0586	0.095948	0.19485	0.055667	0.19597	0.12355	0.17356	0.014665	0.25223	0.23044	0.22818	0.2413	0.25516	0.11729	-4.5229	-4.6312	-3.9208	-5.1875	-4.4375	-4.1771	-5.2792	-4.025	-4.7104	-4.7667	-4.0188	-5.0292	-4.6917	-4.2083	-4.8604	-4.3667	288.215	273.542	96.299	341.511	4.562	106.564	312.249	315.167	271.421	190.513	213.050	276.418	-12.592	78.943	336.583	202.740	0.00016222	0.00051246	0.00015464	1166.6	1.3804e-06	2.5548e-06	1276.9	232.74	2.971e-06	5.7245e-07	296.59	82.263	64.271	18.845	1.754e-06	26.4	9.9504e-05	9.5083e-05	2.7262e-05	1121.6	1.0753e-06	1.0555e-06	1232.7	225.34	1.0646e-06	1.037e-06	284.5	79.89	62.104	18.389	1.0355e-06	25.624	81.684	25.356	6.364	-7.201	131.866	121.835	-6.917	0.268	125.752	338.435	0.196	7.018	7.602	14.135	132.809	13.858	-8191	255	
18949.328	1	1	0	0	0.13194	0.089541	0.12635	0.21233	0.21226	0.16	0.4402	0.024276	0.0684	0.19798	0.10544	0.068826	0.19693	0.06656	0.20456	0.16442	-4.2	-4.9313	-4.0375	-4.9187	-4.5417	-4.1396	-5.2646	-4.3792	-4.4333	-4.9375	-4.3917	-4.9167	-4.8562	-4.1708	-5.0167	-4.375	260.661	297.106	69.602	289.495	52.863	18.569	262.656	115.432	279.348	241.308	79.894	87.088	174.012	193.282	302.268	131.224	0.00024016	0.00030817	8.3542e-05	1169.2	4.041e-06	1.3094e-06	1272.5	232.31	2.5321e-06	3.2348e-06	296.05	82.758	64.384	18.861	2.4494e-06	26.252	0.0001009	9.6196e-05	2.6611e-05	1123.9	1.0902e-06	1.0461e-06	1231.4	225.19	1.0862e-06	1.0307e-06	284.22	79.874	62.084	18.393	1.0932e-06	25.585	85.034	70.185	57.504	-6.976	119.701	108.309	-6.817	0.262	268.782	155.332	0.011	6.973	7.229	14.056	49.748	13.675	-8191	255	
18949.426	1	1	0	0	0.21186	0.11053	0.043253	0.16174	0.1336	0.32174	0.13422	0.17215	0.14519	0.079767	0.10442	0.20871	0.19875	0.11296	0.10273	0.16378	-4.1042	-5	-4.1583	-5.0708	-4.8792	-3.9896	-5.1229	-4.5354	-4.3083	-5.0771	-4.3604	-4.6833	-4.8604	-4.0083	-4.9667	-4.5792	76.222	131.171	183.730	269.475	25.949	300.309	7.149	277.621	219.263	19.257	301.841	16.340	299.310	23.832	181.531	59.538	0.00023354	3.5779e-05	0.00015541	1169.5	1.5168e-06	2.5695e-06	1284.9	232.87	2.516e-06	5.3056e-06	298.3	82.152	64.65	18.795	1.6781e-06	26.362	0.00010285	9.719e-05	2.8046e-05	1124.1	1.1018e-06	1.0827e-06	1235.2	225.55	1.137e-06	1.0909e-06	284.96	79.678	62.106	18.418	1.1174e-06	25.671	71.525	295.059	66.506	-7.082	224.100	131.518	-6.983	0.211	175.417	143.640	-0.230	6.927	7.051	14.198	293.267	13.321	-8191	255	
18949.523	1	1	0	0	0.11198	0.044828	0.065536	0.32961	0.14282	0.13639	0.030902	0.090736	0.19739	0.17257	0.19909	0.12406	0.15049	0.1126	0.45249	0.087703	-3.9271	-5.0563	-4.0625	-4.6396	-4.9313	-4.2063	-5.1792	-4.675	-4.2042	-5.1021	-4.2458	-4.6375	-4.9708	-4.0583	-4.7833	-4.6729	20.908	276.180	114.829	-15.179	315.529	284.734	299.076	148.982	132.750	213.107	98.802	227.499	176.723	-1.232	63.590	159.984	0.00017542	0.00044872	5.0796e-05	1170.6	4.0012e-06	3.304e-06	1279.3	233.06	3.4436e-06	5.1399e-06	297.3	82.077	64.501	18.865	1.8776e-06	26.39	0.00010518	0.00010168	2.8807e-05	1124	1.1444e-06	1.1355e-06	1233.1	225.58	1.1336e-06	1.1281e-06	285.12	79.718	62.309	18.505	1.1303e-06	25.656	101.699	53.219	261.370	-7.019	95.815	140.565	-6.831	0.331	180.205	138.605	0.273	7.045	7.300	14.552	-16.669	13.667	-8191	255	
18949.617	1	1	0	0	0.11445	0.1508	0.14917	0.2117	0.16885	0.0862	0.22123	0.14772	0.15407	0.095025	0.065263	0.38219	0.13836	0.095444	0.15163	0.27063	-3.9125	-4.9333	-4.1271	-4.4333	-4.9479	-4.15	-4.9313	-4.7458	-4.0104	-4.8854	-4.4917	-4.5375	-5.1062	-4.1729	-4.6583	-4.7917	316.371	-2.943	-3.856	303.335	-14.932	267.954	295.545	41.975	46.931	68.572	-9.902	273.890	228.211	195.622	101.508	39.920	0.00020874	0.00032099	0.00015237	1168.4	3.1934e-06	1.7624e-06	1281	233.24	8.8782e-07	2.4484e-06	298.4	82.056	64.514	18.814	3.8267e-06	26.385	0.00010794	0.00010292	2.8291e-05	1123.9	1.1303e-06	1.1289e-06	1236.2	225.97	1.1278e-06	1.0938e-06	284.75	79.671	62.23	18.463	1.1027e-06	25.645	104.977	22.105	59.799	-6.984	123.092	135.854	-6.977	0.179	201.501	56.217	0.055	6.852	7.020	14.522	146.385	13.704	-8191	255	
18949.713	1	1	0	0	0.27242	0.17756	0.45591	0.13368	0.11306	0.10863	0.27874	0.094689	0.099346	0.10751	0.052282	0.12597	0.15407	0.15362	0.093232	0.15637	-3.8312	-4.9854	-4.3125	-4.475	-4.9771	-4.0667	-4.7125	-4.975	-4.1958	-4.8896	-4.6292	-4.3708	-5.1188	-4.2875	-4.6458	-4.9354	22.767	110.004	169.351	263.786	311.308	-3.799	232.271	35.572	161.186	283.593	220.122	169.829	10.740	14.929	279.674	223.493	0.00020681	0.00035366	0.00016153	1165.3	3.6338e-06	4.1651e-06	1278.9	232.67	2.4378e-07	3.7236e-06	298.34	81.568	64.293	18.987	2.9042e-06	26.027	0.00010432	0.00010088	2.8202e-05	1123.4	1.1098e-06	1.1123e-06	1233.1	225.56	1.1415e-06	1.0806e-06	285.39	79.635	62.032	18.448	1.1048e-06	25.607	83.578	24.043	58.151	-6.903	83.744	72.050	-6.983	0.254	86.895	195.960	0.169	6.547	7.126	14.320	137.894	13.316	-8191	255	
18949.809	1	1	0	0	0.1005	0.049189	0.066292	0.037312	0.25548	0.080732	0.14794	0.09433	0.19429	0.007056	0.25173	0.13052	0.088189	0.069966	0.16857	0.054865	-3.95	-4.9521	-4.5125	-4.4437	-5	-4.2188	-4.7104	-5.1167	-4.1354	-5	-4.75	-4.1792	-5.0917	-4.3729	-4.3167	-5.0979	114.543	41.451	19.704	245.524	124.860	337.340	242.196	330.083	340.918	6.429	277.509	33.076	271.229	336.132	50.733	284.398	0.00020405	0.00049653	0.00010727	1166.7	1.5496e-06	4.4671e-06	1281.3	233.44	2.2116e-06	1.1747e-06	298.26	82.216	64.978	18.75	5.0357e-06	26.549	0.00010433	9.872e-05	2.7954e-05	1122.6	1.1029e-06	1.0904e-06	1232.4	225.72	1.1118e-06	1.0844e-06	284.9	79.706	62.366	18.36	1.1088e-06	25.627	106.394	58.512	60.395	-7.230	151.837	135.563	-6.931	0.762	191.476	31.783	-0.021	6.914	7.225	14.347	94.925	14.032	-8191	255	
18949.930	1	1	0	0	0.25569	0.054725	0.16454	0.25134	0.14776	0.25124	0.091978	0.050894	0.30482	0.050707	0.20358	0.15891	0.045315	0.097041	0.23339	0.14099	-3.8542	-4.7625	-4.6562	-4.2438	-4.8958	-4.2937	-4.6104	-5.1062	-4.0354	-4.5938	-4.8417	-4.0167	-4.925	-4.5333	-4.3271	-5.0583	198.832	230.326	283.028	296.488	330.953	45.617	77.094	328.967	288.166	237.025	284.095	297.516	6.416	124.348	278.072	264.010	0.00024003	0.00020582	7.6705e-05	1165.4	3.9417e-06	3.0573e-06	1280.4	233.3	2.6914e-06	3.3742e-06	299.29	83.01	64.652	18.956	4.8543e-06	26.399	0.00010623	9.9891e-05	2.784e-05	1123.6	1.1307e-06	1.1365e-06	1232.7	225.59	1.1257e-06	1.0773e-06	285.19	79.731	62.208	18.452	1.0862e-06	25.63	84.693	60.407	57.164	-7.442	109.947	115.392	-7.111	0.331	42.865	89.286	-1.133	5.538	6.150	13.301	132.249	12.670	-8191	255	
18950.025	1	1	0	0	0.14726	0.1652	0.063041	0.096412	0.096231	0.24726	0.27118	0.086959	0.24232	0.12368	0.21757	0.2417	0.031707	0.021289	0.19539	0.10644	-3.7833	-4.6646	-4.8187	-4.2229	-4.9125	-4.4396	-4.4396	-5.1354	-4.2312	-4.6625	-5.0021	-4.1833	-4.8604	-4.4292	-4.1188	-5.1208	290.132	49.226	32.841	181.618	229.490	-14.718	325.149	183.616	188.514	256.235	38.402	274.564	124.145	1.780	236.181	136.279	0.00018468	0.00024503	6.0117e-05	1177.4	2.6269e-06	4.2427e-06	1287.9	234.08	2.7658e-06	3.7675e-06	301.41	82.845	64.533	18.847	1.3304e-06	26.516	0.00010242	9.9797e-05	2.7666e-05	1124.7	1.0935e-06	1.0902e-06	1233.4	225.68	1.1078e-06	1.0832e-06	285.44	79.732	62.117	18.378	1.0821e-06	25.734	101.092	30.318	69.544	-8.229	103.511	60.128	-8.201	-0.725	73.676	92.826	-0.886	5.350	6.157	12.899	160.664	12.984	-8191	255	
18950.121	1	1	0	0	0.042369	0.084324	0.11053	0.27696	0.10919	0.15422	0.34756	0.096171	0.11467	0.14334	0.098386	0.20875	0.0026028	0.028874	0.18523	0.049789	-3.8417	-4.4771	-5.0479	-4.2063	-4.7521	-4.7083	-4.1979	-5.1875	-4.2854	-4.3208	-5.0167	-3.9667	-4.7396	-4.7438	-4.1271	-4.9104	-4.684	95.729	107.611	267.504	260.698	17.544	287.455	287.719	44.780	330.347	206.857	314.742	264.430	42.906	143.416	158.320	0.00024138	8.1746e-05	3.8384e-05	1178.2	2.6485e-06	2.151e-06	1291.7	234	5.8012e-07	2.3534e-06	300.24	82.158	64.57	18.787	4.7883e-06	26.214	0.000103	9.6373e-05	2.7304e-05	1124.2	1.1079e-06	1.0666e-06	1234.1	225.65	1.0953e-06	1.0749e-06	285.51	79.63	62.136	18.376	1.0904e-06	25.587	82.576	116.531	3.678	-8.184	214.743	92.460	-8.030	-0.914	95.707	29.230	-0.948	5.648	6.160	14.228	166.363	13.428	-8191	255	
18950.219	1	1	0	0	0.052633	0.029864	0.2193	0.21316	0.072958	0.1636	0.26453	0.14463	0.18309	0.27173	0.23277	0.11307	0.12635	0.20515	0.13683	0.15727	-4.0646	-4.425	-4.8771	-4.2542	-4.7833	-4.7896	-4.1771	-5.1521	-4.4771	-4.2958	-5.1937	-4.1104	-4.6771	-4.875	-4.0604	-4.9896	135.750	229.288	108.172	315.429	39.534	314.886	228.596	336.837	34.034	212.321	294.919	50.312	13.826	255.109	312.454	188.769	0.00025854	0.00049935	0.00011435	1169.1	2.6034e-06	2.1788e-06	1277.2	232.94	1.4164e-06	2.661e-06	297.79	82.082	64.848	18.735	3.4679e-06	26.015	0.00010289	9.847e-05	2.6915e-05	1122.6	1.1275e-06	1.0735e-06	1232.4	225.69	1.094e-06	1.0743e-06	284.6	79.527	62.119	18.395	1.083e-06	25.572	117.976	26.532	31.868	-7.315	305.838	100.934	-7.074	0.379	80.559	105.314	0.019	6.733	6.974	14.861	138.247	13.587	-8191	255	
18950.314	1	1	0	0	0.020398	0.10815	0.075199	0.29897	0.031984	0.09433	0.024952	0.26099	0.18768	0.01115	0.24342	0.10385	0.18305	0.10938	0.24111	0.09831	-4.2104	-4.2458	-5.0667	-4.4667	-4.6792	-4.9542	-4.1479	-4.9875	-4.5208	-4.2146	-4.9833	-4.3583	-4.4333	-5.1146	-3.9146	-4.6896	312.863	20.100	233.736	336.076	206.324	0.303	300.065	290.260	292.115	143.888	311.303	290.263	30.267	327.143	17.664	297.598	0.00017913	0.00027875	6.6681e-05	1168.8	6.0829e-07	2.2597e-06	1277.5	232.84	3.0256e-06	3.3103e-06	298.18	82.119	64.001	18.692	1.4738e-06	26.422	0.00010461	0.0001002	2.7306e-05	1125.1	1.095e-06	1.079e-06	1231.9	225.55	1.1161e-06	1.1021e-06	285.35	79.81	62.244	18.38	1.1213e-06	25.654	90.417	1.601	29.780	-7.431	146.382	95.911	-7.199	0.156	78.093	102.645	0.066	6.598	6.802	14.335	119.117	13.381	-8191	255	
18950.410	1	1	0	0	0.40386	0.097495	0.16633	0.26955	0.22699	0.16174	0.27647	0.15178	0.0042541	0.080389	0.13505	0.20165	0.24022	0.16058	0.076548	0.34998	-4.2688	-4.0813	-5.0437	-4.3833	-4.4458	-4.9812	-4.1354	-4.7604	-4.5813	-4.0146	-5.0458	-4.3771	-4.3854	-4.975	-4.0792	-4.7646	260.015	218.921	-1.460	315.313	23.292	148.717	265.535	236.859	281.303	72.396	334.532	303.657	23.689	171.875	201.787	243.308	0.00014825	0.0001359	5.4802e-05	1166.1	2.9717e-06	4.4982e-06	1280.7	233.55	2.9509e-06	2.8314e-06	299.52	82.628	64.659	18.869	3.2558e-06	26.417	0.00010512	0.00010378	2.7661e-05	1122.6	1.1146e-06	1.1034e-06	1234.2	225.52	1.1108e-06	1.0875e-06	285.05	79.664	62.416	18.412	1.1254e-06	25.648	89.903	334.171	123.340	-7.210	172.884	87.393	-7.035	0.158	150.914	103.323	-0.326	7.221	6.772	14.020	63.163	12.996	-8191	255	
18950.529	1	1	0	0	0.18561	0.35282	0.23039	0.11203	0.014677	0.1883	0.25226	0.14081	0.12915	0.12458	0.11142	0.12117	0.20929	0.071773	0.046912	0.093642	-4.3854	-4.0708	-5.1021	-4.4771	-4.1062	-5.1083	-4.1396	-4.6375	-4.7521	-4.0813	-5.0437	-4.3938	-4.3562	-5.1458	-4.2479	-4.4688	220.787	187.919	6.411	30.921	171.130	338.663	331.497	284.737	277.288	221.879	326.893	286.032	161.983	73.650	317.188	217.088	0.00020596	0.00035744	0.00012716	1167.9	5.4805e-06	1.6164e-06	1279.5	232.35	9.4939e-07	1.0309e-06	300.01	82.084	64.438	18.936	2.6674e-06	26.177	0.00010411	0.00010019	2.7725e-05	1123.6	1.1312e-06	1.0758e-06	1233.9	225.76	1.1187e-06	1.1102e-06	285.16	79.786	62.303	18.441	1.0944e-06	25.638	96.213	41.849	7.979	-7.288	125.049	51.822	-7.287	0.459	140.907	33.809	-0.026	6.790	7.332	14.248	159.256	13.932	-8191	255	
18950.627	1	1	0	0	0.18785	0.19799	0.064008	0.15441	0.17369	0.22159	0.16172	0.13979	0.019634	0.23349	0.049908	0.22585	0.050097	0.050568	0.22897	0.12211	-4.7188	-3.9917	-4.9396	-4.6646	-4.2146	-5.0875	-4.4146	-4.5813	-4.925	-4.0083	-4.7792	-4.4812	-4.2042	-5.0417	-4.3271	-4.4354	310.613	197.960	238.144	189.728	48.985	-14.973	311.252	220.203	130.091	66.604	193.489	-12.401	169.340	35.207	121.060	303.924	0.00021493	0.00021944	8.7637e-05	1167.7	1.9248e-06	1.9064e-06	1280.9	233.18	2.9793e-06	3.1015e-06	297.79	81.831	64.765	18.684	2.821e-06	26.381	0.00010356	0.00010272	2.8041e-05	1123.3	1.1234e-06	1.063e-06	1233	225.65	1.1194e-06	1.1132e-06	284.92	79.639	62.319	18.426	1.1117e-06	25.702	98.085	13.890	-0.685	-7.077	114.436	213.050	-7.050	0.237	136.293	113.874	-0.253	6.663	6.914	14.311	130.445	13.508	-8191	255	
18950.723	1	1	0	0	0.055308	0.30994	0.068349	0.13642	0.26157	0.14336	0.14017	0.23395	0.24413	0.13628	0.18665	0.22496	0.16177	0.15705	0.23765	0.030118	-4.6271	-3.9542	-4.8167	-4.9146	-4.0083	-4.9854	-4.3604	-4.3708	-4.9437	-4.1417	-4.8896	-4.9	-4.1062	-5.0792	-4.4938	-4.3229	221.041	176.623	256.983	40.768	146.612	15.809	238.677	123.765	126.783	36.015	328.517	24.801	98.346	270.991	340.504	206.318	0.00020152	0.00018179	2.8894e-05	1169.7	1.4491e-06	3.9015e-06	1283.1	231.24	3.1063e-06	2.8632e-06	298.86	82.832	64.151	18.765	3.5821e-06	25.939	0.00010421	0.00010082	2.7348e-05	1123.5	1.1336e-06	1.1266e-06	1232.9	225.03	1.1154e-06	1.1149e-06	285.69	79.625	62.157	18.467	1.1203e-06	25.589	96.746	81.346	130.739	-7.017	311.601	31.377	-7.178	0.177	153.576	153.942	-0.276	7.307	6.737	14.378	185.860	13.510	-8191	255	
18950.818	1	1	0	0	0.16055	0.14712	0.18995	0.31658	0.13887	0.3875	0.23548	0.059122	0.13497	0.072844	0.080485	0.15542	0.10345	0.13266	0.1585	0.13346	-4.7792	-4.1542	-4.5417	-5	-4.1125	-4.95	-4.4979	-4.2854	-4.9688	-4.2063	-4.725	-4.9125	-4.3	-4.925	-4.6125	-4.3438	170.859	107.992	304.903	314.013	246.527	213.133	307.625	277.292	324.659	73.773	313.988	328.445	316.553	160.010	283.902	66.381	0.00017814	0.00031929	9.4064e-05	1170.1	5.1761e-07	2.6957e-06	1278.4	233.36	2.1191e-06	3.145e-06	298.32	82.107	64.304	19.006	3.0928e-06	26.088	0.0001024	0.00010203	2.8041e-05	1125.6	1.1381e-06	1.0868e-06	1233.2	225.74	1.1189e-06	1.1254e-06	285.32	79.97	62.188	18.489	1.0977e-06	25.656	95.376	60.629	64.016	-7.087	291.749	136.026	-7.145	0.192	183.083	135.551	-0.155	6.783	6.966	14.218	121.230	13.461	-8191	255	
18950.914	1	1	0	0	0.1863	0.12363	0.19857	0.075225	0.18616	0.11864	0.1525	0.12499	0.098692	0.20252	0.098532	0.12576	0.12977	0.14336	0.16393	0.25251	-5.0417	-4.4458	-4.5312	-5.0667	-4.0875	-4.8958	-4.9083	-4.3021	-4.8625	-4.2917	-4.5646	-4.9896	-4.175	-4.7729	-4.6771	-3.975	140.441	28.576	248.365	56.036	88.697	332.617	287.672	-4.817	38.770	49.560	285.230	341.708	278.252	277.763	103.318	10.844	0.0001516	0.00052068	0.000129	1172.4	4.6585e-06	2.4216e-06	1276.3	232.2	1.0213e-06	4.378e-06	296.77	82.087	64.446	18.939	4.0417e-06	26.246	0.00010464	0.00010206	2.8462e-05	1126	1.119e-06	1.0875e-06	1231.8	225.3	1.102e-06	1.1118e-06	285.29	79.617	62.076	18.486	1.101e-06	25.643	91.230	-9.466	50.590	-7.030	160.997	131.475	-7.153	0.331	160.595	138.374	-0.162	6.936	7.081	14.291	159.919	13.928	-8191	255	
18951.010	1	1	0	0	0.17339	0.20197	0.097984	0.12096	0.21114	0.10336	0.11568	0.055874	0.098737	0.23025	0.3162	0.14689	0.25949	0.054524	0.19839	0.1831	-4.7792	-4.3938	-4.1438	-5.3083	-4.15	-4.6625	-4.9771	-4.1375	-4.9375	-4.4875	-4.1667	-5.1917	-4.2542	-4.5896	-4.875	-4.0396	82.537	-9.587	152.959	302.943	39.180	1.451	251.796	4.191	136.580	70.824	283.024	-13.841	-11.231	85.055	315.877	46.108	0.00022908	0.00054073	8.6868e-05	1163.7	3.8584e-06	1.1544e-06	1284.4	233.97	1.5417e-06	2.7856e-06	297.28	82.845	64.441	18.803	2.6463e-06	26.181	0.00010503	0.00010201	2.8606e-05	1122.6	1.1241e-06	1.118e-06	1235.6	225.42	1.1218e-06	1.1202e-06	284.75	79.987	62.175	18.415	1.1143e-06	25.563	89.291	322.836	23.912	-7.073	111.629	53.280	-7.092	0.287	150.062	97.063	-0.135	6.814	6.929	14.087	73.739	14.142	-8191	255	
18951.105	1	1	0	0	0.13772	0.17398	0.1509	0.21751	0.06568	0.10815	0.1628	0.16913	0.094801	0.062088	0.12757	0.034534	0.1978	0.14885	0.066739	0.08625	-4.6937	-4.5229	-4.2729	-5.3146	-4.0188	-4.5771	-5.0833	-4.1479	-4.8	-4.6521	-4.1417	-5.2292	-4.325	-4.4104	-5.0396	-4.1021	31.646	15.707	286.749	28.460	313.742	106.194	194.034	268.533	11.575	115.014	336.669	60.474	326.668	241.494	-13.423	225.331	0.00026004	0.00013147	4.7627e-05	1167.2	2.9348e-06	1.7809e-06	1276.5	234.13	1.8688e-06	1.78e-06	296.84	82.105	64.448	18.904	4.9319e-06	26.034	0.00010247	9.9959e-05	2.8063e-05	1123.2	1.1498e-06	1.1311e-06	1232.3	226.17	1.1142e-06	1.1243e-06	285.12	79.655	62.318	18.475	1.1278e-06	25.503	100.243	326.868	75.585	-6.911	109.867	180.261	-6.952	0.163	202.745	249.588	-0.139	6.512	7.177	14.278	78.258	13.624	-8191	255	
18951.227	1	1	0	0	0.15808	0.051797	0.24311	0.16667	0.060837	0.14284	0.064934	0.13567	0.23287	0.042714	0.10626	0.17301	0.14207	0.16349	0.1378	0.058957	-4.5104	-4.6813	-4.1833	-5.2521	-4.1958	-4.4146	-5.0354	-4	-4.8812	-4.6708	-4.1646	-5.2604	-4.4729	-4.3583	-5.0708	-4.1646	330.193	255.847	287.699	-10.184	85.805	69.141	-3.817	248.712	338.456	252.654	308.345	212.400	176.966	25.753	199.611	234.349	0.00026039	0.00046969	2.6487e-05	1169	1.7802e-06	3.7214e-06	1281.4	233.16	1.0922e-06	1.1132e-06	297.44	82.424	64.621	18.817	3.351e-06	26.316	0.00010639	0.00010093	2.8399e-05	1123.1	1.1472e-06	1.0921e-06	1233.7	225.75	1.1363e-06	1.108e-06	284.79	79.878	62.183	18.441	1.0894e-06	25.657	77.941	54.542	48.922	-7.124	165.663	98.697	-6.839	0.365	0.122	164.632	-0.706	6.999	7.140	14.818	119.574	13.470	-8191	255	
18951.320	1	1	0	0	0.12231	0.12636	0.11931	0.11993	0.10529	0.0045372	0.15267	0.10167	0.21837	0.098099	0.091929	0.30086	0.061281	0.15051	0.17706	0.13186	-4.2833	-4.7917	-4.0729	-5.1375	-4.2979	-4.1542	-5.1396	-4.2271	-4.4396	-4.9938	-4.1979	-4.9646	-4.5417	-4.2042	-5.0729	-4.3083	204.594	111.118	175.369	334.570	118.076	239.387	261.660	-4.914	238.910	220.006	330.318	267.444	107.812	293.670	225.983	230.152	0.00018116	6.7181e-05	7.5248e-05	1169.9	2.6055e-06	2.8137e-06	1284.3	232.33	6.3051e-07	3.8069e-06	298.29	81.741	64.794	18.771	4.9975e-06	26.361	0.00010596	9.9432e-05	2.8751e-05	1124.3	1.1261e-06	1.0951e-06	1235.3	225.22	1.1165e-06	1.1112e-06	285.49	79.724	62.366	18.419	1.1136e-06	25.688	72.244	195.001	103.156	-7.011	44.388	206.165	-7.132	0.482	7.572	114.339	0.358	6.763	6.821	14.183	105.271	13.994	-8191	255	
18951.418	1	1	0	0	0.19976	0.2523	0.22696	0.30139	0.25186	0.067194	0.26253	0.094493	0.16788	0.10806	0.21853	0.061713	0.024897	0.091082	0.073814	0.21623	-4.2188	-4.7271	-4.0188	-4.9896	-4.6771	-4.0542	-5.0958	-4.2125	-4.4125	-4.9313	-4.1813	-5.0062	-4.6667	-4.2708	-4.925	-4.2396	194.907	111.638	165.611	316.032	83.087	332.406	305.267	264.845	84.055	13.401	1.437	152.966	298.572	-3.812	131.954	86.937	0.00018543	0.00021019	0.00010217	1166.8	2.4874e-06	2.0904e-06	1274.9	233.18	2.8569e-06	3.8305e-06	298.72	82.683	64.566	18.829	3.9487e-06	26.362	0.00010636	0.00010271	2.8728e-05	1124	1.1342e-06	1.1431e-06	1233.8	225.95	1.1394e-06	1.1341e-06	285.32	79.933	62.202	18.41	1.0895e-06	25.654	78.815	13.819	-9.795	-7.155	177.322	104.090	-7.269	0.151	135.003	108.932	-0.361	6.784	7.228	14.609	160.420	13.599	-8191	255	
18951.490	1	1	0	0	0.051956	0.1937	0.17897	0.39537	0.1077	0.2319	0.24492	0.42507	0.17746	0.15533	0.061142	0.23071	0.13244	0.2002	0.13217	0.18477	-4.0125	-4.9521	-4.0667	-4.9271	-4.7417	-4.1708	-5.1687	-4.5938	-4.3521	-5.1479	-4.2875	-4.8646	-4.7896	-4.0125	-4.9083	-4.5125	304.745	223.850	313.782	305.324	278.962	276.195	274.136	206.673	199.916	332.214	31.440	252.722	80.437	239.578	189.315	286.837	0.00020274	5.4204e-05	9.1974e-05	1173.5	2.5788e-06	3.9382e-06	1281.5	232.2	2.2052e-06	5.4418e-06	297.87	82.542	64.418	18.877	2.6591e-06	26.195	0.00010483	0.00010192	2.9531e-05	1124.5	1.1471e-06	1.1182e-06	1233.7	225.76	1.1416e-06	1.1417e-06	284.98	79.876	62.263	18.473	1.1315e-06	25.574	72.403	161.974	74.387	-7.272	150.058	75.893	-7.043	0.379	125.145	110.968	0.028	6.763	7.245	14.198	211.585	13.382	-8191	255	
18951.609	1	1	0	0	0.058172	0.12564	0.22613	0.29375	0.25866	0.065576	0.019395	0.31144	0.20777	0.18325	0.37	0.15274	0.12521	0.10929	0.10307	0.10534	-4.0979	-4.9375	-4.1792	-4.7438	-4.9187	-4.0521	-5.0542	-4.7875	-4.2479	-5.2542	-4.4208	-4.7063	-4.8396	-4.0396	-4.8271	-4.6438	30.092	56.914	183.711	311.373	261.499	145.929	207.357	312.044	332.969	84.715	216.318	-8.400	39.682	252.562	179.902	147.013	0.00023882	0.00030161	0.00013845	1173.3	1.9678e-06	1.6296e-06	1281.9	233.89	2.3109e-06	4.668e-06	295.47	82.203	64.358	18.887	3.4462e-06	26.032	0.00010817	0.00010282	2.9255e-05	1124.9	1.1493e-06	1.1075e-06	1233.5	225.73	1.1422e-06	1.0905e-06	284.27	79.81	62.386	18.462	1.1292e-06	25.582	97.994	68.259	44.514	-7.400	83.576	140.282	-7.173	0.158	164.429	132.983	0.236	6.750	7.324	14.400	147.870	13.939	-8191	255	
18951.705	1	1	0	0	0.091894	0.13455	0.11886	0.058723	0.13892	0.22341	0.18638	0.19384	0.029381	0.15985	0.19945	0.2571	0.31136	0.29269	0.024301	0.19228	-3.8271	-5.0333	-4.4354	-4.4896	-5.0667	-4.1458	-4.8354	-4.825	-4.2375	-5.0333	-4.5396	-4.3625	-4.9688	-4.1583	-4.7812	-4.7479	302.600	99.433	181.048	197.284	253.675	2.184	276.423	224.644	-10.567	338.971	33.861	292.483	263.122	6.905	233.108	-1.778	0.00028099	0.00015304	6.2516e-05	1164.2	4.6314e-06	4.1107e-06	1280	234.43	2.3966e-06	2.2102e-06	298.69	82.355	64.393	18.73	6.0102e-06	26.489	0.0001063	0.000101	2.8332e-05	1123.2	1.1467e-06	1.1286e-06	1233.1	226.11	1.1548e-06	1.1071e-06	284.77	79.807	62.159	18.422	1.1163e-06	25.733	92.042	67.276	333.298	-7.412	145.314	86.820	-7.196	0.345	182.235	131.017	-0.299	6.705	6.940	14.623	109.449	13.616	-8191	255	
18951.803	1	1	0	0	0.12358	0.19062	0.19053	0.046232	0.14386	0.15571	0.13221	0.15406	0.1008	0.078869	0.074271	0.32503	0.18338	0.13293	0.35839	0.083959	-3.8417	-5.0958	-4.45	-4.4917	-5.0188	-4.0687	-4.7729	-4.9812	-4.0792	-5.1021	-4.4354	-4.3125	-5.0625	-4.1229	-4.3708	-4.8479	114.523	221.736	173.048	237.625	67.081	6.513	288.343	221.309	23.619	205.399	35.973	77.970	222.516	330.950	243.916	12.981	0.0001788	0.00026148	8.2897e-05	1167.7	1.956e-06	2.2121e-06	1280.1	232.16	2.7917e-06	4.2083e-06	297.04	81.748	64.51	18.76	2.3604e-06	26.574	0.00010738	0.00010173	2.8642e-05	1124.3	1.1239e-06	1.1224e-06	1232.6	225.24	1.1669e-06	1.094e-06	285.15	79.593	62.257	18.402	1.1171e-06	25.727	88.847	115.485	112.749	-7.177	71.599	186.919	-7.098	0.070	134.457	137.645	0.071	6.932	7.414	14.446	146.004	13.760	-8191	255	
18951.898	1	1	0	0	0.20478	0.2153	0.057947	0.30268	0.058876	0.067689	0.11879	0.19789	0.1542	0.16307	0.13802	0.42907	0.034551	0.10583	0.14469	0.055137	-3.8187	-4.8854	-4.4187	-4.2688	-5.0833	-4.3313	-4.675	-4.9938	-4.0354	-4.8979	-4.8854	-4.0833	-5.0229	-4.2542	-4.4583	-5.0104	87.596	263.287	85.962	303.067	58.750	115.929	320.788	289.299	254.044	210.826	11.056	307.877	165.171	271.906	138.519	101.790	0.00021924	0.00035589	0.00011508	1169.8	2.7592e-06	4.0309e-06	1276.2	233.35	2.7454e-06	8.9929e-07	298.98	81.561	64.772	18.742	4.1612e-06	26.408	0.00010685	0.00010422	2.8023e-05	1124.4	1.1188e-06	1.1164e-06	1234.6	225.95	1.1579e-06	1.1116e-06	285.55	79.629	62.21	18.421	1.116e-06	25.725	78.976	25.563	47.713	-7.305	136.678	114.342	-7.185	0.108	195.146	287.769	-0.088	6.655	7.289	14.454	92.176	14.126	-8191	255	
18952.020	1	1	0	0	0.15071	0.098142	0.050342	0.22657	0.042832	0.10842	0.099966	0.23582	0.15868	0.14884	0.25478	0.26804	0.037382	0.28351	0.077421	0.2409	-3.7458	-4.7646	-4.5375	-4.0604	-5.1417	-4.4583	-4.4333	-5.1833	-3.975	-4.6625	-4.9208	-4.1396	-4.9979	-4.2438	-4.3333	-5.0583	83.519	1.481	177.358	312.103	141.189	240.518	250.335	174.576	336.685	71.420	303.268	326.774	163.553	31.080	7.799	288.179	0.00026298	0.00014163	9.9041e-05	1170.5	5.9832e-06	2.7523e-06	1279.7	232.34	2.9149e-06	3.039e-06	295.77	82.384	64.507	18.936	9.3569e-07	26.316	0.00010606	0.00010133	2.758e-05	1125.9	1.1398e-06	1.1239e-06	1233.2	225.38	1.142e-06	1.0997e-06	285.01	79.934	62.189	18.44	1.1054e-06	25.638	76.028	11.876	329.372	-7.221	138.786	131.098	-7.204	0.424	167.438	60.547	0.032	7.118	7.281	14.310	188.534	13.994	-8191	255	
18952.115	1	1	0	0	0.13108	0.071173	0.29083	0.17332	0.14789	0.20035	0.098382	0.23497	0.15089	0.1722	0.080993	0.14359	0.1098	0.027864	0.11448	0.34306	-3.7021	-4.675	-4.85	-4.0375	-4.85	-4.4021	-4.4792	-5.0271	-4.0062	-4.6521	-4.9625	-4.0625	-5.1458	-4.6271	-4.1083	-4.9938	7.752	270.098	303.077	299.539	229.659	256.577	271.971	305.758	176.856	269.908	129.668	265.587	252.711	85.840	185.198	259.914	0.00020602	0.00016687	0.0001702	1169.6	3.9863e-06	3.3745e-06	1274.6	231.82	3.0679e-06	3.92e-06	298.03	82	64.645	18.8	4.7957e-06	26.333	0.00010555	0.00010062	2.813e-05	1123.6	1.1389e-06	1.1081e-06	1232.4	225.49	1.1578e-06	1.1202e-06	285.41	79.611	62.175	18.419	1.1295e-06	25.713	110.682	61.710	40.546	-7.256	79.050	77.398	-7.224	0.370	137.825	99.225	-0.156	6.648	6.880	13.910	59.188	14.124	-8191	255	
18952.211	1	1	0	0	0.13537	0.11911	0.11317	0.32118	0.072661	0.1443	0.37905	0.19599	0.08013	0.21289	0.051851	0.14021	0.014978	0.077778	0.12087	0.10943	-3.9542	-4.3542	-4.7562	-4.2125	-4.8771	-4.5271	-4.2583	-4.9812	-4.2479	-4.3521	-5.0646	-4.1333	-4.8729	-4.5729	-4.0458	-4.9208	249.221	20.688	31.920	14.957	224.628	139.233	243.490	301.019	228.980	251.181	272.178	159.237	88.056	229.821	218.762	79.603	0.00021964	0.00022361	9.9338e-06	1170.9	1.7791e-06	1.1968e-06	1281	233.67	3.222e-06	1.0364e-06	295.48	82.618	64.172	18.745	3.067e-06	26.225	0.0001057	0.00010221	2.7739e-05	1124.6	1.1234e-06	1.1098e-06	1233	225.75	1.1152e-06	1.0934e-06	284.45	79.775	62.09	18.386	1.119e-06	25.564	89.854	30.611	70.602	-7.366	179.888	217.329	-7.251	0.397	124.897	326.125	-0.156	7.250	6.899	14.302	124.542	13.835	-8191	255	
18952.307	1	1	0	0	0.15391	0.11758	0.18042	0.14796	0.16623	0.15875	0.14098	0.3074	0.21073	0.029843	0.03386	0.087432	0.36075	0.13726	0.048696	0.095721	-3.9896	-4.2896	-4.9458	-4.2312	-4.5521	-4.6937	-4.1687	-4.9979	-4.3208	-4.1	-5.0667	-4.1354	-4.4854	-4.7188	-4.1333	-4.9458	342.042	321.266	221.774	335.568	10.065	230.651	317.174	218.419	236.337	118.994	327.069	4.595	311.186	49.410	252.092	-4.476	0.00020293	0.00039788	7.2858e-05	1169.3	3.9899e-06	6.5039e-07	1277	233.86	3.2009e-06	9.2521e-07	298.37	82.034	65.037	18.894	2.9525e-06	26.322	0.00010587	0.0001006	2.7573e-05	1123.6	1.1401e-06	1.0664e-06	1231.9	225.77	1.098e-06	1.0831e-06	284.57	79.584	62.245	18.447	1.0869e-06	25.624	89.981	50.699	61.487	-7.274	76.480	113.622	-7.358	0.035	163.456	51.282	0.050	6.609	7.106	14.067	187.093	13.575	-8191	255	
18952.402	1	1	0	0	0.18439	0.25002	0.1448	0.1337	0.16855	0.076199	0.12934	0.12635	0.077332	0.10114	0.11031	0.091938	0.19976	0.20693	0.10653	0.15611	-4.1458	-4.2562	-4.9792	-4.2979	-4.475	-4.7833	-4.1479	-5.0521	-4.5604	-4.2354	-5.1	-4.3771	-4.525	-4.8938	-3.9729	-4.7771	84.086	111.429	170.202	285.669	94.158	140.438	273.364	299.192	139.728	139.185	241.315	131.527	-13.574	320.108	262.716	126.288	0.0002106	0.00043865	0.00015956	1168.3	2.8959e-06	1.5721e-06	1280	232.71	1.4549e-06	4.777e-06	299.07	82.375	64.27	18.851	2.9203e-06	26.174	0.00010539	9.9003e-05	2.7613e-05	1124	1.1164e-06	1.0952e-06	1232.7	225.42	1.0906e-06	1.1001e-06	285.28	79.755	62.049	18.402	1.0752e-06	25.609	121.735	67.491	7.963	-7.278	180.013	154.810	-7.113	0.337	198.090	121.784	-0.223	6.866	7.291	14.168	-8.636	13.852	-8191	255	
18952.498	1	1	0	0	0.16279	0.30396	0.23053	0.15739	0.18053	0.14562	0.19791	0.24298	0.21636	0.15275	0.070297	0.24012	0.14002	0.085589	0.15134	0.17177	-4.4083	-4.0667	-5.0125	-4.1979	-4.3021	-4.9396	-4.1937	-4.8458	-4.5917	-4.0167	-5.1229	-4.2812	-4.2708	-5.0229	-4.0646	-4.7083	175.076	143.852	38.644	307.166	276.243	139.635	240.593	300.919	85.022	240.909	323.053	331.352	338.986	138.851	65.650	315.445	0.00011831	0.00026588	0.00012215	1165.9	2.3534e-06	2.8539e-06	1277.1	233.12	1.1407e-06	3.5665e-06	298.78	81.76	64.257	18.741	2.4034e-06	26.303	0.00010212	9.9423e-05	2.7536e-05	1124	1.1081e-06	1.0655e-06	1232.7	225.76	1.1097e-06	1.0841e-06	284.46	79.572	62.148	18.359	1.0839e-06	25.59	99.548	66.923	32.549	-7.315	108.852	86.247	-7.353	0.295	304.537	136.418	0.009	6.943	7.134	14.482	117.050	13.562	-8191	255	
18952.619	1	1	0	0	0.22675	0.1561	0.16783	0.36341	0.14161	0.12098	0.10403	0.30206	0.048179	0.19584	0.22975	0.23631	0.10922	0.061606	0.18193	0.062633	-4.3646	-4.05	-4.9542	-4.6229	-4.1896	-5.0771	-4.2167	-4.5896	-4.8354	-4.0729	-5.0667	-4.5437	-4.3562	-5.1083	-4.0708	-4.5312	250.221	307.786	-9.623	335.845	209.732	186.487	294.710	240.997	122.806	133.312	246.372	229.196	236.465	123.165	148.921	145.810	0.00019423	0.0004468	0.00010774	1167.6	2.2122e-06	7.5579e-07	1281.5	234.19	3.606e-06	3.1585e-06	297.75	82.891	64.903	18.933	2.5365e-06	26.463	0.00010244	9.8144e-05	2.7421e-05	1123.4	1.105e-06	1.0722e-06	1233.2	225.89	1.0998e-06	1.0675e-06	284.87	79.956	62.252	18.434	1.0859e-06	25.716	70.300	66.503	330.699	-7.200	212.598	288.776	-7.203	-0.094	134.881	89.335	-0.220	6.785	6.925	14.368	103.724	13.590	-8191	255	
18952.715	1	1	0	0	0.05052	0.11133	0.13549	0.092307	0.10052	0.20425	0.15391	0.13408	0.19379	0.068346	0.37938	0.092899	0.01368	0.26653	0.11487	0.20705	-4.6208	-3.9521	-4.7854	-4.85	-4.2271	-5.05	-4.3562	-4.4583	-5.0563	-3.8104	-4.9854	-4.8063	-4.2229	-5.1542	-4.2562	-4.3958	52.369	258.203	221.841	11.609	111.692	232.176	325.428	216.598	133.517	286.543	4.711	47.596	116.522	294.254	114.413	126.357	0.00020052	0.00020411	0.00011925	1167.1	1.516e-06	1.3478e-06	1280.4	232.86	2.2805e-06	2.9049e-06	297.52	82.275	64.338	18.813	4.1157e-06	26.328	0.00010426	9.8063e-05	2.7186e-05	1122.4	1.1256e-06	1.0696e-06	1231.2	225.04	1.1079e-06	1.0944e-06	284.96	79.698	62.12	18.382	1.0999e-06	25.652	102.972	-12.816	61.941	-6.935	123.380	210.074	-7.142	0.052	266.119	102.902	0.400	6.407	7.192	14.903	126.698	13.680	-8191	255	
18952.785	1	1	0	0	0.083977	0.13338	0.064453	0.25357	0.14673	0.22285	0.21946	0.032602	0.050549	0.39395	0.13052	0.14293	0.15391	0.11582	0.10544	0.038861	-4.7021	-3.975	-4.7354	-4.7917	-4.0625	-5.05	-4.4729	-4.0604	-4.9417	-3.9333	-4.7229	-4.875	-4.0979	-4.9375	-4.3938	-4.2937	264.861	130.214	220.983	282.122	100.302	15.603	240.381	52.934	205.806	230.616	20.846	272.978	128.912	-13.479	183.139	105.182	0.00020451	0.000217	0.00014614	1170.3	1.6233e-06	2.0679e-06	1275.7	234.02	7.6593e-07	2.0414e-06	299.32	82.923	64.728	18.722	3.2435e-06	26.233	0.00010277	0.00010173	2.7836e-05	1124.6	1.1133e-06	1.0812e-06	1231.4	225.65	1.0925e-06	1.0772e-06	285	79.818	62.196	18.386	1.0885e-06	25.583	103.095	67.511	4.625	-7.164	113.718	88.867	-6.991	-0.040	119.369	170.947	0.193	7.080	6.830	14.708	198.261	13.329	-8191	255	
18952.883	1	1	0	0	0.18381	0.20759	0.021547	0.1032	0.19416	0.1398	0.13291	0.24154	0.11154	0.15124	0.013651	0.18508	0.11249	0.14993	0.13285	0.089702	-4.9854	-4.1479	-4.5354	-5.1896	-3.9146	-4.9604	-4.825	-4.2042	-5.1708	-4.2542	-4.7021	-4.8917	-4.1271	-4.875	-4.5833	-4.1458	19.155	45.729	244.982	126.113	231.166	240.051	266.670	-16.676	79.641	261.119	220.614	279.652	173.354	211.486	50.601	36.718	0.00023839	0.00029936	6.2018e-05	1164.4	2.5424e-06	3.1082e-06	1276.9	233.27	6.0282e-07	2.7552e-06	298.31	82.459	63.777	18.791	5.0435e-06	26.153	0.00010283	9.9046e-05	2.7674e-05	1123.7	1.1155e-06	1.0919e-06	1232.3	225	1.0968e-06	1.0892e-06	284.7	79.775	62.057	18.406	1.0747e-06	25.645	103.552	47.957	16.613	-7.199	123.537	75.595	-7.092	0.326	191.699	137.371	-0.116	7.269	6.769	14.432	57.422	13.741	-8191	255	
18953.004	1	1	0	0	0.10663	0.18451	0.20827	0.13034	0.29844	0.088311	0.26287	0.16429	0.15618	0.17552	0.2803	0.27057	0.084999	0.10521	0.069326	0.18185	-4.6625	-4.1167	-4.5333	-5.2458	-3.9479	-4.9021	-4.6396	-4.0062	-4.9708	-4.2229	-4.3667	-5.0917	-4.0875	-4.6354	-4.5083	-4.0271	288.905	289.405	270.023	323.646	261.502	161.901	327.841	297.993	16.057	318.293	309.304	30.782	25.674	82.611	244.192	309.883	0.0001864	0.00035436	7.451e-05	1168.2	2.572e-06	2.9711e-06	1273	232.9	1.2711e-06	1.9029e-06	296.58	81.861	64.471	18.859	3.5512e-06	26.267	0.00010088	9.7216e-05	2.7668e-05	1124.6	1.1238e-06	1.0821e-06	1232.2	225.38	1.0753e-06	1.0736e-06	284.34	79.74	62.207	18.393	1.0955e-06	25.646	100.443	86.116	65.652	-7.310	153.176	101.902	-6.941	0.042	4.736	104.693	0.094	7.010	6.989	14.362	87.368	13.632	-8191	255	
18953.100	1	1	0	0	0.078924	0.10506	0.072754	0.31593	0.094835	0.12485	0.066436	0.15676	0.14465	0.15235	0.20395	0.12359	0.10335	0.14236	0.19301	0.14092	-4.6792	-4.3375	-4.3354	-5.0521	-4.0958	-4.6729	-4.8688	-4.1229	-4.85	-4.3646	-4.2312	-5.2875	-4.2604	-4.5708	-4.8438	-3.925	-14.655	40.131	-7.864	260.239	209.652	-3.807	20.884	205.605	198.701	167.495	283.483	222.396	200.213	329.022	126.606	9.269	0.00016579	0.00038298	7.3654e-05	1169.5	4.964e-06	2.9827e-06	1281.9	232.24	1.8838e-06	1.0673e-06	297.12	82.278	64.404	18.669	3.0232e-06	26.297	0.00010108	0.00010085	2.7144e-05	1125.1	1.1045e-06	1.0389e-06	1231.6	225.49	1.0812e-06	1.0507e-06	284.15	79.816	62.225	18.371	1.0773e-06	25.624	96.214	-0.307	95.761	-7.002	101.279	118.427	-6.941	0.030	157.516	18.413	-0.410	6.961	6.997	14.282	173.282	13.391	-8191	255	
18953.195	1	1	0	0	0.010519	0.15366	0.10714	0.30574	0.33227	0.11852	0.10897	0.070856	0.14562	0.12319	0.21553	0.20897	0.14254	0.056959	0.11292	0.28721	-4.6312	-4.3167	-4.1687	-5.1917	-4.2583	-4.4729	-5.0604	-4.1062	-4.9521	-4.6354	-4.2083	-4.9104	-4.2354	-4.5625	-5.0208	-4.1188	228.854	272.706	256.227	1.354	308.450	6.265	274.507	151.944	240.480	250.998	330.986	278.286	-4.064	326.383	153.608	299.668	0.00020646	0.00047717	0.00011308	1166.8	3.7677e-06	5.1186e-06	1279	231.48	2.7103e-06	2.937e-06	297.72	81.703	64.137	18.837	4.2709e-06	26.516	0.00010322	9.8986e-05	2.721e-05	1124.5	1.0772e-06	1.059e-06	1232.3	224.77	1.0963e-06	1.0703e-06	284.61	79.674	61.969	18.446	1.0713e-06	25.679	94.734	76.575	111.412	-7.136	176.147	112.069	-7.050	-0.005	173.134	131.302	-0.451	6.578	7.500	14.449	128.112	13.888	-8191	255	
18953.293	1	1	0	0	0.081457	0.15149	0.14646	0.091081	0.21393	0.14522	0.23577	0.20833	0.094782	0.30571	0.21998	0.21087	0.20923	0.066358	0.1633	0.31421	-4.5771	-4.6104	-3.9542	-5.2396	-4.3396	-4.4333	-5.1354	-4.2875	-4.8396	-4.7542	-4.1625	-5.0583	-4.3812	-4.4021	-4.8896	-4.0958	205.380	128.351	146.188	254.197	43.348	22.164	294.619	43.983	272.456	-3.529	159.236	305.971	315.371	75.400	-7.815	324.742	0.00014406	0.00016826	0.00016255	1168.9	2.9012e-07	2.5881e-06	1279.5	231.09	2.5702e-06	3.3071e-06	296.97	82.147	64.203	18.903	5.933e-06	26.44	0.00010032	9.8014e-05	2.6973e-05	1125.5	1.0919e-06	1.0796e-06	1232.6	224.7	1.0921e-06	1.0641e-06	284.09	79.676	61.98	18.402	1.0785e-06	25.653	92.993	-9.103	118.796	-7.072	192.336	96.842	-6.789	0.076	127.953	102.197	-0.432	7.148	7.138	14.239	133.995	14.088	-8191	255	
18953.389	1	1	0	0	0.12731	0.19843	0.021171	0.14853	0.11211	0.31674	0.066782	0.15271	0.10177	0.19908	0.05314	0.18803	0.15859	0.021299	0.11685	0.18758	-4.4854	-4.6458	-3.8167	-5.0542	-4.5271	-4.225	-5.2042	-4.2479	-4.3958	-4.725	-3.9833	-4.8292	-4.5396	-4.2208	-4.9604	-4.1417	95.363	299.489	282.459	-5.903	172.687	165.425	171.316	195.599	44.525	144.506	-4.710	53.305	288.515	278.177	273.438	278.356	0.00028983	0.00027789	0.00010428	1165.9	4.0812e-06	7.289e-07	1278	233.27	3.1765e-06	5.0787e-06	296.61	82.173	64.773	18.758	2.3164e-06	26.396	0.00010232	9.8344e-05	2.7705e-05	1123.9	1.1076e-06	1.0947e-06	1231.6	225.87	1.125e-06	1.106e-06	284.54	79.705	62.108	18.359	1.0915e-06	25.603	91.464	110.566	60.372	-6.925	101.219	58.437	-7.064	0.501	144.778	93.688	-0.088	7.043	7.763	14.177	117.143	13.527	-8191	255	
18953.484	1	1	0	0	0.17069	0.19729	0.13275	0.21356	0.084932	0.13087	0.31637	0.28585	0.062613	0.12484	0.17824	0.18689	0.14697	0.13561	0.056471	0.23803	-4.2375	-4.9375	-4.0167	-4.9271	-4.4333	-4.1271	-5.1042	-4.2937	-4.4563	-4.9729	-4.2	-5	-4.6292	-4.2625	-4.9333	-4.3042	25.752	216.281	86.083	269.060	127.565	193.294	285.623	296.488	107.823	107.499	334.108	334.416	334.810	275.261	22.200	66.539	0.00016528	0.00028898	0.00017478	1169.8	4.6142e-06	1.3822e-06	1273.6	232.45	4.1305e-06	8.8495e-07	300.08	82.002	64.404	18.895	3.9613e-06	26.375	0.00010454	9.9645e-05	2.8418e-05	1124.6	1.1285e-06	1.0979e-06	1234.4	225.31	1.1356e-06	1.0956e-06	285.86	79.761	62.201	18.483	1.1063e-06	25.663	110.280	51.889	79.635	-7.233	157.895	81.185	-7.139	0.617	103.504	211.651	0.020	6.722	7.456	14.310	98.770	13.346	-8191	255	
18953.580	1	1	0	0	0.020592	0.074703	0.1108	0.1287	0.21323	0.19415	0.23629	0.16741	0.36638	0.03736	0.21404	0.10047	0.11441	0.057598	0.13922	0.15005	-4.1583	-5.0146	-4.0229	-4.9083	-4.7688	-3.9813	-5.1458	-4.3729	-4.1479	-4.9354	-4.1896	-4.7188	-4.8396	-4.0938	-4.9167	-4.5104	3.111	304.315	341.013	305.104	168.922	134.185	317.903	279.388	329.870	-0.261	308.686	274.933	25.932	78.017	90.795	213.034	0.00025734	0.00030545	0.00013472	1170.2	2.8068e-06	2.1769e-06	1278.2	233.17	2.8823e-06	2.2435e-06	296.37	82.339	64.08	18.993	5.4009e-06	26.49	0.00010686	0.00010256	2.8434e-05	1125	1.1283e-06	1.1099e-06	1233.7	225.93	1.117e-06	1.1022e-06	284.72	79.76	62.118	18.481	1.1046e-06	25.674	87.602	33.709	37.048	-7.317	175.491	72.397	-7.028	0.318	211.563	149.643	-0.277	7.011	7.170	14.186	128.755	13.650	-8191	255	
18953.699	1	1	0	0	0.082377	0.087508	0.13818	0.27149	0.10692	0.046	0.21839	0.11799	0.23632	0.058262	0.17124	0.22695	0.25627	0.26421	0.11282	0.084874	-3.875	-4.9458	-4.0667	-4.7812	-4.8979	-3.9313	-4.9729	-4.3271	-4.1167	-5.0625	-4.2396	-4.4458	-4.8938	-4.1562	-4.8042	-4.75	306.428	256.935	248.189	298.525	61.083	292.076	259.611	6.753	283.563	332.782	271.607	286.688	290.653	106.194	24.664	82.548	0.00024957	0.00020905	0.00013126	1170	6.2119e-06	9.1661e-07	1278.7	233.69	2.7915e-06	3.5815e-06	297.88	82.135	64.274	18.753	1.4239e-06	26.302	0.00010238	9.9869e-05	2.7902e-05	1126.7	1.1032e-06	1.1022e-06	1234.7	225.57	1.1009e-06	1.0769e-06	284.71	79.813	62.146	18.382	1.0826e-06	25.624	99.444	7.497	66.821	-7.407	150.074	39.147	-7.219	0.344	78.178	173.215	-0.270	7.250	7.371	14.195	199.491	13.854	-8191	255	
18953.795	1	1	0	0	0.15282	0.13439	0.092828	0.088897	0.079921	0.22629	0.20546	0.13801	0.10219	0.29227	0.055583	0.11999	0.047611	0.11573	0.056534	0.12527	-3.9104	-5.0583	-4.1667	-4.4917	-5.0167	-4.0229	-5.0292	-4.6417	-4.0333	-5.0458	-4.2896	-4.4854	-5.1104	-4.1438	-4.7625	-4.8479	272.442	79.097	37.341	56.510	128.107	46.402	1.636	191.002	243.122	-9.760	44.101	276.679	134.297	269.939	167.616	316.592	0.00017325	0.00033511	0.00015759	1170.7	2.0733e-06	7.3443e-07	1285.3	231.48	1.9921e-06	1.0283e-06	295.27	82.623	64.957	18.852	4.5937e-06	26.069	0.00010376	9.6975e-05	2.7982e-05	1125.4	1.1117e-06	1.0879e-06	1233.4	225.32	1.1031e-06	1.0968e-06	284.26	79.824	62.28	18.42	1.0931e-06	25.578	63.574	25.088	60.900	-7.205	228.670	213.851	-7.319	0.299	169.796	84.512	0.325	7.030	7.067	14.143	165.022	13.784	-8191	255	
18953.891	1	1	0	0	0.043599	0.093141	0.048371	0.35181	0.19296	0.031432	0.35642	0.17285	0.21895	0.23806	0.10927	0.021297	0.034199	0.13558	0.10262	0.083497	-3.8146	-4.9354	-4.3292	-4.3729	-4.9812	-3.9854	-4.5729	-4.7917	-3.8833	-4.9146	-4.4667	-4.1583	-5.0646	-4.0667	-4.3604	-4.8896	239.424	-5.009	141.497	331.398	30.487	82.179	265.372	309.128	324.397	151.587	10.190	307.022	339.673	163.324	332.038	339.623	0.00021925	0.00047523	9.0866e-05	1170.2	5.3725e-06	1.5939e-06	1279.4	232.98	8.0136e-07	1.7047e-06	297.53	82.084	64.238	18.969	3.7236e-06	26.205	0.00010272	9.8432e-05	2.7651e-05	1124.2	1.0651e-06	1.0742e-06	1231.1	225.05	1.0823e-06	1.036e-06	284.43	79.569	62.054	18.389	1.0649e-06	25.585	108.974	64.607	337.318	-7.068	136.230	174.219	-6.930	0.293	108.290	88.321	-0.159	6.777	7.101	14.547	77.067	13.436	-8191	255	
#DATA ENDS
