BOXY.EXE: ISS Imagent and Oximeter Data Acquisition Program Version 0.80
Ascii Record File

#ACQ INFORMATION
2  Detector Channels 
16  External MUX Channels 
1  Auxiliary Channels 
5000  Waveform (CCF) Frequency (Hz)
1  Waveforms Skipped 
30  Waveforms Averaged 
1  Cycles Averaged 
16  Acquisitions per Waveform 
10.0806  Updata Rate (Hz) 

#FILE INFORMATION
TRUE -- External MUX Channel results are PARSED.
FALSE -- AC DC and Phase are NOT grouped.
TRUE -- Companion Program Settings File CREATED.
FALSE -- AC data not excluded
FALSE -- DC data not excluded
FALSE -- Phase data not excluded
FALSE -- Auxillary Chn. data not excluded
Tab delimiters

#CALIBRATION STATE
TRUE -- Waveform Calibration Values APPLIED.


#AUX CALIBRATION VALUES
Val Type	aux-1	

Term	1.0000e+00	
Factor	0.0000e+00	


#WF CALIBRATION VALUES
A = Detector Channel
Val Type	A-AC1	A-AC2	A-AC3	A-AC4	A-AC5	A-AC6	A-AC7	A-AC8	A-AC9	A-AC10	A-AC11	A-AC12	A-AC13	A-AC14	A-AC15	A-AC16	A-DC1	A-DC2	A-DC3	A-DC4	A-DC5	A-DC6	A-DC7	A-DC8	A-DC9	A-DC10	A-DC11	A-DC12	A-DC13	A-DC14	A-DC15	A-DC16	A-Ph1	A-Ph2	A-Ph3	A-Ph4	A-Ph5	A-Ph6	A-Ph7	A-Ph8	A-Ph9	A-Ph10	A-Ph11	A-Ph12	A-Ph13	A-Ph14	A-Ph15	A-Ph16	

Term	0.00000e+00	0.00000e+00	0.00000e+00	0.00000e+00	0.00000e+00	0.00000e+00	0.00000e+00	0.00000e+00	0.00000e+00	0.00000e+00	0.00000e+00	0.00000e+00	0.00000e+00	0.00000e+00	0.00000e+00	0.00000e+00	0.00000e+00	0.00000e+00	0.00000e+00	0.00000e+00	0.00000e+00	0.00000e+00	0.00000e+00	0.00000e+00	0.00000e+00	0.00000e+00	0.00000e+00	0.00000e+00	0.00000e+00	0.00000e+00	0.00000e+00	0.00000e+00	0.00000e+00	0.00000e+00	0.00000e+00	0.00000e+00	0.00000e+00	0.00000e+00	0.00000e+00	0.00000e+00	0.00000e+00	0.00000e+00	0.00000e+00	0.00000e+00	0.00000e+00	0.00000e+00	0.00000e+00	0.00000e+00	
Factor	1.00000e+00	1.00000e+00	1.00000e+00	1.00000e+00	1.00000e+00	1.00000e+00	1.00000e+00	1.00000e+00	1.00000e+00	1.00000e+00	1.00000e+00	1.00000e+00	1.00000e+00	1.00000e+00	1.00000e+00	1.00000e+00	1.00000e+00	1.00000e+00	1.00000e+00	1.00000e+00	1.00000e+00	1.00000e+00	1.00000e+00	1.00000e+00	1.00000e+00	1.00000e+00	1.00000e+00	1.00000e+00	1.00000e+00	1.00000e+00	1.00000e+00	1.00000e+00	X	X	X	X	X	X	X	X	X	X	X	X	X	X	X	X	

B = Detector Channel
Val Type	B-AC1	B-AC2	B-AC3	B-AC4	B-AC5	B-AC6	B-AC7	B-AC8	B-AC9	B-AC10	B-AC11	B-AC12	B-AC13	B-AC14	B-AC15	B-AC16	B-DC1	B-DC2	B-DC3	B-DC4	B-DC5	B-DC6	B-DC7	B-DC8	B-DC9	B-DC10	B-DC11	B-DC12	B-DC13	B-DC14	B-DC15	B-DC16	B-Ph1	B-Ph2	B-Ph3	B-Ph4	B-Ph5	B-Ph6	B-Ph7	B-Ph8	B-Ph9	B-Ph10	B-Ph11	B-Ph12	B-Ph13	B-Ph14	B-Ph15	B-Ph16	

Term	0.00000e+00	0.00000e+00	0.00000e+00	0.00000e+00	0.00000e+00	0.00000e+00	0.00000e+00	0.00000e+00	0.00000e+00	0.00000e+00	0.00000e+00	0.00000e+00	0.00000e+00	0.00000e+00	0.00000e+00	0.00000e+00	0.00000e+00	0.00000e+00	0.00000e+00	0.00000e+00	0.00000e+00	0.00000e+00	0.00000e+00	0.00000e+00	0.00000e+00	0.00000e+00	0.00000e+00	0.00000e+00	0.00000e+00	0.00000e+00	0.00000e+00	0.00000e+00	-1.74110e+02	-1.49463e+02	-1.54163e+02	-1.83559e+02	-9.67051e+01	-8.85097e+01	-1.58120e+02	-1.62015e+02	-7.57778e+01	-9.11998e+01	-1.70546e+02	-1.71093e+02	-1.79028e+02	-1.76657e+02	-7.54591e+01	-1.49556e+02	
Factor	3.07533e-05	1.16140e-04	3.88137e-05	1.69307e-01	1.12974e-06	1.04412e-06	1.84577e-01	5.88378e-02	1.11002e-06	1.29812e-06	9.83490e-02	3.36173e-02	3.12576e-02	1.02943e-02	1.39422e-06	1.47485e-02	9.99033e-07	1.02388e-06	2.85475e-07	7.71054e-02	1.12068e-08	1.12247e-08	7.91330e-02	2.67211e-02	1.11987e-08	1.12333e-08	4.26404e-02	1.45631e-02	1.40376e-02	4.62015e-03	1.12025e-08	6.38598e-03	X	X	X	X	X	X	X	X	X	X	X	X	X	X	X	X	



#DISTANCE SETTINGS
A = Detector Channel
A-1	A-2	A-3	A-4	A-5	A-6	A-7	A-8	A-9	A-10	A-11	A-12	A-13	A-14	A-15	A-16	

2.5000e+00	3.0000e+00	2.5000e+00	3.0000e+00	2.0000e+00	3.0000e+00	1.5000e+00	3.0000e+00	3.0000e+00	3.0000e+00	3.0000e+00	3.0000e+00	3.0000e+00	3.0000e+00	1.5000e+00	3.0000e+00	

B = Detector Channel
B-1	B-2	B-3	B-4	B-5	B-6	B-7	B-8	B-9	B-10	B-11	B-12	B-13	B-14	B-15	B-16	

1.0000e+01	1.0000e+01	1.0000e+01	1.4400e+00	1.0000e+01	1.0000e+01	1.5100e+00	1.9400e+00	1.0000e+01	1.0000e+01	1.9900e+00	2.4900e+00	2.4100e+00	2.9000e+00	1.0000e+01	2.9800e+00	




#DATA BEGINS
time	group	step	mark	flag	A-AC1	A-AC2	A-AC3	A-AC4	A-AC5	A-AC6	A-AC7	A-AC8	A-AC9	A-AC10	A-AC11	A-AC12	A-AC13	A-AC14	A-AC15	A-AC16	A-DC1	A-DC2	A-DC3	A-DC4	A-DC5	A-DC6	A-DC7	A-DC8	A-DC9	A-DC10	A-DC11	A-DC12	A-DC13	A-DC14	A-DC15	A-DC16	A-Ph1	A-Ph2	A-Ph3	A-Ph4	A-Ph5	A-Ph6	A-Ph7	A-Ph8	A-Ph9	A-Ph10	A-Ph11	A-Ph12	A-Ph13	A-Ph14	A-Ph15	A-Ph16	B-AC1	B-AC2	B-AC3	B-AC4	B-AC5	B-AC6	B-AC7	B-AC8	B-AC9	B-AC10	B-AC11	B-AC12	B-AC13	B-AC14	B-AC15	B-AC16	B-DC1	B-DC2	B-DC3	B-DC4	B-DC5	B-DC6	B-DC7	B-DC8	B-DC9	B-DC10	B-DC11	B-DC12	B-DC13	B-DC14	B-DC15	B-DC16	B-Ph1	B-Ph2	B-Ph3	B-Ph4	B-Ph5	B-Ph6	B-Ph7	B-Ph8	B-Ph9	B-Ph10	B-Ph11	B-Ph12	B-Ph13	B-Ph14	B-Ph15	B-Ph16	aux-1	digaux	

18998.451	1	1	0	256	0.29655	0.23625	0.13688	0.16556	0.11235	0.16129	0.27675	0.23773	0.13947	0.12621	0.18315	0.20313	0.25035	0.2451	0.037993	0.21919	-4.4938	-3.9062	-4.3396	-4.9875	-3.7708	-4.6167	-4.6813	-4.1083	-4.9021	-4.1104	-4.3292	-5.0396	-4.0188	-4.4875	-4.5542	-4.0542	98.563	277.112	100.093	271.673	231.752	44.250	247.156	232.548	31.808	273.944	136.459	291.293	271.496	209.820	51.573	208.813	0.00038726	0.00044574	0.00013773	1803.9	4.6333e-06	5.9936e-06	1827.4	480.94	4.1547e-06	4.3286e-06	556.17	185	159.55	53.875	5.8115e-06	67.353	8.7103e-05	7.7139e-05	2.1282e-05	1563.5	8.7054e-07	8.318e-07	1587.8	416.83	8.6328e-07	8.0604e-07	474.08	158.46	135.85	46.234	8.2598e-07	57.391	99.688	50.005	21.084	-17.926	96.816	119.089	-17.881	-13.293	94.568	92.403	-13.952	-9.326	-8.971	-4.243	142.976	-5.139	-8191	255	
18998.547	1	1	0	0	0.19245	0.14784	0.061165	0.31004	0.06883	0.12644	0.3282	0.24872	0.16968	0.14763	0.03471	0.024852	0.10352	0.068698	0.085352	0.10023	-4.5062	-4.0375	-4	-4.9396	-3.7292	-4.2917	-4.7729	-3.9729	-4.8083	-4.2354	-4.1208	-4.8354	-4.0417	-4.4938	-4.6417	-3.8729	321.562	115.682	-5.142	282.533	283.144	12.928	230.656	285.808	195.072	78.283	-1.573	101.904	1.078	-4.012	323.540	-2.623	0.00033232	0.00062903	0.0001545	1808.1	5.1017e-06	3.546e-06	1838.9	481.17	1.7226e-06	6.0767e-06	558.11	184.79	159.07	54.121	3.6455e-06	67.115	8.559e-05	7.5571e-05	2.0385e-05	1566.6	8.6521e-07	7.9906e-07	1589.6	416.98	8.3834e-07	7.9565e-07	474.35	158.76	135.95	46.41	8.201e-07	57.274	103.247	57.875	22.768	-17.857	111.393	123.347	-17.811	-13.291	104.284	81.470	-13.881	-9.397	-8.891	-4.261	81.417	-5.417	-8191	255	
18998.643	1	1	0	0	0.096595	0.29253	0.034897	0.17897	0.10808	0.090347	0.36215	0.12386	0.20346	0.081576	0.22008	0.1652	0.16523	0.089815	0.14401	0.15121	-4.5104	-4.3417	-3.9542	-5.05	-3.7979	-4.3542	-4.9437	-4.0563	-4.7042	-4.3458	-4.2562	-4.8812	-4.0146	-4.4292	-4.7917	-3.8229	299.712	26.509	48.024	1.339	14.055	256.828	250.103	-1.218	313.464	50.905	303.963	0.967	219.895	316.049	28.388	267.749	0.00030991	0.00067592	0.00019566	1804.4	6.0321e-06	3.8849e-06	1833.6	483.7	3.5174e-06	1.0497e-06	556.64	186	160.75	54.176	4.4102e-06	67.755	8.4982e-05	7.3581e-05	2.0433e-05	1565.2	8.3414e-07	7.7755e-07	1590.4	417.93	8.0826e-07	7.5865e-07	474.52	159.33	136.69	46.538	7.7741e-07	57.54	98.056	32.913	31.490	-17.349	109.707	107.771	-17.822	-13.026	107.279	80.416	-13.793	-9.331	-8.879	-4.084	123.013	-5.233	-8191	255	
18998.738	1	1	0	0	0.078229	0.050415	0.4279	0.491	0.094611	0.26809	0.24073	0.25542	0.058232	0.014341	0.050599	0.17314	0.19004	0.052691	0.20571	0.32323	-4.25	-4.4479	-3.85	-5.1646	-4.0479	-4.1854	-4.9521	-4.075	-4.5604	-4.2396	-4.1104	-4.8792	-4.2354	-4.2125	-4.7458	-3.8979	94.145	239.045	166.478	291.025	303.175	204.479	302.840	296.265	-19.439	116.606	-3.166	315.356	259.047	63.112	200.430	299.791	0.00033963	0.00056851	0.00016169	1809.8	4.9318e-06	4.0751e-06	1831.3	480.99	5.1675e-06	7.4283e-06	556.86	185.49	159.45	53.843	6.2081e-06	67.375	8.2035e-05	6.962e-05	1.9998e-05	1567.7	8.1796e-07	7.7505e-07	1590	417.03	8.2973e-07	7.923e-07	474.21	159.02	136.1	46.311	8.1935e-07	57.273	93.564	35.272	-4.806	-17.694	90.904	81.910	-17.938	-13.083	100.164	91.271	-13.538	-9.109	-8.443	-4.055	140.503	-4.916	-8191	255	
18998.859	1	1	0	0	0.15653	0.11711	0.27201	0.23905	0.12433	0.082821	0.1259	0.044048	0.095277	0.058059	0.16044	0.2827	0.16261	0.13576	0.12822	0.23605	-4.15	-4.7	-3.7375	-4.9563	-4.1833	-3.8271	-4.875	-3.8917	-4.2354	-4.6417	-3.8833	-4.9875	-4.4458	-4.1271	-4.6771	-4.1021	12.506	-14.861	143.653	305.054	208.921	33.221	319.341	-17.519	105.953	101.764	-10.809	224.643	109.727	294.922	19.714	18.149	0.00033234	0.00026152	0.0001103	1807.1	4.5326e-06	3.5789e-06	1831.2	480.51	3.9707e-06	4.36e-06	555.53	184.72	159.35	53.9	7.4517e-06	67.312	8.415e-05	7.2982e-05	2.0182e-05	1566.1	8.2256e-07	7.9904e-07	1589	416.95	8.3036e-07	8.0974e-07	473.57	158.77	136.21	46.31	7.9953e-07	57.376	93.789	7.906	-1.706	-17.856	91.690	99.470	-17.978	-13.553	126.569	87.301	-13.961	-9.516	-8.987	-4.037	125.711	-5.019	-8191	255	
18998.953	1	1	0	0	0.15254	0.18063	0.11625	0.10287	0.079911	0.23252	0.16185	0.33489	0.22208	0.1889	0.086847	0.30498	0.2779	0.11356	0.10625	0.038949	-4.0083	-4.6125	-3.9354	-4.7833	-4.4854	-3.8896	-5.1542	-4.0396	-4.125	-4.7208	-3.9833	-4.7542	-4.6625	-3.9271	-4.9187	-4.1438	290.638	172.442	-11.576	-4.645	249.029	190.232	304.343	245.088	223.901	268.758	262.820	295.759	-21.898	191.150	182.460	62.231	0.00038253	0.00052241	0.00014386	1807.1	3.3072e-06	3.4214e-06	1831	483.54	2.572e-06	5.0008e-06	556.12	185.88	159.72	53.853	4.1035e-06	67.137	8.5349e-05	7.353e-05	2.0888e-05	1565.8	8.2746e-07	7.7809e-07	1590.7	417.56	8.2331e-07	7.9331e-07	473.78	158.94	136.07	46.338	8.274e-07	57.4	89.566	1.047	13.941	-17.735	75.060	107.298	-17.905	-13.443	129.185	54.800	-13.586	-9.347	-8.722	-4.163	104.946	-4.806	-8191	255	
18999.051	1	1	0	0	0.22637	0.16878	0.26314	0.30677	0.24319	0.15202	0.20406	0.014856	0.13029	0.14355	0.33587	0.11368	0.10864	0.043482	0.097669	0.11245	-3.7167	-4.7417	-3.6208	-4.7604	-4.3854	-3.8688	-5.125	-4.2312	-3.9833	-4.9417	-3.9646	-4.6104	-4.7333	-3.825	-4.6854	-4.4688	12.909	150.322	12.046	288.161	32.078	222.657	262.846	38.671	82.553	209.288	303.363	29.922	317.153	155.291	51.902	174.113	0.00035654	0.0004366	0.00012746	1809.9	4.2693e-06	3.6468e-06	1831.2	481.56	4.3281e-06	4.6137e-06	556.54	186.82	160.36	54.31	5.9059e-06	67.631	8.5093e-05	7.2419e-05	2.0624e-05	1567.6	8.3474e-07	8.0315e-07	1589.3	417.22	8.1951e-07	7.8434e-07	473.95	159.54	136.51	46.573	7.9043e-07	57.56	87.655	33.167	26.749	-17.650	93.153	101.006	-17.771	-13.116	104.872	97.765	-13.879	-9.566	-8.800	-4.742	119.531	-5.092	-8191	255	
18999.123	1	1	0	0	0.077049	0.061755	0.2883	0.37204	0.078386	0.14622	0.42823	0.25593	0.12197	0.12621	0.22802	0.13699	0.18608	0.14997	0.15536	0.25237	-3.6708	-4.6208	-3.9708	-4.4563	-4.5563	-3.7687	-4.8021	-4.3958	-3.8583	-4.7188	-3.8812	-4.4208	-4.825	-3.9083	-4.5271	-4.3917	-23.976	117.263	104.257	308.966	306.796	19.553	315.192	266.041	293.674	12.954	311.083	9.182	306.143	289.745	317.502	292.083	0.0003635	0.00046754	0.00010723	1804.8	4.7745e-06	4.1665e-06	1824.7	481.85	1.5706e-06	4.4939e-06	555.96	184.79	159.25	53.783	5.425e-06	67.429	8.2687e-05	7.0595e-05	1.9122e-05	1566	7.9433e-07	7.7439e-07	1587.4	416.6	8.1687e-07	7.7281e-07	474.12	158.74	136.15	46.33	7.9174e-07	57.296	97.946	35.027	9.596	-17.903	89.623	97.267	-18.006	-13.156	133.073	70.061	-13.977	-9.463	-9.099	-4.462	102.292	-5.186	-8191	255	
18999.242	1	1	0	0	0.22875	0.027996	0.091255	0.44766	0.012037	0.332	0.2231	0.45786	0.087933	0.17038	0.12176	0.20985	0.090421	0.16577	0.1214	0.13056	-3.5771	-4.8167	-4.0542	-4.3042	-4.6958	-3.7917	-4.7771	-4.5083	-3.8312	-4.725	-4.0542	-4.2417	-4.8562	-3.8708	-4.45	-4.6125	45.405	272.690	57.115	313.397	322.084	158.731	257.183	288.306	283.398	99.355	277.721	287.142	270.650	248.759	6.313	2.694	0.00035209	0.00040465	0.00010801	1802	2.3156e-06	2.6024e-06	1829.1	481.4	2.2504e-06	4.8158e-06	554.01	184.11	158.55	53.566	3.4063e-06	66.817	8.1808e-05	7.0917e-05	1.9928e-05	1561.6	7.9818e-07	7.8206e-07	1585.2	416.21	8.4956e-07	7.981e-07	472.22	157.96	135.42	46.047	8.3375e-07	56.981	92.308	57.457	46.468	-17.932	87.091	98.500	-17.970	-13.201	80.322	132.485	-13.838	-9.405	-9.129	-4.378	92.569	-5.017	-8191	255	
18999.340	1	1	0	0	0.041705	0.10981	0.26797	0.39646	0.25027	0.18534	0.31955	0.31384	0.24624	0.12286	0.31655	0.037937	0.093535	0.25642	0.22352	0.12067	-3.5896	-4.8021	-4.1604	-4.1687	-4.6438	-3.8229	-4.4875	-4.7375	-3.7292	-4.6771	-4.2812	-4.0229	-4.9812	-3.9292	-4.2708	-4.6604	52.430	315.625	142.371	309.729	279.826	173.571	293.842	323.056	253.799	102.732	224.823	320.514	255.547	310.260	298.724	267.172	0.00038683	0.0005245	0.00018718	1806.2	4.4562e-06	3.3377e-06	1825.6	478.37	4.123e-06	6.1306e-06	552.44	184.07	158.52	53.436	4.8704e-06	66.694	8.5834e-05	7.4818e-05	2.1411e-05	1564.4	8.6491e-07	8.6847e-07	1585.2	414.78	8.6482e-07	8.3122e-07	471.44	157.66	135.16	45.897	8.7104e-07	56.815	89.335	31.285	38.317	-17.954	79.839	64.867	-18.127	-13.014	146.060	88.847	-13.777	-9.499	-8.968	-4.514	131.581	-4.737	-8191	255	
18999.436	1	1	0	0	0.06824	0.24243	0.089626	0.24356	0.21803	0.058114	0.22387	0.24959	0.33761	0.23273	0.11162	0.22893	0.079002	0.32177	0.15769	0.17156	-3.3521	-4.5917	-4.1562	-3.9375	-4.6396	-3.8896	-4.3542	-4.8396	-3.6229	-4.4437	-4.5708	-3.7687	-4.9542	-4.1312	-4.0312	-4.8208	123.948	88.579	158.235	311.234	90.995	214.870	296.985	229.647	235.468	27.603	193.029	294.721	284.522	300.651	164.960	237.920	0.00034906	0.00062443	0.00011325	1806.4	5.577e-06	3.7067e-06	1824.5	476.9	1.568e-06	4.6256e-06	554.05	182.69	158.17	53.533	4.6084e-06	66.736	8.9903e-05	7.603e-05	2.1621e-05	1563.7	8.9164e-07	8.4674e-07	1586.4	415.09	8.8703e-07	8.7194e-07	472.02	157.65	135.11	45.985	8.7018e-07	56.849	86.567	46.058	38.125	-18.412	91.038	103.488	-18.449	-13.658	121.519	98.105	-13.962	-9.815	-9.302	-4.517	142.931	-5.382	-8191	255	
18999.531	1	1	0	0	0.25315	0.32202	0.096466	0.18045	0.13331	0.12544	0.34386	0.32691	0.23539	0.045292	0.090739	0.13842	0.082063	0.19411	0.1086	0.014995	-3.2729	-4.4062	-4.3479	-4.025	-4.5042	-4.1167	-4.2292	-4.925	-3.6625	-4.3417	-4.65	-3.7542	-4.7708	-4.2458	-3.9646	-4.85	38.183	302.828	226.612	13.846	154.790	195.344	309.026	296.288	316.951	15.712	97.846	251.861	297.794	311.367	56.969	325.936	0.00032254	0.0005296	0.00011106	1803	3.1204e-06	5.0479e-06	1827.9	479.75	3.8793e-06	3.6312e-06	554.61	183.28	158.19	53.352	2.7102e-06	66.749	9.1584e-05	8.1768e-05	2.2638e-05	1565.1	9.3063e-07	8.9452e-07	1588.1	415.88	9.4755e-07	9.0037e-07	472.27	157.74	135.04	45.863	9.3252e-07	56.845	93.034	37.456	36.388	-18.238	91.548	123.417	-18.371	-13.602	103.622	76.445	-13.905	-9.843	-9.050	-4.332	96.325	-5.113	-8191	255	
18999.652	1	1	0	0	0.19138	0.10622	0.12968	0.12143	0.10425	0.087825	0.17719	0.31444	0.069663	0.089639	0.11004	0.14037	0.15865	0.20959	0.21953	0.27915	-3.5729	-4.3313	-4.725	-3.9604	-4.6208	-4.3229	-4.1271	-4.8271	-3.8875	-4.3542	-4.8771	-4	-4.6917	-4.4333	-3.9458	-4.9229	105.358	24.155	225.745	136.124	242.436	218.466	278.578	262.330	93.359	26.671	-14.406	1.082	274.525	307.552	128.254	220.768	0.00035953	0.00046821	0.00011967	1809.2	4.6734e-06	3.6697e-06	1837.4	479.67	3.6328e-06	1.8249e-06	556.42	183.3	156.82	53.424	5.1568e-06	66.649	9.6629e-05	8.6126e-05	2.4012e-05	1570	9.717e-07	9.7943e-07	1594.1	415.82	1.0139e-06	9.6892e-07	473.76	157.53	134.8	45.874	9.8512e-07	56.89	100.512	47.011	7.825	-17.938	112.947	96.655	-18.122	-13.167	123.351	78.615	-13.865	-9.611	-8.960	-4.077	129.568	-5.173	-8191	255	
18999.748	1	1	0	0	0.08896	0.14957	0.055506	0.4264	0.14289	0.14378	0.17618	0.30283	0.017669	0.1387	0.12822	0.062457	0.23152	0.10128	0.059947	0.080606	-3.6562	-4.1333	-4.8667	-3.9667	-4.3938	-4.4208	-4.1354	-5.0083	-3.8396	-4.2125	-4.9208	-3.8229	-4.4771	-4.7688	-3.7792	-4.8417	54.870	218.120	133.332	252.313	123.086	312.064	251.696	-29.898	207.767	280.597	212.263	317.615	260.686	252.939	87.268	-4.531	0.00033352	0.00031657	0.00016232	1811.6	5.1312e-06	2.2678e-06	1836.7	479.66	2.6881e-06	4.426e-06	554.71	183.36	158.36	53.297	3.5357e-06	66.386	0.00010148	9.3086e-05	2.5248e-05	1573.5	1.0367e-06	1.0059e-06	1595.3	416.58	1.0689e-06	1.0105e-06	474.25	157.91	135.18	45.951	1.0708e-06	56.936	90.168	34.143	55.527	-17.968	102.522	80.187	-18.201	-13.388	123.176	130.940	-13.795	-9.596	-9.072	-4.034	131.067	-4.757	-8191	255	
18999.820	1	1	0	0	0.26754	0.20935	0.13519	0.078358	0.22544	0.17353	0.20353	0.28763	0.22517	0.18945	0.24508	0.16528	0.13128	0.086587	0.063386	0.33436	-3.6771	-3.8521	-4.6813	-4.0875	-4.35	-4.5333	-4.0813	-4.9417	-4.1813	-3.8917	-4.9958	-4.0917	-4.3438	-4.6771	-3.7896	-4.7021	192.849	320.267	177.398	15.757	326.697	21.405	220.130	225.066	116.317	183.287	158.305	268.776	270.700	243.238	242.868	300.201	0.00035975	0.00052487	7.9233e-05	1815	3.3228e-06	6.3844e-06	1842.6	480.08	3.1273e-06	4.9156e-06	556.11	184.46	158.07	53.801	4.3327e-06	66.562	0.00010539	9.6744e-05	2.6727e-05	1578.8	1.0614e-06	1.0293e-06	1600.6	417.72	1.0648e-06	1.0339e-06	474.92	158.14	135.64	46.041	1.0583e-06	57.016	100.815	43.332	36.866	-17.585	27.779	93.169	-17.988	-13.121	131.355	93.981	-13.373	-9.256	-8.732	-4.042	164.529	-4.969	-8191	255	
18999.939	1	1	0	0	0.19219	0.22469	0.14893	0.26706	0.073841	0.1094	0.27535	0.29388	0.12268	0.1405	0.05843	0.13674	0.1028	0.29994	0.096612	0.062404	-4.0958	-3.8792	-4.925	-4.2375	-4.0625	-4.7937	-3.8292	-4.7104	-4.2688	-3.8708	-4.9104	-4.0104	-4.2417	-4.7979	-3.6917	-4.5104	26.125	27.348	13.233	286.998	321.129	279.236	250.536	194.411	-27.563	238.475	237.807	249.130	246.455	222.003	160.261	190.755	0.00036026	0.00028542	6.953e-05	1822.6	2.567e-06	3.8592e-06	1846.5	480.11	1.7916e-06	4.1484e-06	558.58	184.87	158.33	53.675	5.6504e-06	66.939	0.00010439	9.3875e-05	2.5883e-05	1581.4	1.0321e-06	1e-06	1601.8	418.11	1.0265e-06	1.0007e-06	476.01	158.52	135.85	46.14	1.0222e-06	57.068	88.693	38.123	55.614	-18.226	97.365	108.817	-18.234	-13.753	129.677	79.137	-14.315	-9.891	-9.294	-4.521	104.444	-5.281	-8191	255	
19000.035	1	1	0	0	0.095126	0.041293	0.41195	0.43479	0.083927	0.087744	0.2067	0.19858	0.088734	0.19621	0.035578	0.054104	0.23403	0.12291	0.14969	0.30775	-3.9833	-3.7729	-4.5604	-4.325	-3.9458	-4.6729	-4.1208	-4.6917	-4.4938	-3.6271	-4.8146	-4.3021	-3.9271	-4.7521	-3.8625	-4.4042	292.042	-19.235	86.033	320.887	288.481	150.961	218.353	-18.744	273.943	15.796	-2.008	315.581	17.348	252.848	248.157	-3.283	0.00039261	0.00056465	0.00017543	1816.5	3.8886e-06	4.9898e-06	1846.3	480.36	4.4176e-06	3.5889e-06	556.76	183.88	158.85	53.555	4.7502e-06	66.942	0.00010234	9.0464e-05	2.5714e-05	1579.4	1.0615e-06	1.0118e-06	1600.7	418.17	1.0669e-06	1.0219e-06	475.44	158.01	135.73	46.143	1.0094e-06	57.168	97.646	38.663	18.940	-17.907	126.283	119.858	-18.155	-13.521	119.707	79.232	-13.805	-9.510	-8.827	-4.295	164.294	-5.312	-8191	255	
19000.133	1	1	0	0	0.17486	0.045874	0.20177	0.25289	0.13191	0.22516	0.27441	0.38608	0.18893	0.20275	0.18549	0.3198	0.13512	0.078226	0.067248	0.041437	-4.2875	-3.6771	-4.7021	-4.3229	-3.8229	-4.7792	-4.0479	-4.4708	-4.5687	-3.5438	-4.7104	-4.3333	-4.1104	-4.9771	-3.9083	-4.3521	75.661	254.694	14.252	269.145	78.409	276.621	314.098	285.201	176.160	325.379	-28.538	324.070	134.032	269.013	65.413	178.743	0.00041041	0.00065478	0.00011702	1814.1	3.4912e-06	2.9346e-06	1842.5	481.14	3.3621e-06	4.6977e-06	556.39	184.25	158.04	53.457	6.8886e-06	66.877	0.0001044	9.4336e-05	2.5975e-05	1579.2	1.0664e-06	9.969e-07	1600.3	417.13	1.0603e-06	1.0387e-06	475.31	158.23	135.63	46.056	1.0171e-06	57.064	86.957	32.004	39.857	-18.249	129.131	114.781	-18.616	-13.837	135.273	88.833	-14.377	-9.791	-9.503	-4.637	146.442	-5.495	-8191	255	
19000.252	1	1	0	0	0.20611	0.15231	0.32033	0.1462	0.19191	0.19831	0.14039	0.27141	0.098014	0.090201	0.36816	0.047195	0.21189	0.16951	0.22318	0.27331	-4.2188	-3.7792	-4.6208	-4.6208	-3.8167	-4.6896	-4.2458	-4.3125	-4.6229	-3.7958	-4.6562	-4.4354	-3.8292	-4.8229	-3.925	-4.0771	129.152	105.668	289.486	281.838	29.174	43.633	299.358	305.944	70.984	306.753	296.446	85.705	288.812	301.520	259.229	316.413	0.00037057	0.00041861	0.00017686	1821.4	4.5131e-06	3.6669e-06	1851.3	480.28	3.8328e-06	6.3459e-06	557.19	184.1	158.73	53.472	5.7399e-06	66.64	0.00010211	9.3939e-05	2.5585e-05	1582	1.0651e-06	1.0009e-06	1602.8	417.57	1.0406e-06	9.9913e-07	475.24	158.34	135.72	45.999	1.0295e-06	57.04	98.706	33.074	18.797	-18.334	118.945	107.464	-18.213	-13.404	98.784	80.109	-13.911	-9.422	-8.983	-4.060	127.951	-5.064	-8191	255	
19000.348	1	1	0	0	0.25887	0.18204	0.12084	0.24569	0.07645	0.25371	0.20471	0.20391	0.21187	0.15631	0.40691	0.30913	0.093928	0.14592	0.052534	0.25806	-4.5062	-3.7396	-4.4583	-4.6146	-3.9437	-4.7167	-4.3896	-4	-4.6708	-3.8542	-4.525	-4.5292	-3.9062	-4.7229	-4.0312	-3.9188	317.037	67.249	220.246	274.960	210.049	37.872	314.442	255.353	270.430	225.783	250.726	270.805	281.687	279.516	276.622	225.478	0.00040216	0.00036116	0.00019747	1819.3	4.9192e-06	8.4109e-07	1838.7	481.37	3.3427e-06	5.2833e-06	555.06	183.71	157.89	53.344	5.0917e-06	66.512	0.00010223	9.1305e-05	2.5424e-05	1579.1	1.0434e-06	1.016e-06	1599.2	417.34	1.0645e-06	1.0279e-06	474.46	157.99	135.16	45.967	1.0533e-06	56.858	93.672	11.456	35.188	-17.879	106.646	255.880	-18.260	-13.512	95.715	98.780	-13.916	-9.736	-9.354	-4.309	136.374	-5.361	-8191	255	
19000.420	1	1	0	0	0.17177	0.24932	0.12234	0.079677	0.16695	0.017618	0.23883	0.15676	0.15066	0.19472	0.18301	0.22037	0.21534	0.029204	0.073896	0.091635	-4.575	-3.9437	-4.1771	-4.7646	-3.6875	-4.6354	-4.5083	-4.1167	-4.7958	-3.9688	-4.2646	-4.6292	-3.7979	-4.7521	-4.4271	-3.9521	306.979	178.348	7.978	291.770	100.754	222.636	237.905	316.706	213.843	176.667	252.500	39.138	-28.775	-2.797	-23.605	-2.915	0.00038684	0.00031606	0.00020468	1820.9	3.5266e-06	2.4307e-06	1835.6	479.48	2.1795e-06	6.2167e-06	553.29	184.11	158.02	53.438	4.2938e-06	66.367	0.00010527	9.5027e-05	2.6214e-05	1580.3	1.0883e-06	9.994e-07	1598.6	416.97	1.0404e-06	1.0222e-06	473.9	157.89	135.62	46.06	1.0165e-06	56.979	89.956	38.275	40.282	-17.956	83.169	94.247	-18.123	-13.623	132.355	121.116	-14.115	-9.489	-9.054	-4.218	154.334	-5.092	-8191	255	
19000.539	1	1	0	0	0.26235	0.062448	0.16754	0.30564	0.27732	0.055594	0.20215	0.45405	0.10761	0.04682	0.14485	0.24474	0.29252	0.049889	0.22377	0.17622	-4.5979	-4.0667	-4.075	-5.0333	-3.5417	-4.5563	-4.7354	-3.8167	-4.675	-4.0333	-4.0729	-5.0583	-3.7812	-4.4875	-4.4417	-3.7812	108.278	204.234	202.871	327.478	190.729	78.027	267.997	313.208	306.386	84.789	18.006	292.478	308.516	-30.512	-21.161	234.555	0.00034307	0.00021256	9.9755e-05	1822.6	4.6485e-06	2.7666e-06	1849.1	479.62	4.8519e-06	3.0699e-06	556.96	183.45	157.74	53.559	4.4533e-06	66.877	0.00010275	9.3715e-05	2.5508e-05	1582.1	1.0565e-06	9.9133e-07	1601.4	416.97	1.0029e-06	1.0172e-06	474.51	158.06	135.55	46.071	1.0061e-06	57.047	93.162	23.941	13.313	-18.090	108.389	101.540	-18.115	-13.449	123.214	69.666	-13.944	-9.547	-9.000	-4.346	137.049	-5.419	-8191	255	
19000.637	1	1	0	0	0.085757	0.16292	0.053421	0.11391	0.09268	0.10677	0.084546	0.20098	0.13001	0.13398	0.19695	0.24789	0.24866	0.34365	0.2518	0.04519	-4.3063	-4.2417	-3.7979	-5.1083	-3.8417	-4.3854	-4.6562	-3.9292	-4.6021	-4.1521	-4.0875	-4.9208	-3.9896	-4.3583	-4.6708	-3.6937	145.694	226.571	287.295	233.543	267.426	242.395	323.029	-25.856	180.483	13.257	243.852	-17.506	-3.481	319.502	185.578	119.207	0.00035736	0.00031582	7.9667e-05	1814	4.2275e-06	3.4242e-06	1839.9	479.94	1.3773e-06	3.6244e-06	558.37	183.81	158.93	53.581	4.3612e-06	66.765	0.00010112	9.0616e-05	2.5116e-05	1577.3	1.0157e-06	1.006e-06	1598.5	416.17	1.003e-06	9.857e-07	475.24	157.98	135.75	46.067	9.6515e-07	56.929	99.906	19.080	33.617	-17.991	98.265	70.600	-18.214	-13.850	132.175	79.520	-14.028	-9.406	-8.582	-3.757	102.175	-4.937	-8191	255	
19000.732	1	1	0	0	0.17578	0.15986	0.062422	0.27582	0.11513	0.126	0.026943	0.33639	0.037955	0.078618	0.17369	0.10117	0.042525	0.20355	0.042589	0.11511	-4.2708	-4.2937	-3.8917	-4.9396	-4	-4.1021	-5.1021	-3.9833	-4.5417	-4.4	-3.8187	-4.9542	-4.2021	-4.225	-4.7208	-3.7521	159.497	314.092	7.197	297.655	160.927	-15.208	298.074	-27.592	118.039	88.051	26.402	221.640	258.702	286.326	44.495	-3.809	0.00040949	0.00047702	0.00020482	1817.7	4.1427e-06	4.9572e-06	1845.8	480.54	4.1584e-06	3.8042e-06	558.44	185.52	158.82	53.796	4.2511e-06	66.997	9.8421e-05	8.8735e-05	2.4469e-05	1577.8	1.0018e-06	9.4351e-07	1600.2	417.57	9.678e-07	9.568e-07	475.15	158.83	135.85	46.153	9.7355e-07	57.166	102.645	44.601	75.109	-17.787	80.197	105.547	-17.776	-13.192	130.291	87.835	-13.473	-9.354	-8.729	-4.270	171.971	-4.863	-8191	255	
19000.828	1	1	0	0	0.16069	0.062404	0.12661	0.26345	0.12291	0.089611	0.21079	0.071424	0.17317	0.17916	0.068647	0.22586	0.088055	0.12224	0.18523	0.033324	-4.1687	-4.4187	-3.7625	-4.8187	-4.0708	-3.9542	-5.0479	-3.9104	-4.2917	-4.5792	-3.8812	-4.8083	-4.2771	-4.1479	-4.5542	-3.9188	304.449	124.218	158.053	290.426	167.224	160.150	258.612	233.106	301.203	-9.419	121.883	277.669	198.809	299.528	263.807	-7.261	0.00039007	0.00044678	0.00015728	1820.4	4.1417e-06	3.5404e-06	1844.9	480.09	5.0602e-06	3.7611e-06	554.88	183.96	158.26	53.4	5.0493e-06	66.646	9.822e-05	8.6572e-05	2.4933e-05	1581.1	9.8942e-07	9.4978e-07	1600.9	416.9	9.9985e-07	9.5287e-07	474.71	158.28	135.92	46.115	9.9131e-07	57.024	98.840	21.521	46.881	-17.515	83.827	102.900	-17.716	-13.185	148.266	93.360	-13.624	-9.096	-8.497	-3.958	117.396	-4.687	-8191	255	
19000.949	1	1	0	0	0.27622	0.22406	0.055626	0.072109	0.23568	0.051331	0.37062	0.29189	0.1898	0.16542	0.15276	0.10728	0.12268	0.19268	0.25513	0.16027	-3.9833	-4.6979	-3.7	-4.8438	-4.0354	-3.8729	-4.8875	-4.0604	-4.0813	-4.7021	-3.8792	-4.575	-4.3771	-3.9062	-4.7771	-4.05	114.955	283.886	238.385	270.635	255.716	3.199	260.285	-15.745	192.605	142.526	232.367	225.041	231.924	325.904	54.386	-12.278	0.00037103	0.00040322	0.00020207	1822.1	3.3575e-06	3.6459e-06	1836.4	477.64	4.2916e-06	4.7965e-06	549.87	181.77	157.27	53.097	5.5921e-06	66.212	9.9146e-05	8.8961e-05	2.4654e-05	1581.8	1.0001e-06	9.7583e-07	1599.2	416.88	1.0172e-06	9.5968e-07	473.08	157.87	135.42	45.946	9.7229e-07	56.907	95.102	45.418	14.920	-17.511	95.446	99.583	-17.641	-12.835	105.037	59.758	-13.298	-8.862	-8.319	-4.060	126.634	-4.445	-8191	255	
19001.021	1	1	0	0	0.16684	0.091728	0.13166	0.18881	0.19099	0.36723	0.37708	0.21712	0.11333	0.13478	0.1101	0.25141	0.025639	0.20494	0.079258	0.15782	-3.8104	-4.6125	-3.6437	-4.7063	-4.5792	-3.8708	-4.9146	-4.0208	-4.1042	-4.8375	-3.7438	-4.4688	-4.6479	-3.7229	-4.6646	-4.1396	297.256	207.580	267.132	23.457	197.029	11.658	261.443	306.621	259.944	38.911	232.183	249.394	74.141	314.854	-15.890	78.920	0.00032755	0.00041478	0.00012245	1804.3	6.3117e-06	5.2515e-06	1826.3	480.15	2.8295e-06	4.2422e-06	554.16	184.75	158.11	53.332	4.5343e-06	66.458	9.7972e-05	8.9795e-05	2.446e-05	1576.1	1.0153e-06	9.8899e-07	1595.5	416.84	1.0116e-06	9.685e-07	474.04	158.29	135.49	46.011	9.8092e-07	56.97	101.552	75.928	15.230	-17.621	159.726	95.180	-17.582	-13.039	121.736	98.653	-13.443	-9.187	-8.476	-3.945	109.054	-4.832	-8191	255	
19001.115	1	1	0	0	0.12114	0.30835	0.11074	0.22864	0.16381	0.28856	0.21853	0.13703	0.20377	0.13155	0.13448	0.19	0.066272	0.13045	0.064735	0.079369	-3.6562	-4.7604	-3.7792	-4.4	-4.4854	-3.7958	-4.9	-4.3187	-3.8646	-4.8458	-3.8312	-4.3333	-4.6208	-3.7896	-4.3812	-4.375	78.469	114.909	84.350	258.093	181.872	169.301	240.019	289.674	233.756	83.193	5.980	317.003	316.372	255.387	276.563	276.281	0.0004182	0.00032463	0.00016648	1819.6	3.2816e-06	3.2963e-06	1847.1	480.16	3.7295e-06	6.4724e-06	557.75	184.11	158.55	53.536	7.8561e-06	66.793	0.00010012	8.8619e-05	2.5557e-05	1578.5	1.0194e-06	9.9919e-07	1599.1	416.74	1.0083e-06	9.8315e-07	474.77	158.21	135.67	46.059	1.0014e-06	56.967	86.969	31.515	20.239	-17.681	116.977	119.284	-18.011	-13.132	106.417	92.431	-13.601	-9.278	-8.574	-4.336	114.807	-5.210	-8191	255	
19001.213	1	1	0	131072	0.062127	0.079599	0.056778	0.25363	0.27834	0.23459	0.16323	0.25672	0.19013	0.19329	0.047226	0.25748	0.17694	0.063724	0.12892	0.13883	-3.4688	-4.7896	-3.9542	-4.2458	-4.6167	-3.7667	-4.7583	-4.6375	-3.7562	-4.6646	-4.0104	-4.1417	-4.6958	-3.8854	-4.4208	-4.5312	168.399	182.935	179.398	298.790	324.094	39.862	295.617	252.132	300.014	169.399	121.280	316.917	50.005	176.364	73.208	275.604	0.0003529	0.00051879	9.2172e-05	1818.9	1.9721e-06	2.4242e-06	1838.3	480.17	3.5025e-06	5.2785e-06	554.24	183.94	159.23	53.493	5.405e-06	66.986	0.00010162	9.0925e-05	2.5213e-05	1580	1.0421e-06	1.0034e-06	1600.4	416.82	1.0325e-06	9.6752e-07	474.24	158.2	135.97	46.032	9.7707e-07	57.084	94.866	24.714	23.559	-18.021	98.650	129.625	-17.784	-13.094	90.234	94.858	-13.621	-9.598	-8.845	-4.237	126.135	-5.169	-8191	255	
19001.332	1	1	0	0	0.074227	0.32749	0.14247	0.090079	0.025831	0.12504	0.14101	0.19	0.17393	0.1254	0.18557	0.16865	0.14887	0.14733	0.22606	0.279	-3.3833	-4.7438	-3.9917	-4.0896	-4.7083	-3.7292	-4.5938	-4.5563	-3.7125	-4.7604	-4.2542	-4.0062	-4.9208	-4	-4.3021	-4.5312	51.417	132.604	24.947	307.889	276.234	103.651	160.807	277.834	92.110	138.166	-21.919	225.442	188.776	291.738	140.938	283.693	0.00029408	0.00062384	0.00017412	1817.2	1.8271e-06	3.5781e-06	1837.1	481	3.0623e-06	3.6687e-06	556.7	184.01	158.64	53.721	5.4495e-06	66.286	0.00010092	8.6548e-05	2.4511e-05	1579.7	9.8963e-07	9.7019e-07	1599.7	417.32	9.9066e-07	9.5411e-07	474.67	158.2	135.8	46.101	9.8228e-07	56.925	98.045	44.089	46.006	-18.260	134.611	111.851	-18.163	-13.396	125.877	107.918	-14.057	-9.916	-9.044	-4.424	163.354	-5.165	-8191	255	
19001.428	1	1	0	0	0.19191	0.23653	0.19696	0.21949	0.1832	0.17993	0.12749	0.17498	0.15728	0.083241	0.21643	0.26564	0.05157	0.081205	0.25172	0.024397	-3.3708	-4.7	-4.1562	-4.1167	-4.7958	-3.9521	-4.3542	-4.7438	-3.7792	-4.525	-4.3688	-3.9	-4.8646	-4.0104	-4.0833	-4.8187	224.680	16.234	149.104	270.095	208.357	75.882	324.591	-19.300	169.824	223.473	217.053	300.069	32.168	1.013	106.135	-9.774	0.00042978	0.00027378	0.00012506	1818.7	3.6476e-06	3.4255e-06	1847.9	480.69	3.7682e-06	4.5898e-06	554.23	183.63	158.79	53.552	4.2589e-06	66.991	0.00010116	8.8244e-05	2.4573e-05	1577.8	1.014e-06	9.6856e-07	1600.7	417.4	9.9052e-07	9.4847e-07	474.03	158.27	135.88	46.054	9.7595e-07	57.106	96.631	12.264	47.134	-18.127	80.084	106.822	-17.999	-13.567	117.263	126.072	-13.574	-9.618	-9.123	-4.578	115.523	-5.283	-8191	255	
19001.523	1	1	0	0	0.14974	0.2253	0.11153	0.085516	0.23199	0.48085	0.34888	0.065668	0.31529	0.1169	0.31522	0.091695	0.31904	0.16553	0.052856	0.28486	-3.3292	-4.4333	-4.3833	-4.0292	-4.6958	-4.0583	-4.1604	-4.8375	-3.7583	-4.4021	-4.5917	-3.8583	-4.8167	-4.2042	-3.9	-4.7937	174.264	212.569	279.668	292.082	91.738	321.563	260.797	322.478	114.255	81.245	274.157	-22.688	-27.899	314.390	201.400	162.047	0.00037688	0.00033018	0.00011711	1820.3	5.769e-06	1.3379e-06	1845	480.78	2.6004e-06	4.1287e-06	554.67	184.37	158.93	53.509	3.9769e-06	66.569	9.8958e-05	8.7719e-05	2.4592e-05	1577.8	1.0008e-06	9.4742e-07	1599.9	417	1.0048e-06	9.7798e-07	473.42	158.26	135.78	45.943	9.9061e-07	56.941	96.662	-17.639	15.210	-18.130	109.783	110.415	-18.095	-13.336	114.118	122.782	-13.964	-9.443	-8.935	-4.431	91.112	-5.030	-8191	255	
19001.619	1	1	0	0	0.15152	0.12404	0.10051	0.35465	0.11737	0.013567	0.085423	0.058	0.12864	0.19882	0.21847	0.14849	0.15023	0.20805	0.20396	0.20803	-3.4396	-4.5417	-4.4229	-3.9313	-4.5833	-4.1333	-4.0354	-4.8771	-3.7417	-4.2854	-4.675	-3.7562	-4.5042	-4.4292	-3.8521	-4.8854	289.268	151.466	7.178	269.314	86.818	34.038	293.860	259.118	96.876	290.149	247.336	312.058	289.113	299.733	109.352	304.042	0.00037007	0.0004204	0.00016867	1816.8	5.8312e-06	2.2492e-06	1836.1	479.66	3.8084e-06	3.9868e-06	553.73	183.5	158.72	53.211	7.9805e-06	66.439	0.00010033	8.8658e-05	2.4945e-05	1577.3	1.0175e-06	9.9818e-07	1596.3	416.04	1.0361e-06	1.0115e-06	473.38	157.71	135.42	45.825	1.0518e-06	56.833	99.060	30.862	36.201	-18.016	91.005	103.488	-18.181	-13.389	139.943	78.773	-13.619	-9.672	-8.781	-4.303	112.614	-5.040	-8191	255	
19001.717	1	1	0	0	0.13051	0.23008	0.16603	0.30391	0.1359	0.0078805	0.35647	0.1951	0.18485	0.15776	0.23006	0.232	0.12055	0.091373	0.14815	0.14202	-3.4833	-4.2479	-4.7042	-3.9875	-4.4625	-4.2833	-4.0958	-4.8187	-4.0437	-3.9938	-4.9104	-4	-4.6375	-4.4917	-3.8833	-4.9396	21.229	296.727	49.063	293.617	218.676	203.229	272.643	208.029	211.851	289.612	311.168	286.575	245.773	169.689	276.844	14.993	0.00035744	0.00041728	8.7663e-05	1817.5	4.6964e-06	2.6412e-06	1842.5	481.83	3.9618e-06	9.3458e-07	553.77	183.45	158.76	53.715	5.5954e-06	66.657	0.00010289	9.334e-05	2.5457e-05	1578.8	1.0241e-06	1.0061e-06	1598.9	417.77	1.0442e-06	1.0152e-06	473.39	157.9	135.68	46.15	1.0137e-06	56.961	97.004	11.645	44.705	-17.985	102.250	91.894	-18.198	-13.269	113.586	24.557	-13.852	-9.539	-9.098	-4.077	121.362	-4.957	-8191	255	
19001.812	1	1	0	0	0.191	0.21439	0.23913	0.33846	0.30872	0.032895	0.12335	0.13222	0.1379	0.17476	0.084379	0.11543	0.33296	0.47092	0.10676	0.21223	-3.6896	-4.0062	-4.675	-3.9	-4.3417	-4.4958	-3.9292	-4.8917	-4.1875	-4.0188	-4.7958	-4.0208	-4.4396	-4.5479	-3.7521	-4.7771	82.465	82.881	124.498	307.695	11.048	22.968	241.884	274.046	123.087	265.488	297.377	205.331	306.726	249.975	89.548	256.366	0.00034354	0.00051992	0.00018182	1819.8	3.7007e-06	5.0462e-06	1839.4	479.93	3.3731e-06	2.3083e-06	556.19	183.65	158.61	53.401	2.1064e-06	66.631	0.00010053	9.1412e-05	2.472e-05	1581.3	1.0566e-06	1.0011e-06	1601.3	417.23	1.0696e-06	1.038e-06	474.97	157.78	135.45	45.907	1.0693e-06	56.966	79.782	27.459	10.061	-17.729	92.857	105.223	-17.955	-13.124	66.008	85.213	-13.420	-9.337	-8.854	-4.157	100.456	-4.536	-8191	255	
19001.934	1	1	0	0	0.24795	0.056893	0.1547	0.28202	0.066526	0.06771	0.21622	0.10646	0.094686	0.12961	0.20355	0.28856	0.17076	0.10058	0.24222	0.15861	-3.8563	-3.9896	-4.6896	-4.1125	-4.1625	-4.5917	-3.8937	-4.7396	-4.175	-3.7208	-4.8083	-4.0583	-4.3229	-4.7125	-3.6729	-4.7417	27.665	317.649	245.331	214.977	212.530	181.831	233.042	255.456	219.379	217.898	287.880	283.539	90.918	324.986	-10.772	-22.315	0.00037272	0.00051908	0.00011309	1819.3	4.6701e-06	3.6352e-06	1836.6	480.14	4.5556e-06	6.8999e-06	553.6	184.36	158.54	53.486	1.74e-06	66.899	0.00010596	9.7583e-05	2.643e-05	1579.2	1.0934e-06	1.0601e-06	1599.9	416.91	1.1084e-06	1.0822e-06	473.6	158.26	135.57	45.963	1.073e-06	57.039	91.578	27.339	23.252	-17.760	48.193	107.536	-17.929	-13.138	127.084	97.997	-13.512	-9.378	-8.660	-3.881	119.416	-4.606	-8191	255	
19002.029	1	1	0	0	0.049134	0.138	0.31037	0.14504	0.15627	0.09001	0.20885	0.043896	0.18465	0.12681	0.13548	0.1355	0.38269	0.047054	0.23656	0.1403	-4.0667	-3.8479	-4.7063	-4.1292	-4.0917	-4.5292	-3.8146	-4.7188	-4.5542	-3.7521	-4.8938	-4.1854	-4.0292	-4.8167	-3.7146	-4.3604	76.184	80.338	70.016	-11.440	62.879	255.836	255.619	303.228	317.854	119.243	307.687	-1.163	-22.322	180.957	-18.162	242.875	0.00033695	0.00071646	0.00025501	1818.9	2.132e-06	2.873e-06	1844.4	480.83	1.1811e-06	5.8745e-06	556.37	183.02	158	53.524	5.1673e-06	66.554	0.00010683	9.902e-05	2.6856e-05	1582	1.1199e-06	1.0559e-06	1601.4	417.02	1.078e-06	1.0571e-06	474.62	157.75	135.37	46.024	1.1236e-06	56.976	97.191	37.670	41.764	-17.658	79.132	107.601	-18.201	-13.366	141.747	105.479	-14.023	-9.713	-9.264	-4.061	94.807	-4.948	-8191	255	
19002.123	1	1	0	0	0.27285	0.16862	0.1547	0.3462	0.080172	0.1279	0.35754	0.093064	0.16572	0.1766	0.14508	0.24848	0.081008	0.14657	0.13751	0.15587	-4.1417	-3.7375	-4.6438	-4.3021	-3.8312	-4.6708	-3.9062	-4.45	-4.4896	-3.75	-4.5312	-4.2792	-4.1208	-4.9167	-3.6771	-4.3229	95.052	128.588	256.964	283.270	262.993	312.000	283.235	255.610	42.751	174.605	320.601	282.657	209.646	285.572	275.818	47.741	0.00038028	0.00052182	9.8921e-05	1822.6	2.1761e-06	3.0772e-06	1843.1	480.38	2.6401e-06	7.3281e-06	554.31	183.23	158.13	53.376	8.2756e-06	66.587	0.00010925	0.00010053	2.7382e-05	1583.2	1.1387e-06	1.0939e-06	1601.4	416.95	1.1141e-06	1.0912e-06	474.14	157.54	135.35	45.928	1.117e-06	56.949	96.143	30.079	47.545	-18.070	161.828	57.867	-18.145	-13.705	142.252	131.127	-14.070	-9.501	-9.024	-4.203	141.677	-5.210	-8191	255	
19002.221	1	1	0	0	0.13261	0.25874	0.073126	0.34571	0.085183	0.13982	0.19591	0.17436	0.010031	0.14514	0.27035	0.030786	0.32704	0.15642	0.060849	0.3019	-4.4229	-3.7125	-4.6062	-4.5437	-3.8333	-4.675	-4.1937	-4.2521	-4.4042	-3.6417	-4.7312	-4.4729	-3.9542	-4.7917	-4.05	-4.1458	-19.397	243.113	63.400	316.573	299.615	-10.402	268.671	292.959	292.532	319.689	247.002	297.360	288.925	-30.217	22.012	226.468	0.00030629	0.00022831	0.00015767	1823.3	5.2337e-06	4.8466e-06	1841.8	480.37	2.1567e-06	3.0461e-06	555.56	183.36	158.43	53.263	5.5752e-06	66.777	0.00010944	9.8807e-05	2.7219e-05	1582.3	1.1309e-06	1.0838e-06	1601.6	416.91	1.1148e-06	1.1047e-06	474.64	157.8	135.31	45.892	1.1236e-06	56.966	82.274	44.965	22.874	-18.048	126.486	105.462	-18.290	-13.533	151.989	63.115	-13.862	-9.478	-9.173	-4.464	110.586	-5.327	-8191	255	
19002.316	1	1	0	0	0.15445	0.21735	0.15442	0.13089	0.18727	0.028207	0.18323	0.21824	0.079371	0.24589	0.23317	0.30581	0.28354	0.21163	0.08899	0.16245	-4.3875	-3.8333	-4.4688	-4.6646	-3.8229	-4.7396	-4.3021	-4.1396	-4.6813	-3.9292	-4.4896	-4.4646	-3.8083	-4.7271	-4.1542	-4.1854	278.261	288.753	68.111	309.288	186.712	201.666	276.669	288.109	66.158	-20.705	262.587	284.636	-7.388	-24.143	134.869	258.254	0.00037545	0.00051621	0.00010831	1822.4	3.6701e-06	4.2137e-06	1846	480.19	3.1434e-06	3.4743e-06	554.13	183.78	158.38	53.331	3.0594e-06	66.201	0.00010719	0.00010052	2.7955e-05	1582.9	1.1141e-06	1.0524e-06	1601.4	417.34	1.0877e-06	1.0778e-06	474.23	158.11	135.54	45.921	1.0813e-06	56.79	103.106	75.141	54.518	-17.892	113.470	95.442	-18.052	-13.518	149.189	89.311	-14.079	-9.368	-8.985	-4.498	34.000	-5.235	-8191	255	
19002.412	1	1	0	0	0.060971	0.088371	0.083974	0.23355	0.087405	0.018386	0.14312	0.24523	0.21357	0.19515	0.36363	0.21258	0.34682	0.1229	0.12681	0.20288	-4.2958	-3.7896	-4.2604	-4.825	-3.6042	-4.5437	-4.3792	-4.1438	-4.7292	-3.7687	-4.3125	-4.7167	-3.8063	-4.5021	-4.3438	-3.8333	120.348	295.208	153.497	268.602	297.247	325.277	258.028	296.720	305.048	218.123	291.562	239.297	309.413	-17.327	102.862	294.138	0.00031906	0.00037241	0.00019637	1817.5	6.359e-06	3.4869e-06	1843.7	479.97	4.5182e-06	7.5283e-06	554.17	183.49	158.2	53.207	7.034e-06	66.424	0.00011129	0.00010028	2.7946e-05	1580.4	1.1484e-06	1.1155e-06	1600.4	417.13	1.1462e-06	1.1335e-06	473.85	157.54	135.3	45.87	1.1377e-06	56.723	105.460	41.289	27.162	-17.994	101.640	112.613	-18.039	-13.451	163.837	79.048	-13.575	-9.444	-8.912	-4.294	98.234	-5.182	-8191	255	
19002.508	1	1	0	0	0.23729	0.10536	0.12788	0.36324	0.19614	0.11148	0.4819	0.21173	0.11912	0.07434	0.076235	0.2964	0.1388	0.22619	0.19396	0.12794	-4.4688	-3.8937	-4.0687	-4.7688	-3.7125	-4.5667	-4.5417	-4.0312	-4.6229	-4.1271	-4.0917	-4.6833	-3.7479	-4.5104	-4.5167	-3.975	26.404	47.979	196.007	304.581	129.066	193.649	251.355	-16.083	16.574	316.710	-29.631	-25.964	43.781	183.037	163.600	33.740	0.00035787	0.00041233	0.00018813	1825.7	3.0489e-06	2.284e-06	1839.9	479.43	5.2423e-06	4.7021e-06	555	182.97	157.59	53.243	8.2625e-06	66.442	0.00011254	0.00010301	2.8925e-05	1581.6	1.1554e-06	1.1173e-06	1600.5	416.62	1.1649e-06	1.1128e-06	474.3	157.6	134.95	45.769	1.1632e-06	56.716	94.710	54.178	27.806	-17.821	147.281	150.710	-17.908	-13.387	136.268	122.907	-13.886	-9.232	-9.110	-4.042	116.033	-5.108	-8191	255	
19002.629	1	1	0	0	0.14334	0.13493	0.085814	0.19702	0.14921	0.064626	0.22839	0.24742	0.11292	0.037794	0.31365	0.050135	0.14048	0.25367	0.06989	0.21683	-4.5708	-4.0583	-3.9354	-4.9146	-3.7062	-4.5021	-4.8542	-3.9042	-4.6062	-4.2729	-4.0604	-4.8187	-3.9562	-4.3063	-4.5979	-3.8875	275.077	306.538	71.497	319.246	189.781	252.755	310.462	-21.307	191.722	215.331	325.816	44.615	311.829	270.570	264.614	133.677	0.00026012	0.00071341	0.0001904	1817.5	4.2897e-06	3.4731e-06	1846.7	479.31	5.4202e-06	3.3867e-06	556.24	183.64	157.78	53.002	2.8579e-06	66.243	0.00011458	0.00010453	2.9446e-05	1581	1.2061e-06	1.1421e-06	1603.4	415.85	1.1624e-06	1.1385e-06	473.98	157.36	135.08	45.741	1.1726e-06	56.707	98.779	52.496	25.199	-17.696	90.349	48.266	-18.022	-13.374	105.797	102.932	-14.017	-9.520	-8.963	-4.388	42.644	-5.685	-8191	255	
19002.725	1	1	0	0	0.25065	0.10071	0.10252	0.3222	0.17582	0.061225	0.15155	0.33971	0.20758	0.13556	0.036877	0.14521	0.15213	0.04422	0.078346	0.025812	-4.4479	-4.2625	-3.8292	-4.9625	-3.8229	-4.1583	-4.9167	-3.9417	-4.4354	-4.2937	-3.9958	-4.8417	-4.1188	-4.1312	-4.6604	-3.8417	321.490	56.715	238.242	285.309	73.798	244.443	-30.861	-22.758	284.234	6.793	283.471	244.237	281.997	293.418	204.076	-0.217	0.00045017	0.00043522	0.0001695	1823.3	2.5984e-06	3.9335e-06	1840.4	477.45	4.1346e-06	3.9829e-06	555.84	183.4	157.05	53.103	2.1043e-06	66.261	0.00011844	0.00010658	2.9818e-05	1583.8	1.2006e-06	1.1516e-06	1600.6	415.89	1.1804e-06	1.1629e-06	474.45	157.33	134.83	45.802	1.1739e-06	56.709	89.903	20.186	24.156	-18.317	105.694	79.599	-18.429	-13.860	173.379	78.759	-14.381	-9.865	-9.302	-4.647	158.392	-5.071	-8191	255	
19002.820	1	1	0	0	0.16795	0.066643	0.20819	0.094823	0.102	0.22993	0.26712	0.16105	0.060591	0.12042	0.16649	0.10546	0.14282	0.35716	0.11958	0.22244	-4.1	-4.625	-3.8396	-4.8833	-3.9188	-4.0563	-4.9333	-3.9646	-4.2771	-4.5021	-3.9917	-4.7833	-4.2021	-4.1354	-4.4917	-3.8771	222.583	328.492	224.572	-25.375	147.527	40.129	289.897	270.324	37.065	-26.469	269.710	196.452	80.947	315.574	-26.351	252.855	0.00038717	0.00043863	0.0001441	1817.9	6.1896e-06	2.8296e-06	1844.7	480.29	3.9984e-06	4.0546e-06	554.24	183.24	157.52	53.091	2.2141e-06	66.289	0.00011796	0.00010738	3.0126e-05	1581.8	1.2289e-06	1.1887e-06	1602.1	416.73	1.2292e-06	1.1819e-06	474.1	157.58	135.13	45.859	1.213e-06	56.816	102.682	56.153	58.489	-18.092	120.043	93.438	-18.195	-13.521	136.967	87.616	-14.084	-9.821	-9.193	-4.562	53.732	-5.316	-8191	255	
19002.918	1	1	0	0	0.067752	0.13064	0.11266	0.23031	0.095482	0.022885	0.18592	0.23065	0.16391	0.23025	0.14183	0.243	0.4055	0.18814	0.061889	0.066422	-3.9979	-4.6396	-3.7375	-5.0083	-4.1958	-3.9021	-4.9792	-4.1562	-4.2292	-4.6208	-3.8625	-4.7292	-4.4062	-4.0396	-4.6458	-4.1104	34.953	177.570	206.133	285.048	318.949	258.173	310.745	286.680	168.100	261.814	117.917	292.908	11.448	244.709	103.195	115.255	0.00035445	0.00032821	0.00017353	1817.3	9.7081e-07	2.8817e-06	1837.3	479.29	3.3871e-06	4.6285e-06	555.46	183.53	158.28	53.086	6.7696e-06	66.17	0.00012226	0.00011131	3.1223e-05	1584.7	1.265e-06	1.228e-06	1602.1	416.67	1.2403e-06	1.2076e-06	474.76	157.84	135.54	45.86	1.2395e-06	56.724	97.772	42.020	37.573	-18.209	151.748	104.402	-18.282	-13.762	103.491	99.508	-14.116	-9.705	-9.160	-4.486	125.832	-5.471	-8191	255	
19003.012	1	1	0	0	0.19039	0.25125	0.10455	0.24779	0.081811	0.169	0.242	0.16419	0.10553	0.10276	0.24057	0.14208	0.086602	0.24668	0.19832	0.26004	-3.8917	-4.7708	-3.625	-4.8792	-4.4042	-3.7687	-4.9542	-4.1271	-3.8812	-4.6188	-3.9229	-4.4021	-4.5229	-3.875	-4.6771	-4.1417	202.432	215.192	136.451	317.497	271.362	297.078	310.755	301.705	72.437	75.824	285.256	166.318	281.398	220.102	319.968	236.460	0.00033127	0.00067824	0.00014306	1822.9	7.1148e-06	4.7775e-06	1845.3	480.65	4.1246e-06	4.9291e-06	554.98	183.41	157.52	53.275	2.2107e-06	66.482	0.00012277	0.00011284	3.1258e-05	1584.8	1.2821e-06	1.2488e-06	1604.3	417.46	1.2934e-06	1.2548e-06	474.38	157.91	135.56	45.918	1.3099e-06	56.896	87.931	38.908	17.510	-18.260	100.529	79.070	-18.442	-13.553	113.091	76.940	-13.930	-9.968	-9.197	-4.384	132.335	-5.325	-8191	255	
19003.107	1	1	0	0	0.2619	0.18195	0.031434	0.13159	0.19036	0.1177	0.076256	0.19521	0.024207	0.10002	0.21418	0.15802	0.065798	0.20359	0.10407	0.1956	-3.6854	-4.6271	-3.9979	-4.6375	-4.5729	-3.4833	-4.9292	-4.2812	-3.7333	-4.7833	-3.9708	-4.2417	-4.8229	-3.9375	-4.5375	-4.3125	44.934	264.724	50.941	281.507	-1.410	13.680	257.702	294.251	105.188	72.283	303.374	264.675	302.244	266.185	76.288	30.624	0.00034733	0.00049582	0.00011392	1822.8	3.1137e-06	5.9742e-06	1850	480.07	4.7403e-06	5.7209e-06	554.68	182.78	158.75	53.139	5.0501e-06	66.503	0.00013143	0.00012279	3.4872e-05	1587.6	1.4098e-06	1.4116e-06	1606.8	417.95	1.4695e-06	1.4394e-06	475.63	157.86	135.67	45.975	1.485e-06	57.057	92.386	67.581	28.151	-18.307	50.916	95.120	-18.298	-13.909	128.442	123.980	-14.380	-10.184	-9.341	-4.688	121.282	-5.466	-8191	255	
19003.203	1	1	0	0	0.24052	0.099591	0.12116	0.42704	0.078736	0.13549	0.25138	0.09626	0.077136	0.044675	0.10639	0.13006	0.089455	0.2518	0.21692	0.28988	-3.5729	-4.7396	-3.7625	-4.4812	-4.6229	-3.6167	-4.7562	-4.4563	-3.8604	-4.7833	-4.1062	-4.1979	-4.7063	-3.8646	-4.375	-4.4396	322.721	112.909	103.987	289.549	142.415	301.639	240.076	274.195	84.842	75.611	242.859	278.641	188.679	-29.326	187.509	275.970	0.00042123	0.00037743	0.00014052	1824.3	6.1835e-06	3.2342e-06	1848.6	480.27	3.5948e-06	4.2911e-06	553.83	182.89	157.46	53.268	6.3634e-06	66.372	0.00014708	0.00013808	3.9581e-05	1588.3	1.592e-06	1.5764e-06	1607.7	418.13	1.6314e-06	1.597e-06	475.89	157.98	135.51	46.017	1.654e-06	57.049	89.080	26.958	49.859	-18.260	157.175	102.339	-18.275	-13.576	122.619	141.818	-14.190	-9.859	-9.223	-4.677	97.425	-5.308	-8191	255	
19003.301	1	1	0	0	0.13879	0.037131	0.27664	0.053754	0.11617	0.18247	0.13891	0.15496	0.26499	0.14713	0.22883	0.14823	0.27972	0.064169	0.10572	0.088751	-3.5229	-4.6854	-4.1708	-4.1854	-4.7188	-3.8438	-4.6729	-4.5229	-3.6979	-4.6479	-4.1438	-4.1708	-4.8417	-3.8917	-4.1917	-4.5521	294.634	237.458	273.841	318.731	54.086	136.853	246.010	-30.323	102.101	155.219	201.270	292.043	5.063	233.082	167.971	230.960	0.00036133	0.00039465	0.00016227	1820.9	4.1547e-06	2.0256e-06	1841.7	480.16	1.6866e-06	2.963e-06	554.13	182.55	157.44	53.36	5.6096e-06	66.242	0.0001616	0.00014867	4.2508e-05	1589.2	1.6896e-06	1.6741e-06	1609.6	418.24	1.7494e-06	1.7108e-06	476.24	158.19	135.75	46.113	1.7776e-06	57.079	97.214	47.228	34.528	-18.116	79.106	95.534	-18.287	-13.598	124.068	96.941	-14.099	-9.805	-9.208	-4.395	93.931	-5.525	-8191	255	
19003.422	1	1	0	0	0.013676	0.12028	0.072543	0.22526	0.15876	0.12463	0.33954	0.20989	0.16996	0.056548	0.10965	0.22871	0.18547	0.20468	0.20951	0.1465	-3.4792	-4.4625	-4.1708	-3.9958	-4.5458	-3.7417	-4.3313	-4.6875	-3.6937	-4.5	-4.2833	-4.0188	-4.925	-3.9875	-4.1458	-4.725	-6.252	18.326	-20.932	290.348	253.902	46.524	278.823	261.439	204.157	218.390	-2.186	206.333	313.225	258.188	152.029	317.939	0.00037704	0.00090547	0.00020346	1824.4	5.3537e-06	2.4951e-06	1845.7	479.31	3.644e-06	9.0493e-06	554.71	182.97	157.69	53.118	5.3918e-06	66.621	0.00016739	0.00016206	4.4568e-05	1590	1.798e-06	1.7955e-06	1609.2	418.64	1.814e-06	1.8169e-06	476.97	158.35	136.23	46.112	1.8516e-06	57.174	101.256	29.990	29.373	-18.287	76.218	93.809	-18.397	-13.615	100.698	110.873	-14.068	-9.737	-9.250	-4.649	153.899	-5.478	-8191	255	
19003.518	1	1	0	0	0.33478	0.18391	0.039323	0.44643	0.080996	0.11521	0.34463	0.29817	0.25507	0.22829	0.21608	0.20885	0.072449	0.33247	0.043876	0.10073	-3.4333	-4.4146	-4.15	-4.0708	-4.6312	-4.0625	-4.3625	-4.7833	-3.8333	-4.5292	-4.4729	-3.8167	-4.8292	-4.1583	-3.9125	-4.7292	195.864	-20.256	123.091	307.890	290.076	185.378	225.478	313.461	311.320	165.296	306.172	-11.408	300.422	281.290	123.555	36.547	0.00037404	0.00069321	0.00015482	1821.3	2.7702e-06	4.8974e-06	1849.7	479.75	3.756e-06	6.2609e-06	554.22	182.5	157.61	53.303	3.7286e-06	66.525	0.00017955	0.00017083	4.716e-05	1590.3	1.922e-06	1.8773e-06	1610.7	419.23	1.9448e-06	1.9156e-06	476.42	158.58	135.96	46.167	1.8937e-06	57.189	81.805	63.688	28.334	-18.074	68.258	74.375	-18.225	-13.308	144.190	75.891	-13.668	-9.690	-9.092	-4.429	124.755	-5.094	-8191	255	
19003.613	1	1	0	0	0.15854	0.04431	0.29295	0.3538	0.028376	0.17141	0.26968	0.18222	0.12535	0.061339	0.19633	0.27506	0.26026	0.11623	0.17289	0.10263	-3.425	-4.3958	-4.4333	-3.9104	-4.4771	-4.2063	-4.1833	-4.8375	-3.9083	-4.3167	-4.5312	-3.7958	-4.6896	-4.2833	-3.7542	-4.7854	323.847	2.265	86.740	293.964	79.928	52.284	265.684	217.379	29.768	233.264	284.121	326.840	259.475	178.568	274.647	203.818	0.00041205	0.00054004	0.00019004	1819.8	3.4892e-06	2.8559e-06	1845.2	478.2	4.8449e-06	2.3069e-06	552.93	182.6	157.96	53.248	9.6143e-06	66.431	0.00018024	0.00017085	4.7593e-05	1589.1	1.9194e-06	1.8996e-06	1608.6	418.42	1.9108e-06	1.8688e-06	476.33	158.27	136.15	46.093	1.8777e-06	57.225	104.826	46.925	55.288	-18.227	80.151	133.971	-18.156	-13.435	142.113	119.891	-13.893	-9.971	-9.270	-4.505	108.614	-5.067	-8191	255	
19003.709	1	1	0	131072	0.23725	0.12654	0.10954	0.25351	0.11084	0.071966	0.12037	0.20894	0.10824	0.070562	0.34485	0.29592	0.26279	0.11517	0.25485	0.050628	-3.5875	-4.1417	-4.6292	-3.875	-4.3938	-4.175	-4.15	-5.0292	-3.8729	-4.0687	-4.7771	-3.8812	-4.6813	-4.5042	-3.6521	-4.8271	301.203	285.862	41.524	-22.990	92.645	178.157	2.572	310.939	119.878	235.458	238.973	278.975	236.722	222.056	142.430	-16.824	0.00041719	0.00062585	5.6339e-05	1827	3.1471e-06	3.3834e-06	1846.6	479.22	3.706e-06	4.3254e-06	554.79	183.01	157.18	53.323	3.9298e-06	66.288	0.00017944	0.00016703	4.6487e-05	1591.2	1.8599e-06	1.838e-06	1610.4	419.06	1.848e-06	1.7923e-06	477.07	158.69	136.02	46.075	1.8196e-06	57.208	91.008	80.960	26.703	-18.120	123.014	94.994	-18.381	-13.573	174.062	82.882	-14.162	-9.830	-8.973	-4.435	65.988	-5.289	-8191	255	
19003.805	1	1	0	0	0.17311	0.20374	0.19883	0.44702	0.27326	0.16489	0.11304	0.30521	0.23378	0.14262	0.10322	0.1432	0.28498	0.264	0.21173	0.18856	-3.5729	-4.1625	-4.6188	-3.8792	-4.2979	-4.4021	-4.0458	-4.8854	-4.0083	-3.9854	-4.7875	-3.8375	-4.4958	-4.5229	-3.4688	-4.7271	130.549	192.757	162.436	286.185	252.703	319.544	289.073	209.722	258.937	98.701	41.737	279.657	274.371	246.440	57.916	23.879	0.00040281	0.00038393	0.00027472	1826.9	4.3415e-06	1.6967e-06	1842.5	480.15	1.7911e-06	4.5066e-06	558.01	182.08	157.98	53.251	5.6712e-06	66.466	0.00017346	0.0001649	4.6099e-05	1589	1.8465e-06	1.8164e-06	1608.5	418.76	1.8372e-06	1.8126e-06	477.34	158.07	136.01	46.078	1.8086e-06	57.196	84.468	63.458	15.954	-18.109	121.393	100.154	-18.211	-13.434	53.380	98.412	-13.848	-9.574	-8.979	-4.195	109.803	-4.964	-8191	255	
19003.902	1	1	0	0	0.25776	0.12828	0.2682	0.13081	0.068044	0.24899	0.54002	0.34196	0.14597	0.1369	0.25994	0.19933	0.39442	0.27265	0.093959	0.29894	-3.8229	-3.8854	-4.7333	-4.0646	-4.2271	-4.4646	-3.9562	-4.6312	-4.15	-3.8854	-4.8667	-3.9833	-4.3125	-4.5813	-3.7375	-4.6854	268.233	39.041	8.337	250.321	208.551	40.856	321.998	265.081	308.082	112.123	274.066	325.043	-8.407	244.656	56.081	-29.667	0.00036503	0.00034972	0.00011219	1819.4	2.669e-06	5.1315e-06	1844.9	481.59	2.1156e-06	7.1566e-06	554.01	183.36	157.81	53.07	5.6972e-06	66.56	0.00017103	0.00016268	4.5279e-05	1589.7	1.7982e-06	1.7538e-06	1608.5	418.4	1.7682e-06	1.7455e-06	476.33	158.29	135.81	46.07	1.7305e-06	57.154	103.082	32.596	32.330	-17.828	127.771	90.355	-18.119	-13.302	128.016	102.152	-13.757	-9.467	-9.137	-4.045	98.605	-4.845	-8191	255	
19004.020	1	1	0	0	0.087629	0.15362	0.20223	0.12865	0.096338	0.12925	0.24071	0.29448	0.10124	0.22543	0.11353	0.12293	0.16859	0.18918	0.1541	0.12457	-3.9646	-3.7812	-4.6417	-4.3146	-4.1167	-4.8187	-3.9042	-4.5604	-4.4563	-3.8646	-4.7854	-4.2458	-4.1438	-4.7312	-3.6875	-4.6271	45.321	323.959	6.691	299.601	208.613	60.896	287.523	298.965	161.055	-9.811	13.270	116.614	328.144	284.169	-29.797	206.396	0.00040947	0.00038742	0.00020331	1824.3	2.5027e-06	3.3441e-06	1841.3	480.16	4.7182e-06	6.6693e-06	556.4	183.06	158.01	53.146	7.399e-07	66.334	0.00016622	0.00015646	4.332e-05	1586.3	1.7387e-06	1.6883e-06	1605.1	418.14	1.6859e-06	1.6759e-06	476.84	158.11	135.95	46.078	1.6619e-06	56.976	106.790	46.515	18.491	-17.798	114.128	97.226	-18.131	-13.232	124.003	106.727	-13.500	-9.324	-8.947	-4.246	219.941	-4.823	-8191	255	
19004.117	1	1	0	0	0.096249	0.16919	0.16183	0.19097	0.088702	0.087085	0.10276	0.17754	0.15117	0.26289	0.31193	0.18401	0.2111	0.17397	0.28906	0.10638	-4.2271	-3.7917	-4.6625	-4.3438	-3.9917	-4.5687	-3.9375	-4.4	-4.5083	-3.7625	-4.6917	-4.2417	-3.9667	-4.7833	-3.9146	-4.1854	41.464	38.000	124.630	-8.709	235.630	100.600	194.815	295.451	226.650	18.738	245.484	284.496	302.762	327.775	275.235	304.695	0.00030132	0.00058481	6.0693e-05	1825.7	5.4245e-06	6.5744e-06	1842.9	482.64	3.3089e-06	7.2552e-06	556.5	182.89	158.09	53.278	3.9705e-06	66.533	0.00015845	0.00014775	4.1173e-05	1589.5	1.6575e-06	1.5814e-06	1604.9	419.03	1.5993e-06	1.5927e-06	476.5	157.99	135.63	45.995	1.5762e-06	57.01	95.327	60.156	4.863	-17.599	111.285	86.485	-17.728	-13.289	128.466	109.412	-13.530	-9.546	-8.519	-4.051	85.017	-5.416	-8191	255	
19004.188	1	1	0	0	0.062709	0.055421	0.11966	0.21665	0.097162	0.026227	0.28321	0.36854	0.22661	0.15696	0.10301	0.13164	0.34292	0.16824	0.26937	0.15269	-4.35	-3.6542	-4.4708	-4.4667	-3.7833	-4.6896	-4.025	-4.2021	-4.4896	-3.8104	-4.5646	-4.4167	-3.8063	-4.7771	-3.8563	-4.1833	326.217	213.253	13.204	279.996	49.708	33.830	224.275	289.365	17.423	137.251	310.840	-27.049	289.264	326.829	70.873	272.685	0.00033404	0.00066758	0.000159	1823.8	5.2916e-06	3.9137e-06	1840.6	481.71	3.5513e-06	5.0838e-06	554.25	183.31	158.24	53.259	2.4989e-06	66.202	0.00014925	0.00013947	3.9078e-05	1586.7	1.5515e-06	1.534e-06	1604.1	418.03	1.5169e-06	1.4688e-06	476.05	158.14	135.66	45.935	1.4733e-06	56.836	97.825	39.407	-14.377	-18.029	75.078	133.736	-18.355	-13.899	123.192	110.056	-14.094	-9.896	-9.548	-4.656	179.228	-5.420	-8191	255	
19004.309	1	1	0	0	0.18604	0.11296	0.076141	0.23218	0.089223	0.31495	0.18758	0.075007	0.066376	0.10489	0.18574	0.20977	0.22073	0.33327	0.11607	0.1217	-4.2521	-3.7396	-4.45	-4.4458	-3.6667	-4.6292	-4.2375	-4.2208	-4.7667	-3.6688	-4.4479	-4.3708	-3.7583	-4.5563	-3.8979	-3.9979	96.904	79.687	140.859	277.335	289.561	243.788	279.091	158.172	197.036	-28.042	259.761	259.907	-7.608	-12.952	100.629	79.154	0.00037346	0.00033864	0.00015896	1820.7	3.6052e-06	3.8847e-06	1845.7	479.68	2.95e-06	5.5045e-06	554.26	183.79	157.83	53.281	5.4633e-06	66.001	0.00014134	0.00013299	3.6661e-05	1585.1	1.4518e-06	1.4019e-06	1604	417.44	1.4149e-06	1.3954e-06	475.28	157.87	135.33	45.937	1.3649e-06	56.764	98.232	11.302	43.169	-18.110	104.647	102.677	-18.285	-13.534	143.739	101.694	-14.170	-9.628	-9.030	-4.537	140.633	-5.397	-8191	255	
19004.404	1	1	0	0	0.21836	0.20432	0.14789	0.17583	0.10921	0.20053	0.19846	0.25043	0.15195	0.25654	0.11084	0.17736	0.18949	0.22148	0.18862	0.072988	-4.3812	-3.7417	-4.3167	-4.9271	-3.7646	-4.6312	-4.4417	-3.9833	-4.7792	-3.7771	-4.2708	-4.6125	-3.8583	-4.6375	-4.1667	-3.85	244.745	29.599	-31.173	311.057	288.401	152.623	316.969	268.757	154.745	140.971	322.342	225.642	-0.388	233.330	226.350	182.685	0.00048181	0.00036836	8.6339e-05	1825.2	4.3404e-06	2.8609e-06	1844.6	479.64	4.0744e-06	3.1084e-06	554.56	183.64	157.6	53.209	5.2953e-06	66.447	0.0001328	0.00012399	3.4631e-05	1586.2	1.3689e-06	1.3079e-06	1605.7	417.35	1.3269e-06	1.307e-06	475.03	157.84	135.25	45.845	1.2846e-06	56.921	92.027	9.886	31.085	-17.954	93.340	102.399	-18.189	-13.476	126.345	94.976	-14.199	-9.736	-9.185	-4.541	87.184	-5.275	-8191	255	
19004.502	1	1	0	0	0.046442	0.087278	0.22625	0.17116	0.13446	0.19226	0.19242	0.068016	0.051228	0.20764	0.096051	0.18904	0.068447	0.14817	0.21546	0.117	-4.3667	-3.9104	-4.1479	-4.7646	-3.6458	-4.4521	-4.575	-3.8354	-4.6167	-3.9229	-4.0563	-4.7229	-3.8438	-4.5333	-4.3979	-3.9938	227.554	61.159	210.804	262.315	94.668	161.114	301.223	-25.195	102.735	163.625	193.786	43.448	34.259	297.018	267.305	168.884	0.00037608	0.0004262	0.00014694	1824.2	3.3818e-06	3.709e-06	1843.1	478.3	3.5824e-06	8.1309e-06	554.16	183	157.64	52.959	6.0967e-06	66.135	0.0001233	0.00011605	3.1519e-05	1583.8	1.2998e-06	1.2484e-06	1602.7	416.62	1.2673e-06	1.2335e-06	474.58	157.49	135.32	45.763	1.2304e-06	56.738	93.767	37.564	11.746	-17.969	118.832	112.942	-18.329	-13.837	171.449	91.392	-14.112	-9.713	-9.104	-4.392	90.774	-5.404	-8191	255	
19004.598	1	1	0	0	0.16048	0.14127	0.15908	0.22902	0.13112	0.13551	0.24166	0.13788	0.18401	0.075114	0.25395	0.042718	0.19262	0.15607	0.18509	0.062252	-4.3542	-4.1813	-4.0125	-4.9292	-3.8125	-4.4771	-4.6625	-4.0458	-4.8	-4.1813	-4.1396	-4.9854	-3.975	-4.2917	-4.6375	-3.7313	221.988	-30.259	-20.772	263.308	119.794	290.480	214.025	254.814	205.766	244.889	283.142	72.094	286.768	252.328	282.124	-30.799	0.00040115	0.00045534	0.00015981	1824	3.5944e-06	6.4896e-06	1847	480.28	5.6337e-06	7.4823e-06	553.8	182.52	157.53	53.074	5.6823e-06	66.412	0.00012217	0.00011122	3.0381e-05	1583.9	1.2312e-06	1.1708e-06	1605.1	416.97	1.2018e-06	1.1627e-06	473.97	157.48	135.16	45.801	1.1816e-06	56.804	93.530	40.637	12.352	-17.987	172.018	101.104	-18.330	-13.768	121.859	111.983	-14.249	-9.692	-8.918	-4.595	130.521	-5.127	-8191	255	
19004.693	1	1	0	0	0.13474	0.15667	0.051179	0.24037	0.23978	0.10942	0.29319	0.30224	0.16806	0.085624	0.40524	0.057615	0.091443	0.33596	0.23858	0.078164	-4.4313	-4.1813	-3.8187	-4.9646	-3.8625	-4.4271	-4.9688	-3.8458	-4.4417	-4.3688	-3.9771	-4.7875	-4.0521	-4.2542	-4.6312	-3.9083	283.205	93.696	198.780	-29.156	125.269	208.633	286.748	287.707	-19.322	99.575	237.124	74.453	316.078	325.797	35.097	-26.614	0.00028624	0.0005268	0.00013327	1820.3	4.2836e-06	3.6836e-06	1840.8	478.72	4.4775e-06	4.8418e-06	553.37	183.05	157.09	53.405	3.1989e-06	65.853	0.00011539	0.00010658	2.9921e-05	1584.5	1.209e-06	1.1395e-06	1602.8	416.49	1.1797e-06	1.1398e-06	473.79	157.58	134.98	45.911	1.1666e-06	56.685	85.869	25.276	10.335	-17.995	92.092	99.580	-18.179	-13.361	113.233	87.963	-14.143	-9.702	-9.035	-4.365	90.231	-5.122	-8191	255	
19004.814	1	1	0	0	0.1531	0.26192	0.22647	0.31838	0.27014	0.14373	0.063296	0.37225	0.259	0.19078	0.15965	0.13679	0.21966	0.19569	0.067286	0.18301	-4.2854	-4.3542	-3.7938	-4.8812	-3.9562	-3.9958	-5.0417	-4.0917	-4.4979	-4.5125	-3.9917	-4.575	-4.2292	-4.025	-4.7104	-3.9083	-10.900	48.949	140.326	281.794	202.552	6.326	19.382	210.689	324.080	81.113	269.880	26.682	11.583	18.860	2.454	246.596	0.00037061	0.00015987	5.6879e-05	1821.8	4.9639e-06	3.3972e-06	1846.3	479.58	4.5827e-06	2.7883e-06	553.17	183.11	157.45	53.223	7.4954e-06	66.138	0.00011604	0.00010427	2.9796e-05	1585	1.1883e-06	1.1437e-06	1604.8	416.98	1.1909e-06	1.1534e-06	474.16	157.29	134.92	45.844	1.1502e-06	56.646	87.023	46.610	38.799	-18.000	100.510	123.986	-17.976	-13.251	120.754	82.350	-13.823	-9.689	-8.983	-4.227	112.237	-5.099	-8191	255	
19004.887	1	1	0	0	0.35439	0.045027	0.20255	0.1395	0.077068	0.11906	0.15681	0.16052	0.051764	0.28947	0.13211	0.12558	0.096578	0.1673	0.15062	0.16116	-4.1	-4.6458	-3.775	-4.9646	-4.3146	-3.9479	-4.9854	-3.9271	-4.2188	-4.5646	-3.7958	-4.6479	-4.4437	-3.9771	-4.7854	-3.9729	-20.824	123.480	133.821	-28.682	300.370	226.072	271.808	281.963	-27.564	74.417	267.792	270.263	253.412	234.384	39.195	294.510	0.00036811	0.00043718	0.00014072	1815.1	4.5901e-06	4.055e-06	1843.4	478.61	3.4213e-06	7.2679e-06	552.85	183.16	158.06	53.2	5.1273e-06	66.215	0.00011224	0.00010299	2.8663e-05	1581.1	1.1578e-06	1.095e-06	1603.7	416.22	1.1437e-06	1.0845e-06	473.28	157.64	135.05	45.877	1.1251e-06	56.646	97.715	65.519	18.993	-17.893	122.311	112.539	-18.265	-13.372	106.786	89.936	-14.001	-9.632	-9.045	-4.376	155.654	-5.301	-8191	255	
19004.982	1	1	0	0	0.27953	0.12035	0.077763	0.15071	0.13779	0.22339	0.23249	0.28096	0.038168	0.11612	0.16797	0.18253	0.05752	0.28645	0.42417	0.15219	-3.9604	-4.6417	-3.6917	-4.7833	-4.3104	-3.9375	-4.9583	-4.2417	-4.1479	-4.8187	-3.9542	-4.7646	-4.7417	-3.8354	-4.65	-4.1458	59.007	222.315	16.389	283.010	77.975	179.926	284.333	260.787	20.674	140.411	9.439	304.398	249.949	299.257	291.020	51.619	0.0003944	0.00044043	0.00016754	1822.5	3.6223e-06	3.9115e-06	1845.6	477.34	3.7667e-06	6.8738e-06	553.11	183.34	156.68	53.083	2.5405e-06	66.278	0.00011029	9.9603e-05	2.8109e-05	1583.1	1.1329e-06	1.1101e-06	1603.3	416.39	1.1371e-06	1.1019e-06	473.11	157.7	134.72	45.841	1.1189e-06	56.721	87.418	26.439	39.910	-17.879	20.412	94.207	-18.025	-13.442	101.103	73.614	-14.438	-9.979	-9.232	-4.622	107.853	-5.542	-8191	255	
19005.104	1	1	0	0	0.12779	0.24563	0.14852	0.29817	0.27789	0.39323	0.39139	0.26192	0.19288	0.1436	0.10631	0.14096	0.12822	0.29407	0.095922	0.07661	-3.6833	-4.9021	-3.7979	-4.6896	-4.3521	-3.8729	-4.7854	-4.2875	-3.9833	-4.7458	-4.05	-4.5437	-4.6729	-3.9062	-4.6854	-4.3313	204.883	26.863	299.828	317.039	18.720	35.849	277.055	324.884	153.241	64.164	210.927	296.805	271.859	-17.380	69.406	246.519	0.000372	0.00055586	0.00015743	1825.3	2.2104e-06	1.9421e-06	1845.6	479.76	3.9176e-06	5.8432e-06	554.02	182.76	158.24	53.143	7.5054e-06	66.352	0.00011058	0.00010035	2.784e-05	1585.5	1.1276e-06	1.0947e-06	1602	416.77	1.15e-06	1.1102e-06	473.16	157.39	135.18	45.782	1.0973e-06	56.758	87.638	25.816	36.925	-18.139	82.391	85.364	-18.259	-13.598	79.632	106.716	-14.024	-9.411	-8.900	-4.542	104.878	-5.402	-8191	255	
19005.197	1	1	0	0	0.16579	0.13587	0.1199	0.30436	0.18372	0.19345	0.24832	0.35842	0.16665	0.11369	0.17185	0.23354	0.20282	0.026302	0.151	0.20947	-3.5104	-4.6813	-3.8854	-4.3875	-4.5979	-3.8375	-4.7729	-4.4833	-3.7521	-4.8	-3.9813	-4.2146	-4.525	-3.7792	-4.4875	-4.4667	165.952	96.340	325.650	319.560	116.212	-27.520	293.284	285.556	313.042	182.934	-10.330	217.147	274.710	116.179	2.752	257.380	0.00038223	0.00042044	0.00020733	1827.1	1.7893e-06	4.3029e-06	1842.9	479.27	3.5813e-06	6.2285e-06	553.65	181.86	157.12	53.1	2.6911e-06	66.35	0.00011161	9.9266e-05	2.7745e-05	1585.1	1.1077e-06	1.0705e-06	1603.7	416.45	1.1205e-06	1.0801e-06	472.92	157.15	134.83	45.815	1.0784e-06	56.773	75.894	31.827	12.132	-18.207	133.713	92.828	-18.559	-13.658	178.210	94.872	-14.167	-10.117	-9.202	-4.642	117.474	-5.207	-8191	255	
19005.293	1	1	0	0	0.13175	0.091996	0.14587	0.2288	0.099705	0.069396	0.10355	0.088434	0.14581	0.057499	0.23551	0.089278	0.13698	0.22489	0.054791	0.12519	-3.5312	-4.7458	-4.1167	-4.475	-4.525	-3.6896	-4.7542	-4.5	-3.7375	-4.675	-4.1792	-4.2438	-4.8812	-3.9417	-4.4021	-4.5687	44.245	254.082	271.558	283.241	305.434	91.186	279.680	285.436	243.044	272.737	246.891	231.156	271.184	241.734	318.620	2.252	0.00044455	0.00069694	0.00015439	1826.3	3.1615e-06	3.0965e-06	1844.7	480.43	3.0264e-06	4.3509e-06	553.89	182.83	157.53	53.428	4.664e-06	66.078	0.00010733	9.5799e-05	2.7005e-05	1582.5	1.0834e-06	1.0917e-06	1601.1	416.79	1.0798e-06	1.0284e-06	472.9	157.35	134.93	45.796	1.0451e-06	56.588	91.407	32.368	12.981	-18.335	153.800	114.128	-18.524	-13.774	111.290	54.543	-14.027	-10.050	-9.202	-4.625	90.174	-5.371	-8191	255	
19005.414	1	1	0	0	0.072863	0.20874	0.068828	0.15353	0.090959	0.048889	0.19818	0.27037	0.19825	0.079605	0.11185	0.17685	0.18947	0.35417	0.093884	0.1577	-3.5667	-4.8	-4.2125	-4.4083	-4.6708	-3.8667	-4.5167	-4.7396	-3.7188	-4.6375	-4.3313	-3.9792	-4.8688	-4.1292	-4.1292	-4.8313	1.451	-30.250	4.800	323.073	109.477	-25.777	291.240	218.859	-11.739	282.279	314.039	323.021	279.335	307.085	130.514	-13.791	0.00035609	0.00026063	0.00017583	1821.2	3.8916e-06	3.2556e-06	1841.6	479.14	3.6537e-06	4.0362e-06	553.61	182.56	157.71	53.151	5.7489e-06	65.962	0.00010472	9.3536e-05	2.6356e-05	1581.1	1.0689e-06	1.027e-06	1601.6	416.35	1.0589e-06	1.0313e-06	473.25	157.25	135	45.721	1.0628e-06	56.589	100.901	39.794	4.104	-18.165	111.124	130.659	-18.264	-13.547	107.771	86.391	-14.153	-9.749	-9.144	-4.797	169.135	-5.436	-8191	255	
19005.484	1	1	0	0	0.093326	0.21723	0.073772	0.25639	0.08587	0.34796	0.30372	0.053889	0.11545	0.27553	0.10212	0.098638	0.14033	0.36929	0.19806	0.016894	-3.2333	-4.4542	-4.3688	-4.0188	-4.6083	-3.825	-4.25	-4.7854	-3.875	-4.4875	-4.6792	-4.0958	-4.6979	-4.1354	-4.125	-4.8313	5.737	295.366	202.687	280.440	317.168	235.364	246.545	-22.157	165.628	276.163	253.191	10.179	25.091	274.963	265.047	92.393	0.00038836	0.00047584	0.00018195	1814.7	4.4199e-06	3.5553e-06	1840.3	479.85	4.0876e-06	2.8639e-06	554.25	181.89	158.44	53.126	3.2095e-06	66.541	0.00010636	9.4046e-05	2.6406e-05	1581	1.0484e-06	1.036e-06	1599.2	416.58	1.0509e-06	1.0203e-06	473.33	157.25	135.17	45.774	1.0261e-06	56.704	84.922	27.496	19.165	-18.365	120.777	88.506	-18.374	-13.526	126.719	53.051	-13.777	-9.187	-8.659	-3.873	111.445	-4.660	-8191	255	
19005.582	1	1	0	0	0.1567	0.08074	0.27575	0.38329	0.067434	0.016874	0.31419	0.28427	0.022257	0.21653	0.13112	0.12569	0.097247	0.1588	0.29298	0.16441	-3.4479	-4.3375	-4.5021	-4.0437	-4.725	-4.0604	-4.025	-4.9146	-3.8271	-4.3396	-4.6438	-3.7771	-4.7417	-4.2562	-4.0021	-4.8917	290.845	208.899	-5.085	263.500	262.849	13.235	304.665	273.848	158.866	189.962	87.871	-20.962	3.680	106.460	-19.298	216.235	0.00036635	0.00056042	0.0002101	1827.8	4.5911e-06	5.1103e-06	1849.3	480.8	3.6763e-06	6.0962e-06	555.03	183.63	158.14	53.05	2.1562e-06	66.229	0.00010625	9.3709e-05	2.6191e-05	1582	1.0349e-06	1.0171e-06	1603.1	416.73	1.0732e-06	1.0103e-06	473.33	157.59	135.03	45.698	1.0429e-06	56.62	82.510	52.883	31.782	-17.664	89.359	114.866	-17.809	-13.284	162.447	86.731	-13.544	-9.699	-8.836	-4.140	148.264	-5.056	-8191	255	
19005.701	1	1	0	0	0.061486	0.20021	0.14193	0.27436	0.15864	0.13594	0.47371	0.18184	0.10092	0.09526	0.10446	0.17289	0.22619	0.08407	0.11004	0.17533	-3.4479	-4.3375	-4.4625	-3.9208	-4.5042	-4.2396	-4.1188	-4.975	-4.0021	-4.2167	-4.7875	-3.8458	-4.7625	-4.4896	-3.7708	-4.6146	31.029	235.996	122.489	288.533	101.374	42.825	278.825	229.509	294.300	14.832	269.214	-6.510	37.379	170.581	39.362	285.948	0.00037844	0.00040379	0.00018018	1819.7	1.6468e-06	3.1887e-06	1845.8	480.3	2.9243e-06	3.8424e-06	557.6	183.25	157.4	53.073	5.8489e-06	66.183	0.00010603	9.3468e-05	2.6465e-05	1580.5	1.0566e-06	1.0379e-06	1602.7	416.98	1.0724e-06	1.0349e-06	473.77	157.46	134.82	45.805	1.0672e-06	56.677	79.364	38.115	42.032	-17.869	102.088	119.738	-17.954	-13.140	116.290	114.815	-13.549	-9.584	-9.064	-4.258	135.144	-5.074	-8191	255	
19005.799	1	1	0	0	0.14167	0.16974	0.10747	0.31177	0.052213	0.13785	0.36803	0.18616	0.15398	0.12127	0.20613	0.22521	0.14377	0.16717	0.0041861	0.18924	-3.475	-3.9854	-4.7229	-3.8375	-4.5062	-4.4708	-4.0333	-4.9854	-4.1875	-3.9854	-4.8063	-3.9813	-4.4854	-4.6354	-3.8333	-4.8104	142.548	307.672	46.120	304.521	327.775	0.679	328.327	-26.970	126.462	180.284	304.263	298.219	-26.315	227.236	259.651	290.833	0.00027632	0.00031359	0.00019328	1823.1	2.6311e-06	4.0131e-06	1840.4	480.16	5.7171e-06	5.9312e-06	556.79	182.72	157.16	53.207	5.6433e-06	66.583	0.00010427	9.337e-05	2.5373e-05	1582.7	1.0524e-06	1.017e-06	1598.9	416.44	1.0431e-06	1.0068e-06	473.4	157.08	134.91	45.798	1.0117e-06	56.768	105.565	45.674	44.380	-17.996	99.736	89.346	-18.031	-13.385	119.983	111.818	-13.701	-9.822	-9.143	-4.380	110.971	-4.769	-8191	255	
19005.895	1	1	0	131072	0.27087	0.048995	0.048841	0.39145	0.13633	0.18981	0.2058	0.34227	0.14308	0.23895	0.057009	0.094109	0.17537	0.54742	0.23123	0.10161	-3.7896	-3.9958	-4.7333	-3.9646	-4.1667	-4.6375	-3.8333	-4.9333	-4.2604	-3.9625	-4.7583	-3.8	-4.3583	-4.65	-3.7	-4.5521	40.985	97.539	283.493	316.608	283.916	208.424	229.065	249.278	286.379	38.143	151.101	125.172	226.250	297.987	58.698	316.287	0.00028983	0.00032574	0.00011357	1824	4.4491e-06	2.5158e-06	1845.4	479.6	3.1509e-06	7.3734e-06	552.14	183.03	157.79	53.183	4.7151e-06	66.253	0.00010274	9.1546e-05	2.5726e-05	1581.8	1.0358e-06	9.9666e-07	1602.7	416.66	1.045e-06	1.0208e-06	472.94	157.4	135.09	45.755	1.0272e-06	56.748	102.320	74.591	29.345	-17.990	87.549	126.296	-18.508	-13.560	133.346	104.996	-14.078	-9.813	-8.953	-4.406	152.195	-5.198	-8191	255	
19006.014	1	1	0	0	0.042111	0.19438	0.14169	0.12097	0.10763	0.35888	0.2668	0.18158	0.11341	0.12391	0.24879	0.080063	0.17631	0.24168	0.1052	0.33755	-3.7604	-3.7458	-4.7312	-4.0708	-4.2292	-4.5417	-3.9125	-4.7688	-4.2396	-3.7917	-4.8479	-4.05	-4.0396	-4.9021	-3.8604	-4.7146	-18.217	300.488	-24.384	306.946	221.014	262.032	290.164	262.373	104.073	40.596	218.363	6.449	221.073	203.994	306.026	243.949	0.0003391	0.0005061	0.00011261	1817.8	4.1013e-06	4.2965e-06	1844.9	479.77	3.135e-06	4.1518e-06	552.04	183.39	157.68	53.225	3.7936e-06	66.559	0.00010327	9.1388e-05	2.5285e-05	1580.3	1.0467e-06	9.9419e-07	1601.4	416.32	1.0276e-06	9.8376e-07	472.8	157.39	135.07	45.821	1.0034e-06	56.808	98.551	31.575	36.798	-18.120	87.504	100.185	-18.420	-13.699	101.563	89.513	-14.100	-9.787	-9.338	-4.162	122.925	-5.084	-8191	255	
19006.109	1	1	0	0	0.25997	0.065604	0.03463	0.27375	0.18898	0.14098	0.10592	0.2581	0.15778	0.062932	0.30208	0.13897	0.25463	0.044083	0.267	0.022854	-4.1354	-3.7958	-4.7417	-4.2937	-4.0208	-4.7229	-4.1625	-4.5917	-4.4563	-3.7146	-4.7792	-4.2125	-3.9792	-4.8521	-3.7708	-4.4208	173.540	17.818	201.142	277.918	298.089	-4.402	323.293	293.657	102.173	163.333	261.019	-5.374	285.756	201.132	124.686	147.816	0.00039499	0.00035428	0.00013589	1821.2	5.4391e-06	2.4307e-06	1847.4	480	5.0904e-06	6.7142e-06	555.21	183.46	158.45	53.366	5.6027e-06	67.015	9.9853e-05	9.0187e-05	2.5122e-05	1583.7	1.0095e-06	9.5109e-07	1603	417.43	9.8814e-07	9.8816e-07	473.96	157.74	135.67	45.926	9.883e-07	57.016	100.008	31.749	36.596	-17.969	74.451	72.920	-18.249	-13.407	138.524	77.848	-13.914	-9.410	-8.846	-4.038	131.409	-5.051	-8191	255	
19006.182	1	1	0	0	0.022818	0.05874	0.13148	0.1346	0.097654	0.17158	0.24586	0.071151	0.05068	0.21996	0.20617	0.066457	0.1528	0.27861	0.22717	0.19803	-4.2542	-3.6562	-4.6458	-4.475	-3.8833	-4.7958	-3.9313	-4.4917	-4.5875	-3.8	-4.8375	-4.3562	-3.9313	-4.9125	-3.9604	-4.3542	68.369	41.683	218.035	51.723	84.101	136.797	177.073	291.861	221.872	135.953	324.386	6.407	305.616	303.959	51.014	298.382	0.0003384	0.00038606	0.00016399	1827.1	3.6957e-06	3.7215e-06	1847.1	480.85	3.7788e-06	3.8824e-06	555.88	182.85	158.68	53.475	4.7428e-06	66.496	9.8099e-05	8.729e-05	2.4777e-05	1586.1	1.0054e-06	9.3989e-07	1606.9	417.79	9.9717e-07	9.7636e-07	475.09	157.8	135.24	45.981	9.9775e-07	56.837	104.177	55.829	33.432	-17.853	101.959	119.952	-18.237	-13.471	127.731	85.730	-13.949	-9.609	-9.368	-4.322	122.096	-4.752	-8191	255	
19006.277	1	1	0	0	0.067013	0.22827	0.084159	0.30507	0.081662	0.11209	0.033704	0.33499	0.16184	0.032785	0.16826	0.036267	0.20352	0.13682	0.017581	0.028979	-4.2396	-3.625	-4.4896	-4.5208	-3.7917	-4.7104	-4.2688	-4.225	-4.6562	-3.7167	-4.7792	-4.5396	-3.9146	-4.8625	-4.0667	-4.2063	273.837	-12.080	264.295	278.389	311.535	143.234	122.785	283.782	309.220	273.936	310.964	314.907	229.993	304.625	-14.389	4.446	0.00034513	0.0005666	0.00010236	1824.9	5.0653e-06	3.5333e-06	1851.8	479.62	4.2664e-06	3.5483e-06	555.89	183.56	158.45	53.547	5.4827e-06	66.437	0.00010021	9.2474e-05	2.5661e-05	1584.6	1.0544e-06	9.9199e-07	1607.5	417.28	1.0314e-06	1.0161e-06	474.69	157.73	135.46	45.878	1.0062e-06	56.83	97.636	45.703	45.403	-17.872	104.578	115.192	-18.142	-13.606	156.546	79.173	-13.595	-9.218	-9.001	-3.938	105.228	-4.821	-8191	255	
19006.373	1	1	0	0	0.19591	0.17072	0.21117	0.24136	0.31498	0.061705	0.2217	0.14406	0.28684	0.17118	0.27804	0.27079	0.23367	0.19823	0.10128	0.23538	-4.5521	-3.8187	-4.5667	-4.7521	-3.8104	-4.775	-4.3979	-4.1792	-4.6854	-3.9375	-4.4333	-4.7958	-3.9167	-4.6917	-4.15	-3.8958	217.227	119.003	102.114	242.030	243.637	96.517	232.288	324.021	233.096	196.341	283.376	100.522	-9.352	292.601	67.657	150.023	0.00031795	0.00038424	0.00012977	1825.1	5.91e-06	4.2524e-06	1851.3	481.6	3.3876e-06	3.4638e-06	555.43	183.19	157.57	53.439	5.9801e-06	66.657	9.9547e-05	9.0731e-05	2.5103e-05	1586.9	1.0147e-06	9.7335e-07	1606.1	417.26	9.8893e-07	9.5844e-07	474.39	157.78	135.27	45.939	9.5075e-07	56.847	95.404	72.376	0.187	-17.742	95.449	103.718	-17.844	-13.111	91.836	91.804	-13.655	-9.120	-8.539	-3.879	130.888	-5.013	-8191	255	
19006.494	1	1	0	0	0.096637	0.14204	0.14938	0.33734	0.029957	0.11997	0.072929	0.19249	0.11031	0.20959	0.38953	0.11548	0.12317	0.1158	0.12742	0.093022	-4.4646	-3.8583	-4.1625	-4.8542	-3.7708	-4.6813	-4.5417	-3.9938	-4.8542	-3.8917	-4.1687	-4.8125	-3.8875	-4.7521	-4.3854	-3.9646	292.525	54.237	-20.050	278.375	86.997	46.248	184.403	294.466	272.586	112.378	218.043	72.956	163.667	292.206	63.987	113.648	0.00036269	0.00042473	0.00010317	1827.3	3.0226e-06	3.7749e-06	1841.7	481.11	6.0235e-06	4.3054e-06	551.19	183.63	158.47	53.689	3.2468e-06	66.719	9.5043e-05	8.6267e-05	2.3803e-05	1585.9	9.6196e-07	9.1435e-07	1605.3	416.96	9.4071e-07	9.1842e-07	473.58	157.96	135.55	46.058	9.6087e-07	56.984	103.021	57.036	50.462	-17.746	108.968	104.681	-17.778	-13.316	127.718	141.425	-13.424	-9.169	-8.701	-4.156	101.150	-5.081	-8191	255	
19006.590	1	1	0	0	0.20933	0.093793	0.088467	0.16867	0.20618	0.13009	0.09123	0.13147	0.036724	0.10315	0.30008	0.27785	0.16925	0.41459	0.027158	0.34168	-4.5563	-4.175	-4.1375	-5.025	-3.8229	-4.4479	-4.7083	-4.0208	-4.6542	-4.1062	-4.0875	-4.8583	-3.8917	-4.5396	-4.575	-3.6667	185.698	12.678	232.797	58.868	325.177	20.157	-9.675	220.382	167.836	30.792	270.126	-10.937	273.740	299.353	27.408	-17.906	0.00032211	0.00052621	0.00012241	1830.5	4.6384e-06	3.708e-06	1849.8	481.43	4.6727e-06	3.1859e-06	554.15	183.91	158.52	53.625	4.7717e-06	66.754	9.7878e-05	8.4795e-05	2.3685e-05	1587.5	9.82e-07	9.2775e-07	1605.3	417.28	9.7564e-07	9.4505e-07	474.23	158.18	135.61	46.072	9.7803e-07	56.848	82.700	29.100	63.055	-17.809	123.439	82.304	-18.044	-13.332	147.695	123.871	-13.849	-9.269	-8.869	-4.085	130.173	-5.042	-8191	255	
19006.686	1	1	0	0	0.24852	0.047315	0.14963	0.015822	0.067568	0.28702	0.23761	0.33005	0.21505	0.086166	0.24196	0.099339	0.17438	0.23345	0.20273	0.09271	-4.4625	-4.2688	-3.8937	-4.9167	-3.7958	-4.2021	-4.8458	-3.9646	-4.5729	-4.2625	-3.9688	-4.8417	-4.1104	-4.3125	-4.6396	-3.8333	244.359	72.895	298.685	175.638	72.312	-30.369	268.363	272.692	196.192	64.766	311.889	209.120	318.720	-16.236	99.645	203.999	0.0003628	0.00023047	0.00010833	1831	1.446e-06	4.1742e-06	1846.4	479.54	3.0919e-06	7.9304e-06	554.36	183.82	158.45	53.885	5.6221e-06	66.384	9.6752e-05	8.6631e-05	2.4264e-05	1586.9	9.9325e-07	9.6573e-07	1606	416.75	9.7797e-07	9.4505e-07	473.49	158.03	135.49	46.075	9.7609e-07	56.932	91.852	48.125	16.326	-17.727	105.826	121.703	-17.761	-13.266	98.760	81.068	-13.654	-9.406	-8.864	-3.979	138.181	-5.163	-8191	255	
19006.783	1	1	0	0	0.17637	0.16396	0.1175	0.10865	0.21401	0.055906	0.16242	0.19778	0.022231	0.16488	0.14948	0.23853	0.074431	0.17192	0.081251	0.1422	-4.0896	-4.2625	-3.7438	-4.8958	-3.9542	-4.15	-5.1708	-3.7833	-4.5167	-4.4979	-3.8708	-4.9417	-4.2542	-4.3167	-4.8208	-4.0188	210.410	3.655	225.298	263.416	107.854	326.741	304.195	273.332	303.686	128.411	-15.125	220.599	150.823	183.891	115.055	309.970	0.00037564	0.000519	0.00015506	1826.7	2.9895e-06	5.2219e-06	1843.4	480.26	3.3979e-06	4.6439e-06	556.39	184.97	158.54	53.841	3.7733e-06	67.024	9.7803e-05	8.7657e-05	2.5213e-05	1586.4	9.9096e-07	9.3717e-07	1604.4	417.85	9.6544e-07	9.4117e-07	474.95	158.91	135.9	46.219	9.472e-07	57.173	93.749	29.805	20.037	-17.761	73.458	129.643	-18.142	-13.378	119.313	84.625	-13.761	-9.480	-8.840	-4.516	94.168	-5.001	-8191	255	
19006.879	1	1	0	131072	0.12903	0.0404	0.15933	0.272	0.29883	0.15741	0.37617	0.13235	0.045888	0.016826	0.078823	0.1344	0.1141	0.34489	0.18853	0.15548	-4.2771	-4.5062	-3.7708	-4.8667	-4.1167	-4.1792	-4.8833	-4.1271	-4.4938	-4.6083	-3.8708	-4.7979	-4.4125	-3.8958	-4.6854	-4.0271	112.491	77.082	234.702	290.615	3.045	154.429	247.309	304.988	86.035	190.801	256.856	261.328	328.015	7.478	190.307	320.605	0.00038322	0.00060138	0.00025376	1834.8	4.6167e-06	4.496e-06	1853	482.23	2.3011e-06	4.3154e-06	557.19	185.38	159.18	53.792	6.6475e-06	66.998	9.7554e-05	8.7246e-05	2.4245e-05	1590.3	9.9003e-07	9.5242e-07	1610	418.3	9.7568e-07	9.4227e-07	475.23	159.14	136.06	46.29	9.7852e-07	57.186	99.874	26.189	38.540	-17.934	95.760	85.774	-18.079	-13.501	135.316	121.286	-13.615	-9.503	-9.006	-4.479	130.072	-5.193	-8191	255	
19006.975	1	1	0	0	0.077565	0.14075	0.16958	0.32952	0.11106	0.34277	0.13993	0.14344	0.14731	0.14608	0.17364	0.13539	0.28018	0.22324	0.20525	0.3206	-3.7896	-4.6854	-3.7938	-4.8562	-4.2229	-4.0167	-5.0375	-4.2688	-4.3229	-4.5167	-3.9208	-4.6708	-4.4708	-3.8208	-4.725	-4.0021	311.678	78.166	89.794	292.971	176.951	20.683	203.204	317.776	164.885	207.280	263.462	291.769	-28.927	307.421	278.395	326.977	0.00032328	0.00026682	0.00014934	1824.1	2.309e-06	5.5434e-06	1847.9	480.9	2.014e-06	3.2318e-06	555.4	184.66	158.99	53.561	3.9012e-06	66.681	9.874e-05	8.8939e-05	2.501e-05	1589.2	1.0296e-06	9.8984e-07	1607.4	417.26	1.0158e-06	9.9995e-07	474.82	158.49	136.04	46.176	1.0243e-06	57.074	85.356	74.476	31.562	-17.885	89.980	102.590	-17.917	-13.252	105.545	78.205	-13.731	-9.528	-9.095	-4.457	123.081	-5.222	-8191	255	
19007.094	1	1	0	0	0.14301	0.084174	0.14283	0.1419	0.10653	0.036674	0.22073	0.18292	0.13252	0.15287	0.16768	0.20613	0.34602	0.17979	0.1825	0.33061	-3.8833	-4.6562	-3.7458	-4.7167	-4.3375	-3.6708	-4.9875	-4.2375	-4.1188	-4.8021	-4.05	-4.5083	-4.5833	-3.9792	-4.7958	-4.1417	1.970	44.456	302.118	-17.711	113.996	168.474	296.145	295.110	135.822	-22.064	241.622	276.626	273.876	315.740	100.817	247.548	0.0003345	0.00032808	0.00015467	1831.9	4.4699e-06	5.0557e-06	1852.1	482.44	2.7793e-06	4.0142e-06	556.86	184.76	158.96	53.744	6.6338e-06	67.055	0.00010396	9.2817e-05	2.5691e-05	1589.3	1.0475e-06	1.0101e-06	1608.3	418.54	1.0167e-06	9.7662e-07	475.62	158.83	136.33	46.244	9.949e-07	57.217	92.010	31.390	25.693	-18.059	93.304	94.273	-17.982	-13.527	117.751	100.978	-13.787	-9.547	-8.983	-4.191	119.938	-4.923	-8191	255	
19007.189	1	1	0	0	0.15799	0.1435	0.31328	0.1283	0.1598	0.091521	0.13589	0.38044	0.077895	0.17104	0.16333	0.063975	0.15093	0.25876	0.14561	0.060911	-3.8021	-4.6792	-3.8375	-4.5813	-4.55	-3.6792	-4.8771	-4.3896	-3.825	-4.6917	-3.9917	-4.3	-4.6729	-3.7583	-4.5	-4.3396	252.489	104.464	-24.492	289.771	75.997	242.801	-27.912	296.917	104.196	-1.743	273.444	51.609	-29.734	278.785	172.903	220.564	0.0003755	0.00061369	0.00011672	1828	3.6756e-06	4.3345e-06	1853.6	481.56	3.0877e-06	5.0333e-06	556.56	185.12	160.33	53.914	6.1372e-06	66.933	0.00010371	8.9667e-05	2.5435e-05	1587.9	9.858e-07	1.0004e-06	1609.1	418.04	1.012e-06	9.861e-07	474.95	159.03	136.82	46.309	1.0023e-06	57.23	93.512	50.698	40.100	-18.114	135.180	101.154	-18.310	-13.637	132.886	93.547	-14.589	-10.025	-9.844	-5.017	116.189	-5.851	-8191	255	
19007.285	1	1	0	0	0.10163	0.15455	0.09887	0.22466	0.032327	0.046999	0.23899	0.095369	0.057939	0.1669	0.10951	0.15063	0.0086519	0.16543	0.13804	0.10118	-3.5563	-4.8167	-4.0417	-4.4146	-4.6	-3.8167	-4.6542	-4.4604	-3.8542	-4.8562	-4.1104	-4.1792	-4.7979	-3.9417	-4.475	-4.6167	227.286	202.489	-11.205	324.556	84.647	231.158	300.796	313.036	134.157	13.267	127.536	236.890	216.865	238.738	274.671	-23.155	0.00039314	0.000411	0.00017213	1827.2	5.761e-06	2.8709e-06	1854.9	482.51	4.837e-06	5.9578e-06	554.41	185.75	159.87	53.719	5.9283e-06	66.881	0.00010171	9.1363e-05	2.5271e-05	1587.5	1.0161e-06	1.041e-06	1610.1	418.79	1.0191e-06	9.8046e-07	474.89	158.97	136.3	46.255	9.9201e-07	57.164	90.490	39.175	46.117	-18.787	95.038	107.636	-18.686	-14.120	118.935	110.830	-14.467	-10.468	-9.809	-4.896	92.309	-5.764	-8191	255	
19007.383	1	1	0	131072	0.12413	0.059422	0.13904	0.42625	0.34187	0.21342	0.31436	0.26959	0.17341	0.076572	0.28184	0.23628	0.10641	0.098885	0.032618	0.078009	-3.4396	-4.8021	-4.1042	-4.275	-4.7458	-3.7354	-4.7167	-4.6542	-3.7438	-4.7271	-4.2562	-4.1479	-4.8396	-3.9604	-4.2458	-4.7667	-15.151	60.016	6.339	291.343	268.018	181.876	242.166	291.339	-20.192	229.159	249.880	265.873	-5.334	255.992	221.537	60.597	0.00039584	0.0003879	0.00022485	1825.6	4.3085e-06	3.2909e-06	1853	480.19	4.3148e-06	2.2968e-06	556.98	185.29	158.95	53.64	8.2901e-06	66.562	9.9385e-05	8.9317e-05	2.4837e-05	1586.9	9.9946e-07	9.6612e-07	1608.7	418.33	1.0233e-06	9.6616e-07	475.54	159.15	136.07	46.266	1.0038e-06	57.077	90.104	53.262	25.360	-18.912	93.141	134.336	-18.805	-14.233	124.757	79.536	-14.809	-10.671	-10.057	-5.391	108.828	-6.169	-8191	255	
19007.479	1	1	0	0	0.1519	0.21931	0.33062	0.20878	0.28499	0.037492	0.30964	0.13972	0.14913	0.25717	0.28689	0.079779	0.099167	0.069374	0.042565	0.066236	-3.3937	-4.6125	-4.1646	-4.1813	-4.7312	-3.8292	-4.3417	-5.0646	-3.7625	-4.6562	-4.5437	-4.0437	-4.9563	-4.0208	-4.1708	-4.7708	116.355	273.074	286.961	291.146	264.032	218.068	267.272	151.248	189.210	-10.211	313.331	154.425	230.089	269.169	14.174	14.910	0.00041233	0.00045665	0.00010547	1825	4.0282e-06	2.8987e-06	1853	480.12	7.2573e-06	6.3004e-06	554.13	183.92	158.75	53.588	6.0838e-06	66.392	0.00010274	8.9554e-05	2.4873e-05	1587.9	1.0135e-06	1.0094e-06	1611.2	417.71	1.0265e-06	9.9104e-07	474.86	158.76	136.26	46.202	1.0502e-06	57.068	88.290	37.565	14.984	-19.187	87.393	90.782	-19.113	-14.573	145.037	103.375	-14.964	-10.544	-9.928	-5.431	122.825	-5.943	-8191	255	
19007.574	1	1	0	0	0.20609	0.063821	0.05024	0.24899	0.13071	0.10344	0.2121	0.35889	0.22318	0.1699	0.30263	0.098876	0.099754	0.18017	0.12694	0.16135	-3.4417	-4.6354	-4.4812	-3.9938	-4.8271	-3.9625	-4.2771	-4.9375	-3.7042	-4.4979	-4.6396	-4.0312	-4.9437	-4.2188	-4.0125	-4.8292	203.631	-27.402	91.495	293.975	134.817	209.902	291.777	231.107	221.882	101.144	225.568	280.514	45.862	4.605	75.723	323.304	0.00036308	0.00041154	0.00012112	1828.1	5.309e-06	4.2576e-06	1851.6	481.61	2.7897e-06	2.8351e-06	556.41	183.68	159.17	53.631	4.9487e-06	67.118	0.00010587	9.3839e-05	2.6432e-05	1587.9	1.0691e-06	1.0338e-06	1609.4	418.25	1.0728e-06	1.0597e-06	475.42	158.59	136.16	46.171	1.0791e-06	57.234	86.886	58.648	26.158	-18.618	118.141	92.615	-18.866	-14.003	95.072	74.699	-13.836	-9.703	-9.034	-4.508	124.192	-5.021	-8191	255	
19007.672	1	1	0	0	0.16364	0.11674	0.11855	0.2163	0.015049	0.020429	0.18891	0.14102	0.11747	0.22854	0.19536	0.10237	0.29719	0.20193	0.17512	0.2526	-3.7771	-4.4354	-4.5312	-3.9771	-4.5542	-4.2208	-4.1167	-4.9187	-3.9667	-4.3021	-4.7438	-3.7729	-4.8167	-4.3271	-3.8146	-4.7083	105.303	136.935	37.981	307.672	200.727	79.275	275.819	256.330	127.267	75.725	309.028	-27.699	295.590	252.299	275.599	240.117	0.0003615	0.0005238	0.0002038	1827.2	3.5244e-06	4.904e-06	1854.3	482.19	3.8174e-06	4.3874e-06	554.7	184.56	158.95	53.626	4.2911e-06	66.751	0.00010698	9.5616e-05	2.6701e-05	1588.2	1.0709e-06	1.0317e-06	1609	418.14	1.0747e-06	1.0332e-06	474.74	158.82	136.17	46.173	1.069e-06	57.167	92.817	37.397	32.461	-18.097	104.268	84.209	-18.213	-13.496	154.785	133.472	-13.720	-9.283	-9.035	-3.721	154.193	-4.880	-8191	255	
19007.791	1	1	0	0	0.26271	0.086264	0.18294	0.10381	0.032358	0.13035	0.26601	0.24539	0.097078	0.089838	0.095228	0.061923	0.094534	0.23897	0.17226	0.27146	-3.5708	-4.0813	-4.7458	-4.0167	-4.4333	-4.3708	-3.9521	-4.9292	-3.9292	-4.1958	-4.7667	-3.975	-4.5333	-4.3833	-3.6417	-5.0563	292.235	53.447	267.975	256.277	220.722	68.179	256.873	-19.708	42.029	32.095	217.381	51.995	283.706	307.139	32.968	236.205	0.00029679	0.00019063	0.00016095	1818.4	3.5911e-06	2.9371e-06	1834.1	477.19	4.798e-06	3.8527e-06	550.26	184.4	160.04	53.908	2.2658e-06	66.949	0.00010668	9.6593e-05	2.617e-05	1583.8	1.0658e-06	1.0273e-06	1604.9	417.3	1.0772e-06	1.0316e-06	474.22	158.81	136.61	46.275	1.0637e-06	57.238	107.918	278.166	23.771	-17.663	103.979	129.620	-17.552	-13.144	119.284	81.707	-13.112	-9.029	-8.563	-3.982	129.771	-5.074	-8191	255	
19007.887	1	1	0	0	0.052484	0.22212	0.040079	0.23036	0.17624	0.12674	0.092103	0.23785	0.10034	0.20889	0.0076455	0.27595	0.082512	0.13715	0.052569	0.082564	-3.9417	-3.9208	-4.7958	-4.075	-4.3979	-4.4875	-3.9771	-4.6875	-4.2562	-4.1417	-4.9667	-3.9521	-4.4062	-4.7979	-3.8083	-4.9771	-17.968	236.209	167.755	291.399	92.866	75.209	302.402	243.033	282.190	116.990	7.305	309.398	-0.252	286.353	208.186	311.054	0.00029724	0.00041478	0.00017382	1831.4	2.4444e-06	3.1239e-06	1852.9	482.88	1.7507e-06	4.3397e-06	557.33	184.63	159.34	54.109	6.7028e-06	67.119	0.00010367	9.3193e-05	2.5678e-05	1588.1	1.0379e-06	9.9519e-07	1607.6	418.68	1.0283e-06	9.8942e-07	476.21	159.06	136.37	46.389	1.0239e-06	57.286	96.405	35.642	40.327	-17.511	134.735	90.951	-17.869	-13.124	137.191	81.740	-13.662	-9.429	-9.169	-4.374	104.720	-5.213	-8191	255	
19007.982	1	1	0	0	0.14777	0.097141	0.2407	0.2281	0.19035	0.20641	0.24971	0.23243	0.024756	0.10765	0.1021	0.23466	0.17881	0.1838	0.10049	0.18216	-3.9333	-3.975	-4.8208	-3.9938	-4.3104	-4.6521	-4.175	-4.7417	-4.2229	-3.8187	-4.9313	-4.2792	-4.1271	-4.7167	-3.9188	-4.7104	193.244	282.289	206.298	-29.119	307.080	-14.631	266.385	290.828	-5.349	126.377	289.061	264.409	123.096	295.270	-15.265	265.278	0.00040174	0.00053233	0.00018343	1823.5	4.8567e-06	2.4707e-06	1853.6	482.53	3.2129e-06	2.2149e-06	554.74	185.12	159.07	54.168	5.2323e-06	67.002	0.00010155	9.0582e-05	2.536e-05	1585.1	1.0142e-06	9.9037e-07	1606.1	419.17	1.0361e-06	9.8397e-07	475.11	159.1	136.35	46.374	1.0007e-06	57.272	96.943	50.102	36.998	-17.923	133.993	91.157	-17.953	-13.402	99.992	83.716	-13.669	-9.555	-9.024	-4.371	115.349	-5.138	-8191	255	
19008.055	1	1	0	0	0.4049	0.067522	0.21852	0.095801	0.11192	0.092133	0.15881	0.39394	0.2518	0.1138	0.15601	0.1523	0.25634	0.183	0.1535	0.25165	-4.0979	-3.8792	-4.6229	-4.275	-3.9708	-4.5062	-4.0292	-4.5875	-4.5354	-3.8333	-4.8979	-4.2	-4.175	-4.8271	-3.8	-4.3854	190.744	208.687	52.510	242.501	178.980	292.830	270.598	298.280	59.312	234.388	23.741	-6.761	-2.591	267.824	-2.596	-11.533	0.00036835	0.0006339	0.00016533	1820.4	3.2767e-06	3.176e-06	1851.6	482.5	4.8361e-06	7.5654e-06	554.5	186.42	159.11	53.864	3.9577e-06	67.049	9.844e-05	8.9351e-05	2.4415e-05	1584	1.0098e-06	9.5897e-07	1606.5	419.13	9.9355e-07	9.6817e-07	475.27	159.73	136.5	46.371	9.63e-07	57.393	103.001	45.992	27.664	-17.660	90.274	104.569	-18.078	-13.286	100.426	70.327	-13.852	-9.418	-9.290	-4.288	89.601	-5.231	-8191	255	
19008.174	1	1	0	0	0.25063	0.073394	0.024781	0.23592	0.18223	0.14797	0.31807	0.35688	0.12305	0.051221	0.19645	0.15178	0.11982	0.083957	0.23097	0.3629	-4.0792	-3.5938	-4.7	-4.2937	-3.9542	-4.7417	-4.0917	-4.3917	-4.4542	-3.7146	-4.7875	-4.4854	-3.9354	-4.8646	-3.9521	-4.2979	272.760	295.432	22.451	302.145	312.056	80.238	221.847	279.600	199.438	190.175	277.377	295.109	43.354	305.491	104.038	-23.665	0.00031131	0.00040619	0.0001666	1830.2	5.3986e-06	4.3307e-06	1849.7	482.87	2.2575e-06	4.6818e-06	554.74	185.42	159.56	53.905	5.9932e-06	66.99	9.6989e-05	8.9626e-05	2.3823e-05	1584.4	9.8053e-07	9.4779e-07	1605.2	418.71	9.8515e-07	9.5673e-07	474.46	159.17	136.29	46.441	9.6465e-07	57.3	88.483	35.958	45.401	-17.601	87.958	65.226	-18.030	-13.240	169.773	132.710	-13.563	-9.354	-9.102	-4.218	118.819	-5.077	-8191	255	
19008.270	1	1	0	0	0.067359	0.12732	0.27729	0.36642	0.042166	0.1492	0.11247	0.098847	0.10885	0.25528	0.1373	0.1453	0.20318	0.42523	0.21724	0.14416	-4.2333	-3.6625	-4.4062	-4.6312	-3.7938	-4.7604	-4.2271	-4.3417	-4.65	-3.6625	-4.6292	-4.4896	-3.9813	-4.8375	-4.0583	-4.2292	218.543	42.871	249.539	302.309	248.444	141.085	309.108	223.050	118.553	203.581	-30.153	195.477	321.404	-30.452	133.498	297.203	0.00036462	0.0005133	0.00012992	1824.5	3.4108e-06	4.2554e-06	1848.3	481.33	3.9802e-06	5.2671e-06	555.96	185.43	159.54	53.792	4.7071e-06	66.919	9.7491e-05	8.6695e-05	2.4264e-05	1584.1	9.9416e-07	9.44e-07	1603.5	418.22	9.9295e-07	9.5071e-07	475.22	159.18	136.34	46.344	9.932e-07	57.21	79.900	10.018	50.857	-17.820	66.758	97.394	-17.948	-13.295	125.747	86.946	-13.847	-9.440	-8.849	-4.131	143.655	-5.270	-8191	255	
#DATA ENDS
