BOXY.EXE: ISS Imagent and Oximeter Data Acquisition Program Version 0.80
Ascii Record File

#ACQ INFORMATION
2  Detector Channels 
16  External MUX Channels 
1  Auxiliary Channels 
5000  Waveform (CCF) Frequency (Hz)
1  Waveforms Skipped 
30  Waveforms Averaged 
1  Cycles Averaged 
16  Acquisitions per Waveform 
10.0806  Updata Rate (Hz) 

#FILE INFORMATION
TRUE -- External MUX Channel results are PARSED.
FALSE -- AC DC and Phase are NOT grouped.
TRUE -- Companion Program Settings File CREATED.
FALSE -- AC data not excluded
FALSE -- DC data not excluded
FALSE -- Phase data not excluded
FALSE -- Auxillary Chn. data not excluded
Tab delimiters

#CALIBRATION STATE
TRUE -- Waveform Calibration Values APPLIED.


#AUX CALIBRATION VALUES
Val Type	aux-1	

Term	1.0000e+00	
Factor	0.0000e+00	


#WF CALIBRATION VALUES
A = Detector Channel
Val Type	A-AC1	A-AC2	A-AC3	A-AC4	A-AC5	A-AC6	A-AC7	A-AC8	A-AC9	A-AC10	A-AC11	A-AC12	A-AC13	A-AC14	A-AC15	A-AC16	A-DC1	A-DC2	A-DC3	A-DC4	A-DC5	A-DC6	A-DC7	A-DC8	A-DC9	A-DC10	A-DC11	A-DC12	A-DC13	A-DC14	A-DC15	A-DC16	A-Ph1	A-Ph2	A-Ph3	A-Ph4	A-Ph5	A-Ph6	A-Ph7	A-Ph8	A-Ph9	A-Ph10	A-Ph11	A-Ph12	A-Ph13	A-Ph14	A-Ph15	A-Ph16	

Term	0.00000e+00	0.00000e+00	0.00000e+00	0.00000e+00	0.00000e+00	0.00000e+00	0.00000e+00	0.00000e+00	0.00000e+00	0.00000e+00	0.00000e+00	0.00000e+00	0.00000e+00	0.00000e+00	0.00000e+00	0.00000e+00	0.00000e+00	0.00000e+00	0.00000e+00	0.00000e+00	0.00000e+00	0.00000e+00	0.00000e+00	0.00000e+00	0.00000e+00	0.00000e+00	0.00000e+00	0.00000e+00	0.00000e+00	0.00000e+00	0.00000e+00	0.00000e+00	0.00000e+00	0.00000e+00	0.00000e+00	0.00000e+00	0.00000e+00	0.00000e+00	0.00000e+00	0.00000e+00	0.00000e+00	0.00000e+00	0.00000e+00	0.00000e+00	0.00000e+00	0.00000e+00	0.00000e+00	0.00000e+00	
Factor	1.00000e+00	1.00000e+00	1.00000e+00	1.00000e+00	1.00000e+00	1.00000e+00	1.00000e+00	1.00000e+00	1.00000e+00	1.00000e+00	1.00000e+00	1.00000e+00	1.00000e+00	1.00000e+00	1.00000e+00	1.00000e+00	1.00000e+00	1.00000e+00	1.00000e+00	1.00000e+00	1.00000e+00	1.00000e+00	1.00000e+00	1.00000e+00	1.00000e+00	1.00000e+00	1.00000e+00	1.00000e+00	1.00000e+00	1.00000e+00	1.00000e+00	1.00000e+00	X	X	X	X	X	X	X	X	X	X	X	X	X	X	X	X	

B = Detector Channel
Val Type	B-AC1	B-AC2	B-AC3	B-AC4	B-AC5	B-AC6	B-AC7	B-AC8	B-AC9	B-AC10	B-AC11	B-AC12	B-AC13	B-AC14	B-AC15	B-AC16	B-DC1	B-DC2	B-DC3	B-DC4	B-DC5	B-DC6	B-DC7	B-DC8	B-DC9	B-DC10	B-DC11	B-DC12	B-DC13	B-DC14	B-DC15	B-DC16	B-Ph1	B-Ph2	B-Ph3	B-Ph4	B-Ph5	B-Ph6	B-Ph7	B-Ph8	B-Ph9	B-Ph10	B-Ph11	B-Ph12	B-Ph13	B-Ph14	B-Ph15	B-Ph16	

Term	0.00000e+00	0.00000e+00	0.00000e+00	0.00000e+00	0.00000e+00	0.00000e+00	0.00000e+00	0.00000e+00	0.00000e+00	0.00000e+00	0.00000e+00	0.00000e+00	0.00000e+00	0.00000e+00	0.00000e+00	0.00000e+00	0.00000e+00	0.00000e+00	0.00000e+00	0.00000e+00	0.00000e+00	0.00000e+00	0.00000e+00	0.00000e+00	0.00000e+00	0.00000e+00	0.00000e+00	0.00000e+00	0.00000e+00	0.00000e+00	0.00000e+00	0.00000e+00	-1.74110e+02	-1.49463e+02	-1.54163e+02	-1.83559e+02	-9.67051e+01	-8.85097e+01	-1.58120e+02	-1.62015e+02	-7.57778e+01	-9.11998e+01	-1.70546e+02	-1.71093e+02	-1.79028e+02	-1.76657e+02	-7.54591e+01	-1.49556e+02	
Factor	3.07533e-05	1.16140e-04	3.88137e-05	1.69307e-01	1.12974e-06	1.04412e-06	1.84577e-01	5.88378e-02	1.11002e-06	1.29812e-06	9.83490e-02	3.36173e-02	3.12576e-02	1.02943e-02	1.39422e-06	1.47485e-02	9.99033e-07	1.02388e-06	2.85475e-07	7.71054e-02	1.12068e-08	1.12247e-08	7.91330e-02	2.67211e-02	1.11987e-08	1.12333e-08	4.26404e-02	1.45631e-02	1.40376e-02	4.62015e-03	1.12025e-08	6.38598e-03	X	X	X	X	X	X	X	X	X	X	X	X	X	X	X	X	



#DISTANCE SETTINGS
A = Detector Channel
A-1	A-2	A-3	A-4	A-5	A-6	A-7	A-8	A-9	A-10	A-11	A-12	A-13	A-14	A-15	A-16	

2.5000e+00	3.0000e+00	2.5000e+00	3.0000e+00	2.0000e+00	3.0000e+00	1.5000e+00	3.0000e+00	3.0000e+00	3.0000e+00	3.0000e+00	3.0000e+00	3.0000e+00	3.0000e+00	1.5000e+00	3.0000e+00	

B = Detector Channel
B-1	B-2	B-3	B-4	B-5	B-6	B-7	B-8	B-9	B-10	B-11	B-12	B-13	B-14	B-15	B-16	

1.0000e+01	1.0000e+01	1.0000e+01	1.4400e+00	1.0000e+01	1.0000e+01	1.5100e+00	1.9400e+00	1.0000e+01	1.0000e+01	1.9900e+00	2.4900e+00	2.4100e+00	2.9000e+00	1.0000e+01	2.9800e+00	




#DATA BEGINS
time	group	step	mark	flag	A-AC1	A-AC2	A-AC3	A-AC4	A-AC5	A-AC6	A-AC7	A-AC8	A-AC9	A-AC10	A-AC11	A-AC12	A-AC13	A-AC14	A-AC15	A-AC16	A-DC1	A-DC2	A-DC3	A-DC4	A-DC5	A-DC6	A-DC7	A-DC8	A-DC9	A-DC10	A-DC11	A-DC12	A-DC13	A-DC14	A-DC15	A-DC16	A-Ph1	A-Ph2	A-Ph3	A-Ph4	A-Ph5	A-Ph6	A-Ph7	A-Ph8	A-Ph9	A-Ph10	A-Ph11	A-Ph12	A-Ph13	A-Ph14	A-Ph15	A-Ph16	B-AC1	B-AC2	B-AC3	B-AC4	B-AC5	B-AC6	B-AC7	B-AC8	B-AC9	B-AC10	B-AC11	B-AC12	B-AC13	B-AC14	B-AC15	B-AC16	B-DC1	B-DC2	B-DC3	B-DC4	B-DC5	B-DC6	B-DC7	B-DC8	B-DC9	B-DC10	B-DC11	B-DC12	B-DC13	B-DC14	B-DC15	B-DC16	B-Ph1	B-Ph2	B-Ph3	B-Ph4	B-Ph5	B-Ph6	B-Ph7	B-Ph8	B-Ph9	B-Ph10	B-Ph11	B-Ph12	B-Ph13	B-Ph14	B-Ph15	B-Ph16	aux-1	digaux	

18981.477	1	1	0	256	0.15843	0.16888	0.24133	0.12779	0.058058	0.099801	0.17714	0.17615	0.26417	0.20882	0.14452	0.047546	0.073074	0.17568	0.18161	0.22076	-4.1646	-4.1771	-5.0146	-4.3	-4.55	-4.7583	-4.1396	-5.125	-4.5021	-4.2208	-5.0062	-3.975	-4.55	-4.8438	-3.8417	-4.8354	95.833	335.185	273.636	75.604	203.798	148.941	325.323	7.321	170.920	273.742	320.561	-5.705	299.335	269.033	341.956	-6.815	0.00022012	0.00020499	0.00012255	1194.9	2.3166e-06	2.0799e-06	1300	237.54	1.4591e-06	2.5468e-06	305.97	83.004	65.604	18.699	1.8405e-06	26.505	9.5189e-05	9.0582e-05	2.5158e-05	1149.6	1.0215e-06	1.0019e-06	1253	229.67	1.0376e-06	1.0325e-06	291.44	80.476	63.145	18.362	1.0451e-06	25.487	84.800	79.664	58.958	-7.290	99.304	167.301	-7.129	0.236	117.081	106.650	-0.406	7.040	7.223	14.568	114.163	13.785	-8191	255	
18981.572	1	1	0	0	0.11863	0.10585	0.1044	0.34966	0.13867	0.14508	0.10728	0.20528	0.060472	0.24426	0.24791	0.23398	0.068515	0.10119	0.21484	0.057146	-4.2063	-4.0292	-5.0687	-4.4437	-4.2458	-4.8958	-4.2667	-4.8146	-4.6062	-4.1229	-5.1542	-4.3271	-4.3042	-5.0583	-4.0458	-4.5979	77.444	21.602	98.162	274.405	-14.267	310.289	240.873	285.315	252.797	87.278	336.319	279.639	-8.503	319.790	324.687	160.527	0.00023985	0.00021095	0.0001067	1200.8	3.7657e-06	1.6073e-06	1300.7	237.59	1.9766e-06	5.0305e-06	305.61	83.643	65.626	18.805	2.1229e-06	26.001	9.8702e-05	9.7201e-05	2.5999e-05	1151.8	1.037e-06	1.0321e-06	1253.1	230.41	1.0182e-06	1.0456e-06	292.22	80.867	63.145	18.342	1.0836e-06	25.428	92.928	126.596	19.852	-7.293	159.731	63.250	-7.057	0.173	131.650	95.607	0.264	6.971	6.849	14.570	109.862	13.637	-8191	255	
18981.693	1	1	0	0	0.13619	0.081731	0.10718	0.32022	0.10925	0.19842	0.16831	0.065708	0.073069	0.10303	0.084472	0.088419	0.25275	0.25855	0.015824	0.15171	-4.3167	-3.975	-5.0125	-4.4458	-4.1479	-5.1375	-4.2458	-4.6833	-4.7812	-4.1229	-4.9375	-4.5292	-4.3708	-5.0312	-4.0625	-4.7229	268.746	238.330	233.493	311.843	176.377	88.072	268.002	19.782	77.747	74.354	159.076	305.673	316.306	304.096	324.540	22.347	0.0002733	0.00038675	0.00010113	1196.9	3.6763e-06	1.184e-06	1308	237.87	1.0979e-06	1.5153e-06	305.49	83.662	65.633	18.926	7.7413e-06	26.252	0.00010181	0.00010018	2.7205e-05	1153.9	1.1292e-06	1.1002e-06	1257.5	229.96	1.1512e-06	1.1681e-06	292.16	81.023	63.411	18.481	1.2051e-06	25.602	90.241	85.153	34.572	-7.262	125.725	269.780	-6.847	0.034	135.241	26.916	-0.193	6.970	6.621	14.296	137.984	13.644	-8191	255	
18981.789	1	1	0	0	0.28144	0.1631	0.21301	0.09828	0.092724	0.046675	0.024408	0.16751	0.070665	0.027974	0.076537	0.27258	0.23643	0.015995	0.26547	0.061232	-4.5542	-3.9688	-4.9479	-4.6583	-4.0833	-4.9479	-4.3667	-4.5417	-4.7729	-3.8625	-5.0813	-4.5312	-4.1208	-4.9812	-4.0896	-4.3583	13.956	123.184	38.238	288.301	59.016	327.095	216.788	245.901	275.443	-12.402	122.160	276.670	219.737	276.720	28.112	133.480	0.00022782	0.00056221	5.1709e-05	1201.7	3.9509e-06	4.0171e-06	1310.7	238.93	2.9847e-06	3.7242e-06	305.96	83.908	65.337	19.011	3.7208e-06	26.228	0.00011586	0.00011537	3.1842e-05	1157	1.3246e-06	1.3046e-06	1263.2	231.68	1.375e-06	1.3709e-06	294.24	81.709	63.562	18.593	1.4294e-06	25.737	103.497	85.994	101.912	-7.122	149.822	130.208	-7.073	0.239	43.505	166.697	-0.040	6.820	7.412	14.446	202.755	13.866	-8191	255	
18981.885	1	1	0	0	0.18872	0.14848	0.13044	0.17419	0.24593	0.11623	0.050588	0.062534	0.059941	0.23083	0.15046	0.22629	0.37461	0.26294	0.052645	0.20825	-4.5521	-4.0563	-4.9062	-4.8042	-4.15	-4.9146	-4.4167	-4.2125	-4.8187	-4.0687	-4.7312	-4.6292	-4.0458	-5.0229	-4.2396	-4.0813	307.255	131.220	336.602	55.442	16.632	197.474	305.971	103.864	143.952	97.581	32.817	287.115	326.691	230.012	267.081	119.412	0.00015217	0.00026706	0.00021947	1204.5	2.4736e-06	2.6034e-06	1313.1	239.19	3.0875e-06	2.9699e-06	306.58	83.772	65.582	18.99	1.8882e-06	26.222	0.0001314	0.00013091	3.6292e-05	1162.2	1.4423e-06	1.4137e-06	1265.6	232.55	1.3845e-06	1.3656e-06	293.98	81.38	63.824	18.562	1.2828e-06	25.614	111.936	287.556	51.809	-7.093	66.129	51.101	-7.133	0.251	172.586	117.334	0.109	7.217	6.972	14.206	71.229	13.594	-8191	255	
18981.957	1	1	0	0	0.063274	0.35301	0.011726	0.32479	0.19237	0.043577	0.13965	0.068616	0.24688	0.046811	0.082976	0.10318	0.13207	0.069437	0.2087	0.11416	-4.7521	-3.9938	-4.7042	-4.9271	-3.9208	-4.7958	-4.4896	-4.1375	-5.0771	-4.1833	-4.7	-4.8333	-3.9146	-5.0479	-4.2479	-4.1729	111.045	324.592	10.759	287.913	-10.094	52.573	288.505	295.062	-7.788	28.672	312.446	13.785	202.607	299.797	134.612	290.390	0.00021668	0.00055685	2.7583e-05	1209.1	4.3399e-06	2.5595e-06	1310.2	237.47	2.5018e-06	2.903e-06	306.89	83.534	65.555	18.919	4.126e-07	26.194	0.0001177	0.00011054	3.0616e-05	1159.5	1.1638e-06	1.1053e-06	1261.1	231.09	1.0476e-06	1.0333e-06	292.2	80.885	63.096	18.328	9.5334e-07	25.424	94.604	-8.653	8.323	-7.202	141.437	90.828	-6.926	0.532	127.721	78.482	0.060	6.896	7.296	14.090	13.520	13.751	-8191	255	
18982.076	1	1	0	0	0.24381	0.19575	0.2409	0.26312	0.25859	0.13862	0.15341	0.11363	0.15218	0.17138	0.17621	0.30706	0.1113	0.14679	0.096551	0.15545	-4.5771	-4.2063	-4.2708	-4.9854	-3.8563	-4.8125	-4.7042	-4.0979	-4.9292	-4.2042	-4.4688	-4.8521	-4.0062	-4.6667	-4.5583	-4.0146	83.614	-6.664	95.948	-11.580	15.537	176.299	276.770	156.822	242.283	160.294	292.906	-3.953	95.803	184.999	336.147	304.721	0.00019584	0.00044974	0.00015389	1202.1	4.9647e-06	2.4281e-06	1310.1	240.16	8.9709e-07	1.26e-06	305.1	83.789	65.573	19.019	2.8776e-06	26.204	9.0419e-05	8.6527e-05	2.3575e-05	1156.8	1.0014e-06	9.3596e-07	1260.9	231.28	9.2622e-07	9.1748e-07	291.41	80.89	63.124	18.382	9.1903e-07	25.413	99.922	81.520	27.839	-6.982	181.764	132.571	-7.140	0.163	91.025	44.145	0.050	7.060	7.352	14.215	103.918	13.889	-8191	255	
18982.174	1	1	0	0	0.18033	0.36758	0.226	0.20859	0.068923	0.21423	0.30516	0.25849	0.17551	0.14033	0.023522	0.10121	0.24936	0.15208	0.12637	0.13651	-4.7708	-4.1708	-4.3417	-5.1625	-3.7854	-4.6312	-4.8771	-3.9667	-4.9812	-4.5271	-4.2167	-4.9896	-4.15	-4.525	-4.7333	-3.9979	225.634	165.169	161.249	289.777	250.627	334.497	304.407	261.939	187.571	140.606	276.699	244.275	81.267	259.406	10.588	114.143	0.00016586	7.9854e-05	6.7115e-05	1203.6	1.7154e-06	1.8799e-06	1305.4	239.56	3.1542e-06	1.9012e-06	307.05	83.758	65.46	18.919	2.8423e-06	26.27	8.824e-05	8.3523e-05	2.3186e-05	1155.7	9.3308e-07	8.9821e-07	1258.2	231.07	9.2457e-07	9.0452e-07	292.28	80.739	62.955	18.362	9.173e-07	25.471	89.195	190.621	40.850	-7.135	115.751	120.252	-6.668	0.258	89.357	273.066	-0.217	7.138	7.621	14.370	113.033	13.666	-8191	255	
18982.270	1	1	0	0	0.13241	0.16568	0.17203	0.21209	0.10607	0.089314	0.21103	0.080333	0.23643	0.26257	0.15872	0.27818	0.019571	0.093556	0.074441	0.09672	-4.6271	-4.6125	-4.1375	-5.1958	-4.0542	-4.5667	-4.9812	-4.1333	-4.8042	-4.5354	-4.2396	-4.9896	-4.3167	-4.3854	-4.9042	-3.9521	314.488	309.846	158.198	325.112	30.037	279.640	266.918	75.672	198.453	21.995	315.456	9.456	186.090	182.998	-0.245	310.963	0.00020122	0.00046019	0.00011453	1201.8	4.0979e-06	2.1467e-06	1308.1	239.18	2.1658e-06	7.7755e-07	303.95	83.477	65.805	18.807	8.6578e-07	26.062	8.9085e-05	8.6985e-05	2.4145e-05	1155.3	9.5536e-07	9.0539e-07	1259.6	230.96	9.4594e-07	9.362e-07	292.27	80.844	63.194	18.313	9.3485e-07	25.418	83.172	52.958	86.540	-6.952	137.215	120.940	-6.897	0.208	191.579	21.143	-0.012	6.944	6.811	14.437	203.865	14.083	-8191	255	
18982.365	1	1	0	0	0.30697	0.049283	0.27767	0.18097	0.05721	0.038445	0.17904	0.16309	0.03854	0.16271	0.25442	0.18542	0.086555	0.031769	0.18217	0.16908	-4.4771	-4.6125	-3.9771	-5.0938	-4.3479	-4.3104	-5.05	-4.1375	-4.7271	-4.6604	-4.0583	-5.0458	-4.3625	-4.3104	-4.8833	-4.0396	106.751	-1.898	46.086	296.493	309.459	27.097	340.306	268.447	113.885	-15.072	29.601	202.495	310.030	72.569	206.441	26.825	0.00019922	0.00035022	7.2327e-05	1204.3	2.6427e-06	4.747e-06	1311.5	238.23	2.075e-06	3.3349e-06	306.18	83.323	65.388	18.761	2.2965e-06	26.472	8.917e-05	8.7207e-05	2.3817e-05	1157.1	9.3929e-07	9.2536e-07	1258.2	230.79	9.1003e-07	9.0882e-07	291.85	80.621	62.908	18.244	8.7601e-07	25.376	101.155	31.866	15.724	-6.969	111.328	90.334	-7.037	0.408	23.808	114.357	-0.081	6.927	7.636	14.202	131.087	13.946	-8191	255	
18982.484	1	1	0	0	0.092675	0.044443	0.31429	0.179	0.1093	0.13484	0.16836	0.12102	0.06946	0.062155	0.063862	0.241	0.10703	0.17699	0.22544	0.26808	-4.3812	-4.7167	-3.9604	-5.1229	-4.25	-4.2188	-5.0625	-4.1458	-4.5521	-4.8521	-4.1208	-5.0833	-4.4563	-4.0396	-4.9458	-4.1	119.426	68.626	3.947	317.097	32.608	195.760	294.660	177.699	22.583	48.570	300.779	240.547	280.633	129.342	76.057	226.039	0.00020982	0.0002103	2.9246e-05	1200.3	3.7711e-06	1.1965e-06	1303	239.39	1.5142e-06	1.4898e-06	306.71	83.541	65.225	18.905	7.7703e-07	25.925	8.7045e-05	8.3308e-05	2.2869e-05	1154.5	9.5645e-07	9.3116e-07	1257.6	230.78	9.5786e-07	9.3422e-07	292.14	80.558	62.93	18.27	9.6437e-07	25.242	80.292	35.089	79.355	-7.365	128.116	183.298	-6.963	0.224	160.295	27.922	0.020	7.088	7.200	14.104	304.193	13.903	-8191	255	
18982.580	1	1	0	0	0.14597	0.12139	0.12019	0.27356	0.15054	0.050853	0.13758	0.082617	0.15691	0.29153	0.17452	0.19103	0.30954	0.098608	0.16471	0.083521	-4.1583	-4.8521	-4.025	-4.9771	-4.5875	-4.2021	-5.1479	-4.25	-4.4104	-4.9521	-4.1479	-4.9229	-4.6562	-4.0417	-4.9875	-4.2771	157.665	64.680	337.534	275.640	147.266	322.609	238.305	233.227	80.194	-8.004	-15.674	-12.171	315.032	342.329	255.127	286.594	0.00026232	0.00026803	4.5686e-05	1203.6	1.4842e-06	4.3556e-06	1306.8	239.6	2.6307e-06	3.9795e-06	306.13	83.746	65.551	18.698	5.8402e-06	26.281	9.0816e-05	8.7634e-05	2.4223e-05	1153.1	9.8265e-07	9.6103e-07	1257.4	230.81	9.7715e-07	9.4936e-07	292.52	80.752	63.004	18.298	9.5672e-07	25.395	85.236	75.217	31.654	-7.205	123.924	96.778	-7.050	0.430	188.362	187.748	0.033	7.201	7.347	14.608	170.876	13.653	-8191	255	
18982.654	1	1	0	0	0.10155	0.24572	0.19999	0.18364	0.045787	0.13873	0.14378	0.19111	0.13623	0.16447	0.12524	0.11998	0.073493	0.18214	0.25335	0.33545	-4.0563	-4.9625	-3.9708	-4.8396	-4.725	-3.9875	-5.1708	-4.2979	-4.1729	-5.0437	-4.2333	-4.5604	-4.9479	-4.1562	-5.0479	-4.4375	292.714	11.962	123.038	283.888	6.000	92.453	-15.142	300.866	285.305	8.844	177.405	215.424	91.095	218.137	255.412	-12.618	0.00022151	0.00012654	0.00013784	1200.3	1.2793e-06	2.2092e-06	1301.5	237.99	1.2157e-06	2.1116e-06	306.03	83.448	65.762	18.832	9.7226e-07	26.148	9.2508e-05	8.6028e-05	2.5699e-05	1153.5	9.8886e-07	9.6678e-07	1255.7	230.89	9.7865e-07	9.3562e-07	291.7	80.677	62.902	18.291	9.5798e-07	25.346	104.799	116.065	64.366	-7.336	99.988	137.282	-7.238	0.263	157.481	156.621	-0.292	6.596	7.223	14.307	53.661	13.714	-8191	255	
18982.773	1	1	0	0	0.064576	0.080968	0.074966	0.12164	0.04323	0.16193	0.13251	0.20039	0.2646	0.1273	0.13066	0.21489	0.16386	0.28245	0.081077	0.15239	-3.8604	-5.0604	-4.2063	-4.7875	-4.7438	-3.95	-5.2104	-4.6146	-4.125	-5.1458	-4.2812	-4.55	-4.9437	-4.0875	-4.8083	-4.6854	276.946	183.329	244.260	271.581	143.916	115.423	270.569	159.423	10.731	77.383	212.252	-16.126	35.144	293.903	36.770	274.963	0.00026023	0.00031955	0.00016558	1203.1	2.8363e-06	2.8926e-06	1304.2	239.18	4.8944e-07	2.4087e-06	304.88	83.576	65.158	18.963	1.679e-06	26.074	8.9732e-05	8.437e-05	2.3546e-05	1153.7	9.565e-07	9.1638e-07	1256.4	230.64	9.4622e-07	9.1217e-07	291.58	80.513	62.838	18.315	9.1688e-07	25.231	93.361	17.851	12.225	-7.133	147.229	119.086	-7.000	0.270	177.537	213.403	-0.117	6.818	7.271	14.480	194.727	13.623	-8191	255	
18982.869	1	1	0	0	0.17016	0.15715	0.12434	0.27231	0.13796	0.098	0.27966	0.12105	0.085132	0.1951	0.13509	0.14362	0.036696	0.22795	0.17909	0.12556	-3.8771	-5.0292	-4.3	-4.6729	-4.825	-4.0375	-4.925	-4.8208	-4.0938	-5.1208	-4.3187	-4.5479	-4.9854	-3.9625	-4.8083	-4.7063	88.319	286.104	219.481	243.072	126.266	32.024	335.374	36.174	253.579	50.180	310.070	284.063	22.735	296.363	86.413	283.907	0.00017656	0.00020331	0.00015718	1193.7	1.8928e-06	1.5184e-06	1301.7	238.02	4.0297e-06	1.1755e-06	306.11	83.295	65.005	18.653	2.5231e-06	26.192	8.7107e-05	8.2207e-05	2.3622e-05	1151.1	9.2974e-07	9.0913e-07	1253.5	230.23	9.3672e-07	9.0843e-07	292.05	80.525	62.793	18.237	9.1242e-07	25.375	89.955	25.792	23.493	-7.094	68.071	92.721	-7.015	0.371	127.230	99.274	-0.059	6.938	6.858	14.510	176.261	13.569	-8191	255	
18982.965	1	1	0	0	0.14215	0.1843	0.12242	0.31223	0.083171	0.11647	0.16788	0.12646	0.19088	0.13061	0.18145	0.12443	0.049843	0.13939	0.17953	0.12799	-3.7854	-5.025	-4.35	-4.5354	-4.9563	-4.1083	-4.9729	-4.8917	-3.8375	-4.8958	-4.6458	-4.2937	-5.075	-4.2312	-4.6958	-4.9354	278.952	216.492	30.686	296.078	161.697	134.818	329.058	53.782	245.989	304.291	296.131	262.382	107.603	263.254	98.973	217.256	0.00023443	8.5833e-05	4.606e-05	1198.3	3.4269e-06	2.8412e-06	1304.2	240.06	2.1377e-06	2.303e-06	306.13	83.487	65.62	18.712	1.8075e-06	26.098	8.9605e-05	8.3756e-05	2.3793e-05	1150.3	9.5463e-07	9.5345e-07	1252.7	231.08	9.6941e-07	9.2659e-07	291.13	80.694	63.112	18.307	9.2181e-07	25.355	93.308	307.200	54.181	-7.146	160.407	104.280	-7.164	0.422	172.548	276.387	-0.211	7.012	7.159	14.797	69.235	13.753	-8191	255	
18983.061	1	1	0	0	0.06221	0.12735	0.073343	0.21025	0.058848	0.15263	0.35252	0.20949	0.20345	0.14483	0.18199	0.10633	0.082074	0.13952	0.2101	0.14008	-3.9062	-4.9875	-4.6604	-4.3604	-5.1646	-4.1312	-4.8417	-5.075	-3.8812	-4.8792	-4.6417	-4.3333	-5.1104	-4.0312	-4.4521	-5.0896	90.987	328.877	250.124	-15.753	180.604	93.422	232.280	152.735	340.406	147.857	19.070	103.004	130.813	311.756	35.886	260.934	0.00019203	0.00042175	5.8421e-05	1202.8	3.5422e-06	2.2525e-07	1293.7	238.57	3.7367e-06	1.0304e-06	304.45	83.171	64.867	18.767	4.0732e-06	26.362	8.8981e-05	8.4308e-05	2.3424e-05	1151.2	9.3976e-07	9.2623e-07	1251.2	230.22	9.2758e-07	9.0812e-07	290.76	80.533	62.742	18.224	9.1219e-07	25.311	114.350	11.109	69.047	-7.189	142.783	253.610	-7.144	0.319	166.292	174.711	0.197	6.801	7.568	14.371	98.894	13.859	-8191	255	
18983.182	1	1	0	0	0.1888	0.1907	0.022417	0.34814	0.072019	0.090679	0.25195	0.058069	0.048622	0.10979	0.11008	0.15842	0.20618	0.082834	0.072901	0.029202	-3.7271	-4.8979	-4.6958	-4.3646	-5.0583	-4.2208	-4.6208	-5.1208	-4.0437	-4.575	-4.7417	-4.0938	-4.925	-4.4458	-4.2771	-4.9812	336.172	48.092	41.668	334.470	44.374	71.654	248.697	298.542	162.097	84.565	-6.957	290.611	18.484	298.270	-1.034	319.718	0.0002029	0.00025553	3.8744e-05	1190.2	1.898e-06	1.2874e-06	1299.1	237.98	1.888e-06	4.8971e-06	305.79	84.031	65.647	18.687	3.1687e-06	26.289	8.913e-05	8.4119e-05	2.369e-05	1147.7	9.3957e-07	9.3628e-07	1252.1	230.45	9.5403e-07	9.2223e-07	291.2	80.398	62.801	18.242	9.4878e-07	25.374	89.466	33.065	94.699	-7.105	122.181	28.218	-7.092	-0.012	177.418	98.492	-0.068	6.739	7.530	14.342	193.854	13.746	-8191	255	
18983.254	1	1	0	0	0.057834	0.080409	0.062996	0.3384	0.12869	0.20203	0.36826	0.14667	0.086897	0.14354	0.19728	0.15329	0.095489	0.2617	0.070543	0.103	-3.7604	-4.6375	-4.8396	-4.4083	-4.9729	-4.5604	-4.4042	-5.1542	-4.1896	-4.5583	-4.9354	-4.1479	-4.9313	-4.6979	-4.1792	-5.2167	282.727	67.376	70.205	297.200	242.780	-3.127	324.689	338.635	40.110	67.489	31.403	314.030	19.610	321.702	73.189	234.285	0.00018316	0.00035626	0.00010466	1193.7	7.3612e-07	3.2154e-06	1300.5	239.68	3.4679e-06	1.5942e-06	305.27	82.839	65.444	18.625	3.8347e-06	26.207	8.9505e-05	8.494e-05	2.3377e-05	1148.4	9.3612e-07	9.172e-07	1252	230.58	9.3086e-07	9.0639e-07	291.49	80.267	62.804	18.181	9.2552e-07	25.316	104.019	39.098	32.490	-7.115	79.558	144.681	-7.157	0.408	150.034	116.068	-0.141	6.502	7.064	14.489	91.718	13.812	-8191	255	
18983.373	1	1	0	0	0.16085	0.2455	0.084848	0.055868	0.13733	0.095172	0.08396	0.28591	0.14138	0.27618	0.077542	0.073685	0.080523	0.10221	0.1276	0.091878	-3.9667	-4.55	-4.8979	-4.3417	-4.9187	-4.7729	-4.4625	-5.2208	-4.2229	-4.4604	-5.0188	-4.2667	-4.9125	-4.8042	-4.1229	-5.1521	334.336	237.330	-13.942	135.034	338.819	165.666	205.336	236.573	93.374	261.160	78.448	84.556	293.822	176.822	8.431	5.468	0.00022058	0.00022743	6.1077e-05	1193.3	1.3339e-06	1.7005e-06	1299.9	239.41	9.1346e-07	1.8141e-06	306.41	82.954	65.517	18.659	3.0213e-06	26.086	8.9449e-05	8.2773e-05	2.3776e-05	1147.2	9.3871e-07	9.1393e-07	1250.5	230.32	9.4965e-07	9.3744e-07	291.64	80.263	62.873	18.225	9.236e-07	25.282	90.935	85.640	20.385	-7.274	51.846	83.142	-7.250	0.482	70.901	157.726	0.301	6.935	7.016	13.992	114.668	13.396	-8191	255	
18983.469	1	1	0	0	0.15603	0.10971	0.18151	0.18644	0.17682	0.1015	0.22924	0.19245	0.13696	0.11648	0.019823	0.18931	0.22462	0.32824	0.11088	0.14741	-4.2208	-4.3875	-5.0083	-4.3438	-4.7292	-4.8229	-4.2271	-5.0687	-4.4792	-4.3125	-5.0792	-4.3375	-4.7646	-5.0333	-4.0208	-4.8896	136.536	202.659	130.233	325.247	238.331	2.433	258.198	297.468	169.137	162.533	66.414	78.125	52.126	298.305	198.522	-2.259	0.00019681	0.00038923	6.4808e-05	1192.5	1.7478e-06	9.775e-07	1295.6	237.3	1.6779e-06	2.6065e-06	303.85	83.159	65.521	18.745	6.9089e-07	26.003	8.9765e-05	8.5554e-05	2.3016e-05	1147	9.2372e-07	9.1788e-07	1248	229.77	9.1015e-07	9.1992e-07	290.31	80.4	62.74	18.2	9.0778e-07	25.307	86.597	14.560	41.260	-7.069	79.492	290.572	-7.299	0.350	30.707	175.193	-0.041	6.940	6.792	14.439	-7.534	14.263	-8191	255	
18983.564	1	1	0	0	0.30293	0.11001	0.22043	0.42625	0.20232	0.16657	0.091141	0.10996	0.071724	0.060646	0.29067	0.05069	0.10386	0.25872	0.10993	0.11398	-4.3375	-4.3292	-5.0854	-4.3187	-4.5813	-5.0021	-4.1708	-5.0208	-4.6125	-4.2271	-5.1687	-4.2396	-4.5667	-5.0271	-4.0167	-4.7771	225.443	270.032	281.161	274.661	217.582	273.752	-8.501	279.485	127.920	213.351	211.170	-13.542	339.691	119.451	6.110	330.412	0.00016239	9.4455e-05	0.00010925	1191.2	3.8946e-06	2.486e-06	1296.2	237.47	3.1639e-06	3.077e-06	306.21	82.835	64.913	18.755	3.2096e-06	26.252	8.7669e-05	8.4724e-05	2.2962e-05	1145	9.2013e-07	8.9269e-07	1249.2	229.76	9.2856e-07	9.0845e-07	290.77	80.162	62.462	18.192	8.9583e-07	25.26	97.140	72.439	2.776	-7.229	125.111	156.984	-7.123	0.188	169.668	139.041	-0.018	6.674	7.118	14.878	215.801	13.767	-8191	255	
18983.660	1	1	0	0	0.03684	0.0075876	0.09382	0.067559	0.26569	0.090376	0.17025	0.23696	0.3372	0.11983	0.27977	0.23032	0.25193	0.10092	0.08926	0.12697	-4.4	-4.0917	-5.1271	-4.45	-4.375	-5.0167	-4.2667	-4.9042	-4.7854	-4.0958	-5.1083	-4.3812	-4.4042	-4.925	-4.0583	-4.8271	123.504	301.660	307.963	229.201	126.364	294.650	288.570	248.750	332.299	224.241	293.506	322.870	37.360	308.562	18.200	51.071	0.00017566	0.00027138	5.6385e-05	1187.2	2.2915e-06	1.5498e-06	1287.9	236.41	2.7044e-06	2.1632e-06	305.83	83.223	65.297	18.552	5.1062e-06	25.991	8.4408e-05	8.0947e-05	2.2807e-05	1143.9	9.0605e-07	8.8685e-07	1246.6	229.64	8.9533e-07	9.0426e-07	290.59	80.332	62.522	18.114	9.0647e-07	25.263	91.386	33.492	26.938	-6.889	159.240	116.921	-7.104	0.463	183.768	156.900	0.048	6.911	7.341	14.430	185.021	13.738	-8191	255	
18983.781	1	1	0	0	0.34957	0.12476	0.1335	0.11744	0.10552	0.18485	0.3261	0.046835	0.097348	0.23229	0.27335	0.10726	0.16598	0.070345	0.13803	0.12319	-4.6146	-4.1312	-5.1333	-4.5833	-4.1729	-5.0042	-4.3	-4.7312	-4.7833	-4.0375	-5.0813	-4.8042	-4.2812	-5.0875	-4.0437	-4.5708	205.665	75.109	46.172	6.054	183.998	126.580	273.693	335.778	-13.885	105.207	264.397	100.436	2.366	147.511	248.109	21.375	0.0001891	0.00041281	0.00011951	1190.6	1.646e-06	2.667e-06	1296.9	237.03	4.359e-06	3.1439e-06	304.33	82.512	65.635	18.629	1.1542e-06	26.06	8.5295e-05	8.1727e-05	2.228e-05	1144.1	9.1419e-07	8.6992e-07	1244.9	229.55	9.0133e-07	8.8282e-07	290.94	80.244	62.579	18.155	8.8444e-07	25.293	99.783	27.603	26.377	-6.932	21.348	81.148	-7.233	0.252	113.941	79.284	-0.168	6.927	7.176	14.734	233.065	14.239	-8191	255	
18983.879	1	1	0	0	0.13234	0.18462	0.13908	0.27848	0.22087	0.14364	0.23023	0.064267	0.05998	0.27664	0.14354	0.14259	0.11195	0.13914	0.091416	0.30908	-4.5938	-4.0062	-5.0104	-4.7792	-4.0917	-5.025	-4.325	-4.6729	-4.8417	-4.0979	-4.8833	-4.6979	-4.2312	-5.0354	-4.2771	-4.45	35.266	244.961	97.638	312.401	323.277	55.340	241.274	207.399	237.319	106.786	291.299	286.906	262.218	122.571	31.656	321.593	0.00025402	0.00026024	3.7318e-05	1191.9	2.7623e-06	8.4089e-07	1291.6	236.92	2.3428e-06	2.4121e-06	302.99	82.319	64.681	18.681	3.4618e-06	26.059	8.5588e-05	8.1691e-05	2.2397e-05	1143.8	9.2622e-07	8.8421e-07	1246.3	229.11	9.0042e-07	8.9932e-07	290.54	80.181	62.616	18.194	9.3261e-07	25.239	90.723	35.911	98.374	-7.168	142.442	67.282	-6.866	0.182	188.227	111.127	0.226	6.729	7.559	14.236	171.843	13.882	-8191	255	
18983.949	1	1	0	0	0.1128	0.060458	0.14044	0.19223	0.12116	0.15459	0.26117	0.12576	0.17484	0.038084	0.19054	0.19541	0.031232	0.062578	0.027337	0.041884	-4.6604	-3.9708	-4.7521	-4.8479	-4.0208	-5.0792	-4.5687	-4.3604	-5.0208	-4.0167	-4.8625	-4.8354	-4.0437	-4.9396	-4.35	-4.3521	116.782	26.821	209.476	-9.163	6.161	-13.074	17.837	30.795	269.699	227.707	300.094	269.331	227.195	116.111	183.545	276.580	0.00017734	0.00032369	4.1662e-05	1191.2	2.8493e-06	2.2519e-06	1292.4	237.18	1.0305e-06	4.7295e-06	303.83	83.212	65.223	18.411	5.2823e-06	26.133	8.7374e-05	8.3707e-05	2.3066e-05	1145.1	9.4903e-07	8.8465e-07	1244	229.05	9.2051e-07	8.8203e-07	290.55	80.271	62.515	18.108	9.1625e-07	25.258	99.279	78.918	28.291	-6.690	130.339	106.859	-6.832	-0.034	172.646	76.005	0.053	6.985	6.804	14.368	148.049	13.775	-8191	255	
18984.047	1	1	0	0	0.13357	0.15733	0.17263	0.076514	0.01647	0.35652	0.1797	0.10223	0.16575	0.10825	0.10447	0.076395	0.089025	0.072946	0.22357	0.07708	-4.7438	-4.15	-4.6188	-4.8354	-4.0417	-5.0292	-4.5208	-4.3167	-5.0104	-4.175	-4.4833	-4.7979	-4.075	-4.7729	-4.5437	-4.1875	278.075	302.170	23.026	44.750	161.348	42.548	253.769	220.327	131.147	113.240	339.964	69.652	202.595	94.309	62.588	263.872	0.00020605	0.0003655	3.8327e-05	1189.7	1.7969e-06	2.8983e-06	1291.6	237.56	3.9296e-06	2.734e-06	304.92	83.228	65.201	18.58	1.9823e-06	26.041	8.7684e-05	8.3882e-05	2.2847e-05	1143.5	9.1048e-07	8.8835e-07	1244.1	228.88	8.8969e-07	8.6887e-07	290.16	80.473	62.658	18.134	8.9287e-07	25.232	105.673	41.503	94.624	-6.966	129.014	84.992	-6.953	0.184	183.077	78.984	-0.234	7.103	7.207	14.180	92.726	13.798	-8191	255	
18984.143	1	1	0	0	0.12877	0.10808	0.034792	0.26974	0.23817	0.12407	0.090253	0.30919	0.043788	0.28342	0.15938	0.14328	0.12565	0.28006	0.075723	0.18148	-4.5396	-4.1542	-4.3708	-5.0354	-3.9354	-4.8875	-4.7479	-4.1604	-4.9271	-4.2521	-4.3646	-5.0188	-4.0896	-4.7562	-4.6708	-4.1271	331.728	160.875	118.546	309.004	246.170	252.706	174.020	312.623	47.942	66.463	-11.675	332.551	197.076	59.293	89.658	265.081	0.00017599	0.00036067	6.042e-05	1188.9	1.4396e-06	2.7523e-06	1294.8	236.66	3.0065e-06	2.9379e-06	303.35	82.196	65.04	18.824	4.3175e-06	26.133	8.7076e-05	8.1591e-05	2.2355e-05	1142.3	9.4758e-07	8.9419e-07	1246.6	228.81	9.1075e-07	8.9518e-07	290.64	79.988	62.511	18.248	8.8862e-07	25.227	85.131	42.158	158.930	-6.966	142.178	117.542	-6.741	0.187	163.418	60.294	0.114	6.740	7.078	14.203	118.511	13.850	-8191	255	
18984.262	1	1	0	0	0.23719	0.10613	0.086653	0.083413	0.16482	0.2032	0.02577	0.093686	0.16617	0.19416	0.059707	0.084947	0.19984	0.033494	0.091812	0.10895	-4.7208	-4.425	-4.2792	-5.2417	-4.0646	-4.5437	-4.8938	-4.0021	-5.0021	-4.4458	-4.4187	-5.0271	-4.1271	-4.6188	-4.7792	-4.0479	42.597	231.111	200.891	308.758	11.251	234.930	205.389	-12.004	91.646	228.484	145.887	-7.107	161.995	-1.294	105.997	199.589	0.0002138	0.00036799	8.0305e-05	1192.5	6.4154e-07	1.3436e-06	1298.6	237.88	2.9837e-06	1.1317e-06	304.95	82.886	64.948	18.568	4.3881e-06	26.155	8.4112e-05	8.1966e-05	2.2643e-05	1144.7	9.2984e-07	8.6643e-07	1245.8	229.29	8.7909e-07	8.9934e-07	290.4	80.282	62.543	18.191	8.9179e-07	25.189	90.225	75.987	52.253	-7.070	172.324	186.755	-6.768	0.150	152.855	40.054	-0.039	7.121	7.418	14.608	160.463	13.638	-8191	255	
18984.359	1	1	0	0	0.19369	0.2311	0.089162	0.232	0.16731	0.072991	0.29599	0.15242	0.032219	0.11618	0.19092	0.098891	0.24363	0.29667	0.19646	0.054601	-4.7458	-4.5938	-4.2688	-5.2792	-4.1312	-4.4354	-5.1604	-4.15	-4.9	-4.5958	-4.1333	-4.9625	-4.0563	-4.3458	-4.825	-4.1208	185.900	264.334	147.747	258.636	151.995	109.415	308.894	324.747	201.945	95.132	21.673	152.222	-13.959	255.016	-17.416	143.746	0.00016985	0.00029171	7.8235e-05	1187.2	2.9502e-06	3.9264e-06	1289.9	236.79	2.6405e-06	2.8955e-06	305.44	83.602	65.502	18.614	4.8088e-06	26.09	8.8367e-05	8.3139e-05	2.3305e-05	1144.2	9.261e-07	9.1615e-07	1245.1	229.5	9.5823e-07	9.282e-07	290.48	80.373	62.705	18.159	9.1693e-07	25.229	120.321	47.775	18.394	-7.119	123.376	28.354	-7.045	-0.048	130.085	73.476	-0.077	6.796	7.148	14.396	202.522	13.367	-8191	255	
18984.455	1	1	0	0	0.050296	0.25195	0.062211	0.13577	0.16539	0.033626	0.16461	0.18901	0.17762	0.026748	0.10011	0.15066	0.041609	0.095652	0.076441	0.24155	-4.6146	-4.675	-4.1146	-5.2021	-4.4333	-4.425	-5.1229	-4.15	-4.6646	-4.7167	-4.0292	-5.1854	-4.3354	-4.2333	-4.9542	-4.1583	84.219	-6.958	98.715	295.252	292.348	313.325	219.619	286.804	128.895	36.920	334.673	9.565	64.519	332.582	277.365	278.255	0.00021217	4.954e-05	0.00011624	1186.5	3.0812e-06	2.4012e-06	1297.7	237.08	3.5351e-06	2.7112e-06	304.28	83.064	65.393	18.513	3.773e-06	25.838	8.6119e-05	8.2322e-05	2.3242e-05	1143.1	9.2437e-07	8.9045e-07	1246.7	229.33	8.8192e-07	8.6548e-07	289.67	80.323	62.676	18.132	8.723e-07	25.179	96.676	58.937	39.105	-6.908	114.768	68.679	-6.941	0.271	201.882	96.243	-0.110	6.947	7.241	14.587	130.090	14.071	-8191	255	
18984.549	1	1	0	0	0.010826	0.044258	0.062089	0.11826	0.19473	0.12057	0.20065	0.0092171	0.078764	0.10652	0.11187	0.030398	0.21731	0.23472	0.15934	0.1011	-4.4437	-4.8708	-3.9771	-5.0771	-4.2833	-4.0479	-5.3063	-4.2396	-4.5146	-4.7833	-4.0271	-5.0292	-4.5958	-4.1083	-5.0875	-4.3146	176.175	22.560	28.774	258.006	180.578	239.405	227.286	23.565	295.068	302.126	99.276	138.840	107.149	289.542	71.907	338.895	0.00022346	0.00029776	8.0213e-05	1196.8	3.8927e-06	2.424e-06	1291.4	237.21	4.2381e-06	4.0724e-06	306.09	83.177	65.197	18.726	8.2997e-07	25.831	8.3904e-05	8.1245e-05	2.2916e-05	1145.2	9.0191e-07	8.8404e-07	1244	229.19	8.7958e-07	8.5993e-07	290.72	80.244	62.709	18.201	8.9027e-07	25.146	102.731	49.654	319.307	-7.195	95.296	156.042	-7.151	0.537	118.005	129.572	-0.050	6.925	7.109	14.672	127.245	14.036	-8191	255	
18984.645	1	1	0	0	0.20809	0.0322	0.13377	0.15628	0.23756	0.089369	0.27084	0.23928	0.16127	0.11425	0.30359	0.18769	0.20434	0.26946	0.22643	0.12747	-4.1854	-4.975	-4	-4.9437	-4.6062	-4.1875	-5.2521	-4.3187	-4.4229	-4.9021	-4.0958	-4.8354	-4.7271	-4.1167	-5.0042	-4.5354	91.837	239.070	46.135	288.305	61.527	294.421	307.917	305.459	167.817	72.286	338.989	270.222	246.887	6.561	312.391	30.433	0.0002057	0.00049163	8.7977e-05	1195.5	6.7959e-07	1.386e-06	1290.4	236.92	2.9195e-06	1.3727e-06	302.38	83.088	65.66	18.466	3.4778e-06	26.126	8.4254e-05	8.0706e-05	2.3013e-05	1144.7	9.1581e-07	9.0628e-07	1247.7	229.23	9.157e-07	8.8168e-07	289.81	80.267	62.702	18.149	9.0365e-07	25.194	88.626	69.658	64.451	-7.225	125.642	228.073	-6.946	-0.005	235.178	81.391	-0.000	6.976	7.322	14.517	172.243	13.984	-8191	255	
18984.742	1	1	0	0	0.132	0.21885	0.42835	0.07696	0.15423	0.16052	0.24236	0.10692	0.09365	0.023664	0.058559	0.1742	0.21464	0.17534	0.042851	0.25793	-4.1396	-4.9125	-4.1	-4.925	-4.6854	-4.1042	-5.1958	-4.3792	-4.1854	-5.0521	-4.1438	-4.7521	-4.9125	-4.1042	-4.9313	-4.5021	23.631	291.960	0.727	262.598	26.440	240.676	272.668	22.223	286.863	73.577	305.817	332.920	270.507	212.773	37.571	294.063	0.00025467	0.00016289	6.003e-05	1194.1	5.0286e-06	1.4658e-06	1293.2	237.41	2.7461e-06	5.4172e-06	304.11	82.817	65.008	18.77	3.6977e-06	25.935	8.4264e-05	8.1228e-05	2.2596e-05	1144.2	9.0619e-07	8.8928e-07	1246.9	229.4	9.1789e-07	8.5589e-07	290.28	80.313	62.413	18.216	9.1338e-07	25.232	110.887	28.424	6.053	-7.096	146.901	105.156	-7.121	0.377	223.616	112.037	-0.181	6.844	6.989	14.294	213.276	13.813	-8191	255	
18984.861	1	1	0	0	0.24223	0.079356	0.088635	0.088356	0.10039	0.12422	0.12599	0.23264	0.23155	0.10846	0.23428	0.20995	0.075163	0.14431	0.10431	0.069877	-3.9271	-4.9729	-4.3417	-4.6	-4.8104	-4.0083	-5.0875	-4.5417	-4.0479	-5.0437	-4.2771	-4.5729	-4.8583	-4.0271	-4.7583	-4.7812	203.056	218.408	270.771	271.267	302.063	-1.140	233.967	296.859	-6.636	219.115	284.761	28.158	12.575	274.858	176.568	140.946	0.00018573	0.00019102	7.5736e-05	1186.4	2.3641e-06	2.2195e-06	1295.9	239.04	7.718e-07	3.2385e-06	302.55	83.073	65.473	18.635	4.3315e-06	25.946	8.6808e-05	8.3297e-05	2.3006e-05	1143.3	9.2414e-07	9.2382e-07	1246.8	229.56	9.2818e-07	8.8378e-07	290.05	80.14	62.667	18.204	9.0787e-07	25.224	102.948	107.713	323.918	-7.221	98.189	96.117	-7.076	0.070	33.451	135.048	0.075	6.709	7.311	14.732	114.696	13.802	-8191	255	
18984.957	1	1	0	0	0.12545	0.27087	0.16117	0.12377	0.25545	0.1402	0.12745	0.15477	0.096209	0.14921	0.10522	0.1958	0.11205	0.15954	0.083949	0.14196	-3.9792	-5.0021	-4.2625	-4.4958	-5.0021	-4.1188	-5.0854	-4.7937	-3.9833	-5.1312	-4.4021	-4.4437	-5.0021	-4.0729	-4.6875	-4.7688	311.759	309.987	264.261	-11.484	282.687	263.613	31.379	250.340	90.122	25.246	255.840	270.828	27.092	255.439	36.090	27.347	0.0001769	0.00020372	2.564e-05	1190.1	1.4911e-06	3.6481e-06	1294.3	237.53	2.5356e-06	2.77e-06	304.58	82.546	65.122	18.557	1.9564e-06	26.006	8.7613e-05	8.2359e-05	2.2872e-05	1145.2	9.4294e-07	9.1694e-07	1245.3	229.64	9.5842e-07	9.0557e-07	290.66	80.29	62.638	18.167	9.3296e-07	25.228	98.221	64.136	64.854	-6.977	121.297	179.139	-7.227	0.665	108.949	94.589	0.086	6.631	7.609	14.782	129.119	13.829	-8191	255	
18985.055	1	1	0	0	0.05071	0.17128	0.11767	0.18938	0.20708	0.11205	0.27073	0.36119	0.022812	0.043159	0.11489	0.088216	0.050358	0.13024	0.1045	0.21203	-3.6979	-4.9792	-4.4833	-4.4479	-4.9437	-4.0708	-4.6625	-4.8083	-4.1583	-4.9021	-4.6417	-4.2604	-4.9854	-4.1771	-4.5042	-5	111.952	277.140	240.111	231.195	134.671	251.049	305.272	266.401	11.586	17.163	323.063	90.178	104.843	321.482	4.798	250.660	0.00016516	0.00019718	5.649e-05	1192.4	2.5995e-06	2.2452e-06	1286.7	238.11	1.1739e-06	3.4782e-06	304.47	83.21	64.775	18.72	2.227e-06	26.289	8.9669e-05	8.4788e-05	2.3349e-05	1145.9	9.421e-07	9.357e-07	1244.9	229.88	9.5662e-07	9.2745e-07	290.42	80.403	62.732	18.256	9.4535e-07	25.26	109.776	88.009	45.841	-7.061	78.214	48.262	-7.087	0.496	125.181	119.848	0.151	6.795	7.645	14.063	148.824	14.108	-8191	255	
18985.150	1	1	0	0	0.10534	0.026105	0.14048	0.25028	0.10984	0.26578	0.26712	0.080549	0.12513	0.065682	0.24394	0.07353	0.144	0.16598	0.22442	0.067868	-3.6417	-4.9771	-4.6396	-4.2333	-4.9271	-4.1417	-4.6417	-4.8104	-3.9688	-4.7229	-4.6958	-4.3375	-5.0188	-4.1896	-4.5167	-4.8708	4.348	270.951	246.301	283.657	2.195	12.642	234.230	123.803	13.845	215.836	213.490	122.561	321.921	336.292	186.642	291.346	0.00021485	0.00048959	0.00011782	1190.6	2.5432e-06	2.0539e-06	1298	237.26	3.1693e-06	2.5335e-06	303.09	83.173	64.672	18.595	2.4609e-06	26.129	8.9894e-05	8.5708e-05	2.3751e-05	1144.3	9.6185e-07	9.3352e-07	1248.9	229.77	9.7988e-07	9.5507e-07	290.64	80.431	62.648	18.185	9.2689e-07	25.378	85.409	48.377	12.639	-7.130	112.607	160.220	-7.308	0.467	149.804	98.376	-0.260	7.003	7.032	14.424	163.255	14.005	-8191	255	
18985.246	1	1	0	0	0.2068	0.06813	0.22411	0.1698	0.15916	0.14004	0.046415	0.17635	0.043998	0.045143	0.096932	0.19865	0.2479	0.10153	0.087573	0.22208	-3.6708	-4.7	-4.5583	-4.3313	-4.9833	-4.2188	-4.5062	-5.1458	-4.0771	-4.6271	-4.9271	-4.1	-5.0583	-4.4208	-4.1229	-5.0833	120.144	225.935	237.252	-1.665	279.269	183.582	330.022	-12.366	109.961	266.626	282.955	41.419	94.825	91.858	107.573	117.633	0.00019555	0.000221	4.7122e-05	1192.2	1.7768e-06	1.6142e-06	1297.2	237.62	1.8034e-06	1.1691e-06	304.95	82.425	65.116	18.647	2.9798e-06	25.966	9.172e-05	8.6235e-05	2.4378e-05	1145.7	9.714e-07	9.531e-07	1249.2	229.74	9.6334e-07	9.1189e-07	291.02	80.411	62.637	18.231	9.2393e-07	25.241	101.373	73.287	81.842	-7.176	194.264	47.461	-7.141	0.340	155.333	25.332	0.204	6.797	7.113	14.545	111.709	13.585	-8191	255	
18985.344	1	1	0	0	0.061434	0.12525	0.20809	0.15059	0.16488	0.19057	0.041628	0.13112	0.34609	0.18093	0.15407	0.15799	0.081243	0.11026	0.27015	0.17937	-3.9167	-4.4521	-4.85	-4.1458	-4.7271	-4.4396	-4.5729	-5.1833	-4.0146	-4.45	-4.9479	-4.0792	-4.8854	-4.6146	-4.0792	-5.0917	72.525	220.596	203.349	318.833	-16.161	59.482	336.209	232.746	291.641	141.695	172.589	320.750	-16.913	318.522	256.836	86.802	0.00019011	0.00040462	0.00012507	1193.6	1.9046e-06	1.0043e-06	1299.9	238.89	2.1761e-06	1.0308e-06	303.95	82.918	65.394	18.795	2.2189e-06	25.954	8.9888e-05	8.52e-05	2.357e-05	1144.9	9.3659e-07	9.1507e-07	1248	229.79	9.3065e-07	9.2429e-07	291.18	80.402	62.699	18.224	9.2314e-07	25.26	87.333	45.332	83.605	-7.246	158.369	300.346	-7.011	0.002	151.135	91.641	0.011	6.779	6.903	14.216	136.462	13.824	-8191	255	
18985.439	1	1	0	0	0.1316	0.052083	0.20158	0.17916	0.22482	0.04418	0.16256	0.14344	0.34425	0.05716	0.061777	0.052078	0.14088	0.061869	0.10855	0.28273	-3.7562	-4.4146	-4.8417	-4.0062	-4.6792	-4.525	-4.2208	-4.9375	-4.0792	-4.2375	-5	-3.8604	-4.8	-4.6854	-4.1521	-5.1	57.490	262.744	135.209	293.780	264.329	132.831	259.740	242.638	204.509	304.996	147.899	231.605	50.551	226.816	127.773	287.303	0.00018972	0.00043232	0.00010221	1194.7	1.3966e-06	3.2421e-06	1297.2	238.05	2.8366e-06	4.8853e-06	304.78	82.928	65.151	18.83	1.7712e-06	25.867	8.9401e-05	8.7429e-05	2.3449e-05	1146.2	9.4403e-07	9.2812e-07	1249.2	230.05	9.5536e-07	9.3506e-07	290.95	80.293	62.752	18.217	9.5723e-07	25.228	96.914	87.410	102.258	-7.255	76.892	127.049	-7.092	0.365	110.185	79.237	-0.419	7.092	7.193	14.442	132.153	13.654	-8191	255	
18985.559	1	1	0	0	0.21861	0.041606	0.099633	0.12435	0.11363	0.082867	0.18354	0.14125	0.14081	0.20498	0.23548	0.19057	0.15818	0.040715	0.075187	0.083701	-4.0021	-4.2667	-5.0708	-4.0625	-4.6896	-4.8479	-4.2979	-5.0042	-4.3104	-4.2833	-5.0021	-4.0958	-4.5125	-4.6896	-4.0563	-5.0563	13.054	166.775	-17.619	308.842	340.800	50.030	229.080	332.815	263.369	83.696	218.210	313.955	84.587	304.185	-3.680	124.730	0.00016071	0.00011214	8.0517e-05	1195.3	4.2662e-06	3.1705e-06	1295.1	237.77	1.3233e-06	3.95e-07	305.64	83.367	65.131	18.664	1.8652e-06	26.141	9.1462e-05	8.5319e-05	2.3518e-05	1145.3	9.6182e-07	9.1851e-07	1248.4	229.84	9.6665e-07	9.549e-07	291.62	80.431	62.642	18.226	9.3765e-07	25.303	97.451	161.299	55.174	-7.303	169.838	72.342	-7.009	0.229	24.988	-4.434	-0.014	6.670	6.894	15.017	92.065	14.010	-8191	255	
18985.654	1	1	0	0	0.16255	0.11155	0.43788	0.11872	0.12582	0.12635	0.13965	0.097731	0.036005	0.24423	0.15136	0.06785	0.21655	0.090801	0.085618	0.16485	-4.1396	-4.0583	-4.9938	-4.2375	-4.5271	-4.925	-4.1583	-4.9479	-4.5813	-4.1958	-5.0875	-4.3438	-4.5583	-4.8958	-4.0354	-4.5521	297.736	172.479	160.878	14.904	326.073	258.678	286.897	200.432	12.178	131.820	29.165	294.245	315.894	325.477	110.310	233.654	0.00016724	0.00017182	8.8067e-05	1194.1	2.9079e-06	1.9051e-06	1296.5	237.46	4.1247e-06	1.7938e-06	304.85	82.646	65.056	18.716	3.8906e-06	25.704	9.1884e-05	8.5802e-05	2.3806e-05	1145.8	9.7077e-07	9.3682e-07	1249.2	230.3	9.7218e-07	9.5411e-07	290.71	80.321	62.714	18.274	9.7406e-07	25.161	106.523	10.727	62.155	-7.106	159.958	97.572	-7.027	0.098	140.469	74.324	-0.119	6.828	7.046	14.322	125.682	13.711	-8191	255	
18985.750	1	1	0	0	0.088998	0.11331	0.0026843	0.19884	0.15256	0.19643	0.043633	0.40737	0.012029	0.1316	0.1306	0.0071489	0.19959	0.0077014	0.15298	0.11185	-4.3875	-4	-4.8875	-4.4542	-4.3104	-5.1833	-4.2396	-4.85	-4.8438	-4.0896	-4.9646	-4.4333	-4.2521	-5.0479	-4.1042	-4.6792	28.094	339.449	147.442	260.420	16.128	151.417	-11.743	8.959	90.500	325.602	4.419	299.851	339.957	292.879	124.462	203.566	0.00015522	0.00053152	8.1069e-05	1194.2	7.4369e-07	2.5706e-06	1298.1	236.1	2.5612e-06	3.8297e-06	305.63	82.911	65.452	18.785	1.3491e-06	26.083	9.3451e-05	8.6431e-05	2.4644e-05	1144.8	9.8237e-07	9.5836e-07	1250	229.59	9.6987e-07	9.6576e-07	291.33	80.469	62.877	18.279	9.7441e-07	25.297	72.275	53.515	26.486	-7.068	292.162	124.714	-7.109	0.221	63.295	139.929	0.139	7.153	7.178	13.894	56.091	13.536	-8191	255	
18985.824	1	1	0	0	0.20142	0.14057	0.065715	0.38173	0.21705	0.18979	0.15017	0.21893	0.18749	0.15209	0.095893	0.21892	0.20573	0.28954	0.29834	0.15701	-4.4521	-4.0167	-4.9583	-4.5271	-4.2958	-5.0646	-4.2937	-4.5229	-4.9021	-4.1667	-5.1583	-4.5104	-4.4292	-5.0646	-4.15	-4.5062	310.748	186.606	15.345	324.850	238.501	134.353	289.206	278.284	243.154	37.010	195.272	-13.711	142.642	10.452	183.129	220.165	0.00017031	0.00020509	6.7918e-05	1194.2	3.4254e-06	2.3998e-06	1293.5	237.67	2.855e-06	4.2002e-06	305.99	83.008	65.422	18.608	3.7425e-06	25.998	9.2585e-05	8.8553e-05	2.4224e-05	1146.5	9.8174e-07	9.545e-07	1247.6	229.4	9.8362e-07	9.7735e-07	291.08	80.426	62.767	18.271	9.5765e-07	25.32	111.009	26.940	34.547	-7.251	149.461	63.124	-6.940	0.527	108.518	21.680	-0.048	7.291	6.592	14.241	82.905	13.734	-8191	255	
18985.941	1	1	0	0	0.16411	0.15928	0.11909	0.22379	0.13961	0.15541	0.16166	0.053378	0.13021	0.090518	0.082866	0.10766	0.035815	0.098911	0.12583	0.08397	-4.7271	-4.0646	-4.8938	-4.7771	-3.9708	-5.025	-4.5062	-4.5604	-4.8771	-3.9917	-4.825	-4.7375	-4.2438	-5.2354	-4.4167	-4.3604	94.141	127.471	291.717	320.281	71.143	198.399	300.212	216.108	172.993	-0.122	36.280	337.819	92.939	174.266	274.092	209.178	0.00019341	0.00022756	0.00010233	1189.6	2.7763e-06	9.7395e-07	1301.6	238.33	3.1062e-06	1.8621e-06	305.23	83.279	65.032	18.809	2.2876e-06	26.218	9.1395e-05	8.9722e-05	2.4321e-05	1147.1	9.795e-07	9.5284e-07	1249.6	230.04	9.9507e-07	9.9387e-07	290.87	80.434	62.75	18.249	9.8827e-07	25.269	87.340	13.680	29.958	-7.004	89.064	262.855	-7.138	0.181	158.321	73.598	0.298	6.908	6.831	14.087	147.885	13.403	-8191	255	
18986.039	1	1	0	0	0.064953	0.22214	0.035213	0.25979	0.21436	0.096359	0.1635	0.14646	0.10738	0.14167	0.18568	0.29974	0.23255	0.13224	0.10435	0.089868	-4.7479	-4.1021	-4.6417	-4.9292	-4.1042	-4.9187	-4.5229	-4.3604	-5.0542	-4.225	-4.6958	-4.8708	-4.15	-4.8083	-4.4396	-4.3187	242.092	136.438	126.741	335.809	214.950	326.112	328.369	292.643	67.011	108.001	324.371	255.651	282.684	105.904	247.736	282.836	0.00022244	7.3306e-05	5.3679e-05	1191.3	1.8795e-06	2.1285e-06	1297.3	237.74	2.7931e-06	1.7719e-06	304.95	83.021	65.47	18.806	4.3405e-06	25.935	9.2413e-05	9.084e-05	2.4714e-05	1148.3	1.02e-06	9.6566e-07	1251	230.3	9.9248e-07	9.9342e-07	291.15	80.529	62.99	18.228	9.6029e-07	25.257	91.585	147.531	51.739	-7.021	155.283	114.794	-7.004	0.355	200.443	40.342	-0.182	7.077	6.956	14.709	175.593	13.501	-8191	255	
18986.135	1	1	0	0	0.10444	0.17626	0.30667	0.14881	0.2423	0.23858	0.32293	0.14498	0.062947	0.15667	0.15893	0.1801	0.26093	0.14018	0.15197	0.24331	-4.7167	-3.9833	-4.5458	-5.05	-4.0583	-4.9917	-4.7708	-4.4104	-5.0875	-4.2625	-4.6625	-4.9688	-4.1417	-5.0521	-4.6292	-4.2812	80.897	238.887	143.317	285.958	114.536	118.080	265.198	283.190	49.246	136.689	40.150	102.197	163.609	36.907	78.574	285.868	0.00020571	0.00036721	0.00011155	1190.3	2.7638e-06	3.4887e-06	1295.9	236.88	1.8125e-06	2.148e-06	305.44	82.847	65.809	18.777	2.0123e-06	26.131	9.0571e-05	8.6883e-05	2.4409e-05	1143.8	9.7971e-07	9.2319e-07	1248.4	229.76	9.8765e-07	9.6686e-07	291.16	80.354	62.789	18.27	9.8519e-07	25.316	89.882	70.063	128.568	-7.173	313.298	104.175	-6.986	-0.130	204.607	83.193	0.014	6.735	7.002	14.050	111.637	13.612	-8191	255	
18986.256	1	1	0	0	0.031585	0.25569	0.14408	0.2455	0.013314	0.15693	0.11935	0.20441	0.068829	0.2237	0.13341	0.16688	0.26543	0.17831	0.060589	0.29037	-4.8979	-4.3375	-4.3958	-5.2229	-4.0146	-4.8417	-4.8688	-4.1854	-5.0917	-4.4792	-4.4458	-5.0104	-4.1271	-4.7208	-4.9021	-4.0917	274.151	211.465	177.085	306.808	65.676	181.186	180.928	8.923	316.621	244.684	229.511	18.774	307.073	211.406	36.474	255.465	0.00022589	0.0003159	8.4118e-05	1190.6	2.928e-06	1.901e-06	1295	238.19	3.9108e-06	3.5878e-06	305.99	82.72	65.296	18.812	3.4954e-06	25.856	9.4007e-05	8.9545e-05	2.4995e-05	1147.6	1.0091e-06	9.7508e-07	1248.2	229.78	9.7022e-07	9.8982e-07	291	80.42	62.69	18.278	9.633e-07	25.249	85.326	74.681	13.287	-7.314	144.281	149.797	-7.042	0.107	166.243	159.653	-0.179	7.081	7.148	14.034	188.409	13.937	-8191	255	
18986.352	1	1	0	0	0.20845	0.23438	0.11313	0.085671	0.17985	0.1297	0.17093	0.15889	0.16073	0.14325	0.1085	0.080571	0.22305	0.23701	0.01763	0.063013	-4.9208	-4.4083	-4.3896	-5.3292	-4.0938	-4.7604	-4.9333	-4.0938	-4.9979	-4.6333	-4.375	-5.1479	-4.1479	-4.4854	-4.8104	-4.0125	320.293	8.772	228.487	247.873	120.026	333.984	228.317	242.337	215.585	65.712	329.729	114.557	41.522	50.046	232.265	320.666	0.00019923	0.00013448	6.7546e-05	1198	2.4801e-06	2.2966e-06	1301.9	237.42	1.1468e-06	1.8071e-06	304.6	83.788	65.325	18.853	1.5583e-06	26.012	9.6082e-05	9.0656e-05	2.5467e-05	1149.1	1.03e-06	1e-06	1251.7	229.83	1.0121e-06	9.8996e-07	291.01	80.786	62.866	18.298	9.6673e-07	25.252	81.289	333.055	107.139	-6.831	145.472	45.736	-7.069	0.433	129.354	132.551	0.129	6.523	7.519	14.430	208.093	13.660	-8191	255	
18986.424	1	1	0	0	0.17853	0.22523	0.15591	0.14104	0.051112	0.19515	0.25126	0.047585	0.13224	0.07385	0.051019	0.17471	0.31763	0.30265	0.056973	0.091804	-4.5917	-4.6417	-4.3146	-5.2417	-4.4208	-4.4292	-5.0792	-4.1979	-4.7458	-4.6208	-4.1896	-5.1438	-4.3271	-4.5417	-4.825	-4.1896	2.010	28.829	134.655	306.208	337.963	123.361	-16.969	205.600	122.012	94.523	189.464	261.470	95.930	-15.511	290.069	321.195	0.00019226	0.00037048	3.0021e-05	1198.9	1.7422e-06	2.692e-06	1295.5	238.49	3.9787e-07	2.9434e-06	305.75	83.37	65.379	18.842	2.9787e-06	25.944	9.1166e-05	8.7476e-05	2.4799e-05	1150.3	9.6098e-07	9.3084e-07	1251.2	230.11	9.4143e-07	9.1437e-07	291.69	80.599	62.953	18.274	9.2209e-07	25.231	96.236	88.393	18.559	-6.906	200.193	118.165	-7.095	0.192	106.304	154.562	0.062	7.053	6.977	14.369	238.393	13.987	-8191	255	
18986.545	1	1	0	0	0.014336	0.11246	0.24156	0.056025	0.19503	0.090338	0.097996	0.11815	0.22289	0.11049	0.11815	0.19519	0.30735	0.060119	0.051538	0.077774	-4.5083	-4.6479	-4.1708	-5.1312	-4.2292	-4.2771	-5.2042	-4.1792	-4.7562	-4.8146	-4.1396	-5.0188	-4.4229	-4.4062	-5.1917	-4.2333	296.072	175.644	50.452	-12.259	295.799	145.652	307.479	274.996	18.547	1.147	18.037	-12.816	269.547	305.348	278.580	221.598	0.00024104	0.00018094	8.3009e-05	1195.7	2.0131e-06	1.8773e-06	1298.8	237.31	2.4054e-06	2.6873e-06	304.2	83.36	66.034	18.672	3.4467e-06	26.065	9.1262e-05	8.7969e-05	2.4149e-05	1148.4	9.8253e-07	9.4508e-07	1252	229.97	9.7365e-07	9.5916e-07	291.4	80.634	63.024	18.319	9.6599e-07	25.281	105.789	35.111	56.235	-7.017	178.768	86.427	-7.154	0.450	118.262	82.108	0.006	6.984	7.371	14.544	107.214	13.728	-8191	255	
18986.639	1	1	0	0	0.27364	0.15854	0.098907	0.28076	0.21052	0.11721	0.12709	0.1491	0.13267	0.03605	0.02855	0.097882	0.26741	0.034834	0.06182	0.24085	-4.5104	-4.8271	-4.0896	-5.1333	-4.4354	-4.0437	-5.1604	-4.3667	-4.6625	-4.8979	-4.1729	-4.8562	-4.5292	-4.1188	-5.0229	-4.4354	328.670	266.234	107.445	314.975	184.406	158.812	303.385	288.777	228.386	242.161	154.888	297.011	3.839	180.379	145.222	284.389	0.00019678	0.00019492	0.00012924	1196.7	2.7468e-06	9.4072e-07	1303.5	238.15	2.5892e-06	3.2736e-07	304.33	82.953	65.507	18.82	4.252e-06	26.021	9.1711e-05	9.0198e-05	2.4518e-05	1149.7	1.0098e-06	9.831e-07	1252.2	230.4	1.0023e-06	9.8556e-07	291.37	80.597	63.047	18.293	1.0559e-06	25.382	83.383	12.533	27.262	-7.022	55.804	-4.767	-6.953	0.261	44.127	93.524	-0.248	6.911	7.659	13.916	123.188	13.272	-8191	255	
18986.734	1	1	0	0	0.11136	0.18897	0.024201	0.4146	0.11476	0.014769	0.34054	0.23002	0.038881	0.081933	0.25793	0.090758	0.1318	0.17217	0.12959	0.10935	-4.1917	-5.0062	-4.0833	-4.9062	-4.6042	-4.0875	-5.2854	-4.4062	-4.4563	-5.1417	-4.0563	-4.7458	-4.6354	-4.0771	-5.1479	-4.4313	140.187	267.745	206.826	310.917	161.753	249.046	276.441	194.411	24.218	175.296	210.794	32.890	54.407	49.080	103.590	81.767	0.0002177	0.00029536	9.5486e-05	1205.9	2.9077e-06	1.9345e-06	1303.2	238.02	6.2594e-07	3.1822e-06	305.42	83.541	66.172	18.811	3.1058e-06	26.126	0.00010283	9.7721e-05	2.777e-05	1155.1	1.1158e-06	1.0789e-06	1255.4	231.16	1.0945e-06	1.0599e-06	292.69	80.85	63.286	18.344	1.0512e-06	25.43	80.401	66.256	54.868	-7.178	164.357	61.784	-7.068	0.291	165.838	84.474	-0.147	6.925	7.089	14.533	177.710	13.637	-8191	255	
18986.855	1	1	0	0	0.032743	0.18694	0.17824	0.24976	0.20697	0.070596	0.096212	0.11617	0.13609	0.015472	0.08284	0.3054	0.080109	0.26719	0.083863	0.07271	-4.0437	-4.8854	-4.0458	-4.8375	-4.7104	-4.1562	-5.1104	-4.3542	-4.225	-5.0521	-4.0792	-4.6708	-4.875	-4.025	-5.0208	-4.6333	52.382	203.406	123.408	331.006	239.817	106.241	198.943	9.120	33.640	339.654	315.390	247.280	17.720	229.059	302.499	73.656	0.00022623	0.00023717	0.00017184	1199.2	6.5057e-07	2.5944e-06	1303.3	239.07	1.8708e-06	4.2353e-06	305.97	83.625	65.807	18.735	2.3821e-06	26.108	0.00010018	9.3939e-05	2.6662e-05	1153.3	1.0514e-06	1.0372e-06	1257.9	231.3	1.0619e-06	1.0368e-06	293.16	80.952	63.209	18.406	1.0965e-06	25.495	80.314	83.312	77.194	-6.996	225.396	142.326	-6.932	0.151	147.448	73.494	-0.050	7.204	7.115	13.926	130.592	14.040	-8191	255	
18986.951	1	1	0	0	0.038562	0.055544	0.043994	0.039138	0.14626	0.15591	0.33116	0.184	0.074554	0.29797	0.19802	0.14908	0.14177	0.088079	0.10047	0.14064	-3.9417	-5.0938	-4.0667	-4.6125	-4.9563	-4.075	-5.1167	-4.725	-4.0729	-5.1	-4.3854	-4.5125	-4.9875	-4.0021	-4.7958	-4.8708	257.601	309.755	128.741	144.433	317.743	330.838	285.004	-13.993	67.097	8.062	71.472	246.054	17.279	297.377	123.562	227.054	0.00014814	0.00019819	7.5799e-05	1198.2	3.5114e-06	3.7364e-06	1303	239.88	1.0827e-06	2.4329e-06	305.65	83.416	65.771	18.797	9.8906e-07	26.224	0.00010533	0.00010083	2.8782e-05	1153.9	1.1514e-06	1.113e-06	1257.4	232.16	1.1419e-06	1.123e-06	292.8	81.147	63.504	18.455	1.1237e-06	25.441	108.988	49.759	22.814	-7.256	51.198	159.972	-7.156	-0.042	180.739	167.718	-0.032	6.351	6.999	14.536	128.085	13.958	-8191	255	
18987.047	1	1	0	0	0.15692	0.14588	0.082274	0.14282	0.2557	0.060941	0.15914	0.033037	0.15254	0.13637	0.028748	0.050302	0.10364	0.22004	0.059968	0.31078	-3.6604	-5.2521	-4.1729	-4.5875	-4.9792	-4.1021	-4.775	-4.8521	-4.0167	-4.975	-4.375	-4.3458	-5.1208	-4.1479	-4.5708	-4.9146	124.360	260.315	104.423	9.203	329.793	155.077	120.872	26.138	247.890	277.024	270.004	310.056	336.643	303.909	121.113	307.189	0.00018292	0.00041431	0.00010013	1203.3	1.8567e-06	4.4061e-06	1311.6	239.43	1.8227e-06	4.3949e-06	309.03	83.921	66.226	18.853	2.6943e-06	26.117	0.00010581	0.00010156	2.8695e-05	1158.1	1.132e-06	1.1251e-06	1261.8	232.57	1.1396e-06	1.1338e-06	293.91	81.364	63.761	18.483	1.1338e-06	25.548	85.635	19.753	58.610	-7.205	165.407	33.256	-6.986	0.586	108.386	106.430	-0.018	6.976	6.870	14.214	186.793	13.969	-8191	255	
18987.119	1	1	0	0	0.17137	0.010054	0.15835	0.12837	0.13935	0.0041965	0.12912	0.13883	0.10126	0.19292	0.17169	0.072688	0.13853	0.30491	0.031793	0.12486	-3.8042	-5.0229	-4.4938	-4.4417	-5.0667	-4.2208	-4.8354	-4.9458	-4.1396	-4.9833	-4.6896	-4.1792	-5.2875	-4.025	-4.4833	-5.175	238.966	39.128	201.767	35.307	290.137	153.137	204.690	228.941	61.414	252.973	21.046	135.232	148.529	264.236	139.360	288.364	0.00020993	8.1859e-05	3.9028e-05	1207.4	3.2629e-06	3.1821e-06	1316.2	239.93	2.6051e-06	2.1636e-06	307.45	84.033	66.484	19.054	4.2456e-06	26.604	0.00010935	0.00010713	2.971e-05	1160.5	1.1923e-06	1.1916e-06	1266.2	232.96	1.2315e-06	1.2249e-06	295.53	81.663	64.291	18.699	1.3082e-06	25.901	81.162	249.051	275.604	-7.209	116.635	75.831	-7.108	0.196	186.583	81.707	-0.212	6.495	7.078	13.832	123.082	13.887	-8191	255	
18987.240	1	1	0	0	0.015416	0.098701	0.071292	0.27683	0.12603	0.12989	0.1956	0.20582	0.14551	0.13157	0.26009	0.12087	0.015391	0.17137	0.11271	0.10088	-3.7313	-4.775	-4.575	-4.25	-5.0896	-4.3104	-4.6521	-4.9646	-3.9333	-4.7312	-4.7708	-3.925	-5.0146	-4.2812	-4.2958	-5.0333	282.059	-7.941	48.118	286.593	252.440	21.651	316.167	8.875	219.943	337.627	143.387	-16.621	275.514	306.475	179.006	304.040	0.00028198	0.00016627	7.7336e-05	1218	3.5273e-06	1.7256e-06	1327.3	244.18	4.1553e-06	1.6131e-06	310.64	84.417	66.577	19.047	2.3235e-06	26.61	0.00012208	0.0001176	3.3084e-05	1171	1.3051e-06	1.2644e-06	1276.8	236.29	1.2518e-06	1.251e-06	298.27	82.272	64.506	18.785	1.3404e-06	25.964	83.582	67.549	18.117	-7.153	180.140	175.464	-7.059	0.285	122.517	108.377	0.106	6.733	7.013	14.315	128.415	13.476	-8191	255	
18987.336	1	1	0	0	0.034907	0.18013	0.12429	0.18417	0.092815	0.18322	0.16535	0.22271	0.096486	0.21978	0.24624	0.16341	0.12679	0.091637	0.18762	0.085951	-3.6833	-4.6271	-4.475	-4.2125	-4.9917	-4.3708	-4.4292	-5.1562	-4.0396	-4.7917	-4.7896	-4.2	-4.9479	-4.3479	-4.3812	-5.0625	123.465	332.062	87.632	265.964	198.896	223.367	234.828	297.294	239.082	239.608	53.129	0.072	283.565	293.662	215.447	58.362	0.00019066	0.00017759	0.00011949	1220.4	4.5302e-06	2.941e-06	1326.5	245.4	1.4696e-06	3.9294e-06	313.36	85.351	67.386	19.254	4.9211e-06	26.553	0.00012584	0.00012341	3.3755e-05	1176.1	1.3547e-06	1.3231e-06	1281.2	238.1	1.3492e-06	1.3108e-06	299.83	82.826	65.011	18.889	1.3393e-06	26.086	91.231	230.609	28.448	-7.225	107.975	159.291	-7.210	0.383	252.126	139.594	-0.122	6.620	6.773	13.975	98.434	13.691	-8191	255	
18987.432	1	1	0	0	0.025376	0.14403	0.19847	0.16516	0.098402	0.1503	0.093087	0.33088	0.25619	0.15292	0.11445	0.2213	0.17647	0.1424	0.1401	0.1186	-3.9813	-4.5667	-4.8354	-4.1229	-5.0042	-4.3688	-4.5042	-5.0646	-4.15	-4.5188	-5.0667	-4.2	-4.9	-4.5958	-4.1604	-5.1417	86.473	17.411	232.697	295.946	159.677	33.503	279.938	333.326	-10.704	159.807	261.170	225.419	300.424	42.752	-1.063	287.978	0.00027354	0.00040395	5.623e-05	1225.2	3.2596e-06	4.3353e-06	1333.8	247.25	1.9596e-06	3.4088e-06	312.53	85.054	67.038	19.359	5.7697e-06	26.615	0.00012496	0.00012068	3.3286e-05	1179.7	1.2824e-06	1.2594e-06	1285.9	239.36	1.2393e-06	1.2009e-06	299.19	82.875	64.823	18.826	1.1027e-06	25.837	101.900	-7.727	47.976	-7.445	111.045	114.484	-7.096	0.042	41.439	100.293	0.272	6.827	7.094	13.991	153.603	13.656	-8191	255	
18987.525	1	1	0	0	0.22871	0.095265	0.094533	0.20645	0.127	0.16005	0.27019	0.10298	0.11416	0.19056	0.093906	0.076769	0.051993	0.14328	0.029688	0.19823	-3.8479	-4.3146	-4.9729	-4.1854	-4.675	-4.775	-4.35	-5.35	-4.2979	-4.2625	-5.0104	-4.1458	-4.6937	-4.8375	-4.0042	-5.025	52.186	72.472	134.845	317.755	148.884	-12.851	329.002	-9.614	332.946	288.100	265.923	17.290	245.463	-2.822	82.784	263.500	0.00017311	5.1115e-05	0.00013458	1219.6	2.7982e-06	2.655e-06	1322.2	246.47	1.5772e-06	7.3549e-07	312.18	84.652	67.329	18.962	2.3661e-06	26.632	0.00010089	9.3295e-05	2.5737e-05	1172.7	1.0284e-06	1.0126e-06	1275.3	237.54	1.0311e-06	1.0012e-06	297.9	82.147	64.579	18.677	1.0649e-06	25.85	93.295	15.584	38.223	-7.151	174.998	91.436	-7.201	0.428	73.298	323.714	-0.146	6.830	6.847	14.967	180.828	13.885	-8191	255	
18987.646	1	1	0	0	0.09614	0.040636	0.18986	0.035526	0.10416	0.074879	0.057583	0.073748	0.20752	0.10082	0.27589	0.11099	0.1637	0.13838	0.1017	0.13649	-4.0917	-4.2	-5.0792	-4.4146	-4.525	-4.9354	-4.2229	-5.0563	-4.4187	-4.2208	-5.2542	-4.2854	-4.6729	-4.8646	-3.9125	-4.9958	60.491	21.441	109.625	2.206	188.069	311.841	191.648	69.938	148.195	281.069	326.122	279.098	319.479	204.215	167.199	275.506	0.00021422	0.00026743	0.00010715	1218.1	2.3372e-06	1.1138e-06	1327.6	245.7	3.5848e-06	1.3625e-06	311.64	84.704	67.823	19.214	6.1964e-06	26.927	0.00010217	9.8788e-05	2.7583e-05	1174.5	1.1239e-06	1.1083e-06	1279.4	237.69	1.1542e-06	1.1576e-06	298.84	82.609	65.031	18.866	1.2011e-06	26.059	120.109	61.705	12.536	-6.966	-2.182	118.872	-7.117	0.284	112.445	111.403	-0.102	6.657	7.111	14.623	96.062	13.501	-8191	255	
18987.719	1	1	0	0	0.21335	0.11869	0.052147	0.12511	0.02491	0.15269	0.23427	0.2961	0.05828	0.27448	0.10366	0.24934	0.07135	0.15694	0.14401	0.10377	-4.35	-4.1937	-4.9708	-4.3979	-4.3771	-4.8854	-4.1375	-4.9333	-4.6479	-4.2312	-5.2333	-4.2583	-4.575	-5.0042	-4.1125	-4.8313	340.792	201.125	121.515	62.808	272.388	81.469	260.954	315.786	329.682	339.785	93.375	210.686	45.640	138.262	-11.930	271.609	0.00019329	0.00030932	2.1915e-05	1222.2	3.0558e-06	4.9029e-06	1328.9	246.49	1.7842e-06	1.1602e-06	312.33	84.908	67.005	19.043	4.8331e-06	26.67	0.00011111	0.00010587	2.9158e-05	1176.9	1.177e-06	1.1311e-06	1279.9	238.75	1.1551e-06	1.1497e-06	299.02	82.591	64.789	18.803	1.171e-06	25.93	91.302	72.259	200.437	-7.233	164.039	149.711	-7.110	0.308	339.133	157.628	-0.233	6.733	6.899	14.316	97.932	13.692	-8191	255	
18987.814	1	1	0	0	0.17821	0.0063216	0.039907	0.075306	0.083725	0.12798	0.24431	0.1844	0.052214	0.2397	0.10539	0.18289	0.33227	0.088114	0.18247	0.14357	-4.4812	-4.1396	-5.0771	-4.4375	-4.3229	-4.9563	-4.2375	-4.7104	-4.9167	-4.1562	-4.9396	-4.5271	-4.1375	-5.0167	-4.2042	-4.7625	197.712	46.336	228.738	238.134	319.830	71.607	278.728	269.170	288.647	27.503	300.680	238.668	249.852	306.573	97.524	-5.772	0.0002653	0.00010331	0.00010899	1219.6	1.6606e-06	6.4018e-07	1326.2	246.01	3.417e-06	3.6415e-06	311	84.534	66.6	18.945	1.1084e-06	26.427	0.00010795	0.00010099	2.7781e-05	1174.2	1.0688e-06	1.0235e-06	1275.3	237.24	9.8257e-07	9.758e-07	296.36	81.956	64.061	18.471	9.5623e-07	25.602	93.143	116.189	23.378	-6.994	68.139	1.623	-7.041	0.135	155.060	161.196	-0.231	6.781	7.230	14.463	272.879	13.458	-8191	255	
18987.936	1	1	0	0	0.18801	0.39869	0.051216	0.16282	0.11421	0.083799	0.1892	0.12369	0.10345	0.1834	0.16056	0.39777	0.11284	0.2549	0.10827	0.087093	-4.6979	-4.0083	-4.9833	-4.5521	-4.0104	-5.0167	-4.2208	-4.4667	-4.7479	-3.9583	-4.9083	-4.6583	-4.1458	-5.1292	-4.2083	-4.4437	189.141	297.146	237.623	-6.682	38.825	221.777	-4.198	66.758	174.280	138.552	-10.060	232.182	341.242	296.739	196.338	276.975	0.00019388	0.00018435	0.00011347	1207	3.6779e-06	2.2645e-06	1313.3	244.46	1.3838e-06	5.9904e-06	310.3	84.841	66.379	18.877	3.4491e-06	26.505	9.0943e-05	8.8188e-05	2.3712e-05	1159.1	9.9355e-07	9.2494e-07	1264.3	235.64	9.776e-07	9.6923e-07	295.21	81.664	63.872	18.468	9.9266e-07	25.575	95.814	75.735	62.209	-7.032	145.753	65.403	-7.235	0.386	214.087	126.184	-0.231	6.880	7.365	14.879	136.736	13.702	-8191	255	
18988.031	1	1	0	0	0.23371	0.092019	0.095558	0.094513	0.03218	0.14448	0.13451	0.11204	0.07091	0.16042	0.1894	0.015089	0.16615	0.14404	0.054029	0.10666	-4.5917	-3.9292	-4.8354	-4.7479	-4.2542	-5.0396	-4.5563	-4.2417	-5.0667	-3.9875	-4.8771	-4.6604	-4.1583	-5.1521	-4.4354	-4.3083	201.449	289.941	2.090	-3.073	151.526	66.947	278.315	280.571	156.794	189.773	224.703	339.053	9.980	314.670	10.113	219.132	0.00017132	0.00021838	2.5129e-05	1207.5	2.3023e-06	2.8743e-06	1311.6	243.8	1.3723e-06	4.5654e-06	308.73	85.097	66.674	18.989	4.1068e-06	26.354	9.4486e-05	9.29e-05	2.5136e-05	1159.5	1.0536e-06	1.0309e-06	1264.4	235.66	1.0917e-06	1.0732e-06	295.28	81.884	64.141	18.573	1.1309e-06	25.767	95.992	58.378	333.675	-6.902	119.744	75.413	-7.040	0.240	201.904	96.773	-0.107	6.813	7.062	14.534	84.151	13.515	-8191	255	
18988.129	1	1	0	0	0.25563	0.14497	0.15865	0.44395	0.085042	0.065108	0.27937	0.38434	0.099967	0.26005	0.29088	0.3268	0.21251	0.19182	0.10533	0.2466	-4.8458	-4.0729	-4.6958	-4.9313	-4.0417	-5.0646	-4.5396	-4.3458	-4.9667	-4.1208	-4.6583	-5.1417	-4.2042	-5.2083	-4.5229	-4.1	29.903	296.829	123.740	302.045	52.159	132.127	273.831	296.629	289.841	252.991	284.331	332.437	247.290	334.602	340.037	254.534	0.00020701	0.00030381	0.00014301	1206.3	5.9304e-06	1.908e-06	1313.1	243.76	2.3917e-06	1.6743e-06	310.93	84.169	65.917	18.951	2.5454e-06	26.159	0.00010532	0.00010479	2.9667e-05	1161.2	1.2011e-06	1.1906e-06	1265.1	236.15	1.23e-06	1.2522e-06	296.97	81.903	64.245	18.603	1.2838e-06	25.729	101.569	52.400	38.318	-6.886	156.908	174.653	-7.000	0.054	117.225	60.274	0.003	7.068	6.475	14.186	106.376	13.795	-8191	255	
18988.225	1	1	0	0	0.22191	0.1516	0.29066	0.1555	0.22413	0.12643	0.057516	0.32558	0.19464	0.16558	0.11104	0.13276	0.12953	0.22795	0.040976	0.073715	-4.625	-4.125	-4.425	-5.1104	-3.9646	-4.8104	-4.8375	-4.2188	-4.9688	-4.0583	-4.5833	-4.9771	-3.9792	-4.8896	-4.5396	-4.0813	305.475	16.499	332.496	-15.891	259.828	254.976	271.294	233.549	328.137	248.574	266.344	318.807	7.660	319.105	301.139	261.349	0.00014817	0.00015932	5.1358e-05	1204.7	5.2415e-07	3.7544e-06	1312	241.76	2.559e-06	2.1986e-06	307.31	84.383	66.372	18.953	2.6022e-06	26.187	0.00012225	0.0001212	3.2508e-05	1161.8	1.3684e-06	1.3419e-06	1267.5	235.53	1.3536e-06	1.3313e-06	295.53	82.085	64.247	18.554	1.3167e-06	25.71	77.427	123.480	26.698	-7.382	223.821	124.047	-6.939	0.097	144.689	215.077	-0.237	6.862	6.909	14.375	209.897	13.396	-8191	255	
18988.320	1	1	0	0	0.18612	0.12669	0.039903	0.27647	0.33075	0.2006	0.12295	0.26356	0.019564	0.085701	0.30465	0.17402	0.042052	0.083171	0.11387	0.052593	-4.7271	-4.2375	-4.2688	-5.1229	-4.1333	-4.8646	-4.7896	-4.2188	-5.1062	-4.4812	-4.3938	-5.0312	-4.0479	-4.5896	-4.7896	-4.0271	249.066	197.349	-7.254	311.736	182.335	42.135	242.343	247.553	96.802	262.386	314.325	129.435	256.334	279.505	43.808	328.110	0.00021636	0.00010188	5.5602e-05	1205.1	2.7996e-06	3.2576e-06	1310.3	241.89	2.8492e-06	1.5454e-06	306.75	83.869	65.919	18.883	5.7387e-06	26.274	0.00011968	0.00011855	3.1967e-05	1156.9	1.2795e-06	1.2382e-06	1260.8	234.78	1.2712e-06	1.2672e-06	294.89	81.946	64.021	18.583	1.2825e-06	25.638	105.219	280.870	85.731	-7.036	108.267	131.674	-6.737	0.209	234.307	106.136	0.049	7.033	7.134	14.440	152.614	13.559	-8191	255	
18988.416	1	1	0	0	0.14498	0.14227	0.19588	0.15659	0.10888	0.08515	0.15778	0.052178	0.14987	0.11213	0.12219	0.1001	0.083093	0.085215	0.15088	0.11961	-4.6646	-4.4583	-4.4125	-5.0583	-4.2021	-4.6021	-5.0667	-4.0938	-4.7292	-4.5125	-4.3708	-5.1271	-4.2208	-4.5958	-4.9646	-4.0792	199.077	252.468	39.130	317.418	134.465	125.013	144.553	201.807	152.005	127.439	302.276	327.654	49.603	290.806	300.298	7.656	0.00021335	0.00044713	8.3257e-05	1203.7	3.228e-06	1.2998e-06	1304.9	243.23	1.9769e-06	1.7919e-06	306.99	84.034	66.147	18.884	3.2046e-06	26.139	0.00012019	0.00012033	3.327e-05	1156.8	1.3269e-06	1.2736e-06	1259	234.94	1.2518e-06	1.2214e-06	294.58	81.805	64.042	18.495	1.1621e-06	25.488	67.030	3.988	37.699	-6.855	88.132	318.230	-6.833	0.250	127.250	236.452	-0.154	6.947	7.334	14.579	164.816	13.844	-8191	255	
18988.537	1	1	0	0	0.12387	0.11832	0.15236	0.26203	0.065128	0.25172	0.25007	0.1756	0.076927	0.14003	0.027828	0.14866	0.070197	0.11257	0.18934	0.18165	-4.6667	-4.6312	-4.1354	-5.1583	-4.1792	-4.2875	-5.2125	-4.1396	-4.7333	-4.6687	-4.2854	-5.1354	-4.3958	-4.3063	-5.0188	-4.0521	182.270	245.937	143.193	300.422	247.422	112.650	282.981	291.644	307.838	336.440	49.062	278.270	9.314	110.921	225.432	-3.337	0.00022553	0.00024155	6.7381e-05	1193.1	2.147e-06	3.3433e-06	1299.2	241.06	3.1284e-06	1.2851e-06	305.97	83.862	65.29	18.706	1.627e-06	26.221	0.00010765	0.00010165	2.8512e-05	1149.7	1.1317e-06	1.0917e-06	1252.6	232.79	1.131e-06	1.1153e-06	292.4	81.251	63.42	18.392	1.1392e-06	25.497	84.645	59.843	21.353	-7.072	90.503	108.176	-6.968	0.185	156.114	217.492	-0.330	7.262	7.309	14.593	62.992	13.543	-8191	255	
18988.631	1	1	0	0	0.1945	0.18557	0.088824	0.13084	0.23037	0.10803	0.093064	0.1417	0.14527	0.15157	0.11699	0.044755	0.13862	0.27975	0.15335	0.056266	-4.4896	-4.7396	-4.0417	-5	-4.375	-4.3208	-4.9542	-4.2417	-4.7083	-4.9354	-4.1604	-5.0667	-4.4521	-4.2146	-4.9187	-4.1458	285.306	-13.145	19.251	-8.757	340.287	74.463	198.807	100.895	141.147	233.564	328.771	7.805	-6.176	-14.724	3.198	89.888	0.00016009	0.00021835	9.6609e-05	1198.9	1.736e-06	4.5252e-06	1303.6	241.02	7.8003e-07	2.8445e-06	306.05	83.091	65.784	18.628	2.8194e-06	25.934	0.00010951	0.00010331	2.849e-05	1149.8	1.1036e-06	1.0606e-06	1253	232.56	9.4708e-07	8.8512e-07	291.71	80.585	62.929	18.195	8.0049e-07	25.171	87.511	13.921	40.070	-7.057	119.387	207.593	-7.293	0.429	237.791	85.925	0.207	6.523	7.145	14.268	107.163	13.527	-8191	255	
18988.727	1	1	0	0	0.079187	0.081106	0.16208	0.14882	0.16189	0.128	0.10796	0.11449	0.20127	0.033866	0.17117	0.17004	0.185	0.077453	0.15973	0.10866	-4.3083	-4.8271	-3.8063	-4.9688	-4.4354	-4.0833	-5.2542	-4.1958	-4.6312	-4.7438	-4.0458	-4.8604	-4.6687	-4.2292	-5.0083	-4.1813	168.633	280.393	182.479	316.897	105.849	211.397	287.705	135.961	29.997	231.528	27.943	249.686	247.126	263.597	53.110	224.899	0.00018646	0.0003747	6.0291e-05	1183.1	7.8469e-07	4.2061e-06	1285.7	238.08	1.3426e-06	1.2874e-06	304.15	83.71	65.59	18.505	8.8794e-08	25.969	7.5718e-05	7.1314e-05	2.042e-05	1136.5	8.057e-07	7.8487e-07	1238.6	229.92	8.2648e-07	7.9944e-07	289.35	80.287	62.79	18.097	8.4472e-07	25.194	105.288	76.076	19.428	-6.956	102.889	129.725	-6.799	0.231	89.251	160.053	-0.006	6.601	7.144	14.260	60.716	13.674	-8191	255	
18988.822	1	1	0	0	0.1542	0.13178	0.039998	0.3507	0.18146	0.26292	0.19817	0.13371	0.22553	0.12522	0.15759	0.22569	0.24495	0.32685	0.072282	0.030209	-4.1833	-5.0417	-3.9271	-4.8271	-4.6479	-4.1104	-5.1396	-4.3917	-4.475	-4.9104	-4.15	-4.8604	-4.8792	-4.1188	-4.8875	-4.5729	198.118	33.532	139.849	282.828	149.111	21.392	319.937	244.414	279.927	237.655	269.435	113.911	12.658	252.863	-2.671	132.936	9.0496e-05	0.00020973	3.6904e-05	1180.4	1.8685e-06	2.572e-06	1289.8	238.01	3.5195e-06	3.759e-06	303.54	83.405	65.042	18.627	3.3192e-06	25.926	8.5869e-05	7.8244e-05	2.2641e-05	1136.4	9.0502e-07	8.8975e-07	1240.4	230.14	8.671e-07	8.3363e-07	289.04	80.395	62.509	18.126	7.9783e-07	25.07	114.502	113.502	338.723	-7.167	123.380	60.054	-6.913	0.186	156.403	117.250	0.047	6.586	7.621	14.163	179.812	13.887	-8191	255	
18988.943	1	1	0	0	0.28017	0.16922	0.11662	0.19032	0.19051	0.14612	0.15614	0.15392	0.090415	0.1046	0.10681	0.096992	0.1492	0.24945	0.24118	0.276	-3.8771	-5.0667	-4.1354	-4.6479	-4.65	-4.0042	-5.0896	-4.6229	-4.3021	-4.9667	-4.2083	-4.6333	-5.075	-4.1125	-4.9396	-4.5292	317.655	41.012	341.469	19.794	263.358	287.522	280.004	300.370	224.433	138.550	4.206	285.631	76.884	304.737	116.430	287.469	0.00023217	0.00021352	0.00011505	1175	3.3088e-06	1.3963e-06	1283.9	237.28	3.3246e-06	2.0138e-06	300.66	83.462	65.082	18.557	1.2341e-06	25.959	7.9375e-05	7.388e-05	2.0636e-05	1132	8.3201e-07	8.1153e-07	1234.3	229.36	8.3026e-07	8.3021e-07	288.18	80.174	62.517	18.075	8.3419e-07	25.064	95.576	33.513	28.394	-7.101	124.025	-10.706	-6.983	0.435	194.939	146.252	-0.136	6.885	7.535	14.431	82.700	13.520	-8191	255	
18989.016	1	1	0	0	0.12738	0.15884	0.36942	0.24202	0.13432	0.065686	0.26097	0.257	0.15963	0.19875	0.18762	0.088705	0.17526	0.14015	0.15091	0.20667	-3.8104	-5.0208	-4.2063	-4.5687	-4.9667	-4.0917	-5.0625	-4.8938	-4.1354	-4.8792	-4.375	-4.4979	-4.9333	-3.9771	-4.6979	-4.7438	97.639	77.984	18.162	298.388	39.508	205.330	290.167	281.782	70.340	153.771	288.483	-1.712	157.785	243.946	270.793	256.748	0.00020692	0.00026012	5.7218e-05	1184.6	2.2444e-06	7.4125e-07	1288.3	236.08	1.5143e-06	1.5794e-06	301.92	82.687	64.436	18.285	2.6792e-06	25.637	7.9213e-05	7.3082e-05	2.0356e-05	1131.6	7.8392e-07	7.7643e-07	1236	228.35	7.7224e-07	7.473e-07	287.84	79.735	62.118	17.937	7.122e-07	24.894	88.406	106.032	314.327	-7.160	138.302	62.708	-6.790	0.362	164.437	180.464	0.376	6.719	7.644	14.709	157.322	13.700	-8191	255	
18989.111	1	1	0	0	0.2414	0.16398	0.089853	0.052273	0.29497	0.10819	0.1698	0.033565	0.159	0.12881	0.013689	0.28579	0.20024	0.086366	0.062543	0.13401	-3.7917	-4.9479	-4.1542	-4.5583	-5.1104	-3.9833	-4.8271	-4.8375	-4.0125	-5.1937	-4.5708	-4.3479	-5.1271	-4.1396	-4.6146	-4.9458	316.374	248.967	204.388	133.791	39.801	26.434	209.686	193.170	20.993	331.846	249.162	280.253	308.335	334.376	36.542	138.087	0.00015342	0.00016759	0.00014065	1168.3	1.5231e-06	2.6755e-06	1272.2	235.14	3.5787e-07	1.3538e-06	298.79	82.667	64.99	18.554	3.2698e-06	25.8	7.0344e-05	6.4014e-05	1.8542e-05	1120.2	7.393e-07	7.0856e-07	1223	227.23	7.4459e-07	7.055e-07	285.53	79.657	62.129	17.923	7.4023e-07	24.925	83.311	99.755	75.658	-7.078	33.711	153.339	-6.896	0.367	-11.429	143.569	0.135	6.800	6.805	13.899	61.917	13.784	-8191	255	
18989.207	1	1	0	0	0.18345	0.063622	0.13761	0.32139	0.13094	0.18048	0.16626	0.061503	0.067943	0.11767	0.18183	0.18036	0.20896	0.0075545	0.038212	0.050474	-3.8146	-5.0354	-4.5417	-4.3667	-4.9563	-4.1562	-4.8292	-4.9167	-4.0146	-4.9229	-4.6188	-4.2292	-5.1854	-4.2833	-4.4	-4.9875	96.955	76.725	199.683	279.127	164.783	65.491	331.134	-12.232	277.926	293.124	219.588	321.201	138.124	311.761	127.589	57.552	0.00017566	0.0002755	9.4853e-05	1169.7	2.7821e-06	2.0583e-06	1267.5	236.3	2.3725e-07	2.2209e-06	303.32	82.617	65.286	18.415	4.1332e-06	25.883	7.176e-05	6.619e-05	1.8903e-05	1123.2	7.418e-07	7.4392e-07	1223.5	227.98	7.2913e-07	7.1727e-07	287.09	79.704	62.116	17.935	7.2023e-07	24.938	100.234	139.178	49.606	-7.142	167.575	39.557	-7.035	0.182	234.671	148.891	0.235	6.730	6.987	14.723	95.785	13.646	-8191	255	
18989.328	1	1	0	0	0.21058	0.20003	0.10745	0.18454	0.15024	0.16753	0.31514	0.093595	0.11265	0.13874	0.23406	0.01515	0.04642	0.092009	0.13945	0.20198	-3.6708	-4.7875	-4.6979	-4.3333	-5.0167	-4.175	-4.45	-5.0708	-4.0437	-4.8333	-4.8438	-3.9813	-5.1417	-4.5229	-4.4833	-5.1292	-10.771	100.682	307.373	246.876	65.790	29.585	243.130	342.142	133.152	96.345	296.727	285.544	263.653	239.984	256.301	182.127	0.0001633	0.00015675	9.9883e-05	1171.7	5.1028e-06	2.1891e-06	1276.3	235.38	1.4466e-06	1.7451e-06	301.18	81.983	64.745	18.342	1.0808e-06	25.833	7.188e-05	6.5247e-05	1.8665e-05	1123	7.4252e-07	7.1677e-07	1227.7	227.92	7.5649e-07	7.2345e-07	286.76	79.484	62.061	17.922	7.2394e-07	24.958	112.679	50.139	56.550	-7.153	115.486	124.408	-7.064	0.207	178.635	71.450	0.408	6.873	7.222	14.116	136.656	13.929	-8191	255	
18989.424	1	1	0	0	0.2151	0.055167	0.053697	0.10241	0.096708	0.037202	0.2464	0.25728	0.070331	0.24678	0.15285	0.067742	0.1774	0.14707	0.22844	0.17007	-3.9083	-4.5708	-4.8333	-4.1813	-4.9354	-4.425	-4.2896	-5.1167	-4.0146	-4.4979	-4.9167	-4.1083	-4.9	-4.4396	-4.3	-5.075	232.461	43.959	284.696	331.251	195.058	43.006	271.972	279.630	16.328	300.788	291.332	133.883	151.012	2.438	90.735	18.978	0.00021992	2.6209e-05	0.0001475	1168.7	3.6459e-06	2.266e-06	1279	236.79	1.2029e-06	1.4131e-06	301.11	83.068	64.868	18.468	3.5919e-06	25.748	6.9585e-05	6.2493e-05	1.7032e-05	1121.5	7.1644e-07	6.9144e-07	1227.3	227.97	7.1359e-07	6.9352e-07	286.36	79.659	61.941	17.902	6.9815e-07	24.914	92.831	100.399	29.764	-7.125	153.829	86.776	-6.971	0.147	153.878	63.789	-0.154	6.772	7.237	14.415	159.765	14.133	-8191	255	
18989.520	1	1	0	0	0.18965	0.24181	0.014997	0.20934	0.066904	0.18086	0.05908	0.21473	0.25797	0.077023	0.1522	0.12224	0.213	0.13911	0.087733	0.17533	-3.8937	-4.5979	-4.9125	-4.2104	-4.7438	-4.5354	-4.2229	-5.1896	-4.1542	-4.5625	-5.0646	-4.1583	-4.9458	-4.5667	-3.9667	-5.2104	331.511	138.744	246.389	23.943	92.807	77.349	259.562	281.853	123.895	79.110	-4.876	341.045	327.854	33.175	342.146	308.233	0.00019909	0.00021794	3.9453e-05	1168.8	1.777e-06	2.0394e-06	1269.8	236.7	1.1383e-06	2.5366e-06	302.58	82.498	64.905	18.588	2.7233e-06	25.822	6.8178e-05	6.5027e-05	1.7934e-05	1120.3	7.2709e-07	7.2154e-07	1224.1	228.16	7.3398e-07	7.0718e-07	287.08	79.664	62.161	17.974	7.0193e-07	24.984	106.261	58.069	-6.080	-6.938	134.645	272.754	-7.028	0.441	156.123	126.366	-0.192	7.038	6.888	14.299	141.106	14.258	-8191	255	
18989.617	1	1	0	0	0.010176	0.11509	0.10543	0.066786	0.14595	0.22628	0.24957	0.32713	0.17594	0.20576	0.23681	0.092415	0.10646	0.060624	0.066525	0.061283	-3.9896	-4.4208	-5.1208	-4.2854	-4.8271	-4.7604	-4.3438	-5.1896	-4.4229	-4.3271	-5.1042	-4.2271	-4.8229	-4.8396	-4.1	-4.9396	266.470	214.300	22.973	293.988	139.753	161.690	279.880	287.017	35.597	160.800	-14.384	190.193	186.895	239.421	341.132	193.760	0.00021945	0.00032605	5.9086e-05	1166.9	3.0719e-06	3.2862e-06	1270.4	236.93	2.054e-06	4.4505e-06	300.1	82.431	64.45	18.449	5.2794e-06	26.044	6.6877e-05	6.3048e-05	1.7525e-05	1120.3	6.8941e-07	6.8373e-07	1223.1	227.91	7.0134e-07	7.0236e-07	286.45	79.622	61.983	17.963	7.4754e-07	24.965	110.356	82.226	76.541	-7.037	143.066	83.752	-7.035	0.179	131.437	76.459	0.111	6.537	7.005	14.231	133.646	13.576	-8191	255	
18989.713	1	1	0	0	0.21126	0.15183	0.24527	0.25254	0.023122	0.12664	0.044859	0.2776	0.12147	0.061751	0.13609	0.36953	0.049163	0.1072	0.17675	0.25964	-4.1562	-4.1	-4.9396	-4.2625	-4.6021	-4.7792	-4.1479	-5.05	-4.4854	-4.1708	-5.0875	-4.2104	-4.4333	-4.9979	-4.0208	-4.8938	191.235	246.444	324.217	305.328	77.019	295.838	323.511	265.229	2.845	204.371	160.701	229.694	224.757	288.660	200.657	226.073	0.00021682	2.9887e-05	0.00011258	1169.7	3.7015e-06	1.4737e-06	1275.6	236.02	2.6393e-06	1.0823e-06	302.41	82.486	65.111	18.573	3.3606e-06	25.824	7.1429e-05	6.6503e-05	1.8237e-05	1120.7	7.372e-07	7.0323e-07	1224.9	227.58	7.0666e-07	7.0187e-07	287.01	79.488	62.059	17.964	6.8534e-07	24.94	92.452	51.205	36.675	-7.253	165.151	117.007	-6.914	0.251	115.798	132.093	-0.097	6.694	7.096	14.439	132.476	13.670	-8191	255	
18989.809	1	1	0	0	0.12634	0.23034	0.19555	0.12305	0.2299	0.10229	0.087065	0.19109	0.40524	0.11943	0.17726	0.44371	0.2605	0.21693	0.16612	0.1811	-4.4146	-4.0833	-5.0083	-4.4542	-4.475	-4.9437	-4.2104	-4.9875	-4.6583	-4.0604	-5.1104	-4.375	-4.2562	-4.8208	-4.0479	-4.85	226.247	295.189	261.474	306.514	294.887	269.254	13.675	275.374	115.253	114.438	245.888	294.530	292.533	-12.760	151.903	98.781	0.00023086	0.00031655	0.00010208	1167	1.9886e-06	2.507e-06	1269	234.69	2.5947e-06	3.8329e-06	303.34	83.032	64.826	18.552	7.7626e-07	25.848	6.4875e-05	6.1851e-05	1.7035e-05	1120.3	6.8997e-07	6.5868e-07	1223.5	227.29	6.9513e-07	6.9331e-07	286.83	79.592	61.874	17.959	7.0214e-07	24.925	76.955	-0.464	89.623	-6.862	144.118	143.135	-6.946	0.189	171.046	114.318	-0.138	7.154	7.233	14.572	33.327	13.811	-8191	255	
18989.904	1	1	0	0	0.2707	0.083809	0.11193	0.27116	0.18591	0.14564	0.094484	0.13666	0.23688	0.068219	0.11901	0.12492	0.047612	0.14471	0.19525	0.29061	-4.5083	-4.2458	-4.8646	-4.5188	-4.2562	-5.0021	-4.5271	-4.6104	-4.7521	-4.0833	-5.0125	-4.7188	-4.2875	-5	-4.1771	-4.6708	194.922	61.870	223.768	276.078	117.415	305.170	179.781	318.426	170.403	11.230	220.254	24.536	-16.501	56.627	47.032	30.999	0.00017215	0.0001007	4.7439e-05	1168.6	1.011e-06	3.5094e-06	1277.6	237.1	3.6813e-06	1.4595e-06	300.02	82.425	64.627	18.546	2.2701e-06	25.968	7.028e-05	6.3076e-05	1.717e-05	1121.6	7.0727e-07	6.736e-07	1223.9	227.63	6.9322e-07	6.8757e-07	286.15	79.528	61.98	17.956	6.8816e-07	25.052	98.638	201.029	14.208	-6.984	22.196	105.895	-6.925	0.299	118.888	95.426	-0.058	6.901	7.216	14.209	177.900	14.338	-8191	255	
18990.023	1	1	0	0	0.14576	0.34871	0.28749	0.032981	0.11075	0.1994	0.43938	0.26991	0.20154	0.23584	0.12901	0.054417	0.099808	0.10661	0.14947	0.33236	-4.6625	-3.9854	-5.0813	-4.6208	-4.1708	-5.2208	-4.3729	-4.5083	-4.8625	-4.1958	-4.9313	-4.6417	-4.2188	-5.2917	-4.1958	-4.475	56.481	103.351	258.072	31.520	246.974	313.442	316.385	261.588	283.613	288.383	-3.942	159.538	4.277	41.079	75.540	-17.033	0.00023095	0.00042268	0.00011482	1169.3	2.5337e-06	2.1519e-06	1274.9	236.61	5.5641e-07	1.6057e-06	301.56	82.636	65.075	18.59	2.8742e-06	25.858	7.0086e-05	6.5682e-05	1.7886e-05	1122.3	7.6097e-07	7.1443e-07	1225.6	227.89	7.6783e-07	7.5666e-07	287.28	79.703	62.307	17.995	7.6504e-07	24.987	102.420	20.066	32.627	-6.867	172.480	137.107	-6.993	0.509	78.065	59.121	-0.059	7.202	6.926	14.222	176.252	13.477	-8191	255	
18990.121	1	1	0	0	0.057511	0.21272	0.24981	0.10235	0.13385	0.1177	0.13699	0.087205	0.13145	0.057123	0.14119	0.071484	0.20083	0.11388	0.13685	0.054088	-4.5875	-4.0583	-4.8625	-4.8417	-4.0625	-4.8708	-4.3708	-4.3479	-5.0271	-4.1937	-4.9667	-4.8854	-4.1917	-5.0563	-4.3708	-4.2854	150.014	336.742	300.053	286.438	261.124	165.925	241.979	251.297	28.577	320.545	99.182	94.410	245.662	119.611	202.838	289.899	0.00017761	0.00021736	0.0001384	1170.4	2.26e-06	3.6308e-06	1275.6	234.79	1.2419e-06	1.78e-06	303.44	82.966	64.996	18.566	2.2756e-06	25.794	7.3231e-05	6.8811e-05	1.8853e-05	1123.4	7.7539e-07	7.4102e-07	1228.7	227.54	7.5171e-07	7.2198e-07	287.75	79.806	62.189	18.09	7.3288e-07	24.889	101.762	17.204	61.370	-7.087	177.909	133.817	-7.071	0.646	66.611	86.622	0.040	7.114	7.042	14.965	105.789	13.739	-8191	255	
18990.217	1	1	0	0	0.035344	0.17396	0.23088	0.22819	0.28518	0.14671	0.035491	0.27598	0.093869	0.17521	0.24392	0.20987	0.086638	0.11397	0.12482	0.092887	-4.7146	-4.2021	-4.6188	-4.9521	-3.9979	-5.0875	-4.7021	-4.3708	-5.0021	-4.2562	-4.6875	-4.9812	-4.1625	-4.8875	-4.6583	-4.4042	26.956	201.196	330.360	258.985	24.719	-12.651	274.343	208.437	47.864	276.457	132.287	105.969	8.833	232.850	315.107	324.489	0.00023803	0.00037515	0.00010867	1170.3	2.0317e-06	2.3122e-06	1278.3	236.98	1.1033e-06	3.7943e-06	300.41	82.816	64.645	18.492	6.0823e-07	25.923	7.1312e-05	6.8585e-05	1.8925e-05	1122.8	7.7229e-07	7.4586e-07	1228.7	228.18	7.4058e-07	7.535e-07	286.67	79.877	62.134	18.029	7.4796e-07	24.946	98.676	96.623	56.898	-7.005	98.105	113.943	-6.852	0.220	211.957	114.980	0.011	7.212	7.099	14.424	158.255	13.793	-8191	255	
18990.312	1	1	0	0	0.25185	0.11863	0.085536	0.28449	0.069547	0.11708	0.15742	0.29207	0.065897	0.080412	0.0673	0.2946	0.19518	0.19979	0.12008	0.16161	-4.7021	-4.1896	-4.5542	-5.2646	-4.0646	-4.8042	-4.8729	-4.2729	-4.9729	-4.3604	-4.5417	-4.8521	-3.9938	-4.9354	-4.8042	-4.2063	63.539	309.992	133.934	340.014	6.132	12.639	274.924	272.662	286.483	150.973	107.210	301.644	321.753	255.978	20.197	281.320	0.00019312	0.0004282	8.5178e-05	1173.5	3.4108e-06	1.1644e-06	1274.5	235.63	2.966e-06	2.8152e-06	301.68	83.568	64.316	18.409	4.1444e-06	25.797	7.0786e-05	6.7598e-05	1.8506e-05	1124.8	7.4278e-07	7.0922e-07	1227.5	228.23	7.3132e-07	6.9078e-07	287.29	79.967	62.038	17.962	7.3052e-07	25.015	94.898	34.764	20.734	-6.936	95.677	105.850	-6.774	0.110	106.952	108.151	-0.067	7.277	7.746	14.238	101.305	13.767	-8191	255	
18990.408	1	1	0	0	0.15462	0.25319	0.1745	0.16296	0.22056	0.098618	0.204	0.28302	0.12264	0.18467	0.12654	0.1462	0.21645	0.15279	0.10411	0.14042	-4.7312	-4.3354	-4.275	-5.1792	-4.0188	-4.7729	-5.0771	-4.2521	-5.1438	-4.4854	-4.5104	-4.9979	-4.2021	-4.6521	-4.8292	-4.2479	158.439	115.909	292.112	47.979	296.898	45.720	294.875	288.375	111.044	-17.463	306.064	302.109	4.834	59.060	286.901	332.055	0.00019304	0.00024499	4.8208e-05	1174	3.3703e-06	2.6821e-06	1274.9	235.08	3.7092e-06	7.0347e-07	302.61	82.723	65.049	18.607	1.309e-06	26.02	6.8925e-05	6.533e-05	1.8179e-05	1124.7	7.5097e-07	7.199e-07	1227.9	227.88	7.3335e-07	7.3787e-07	287.4	79.745	62.15	17.992	7.3967e-07	25.026	81.110	-0.156	65.126	-6.847	192.287	61.121	-6.868	0.184	186.060	106.422	0.207	7.037	7.079	14.860	168.772	13.936	-8191	255	
18990.506	1	1	0	0	0.16742	0.038605	0.28263	0.22785	0.080834	0.091369	0.038818	0.29153	0.096871	0.19184	0.015205	0.12773	0.10036	0.12109	0.15291	0.023563	-4.7458	-4.3083	-4.1521	-5.2979	-4.3187	-4.5583	-5.0375	-4.2438	-4.9458	-4.6083	-4.3812	-5.0563	-4.2812	-4.5042	-4.8063	-4.1062	38.114	227.688	279.130	302.776	136.186	123.283	333.154	116.087	310.683	170.668	268.962	130.109	208.300	40.851	146.085	340.660	0.00024631	0.00022945	0.0001105	1170.7	2.3859e-06	2.4657e-06	1272.9	236.25	4.3449e-06	6.1594e-06	301.57	83.149	65.201	18.559	2.6994e-06	25.757	7.4212e-05	7.0166e-05	1.947e-05	1125.3	8.0981e-07	7.6165e-07	1228.3	228.11	7.71e-07	7.6707e-07	287.63	79.924	62.303	18.081	7.729e-07	24.967	105.098	49.677	53.917	-7.245	192.577	85.364	-7.039	0.260	179.341	98.539	-0.077	6.605	7.678	13.956	155.003	13.497	-8191	255	
18990.602	1	1	0	0	0.20085	0.07966	0.1412	0.26208	0.090377	0.25859	0.25989	0.076281	0.16026	0.082266	0.1682	0.1499	0.37005	0.16248	0.025292	0.12545	-4.8083	-4.5958	-4.0542	-5.3458	-4.2688	-4.4583	-5.1708	-4.1625	-4.8021	-4.8292	-4.2521	-5.0458	-4.4688	-4.2937	-4.8375	-4.2375	206.698	295.017	252.348	0.043	110.918	8.631	271.885	304.927	81.433	78.714	-7.697	322.422	1.815	94.617	213.998	337.832	0.00013818	0.0002593	9.9053e-05	1170.7	3.2171e-06	1.2697e-06	1275.6	236.52	3.4272e-06	3.2601e-07	301.3	83.267	64.822	18.709	1.2448e-06	25.853	7.4018e-05	6.9262e-05	1.9461e-05	1125.8	8.2564e-07	7.9661e-07	1228.7	228.46	8.1148e-07	8.0349e-07	287.4	80.133	62.242	18.086	7.8474e-07	24.988	101.910	57.635	36.274	-6.984	132.974	106.641	-6.592	0.205	156.625	115.333	-0.075	7.089	6.793	14.134	181.585	13.790	-8191	255	
18990.721	1	1	0	0	0.14502	0.089477	0.25529	0.05176	0.12536	0.14534	0.090002	0.1564	0.15967	0.14964	0.24373	0.2252	0.17124	0.15212	0.17812	0.064631	-4.4229	-4.8833	-3.9958	-4.9812	-4.5271	-4.4292	-5.2042	-4.2729	-4.5896	-4.9354	-4.1854	-5.0208	-4.5188	-4.3063	-5.0687	-4.3146	317.186	321.015	115.535	318.588	1.460	249.889	264.888	311.120	273.987	63.645	340.012	21.365	326.273	70.393	257.813	100.355	0.00020779	0.00033836	8.0198e-05	1179.7	3.9139e-06	1.806e-06	1275.9	237.18	3.0807e-06	2.8138e-06	303.02	83.111	65.383	18.598	1.9369e-06	25.788	7.8626e-05	7.4142e-05	2.1076e-05	1129	8.3726e-07	8.1754e-07	1233	228.84	8.409e-07	8.0819e-07	288.82	80.106	62.532	18.102	8.2707e-07	24.984	103.343	95.157	86.844	-7.166	152.029	118.967	-6.979	0.159	160.989	108.038	-0.194	6.887	7.287	14.273	172.075	13.504	-8191	255	
18990.816	1	1	0	0	0.078631	0.091956	0.27355	0.075964	0.11054	0.19714	0.20526	0.082201	0.12444	0.14211	0.15917	0.19887	0.10114	0.043265	0.06058	0.14801	-4.2646	-4.8792	-4.0271	-5.1	-4.6083	-4.1354	-5.1771	-4.2604	-4.2604	-4.9062	-4.1521	-4.7625	-4.6438	-4.0708	-5.0188	-4.3375	260.893	218.780	304.446	254.364	320.361	41.939	225.545	320.939	269.174	342.132	129.614	284.825	240.461	173.976	18.724	154.546	0.00024282	0.00031946	6.7166e-05	1176.3	4.4191e-06	2.9736e-06	1281.7	236.65	3.6928e-06	1.5435e-06	304.14	82.329	65.669	18.492	5.1482e-06	25.808	7.9354e-05	7.3553e-05	2.046e-05	1131.1	8.3607e-07	8.2806e-07	1235	228.77	8.4254e-07	8.0073e-07	288.55	80.045	62.607	18.06	8.2231e-07	25.016	85.138	59.147	34.713	-7.086	147.081	185.978	-7.193	0.121	209.869	173.039	-0.120	7.071	7.226	14.711	182.894	13.879	-8191	255	
18990.889	1	1	0	0	0.12905	0.16578	0.22612	0.1891	0.099087	0.048634	0.22177	0.13423	0.24573	0.15403	0.14171	0.42588	0.12214	0.12299	0.16807	0.19837	-4.1729	-4.9979	-3.9625	-4.9646	-4.6021	-4.0375	-5.1604	-4.5583	-4.3521	-4.9812	-4.2146	-4.8042	-4.9	-4.1854	-4.8917	-4.6083	72.431	265.127	130.612	312.167	135.890	166.959	292.561	1.851	315.745	-0.765	247.488	225.233	25.875	341.226	1.566	117.921	0.00018129	0.00042806	9.0565e-05	1178.5	9.4388e-07	2.3644e-06	1287.6	237.94	1.0403e-06	1.5787e-06	303.38	83.12	64.557	18.589	2.0843e-06	25.98	8.056e-05	7.5264e-05	2.1185e-05	1131.8	8.5587e-07	8.3271e-07	1237.6	229.71	8.5245e-07	8.1797e-07	289.44	80.077	62.442	18.09	8.3078e-07	25.078	97.919	19.409	-12.817	-7.006	135.561	130.434	-6.781	0.421	167.632	36.081	-0.062	6.995	7.437	14.171	143.212	13.571	-8191	255	
18990.984	1	1	0	0	0.065355	0.15979	0.15279	0.040305	0.26314	0.096236	0.29417	0.3102	0.19373	0.21595	0.10813	0.20664	0.14477	0.07335	0.085488	0.12555	-4.0958	-5.0375	-4.1625	-4.6833	-4.8667	-4.0625	-4.9354	-4.6167	-4.2438	-4.975	-4.1479	-4.5979	-4.9271	-4.0458	-4.9167	-4.6146	104.939	216.384	73.155	200.664	88.529	-4.903	282.542	232.618	259.865	3.690	266.713	78.417	78.382	311.775	74.110	281.480	0.00020615	0.00014283	5.0537e-05	1177	1.797e-06	3.9813e-06	1279.3	237.47	3.0002e-06	2.505e-06	304.11	83.053	65.422	18.583	3.5351e-06	26.012	8.072e-05	7.53e-05	2.0901e-05	1130.3	8.6122e-07	8.195e-07	1234.9	229.66	8.5163e-07	8.0997e-07	289.25	80.098	62.621	18.116	8.2978e-07	25.164	92.948	5.687	43.980	-7.171	129.001	178.721	-7.041	0.505	152.830	104.005	0.312	6.929	7.048	15.078	111.541	13.678	-8191	255	
18991.105	1	1	0	0	0.11368	0.27218	0.072034	0.14213	0.19921	0.079599	0.039403	0.048949	0.18334	0.17122	0.23916	0.18819	0.03763	0.21785	0.15427	0.048557	-3.8208	-5.0333	-4.1417	-4.4271	-4.9604	-3.8917	-4.8833	-4.7333	-4.1062	-5.1146	-4.375	-4.3812	-4.9625	-4.0729	-4.6896	-4.6687	56.509	176.402	-3.914	20.746	236.268	229.449	308.285	97.145	156.226	103.583	76.652	65.053	278.587	196.918	96.546	84.006	0.00025039	0.00013156	0.00010835	1179	2.434e-06	2.2231e-06	1284.5	237.6	4.324e-06	9.5475e-07	303.7	83.266	64.819	18.657	2.7779e-06	25.773	7.9588e-05	7.4099e-05	2.1538e-05	1131.4	8.3659e-07	8.329e-07	1236.3	229.3	8.4268e-07	8.1954e-07	289.32	80.282	62.389	18.09	8.2745e-07	25.056	89.539	43.598	39.790	-7.167	153.927	83.625	-6.640	0.300	112.790	37.687	0.200	6.824	7.323	14.106	147.854	14.069	-8191	255	
18991.201	1	1	0	0	0.1184	0.074748	0.042604	0.12913	0.21167	0.068991	0.31016	0.036342	0.16579	0.20869	0.11674	0.065113	0.14285	0.18504	0.13419	0.17928	-3.7833	-4.9625	-4.5417	-4.3292	-5.0333	-4.0646	-4.7646	-4.7583	-3.9042	-4.9292	-4.5083	-4.4229	-5.025	-4.0708	-4.4	-4.9688	319.185	17.244	35.763	253.002	181.484	279.473	266.752	26.384	139.137	76.859	99.558	48.943	248.735	-9.157	178.588	326.830	0.00020896	0.00036118	9.8054e-05	1177.5	3.7712e-06	1.1446e-06	1283.4	238.04	1.2067e-06	1.0142e-05	302.28	82.917	65.166	18.743	9.5786e-07	25.895	8.0016e-05	7.4349e-05	2.1428e-05	1132.6	8.3874e-07	8.1789e-07	1236.2	229.48	8.4809e-07	8.2495e-07	288.93	80.099	62.565	18.118	8.3401e-07	25.126	90.595	75.684	-8.831	-7.118	124.503	233.286	-6.919	0.320	174.278	155.727	0.106	6.576	7.285	14.814	155.145	13.626	-8191	255	
18991.297	1	1	0	0	0.2441	0.14618	0.1485	0.13387	0.25988	0.20553	0.194	0.20374	0.15437	0.088468	0.12043	0.18991	0.092376	0.20081	0.12587	0.1568	-3.6479	-4.9	-4.5188	-4.2896	-5.0563	-4.0792	-4.5125	-5.0875	-3.9813	-4.8396	-4.75	-4.1583	-5.0292	-4.2375	-4.45	-5.0625	33.402	35.824	177.942	334.574	182.467	242.584	-14.619	291.374	297.092	306.540	250.469	303.869	186.258	-8.603	38.223	235.470	0.00014951	8.3491e-05	8.2877e-05	1175.2	2.678e-06	1.9265e-06	1281.8	237.05	2.8032e-06	2.925e-06	301.48	83.283	65.295	18.634	1.6663e-06	25.879	8.1101e-05	7.449e-05	2.1188e-05	1131.1	8.52e-07	8.5561e-07	1236.6	229.41	8.7585e-07	8.5516e-07	288.58	80.361	62.57	18.135	8.776e-07	25.098	97.821	132.842	76.743	-7.338	112.425	144.305	-7.156	0.697	214.055	90.061	-0.304	6.840	7.374	14.526	96.923	13.796	-8191	255	
#DATA ENDS
