BOXY.EXE: ISS Imagent and Oximeter Data Acquisition Program Version 0.80
Ascii Record File

#ACQ INFORMATION
2  Detector Channels 
16  External MUX Channels 
1  Auxiliary Channels 
5000  Waveform (CCF) Frequency (Hz)
1  Waveforms Skipped 
30  Waveforms Averaged 
1  Cycles Averaged 
16  Acquisitions per Waveform 
10.0806  Updata Rate (Hz) 

#FILE INFORMATION
TRUE -- External MUX Channel results are PARSED.
FALSE -- AC DC and Phase are NOT grouped.
TRUE -- Companion Program Settings File CREATED.
FALSE -- AC data not excluded
FALSE -- DC data not excluded
FALSE -- Phase data not excluded
FALSE -- Auxillary Chn. data not excluded
Tab delimiters

#CALIBRATION STATE
TRUE -- Waveform Calibration Values APPLIED.


#AUX CALIBRATION VALUES
Val Type	aux-1	

Term	1.0000e+00	
Factor	0.0000e+00	


#WF CALIBRATION VALUES
A = Detector Channel
Val Type	A-AC1	A-AC2	A-AC3	A-AC4	A-AC5	A-AC6	A-AC7	A-AC8	A-AC9	A-AC10	A-AC11	A-AC12	A-AC13	A-AC14	A-AC15	A-AC16	A-DC1	A-DC2	A-DC3	A-DC4	A-DC5	A-DC6	A-DC7	A-DC8	A-DC9	A-DC10	A-DC11	A-DC12	A-DC13	A-DC14	A-DC15	A-DC16	A-Ph1	A-Ph2	A-Ph3	A-Ph4	A-Ph5	A-Ph6	A-Ph7	A-Ph8	A-Ph9	A-Ph10	A-Ph11	A-Ph12	A-Ph13	A-Ph14	A-Ph15	A-Ph16	

Term	0.00000e+00	0.00000e+00	0.00000e+00	0.00000e+00	0.00000e+00	0.00000e+00	0.00000e+00	0.00000e+00	0.00000e+00	0.00000e+00	0.00000e+00	0.00000e+00	0.00000e+00	0.00000e+00	0.00000e+00	0.00000e+00	0.00000e+00	0.00000e+00	0.00000e+00	0.00000e+00	0.00000e+00	0.00000e+00	0.00000e+00	0.00000e+00	0.00000e+00	0.00000e+00	0.00000e+00	0.00000e+00	0.00000e+00	0.00000e+00	0.00000e+00	0.00000e+00	0.00000e+00	0.00000e+00	0.00000e+00	0.00000e+00	0.00000e+00	0.00000e+00	0.00000e+00	0.00000e+00	0.00000e+00	0.00000e+00	0.00000e+00	0.00000e+00	0.00000e+00	0.00000e+00	0.00000e+00	0.00000e+00	
Factor	1.00000e+00	1.00000e+00	1.00000e+00	1.00000e+00	1.00000e+00	1.00000e+00	1.00000e+00	1.00000e+00	1.00000e+00	1.00000e+00	1.00000e+00	1.00000e+00	1.00000e+00	1.00000e+00	1.00000e+00	1.00000e+00	1.00000e+00	1.00000e+00	1.00000e+00	1.00000e+00	1.00000e+00	1.00000e+00	1.00000e+00	1.00000e+00	1.00000e+00	1.00000e+00	1.00000e+00	1.00000e+00	1.00000e+00	1.00000e+00	1.00000e+00	1.00000e+00	X	X	X	X	X	X	X	X	X	X	X	X	X	X	X	X	

B = Detector Channel
Val Type	B-AC1	B-AC2	B-AC3	B-AC4	B-AC5	B-AC6	B-AC7	B-AC8	B-AC9	B-AC10	B-AC11	B-AC12	B-AC13	B-AC14	B-AC15	B-AC16	B-DC1	B-DC2	B-DC3	B-DC4	B-DC5	B-DC6	B-DC7	B-DC8	B-DC9	B-DC10	B-DC11	B-DC12	B-DC13	B-DC14	B-DC15	B-DC16	B-Ph1	B-Ph2	B-Ph3	B-Ph4	B-Ph5	B-Ph6	B-Ph7	B-Ph8	B-Ph9	B-Ph10	B-Ph11	B-Ph12	B-Ph13	B-Ph14	B-Ph15	B-Ph16	

Term	0.00000e+00	0.00000e+00	0.00000e+00	0.00000e+00	0.00000e+00	0.00000e+00	0.00000e+00	0.00000e+00	0.00000e+00	0.00000e+00	0.00000e+00	0.00000e+00	0.00000e+00	0.00000e+00	0.00000e+00	0.00000e+00	0.00000e+00	0.00000e+00	0.00000e+00	0.00000e+00	0.00000e+00	0.00000e+00	0.00000e+00	0.00000e+00	0.00000e+00	0.00000e+00	0.00000e+00	0.00000e+00	0.00000e+00	0.00000e+00	0.00000e+00	0.00000e+00	-1.74110e+02	-1.49463e+02	-1.54163e+02	-1.83559e+02	-9.67051e+01	-8.85097e+01	-1.58120e+02	-1.62015e+02	-7.57778e+01	-9.11998e+01	-1.70546e+02	-1.71093e+02	-1.79028e+02	-1.76657e+02	-7.54591e+01	-1.49556e+02	
Factor	3.07533e-05	1.16140e-04	3.88137e-05	1.69307e-01	1.12974e-06	1.04412e-06	1.84577e-01	5.88378e-02	1.11002e-06	1.29812e-06	9.83490e-02	3.36173e-02	3.12576e-02	1.02943e-02	1.39422e-06	1.47485e-02	9.99033e-07	1.02388e-06	2.85475e-07	7.71054e-02	1.12068e-08	1.12247e-08	7.91330e-02	2.67211e-02	1.11987e-08	1.12333e-08	4.26404e-02	1.45631e-02	1.40376e-02	4.62015e-03	1.12025e-08	6.38598e-03	X	X	X	X	X	X	X	X	X	X	X	X	X	X	X	X	



#DISTANCE SETTINGS
A = Detector Channel
A-1	A-2	A-3	A-4	A-5	A-6	A-7	A-8	A-9	A-10	A-11	A-12	A-13	A-14	A-15	A-16	

2.5000e+00	3.0000e+00	2.5000e+00	3.0000e+00	2.0000e+00	3.0000e+00	1.5000e+00	3.0000e+00	3.0000e+00	3.0000e+00	3.0000e+00	3.0000e+00	3.0000e+00	3.0000e+00	1.5000e+00	3.0000e+00	

B = Detector Channel
B-1	B-2	B-3	B-4	B-5	B-6	B-7	B-8	B-9	B-10	B-11	B-12	B-13	B-14	B-15	B-16	

1.0000e+01	1.0000e+01	1.0000e+01	1.4400e+00	1.0000e+01	1.0000e+01	1.5100e+00	1.9400e+00	1.0000e+01	1.0000e+01	1.9900e+00	2.4900e+00	2.4100e+00	2.9000e+00	1.0000e+01	2.9800e+00	




#DATA BEGINS
time	group	step	mark	flag	A-AC1	A-AC2	A-AC3	A-AC4	A-AC5	A-AC6	A-AC7	A-AC8	A-AC9	A-AC10	A-AC11	A-AC12	A-AC13	A-AC14	A-AC15	A-AC16	A-DC1	A-DC2	A-DC3	A-DC4	A-DC5	A-DC6	A-DC7	A-DC8	A-DC9	A-DC10	A-DC11	A-DC12	A-DC13	A-DC14	A-DC15	A-DC16	A-Ph1	A-Ph2	A-Ph3	A-Ph4	A-Ph5	A-Ph6	A-Ph7	A-Ph8	A-Ph9	A-Ph10	A-Ph11	A-Ph12	A-Ph13	A-Ph14	A-Ph15	A-Ph16	B-AC1	B-AC2	B-AC3	B-AC4	B-AC5	B-AC6	B-AC7	B-AC8	B-AC9	B-AC10	B-AC11	B-AC12	B-AC13	B-AC14	B-AC15	B-AC16	B-DC1	B-DC2	B-DC3	B-DC4	B-DC5	B-DC6	B-DC7	B-DC8	B-DC9	B-DC10	B-DC11	B-DC12	B-DC13	B-DC14	B-DC15	B-DC16	B-Ph1	B-Ph2	B-Ph3	B-Ph4	B-Ph5	B-Ph6	B-Ph7	B-Ph8	B-Ph9	B-Ph10	B-Ph11	B-Ph12	B-Ph13	B-Ph14	B-Ph15	B-Ph16	aux-1	digaux	

19210.451	1	1	0	768	0.10861	0.23034	0.030498	0.13676	0.095224	0.15134	0.23617	0.13276	0.10474	0.21802	0.28513	0.25251	0.12201	0.0277	0.21778	0.26786	-3.3563	-4.0813	-4.4354	-3.725	-4.6271	-4.1208	-4.0771	-4.7333	-3.8729	-4.1979	-4.7417	-3.7583	-4.5208	-4.2958	-3.7042	-4.7812	43.832	-4.429	49.532	223.974	249.464	150.707	257.648	158.639	108.547	7.576	212.675	-49.575	267.308	-74.330	282.313	201.391	0.0003171	0.00040355	0.00032725	1347.6	3.4208e-06	7.3001e-06	1881.3	330.9	5.3611e-06	6.6512e-06	621.11	226.58	106.96	48.794	6.8164e-06	113.49	0.0003162	0.00029688	8.3854e-05	981.31	3.3045e-06	3.2986e-06	1373.4	242.83	3.3443e-06	3.4319e-06	446.57	163.58	79.05	35.718	3.285e-06	81.495	145.773	14.837	-20.370	-64.040	7.673	64.788	-63.740	-58.797	-4.043	179.818	-59.583	-55.225	-54.425	-49.758	84.516	-51.410	-8191	255	
19210.549	1	1	0	0	0.042042	0.16046	0.22091	0.13198	0.044542	0.16319	0.12293	0.26181	0.15226	0.15833	0.077958	0.13532	0.23035	0.18882	0.041624	0.22652	-3.4479	-3.9146	-4.6333	-3.7188	-4.3792	-4.2479	-3.8917	-4.7958	-3.8688	-3.9646	-4.6833	-3.7333	-4.4771	-4.4792	-3.6771	-4.8375	207.978	215.415	236.254	246.243	-54.938	204.161	123.527	248.585	72.279	-29.085	-62.552	266.891	174.776	-58.018	20.695	235.768	7.7352e-05	0.00072057	0.00015499	1363.4	5.3202e-06	3.5304e-06	1906.6	336.26	5.1474e-06	8.8918e-06	630.08	229.41	109.3	49.877	2.0796e-05	115.94	0.00031856	0.00030718	8.3936e-05	992.97	3.2961e-06	3.302e-06	1385.6	247.03	3.3341e-06	3.3729e-06	453.62	165.54	80.233	36.311	3.4018e-06	82.768	146.809	-11.520	-74.134	-63.596	33.111	-20.117	-63.615	-59.111	192.459	-26.225	-59.432	-55.287	-54.534	-49.968	70.878	-51.459	-8191	255	
19210.645	1	1	0	0	0.074002	0.19431	0.094574	0.13776	0.022348	0.10381	0.26386	0.062601	0.22745	0.11827	0.10365	0.11654	0.3246	0.089764	0.14341	0.14018	-3.6937	-3.9375	-4.5208	-3.9125	-4.1875	-4.3729	-3.9167	-4.6667	-4.1208	-3.6458	-4.7562	-3.8167	-4.2417	-4.6104	-3.7271	-4.6375	230.743	252.312	62.675	208.437	-40.370	121.076	228.171	51.446	197.483	11.754	204.860	176.495	276.697	225.582	63.441	236.862	0.00025046	0.00058439	0.00010347	1382.2	1.264e-05	4.5684e-06	1916.7	339.2	5.5139e-06	1.2758e-05	627.49	228.57	108.73	49.277	1.362e-05	114.25	0.00031695	0.00031186	8.7487e-05	1007.5	3.3853e-06	3.5201e-06	1400.1	249.25	3.5193e-06	3.5356e-06	454.18	165.72	80.361	36	3.5672e-06	81.833	140.882	117.518	49.780	-63.773	56.853	227.487	-63.649	-59.091	91.475	70.837	-59.215	-55.080	-54.244	-49.853	159.026	-51.265	-8191	255	
19210.740	1	1	0	0	0.053339	0.17466	0.086525	0.058673	0.2446	0.1754	0.20899	0.14907	0.071258	0.21501	0.26433	0.41808	0.14353	0.1539	0.086849	0.2218	-3.8042	-3.8896	-4.6292	-3.9688	-4.2042	-4.6062	-3.8396	-4.6292	-4.2583	-3.8146	-4.8458	-3.9562	-3.9792	-4.6229	-3.5917	-4.5833	259.360	261.607	102.399	-53.437	251.033	77.043	197.479	-54.953	219.906	40.782	228.370	-76.730	126.884	-1.406	-17.496	-59.591	0.00035476	0.00021744	0.00032477	1349.8	5.1002e-06	5.9241e-06	1871.3	328.74	1.2285e-05	5.3173e-06	610.79	221.8	104.5	47.182	1.0915e-06	111.14	0.00032301	0.00031616	8.6699e-05	989.96	3.5512e-06	3.5052e-06	1370	242.06	3.4818e-06	3.4379e-06	440.63	160.42	77.462	34.647	3.5072e-06	79.47	144.118	44.891	32.051	-63.855	170.648	66.447	-63.784	-59.023	58.199	24.497	-59.209	-55.068	-54.857	-50.472	103.771	-51.901	-8191	255	
19210.834	1	1	0	0	0.074453	0.15085	0.34574	0.24376	0.062764	0.1712	0.28324	0.15775	0.035853	0.18176	0.15777	0.16152	0.16459	0.12436	0.13104	0.19839	-4.0875	-3.7375	-4.8187	-4.0917	-3.9375	-4.3812	-3.825	-4.3667	-4.4146	-3.6646	-4.625	-4.1312	-3.9583	-4.6188	-3.8625	-4.3708	-63.075	80.127	243.883	227.454	120.290	239.360	257.821	211.661	230.817	-33.234	237.628	-73.983	267.839	-5.549	234.862	229.703	0.00033363	0.0011864	0.00052923	1341.3	5.1044e-06	4.7214e-06	1877.5	327.89	6.2962e-06	5.991e-06	611.84	222.19	104.93	48.121	4.1201e-06	112.26	0.00032012	0.00031535	8.8782e-05	979.19	3.4865e-06	3.4889e-06	1371.5	240.33	3.5623e-06	3.5583e-06	442.94	161.62	78.111	35.257	3.6833e-06	80.973	114.075	17.172	-50.470	-64.020	114.745	19.380	-63.835	-59.495	6.233	50.824	-60.267	-55.827	-55.477	-50.675	2.490	-52.287	-8191	255	
19210.932	1	1	0	0	0.097936	0.075163	0.21326	0.23003	0.25222	0.067738	0.13206	0.24484	0.18634	0.060102	0.21417	0.39917	0.054035	0.051782	0.1933	0.15338	-4.175	-3.6208	-4.5271	-4.3083	-3.6979	-4.6396	-3.9708	-4.2458	-4.5479	-3.6562	-4.5875	-4.1167	-3.9833	-4.85	-3.7979	-4.2521	128.434	149.161	89.132	254.639	-72.311	9.709	216.676	267.672	180.086	163.392	207.612	259.798	244.248	148.268	19.392	254.101	0.00049321	0.00028366	0.00012694	1345.8	3.2755e-06	6.3817e-06	1894	329.73	2.6058e-06	6.9684e-07	620.65	226.51	107.4	49.047	3.9384e-06	114.68	0.00033584	0.00033653	9.4781e-05	986.64	3.7049e-06	3.7398e-06	1384.2	243.91	3.6992e-06	3.7084e-06	448.76	164.14	79.905	35.847	3.5899e-06	82.401	142.443	72.163	83.778	-64.480	64.958	242.881	-64.269	-59.673	223.612	52.864	-59.798	-55.387	-55.545	-50.125	54.759	-52.049	-8191	255	
19211.051	1	1	0	0	0.025145	0.27708	0.19707	0.21752	0.12941	0.072764	0.089235	0.19789	0.025138	0.23229	0.13292	0.056388	0.23972	0.12924	0.15494	0.30066	-4.3271	-3.6854	-4.6521	-4.4875	-3.6646	-4.7188	-4.1833	-4.0938	-4.5646	-3.7229	-4.5458	-4.5125	-3.8458	-4.7812	-3.9625	-3.975	223.233	207.940	127.833	238.831	237.169	274.077	262.509	270.140	85.127	62.962	-7.684	50.477	223.862	-18.905	-40.598	258.145	0.00032472	0.00047016	0.00011936	1368.1	1.8028e-06	1.061e-05	1912.8	333.4	5.273e-06	5.8388e-06	632.89	229.69	109.41	49.619	7.751e-06	116.1	0.00033958	0.00033658	9.1889e-05	998.81	3.6311e-06	3.5759e-06	1396.1	246.45	3.6739e-06	3.6376e-06	454.82	166.45	80.377	36.23	3.5506e-06	83.232	130.810	10.424	147.785	-64.137	127.633	6.511	-64.070	-59.057	90.056	43.719	-60.170	-55.506	-55.356	-50.433	95.369	-51.667	-8191	255	
19211.146	1	1	0	0	0.15546	0.17143	0.12215	0.17529	0.18659	0.23431	0.26824	0.38299	0.20497	0.11459	0.18196	0.16631	0.15509	0.17334	0.29223	0.15258	-4.3833	-3.4958	-4.3667	-4.5042	-3.5	-4.5188	-4.1188	-3.875	-4.6917	-3.8312	-4.2292	-4.5146	-3.625	-4.5604	-4.3021	-4.05	175.909	-6.202	222.013	198.437	21.466	208.174	228.369	-75.873	69.030	241.097	231.084	236.583	161.182	-64.710	274.665	212.297	0.00030563	0.00017904	0.00020773	1358.7	1.0044e-05	5.3298e-06	1904.2	334.15	5.1432e-06	7.6559e-06	620.02	225.65	107.28	47.933	1.5689e-05	112.26	0.00031812	0.00032146	8.766e-05	997.4	3.4245e-06	3.3687e-06	1393.8	245.84	3.3921e-06	3.431e-06	447.61	163.11	78.726	35.069	3.4184e-06	80.383	116.454	257.638	-36.105	-64.084	19.947	102.077	-63.888	-59.313	76.451	97.817	-59.886	-55.346	-54.880	-50.132	52.427	-51.772	-8191	255	
19211.242	1	1	0	0	0.13899	0.075891	0.076588	0.28361	0.20107	0.065381	0.14803	0.1149	0.0279	0.076466	0.24899	0.088931	0.22866	0.13273	0.15232	0.17173	-4.4167	-3.7	-4.0167	-4.6792	-3.5729	-4.3812	-4.3125	-3.875	-4.5687	-3.8583	-4.1271	-4.5604	-3.7292	-4.5813	-4.35	-3.8271	38.396	9.018	204.343	237.603	87.928	-44.890	180.023	237.469	40.739	257.123	242.273	241.014	-65.958	10.408	239.270	229.625	0.00030842	0.00062747	0.00025451	1343	3.6443e-06	6.9839e-06	1860.9	326.1	8.3872e-06	8.6226e-06	609.86	218.9	104.77	47.006	1.5043e-05	110.83	0.00031291	0.00030934	8.4118e-05	977.56	3.3379e-06	3.3685e-06	1360.2	239.08	3.427e-06	3.4046e-06	438.91	159.36	77.238	34.465	3.5187e-06	79.334	155.560	-57.389	58.943	-63.750	78.423	105.324	-63.756	-58.935	69.251	17.186	-59.607	-55.314	-55.006	-50.068	109.474	-51.577	-8191	255	
19211.340	1	1	0	0	0.02526	0.14637	0.097761	0.021486	0.272	0.047112	0.18339	0.23169	0.19748	0.11962	0.11896	0.14041	0.12697	0.20796	0.045752	0.20962	-4.4083	-4.0521	-3.8229	-4.8063	-3.5375	-4.3125	-4.4708	-3.7646	-4.4625	-3.9979	-4.1396	-4.6208	-3.7375	-4.1979	-4.3604	-3.7979	203.439	281.889	160.203	21.643	-40.047	28.239	242.333	217.662	-7.419	96.061	261.002	150.759	156.097	268.892	116.412	234.311	0.00016925	0.00027662	0.0003554	1338.1	7.2072e-06	1.0059e-05	1877.8	326.28	6.7381e-06	7.6434e-06	613.37	224.35	105.91	48.25	7.3836e-06	112.4	0.00033365	0.00032401	8.8452e-05	978.18	3.5464e-06	3.4493e-06	1372.3	240.64	3.4536e-06	3.5204e-06	442.45	162.25	78.35	35.253	3.5784e-06	80.811	125.861	198.529	23.324	-63.594	123.146	-27.258	-63.528	-59.148	-12.566	104.351	-59.653	-55.163	-54.825	-50.238	178.994	-51.637	-8191	255	
19211.436	1	1	0	0	0.16063	0.26787	0.10576	0.17447	0.067518	0.24562	0.13936	0.18484	0.15065	0.18874	0.16293	0.11351	0.046439	0.13889	0.16986	0.18215	-4.1	-4.025	-3.7396	-4.675	-3.8875	-4.1042	-4.7292	-3.7042	-4.4	-4.1667	-3.8396	-4.7229	-3.9146	-4.1188	-4.4958	-3.6792	161.588	136.914	149.208	224.217	32.638	-61.740	212.925	234.108	70.598	172.461	263.100	-64.266	117.018	245.740	258.023	206.961	0.00023894	0.00017004	0.00056575	1353.3	7.4976e-06	7.1089e-06	1901.2	331.13	1.1441e-05	8.4832e-06	624.45	227.69	107.83	49.025	1.0186e-05	115.97	0.00034436	0.00033384	9.4227e-05	989.16	3.6882e-06	3.7649e-06	1383.8	244.14	3.6361e-06	3.7553e-06	451.23	164.94	80.025	35.919	3.7553e-06	83.14	152.215	29.666	-11.142	-63.809	29.436	89.865	-63.663	-58.965	21.237	37.820	-59.538	-55.306	-54.931	-50.684	48.799	-51.260	-8191	255	
19211.531	1	1	0	0	0.046762	0.062094	0.022825	0.10345	0.033964	0.072613	0.27496	0.14062	0.076051	0.15726	0.21573	0.19036	0.12979	0.12776	0.23322	0.1254	-4.0917	-4.1521	-3.7062	-4.8438	-3.9188	-3.925	-4.9208	-3.6208	-4.3354	-4.3625	-3.7938	-4.7146	-3.95	-4.1188	-4.5125	-3.8125	-2.927	277.555	45.846	244.891	168.109	239.403	234.883	221.447	-3.129	138.290	192.471	260.297	-74.243	202.366	87.860	272.317	0.0002337	0.00095886	0.00026194	1366.4	8.8885e-06	4.5965e-06	1938.9	336.53	3.3581e-06	4.3439e-06	636.63	231.29	110.03	50.047	6.3974e-06	117.21	0.0003483	0.00035179	9.6904e-05	1001.7	3.8601e-06	3.7728e-06	1412.6	249.38	3.9138e-06	3.9979e-06	458.91	168.09	81.508	36.742	4.0001e-06	84.12	145.440	47.230	-36.329	-63.454	71.798	99.850	-63.784	-59.098	92.797	-14.588	-59.424	-54.768	-54.326	-50.221	85.838	-51.096	-8191	255	
19211.652	1	1	0	0	0.18869	0.060885	0.093343	0.15118	0.064497	0.033693	0.24088	0.080233	0.12415	0.067822	0.11713	0.32066	0.093496	0.16122	0.18134	0.072304	-3.9104	-4.425	-3.6979	-4.7229	-3.9188	-3.9354	-4.8688	-4.0104	-4.1958	-4.5271	-3.775	-4.7729	-4.1479	-4.025	-4.6	-4.0146	219.390	105.692	102.871	273.959	38.321	29.148	215.889	-2.887	43.319	78.111	143.046	216.432	38.534	-22.619	-17.562	156.064	0.00049447	0.0014083	0.00023239	1370.2	2.1052e-06	1.0637e-05	1889.5	330.74	6.854e-06	2.6999e-06	615.17	223.1	105.97	48.285	4.0045e-06	112.16	0.00036519	0.00036059	0.00010069	1001.2	3.9525e-06	3.9268e-06	1391.5	244.03	3.9517e-06	3.9633e-06	446.92	162.36	78.82	35.315	3.882e-06	80.905	114.649	9.425	-43.654	-63.424	128.264	32.108	-63.211	-59.025	61.932	18.713	-59.300	-54.616	-54.056	-49.958	39.408	-51.482	-8191	255	
19211.746	1	1	0	0	0.20792	0.077071	0.086132	0.208	0.17686	0.18225	0.082864	0.049628	0.11076	0.28816	0.24123	0.31871	0.065144	0.15406	0.14245	0.11127	-3.8167	-4.5042	-3.6854	-4.6542	-4.1458	-3.9229	-4.8542	-4.0875	-4.1771	-4.5729	-3.8708	-4.3562	-4.2354	-3.8063	-4.7	-4.1813	65.047	44.671	-6.495	156.433	11.676	-0.293	241.936	131.920	-61.783	122.133	210.682	219.513	143.243	150.097	19.146	71.237	0.00028687	0.0003423	0.0002572	1336.5	6.8062e-06	9.3153e-06	1888.1	322.4	7.8347e-06	1.8074e-05	610.41	223.28	104.26	47.665	3.9693e-06	111.94	0.00036369	0.00036413	9.9836e-05	980.95	4.0204e-06	4.0269e-06	1376.9	239.81	3.9289e-06	3.916e-06	443.17	161.82	77.887	35.085	3.9172e-06	80.869	130.098	95.544	-29.313	-63.363	46.111	67.522	-63.478	-58.628	4.510	41.105	-59.103	-55.251	-54.471	-49.887	30.568	-51.407	-8191	255	
19211.844	1	1	0	0	0.11393	0.1137	0.21434	0.16002	0.11941	0.18509	0.35324	0.21255	0.067953	0.11264	0.25696	0.29738	0.15369	0.22111	0.16786	0.15221	-3.5042	-4.475	-3.6333	-4.4	-4.2479	-3.6521	-4.8479	-4.2042	-3.8438	-4.5292	-3.8854	-4.3333	-4.3479	-3.7583	-4.3438	-4.2208	126.724	-68.729	-40.362	204.529	138.815	-49.529	250.134	204.737	279.284	18.530	235.995	-43.990	252.779	212.946	122.210	141.578	0.00042587	0.00071641	0.0002612	1330.8	9.6636e-06	1.0032e-05	1888.8	326.38	7.1362e-06	9.3936e-06	617.77	225.63	107.8	48.276	1.0381e-05	113.41	0.0003645	0.00035635	0.00010179	981.33	3.9757e-06	3.9798e-06	1378.9	242.9	4.0087e-06	4.0755e-06	449.48	163.79	80.045	35.562	4.1242e-06	82.114	134.251	79.911	32.839	-63.479	248.845	18.703	-63.372	-59.322	58.383	147.882	-59.446	-55.413	-54.696	-50.181	56.399	-51.366	-8191	255	
19211.939	1	1	0	0	0.039433	0.29849	0.20165	0.27283	0.22352	0.14741	0.28684	0.19328	0.21255	0.18096	0.13935	0.13243	0.14553	0.068907	0.14774	0.18764	-3.4792	-4.4938	-3.7562	-4.2146	-4.575	-3.5917	-4.8417	-4.2833	-3.6875	-4.6562	-4.0437	-4.0583	-4.5208	-3.6646	-4.3688	-4.5354	-50.839	64.009	100.569	229.504	-63.906	249.636	217.178	223.530	-42.627	-9.044	76.031	222.817	266.119	259.715	196.376	216.431	0.00025953	0.0010864	0.00029365	1353.5	3.751e-06	4.7676e-06	1910.6	332.29	5.1541e-06	9.9744e-06	628.82	227.21	107.66	49.343	8.0102e-06	116.33	0.00037845	0.00037733	0.0001071	990.93	4.2152e-06	4.0594e-06	1400.9	246.63	4.0175e-06	4.1022e-06	455.13	165.88	80.375	36.228	4.0311e-06	83.704	91.335	45.689	-73.535	-63.704	63.723	127.688	-63.764	-58.669	203.441	-18.153	-59.652	-55.283	-54.816	-50.206	67.312	-51.141	-8191	255	
19212.014	1	1	0	0	0.21439	0.026959	0.33561	0.10318	0.15997	0.12059	0.1122	0.12787	0.12279	0.029226	0.078322	0.15958	0.2501	0.13712	0.26206	0.42208	-3.3104	-4.6958	-4	-4.1354	-4.5604	-3.7333	-4.5417	-4.2167	-3.6458	-4.6833	-4.1854	-4.0708	-4.7979	-3.7417	-4.2417	-4.3229	60.045	185.600	122.116	-63.948	-8.629	74.279	-60.150	128.555	254.722	170.853	199.908	259.169	148.650	-12.858	-43.633	195.076	0.00032253	9.7166e-05	0.00016108	1368.2	3.3209e-06	4.239e-06	1920.8	338.22	7.4903e-06	3.8633e-06	628.03	231.15	107.31	49.053	6.7643e-06	115.21	0.00038193	0.00038017	0.00010572	1006	4.1109e-06	4.1873e-06	1414.9	249.9	4.254e-06	4.3044e-06	457.98	167.58	80.7	36.31	4.2802e-06	83.042	117.678	-72.788	-32.667	-63.571	-55.370	-8.694	-63.634	-58.944	138.216	216.037	-59.411	-55.108	-54.450	-50.469	108.879	-51.226	-8191	255	
19212.133	1	1	0	0	0.17993	0.19926	0.13148	0.23229	0.22908	0.1799	0.43723	0.32785	0.060172	0.03828	0.11578	0.047132	0.12394	0.13777	0.29347	0.10753	-3.4938	-4.7125	-4.1687	-3.9229	-4.625	-3.7875	-4.4729	-4.45	-3.6333	-4.5437	-4.2729	-4.0687	-4.7479	-3.9292	-4.1917	-4.8292	38.909	228.338	251.635	230.780	197.014	146.465	246.238	170.199	36.139	272.953	-37.275	-47.763	278.094	205.223	0.013	148.206	4.5328e-05	0.00059858	0.00023328	1351	1.2125e-05	4.5048e-06	1896.3	324.85	9.9182e-06	7.3144e-06	614.06	222.01	104.33	47.724	1.4181e-05	112.02	0.00040096	0.00039174	0.00010808	990.64	4.2894e-06	4.2685e-06	1389.8	242.69	4.3231e-06	4.3234e-06	445.88	162.08	78.591	35.034	4.4456e-06	80.982	83.365	124.256	58.463	-64.066	83.675	143.136	-63.652	-59.014	197.682	120.059	-59.374	-55.045	-54.208	-50.337	133.019	-51.439	-8191	255	
19212.229	1	1	0	0	0.25993	0.11121	0.21086	0.26188	0.062901	0.16126	0.092154	0.12524	0.079036	0.16165	0.22665	0.13323	0.098131	0.20743	0.045976	0.3666	-3.4208	-4.3625	-4.1896	-3.9521	-4.6104	-3.9146	-4.3562	-4.7083	-3.7729	-4.3729	-4.3917	-3.8667	-4.65	-4.1312	-3.7958	-4.6292	270.867	-35.858	81.224	245.573	179.090	-33.456	241.250	68.961	58.494	-19.471	249.844	147.220	76.062	201.262	-30.228	215.605	0.00018142	0.00083492	0.00015189	1331.2	1.2703e-05	5.0895e-06	1903.8	326.66	7.6176e-06	1.5694e-05	617.38	222.87	104.66	48.387	6.9083e-06	113.71	0.0004136	0.00040194	0.00011304	979.66	4.4934e-06	4.5315e-06	1392.5	242.7	4.6229e-06	4.7377e-06	450.13	163.46	79.317	35.79	4.7082e-06	82.785	149.859	-42.434	-48.061	-63.805	5.079	-63.273	-63.574	-58.833	240.606	0.702	-58.979	-55.262	-54.353	-50.446	98.629	-51.168	-8191	255	
19212.324	1	1	0	0	0.094638	0.083991	0.17394	0.052579	0.065676	0.094108	0.10096	0.146	0.12514	0.065642	0.035371	0.20424	0.13471	0.20524	0.10331	0.27527	-3.4417	-4.3979	-4.3208	-3.8083	-4.6188	-4.1937	-3.9188	-4.6854	-3.7562	-4.1937	-4.7063	-3.7771	-4.6042	-4.2458	-3.7333	-4.8208	212.401	-16.232	253.872	16.341	80.468	-2.844	-62.518	132.579	141.809	-9.347	18.762	44.466	-43.641	217.076	-42.363	188.253	0.0003754	0.0011541	0.00036614	1346.3	1.1161e-05	7.9728e-06	1926.8	331.04	8.6601e-06	1.8318e-05	626.83	228.5	106.43	49.309	1.6939e-05	117.6	0.00043551	0.00043695	0.00012348	994.52	4.8779e-06	4.8022e-06	1412.7	246.33	4.8271e-06	4.8915e-06	457.02	166.65	81.033	36.55	4.9101e-06	84.869	118.145	32.320	-13.159	-63.580	60.803	22.694	-63.693	-58.679	92.363	86.332	-59.248	-55.368	-54.717	-49.982	143.040	-51.115	-8191	255	
19212.420	1	1	0	0	0.34406	0.098355	0.067138	0.32427	0.18967	0.11891	0.33664	0.084109	0.19507	0.13167	0.042435	0.1895	0.1013	0.075669	0.28414	0.05255	-3.5208	-4.2812	-4.4708	-3.7479	-4.4938	-4.0833	-3.8854	-4.6167	-3.7646	-4.0521	-4.5854	-3.5854	-4.575	-4.4271	-3.6125	-4.8083	-12.888	123.673	176.448	243.609	64.171	59.708	207.100	160.460	32.762	-53.803	-28.425	162.173	281.550	247.899	33.109	229.230	0.0001004	0.001269	0.00014229	1371.9	9.6989e-06	7.3592e-06	1952.9	335.01	1.0029e-05	2.0074e-05	637.32	231.03	109.73	50.038	1.9364e-05	119.41	0.00045466	0.00044949	0.00012696	1012	5.1004e-06	5.0575e-06	1434.9	250.86	5.0256e-06	5.0771e-06	464.91	169.97	82.475	37.205	5.0194e-06	86.412	187.916	18.088	57.708	-63.619	127.659	-73.159	-63.577	-58.942	51.378	56.984	-58.918	-55.061	-54.893	-49.678	6.725	-51.279	-8191	255	
19212.541	1	1	0	0	0.079205	0.078527	0.22116	0.24727	0.15131	0.13425	0.079362	0.13106	0.23159	0.33682	0.13353	0.067712	0.2088	0.32183	0.082468	0.23427	-3.4771	-4.1396	-4.725	-3.8854	-4.3729	-4.5312	-3.9208	-4.9062	-3.9042	-3.9604	-4.6687	-3.875	-4.3354	-4.6354	-3.6417	-4.8333	247.996	83.059	-56.598	-65.086	226.666	-4.939	164.994	217.845	63.375	-52.415	275.180	240.490	236.708	181.882	197.406	223.840	0.00039994	0.0012376	0.00062526	1381.6	1.1087e-05	5.7369e-06	1965.4	336.91	1.4621e-05	1.049e-05	628.14	228.55	106.94	49.214	4.2313e-06	116.57	0.00047216	0.00046898	0.00013269	1021.5	5.3818e-06	5.3413e-06	1445.5	252.29	5.7083e-06	5.7045e-06	462.76	168.97	82.154	36.886	5.8447e-06	84.972	117.364	263.775	-18.089	-63.333	103.290	-70.486	-63.574	-58.656	64.528	83.607	-58.964	-55.575	-54.482	-50.116	104.347	-51.563	-8191	255	
19212.611	1	1	0	0	0.18304	0.025586	0.17421	0.26295	0.087343	0.16938	0.12972	0.12202	0.15382	0.14416	0.30389	0.24209	0.04832	0.14238	0.15542	0.074724	-3.7417	-3.8833	-4.7917	-3.7125	-4.425	-4.4292	-3.8417	-4.6188	-4.2417	-3.6833	-4.8187	-3.8833	-4.2	-4.65	-3.6083	-4.6	142.842	-3.842	158.801	265.944	59.747	276.236	199.037	279.189	101.647	206.413	269.197	231.831	-17.894	267.031	-25.564	270.764	8.5258e-05	0.0011079	0.00028769	1345.8	2.3767e-06	2.5054e-06	1938.1	324.57	9.4126e-06	3.5798e-06	617.57	224.43	104.95	48.202	1.476e-05	114.9	0.00053335	0.00052149	0.00014553	1000.4	5.6049e-06	5.5365e-06	1422.9	244.48	5.4546e-06	5.3486e-06	452.91	165.33	79.73	35.977	5.2029e-06	83.064	140.847	-11.250	-65.423	-63.764	217.216	99.730	-63.667	-59.110	86.990	-53.178	-59.332	-55.299	-54.596	-50.301	140.730	-51.188	-8191	255	
19212.732	1	1	0	0	0.096032	0.20527	0.26123	0.18989	0.094167	0.11857	0.06842	0.23709	0.18006	0.12299	0.12296	0.084917	0.11337	0.11482	0.12006	0.10216	-3.9437	-3.7542	-4.5667	-4.075	-4.1042	-4.5583	-3.8438	-4.5625	-4.2979	-3.6646	-4.7604	-3.9396	-3.9125	-4.8083	-3.7146	-4.35	116.452	81.117	10.416	-74.560	58.647	-30.165	-40.773	251.884	201.654	225.145	44.082	-23.206	258.688	201.659	62.051	-49.184	0.00016564	0.0011578	0.00064617	1330.4	1.1903e-05	1.3008e-06	1914.3	322.97	8.4542e-06	3.2114e-06	612.97	225.59	104.66	48.394	9.5614e-06	115.01	0.00048275	0.00047655	0.00013046	985.74	5.0958e-06	5.0218e-06	1404.3	242.4	4.8762e-06	4.8322e-06	450.77	165.08	79.39	35.911	4.7548e-06	83.249	132.298	-24.466	33.526	-63.415	-66.810	260.302	-63.618	-59.026	46.753	260.724	-59.294	-55.341	-54.684	-50.165	-62.874	-51.392	-8191	255	
19212.828	1	1	0	0	0.079255	0.10444	0.15417	0.16368	0.22825	0.089513	0.22189	0.24666	0.0083048	0.049049	0.32047	0.17845	0.2662	0.079359	0.16324	0.041188	-4.0687	-3.7208	-4.6417	-4.2458	-3.9062	-4.5979	-4.0208	-4.3562	-4.5938	-3.7333	-4.6792	-4.3333	-4.0354	-4.775	-3.8438	-4.4292	256.020	263.576	106.603	277.734	193.525	205.198	226.276	238.007	130.826	-21.337	-54.358	278.782	250.399	265.606	-48.389	233.461	0.00032135	0.00062001	0.00036778	1327.4	1.0958e-05	6.6729e-06	1914.8	329.24	1.2766e-06	1.4323e-05	627.72	226.85	106.53	49.235	7.7045e-06	117.33	0.00044533	0.0004485	0.00012493	986.04	5.0752e-06	4.98e-06	1413.8	245.54	5.0552e-06	5.2513e-06	458.27	167.14	80.995	36.813	5.4853e-06	85.227	127.701	136.499	-33.654	-63.693	70.100	45.555	-63.278	-58.661	14.575	124.020	-58.890	-54.789	-54.813	-49.963	62.200	-51.135	-8191	255	
19212.924	1	1	0	0	0.17428	0.12458	0.07287	0.42761	0.14379	0.11743	0.096242	0.22731	0.13537	0.12914	0.060384	0.096888	0.051402	0.13414	0.17595	0.096583	-4.1979	-3.6854	-4.4875	-4.5	-3.7458	-4.7146	-4.1917	-4.2125	-4.6021	-3.7229	-4.5062	-4.4333	-3.7021	-4.8542	-3.8854	-4.1625	31.176	249.135	32.166	205.419	107.932	176.085	-58.755	235.721	-47.922	270.968	81.847	-38.451	279.052	-51.868	167.777	276.599	0.00027126	0.00058519	0.00052074	1361.5	3.1256e-06	8.3512e-06	1953.5	333.64	1.4987e-05	1.1538e-05	639.58	232.83	108.41	49.746	1.7123e-05	118.53	0.00050478	0.0005133	0.0001417	1007.9	5.5971e-06	5.5336e-06	1438	250.39	5.6769e-06	5.6878e-06	466.71	170.68	82.279	37.171	5.4798e-06	85.936	128.192	212.939	-16.104	-63.539	90.241	91.537	-63.322	-58.508	78.181	69.614	-58.906	-54.715	-53.785	-49.825	62.364	-50.821	-8191	255	
19213.021	1	1	0	0	0.1421	0.19869	0.14663	0.17535	0.16586	0.11059	0.25035	0.093581	0.10084	0.14271	0.1304	0.10886	0.11053	0.18268	0.17879	0.19151	-4.4146	-3.7125	-4.3854	-4.5854	-3.6521	-4.6854	-4.1333	-4.0188	-4.7771	-3.8104	-4.4042	-4.5604	-3.7396	-4.675	-4.0667	-3.9917	83.900	-56.240	262.028	257.155	224.229	-10.218	220.301	265.689	-45.306	-17.357	230.700	220.662	201.417	173.360	246.183	263.710	0.00036467	0.0019251	0.00049318	1345	1.2766e-05	7.645e-06	1932.6	325.9	3.3998e-06	6.2431e-06	617.31	225.44	104.5	48.098	9.8957e-06	114.25	0.00048996	0.00048392	0.00013432	999.82	5.1974e-06	5.2147e-06	1421.3	244.62	5.1854e-06	5.2522e-06	452.28	165.84	79.968	35.852	5.2812e-06	82.846	94.209	-16.177	-68.571	-63.099	70.480	-15.913	-62.950	-58.408	-74.037	83.557	-58.790	-54.367	-54.201	-48.999	-0.080	-50.927	-8191	255	
19213.141	1	1	0	0	0.068052	0.21117	0.20883	0.13131	0.14214	0.053086	0.43323	0.15371	0.13425	0.25758	0.17944	0.055457	0.20082	0.2383	0.29351	0.397	-4.3938	-3.7625	-4.1417	-4.6312	-3.4833	-4.4854	-4.5208	-3.8708	-4.6937	-3.9625	-4.2479	-4.7063	-3.6729	-4.4646	-4.2396	-4.0104	108.360	163.905	255.323	111.494	199.972	138.392	223.143	205.162	214.661	-58.774	-62.950	216.396	218.629	172.738	86.026	202.809	9.5747e-05	0.00019678	0.00052827	1325.7	9.535e-06	1.1245e-05	1911.2	321.05	1.2739e-05	5.0559e-06	617.91	223.99	104.17	47.413	9.2222e-06	112.68	0.00048217	0.00047588	0.00013491	985.94	5.1932e-06	5.2702e-06	1406.7	241.7	5.1823e-06	5.1125e-06	449.78	164.33	78.96	35.403	4.9603e-06	81.788	214.806	116.470	-30.305	-62.991	7.808	26.492	-63.344	-58.365	173.096	66.409	-58.760	-54.525	-53.915	-49.410	60.575	-50.812	-8191	255	
19213.236	1	1	0	0	0.10587	0.050942	0.10273	0.36762	0.1826	0.19733	0.3803	0.266	0.05023	0.10654	0.3387	0.060645	0.13621	0.10123	0.33361	0.13374	-4.4792	-3.9583	-4.175	-4.8167	-3.55	-4.4375	-4.6208	-3.6833	-4.6667	-4.0312	-4.1354	-4.9083	-3.8125	-4.3313	-4.2958	-3.8396	247.631	176.444	61.631	238.476	19.596	-1.080	245.045	200.822	34.358	77.299	217.988	272.513	174.671	-57.806	51.209	279.650	0.00047972	0.00043235	0.00021788	1348.2	1.0489e-05	3.4529e-06	1920.7	325.53	7.19e-06	1.4314e-05	617.35	225.28	105.76	47.97	8.5589e-06	114.1	0.00045752	0.00044853	0.00012772	991.31	4.9152e-06	4.9173e-06	1411	243.42	5.0009e-06	4.9519e-06	451.58	164.32	79.64	35.669	4.7364e-06	82.35	93.911	60.637	-33.137	-63.504	241.817	78.144	-63.073	-58.459	117.330	252.889	-58.926	-54.630	-54.233	-49.544	92.094	-51.321	-8191	255	
19213.309	1	1	0	0	0.073995	0.29381	0.15343	0.099411	0.24584	0.31128	0.29962	0.13718	0.17924	0.14046	0.17384	0.037028	0.094224	0.11104	0.17925	0.1497	-4.2583	-4.0083	-4.025	-4.9104	-3.7625	-4.1917	-4.6667	-3.6771	-4.5958	-4.1458	-3.9583	-4.5292	-3.9521	-4.3083	-4.5437	-3.7167	171.189	141.397	253.613	269.353	68.769	59.742	273.202	-55.281	201.217	187.183	183.320	203.902	-17.409	-24.688	140.508	193.746	0.00053971	0.0020902	0.00028695	1353.4	6.2908e-06	4.4241e-06	1926.7	327.74	1.1623e-05	1.6244e-05	620.47	224.3	106.96	47.452	1.1709e-05	114.16	0.00044558	0.00043318	0.00011844	994.38	4.6002e-06	4.4842e-06	1414.5	244.68	4.5084e-06	4.4944e-06	454.13	164.66	79.879	35.513	4.6134e-06	82.55	154.320	14.077	-0.018	-63.463	-7.162	89.407	-63.466	-59.319	-33.213	8.095	-59.702	-55.300	-54.691	-49.735	125.041	-51.513	-8191	255	
19213.430	1	1	0	0	0.068982	0.22079	0.044423	0.1464	0.20252	0.23034	0.19519	0.1819	0.16067	0.16838	0.1659	0.24084	0.14755	0.12874	0.142	0.38763	-4.1438	-4.0208	-3.8438	-4.7458	-3.9521	-4.125	-4.7104	-3.7729	-4.475	-4.2354	-3.9979	-4.8708	-3.8979	-4.3292	-4.575	-3.8167	83.614	116.530	190.787	234.526	4.519	-71.620	276.683	217.154	238.775	-50.077	273.411	245.845	131.287	226.270	36.831	210.970	0.00031896	0.00058204	0.00030953	1382.8	5.3613e-06	1.1632e-05	1955.8	334.57	3.441e-06	8.6251e-06	631.01	226.24	105.25	47.684	6.5833e-06	111.44	0.00043841	0.00043202	0.00011938	1019	4.7592e-06	4.7055e-06	1436.9	249.27	4.7818e-06	4.7355e-06	459.06	165.71	79.985	35.395	4.7429e-06	80.895	210.544	90.201	57.959	-63.557	-18.679	84.057	-63.520	-58.919	82.008	49.544	-59.355	-54.757	-54.369	-50.457	59.169	-51.348	-8191	255	
19213.525	1	1	0	0	0.1675	0.072402	0.43929	0.32132	0.1906	0.25368	0.11255	0.19606	0.20575	0.082504	0.052998	0.11522	0.094671	0.27135	0.17824	0.1342	-4.1	-4.2542	-3.6667	-4.6521	-3.7625	-3.8896	-4.7604	-3.9146	-4.3583	-4.4563	-3.8833	-4.7333	-4.1729	-3.7854	-4.6146	-3.8021	-61.254	93.600	59.418	262.442	43.115	52.492	22.322	184.482	0.827	263.628	96.280	137.542	47.989	275.893	108.028	245.006	0.00013713	0.00010133	9.1167e-05	1350.6	5.0411e-06	8.8494e-06	1907.9	323.79	7.2448e-06	6.3027e-06	599.21	217.71	101.79	45.931	1.0358e-05	108.69	0.00044537	0.00044704	0.00012546	997.37	4.9918e-06	4.9004e-06	1399.8	240.94	4.9456e-06	4.9137e-06	440.55	159.58	77.21	34.201	4.9999e-06	78.925	145.654	-49.008	-16.985	-63.452	133.274	-19.496	-63.215	-58.172	89.220	221.676	-59.455	-54.803	-54.506	-49.954	109.766	-51.058	-8191	255	
19213.621	1	1	0	0	0.27809	0.19489	0.097265	0.17209	0.27971	0.26989	0.31673	0.25716	0.27578	0.04833	0.16553	0.13318	0.01807	0.18232	0.15155	0.18734	-3.8896	-4.3562	-3.5979	-4.6062	-4.1937	-3.9458	-4.7312	-3.8438	-4.175	-4.5271	-3.7708	-4.6396	-4.2042	-3.7646	-4.7312	-4.1	212.342	-65.651	133.569	133.490	-0.528	-74.335	201.103	190.093	242.175	264.558	245.709	219.139	-53.125	228.996	202.349	12.912	0.00054054	0.00046802	0.00026022	1328.7	4.0227e-06	6.4326e-06	1892.2	321.85	9.1567e-06	1.6793e-05	604.12	219	101.78	46.15	1.102e-05	110.36	0.00046395	0.00046711	0.00012845	982.74	5.1575e-06	5.2249e-06	1394.3	239.51	5.2017e-06	5.0742e-06	443.99	160.82	77.694	34.622	5.0721e-06	80.273	123.554	-75.724	-31.687	-63.472	117.235	12.069	-63.236	-58.937	181.212	32.442	-59.279	-54.708	-53.829	-50.128	39.918	-51.573	-8191	255	
19213.717	1	1	0	0	0.14182	0.24827	0.18306	0.17746	0.12417	0.094163	0.33824	0.25506	0.12451	0.24654	0.20245	0.27709	0.16288	0.14567	0.084971	0.20753	-3.8063	-4.4896	-3.4208	-4.6333	-4.3229	-3.6833	-4.9812	-4.0333	-3.8271	-4.5375	-3.6979	-4.4979	-4.4812	-3.6875	-4.5521	-4.1292	144.776	211.018	142.736	232.639	101.648	236.372	215.918	159.721	102.645	147.181	-37.835	266.850	275.844	-41.026	253.708	190.755	0.00045947	0.00046427	0.00020638	1333.9	1.8058e-06	7.5888e-06	1902.7	325.29	4.5539e-06	1.0978e-05	611.44	219.55	103.47	46.958	8.5272e-06	111.93	0.00047263	0.00046187	0.00013159	987.21	5.2385e-06	5.216e-06	1406.2	242.77	5.448e-06	5.5352e-06	449.93	162.5	79.631	35.305	5.7245e-06	81.901	138.108	51.817	6.694	-63.661	144.324	138.268	-63.843	-59.191	210.361	62.060	-59.237	-54.800	-54.856	-50.208	133.418	-51.214	-8191	255	
19213.836	1	1	0	0	0.14941	0.029966	0.13812	0.31705	0.047828	0.16077	0.66525	0.30154	0.10896	0.10887	0.22848	0.15061	0.20102	0.15136	0.21509	0.40421	-3.5125	-4.5021	-3.7875	-4.3625	-4.3292	-3.7062	-4.7708	-4.1354	-3.6271	-4.4771	-3.9479	-4.2417	-4.3333	-3.7833	-4.375	-4.3167	127.896	256.537	280.486	209.742	115.896	173.985	239.822	217.121	59.181	-0.090	196.595	241.760	130.628	-59.356	248.170	-65.346	0.00036602	0.00072091	0.00026668	1357.5	2.3097e-06	1.1871e-05	1931.1	331.35	5.1994e-06	1.255e-05	627.77	226.1	106.14	48.131	3.1006e-06	114.55	0.00052971	0.00053921	0.00015215	1008.9	5.947e-06	5.9493e-06	1432.1	248.51	5.9641e-06	5.9227e-06	461.29	166.73	81.484	36.253	5.7598e-06	83.647	105.680	-64.176	18.979	-63.579	47.003	70.407	-63.549	-58.713	65.883	47.517	-59.090	-55.168	-54.416	-50.273	-7.812	-51.092	-8191	255	
19213.908	1	1	0	0	0.10593	0.22069	0.11907	0.13272	0.20155	0.10195	0.22599	0.067061	0.11363	0.032807	0.20721	0.26029	0.10362	0.098223	0.1985	0.29563	-3.4771	-4.5521	-3.9146	-4.2146	-4.5333	-3.5375	-4.625	-4.3875	-3.6354	-4.5854	-3.8542	-4.3271	-4.4729	-3.6396	-4.15	-4.4938	153.405	138.421	100.021	232.185	198.243	230.346	216.083	251.117	155.808	163.147	234.262	247.930	-28.218	266.496	151.116	221.914	0.00032325	0.0010906	0.00071242	1356.6	5.1605e-06	5.2786e-06	1944	326.28	2.6457e-06	1.3685e-06	617.06	222.77	104.08	46.522	4.2771e-06	111.38	0.00052996	0.00052299	0.000144	1009.2	5.528e-06	5.538e-06	1430.4	245.67	5.3744e-06	5.2777e-06	451.52	163.36	78.99	34.938	5.2404e-06	80.937	179.359	-48.699	85.404	-63.602	43.637	143.095	-63.672	-58.620	-19.901	68.122	-59.724	-54.492	-54.413	-49.816	164.673	-50.793	-8191	255	
19214.004	1	1	0	0	0.27533	0.13281	0.28294	0.39227	0.21022	0.19261	0.1434	0.24262	0.075596	0.18168	0.31127	0.09031	0.046195	0.10599	0.29545	0.20128	-3.4167	-4.4583	-3.9792	-4.1417	-4.4708	-3.675	-4.4	-4.5333	-3.5833	-4.6937	-4.1813	-3.9313	-4.6958	-3.725	-4.1542	-4.7042	240.797	152.926	53.002	-47.198	-3.995	131.506	131.997	-10.531	223.367	12.099	258.663	56.595	-5.900	270.296	-44.955	-69.696	8.9529e-05	0.00089294	0.00030259	1336.3	1.0958e-05	1.341e-05	1920.7	321.18	7.8124e-06	8.8621e-06	614.35	220.68	103.26	46.753	7.9306e-06	111.52	0.00049027	0.00048623	0.00013964	990.45	5.4755e-06	5.4771e-06	1416.9	240.27	5.5029e-06	5.5113e-06	447.94	162.34	78.378	35.022	5.2744e-06	81.624	-48.942	-64.909	217.247	-63.588	-38.666	85.019	-63.418	-58.908	270.726	7.809	-59.409	-55.000	-54.472	-49.848	-62.337	-50.750	-8191	255	
19214.102	1	1	0	0	0.18434	0.18373	0.11052	0.26515	0.10799	0.35571	0.12885	0.2643	0.22476	0.036549	0.025359	0.12908	0.20709	0.14752	0.209	0.13479	-3.2979	-4.3542	-4.0604	-3.9021	-4.6396	-3.8167	-4.2521	-4.65	-3.6729	-4.3396	-4.2917	-3.7396	-4.6083	-3.9208	-4.0042	-4.6937	16.960	227.162	35.703	250.229	258.674	200.023	240.351	280.521	30.056	-38.734	59.781	-65.782	156.104	247.309	277.852	244.871	0.00033877	0.00063454	0.00015276	1328.4	5.958e-06	9.4939e-06	1930.6	321.36	5.5474e-06	1.2491e-05	615.12	222.06	103.36	47.334	8.0226e-06	113.05	0.00048067	0.00047453	0.00012915	985.86	5.0472e-06	5.1313e-06	1418.9	240.24	5.0107e-06	5.1585e-06	449.95	162.61	78.343	35.164	4.8736e-06	82.006	112.327	61.460	-65.379	-63.584	149.576	60.620	-63.379	-58.275	-73.560	91.346	-58.803	-55.041	-54.521	-50.084	252.482	-51.428	-8191	255	
19214.221	1	1	0	0	0.1793	0.074868	0.17347	0.30809	0.13227	0.045007	0.37415	0.050526	0.16456	0.031436	0.077709	0.267	0.18443	0.1203	0.1772	0.28235	-3.3208	-4.2667	-4.225	-3.8604	-4.5896	-3.9896	-4.0875	-4.7229	-3.5771	-4.3875	-4.4583	-3.675	-4.6813	-4.225	-3.8688	-4.8125	186.446	-67.425	-1.775	280.050	121.992	140.981	270.607	210.221	132.858	180.120	192.496	212.642	-27.669	181.129	270.484	181.474	0.00038697	0.0001355	0.00031735	1340.2	5.3331e-07	5.418e-06	1928.4	325.36	7.5276e-06	2.9194e-06	616.5	221.43	104.56	47.339	8.8468e-06	112.64	0.00044024	0.00043046	0.00011893	987.15	4.4738e-06	4.565e-06	1412.8	240.66	4.4002e-06	4.3601e-06	447.51	161.93	77.773	34.739	4.1623e-06	81.157	82.981	103.008	19.835	-63.325	222.700	-75.865	-63.741	-58.592	81.283	135.348	-59.493	-55.147	-54.370	-49.746	60.079	-51.013	-8191	255	
19214.316	1	1	0	0	0.23821	0.26764	0.20897	0.24727	0.1369	0.077767	0.30797	0.26093	0.20749	0.2715	0.13633	0.22069	0.2185	0.15134	0.15491	0.3126	-3.4437	-4.2271	-4.4604	-3.7938	-4.4771	-4.1229	-4.0708	-4.6729	-3.6917	-4.025	-4.6062	-3.6896	-4.5958	-4.3104	-3.725	-4.7604	259.999	195.673	-42.286	247.956	35.352	101.071	267.338	256.691	-6.308	130.347	237.912	218.085	23.655	161.621	30.330	222.703	0.0001147	0.00082347	0.0002264	1344.9	9.9923e-06	1.4563e-05	1929.8	327.72	6.8826e-06	1.1297e-06	624.98	226.19	104.41	47.078	4.3413e-06	111.32	0.00036963	0.00036314	0.00010011	987.12	3.9344e-06	3.758e-06	1411.8	241.78	3.7263e-06	3.6263e-06	449.71	163	77.425	34.561	3.5922e-06	80.149	81.165	17.722	65.822	-63.315	192.973	31.190	-63.678	-59.196	136.108	46.834	-58.966	-54.958	-54.210	-49.950	103.979	-51.198	-8191	255	
19214.412	1	1	0	0	0.23764	0.099806	0.17399	0.12406	0.044342	0.15395	0.067758	0.058989	0.097122	0.19468	0.25525	0.076343	0.29411	0.2147	0.14201	0.079571	-3.7729	-3.9813	-4.5771	-3.6604	-4.4437	-4.1417	-3.8208	-4.7271	-3.7375	-4.1104	-4.7271	-3.8208	-4.4062	-4.3125	-3.6229	-4.6521	80.476	111.052	69.720	-64.124	182.075	191.936	-60.576	169.598	-4.732	-51.416	231.168	230.332	236.243	255.419	-15.132	-57.875	0.00025904	0.00093654	2.8432e-05	1341.7	1.6576e-06	2.4399e-06	1911.1	320.27	6.9873e-06	1.9089e-06	600.53	216.06	100.16	44.481	2.7557e-06	107.68	0.00033828	0.000322	8.9706e-05	978.69	3.5927e-06	3.5764e-06	1388	235.38	3.6239e-06	3.6286e-06	434.76	156.46	74.384	32.883	3.79e-06	77.229	138.059	2.961	-58.464	-63.463	119.047	97.487	-63.298	-58.505	147.115	20.559	-59.270	-54.857	-54.373	-49.563	208.248	-50.928	-8191	255	
19214.510	1	1	0	0	0.28049	0.12995	0.11603	0.061127	0.16232	0.091451	0.21128	0.0724	0.29116	0.34696	0.15881	0.15543	0.3048	0.056618	0.043517	0.11611	-3.4562	-3.9229	-4.6333	-3.8521	-4.2104	-4.1958	-3.8812	-4.5604	-3.9708	-3.7396	-4.8458	-3.9313	-4.0875	-4.5208	-3.6604	-4.6083	221.499	76.383	47.220	136.096	272.746	-14.749	273.370	256.067	172.224	247.542	189.904	278.632	-65.248	209.451	116.209	232.983	0.00043951	0.00075874	5.5592e-05	1314.9	9.1816e-06	5.5642e-06	1875	313.64	3.2397e-06	5.8306e-06	599.25	216.71	101.05	45.67	1.1187e-05	109.12	0.00035667	0.00034436	9.7564e-05	963.65	3.9385e-06	3.9347e-06	1374.4	232.65	4.0276e-06	3.9676e-06	435.56	157.24	75.761	33.502	4.1158e-06	78.781	96.501	0.547	270.902	-63.384	9.614	-6.663	-63.468	-58.364	230.495	-57.557	-59.057	-54.964	-54.041	-49.992	35.696	-51.244	-8191	255	
19214.605	1	1	0	0	0.15418	0.031231	0.02046	0.34264	0.052535	0.049665	0.1383	0.035392	0.12549	0.1069	0.10893	0.04041	0.10438	0.32438	0.04643	0.10331	-3.9354	-3.725	-4.6479	-3.7917	-4.2063	-4.4229	-3.6875	-4.5021	-4.2479	-3.6875	-4.8167	-4	-4.0333	-4.7104	-3.6771	-4.5042	106.965	213.860	44.782	280.945	-44.030	227.312	238.221	246.791	162.864	271.706	223.995	242.001	195.940	250.274	17.556	-60.442	0.00033819	0.00013972	0.00030238	1336.4	1.8894e-06	6.7009e-06	1916.4	321.9	5.5209e-06	8.6788e-06	612.65	221.44	102.59	47.202	2.4493e-06	112.13	0.00038709	0.00038279	0.00010811	979.26	4.1663e-06	4.1902e-06	1402.4	238.51	4.3992e-06	4.4417e-06	446.06	161.81	77.546	34.756	4.4701e-06	81.17	167.677	193.174	198.412	-63.401	251.543	105.436	-63.412	-58.826	121.255	53.540	-59.140	-55.100	-54.752	-49.731	-43.712	-51.314	-8191	255	
19214.701	1	1	0	0	0.11134	0.23729	0.24758	0.2938	0.18228	0.13524	0.17865	0.041711	0.24261	0.31562	0.13976	0.3052	0.19453	0.093422	0.13066	0.41378	-4.0771	-3.675	-4.5479	-4.0667	-3.7167	-4.4167	-3.8	-4.2208	-4.3729	-3.7	-4.7188	-4.0312	-3.7708	-4.6021	-3.7333	-4.2271	78.502	-12.128	267.624	281.993	-6.949	178.668	240.764	37.340	173.152	98.503	166.023	267.203	233.046	251.121	113.746	209.019	0.00029074	0.00054152	0.00027186	1358.6	8.8691e-06	8.5407e-06	1964.8	327.21	5.1268e-06	7.7567e-06	621.64	226.77	104.69	47.868	1.4888e-05	114.55	0.00041857	0.00041373	0.00011582	998.42	4.6438e-06	4.6551e-06	1432.2	243.65	4.8088e-06	4.7665e-06	454.83	165.36	79.476	35.491	4.8009e-06	82.783	119.493	43.825	46.356	-63.499	158.649	74.006	-63.217	-58.673	-29.405	183.660	-59.007	-54.490	-54.506	-49.525	20.677	-50.892	-8191	255	
19214.822	1	1	0	0	0.23732	0.090776	0.2796	0.22387	0.060431	0.2329	0.26143	0.25797	0.18466	0.22305	0.07175	0.094254	0.15763	0.095077	0.19811	0.15678	-4.1438	-3.65	-4.6146	-4.3625	-3.8021	-4.6146	-3.8104	-4.075	-4.5062	-3.5312	-4.8167	-4.2542	-3.7771	-4.8042	-3.7938	-4.2271	43.775	-72.176	-65.664	233.437	86.024	59.334	215.449	13.996	92.732	64.859	100.117	223.568	253.946	209.286	248.686	151.127	0.00015447	0.0015433	0.00012977	1383.9	1.7917e-06	8.3864e-07	1976.4	330.54	1.2611e-06	1.1881e-05	628.48	223.3	104.91	47.329	8.7859e-06	111.98	0.00043889	0.00042877	0.00011953	1019.9	4.6834e-06	4.6783e-06	1448.8	246.58	4.64e-06	4.6787e-06	457.27	164.39	79.014	34.971	4.6429e-06	80.873	159.571	-31.686	281.706	-63.428	-9.412	-70.586	-63.373	-59.158	64.962	42.939	-58.832	-55.011	-54.231	-49.467	-64.972	-51.237	-8191	255	
19214.916	1	1	0	0	0.1422	0.11361	0.1713	0.46604	0.027509	0.10908	0.21597	0.068081	0.1492	0.18926	0.16505	0.14798	0.15875	0.21765	0.1437	0.098395	-4.3083	-3.6125	-4.4021	-4.4833	-3.7292	-4.7771	-4.1333	-4.0938	-4.4021	-3.5896	-4.4604	-4.4688	-3.9021	-4.7417	-3.9333	-4.1604	63.879	255.422	217.356	193.640	134.725	130.942	207.870	-4.147	143.712	18.682	156.707	170.758	-47.843	235.908	196.942	195.085	0.0003681	0.00097727	8.0231e-05	1349.6	1.0219e-05	5.5275e-06	1913.7	317.01	5.2913e-06	1.194e-05	595.7	215.81	99.32	44.765	1.0288e-05	106.62	0.00042898	0.00042619	0.00011597	993.6	4.5747e-06	4.4855e-06	1407	236.58	4.5555e-06	4.6056e-06	437.72	157.87	75.298	33.229	4.6301e-06	77.365	146.231	-3.889	211.905	-63.618	40.807	52.579	-63.263	-59.058	273.842	-21.405	-59.160	-54.749	-54.234	-50.021	-10.362	-51.201	-8191	255	
19215.014	1	1	0	0	0.13014	0.32257	0.048982	0.068313	0.070692	0.092069	0.25625	0.16244	0.08136	0.22829	0.048768	0.16353	0.090448	0.2866	0.18444	0.20161	-4.275	-3.6792	-4.2708	-4.7292	-3.7125	-4.4979	-4.2	-4.0958	-4.5375	-3.6708	-4.4042	-4.6813	-3.7812	-4.7396	-4.1542	-3.8146	80.920	-9.229	195.882	-74.381	12.771	-23.455	189.384	154.653	161.833	185.963	272.240	246.233	-34.875	-67.707	-19.894	221.697	0.00025139	0.00047959	0.00022323	1323.3	2.3641e-06	1.3571e-05	1882.1	315.15	2.0208e-06	6.5642e-06	597.89	212.66	99.425	44.622	3.3584e-06	106.4	0.00042	0.00042459	0.00011628	973.58	4.58e-06	4.5499e-06	1383.9	233	4.3717e-06	4.3294e-06	434.09	155.74	74.74	33.108	4.3417e-06	77.205	140.795	31.682	-13.406	-63.395	156.129	216.135	-63.500	-58.817	121.101	9.400	-59.041	-55.141	-53.794	-49.685	-62.471	-50.953	-8191	255	
19215.133	1	1	0	0	0.086308	0.057359	0.25671	0.072951	0.17442	0.16424	0.24766	0.17818	0.11075	0.16848	0.21978	0.11812	0.19006	0.028468	0.2073	0.49474	-4.4292	-3.8583	-4.1667	-4.5354	-3.7083	-4.5479	-4.4729	-3.7646	-4.6396	-3.8167	-4.1417	-4.7146	-3.6229	-4.6292	-4.3625	-3.8833	244.046	156.506	163.999	-6.275	-43.228	-73.435	207.311	268.745	142.140	93.818	227.973	-54.972	96.201	249.034	-1.731	234.152	0.00034881	0.0012658	0.00021742	1328.3	1.2515e-05	1.1111e-05	1907.3	315.27	9.3285e-06	1.0352e-05	600.53	216.36	101.2	45.577	2.7551e-06	110.3	0.0003938	0.00040214	0.00011082	975.71	4.4709e-06	4.4305e-06	1395.1	234.56	4.4815e-06	4.4583e-06	439.33	158.7	76.211	33.78	4.4728e-06	79.285	143.024	38.124	5.475	-63.511	44.213	52.923	-63.153	-58.696	37.427	280.723	-58.946	-54.252	-53.463	-49.798	42.990	-51.214	-8191	255	
19215.205	1	1	0	0	0.18211	0.11489	0.085707	0.137	0.14388	0.09458	0.21994	0.14423	0.11762	0.23477	0.15595	0.15485	0.29707	0.12133	0.048326	0.18418	-4.3896	-3.9708	-3.9083	-4.6729	-3.5917	-4.3479	-4.5083	-3.7604	-4.5583	-4.0792	-3.9208	-4.7958	-3.9146	-4.4479	-4.5333	-3.8812	238.430	245.174	-15.605	227.309	149.916	158.791	243.612	-58.622	191.822	64.643	-50.827	-62.961	261.093	-61.824	256.549	261.010	0.0001424	0.00040667	0.00013065	1356.6	5.4006e-06	3.8943e-06	1932.7	322.08	6.769e-06	1.1283e-05	613.93	220.78	102.62	46.521	1.514e-05	111.55	0.00041752	0.00040975	0.00011492	991.95	4.4463e-06	4.4969e-06	1417.6	239.09	4.4921e-06	4.4777e-06	447.65	161.92	77.623	34.505	4.7071e-06	80.808	126.738	12.908	164.117	-63.040	263.684	6.377	-63.149	-58.556	-50.302	50.432	-59.171	-54.565	-53.908	-49.635	101.712	-50.928	-8191	255	
19215.301	1	1	0	0	0.076126	0.16636	0.13208	0.25722	0.13177	0.20839	0.20699	0.21353	0.10455	0.23642	0.40507	0.19606	0.34867	0.052633	0.10533	0.041949	-4.2417	-4.1542	-3.7292	-4.8125	-3.7146	-4.1813	-4.6292	-3.6625	-4.5	-4.2458	-3.9625	-4.7708	-3.8833	-4.2333	-4.4313	-3.7479	9.611	-10.715	-69.448	164.786	-54.098	14.405	216.651	175.948	73.829	166.202	254.329	276.053	-42.515	121.994	73.761	145.226	0.00047373	0.0013211	4.401e-05	1352.9	7.6756e-06	2.7809e-06	1929.4	322.94	1.054e-05	2.2217e-05	609.34	218.2	101.84	45.708	9.9971e-06	109.37	0.00043288	0.00043365	0.00012169	998.91	4.7557e-06	4.7483e-06	1422.5	240.01	4.7097e-06	4.7568e-06	445.96	160.42	76.774	34.013	4.7556e-06	79.48	124.460	-20.996	2.699	-63.286	70.791	154.449	-63.031	-58.687	73.445	84.269	-59.611	-54.792	-53.790	-49.791	206.401	-50.532	-8191	255	
19215.396	1	1	0	0	0.31373	0.061073	0.16776	0.22034	0.048162	0.2778	0.40012	0.15282	0.091481	0.10098	0.093521	0.085772	0.14729	0.22186	0.1576	0.13766	-4.0167	-4.4333	-3.8625	-4.6479	-3.9	-4.0646	-4.6854	-3.9417	-4.4083	-4.3438	-3.8167	-4.7063	-3.9604	-4.0833	-4.6625	-3.8979	-33.281	279.914	271.130	252.851	-62.431	-63.118	214.728	97.950	232.215	243.623	219.013	133.648	241.996	254.893	63.037	173.311	0.0005018	0.00085643	0.00030409	1330.9	2.3125e-06	5.7392e-06	1905.7	314.98	3.8077e-06	1.4173e-05	600.87	216.19	99.225	44.962	7.8695e-06	108.28	0.00044263	0.0004394	0.00012421	980.51	4.8405e-06	4.833e-06	1401.6	234.67	4.7782e-06	4.7473e-06	438.77	158.78	75.519	33.558	4.6916e-06	78.709	148.446	-5.114	-24.822	-63.050	-28.930	-23.026	-63.384	-58.743	90.899	46.226	-58.992	-54.661	-53.755	-49.893	-47.353	-50.791	-8191	255	
19215.518	1	1	0	0	0.10144	0.13123	0.073571	0.38727	0.14614	0.056455	0.36673	0.25059	0.026148	0.12382	0.26197	0.12744	0.24925	0.21802	0.29799	0.19068	-3.9688	-4.4292	-3.6292	-4.6833	-4.125	-3.8208	-4.7875	-3.7146	-4.1146	-4.3042	-3.85	-4.7521	-4.2812	-3.8771	-4.575	-4.025	27.166	24.406	137.750	-58.097	39.643	273.123	185.087	278.013	118.209	-65.115	218.822	222.525	245.954	-69.828	15.973	182.000	0.00060775	0.0007248	0.000105	1327.8	3.6064e-06	1.4016e-05	1913.6	316.22	1.67e-05	1.6392e-05	606.39	218.32	100.05	45.658	1.6879e-05	110.86	0.0004326	0.0004271	0.00012063	977.22	4.9217e-06	4.8088e-06	1403.1	235.41	4.8711e-06	4.9274e-06	443.99	160.11	76.362	33.96	4.9734e-06	79.92	103.251	60.688	-12.382	-63.029	107.874	21.856	-63.115	-58.486	12.138	89.083	-58.617	-54.404	-54.156	-49.743	7.708	-50.763	-8191	255	
19215.613	1	1	0	0	0.10772	0.15247	0.23335	0.039261	0.11202	0.10837	0.14493	0.029368	0.097529	0.2331	0.077179	0.14846	0.30062	0.22325	0.061889	0.45283	-3.75	-4.3271	-3.5479	-4.5229	-4.1104	-3.8063	-4.7667	-3.9521	-3.9458	-4.5375	-3.6146	-4.4979	-4.4333	-3.8146	-4.5979	-4.0625	45.094	148.095	-0.765	14.481	174.904	-0.701	-75.176	-41.280	-49.378	-41.577	197.301	277.329	188.002	-48.186	123.338	235.116	0.00039512	0.00092491	0.00029397	1328.8	7.5109e-06	1.2204e-05	1916.2	318.75	1.8008e-05	1.6662e-05	607.27	219.38	100.8	45.717	1.1966e-05	110.02	0.00044882	0.00044664	0.00012601	982.91	4.8691e-06	4.7475e-06	1410.3	237.17	4.8006e-06	4.7507e-06	443.96	160.15	76.53	33.802	4.6139e-06	79.429	127.983	-10.336	78.043	-63.340	36.565	65.791	-63.031	-58.687	61.764	24.537	-59.406	-54.442	-54.414	-49.181	55.585	-50.588	-8191	255	
19215.711	1	1	0	0	0.070232	0.25749	0.087583	0.30844	0.12301	0.13785	0.2364	0.19114	0.17383	0.31412	0.23451	0.2267	0.13147	0.18633	0.093211	0.20258	-3.7625	-4.6104	-3.6396	-4.3604	-4.4	-3.9188	-4.8083	-4.1625	-4.0458	-4.6458	-3.8479	-4.275	-4.3729	-3.5521	-4.725	-4.125	249.974	255.346	96.511	-50.875	16.594	208.451	236.985	-19.832	217.391	-15.928	236.612	152.508	-27.900	269.989	196.616	210.594	0.00032586	0.0011615	0.00010231	1333.5	3.5092e-06	6.7069e-06	1926.7	321.65	9.896e-06	6.9196e-06	618.23	219.22	101.67	45.47	1.3304e-05	109.55	0.00042083	0.00040155	0.00011163	984.24	4.4622e-06	4.3417e-06	1413.6	238.49	4.3288e-06	4.3783e-06	448.85	160.23	76.204	33.649	4.3185e-06	78.751	99.690	-7.886	24.431	-63.361	82.844	-17.638	-63.259	-58.107	76.583	39.944	-58.948	-54.512	-53.516	-49.739	64.462	-50.555	-8191	255	
19215.781	1	1	0	0	0.15188	0.074555	0.084277	0.2241	0.16802	0.24605	0.17893	0.182	0.045113	0.026228	0.12546	0.0291	0.11062	0.20269	0.14314	0.27914	-3.5187	-4.6646	-3.775	-4.2604	-4.4354	-3.5896	-4.625	-4.3146	-3.8729	-4.8396	-3.9958	-4.3083	-4.6083	-3.7083	-4.3875	-4.5813	78.834	2.303	49.270	281.112	26.970	207.233	163.607	270.038	63.990	189.214	280.211	177.726	83.379	95.571	282.168	196.707	0.00015121	0.0019889	0.0002521	1329.5	5.0812e-06	5.6274e-06	1897.9	315.37	8.6171e-06	1.314e-05	599.37	216.22	98.338	43.494	9.9103e-06	106.24	0.00039449	0.00038842	0.00010645	977.92	4.1624e-06	4.1716e-06	1390.1	232.83	4.1408e-06	4.1001e-06	434.59	155.9	73.687	32.196	4.233e-06	76.34	130.506	116.685	22.292	-63.483	-5.892	131.316	-63.149	-57.968	89.767	11.789	-58.735	-54.566	-53.555	-49.488	45.659	-50.573	-8191	255	
19215.900	1	1	0	0	0.10993	0.17459	0.17597	0.22186	0.18823	0.084521	0.14795	0.22954	0.23056	0.095906	0.27249	0.092895	0.16315	0.14297	0.2869	0.33666	-3.3792	-4.6333	-3.9667	-4.1583	-4.6354	-3.6375	-4.5521	-4.4521	-3.7104	-4.6271	-4.025	-3.8771	-4.5146	-3.7979	-4.3	-4.4646	-10.159	240.463	1.698	-61.842	144.368	-32.117	221.376	206.388	135.788	183.207	148.572	203.012	156.650	129.212	22.065	250.219	0.00054225	0.00023949	0.00033345	1302.2	5.4212e-06	8.6716e-06	1863.6	307.68	1.1873e-05	6.5868e-06	596.9	212.38	98.161	44.154	6.4265e-06	107.4	0.0003899	0.00039475	0.00010981	956.44	4.2434e-06	4.2611e-06	1371.8	228.32	4.1746e-06	4.1885e-06	432.35	155.12	73.608	32.507	4.1195e-06	77.18	150.810	261.904	-32.287	-63.259	21.779	63.515	-63.197	-59.026	163.060	-51.047	-59.226	-54.748	-53.685	-49.176	163.320	-50.341	-8191	255	
19215.996	1	1	0	0	0.14329	0.15868	0.084983	0.21753	0.03579	0.16408	0.27659	0.2243	0.22004	0.083313	0.17208	0.17059	0.22188	0.12254	0.078297	0.22454	-3.2687	-4.6125	-3.9688	-4.1292	-4.5417	-3.6917	-4.3271	-4.5208	-3.7729	-4.5625	-4.3146	-3.9562	-4.6896	-3.925	-4.2312	-4.7479	269.386	176.647	57.750	267.780	-52.190	-28.404	250.884	206.627	270.714	276.246	-10.231	15.500	-14.369	276.897	247.734	193.831	8.2308e-05	0.00063082	0.00013582	1309.2	4.7396e-06	4.5541e-06	1908.9	315.29	5.141e-06	1.4235e-05	608.57	219.62	101.77	45.224	2.526e-05	109.99	0.00036594	0.00037017	0.00010248	961.88	4.1519e-06	4.2419e-06	1395.7	234.71	4.3466e-06	4.3148e-06	442.36	159.86	76.067	33.642	4.2684e-06	79.689	16.928	50.279	36.136	-63.216	75.900	-2.370	-63.219	-57.865	8.604	72.407	-58.668	-54.307	-53.836	-49.662	8.944	-50.701	-8191	255	
19216.094	1	1	0	0	0.16448	0.20379	0.12706	0.11973	0.14279	0.053553	0.20878	0.23938	0.17535	0.22127	0.15882	0.48861	0.27332	0.23039	0.079603	0.34195	-3.4542	-4.4771	-4.3458	-3.8792	-4.7896	-3.9021	-4.1083	-4.6583	-3.5958	-4.5896	-4.4563	-3.6583	-4.6958	-3.9604	-3.9729	-4.725	89.433	15.631	131.109	214.219	220.370	201.233	230.713	216.832	217.639	135.329	197.227	261.592	-66.249	234.968	98.642	234.979	0.0004753	0.0013567	0.00052012	1349.8	6.2429e-06	6.2294e-06	1940.9	324.22	7.1045e-06	2.5448e-06	617.33	222.19	102.93	46.604	9.8141e-06	111.75	0.00039491	0.00038497	0.00010906	986.29	4.204e-06	4.2158e-06	1419.9	238.5	4.1902e-06	4.1645e-06	448.41	162.27	76.93	34.17	4.248e-06	80.873	160.577	-34.432	-22.001	-63.213	-34.221	-18.946	-63.229	-58.241	97.003	65.311	-59.039	-54.149	-53.885	-49.573	94.141	-50.797	-8191	255	
19216.215	1	1	0	0	0.15741	0.079029	0.1256	0.29499	0.068818	0.13691	0.36885	0.036139	0.041997	0.064208	0.2246	0.22192	0.15054	0.22462	0.2284	0.18622	-3.4667	-4.2979	-4.3792	-3.7667	-4.6625	-3.9521	-4.0125	-4.6312	-3.5521	-4.2812	-4.6625	-3.7729	-4.65	-4.2333	-3.7625	-4.7688	-61.294	110.781	261.714	215.579	152.727	252.146	174.634	68.371	120.006	109.963	-0.242	222.653	266.548	-66.791	175.497	248.887	0.0003998	0.00022827	0.00030136	1353.5	7.9565e-06	1.746e-06	1957.7	326.55	1.3823e-06	7.8561e-06	620.85	222.24	101.05	45.95	7.7939e-06	109.94	0.00039459	0.00039575	0.00010835	998.85	4.3076e-06	4.2714e-06	1435.9	241.83	4.3009e-06	4.2427e-06	451.22	162.05	76.533	33.884	4.4267e-06	79.12	114.070	152.071	50.538	-63.169	62.444	51.253	-63.181	-58.275	44.886	25.076	-58.726	-54.456	-54.234	-49.602	120.061	-50.731	-8191	255	
19216.311	1	1	0	0	0.079759	0.15165	0.28544	0.31865	0.15871	0.19781	0.12109	0.080519	0.14729	0.035194	0.092408	0.2536	0.14262	0.10061	0.2406	0.037931	-3.3979	-4.1875	-4.4938	-3.8792	-4.5604	-4.2896	-4.0417	-4.8146	-3.7167	-4.1625	-4.7292	-3.7125	-4.4667	-4.3979	-3.7417	-4.7937	69.715	250.464	-65.281	-61.002	16.244	-31.019	262.386	-12.908	251.334	-55.935	218.308	265.217	-76.091	57.038	-13.282	144.561	0.00048379	0.00027289	0.00035058	1327	8.8195e-06	1.0411e-05	1895.5	309.76	2.8081e-06	8.0681e-07	587.23	207.26	96.073	42.378	1.6418e-05	102.44	0.00041486	0.0004152	0.0001195	979.11	4.9074e-06	5.0153e-06	1399.6	232.91	5.601e-06	5.6713e-06	433.87	154.03	75.055	32.377	6.4743e-06	75.394	122.379	-51.388	37.881	-63.158	100.451	195.020	-63.107	-58.569	-6.091	81.586	-58.859	-54.991	-54.123	-49.467	23.204	-50.659	-8191	255	
19216.406	1	1	0	0	0.069879	0.10826	0.16172	0.16635	0.24981	0.074917	0.39153	0.20885	0.17933	0.052857	0.046953	0.24077	0.067164	0.20324	0.19304	0.062371	-3.7438	-4.0229	-4.6438	-3.8063	-4.4062	-4.3438	-3.8542	-4.6208	-4.0833	-3.8	-4.7208	-3.8896	-4.3667	-4.3854	-3.5875	-4.7167	143.147	283.497	196.827	228.812	247.737	122.332	229.437	264.925	11.073	140.475	58.942	262.990	203.118	-30.860	81.840	31.096	0.00016013	0.00021386	0.00031171	1305.8	9.6244e-06	6.4256e-06	1889.1	306.41	4.4555e-06	1.2272e-05	583.03	208.76	95.997	43.122	3.6571e-06	103.58	0.00060791	0.00059713	0.00016845	974.97	6.5474e-06	6.5203e-06	1396.1	232.95	6.6245e-06	6.6221e-06	435.96	155.38	75.467	32.932	6.8497e-06	76.942	17.777	280.907	115.096	-63.775	183.561	44.083	-63.173	-58.261	7.964	259.263	-59.117	-54.423	-54.613	-49.421	78.319	-50.813	-8191	255	
19216.502	1	1	0	0	0.078703	0.13781	0.23514	0.20278	0.11784	0.05791	0.14276	0.25805	0.081378	0.21334	0.16408	0.26271	0.18763	0.1768	0.15194	0.46451	-3.7687	-3.7896	-4.5667	-3.9688	-4.4271	-4.4604	-3.9896	-4.5917	-4.1792	-3.7812	-4.7896	-4.0083	-4.2729	-4.6646	-3.6042	-4.6354	31.803	88.837	-75.611	1.977	138.411	74.102	156.426	192.680	-28.614	235.674	233.035	161.615	71.533	222.358	82.697	205.223	0.0001634	0.00058549	0.00015806	1312.8	4.779e-06	1.9391e-05	1889.4	309.61	1.0769e-05	8.8887e-06	598.36	212.8	98.536	44.107	1.2081e-05	106.97	0.00063962	0.00065096	0.00018142	983.29	7.4085e-06	7.4927e-06	1408.5	237.38	7.4574e-06	7.4862e-06	447.55	159.91	77.972	33.963	7.2789e-06	79.47	166.945	23.172	-58.526	-63.290	-9.797	5.946	-63.090	-58.603	122.476	98.616	-58.878	-54.317	-53.743	-49.411	88.812	-50.466	-8191	255	
19216.598	1	1	0	0	0.051033	0.11769	0.21746	0.17133	0.18789	0.11375	0.05281	0.22756	0.21352	0.25335	0.17591	0.091996	0.039874	0.23268	0.086256	0.2464	-4.0792	-3.7625	-4.6333	-3.8875	-4.1375	-4.4792	-3.8229	-4.4729	-4.4062	-3.7313	-4.7375	-3.8958	-3.9375	-4.5625	-3.7687	-4.4938	11.911	134.304	-56.921	140.947	-68.416	157.106	135.416	221.549	55.434	34.748	184.077	237.463	-1.230	-73.706	259.700	-20.430	0.00026452	0.00020629	0.00028881	1315.3	1.6976e-05	2.659e-06	1918.1	314.86	7.614e-06	4.7516e-06	610.33	219.65	99.254	45.681	6.8275e-06	110.13	0.00066473	0.00066688	0.00018684	993.59	7.422e-06	7.4256e-06	1430.8	240.87	7.4061e-06	7.2203e-06	455.41	164.26	78.485	34.688	6.9943e-06	81.213	50.880	26.878	23.077	-62.770	72.052	-7.122	-62.744	-58.412	-2.201	237.055	-58.767	-54.467	-53.731	-49.436	76.238	-50.622	-8191	255	
19216.693	1	1	0	0	0.0652	0.16105	0.21902	0.24549	0.081053	0.18042	0.14844	0.19815	0.11315	0.025412	0.166	0.18905	0.17633	0.0031497	0.12545	0.054396	-4.3812	-3.8896	-4.5687	-4.1396	-3.7917	-4.6104	-4.0521	-4.3292	-4.4271	-3.5604	-4.7063	-4.3479	-3.8688	-4.6667	-3.8312	-4.3542	-68.701	81.244	28.339	237.474	40.559	264.767	219.364	237.188	-31.194	-50.835	-31.436	209.635	-3.530	214.148	197.484	0.498	0.000263	0.00063689	0.00027929	1328.8	2.8674e-06	4.0233e-06	1927.6	316.3	5.3439e-06	7.5299e-06	604.69	216.21	98.454	44.286	7.5102e-06	106.91	0.00062736	0.00062829	0.00017439	996.09	6.7492e-06	6.7654e-06	1427	240.74	6.8292e-06	6.7587e-06	449.59	160.85	77.181	33.577	6.7088e-06	78.631	81.338	30.458	85.948	-62.631	128.672	71.748	-63.074	-57.890	196.024	198.665	-58.648	-54.154	-53.854	-48.981	71.040	-50.608	-8191	255	
19216.814	1	1	0	0	0.15816	0.17834	0.24203	0.12749	0.1487	0.10796	0.27693	0.19382	0.10134	0.18489	0.17648	0.16146	0.10511	0.22604	0.036927	0.13821	-4.3229	-3.7062	-4.5167	-4.3646	-3.8354	-4.5292	-4.0667	-3.9917	-4.6	-3.7271	-4.5729	-4.3187	-3.7125	-4.8542	-3.9542	-4.1354	146.735	27.080	123.211	241.544	181.259	257.549	219.034	265.762	57.449	9.005	71.352	-43.992	216.223	279.662	0.261	221.399	0.0004015	0.00057372	0.00032134	1296.2	8.2658e-06	3.0704e-06	1894.9	306.53	1.4412e-05	1.6066e-05	593.71	212.38	96.056	43.333	8.4961e-06	105.86	0.0005943	0.00059036	0.00016408	971.48	6.3354e-06	6.1921e-06	1395.7	231.37	6.0025e-06	6.0677e-06	437.89	157.06	75.064	32.804	6.1311e-06	77.513	143.562	223.621	-14.237	-63.191	272.369	96.140	-62.650	-58.383	87.928	17.517	-58.977	-54.130	-54.587	-49.467	21.477	-50.547	-8191	255	
19216.908	1	1	0	0	0.17211	0.10287	0.10438	0.18074	0.043038	0.29406	0.11048	0.11575	0.10197	0.21317	0.15656	0.15344	0.21505	0.14508	0.14761	0.29149	-4.1333	-3.7125	-4.375	-4.3938	-3.675	-4.5146	-4.4	-3.9437	-4.6667	-3.7313	-4.3833	-4.4688	-3.7062	-4.7708	-4.0646	-4.0083	-21.715	50.331	170.586	225.181	-17.208	-38.523	258.211	275.431	96.937	182.637	-21.531	174.966	52.016	237.004	-8.604	208.160	0.0005339	0.0020602	0.00046329	1307.3	1.9601e-06	8.192e-06	1899.3	311.06	9.5321e-06	1.1203e-05	602.03	216.28	98.464	44.5	3.0877e-06	108.44	0.00055944	0.00056644	0.00015577	972.6	6.1235e-06	6.1208e-06	1403.6	234.55	6.0322e-06	6.0537e-06	444.67	159.85	76.221	33.6	5.9938e-06	79.437	94.280	0.076	21.294	-63.348	268.170	55.557	-62.839	-58.004	34.184	67.875	-58.850	-53.899	-53.823	-49.260	106.034	-50.276	-8191	255	
19217.006	1	1	0	0	0.086081	0.12912	0.12007	0.1007	0.17519	0.093076	0.23937	0.17916	0.19486	0.23713	0.086969	0.13157	0.035187	0.22939	0.07565	0.17162	-4.2	-3.7083	-4.2479	-4.4542	-3.6729	-4.5042	-4.3583	-3.9104	-4.5792	-3.8583	-4.0833	-4.7417	-3.8292	-4.55	-4.2771	-4.0083	123.379	83.482	167.094	-43.089	215.153	85.239	161.137	261.737	95.101	-15.761	227.858	276.463	-65.419	-71.388	175.781	153.303	0.00029205	0.00032526	0.00033823	1328	1.8212e-07	5.1928e-06	1933.6	317.76	1.0024e-05	1.8627e-05	618.31	221.9	100.58	45.569	5.378e-06	112.42	0.00056024	0.00055812	0.00015445	987.42	6.116e-06	6.1647e-06	1425.3	239.42	6.1043e-06	6.0377e-06	454.93	163.75	78.205	34.619	6.2569e-06	82.242	64.814	43.217	-36.867	-62.673	100.694	23.089	-62.509	-58.106	149.288	91.131	-58.370	-54.029	-54.430	-48.778	-8.015	-50.316	-8191	255	
19217.076	1	1	0	0	0.24545	0.21909	0.13209	0.25843	0.099843	0.34398	0.41403	0.34711	0.13487	0.10084	0.05244	0.10874	0.21548	0.22023	0.062545	0.064072	-4.5312	-3.9771	-3.9646	-4.6896	-3.7354	-4.3625	-4.5375	-3.7854	-4.4771	-3.9708	-4.1771	-4.6771	-3.8229	-4.5062	-4.4479	-3.7604	260.238	109.144	186.653	250.476	113.838	85.038	242.974	231.699	-8.144	-7.745	194.436	161.058	272.156	209.931	214.847	102.862	0.00039689	0.00064315	6.616e-05	1366.2	1.0276e-05	1.0275e-05	1981.7	328.04	1.6e-05	1.5295e-05	637.74	228.47	103.97	47.164	5.9436e-06	116.07	0.0005746	0.00058371	0.00016669	1018.6	6.7323e-06	6.7084e-06	1468.8	249.01	7.031e-06	7.1415e-06	473.2	170.25	81.555	36.093	7.1185e-06	85.151	157.357	98.790	-36.502	-62.588	130.157	85.212	-63.014	-58.152	34.181	57.016	-58.559	-54.351	-53.731	-49.582	166.020	-50.376	-8191	255	
19217.176	1	1	0	0	0.086152	0.17663	0.10106	0.09495	0.24542	0.067614	0.35491	0.14322	0.23698	0.19332	0.21402	0.037	0.28653	0.076451	0.10089	0.15753	-4.4104	-3.9146	-3.6854	-4.8208	-3.6396	-4.3354	-4.5854	-3.7896	-4.4625	-4.0979	-4.0687	-4.7375	-3.9604	-4.1	-4.4229	-3.9896	77.232	-13.540	-15.067	186.847	191.243	169.101	243.239	244.805	234.166	33.209	217.280	5.002	-23.754	70.038	-13.298	173.475	0.00070699	0.00073571	3.7973e-05	1353.2	1.0178e-05	7.8998e-06	1959.7	319.1	4.413e-06	3.9015e-06	614.22	220.72	99.294	44.61	6.7716e-06	108.87	0.00064353	0.0006271	0.00017312	1012.7	6.6126e-06	6.6471e-06	1450.6	242.36	6.4883e-06	6.4432e-06	454.01	162.94	77.135	33.945	6.2344e-06	79.916	115.256	61.342	233.293	-62.857	122.578	-25.291	-62.671	-58.484	-25.331	223.172	-58.491	-54.309	-53.712	-49.227	17.882	-50.399	-8191	255	
19217.295	1	1	0	0	0.062936	0.092484	0.062058	0.34507	0.25856	0.16318	0.38078	0.052849	0.20136	0.17977	0.39611	0.30304	0.15108	0.22483	0.033701	0.1817	-4.3625	-4.1562	-3.6229	-4.8646	-3.9604	-4.0792	-4.9187	-3.775	-4.5563	-4.3875	-3.9021	-4.6813	-3.8125	-4.0687	-4.6438	-3.7146	119.345	100.740	14.505	230.578	261.280	202.718	187.475	107.696	211.792	6.707	225.371	236.748	114.842	-18.244	-62.882	192.665	0.00036248	0.00093861	0.00048078	1309	2.1561e-06	3.9709e-06	1890.4	308.53	5.904e-06	1.3664e-05	597.38	211.59	95.966	43.268	1.0731e-05	106.89	0.00055988	0.00054881	0.00014678	973.86	5.491e-06	5.3133e-06	1394.5	231.37	4.7758e-06	4.7107e-06	435.74	155.67	72.901	32.19	4.4361e-06	77.056	36.467	-43.204	24.895	-62.852	121.617	182.445	-62.691	-57.760	49.415	39.130	-58.582	-54.465	-53.851	-48.888	142.778	-50.628	-8191	255	
19217.391	1	1	0	0	0.077049	0.14246	0.1787	0.26117	0.0527	0.16398	0.38489	0.33335	0.21773	0.05609	0.14043	0.068695	0.17781	0.12458	0.16422	0.3967	-3.9	-4.4875	-3.6542	-4.8146	-3.8958	-3.8833	-4.8271	-3.8479	-4.2521	-4.4458	-3.7396	-4.9062	-4.1333	-3.9938	-4.6458	-3.9833	161.790	117.005	-33.217	244.885	128.963	-12.701	235.070	206.334	263.834	129.338	165.256	15.563	29.827	219.029	117.612	220.124	0.00051237	0.00054604	0.00045264	1310.7	1.7933e-05	3.5599e-06	1907.8	310.19	3.1243e-06	7.289e-06	609.6	214.73	98.712	44.348	2.7002e-06	108.81	0.00041003	0.00040215	0.0001129	960.81	4.5499e-06	4.4189e-06	1392.6	230.73	4.3574e-06	4.2919e-06	438.84	157.21	74.195	32.726	4.0062e-06	78.255	156.723	85.179	-41.894	-62.573	33.456	161.735	-62.664	-58.021	28.480	252.263	-58.622	-53.676	-53.690	-49.274	34.414	-50.411	-8191	255	
19217.486	1	1	0	0	0.18015	0.12333	0.13056	0.31533	0.12686	0.14038	0.27914	0.073312	0.07473	0.20391	0.17015	0.14119	0.042858	0.24415	0.16983	0.073709	-4.0312	-4.4917	-3.5812	-4.7625	-4.2479	-3.9708	-4.9104	-3.8021	-4.1292	-4.7063	-3.7458	-4.5417	-4.3396	-3.9875	-4.5667	-3.8854	-3.736	-17.193	214.395	229.800	28.951	223.235	270.292	-39.888	267.396	121.226	269.523	47.205	-52.552	-47.621	223.756	171.673	0.00048276	0.00070047	0.00031317	1333.6	1.1259e-06	1.349e-05	1930.2	315.24	1.0145e-05	4.8374e-06	621.84	221.06	102.1	45.517	6.2295e-06	112.65	0.00037302	0.00036523	0.00010206	974.36	4.0857e-06	4.0176e-06	1408.9	233.95	3.9808e-06	3.9487e-06	447.79	161.23	75.517	33.526	3.7462e-06	80.908	131.772	-21.053	30.394	-62.819	273.003	77.523	-62.329	-57.806	16.755	187.879	-58.508	-54.263	-53.893	-49.240	131.532	-50.477	-8191	255	
19217.607	1	1	0	0	0.098824	0.067894	0.20731	0.28905	0.082018	0.23644	0.12947	0.30887	0.13141	0.23906	0.024422	0.12622	0.15799	0.14941	0.17294	0.19426	-3.6521	-4.6896	-3.6833	-4.6458	-4.3083	-3.6	-4.9062	-4.0938	-3.8042	-4.4083	-3.9313	-4.3375	-4.4854	-3.8521	-4.6979	-4.1667	155.655	25.630	41.039	231.932	-20.206	10.325	209.579	238.884	248.400	-49.920	147.855	-58.815	268.599	205.754	79.329	249.660	0.0004032	0.00091086	0.00016651	1349.7	9.9793e-06	5.5904e-06	1951.3	321.88	2.2105e-06	2.6312e-06	623.6	220.39	100.81	44.905	1.4523e-05	109.63	0.0003376	0.00033049	9.2105e-05	986.12	3.5704e-06	3.5123e-06	1424.5	236.98	3.4371e-06	3.4796e-06	448.73	160.12	74.383	32.86	3.478e-06	78.446	142.749	-74.842	58.715	-62.637	-10.105	59.621	-62.519	-57.789	82.888	-26.997	-58.786	-54.355	-53.801	-49.434	163.775	-50.864	-8191	255	
19217.680	1	1	0	0	0.0535	0.20009	0.091768	0.19514	0.20562	0.1022	0.2669	0.14403	0.094837	0.26437	0.17983	0.11006	0.091513	0.26969	0.16647	0.34969	-3.5396	-4.5229	-3.7146	-4.4417	-4.4021	-3.6042	-4.6917	-3.9646	-3.8542	-4.7188	-3.8563	-4.3396	-4.5333	-3.7875	-4.5708	-4.4208	116.654	-27.544	141.760	211.109	278.929	151.153	234.030	136.861	279.043	58.962	245.746	202.714	236.217	216.910	14.439	173.658	0.00026603	0.00055935	0.00017086	1319	1.6302e-06	5.1842e-06	1897.9	310.13	5.7349e-06	5.4691e-06	602.35	213.98	97.467	43.413	2.7938e-06	106.55	0.0003129	0.0003112	8.6556e-05	961.47	3.3433e-06	3.2851e-06	1383.6	228.2	3.2987e-06	3.22e-06	432.81	154.4	71.643	31.622	3.1247e-06	76.034	142.001	5.903	279.526	-63.088	166.054	47.302	-62.705	-57.754	-26.606	208.398	-58.552	-54.080	-53.185	-49.571	-20.512	-50.363	-8191	255	
19217.775	1	1	0	0	0.058065	0.15934	0.25534	0.29201	0.12679	0.049296	0.22058	0.11016	0.015683	0.12496	0.29022	0.26415	0.15302	0.29817	0.16029	0.1409	-3.5583	-4.7521	-3.8479	-4.1104	-4.3604	-3.625	-4.625	-4.4083	-3.7375	-4.5813	-3.9896	-4.0333	-4.6021	-3.5687	-4.4167	-4.4417	237.501	116.926	-40.850	249.103	228.673	206.987	186.852	67.284	226.162	54.481	265.358	233.388	54.886	-69.653	244.111	216.647	0.00018732	0.00086456	0.00023762	1315	1.6134e-06	6.7074e-06	1891.6	306.04	3.6697e-06	1.2824e-05	600.06	214.89	97.306	43.965	2.7374e-06	108.16	0.00028855	0.00028262	7.967e-05	952.37	3.1673e-06	3.0927e-06	1377.6	226.9	3.1289e-06	3.064e-06	433.57	155.52	72.047	31.946	2.9343e-06	77.309	136.355	77.421	3.635	-63.033	206.424	248.298	-62.380	-57.868	61.333	33.385	-58.619	-54.003	-54.012	-49.642	-7.547	-50.490	-8191	255	
19217.895	1	1	0	0	0.070492	0.20434	0.2918	0.11988	0.15153	0.050918	0.092656	0.094093	0.12616	0.11689	0.19633	0.31253	0.033954	0.078558	0.20958	0.11975	-3.4188	-4.6792	-3.9437	-3.9104	-4.4583	-3.6958	-4.4729	-4.55	-3.6458	-4.5188	-4.2104	-3.9958	-4.7458	-3.7354	-4.2208	-4.7042	176.460	121.579	50.083	123.014	150.193	177.748	193.575	111.822	43.192	-72.700	-68.321	139.479	-45.570	275.528	70.264	183.569	0.00029615	0.00084819	0.00033526	1323	1.1185e-05	4.4507e-06	1923.3	319.14	3.1107e-06	3.8635e-06	614.83	220.08	100.14	45.139	5.3614e-06	111.11	0.0002813	0.00027125	7.7374e-05	963.25	3.0904e-06	3.0988e-06	1394.5	232.9	3.2842e-06	3.2767e-06	443.37	159	74.163	32.946	3.3045e-06	79.456	120.880	-26.658	-42.823	-62.841	8.759	114.902	-62.585	-58.254	-41.095	22.510	-58.414	-54.741	-53.654	-49.398	30.144	-50.502	-8191	255	
19217.990	1	1	0	0	0.21189	0.10335	0.10206	0.31138	0.04113	0.29067	0.32179	0.091648	0.13402	0.12025	0.086299	0.1739	0.034129	0.1319	0.044765	0.21406	-3.2625	-4.525	-4.2812	-3.8417	-4.6875	-3.7646	-4.2104	-4.55	-3.7313	-4.5292	-4.4479	-3.7687	-4.8125	-4.0188	-4.1979	-4.7479	261.648	173.365	174.361	260.743	126.209	202.273	-74.404	20.690	-64.514	137.626	117.901	-62.890	123.870	267.613	114.044	-67.502	0.00028375	0.00071593	4.4298e-05	1356.4	9.8318e-06	4.0254e-06	1968.2	323.96	5.8076e-06	1.2761e-05	632.49	226.62	103.14	46.253	4.8746e-06	113.97	0.00029972	0.00029279	8.1784e-05	984.02	3.155e-06	3.1926e-06	1428.5	237.68	3.2102e-06	3.2526e-06	454.39	163.2	75.798	33.77	3.2142e-06	81.383	118.403	283.487	-21.319	-63.105	-74.828	90.797	-62.871	-57.985	20.750	62.349	-58.529	-53.965	-53.151	-49.473	-34.788	-50.331	-8191	255	
19218.086	1	1	0	0	0.033781	0.1658	0.10085	0.076337	0.19622	0.12795	0.19159	0.1422	0.20522	0.29022	0.039199	0.1625	0.36552	0.21642	0.13278	0.091507	-3.3104	-4.3875	-4.4646	-3.8563	-4.4917	-3.9062	-4.0958	-4.6	-3.8417	-4.2937	-4.4958	-3.75	-4.5979	-4.1562	-3.8042	-4.7875	82.364	104.716	183.350	130.429	179.900	92.833	-58.848	126.375	282.656	0.974	260.729	229.888	-20.022	279.764	17.078	-60.822	0.00041444	0.00041512	0.00035776	1369.2	8.4439e-06	7.2076e-06	1950.5	325.88	5.1058e-06	1.0181e-05	624.37	222.17	100.62	45.16	8.6559e-06	110.04	0.00030655	0.00029525	8.1777e-05	995.33	3.2465e-06	3.2199e-06	1427.1	238.22	3.2785e-06	3.2137e-06	449.59	160.41	74.393	32.967	3.3496e-06	79.072	131.323	-50.825	-44.493	-62.857	-5.311	-16.424	-62.665	-57.684	62.580	70.092	-58.512	-54.443	-53.685	-49.058	67.060	-50.322	-8191	255	
19218.182	1	1	0	0	0.19584	0.12913	0.087538	0.29864	0.14036	0.030017	0.077943	0.12914	0.16911	0.084322	0.14376	0.1581	0.13897	0.15149	0.33493	0.15354	-3.3917	-4.1021	-4.5792	-3.7646	-4.4688	-4.0458	-3.9458	-4.6937	-3.8104	-4.3146	-4.7229	-3.6896	-4.4979	-4.3625	-3.7313	-4.8583	-37.131	199.930	-49.022	258.212	162.886	251.429	232.665	241.958	192.024	82.207	-22.144	204.813	180.330	160.105	189.178	-74.672	0.00021718	0.00080857	4.8102e-05	1317	5.4445e-06	2.883e-06	1913.4	311.97	3.4724e-06	7.4234e-06	606.16	216.35	98.416	43.621	2.9859e-06	107.88	0.00031461	0.0003052	8.5648e-05	963.79	3.3892e-06	3.3768e-06	1393.2	229.8	3.3532e-06	3.4039e-06	436.44	156.85	72.436	32.032	3.3774e-06	77.494	134.657	176.880	169.923	-62.958	-34.873	-17.116	-62.909	-57.849	213.438	48.524	-58.505	-54.624	-53.198	-49.055	199.631	-50.535	-8191	255	
19218.303	1	1	0	0	0.23009	0.14023	0.25036	0.088947	0.099109	0.39428	0.35893	0.24403	0.1271	0.10531	0.17274	0.14165	0.15867	0.16633	0.27423	0.12883	-3.6729	-4.0521	-4.5771	-3.6813	-4.2812	-4.3021	-3.9646	-4.8729	-3.8937	-4.0208	-4.775	-3.9479	-4.4917	-4.4958	-3.6833	-4.9187	196.718	85.885	-15.482	267.973	281.932	28.354	205.498	182.357	64.308	183.761	164.707	158.975	222.818	172.076	47.079	193.473	0.00030291	0.00063069	0.00037047	1307.6	2.6997e-06	9.0344e-06	1903.1	310.48	1.3854e-05	3.7615e-06	601.34	215.85	97.903	43.523	5.5076e-06	107.92	0.00031395	0.00030141	8.5993e-05	956.53	3.3772e-06	3.4059e-06	1390.7	228.21	3.4328e-06	3.3702e-06	434.92	156.37	72.688	31.981	3.3067e-06	77.453	147.104	58.911	-23.463	-63.076	88.669	12.239	-62.762	-58.058	82.358	147.472	-58.564	-53.897	-53.436	-49.238	52.456	-50.352	-8191	255	
19218.373	1	1	0	0	0.20245	0.20984	0.036684	0.34032	0.24548	0.09151	0.10427	0.044911	0.24287	0.089187	0.39241	0.075029	0.18208	0.043976	0.11461	0.27365	-3.6375	-3.7938	-4.4729	-3.8187	-4.3083	-4.4604	-3.7	-4.5729	-4.1188	-3.8042	-4.7667	-3.7687	-4.2417	-4.4729	-3.4813	-4.7021	195.860	74.622	219.687	272.067	-26.712	180.783	224.321	-29.082	-62.504	19.546	214.836	142.817	216.393	-75.353	31.024	272.833	0.00023879	0.00020379	0.00045326	1321.2	6.5601e-06	8.1941e-06	1925.1	311.98	1.1582e-05	5.9306e-06	604.84	218.71	99.163	44.252	8.4819e-06	109.68	0.00031569	0.00030865	8.5585e-05	957.21	3.3125e-06	3.3155e-06	1392.6	229.01	3.2552e-06	3.2904e-06	437.38	157.79	73.094	32.308	3.2068e-06	78.146	130.791	133.906	-24.794	-62.473	71.514	42.147	-62.943	-57.670	31.682	34.253	-58.300	-54.243	-53.269	-49.388	71.590	-50.036	-8191	255	
19218.471	1	1	0	0	0.097628	0.25496	0.12002	0.39324	0.18443	0.26788	0.15776	0.20379	0.10614	0.22428	0.33796	0.11577	0.12247	0.29746	0.043053	0.11802	-3.8292	-3.8333	-4.6667	-4.0271	-4.0062	-4.4333	-3.7562	-4.5396	-4.1062	-3.65	-4.7146	-4.125	-4.0729	-4.6229	-3.7729	-4.5646	239.408	-50.634	19.111	231.825	108.275	151.412	206.300	226.576	187.331	259.884	210.535	225.408	225.223	271.856	2.348	202.812	0.00041558	0.00083955	0.00021429	1322.2	4.8911e-06	1.6315e-05	1919.4	318.05	4.1595e-06	1.1076e-05	619.46	218.97	99.346	44.481	1.351e-05	109.99	0.00029766	0.00028388	7.8626e-05	962.61	3.0234e-06	2.9593e-06	1399.8	232.28	2.9457e-06	2.9321e-06	442.79	158.41	72.959	32.331	2.83e-06	78.46	122.606	-26.261	-11.887	-62.773	215.214	56.007	-62.929	-57.692	-65.098	85.238	-58.151	-53.965	-53.711	-48.855	107.843	-50.694	-8191	255	
19218.592	1	1	0	0	0.23561	0.12396	0.30299	0.1673	0.19441	0.26583	0.21376	0.30988	0.11211	0.079055	0.29163	0.095891	0.087577	0.10821	0.14963	0.26523	-4.0437	-3.7083	-4.6083	-4.05	-3.8688	-4.6042	-3.8417	-4.4542	-4.3562	-3.6396	-4.7792	-4.1479	-3.8229	-4.7937	-3.7521	-4.2667	124.372	103.534	217.176	-65.508	79.691	125.363	236.056	249.695	212.848	163.041	-72.816	195.994	219.108	210.738	94.026	216.685	0.00056479	0.00069657	0.00029795	1321.9	2.9197e-06	2.4216e-06	1903.2	309.41	9.6044e-06	5.7652e-06	604.37	215.94	96.475	42.887	1.222e-05	105.08	0.00025693	0.00025002	6.915e-05	958.89	2.6223e-06	2.6066e-06	1381.6	227.01	2.4558e-06	2.4991e-06	431.99	154.65	69.942	30.908	2.1328e-06	74.582	131.938	29.496	31.972	-62.380	-26.610	192.557	-62.705	-58.060	39.904	-2.982	-58.180	-53.852	-53.115	-48.505	45.755	-50.288	-8191	255	
19218.688	1	1	0	0	0.059107	0.17142	0.14505	0.16149	0.22387	0.13353	0.15111	0.12292	0.19715	0.27151	0.15577	0.078806	0.23531	0.22684	0.05956	0.19526	-4.0042	-3.6312	-4.5917	-4.2542	-3.7438	-4.5896	-4.0979	-4.2583	-4.6208	-3.6042	-4.5521	-4.1479	-3.8208	-4.6083	-3.6854	-4.275	99.825	248.679	-29.327	181.556	261.266	-58.208	175.441	247.053	-50.192	197.109	39.584	204.008	158.742	214.438	-73.658	214.090	0.00024772	0.0011324	0.00015505	1263.3	8.7636e-06	1.8344e-06	1830.7	298.66	5.2385e-06	8.0567e-06	580.58	206	92.305	39.655	7.0893e-06	98.965	0.00018778	0.00017722	4.6023e-05	910.67	1.6813e-06	1.6235e-06	1317.1	214.89	1.5642e-06	1.5741e-06	411.23	146.48	66.341	28.422	1.5168e-06	70.103	150.524	-16.683	-5.934	-62.692	53.515	130.691	-62.693	-58.278	53.529	54.852	-58.337	-54.376	-54.763	-49.155	136.463	-50.447	-8191	255	
19218.783	1	1	0	0	0.17077	0.13264	0.19886	0.32062	0.10074	0.043246	0.17006	0.040974	0.088533	0.23507	0.15261	0.23398	0.23629	0.052009	0.11478	0.2934	-4.1438	-3.625	-4.4646	-4.3292	-3.7479	-4.65	-3.95	-4.0521	-4.6479	-3.7188	-4.6083	-4.4104	-3.7438	-4.7937	-4.025	-4.0229	256.306	135.812	206.097	230.322	-47.940	147.045	-68.172	-60.479	220.151	19.760	169.833	251.660	-58.246	-49.372	210.041	182.088	0.0001147	0.0001151	0.00016645	1275.1	4.8871e-06	1.802e-06	1860.5	303.03	4.9757e-06	1.8364e-06	601.44	215.87	96.778	43.076	7.14e-06	106.72	0.00014342	0.00013309	3.5994e-05	915.03	1.3945e-06	1.4079e-06	1343.2	218.65	1.4017e-06	1.4062e-06	425.46	153.9	69.269	30.678	1.336e-06	75.274	117.245	192.631	-25.360	-63.075	-10.940	-11.712	-62.942	-58.130	74.165	-56.982	-58.618	-53.971	-53.220	-49.565	119.245	-50.467	-8191	255	
19218.902	1	1	0	0	0.12048	0.11364	0.046097	0.26668	0.15252	0.22762	0.25995	0.17105	0.079226	0.090002	0.2592	0.3022	0.32272	0.02849	0.13965	0.13342	-4.3479	-3.7458	-4.3979	-4.5958	-3.7021	-4.7083	-4.2729	-3.8667	-4.6771	-3.9083	-4.3292	-4.4833	-3.6375	-4.6062	-4.1146	-3.9104	245.977	211.197	238.707	257.848	117.251	-74.616	238.235	243.418	186.484	51.986	225.681	159.671	-52.857	-10.379	-56.407	155.624	0.00037727	0.00046562	0.00016317	1260.6	4.0527e-06	2.735e-06	1831.3	306.73	1.7826e-06	9.9265e-06	605.07	214.8	96.558	41.564	4.8526e-06	102.27	0.00013015	0.00011407	3.0954e-05	906.62	1.1827e-06	1.1413e-06	1321	219.44	1.1798e-06	1.1832e-06	426.96	152.75	68.492	29.411	1.1059e-06	72.063	144.287	-52.898	51.114	-62.746	34.699	59.966	-63.048	-58.437	23.083	71.570	-58.363	-53.796	-53.912	-48.994	48.670	-50.482	-8191	255	
19218.975	1	1	0	0	0.21888	0.087222	0.16303	0.29718	0.090994	0.18738	0.34861	0.16161	0.17638	0.037653	0.1687	0.054627	0.33814	0.10565	0.10181	0.21136	-4.3104	-3.8854	-4.0729	-4.7833	-3.7125	-4.4542	-4.4479	-3.7833	-4.4958	-3.8688	-4.2688	-4.8063	-3.7625	-4.3646	-4.3854	-3.9083	-0.634	134.555	-12.376	230.531	277.901	158.914	244.000	-60.513	39.269	206.399	170.073	218.798	-26.471	72.742	163.667	261.561	0.00034826	0.00049913	0.00014566	1281.6	2.3964e-06	2.4653e-06	1853.9	306.07	3.8664e-06	4.7824e-06	607.91	214.84	95.685	41.487	6.4928e-06	101.71	0.00010929	9.6226e-05	2.6213e-05	916.39	1.0805e-06	1.011e-06	1331	219.72	9.9897e-07	1.0023e-06	427.21	152.58	68.036	29.257	1.0103e-06	71.757	138.021	-30.266	39.621	-62.553	-51.215	1.987	-62.584	-57.978	17.657	17.493	-58.251	-54.323	-53.487	-49.520	81.847	-50.727	-8191	255	
19219.070	1	1	0	0	0.18035	0.072073	0.10946	0.3308	0.11357	0.18556	0.45431	0.2855	0.067571	0.11578	0.28926	0.27871	0.28064	0.22452	0.26469	0.11937	-4.2896	-3.9396	-4.0333	-4.8063	-3.7417	-4.4187	-4.7562	-3.7396	-4.5833	-4.0375	-4.0125	-4.8542	-3.6937	-4.2417	-4.4104	-3.8688	44.652	0.078	-68.908	-75.851	213.341	-50.923	234.125	241.584	56.652	215.754	204.224	-74.155	-64.230	-54.273	18.011	138.880	0.00026033	0.00041747	0.00012466	1257.6	6.1148e-06	3.3389e-06	1820	296.01	4.5284e-06	2.386e-06	585.03	207.83	92.87	39.743	5.9897e-06	100.29	0.00010142	9.2459e-05	2.4541e-05	901.31	1.0502e-06	1.021e-06	1312.9	212.83	1.0556e-06	1.0477e-06	412.98	147.37	65.784	28.27	9.8043e-07	70.574	138.327	-9.716	-48.251	-62.910	-3.468	59.764	-62.626	-58.064	62.280	132.336	-58.401	-54.453	-53.524	-49.427	101.154	-50.425	-8191	255	
19219.166	1	1	0	0	0.19575	0.16377	0.043467	0.093327	0.13289	0.08006	0.37643	0.072573	0.1256	0.25092	0.11396	0.33362	0.066011	0.060397	0.041128	0.21778	-4.3167	-4.0792	-3.75	-4.8208	-3.7562	-4.2375	-4.6354	-3.6125	-4.3792	-4.2458	-3.9375	-4.6458	-3.8667	-4.1979	-4.4083	-3.7875	-8.782	280.276	57.349	20.830	159.960	-38.848	212.477	189.108	255.896	-35.623	114.270	267.442	56.641	242.855	251.139	239.039	0.00025062	0.00013955	0.00024342	1249.8	3.8338e-06	1.8932e-06	1835	293.43	1.1905e-06	8.644e-06	585.86	206.92	91.869	39.408	6.3605e-06	99.03	0.00010322	9.1036e-05	2.3975e-05	897.42	9.8839e-07	1.0038e-06	1322.3	210.94	9.5921e-07	9.9988e-07	412.74	147.04	65.449	27.9	9.6907e-07	69.826	110.122	83.391	17.315	-62.756	40.668	105.914	-62.978	-58.136	-2.242	33.492	-58.651	-54.396	-53.889	-49.379	89.731	-50.579	-8191	255	
19219.262	1	1	0	0	0.097458	0.044358	0.22402	0.16639	0.042485	0.21788	0.094541	0.059903	0.057611	0.22285	0.26129	0.071988	0.20443	0.19438	0.14979	0.2083	-4.1813	-4.3438	-3.8229	-4.7542	-3.7417	-3.9417	-4.7042	-3.7083	-4.2708	-4.3333	-3.8208	-4.6729	-4.1583	-4.0542	-4.5958	-3.9583	96.712	239.723	278.221	271.615	37.847	-71.966	219.619	158.463	243.103	82.326	177.833	-57.256	260.635	209.824	114.653	276.701	0.00022979	0.00055787	0.00023681	1258	5.0173e-06	9.0373e-06	1827.8	297.71	4.3547e-06	4.9292e-06	588.35	207.05	91.786	38.929	8.1868e-06	98.108	0.00010137	8.9978e-05	2.5805e-05	900.36	1.0222e-06	9.8584e-07	1314.9	213.03	1.009e-06	9.5041e-07	412.67	146.94	65.197	27.662	9.0173e-07	69.124	118.591	10.083	-58.388	-63.099	-19.220	59.748	-62.570	-58.529	26.512	61.065	-58.503	-54.309	-53.834	-49.243	77.394	-50.893	-8191	255	
19219.383	1	1	0	0	0.097667	0.053321	0.14485	0.099977	0.04155	0.26858	0.17426	0.11949	0.26375	0.14281	0.12578	0.30449	0.12731	0.33871	0.12071	0.12172	-4.1083	-4.3875	-3.6375	-4.6396	-4.1208	-3.8396	-4.8938	-3.8792	-4.2042	-4.6438	-3.6667	-4.7271	-4.1771	-4.0729	-4.7375	-4.0417	145.085	133.622	100.390	221.075	-6.089	88.729	195.542	-56.098	59.917	124.334	238.522	270.579	-21.411	2.882	173.473	190.914	0.00013997	0.00058996	0.00012156	1261.1	9.3143e-06	5.2441e-06	1840.7	298.18	4.4408e-06	8.2023e-06	591.07	208.52	93.156	39.496	5.7066e-06	99.74	9.1865e-05	8.1665e-05	2.3493e-05	901.46	9.1293e-07	8.8446e-07	1320.2	214.02	9.6724e-07	9.5015e-07	417.29	147.93	66.262	28.086	9.5016e-07	70.155	128.977	-24.869	-23.982	-62.869	16.396	73.383	-62.929	-58.274	44.780	18.334	-58.749	-54.298	-53.696	-48.836	18.555	-50.583	-8191	255	
19219.479	1	1	0	0	0.10604	0.043527	0.18765	0.22841	0.14465	0.21735	0.3745	0.22075	0.15146	0.21319	0.22371	0.21972	0.16181	0.35077	0.2639	0.20064	-3.9125	-4.5604	-3.4667	-4.5146	-4.2146	-3.7083	-4.8042	-3.8625	-4.0042	-4.6646	-3.8292	-4.5292	-4.3354	-3.7479	-4.6396	-4.0396	253.117	-23.974	-64.873	228.588	124.431	116.589	243.417	280.475	77.484	-70.560	205.295	266.601	2.755	126.374	224.610	192.502	0.00026723	0.00049953	2.6305e-05	1270.3	3.0718e-06	4.406e-06	1834.6	297.43	5.4563e-06	8.2689e-06	586.82	203.85	90.92	38.368	2.7537e-06	96.565	0.00010149	8.8711e-05	2.4571e-05	907.24	9.8237e-07	9.9047e-07	1319.2	213.61	9.8807e-07	9.2626e-07	412.95	145.26	64.737	27.268	9.6858e-07	68.173	132.536	11.507	-33.034	-62.877	74.774	59.750	-62.651	-58.305	14.374	-14.816	-58.732	-54.575	-53.792	-49.550	60.019	-50.695	-8191	255	
19219.574	1	1	0	0	0.26529	0.13899	0.18276	0.12695	0.031679	0.2414	0.28206	0.21305	0.087435	0.36154	0.20607	0.34463	0.23654	0.10917	0.14953	0.13204	-3.6771	-4.5604	-3.7792	-4.5437	-4.3875	-3.7292	-4.8562	-4.0833	-3.9	-4.6333	-3.7188	-4.3958	-4.4667	-3.8167	-4.5813	-4.2937	2.266	76.445	236.175	185.856	-22.566	26.375	245.211	-20.439	69.420	210.792	258.692	216.038	10.931	240.171	37.487	239.047	0.00027482	0.00067093	0.0002021	1234.8	2.0758e-06	1.7978e-06	1792	288.45	3.0071e-06	3.4059e-06	573.02	204.55	89.675	38.11	3.4984e-06	97.683	9.7951e-05	8.7726e-05	2.4289e-05	884.63	9.7971e-07	9.6124e-07	1290.9	206.8	9.1985e-07	8.9179e-07	404.49	144.58	63.976	27.103	9.5602e-07	68.647	126.164	256.704	-3.493	-63.004	99.481	82.319	-62.562	-58.161	101.396	97.529	-58.173	-54.170	-53.170	-49.322	50.400	-50.247	-8191	255	
19219.672	1	1	0	0	0.16169	0.11613	0.27473	0.30779	0.067762	0.16789	0.23347	0.20142	0.16831	0.068072	0.11697	0.23701	0.11166	0.14821	0.023935	0.2853	-3.5854	-4.6917	-3.8292	-4.3083	-4.4583	-3.7313	-4.6021	-4.3146	-3.8438	-4.8146	-4.0354	-4.1771	-4.6833	-3.7771	-4.35	-4.5	121.629	195.283	-43.992	251.613	178.211	212.966	214.692	-44.816	193.483	243.834	241.056	272.786	0.317	269.936	-16.669	199.669	0.00029204	0.00033453	0.00013379	1238.6	9.2923e-07	4.3991e-06	1817.3	292.7	5.8894e-07	8.1141e-06	586.24	205.48	92.482	39.275	4.4373e-06	98.813	9.9658e-05	9.0712e-05	2.4619e-05	885.05	9.5312e-07	9.8221e-07	1304	210.83	9.7529e-07	9.8238e-07	412.58	146.38	65.581	27.825	1.0154e-06	69.649	120.152	39.217	-19.095	-62.887	115.689	180.492	-62.594	-58.015	27.013	32.063	-58.374	-54.362	-53.327	-48.841	98.242	-50.411	-8191	255	
19219.768	1	1	0	0	0.09397	0.051107	0.16992	0.18857	0.30691	0.14115	0.16562	0.089213	0.099662	0.11442	0.089802	0.17682	0.17729	0.13857	0.059794	0.049371	-3.3833	-4.5396	-4.0062	-4.2042	-4.7	-3.7708	-4.5396	-4.4604	-3.7958	-4.7979	-4.0563	-4.1083	-4.5208	-3.6917	-4.2688	-4.5583	-8.886	45.393	138.918	236.135	8.296	120.562	260.564	173.674	88.137	48.251	21.784	237.552	119.849	42.204	-13.406	51.078	0.00026583	0.0011916	0.00012775	1264.4	1.1435e-06	6.51e-06	1832	301.21	3.8745e-06	1.5447e-06	587.88	210.36	94.002	39.658	4.8133e-06	99.298	0.00010382	9.052e-05	2.6304e-05	905.43	1.0207e-06	9.8771e-07	1321.6	215.92	1.0323e-06	9.7529e-07	418.53	148.95	66.946	28.172	9.9369e-07	70.192	116.058	58.435	29.196	-62.812	84.638	49.904	-62.692	-57.747	53.580	60.258	-58.491	-54.163	-53.578	-49.343	64.580	-50.456	-8191	255	
19219.863	1	1	0	0	0.090532	0.031997	0.12454	0.17626	0.16648	0.066247	0.40716	0.25094	0.1023	0.21142	0.24211	0.15762	0.14685	0.034152	0.056875	0.12625	-3.3604	-4.5396	-4.1458	-4.0667	-4.6667	-3.8563	-4.4833	-4.5625	-3.6542	-4.4125	-4.3125	-3.95	-4.75	-3.8271	-4.0062	-4.4938	-39.388	21.653	61.780	264.822	-40.940	141.314	218.259	-67.256	-32.011	-15.500	268.675	199.476	219.789	181.378	-37.805	126.937	0.00022945	0.00021052	0.00028785	1293.5	8.3924e-06	5.7052e-06	1876	310.16	5.9663e-06	6.5789e-06	614.04	216.6	97.901	41.193	4.5306e-06	103.76	0.00010162	9.1e-05	2.5398e-05	925.46	1.0243e-06	1.0136e-06	1347.2	223.18	1.0607e-06	9.931e-07	433.83	154.09	69.772	29.386	1.0797e-06	72.964	127.340	51.284	-5.156	-62.878	26.238	21.086	-62.809	-58.237	18.790	36.675	-58.313	-54.361	-53.114	-48.790	174.570	-50.260	-8191	255	
19219.982	1	1	0	0	0.063629	0.16726	0.19396	0.35418	0.14088	0.21118	0.29095	0.075275	0.16909	0.20724	0.18551	0.30029	0.097845	0.18551	0.046809	0.15062	-3.4021	-4.5396	-4.325	-3.9583	-4.7042	-3.9917	-4.2542	-4.5687	-3.7812	-4.5229	-4.275	-3.9313	-4.7229	-3.9104	-3.8333	-4.8229	18.487	189.363	236.891	-71.637	136.655	202.138	240.215	41.733	114.625	165.168	240.952	246.111	-26.868	275.746	20.480	235.969	0.0003337	0.00067621	0.00021847	1295	5.7518e-06	7.5538e-06	1863	311.81	3.2077e-06	4.2078e-06	605.77	215.11	96.358	40.666	6.2221e-06	101.6	0.00010763	9.7342e-05	2.701e-05	929.08	1.047e-06	1.051e-06	1345.6	223.48	1.0889e-06	1.0849e-06	430.24	152.16	68.353	28.884	1.0569e-06	71.178	96.277	25.965	-26.009	-62.667	37.143	29.474	-62.495	-57.875	37.571	45.739	-58.422	-54.061	-53.557	-49.119	72.734	-50.216	-8191	255	
19220.078	1	1	0	0	0.084524	0.097576	0.16729	0.42457	0.044691	0.15754	0.25164	0.11016	0.24492	0.11016	0.16857	0.19344	0.18214	0.074144	0.11697	0.11936	-3.2792	-4.2375	-4.3542	-3.9292	-4.5333	-3.9771	-4.1354	-4.7396	-3.8125	-4.1083	-4.5521	-3.6792	-4.6229	-4.2333	-3.6937	-4.7146	94.086	168.060	71.773	266.389	113.053	106.202	214.833	-22.279	-58.201	-42.616	273.630	218.996	-49.513	15.360	66.214	268.643	0.00030194	0.00035575	0.00019544	1264.1	5.2074e-06	1.8463e-06	1834.5	301.17	2.656e-06	3.8509e-06	593.71	210.54	94.958	40.926	5.5541e-06	103.98	0.00011039	9.4278e-05	2.6166e-05	905.42	1.0696e-06	1.0183e-06	1321.9	216.71	1.0845e-06	1.0196e-06	421.09	150.98	67.56	29.005	1.1222e-06	73.17	114.263	-14.580	15.096	-62.719	33.516	188.820	-62.746	-57.679	82.441	49.321	-58.122	-53.814	-53.671	-49.317	56.603	-50.035	-8191	255	
19220.176	1	1	0	0	0.09228	0.39341	0.20645	0.15662	0.30922	0.18621	0.28115	0.1141	0.14018	0.18223	0.18375	0.17259	0.086946	0.13151	0.1659	0.090215	-3.5292	-4.15	-4.5167	-3.6354	-4.4021	-4.0833	-4.0917	-4.7479	-3.9396	-4.0312	-4.7229	-3.8458	-4.4771	-4.3063	-3.6042	-4.7146	274.889	112.041	165.893	228.591	0.994	159.665	178.714	190.923	173.941	239.429	239.498	252.785	186.376	230.353	176.031	156.037	0.00029197	0.0013424	0.00028438	1268.6	6.7948e-06	1.7022e-06	1871.5	308.11	3.6314e-06	8.9656e-06	612.22	218.86	98.707	42.613	3.5143e-06	106.08	0.00011866	0.00010548	2.9845e-05	910.75	1.209e-06	1.2372e-06	1345.9	220.82	1.2752e-06	1.2326e-06	432.57	155.78	69.686	30.218	1.258e-06	75.072	123.076	-11.595	-23.664	-62.863	20.928	100.000	-62.579	-57.925	167.086	53.980	-57.834	-54.027	-53.183	-49.036	-22.520	-50.159	-8191	255	
19220.271	1	1	0	0	0.14124	0.10683	0.21904	0.35946	0.23942	0.15994	0.29492	0.05725	0.25849	0.21108	0.18331	0.18514	0.13774	0.23359	0.14324	0.29267	-3.6729	-4.0625	-4.5708	-3.7917	-4.3875	-4.5083	-3.9333	-4.7104	-4.0708	-3.8521	-4.7958	-3.6875	-4.3292	-4.3771	-3.5167	-4.7667	276.300	156.089	-69.440	239.189	104.343	166.503	244.010	39.029	84.273	277.651	216.706	262.064	157.749	262.854	1.726	191.068	0.00017286	0.0011184	0.00020492	1280	6.7309e-06	4.4138e-06	1886.9	310.73	5.1639e-06	4.777e-06	616.49	219.82	98.433	42.364	4.0759e-06	107.09	0.00012496	0.00011048	2.9957e-05	922.61	1.2425e-06	1.2032e-06	1354.9	222.65	1.249e-06	1.2268e-06	434.89	156.36	70.19	30.273	1.2109e-06	75.404	120.252	3.970	11.281	-62.921	69.642	44.514	-62.408	-57.731	52.019	84.925	-58.684	-54.078	-53.795	-48.960	137.463	-50.235	-8191	255	
#DATA ENDS
