BOXY.EXE: ISS Imagent and Oximeter Data Acquisition Program Version 0.80
Ascii Record File

#ACQ INFORMATION
2  Detector Channels 
16  External MUX Channels 
1  Auxiliary Channels 
5000  Waveform (CCF) Frequency (Hz)
1  Waveforms Skipped 
30  Waveforms Averaged 
1  Cycles Averaged 
16  Acquisitions per Waveform 
10.0806  Updata Rate (Hz) 

#FILE INFORMATION
TRUE -- External MUX Channel results are PARSED.
FALSE -- AC DC and Phase are NOT grouped.
TRUE -- Companion Program Settings File CREATED.
FALSE -- AC data not excluded
FALSE -- DC data not excluded
FALSE -- Phase data not excluded
FALSE -- Auxillary Chn. data not excluded
Tab delimiters

#CALIBRATION STATE
TRUE -- Waveform Calibration Values APPLIED.


#AUX CALIBRATION VALUES
Val Type	aux-1	

Term	1.0000e+00	
Factor	0.0000e+00	


#WF CALIBRATION VALUES
A = Detector Channel
Val Type	A-AC1	A-AC2	A-AC3	A-AC4	A-AC5	A-AC6	A-AC7	A-AC8	A-AC9	A-AC10	A-AC11	A-AC12	A-AC13	A-AC14	A-AC15	A-AC16	A-DC1	A-DC2	A-DC3	A-DC4	A-DC5	A-DC6	A-DC7	A-DC8	A-DC9	A-DC10	A-DC11	A-DC12	A-DC13	A-DC14	A-DC15	A-DC16	A-Ph1	A-Ph2	A-Ph3	A-Ph4	A-Ph5	A-Ph6	A-Ph7	A-Ph8	A-Ph9	A-Ph10	A-Ph11	A-Ph12	A-Ph13	A-Ph14	A-Ph15	A-Ph16	

Term	0.00000e+00	0.00000e+00	0.00000e+00	0.00000e+00	0.00000e+00	0.00000e+00	0.00000e+00	0.00000e+00	0.00000e+00	0.00000e+00	0.00000e+00	0.00000e+00	0.00000e+00	0.00000e+00	0.00000e+00	0.00000e+00	0.00000e+00	0.00000e+00	0.00000e+00	0.00000e+00	0.00000e+00	0.00000e+00	0.00000e+00	0.00000e+00	0.00000e+00	0.00000e+00	0.00000e+00	0.00000e+00	0.00000e+00	0.00000e+00	0.00000e+00	0.00000e+00	0.00000e+00	0.00000e+00	0.00000e+00	0.00000e+00	0.00000e+00	0.00000e+00	0.00000e+00	0.00000e+00	0.00000e+00	0.00000e+00	0.00000e+00	0.00000e+00	0.00000e+00	0.00000e+00	0.00000e+00	0.00000e+00	
Factor	1.00000e+00	1.00000e+00	1.00000e+00	1.00000e+00	1.00000e+00	1.00000e+00	1.00000e+00	1.00000e+00	1.00000e+00	1.00000e+00	1.00000e+00	1.00000e+00	1.00000e+00	1.00000e+00	1.00000e+00	1.00000e+00	1.00000e+00	1.00000e+00	1.00000e+00	1.00000e+00	1.00000e+00	1.00000e+00	1.00000e+00	1.00000e+00	1.00000e+00	1.00000e+00	1.00000e+00	1.00000e+00	1.00000e+00	1.00000e+00	1.00000e+00	1.00000e+00	X	X	X	X	X	X	X	X	X	X	X	X	X	X	X	X	

B = Detector Channel
Val Type	B-AC1	B-AC2	B-AC3	B-AC4	B-AC5	B-AC6	B-AC7	B-AC8	B-AC9	B-AC10	B-AC11	B-AC12	B-AC13	B-AC14	B-AC15	B-AC16	B-DC1	B-DC2	B-DC3	B-DC4	B-DC5	B-DC6	B-DC7	B-DC8	B-DC9	B-DC10	B-DC11	B-DC12	B-DC13	B-DC14	B-DC15	B-DC16	B-Ph1	B-Ph2	B-Ph3	B-Ph4	B-Ph5	B-Ph6	B-Ph7	B-Ph8	B-Ph9	B-Ph10	B-Ph11	B-Ph12	B-Ph13	B-Ph14	B-Ph15	B-Ph16	

Term	0.00000e+00	0.00000e+00	0.00000e+00	0.00000e+00	0.00000e+00	0.00000e+00	0.00000e+00	0.00000e+00	0.00000e+00	0.00000e+00	0.00000e+00	0.00000e+00	0.00000e+00	0.00000e+00	0.00000e+00	0.00000e+00	0.00000e+00	0.00000e+00	0.00000e+00	0.00000e+00	0.00000e+00	0.00000e+00	0.00000e+00	0.00000e+00	0.00000e+00	0.00000e+00	0.00000e+00	0.00000e+00	0.00000e+00	0.00000e+00	0.00000e+00	0.00000e+00	-1.74110e+02	-1.49463e+02	-1.54163e+02	-1.83559e+02	-9.67051e+01	-8.85097e+01	-1.58120e+02	-1.62015e+02	-7.57778e+01	-9.11998e+01	-1.70546e+02	-1.71093e+02	-1.79028e+02	-1.76657e+02	-7.54591e+01	-1.49556e+02	
Factor	3.07533e-05	1.16140e-04	3.88137e-05	1.69307e-01	1.12974e-06	1.04412e-06	1.84577e-01	5.88378e-02	1.11002e-06	1.29812e-06	9.83490e-02	3.36173e-02	3.12576e-02	1.02943e-02	1.39422e-06	1.47485e-02	9.99033e-07	1.02388e-06	2.85475e-07	7.71054e-02	1.12068e-08	1.12247e-08	7.91330e-02	2.67211e-02	1.11987e-08	1.12333e-08	4.26404e-02	1.45631e-02	1.40376e-02	4.62015e-03	1.12025e-08	6.38598e-03	X	X	X	X	X	X	X	X	X	X	X	X	X	X	X	X	



#DISTANCE SETTINGS
A = Detector Channel
A-1	A-2	A-3	A-4	A-5	A-6	A-7	A-8	A-9	A-10	A-11	A-12	A-13	A-14	A-15	A-16	

2.5000e+00	3.0000e+00	2.5000e+00	3.0000e+00	2.0000e+00	3.0000e+00	1.5000e+00	3.0000e+00	3.0000e+00	3.0000e+00	3.0000e+00	3.0000e+00	3.0000e+00	3.0000e+00	1.5000e+00	3.0000e+00	

B = Detector Channel
B-1	B-2	B-3	B-4	B-5	B-6	B-7	B-8	B-9	B-10	B-11	B-12	B-13	B-14	B-15	B-16	

1.0000e+01	1.0000e+01	1.0000e+01	1.4400e+00	1.0000e+01	1.0000e+01	1.5100e+00	1.9400e+00	1.0000e+01	1.0000e+01	1.9900e+00	2.4900e+00	2.4100e+00	2.9000e+00	1.0000e+01	2.9800e+00	




#DATA BEGINS
time	group	step	mark	flag	A-AC1	A-AC2	A-AC3	A-AC4	A-AC5	A-AC6	A-AC7	A-AC8	A-AC9	A-AC10	A-AC11	A-AC12	A-AC13	A-AC14	A-AC15	A-AC16	A-DC1	A-DC2	A-DC3	A-DC4	A-DC5	A-DC6	A-DC7	A-DC8	A-DC9	A-DC10	A-DC11	A-DC12	A-DC13	A-DC14	A-DC15	A-DC16	A-Ph1	A-Ph2	A-Ph3	A-Ph4	A-Ph5	A-Ph6	A-Ph7	A-Ph8	A-Ph9	A-Ph10	A-Ph11	A-Ph12	A-Ph13	A-Ph14	A-Ph15	A-Ph16	B-AC1	B-AC2	B-AC3	B-AC4	B-AC5	B-AC6	B-AC7	B-AC8	B-AC9	B-AC10	B-AC11	B-AC12	B-AC13	B-AC14	B-AC15	B-AC16	B-DC1	B-DC2	B-DC3	B-DC4	B-DC5	B-DC6	B-DC7	B-DC8	B-DC9	B-DC10	B-DC11	B-DC12	B-DC13	B-DC14	B-DC15	B-DC16	B-Ph1	B-Ph2	B-Ph3	B-Ph4	B-Ph5	B-Ph6	B-Ph7	B-Ph8	B-Ph9	B-Ph10	B-Ph11	B-Ph12	B-Ph13	B-Ph14	B-Ph15	B-Ph16	aux-1	digaux	

18962.727	1	1	0	256	0.19719	0.22674	0.23124	0.25123	0.10765	0.13517	0.18216	0.19622	0.017312	0.24108	0.16275	0.24521	0.23021	0.081333	0.30895	0.14683	-3.9146	-4.225	-4.7729	-4.1604	-4.5542	-4.7229	-4.1542	-5.1188	-4.3667	-4.3375	-5.1125	-4.2937	-4.6229	-4.8938	-4.0646	-5.0771	20.118	-14.083	262.184	312.537	12.436	97.035	289.361	291.891	82.878	1.178	105.673	257.817	288.086	271.219	92.920	242.591	0.00042586	0.00049622	0.00016772	1514.5	2.9456e-06	2.4161e-06	1534.4	402.78	5.4203e-06	5.244e-06	467.95	155.36	133.47	45.546	7.1544e-06	56.815	9.812e-05	8.7214e-05	2.4336e-05	1489.7	9.9626e-07	9.5279e-07	1512	395.5	9.8751e-07	9.3861e-07	452.86	150.8	128.94	44.278	9.7639e-07	55.035	91.923	46.264	40.361	-8.509	82.602	118.079	-8.706	-4.037	135.856	83.720	-4.474	-0.172	0.160	4.890	125.184	4.016	-8191	255	
18962.846	1	1	0	0	0.03845	0.11908	0.06169	0.20337	0.18586	0.14294	0.4239	0.14303	0.068349	0.098509	0.33238	0.092526	0.1671	0.096595	0.19665	0.18778	-4.0979	-4.2458	-4.9042	-4.2875	-4.4313	-4.8583	-4.3125	-5.1417	-4.4854	-4.1208	-5.1604	-4.2792	-4.6062	-4.8854	-3.9271	-4.8125	91.121	283.827	21.503	286.758	265.916	256.953	260.782	176.969	57.790	161.462	304.681	336.278	236.875	100.377	201.727	-4.978	0.00042588	0.00049583	0.00014963	1518.6	3.9228e-06	4.4801e-06	1545.3	402.83	5.614e-06	4.9523e-06	469.07	155.05	133.39	45.383	5.673e-06	56.727	9.884e-05	8.7967e-05	2.4903e-05	1491.1	1.0079e-06	9.6313e-07	1514	395	9.9577e-07	9.5818e-07	453.2	150.74	128.86	44.209	1.0008e-06	55.031	87.903	74.997	42.285	-8.694	97.474	138.463	-8.784	-4.259	138.750	86.799	-4.573	-0.321	0.366	4.849	119.078	4.365	-8191	255	
18962.918	1	1	0	0	0.076159	0.19784	0.26046	0.032056	0.34849	0.18171	0.078713	0.18022	0.20354	0.12491	0.10306	0.11171	0.22361	0.095731	0.16786	0.076986	-4.275	-3.9667	-4.9938	-4.4521	-4.2667	-5.0104	-4.2	-4.8625	-4.6104	-4.0208	-4.9271	-4.3125	-4.3833	-5.2146	-4.0646	-4.625	174.936	206.024	51.723	245.758	50.706	-7.018	241.170	325.929	100.549	4.151	326.003	172.516	-20.478	198.755	221.566	166.615	0.00040096	0.00035963	0.00016331	1518.9	2.8957e-06	4.5581e-06	1548	402.46	4.4876e-06	3.3676e-06	469.72	155.68	132.99	45.545	3.0111e-06	57.096	0.00010103	9.2608e-05	2.5306e-05	1492	1.0193e-06	9.9739e-07	1516.9	395.68	1.062e-06	1.011e-06	453.61	151.2	128.95	44.317	1.0643e-06	55.215	102.905	39.274	36.302	-8.687	112.115	105.967	-8.916	-4.032	138.886	109.202	-4.204	-0.228	0.040	5.011	117.007	4.075	-8191	255	
18963.014	1	1	0	0	0.20873	0.16985	0.021668	0.032489	0.041664	0.15738	0.20201	0.21807	0.10212	0.086624	0.18673	0.13092	0.071025	0.18768	0.062493	0.097473	-4.4146	-4.0708	-4.9125	-4.6771	-4.1042	-5.15	-4.3333	-4.6104	-4.7729	-3.8792	-4.9958	-4.5813	-4.0458	-5.0208	-3.9708	-4.5813	216.865	290.885	290.404	278.629	317.284	202.034	324.995	321.179	-12.298	22.860	279.510	299.274	-14.049	170.465	211.419	169.249	0.00044722	0.00049098	0.00020616	1526	2.3541e-06	1.3939e-06	1537	403.16	5.4065e-06	5.1915e-06	468.39	155.69	132.91	45.669	4.4152e-06	57.156	0.0001061	9.5981e-05	2.603e-05	1493.9	1.0672e-06	9.8684e-07	1515.2	395.84	1.0726e-06	1.0419e-06	453.26	151.31	128.93	44.337	1.0718e-06	55.218	95.873	44.181	38.049	-8.714	120.006	45.927	-8.817	-4.322	147.556	83.803	-4.605	-0.160	0.313	4.787	132.668	3.996	-8191	255	
18963.109	1	1	0	0	0.10742	0.22732	0.29315	0.17273	0.21272	0.18048	0.20665	0.12337	0.10066	0.15968	0.17087	0.21261	0.080703	0.1242	0.082419	0.2616	-4.5125	-4.0354	-4.7312	-4.8271	-4.0979	-5.0146	-4.525	-4.7104	-4.9375	-3.9833	-4.9479	-4.8167	-4.3938	-4.9771	-4.2333	-4.5833	148.912	80.710	114.006	-9.704	119.238	80.359	277.488	302.965	328.538	298.450	211.948	-7.599	285.799	150.746	115.784	284.677	0.00042228	0.00060222	0.00011309	1520.6	1.4003e-06	4.9002e-06	1541.1	404.24	2.2716e-06	5.2084e-06	467.38	154.89	133.57	45.524	4.6337e-06	57.376	0.0001073	9.6987e-05	2.6958e-05	1493.8	1.1021e-06	1.0523e-06	1517.7	395.87	1.1037e-06	1.0897e-06	454.02	151.21	129.22	44.359	1.1127e-06	55.318	98.315	39.530	56.876	-8.569	120.255	107.687	-8.891	-4.340	143.541	81.591	-4.699	-0.323	0.139	5.115	91.632	3.966	-8191	255	
18963.230	1	1	0	0	0.11439	0.082919	0.15147	0.26044	0.096482	0.16837	0.18455	0.17095	0.14926	0.14678	0.069055	0.077142	0.1605	0.22562	0.13443	0.13865	-4.6104	-4.0208	-4.7208	-4.8708	-4.0479	-4.9229	-4.6042	-4.3604	-4.9229	-4.0813	-4.5229	-4.9625	-4.0271	-5.0396	-4.4167	-4.2854	40.836	275.132	335.588	274.473	109.922	28.127	280.233	268.188	306.693	242.477	15.570	314.244	-12.614	282.163	279.834	214.386	0.0004078	0.00024143	0.00017684	1520.9	4.0594e-06	3.5736e-06	1545.6	403.04	4.8368e-06	6.9118e-06	470.96	155.26	133.67	45.376	3.2616e-06	57.011	0.00010995	9.9084e-05	2.7611e-05	1495.6	1.1239e-06	1.0766e-06	1519.3	396.45	1.1307e-06	1.0966e-06	455.27	151.42	129.38	44.38	1.1049e-06	55.278	95.974	57.542	48.981	-8.759	84.198	154.511	-8.598	-4.102	151.197	120.061	-4.683	-0.301	0.043	5.171	116.231	3.988	-8191	255	
18963.326	1	1	0	0	0.28233	0.1192	0.063615	0.15932	0.10055	0.19072	0.2828	0.17228	0.23152	0.039469	0.12803	0.16007	0.13026	0.19341	0.17745	0.13227	-4.6042	-3.8979	-4.5938	-4.9437	-3.9771	-4.9583	-4.7875	-4.3917	-5.0021	-4.2167	-4.6813	-5.1271	-4.0729	-4.9646	-4.5687	-4.4083	63.615	328.054	329.452	313.956	191.076	122.375	291.933	274.629	292.935	168.379	265.875	233.510	90.508	-9.726	91.856	256.190	0.00037156	0.00022047	0.00013937	1523.1	5.7365e-06	4.1261e-06	1540.1	405.12	3.1574e-06	1.7893e-06	470.49	156.05	133.48	45.479	3.1741e-06	57.221	0.000112	0.00010316	2.8594e-05	1499.1	1.1513e-06	1.1279e-06	1519.3	397.27	1.143e-06	1.1515e-06	454.35	151.71	129.28	44.435	1.1771e-06	55.34	98.967	20.788	21.128	-8.698	147.718	105.432	-8.877	-4.165	129.062	57.094	-4.706	-0.393	0.419	4.744	134.502	3.907	-8191	255	
18963.422	1	1	0	0	0.053527	0.082108	0.13245	0.11498	0.094403	0.1239	0.15728	0.207	0.19886	0.18281	0.18993	0.053119	0.019223	0.34303	0.048389	0.32366	-4.75	-4.2521	-4.4708	-5.2646	-3.9896	-4.9479	-5.0208	-4.1896	-4.9792	-4.3604	-4.4437	-5.1917	-4.2812	-4.8313	-4.7688	-4.2188	101.580	120.988	53.855	310.647	249.423	181.325	240.851	236.195	82.200	117.262	333.065	237.372	204.463	299.776	255.534	283.566	0.00044239	0.00045297	0.00012224	1525.5	3.6173e-06	4.6287e-06	1551	403.57	3.7485e-06	3.4566e-06	471.61	155.58	133.74	45.664	6.3217e-06	57.198	0.00011604	0.00010552	2.9587e-05	1501.5	1.1788e-06	1.1452e-06	1521.6	396.93	1.1494e-06	1.1239e-06	455.36	151.68	129.31	44.45	1.1242e-06	55.37	98.046	28.624	42.788	-8.831	91.084	110.546	-8.898	-4.353	167.360	123.565	-4.801	-0.306	0.159	4.908	157.591	3.827	-8191	255	
18963.518	1	1	0	0	0.056259	0.16435	0.2036	0.31958	0.1171	0.15281	0.18259	0.34091	0.21985	0.040858	0.26478	0.35868	0.23539	0.24577	0.33111	0.2523	-4.7333	-4.4667	-4.15	-5.2562	-4.0917	-4.6771	-5.0729	-4.0813	-4.8833	-4.5708	-4.1479	-5.0729	-4.2125	-4.6146	-4.8396	-4.1729	336.892	135.749	318.259	314.361	-19.461	55.545	258.769	-10.322	16.225	177.654	295.148	293.983	329.160	27.808	94.844	236.988	0.00035067	0.00021721	0.00015224	1527.5	4.6455e-06	3.9124e-06	1551.3	403.5	3.2209e-06	7.1835e-06	468.57	155.08	133.32	45.584	3.1637e-06	57.139	0.00011297	0.00010316	2.7875e-05	1501	1.1427e-06	1.106e-06	1523.4	397.1	1.128e-06	1.089e-06	454.64	151.63	129.39	44.507	1.1235e-06	55.374	85.175	0.456	79.619	-8.668	136.565	66.108	-8.762	-4.291	124.010	105.081	-4.384	-0.248	0.022	5.144	106.707	4.211	-8191	255	
18963.615	1	1	0	0	0.02075	0.094285	0.3331	0.19079	0.27866	0.16168	0.18067	0.25348	0.11184	0.1982	0.20116	0.17116	0.2095	0.19881	0.21301	0.15777	-4.6083	-4.5646	-4.1479	-5.3	-4.1333	-4.4812	-4.9896	-4.2812	-4.8313	-4.7583	-4.2521	-5.1396	-4.3417	-4.6083	-4.9792	-4.2812	106.929	254.933	305.455	283.828	299.687	237.210	293.793	254.616	80.881	168.139	66.019	319.161	-3.431	325.626	192.109	56.942	0.00038169	0.000373	9.0863e-05	1522.6	4.7307e-06	2.674e-06	1546	401.64	4.7769e-06	3.8558e-06	470.09	156.23	133.61	45.656	2.7739e-06	56.807	0.00011159	0.00010226	2.8101e-05	1499.2	1.1197e-06	1.0818e-06	1523.2	396.56	1.1262e-06	1.1002e-06	455.01	151.94	129.54	44.402	1.13e-06	55.184	97.259	-4.849	24.757	-8.572	165.584	116.136	-8.561	-4.255	140.263	127.010	-4.470	0.066	0.260	4.710	75.368	4.211	-8191	255	
18963.711	1	1	0	0	0.055969	0.073294	0.12185	0.18442	0.27811	0.10282	0.20848	0.099613	0.17197	0.084425	0.16277	0.080887	0.28757	0.054162	0.13842	0.032492	-4.4479	-4.4708	-4.125	-5.2854	-4.2729	-4.3021	-5.1875	-4.1104	-4.5458	-4.8083	-4.3208	-5.2312	-4.4917	-4.4812	-5	-4.3396	282.098	271.522	203.204	256.977	300.866	266.282	314.039	294.876	-3.848	222.516	222.126	301.447	78.585	263.005	128.237	235.062	0.0003798	0.00042339	0.00018257	1526	3.1207e-06	2.2706e-06	1547.9	404.52	2.0018e-06	5.6715e-06	471.15	155.86	134.22	45.646	3.713e-06	57.367	0.00011202	0.00010332	2.8505e-05	1500.8	1.1558e-06	1.1327e-06	1523.8	397.17	1.1469e-06	1.1196e-06	456.02	151.53	129.8	44.452	1.1441e-06	55.398	103.435	45.233	23.093	-8.714	74.571	78.886	-8.828	-4.289	169.987	128.566	-4.643	-0.024	0.108	4.734	113.813	4.340	-8191	255	
18963.807	1	1	0	0	0.15196	0.083226	0.20067	0.20421	0.20047	0.15825	0.2224	0.16163	0.11781	0.13872	0.011344	0.30534	0.068082	0.15639	0.21194	0.16675	-4.3187	-4.7479	-4.1104	-5.0792	-4.3958	-4.1708	-5.2063	-4.2708	-4.5146	-4.9354	-4.0979	-4.8313	-4.4583	-4.2896	-5.0479	-4.1687	94.962	257.209	273.962	295.490	43.246	303.344	261.008	-9.170	125.180	150.631	10.164	284.808	53.230	1.016	271.523	230.424	0.0003794	0.00049985	0.00012567	1525.7	2.8257e-06	2.8106e-06	1541.8	405.21	3.9521e-06	3.5903e-06	471.99	155.58	133.48	45.593	4.3259e-06	57.237	0.00011639	0.00010386	2.8807e-05	1501	1.1569e-06	1.1213e-06	1524.8	397.5	1.1382e-06	1.1229e-06	456.35	151.6	129.57	44.441	1.1108e-06	55.39	99.215	61.011	53.796	-8.828	126.701	101.800	-8.799	-4.051	154.759	111.343	-4.625	-0.236	0.196	5.288	91.908	4.269	-8191	255	
18963.928	1	1	0	0	0.14949	0.099515	0.19429	0.10923	0.039473	0.074335	0.29029	0.048787	0.12663	0.11728	0.11712	0.17404	0.1476	0.12959	0.11157	0.23301	-4.1729	-4.8667	-3.9458	-5.0417	-4.4875	-4.0354	-5.2208	-4.3896	-4.5188	-4.9208	-4.1458	-4.8917	-4.8021	-4.0604	-5.0062	-4.4917	105.159	44.371	185.925	13.937	120.343	268.995	297.446	10.284	221.123	331.504	225.441	289.635	-20.238	327.946	206.364	286.855	0.00042036	0.00070605	0.00017087	1530.3	5.8505e-06	5.2242e-06	1541.9	405.93	3.887e-06	2.4184e-06	470.45	155.75	134.19	45.805	2.3835e-06	57.28	0.00011201	0.00010058	2.8082e-05	1501.3	1.1324e-06	1.1031e-06	1524.1	397.8	1.1277e-06	1.0751e-06	455.54	152	129.9	44.495	1.0946e-06	55.445	106.614	42.899	48.195	-8.762	114.859	128.027	-8.806	-4.247	175.800	108.180	-4.674	-0.258	0.468	5.158	141.927	4.183	-8191	255	
18964.021	1	1	0	0	0.070638	0.043887	0.067703	0.19136	0.031666	0.27832	0.37959	0.31465	0.063476	0.19347	0.357	0.045788	0.25532	0.085437	0.17157	0.1288	-3.9646	-4.9396	-3.8396	-4.8917	-4.7458	-3.9604	-5.0646	-4.4271	-3.975	-5.1479	-4.3354	-4.7458	-4.8583	-3.9792	-4.95	-4.5958	318.364	72.932	333.460	310.300	-21.952	191.984	276.112	277.648	152.203	322.562	310.211	53.259	46.716	26.268	148.006	304.697	0.00039198	0.00032283	0.00018864	1530.2	2.0832e-06	3.3692e-06	1550.1	403.7	2.3156e-06	7.5254e-06	470.89	155.72	134.06	45.826	4.1589e-06	57.251	0.00011059	9.8272e-05	2.8217e-05	1504.9	1.1117e-06	1.0786e-06	1525.6	397.64	1.1124e-06	1.0672e-06	456.07	152.1	129.78	44.59	1.0762e-06	55.466	91.724	77.680	25.603	-8.653	79.796	100.981	-8.896	-4.037	112.795	131.830	-4.731	-0.052	0.428	4.804	135.712	4.202	-8191	255	
18964.117	1	1	0	0	0.04373	0.17269	0.13849	0.15641	0.14506	0.16423	0.21321	0.23212	0.18035	0.087934	0.10962	0.1241	0.14996	0.17739	0.11901	0.21597	-3.9125	-4.9396	-4.1937	-4.7833	-4.6104	-4.0167	-5.0563	-4.6604	-4.1917	-5.1021	-4.5167	-4.5958	-5.0625	-4.075	-4.6438	-4.8271	26.557	151.545	90.305	335.065	-3.144	173.220	283.252	270.783	181.987	263.738	-9.531	44.478	329.712	47.178	8.094	29.758	0.00034563	0.00035144	0.00015185	1533	2.2442e-06	2.7956e-06	1553.8	405.1	2.0778e-06	4.0734e-06	470.1	155.44	134.04	45.909	6.0309e-06	57.022	0.00010876	9.8195e-05	2.6923e-05	1507.4	1.0953e-06	1.0584e-06	1528	397.99	1.0908e-06	1.0523e-06	456.11	151.76	129.76	44.496	1.086e-06	55.402	102.089	36.461	40.727	-8.683	93.567	99.130	-8.637	-4.147	138.432	31.437	-4.572	-0.199	0.514	4.853	111.911	4.137	-8191	255	
18964.215	1	1	0	0	0.27873	0.13798	0.24294	0.26166	0.11878	0.0035992	0.30268	0.13873	0.17494	0.15392	0.21678	0.3014	0.11102	0.079636	0.05132	0.039687	-3.9354	-4.9104	-4.2521	-4.65	-5.0521	-4.0312	-4.7792	-4.7312	-4.1271	-5.0833	-4.4042	-4.4333	-5.1438	-4.2083	-4.5271	-4.7708	77.762	18.879	46.756	250.471	274.851	188.549	221.968	182.266	104.389	302.110	282.402	295.686	329.412	315.714	139.106	76.657	0.00041573	0.00041222	0.00011994	1531.3	5.6739e-06	2.2121e-06	1544.4	404.66	3.9103e-06	4.0317e-06	471.27	155.15	133.66	45.631	2.9908e-06	57.057	0.00010611	9.568e-05	2.6639e-05	1504.3	1.0734e-06	1.0401e-06	1522.1	397.71	1.0807e-06	1.0322e-06	455.74	151.49	129.45	44.449	1.0482e-06	55.338	99.499	39.379	64.899	-8.714	113.501	108.045	-9.001	-4.168	95.183	106.408	-4.429	-0.090	0.484	4.875	117.688	4.178	-8191	255	
18964.311	1	1	0	0	0.16172	0.092657	0.22205	0.24035	0.23178	0.16633	0.099037	0.3103	0.15869	0.21237	0.10492	0.1015	0.25691	0.12918	0.12147	0.22064	-3.7917	-5.075	-4.4604	-4.4854	-4.9917	-4.0062	-4.8125	-4.9896	-4.2021	-4.7458	-4.6167	-4.3375	-5.1771	-4.1833	-4.6667	-4.95	-15.650	245.552	-14.735	264.651	49.928	142.776	258.420	318.995	186.723	-0.580	250.874	263.482	316.967	-1.055	29.147	309.236	0.00044788	0.00049874	0.00014477	1529.8	4.6987e-06	3.0577e-06	1550.8	403.91	4.6215e-06	4.6412e-06	470.1	155.12	133.84	45.736	1.9753e-06	57.326	0.00010495	9.2649e-05	2.55e-05	1503.2	1.03e-06	1.0066e-06	1524.4	397.01	1.0362e-06	1.0052e-06	455.64	151.49	129.68	44.398	1.0174e-06	55.319	94.294	35.968	54.944	-8.884	131.299	132.814	-8.752	-4.085	162.648	74.863	-4.405	-0.147	0.461	4.865	94.062	4.337	-8191	255	
18964.406	1	1	0	0	0.28979	0.097721	0.20292	0.20495	0.21877	0.069052	0.3058	0.20783	0.030542	0.025367	0.28695	0.37291	0.2084	0.1014	0.16488	0.21093	-3.85	-4.8146	-4.5396	-4.1042	-5.1229	-4.25	-4.5979	-5.2021	-4.0625	-4.7958	-4.7667	-3.9896	-5.3208	-4.4208	-4.2438	-5.0875	177.846	211.845	109.234	295.049	112.116	279.912	280.476	296.730	201.702	239.312	326.662	319.892	291.703	321.352	204.481	210.242	0.00036783	0.00027692	0.00016406	1526.6	3.4975e-06	3.3896e-06	1548.8	405.18	2.7252e-06	4.6677e-06	470.24	155.86	134.34	45.767	3.9138e-06	56.917	0.0001042	9.2871e-05	2.5559e-05	1501.6	1.0233e-06	9.9687e-07	1523.3	397.18	1.0552e-06	9.9892e-07	454.22	151.62	129.56	44.468	1.0005e-06	55.228	92.940	71.128	48.659	-8.750	165.274	110.120	-8.849	-3.845	120.104	114.591	-4.699	-0.237	0.147	4.834	104.313	4.524	-8191	255	
18964.504	1	1	0	0	0.13653	0.14402	0.27472	0.39017	0.080405	0.24831	0.21697	0.28433	0.1538	0.13279	0.21172	0.10508	0.04585	0.18684	0.18203	0.034051	-3.7812	-4.8438	-4.6458	-4.275	-4.8938	-4.1792	-4.5542	-5.175	-3.9729	-4.7438	-4.8771	-3.9771	-5.0563	-4.475	-4.2125	-5.1479	38.530	166.137	140.225	272.593	124.774	268.786	293.875	285.318	182.314	332.889	247.740	275.993	180.169	13.622	-14.233	59.792	0.00034204	0.00047895	0.00017573	1524.7	4.9436e-06	4.3945e-06	1543.9	404.67	3.6386e-06	3.898e-06	470.17	155.69	133.78	45.703	5.4315e-06	56.932	0.00010443	8.9935e-05	2.5261e-05	1499.5	1.0268e-06	9.9248e-07	1522.7	397.46	1.0207e-06	9.9932e-07	455.66	151.12	129.3	44.379	1.022e-06	55.17	88.778	69.430	12.270	-8.772	120.158	89.985	-9.043	-4.101	149.644	131.331	-4.533	-0.494	0.270	5.015	114.331	4.110	-8191	255	
18964.623	1	1	0	0	0.0078678	0.10067	0.086175	0.084826	0.2091	0.21868	0.040952	0.093921	0.097166	0.14601	0.27067	0.17358	0.20978	0.24164	0.17951	0.12013	-3.6729	-4.4167	-4.825	-4.2021	-4.8375	-4.5417	-4.4958	-5.1354	-4.1271	-4.4146	-5.0479	-4.1604	-4.9375	-4.6625	-4.1	-5.2729	235.842	12.790	181.467	-11.262	139.628	3.259	163.876	240.671	23.838	-6.821	267.210	58.040	-11.696	303.859	141.773	250.738	0.00037401	0.00042821	0.0001403	1530.2	2.9344e-06	4.0167e-06	1542	404.01	1.2783e-06	4.8693e-06	470.86	154.77	133.61	45.442	5.3987e-06	57.46	0.00010383	9.2357e-05	2.5755e-05	1502.8	1.0585e-06	1.0203e-06	1520.7	396.67	1.0488e-06	1.0252e-06	455.01	151.14	129.43	44.353	1.0061e-06	55.386	96.174	44.666	31.579	-8.716	104.748	115.671	-8.867	-4.064	121.134	123.146	-4.538	-0.595	0.441	4.946	146.696	4.512	-8191	255	
18964.721	1	1	0	0	0.21779	0.065541	0.22093	0.22893	0.20559	0.15332	0.25344	0.2036	0.11632	0.16143	0.1315	0.15543	0.093556	0.072338	0.085315	0.11251	-3.9125	-4.4896	-4.9375	-4.1667	-4.85	-4.6875	-4.2708	-5.025	-4.1417	-4.3438	-4.9688	-4.1604	-4.7562	-4.7833	-3.9458	-5.1354	243.884	87.643	185.255	286.784	215.875	64.993	274.953	-6.595	189.016	135.552	-12.534	267.146	-18.519	257.414	276.485	320.554	0.00041499	0.00034543	0.00018748	1525.5	2.7876e-06	4.3322e-06	1544.9	403.57	3.0378e-06	3.819e-06	471.01	154.91	134	45.659	4.4917e-06	57.299	0.00010279	9.0106e-05	2.4745e-05	1499.5	9.9365e-07	9.7924e-07	1521.1	397.06	1.0078e-06	9.4898e-07	455.11	151.03	129.28	44.333	9.594e-07	55.224	96.881	2.583	54.872	-8.513	66.763	110.655	-8.988	-4.122	119.643	92.091	-4.607	-0.374	0.454	5.056	117.016	4.219	-8191	255	
18964.814	1	1	0	0	0.053336	0.09543	0.18047	0.08283	0.088787	0.13233	0.29431	0.048374	0.12738	0.18052	0.21575	0.16877	0.14272	0.21413	0.11854	0.022909	-3.8792	-4.1542	-4.9563	-4.1438	-4.5375	-4.5208	-4.2292	-4.9729	-4.3146	-4.0437	-5.1792	-4.2771	-4.6104	-4.9208	-3.8771	-4.9896	68.517	131.853	294.138	319.848	74.870	132.706	298.884	19.676	104.311	44.382	337.502	206.325	320.248	239.211	259.420	176.462	0.00036249	0.00047501	0.00010101	1529.2	1.6272e-06	5.4549e-06	1539.1	404.48	1.9774e-06	2.0553e-06	471.22	155.75	133.33	45.534	4.5899e-06	57.021	9.7375e-05	8.5859e-05	2.379e-05	1500.7	9.5977e-07	9.1402e-07	1520.3	397.2	9.3184e-07	8.8909e-07	454.86	151.23	129.01	44.304	9.082e-07	55.17	100.975	56.263	43.562	-8.726	100.240	104.425	-8.811	-4.125	113.522	111.489	-4.676	-0.283	0.373	4.631	104.032	3.986	-8191	255	
18964.887	1	1	0	0	0.13844	0.039372	0.12875	0.20353	0.10369	0.39892	0.14905	0.21387	0.15914	0.12119	0.33817	0.33841	0.078841	0.26208	0.079037	0.32846	-4.0958	-4.0729	-4.9708	-4.2833	-4.5062	-4.9042	-4.225	-4.95	-4.3354	-4.2042	-5.1667	-4.2479	-4.6375	-5.0583	-3.9792	-4.7958	40.342	82.859	36.647	-17.884	28.413	292.924	277.660	256.891	248.544	9.660	273.714	287.600	127.063	253.080	218.614	264.065	0.00044932	0.00039405	0.00014825	1521.8	4.1856e-06	3.9597e-06	1538.6	402.36	3.8735e-06	3.3426e-06	470.33	154.76	132.85	45.799	3.7681e-06	57.02	9.1661e-05	8.1399e-05	2.1935e-05	1497.7	9.2907e-07	9.0266e-07	1517.4	396.26	9.408e-07	9.0152e-07	454.15	150.93	128.86	44.352	9.4178e-07	55.133	98.708	54.100	51.770	-8.492	158.921	115.524	-8.885	-4.189	147.598	93.209	-4.410	0.067	0.420	5.003	159.290	4.107	-8191	255	
18965.006	1	1	0	0	0.1057	0.18063	0.16659	0.13327	0.24633	0.13438	0.29692	0.21254	0.21469	0.14332	0.1712	0.06808	0.13926	0.11793	0.16279	0.12401	-4.3812	-4.0708	-4.8562	-4.5521	-4.275	-5.0188	-4.0667	-4.8917	-4.7292	-4.0167	-5.1083	-4.4646	-4.4958	-4.875	-4.125	-4.6687	5.300	81.543	323.950	67.977	131.681	65.147	328.713	211.176	53.543	275.345	284.312	277.406	42.804	17.460	272.291	233.382	0.00039984	0.00050197	0.00016855	1523.8	5.735e-06	3.6953e-06	1543.2	405.84	3.758e-06	4.7573e-06	469.6	155.97	133.93	45.654	6.1852e-06	57.118	9.4966e-05	8.4517e-05	2.3534e-05	1497.8	9.4964e-07	9.1952e-07	1521.6	397.18	9.4071e-07	9.1051e-07	454.98	151.29	129.36	44.381	9.4962e-07	55.145	84.816	36.310	41.396	-8.552	119.518	78.917	-8.756	-4.178	137.600	88.666	-4.632	-0.259	0.185	4.941	120.525	4.147	-8191	255	
18965.102	1	1	0	0	0.21969	0.067401	0.20186	0.17246	0.056306	0.046933	0.079673	0.43668	0.079331	0.18833	0.068243	0.060896	0.29697	0.15215	0.088743	0.08656	-4.525	-4.0542	-4.8208	-4.5521	-4.2021	-5.0417	-4.3146	-4.6958	-4.7812	-4.0458	-5.0417	-4.6958	-4.2792	-5.2667	-4.0813	-4.6021	241.043	169.822	80.703	269.809	-0.121	252.062	193.132	246.871	118.277	261.256	-19.664	307.045	259.719	335.698	206.546	176.119	0.00040314	0.00035436	0.00018114	1525	4.2432e-06	3.1183e-06	1543.8	402.74	4.2162e-06	5.5758e-06	470.83	155.21	133.47	45.412	4.5627e-06	57.442	9.5148e-05	8.4151e-05	2.3585e-05	1497.5	9.7154e-07	9.2078e-07	1518.8	396.11	9.4176e-07	9.2366e-07	453.39	150.92	128.89	44.245	9.2232e-07	55.181	100.491	61.805	24.752	-8.759	107.495	95.691	-8.910	-4.022	136.874	77.256	-4.652	-0.191	0.166	4.922	156.483	4.329	-8191	255	
18965.199	1	1	0	0	0.022672	0.22256	0.21893	0.078881	0.063794	0.20932	0.093535	0.22646	0.048547	0.031335	0.03274	0.18459	0.11261	0.10155	0.13041	0.083118	-4.6583	-3.9625	-4.8396	-4.7688	-4.2167	-4.8875	-4.4854	-4.6917	-4.8438	-4.1896	-4.7625	-4.6813	-4.2604	-5.2167	-4.3375	-4.4292	295.995	127.543	11.966	68.712	21.995	97.956	183.336	321.832	30.933	113.599	57.272	49.411	290.724	27.046	71.801	-17.581	0.00036238	0.00047885	4.7469e-05	1528.2	2.2713e-06	4.3348e-06	1541.2	403.28	3.7087e-06	3.3703e-06	469.89	155.53	133.43	45.699	4.6553e-06	57.143	9.4223e-05	8.5219e-05	2.3707e-05	1497.8	9.5895e-07	8.9099e-07	1517.4	395.94	9.2641e-07	8.9916e-07	454.92	151.03	128.92	44.325	9.0808e-07	55.177	100.485	63.693	83.809	-8.546	102.700	77.964	-9.154	-4.225	163.558	141.621	-4.585	-0.031	-0.034	4.968	116.934	4.271	-8191	255	
18965.295	1	1	0	0	0.05397	0.074491	0.15658	0.2555	0.31645	0.14176	0.20434	0.18033	0.1652	0.23473	0.12714	0.19584	0.16568	0.13879	0.11029	0.083508	-4.7104	-4.0729	-4.5375	-4.8375	-4.0521	-5.0458	-4.5687	-4.4417	-4.8917	-3.9458	-4.8792	-4.8875	-4.1396	-4.9938	-4.4021	-4.2792	138.929	38.667	309.825	251.409	238.067	60.122	315.211	1.399	123.895	274.305	227.911	324.589	216.410	273.803	272.514	262.193	0.00040648	0.00043027	0.00017014	1518.7	2.4159e-06	2.4368e-06	1543.1	403.19	1.8253e-06	1.0126e-06	468.25	155.04	133.64	45.443	5.2424e-06	57.155	9.0966e-05	8.0964e-05	2.2162e-05	1495.5	9.173e-07	8.6258e-07	1518.7	395.8	9.0065e-07	8.9246e-07	452.72	150.85	128.75	44.293	8.84e-07	55.147	98.783	42.390	38.579	-8.611	151.643	87.101	-8.836	-4.192	163.075	119.720	-4.850	-0.175	0.123	4.711	127.267	3.979	-8191	255	
18965.414	1	1	0	0	0.11492	0.11301	0.15154	0.18364	0.14029	0.18074	0.15714	0.14668	0.11214	0.22213	0.11067	0.34284	0.19893	0.075501	0.18159	0.09764	-4.7375	-4.1854	-4.4938	-5.0792	-3.8479	-4.9458	-4.7438	-4.3542	-5.1146	-4.1771	-4.6813	-5.1687	-3.9771	-4.8667	-4.6125	-4.2083	236.091	260.326	168.323	293.588	61.690	192.562	294.069	318.864	192.089	37.992	324.960	244.626	310.632	26.934	83.616	3.200	0.00038318	0.00032173	0.00016124	1518.9	4.3183e-06	3.3531e-06	1548.6	404.4	2.9813e-06	2.8403e-06	471.63	154.92	132.8	45.549	5.311e-06	57.051	9.1072e-05	7.8892e-05	2.1833e-05	1495.7	9.0212e-07	8.5423e-07	1518.2	396.04	8.6965e-07	8.6038e-07	453.88	151	128.63	44.268	8.7209e-07	55.083	102.739	52.704	50.668	-8.580	133.576	108.073	-8.957	-4.278	140.779	99.701	-4.728	-0.085	0.041	4.783	142.651	3.837	-8191	255	
18965.486	1	1	0	0	0.067267	0.12324	0.14349	0.32086	0.1635	0.17585	0.24081	0.13043	0.0082998	0.12966	0.042461	0.29656	0.11627	0.15655	0.13581	0.37102	-4.65	-4.1208	-4.3958	-5.2396	-4.0229	-4.8708	-4.9229	-4.3417	-4.9854	-4.2583	-4.5625	-4.8812	-4.2104	-4.825	-4.575	-3.9771	51.318	304.941	178.202	334.844	95.607	186.411	248.705	251.750	22.862	34.792	305.599	0.992	8.728	-4.747	101.434	308.844	0.00038027	0.00049253	0.00017072	1525.3	3.8747e-06	1.4644e-06	1543.8	404.11	2.251e-06	5.0769e-06	469.44	155.54	133.96	45.321	5.169e-06	57.292	8.8978e-05	7.9285e-05	2.1811e-05	1497.8	8.8368e-07	8.4246e-07	1519.9	396.27	8.8082e-07	8.6469e-07	453.45	151.03	129	44.215	8.6892e-07	55.166	108.494	25.405	7.475	-8.648	139.560	109.161	-8.760	-4.194	142.940	125.494	-4.824	-0.047	0.159	4.857	132.355	3.988	-8191	255	
18965.607	1	1	0	0	0.073506	0.081882	0.1353	0.20055	0.14931	0.25875	0.2265	0.17177	0.062482	0.17492	0.10797	0.32163	0.21914	0.13505	0.23376	0.067362	-4.6687	-4.3396	-4.2458	-5.1542	-3.8563	-4.5958	-5.05	-4.2042	-4.8479	-4.4062	-4.4083	-5.0687	-4.2208	-4.7042	-5.0417	-4.1937	187.767	245.880	0.935	250.398	186.164	234.407	259.708	292.250	239.495	224.353	23.640	287.959	232.653	315.528	174.722	-14.885	0.00041536	0.00053582	9.7247e-05	1524.3	4.2061e-06	2.9129e-06	1541.6	402.91	8.4919e-07	3.6405e-06	469.38	155.08	133.16	45.543	5.4075e-06	56.965	9.082e-05	7.9202e-05	2.236e-05	1497.1	9.0243e-07	8.6379e-07	1517.2	396.28	9.0326e-07	8.9125e-07	454.62	151.19	128.87	44.315	9.054e-07	55.072	95.852	30.389	24.974	-8.611	111.618	78.397	-8.904	-4.311	202.213	110.351	-4.593	-0.188	0.338	4.931	130.421	3.934	-8191	255	
18965.703	1	1	0	0	0.14308	0.14429	0.2276	0.1845	0.17825	0.12271	0.14674	0.28203	0.18329	0.13683	0.20918	0.2587	0.11827	0.22696	0.092164	0.1928	-4.7021	-4.5354	-4.0312	-5.1979	-4.2958	-4.4021	-5.2208	-4.1833	-4.7146	-4.7042	-4.2021	-5.0604	-4.3104	-4.6292	-5.0042	-4.125	133.736	303.875	163.302	-9.844	66.547	336.997	237.438	261.536	316.561	66.953	241.701	231.999	-20.387	258.291	65.699	45.247	0.00039442	0.00055882	0.0001805	1526	6.1098e-06	2.9601e-06	1543.7	403.88	4.3362e-06	3.5737e-06	470.05	155.5	133.47	45.518	4.8406e-06	57.173	9.3705e-05	8.3545e-05	2.3122e-05	1499.1	9.5624e-07	9.1288e-07	1520.5	396.6	9.4666e-07	9.2914e-07	453.65	151.23	129.2	44.344	9.4029e-07	55.217	107.298	24.486	44.721	-8.596	89.216	85.624	-8.902	-4.176	154.680	106.356	-4.714	-0.111	0.378	4.654	146.290	4.177	-8191	255	
18965.801	1	1	0	0	0.14198	0.089222	0.1785	0.03572	0.062756	0.18248	0.29336	0.27451	0.063265	0.19571	0.1034	0.17997	0.092631	0.1056	0.13397	0.094242	-4.3771	-4.5833	-3.7458	-5.0583	-4.3479	-4.3083	-5.15	-4.0188	-4.6687	-4.7708	-4.2417	-4.9979	-4.5813	-4.3792	-4.8375	-4.2896	59.626	295.026	318.691	279.037	1.523	108.214	289.084	292.354	51.187	24.032	273.387	304.155	203.041	325.775	148.405	308.305	0.00037787	0.00039353	0.00015193	1523.9	4.28e-06	3.5607e-06	1546	404.04	3.7266e-06	3.6119e-06	469.73	155.82	133.32	45.466	2.3704e-06	56.991	9.6731e-05	8.748e-05	2.4559e-05	1500	1.0007e-06	9.6072e-07	1520.2	396.37	1.0117e-06	9.9204e-07	453.86	151.53	129.22	44.404	9.9551e-07	55.267	84.150	60.515	36.379	-8.480	132.340	93.746	-8.898	-4.091	128.375	89.550	-4.438	-0.533	0.475	4.996	163.539	4.179	-8191	255	
18965.896	1	1	0	0	0.048187	0.23711	0.18115	0.030049	0.05155	0.21904	0.15502	0.22075	0.1521	0.034692	0.16918	0.025689	0.080476	0.052673	0.17072	0.10471	-4.3521	-4.6875	-3.7854	-5.1562	-4.4187	-4.2812	-5.2229	-4.2562	-4.4667	-4.8604	-4.2979	-4.9729	-4.5792	-4.3083	-4.9646	-4.2792	252.316	36.620	93.147	323.339	122.116	313.766	265.381	-11.032	279.637	206.055	313.830	255.592	271.228	97.048	149.460	316.593	0.00042936	0.0005346	0.00015365	1530.9	4.3169e-06	4.1431e-06	1544	405.48	2.6818e-06	6.2848e-06	472.14	155.83	133.42	45.823	3.9283e-06	57.068	0.00010439	9.3551e-05	2.6182e-05	1502	1.0741e-06	1.0368e-06	1522.5	397.44	1.0848e-06	1.0435e-06	454.91	151.49	129.16	44.442	1.0945e-06	55.259	95.027	51.284	38.174	-8.662	154.048	114.126	-8.617	-4.195	68.992	109.726	-4.708	-0.192	0.262	4.879	125.606	4.189	-8191	255	
18966.016	1	1	0	0	0.12071	0.19915	0.15209	0.17457	0.14792	0.13531	0.18096	0.12818	0.074503	0.19813	0.13141	0.18874	0.13658	0.096249	0.18894	0.12727	-4.1667	-4.9104	-4.025	-5.0021	-4.6146	-4.0312	-5.1542	-4.4521	-4.4313	-4.8917	-4.1625	-4.7833	-4.7646	-4.2188	-5.05	-4.3417	41.519	117.406	117.875	297.167	286.294	25.192	259.719	300.875	6.280	309.495	-1.221	252.402	42.873	19.264	327.378	305.421	0.00045364	0.00056793	0.00014307	1525.2	2.883e-06	2.8021e-06	1546.1	403.6	1.7718e-06	5.9389e-06	469.64	154.85	133.43	45.562	3.6348e-06	57.261	0.00011063	9.9588e-05	2.8186e-05	1499.1	1.1219e-06	1.1134e-06	1520.2	397.31	1.1289e-06	1.0819e-06	454.86	151.34	129.42	44.39	1.1014e-06	55.323	89.177	44.243	18.305	-8.628	126.170	116.393	-8.752	-4.031	109.822	129.472	-4.338	-0.327	0.622	5.040	135.264	4.141	-8191	255	
18966.088	1	1	0	0	0.15592	0.16301	0.24803	0.33229	0.40498	0.035033	0.1642	0.33401	0.14004	0.14592	0.18826	0.26436	0.19598	0.1008	0.21835	0.29246	-3.9813	-5.0021	-3.8542	-4.9604	-4.6979	-3.9208	-5.2583	-4.5583	-4.1625	-5.1604	-4.1958	-4.6625	-4.8438	-4.1354	-4.9625	-4.6062	325.905	269.230	274.908	277.923	276.953	-6.955	-10.128	279.012	207.764	206.811	239.486	235.065	336.344	245.966	145.894	279.079	0.0003756	0.00039746	0.00021026	1522	3.1055e-06	1.8325e-06	1543.8	402.06	4.6027e-06	3.5669e-06	469.94	155.17	133.24	45.477	6.7064e-06	56.917	0.00011374	0.00010171	2.8359e-05	1498.9	1.1413e-06	1.1088e-06	1522.4	396.32	1.1406e-06	1.111e-06	454.44	151.36	129.35	44.419	1.1431e-06	55.335	90.348	23.582	42.380	-8.612	141.546	110.887	-8.706	-4.146	109.355	109.678	-4.313	-0.347	0.364	4.630	139.141	4.291	-8191	255	
18966.184	1	1	0	0	0.090762	0.20852	0.19113	0.06394	0.098983	0.23714	0.22371	0.25684	0.062641	0.16288	0.26791	0.1627	0.057178	0.09844	0.11258	0.17751	-3.9104	-5.1104	-4.1229	-4.8	-4.8792	-4.0437	-5.1708	-4.7021	-4.1542	-4.7875	-4.3125	-4.5354	-5.0146	-4.2	-4.8542	-4.6917	113.856	217.685	282.324	297.135	184.473	1.430	188.560	291.303	323.868	65.213	315.129	298.782	325.810	143.883	38.630	331.888	0.00045676	0.00039973	0.00011658	1523.7	3.5469e-06	4.9301e-06	1548.1	403.48	3.1781e-06	6.1612e-06	470.07	154.98	133.22	45.495	5.1702e-06	57.215	0.00011451	0.00010233	2.8954e-05	1499.8	1.1453e-06	1.1142e-06	1522.4	396.97	1.1367e-06	1.0901e-06	454.25	151.37	129.26	44.426	1.1388e-06	55.35	97.950	8.133	20.437	-8.647	105.493	55.637	-8.735	-4.312	112.597	91.164	-4.739	-0.212	0.694	4.918	152.774	3.958	-8191	255	
18966.303	1	1	0	0	0.077842	0.087186	0.12482	0.26613	0.072339	0.23005	0.37423	0.13759	0.089554	0.16381	0.064275	0.17496	0.12283	0.18218	0.11759	0.090912	-3.7625	-5	-4.175	-4.5917	-4.9437	-3.8937	-4.8021	-4.8521	-4.1104	-4.9521	-4.5208	-4.325	-5.1771	-4.2271	-4.5687	-4.9625	-7.635	292.910	228.686	295.934	111.923	218.725	265.272	-1.745	19.463	204.648	331.683	327.762	277.837	49.028	283.531	214.673	0.00037377	0.0005	0.00013312	1520.6	5.3112e-06	3.5923e-06	1546.2	405.17	4.7394e-06	3.0788e-06	468.79	155.3	133.36	45.644	5.0235e-06	57.179	0.00011169	0.00010221	2.8311e-05	1499.8	1.1287e-06	1.1119e-06	1519.8	397.21	1.1298e-06	1.0927e-06	454.53	151.34	129.24	44.403	1.1295e-06	55.356	92.256	39.712	15.833	-8.749	116.341	132.313	-8.779	-4.088	144.082	115.213	-4.697	-0.436	0.574	5.074	104.616	4.188	-8191	255	
18966.400	1	1	0	0	0.2958	0.19811	0.078182	0.34461	0.13568	0.20408	0.12674	0.18829	0.228	0.18536	0.23318	0.18074	0.14614	0.17799	0.27999	0.19611	-3.8125	-4.9604	-4.5521	-4.5417	-5.0646	-4.1687	-4.9	-4.975	-4.0125	-5.0312	-4.6188	-4.25	-5.225	-4.0583	-4.5479	-4.9417	183.947	64.765	171.514	295.774	284.148	290.124	262.150	5.784	120.527	97.153	292.545	297.008	327.877	10.911	108.834	314.243	0.00049448	0.00038584	0.00014886	1521.1	5.3292e-06	1.7863e-06	1547.3	404.93	6.5418e-06	4.3685e-06	469.06	155.19	133.32	45.603	5.4352e-06	57.037	0.00011404	0.00010101	2.8301e-05	1497	1.1347e-06	1.1298e-06	1521.2	396.96	1.1454e-06	1.1071e-06	454.67	151.29	129.35	44.357	1.1679e-06	55.365	88.842	23.115	28.090	-8.648	125.006	105.423	-8.986	-3.993	139.423	98.367	-4.562	-0.442	0.488	4.994	119.689	4.328	-8191	255	
18966.496	1	1	0	0	0.088655	0.012325	0.1679	0.18441	0.11267	0.069483	0.20225	0.22743	0.148	0.25075	0.16741	0.12704	0.16979	0.11516	0.20514	0.24482	-3.8812	-4.825	-4.5792	-4.3646	-5.0792	-4.2729	-4.6667	-5.0146	-3.9396	-4.9021	-4.8208	-4.2771	-5.0813	-4.4313	-4.3229	-5.1333	89.063	-6.927	145.066	317.106	140.942	180.495	304.739	281.507	72.499	9.361	271.700	308.260	11.116	283.839	324.491	172.770	0.00036461	0.00066508	0.00013491	1520.3	4.5627e-06	6.3288e-06	1544.7	401.84	2.7404e-06	4.1616e-06	468	155.43	133.71	45.565	3.8308e-06	57.207	0.00011533	0.00010582	2.8915e-05	1497.2	1.1404e-06	1.1547e-06	1519.5	396.38	1.1824e-06	1.1377e-06	454.01	151.52	129.38	44.417	1.1737e-06	55.456	102.832	39.904	63.002	-8.861	113.872	109.935	-8.891	-4.256	160.655	57.679	-4.722	-0.663	0.120	4.809	127.633	4.525	-8191	255	
18966.592	1	1	0	0	0.23405	0.070919	0.13838	0.19753	0.19719	0.15877	0.16988	0.17411	0.12371	0.12408	0.18766	0.15939	0.24	0.038076	0.096789	0.073069	-3.7521	-4.8521	-4.75	-4.1667	-5.1521	-4.3292	-4.6229	-5.1687	-4.0021	-4.7167	-4.8688	-4.05	-4.9771	-4.4583	-4.1104	-5.1896	155.932	175.679	77.691	317.026	211.726	141.362	208.490	297.653	175.521	314.503	268.154	304.524	236.820	24.248	155.103	140.644	0.00045702	0.00056963	0.00020658	1526.5	4.4906e-06	9.445e-06	1543.4	403.21	4.6567e-06	4.9229e-06	470.54	154.97	133.47	45.576	4.492e-06	56.673	0.00011777	0.00010727	2.9603e-05	1496.9	1.1948e-06	1.1903e-06	1521.4	396.54	1.1854e-06	1.1797e-06	454.64	151.28	129.39	44.463	1.2084e-06	55.268	93.584	44.363	30.701	-8.704	120.991	97.810	-8.837	-4.207	129.424	142.333	-4.512	-0.450	0.429	4.950	124.604	3.944	-8191	255	
18966.713	1	1	0	0	0.0899	0.31253	0.087804	0.16169	0.182	0.032414	0.27885	0.0497	0.1905	0.082113	0.18408	0.14807	0.18397	0.19241	0.022712	0.12362	-3.6958	-4.4229	-4.8021	-4.2562	-4.8792	-4.5062	-4.3104	-5.1354	-4.1146	-4.5583	-4.9437	-4.0521	-5.0583	-4.6792	-4.0917	-5.0583	144.557	80.888	134.112	321.215	-4.719	141.033	266.756	9.023	105.813	8.291	277.501	26.565	240.245	17.094	4.021	25.483	0.00036016	0.00027007	0.00019711	1522.8	3.1457e-06	1.7646e-06	1546.6	402.86	3.4639e-06	2.5765e-06	471	155.54	133.63	45.387	5.0639e-06	57.003	0.00011771	0.00010745	2.9612e-05	1497.9	1.2146e-06	1.1728e-06	1521.8	396.71	1.2376e-06	1.1887e-06	455.56	151.66	129.52	44.396	1.2021e-06	55.372	96.587	31.943	58.693	-8.624	162.578	112.892	-8.814	-3.988	148.610	92.965	-4.456	-0.139	0.278	5.008	134.819	4.175	-8191	255	
18966.783	1	1	0	0	0.085684	0.25028	0.25934	0.2799	0.22389	0.10363	0.18097	0.083719	0.19013	0.1027	0.025653	0.42028	0.11141	0.14475	0.17924	0.2351	-3.8042	-4.4187	-4.95	-4.3812	-4.7167	-4.7125	-4.3521	-5.0437	-4.2312	-4.5437	-5.0354	-4.0875	-4.9146	-4.9563	-4.1229	-5.1792	213.683	73.000	150.711	207.375	321.565	35.991	275.512	236.843	60.083	104.209	6.760	231.993	235.488	8.337	251.752	318.508	0.00040831	0.00036523	0.0001634	1523.3	2.6133e-06	3.7366e-06	1546	406.18	4.2769e-06	2.5964e-06	468.78	155.09	133.53	45.61	3.02e-06	57.262	0.000122	0.00010887	3.0247e-05	1498.8	1.2043e-06	1.1804e-06	1521.5	397.51	1.2197e-06	1.1811e-06	454.02	151.58	129.5	44.471	1.2276e-06	55.401	104.198	98.255	38.353	-8.707	122.718	150.190	-8.875	-4.089	133.552	107.756	-4.500	-0.272	0.434	5.200	188.301	4.243	-8191	255	
18966.881	1	1	0	0	0.18947	0.10812	0.20464	0.27589	0.13233	0.4262	0.21626	0.032302	0.13937	0.076186	0.17279	0.26505	0.19657	0.14606	0.035037	0.22066	-3.95	-4.3021	-5.0708	-4.3	-4.5979	-4.8063	-4.2375	-5.1583	-4.5146	-4.4146	-5.15	-4.3042	-4.6479	-4.9771	-4.0083	-4.8979	171.879	102.119	157.184	323.976	296.378	275.148	305.721	321.729	230.153	114.623	320.561	295.766	257.583	291.981	97.931	297.090	0.00035726	0.00034722	7.5302e-05	1529.5	2.2734e-06	5.7253e-06	1537.4	403.56	2.8592e-06	2.7305e-06	470.64	155.46	133.74	45.478	5.0524e-06	56.92	0.00012034	0.00010906	2.9729e-05	1501.2	1.2151e-06	1.1778e-06	1520	396.83	1.1979e-06	1.1863e-06	454.86	151.26	129.45	44.463	1.2059e-06	55.339	108.273	43.450	35.141	-8.664	107.219	119.926	-8.799	-3.879	147.617	93.240	-4.569	-0.214	0.272	4.761	149.806	4.132	-8191	255	
18966.977	1	1	0	0	0.10698	0.11318	0.12566	0.075632	0.30563	0.061794	0.32742	0.17369	0.1644	0.17644	0.15081	0.19856	0.23102	0.065013	0.057361	0.12019	-4.2542	-4.1	-4.9313	-4.2667	-4.4646	-4.9292	-4.2979	-5.0354	-4.4187	-4.0833	-5.125	-4.3833	-4.6062	-5.0708	-3.975	-4.7854	75.032	194.855	171.888	4.255	295.387	217.405	285.067	279.791	245.711	81.745	321.998	263.090	302.729	278.487	28.532	255.941	0.0005014	0.00048198	0.00012186	1524.8	3.2878e-06	3.8549e-06	1537.6	403.68	4.7137e-06	3.7664e-06	469.96	154.63	133.04	45.544	4.4168e-06	56.921	0.00012015	0.00010858	2.9731e-05	1499.9	1.2135e-06	1.1627e-06	1519.8	396.54	1.2395e-06	1.2044e-06	454.68	151.1	129.28	44.473	1.2052e-06	55.267	93.790	39.232	45.990	-8.626	107.521	143.679	-8.818	-4.050	126.246	143.393	-4.458	-0.442	0.511	4.968	142.965	3.989	-8191	255	
18967.096	1	1	0	0	0.28593	0.1913	0.067858	0.16467	0.14084	0.10807	0.20168	0.23124	0.24625	0.16342	0.081204	0.1896	0.10441	0.19309	0.083398	0.12053	-4.3375	-4.0792	-5.1667	-4.3875	-4.4	-5.1146	-4.1792	-4.8458	-4.6958	-4.1458	-5.2771	-4.4	-4.4	-5.1687	-3.9521	-4.7542	300.746	98.975	13.405	286.512	153.226	32.155	215.553	333.197	117.287	79.075	236.227	324.484	283.573	256.677	311.021	335.137	0.00044626	0.00037671	0.00014444	1523.6	1.2955e-06	2.6275e-06	1551.9	401.95	3.7864e-06	4.2325e-06	470.92	155.34	132.9	45.678	6.085e-06	57.243	0.00011812	0.0001095	2.9905e-05	1499.8	1.2464e-06	1.19e-06	1524	396.81	1.2109e-06	1.2059e-06	455.74	151.49	129.28	44.43	1.225e-06	55.374	103.977	63.217	51.282	-8.547	83.048	88.567	-8.879	-4.320	125.878	95.643	-4.594	-0.109	0.190	4.805	121.581	3.868	-8191	255	
18967.191	1	1	0	0	0.057243	0.15727	0.064358	0.15395	0.05936	0.09823	0.28149	0.3739	0.096637	0.1264	0.11653	0.28143	0.29666	0.28346	0.22621	0.34553	-4.5104	-3.9208	-4.9771	-4.7604	-4.2146	-5.0479	-4.2667	-4.5708	-4.7083	-4.1667	-5.0771	-4.5479	-4.2458	-5.0229	-4.0271	-4.6104	160.097	110.286	203.797	289.172	248.162	32.852	275.006	327.745	146.366	310.846	316.576	337.790	315.321	307.431	118.770	320.121	0.00031364	0.000529	6.7479e-05	1524.7	4.4469e-06	5.0919e-06	1539.2	404.23	2.7137e-06	2.7876e-06	468.22	155.39	133.6	45.294	1.9097e-06	57.241	0.00011971	0.0001092	3.0343e-05	1499.1	1.2378e-06	1.1831e-06	1519.8	397.02	1.2071e-06	1.1995e-06	455.33	151.35	129.44	44.368	1.2257e-06	55.421	105.478	50.975	89.536	-8.719	112.853	117.765	-8.898	-4.168	183.567	152.932	-4.679	-0.133	0.543	5.089	98.786	4.145	-8191	255	
18967.287	1	1	0	0	0.2677	0.089119	0.26665	0.037643	0.18917	0.27125	0.28066	0.11907	0.090014	0.14878	0.27592	0.21832	0.076094	0.2076	0.25547	0.14267	-4.4479	-3.9792	-4.7271	-4.9271	-3.9625	-5.0375	-4.6188	-4.5771	-4.9208	-3.9479	-4.8729	-4.8854	-3.9646	-5.0125	-4.3688	-4.4479	108.443	325.900	205.221	229.627	-15.432	258.686	277.102	294.630	164.506	207.996	324.295	291.048	283.080	336.438	141.088	-10.020	0.00040267	0.00042428	0.00015548	1528.1	4.2415e-06	4.9659e-06	1547.6	404.6	3.3038e-06	7.1746e-06	469.05	155.74	133.26	45.635	3.6171e-06	57.031	0.00012012	0.00011148	3.0747e-05	1500.8	1.2315e-06	1.1916e-06	1522.2	397.53	1.2124e-06	1.1894e-06	455.21	151.59	129.38	44.417	1.2294e-06	55.356	99.256	62.486	8.966	-8.566	129.465	100.423	-8.776	-4.113	195.949	110.211	-4.593	-0.340	0.039	4.939	157.731	4.220	-8191	255	
18967.385	1	1	0	0	0.046736	0.10816	0.11885	0.12613	0.073173	0.22484	0.27539	0.05948	0.064349	0.098469	0.14445	0.12417	0.11437	0.18468	0.21486	0.171	-4.7042	-4.0437	-4.6583	-4.9	-4.025	-4.8146	-4.7729	-4.6083	-4.8854	-4.0312	-4.7083	-4.8896	-4.1458	-5.0167	-4.4729	-4.3167	115.173	118.692	103.620	0.682	132.661	93.028	-20.614	300.044	244.293	299.765	250.102	249.196	78.961	307.957	-18.656	269.316	0.00036545	0.00056822	0.00016772	1527.9	3.2702e-06	3.6463e-06	1544.6	404.09	3.5449e-06	4.7757e-06	471.35	155.17	133.8	45.307	4.1108e-06	57.011	0.00011972	0.00011043	3.0213e-05	1501.3	1.2316e-06	1.1955e-06	1521.5	396.95	1.2057e-06	1.1912e-06	455.82	151.63	129.46	44.391	1.2251e-06	55.32	91.686	29.358	30.374	-8.510	147.068	102.555	-8.806	-4.167	139.137	62.844	-4.618	-0.167	0.124	5.187	144.609	4.074	-8191	255	
18967.480	1	1	0	0	0.092441	0.13786	0.12268	0.26673	0.22052	0.15066	0.066293	0.2009	0.27856	0.094098	0.3301	0.16091	0.055339	0.26895	0.26797	0.21712	-4.7333	-4.1146	-4.5333	-4.9062	-3.9396	-4.8292	-4.8187	-4.4167	-4.8812	-4.2667	-4.4938	-5.0479	-4.1146	-4.9354	-4.5667	-4.2833	-4.246	32.422	13.313	291.103	170.521	248.284	191.331	223.150	107.650	62.374	315.262	281.399	6.725	314.361	209.699	324.511	0.00035538	0.00045431	8.6098e-05	1520.1	3.4759e-06	4.169e-06	1540.7	403.76	3.7069e-06	5.0366e-06	469.51	154.92	133.56	45.595	2.8399e-06	57.21	0.00012032	0.00011011	3.0511e-05	1499	1.2447e-06	1.1732e-06	1521	396.36	1.2127e-06	1.2212e-06	454.73	151.19	129.22	44.435	1.2056e-06	55.445	110.525	41.482	77.313	-8.449	92.048	68.475	-8.693	-4.321	176.320	108.296	-4.823	0.135	0.392	4.860	124.986	4.194	-8191	255	
18967.576	1	1	0	0	0.11742	0.037114	0.14147	0.23004	0.20965	0.15178	0.13937	0.28369	0.11465	0.083823	0.34124	0.082272	0.027709	0.129	0.10365	0.10937	-4.7	-4.2146	-4.4125	-5.2979	-3.9146	-4.7354	-4.9146	-4.3854	-5.0375	-4.2958	-4.4729	-4.975	-4.1708	-4.5813	-4.6896	-4.0479	172.234	217.985	258.345	-18.201	101.130	93.931	277.401	241.282	189.116	250.149	327.252	265.282	171.217	261.975	80.494	240.452	0.00039748	0.00041738	0.00011379	1523	3.0187e-06	3.8126e-06	1545.2	403.35	2.7925e-07	4.1807e-06	468.9	155.46	133.86	45.442	1.8533e-06	56.805	0.00011913	0.00011056	3.0735e-05	1499.6	1.2367e-06	1.206e-06	1522.2	396.58	1.2401e-06	1.1851e-06	454.19	151.47	129.55	44.427	1.2271e-06	55.232	96.358	46.123	53.142	-8.512	113.243	117.236	-8.783	-4.117	111.945	117.417	-4.639	-0.239	0.034	4.778	227.060	3.802	-8191	255	
18967.697	1	1	0	0	0.2179	0.12169	0.20478	0.071196	0.19273	0.28833	0.10292	0.064669	0.11434	0.24723	0.10926	0.27737	0.1747	0.12185	0.20682	0.1733	-4.7021	-4.4146	-4.1896	-5.175	-4.0625	-4.6396	-4.8979	-4.3	-4.9229	-4.4583	-4.4042	-5.0146	-4.2125	-4.7292	-4.8833	-4.1958	-12.923	9.146	231.528	302.097	231.191	152.783	237.645	328.082	286.086	150.731	269.752	190.602	117.041	306.802	35.608	237.521	0.00038927	0.00054534	0.00024488	1520	1.2776e-06	2.9126e-06	1546.1	402.81	1.7315e-06	2.7e-06	468.96	156.01	133.5	45.679	4.0015e-06	56.729	0.00012072	0.00010952	2.9998e-05	1500.4	1.2738e-06	1.2245e-06	1523.4	397.01	1.2438e-06	1.204e-06	455.15	151.86	129.47	44.508	1.2521e-06	55.313	94.546	79.508	15.401	-8.497	180.604	102.964	-8.715	-4.302	146.749	144.531	-4.516	0.034	0.406	4.690	121.963	4.099	-8191	255	
18967.793	1	1	0	0	0.14373	0.068638	0.037628	0.18293	0.14093	0.21447	0.27144	0.36264	0.062779	0.15398	0.19955	0.11485	0.15997	0.060715	0.29843	0.17309	-4.6792	-4.4833	-4.2063	-5.2521	-4.2375	-4.6458	-5.1833	-4.0479	-4.7958	-4.4938	-4.3458	-5.1208	-4.3354	-4.4896	-4.9833	-4.1562	145.817	5.819	310.287	281.074	14.261	56.813	236.402	305.545	110.877	192.554	290.222	8.431	327.194	60.170	322.473	337.230	0.00035881	0.00025579	0.00012643	1526.3	2.9754e-06	1.3504e-06	1550	403.46	3.3008e-06	7.2089e-06	469.53	155.55	133.72	45.456	1.9286e-06	56.93	0.00012415	0.00011259	3.0462e-05	1501.7	1.2714e-06	1.2306e-06	1525.7	396.74	1.239e-06	1.2207e-06	454.98	151.37	129.47	44.354	1.2154e-06	55.316	104.037	36.296	18.920	-8.461	83.915	116.400	-8.726	-4.282	153.755	97.923	-4.583	-0.117	0.340	4.864	172.252	4.198	-8191	255	
18967.887	1	1	0	0	0.24993	0.17644	0.077982	0.47225	0.055653	0.11598	0.2782	0.2896	0.074159	0.054304	0.28868	0.09618	0.049374	0.1558	0.15935	0.10006	-4.5938	-4.5896	-3.8438	-5.3438	-4.4	-4.2688	-5.1042	-4.2833	-4.6042	-4.7917	-4.1937	-5.0437	-4.3833	-4.525	-5.0167	-4.2188	225.902	21.884	329.020	299.185	78.576	135.821	272.266	293.446	21.431	-9.867	300.481	122.162	161.261	258.969	172.500	44.485	0.00036056	0.00027728	0.00015378	1525.9	2.925e-06	3.9766e-06	1544.3	403.44	3.0015e-06	3.6387e-06	468.44	155.16	133.39	45.693	5.3549e-06	56.743	0.00012088	0.00011108	3.0848e-05	1501.5	1.2346e-06	1.1936e-06	1523.2	396.87	1.2281e-06	1.1943e-06	455.34	151.5	129.4	44.426	1.1862e-06	55.271	91.877	58.566	-5.619	-8.661	118.484	164.667	-8.568	-4.303	191.362	99.299	-4.655	-0.198	0.273	4.750	118.854	3.985	-8191	255	
18968.008	1	1	0	0	0.085971	0.030541	0.3085	0.19997	0.13251	0.12374	0.13733	0.26027	0.089627	0.060262	0.25347	0.090099	0.25806	0.25773	0.065182	0.19014	-4.4521	-4.7604	-4.0083	-5.1083	-4.3792	-4.4708	-5.3229	-4.1208	-4.5833	-4.8812	-4.0792	-5.0563	-4.6146	-4.2125	-5.0875	-4.1312	192.632	199.236	314.594	259.750	180.500	-15.904	282.174	213.998	-5.319	200.611	-7.933	299.864	240.155	240.956	237.573	322.717	0.00044436	0.00072177	0.00013305	1524.1	2.1258e-06	5.6675e-06	1546.4	403.71	3.8364e-06	4.1535e-06	469.99	155.28	133.05	45.379	5.415e-06	57.213	0.0001195	0.0001103	3.086e-05	1499.4	1.2128e-06	1.1797e-06	1523.5	396.91	1.2239e-06	1.1718e-06	455.35	151.51	129.23	44.457	1.2195e-06	55.311	89.418	68.582	14.761	-8.752	67.446	98.112	-8.721	-4.273	162.894	107.396	-4.485	-0.116	0.387	5.037	122.433	4.154	-8191	255	
18968.080	1	1	0	0	0.062899	0.28438	0.048654	0.24879	0.078683	0.28685	0.14779	0.23309	0.032447	0.20071	0.20769	0.24062	0.13431	0.073792	0.072998	0.050202	-4.2104	-4.8958	-4.0271	-5.0458	-4.5958	-3.9458	-5.1896	-4.3458	-4.3333	-4.9042	-4.1917	-4.9667	-4.6937	-4.2375	-4.8792	-4.5479	135.773	180.636	156.270	260.668	32.336	306.307	281.391	264.710	152.055	129.911	275.431	315.183	159.380	69.966	103.118	111.885	0.0004556	0.00043332	0.00013692	1527.7	3.2831e-06	3.5641e-06	1544.8	403.48	2.1467e-06	3.4042e-06	469.91	155.31	133.8	45.573	6.1846e-06	57.003	0.00011937	0.00010997	3.081e-05	1501.1	1.2295e-06	1.2029e-06	1521.8	396.88	1.2253e-06	1.1851e-06	456.06	151.54	129.37	44.508	1.2079e-06	55.211	103.428	69.984	60.151	-8.515	112.857	122.729	-8.690	-4.116	109.335	83.191	-4.573	-0.400	0.202	4.892	141.742	4.075	-8191	255	
18968.176	1	1	0	0	0.10416	0.18329	0.010773	0.27723	0.12109	0.10865	0.16103	0.16353	0.24373	0.18823	0.10089	0.15001	0.12213	0.2317	0.13944	0.13897	-4.0563	-4.8458	-4.2542	-4.7937	-4.7146	-4.0625	-5.125	-4.4812	-4.2875	-5.1042	-4.1125	-4.775	-4.8833	-4.0979	-4.8313	-4.7271	28.006	268.580	161.817	280.812	39.888	58.150	274.906	239.827	106.559	320.514	315.447	257.735	312.377	10.799	52.205	-16.080	0.00042448	0.00016082	0.00015014	1523.3	5.3745e-06	3.1337e-06	1548.3	402.91	3.5066e-06	2.6177e-06	469.58	155.46	133.45	45.599	5.1681e-06	57.115	0.00012216	0.00011052	3.1003e-05	1499.8	1.2534e-06	1.2202e-06	1523.3	396.42	1.2453e-06	1.2075e-06	454.98	151.41	129.32	44.429	1.2349e-06	55.373	94.536	53.727	3.718	-8.658	103.542	103.378	-8.732	-4.204	102.632	166.301	-4.634	-0.157	0.184	4.791	117.165	4.098	-8191	255	
18968.271	1	1	0	0	0.18148	0.25626	0.09936	0.047251	0.10028	0.10077	0.27606	0.24636	0.1275	0.22896	0.15011	0.16758	0.19274	0.040519	0.14554	0.15765	-3.8208	-5.025	-4.1312	-4.6792	-4.8562	-3.9354	-5.0979	-4.7854	-4.1083	-4.9604	-4.2833	-4.6833	-5.1146	-4.2188	-4.7354	-4.6125	49.994	88.562	254.268	317.257	246.928	72.247	274.300	36.074	132.254	247.114	225.301	249.288	329.525	-6.962	-16.917	213.255	0.00043135	0.00036352	0.0001256	1525.8	2.4285e-06	2.2555e-06	1542.5	404.58	2.1259e-06	2.2804e-06	468.52	155.12	133.68	45.431	4.6438e-06	57.124	0.00012287	0.00010927	3.1254e-05	1502.4	1.2502e-06	1.2349e-06	1522.3	397.07	1.2565e-06	1.2191e-06	455.5	151.37	129.47	44.422	1.2334e-06	55.418	106.584	22.294	35.075	-8.640	139.974	127.101	-8.807	-3.895	130.536	108.189	-4.579	-0.406	-0.036	4.909	89.960	4.046	-8191	255	
18968.393	1	1	0	0	0.065332	0.033789	0.15954	0.17865	0.089972	0.20332	0.21193	0.41217	0.17384	0.12207	0.17555	0.18573	0.27552	0.23105	0.10782	0.29627	-3.8792	-5.0917	-4.2271	-4.6125	-4.9979	-4.0021	-5.0375	-4.7792	-3.9833	-4.9729	-4.4375	-4.3271	-4.9917	-4.0396	-4.6271	-4.9729	226.900	34.505	191.731	310.046	16.934	163.231	327.269	261.543	277.516	203.553	63.557	292.839	321.783	279.773	12.485	107.518	0.00038861	0.00044096	0.00011204	1529	2.7048e-06	1.0226e-06	1545.7	404.64	2.7547e-06	2.8789e-06	470.36	155.23	133.48	45.623	4.0849e-06	57.011	0.00012303	0.0001131	3.2215e-05	1504.2	1.2573e-06	1.2484e-06	1523.8	397.87	1.2824e-06	1.2547e-06	455.67	151.68	129.45	44.429	1.2765e-06	55.306	92.826	47.625	4.088	-8.757	108.060	90.655	-8.867	-4.027	120.483	126.560	-4.699	-0.374	0.223	4.869	99.038	4.213	-8191	255	
18968.488	1	1	0	0	0.043413	0.086322	0.18846	0.27277	0.035279	0.097491	0.20857	0.075756	0.037757	0.2121	0.24284	0.13016	0.14084	0.13908	0.10428	0.15099	-3.7229	-5.0417	-4.4333	-4.4292	-5.1271	-4.1062	-4.8396	-5.0083	-3.9208	-5.0729	-4.6	-4.3354	-5.1083	-4.3583	-4.4563	-4.8042	49.610	162.569	246.820	28.533	307.460	-4.319	254.086	326.981	266.949	271.514	287.763	174.130	260.505	77.946	103.869	274.101	0.00039388	0.00045106	0.00014589	1528.2	3.9467e-06	1.8807e-06	1546.9	404.52	3.8411e-06	4.1656e-06	469.13	155.2	133.48	45.512	7.3713e-06	56.893	0.00012689	0.00011497	3.2303e-05	1501.3	1.2851e-06	1.2578e-06	1523	397.47	1.2831e-06	1.2401e-06	455.31	151.62	129.58	44.446	1.277e-06	55.329	109.825	34.760	39.454	-8.771	145.873	113.853	-8.835	-3.986	114.302	79.683	-4.343	-0.484	0.274	5.018	127.595	4.348	-8191	255	
18968.586	1	1	0	0	0.16209	0.0236	0.019132	0.078417	0.044745	0.086822	0.14521	0.10847	0.24071	0.12805	0.091456	0.27998	0.14952	0.074858	0.079942	0.18645	-3.7083	-4.9083	-4.4854	-4.2479	-5.0271	-4.1958	-4.5625	-5.1167	-3.7396	-4.7104	-4.775	-4.175	-5.3	-4.4125	-4.2958	-5.1125	66.633	59.860	278.956	302.260	233.733	234.671	281.510	306.324	42.140	254.236	239.602	30.893	237.132	78.483	211.271	310.758	0.00037081	0.0002233	0.00016123	1528.1	3.3465e-06	4.9808e-06	1546.7	404.72	4.4026e-06	6.4568e-06	471.92	154.7	133.46	45.78	4.206e-06	57.241	0.00012543	0.00011578	3.2284e-05	1503.2	1.2894e-06	1.2627e-06	1523.5	397.45	1.2855e-06	1.2559e-06	455.89	151.53	129.82	44.581	1.2695e-06	55.473	100.626	77.513	11.110	-8.865	98.509	92.288	-8.825	-3.990	151.812	120.860	-4.267	-0.459	0.591	4.802	134.780	4.303	-8191	255	
18968.656	1	1	0	0	0.058485	0.14026	0.072983	0.10231	0.19996	0.15483	0.35257	0.12317	0.21246	0.14688	0.18453	0.2134	0.05364	0.080191	0.20625	0.17426	-3.7917	-4.7292	-4.7583	-4.1896	-4.9896	-4.4667	-4.5437	-5.175	-4.0813	-4.5563	-5.0188	-4.1708	-4.9292	-4.5125	-4.1312	-5.0854	41.238	165.558	46.731	257.741	269.642	228.956	292.732	298.448	309.165	317.342	270.892	7.275	315.644	278.739	-17.567	318.897	0.000421	0.0005722	0.00010107	1527.1	2.828e-06	7.483e-06	1550	402.9	4.5113e-06	4.524e-06	469.42	155.37	133.08	45.349	4.4459e-06	57.174	0.00012593	0.00011756	3.1666e-05	1502.6	1.2845e-06	1.2673e-06	1525.8	397.27	1.27e-06	1.2657e-06	455.75	151.54	129.47	44.436	1.2951e-06	55.426	95.916	72.595	37.214	-8.819	107.394	96.343	-8.871	-4.070	134.932	83.519	-4.573	-0.294	0.324	5.000	127.146	4.186	-8191	255	
18968.777	1	1	0	0	0.19739	0.096661	0.20032	0.10123	0.25476	0.11689	0.22162	0.17966	0.1447	0.12808	0.27096	0.16484	0.13277	0.20065	0.25903	0.18986	-3.6646	-4.5479	-4.875	-4.1583	-4.8708	-4.5167	-4.4125	-5.0875	-4.0854	-4.6375	-5.0604	-4.1333	-4.9896	-4.5208	-4.2438	-5.1708	103.237	232.856	-1.937	216.652	139.599	185.872	282.023	282.990	219.655	238.684	262.511	147.536	201.846	24.914	276.564	306.572	0.00048205	0.00023157	7.2142e-05	1528.4	3.8336e-06	4.2963e-06	1541.9	405.13	6.5382e-06	3.1195e-06	468.25	155.03	133.33	45.648	3.4879e-06	57.172	0.00012775	0.00011645	3.2116e-05	1503.8	1.3234e-06	1.2847e-06	1523.7	397.59	1.3214e-06	1.2963e-06	455.22	151.43	129.46	44.545	1.3053e-06	55.461	101.345	65.932	31.648	-8.732	123.038	115.956	-8.866	-4.057	135.468	126.507	-4.348	-0.413	0.459	4.805	113.282	4.089	-8191	255	
18968.873	1	1	0	0	0.10462	0.053537	0.35218	0.13377	0.16079	0.074399	0.1112	0.14271	0.066866	0.14739	0.13167	0.28738	0.13066	0.11966	0.19512	0.14461	-3.7458	-4.4146	-4.8125	-4.375	-4.7604	-4.5771	-4.3187	-5.1146	-4.3667	-4.3271	-5.2688	-4.2146	-4.9167	-4.6937	-4.0062	-5.2188	63.723	47.057	131.272	256.950	228.199	24.654	116.432	197.116	241.969	79.208	192.225	286.349	336.157	-0.562	289.087	337.547	0.00038598	0.00034435	0.00020786	1529.5	4.9002e-06	3.5994e-06	1544.8	403.42	4.5929e-06	3.7221e-06	468.36	154.73	133.75	45.535	6.4721e-06	57.033	0.00012855	0.00011619	3.2475e-05	1503.8	1.2991e-06	1.268e-06	1522.9	397.09	1.3232e-06	1.2932e-06	455.79	151.56	129.73	44.42	1.3129e-06	55.41	100.332	46.990	39.429	-8.602	126.436	85.114	-8.875	-4.254	138.014	86.504	-4.364	-0.240	0.022	4.863	151.668	3.996	-8191	255	
18968.969	1	1	0	0	0.18519	0.18656	0.081775	0.18375	0.2187	0.11928	0.245	0.17279	0.27931	0.15676	0.088517	0.20121	0.35317	0.23341	0.12253	0.38574	-4.1104	-4.2333	-5.0479	-4.3521	-4.6792	-4.7667	-4.2792	-5.1625	-4.5479	-4.3208	-5.175	-4.2104	-4.6958	-4.9437	-4.075	-4.8896	335.078	-17.017	53.836	299.409	108.895	294.958	277.860	219.113	142.808	287.117	125.363	267.339	247.978	-13.431	231.256	278.926	0.00045039	0.00040652	0.00016897	1528.2	6.3194e-06	1.4935e-06	1548.8	404.55	4.8622e-06	3.9549e-06	469.62	155.83	133.22	45.643	4.8478e-06	57.284	0.00013049	0.00011777	3.2746e-05	1503.5	1.3221e-06	1.2861e-06	1524.8	397.91	1.3172e-06	1.2837e-06	455.85	151.85	129.65	44.507	1.3182e-06	55.566	98.890	36.067	60.026	-8.796	98.121	111.912	-8.852	-4.100	82.278	90.841	-4.711	-0.136	0.096	4.913	124.677	4.240	-8191	255	
18969.088	1	1	0	0	0.097934	0.065355	0.16364	0.23606	0.075453	0.14486	0.23756	0.14341	0.15321	0.12195	0.060423	0.068017	0.28662	0.23728	0.038197	0.16377	-4.325	-4.1583	-5.0813	-4.3729	-4.5771	-4.8854	-4.2729	-5.075	-4.4479	-4.1354	-5.2125	-4.4271	-4.5938	-4.9542	-4.0875	-5.0083	137.692	261.396	105.830	323.451	79.763	-17.203	256.130	278.484	228.635	296.750	255.926	82.035	303.353	291.913	156.903	7.928	0.00041895	0.00014821	0.00015646	1529	1.2514e-06	3.424e-06	1543.5	403.06	4.6129e-07	6.2059e-06	470.66	156.36	133.87	45.35	5.3655e-06	57.144	0.00012812	0.00011976	3.2755e-05	1504.3	1.3166e-06	1.2932e-06	1524.8	397.56	1.3478e-06	1.3243e-06	456.1	151.74	129.9	44.477	1.3327e-06	55.516	87.540	3.727	12.683	-8.625	115.752	135.980	-8.707	-4.200	102.048	117.748	-4.568	-0.243	0.290	4.895	157.345	3.946	-8191	255	
18969.184	1	1	0	0	0.03057	0.073574	0.17093	0.19885	0.11107	0.088348	0.18784	0.20275	0.19123	0.22411	0.10574	0.1142	0.15662	0.22834	0.12104	0.090403	-4.4375	-4.1083	-5.0687	-4.6646	-4.4271	-4.9771	-4.3146	-4.8083	-4.8125	-4.0646	-5.1833	-4.3604	-4.4146	-5.1125	-4.1188	-4.7875	98.509	194.448	-17.103	310.289	217.384	112.043	324.079	317.831	278.222	147.929	-20.621	318.199	233.240	324.308	322.268	212.413	0.00034053	0.00039683	6.4008e-05	1524.7	5.338e-06	4.4468e-06	1546.6	403.72	2.6138e-06	3.1349e-06	471.11	155.51	133	45.551	5.8129e-06	57.069	0.00012943	0.00011952	3.3119e-05	1505	1.3216e-06	1.3025e-06	1525.3	397.65	1.3317e-06	1.3005e-06	456.02	151.71	129.55	44.592	1.3285e-06	55.455	90.274	76.001	58.434	-8.723	166.948	132.411	-8.595	-4.224	119.734	96.240	-4.806	-0.253	0.411	4.977	101.173	4.200	-8191	255	
18969.258	1	1	0	0	0.17236	0.15685	0.15096	0.15858	0.16185	0.14007	0.26076	0.3837	0.13152	0.28627	0.25201	0.081242	0.21175	0.16133	0.26566	0.38109	-4.55	-4.0833	-5.0104	-4.4854	-4.1542	-5.0042	-4.2208	-4.6729	-4.925	-4.0188	-5.0875	-4.5979	-4.2937	-5.1188	-4.3292	-4.4896	66.863	95.839	335.712	273.062	121.801	274.541	278.334	314.074	44.753	316.672	263.905	-11.883	211.079	1.368	45.909	262.786	0.00038542	0.00058846	0.00018526	1528.8	4.6435e-06	4.3649e-06	1544.1	405.25	4.3494e-06	3.6317e-06	468.22	154.84	132.83	45.52	5.6766e-06	57.205	0.00013087	0.0001205	3.3229e-05	1504	1.3292e-06	1.3011e-06	1523.6	398.53	1.3229e-06	1.301e-06	456.05	151.47	129.52	44.44	1.3387e-06	55.541	102.666	24.040	35.289	-8.634	108.875	86.300	-8.921	-4.291	137.852	133.039	-4.690	-0.200	0.165	4.999	101.461	4.039	-8191	255	
18969.377	1	1	0	0	0.26528	0.055099	0.12082	0.18572	0.13109	0.11457	0.21282	0.089416	0.28788	0.14833	0.16681	0.08017	0.15984	0.22022	0.1074	0.13501	-4.6958	-3.9958	-4.8438	-4.8479	-4.2271	-5.0604	-4.3833	-4.4854	-4.9812	-3.8854	-4.9938	-4.7208	-4.15	-5.0167	-4.3771	-4.4979	9.557	192.346	153.736	317.954	279.053	326.301	-3.717	51.192	320.459	89.524	302.546	15.630	287.493	72.410	136.847	199.409	0.0003683	0.00031786	7.8417e-05	1526.2	3.7659e-06	2.9775e-06	1547.9	405.17	4.596e-06	2.1317e-06	471.62	155.53	133.45	45.788	3.9638e-06	57.124	0.00013041	0.00012168	3.3789e-05	1504.3	1.3335e-06	1.2813e-06	1527.3	397.99	1.3253e-06	1.3112e-06	456.16	151.79	129.43	44.59	1.3214e-06	55.46	94.804	54.310	36.249	-8.611	121.460	114.576	-8.898	-4.025	136.075	105.367	-4.524	-0.236	0.094	4.940	152.803	3.938	-8191	255	
18969.473	1	1	0	0	0.14322	0.17287	0.21368	0.23914	0.15495	0.16753	0.18428	0.068205	0.12071	0.32109	0.19631	0.28258	0.12907	0.066735	0.075887	0.11449	-4.825	-4.0708	-4.725	-4.9771	-3.9125	-4.9479	-4.6729	-4.3562	-4.9521	-4.0833	-4.6167	-4.9521	-4.2	-4.9875	-4.5104	-4.275	206.121	-17.710	141.220	292.337	332.076	87.198	220.645	222.965	157.513	8.128	312.790	284.568	309.414	322.609	17.508	230.414	0.00041135	0.00050021	0.0001948	1525.9	4.9031e-06	5.2307e-06	1544.1	405.23	2.455e-06	5.9397e-06	471.24	155.56	133.14	45.685	4.4266e-06	57.157	0.00013024	0.00012011	3.3386e-05	1503	1.3435e-06	1.2819e-06	1524.8	398.43	1.3313e-06	1.3255e-06	456.08	151.81	129.59	44.521	1.3138e-06	55.456	96.691	56.541	30.768	-8.624	122.655	63.519	-8.846	-4.124	187.013	95.274	-4.581	-0.347	0.181	4.809	123.259	3.759	-8191	255	
18969.568	1	1	0	0	0.16542	0.041384	0.13598	0.17692	0.05977	0.14847	0.30023	0.11978	0.020921	0.12675	0.14063	0.20353	0.19091	0.1476	0.26782	0.036483	-4.6583	-4.1521	-4.5771	-5.0896	-3.9458	-4.9208	-4.7729	-4.1854	-5.0188	-4.0417	-4.4375	-4.9771	-4.0146	-5.0104	-4.3729	-4.2771	70.802	228.726	277.330	-17.413	84.340	256.568	254.117	228.211	194.526	40.424	299.906	273.523	235.033	256.289	327.438	72.615	0.00038044	0.00046428	5.7622e-05	1527.1	2.6967e-06	3.0116e-06	1546.3	403.96	1.9753e-06	5.7597e-06	471.01	155.69	133.64	45.585	2.1119e-06	57.01	0.00013055	0.0001195	3.2904e-05	1504.9	1.337e-06	1.3211e-06	1524.6	397.56	1.3463e-06	1.3146e-06	456.1	152	129.5	44.451	1.3354e-06	55.452	103.559	58.297	128.329	-8.516	97.397	107.764	-8.813	-3.938	143.013	88.397	-4.667	-0.226	0.174	4.931	173.994	3.838	-8191	255	
18969.689	1	1	0	0	0.11232	0.12482	0.041318	0.18186	0.17763	0.12989	0.11499	0.26933	0.075729	0.19093	0.11888	0.13918	0.059729	0.33278	0.27032	0.11285	-4.6687	-4.1937	-4.3146	-5.0833	-4.025	-4.8479	-4.8562	-4.2042	-5.125	-4.2208	-4.4458	-5.1042	-4.1979	-4.8438	-4.7292	-4.2229	118.767	-2.110	319.455	301.878	329.588	196.589	239.087	262.134	204.464	62.092	65.965	286.205	150.420	288.644	128.655	309.369	0.00039757	0.00041419	0.00019568	1533.6	7.7596e-07	4.1549e-06	1542.2	404.6	2.2272e-06	6.0411e-06	469.27	154.6	133.81	45.686	2.6018e-06	56.983	0.00013248	0.00012203	3.3142e-05	1506.3	1.3572e-06	1.2834e-06	1524.3	397.36	1.3292e-06	1.309e-06	456.1	151.67	129.64	44.553	1.3223e-06	55.348	83.101	41.336	51.538	-8.636	81.860	122.833	-8.752	-4.230	151.407	116.017	-4.697	-0.413	0.091	4.724	178.081	4.198	-8191	255	
18969.785	1	1	0	0	0.3816	0.21127	0.15552	0.21128	0.17141	0.20459	0.25953	0.29077	0.089101	0.23996	0.073947	0.18556	0.24898	0.32047	0.17007	0.032525	-4.5625	-4.3375	-4.2417	-5.2208	-3.9417	-4.6333	-4.9708	-4.225	-4.9729	-4.4646	-4.3125	-5.0958	-4.1562	-4.6188	-4.9833	-4.2229	222.109	31.927	147.907	276.278	123.842	290.350	277.686	283.839	-1.183	336.671	271.578	69.175	279.274	305.240	282.279	317.496	0.00049245	0.00036969	0.00010061	1530.8	6.7187e-06	2.4592e-06	1553.5	404.4	1.6364e-06	2.0992e-06	471.39	155.14	133.19	45.652	2.983e-06	57.045	0.00012977	0.00012086	3.3507e-05	1505.8	1.3479e-06	1.2998e-06	1529.3	397.97	1.3189e-06	1.3007e-06	456.26	151.67	129.74	44.507	1.2895e-06	55.416	86.447	33.409	65.507	-8.645	119.399	101.046	-8.743	-4.125	110.521	72.629	-4.515	-0.292	0.435	4.755	159.153	3.973	-8191	255	
18969.881	1	1	0	0	0.15988	0.14811	0.10051	0.19455	0.19024	0.15231	0.41459	0.21085	0.18776	0.2311	0.26179	0.15401	0.23051	0.24794	0.1844	0.21369	-4.7417	-4.4229	-4.0083	-5.3812	-4.2354	-4.3708	-5.1125	-4.2229	-4.7583	-4.7688	-4.1958	-5.2604	-4.2792	-4.4688	-4.9125	-3.9625	212.721	124.839	215.118	7.974	-19.122	236.253	244.498	245.482	3.442	86.821	12.037	296.029	98.824	302.816	336.632	154.892	0.00034611	0.00056703	0.00019035	1529.2	1.9513e-06	4.054e-06	1546.6	404.78	1.5828e-06	2.6631e-06	469.1	155.18	133.91	45.708	6.609e-06	57.047	0.00012975	0.0001193	3.3199e-05	1505.6	1.337e-06	1.2871e-06	1527.1	398.47	1.3234e-06	1.2994e-06	456.06	151.84	129.82	44.515	1.2925e-06	55.405	96.901	20.237	31.849	-8.417	129.875	121.387	-8.596	-4.063	124.695	70.903	-4.606	-0.146	0.300	4.778	139.417	4.292	-8191	255	
18969.953	1	1	0	0	0.0769	0.16581	0.088963	0.23132	0.15061	0.10408	0.20174	0.069467	0.12529	0.021499	0.36787	0.21134	0.095493	0.096695	0.12863	0.19376	-4.4083	-4.6229	-4.1042	-5.225	-4.3625	-4.2	-5.4625	-4.1708	-4.75	-4.7604	-4.2521	-5.1167	-4.4104	-4.2958	-4.8896	-4.1854	141.677	280.776	267.931	-17.024	180.893	50.670	212.124	233.829	265.351	269.609	291.273	246.023	84.549	29.701	120.264	264.887	0.00039906	0.00035028	0.00013071	1528.2	3.3686e-06	5.2738e-06	1554	404.66	2.4545e-06	3.9785e-06	467.98	155.56	134.73	45.929	3.8566e-06	57.664	0.00012983	0.00011772	3.3048e-05	1506.9	1.343e-06	1.3038e-06	1530.7	398	1.3178e-06	1.2775e-06	455.31	151.72	129.92	44.584	1.2925e-06	55.538	104.606	41.628	46.824	-8.557	155.623	98.250	-8.711	-4.092	129.478	95.262	-4.409	-0.213	-0.319	3.973	145.030	3.594	-8191	255	
18970.051	1	1	0	0	0.091871	0.084257	0.13803	0.39722	0.18721	0.095997	0.28176	0.36873	0.16658	0.1988	0.13399	0.19549	0.1196	0.16267	0.15031	0.24756	-4.1833	-4.775	-4.0771	-5.0021	-4.6083	-4.1917	-5.2208	-4.3021	-4.4958	-4.8125	-4.2417	-4.9021	-4.6625	-4.2979	-5.0146	-4.2167	50.496	70.452	21.141	303.993	276.031	174.841	264.362	213.952	83.578	82.429	271.789	269.443	229.007	320.832	59.257	76.706	0.00035305	0.00033995	0.00018652	1541.3	4.2747e-06	3.8428e-06	1565	406.87	3.9255e-06	4.8764e-06	472.91	156.33	134.23	45.72	4.0781e-06	57.535	0.00012774	0.00011686	3.2499e-05	1510.2	1.296e-06	1.296e-06	1530.8	398.15	1.3058e-06	1.264e-06	456.86	152.1	129.89	44.513	1.277e-06	55.51	95.654	103.051	21.735	-9.675	108.204	109.407	-9.707	-4.976	141.799	87.241	-5.647	-1.133	-0.404	3.935	124.418	3.511	-8191	255	
18970.170	1	1	0	0	0.039242	0.11342	0.082106	0.27143	0.18749	0.045606	0.38383	0.14564	0.29253	0.076601	0.14139	0.097609	0.084643	0.15545	0.17216	0.36892	-4.0375	-4.9938	-4.0062	-5.0458	-4.6833	-3.9979	-5.1875	-4.325	-4.1771	-4.925	-4.1458	-4.7854	-4.8229	-4.2063	-5.0417	-4.4958	158.439	98.272	225.211	313.016	222.741	267.841	284.702	270.398	272.881	285.603	218.652	255.331	39.048	315.452	322.507	235.534	0.000336	0.00038513	0.00013339	1541.2	3.8464e-06	4.7696e-06	1558.3	407	4.6337e-06	5.852e-06	473.38	156.91	134.5	45.755	3.2183e-06	57.624	0.00012747	0.00011452	3.2469e-05	1510	1.3059e-06	1.2907e-06	1531.2	398.55	1.2797e-06	1.2537e-06	457.05	152.12	129.96	44.59	1.2718e-06	55.536	96.535	71.915	33.352	-9.470	95.472	112.252	-9.809	-4.813	152.135	99.809	-5.699	-1.315	-0.523	4.094	75.387	3.604	-8191	255	
18970.266	1	1	0	0	0.15959	0.1406	0.223	0.29043	0.02889	0.16004	0.2265	0.23165	0.14063	0.10007	0.052844	0.18659	0.10705	0.22611	0.050883	0.078275	-3.8896	-4.9187	-4.0375	-5.0271	-4.8354	-3.9792	-5.2812	-4.5979	-4.1729	-5.0958	-4.2021	-4.7729	-4.8	-3.9771	-4.9833	-4.6188	122.181	212.235	53.068	-7.081	291.978	249.900	283.865	273.927	101.294	45.303	128.660	226.146	-21.613	17.260	29.905	173.468	0.0004056	0.00036807	0.00018779	1543	2.6788e-06	2.0938e-06	1555.6	406.12	4.2155e-06	5.0843e-06	469.41	155.89	133.57	45.792	3.1502e-06	57.135	0.00012717	0.00011538	3.2353e-05	1510.4	1.3047e-06	1.2843e-06	1529	398.62	1.2888e-06	1.2601e-06	455.75	152.13	129.74	44.538	1.2949e-06	55.468	98.412	1.556	33.575	-9.620	84.616	127.939	-9.302	-4.587	93.849	77.197	-4.465	-0.109	0.444	4.776	154.502	4.026	-8191	255	
18970.361	1	1	0	0	0.2148	0.16706	0.16166	0.12949	0.20749	0.14334	0.16517	0.08293	0.096007	0.10364	0.038197	0.054678	0.08221	0.047012	0.038588	0.23217	-3.9479	-5.2354	-4.2875	-4.8812	-5.0208	-4.0604	-5.1375	-4.8458	-4.1625	-4.9688	-4.4563	-4.5521	-5.1333	-4.175	-4.7708	-4.9187	219.218	103.143	89.226	314.418	164.295	286.986	265.611	51.638	159.898	6.168	212.060	315.031	155.124	85.046	309.936	292.901	0.00032312	0.00051318	0.00010282	1539.3	3.3778e-06	2.1718e-06	1561.1	407.01	2.5985e-06	5.7089e-06	473.66	156.37	135.03	45.68	2.3247e-06	57.086	0.00012636	0.00011635	3.3063e-05	1510.2	1.2954e-06	1.2772e-06	1531.3	399.1	1.3022e-06	1.2511e-06	457.56	151.86	130.11	44.493	1.2861e-06	55.392	111.956	35.614	56.954	-9.452	163.043	125.543	-9.834	-5.005	161.254	83.068	-5.384	-0.949	-0.202	4.139	143.912	3.374	-8191	255	
18970.457	1	1	0	0	0.1314	0.11856	0.16101	0.22815	0.20664	0.11371	0.14823	0.23783	0.090115	0.24292	0.28622	0.23655	0.24266	0.20943	0.11648	0.31651	-3.8417	-4.8938	-4.3833	-4.5271	-4.9792	-4.1083	-4.9958	-4.8833	-4.0333	-5.1229	-4.4563	-4.4167	-5.1604	-4.3313	-4.6	-5.05	44.742	16.078	315.037	286.382	24.294	46.906	309.188	291.409	46.021	160.760	212.307	229.373	-21.273	324.639	16.444	226.374	0.0004	0.0005027	0.00014227	1543.7	4.0185e-06	4.1999e-06	1561	408.01	3.9014e-06	3.8021e-06	474.34	156	134.76	45.62	4.5052e-06	57.184	0.00012804	0.00011527	3.2182e-05	1511.1	1.2949e-06	1.2591e-06	1530.2	399.22	1.2961e-06	1.2576e-06	457.44	152.1	129.97	44.489	1.2531e-06	55.415	90.172	37.275	-15.867	-9.747	142.315	104.165	-9.620	-4.906	150.461	119.689	-5.085	-1.034	-0.155	4.191	89.888	3.590	-8191	255	
18970.553	1	1	0	0	0.070836	0.17052	0.12292	0.36503	0.23595	0.06475	0.17491	0.14754	0.048697	0.098637	0.14897	0.21691	0.11164	0.15926	0.11104	0.14898	-3.8708	-4.9875	-4.5375	-4.4375	-5.0417	-4.2646	-4.9125	-4.9042	-4.0271	-4.875	-4.6917	-4.3375	-5.1438	-4.3146	-4.4292	-4.9958	-22.055	125.464	219.952	296.462	21.819	199.079	245.842	259.964	159.615	123.805	192.016	-18.026	259.287	172.744	86.715	256.178	0.00034441	0.00057994	0.00014954	1535.8	1.2283e-06	2.1018e-06	1550.5	405.33	2.7845e-06	7.001e-06	472.4	155.8	133.9	45.586	3.6884e-06	57.429	0.00012708	0.00011273	3.1857e-05	1509.8	1.2685e-06	1.2239e-06	1528.7	398.32	1.2724e-06	1.2319e-06	456.99	151.81	130.07	44.539	1.2277e-06	55.398	98.528	51.360	43.734	-9.080	165.518	111.629	-9.289	-4.461	105.934	99.899	-4.872	-0.537	-0.091	4.899	142.021	4.074	-8191	255	
18970.648	1	1	0	0	0.14537	0.081655	0.17107	0.12516	0.14403	0.1577	0.21879	0.18655	0.26683	0.12738	0.37747	0.057004	0.037024	0.0010405	0.23972	0.14946	-3.7792	-4.9104	-4.5083	-4.3917	-5.0958	-4.2875	-4.6458	-5.1229	-4.0354	-4.8396	-4.8229	-4.175	-5.2604	-4.4146	-4.5687	-5.1854	39.265	67.741	73.078	-4.740	100.858	220.341	269.433	319.396	337.140	-3.186	268.882	179.041	322.459	180.000	114.056	143.108	0.00045836	0.00032274	0.00021479	1538.7	3.1196e-06	5.226e-06	1549.9	406.45	2.7204e-06	3.298e-06	471.27	154.85	133.9	45.587	4.0438e-06	57.025	0.00012243	0.00011048	3.0694e-05	1509.1	1.2388e-06	1.2227e-06	1530	398.45	1.2232e-06	1.1986e-06	457.21	151.67	129.77	44.493	1.1927e-06	55.429	94.073	78.602	39.615	-9.068	92.915	90.672	-9.150	-4.479	117.151	122.971	-4.751	-0.504	0.217	4.803	92.214	4.241	-8191	255	
18970.770	1	1	0	0	0.071709	0.15972	0.082841	0.2403	0.093385	0.2307	0.084897	0.092231	0.13913	0.14884	0.052466	0.38789	0.33215	0.04631	0.1796	0.059306	-3.7917	-4.675	-4.8438	-4.1792	-5.15	-4.4854	-4.5583	-5.1875	-4.1083	-4.8042	-4.9417	-4.1458	-5.1333	-4.6229	-4.3167	-5.0958	33.353	76.635	211.304	218.616	319.690	197.559	244.569	239.599	154.906	320.879	25.933	293.923	252.911	286.379	230.274	246.940	0.00037848	0.00065583	0.00017534	1533.9	3.7591e-06	3.9623e-06	1553.1	405.65	3.3929e-06	2.8426e-06	470.8	155.52	133.47	45.676	4.3322e-06	57.073	0.00012033	0.00010896	3.0388e-05	1510	1.2149e-06	1.1742e-06	1530	398.63	1.2151e-06	1.1712e-06	455.84	151.88	129.65	44.528	1.1997e-06	55.332	100.018	13.716	23.070	-8.541	73.874	113.189	-8.899	-4.222	134.917	71.006	-4.258	-0.580	0.480	5.279	73.043	4.039	-8191	255	
18970.865	1	1	0	0	0.092037	0.20826	0.12502	0.11291	0.10803	0.25528	0.0064146	0.26802	0.082525	0.17279	0.12303	0.31776	0.12792	0.14833	0.13986	0.096935	-3.8	-4.6958	-4.9417	-4.2271	-4.875	-4.6188	-4.3771	-5.2438	-4.2708	-4.5104	-5.0813	-4.1771	-4.975	-4.6229	-4.0687	-5.2458	98.514	11.379	-5.276	260.733	261.883	64.413	335.634	316.892	199.761	186.554	193.108	266.775	-9.332	318.107	26.988	263.313	0.00039254	0.00045027	0.00018127	1530.8	3.1024e-06	3.3267e-06	1551.1	404.1	2.4705e-06	5.1495e-06	469.62	155.26	133.53	45.789	5.2927e-06	57.2	0.00012018	0.00010534	2.9592e-05	1509.4	1.198e-06	1.2063e-06	1528.4	397.78	1.1931e-06	1.166e-06	456.25	151.64	129.62	44.589	1.1908e-06	55.462	96.610	9.877	41.327	-8.689	30.937	107.902	-8.820	-4.039	98.334	107.090	-4.472	-0.115	0.467	4.837	84.369	4.260	-8191	255	
18970.961	1	1	0	0	0.33007	0.25099	0.15383	0.31891	0.041115	0.064442	0.11825	0.18605	0.17207	0.036918	0.28074	0.026431	0.14678	0.050389	0.17134	0.12694	-4.0167	-4.45	-5.0104	-4.3958	-4.7958	-4.7458	-4.35	-5.3229	-4.4	-4.3521	-5.1958	-4.0354	-4.8771	-4.9125	-3.9458	-5.1542	64.312	102.418	189.064	318.759	322.527	250.172	305.625	263.263	234.449	76.133	238.925	226.888	282.144	82.429	106.453	237.853	0.00035237	0.00055198	0.00016877	1530.1	5.2737e-06	1.8435e-06	1553	405.43	3.9353e-06	5.9474e-06	472.42	156.02	133.85	45.732	2.1019e-06	57.22	0.00011807	0.00010649	2.939e-05	1506.5	1.219e-06	1.1714e-06	1528.6	398.46	1.195e-06	1.1733e-06	456.72	151.8	129.59	44.516	1.1976e-06	55.393	99.599	65.429	41.163	-8.535	76.356	106.974	-8.881	-4.012	130.829	114.093	-4.705	-0.122	0.356	5.099	97.404	4.423	-8191	255	
18971.059	1	1	0	0	0.19806	0.13669	0.12212	0.26494	0.12392	0.091418	0.18841	0.1156	0.16883	0.073545	0.089808	0.31754	0.14439	0.10884	0.22123	0.15168	-3.975	-4.3375	-5.0813	-4.3708	-4.7083	-4.7875	-4.2875	-5.0375	-4.45	-4.2229	-5.2188	-4.1687	-4.6062	-5.0979	-4.1062	-5.075	104.468	261.596	127.710	265.007	52.866	180.969	326.143	249.129	215.753	94.219	-10.547	309.118	-16.987	138.909	148.150	256.033	0.00035563	0.00052926	0.0001358	1534.5	4.8363e-06	4.5422e-06	1553.4	405.95	4.4129e-06	8.6997e-07	469.81	156.13	134.63	45.579	4.8703e-06	57.595	0.00011966	0.00010907	3.0396e-05	1508.7	1.2209e-06	1.1883e-06	1531.1	398.57	1.2087e-06	1.1981e-06	455.91	151.81	129.93	44.489	1.2218e-06	55.495	93.746	18.859	36.075	-8.652	140.218	112.364	-8.915	-3.970	143.343	159.532	-4.465	-0.290	0.338	5.146	117.363	4.316	-8191	255	
18971.178	1	1	0	0	0.074089	0.037951	0.14874	0.066808	0.091351	0.20104	0.19845	0.35671	0.11259	0.077596	0.084296	0.21762	0.09726	0.14435	0.18099	0.12662	-4.2979	-4.1813	-4.9854	-4.3771	-4.5229	-4.9229	-4.2812	-5.0167	-4.6896	-4.1146	-5.0875	-4.2833	-4.5687	-5.0021	-4.075	-4.9542	240.681	303.257	286.722	287.677	15.581	116.078	306.314	304.910	90.081	228.807	-4.278	134.870	227.758	285.537	71.066	-13.535	0.00037846	0.00039677	8.8798e-05	1537.1	4.9237e-06	4.0608e-06	1554.7	405.39	3.0633e-06	4.7691e-06	471.24	155.16	133.49	45.594	3.5241e-06	57.053	0.00011952	0.00010997	3.0451e-05	1509.8	1.2255e-06	1.1922e-06	1529.6	398.33	1.2234e-06	1.1936e-06	457.03	151.56	129.61	44.484	1.2291e-06	55.449	107.839	62.492	73.035	-8.822	128.212	115.367	-8.843	-4.108	128.796	109.143	-4.841	-0.127	0.420	4.787	128.284	4.212	-8191	255	
18971.248	1	1	0	0	0.15172	0.04525	0.083391	0.38421	0.20809	0.36274	0.24894	0.081611	0.20478	0.10345	0.2402	0.20799	0.069973	0.044566	0.036392	0.0062724	-4.3917	-4.0542	-5.1229	-4.5208	-4.2083	-4.8646	-4.3812	-4.9521	-4.7375	-4.0625	-5.0687	-4.5542	-4.2292	-5.0646	-4.1417	-4.7896	160.356	193.674	180.013	-3.592	-18.605	327.649	39.382	310.224	20.786	-3.765	288.176	66.430	51.931	329.718	97.088	4.958	0.00041533	0.00073954	0.00021583	1534.8	3.6972e-06	3.4241e-06	1549.3	403.76	8.8376e-07	4.1112e-06	472.32	156.32	133.41	45.809	3.6799e-06	57.356	0.0001202	0.00011331	3.0897e-05	1510.9	1.2312e-06	1.2134e-06	1529.3	398.16	1.2386e-06	1.2266e-06	457.65	151.9	129.77	44.512	1.2309e-06	55.57	92.298	61.388	33.998	-8.583	103.764	114.460	-9.062	-4.152	47.546	131.918	-4.590	-0.187	0.063	5.106	151.344	4.224	-8191	255	
18971.346	1	1	0	0	0.16883	0.13243	0.040418	0.22353	0.15202	0.11417	0.14095	0.29586	0.20721	0.16728	0.084394	0.18057	0.17255	0.18713	0.061377	0.21366	-4.5396	-3.9313	-5.0437	-4.6375	-4.15	-4.95	-4.3833	-4.7604	-4.8625	-4.1521	-4.9812	-4.7729	-4.2667	-5.0958	-4.0708	-4.625	53.553	163.469	62.481	-6.236	221.404	-15.003	114.223	274.087	184.924	292.159	-1.369	259.769	306.767	305.021	37.901	263.820	0.00037114	0.00053527	7.3295e-05	1525.8	3.1645e-06	2.9532e-06	1552.9	404.78	3.1046e-06	4.6478e-06	471.06	156.15	133.38	45.682	4.0677e-06	57.347	0.00012186	0.00011098	3.0436e-05	1505.3	1.2378e-06	1.2048e-06	1529.2	398.61	1.2356e-06	1.1933e-06	456.75	151.95	129.82	44.506	1.2286e-06	55.47	93.422	86.738	42.701	-8.688	145.901	118.229	-8.804	-4.202	126.730	125.909	-4.523	-0.102	0.258	5.089	82.239	3.842	-8191	255	
18971.467	1	1	0	0	0.22709	0.061227	0.098401	0.11491	0.058796	0.17804	0.28149	0.17157	0.17944	0.23978	0.23636	0.098581	0.11941	0.035201	0.096053	0.19727	-4.6875	-3.9917	-4.7646	-4.8458	-4.2771	-5.1708	-4.5125	-4.5813	-4.9354	-4.15	-4.9979	-4.6729	-4.2438	-5.1792	-4.3938	-4.5229	195.063	78.999	89.208	333.996	304.843	124.334	240.717	-11.549	260.755	334.717	-6.983	309.529	-3.867	187.474	329.527	300.440	0.0004086	0.00031865	0.00014967	1531.4	3.5103e-06	2.703e-06	1556	406.45	2.9779e-06	4.4281e-06	470.8	155.79	133.1	45.536	4.5347e-06	57.067	0.00012266	0.00011314	3.1115e-05	1506.8	1.2634e-06	1.2116e-06	1528.7	398.93	1.2606e-06	1.2375e-06	456.69	151.93	129.7	44.465	1.2308e-06	55.42	93.109	60.637	57.014	-8.534	81.318	133.704	-8.860	-4.278	135.608	132.542	-4.780	-0.137	0.293	5.160	148.669	4.211	-8191	255	
18971.562	1	1	0	0	0.0042823	0.12659	0.16026	0.13347	0.23147	0.17162	0.23478	0.17704	0.12565	0.18715	0.2652	0.16369	0.10169	0.055248	0.16509	0.13955	-4.6604	-3.9	-4.6646	-4.9396	-3.9708	-4.8938	-4.6	-4.3896	-5.0708	-4.1396	-4.7125	-4.8562	-4.0229	-5.0417	-4.5021	-4.2104	318.038	221.055	116.355	282.776	333.955	163.363	203.533	266.877	108.277	-15.973	-14.728	288.220	182.466	141.576	128.487	264.873	0.0004467	0.00055794	0.00014198	1526.8	4.2467e-06	2.5394e-06	1551.7	403.79	4.9576e-06	5.425e-06	471.61	155.01	133.59	45.675	5.0405e-06	57.017	0.00012233	0.00011402	3.1255e-05	1507.7	1.2589e-06	1.2165e-06	1530.1	397.86	1.27e-06	1.244e-06	457.52	151.64	129.78	44.544	1.236e-06	55.419	109.992	16.331	51.653	-8.658	91.006	123.360	-8.645	-4.318	119.649	103.494	-4.648	-0.280	0.182	5.299	114.918	4.175	-8191	255	
18971.658	1	1	0	0	0.11052	0.10992	0.16647	0.11492	0.21791	0.16316	0.10963	0.30785	0.18764	0.1107	0.38436	0.25084	0.22259	0.20543	0.022227	0.23901	-4.8646	-4.0375	-4.5854	-5.1771	-4.0458	-4.8438	-4.7958	-4.2396	-4.9792	-4.2188	-4.5938	-5.0417	-4.1417	-5.1375	-4.6438	-4.2125	-4.611	81.412	133.808	291.125	190.053	-0.941	299.732	24.028	311.197	179.360	-4.014	-6.872	-3.807	337.702	250.251	285.130	0.00036615	0.00042872	8.4584e-05	1535	5.0819e-06	2.6745e-06	1552.7	405.14	4.217e-06	3.9434e-06	472.03	155.46	134.11	45.625	8.3138e-06	57.266	0.00012178	0.00011434	3.1181e-05	1509.8	1.2701e-06	1.2046e-06	1528.1	398.26	1.2422e-06	1.2075e-06	456.63	151.96	129.84	44.535	1.2044e-06	55.421	92.819	28.590	48.510	-8.791	135.091	158.768	-8.861	-4.082	133.484	121.784	-4.391	-0.151	0.293	4.901	149.961	3.966	-8191	255	
18971.779	1	1	0	0	0.077839	0.18511	0.14032	0.21267	0.024587	0.15621	0.26596	0.17828	0.010332	0.033498	0.062644	0.084915	0.22353	0.12698	0.12389	0.16823	-4.8104	-4.3958	-4.3521	-5.1542	-3.9313	-4.8354	-4.7458	-4.2375	-5.0458	-4.4938	-4.4917	-5.0125	-4.2417	-4.9229	-4.7854	-4.0292	213.990	244.023	144.750	240.127	286.701	65.554	268.061	227.965	254.923	249.631	-9.503	327.983	202.415	226.122	260.959	179.594	0.00038202	0.00039768	0.00018095	1534.8	2.657e-06	4.3247e-06	1547.4	404.56	2.7091e-06	4.5488e-06	468.7	155.5	133.43	45.663	7.37e-06	57.244	0.00012111	0.00011152	3.0857e-05	1507.8	1.2476e-06	1.1917e-06	1526.9	397.72	1.2215e-06	1.229e-06	455.56	151.65	129.83	44.49	1.2065e-06	55.473	91.527	46.415	63.034	-8.545	124.265	104.435	-8.666	-4.396	157.529	104.831	-4.653	0.005	-0.089	5.054	124.256	4.053	-8191	255	
18971.850	1	1	0	0	0.31302	0.26585	0.15947	0.012656	0.07542	0.10801	0.21333	0.16272	0.30345	0.23063	0.16825	0.19218	0.13828	0.090027	0.028954	0.35381	-4.8292	-4.4667	-4.2479	-5.1854	-3.9833	-4.5563	-5.075	-4.1458	-4.9625	-4.4875	-4.3646	-5.1229	-4.0208	-4.5479	-4.9	-4.0917	89.477	332.823	295.302	261.710	116.893	53.443	323.118	7.602	180.471	80.842	33.307	327.182	-1.665	-4.157	287.587	277.503	0.00041278	0.00029962	0.00013678	1535.2	3.9207e-06	2.2974e-06	1548.6	407.25	2.7435e-06	3.1273e-06	470.59	156.52	133.3	45.792	7.633e-06	57.447	0.00012074	0.00011036	3.0588e-05	1508.7	1.2595e-06	1.1992e-06	1528	398.44	1.2262e-06	1.2233e-06	456.07	152.06	129.75	44.584	1.2167e-06	55.403	95.006	27.012	48.167	-8.644	109.002	87.369	-8.751	-4.358	146.459	147.059	-4.662	-0.176	0.244	4.765	116.765	3.872	-8191	255	
18971.947	1	1	0	0	0.11502	0.062179	0.020485	0.21853	0.10324	0.14223	0.089653	0.24898	0.17327	0.16569	0.23728	0.29923	0.30116	0.30637	0.16488	0.27734	-4.4229	-4.5437	-4.1854	-5.0771	-4.0979	-4.4125	-5.225	-4.1562	-4.8646	-4.5625	-4.2979	-5.1875	-4.4479	-4.4625	-4.95	-3.9875	286.460	209.546	183.620	323.749	121.483	95.254	302.589	304.427	122.011	243.878	-0.805	289.634	38.235	305.792	325.205	12.803	0.00039772	0.00028779	0.00011336	1533.9	3.0786e-06	3.2148e-06	1555.7	406.19	4.6356e-06	3.1386e-06	470.78	155.97	133.4	45.751	3.9961e-06	57.249	0.00012333	0.00011068	3.1123e-05	1509.5	1.2699e-06	1.2111e-06	1531.2	398.58	1.2377e-06	1.2088e-06	457.18	151.99	129.69	44.539	1.2356e-06	55.415	88.461	78.217	33.764	-8.612	123.994	85.261	-8.938	-4.264	124.137	153.615	-4.598	-0.291	0.590	5.034	132.085	4.198	-8191	255	
18972.043	1	1	0	0	0.090033	0.13073	0.21677	0.2776	0.047889	0.021326	0.13082	0.096846	0.22196	0.082725	0.097694	0.37041	0.041282	0.14468	0.19707	0.20891	-4.4875	-4.6875	-4.125	-5.15	-4.3229	-4.3583	-5.2958	-4.2063	-4.5917	-4.7979	-4.1146	-5.0229	-4.6	-4.4	-4.9563	-4.275	196.183	221.097	138.098	284.401	191.486	129.921	319.812	250.443	247.395	263.185	267.932	284.121	292.675	260.358	166.818	1.723	0.00033836	0.00048198	0.00012251	1532.6	2.006e-06	3.1369e-06	1546.4	406.06	5.7583e-06	3.6561e-06	471.03	155.91	133.14	45.723	1.6292e-06	57.186	0.00012165	0.00011154	3.1321e-05	1509.6	1.2579e-06	1.2386e-06	1528.5	398.54	1.2491e-06	1.2183e-06	456.7	151.81	129.6	44.547	1.2168e-06	55.477	88.333	40.245	21.714	-8.526	127.758	101.283	-8.893	-4.181	144.665	125.362	-4.581	-0.246	0.094	4.650	75.517	4.297	-8191	255	
18972.139	1	1	0	0	0.17906	0.23983	0.17813	0.33013	0.21345	0.086604	0.099308	0.14669	0.20091	0.090136	0.22251	0.28141	0.35727	0.21937	0.13948	0.19255	-4.2896	-4.8417	-4.0667	-5.1292	-4.5292	-4.2562	-5.3125	-4.2583	-4.5458	-4.8708	-4.1813	-5.1	-4.7229	-4.3208	-4.9375	-4.325	120.347	48.887	111.012	285.495	142.969	271.668	251.323	31.590	167.028	157.514	237.350	263.329	6.173	194.590	-8.589	313.780	0.00038731	0.00060267	0.00015345	1536.1	3.9687e-06	2.4976e-06	1549.9	405.96	5.3316e-06	3.2749e-06	472.21	155.7	133.55	45.616	2.3327e-06	57.126	0.00011991	0.00011255	3.063e-05	1509.2	1.2373e-06	1.2137e-06	1529.6	398.3	1.2465e-06	1.2282e-06	456.48	151.86	129.82	44.481	1.21e-06	55.476	90.461	61.078	45.014	-8.931	87.800	88.597	-8.843	-4.194	163.566	57.050	-4.456	-0.200	0.170	4.872	129.583	4.016	-8191	255	
18972.258	1	1	0	0	0.079249	0.23439	0.25318	0.18132	0.01826	0.14268	0.18273	0.14416	0.29796	0.127	0.10346	0.30644	0.27096	0.10306	0.10074	0.11412	-4.1042	-4.9938	-4.0542	-4.9125	-4.5417	-4.1333	-5.2417	-4.4437	-4.3917	-4.875	-4.1833	-4.9833	-4.6354	-4.1083	-4.9771	-4.4979	257.122	18.202	295.300	309.467	335.377	250.966	273.913	308.960	-0.903	245.048	241.805	-4.343	281.147	311.622	113.552	266.405	0.00036216	0.00044279	0.00012744	1534.1	5.0665e-06	3.6749e-06	1556.3	406.09	3.8957e-06	3.2784e-06	472.3	156.07	133.77	45.633	4.0247e-06	57.125	0.00012307	0.00010943	3.1355e-05	1508.9	1.2469e-06	1.2159e-06	1530	398.51	1.2441e-06	1.2172e-06	456.69	151.86	129.7	44.529	1.2257e-06	55.48	94.562	32.630	21.916	-8.964	94.090	48.909	-8.763	-4.169	113.589	150.814	-4.627	-0.389	0.436	4.708	134.586	4.135	-8191	255	
18972.354	1	1	0	0	0.19464	0.020878	0.028815	0.35534	0.14069	0.17553	0.10109	0.31818	0.059229	0.083984	0.37551	0.14663	0.10655	0.073952	0.10678	0.15241	-3.9625	-4.9187	-4.0646	-4.8812	-4.8333	-3.9646	-5.0563	-4.4958	-4.2521	-4.9313	-4.2	-4.5312	-4.8479	-4.1542	-4.8375	-4.7125	93.127	207.400	280.651	334.111	166.390	96.822	283.054	318.592	155.894	48.999	270.610	221.770	-8.999	237.353	221.177	220.660	0.00038203	0.00039775	7.5598e-05	1538.1	3.9861e-06	3.4576e-06	1555	406	1.2724e-06	4.3475e-06	469.57	155.05	134.03	45.652	3.8446e-06	57.477	0.00012502	0.00011207	3.1718e-05	1511.8	1.2837e-06	1.253e-06	1531.3	398.84	1.2892e-06	1.2392e-06	456.54	151.63	129.97	44.611	1.2572e-06	55.602	96.927	67.753	24.539	-8.533	120.136	130.498	-8.881	-4.274	123.875	108.428	-4.684	-0.124	0.398	4.955	147.672	4.050	-8191	255	
18972.449	1	1	0	0	0.17373	0.10344	0.22524	0.067053	0.15406	0.1412	0.22381	0.075708	0.085215	0.13314	0.26542	0.18761	0.2474	0.067343	0.15592	0.201	-3.9729	-4.9333	-4.0583	-4.7396	-4.7729	-4.0896	-4.9917	-4.7667	-4.0354	-5.125	-4.4708	-4.5667	-5.0146	-4.1062	-4.7937	-4.7104	117.349	186.471	192.607	296.130	206.999	282.007	286.198	259.736	258.862	19.296	248.927	320.146	267.573	284.203	213.024	321.453	0.00031098	8.5844e-05	0.00025154	1541.1	5.2246e-06	3.885e-06	1556.2	406.1	1.578e-06	7.3705e-06	471.28	154.81	133.71	45.627	4.8573e-06	57.043	0.00012359	0.00011133	3.1691e-05	1511.7	1.2638e-06	1.2249e-06	1531	399	1.2512e-06	1.2418e-06	456.84	151.81	129.71	44.482	1.2701e-06	55.392	104.517	63.787	45.645	-8.782	99.210	87.299	-8.875	-4.182	85.303	129.065	-4.506	-0.128	0.212	4.690	156.739	4.104	-8191	255	
18972.547	1	1	0	0	0.13355	0.069349	0.051157	0.18094	0.24218	0.23997	0.179	0.16787	0.13216	0.092181	0.29972	0.27058	0.27228	0.25041	0.12185	0.19758	-3.7896	-5.1375	-4.3688	-4.6604	-4.9688	-4.0417	-5.0417	-4.8229	-3.9854	-5.125	-4.3896	-4.3583	-5.0583	-4.1958	-4.5417	-4.8063	50.954	251.321	189.253	320.050	15.797	314.311	-7.662	-19.350	88.095	154.757	232.536	327.793	-10.513	265.577	282.305	11.576	0.000363	0.00056342	0.00011355	1530.2	3.4761e-06	4.8647e-06	1557.3	404.65	4.2676e-06	1.9698e-06	471.72	155.01	133.85	45.602	7.0869e-06	57.325	0.0001258	0.00011443	3.174e-05	1507	1.2766e-06	1.2547e-06	1529.3	398.47	1.2811e-06	1.2603e-06	456.38	151.77	129.87	44.503	1.2783e-06	55.471	101.083	21.292	34.179	-8.857	128.263	139.405	-8.825	-4.083	132.997	113.090	-4.560	-0.150	0.165	4.714	125.568	4.296	-8191	255	
#DATA ENDS
