BOXY.EXE: ISS Imagent and Oximeter Data Acquisition Program Version 0.80
Ascii Record File

#ACQ INFORMATION
2  Detector Channels 
16  External MUX Channels 
1  Auxiliary Channels 
5000  Waveform (CCF) Frequency (Hz)
1  Waveforms Skipped 
30  Waveforms Averaged 
1  Cycles Averaged 
16  Acquisitions per Waveform 
10.0806  Updata Rate (Hz) 

#FILE INFORMATION
TRUE -- External MUX Channel results are PARSED.
FALSE -- AC DC and Phase are NOT grouped.
TRUE -- Companion Program Settings File CREATED.
FALSE -- AC data not excluded
FALSE -- DC data not excluded
FALSE -- Phase data not excluded
FALSE -- Auxillary Chn. data not excluded
Tab delimiters

#CALIBRATION STATE
TRUE -- Waveform Calibration Values APPLIED.


#AUX CALIBRATION VALUES
Val Type	aux-1	

Term	1.0000e+00	
Factor	0.0000e+00	


#WF CALIBRATION VALUES
A = Detector Channel
Val Type	A-AC1	A-AC2	A-AC3	A-AC4	A-AC5	A-AC6	A-AC7	A-AC8	A-AC9	A-AC10	A-AC11	A-AC12	A-AC13	A-AC14	A-AC15	A-AC16	A-DC1	A-DC2	A-DC3	A-DC4	A-DC5	A-DC6	A-DC7	A-DC8	A-DC9	A-DC10	A-DC11	A-DC12	A-DC13	A-DC14	A-DC15	A-DC16	A-Ph1	A-Ph2	A-Ph3	A-Ph4	A-Ph5	A-Ph6	A-Ph7	A-Ph8	A-Ph9	A-Ph10	A-Ph11	A-Ph12	A-Ph13	A-Ph14	A-Ph15	A-Ph16	

Term	0.00000e+00	0.00000e+00	0.00000e+00	0.00000e+00	0.00000e+00	0.00000e+00	0.00000e+00	0.00000e+00	0.00000e+00	0.00000e+00	0.00000e+00	0.00000e+00	0.00000e+00	0.00000e+00	0.00000e+00	0.00000e+00	0.00000e+00	0.00000e+00	0.00000e+00	0.00000e+00	0.00000e+00	0.00000e+00	0.00000e+00	0.00000e+00	0.00000e+00	0.00000e+00	0.00000e+00	0.00000e+00	0.00000e+00	0.00000e+00	0.00000e+00	0.00000e+00	0.00000e+00	0.00000e+00	0.00000e+00	0.00000e+00	0.00000e+00	0.00000e+00	0.00000e+00	0.00000e+00	0.00000e+00	0.00000e+00	0.00000e+00	0.00000e+00	0.00000e+00	0.00000e+00	0.00000e+00	0.00000e+00	
Factor	1.00000e+00	1.00000e+00	1.00000e+00	1.00000e+00	1.00000e+00	1.00000e+00	1.00000e+00	1.00000e+00	1.00000e+00	1.00000e+00	1.00000e+00	1.00000e+00	1.00000e+00	1.00000e+00	1.00000e+00	1.00000e+00	1.00000e+00	1.00000e+00	1.00000e+00	1.00000e+00	1.00000e+00	1.00000e+00	1.00000e+00	1.00000e+00	1.00000e+00	1.00000e+00	1.00000e+00	1.00000e+00	1.00000e+00	1.00000e+00	1.00000e+00	1.00000e+00	X	X	X	X	X	X	X	X	X	X	X	X	X	X	X	X	

B = Detector Channel
Val Type	B-AC1	B-AC2	B-AC3	B-AC4	B-AC5	B-AC6	B-AC7	B-AC8	B-AC9	B-AC10	B-AC11	B-AC12	B-AC13	B-AC14	B-AC15	B-AC16	B-DC1	B-DC2	B-DC3	B-DC4	B-DC5	B-DC6	B-DC7	B-DC8	B-DC9	B-DC10	B-DC11	B-DC12	B-DC13	B-DC14	B-DC15	B-DC16	B-Ph1	B-Ph2	B-Ph3	B-Ph4	B-Ph5	B-Ph6	B-Ph7	B-Ph8	B-Ph9	B-Ph10	B-Ph11	B-Ph12	B-Ph13	B-Ph14	B-Ph15	B-Ph16	

Term	0.00000e+00	0.00000e+00	0.00000e+00	0.00000e+00	0.00000e+00	0.00000e+00	0.00000e+00	0.00000e+00	0.00000e+00	0.00000e+00	0.00000e+00	0.00000e+00	0.00000e+00	0.00000e+00	0.00000e+00	0.00000e+00	0.00000e+00	0.00000e+00	0.00000e+00	0.00000e+00	0.00000e+00	0.00000e+00	0.00000e+00	0.00000e+00	0.00000e+00	0.00000e+00	0.00000e+00	0.00000e+00	0.00000e+00	0.00000e+00	0.00000e+00	0.00000e+00	-1.74110e+02	-1.49463e+02	-1.54163e+02	-1.83559e+02	-9.67051e+01	-8.85097e+01	-1.58120e+02	-1.62015e+02	-7.57778e+01	-9.11998e+01	-1.70546e+02	-1.71093e+02	-1.79028e+02	-1.76657e+02	-7.54591e+01	-1.49556e+02	
Factor	3.07533e-05	1.16140e-04	3.88137e-05	1.69307e-01	1.12974e-06	1.04412e-06	1.84577e-01	5.88378e-02	1.11002e-06	1.29812e-06	9.83490e-02	3.36173e-02	3.12576e-02	1.02943e-02	1.39422e-06	1.47485e-02	9.99033e-07	1.02388e-06	2.85475e-07	7.71054e-02	1.12068e-08	1.12247e-08	7.91330e-02	2.67211e-02	1.11987e-08	1.12333e-08	4.26404e-02	1.45631e-02	1.40376e-02	4.62015e-03	1.12025e-08	6.38598e-03	X	X	X	X	X	X	X	X	X	X	X	X	X	X	X	X	



#DISTANCE SETTINGS
A = Detector Channel
A-1	A-2	A-3	A-4	A-5	A-6	A-7	A-8	A-9	A-10	A-11	A-12	A-13	A-14	A-15	A-16	

2.5000e+00	3.0000e+00	2.5000e+00	3.0000e+00	2.0000e+00	3.0000e+00	1.5000e+00	3.0000e+00	3.0000e+00	3.0000e+00	3.0000e+00	3.0000e+00	3.0000e+00	3.0000e+00	1.5000e+00	3.0000e+00	

B = Detector Channel
B-1	B-2	B-3	B-4	B-5	B-6	B-7	B-8	B-9	B-10	B-11	B-12	B-13	B-14	B-15	B-16	

1.0000e+01	1.0000e+01	1.0000e+01	1.4400e+00	1.0000e+01	1.0000e+01	1.5100e+00	1.9400e+00	1.0000e+01	1.0000e+01	1.9900e+00	2.4900e+00	2.4100e+00	2.9000e+00	1.0000e+01	2.9800e+00	




#DATA BEGINS
time	group	step	mark	flag	A-AC1	A-AC2	A-AC3	A-AC4	A-AC5	A-AC6	A-AC7	A-AC8	A-AC9	A-AC10	A-AC11	A-AC12	A-AC13	A-AC14	A-AC15	A-AC16	A-DC1	A-DC2	A-DC3	A-DC4	A-DC5	A-DC6	A-DC7	A-DC8	A-DC9	A-DC10	A-DC11	A-DC12	A-DC13	A-DC14	A-DC15	A-DC16	A-Ph1	A-Ph2	A-Ph3	A-Ph4	A-Ph5	A-Ph6	A-Ph7	A-Ph8	A-Ph9	A-Ph10	A-Ph11	A-Ph12	A-Ph13	A-Ph14	A-Ph15	A-Ph16	B-AC1	B-AC2	B-AC3	B-AC4	B-AC5	B-AC6	B-AC7	B-AC8	B-AC9	B-AC10	B-AC11	B-AC12	B-AC13	B-AC14	B-AC15	B-AC16	B-DC1	B-DC2	B-DC3	B-DC4	B-DC5	B-DC6	B-DC7	B-DC8	B-DC9	B-DC10	B-DC11	B-DC12	B-DC13	B-DC14	B-DC15	B-DC16	B-Ph1	B-Ph2	B-Ph3	B-Ph4	B-Ph5	B-Ph6	B-Ph7	B-Ph8	B-Ph9	B-Ph10	B-Ph11	B-Ph12	B-Ph13	B-Ph14	B-Ph15	B-Ph16	aux-1	digaux	

18923.928	1	1	0	768	0.10319	0.055806	0.19905	0.15068	0.14291	0.040444	0.16234	0.082225	0.03194	0.21165	0.13373	0.052587	0.11905	0.26086	0.036498	0.15824	-4.8417	-4.2479	-4.5979	-4.9708	-4.0292	-4.9646	-4.8625	-4.275	-4.9646	-4.2521	-4.5771	-5.1625	-4.2583	-4.9854	-4.7438	-4.1646	84.165	170.698	301.691	238.563	246.337	279.884	276.568	187.684	41.000	333.758	316.391	286.500	0.783	269.267	61.848	238.820	0.00038035	0.001216	0.00011272	1364.4	1.1609e-05	4.4266e-06	1359.8	368.56	7.4052e-07	7.5792e-06	422.01	140.41	121.7	42.075	7.6931e-06	51.927	0.00055536	0.00055903	0.00015563	1377.5	6.0713e-06	6.1026e-06	1378.4	374.3	6.0308e-06	6.1035e-06	427.79	143.35	124.52	43.095	6.0858e-06	53.231	133.080	51.956	24.940	-8.558	103.879	70.745	-8.820	-4.091	26.532	82.069	-4.526	0.148	0.217	5.210	58.578	4.207	-8191	255	
18924.023	1	1	0	0	0.15227	0.012174	0.25194	0.2301	0.088574	0.10861	0.08463	0.15269	0.089237	0.11293	0.17441	0.12804	0.13554	0.38062	0.21727	0.077583	-4.6438	-4.4229	-4.4667	-5.2188	-4.0729	-4.9833	-5.0021	-4.1292	-5.1396	-4.2854	-4.475	-4.9479	-4.125	-4.8458	-4.9604	-4.2396	315.067	51.652	19.843	-17.616	301.214	68.574	-3.124	283.037	134.002	4.721	-20.875	254.603	280.681	330.523	218.295	-18.075	0.0002736	0.00037224	0.00017257	1363.3	2.4986e-06	5.4461e-06	1355.5	368.28	2.8717e-06	5.9073e-06	420.69	140.62	122.01	42.022	6.6973e-06	52.118	0.00055109	0.000552	0.00015446	1376.8	6.0677e-06	6.111e-06	1376.8	373.9	6.0313e-06	6.0548e-06	427.28	143.26	124.71	43.001	6.0223e-06	53.264	82.870	88.015	141.161	-8.410	155.262	207.754	-8.477	-3.926	11.188	67.627	-4.444	0.139	0.510	5.136	185.747	4.164	-8191	255	
18924.119	1	1	0	0	0.30781	0.16953	0.024637	0.26542	0.13331	0.084057	0.23351	0.21343	0.10725	0.14037	0.075549	0.16024	0.20387	0.21719	0.12961	0.12201	-4.8313	-4.4938	-4.1458	-5.3292	-4.2021	-4.6521	-5.0292	-4.1708	-4.9417	-4.3833	-4.5083	-5.0333	-4.3125	-4.7125	-4.8979	-4.1958	278.700	97.961	107.074	292.351	67.797	314.091	286.260	19.043	128.008	232.280	320.933	51.763	64.111	318.228	194.143	251.358	0.00043574	0.0006385	0.00019035	1365.3	2.1076e-06	1.6066e-06	1366	368.63	2.0155e-06	4.4745e-06	420.78	140.83	122.54	42.004	3.6009e-06	51.604	0.00054746	0.00055167	0.00015306	1378.5	6.0541e-06	6.0146e-06	1378	373.52	6.0143e-06	6.0242e-06	428.09	143.27	124.65	43.06	5.9766e-06	53.12	84.088	331.545	19.754	-8.419	219.014	62.439	-8.550	-3.963	205.175	15.935	-4.598	-0.367	0.513	5.136	165.370	4.202	-8191	255	
18924.217	1	1	0	0	0.32451	0.099581	0.046829	0.32135	0.24683	0.1437	0.27179	0.14966	0.1896	0.1909	0.34137	0.074199	0.24489	0.021659	0.20482	0.14149	-4.6167	-4.5938	-4.2479	-5.1583	-4.1625	-4.5083	-5.1917	-4.2292	-4.7792	-4.7292	-4.2104	-5.2375	-4.3521	-4.525	-5.0729	-4.075	13.598	283.874	45.583	332.681	89.560	184.320	-13.651	244.091	-20.550	122.235	-4.152	57.584	-11.542	193.568	103.984	2.363	0.00033319	0.00045022	0.00015883	1358.8	4.5628e-06	7.1285e-06	1358.4	368.68	5.11e-06	7.6583e-07	419.87	140.1	121.78	41.904	8.1935e-06	51.935	0.00055207	0.00054994	0.00015351	1377.3	6.06e-06	5.9969e-06	1377	374.31	6.0105e-06	6.0671e-06	427.31	143.25	124.55	43.045	5.971e-06	53.107	82.168	88.672	38.812	-8.457	71.885	87.934	-8.566	-3.907	59.910	290.762	-4.587	-0.173	0.459	5.093	115.246	4.263	-8191	255	
18924.312	1	1	0	0	0.075105	0.17938	0.24927	0.13501	0.13816	0.098633	0.25868	0.20427	0.18537	0.24496	0.41539	0.11905	0.089282	0.13549	0.036341	0.30779	-4.5146	-4.7417	-4.0229	-5.2812	-4.4979	-4.3729	-5.3438	-4.3583	-4.6479	-4.8146	-4.1562	-5.1375	-4.5979	-4.475	-5.1771	-4.3562	267.012	30.766	191.764	318.076	244.230	69.282	329.128	253.909	284.447	183.233	-12.036	-0.090	236.448	279.999	240.720	331.016	0.00018982	0.00066033	0.00016494	1366.7	6.6552e-06	2.6856e-06	1354.5	368.38	5.247e-06	2.851e-06	420.09	140.59	121.54	42.088	1.4215e-06	51.873	0.00055061	0.00054267	0.00015291	1377.3	5.9994e-06	6.0294e-06	1374.2	373.55	5.9685e-06	5.9625e-06	427.2	143.64	124.62	43.032	6.013e-06	53.182	113.134	60.677	333.027	-8.186	123.159	204.223	-8.664	-3.759	124.094	253.351	-4.495	-0.208	0.417	5.092	232.712	4.088	-8191	255	
18924.408	1	1	0	0	0.35929	0.13506	0.20717	0.29189	0.13123	0.11629	0.29257	0.1327	0.1399	0.23871	0.067414	0.26372	0.10232	0.29532	0.035813	0.2138	-4.3438	-4.8792	-4.1604	-5.2292	-4.5021	-4.2125	-5.3104	-4.4729	-4.5312	-4.9375	-4.2271	-5.1667	-4.6562	-4.2271	-5.1312	-4.2458	283.210	335.187	127.866	267.541	294.100	85.710	300.535	245.337	242.623	173.480	236.247	302.676	166.603	66.561	330.506	290.251	0.00037446	0.00048393	0.00013184	1365.3	6.201e-06	3.9862e-06	1361.3	367.53	6.04e-06	8.5407e-06	421.33	139.66	122.62	42.207	8.5973e-06	51.885	0.00055284	0.00055173	0.00015412	1378.6	6.0719e-06	6.0154e-06	1377.2	373.38	6.0475e-06	5.979e-06	427.91	143.09	124.88	43.044	5.9529e-06	53.119	97.787	11.798	45.470	-8.250	139.679	109.219	-8.585	-3.898	125.323	111.228	-4.342	0.064	0.523	5.056	102.435	4.531	-8191	255	
18924.529	1	1	0	0	0.041762	0.19354	0.084565	0.37072	0.088236	0.018496	0.38577	0.33953	0.20449	0.18789	0.1095	0.19264	0.074844	0.36952	0.17508	0.13496	-4.1333	-4.9729	-4.1583	-5.0146	-4.5479	-4.1667	-5.2458	-4.4333	-4.4104	-5.0667	-4.3229	-5.0354	-4.8104	-4.1771	-4.9042	-4.4167	178.600	95.303	219.585	303.124	142.577	198.930	291.831	282.113	125.139	262.550	308.360	213.493	251.329	245.182	286.697	228.693	0.00021154	0.00040288	0.00036984	1369.9	5.8914e-07	5.3233e-06	1363.7	368.21	6.6388e-06	5.0907e-06	421.57	139.4	122.22	41.58	3.1146e-06	51.781	0.00054397	0.00054737	0.00015305	1380.9	6.0272e-06	5.9923e-06	1377.4	373.92	5.962e-06	5.9931e-06	427.37	143.28	124.6	42.886	5.9684e-06	53.057	95.421	78.638	25.890	-8.546	55.858	62.377	-8.638	-3.803	110.194	110.607	-4.723	-0.009	0.740	5.334	60.559	4.467	-8191	255	
18924.625	1	1	0	0	0.04591	0.082643	0.15068	0.21342	0.24374	0.24557	0.096324	0.053703	0.068541	0.24921	0.12186	0.24226	0.11996	0.092669	0.28004	0.22166	-3.9229	-5.1021	-4.1104	-4.8625	-4.7042	-4.0687	-5.3771	-4.5792	-4.2542	-4.9667	-4.2688	-4.5958	-5.0333	-4.0417	-5.0062	-4.9083	109.165	13.273	18.290	283.600	150.255	40.901	-3.454	300.501	126.525	219.731	223.533	327.354	44.721	313.565	222.792	179.689	0.00037716	0.0005543	0.00018072	1359.4	6.5988e-06	1.5379e-06	1357.6	367.56	5.1621e-06	6.4424e-06	423.36	139.81	122.03	41.899	9.3428e-06	51.622	0.00055023	0.00054629	0.00015376	1377.1	6.0029e-06	5.9936e-06	1375.8	374.2	5.9866e-06	5.974e-06	428.13	143.18	124.58	42.904	6.0022e-06	53.094	98.795	40.972	48.677	-8.623	104.515	157.660	-8.676	-3.612	52.092	80.720	-4.411	-0.288	0.608	4.869	87.957	4.681	-8191	255	
18924.721	1	1	0	0	0.13121	0.22997	0.082176	0.29051	0.09977	0.098515	0.19811	0.065938	0.1813	0.24797	0.33768	0.17589	0.26017	0.20491	0.024235	0.015191	-4.0729	-5.0729	-4.2375	-4.6188	-4.8354	-4.0938	-5.1792	-4.8417	-4.1125	-5.1604	-4.3583	-4.5333	-5.0292	-4.2375	-4.975	-4.8542	135.392	171.121	151.911	279.262	311.499	174.939	292.794	176.158	-15.436	-3.786	291.729	310.777	282.903	297.439	149.589	187.205	0.00036268	0.00017297	0.00026788	1372	6.4857e-06	6.6616e-06	1363	366.77	3.7572e-06	6.5404e-06	421.65	139.8	122.48	41.948	1.326e-06	52.057	0.00054474	0.00054727	0.00015386	1379.7	5.957e-06	5.9943e-06	1378.3	373.84	5.9274e-06	5.9901e-06	426.74	143.25	124.67	42.935	5.9524e-06	53.216	88.173	96.234	53.666	-8.483	153.160	34.965	-8.739	-3.533	106.602	148.883	-4.373	0.016	0.670	5.269	72.002	4.642	-8191	255	
18924.816	1	1	0	0	0.42666	0.12759	0.1085	0.16697	0.15371	0.11926	0.37236	0.22618	0.11221	0.13041	0.20529	0.11429	0.14021	0.029069	0.15544	0.16598	-3.8688	-5.1958	-4.1708	-4.5979	-5	-4.0521	-5.0917	-5.0792	-4.0708	-5.1	-4.6917	-4.3208	-5.1771	-4.25	-4.6917	-4.9187	101.950	276.468	295.528	324.887	72.005	190.975	259.373	286.567	325.049	136.132	225.585	5.511	324.007	171.449	31.979	-18.404	0.00047421	0.00056933	0.00017838	1363.9	3.2305e-06	9.6264e-07	1362.7	367.69	1.4449e-06	3.3959e-06	419.03	140.28	122.73	41.984	4.8603e-06	51.912	0.0005398	0.00054027	0.00015214	1379.9	5.884e-06	5.9481e-06	1378.8	374.26	5.9136e-06	5.9621e-06	427.16	143.18	124.62	42.954	5.9375e-06	53.097	90.199	96.709	57.612	-8.566	188.353	254.243	-8.402	-3.918	163.661	88.230	-4.594	-0.070	0.465	5.176	162.082	4.578	-8191	255	
18924.912	1	1	0	0	0.3178	0.062448	0.24584	0.14083	0.083429	0.072615	0.21899	0.22756	0.082781	0.18443	0.16165	0.16507	0.14056	0.1546	0.04389	0.27523	-3.6271	-4.9313	-4.5208	-4.3646	-4.9521	-4.0854	-4.9792	-5.0875	-4.125	-5	-4.5687	-4.3042	-5.1542	-4.2104	-4.4375	-5.1542	18.505	151.261	71.877	185.507	-16.313	82.253	277.702	273.617	97.116	69.332	316.642	337.606	-13.908	-18.991	287.928	256.232	0.00036335	0.0003045	0.00026506	1363.9	5.124e-06	8.7161e-06	1355.6	367.8	6.1428e-06	5.2011e-06	422.19	139.92	121.44	42.125	6.8568e-06	52.48	0.00053911	0.0005399	0.00015162	1376.6	5.8969e-06	5.8995e-06	1375.4	373.7	5.8582e-06	5.878e-06	427.21	143.27	124.5	43.036	5.9112e-06	53.309	102.069	299.807	107.851	-8.470	79.332	107.921	-8.781	-3.688	87.434	102.232	-4.241	0.012	0.357	5.164	80.695	4.409	-8191	255	
18925.008	1	1	0	0	0.13963	0.10471	0.15134	0.22736	0.074606	0.089578	0.28713	0.01893	0.049193	0.1937	0.30037	0.21167	0.16431	0.2067	0.088466	0.077926	-3.7188	-4.9896	-4.575	-4.4021	-5.0667	-4.1854	-4.6042	-5.3021	-4.0563	-4.6854	-4.7875	-4.2688	-5.1125	-4.4479	-4.4458	-5.1125	178.895	-21.972	161.208	-3.383	62.475	192.057	274.190	250.853	250.264	99.147	333.866	269.369	319.641	276.194	35.163	289.274	0.00045023	0.00045819	0.00028941	1370.7	7.8338e-06	1.5555e-06	1368.2	368.68	2.2203e-06	4.6889e-06	421.53	140.05	122.6	41.996	5.8543e-06	52.188	0.00053812	0.00054266	0.00015077	1382.6	5.9013e-06	5.9569e-06	1382	374.6	5.9037e-06	5.9016e-06	428.23	143.28	124.83	42.97	5.8966e-06	53.279	94.728	72.026	2.369	-8.584	128.973	305.579	-8.767	-4.055	244.551	33.794	-4.326	-0.155	0.525	5.266	176.756	4.279	-8191	255	
18925.129	1	1	0	0	0.044652	0.35488	0.13934	0.37051	0.22565	0.14821	0.22795	0.14663	0.21339	0.23933	0.07594	0.35316	0.12507	0.082948	0.24338	0.1678	-3.8229	-4.8063	-4.5979	-4.4271	-4.9458	-4.3187	-4.5708	-5.2625	-4.1479	-4.7604	-4.925	-4.0208	-5.1062	-4.5312	-4.2896	-5.1292	165.504	0.495	70.092	288.543	119.524	-6.233	335.637	205.175	143.917	55.634	41.893	288.622	255.694	282.850	317.080	191.251	0.00034372	0.00012776	0.00014982	1369.1	4.2597e-06	5.0317e-06	1362.3	369.54	5.0364e-07	1.9102e-06	421.27	140.2	122.58	41.806	9.9758e-06	52.166	0.0005362	0.00053931	0.00014933	1380.1	5.8941e-06	5.9904e-06	1380.1	374.53	5.9461e-06	5.9772e-06	428.34	143.26	125.05	43.002	5.9741e-06	53.358	88.063	158.874	51.751	-8.591	219.437	138.151	-8.631	-3.737	210.085	224.419	-4.315	-0.187	0.659	5.184	178.772	4.285	-8191	255	
18925.225	1	1	0	0	0.24098	0.28005	0.10611	0.11351	0.21114	0.1948	0.30562	0.21463	0.067726	0.14217	0.18969	0.12562	0.20514	0.056857	0.14633	0.07249	-3.8	-4.6188	-4.8	-4.0563	-4.9646	-4.5188	-4.3604	-5.2208	-4.1583	-4.5417	-5.1583	-4.2542	-5.1458	-4.6896	-4.0625	-5.0833	116.304	287.920	2.174	247.232	274.360	329.296	257.858	255.308	307.642	77.980	74.886	36.025	318.712	294.231	53.917	183.033	0.00038389	0.00057745	8.3984e-05	1376	3.075e-06	2.3162e-06	1368.8	369.7	5.9409e-06	7.0597e-06	421.61	140.45	122.9	42.067	6.5296e-06	52.397	0.00055468	0.00055518	0.00015408	1385.6	6.0723e-06	6.0887e-06	1382.9	375.44	6.0566e-06	6.0373e-06	429.13	143.6	125.01	43.102	5.9174e-06	53.422	85.453	78.499	70.586	-8.352	237.322	-15.322	-8.591	-3.738	127.463	131.028	-4.345	-0.307	0.655	5.163	127.223	4.203	-8191	255	
18925.320	1	1	0	0	0.10702	0.16287	0.14554	0.086833	0.10162	0.16899	0.40124	0.19333	0.16323	0.09537	0.14457	0.070461	0.11348	0.13836	0.083117	0.070644	-3.9417	-4.4021	-5.0875	-4.2229	-4.7292	-4.6271	-4.3271	-5.3063	-4.2958	-4.3833	-5.1854	-4.2917	-4.8083	-4.9521	-3.9229	-5.0521	234.855	314.964	334.222	203.373	301.002	75.381	253.571	254.584	101.573	326.009	248.319	236.596	214.581	296.718	236.301	34.216	0.00027858	0.00062543	0.00010652	1366.4	5.9765e-06	2.0315e-06	1359.6	367.89	2.9944e-06	3.576e-06	420.19	139.94	122.02	42.101	5.0678e-06	52.098	0.0005411	0.00053867	0.00014927	1378.4	5.8978e-06	5.8776e-06	1377.6	374.11	5.8607e-06	5.8803e-06	426.98	143.29	124.51	42.964	5.8592e-06	53.159	101.322	46.567	110.018	-8.702	99.105	88.623	-8.654	-3.860	149.718	89.799	-4.395	-0.006	0.575	5.053	70.506	4.128	-8191	255	
18925.418	1	1	0	0	0.11089	0.083549	0.18	0.086342	0.23037	0.14332	0.38188	0.11319	0.19873	0.3097	0.41044	0.080752	0.21226	0.13691	0.27812	0.097395	-4.1375	-4.2375	-5.1188	-4.375	-4.5479	-4.8896	-4.2083	-5.0771	-4.6417	-4.2396	-5.025	-4.0646	-4.6354	-5.0229	-3.8187	-4.9458	174.938	208.436	105.002	227.457	17.920	151.995	287.180	53.661	129.567	269.004	229.457	192.522	284.540	41.972	49.507	324.799	0.00046553	0.00087796	7.2187e-05	1367.4	2.9637e-06	4.2437e-06	1357.4	369.37	6.611e-06	3.0248e-06	421.92	140.05	122.61	42.107	3.9614e-06	51.932	0.00053182	0.00052902	0.00014758	1377.6	5.763e-06	5.727e-06	1372.5	373.37	5.745e-06	5.7032e-06	426.18	142.81	124.34	42.892	5.6921e-06	53.072	96.570	88.796	85.065	-8.530	105.654	103.335	-8.459	-3.874	129.764	113.262	-4.479	-0.102	0.411	5.181	280.980	4.336	-8191	255	
18925.488	1	1	0	0	0.22246	0.01266	0.228	0.18823	0.052332	0.11737	0.20869	0.1868	0.092905	0.069482	0.091081	0.10908	0.19437	0.11439	0.18847	0.1754	-4.075	-4.2583	-4.9479	-4.4104	-4.3708	-4.7958	-4.2583	-4.9688	-4.5375	-4.1562	-5.0521	-4.2438	-4.4375	-4.9917	-4.2063	-4.875	102.821	312.677	142.390	277.432	155.834	48.632	322.306	275.530	101.690	251.979	274.331	247.782	318.625	297.930	292.033	291.976	0.00044382	0.00016409	8.3915e-05	1362.1	6.0506e-06	4.1112e-06	1366.1	369.59	4.7165e-06	4.0126e-06	421.7	140.43	122.57	41.947	1.0597e-05	52.056	0.00052012	0.00052293	0.00014585	1376.4	5.7484e-06	5.772e-06	1379	374.63	5.8399e-06	5.8317e-06	427.58	143.26	124.55	42.941	5.7746e-06	53.221	98.791	-18.965	173.865	-8.545	132.990	137.621	-8.724	-3.826	111.830	54.138	-4.407	-0.183	0.463	5.098	106.900	4.165	-8191	255	
18925.609	1	1	0	0	0.20632	0.19005	0.083854	0.31852	0.10526	0.1651	0.1248	0.14825	0.17224	0.078469	0.073769	0.18819	0.11326	0.13317	0.13188	0.23153	-4.3771	-4.1062	-5.1208	-4.5625	-4.4062	-5.1188	-4.3521	-4.9417	-4.6146	-4.0667	-5.0458	-4.5042	-4.3021	-5.0229	-3.9938	-4.7854	46.967	47.743	143.916	306.131	276.586	198.678	263.721	284.941	210.348	142.903	-0.709	234.193	217.040	253.818	335.563	314.556	0.00035844	5.3532e-05	0.00016486	1366.7	3.3394e-06	7.126e-06	1357.1	368.63	2.8869e-06	1.1893e-05	420.26	140.58	121.34	42.228	7.3538e-06	51.836	0.00052236	0.00051996	0.00014356	1376.5	5.6161e-06	5.5498e-06	1373.5	372.87	5.4869e-06	5.4588e-06	425.32	142.6	123.64	42.806	5.43e-06	52.901	100.837	200.543	282.285	-8.531	281.697	71.744	-8.612	-3.782	-13.191	98.686	-4.441	-0.192	0.499	5.151	188.534	4.032	-8191	255	
18925.705	1	1	0	0	0.21885	0.10271	0.020902	0.20998	0.22246	0.1077	0.20254	0.059028	0.048025	0.1836	0.18604	0.075483	0.087659	0.079153	0.18428	0.21024	-4.6042	-4.1	-4.8542	-4.7271	-4.1521	-5.025	-4.3125	-4.7688	-4.8625	-4.0292	-5.1	-4.6667	-4.2792	-5.275	-4.0854	-4.6396	168.248	183.322	258.566	311.470	53.999	177.336	231.075	230.504	38.590	222.787	297.291	327.982	299.531	302.267	112.649	276.935	0.00041473	0.00086267	0.00023894	1363.8	5.0588e-06	4.1289e-06	1366.8	368.53	4.9356e-06	5.8141e-06	424.06	140.59	122.34	42.208	3.8653e-06	51.94	0.00049343	0.00049372	0.00013714	1375.3	5.3721e-06	5.3246e-06	1375.6	372.93	5.3122e-06	5.3715e-06	425.96	142.58	123.89	42.856	5.3848e-06	52.926	112.047	24.108	23.718	-8.279	159.222	88.402	-8.604	-3.673	160.889	76.195	-4.418	-0.121	0.697	5.029	76.542	4.184	-8191	255	
18925.801	1	1	0	0	0.13402	0.14956	0.065876	0.36936	0.21311	0.063982	0.1286	0.043276	0.039874	0.065482	0.26711	0.22018	0.070538	0.20665	0.035643	0.36529	-4.7083	-4.0292	-4.8583	-4.8229	-4.0854	-5.1833	-4.625	-4.5417	-4.9979	-3.9646	-4.8812	-4.7562	-4.2271	-5.1792	-4.3167	-4.3438	58.244	44.007	24.756	285.768	153.579	77.411	279.839	169.585	68.238	242.608	281.164	214.960	7.577	37.730	61.282	287.852	0.0004019	0.00033195	0.00017403	1368.6	5.4326e-06	1.8237e-06	1360.5	369.76	2.8214e-06	4.0067e-06	423.26	140.7	122.73	42.366	4.3061e-06	51.88	0.00048164	0.00048718	0.00013539	1378.5	5.2914e-06	5.1996e-06	1375	372.81	5.1119e-06	5.1234e-06	425.5	142.43	123.8	42.728	4.9844e-06	52.822	97.530	-5.824	69.692	-8.447	34.075	269.271	-8.365	-4.027	178.465	65.890	-4.456	-0.145	0.280	4.917	227.231	4.188	-8191	255	
18925.920	1	1	0	0	0.069592	0.10484	0.045775	0.13905	0.12615	0.21061	0.18011	0.16108	0.15354	0.1179	0.28676	0.29444	0.33806	0.22234	0.16848	0.13362	-4.75	-3.9021	-4.8521	-5.0563	-4.0021	-5.0083	-4.7583	-4.4333	-5.1125	-4.0979	-4.6667	-4.9375	-4.1375	-5.0188	-4.5229	-4.3562	1.558	158.726	78.788	210.919	124.965	-12.950	275.338	270.780	92.427	21.010	315.157	302.058	284.650	18.238	214.424	312.281	0.00037999	0.00064021	0.00020674	1371.3	2.3849e-06	2.6774e-06	1365.4	369.71	3.3642e-06	8.0737e-06	422.83	140.96	122.53	42.195	1.9164e-06	52.254	0.00044952	0.00044986	0.00012561	1374.3	4.95e-06	4.9404e-06	1375.6	372.38	4.9686e-06	4.991e-06	425.57	142.5	123.87	42.863	4.9883e-06	52.89	114.267	7.335	108.599	-8.256	110.297	58.389	-8.432	-4.042	159.494	110.471	-4.493	-0.089	0.418	4.757	204.532	4.243	-8191	255	
18926.016	1	1	0	0	0.086401	0.16552	0.18353	0.065293	0.21464	0.21798	0.11478	0.24314	0.27967	0.19781	0.26968	0.13156	0.084409	0.10054	0.17458	0.16302	-4.7833	-4.0833	-4.4208	-5.1458	-3.95	-4.8271	-4.6833	-4.2625	-4.9812	-4.2271	-4.6729	-5.2896	-4.0479	-4.8958	-4.5437	-4.2646	180.394	264.332	-16.809	-5.790	65.156	289.481	327.685	323.796	96.642	143.797	273.001	2.716	221.205	260.773	279.902	204.795	0.00037855	0.00037488	0.0001956	1378.5	5.645e-06	5.4472e-06	1373.1	369.82	2.8831e-06	2.4087e-06	424.47	141.3	123.02	42.274	7.0977e-06	52.205	0.00045527	0.0004565	0.00012649	1382.4	4.9044e-06	4.8979e-06	1380.9	372.99	4.8819e-06	4.8912e-06	424.58	142.65	123.85	42.876	4.806e-06	52.827	111.845	337.675	-9.725	-8.238	120.653	129.440	-8.360	-3.856	70.308	138.729	-4.579	-0.205	0.411	4.982	112.033	4.027	-8191	255	
18926.090	1	1	0	0	0.097979	0.13783	0.11221	0.27407	0.1798	0.022327	0.18154	0.065524	0.084527	0.046743	0.21679	0.09228	0.025135	0.10376	0.26242	0.12237	-4.8708	-4.3354	-4.3479	-5.1229	-4.0188	-4.5667	-4.8854	-4.0958	-4.8458	-4.2188	-4.3313	-5.0938	-4.0083	-4.7542	-4.7438	-4.2646	212.627	-4.758	-10.527	325.168	324.372	224.656	295.519	306.628	-18.386	205.806	10.659	291.863	167.001	1.536	119.017	112.267	0.00035971	0.00045405	6.2711e-05	1376.9	7.1681e-06	1.5519e-06	1367.4	369.95	3.9559e-06	5.0238e-06	424.25	140.78	123.06	42.154	4.2066e-06	52.172	0.00044444	0.00045171	0.00012487	1381.7	4.9204e-06	4.8625e-06	1379.5	372.75	4.8344e-06	4.7861e-06	425.02	142.24	123.72	42.738	4.6825e-06	52.665	101.299	-3.242	-13.285	-8.487	149.238	117.495	-8.514	-4.056	264.232	124.938	-4.550	0.058	0.521	5.044	141.254	4.561	-8191	255	
18926.209	1	1	0	0	0.063197	0.18278	0.15	0.15707	0.33476	0.25768	0.16202	0.13089	0.15906	0.13026	0.094042	0.17459	0.18522	0.06066	0.11631	0.22355	-4.6521	-4.4417	-4.3125	-5.1396	-4.0333	-4.5771	-5.1396	-4.3688	-4.8792	-4.5813	-4.2375	-5.2021	-4.0646	-4.675	-4.9208	-3.9938	96.139	209.180	271.810	286.003	292.000	152.697	-7.534	229.750	70.532	96.459	61.310	309.431	-6.432	315.350	201.274	324.236	0.00036496	0.0004889	0.00011684	1376.1	3.0187e-06	4.2498e-06	1374.1	370.9	5.9246e-06	7.6609e-06	423.12	141.17	122.91	42.264	7.8429e-06	52.209	0.0004291	0.00042627	0.00011853	1379.1	4.7157e-06	4.6878e-06	1378	372.12	4.6813e-06	4.6656e-06	424.68	142.34	123.61	42.775	4.599e-06	52.75	84.961	146.126	292.980	-8.370	74.888	126.707	-8.679	-3.998	112.910	104.865	-4.214	-0.148	0.374	4.903	136.679	4.291	-8191	255	
18926.305	1	1	0	0	0.28284	0.12725	0.083595	0.14399	0.061708	0.11369	0.036114	0.045523	0.43209	0.12747	0.055562	0.15919	0.24235	0.1646	0.21255	0.16647	-4.4542	-4.6729	-4.0208	-5.2833	-4.1917	-4.2729	-5.1417	-4.2063	-4.7792	-4.4938	-4.1562	-5.1813	-4.4417	-4.4146	-5.0479	-4.1792	25.023	118.502	165.932	55.240	247.166	258.640	331.167	67.225	212.671	95.108	89.138	270.948	202.390	4.806	1.919	294.115	0.00031569	0.00018647	8.6174e-05	1378.5	3.9748e-06	2.4123e-06	1374.7	370.85	3.3621e-06	6.854e-06	421.51	140.51	122.74	42.235	4.1534e-06	52.544	0.0004218	0.00042196	0.00011702	1380.7	4.6085e-06	4.623e-06	1379.5	372.17	4.62e-06	4.5979e-06	424.09	141.96	123.38	42.612	4.5332e-06	52.708	92.365	275.204	86.592	-8.555	63.277	132.152	-8.295	-3.743	73.641	63.293	-4.608	-0.256	0.556	4.904	103.074	4.536	-8191	255	
18926.400	1	1	0	0	0.25787	0.16158	0.027489	0.14868	0.10647	0.1533	0.077312	0.27138	0.18054	0.11198	0.054042	0.15594	0.18878	0.10544	0.18435	0.2092	-4.3979	-4.8187	-4.0292	-5.2271	-4.3417	-4.3146	-5.2083	-4.3417	-4.6771	-4.8375	-4.2792	-4.8896	-4.45	-4.4125	-4.9896	-4.1396	260.763	159.859	304.550	285.463	223.010	56.220	310.224	271.424	160.149	163.628	185.421	269.360	167.288	304.121	158.319	255.909	0.00037629	0.00033867	9.0769e-05	1375.9	2.4739e-06	2.1149e-06	1374.9	370.06	3.619e-06	1.6755e-06	424.28	141.53	123.11	42.178	4.8492e-06	52.284	0.00041793	0.00041275	0.00011507	1379.7	4.5354e-06	4.4931e-06	1380	372.7	4.5002e-06	4.5056e-06	424.46	142.22	123.56	42.627	4.4533e-06	52.584	78.470	74.992	40.556	-8.567	155.481	2.429	-8.607	-3.872	84.323	123.565	-4.187	0.042	0.620	5.096	130.593	4.110	-8191	255	
18926.521	1	1	0	0	0.13914	0.24812	0.16479	0.12267	0.16838	0.028923	0.12644	0.14325	0.047824	0.1596	0.25821	0.072452	0.29466	0.15714	0.22821	0.062579	-4.1042	-4.6542	-3.9938	-5.0708	-4.6708	-4.0979	-5.2542	-4.1521	-4.6188	-4.9062	-4.0625	-4.8938	-4.5875	-4.175	-4.9771	-4.2146	281.217	202.440	5.045	88.548	33.739	7.317	239.445	2.246	288.691	136.444	254.852	-13.109	314.007	283.111	102.524	39.730	0.00033743	0.00032422	3.1132e-05	1378.1	3.6571e-06	6.9557e-06	1375.1	370.75	3.2887e-06	4.008e-06	422.66	140.61	123.16	42.305	5.826e-06	52.092	0.00040902	0.00040596	0.00011228	1380.4	4.4672e-06	4.3977e-06	1376.8	371.96	4.3804e-06	4.3588e-06	423.61	141.61	123.45	42.595	4.3094e-06	52.479	104.301	14.580	43.455	-8.554	10.113	92.264	-8.521	-3.788	277.289	84.081	-4.352	-0.165	0.552	4.948	173.716	4.294	-8191	255	
18926.617	1	1	0	0	0.22141	0.1035	0.10708	0.27659	0.15682	0.29216	0.24805	0.20894	0.064479	0.069586	0.23891	0.031339	0.11204	0.056706	0.078931	0.1209	-4.1396	-4.7438	-3.9854	-4.9396	-4.6	-3.9979	-5.1875	-4.3271	-4.2521	-4.9437	-4.1521	-4.8438	-4.6438	-4.3125	-4.8083	-4.4021	184.983	-18.503	2.185	299.382	196.752	-19.405	305.493	267.071	-11.322	106.695	291.840	86.895	-1.180	-5.517	24.399	316.124	0.0004266	0.00024641	5.4123e-05	1376.7	4.4778e-06	1.2146e-06	1375.1	369.46	1.9661e-06	3.127e-06	423.93	141.31	123.04	42.223	4.4364e-06	52.104	0.00039727	0.00039258	0.00010964	1375.1	4.2682e-06	4.2652e-06	1377.4	370.72	4.2214e-06	4.2467e-06	423	141.83	123.01	42.468	4.3039e-06	52.411	100.246	21.080	55.332	-8.458	94.610	80.954	-8.753	-3.842	98.054	144.468	-4.557	0.007	0.743	4.887	87.879	4.333	-8191	255	
18926.715	1	1	0	0	0.11977	0.13663	0.19845	0.12074	0.14558	0.10226	0.17418	0.021738	0.27715	0.14387	0.19188	0.14602	0.07766	0.17313	0.095473	0.151	-4.0125	-4.7646	-3.9354	-4.6896	-4.8854	-4.1042	-4.9875	-4.4667	-4.1687	-5.0687	-4.1354	-4.4458	-4.8375	-4.175	-4.8438	-4.5604	320.446	77.128	154.344	330.694	226.815	288.962	-4.035	5.838	310.255	64.189	-16.284	333.604	-4.695	270.967	136.948	82.528	0.00032108	0.00039886	0.00010841	1372.5	5.2352e-06	2.6e-06	1373.2	369.68	1.8761e-06	2.4792e-06	422.49	141.14	122.63	42.051	2.2102e-06	52.193	0.00039609	0.0003937	0.00010989	1374.6	4.2511e-06	4.2936e-06	1376.8	371.36	4.3204e-06	4.3163e-06	422.54	141.84	123.14	42.45	4.3309e-06	52.54	102.667	128.575	36.179	-8.682	77.989	160.392	-8.619	-3.629	185.407	214.000	-4.406	-0.162	0.515	5.215	148.338	4.180	-8191	255	
18926.785	1	1	0	0	0.07843	0.18326	0.20412	0.21246	0.15154	0.14619	0.11461	0.096473	0.051482	0.15873	0.079809	0.34685	0.14314	0.27632	0.071188	0.07253	-3.8958	-4.8667	-4.2125	-4.6188	-4.9917	-4.0167	-5.0104	-4.7521	-3.9833	-5.0458	-4.2729	-4.5354	-4.9396	-4.1896	-4.7958	-4.6354	325.351	305.288	185.359	305.360	29.960	66.781	253.343	260.971	211.810	291.554	314.799	309.789	170.461	281.252	121.377	280.905	0.00036466	0.00045376	0.00015674	1374.9	2.8142e-06	9.8538e-06	1367.1	370.64	4.5216e-06	2.5865e-06	421.79	140.7	122.08	41.999	4.1046e-06	52.185	0.00039825	0.00039491	0.00011075	1374.5	4.3168e-06	4.3104e-06	1375.4	371.31	4.3769e-06	4.3322e-06	422.41	141.61	122.96	42.432	4.4266e-06	52.477	80.480	136.608	-11.786	-8.322	284.597	79.569	-8.652	-3.720	127.191	102.735	-4.640	-0.100	0.234	5.126	55.601	3.856	-8191	255	
18926.904	1	1	0	0	0.12784	0.11821	0.070776	0.34536	0.11718	0.18905	0.23947	0.099443	0.19347	0.24704	0.12629	0.19107	0.078497	0.090177	0.14611	0.18112	-3.6396	-5.0271	-4.3958	-4.55	-5.0917	-4.1146	-4.9792	-4.9458	-4.0563	-5.0083	-4.425	-4.4563	-5.0667	-4.2396	-4.6375	-4.9563	89.918	122.914	306.846	306.736	75.706	37.347	328.227	233.121	258.112	331.014	123.435	-13.919	254.950	138.790	335.155	36.464	0.00035263	0.00077498	9.3786e-05	1373.4	1.1026e-05	1.5662e-06	1372.4	368.07	2.4979e-06	2.1607e-06	421.74	141.2	122.8	41.956	1.0758e-05	52.261	0.0004065	0.00040807	0.00011422	1375.6	4.5139e-06	4.4988e-06	1373.4	371.23	4.508e-06	4.5173e-06	422.81	141.66	123.27	42.528	4.5439e-06	52.629	112.428	16.310	47.720	-8.521	100.280	89.250	-8.600	-3.809	199.919	100.509	-4.483	0.044	0.367	5.169	134.510	4.484	-8191	255	
18927.002	1	1	0	0	0.25891	0.049272	0.10028	0.46194	0.083569	0.028576	0.27396	0.078837	0.11951	0.24899	0.073928	0.12607	0.094883	0.28319	0.16756	0.23504	-3.8021	-4.8604	-4.4917	-4.225	-5.0021	-4.1458	-4.9271	-4.9521	-4.0458	-4.8396	-4.7417	-4.2396	-5.1917	-4.2271	-4.4708	-4.9688	275.257	182.487	64.522	288.282	184.367	89.806	304.663	266.145	289.417	179.129	249.264	51.935	240.040	274.126	46.298	255.510	0.00032416	0.00029538	0.00031542	1375.5	2.0899e-06	5.7842e-06	1365.9	368.99	5.1275e-06	1.897e-06	421.05	141.17	122.54	41.952	7.0629e-06	52.107	0.00041966	0.00041437	0.00011591	1375.4	4.5287e-06	4.5525e-06	1374.4	371.68	4.5844e-06	4.5489e-06	422.73	141.89	123.12	42.554	4.5892e-06	52.6	111.424	104.318	-3.829	-8.459	73.564	143.041	-8.592	-3.783	172.285	210.892	-4.451	-0.123	0.495	5.168	161.466	4.576	-8191	255	
18927.098	1	1	0	0	0.11129	0.041831	0.18738	0.29821	0.20086	0.18425	0.17316	0.22276	0.18571	0.26101	0.19153	0.15096	0.092504	0.045586	0.11098	0.044889	-3.7625	-4.8854	-4.6167	-4.4479	-5.0771	-4.3187	-4.6583	-5.1292	-3.9813	-4.675	-4.8667	-4.2292	-5.1042	-4.5375	-4.2917	-5.0729	-16.712	5.201	245.986	314.690	25.175	50.196	287.050	262.189	242.019	299.972	198.626	295.532	5.561	265.206	287.219	26.733	0.00039132	0.0004118	4.8207e-05	1369.4	1.1677e-06	6.3068e-06	1369.8	368.01	5.0209e-06	7.6698e-06	423.04	141.45	122.43	42.082	7.5645e-06	52.159	0.0004224	0.0004194	0.00011619	1373.5	4.6234e-06	4.5905e-06	1372.1	370.44	4.6014e-06	4.5525e-06	422.89	141.93	123.05	42.467	4.5479e-06	52.401	87.438	136.948	37.629	-8.430	38.307	152.483	-8.682	-3.850	158.223	117.592	-4.199	-0.364	0.624	5.093	133.134	4.454	-8191	255	
18927.193	1	1	0	0	0.19858	0.25633	0.33926	0.063415	0.082331	0.099261	0.31322	0.12459	0.24063	0.076353	0.087006	0.15763	0.064061	0.1727	0.1284	0.0078894	-3.6188	-4.6417	-4.7604	-4.2125	-5.1479	-4.2792	-4.5042	-5.2937	-4.2021	-4.5938	-4.8938	-4.0917	-5.0292	-4.4458	-4.2562	-5.1521	13.756	326.678	165.783	330.350	265.340	175.550	329.179	274.990	251.246	145.626	235.940	160.956	-16.622	5.998	110.122	319.380	0.00034098	0.00089147	0.00010017	1365.1	1.1848e-06	3.9648e-06	1368.6	369.09	5.3065e-06	3.1618e-06	422.59	140.32	122.31	42.247	6.2463e-06	52.161	0.00041716	0.00041106	0.00011517	1369.6	4.5252e-06	4.5333e-06	1372.2	371.29	4.4681e-06	4.4564e-06	422.75	141.38	122.95	42.496	4.4102e-06	52.441	120.931	38.535	27.772	-8.534	122.455	88.180	-8.625	-3.873	127.941	150.987	-4.494	-0.155	0.430	5.202	147.972	4.665	-8191	255	
18927.314	1	1	0	0	0.035508	0.13631	0.13507	0.12778	0.094938	0.080841	0.13997	0.30935	0.26188	0.16622	0.16484	0.05097	0.26859	0.078508	0.12875	0.20228	-3.8542	-4.4083	-4.7792	-4.2271	-4.7917	-4.475	-4.3854	-5.2146	-4.1458	-4.2771	-4.9458	-4.0354	-4.9646	-4.7208	-3.8979	-5.1104	-6.138	223.015	-3.860	286.599	128.174	32.611	293.436	53.772	-4.728	4.481	330.596	19.985	294.119	10.600	67.535	197.247	0.0003805	0.00061135	0.00016669	1369.5	4.6772e-06	8.1527e-07	1365.3	369.32	2.8507e-06	6.8711e-06	423.75	140.61	122.46	41.921	8.958e-06	52.393	0.00040427	0.00040372	0.00011242	1372.1	4.4119e-06	4.328e-06	1372.1	371.07	4.378e-06	4.3689e-06	422.66	141.42	122.66	42.397	4.2653e-06	52.382	96.551	2.088	32.721	-8.581	136.269	227.236	-8.686	-3.967	17.434	71.610	-4.105	-0.209	0.848	5.246	108.266	3.996	-8191	255	
18927.385	1	1	0	0	0.017224	0.13965	0.15592	0.21749	0.1998	0.1342	0.11437	0.17308	0.11542	0.0625	0.18676	0.1418	0.22787	0.10067	0.085518	0.22089	-3.9313	-4.3125	-4.9354	-4.4083	-4.7646	-4.5979	-4.3812	-5.1854	-4.2812	-4.3187	-5.0375	-4.1646	-4.7	-4.825	-4.0958	-5.0854	-11.446	272.566	271.002	280.038	260.010	16.950	321.003	249.478	190.966	93.266	246.329	274.510	336.950	270.431	263.528	238.715	0.00038731	0.00037166	0.0002693	1371.2	8.879e-07	3.7517e-06	1369.1	368.29	8.8108e-06	2.1859e-06	424	141.27	122.61	42.086	1.0087e-05	52.237	0.00039132	0.00038166	0.00010575	1372.4	4.1221e-06	4.0914e-06	1371.2	369.8	4.0411e-06	3.9791e-06	421.48	141.07	122.35	42.224	3.9355e-06	52.17	99.253	118.272	62.112	-8.623	76.904	78.097	-8.625	-3.645	142.090	36.855	-4.472	-0.270	0.433	5.091	93.432	4.237	-8191	255	
18927.480	1	1	0	0	0.065434	0.20174	0.21357	0.23458	0.014505	0.089208	0.15222	0.2499	0.058017	0.062993	0.091815	0.12706	0.33141	0.030554	0.063342	0.13699	-4.0167	-4.2	-4.9854	-4.1438	-4.4729	-4.7375	-4.3208	-4.9458	-4.5229	-4.1312	-5.0896	-4.2438	-4.5188	-4.9	-3.9979	-5.0229	134.442	153.171	31.841	3.295	85.872	79.095	226.485	299.482	111.063	174.383	-0.244	304.659	330.712	58.966	3.620	33.637	0.00038915	0.00010662	0.00022912	1375	4.8051e-06	7.4977e-06	1361.6	368.2	5.9222e-06	7.9401e-06	423.08	140.42	122.34	42.119	4.4463e-06	52.561	0.0003596	0.00035301	9.7191e-05	1369.3	3.8747e-06	3.8775e-06	1367.6	369.48	3.8443e-06	3.842e-06	420.85	140.71	122.05	42.26	3.7802e-06	52.219	93.559	-21.172	15.659	-8.319	59.510	77.212	-8.625	-3.900	139.420	104.420	-4.280	-0.000	0.276	5.157	89.948	4.258	-8191	255	
18927.602	1	1	0	0	0.11748	0.15788	0.16836	0.15313	0.083544	0.055816	0.12358	0.19517	0.10992	0.15741	0.081522	0.28074	0.11947	0.15887	0.32545	0.072986	-4.1958	-4.0792	-5.0062	-4.3479	-4.475	-5.0146	-4.1875	-4.9458	-4.5229	-3.9292	-5.1125	-4.4437	-4.3167	-4.8271	-4.1417	-4.8083	4.509	128.270	88.806	18.830	250.311	118.549	-1.111	281.753	253.656	164.302	307.161	197.583	-11.662	250.547	64.368	156.234	0.00027707	0.00035105	0.00030122	1372.5	5.0022e-06	5.4773e-06	1370.9	368.28	3.1776e-06	2.4712e-06	423.03	140.08	122.45	42.183	2.218e-06	51.945	0.00034716	0.00034299	9.5479e-05	1368.2	3.742e-06	3.6784e-06	1367.7	369.43	3.7415e-06	3.7414e-06	420.33	140.47	122.09	42.261	3.7974e-06	52.085	96.193	34.902	49.344	-8.339	97.640	151.349	-8.729	-3.966	54.697	43.004	-4.419	-0.042	0.288	4.804	134.598	4.153	-8191	255	
18927.697	1	1	0	0	0.13413	0.087356	0.10995	0.30333	0.11711	0.087038	0.13448	0.16392	0.25442	0.13049	0.22811	0.22762	0.30889	0.1128	0.2237	0.1421	-4.2458	-4.0292	-4.9	-4.4417	-4.2667	-4.9708	-4.1354	-4.8479	-4.8104	-3.9646	-5.125	-4.4479	-4.2854	-4.9812	-4.2354	-4.675	235.524	137.457	203.170	301.054	326.359	24.431	2.529	268.680	114.670	47.859	301.943	260.954	303.078	305.936	60.461	44.214	0.00045286	0.00060048	2.6412e-05	1368.6	2.1629e-06	2.1187e-06	1367.9	369.48	4.6381e-06	5.0049e-06	422.56	141.35	122.41	42.208	3.6461e-06	52.21	0.00034977	0.00035051	9.8135e-05	1368.8	3.8936e-06	3.8397e-06	1369.1	370.11	3.9097e-06	3.9022e-06	420.64	141	122.37	42.306	3.9494e-06	52.191	79.660	72.533	335.175	-8.494	259.557	100.119	-8.698	-3.817	169.193	160.710	-4.756	-0.127	0.283	5.200	-5.119	4.170	-8191	255	
18927.795	1	1	0	0	0.33511	0.19199	0.17216	0.35607	0.052988	0.08465	0.074553	0.09262	0.12505	0.047811	0.15957	0.2132	0.18213	0.16683	0.1469	0.073057	-4.4083	-3.9625	-4.9979	-4.6417	-4.0896	-4.9688	-4.3688	-4.5708	-4.9271	-3.8688	-4.7396	-4.6062	-4.0458	-4.9583	-4.1771	-4.5437	79.072	98.917	101.519	-1.570	225.892	303.591	11.764	280.057	114.848	248.253	272.903	-9.263	4.043	147.372	247.213	270.426	0.00045711	0.00021966	0.00020196	1370.2	3.9615e-07	1.6363e-06	1366.8	368.6	1.3338e-06	5.8249e-06	421.02	141.48	122.11	42.392	1.1518e-05	52.396	0.00035943	0.00036328	0.00010082	1368.9	3.9493e-06	3.9337e-06	1367.6	369.85	3.914e-06	3.9573e-06	421.13	141.14	122.38	42.323	3.9635e-06	52.272	99.060	197.773	58.625	-8.509	222.247	250.690	-8.665	-3.973	18.622	131.637	-4.511	0.051	0.257	4.842	130.576	4.464	-8191	255	
18927.891	1	1	0	0	0.064883	0.079649	0.043397	0.2658	0.079063	0.13006	0.08963	0.13881	0.18426	0.12899	0.16046	0.14765	0.13469	0.16528	0.082663	0.1161	-4.6771	-4.1354	-4.6917	-4.7583	-4.0792	-4.9104	-4.4083	-4.4583	-4.8187	-3.9146	-4.8875	-4.8771	-4.0271	-4.9583	-4.1562	-4.3333	234.964	278.410	311.028	19.228	48.085	-15.229	269.138	246.059	303.484	30.633	256.704	314.541	73.285	-4.134	225.643	249.114	0.00051553	5.1877e-05	7.238e-05	1380.1	4.2637e-06	7.4377e-07	1366.4	368.7	2.7556e-06	4.8952e-06	423.13	140.26	122.74	42.087	4.8315e-06	52.075	0.00036542	0.00036383	0.00010159	1374.5	3.9671e-06	3.9567e-06	1370	370.03	3.9285e-06	4.0183e-06	420.86	140.79	122.44	42.309	3.943e-06	52.1	98.722	32.825	160.207	-8.336	96.892	240.582	-8.800	-3.929	107.746	86.078	-4.204	0.018	0.518	5.344	109.854	4.131	-8191	255	
18927.984	1	1	0	0	0.098312	0.13467	0.21394	0.2472	0.081865	0.041021	0.10302	0.15973	0.15811	0.12495	0.25857	0.099567	0.073665	0.16985	0.15216	0.1633	-4.6396	-4.0062	-4.6333	-4.9104	-4.0938	-4.9458	-4.5833	-4.3458	-5.025	-4.0542	-4.7792	-5.0042	-4.0521	-5.1604	-4.4437	-4.1917	110.049	41.509	237.551	229.695	33.812	228.428	218.118	191.995	206.840	177.559	306.478	145.365	198.037	31.386	-7.065	11.895	0.00039077	0.00057757	0.00014504	1375.2	5.0067e-06	4.2887e-06	1368	369.55	2.8095e-06	4.1946e-06	421.81	140.97	122.89	42.002	4.9617e-06	52.054	0.00035793	0.00036009	9.9935e-05	1371.2	3.9522e-06	3.8881e-06	1368.7	369.84	3.9164e-06	3.9165e-06	421.21	140.89	122.48	42.232	3.9281e-06	52.176	92.725	53.285	64.786	-8.542	119.003	139.621	-8.392	-3.658	128.239	131.603	-4.599	-0.016	0.488	5.094	167.655	4.452	-8191	255	
18928.080	1	1	0	0	0.23357	0.13995	0.20973	0.23456	0.15875	0.094323	0.076007	0.27532	0.15747	0.19482	0.086415	0.25725	0.12859	0.35092	0.082928	0.14299	-4.6708	-4.0021	-4.4271	-4.9	-4.1	-4.8646	-4.7937	-4.1062	-4.8812	-4.2208	-4.4042	-4.9146	-4.1292	-4.7333	-4.5125	-4.0354	15.688	173.888	278.688	256.275	243.956	49.218	276.754	323.721	100.304	-7.713	22.862	282.589	141.290	315.705	43.620	19.567	0.00030418	0.00052791	0.00020758	1368.8	3.7007e-06	4.2509e-06	1366	367.8	4.5254e-06	2.7907e-06	421.95	140.44	122.16	42.303	3.701e-06	51.809	0.00035797	0.00035809	0.00010022	1369.1	3.9107e-06	3.8879e-06	1366.7	369.28	3.8809e-06	3.8966e-06	420.66	140.98	122.27	42.269	3.8458e-06	52.116	108.410	62.497	32.260	-8.404	223.597	282.809	-8.688	-4.279	129.832	73.631	-4.507	0.227	0.534	4.930	69.809	4.098	-8191	255	
18928.201	1	1	0	0	0.06634	0.13842	0.1092	0.31706	0.2539	0.1269	0.078172	0.11091	0.12908	0.031626	0.18834	0.18105	0.038703	0.11082	0.05321	0.084473	-4.6458	-4.3979	-4.1625	-5.0854	-4.0042	-4.6958	-4.8896	-4.0229	-5.0312	-4.2271	-4.35	-4.9437	-4.0312	-4.75	-4.6917	-4.0375	137.206	158.669	37.723	337.623	30.186	30.351	19.372	36.793	173.421	322.704	263.775	297.773	29.552	288.351	268.276	171.331	0.0003858	0.00042201	0.00010675	1374.5	1.7125e-06	4.1932e-06	1366	369.85	1.1196e-06	6.9768e-06	421.66	140.42	121.65	42.013	4.5869e-06	52.359	0.00035586	0.00035124	9.8712e-05	1368.5	3.9016e-06	3.8495e-06	1368	369.66	3.8639e-06	3.869e-06	420.55	140.87	122.29	42.256	3.8706e-06	52.276	82.726	-3.681	69.710	-8.396	143.619	109.291	-8.773	-4.036	11.127	90.016	-4.535	0.025	0.547	5.198	149.576	4.382	-8191	255	
18928.299	1	1	0	0	0.044887	0.2482	0.14806	0.26379	0.17558	0.19281	0.32092	0.32164	0.064146	0.05918	0.060059	0.074959	0.25182	0.27168	0.35989	0.091489	-4.6667	-4.3708	-4.2188	-5.2167	-4.1042	-4.5062	-4.8917	-4.1083	-4.8604	-4.5062	-4.3833	-5.0563	-4.2812	-4.6729	-4.8979	-3.9604	208.920	121.804	178.533	14.121	176.500	-3.067	282.676	292.001	-8.165	22.964	259.836	-8.953	309.764	265.531	177.700	334.049	0.00041868	0.00064775	7.9337e-05	1368.8	5.2397e-06	5.1289e-06	1372.1	369.58	4.6204e-06	4.5983e-06	422.15	141.27	122.76	42.452	4.5934e-06	52.181	0.00036015	0.00035632	9.9221e-05	1371.4	3.9551e-06	3.8818e-06	1371.8	370.16	3.9122e-06	3.9139e-06	420.94	141.44	122.48	42.411	3.9048e-06	52.204	73.826	22.662	318.207	-8.440	59.355	121.766	-8.586	-3.941	118.473	63.493	-4.682	-0.115	0.489	4.824	80.564	4.364	-8191	255	
18928.395	1	1	0	0	0.2118	0.15156	0.090848	0.073313	0.27983	0.34181	0.10112	0.11526	0.15986	0.057086	0.29023	0.097698	0.10306	0.095113	0.092041	0.14301	-4.5208	-4.6917	-4.0875	-5.2146	-4.0708	-4.6062	-5.2688	-4.0229	-4.6062	-4.6167	-4.1771	-5.2	-4.5167	-4.2625	-5.0396	-4.1479	99.837	17.719	28.443	162.702	146.980	2.241	303.425	336.897	255.266	82.267	73.213	318.015	260.278	283.081	255.013	282.184	0.00049748	0.00037214	0.00011627	1372.3	2.8549e-06	2.0868e-06	1373	369.67	4.3359e-06	2.3029e-06	423.32	140.63	123.13	42.281	3.8827e-06	52.19	0.00035897	0.00036083	0.00010084	1373.9	3.9411e-06	3.8803e-06	1372.6	370.2	3.9272e-06	3.9093e-06	421.37	141.06	122.51	42.353	3.8536e-06	52.351	78.172	-11.113	58.844	-8.401	63.961	54.756	-8.505	-4.028	132.271	124.363	-4.639	-0.050	0.310	4.708	152.588	4.386	-8191	255	
18928.490	1	1	0	0	0.14414	0.18038	0.06899	0.24108	0.23112	0.17784	0.28597	0.17744	0.22383	0.10851	0.05471	0.14939	0.057317	0.18348	0.080366	0.21199	-4.3417	-4.6188	-4.0542	-5.1854	-4.2063	-4.3167	-5.0917	-4.0083	-4.5667	-4.8167	-4.2354	-5.1	-4.55	-4.1687	-4.9604	-4.3354	245.372	185.984	127.156	315.939	77.607	0.530	286.680	223.920	274.834	34.826	211.140	220.671	132.413	283.653	336.332	24.662	0.00035313	0.000415	5.2584e-05	1380.7	5.8106e-06	6.4597e-06	1369	368.39	5.2236e-06	5.4668e-06	425.98	140.45	122.41	42.264	6.1274e-06	52.222	0.00035852	0.00035307	9.8665e-05	1372.9	3.928e-06	3.8859e-06	1370.4	370.35	3.8908e-06	3.9336e-06	422.02	141.07	122.55	42.361	3.8905e-06	52.19	82.713	64.195	88.396	-8.500	100.435	159.303	-8.593	-3.769	184.475	81.468	-4.569	-0.198	0.596	5.052	113.382	4.075	-8191	255	
18928.611	1	1	0	0	0.13777	0.31554	0.060141	0.51095	0.12846	0.3012	0.23277	0.028142	0.2149	0.13639	0.22937	0.069983	0.080346	0.18338	0.090162	0.15887	-4.2792	-4.8771	-3.9667	-5.0979	-4.5271	-4.1125	-5.1208	-4.4354	-4.275	-4.8083	-4.0021	-4.9688	-4.7979	-4.175	-5.275	-4.2792	10.380	77.234	-8.505	268.991	140.168	313.540	307.979	258.923	236.595	44.952	236.955	303.820	68.744	24.005	68.178	289.843	0.00033589	0.00086282	0.00026314	1374	3.3491e-06	3.7619e-06	1371.4	370.08	7.02e-06	1.6096e-06	423.61	140.87	122.89	41.978	4.0804e-06	52.044	0.00036248	0.00035933	0.00010103	1372.2	3.9659e-06	3.9382e-06	1372	370.02	3.9267e-06	3.9205e-06	420.99	141.21	122.45	42.26	3.9558e-06	52.183	108.268	15.530	53.445	-8.526	144.972	201.550	-8.519	-4.000	154.709	163.387	-4.570	-0.059	0.687	5.100	162.281	4.666	-8191	255	
18928.682	1	1	0	0	0.12136	0.17615	0.066119	0.050386	0.16903	0.30432	0.25003	0.20086	0.13846	0.074334	0.26138	0.11494	0.10709	0.08422	0.22231	0.23066	-4.0938	-4.9417	-4.0104	-5.0271	-4.5917	-3.9771	-5.2021	-4.4563	-4.1021	-4.8167	-4.1792	-4.6542	-4.75	-4.1312	-4.9667	-4.4833	231.016	47.623	319.812	329.054	333.099	309.595	246.131	173.042	18.222	151.857	295.888	271.257	285.152	289.365	-17.577	186.912	0.00033975	0.00056391	0.00021504	1378.2	4.277e-06	4.424e-06	1373.3	370.04	3.7145e-06	6.4235e-06	423.64	140.24	123.22	41.929	6.0009e-06	52.023	0.0003616	0.000357	0.00010068	1373.8	3.9514e-06	3.9991e-06	1373.5	370.43	4.0177e-06	3.9622e-06	421.76	141.1	122.83	42.284	3.9912e-06	52.209	113.235	24.519	48.318	-8.512	58.571	85.299	-8.677	-4.074	168.742	158.024	-4.483	-0.120	0.380	5.127	149.978	4.002	-8191	255	
18928.779	1	1	0	0	0.15271	0.051013	0.1628	0.14532	0.191	0.23283	0.32797	0.16163	0.087006	0.24524	0.21798	0.10755	0.12415	0.2438	0.18616	0.19242	-3.9062	-4.9583	-4.0167	-4.6188	-4.7396	-4.1792	-5.1417	-4.4375	-4.0312	-5.0042	-4.1646	-4.5958	-4.8792	-4.0458	-4.7625	-4.8	5.205	223.376	112.502	335.158	150.607	91.990	271.257	91.725	236.005	267.586	312.638	117.582	-5.442	253.969	268.895	301.441	0.000471	0.00030783	8.6541e-05	1373.2	1.3259e-06	3.9486e-06	1370	369.95	3.8304e-06	6.7588e-06	424.78	141.32	122.81	42.175	5.9754e-06	52.267	0.00036699	0.0003626	0.0001019	1374.6	4.0072e-06	4.0214e-06	1374.3	370.63	3.9965e-06	4.0014e-06	422	141.43	122.86	42.387	3.9674e-06	52.292	108.287	115.564	38.603	-8.525	173.964	83.685	-8.653	-3.746	159.272	117.374	-4.526	-0.207	0.639	5.161	111.979	4.720	-8191	255	
18928.875	1	1	0	0	0.12188	0.073126	0.10284	0.19229	0.16042	0.085435	0.31074	0.1462	0.14149	0.04253	0.087461	0.28809	0.29726	0.20928	0.053958	0.24244	-3.8521	-4.8583	-4.0833	-4.5854	-4.8063	-3.8708	-5.0312	-4.5938	-3.9396	-5.0667	-4.3792	-4.2208	-5.1833	-4.0146	-4.6708	-4.7229	22.312	287.236	186.439	275.499	244.969	195.620	233.353	301.025	314.902	133.604	98.392	281.074	324.445	268.684	104.860	308.239	0.00035513	0.0010983	6.6186e-05	1375.5	7.0901e-06	3.0986e-06	1374.7	368.59	3.3883e-06	3.2687e-06	423.94	141.17	123.06	42.087	6.5081e-06	52.058	0.00036579	0.00036238	0.00010125	1373.9	3.9862e-06	3.9456e-06	1372.9	370.08	3.9561e-06	3.9877e-06	421.26	141.29	122.82	42.31	3.9622e-06	52.223	99.236	5.006	118.175	-8.381	112.085	51.336	-8.819	-3.860	194.656	322.074	-4.463	-0.015	0.502	5.153	175.118	4.496	-8191	255	
18928.994	1	1	0	0	0.12241	0.10865	0.093644	0.33297	0.063035	0.21549	0.31335	0.29437	0.13147	0.19477	0.158	0.20608	0.10848	0.20798	0.18919	0.072566	-3.4813	-5.0146	-4.2417	-4.3812	-4.9354	-3.8812	-4.8625	-4.7354	-3.9792	-4.9688	-4.4437	-4.3625	-5.0667	-4.0604	-4.5458	-5.0062	256.118	177.654	234.368	317.913	167.938	213.261	279.927	21.360	126.993	151.903	329.097	297.037	268.883	336.559	321.588	109.582	0.0004891	0.0005182	0.00018422	1378.2	3.3012e-06	7.2259e-06	1368.8	368.8	2.536e-06	7.1858e-06	425.66	140.66	122.36	42.145	2.0666e-06	52.183	0.00036792	0.00036181	0.0001002	1373.1	4.0091e-06	3.9499e-06	1371.3	369.88	3.949e-06	3.9344e-06	422.01	141.21	122.59	42.329	4.0098e-06	52.327	107.212	45.501	7.291	-8.529	51.697	50.205	-8.694	-3.764	215.577	80.440	-4.463	-0.031	0.373	4.823	85.643	4.478	-8191	255	
18929.090	1	1	0	0	0.20211	0.11777	0.0145	0.10976	0.19879	0.22141	0.17468	0.14675	0.22503	0.16484	0.14061	0.099104	0.17759	0.24521	0.3	0.074262	-3.6896	-4.8854	-4.2562	-4.275	-4.9542	-4.0146	-4.6375	-5.0813	-3.9688	-4.8792	-4.6021	-4.2146	-5.2604	-4.2333	-4.4708	-4.9083	240.723	186.994	185.984	298.073	98.135	248.702	298.432	309.012	-12.985	188.212	33.931	229.264	299.492	316.264	267.550	162.677	0.00029279	0.00051355	0.0002209	1374.8	3.0846e-06	4.8172e-06	1371.5	370.36	6.0024e-06	3.2929e-06	424.43	141.37	122.52	42.226	5.6012e-06	52.081	0.00036665	0.00036184	0.00010114	1372.3	3.9571e-06	3.9522e-06	1370.6	370.83	3.9498e-06	3.9027e-06	422	141.63	122.53	42.472	3.9212e-06	52.23	90.245	131.365	47.766	-8.415	81.629	121.987	-8.619	-4.038	118.522	29.621	-4.554	-0.184	0.297	4.902	58.449	4.283	-8191	255	
18929.186	1	1	0	0	0.12901	0.25885	0.10459	0.15106	0.099866	0.12846	0.16133	0.15401	0.077797	0.23796	0.13234	0.33074	0.1696	0.06112	0.035081	0.11179	-3.7479	-4.8396	-4.5104	-4.2188	-5.0479	-4.3958	-4.5479	-5.0417	-3.8229	-4.6646	-4.675	-4.2854	-5.0708	-4.5813	-4.2812	-5.15	78.247	233.633	109.493	302.079	1.705	110.666	260.963	249.331	1.957	90.623	260.702	269.517	315.798	111.111	60.785	294.127	0.000451	0.00021308	0.00030667	1373.9	4.2531e-07	4.0121e-06	1378.3	369.55	8.293e-06	2.4971e-06	422.49	141.27	123.57	42.299	2.9356e-06	52.582	0.00035845	0.00035471	9.9268e-05	1372.1	3.8377e-06	3.8341e-06	1372.6	370.4	3.8601e-06	3.8553e-06	421.68	141.44	123.27	42.555	3.8915e-06	52.526	97.043	39.564	9.646	-8.397	83.798	90.847	-8.758	-4.228	171.725	109.699	-4.403	-0.351	0.247	5.127	111.043	4.252	-8191	255	
18929.281	1	1	0	0	0.094753	0.25837	0.026215	0.34489	0.075557	0.096029	0.20852	0.32667	0.28185	0.032042	0.25136	0.10872	0.1447	0.12288	0.15332	0.10212	-3.6354	-4.5021	-4.7375	-4.1875	-4.8167	-4.2875	-4.425	-4.9938	-4.0333	-4.6562	-4.9958	-4.1729	-5.0896	-4.6167	-4.0208	-4.975	75.293	270.101	179.715	308.033	152.690	34.616	236.893	294.339	218.318	132.413	265.087	263.712	237.118	-16.404	248.897	210.864	0.00040609	0.00040531	0.00013157	1373.5	4.1285e-06	6.2516e-06	1368.9	370.34	7.0586e-06	3.1712e-06	427.22	141.27	123.07	42.49	2.3789e-06	52.59	0.00036121	0.00035588	9.8919e-05	1375	3.8668e-06	3.8131e-06	1373.3	370.6	3.7445e-06	3.7701e-06	422.72	141.42	122.84	42.484	3.708e-06	52.428	91.106	6.440	54.622	-8.624	197.485	110.494	-8.684	-4.056	172.823	122.698	-4.502	-0.134	0.497	4.678	144.667	4.014	-8191	255	
18929.379	1	1	0	0	0.10751	0.20458	0.079743	0.13536	0.18616	0.052682	0.10552	0.17465	0.26135	0.1944	0.042385	0.12584	0.062065	0.066282	0.25544	0.23974	-3.8125	-4.5	-4.9104	-4.25	-4.7	-4.5563	-4.2708	-5.1667	-4.2812	-4.3875	-5.0312	-3.9646	-4.85	-4.5312	-3.9813	-5.0146	162.986	166.173	321.849	326.519	151.178	43.066	266.902	267.907	282.848	40.042	68.552	329.740	-8.899	289.782	88.267	242.723	0.00046846	0.00035169	9.1418e-05	1373.1	3.8936e-06	3.7942e-06	1380.6	370.84	1.9809e-06	2.8277e-06	425.53	141.92	122.92	42.451	4.2986e-06	52.717	0.00034456	0.00034047	9.5453e-05	1373.5	3.7996e-06	3.7402e-06	1374.4	370.92	3.7585e-06	3.7524e-06	422.26	141.71	122.8	42.543	3.7828e-06	52.353	106.473	68.400	36.942	-8.491	170.623	115.795	-8.720	-3.946	22.329	64.534	-4.588	0.215	0.425	5.025	138.470	4.193	-8191	255	
18929.475	1	1	0	0	0.14437	0.14953	0.16021	0.031434	0.2204	0.11957	0.21922	0.17406	0.23946	0.14869	0.216	0.11229	0.17882	0.28375	0.049541	0.12904	-3.9188	-4.3063	-4.825	-4.1083	-4.5542	-4.6417	-4.1583	-4.9646	-4.3729	-4.2292	-5.1333	-4.1104	-4.7083	-4.8417	-3.8958	-4.9938	320.138	326.054	274.382	286.133	18.316	289.016	267.007	280.172	317.212	11.428	334.337	216.153	274.311	13.792	150.583	257.676	0.00028299	0.00073104	0.00024723	1380.7	4.7416e-06	4.4951e-06	1376.2	370.77	1.7252e-06	3.912e-06	425.32	141.7	122.86	42.371	4.9665e-06	52.212	0.00034779	0.00034517	9.5953e-05	1375.2	3.809e-06	3.7875e-06	1377.1	371.3	3.8274e-06	3.8626e-06	423.37	141.71	123.09	42.556	3.8732e-06	52.477	107.511	-19.120	62.638	-8.647	151.694	108.864	-8.659	-3.864	179.223	69.409	-4.580	-0.011	0.356	5.476	131.940	4.253	-8191	255	
18929.570	1	1	0	0	0.14357	0.095012	0.067013	0.1684	0.036543	0.07591	0.12777	0.24666	0.18035	0.27237	0.058918	0.16556	0.30902	0.098457	0.11685	0.099287	-3.9792	-4.0792	-5.0417	-4.1333	-4.5625	-4.8833	-4.325	-4.9729	-4.5104	-4.1292	-5.2354	-4.2417	-4.4646	-4.8583	-3.9313	-4.9417	108.778	218.602	182.889	194.866	54.344	108.413	276.095	296.733	49.765	307.646	229.823	314.883	208.887	310.608	119.659	-9.105	0.00034482	0.00049323	0.00013381	1382	8.7863e-06	3.351e-06	1383.9	370.7	4.8401e-06	4.5515e-06	426.15	141.57	123.61	42.503	6.1723e-06	52.527	0.00035911	0.00035355	9.83e-05	1379.5	3.8672e-06	3.859e-06	1382.9	371.7	3.919e-06	3.8902e-06	424.35	141.88	123.22	42.614	3.9239e-06	52.461	88.156	81.220	24.359	-8.400	138.268	59.755	-8.755	-3.989	193.064	100.968	-4.592	-0.060	0.278	5.307	129.018	3.951	-8191	255	
18929.691	1	1	0	0	0.046698	0.074355	0.099494	0.13409	0.12175	0.15473	0.16695	0.11573	0.049092	0.10383	0.054587	0.15302	0.32386	0.1009	0.085175	0.14069	-4.2063	-4.25	-4.8896	-4.4396	-4.5021	-4.8938	-4.1354	-4.9146	-4.6438	-4.0646	-5.1292	-4.3208	-4.3187	-4.9938	-3.8688	-4.7917	111.637	305.172	289.291	328.442	71.539	125.519	315.741	60.481	280.961	299.994	100.580	-3.563	300.478	255.735	175.978	312.011	0.00030538	0.00050317	0.00016458	1382.2	4.2173e-06	3.4446e-06	1379.2	370.8	4.989e-06	6.1473e-06	425.34	141.64	124.16	42.407	2.6726e-06	52.585	0.0003559	0.00035488	9.8426e-05	1380.8	3.9471e-06	3.9227e-06	1381.1	372.26	3.9527e-06	3.9612e-06	424.54	141.96	123.7	42.521	3.9395e-06	52.551	76.694	68.103	32.037	-8.480	89.730	121.168	-8.674	-3.920	94.280	136.799	-4.295	-0.030	0.345	5.010	109.364	4.324	-8191	255	
18929.785	1	1	0	0	0.093564	0.13212	0.092419	0.1235	0.084608	0.20775	0.22584	0.059801	0.25001	0.1544	0.27803	0.03755	0.22615	0.22352	0.021788	0.30589	-4.4146	-3.8937	-4.8208	-4.5292	-4.1271	-5.0354	-4.2729	-4.7604	-4.6854	-3.8312	-5.0625	-4.65	-4.2667	-5.0896	-4.0125	-4.6833	311.628	131.350	65.260	16.102	264.520	-3.791	273.920	262.478	315.775	123.614	299.421	183.887	284.687	299.854	331.915	266.069	0.0003538	0.00033456	7.2575e-05	1381.7	2.6758e-06	5.0759e-06	1381.8	371.69	1.6365e-06	3.0655e-06	426.77	141.31	123.79	42.643	7.2858e-06	52.654	0.00036103	0.00035639	9.9759e-05	1382.8	3.9175e-06	3.899e-06	1381.3	372.22	3.887e-06	3.911e-06	424.85	141.63	123.17	42.608	3.9096e-06	52.582	110.395	-4.861	129.392	-8.468	63.260	127.248	-8.624	-4.124	142.700	13.076	-4.750	0.092	0.289	5.305	116.865	4.023	-8191	255	
18929.883	1	1	0	0	0.1201	0.050058	0.088231	0.064203	0.18285	0.094965	0.20948	0.29036	0.146	0.037747	0.21415	0.20295	0.061313	0.035307	0.1464	0.21637	-4.4396	-3.8917	-4.8125	-4.7021	-4.1229	-5.1542	-4.4875	-4.5646	-4.8896	-4.0292	-4.8167	-4.5354	-4.1917	-5.1687	-4.2208	-4.3354	-17.367	335.642	36.859	46.853	220.508	17.082	230.951	271.546	91.217	250.317	254.970	101.494	279.345	265.325	293.914	52.073	0.00036418	0.00034743	0.00012085	1388.9	1.7293e-06	7.5707e-06	1383.9	371.83	3.5392e-06	2.1437e-06	424.74	142.58	123.32	42.751	5.0549e-06	52.436	0.00036015	0.00036077	0.00010054	1383.5	3.8912e-06	3.8717e-06	1381.6	372.15	3.8933e-06	3.8438e-06	423.7	142.04	123.31	42.631	3.9143e-06	52.396	93.332	16.702	21.894	-8.489	148.696	128.640	-8.464	-3.879	145.307	90.424	-4.818	-0.177	0.415	4.838	83.103	4.034	-8191	255	
18929.980	1	1	0	0	0.18376	0.32391	0.19168	0.13569	0.14852	0.16019	0.2305	0.12878	0.080582	0.17447	0.24261	0.11532	0.16045	0.10515	0.17003	0.035121	-4.7521	-3.9979	-4.6062	-4.8521	-4.0938	-4.9354	-4.3812	-4.4875	-4.8438	-3.8104	-4.7417	-4.7896	-3.9917	-4.9729	-4.4458	-4.1687	28.398	151.549	228.306	237.290	157.652	210.457	269.782	335.189	32.088	234.896	242.031	-5.709	293.961	232.299	-5.477	209.863	0.00032418	0.00050754	0.00015658	1379.4	1.1679e-06	5.8126e-06	1374.4	371.31	3.125e-06	3.9719e-06	426.34	142.12	123.47	42.462	3.8244e-06	52.338	0.00035365	0.00035201	9.7923e-05	1379	3.8607e-06	3.8268e-06	1378.8	372.03	3.836e-06	3.8404e-06	423.74	141.67	123.09	42.576	3.8346e-06	52.401	95.004	40.720	62.501	-8.328	180.149	103.980	-8.610	-3.970	220.650	94.868	-4.564	0.241	0.571	4.871	95.558	4.135	-8191	255	
18930.074	1	1	0	0	0.12509	0.14853	0.20801	0.258	0.015051	0.085483	0.23797	0.13888	0.14824	0.25719	0.1972	0.19295	0.14574	0.19246	0.044655	0.078437	-4.6708	-4.1438	-4.6104	-5.0188	-3.9271	-4.8667	-4.5542	-4.4208	-4.9958	-4.1167	-4.6312	-4.7667	-4.0104	-4.9479	-4.5229	-4.2083	4.319	106.898	212.588	298.475	86.610	144.307	290.220	303.164	228.024	134.559	197.668	-19.034	301.806	181.591	25.996	293.345	0.00043602	0.00080888	0.00021435	1378.1	2.9545e-06	3.5522e-06	1373.6	370.8	3.0612e-06	2.7722e-06	426.27	141.99	123.31	42.487	4.0905e-06	52.671	0.00035042	0.00035001	9.6892e-05	1377.1	3.8276e-06	3.8239e-06	1377.2	371.15	3.7993e-06	3.8425e-06	423.05	142	122.96	42.466	3.8559e-06	52.468	80.116	42.233	16.947	-8.556	62.301	74.755	-8.665	-4.042	219.701	310.295	-4.203	-0.123	0.162	5.068	126.441	3.933	-8191	255	
18930.170	1	1	0	0	0.11367	0.16136	0.25181	0.22375	0.21756	0.2106	0.030013	0.24736	0.13883	0.22753	0.26264	0.16268	0.15677	0.091348	0.011108	0.1918	-4.6062	-4.1271	-4.3458	-5.075	-3.8292	-4.7792	-4.8187	-4.1604	-5.025	-4.0458	-4.4417	-5	-4.175	-4.7792	-4.5917	-4.075	321.687	190.042	306.117	42.038	-5.712	49.445	-6.759	295.794	45.606	74.108	193.959	323.872	-9.319	333.514	143.525	243.083	0.00047226	0.00045591	9.0631e-05	1387.7	1.2705e-06	3.4982e-06	1372.1	371.84	1.7842e-06	8.2126e-06	425.71	141.77	123.2	42.306	7.6755e-06	52.32	0.00035726	0.00035112	9.8283e-05	1381.1	3.8868e-06	3.8048e-06	1375.1	371.67	3.8187e-06	3.8008e-06	423.44	141.8	123.16	42.486	3.8346e-06	52.389	115.717	67.987	289.497	-8.440	221.688	100.382	-8.527	-3.942	246.766	106.932	-4.690	0.092	0.429	5.409	89.518	4.314	-8191	255	
18930.291	1	1	0	0	0.14636	0.19002	0.17198	0.32768	0.16243	0.29912	0.27705	0.27771	0.17717	0.1152	0.15325	0.16686	0.10958	0.12427	0.16103	0.28446	-4.6667	-4.2354	-4.25	-5.3146	-3.8167	-4.7292	-4.9729	-4.0875	-4.85	-4.3729	-4.3063	-5.1583	-4.2417	-4.7771	-4.9	-4.1937	178.104	-21.589	278.974	328.784	126.376	144.952	300.771	280.556	133.637	58.246	320.054	264.897	235.828	300.762	129.710	256.110	0.00037458	0.0006237	8.4676e-05	1383.8	2.4304e-06	2.5475e-06	1377.7	370.44	3.7237e-06	3.5631e-06	428.46	141.31	122.94	42.377	8.4888e-06	52.733	0.00035216	0.00034972	9.8102e-05	1379.3	3.8783e-06	3.8355e-06	1378.6	371.32	3.8809e-06	3.879e-06	424	141.71	123.08	42.542	3.908e-06	52.487	95.237	89.484	23.183	-8.357	165.552	111.632	-8.490	-3.975	147.758	97.662	-4.431	-0.003	0.953	5.074	116.122	4.214	-8191	255	
18930.387	1	1	0	0	0.07739	0.089122	0.031206	0.28656	0.10239	0.26652	0.40366	0.15858	0.031111	0.28381	0.11513	0.049599	0.13342	0.066417	0.16268	0.11371	-4.6583	-4.3938	-4.1625	-5.2104	-4.0333	-4.5458	-5.0437	-4.2188	-4.8229	-4.5542	-4.1875	-5.3479	-4.3292	-4.5229	-4.8083	-4.1917	80.348	77.412	264.405	310.958	59.505	14.110	234.844	2.121	283.574	94.608	-17.512	86.107	187.265	166.297	36.728	229.331	0.00026707	0.00038659	4.7796e-05	1381.9	6.3916e-06	5.753e-06	1377.7	372.21	5.5963e-06	5.1061e-06	427.21	141.71	122.93	42.437	4.2468e-06	52.523	0.00035937	0.00035727	9.8216e-05	1380.4	3.9104e-06	3.8829e-06	1379.1	371.51	3.886e-06	3.8869e-06	424.09	141.8	123.01	42.52	3.8747e-06	52.419	109.226	44.457	25.032	-8.580	134.685	142.234	-8.690	-3.866	130.269	153.073	-4.589	0.027	0.309	5.272	63.894	4.301	-8191	255	
18930.482	1	1	0	0	0.037186	0.17607	0.077288	0.087763	0.17483	0.06681	0.17283	0.35806	0.095192	0.14651	0.12794	0.093861	0.29351	0.31257	0.061121	0.13011	-4.5208	-4.6	-4.1188	-5.1104	-4.2417	-4.35	-5.1125	-4.1021	-4.6729	-4.6583	-4.1854	-5.0208	-4.5021	-4.225	-4.9833	-4.1375	255.950	232.263	43.590	51.638	209.298	98.424	34.243	310.902	55.489	46.299	6.617	238.730	321.152	290.535	74.372	278.489	0.00047071	0.00052233	0.00029402	1389	2.9797e-06	4.9908e-06	1373.5	373.96	4.3731e-06	5.6418e-06	425.67	141.96	122.91	42.384	6.4877e-06	52.736	0.00035954	0.00035358	9.8675e-05	1382.5	3.955e-06	3.8875e-06	1380	372.5	3.9137e-06	3.9089e-06	423.87	141.81	123.28	42.502	3.893e-06	52.56	99.696	17.396	32.171	-8.503	135.309	150.555	-8.649	-4.027	200.841	84.588	-4.636	-0.206	0.801	5.128	148.300	4.311	-8191	255	
18930.555	1	1	0	0	0.12839	0.14605	0.08075	0.36139	0.15948	0.16674	0.28359	0.24291	0.10315	0.12822	0.17213	0.22947	0.18502	0.054007	0.031997	0.23574	-4.3208	-4.6125	-3.9146	-5.0292	-4.3083	-4.3438	-5.2271	-4.1354	-4.6167	-4.9729	-4.2896	-5.1292	-4.675	-4.3167	-5.1021	-4.0938	281.005	248.234	297.893	324.849	65.540	330.786	-17.977	330.871	329.778	281.811	299.529	-21.410	31.817	276.951	109.488	289.563	0.0003549	0.00046734	0.00022491	1392.6	1.304e-06	2.999e-06	1376.5	370.74	4.037e-06	8.299e-06	426.4	142.04	122.91	42.654	6.2819e-06	52.743	0.00035607	0.00035428	9.7996e-05	1382.6	3.8705e-06	3.8322e-06	1378.4	371.81	3.8529e-06	3.8522e-06	423.71	141.77	122.95	42.628	3.8907e-06	52.523	88.616	123.659	64.004	-8.461	312.925	156.044	-8.767	-3.935	95.178	103.832	-4.748	0.087	0.466	5.081	135.294	4.188	-8191	255	
18930.650	1	1	0	0	0.076653	0.11807	0.14661	0.077196	0.13823	0.13331	0.23359	0.1183	0.18522	0.1346	0.10893	0.012641	0.14313	0.16446	0.066959	0.11878	-4.3271	-4.9167	-3.9938	-5.1229	-4.4833	-4.1417	-5.2438	-4.2167	-4.3229	-4.9313	-4.05	-4.8604	-4.6979	-4.1438	-4.975	-4.3792	241.038	122.528	67.075	49.280	319.872	148.611	327.265	-8.958	244.974	104.619	269.610	140.649	31.921	241.906	64.490	194.738	0.00046971	0.0004164	0.00010484	1379.8	4.8646e-06	5.8329e-06	1375.2	371.1	3.9024e-06	3.19e-06	425.35	141.65	123.57	42.437	1.8534e-06	52.283	0.00035582	0.00034725	9.815e-05	1380.3	3.8697e-06	3.8046e-06	1379.6	371.67	3.8496e-06	3.7807e-06	423.21	141.65	123.24	42.493	3.748e-06	52.358	94.149	98.505	91.282	-8.518	95.909	95.058	-8.303	-4.005	235.397	51.771	-4.447	-0.085	0.657	5.022	117.839	4.369	-8191	255	
18930.771	1	1	0	0	0.2383	0.070593	0.025332	0.18068	0.04444	0.083823	0.096673	0.43852	0.079597	0.1169	0.19607	0.043082	0.13373	0.14815	0.012816	0.08246	-3.95	-4.8083	-3.9229	-4.9604	-4.5833	-4.0479	-5.1417	-4.4708	-4.275	-4.8979	-4.2458	-4.7771	-4.9833	-4.2083	-4.8896	-4.4854	12.033	249.965	224.693	281.335	186.366	143.774	311.558	251.852	153.570	96.664	230.395	79.171	304.165	261.091	248.830	291.174	0.00029333	0.00062001	0.00029239	1383.3	4.8636e-06	1.6433e-06	1373.9	372.5	2.2759e-06	1.822e-06	425.58	141.14	123.37	42.394	6.8365e-06	52.595	0.00035036	0.00034402	9.6196e-05	1378.5	3.7701e-06	3.7539e-06	1376.2	371.9	3.7728e-06	3.7367e-06	423.62	141.57	122.86	42.426	3.733e-06	52.441	85.162	29.444	3.267	-8.402	114.286	64.600	-8.505	-3.861	84.311	22.929	-4.421	-0.125	0.575	4.846	117.938	4.387	-8191	255	
18930.865	1	1	0	0	0.23803	0.32248	0.2584	0.032932	0.075766	0.030688	0.20032	0.19025	0.19702	0.098943	0.19867	0.1242	0.13448	0.15593	0.11002	0.13018	-3.9771	-4.7146	-4.2021	-4.7	-4.8292	-4.1521	-4.9563	-4.6208	-4.2	-5	-4.1417	-4.4313	-4.8896	-4.0854	-4.8729	-4.5687	70.404	177.588	313.837	9.194	196.761	264.778	297.462	308.075	186.176	20.802	84.943	288.919	37.130	233.604	336.600	94.957	0.00038552	0.00034479	8.5858e-05	1382.1	6.0562e-06	7.0808e-06	1382.2	369.83	7.934e-06	5.3956e-06	426.08	141.73	123.42	42.606	6.8002e-06	52.502	0.00034478	0.00034007	9.494e-05	1378	3.7698e-06	3.7232e-06	1379.5	370.44	3.734e-06	3.7399e-06	423.62	141.65	123.14	42.51	3.7502e-06	52.398	90.899	64.058	12.870	-8.505	141.938	105.963	-8.605	-3.613	100.042	128.824	-4.399	-0.128	0.499	5.119	114.323	4.239	-8191	255	
18930.965	1	1	0	0	0.20118	0.045099	0.23761	0.21185	0.091095	0.05716	0.20003	0.15947	0.12221	0.034633	0.1407	0.21647	0.035405	0.27345	0.28155	0.079596	-3.8937	-4.8688	-4.3187	-4.5771	-4.7625	-3.7542	-4.8562	-4.5917	-3.9146	-4.9229	-4.3646	-4.3771	-5.0542	-4.0708	-4.5917	-4.7542	-20.774	240.529	-8.422	293.088	155.571	-11.988	300.310	293.971	109.695	327.195	309.733	-7.682	331.572	313.335	220.538	231.482	0.00023792	0.00028138	0.0001593	1380.8	2.9409e-06	4.9257e-06	1380.5	369.19	1.4926e-06	1.0701e-05	425.45	141.13	123.15	42.395	1.7982e-06	52.379	0.00034788	0.00033988	9.6619e-05	1377.9	3.7726e-06	3.7205e-06	1377.2	370.66	3.7153e-06	3.7199e-06	422.7	141.6	122.9	42.419	3.6934e-06	52.368	86.285	57.342	46.705	-8.460	102.811	81.371	-8.593	-3.782	292.309	139.701	-4.774	-0.435	0.513	4.885	159.974	4.364	-8191	255	
18931.082	1	1	0	0	0.075831	0.10172	0.12781	0.18322	0.17596	0.12841	0.27728	0.28129	0.15994	0.16656	0.12317	0.1274	0.2123	0.18015	0.15434	0.28112	-3.4813	-4.825	-4.2562	-4.4042	-4.9437	-3.9729	-4.8979	-4.7958	-4.0125	-4.9333	-4.5188	-4.1771	-5.0687	-4.1125	-4.4042	-4.8354	240.186	37.289	48.468	314.521	156.547	321.846	292.040	288.533	76.550	130.924	273.299	306.563	50.821	275.442	215.876	335.629	0.00037218	0.00074096	0.00016729	1381.4	5.3011e-06	1.7464e-06	1378	369.7	4.9102e-06	3.5755e-06	424.67	141.73	123.87	42.497	5.1432e-06	52.483	0.00033653	0.00033116	9.2739e-05	1376.6	3.6123e-06	3.608e-06	1376.6	370.74	3.5952e-06	3.5662e-06	421.9	141.48	122.78	42.398	3.5196e-06	52.202	99.355	51.951	44.470	-8.462	85.534	10.869	-8.608	-3.907	141.030	107.821	-4.378	-0.263	0.567	4.714	82.451	4.555	-8191	255	
18931.154	1	1	0	0	0.15644	0.14881	0.022194	0.14631	0.10321	0.10176	0.27556	0.1212	0.19824	0.26857	0.14242	0.28529	0.38718	0.25131	0.088686	0.092022	-3.5917	-4.8208	-4.3812	-4.4167	-4.9146	-4.2104	-4.6417	-5.0708	-3.8646	-4.85	-4.6458	-4.1979	-5.025	-4.3	-4.3292	-4.8146	240.995	107.778	218.759	270.925	286.440	120.037	303.372	297.060	232.825	25.487	177.468	317.048	303.244	311.716	241.621	335.248	0.00042787	0.0005194	0.00010093	1381.1	1.5404e-06	1.7754e-06	1376.3	372.05	6.0508e-06	4.3619e-06	423.33	142.06	123.19	42.595	9.2327e-06	52.499	0.00032591	0.00031848	8.9263e-05	1376.7	3.4802e-06	3.4995e-06	1375.6	371.09	3.4985e-06	3.4503e-06	421.99	141.29	122.49	42.436	3.4635e-06	52.168	104.532	70.085	70.245	-8.346	69.239	22.296	-8.696	-4.061	183.439	120.646	-4.731	-0.310	0.526	5.140	83.432	4.285	-8191	255	
18931.250	1	1	0	0	0.14719	0.16842	0.046729	0.12197	0.07854	0.112	0.24432	0.17594	0.17807	0.06522	0.082448	0.13465	0.18402	0.10087	0.081507	0.091074	-3.7958	-4.5833	-4.6354	-4.1042	-4.9271	-4.3771	-4.4792	-5.0062	-3.9083	-4.7	-4.8063	-4.1146	-5.1687	-4.3771	-4.3458	-5.2167	180.365	97.805	133.265	8.192	314.766	57.969	297.688	297.843	183.280	114.238	286.041	-4.282	216.290	71.968	145.881	57.953	0.00036498	0.00037709	0.0001823	1380.1	6.3683e-06	3.278e-06	1380.7	371.25	2.8851e-06	3.7062e-06	425.63	141.35	124.15	42.376	2.5426e-06	52.526	0.00032	0.00031524	8.8181e-05	1375.5	3.4654e-06	3.4538e-06	1374.4	370.74	3.4626e-06	3.5024e-06	421.89	141.16	122.99	42.37	3.5302e-06	52.301	99.605	83.785	19.793	-8.687	173.346	211.063	-8.598	-3.864	84.726	1.244	-4.224	-0.415	0.357	5.353	52.171	4.179	-8191	255	
18931.371	1	1	0	0	0.25142	0.0285	0.16196	0.21086	0.22719	0.056538	0.39181	0.25126	0.20481	0.17335	0.20329	0.38061	0.33106	0.12896	0.24332	0.14416	-3.8187	-4.6292	-4.7521	-4.1958	-4.7917	-4.2771	-4.4583	-5.0687	-4.0271	-4.4917	-5.1188	-4.1188	-4.9021	-4.5146	-4.1271	-5.1646	13.535	40.017	192.263	321.512	327.777	208.653	307.259	222.836	179.868	74.484	248.989	208.014	305.783	281.895	105.788	216.386	0.00032039	0.00073142	0.00024882	1384	2.5269e-06	3.076e-06	1381.7	369.73	4.6185e-06	4.3761e-06	424.87	141.04	123.19	42.528	5.9477e-06	52.417	0.00032871	0.00032229	9.0917e-05	1377.1	3.6008e-06	3.6086e-06	1375.9	370.84	3.6315e-06	3.6507e-06	421.85	141.52	122.84	42.515	3.6493e-06	52.319	87.656	18.135	20.157	-8.590	119.720	80.761	-8.681	-3.914	159.078	78.470	-4.494	-0.110	0.450	5.190	145.761	4.398	-8191	255	
18931.467	1	1	0	0	0.20913	0.12883	0.22566	0.0098505	0.20367	0.11716	0.20697	0.078014	0.058837	0.090517	0.16271	0.18826	0.34594	0.15458	0.14866	0.39883	-3.8292	-4.5167	-4.9104	-4.1729	-4.6854	-4.6833	-4.2271	-5.1917	-4.1333	-4.3542	-5.1104	-4.0354	-4.8667	-4.5979	-4.1708	-5.0333	327.695	284.467	174.234	293.262	51.361	227.722	321.438	197.423	321.359	272.554	76.631	232.087	286.965	71.332	311.942	292.982	0.0003608	0.00067512	0.0002786	1382.3	6.8878e-06	3.6932e-06	1373.5	370.08	7.7866e-07	5.3092e-06	424.72	141.41	123.09	42.401	3.6165e-06	52.425	0.0003406	0.00034031	9.4194e-05	1378.5	3.7291e-06	3.7277e-06	1375.9	371.02	3.7512e-06	3.7041e-06	422.54	141.32	122.8	42.468	3.7297e-06	52.393	92.970	70.062	47.619	-8.454	128.710	73.958	-8.570	-3.851	128.230	113.109	-4.584	-0.252	0.632	4.996	94.831	3.929	-8191	255	
18931.562	1	1	0	0	0.055707	0.16474	0.20396	0.36647	0.20979	0.31268	0.1463	0.18138	0.11158	0.10853	0.2704	0.13006	0.15722	0.082755	0.051537	0.26752	-4.0146	-4.3292	-4.8688	-4.175	-4.6312	-4.7792	-4.3729	-5.0813	-4.2562	-4.2438	-4.9812	-4	-4.6354	-4.7792	-3.9083	-4.9333	311.032	64.495	289.301	307.849	293.551	29.151	258.298	302.897	256.057	277.906	292.641	294.214	301.790	242.510	138.526	253.970	0.00036064	0.00057855	0.00012372	1373.9	6.5974e-06	3.3067e-06	1378.8	371.4	7.1087e-06	4.6396e-06	424.94	141.53	123.38	42.259	5.1034e-06	52.462	0.00034901	0.00034757	9.5319e-05	1378.6	3.7844e-06	3.7485e-06	1376.4	371.58	3.7354e-06	3.7234e-06	422.96	141.65	123.05	42.406	3.7307e-06	52.41	80.163	52.154	91.031	-8.341	136.861	108.388	-8.473	-3.922	13.641	116.906	-4.700	-0.254	0.334	4.807	128.158	4.071	-8191	255	
18931.684	1	1	0	0	0.030193	0.026533	0.15823	0.19094	0.18834	0.22339	0.20878	0.26533	0.1805	0.26262	0.05396	0.10558	0.084815	0.14247	0.13513	0.10173	-4.1417	-4.1771	-5.0521	-4.3083	-4.5479	-4.6625	-4.0563	-4.9396	-4.4313	-4.0667	-5.2396	-4.3187	-4.7021	-5.0417	-4.0708	-4.9	174.725	291.865	328.366	67.278	38.473	172.468	310.007	266.693	335.415	59.190	332.396	259.883	-0.700	-5.737	224.732	-17.594	0.00031105	0.00060576	0.00017665	1383.7	5.8297e-06	5.5076e-06	1378.1	371.3	5.5372e-06	4.8441e-07	424.14	141.9	123.88	42.492	3.3947e-06	52.6	0.00034269	0.00033983	9.3714e-05	1378	3.6902e-06	3.6836e-06	1376.8	371.29	3.6517e-06	3.5979e-06	422.89	141.46	122.75	42.442	3.6287e-06	52.278	112.920	87.611	-14.926	-8.489	85.804	122.988	-8.797	-3.922	77.648	135.643	-4.239	0.000	0.399	5.260	89.458	4.208	-8191	255	
18931.779	1	1	0	0	0.072817	0.10609	0.15039	0.17876	0.11899	0.21241	0.33628	0.13843	0.14908	0.10023	0.2033	0.094723	0.2405	0.17232	0.1154	0.14566	-4.2292	-4.2021	-5.075	-4.3	-4.4167	-5.0875	-4.2104	-4.8708	-4.7708	-3.9979	-5.2208	-4.4938	-4.2896	-4.9896	-4.0271	-4.875	15.981	98.147	180.448	304.899	98.416	50.564	281.113	9.686	301.229	98.217	326.800	295.174	320.108	300.025	162.895	287.851	0.00043402	0.00014373	7.9112e-05	1382	2.2956e-06	6.1991e-06	1382.1	373.14	5.8122e-06	5.9637e-06	426.17	141.51	122.94	42.413	5.2562e-06	52.171	0.0003321	0.00032728	9.0422e-05	1378.8	3.5742e-06	3.6197e-06	1377.2	371.26	3.5892e-06	3.5739e-06	422.46	141.51	122.78	42.398	3.5907e-06	52.216	92.600	325.431	126.206	-8.521	113.309	103.897	-8.495	-3.977	111.078	94.450	-4.313	-0.038	0.414	5.271	128.474	4.004	-8191	255	
18931.852	1	1	0	0	0.18833	0.20985	0.1445	0.22152	0.22451	0.14108	0.066369	0.16832	0.13151	0.11832	0.11092	0.072049	0.2879	0.13381	0.23034	0.21603	-4.3146	-4.0375	-4.9146	-4.7083	-4.2667	-5.0542	-4.2146	-4.7667	-4.6958	-3.9708	-5.0958	-4.5146	-4.2042	-5.0667	-4.2521	-4.7438	226.498	314.147	221.818	-14.089	299.079	254.164	167.948	285.892	135.475	265.072	296.806	281.045	263.374	-0.422	232.177	193.665	0.0003844	0.00052748	2.9378e-05	1381.9	7.3156e-06	1.8934e-06	1375.9	369.99	6.3342e-06	1.8555e-06	425.78	141.35	123.11	42.513	4.4463e-06	52.541	0.00033395	0.00033297	9.2487e-05	1378.8	3.6673e-06	3.6562e-06	1378.7	370.85	3.6867e-06	3.6178e-06	422.64	141.59	122.86	42.534	3.6712e-06	52.335	103.287	66.839	-12.587	-8.527	110.639	337.457	-8.617	-3.943	122.129	143.955	-4.404	-0.235	0.236	5.149	24.867	4.236	-8191	255	
18931.971	1	1	0	0	0.14767	0.08486	0.23509	0.028899	0.26806	0.066576	0.1401	0.35255	0.12942	0.08999	0.31734	0.31659	0.064567	0.16204	0.076701	0.1536	-4.4979	-3.9646	-4.8229	-4.5354	-3.9771	-4.9958	-4.3646	-4.5104	-4.8771	-3.8625	-4.9479	-4.5563	-4.1021	-5.0042	-4.3438	-4.4229	183.866	242.121	37.695	136.824	169.306	106.407	276.658	315.325	58.288	29.180	-16.064	-11.662	279.863	317.087	288.459	315.054	0.00043423	0.00045182	0.00022799	1386	8.7154e-06	4.6362e-06	1385.7	371.14	1.7546e-06	5.6579e-06	426.69	142.03	123.54	42.384	1.3709e-06	52.279	0.00033773	0.00033461	9.2431e-05	1378.8	3.6706e-06	3.6534e-06	1379.3	370.96	3.6428e-06	3.6743e-06	422.59	141.6	122.74	42.427	3.6724e-06	52.316	96.713	7.805	41.887	-8.633	142.609	155.474	-8.825	-3.947	130.081	155.442	-4.326	-0.322	0.499	5.064	97.960	4.381	-8191	255	
18932.066	1	1	0	0	0.14215	0.25112	0.18864	0.099284	0.48396	0.015228	0.097912	0.20329	0.23591	0.17274	0.12058	0.20398	0.10953	0.045189	0.10857	0.20964	-4.5833	-3.7438	-4.6708	-4.7812	-4.1646	-5.0271	-4.5604	-4.4104	-5.1062	-3.9792	-4.8583	-4.8354	-4.1104	-5.0292	-4.175	-4.275	76.755	240.047	298.514	301.955	14.669	69.883	319.212	274.335	287.432	163.121	93.555	324.690	306.949	0.610	102.588	306.361	0.00050285	0.00054993	4.3422e-05	1384.8	3.324e-06	9.2443e-07	1383.2	371.09	4.6343e-06	5.1016e-07	424.29	141.49	123.59	42.475	1.7814e-06	52.506	0.00033835	0.00033537	9.267e-05	1379.8	3.6538e-06	3.598e-06	1379.9	370.88	3.6331e-06	3.6079e-06	422.48	141.41	122.82	42.434	3.5794e-06	52.271	100.805	76.322	166.265	-8.461	147.102	30.188	-8.577	-4.093	205.301	82.594	-4.720	-0.291	0.166	5.403	121.943	4.170	-8191	255	
18932.162	1	1	0	0	0.20643	0.086578	0.092091	0.24841	0.12317	0.19438	0.46769	0.34185	0.17133	0.16747	0.11141	0.15678	0.19167	0.079941	0.051772	0.051016	-4.5708	-4.0604	-4.4646	-4.95	-3.9917	-4.9521	-4.7354	-4.2375	-4.8438	-3.8958	-4.5979	-5.025	-4.0625	-4.8917	-4.5417	-4.2396	227.390	54.689	108.330	281.656	144.683	269.788	276.852	256.327	78.543	93.550	272.421	26.616	286.188	88.628	42.897	267.319	0.00035951	0.00052119	7.3958e-05	1385.8	8.0487e-06	2.2305e-06	1381.4	372.12	3.9715e-06	2.7505e-06	427.25	141.38	123.01	42.641	8.5801e-06	52.475	0.00032827	0.00032656	8.9835e-05	1379.7	3.5501e-06	3.5229e-06	1377.3	371.09	3.5444e-06	3.5494e-06	422.29	141.32	122.73	42.462	3.5007e-06	52.231	95.908	26.397	37.862	-8.330	120.418	169.444	-8.429	-4.172	137.519	27.118	-4.496	-0.007	0.410	5.246	159.902	4.206	-8191	255	
18932.260	1	1	0	0	0.039848	0.15229	0.18267	0.26922	0.25217	0.098117	0.20559	0.12895	0.19437	0.14341	0.34088	0.30901	0.10936	0.18242	0.080509	0.14208	-4.6312	-4.2354	-4.3583	-5.0958	-3.9896	-4.5792	-4.7438	-4.1833	-4.9896	-4.4396	-4.4083	-4.9542	-4.1479	-4.8583	-4.6771	-4.1438	16.155	152.433	270.962	282.102	143.571	297.343	210.541	24.556	183.902	138.576	-15.535	267.149	276.159	276.225	276.281	69.617	0.00041966	0.00029146	0.00010467	1380.8	1.2929e-06	6.3575e-06	1375.7	371.27	3.2435e-06	2.1179e-06	427.03	141.26	123.21	42.332	4.2604e-06	52.513	0.00032415	0.00032311	8.9961e-05	1379.2	3.5616e-06	3.47e-06	1375.2	370.38	3.4438e-06	3.4488e-06	422.32	140.97	122.26	42.265	3.4622e-06	52.197	92.642	35.747	73.611	-8.441	83.279	86.324	-8.673	-4.079	57.164	50.884	-4.567	-0.072	0.387	4.884	120.468	3.945	-8191	255	
18932.355	1	1	0	0	0.13423	0.15152	0.19008	0.096031	0.17278	0.060723	0.17555	0.13523	0.15709	0.12964	0.15444	0.13755	0.12683	0.11871	0.095003	0.3106	-4.6708	-4.3208	-4.3583	-5.2396	-3.8937	-4.7271	-4.9187	-4.1875	-4.9458	-4.4604	-4.3083	-5.0646	-4.0625	-4.6083	-4.825	-4.0646	237.645	52.633	257.088	-20.801	18.956	118.669	240.028	218.875	-13.311	217.868	-9.430	7.845	22.984	195.137	132.030	257.420	0.00034588	0.00041885	0.00025281	1385.2	8.7362e-06	2.7873e-06	1384.9	371.94	5.2e-06	5.2637e-06	426.24	142.83	123.66	42.624	5.2111e-06	52.677	0.00032209	0.00031987	9.0495e-05	1379.6	3.5979e-06	3.5543e-06	1381.8	371.62	3.6615e-06	3.6946e-06	423.76	142.03	123.38	42.608	3.749e-06	52.506	90.149	59.893	10.824	-8.343	132.709	131.498	-8.440	-3.899	78.561	81.681	-4.474	-0.029	0.469	5.108	120.290	4.061	-8191	255	
18932.451	1	1	0	0	0.10892	0.21985	0.23885	0.18232	0.21945	0.094356	0.10599	0.16191	0.11863	0.058953	0.23078	0.10209	0.066233	0.087012	0.065676	0.14739	-4.7104	-4.5	-4.1792	-5.225	-4.2063	-4.5708	-5.1375	-4.1521	-4.8521	-4.5729	-4.2979	-5.0917	-4.2417	-4.4563	-4.8625	-4.0104	157.073	12.932	133.736	-17.568	51.738	98.565	281.261	158.500	141.562	63.958	325.410	333.245	274.438	138.660	75.400	43.667	0.0004332	0.00076504	8.8757e-05	1400.3	1.0035e-05	6.0155e-06	1395.1	374.06	3.5197e-06	2.885e-06	430.56	142.41	124.1	42.709	3.7814e-06	52.637	0.00034899	0.00034917	9.6545e-05	1396	3.8489e-06	3.8289e-06	1394.8	374.59	3.8387e-06	3.8084e-06	427	142.69	123.83	42.776	3.7844e-06	52.583	112.572	-4.787	50.403	-8.315	60.989	73.840	-8.359	-3.938	153.424	134.712	-4.508	-0.060	0.186	5.019	154.061	3.857	-8191	255	
18932.549	1	1	0	0	0.085134	0.32958	0.03969	0.093875	0.092528	0.077214	0.41942	0.25139	0.17628	0.16862	0.029099	0.18758	0.14792	0.26939	0.1305	0.11546	-4.3187	-4.7646	-4.0813	-5.2104	-4.2063	-4.3562	-5.1521	-4.1729	-4.7125	-4.725	-4.0958	-5.1312	-4.3812	-4.3313	-5.0646	-4.1667	232.967	306.526	-9.984	17.909	49.444	237.318	310.958	-7.886	21.279	45.100	-6.582	294.990	330.025	314.741	147.390	-13.196	0.00020564	0.00031731	0.00015716	1402.8	6.3791e-06	8.5266e-06	1394.8	374.96	5.7011e-06	1.6095e-06	429.84	141.64	124.33	42.716	2.1709e-06	52.843	0.00034579	0.00033994	9.5005e-05	1395.9	3.7267e-06	3.7042e-06	1392.2	374.27	3.6367e-06	3.6293e-06	425.13	142.16	123.77	42.738	3.5722e-06	52.587	105.601	10.074	74.107	-8.463	109.605	97.492	-8.618	-4.202	105.373	158.913	-4.647	0.007	0.555	4.919	226.452	3.903	-8191	255	
18932.645	1	1	0	0	0.098766	0.11747	0.11482	0.16532	0.084544	0.082907	0.21054	0.064005	0.21253	0.13419	0.21734	0.1633	0.024267	0.035338	0.091116	0.12827	-4.2958	-4.625	-4	-5.1396	-4.3792	-4.1438	-5.1917	-4.2229	-4.45	-4.9667	-4.2375	-5.0292	-4.5958	-4.2479	-4.9	-4.2333	272.528	91.622	2.491	-12.096	26.106	307.480	305.860	18.996	46.093	206.605	65.317	310.890	255.393	110.629	276.048	218.398	0.00025366	0.00029455	0.0001722	1405.8	4.2569e-06	5.7298e-06	1395.4	373.41	5.2562e-06	3.7056e-06	429.05	142.62	124	42.579	9.31e-06	52.802	0.0003304	0.00032991	9.062e-05	1397.8	3.6169e-06	3.5757e-06	1393.9	373.63	3.5414e-06	3.5269e-06	425.74	142.25	123.59	42.644	3.498e-06	52.565	83.542	324.147	42.500	-8.564	68.441	151.347	-8.572	-3.833	170.777	57.442	-4.397	-0.204	0.710	4.998	138.470	4.350	-8191	255	
18932.764	1	1	0	0	0.24909	0.12149	0.077513	0.12745	0.047074	0.31641	0.21276	0.28984	0.12316	0.23247	0.05115	0.12195	0.073687	0.16473	0.14057	0.13581	-4.2021	-4.8708	-3.8979	-5.0479	-4.5646	-4.025	-5.3562	-4.2583	-4.3271	-4.7833	-4.1396	-4.7958	-4.6333	-4.0417	-4.9125	-4.3771	83.561	330.721	279.121	288.552	71.358	240.056	329.575	22.425	121.303	315.192	282.218	70.752	-6.709	-7.803	214.118	220.486	0.00041459	0.00045561	0.00013935	1394.9	6.0198e-06	5.6738e-06	1392.5	373.07	3.8859e-06	2.9102e-06	428.36	142.65	124.21	42.597	6.5957e-06	52.935	0.00031972	0.00031168	8.6396e-05	1389.9	3.3848e-06	3.3223e-06	1385	372.63	3.3015e-06	3.2688e-06	422.81	141.84	123.03	42.496	3.321e-06	52.396	99.911	32.522	24.024	-8.405	144.885	141.107	-8.655	-4.028	116.639	110.712	-4.453	-0.203	0.557	4.974	115.572	4.546	-8191	255	
18932.859	1	1	0	0	0.069176	0.25618	0.10219	0.14466	0.10466	0.29302	0.27355	0.11359	0.20235	0.059969	0.22318	0.12107	0.20048	0.19067	0.13699	0.28899	-3.9354	-4.8979	-4.0646	-4.8438	-4.6188	-3.925	-5.1979	-4.4146	-4.2917	-4.9625	-4.1771	-4.7354	-4.9104	-3.9813	-4.7583	-4.4563	137.175	273.924	150.029	277.506	319.474	-1.547	270.983	275.308	-15.103	106.205	275.165	248.491	327.586	311.272	16.797	237.321	0.00036732	0.00037168	0.00010885	1398.7	2.0344e-06	4.5819e-06	1389.6	372.65	1.0292e-06	3.389e-06	427.91	142.32	124.24	42.744	5.7927e-06	52.904	0.00031255	0.00030921	8.6508e-05	1389.1	3.4691e-06	3.456e-06	1389.6	373.31	3.4634e-06	3.4567e-06	424.85	141.97	123.61	42.637	3.4468e-06	52.47	87.907	3.957	214.447	-8.581	123.646	63.823	-8.643	-4.008	53.154	138.010	-4.376	-0.195	0.700	4.824	128.835	4.274	-8191	255	
18932.955	1	1	0	0	0.15356	0.019875	0.16316	0.33455	0.2227	0.066811	0.33003	0.085072	0.076046	0.35313	0.10943	0.15803	0.16142	0.26103	0.24136	0.32496	-3.7375	-4.9187	-3.9771	-4.7521	-4.5708	-4.0354	-5.1792	-4.6854	-4.1917	-4.9646	-4.1896	-4.6417	-4.85	-4.0229	-4.7604	-4.6646	241.740	116.733	35.821	308.789	208.768	261.237	278.654	140.796	0.645	83.563	259.221	73.581	270.341	309.021	111.990	271.843	0.0002572	0.00070057	0.00019206	1396.3	3.9619e-06	1.1821e-06	1386	373.21	6.133e-07	3.7041e-06	429.84	142.94	124.44	42.626	6.5513e-06	52.607	0.00031721	0.00031137	8.7044e-05	1389	3.4136e-06	3.3757e-06	1386.2	372.61	3.3715e-06	3.3471e-06	424.36	142.21	123.49	42.577	3.3862e-06	52.485	84.114	61.776	1.956	-8.699	103.902	104.209	-8.596	-3.920	30.083	138.294	-4.409	-0.420	0.733	4.980	139.293	4.299	-8191	255	
18933.053	1	1	0	0	0.10998	0.10418	0.084653	0.30341	0.081367	0.088901	0.1749	0.21412	0.13575	0.1197	0.16098	0.21452	0.083446	0.111	0.096674	0.23359	-3.7188	-4.8479	-4.1417	-4.5208	-4.9938	-4.1271	-4.9313	-4.7375	-4.0667	-4.9979	-4.4396	-4.4521	-5.3333	-4.0229	-4.7271	-4.7479	204.687	47.744	129.611	307.708	41.323	55.026	239.679	321.641	-4.579	332.060	263.524	265.376	201.227	322.932	218.932	103.797	0.0003885	0.00086795	0.00015716	1395.5	2.505e-06	1.7355e-06	1387.6	374.72	3.5499e-06	5.3939e-06	428.72	141.16	124.03	42.508	8.0483e-06	52.401	0.00031342	0.00030978	8.7375e-05	1388.3	3.3524e-06	3.382e-06	1386.4	372.78	3.3674e-06	3.3591e-06	424.51	141.57	123.28	42.532	3.3208e-06	52.31	96.960	85.420	61.295	-8.613	71.261	84.928	-8.667	-3.937	97.043	57.815	-4.607	-0.321	0.460	5.290	109.605	4.180	-8191	255	
18933.146	1	1	0	0	0.16977	0.30258	0.14626	0.15797	0.082062	0.25092	0.2277	0.12088	0.21513	0.18124	0.2222	0.12421	0.068459	0.10047	0.26153	0.092053	-3.8042	-4.8646	-4.3604	-4.3812	-5.0125	-4.0417	-4.8396	-4.8146	-4.0646	-4.9958	-4.5521	-4.3396	-5.0792	-4.1083	-4.4354	-4.9917	26.015	68.182	64.362	319.288	17.263	-11.683	-19.208	308.519	298.299	265.170	325.075	18.381	87.711	111.976	24.347	23.514	0.00045201	0.00032937	9.2389e-05	1395.6	3.5415e-06	5.5289e-06	1391.3	373.9	3.305e-06	2.7121e-06	429.93	142.38	124.23	42.67	4.9863e-06	52.81	0.0003081	0.0003034	8.5241e-05	1389.2	3.3532e-06	3.3477e-06	1387.7	372.34	3.3463e-06	3.3234e-06	424.13	141.82	123.01	42.506	3.2777e-06	52.33	95.734	2.243	-8.976	-8.502	77.942	139.250	-8.526	-3.914	-0.503	75.981	-4.215	-0.259	0.544	4.894	180.626	4.146	-8191	255	
18933.242	1	1	0	0	0.24409	0.1733	0.1183	0.28771	0.075133	0.23298	0.30149	0.29221	0.16578	0.12964	0.27364	0.19567	0.24133	0.182	0.16665	0.10067	-3.7042	-4.8271	-4.5083	-4.3292	-5.0479	-4.1583	-4.4771	-5.1146	-3.9938	-4.8313	-4.7896	-4.2979	-5.0646	-4.2729	-4.3979	-5.1271	198.098	94.576	309.586	311.711	253.132	53.299	301.055	336.137	68.626	202.846	259.754	77.199	318.445	150.403	218.004	25.514	0.00030237	0.00051022	0.00016005	1389.6	6.0873e-06	2.0499e-06	1388.8	374.04	3.6115e-06	4.0057e-06	428.2	141.53	123.68	42.513	1.7341e-06	52.854	0.00030413	0.00030199	8.4001e-05	1385.7	3.2854e-06	3.2924e-06	1386.3	372.31	3.3371e-06	3.3444e-06	423.65	141.56	123.04	42.463	3.2948e-06	52.403	112.747	327.357	-3.272	-8.607	79.349	295.231	-8.738	-3.854	101.388	85.793	-4.654	-0.419	0.333	4.991	188.980	4.259	-8191	255	
18933.363	1	1	0	0	0.13526	0.12751	0.13232	0.36163	0.033639	0.12513	0.35198	0.10295	0.074284	0.17817	0.060726	0.065547	0.11304	0.11089	0.17797	0.070026	-3.7771	-4.6792	-4.5958	-4.3083	-5.0896	-4.2229	-4.5188	-5.0646	-4.0083	-4.6396	-4.8625	-4.1813	-5.0125	-4.5354	-4.0437	-5.1208	314.880	138.296	323.990	332.427	289.076	93.679	251.661	-13.650	293.829	157.434	244.417	146.947	18.616	-12.653	227.823	138.572	0.00031303	0.00058468	0.00011306	1395	4.0951e-06	6.4001e-07	1386.2	372.61	5.6977e-07	1.8935e-06	429.28	142.31	124.19	42.668	6.4622e-06	52.753	0.00030531	0.00029957	8.1534e-05	1385.9	3.2411e-06	3.2295e-06	1384.3	372.14	3.2487e-06	3.1954e-06	423.14	141.6	122.95	42.453	3.1643e-06	52.247	121.267	-0.027	333.161	-8.663	125.925	67.646	-8.814	-3.993	329.231	276.363	-4.407	-0.316	0.552	5.018	103.757	4.629	-8191	255	
18933.461	1	1	0	0	0.1243	0.064826	0.13775	0.17988	0.1473	0.1755	0.31103	0.17539	0.2407	0.076351	0.10974	0.10158	0.14672	0.17457	0.10867	0.13855	-3.6917	-4.625	-4.8896	-4.1042	-4.9458	-4.4729	-4.5312	-5.2625	-4.1542	-4.4792	-5.1188	-4.0625	-4.9104	-4.7688	-3.9729	-5.0708	180.955	192.828	58.396	19.696	267.040	36.921	315.112	280.716	57.878	64.404	311.257	29.988	103.192	277.459	69.158	271.948	0.00035899	0.00050797	0.00021357	1389	4.2981e-06	3.7164e-06	1388.8	372.68	5.2111e-06	4.7737e-06	427.53	142.3	123.87	42.875	6.7779e-06	52.74	0.00029546	0.00028699	7.9545e-05	1384.1	3.1634e-06	3.1226e-06	1384	371.81	3.1359e-06	3.1174e-06	422.58	141.48	122.79	42.496	3.0622e-06	52.18	95.555	54.443	44.279	-8.613	254.945	127.184	-8.679	-3.860	90.983	103.494	-4.648	-0.180	0.416	5.160	114.315	4.267	-8191	255	
18933.557	1	1	0	0	0.072495	0.19092	0.29127	0.24038	0.13998	0.31022	0.17592	0.32029	0.15614	0.023606	0.15294	0.037262	0.069946	0.11334	0.20038	0.10433	-3.9917	-4.3271	-4.7396	-4.2875	-4.775	-4.6979	-4.2208	-4.975	-4.1062	-4.4583	-5.0208	-4.0354	-4.8083	-4.7625	-4.2208	-5.0312	49.296	210.112	92.058	-12.435	206.971	74.146	239.294	332.179	77.262	-4.651	291.284	201.368	122.718	277.540	7.597	169.218	0.00044423	0.0005532	0.00019353	1392.1	2.5115e-06	1.5752e-06	1383.7	373.36	5.8781e-06	6.5317e-06	430.56	141.79	124.58	42.628	3.2067e-06	52.664	0.00028524	0.00027857	7.8701e-05	1384.3	3.1014e-06	3.0647e-06	1382.2	372.03	3.0748e-06	3.0918e-06	423.56	141.53	122.94	42.493	3.0732e-06	52.273	84.357	11.635	57.730	-8.732	95.170	138.271	-8.742	-4.036	183.457	94.807	-4.716	-0.187	0.207	5.505	132.904	4.402	-8191	255	
18933.652	1	1	0	0	0.043423	0.20895	0.18212	0.21553	0.29202	0.15068	0.15567	0.22569	0.13856	0.15859	0.19755	0.2088	0.17774	0.12715	0.19257	0.16188	-4.0104	-4.2688	-4.8667	-4.2771	-4.5646	-4.7708	-4.2396	-5.1062	-4.3167	-4.075	-5.0542	-4.1104	-4.5271	-5.0104	-3.9062	-5.0813	314.071	54.672	12.476	299.006	313.020	22.465	331.781	275.982	188.041	239.869	242.502	265.959	238.035	318.069	43.167	286.553	0.00049402	0.00052301	0.00016598	1396.2	4.1746e-06	2.5085e-06	1383.2	372.4	5.9494e-06	5.422e-06	427.99	142.79	123.59	42.903	3.5632e-06	52.621	0.00028486	0.00028023	7.8456e-05	1385.6	3.1208e-06	3.0551e-06	1381.5	371.39	3.0536e-06	3.0251e-06	422.77	141.58	122.44	42.415	3.045e-06	52.285	109.556	102.745	37.688	-8.673	105.345	157.774	-8.666	-4.095	213.796	68.948	-4.544	-0.005	0.269	5.200	147.673	4.095	-8191	255	
18933.748	1	1	0	0	0.13961	0.12161	0.247	0.15727	0.13443	0.042575	0.035143	0.13836	0.041192	0.10986	0.1951	0.017129	0.17184	0.15727	0.14693	0.18917	-4.2	-4.0021	-5.0896	-4.1479	-4.4229	-4.7396	-4.1708	-4.9521	-4.6562	-4.0208	-4.9854	-4.2917	-4.3854	-4.9875	-3.975	-4.9271	189.327	268.764	19.031	276.515	48.704	30.018	57.060	256.474	119.463	119.721	277.246	67.664	65.945	18.633	236.947	258.376	0.00042029	0.0005154	0.0001174	1391.9	2.3353e-06	3.1521e-06	1394.8	371.99	4.6532e-06	4.6606e-06	428.81	142.33	124.48	42.878	8.717e-06	52.799	0.00028169	0.00027983	7.6083e-05	1383.7	3.0565e-06	3.0452e-06	1383.6	371.28	3.0388e-06	3.0522e-06	423.46	141.47	122.8	42.445	3.0232e-06	52.32	93.020	-11.909	55.454	-8.630	203.139	99.716	-8.952	-4.162	129.971	122.556	-4.538	-0.045	0.215	5.020	130.034	4.252	-8191	255	
#DATA ENDS
