BOXY.EXE: ISS Imagent and Oximeter Data Acquisition Program Version 0.80
Ascii Record File

#ACQ INFORMATION
2  Detector Channels 
16  External MUX Channels 
1  Auxiliary Channels 
5000  Waveform (CCF) Frequency (Hz)
1  Waveforms Skipped 
30  Waveforms Averaged 
1  Cycles Averaged 
16  Acquisitions per Waveform 
10.0806  Updata Rate (Hz) 

#FILE INFORMATION
TRUE -- External MUX Channel results are PARSED.
FALSE -- AC DC and Phase are NOT grouped.
TRUE -- Companion Program Settings File CREATED.
FALSE -- AC data not excluded
FALSE -- DC data not excluded
FALSE -- Phase data not excluded
FALSE -- Auxillary Chn. data not excluded
Tab delimiters

#CALIBRATION STATE
TRUE -- Waveform Calibration Values APPLIED.


#AUX CALIBRATION VALUES
Val Type	aux-1	

Term	1.0000e+00	
Factor	0.0000e+00	


#WF CALIBRATION VALUES
A = Detector Channel
Val Type	A-AC1	A-AC2	A-AC3	A-AC4	A-AC5	A-AC6	A-AC7	A-AC8	A-AC9	A-AC10	A-AC11	A-AC12	A-AC13	A-AC14	A-AC15	A-AC16	A-DC1	A-DC2	A-DC3	A-DC4	A-DC5	A-DC6	A-DC7	A-DC8	A-DC9	A-DC10	A-DC11	A-DC12	A-DC13	A-DC14	A-DC15	A-DC16	A-Ph1	A-Ph2	A-Ph3	A-Ph4	A-Ph5	A-Ph6	A-Ph7	A-Ph8	A-Ph9	A-Ph10	A-Ph11	A-Ph12	A-Ph13	A-Ph14	A-Ph15	A-Ph16	

Term	0.00000e+00	0.00000e+00	0.00000e+00	0.00000e+00	0.00000e+00	0.00000e+00	0.00000e+00	0.00000e+00	0.00000e+00	0.00000e+00	0.00000e+00	0.00000e+00	0.00000e+00	0.00000e+00	0.00000e+00	0.00000e+00	0.00000e+00	0.00000e+00	0.00000e+00	0.00000e+00	0.00000e+00	0.00000e+00	0.00000e+00	0.00000e+00	0.00000e+00	0.00000e+00	0.00000e+00	0.00000e+00	0.00000e+00	0.00000e+00	0.00000e+00	0.00000e+00	0.00000e+00	0.00000e+00	0.00000e+00	0.00000e+00	0.00000e+00	0.00000e+00	0.00000e+00	0.00000e+00	0.00000e+00	0.00000e+00	0.00000e+00	0.00000e+00	0.00000e+00	0.00000e+00	0.00000e+00	0.00000e+00	
Factor	1.00000e+00	1.00000e+00	1.00000e+00	1.00000e+00	1.00000e+00	1.00000e+00	1.00000e+00	1.00000e+00	1.00000e+00	1.00000e+00	1.00000e+00	1.00000e+00	1.00000e+00	1.00000e+00	1.00000e+00	1.00000e+00	1.00000e+00	1.00000e+00	1.00000e+00	1.00000e+00	1.00000e+00	1.00000e+00	1.00000e+00	1.00000e+00	1.00000e+00	1.00000e+00	1.00000e+00	1.00000e+00	1.00000e+00	1.00000e+00	1.00000e+00	1.00000e+00	X	X	X	X	X	X	X	X	X	X	X	X	X	X	X	X	

B = Detector Channel
Val Type	B-AC1	B-AC2	B-AC3	B-AC4	B-AC5	B-AC6	B-AC7	B-AC8	B-AC9	B-AC10	B-AC11	B-AC12	B-AC13	B-AC14	B-AC15	B-AC16	B-DC1	B-DC2	B-DC3	B-DC4	B-DC5	B-DC6	B-DC7	B-DC8	B-DC9	B-DC10	B-DC11	B-DC12	B-DC13	B-DC14	B-DC15	B-DC16	B-Ph1	B-Ph2	B-Ph3	B-Ph4	B-Ph5	B-Ph6	B-Ph7	B-Ph8	B-Ph9	B-Ph10	B-Ph11	B-Ph12	B-Ph13	B-Ph14	B-Ph15	B-Ph16	

Term	0.00000e+00	0.00000e+00	0.00000e+00	0.00000e+00	0.00000e+00	0.00000e+00	0.00000e+00	0.00000e+00	0.00000e+00	0.00000e+00	0.00000e+00	0.00000e+00	0.00000e+00	0.00000e+00	0.00000e+00	0.00000e+00	0.00000e+00	0.00000e+00	0.00000e+00	0.00000e+00	0.00000e+00	0.00000e+00	0.00000e+00	0.00000e+00	0.00000e+00	0.00000e+00	0.00000e+00	0.00000e+00	0.00000e+00	0.00000e+00	0.00000e+00	0.00000e+00	-1.74110e+02	-1.49463e+02	-1.54163e+02	-1.83559e+02	-9.67051e+01	-8.85097e+01	-1.58120e+02	-1.62015e+02	-7.57778e+01	-9.11998e+01	-1.70546e+02	-1.71093e+02	-1.79028e+02	-1.76657e+02	-7.54591e+01	-1.49556e+02	
Factor	3.07533e-05	1.16140e-04	3.88137e-05	1.69307e-01	1.12974e-06	1.04412e-06	1.84577e-01	5.88378e-02	1.11002e-06	1.29812e-06	9.83490e-02	3.36173e-02	3.12576e-02	1.02943e-02	1.39422e-06	1.47485e-02	9.99033e-07	1.02388e-06	2.85475e-07	7.71054e-02	1.12068e-08	1.12247e-08	7.91330e-02	2.67211e-02	1.11987e-08	1.12333e-08	4.26404e-02	1.45631e-02	1.40376e-02	4.62015e-03	1.12025e-08	6.38598e-03	X	X	X	X	X	X	X	X	X	X	X	X	X	X	X	X	



#DISTANCE SETTINGS
A = Detector Channel
A-1	A-2	A-3	A-4	A-5	A-6	A-7	A-8	A-9	A-10	A-11	A-12	A-13	A-14	A-15	A-16	

2.5000e+00	3.0000e+00	2.5000e+00	3.0000e+00	2.0000e+00	3.0000e+00	1.5000e+00	3.0000e+00	3.0000e+00	3.0000e+00	3.0000e+00	3.0000e+00	3.0000e+00	3.0000e+00	1.5000e+00	3.0000e+00	

B = Detector Channel
B-1	B-2	B-3	B-4	B-5	B-6	B-7	B-8	B-9	B-10	B-11	B-12	B-13	B-14	B-15	B-16	

1.0000e+01	1.0000e+01	1.0000e+01	1.4400e+00	1.0000e+01	1.0000e+01	1.5100e+00	1.9400e+00	1.0000e+01	1.0000e+01	1.9900e+00	2.4900e+00	2.4100e+00	2.9000e+00	1.0000e+01	2.9800e+00	




#DATA BEGINS
time	group	step	mark	flag	A-AC1	A-AC2	A-AC3	A-AC4	A-AC5	A-AC6	A-AC7	A-AC8	A-AC9	A-AC10	A-AC11	A-AC12	A-AC13	A-AC14	A-AC15	A-AC16	A-DC1	A-DC2	A-DC3	A-DC4	A-DC5	A-DC6	A-DC7	A-DC8	A-DC9	A-DC10	A-DC11	A-DC12	A-DC13	A-DC14	A-DC15	A-DC16	A-Ph1	A-Ph2	A-Ph3	A-Ph4	A-Ph5	A-Ph6	A-Ph7	A-Ph8	A-Ph9	A-Ph10	A-Ph11	A-Ph12	A-Ph13	A-Ph14	A-Ph15	A-Ph16	B-AC1	B-AC2	B-AC3	B-AC4	B-AC5	B-AC6	B-AC7	B-AC8	B-AC9	B-AC10	B-AC11	B-AC12	B-AC13	B-AC14	B-AC15	B-AC16	B-DC1	B-DC2	B-DC3	B-DC4	B-DC5	B-DC6	B-DC7	B-DC8	B-DC9	B-DC10	B-DC11	B-DC12	B-DC13	B-DC14	B-DC15	B-DC16	B-Ph1	B-Ph2	B-Ph3	B-Ph4	B-Ph5	B-Ph6	B-Ph7	B-Ph8	B-Ph9	B-Ph10	B-Ph11	B-Ph12	B-Ph13	B-Ph14	B-Ph15	B-Ph16	aux-1	digaux	

19524.396	1	1	0	256	0.14413	0.10153	0.084129	0.24377	0.23212	0.15576	0.26728	0.16854	0.10116	0.11907	0.18504	0.17091	0.19778	0.086069	0.26298	0.21687	-3.6125	-3.7979	-4.6042	-3.6479	-4.2729	-4.3208	-3.8312	-4.8771	-3.9562	-3.8917	-4.7333	-3.7604	-4.2562	-4.5667	-3.6625	-4.6708	113.053	-105.718	-43.986	208.090	38.804	47.530	136.048	156.008	188.918	129.213	116.581	177.774	230.168	151.200	124.323	189.563	0.00025412	0.0022743	0.00080637	900.48	1.1908e-05	2.271e-05	1066.6	278.68	1.5457e-05	1.5328e-05	391.52	121.29	83.238	26.587	5.1847e-06	44.106	0.0035129	0.0035612	0.0009979	1020.1	3.9179e-05	3.8976e-05	1158.4	323.32	3.8883e-05	3.889e-05	467.03	149.66	116.64	37.831	3.9118e-05	58.154	175.623	-109.466	-74.695	-109.413	124.125	0.248	-109.837	-105.179	-21.387	42.235	-106.139	-102.497	-101.602	-95.982	67.551	-97.592	-8191	255	
19524.494	1	1	0	0	0.1367	0.28004	0.064233	0.089732	0.181	0.16767	0.10147	0.15884	0.075545	0.13884	0.033364	0.073636	0.20412	0.18844	0.18271	0.19054	-3.8063	-3.7417	-4.6521	-3.9313	-4.2292	-4.6354	-3.7146	-4.6	-4.1396	-3.7854	-4.6271	-3.8688	-4.0875	-4.6083	-3.6125	-4.525	41.313	232.942	59.474	74.814	60.556	138.917	185.438	210.461	-66.384	95.450	-79.350	-86.135	-107.139	169.716	207.241	133.002	0.00039358	0.00019171	0.00068251	905.31	1.3008e-05	1.297e-05	1072.5	282.5	1.5009e-05	1.7602e-05	401.56	122.48	85.155	27.391	7.5688e-06	44.984	0.0034934	0.0035561	0.00099506	1023.1	3.8978e-05	3.9233e-05	1167.7	327.9	3.9403e-05	3.9676e-05	475.31	152.4	118.47	38.505	3.9498e-05	59.259	-58.446	-119.817	-112.321	-109.763	231.980	114.669	-110.189	-105.571	33.762	-97.853	-106.485	-102.946	-101.875	-96.510	201.912	-97.906	-8191	255	
19524.613	1	1	0	0	0.14734	0.11321	0.16299	0.20774	0.11466	0.11696	0.29194	0.25789	0.26099	0.10195	0.060759	0.1228	0.14812	0.31881	0.11252	0.13443	-3.9646	-3.6083	-4.5542	-3.9208	-3.8792	-4.5708	-3.7958	-4.3833	-4.3583	-3.6375	-4.6958	-4.0125	-3.8729	-4.6021	-3.5979	-4.3625	11.277	66.727	-63.808	-109.478	-7.136	-83.804	120.760	175.645	43.319	-72.370	-91.278	37.407	206.876	-99.578	127.134	156.738	0.00050341	0.00082743	0.00033	912.7	3.8911e-06	1.0816e-05	1068.8	281.74	1.3164e-05	6.8123e-06	401.11	123.38	84.509	26.76	2.4549e-05	44.759	0.0035077	0.003575	0.0010054	1030.3	3.9384e-05	3.9566e-05	1174.7	328.72	3.947e-05	3.9726e-05	475.35	152.21	117.98	38.481	4.0469e-05	59.281	178.867	92.759	23.656	-109.550	154.657	153.910	-110.180	-105.388	-17.281	-61.698	-105.980	-103.039	-102.204	-96.314	-41.057	-98.390	-8191	255	
19524.709	1	1	0	0	0.21407	0.2433	0.22441	0.14533	0.068052	0.20855	0.091198	0.25049	0.19892	0.1188	0.25151	0.090545	0.087136	0.10977	0.05502	0.042157	-4.025	-3.6	-4.6208	-4.2125	-3.9083	-4.55	-3.7854	-4.3438	-4.4521	-3.5354	-4.6271	-4.2583	-3.8917	-4.7021	-3.7958	-4.1896	37.634	20.116	201.867	227.487	-69.334	82.478	236.463	139.086	181.237	-57.930	114.950	-51.856	214.003	185.589	135.549	120.908	0.00052868	0.00042957	0.00066229	908.31	5.1028e-06	1.4165e-06	1075.5	281	6.3853e-06	1.1022e-05	394.7	121.81	83.147	26.501	2.296e-05	44.012	0.0036046	0.003706	0.0010361	1031.7	4.0082e-05	4.0389e-05	1172.4	326.6	3.9662e-05	3.9847e-05	472.17	150.11	116.85	37.915	3.925e-05	58.094	130.482	155.335	57.640	-109.959	-49.494	146.259	-110.276	-105.388	-61.196	-59.762	-105.873	-102.857	-101.385	-95.594	2.817	-98.108	-8191	255	
19524.805	1	1	0	0	0.11234	0.28529	0.21177	0.072669	0.16549	0.11248	0.05508	0.31428	0.046087	0.22241	0.079587	0.19371	0.094996	0.058961	0.16177	0.20797	-4.0396	-3.5792	-4.5208	-4.3562	-3.5854	-4.4354	-3.8396	-4.0146	-4.6271	-3.6792	-4.4125	-4.2292	-3.6292	-4.7104	-3.8729	-3.9771	-9.062	68.045	-44.111	-6.464	208.225	-87.712	204.985	185.169	154.479	232.908	115.060	-4.843	217.874	201.808	103.021	80.365	0.00040301	0.0027337	0.00047869	921.82	1.6136e-05	1.3168e-05	1071.7	284.89	1.4594e-05	7.3219e-06	401.22	121.93	84.689	26.708	1.1938e-05	44.768	0.003479	0.0035665	0.00099246	1028.4	3.8685e-05	3.8714e-05	1168.7	326.36	3.8457e-05	3.8822e-05	472.99	150.41	117.23	38.159	3.9019e-05	58.546	126.206	-9.353	-64.087	-109.690	76.267	7.503	-109.980	-105.262	-43.158	75.953	-106.482	-102.273	-101.405	-96.246	35.693	-98.236	-8191	255	
19524.926	1	1	0	0	0.16287	0.15341	0.13443	0.069322	0.11695	0.15416	0.21387	0.13963	0.26784	0.056238	0.35474	0.049955	0.22827	0.30468	0.19143	0.28498	-4.2583	-3.5458	-4.3167	-4.4542	-3.6417	-4.4333	-4.1625	-3.9938	-4.4646	-3.8	-4.3604	-4.5458	-3.65	-4.6458	-4.0146	-3.8646	-5.583	34.441	-42.502	222.353	-16.933	-8.042	169.057	94.482	113.246	-109.794	162.618	234.070	191.462	51.858	-92.701	194.825	0.00011578	0.0010596	0.0004798	918.75	1.6854e-05	1.5473e-05	1082.1	284.94	7.2239e-06	2.4844e-05	402.93	124.54	85.588	27.323	1.8729e-05	45.284	0.0034843	0.0035989	0.0010014	1033.3	3.9183e-05	3.9493e-05	1177.9	329	3.9069e-05	3.9505e-05	476.88	152.36	118.88	38.719	3.941e-05	59.143	232.190	235.770	-98.526	-109.491	-37.723	165.200	-110.093	-105.714	150.699	-54.203	-106.276	-103.259	-101.703	-95.881	215.924	-98.251	-8191	255	
19525.021	1	1	0	0	0.052009	0.19155	0.074925	0.14316	0.090651	0.29311	0.33492	0.13942	0.23329	0.23839	0.080178	0.15128	0.18527	0.30545	0.052947	0.2022	-4.3292	-3.7167	-4.2167	-4.5854	-3.6917	-4.3125	-4.2396	-3.8729	-4.6833	-3.9396	-4.0813	-4.6687	-3.6188	-4.5312	-4.2625	-3.7083	-103.569	-20.244	133.962	107.459	135.679	49.536	163.138	146.681	125.861	146.838	-61.920	121.414	165.979	179.893	144.240	-38.115	9.0842e-05	0.001436	0.00058876	942.94	1.5065e-05	2.9355e-06	1101.3	288.73	9.5271e-06	3.4193e-06	407.09	125.64	86.488	27.78	1.5167e-05	45.334	0.00352	0.003628	0.0010029	1046.5	3.9435e-05	3.9525e-05	1189.9	334.25	3.9385e-05	3.9965e-05	482.78	154.54	120.54	39.127	4.0123e-05	59.612	-109.166	-87.442	-9.484	-109.844	6.303	57.837	-110.062	-104.891	-91.966	79.655	-106.676	-102.529	-101.916	-95.488	119.133	-97.776	-8191	255	
19525.094	1	1	0	0	0.14248	0.031761	0.33309	0.17159	0.18762	0.1654	0.076867	0.28852	0.11789	0.099291	0.047166	0.25376	0.20805	0.050405	0.12531	0.16795	-4.2833	-3.9521	-3.9854	-4.7125	-3.6208	-4.3417	-4.4125	-3.7	-4.4583	-3.9562	-4.1167	-4.6667	-3.7958	-4.3187	-4.2146	-3.7771	23.227	194.484	3.641	197.712	125.964	187.695	28.884	-104.471	-35.992	119.192	136.554	-83.613	148.282	97.625	156.293	199.203	0.00048211	0.0013827	7.9214e-05	936.17	1.3886e-05	1.4777e-05	1083	287.37	1.7561e-05	8.7464e-06	400.31	122.45	84.143	26.773	7.3095e-06	43.672	0.0035877	0.0036947	0.0010214	1051.5	4.0207e-05	4.0241e-05	1187.6	333.02	3.9972e-05	4.0258e-05	478.28	151.6	118.71	38.275	4.0029e-05	58.322	131.676	-77.500	51.547	-109.292	-123.058	22.606	-109.738	-105.313	34.071	-8.037	-106.365	-102.693	-100.952	-95.734	48.740	-98.234	-8191	255	
19525.215	1	1	0	0	0.20306	0.022049	0.11508	0.22675	0.2489	0.16181	0.093493	0.2147	0.07334	0.07836	0.11582	0.12961	0.092725	0.064686	0.2087	0.1971	-4.1271	-3.9271	-3.7396	-4.5958	-3.7062	-4.0958	-4.6521	-3.75	-4.5	-4.0896	-3.9083	-4.7021	-3.8146	-4.2688	-4.7396	-3.7271	73.939	-54.406	-14.334	183.683	-108.194	122.439	206.275	200.202	221.315	18.275	95.417	-31.621	177.126	75.563	-24.321	159.877	0.00013132	0.0010169	0.00091658	919.01	5.7231e-06	1.8664e-05	1069	283.34	1.1913e-05	2.3531e-05	394	120.77	83.102	26.26	2.5064e-05	43.961	0.0035905	0.0036777	0.0010238	1038.5	4.0295e-05	4.0326e-05	1176.3	330.03	4.043e-05	4.0623e-05	475.98	151.69	119.08	38.497	4.1024e-05	58.869	165.727	197.662	159.488	-109.308	46.209	-54.542	-110.013	-105.249	-21.348	-78.347	-106.243	-102.599	-101.710	-95.949	-67.798	-98.225	-8191	255	
19525.309	1	1	0	0	0.14619	0.094366	0.22186	0.2305	0.21588	0.097679	0.20206	0.024675	0.17394	0.16587	0.29515	0.095091	0.1927	0.20465	0.078848	0.15126	-4.1667	-4.2333	-3.6104	-4.6875	-3.9771	-4.1417	-4.6042	-3.5479	-4.4187	-4.2708	-3.8708	-4.5479	-3.7625	-4.1833	-4.4938	-3.8	-43.165	-29.970	231.476	221.717	-80.381	172.334	-75.650	135.331	162.604	49.512	216.669	78.086	-86.125	-99.379	86.873	56.048	0.0003033	0.002047	0.00033894	920.26	7.4146e-06	4.0498e-06	1076.3	284.13	8.8437e-06	1.6453e-05	397.69	121.85	83.79	26.589	1.2757e-05	43.774	0.0036851	0.0037634	0.0010476	1046.5	4.1169e-05	4.0921e-05	1185.8	332.19	4.0714e-05	4.089e-05	478.18	152.6	119.63	38.597	4.1123e-05	59.162	196.001	2.439	-5.749	-109.335	-3.850	168.813	-109.985	-104.974	-40.352	-15.281	-105.974	-102.324	-101.223	-95.711	-49.289	-97.342	-8191	255	
19525.404	1	1	0	0	0.14876	0.11722	0.16449	0.2335	0.096852	0.075685	0.064992	0.12915	0.13662	0.29887	0.12226	0.16286	0.095468	0.023048	0.10644	0.15523	-4.0312	-4.3125	-3.6604	-4.6104	-3.7854	-3.6646	-4.5542	-3.8083	-4.3083	-4.2667	-3.6729	-4.7417	-4.1646	-3.7042	-4.4771	-3.7417	222.405	-40.423	-69.031	191.805	-50.558	-81.211	206.213	173.120	172.211	161.180	45.587	225.977	205.665	198.615	-61.301	146.204	0.00025842	0.0014889	0.00027643	928.79	1.4429e-05	1.0366e-05	1084.3	284.13	1.2764e-05	6.8368e-06	400.25	122.62	85.223	26.734	9.3201e-06	44.397	0.0037022	0.0037895	0.0010529	1052.6	4.159e-05	4.1426e-05	1192	334.44	4.1238e-05	4.1264e-05	481.78	153.95	120.42	38.901	4.1314e-05	59.761	-31.918	-37.703	110.514	-108.983	17.382	-85.963	-109.945	-105.142	53.583	-46.200	-106.499	-102.570	-101.447	-95.969	187.411	-98.724	-8191	255	
19525.525	1	1	0	0	0.097673	0.25328	0.29375	0.20342	0.089452	0.11627	0.096553	0.080043	0.21397	0.043682	0.23652	0.3419	0.17772	0.11977	0.21742	0.15559	-3.8646	-4.3021	-3.6	-4.8417	-4.1708	-3.8708	-4.7833	-3.7208	-3.9313	-4.5125	-3.6479	-4.6062	-4.2271	-3.875	-4.6687	-4.0146	59.799	180.130	214.551	138.037	67.551	-90.687	40.998	158.466	34.049	221.985	187.491	145.856	-93.476	211.653	-26.632	168.059	0.00090819	0.0012491	0.00016203	932.66	1.0764e-05	5.8929e-06	1081.8	285.54	1.6507e-05	9.3669e-06	400.01	121.72	84.215	26.765	1.3426e-05	43.698	0.0037139	0.0037977	0.0010651	1057.8	4.1845e-05	4.1959e-05	1196.4	336.7	4.1638e-05	4.1656e-05	483.67	153.66	120.42	38.795	4.1494e-05	59.106	161.697	225.244	149.081	-109.393	218.281	9.241	-110.308	-105.136	-6.426	105.801	-106.160	-102.435	-100.659	-95.710	-38.328	-97.589	-8191	255	
19525.621	1	1	0	0	0.12347	0.19706	0.25497	0.07525	0.11788	0.30665	0.084481	0.2413	0.23119	0.093548	0.217	0.23016	0.10007	0.048194	0.12118	0.074647	-3.7896	-4.5354	-3.8375	-4.6188	-4.2312	-3.7146	-4.7771	-3.9646	-3.7812	-4.5938	-3.6958	-4.4042	-4.3417	-3.7021	-4.5979	-4.0229	-51.678	2.976	-1.760	179.491	-114.618	-113.713	-114.233	108.672	-18.650	210.201	198.601	213.531	58.167	109.862	109.072	-20.340	9.6396e-05	0.0023331	0.00024859	917.88	5.2949e-06	1.0495e-05	1073.3	281.97	5.2468e-06	5.8521e-06	395.37	119.5	82.738	26.147	2.189e-05	42.647	0.0037041	0.0037958	0.0010618	1046.8	4.1392e-05	4.165e-05	1184.1	331.35	4.097e-05	4.1346e-05	475.4	151.03	118.14	38.065	4.0663e-05	57.872	144.483	73.670	-26.837	-109.693	229.852	-3.445	-109.723	-105.312	-20.364	-108.903	-106.402	-102.082	-101.419	-95.933	-52.288	-98.354	-8191	255	
19525.693	1	1	0	0	0.12599	0.20338	0.12848	0.22021	0.16303	0.12584	0.027466	0.23817	0.13652	0.14236	0.084609	0.12506	0.14455	0.1394	0.05614	0.084363	-3.5292	-4.6396	-3.475	-4.3667	-4.3917	-3.7313	-4.7292	-4.2021	-3.8063	-4.6438	-3.9083	-4.1333	-4.5479	-3.6396	-4.4354	-4.1687	234.922	143.914	-9.086	210.789	-82.804	166.473	30.948	201.652	79.787	170.091	96.393	148.060	-101.949	171.569	83.491	77.067	0.00032443	0.0018781	0.00058108	910.19	1.2014e-05	2.628e-06	1063.7	280.56	2.2908e-05	1.2813e-05	392.29	119.87	82.502	26.172	9.3528e-06	43.11	0.0036078	0.0037114	0.0010416	1034.1	4.0682e-05	4.0932e-05	1175.4	329.06	4.0823e-05	4.1379e-05	476.03	151.81	118.87	38.394	4.1411e-05	58.685	50.319	219.945	-106.192	-109.603	-92.732	57.441	-110.036	-105.345	3.520	23.254	-106.491	-102.832	-101.273	-95.680	-77.309	-97.991	-8191	255	
19525.789	1	1	0	0	0.2017	0.080203	0.1694	0.10808	0.089781	0.15738	0.0963	0.18661	0.22476	0.12646	0.22236	0.24641	0.1084	0.14815	0.20814	0.028844	-3.575	-4.5917	-3.7646	-4.0188	-4.5208	-3.4729	-4.6312	-4.1208	-3.5333	-4.5687	-3.9104	-4.0229	-4.6875	-3.7083	-4.1854	-4.475	-96.221	166.933	202.935	106.708	-45.225	188.139	236.527	236.647	-52.031	-117.503	-39.362	223.630	118.514	-53.988	62.515	-94.386	0.0006898	0.0012243	0.00035545	916.46	2.8542e-05	6.9394e-06	1064.6	282.58	6.5717e-06	1.8384e-05	395.61	121.28	83.561	26.707	1.7309e-05	44.127	0.0036649	0.0037652	0.0010472	1036.3	4.0693e-05	4.0912e-05	1175.5	330.06	4.0713e-05	4.0903e-05	476.8	151.92	118.85	38.565	4.0866e-05	59.113	176.295	152.321	201.167	-109.528	-9.015	-106.738	-109.796	-105.086	-102.084	164.475	-106.461	-102.529	-101.206	-96.209	79.437	-97.780	-8191	255	
19525.910	1	1	0	0	0.10274	0.1002	0.22375	0.12778	0.15911	0.10528	0.16003	0.28912	0.11764	0.24078	0.099647	0.18102	0.031575	0.025821	0.071996	0.16357	-3.3875	-4.6521	-3.85	-3.9146	-4.6604	-3.5417	-4.4333	-4.5104	-3.6958	-4.5563	-4.2125	-3.8583	-4.7333	-3.8521	-4.1687	-4.6083	-15.596	-3.693	60.547	175.992	121.363	234.743	231.479	128.090	-11.647	5.239	-109.764	135.752	-15.903	193.776	-54.578	5.051	0.00066957	0.00038896	0.00022639	916.02	1.7253e-05	2.8793e-05	1067.5	280.29	1.0347e-05	7.1511e-06	396.8	121.88	84.012	26.809	2.696e-05	44.955	0.003666	0.0037741	0.0010548	1041.9	4.1357e-05	4.1435e-05	1179.8	330.4	4.0809e-05	4.1243e-05	479.02	152.97	119.57	38.896	4.1071e-05	59.735	190.385	-121.741	-67.775	-109.702	23.713	90.203	-109.739	-105.358	192.088	-65.535	-106.390	-102.652	-101.432	-96.023	36.736	-97.634	-8191	255	
19526.006	1	1	0	0	0.30759	0.38055	0.026408	0.17633	0.15871	0.09398	0.18351	0.069749	0.11587	0.21492	0.28618	0.13676	0.1385	0.043813	0.089753	0.11917	-3.4792	-4.6062	-3.9979	-3.7313	-4.5271	-3.775	-4.3	-4.5542	-3.5771	-4.4812	-4.15	-4.0104	-4.6875	-3.8896	-4.0312	-4.6708	172.590	-18.389	-80.149	179.121	29.357	165.657	128.141	134.040	-63.491	4.423	194.241	-100.282	88.901	-38.335	87.309	84.470	0.00038908	0.00065966	0.0004573	919.35	1.2036e-05	6.8228e-06	1074.6	282.15	8.6685e-06	8.3169e-06	390.88	119.16	82.237	26.165	2.401e-05	42.931	0.0036813	0.0037802	0.0010536	1045	4.1091e-05	4.1433e-05	1183.9	330.22	4.0841e-05	4.1289e-05	474.78	150.6	118.16	38.237	4.0865e-05	58.398	-59.190	71.105	-116.080	-109.656	123.152	231.670	-110.186	-105.398	79.409	71.041	-106.420	-103.230	-101.903	-96.250	45.346	-97.903	-8191	255	
19526.102	1	1	0	0	0.14443	0.1778	0.18533	0.11888	0.13674	0.072844	0.36906	0.22471	0.1232	0.079258	0.15015	0.069832	0.21224	0.11439	0.1237	0.22779	-3.4188	-4.575	-4.0563	-3.7646	-4.7104	-3.7583	-4.0646	-4.5542	-3.6208	-4.2396	-4.3292	-3.4583	-4.6833	-3.9354	-3.875	-4.6917	72.716	-64.057	48.385	85.638	228.705	74.374	218.747	223.015	195.500	212.757	52.721	94.592	103.728	-81.493	224.624	158.960	0.00034802	0.0021797	0.00051108	908.23	8.7755e-06	1.3155e-05	1054.2	277.83	7.5688e-06	2.0816e-05	388.47	119.96	82.754	25.987	5.718e-06	43.641	0.0036601	0.0037316	0.0010449	1031.6	4.0974e-05	4.1305e-05	1169.4	327.46	4.1215e-05	4.1232e-05	473.93	151.19	118.17	38.386	4.082e-05	58.709	236.434	232.292	-80.342	-110.291	218.386	-58.780	-110.589	-105.533	-6.937	12.766	-106.001	-102.402	-100.998	-95.631	-116.598	-97.243	-8191	255	
19526.197	1	1	0	0	0.12759	0.011308	0.093301	0.13425	0.13852	0.18331	0.27694	0.26267	0.081524	0.21299	0.14665	0.15419	0.070333	0.1566	0.059183	0.26209	-3.2917	-4.1458	-4.3104	-3.7333	-4.5333	-4.0208	-4.0062	-4.7354	-3.5729	-4.1542	-4.6708	-3.8271	-4.6625	-4.1729	-3.6708	-4.8521	-28.287	-91.322	-98.082	-30.636	-19.172	-89.858	221.331	212.016	135.831	83.846	163.376	-116.754	-95.367	-115.197	227.099	144.214	0.00033538	0.0010819	0.00056045	915.46	9.7917e-06	6.7159e-06	1072.2	281.14	7.672e-06	2.626e-06	396.68	121.45	84.858	26.602	1.5572e-05	44.373	0.00367	0.0037391	0.001042	1036.3	4.0895e-05	4.1048e-05	1175.6	329.66	4.0879e-05	4.1092e-05	477.41	152.74	119.65	38.861	4.1275e-05	59.602	193.034	-64.169	232.780	-109.351	221.039	-90.116	-109.801	-105.193	8.935	183.500	-106.104	-102.225	-101.818	-95.063	41.258	-97.264	-8191	255	
19526.293	1	1	0	0	0.23747	0.10555	0.057444	0.032587	0.2106	0.02316	0.34086	0.19308	0.03214	0.13119	0.2239	0.36591	0.15661	0.011279	0.16324	0.12844	-3.625	-4.1667	-4.5333	-3.85	-4.4729	-4.1188	-3.8833	-4.85	-3.8229	-4.05	-4.5	-3.6292	-4.5979	-4.2604	-3.7167	-4.6417	-4.151	134.505	85.739	72.572	170.742	110.595	141.353	223.678	-58.447	-4.674	191.771	164.618	205.606	165.998	50.316	-45.448	0.00018685	0.0013912	0.00047356	924.07	2.9107e-05	1.6847e-05	1074.8	282.8	3.1573e-06	1.4872e-05	398.95	123.94	85.4	27.032	2.7876e-05	45.439	0.0037214	0.0038045	0.0010618	1049.6	4.1762e-05	4.1936e-05	1192.4	335	4.2024e-05	4.2108e-05	485.21	155.52	121.69	39.46	4.1759e-05	60.749	236.123	163.213	-79.220	-109.387	41.412	7.879	-109.960	-105.303	9.307	-54.809	-106.555	-102.755	-101.422	-95.556	58.695	-96.989	-8191	255	
19526.389	1	1	0	0	0.066594	0.17658	0.22849	0.24913	0.10387	0.13401	0.075308	0.27872	0.1295	0.062745	0.21453	0.12411	0.29006	0.15759	0.23387	0.08369	-3.4083	-3.9229	-4.6396	-3.8042	-4.3354	-4.3396	-3.8583	-4.7042	-4.0771	-3.9021	-4.6687	-3.9354	-4.2458	-4.4583	-3.6479	-4.5813	-95.934	122.853	172.033	227.618	16.286	120.024	-37.766	136.999	37.803	203.426	-82.602	188.501	227.006	-50.305	134.811	-7.004	0.00073624	0.0030082	0.00044767	928.49	7.9329e-06	1.4294e-05	1082	285.78	2.0783e-05	2.1872e-05	404.27	124.03	84.396	26.977	1.2232e-05	44.855	0.0037535	0.0038189	0.0010701	1055.7	4.2056e-05	4.2227e-05	1199.4	336.41	4.2331e-05	4.2488e-05	490.44	156.74	122.17	39.726	4.2648e-05	60.861	159.277	122.245	214.577	-109.127	216.400	136.943	-109.529	-104.799	-43.881	-87.036	-106.187	-101.876	-100.634	-95.043	32.352	-97.234	-8191	255	
19526.484	1	1	0	0	0.19199	0.1446	0.05439	0.24123	0.32182	0.101	0.15736	0.17122	0.15126	0.098943	0.17847	0.22625	0.061686	0.096516	0.21019	0.12263	-3.75	-3.8979	-4.5437	-3.9292	-4.2021	-4.45	-4.0375	-4.6958	-4.0604	-3.8604	-4.8104	-3.8125	-4.1292	-4.4938	-3.5938	-4.5958	-109.890	-3.639	219.601	202.342	-92.496	14.051	81.352	158.487	185.977	71.706	-1.116	122.428	116.177	105.849	91.905	24.650	0.00023674	0.0010785	0.00044095	924.59	9.188e-06	2.1513e-06	1078.5	283.31	5.6252e-06	1.6894e-05	396.02	121.37	83.36	26.605	4.6363e-06	43.797	0.0038157	0.003884	0.001088	1061.3	4.2448e-05	4.283e-05	1196.8	336.23	4.2361e-05	4.2243e-05	483.56	154.1	120.49	39.037	4.2216e-05	59.852	-95.552	29.443	214.088	-109.049	25.292	140.800	-109.548	-104.997	-23.199	65.357	-105.791	-102.120	-100.876	-95.315	-31.712	-97.508	-8191	255	
19526.605	1	1	0	0	0.12381	0.16326	0.117	0.091771	0.12416	0.094856	0.079255	0.14075	0.12492	0.19547	0.28519	0.24616	0.26991	0.25118	0.071166	0.096274	-3.9062	-3.7229	-4.6458	-4.0875	-4.0042	-4.5687	-3.8833	-4.5042	-4.2396	-3.7438	-4.8562	-4.0042	-3.9083	-4.7396	-3.6667	-4.4292	62.173	165.071	232.314	-105.144	-59.394	93.512	76.128	61.170	-14.472	213.010	209.710	-122.046	176.916	-121.505	26.801	140.053	0.00046984	0.00094983	0.00056098	914.93	1.6787e-05	1.8321e-05	1066.8	280.43	1.2005e-05	2.5482e-05	394.12	122.04	83.176	26.48	1.2286e-05	44.346	0.0037695	0.0038635	0.0010852	1054.3	4.2626e-05	4.2753e-05	1194.9	335.47	4.3064e-05	4.3664e-05	486.51	155.84	122.37	39.808	4.3695e-05	60.722	-86.136	-47.327	82.112	-108.903	134.145	-28.452	-110.117	-105.558	10.352	131.676	-106.178	-101.824	-100.874	-94.926	-105.899	-97.519	-8191	255	
19526.699	1	1	0	0	0.0226	0.19873	0.1262	0.14412	0.24271	0.10773	0.15067	0.16734	0.15986	0.12785	0.030684	0.10034	0.22523	0.22003	0.21987	0.25426	-4.2083	-3.6688	-4.5521	-4.0396	-3.9813	-4.6771	-3.9542	-4.1229	-4.4979	-3.8833	-4.7312	-4.2208	-3.7604	-4.6937	-3.7417	-4.1583	141.457	222.368	2.283	206.229	164.750	78.940	184.859	108.551	-77.731	-19.362	183.030	224.090	-65.599	81.563	233.222	185.571	7.5775e-05	0.0004653	8.4118e-05	918.66	1.0314e-05	1.0812e-05	1074.4	282.94	1.1187e-05	1.9999e-05	396.93	122.49	84.471	26.836	1.3432e-05	44.856	0.0038879	0.0039784	0.0011124	1062.3	4.3329e-05	4.3601e-05	1201.4	338.22	4.3504e-05	4.394e-05	491.15	156.93	123.34	40.075	4.4055e-05	61.281	143.800	182.766	173.362	-109.044	164.957	45.243	-109.769	-104.832	227.524	47.003	-106.043	-101.693	-100.441	-95.261	-84.713	-97.332	-8191	255	
19526.797	1	1	0	0	0.11421	0.26279	0.076259	0.079389	0.22737	0.11857	0.24112	0.21752	0.1922	0.14811	0.21606	0.16721	0.28898	0.19764	0.066448	0.14314	-4.2229	-3.7	-4.6062	-4.4042	-3.7583	-4.7271	-4.0354	-4.3625	-4.6583	-3.8104	-4.5938	-4.2583	-3.8063	-4.6479	-3.9708	-4.1562	58.005	113.487	1.287	143.602	226.325	151.579	190.337	-122.011	89.144	222.211	211.078	-91.758	-84.034	160.823	159.976	100.350	0.00043607	0.0010939	0.0004744	919.21	9.519e-06	1.279e-05	1074.7	282.75	1.083e-05	7.5166e-06	398.25	122.54	84.097	26.952	2.1766e-05	44.368	0.0039174	0.004036	0.0011276	1069.2	4.3956e-05	4.4247e-05	1209.6	339.77	4.4298e-05	4.4806e-05	493.79	158.29	124.25	40.46	4.486e-05	61.367	149.326	-102.526	-80.493	-109.131	33.467	123.025	-109.524	-104.663	166.131	-113.869	-105.655	-101.827	-100.833	-95.514	-118.219	-97.331	-8191	255	
19526.893	1	1	0	0	0.15587	0.28463	0.24963	0.085997	0.15438	0.13519	0.20924	0.31568	0.090134	0.23177	0.17982	0.085266	0.11366	0.2681	0.07279	0.28608	-4.3562	-3.7354	-4.3542	-4.2812	-3.5792	-4.675	-4.0667	-4.1396	-4.5417	-3.6229	-4.525	-4.4583	-3.8125	-4.6104	-3.9042	-3.8854	-8.118	125.642	214.709	3.434	93.854	226.998	196.942	139.260	-104.985	-53.941	-48.924	131.833	215.518	185.136	-3.462	189.833	0.00044574	0.0016806	0.00067571	917.19	1.3774e-05	1.2893e-05	1070.9	280.71	3.1153e-05	2.7272e-05	387.54	120.08	82.145	26.123	2.5225e-05	42.736	0.0039818	0.0040933	0.001136	1069.6	4.4293e-05	4.4256e-05	1205.4	337.42	4.414e-05	4.4626e-05	487.94	155.3	122.6	39.698	4.4541e-05	60.087	160.522	-68.038	-85.372	-109.123	-51.879	23.160	-109.626	-105.186	215.897	12.612	-105.688	-102.760	-101.101	-95.404	-24.808	-97.396	-8191	255	
19526.988	1	1	0	0	0.13624	0.17066	0.1225	0.090591	0.060268	0.065668	0.19404	0.33297	0.10978	0.1114	0.25324	0.13074	0.097217	0.17734	0.07931	0.16631	-4.2771	-3.5521	-4.1562	-4.5208	-3.6396	-4.4979	-4.1062	-3.9042	-4.7208	-3.8208	-4.2292	-4.575	-3.6917	-4.5292	-4.1542	-3.9688	204.918	-50.010	72.844	150.107	3.287	36.481	-85.307	207.274	20.415	20.503	136.107	137.380	72.638	158.110	66.233	-115.939	0.00032981	0.00078244	0.0005381	907.15	1.0863e-05	9.101e-06	1056.8	277.56	1.6589e-05	3.221e-06	388.2	117.97	81.361	25.838	1.8653e-05	42.725	0.0039496	0.0040517	0.001124	1055.8	4.383e-05	4.3946e-05	1190.5	333.89	4.3551e-05	4.4005e-05	480.87	153.56	121.49	39.371	4.4179e-05	59.972	-113.833	-65.652	-113.941	-108.955	4.097	83.396	-109.881	-105.145	133.897	-55.066	-106.170	-102.006	-101.341	-95.959	6.125	-97.021	-8191	255	
19527.086	1	1	0	0	0.24058	0.066178	0.052586	0.068542	0.20813	0.20646	0.21375	0.24145	0.03734	0.21884	0.26924	0.17978	0.19472	0.11795	0.20993	0.2782	-4.2812	-3.7354	-4.2542	-4.6604	-3.6437	-4.2812	-4.3729	-3.8104	-4.5729	-3.8187	-4.0833	-4.725	-3.7979	-4.4604	-4.2229	-3.7083	178.218	133.228	-22.893	227.966	184.179	134.372	92.545	190.628	63.263	96.419	215.741	98.619	191.537	189.930	219.412	225.442	0.00051067	0.0024304	0.00042943	911.78	2.5253e-05	1.0897e-05	1063.2	279.33	8.7234e-06	2.3096e-05	389.29	120.54	83.527	26.424	1.8389e-05	43.238	0.0039548	0.0040618	0.0011299	1055	4.4146e-05	4.4226e-05	1192.4	334.84	4.3982e-05	4.4154e-05	483.97	155.12	122.23	39.57	4.4157e-05	60.216	-90.311	-35.797	-58.583	-109.432	38.826	46.145	-109.646	-104.627	-38.089	-12.173	-106.288	-102.488	-101.133	-95.765	62.606	-97.304	-8191	255	
19527.205	1	1	0	0	0.15968	0.11228	0.16338	0.16484	0.16082	0.096883	0.30462	0.24863	0.010959	0.13859	0.097032	0.039186	0.14383	0.16094	0.18931	0.30579	-4.2771	-4.0667	-3.9021	-4.5771	-3.8021	-4.3354	-4.6396	-3.9979	-4.6	-4.0417	-3.8667	-4.55	-3.85	-4.3792	-4.5521	-3.8292	-7.309	-86.364	-72.882	231.116	86.405	-89.368	166.284	-80.767	-12.679	147.034	-114.316	-107.652	-114.460	148.160	143.871	52.669	0.00030216	0.0010826	0.00059003	910.2	1.19e-05	1.2243e-05	1064.6	280	2.2195e-05	3.1626e-05	394.78	120.86	82.995	26.596	1.506e-05	43.621	0.0039492	0.0040371	0.0011169	1060	4.4014e-05	4.3858e-05	1197.4	335.42	4.3573e-05	4.3821e-05	485.38	155.58	122.85	39.719	4.3945e-05	60.612	-18.468	-0.913	138.815	-108.743	227.984	231.739	-109.576	-104.737	-33.477	-87.501	-105.928	-101.757	-101.191	-96.031	127.846	-96.903	-8191	255	
19527.303	1	1	0	0	0.15751	0.20295	0.2312	0.19327	0.11503	0.24413	0.065569	0.28634	0.073113	0.11036	0.10482	0.12313	0.15091	0.10127	0.16914	0.093535	-4.1646	-4.0354	-3.7875	-4.7708	-3.8333	-4.075	-4.7	-3.8208	-4.4604	-4.2958	-3.8812	-4.7542	-4.0938	-4.1729	-4.6479	-3.7042	96.044	139.206	230.230	160.442	224.487	192.427	-66.441	152.437	-14.655	234.873	122.099	-115.685	143.477	158.472	-27.441	-108.278	0.00062994	0.0011127	0.0004273	910.34	2.0737e-05	8.9328e-07	1070.1	279.49	1.4121e-05	1.0727e-05	391.08	121.38	83.097	26.357	7.7392e-06	43.264	0.0039489	0.0040449	0.0011225	1061.2	4.4173e-05	4.4158e-05	1198.3	336.27	4.4249e-05	4.4498e-05	487.53	156.17	122.99	39.808	4.4466e-05	60.39	173.342	-105.943	98.371	-108.909	76.845	222.467	-109.549	-104.981	-46.136	224.970	-105.940	-102.143	-100.524	-95.523	233.692	-97.621	-8191	255	
19527.398	1	1	0	0	0.10738	0.19659	0.15378	0.11533	0.14292	0.20018	0.088502	0.24092	0.11246	0.29046	0.053308	0.031033	0.10303	0.11557	0.095823	0.12932	-4.1875	-4.2312	-3.7583	-4.7292	-3.9104	-4.0292	-4.7229	-3.8292	-4.3792	-4.4708	-3.7313	-4.7625	-4.1125	-3.9833	-4.7792	-3.8333	178.192	-11.371	12.306	78.226	150.797	-61.948	177.938	-47.512	48.402	-69.613	135.047	124.092	25.567	200.049	-46.743	-107.013	0.0007035	0.0014427	0.0012092	907.16	1.3481e-05	8.0459e-06	1058.8	277.89	1.1693e-05	7.1927e-06	387.3	117.09	82.065	25.958	1.6687e-05	42.628	0.0039694	0.0040451	0.0011273	1057	4.4262e-05	4.3958e-05	1188	334.19	4.3858e-05	4.3896e-05	480.26	153.4	120.89	39.138	4.3563e-05	59.36	86.946	103.587	112.671	-109.110	201.208	214.151	-109.706	-104.724	84.999	124.014	-105.954	-101.824	-100.447	-95.358	-63.291	-97.286	-8191	255	
19527.494	1	1	0	0	0.081388	0.37713	0.15383	0.17357	0.066969	0.14276	0.18515	0.23574	0.21887	0.31082	0.12461	0.16416	0.1349	0.16019	0.17098	0.10462	-4.0146	-4.5292	-3.6729	-4.6167	-4.2354	-3.8563	-4.7292	-3.8688	-4.1083	-4.525	-3.6417	-4.7125	-4.2688	-3.7812	-4.4938	-3.9708	-103.891	22.824	-109.290	235.453	121.421	-114.072	139.090	-119.296	223.449	144.799	-57.079	97.374	195.331	170.613	-55.627	183.168	0.00068721	0.00099633	8.4718e-05	900.34	1.6322e-05	6.1397e-06	1055.9	276.77	9.9421e-06	2.3977e-05	389.37	119.23	81.395	26.051	8.8416e-06	43.269	0.0038617	0.0039484	0.0011016	1046.5	4.3095e-05	4.2992e-05	1180.8	331.41	4.3129e-05	4.3261e-05	479.91	153.55	120.71	39.121	4.3512e-05	59.952	182.564	-94.057	-58.759	-109.309	115.218	-5.175	-109.363	-105.088	-7.708	49.605	-106.247	-102.458	-101.568	-95.836	47.840	-97.731	-8191	255	
19527.564	1	1	0	0	0.11201	0.15256	0.26703	0.16481	0.19572	0.25308	0.068031	0.14399	0.22491	0.2291	0.11194	0.047644	0.24316	0.17191	0.16042	0.17054	-3.7687	-4.6833	-3.5896	-4.4333	-4.3833	-3.8083	-4.6583	-4.0917	-3.9313	-4.5229	-3.9229	-4.6104	-4.3375	-3.6792	-4.6521	-4.1167	13.773	114.085	113.703	-118.354	-91.571	-97.402	-83.176	143.694	-110.120	63.674	176.780	205.031	-15.437	-11.515	36.761	103.043	0.0005124	0.00038173	0.00060242	904.28	1.7493e-05	1.7918e-05	1051.1	280.01	8.7763e-06	8.5739e-06	390.46	120.04	82.442	26.487	1.5201e-05	43.581	0.0038706	0.0039688	0.0011066	1050.8	4.3451e-05	4.3456e-05	1186	334.23	4.3299e-05	4.3417e-05	483.85	154.54	121.43	39.491	4.3453e-05	60.415	174.529	136.315	-40.084	-108.876	36.912	18.764	-109.705	-104.699	153.551	230.433	-105.923	-102.141	-101.072	-95.349	-51.795	-97.441	-8191	255	
19527.684	1	1	0	0	0.10589	0.033963	0.00633	0.00997	0.057952	0.19036	0.13853	0.18192	0.17843	0.027102	0.10088	0.18081	0.15959	0.15704	0.17483	0.11668	-3.8667	-4.6104	-3.7604	-4.2896	-4.4229	-3.5896	-4.6896	-4.3646	-3.9083	-4.6	-4.0833	-4.2479	-4.6979	-3.8208	-4.5104	-4.3438	33.027	6.122	-79.710	141.819	-7.021	168.619	181.093	123.792	-59.435	26.964	-60.130	-114.594	-103.212	224.746	97.544	180.244	0.0004417	0.0026927	0.00076328	904.89	7.438e-06	1.7672e-05	1064.4	280.76	2.5006e-06	2.3184e-05	393.19	121.8	83.706	26.582	3.4837e-05	44.348	0.0038706	0.0039567	0.0011162	1053.1	4.3378e-05	4.3668e-05	1194.6	335.61	4.3581e-05	4.3753e-05	486.79	156.13	122.46	39.834	4.3914e-05	61.171	137.350	13.005	68.716	-109.690	81.578	191.296	-109.805	-105.036	-109.530	-116.180	-106.251	-102.626	-100.826	-95.544	-32.659	-97.326	-8191	255	
19527.781	1	1	0	0	0.18595	0.15067	0.21057	0.078685	0.12129	0.088739	0.222	0.13935	0.10552	0.55074	0.12391	0.069798	0.092701	0.26373	0.18898	0.047325	-3.575	-4.5917	-3.8729	-4.1417	-4.5917	-3.7062	-4.5646	-4.3771	-3.8229	-4.6625	-3.9396	-4.2333	-4.5542	-3.7958	-4.4021	-4.3688	71.338	-25.400	139.393	206.349	-32.750	205.414	157.613	235.238	75.363	106.360	185.550	-85.329	19.366	214.410	57.026	-14.513	0.00045477	0.00054964	0.00035998	914.16	4.9788e-06	7.3667e-06	1064.6	277.69	3.9301e-06	8.6733e-06	387.34	120.06	81.209	26.223	2.1956e-05	43.544	0.0039122	0.004017	0.0011282	1057.5	4.4105e-05	4.4407e-05	1197.2	335.16	4.4124e-05	4.4348e-05	485.84	154.92	121.61	39.533	4.4022e-05	59.956	112.391	150.797	155.269	-109.540	231.431	176.032	-110.692	-105.757	-6.627	-19.743	-106.987	-102.875	-101.666	-96.339	-2.227	-98.281	-8191	255	
19527.877	1	1	0	0	0.10785	0.065	0.066915	0.19372	0.23457	0.087854	0.10075	0.19283	0.073291	0.13688	0.048324	0.15991	0.0097914	0.33252	0.083621	0.18157	-3.5375	-4.7312	-4.0146	-4.1146	-4.6021	-3.6771	-4.6271	-4.4146	-3.8042	-4.6979	-4.1833	-3.875	-4.7292	-3.7396	-4.275	-4.5	-65.114	-87.001	86.552	145.216	136.087	177.287	5.523	130.712	-54.275	141.828	-12.334	128.282	67.613	-86.676	161.622	223.158	0.00012701	0.0016681	0.00046583	899.13	1.0362e-05	1.4248e-05	1055.8	275.3	1.3583e-05	1.7348e-05	387.71	119.17	81.574	25.997	1.1922e-05	43.588	0.0038729	0.0039663	0.0011072	1047.1	4.2888e-05	4.3206e-05	1181.4	330.94	4.3106e-05	4.3487e-05	479.49	153.28	121.02	39.316	4.3708e-05	60.214	53.333	-69.926	99.682	-109.749	-105.491	33.592	-110.361	-105.188	43.336	0.500	-106.040	-102.792	-101.306	-95.791	193.649	-98.226	-8191	255	
19527.973	1	1	0	0	0.19716	0.090715	0.11738	0.21937	0.10149	0.1097	0.31432	0.20968	0.12778	0.18575	0.092067	0.097057	0.12114	0.20776	0.1615	0.1048	-3.3125	-4.5229	-4.1708	-4	-4.7438	-3.7854	-4.3187	-4.8792	-3.5604	-4.5354	-4.2083	-3.95	-4.8771	-3.9583	-4.175	-4.7583	142.026	103.256	-5.853	-99.940	105.696	34.624	200.619	169.347	-77.158	-51.826	213.389	-86.684	224.950	-88.983	69.369	-18.425	0.00011776	0.00099204	0.00074502	904.03	1.499e-05	2.2392e-06	1050.5	278.06	1.5017e-05	7.3032e-06	392.44	119.76	82.567	26.525	2.834e-06	44.413	0.0039197	0.0040328	0.0011224	1052.7	4.3968e-05	4.4069e-05	1190.9	333.51	4.3798e-05	4.3882e-05	485.62	155.41	122.11	39.898	4.4023e-05	60.932	125.295	135.370	-80.743	-109.434	106.944	82.832	-109.648	-104.328	18.319	7.072	-105.990	-102.629	-100.845	-95.081	115.355	-97.387	-8191	255	
19528.094	1	1	0	0	0.11923	0.21852	0.12607	0.15641	0.017954	0.13594	0.12683	0.081487	0.14193	0.080252	0.22394	0.22676	0.25598	0.14964	0.097831	0.20016	-3.4375	-4.4062	-4.3521	-3.8729	-4.6125	-3.9604	-4.1896	-4.6667	-3.7146	-4.4333	-4.4333	-3.8937	-4.7167	-3.9146	-4.0979	-4.725	99.014	36.490	14.726	188.508	0.477	106.263	-115.355	172.309	40.103	226.080	117.345	186.079	-35.799	222.012	-92.945	-119.870	0.00080198	0.00063167	2.909e-05	915.47	6.36e-06	6.2374e-06	1061.1	277.27	7.1157e-06	1.601e-05	389.45	119.99	80.849	26.601	1.7487e-05	44.441	0.0039536	0.004042	0.001133	1061.2	4.4554e-05	4.4956e-05	1199.1	336.68	4.5011e-05	4.5405e-05	488.33	156.24	123.06	40.382	4.556e-05	62.259	117.261	116.082	88.379	-108.849	237.330	112.231	-109.356	-104.316	-28.947	-85.239	-105.372	-101.997	-100.702	-95.075	41.465	-96.982	-8191	255	
19528.189	1	1	0	0	0.18885	0.090589	0.19026	0.15725	0.13474	0.14188	0.49641	0.050856	0.13472	0.16731	0.19461	0.11156	0.23912	0.23149	0.078591	0.1351	-3.5375	-4.1625	-4.4437	-3.7604	-4.5771	-4.0312	-4.0729	-4.6604	-3.8042	-4.2042	-4.5667	-3.8979	-4.5792	-4.1875	-3.8229	-4.8063	226.796	196.263	173.982	-121.742	128.282	-93.801	220.950	205.059	232.518	-9.836	190.222	197.523	172.108	164.991	60.089	127.957	0.00047923	0.00088153	0.00031516	885.61	1.1007e-05	1.1207e-05	1039.3	272.82	4.4231e-06	1.6743e-05	387.97	121.54	82.455	27.017	6.33e-06	45.023	0.0041161	0.0042339	0.0011922	1057	4.7003e-05	4.7385e-05	1199.2	336.46	4.6925e-05	4.7085e-05	495.54	160.51	125.13	41.069	4.6063e-05	62.692	125.175	197.030	45.357	-109.357	28.555	-62.514	-109.897	-104.453	1.770	8.243	-105.341	-101.748	-100.800	-95.021	21.081	-97.294	-8191	255	
19528.285	1	1	0	0	0.041812	0.15607	0.087766	0.24206	0.018118	0.12291	0.080025	0.34398	0.21287	0.23492	0.12961	0.18058	0.20846	0.094468	0.10446	0.20816	-3.4625	-4.2625	-4.5979	-3.7812	-4.5542	-4.2333	-4.075	-4.7667	-3.7812	-4.0146	-4.6854	-3.7625	-4.4979	-4.5167	-3.6708	-4.7271	181.278	151.781	-67.052	200.933	-31.664	146.234	80.469	187.286	102.706	-20.235	189.392	128.050	227.779	18.994	188.406	94.188	0.00074405	0.0023446	0.00044867	913.71	7.1623e-06	9.5237e-06	1069.3	283.39	1.4364e-05	1.0317e-05	397.59	121.1	82.858	26.608	2.4602e-05	43.376	0.0041049	0.0041746	0.0011505	1069.6	4.5006e-05	4.4817e-05	1204.8	338.36	4.389e-05	4.3911e-05	488.22	156.07	122.31	39.837	4.4106e-05	60.648	164.255	-60.040	58.357	-108.472	162.908	202.557	-109.330	-104.578	-68.015	68.372	-105.444	-101.922	-100.592	-95.534	41.859	-97.230	-8191	255	
19528.383	1	1	0	0	0.26063	0.18876	0.20171	0.32039	0.11952	0.1142	0.28043	0.21318	0.1147	0.065298	0.11142	0.10489	0.235	0.13523	0.12322	0.064819	-3.5187	-4.0042	-4.6	-3.9562	-4.375	-4.3104	-3.7646	-4.8562	-4.0625	-3.8729	-4.9042	-3.7625	-4.4229	-4.4021	-3.6562	-4.6396	-99.054	209.327	-120.173	-116.633	229.699	-34.458	157.385	197.758	-115.527	67.204	219.266	102.532	138.754	212.705	-113.386	40.569	9.1738e-05	0.00090106	0.00033892	889.06	1.0346e-05	1.6038e-05	1040.8	273.4	8.8752e-06	4.8325e-06	389.33	120.04	82.81	26.385	1.1509e-05	43.738	0.0039925	0.004101	0.0011454	1049.9	4.5354e-05	4.5536e-05	1188.6	334.43	4.5639e-05	4.5687e-05	489.29	157.05	124.08	40.341	4.552e-05	61.568	204.319	-74.958	-114.165	-109.153	-73.455	87.363	-109.595	-104.891	-67.805	181.883	-106.080	-102.490	-101.117	-94.884	-21.562	-97.046	-8191	255	
19528.479	1	1	0	0	0.18647	0.042662	0.21478	0.13859	0.18584	0.22441	0.22717	0.16995	0.23375	0.10391	0.29105	0.034109	0.24513	0.068923	0.018053	0.16471	-3.8646	-3.9604	-4.5646	-3.9104	-4.2458	-4.6667	-3.9396	-4.7021	-4.2875	-3.8583	-4.8	-3.9146	-4.1104	-4.4792	-3.7125	-4.4875	95.363	106.633	-113.785	162.685	-60.261	58.239	138.229	200.273	-36.509	6.221	199.830	58.063	211.712	157.627	-39.108	-89.546	0.00075725	0.0020836	0.00065315	919.71	1.7274e-05	9.3124e-06	1057.6	280.73	1.8294e-05	2.3977e-05	394.73	120.91	82.267	26.638	1.5021e-05	44.332	0.0040556	0.0041397	0.001142	1070.7	4.4659e-05	4.4485e-05	1195.9	336.61	4.4123e-05	4.4261e-05	487.45	156.89	122.97	40.151	4.5327e-05	61.942	137.370	107.147	129.252	-108.834	82.360	-8.066	-109.972	-104.633	-64.795	-29.055	-105.423	-101.683	-101.016	-95.770	15.581	-97.253	-8191	255	
19528.574	1	1	0	0	0.30512	0.31314	0.18489	0.11711	0.18186	0.055739	0.14372	0.37155	0.16571	0.15017	0.15533	0.18163	0.10796	0.21463	0.057892	0.086723	-4.0625	-3.6688	-4.775	-4.0625	-4.0687	-4.575	-3.8917	-4.5563	-4.5042	-3.6229	-4.75	-4.1271	-3.9854	-4.7625	-3.7125	-4.4583	-18.641	-83.443	146.351	154.269	110.686	-51.661	218.662	221.674	-1.364	66.161	171.722	74.992	-59.636	208.725	-55.821	237.346	0.00039728	0.0019985	0.00024614	905.01	8.571e-06	1.276e-05	1061.4	280.77	1.1532e-05	7.3315e-06	395.27	122.2	83.96	26.98	1.4262e-05	44.377	0.0040987	0.0042006	0.0011821	1073	4.6509e-05	4.6875e-05	1214	343.19	4.681e-05	4.685e-05	499.74	160.75	126.01	41.212	4.6658e-05	62.77	46.578	-73.747	-38.034	-109.181	43.632	123.534	-109.171	-104.551	85.357	100.924	-105.699	-101.213	-100.729	-94.949	-75.245	-96.906	-8191	255	
19528.693	1	1	0	0	0.067782	0.087694	0.098244	0.2199	0.2017	0.11124	0.26353	0.086735	0.28376	0.075094	0.10737	0.19342	0.051354	0.11288	0.18425	0.34656	-4.0687	-3.8187	-4.7	-4.2708	-3.8479	-4.7375	-3.8708	-4.4729	-4.4833	-3.8583	-4.7458	-4.2271	-4.0792	-4.7271	-3.7292	-4.5104	-28.705	160.681	220.183	213.854	45.588	169.288	-112.440	198.071	106.904	89.080	221.249	187.494	99.694	-2.830	124.221	220.327	0.00037834	0.0028423	0.00037872	907.45	2.7211e-05	7.4942e-06	1063.1	279.57	8.1792e-06	8.8532e-06	391.27	120.32	82.781	26.378	2.8466e-05	43.201	0.0041589	0.0042561	0.0011874	1075.7	4.655e-05	4.6656e-05	1211.3	340.73	4.6327e-05	4.6408e-05	493.96	158.05	124.43	40.292	4.5903e-05	61.104	118.494	-66.638	-111.548	-109.063	74.708	44.391	-109.454	-104.355	188.599	98.369	-105.410	-101.878	-100.468	-94.796	69.044	-97.301	-8191	255	
19528.789	1	1	0	0	0.20876	0.07207	0.26891	0.092747	0.10183	0.34847	0.22191	0.25896	0.27868	0.12785	0.24524	0.1062	0.20909	0.036175	0.21205	0.23745	-4.2	-3.7521	-4.6229	-4.3208	-3.7167	-4.5271	-4.2021	-4.0271	-4.6	-3.9062	-4.5854	-4.3	-3.7917	-4.7979	-3.8417	-4.1687	-6.399	8.025	54.916	-13.638	-75.966	-71.392	157.409	-107.425	218.165	205.688	-80.123	-64.284	189.065	-42.671	-105.369	205.527	0.00044016	0.0014225	0.00054962	908.94	6.6853e-06	2.0823e-05	1047.9	273.11	8.9726e-06	3.0274e-06	384.57	117.69	81.297	26.003	2.4126e-05	42.198	0.0040497	0.0041423	0.0011581	1062.1	4.5048e-05	4.5412e-05	1191.2	335.6	4.5353e-05	4.5782e-05	486.82	155.39	122.92	39.975	4.6195e-05	60.684	165.691	-58.269	2.628	-109.306	6.742	-7.820	-109.757	-105.038	-83.964	75.444	-105.911	-101.481	-100.980	-95.121	133.953	-97.738	-8191	255	
19528.861	1	1	0	0	0.13885	0.15202	0.19184	0.2146	0.0936	0.11058	0.25835	0.10631	0.14451	0.1164	0.21942	0.073234	0.21234	0.23366	0.080436	0.039808	-4.3792	-3.75	-4.3146	-4.5188	-3.8396	-4.6021	-4.1562	-4.1562	-4.6729	-3.75	-4.3896	-4.5542	-3.7792	-4.5188	-4.1292	-4.0042	-54.477	211.759	-98.590	168.399	131.782	-30.768	152.841	135.329	25.365	103.745	150.107	159.730	-96.300	-24.486	-113.330	-61.746	0.00073414	0.0012099	0.00083682	896.17	7.1799e-06	8.3174e-06	1046.9	274.45	1.7615e-05	6.6189e-06	387.56	117.92	82.589	26.017	1.7983e-05	42.942	0.0041136	0.0042186	0.0011736	1064	4.5826e-05	4.6093e-05	1196.4	336.77	4.5719e-05	4.5989e-05	488.73	155.64	123.55	39.924	4.5574e-05	60.678	148.573	135.757	179.294	-109.785	-67.256	-102.795	-110.039	-105.794	70.412	120.123	-105.894	-101.973	-100.970	-95.058	179.128	-97.055	-8191	255	
19528.982	1	1	0	0	0.078986	0.1766	0.2471	0.25748	0.091986	0.22863	0.18416	0.081756	0.2505	0.18864	0.16235	0.11173	0.21292	0.38446	0.2561	0.208	-4.3583	-3.8417	-4.3187	-4.7021	-3.9	-4.5292	-4.1771	-3.9292	-4.7083	-3.7708	-4.2021	-4.6396	-3.5583	-4.6667	-4.1792	-3.8937	207.687	166.869	-121.292	183.283	46.881	42.153	175.013	155.714	118.627	36.245	151.084	105.849	163.639	206.381	-42.319	180.151	0.00093562	0.00068926	0.00023928	901.89	9.517e-06	1.4962e-05	1049.7	276.6	1.1464e-05	2.5066e-05	390.53	119.1	82.276	26.05	1.6106e-05	43.107	0.0040656	0.0041771	0.0011655	1062.3	4.5579e-05	4.5943e-05	1199.5	337.56	4.5782e-05	4.5929e-05	490.08	156.93	123.98	40.255	4.5965e-05	61.334	151.436	30.980	-62.398	-109.641	150.629	-85.266	-109.861	-105.185	-2.842	75.530	-106.645	-102.484	-102.036	-95.988	-111.888	-97.948	-8191	255	
19529.078	1	1	0	0	0.15453	0.10442	0.16332	0.10033	0.018473	0.14437	0.10162	0.031288	0.11748	0.10732	0.25313	0.27292	0.1373	0.31268	0.20678	0.12882	-4.4187	-3.8812	-4.1333	-4.7125	-3.5812	-4.5813	-4.4563	-3.8542	-4.55	-3.8083	-3.9562	-4.6562	-3.7375	-4.3729	-4.3333	-3.7167	-78.102	23.425	198.317	157.649	-118.156	126.203	202.567	146.761	59.283	32.139	107.993	203.516	42.780	203.298	66.602	174.029	0.00029451	0.0025636	0.00026611	901.35	1.5917e-05	1.852e-05	1056.4	278.1	1.2877e-05	2.1402e-05	392.46	119.09	82.142	26.132	1.9463e-05	42.689	0.0041163	0.0042323	0.0011774	1070.8	4.6466e-05	4.6815e-05	1209.1	340.17	4.6241e-05	4.6546e-05	493.41	157.7	124.19	40.223	4.5738e-05	60.804	153.216	-59.669	157.117	-109.585	17.210	41.773	-110.476	-105.550	153.269	-4.648	-106.714	-102.605	-101.335	-96.295	223.972	-98.277	-8191	255	
19529.174	1	1	0	0	0.0871	0.097032	0.16496	0.04952	0.022104	0.13549	0.084873	0.1072	0.16742	0.24658	0.20072	0.181	0.056209	0.15785	0.084776	0.057698	-4.2771	-4.0917	-3.9771	-4.4437	-3.5958	-4.2729	-4.5896	-3.7333	-4.5875	-4.1896	-3.8583	-4.6979	-3.6854	-4.3438	-4.55	-3.7042	172.486	14.416	-50.891	216.480	-106.604	116.004	192.976	174.697	153.613	142.407	-99.667	147.500	-109.431	42.405	7.945	186.027	0.00087675	0.002001	0.00053065	908.64	5.5228e-06	1.1433e-05	1051.1	274.83	1.902e-05	1.9035e-05	381.62	116.87	80.5	25.6	3.2497e-05	41.815	0.0040848	0.0041864	0.001163	1065.3	4.5942e-05	4.5728e-05	1197.7	336.36	4.5516e-05	4.5898e-05	486.07	154.48	122.68	39.578	4.5181e-05	59.877	153.852	24.901	92.782	-110.082	37.411	-108.748	-110.661	-105.623	54.894	206.016	-106.802	-102.942	-101.649	-96.491	-73.246	-98.462	-8191	255	
19529.270	1	1	0	0	0.15258	0.25165	0.051046	0.027671	0.034771	0.1029	0.2908	0.25393	0.16317	0.21992	0.2466	0.22624	0.14486	0.23953	0.29012	0.085294	-4.3063	-4.1188	-3.7812	-4.8271	-3.775	-4.3271	-4.7604	-3.8417	-4.5958	-4.1729	-3.8271	-4.6062	-3.8292	-4.0188	-4.5875	-3.8479	-76.661	-121.443	140.907	-118.440	-100.616	-23.823	89.714	135.991	-18.452	195.097	-122.630	-55.650	142.820	220.047	-100.684	-61.339	1.2696e-05	0.00085097	0.00035714	906.52	5.3233e-06	1.3914e-05	1051.4	276.21	1.0693e-05	1.6536e-05	385.37	117.12	80.747	25.69	3.3783e-05	42.381	0.0040376	0.0041424	0.0011407	1058.9	4.4653e-05	4.4734e-05	1188.8	334.58	4.4282e-05	4.4443e-05	482.06	153.56	121.78	39.296	4.4206e-05	59.645	23.428	183.554	-108.223	-109.936	-39.305	79.455	-109.994	-105.422	109.179	-35.767	-107.547	-103.861	-101.877	-96.675	47.979	-98.408	-8191	255	
19529.391	1	1	0	0	0.17096	0.30725	0.13358	0.10984	0.17356	0.25013	0.11442	0.14749	0.1675	0.16297	0.22401	0.12387	0.24109	0.13667	0.22194	0.26359	-4.2271	-4.3625	-3.6896	-4.7667	-3.8479	-4.0979	-4.8854	-3.8021	-4.4021	-4.3479	-3.7792	-4.5979	-4.0813	-4.1062	-4.6	-3.7417	-10.704	-3.036	-81.368	-94.907	55.837	136.179	-96.170	118.997	-24.845	117.314	-123.422	207.450	106.020	-106.228	-19.964	-9.623	0.00039922	0.0012292	0.00021808	903.81	4.8979e-06	8.3257e-06	1051.1	277.21	2.5174e-05	1.8355e-05	388.47	118.44	82.477	25.961	1.3275e-05	42.432	0.0039663	0.004056	0.0011312	1056.7	4.4613e-05	4.4521e-05	1192.5	336.46	4.4794e-05	4.5265e-05	486.77	156.03	123.52	39.836	4.499e-05	60.499	112.926	167.117	-74.286	-110.254	-17.826	4.018	-110.679	-105.757	3.808	71.681	-107.177	-103.248	-102.155	-96.407	94.394	-98.775	-8191	255	
19529.463	1	1	0	0	0.082958	0.17554	0.064266	0.22044	0.16561	0.11593	0.15455	0.11038	0.14049	0.028275	0.01593	0.086184	0.015873	0.051835	0.063509	0.16036	-4.0125	-4.4646	-3.8229	-4.6854	-4.1375	-3.6875	-4.8125	-3.8917	-4.2021	-4.5417	-3.6833	-4.6042	-4.1208	-3.8521	-4.6854	-3.9458	205.335	79.426	151.711	192.408	142.294	141.616	-102.416	-25.397	-28.084	132.106	130.228	90.186	198.079	-50.656	233.539	134.342	0.00071042	0.0024958	0.00064495	907.87	7.2967e-06	1.0204e-05	1056.8	278.27	4.1557e-06	2.2997e-05	395.07	120.24	81.853	26.2	1.671e-05	43.448	0.0040363	0.0041042	0.0011441	1060	4.487e-05	4.4729e-05	1196.1	336.89	4.4435e-05	4.4668e-05	488.24	156.59	123.16	39.862	4.4974e-05	60.939	175.483	-17.998	-103.116	-109.962	187.892	209.975	-110.204	-105.321	-109.031	53.561	-106.767	-102.885	-101.817	-95.781	-2.459	-97.995	-8191	255	
19529.559	1	1	0	0	0.11817	0.10367	0.22102	0.14959	0.18222	0.095731	0.17146	0.12471	0.12042	0.087368	0.1417	0.17242	0.094759	0.24573	0.13468	0.055411	-3.8521	-4.5104	-3.6833	-4.5875	-4.3187	-3.8979	-4.8208	-3.9646	-4.0042	-4.6	-3.7521	-4.475	-4.3562	-3.8458	-4.7604	-4.3021	147.267	75.587	46.502	229.887	86.362	17.547	140.768	160.866	226.855	49.998	-92.380	206.503	-106.431	212.718	71.505	-1.818	0.0002662	0.0017358	0.00041386	908.45	8.571e-06	2.279e-05	1052.4	274.48	2.5958e-05	1.8615e-05	382.71	118.61	81.281	25.184	8.5958e-06	41.946	0.0040444	0.004132	0.0011543	1063.3	4.5395e-05	4.5136e-05	1195.2	336.26	4.5417e-05	4.5515e-05	486.04	155.49	122.66	39.565	4.5349e-05	60.022	168.484	41.557	-54.068	-109.675	-56.426	-113.727	-110.047	-105.260	102.664	-7.360	-106.192	-102.557	-100.964	-96.108	-38.128	-97.320	-8191	255	
19529.654	1	1	0	0	0.095106	0.1464	0.26417	0.15943	0.036276	0.054376	0.13854	0.12759	0.36749	0.025856	0.1235	0.073453	0.069759	0.13207	0.13961	0.13393	-3.6125	-4.7375	-3.7667	-4.3854	-4.3979	-3.7313	-4.8792	-4.1604	-4.075	-4.8021	-3.725	-4.3521	-4.5042	-3.7229	-4.6896	-4.2458	22.123	55.688	182.212	198.550	12.834	196.183	127.205	212.796	31.581	-103.650	-25.339	118.310	-42.483	-117.879	167.043	181.488	0.00020255	0.0026895	0.00033918	897.07	5.9381e-06	7.2216e-06	1040.5	272.89	9.1003e-06	4.6947e-06	383.84	115.5	80.035	25.377	6.799e-06	42.032	0.0040395	0.0041233	0.0011538	1053.1	4.4934e-05	4.5097e-05	1184.9	332.96	4.4837e-05	4.5046e-05	482.12	153.18	121.36	39.191	4.5208e-05	59.85	116.879	-68.183	184.213	-109.070	164.441	31.985	-109.676	-104.863	14.152	-38.507	-106.459	-102.343	-101.248	-96.104	-24.396	-98.228	-8191	255	
19529.773	1	1	0	0	0.026268	0.17727	0.12606	0.041028	0.2248	0.35108	0.24276	0.10843	0.097244	0.2083	0.14974	0.04678	0.1331	0.063	0.04848	0.21857	-3.4792	-4.6854	-3.8625	-4.2792	-4.6792	-3.725	-4.7729	-4.2542	-3.8812	-4.7063	-4.0271	-4.1125	-4.6708	-3.7604	-4.5958	-4.3688	180.155	192.477	60.016	-81.944	-104.266	75.524	122.843	142.298	189.668	82.229	141.809	-31.152	192.563	234.889	-78.344	86.999	0.00022321	0.0014371	0.00092992	899.17	1.3983e-06	3.2292e-06	1044.4	272.37	1.6602e-05	1.8516e-05	384.46	117.21	80.558	25.78	2.3955e-05	42.404	0.0040272	0.004134	0.0011582	1054.7	4.5237e-05	4.5366e-05	1190.3	333.64	4.5139e-05	4.5318e-05	484.14	154.44	121.78	39.525	4.4964e-05	59.933	145.797	211.260	-122.570	-109.389	122.439	-86.975	-110.741	-105.462	138.043	-4.219	-106.186	-102.572	-101.071	-95.523	114.065	-97.309	-8191	255	
19529.869	1	1	0	0	0.14307	0.27381	0.2672	0.11333	0.20973	0.21604	0.038063	0.34171	0.077417	0.090515	0.18633	0.14295	0.10173	0.060991	0.071713	0.15333	-3.3417	-4.6208	-4.0604	-4.0604	-4.6417	-3.7667	-4.5062	-4.4437	-3.7417	-4.7375	-4.0521	-4.0938	-4.8021	-3.7646	-4.3896	-4.5813	-13.336	115.226	96.968	173.733	185.795	119.152	154.655	157.783	31.954	-114.955	183.122	172.466	60.935	-50.681	34.290	212.686	0.00044261	0.00039312	0.00067116	903.43	5.5758e-06	3.8783e-06	1045.4	274.77	8.2841e-06	1.8645e-05	384.71	119.03	81.555	26.091	1.1304e-05	42.776	0.0039852	0.0040861	0.001142	1053	4.438e-05	4.4872e-05	1186.9	332.85	4.4392e-05	4.4898e-05	484.6	154.92	121.76	39.61	4.4832e-05	60.395	110.240	107.695	106.339	-109.189	74.365	-82.638	-109.419	-104.219	135.296	96.836	-105.276	-101.391	-100.549	-95.022	1.532	-96.218	-8191	255	
19529.967	1	1	0	0	0.078488	0.095589	0.11893	0.31083	0.17991	0.07477	0.096289	0.19647	0.18299	0.25995	0.34036	0.17512	0.37505	0.18456	0.042848	0.14611	-3.675	-4.675	-4.1875	-4.1062	-4.7	-3.9417	-4.5125	-4.8104	-3.6167	-4.6021	-4.2729	-4.0708	-4.9104	-3.8792	-4.1833	-4.5312	-4.277	-86.497	98.735	-91.562	183.936	110.927	-63.408	167.833	-51.324	7.333	160.386	227.116	-117.863	209.339	122.053	-72.667	0.0001426	0.0019027	0.00032956	887.21	1.728e-05	8.8083e-06	1029.3	269.07	1.4556e-05	1.0398e-05	384.86	119.29	81.189	25.911	7.7187e-06	42.609	0.0039969	0.0041179	0.0011549	1054.9	4.4969e-05	4.5446e-05	1190.7	333.38	4.5096e-05	4.5358e-05	487.38	156.11	122.39	39.771	4.4741e-05	60.197	207.458	-29.193	152.599	-107.991	237.921	169.483	-108.693	-103.397	79.235	-29.739	-105.274	-101.575	-100.632	-95.205	180.613	-96.499	-8191	255	
19530.086	1	1	0	0	0.092912	0.15943	0.14233	0.064388	0.19632	0.1727	0.18157	0.10633	0.11157	0.11268	0.093972	0.18971	0.18665	0.076483	0.073638	0.095401	-3.3771	-4.4437	-4.3583	-3.8167	-4.4667	-3.9938	-4.1521	-4.7375	-3.7	-4.5854	-4.4333	-3.7667	-4.8042	-4.1125	-3.9542	-4.7792	-65.956	68.368	-93.097	75.884	112.684	-4.608	147.852	203.275	134.176	154.028	99.581	207.887	-104.428	11.164	-91.658	161.903	0.00076538	0.0019605	0.00058322	895.97	1.308e-05	1.4386e-05	1044.4	272.73	1.688e-05	1.6257e-05	379.75	116.26	80.263	25.325	2.0675e-05	42.35	0.0039961	0.0040932	0.0011379	1050.9	4.4617e-05	4.5056e-05	1184.3	331.83	4.4602e-05	4.4846e-05	479.29	152.78	120.72	39.141	4.4218e-05	59.479	160.499	15.346	65.032	-109.029	126.820	210.219	-109.445	-104.673	91.303	32.221	-105.808	-101.651	-101.001	-95.582	20.866	-96.738	-8191	255	
19530.158	1	1	0	0	0.22967	0.15159	0.028434	0.17748	0.10722	0.36912	0.18172	0.15093	0.12547	0.11015	0.29463	0.032095	0.18417	0.09692	0.15196	0.31211	-3.5396	-4.4458	-4.2854	-3.9	-4.7125	-4.1896	-4.0854	-4.8167	-3.6646	-4.375	-4.5958	-3.8396	-4.7083	-4.2625	-4.0396	-4.7042	179.823	-120.976	220.271	115.163	-116.294	216.405	101.967	124.924	151.022	95.826	115.051	170.173	0.567	121.225	232.017	167.378	0.00049851	0.0012311	0.00051027	890.98	6.6524e-06	8.5056e-06	1036	271.35	1.1202e-05	2.0493e-06	378.95	117.58	80.78	25.762	1.3689e-05	42.653	0.0039883	0.0040647	0.0011328	1043.9	4.4301e-05	4.4386e-05	1175.5	330.18	4.42e-05	4.4391e-05	479.31	153.34	121.35	39.335	4.4658e-05	60.095	172.118	204.158	-101.677	-109.047	153.995	179.244	-109.986	-104.502	174.579	51.521	-105.673	-101.924	-101.018	-95.076	221.237	-96.500	-8191	255	
19530.254	1	1	0	0	0.13535	0.18515	0.19784	0.10236	0.11616	0.22502	0.1922	0.33849	0.079091	0.13201	0.026185	0.103	0.18503	0.35417	0.22965	0.093122	-3.4854	-4.2542	-4.5396	-3.8896	-4.5604	-4.4271	-3.9917	-4.8229	-4.0146	-4.1667	-4.6896	-3.8229	-4.5917	-4.5229	-3.9729	-4.8125	-33.571	-85.202	-87.610	141.683	-55.379	-38.884	162.052	229.037	203.272	86.876	93.786	-43.399	231.826	182.446	-109.166	150.484	0.00020099	0.0030357	0.00070764	899.45	1.3425e-05	1.0314e-05	1050.6	273.09	1.6745e-05	9.9031e-06	386.46	118.93	81.845	25.978	1.7522e-05	43.462	0.0040406	0.0041251	0.0011493	1053.4	4.5277e-05	4.5257e-05	1187.9	333.07	4.527e-05	4.5295e-05	484.71	155.8	122.98	39.851	4.4911e-05	61.09	24.613	-11.969	-105.614	-108.811	4.413	28.910	-108.953	-103.983	-16.922	195.783	-104.901	-101.798	-100.304	-94.532	138.296	-95.767	-8191	255	
19530.375	1	1	0	0	0.070152	0.19045	0.053393	0.20667	0.19126	0.12973	0.26372	0.14822	0.1867	0.042821	0.055903	0.11685	0.094011	0.052752	0.1163	0.22965	-3.7083	-4.1729	-4.7354	-3.9583	-4.4896	-4.4771	-3.8187	-4.8125	-4.0729	-4.0521	-4.8083	-3.9521	-4.3521	-4.6333	-3.7687	-4.7167	-69.958	86.167	178.301	181.752	-20.693	113.937	215.641	237.687	-109.610	227.874	-22.660	40.535	236.147	-81.072	51.205	200.743	0.00038256	0.00076918	0.00077494	903.55	1.8717e-05	1.0005e-05	1053.1	276.68	2.5083e-05	2.692e-05	391.12	120.7	82.381	26.534	2.685e-05	43.972	0.0040657	0.0041304	0.0011546	1058.7	4.5497e-05	4.5376e-05	1195.6	336.46	4.545e-05	4.5334e-05	488.78	157.45	123.25	40.232	4.488e-05	61.839	178.537	-53.440	174.452	-108.446	30.235	43.535	-109.006	-104.053	43.406	16.939	-105.942	-101.585	-100.608	-94.884	-80.878	-96.969	-8191	255	
19530.471	1	1	0	0	0.3175	0.32452	0.16996	0.14697	0.11391	0.2103	0.077684	0.23575	0.15527	0.067095	0.13799	0.3264	0.19026	0.23377	0.26697	0.097881	-3.8333	-3.9188	-4.6042	-3.8812	-4.2771	-4.55	-3.9	-4.8333	-4.4125	-3.8146	-4.725	-3.8583	-4.3042	-4.7312	-3.7438	-4.7896	-79.295	-43.146	-50.726	189.623	142.658	2.875	165.537	207.600	136.991	11.145	156.129	162.769	158.585	-115.290	95.811	191.460	0.00037993	0.0015046	0.00068336	907.41	1.6998e-05	9.9936e-06	1060.7	278.48	2.3455e-05	2.8208e-05	389.08	120.39	82.779	26.131	4.1975e-05	43.801	0.0040634	0.0041347	0.0011564	1064.5	4.5445e-05	4.5375e-05	1202.2	337.48	4.5178e-05	4.4896e-05	488.19	156.75	122.73	39.792	4.4303e-05	60.818	111.629	219.763	-58.126	-108.604	-111.469	118.995	-109.574	-104.519	110.627	44.900	-105.714	-101.620	-100.402	-95.373	153.573	-97.250	-8191	255	
19530.564	1	1	0	0	0.17736	0.10763	0.14986	0.17441	0.13093	0.14176	0.11599	0.15907	0.30753	0.16026	0.20598	0.086792	0.17581	0.012987	0.087465	0.095119	-3.9938	-3.7292	-4.6729	-4.0292	-4.05	-4.6375	-3.8542	-4.4875	-4.3	-3.8	-4.6937	-4.0687	-4.1438	-4.7375	-3.7958	-4.4896	3.224	127.774	144.073	217.147	-85.588	98.677	128.903	101.461	86.162	5.963	153.543	84.454	-101.467	3.427	74.384	203.011	0.00015032	0.0013646	0.00057643	890.82	1.1632e-05	1.2639e-05	1048.4	276.6	3.3398e-06	2.2073e-05	386.34	118.24	81.071	25.929	1.1352e-05	43.43	0.0039651	0.0040405	0.0011284	1048	4.4353e-05	4.4281e-05	1183.6	332.94	4.4223e-05	4.4194e-05	482.24	154.72	121.35	39.556	4.4384e-05	60.378	149.542	-15.650	13.955	-108.830	167.286	223.088	-109.271	-104.477	197.373	171.059	-105.503	-101.835	-100.622	-95.006	109.807	-97.235	-8191	255	
19530.686	1	1	0	0	0.17489	0.16289	0.1694	0.22338	0.096513	0.066057	0.27386	0.19884	0.2781	0.12654	0.12362	0.098124	0.17905	0.095931	0.094485	0.15462	-3.9021	-3.7208	-4.7896	-4.0958	-4.0375	-4.6792	-3.7479	-4.6292	-4.4271	-3.7542	-4.6396	-4.0583	-3.9562	-4.7792	-4.0375	-4.3792	194.786	202.273	113.890	196.453	-79.131	-7.034	152.002	213.873	180.823	115.996	199.280	194.524	-96.468	233.022	83.511	191.161	0.00063556	0.0014111	0.00058091	898.19	1.4094e-05	1.6239e-05	1042.7	274.74	6.2759e-06	1.9679e-05	392.91	119.43	82.962	26.475	2.1385e-05	44.11	0.0039479	0.0040277	0.0011279	1049	4.4075e-05	4.4149e-05	1184.8	332.85	4.4029e-05	4.4266e-05	485.75	155.45	121.83	39.744	4.4737e-05	60.968	166.119	-36.234	233.515	-108.522	40.775	221.873	-108.945	-104.233	5.102	217.377	-105.346	-101.345	-100.018	-94.784	-11.924	-97.291	-8191	255	
19530.758	1	1	0	0	0.1871	0.2438	0.055245	0.25206	0.13206	0.25077	0.26956	0.13667	0.14815	0.11789	0.15393	0.11771	0.2412	0.13597	0.25949	0.096512	-4.3438	-3.5958	-4.5958	-4.2875	-3.8792	-4.6542	-4.0667	-4.2542	-4.5375	-3.7958	-4.8	-4.1813	-3.8229	-4.8542	-3.8896	-4.1833	23.480	-39.543	41.958	119.673	1.895	-83.298	217.194	170.681	154.884	-2.777	183.650	228.262	194.934	99.550	-58.381	23.541	0.0010076	0.00077982	0.00079307	904.51	1.3588e-05	1.983e-05	1049.1	276.66	1.0258e-05	1.4827e-05	389.93	120.68	83.471	26.802	9.1736e-06	44.079	0.0039703	0.0040722	0.0011376	1052.9	4.4238e-05	4.4547e-05	1191.1	334.66	4.4289e-05	4.4893e-05	487.48	157.14	122.97	40.221	4.5163e-05	61.467	151.428	80.383	-23.018	-108.555	11.367	-10.213	-109.154	-103.972	19.525	11.283	-105.630	-100.872	-99.888	-93.853	40.839	-96.703	-8191	255	
19530.854	1	1	0	0	0.16677	0.2769	0.045945	0.33124	0.072806	0.16538	0.16842	0.045466	0.071895	0.10282	0.14219	0.11333	0.099947	0.15166	0.17449	0.041331	-4.1687	-3.7958	-4.5437	-4.4604	-3.8083	-4.6646	-4.3354	-4.0146	-4.6333	-3.8229	-4.3958	-4.4292	-3.6813	-4.6521	-4.1125	-4.0083	150.102	-111.825	103.871	168.182	-81.142	-40.637	-103.345	-94.396	142.014	138.953	140.966	-63.236	-13.598	123.992	86.516	220.939	0.0002395	0.0019369	0.00013137	907.18	6.3947e-06	7.219e-06	1070.6	278.31	2.2408e-05	1.7766e-05	392.66	121.82	82.742	26.582	3.1889e-05	43.945	0.0040119	0.0041214	0.0011531	1062.2	4.5079e-05	4.5405e-05	1204.4	337.64	4.5229e-05	4.5678e-05	493.49	158.6	124.18	40.583	4.5849e-05	61.555	-70.195	-27.829	-64.030	-108.058	-48.989	71.449	-108.519	-104.368	213.434	93.010	-104.864	-101.540	-100.209	-94.244	203.932	-97.249	-8191	255	
19530.949	1	1	0	0	0.18558	0.11009	0.18403	0.17572	0.052476	0.1186	0.13455	0.049675	0.17992	0.03555	0.079091	0.2787	0.13544	0.36546	0.10516	0.18931	-4.4583	-3.8896	-4.2896	-4.7021	-3.7562	-4.7375	-4.275	-4.0792	-4.6604	-3.7854	-4.2771	-4.6917	-3.9458	-4.6833	-4.2375	-4.0687	130.769	170.845	-64.605	200.030	15.351	21.434	132.471	70.871	211.655	35.998	145.593	-116.452	-10.522	-113.571	141.509	90.530	0.00040974	0.0013199	0.00040477	907.21	1.2077e-05	1.1486e-05	1056.5	276.89	1.7956e-05	1.499e-05	387.39	117.37	80.683	25.769	1.2261e-05	42.362	0.0040731	0.0041879	0.0011669	1067.5	4.5545e-05	4.5773e-05	1205	338.43	4.5667e-05	4.5935e-05	489.93	155.92	123.22	39.776	4.5694e-05	60.27	149.784	-82.779	165.787	-107.993	-86.075	-23.989	-108.788	-104.153	-117.115	155.773	-105.481	-101.258	-100.245	-94.768	126.697	-96.791	-8191	255	
19531.070	1	1	0	0	0.12616	0.051033	0.24638	0.26986	0.25337	0.0067777	0.20621	0.13846	0.26336	0.30215	0.18976	0.075951	0.3539	0.055106	0.17698	0.26171	-4.55	-4.0312	-4.0458	-4.6958	-3.6875	-4.6438	-4.6542	-3.8646	-4.7188	-4.0833	-4.2958	-4.7812	-3.8229	-4.5646	-4.4104	-4.0375	36.191	-79.249	192.502	187.495	-108.770	194.717	190.449	-83.964	-76.636	-114.954	-44.757	162.388	236.994	-42.656	182.921	159.364	8.7949e-05	0.0017437	0.00027337	899.07	6.695e-06	1.1357e-05	1042.2	272.75	2.3502e-05	4.4493e-05	385.15	117.38	80.544	25.456	1.6946e-05	42.343	0.0040507	0.0041686	0.001154	1059.4	4.5395e-05	4.5649e-05	1193.9	336.41	4.5692e-05	4.6339e-05	489.05	155.86	123.82	40.018	4.602e-05	60.511	113.040	82.109	200.261	-108.187	40.240	-70.861	-108.597	-103.679	230.042	57.177	-105.156	-101.234	-100.189	-95.146	-15.038	-96.775	-8191	255	
19531.168	1	1	0	0	0.051381	0.34916	0.042927	0.22883	0.11572	0.10211	0.19449	0.13355	0.19914	0.11167	0.10648	0.084894	0.40056	0.18572	0.26939	0.25832	-4.4	-4.1167	-4.0854	-4.8417	-3.7375	-4.4563	-4.5417	-3.75	-4.6438	-4.0833	-4.075	-4.5854	-3.8812	-4.2771	-4.5521	-3.8583	-105.458	-10.615	141.968	174.701	-76.341	124.957	191.260	110.445	-84.284	-32.562	131.327	168.688	192.329	-115.198	160.582	-50.406	0.00011983	0.0018334	0.00013004	897.46	9.3786e-06	2.1871e-05	1046.2	273.51	5.8427e-06	1.1738e-05	383.64	119.2	82.864	26.034	1.5578e-05	42.934	0.0041154	0.0042117	0.001165	1063.9	4.6163e-05	4.6117e-05	1201.2	337.2	4.6207e-05	4.6763e-05	490.8	157.17	125.07	40.421	4.665e-05	61.417	-104.456	161.497	41.598	-108.204	-71.637	-15.706	-108.926	-104.100	-94.209	-73.597	-105.855	-101.247	-100.249	-94.480	106.899	-96.780	-8191	255	
19531.264	1	1	0	0	0.012612	0.11175	0.31178	0.03211	0.20219	0.083304	0.097739	0.095696	0.027561	0.17135	0.092702	0.22857	0.092374	0.12204	0.20548	0.025792	-4.4	-4.1562	-3.925	-4.8833	-3.9354	-4.2771	-4.8125	-3.8708	-4.3375	-4.3625	-3.7979	-4.7729	-3.9833	-4.0375	-4.5646	-3.775	210.549	-31.500	230.050	203.285	227.791	163.614	230.368	183.114	133.392	119.973	178.262	196.309	111.085	91.121	-72.085	95.612	0.0001455	0.00096175	0.00089207	907.71	1.1498e-05	9.0334e-06	1062.7	277.66	7.9996e-06	1.0718e-05	393.92	119.64	82.141	26.346	1.3404e-05	43.348	0.0041928	0.0043098	0.001193	1075.6	4.7074e-05	4.6943e-05	1212.8	341.71	4.6695e-05	4.6802e-05	495.39	158.67	125.52	40.63	4.6455e-05	61.712	145.915	36.845	132.292	-108.625	-27.038	12.143	-109.090	-104.603	170.051	-113.788	-105.283	-101.473	-100.862	-94.793	-98.085	-96.720	-8191	255	
19531.359	1	1	0	0	0.16603	0.15388	0.036899	0.026267	0.10644	0.22191	0.15249	0.15463	0.091997	0.18842	0.10555	0.23211	0.12837	0.14808	0.11069	0.24174	-4.0917	-4.375	-3.7104	-4.9292	-4.1042	-4.1438	-4.6667	-3.8125	-4.5375	-4.425	-3.8167	-4.8375	-4.0417	-3.9562	-4.7271	-3.6917	42.146	211.575	66.070	-113.380	74.474	201.649	188.148	-113.195	-57.399	15.554	-46.361	-95.611	183.066	144.554	63.534	119.955	0.00032525	0.0015772	0.00051666	913.9	2.4388e-05	2.1847e-05	1066.7	277.85	1.3151e-05	1.0203e-05	387.94	118.27	81.947	25.688	9.6237e-06	42.46	0.0041651	0.004256	0.001189	1079.8	4.7085e-05	4.7107e-05	1218.6	343.39	4.7256e-05	4.7376e-05	495.54	157.96	124.82	40.296	4.6637e-05	60.971	-96.306	158.194	1.388	-108.693	2.223	69.869	-109.512	-105.156	-8.091	62.424	-106.109	-102.365	-100.541	-95.136	54.716	-97.381	-8191	255	
19531.455	1	1	0	0	0.1833	0.084716	0.027903	0.13515	0.15676	0.1524	0.20145	0.23393	0.20559	0.11041	0.2025	0.2881	0.14544	0.30375	0.20077	0.15618	-3.9083	-4.4187	-3.7125	-4.7375	-4.0917	-3.9104	-4.8042	-4.0146	-4.1458	-4.6667	-3.7896	-4.675	-4.0687	-3.825	-4.6438	-3.8917	30.351	131.006	-83.271	152.258	-52.900	235.363	178.115	207.876	112.540	184.869	22.143	183.855	231.848	228.142	149.853	214.257	0.0006511	0.0037116	0.00071069	905.16	2.01e-05	4.9551e-06	1052.1	273.56	1.1299e-06	5.2047e-06	385.31	116.56	80.262	25.646	1.6954e-05	41.913	0.0041712	0.0042578	0.0011828	1071.7	4.6654e-05	4.6614e-05	1202.7	338.11	4.6576e-05	4.685e-05	488.49	155.86	123.57	39.902	4.6577e-05	60.472	186.325	46.989	216.927	-109.117	-79.690	-112.974	-109.441	-104.904	129.797	5.185	-106.570	-103.157	-101.931	-96.080	-95.756	-97.946	-8191	255	
19531.551	1	1	0	0	0.18487	0.029553	0.038501	0.25185	0.068169	0.15822	0.21996	0.15323	0.13017	0.16373	0.052988	0.15364	0.15255	0.31569	0.188	0.35043	-3.7583	-4.4812	-3.6458	-4.5604	-4.3375	-3.8375	-4.8354	-4.0708	-4.0396	-4.425	-3.9958	-4.6062	-4.4708	-3.8312	-4.5854	-4.225	-101.881	23.578	65.714	214.765	111.889	21.526	153.961	176.378	36.446	-13.046	214.615	-103.297	160.860	8.800	216.757	181.075	0.00021523	0.0014911	0.00054162	901.94	1.9563e-05	2.1457e-05	1055.4	274.29	2.3122e-05	5.1561e-06	382.79	117.88	81.245	25.546	2.1874e-05	42.39	0.0041377	0.0042258	0.0011833	1071.4	4.6504e-05	4.6452e-05	1205.5	338.22	4.6342e-05	4.6437e-05	490.52	156.96	124.29	40.12	4.672e-05	61.119	160.507	-37.081	105.488	-110.227	85.815	8.281	-110.808	-105.928	-79.455	83.153	-107.283	-103.438	-101.384	-96.056	176.922	-97.809	-8191	255	
19531.648	1	1	0	0	0.16439	0.19148	0.011044	0.1982	0.15782	0.2532	0.22584	0.13513	0.1883	0.15447	0.10666	0.10584	0.353	0.10972	0.11715	0.14092	-3.8333	-4.7292	-3.8208	-4.4667	-4.3396	-3.5917	-4.6042	-4.1021	-3.8	-4.4104	-3.9021	-4.2917	-4.4979	-3.5917	-4.6771	-4.2646	177.828	-107.480	209.055	190.183	-21.325	80.595	179.100	-69.205	-55.228	-45.076	-102.416	-52.146	-78.419	207.653	-83.218	49.666	0.00047377	0.0020321	0.00037662	903.55	2.4095e-05	1.3986e-05	1054.5	275.84	4.3713e-06	7.1619e-06	390.84	119.24	82.218	26.252	6.2612e-06	43.124	0.0041609	0.0042777	0.0011998	1075.1	4.716e-05	4.7185e-05	1212.4	341.2	4.716e-05	4.7176e-05	497.18	158.72	125.8	40.786	4.7271e-05	62.109	152.101	233.163	27.360	-109.910	35.422	-30.963	-110.036	-105.290	221.057	-51.358	-106.603	-102.870	-101.969	-96.031	148.655	-97.983	-8191	255	
19531.766	1	1	0	0	0.14856	0.25989	0.10514	0.065889	0.074095	0.089474	0.13352	0.33287	0.11976	0.18661	0.21296	0.13023	0.031698	0.22063	0.15314	0.059036	-3.575	-4.725	-3.8208	-4.4604	-4.6562	-3.6354	-4.5167	-4.3521	-3.6813	-4.6625	-3.9708	-4.0667	-4.5125	-3.7021	-4.5208	-4.4437	12.086	29.000	100.624	167.167	-45.727	-52.602	-85.297	141.063	106.359	33.436	153.100	228.586	54.740	75.676	-30.711	147.604	0.00028491	0.001498	0.0003933	912.62	1.0457e-05	7.0499e-06	1066.3	277.84	7.1406e-06	3.266e-05	394.26	121.82	83.412	26.671	5.5967e-06	43.308	0.0041913	0.0042884	0.0012045	1078.9	4.6619e-05	4.6766e-05	1216.5	340.74	4.647e-05	4.6938e-05	499.25	160.08	126	41.019	4.704e-05	62.16	190.689	215.477	199.892	-109.901	-100.483	80.162	-109.963	-105.133	17.268	-83.678	-106.327	-102.690	-101.019	-96.132	230.532	-98.111	-8191	255	
19531.863	1	1	0	0	0.13695	0.10529	0.13021	0.087791	0.26015	0.16058	0.086753	0.12952	0.10319	0.063835	0.16725	0.098955	0.20429	0.14114	0.17665	0.14428	-3.3521	-4.6	-3.9375	-4.0646	-4.4896	-3.6458	-4.5792	-4.3438	-3.6521	-4.7625	-4.2833	-4.0833	-4.6729	-3.7729	-4.2896	-4.4354	50.064	31.961	-54.869	-106.840	-38.651	-40.448	188.432	195.250	197.590	44.867	163.595	-66.258	-106.917	153.260	84.737	42.449	0.00028878	0.00050797	0.00082072	919.47	1.6268e-05	8.888e-06	1069.8	278.83	1.6008e-05	1.7868e-05	389.93	118.81	81.924	26.067	7.1198e-06	42.565	0.0041959	0.00429	0.0012009	1081.6	4.6507e-05	4.6853e-05	1217.8	341.43	4.6371e-05	4.6657e-05	494.65	157.35	124.75	40.448	4.6387e-05	60.769	200.311	235.043	13.818	-109.946	158.096	64.073	-110.402	-105.182	-1.237	-74.791	-106.407	-103.081	-101.260	-96.020	195.028	-98.099	-8191	255	
19531.959	1	1	0	0	0.11062	0.051192	0.17176	0.2071	0.085932	0.063092	0.21622	0.15713	0.22199	0.15903	0.12956	0.07321	0.060698	0.26727	0.13892	0.14132	-3.3771	-4.6146	-3.9792	-3.9354	-4.6625	-3.7938	-4.4979	-4.6396	-3.7229	-4.65	-4.2771	-3.8646	-4.7646	-3.8063	-4.1687	-4.6438	-71.798	120.836	223.880	182.707	35.432	137.893	181.796	178.127	100.718	55.399	212.091	158.952	-75.815	-35.569	-103.588	-99.437	0.00051852	0.0013923	0.00010482	911.64	8.3952e-06	1.2075e-05	1061.7	277.61	6.5542e-06	8.0806e-06	384.64	118.29	82.1	26.285	2.0196e-05	42.451	0.0041194	0.0042193	0.0011814	1071	4.6246e-05	4.6502e-05	1208.1	339.74	4.6081e-05	4.6336e-05	491.17	156.91	124.65	40.335	4.6608e-05	60.994	96.386	-50.602	-86.612	-110.020	38.479	21.765	-110.403	-105.510	35.088	-68.649	-106.504	-103.073	-101.618	-96.110	-56.707	-97.796	-8191	255	
19532.055	1	1	0	0	0.17414	0.04384	0.14621	0.28401	0.21306	0.24415	0.097263	0.086225	0.21207	0.056181	0.31604	0.05295	0.081178	0.065785	0.09597	0.1174	-3.3854	-4.4812	-4.2021	-3.8917	-4.6458	-3.8167	-4.4646	-4.6562	-3.8479	-4.5375	-4.4062	-3.8083	-4.6687	-4.1375	-3.8646	-4.6125	25.678	-101.538	56.768	-80.073	6.074	58.147	167.492	233.453	184.662	64.059	155.131	86.208	-92.417	90.678	91.459	174.907	0.00024177	0.0011948	0.00047146	903.44	2.3932e-05	2.1001e-05	1064.8	277.71	5.2133e-06	1.9228e-05	389.86	119.01	81.755	26.296	8.1385e-06	42.78	0.0041688	0.0042782	0.0011935	1074.8	4.6757e-05	4.7183e-05	1212.8	341.5	4.6908e-05	4.7137e-05	495.66	158.21	125.91	40.764	4.6949e-05	61.609	186.610	157.903	47.428	-109.883	-95.188	-39.413	-110.342	-105.603	92.800	33.962	-106.466	-102.894	-101.367	-96.045	213.270	-97.921	-8191	255	
19532.150	1	1	0	0	0.13189	0.0354	0.21414	0.10685	0.094755	0.16471	0.18547	0.057059	0.32048	0.16908	0.13389	0.31882	0.055688	0.096456	0.087776	0.20345	-3.3688	-4.4271	-4.5563	-3.8708	-4.5625	-3.9	-4.2167	-4.6625	-3.7979	-4.3583	-4.5583	-3.8542	-4.7063	-4.1417	-4.0521	-4.9521	174.230	189.100	195.131	-31.278	127.476	47.595	203.600	226.751	-81.946	36.039	109.879	199.840	6.807	70.705	-32.750	158.517	0.00026195	0.001775	0.00044097	909.36	3.6884e-06	1.0327e-05	1056.2	276.38	4.7666e-06	3.8081e-06	390.05	119.45	82.481	26.255	1.6871e-05	43.288	0.0042358	0.0043177	0.0012021	1079.7	4.7492e-05	4.7525e-05	1216.8	343.53	4.7477e-05	4.7645e-05	498.67	159.55	126.76	41.008	4.7292e-05	61.974	-95.755	-58.109	-62.158	-109.667	19.124	28.176	-110.518	-105.397	235.467	174.420	-106.468	-102.462	-101.444	-95.792	184.726	-97.506	-8191	255	
19532.246	1	1	0	0	0.051203	0.22965	0.025258	0.19148	0.092381	0.14361	0.10558	0.12733	0.32658	0.17763	0.206	0.21227	0.14703	0.1609	0.18026	0.081321	-3.5229	-4.2688	-4.4604	-3.9542	-4.6646	-4.2896	-4.1708	-4.8938	-3.9833	-4.0417	-4.6438	-3.7625	-4.6229	-4.3	-3.9167	-4.6896	56.661	-46.674	-27.420	117.837	-15.478	-33.039	90.311	-68.222	23.792	142.466	182.415	140.159	73.053	-62.416	11.541	-74.139	0.0005203	0.0011282	0.00049272	910.74	7.9547e-06	8.8689e-06	1061.6	277.94	8.0162e-06	2.263e-05	387.08	118.92	81.5	25.831	1.9421e-05	42.02	0.0042443	0.0043342	0.0012097	1083.5	4.7692e-05	4.7819e-05	1218.4	343.59	4.7843e-05	4.7903e-05	496.6	158.9	126.22	40.614	4.7497e-05	61.137	116.680	109.722	-8.599	-109.936	121.273	140.218	-110.482	-105.459	-93.811	-44.630	-105.943	-102.673	-101.685	-96.099	-112.722	-97.870	-8191	255	
19532.367	1	1	0	0	0.11752	0.080532	0.15776	0.076554	0.27361	0.060693	0.057505	0.26444	0.11345	0.099009	0.14854	0.067934	0.068648	0.13665	0.19702	0.16577	-3.7	-4.0458	-4.5958	-3.9146	-4.5021	-4.3417	-3.8104	-4.675	-3.7958	-3.9479	-4.6771	-3.8875	-4.4833	-4.2854	-3.675	-4.7188	137.894	-38.114	-88.984	-76.164	221.273	-56.829	-58.551	202.475	31.915	93.320	235.392	37.008	64.470	114.734	32.477	235.823	0.00061954	0.0021298	0.0010014	904.63	2.5191e-05	6.2382e-06	1048.5	273.14	1.9166e-05	1.7549e-05	379.44	115.57	79.914	25.17	8.2691e-06	41.333	0.0042636	0.0043444	0.0012043	1075.7	4.7344e-05	4.7368e-05	1202.5	339.13	4.7279e-05	4.7122e-05	489.72	156.43	125.11	40.116	4.7315e-05	60.845	188.042	-108.641	158.439	-109.505	176.035	-60.946	-110.494	-105.273	40.609	-54.261	-106.615	-102.397	-101.509	-95.832	-119.576	-97.502	-8191	255	
19532.465	1	1	0	0	0.043324	0.12874	0.04804	0.15464	0.15574	0.13844	0.33282	0.18267	0.24391	0.12962	0.17711	0.071187	0.27384	0.11669	0.15202	0.29629	-3.65	-3.8646	-4.4917	-3.8958	-4.2083	-4.35	-3.7542	-4.775	-4.1042	-3.7521	-4.7917	-3.9208	-4.1562	-4.5792	-3.7104	-4.5292	133.493	132.076	217.010	174.362	158.883	-77.041	168.870	66.303	92.121	-0.287	209.380	128.850	-42.121	-6.548	-105.340	-106.493	0.00047124	0.00068925	0.00028041	901.29	1.0148e-05	1.762e-05	1051.6	274.08	1.7229e-05	1.1012e-05	386.85	118.1	80.964	25.618	1.1252e-05	41.954	0.0042463	0.004312	0.0012039	1076	4.7259e-05	4.7272e-05	1207.8	340.54	4.7287e-05	4.7332e-05	493.56	157.68	125.38	40.336	4.7315e-05	61.123	78.993	116.604	158.879	-109.559	55.030	-42.874	-109.982	-104.689	26.550	174.476	-105.989	-102.564	-101.621	-95.493	37.298	-97.664	-8191	255	
19532.559	1	1	0	0	0.18213	0.14048	0.24025	0.059473	0.10465	0.034704	0.10664	0.34864	0.094257	0.24326	0.23178	0.12587	0.097518	0.12219	0.12777	0.12079	-3.8146	-3.6167	-4.6333	-4.075	-3.9521	-4.5271	-3.8833	-4.4104	-4.2312	-3.7896	-4.8208	-4.0375	-4.0646	-4.6562	-3.6583	-4.4854	-51.233	16.357	33.798	139.242	-76.657	-7.515	150.651	216.426	31.725	192.053	-108.628	158.920	-117.870	-17.134	71.101	69.140	0.00024379	0.0016232	0.00038232	908.06	1.2422e-05	2.4599e-05	1054.2	275.62	1.3686e-05	1.5419e-05	386.27	118.76	82.02	26.009	1.4857e-05	42.475	0.0042395	0.0043289	0.0012113	1083.1	4.7487e-05	4.7753e-05	1215.7	342.98	4.7793e-05	4.7826e-05	498.41	159.91	126.58	40.976	4.8131e-05	62.012	101.212	202.296	155.617	-109.260	74.058	23.656	-109.965	-104.778	102.365	189.408	-105.943	-102.000	-101.094	-95.543	194.520	-97.585	-8191	255	
19532.633	1	1	0	0	0.20469	0.1521	0.27083	0.3857	0.11932	0.016996	0.1404	0.092607	0.22441	0.1408	0.12319	0.1407	0.16308	0.089912	0.12653	0.3035	-4.1896	-3.7	-4.6271	-4.1646	-3.9271	-4.6062	-3.7708	-4.3667	-4.5104	-3.6813	-4.6458	-4.1188	-3.95	-4.7458	-3.9083	-4.4146	-1.536	51.777	52.521	191.001	-50.710	203.461	162.187	138.455	47.946	-77.406	147.754	219.750	-33.223	202.448	22.664	203.044	0.00087549	0.00055466	0.0005682	906.69	1.2879e-05	1.771e-05	1052.1	279.42	4.8569e-06	1.1462e-05	394.02	120.12	82.184	26.037	1.0954e-05	42.825	0.0042728	0.0043896	0.0012279	1086.4	4.7904e-05	4.8099e-05	1224.5	345.06	4.7828e-05	4.8336e-05	501.97	160.95	127.28	41.234	4.8436e-05	62.104	131.997	-63.064	-38.958	-109.022	210.106	-25.835	-109.856	-104.979	-89.663	207.226	-106.075	-102.337	-101.139	-95.366	65.398	-97.879	-8191	255	
19532.752	1	1	0	0	0.21648	0.086529	0.18512	0.11599	0.24524	0.19618	0.092827	0.14444	0.16911	0.15949	0.15877	0.18523	0.13926	0.1784	0.097913	0.023898	-4.0062	-3.7479	-4.6917	-4.2896	-3.975	-4.7188	-3.9271	-4.3625	-4.5854	-3.7896	-4.6	-4.3375	-3.9	-4.7625	-3.8604	-4.0583	78.234	-29.824	101.614	146.551	17.775	88.064	-24.348	139.092	177.280	202.599	14.994	69.142	217.226	162.060	47.233	174.977	0.00049296	0.00069898	0.00046342	904.57	1.9313e-05	1.1717e-05	1054.1	274.79	1.2075e-05	8.2847e-06	383.09	115.19	80.986	25.293	7.3412e-06	41.665	0.0042812	0.0043804	0.0012181	1080	4.6755e-05	4.7109e-05	1210.9	339.34	4.6553e-05	4.688e-05	491.69	155.8	123.82	40.073	4.7164e-05	60.485	17.688	32.365	178.344	-109.082	-93.839	-96.450	-108.696	-103.940	17.206	33.408	-105.120	-101.326	-101.134	-95.595	130.196	-97.258	-8191	255	
19532.848	1	1	0	0	0.038104	0.12532	0.23681	0.071641	0.054976	0.21905	0.20221	0.11593	0.14586	0.12071	0.18021	0.16169	0.14213	0.27273	0.1968	0.11934	-4.125	-3.7021	-4.5417	-4.3771	-3.725	-4.7083	-4.1375	-4.0875	-4.6958	-3.8292	-4.4125	-4.4646	-3.775	-4.5938	-3.9958	-3.9667	12.357	169.410	-12.420	-0.505	81.149	-20.446	168.573	121.049	98.732	-81.878	231.679	231.994	-44.551	128.099	192.915	222.704	0.00081432	0.0011961	0.00075007	908.09	5.769e-06	1.0644e-05	1049.2	274	1.1935e-05	2.3064e-05	384.06	117.14	80.067	25.245	9.7543e-06	41.813	0.0041988	0.0043167	0.0012007	1074.1	4.7416e-05	4.7777e-05	1210.7	339.87	4.76e-05	4.8303e-05	496.09	158.59	125.69	40.771	4.8607e-05	61.589	153.912	186.067	170.020	-109.379	22.725	8.271	-109.648	-104.848	-34.332	-106.672	-106.225	-102.593	-100.980	-95.606	114.547	-97.639	-8191	255	
19532.943	1	1	0	0	0.085743	0.238	0.11651	0.29616	0.26939	0.13887	0.14118	0.16856	0.22423	0.10226	0.12398	0.14892	0.19604	0.18805	0.029734	0.029617	-4.4042	-3.5917	-4.3625	-4.5604	-3.6396	-4.6375	-4.2667	-4.0563	-4.6917	-3.7687	-4.2875	-4.6438	-3.7438	-4.7333	-4.0917	-3.8583	228.374	101.503	-116.174	164.607	-11.841	118.317	194.109	141.781	139.666	115.135	-29.163	89.098	110.483	228.166	200.017	-22.569	0.00048971	0.00093771	0.00068891	904.16	7.1564e-06	1.9666e-05	1053.8	276.01	1.7262e-05	1.6881e-05	388.54	117.85	81.521	25.763	2.093e-05	42.447	0.0043295	0.0044428	0.0012316	1082.3	4.8044e-05	4.8354e-05	1218.3	341.86	4.836e-05	4.8828e-05	500.76	159.79	127.28	41.361	4.9033e-05	62.549	157.719	29.944	235.902	-108.976	-44.376	2.621	-109.727	-105.012	51.667	110.676	-106.390	-102.477	-101.528	-95.565	74.559	-97.440	-8191	255	
19533.039	1	1	0	0	0.18094	0.066863	0.084574	0.23415	0.028653	0.077023	0.26753	0.26039	0.13343	0.27162	0.16277	0.13752	0.13467	0.094831	0.11533	0.25994	-4.2104	-3.9354	-4.2083	-4.7458	-3.5375	-4.4771	-4.5292	-3.9333	-4.6104	-4.0167	-4.05	-4.625	-3.625	-4.5042	-4.2104	-3.7583	128.417	204.803	177.833	188.750	50.647	-113.655	202.732	203.236	28.760	22.712	166.938	101.141	188.637	159.098	-44.580	186.658	0.00041927	0.0014866	0.00065858	912.88	2.1383e-05	1.2671e-05	1060.4	277.31	4.9858e-06	2.6849e-05	389.83	119.22	82.973	26.499	1.0452e-05	43.4	0.0043996	0.0045376	0.0012615	1094.4	4.9602e-05	4.9683e-05	1236.2	348.33	4.9629e-05	5.0056e-05	507.02	162.43	129.6	42.042	4.963e-05	63.67	154.955	157.548	176.648	-109.502	137.584	230.666	-110.133	-105.464	72.979	174.390	-106.339	-102.580	-101.613	-95.736	-34.612	-97.765	-8191	255	
19533.160	1	1	0	0	0.078573	0.13725	0.048987	0.11639	0.21666	0.20723	0.16872	0.05124	0.032697	0.094914	0.01793	0.099396	0.17786	0.099238	0.049726	0.11453	-4.4375	-3.9229	-3.9792	-4.7604	-3.675	-4.425	-4.5333	-3.8417	-4.6208	-4.1083	-4.1562	-4.8146	-3.9	-4.4958	-4.4604	-3.7729	96.913	162.554	178.924	209.896	41.234	224.488	-72.527	128.982	-90.671	127.146	23.272	-13.379	160.307	229.276	-12.859	181.967	0.00048663	0.0023723	0.00063204	915.8	6.6925e-06	7.7565e-06	1067.4	278.5	1.3074e-05	2.7014e-05	391.83	119.56	82.092	26.215	1.2788e-05	42.609	0.0044635	0.0045917	0.0012657	1100.3	4.9898e-05	5.0008e-05	1240	349.29	5.005e-05	5.0347e-05	508.64	162.81	129.98	42.029	5.0263e-05	63.428	150.549	-87.406	89.236	-109.787	188.775	26.437	-110.111	-105.413	-49.255	-5.687	-106.389	-102.545	-101.833	-96.010	198.816	-97.558	-8191	255	
19533.256	1	1	0	0	0.21649	0.22026	0.088259	0.21607	0.040673	0.17138	0.25159	0.051338	0.21241	0.18916	0.22204	0.075378	0.14722	0.10242	0.081495	0.134	-4.2917	-4.0833	-3.9313	-4.7354	-3.775	-4.2479	-4.7208	-3.8958	-4.4396	-4.3375	-3.7208	-4.6083	-3.9458	-4.0563	-4.5437	-3.7708	195.161	212.980	102.720	211.722	19.905	152.030	173.756	224.562	163.696	-2.713	190.810	22.684	94.657	115.618	150.171	151.479	0.00077894	0.0013988	0.00059133	906.53	1.1322e-05	1.1848e-05	1051.3	273.72	2.8837e-05	2.8725e-05	380.08	116.68	80.378	25.546	7.3277e-06	41.736	0.0045192	0.0046235	0.0012875	1097.3	5.0579e-05	5.0603e-05	1228.5	347.81	5.0452e-05	5.0766e-05	503.78	161	129.13	41.737	5.0667e-05	63.066	152.809	51.937	-36.019	-108.913	-49.733	105.170	-109.904	-105.117	-12.265	-45.915	-106.147	-102.759	-101.689	-96.384	72.736	-97.960	-8191	255	
19533.328	1	1	0	0	0.14741	0.14529	0.22473	0.088073	0.083727	0.20144	0.039121	0.39405	0.31738	0.16828	0.097697	0.13208	0.22307	0.097839	0.04045	0.1726	-4.2583	-4.2188	-3.7896	-4.7833	-3.8542	-4.0667	-4.7958	-3.7188	-4.5	-4.3542	-3.8708	-4.6167	-3.9938	-3.9021	-4.6292	-3.7854	7.995	214.999	21.086	127.147	158.058	46.245	47.187	212.558	131.266	39.713	-83.798	140.108	-73.472	208.232	-49.743	217.158	0.00057813	0.0025525	0.00056722	901.9	1.8303e-05	3.1564e-05	1047.5	271.75	1.0598e-05	1.6018e-05	382.69	117.17	80.63	25.698	2.3882e-05	42.121	0.0045424	0.0046624	0.0012949	1099	5.1139e-05	5.1048e-05	1230.3	349.22	5.1246e-05	5.1382e-05	506.85	162.74	130.75	42.333	5.1745e-05	63.933	122.798	213.476	48.659	-110.141	-58.403	-20.636	-110.871	-106.279	57.262	220.627	-106.903	-102.712	-101.699	-96.549	198.975	-98.158	-8191	255	
19533.447	1	1	0	0	0.18359	0.14957	0.098173	0.26201	0.12384	0.097192	0.18595	0.080517	0.059189	0.12102	0.056869	0.23336	0.023969	0.08255	0.021598	0.22184	-4.1458	-4.2708	-3.8083	-4.6792	-4.0417	-3.7938	-4.8187	-3.9229	-4.2896	-4.5604	-3.8917	-4.7063	-4.0208	-3.9208	-4.7979	-4.0021	181.974	199.027	56.127	-122.945	74.659	205.820	102.327	70.771	49.982	62.415	-72.806	-34.063	-77.531	8.844	16.286	156.913	0.0006121	0.00051944	0.00025007	902.74	1.0496e-05	2.3196e-06	1053.7	274.18	2.8185e-05	1.2923e-05	386	117.77	80.883	25.917	1.106e-05	43.11	0.0046718	0.0047511	0.0013256	1106.1	5.1531e-05	5.1543e-05	1238.6	350.25	5.1206e-05	5.1092e-05	507.49	162.65	130	42.239	5.1131e-05	64.169	81.108	-104.264	-34.828	-109.744	-26.362	44.970	-110.523	-105.073	215.947	196.738	-106.764	-102.675	-102.002	-96.142	-44.157	-97.592	-8191	255	
19533.545	1	1	0	0	0.15544	0.087555	0.1331	0.080057	0.064121	0.091869	0.26452	0.11467	0.12904	0.20961	0.12072	0.30728	0.14933	0.20298	0.14154	0.082518	-3.75	-4.4896	-3.8438	-4.575	-4.2854	-3.7917	-4.8438	-3.9313	-4.0667	-4.5146	-3.8292	-4.5729	-4.2354	-3.7979	-4.8729	-3.9542	-64.071	-42.049	-16.527	115.226	205.512	162.853	-108.180	149.226	42.093	85.975	162.924	173.331	-48.098	185.072	153.477	146.321	0.00025296	0.00039641	0.00043031	903.63	7.0441e-06	5.0967e-06	1051.5	274.08	4.261e-06	2.1274e-05	388.95	117.66	80.992	25.596	1.6784e-05	42.627	0.004562	0.0046866	0.0013065	1102.3	5.123e-05	5.1344e-05	1238.6	349.77	5.1024e-05	5.1112e-05	508.91	163.1	129.69	42.011	5.0277e-05	63.37	156.939	-50.246	67.889	-109.303	157.648	52.448	-109.398	-104.637	17.977	10.924	-105.994	-102.103	-100.567	-95.219	74.195	-97.452	-8191	255	
19533.639	1	1	0	0	0.13356	0.082528	0.17901	0.033839	0.12366	0.13239	0.16978	0.037539	0.042138	0.14551	0.17194	0.29045	0.21029	0.078662	0.098339	0.046346	-3.7521	-4.5437	-3.7021	-4.5104	-4.2396	-3.6021	-4.7146	-4.0771	-3.8187	-4.5167	-3.8396	-4.2667	-4.5604	-3.5875	-4.5875	-4.1125	-94.837	-72.233	76.640	-73.712	130.474	-40.410	212.675	77.566	123.238	-24.142	47.566	200.862	-104.751	206.369	91.580	120.487	0.000563	0.001982	0.0002417	901.26	2.0521e-05	1.971e-05	1040.2	271.86	1.2978e-05	1.6459e-05	381.21	115.94	79.956	25.359	3.4219e-05	41.477	0.0044599	0.0045651	0.0012829	1093.3	4.9933e-05	5.0276e-05	1226.6	345.62	5.0031e-05	5.0431e-05	502.34	160.16	127.62	41.327	5.0354e-05	62.248	128.839	-3.744	68.099	-109.454	-20.351	173.448	-109.553	-105.050	-68.094	214.196	-106.047	-102.034	-100.821	-96.204	156.873	-97.638	-8191	255	
19533.736	1	1	0	0	0.14764	0.28388	0.2134	0.30236	0.15584	0.31113	0.14072	0.14638	0.1584	0.036524	0.19693	0.23507	0.22158	0.21214	0.22997	0.25684	-3.4	-4.5563	-3.6625	-4.3042	-4.5083	-3.8208	-4.5188	-4.4083	-3.7375	-4.6438	-3.9354	-4.1687	-4.4896	-3.6833	-4.5375	-4.2646	-98.761	208.170	70.898	210.663	-26.662	11.138	217.484	176.408	27.553	-49.730	158.728	-100.121	-111.643	218.508	173.717	-71.803	0.0004144	0.0020237	0.00045916	890.67	3.8664e-06	1.2418e-05	1037.5	269.71	1.2102e-05	2.3842e-05	377.96	116.24	79.201	25.378	1.9251e-05	41.657	0.00446	0.0045787	0.0012733	1081.2	4.9592e-05	4.9854e-05	1213.6	341.62	4.8988e-05	4.9527e-05	496.11	158.19	125.88	40.925	4.9325e-05	61.684	136.881	66.261	95.674	-108.616	148.498	161.446	-109.179	-104.271	156.515	1.097	-105.274	-101.252	-100.484	-95.087	152.934	-97.263	-8191	255	
19533.855	1	1	0	0	0.23924	0.11677	0.36613	0.055602	0.12351	0.23593	0.21042	0.15638	0.042395	0.12598	0.27862	0.18506	0.16915	0.18285	0.063999	0.22566	-3.4646	-4.6875	-3.8187	-4.2083	-4.5604	-3.6583	-4.4375	-4.3438	-3.6104	-4.5875	-4.0208	-4.0687	-4.6021	-3.6833	-4.3917	-4.4563	-35.562	213.263	-114.026	-52.977	5.256	77.406	165.912	199.664	92.401	-48.202	235.563	-113.116	-92.805	-61.764	217.407	144.919	0.00014083	0.0019861	0.00042868	892.75	2.4161e-05	1.2529e-05	1042	271.54	1.513e-05	1.5833e-05	379.69	115.84	79.99	25.855	2.276e-05	41.571	0.0043719	0.0044872	0.0012578	1077.5	4.9045e-05	4.959e-05	1217	343.17	4.9703e-05	5.056e-05	503.06	160.52	128.77	42.043	5.1631e-05	63.779	-17.886	145.663	-92.678	-108.619	181.679	175.366	-109.035	-104.424	40.813	147.626	-105.411	-101.608	-100.256	-94.876	-31.177	-96.319	-8191	255	
19533.928	1	1	0	0	0.1933	0.21121	0.26756	0.17295	0.1778	0.17765	0.27774	0.15493	0.17494	0.095784	0.049519	0.10415	0.18198	0.29741	0.038482	0.040069	-3.6042	-4.6771	-4.1229	-3.9583	-4.7354	-3.9292	-4.3562	-4.6125	-3.5646	-4.5667	-4.3021	-3.9917	-4.7562	-3.8521	-4.2958	-4.6396	4.990	-11.396	-84.876	171.373	-58.630	44.681	140.193	133.358	61.562	214.236	178.115	113.724	207.230	130.852	68.750	-46.185	0.00066376	0.0011581	0.00032239	897.51	1.4219e-05	1.9037e-05	1051.4	270.45	1.1592e-05	1.9595e-05	383.04	116.68	79.655	25.49	2.7304e-05	42.404	0.0046688	0.0048251	0.0013611	1110.9	5.3254e-05	5.3916e-05	1250.3	351.77	5.3263e-05	5.3594e-05	512.46	163.74	131.28	42.948	5.3555e-05	64.829	162.413	-52.643	-0.386	-108.852	200.056	182.002	-109.624	-104.162	-113.422	-112.027	-105.050	-101.289	-100.177	-94.917	-84.510	-96.207	-8191	255	
19534.049	1	1	0	0	0.17041	0.064594	0.30751	0.28016	0.2069	0.24906	0.089575	0.070791	0.096985	0.085123	0.085947	0.20592	0.11114	0.24009	0.059331	0.35929	-3.4083	-4.5708	-4.1125	-3.7604	-4.6292	-3.8958	-4.2958	-4.7063	-3.5938	-4.5417	-4.2771	-3.7125	-4.7104	-4.0479	-3.875	-4.6042	-76.224	174.943	199.570	-111.602	-33.935	-19.324	132.140	78.689	62.521	208.353	209.388	-95.930	191.912	151.307	151.743	187.072	0.00075435	0.00070431	0.00061284	898.49	3.1633e-05	9.2501e-06	1053.7	270.73	1.2642e-05	2.4826e-05	378.19	115.27	78.249	24.95	1.5988e-05	40.937	0.0048165	0.0049886	0.0013954	1129.7	5.5748e-05	5.6492e-05	1279.2	361.74	5.7825e-05	5.849e-05	532.12	169.98	136.86	44.448	5.7727e-05	65.892	169.157	-56.663	173.422	-108.724	-40.723	2.004	-109.710	-104.576	195.433	12.638	-106.224	-102.643	-101.188	-96.006	34.817	-98.059	-8191	255	
19534.145	1	1	0	0	0.10993	0.060011	0.057445	0.061636	0.18	0.11641	0.099996	0.14153	0.038493	0.10213	0.20576	0.28302	0.26188	0.28451	0.19825	0.15898	-3.325	-4.3375	-4.4083	-3.7687	-4.6292	-3.9854	-4.1167	-4.7312	-3.6979	-4.3604	-4.3729	-3.6625	-4.6833	-4.2562	-3.8833	-4.7729	-109.203	170.766	-116.954	112.334	175.361	203.435	-66.315	-92.551	2.988	6.266	162.492	125.547	-101.038	0.091	34.062	-85.096	0.00043262	0.00047278	7.7872e-05	891.57	3.2734e-06	1.4284e-05	1030.8	264.96	2.5655e-05	2.0721e-05	371.42	110.91	76.599	23.994	2.5306e-05	39.038	0.005158	0.0052492	0.0014635	1137.7	5.7355e-05	5.7726e-05	1265.6	357.52	5.783e-05	5.7995e-05	523.62	166.86	136.6	44.463	6.0635e-05	67.489	167.566	-81.065	127.046	-109.799	181.728	55.619	-110.560	-106.148	10.684	234.696	-106.558	-103.167	-101.477	-95.929	40.640	-97.581	-8191	255	
19534.240	1	1	0	0	0.13934	0.18494	0.17286	0.21603	0.096888	0.28047	0.14278	0.20719	0.19315	0.1137	0.12589	0.079346	0.19108	0.11545	0.10141	0.073302	-3.5	-4.2792	-4.5813	-3.7792	-4.6354	-4.1104	-3.975	-4.8729	-3.8833	-4.1687	-4.4042	-3.7208	-4.5979	-4.2292	-3.8187	-4.7292	142.250	-5.758	-122.667	156.057	169.385	66.380	97.822	-108.995	-100.001	-15.737	230.789	114.306	-16.454	149.918	-96.036	189.690	0.00040254	0.0020762	0.0011718	890.86	2.7632e-05	1.4438e-05	1030.3	262.46	1.5154e-05	4.1254e-05	368.91	108.57	74.627	23.39	2.2499e-05	37.899	0.0056861	0.0059435	0.0016966	1215.2	7.1111e-05	7.403e-05	1402.5	411.95	8.5569e-05	9.061e-05	664.2	220.52	195.39	65.287	0.00011283	96.558	161.900	-22.743	62.823	-110.219	31.328	-15.280	-110.536	-105.264	-83.858	104.631	-107.387	-103.107	-101.531	-96.936	171.378	-98.345	-8191	255	
#DATA ENDS
