BOXY.EXE: ISS Imagent and Oximeter Data Acquisition Program Version 0.80
Ascii Record File

#ACQ INFORMATION
2  Detector Channels 
16  External MUX Channels 
1  Auxiliary Channels 
5000  Waveform (CCF) Frequency (Hz)
1  Waveforms Skipped 
30  Waveforms Averaged 
1  Cycles Averaged 
16  Acquisitions per Waveform 
10.0806  Updata Rate (Hz) 

#FILE INFORMATION
TRUE -- External MUX Channel results are PARSED.
FALSE -- AC DC and Phase are NOT grouped.
TRUE -- Companion Program Settings File CREATED.
FALSE -- AC data not excluded
FALSE -- DC data not excluded
FALSE -- Phase data not excluded
FALSE -- Auxillary Chn. data not excluded
Tab delimiters

#CALIBRATION STATE
TRUE -- Waveform Calibration Values APPLIED.


#AUX CALIBRATION VALUES
Val Type	aux-1	

Term	1.0000e+00	
Factor	0.0000e+00	


#WF CALIBRATION VALUES
A = Detector Channel
Val Type	A-AC1	A-AC2	A-AC3	A-AC4	A-AC5	A-AC6	A-AC7	A-AC8	A-AC9	A-AC10	A-AC11	A-AC12	A-AC13	A-AC14	A-AC15	A-AC16	A-DC1	A-DC2	A-DC3	A-DC4	A-DC5	A-DC6	A-DC7	A-DC8	A-DC9	A-DC10	A-DC11	A-DC12	A-DC13	A-DC14	A-DC15	A-DC16	A-Ph1	A-Ph2	A-Ph3	A-Ph4	A-Ph5	A-Ph6	A-Ph7	A-Ph8	A-Ph9	A-Ph10	A-Ph11	A-Ph12	A-Ph13	A-Ph14	A-Ph15	A-Ph16	

Term	0.00000e+00	0.00000e+00	0.00000e+00	0.00000e+00	0.00000e+00	0.00000e+00	0.00000e+00	0.00000e+00	0.00000e+00	0.00000e+00	0.00000e+00	0.00000e+00	0.00000e+00	0.00000e+00	0.00000e+00	0.00000e+00	0.00000e+00	0.00000e+00	0.00000e+00	0.00000e+00	0.00000e+00	0.00000e+00	0.00000e+00	0.00000e+00	0.00000e+00	0.00000e+00	0.00000e+00	0.00000e+00	0.00000e+00	0.00000e+00	0.00000e+00	0.00000e+00	0.00000e+00	0.00000e+00	0.00000e+00	0.00000e+00	0.00000e+00	0.00000e+00	0.00000e+00	0.00000e+00	0.00000e+00	0.00000e+00	0.00000e+00	0.00000e+00	0.00000e+00	0.00000e+00	0.00000e+00	0.00000e+00	
Factor	1.00000e+00	1.00000e+00	1.00000e+00	1.00000e+00	1.00000e+00	1.00000e+00	1.00000e+00	1.00000e+00	1.00000e+00	1.00000e+00	1.00000e+00	1.00000e+00	1.00000e+00	1.00000e+00	1.00000e+00	1.00000e+00	1.00000e+00	1.00000e+00	1.00000e+00	1.00000e+00	1.00000e+00	1.00000e+00	1.00000e+00	1.00000e+00	1.00000e+00	1.00000e+00	1.00000e+00	1.00000e+00	1.00000e+00	1.00000e+00	1.00000e+00	1.00000e+00	X	X	X	X	X	X	X	X	X	X	X	X	X	X	X	X	

B = Detector Channel
Val Type	B-AC1	B-AC2	B-AC3	B-AC4	B-AC5	B-AC6	B-AC7	B-AC8	B-AC9	B-AC10	B-AC11	B-AC12	B-AC13	B-AC14	B-AC15	B-AC16	B-DC1	B-DC2	B-DC3	B-DC4	B-DC5	B-DC6	B-DC7	B-DC8	B-DC9	B-DC10	B-DC11	B-DC12	B-DC13	B-DC14	B-DC15	B-DC16	B-Ph1	B-Ph2	B-Ph3	B-Ph4	B-Ph5	B-Ph6	B-Ph7	B-Ph8	B-Ph9	B-Ph10	B-Ph11	B-Ph12	B-Ph13	B-Ph14	B-Ph15	B-Ph16	

Term	0.00000e+00	0.00000e+00	0.00000e+00	0.00000e+00	0.00000e+00	0.00000e+00	0.00000e+00	0.00000e+00	0.00000e+00	0.00000e+00	0.00000e+00	0.00000e+00	0.00000e+00	0.00000e+00	0.00000e+00	0.00000e+00	0.00000e+00	0.00000e+00	0.00000e+00	0.00000e+00	0.00000e+00	0.00000e+00	0.00000e+00	0.00000e+00	0.00000e+00	0.00000e+00	0.00000e+00	0.00000e+00	0.00000e+00	0.00000e+00	0.00000e+00	0.00000e+00	-1.74110e+02	-1.49463e+02	-1.54163e+02	-1.83559e+02	-9.67051e+01	-8.85097e+01	-1.58120e+02	-1.62015e+02	-7.57778e+01	-9.11998e+01	-1.70546e+02	-1.71093e+02	-1.79028e+02	-1.76657e+02	-7.54591e+01	-1.49556e+02	
Factor	3.07533e-05	1.16140e-04	3.88137e-05	1.69307e-01	1.12974e-06	1.04412e-06	1.84577e-01	5.88378e-02	1.11002e-06	1.29812e-06	9.83490e-02	3.36173e-02	3.12576e-02	1.02943e-02	1.39422e-06	1.47485e-02	9.99033e-07	1.02388e-06	2.85475e-07	7.71054e-02	1.12068e-08	1.12247e-08	7.91330e-02	2.67211e-02	1.11987e-08	1.12333e-08	4.26404e-02	1.45631e-02	1.40376e-02	4.62015e-03	1.12025e-08	6.38598e-03	X	X	X	X	X	X	X	X	X	X	X	X	X	X	X	X	



#DISTANCE SETTINGS
A = Detector Channel
A-1	A-2	A-3	A-4	A-5	A-6	A-7	A-8	A-9	A-10	A-11	A-12	A-13	A-14	A-15	A-16	

2.5000e+00	3.0000e+00	2.5000e+00	3.0000e+00	2.0000e+00	3.0000e+00	1.5000e+00	3.0000e+00	3.0000e+00	3.0000e+00	3.0000e+00	3.0000e+00	3.0000e+00	3.0000e+00	1.5000e+00	3.0000e+00	

B = Detector Channel
B-1	B-2	B-3	B-4	B-5	B-6	B-7	B-8	B-9	B-10	B-11	B-12	B-13	B-14	B-15	B-16	

1.0000e+01	1.0000e+01	1.0000e+01	1.4400e+00	1.0000e+01	1.0000e+01	1.5100e+00	1.9400e+00	1.0000e+01	1.0000e+01	1.9900e+00	2.4900e+00	2.4100e+00	2.9000e+00	1.0000e+01	2.9800e+00	




#DATA BEGINS
time	group	step	mark	flag	A-AC1	A-AC2	A-AC3	A-AC4	A-AC5	A-AC6	A-AC7	A-AC8	A-AC9	A-AC10	A-AC11	A-AC12	A-AC13	A-AC14	A-AC15	A-AC16	A-DC1	A-DC2	A-DC3	A-DC4	A-DC5	A-DC6	A-DC7	A-DC8	A-DC9	A-DC10	A-DC11	A-DC12	A-DC13	A-DC14	A-DC15	A-DC16	A-Ph1	A-Ph2	A-Ph3	A-Ph4	A-Ph5	A-Ph6	A-Ph7	A-Ph8	A-Ph9	A-Ph10	A-Ph11	A-Ph12	A-Ph13	A-Ph14	A-Ph15	A-Ph16	B-AC1	B-AC2	B-AC3	B-AC4	B-AC5	B-AC6	B-AC7	B-AC8	B-AC9	B-AC10	B-AC11	B-AC12	B-AC13	B-AC14	B-AC15	B-AC16	B-DC1	B-DC2	B-DC3	B-DC4	B-DC5	B-DC6	B-DC7	B-DC8	B-DC9	B-DC10	B-DC11	B-DC12	B-DC13	B-DC14	B-DC15	B-DC16	B-Ph1	B-Ph2	B-Ph3	B-Ph4	B-Ph5	B-Ph6	B-Ph7	B-Ph8	B-Ph9	B-Ph10	B-Ph11	B-Ph12	B-Ph13	B-Ph14	B-Ph15	B-Ph16	aux-1	digaux	

19474.602	1	1	0	768	0.20906	0.12855	0.055633	0.33849	0.073827	0.20996	0.19102	0.1896	0.16313	0.055047	0.18527	0.13515	0.4333	0.065648	0.082569	0.15409	-3.4271	-4.6375	-3.8375	-4.1958	-4.5833	-3.6312	-4.4812	-4.2875	-3.6167	-4.6708	-4.1687	-3.9521	-4.7667	-3.7	-4.1958	-4.4938	-110.989	16.880	212.495	231.264	115.509	-79.839	186.236	223.293	223.215	79.598	169.955	207.729	-101.706	184.977	-84.351	190.669	0.00051295	0.00025095	8.9165e-05	1346.7	7.3897e-06	3.2266e-06	1520.7	425.1	1.354e-05	7.6899e-06	573.73	186.32	133.2	38.506	6.0562e-06	61.993	0.0015466	0.0015679	0.00043887	1229.1	1.7089e-05	1.7293e-05	1379.3	390.31	1.7264e-05	1.7325e-05	530.11	173.12	129.45	38.383	1.7274e-05	59.881	129.563	163.402	9.792	-109.224	-78.176	-44.907	-109.627	-105.334	16.496	104.935	-106.159	-102.402	-101.907	-97.110	-8.136	-98.128	-8191	255	
19474.699	1	1	0	0	0.073515	0.13236	0.022879	0.34498	0.1076	0.15298	0.30556	0.15328	0.24456	0.067684	0.22547	0.021972	0.11671	0.20249	0.1954	0.21695	-3.4292	-4.5938	-4.1167	-3.9562	-4.5875	-3.65	-4.4625	-4.3771	-3.5563	-4.6854	-4.3271	-3.9417	-4.6667	-3.8292	-4.0208	-4.65	-64.749	153.642	21.702	197.514	181.821	30.147	220.552	198.803	96.835	162.837	190.827	-68.839	-110.133	229.649	74.373	-113.805	0.00061135	0.00027498	0.0002785	1355.8	5.7447e-06	9.9831e-06	1522.7	427.82	2.0925e-06	9.4173e-06	576.9	187.96	134.61	38.935	4.5709e-06	62.502	0.00155	0.0015813	0.00044467	1241.2	1.7352e-05	1.745e-05	1387.5	394.03	1.753e-05	1.7673e-05	533.76	175.77	131.01	38.938	1.7699e-05	60.601	133.143	156.537	-23.714	-109.225	55.161	41.478	-109.721	-105.412	57.697	3.229	-105.971	-102.697	-101.440	-96.512	-39.795	-98.213	-8191	255	
19474.795	1	1	0	0	0.22887	0.10422	0.15042	0.034373	0.10038	0.029298	0.27492	0.28184	0.080801	0.21138	0.12159	0.038435	0.43402	0.31815	0.09671	0.080973	-3.2917	-4.4208	-4.0813	-3.9083	-4.5833	-3.6625	-4.1917	-4.4667	-3.5854	-4.5375	-4.4062	-3.8708	-4.7542	-3.8542	-3.9125	-4.7292	-94.089	-114.085	163.148	-50.653	195.037	-89.033	125.917	171.847	233.073	168.982	209.958	165.342	-72.492	228.379	16.475	195.898	0.0003067	0.00060146	0.00018637	1356	5.1664e-06	4.1365e-06	1525.4	427.41	3.8554e-06	1.0767e-05	579.18	185.94	133.51	38.102	8.049e-06	60.947	0.0015967	0.0016226	0.00045133	1245.4	1.7681e-05	1.7742e-05	1387.9	394.59	1.7735e-05	1.7961e-05	533.66	174.05	130.03	38.408	1.8365e-05	59.254	132.200	179.577	-40.851	-109.813	47.091	154.245	-110.290	-105.562	74.376	-83.049	-106.326	-102.810	-101.830	-96.206	-87.538	-98.396	-8191	255	
19474.891	1	1	0	0	0.11908	0.21238	0.1266	0.22441	0.029563	0.16393	0.279	0.081636	0.32801	0.076813	0.33178	0.1869	0.2161	0.10777	0.13617	0.083635	-3.3979	-4.3438	-4.4146	-3.7625	-4.4812	-3.9813	-4.0125	-4.8125	-3.5625	-4.2417	-4.4417	-3.6875	-4.8271	-4.1062	-3.9771	-4.7583	203.766	-38.212	31.177	145.719	1.575	50.109	186.786	99.987	152.641	-25.075	-116.726	148.455	166.623	198.477	89.270	-100.995	0.00056106	0.0016828	2.0921e-05	1349.9	5.376e-06	1.5864e-06	1501.8	419.71	6.6974e-06	1.1984e-05	562.65	180.91	131.01	37.429	7.6248e-06	59.612	0.0016381	0.0016682	0.00045392	1237.3	1.7951e-05	1.7976e-05	1376.6	388.44	1.8128e-05	1.8363e-05	524.32	171.16	128.64	37.825	1.8524e-05	58.535	147.151	-118.621	235.095	-109.304	176.851	66.280	-109.785	-105.332	-93.764	-14.267	-106.186	-102.951	-101.685	-96.691	31.923	-98.128	-8191	255	
19474.986	1	1	0	0	0.11617	0.074141	0.11632	0.22431	0.20996	0.22034	0.30214	0.51476	0.11642	0.22361	0.31657	0.16159	0.066536	0.052645	0.096057	0.09096	-3.3792	-4.1146	-4.3708	-3.8854	-4.3875	-4.0792	-4.0854	-4.8104	-3.7625	-4.2458	-4.7542	-3.7417	-4.5875	-4.1479	-3.7729	-4.7979	192.953	19.814	-55.472	-114.200	94.742	-16.690	111.242	192.984	120.094	224.991	189.028	204.443	115.564	142.190	133.021	117.712	0.00028233	0.00032222	0.00035436	1345.8	8.7296e-06	1.3292e-06	1499.3	421.83	2.5181e-05	2.5222e-06	565.09	182.5	131	37.781	5.6071e-06	60.26	0.0016366	0.0016822	0.00045928	1233.9	1.8162e-05	1.8121e-05	1374.3	389.26	1.827e-05	1.859e-05	526.38	172.2	129.52	38.187	1.8656e-05	59.025	172.143	98.952	14.246	-109.207	29.651	110.846	-109.839	-105.248	72.597	-51.693	-106.316	-102.697	-101.789	-96.787	-113.371	-98.560	-8191	255	
19475.082	1	1	0	0	0.11	0.12335	0.092275	0.091219	0.061549	0.17555	0.036991	0.10808	0.14446	0.14796	0.088118	0.36514	0.17432	0.21843	0.17111	0.22715	-3.3729	-4.0938	-4.6	-3.7708	-4.4	-4.2083	-3.925	-4.6896	-3.9375	-3.9771	-4.5813	-3.7521	-4.4167	-4.325	-3.7146	-4.6708	118.721	-99.353	177.981	168.825	67.389	63.341	4.497	-55.327	2.712	-90.878	111.716	137.474	20.204	198.032	140.133	210.588	0.00051023	0.0013563	0.00047642	1344.8	2.037e-06	1.0072e-05	1509.5	423.42	6.6993e-06	2.97e-06	569.06	184.29	132.16	38.305	1.0212e-05	61.474	0.0016558	0.0017015	0.00046239	1238.9	1.8394e-05	1.8224e-05	1382.2	392.17	1.8351e-05	1.8671e-05	529.16	174.02	130.13	38.45	1.8626e-05	59.897	162.828	-55.834	6.124	-109.320	-15.939	-98.352	-109.637	-105.342	-19.417	95.651	-106.238	-102.460	-101.461	-96.863	-83.829	-98.011	-8191	255	
19475.201	1	1	0	0	0.11334	0.092471	0.086995	0.39202	0.28677	0.15291	0.16203	0.1124	0.10266	0.27042	0.12541	0.1098	0.21594	0.234	0.35082	0.047738	-3.6458	-3.7979	-4.6625	-3.8521	-4.275	-4.25	-3.8417	-4.8792	-3.9583	-3.8667	-4.6458	-3.8104	-4.3042	-4.575	-3.5375	-4.5563	8.583	174.319	112.717	186.307	-38.328	-93.579	59.467	209.899	69.072	196.628	127.839	-120.804	197.411	34.214	91.996	132.706	0.00033457	0.00070511	0.00013122	1351.8	2.3621e-05	6.621e-06	1509.1	426.52	4.5763e-06	2.9374e-06	575.23	184.78	133.82	38.233	1.6805e-05	61.433	0.0016484	0.0016944	0.00046492	1242.5	1.8567e-05	1.8312e-05	1386	394.57	1.8351e-05	1.8832e-05	534.89	174.95	131.63	38.681	1.8549e-05	59.975	125.529	91.503	-92.720	-108.928	-35.847	78.105	-109.137	-105.038	-52.430	134.594	-106.103	-102.166	-101.417	-95.927	-2.797	-97.962	-8191	255	
19475.299	1	1	0	0	0.15839	0.17364	0.099077	0.325	0.13832	0.13435	0.19648	0.16118	0.19354	0.18427	0.25509	0.26928	0.13501	0.098234	0.13472	0.17994	-3.8042	-3.7812	-4.6292	-3.8354	-4.1792	-4.5104	-3.9333	-4.5708	-4.0646	-3.8292	-4.7125	-3.8542	-4.1583	-4.5042	-3.6792	-4.4896	231.074	-16.198	210.445	210.374	-109.815	146.183	190.524	99.244	-93.027	-109.038	204.628	91.700	180.122	-36.764	121.137	-42.337	0.0007945	0.0019697	0.00020461	1348.7	7.0261e-06	1.3236e-05	1501.8	421.08	1.1194e-05	1.1385e-05	561.89	182.57	131.42	37.615	7.3091e-06	60.198	0.0016355	0.0016913	0.00046085	1238.7	1.8353e-05	1.7914e-05	1373.7	389.75	1.7809e-05	1.8312e-05	525.64	171.25	128.91	37.862	1.8184e-05	58.693	179.490	-28.035	179.920	-108.753	113.838	21.472	-109.426	-105.053	80.888	-23.407	-105.691	-102.816	-101.095	-96.186	114.761	-98.055	-8191	255	
19475.395	1	1	0	0	0.090577	0.19317	0.13605	0.16586	0.04366	0.20696	0.20259	0.12862	0.18766	0.26641	0.3088	0.39824	0.14542	0.091632	0.25381	0.058358	-3.8563	-3.7188	-4.6542	-4.075	-3.9417	-4.7	-3.9833	-4.4333	-4.3458	-3.7313	-4.7812	-4.0042	-4.1396	-4.6271	-3.7021	-4.5021	-73.386	25.681	115.956	-100.789	-19.781	193.290	138.756	135.467	169.497	225.379	211.033	215.039	200.444	233.933	183.025	201.021	0.00048437	0.00072044	8.1471e-05	1339.5	8.3869e-06	2.7239e-06	1495.7	419.88	2.312e-06	1.2673e-05	564.11	181.68	131.27	37.766	2.1773e-06	60.242	0.0016011	0.0016694	0.00045619	1228.2	1.8139e-05	1.7749e-05	1369	388.72	1.7739e-05	1.8336e-05	525.12	171.57	129.21	37.969	1.8327e-05	59.025	177.140	54.472	35.842	-108.997	171.836	181.163	-109.505	-105.155	52.009	-85.338	-106.048	-102.601	-101.509	-96.254	124.836	-97.781	-8191	255	
19475.490	1	1	0	0	0.23105	0.24529	0.11858	0.32451	0.10938	0.1254	0.3259	0.16912	0.18809	0.07077	0.1759	0.17498	0.16364	0.15828	0.22402	0.23762	-4.1208	-3.5625	-4.5708	-4.0687	-3.8417	-4.6396	-3.8729	-4.3812	-4.6604	-3.6458	-4.5938	-4.275	-3.9208	-4.5396	-3.7854	-4.3208	5.091	96.826	108.360	210.423	0.339	210.736	168.921	160.663	29.732	58.984	153.819	186.321	-17.994	148.805	155.497	193.004	0.00063406	0.0013219	0.00025865	1341.3	7.8277e-06	1.2537e-05	1506.3	425.08	1.096e-05	8.6928e-06	573.13	184.91	132.57	38.305	1.0292e-05	61.841	0.0016056	0.0016679	0.0004602	1232.5	1.8218e-05	1.7883e-05	1376.6	392.67	1.7727e-05	1.8172e-05	530.95	173.72	130.21	38.562	1.7976e-05	60.152	150.595	-81.842	150.621	-109.486	7.852	42.920	-109.780	-105.449	-42.832	26.701	-106.311	-103.158	-101.905	-96.797	15.787	-98.289	-8191	255	
19475.588	1	1	0	0	0.19704	0.067935	0.084217	0.12414	0.12619	0.17509	0.21087	0.30204	0.2095	0.061036	0.20666	0.058496	0.10655	0.1128	0.15538	0.24897	-4.1813	-3.7833	-4.2688	-4.1729	-3.7417	-4.4646	-3.9875	-4.1146	-4.6021	-3.8688	-4.5271	-4.3688	-3.8333	-4.6479	-3.8354	-4.0062	-113.814	79.707	-102.789	178.780	111.381	24.505	170.832	138.121	-108.880	-90.496	230.968	-49.017	164.323	78.633	202.604	220.291	0.00070318	0.00058066	0.00048274	1351.4	8.8066e-06	6.7035e-06	1519.3	427.57	8.6739e-06	1.5375e-05	578.94	188.12	135.36	39.249	1.3972e-05	62.674	0.0016014	0.0016595	0.00046187	1240.7	1.8087e-05	1.7895e-05	1386.8	395.39	1.7484e-05	1.7824e-05	536.32	175.66	131.85	39.134	1.7762e-05	61.153	157.810	-90.583	195.084	-110.289	180.138	-110.640	-110.463	-106.313	-6.531	-90.872	-106.811	-103.220	-102.607	-97.524	17.458	-98.886	-8191	255	
19475.684	1	1	0	0	0.053194	0.11976	0.10791	0.069002	0.097711	0.2693	0.12405	0.19737	0.19607	0.19151	0.089762	0.1011	0.031643	0.066247	0.053163	0.20457	-4.2604	-3.5917	-4.2271	-4.3479	-3.5812	-4.4604	-4.0708	-4.1	-4.6813	-3.7229	-4.3833	-4.4729	-3.6917	-4.5437	-4.0958	-3.9604	-97.343	190.703	98.547	-121.290	70.301	21.789	224.760	222.449	-59.049	-87.984	110.848	129.477	202.127	-30.470	-104.390	201.229	0.00039522	0.0010655	0.00031897	1369.4	5.5664e-06	7.8279e-06	1534.1	431.72	9.633e-06	9.3197e-06	583.21	187.34	135.13	38.894	7.7511e-06	61.701	0.0015961	0.0016389	0.00046202	1251.5	1.8076e-05	1.7849e-05	1399.1	398.63	1.7496e-05	1.7839e-05	538.15	175.07	131.44	38.858	1.7368e-05	60.005	209.656	-34.838	-107.126	-110.028	-116.763	21.558	-110.084	-105.817	-18.745	41.871	-106.629	-103.003	-101.853	-97.074	59.552	-98.582	-8191	255	
19475.803	1	1	0	0	0.22683	0.15303	0.058975	0.11216	0.15898	0.13298	0.24764	0.16023	0.059682	0.097451	0.13767	0.16236	0.11241	0.18834	0.11207	0.083485	-4.4458	-3.6125	-4.1958	-4.5771	-3.5042	-4.5312	-4.2438	-3.925	-4.6979	-3.8563	-4.2188	-4.6292	-3.7292	-4.4083	-4.1521	-3.8771	216.576	76.085	-92.870	228.176	219.494	134.953	-123.673	162.540	34.152	45.775	119.846	150.942	-99.463	209.975	147.155	88.955	0.00056562	0.00053933	0.00022685	1358.1	1.209e-05	1.1522e-06	1516.3	424.24	8.1485e-06	1.7563e-05	571.92	185.02	132.85	38.237	1.4243e-05	60.78	0.0015647	0.001616	0.00044979	1239.7	1.7469e-05	1.7357e-05	1377.1	391.99	1.711e-05	1.6865e-05	526.06	171.41	128.05	37.755	1.638e-05	58.241	173.506	-80.038	151.701	-109.500	51.141	-32.379	-110.011	-105.979	-74.106	57.599	-106.584	-103.137	-102.135	-97.212	42.843	-98.828	-8191	255	
19475.898	1	1	0	0	0.10689	0.14	0.15699	0.21238	0.24168	0.043805	0.12237	0.22186	0.072086	0.2056	0.24623	0.28871	0.17853	0.054324	0.31867	0.25506	-4.3562	-3.9229	-3.8708	-4.7021	-3.5625	-4.2854	-4.4208	-3.8833	-4.5771	-3.8708	-4.1521	-4.725	-3.8021	-4.4417	-4.3229	-3.7083	84.948	55.732	30.438	213.534	203.299	203.708	106.564	215.468	103.682	193.620	234.792	-81.079	13.723	-80.939	20.813	169.315	0.00025732	0.00086083	0.00027368	1355	4.8552e-06	9.7299e-06	1511.3	426.3	4.8327e-06	8.0467e-06	574.92	184.48	133.96	38.274	7.8538e-06	60.953	0.001464	0.0015026	0.00041684	1227.1	1.6309e-05	1.6407e-05	1369.4	390.07	1.6323e-05	1.6591e-05	526.08	171.84	128.71	37.917	1.6524e-05	58.635	168.476	177.816	13.595	-109.473	-17.595	-41.200	-110.122	-106.139	-60.685	-47.717	-106.857	-103.398	-102.063	-97.291	-7.130	-98.890	-8191	255	
19475.996	1	1	0	0	0.11976	0.069025	0.30612	0.20342	0.081511	0.075841	0.18137	0.31308	0.10781	0.13919	0.18403	0.086356	0.1359	0.076846	0.23952	0.30327	-4.3125	-3.9854	-3.8396	-4.7542	-3.7458	-4.275	-4.6042	-3.7062	-4.6062	-4.0979	-3.9813	-4.8146	-3.7208	-4.4062	-4.4375	-3.6625	105.109	171.862	42.404	193.185	99.027	29.556	175.741	136.106	116.628	9.214	167.639	148.897	217.369	-102.296	102.354	203.822	0.00084328	0.0010861	0.00014135	1351.9	1.9601e-06	4.87e-06	1511.6	425.24	6.8323e-06	8.5078e-06	572.52	187.12	134.35	38.497	9.1981e-06	62.013	0.0014821	0.0015216	0.00041957	1231.4	1.6484e-05	1.6606e-05	1372.4	390.21	1.648e-05	1.6499e-05	527.8	172.76	129.12	38.173	1.6412e-05	59.444	142.910	122.472	205.550	-109.664	-48.649	43.519	-110.390	-105.967	-26.804	-11.795	-106.969	-103.415	-102.429	-97.258	131.837	-98.739	-8191	255	
19476.090	1	1	0	0	0.26198	0.17205	0.25113	0.24629	0.17456	0.054037	0.37357	0.19795	0.14233	0.071273	0.27864	0.14243	0.10301	0.20976	0.15179	0.024431	-4.2438	-4.0125	-3.7729	-4.7625	-3.8229	-4.0042	-4.7542	-3.8479	-4.3396	-4.0917	-3.9667	-4.75	-3.9396	-3.9562	-4.5729	-3.6417	2.446	200.274	-115.842	205.566	113.782	-77.502	175.872	181.527	200.002	-59.430	146.569	-110.505	-73.855	176.111	-115.749	182.591	0.00035837	0.00041729	1.3099e-05	1354	5.1537e-06	1.3958e-05	1522.2	428.26	1.1781e-05	8.2516e-06	580.5	187.79	134.57	38.976	1.106e-05	62.642	0.0014875	0.001509	0.00041974	1235.9	1.6537e-05	1.6451e-05	1378.8	393.18	1.6494e-05	1.6603e-05	531.42	174.27	129.81	38.53	1.6481e-05	59.746	189.687	108.920	-37.361	-109.826	214.265	-32.057	-110.077	-105.522	-9.416	-84.220	-106.606	-103.052	-101.704	-97.140	67.090	-98.785	-8191	255	
19476.164	1	1	0	0	0.18412	0.20091	0.24676	0.032861	0.11482	0.047344	0.13331	0.14616	0.12358	0.050236	0.17859	0.19666	0.10656	0.229	0.074002	0.055955	-4.0229	-4.2771	-3.5104	-4.8521	-3.875	-4.0271	-4.7854	-3.7938	-4.2812	-4.375	-3.6458	-4.6479	-4.0396	-3.9167	-4.5292	-3.8812	-45.412	93.358	-88.346	180.010	51.349	42.853	165.491	155.849	1.132	104.381	-76.178	214.438	173.259	235.132	7.630	-75.758	0.00015661	0.00081952	0.00045649	1360.8	1.0551e-05	6.9726e-06	1526	426.96	9.1461e-06	9.0968e-06	570.25	184.47	132.56	37.988	1.7985e-05	60.264	0.0014898	0.0015115	0.00042008	1235.5	1.6475e-05	1.6376e-05	1373.8	389.83	1.6286e-05	1.6302e-05	524.11	171.23	127.59	37.509	1.6166e-05	58.251	135.801	17.609	-18.804	-109.619	-123.619	78.194	-110.130	-105.721	-46.040	-52.474	-106.555	-102.871	-102.144	-97.385	92.505	-98.419	-8191	255	
19476.281	1	1	0	0	0.080928	0.047475	0.091661	0.16811	0.1296	0.032832	0.24928	0.10013	0.10157	0.13836	0.27863	0.1478	0.32535	0.14057	0.089491	0.21432	-3.9833	-4.3438	-3.5604	-4.7292	-4.0938	-3.9104	-4.6708	-3.7667	-4.0125	-4.3417	-3.7354	-4.5458	-4.1438	-3.9208	-4.5042	-3.7708	27.031	-15.701	-1.544	149.385	-31.202	-11.371	167.682	151.752	98.792	-10.631	220.982	166.068	201.115	-103.153	171.664	192.568	0.00031942	0.00064268	7.4502e-05	1347.8	4.6237e-06	7.1818e-06	1502.8	422.36	1.5304e-05	7.7288e-06	568.58	182.99	132.14	38.195	5.3622e-06	60.73	0.0014643	0.0014953	0.00041454	1224.9	1.6221e-05	1.6221e-05	1360.5	386.88	1.6109e-05	1.6214e-05	520.72	170.16	127.07	37.571	1.6146e-05	58.236	180.740	-84.583	207.793	-109.608	32.820	-22.702	-109.891	-105.586	-34.071	27.713	-106.543	-103.079	-102.057	-97.042	-37.065	-98.472	-8191	255	
19476.379	1	1	0	0	0.095129	0.14359	0.24217	0.27964	0.11054	0.19986	0.37862	0.13716	0.09493	0.12014	0.095145	0.11693	0.25479	0.16239	0.075021	0.12419	-3.6896	-4.5958	-3.6375	-4.5583	-4.0646	-3.6688	-4.6604	-3.9792	-4.0312	-4.4521	-3.6646	-4.4896	-4.2729	-3.5646	-4.7083	-3.9479	146.320	205.536	35.697	216.762	-8.885	201.789	174.705	216.171	-113.001	195.381	-115.148	225.398	159.088	214.543	219.567	135.384	0.00018532	0.0009239	0.00014823	1349.1	1.6441e-05	2.9085e-06	1512.6	423.12	7.2695e-06	1.0566e-05	568.91	185.99	133.59	38.351	2.767e-06	61.81	0.0014592	0.0014753	0.00041468	1225.4	1.6278e-05	1.6332e-05	1369	388.97	1.6415e-05	1.6434e-05	525.19	172.12	128.61	38.014	1.632e-05	59.27	161.264	-16.545	109.394	-109.517	-27.801	34.418	-109.828	-105.509	-48.956	43.709	-106.561	-102.788	-101.797	-96.935	11.971	-98.349	-8191	255	
19476.475	1	1	0	0	0.15802	0.14668	0.014541	0.19627	0.17916	0.17276	0.25373	0.15719	0.22485	0.086017	0.28274	0.070439	0.14133	0.037655	0.0535	0.11846	-3.6354	-4.6271	-3.6188	-4.3417	-4.1917	-3.6396	-4.8375	-4.175	-3.7083	-4.5979	-3.7104	-4.4771	-4.3667	-3.6729	-4.3583	-4.0813	205.627	131.566	153.686	-98.326	-103.158	124.530	184.178	199.997	190.938	-113.650	176.759	-117.579	174.609	184.811	167.994	141.433	0.00064183	0.00031436	0.00017231	1351.8	3.3782e-06	2.407e-06	1514	429.01	9.3592e-06	7.1642e-06	577.55	187.94	134.06	39.083	7.7566e-06	62.81	0.0014706	0.0014912	0.00041838	1231	1.6306e-05	1.6344e-05	1375.2	391.34	1.6348e-05	1.638e-05	530.43	174.16	129.21	38.511	1.6332e-05	60.14	171.961	-69.083	89.551	-109.474	135.390	-24.354	-109.966	-105.678	197.559	135.635	-106.388	-103.121	-101.742	-96.667	-38.217	-98.086	-8191	255	
19476.596	1	1	0	0	0.092397	0.085453	0.34323	0.096598	0.12027	0.20208	0.25858	0.24342	0.30292	0.11678	0.14451	0.10035	0.13618	0.21867	0.1094	0.25702	-3.5708	-4.5375	-3.6833	-4.25	-4.5021	-3.5729	-4.6083	-4.1917	-3.6917	-4.5167	-3.6667	-4.1104	-4.4812	-3.6333	-4.35	-4.325	-79.081	93.645	213.614	-88.156	32.107	-121.993	126.986	174.054	179.986	162.759	194.413	-66.880	-22.460	215.366	101.995	184.066	0.00061623	0.00020515	1.3507e-05	1363.4	1.0573e-05	4.4286e-06	1544.4	431.72	5.3112e-06	1.3074e-05	582.68	188.69	135.61	38.955	1.7124e-05	62.179	0.0014672	0.0014986	0.00041996	1239.6	1.6443e-05	1.6493e-05	1391.5	395.12	1.632e-05	1.6312e-05	533.8	174.9	130.02	38.427	1.631e-05	59.528	178.793	133.138	55.614	-109.330	-54.801	73.957	-110.018	-105.502	75.747	-92.121	-106.618	-103.152	-101.892	-96.893	11.623	-98.378	-8191	255	
19476.691	1	1	0	0	0.098465	0.18906	0.29839	0.03444	0.08933	0.11405	0.34422	0.092109	0.078579	0.081041	0.16988	0.23425	0.10327	0.27164	0.21026	0.2157	-3.3458	-4.5375	-3.6896	-4.0458	-4.5208	-3.65	-4.4812	-4.5854	-3.6875	-4.4958	-4.0083	-4.0229	-4.6229	-3.7292	-4.2688	-4.5479	214.294	-40.679	4.644	99.121	187.902	62.815	159.076	235.979	-37.322	-98.881	145.667	-90.680	-17.182	136.995	-75.059	123.512	0.00035211	0.00067943	0.00020822	1355.2	9.464e-06	1.024e-06	1524.1	425.91	5.7468e-06	7.8947e-06	572.44	184.78	133.4	38.083	5.0774e-06	60.57	0.0014501	0.0014704	0.00041404	1232.8	1.6056e-05	1.6091e-05	1373.7	389.73	1.5999e-05	1.6137e-05	524.9	170.98	127.58	37.649	1.5981e-05	58.094	-107.926	-105.601	121.138	-109.169	117.696	-34.125	-109.798	-105.620	69.794	-91.925	-106.376	-103.020	-101.725	-96.619	-76.219	-98.227	-8191	255	
19476.764	1	1	0	0	0.22476	0.13869	0.16006	0.25749	0.076341	0.20403	0.38391	0.35192	0.0996	0.16145	0.067781	0.21314	0.07778	0.16439	0.17007	0.31293	-3.2542	-4.5146	-3.9208	-3.8646	-4.6604	-3.6896	-4.3542	-4.4062	-3.5771	-4.5437	-4.1937	-3.9646	-4.6333	-3.8833	-4.0708	-4.5979	-48.760	-95.711	142.855	186.849	-106.918	0.301	172.338	-24.611	37.584	-99.422	-118.301	166.019	-108.379	-120.268	-93.732	187.549	0.00046321	0.0014744	0.00021401	1343.9	1.2271e-06	5.3976e-06	1510.4	423.2	4.6155e-06	1.7527e-05	567.01	184.01	133.19	38.228	1.5587e-05	60.987	0.001432	0.0014649	0.00040902	1222.8	1.6018e-05	1.6127e-05	1364.9	387.85	1.6019e-05	1.6231e-05	522.88	171.23	128.28	37.853	1.6693e-05	58.621	156.245	-66.453	-19.917	-109.194	56.378	-37.442	-109.703	-105.305	122.235	-25.752	-106.237	-102.590	-101.504	-96.397	15.042	-98.413	-8191	255	
19476.885	1	1	0	0	0.18216	0.031248	0.25153	0.28489	0.3292	0.044063	0.25774	0.17057	0.06045	0.043991	0.18028	0.21577	0.095664	0.067461	0.1155	0.23496	-3.4104	-4.5104	-4.1687	-4.0271	-4.5042	-3.9271	-4.1208	-4.6354	-3.5687	-4.3333	-4.3354	-3.8521	-4.6708	-3.9583	-3.8625	-4.5979	-105.392	90.997	-91.859	185.846	156.182	18.573	187.995	143.382	60.584	58.420	173.030	236.692	211.068	95.928	5.293	199.440	0.00056301	0.00074182	0.0001232	1353.2	1.1664e-05	7.1706e-06	1528.5	425.98	1.4865e-05	1.3786e-05	574.69	187.61	134.54	38.721	7.8697e-06	61.922	0.0014959	0.0015093	0.00041633	1230.4	1.6448e-05	1.6628e-05	1376.4	390.39	1.6593e-05	1.6568e-05	527.96	173.52	129.1	38.147	1.6767e-05	59.297	166.732	-38.838	-71.120	-108.951	-11.155	208.770	-109.757	-105.264	-113.104	8.663	-106.023	-102.542	-101.715	-96.877	7.729	-97.870	-8191	255	
19476.980	1	1	0	0	0.16841	0.15105	0.17294	0.37339	0.11824	0.23436	0.37098	0.26042	0.10469	0.074273	0.27957	0.31735	0.18973	0.096236	0.10536	0.2707	-3.2292	-4.2646	-4.2625	-3.8333	-4.5687	-3.8729	-3.9479	-4.7188	-3.6042	-4.2979	-4.3667	-3.6708	-4.5125	-3.9813	-3.7125	-4.6208	189.143	170.359	-47.707	231.141	57.539	194.636	195.954	190.031	98.284	219.163	150.431	159.528	197.384	116.346	12.646	-108.584	0.00021505	0.00067761	9.8029e-05	1360.3	1.8682e-05	7.6228e-06	1531.5	431.95	4.5497e-06	1.7856e-05	581.74	188.55	135.49	39.01	1.011e-05	62.989	0.0014871	0.0015195	0.00041479	1236.8	1.6522e-05	1.6486e-05	1382.2	393.11	1.6547e-05	1.6672e-05	531.46	174.64	129.97	38.46	1.6704e-05	60.095	148.591	195.679	161.033	-109.146	-61.877	-78.310	-109.673	-105.002	190.226	51.180	-105.931	-102.781	-101.877	-96.339	213.094	-98.019	-8191	255	
19477.074	1	1	0	0	0.083617	0.047498	0.12482	0.25876	0.043199	0.12137	0.062648	0.19639	0.12071	0.080632	0.38908	0.086648	0.1318	0.15362	0.13284	0.14529	-3.4521	-4.1729	-4.4125	-3.7646	-4.525	-4.1813	-4.0146	-4.7812	-3.7062	-4.2604	-4.7979	-3.6063	-4.5208	-4.1979	-3.7896	-4.8313	43.254	204.145	108.815	193.033	162.691	101.994	183.679	203.786	154.442	104.222	140.255	188.394	211.764	172.364	119.434	-61.246	0.00046628	0.00039421	0.00043044	1368.5	8.4908e-06	7.7433e-06	1529.1	431.15	4.4176e-06	2.0132e-05	575.81	185.66	133.65	38.493	1.8773e-05	61.298	0.0014828	0.0015167	0.00041231	1238.1	1.6308e-05	1.6174e-05	1382.2	392.6	1.6258e-05	1.6577e-05	527.25	172.15	128.44	37.88	1.6268e-05	58.497	151.985	175.505	194.260	-109.174	-45.797	-32.003	-110.040	-105.073	191.027	41.807	-105.808	-102.603	-101.074	-96.478	32.299	-97.813	-8191	255	
19477.195	1	1	0	0	0.20632	0.20654	0.091776	0.20934	0.22898	0.1322	0.39446	0.14507	0.13341	0.12077	0.16515	0.30758	0.29856	0.15451	0.12327	0.22285	-3.4271	-4.0021	-4.7188	-3.7313	-4.4896	-4.3187	-3.8	-4.8021	-3.8688	-3.8771	-4.5792	-3.7396	-4.4292	-4.2146	-3.7479	-4.6521	53.011	-1.010	-99.933	177.343	-76.127	135.409	156.618	186.414	-118.218	-71.582	155.353	184.459	138.608	-39.024	124.428	220.684	0.00053734	0.0011467	0.00030989	1349.9	9.0949e-06	1.0157e-05	1517	423.72	1.0539e-05	2.4639e-06	572.83	185.25	133.64	38.253	8.4147e-06	61.313	0.0014409	0.0014729	0.0003999	1226.3	1.5938e-05	1.5703e-05	1365.6	387.4	1.5781e-05	1.6036e-05	521.57	170.82	127.78	37.595	1.6006e-05	58.459	163.698	-19.932	71.039	-108.975	43.774	-22.773	-109.428	-105.002	-81.412	153.007	-105.972	-102.577	-101.143	-96.399	-16.967	-98.082	-8191	255	
19477.291	1	1	0	0	0.050539	0.119	0.15628	0.23066	0.13496	0.22801	0.37626	0.21707	0.3291	0.15434	0.099326	0.18512	0.17929	0.15477	0.12112	0.30053	-3.5646	-3.7979	-4.7104	-3.9792	-4.2	-4.4187	-3.8979	-4.6521	-3.9688	-3.7292	-4.7208	-3.7708	-4.2292	-4.3292	-3.5229	-4.6396	169.533	-102.948	-112.496	-98.844	-72.730	-97.496	167.529	209.966	-46.456	-27.724	192.897	-2.335	53.461	95.940	44.428	205.181	0.0004836	0.0011129	0.00028615	1356.1	3.2635e-06	1.1389e-05	1522.5	428.37	5.6437e-06	1.3704e-05	574.64	185.72	133.68	38.838	1.3548e-06	62.136	0.0014241	0.001475	0.00040473	1227.4	1.6117e-05	1.5834e-05	1370.9	390.7	1.585e-05	1.6189e-05	526.49	172.44	128.65	37.984	1.612e-05	59.141	191.679	14.758	215.909	-108.308	148.315	-67.527	-108.833	-104.594	113.965	-28.204	-105.540	-102.195	-100.765	-95.504	-82.648	-97.366	-8191	255	
19477.387	1	1	0	0	0.22651	0.13526	0.16708	0.11128	0.16003	0.01509	0.30559	0.12223	0.050667	0.15698	0.3345	0.19818	0.10342	0.052553	0.21412	0.092261	-3.675	-3.6708	-4.5375	-3.8563	-4.0854	-4.5521	-3.5833	-4.5979	-4.0437	-3.7021	-4.6312	-3.8	-4.0188	-4.5875	-3.7021	-4.4625	169.976	1.687	1.118	96.130	110.042	-2.931	177.024	-92.942	73.574	133.117	214.706	185.798	125.264	214.314	-95.804	179.461	0.00048473	0.00031339	0.00036837	1354.3	5.7572e-06	5.9157e-06	1524.2	429.58	9.7245e-06	1.7587e-05	580.52	189.54	135.35	39.127	8.9046e-06	62.812	0.0014224	0.0014728	0.0004042	1229.7	1.6145e-05	1.5748e-05	1379.6	391.77	1.5783e-05	1.6286e-05	531.21	174.51	129.81	38.474	1.6185e-05	60.137	161.817	116.132	-54.985	-108.230	0.564	8.568	-109.104	-104.508	38.868	44.300	-105.393	-101.976	-100.860	-95.952	3.029	-97.443	-8191	255	
19477.459	1	1	0	0	0.10666	0.18238	0.047224	0.45573	0.20133	0.3015	0.22293	0.1691	0.12468	0.049789	0.27299	0.13073	0.077607	0.20811	0.22573	0.17877	-3.8063	-3.7062	-4.6	-4.0104	-3.8208	-4.425	-3.825	-4.3479	-4.1521	-3.6542	-4.575	-4.0625	-3.8958	-4.6979	-3.5229	-4.3229	-110.831	107.974	44.147	195.848	-66.357	152.891	109.662	198.755	68.154	-16.916	196.687	156.279	126.734	156.477	137.598	230.909	0.00062942	0.0010238	0.00036523	1368.7	3.4946e-06	6.4275e-06	1543.4	434.72	8.3514e-06	7.4295e-06	587.66	191.08	136.45	39.738	2.2421e-05	62.914	0.0014189	0.0014768	0.00040582	1239.4	1.6222e-05	1.583e-05	1391.7	396.03	1.5741e-05	1.628e-05	535.43	175.62	130.55	38.628	1.5806e-05	59.779	163.360	-88.618	-102.312	-108.763	-34.233	-39.314	-109.766	-105.623	-36.200	-20.993	-106.389	-103.151	-102.030	-96.793	-51.015	-98.312	-8191	255	
19477.580	1	1	0	0	0.01985	0.079785	0.19989	0.21891	0.06445	0.08561	0.10239	0.17268	0.23962	0.039377	0.25068	0.24182	0.22082	0.059063	0.08421	0.26739	-3.9542	-3.5271	-4.4917	-4.1188	-3.6292	-4.4875	-3.8396	-4.1396	-4.2562	-3.7792	-4.4396	-4.0062	-3.7583	-4.6875	-3.5271	-3.9229	92.685	66.282	-69.916	-68.279	36.980	89.500	172.177	124.460	87.556	163.246	139.630	216.588	225.065	-7.934	-6.259	204.624	0.00048497	0.00073096	0.00034856	1372.5	8.1999e-06	1.3125e-05	1527.7	432.81	5.7018e-06	1.1685e-05	579.05	186.67	134.55	38.871	7.7419e-06	61.574	0.0013837	0.0014422	0.00039848	1233.7	1.5695e-05	1.5465e-05	1376	392.09	1.5179e-05	1.5575e-05	526.65	171.39	128.31	37.769	1.5323e-05	58.428	115.705	229.638	-17.407	-109.289	-16.703	-55.801	-109.760	-105.590	60.341	231.158	-106.412	-102.786	-102.080	-96.983	234.154	-98.741	-8191	255	
19477.676	1	1	0	0	0.14838	0.029574	0.15402	0.19702	0.11633	0.17857	0.28173	0.30741	0.10016	0.23891	0.16981	0.10179	0.10578	0.26597	0.14236	0.20834	-4.1583	-3.5604	-4.2354	-4.225	-3.7271	-4.4417	-3.9562	-4.1167	-4.4	-3.5229	-4.4792	-4.275	-3.7062	-4.6708	-3.9021	-4.0521	0.726	-34.071	-25.361	197.583	144.310	65.231	109.882	143.609	2.376	83.561	225.346	234.869	-63.606	-79.000	-105.909	-106.833	0.00043037	0.00062862	0.00041119	1353.6	3.9733e-06	1.0657e-05	1518.8	429.18	4.9952e-06	1.1188e-05	571.78	185.7	133.6	38.342	4.3276e-06	61.169	0.0013554	0.001406	0.00039192	1224.3	1.5368e-05	1.5132e-05	1366.9	389.97	1.4888e-05	1.5195e-05	523.01	170.48	127.48	37.558	1.4839e-05	58.419	124.817	134.010	-109.649	-109.272	50.893	161.435	-109.620	-105.132	94.480	-10.900	-105.495	-102.159	-100.843	-95.832	-7.292	-97.718	-8191	255	
19477.771	1	1	0	0	0.13186	0.20129	0.33898	0.077984	0.20366	0.1753	0.26821	0.42146	0.065437	0.035148	0.060944	0.15549	0.27987	0.28939	0.037316	0.21298	-4.2562	-3.7062	-4.1979	-4.5604	-3.6562	-4.6042	-4.1125	-3.975	-4.5375	-3.7458	-4.4437	-4.4979	-3.7146	-4.4167	-3.9542	-3.9458	13.079	199.274	-45.720	217.665	-107.685	-90.616	161.763	169.238	140.139	-56.842	157.350	227.992	230.320	-38.284	-0.556	34.858	0.00046469	0.0011337	0.0003506	1358.7	3.1178e-06	6.5342e-06	1524.9	430.45	6.6472e-07	8.5594e-06	581.45	188.24	136.49	39.302	5.3527e-06	62.249	0.0013387	0.0013859	0.00038825	1225	1.5277e-05	1.517e-05	1370.7	391.05	1.4873e-05	1.5227e-05	528.61	172.12	128.33	37.839	1.4511e-05	58.472	173.450	224.994	216.849	-108.468	166.793	60.742	-108.860	-104.671	194.784	-17.379	-105.570	-102.087	-100.911	-96.111	195.682	-97.619	-8191	255	
19477.867	1	1	0	0	0.26414	0.11761	0.099784	0.30444	0.11594	0.092102	0.080325	0.25827	0.032244	0.27029	0.043838	0.092658	0.20188	0.13544	0.1016	0.12537	-4.2354	-3.8104	-4.2063	-4.5604	-3.575	-4.3792	-4.2146	-3.9792	-4.6271	-3.7125	-4.25	-4.6104	-3.7208	-4.5333	-4.2312	-3.8875	44.720	174.240	-101.804	210.350	-57.977	-101.501	114.332	136.682	54.144	104.272	168.887	-36.631	222.544	-15.621	-57.908	175.259	0.00047338	0.002192	8.0683e-05	1372.5	5.7107e-07	6.4569e-06	1534.2	433.98	8.4609e-07	1.5344e-05	588.32	190.25	137.49	39.603	1.9351e-05	63.549	0.0012951	0.0013249	0.00036972	1229.2	1.4442e-05	1.4424e-05	1373	391.27	1.4296e-05	1.4298e-05	528.27	173.37	128.75	38.184	1.4339e-05	59.333	128.062	0.322	44.803	-108.293	74.254	153.459	-108.924	-104.639	66.326	103.590	-105.543	-101.913	-100.948	-96.085	103.620	-97.356	-8191	255	
19477.986	1	1	0	0	0.22288	0.20459	0.082082	0.25424	0.061291	0.40971	0.25577	0.20534	0.054525	0.16952	0.33951	0.2341	0.10357	0.22572	0.14299	0.19619	-4.2417	-3.6792	-3.9	-4.5708	-3.5312	-4.3667	-4.4042	-3.7146	-4.5458	-3.9167	-4.0021	-4.7625	-3.6583	-4.3688	-4.2667	-3.7958	51.357	188.207	-98.138	199.068	-113.008	33.505	180.867	137.703	-81.200	152.148	-104.739	-87.229	183.274	-35.644	176.185	170.310	0.0003214	0.0018352	0.00039388	1380	8.4226e-06	6.9364e-06	1542.2	435.4	1.0223e-05	1.6618e-05	584.52	188.55	137.5	39.19	8.7968e-06	62.157	0.0012866	0.0013192	0.00036459	1234.2	1.4247e-05	1.4272e-05	1378	392.85	1.4151e-05	1.4074e-05	525.63	171.98	127.95	37.565	1.3811e-05	58.118	171.272	-63.911	-32.724	-108.446	150.929	60.977	-108.986	-104.458	-59.485	11.268	-105.659	-102.084	-101.180	-96.186	-27.032	-97.638	-8191	255	
19478.061	1	1	0	0	0.10185	0.1259	0.26062	0.094318	0.062342	0.23984	0.041878	0.18192	0.3592	0.042774	0.24544	0.10014	0.10473	0.15445	0.18007	0.15629	-4.2125	-4	-3.8021	-4.775	-3.6854	-4.1	-4.6521	-3.7229	-4.675	-4.1375	-3.8354	-4.6979	-3.7812	-4.3125	-4.3729	-3.7958	227.793	48.053	0.720	-85.960	-49.160	150.295	161.080	156.237	22.034	-33.665	199.599	-109.568	224.266	126.722	201.213	-120.171	0.00054026	0.00058627	0.00029367	1366.9	9.1476e-06	1.3388e-05	1517.4	432.47	1.6322e-05	1.1333e-05	578.23	186.87	134.66	38.886	3.5476e-06	61.802	0.0012421	0.0012626	0.00035224	1223.2	1.3831e-05	1.3829e-05	1361.1	388.23	1.3749e-05	1.3706e-05	520.37	169.78	126.44	37.221	1.3592e-05	57.678	139.228	-72.459	227.511	-108.278	46.549	59.120	-108.978	-104.705	-9.484	132.707	-105.551	-102.055	-100.811	-95.803	97.017	-97.254	-8191	255	
19478.156	1	1	0	0	0.16508	0.17491	0.054205	0.28931	0.27193	0.30667	0.25665	0.33011	0.17223	0.21264	0.17743	0.1123	0.33579	0.14433	0.17902	0.13844	-4.1438	-4.0813	-3.6083	-4.8396	-3.75	-4.0125	-4.7104	-3.5792	-4.4021	-4.0604	-3.7896	-4.6479	-3.8896	-3.8771	-4.5833	-3.7229	-3.289	198.971	99.157	163.103	174.984	49.034	184.011	166.831	-34.309	42.027	-120.254	8.539	173.623	230.562	-89.299	111.038	0.00036235	0.00034761	0.00026811	1357.5	1.0824e-05	3.2578e-06	1523.2	431.7	1.0623e-05	1.2699e-05	579.36	189.5	135.6	39.211	1.4237e-05	61.954	0.0012311	0.0012483	0.00034903	1219.6	1.3814e-05	1.3781e-05	1363.4	389.29	1.3717e-05	1.3778e-05	523.13	171.71	127.16	37.51	1.3523e-05	58.17	162.433	-16.784	-114.465	-108.292	18.712	-26.872	-108.597	-104.767	112.120	-7.119	-105.492	-101.958	-101.122	-96.365	11.507	-97.372	-8191	255	
19478.275	1	1	0	0	0.24438	0.16866	0.19679	0.090904	0.11582	0.061236	0.35066	0.27701	0.15271	0.12508	0.059442	0.12082	0.13534	0.049485	0.29086	0.18467	-3.9854	-4.1979	-3.6146	-4.7438	-3.9562	-3.8896	-4.7188	-3.6875	-4.2438	-4.4896	-3.8521	-4.5938	-3.8208	-3.8604	-4.4417	-3.8042	214.066	-102.423	66.274	180.796	89.938	67.206	180.704	94.220	9.394	25.151	192.862	-72.147	44.025	52.408	103.324	67.834	0.00036905	0.00094962	0.00016007	1357.1	7.5775e-06	5.9988e-06	1518.3	431.28	7.8527e-06	1.9927e-05	583.2	191.57	139.78	40.205	1.1328e-05	64.209	0.0012198	0.0012406	0.00034958	1224.4	1.3684e-05	1.3483e-05	1370.3	391.21	1.3538e-05	1.3555e-05	527.87	173.67	129.26	38.191	1.3413e-05	59.541	168.854	-2.203	23.107	-108.220	161.116	64.544	-108.749	-104.282	154.095	-41.834	-105.348	-101.774	-101.181	-96.577	-27.702	-97.844	-8191	255	
19478.371	1	1	0	0	0.16099	0.11304	0.1927	0.011331	0.15674	0.097274	0.20709	0.14876	0.18964	0.2045	0.27348	0.29015	0.27525	0.20472	0.19468	0.14337	-3.8125	-4.3063	-3.4583	-4.6479	-3.8833	-3.7917	-4.8854	-3.9229	-4.1958	-4.4896	-3.8896	-4.5542	-4.1417	-3.7542	-4.6583	-3.8542	-80.273	155.799	-3.202	150.769	-99.817	-24.650	206.410	148.575	-64.792	-20.497	168.583	176.762	217.570	104.097	90.343	142.048	0.00039861	0.001303	0.00053418	1387.3	5.3302e-06	5.4875e-06	1560.3	443.5	1.4579e-05	5.3795e-06	600.34	195	141.17	40.988	2.0143e-05	64.556	0.0012098	0.0012285	0.00034424	1239.2	1.3541e-05	1.3476e-05	1389.1	397.76	1.3561e-05	1.3634e-05	535.77	176.35	130.94	38.81	1.3654e-05	59.971	176.019	-36.389	-45.621	-108.743	38.108	43.281	-109.197	-105.106	-89.601	-27.364	-105.790	-102.540	-101.454	-96.462	31.097	-98.021	-8191	255	
19478.469	1	1	0	0	0.23284	0.19122	0.094088	0.23587	0.12973	0.29727	0.045358	0.26853	0.097225	0.13851	0.26999	0.19274	0.2846	0.25033	0.11343	0.14165	-3.7313	-4.475	-3.5187	-4.5188	-4.1292	-3.6854	-4.6583	-4.0396	-3.9437	-4.6083	-3.7562	-4.4167	-4.3083	-3.775	-4.5729	-3.925	202.413	77.249	206.198	203.053	196.934	-118.849	-113.575	199.918	121.755	1.313	204.920	205.364	226.834	-103.244	-103.174	187.494	0.00038517	0.00040412	0.00020291	1394.5	2.3518e-06	8.6655e-06	1561.5	442.33	3.3197e-06	1.1925e-05	591.71	190.43	138.34	39.653	1.6935e-05	62.444	0.0012186	0.0012379	0.00034575	1245.2	1.3476e-05	1.3591e-05	1387.6	395.85	1.3424e-05	1.3435e-05	530.08	172.51	128.29	37.807	1.3417e-05	58.148	153.961	-76.800	-86.107	-108.958	-36.475	-52.882	-109.388	-104.822	-74.730	8.510	-106.093	-102.380	-101.271	-96.598	9.316	-98.080	-8191	255	
19478.564	1	1	0	0	0.093954	0.16914	0.057148	0.094992	0.096142	0.040489	0.23692	0.37983	0.154	0.25385	0.20595	0.088404	0.18876	0.15545	0.12494	0.026472	-3.5979	-4.6604	-3.5354	-4.4104	-4.3104	-3.7188	-4.875	-4.1583	-3.5542	-4.4333	-3.9125	-4.225	-4.4104	-3.5687	-4.625	-4.0167	171.975	234.929	130.247	-104.050	-44.776	96.865	210.317	171.854	-83.119	54.918	-110.116	-56.018	188.221	128.265	163.208	149.747	0.00056858	0.00039779	0.00042354	1379.6	1.1168e-05	8.9317e-06	1540	437.1	1.2614e-05	5.2315e-06	585.51	189.07	136.3	39.364	1.0622e-05	61.848	0.0012167	0.0012239	0.00034411	1228.8	1.3383e-05	1.3482e-05	1368.7	391.52	1.3395e-05	1.3476e-05	524.19	170.88	127.34	37.592	1.3579e-05	57.778	169.529	162.876	193.186	-108.698	-1.370	-20.559	-109.437	-105.025	-0.079	-111.230	-106.004	-102.645	-101.083	-96.535	5.849	-97.997	-8191	255	
19478.660	1	1	0	0	0.24263	0.05723	0.07597	0.086223	0.1739	0.044809	0.15483	0.10185	0.17986	0.053163	0.28184	0.16678	0.1204	0.11704	0.036526	0.1773	-3.3875	-4.5792	-3.4667	-4.2417	-4.3938	-3.55	-4.5875	-4.1604	-3.5667	-4.5333	-3.9	-4.2375	-4.6229	-3.5833	-4.2562	-4.1729	226.467	204.040	204.128	-78.552	219.348	-1.000	108.973	205.859	-106.756	-109.972	154.302	192.133	47.749	152.930	188.786	76.605	0.00046032	0.00034191	0.00017159	1371.1	1.6275e-05	2.5696e-06	1541.1	437.66	3.0773e-06	5.7401e-06	586.7	189.09	137.47	39.413	1.167e-05	62.641	0.001215	0.0012396	0.0003477	1225.6	1.3573e-05	1.3684e-05	1371.5	391.6	1.3717e-05	1.3705e-05	525.85	171.56	127.94	37.799	1.3934e-05	58.42	159.412	62.237	208.574	-108.912	116.004	70.405	-109.257	-104.966	-109.017	217.941	-105.974	-102.731	-101.150	-96.355	93.828	-98.054	-8191	255	
19478.756	1	1	0	0	0.10461	0.0086756	0.11333	0.24767	0.069204	0.19448	0.30782	0.2373	0.319	0.096297	0.15496	0.29109	0.2399	0.35535	0.17531	0.040678	-3.4562	-4.4979	-3.7292	-4.0958	-4.4646	-3.6208	-4.4583	-4.2833	-3.4062	-4.5708	-4.175	-4.0292	-4.6188	-3.5667	-4.1833	-4.4437	47.070	-112.852	95.084	176.676	110.566	-3.962	147.515	197.346	-68.150	70.150	130.336	186.073	39.872	231.927	-62.845	-53.636	0.00056592	0.0011188	0.00036695	1381.4	8.6749e-06	5.3224e-06	1537.4	438.29	3.1082e-06	1.2814e-05	585.83	191.26	138.1	39.76	4.4252e-06	62.817	0.0012518	0.0012812	0.0003559	1232.4	1.3931e-05	1.4001e-05	1373.1	393.22	1.386e-05	1.3964e-05	527.67	173.05	128.73	38.054	1.4108e-05	58.929	182.836	46.282	196.976	-108.800	-67.022	-83.222	-109.513	-105.046	-72.668	53.351	-105.851	-102.681	-101.424	-96.533	-88.200	-98.309	-8191	255	
19478.877	1	1	0	0	0.019871	0.17289	0.073506	0.15041	0.13911	0.20089	0.043045	0.20968	0.22584	0.22763	0.075074	0.015198	0.21607	0.18919	0.21452	0.051213	-3.3	-4.6104	-3.9167	-3.975	-4.4625	-3.6479	-4.5583	-4.5563	-3.5333	-4.5542	-4.1229	-3.8375	-4.625	-3.6875	-3.9958	-4.3854	32.295	177.674	89.383	197.409	-40.205	110.605	202.943	198.955	197.737	-58.609	159.787	-38.026	-72.916	143.274	-66.617	162.797	0.00039322	0.00023001	0.00026057	1382.3	4.6365e-06	1.3281e-05	1556.2	440.43	2e-05	9.5089e-06	589.26	191.03	137.04	39.497	3.3159e-06	61.917	0.0012983	0.001315	0.00036734	1241.5	1.4455e-05	1.4662e-05	1389.6	396.18	1.4737e-05	1.4669e-05	530.5	173.55	129.11	38.07	1.4706e-05	58.315	184.959	-70.018	-76.482	-108.888	-11.481	10.873	-109.501	-104.899	-21.289	48.052	-105.821	-102.377	-101.491	-96.729	1.013	-98.112	-8191	255	
19478.973	1	1	0	0	0.11549	0.12696	0.12986	0.51884	0.17513	0.10772	0.090343	0.25174	0.15567	0.11849	0.094245	0.17737	0.31481	0.15482	0.23953	0.13008	-3.2833	-4.3083	-4.1146	-3.7896	-4.4833	-3.8583	-4.0792	-4.7521	-3.5229	-4.2562	-4.2917	-3.75	-4.5708	-3.6875	-3.9188	-4.5479	114.965	142.320	-9.723	196.824	42.713	37.708	157.025	223.777	-120.842	-75.980	177.449	-86.285	197.789	157.894	-53.752	-76.709	0.00061083	0.00059867	0.00016327	1367.4	6.6768e-06	7.1398e-06	1530.3	432.65	1.183e-07	5.089e-06	577.6	186.9	136.12	38.905	1.0774e-05	61.095	0.0013229	0.001321	0.00036342	1229.2	1.4274e-05	1.4402e-05	1369.8	389.51	1.4482e-05	1.4327e-05	520.92	170.43	127.22	37.369	1.4399e-05	57.33	156.052	208.265	38.081	-108.943	39.619	83.872	-109.392	-104.973	-0.781	-74.187	-105.839	-102.531	-101.385	-96.380	-53.869	-98.913	-8191	255	
19479.066	1	1	0	0	0.22928	0.011756	0.22127	0.23297	0.084915	0.14317	0.10138	0.079884	0.20752	0.1594	0.1581	0.30703	0.084834	0.074008	0.17	0.030976	-3.1083	-4.2896	-4.2854	-3.7542	-4.5458	-3.8187	-3.9667	-4.5479	-3.4938	-4.125	-4.4896	-3.7917	-4.3812	-4.0312	-3.7146	-4.4917	-94.936	154.527	51.164	-106.615	-25.141	151.497	187.477	43.845	51.308	-0.453	228.358	145.636	-65.917	163.391	-55.030	-113.472	0.00033336	0.00089765	0.00026392	1358.1	8.4581e-06	7.9715e-06	1539.3	432.86	8.4564e-06	5.0816e-06	577.54	186.86	136.08	39.315	1.0501e-05	62.187	0.0012586	0.0012622	0.00035315	1216.5	1.3743e-05	1.3819e-05	1363.4	388.91	1.3739e-05	1.3758e-05	520.91	169.73	126.89	37.4	1.3391e-05	57.582	150.155	-55.877	-4.707	-109.727	-8.586	95.731	-109.958	-105.478	-55.796	102.545	-106.552	-103.239	-102.172	-97.138	25.920	-98.803	-8191	255	
19479.162	1	1	0	0	0.099726	0.069448	0.11025	0.2064	0.18601	0.021626	0.24685	0.3388	0.21485	0.29046	0.28375	0.19225	0.10297	0.25323	0.12701	0.14462	-3.2687	-4.1229	-4.2312	-3.7667	-4.5771	-4.0146	-3.9396	-4.5875	-3.6917	-3.8937	-4.4396	-3.675	-4.4833	-4.1354	-3.8167	-4.6208	-35.311	-104.726	230.377	203.402	-73.600	-42.804	209.687	217.395	-72.152	129.229	154.053	-113.014	-59.404	-18.080	-100.183	191.780	0.00063156	0.00080538	0.00024699	1362.9	3.1487e-06	2.3632e-06	1545.6	435.21	7.4627e-06	8.4136e-06	585.99	189.56	137.42	40.101	1.4319e-05	63.083	0.0012063	0.0012028	0.0003309	1216.9	1.2817e-05	1.2651e-05	1362.6	387.58	1.2418e-05	1.2293e-05	518.88	170.19	126.08	37.339	1.2159e-05	57.787	129.455	-52.906	-123.865	-110.097	166.820	129.243	-110.294	-105.986	-36.763	68.025	-106.961	-103.725	-102.342	-97.276	77.836	-98.791	-8191	255	
19479.283	1	1	0	0	0.19689	0.096762	0.067445	0.091206	0.16485	0.13082	0.085098	0.14969	0.1107	0.21068	0.20166	0.12887	0.064523	0.08221	0.16865	0.18992	-3.2896	-4	-4.4521	-3.6437	-4.2937	-4.2021	-3.7125	-4.7396	-3.8021	-3.9125	-4.7271	-3.7646	-4.4646	-4.35	-3.6396	-4.7396	125.093	194.136	-40.403	138.137	-24.397	-58.437	196.519	-89.287	-94.507	197.789	174.767	214.730	125.723	132.459	157.180	95.151	0.00029805	0.0013446	0.00022011	1373.7	9.9035e-06	9.1522e-06	1540.3	437.51	4.8876e-06	7.2327e-06	588.1	191.09	138.39	40.201	1.3344e-05	63.186	0.0010939	0.0010989	0.00030815	1217.7	1.1954e-05	1.1896e-05	1360.9	388.54	1.1605e-05	1.1419e-05	518.78	169.82	125.48	36.902	1.0192e-05	56.77	181.665	-94.762	-40.154	-109.671	-50.505	3.313	-110.499	-105.919	167.805	-97.571	-106.613	-103.436	-102.127	-97.373	-93.331	-98.805	-8191	255	
19479.355	1	1	0	0	0.078502	0.018884	0.095545	0.053695	0.080749	0.19832	0.19368	0.22221	0.19184	0.16269	0.037061	0.15994	0.12997	0.32786	0.24246	0.11505	-3.5583	-3.7625	-4.625	-3.7958	-4.0917	-4.3167	-3.7542	-4.6854	-3.9854	-3.8396	-4.7229	-3.6708	-4.2542	-4.4604	-3.5542	-4.5854	70.386	35.001	222.328	205.469	-73.829	-5.768	122.733	214.522	38.340	134.555	130.986	129.362	183.757	-105.801	155.982	149.532	0.00057156	0.0010888	0.00021897	1384	5.3756e-06	6.5514e-06	1548.2	438.47	1.4707e-05	8.5679e-06	584.84	187.66	136.56	39.227	1.1718e-05	61.827	0.00087554	0.00087104	0.00024894	1214.3	1.082e-05	1.1139e-05	1363.5	390.55	1.3338e-05	1.409e-05	527.26	171.76	128.41	37.828	1.4407e-05	57.925	165.437	-111.480	-65.815	-109.864	-30.841	153.390	-110.340	-106.080	125.742	65.617	-107.122	-103.301	-102.394	-97.356	39.321	-98.984	-8191	255	
19479.451	1	1	0	0	0.052802	0.14087	0.12036	0.32853	0.080822	0.12612	0.14598	0.044808	0.077549	0.173	0.2964	0.036062	0.28054	0.07401	0.1215	0.18437	-3.725	-3.6562	-4.4667	-3.9646	-4.0062	-4.4208	-3.8979	-4.5458	-4.2396	-3.7646	-4.6438	-3.9125	-4.0979	-4.7229	-3.5604	-4.4833	60.531	-45.280	229.242	184.188	-32.254	6.310	109.014	-107.481	7.481	-95.504	185.481	-46.807	227.526	-102.464	-73.954	185.863	0.00056215	0.00048856	0.00051208	1360.9	6.0029e-06	3.8499e-06	1521.5	429.35	7.1584e-06	1.4568e-05	577.68	185.68	134.34	38.636	1.889e-06	60.682	0.0012819	0.0013039	0.00036447	1223	1.4209e-05	1.4257e-05	1359	387.91	1.4172e-05	1.4218e-05	519.56	169.28	126.68	37.323	1.4458e-05	57.42	173.608	163.922	-99.681	-109.710	-84.574	159.879	-110.297	-106.080	33.818	50.357	-107.005	-103.402	-102.424	-97.189	223.513	-98.991	-8191	255	
19479.549	1	1	0	0	0.27575	0.3254	0.097938	0.038273	0.17211	0.0039028	0.22063	0.19059	0.18557	0.13619	0.23545	0.18942	0.12378	0.14669	0.14851	0.0474	-3.9021	-3.6375	-4.5896	-4.1646	-3.7833	-4.6458	-3.9271	-4.2583	-4.1833	-3.6583	-4.7833	-4.0042	-3.925	-4.5833	-3.6292	-4.4333	222.769	122.994	-42.930	234.215	229.271	80.486	145.347	151.625	135.038	127.160	193.765	167.674	85.525	200.122	2.099	224.202	0.00012806	0.00071354	0.00029972	1358.9	6.7585e-06	1.0538e-05	1521.2	431.38	3.1404e-06	1.4411e-05	577.84	184.93	135.34	39.101	7.7987e-06	61.43	0.0013151	0.0013432	0.00037562	1226.2	1.4997e-05	1.5206e-05	1369.9	391.66	1.5302e-05	1.5498e-05	525.7	171.04	128.72	38.047	1.5215e-05	58.199	214.191	52.840	90.283	-109.753	-2.189	-42.947	-110.172	-105.870	-41.278	-62.550	-106.784	-103.392	-102.520	-97.293	208.597	-98.877	-8191	255	
19479.645	1	1	0	0	0.016796	0.051037	0.21725	0.34846	0.058287	0.16417	0.43172	0.1848	0.080046	0.10207	0.12075	0.080587	0.12495	0.20574	0.1309	0.085299	-4	-3.5958	-4.6375	-4.2146	-3.8542	-4.6583	-3.8917	-4.3438	-4.5271	-3.7854	-4.6792	-4.1667	-3.6708	-4.5333	-3.8021	-4.1312	26.177	-8.487	-76.157	-115.960	-72.288	75.926	221.854	230.098	228.471	179.567	-88.244	-123.341	178.676	158.075	91.019	220.460	0.00058472	0.0013474	0.00022238	1371	5.831e-06	9.531e-06	1542	434.59	8.0352e-06	8.7519e-06	587.2	189.33	138.3	39.794	1.2964e-05	62.63	0.0013591	0.0013812	0.00038146	1235	1.4779e-05	1.4819e-05	1378.7	394.16	1.4583e-05	1.4553e-05	530.12	173.18	129.67	38.384	1.4586e-05	58.929	178.466	-24.425	48.487	-109.860	108.113	-17.974	-110.310	-106.144	-10.171	43.431	-107.169	-103.071	-102.350	-97.338	113.151	-98.921	-8191	255	
19479.766	1	1	0	0	0.11281	0.12659	0.082033	0.34975	0.16056	0.083653	0.070543	0.17805	0.15158	0.28851	0.14489	0.14744	0.23783	0.17201	0.039964	0.14197	-4.3125	-3.6042	-4.4979	-4.2542	-3.6458	-4.4896	-4.1	-4.0167	-4.4146	-3.45	-4.5437	-4.4646	-3.6854	-4.6	-3.7771	-3.9062	63.486	76.654	1.382	169.111	-17.007	128.656	147.138	-44.686	180.374	-47.627	148.066	66.985	143.611	138.306	-101.087	197.015	0.00045023	0.0015308	0.00015711	1375.7	4.3376e-06	4.0721e-06	1546.9	440.1	9.231e-06	1.7828e-05	590.26	190.83	138.31	39.886	6.9578e-06	61.973	0.0013098	0.0013367	0.00037203	1240.5	1.4517e-05	1.4635e-05	1385.7	396.9	1.4589e-05	1.4704e-05	533.47	174.05	129.95	38.317	1.4717e-05	58.51	158.703	-17.220	214.955	-109.668	-109.029	77.862	-110.077	-105.792	78.012	26.250	-107.029	-103.493	-102.439	-97.249	76.299	-99.038	-8191	255	
19479.861	1	1	0	0	0.1942	0.23022	0.13361	0.27473	0.20682	0.049175	0.27433	0.25095	0.14393	0.15823	0.18222	0.27296	0.032167	0.20032	0.23009	0.10885	-4.2146	-3.7667	-4.1896	-4.4833	-3.6021	-4.5521	-4.0833	-3.9062	-4.5167	-3.5938	-4.3979	-4.4	-3.6813	-4.45	-4.0167	-3.7625	180.387	155.265	26.261	222.267	147.026	156.937	139.024	190.519	215.191	161.141	208.593	173.869	175.189	178.305	140.700	-109.235	0.0005155	0.00090557	0.00020661	1370.9	7.3788e-06	1.364e-05	1535.7	434.38	1.8404e-06	8.3698e-06	577.8	184.63	134.18	38.772	7.2979e-06	60.469	0.0013318	0.0013554	0.00037824	1237.3	1.4945e-05	1.501e-05	1375.5	392.65	1.4891e-05	1.5032e-05	524	170.24	127.65	37.694	1.4975e-05	57.465	163.915	24.880	-73.106	-109.955	155.241	-105.841	-110.524	-106.248	102.487	78.714	-107.401	-103.513	-102.350	-97.768	73.885	-99.655	-8191	255	
19479.957	1	1	0	0	0.22189	0.10052	0.15268	0.20347	0.37812	0.085512	0.054961	0.17087	0.12063	0.096684	0.14001	0.21395	0.067641	0.10725	0.19481	0.058061	-4.0354	-3.7562	-4.0208	-4.5479	-3.5375	-4.5271	-4.4625	-3.7625	-4.6625	-3.7333	-4.0479	-4.4854	-3.7333	-4.5479	-4.1292	-3.8063	58.467	-55.317	-98.450	214.576	129.547	204.557	193.936	205.637	137.803	-98.499	-85.317	-113.517	-13.563	100.993	70.842	19.712	0.00092523	0.0018267	0.00045343	1367.5	4.3111e-06	3.4983e-06	1524.6	434.76	7.2805e-06	1.3307e-05	574.58	186.07	135.49	39.354	1.7915e-05	61.18	0.0013364	0.0013703	0.00037948	1232.4	1.4891e-05	1.4936e-05	1366.6	392.31	1.4875e-05	1.4934e-05	523.57	170.63	128.13	37.905	1.477e-05	57.908	177.390	78.657	-42.453	-109.894	-40.649	15.297	-110.481	-106.251	150.115	-16.622	-107.062	-103.354	-102.366	-97.642	60.426	-99.391	-8191	255	
19480.053	1	1	0	0	0.10695	0.26679	0.1872	0.19546	0.13524	0.055902	0.18696	0.24215	0.18112	0.22614	0.14252	0.10316	0.12758	0.18996	0.28515	0.19786	-4.2083	-3.9062	-3.8333	-4.5333	-3.5563	-4.3521	-4.3187	-3.7625	-4.5854	-3.7292	-3.8521	-4.6667	-3.6896	-4.3063	-4.25	-3.6958	4.447	169.042	29.795	-101.272	-84.884	153.062	141.233	179.444	-84.227	163.890	154.962	-31.717	152.030	-79.437	224.014	149.598	0.0004753	0.00056877	0.00014988	1374.3	1.0094e-05	7.2851e-06	1534.7	436.32	9.5773e-06	1.7416e-05	580.76	188.61	137.18	39.963	1.1705e-05	62.84	0.0013243	0.0013469	0.00037393	1233.7	1.4726e-05	1.4727e-05	1376.2	394.34	1.4682e-05	1.4883e-05	528.24	172.66	129.72	38.594	1.492e-05	58.971	177.981	176.868	-59.281	-109.914	48.180	4.389	-110.581	-105.953	40.645	176.100	-107.159	-103.615	-102.539	-97.296	-60.512	-98.970	-8191	255	
19480.148	1	1	0	0	0.23533	0.12966	0.096855	0.097522	0.16546	0.12165	0.067974	0.17608	0.079858	0.10232	0.10172	0.12098	0.24921	0.24195	0.13376	0.062415	-4.2667	-4.0833	-3.7313	-4.7479	-3.65	-4.1625	-4.6833	-3.7229	-4.5062	-4.0813	-4.0292	-4.7042	-3.7604	-4.0792	-4.3187	-3.7896	-86.543	71.746	174.179	-122.171	133.612	12.613	93.477	217.426	32.905	169.047	216.578	228.583	161.552	186.196	-29.180	100.287	0.00061395	0.0014162	8.5162e-05	1376.6	4.6255e-06	2.3504e-06	1547.4	437.95	8.8165e-06	2.9839e-06	586.34	189.84	138.3	40.213	1.6788e-05	63.09	0.0013638	0.0013883	0.00039072	1243.9	1.55e-05	1.5542e-05	1391.1	398.29	1.5634e-05	1.5728e-05	534.63	175.05	131.79	39.121	1.5613e-05	60.057	152.975	-81.792	228.403	-109.834	39.703	-72.221	-110.482	-106.020	31.429	61.638	-107.019	-103.506	-102.638	-97.593	-40.822	-98.981	-8191	255	
19480.246	1	1	0	0	0.11673	0.099893	0.18914	0.26523	0.27796	0.17922	0.15682	0.14029	0.17095	0.054993	0.13549	0.17218	0.073575	0.28258	0.082375	0.31154	-4.1854	-4.1271	-3.5854	-4.6979	-3.7854	-3.8042	-4.5583	-3.6208	-4.3375	-4.1479	-3.6396	-4.6458	-3.9167	-4.0437	-4.3646	-3.7938	-30.286	216.307	-110.264	166.833	13.263	227.542	-84.774	123.050	-80.538	202.769	152.199	190.840	-14.690	178.909	-69.118	195.092	0.00040424	0.0015395	0.00011889	1391.1	6.8699e-06	1.5889e-05	1552.3	440.9	1.0019e-05	9.0855e-06	588.86	190.3	137.77	40.288	3.2756e-06	62.317	0.0014038	0.0014134	0.00039242	1251.4	1.5208e-05	1.5075e-05	1391.4	398.37	1.4848e-05	1.4846e-05	531.02	173.98	130.05	38.538	1.423e-05	58.516	187.847	-61.899	221.807	-109.699	-65.672	-12.992	-110.134	-106.269	192.562	59.853	-107.035	-103.516	-102.292	-97.540	230.627	-99.055	-8191	255	
19480.363	1	1	0	0	0.02078	0.10065	0.10145	0.12304	0.077187	0.20344	0.20791	0.24951	0.25445	0.22415	0.18609	0.075897	0.35473	0.18154	0.030533	0.30665	-4.2562	-4.4812	-3.6708	-4.7208	-3.8542	-3.8146	-4.7229	-3.775	-4.1625	-4.2417	-3.6229	-4.6042	-4.0062	-3.975	-4.5083	-3.8292	123.728	-25.993	85.107	217.436	5.622	150.772	171.101	100.900	130.385	235.018	151.515	213.558	194.650	-108.293	-0.678	52.651	0.0005276	0.0020418	0.00048299	1367.3	8.605e-06	2.7046e-06	1535.4	433.26	7.5885e-06	1.1202e-05	579.81	188.43	137.65	39.836	9.596e-06	62.266	0.0012695	0.0012847	0.00035594	1225.5	1.3936e-05	1.394e-05	1368.7	391.62	1.3919e-05	1.4002e-05	522.18	171.67	128.88	38.067	1.4023e-05	58.139	150.609	-78.516	-72.297	-109.697	-57.144	8.034	-110.661	-106.454	102.647	-46.090	-107.452	-103.834	-102.512	-97.954	-1.489	-99.366	-8191	255	
19480.461	1	1	0	0	0.17541	0.19101	0.15745	0.13668	0.091726	0.075365	0.23747	0.34759	0.31902	0.065321	0.15279	0.18932	0.15553	0.056746	0.046616	0.20483	-3.9146	-4.4333	-3.5521	-4.6792	-4.0792	-3.7417	-4.9479	-4	-3.9875	-4.4812	-3.6646	-4.5938	-4.2	-3.7771	-4.5646	-3.9896	-103.037	78.069	89.072	133.316	40.003	-92.022	221.245	174.124	-8.359	212.437	-122.459	203.960	200.293	221.505	180.973	135.566	0.00048683	0.0004971	0.0003479	1370.3	1.5586e-05	3.9253e-06	1538.6	437	1.0252e-05	5.8309e-06	585.52	191.62	139.49	40.131	1.2435e-05	63.239	0.0012608	0.0012806	0.00036008	1229.3	1.4082e-05	1.3977e-05	1370.9	393.89	1.3961e-05	1.4097e-05	526.83	173.46	130.21	38.38	1.3838e-05	58.908	154.130	175.510	59.279	-109.848	-71.057	-62.515	-110.329	-106.037	-71.760	89.263	-106.881	-103.394	-102.205	-97.663	93.619	-98.981	-8191	255	
19480.557	1	1	0	0	0.074453	0.1048	0.21465	0.25423	0.021501	0.083672	0.12153	0.20009	0.11674	0.11194	0.19646	0.32755	0.16571	0.26344	0.33169	0.19144	-3.6646	-4.5437	-3.6	-4.5021	-4.3042	-3.675	-4.7438	-3.8937	-4.0646	-4.6958	-3.85	-4.4104	-4.4417	-3.7917	-4.6021	-4.0042	142.741	14.465	211.035	167.786	112.050	47.512	189.026	225.302	195.825	-57.780	211.436	186.194	-107.829	189.059	-117.206	134.911	0.00059385	0.0018648	0.00033822	1377.3	4.0886e-06	6.6097e-06	1546	441.33	1.6872e-05	9.4221e-06	594.59	194.14	141.04	41.318	2.5464e-06	64.242	0.0012379	0.0012536	0.00035047	1232.2	1.3616e-05	1.3558e-05	1378.1	395.91	1.3463e-05	1.3557e-05	531.13	175.2	131.1	38.887	1.3524e-05	59.709	162.396	-32.023	-97.904	-109.813	54.397	-97.884	-110.097	-106.021	-7.212	210.254	-106.761	-103.563	-102.521	-97.735	225.541	-99.718	-8191	255	
19480.652	1	1	0	0	0.23785	0.26654	0.13212	0.19351	0.36634	0.15918	0.17275	0.1578	0.31782	0.15416	0.18138	0.099087	0.11653	0.15165	0.14574	0.056364	-3.65	-4.6479	-3.6979	-4.4208	-4.3417	-3.5896	-4.7708	-4.1896	-3.8875	-4.7333	-3.8625	-4.2	-4.5	-3.7438	-4.4458	-4.3771	104.194	178.484	-86.002	214.581	77.282	110.459	145.749	120.238	76.313	-61.350	155.069	-2.904	15.193	217.910	-29.543	-72.448	0.00038558	0.00047768	0.00017152	1395.5	1.834e-06	3.6817e-06	1556.1	443.89	9.4186e-06	1.2992e-05	591.89	195.32	141.84	41.059	1.7747e-06	64.023	0.0012305	0.0012568	0.00035253	1244.5	1.3705e-05	1.3832e-05	1388.1	398.77	1.3853e-05	1.3889e-05	534.57	176.3	132.12	39.071	1.3924e-05	59.715	150.695	122.558	-112.570	-109.645	213.486	168.794	-110.401	-105.912	-1.531	-7.960	-106.752	-103.472	-102.491	-97.668	-72.517	-99.273	-8191	255	
19480.748	1	1	0	0	0.03205	0.014452	0.16191	0.13143	0.20101	0.37411	0.54638	0.16442	0.038266	0.10475	0.085737	0.14515	0.33215	0.080126	0.085876	0.28487	-3.4667	-4.5729	-3.7625	-4.1208	-4.3292	-3.6521	-4.6021	-4.4354	-3.6104	-4.6021	-4.0604	-4.1708	-4.7271	-3.7146	-4.4583	-4.4125	7.898	114.551	71.174	166.659	69.648	104.696	156.077	190.581	166.646	26.806	138.592	223.784	205.497	83.093	-47.775	-105.170	0.0005742	0.00032907	0.00031948	1385.7	9.1258e-06	9.052e-06	1545.7	436.61	5.9255e-06	4.27e-06	586.49	189.7	139.19	40.116	2.2597e-06	62.411	0.0012507	0.0012681	0.00035544	1238.6	1.377e-05	1.3675e-05	1377.1	394.51	1.3556e-05	1.3664e-05	526.13	172.5	129.42	38.212	1.3399e-05	58.224	164.923	-46.153	-91.914	-109.657	-2.781	93.124	-110.271	-105.589	5.927	-94.989	-107.306	-104.082	-102.899	-98.036	155.100	-99.378	-8191	255	
19480.846	1	1	0	0	0.049644	0.15009	0.23317	0.11388	0.09409	0.21256	0.29019	0.24845	0.21553	0.20184	0.20779	0.17856	0.21563	0.11449	0.21529	0.20128	-3.5563	-4.625	-3.7417	-4.0729	-4.5896	-3.7104	-4.5229	-4.475	-3.5292	-4.6687	-4.0521	-3.8875	-4.6521	-3.5708	-4.1583	-4.4958	60.726	90.018	33.433	211.632	118.471	-23.380	179.708	163.654	49.058	44.301	-47.247	187.397	-106.122	186.357	-39.360	132.756	0.00059283	0.00090812	0.00058308	1371.1	9.4164e-06	1.5037e-05	1533.4	436.76	1.2627e-05	2.0036e-06	586.32	191.64	140.34	40.685	6.8828e-06	63.839	0.0012023	0.0012121	0.00034015	1223.8	1.324e-05	1.3478e-05	1364.3	392.05	1.3348e-05	1.3442e-05	524.91	172.93	129.85	38.478	1.3409e-05	58.987	160.559	-36.532	-48.944	-109.774	-35.344	41.859	-110.187	-106.048	44.540	-15.802	-106.684	-103.454	-101.967	-97.788	-44.875	-98.649	-8191	255	
19480.967	1	1	0	0	0.20203	0.15935	0.18909	0.30095	0.070108	0.078593	0.24606	0.29365	0.10926	0.11242	0.086765	0.11648	0.088215	0.035819	0.26699	0.17606	-3.3104	-4.4583	-4.1458	-3.9125	-4.6167	-3.6667	-4.3646	-4.5542	-3.5271	-4.5354	-4.2021	-4.0333	-4.7417	-3.9896	-4.0354	-4.6479	235.693	24.805	-11.439	205.784	102.846	70.330	205.878	222.884	229.752	148.367	-6.096	-95.732	138.558	81.959	-39.198	130.298	0.00070466	0.00059464	0.00054576	1382.9	3.3631e-06	1.7871e-06	1540.2	441.54	9.3863e-06	7.5848e-06	589.6	194.39	141.72	41.394	5.8279e-06	64.59	0.0012099	0.001218	0.00034095	1232.1	1.3323e-05	1.3415e-05	1375.9	395.64	1.3295e-05	1.3511e-05	528.89	175.32	131.53	38.943	1.3365e-05	59.87	169.696	-84.640	-58.619	-109.595	129.339	94.009	-110.326	-105.676	27.448	-87.792	-106.757	-103.268	-102.181	-97.511	-31.818	-98.934	-8191	255	
19481.061	1	1	0	0	0.016101	0.24252	0.046444	0.16687	0.16161	0.2007	0.13539	0.11061	0.092942	0.075603	0.15856	0.05737	0.1934	0.12611	0.083807	0.24108	-3.0875	-4.4938	-4.2229	-3.9417	-4.5167	-3.8667	-4.2479	-4.6687	-3.525	-4.5062	-4.4187	-3.7542	-4.6583	-4.2021	-4.0021	-4.8146	-103.598	64.018	78.861	-113.230	15.317	-116.256	189.783	166.722	59.152	229.203	206.517	-72.313	161.120	-81.095	203.864	147.694	0.00045548	0.0011009	0.00025313	1388.3	6.5822e-06	9.0965e-06	1559.6	446.58	2.4128e-06	2.5017e-05	598.56	196.56	142.22	41.702	1.503e-05	65.655	0.0012077	0.0012309	0.00034345	1239.1	1.3506e-05	1.3644e-05	1388.5	399.55	1.3579e-05	1.3493e-05	535.72	177.46	132.26	39.405	1.3463e-05	60.86	150.904	63.217	-7.962	-109.666	74.858	1.359	-110.110	-105.875	1.813	-14.153	-106.576	-103.354	-102.007	-97.078	-33.231	-98.737	-8191	255	
19481.156	1	1	0	0	0.13514	0.1479	0.24583	0.28608	0.1742	0.12276	0.31542	0.26587	0.24611	0.28374	0.19443	0.17912	0.13501	0.11575	0.065369	0.14478	-3.4292	-4.3396	-4.2229	-3.8	-4.4792	-3.9396	-4.1271	-4.6562	-3.7646	-4.3562	-4.7458	-3.825	-4.6	-4.1292	-3.9396	-4.8625	90.904	-4.486	26.391	218.304	174.945	-22.227	-71.518	-95.313	154.323	129.784	230.342	84.788	118.153	229.908	180.323	130.701	0.00044297	0.0010967	0.00053089	1404.4	4.9817e-06	6.5383e-06	1570.3	448.83	3.3708e-06	1.6408e-05	599.6	195.68	142.82	41.476	8.2902e-06	64.622	0.0012208	0.0012262	0.00034435	1247	1.3488e-05	1.3519e-05	1392.8	400.84	1.3262e-05	1.323e-05	535.12	176.75	131.87	38.941	1.3123e-05	59.528	176.487	149.666	-16.474	-109.507	180.116	81.013	-109.936	-105.689	-92.583	15.366	-106.505	-103.277	-102.169	-97.013	-4.948	-98.780	-8191	255	
19481.229	1	1	0	0	0.23007	0.14982	0.1529	0.26551	0.15754	0.2771	0.073501	0.096565	0.052469	0.030281	0.15143	0.14777	0.20664	0.18096	0.039846	0.048483	-3.5792	-4.1521	-4.4292	-3.7625	-4.5292	-4.0667	-3.9146	-4.725	-3.8646	-4.0604	-4.7083	-3.85	-4.5375	-4.2979	-3.6854	-4.6937	234.828	-26.323	-8.835	191.825	8.848	134.540	89.909	196.559	-10.055	-119.012	210.973	201.097	213.911	186.915	-97.160	208.241	0.0004671	0.00032505	0.00018168	1386.1	9.9808e-06	5.4924e-06	1543	441.77	6.223e-06	7.1621e-06	585.79	190.87	139.9	40.286	1.2241e-05	63.175	0.0011901	0.0012055	0.00033708	1235	1.3247e-05	1.336e-05	1373.7	395.32	1.3346e-05	1.3343e-05	525.61	172.57	129.56	38.188	1.325e-05	58.322	160.110	-88.756	181.931	-109.605	-103.914	148.296	-110.450	-105.895	67.193	-83.981	-106.628	-103.299	-102.310	-97.359	8.811	-98.658	-8191	255	
19481.350	1	1	0	0	0.26909	0.20313	0.15339	0.23887	0.22711	0.10335	0.10137	0.3177	0.2081	0.057349	0.17365	0.03767	0.14151	0.082272	0.25536	0.2557	-3.5354	-4.0521	-4.65	-3.7687	-4.4125	-4.3792	-3.9729	-4.8438	-3.9688	-3.9458	-4.7604	-3.8667	-4.4771	-4.45	-3.65	-4.6479	-73.875	209.911	69.223	234.725	171.335	-36.920	177.873	171.232	149.597	-23.306	-80.031	-108.846	-98.413	72.474	84.028	183.331	0.00065894	0.0012363	0.00012026	1376	4.9337e-06	7.546e-06	1535.3	438.19	3.2302e-06	8.7641e-06	590.44	192.43	140.21	40.839	1.6046e-05	63.219	0.0011997	0.0012139	0.00034101	1227.2	1.3287e-05	1.3294e-05	1368	392.55	1.3287e-05	1.3358e-05	526.11	173.13	129.64	38.444	1.3201e-05	58.865	163.480	156.411	-11.168	-109.559	-75.192	12.876	-109.984	-105.363	190.257	45.485	-106.416	-103.107	-101.688	-96.755	7.030	-98.728	-8191	255	
19481.445	1	1	0	0	0.19823	0.12973	0.14167	0.41525	0.10069	0.20004	0.21533	0.25766	0.2105	0.16435	0.26455	0.20132	0.16067	0.10099	0.22206	0.18611	-3.7458	-3.7958	-4.5813	-3.925	-4.3583	-4.4479	-3.9625	-4.7792	-4.0563	-3.8104	-4.8167	-3.7812	-4.3562	-4.5062	-3.5083	-4.6042	132.641	126.777	-117.298	215.219	31.858	-4.461	102.226	189.114	161.316	115.642	179.215	182.484	196.921	155.617	26.620	133.665	0.00049443	0.0014453	0.00025322	1379.5	1.4513e-05	1.0468e-05	1552.1	441.56	1.1435e-05	1.4297e-05	592.81	193.93	140.5	40.97	2.8068e-06	64.721	0.0011962	0.0012142	0.0003384	1230	1.3361e-05	1.334e-05	1375.5	395.82	1.3397e-05	1.339e-05	530.13	174.8	130.63	38.775	1.3542e-05	59.609	180.643	-69.410	-77.887	-109.080	-12.825	179.172	-109.615	-105.314	177.378	-48.563	-106.007	-102.639	-101.301	-96.235	67.943	-98.266	-8191	255	
19481.541	1	1	0	0	0.11336	0.10966	0.10168	0.1277	0.039908	0.20769	0.19404	0.12794	0.098423	0.11224	0.16465	0.2058	0.1656	0.097034	0.26868	0.29147	-3.85	-3.6979	-4.6896	-4.0875	-4.075	-4.625	-3.8083	-4.625	-4.2208	-3.7687	-4.7458	-4.0229	-4.1875	-4.7146	-3.7042	-4.4729	160.290	-73.740	-117.617	183.996	-97.372	-96.178	181.784	163.700	214.808	40.329	-121.616	235.632	73.277	-75.235	229.431	179.303	0.00073562	0.00040726	0.00049029	1386.6	2.8882e-06	1.9447e-06	1560.4	442.85	6.0468e-06	3.2658e-06	595.32	196.68	142.8	41.418	7.7178e-06	65.069	0.00123	0.001243	0.00034758	1236.9	1.3636e-05	1.3644e-05	1384.1	397.17	1.3691e-05	1.364e-05	533.63	176.91	131.8	39.221	1.3442e-05	60.142	188.779	130.356	-53.486	-108.736	-31.144	108.777	-109.534	-104.919	-64.929	-121.304	-105.737	-102.169	-101.379	-96.087	-63.279	-97.914	-8191	255	
19481.637	1	1	0	0	0.12308	0.095659	0.16843	0.17776	0.20673	0.20034	0.2181	0.41229	0.15329	0.14649	0.11415	0.031496	0.18387	0.21642	0.17795	0.097852	-3.9417	-3.7292	-4.7271	-4.1146	-3.9021	-4.7604	-3.8208	-4.425	-4.4542	-3.8104	-4.8979	-4.0979	-4.0396	-4.65	-3.8042	-4.2104	36.011	101.858	66.183	134.468	-89.719	183.763	138.901	231.657	220.557	2.851	41.600	103.733	180.301	213.723	93.542	-120.507	0.00044637	0.001572	0.00013156	1388.2	6.9389e-06	5.3624e-06	1558.8	444.02	8.7837e-06	4.164e-06	593.74	193.86	141.63	40.971	1.7275e-05	63.666	0.0012162	0.0012181	0.0003389	1237.3	1.3147e-05	1.3135e-05	1381.2	396.97	1.2988e-05	1.3083e-05	528.9	174.04	130.22	38.54	1.317e-05	58.623	177.117	-74.280	-109.123	-108.737	-17.904	-4.064	-109.302	-104.915	54.290	137.702	-106.054	-102.456	-101.075	-96.574	-46.542	-98.039	-8191	255	
19481.758	1	1	0	0	0.073516	0.06898	0.17403	0.11304	0.17484	0.11386	0.13643	0.18254	0.047351	0.11194	0.21441	0.29892	0.26155	0.28228	0.058448	0.092237	-4.1458	-3.8604	-4.5104	-4.1687	-3.8271	-4.6521	-3.9333	-4.2604	-4.4792	-3.7083	-4.6604	-4.2854	-3.8646	-4.8438	-3.8333	-4.2333	-51.449	110.972	-89.870	229.205	-43.111	142.571	-111.149	-107.284	-46.389	40.567	140.318	-118.407	-32.544	222.566	-26.319	236.316	0.00054079	0.00089993	0.00036439	1378.9	1.5216e-05	3.5603e-06	1541.2	440.24	8.9316e-06	1.0961e-05	591.36	193.24	140.18	40.888	1.091e-05	63.349	0.0011823	0.0011903	0.00033192	1225.7	1.2934e-05	1.3039e-05	1369	393.03	1.3013e-05	1.3101e-05	526.77	173.41	129.3	38.434	1.3312e-05	58.73	136.676	-34.143	3.010	-108.658	-40.182	79.787	-109.315	-105.230	0.314	-19.634	-105.686	-102.210	-101.014	-96.141	-105.665	-97.696	-8191	255	
19481.828	1	1	0	0	0.19093	0.083435	0.06465	0.20249	0.029314	0.15912	0.18955	0.0077495	0.043273	0.15743	0.084856	0.21814	0.07854	0.14724	0.13117	0.23053	-4.2354	-3.7125	-4.2604	-4.5896	-3.7833	-4.6083	-3.9688	-4.1958	-4.5958	-3.6312	-4.5104	-4.5042	-3.8833	-4.7479	-4.0625	-4.2146	-38.131	71.628	155.949	219.401	-35.499	91.899	189.910	179.832	154.718	78.956	212.151	201.463	201.603	11.159	170.545	-60.323	0.00047852	0.00053993	0.00027374	1380.6	3.5716e-06	1.2712e-05	1551.4	442.95	9.8076e-06	5.2605e-06	591.62	193.39	141.24	41.072	2.2867e-06	64.382	0.0011943	0.00121	0.00034128	1231.2	1.3299e-05	1.3333e-05	1376.9	395.32	1.3353e-05	1.3497e-05	530.36	175.17	130.79	38.919	1.3359e-05	59.583	173.949	-53.426	-71.162	-108.073	-53.189	-31.972	-108.981	-104.958	-9.964	14.596	-106.493	-102.848	-101.996	-97.055	18.592	-98.423	-8191	255	
19481.926	1	1	0	0	0.099715	0.093986	0.15136	0.19665	0.15817	0.22903	0.26919	0.22628	0.22149	0.15472	0.30332	0.25668	0.3037	0.1733	0.073222	0.10612	-4.2708	-3.6312	-4.3438	-4.4917	-3.6167	-4.6125	-4.2104	-3.8604	-4.4708	-3.9208	-4.4396	-4.7208	-3.7896	-4.5917	-4.2042	-3.8812	122.851	63.718	212.757	159.614	130.882	21.795	212.785	184.033	-85.757	145.730	144.646	153.798	223.809	209.467	109.514	187.650	0.00049277	0.00083233	0.00062568	1392.6	1.6084e-05	2.6774e-06	1555.9	446.72	1.4588e-06	4.7096e-06	597.2	195.91	143.02	41.785	1.104e-05	65.982	0.0011959	0.0012154	0.00033706	1237.9	1.3204e-05	1.3326e-05	1384.3	399.3	1.3168e-05	1.3307e-05	534.76	176.85	132.18	39.412	1.3475e-05	60.771	152.890	-40.660	15.451	-109.245	-42.962	-114.252	-109.993	-105.584	92.996	38.437	-106.482	-102.839	-101.455	-96.982	29.086	-98.323	-8191	255	
19482.047	1	1	0	0	0.16236	0.060816	0.17991	0.31236	0.087852	0.17353	0.13061	0.14772	0.15502	0.15191	0.19555	0.21913	0.055397	0.2631	0.13915	0.069782	-4.3896	-3.8854	-4.0875	-4.4417	-3.5875	-4.5687	-4.375	-3.8042	-4.6271	-3.7354	-4.2729	-4.6271	-3.7208	-4.4521	-4.3562	-3.7604	115.043	55.158	157.785	177.138	-45.046	223.611	177.479	141.596	231.781	-110.605	204.676	157.042	-11.557	129.683	-63.178	148.396	0.00028059	0.00056232	0.00045714	1396.3	6.8553e-06	1.3075e-05	1565.2	448.07	4.9179e-06	1.0449e-05	604.85	196.52	143.19	41.648	7.321e-06	64.946	0.0012148	0.0012321	0.00034435	1245.8	1.3494e-05	1.3455e-05	1395.2	401.39	1.347e-05	1.3564e-05	539.12	177.46	132.35	39.306	1.3574e-05	59.862	117.056	146.852	-86.767	-109.073	-99.660	68.338	-109.579	-105.282	212.072	-20.065	-106.101	-102.728	-101.089	-96.278	142.377	-98.113	-8191	255	
19482.141	1	1	0	0	0.044104	0.086344	0.095482	0.19353	0.21379	0.043237	0.095567	0.23186	0.086238	0.22299	0.18886	0.27671	0.15882	0.09404	0.25211	0.1414	-4.3917	-3.9021	-4.0229	-4.6396	-3.6583	-4.3063	-4.525	-3.8854	-4.5542	-4.0292	-4.0083	-4.5979	-3.9146	-4.2125	-4.4812	-3.7146	194.519	146.711	156.621	231.808	51.322	183.681	185.213	194.144	112.187	180.560	83.593	228.523	-9.795	-53.335	38.194	200.556	0.00035995	0.00054697	0.00055487	1386.8	1.5087e-06	8.1005e-06	1541.8	441.91	1.1352e-05	1.618e-05	587.68	191.94	139.69	40.399	7.7981e-06	63.483	0.0012135	0.0012296	0.00034363	1236.3	1.3377e-05	1.3433e-05	1373.1	394.78	1.3149e-05	1.3261e-05	525.67	173.1	129.44	38.324	1.3203e-05	58.55	165.537	-64.839	-91.808	-108.683	-35.912	228.196	-109.099	-104.800	62.957	46.582	-105.780	-102.284	-100.981	-96.300	-59.895	-97.702	-8191	255	
19482.236	1	1	0	0	0.12365	0.064826	0.22364	0.366	0.12565	0.072247	0.31424	0.38294	0.19965	0.039504	0.15181	0.10221	0.17955	0.090132	0.19801	0.29522	-4.2833	-3.95	-3.7854	-4.7208	-3.7062	-4.2771	-4.9229	-3.7125	-4.5021	-4.2729	-3.9813	-4.9667	-3.9458	-4.2354	-4.6354	-3.6	186.623	152.537	7.063	212.194	48.690	134.544	92.818	213.352	-58.859	214.834	-100.215	153.486	218.283	177.835	121.883	197.768	0.0004408	0.0011331	0.00040399	1371.5	9.1386e-06	1.1775e-05	1540.6	440.97	3.8609e-06	8.0491e-06	589.07	193.61	140.33	41.249	6.7725e-06	64.042	0.0011805	0.0012003	0.00033231	1223	1.3057e-05	1.3149e-05	1365.7	393.47	1.3071e-05	1.3112e-05	525.29	173.75	130.18	38.599	1.3011e-05	59.084	208.124	-55.466	8.709	-109.182	221.022	31.404	-109.881	-105.719	-73.313	219.853	-106.367	-103.089	-101.841	-96.762	22.179	-98.334	-8191	255	
19482.357	1	1	0	0	0.19333	0.077558	0.30926	0.25189	0.045839	0.21863	0.23894	0.18985	0.14559	0.06256	0.048608	0.24749	0.096865	0.31866	0.28181	0.10689	-4.1042	-4.2583	-3.5292	-4.8812	-3.725	-3.9125	-4.6417	-3.9562	-4.3729	-4.2042	-3.7313	-4.7875	-4.1479	-3.9375	-4.6042	-3.9729	-71.093	221.339	-79.171	205.832	149.084	117.489	184.602	161.358	-15.393	-55.032	47.056	168.484	139.764	117.603	3.094	218.594	0.00048782	0.00041781	0.00045082	1375.9	4.8234e-06	8.6055e-06	1553.1	442.6	9.8195e-06	2.0477e-06	595.86	196.24	142.78	41.446	1.6956e-05	65.321	0.001185	0.0012036	0.00033546	1227.4	1.3184e-05	1.3109e-05	1375.5	395.47	1.2989e-05	1.3053e-05	531.13	175.86	131.64	38.979	1.2918e-05	60.069	141.731	-50.036	-50.356	-109.322	69.552	-30.157	-109.314	-105.395	-49.987	90.580	-106.135	-102.214	-101.334	-96.351	150.074	-98.070	-8191	255	
19482.453	1	1	0	0	0.051282	0.24147	0.065973	0.27091	0.045187	0.25469	0.30803	0.27548	0.086586	0.2538	0.28931	0.10706	0.17245	0.094708	0.23348	0.10202	-3.8312	-4.2562	-3.6667	-4.7729	-4	-3.9479	-4.8958	-3.9333	-4.3187	-4.4646	-3.8792	-4.6604	-4.0167	-3.8812	-4.6375	-3.8125	110.596	64.060	211.823	192.666	-102.959	25.596	207.109	157.234	-70.213	-86.008	231.513	108.296	120.957	-101.242	87.142	124.676	0.0003779	0.001038	0.00021328	1394.8	1.6978e-05	6.0072e-06	1558.7	446.61	4.1249e-06	9.5882e-06	601.86	199.43	143.61	42.229	1.6645e-05	66.201	0.0011733	0.0011907	0.00033317	1236.7	1.3031e-05	1.3097e-05	1384.9	398.57	1.2907e-05	1.303e-05	535.44	177.74	132.25	39.454	1.2862e-05	60.811	103.377	-21.867	-50.041	-108.666	4.180	-20.757	-109.207	-104.765	-67.037	109.893	-105.928	-102.056	-101.048	-96.197	41.701	-97.836	-8191	255	
19482.525	1	1	0	0	0.062551	0.055996	0.1265	0.13849	0.06823	0.019649	0.21009	0.10492	0.038822	0.092129	0.06318	0.22331	0.27406	0.095492	0.15532	0.27401	-3.95	-4.4875	-3.6271	-4.6458	-4.1438	-3.8438	-4.8604	-4.0208	-4.0813	-4.6875	-4.0458	-4.6312	-4.3771	-3.9292	-4.5729	-4.1375	-116.747	-24.944	-47.656	226.247	54.939	76.889	133.490	205.665	-57.996	-55.073	7.968	212.813	175.989	195.477	28.815	-114.880	0.00063729	0.0007168	0.00023066	1395.8	6.1867e-06	2.8885e-06	1562.9	448.67	7.784e-06	5.9448e-06	597.05	194.66	142.74	41.689	9.8214e-06	64.543	0.0011679	0.001168	0.00032727	1240.6	1.2818e-05	1.2682e-05	1383.6	399.37	1.2641e-05	1.2607e-05	531.36	175.19	130.78	38.715	1.2357e-05	59.282	177.997	197.201	7.750	-108.204	-2.442	-118.338	-108.780	-104.677	-3.563	-22.893	-105.736	-102.121	-101.468	-97.537	-64.702	-98.967	-8191	255	
19482.646	1	1	0	0	0.084841	0.23987	0.015436	0.21165	0.14594	0.036724	0.03013	0.29757	0.22318	0.055874	0.060399	0.065013	0.069123	0.13067	0.22996	0.073797	-3.8521	-4.4938	-3.7354	-4.3979	-4.2396	-3.6083	-4.8271	-3.9354	-3.9521	-4.5271	-3.7188	-4.425	-4.325	-3.725	-4.6729	-4.2625	8.859	13.328	222.702	-102.269	135.630	-94.853	-50.798	168.313	231.961	-119.999	86.899	-91.263	231.211	-107.100	209.275	196.536	0.00029097	0.00080355	0.00028753	1386.1	7.21e-06	2.1612e-06	1545.5	443.69	3.4616e-06	6.7981e-06	593.5	195.23	142.49	41.034	4.1908e-06	64.898	0.0011171	0.0011278	0.00031359	1227.4	1.2341e-05	1.2389e-05	1370.4	395.32	1.2281e-05	1.2203e-05	527.28	174.47	130.27	38.546	1.2221e-05	59.256	161.186	-31.782	194.228	-109.790	64.619	-35.260	-110.519	-106.349	189.128	54.685	-106.953	-103.591	-102.728	-97.685	-86.735	-99.142	-8191	255	
19482.742	1	1	0	0	0.058502	0.18828	0.067963	0.31488	0.058728	0.027516	0.32274	0.16919	0.056944	0.16099	0.28121	0.16343	0.25724	0.16731	0.064936	0.12745	-3.5583	-4.6146	-3.8208	-4.4812	-4.5188	-3.8167	-4.7688	-4.0458	-3.7979	-4.5854	-3.8833	-4.3833	-4.5083	-3.7208	-4.55	-4.1312	-1.788	128.398	210.598	187.277	65.687	86.345	212.824	57.978	118.036	222.978	192.103	170.103	157.216	128.818	182.151	49.705	0.00057652	0.00052228	7.8644e-05	1384.1	6.3616e-06	1.0695e-05	1559.9	447.75	4.4842e-06	2.7005e-05	597.77	198.51	143.98	41.968	1.6632e-06	65.709	0.0011033	0.0011055	0.00031344	1228.7	1.2322e-05	1.2222e-05	1379	397.74	1.224e-05	1.2286e-05	532.26	176.7	131.56	39.062	1.2325e-05	60.181	203.418	210.745	-29.166	-109.873	125.508	84.521	-110.461	-105.857	24.510	22.896	-107.045	-103.552	-102.297	-97.731	172.838	-98.876	-8191	255	
19482.838	1	1	0	0	0.18434	0.081299	0.13907	0.1378	0.15022	0.079655	0.21011	0.37314	0.27117	0.2373	0.23122	0.30408	0.13874	0.10498	0.12624	0.19105	-3.6688	-4.5771	-3.9688	-4.2125	-4.7021	-3.7729	-4.6042	-4.3583	-3.7292	-4.7646	-4.1438	-4.075	-4.6833	-3.8438	-4.4062	-4.4646	-40.923	-66.912	140.659	226.654	135.412	4.897	-114.992	119.520	-104.177	-9.063	234.802	186.362	124.440	-92.866	234.998	100.616	0.00041421	0.0013608	0.00030446	1397	3.0893e-06	8.7162e-06	1568.6	450.68	8.2111e-06	6.3623e-06	602.78	199.74	145.33	42.397	9.4633e-06	67.204	0.0011136	0.0011248	0.00031544	1235.8	1.2256e-05	1.238e-05	1387.7	400.83	1.2311e-05	1.2378e-05	536.85	178.79	132.98	39.643	1.2337e-05	61.286	174.579	226.980	-51.339	-109.736	-96.584	-72.093	-110.299	-106.083	-58.055	164.579	-107.005	-103.599	-102.248	-97.561	110.343	-98.976	-8191	255	
19482.934	1	1	0	0	0.12492	0.18675	0.027055	0.20114	0.084775	0.27876	0.29167	0.20512	0.28083	0.18726	0.076805	0.15856	0.081982	0.30373	0.1486	0.061486	-3.5312	-4.5375	-3.8229	-4.1271	-4.525	-3.6917	-4.4396	-4.6479	-3.6917	-4.6375	-4.1917	-4.0729	-4.7458	-3.8521	-4.2583	-4.575	105.550	205.954	178.167	-104.081	60.423	-24.947	193.054	228.276	-23.502	8.960	-89.829	194.818	189.919	182.474	-65.428	-117.393	0.00046455	0.0014284	0.00051957	1401.8	2.4889e-06	2.5574e-06	1586	456.33	1.1552e-05	1.1595e-05	613.99	201.21	147.14	42.884	1.508e-05	66.671	0.0011122	0.0011384	0.00031498	1245.4	1.2413e-05	1.2431e-05	1399.8	404.51	1.2437e-05	1.2499e-05	542.73	180	134.03	39.938	1.2349e-05	60.985	162.444	-24.634	-79.545	-109.544	92.078	5.009	-110.214	-105.694	21.114	-20.055	-106.769	-103.227	-102.438	-97.147	-37.593	-98.902	-8191	255	
19483.029	1	1	0	0	0.078818	0.077555	0.072146	0.15924	0.11609	0.26579	0.11937	0.14297	0.19186	0.076655	0.19138	0.15818	0.17716	0.14172	0.24404	0.066404	-3.2625	-4.5583	-3.9521	-3.9813	-4.6396	-3.8833	-4.3708	-4.4729	-3.5563	-4.4292	-4.2021	-3.8896	-4.6896	-4.0021	-4.1958	-4.5312	-55.020	206.427	219.250	176.295	51.935	121.872	188.076	208.687	107.397	-51.627	123.713	65.588	88.089	-66.266	-31.555	173.242	0.00054243	0.00070388	0.00029349	1409.9	8.3337e-06	1.4062e-05	1572.5	450.82	9.2496e-06	1.0224e-05	605.83	197.21	143.32	41.592	1.8959e-05	65.124	0.0011159	0.001129	0.00031479	1242.2	1.2286e-05	1.2354e-05	1387.7	399.91	1.2135e-05	1.2276e-05	534	175.66	130.97	38.827	1.2099e-05	59.339	164.319	-109.504	226.824	-109.395	-59.301	18.121	-110.100	-105.952	92.941	-37.396	-106.474	-103.167	-101.992	-96.967	232.672	-98.665	-8191	255	
19483.125	1	1	0	0	0.17895	0.12047	0.092809	0.43657	0.029116	0.1775	0.3132	0.055157	0.099629	0.024894	0.13632	0.064069	0.17039	0.10813	0.14817	0.11081	-3.3375	-4.3812	-4.3688	-3.9104	-4.5667	-3.7104	-4.2979	-4.6708	-3.4833	-4.3562	-4.5062	-3.7917	-4.4958	-4.0271	-3.8396	-4.7312	-96.127	115.497	101.757	196.332	87.084	82.916	184.228	219.368	66.385	45.930	16.307	214.055	143.393	-90.829	-1.116	212.574	0.00055628	0.00117	0.00032348	1389.8	5.2581e-06	7.1818e-06	1554.4	448.09	1.9298e-06	7.3126e-06	599.86	196.76	144.36	41.997	1.9868e-05	65.659	0.0010807	0.0010965	0.000306	1228	1.198e-05	1.2065e-05	1374.1	397.01	1.2006e-05	1.206e-05	530.47	175.21	131.09	38.925	1.2003e-05	59.722	165.668	-61.526	-101.814	-109.568	-78.526	76.988	-109.871	-105.519	48.567	44.741	-106.520	-102.923	-101.930	-97.145	10.833	-98.392	-8191	255	
19483.221	1	1	0	0	0.165	0.11452	0.24075	0.36613	0.2253	0.11827	0.15001	0.12886	0.18825	0.010035	0.052699	0.13002	0.058566	0.080268	0.22797	0.21675	-3.5521	-4.3604	-4.4333	-3.8271	-4.5146	-4.0542	-4.0479	-4.7729	-3.6917	-4.2812	-4.4104	-3.6583	-4.6229	-4.2833	-3.85	-4.925	75.063	180.751	-92.051	180.680	-98.966	95.527	223.246	-66.178	21.959	-52.516	204.987	-102.221	181.724	-2.253	-117.555	83.735	0.00066293	0.0015218	0.00018767	1392.7	1.4231e-05	1.936e-05	1569.5	448.12	7.1736e-06	6.6386e-06	599.84	197.78	144.53	42.082	5.2567e-06	66.13	0.0010914	0.0011039	0.00030771	1231.3	1.2011e-05	1.2119e-05	1381.3	398.38	1.2153e-05	1.2142e-05	532.5	176.45	131.82	39.231	1.21e-05	60.209	174.982	-117.941	36.605	-109.286	-27.580	-45.679	-109.699	-105.194	-36.672	6.792	-106.043	-102.799	-101.799	-97.058	27.657	-98.690	-8191	255	
19483.318	1	1	0	0	0.060329	0.25869	0.081652	0.15121	0.12973	0.20035	0.24888	0.1964	0.065289	0.13287	0.21373	0.059455	0.20968	0.17502	0.14514	0.071721	-3.4313	-4.1271	-4.5354	-3.7646	-4.3875	-4.1458	-3.9729	-4.8583	-3.75	-3.9167	-4.5813	-3.8021	-4.4625	-4.2875	-3.6604	-4.9042	147.660	-97.570	85.946	-88.402	24.079	109.585	184.076	155.739	118.096	-94.272	150.741	-88.951	-40.928	-95.662	-99.306	102.652	0.00052921	0.0011348	0.00026247	1405.9	6.2172e-06	3.1908e-06	1578	452.16	5.3948e-06	1.0225e-05	607.09	200.04	144.99	42.531	7.5621e-06	66.883	0.0010971	0.0011074	0.00030721	1239.8	1.2135e-05	1.2108e-05	1384.8	401.07	1.2138e-05	1.2144e-05	536.9	178.11	132.8	39.671	1.2187e-05	60.807	152.392	-25.599	151.613	-109.123	102.213	-84.521	-109.436	-105.077	-51.378	29.338	-106.808	-103.174	-101.867	-97.319	16.412	-98.876	-8191	255	
19483.438	1	1	0	0	0.18399	0.10207	0.30111	0.10641	0.15381	0.091545	0.21293	0.34938	0.10331	0.15935	0.055605	0.32398	0.11095	0.11784	0.067855	0.10376	-3.6229	-3.8625	-4.6333	-3.7438	-4.3646	-4.3333	-3.8688	-4.7583	-4.0625	-3.8167	-4.6	-3.8083	-4.3375	-4.5458	-3.6458	-4.5042	-23.275	-15.278	161.194	196.675	156.903	6.673	188.768	184.339	232.502	129.334	182.440	-119.799	150.115	218.606	218.431	-45.834	0.00047687	0.00020017	0.00020888	1401	5.3053e-06	6.8221e-06	1579.7	454.95	6.9994e-06	4.6688e-07	605.19	198.43	144.44	42.19	2.0724e-05	65.44	0.0011094	0.0011152	0.00031086	1241	1.2182e-05	1.2091e-05	1391	402.24	1.1994e-05	1.1986e-05	535.05	176.84	131.9	39.076	1.1968e-05	59.618	123.270	90.072	-50.092	-109.112	-95.513	10.286	-109.557	-104.992	-9.604	20.042	-106.234	-102.897	-101.745	-96.951	41.691	-98.604	-8191	255	
19483.533	1	1	0	0	0.20426	0.092262	0.12064	0.15228	0.055005	0.066685	0.30711	0.16917	0.18876	0.062396	0.25198	0.2542	0.029642	0.02178	0.21755	0.078168	-3.5896	-3.7875	-4.6625	-3.8667	-4.2188	-4.5271	-3.9354	-4.8021	-4.1875	-3.7021	-4.7833	-3.925	-4.1854	-4.4021	-3.65	-4.6937	110.122	141.250	32.501	181.628	76.553	129.737	141.418	213.162	167.927	113.049	205.789	166.823	33.197	222.267	61.486	-105.025	0.00017367	0.0007391	0.00030298	1389.8	1.9698e-06	5.8836e-06	1557.1	447.32	1.7847e-05	1.0574e-05	599.38	195.49	142.68	41.637	2.1066e-05	64.763	0.0010776	0.001098	0.00030489	1232.1	1.2057e-05	1.1876e-05	1374.6	396.8	1.1876e-05	1.1913e-05	528.78	174.37	130.19	38.621	1.1807e-05	59.136	181.431	1.495	-1.798	-109.010	87.045	33.091	-109.327	-105.128	22.220	0.089	-106.130	-102.709	-101.750	-96.819	-31.781	-98.440	-8191	255	
19483.631	1	1	0	0	0.18716	0.16954	0.23872	0.15481	0.091898	0.043711	0.3496	0.12004	0.16946	0.1248	0.073225	0.14967	0.19314	0.24187	0.17311	0.070896	-3.8375	-3.7104	-4.6229	-4.0958	-4.0854	-4.6021	-3.8896	-4.4958	-4.2542	-3.7542	-4.7792	-4.1542	-4.2229	-4.8375	-3.7562	-4.4917	61.741	40.469	51.112	-112.430	-79.617	-74.420	170.588	211.240	-17.632	205.754	52.688	137.883	-106.626	172.050	-63.253	141.581	0.00077977	0.0017438	0.00017803	1388.4	5.1514e-06	5.245e-06	1564.9	448.32	1.3951e-05	1.2038e-05	601.11	196.98	144.15	42.323	1.0598e-05	66.434	0.0010868	0.0010849	0.00030195	1229.6	1.193e-05	1.1879e-05	1375.2	397.96	1.1896e-05	1.1856e-05	531.81	175.88	131.32	39.165	1.2018e-05	60.114	158.861	-85.498	-82.697	-109.222	-13.572	-58.642	-109.703	-105.544	20.125	-32.242	-106.454	-102.824	-101.740	-97.220	107.333	-98.704	-8191	255	
19483.727	1	1	0	0	0.025804	0.13092	0.173	0.056269	0.049766	0.10492	0.1611	0.10625	0.24536	0.17982	0.10738	0.097193	0.033872	0.16025	0.22611	0.10946	-4.2333	-3.7146	-4.7354	-4.3708	-4.0687	-4.6021	-4.0354	-4.5042	-4.6208	-3.8125	-4.8729	-4.2458	-4.0146	-4.6708	-3.7208	-4.4083	-112.583	169.326	-67.284	200.387	168.759	-80.229	213.321	193.586	50.946	194.521	-70.740	145.952	178.144	64.498	1.230	202.162	0.00047555	0.0021322	0.00023289	1400.4	2.4769e-06	8.3438e-06	1571.1	452.53	9.6975e-06	5.8714e-06	607.66	200.67	147.02	42.671	8.333e-06	67.07	0.0010851	0.001101	0.00030865	1238.1	1.2098e-05	1.208e-05	1384.8	401.26	1.2099e-05	1.2083e-05	537.08	178.54	133.38	39.701	1.2117e-05	60.935	163.616	-101.362	-39.595	-108.777	205.864	15.044	-109.081	-105.011	59.425	-64.877	-105.732	-102.147	-101.343	-96.564	-73.354	-97.642	-8191	255	
19483.822	1	1	0	0	0.21028	0.090364	0.058799	0.20107	0.1323	0.23853	0.31423	0.37406	0.22877	0.26131	0.1383	0.18013	0.24826	0.11702	0.29614	0.20367	-4.2438	-3.7604	-4.5167	-4.3688	-3.825	-4.5833	-4.0646	-4.2771	-4.6729	-3.7708	-4.7667	-4.5167	-3.8792	-4.7312	-3.9542	-4.125	17.376	45.173	-8.244	181.615	-16.288	134.864	154.965	192.396	-77.815	-82.735	140.630	129.464	189.879	-62.565	-15.970	140.941	0.00043748	0.00053244	0.0006127	1414.3	8.7217e-06	4.0661e-06	1589.8	458.43	6.2025e-06	6.1585e-06	613.47	202.33	148.04	43.436	9.8355e-06	67.449	0.001085	0.0010997	0.00030721	1248.4	1.196e-05	1.1954e-05	1401	404.62	1.2003e-05	1.2058e-05	542.39	180.12	134.46	40.119	1.2007e-05	61.225	151.084	-120.364	-75.871	-108.553	-58.984	169.544	-109.135	-105.116	37.121	165.762	-105.917	-102.466	-101.440	-96.337	129.349	-98.314	-8191	255	
19483.920	1	1	0	0	0.093759	0.14331	0.047621	0.20533	0.39452	0.091688	0.10562	0.40229	0.11888	0.12084	0.10851	0.2258	0.12249	0.27236	0.11601	0.098484	-4.2396	-3.7167	-4.5125	-4.6354	-3.8104	-4.6646	-4.2521	-4.1687	-4.6	-3.6771	-4.4375	-4.5521	-3.8458	-4.6958	-4.0917	-4.1083	-18.351	228.502	65.331	-109.928	-17.114	213.302	200.141	159.488	-84.896	62.470	161.812	155.882	-39.261	213.014	73.045	172.392	0.00037217	0.00041278	0.00013145	1411.9	4.3139e-06	7.4396e-06	1583.9	453.77	7.7142e-06	5.5492e-06	606.51	198.69	144.67	42.111	7.6453e-06	65.649	0.0010746	0.0010937	0.0003029	1249.4	1.1784e-05	1.1835e-05	1393.3	402.7	1.1708e-05	1.1775e-05	534.49	176.48	131.65	38.976	1.169e-05	59.438	161.719	33.883	92.355	-108.630	-40.651	66.200	-109.252	-105.233	-16.781	171.585	-105.834	-102.100	-101.425	-96.452	-86.960	-98.258	-8191	255	
19484.039	1	1	0	0	0.15975	0.16847	0.19728	0.068609	0.070139	0.32743	0.16831	0.22825	0.093328	0.18643	0.24119	0.12735	0.14477	0.051237	0.10028	0.24685	-4.3729	-3.8458	-4.1583	-4.5708	-3.7917	-4.6271	-4.2979	-4.0083	-4.5417	-3.725	-4.475	-4.6458	-3.7708	-4.7021	-4.3063	-3.7896	-52.209	233.491	154.226	141.947	201.079	-17.510	225.750	192.318	55.581	63.064	212.627	-108.137	176.316	180.594	39.143	97.305	0.00053383	0.00038482	7.4123e-05	1393	2.3916e-06	4.7118e-06	1560.9	449.56	7.012e-06	1.4073e-05	598.37	198.03	144.74	41.866	1.4712e-05	65.446	0.0010453	0.0010709	0.00029759	1230.5	1.1598e-05	1.1632e-05	1376.7	397.59	1.1599e-05	1.1727e-05	530.04	175.51	131.33	38.887	1.1678e-05	59.39	171.591	-47.438	-77.187	-109.012	188.573	132.048	-109.118	-105.275	-2.748	-81.458	-106.251	-102.209	-101.525	-96.679	-82.991	-98.152	-8191	255	
19484.135	1	1	0	0	0.30898	0.044446	0.10341	0.1658	0.27847	0.051536	0.22434	0.10523	0.19922	0.19415	0.12987	0.40437	0.15054	0.22165	0.12137	0.36146	-4.3354	-3.7917	-3.8458	-4.6375	-3.6479	-4.5708	-4.4979	-3.8625	-4.7021	-3.9542	-4.3021	-4.7542	-3.8312	-4.6458	-4.2875	-3.9646	62.153	229.312	194.008	229.517	63.150	-22.597	156.407	-103.721	-23.668	-120.029	132.527	164.779	202.976	235.157	35.489	92.532	0.00072446	0.00088331	0.00036162	1400.7	5.467e-06	9.7266e-06	1568.8	452.72	1.2024e-05	6.126e-06	602.07	198.29	145.66	42.504	7.8235e-06	65.981	0.0010499	0.0010615	0.00029708	1233.1	1.1585e-05	1.1672e-05	1382.4	399.61	1.1654e-05	1.1842e-05	531.63	176.44	132.21	39.235	1.1806e-05	59.887	157.149	-42.846	-90.213	-108.753	-7.498	9.100	-109.470	-105.362	-9.804	33.537	-105.992	-102.552	-101.427	-96.601	37.493	-98.195	-8191	255	
19484.230	1	1	0	0	0.10236	0.17657	0.21939	0.089383	0.19489	0.26712	0.24233	0.14604	0.25542	0.1656	0.25858	0.058769	0.32538	0.10419	0.27981	0.12111	-4.3313	-3.9979	-3.875	-4.7771	-3.6833	-4.35	-4.7208	-3.7896	-4.6833	-4.0667	-4.1292	-4.75	-3.875	-4.3771	-4.5708	-3.9896	10.376	130.497	-55.416	83.061	178.244	39.920	200.947	223.448	209.782	-70.731	220.513	-53.274	230.917	-117.173	80.750	-84.288	0.0004882	0.00018616	0.00020226	1401.9	7.3175e-06	1.5399e-05	1576.8	452.13	7.367e-06	8.7057e-06	609.08	199.73	146.22	42.586	6.1192e-06	67.071	0.0010709	0.0010872	0.00030225	1240.1	1.1812e-05	1.1834e-05	1387.3	401.55	1.1835e-05	1.1923e-05	536.77	178.16	133.31	39.634	1.1854e-05	60.68	172.036	140.405	-83.801	-108.750	-109.284	-45.477	-109.206	-105.191	-96.246	-75.899	-105.964	-102.496	-101.618	-96.537	177.894	-98.378	-8191	255	
19484.326	1	1	0	0	0.21246	0.10975	0.24087	0.13196	0.3228	0.13764	0.23659	0.12451	0.16647	0.08961	0.28073	0.27766	0.075395	0.48949	0.059728	0.028353	-4.2875	-4.1146	-3.8667	-4.7396	-3.7938	-4.2812	-4.6021	-3.8063	-4.4896	-4.1917	-4.0312	-4.8875	-4.0188	-4.1792	-4.5396	-3.9729	26.608	225.348	-25.717	-78.114	226.169	-28.143	169.210	97.293	27.687	1.080	170.798	173.540	-81.910	197.850	-30.248	71.012	0.00065087	0.00064294	0.00019399	1410.4	6.9249e-06	1.3057e-05	1589.3	455.34	9.9901e-06	3.0713e-06	605.16	199.42	146.23	42.656	1.2339e-05	65.544	0.0010747	0.0010951	0.00030276	1245	1.1965e-05	1.195e-05	1394.7	403.35	1.1885e-05	1.1912e-05	535.53	177.37	132.35	39.395	1.1776e-05	59.675	152.023	-98.696	-76.099	-108.641	-62.568	0.630	-109.325	-105.046	49.478	-64.929	-106.151	-102.811	-101.245	-96.754	18.172	-98.508	-8191	255	
19484.422	1	1	0	0	0.17727	0.13846	0.17618	0.17665	0.19939	0.16471	0.30087	0.16297	0.12685	0.067677	0.23447	0.067926	0.29505	0.07807	0.27915	0.38413	-4.1583	-4.1979	-3.7542	-4.8938	-3.9521	-3.9479	-4.8583	-3.7542	-4.4292	-4.3104	-3.8146	-4.7292	-4.1687	-3.8937	-4.6542	-3.6354	-70.277	115.714	89.550	227.671	-121.800	13.387	175.497	168.670	84.463	-80.499	-82.475	182.083	-97.331	46.340	-97.104	138.877	0.00042578	0.00096502	0.00035812	1401.7	1.643e-05	5.7181e-06	1561	448.59	4.4991e-06	8.5184e-06	597.36	196.39	143.04	42.006	6.6326e-06	64.512	0.0010677	0.0010776	0.00030009	1236.9	1.1851e-05	1.1742e-05	1377.5	397.64	1.179e-05	1.1788e-05	526.49	174.38	130.58	38.637	1.1724e-05	58.775	203.851	-5.077	-68.501	-108.593	-10.774	23.927	-109.247	-105.240	-93.470	-77.276	-105.916	-102.513	-101.387	-96.541	-72.749	-97.983	-8191	255	
#DATA ENDS
