BOXY.EXE: ISS Imagent and Oximeter Data Acquisition Program Version 0.80
Ascii Record File

#ACQ INFORMATION
2  Detector Channels 
16  External MUX Channels 
1  Auxiliary Channels 
5000  Waveform (CCF) Frequency (Hz)
1  Waveforms Skipped 
30  Waveforms Averaged 
1  Cycles Averaged 
16  Acquisitions per Waveform 
10.0806  Updata Rate (Hz) 

#FILE INFORMATION
TRUE -- External MUX Channel results are PARSED.
FALSE -- AC DC and Phase are NOT grouped.
TRUE -- Companion Program Settings File CREATED.
FALSE -- AC data not excluded
FALSE -- DC data not excluded
FALSE -- Phase data not excluded
FALSE -- Auxillary Chn. data not excluded
Tab delimiters

#CALIBRATION STATE
TRUE -- Waveform Calibration Values APPLIED.


#AUX CALIBRATION VALUES
Val Type	aux-1	

Term	1.0000e+00	
Factor	0.0000e+00	


#WF CALIBRATION VALUES
A = Detector Channel
Val Type	A-AC1	A-AC2	A-AC3	A-AC4	A-AC5	A-AC6	A-AC7	A-AC8	A-AC9	A-AC10	A-AC11	A-AC12	A-AC13	A-AC14	A-AC15	A-AC16	A-DC1	A-DC2	A-DC3	A-DC4	A-DC5	A-DC6	A-DC7	A-DC8	A-DC9	A-DC10	A-DC11	A-DC12	A-DC13	A-DC14	A-DC15	A-DC16	A-Ph1	A-Ph2	A-Ph3	A-Ph4	A-Ph5	A-Ph6	A-Ph7	A-Ph8	A-Ph9	A-Ph10	A-Ph11	A-Ph12	A-Ph13	A-Ph14	A-Ph15	A-Ph16	

Term	0.00000e+00	0.00000e+00	0.00000e+00	0.00000e+00	0.00000e+00	0.00000e+00	0.00000e+00	0.00000e+00	0.00000e+00	0.00000e+00	0.00000e+00	0.00000e+00	0.00000e+00	0.00000e+00	0.00000e+00	0.00000e+00	0.00000e+00	0.00000e+00	0.00000e+00	0.00000e+00	0.00000e+00	0.00000e+00	0.00000e+00	0.00000e+00	0.00000e+00	0.00000e+00	0.00000e+00	0.00000e+00	0.00000e+00	0.00000e+00	0.00000e+00	0.00000e+00	0.00000e+00	0.00000e+00	0.00000e+00	0.00000e+00	0.00000e+00	0.00000e+00	0.00000e+00	0.00000e+00	0.00000e+00	0.00000e+00	0.00000e+00	0.00000e+00	0.00000e+00	0.00000e+00	0.00000e+00	0.00000e+00	
Factor	1.00000e+00	1.00000e+00	1.00000e+00	1.00000e+00	1.00000e+00	1.00000e+00	1.00000e+00	1.00000e+00	1.00000e+00	1.00000e+00	1.00000e+00	1.00000e+00	1.00000e+00	1.00000e+00	1.00000e+00	1.00000e+00	1.00000e+00	1.00000e+00	1.00000e+00	1.00000e+00	1.00000e+00	1.00000e+00	1.00000e+00	1.00000e+00	1.00000e+00	1.00000e+00	1.00000e+00	1.00000e+00	1.00000e+00	1.00000e+00	1.00000e+00	1.00000e+00	X	X	X	X	X	X	X	X	X	X	X	X	X	X	X	X	

B = Detector Channel
Val Type	B-AC1	B-AC2	B-AC3	B-AC4	B-AC5	B-AC6	B-AC7	B-AC8	B-AC9	B-AC10	B-AC11	B-AC12	B-AC13	B-AC14	B-AC15	B-AC16	B-DC1	B-DC2	B-DC3	B-DC4	B-DC5	B-DC6	B-DC7	B-DC8	B-DC9	B-DC10	B-DC11	B-DC12	B-DC13	B-DC14	B-DC15	B-DC16	B-Ph1	B-Ph2	B-Ph3	B-Ph4	B-Ph5	B-Ph6	B-Ph7	B-Ph8	B-Ph9	B-Ph10	B-Ph11	B-Ph12	B-Ph13	B-Ph14	B-Ph15	B-Ph16	

Term	0.00000e+00	0.00000e+00	0.00000e+00	0.00000e+00	0.00000e+00	0.00000e+00	0.00000e+00	0.00000e+00	0.00000e+00	0.00000e+00	0.00000e+00	0.00000e+00	0.00000e+00	0.00000e+00	0.00000e+00	0.00000e+00	0.00000e+00	0.00000e+00	0.00000e+00	0.00000e+00	0.00000e+00	0.00000e+00	0.00000e+00	0.00000e+00	0.00000e+00	0.00000e+00	0.00000e+00	0.00000e+00	0.00000e+00	0.00000e+00	0.00000e+00	0.00000e+00	-1.74110e+02	-1.49463e+02	-1.54163e+02	-1.83559e+02	-9.67051e+01	-8.85097e+01	-1.58120e+02	-1.62015e+02	-7.57778e+01	-9.11998e+01	-1.70546e+02	-1.71093e+02	-1.79028e+02	-1.76657e+02	-7.54591e+01	-1.49556e+02	
Factor	3.07533e-05	1.16140e-04	3.88137e-05	1.69307e-01	1.12974e-06	1.04412e-06	1.84577e-01	5.88378e-02	1.11002e-06	1.29812e-06	9.83490e-02	3.36173e-02	3.12576e-02	1.02943e-02	1.39422e-06	1.47485e-02	9.99033e-07	1.02388e-06	2.85475e-07	7.71054e-02	1.12068e-08	1.12247e-08	7.91330e-02	2.67211e-02	1.11987e-08	1.12333e-08	4.26404e-02	1.45631e-02	1.40376e-02	4.62015e-03	1.12025e-08	6.38598e-03	X	X	X	X	X	X	X	X	X	X	X	X	X	X	X	X	



#DISTANCE SETTINGS
A = Detector Channel
A-1	A-2	A-3	A-4	A-5	A-6	A-7	A-8	A-9	A-10	A-11	A-12	A-13	A-14	A-15	A-16	

2.5000e+00	3.0000e+00	2.5000e+00	3.0000e+00	2.0000e+00	3.0000e+00	1.5000e+00	3.0000e+00	3.0000e+00	3.0000e+00	3.0000e+00	3.0000e+00	3.0000e+00	3.0000e+00	1.5000e+00	3.0000e+00	

B = Detector Channel
B-1	B-2	B-3	B-4	B-5	B-6	B-7	B-8	B-9	B-10	B-11	B-12	B-13	B-14	B-15	B-16	

1.0000e+01	1.0000e+01	1.0000e+01	1.4400e+00	1.0000e+01	1.0000e+01	1.5100e+00	1.9400e+00	1.0000e+01	1.0000e+01	1.9900e+00	2.4900e+00	2.4100e+00	2.9000e+00	1.0000e+01	2.9800e+00	




#DATA BEGINS
time	group	step	mark	flag	A-AC1	A-AC2	A-AC3	A-AC4	A-AC5	A-AC6	A-AC7	A-AC8	A-AC9	A-AC10	A-AC11	A-AC12	A-AC13	A-AC14	A-AC15	A-AC16	A-DC1	A-DC2	A-DC3	A-DC4	A-DC5	A-DC6	A-DC7	A-DC8	A-DC9	A-DC10	A-DC11	A-DC12	A-DC13	A-DC14	A-DC15	A-DC16	A-Ph1	A-Ph2	A-Ph3	A-Ph4	A-Ph5	A-Ph6	A-Ph7	A-Ph8	A-Ph9	A-Ph10	A-Ph11	A-Ph12	A-Ph13	A-Ph14	A-Ph15	A-Ph16	B-AC1	B-AC2	B-AC3	B-AC4	B-AC5	B-AC6	B-AC7	B-AC8	B-AC9	B-AC10	B-AC11	B-AC12	B-AC13	B-AC14	B-AC15	B-AC16	B-DC1	B-DC2	B-DC3	B-DC4	B-DC5	B-DC6	B-DC7	B-DC8	B-DC9	B-DC10	B-DC11	B-DC12	B-DC13	B-DC14	B-DC15	B-DC16	B-Ph1	B-Ph2	B-Ph3	B-Ph4	B-Ph5	B-Ph6	B-Ph7	B-Ph8	B-Ph9	B-Ph10	B-Ph11	B-Ph12	B-Ph13	B-Ph14	B-Ph15	B-Ph16	aux-1	digaux	

19015.713	1	1	0	256	0.13259	0.16677	0.064805	0.20442	0.043335	0.19725	0.15321	0.30218	0.1049	0.034298	0.24468	0.28248	0.081687	0.29638	0.030296	0.15283	-3.6354	-4.5333	-4.7104	-4.025	-4.7771	-4.3292	-4.2188	-4.9167	-3.8604	-4.3292	-4.5479	-3.9688	-4.7125	-4.5604	-3.9146	-4.9146	152.264	290.102	300.441	294.811	199.270	263.905	272.457	312.720	221.037	171.270	-9.837	311.750	-20.238	257.355	76.264	185.310	0.00012396	0.00023508	0.0001004	1327	3.1976e-06	1.7255e-06	1494.2	264.64	3.1936e-06	3.9737e-06	346	95.104	72.358	21.014	1.3813e-06	29.754	6.0204e-05	5.5196e-05	1.5221e-05	1124.1	6.2665e-07	6.0001e-07	1262.1	225.29	6.243e-07	5.9424e-07	289.75	80.512	60.856	17.852	5.9917e-07	25.308	97.548	0.857	57.539	-15.786	115.701	90.799	-15.709	-8.167	95.861	147.042	-8.264	-1.542	-1.307	5.941	226.401	5.199	-8191	255	
19015.809	1	1	0	0	0.36338	0.15356	0.13603	0.05802	0.20806	0.034905	0.25084	0.2108	0.071867	0.15057	0.22674	0.18518	0.27595	0.22372	0.12541	0.12927	-3.7438	-4.3438	-4.8042	-3.9458	-4.675	-4.45	-3.9979	-4.9	-3.9896	-4.0896	-4.8438	-3.9583	-4.6167	-4.4667	-3.9479	-4.7875	-10.314	152.191	237.421	302.163	14.739	324.442	283.240	-0.515	325.337	53.388	75.999	307.658	294.759	41.723	315.666	134.344	0.00020593	0.00022675	3.6072e-05	1323.9	3.1646e-06	1.6115e-06	1485.6	263.57	1.0716e-06	3.8212e-06	344.92	94.745	72.525	21.057	1.2489e-06	29.951	5.8541e-05	5.4347e-05	1.5101e-05	1122.4	6.2714e-07	5.9189e-07	1261	224.99	6.4045e-07	6.3574e-07	289.98	80.333	61.184	17.88	6.5614e-07	25.413	94.000	24.775	24.010	-15.901	151.071	128.187	-15.734	-8.157	183.278	11.311	-8.656	-1.767	-1.310	6.060	139.692	5.415	-8191	255	
19015.904	1	1	0	0	0.018251	0.069992	0.14579	0.21376	0.097476	0.18372	0.31879	0.28895	0.094087	0.092986	0.25195	0.22623	0.23701	0.1983	0.092701	0.31194	-3.7479	-4.0708	-4.9354	-3.9479	-4.5958	-4.5729	-3.9458	-4.8271	-4.0854	-4.0354	-4.7875	-3.7708	-4.5396	-4.7146	-3.7875	-4.7833	-6.034	93.889	235.650	315.251	115.416	278.237	266.009	-19.305	179.946	316.219	267.016	269.023	302.560	325.227	222.711	-19.607	0.00014818	0.00037925	8.7579e-05	1327.5	1.8457e-06	8.1676e-07	1497.6	265.63	4.0921e-06	6.8469e-07	347.93	95.032	72.606	20.838	3.3704e-06	29.974	6.4392e-05	5.9315e-05	1.6283e-05	1126.4	6.5726e-07	6.3937e-07	1267.5	225.31	6.3592e-07	6.384e-07	290.33	80.567	61.247	17.945	6.328e-07	25.49	62.772	46.782	82.724	-15.876	44.974	97.594	-15.867	-8.210	115.018	-10.559	-8.717	-1.691	-1.452	5.634	106.665	5.502	-8191	255	
19016.025	1	1	0	0	0.1024	0.14519	0.11872	0.23894	0.30106	0.11525	0.22056	0.22794	0.106	0.088541	0.15129	0.11305	0.2481	0.077281	0.21047	0.12183	-4.0271	-3.9396	-4.6875	-4.0521	-4.4271	-4.8271	-3.8417	-4.7146	-4.3812	-3.975	-4.825	-3.9854	-4.3604	-4.7354	-3.675	-4.5292	70.974	177.690	9.789	277.604	203.599	-2.233	286.953	270.459	246.822	260.438	-16.874	331.457	235.661	243.914	155.677	115.431	0.00020052	0.00029787	5.983e-05	1329	1.7155e-06	1.7038e-06	1493	263.48	1.3904e-06	3.9155e-06	346.76	95.138	72.892	21.071	4.0738e-06	30.01	6.3865e-05	5.738e-05	1.5854e-05	1125	6.4673e-07	6.1762e-07	1266.3	225.22	6.2535e-07	6.139e-07	290.44	80.578	61.255	17.939	6.1009e-07	25.471	82.599	30.856	33.823	-15.831	64.519	48.330	-15.620	-8.149	304.416	132.766	-8.454	-1.862	-1.334	6.272	107.018	5.148	-8191	255	
19016.121	1	1	0	0	0.26715	0.27349	0.10871	0.2061	0.13645	0.20357	0.41348	0.10728	0.095296	0.35246	0.17604	0.14132	0.12497	0.0388	0.07606	0.21465	-4.1792	-3.85	-4.7729	-4.2375	-4.25	-4.8021	-3.9021	-4.5729	-4.4854	-3.7938	-4.8417	-4.2375	-4.0729	-4.7063	-3.7271	-4.3896	123.126	68.070	286.136	255.860	13.644	174.568	288.191	1.771	263.045	330.273	297.854	298.395	-0.033	98.812	278.250	5.450	0.00016043	0.00032709	0.00010135	1333.5	3.3582e-06	1.3843e-06	1493.7	265.41	2.6578e-06	2.2559e-06	346.76	94.831	73.011	20.948	2.847e-06	29.935	6.1694e-05	5.6501e-05	1.5358e-05	1127.9	6.6108e-07	6.2777e-07	1265.1	225.18	6.4005e-07	6.345e-07	290.24	80.489	61.458	17.891	6.4895e-07	25.461	103.418	71.914	33.166	-15.666	93.349	88.616	-16.180	-8.396	112.084	18.033	-8.366	-1.780	-1.551	5.713	93.404	5.060	-8191	255	
19016.219	1	1	0	0	0.29699	0.2432	0.21476	0.33138	0.060512	0.10395	0.15489	0.049097	0.20822	0.31886	0.12003	0.15052	0.16811	0.12416	0.085475	0.23157	-4.1708	-3.7687	-4.7458	-4.3229	-4.0292	-4.6896	-4.125	-4.3292	-4.5875	-3.8729	-4.7604	-4.4833	-4.05	-4.8125	-3.8	-4.3292	8.753	45.421	252.367	-20.249	292.730	188.167	260.889	331.386	114.595	35.714	150.868	310.636	318.048	322.364	301.917	145.439	0.00021404	0.00041979	9.5101e-05	1336.1	2.0533e-06	6.9379e-07	1496.9	265.5	3.2716e-06	2.5252e-06	347.24	95.176	72.568	21.175	5.2545e-06	29.961	6.1451e-05	5.7679e-05	1.5404e-05	1126.7	6.524e-07	6.1537e-07	1265.7	225.67	6.2164e-07	6.1982e-07	290.51	80.575	61.294	17.944	6.2193e-07	25.469	122.747	19.095	4.171	-15.759	115.239	246.887	-15.727	-8.862	101.211	92.291	-8.488	-2.023	-1.747	5.933	112.418	4.863	-8191	255	
19016.314	1	1	0	0	0.066376	0.13895	0.15291	0.30184	0.14043	0.049406	0.12772	0.12412	0.17432	0.10707	0.17752	0.13805	0.12091	0.19174	0.053762	0.13216	-4.3125	-3.775	-4.4833	-4.2688	-3.7542	-4.8458	-4.225	-4.3292	-4.7125	-3.8083	-4.5917	-4.3792	-4.0104	-4.8979	-3.9458	-4.3875	148.122	180.334	25.329	306.198	300.818	53.619	280.930	292.071	93.101	231.403	35.828	272.155	165.949	287.063	206.565	232.135	0.00018916	0.00022579	8.7451e-05	1331.1	3.8013e-06	1.2377e-06	1496.9	264.8	1.8389e-06	2.194e-06	347.66	95.31	72.541	21.067	2.1917e-06	29.913	5.8356e-05	5.5177e-05	1.5483e-05	1126.8	6.3223e-07	5.9952e-07	1265.7	225.41	6.0935e-07	6.1624e-07	290.44	80.648	61.489	17.952	6.4195e-07	25.488	97.056	66.105	43.657	-15.737	130.710	120.390	-15.731	-8.432	168.448	117.260	-8.743	-1.376	-1.368	6.154	125.062	5.265	-8191	255	
19016.410	1	1	0	0	0.12338	0.14924	0.14443	0.067623	0.12141	0.16919	0.12364	0.15691	0.10429	0.18475	0.12093	0.16148	0.19013	0.27672	0.17872	0.065295	-4.5854	-3.7646	-4.4563	-4.6042	-3.8083	-4.8042	-4.3146	-4.2375	-4.8729	-3.9208	-4.6583	-4.7875	-3.9313	-4.7292	-4.1958	-4.1042	32.111	223.525	191.938	229.458	175.140	227.301	331.678	274.786	269.576	317.995	333.619	316.689	270.968	214.579	302.153	157.862	0.00015805	0.00015273	8.1626e-05	1330.9	3.0287e-06	2.0604e-06	1491.5	264.57	1.1323e-06	2.4456e-06	344.4	95.16	72.681	20.963	2.1032e-06	30.136	5.9775e-05	5.7924e-05	1.5994e-05	1127.8	6.5464e-07	6.1371e-07	1265.9	225.15	6.4948e-07	6.11e-07	289.68	80.862	61.525	17.901	6.5007e-07	25.608	112.263	34.943	70.198	-15.846	163.622	116.134	-15.403	-8.193	134.206	82.921	-8.263	-1.432	-1.040	6.621	90.145	5.032	-8191	255	
19016.504	1	1	0	0	0.052568	0.16536	0.19841	0.23376	0.15746	0.094963	0.11361	0.47814	0.23266	0.065348	0.13419	0.11332	0.077443	0.11724	0.098195	0.081217	-4.5958	-4	-4.2229	-4.8604	-3.55	-4.5854	-4.3625	-4.0292	-4.7833	-3.9208	-4.275	-4.7375	-3.8979	-4.5896	-4.3479	-3.8521	90.714	263.552	179.383	20.104	6.052	77.566	-26.019	306.160	145.804	177.559	244.557	280.678	250.664	-15.618	214.397	268.442	0.00021384	0.00029551	7.7503e-05	1332.3	2.6863e-06	2.4409e-06	1496.5	265.68	4.8388e-07	4.2075e-06	345.3	95.497	72.675	21.152	2.8586e-06	29.948	6.369e-05	5.9991e-05	1.6731e-05	1129.3	6.9676e-07	6.5356e-07	1268.3	226.25	6.8433e-07	6.6433e-07	290.56	80.784	61.533	18.047	6.4839e-07	25.546	86.320	25.941	59.878	-15.621	87.460	136.908	-15.615	-8.038	0.700	92.474	-8.599	-1.506	-1.403	6.467	81.150	5.431	-8191	255	
19016.600	1	1	0	0	0.16012	0.14919	0.18371	0.23817	0.12183	0.22043	0.070079	0.24394	0.10241	0.13998	0.13265	0.11507	0.12575	0.2659	0.17301	0.16741	-4.5229	-4.0396	-4.0854	-4.9333	-3.7042	-4.4625	-4.6667	-3.975	-4.6458	-4.2292	-4.1146	-4.9062	-3.8688	-4.5729	-4.3688	-3.7917	260.809	165.314	23.814	303.856	333.753	-17.736	27.024	-11.217	133.234	107.049	232.707	-0.195	-5.258	-19.441	265.424	-20.103	0.00015512	0.00039202	0.00013483	1336	1.8612e-06	2.7544e-06	1494.8	266.62	8.4261e-07	3.5966e-06	347.42	95.828	73.448	21.134	1.6203e-06	30.071	6.4773e-05	5.7568e-05	1.5915e-05	1131.6	6.6179e-07	6.3909e-07	1265.9	226.17	6.5643e-07	6.6492e-07	290.59	80.875	61.572	17.955	6.6513e-07	25.617	97.680	64.846	46.251	-15.364	135.519	36.318	-15.533	-8.222	175.436	104.100	-8.568	-1.592	-1.118	6.214	150.893	5.433	-8191	255	
19016.697	1	1	0	0	0.11801	0.22717	0.19111	0.13558	0.22154	0.12339	0.18516	0.051316	0.18386	0.087073	0.12936	0.20716	0.063825	0.075327	0.15595	0.19464	-4.4437	-4.1354	-3.9208	-4.8396	-3.8812	-4.25	-4.7479	-3.9562	-4.7188	-4.1083	-4.0542	-4.7542	-3.9	-4.3333	-4.6021	-3.8	256.251	187.051	301.757	290.818	111.238	240.191	293.197	43.348	58.359	54.504	232.363	271.749	8.758	142.103	251.655	174.684	0.00016148	1.8252e-05	6.3942e-05	1337.1	3.0377e-06	3.4423e-06	1498.1	265.97	7.6749e-07	1.7071e-06	348.37	95.41	72.77	21.054	2.3258e-06	30.181	6.4134e-05	6.1943e-05	1.7066e-05	1129.5	7.0619e-07	6.7863e-07	1269.5	226.46	7.0097e-07	6.8362e-07	291.34	80.924	61.65	17.999	6.9411e-07	25.73	93.710	-11.336	52.833	-15.373	191.918	62.405	-15.791	-8.063	98.477	130.675	-8.623	-1.649	-1.048	5.604	176.873	5.409	-8191	255	
19016.816	1	1	0	0	0.10359	0.22885	0.13609	0.21568	0.175	0.036636	0.15879	0.24571	0.18266	0.13109	0.19586	0.09411	0.13671	0.025643	0.089823	0.30901	-4.4479	-4.3438	-3.7917	-4.9583	-3.7354	-4.1125	-4.7208	-3.7833	-4.6625	-4.3458	-3.9708	-5	-4.0167	-4.0583	-4.6917	-3.8438	273.381	273.214	68.306	305.711	95.006	225.592	292.993	283.444	266.511	227.700	304.379	297.623	17.530	330.769	52.281	218.212	0.00019314	0.00068039	5.6707e-05	1331	2.7787e-06	4.1393e-06	1508.4	265.64	1.2199e-06	3.727e-06	345.84	95.608	72.712	21.028	2.113e-06	30.182	6.8767e-05	6.5061e-05	1.8335e-05	1129.8	7.552e-07	7.1527e-07	1274.1	226.43	7.1944e-07	6.9649e-07	291.27	81.238	61.672	18.075	6.978e-07	25.688	84.030	53.543	85.905	-15.696	80.030	108.575	-15.331	-8.190	165.733	85.931	-8.345	-1.577	-1.049	6.056	74.535	5.509	-8191	255	
19016.889	1	1	0	0	0.10528	0.18036	0.18374	0.25202	0.058035	0.090006	0.13634	0.12319	0.075961	0.19334	0.17307	0.094489	0.063898	0.198	0.094379	0.14866	-4.1917	-4.4333	-3.7667	-4.8667	-3.9333	-4.0292	-5.0792	-4.1146	-4.4062	-4.5208	-3.7896	-4.9333	-4.25	-3.9542	-4.7417	-4.0042	-17.562	26.067	324.069	266.931	223.297	267.018	310.125	233.094	33.294	92.809	251.868	285.012	2.294	246.641	87.333	99.749	0.00017924	0.00041398	0.00012514	1334.3	2.3122e-06	1.6923e-06	1500.3	265.17	2.2259e-06	1.4254e-06	343.51	95.337	72.85	21.109	1.0658e-06	30.084	6.7568e-05	6.3786e-05	1.7726e-05	1132.1	7.2176e-07	7.1696e-07	1274.1	226.71	7.305e-07	7.1636e-07	290.88	81.358	61.838	18.117	6.87e-07	25.706	102.409	3.612	9.566	-15.478	71.990	137.558	-15.481	-7.795	151.603	123.133	-8.314	-1.479	-1.324	5.922	204.814	5.393	-8191	255	
19016.984	1	1	0	0	0.19027	0.091129	0.1686	0.19825	0.10033	0.24688	0.081341	0.069531	0.16383	0.18253	0.10745	0.11359	0.11793	0.21789	0.1431	0.056239	-4.1	-4.6396	-3.7917	-4.7833	-4.1813	-4.0333	-4.9729	-4.0167	-4.3604	-4.7417	-4.0188	-4.7896	-4.2479	-4.0083	-4.8854	-4.0021	249.809	207.618	186.967	41.917	223.359	313.571	200.980	-20.135	16.905	230.260	267.023	175.834	231.440	333.056	302.096	81.043	0.0001712	0.00031519	8.8914e-05	1343.6	3.2433e-06	2.9952e-06	1507.7	266.84	1.974e-06	3.3358e-06	348.87	95.608	73.111	21.237	2.4713e-06	30.557	6.6448e-05	6.2205e-05	1.7113e-05	1134.7	7.0911e-07	6.6046e-07	1275.6	226.84	6.904e-07	6.6132e-07	291.26	81.214	61.834	18.14	6.6289e-07	25.815	83.666	46.014	48.957	-15.519	104.095	100.850	-15.475	-8.330	91.791	114.095	-8.302	-1.378	-1.095	5.847	120.357	5.614	-8191	255	
19017.105	1	1	0	0	0.13996	0.082174	0.13009	0.23505	0.12887	0.24133	0.20172	0.034245	0.085968	0.11455	0.17481	0.15637	0.066364	0.15342	0.15274	0.2054	-3.7479	-4.8063	-3.7938	-4.6854	-4.3917	-3.9813	-4.7958	-4.1958	-4.1292	-4.7271	-3.8208	-4.5687	-4.6917	-3.8312	-4.6292	-4.2167	210.734	71.503	224.363	252.789	281.639	167.879	297.494	100.446	110.013	29.314	244.024	195.916	125.547	254.756	187.416	92.125	0.00010278	0.0002754	2.0539e-05	1344.1	9.6567e-07	3.232e-06	1500.9	267.65	4.6555e-06	2.1631e-06	347.71	96.061	73.145	21.179	2.509e-06	30.316	6.3108e-05	5.9072e-05	1.6501e-05	1134.8	6.6433e-07	6.5108e-07	1273.5	227.27	6.5678e-07	6.3887e-07	291.36	81.26	61.821	18.11	6.4856e-07	25.755	92.928	51.118	198.652	-15.474	197.429	125.308	-15.582	-8.181	151.427	82.656	-8.425	-1.780	-1.129	6.198	127.394	5.092	-8191	255	
19017.201	1	1	0	0	0.19827	0.16241	0.099648	0.099441	0.13318	0.066672	0.47821	0.11327	0.093859	0.11454	0.31428	0.079968	0.036384	0.089857	0.08279	0.093352	-3.7687	-4.675	-3.9562	-4.6042	-4.6104	-3.8208	-5.1062	-4.1604	-3.9583	-4.625	-3.9896	-4.3896	-4.6188	-3.7958	-4.7937	-4.3792	159.622	41.313	242.994	310.196	237.079	-23.712	276.976	127.990	28.073	-23.342	26.857	78.515	100.820	-13.116	145.936	-7.850	0.00018203	0.00023384	7.5201e-05	1337.8	4.4513e-06	1.372e-06	1503.5	266.3	2.1283e-06	9.9569e-07	349.66	96.374	73.269	21.233	5.2945e-06	30.206	6.5553e-05	5.9635e-05	1.6339e-05	1134.2	6.721e-07	6.6259e-07	1274.2	227.53	6.6035e-07	6.2612e-07	292.28	81.477	61.796	18.121	6.2811e-07	25.716	110.102	90.968	25.691	-15.472	87.422	65.199	-15.530	-8.416	117.532	93.525	-8.621	-1.354	-1.232	6.364	119.763	5.817	-8191	255	
19017.299	1	1	0	0	0.14725	0.10569	0.28146	0.29517	0.10305	0.14703	0.31354	0.021749	0.1928	0.14183	0.050708	0.21184	0.2768	0.048633	0.036708	0.06387	-3.5917	-4.9187	-4.0333	-4.4	-4.5333	-3.7458	-4.7667	-4.3958	-3.8896	-4.8396	-4.1042	-4.2146	-4.8625	-3.7417	-4.6208	-4.4375	258.771	165.981	224.773	325.753	38.885	129.868	288.152	63.173	181.180	147.811	235.086	174.432	6.424	230.776	191.491	-4.406	0.00024225	0.00014921	4.2134e-05	1334	1.5492e-06	2.0423e-06	1503.2	267.13	2.5177e-06	5.8503e-06	347.28	95.732	73.232	21.113	3.4401e-06	30.361	6.27e-05	5.725e-05	1.6203e-05	1131.4	6.5602e-07	6.2828e-07	1271.2	227.08	6.4768e-07	6.3508e-07	291.19	81.205	61.905	18.078	6.3752e-07	25.731	99.091	40.578	179.577	-15.441	132.241	64.461	-15.570	-8.212	127.369	136.492	-8.430	-1.493	-1.217	6.338	131.404	5.373	-8191	255	
19017.420	1	1	0	0	0.10962	0.13835	0.10702	0.22428	0.063481	0.16467	0.43621	0.15532	0.34971	0.0759	0.14179	0.1657	0.11822	0.32918	0.1304	0.14567	-3.6021	-4.7292	-4.1062	-4.3583	-4.6146	-3.7354	-4.7104	-4.5396	-3.6958	-4.7354	-4.2667	-4.0104	-4.7292	-3.8583	-4.3979	-4.5708	-3.038	278.156	94.842	302.726	130.551	53.908	249.096	16.770	107.654	229.238	233.411	15.407	10.731	-3.549	320.981	150.172	0.00016388	0.00012668	0.00012947	1332.6	3.3507e-06	1.1786e-06	1501.7	267.38	1.8408e-06	5.3756e-06	347.48	96.047	73.447	21.221	1.8371e-06	30.402	6.2756e-05	5.6536e-05	1.6298e-05	1131.2	6.5317e-07	6.3289e-07	1272.5	227.34	6.5183e-07	6.2949e-07	291.54	81.273	61.845	18.059	6.2954e-07	25.725	92.444	225.805	17.461	-15.593	131.206	84.325	-15.636	-8.113	59.872	98.886	-8.489	-1.441	-1.257	6.120	222.004	5.076	-8191	255	
19017.514	1	1	0	0	0.074951	0.11743	0.13299	0.084159	0.19782	0.2651	0.17324	0.22065	0.14687	0.29106	0.13287	0.016427	0.1412	0.20912	0.095318	0.087858	-3.5583	-4.6125	-4.2042	-4.1479	-4.8146	-4.0083	-4.475	-4.6562	-3.7979	-4.6646	-4.3562	-3.9896	-4.7396	-3.9146	-4.3542	-4.7146	129.590	62.284	167.388	251.923	-3.022	34.751	-21.107	296.957	221.690	52.354	277.718	331.878	259.730	143.094	72.157	174.358	0.00018344	0.00020515	9.2795e-05	1337.3	1.2467e-06	1.089e-06	1499.2	266.82	1.1426e-06	2.0405e-06	346.4	95.779	73.189	21.152	2.835e-06	30.146	6.1024e-05	5.4955e-05	1.559e-05	1130.5	6.0577e-07	6.0985e-07	1267.6	226.8	6.2388e-07	5.9836e-07	289.7	81.09	61.748	18.015	6.1752e-07	25.657	84.710	74.896	67.917	-15.744	101.139	184.924	-15.728	-8.377	203.520	70.973	-8.768	-1.975	-1.115	5.867	115.697	5.416	-8191	255	
19017.586	1	1	0	0	0.20213	0.16134	0.071292	0.1914	0.1395	0.15658	0.12053	0.28194	0.078323	0.15616	0.17138	0.052893	0.15451	0.21106	0.26938	0.092203	-3.5875	-4.5417	-4.375	-4.0333	-4.7542	-4.2021	-4.4187	-4.8854	-3.7521	-4.5104	-4.4083	-3.8937	-4.7271	-4.2896	-4.0083	-4.6875	263.815	215.825	23.000	323.377	265.397	109.317	199.695	262.626	75.022	4.104	202.113	238.810	-25.086	-16.365	295.783	249.980	0.0002045	0.00042085	8.6354e-05	1334.6	3.4763e-06	3.7189e-06	1496.7	266.77	1.6255e-06	1.8336e-06	347.99	95.811	72.915	21.162	3.8139e-06	30.336	6.1147e-05	5.7227e-05	1.5929e-05	1128.9	6.7075e-07	6.3205e-07	1269.1	226.73	6.61e-07	6.4751e-07	291.03	81.093	61.813	18.085	6.4279e-07	25.749	100.151	34.936	38.782	-15.575	87.983	116.461	-15.696	-8.187	140.819	83.474	-8.484	-1.703	-1.488	6.113	132.211	5.330	-8191	255	
19017.705	1	1	0	0	0.040101	0.028614	0.30012	0.12606	0.080498	0.013181	0.31052	0.17886	0.090289	0.13456	0.036132	0.18984	0.2693	0.14413	0.090947	0.24464	-3.475	-4.5813	-4.4833	-4.0333	-4.6021	-4.0229	-4.1542	-4.9729	-3.8354	-4.325	-4.6292	-3.9313	-4.8	-4.3333	-3.8292	-4.8083	21.573	218.685	9.201	274.861	182.519	116.460	304.206	203.835	115.826	9.501	239.750	238.899	263.295	189.943	23.533	41.619	0.00020262	0.00046834	5.3783e-05	1337	2.1892e-06	2.6422e-06	1497.9	266.07	1.2188e-06	3.1053e-06	349.12	96.005	73.545	21.313	2.5933e-06	30.139	6.246e-05	5.9063e-05	1.5897e-05	1129.9	6.4943e-07	6.2405e-07	1269.5	226.85	6.488e-07	6.2937e-07	290.77	81.061	61.744	18.103	6.2674e-07	25.649	101.466	27.983	-0.557	-15.773	94.986	95.764	-15.641	-8.155	133.901	85.328	-8.434	-1.458	-1.253	6.158	196.162	5.427	-8191	255	
19017.801	1	1	0	0	0.18678	0.15839	0.050423	0.18288	0.24503	0.21751	0.16639	0.29906	0.22769	0.071942	0.17235	0.11398	0.11713	0.15352	0.084376	0.25521	-3.5604	-4.1854	-4.6917	-3.7979	-4.6042	-4.3083	-4.0938	-4.925	-3.8604	-4.1792	-4.7438	-3.8479	-4.4062	-4.4146	-3.7021	-4.825	-1.714	133.805	196.580	316.665	172.379	60.234	274.644	207.981	145.250	151.872	285.049	323.433	283.707	4.109	42.231	302.940	0.00018434	0.00020441	0.00010541	1331.2	1.7817e-06	4.4691e-06	1504.4	265.88	2.1454e-06	3.0427e-06	347.88	95.77	73.636	20.983	7.8788e-07	30.274	6.0822e-05	5.4289e-05	1.5511e-05	1128.2	6.4747e-07	6.3588e-07	1271.1	227.28	6.649e-07	6.3742e-07	290.97	81.108	61.922	18.021	6.466e-07	25.703	99.122	43.524	52.654	-15.840	95.031	126.025	-15.746	-7.732	193.675	54.573	-8.640	-1.479	-1.104	5.991	221.329	5.497	-8191	255	
19017.898	1	1	0	0	0.28174	0.089565	0.25264	0.28999	0.10693	0.13837	0.18791	0.12397	0.12808	0.13234	0.16076	0.13226	0.22224	0.1337	0.079948	0.14964	-3.7229	-4.2229	-4.55	-4.0104	-4.6	-4.5188	-3.8688	-4.9646	-4.0958	-4.0708	-4.6667	-3.8771	-4.4854	-4.4396	-3.7833	-4.8375	255.100	-4.499	152.350	330.039	-15.165	166.879	268.371	180.085	231.091	295.431	31.884	77.112	297.876	234.755	38.707	330.839	0.00013519	0.00023513	3.4992e-05	1340.3	4.4122e-06	2.1562e-06	1501.6	268.86	2.0367e-06	2.3111e-06	348.84	95.343	73.33	21.262	3.1897e-06	30.244	6.6442e-05	5.9134e-05	1.6064e-05	1133.3	6.7365e-07	6.5298e-07	1271.2	227.72	6.7999e-07	6.4025e-07	291.18	81.025	61.849	18.152	6.5259e-07	25.754	80.728	64.098	155.452	-15.583	113.213	115.670	-15.417	-8.083	214.253	141.799	-8.150	-1.583	-1.116	6.008	109.429	5.400	-8191	255	
19018.018	1	1	0	0	0.068618	0.17477	0.16108	0.33782	0.14269	0.08383	0.1631	0.075376	0.2359	0.090051	0.081018	0.18631	0.034159	0.15484	0.21245	0.11723	-4.0437	-4.0625	-4.6188	-4.0604	-4.2833	-4.6604	-3.8521	-4.8354	-4.3417	-3.9938	-4.8458	-4.0062	-4.3438	-4.6833	-3.7542	-4.6146	237.048	54.003	110.176	-18.420	262.667	329.463	235.211	317.355	134.770	111.062	273.160	312.955	284.512	255.718	84.323	141.268	0.00018493	0.00025616	8.4361e-05	1336	1.4458e-06	2.3583e-06	1502.8	267.34	2.2627e-06	1.8895e-06	346.89	95.919	73.161	21.079	3.9583e-06	30.423	6.3247e-05	5.9102e-05	1.6145e-05	1131.8	6.644e-07	6.2515e-07	1271.8	227.38	6.3268e-07	6.2673e-07	290.09	81.311	61.676	18.079	6.3668e-07	25.795	84.333	15.617	58.587	-15.645	259.581	112.889	-15.806	-8.138	118.970	73.424	-8.256	-1.367	-1.608	5.933	138.704	5.683	-8191	255	
19018.113	1	1	0	0	0.24746	0.13203	0.14345	0.15869	0.17011	0.20201	0.12375	0.19635	0.15783	0.28068	0.26306	0.15922	0.22425	0.093992	0.068754	0.20523	-4.0062	-3.8333	-4.8292	-4.1917	-4.2354	-4.5938	-4.0042	-4.5604	-4.3417	-3.8146	-4.9333	-4.1708	-4.2188	-4.7583	-3.8979	-4.475	119.333	89.932	322.917	261.333	226.925	225.075	265.557	259.652	111.870	247.443	282.913	164.947	288.468	200.111	-17.350	223.915	0.00016275	0.00016426	9.3911e-05	1339.9	2.4401e-06	3.0142e-07	1505.2	267.1	1.8609e-06	2.7142e-06	348.45	95.529	73.378	21.183	4.1893e-06	30.528	6.3397e-05	5.6777e-05	1.5957e-05	1131.9	6.5758e-07	6.3441e-07	1274	227.35	6.3697e-07	6.2808e-07	291.29	81.124	61.841	18.099	6.5873e-07	25.788	81.448	39.827	68.575	-15.473	89.231	167.659	-15.308	-8.139	42.676	87.544	-8.294	-1.748	-1.354	6.337	108.538	5.347	-8191	255	
19018.186	1	1	0	0	0.18144	0.13843	0.26911	0.28453	0.1701	0.19464	0.2998	0.17785	0.14812	0.095204	0.23582	0.18586	0.2058	0.053883	0.20359	0.19385	-4.175	-3.9479	-4.8542	-4.1771	-4.0062	-4.8438	-4.1354	-4.4646	-4.5958	-3.7938	-4.725	-4.1333	-4.0917	-4.6542	-3.8292	-4.225	199.804	166.071	20.722	304.961	-8.251	180.302	230.863	233.037	123.280	75.171	267.666	19.267	199.472	290.910	138.638	305.387	0.00011313	5.6614e-05	3.7902e-05	1338.8	2.7322e-06	1.8366e-06	1494.9	266.56	4.1297e-06	5.6134e-06	347.21	95.399	72.476	21.377	1.312e-06	30.267	6.2827e-05	5.879e-05	1.6166e-05	1133.6	6.5606e-07	6.1797e-07	1269.7	227.28	6.6473e-07	6.4121e-07	290.62	81.253	61.681	18.144	6.6188e-07	25.776	89.879	46.358	-8.330	-15.677	190.765	62.999	-15.726	-8.105	120.887	120.555	-8.489	-1.671	-1.312	6.314	113.422	5.738	-8191	255	
19018.281	1	1	0	0	0.16127	0.084515	0.1311	0.145	0.074876	0.050899	0.24029	0.14145	0.20862	0.25226	0.1886	0.20151	0.22724	0.0326	0.22489	0.32117	-4.1438	-3.8521	-4.6687	-4.4292	-3.8625	-4.8417	-4.1333	-4.3063	-4.6646	-3.6729	-4.5875	-4.5	-3.7771	-4.7833	-3.9021	-4.1562	17.782	173.207	-8.161	277.094	332.473	162.047	297.343	95.607	111.404	204.360	211.022	196.523	324.600	252.594	126.548	257.156	0.00021658	0.00026178	0.00015409	1337.1	3.6302e-06	3.3329e-06	1496.8	267.45	2.6599e-06	2.88e-06	348.5	95.899	72.791	21.129	5.6792e-06	30.459	6.3412e-05	5.8897e-05	1.6188e-05	1131.7	6.615e-07	6.2735e-07	1270.8	227.4	6.6406e-07	6.3721e-07	291.43	81.378	61.664	18.091	6.3885e-07	25.817	89.656	45.786	42.081	-15.598	148.388	125.022	-15.647	-8.438	88.664	109.280	-8.463	-2.002	-1.590	5.506	127.617	5.128	-8191	255	
19018.379	1	1	0	0	0.078406	0.11846	0.15556	0.12054	0.10817	0.11336	0.43685	0.041619	0.27887	0.33539	0.16782	0.27159	0.052551	0.13518	0.11534	0.045573	-4.3479	-3.8104	-4.5563	-4.5354	-3.6979	-4.7479	-4.2771	-4.2083	-4.7292	-3.7042	-4.3146	-4.5771	-3.7521	-4.8708	-4.2562	-4.0354	228.984	113.361	243.152	-0.487	73.589	235.809	292.945	149.544	-0.182	90.701	303.046	310.051	-24.752	60.167	-9.957	148.556	0.00015724	0.00026453	0.00013178	1340.5	1.1287e-06	2.235e-06	1498.3	266.91	2.0726e-06	1.6436e-06	349.19	95.593	73.486	21.014	2.9312e-06	30.314	6.1617e-05	5.8837e-05	1.6426e-05	1133.8	6.7269e-07	6.24e-07	1271.8	227.39	6.5799e-07	6.4086e-07	291.13	81.332	61.95	18.062	6.4818e-07	25.708	99.209	27.089	51.980	-15.606	115.447	57.642	-15.681	-8.276	243.609	132.904	-8.554	-1.384	-1.524	6.184	150.431	4.826	-8191	255	
19018.496	1	1	0	0	0.10743	0.1534	0.27946	0.36297	0.063181	0.025687	0.19775	0.13747	0.09784	0.15584	0.08389	0.15263	0.1352	0.084941	0.15924	0.19404	-4.4708	-3.9896	-4.4417	-4.6792	-3.7333	-4.5771	-4.5229	-3.9979	-4.7896	-3.8667	-4.2063	-4.7083	-3.8438	-4.6083	-4.2646	-3.95	148.531	77.449	263.572	297.289	-12.238	137.764	313.499	-24.569	-22.400	107.114	186.904	121.634	266.188	328.074	320.714	177.521	0.0001584	0.00038401	0.00011623	1338.9	1.3344e-06	1.6909e-06	1500.2	266.57	1.5381e-06	1.3619e-06	349.99	96.047	73.256	21.121	3.3619e-06	30.3	6.3004e-05	5.8393e-05	1.6002e-05	1131.6	6.6246e-07	5.9912e-07	1271.2	227.5	6.3613e-07	6.4072e-07	291.94	81.302	61.81	18.046	6.4436e-07	25.809	93.305	24.127	74.554	-15.416	171.694	80.263	-15.534	-8.269	182.574	91.597	-8.901	-2.063	-1.742	6.321	104.660	5.028	-8191	255	
19018.594	1	1	0	0	0.2238	0.13396	0.067727	0.25259	0.16466	0.062279	0.26675	0.33876	0.12533	0.14898	0.28259	0.094535	0.25653	0.30601	0.10531	0.19499	-4.4604	-3.9958	-4.1292	-4.7729	-3.6813	-4.5583	-4.5875	-3.8625	-4.7646	-4.1062	-4.2479	-4.6979	-3.8771	-4.4854	-4.3688	-3.8979	240.511	191.831	245.008	266.696	301.769	237.031	231.599	-19.966	206.554	274.368	315.207	11.620	-3.046	188.077	80.052	-11.672	0.00021026	0.00025283	7.029e-05	1335.3	1.2556e-06	1.4942e-06	1505	267.76	2.5495e-06	2.5591e-06	347.46	95.617	73.747	21.169	4.609e-06	30.222	6.2581e-05	6.0445e-05	1.6273e-05	1132.1	6.792e-07	6.4617e-07	1272.6	227.87	6.6501e-07	6.4414e-07	291.5	81.261	61.962	18.098	6.3978e-07	25.799	85.839	50.023	35.691	-15.684	102.146	57.007	-15.323	-8.183	137.780	73.149	-8.307	-1.397	-0.924	5.990	156.766	5.444	-8191	255	
19018.689	1	1	0	0	0.24038	0.16358	0.037427	0.13015	0.077015	0.21896	0.084862	0.051743	0.14679	0.20147	0.21446	0.11174	0.1679	0.084044	0.073743	0.069861	-4.5021	-4.0792	-3.9813	-4.9042	-3.8458	-4.4271	-4.65	-3.9771	-4.6479	-4.1271	-3.8917	-4.7583	-3.9333	-4.4812	-4.6271	-3.7271	-15.322	11.872	-15.720	251.851	154.983	157.519	294.021	32.765	75.759	118.314	316.316	265.288	-23.130	308.711	218.213	51.680	0.00020403	0.00024666	0.00011884	1337.9	1.4e-06	1.8976e-06	1505.2	266.68	2.1241e-06	4.2013e-06	347.61	95.706	73.853	21.151	2.5929e-06	30.473	6.4598e-05	6.0917e-05	1.6303e-05	1133.2	6.923e-07	6.5213e-07	1272.6	227.49	6.7647e-07	6.4828e-07	291.2	81.23	62.049	18.142	6.6865e-07	25.809	73.229	-0.625	26.232	-15.586	101.374	171.002	-15.590	-8.160	181.118	62.960	-8.317	-1.506	-1.167	5.719	129.054	5.206	-8191	255	
19018.785	1	1	0	0	0.26156	0.10106	0.084176	0.1705	0.096534	0.087659	0.24966	0.094625	0.079218	0.088008	0.25973	0.080781	0.21696	0.19552	0.14248	0.13484	-4.4167	-4.2625	-3.9083	-5.0417	-3.9	-4.3146	-4.7917	-3.9521	-4.6562	-4.3	-4.1375	-4.9729	-4.0208	-4.2021	-4.6354	-3.8771	100.975	-9.534	39.032	295.774	0.524	314.592	259.153	224.686	207.255	-23.698	274.693	267.817	-6.055	47.673	85.272	297.200	0.00016248	0.00017443	0.00010478	1336.1	2.763e-06	2.9812e-06	1508.9	267.92	3.4018e-06	1.1535e-06	347.38	95.692	73.421	21.161	2.8418e-06	30.392	6.6844e-05	6.1855e-05	1.7296e-05	1134	7.0801e-07	6.5908e-07	1275.4	227.63	6.9567e-07	6.6206e-07	291.95	81.493	61.937	18.118	6.6235e-07	25.81	86.352	65.090	24.623	-15.434	92.268	131.925	-15.521	-8.268	115.450	121.920	-8.213	-1.362	-0.961	6.061	148.533	5.521	-8191	255	
19018.883	1	1	0	0	0.24188	0.15762	0.20776	0.17004	0.16057	0.20866	0.05376	0.29227	0.020242	0.12676	0.067684	0.09509	0.037727	0.15661	0.073688	0.17312	-4.2354	-4.4313	-3.8104	-4.9729	-4.0167	-4.1542	-4.9167	-3.8854	-4.3187	-4.6292	-4.0854	-4.8229	-4.1792	-4.2583	-4.8438	-3.9167	236.548	-7.416	28.103	329.452	311.249	138.271	102.000	278.224	53.664	313.529	231.026	111.453	170.251	226.188	216.929	220.567	0.00013917	0.00029529	8.4188e-05	1342.1	2.8308e-06	3.7066e-06	1509.3	266.83	3.0231e-06	2.0578e-06	346.54	96.329	73.199	21.077	3.9133e-06	30.494	6.4958e-05	6.0603e-05	1.6779e-05	1134.8	6.9709e-07	6.4393e-07	1275	227.23	6.8963e-07	6.7634e-07	291.47	81.538	61.931	18.133	6.6765e-07	25.868	96.094	74.673	20.603	-15.655	122.822	113.130	-15.392	-8.276	97.131	140.638	-8.353	-1.417	-1.181	5.932	150.470	5.653	-8191	255	
19018.979	1	1	0	0	0.25311	0.21685	0.20025	0.15912	0.14748	0.020704	0.31858	0.26558	0.06707	0.14204	0.06689	0.13064	0.35618	0.21435	0.10736	0.35936	-3.95	-4.575	-3.8021	-5	-4.1771	-3.9979	-4.9521	-3.9583	-4.2542	-4.5437	-3.9958	-4.7708	-4.2729	-4.0167	-4.8021	-4.0646	259.587	152.931	134.615	333.028	203.818	40.073	253.283	330.697	268.992	9.968	294.284	95.663	299.387	318.010	-8.533	325.409	0.00020614	0.00045771	8.5972e-05	1338.1	2.1528e-06	9.6053e-07	1504.9	267.41	2.991e-06	2.8034e-06	348.71	95.939	73.115	21.143	1.0956e-06	30.575	6.7589e-05	6.1418e-05	1.7151e-05	1135	7.0092e-07	6.7704e-07	1276	227.66	6.9198e-07	6.6176e-07	292.07	81.289	61.896	18.145	6.4562e-07	25.872	83.185	44.122	54.948	-15.593	122.241	71.534	-15.667	-8.268	94.979	107.004	-8.494	-1.469	-1.204	5.262	160.873	4.993	-8191	255	
19019.100	1	1	0	0	0.095555	0.083526	0.15811	0.19993	0.10249	0.043511	0.33829	0.19676	0.17447	0.060033	0.20923	0.060535	0.32872	0.13866	0.19399	0.14741	-3.8792	-4.7104	-3.775	-4.7792	-4.3292	-3.9146	-5.0708	-4.0646	-4.2271	-4.7792	-3.9313	-4.5896	-4.5958	-3.8187	-4.6604	-4.1062	227.487	310.977	107.139	-21.106	145.032	125.321	259.972	287.438	76.029	151.693	270.188	128.868	-18.944	-25.772	318.383	68.044	0.00015412	0.00035095	0.00011792	1342.5	1.6015e-06	1.9538e-06	1505.6	267.34	2.0531e-06	3.3435e-06	349.88	95.805	73.5	21.173	1.9476e-06	30.124	6.4217e-05	5.8858e-05	1.6811e-05	1135.1	6.8576e-07	6.4797e-07	1273.9	227.48	6.5325e-07	6.315e-07	292.64	81.26	61.886	18.141	6.4195e-07	25.739	88.713	30.688	24.288	-15.516	119.145	139.234	-15.480	-8.488	143.955	90.987	-8.032	-1.453	-1.084	5.766	165.630	5.519	-8191	255	
19019.195	1	1	0	0	0.19194	0.26263	0.27288	0.22586	0.13608	0.17653	0.29668	0.1783	0.11187	0.22211	0.23425	0.28568	0.034195	0.22946	0.21446	0.20461	-3.9604	-4.8396	-3.7583	-4.5542	-4.5708	-3.825	-4.9208	-4.3167	-4.0667	-4.7354	-3.9313	-4.3354	-4.7708	-3.9333	-4.7042	-4.3979	15.873	186.350	279.237	44.493	313.949	239.435	266.659	22.527	210.932	99.817	248.932	-10.857	40.689	313.847	1.186	203.034	0.00014323	0.00014387	3.2348e-05	1342.4	1.37e-06	4.8727e-06	1492.8	265.26	3.8995e-06	4.731e-06	347.5	95.81	73.345	21.402	5.2133e-06	30.269	6.1463e-05	5.5921e-05	1.585e-05	1135.7	6.4038e-07	6.3226e-07	1270.4	226.77	6.533e-07	6.3461e-07	291.41	81.387	61.771	18.223	6.2923e-07	25.777	92.583	39.606	32.977	-15.410	120.593	76.711	-15.367	-7.884	81.924	105.598	-8.004	-1.863	-1.297	5.398	142.842	5.329	-8191	255	
19019.291	1	1	0	0	0.10661	0.10137	0.11022	0.25107	0.1667	0.12748	0.24776	0.11071	0.047589	0.12788	0.24655	0.12906	0.051014	0.38936	0.098399	0.15258	-3.8312	-4.9729	-3.9208	-4.5062	-4.5625	-3.8167	-4.8958	-4.4479	-3.9	-4.9187	-4.1937	-4.1979	-4.7812	-3.8	-4.6229	-4.4771	316.387	133.219	194.263	326.159	-19.980	314.876	223.258	244.015	81.526	26.949	316.248	256.047	37.522	318.999	318.487	152.880	0.00023604	0.00026148	5.7911e-05	1342.7	2.0483e-06	1.2588e-06	1497.4	266.26	1.852e-06	2.9229e-06	345.59	95.977	73.515	21.185	1.7545e-06	30.326	6.337e-05	5.6179e-05	1.6141e-05	1133.4	6.5238e-07	6.3527e-07	1273.1	227.42	6.3823e-07	6.1006e-07	291.13	81.277	61.828	18.128	6.2767e-07	25.767	102.979	82.209	62.700	-15.716	79.839	99.016	-15.404	-7.936	157.591	120.661	-8.183	-1.608	-1.257	6.135	122.911	5.565	-8191	255	
19019.387	1	1	0	0	0.21987	0.16566	0.19615	0.11695	0.13106	0.097522	0.1387	0.25993	0.29934	0.25496	0.28196	0.12861	0.025053	0.32129	0.042298	0.12131	-3.4688	-4.7979	-3.9771	-4.4313	-4.6708	-3.8646	-4.725	-4.5708	-3.7375	-4.8354	-4.3271	-4.2354	-4.8708	-3.9125	-4.4812	-4.5708	49.323	225.767	92.299	283.247	162.414	87.233	305.124	295.096	65.538	232.083	-25.237	17.685	216.534	266.388	142.110	234.753	0.00021469	0.00026795	9.1247e-05	1334.4	2.8486e-06	1.5407e-06	1497.8	266.6	1.7061e-06	2.1304e-06	347.84	95.579	73.773	21.157	2.4311e-06	30.308	6.2221e-05	5.6051e-05	1.6009e-05	1131.3	6.4607e-07	6.2031e-07	1270.7	227.65	6.4339e-07	6.2574e-07	291.7	81.133	61.937	18.087	6.2302e-07	25.723	89.948	306.639	63.405	-15.523	95.642	112.182	-15.503	-8.104	176.704	107.038	-8.256	-1.659	-1.379	6.213	100.614	5.781	-8191	255	
19019.482	1	1	0	0	0.11552	0.085849	0.18297	0.28904	0.060553	0.057751	0.19166	0.25878	0.14999	0.059691	0.13622	0.10149	0.17189	0.041165	0.16337	0.28002	-3.5667	-4.6771	-4.1646	-4.1583	-4.6937	-3.9375	-4.5208	-4.6667	-3.7458	-4.7521	-4.3521	-3.9875	-4.7188	-3.9354	-4.1562	-5.0042	66.818	175.565	-16.520	302.801	52.355	-16.073	291.629	326.161	129.265	273.318	61.970	45.828	256.622	128.888	329.990	22.906	0.00019092	0.00026878	9.3439e-05	1333	4.0531e-06	1.7363e-06	1498.4	268.07	1.5106e-06	3.3507e-06	348.46	95.971	73.138	21.029	2.5128e-06	30.266	6.1513e-05	5.6723e-05	1.5642e-05	1131.5	6.2933e-07	6.1306e-07	1272.2	227.75	6.3445e-07	6.0435e-07	291.79	81.281	61.876	18.089	6.2302e-07	25.771	93.261	61.118	39.413	-15.628	103.462	146.151	-15.414	-8.050	234.161	113.629	-8.370	-1.616	-1.180	6.108	123.213	5.595	-8191	255	
19019.578	1	1	0	0	0.12971	0.03743	0.14227	0.12522	0.032144	0.069202	0.2314	0.02439	0.11714	0.10452	0.25238	0.076227	0.031175	0.12691	0.090748	0.087884	-3.3646	-4.6542	-4.3083	-4.0563	-5.0104	-4.2479	-4.4958	-4.8833	-3.6813	-4.65	-4.5229	-3.7896	-4.8458	-4.0208	-3.9333	-4.6625	51.977	222.322	270.103	300.784	240.214	277.708	264.755	131.314	190.522	58.337	-23.222	258.381	151.802	16.640	107.212	72.979	0.00020453	0.00033879	1.48e-05	1339.5	1.9522e-06	4.2224e-06	1492.4	269.09	3.9829e-06	4.2395e-06	350.52	96.046	73.429	21.174	3.484e-06	30.351	6.1738e-05	5.6358e-05	1.6116e-05	1133.4	6.5709e-07	6.3789e-07	1271.1	227.62	6.7334e-07	6.2209e-07	292.82	81.45	61.836	18.097	6.3973e-07	25.74	88.865	33.839	125.963	-15.441	29.363	132.139	-15.697	-7.909	106.931	104.049	-8.253	-1.746	-1.028	6.248	182.978	5.045	-8191	255	
19019.674	1	1	0	0	0.14791	0.079689	0.05751	0.2323	0.12753	0.14762	0.14951	0.057809	0.09831	0.24668	0.10475	0.059438	0.05604	0.049208	0.10883	0.33465	-3.4688	-4.5229	-4.2604	-3.9229	-4.6854	-4.1813	-4.2083	-4.8625	-3.8187	-4.3479	-4.6	-3.9	-4.6208	-4.3604	-4.0083	-4.8896	177.116	28.418	330.885	324.452	124.765	43.845	248.920	184.533	307.162	325.547	113.016	299.086	58.169	114.219	247.658	40.949	0.00018458	0.00028996	5.1311e-05	1338.6	1.9716e-06	2.5227e-06	1506.7	268.05	1.1681e-06	2.1198e-06	347.16	96.685	73.708	21.2	3.4355e-06	30.566	6.3967e-05	5.6689e-05	1.5811e-05	1133	6.5009e-07	6.3146e-07	1275.4	227.61	6.6238e-07	6.341e-07	291.43	81.519	62.024	18.112	6.5841e-07	25.927	87.650	61.633	118.506	-15.577	143.563	140.679	-15.674	-7.917	52.129	110.354	-8.365	-1.467	-1.329	5.992	135.903	5.313	-8191	255	
19019.795	1	1	0	0	0.19366	0.1574	0.2729	0.12439	0.11456	0.093318	0.089499	0.12227	0.10194	0.14923	0.029662	0.13871	0.13493	0.063568	0.18349	0.099292	-3.4688	-4.3167	-4.7104	-4.025	-4.5667	-4.1042	-4.1312	-4.8708	-3.9104	-4.2729	-4.6813	-3.7833	-4.5854	-4.5104	-3.8354	-4.9104	4.905	240.173	48.297	27.624	44.760	271.274	288.862	-6.981	85.894	251.285	125.767	321.057	59.819	324.025	69.244	254.104	0.00017962	0.00013814	2.9533e-05	1340.6	3.8079e-06	2.1527e-06	1509.1	267.08	3.263e-06	4.2233e-06	349.44	95.075	74.204	21.241	3.3485e-06	30.46	6.4117e-05	5.9479e-05	1.7068e-05	1134.4	6.9013e-07	6.7833e-07	1276.9	227.52	7.0792e-07	6.711e-07	292.63	81.236	62.143	18.232	7.0259e-07	25.862	95.896	329.938	14.485	-15.433	121.859	72.053	-15.708	-7.885	182.963	59.816	-8.478	-1.857	-1.198	6.658	188.074	5.853	-8191	255	
19019.891	1	1	0	0	0.060575	0.38266	0.13375	0.22902	0.14265	0.13971	0.20682	0.15185	0.2372	0.22196	0.23777	0.036471	0.13152	0.04206	0.037151	0.071119	-3.6875	-4.1312	-4.6396	-3.9354	-4.5646	-4.5062	-4.0583	-4.9187	-4.1417	-4.0208	-4.9542	-3.9625	-4.4271	-4.6896	-3.8542	-4.6521	172.045	31.485	29.814	261.600	71.954	224.997	319.144	0.093	277.324	60.948	189.325	129.274	111.435	25.508	-21.474	253.620	0.00019457	0.0002892	0.00011011	1343	1.9399e-06	3.4919e-06	1495.4	268.74	1.2155e-06	1.9827e-06	348.22	96.362	74.122	21.226	1.9101e-06	30.36	6.797e-05	6.3718e-05	1.7609e-05	1135	7.0633e-07	6.794e-07	1273.7	228.6	7.2283e-07	6.9055e-07	292.71	81.585	62.21	18.201	7.238e-07	25.884	70.534	122.551	54.591	-15.631	144.453	78.003	-15.517	-7.855	2.608	81.873	-8.227	-1.699	-1.350	6.313	146.767	5.358	-8191	255	
19019.986	1	1	0	0	0.20545	0.30565	0.098655	0.20395	0.079173	0.14688	0.39066	0.019354	0.28287	0.20072	0.22634	0.086378	0.043442	0.085496	0.2356	0.13001	-3.8	-4.1458	-4.8792	-4.0437	-4.4771	-4.4938	-4.2	-4.75	-4.2063	-3.7625	-4.8854	-3.8937	-4.1667	-4.6958	-3.7021	-4.6521	296.371	28.683	313.970	-1.914	15.682	4.187	304.838	147.145	115.081	221.728	246.366	127.881	127.330	63.152	127.336	288.530	0.00020504	0.00040822	0.00010779	1344	2.3092e-06	2.53e-06	1504.5	268.04	3.4787e-07	1.382e-06	351.5	95.913	73.552	21.416	2.3164e-06	30.257	7.3015e-05	6.8856e-05	1.9343e-05	1136.6	7.6461e-07	7.4617e-07	1276.3	228.41	7.8538e-07	7.7714e-07	293.91	81.695	62.29	18.246	7.6994e-07	25.89	92.484	49.359	-6.649	-15.571	144.914	101.925	-15.473	-8.214	79.018	114.429	-8.203	-1.637	-1.573	6.052	93.922	5.469	-8191	255	
19020.059	1	1	0	0	0.11147	0.15021	0.1522	0.17986	0.29905	0.020426	0.55573	0.094352	0.1637	0.21867	0.11439	0.15458	0.04641	0.074094	0.14972	0.14609	-4.1083	-3.7583	-4.7896	-4.1792	-4.2667	-4.6333	-4.0229	-4.5354	-4.4208	-3.8458	-5.0146	-4.0146	-4.125	-4.6729	-3.6042	-4.4917	7.884	27.576	123.302	189.026	208.680	254.176	272.430	331.175	99.517	124.408	279.283	232.353	14.175	149.223	277.519	284.214	0.00017535	0.0002662	0.00011366	1347.5	8.9055e-07	7.2044e-07	1503.5	267.68	2.1264e-06	2.6645e-06	350.26	95.453	73.407	21.345	3.9406e-06	30.479	7.2954e-05	6.8093e-05	1.9194e-05	1140	7.7404e-07	7.3686e-07	1277.3	228.47	7.4476e-07	7.2207e-07	293.15	81.496	62.304	18.267	7.3325e-07	25.981	73.664	57.615	77.120	-15.441	329.457	144.652	-15.524	-8.240	109.529	148.962	-7.970	-1.692	-0.783	6.213	90.843	5.401	-8191	255	
19020.180	1	1	0	0	0.24763	0.11681	0.19262	0.12948	0.11001	0.23136	0.082835	0.27067	0.091221	0.19893	0.24705	0.21677	0.14561	0.14592	0.12615	0.20538	-4.1229	-3.8583	-4.8229	-4.1771	-3.9437	-4.6708	-4.1271	-4.4792	-4.6083	-3.85	-4.7104	-4.325	-3.9833	-4.8292	-3.8688	-4.2708	281.547	32.403	-16.633	319.470	44.097	255.316	-10.939	308.945	155.303	-23.461	310.128	308.667	-25.509	15.981	76.959	211.440	0.00018661	0.00020027	9.9237e-05	1344.4	2.5875e-06	1.906e-06	1512.6	268.21	1.6733e-06	2.893e-06	350.96	96.206	73.388	21.249	4.5771e-06	30.175	7.1495e-05	6.6147e-05	1.8597e-05	1139.4	7.8534e-07	7.2837e-07	1279	228.93	7.5743e-07	7.4442e-07	293.49	81.717	62.298	18.205	7.66e-07	25.913	71.926	61.149	98.294	-15.338	137.111	96.441	-15.656	-8.247	98.046	87.299	-8.308	-1.296	-1.277	6.446	116.344	5.162	-8191	255	
19020.275	1	1	0	0	0.11295	0.23762	0.096701	0.18136	0.23786	0.10731	0.1992	0.02306	0.14299	0.15534	0.10424	0.19499	0.13583	0.081151	0.17779	0.18139	-4.25	-3.6375	-4.5458	-4.2812	-3.9833	-4.7771	-4.0687	-4.3542	-4.6125	-3.7583	-4.8167	-4.3896	-3.9146	-4.7812	-3.9792	-4.1208	95.999	326.140	7.560	293.690	122.953	55.015	284.047	6.091	283.112	69.521	284.833	-7.517	244.325	51.698	306.432	105.392	0.00021922	0.00027499	7.604e-05	1332	2.691e-06	2.5712e-06	1500.5	268.82	1.9504e-06	1.157e-06	349.13	95.657	73.106	21.154	3.8035e-06	30.319	7.2238e-05	6.9055e-05	1.9058e-05	1136	7.8817e-07	7.3768e-07	1276.8	228.82	7.6323e-07	7.6005e-07	293.56	81.644	62.125	18.182	7.5237e-07	25.895	91.264	30.244	15.168	-15.602	79.377	95.977	-15.354	-8.025	181.492	78.361	-8.412	-1.622	-1.689	6.449	177.818	5.200	-8191	255	
19020.371	1	1	0	0	0.11237	0.071548	0.14272	0.085233	0.12248	0.087631	0.2085	0.22559	0.033225	0.15287	0.2623	0.21983	0.373	0.069418	0.32751	0.18247	-4.4979	-3.8167	-4.6792	-4.6208	-3.9417	-4.8875	-4.3417	-4.1458	-4.6104	-3.7938	-4.5375	-4.6417	-4.0104	-4.6937	-4.1354	-3.9229	321.341	224.911	96.666	317.033	141.022	243.864	290.379	303.212	70.807	302.998	260.118	251.913	320.705	201.009	19.960	3.443	0.00017634	0.00026062	7.5389e-05	1337.5	2.961e-06	3.3285e-06	1502.9	267.75	4.0581e-06	3.7916e-06	346.8	95.835	73.254	21.132	5.9806e-06	30.437	7.4153e-05	6.9351e-05	1.9403e-05	1137.7	7.9554e-07	7.4923e-07	1277.9	228.7	7.7553e-07	7.7234e-07	293.04	81.763	62.249	18.239	7.6371e-07	25.913	86.228	79.278	68.418	-15.393	86.433	131.332	-15.522	-8.223	149.241	44.585	-7.981	-1.360	-1.418	6.053	125.365	5.600	-8191	255	
19020.467	1	1	0	0	0.18772	0.32536	0.18718	0.21104	0.1316	0.26553	0.26211	0.17353	0.0068587	0.043122	0.062016	0.096218	0.16831	0.075104	0.13927	0.24961	-4.5062	-3.7896	-4.2771	-4.7271	-3.8479	-4.7646	-4.5188	-4.0146	-4.7688	-3.9813	-4.3667	-4.8333	-3.7188	-4.6542	-4.2042	-3.8875	236.079	3.981	48.261	11.240	254.639	169.715	235.466	235.553	237.900	58.571	317.300	-20.081	83.659	74.546	196.492	252.778	0.00016279	0.00022801	8.9382e-05	1339	3.1921e-06	2.5072e-06	1497.8	266.62	8.2993e-07	2.4022e-06	347.89	95.55	72.97	21.1	3.1499e-06	30.222	7.3749e-05	6.9929e-05	1.9339e-05	1136.4	7.9438e-07	7.3999e-07	1276.5	228.76	7.6009e-07	7.4919e-07	293.17	81.575	62.009	18.233	7.4677e-07	25.903	90.968	47.474	-1.022	-15.381	167.156	41.233	-15.331	-8.034	22.256	83.546	-7.945	-1.404	-1.257	6.124	133.848	5.602	-8191	255	
19020.586	1	1	0	0	0.16844	0.057154	0.047772	0.07735	0.053563	0.17972	0.14963	0.08997	0.11841	0.1419	0.1084	0.091058	0.23844	0.14636	0.19715	0.076134	-4.5979	-3.7917	-4.1875	-4.8125	-3.6875	-4.5354	-4.5771	-3.9688	-4.7646	-4.1042	-4.2292	-4.7333	-3.9562	-4.6604	-4.5188	-3.6354	92.832	318.315	-4.116	298.585	99.575	93.103	310.884	176.934	173.902	281.819	315.487	240.836	285.212	75.066	237.432	20.503	0.00021602	7.4204e-05	6.3121e-05	1340.3	2.687e-06	1.9027e-06	1495.4	267.9	2.201e-06	1.7134e-06	346.47	95.304	72.669	21.203	2.3706e-06	30.327	7.0852e-05	6.6994e-05	1.8779e-05	1139.1	7.5235e-07	7.1803e-07	1275.8	228.47	7.4562e-07	7.3199e-07	292.9	81.575	62.139	18.192	7.5293e-07	25.824	74.515	29.496	18.763	-15.521	125.964	112.747	-15.497	-7.847	163.794	143.664	-8.267	-1.589	-1.181	5.984	150.043	5.215	-8191	255	
19020.682	1	1	0	0	0.0331	0.093546	0.083763	0.34376	0.35727	0.20242	0.27111	0.19313	0.11893	0.095165	0.22329	0.17842	0.28158	0.080693	0.060007	0.056161	-4.4583	-4.0208	-4.0271	-4.8771	-3.7417	-4.3646	-4.7312	-3.9188	-4.6875	-4.2125	-3.9875	-4.9167	-3.8792	-4.3812	-4.5854	-3.9417	32.928	324.646	256.671	273.598	79.264	267.064	253.624	253.312	232.524	73.645	325.652	-20.698	314.429	293.995	117.094	57.612	0.000151	0.00030154	7.9004e-05	1335.8	1.4084e-06	1.7646e-06	1502.4	267.07	2.4444e-06	3.0894e-06	347.17	95.732	73.007	20.99	4.289e-06	30.268	7.2301e-05	6.8741e-05	1.9075e-05	1139.4	7.8172e-07	7.4411e-07	1279.1	228.51	7.5649e-07	7.6806e-07	292.74	81.722	62.29	18.228	7.6532e-07	25.924	95.274	0.434	44.597	-15.435	155.455	96.360	-15.229	-8.014	135.328	132.899	-8.685	-1.474	-1.032	5.644	109.392	5.520	-8191	255	
19020.779	1	1	0	0	0.036693	0.076934	0.30555	0.11904	0.24984	0.10511	0.24423	0.26445	0.10439	0.11038	0.13022	0.11395	0.31854	0.089209	0.18746	0.11879	-4.4542	-4.2688	-3.9167	-4.9688	-3.9354	-4.1354	-4.8104	-3.7771	-4.6604	-4.0958	-3.8646	-4.7208	-3.9917	-4.1813	-4.6625	-3.8833	68.382	27.914	254.298	-24.080	11.887	285.202	273.035	262.819	303.340	132.926	223.306	74.544	270.956	192.820	139.374	310.635	0.00016777	0.00037904	0.00010002	1333.2	1.8519e-06	2.441e-06	1493.5	264.82	3.0496e-06	5.9113e-06	347.39	94.926	73.309	21.152	5.2116e-06	30.16	7.5964e-05	7.1096e-05	1.9559e-05	1137.4	8.2461e-07	7.9174e-07	1278	228.1	7.9625e-07	7.9977e-07	293.38	81.73	62.367	18.22	7.9351e-07	25.887	80.816	14.515	30.110	-15.471	100.701	89.795	-15.322	-8.135	154.791	79.574	-8.517	-1.234	-1.279	6.421	126.193	5.167	-8191	255	
19020.875	1	1	0	0	0.18505	0.30953	0.20868	0.23784	0.18842	0.054743	0.30326	0.13467	0.068029	0.11811	0.27341	0.30431	0.23942	0.2473	0.17942	0.24069	-4.2542	-4.4583	-3.8354	-4.8229	-4.0833	-4.0667	-5.0292	-3.7729	-4.4729	-4.5979	-3.7604	-4.8125	-4.1771	-4.1438	-4.75	-3.8271	256.433	35.267	111.887	328.426	15.096	292.662	265.579	-11.469	73.114	330.451	194.154	333.942	240.008	307.842	16.413	297.683	0.00030768	0.00029136	5.5659e-05	1332.7	4.2207e-07	3.7041e-07	1499.3	266.79	1.9856e-06	2.55e-06	345.07	95.347	73.56	21.106	2.2997e-06	30.046	7.7094e-05	7.3449e-05	2.0417e-05	1139.4	8.2872e-07	7.7886e-07	1280.4	228.89	8.2214e-07	8.0014e-07	293.63	82.045	62.412	18.273	8.3055e-07	25.899	106.296	82.219	22.722	-15.420	76.587	139.783	-15.283	-7.914	191.260	88.022	-8.522	-1.343	-1.203	5.962	70.987	5.600	-8191	255	
19020.971	1	1	0	0	0.12512	0.14587	0.089904	0.24306	0.4206	0.079804	0.070365	0.12329	0.1089	0.14924	0.24232	0.14332	0.29279	0.23139	0.16224	0.22116	-4.1146	-4.4375	-3.5812	-4.8833	-4.1396	-3.9667	-4.9812	-3.8771	-4.3562	-4.5958	-3.8604	-4.6854	-4.3625	-3.9042	-4.9146	-4.0813	41.504	291.798	79.881	-4.760	300.227	84.908	219.020	-23.144	327.957	31.891	52.852	301.429	-23.911	287.657	300.922	328.299	0.0002052	0.00013811	0.00011553	1336.8	3.1029e-06	3.8347e-06	1495.1	265.22	3.0864e-06	2.1793e-06	347.06	95.044	73.413	21.093	6.5271e-06	30.255	7.8595e-05	7.5938e-05	2.1578e-05	1141.6	8.527e-07	8.1709e-07	1281.9	228.74	8.5352e-07	8.1678e-07	294.14	81.925	62.515	18.296	8.0474e-07	25.904	80.858	101.225	15.366	-15.269	108.327	56.809	-15.315	-7.815	162.408	158.321	-8.232	-1.528	-1.639	5.465	120.941	5.343	-8191	255	
19021.066	1	1	0	0	0.12166	0.093916	0.14027	0.36559	0.12685	0.10998	0.31974	0.076675	0.031717	0.087155	0.099347	0.24755	0.16811	0.011448	0.14348	0.077542	-3.8271	-4.6792	-3.725	-4.8438	-4.4729	-3.8833	-5.0292	-4.1062	-4.2063	-4.6458	-3.5979	-4.6708	-4.5375	-3.7687	-4.7542	-4.0521	292.421	21.786	168.443	316.138	299.097	99.437	22.908	205.103	186.806	112.395	318.366	-20.419	257.279	32.336	288.582	305.878	0.00025784	0.00042237	0.00011161	1338.8	2.4649e-06	2.8657e-06	1498.2	266.89	1.7223e-06	1.2753e-06	348.34	95.718	73.748	21.248	2.514e-06	30.132	7.6122e-05	7.1627e-05	1.9518e-05	1141.8	8.018e-07	7.6214e-07	1280.4	228.81	7.7812e-07	7.7845e-07	294.09	81.939	62.638	18.283	7.702e-07	26.002	92.273	74.633	19.864	-15.546	169.455	123.151	-15.437	-8.195	145.299	62.585	-8.136	-1.566	-1.020	6.120	113.431	5.592	-8191	255	
19021.188	1	1	0	0	0.10648	0.05929	0.045321	0.21856	0.18878	0.15373	0.12137	0.058733	0.10163	0.078991	0.16893	0.18959	0.039183	0.15873	0.24809	0.041172	-3.5583	-4.65	-3.6479	-4.6021	-4.5979	-3.7521	-4.8583	-4.1771	-3.8354	-4.7604	-3.9167	-4.4354	-4.7	-3.8792	-4.6292	-4.2125	184.879	5.229	59.623	260.044	279.261	225.782	134.367	263.362	191.132	283.349	32.685	252.779	274.176	255.853	288.752	253.475	0.00024814	0.00019518	6.3694e-05	1347.9	1.1426e-06	1.4934e-06	1508	267.15	2.3269e-06	1.9179e-06	347.43	96.245	72.918	21.057	7.8355e-07	30.356	7.683e-05	6.8651e-05	1.9284e-05	1147.3	7.8929e-07	7.7846e-07	1284.9	229.01	7.8958e-07	7.6513e-07	294.06	81.85	62.438	18.236	7.6301e-07	26.01	66.451	57.381	84.407	-15.533	18.860	98.895	-15.439	-7.575	86.522	74.538	-8.214	-1.436	-1.097	5.579	139.731	5.682	-8191	255	
19021.283	1	1	0	0	0.096124	0.086328	0.15729	0.098034	0.08544	0.19492	0.087013	0.13616	0.13564	0.081895	0.26466	0.10268	0.339	0.31864	0.22727	0.18806	-3.7812	-4.7562	-3.7896	-4.4271	-4.7604	-3.6583	-4.8083	-4.3583	-3.8937	-4.8458	-3.9271	-4.2854	-4.7188	-3.825	-4.7146	-4.3688	142.790	325.021	74.344	299.523	210.234	52.235	303.824	267.456	190.261	279.613	-20.195	251.686	55.074	15.016	1.069	267.979	0.0001553	0.0002507	3.6999e-05	1343.6	5.0889e-06	1.5016e-06	1494.8	267.85	3.8736e-06	3.6024e-06	346.91	96.079	73.33	21.37	3.1691e-06	30.477	7.509e-05	6.8993e-05	1.9909e-05	1142.7	7.9956e-07	7.6826e-07	1281.8	229.32	7.972e-07	7.9712e-07	294.18	81.997	62.505	18.345	7.7788e-07	25.998	92.911	16.465	310.726	-15.297	84.328	62.785	-15.432	-8.052	114.351	147.578	-8.436	-1.264	-1.002	6.007	120.612	5.441	-8191	255	
19021.355	1	1	0	0	0.39729	0.2107	0.15738	0.39273	0.032309	0.086851	0.19425	0.21657	0.20497	0.14024	0.22616	0.26083	0.16845	0.035463	0.057299	0.10949	-3.5542	-4.7896	-4.0062	-4.2854	-4.7688	-3.8167	-4.6438	-4.7417	-3.9521	-4.7146	-4.1104	-4.0354	-4.7833	-3.85	-4.5021	-4.6771	329.374	34.951	269.356	322.441	214.986	144.615	310.301	265.319	162.327	34.487	206.511	256.768	-15.074	226.976	115.648	333.970	0.00018982	0.00035427	5.253e-05	1350.6	3.7465e-06	7.171e-08	1514	268.85	7.6267e-07	2.0932e-06	349.57	96.545	73.956	21.298	8.4633e-07	30.495	7.5292e-05	6.9306e-05	1.9758e-05	1144.3	7.788e-07	7.743e-07	1285.5	229.44	7.9954e-07	7.5696e-07	294.83	81.944	62.54	18.26	7.7281e-07	26.024	92.410	37.968	118.230	-15.550	123.214	117.684	-15.529	-7.909	93.864	89.539	-8.371	-1.618	-0.918	6.027	175.801	5.483	-8191	255	
19021.475	1	1	0	0	0.12562	0.24624	0.06393	0.12267	0.35336	0.021432	0.16355	0.18358	0.26934	0.032517	0.18906	0.05035	0.16643	0.14386	0.13564	0.082298	-3.35	-4.7771	-4.2042	-4.2	-4.7812	-3.9229	-4.6562	-4.6042	-3.725	-4.7396	-4.3521	-3.9688	-4.7188	-3.8604	-4.2146	-4.7021	28.735	290.437	255.524	214.619	23.991	230.888	236.545	282.862	253.923	194.782	333.645	238.164	216.152	315.343	19.518	5.136	0.00015794	0.00020046	4.3109e-05	1350.9	1.4971e-06	3.0455e-06	1511.6	268.59	1.0162e-06	5.1752e-06	348.66	96.68	74.217	21.25	2.0937e-06	30.602	7.5773e-05	6.8099e-05	1.9884e-05	1144.9	7.7901e-07	7.6768e-07	1284.7	229.9	7.8031e-07	7.8074e-07	293.8	82.089	62.735	18.277	7.7617e-07	26.052	95.703	28.002	35.772	-15.676	110.969	155.054	-15.627	-7.655	327.200	82.787	-8.424	-1.658	-1.217	5.950	119.776	4.866	-8191	255	
19021.570	1	1	0	0	0.17042	0.25092	0.14224	0.070049	0.07979	0.1053	0.079071	0.16183	0.10028	0.17989	0.083198	0.24557	0.11574	0.11264	0.12697	0.28187	-3.4333	-4.7479	-4.3063	-3.925	-4.7562	-3.9646	-4.3646	-4.7625	-3.5854	-4.4083	-4.5396	-3.8417	-4.6833	-4.0854	-4.0312	-4.9042	-14.164	-25.038	95.545	328.313	21.135	174.818	212.897	159.735	314.704	193.435	246.344	-4.696	332.381	-24.316	297.131	315.234	0.00017748	0.00033225	8.233e-05	1347.6	1.7562e-06	1.0289e-06	1515.4	269.98	2.1243e-06	4.3483e-06	351.44	96.147	73.817	21.264	3.1238e-06	30.245	7.3533e-05	6.7666e-05	1.9378e-05	1143.9	7.6155e-07	7.431e-07	1285.4	229.91	7.752e-07	7.6485e-07	294.91	82.224	62.535	18.325	7.7202e-07	25.968	105.345	34.987	45.857	-15.621	170.870	155.097	-15.479	-7.935	123.394	92.885	-8.242	-2.081	-1.011	6.027	113.032	5.431	-8191	255	
19021.668	1	1	0	0	0.013688	0.14838	0.15295	0.24815	0.14261	0.14249	0.30199	0.050206	0.2614	0.12232	0.20768	0.040129	0.11614	0.20464	0.20438	0.049799	-3.5771	-4.4771	-4.2812	-3.8187	-4.7375	-4.025	-4.2	-4.8	-3.7938	-4.5354	-4.6	-3.7854	-4.6458	-4.2146	-3.925	-4.8875	230.435	72.779	52.428	292.822	-1.204	36.570	300.068	3.752	135.393	112.351	238.534	140.991	308.158	287.321	303.623	1.099	0.00014935	0.00047723	7.7418e-05	1345.2	2.0836e-06	2.5546e-06	1515.3	268.29	1.3777e-06	8.3076e-07	348.87	96.518	73.935	21.432	4.2614e-06	30.68	7.7019e-05	7.311e-05	2.0009e-05	1145.8	8.2323e-07	7.9153e-07	1286.1	229.49	8.3432e-07	8.029e-07	294.3	82.318	62.778	18.357	8.3356e-07	26.168	103.826	5.038	71.918	-15.734	77.840	56.562	-15.577	-7.884	113.033	291.041	-8.163	-1.660	-0.988	5.970	65.953	5.624	-8191	255	
19021.764	1	1	0	0	0.19396	0.080268	0.23417	0.17648	0.075857	0.20285	0.16738	0.12202	0.081487	0.11659	0.17491	0.47078	0.10174	0.10754	0.10295	0.04125	-3.5229	-4.1479	-4.5396	-3.8979	-4.5521	-4.1958	-3.9396	-4.8542	-3.9667	-4.25	-4.6792	-3.8104	-4.7708	-4.4104	-3.9208	-4.8917	15.595	135.800	16.061	258.551	91.538	13.577	189.582	303.159	223.417	234.151	302.410	293.192	-0.021	106.726	153.514	139.009	0.00015548	0.00049005	0.00010622	1355.5	2.2154e-06	2.5196e-06	1509.1	270.29	2.5901e-06	1.7245e-06	350.19	96.906	73.955	21.461	3.5762e-06	30.633	8.0129e-05	7.6793e-05	2.1577e-05	1150.2	8.5153e-07	8.3606e-07	1288.6	230.55	8.3054e-07	8.0634e-07	295.58	82.376	62.805	18.417	8.0285e-07	26.111	89.930	73.270	-12.000	-15.830	164.641	132.587	-15.362	-8.330	135.181	139.714	-8.281	-1.866	-1.378	5.925	96.963	5.497	-8191	255	
19021.883	1	1	0	0	0.077169	0.17682	0.31339	0.16186	0.020876	0.2193	0.19479	0.26934	0.055277	0.22063	0.22666	0.11015	0.27688	0.16256	0.15349	0.12767	-3.4979	-4.2438	-4.7667	-4.0208	-4.6396	-4.4521	-4.2146	-4.7854	-4.1417	-3.9437	-4.7917	-3.8729	-4.3688	-4.625	-3.6625	-4.8833	-22.618	-6.932	147.517	271.736	275.163	94.156	245.549	-23.075	247.253	242.193	326.302	204.265	48.209	189.653	305.896	-14.569	0.00015993	0.00018107	4.4218e-05	1354.1	3.7619e-06	2.3262e-06	1518.7	270.53	3.3521e-06	4.7196e-07	352.4	96.994	73.701	21.254	3.0587e-06	30.602	7.5935e-05	6.8933e-05	1.9361e-05	1149.4	7.6398e-07	7.1279e-07	1290.1	230.55	7.3482e-07	7.2155e-07	295.31	82.001	62.684	18.326	6.925e-07	26.008	95.165	60.732	74.239	-15.726	135.889	51.908	-16.163	-8.930	135.239	116.698	-8.911	-2.435	-2.087	5.397	139.841	4.255	-8191	255	
19021.980	1	1	0	0	0.22536	0.16567	0.089386	0.18208	0.226	0.065277	0.32777	0.3293	0.41938	0.098853	0.20523	0.069675	0.097173	0.40365	0.16581	0.10775	-3.7979	-3.9958	-4.5792	-3.9938	-4.3562	-4.5104	-3.9396	-4.6312	-4.2958	-3.9208	-4.7833	-4.0312	-4.425	-4.7229	-3.8	-4.8083	9.117	32.128	324.116	265.661	267.136	321.253	260.511	322.826	188.734	169.944	-4.361	288.072	306.506	12.277	228.698	270.558	0.00018642	0.0002169	0.00011651	1351.5	4.0158e-06	2.4191e-06	1519.9	268.79	4.3064e-07	2.4516e-06	348.95	96.236	74.02	21.403	1.9123e-06	30.569	6.685e-05	6.4906e-05	1.7434e-05	1147.2	7.1661e-07	6.7992e-07	1287.8	229.67	7.0668e-07	6.7292e-07	293.75	81.815	62.493	18.298	6.7547e-07	25.99	104.357	59.160	49.133	-16.351	130.181	121.835	-16.385	-9.175	189.788	119.384	-9.361	-2.206	-2.044	5.023	144.860	5.018	-8191	255	
19022.051	1	1	0	0	0.1529	0.065057	0.18867	0.064076	0.17949	0.18185	0.11291	0.17008	0.035877	0.12254	0.20388	0.076251	0.18428	0.17282	0.11771	0.08809	-4.1417	-3.8729	-4.6896	-4.075	-4.3229	-4.7688	-4.0479	-4.7	-4.3146	-3.7812	-4.8375	-3.9688	-4.2333	-4.7333	-3.8208	-4.6271	60.328	30.574	-8.970	180.909	18.844	200.665	9.985	265.572	69.248	56.315	218.666	316.607	218.914	20.329	332.457	100.686	0.00016091	0.00014363	2.7099e-05	1355.2	3.3583e-06	2.8118e-06	1519.4	269.16	3.6977e-06	2.6797e-06	352.18	96.164	73.612	21.491	2.7439e-06	30.331	6.6267e-05	6.1013e-05	1.6771e-05	1145.5	6.8406e-07	6.6834e-07	1286.3	229.14	6.7621e-07	6.7353e-07	294.09	81.901	62.518	18.29	6.9348e-07	25.908	91.693	86.766	75.017	-15.470	120.597	125.115	-15.843	-8.005	122.955	79.332	-8.125	-1.380	-1.145	6.276	105.962	5.564	-8191	255	
19022.146	1	1	0	0	0.073739	0.16554	0.31456	0.25824	0.34396	0.38479	0.15811	0.2022	0.24527	0.15	0.12335	0.047669	0.24052	0.2341	0.16495	0.1142	-4.2354	-3.8208	-4.8417	-4.2917	-3.9667	-4.8729	-3.9271	-4.5833	-4.5458	-3.8125	-4.9187	-4.1771	-4.1167	-4.7354	-3.9229	-4.4917	296.332	68.372	89.512	325.131	227.971	163.995	305.453	183.449	84.409	115.489	304.012	161.426	311.521	276.182	278.601	320.287	0.00018857	0.00013049	0.00013136	1341.6	2.6467e-06	1.7442e-06	1505.6	269.26	2.4873e-06	2.5905e-06	348.71	97.015	74.174	21.55	1.5624e-06	30.46	6.6527e-05	6.2035e-05	1.7056e-05	1142	7.1766e-07	6.7938e-07	1280.2	229	6.9707e-07	6.7758e-07	293.57	82.018	62.569	18.33	6.7155e-07	25.901	92.724	42.750	98.322	-15.432	88.446	95.374	-15.508	-8.264	85.609	128.363	-8.593	-1.662	-1.316	6.128	199.529	5.140	-8191	255	
19022.268	1	1	0	0	0.063847	0.089132	0.10763	0.23509	0.2113	0.22775	0.13278	0.15555	0.14808	0.086157	0.05118	0.086308	0.07693	0.092073	0.2265	0.062095	-4.2417	-3.6479	-4.6	-4.4812	-4.0521	-4.7917	-4.0417	-4.3875	-4.5625	-3.9875	-4.6604	-4.3396	-3.9875	-4.7979	-3.975	-4.3313	301.284	16.811	139.165	320.988	218.277	76.319	253.462	301.600	160.514	-18.486	11.596	150.035	32.464	46.494	34.059	100.307	0.00017504	0.00022719	0.00013114	1351.8	1.9413e-06	1.3889e-06	1518.6	269.98	2.4143e-06	5.1542e-06	350.39	96.836	74.285	21.347	2.9566e-06	30.643	6.5231e-05	6.2114e-05	1.696e-05	1143.9	7.1046e-07	6.7021e-07	1283.8	229.72	7.0517e-07	7.0073e-07	294.4	82.16	62.678	18.287	7.2009e-07	25.961	67.928	65.350	87.585	-15.460	34.721	92.173	-15.488	-7.942	100.602	99.681	-8.433	-2.039	-1.522	6.003	105.487	5.393	-8191	255	
19022.363	1	1	0	0	0.074441	0.09479	0.27537	0.19327	0.25463	0.21474	0.1269	0.13093	0.15157	0.025114	0.075275	0.018323	0.18185	0.22456	0.16772	0.071477	-4.4771	-3.6792	-4.3688	-4.675	-4.1125	-4.6854	-4.1042	-4.1792	-4.5958	-3.7042	-4.3729	-4.6458	-3.8604	-4.7438	-4.1542	-4.0437	71.831	304.018	3.501	299.969	66.814	57.519	296.671	2.514	260.405	-5.475	189.530	214.535	248.564	153.273	135.741	78.495	9.3783e-05	0.00027289	0.00013742	1348.7	1.7086e-06	2.6988e-06	1514.5	268.31	9.2593e-07	5.1565e-06	350.24	96.924	74.287	21.196	1.0841e-06	30.506	6.8224e-05	6.4332e-05	1.7419e-05	1144	7.1145e-07	6.8801e-07	1285	229.31	6.9595e-07	6.8872e-07	294.95	82.032	62.684	18.303	7.2613e-07	25.957	78.587	19.226	37.668	-15.751	70.241	86.284	-16.297	-9.331	81.674	107.248	-9.386	-2.949	-1.717	5.301	73.713	4.374	-8191	255	
19022.461	1	1	0	0	0.12834	0.060603	0.39042	0.16393	0.19252	0.16543	0.2404	0.020006	0.18311	0.061971	0.085792	0.14556	0.21163	0.091835	0.13705	0.21613	-4.3875	-3.7292	-4.4875	-4.725	-3.85	-4.6792	-4.425	-4.0375	-4.7354	-3.9313	-4.4708	-4.725	-3.8271	-4.7542	-4.1937	-4.0875	301.800	288.584	163.034	-16.693	65.116	191.487	251.838	318.255	67.095	78.125	262.770	173.948	131.298	0.715	-22.195	35.334	0.00020913	0.00037135	9.9161e-05	1351.8	2.4791e-06	2.62e-06	1511.8	268.89	3.1782e-06	1.336e-06	344.9	96.237	73.124	21.183	6.2982e-06	30.247	6.899e-05	6.4415e-05	1.7665e-05	1144.7	7.1644e-07	6.784e-07	1282.5	229.36	6.8585e-07	6.8242e-07	292.93	81.82	62.39	18.219	6.6263e-07	25.923	98.180	121.907	51.212	-16.174	104.352	108.876	-16.099	-8.580	139.050	63.920	-8.168	-1.458	-1.048	6.317	101.995	5.753	-8191	255	
19022.578	1	1	0	0	0.044937	0.11602	0.14157	0.14046	0.23253	0.077702	0.24704	0.28304	0.052223	0.21308	0.11836	0.099492	0.16408	0.11864	0.21598	0.066981	-4.55	-3.9333	-4.2958	-4.9	-3.6792	-4.5375	-4.5833	-4.0687	-4.7417	-3.9667	-4.1708	-4.8708	-3.8583	-4.4458	-4.2583	-3.8458	126.543	196.336	258.533	-19.191	262.411	43.953	308.920	256.112	178.971	30.269	138.958	298.043	326.478	305.483	65.742	-3.444	0.00014181	0.00015048	5.0524e-05	1339.2	2.6555e-06	2.7295e-06	1495.2	270.51	3.6348e-06	2.3666e-06	350.82	96.809	74.053	21.413	2.545e-06	30.711	6.348e-05	5.9833e-05	1.6886e-05	1140.9	6.9356e-07	6.6275e-07	1280.7	229.45	7.2196e-07	7.0931e-07	294.27	82.089	62.638	18.357	7.2056e-07	26.043	96.852	47.224	13.643	-15.506	98.988	63.608	-15.269	-8.330	110.496	120.528	-8.147	-1.399	-1.525	5.485	95.236	4.583	-8191	255	
19022.650	1	1	0	0	0.055993	0.11655	0.16815	0.25743	0.19798	0.17215	0.31588	0.32128	0.30046	0.11471	0.16539	0.046595	0.24697	0.15237	0.060246	0.2573	-4.4083	-3.9958	-4.1021	-4.8375	-3.6896	-4.475	-4.675	-3.8708	-4.5917	-4.1521	-3.9229	-4.9	-3.9313	-4.2854	-4.4292	-3.6937	284.548	102.347	103.608	310.657	156.181	247.060	302.150	236.517	208.844	190.004	322.824	307.621	218.767	330.072	236.873	279.939	0.00014297	0.00029845	7.8608e-05	1349.7	1.7297e-06	3.4993e-06	1515.3	269.85	1.5911e-06	1.3299e-06	349.28	96.626	73.891	21.553	1.3291e-06	30.765	6.8134e-05	6.5925e-05	1.799e-05	1144.9	7.6914e-07	7.0183e-07	1285.5	229.74	7.225e-07	7.2432e-07	294.77	82.27	62.738	18.389	7.3022e-07	26.029	85.027	78.099	25.079	-16.243	117.568	133.738	-15.765	-8.488	198.399	46.005	-8.607	-2.228	-1.519	4.957	113.012	4.766	-8191	255	
19022.748	1	1	0	0	0.086835	0.094432	0.21713	0.1791	0.085833	0.14705	0.18735	0.12897	0.031303	0.088836	0.19301	0.19315	0.085843	0.14573	0.15984	0.026472	-4.4125	-4.3313	-3.9667	-4.9083	-3.9042	-4.2	-4.9313	-3.8979	-4.6708	-4.2125	-3.9	-4.7771	-3.9	-4.225	-4.6833	-3.9125	194.031	228.388	103.469	309.523	195.274	51.426	262.724	142.720	76.315	-21.262	-23.065	-8.885	132.439	256.509	34.469	39.964	0.00017942	0.00053767	7.3082e-05	1355.9	4.3529e-06	3.3874e-06	1516	269.55	2.4656e-06	2.7776e-06	353.21	97.051	73.762	21.567	4.0555e-06	30.612	7.32e-05	6.735e-05	1.8633e-05	1147	7.615e-07	7.2395e-07	1288.1	229.99	7.5516e-07	7.494e-07	296.08	82.402	62.769	18.425	7.6887e-07	26.111	68.601	37.369	19.310	-15.951	125.749	128.826	-16.354	-9.348	132.240	118.936	-9.153	-2.306	-2.385	5.090	129.452	4.261	-8191	255	
19022.867	1	1	0	0	0.044958	0.11264	0.16131	0.3739	0.21719	0.11732	0.1605	0.36548	0.19368	0.14966	0.20052	0.19549	0.2398	0.16648	0.17658	0.2707	-4.3646	-4.175	-3.6729	-4.7333	-3.9729	-4.1438	-4.8562	-3.9313	-4.5542	-4.4437	-3.8583	-4.8812	-4.1521	-4.1854	-4.5938	-3.9333	232.928	155.975	322.119	304.228	268.709	19.614	227.648	-18.091	45.364	261.076	93.893	271.062	5.443	283.392	266.838	-4.900	0.00015891	0.00034092	0.00015091	1356.3	2.7542e-06	1.3418e-06	1519.2	271.86	3.5584e-06	2.1897e-06	352.36	97.29	74.262	21.31	3.6661e-06	30.663	7.3523e-05	7.0332e-05	1.9337e-05	1148.7	7.8828e-07	7.6431e-07	1290.1	230.9	7.8384e-07	7.5362e-07	296.18	82.541	62.853	18.425	7.6968e-07	26.151	85.065	39.336	39.820	-16.387	120.899	188.068	-16.264	-8.861	98.566	87.747	-8.910	-2.042	-1.678	5.311	112.519	4.622	-8191	255	
19022.965	1	1	0	0	0.12608	0.053411	0.20915	0.09874	0.16975	0.25239	0.23997	0.14361	0.24541	0.15334	0.11835	0.10127	0.13207	0.042378	0.35454	0.061098	-4.0875	-4.4833	-3.8708	-4.9	-4.1792	-4.0833	-4.8646	-4.0417	-4.1562	-4.6208	-3.8937	-4.65	-4.2771	-3.9604	-4.7854	-3.9542	30.946	106.865	195.189	305.126	247.670	322.905	296.242	-3.326	187.125	105.618	302.566	-26.688	94.225	31.063	132.678	83.847	0.00011868	0.00010573	0.0001178	1353.6	2.7472e-06	2.938e-06	1520.3	271.23	1.0001e-06	2.8274e-06	353.55	97.872	73.988	21.507	5.072e-06	30.616	7.4376e-05	7.1124e-05	2.0178e-05	1149.7	8.1037e-07	7.8989e-07	1289.7	231.16	8.1417e-07	7.9684e-07	297.27	82.784	62.937	18.47	8.0047e-07	26.255	87.587	103.743	4.969	-16.246	117.669	72.539	-16.409	-8.713	123.597	58.717	-8.857	-2.363	-1.814	5.415	128.926	4.506	-8191	255	
19023.061	1	1	0	0	0.082928	0.11144	0.13555	0.20074	0.18054	0.014134	0.18086	0.29356	0.014683	0.35949	0.22157	0.087829	0.1348	0.12485	0.045067	0.17716	-4.0146	-4.6479	-3.6479	-4.7292	-4.2396	-3.8937	-5.0375	-4.1042	-4.2917	-4.7375	-3.8229	-4.4708	-4.4938	-3.9271	-4.775	-4.1062	161.475	237.832	152.482	316.185	192.523	270.258	208.629	270.932	299.615	155.261	260.630	168.750	-20.571	317.960	277.570	267.760	0.00020789	0.00017185	0.00010018	1356.2	2.4841e-06	1.7249e-06	1525.7	271.73	2.0555e-06	3.1032e-06	353.37	97.813	74.819	21.489	3.3481e-06	30.701	7.8266e-05	7.3756e-05	2.0762e-05	1151.4	8.5041e-07	8.3192e-07	1294.6	232.09	8.4601e-07	8.062e-07	297.84	83.016	63.323	18.505	8.3576e-07	26.262	72.343	53.608	108.784	-15.919	123.311	93.046	-16.012	-8.694	157.846	149.187	-8.865	-2.403	-1.644	5.328	44.172	4.796	-8191	255	
19023.182	1	1	0	0	0.17759	0.15751	0.17476	0.22537	0.21106	0.15626	0.36017	0.30558	0.21104	0.03428	0.20646	0.27901	0.12055	0.20027	0.13032	0.32056	-3.8958	-4.8	-3.7417	-4.5708	-4.6875	-3.7354	-4.8729	-4.3083	-3.7396	-4.8562	-4.1458	-4.4521	-4.5458	-3.6458	-4.825	-4.2833	42.640	280.425	325.936	282.897	-9.194	272.182	297.898	298.079	31.553	253.508	285.600	0.669	102.219	281.307	274.322	217.211	9.2505e-05	0.00018699	0.00015479	1358.2	3.0784e-06	1.873e-06	1524.3	273.21	2.5197e-06	2.432e-06	354.23	98.309	75.082	21.598	1.3708e-06	30.659	8.133e-05	7.4682e-05	2.188e-05	1153.4	8.6113e-07	8.3835e-07	1295.1	232.54	8.7109e-07	8.2331e-07	299.09	83.3	63.581	18.557	8.3891e-07	26.269	61.365	296.159	56.533	-16.048	151.780	71.468	-15.963	-8.529	19.435	103.602	-8.736	-1.912	-1.855	5.742	65.846	5.211	-8191	255	
19023.252	1	1	0	0	0.159	0.11888	0.24642	0.10021	0.13017	0.17903	0.21507	0.30495	0.20765	0.25084	0.034728	0.18311	0.064177	0.1317	0.12847	0.1427	-3.7167	-4.6687	-3.8438	-4.4083	-4.4812	-3.7771	-4.7708	-4.4521	-3.7542	-4.7271	-4.1021	-4.3042	-4.8208	-3.7	-4.6354	-4.5083	314.797	32.124	1.650	9.335	104.835	290.439	243.032	290.627	257.924	102.056	102.357	190.364	18.536	114.107	36.651	250.586	0.00018983	0.00020047	3.8997e-05	1366.6	3.5523e-07	3.322e-06	1524.3	274.44	3.4945e-06	1.9643e-06	357.82	97.897	75.159	21.667	3.8277e-06	30.996	8.3132e-05	7.7081e-05	2.2363e-05	1155.7	8.7899e-07	8.7303e-07	1297.1	233.64	8.934e-07	8.6534e-07	300.33	83.42	63.713	18.646	9.04e-07	26.443	90.162	69.772	79.501	-16.138	64.729	92.413	-15.994	-8.720	91.387	116.740	-8.803	-2.219	-1.539	5.468	116.899	5.084	-8191	255	
19023.348	1	1	0	0	0.23339	0.10273	0.081614	0.088181	0.20161	0.36946	0.10772	0.22514	0.078702	0.2147	0.10564	0.15057	0.23493	0.14258	0.15845	0.21873	-3.4979	-4.7188	-3.8542	-4.1542	-4.7604	-3.8083	-4.6625	-4.5354	-3.6979	-4.8167	-4.1896	-4.0729	-4.7188	-3.9167	-4.625	-4.7021	221.018	310.402	66.029	231.189	167.140	79.322	260.429	312.698	94.925	183.063	306.308	-25.251	319.625	170.519	9.429	247.444	0.00022367	0.00054661	0.00017542	1362	2.8268e-06	2.8608e-06	1533.8	274.63	1.9199e-06	1.7182e-06	357.64	97.534	75.165	21.742	1.9126e-06	30.988	8.5648e-05	7.9692e-05	2.3049e-05	1156.9	9.0911e-07	9.0135e-07	1300.5	234.24	9.0343e-07	8.9888e-07	301.01	83.406	63.936	18.651	8.9205e-07	26.418	100.035	89.592	80.061	-16.166	283.970	81.785	-16.271	-8.998	107.489	93.724	-9.407	-2.970	-2.144	5.013	172.080	4.467	-8191	255	
19023.445	1	1	0	0	0.17916	0.077163	0.2262	0.1375	0.084514	0.23926	0.089407	0.029029	0.16664	0.1269	0.10972	0.28514	0.21441	0.28785	0.11791	0.30807	-3.5208	-4.7042	-4.0542	-4.125	-4.6333	-3.8646	-4.5542	-4.6583	-3.8375	-4.7021	-4.375	-4.0292	-4.7479	-3.9875	-4.1917	-4.7646	-4.169	208.318	27.246	280.526	304.587	115.845	68.961	-22.403	233.761	83.505	207.419	262.683	283.771	-15.733	274.003	116.163	0.00022316	0.00033965	0.00010126	1371.3	1.9926e-06	2.7464e-06	1529.6	275.57	3.8876e-07	2.0793e-06	357.78	98.603	75.007	21.817	2.5164e-06	31.042	8.5886e-05	7.9426e-05	2.2886e-05	1159.5	8.9708e-07	8.7317e-07	1299.8	235.14	9.1467e-07	8.919e-07	301.98	83.532	63.699	18.722	9.1413e-07	26.529	95.103	-7.304	44.438	-16.357	103.985	92.034	-16.386	-8.717	244.818	92.603	-8.932	-2.333	-1.566	5.415	34.537	4.867	-8191	255	
19023.541	1	1	0	0	0.18336	0.23211	0.028999	0.20816	0.23561	0.06994	0.12435	0.16383	0.16467	0.090394	0.44366	0.058275	0.19648	0.13883	0.12212	0.11336	-3.4938	-4.5854	-4.3146	-4.1375	-4.8812	-4.0188	-4.3292	-4.8042	-3.8271	-4.4563	-4.4958	-3.8979	-4.6937	-4.0083	-4.0854	-4.9396	171.133	325.321	-0.966	330.986	14.654	176.761	283.674	227.077	133.568	287.828	327.240	313.010	298.012	275.496	27.218	253.189	0.00014893	0.00027782	0.00017308	1365.4	8.4213e-07	2.3261e-06	1537.6	275.41	4.0234e-06	2.7917e-06	359.37	98.03	75.8	21.568	3.3121e-06	30.849	8.7109e-05	8.2406e-05	2.3823e-05	1157.9	9.3605e-07	9.1685e-07	1303.3	235.04	9.3772e-07	8.832e-07	302.17	83.645	64.019	18.663	8.97e-07	26.41	112.206	23.540	44.161	-16.140	36.389	159.544	-15.965	-8.864	135.128	47.278	-8.946	-2.461	-2.008	5.382	104.940	4.522	-8191	255	
19023.660	1	1	0	0	0.19598	0.23012	0.17462	0.067595	0.1778	0.11953	0.15357	0.22212	0.12535	0.081862	0.17989	0.25437	0.19021	0.18545	0.12412	0.1923	-3.4979	-4.4479	-4.5604	-4.0021	-4.7188	-4.1021	-4.2271	-4.7771	-3.7646	-4.3812	-4.6021	-3.8167	-4.5792	-4.0813	-4.0417	-4.8042	148.200	297.565	253.892	242.951	245.583	15.902	289.543	320.238	38.156	202.226	-23.206	260.993	258.696	266.243	73.088	321.734	0.00014081	0.00045402	0.00013969	1371.4	3.4289e-06	4.3117e-06	1532	275.47	2.362e-06	2.9907e-06	359.43	97.973	74.998	21.797	1.8435e-06	31.324	8.5596e-05	8.03e-05	2.1953e-05	1159.1	8.9085e-07	8.8212e-07	1301.3	235.3	9.1141e-07	8.8544e-07	301.65	83.345	63.822	18.733	8.8089e-07	26.61	96.251	61.615	-4.630	-15.934	161.439	75.067	-15.792	-8.296	111.387	88.512	-8.920	-1.952	-1.014	5.706	174.210	5.254	-8191	255	
19023.756	1	1	0	0	0.19238	0.095921	0.15525	0.085137	0.14369	0.09238	0.32775	0.13711	0.068577	0.15825	0.16822	0.20928	0.14609	0.13191	0.091852	0.099147	-3.5812	-4.2937	-4.4917	-3.9313	-4.4	-4.1458	-3.9562	-4.9313	-3.875	-4.2375	-4.6167	-3.6562	-4.5792	-4.3417	-3.825	-4.8333	200.100	227.789	76.248	219.161	176.932	208.349	280.077	216.257	97.818	17.619	270.568	243.578	242.675	256.046	94.966	268.821	0.00017307	0.00020842	7.6353e-05	1359.9	3.988e-06	4.6905e-06	1533.1	276.2	4.9063e-06	2.7092e-06	359.99	98.282	75.05	21.611	2.6159e-06	31.071	8.4414e-05	8.0177e-05	2.244e-05	1158.1	8.8781e-07	8.7064e-07	1301.6	235.28	8.832e-07	8.7192e-07	301.81	83.513	63.66	18.676	8.6418e-07	26.416	68.080	43.702	139.128	-16.046	140.549	89.657	-16.251	-8.713	140.450	36.274	-9.285	-1.751	-1.715	5.579	164.363	5.902	-8191	255	
19023.852	1	1	0	0	0.18339	0.11632	0.119	0.16244	0.09244	0.030378	0.29276	0.28296	0.067377	0.13029	0.2539	0.13408	0.12586	0.16485	0.028661	0.19835	-3.6625	-4.0792	-4.5312	-4.05	-4.5979	-4.4854	-3.9125	-4.8271	-3.9792	-4.0417	-4.7292	-3.9437	-4.4583	-4.6604	-3.8958	-4.8938	38.578	68.470	40.841	303.317	249.305	79.090	249.392	301.521	85.016	228.885	8.306	297.779	166.093	-7.856	155.256	181.792	0.00017863	0.00020224	0.00010851	1368.9	2.9802e-06	1.8632e-06	1534.1	274.69	3.6899e-06	7.7471e-07	360.72	97.766	75.48	21.552	2.4753e-06	31.141	8.1049e-05	7.7169e-05	2.1682e-05	1159.6	8.5849e-07	8.1894e-07	1300.9	234.92	8.2156e-07	7.9949e-07	301.96	83.328	63.781	18.654	8.1846e-07	26.463	95.844	35.992	33.362	-15.601	127.429	135.893	-15.479	-8.069	123.372	30.673	-8.441	-1.493	-1.541	6.132	145.576	5.030	-8191	255	
19023.947	1	1	0	0	0.30793	0.011782	0.11458	0.13931	0.086285	0.041586	0.12997	0.1514	0.086565	0.12032	0.16385	0.2438	0.027815	0.19543	0.057972	0.28552	-3.8729	-4.0125	-4.8688	-3.8958	-4.425	-4.7188	-4.0125	-4.7917	-4.0292	-4.0563	-4.9333	-3.8979	-4.3438	-4.6083	-3.7687	-4.8271	153.452	5.762	219.068	294.230	18.466	300.284	272.560	231.855	179.963	80.418	-16.887	219.022	134.018	266.782	307.782	281.875	0.00015384	0.00030114	0.00014154	1364.9	2.4614e-06	3.1779e-06	1532.4	277.33	1.1113e-06	2.0621e-06	358.44	97.218	75.483	21.65	3.0273e-06	31.1	7.8522e-05	7.3645e-05	2.0278e-05	1157.6	8.3827e-07	8.0304e-07	1300.2	235.54	8.2359e-07	8.1638e-07	301.62	83.101	63.704	18.617	8.1856e-07	26.454	100.614	-5.069	46.745	-15.475	92.965	116.227	-16.116	-9.386	105.981	133.765	-9.706	-2.622	-2.260	4.916	82.304	4.364	-8191	255	
19024.045	1	1	0	0	0.036749	0.10707	0.16284	0.33404	0.13351	0.2282	0.071922	0.33853	0.11763	0.34304	0.12271	0.16413	0.19557	0.027453	0.17838	0.12193	-4.1333	-3.8333	-4.9146	-3.9854	-4.2958	-4.6479	-3.8167	-4.7354	-4.3917	-3.95	-4.8979	-3.9896	-3.9021	-4.7917	-3.8438	-4.4792	-21.383	10.081	287.792	258.091	33.422	125.957	64.919	248.599	85.998	145.596	229.160	314.542	294.419	-7.578	53.167	241.229	0.00014816	0.0001728	0.00012831	1364.9	2.0744e-06	2.5642e-06	1531.2	275.01	1.7781e-06	3.8497e-06	359.78	97.875	75.74	21.819	1.7934e-06	30.924	7.75e-05	7.2583e-05	1.9957e-05	1157	8.1912e-07	7.8339e-07	1298	234.71	7.9417e-07	7.7585e-07	301.46	83.259	63.668	18.666	7.9678e-07	26.372	83.650	64.555	14.563	-16.644	92.086	74.109	-16.330	-8.980	119.661	68.094	-8.608	-1.925	-1.902	5.356	85.193	5.214	-8191	255	
19024.141	1	1	0	0	0.10796	0.11053	0.10518	0.17657	0.17191	0.10076	0.27751	0.27008	0.094305	0.068261	0.092367	0.016952	0.049486	0.063384	0.098167	0.15299	-4.1583	-3.6167	-4.6271	-4.2333	-3.9708	-4.7146	-4.0208	-4.5354	-4.5833	-3.8312	-4.8146	-4.2708	-4.1229	-4.7271	-3.8396	-4.4812	-17.517	52.725	205.941	326.333	181.097	219.485	316.586	296.773	83.227	131.062	-11.756	118.071	-12.848	-2.039	62.317	13.512	0.00024766	0.00031445	0.00018421	1365.6	2.3483e-06	2.4713e-06	1526.5	275.71	3.0465e-06	2.346e-06	358.33	98.18	74.906	21.499	4.617e-06	30.512	7.5664e-05	7.0829e-05	2e-05	1154.6	8.0266e-07	7.6043e-07	1296.9	234.67	7.9042e-07	7.7746e-07	301.07	83.41	63.471	18.569	7.7683e-07	26.256	100.882	-5.843	62.172	-15.661	114.053	92.757	-15.998	-8.348	201.012	87.571	-8.206	-1.654	-1.573	6.428	136.745	5.226	-8191	255	
19024.262	1	1	0	0	0.28612	0.22375	0.085043	0.081234	0.12642	0.16705	0.20264	0.061387	0.21256	0.10083	0.063739	0.18362	0.090637	0.098239	0.18082	0.11556	-4.2375	-3.9208	-4.6979	-4.3083	-3.8667	-4.8708	-4.0708	-4.3229	-4.6771	-3.8271	-4.6667	-4.3458	-4.0292	-4.8063	-3.8792	-4.1813	-23.171	212.605	320.202	275.986	293.215	127.998	220.687	281.192	296.531	281.655	305.284	87.192	290.224	215.519	274.528	143.132	0.00025008	3.8696e-05	7.5842e-05	1339.7	1.9728e-06	9.1447e-07	1516.9	274.3	7.8974e-07	3.7198e-06	355.13	96.425	74.134	21.537	3.7203e-06	30.891	7.4503e-05	6.7873e-05	1.9328e-05	1148.8	8.0771e-07	7.3513e-07	1292.8	234.08	7.358e-07	7.4114e-07	300.3	82.796	63.326	18.531	7.3745e-07	26.339	102.714	140.447	75.280	-15.260	117.872	65.072	-15.355	-8.217	175.057	67.178	-8.128	-1.845	-1.242	6.117	110.098	5.354	-8191	255	
19024.357	1	1	0	0	0.13367	0.19119	0.18076	0.27751	0.062612	0.25054	0.10289	0.35241	0.10259	0.27047	0.28242	0.056666	0.068251	0.13081	0.18432	0.1147	-4.4583	-3.7792	-4.5188	-4.6896	-3.7708	-4.7625	-4.25	-4.1438	-4.6167	-3.7146	-4.7542	-4.5375	-3.9021	-4.8458	-3.9938	-4.1	296.440	150.708	4.528	306.736	78.083	-16.426	122.510	266.003	54.516	153.503	295.641	313.854	100.860	22.353	270.503	282.400	0.00017724	0.00033554	0.00011811	1362.1	3.1197e-06	2.9917e-06	1525.5	274.45	2.5627e-06	3.2865e-06	356.69	97.292	74.899	21.403	7.9928e-07	30.945	7.217e-05	6.5426e-05	1.8345e-05	1151.5	7.457e-07	7.24e-07	1291.8	233.83	7.3153e-07	7.2158e-07	300.1	82.748	63.181	18.415	7.2758e-07	26.279	91.571	41.304	83.382	-15.444	112.741	108.940	-15.517	-8.377	91.352	71.708	-8.626	-1.587	-1.357	5.120	74.448	5.120	-8191	255	
19024.453	1	1	0	0	0.13747	0.11716	0.020214	0.14145	0.11178	0.048998	0.2795	0.099318	0.10161	0.17214	0.03198	0.094875	0.032642	0.12989	0.21254	0.1667	-4.4646	-3.9292	-4.5042	-4.6687	-3.7458	-4.7146	-4.3125	-4.0021	-4.6625	-3.7771	-4.3458	-4.6792	-3.8479	-4.8271	-4.2167	-3.8854	271.805	44.063	38.657	297.014	-6.204	207.743	276.168	301.978	98.706	100.527	258.203	200.895	16.340	40.587	5.009	-23.275	0.00023688	0.00046787	0.00012789	1359.9	1.6736e-06	3.819e-06	1524.6	274.12	1.5072e-06	4.1593e-06	358.44	97.962	74.721	21.632	1.8104e-06	30.942	6.8894e-05	6.4882e-05	1.8107e-05	1151.9	7.4605e-07	7.1408e-07	1291.8	233.56	7.0794e-07	6.8603e-07	300.68	82.774	63.127	18.468	7.003e-07	26.217	77.787	90.181	29.881	-16.146	110.449	122.470	-15.947	-8.530	137.993	70.772	-9.144	-1.775	-1.503	5.624	60.916	4.884	-8191	255	
19024.549	1	1	0	0	0.16088	0.18616	0.081778	0.23536	0.15362	0.21303	0.1257	0.068901	0.11228	0.23259	0.10612	0.06737	0.14289	0.19891	0.098951	0.10035	-4.3479	-3.9	-4.0188	-4.6729	-3.6208	-4.625	-4.6771	-4.025	-4.8458	-3.9313	-4.2542	-4.5271	-3.8125	-4.6104	-4.3354	-3.8458	59.255	140.638	227.450	307.485	295.921	96.900	33.265	21.289	97.880	184.935	266.335	12.635	19.673	75.663	50.213	13.548	0.000201	0.00032897	6.4984e-05	1363	2.638e-06	2.7225e-06	1524.7	273.33	1.626e-06	2.1169e-06	357.62	97.096	74.881	21.482	1.126e-06	30.581	6.8138e-05	6.4993e-05	1.814e-05	1152	7.421e-07	7.2505e-07	1292.2	233.23	7.2213e-07	7.1882e-07	300.28	82.594	63.26	18.439	7.1617e-07	26.18	95.803	94.396	51.786	-16.276	117.706	47.904	-15.580	-8.601	128.473	88.196	-8.990	-1.891	-1.383	6.078	130.545	4.923	-8191	255	
19024.645	1	1	0	0	0.03893	0.037588	0.07001	0.33975	0.048502	0.15952	0.071723	0.1313	0.10345	0.098196	0.082881	0.043125	0.18612	0.21756	0.075862	0.44706	-4.4271	-4.0292	-3.9604	-4.8479	-3.8271	-4.4021	-4.5667	-3.9021	-4.5854	-4.1438	-4.0521	-4.6583	-3.875	-4.5083	-4.5625	-3.7875	101.621	49.938	270.905	241.238	284.605	265.297	196.229	206.876	320.604	111.583	198.530	307.979	323.739	309.635	82.644	-17.889	0.00019256	0.00038944	3.0682e-05	1358.8	3.835e-06	2.1178e-06	1522.6	273.71	2.0198e-06	4.7809e-06	356.61	98.089	74.711	21.546	2.829e-06	30.749	6.8213e-05	6.5006e-05	1.7539e-05	1150.9	7.4287e-07	7.0047e-07	1292.3	233.69	7.0929e-07	7.1367e-07	299.37	83.057	63.182	18.46	7.0828e-07	26.168	73.572	66.856	20.900	-15.788	52.549	84.370	-15.869	-8.716	124.835	141.295	-8.819	-2.146	-1.984	5.424	169.901	5.086	-8191	255	
19024.740	1	1	0	0	0.055816	0.20706	0.096121	0.20323	0.21836	0.15664	0.1391	0.12745	0.19779	0.093212	0.035483	0.11688	0.07836	0.024236	0.22762	0.3909	-4.3396	-4.1646	-4.0188	-4.7188	-3.6979	-4.1833	-4.6833	-3.7604	-4.6438	-4.2	-3.9708	-4.8083	-3.9417	-4.3333	-4.6479	-3.8625	9.928	-6.783	30.474	300.294	233.530	168.301	297.327	-9.405	283.512	3.901	27.148	248.958	261.341	253.431	185.853	330.168	0.00019694	0.00021265	9.5369e-05	1358.3	1.0417e-06	4.0516e-06	1521.9	272.6	3.899e-06	4.0508e-06	357.62	97.612	75.072	21.668	3.8614e-06	31.094	6.8956e-05	6.251e-05	1.795e-05	1150.1	7.2244e-07	7.0772e-07	1292.2	232.69	7.2822e-07	6.9595e-07	300.14	82.821	63.325	18.504	6.9617e-07	26.228	76.894	23.731	51.673	-15.610	48.922	79.707	-15.601	-8.466	67.533	138.627	-8.683	-1.889	-1.852	5.194	107.049	4.747	-8191	255	
19024.861	1	1	0	0	0.16252	0.14847	0.14291	0.16036	0.17008	0.010272	0.19507	0.43269	0.091098	0.036971	0.17972	0.12734	0.20657	0.06397	0.11488	0.087911	-4.4375	-4.2479	-3.9375	-4.8458	-3.9271	-4.2417	-4.8187	-3.8	-4.3875	-4.5854	-4.0437	-4.7812	-4.225	-4.0813	-4.7063	-3.975	-17.261	206.972	44.148	28.943	73.096	255.766	283.299	253.195	223.687	321.808	3.967	294.812	119.033	114.913	126.699	264.170	0.00017409	0.0001759	0.00015494	1362	2.5526e-06	3.0323e-06	1524.9	275.25	3.1056e-06	3.2601e-06	357.69	98.246	74.612	21.571	3.2749e-06	30.904	6.7886e-05	6.4605e-05	1.7906e-05	1150.8	7.2823e-07	7.0075e-07	1291.9	233.55	7.2768e-07	6.9705e-07	299.71	82.956	63.164	18.463	6.9901e-07	26.337	77.790	67.088	77.164	-15.811	110.121	145.941	-15.625	-8.390	112.296	91.818	-8.667	-1.596	-1.292	5.684	72.632	5.379	-8191	255	
19024.957	1	1	0	0	0.28702	0.23711	0.09193	0.25249	0.03324	0.15096	0.26857	0.33588	0.049225	0.1157	0.13055	0.079209	0.04795	0.030087	0.016268	0.17706	-4.1854	-4.5437	-3.7167	-4.9271	-4.3021	-4.0417	-5.0458	-4.0271	-4.4646	-4.5771	-3.825	-4.6792	-4.4667	-3.8521	-4.8063	-3.8812	143.703	176.655	69.532	315.641	111.935	145.368	327.178	300.723	134.471	259.814	-23.184	242.030	-8.779	-11.566	309.733	141.841	0.00021444	0.00017271	7.2233e-05	1359.9	4.667e-06	1.8309e-06	1525.6	273.4	8.7664e-07	3.6183e-06	356.16	97.322	74.815	21.647	4.4555e-06	30.645	6.93e-05	6.2777e-05	1.8166e-05	1150	7.3414e-07	7.0763e-07	1292.5	233.54	7.1247e-07	6.9406e-07	299.66	82.824	63.186	18.502	6.9276e-07	26.151	83.412	51.078	128.236	-15.695	97.892	160.211	-15.587	-8.082	130.490	119.245	-8.479	-1.322	-1.073	5.974	113.258	4.959	-8191	255	
19025.053	1	1	0	0	0.1259	0.080001	0.1244	0.1024	0.18418	0.16102	0.22316	0.17013	0.11382	0.18928	0.13184	0.27387	0.11247	0.24159	0.24769	0.14296	-3.9562	-4.5896	-3.7958	-4.8021	-4.2729	-3.9917	-5.1188	-4.125	-4.2521	-4.6813	-4.0354	-4.6125	-4.4604	-3.9229	-4.675	-4.1125	248.902	105.999	32.889	250.843	162.166	315.949	309.125	255.978	49.095	197.114	-14.845	-25.785	76.251	259.201	326.606	-1.856	0.00019789	9.6767e-05	3.3799e-05	1359.9	5.3663e-07	1.7805e-06	1530.6	274.07	8.4545e-07	4.4607e-06	354.54	97.684	74.72	21.535	5.0593e-06	30.675	6.8105e-05	6.4285e-05	1.8357e-05	1153.6	7.4156e-07	7.1602e-07	1294.3	233.51	7.0794e-07	6.8594e-07	299.39	83.021	63.15	18.433	7.1085e-07	26.196	93.841	275.284	-24.234	-15.589	312.951	72.564	-15.687	-8.407	149.674	82.943	-8.417	-1.205	-1.028	5.850	117.101	5.447	-8191	255	
19025.148	1	1	0	0	0.081922	0.058575	0.049498	0.12435	0.11273	0.21918	0.22342	0.067186	0.091502	0.12815	0.12797	0.064934	0.16877	0.21528	0.18837	0.046829	-4.0563	-4.7708	-3.8042	-4.8438	-4.3438	-3.8646	-5.1813	-4.2438	-3.9875	-4.7271	-4.075	-4.3375	-4.5292	-3.8729	-4.7979	-4.125	10.790	282.505	304.733	186.544	99.976	18.295	300.642	235.754	168.668	192.819	317.765	58.403	11.992	252.390	86.712	142.943	0.0002156	0.00014634	7.2189e-05	1345.7	2.7646e-06	8.7712e-07	1509.5	270.04	2.7249e-06	2.2571e-06	354.9	96.545	73.609	21.395	2.4314e-06	30.239	6.8865e-05	6.4985e-05	1.7641e-05	1148.6	7.3582e-07	7.0725e-07	1289.8	232.25	7.48e-07	7.0501e-07	299.34	82.732	63	18.482	7.0793e-07	26.058	73.329	-24.323	106.382	-15.394	95.438	149.182	-15.274	-7.784	177.605	70.398	-8.219	-1.849	-1.103	6.227	131.732	5.839	-8191	255	
19025.221	1	1	0	0	0.10975	0.036259	0.16127	0.21383	0.13085	0.27432	0.15801	0.14769	0.030474	0.14683	0.10051	0.35547	0.19277	0.030852	0.15558	0.11763	-3.5479	-4.7417	-3.8604	-4.4208	-4.5188	-3.6771	-4.8792	-4.2812	-3.9688	-4.9938	-4.0021	-4.2958	-4.6438	-3.7417	-4.5563	-4.5083	-5.757	138.658	265.093	242.699	204.363	26.808	278.538	245.748	312.349	83.579	122.573	314.534	55.099	104.382	64.034	111.280	0.00017202	0.00022379	1.5562e-05	1341.1	2.9559e-06	1.7236e-06	1522.8	272.53	2.1862e-06	3.1705e-06	352.14	96.628	74.653	21.567	2.7525e-06	30.458	7.1381e-05	6.6422e-05	1.8505e-05	1148.3	7.3738e-07	7.3358e-07	1291.9	233.48	7.2705e-07	7.2785e-07	299.06	82.782	63.415	18.452	7.0903e-07	26.181	92.149	6.577	67.765	-15.098	109.638	99.231	-15.499	-8.099	161.781	110.428	-8.236	-1.858	-1.442	6.127	93.139	5.543	-8191	255	
19025.342	1	1	0	0	0.29413	0.16912	0.077316	0.2238	0.10135	0.15813	0.23955	0.079457	0.074291	0.067019	0.18761	0.10573	0.025319	0.14816	0.0366	0.18607	-3.6354	-4.8063	-3.8708	-4.3938	-4.7146	-3.6667	-4.8229	-4.5375	-3.7812	-4.75	-4.2396	-4.2229	-4.7083	-3.9021	-4.475	-4.475	141.600	5.357	38.757	266.459	55.386	163.270	241.689	52.391	223.088	204.145	262.468	-11.599	280.852	177.118	265.014	323.559	0.0001935	0.00022654	9.8488e-05	1357.3	1.0548e-06	2.2079e-06	1529.9	273.78	1.3251e-06	1.0779e-06	356.99	97.404	74.833	21.592	2.4072e-06	30.947	6.879e-05	6.3709e-05	1.8191e-05	1149.4	7.4369e-07	7.2011e-07	1294.6	233.22	7.4807e-07	7.0985e-07	299.97	82.85	63.405	18.518	7.1659e-07	26.245	105.693	122.561	26.036	-15.754	84.384	99.455	-15.819	-8.195	170.773	123.290	-8.747	-1.919	-1.220	6.093	98.899	5.504	-8191	255	
19025.438	1	1	0	0	0.043911	0.23488	0.039746	0.064995	0.085298	0.10377	0.11023	0.098086	0.057555	0.096746	0.19453	0.16339	0.0472	0.16341	0.16867	0.21206	-3.5333	-4.7271	-4.0229	-4.2438	-4.6042	-3.7375	-4.5229	-4.6875	-3.7833	-4.6229	-4.1479	-4.0437	-4.775	-3.9875	-4.3458	-4.6604	319.295	279.516	13.780	302.690	137.459	-3.665	259.377	331.499	10.363	109.300	200.511	204.237	199.553	185.321	250.151	206.040	0.00019613	0.00017174	0.00010208	1350.8	1.137e-06	1.8499e-06	1512.3	268.96	1.5753e-06	1.9442e-06	353.06	96.044	74.013	21.448	5.1598e-06	30.738	7.0902e-05	6.6695e-05	1.8136e-05	1150.2	7.4462e-07	7.1127e-07	1290.7	232.53	7.1723e-07	7.1584e-07	299.07	82.69	63.207	18.528	7.3323e-07	26.207	85.238	60.366	60.268	-15.557	136.721	143.170	-15.514	-7.965	127.051	127.520	-8.450	-1.376	-1.471	5.876	152.066	5.918	-8191	255	
19025.533	1	1	0	0	0.088492	0.16015	0.073009	0.19783	0.11097	0.089358	0.087924	0.16089	0.15903	0.046242	0.39673	0.042315	0.10714	0.15245	0.094091	0.010063	-3.4229	-4.7688	-4.3042	-4.1958	-4.8833	-3.9958	-4.2646	-4.7562	-3.5625	-4.7417	-4.525	-4.0563	-4.9375	-3.9417	-4.1562	-4.8271	165.694	207.879	34.555	291.728	-16.516	288.528	288.012	170.651	146.889	-6.953	284.142	286.624	42.209	79.600	105.718	309.619	0.00019005	0.00041116	9.7083e-05	1345.5	3.1664e-06	2.2522e-06	1506.2	270.85	1.6986e-06	2.7347e-06	352.84	96.66	73.707	21.318	3.1388e-06	30.4	7.36e-05	6.5928e-05	1.8714e-05	1148.5	7.4777e-07	7.2835e-07	1291	233.68	7.4714e-07	7.3173e-07	298.99	82.906	63.156	18.487	7.6994e-07	26.211	87.158	26.501	47.116	-15.524	117.811	118.278	-15.534	-8.073	145.979	147.576	-8.093	-1.365	-1.283	5.868	99.416	5.888	-8191	255	
#DATA ENDS
