BOXY.EXE: ISS Imagent and Oximeter Data Acquisition Program Version 0.80
Ascii Record File

#ACQ INFORMATION
2  Detector Channels 
16  External MUX Channels 
1  Auxiliary Channels 
5000  Waveform (CCF) Frequency (Hz)
1  Waveforms Skipped 
30  Waveforms Averaged 
1  Cycles Averaged 
16  Acquisitions per Waveform 
10.0806  Updata Rate (Hz) 

#FILE INFORMATION
TRUE -- External MUX Channel results are PARSED.
FALSE -- AC DC and Phase are NOT grouped.
TRUE -- Companion Program Settings File CREATED.
FALSE -- AC data not excluded
FALSE -- DC data not excluded
FALSE -- Phase data not excluded
FALSE -- Auxillary Chn. data not excluded
Tab delimiters

#CALIBRATION STATE
TRUE -- Waveform Calibration Values APPLIED.


#AUX CALIBRATION VALUES
Val Type	aux-1	

Term	1.0000e+00	
Factor	0.0000e+00	


#WF CALIBRATION VALUES
A = Detector Channel
Val Type	A-AC1	A-AC2	A-AC3	A-AC4	A-AC5	A-AC6	A-AC7	A-AC8	A-AC9	A-AC10	A-AC11	A-AC12	A-AC13	A-AC14	A-AC15	A-AC16	A-DC1	A-DC2	A-DC3	A-DC4	A-DC5	A-DC6	A-DC7	A-DC8	A-DC9	A-DC10	A-DC11	A-DC12	A-DC13	A-DC14	A-DC15	A-DC16	A-Ph1	A-Ph2	A-Ph3	A-Ph4	A-Ph5	A-Ph6	A-Ph7	A-Ph8	A-Ph9	A-Ph10	A-Ph11	A-Ph12	A-Ph13	A-Ph14	A-Ph15	A-Ph16	

Term	0.00000e+00	0.00000e+00	0.00000e+00	0.00000e+00	0.00000e+00	0.00000e+00	0.00000e+00	0.00000e+00	0.00000e+00	0.00000e+00	0.00000e+00	0.00000e+00	0.00000e+00	0.00000e+00	0.00000e+00	0.00000e+00	0.00000e+00	0.00000e+00	0.00000e+00	0.00000e+00	0.00000e+00	0.00000e+00	0.00000e+00	0.00000e+00	0.00000e+00	0.00000e+00	0.00000e+00	0.00000e+00	0.00000e+00	0.00000e+00	0.00000e+00	0.00000e+00	0.00000e+00	0.00000e+00	0.00000e+00	0.00000e+00	0.00000e+00	0.00000e+00	0.00000e+00	0.00000e+00	0.00000e+00	0.00000e+00	0.00000e+00	0.00000e+00	0.00000e+00	0.00000e+00	0.00000e+00	0.00000e+00	
Factor	1.00000e+00	1.00000e+00	1.00000e+00	1.00000e+00	1.00000e+00	1.00000e+00	1.00000e+00	1.00000e+00	1.00000e+00	1.00000e+00	1.00000e+00	1.00000e+00	1.00000e+00	1.00000e+00	1.00000e+00	1.00000e+00	1.00000e+00	1.00000e+00	1.00000e+00	1.00000e+00	1.00000e+00	1.00000e+00	1.00000e+00	1.00000e+00	1.00000e+00	1.00000e+00	1.00000e+00	1.00000e+00	1.00000e+00	1.00000e+00	1.00000e+00	1.00000e+00	X	X	X	X	X	X	X	X	X	X	X	X	X	X	X	X	

B = Detector Channel
Val Type	B-AC1	B-AC2	B-AC3	B-AC4	B-AC5	B-AC6	B-AC7	B-AC8	B-AC9	B-AC10	B-AC11	B-AC12	B-AC13	B-AC14	B-AC15	B-AC16	B-DC1	B-DC2	B-DC3	B-DC4	B-DC5	B-DC6	B-DC7	B-DC8	B-DC9	B-DC10	B-DC11	B-DC12	B-DC13	B-DC14	B-DC15	B-DC16	B-Ph1	B-Ph2	B-Ph3	B-Ph4	B-Ph5	B-Ph6	B-Ph7	B-Ph8	B-Ph9	B-Ph10	B-Ph11	B-Ph12	B-Ph13	B-Ph14	B-Ph15	B-Ph16	

Term	0.00000e+00	0.00000e+00	0.00000e+00	0.00000e+00	0.00000e+00	0.00000e+00	0.00000e+00	0.00000e+00	0.00000e+00	0.00000e+00	0.00000e+00	0.00000e+00	0.00000e+00	0.00000e+00	0.00000e+00	0.00000e+00	0.00000e+00	0.00000e+00	0.00000e+00	0.00000e+00	0.00000e+00	0.00000e+00	0.00000e+00	0.00000e+00	0.00000e+00	0.00000e+00	0.00000e+00	0.00000e+00	0.00000e+00	0.00000e+00	0.00000e+00	0.00000e+00	-1.74110e+02	-1.49463e+02	-1.54163e+02	-1.83559e+02	-9.67051e+01	-8.85097e+01	-1.58120e+02	-1.62015e+02	-7.57778e+01	-9.11998e+01	-1.70546e+02	-1.71093e+02	-1.79028e+02	-1.76657e+02	-7.54591e+01	-1.49556e+02	
Factor	3.07533e-05	1.16140e-04	3.88137e-05	1.69307e-01	1.12974e-06	1.04412e-06	1.84577e-01	5.88378e-02	1.11002e-06	1.29812e-06	9.83490e-02	3.36173e-02	3.12576e-02	1.02943e-02	1.39422e-06	1.47485e-02	9.99033e-07	1.02388e-06	2.85475e-07	7.71054e-02	1.12068e-08	1.12247e-08	7.91330e-02	2.67211e-02	1.11987e-08	1.12333e-08	4.26404e-02	1.45631e-02	1.40376e-02	4.62015e-03	1.12025e-08	6.38598e-03	X	X	X	X	X	X	X	X	X	X	X	X	X	X	X	X	



#DISTANCE SETTINGS
A = Detector Channel
A-1	A-2	A-3	A-4	A-5	A-6	A-7	A-8	A-9	A-10	A-11	A-12	A-13	A-14	A-15	A-16	

2.5000e+00	3.0000e+00	2.5000e+00	3.0000e+00	2.0000e+00	3.0000e+00	1.5000e+00	3.0000e+00	3.0000e+00	3.0000e+00	3.0000e+00	3.0000e+00	3.0000e+00	3.0000e+00	1.5000e+00	3.0000e+00	

B = Detector Channel
B-1	B-2	B-3	B-4	B-5	B-6	B-7	B-8	B-9	B-10	B-11	B-12	B-13	B-14	B-15	B-16	

1.0000e+01	1.0000e+01	1.0000e+01	1.4400e+00	1.0000e+01	1.0000e+01	1.5100e+00	1.9400e+00	1.0000e+01	1.0000e+01	1.9900e+00	2.4900e+00	2.4100e+00	2.9000e+00	1.0000e+01	2.9800e+00	




#DATA BEGINS
time	group	step	mark	flag	A-AC1	A-AC2	A-AC3	A-AC4	A-AC5	A-AC6	A-AC7	A-AC8	A-AC9	A-AC10	A-AC11	A-AC12	A-AC13	A-AC14	A-AC15	A-AC16	A-DC1	A-DC2	A-DC3	A-DC4	A-DC5	A-DC6	A-DC7	A-DC8	A-DC9	A-DC10	A-DC11	A-DC12	A-DC13	A-DC14	A-DC15	A-DC16	A-Ph1	A-Ph2	A-Ph3	A-Ph4	A-Ph5	A-Ph6	A-Ph7	A-Ph8	A-Ph9	A-Ph10	A-Ph11	A-Ph12	A-Ph13	A-Ph14	A-Ph15	A-Ph16	B-AC1	B-AC2	B-AC3	B-AC4	B-AC5	B-AC6	B-AC7	B-AC8	B-AC9	B-AC10	B-AC11	B-AC12	B-AC13	B-AC14	B-AC15	B-AC16	B-DC1	B-DC2	B-DC3	B-DC4	B-DC5	B-DC6	B-DC7	B-DC8	B-DC9	B-DC10	B-DC11	B-DC12	B-DC13	B-DC14	B-DC15	B-DC16	B-Ph1	B-Ph2	B-Ph3	B-Ph4	B-Ph5	B-Ph6	B-Ph7	B-Ph8	B-Ph9	B-Ph10	B-Ph11	B-Ph12	B-Ph13	B-Ph14	B-Ph15	B-Ph16	aux-1	digaux	

19489.682	1	1	0	256	0.22624	0.13764	0.15113	0.30962	0.19304	0.10575	0.052914	0.35054	0.12482	0.17649	0.21087	0.30954	0.28708	0.21086	0.19264	0.14557	-3.7896	-3.9333	-4.6208	-3.9771	-4.4313	-4.3313	-3.9271	-4.7771	-4.2021	-3.8542	-4.8833	-3.8063	-4.4625	-4.5771	-3.6042	-4.6042	228.863	35.892	136.771	-84.303	-27.412	76.470	201.663	-115.995	20.045	225.647	212.862	124.279	25.660	199.851	153.425	60.380	0.00052573	0.00095939	0.00072763	1379.2	1.0178e-05	1.4826e-05	1555.3	454.87	3.1167e-06	1.0572e-05	581.02	186.3	142.68	43.592	6.585e-06	63.095	0.0029295	0.0029708	0.0008234	1367.1	3.2337e-05	3.2528e-05	1523.2	454.71	3.2428e-05	3.2516e-05	594.76	195.72	156.91	49.055	3.2896e-05	69.918	129.404	216.012	-53.984	-108.415	78.276	39.244	-108.978	-104.737	50.668	88.676	-105.528	-101.898	-101.052	-96.565	6.989	-97.992	-8191	255	
19489.777	1	1	0	0	0.097021	0.064153	0.18179	0.33775	0.076426	0.039104	0.10492	0.13418	0.17391	0.10902	0.23266	0.060953	0.17036	0.063634	0.12004	0.11266	-4.0104	-3.8479	-4.625	-4.1125	-4.3271	-4.5146	-3.9167	-4.6583	-4.2688	-3.7896	-4.9875	-3.9875	-4.0875	-4.7083	-3.8271	-4.5458	23.138	-21.751	64.538	199.302	-28.827	-32.917	208.588	213.983	-13.062	63.910	57.689	40.496	222.967	-92.677	115.009	-64.724	0.00050439	0.0014835	0.00074415	1375	4.8505e-06	1.1279e-05	1565.2	455.31	1.0183e-05	1.83e-06	573.65	185.28	141.02	42.099	1.9267e-05	60.492	0.0029684	0.0030472	0.00084932	1374.3	3.3242e-05	3.3141e-05	1535.2	456.71	3.2959e-05	3.2897e-05	593.83	193.95	155.68	48.099	3.2921e-05	68.132	146.160	196.522	-108.285	-108.303	236.797	-67.668	-109.211	-104.612	84.988	-116.050	-105.600	-102.049	-100.965	-96.469	40.338	-98.362	-8191	255	
19489.873	1	1	0	0	0.14194	0.2004	0.070792	0.13213	0.10922	0.090513	0.22026	0.1816	0.11211	0.11314	0.19757	0.17713	0.24503	0.12465	0.089631	0.20948	-4.1271	-3.7313	-4.6771	-4.2042	-4.0875	-4.6896	-4.1104	-4.4812	-4.3479	-3.7042	-4.7417	-4.1958	-4.075	-4.7208	-3.8083	-4.2479	136.689	84.791	22.704	-48.300	123.562	-111.426	210.680	200.836	175.665	170.768	81.651	-41.994	-106.110	-110.401	26.721	201.788	0.0002951	0.00080187	0.00023428	1367.8	2.3327e-06	9.125e-06	1535.4	446.37	4.8119e-06	1.6655e-05	564.14	179.95	137.29	40.987	1.5183e-05	58.931	0.0029686	0.0030249	0.00084826	1369.1	3.3293e-05	3.3417e-05	1516.3	451.88	3.348e-05	3.3512e-05	587.2	191.09	153.48	47.476	3.3432e-05	67.304	145.646	-62.850	33.985	-108.282	-105.990	218.476	-108.923	-104.654	-92.673	13.997	-105.474	-101.891	-100.902	-96.027	24.079	-97.990	-8191	255	
19489.992	1	1	0	0	0.21555	0.19454	0.11484	0.062986	0.14661	0.04453	0.10115	0.23541	0.016324	0.19544	0.084326	0.16755	0.098386	0.17533	0.13057	0.18307	-4.1167	-3.7771	-4.6188	-4.3562	-3.9104	-4.7771	-3.9938	-4.2438	-4.4167	-3.8771	-4.6208	-4.35	-3.9083	-4.7583	-3.7333	-4.1813	-37.596	224.272	-119.096	143.589	5.398	53.081	40.749	183.715	-108.146	226.882	-40.515	175.555	-94.794	104.000	-107.220	152.040	0.00022908	0.00019762	0.00022305	1361.6	7.934e-06	1.5109e-05	1536.9	451.85	1.6893e-05	2.151e-05	570.16	179.6	138.99	41.467	4.8451e-06	59.422	0.0029949	0.003083	0.00086199	1369.8	3.3755e-05	3.4227e-05	1530.6	458.32	3.511e-05	3.5708e-05	601.82	194.98	158.51	49.201	3.7598e-05	69.826	155.068	-66.458	184.896	-108.280	-90.283	-99.079	-109.136	-104.691	-45.357	-29.965	-105.488	-101.830	-101.144	-96.614	231.992	-98.129	-8191	255	
19490.088	1	1	0	0	0.17348	0.048497	0.10375	0.1776	0.054687	0.033968	0.046963	0.14385	0.07452	0.21636	0.075112	0.26849	0.11159	0.19643	0.19854	0.27208	-4.3917	-3.6542	-4.4125	-4.4	-3.8937	-4.8604	-4.1854	-4.1521	-4.7167	-3.8063	-4.6292	-4.5542	-3.775	-4.875	-3.9188	-4.0229	190.404	86.539	135.180	202.527	-113.583	-104.494	-70.538	186.667	-67.393	81.070	-80.350	187.511	148.719	235.928	-120.395	225.514	0.00033412	0.00079358	0.00081779	1376.3	2.6443e-05	4.9026e-06	1544.2	454.89	9.7651e-06	1.5545e-05	572.41	181.38	139.33	41.996	1.6729e-05	59.635	0.0033736	0.0034756	0.00097292	1412.9	3.7839e-05	3.8153e-05	1564.4	469.14	3.7389e-05	3.7591e-05	612.58	197.46	161.05	50.061	3.8205e-05	70.928	149.525	-1.947	-65.038	-108.022	-26.706	-62.090	-109.062	-104.527	-71.715	2.345	-105.337	-101.636	-100.970	-96.335	88.643	-98.197	-8191	255	
19490.160	1	1	0	0	0.078058	0.16417	0.093005	0.33959	0.11856	0.054492	0.20396	0.29989	0.095268	0.1897	0.15407	0.27495	0.28997	0.25887	0.087318	0.15085	-4.3938	-3.7396	-4.3208	-4.5729	-3.8563	-4.7688	-4.3625	-4.2021	-4.6042	-3.8292	-4.3792	-4.725	-3.7125	-4.8542	-4.1271	-3.9521	71.828	-43.117	19.583	197.747	-96.728	42.103	177.102	207.923	179.853	24.943	169.130	164.001	183.317	-108.458	153.604	216.027	0.00035967	0.0011522	0.00079246	1404.7	1.787e-05	1.3763e-05	1578.8	466.3	1.2913e-05	1.6796e-05	584.31	183.24	141.6	42.453	2.418e-05	60.559	0.0034876	0.0036311	0.0010254	1452	4.0921e-05	4.1516e-05	1610.3	485.17	4.0771e-05	4.0902e-05	630.61	202.13	164.77	51.197	3.8861e-05	71.293	116.652	-78.332	-19.550	-108.144	26.777	-88.016	-108.907	-104.712	8.373	-29.196	-105.383	-101.999	-101.022	-96.167	42.680	-98.048	-8191	255	
19490.279	1	1	0	0	0.18206	0.058237	0.096284	0.17679	0.017864	0.087782	0.14713	0.12741	0.073265	0.061582	0.13038	0.052123	0.28913	0.13799	0.16815	0.20771	-4.4604	-3.8792	-4.2208	-4.6937	-3.6542	-4.5333	-4.4229	-4.175	-4.7292	-3.9208	-4.3167	-4.6458	-3.9542	-4.5979	-4.4083	-3.925	-108.880	-19.955	212.316	201.813	214.973	21.694	163.141	158.091	-102.044	189.754	218.383	-88.520	234.473	230.381	-40.782	118.095	0.00086093	0.0020444	0.00063506	1432.1	8.3893e-06	6.8663e-06	1574.1	466.96	1.4696e-05	1.5725e-05	576.67	180.27	139.32	41.456	7.1945e-06	58.013	0.0034221	0.0035207	0.00097564	1449.1	3.8269e-05	3.8706e-05	1597.1	481.3	3.9054e-05	3.9779e-05	621.3	198.15	162.79	49.884	3.8577e-05	69.002	152.823	-50.823	-116.564	-108.039	-99.311	-49.905	-109.045	-104.795	234.652	50.448	-105.651	-101.847	-100.904	-96.242	-24.541	-98.138	-8191	255	
19490.377	1	1	0	0	0.029302	0.12905	0.24474	0.17604	0.15825	0.19233	0.24172	0.21483	0.18067	0.10148	0.11703	0.10265	0.080055	0.13462	0.070099	0.18205	-4.3	-3.9062	-4.025	-4.75	-3.625	-4.5188	-4.5583	-3.8125	-4.7292	-3.9229	-4.1708	-4.7125	-3.8104	-4.5083	-4.6021	-3.8708	-93.402	124.079	93.801	-73.579	203.628	204.680	173.533	107.018	1.858	3.703	-120.675	216.451	-62.555	-9.643	146.460	1.312	3.2687e-05	0.0013287	0.00012102	1395.7	3.5815e-06	2.7141e-05	1532.9	455.04	6.4519e-06	7.8272e-06	561.5	175.2	136.74	40.798	1.6349e-05	57.479	0.0034289	0.0035219	0.00098093	1422.8	3.911e-05	3.9537e-05	1564.2	474.02	4.042e-05	4.0974e-05	614.49	196.98	162.72	50.013	3.9915e-05	69.342	132.534	73.866	221.599	-108.103	229.059	-47.993	-109.130	-104.432	133.866	8.166	-105.699	-101.829	-101.168	-96.562	89.366	-98.488	-8191	255	
19490.473	1	1	0	0	0.16981	0.26213	0.16463	0.20946	0.080173	0.20591	0.14532	0.22233	0.015518	0.18666	0.035236	0.052814	0.15929	0.070442	0.12992	0.085865	-4.5208	-4.15	-4.0271	-4.85	-3.8021	-4.2583	-4.7021	-3.7313	-4.5708	-4.2083	-4.025	-4.8313	-4.1292	-4.3396	-4.5437	-3.8521	-115.501	119.169	149.906	201.074	15.042	-99.095	165.262	223.493	151.826	-82.975	-29.499	-119.190	-117.350	-119.266	224.676	224.866	0.00049341	0.0025511	0.0007145	1377.1	3.949e-06	1.4795e-05	1541.3	460.34	1.1697e-05	1.0308e-05	570.47	180.16	140	42.093	8.5377e-06	59.608	0.0034799	0.0035377	0.0009722	1418.5	3.7883e-05	3.7837e-05	1564.5	474.9	3.7892e-05	3.8212e-05	614.73	198.39	163.29	50.581	3.8163e-05	70.509	133.972	223.060	6.174	-108.378	169.541	-95.335	-108.825	-104.813	-8.716	-78.072	-105.780	-101.778	-100.882	-96.690	111.537	-98.032	-8191	255	
19490.568	1	1	0	0	0.096842	0.13548	0.19587	0.027336	0.11774	0.044668	0.10146	0.19575	0.17115	0.088002	0.33613	0.057786	0.037911	0.29075	0.089973	0.15956	-4.3458	-4.3375	-3.8563	-4.8667	-3.8583	-4.3854	-4.9375	-3.9708	-4.5125	-4.3646	-3.925	-4.8354	-4.025	-4.1208	-4.6833	-4.0979	34.889	-69.309	-85.256	65.381	-66.463	45.850	199.573	122.756	-50.077	-50.010	-106.344	-19.669	-46.844	197.630	91.104	185.221	0.00041422	0.00088684	0.00031422	1406.1	1.4713e-05	1.2558e-05	1580.3	468.34	1.0953e-05	1.3828e-05	583.66	183.53	143.3	43.176	2.1724e-05	60.467	0.0034373	0.0035047	0.0009701	1438.4	3.7625e-05	3.7358e-05	1584.8	480.3	3.6721e-05	3.6931e-05	619.22	199.76	164.08	50.904	3.7368e-05	71.566	225.348	-53.694	221.890	-108.135	193.817	17.712	-108.632	-104.692	-52.713	-97.445	-105.687	-101.913	-100.903	-96.290	236.739	-97.973	-8191	255	
19490.689	1	1	0	0	0.10406	0.13798	0.32866	0.31622	0.037391	0.27594	0.11584	0.2402	0.18202	0.22714	0.20818	0.28339	0.2877	0.23622	0.047958	0.37949	-4.0542	-4.5604	-3.7208	-5.0667	-4.1813	-4.0563	-4.8729	-4.0021	-4.2812	-4.4167	-3.8354	-4.7896	-4.1562	-3.85	-4.5625	-4.0417	-58.900	84.430	-88.819	-111.733	108.527	114.512	121.741	209.380	12.746	48.017	181.195	-116.395	195.692	201.398	-62.250	230.437	0.00077826	0.001242	0.00034693	1419.5	6.8175e-06	1.6932e-05	1582	471.35	1.0108e-05	1.1735e-05	582.83	183.31	143.02	43.252	9.8421e-06	61.277	0.0034209	0.0035137	0.00098402	1460.2	3.9048e-05	3.895e-05	1602.2	486.91	3.8009e-05	3.77e-05	620.69	199.56	162.7	50.255	3.5924e-05	69.918	143.053	-47.700	-100.789	-108.107	71.004	-14.344	-108.741	-104.787	52.036	63.247	-105.782	-101.981	-100.786	-97.314	86.071	-98.549	-8191	255	
19490.762	1	1	0	0	0.11953	0.14176	0.08636	0.075619	0.24576	0.23543	0.32005	0.20005	0.26953	0.15906	0.21417	0.018468	0.013727	0.18148	0.084889	0.19493	-3.9646	-4.4563	-3.8083	-4.7458	-4.2229	-3.8833	-4.9271	-3.8583	-4.25	-4.6146	-3.8375	-4.6937	-4.3333	-3.8896	-4.7896	-3.9771	-16.670	-7.421	116.222	-90.815	52.000	-49.950	225.651	190.613	94.577	45.043	156.884	191.547	163.492	204.188	-18.170	160.274	0.00081044	0.0013709	0.00035186	1429.6	8.8972e-06	4.7926e-06	1577.7	470.23	7.5072e-06	7.4226e-06	582.17	181	141.86	42.562	2.245e-05	59.282	0.003193	0.003295	0.00091459	1428.3	3.6061e-05	3.6155e-05	1566.3	475.12	3.626e-05	3.6534e-05	610.25	195.81	160.54	49.303	3.6108e-05	68.816	159.548	126.797	-83.491	-108.532	-100.587	213.432	-109.171	-104.881	33.795	213.461	-106.082	-102.799	-101.476	-96.672	178.714	-98.238	-8191	255	
19490.883	1	1	0	0	0.029975	0.056679	0.21906	0.41626	0.090107	0.2065	0.53255	0.15234	0.26323	0.10027	0.13718	0.22676	0.12981	0.081253	0.28614	0.064121	-3.775	-4.5458	-3.6104	-4.6062	-4.2708	-3.7812	-4.8833	-4.1979	-4.1167	-4.7396	-3.9292	-4.5333	-4.6375	-3.8792	-4.7542	-4.0792	40.726	199.379	17.411	226.922	119.275	-42.884	210.152	139.904	111.589	-51.287	222.790	208.229	116.524	-117.755	13.409	216.358	0.00019058	0.00058498	0.00029558	1411.6	4.596e-06	1.5633e-05	1583.3	474.32	9.7189e-06	2.7716e-05	586.51	184.07	143.45	42.722	1.2828e-05	59.979	0.0032084	0.0032655	0.00091134	1417.3	3.5594e-05	3.5577e-05	1565.9	475.7	3.5984e-05	3.647e-05	615.56	197.91	162.56	50.266	3.777e-05	70.173	133.082	-53.972	-87.255	-108.650	-120.256	33.811	-109.032	-104.943	-4.131	7.374	-105.938	-102.428	-101.175	-96.385	201.906	-98.126	-8191	255	
19490.979	1	1	0	0	0.10482	0.24088	0.28765	0.18153	0.1955	0.1104	0.18064	0.090563	0.10874	0.27729	0.051574	0.093939	0.034547	0.14457	0.058891	0.05394	-3.5958	-4.6562	-3.8458	-4.6125	-4.4417	-3.8521	-4.7021	-4.4104	-3.9792	-4.75	-3.9833	-4.4833	-4.5125	-3.875	-4.5437	-4.4313	169.552	128.037	-117.209	214.932	19.497	197.425	133.150	159.623	-65.302	9.520	142.296	-108.803	232.799	87.539	78.973	89.777	0.00036975	0.0017028	0.00033607	1425.6	9.2332e-06	1.7409e-05	1588.7	472.65	7.676e-06	8.0495e-06	588.55	185.4	145.01	43.289	1.0668e-05	60.971	0.0033716	0.0034474	0.00096454	1439.9	3.7168e-05	3.7441e-05	1584.1	480.5	3.654e-05	3.6598e-05	617.23	198.7	163.41	50.563	3.6915e-05	70.372	31.641	-19.151	106.532	-108.137	126.992	-32.956	-108.904	-104.702	195.301	-52.861	-105.449	-102.320	-100.807	-96.286	60.319	-97.778	-8191	255	
19491.072	1	1	0	0	0.083803	0.23807	0.16189	0.22395	0.086688	0.25974	0.10458	0.21038	0.25983	0.0469	0.35646	0.26596	0.25598	0.11329	0.21947	0.062508	-3.5667	-4.7479	-3.8875	-4.2542	-4.5563	-3.6604	-4.7958	-4.4333	-3.875	-4.7458	-3.9896	-4.2229	-4.775	-3.8375	-4.3583	-4.4646	-105.679	192.782	196.906	137.363	-20.738	203.298	195.186	131.287	15.650	-105.849	208.458	226.082	212.225	202.276	182.471	162.339	0.00039618	0.0022854	0.00071732	1443.4	7.8489e-06	1.6154e-05	1594.8	479	1.6777e-05	3.8249e-05	596.13	188.78	148.45	44.707	2.8906e-05	62.203	0.0032812	0.0033463	0.00093582	1448.2	3.566e-05	3.5564e-05	1585.4	482.19	3.4645e-05	3.4898e-05	619.72	199.88	163.75	50.981	3.4512e-05	70.617	135.548	10.290	55.268	-108.208	-15.167	59.332	-108.977	-104.630	-46.055	-64.231	-105.756	-101.893	-100.910	-96.490	-75.052	-97.738	-8191	255	
19491.168	1	1	0	0	0.063439	0.043327	0.093114	0.093345	0.14715	0.2513	0.29055	0.21456	0.10762	0.19982	0.22022	0.19594	0.27651	0.030624	0.15422	0.17322	-3.6021	-4.7333	-4.1521	-4.1229	-4.7021	-3.7646	-4.7083	-4.5938	-3.7292	-4.6958	-4.2458	-4.1354	-4.8271	-3.9875	-4.3479	-4.6625	8.106	-35.152	20.254	-9.143	42.576	61.488	177.198	162.081	-106.653	-66.694	158.051	163.807	205.327	102.116	228.071	226.189	0.00053875	0.0024242	0.00030102	1448	6.5647e-06	1.7225e-05	1595.7	479.21	7.3628e-06	1.2483e-05	586.18	183.59	144.49	42.669	1.9364e-05	59.328	0.0031079	0.0031921	0.00089238	1456.8	3.4862e-05	3.5287e-05	1588.2	483.32	3.4209e-05	3.4529e-05	612.62	196.34	161.42	49.447	3.3666e-05	68.085	156.013	55.980	-92.139	-108.183	-63.671	5.443	-108.935	-104.422	158.752	-94.023	-105.736	-102.193	-100.692	-96.343	177.517	-97.887	-8191	255	
19491.289	1	1	0	0	0.21504	0.050653	0.12366	0.16099	0.14535	0.20515	0.1513	0.10537	0.11785	0.17304	0.3475	0.1114	0.2486	0.14849	0.29546	0.089019	-3.5708	-4.6167	-4.0979	-4.1771	-4.6188	-4.0042	-4.5417	-4.775	-3.8292	-4.6729	-4.2625	-3.9667	-4.8208	-3.9917	-4.1687	-4.8521	-89.782	71.700	-55.593	130.949	-99.835	22.578	228.205	154.448	29.756	-1.312	186.768	186.917	-121.405	217.530	134.846	-90.529	8.6323e-05	0.0015705	0.00025991	1414.7	3.8599e-06	1.4294e-05	1561.9	471.46	1.0048e-05	2.827e-05	576.85	181.1	143.57	43.234	1.8141e-05	59.655	0.0030035	0.0030991	0.00086738	1419.2	3.3843e-05	3.4114e-05	1549.5	473.61	3.3759e-05	3.4096e-05	602.05	193.07	159.7	49.229	3.4042e-05	67.709	59.870	-45.684	22.161	-108.263	123.025	15.595	-108.994	-104.790	1.413	35.055	-105.467	-102.164	-100.931	-96.545	-35.073	-98.215	-8191	255	
19491.361	1	1	0	0	0.10891	0.20075	0.16758	0.31781	0.27273	0.11104	0.35426	0.21553	0.14118	0.13321	0.30804	0.13705	0.077115	0.15795	0.073482	0.21436	-3.6146	-4.6625	-4.3042	-4.0917	-4.7792	-4.0687	-4.2438	-4.8021	-3.8438	-4.4625	-4.5417	-3.9437	-4.8958	-4.0646	-4.0729	-4.7229	24.501	-28.178	-101.449	153.613	-118.094	210.114	128.963	177.404	203.544	-19.473	218.669	209.796	148.919	128.596	86.747	231.749	0.00055975	0.0011688	0.00045827	1412.7	3.6095e-06	1.2893e-05	1566.8	473.99	1.4471e-06	8.7603e-06	582.86	183.63	144.4	43.045	1.3199e-05	60.069	0.0030474	0.0031161	0.00086355	1414	3.3742e-05	3.4053e-05	1549.3	474.35	3.4114e-05	3.4384e-05	605.22	194.64	160.96	49.641	3.4577e-05	68.498	188.502	196.995	-86.056	-108.171	-37.937	-72.390	-109.093	-104.488	121.213	-68.872	-105.258	-102.232	-101.199	-96.566	-40.248	-98.099	-8191	255	
19491.457	1	1	0	0	0.040404	0.12502	0.092044	0.18544	0.15174	0.10952	0.32916	0.13856	0.062646	0.18751	0.14577	0.1526	0.025215	0.18735	0.17962	0.1941	-3.3208	-4.3187	-4.4354	-3.85	-4.5396	-4.1125	-4.1708	-4.7458	-3.9521	-4.3187	-4.6167	-3.8	-4.7229	-4.3396	-3.6729	-4.7417	170.130	63.361	-66.858	184.432	62.717	-86.910	197.695	230.526	122.828	-73.292	210.617	231.621	221.068	95.389	196.544	183.506	0.00054063	0.0007592	0.0002565	1424.8	1.1757e-05	1.6817e-05	1574.9	476.77	2.8782e-05	8.7886e-06	582.82	183.69	145.96	43.583	3.6948e-06	60.654	0.0031273	0.0031945	0.00088792	1423.4	3.4789e-05	3.4947e-05	1560.3	477.51	3.4701e-05	3.4988e-05	609.65	196.98	162.49	50.268	3.5271e-05	69.692	171.114	-121.900	-79.543	-108.584	-113.295	-95.562	-108.900	-104.537	-5.545	-105.930	-105.448	-102.071	-101.043	-96.446	-54.394	-98.392	-8191	255	
19491.553	1	1	0	0	0.20002	0.17427	0.089886	0.22349	0.12681	0.072242	0.32165	0.087135	0.20121	0.11908	0.17507	0.056775	0.12771	0.23166	0.20836	0.21864	-3.4792	-4.15	-4.4583	-3.7917	-4.5437	-4.0938	-4.0604	-4.8771	-3.9458	-4.1813	-4.7458	-3.8833	-4.6896	-4.3562	-3.6083	-4.7875	-91.277	-25.785	51.909	219.824	89.390	-29.203	176.951	140.785	189.970	78.720	149.483	-14.996	177.541	196.549	70.946	235.003	0.00044614	0.0011942	0.00034268	1416.8	6.8396e-06	1.1966e-05	1585	475.57	5.9725e-06	1.0995e-05	581.43	184.25	144.86	43.184	1.5476e-05	59.685	0.0032146	0.0032932	0.00092143	1436	3.6599e-05	3.6878e-05	1581.4	483.94	3.6894e-05	3.6856e-05	618.38	199.44	164.22	50.474	3.6297e-05	69.692	117.128	52.241	32.307	-108.293	-34.692	-35.570	-108.964	-104.436	149.446	64.658	-105.761	-101.950	-100.994	-96.333	-39.912	-98.103	-8191	255	
19491.672	1	1	0	0	0.13083	0.066682	0.20907	0.12045	0.21309	0.13459	0.16825	0.11181	0.12195	0.20454	0.14433	0.2697	0.30444	0.17686	0.10966	0.29101	-3.5833	-4.1729	-4.4729	-3.8042	-4.4292	-4.2562	-4.0375	-4.8146	-4.0854	-4.0104	-4.8292	-3.7687	-4.5021	-4.4333	-3.825	-4.6625	183.214	-42.539	39.304	137.522	33.862	56.576	180.432	209.425	100.119	131.673	226.989	194.346	-91.700	165.388	-36.822	80.238	0.00056914	0.0021006	0.00047831	1406.8	1.5704e-05	1.0215e-05	1554	467.12	8.3682e-06	1.8438e-05	570.26	178.54	140.59	41.825	1.2055e-05	57.911	0.0032805	0.0033265	0.00093104	1429	3.6635e-05	3.6723e-05	1560.2	477.63	3.6932e-05	3.7025e-05	608.4	195.42	161.66	49.561	3.6515e-05	68.431	144.307	-96.504	-52.728	-108.064	-5.651	92.601	-109.108	-104.627	163.146	88.032	-105.405	-101.810	-100.844	-96.634	168.542	-97.886	-8191	255	
19491.768	1	1	0	0	0.061227	0.12707	0.21363	0.23383	0.28624	0.12954	0.062564	0.27049	0.1239	0.25597	0.090044	0.21063	0.3741	0.068362	0.11511	0.19399	-3.8229	-3.8854	-4.7583	-4.0854	-4.2875	-4.4979	-3.8104	-4.7521	-4.0083	-4.0042	-4.6396	-3.9979	-4.2708	-4.7333	-3.7021	-4.7063	118.787	189.059	234.662	230.396	228.272	148.847	-39.397	-87.500	-56.156	20.277	115.693	181.039	-108.029	-54.910	-84.967	205.077	0.00034205	0.0011146	0.00041778	1383.8	5.7387e-06	1.2883e-05	1536.5	466.22	7.9219e-06	1.6098e-05	571.38	179.14	141.61	42.142	7.9042e-06	58.734	0.0032662	0.0033084	0.00092198	1410.3	3.5788e-05	3.5927e-05	1544.7	475.62	3.5737e-05	3.5829e-05	606.62	195.14	161.43	49.565	3.5856e-05	68.721	173.364	-9.938	204.459	-108.270	77.413	74.081	-108.912	-104.401	-116.488	79.361	-105.480	-102.035	-100.236	-96.093	92.508	-97.907	-8191	255	
19491.863	1	1	0	0	0.078335	0.22007	0.034864	0.03056	0.056863	0.11305	0.12157	0.14364	0.30075	0.099559	0.21929	0.14712	0.2849	0.43131	0.10476	0.072245	-3.8542	-3.8875	-4.7375	-4.1271	-4.0833	-4.7604	-3.9813	-4.6167	-4.3896	-3.8979	-4.8438	-4.0042	-4.0333	-4.6729	-3.7479	-4.5458	129.032	85.246	230.142	224.078	164.941	-54.143	212.275	218.832	98.654	-42.775	216.640	171.461	183.176	-118.904	-92.043	221.145	0.00034849	0.0016394	0.00015158	1402.3	9.1045e-06	8.2095e-06	1560.2	472.04	6.526e-06	1.4768e-05	580.24	184.73	144.89	43.869	8.6705e-06	60.872	0.003211	0.0032509	0.00090766	1423.5	3.5133e-05	3.509e-05	1561	479.42	3.4741e-05	3.4785e-05	612.49	197.88	162.58	50.515	3.4871e-05	69.765	184.297	-114.159	-24.278	-108.214	32.427	213.545	-108.830	-104.366	-110.655	-55.724	-104.956	-101.823	-100.999	-96.276	-9.980	-98.091	-8191	255	
19491.961	1	1	0	0	0.15889	0.12585	0.071383	0.12742	0.045096	0.14978	0.086639	0.2649	0.11398	0.22958	0.082099	0.29891	0.16655	0.19411	0.16178	0.096464	-4.075	-3.8063	-4.7188	-4.3438	-3.9313	-4.7438	-3.9083	-4.5312	-4.4958	-3.6583	-4.8958	-4.4062	-3.9125	-4.8375	-3.8	-4.4688	124.382	-107.635	-28.901	177.826	96.178	71.269	-98.230	187.984	194.715	-19.950	-115.055	-79.990	-82.026	180.116	73.669	-86.114	0.00055781	0.0010784	0.00048989	1421.5	2.0384e-05	7.1412e-06	1581.4	480.04	7.5503e-06	1.9366e-06	592.31	186.59	148.21	44.728	4.4174e-06	62.263	0.003112	0.0031689	0.0008931	1441.8	3.478e-05	3.4954e-05	1584.6	486.11	3.4275e-05	3.4607e-05	621.01	199.84	164.09	51.03	3.4203e-05	70.595	122.617	-21.577	-34.307	-108.085	-33.004	-87.393	-108.777	-104.744	20.082	-35.653	-105.382	-101.842	-100.735	-96.629	151.787	-98.025	-8191	255	
19492.057	1	1	0	0	0.1224	0.056616	0.17347	0.19839	0.080041	0.28443	0.17974	0.41196	0.077383	0.17573	0.17041	0.18461	0.048911	0.17228	0.088725	0.43788	-4.1312	-3.7833	-4.7875	-4.425	-3.9521	-4.6875	-4.1021	-4.2208	-4.7083	-3.7812	-4.7063	-4.4458	-4.0958	-4.9104	-3.9667	-4.3812	53.996	7.105	56.006	192.849	-63.096	-116.747	53.569	170.140	64.809	-6.680	232.686	212.355	202.719	-27.321	117.399	125.733	0.00058336	0.0015279	0.00056527	1443.3	1.6519e-05	1.0063e-05	1582.6	479.13	1.1932e-05	4.7468e-06	581.89	184.37	143.73	42.794	1.2237e-05	59.236	0.0030463	0.0031318	0.00087191	1456.5	3.4236e-05	3.4455e-05	1592.3	487.25	3.4241e-05	3.4585e-05	617.56	197.68	162.6	49.952	3.4324e-05	68.561	209.271	-90.717	175.661	-108.122	88.301	120.397	-108.885	-104.501	0.092	-82.135	-105.063	-101.724	-100.932	-96.043	25.459	-98.243	-8191	255	
19492.152	1	1	0	0	0.26611	0.15317	0.078471	0.23698	0.1036	0.12661	0.14227	0.13619	0.16727	0.16889	0.29972	0.15474	0.40193	0.39295	0.18459	0.15407	-4.4104	-3.7104	-4.6312	-4.4042	-3.9	-4.7396	-4.1917	-4.3104	-4.6646	-3.6417	-4.6771	-4.5708	-3.7292	-4.8854	-4.1312	-3.9292	22.304	147.252	134.435	224.717	8.788	222.977	177.771	182.659	42.477	-107.734	180.965	196.570	236.235	172.975	223.603	209.294	0.00066335	0.0011753	0.00070543	1401.5	1.7839e-05	2.1706e-05	1529.1	465.68	2.1428e-06	2.5832e-05	568.49	176.6	140.94	42.234	1.8511e-05	58.176	0.0030448	0.0031299	0.00087561	1422.6	3.3873e-05	3.3969e-05	1545.7	473.08	3.373e-05	3.4145e-05	601.31	191.59	158.61	48.924	3.4529e-05	67.006	168.922	19.877	-61.640	-107.892	122.200	110.726	-108.622	-104.465	21.162	78.230	-105.194	-101.907	-101.418	-96.360	-39.749	-98.053	-8191	255	
19492.248	1	1	0	0	0.21792	0.1267	0.084286	0.28936	0.079	0.1009	0.10829	0.13163	0.11089	0.1105	0.11074	0.22513	0.099075	0.22138	0.12023	0.10981	-4.4896	-3.6437	-4.3562	-4.5521	-3.7375	-4.8187	-4.2021	-4.0979	-4.5667	-3.7667	-4.2583	-4.7396	-3.7896	-4.5396	-4.2729	-3.8229	125.847	-28.845	-14.946	-109.844	95.428	-73.113	105.664	175.749	116.336	199.428	195.498	161.754	200.823	225.768	54.781	215.365	0.00079626	0.0007712	0.00056443	1409.3	3.1984e-06	2.0302e-05	1554.4	471.52	1.2906e-05	3.0972e-06	579.18	180.54	141.77	42.679	6.9711e-07	59.079	0.0030971	0.0031745	0.0008849	1419.6	3.4741e-05	3.5204e-05	1550.6	475.26	3.5128e-05	3.5601e-05	607.46	194.18	160.53	49.407	3.5446e-05	67.91	175.302	232.072	-58.721	-108.221	-16.366	40.332	-108.638	-104.560	29.575	-112.946	-105.285	-102.029	-101.074	-97.220	111.408	-98.364	-8191	255	
19492.369	1	1	0	0	0.24534	0.16644	0.18367	0.28597	0.15537	0.052308	0.31334	0.2598	0.23954	0.066057	0.18271	0.088361	0.29882	0.16312	0.28989	0.015523	-4.4917	-3.975	-4.2167	-4.9375	-3.6479	-4.6375	-4.5188	-3.9542	-4.725	-3.7583	-4.3021	-4.7125	-3.7771	-4.6354	-4.3792	-3.825	232.352	146.733	-98.783	189.824	82.803	55.020	201.660	208.853	227.105	103.485	190.586	214.933	185.942	215.658	13.313	119.828	0.00025997	0.0010749	0.000335	1431.5	1.158e-05	4.6803e-06	1579.4	478.81	8.6192e-06	1.9569e-05	588.61	183.63	145.32	43.569	3.1704e-05	60.718	0.0031417	0.0032109	0.00088986	1427	3.4542e-05	3.471e-05	1560.7	477.76	3.4102e-05	3.4443e-05	608.05	194.62	161.08	49.785	3.4376e-05	68.671	123.409	30.385	-60.608	-108.255	30.896	168.848	-108.620	-104.853	65.335	3.974	-105.620	-101.892	-101.513	-96.547	-0.761	-98.395	-8191	255	
19492.465	1	1	0	0	0.11973	0.21686	0.098434	0.20879	0.15007	0.079518	0.21566	0.078853	0.11257	0.17686	0.2187	0.097165	0.090765	0.068912	0.077343	0.076382	-4.4979	-4.0125	-4.0062	-4.6813	-3.675	-4.4417	-4.6021	-3.9375	-4.6479	-3.9688	-3.9042	-4.6583	-3.8604	-4.375	-4.5833	-3.9729	-52.931	157.040	123.857	230.111	-106.257	-99.475	169.233	-79.512	165.984	41.731	219.397	-103.834	231.499	216.424	-109.999	99.512	0.00080861	0.0016408	0.00027367	1453.1	6.8908e-06	8.9355e-06	1612.8	487.31	3.348e-06	1.8766e-05	598.11	187.78	148.24	44.435	2.9051e-05	61.132	0.0031007	0.0031943	0.00088328	1446.1	3.4883e-05	3.5018e-05	1581	485.68	3.4419e-05	3.4699e-05	617.05	198.1	163.47	50.46	3.4293e-05	69.126	158.682	-33.396	217.367	-108.302	88.170	5.422	-109.026	-104.781	-26.474	51.018	-105.773	-102.322	-100.825	-96.559	-23.618	-98.537	-8191	255	
19492.562	1	1	0	0	0.20618	0.058909	0.082257	0.16779	0.15834	0.11609	0.17921	0.26382	0.4142	0.13642	0.18609	0.18125	0.079308	0.021242	0.070192	0.16622	-4.3021	-4.2125	-3.8396	-4.8146	-3.7875	-4.3625	-4.7729	-3.8458	-4.7146	-4.2333	-3.9458	-4.5917	-4.125	-4.1417	-4.575	-3.9896	219.863	-55.771	-57.199	213.562	-121.301	-50.715	176.429	159.290	41.813	77.690	-121.741	215.745	172.571	24.102	219.494	215.475	0.00039495	0.0015447	0.00023955	1460.1	4.5941e-06	2.2149e-05	1591.6	482.82	3.1701e-05	2.912e-05	586.27	183.53	145.56	43.136	2.09e-05	59.626	0.0030868	0.0031605	0.00087585	1445.3	3.4376e-05	3.4073e-05	1567.5	481.19	3.3799e-05	3.377e-05	605.1	193.38	159.95	48.847	3.2823e-05	66.978	163.882	-39.049	-91.517	-108.270	72.366	13.064	-109.070	-104.733	5.229	37.995	-105.911	-101.996	-100.745	-96.671	-7.768	-98.648	-8191	255	
19492.656	1	1	0	0	0.026361	0.089803	0.058875	0.13052	0.24812	0.11515	0.076671	0.23346	0.28155	0.046539	0.14158	0.32595	0.29902	0.11843	0.20297	0.38843	-4.4229	-4.4313	-3.9417	-4.9771	-3.8438	-4.1042	-4.8042	-3.6958	-4.4771	-4.3333	-4.0104	-4.7354	-4.1937	-4.1958	-4.7271	-4.0604	61.160	25.292	-80.606	145.842	-75.236	74.252	-121.634	130.531	-65.877	73.098	235.197	-118.096	182.577	60.396	7.801	158.028	0.00070964	0.00055068	0.00022424	1435.4	2.0518e-05	9.5709e-06	1585.7	483.3	1.8304e-05	6.8314e-06	587.54	184.81	147.82	43.613	2.1911e-05	60.922	0.0029336	0.0029924	0.00082932	1418.5	3.2549e-05	3.2563e-05	1549.9	476.6	3.2479e-05	3.2549e-05	603.01	192.87	159.44	48.841	3.2164e-05	67.425	130.802	68.133	159.789	-108.301	-92.648	41.415	-109.045	-104.739	141.098	-45.879	-105.762	-102.403	-100.995	-96.627	136.867	-98.485	-8191	255	
19492.752	1	1	0	0	0.25661	0.12348	0.15529	0.14448	0.30301	0.11803	0.31868	0.24074	0.068517	0.27091	0.17322	0.10661	0.095059	0.20512	0.16944	0.24744	-3.9875	-4.375	-3.7354	-4.8229	-4.0458	-4.0083	-4.8021	-3.9792	-4.3958	-4.6625	-3.9292	-4.8458	-4.3729	-3.9542	-4.5958	-3.9042	-19.363	71.883	-106.178	185.127	89.150	-77.030	-105.673	148.732	131.849	-39.340	130.140	77.873	219.166	-88.268	-20.585	212.386	0.00044488	0.0012477	0.00024751	1463.3	1.9015e-05	1.3656e-05	1616.5	491.08	2.068e-05	1.1081e-05	600.99	189.44	149.43	44.802	1.5151e-05	62.321	0.0028812	0.0029301	0.00081829	1436.2	3.2029e-05	3.2018e-05	1571.1	482.61	3.1751e-05	3.2003e-05	611.01	196.19	161.71	49.816	3.2172e-05	68.801	89.747	217.293	-36.602	-108.289	148.664	154.512	-108.752	-104.620	-53.775	-93.936	-105.424	-102.326	-100.963	-96.532	108.779	-98.162	-8191	255	
19492.848	1	1	0	0	0.082142	0.2174	0.2366	0.17748	0.083254	0.3046	0.16621	0.29841	0.11035	0.1507	0.30867	0.058917	0.097056	0.37844	0.22817	0.082893	-3.7854	-4.3604	-3.6854	-4.8187	-4.2688	-3.8021	-4.8167	-3.9417	-4.0042	-4.7792	-3.6437	-4.7021	-4.3333	-3.9146	-4.7521	-4.05	0.808	-38.525	225.333	204.953	102.703	32.403	181.713	144.483	-112.622	-91.742	-104.212	-110.697	145.682	151.771	-50.156	142.223	0.0004577	0.001243	0.00021831	1475.5	6.7016e-06	1.165e-05	1628.4	494.49	9.2801e-06	1.2605e-06	607.49	192.25	150.83	45.708	1.7431e-05	63.777	0.0028802	0.0029494	0.00082104	1448.2	3.1892e-05	3.1941e-05	1588.1	487.43	3.186e-05	3.2073e-05	618.39	198.75	162.82	50.447	3.1965e-05	70.002	168.299	151.693	-109.442	-108.140	-39.466	135.698	-108.827	-104.655	121.273	-111.264	-105.661	-101.968	-100.847	-96.818	-102.885	-98.204	-8191	255	
19492.969	1	1	0	0	0.073097	0.12003	0.080546	0.3796	0.15501	0.29311	0.17109	0.093727	0.13765	0.10941	0.030334	0.22937	0.12823	0.20727	0.046496	0.061086	-3.6979	-4.5938	-3.6708	-4.6896	-4.3271	-3.7375	-4.8604	-4.2562	-3.9833	-4.5625	-3.9042	-4.5396	-4.6354	-3.9042	-4.6062	-4.2125	175.590	-110.709	141.328	210.563	-98.407	33.153	-116.530	101.802	205.283	0.012	42.772	215.390	230.772	226.580	164.730	116.128	0.00058339	0.0012072	0.00059669	1505.2	1.9695e-06	1.9546e-05	1653.9	501.74	7.2114e-06	3.1947e-05	617.98	191.66	151.65	45.097	1.5555e-05	61.887	0.0028703	0.0029179	0.00081773	1464.4	3.2061e-05	3.2351e-05	1602.1	492.4	3.2202e-05	3.2376e-05	621.74	198.08	163.05	49.984	3.2142e-05	68.342	133.775	216.672	74.254	-108.540	225.577	-18.486	-109.056	-105.157	44.827	-37.304	-106.328	-102.820	-101.319	-97.057	11.925	-99.023	-8191	255	
19493.064	1	1	0	0	0.15889	0.085098	0.04507	0.11028	0.20162	0.30877	0.40512	0.47815	0.21313	0.24515	0.16071	0.33389	0.15371	0.31589	0.083398	0.29676	-3.4458	-4.5437	-3.7562	-4.4208	-4.5396	-3.8042	-4.8104	-4.2771	-3.9	-4.6562	-3.7333	-4.3187	-4.5333	-3.6688	-4.4563	-4.3667	-15.009	34.234	231.210	222.655	232.893	-15.798	225.715	154.289	8.074	51.033	106.871	224.223	205.828	147.057	203.750	128.153	0.00066521	0.0011095	0.00026041	1469.3	1.3715e-05	1.3359e-05	1615.9	490.47	1.8533e-05	2.9156e-06	600.37	186.9	147.91	43.949	1.1708e-05	60.448	0.0028405	0.0029079	0.00081544	1441.8	3.1694e-05	3.1998e-05	1565.1	480.77	3.1606e-05	3.1843e-05	606.16	192.89	159.24	48.744	3.1601e-05	66.695	161.071	-62.532	-82.205	-109.016	-52.492	214.822	-109.559	-105.250	7.430	114.608	-106.314	-102.836	-101.763	-97.385	-0.457	-98.985	-8191	255	
19493.160	1	1	0	0	0.066623	0.18628	0.11469	0.19058	0.24609	0.248	0.17696	0.035816	0.081161	0.025528	0.22435	0.24115	0.098218	0.19728	0.17558	0.11081	-3.4896	-4.6979	-3.9188	-4.2458	-4.5062	-3.7021	-4.6771	-4.4542	-3.7896	-4.6125	-3.9313	-4.1937	-4.8167	-3.7167	-4.325	-4.4437	-86.007	146.299	-62.611	-87.203	-56.234	162.815	176.143	181.790	135.572	52.335	-108.859	178.170	-115.920	158.650	59.173	210.331	0.00062706	0.00029587	2.6461e-05	1457.1	9.7414e-06	4.9379e-06	1600	489.07	7.4421e-06	2.9663e-06	598.14	186.85	148.02	44.059	2.2048e-05	60.786	0.0028009	0.0028828	0.00081398	1423	3.1492e-05	3.1957e-05	1556.4	479.19	3.1629e-05	3.2096e-05	606.56	193.42	159.74	49.125	3.2062e-05	67.333	186.423	-38.307	233.494	-108.751	-16.106	1.111	-109.576	-105.207	2.659	-31.027	-106.105	-102.770	-101.704	-97.439	85.467	-99.063	-8191	255	
19493.258	1	1	0	0	0.18331	0.19228	0.17011	0.27637	0.10305	0.07788	0.14502	0.24423	0.042469	0.11089	0.12803	0.14861	0.30602	0.19078	0.16201	0.1375	-3.5958	-4.6604	-3.9375	-4.1083	-4.6687	-3.5729	-4.5771	-4.4917	-3.5687	-4.6021	-4.275	-3.9917	-4.6417	-3.7208	-4.2354	-4.5146	180.258	47.890	59.888	197.405	-111.278	-114.351	204.208	182.345	-1.710	65.025	-63.582	225.315	203.580	140.140	58.572	-45.113	0.00033244	0.0013351	0.00056428	1464.9	8.6498e-06	2.2437e-05	1617.6	490.21	3.6329e-06	7.3973e-06	602.27	188.89	149.37	44.419	2.5944e-05	62.088	0.0028729	0.0029406	0.00082134	1434.8	3.2083e-05	3.2518e-05	1569.3	482.09	3.2189e-05	3.246e-05	611.75	195.39	161.45	49.681	3.2326e-05	68.429	135.196	68.566	235.982	-108.751	154.183	-29.165	-110.390	-105.965	116.042	228.766	-106.812	-103.674	-102.150	-98.111	-18.186	-99.746	-8191	255	
19493.354	1	1	0	0	0.12674	0.022677	0.14083	0.21259	0.029114	0.050398	0.17603	0.27064	0.083427	0.16673	0.17105	0.043445	0.22529	0.17471	0.076845	0.062058	-3.3604	-4.4229	-4.2479	-4.0583	-4.6854	-3.7375	-4.3125	-4.6729	-3.7417	-4.4979	-4.2729	-3.8583	-4.6479	-3.7979	-4.025	-4.6708	-81.933	158.266	79.693	235.507	220.629	87.436	156.995	-122.510	2.516	26.974	189.501	-18.146	152.842	-114.642	197.056	209.057	0.00044043	0.0014224	0.00018659	1472	4.5867e-06	4.3765e-06	1629.5	494.12	2.216e-05	1.6027e-05	606.52	191.24	150.35	45.315	8.8592e-06	62.308	0.002903	0.0029647	0.00082611	1441	3.2147e-05	3.2431e-05	1577.7	484.93	3.1989e-05	3.2401e-05	614.65	197.34	162.4	50.22	3.2334e-05	69.078	123.214	198.677	-113.344	-109.650	170.819	-7.351	-110.402	-105.793	160.514	15.997	-106.693	-103.478	-102.906	-98.436	-22.062	-99.853	-8191	255	
19493.449	1	1	0	0	0.11725	0.19599	0.27819	0.23144	0.15092	0.27288	0.28788	0.15229	0.30078	0.16948	0.15132	0.15276	0.3277	0.1463	0.07613	0.073208	-3.2104	-4.3979	-4.1375	-3.8167	-4.7167	-3.9896	-4.1229	-4.6167	-3.6229	-4.2271	-4.5979	-3.7313	-4.7354	-3.9958	-3.8354	-4.6854	72.992	89.710	74.512	-104.352	-16.157	227.553	119.442	229.834	-81.875	219.495	178.740	-103.622	159.289	124.965	8.121	143.051	0.00050061	0.00087146	0.00029246	1475.6	1.4033e-05	1.273e-05	1619.5	491.46	9.3476e-06	1.7753e-05	594.67	186.35	148.27	43.852	1.4221e-05	60.602	0.0029178	0.0029793	0.00082794	1444.8	3.2187e-05	3.229e-05	1573.7	481.25	3.174e-05	3.1576e-05	604.75	192.75	158.92	48.604	3.0926e-05	66.637	188.738	162.325	-88.929	-110.018	130.466	48.517	-110.766	-106.461	45.293	66.547	-107.517	-104.157	-103.171	-98.576	-71.886	-100.223	-8191	255	
19493.547	1	1	0	0	0.26765	0.12113	0.2732	0.12721	0.18683	0.062798	0.38312	0.11965	0.11833	0.18069	0.10566	0.080612	0.25335	0.1315	0.35614	0.05043	-3.3812	-4.2979	-4.3708	-3.8042	-4.4292	-4.0396	-4.0208	-4.6125	-3.7646	-4.1875	-4.5875	-3.7104	-4.5875	-4.2625	-3.8833	-4.7521	197.226	-98.738	32.720	-97.751	-48.162	-72.642	196.478	200.780	-100.324	-87.638	-71.769	115.628	170.346	177.303	117.130	139.268	9.0351e-05	0.0012349	0.00044329	1448.6	1.0505e-05	2.4148e-05	1597.4	486.33	5.942e-06	4.4724e-06	593.98	185.67	147.68	43.906	1.7202e-05	60.886	0.0027854	0.0028363	0.00078893	1415.3	3.0912e-05	3.1109e-05	1543.7	474.4	3.0875e-05	3.0757e-05	599.5	190.95	157.96	48.311	3.0188e-05	66.472	185.314	-112.980	120.663	-110.404	-52.029	-34.427	-111.181	-106.623	-117.918	-42.180	-107.352	-103.973	-102.886	-98.341	-34.931	-100.084	-8191	255	
19493.643	1	1	0	0	0.27674	0.15031	0.11558	0.26221	0.023232	0.014758	0.35186	0.14689	0.26411	0.13743	0.10022	0.058206	0.1473	0.20337	0.18236	0.16936	-3.4583	-4.3271	-4.4604	-3.8312	-4.5417	-4.2292	-4.0333	-4.9208	-3.825	-4.0958	-4.5	-3.7438	-4.4042	-4.4854	-3.6167	-4.7708	166.174	95.635	-42.778	107.185	-55.972	62.555	214.898	148.718	152.956	213.655	1.573	-17.924	176.198	-57.742	-30.371	212.450	0.00050571	0.0018122	0.00023692	1468.4	2.4394e-05	1.425e-05	1614.3	494.09	3.3296e-06	1.9676e-05	605.9	191.01	151.58	45.391	3.0588e-05	62.949	0.0027036	0.0027558	0.00076671	1420	3.0164e-05	3.0417e-05	1556.4	479.41	3.0357e-05	3.0421e-05	608.38	195	160.76	49.638	3.0448e-05	68.279	204.426	229.517	181.091	-110.319	-53.762	-37.095	-110.938	-106.358	-113.407	80.419	-107.532	-103.873	-102.934	-98.313	16.757	-100.036	-8191	255	
19493.762	1	1	0	0	0.23106	0.21931	0.093112	0.11633	0.093605	0.068446	0.46245	0.094129	0.055834	0.13902	0.066526	0.2147	0.12327	0.22608	0.18897	0.12198	-3.6583	-4.1333	-4.6021	-3.8271	-4.3896	-4.4688	-3.8604	-4.9271	-3.9833	-3.9688	-4.7312	-3.7667	-4.4021	-4.5146	-3.7562	-4.6458	143.730	-51.671	-55.212	130.397	126.065	167.175	202.258	215.366	-61.503	-12.250	-11.567	-112.678	-75.682	-106.913	22.936	171.164	0.00030235	0.00079456	0.00059128	1486.6	2.6171e-06	4.776e-06	1638.4	499.47	1.2582e-05	4.5441e-06	615	193.6	154.24	46.533	3.5109e-05	64.895	0.0027493	0.0027918	0.00077462	1438.2	3.0235e-05	3.0284e-05	1575.8	484.9	3.0008e-05	2.9834e-05	612.72	196.86	162.37	50.146	3.0184e-05	69.59	169.117	153.951	47.637	-110.161	0.616	-106.938	-111.073	-106.478	67.700	156.768	-107.453	-103.972	-103.002	-98.157	-28.537	-99.782	-8191	255	
19493.857	1	1	0	0	0.081775	0.24077	0.18015	0.21174	0.1285	0.081914	0.22547	0.17792	0.2644	0.10957	0.10637	0.24816	0.17323	0.15084	0.14068	0.13431	-3.6646	-3.825	-4.7167	-3.9521	-4.2958	-4.4958	-3.9167	-4.6854	-4.1479	-3.8625	-4.6979	-3.8625	-4.2083	-4.5792	-3.6292	-4.5583	79.701	-106.376	24.749	-110.801	90.371	-15.628	-117.525	178.443	33.546	100.712	-88.152	204.623	65.214	219.131	121.160	175.842	0.00064474	0.00044725	0.00054607	1499.2	4.169e-06	1.3205e-05	1656.1	506.34	1.4082e-05	1.1896e-05	619.04	194.7	153.18	46.189	3.4082e-05	63.868	0.0027042	0.0027575	0.00077059	1448	3.0225e-05	3.0206e-05	1590.5	489.27	2.9943e-05	2.9985e-05	617.93	198.1	161.68	49.821	2.9731e-05	68.352	202.510	-19.433	210.583	-110.055	163.751	0.113	-110.571	-106.180	89.263	-60.060	-106.837	-103.115	-102.360	-97.994	-106.686	-99.734	-8191	255	
19493.930	1	1	0	0	0.10224	0.078497	0.18426	0.17687	0.12084	0.14542	0.12465	0.1621	0.062844	0.22932	0.18014	0.16041	0.11185	0.40075	0.26168	0.21888	-3.9646	-3.6854	-4.7042	-4.0646	-3.9354	-4.5375	-3.9896	-4.5458	-4.2667	-3.7271	-4.7771	-3.9958	-4.1042	-4.7688	-3.6063	-4.5271	-69.743	-7.909	-62.947	174.720	32.642	79.196	135.798	150.964	-78.163	184.917	202.558	146.204	172.709	233.511	189.207	228.578	0.0011746	0.001259	0.00023025	1485.7	5.9647e-06	5.3385e-06	1623.4	499.6	1.3728e-05	1.7282e-05	605.76	189.68	149.56	44.887	5.1618e-06	61.175	0.0026407	0.0026853	0.00074833	1434.6	2.909e-05	2.9198e-05	1557.6	481.04	2.8875e-05	2.909e-05	601.4	191.82	157.63	48.408	2.8735e-05	66.065	154.103	-19.376	235.740	-109.901	212.796	24.524	-110.426	-106.079	2.305	-109.035	-106.829	-103.457	-102.520	-97.637	-1.561	-99.485	-8191	255	
19494.049	1	1	0	0	0.14531	0.15256	0.059114	0.25338	0.12641	0.22898	0.26413	0.05858	0.17457	0.11417	0.33457	0.099637	0.082138	0.12982	0.098115	0.25126	-4.0917	-3.7896	-4.5687	-4.1562	-3.9292	-4.7354	-3.9771	-4.4437	-4.6021	-3.7792	-4.7958	-4.1875	-4.0312	-4.6854	-3.8833	-4.4187	-88.700	159.938	-36.234	-120.246	-49.841	-28.401	153.745	187.286	-29.170	54.105	198.464	219.034	228.814	234.839	205.579	64.456	0.00052442	0.00048921	0.00032278	1466.2	1.7125e-05	7.8809e-06	1617.5	492.82	4.0873e-06	6.3945e-06	606.5	189.62	149.87	45.182	2.5779e-05	61.805	0.0025373	0.0026004	0.00072668	1406.6	2.8063e-05	2.8338e-05	1540.6	475.26	2.8209e-05	2.8458e-05	600.3	191.9	157.64	48.561	2.9165e-05	66.389	174.757	179.632	-90.910	-109.489	64.422	47.542	-110.116	-105.572	6.040	-19.287	-106.648	-102.790	-101.717	-97.227	-122.937	-98.994	-8191	255	
19494.145	1	1	0	0	0.011555	0.018462	0.19819	0.21624	0.080068	0.12325	0.095696	0.17008	0.0522	0.061817	0.095954	0.17617	0.24382	0.33214	0.13397	0.018591	-4.2833	-3.6542	-4.4771	-4.325	-3.8167	-4.6625	-4.0583	-4.1625	-4.5958	-3.7	-4.7	-4.2708	-3.8417	-4.75	-4.0167	-4.0354	84.326	16.853	-54.786	207.348	104.341	65.003	159.902	-105.414	-103.114	-66.263	183.999	191.856	143.380	193.227	44.840	231.810	0.00034927	0.0015845	0.0006352	1475.1	1.0089e-05	5.9839e-06	1629.1	498.91	8.3089e-06	8.1178e-06	608.48	190.55	151.24	45.496	1.919e-05	62.567	0.0026069	0.0026704	0.00074432	1422.4	2.917e-05	2.9249e-05	1558	480.73	2.9104e-05	2.9436e-05	605.41	193.7	159.53	49.236	2.9893e-05	67.441	146.788	-30.062	229.967	-108.924	-87.351	85.706	-109.436	-105.450	17.353	-88.924	-106.776	-102.650	-101.677	-96.858	76.791	-98.627	-8191	255	
19494.242	1	1	0	0	0.30176	0.12498	0.013289	0.12467	0.19816	0.092706	0.17458	0.23311	0.065644	0.39339	0.14353	0.072235	0.42444	0.045335	0.055828	0.077878	-4.2333	-3.5604	-4.5312	-4.3771	-3.7458	-4.7271	-4.2562	-4.0042	-4.4521	-3.7062	-4.4083	-4.5958	-3.8479	-4.6646	-3.95	-4.0125	71.572	-112.810	217.023	96.532	184.163	65.484	227.354	133.708	-32.208	85.986	159.423	-38.511	176.583	187.077	-27.512	98.508	0.000656	0.0010376	0.00044189	1486.7	1.6071e-05	1.3841e-05	1637.3	498.22	2.435e-05	7.8387e-06	609.07	191.36	152.6	45.609	8.7545e-06	62.915	0.0026963	0.0027831	0.00077861	1437.4	3.0389e-05	3.0746e-05	1570.9	483.75	3.0425e-05	3.0648e-05	609.37	195.37	160.89	49.722	3.0586e-05	68.325	133.662	-93.701	188.447	-108.473	-16.711	-15.367	-109.292	-105.114	-62.571	-0.723	-106.018	-102.282	-101.264	-96.938	48.445	-98.573	-8191	255	
19494.361	1	1	0	0	0.22738	0.014053	0.093474	0.19464	0.057159	0.17197	0.29875	0.062596	0.14833	0.15692	0.2679	0.2871	0.094121	0.092556	0.14673	0.10761	-4.2583	-3.7896	-4.2083	-4.5771	-3.6312	-4.5625	-4.3542	-4.0583	-4.7875	-3.8688	-4.1979	-4.7208	-3.7812	-4.5292	-4.1708	-3.9188	75.480	-62.671	-1.898	-100.925	-118.906	-96.051	185.733	75.682	-7.301	202.699	-113.531	182.575	228.598	45.873	223.472	195.982	0.00094634	0.00092714	0.00076354	1493.8	1.8349e-05	2.2825e-05	1631.8	500.75	8.3892e-06	4.8649e-06	608.93	189.49	150.56	44.542	2.0226e-05	61.153	0.0027638	0.0028402	0.00079373	1444.7	3.1063e-05	3.1179e-05	1573.1	484.62	3.0619e-05	3.0561e-05	606.34	193.44	158.88	48.571	2.9712e-05	66.303	178.957	-95.582	-55.881	-108.392	224.168	63.558	-108.946	-104.997	105.582	154.630	-105.378	-102.245	-101.398	-96.947	-36.725	-98.166	-8191	255	
19494.457	1	1	0	0	0.24904	0.31327	0.011421	0.11259	0.20149	0.088484	0.21706	0.14968	0.15226	0.12495	0.16556	0.076978	0.19951	0.20888	0.10202	0.20099	-4.2812	-3.8042	-4.1375	-4.8104	-3.8271	-4.4104	-4.5771	-3.9083	-4.5062	-3.8958	-4.1292	-4.6354	-3.7958	-4.5833	-4.3583	-3.9562	-22.897	89.902	42.868	-112.586	-18.191	205.779	134.562	165.984	146.626	-107.149	-77.022	-69.634	-106.987	230.313	-110.918	119.456	0.00053597	0.0012922	0.00038348	1449	1.0246e-05	2.2573e-05	1585.7	488.67	7.8476e-06	2.7448e-06	598.46	187.05	147.42	44.312	1.4552e-05	60.715	0.0026631	0.0027388	0.0007582	1411.1	2.9886e-05	2.9955e-05	1536.1	474.84	3.0097e-05	3.051e-05	598.59	191.44	157.69	48.379	3.0121e-05	66.341	198.460	110.250	-31.726	-107.926	134.315	-67.798	-109.204	-105.313	-64.824	-31.623	-106.240	-102.629	-101.745	-97.073	67.072	-98.848	-8191	255	
19494.529	1	1	0	0	0.18426	0.23973	0.15745	0.20932	0.089867	0.07528	0.13432	0.098984	0.26503	0.19241	0.27787	0.1602	0.052266	0.095354	0.26236	0.21448	-4.4729	-4.0042	-4.0479	-4.7979	-3.725	-4.5021	-4.7104	-3.8417	-4.6708	-4.0542	-3.8812	-4.7667	-4.1354	-4.3333	-4.5062	-3.7687	92.538	164.517	-82.810	217.722	62.132	228.557	105.641	-5.018	59.980	18.506	153.524	232.408	162.467	21.759	-34.310	216.434	0.00020603	0.00064859	0.00023113	1461.2	3.2477e-06	1.1244e-05	1617.2	492.36	1.2769e-05	3.4108e-05	605.12	190.95	150.84	45.42	5.7828e-06	62.696	0.0026966	0.0027551	0.00076417	1416.8	3.0075e-05	3.0278e-05	1551.7	477.89	3.01e-05	3.0188e-05	604.43	193.48	159.05	48.922	2.9369e-05	67.275	-115.826	-41.184	114.384	-108.430	22.602	145.959	-109.171	-104.909	82.709	-24.271	-105.388	-101.856	-101.231	-96.830	50.459	-99.295	-8191	255	
19494.650	1	1	0	0	0.05489	0.047433	0.1642	0.10167	0.052042	0.17354	0.1803	0.28029	0.15789	0.10944	0.32832	0.15245	0.20882	0.21267	0.15644	0.14715	-4.2396	-4.0479	-3.9188	-4.7792	-3.7771	-4.0604	-4.5813	-3.8208	-4.4812	-4.1708	-3.8667	-4.8167	-3.9542	-4.05	-4.55	-3.625	-74.149	30.947	147.061	218.181	135.261	-111.078	177.244	205.165	0.250	139.389	-98.547	4.217	-102.200	136.332	-18.303	-100.658	0.00072791	0.00062868	0.0001775	1488.1	1.7227e-05	9.0841e-06	1644.1	505.25	1.0687e-05	1.2654e-05	617.97	195.44	154.51	46.57	1.2953e-05	64.188	0.002631	0.0026679	0.00073472	1428.3	2.8785e-05	2.8625e-05	1567	483.14	2.8337e-05	2.8441e-05	607.95	195.28	160.01	49.364	2.783e-05	67.983	172.981	-87.919	83.330	-109.219	31.429	82.629	-109.809	-105.416	155.647	95.741	-106.507	-102.815	-101.193	-96.284	53.725	-98.048	-8191	255	
19494.744	1	1	0	0	0.16946	0.20442	0.086886	0.30658	0.097584	0.064487	0.077462	0.48543	0.16007	0.10673	0.051262	0.20941	0.11972	0.057527	0.063405	0.25239	-4.2917	-4.3625	-3.8438	-4.8063	-4.0396	-4.0375	-4.7542	-3.8729	-4.4208	-4.3812	-3.8396	-4.8479	-4.1458	-3.9979	-4.6271	-3.7604	144.539	30.702	154.897	210.172	112.318	89.159	-34.395	200.148	61.639	137.193	53.919	-63.307	-96.443	140.428	49.463	172.798	0.00018652	0.00064411	0.00019737	1507.8	6.6848e-06	1.1603e-05	1678.3	514.54	7.4453e-06	1.7901e-05	629.21	198.22	156.12	47.35	1.923e-05	64.303	0.002483	0.0025329	0.00070152	1440.5	2.7596e-05	2.7378e-05	1580.3	488	2.7268e-05	2.7493e-05	613.02	196.65	160.63	49.581	2.7137e-05	67.506	73.362	-118.521	143.435	-108.442	198.547	-98.339	-108.994	-104.740	-119.731	112.029	-105.808	-102.022	-101.246	-96.705	-50.512	-98.142	-8191	255	
19494.842	1	1	0	0	0.16116	0.11541	0.15203	0.1088	0.2372	0.086899	0.24566	0.096364	0.24735	0.156	0.017807	0.067997	0.16238	0.099157	0.13905	0.16911	-4.05	-4.4542	-3.7104	-4.7667	-4.0604	-3.9917	-5.0292	-3.9813	-4.2146	-4.5188	-3.8271	-4.75	-4.3458	-3.85	-4.7312	-3.9646	99.329	172.122	0.618	-106.120	76.215	-37.490	151.944	236.198	21.692	214.437	187.117	117.208	11.851	-77.284	163.149	47.101	0.00044604	0.00030389	0.00031462	1504.6	9.2134e-06	1.5645e-05	1645.7	502.6	1.4535e-05	1.705e-05	612.49	191.01	152.26	45.238	2.0787e-05	61.716	0.0024198	0.002466	0.00068371	1430.2	2.67e-05	2.6719e-05	1558.9	478.96	2.6426e-05	2.6449e-05	598.64	190.95	156.11	47.794	2.6264e-05	65.287	203.562	113.772	18.994	-108.171	27.133	-65.598	-109.170	-104.752	-95.450	2.048	-105.843	-101.903	-100.988	-96.811	-35.995	-97.944	-8191	255	
19494.938	1	1	0	0	0.078872	0.15792	0.028364	0.28947	0.20887	0.22277	0.11567	0.15567	0.18102	0.13431	0.22491	0.25535	0.17335	0.2644	0.35809	0.28567	-3.9042	-4.4667	-3.6146	-4.6937	-4.1937	-3.8021	-4.9896	-3.9708	-4.0104	-4.6062	-3.8208	-4.6813	-4.3812	-3.7917	-4.5875	-3.9979	140.276	32.518	-61.713	-90.459	67.541	-45.950	145.983	141.230	132.028	109.223	164.215	202.237	-48.372	151.124	85.158	215.239	8.7129e-05	0.0010627	0.00061189	1466.2	3.3353e-06	1.1174e-05	1610.8	494.81	1.1722e-05	1.9731e-05	605.75	190.19	150.34	45.397	1.8124e-05	62.016	0.0023574	0.0023994	0.00066852	1400.1	2.5985e-05	2.5968e-05	1530.2	471.16	2.5749e-05	2.581e-05	591.15	188.64	154.77	47.529	2.5957e-05	65.167	98.360	-50.290	-59.624	-108.273	234.323	-31.158	-108.730	-104.800	-3.874	-83.192	-105.791	-102.208	-100.829	-96.868	-99.220	-98.035	-8191	255	
19495.033	1	1	0	0	0.086624	0.14073	0.13889	0.40945	0.35441	0.18624	0.29734	0.18905	0.11847	0.19002	0.15772	0.29285	0.11232	0.02631	0.18121	0.29449	-3.7271	-4.5458	-3.7083	-4.6271	-4.3688	-3.7729	-4.9938	-4.2354	-4.0833	-4.7125	-3.9	-4.3729	-4.4812	-3.6688	-4.7042	-4.0625	-27.068	-101.364	65.545	212.287	31.260	217.584	159.689	167.889	19.803	95.516	110.638	198.542	147.164	-102.104	188.854	155.354	0.00070489	0.0002067	0.00036298	1481.3	1.0709e-06	1.0657e-05	1633.6	498.15	1.4486e-05	5.1379e-06	613.61	191.91	151.83	45.598	1.4875e-05	62.891	0.0023274	0.0023614	0.00066659	1410.5	2.6071e-05	2.6135e-05	1546.7	476.27	2.6052e-05	2.616e-05	597.54	191.14	156.08	48.035	2.5811e-05	65.94	166.866	-4.148	151.423	-108.162	-51.679	78.040	-109.032	-104.583	124.938	35.392	-105.808	-102.257	-101.123	-96.793	-60.445	-98.180	-8191	255	
19495.154	1	1	0	0	0.058638	0.03274	0.28403	0.34601	0.23391	0.17191	0.12025	0.19439	0.2196	0.33353	0.28	0.11709	0.19329	0.071505	0.26205	0.29333	-3.5563	-4.7	-3.7854	-4.4542	-4.4938	-3.8458	-4.5437	-4.2646	-3.9333	-4.7354	-3.9208	-4.3417	-4.6125	-3.4542	-4.4521	-4.5208	-44.447	145.498	138.720	208.913	7.719	39.675	184.134	225.652	170.846	205.506	211.473	-111.949	-39.408	-85.851	13.249	153.614	0.00072974	0.002009	0.00012013	1486.3	7.5494e-06	1.5765e-05	1642.2	499.82	7.072e-06	8.4145e-06	612.35	193.07	152.97	45.819	1.8224e-05	63.825	0.0022979	0.0023472	0.00065761	1417.2	2.5687e-05	2.5824e-05	1552	477.55	2.5896e-05	2.6084e-05	600.85	192.56	157.81	48.557	2.6413e-05	66.933	163.166	24.281	-95.435	-108.167	-16.650	-66.232	-108.886	-104.444	37.549	87.848	-105.590	-102.159	-100.973	-96.624	-8.466	-97.939	-8191	255	
19495.227	1	1	0	0	0.050682	0.17525	0.083244	0.25977	0.19886	0.052494	0.33911	0.24427	0.12605	0.029067	0.19848	0.092202	0.19531	0.19033	0.21091	0.06673	-3.5438	-4.6396	-3.8104	-4.1354	-4.425	-3.5687	-4.6083	-4.5437	-3.8563	-4.7833	-4.2646	-4.1167	-4.6521	-3.7917	-4.3125	-4.6125	206.946	8.501	8.096	207.597	-18.183	-10.411	147.414	167.195	43.682	-9.598	212.047	129.311	221.939	-50.250	226.188	158.725	0.00030255	0.0012625	0.00021743	1483.4	6.528e-06	5.0679e-06	1630.3	497.79	3.4608e-06	1.5839e-05	604.29	190.74	149.98	45.079	7.4348e-06	61.159	0.002362	0.0024063	0.0006761	1421.7	2.6125e-05	2.6234e-05	1556.6	477.61	2.5765e-05	2.5901e-05	596.95	190.22	155.43	47.638	2.5616e-05	64.954	154.961	-0.648	26.099	-108.191	-67.276	93.516	-108.900	-104.606	232.500	-42.295	-105.512	-101.986	-101.194	-96.263	18.668	-97.944	-8191	255	
19495.322	1	1	0	0	0.30093	0.098059	0.12285	0.071159	0.049349	0.17419	0.1441	0.17193	0.25379	0.21723	0.04959	0.41711	0.096979	0.21038	0.089693	0.19227	-3.4938	-4.6333	-4.0667	-4.1479	-4.6542	-3.6312	-4.5479	-4.5271	-3.7396	-4.5896	-4.2333	-4.1021	-4.8229	-4.0417	-4.1687	-4.5771	-67.357	-30.703	129.421	202.362	157.653	135.350	132.182	127.967	236.867	217.956	-104.063	116.103	-115.382	47.873	103.137	177.839	0.00074887	0.00050778	0.00067984	1463.4	4.4234e-06	3.5328e-06	1603.4	491.05	2.0837e-06	7.702e-06	595.1	186.61	148.12	44.268	1.4574e-05	61.039	0.0022993	0.0023606	0.00065724	1402.6	2.567e-05	2.5783e-05	1526.5	470.26	2.5509e-05	2.5514e-05	587.57	187.27	153.37	46.965	2.4976e-05	64.158	114.722	137.676	-100.732	-108.228	56.193	74.805	-109.028	-104.859	57.864	-28.964	-105.486	-102.056	-100.632	-96.449	178.190	-98.296	-8191	255	
19495.443	1	1	0	0	0.31626	0.051424	0.13525	0.33686	0.06708	0.10725	0.28334	0.27627	0.19974	0.19691	0.19348	0.06313	0.15993	0.15808	0.20018	0.025387	-3.4562	-4.5604	-4.125	-4.0854	-4.5813	-3.95	-4.375	-4.7667	-3.6208	-4.6542	-4.5104	-3.7708	-4.9083	-4.1333	-4.0021	-4.7646	210.020	-82.907	197.734	200.703	-122.233	3.427	214.735	229.448	178.557	172.603	119.995	-24.791	218.281	9.423	22.663	159.061	0.00051062	0.0015494	0.00056866	1462.2	4.996e-06	1.227e-05	1614.9	494.71	6.6997e-06	5.5471e-06	603.9	189.02	151.21	44.977	9.231e-06	62.15	0.0022291	0.0022771	0.00063216	1396.6	2.4966e-05	2.5305e-05	1530.9	472.63	2.5129e-05	2.5207e-05	591.84	188.81	155.62	47.632	2.5223e-05	65.236	140.077	27.132	-33.437	-108.137	159.303	-85.968	-108.827	-104.313	-50.965	212.663	-105.068	-102.142	-101.321	-96.474	95.514	-98.069	-8191	255	
19495.539	1	1	0	0	0.069844	0.28093	0.10635	0.10232	0.28331	0.1637	0.16168	0.27303	0.085226	0.15318	0.13004	0.18729	0.43442	0.143	0.25444	0.14507	-3.4583	-4.5687	-4.4083	-3.9792	-4.6625	-4.0729	-4.2292	-4.7646	-3.8375	-4.2937	-4.6604	-3.9604	-4.7583	-4.3083	-4.0958	-4.7854	186.422	-18.891	213.004	211.274	-47.916	39.494	192.141	156.265	233.536	6.339	152.683	161.155	228.296	-98.443	160.765	184.861	0.00024901	0.0012241	0.00035205	1470	9.9695e-06	8.4172e-06	1623.6	497.48	1.6975e-05	1.0875e-05	610.04	192.35	152.34	46.002	1.9173e-05	64.086	0.0022681	0.0023026	0.0006412	1407.9	2.5145e-05	2.5251e-05	1542	475.82	2.5086e-05	2.5351e-05	597.84	192.04	156.91	48.419	2.5567e-05	66.755	168.069	147.706	90.083	-108.468	-122.076	-27.647	-108.853	-104.404	-31.462	-30.171	-105.359	-101.798	-100.896	-96.386	162.238	-98.107	-8191	255	
19495.633	1	1	0	0	0.15978	0.031573	0.032763	0.33074	0.21848	0.089158	0.35398	0.1061	0.33174	0.19754	0.23526	0.15058	0.23334	0.17373	0.2326	0.14425	-3.6104	-4.2854	-4.4354	-3.8729	-4.5729	-4.1292	-3.9208	-4.9167	-3.9313	-4.1542	-4.7438	-3.6917	-4.6375	-4.4146	-3.8646	-4.8667	-64.120	-13.523	58.513	220.411	46.704	51.277	179.250	-26.144	77.526	129.905	226.269	106.846	214.835	-24.020	-107.913	-117.538	0.00015737	0.0011261	0.00040118	1497.2	4.7873e-06	1.1575e-05	1651.5	507.82	1.9016e-05	1.326e-05	621.47	196.26	154.78	47.437	1.7534e-05	64.689	0.0022924	0.0023463	0.00065188	1425	2.5542e-05	2.5548e-05	1563.1	483.22	2.564e-05	2.5549e-05	606.59	194.36	158.92	49.212	2.5308e-05	67.019	133.785	-114.070	61.131	-108.149	181.232	69.568	-109.219	-104.501	167.428	149.037	-105.379	-102.341	-101.109	-96.344	7.790	-98.195	-8191	255	
19495.730	1	1	0	0	0.1944	0.20609	0.077306	0.13842	0.31338	0.16237	0.095007	0.37105	0.17729	0.24705	0.1193	0.12128	0.18315	0.20576	0.20964	0.30866	-3.5979	-4.1604	-4.5188	-3.8812	-4.375	-4.4625	-4.0167	-4.8812	-4.0271	-4.05	-4.9187	-3.9	-4.5792	-4.4	-3.7313	-4.875	79.985	73.796	156.086	110.051	-3.623	49.429	-118.242	172.052	191.029	191.961	193.647	124.948	-63.352	181.972	181.928	210.455	0.00035	0.0011059	0.00020138	1507.5	1.3844e-05	1.4409e-05	1650.7	507.31	1.2294e-06	1.5464e-05	610.92	192.13	153.6	45.894	1.4809e-06	62.069	0.0022631	0.002301	0.00063451	1427.1	2.4784e-05	2.4693e-05	1553.6	479.62	2.4557e-05	2.4516e-05	594.99	190.24	155.5	47.669	2.4217e-05	64.759	172.843	-23.948	61.950	-108.204	99.144	19.638	-109.004	-104.569	-47.829	-5.704	-105.301	-102.063	-100.822	-96.155	-50.741	-98.153	-8191	255	
19495.824	1	1	0	0	0.033933	0.12861	0.037001	0.33099	0.098787	0.030144	0.17337	0.14593	0.17649	0.25506	0.20275	0.18808	0.14663	0.33179	0.081566	0.23333	-3.6417	-4.025	-4.6958	-3.9333	-4.5333	-4.4167	-3.775	-4.9187	-4.0021	-3.9875	-4.8375	-3.9583	-4.4125	-4.5229	-3.8063	-4.6875	108.036	47.360	51.913	193.158	-11.765	22.497	186.293	225.007	-76.718	56.847	-100.326	181.536	-95.874	191.665	28.341	206.002	3.6165e-05	0.0017669	0.00042653	1472.6	1.827e-06	1.3967e-05	1612.1	494.68	2.2975e-06	1.351e-05	604.65	191.3	150.98	45.844	2.3028e-05	62.708	0.0021714	0.0022152	0.0006169	1396	2.4049e-05	2.4297e-05	1527	471.38	2.4163e-05	2.4223e-05	588.06	188.53	154.3	47.493	2.4117e-05	64.834	153.942	181.294	-47.570	-108.338	179.267	-56.556	-108.930	-104.385	226.443	-50.776	-105.267	-102.305	-101.107	-96.180	22.606	-97.988	-8191	255	
19495.922	1	1	0	0	0.14632	0.24417	0.14129	0.30762	0.22091	0.16797	0.43283	0.019623	0.1213	0.33534	0.061148	0.13162	0.10549	0.2537	0.086302	0.10423	-3.925	-3.8521	-4.6542	-3.9938	-4.1479	-4.4437	-3.9104	-4.7792	-4.1396	-3.8167	-4.7771	-4.0146	-4.2271	-4.6771	-3.8208	-4.5125	62.922	178.016	19.901	179.035	-58.125	215.112	193.477	65.205	-86.241	74.521	215.244	183.560	-33.250	209.495	115.545	90.999	6.091e-05	0.00072638	0.00030088	1484.7	1.527e-05	9.1016e-06	1626.2	496.59	8.9715e-06	2.0767e-05	611.58	191.06	152.71	46.034	6.9918e-06	63.505	0.0021724	0.0022173	0.0006185	1409	2.4391e-05	2.4388e-05	1540.7	475.26	2.4421e-05	2.4471e-05	593.68	190.03	155.58	47.682	2.4492e-05	65.517	168.050	-95.029	-109.395	-108.187	37.460	-68.182	-108.904	-104.536	21.010	54.035	-105.429	-102.079	-101.241	-96.326	55.566	-98.298	-8191	255	
19496.043	1	1	0	0	0.1009	0.20523	0.31689	0.21554	0.20633	0.16524	0.26087	0.19608	0.22368	0.02147	0.19204	0.20023	0.18307	0.14021	0.0080502	0.17886	-4.025	-3.6792	-4.7833	-4.0646	-4.0271	-4.6875	-3.8312	-4.7312	-4.4313	-3.8146	-4.8417	-4.1562	-4.0542	-4.6917	-3.7062	-4.4396	-45.253	-5.439	-5.084	136.255	83.312	-75.008	142.077	111.690	186.440	-25.329	228.074	-76.363	158.208	18.714	-119.632	230.574	0.00037226	0.0016695	0.00036322	1484	3.4906e-06	3.8311e-06	1635.8	501.1	2.2275e-05	2.1817e-05	615.03	192.83	153.59	46.201	7.5569e-06	64.092	0.0022058	0.0022459	0.0006297	1414.5	2.4595e-05	2.4869e-05	1550.3	478.79	2.4933e-05	2.5037e-05	599.91	192.11	157.14	48.496	2.5247e-05	66.655	180.074	-62.259	112.087	-108.268	194.264	18.790	-108.939	-104.735	-45.557	-49.973	-105.210	-102.241	-100.980	-96.728	-0.072	-98.188	-8191	255	
19496.139	1	1	0	0	0.32981	0.14035	0.21258	0.2176	0.28816	0.085348	0.46603	0.23678	0.31352	0.12412	0.15641	0.20328	0.33901	0.13909	0.18475	0.26941	-4.1583	-3.8604	-4.6625	-4.2917	-4.0125	-4.6854	-3.8729	-4.4229	-4.75	-3.6063	-4.7688	-4.1583	-4.0896	-4.8	-3.8667	-4.3938	184.991	-85.800	-60.988	219.933	-55.484	110.779	182.534	176.935	207.010	96.553	119.615	-61.157	210.745	92.037	29.346	-19.965	0.00049771	0.00094299	0.00030771	1490.6	1.2989e-05	1.5098e-05	1649.2	505.58	1.4375e-05	1.1882e-05	616.53	194.5	152.49	45.771	2.4959e-05	63.165	0.0022791	0.002322	0.00065373	1423.1	2.564e-05	2.5734e-05	1561	481.24	2.5595e-05	2.5644e-05	600.11	192.2	156.3	48.052	2.5283e-05	65.479	179.531	-95.022	128.971	-108.106	-32.204	19.518	-108.869	-104.591	171.333	-56.841	-105.437	-102.052	-100.904	-96.651	66.384	-98.033	-8191	255	
19496.234	1	1	0	0	0.18569	0.15469	0.070482	0.20547	0.21578	0.16996	0.094146	0.15901	0.18214	0.11543	0.041642	0.37675	0.10035	0.13763	0.27859	0.19032	-4.2562	-3.6292	-4.55	-4.3812	-3.8042	-4.6354	-4.0333	-4.1833	-4.6771	-3.6375	-4.7708	-4.6062	-3.9667	-4.8479	-3.9	-4.2104	73.872	-15.966	-84.909	202.258	203.914	198.642	131.396	198.036	48.964	-48.252	141.154	192.820	126.267	-86.795	81.588	153.726	0.0004955	0.00071269	5.983e-05	1466.3	3.8802e-06	5.4865e-06	1618.1	495.04	1.2352e-05	1.2131e-05	603.68	189.93	150.79	44.981	2.6683e-05	61.627	0.0022521	0.0023113	0.00064359	1401.7	2.5076e-05	2.5274e-05	1534.7	473.18	2.5212e-05	2.5314e-05	589.75	188.53	154.11	47.183	2.4997e-05	64.583	89.088	111.619	101.485	-108.276	107.293	12.550	-109.006	-104.874	113.867	88.635	-105.263	-102.183	-101.300	-96.646	62.806	-97.991	-8191	255	
19496.330	1	1	0	0	0.044731	0.20086	0.071646	0.16788	0.29294	0.01794	0.28587	0.14488	0.11746	0.097098	0.2817	0.28156	0.18724	0.15007	0.092447	0.32329	-4.4313	-3.7292	-4.5021	-4.7292	-3.575	-4.6729	-4.1958	-4.2562	-4.7375	-3.8312	-4.525	-4.5271	-3.8271	-4.8583	-4.1438	-3.9146	120.516	163.957	57.322	-68.927	76.071	218.697	196.100	169.319	82.379	176.816	183.283	156.669	-76.109	31.429	-39.890	178.794	0.00053264	0.0014853	0.00022368	1468.6	1.0976e-05	5.2507e-06	1620.1	498.74	6.3779e-06	9.1991e-06	620.69	194.73	154.65	46.901	6.0291e-06	63.793	0.0022389	0.002287	0.00063928	1400	2.4873e-05	2.4939e-05	1536.5	474.23	2.4709e-05	2.5126e-05	597.85	190.99	156.46	48.212	2.5119e-05	66.123	147.205	-76.934	34.073	-108.278	-36.930	181.174	-108.889	-104.791	-87.137	37.256	-106.649	-103.179	-101.764	-97.635	-101.084	-99.270	-8191	255	
19496.451	1	1	0	0	0.010034	0.062714	0.20195	0.065839	0.13715	0.088507	0.09681	0.21683	0.27458	0.15325	0.35466	0.18898	0.17967	0.15065	0.12648	0.080989	-4.4875	-3.8042	-4.2229	-4.5875	-3.5792	-4.5104	-4.2708	-4.0062	-4.6521	-3.8604	-4.3187	-4.6208	-3.8417	-4.7125	-4.2771	-3.9083	26.538	208.407	-41.250	150.794	48.458	40.927	162.331	181.050	-17.180	39.743	180.715	-100.917	222.213	98.689	131.359	220.033	0.00055589	0.00047372	0.00016939	1513.4	2.034e-05	1.3366e-05	1671.8	512.1	1.4343e-05	8.2502e-06	630.11	197.83	156.76	47.819	1.8689e-05	66.171	0.0022479	0.0022973	0.00064121	1423	2.5061e-05	2.5195e-05	1563.6	482.05	2.4989e-05	2.5115e-05	605.06	193.86	158.39	49.17	2.4731e-05	67.331	166.757	-98.077	-67.053	-109.203	-17.695	-120.327	-109.866	-105.568	-34.704	-60.643	-106.632	-102.973	-101.750	-97.230	81.651	-98.841	-8191	255	
19496.523	1	1	0	0	0.046793	0.051445	0.27724	0.28997	0.036255	0.14168	0.25977	0.23446	0.097227	0.10143	0.31744	0.027676	0.14073	0.14079	0.25075	0.19054	-4.3542	-3.9604	-4.0417	-4.7812	-3.7792	-4.525	-4.6104	-3.9854	-4.6667	-3.9729	-4.1542	-4.7917	-3.8292	-4.6354	-4.5	-3.8042	110.887	62.564	167.914	175.471	204.401	-72.243	159.382	223.190	-77.048	43.974	130.861	-121.537	-113.809	-122.759	-31.795	146.195	0.00049264	0.0010637	0.00055485	1523.3	1.3614e-05	9.3492e-06	1695.3	521.04	1.3234e-05	6.5364e-06	638.84	201.74	160.61	48.724	3.8865e-06	66.727	0.0022196	0.0022831	0.00063247	1434.7	2.476e-05	2.4776e-05	1575.9	488.33	2.455e-05	2.4745e-05	611.43	196.36	160.59	49.766	2.4502e-05	67.828	169.603	198.564	-17.102	-108.058	-20.074	186.721	-109.422	-105.266	36.017	64.079	-106.183	-102.736	-102.126	-98.104	-7.619	-100.130	-8191	255	
19496.619	1	1	0	0	0.15763	0.16005	0.098595	0.16438	0.23363	0.13319	0.11056	0.14638	0.19106	0.14882	0.045634	0.22711	0.087758	0.23222	0.1467	0.089107	-4.2562	-4.0229	-3.8833	-4.6875	-3.8375	-4.6083	-4.7125	-3.7104	-4.5604	-4.1	-3.8479	-4.8021	-3.7125	-4.3292	-4.5354	-3.7083	-65.275	98.512	191.445	198.237	99.122	206.196	147.804	234.257	199.164	-97.593	227.190	177.851	183.190	203.906	148.254	27.523	0.0005454	0.00081032	0.00038514	1537	8.9315e-06	7.5981e-06	1687.4	519.6	5.5226e-06	1.0501e-05	632.89	200.18	157.87	47.185	1.6176e-05	64.026	0.0021901	0.0022484	0.00062493	1439.2	2.4461e-05	2.4509e-05	1574	486.27	2.4401e-05	2.4593e-05	605.47	193.48	158.18	48.496	2.4305e-05	65.636	212.787	218.104	209.144	-110.154	-10.686	-43.783	-110.699	-106.717	-64.856	-90.046	-107.617	-103.659	-102.976	-98.219	166.820	-100.232	-8191	255	
19496.715	1	1	0	0	0.19021	0.027327	0.091354	0.3081	0.23066	0.19072	0.31805	0.037808	0.16006	0.062231	0.13342	0.097042	0.15196	0.22825	0.18499	0.1182	-4.2479	-4.2521	-3.7125	-4.8063	-3.8458	-4.075	-4.6583	-3.925	-4.4396	-4.1854	-3.975	-4.7875	-4.0896	-4.1625	-4.5938	-3.7562	-60.457	-81.040	96.879	165.956	-74.048	37.762	157.149	164.022	-44.252	-103.842	231.786	-97.621	-64.748	201.259	182.950	146.486	0.00022004	0.00087373	0.00039542	1507.2	1.0593e-05	1.1188e-06	1652.4	508.25	1.0216e-05	6.7499e-06	616.78	193.76	153.75	46.63	1.2863e-05	63.311	0.0021905	0.0022314	0.00062224	1415.5	2.427e-05	2.4311e-05	1543.6	476.81	2.4207e-05	2.4224e-05	592.68	189.02	155.15	47.552	2.3979e-05	64.889	227.625	-27.928	-60.377	-109.858	25.146	64.871	-110.251	-106.446	-84.046	40.414	-107.346	-103.482	-102.928	-98.294	110.098	-99.734	-8191	255	
19496.834	1	1	0	0	0.24711	0.21787	0.22843	0.28896	0.14661	0.093047	0.10224	0.22817	0.084109	0.050342	0.18816	0.1916	0.20436	0.13785	0.22953	0.12809	-4.1833	-4.3771	-3.8417	-4.8604	-3.8479	-3.8771	-4.8396	-3.7854	-4.4875	-4.4875	-4.0354	-4.6771	-4.2708	-3.8271	-4.6687	-3.7542	-58.598	-64.014	53.874	227.744	100.767	183.120	-110.942	152.906	194.071	-33.768	186.300	134.626	171.460	181.558	3.317	144.980	0.00033286	0.0017581	0.00058998	1502.4	5.7752e-06	1.2054e-05	1661	510.86	5.5047e-06	5.2502e-06	623.72	196.42	155.49	47.023	1.9407e-05	64.247	0.002165	0.0022184	0.00061645	1413.2	2.4299e-05	2.4223e-05	1546.3	479.03	2.4136e-05	2.4262e-05	598.2	190.83	156.73	48.003	2.3712e-05	65.48	165.646	-73.335	-76.190	-109.856	-50.043	-45.054	-110.396	-106.295	72.859	77.480	-107.147	-103.367	-102.717	-98.326	-74.760	-100.010	-8191	255	
19496.930	1	1	0	0	0.077268	0.15527	0.17925	0.11968	0.22714	0.25659	0.26489	0.17033	0.17038	0.17465	0.24141	0.063462	0.04638	0.28261	0.10721	0.17311	-4.1687	-4.5563	-3.6208	-4.6562	-3.9938	-3.875	-4.8521	-3.9875	-4.2604	-4.625	-3.6958	-4.6375	-4.3771	-3.9729	-4.5292	-3.8458	-116.995	43.886	75.222	196.096	-97.026	199.919	151.078	163.595	-92.101	206.246	168.249	134.259	155.366	231.922	-60.197	192.246	0.00039227	0.00097317	0.00054963	1521.5	8.8836e-06	1.6339e-05	1678.3	515.57	7.2315e-06	7.175e-06	629.65	197.64	157.94	47.661	4.5467e-06	64.964	0.0021322	0.0021735	0.00060693	1423.7	2.4016e-05	2.4023e-05	1557.9	483.84	2.4113e-05	2.4367e-05	602.49	192.64	158.2	48.684	2.4382e-05	66.465	156.689	15.530	233.399	-109.609	144.461	75.247	-110.465	-106.278	-32.608	49.698	-107.268	-103.883	-102.772	-98.213	9.482	-99.556	-8191	255	
19497.025	1	1	0	0	0.084785	0.20594	0.10354	0.17192	0.2638	0.17805	0.19133	0.30336	0.19124	0.23371	0.19166	0.067325	0.19182	0.16879	0.025749	0.19615	-3.8875	-4.6646	-3.5687	-4.7937	-4.1	-3.8604	-4.9333	-4.0833	-3.9896	-4.4958	-3.7104	-4.5167	-4.1292	-3.8021	-4.775	-4.0333	-114.708	92.931	179.686	198.629	133.779	117.113	215.479	194.669	-80.440	-122.847	190.170	158.540	-47.337	-92.755	228.898	136.708	0.00029994	0.00094941	0.00045458	1529.9	8.1166e-06	3.5391e-06	1678.7	517.94	1.5597e-05	1.621e-05	634.48	197.84	157.95	47.572	1.9827e-05	64.107	0.0021844	0.0022178	0.00061869	1433	2.433e-05	2.4239e-05	1566.3	487.07	2.4137e-05	2.4248e-05	606.27	192.81	158.01	48.366	2.4035e-05	65.625	151.446	-38.661	-56.292	-109.856	232.561	95.676	-110.383	-106.129	30.817	51.351	-107.188	-104.015	-103.077	-98.592	-42.594	-99.980	-8191	255	
19497.123	1	1	0	0	0.11838	0.21233	0.056093	0.39914	0.15543	0.12252	0.13353	0.095072	0.068821	0.16025	0.27135	0.12479	0.074922	0.27464	0.13939	0.1522	-3.7104	-4.6354	-3.7708	-4.4146	-4.3292	-3.8146	-4.7292	-4.1813	-3.8875	-4.7125	-3.8771	-4.4229	-4.525	-3.6604	-4.5521	-4.1479	-38.401	107.228	182.132	183.587	-76.114	-21.110	-95.946	74.082	19.787	190.461	139.971	-63.818	215.081	213.914	-32.313	198.141	0.00070019	0.00134	0.00028526	1514.7	1.64e-05	6.811e-06	1646.6	513.99	1.0931e-05	2.1823e-06	618.97	193.95	154.72	46.416	1.186e-05	62.291	0.0021512	0.0021779	0.00060966	1419.1	2.3749e-05	2.377e-05	1538.5	479.27	2.3545e-05	2.37e-05	591.96	188.62	154.69	47.525	2.3718e-05	64.167	146.787	-98.969	-76.716	-109.791	112.810	5.847	-110.441	-106.238	-0.788	-13.504	-107.052	-103.691	-102.543	-98.149	-116.454	-99.733	-8191	255	
19497.219	1	1	0	0	0.1556	0.22002	0.24302	0.20177	0.025115	0.16289	0.30863	0.063973	0.3952	0.032712	0.24692	0.08355	0.18119	0.044506	0.097489	0.20713	-3.5271	-4.7312	-3.8688	-4.3792	-4.5	-3.5729	-4.7604	-4.4583	-3.8292	-4.6708	-3.9792	-4.1042	-4.5875	-3.6333	-4.3979	-4.4208	167.558	94.179	186.983	234.002	107.491	-123.407	169.046	152.204	132.067	-58.919	-108.055	86.641	208.569	-20.581	82.724	209.215	0.00028457	0.0012994	0.00019853	1499.1	3.4826e-06	9.9906e-06	1653.3	511.58	2.0537e-05	1.2047e-05	622.65	194.94	156.13	47.187	6.1797e-06	64.262	0.0021227	0.0021609	0.00060696	1404.7	2.3492e-05	2.3589e-05	1534.6	478.56	2.327e-05	2.3417e-05	595.18	189.61	155.99	47.904	2.3332e-05	65.023	154.884	-21.419	-74.224	-109.975	137.568	31.825	-110.433	-105.849	221.962	-71.229	-107.082	-103.591	-102.413	-97.932	-62.266	-99.684	-8191	255	
19497.314	1	1	0	0	0.27967	0.046396	0.21542	0.32217	0.10348	0.22121	0.054857	0.29813	0.24715	0.22173	0.24373	0.19131	0.085848	0.25293	0.18244	0.13994	-3.3708	-4.6104	-3.8958	-4.3417	-4.6042	-3.7729	-4.4104	-4.4688	-3.8292	-4.7021	-4.1625	-4.0437	-4.7063	-3.9396	-4.2146	-4.5125	234.644	-29.604	149.755	211.057	45.675	98.713	-38.819	215.969	225.939	125.797	214.616	216.843	194.904	136.540	213.392	177.255	0.00026359	0.00098237	0.00066878	1522.7	2.0112e-05	5.4253e-06	1673.5	519.3	6.7448e-06	1.114e-05	633.33	198.32	158.83	47.95	1.0589e-05	65.737	0.0020945	0.0021334	0.00059947	1419.9	2.3331e-05	2.3532e-05	1553.9	485	2.3516e-05	2.3771e-05	605.07	192.78	158.56	48.784	2.3792e-05	66.685	207.634	185.839	-22.901	-109.781	-89.108	202.489	-110.318	-106.039	115.826	191.357	-107.020	-103.785	-102.490	-97.987	-68.968	-99.832	-8191	255	
19497.410	1	1	0	0	0.26316	0.25626	0.11071	0.029359	0.25404	0.18186	0.20718	0.16558	0.26799	0.18367	0.01774	0.20827	0.11093	0.14561	0.058192	0.20611	-3.3104	-4.6	-4.0938	-4.2188	-4.6438	-3.8021	-4.4062	-4.6333	-3.8229	-4.6875	-4.2833	-3.9646	-4.8063	-3.8771	-4.0958	-4.7208	-75.009	41.392	-116.681	-104.419	174.150	25.237	192.016	169.755	189.106	195.491	22.749	-95.441	-122.658	151.240	14.612	178.978	0.00049965	0.001134	0.00012351	1532.4	1.1983e-05	2.6622e-06	1696.8	526.2	7.9762e-06	3.2034e-05	641.15	202.55	162.14	49.402	6.7073e-06	67.116	0.0021311	0.0021721	0.00060663	1433.1	2.3555e-05	2.3755e-05	1568.7	490.69	2.3427e-05	2.365e-05	610.27	195.76	160.26	49.749	2.3471e-05	67.742	166.832	-120.315	-60.920	-109.901	-77.390	-28.423	-109.739	-105.201	8.695	77.814	-106.017	-102.686	-101.400	-97.169	-43.375	-98.381	-8191	255	
19497.531	1	1	0	0	0.055937	0.10779	0.15483	0.19427	0.18736	0.22385	0.30707	0.087501	0.10176	0.12969	0.039753	0.20454	0.12925	0.19233	0.087102	0.15926	-3.4771	-4.6	-4.1729	-4.0542	-4.7438	-3.9417	-4.2	-4.7	-3.6437	-4.4604	-4.5042	-3.8271	-4.8708	-4.1896	-4.15	-4.85	157.446	130.994	-71.694	206.047	130.902	116.224	115.262	235.145	35.394	-12.893	-86.840	153.843	216.407	182.744	84.171	113.599	0.00056675	0.00065534	0.00054404	1546.7	1.06e-05	1.2021e-05	1699.9	530.25	8.013e-06	1.7681e-05	641.03	200.96	161.13	48.099	4.7934e-06	64.93	0.0020992	0.0021523	0.0005987	1441.6	2.3198e-05	2.3266e-05	1572.8	491.67	2.3055e-05	2.3116e-05	606.19	193.16	158.31	48.359	2.2627e-05	65.081	177.008	-53.638	-50.842	-109.233	-50.618	28.932	-109.742	-105.221	1.104	-91.549	-106.526	-103.254	-101.667	-97.512	-42.333	-99.090	-8191	255	
19497.627	1	1	0	0	0.11771	0.059617	0.11267	0.030563	0.17212	0.056174	0.44768	0.22901	0.14879	0.08488	0.13408	0.15674	0.32694	0.16377	0.22811	0.22179	-3.4125	-4.4271	-4.2979	-3.9292	-4.5188	-4.0271	-4.3021	-4.9229	-3.8563	-4.4167	-4.6479	-3.7354	-4.7979	-4.1875	-3.8812	-4.6792	-114.632	149.239	-103.958	201.907	38.405	16.354	158.101	162.370	-91.983	145.127	143.193	-100.901	221.293	44.322	-64.329	-47.263	0.00034335	0.0014832	0.00044843	1510.3	6.7419e-06	6.7334e-06	1655.8	516.03	2.2944e-05	1.7085e-05	627.7	195.71	157.32	47.489	6.0686e-06	64.1	0.0020364	0.0020802	0.00057543	1408.7	2.2587e-05	2.2796e-05	1529.9	479.12	2.2508e-05	2.2567e-05	592	187.9	154.95	47.575	2.2263e-05	64.144	195.405	-67.819	-21.117	-109.073	38.265	-10.289	-109.639	-105.318	-105.917	-83.812	-105.698	-102.501	-101.498	-96.864	44.588	-98.685	-8191	255	
19497.725	1	1	0	0	0.16654	0.054362	0.14338	0.24146	0.053749	0.17363	0.20529	0.42707	0.19082	0.2264	0.089295	0.065909	0.13719	0.11208	0.13914	0.083513	-3.6937	-4.3104	-4.6854	-3.9104	-4.6438	-4.1083	-3.8792	-5.0583	-3.9396	-4.2063	-4.7708	-3.7229	-4.6917	-4.4146	-3.875	-4.8417	-64.623	3.465	113.256	221.182	33.229	195.573	195.629	178.766	-76.618	-23.279	179.705	167.980	-83.198	210.215	159.765	219.281	0.00023672	8.7448e-05	0.00035305	1514.1	8.1748e-06	1.4212e-05	1660.6	519.29	6.7538e-06	1.915e-05	633.85	198.82	158.78	48.002	9.0792e-06	64.876	0.0020146	0.0020344	0.00056607	1403.5	2.213e-05	2.2276e-05	1531.7	479.4	2.1969e-05	2.1944e-05	593.85	189.48	155.97	47.919	2.1972e-05	64.854	150.868	-7.245	-14.199	-108.568	61.288	46.276	-109.434	-105.321	162.054	-55.678	-106.028	-102.531	-101.250	-97.014	1.278	-99.102	-8191	255	
19497.818	1	1	0	0	0.13529	0.071593	0.11249	0.30731	0.25428	0.22908	0.20662	0.13358	0.19009	0.13824	0.15812	0.15136	0.17987	0.056727	0.21419	0.20149	-3.5333	-4.3667	-4.6896	-3.8583	-4.5521	-4.3896	-4.0292	-4.9146	-4.0333	-4.1083	-4.9875	-3.8438	-4.5813	-4.4708	-3.6583	-4.7042	68.429	61.193	134.253	200.910	-13.711	231.369	216.587	138.081	236.401	189.637	181.453	231.255	-38.304	-43.647	-97.751	101.062	0.00080485	0.0013792	8.8453e-05	1526.5	5.7535e-06	1.3615e-05	1682.2	523.3	1.2393e-05	1.5664e-05	637.87	201.2	160.97	48.705	1.0782e-05	65.955	0.0020015	0.0020342	0.00056575	1416.6	2.2324e-05	2.2361e-05	1548.4	484.6	2.2286e-05	2.2258e-05	600.69	192.02	157.7	48.584	2.192e-05	65.909	167.795	-103.260	218.499	-109.213	-0.242	-47.477	-109.720	-105.587	73.904	-3.345	-105.888	-102.691	-101.461	-97.099	59.971	-98.877	-8191	255	
19497.914	1	1	0	0	0.082109	0.080277	0.15739	0.16957	0.083631	0.19279	0.17239	0.20743	0.12537	0.20286	0.056931	0.11188	0.33101	0.11834	0.12512	0.26271	-3.7062	-3.9958	-4.5792	-4.0396	-4.3313	-4.5271	-3.9833	-4.8875	-4.0125	-3.8021	-4.8625	-3.8646	-4.275	-4.4646	-3.6188	-4.6521	137.295	192.672	110.440	170.081	-77.528	128.406	125.214	175.641	-65.469	212.774	211.584	194.973	228.962	-33.321	148.154	203.510	0.00077417	0.00093788	0.00042198	1548.7	4.8098e-06	6.7764e-06	1697	530.58	1.0685e-05	5.0938e-06	646.8	202.71	162.24	49.084	4.4951e-06	65.721	0.0019727	0.0019956	0.00055839	1429.6	2.1883e-05	2.1963e-05	1561.3	489.71	2.1932e-05	2.1925e-05	606.1	193.96	158.62	48.761	2.1855e-05	65.684	143.189	36.446	232.520	-108.597	-73.154	-40.656	-109.492	-105.149	70.223	-102.249	-105.764	-102.580	-101.408	-97.254	17.459	-98.593	-8191	255	
19498.012	1	1	0	0	0.074552	0.12808	0.023097	0.25107	0.1414	0.34698	0.35636	0.24018	0.18649	0.10544	0.15784	0.11779	0.23295	0.18944	0.237	0.10842	-3.9042	-3.7667	-4.7604	-4.1854	-4.125	-4.4896	-3.7625	-4.6104	-4.1937	-3.7979	-4.7604	-4.1	-4.1687	-4.5854	-3.7042	-4.6354	-14.944	30.563	-104.011	196.309	149.433	47.053	214.043	236.863	132.264	220.576	203.155	112.470	-119.168	-89.948	137.906	146.848	0.00059725	0.00020937	0.00029921	1548.2	1.1601e-05	5.3014e-06	1681.8	525.58	1.443e-05	1.342e-05	634.99	199.2	159.24	47.992	1.9451e-05	64.125	0.0019527	0.0019856	0.00055299	1427.3	2.1684e-05	2.1616e-05	1545.8	484.63	2.1421e-05	2.1547e-05	595.23	189.59	155.72	47.608	2.1375e-05	64.034	156.897	143.556	14.699	-108.859	-119.936	191.614	-109.534	-105.023	-95.306	44.495	-105.727	-102.580	-101.383	-96.957	40.598	-98.608	-8191	255	
19498.131	1	1	0	0	0.12496	0.27575	0.25583	0.34099	0.24324	0.099977	0.48249	0.18884	0.3031	0.19903	0.14912	0.22754	0.31057	0.18708	0.086485	0.12313	-4.1333	-3.6021	-4.4896	-4.0396	-4.0667	-4.6292	-3.9583	-4.3958	-4.3229	-3.8604	-4.6937	-4.0229	-4.2063	-4.7125	-3.8208	-4.5188	-58.429	-108.039	201.329	166.861	174.311	103.796	170.412	190.498	114.403	88.086	-119.435	191.261	221.927	145.895	213.425	161.633	0.00057447	0.00085759	0.00023963	1523.6	9.9109e-06	7.0731e-06	1662.7	522.69	2.8747e-06	3.8634e-06	634.62	199.26	158.82	48.071	1.3716e-05	64.943	0.0019285	0.0019535	0.00054629	1404.3	2.1383e-05	2.1401e-05	1530.5	480.21	2.1475e-05	2.1492e-05	594.22	189.47	155.34	47.93	2.156e-05	64.715	158.458	9.520	-0.157	-108.563	-23.487	-109.709	-109.449	-105.069	-35.606	-111.289	-105.972	-102.761	-101.777	-97.018	-2.018	-98.751	-8191	255	
19498.227	1	1	0	0	0.18671	0.042707	0.21257	0.12097	0.048405	0.077567	0.21901	0.18234	0.25727	0.23409	0.27436	0.13339	0.12943	0.16732	0.16893	0.035028	-3.8688	-3.75	-4.6958	-4.3187	-3.8125	-4.9187	-4.0208	-4.275	-4.4896	-3.7104	-4.7396	-4.4833	-3.9333	-4.9167	-3.8667	-4.3875	-2.148	-41.559	-2.055	222.187	225.465	36.228	-62.355	183.558	85.294	-60.889	197.185	-52.939	177.938	110.053	220.706	-90.106	0.0006865	0.00039667	0.00058782	1533	1.137e-05	6.8267e-06	1681.6	527.15	1.6962e-05	1.6107e-05	640.32	201.07	161.06	49.176	1.6596e-05	66.256	0.0019332	0.0019697	0.00054984	1413.2	2.1418e-05	2.1631e-05	1544.9	484.77	2.1456e-05	2.1656e-05	599.98	191.4	157.32	48.522	2.1875e-05	65.668	189.381	130.738	-67.586	-108.628	14.332	125.950	-109.295	-105.022	-80.890	12.619	-105.623	-102.388	-101.607	-97.096	60.448	-99.068	-8191	255	
19498.324	1	1	0	0	0.19724	0.18679	0.15563	0.22853	0.15027	0.17118	0.23381	0.19304	0.13265	0.085809	0.2016	0.15764	0.11839	0.28776	0.23908	0.16095	-4.2646	-3.575	-4.5625	-4.625	-3.6875	-4.7	-4.1417	-4.2417	-4.7792	-3.65	-4.6646	-4.4396	-3.8917	-4.7438	-3.9917	-4.0771	-62.618	229.608	-53.142	163.619	-58.725	107.929	181.158	212.430	51.967	233.362	203.071	172.823	191.295	-105.175	51.957	19.261	0.00052907	0.0017487	0.00029672	1546.5	1.3354e-05	3.6235e-06	1695	533.46	1.1022e-05	7.0892e-06	644.48	204.31	163.93	50.203	2.2633e-05	67.799	0.0019431	0.0019853	0.00055805	1426.8	2.1676e-05	2.1739e-05	1558.4	489.8	2.1685e-05	2.1913e-05	606.96	194.44	159.79	49.602	2.1751e-05	67.043	109.244	232.698	-47.336	-108.817	-106.923	-113.914	-109.720	-105.288	103.728	-23.192	-106.587	-102.778	-101.759	-97.451	35.096	-99.035	-8191	255	
19498.395	1	1	0	0	0.13951	0.1673	0.10009	0.1298	0.26906	0.1085	0.31142	0.32005	0.22503	0.082442	0.079876	0.17089	0.135	0.055972	0.24636	0.076106	-4.4708	-3.7521	-4.3667	-4.6604	-3.5187	-4.8063	-4.2625	-3.9833	-4.6333	-3.6208	-4.4125	-4.5792	-3.825	-5.0604	-4.0771	-3.9813	-119.423	143.723	-68.733	-50.972	-60.177	80.674	210.083	151.547	101.016	102.497	211.821	216.478	156.052	202.072	72.227	101.855	0.00035464	0.0023204	0.00018113	1557.6	8.1982e-06	1.2908e-05	1706.9	536.04	4.4709e-06	1.0791e-05	645.73	203.37	163.11	49.395	1.8242e-05	65.947	0.001949	0.0019828	0.00055133	1435.2	2.137e-05	2.1557e-05	1568.5	492.06	2.1192e-05	2.1433e-05	604.04	193.02	158.24	48.656	2.1233e-05	65.084	175.708	-115.842	1.631	-108.861	156.421	-4.584	-109.763	-105.307	-102.384	26.235	-106.498	-103.016	-101.695	-97.195	49.666	-99.094	-8191	255	
19498.514	1	1	0	0	0.10717	0.082446	0.12126	0.17047	0.03211	0.16262	0.22305	0.22601	0.18635	0.037236	0.092096	0.071562	0.028864	0.040236	0.078713	0.13323	-4.4083	-3.7083	-4.1333	-4.6687	-3.7875	-4.6771	-4.4625	-4.1021	-4.8021	-3.7583	-4.2896	-4.5458	-3.75	-4.6146	-4.4708	-3.7854	34.757	73.532	-35.920	202.967	191.809	-30.358	153.562	190.871	88.958	204.210	148.510	145.794	-18.356	66.057	-35.662	96.562	0.00051896	0.0011889	0.00035555	1536.1	8.1001e-06	8.3357e-06	1666.4	523.5	3.6723e-06	2.8802e-06	630.57	198.17	159.65	48.498	1.4996e-05	64.745	0.0019001	0.001931	0.00053866	1413.4	2.1105e-05	2.1224e-05	1532.2	481.32	2.0844e-05	2.0964e-05	589.94	187.9	155.01	47.723	2.0587e-05	63.854	103.029	69.046	214.403	-108.756	-80.076	45.104	-109.606	-105.211	31.314	42.948	-106.597	-103.008	-101.959	-97.097	16.215	-99.452	-8191	255	
19498.609	1	1	0	0	0.14516	0.19467	0.093605	0.21856	0.21094	0.12849	0.28038	0.12933	0.091313	0.14453	0.32077	0.015474	0.019194	0.30076	0.047272	0.070509	-4.4854	-3.9333	-4.1458	-4.7958	-3.8729	-4.7625	-4.5375	-3.9208	-4.7292	-4	-4.2146	-4.7125	-3.7979	-4.4667	-4.4	-3.8354	178.334	112.375	197.320	207.577	95.392	27.859	154.254	202.671	70.770	-108.308	-76.630	223.585	182.918	201.071	-114.017	-39.471	0.00093976	0.00098657	0.00057431	1527.4	1.8296e-05	9.1332e-06	1680	526.09	1.0857e-05	7.8845e-06	636.15	201.62	160.68	48.817	1.4849e-05	65.66	0.0018543	0.001893	0.00052145	1403.3	2.0568e-05	2.0665e-05	1530.9	482.57	2.0563e-05	2.0588e-05	593.74	189.89	156.06	48.142	2.0478e-05	64.646	169.463	-71.673	-71.990	-108.990	73.482	-4.599	-109.829	-105.565	148.776	93.610	-106.475	-102.549	-101.561	-97.125	-48.395	-98.919	-8191	255	
19498.705	1	1	0	0	0.21065	0.14686	0.087929	0.25369	0.068413	0.098214	0.38632	0.14081	0.0050914	0.15848	0.16115	0.26944	0.030223	0.036689	0.063405	0.18174	-4.2792	-4.0333	-3.9854	-4.9729	-3.6896	-4.2708	-4.6479	-3.9604	-4.5146	-4.2063	-4.0792	-4.7354	-3.9667	-4.2708	-4.5396	-3.8646	125.206	132.376	-3.226	215.890	-1.047	109.222	125.729	178.879	100.729	191.127	199.009	233.015	218.452	103.463	12.915	-72.951	0.00060231	0.0012139	0.00037153	1538.2	5.7106e-06	3.4774e-06	1681.4	527.69	6.1821e-06	1.449e-05	642.73	202.99	161.81	49.399	5.6721e-06	66.566	0.0018569	0.0018989	0.00052771	1413.8	2.0885e-05	2.1101e-05	1543.6	484.77	2.0941e-05	2.1128e-05	598.92	191.12	157.58	48.607	2.0971e-05	65.647	165.196	102.018	-105.933	-108.711	191.429	-122.235	-109.538	-105.230	213.901	72.775	-106.289	-102.891	-101.663	-97.244	2.687	-99.058	-8191	255	
19498.805	1	1	0	0	0.038953	0.045319	0.40565	0.034176	0.10952	0.063198	0.26421	0.30088	0.061022	0.24242	0.15921	0.15899	0.12909	0.41209	0.060208	0.06438	-4.3438	-4.0938	-3.8667	-4.95	-3.8208	-4.0354	-4.8021	-3.9	-4.4437	-4.1896	-4.0479	-4.9521	-3.8438	-4.0354	-4.6	-3.95	-112.549	186.854	124.018	67.066	121.184	66.126	164.961	224.153	50.320	172.646	102.508	-75.857	199.715	-72.728	15.507	149.029	0.00083152	0.0008251	0.00045379	1542	6.6476e-06	4.4017e-06	1690.7	530.91	4.7284e-06	5.6596e-06	646.79	203.39	162.46	49.45	9.5672e-06	66.568	0.0018963	0.0019357	0.00053902	1422.2	2.1145e-05	2.122e-05	1553.4	487.62	2.1271e-05	2.129e-05	603.23	193.13	158.86	48.867	2.1065e-05	65.581	178.557	-102.139	-73.433	-109.404	26.130	158.214	-110.096	-106.127	-10.805	-47.559	-106.817	-103.101	-102.534	-98.178	-3.464	-100.414	-8191	255	
19498.924	1	1	0	0	0.14906	0.15406	0.10459	0.38353	0.079427	0.054742	0.31545	0.11929	0.22106	0.035397	0.062749	0.22649	0.17077	0.20003	0.16506	0.15239	-4.1958	-4.4104	-3.5396	-4.7979	-3.9875	-3.9083	-4.725	-3.9667	-4.3167	-4.5333	-3.8604	-4.6771	-4.2104	-3.9688	-4.6271	-3.7896	110.295	49.964	173.916	180.691	-34.428	-22.788	169.360	166.079	-115.418	161.109	149.545	200.903	164.604	198.837	-80.536	192.190	0.00058657	0.0010092	0.00061181	1542.3	7.8022e-06	1.9514e-06	1683.3	523.85	7.4644e-06	3.948e-06	633.26	197.32	159.99	48.294	1.7565e-05	64.621	0.001885	0.0019213	0.00053516	1420.3	2.1066e-05	2.0833e-05	1542.4	483.66	2.0736e-05	2.092e-05	592.05	188.07	155.29	47.521	2.061e-05	63.893	179.914	-23.128	-27.764	-110.349	-86.857	42.072	-111.327	-106.800	183.075	-19.225	-107.734	-104.456	-103.211	-99.126	38.872	-100.804	-8191	255	
19498.994	1	1	0	0	0.052576	0.15914	0.25351	0.24354	0.098325	0.14365	0.18215	0.27749	0.30782	0.22872	0.11952	0.23361	0.25524	0.11596	0.024211	0.12557	-3.8479	-4.5854	-3.5417	-4.7937	-4.2042	-3.8312	-4.9563	-4.0667	-4.2792	-4.5729	-3.75	-4.4292	-4.3021	-3.8479	-4.8458	-3.9271	158.920	-9.096	111.623	-62.254	50.057	78.643	218.322	162.443	15.780	-49.691	67.702	159.583	216.529	220.576	105.223	177.783	0.00038739	0.0015484	0.00042714	1521.1	1.1312e-05	1.1698e-05	1663.1	520.87	7.6704e-06	2.2966e-06	629.56	198.52	160.39	48.299	2.3601e-05	65.359	0.0018412	0.001861	0.00052184	1397.5	2.0454e-05	2.0392e-05	1521.5	479.36	2.015e-05	2.024e-05	589.15	188.03	155.08	47.631	2.0328e-05	64.276	171.824	-34.624	-111.066	-110.180	115.696	127.507	-110.977	-106.592	-25.894	108.444	-107.621	-104.341	-103.096	-98.601	49.574	-100.318	-8191	255	
19499.092	1	1	0	0	0.093492	0.28303	0.0514	0.11772	0.16881	0.23872	0.37274	0.20621	0.30559	0.1138	0.29623	0.23143	0.21582	0.25751	0.059913	0.10342	-3.7417	-4.7292	-3.7021	-4.8271	-4.2667	-3.6813	-4.8917	-4.1292	-4.0229	-4.6438	-3.9688	-4.6167	-4.4437	-3.7979	-4.5813	-4.0625	113.729	72.595	105.860	-122.548	133.802	118.979	177.831	205.166	-63.649	71.920	143.297	142.826	185.975	163.651	214.495	126.372	0.00042313	0.0014306	0.00011631	1535.5	6.0321e-06	6.5173e-06	1681.6	531.05	7.4193e-06	1.5876e-05	640.58	201.59	162.5	49.49	1.8903e-05	66.628	0.0018431	0.0018796	0.00052781	1410.2	2.0762e-05	2.071e-05	1540.6	486.98	2.0805e-05	2.0881e-05	598.5	191.26	157.66	48.91	2.1145e-05	65.813	157.920	-51.771	29.747	-110.334	-43.950	82.958	-110.381	-106.428	-5.643	65.645	-107.456	-103.978	-102.754	-98.557	69.388	-100.420	-8191	255	
19499.213	1	1	0	0	0.20012	0.089666	0.11051	0.26166	0.16005	0.29024	0.088802	0.20395	0.13172	0.10175	0.35634	0.036615	0.33625	0.2187	0.041929	0.14125	-3.6479	-4.7063	-3.775	-4.3625	-4.3833	-3.7062	-4.6958	-4.2958	-3.9229	-4.7625	-3.8375	-4.4792	-4.6937	-3.8292	-4.6292	-4.3896	228.962	72.798	66.845	222.723	110.293	204.228	221.648	200.809	-121.545	182.363	186.187	163.796	-121.128	78.752	-29.532	135.535	0.00088043	0.0012869	0.00027947	1545.9	1.0169e-05	4.9965e-06	1686.8	533.59	1.5375e-05	5.8873e-07	645.7	203.16	162.55	50.226	7.6972e-06	67.501	0.0018954	0.0019311	0.00054145	1427.6	2.1018e-05	2.1241e-05	1553.5	490.19	2.1322e-05	2.1371e-05	604.82	193.67	159.35	49.777	2.2013e-05	67.063	158.230	-41.341	25.438	-110.009	4.963	55.064	-110.507	-106.306	12.447	-90.589	-107.561	-104.037	-102.575	-98.437	-48.935	-99.974	-8191	255	
19499.309	1	1	0	0	0.13665	0.037968	0.086709	0.27666	0.024657	0.19848	0.34927	0.31783	0.1452	0.081368	0.18571	0.27034	0.25964	0.32389	0.21364	0.16264	-3.5083	-4.8667	-3.8458	-4.2604	-4.5708	-3.6396	-4.8208	-4.1625	-3.6458	-4.6479	-4.0917	-4.2208	-4.7396	-3.7229	-4.4042	-4.4542	-105.266	56.597	-62.184	215.751	151.107	222.560	194.157	157.338	81.257	185.772	149.395	194.992	136.938	-108.455	26.867	208.068	0.00071859	0.00088511	0.00016076	1547.7	1.0628e-05	6.5093e-06	1709.1	534.15	8.0987e-06	2.6584e-05	642.53	201.73	162.51	48.932	3.6673e-06	65.276	0.0019946	0.0020411	0.00057548	1437	2.2193e-05	2.2416e-05	1570.5	493.52	2.192e-05	2.1945e-05	605.23	192.78	158.88	48.909	2.1821e-05	65.269	120.977	-66.580	-49.387	-109.703	-49.616	41.352	-111.020	-106.602	-3.970	231.721	-107.648	-103.736	-102.668	-98.279	31.244	-100.174	-8191	255	
19499.404	1	1	0	0	0.10119	0.08627	0.11322	0.22815	0.023354	0.15038	0.18747	0.064895	0.24563	0.043822	0.1149	0.048425	0.15758	0.31775	0.088077	0.11686	-3.2875	-4.6604	-3.9188	-4.0729	-4.5729	-3.575	-4.4792	-4.6625	-3.6583	-4.5542	-4.1625	-3.9146	-4.6708	-3.7958	-4.2271	-4.5437	161.713	140.280	174.969	207.839	69.786	34.958	-109.192	-70.461	94.691	22.673	194.422	-90.521	147.490	-121.664	-121.404	147.794	0.00036151	0.0017412	0.00052678	1526.6	1.1205e-05	9.8368e-06	1651.4	519.56	1.57e-05	1.5488e-05	626	196.21	158.39	47.729	1.1671e-05	63.733	0.0019486	0.001993	0.00056035	1410.9	2.1838e-05	2.2016e-05	1528.1	480.86	2.1641e-05	2.1798e-05	589.13	187.61	154.77	47.832	2.155e-05	63.829	155.569	-37.932	-83.265	-109.933	-18.251	198.274	-110.328	-105.991	17.606	74.968	-106.762	-103.606	-102.311	-97.950	49.622	-99.238	-8191	255	
19499.525	1	1	0	0	0.23295	0.16184	0.079713	0.081029	0.11185	0.080843	0.39097	0.12979	0.040198	0.033903	0.24084	0.19745	0.15881	0.15128	0.34579	0.012398	-3.4417	-4.5312	-4.0729	-4.1062	-4.6062	-3.8375	-4.475	-4.6354	-3.5896	-4.5229	-4.3521	-4.0062	-4.8583	-3.8771	-4.1417	-4.675	-40.223	163.307	-53.374	125.063	-101.681	100.903	205.295	114.069	66.581	228.717	174.454	154.845	144.588	104.737	-64.543	-100.074	0.00040858	0.0013645	0.00030742	1507.2	4.633e-06	5.3516e-06	1655.7	522.45	1.0492e-05	7.2923e-06	632.36	198.45	161.67	48.861	1.497e-05	65.552	0.0019351	0.0019643	0.00055009	1394	2.1385e-05	2.1401e-05	1523.3	480.81	2.0722e-05	2.061e-05	589.56	187.65	155.51	48.032	2.0122e-05	64.265	173.605	25.324	-43.941	-109.508	41.009	7.014	-109.980	-105.683	-39.010	-20.725	-106.431	-103.045	-102.246	-97.766	106.494	-99.273	-8191	255	
#DATA ENDS
