BOXY.EXE: ISS Imagent and Oximeter Data Acquisition Program Version 0.80
Ascii Record File

#ACQ INFORMATION
2  Detector Channels 
16  External MUX Channels 
1  Auxiliary Channels 
5000  Waveform (CCF) Frequency (Hz)
1  Waveforms Skipped 
30  Waveforms Averaged 
1  Cycles Averaged 
16  Acquisitions per Waveform 
10.0806  Updata Rate (Hz) 

#FILE INFORMATION
TRUE -- External MUX Channel results are PARSED.
FALSE -- AC DC and Phase are NOT grouped.
TRUE -- Companion Program Settings File CREATED.
FALSE -- AC data not excluded
FALSE -- DC data not excluded
FALSE -- Phase data not excluded
FALSE -- Auxillary Chn. data not excluded
Tab delimiters

#CALIBRATION STATE
TRUE -- Waveform Calibration Values APPLIED.


#AUX CALIBRATION VALUES
Val Type	aux-1	

Term	1.0000e+00	
Factor	0.0000e+00	


#WF CALIBRATION VALUES
A = Detector Channel
Val Type	A-AC1	A-AC2	A-AC3	A-AC4	A-AC5	A-AC6	A-AC7	A-AC8	A-AC9	A-AC10	A-AC11	A-AC12	A-AC13	A-AC14	A-AC15	A-AC16	A-DC1	A-DC2	A-DC3	A-DC4	A-DC5	A-DC6	A-DC7	A-DC8	A-DC9	A-DC10	A-DC11	A-DC12	A-DC13	A-DC14	A-DC15	A-DC16	A-Ph1	A-Ph2	A-Ph3	A-Ph4	A-Ph5	A-Ph6	A-Ph7	A-Ph8	A-Ph9	A-Ph10	A-Ph11	A-Ph12	A-Ph13	A-Ph14	A-Ph15	A-Ph16	

Term	0.00000e+00	0.00000e+00	0.00000e+00	0.00000e+00	0.00000e+00	0.00000e+00	0.00000e+00	0.00000e+00	0.00000e+00	0.00000e+00	0.00000e+00	0.00000e+00	0.00000e+00	0.00000e+00	0.00000e+00	0.00000e+00	0.00000e+00	0.00000e+00	0.00000e+00	0.00000e+00	0.00000e+00	0.00000e+00	0.00000e+00	0.00000e+00	0.00000e+00	0.00000e+00	0.00000e+00	0.00000e+00	0.00000e+00	0.00000e+00	0.00000e+00	0.00000e+00	0.00000e+00	0.00000e+00	0.00000e+00	0.00000e+00	0.00000e+00	0.00000e+00	0.00000e+00	0.00000e+00	0.00000e+00	0.00000e+00	0.00000e+00	0.00000e+00	0.00000e+00	0.00000e+00	0.00000e+00	0.00000e+00	
Factor	1.00000e+00	1.00000e+00	1.00000e+00	1.00000e+00	1.00000e+00	1.00000e+00	1.00000e+00	1.00000e+00	1.00000e+00	1.00000e+00	1.00000e+00	1.00000e+00	1.00000e+00	1.00000e+00	1.00000e+00	1.00000e+00	1.00000e+00	1.00000e+00	1.00000e+00	1.00000e+00	1.00000e+00	1.00000e+00	1.00000e+00	1.00000e+00	1.00000e+00	1.00000e+00	1.00000e+00	1.00000e+00	1.00000e+00	1.00000e+00	1.00000e+00	1.00000e+00	X	X	X	X	X	X	X	X	X	X	X	X	X	X	X	X	

B = Detector Channel
Val Type	B-AC1	B-AC2	B-AC3	B-AC4	B-AC5	B-AC6	B-AC7	B-AC8	B-AC9	B-AC10	B-AC11	B-AC12	B-AC13	B-AC14	B-AC15	B-AC16	B-DC1	B-DC2	B-DC3	B-DC4	B-DC5	B-DC6	B-DC7	B-DC8	B-DC9	B-DC10	B-DC11	B-DC12	B-DC13	B-DC14	B-DC15	B-DC16	B-Ph1	B-Ph2	B-Ph3	B-Ph4	B-Ph5	B-Ph6	B-Ph7	B-Ph8	B-Ph9	B-Ph10	B-Ph11	B-Ph12	B-Ph13	B-Ph14	B-Ph15	B-Ph16	

Term	0.00000e+00	0.00000e+00	0.00000e+00	0.00000e+00	0.00000e+00	0.00000e+00	0.00000e+00	0.00000e+00	0.00000e+00	0.00000e+00	0.00000e+00	0.00000e+00	0.00000e+00	0.00000e+00	0.00000e+00	0.00000e+00	0.00000e+00	0.00000e+00	0.00000e+00	0.00000e+00	0.00000e+00	0.00000e+00	0.00000e+00	0.00000e+00	0.00000e+00	0.00000e+00	0.00000e+00	0.00000e+00	0.00000e+00	0.00000e+00	0.00000e+00	0.00000e+00	-1.43369e+02	-1.40021e+02	-1.25011e+02	-1.81578e+02	-7.38023e+01	-7.32306e+01	-1.57041e+02	-1.62015e+02	-7.92528e+01	-5.91734e+01	-1.74057e+02	-1.71424e+02	-1.78987e+02	-1.76327e+02	-6.84522e+01	-1.49256e+02	
Factor	1.90294e-05	1.26789e-04	3.84744e-05	1.58984e-01	1.18360e-06	1.40697e-06	1.60266e-01	4.82704e-02	1.15976e-06	1.66629e-06	8.45732e-02	2.76673e-02	2.67142e-02	8.45805e-03	1.20631e-06	1.22680e-02	3.47264e-06	3.99536e-06	1.10900e-06	8.22969e-02	4.30501e-08	4.39776e-08	7.82042e-02	2.51153e-02	4.31453e-08	4.40081e-08	4.24676e-02	1.39384e-02	1.40508e-02	4.41929e-03	4.33643e-08	6.19574e-03	X	X	X	X	X	X	X	X	X	X	X	X	X	X	X	X	



#DISTANCE SETTINGS
A = Detector Channel
A-1	A-2	A-3	A-4	A-5	A-6	A-7	A-8	A-9	A-10	A-11	A-12	A-13	A-14	A-15	A-16	

2.5000e+00	3.0000e+00	2.5000e+00	3.0000e+00	2.0000e+00	3.0000e+00	1.5000e+00	3.0000e+00	3.0000e+00	3.0000e+00	3.0000e+00	3.0000e+00	3.0000e+00	3.0000e+00	1.5000e+00	3.0000e+00	

B = Detector Channel
B-1	B-2	B-3	B-4	B-5	B-6	B-7	B-8	B-9	B-10	B-11	B-12	B-13	B-14	B-15	B-16	

1.0000e+01	1.0000e+01	1.0000e+01	1.4400e+00	1.0000e+01	1.0000e+01	1.5100e+00	1.9400e+00	1.0000e+01	1.0000e+01	1.9900e+00	2.4900e+00	2.4100e+00	2.9000e+00	1.0000e+01	2.9800e+00	




#DATA BEGINS
time	group	step	mark	flag	A-AC1	A-AC2	A-AC3	A-AC4	A-AC5	A-AC6	A-AC7	A-AC8	A-AC9	A-AC10	A-AC11	A-AC12	A-AC13	A-AC14	A-AC15	A-AC16	A-DC1	A-DC2	A-DC3	A-DC4	A-DC5	A-DC6	A-DC7	A-DC8	A-DC9	A-DC10	A-DC11	A-DC12	A-DC13	A-DC14	A-DC15	A-DC16	A-Ph1	A-Ph2	A-Ph3	A-Ph4	A-Ph5	A-Ph6	A-Ph7	A-Ph8	A-Ph9	A-Ph10	A-Ph11	A-Ph12	A-Ph13	A-Ph14	A-Ph15	A-Ph16	B-AC1	B-AC2	B-AC3	B-AC4	B-AC5	B-AC6	B-AC7	B-AC8	B-AC9	B-AC10	B-AC11	B-AC12	B-AC13	B-AC14	B-AC15	B-AC16	B-DC1	B-DC2	B-DC3	B-DC4	B-DC5	B-DC6	B-DC7	B-DC8	B-DC9	B-DC10	B-DC11	B-DC12	B-DC13	B-DC14	B-DC15	B-DC16	B-Ph1	B-Ph2	B-Ph3	B-Ph4	B-Ph5	B-Ph6	B-Ph7	B-Ph8	B-Ph9	B-Ph10	B-Ph11	B-Ph12	B-Ph13	B-Ph14	B-Ph15	B-Ph16	aux-1	digaux	

1652.716	1	1	0	768	0.14733	0.13013	0.24122	0.1803	0.076253	0.29778	0.12258	0.27419	0.19272	0.15914	0.13415	0.12529	0.23117	0.28262	0.16881	0.26742	-2.3063	-1.9854	-1.8958	-2.7188	-1.7708	-2.2208	-2.7458	-1.8292	-2.4208	-1.9729	-2.0792	-3.1146	-2.1792	-2.65	-2.5875	-2.1396	46.019	198.150	-45.040	136.630	114.527	106.767	-75.716	174.703	-135.848	198.749	69.317	-93.368	-78.095	-103.944	110.024	114.879	0.00081595	0.00078866	0.00014852	1107.4	4.2923e-06	4.7367e-06	1070.5	464.78	6.0966e-06	1.1857e-05	496.16	194.02	170.83	82.613	6.0944e-06	101.62	0.00035545	0.00027174	7.5378e-05	1098.9	3.0027e-06	2.9919e-06	1067.9	462.41	3.1111e-06	3.0384e-06	490.89	194.57	171.73	82.994	3.1328e-06	101.79	188.243	-77.658	-46.513	-129.914	-13.008	8.575	-130.781	-124.632	-25.898	11.215	-126.380	-122.618	-120.533	-114.911	0.283	-117.531	-8191	255	
1652.812	1	1	0	0	0.069041	0.23938	0.15866	0.30007	0.18374	0.17209	0.10818	0.17516	0.17117	0.307	0.35079	0.44562	0.23513	0.3923	0.15958	0.26102	-2.3583	-2.3	-1.9854	-2.8833	-1.9937	-2.4458	-2.875	-1.975	-2.3375	-2.4562	-1.9125	-2.9188	-2.2583	-2.5771	-2.775	-1.775	-69.410	52.419	-72.967	128.166	-95.151	-17.914	163.129	177.290	-20.582	25.943	184.113	215.443	167.987	-134.818	90.283	193.263	0.00080607	0.00088499	0.00018485	1104.3	5.4748e-06	5.6589e-06	1068.4	461.35	4.7738e-06	1.032e-05	494	193.4	170.81	81.903	5.0508e-06	101.02	0.00036067	0.00027634	7.7633e-05	1095.5	3.0105e-06	3.0349e-06	1065.3	461.08	3.0542e-06	2.9186e-06	490.49	194.16	171.26	82.256	3.0872e-06	101.31	187.349	-78.031	-38.772	-129.641	-7.225	8.825	-130.529	-124.628	-18.874	13.428	-126.360	-122.725	-120.522	-115.045	-17.033	-117.324	-8191	255	
1652.908	1	1	0	0	0.085876	0.2292	0.074736	0.27157	0.10203	0.28716	0.21443	0.19557	0.43845	0.059788	0.16337	0.24723	0.34968	0.27704	0.19698	0.32479	-2.1625	-2.3187	-1.8396	-2.7875	-2.1771	-2.0917	-2.7875	-1.9542	-2.3292	-2.575	-2.0479	-2.8812	-2.2104	-2.3	-2.8292	-2.1646	-19.215	169.147	-131.706	145.974	-127.315	-82.270	201.049	-137.870	-127.846	-64.332	135.646	193.614	193.914	214.687	-2.091	142.276	0.00082718	0.00066138	0.00017299	1100.1	6.4786e-06	6.8078e-06	1074.8	461.64	4.7591e-06	6.4172e-06	491.69	193.32	171.02	82.183	4.3425e-06	100.91	0.00036921	0.00027386	7.7683e-05	1092.3	3.1166e-06	3.0254e-06	1065.1	460.39	3.1122e-06	2.9393e-06	489.61	193.68	170.97	82.413	3.0846e-06	101.2	187.737	-87.894	-47.727	-129.600	-1.286	7.108	-130.626	-124.725	-44.847	14.676	-126.399	-122.492	-120.375	-115.150	-9.212	-117.665	-8191	255	
1653.004	1	1	0	0	0.12388	0.059051	0.039249	0.2098	0.21852	0.13008	0.07309	0.10877	0.11203	0.21729	0.16024	0.11339	0.18965	0.28119	0.021535	0.23156	-2.0125	-2.6104	-1.9167	-2.7708	-2.1729	-1.85	-2.9875	-2.1271	-2.1875	-2.7167	-1.9333	-2.6521	-2.3688	-2.0854	-2.6875	-2.3229	160.396	-96.364	180.381	195.627	-124.533	-74.750	42.999	-138.028	170.195	84.529	131.986	134.469	-70.959	136.846	-19.830	119.113	0.00080964	0.0006647	0.00026993	1104	5.4655e-06	5.7863e-06	1063.4	460.57	6.0885e-06	7.9991e-06	491.18	192.59	169.88	81.829	2.8002e-06	100.74	0.00036518	0.00027113	7.7545e-05	1092.4	3.0352e-06	3.0148e-06	1062.3	459.64	3.1263e-06	2.9861e-06	489.14	193.56	170.65	82.225	3.1366e-06	101.15	189.379	-79.694	-46.503	-129.840	-18.972	-17.304	-130.572	-124.726	-31.879	24.916	-126.577	-122.526	-120.332	-115.059	-9.484	-117.364	-8191	255	
1653.100	1	1	0	0	0.31572	0.18632	0.054686	0.17811	0.29361	0.18104	0.086346	0.043863	0.018748	0.14624	0.15871	0.23081	0.40201	0.174	0.23118	0.27211	-1.9708	-2.8187	-1.7771	-2.7458	-2.4542	-1.8625	-2.8708	-2.3583	-2.1333	-2.6354	-1.9958	-2.7479	-2.9188	-2.2083	-2.8063	-2.325	-19.525	212.829	80.884	148.821	-13.931	-49.388	7.052	162.866	184.891	180.857	-75.840	98.282	202.719	-116.101	-107.192	159.831	0.00080895	0.00044434	0.00022498	1098.7	4.9929e-06	6.166e-06	1065	462.56	4.89e-06	8.4192e-06	490.75	194.09	169.83	81.904	5.9582e-06	100.81	0.00036551	0.00027548	7.9275e-05	1089.9	3.0982e-06	3.036e-06	1061.7	459.88	3.1645e-06	3.0197e-06	489.61	193.71	170.54	82.074	3.1737e-06	101.08	186.353	-67.801	-28.031	-129.688	-14.037	16.684	-130.681	-124.913	-61.985	13.360	-126.400	-122.551	-120.576	-114.950	-18.444	-117.548	-8191	255	
1653.197	1	1	0	0	0.036351	0.13406	0.047453	0.28965	0.40991	0.2854	0.1242	0.28049	0.16176	0.0715	0.38315	0.11947	0.2102	0.016163	0.14075	0.089687	-1.6229	-2.8583	-1.8458	-2.6312	-2.3688	-1.7083	-2.7438	-2.5708	-2.1042	-3.0083	-2.0187	-2.4021	-2.7313	-2.0333	-2.6917	-2.4688	68.459	11.877	25.384	207.404	23.255	-35.440	94.644	191.705	-23.760	96.266	153.221	-131.200	2.893	-126.129	46.817	136.250	0.00080043	0.00054603	0.00024717	1095.5	6.3786e-06	4.9298e-06	1064.8	461.88	6.932e-06	7.418e-06	494.16	193.25	170.44	81.71	5.1619e-06	100.65	0.00036281	0.00027446	7.7448e-05	1088	3.0888e-06	3.0401e-06	1063.9	460.2	3.2261e-06	3.0377e-06	490.3	193.63	170.71	81.977	3.19e-06	101.1	186.370	-80.621	-62.763	-129.768	0.614	6.494	-130.811	-124.606	-42.076	11.260	-126.550	-122.541	-120.352	-114.916	-11.087	-117.439	-8191	255	
1653.316	1	1	0	0	0.10961	0.38144	0.11287	0.066378	0.14849	0.24901	0.18443	0.47074	0.12549	0.2375	0.24951	0.22279	0.13552	0.3585	0.11466	0.19464	-1.6708	-2.7896	-1.8271	-2.5146	-2.7292	-2.1146	-2.8604	-2.5896	-1.6958	-2.8104	-2.1333	-2.4437	-2.8312	-1.9958	-2.3438	-2.5396	125.250	111.436	138.848	-48.217	-97.849	-100.381	62.785	194.698	-56.402	88.524	159.314	173.836	-126.800	170.558	-114.107	182.509	0.00081132	0.00071148	0.00020686	1095.3	7.1283e-06	8.7946e-06	1069.6	460.74	5.3704e-06	5.1039e-06	493.44	193.39	169.91	81.766	5.1686e-06	100.33	0.00036958	0.00027696	7.8966e-05	1088.7	3.056e-06	3.0728e-06	1065.2	459.63	3.2237e-06	3.0526e-06	489.43	193.92	170.86	82.037	3.1606e-06	100.93	185.191	-64.689	-53.464	-129.535	-15.608	1.576	-130.676	-124.516	-41.895	38.321	-126.317	-122.478	-120.349	-115.097	-9.339	-117.655	-8191	255	
1653.412	1	1	0	0	0.20929	0.28016	0.12797	0.2453	0.29193	0.15909	0.29004	0.11467	0.20722	0.28734	0.11981	0.25982	0.17836	0.27915	0.25424	0.28248	-1.725	-2.7	-2.0604	-2.4688	-2.6875	-1.75	-2.6479	-2.8125	-1.8875	-2.8708	-2.2875	-2.5625	-3.0667	-1.975	-2.4354	-2.7792	-2.692	172.495	134.592	196.683	114.947	212.470	142.079	162.487	126.823	-90.588	-93.668	189.083	188.809	186.083	88.257	197.105	0.00077378	0.00084233	0.0002012	1098.3	6.0616e-06	7.8502e-06	1066.3	462.02	5.3323e-06	8.5161e-06	492.65	193.45	170.47	81.81	5.142e-06	101.05	0.00036926	0.00027957	7.6905e-05	1090.6	3.0888e-06	3.0061e-06	1063.7	460.19	3.1324e-06	3.0739e-06	490.38	194.16	171.25	82.133	3.1819e-06	101.38	189.447	-55.623	-62.365	-129.605	21.377	-13.069	-130.614	-124.715	-53.298	-0.813	-126.471	-122.541	-120.261	-114.885	-18.051	-117.573	-8191	255	
1653.508	1	1	0	0	0.24607	0.023313	0.13193	0.11202	0.10912	0.11307	0.23884	0.16262	0.23483	0.20818	0.28453	0.22286	0.29915	0.40301	0.15193	0.17177	-1.3687	-2.7896	-2.4354	-2.2083	-2.8896	-1.7854	-2.575	-2.8604	-1.9937	-2.7562	-2.5604	-2.0375	-2.9333	-2.2979	-2.3167	-2.8917	-51.312	26.942	-68.497	200.474	41.229	9.492	142.998	154.189	79.782	173.689	173.376	180.301	-136.152	210.918	112.021	108.272	0.00079098	0.00088083	0.00013791	1096.4	6.6311e-06	7.6118e-06	1070	458.79	7.7072e-06	9.4506e-06	492.26	193.91	170.34	81.389	6.7829e-06	100.82	0.0003663	0.00027748	7.7154e-05	1089.5	3.0967e-06	3.0736e-06	1063.9	459.29	3.199e-06	3.0909e-06	490.42	194.15	171.07	81.861	3.1864e-06	101.27	186.189	-53.736	-59.235	-129.735	-17.918	3.213	-130.666	-124.546	-45.189	11.265	-126.359	-122.699	-120.283	-114.943	-11.127	-117.479	-8191	255	
1653.604	1	1	0	0	0.07385	0.066675	0.30716	0.057129	0.24235	0.16039	0.27506	0.39846	0.04434	0.164	0.46434	0.13154	0.33561	0.29102	0.22176	0.41711	-1.3896	-2.4917	-2.3542	-2.1042	-2.8	-2.025	-2.4771	-2.8167	-1.8604	-2.6625	-2.7083	-2.3042	-2.7417	-2.1125	-2.1479	-3.0833	58.956	24.442	145.559	123.098	-68.810	80.823	190.594	148.437	-84.440	174.443	171.665	-64.350	-112.253	174.843	-43.303	66.264	0.00081635	0.00059299	0.00020973	1099.7	5.1111e-06	8.7374e-06	1066.8	458.15	5.6024e-06	8.4411e-06	492.54	192.77	169.67	81.517	5.8957e-06	101.2	0.00037309	0.00028233	7.6706e-05	1090.6	3.0941e-06	3.0518e-06	1063.5	458.28	3.2086e-06	3.0352e-06	489.34	193.81	170.28	81.869	3.1731e-06	101.26	185.485	-71.732	-31.978	-129.487	5.434	-3.819	-130.665	-124.744	-50.035	29.123	-126.178	-122.499	-120.285	-115.059	-10.921	-117.376	-8191	255	
1653.700	1	1	0	0	0.31491	0.17856	0.086279	0.14918	0.25098	0.25702	0.24041	0.19142	0.20754	0.16754	0.2049	0.12702	0.14455	0.23749	0.1206	0.37651	-1.3937	-2.3854	-2.5687	-1.6458	-2.7313	-2.1688	-2.0646	-2.9417	-1.9292	-2.5583	-2.675	-2	-2.8854	-2.5167	-1.7875	-2.8417	129.604	-76.386	-69.929	173.650	-97.626	104.410	180.799	113.888	126.067	-133.410	168.967	-119.378	217.002	204.416	-95.382	-133.692	0.00079068	0.0007163	0.00018875	1098.2	7.2877e-06	7.1884e-06	1062.9	458.89	5.7362e-06	7.7918e-06	490.18	192.59	167.96	81.159	4.9815e-06	100.25	0.00037029	0.00027911	7.6854e-05	1089.3	3.1134e-06	3.0219e-06	1061.9	458.2	3.1235e-06	3.0369e-06	488.49	192.89	168.98	81.388	3.2183e-06	100.57	189.001	-70.895	-57.642	-129.576	-7.140	14.072	-130.435	-124.387	-30.697	28.295	-126.194	-122.478	-120.336	-114.896	-15.624	-117.317	-8191	255	
1653.796	1	1	0	0	0.027265	0.026843	0.12591	0.18604	0.07464	0.13314	0.14242	0.32341	0.10955	0.10333	0.094129	0.065033	0.034216	0.36716	0.051762	0.14984	-1.6521	-2.2104	-2.6979	-2.0938	-2.6021	-2.4583	-2.0229	-2.9042	-1.9396	-2.2229	-2.7146	-2.0625	-2.8	-2.5625	-1.9	-3.0812	115.800	77.927	183.852	-112.289	-120.242	154.978	211.585	158.721	-1.536	210.414	114.902	144.802	105.772	171.241	212.597	118.181	0.0007763	0.00064884	0.00030214	1092.8	6.8657e-06	5.1446e-06	1062.8	457.02	3.9869e-06	9.186e-06	489.44	191.73	167.63	80.816	3.1056e-06	100.6	0.00037248	0.00028839	7.9439e-05	1086.2	3.1851e-06	3.079e-06	1059.3	455.39	3.1882e-06	3.1291e-06	487.38	191.85	168.11	81.191	3.2192e-06	100.84	183.035	-70.881	-48.515	-129.798	-13.155	14.495	-130.654	-124.542	-43.432	21.353	-126.540	-122.347	-120.097	-114.808	2.623	-117.211	-8191	255	
1653.917	1	1	0	0	0.24649	0.092305	0.16576	0.2185	0.030783	0.12622	0.39633	0.081006	0.12481	0.082365	0.23209	0.17228	0.21382	0.29807	0.11939	0.18314	-1.6708	-2.3042	-2.6688	-1.8604	-2.5542	-2.3812	-1.9333	-2.8604	-2.0917	-1.9604	-3.0042	-1.8104	-2.5396	-2.8875	-1.7604	-2.9562	116.790	197.074	-12.242	111.216	-63.933	-142.139	123.029	-69.763	84.752	162.646	-60.609	160.769	192.801	-131.941	182.921	131.876	0.00082959	0.00061929	0.00012654	1094	5.6049e-06	7.7516e-06	1065.7	457.65	4.9894e-06	9.2061e-06	489.4	191.3	167.11	81.63	5.943e-06	101.11	0.0003638	0.00028119	7.9749e-05	1084.8	3.1153e-06	3.0231e-06	1060.9	456.22	3.2028e-06	3.0874e-06	488.84	192.07	168.08	81.888	3.2719e-06	101.39	188.939	-51.804	-46.733	-129.676	-11.812	-13.505	-130.669	-124.572	-34.798	17.393	-126.125	-122.375	-120.076	-114.794	-9.808	-117.268	-8191	255	
1654.013	1	1	0	0	0.15945	0.10654	0.090297	0.39561	0.22404	0.14932	0.20217	0.12727	0.17965	0.39441	0.13807	0.13256	0.29574	0.33368	0.20863	0.15912	-1.8583	-1.9458	-2.6188	-2.2687	-2.2667	-2.5812	-2.3104	-2.6937	-2.2	-2.0563	-2.7458	-1.8583	-2.5125	-2.8417	-1.7875	-2.7188	-15.097	60.280	210.060	180.010	-49.608	-26.224	113.294	81.739	141.421	179.855	-77.715	214.444	-136.901	200.626	94.389	46.917	0.00079169	0.00054516	0.00026978	1090.1	4.8992e-06	7.354e-06	1060.6	458.93	6.2123e-06	9.018e-06	491.5	190.58	167.41	82.022	5.2814e-06	101.62	0.00036767	0.00028585	7.8141e-05	1082.7	3.0856e-06	3.0635e-06	1058.6	457.58	3.2384e-06	3.082e-06	488.82	191.71	167.89	82.523	3.2177e-06	101.97	188.001	-65.100	-47.303	-129.526	-7.016	9.994	-130.536	-124.804	-43.158	9.392	-126.224	-122.637	-120.053	-114.843	-10.017	-117.271	-8191	255	
1654.109	1	1	0	0	0.1815	0.12106	0.1157	0.058459	0.1535	0.12968	0.21937	0.31352	0.11612	0.2073	0.081193	0.032133	0.18097	0.35507	0.11345	0.097142	-1.8833	-1.9688	-2.7271	-2.3063	-2.1688	-2.625	-1.8896	-2.8354	-2.1708	-1.7542	-2.9479	-2.2458	-2.1646	-2.6708	-1.8583	-2.7125	190.871	196.462	-140.486	113.657	140.164	-30.034	-109.308	113.373	137.526	58.844	-82.556	162.235	162.703	179.759	-121.144	191.638	0.00080671	0.00074868	0.00022622	1092.2	6.9044e-06	5.3755e-06	1058.2	458.94	5.5282e-06	8.5855e-06	491.87	191.96	168.17	83.29	4.2766e-06	102.28	0.00037254	0.00028474	8.0601e-05	1084.4	3.1883e-06	3.049e-06	1057.1	457.94	3.2472e-06	3.2066e-06	489.36	192.51	168.54	83.649	3.2815e-06	102.83	187.532	-70.660	-52.376	-129.610	-13.665	10.385	-130.568	-124.453	-37.966	21.654	-126.453	-122.337	-120.169	-114.810	-41.873	-117.370	-8191	255	
1654.204	1	1	0	0	0.10608	0.19536	0.2147	0.22767	0.1258	0.2592	0.31693	0.22131	0.35779	0.23	0.29608	0.094006	0.078978	0.38486	0.19346	0.374	-1.8458	-1.5771	-2.5125	-1.9729	-1.9646	-2.9458	-1.9188	-2.2854	-2.3875	-1.8396	-2.8083	-2.1125	-1.9083	-2.9333	-1.925	-2.3854	48.262	111.944	20.108	210.119	-69.016	172.233	136.812	13.662	-61.708	191.897	89.672	129.414	208.588	-102.772	96.151	153.373	0.00079222	0.00050343	0.00022608	1094	6.8098e-06	8.5794e-06	1058.5	458.24	6.3447e-06	6.9966e-06	492.57	191.64	167.17	83.443	5.8138e-06	102.77	0.00037254	0.00029413	8.0594e-05	1084	3.2093e-06	3.1174e-06	1056.2	456.93	3.2358e-06	3.1552e-06	488.83	192.26	168	83.839	3.2349e-06	103.11	188.866	-54.608	-48.957	-129.801	-6.526	14.947	-130.783	-124.631	-24.325	19.142	-126.104	-122.443	-119.978	-114.741	-29.914	-117.390	-8191	255	
1654.277	1	1	0	0	0.22163	0.083831	0.070185	0.34799	0.33746	0.17234	0.069789	0.19952	0.13552	0.30837	0.28986	0.26217	0.051784	0.1525	0.15302	0.27164	-2.325	-1.7333	-2.5604	-2.3292	-1.7667	-2.8479	-2.2521	-2.4375	-2.5708	-1.8875	-2.6792	-2.3917	-2.0458	-2.975	-2.0604	-2.3875	216.682	-132.402	22.316	161.335	1.828	83.058	175.185	-133.657	-37.146	190.567	-127.072	118.635	-29.323	180.821	-73.263	157.766	0.00083021	0.00082256	0.00022913	1089.3	5.5962e-06	5.3592e-06	1061.7	456.84	4.8581e-06	8.8884e-06	491.34	191.4	165.71	84.363	7.0007e-06	103.29	0.00037913	0.00029467	8.0437e-05	1080.7	3.2316e-06	3.1538e-06	1055.7	455.95	3.3116e-06	3.2075e-06	488.11	191.83	166.69	84.702	3.3283e-06	103.49	187.715	-56.876	-46.504	-129.624	-15.567	-4.126	-130.720	-124.517	-55.734	28.468	-126.064	-122.346	-120.206	-114.689	-1.626	-117.143	-8191	255	
1654.396	1	1	0	0	0.16528	0.084799	0.10718	0.099338	0.3007	0.15565	0.088602	0.36195	0.030066	0.12363	0.2369	0.20744	0.11688	0.24833	0.23424	0.16013	-2.2375	-1.7729	-2.5021	-2.4375	-1.6833	-2.925	-2.2313	-2.3396	-2.7104	-1.7313	-2.7104	-2.5542	-1.925	-2.9542	-2.05	-2.4417	-11.467	-138.131	-123.506	205.577	-85.287	-90.392	131.689	145.308	8.362	140.710	205.492	-100.086	157.293	204.228	-61.202	200.891	0.00082071	0.00065925	0.00019316	1087.4	7.0857e-06	9.8451e-06	1055	454.79	8.1556e-06	6.4223e-06	489.73	191.06	165.37	84.705	5.1822e-06	102.74	0.00037545	0.00029286	8.1191e-05	1081.5	3.2383e-06	3.1995e-06	1055.1	453.96	3.2483e-06	3.1657e-06	486.52	191.5	166.13	85.128	3.2691e-06	103.5	186.478	-84.149	-58.370	-129.676	5.995	2.875	-130.530	-124.566	-23.028	3.545	-126.303	-122.471	-120.104	-114.549	-16.730	-117.054	-8191	255	
1654.492	1	1	0	0	0.077263	0.099282	0.24775	0.24629	0.040289	0.17599	0.21668	0.3316	0.12261	0.28179	0.21765	0.21163	0.18802	0.21049	0.24334	0.052854	-2.3937	-1.8375	-2.3708	-2.8208	-1.8625	-2.6771	-2.0771	-2.1729	-2.6813	-2.0021	-2.4729	-2.7208	-1.9604	-2.7875	-2.2812	-2.1604	-135.754	-129.847	-48.186	-104.400	-119.356	17.072	214.804	134.631	116.724	44.344	193.404	126.221	-121.532	179.287	-139.067	185.986	0.00076634	0.00076666	0.00021134	1089.6	6.1798e-06	6.8907e-06	1055.7	453.87	4.7806e-06	6.2878e-06	487.42	190.53	165.15	85.13	5.1028e-06	102.92	0.00037808	0.00029764	7.9985e-05	1080.9	3.2996e-06	3.2366e-06	1052.7	452.5	3.3564e-06	3.2745e-06	485.41	191.62	166.15	85.409	3.4056e-06	103.46	184.164	-51.640	-60.631	-129.776	-5.835	8.611	-130.735	-124.304	-40.453	11.589	-126.300	-122.435	-120.017	-114.518	4.633	-117.217	-8191	255	
1654.588	1	1	0	0	0.1121	0.15886	0.17878	0.23287	0.12188	0.17516	0.32033	0.48946	0.35647	0.089339	0.27034	0.17093	0.33926	0.2733	0.058131	0.44763	-2.4271	-1.8479	-2.2646	-2.7438	-2.0062	-2.6437	-2.4688	-2.0896	-2.6958	-1.9937	-2.2479	-2.875	-1.9333	-2.8042	-2.3646	-2.1417	4.030	44.580	89.447	-123.757	97.621	81.059	160.255	184.000	-49.265	85.581	213.506	-139.309	206.099	-127.869	-63.639	170.768	0.00087032	0.00067714	0.00023307	1084.8	7.1303e-06	7.4422e-06	1053	454.68	5.2033e-06	1.0561e-05	489.99	192.9	165.81	85.56	6.9452e-06	103.96	0.00038594	0.00030239	8.351e-05	1075.5	3.3747e-06	3.2866e-06	1049.5	453.64	3.3983e-06	3.1982e-06	486.96	193.46	167.07	86.097	3.411e-06	104.06	186.720	-62.835	-56.066	-129.600	-10.735	3.999	-130.720	-124.460	-38.828	36.180	-126.198	-122.124	-120.147	-114.332	-18.582	-117.050	-8191	255	
1654.709	1	1	0	0	0.1362	0.30925	0.21356	0.099912	0.071609	0.17226	0.35261	0.10107	0.11518	0.21021	0.14176	0.11737	0.0936	0.2644	0.021253	0.25768	-2.2667	-2.1	-2.1667	-2.9667	-1.8667	-2.3708	-2.6708	-1.95	-2.8396	-1.975	-2.0896	-2.8104	-2.025	-2.4354	-2.5729	-2.0917	56.707	-29.824	-116.738	127.915	20.474	36.399	172.396	145.280	-69.086	10.564	169.842	202.420	-133.709	210.857	133.411	205.548	0.00079747	0.00064168	0.000172	1079.3	5.5122e-06	9.5587e-06	1055.1	453.98	5.3862e-06	8.3775e-06	488.27	193.24	166.88	86.209	5.8556e-06	104.12	0.00038861	0.00029509	8.3529e-05	1073.5	3.2305e-06	3.2571e-06	1050	453.14	3.4247e-06	3.2142e-06	486.8	194.32	167.83	86.576	3.3922e-06	104.65	185.618	-62.061	-45.010	-129.601	-30.984	3.564	-130.424	-124.368	-37.920	8.948	-126.377	-122.255	-120.012	-114.435	3.715	-117.153	-8191	255	
1654.805	1	1	0	0	0.16074	0.30081	0.16432	0.16134	0.24686	0.25289	0.19457	0.37131	0.24956	0.04467	0.11994	0.28531	0.052957	0.14814	0.21071	0.13567	-2.2875	-2.3021	-1.9646	-2.9562	-2.0812	-2.4479	-2.7646	-1.9479	-2.4875	-2.1458	-1.8708	-3.1042	-2.025	-2.6312	-2.7104	-1.9375	-42.018	22.747	92.144	116.696	81.456	117.974	164.225	191.741	129.975	31.390	162.436	195.805	-35.221	-111.708	109.638	143.096	0.00082351	0.00075446	0.0002151	1085.7	6.4211e-06	8.1988e-06	1054.4	454.96	5.8676e-06	1.0806e-05	493.6	194.96	168.14	86.743	6.3209e-06	104.95	0.00038358	0.00029561	8.4021e-05	1076.7	3.2625e-06	3.2356e-06	1052.8	454.93	3.3453e-06	3.2193e-06	490.39	196.31	169.15	87.166	3.324e-06	105.47	185.206	-58.596	-46.180	-129.642	-1.471	-19.347	-130.842	-124.478	-41.479	23.752	-126.197	-121.963	-120.137	-114.628	-16.837	-117.036	-8191	255	
1654.877	1	1	0	0	0.12278	0.193	0.019842	0.32573	0.31897	0.031296	0.18572	0.22231	0.12974	0.11861	0.2401	0.12805	0.1078	0.116	0.26874	0.28887	-2.0667	-2.2771	-1.6625	-2.8542	-2.0375	-2.2646	-2.9333	-2.0062	-2.4792	-2.35	-1.8229	-2.5625	-2.3021	-2.0062	-2.7104	-1.8354	52.254	-99.654	-110.761	183.715	129.671	-48.237	146.613	190.864	37.578	-56.022	211.125	210.851	144.623	-41.755	-20.775	182.236	0.00083076	0.00074531	0.00017037	1090.7	4.4297e-06	7.8308e-06	1055.8	459.02	7.9471e-06	6.184e-06	494.07	197.08	169.24	87.215	5.9704e-06	105.58	0.00038645	0.0002988	8.0816e-05	1079	3.3042e-06	3.2752e-06	1055.3	457.6	3.295e-06	3.1955e-06	492.09	197.74	169.98	87.68	3.3414e-06	105.83	186.678	-65.449	-75.692	-129.587	-19.988	-1.217	-130.557	-124.642	-31.216	14.384	-126.362	-122.234	-120.056	-114.606	-9.228	-117.266	-8191	255	
1654.997	1	1	0	0	0.075466	0.085536	0.18125	0.20753	0.10101	0.1379	0.14385	0.31488	0.16379	0.14062	0.20349	0.10273	0.13578	0.22172	0.048649	0.23027	-1.8854	-2.4479	-1.6187	-2.9354	-1.9562	-2.0375	-2.9021	-1.7479	-2.1208	-2.5146	-1.9937	-2.8208	-2.3104	-2.0625	-2.6958	-2.0875	164.703	-27.661	-99.421	208.822	155.533	210.247	155.668	141.780	-100.075	155.743	-27.464	186.834	142.449	47.191	201.104	153.342	0.00083903	0.00075845	0.0002289	1090.3	4.5336e-06	6.8104e-06	1060.3	456	6.0482e-06	9.3382e-06	494.27	195.65	168.77	87.409	5.511e-06	105.09	0.00038559	0.00029839	8.3157e-05	1081.2	3.1775e-06	3.1624e-06	1055.5	456.8	3.301e-06	3.1422e-06	490.76	196.64	169.98	87.493	3.2991e-06	105.42	187.153	-59.764	-71.200	-129.407	-14.378	24.012	-130.658	-124.582	-32.122	32.606	-126.136	-122.032	-120.325	-114.545	-13.150	-117.128	-8191	255	
1655.093	1	1	0	0	0.1489	0.29146	0.18087	0.2508	0.10251	0.18871	0.36164	0.27395	0.14632	0.22136	0.17532	0.35899	0.27293	0.18619	0.32064	0.20515	-1.6854	-2.5958	-1.5312	-2.85	-2.2833	-1.8896	-2.8917	-2.1229	-2.3396	-2.5667	-1.9396	-2.6833	-2.3833	-2.0958	-2.5896	-2.225	192.769	-95.798	-84.307	204.149	156.681	-114.839	141.211	155.930	104.455	-41.244	205.117	188.301	216.753	9.739	104.582	158.459	0.00086309	0.00093541	0.00020223	1089.8	4.7876e-06	7.5667e-06	1055.4	456.49	5.539e-06	1.0015e-05	493.1	196.22	169.55	87.282	5.8654e-06	104.96	0.00037667	0.00028804	8.1604e-05	1077.9	3.1483e-06	3.2149e-06	1052.4	455.88	3.2457e-06	3.2214e-06	489.26	196.42	169.7	87.542	3.2676e-06	105.45	185.261	-68.463	-60.492	-129.533	-47.979	0.375	-130.674	-124.447	-50.729	28.466	-126.282	-122.340	-120.149	-114.685	-28.169	-117.236	-8191	255	
1655.190	1	1	0	0	0.24267	0.092541	0.22615	0.20839	0.21866	0.25794	0.068534	0.30582	0.078117	0.18197	0.071202	0.1838	0.37503	0.24608	0.14952	0.17013	-1.5333	-2.7146	-1.5562	-2.6104	-2.2521	-1.775	-2.6229	-2.3667	-1.7979	-2.6854	-1.9146	-2.4896	-2.4146	-1.8833	-2.6542	-2.275	-117.396	214.077	181.900	167.773	-108.252	-87.533	196.774	91.564	201.106	-36.006	135.840	-120.344	184.866	203.436	211.317	96.388	0.00086914	0.00056327	0.00018898	1085.4	5.5152e-06	7.8278e-06	1054.2	457.66	6.526e-06	9.9083e-06	493.75	195.77	169.02	87.546	5.6473e-06	105.86	0.00037708	0.00029451	8.0444e-05	1077.6	3.1373e-06	3.1993e-06	1052.7	456.59	3.3056e-06	3.1506e-06	491.09	196.74	170.1	87.817	3.2604e-06	105.98	188.579	-58.150	-54.066	-129.560	1.450	3.210	-130.344	-124.600	-38.578	21.839	-126.323	-122.009	-120.207	-114.643	-10.992	-117.129	-8191	255	
1655.308	1	1	0	0	0.13176	0.19747	0.11391	0.13892	0.21832	0.20601	0.064679	0.47588	0.18046	0.33033	0.12237	0.25013	0.16566	0.11066	0.31502	0.044106	-1.6917	-2.5479	-1.7563	-2.3271	-2.6167	-1.8896	-2.7146	-2.4229	-1.9771	-2.6125	-1.8937	-2.3104	-2.6333	-1.8937	-2.4271	-2.3896	110.427	131.189	186.144	131.720	-101.728	-100.077	188.738	181.924	-66.831	-87.666	157.773	186.510	215.165	-102.701	-132.112	110.340	0.00082914	0.00063856	0.00024065	1092.6	5.1075e-06	6.0577e-06	1057.1	458.41	8.4837e-06	5.1878e-06	497.08	196.42	169.36	87.873	4.103e-06	105.96	0.00038061	0.00029508	8.168e-05	1079.9	3.1522e-06	3.1957e-06	1056.1	457.83	3.362e-06	3.117e-06	492.65	197.49	170.58	88.207	3.2321e-06	106.33	186.574	-80.127	-69.683	-129.482	2.662	20.027	-130.639	-124.535	-40.906	24.606	-126.230	-122.182	-120.239	-114.682	-10.809	-117.370	-8191	255	
1655.405	1	1	0	0	0.17907	0.15746	0.22041	0.16859	0.0071682	0.30945	0.35833	0.13513	0.20817	0.34664	0.23616	0.18922	0.049953	0.35524	0.17802	0.33175	-1.3917	-2.4979	-1.9958	-2.1833	-2.5312	-1.6771	-2.5625	-2.7229	-1.5708	-2.7208	-2.0771	-2.2313	-2.5771	-1.9542	-2.2417	-2.5	216.383	-96.934	84.713	-138.676	-118.137	195.349	187.561	124.099	6.964	76.941	-101.389	191.717	-1.153	186.261	-54.755	185.455	0.00079514	0.00072354	0.00023885	1087.6	4.2136e-06	9.7585e-06	1060.5	459.84	3.8981e-06	7.9063e-06	494.73	196.14	169.76	87.747	7.2763e-06	105.8	0.00037976	0.00029079	7.971e-05	1080.3	3.2596e-06	3.0964e-06	1057.2	458.66	3.2285e-06	3.1139e-06	492.5	197.4	170.58	88.084	3.2135e-06	106.29	187.288	-63.874	-54.331	-129.579	-4.313	12.928	-130.597	-124.405	-35.728	22.392	-126.447	-122.130	-120.260	-114.635	-14.381	-117.417	-8191	255	
1655.501	1	1	0	0	0.13208	0.094873	0.30641	0.1614	0.074818	0.038837	0.1471	0.27882	0.3428	0.11701	0.30435	0.15887	0.16303	0.2929	0.15253	0.26333	-1.4333	-2.5354	-2.2646	-1.9188	-2.6396	-1.5562	-2.5479	-2.8229	-1.5292	-2.7062	-2.0938	-2.0812	-2.7354	-2.0938	-2.2917	-2.6521	-76.679	-54.616	-54.673	47.533	27.226	-138.134	139.486	155.188	-19.841	77.214	176.164	206.423	50.411	199.782	148.964	168.509	0.00082483	0.00085088	0.00017267	1089.1	5.051e-06	9.533e-06	1058.2	460.42	5.0938e-06	8.5523e-06	496.89	196.57	170.23	87.735	6.8567e-06	105.83	0.00037453	0.0002897	7.931e-05	1081.8	3.1696e-06	3.1286e-06	1054.5	459.57	3.2943e-06	3.1789e-06	493.81	197.4	170.8	88.057	3.2773e-06	106.34	185.741	-50.905	-61.343	-129.671	11.537	13.802	-130.522	-124.550	-47.469	-19.284	-126.245	-122.084	-120.112	-114.909	-13.902	-117.277	-8191	255	
1655.572	1	1	0	0	0.13641	0.11824	0.13721	0.061594	0.23734	0.0025195	0.073165	0.094168	0.058997	0.22436	0.13824	0.20862	0.3191	0.37825	0.25541	0.22713	-1.3708	-2.4688	-1.9271	-2.1188	-2.6813	-1.8188	-2.4646	-2.7833	-1.7521	-2.6021	-2.3833	-1.7042	-2.7417	-2.0229	-2.0812	-2.9604	-10.320	187.745	-37.214	142.301	95.429	180.000	25.317	-137.525	36.061	18.742	154.178	206.528	165.064	-128.707	-35.557	-126.423	0.00085891	0.00073276	0.00026838	1083.5	6.6476e-06	2.4523e-06	1061.7	459.21	5.8931e-06	8.0757e-06	494.62	196.69	170.35	87.354	5.3925e-06	106.2	0.00038849	0.00029025	8.1338e-05	1076.8	3.1593e-06	3.1157e-06	1056.3	458.78	3.2732e-06	3.1813e-06	493.16	197.13	170.84	87.879	3.2965e-06	106.39	188.314	-82.894	-56.590	-129.300	-3.128	6.508	-130.368	-124.628	-46.121	31.312	-126.429	-122.229	-120.319	-114.728	-15.277	-117.311	-8191	255	
1655.693	1	1	0	0	0.30019	0.17407	0.26123	0.29082	0.1365	0.28933	0.25507	0.24728	0.18274	0.20126	0.057339	0.29936	0.09993	0.18203	0.22382	0.29172	-1.3208	-2.2875	-2.1479	-2	-2.5312	-2.1146	-2.0583	-2.8292	-1.7604	-2.3604	-2.3917	-1.7021	-2.7625	-2.3521	-1.8854	-2.9813	63.841	-140.590	-19.403	181.663	90.219	154.044	210.276	177.275	109.497	-82.317	-58.759	204.233	107.924	-140.274	-22.322	153.344	0.00080595	0.00067329	0.00012625	1080.7	4.9275e-06	8.0808e-06	1056.6	459.34	5.7386e-06	8.4142e-06	496.08	196.14	169.71	87.342	5.5554e-06	105.6	0.00037934	0.00029616	7.9157e-05	1074.3	3.2583e-06	3.1745e-06	1052.2	459.02	3.3574e-06	3.1866e-06	492.67	197.02	170.17	87.71	3.2646e-06	106.21	188.464	-66.242	-45.652	-129.444	-15.307	-26.312	-130.453	-124.657	-35.315	35.258	-126.297	-122.209	-120.121	-114.767	-16.769	-117.101	-8191	255	
1655.789	1	1	0	0	0.16179	0.30283	0.10185	0.10621	0.12361	0.28555	0.1883	0.24603	0.21973	0.1269	0.1109	0.048466	0.15902	0.24804	0.17251	0.097029	-1.4167	-2.2354	-2.5292	-1.7271	-2.6167	-2.0333	-2.1396	-2.6833	-1.9542	-2.0271	-2.6479	-1.8729	-2.7167	-2.3604	-1.8542	-2.8396	-0.828	-46.546	102.902	196.189	-90.728	-58.318	160.673	147.805	-68.322	159.544	-106.624	-109.992	113.780	150.699	-34.484	-136.801	0.0008289	0.00068986	0.00020516	1083.3	6.3649e-06	7.0371e-06	1051.5	459.98	6.3494e-06	8.5057e-06	493.71	196.7	170.08	87.398	7.5767e-06	105.68	0.00037949	0.00029477	8.1514e-05	1076	3.198e-06	3.1651e-06	1052.4	458.68	3.3079e-06	3.2028e-06	492.83	196.91	170.41	87.918	3.4033e-06	106.12	184.775	-52.498	-37.836	-129.336	7.041	3.002	-130.414	-124.498	-19.585	-7.679	-126.238	-122.316	-120.137	-114.687	-16.095	-117.117	-8191	255	
1655.885	1	1	0	0	0.23596	0.091942	0.17614	0.21132	0.13138	0.10341	0.3583	0.3045	0.069162	0.25765	0.24268	0.20883	0.23479	0.24995	0.10026	0.36861	-1.2938	-2.0792	-2.5104	-1.9458	-2.3	-2.4104	-1.8729	-2.75	-1.8438	-1.9688	-2.6667	-1.8979	-2.4833	-2.5563	-1.8833	-2.8937	91.020	9.575	43.017	-123.585	190.636	117.918	181.576	121.868	-114.008	187.392	173.036	90.219	170.921	187.773	117.836	125.092	0.00077633	0.00072703	0.0001947	1082.1	8.2964e-06	7.7014e-06	1049.2	459.82	4.7691e-06	1.0168e-05	496.29	196.45	169.19	87.132	5.334e-06	105.75	0.00038154	0.00029805	8.1389e-05	1072.6	3.167e-06	3.1942e-06	1048.4	458.44	3.3133e-06	3.1447e-06	492.06	196.6	169.92	87.469	3.3331e-06	105.99	187.986	-55.674	-29.717	-129.484	-8.546	8.254	-130.561	-124.521	-42.077	12.477	-126.325	-122.228	-119.901	-114.735	-10.877	-117.317	-8191	255	
1655.982	1	1	0	0	0.25984	0.13896	0.25474	0.18991	0.20249	0.11952	0.20569	0.39731	0.049656	0.30239	0.32559	0.10331	0.14089	0.1483	0.0083335	0.44195	-1.8062	-1.9083	-2.6813	-1.9521	-2.2167	-2.5104	-1.8542	-2.6021	-2.1604	-2.0104	-3.0146	-1.9333	-2.7646	-2.7438	-2.0229	-2.6167	192.315	177.470	72.822	186.459	-89.018	-10.631	179.634	161.580	198.742	-105.396	187.699	153.438	-81.384	151.008	-87.177	190.006	0.00081291	0.00077582	0.00029374	1081.9	6.4416e-06	7.0137e-06	1055.7	459.93	4.8702e-06	6.7605e-06	495.62	195.93	169.14	87.215	4.7535e-06	106.13	0.00037533	0.00028821	8.1807e-05	1071.8	3.2018e-06	3.0793e-06	1050.4	457.96	3.2736e-06	3.0694e-06	492.42	196.68	169.76	87.708	3.1873e-06	106.34	187.151	-72.184	-56.848	-129.794	-2.502	8.654	-130.664	-124.460	-44.522	22.814	-126.366	-122.317	-119.956	-114.756	-15.870	-116.953	-8191	255	
1656.100	1	1	0	0	0.26222	0.2584	0.22579	0.15828	0.2561	0.37859	0.25302	0.14511	0.37601	0.24611	0.045388	0.11472	0.10148	0.22594	0.13346	0.14989	-1.9083	-1.9104	-2.7208	-2.1167	-2.2958	-2.6354	-2.0167	-2.6167	-2.3021	-1.975	-2.9208	-1.9896	-2.2938	-2.9396	-1.7292	-2.5333	108.240	-97.438	169.170	132.376	149.232	-17.167	126.344	197.878	176.641	60.370	174.574	-100.633	53.319	210.525	48.803	113.572	0.00088438	0.00070313	0.00020726	1080.8	4.7766e-06	6.301e-06	1055.9	458.84	7.6668e-06	6.7195e-06	495.05	195.58	169.88	87.518	4.5249e-06	105.68	0.00037671	0.0002865	7.8728e-05	1071.4	3.1602e-06	3.0877e-06	1052.2	457.8	3.1928e-06	3.1027e-06	492.41	196.44	170.3	87.816	3.2705e-06	106.06	186.507	-73.239	-39.773	-129.690	6.023	8.450	-130.469	-124.560	-35.768	26.747	-126.269	-122.328	-120.127	-114.840	-11.011	-117.275	-8191	255	
1656.174	1	1	0	0	0.24789	0.048779	0.084482	0.18554	0.23075	0.068482	0.14791	0.50033	0.18329	0.20894	0.39428	0.43256	0.25274	0.19821	0.091135	0.23222	-2.0604	-1.7917	-2.5875	-2.3063	-2.1083	-2.8354	-2.0271	-2.6646	-2.5542	-2.0896	-2.9813	-2.2104	-2.0021	-3.0167	-1.7854	-2.6562	-117.991	103.235	4.049	101.199	133.759	-142.324	123.235	164.198	2.417	-129.886	-129.421	108.675	203.563	207.148	-56.735	216.192	0.00084743	0.00057297	0.00013358	1076.8	4.761e-06	7.5494e-06	1052.4	458.63	5.8502e-06	9.1305e-06	493.84	195.01	169.32	87.163	7.4245e-06	105.53	0.00037566	0.00028287	7.6979e-05	1069.4	3.162e-06	3.024e-06	1050.3	457.24	3.2367e-06	3.097e-06	492.11	196.36	169.98	87.707	3.1868e-06	105.99	186.242	-64.560	-59.659	-129.716	9.568	-0.190	-130.426	-124.411	-22.875	33.152	-126.130	-122.456	-120.059	-114.656	-4.686	-117.182	-8191	255	
1656.270	1	1	0	0	0.21892	0.3312	0.20378	0.17088	0.15733	0.086241	0.26097	0.3211	0.11094	0.26449	0.21115	0.18791	0.31555	0.42485	0.19804	0.18838	-2.1271	-1.9937	-2.4708	-2.2062	-2.0187	-2.6479	-2.1604	-2.6167	-2.4479	-2.0458	-2.6729	-2.275	-2.0083	-3.0458	-2.0792	-2.3	-128.169	-106.242	90.691	179.734	54.032	83.352	142.970	146.794	114.561	121.235	180.020	-87.132	-132.109	201.357	36.714	173.834	0.00079923	0.00067593	0.00019545	1077.4	5.0097e-06	7.2338e-06	1055.5	461.29	4.5194e-06	7.9033e-06	495.26	196	170.2	87.561	6.3991e-06	106.22	0.00036973	0.00028047	7.6117e-05	1070.9	3.0555e-06	3.0343e-06	1051.8	458.81	3.0923e-06	3.058e-06	492.79	196.68	170.26	87.786	3.1747e-06	106.42	186.585	-66.459	-49.915	-129.432	-8.061	-9.661	-130.763	-124.471	-43.306	3.086	-126.342	-122.437	-119.965	-114.763	-21.218	-117.053	-8191	255	
1656.391	1	1	0	0	0.15473	0.24612	0.11856	0.27801	0.29769	0.031991	0.37597	0.19351	0.38122	0.13792	0.28608	0.19855	0.02955	0.32308	0.25745	0.25127	-2.0271	-1.6667	-2.4396	-2.2687	-1.9417	-2.4875	-2.1437	-2.4437	-2.4625	-1.6604	-2.6833	-2.5021	-1.8917	-2.8375	-1.9167	-2.4542	59.266	150.610	-1.662	-137.788	45.671	-25.464	147.304	169.749	195.918	124.932	172.579	166.530	22.826	189.503	184.348	165.597	0.00082732	0.00084549	0.00018742	1078.3	7.1678e-06	6.8125e-06	1060	459.73	7.3318e-06	8.5562e-06	498.56	196.25	169.7	87.304	3.9149e-06	105.9	0.00036624	0.00027381	7.5535e-05	1070.3	3.0833e-06	2.9694e-06	1054.2	458.5	3.0726e-06	2.9764e-06	493.79	196.45	169.89	87.641	3.1529e-06	106.13	185.570	-79.398	-58.392	-129.424	-11.989	-9.340	-130.455	-124.641	-34.153	49.882	-126.124	-122.200	-119.952	-114.529	-22.067	-116.958	-8191	255	
1656.485	1	1	0	0	0.13919	0.13844	0.14463	0.14326	0.26691	0.30903	0.25988	0.32835	0.13446	0.047988	0.10312	0.29042	0.23718	0.24494	0.053015	0.08309	-2.2708	-1.8542	-2.3708	-2.6771	-1.8062	-2.5771	-2.0833	-2.3083	-2.875	-1.8333	-2.6125	-2.6	-2.1437	-2.8563	-2.2062	-2.2375	199.955	168.836	152.115	154.628	199.836	36.466	125.626	206.045	-120.531	108.111	102.176	162.486	109.973	175.719	-17.247	-43.410	0.00080969	0.00067473	0.00027242	1083	6.9081e-06	7.7945e-06	1056	460.29	6.7429e-06	6.6334e-06	496.04	196.06	169.58	87.121	4.2843e-06	105.78	0.00036537	0.00028092	7.5893e-05	1073.5	3.039e-06	3.002e-06	1051.7	459.21	3.1356e-06	3.0312e-06	493.55	196.35	170.09	87.579	3.1389e-06	106.18	185.186	-65.107	-67.537	-129.595	-9.819	3.913	-130.567	-124.299	-35.879	0.474	-125.882	-122.353	-119.949	-114.598	-19.075	-116.871	-8191	255	
1656.581	1	1	0	0	0.28846	0.18262	0.15727	0.14793	0.088239	0.10239	0.13602	0.38555	0.2202	0.14938	0.2728	0.19295	0.14803	0.37457	0.27607	0.025783	-2.2521	-2.025	-2.0812	-2.8875	-1.7375	-2.5687	-2.5396	-2.2896	-2.8292	-2.2313	-2.575	-2.6271	-1.8458	-2.6917	-2.4708	-1.9708	54.940	-102.600	131.849	148.094	86.103	-49.604	121.416	173.624	105.246	-115.643	173.881	211.848	-96.613	203.161	147.062	-119.197	0.00085059	0.00073414	0.00024665	1083	6.9097e-06	7.1473e-06	1053.3	459.49	6.1573e-06	4.9024e-06	496.07	195.61	168.91	86.852	5.5292e-06	105.59	0.00036654	0.00027662	7.7228e-05	1072.2	3.0824e-06	2.9848e-06	1049.2	457.99	3.1124e-06	3.0666e-06	492.72	195.81	169.15	87.108	3.1631e-06	105.89	186.197	-56.501	-44.603	-129.307	-22.501	19.786	-130.325	-124.267	-58.880	21.268	-125.632	-122.221	-120.042	-114.445	7.569	-116.778	-8191	255	
1656.677	1	1	0	0	0.094887	0.24672	0.058571	0.16171	0.27045	0.13751	0.18676	0.12824	0.022214	0.21044	0.18856	0.30758	0.14423	0.32125	0.21481	0.033115	-2.5208	-1.7375	-2.1333	-2.7042	-1.7375	-2.6292	-2.4729	-2.1	-2.6875	-2.0187	-2.3812	-2.8563	-1.9958	-2.7188	-2.5125	-2.0938	-131.376	-86.221	94.784	140.821	144.245	-139.598	140.413	91.475	-78.152	-79.668	-12.008	133.555	-83.141	182.708	-36.226	207.858	0.00082951	0.00063455	0.00020845	1078.8	6.3762e-06	7.0542e-06	1054.8	458.41	6.8601e-06	1.0777e-05	496.74	195.27	168.59	86.828	6.0754e-06	105.99	0.00036497	0.00027972	7.6731e-05	1070.3	3.1383e-06	3.0162e-06	1049.1	457.59	3.1149e-06	3.0158e-06	492.22	195.75	169.39	87.306	3.151e-06	106.18	185.609	-71.591	-45.688	-129.221	-4.452	2.465	-130.439	-124.393	-29.431	-15.455	-125.837	-122.167	-120.050	-114.399	1.831	-116.887	-8191	255	
1656.773	1	1	0	0	0.14556	0.31433	0.22241	0.36738	0.048802	0.22533	0.35454	0.35363	0.1319	0.14723	0.2245	0.22216	0.12536	0.24584	0.20163	0.22293	-2.2458	-2.0354	-2.0333	-2.7812	-1.9104	-2.5458	-2.7396	-2.0833	-2.7104	-2.125	-2.1875	-2.7687	-2.1271	-2.2833	-2.6229	-2.0958	36.537	168.985	127.332	177.571	216.490	-22.404	24.533	197.991	-52.045	-34.595	194.629	-102.261	-50.419	191.334	-114.916	121.153	0.000835	0.00065204	0.00022236	1082.5	7.1584e-06	5.5175e-06	1055.7	459.48	7.4419e-06	5.0815e-06	495.01	195.66	168.89	87.124	6.1701e-06	105.94	0.00036736	0.00027667	7.6493e-05	1072.7	3.0902e-06	2.9582e-06	1052.1	457.92	3.209e-06	3.0135e-06	492.82	196.32	169.6	87.409	3.1108e-06	106.21	187.506	-89.412	-57.518	-129.341	-25.684	19.881	-130.195	-124.306	-46.327	22.155	-125.822	-122.203	-119.948	-114.432	-18.514	-116.983	-8191	255	
1656.870	1	1	0	0	0.12243	0.2234	0.26236	0.19557	0.041781	0.14616	0.040523	0.1243	0.24265	0.22923	0.20037	0.096689	0.18748	0.14783	0.30656	0.20201	-2.075	-2.3542	-1.8542	-2.8875	-2.0229	-2.0458	-2.7792	-2.1354	-2.6937	-2.4688	-1.9854	-3.1104	-2.0729	-2.4708	-2.6375	-2.1875	125.755	24.896	7.815	-133.769	-140.592	180.842	-83.485	98.213	76.325	-5.500	-131.258	-134.536	190.249	158.295	136.007	148.390	0.00083157	0.0006698	0.00022168	1078.6	5.4375e-06	6.929e-06	1057	457.54	8.2039e-06	6.4612e-06	496.04	195.28	167.98	86.684	7.8319e-06	105.59	0.00036045	0.00027266	7.7163e-05	1070.7	2.9818e-06	3.0137e-06	1051.4	456.5	3.1149e-06	2.9398e-06	491.85	195.84	168.78	86.915	3.1585e-06	105.78	183.466	-73.324	-49.104	-129.287	-43.227	-5.794	-130.392	-124.330	-22.298	-6.628	-125.912	-122.173	-119.960	-114.382	-26.761	-116.916	-8191	255	
1656.990	1	1	0	0	0.074413	0.073563	0.2255	0.1244	0.060079	0.20082	0.17496	0.29472	0.097691	0.22738	0.20895	0.18641	0.16299	0.065465	0.16761	0.20832	-1.9062	-2.2042	-1.7708	-2.9604	-2.0563	-2.225	-2.8875	-1.725	-2.4729	-2.3708	-1.8396	-2.8646	-2.1292	-2.0729	-2.8271	-2.1083	42.162	-109.302	192.981	186.284	203.706	-11.689	-64.986	-133.702	-54.559	-89.626	-132.761	207.106	-122.807	137.108	162.522	-122.307	0.00083434	0.0006605	0.00023705	1075.7	4.4509e-06	6.5534e-06	1051.5	457.48	4.7836e-06	9.5584e-06	496.57	194.29	167.53	86.423	7.4499e-06	104.96	0.00036853	0.00027754	7.7254e-05	1067.3	3.0017e-06	3.0092e-06	1049.4	456.09	3.1147e-06	2.9789e-06	492.17	195.36	168.38	86.761	3.1287e-06	105.54	187.820	-78.950	-60.596	-129.395	8.112	-11.631	-130.111	-124.213	-20.478	5.610	-125.803	-122.200	-120.033	-114.326	-29.568	-116.940	-8191	255	
1657.086	1	1	0	0	0.15673	0.083309	0.29285	0.40712	0.13985	0.12868	0.20925	0.33204	0.12455	0.18476	0.14795	0.22602	0.26871	0.26794	0.13429	0.31003	-2.0458	-2.5708	-1.5479	-2.6875	-2.2958	-1.8438	-2.8958	-2.1292	-2.3125	-2.3708	-1.9438	-2.8771	-2.5604	-2.2313	-3.0021	-2.2812	-82.182	56.049	-7.012	173.945	141.783	67.324	-133.702	191.491	125.097	-30.819	191.344	-141.788	-132.033	-101.503	77.700	104.861	0.00077875	0.00051617	0.00019235	1075.2	5.2805e-06	7.1612e-06	1055.5	456.41	6.6937e-06	5.864e-06	493.57	194.8	168.38	86.252	5.5449e-06	105.71	0.00036623	0.00027267	7.7043e-05	1068.7	3.1195e-06	3.0588e-06	1051.1	455.39	3.1576e-06	3.073e-06	491.54	195.68	168.87	86.788	3.1077e-06	105.8	185.194	-73.059	-32.870	-129.354	-20.608	6.688	-130.251	-124.246	-41.055	22.887	-126.038	-121.866	-119.825	-114.308	-1.541	-116.887	-8191	255	
1657.183	1	1	0	0	0.21019	0.098408	0.16471	0.2591	0.0084751	0.21263	0.1177	0.17983	0.039046	0.18146	0.22585	0.34252	0.072824	0.19293	0.14678	0.093076	-1.8188	-2.7208	-1.7417	-2.6229	-2.4542	-2.0062	-2.8833	-2.2479	-2.1854	-2.8104	-2.1583	-2.5542	-2.2958	-2.0333	-2.8312	-2.4062	46.260	7.942	-140.784	208.769	-39.114	180.924	142.160	138.770	22.112	189.750	159.385	203.972	140.962	210.738	150.454	147.790	0.00086618	0.00054679	0.00018586	1076	5.089e-06	4.8239e-06	1057.6	457.68	4.1102e-06	5.923e-06	492.74	195.04	167.23	86.121	5.5888e-06	105.37	0.00037039	0.00028102	7.6699e-05	1069.1	3.0914e-06	3.0868e-06	1052.2	456.41	3.1617e-06	3.0606e-06	491.08	195.47	168.47	86.477	3.1063e-06	105.67	185.501	-80.898	-23.786	-129.478	7.177	-10.186	-130.067	-124.301	-27.257	44.199	-126.018	-121.949	-119.855	-114.486	-15.013	-117.036	-8191	255	
1657.277	1	1	0	0	0.093195	0.097372	0.16365	0.20243	0.052601	0.27465	0.33114	0.34074	0.33985	0.38057	0.1065	0.22381	0.071264	0.11718	0.10722	0.24935	-1.6979	-2.7313	-1.8312	-2.6979	-2.5	-1.8104	-3.0104	-2.4188	-1.9979	-2.9437	-2.2438	-2.4188	-2.7687	-2.1229	-2.7854	-2.5021	201.327	109.224	118.728	213.468	132.837	191.650	132.576	180.304	-73.445	-126.902	-49.999	182.733	133.839	-75.096	-129.116	142.212	0.00088203	0.00061993	0.00016233	1077.3	6.0602e-06	5.8853e-06	1053.2	456.23	5.9197e-06	7.9027e-06	493.71	194.19	167.06	85.802	6.3084e-06	105.04	0.00036913	0.00027945	7.8513e-05	1068.6	3.0777e-06	3.0191e-06	1049.4	455.68	3.1455e-06	3.0529e-06	490.6	194.94	167.79	86.074	3.132e-06	105.3	185.012	-51.253	-62.083	-129.027	-9.084	3.320	-129.969	-124.381	-41.594	25.829	-126.324	-122.026	-120.002	-114.252	-12.034	-116.770	-8191	255	
1657.398	1	1	0	0	0.036717	0.11413	0.13382	0.36839	0.075741	0.14579	0.34647	0.2062	0.35662	0.35657	0.22094	0.40001	0.13478	0.33532	0.21911	0.16477	-1.6479	-2.9333	-2.075	-2.3979	-2.6042	-1.8854	-2.8042	-2.6167	-1.9625	-2.5604	-2.2938	-2.2917	-2.7979	-2.0521	-2.6125	-2.5208	-92.807	174.138	-16.413	129.323	-32.787	162.740	161.278	190.404	0.428	165.339	206.679	163.450	216.668	150.452	126.320	183.237	0.00079879	0.00074428	0.00018345	1072	3.3147e-06	5.7121e-06	1049.6	455.11	5.6799e-06	6.6027e-06	494.46	194.44	167.59	86.08	6.2651e-06	105.18	0.00037243	0.00027997	7.9945e-05	1064.8	3.0809e-06	3.1328e-06	1048.4	454.84	3.1996e-06	3.0264e-06	491.35	195.17	168.14	86.184	3.1568e-06	105.61	184.905	-55.808	-37.122	-129.269	-18.924	25.568	-130.018	-124.239	-30.265	25.778	-126.016	-121.972	-119.792	-114.417	-1.090	-116.899	-8191	255	
1657.469	1	1	0	0	0.31039	0.13869	0.26354	0.28356	0.20173	0.10673	0.23286	0.38577	0.14128	0.15725	0.20276	0.39919	0.13424	0.18867	0.15864	0.12946	-1.6167	-2.8271	-2.0333	-2.4083	-2.6583	-1.8042	-2.7729	-2.8396	-1.9396	-2.6229	-2.2188	-2.3479	-2.9521	-2.0021	-2.3542	-2.9208	52.149	-43.224	27.125	216.886	151.433	-12.079	149.463	152.612	35.576	-30.273	124.545	208.805	87.876	160.749	54.634	78.625	0.00079509	0.00077923	0.00024852	1075.4	5.7318e-06	6.9068e-06	1057.6	457.3	4.6318e-06	8.3299e-06	495.42	195.59	168.61	85.864	5.1532e-06	105.28	0.00036997	0.00027707	7.7619e-05	1065.7	3.097e-06	3.087e-06	1051.2	455.79	3.2213e-06	3.0797e-06	491.61	195.85	168.59	86.282	3.138e-06	105.83	185.591	-73.444	-54.980	-129.337	3.283	-17.862	-130.184	-124.467	-67.332	1.562	-125.954	-121.938	-119.879	-114.441	-36.937	-116.972	-8191	255	
1657.565	1	1	0	0	0.26548	0.19327	0.17502	0.27378	0.15911	0.11927	0.12812	0.21389	0.13041	0.26184	0.088761	0.29654	0.26615	0.13462	0.18977	0.17757	-1.4625	-2.4813	-2.2917	-2.225	-2.725	-2.1479	-2.4146	-3.0146	-1.7521	-2.8354	-2.4917	-2.1667	-3.0083	-1.9354	-2.4271	-2.9958	-75.770	-39.216	99.323	-22.757	154.255	104.788	165.751	193.472	202.829	-62.109	186.930	166.953	167.356	129.616	-97.775	120.194	0.00081556	0.00075129	0.00018453	1070.9	1.5882e-06	5.3744e-06	1056.3	455.42	6.3345e-06	7.9476e-06	494.46	194.54	167.86	85.948	6.8583e-06	105.08	0.00037146	0.00028249	7.8118e-05	1063.4	3.1047e-06	3.0021e-06	1051.3	455.23	3.1728e-06	3.0004e-06	491.75	195.15	168.21	86.185	3.1295e-06	105.54	186.988	-81.254	-48.155	-129.275	0.923	16.491	-130.060	-124.039	-18.640	13.742	-125.830	-121.803	-119.644	-114.307	-21.985	-116.764	-8191	255	
1657.662	1	1	0	0	0.1537	0.1859	0.15961	0.22181	0.21435	0.21002	0.33999	0.2271	0.31784	0.12331	0.25322	0.20648	0.19797	0.44134	0.27704	0.47242	-1.7104	-2.5563	-2.1813	-2.0625	-2.7458	-2.0229	-2.3125	-3.0062	-1.8521	-2.5958	-2.5896	-2.125	-2.8625	-2.3896	-2.2333	-2.8792	-141.483	31.592	194.541	-28.112	3.750	87.679	162.859	165.402	155.635	-7.159	192.444	155.131	182.791	205.631	-110.434	143.894	0.00074992	0.00060527	0.00024002	1074.5	5.0013e-06	7.2534e-06	1054.7	455.51	4.4289e-06	9.4941e-06	494.97	194.65	167.37	85.996	4.3838e-06	105.81	0.00037439	0.00028126	7.9777e-05	1064.9	3.1288e-06	3.0605e-06	1050.2	454.93	3.197e-06	3.0266e-06	491.4	195.23	168.02	86.413	3.1766e-06	105.93	189.379	-71.837	-46.761	-128.928	-13.111	-22.381	-130.184	-124.244	-22.408	22.866	-126.088	-122.148	-119.823	-114.266	-23.244	-116.699	-8191	255	
1657.758	1	1	0	0	0.11884	0.3006	0.05579	0.3186	0.13346	0.13659	0.13343	0.40134	0.14159	0.12175	0.26163	0.061925	0.24131	0.16461	0.094287	0.15493	-1.4708	-2.5208	-2.5729	-2.1021	-2.7833	-2.2458	-2.0438	-3.0146	-1.8896	-2.5896	-2.7458	-2.0604	-2.7833	-2.4313	-2.125	-3.3312	58.956	46.786	130.135	194.473	46.797	-15.375	175.554	176.254	116.196	91.876	186.169	0.944	-127.748	-133.393	134.641	24.860	0.00085892	0.00074486	0.00020385	1078.3	6.002e-06	6.7903e-06	1057.4	456.33	6.8829e-06	1.185e-05	493.62	194.46	167.12	85.92	7.4875e-06	105.56	0.00037684	0.00029003	7.876e-05	1067.8	3.1035e-06	3.0487e-06	1051.5	455.09	3.2353e-06	3.0859e-06	491.15	195.01	167.86	86.248	3.2567e-06	105.96	185.978	-77.491	-46.862	-129.203	-3.965	-4.395	-130.107	-124.126	-43.187	32.895	-125.691	-121.851	-119.545	-114.547	-8.226	-116.747	-8191	255	
1657.878	1	1	0	0	0.038321	0.16193	0.15123	0.26143	0.090108	0.11932	0.36168	0.28341	0.1583	0.0702	0.31375	0.21396	0.096315	0.051773	0.17931	0.32155	-1.3521	-2.3417	-2.725	-2.2979	-2.7375	-2.3083	-2.2917	-3.0667	-2.0062	-2.3479	-2.7104	-1.9833	-2.8354	-2.6917	-1.9958	-2.9562	-56.084	104.061	-28.659	160.966	13.376	211.358	194.128	182.789	108.432	-137.254	173.316	-138.711	-84.352	174.965	116.197	167.690	0.00085204	0.00067751	0.00023871	1074.4	4.6424e-06	7.2533e-06	1052.2	455.26	6.9458e-06	1.0692e-05	495.16	194.93	167.29	85.964	7.2232e-06	105.35	0.00037638	0.00029048	7.8374e-05	1066.1	3.1114e-06	3.131e-06	1049.7	454.7	3.2267e-06	3.1072e-06	491.85	195.25	168.3	86.202	3.2485e-06	105.73	187.112	-52.400	-49.085	-129.225	-26.025	5.305	-129.929	-124.149	-28.646	13.382	-125.329	-121.938	-119.729	-114.391	-5.447	-116.919	-8191	255	
1657.974	1	1	0	0	0.16489	0.20134	0.084152	0.26678	0.083887	0.071423	0.083547	0.1408	0.065368	0.20687	0.34392	0.019152	0.068768	0.41946	0.30326	0.19087	-1.8208	-2.3354	-2.5479	-1.9312	-2.6896	-2.5146	-2.1229	-2.9542	-2.2354	-2.2583	-3.0354	-2.2167	-2.4604	-2.6104	-1.9729	-3.1167	-102.833	0.877	-53.321	134.633	-1.459	5.379	172.937	-90.459	-22.002	4.627	192.550	204.785	-121.776	177.124	162.501	-137.565	0.00077646	0.00025057	0.00027843	1076.6	5.5353e-06	7.9533e-06	1054.2	455.64	5.5098e-06	4.5641e-06	493.37	194.36	167.21	85.624	6.7112e-06	105.52	0.00037554	0.00029479	7.9959e-05	1065.8	3.1181e-06	3.1003e-06	1049.3	454.33	3.2871e-06	3.0947e-06	491.2	194.97	167.73	85.947	3.2569e-06	105.84	186.067	-69.456	-44.250	-129.230	-21.151	-16.845	-129.959	-124.261	-37.893	12.314	-126.064	-121.953	-119.729	-114.538	-1.179	-116.966	-8191	255	
1658.071	1	1	0	0	0.23094	0.22568	0.19905	0.46577	0.15581	0.12109	0.2226	0.20284	0.088985	0.093343	0.2146	0.24347	0.27881	0.25832	0.13216	0.45518	-1.85	-2.2271	-2.6958	-2.0271	-2.625	-2.6229	-2.2042	-2.7458	-2.1729	-1.8854	-2.9708	-2.025	-2.5792	-2.7083	-1.7313	-2.6562	84.877	-26.729	189.722	217.565	199.776	52.452	138.362	140.462	-112.396	-38.245	195.504	96.781	-118.604	172.485	-136.227	205.551	0.00084109	0.00059654	0.000251	1073.7	1.7682e-06	7.2534e-06	1054.7	454.91	7.3317e-06	7.849e-06	495.39	194.15	166.71	85.876	4.9918e-06	105.89	0.00036938	0.00029386	7.8899e-05	1064	3.1375e-06	3.1249e-06	1049.8	454.59	3.2509e-06	3.1009e-06	491.71	195.06	167.5	86.16	3.2146e-06	106.02	186.177	-53.728	-69.629	-129.259	-6.198	14.318	-130.069	-124.292	-33.788	6.735	-126.042	-121.875	-119.657	-114.491	-36.846	-116.730	-8191	255	
1658.167	1	1	0	0	0.332	0.12248	0.11571	0.21037	0.14677	0.088801	0.29515	0.28855	0.31353	0.27479	0.15427	0.11047	0.21786	0.25999	0.21249	0.15141	-1.9104	-2.1042	-2.8042	-2.1063	-2.1937	-2.8083	-2.2521	-2.8646	-2.3646	-1.8167	-3.0229	-2.2479	-2.4083	-2.9417	-1.6938	-2.6958	114.178	-35.097	135.551	-114.914	100.351	191.877	146.016	151.353	-139.770	142.892	207.746	175.524	-135.882	-113.680	-27.316	75.089	0.00085347	0.00055981	0.00019721	1073.8	5.4332e-06	4.1074e-06	1054	455.1	6.4998e-06	8.2732e-06	493.99	194.64	167.46	85.871	5.6396e-06	105.54	0.00037765	0.0002901	7.9483e-05	1064.8	3.1942e-06	3.0487e-06	1049.8	454.22	3.2968e-06	3.1343e-06	491.04	195.15	167.62	86.004	3.1958e-06	105.97	187.165	-45.837	-53.609	-129.345	-20.973	-24.584	-130.063	-124.143	-19.630	6.188	-125.811	-121.945	-119.741	-114.298	-15.670	-116.641	-8191	255	
1658.263	1	1	0	0	0.29737	0.27423	0.056577	0.18287	0.22376	0.16068	0.18999	0.26164	0.26346	0.2704	0.098146	0.096677	0.24903	0.39447	0.24092	0.13379	-2.2729	-1.9417	-2.8333	-2.3187	-2.0542	-2.775	-2.1646	-2.7687	-2.6104	-1.8937	-2.8354	-2.2875	-2.1229	-2.9146	-1.9125	-2.6167	151.637	204.240	124.908	68.525	-81.852	-4.851	172.565	107.317	47.335	-1.666	150.730	113.681	197.085	-134.788	36.259	146.079	0.00083125	0.00052298	0.00022614	1070.9	7.2845e-06	5.6e-06	1047.4	455.08	5.3252e-06	8.0211e-06	494.96	193.7	166.75	85.422	3.2856e-06	105.41	0.00037627	0.00028425	8.0583e-05	1064.6	3.1688e-06	3.1364e-06	1048.8	454.02	3.2143e-06	3.0923e-06	491.27	194.31	167.25	85.681	3.3005e-06	105.63	189.361	-72.532	-50.542	-129.330	-6.978	11.956	-130.085	-124.147	-41.433	22.798	-125.840	-121.947	-119.461	-114.156	14.066	-116.524	-8191	255	
1658.359	1	1	0	0	0.22662	0.12167	0.24331	0.19875	0.034134	0.27695	0.2194	0.22759	0.11727	0.086418	0.52288	0.087897	0.12576	0.25484	0.18853	0.37093	-2.3771	-2.1	-2.7417	-2.3812	-2.0292	-2.4854	-2.375	-2.5229	-2.675	-1.7729	-2.8229	-2.5958	-1.9104	-3.0354	-1.9333	-2.4854	-72.586	157.145	70.294	200.151	175.006	-131.976	132.114	194.037	194.384	-40.215	171.956	63.757	199.698	-125.606	194.376	-131.934	0.00082448	0.00080897	0.00023809	1069.1	3.4732e-06	8.6548e-06	1052.6	455.47	5.2586e-06	8.1409e-06	494.12	193.46	166.76	85.586	6.2537e-06	105.14	0.00038373	0.00029181	8.1142e-05	1061.9	3.2588e-06	3.1332e-06	1048.5	454.13	3.2261e-06	3.1343e-06	491.94	194.87	167.29	85.89	3.3163e-06	105.86	186.836	-61.096	-39.969	-129.546	-17.440	-9.095	-130.135	-124.072	-42.509	16.008	-125.972	-121.947	-119.957	-114.227	-19.118	-116.702	-8191	255	
1658.478	1	1	0	0	0.25562	0.22865	0.075412	0.16937	0.073069	0.31031	0.44729	0.15177	0.14119	0.23468	0.26227	0.34537	0.33081	0.11551	0.042272	0.25999	-2.2979	-1.8	-2.4562	-2.7313	-2.15	-2.8479	-2.2812	-2.4875	-2.9479	-1.9062	-2.5771	-2.6854	-2.3021	-3.1562	-2.1833	-2.3625	102.662	-8.827	208.361	-129.328	96.430	50.476	195.492	134.296	62.861	30.298	-128.728	142.251	151.806	142.917	-127.352	125.931	0.00081849	0.00058604	0.00020406	1070.4	4.3131e-06	5.4499e-06	1053.2	454.96	6.5498e-06	6.4265e-06	496.66	194.22	166.97	85.517	6.2638e-06	105.8	0.00037581	0.00029352	8.0065e-05	1060.9	3.2365e-06	3.144e-06	1049	454.05	3.2655e-06	3.2475e-06	492.54	195.15	167.46	86.025	3.2571e-06	106.11	190.222	-64.318	-57.875	-129.115	-14.967	17.709	-130.079	-123.984	-40.116	31.719	-126.005	-121.966	-119.678	-114.370	-15.490	-116.577	-8191	255	
1658.574	1	1	0	0	0.062806	0.14419	0.027282	0.28276	0.026198	0.14483	0.31088	0.4581	0.15356	0.12391	0.037668	0.3597	0.25918	0.095883	0.22366	0.30135	-2.3396	-1.8729	-2.4458	-2.7625	-1.8917	-2.7354	-2.1437	-2.3354	-2.8729	-2.0021	-2.5958	-2.8542	-1.9896	-2.9271	-2.2021	-2.1396	77.218	195.864	-109.349	-127.415	-29.730	-72.181	154.018	143.074	86.714	-8.016	113.488	144.722	197.097	-114.812	29.238	192.577	0.00079662	0.00068928	0.00027437	1069.6	6.0323e-06	7.1499e-06	1053.9	454.87	5.0936e-06	9.3619e-06	496.38	194.63	167.12	85.782	5.7942e-06	106.03	0.00037614	0.00028345	8.007e-05	1060.9	3.1553e-06	3.1033e-06	1047.9	453.89	3.3132e-06	3.1942e-06	491.73	195.16	167.62	86.26	3.2137e-06	106.15	185.479	-50.738	-69.208	-129.264	-11.149	8.390	-130.078	-124.254	-40.874	3.561	-125.632	-122.046	-119.613	-114.309	-20.198	-116.858	-8191	255	
1658.670	1	1	0	0	0.031559	0.02545	0.15176	0.3136	0.17749	0.16303	0.11437	0.30385	0.1656	0.15544	0.28253	0.13033	0.27523	0.2243	0.099685	0.1619	-2.2042	-2.0542	-2.6896	-2.9521	-1.875	-2.4896	-2.7625	-2.2625	-2.7229	-2.0833	-2.4813	-2.9208	-1.8396	-2.8667	-2.3521	-2.3542	156.026	38.328	63.609	192.597	-39.619	8.089	92.275	152.491	-103.902	198.173	178.855	5.706	-104.466	119.842	131.749	191.464	0.00086542	0.00077187	0.00021964	1068.6	7.0588e-06	5.8238e-06	1049.8	455.26	4.7645e-06	9.0619e-06	494.54	194.05	167.14	85.941	5.7439e-06	105.84	0.00037723	0.0002925	7.9407e-05	1060.6	3.1688e-06	3.0315e-06	1047.8	453.72	3.2381e-06	3.096e-06	491.47	195.04	167.4	86.145	3.2516e-06	106.08	187.795	-86.531	-38.473	-129.359	3.020	-4.057	-130.077	-124.185	-61.627	18.615	-125.912	-121.887	-119.794	-114.246	-10.475	-116.554	-8191	255	
1658.766	1	1	0	0	0.21669	0.075567	0.18845	0.052096	0.29949	0.17109	0.16467	0.29359	0.10957	0.24162	0.082005	0.10818	0.071582	0.46571	0.2178	0.36092	-2.5458	-2.0542	-2.1521	-2.7979	-1.875	-2.3187	-2.7771	-2.1312	-2.7208	-2.15	-2.3083	-3.1104	-2.1708	-2.8479	-2.7958	-2.0167	-139.937	-107.572	143.435	142.862	-65.959	79.648	141.680	180.241	47.872	89.160	-139.312	154.734	-101.094	-94.491	-48.771	177.214	0.00080897	0.00072676	0.00018536	1067.9	4.9584e-06	5.8952e-06	1052.9	455.33	8.7565e-06	7.8217e-06	494.78	195.04	166.18	85.942	7.4546e-06	106.23	0.00037993	0.00028846	8.0283e-05	1060.2	3.2232e-06	3.1511e-06	1049.3	453.25	3.2488e-06	3.1873e-06	491.54	195.29	166.97	86.201	3.3075e-06	106.18	186.318	-60.493	-56.326	-129.336	-10.879	26.912	-130.120	-124.076	-41.267	1.182	-125.703	-121.796	-119.787	-114.368	-3.103	-116.554	-8191	255	
1658.863	1	1	0	0	0.070654	0.13666	0.14127	0.24094	0.091779	0.13671	0.26755	0.079302	0.069775	0.22733	0.096289	0.098201	0.18629	0.33281	0.023258	0.15756	-2.2396	-2.0896	-1.75	-2.9854	-2.1917	-2.4104	-2.8854	-1.8604	-2.6396	-2.2833	-2.2417	-2.8396	-2.0687	-2.4792	-2.6875	-2.3208	-105.631	109.431	-81.906	188.342	203.753	114.960	140.988	178.392	86.197	28.780	209.420	166.832	116.499	-126.942	62.529	184.684	0.0008138	0.00065453	0.00022596	1065.4	6.2431e-06	6.2085e-06	1049.8	453.55	7.7699e-06	5.4021e-06	495.1	193.81	166.16	85.632	4.506e-06	105.56	0.00038265	0.00029109	7.9918e-05	1058.8	3.1806e-06	3.1373e-06	1048.6	452.47	3.3175e-06	3.1763e-06	490.7	194.54	166.34	85.781	3.3176e-06	105.68	185.426	-61.503	-66.132	-128.948	8.493	9.202	-129.992	-124.002	-31.572	4.330	-125.531	-121.845	-119.864	-114.249	-15.040	-116.909	-8191	255	
1658.959	1	1	0	0	0.1145	0.12364	0.18184	0.16579	0.34319	0.05363	0.15112	0.30423	0.14256	0.1376	0.28802	0.23782	0.32948	0.23407	0.22298	0.25638	-2.3021	-2.5042	-1.9896	-3.0812	-1.9458	-2.2687	-3.0458	-2.4188	-2.7708	-2.5583	-2.0375	-2.8167	-2.2833	-2.6	-2.9521	-2.15	-19.061	92.392	-28.546	188.876	106.852	-125.430	212.258	149.381	204.398	-130.235	146.262	191.069	-112.076	1.013	41.235	142.701	0.00085539	0.00073735	0.00018244	1063.4	5.3937e-06	7.6561e-06	1045.6	453.54	5.4128e-06	8.73e-06	492.88	193.97	166.18	85.596	4.9813e-06	105.51	0.00038374	0.00029989	8.2778e-05	1057.6	3.2254e-06	3.1815e-06	1044.8	451.81	3.3219e-06	3.2164e-06	489.45	194.53	166.67	85.923	3.3141e-06	105.75	189.524	-72.095	-56.349	-129.106	-15.095	-15.038	-130.085	-124.161	-42.171	0.084	-125.983	-121.761	-119.867	-114.095	-10.562	-116.800	-8191	255	
1659.079	1	1	0	0	0.11536	0.15861	0.096948	0.33394	0.18179	0.18835	0.15432	0.081367	0.058635	0.14301	0.32059	0.19345	0.043905	0.12654	0.23363	0.061525	-2.2771	-2.6396	-2.1021	-2.8854	-2.4188	-2.2812	-3.0875	-2.1562	-2.4125	-2.8063	-2.2062	-2.8708	-2.4813	-2.3729	-2.8625	-2.0875	208.486	-34.205	170.867	119.792	52.350	-47.547	198.278	211.643	-20.784	106.853	126.518	169.811	-53.935	-28.798	130.847	17.508	0.00082554	0.0004826	0.00017698	1063.2	6.296e-06	5.2035e-06	1047.9	452.01	8.4347e-06	7.7126e-06	495.47	194.04	166.37	85.775	4.6034e-06	106.09	0.00037756	0.00028951	8.2343e-05	1056.4	3.234e-06	3.2007e-06	1046.3	451.05	3.3438e-06	3.1392e-06	491	194.64	166.57	86.081	3.2503e-06	106.18	187.104	-68.959	-34.531	-129.046	-15.716	-17.127	-130.125	-124.104	-35.041	3.760	-125.927	-121.759	-119.786	-114.238	-30.296	-116.717	-8191	255	
1659.174	1	1	0	0	0.24445	0.28002	0.031941	0.22021	0.13513	0.18558	0.35689	0.27281	0.27941	0.2285	0.33188	0.029373	0.14575	0.37927	0.10247	0.35374	-2.075	-2.8312	-1.8896	-2.7	-2.35	-2.1521	-3.1792	-2.1792	-2.4313	-2.6813	-1.925	-3.0417	-2.6688	-2.1458	-2.6188	-2.3479	-138.503	44.996	-18.410	-60.667	20.429	170.301	145.605	176.151	-13.115	164.107	142.036	-37.041	156.667	179.618	212.045	146.231	0.00077763	0.00066946	0.0002088	1061.8	4.8522e-06	8.0471e-06	1052	452.73	6.8941e-06	9.7362e-06	493.84	194	165.33	85.739	5.8184e-06	105.35	0.0003731	0.00029267	8.1745e-05	1055.7	3.1677e-06	3.1617e-06	1046.2	451.77	3.2855e-06	3.1817e-06	491.09	194.69	166.01	85.924	3.2578e-06	105.84	185.964	-50.118	-34.485	-129.115	-26.236	-18.987	-130.039	-124.024	-40.444	26.452	-125.734	-121.958	-119.604	-114.217	-49.536	-116.663	-8191	255	
1659.270	1	1	0	0	0.075924	0.10923	0.10927	0.12606	0.075485	0.18307	0.11886	0.20092	0.012824	0.16607	0.085721	0.33314	0.27026	0.068706	0.060831	0.088181	-1.9312	-2.8833	-1.9458	-2.5896	-2.5625	-1.9604	-3.0438	-2.3396	-2.1208	-2.8667	-2.0708	-2.7562	-2.7208	-2.2125	-2.6813	-2.4729	-64.402	208.701	113.564	118.208	48.379	188.793	168.997	171.091	88.400	-30.324	25.183	212.674	-119.605	-71.350	-39.542	117.459	0.00087683	0.00080801	0.00024634	1064.7	5.3043e-06	9.8088e-06	1045.1	453.57	5.9266e-06	8.7154e-06	494.76	193.44	165.25	85.469	6.2751e-06	105.2	0.00037842	0.00029294	8.0472e-05	1056	3.1215e-06	3.2424e-06	1043.8	451.22	3.2562e-06	3.1263e-06	489.96	194.45	166.24	85.855	3.3349e-06	105.63	184.358	-77.356	-47.927	-129.150	14.316	3.526	-129.854	-124.137	-41.492	5.461	-126.067	-121.724	-119.606	-114.340	-13.241	-116.741	-8191	255	
1659.343	1	1	0	0	0.18393	0.10946	0.081531	0.13228	0.10572	0.24404	0.2535	0.14202	0.34551	0.23682	0.16701	0.36259	0.15175	0.47449	0.25916	0.29373	-1.8646	-2.7708	-1.9292	-2.5979	-2.45	-2.0375	-2.9042	-2.55	-2.1521	-2.7208	-2.075	-2.3979	-2.7875	-1.975	-2.6542	-2.4896	-79.444	65.306	-110.569	208.250	214.105	33.281	135.510	208.685	90.308	-34.303	186.960	-141.504	198.726	172.562	175.570	154.988	0.00083735	0.00075134	0.00015265	1062.4	6.785e-06	4.6961e-06	1043.7	452.22	5.1967e-06	6.6664e-06	493.28	194.26	165.55	85.564	6.2297e-06	104.98	0.00038229	0.0002911	7.9881e-05	1053.1	3.2492e-06	3.1544e-06	1041.8	451.02	3.3442e-06	3.0455e-06	489.85	194.82	165.88	85.781	3.221e-06	105.58	185.809	-62.280	-58.228	-129.211	4.786	-10.208	-129.811	-123.903	-30.243	0.413	-125.575	-121.622	-119.616	-114.056	22.135	-116.535	-8191	255	
1659.462	1	1	0	0	0.21576	0.10534	0.25431	0.1131	0.069537	0.080002	0.21883	0.30868	0.080306	0.33832	0.23408	0.12104	0.16951	0.54643	0.19651	0.20857	-1.6229	-2.6354	-2.0729	-2.3021	-2.7958	-2.0438	-2.8542	-2.5187	-1.8563	-2.9396	-2.2875	-2.3146	-2.9396	-2.1667	-2.4542	-2.9542	-109.840	108.717	-133.000	-63.375	-2.717	-68.701	98.222	181.279	-102.753	77.260	194.792	96.331	217.164	206.182	-102.578	116.434	0.0008567	0.00085697	0.00018474	1054.8	7.9347e-06	5.9784e-06	1047.7	451.34	6.1601e-06	7.1585e-06	492.66	194.48	165.01	85.231	5.9439e-06	105.35	0.000386	0.00028576	8.0292e-05	1048.1	3.2033e-06	3.1494e-06	1042.8	449.55	3.2681e-06	3.1437e-06	489.11	194.65	165.73	85.574	3.2313e-06	105.7	185.122	-64.015	-67.202	-129.241	-6.144	-0.694	-130.075	-124.131	-43.265	7.298	-125.671	-121.641	-119.803	-114.307	-49.896	-116.851	-8191	255	
1659.558	1	1	0	0	0.14718	0.094502	0.093061	0.19461	0.16685	0.24822	0.073772	0.15797	0.084608	0.086122	0.35401	0.25883	0.085091	0.11204	0.13655	0.26736	-1.3708	-2.6437	-2.3042	-2.4292	-2.7208	-1.8208	-2.7604	-2.8312	-1.9979	-2.6479	-2.6083	-2.2146	-2.8667	-2.3688	-2.3937	-2.8688	116.039	108.126	139.772	-124.362	185.737	94.826	-86.855	213.829	-66.828	-122.153	168.614	191.114	70.955	120.290	-9.829	156.629	0.00082243	0.00054742	0.00018754	1059.1	5.6257e-06	6.3914e-06	1045.4	452.42	5.9838e-06	1.1538e-05	492.15	194.77	165.31	85.812	3.8638e-06	105.33	0.00037978	0.0002937	7.8785e-05	1049.7	3.1662e-06	3.1967e-06	1044	450.24	3.2895e-06	3.1699e-06	489.53	195.06	166.07	85.94	3.2778e-06	105.69	185.272	-74.852	-60.844	-129.017	-11.901	-2.007	-129.730	-124.101	-42.785	2.818	-125.834	-121.779	-119.726	-114.133	4.776	-116.649	-8191	255	
1659.654	1	1	0	0	0.10032	0.10514	0.072668	0.20112	0.092746	0.1057	0.13448	0.52055	0.15144	0.091822	0.09984	0.25309	0.14317	0.24747	0.027384	0.36438	-1.4354	-2.6833	-2.375	-2.0729	-2.6792	-1.9479	-2.4313	-2.8479	-1.8708	-2.7167	-2.6333	-1.9562	-3.1042	-2.3854	-2.1979	-2.8396	156.609	-97.132	154.438	174.266	-75.314	145.555	192.812	204.204	42.331	-115.602	150.603	168.881	193.084	166.727	71.964	189.483	0.00082318	0.00048245	0.00019148	1056.9	7.3137e-06	6.8642e-06	1041.6	453.06	5.0047e-06	1.1369e-05	492.62	194.4	165.32	85.503	4.782e-06	105.54	0.00037826	0.00028654	7.9405e-05	1048.7	3.1373e-06	3.135e-06	1040.9	450.88	3.3182e-06	3.1358e-06	488.88	195.08	166.03	85.887	3.2932e-06	105.79	187.213	-77.808	-45.600	-129.088	-12.839	4.982	-129.933	-123.990	-49.098	11.918	-125.782	-121.647	-119.637	-114.110	-8.928	-116.781	-8191	255	
1659.751	1	1	0	0	0.14262	0.27332	0.15351	0.22213	0.21853	0.19342	0.30576	0.24856	0.17343	0.080099	0.15296	0.15796	0.15932	0.053599	0.11041	0.39674	-1.4917	-2.7792	-2.6104	-2.0563	-2.9396	-2.3396	-2.5167	-2.8917	-1.7958	-2.6396	-2.575	-2.0375	-2.9917	-2.3	-2.1625	-2.9104	146.942	202.339	-3.409	154.938	64.098	-43.453	-130.318	-54.235	-78.404	16.687	211.870	192.635	-89.063	-131.061	-52.349	159.191	0.00082232	0.00040722	0.00023089	1055.8	4.5504e-06	7.0382e-06	1043.9	450.06	5.1605e-06	6.6722e-06	493.68	194.67	165.49	85.478	8.285e-06	105.7	0.00037696	0.00028097	7.8381e-05	1048.1	3.1526e-06	3.1286e-06	1039.8	449.92	3.28e-06	3.1191e-06	490.23	195.33	166.08	85.71	3.3249e-06	105.76	187.139	-64.311	-35.414	-129.050	-9.539	2.396	-129.852	-124.102	-35.637	-0.697	-125.788	-121.624	-119.654	-114.210	-7.091	-116.555	-8191	255	
1659.871	1	1	0	0	0.116	0.25997	0.16496	0.273	0.14627	0.038685	0.11304	0.39283	0.23664	0.04989	0.17618	0.059851	0.30009	0.40648	0.19394	0.24847	-1.4729	-2.4208	-2.6937	-1.9937	-2.5938	-2.3542	-2.3521	-2.9938	-2.0479	-2.2313	-2.6646	-1.9979	-2.9271	-2.6792	-2.0167	-2.9833	210.181	-114.276	164.005	176.507	-114.175	200.612	76.451	171.735	29.064	112.036	170.521	-123.906	196.585	181.825	120.486	196.750	0.00084983	0.00062236	0.00016352	1054.1	3.7466e-06	6.8479e-06	1041.1	451.78	7.5465e-06	1.0326e-05	493.02	194.45	165.55	85.328	5.0256e-06	105.41	0.00038023	0.00029048	7.918e-05	1044.9	3.1808e-06	3.1064e-06	1040.3	449.98	3.2781e-06	3.1577e-06	489.84	194.98	165.92	85.687	3.2701e-06	105.76	185.166	-56.800	-25.037	-128.877	-3.926	-7.307	-129.832	-123.857	-29.027	19.948	-125.821	-121.841	-119.482	-114.171	-2.981	-116.496	-8191	255	
1659.943	1	1	0	0	0.14922	0.21874	0.11408	0.18429	0.040306	0.17762	0.21352	0.09444	0.20934	0.17326	0.43156	0.28468	0.18312	0.20718	0.11331	0.31239	-1.9771	-2.2896	-2.4479	-2.0833	-2.6083	-2.4958	-2.1979	-2.9583	-2.2188	-2.3458	-3.0812	-2.0875	-2.7375	-2.6	-1.7604	-2.9938	-15.983	-110.891	52.751	-95.124	-30.025	-67.587	207.240	157.710	127.944	-139.313	198.291	63.487	184.044	149.201	94.026	170.019	0.00087123	0.00083052	0.00020541	1055.4	5.6338e-06	8.6012e-06	1043.9	450.58	7.5155e-06	1.2027e-05	490.69	193.52	165.13	85.045	5.9722e-06	104.74	0.00038056	0.00028823	8.0169e-05	1043.7	3.2467e-06	3.0957e-06	1039.8	449.28	3.2904e-06	3.1801e-06	488.73	194.28	165.37	85.239	3.2506e-06	105.18	189.230	-69.800	-44.991	-128.846	-17.048	-1.713	-129.565	-123.754	-29.038	8.221	-125.614	-121.521	-119.463	-114.106	-12.799	-116.529	-8191	255	
1660.039	1	1	0	0	0.43889	0.12854	0.058431	0.49792	0.17909	0.16136	0.43837	0.28697	0.22774	0.29733	0.050497	0.071898	0.19477	0.19636	0.28559	0.39493	-1.6771	-1.8937	-2.725	-2.0208	-2.2229	-2.5479	-1.9271	-2.7	-2.2375	-2.0583	-2.8625	-1.9042	-2.5958	-2.9083	-1.8521	-2.6833	49.088	-20.915	55.515	200.630	33.812	81.059	113.043	142.268	93.892	91.497	105.923	154.522	160.300	202.943	166.739	120.688	0.00080378	0.00078814	0.00012192	1050.3	4.3102e-06	7.3068e-06	1041.4	450.6	5.778e-06	7.2296e-06	490.91	193.55	164.5	84.922	3.639e-06	105.1	0.00037905	0.00029272	7.8677e-05	1041.3	3.1561e-06	3.0793e-06	1037.6	448.61	3.1648e-06	3.1667e-06	488.01	193.97	165.24	85.037	3.2305e-06	105.06	186.326	-64.839	-29.081	-128.887	7.977	-16.822	-130.031	-123.900	-25.591	9.878	-125.762	-121.674	-119.518	-114.127	-19.525	-116.518	-8191	255	
1660.160	1	1	0	0	0.15037	0.10606	0.15387	0.51646	0.20775	0.16734	0.24229	0.41419	0.17603	0.22233	0.27856	0.30763	0.23225	0.18325	0.22126	0.29225	-1.7208	-1.8771	-2.6937	-1.9062	-2.0375	-2.4708	-2.0396	-2.8604	-2.2812	-1.85	-2.975	-2.0938	-2.325	-2.8688	-1.7833	-2.5792	18.418	-62.560	101.572	188.444	187.449	-50.554	180.342	187.174	3.682	-141.067	203.496	178.673	151.519	-138.737	-17.046	215.126	0.00084894	0.00074014	0.00019962	1048.7	7.3032e-06	7.0209e-06	1043.6	450.56	5.7372e-06	1.1613e-05	490.49	192.88	163.9	84.804	6.6016e-06	104.94	0.00037698	0.00028495	7.8145e-05	1039.7	3.1081e-06	3.0303e-06	1037.3	448.11	3.1852e-06	3.0689e-06	487.2	193.56	164.77	85.147	3.2541e-06	105.13	188.376	-75.772	-41.009	-129.157	-19.342	2.236	-129.866	-124.035	-23.359	8.434	-125.660	-121.739	-119.629	-114.251	-25.646	-116.693	-8191	255	
1660.254	1	1	0	0	0.14735	0.22317	0.075302	0.020663	0.055188	0.25667	0.032222	0.056494	0.044724	0.20251	0.12339	0.13439	0.52956	0.35196	0.14431	0.15013	-2.0938	-1.7062	-2.5542	-2.1146	-2.0667	-2.8458	-1.7521	-2.5458	-2.5146	-2.0229	-2.7667	-2.3417	-2.1188	-2.8708	-1.8396	-2.7958	85.570	-121.971	-72.240	-6.129	161.101	87.935	128.053	-101.456	27.464	166.354	129.747	-130.404	208.372	210.604	-106.830	96.233	0.00078016	0.00056715	0.00019601	1048.9	7.4102e-06	6.9683e-06	1043.2	449.6	7.3483e-06	8.0193e-06	490.77	193.14	164.79	84.848	6.2723e-06	104.92	0.00036843	0.00028911	7.7995e-05	1041.9	3.1391e-06	3.0025e-06	1039.2	447.92	3.1862e-06	3.1276e-06	487.97	193.92	165.1	85.057	3.2597e-06	105.26	187.322	-69.467	-43.682	-129.166	-9.526	-6.191	-130.097	-124.027	-34.789	13.775	-125.667	-121.522	-119.755	-114.069	-1.437	-116.545	-8191	255	
1660.350	1	1	0	0	0.16512	0.13665	0.098749	0.26145	0.15646	0.3018	0.31678	0.25133	0.21848	0.26728	0.05676	0.22063	0.13365	0.52081	0.093389	0.31313	-2.1021	-1.8458	-2.6292	-2.2125	-2.1146	-2.7458	-2.0083	-2.7229	-2.4354	-1.7333	-2.6979	-2.6063	-1.9708	-2.825	-1.8229	-2.4458	111.687	126.483	144.859	143.550	139.665	116.812	181.992	-62.336	165.991	67.349	172.914	121.989	-52.568	192.499	12.054	188.056	0.00083432	0.00062602	0.0002192	1052.2	5.7532e-06	3.3999e-06	1039.1	449.39	6.2374e-06	1.0542e-05	490.71	194.08	164.65	85.682	3.9992e-06	105.91	0.00037214	0.0002841	7.797e-05	1042.2	3.1132e-06	3.1094e-06	1035.8	448.48	3.1252e-06	3.0316e-06	488.26	194.48	165.6	85.688	2.9732e-06	106.1	185.582	-58.214	-45.652	-129.041	-18.130	42.962	-129.973	-123.922	-34.565	14.456	-125.601	-121.762	-119.432	-114.218	12.987	-116.733	-8191	255	
1660.471	1	1	0	0	0.14998	0.080785	0.15386	0.19286	0.11351	0.096061	0.39658	0.07511	0.14395	0.21769	0.27143	0.19777	0.12752	0.086485	0.08335	0.12569	-2.2313	-1.8229	-2.625	-2.4771	-1.9042	-2.7917	-2.25	-2.7542	-2.6458	-1.8646	-2.6167	-2.6437	-2.0292	-2.9688	-2.0896	-2.5604	-131.037	34.582	152.519	154.028	-5.669	54.314	154.744	152.746	-40.988	44.228	159.924	7.203	-28.570	138.160	-53.649	136.678	0.00082628	0.00052764	0.00017774	1058.7	5.4975e-06	7.1293e-06	1046.6	454.25	6.7242e-06	7.5155e-06	494.9	195.35	166.48	85.582	5.8116e-06	105.34	0.00035587	0.00026759	7.3929e-05	1048.4	2.9348e-06	2.8857e-06	1043.1	452.69	2.9732e-06	2.911e-06	491.84	195.92	166.92	85.643	3.0153e-06	105.88	187.065	-71.787	-61.884	-128.945	-23.401	-9.749	-129.866	-123.839	-39.923	-6.489	-125.561	-121.571	-119.455	-113.993	-17.360	-116.285	-8191	255	
1660.567	1	1	0	0	0.065734	0.1384	0.1835	0.13509	0.06795	0.21509	0.44872	0.024482	0.34555	0.057931	0.21365	0.33016	0.36523	0.2919	0.15643	0.18969	-2.375	-1.7521	-2.4458	-2.4333	-1.8479	-2.8229	-2.1896	-1.9958	-2.7042	-2.0187	-2.6688	-2.625	-1.7042	-2.8292	-2.1354	-2.2708	87.031	-29.388	-100.030	171.156	-87.849	203.744	179.909	-69.810	-69.495	26.368	130.190	-122.268	172.505	176.519	120.013	172.819	0.00084702	0.00083798	0.00019837	1057.3	4.8474e-06	6.7663e-06	1048.8	454.41	7.7786e-06	6.916e-06	494.06	194.52	166.05	85.259	6.8045e-06	105.41	0.00035615	0.00026498	7.2628e-05	1048	2.9257e-06	2.9174e-06	1043.8	452.27	3.0831e-06	2.974e-06	491.1	195.28	166.62	85.335	3.1309e-06	105.61	186.519	-70.712	-40.802	-128.914	-14.423	-13.367	-130.173	-124.205	-43.486	12.973	-125.845	-121.823	-119.616	-114.247	-5.455	-116.763	-8191	255	
1660.639	1	1	0	0	0.15627	0.26222	0.27209	0.26437	0.060211	0.045232	0.30428	0.19801	0.15282	0.05023	0.14826	0.21541	0.13078	0.19014	0.09708	0.1818	-2.3646	-1.8229	-2.2208	-2.5187	-1.9979	-2.7417	-2.3708	-2.1312	-2.6688	-1.9021	-2.4125	-2.7542	-1.775	-2.6979	-2.1417	-2.0521	97.088	-62.631	139.065	136.625	-122.656	-32.740	136.997	137.172	141.781	113.872	211.319	-118.373	110.821	168.493	-53.799	184.902	0.00084833	0.00058166	0.00027514	1056	3.885e-06	8.3712e-06	1043.9	454.17	4.9488e-06	1.0015e-05	494.12	194.6	165.26	84.972	5.409e-06	105.56	0.00036166	0.00026988	7.4622e-05	1045.9	3.0319e-06	2.936e-06	1040.3	451.87	3.0691e-06	2.898e-06	491.67	195.34	166.26	85.337	3.0252e-06	105.74	187.147	-60.217	-66.909	-129.203	-14.783	8.795	-130.058	-124.191	-22.701	18.757	-125.800	-121.803	-119.724	-114.354	-15.073	-116.630	-8191	255	
1660.735	1	1	0	0	0.091349	0.41633	0.27923	0.30714	0.22252	0.055783	0.23659	0.19895	0.19608	0.16764	0.14465	0.072059	0.054041	0.18259	0.1926	0.20683	-2.5604	-2.1021	-1.9729	-2.5021	-1.7542	-2.4958	-2.7021	-2.1292	-2.5687	-2.0896	-2.2625	-2.8333	-1.8521	-2.5875	-2.2271	-1.8646	-78.002	-124.413	-87.937	151.267	170.439	73.073	147.429	151.401	61.339	-53.577	-88.864	-140.819	-126.763	120.976	143.725	175.266	0.00087411	0.00080902	0.00025319	1052.5	4.3537e-06	6.8696e-06	1042.5	454.64	5.7786e-06	1.0379e-05	495.59	195.2	166.2	85.603	4.7989e-06	105.21	0.00035924	0.00027379	7.5858e-05	1045.7	2.9884e-06	2.9468e-06	1041.2	453.22	3.0684e-06	2.971e-06	493.07	195.69	167.02	85.602	3.0434e-06	105.72	186.803	-67.634	-51.924	-128.991	-15.664	-7.659	-130.188	-124.293	-54.108	13.115	-125.882	-122.126	-120.577	-115.366	-22.370	-117.665	-8191	255	
1660.855	1	1	0	0	0.036228	0.088796	0.033081	0.14018	0.2221	0.43257	0.10794	0.20417	0.22653	0.33584	0.087825	0.19982	0.14255	0.17341	0.018012	0.20224	-2.4333	-2.35	-1.8833	-2.6021	-1.8062	-2.3979	-2.7	-2.2562	-2.6125	-2.0771	-2.1542	-2.9646	-1.9104	-2.5229	-2.6354	-2.0187	-50.617	-25.821	-50.607	176.461	108.950	-141.487	95.610	186.336	-80.457	11.790	114.621	215.898	203.896	141.276	-71.699	208.845	0.00086991	0.00068608	0.00022031	1050.7	8.0347e-06	8.8817e-06	1045.8	453.63	7.0824e-06	6.684e-06	493.89	194.85	165.78	84.74	4.9422e-06	105.14	0.00036131	0.00027108	7.3739e-05	1042.6	3.0152e-06	2.8824e-06	1040.6	452.43	3.1007e-06	3.0063e-06	491.4	195.34	166.63	85.109	3.0439e-06	105.41	186.903	-65.100	-32.197	-130.260	8.694	0.328	-131.020	-125.179	-35.412	7.065	-126.935	-123.057	-120.875	-115.131	4.888	-117.685	-8191	255	
1660.952	1	1	0	0	0.24722	0.50329	0.14183	0.17807	0.13307	0.15699	0.21789	0.18589	0.35013	0.23879	0.1977	0.46513	0.234	0.20066	0.037567	0.28314	-2.2146	-2.2729	-1.9646	-2.8875	-1.9438	-1.9042	-2.4583	-1.95	-2.7042	-2.2729	-2.1708	-2.7562	-1.9396	-2.1021	-2.6688	-2.0917	-28.254	96.048	27.662	-84.068	-37.601	207.990	-118.480	153.028	-0.205	84.078	184.319	157.646	-83.770	-122.562	201.543	200.318	0.00089115	0.00060813	0.0002161	1050.6	4.4341e-06	6.1432e-06	1043.7	451.76	7.5624e-06	7.0661e-06	493.52	194.36	165.53	85.108	3.9929e-06	105.5	0.00036976	0.00027203	7.6646e-05	1040.9	2.9483e-06	2.9508e-06	1040.2	451.26	3.1098e-06	2.9293e-06	491.82	195.65	166.57	85.367	3.1202e-06	105.87	186.978	-79.982	-42.314	-130.197	-26.455	6.135	-131.237	-125.249	-29.968	11.728	-126.771	-122.967	-120.890	-115.275	-14.885	-117.973	-8191	255	
1661.048	1	1	0	0	0.24365	0.12825	0.16221	0.15461	0.087463	0.28965	0.10775	0.1877	0.14239	0.157	0.11624	0.26907	0.20201	0.31381	0.053637	0.32197	-2.2521	-2.2	-1.7104	-2.9292	-2.0042	-2.25	-2.8104	-1.9146	-2.5104	-2.2458	-1.8708	-2.7604	-2.3521	-2.0812	-2.5042	-1.7625	-67.330	48.686	-89.465	135.384	-4.278	-4.300	86.814	68.205	195.028	-86.668	-134.204	173.965	-104.266	216.003	25.978	192.128	0.00086641	0.00061722	0.00018699	1048.4	4.4882e-06	7.2613e-06	1049.3	454.38	7.5714e-06	8.2186e-06	496.65	196.84	167.29	85.655	6.4788e-06	106.22	0.00036941	0.000276	7.5886e-05	1042.4	2.9496e-06	2.968e-06	1042.4	453.11	3.0651e-06	2.9022e-06	494.34	197.24	167.67	85.943	3.0737e-06	106.59	186.171	-68.055	-55.132	-130.364	4.046	-11.670	-131.254	-125.294	-46.400	23.955	-126.882	-122.993	-121.058	-115.311	-14.106	-117.932	-8191	255	
1661.144	1	1	0	0	0.22426	0.22559	0.20619	0.35778	0.16856	0.052658	0.21174	0.25227	0.13152	0.23321	0.25105	0.35997	0.14596	0.2542	0.065099	0.1685	-1.825	-2.5021	-1.7354	-2.9271	-2.1396	-2.0521	-2.8396	-2.1875	-2.2188	-2.5167	-1.9438	-2.8479	-2.4708	-2.1417	-2.6354	-2.2104	-118.567	26.360	39.518	208.029	-81.990	209.903	75.609	173.250	-70.628	142.578	101.366	140.976	211.236	156.717	34.448	-130.303	0.00085421	0.00093707	0.00027042	1057.3	4.2668e-06	7.018e-06	1049.6	454.14	5.1899e-06	1.0422e-05	495.9	195.62	166.39	85.009	6.4378e-06	105.48	0.0003696	0.00027583	7.4964e-05	1047.9	3.0094e-06	2.976e-06	1047.1	453.03	3.0894e-06	2.9717e-06	494.05	196.42	166.76	85.295	3.0245e-06	106.2	185.930	-70.659	-54.330	-130.052	6.145	-5.670	-131.299	-125.301	-38.618	11.083	-126.734	-122.869	-120.935	-115.466	-16.995	-117.869	-8191	255	
1661.240	1	1	0	0	0.11893	0.30252	0.29059	0.26874	0.26129	0.2992	0.17211	0.12849	0.14243	0.044524	0.16561	0.26039	0.29686	0.16614	0.17286	0.18484	-1.7625	-2.5354	-1.6688	-2.675	-2.3854	-1.9083	-2.9437	-2	-2.175	-2.7646	-1.9271	-2.4729	-2.4479	-1.9708	-2.7979	-2.1708	137.016	180.160	-122.479	118.951	-133.297	-45.978	-123.245	149.885	93.620	139.474	108.994	38.133	161.463	-14.263	-128.140	111.354	0.0008749	0.00067764	0.00024935	1054.5	3.4379e-06	5.1052e-06	1051.3	453.36	5.2235e-06	8.1815e-06	495.65	195.6	165.87	84.484	4.866e-06	105.21	0.00037203	0.00027666	7.7147e-05	1046.6	2.9818e-06	3.032e-06	1045.9	452.28	3.1032e-06	2.9488e-06	493.61	196.02	166.55	84.883	3.0961e-06	105.77	186.071	-57.588	-63.039	-130.017	-23.042	14.716	-130.913	-125.137	-40.733	-5.779	-126.663	-123.047	-120.962	-115.472	-12.670	-117.830	-8191	255	
1661.336	1	1	0	0	0.3695	0.13469	0.10556	0.17088	0.17236	0.12336	0.17209	0.11861	0.10297	0.080739	0.30565	0.29479	0.25279	0.22979	0.14053	0.29741	-1.5771	-2.6708	-1.7542	-2.6208	-2.5	-1.9062	-2.6375	-2.3104	-1.8646	-2.8312	-2.0812	-2.4646	-2.7354	-1.8042	-2.8021	-2.4979	205.765	-23.506	151.361	-125.822	113.777	-54.261	119.445	162.506	73.340	6.521	187.124	173.575	-127.295	180.768	-89.405	131.061	0.00088956	0.00064297	0.0002409	1053.8	5.2169e-06	6.9229e-06	1043.4	452.56	5.3314e-06	9.4065e-06	493.91	194.35	165.48	84.235	3.9438e-06	104.62	0.00036738	0.00027236	7.8439e-05	1044.4	3.0844e-06	2.9986e-06	1041.7	452.12	3.1704e-06	3.0238e-06	491.63	194.96	166.07	84.576	3.1539e-06	104.99	186.530	-65.493	-52.480	-130.024	-13.621	-10.904	-131.036	-125.143	-13.110	-1.616	-126.873	-122.808	-120.667	-115.251	3.640	-117.665	-8191	255	
1661.432	1	1	0	0	0.23826	0.034189	0.25863	0.21295	0.25675	0.055623	0.29085	0.096495	0.14231	0.14714	0.21846	0.22678	0.089662	0.10446	0.20259	0.27218	-1.5896	-2.7521	-1.8958	-2.3	-2.6042	-1.775	-2.6188	-2.4062	-1.8042	-2.8	-1.9021	-2.1208	-2.6042	-2.1354	-2.4313	-2.5833	-117.624	172.204	-33.517	-104.109	-91.969	25.350	205.485	189.956	-26.263	-110.924	-134.762	144.853	-53.711	118.408	-135.174	110.103	0.00085416	0.00073665	0.00016565	1047.9	6.9797e-06	6.1056e-06	1045.1	452.64	8.6979e-06	7.1563e-06	492.71	193.21	164.46	84.031	6.9359e-06	103.82	0.0003717	0.00027305	7.7706e-05	1039.8	3.0433e-06	3.0774e-06	1041.2	450.61	3.1802e-06	2.9832e-06	490.21	194.08	165.02	83.995	3.1583e-06	104.21	187.163	-81.547	-43.077	-130.177	-4.110	28.565	-131.208	-125.094	-31.011	0.996	-126.753	-122.739	-120.592	-115.257	-12.976	-117.743	-8191	255	
1661.551	1	1	0	0	0.31924	0.21752	0.18212	0.1742	0.080025	0.19734	0.32399	0.23062	0.11516	0.32004	0.31131	0.19521	0.22074	0.21529	0.18569	0.24436	-1.3792	-2.4229	-1.7833	-2.2896	-2.7917	-1.6938	-2.75	-2.7104	-2.0042	-2.5812	-2.2104	-2.1375	-2.7125	-1.9729	-2.2229	-2.6521	-27.927	-18.199	45.336	180.712	-54.304	59.971	107.550	182.840	148.201	60.820	170.855	166.706	210.017	152.051	125.371	-115.558	0.00081789	0.00075072	0.0001933	1044.3	5.884e-06	9.7056e-06	1042.9	449.65	6.07e-06	4.4822e-06	490.68	192.84	163.7	83.026	6.9747e-06	103.98	0.0003702	0.00028285	7.7247e-05	1037.2	3.0886e-06	3.0428e-06	1040.1	448.72	3.1741e-06	2.9749e-06	488.09	193.19	164.6	83.317	3.1282e-06	104.1	185.262	-78.324	-47.601	-130.100	-18.437	9.174	-130.671	-125.031	-43.050	71.640	-127.056	-122.758	-120.515	-115.129	-24.680	-117.834	-8191	255	
1661.647	1	1	0	0	0.24287	0.061232	0.24647	0.2526	0.072941	0.26125	0.043431	0.20065	0.18008	0.33957	0.22281	0.14473	0.24707	0.36803	0.31005	0.23133	-1.3438	-2.5958	-2.0396	-2.0938	-2.7229	-1.7542	-2.4	-2.7229	-1.7833	-2.7333	-2.1813	-2.0062	-2.8458	-2.3396	-2.2896	-2.85	108.931	87.957	125.643	210.802	140.999	-75.324	88.612	174.148	46.915	-32.796	191.594	-76.750	184.521	157.571	129.021	208.769	0.00079757	0.00046616	0.00018023	1044.9	5.6137e-06	9.1178e-06	1049.4	449.09	6.9602e-06	9.4849e-06	489.33	192.29	164.3	82.635	4.734e-06	103.37	0.00036897	0.00027849	7.7773e-05	1039.3	3.0397e-06	3.0897e-06	1041.5	447.97	3.1952e-06	3.0334e-06	486.86	193.28	164.5	83.008	3.2204e-06	103.96	187.411	-81.197	-47.678	-130.102	1.176	-9.112	-130.958	-125.049	-25.694	41.363	-126.876	-122.633	-120.458	-115.346	-20.551	-117.604	-8191	255	
1661.744	1	1	0	0	0.18216	0.33506	0.11222	0.31992	0.062795	0.082132	0.10682	0.39736	0.15561	0.26056	0.22685	0.10205	0.093677	0.29847	0.15386	0.13515	-1.6167	-2.5521	-2.2583	-1.9375	-2.8771	-2.0958	-2.4	-2.7479	-1.9042	-2.4854	-2.2396	-1.8104	-2.7375	-2.2292	-2.0542	-2.9792	-132.445	194.100	200.965	181.857	27.649	192.372	181.328	103.510	105.774	165.017	173.477	-33.301	122.262	-110.101	14.490	170.386	0.00083905	0.00039948	0.00019461	1046.5	6.1097e-06	6.8645e-06	1044.6	448.59	7.0018e-06	1.2237e-05	489.36	192.47	163.61	82.625	5.6875e-06	104.01	0.00037462	0.00027867	7.7085e-05	1040.2	3.0114e-06	3.0657e-06	1041.2	447.26	3.1551e-06	3.0038e-06	487.38	193.39	164.69	83.131	3.1171e-06	104.2	188.257	-76.715	-51.675	-129.882	-10.069	21.518	-130.846	-125.089	-42.413	11.967	-126.715	-122.578	-120.685	-115.375	-1.924	-117.471	-8191	255	
1661.840	1	1	0	0	0.40022	0.38515	0.20054	0.17332	0.099526	0.25617	0.4885	0.24634	0.10787	0.14855	0.24922	0.37838	0.077801	0.27279	0.15098	0.21226	-1.3354	-2.2687	-2.3417	-1.7854	-2.5812	-1.9479	-2.2687	-2.9437	-1.9125	-2.3625	-2.6896	-2.0292	-2.7771	-2.3312	-1.8083	-3.0792	94.009	5.999	68.897	171.552	-84.379	115.435	182.757	185.255	-105.833	-31.777	-43.797	187.784	-122.216	190.361	-65.702	179.157	0.00082941	0.00061961	0.00023379	1048	6.1922e-06	7.1425e-06	1047.1	450.05	6.1773e-06	1.1887e-05	494.08	193.21	164.96	82.528	4.0306e-06	103.92	0.00037502	0.00027608	7.6477e-05	1039.7	3.0511e-06	2.9886e-06	1042.8	448.34	3.117e-06	2.9084e-06	489.4	194.13	165.31	83.022	3.1001e-06	104.39	187.196	-79.849	-65.031	-129.816	-9.861	-15.614	-130.952	-125.108	-25.115	6.547	-126.695	-122.658	-120.437	-115.169	-29.539	-117.691	-8191	255	
1661.936	1	1	0	0	0.091924	0.19575	0.29724	0.37105	0.22397	0.21132	0.13419	0.39715	0.22047	0.18542	0.03625	0.10867	0.30791	0.22068	0.29618	0.22059	-1.5375	-2.2062	-2.5708	-1.9521	-2.6437	-2.1917	-2.1583	-2.8708	-2.0229	-2.4542	-2.9062	-1.8708	-2.5625	-2.65	-1.9646	-2.9083	144.549	-88.764	108.600	203.667	70.858	70.730	152.619	148.776	-127.380	-7.308	2.800	205.309	174.985	199.056	25.876	164.711	0.00082298	0.0010437	0.00017546	1052.9	6.3273e-06	5.5772e-06	1047.6	450.73	4.2004e-06	7.1737e-06	495.2	193.91	165.53	83.285	7.1609e-06	105.11	0.00036623	0.00027902	7.672e-05	1044.4	2.9412e-06	2.9722e-06	1046.7	449.71	3.1168e-06	2.956e-06	491.91	195.1	166.33	83.478	3.0723e-06	105.24	186.030	-74.345	-50.140	-130.045	12.744	-4.503	-130.864	-124.931	-47.287	21.193	-126.761	-122.670	-120.551	-115.305	-4.290	-117.677	-8191	255	
1662.032	1	1	0	0	0.1704	0.12134	0.26405	0.16726	0.15236	0.19888	0.25033	0.44247	0.24144	0.27408	0.20262	0.33139	0.42173	0.48778	0.29088	0.18736	-1.3875	-2.1	-2.7333	-2.0667	-2.5042	-2.4021	-2.0438	-2.8271	-2.0062	-2.075	-2.7417	-1.9417	-2.7771	-2.825	-1.9104	-2.8958	171.107	6.325	214.475	76.001	61.042	152.178	192.079	197.809	3.214	203.071	126.233	-121.647	146.736	205.654	-117.629	180.079	0.00083961	0.00060479	0.00021103	1059	4.3256e-06	7.2388e-06	1053	453.61	7.7192e-06	9.3267e-06	497.85	195.32	166.48	83.27	5.0016e-06	105.12	0.00036102	0.00027574	7.5006e-05	1050.9	2.9867e-06	2.9507e-06	1051	452.55	3.0749e-06	2.9646e-06	494.11	196.02	166.99	83.59	3.124e-06	105.51	186.465	-75.891	-39.935	-129.985	-13.137	5.209	-130.688	-124.908	-40.420	13.293	-126.635	-122.742	-120.644	-115.405	4.659	-117.514	-8191	255	
1662.153	1	1	0	0	0.1862	0.069925	0.12071	0.23258	0.057466	0.040806	0.26142	0.40441	0.2483	0.23198	0.075692	0.3599	0.33095	0.14563	0.27698	0.2505	-1.9125	-1.975	-2.6729	-1.7896	-2.1917	-2.4292	-1.7854	-2.925	-2.2583	-2.0771	-3.0792	-2.0167	-2.4562	-2.8042	-1.8396	-2.6917	-46.626	8.288	36.649	120.710	-75.632	160.124	128.490	208.101	151.496	-101.570	164.090	181.700	-127.700	143.280	-119.819	164.557	0.0008002	0.00065308	0.00015243	1063	4.8386e-06	7.0913e-06	1058.8	454.8	4.2266e-06	8.898e-06	499.03	195.75	166.82	83.472	8.2428e-06	105.47	0.00036099	0.00027412	7.5655e-05	1054.9	2.9601e-06	2.9235e-06	1054.6	453.03	3.0121e-06	3.0152e-06	495.54	196.67	167.6	83.696	3.0738e-06	105.61	188.025	-62.213	-70.910	-129.869	27.169	5.327	-130.932	-124.829	-34.565	14.603	-126.610	-122.905	-120.435	-115.252	-9.329	-117.489	-8191	255	
1662.249	1	1	0	0	0.13079	0.27416	0.11091	0.25282	0.02943	0.17644	0.36953	0.30085	0.13888	0.24024	0.19543	0.12578	0.1857	0.19518	0.11851	0.14474	-1.8	-1.8771	-2.8104	-2	-2.3625	-2.525	-2.0917	-2.7521	-2.2438	-1.7271	-2.85	-2.2562	-2.4375	-2.8771	-1.7729	-2.7167	-42.398	22.099	-126.053	124.972	-102.691	154.150	124.098	170.958	-109.320	182.200	102.267	78.244	178.358	172.881	17.614	216.103	0.00084511	0.00075125	0.00013855	1068.6	5.038e-06	7.4499e-06	1057.4	455.75	8.3284e-06	5.9384e-06	500.05	196.1	166.56	83.259	6.7204e-06	105.15	0.0003633	0.00027128	7.337e-05	1058.5	2.9443e-06	2.8499e-06	1054.7	453.83	3.0719e-06	2.9773e-06	495.78	196.9	167.29	83.464	3.0699e-06	105.59	188.538	-86.499	-46.992	-129.963	18.387	-0.909	-130.750	-124.919	-33.225	20.750	-126.531	-122.588	-120.436	-115.306	-1.869	-117.560	-8191	255	
1662.343	1	1	0	0	0.13775	0.14911	0.12415	0.17694	0.064747	0.30627	0.22117	0.13704	0.14102	0.30668	0.1681	0.4622	0.1677	0.46015	0.11799	0.4521	-2	-1.8021	-2.6937	-2.2479	-2.2812	-2.8438	-1.9833	-2.5979	-2.3583	-1.9875	-2.7458	-2.2083	-2.1312	-2.5646	-1.8125	-2.575	58.220	188.001	176.611	-30.267	20.669	-94.703	97.422	-41.149	158.291	51.959	210.896	168.049	183.565	204.388	-84.470	191.580	0.00083968	0.00077492	0.00028908	1071.4	4.9886e-06	6.9067e-06	1061.3	455.12	8.7232e-06	5.7246e-06	498.36	196.68	167.69	83.55	6.6633e-06	105.47	0.00036349	0.00027365	7.4874e-05	1060.6	2.9951e-06	2.8939e-06	1056.4	454.2	3.083e-06	2.9973e-06	496.52	197.12	168.03	83.771	3.0428e-06	105.79	188.186	-78.602	-49.302	-129.815	-6.946	13.244	-130.677	-124.746	-46.519	10.128	-126.411	-122.773	-120.532	-115.212	-3.553	-117.432	-8191	255	
1662.439	1	1	0	0	0.34028	0.099665	0.20387	0.19902	0.20929	0.19579	0.23675	0.20227	0.072409	0.35121	0.093127	0.10382	0.11268	0.45704	0.1126	0.32738	-2.1729	-1.8208	-2.6583	-1.9042	-1.7604	-2.7417	-2.2271	-2.5938	-2.7062	-1.9167	-2.5146	-2.3333	-1.8479	-2.7833	-1.95	-2.3667	152.459	185.175	60.484	98.134	68.090	165.475	89.154	145.191	21.474	69.535	101.839	165.432	209.358	161.151	-57.310	140.141	0.00085236	0.00062467	0.00017197	1066.8	7.4999e-06	9.3395e-06	1058.6	457.22	7.0766e-06	6.4508e-06	499.62	196.74	167.09	83.58	6.5814e-06	105.82	0.00035915	0.0002709	7.4234e-05	1058.9	3.0228e-06	2.9416e-06	1057.7	455.97	3.0627e-06	2.965e-06	497.25	197.29	167.91	83.911	3.0739e-06	105.92	184.838	-64.032	-37.848	-129.932	8.683	0.025	-130.798	-124.961	-23.807	-0.090	-126.332	-122.631	-120.526	-115.050	7.891	-117.334	-8191	255	
1662.535	1	1	0	0	0.20078	0.32499	0.15067	0.072161	0.18437	0.28494	0.13565	0.27063	0.059749	0.12295	0.1381	0.20554	0.27793	0.2233	0.18078	0.16927	-2.3708	-1.5104	-2.3333	-2.3583	-1.9167	-2.8187	-1.9667	-2.1854	-2.5125	-1.9125	-2.7417	-2.5083	-1.8854	-2.8438	-2.1708	-2.1771	-115.098	94.377	189.964	118.159	214.191	110.127	200.061	161.882	82.360	13.375	185.404	-105.993	171.779	203.106	-65.486	169.107	0.00083072	0.00066436	0.00020101	1060.6	5.3788e-06	8.41e-06	1062.5	454.1	3.9533e-06	7.9119e-06	499.05	196.48	166.82	83.398	7.3158e-06	105.59	0.00035847	0.00027484	7.5528e-05	1054.1	3.0241e-06	2.8777e-06	1056	454.15	3.0364e-06	3.0254e-06	496.26	197.08	167.54	83.72	3.0805e-06	105.75	184.826	-67.112	-64.418	-129.791	17.271	13.978	-130.922	-124.907	-26.516	7.115	-126.552	-122.843	-120.431	-115.318	-26.818	-117.459	-8191	255	
#DATA ENDS
