BOXY.EXE: ISS Imagent and Oximeter Data Acquisition Program Version 0.80
Ascii Record File

#ACQ INFORMATION
2  Detector Channels 
16  External MUX Channels 
1  Auxiliary Channels 
5000  Waveform (CCF) Frequency (Hz)
1  Waveforms Skipped 
30  Waveforms Averaged 
1  Cycles Averaged 
16  Acquisitions per Waveform 
10.0806  Updata Rate (Hz) 

#FILE INFORMATION
TRUE -- External MUX Channel results are PARSED.
FALSE -- AC DC and Phase are NOT grouped.
TRUE -- Companion Program Settings File CREATED.
FALSE -- AC data not excluded
FALSE -- DC data not excluded
FALSE -- Phase data not excluded
FALSE -- Auxillary Chn. data not excluded
Tab delimiters

#CALIBRATION STATE
TRUE -- Waveform Calibration Values APPLIED.


#AUX CALIBRATION VALUES
Val Type	aux-1	

Term	1.0000e+00	
Factor	0.0000e+00	


#WF CALIBRATION VALUES
A = Detector Channel
Val Type	A-AC1	A-AC2	A-AC3	A-AC4	A-AC5	A-AC6	A-AC7	A-AC8	A-AC9	A-AC10	A-AC11	A-AC12	A-AC13	A-AC14	A-AC15	A-AC16	A-DC1	A-DC2	A-DC3	A-DC4	A-DC5	A-DC6	A-DC7	A-DC8	A-DC9	A-DC10	A-DC11	A-DC12	A-DC13	A-DC14	A-DC15	A-DC16	A-Ph1	A-Ph2	A-Ph3	A-Ph4	A-Ph5	A-Ph6	A-Ph7	A-Ph8	A-Ph9	A-Ph10	A-Ph11	A-Ph12	A-Ph13	A-Ph14	A-Ph15	A-Ph16	

Term	0.00000e+00	0.00000e+00	0.00000e+00	0.00000e+00	0.00000e+00	0.00000e+00	0.00000e+00	0.00000e+00	0.00000e+00	0.00000e+00	0.00000e+00	0.00000e+00	0.00000e+00	0.00000e+00	0.00000e+00	0.00000e+00	0.00000e+00	0.00000e+00	0.00000e+00	0.00000e+00	0.00000e+00	0.00000e+00	0.00000e+00	0.00000e+00	0.00000e+00	0.00000e+00	0.00000e+00	0.00000e+00	0.00000e+00	0.00000e+00	0.00000e+00	0.00000e+00	0.00000e+00	0.00000e+00	0.00000e+00	0.00000e+00	0.00000e+00	0.00000e+00	0.00000e+00	0.00000e+00	0.00000e+00	0.00000e+00	0.00000e+00	0.00000e+00	0.00000e+00	0.00000e+00	0.00000e+00	0.00000e+00	
Factor	1.00000e+00	1.00000e+00	1.00000e+00	1.00000e+00	1.00000e+00	1.00000e+00	1.00000e+00	1.00000e+00	1.00000e+00	1.00000e+00	1.00000e+00	1.00000e+00	1.00000e+00	1.00000e+00	1.00000e+00	1.00000e+00	1.00000e+00	1.00000e+00	1.00000e+00	1.00000e+00	1.00000e+00	1.00000e+00	1.00000e+00	1.00000e+00	1.00000e+00	1.00000e+00	1.00000e+00	1.00000e+00	1.00000e+00	1.00000e+00	1.00000e+00	1.00000e+00	X	X	X	X	X	X	X	X	X	X	X	X	X	X	X	X	

B = Detector Channel
Val Type	B-AC1	B-AC2	B-AC3	B-AC4	B-AC5	B-AC6	B-AC7	B-AC8	B-AC9	B-AC10	B-AC11	B-AC12	B-AC13	B-AC14	B-AC15	B-AC16	B-DC1	B-DC2	B-DC3	B-DC4	B-DC5	B-DC6	B-DC7	B-DC8	B-DC9	B-DC10	B-DC11	B-DC12	B-DC13	B-DC14	B-DC15	B-DC16	B-Ph1	B-Ph2	B-Ph3	B-Ph4	B-Ph5	B-Ph6	B-Ph7	B-Ph8	B-Ph9	B-Ph10	B-Ph11	B-Ph12	B-Ph13	B-Ph14	B-Ph15	B-Ph16	

Term	0.00000e+00	0.00000e+00	0.00000e+00	0.00000e+00	0.00000e+00	0.00000e+00	0.00000e+00	0.00000e+00	0.00000e+00	0.00000e+00	0.00000e+00	0.00000e+00	0.00000e+00	0.00000e+00	0.00000e+00	0.00000e+00	0.00000e+00	0.00000e+00	0.00000e+00	0.00000e+00	0.00000e+00	0.00000e+00	0.00000e+00	0.00000e+00	0.00000e+00	0.00000e+00	0.00000e+00	0.00000e+00	0.00000e+00	0.00000e+00	0.00000e+00	0.00000e+00	-1.43369e+02	-1.40021e+02	-1.25011e+02	-1.81578e+02	-7.38023e+01	-7.32306e+01	-1.57041e+02	-1.62015e+02	-7.92528e+01	-5.91734e+01	-1.74057e+02	-1.71424e+02	-1.78987e+02	-1.76327e+02	-6.84522e+01	-1.49256e+02	
Factor	1.90294e-05	1.26789e-04	3.84744e-05	1.58984e-01	1.18360e-06	1.40697e-06	1.60266e-01	4.82704e-02	1.15976e-06	1.66629e-06	8.45732e-02	2.76673e-02	2.67142e-02	8.45805e-03	1.20631e-06	1.22680e-02	3.47264e-06	3.99536e-06	1.10900e-06	8.22969e-02	4.30501e-08	4.39776e-08	7.82042e-02	2.51153e-02	4.31453e-08	4.40081e-08	4.24676e-02	1.39384e-02	1.40508e-02	4.41929e-03	4.33643e-08	6.19574e-03	X	X	X	X	X	X	X	X	X	X	X	X	X	X	X	X	



#DISTANCE SETTINGS
A = Detector Channel
A-1	A-2	A-3	A-4	A-5	A-6	A-7	A-8	A-9	A-10	A-11	A-12	A-13	A-14	A-15	A-16	

2.5000e+00	3.0000e+00	2.5000e+00	3.0000e+00	2.0000e+00	3.0000e+00	1.5000e+00	3.0000e+00	3.0000e+00	3.0000e+00	3.0000e+00	3.0000e+00	3.0000e+00	3.0000e+00	1.5000e+00	3.0000e+00	

B = Detector Channel
B-1	B-2	B-3	B-4	B-5	B-6	B-7	B-8	B-9	B-10	B-11	B-12	B-13	B-14	B-15	B-16	

1.0000e+01	1.0000e+01	1.0000e+01	1.4400e+00	1.0000e+01	1.0000e+01	1.5100e+00	1.9400e+00	1.0000e+01	1.0000e+01	1.9900e+00	2.4900e+00	2.4100e+00	2.9000e+00	1.0000e+01	2.9800e+00	




#DATA BEGINS
time	group	step	mark	flag	A-AC1	A-AC2	A-AC3	A-AC4	A-AC5	A-AC6	A-AC7	A-AC8	A-AC9	A-AC10	A-AC11	A-AC12	A-AC13	A-AC14	A-AC15	A-AC16	A-DC1	A-DC2	A-DC3	A-DC4	A-DC5	A-DC6	A-DC7	A-DC8	A-DC9	A-DC10	A-DC11	A-DC12	A-DC13	A-DC14	A-DC15	A-DC16	A-Ph1	A-Ph2	A-Ph3	A-Ph4	A-Ph5	A-Ph6	A-Ph7	A-Ph8	A-Ph9	A-Ph10	A-Ph11	A-Ph12	A-Ph13	A-Ph14	A-Ph15	A-Ph16	B-AC1	B-AC2	B-AC3	B-AC4	B-AC5	B-AC6	B-AC7	B-AC8	B-AC9	B-AC10	B-AC11	B-AC12	B-AC13	B-AC14	B-AC15	B-AC16	B-DC1	B-DC2	B-DC3	B-DC4	B-DC5	B-DC6	B-DC7	B-DC8	B-DC9	B-DC10	B-DC11	B-DC12	B-DC13	B-DC14	B-DC15	B-DC16	B-Ph1	B-Ph2	B-Ph3	B-Ph4	B-Ph5	B-Ph6	B-Ph7	B-Ph8	B-Ph9	B-Ph10	B-Ph11	B-Ph12	B-Ph13	B-Ph14	B-Ph15	B-Ph16	aux-1	digaux	

1720.722	1	1	0	768	0.24977	0.32994	0.15048	0.010981	0.15445	0.15227	0.078747	0.15446	0.15542	0.26417	0.12202	0.28839	0.11402	0.25875	0.076057	0.078458	-2.2521	-2.1104	-2.0396	-2.5854	-1.8062	-2.5687	-2.4188	-1.8417	-2.7771	-2.2875	-2.2104	-2.8229	-2.1021	-2.4042	-2.6833	-1.8208	395.257	344.067	238.755	369.108	409.201	373.330	249.535	432.010	431.490	148.325	239.454	186.498	113.428	389.793	120.740	337.126	0.00064543	0.00042601	7.7329e-05	724.07	3.1118e-06	4.1579e-06	782.08	274.56	4.061e-06	6.7269e-06	329.63	111.84	96.915	48.412	6.463e-06	60.473	0.00029573	0.00023454	6.3959e-05	747.5	2.5422e-06	2.54e-06	807.82	283.94	2.5306e-06	2.5054e-06	339.09	116.16	100.42	50.551	2.5044e-06	62.963	154.690	136.512	185.293	96.059	222.361	224.613	94.916	101.379	218.233	249.253	98.932	103.825	105.955	111.188	242.855	108.637	-8191	255	
1720.818	1	1	0	0	0.092948	0.19076	0.063675	0.19573	0.23344	0.19831	0.24297	0.23184	0.17898	0.098755	0.26952	0.27582	0.17035	0.28805	0.17429	0.30365	-2.3958	-2.2333	-1.8771	-2.8042	-1.8354	-2.3417	-2.7979	-1.9375	-2.4583	-2.3271	-1.9542	-2.8583	-2.0458	-2.2938	-2.6229	-1.8104	114.471	92.802	262.641	408.176	443.095	197.634	381.010	405.377	442.128	249.568	120.429	348.154	383.522	122.217	270.521	360.608	0.00070375	0.00052076	0.00011792	730.11	4.0274e-06	1.8246e-06	787.97	276.3	5.9036e-06	4.7477e-06	330.12	112.35	96.628	48.421	4.2078e-06	60.509	0.00029154	0.00022923	6.2994e-05	751.48	2.5677e-06	2.4875e-06	812.64	285.15	2.5313e-06	2.5343e-06	340.3	116.43	100.59	50.592	2.5617e-06	62.896	154.561	160.011	178.085	95.876	226.543	235.621	95.158	101.124	226.054	249.945	99.215	103.867	105.976	111.380	240.206	108.697	-8191	255	
1720.914	1	1	0	0	0.06674	0.1179	0.1592	0.1519	0.16937	0.076261	0.11466	0.4184	0.2817	0.34093	0.20351	0.15712	0.098712	0.21016	0.30221	0.12407	-2.425	-2.3542	-1.8	-2.7542	-2.1437	-2.4146	-2.5521	-1.7417	-2.8021	-2.4917	-1.6833	-2.7188	-2.1437	-2.2667	-2.5125	-1.7479	297.203	417.076	285.921	213.984	259.258	240.880	199.681	347.047	216.826	160.237	191.968	136.064	309.805	109.818	166.058	411.068	0.00067678	0.00053712	0.00016848	731.04	3.4629e-06	5.0045e-06	789.03	274.1	5.8209e-06	4.1468e-06	327.34	111.93	97.075	48.56	6.0426e-06	60.573	0.00029413	0.00023139	6.4135e-05	753.66	2.5027e-06	2.5272e-06	813.09	284.22	2.6033e-06	2.4864e-06	338.61	116.21	100.41	50.66	2.5539e-06	63.012	155.120	162.651	175.168	95.897	229.083	221.419	95.571	101.252	233.063	241.403	99.183	103.908	106.002	111.557	248.107	108.443	-8191	255	
1721.011	1	1	0	0	0.12004	0.046704	0.19507	0.31543	0.024054	0.30441	0.13618	0.26217	0.21427	0.043578	0.080988	0.15826	0.38375	0.1173	0.19473	0.069013	-2.0458	-2.3167	-1.8312	-2.8792	-2.0438	-1.9562	-2.7979	-1.7292	-2.2062	-2.4021	-1.7375	-2.6562	-2.2396	-1.9021	-2.5396	-2.1458	440.676	84.628	177.110	391.633	424.606	398.105	405.102	409.794	133.865	209.292	440.246	386.921	419.731	371.651	202.045	145.247	0.00066997	0.00053911	8.6426e-05	726.96	3.8876e-06	6.0063e-06	786.04	274.54	5.1894e-06	4.6872e-06	327.18	111.83	96.657	48.668	4.5654e-06	60.533	0.00028993	0.00023104	6.4574e-05	750.39	2.5268e-06	2.5753e-06	812.28	284.51	2.5528e-06	2.4391e-06	338.84	116.05	100.56	50.685	2.5573e-06	62.875	154.134	133.046	195.401	96.068	226.792	233.688	95.158	101.252	233.025	254.236	99.187	104.014	105.897	111.272	208.734	108.406	-8191	255	
1721.107	1	1	0	0	0.26994	0.1973	0.26161	0.16381	0.13015	0.21383	0.035771	0.056332	0.27003	0.084028	0.26762	0.14713	0.1409	0.35351	0.11484	0.097152	-1.9146	-2.1729	-1.6521	-2.8	-2.4	-1.9396	-2.75	-2.2542	-2.3937	-2.5729	-1.8333	-2.5854	-2.3542	-2.0375	-2.6042	-2.1833	142.062	248.251	301.295	93.863	240.538	253.744	243.672	238.350	340.382	103.680	130.395	422.606	195.200	373.281	393.762	397.209	0.00067719	0.00037669	0.00012941	725.25	5.0904e-06	6.1267e-06	786.94	274.36	5.3219e-06	7.0221e-06	327.93	112.73	96.515	48.654	5.1032e-06	61.031	0.00028876	0.0002261	6.267e-05	749.11	2.5103e-06	2.508e-06	809.45	283.78	2.5284e-06	2.4821e-06	338.32	116.43	100.52	50.888	2.557e-06	63.369	153.846	145.748	165.657	96.204	228.562	212.865	95.241	101.226	210.017	232.502	99.244	103.958	106.097	111.331	212.849	108.497	-8191	255	
1721.203	1	1	0	0	0.32013	0.24867	0.2207	0.025841	0.13428	0.18873	0.25552	0.24647	0.13354	0.10202	0.029726	0.21626	0.2558	0.15709	0.11688	0.58324	-1.8271	-2.4125	-2.0563	-2.6708	-2.4104	-1.7687	-2.8667	-2.2396	-2.0542	-2.7646	-1.9146	-2.4583	-2.3646	-1.8458	-2.7417	-2.4021	339.001	377.730	394.081	390.553	143.329	376.529	368.659	385.410	248.210	397.892	98.465	100.139	332.179	393.833	225.088	329.811	0.00069504	0.00040406	0.00013301	724.12	4.106e-06	4.3202e-06	783.3	273.31	4.7377e-06	3.6242e-06	327.84	112.33	97.3	49	4.2944e-06	61.018	0.00029419	0.00023524	6.4606e-05	746.66	2.5256e-06	2.4707e-06	806.94	283.23	2.5401e-06	2.4981e-06	338.12	116.47	100.78	51.147	2.6006e-06	63.449	152.083	169.995	156.306	96.056	240.378	212.548	95.261	101.225	234.267	239.157	98.902	103.924	106.000	111.503	230.270	108.493	-8191	255	
1721.323	1	1	0	0	0.088002	0.23511	0.21097	0.38875	0.08815	0.13581	0.19931	0.44749	0.16185	0.26539	0.13924	0.24852	0.16584	0.39102	0.063521	0.12404	-1.5771	-2.7313	-1.9208	-2.6562	-2.4854	-1.7854	-2.6917	-2.4167	-2.0521	-2.8	-1.9125	-2.4437	-2.7771	-1.8062	-2.3854	-2.4625	86.683	141.189	170.923	434.007	360.136	298.969	369.795	416.623	423.616	272.420	318.557	322.567	103.842	94.372	322.056	399.112	0.00068531	0.0004342	0.00010467	725.17	5.4498e-06	2.533e-06	782.56	273.64	4.5458e-06	5.061e-06	326.09	112.41	96.804	48.97	2.7938e-06	61.135	0.00029267	0.00022505	6.2485e-05	748.29	2.4876e-06	2.4631e-06	807.01	283.4	2.5418e-06	2.4412e-06	337.37	116.5	100.49	51.093	2.5565e-06	63.469	152.871	175.464	163.576	96.371	228.137	212.397	95.435	100.971	219.069	245.880	99.111	103.966	106.176	111.510	249.342	108.332	-8191	255	
1721.420	1	1	0	0	0.12025	0.14066	0.14585	0.26271	0.10513	0.21446	0.11989	0.22121	0.19072	0.072323	0.25752	0.32928	0.020723	0.30155	0.20382	0.30411	-1.3312	-2.5312	-1.8854	-2.3083	-2.7042	-1.85	-2.6521	-2.2375	-1.8542	-2.7	-2.0333	-2.1479	-2.7438	-1.825	-2.5812	-2.4062	268.086	283.176	147.828	392.800	156.423	228.569	173.661	391.128	274.372	309.636	436.956	443.351	312.764	419.010	419.954	384.796	0.00070712	0.00048447	0.00015582	724.41	3.2656e-06	3.1929e-06	782.07	272.62	5.9581e-06	3.3356e-06	324.68	111.17	96.102	48.46	4.8806e-06	60.396	0.00030323	0.00023332	6.4447e-05	745.84	2.5e-06	2.5514e-06	805.72	282.14	2.6604e-06	2.5203e-06	335.55	115.2	99.709	50.584	2.6643e-06	62.758	154.656	181.601	189.295	96.008	227.313	222.669	95.415	101.401	223.359	242.196	99.337	104.140	106.129	111.492	250.002	108.457	-8191	255	
1721.516	1	1	0	0	0.15226	0.1362	0.28941	0.10974	0.16714	0.1975	0.11841	0.11831	0.21068	0.087717	0.15445	0.15749	0.25755	0.32743	0.32857	0.22269	-1.1771	-2.8354	-1.875	-2.1771	-2.6542	-1.7229	-2.7687	-2.6792	-1.7604	-2.4583	-2.3063	-2.1917	-2.8875	-1.9979	-2.5146	-2.6458	112.824	225.532	108.890	197.334	430.909	336.693	217.138	109.272	412.043	296.364	427.518	426.295	196.340	84.924	151.593	410.067	0.00070665	0.00033527	0.0001528	725.85	5.626e-06	4.3114e-06	786.02	274.32	5.6617e-06	7.1358e-06	326.84	110.35	94.654	47.008	3.9578e-06	58.373	0.00030145	0.00023792	6.6619e-05	748.13	2.7039e-06	2.6313e-06	812	283.22	2.8354e-06	2.7908e-06	337.35	114.14	98.535	49.098	3.1409e-06	60.844	155.659	158.900	159.194	96.250	217.486	220.347	95.233	101.149	218.419	242.462	99.183	104.116	106.259	111.434	258.976	108.747	-8191	255	
1721.612	1	1	0	0	0.11133	0.037922	0.10614	0.36045	0.22031	0.073117	0.10003	0.25578	0.28156	0.22931	0.24571	0.13778	0.087719	0.291	0.14031	0.05526	-1.2917	-2.6917	-2.0125	-2.025	-2.6604	-1.8917	-2.3292	-2.7208	-1.7167	-2.725	-2.5292	-1.8375	-2.7	-2.0938	-2.3021	-2.6854	136.279	99.443	298.284	395.702	442.217	374.215	269.841	366.885	271.989	313.181	422.964	353.473	367.594	413.971	165.590	97.485	0.00068719	0.00027428	0.00012621	744.13	3.1504e-06	5.2187e-06	807.01	274.74	3.7679e-06	4.3906e-06	323.87	107.43	93.194	45.323	5.5005e-06	56.437	0.00034667	0.00028855	8.0382e-05	768.52	3.2087e-06	3.2861e-06	833.55	284.07	3.416e-06	3.3696e-06	335.21	111.91	96.716	47.427	3.7994e-06	58.855	153.426	150.554	171.499	96.147	225.635	202.605	95.270	101.231	170.250	232.896	99.235	104.022	106.380	111.523	249.932	108.833	-8191	255	
1721.708	1	1	0	0	0.1199	0.21554	0.118	0.1161	0.20003	0.31948	0.22678	0.17332	0.13096	0.17223	0.18934	0.1095	0.1062	0.13007	0.20496	0.25404	-1.275	-2.6562	-2.2833	-1.8771	-2.7979	-1.9458	-2.1792	-2.7604	-1.7792	-2.6667	-2.3667	-1.6708	-2.6521	-1.9688	-2.1042	-2.7396	221.511	435.639	332.748	273.687	415.661	422.582	368.748	346.438	159.161	199.352	375.082	413.587	275.031	373.775	398.057	430.471	0.00059977	0.00028001	0.00010838	748.26	3.7145e-06	3.0885e-06	804.71	271.79	5.3376e-06	5.7978e-06	321.39	106.17	91.549	44.487	5.9838e-06	55.611	0.0004013	0.00036126	0.00010167	773.41	3.8488e-06	3.8916e-06	833.34	281.84	3.8886e-06	3.8494e-06	334.07	110.21	95.55	46.61	3.8997e-06	58.188	156.365	125.868	147.425	96.298	249.593	250.689	95.235	101.131	242.678	222.840	99.148	103.731	106.256	111.549	246.756	108.859	-8191	255	
1721.802	1	1	0	0	0.32338	0.11137	0.075352	0.15673	0.12627	0.30487	0.1037	0.13679	0.164	0.046113	0.23806	0.034588	0.18826	0.2026	0.27383	0.087665	-1.4062	-2.425	-2.4125	-1.825	-2.7896	-2.1771	-2.1729	-2.7938	-1.9208	-2.3042	-2.7583	-1.7896	-2.7125	-2.2938	-1.8771	-2.9625	182.138	406.767	369.142	130.495	179.888	153.036	325.337	329.024	393.111	150.428	419.117	325.436	121.121	110.664	263.185	265.242	0.00062128	0.0004451	0.00012258	740.49	5.101e-06	3.1109e-06	808.82	272.48	2.8405e-06	4.7271e-06	323.62	105.67	91.09	44.289	4.5887e-06	55.713	0.0003897	0.00034623	9.4889e-05	768.39	3.6368e-06	3.7764e-06	832.37	281.73	3.6957e-06	3.5123e-06	333.94	109.89	95.228	46.374	3.514e-06	57.936	152.588	157.569	169.210	96.276	228.200	211.213	95.093	101.322	234.082	254.601	99.218	104.252	106.384	111.647	260.431	108.671	-8191	255	
1721.923	1	1	0	0	0.14379	0.087878	0.091055	0.19164	0.12779	0.12799	0.46363	0.1374	0.10119	0.17102	0.13138	0.31302	0.20988	0.25663	0.058852	0.34651	-1.4167	-2.1771	-2.6958	-1.9271	-2.5625	-2.1146	-2.1667	-3.0042	-2.0542	-2.1875	-2.4667	-1.8271	-2.4271	-2.5167	-1.7167	-2.7979	379.349	438.951	285.171	301.530	161.010	277.983	396.745	369.306	141.176	330.097	334.127	387.109	430.480	102.480	103.454	114.527	0.00064505	0.00026201	0.00013409	745.59	3.5971e-06	3.9024e-06	809.32	273.53	4.9558e-06	4.3969e-06	324.08	106.24	91.119	44.197	4.3932e-06	55.299	0.00036444	0.00031999	8.7909e-05	771.46	3.4215e-06	3.4579e-06	836.24	283.35	3.4327e-06	3.3688e-06	335.18	109.86	95.073	46.232	3.3252e-06	57.603	150.635	117.764	202.001	96.135	248.203	207.514	95.272	101.221	211.578	213.150	98.807	103.956	106.386	111.654	221.414	108.958	-8191	255	
1722.019	1	1	0	0	0.056681	0.04459	0.14192	0.37543	0.036238	0.1252	0.016008	0.077367	0.029978	0.29433	0.20257	0.15076	0.14508	0.23318	0.10071	0.10326	-1.6583	-2.2062	-2.5187	-1.8021	-2.5396	-2.4542	-1.8542	-2.6979	-2.1083	-2.1833	-2.6292	-1.8396	-2.5708	-2.4208	-1.7771	-2.7104	170.002	115.418	329.648	436.494	342.973	424.768	409.993	257.141	316.485	149.143	406.255	150.071	344.154	342.099	221.267	399.531	0.00062218	0.00043336	8.5748e-05	750.56	3.5563e-06	3.8176e-06	811.85	273.92	3.8496e-06	5.18e-06	326.94	105.51	91.437	43.664	4.8061e-06	54.732	0.00035285	0.00030485	8.2457e-05	773.84	3.3111e-06	3.2619e-06	839.1	284.43	3.3366e-06	3.298e-06	337.26	109.78	94.903	45.809	3.438e-06	57.163	155.414	170.050	206.156	95.930	234.634	235.759	95.142	101.184	245.025	231.026	98.934	103.902	106.357	111.439	254.858	108.721	-8191	255	
1722.115	1	1	0	0	0.14459	0.11064	0.0877	0.13789	0.22635	0.14068	0.24097	0.27449	0.16972	0.018892	0.45589	0.16021	0.13237	0.15763	0.1146	0.082439	-1.6667	-1.9	-2.5521	-1.9104	-2.4521	-2.4396	-1.9667	-2.5479	-2.3458	-1.9208	-2.8875	-1.9958	-2.1542	-2.5438	-1.8125	-2.5771	191.364	289.378	404.341	423.375	238.062	155.712	342.677	428.180	283.173	214.268	404.574	382.037	416.347	161.687	218.842	119.882	0.00062589	0.00048483	0.00012065	757.99	3.8429e-06	3.5056e-06	823.9	276.87	5.6922e-06	5.0378e-06	327.67	105.43	90.843	43.483	5.9769e-06	54.568	0.00035364	0.00031226	8.5282e-05	783.42	3.3926e-06	3.3895e-06	850.96	286.63	3.478e-06	3.3743e-06	338.5	109.63	94.831	45.519	3.4251e-06	56.753	156.106	142.665	146.474	95.907	243.597	229.794	95.276	101.088	233.041	236.641	98.934	104.041	106.223	111.593	236.327	108.863	-8191	255	
1722.212	1	1	0	0	0.31263	0.038576	0.29692	0.05116	0.072349	0.14693	0.23578	0.10561	0.25725	0.064319	0.042651	0.068973	0.088966	0.15492	0.14728	0.23534	-1.6437	-1.7771	-2.6042	-1.8729	-2.3458	-2.5146	-1.8083	-2.6625	-2.2417	-1.8854	-2.7771	-2.0062	-2.1542	-2.9062	-1.9458	-2.6229	335.830	380.781	158.315	368.628	195.517	321.602	352.844	83.637	397.894	311.096	231.134	233.421	139.326	132.370	390.267	414.864	0.0006225	0.00042251	0.00017776	758.88	5.0031e-06	4.1306e-06	822.2	275.49	5.645e-06	6.6817e-06	326.89	105.83	91.382	43.59	2.9747e-06	54.435	0.00035057	0.00031631	8.6814e-05	784.11	3.3923e-06	3.3456e-06	849.37	285.81	3.3644e-06	3.2606e-06	338.78	110.04	94.955	45.499	3.3209e-06	56.642	154.962	164.186	195.013	95.971	204.459	232.603	95.038	101.158	235.576	265.516	99.057	103.793	106.251	111.502	222.924	108.907	-8191	255	
1722.283	1	1	0	0	0.21812	0.15458	0.16616	0.11089	0.11963	0.071039	0.059628	0.13643	0.091396	0.10576	0.20942	0.27535	0.032305	0.15961	0.20321	0.30639	-1.8062	-1.9354	-2.7646	-2.1688	-2.0604	-2.6854	-2.0667	-2.4083	-2.2646	-1.8833	-2.7313	-2.0521	-2	-2.7729	-1.9167	-2.3354	106.293	222.203	246.589	357.678	242.788	300.094	142.314	131.523	391.976	384.551	398.810	108.870	341.656	434.681	395.651	395.934	0.00060901	0.00024642	0.00011447	771.72	5.0491e-06	3.7263e-06	839.84	279.63	4.4601e-06	5.407e-06	331.14	106.47	91.838	43.611	4.7192e-06	53.924	0.00035498	0.00031584	8.8538e-05	798.28	3.4798e-06	3.508e-06	868.11	290.37	3.545e-06	3.4826e-06	342.58	110.56	95.623	45.484	3.5075e-06	56.365	153.251	184.150	195.206	96.117	179.754	260.461	94.706	101.145	224.968	221.338	98.730	104.047	106.201	111.607	219.332	108.765	-8191	255	
1722.404	1	1	0	0	0.19905	0.064558	0.12367	0.16524	0.20866	0.19413	0.34593	0.32722	0.089843	0.12556	0.12833	0.19961	0.024948	0.089867	0.21998	0.03827	-1.9896	-1.9146	-2.7958	-2.3625	-1.8583	-2.7062	-2.0104	-2.1229	-2.4479	-1.8917	-2.6458	-2.275	-1.8771	-2.6625	-1.9104	-2.1833	90.960	424.262	389.406	405.378	314.413	316.561	373.824	399.073	144.591	267.346	102.785	85.941	345.619	431.579	349.916	418.226	0.00064711	0.00054266	0.00011036	769.66	4.9779e-06	4.6922e-06	836.36	279.34	6.9932e-06	2.7718e-06	328.74	106.27	91.048	43.361	4.5158e-06	54.182	0.00035566	0.00031473	8.5086e-05	794.44	3.4221e-06	3.3486e-06	860.78	288.57	3.3367e-06	3.3155e-06	340.38	110.18	94.903	45.317	3.1684e-06	56.523	151.981	157.345	196.701	96.034	234.709	212.135	95.010	101.163	222.512	253.681	99.119	103.971	106.302	111.753	243.473	108.839	-8191	255	
1722.500	1	1	0	0	0.43464	0.16342	0.10142	0.063294	0.31118	0.19776	0.26087	0.23348	0.11126	0.21038	0.10021	0.20253	0.35059	0.05333	0.15163	0.31896	-2.1729	-1.7417	-2.4	-2.4542	-1.8813	-2.6833	-2.0521	-2.1417	-2.75	-1.9104	-2.3792	-2.2875	-1.925	-2.7938	-1.8854	-2.1688	158.509	200.465	170.150	215.052	131.748	96.700	409.640	412.320	330.749	409.096	428.711	193.590	438.764	263.388	231.697	418.856	0.00062105	0.00067838	0.00012999	748.3	4.9744e-06	5.2262e-06	808.87	270.84	5.1129e-06	5.588e-06	323.61	105.64	90.473	43.927	4.1213e-06	54.885	0.00032994	0.00027426	7.4779e-05	771.88	2.986e-06	2.9421e-06	833.45	281.58	2.9104e-06	2.9547e-06	334.2	109.75	94.226	45.86	2.9256e-06	57.276	154.543	168.040	169.628	96.216	209.104	225.436	95.110	101.318	215.335	233.696	99.204	104.402	106.292	111.847	252.807	109.028	-8191	255	
1722.596	1	1	0	0	0.054817	0.13481	0.16005	0.19675	0.022977	0.21644	0.20027	0.27139	0.26888	0.090357	0.35041	0.20463	0.20752	0.30626	0.091688	0.039998	-2.3812	-1.6146	-2.3417	-2.6021	-1.5833	-2.6917	-2.2417	-2.0312	-2.7667	-1.8146	-2.4125	-2.4708	-1.7812	-2.7292	-2.3625	-1.9708	355.337	369.347	186.862	325.650	309.813	198.627	390.787	343.977	186.813	420.790	105.988	98.016	367.412	151.518	377.256	293.087	0.00063639	0.00028716	0.00015148	744.02	4.3638e-06	3.7374e-06	805.1	272.99	4.5986e-06	2.5105e-06	325.15	106.67	91.533	44.809	3.6687e-06	55.806	0.00031541	0.00027001	7.2427e-05	766.46	2.9764e-06	2.8304e-06	830.01	282.35	2.8401e-06	2.9108e-06	335.64	110.76	95.07	46.556	2.8938e-06	58.022	154.483	161.892	185.620	96.148	232.391	236.679	95.270	101.189	207.654	237.358	99.318	104.113	106.168	111.798	238.732	109.081	-8191	255	
1722.717	1	1	0	0	0.14092	0.21176	0.26238	0.095066	0.074808	0.19002	0.13839	0.10824	0.049903	0.014547	0.061234	0.10432	0.11472	0.29481	0.11926	0.22274	-2.3083	-2.0208	-2.0271	-2.6562	-1.6812	-2.5667	-2.3125	-1.9937	-2.5604	-1.9771	-2.3312	-2.4979	-1.9625	-2.5438	-2.1646	-1.8438	386.212	342.476	303.728	416.733	252.237	307.835	357.519	380.923	376.115	231.503	373.006	231.139	379.656	85.911	361.904	380.539	0.00060564	0.00045502	0.00012252	745.21	4.156e-06	3.6892e-06	809.32	273.93	3.6761e-06	3.0877e-06	327.02	107.61	92.697	45.202	4.7455e-06	56.675	0.00031125	0.00025279	7.0777e-05	769.08	2.7487e-06	2.7295e-06	831.21	283.74	2.8282e-06	2.7354e-06	337.19	111.63	96.082	47.266	2.7539e-06	58.954	150.572	153.244	162.247	96.014	229.576	218.048	94.899	101.422	226.941	231.189	99.308	104.133	106.144	111.872	238.762	109.033	-8191	255	
1722.811	1	1	0	0	0.19428	0.09126	0.12015	0.13417	0.35148	0.36488	0.27079	0.32227	0.1404	0.099705	0.088599	0.25399	0.13138	0.12095	0.18472	0.31939	-2.1688	-1.825	-2.1458	-2.8917	-1.6979	-2.35	-2.5771	-2.0146	-2.7458	-2.0604	-2.3792	-2.6875	-1.8896	-2.5271	-2.4292	-1.6771	295.193	187.988	336.515	312.642	291.212	342.858	86.540	427.005	194.806	393.317	385.184	333.132	417.053	368.987	194.166	375.673	0.00064004	0.00034941	0.0001526	741.2	4.5359e-06	3.1115e-06	795.89	274.13	4.0245e-06	6.2751e-06	328.27	110.24	94.529	46.888	4.7027e-06	58.569	0.00030699	0.00024917	6.7818e-05	761.28	2.743e-06	2.6813e-06	819.29	283.65	2.7074e-06	2.6526e-06	338.35	113.91	98.205	48.958	2.6987e-06	60.889	153.437	152.076	169.147	95.978	252.025	236.539	95.466	101.388	220.896	242.265	99.321	104.323	106.033	111.828	251.347	109.086	-8191	255	
1722.885	1	1	0	0	0.15861	0.14535	0.085535	0.2607	0.22525	0.11721	0.22604	0.43947	0.057856	0.029228	0.17323	0.15541	0.14115	0.33926	0.21708	0.31167	-2.3937	-1.9667	-2.1208	-2.7083	-1.8917	-2.6021	-2.3979	-1.6229	-2.7542	-2.1104	-1.8333	-2.75	-1.9646	-2.3708	-2.55	-1.6771	214.585	348.738	300.840	395.101	191.222	92.951	93.397	396.917	101.812	101.512	293.206	383.653	198.636	351.528	252.535	98.196	0.00065984	0.00049717	0.00010561	741.52	5.8084e-06	3.8341e-06	803.03	277.41	4.2179e-06	5.6976e-06	332.27	112.29	96.815	47.876	4.4578e-06	59.696	0.00030532	0.00024457	6.819e-05	763.42	2.7479e-06	2.6617e-06	824.6	287.33	2.7208e-06	2.6937e-06	342.73	116.1	100.36	50.054	2.7161e-06	62.042	155.393	154.257	186.587	96.183	217.425	234.836	95.237	101.327	228.280	237.642	99.320	104.159	106.073	111.559	235.645	108.920	-8191	255	
1723.003	1	1	0	0	0.12765	0.083466	0.099983	0.068166	0.082485	0.11227	0.049906	0.086175	0.18789	0.11707	0.21856	0.36032	0.099916	0.033045	0.016614	0.10353	-2.2062	-2.1354	-1.6896	-2.8063	-1.9042	-2.0854	-2.7458	-1.8208	-2.4688	-2.3667	-2.0229	-2.6375	-2.0042	-2.3354	-2.6688	-2.1375	297.697	332.552	147.209	128.358	226.174	260.723	176.117	218.746	248.229	382.365	87.555	120.591	395.722	365.946	262.510	324.939	0.00069746	0.00036011	0.00016837	747.6	4.6364e-06	4.3141e-06	809.58	281.28	3.1625e-06	4.9954e-06	333.53	113.33	98.263	48.588	4.5335e-06	60.414	0.00031202	0.00024775	6.88e-05	770.37	2.6842e-06	2.682e-06	832.68	290.57	2.6647e-06	2.6451e-06	344.98	117.03	101.75	50.681	2.6188e-06	62.641	154.840	162.254	173.032	96.126	201.424	231.954	95.219	101.292	230.501	275.596	99.290	104.139	106.263	111.528	208.618	108.737	-8191	255	
1723.100	1	1	0	0	0.16764	0.080311	0.25473	0.34843	0.23113	0.079742	0.051722	0.20564	0.17062	0.050488	0.087752	0.040707	0.24237	0.23776	0.2861	0.26977	-2.0146	-2.3625	-1.7917	-2.8604	-2.1188	-1.9333	-2.6604	-1.9667	-2.5917	-2.3438	-2.0125	-2.8417	-1.9188	-2.0896	-2.6458	-1.9021	364.123	337.007	96.202	109.855	363.094	233.007	221.930	403.814	242.135	249.463	391.510	347.582	358.457	394.651	181.385	438.358	0.00071762	0.00052177	0.00012434	746.78	4.8441e-06	3.2848e-06	806.06	281.01	4.5201e-06	5.0537e-06	333.8	113.44	98.229	49.042	5.4191e-06	60.786	0.00030213	0.00023656	6.6577e-05	769.14	2.6291e-06	2.5945e-06	830.38	290.54	2.6519e-06	2.5832e-06	344.21	117.41	101.78	51.121	2.615e-06	63.068	153.293	171.882	157.390	96.036	226.751	234.082	95.281	101.457	226.184	212.233	99.095	104.059	106.061	111.372	213.256	108.663	-8191	255	
1723.196	1	1	0	0	0.30339	0.067716	0.35569	0.042637	0.23825	0.17868	0.12615	0.33456	0.32661	0.071433	0.32818	0.05492	0.086494	0.071689	0.26003	0.16417	-1.975	-2.4188	-1.6958	-2.9521	-2.2375	-1.8833	-2.925	-1.9958	-2.2604	-2.5563	-2.0083	-2.6708	-2.2625	-1.9833	-2.6792	-1.9979	122.098	157.274	346.115	117.876	85.481	92.289	419.411	389.682	148.631	360.838	198.988	328.602	411.912	136.725	93.499	410.846	0.00070829	0.00028221	0.00014064	743	3.683e-06	4.7312e-06	803.93	281.54	3.3653e-06	6.0844e-06	333.56	113.22	98.173	48.856	4.7195e-06	60.514	0.00030389	0.00022855	6.6875e-05	767	2.6454e-06	2.6454e-06	830.93	290.25	2.6871e-06	2.5812e-06	344.63	116.89	101.83	50.949	2.6533e-06	62.905	153.707	162.969	164.748	96.457	230.380	235.775	95.443	101.344	218.230	260.012	99.345	104.304	106.317	111.525	221.479	108.630	-8191	255	
1723.316	1	1	0	0	0.2785	0.11484	0.088841	0.27723	0.2162	0.070575	0.14639	0.20336	0.16022	0.065195	0.14863	0.20894	0.10523	0.063917	0.49109	0.016706	-1.9771	-2.6375	-1.8167	-2.8208	-2.4229	-1.7625	-2.9813	-2.125	-1.9896	-2.8958	-1.8937	-2.4958	-2.4479	-1.9937	-2.8	-2.2354	385.917	134.166	242.793	409.286	385.546	176.443	334.389	87.027	368.249	403.680	125.697	288.164	426.809	161.422	103.593	332.427	0.00067628	0.00046468	0.00010901	750.42	4.2047e-06	4.2119e-06	811.9	282.2	4.8818e-06	4.819e-06	335.52	113.22	98.812	49.296	5.6809e-06	60.692	0.0002977	0.00023646	6.7688e-05	773.27	2.5704e-06	2.5973e-06	835.97	291.7	2.5895e-06	2.5631e-06	345.85	117.64	102.37	51.333	2.5222e-06	63.201	152.083	152.627	166.981	96.403	249.552	241.606	95.121	101.152	230.141	244.114	99.154	103.908	105.900	111.469	232.090	108.416	-8191	255	
1723.413	1	1	0	0	0.033062	0.012682	0.19686	0.08143	0.087911	0.171	0.13137	0.1917	0.13001	0.15138	0.17279	0.20471	0.13883	0.2581	0.106	0.15791	-1.4667	-2.5521	-1.8292	-2.4688	-2.4521	-1.7146	-2.9042	-2.1813	-1.8687	-2.7292	-2.0396	-2.2729	-2.5792	-1.7333	-2.5375	-2.3021	95.265	114.378	401.028	388.378	279.438	365.575	310.899	361.040	147.298	252.821	362.046	414.125	391.119	403.821	302.476	400.912	0.00069862	0.00031457	0.0001517	762.27	5.3603e-06	3.9854e-06	824.82	285.03	4.2346e-06	3.8717e-06	337.86	114.21	99.331	49.367	5.4851e-06	60.705	0.00029678	0.00022563	6.2585e-05	785.22	2.4309e-06	2.4279e-06	850.44	294.52	2.5589e-06	2.4224e-06	348.64	118.32	103.11	51.496	2.5498e-06	63.223	155.375	159.971	184.716	95.893	212.458	223.142	95.301	101.135	235.047	275.263	98.920	104.030	105.863	111.327	265.313	108.533	-8191	255	
1723.509	1	1	0	0	0.13095	0.19887	0.063679	0.36967	0.14304	0.18196	0.16513	0.055729	0.09491	0.045112	0.21439	0.15487	0.13894	0.22065	0.1155	0.039453	-1.4542	-2.6458	-2.0667	-2.4542	-2.6083	-1.6417	-2.7042	-2.3646	-1.775	-2.7458	-2.0208	-1.8813	-2.5042	-1.9125	-2.3	-2.1292	121.297	105.771	215.643	352.664	436.704	282.546	317.195	106.900	333.317	95.767	441.579	341.280	169.023	97.195	405.632	339.298	0.00066907	0.00046428	5.4962e-05	776.78	5.3586e-06	4.8708e-06	852.01	289.87	4.7575e-06	5.6566e-06	342.39	113.65	99.06	47.636	3.9935e-06	58.307	0.00029745	0.00023486	6.6882e-05	800.65	2.7206e-06	2.7944e-06	878.42	300.17	3.0648e-06	3.0896e-06	353.7	117.9	103.04	49.826	3.7359e-06	60.719	154.617	160.578	188.111	96.266	206.294	228.418	95.105	100.938	224.925	235.502	98.867	103.633	105.698	111.266	235.552	108.378	-8191	255	
1723.580	1	1	0	0	0.16639	0.080366	0.17169	0.050028	0.48295	0.1374	0.28985	0.16599	0.26396	0.13023	0.19083	0.13162	0.22809	0.15141	0.040077	0.13951	-1.35	-2.7375	-1.7938	-2.0625	-2.6937	-1.9521	-2.5583	-2.325	-1.8875	-2.8021	-2.0417	-2.0208	-2.7354	-2.0042	-2.2542	-2.3542	330.522	270.906	135.165	440.523	390.610	364.352	367.885	233.351	424.855	332.108	435.212	413.711	367.554	348.912	91.759	437.865	0.00063878	0.00053157	0.00015407	797.84	5.732e-06	3.5323e-06	869.16	287.15	3.0947e-06	8.1167e-06	336.63	109.1	95.642	45.467	2.4895e-06	56.115	0.00041261	0.00039167	0.00011513	827.93	5.0551e-06	5.2524e-06	898.76	298.63	5.4638e-06	5.4353e-06	350.38	114.25	99.72	47.699	5.6814e-06	58.892	152.585	144.632	174.530	95.965	228.929	203.748	94.987	101.085	212.388	242.099	98.988	103.996	106.093	111.329	233.907	108.576	-8191	255	
1723.699	1	1	0	0	0.23849	0.26593	0.32517	0.13171	0.13506	0.2374	0.070012	0.24291	0.067847	0.57525	0.077456	0.22878	0.22641	0.26056	0.047488	0.15897	-1.3333	-2.6167	-2.1	-1.8792	-2.7104	-1.8833	-2.3833	-2.7583	-1.7667	-2.5583	-2.3271	-1.8792	-2.7938	-1.8208	-2.3312	-2.5771	356.816	240.861	403.586	342.600	173.324	264.739	392.928	441.218	118.566	199.786	420.466	88.529	294.725	441.300	145.859	432.344	0.00064386	0.0003733	0.00010938	774.24	3.713e-06	5.4781e-06	847.07	280.84	5.6976e-06	5.8929e-06	331.29	107.68	93.155	44.739	2.6492e-06	55.493	0.00055175	0.0005405	0.00015163	807.89	6.0361e-06	6.1081e-06	877	291.88	5.6601e-06	5.4526e-06	344.22	112.17	97.446	46.877	4.7979e-06	58.097	153.617	125.610	181.665	95.858	226.395	232.759	95.189	101.202	218.685	219.477	99.278	103.824	106.175	111.726	247.787	108.823	-8191	255	
1723.795	1	1	0	0	0.24784	0.15211	0.15237	0.30297	0.13279	0.16529	0.051354	0.17701	0.15087	0.15848	0.084302	0.22057	0.1044	0.2375	0.17005	0.23529	-1.4042	-2.6188	-2.0979	-2.0625	-2.5708	-1.9354	-2.5271	-2.6833	-1.6708	-2.3792	-2.4271	-1.9104	-2.4583	-1.9896	-2.0521	-2.6583	336.847	309.124	441.906	371.113	191.430	86.915	322.028	116.888	239.456	85.493	184.232	126.881	408.755	384.626	296.671	342.979	0.00067364	0.00033175	0.00011246	762.12	5.5857e-06	6.6766e-06	818.23	275.74	4.7206e-06	5.6116e-06	325.39	106.08	92.131	45.115	4.7944e-06	56.369	0.00042466	0.00037242	9.8265e-05	786.62	3.7123e-06	3.6156e-06	844.2	285.68	3.2957e-06	3.1699e-06	335.78	110.6	95.971	47.031	2.775e-06	58.677	156.212	140.315	139.302	95.966	221.643	228.639	95.023	101.308	209.011	241.327	98.849	104.057	106.369	111.738	234.261	108.641	-8191	255	
1723.892	1	1	0	0	0.16094	0.16046	0.42533	0.15152	0.21695	0.052513	0.27738	0.22676	0.067821	0.15473	0.051692	0.32898	0.38849	0.052214	0.071993	0.253	-1.3083	-2.3792	-2.2646	-2.1021	-2.7479	-2.0229	-2.0896	-3.0208	-1.7896	-2.4229	-2.6458	-1.9354	-2.7687	-2.1437	-1.9604	-2.7313	416.466	274.202	263.589	402.830	172.028	317.566	278.401	306.305	307.587	407.511	382.208	434.299	425.059	398.882	251.630	397.652	0.00064693	0.00031613	0.00012492	729.54	4.1975e-06	5.0659e-06	792.48	272.17	4.7084e-06	2.8674e-06	323.74	108.85	93.941	46.054	4.8682e-06	57.551	0.00029731	0.00023395	6.5819e-05	752.6	2.5559e-06	2.5807e-06	816.35	281.53	2.5664e-06	2.4977e-06	335.3	112.72	97.804	48.269	2.6236e-06	59.884	154.919	169.844	145.803	96.306	241.202	241.989	95.297	101.418	200.397	214.170	99.320	104.247	106.325	111.755	223.597	108.990	-8191	255	
1723.988	1	1	0	0	0.2244	0.19626	0.12623	0.23281	0.1595	0.34173	0.15205	0.16652	0.10411	0.21783	0.20757	0.40363	0.2625	0.13317	0.29269	0.23019	-1.5208	-2.2938	-2.4062	-2.0729	-2.5458	-2.3	-1.9604	-2.8354	-1.6708	-2.3771	-2.5812	-1.6854	-2.7	-2.3521	-1.7729	-2.6458	420.399	216.616	245.897	93.267	387.258	350.520	433.389	124.461	154.686	329.912	391.523	408.192	108.454	422.674	94.772	346.746	0.0006423	0.00036248	0.0001581	745.39	4.1791e-06	4.8811e-06	801.6	276.54	7.1108e-06	3.965e-06	327.26	110.05	95.263	46.704	6.1643e-06	58.107	0.00028726	0.00022853	6.3095e-05	768.36	2.4722e-06	2.4508e-06	828.02	286.17	2.5386e-06	2.5085e-06	338.66	114.05	98.853	48.799	2.5892e-06	60.405	152.904	145.767	172.689	95.981	208.665	228.448	95.016	101.572	224.494	249.889	99.281	104.060	106.483	111.830	225.733	109.021	-8191	255	
1724.108	1	1	0	0	0.41348	0.022116	0.11536	0.12998	0.18695	0.33076	0.13494	0.021237	0.1761	0.11577	0.036227	0.11417	0.20934	0.1864	0.15038	0.29728	-1.5875	-1.8396	-2.5792	-1.7958	-2.5062	-2.3229	-1.9688	-2.5896	-1.9062	-2.1042	-2.775	-1.6542	-2.5104	-2.5958	-1.6521	-2.6479	185.843	228.959	155.953	419.705	350.113	361.191	339.272	345.297	273.521	375.727	387.044	418.575	401.698	89.693	368.299	351.289	0.00067191	0.00034163	0.00012561	750.2	4.396e-06	4.0804e-06	805.81	276.5	5.6987e-06	6.2211e-06	327.51	111.31	95.323	47.631	4.3296e-06	59.68	0.00028994	0.0002331	6.42e-05	772.46	2.5309e-06	2.5346e-06	829.64	285.94	2.5915e-06	2.5591e-06	338.05	114.94	99.379	49.863	2.5559e-06	62.018	155.699	146.749	195.394	96.282	214.413	245.008	95.366	101.457	216.346	226.529	99.262	104.223	106.603	111.929	202.374	109.065	-8191	255	
1724.180	1	1	0	0	0.23454	0.17955	0.12006	0.049582	0.088899	0.085712	0.28783	0.22522	0.089251	0.039401	0.28314	0.21071	0.31273	0.2875	0.23337	0.17776	-1.8542	-1.9417	-2.5833	-1.9	-2.4229	-2.2521	-1.9104	-2.8229	-1.9896	-1.775	-2.5771	-1.8479	-2.4979	-2.5708	-1.6792	-2.7687	280.625	132.112	118.592	361.467	209.711	243.065	410.114	351.126	258.741	309.889	105.864	159.378	426.565	422.841	281.412	386.538	0.0007019	0.00045015	0.00013459	733	4.1919e-06	5.5577e-06	785.4	275.71	7.0306e-06	4.4555e-06	327.27	111.59	96.273	48.426	4.0977e-06	60.104	0.00028631	0.00022433	6.2222e-05	755.21	2.3988e-06	2.3774e-06	809.74	283.59	2.4623e-06	2.4017e-06	337.62	115.46	100.04	50.516	2.4147e-06	62.378	154.453	180.184	181.443	96.143	232.535	223.637	95.545	101.583	232.788	209.768	99.480	104.164	106.383	111.752	233.224	109.132	-8191	255	
1724.276	1	1	0	0	0.053577	0.13974	0.35285	0.07739	0.18421	0.06144	0.15334	0.10968	0.083065	0.34731	0.1108	0.19662	0.10444	0.27418	0.05622	0.31071	-1.85	-1.7875	-2.7542	-1.9792	-2.0687	-2.5583	-1.8813	-2.5667	-2.2917	-1.675	-2.7854	-1.7708	-2.3479	-2.8917	-1.5917	-2.7938	210.960	126.105	119.168	384.396	178.089	243.379	88.500	326.495	213.570	253.485	89.959	427.424	105.497	116.956	377.989	413.694	0.00067382	0.00040632	0.00011337	746.4	5.9583e-06	3.8204e-06	803.71	280.36	5.122e-06	4.8396e-06	333.06	112.54	97.575	48.697	4.3782e-06	59.934	0.00028069	0.00021784	6.0436e-05	766.85	2.3654e-06	2.3553e-06	826.26	289.13	2.4088e-06	2.3301e-06	342.95	116.62	101.34	50.772	2.5072e-06	62.532	153.314	148.543	201.171	96.088	221.062	195.560	95.329	101.578	213.600	230.018	99.211	104.129	106.498	111.901	221.113	109.197	-8191	255	
1724.397	1	1	0	0	0.21757	0.19151	0.10049	0.2188	0.088751	0.11008	0.0052627	0.3542	0.39349	0.13665	0.089013	0.36423	0.18646	0.46631	0.24644	0.27441	-1.9271	-1.7167	-2.7125	-2.2229	-2.2167	-2.4104	-1.9146	-2.7	-2.3021	-1.7458	-2.6979	-2.1771	-1.9917	-2.8167	-2.0083	-2.625	271.815	417.003	376.598	88.756	125.710	298.119	422.290	86.431	286.759	394.183	302.734	396.965	386.885	439.291	174.792	99.659	0.00066468	0.00034878	8.204e-05	746.04	4.5261e-06	3.3474e-06	804.95	280.52	5.2474e-06	6.1586e-06	334.43	112.83	97.774	48.694	5.6435e-06	60.294	0.00028406	0.0002165	5.9177e-05	770.69	2.3504e-06	2.3351e-06	829.58	290.18	2.4206e-06	2.3721e-06	343.66	116.81	101.4	50.761	2.4417e-06	62.528	156.535	171.359	177.027	96.425	243.670	207.813	95.449	101.655	226.542	237.681	99.383	103.924	106.684	111.648	232.124	108.977	-8191	255	
1724.493	1	1	0	0	0.1169	0.13424	0.031817	0.13807	0.10912	0.20877	0.36411	0.15149	0.051669	0.23104	0.066828	0.13825	0.259	0.32904	0.39026	0.12012	-2.0042	-1.9312	-2.7396	-2.1021	-2.0563	-2.8979	-2.0229	-2.3708	-2.6437	-1.8937	-2.5896	-2.3812	-2.0125	-2.7729	-1.8292	-2.4729	99.739	125.724	433.756	407.142	340.223	241.310	369.090	388.861	318.045	384.862	280.024	264.681	237.441	90.007	396.869	405.901	0.00069916	0.00052237	0.00013598	755.01	5.8178e-06	6.1751e-06	808.9	282.2	5.4495e-06	3.9041e-06	334.23	113.12	98.418	48.911	4.6633e-06	60.792	0.000287	0.00021769	5.8137e-05	777.88	2.3929e-06	2.2786e-06	834.44	291.44	2.3627e-06	2.3716e-06	344.47	117.13	102.01	51.088	2.3078e-06	63.209	149.741	169.530	181.687	96.499	215.915	219.018	95.479	101.642	212.294	266.786	99.468	104.467	106.450	111.683	243.979	108.914	-8191	255	
1724.589	1	1	0	0	0.15241	0.092864	0.15309	0.17206	0.094977	0.10188	0.19427	0.17951	0.15979	0.18867	0.24675	0.10819	0.28859	0.27574	0.082826	0.27627	-2.0542	-1.5125	-2.6771	-2.4875	-2.0583	-2.8187	-1.9583	-2.3625	-2.6083	-1.8729	-2.6312	-2.3417	-1.9125	-2.9646	-1.9792	-2.2125	322.885	247.656	207.619	101.547	329.697	281.501	394.560	368.952	368.172	241.505	403.039	404.263	409.769	442.611	116.664	371.625	0.00067546	0.00038497	0.00011904	746.18	3.6003e-06	4.6681e-06	805.56	281.52	5.0023e-06	4.4181e-06	333.41	113.14	98.323	49.047	4.5618e-06	60.775	0.00027689	0.00020803	5.7654e-05	769.79	2.3422e-06	2.3003e-06	830.83	290.41	2.3967e-06	2.3792e-06	344.16	117.45	101.99	51.184	2.4066e-06	63.268	152.642	144.361	185.346	96.284	226.845	221.319	95.426	101.623	218.826	240.860	99.562	104.210	106.523	111.694	238.493	109.090	-8191	255	
1724.685	1	1	0	0	0.11052	0.23003	0.16938	0.2629	0.093974	0.16675	0.26541	0.12515	0.27943	0.087339	0.40629	0.16356	0.31086	0.048344	0.20445	0.2316	-2.4562	-1.5833	-2.4917	-2.4583	-1.7625	-2.6375	-2.25	-2.0146	-2.6896	-2.0229	-2.4354	-2.6854	-1.8021	-2.5792	-1.9604	-2.1708	215.575	136.633	109.113	85.787	165.327	168.377	314.796	394.589	86.256	83.612	391.431	369.006	220.648	332.006	282.232	373.524	0.00068061	0.00055914	8.9791e-05	753.32	4.6934e-06	4.6845e-06	808.71	281.73	4.568e-06	5.5442e-06	336.79	113.62	99.111	48.969	5.6229e-06	60.483	0.00027633	0.00021547	5.8895e-05	774.21	2.3349e-06	2.2964e-06	833.51	291.28	2.4021e-06	2.3178e-06	346.29	117.57	102.46	51.039	2.4137e-06	62.922	155.869	155.452	171.074	96.332	215.160	224.535	95.588	101.493	224.290	249.893	99.405	104.237	106.539	111.824	246.521	109.085	-8191	255	
1724.781	1	1	0	0	0.27464	0.022006	0.25997	0.12528	0.093377	0.21424	0.080623	0.10237	0.14826	0.23574	0.30248	0.2758	0.30382	0.051524	0.32394	0.15218	-2.1896	-1.9917	-2.1688	-2.5833	-1.9542	-2.5146	-2.4437	-2.0396	-2.8458	-1.8833	-2.3187	-2.7792	-1.6646	-2.4313	-2.2458	-2.0875	391.594	269.819	370.415	261.363	164.251	121.424	357.121	366.357	102.391	91.279	359.926	92.626	400.157	417.515	436.608	199.205	0.00072436	0.0003453	0.00011323	760.11	4.2831e-06	4.4484e-06	814.58	282.86	5.4902e-06	8.2034e-06	335.4	113.5	99.081	48.871	4.2132e-06	60.554	0.00028015	0.0002153	5.8823e-05	780.85	2.3617e-06	2.2534e-06	838.43	292.54	2.3168e-06	2.3072e-06	345.68	117.41	102.42	51.047	2.363e-06	62.853	154.826	176.727	166.823	96.301	231.113	212.616	95.670	101.726	236.452	257.317	99.734	104.642	106.637	112.047	248.948	109.162	-8191	255	
1724.876	1	1	0	0	0.10475	0.32223	0.2213	0.040006	0.066426	0.18725	0.27527	0.30346	0.18634	0.13489	0.13563	0.2138	0.36238	0.19028	0.10674	0.32011	-2.4188	-2.0021	-2.1312	-2.8063	-1.6917	-2.6917	-2.5021	-1.9292	-2.9	-2.2083	-2.1562	-2.7208	-2.0896	-2.4917	-2.3625	-2.0604	147.781	208.822	268.817	368.448	333.911	298.292	397.717	397.747	163.546	378.088	314.605	92.801	110.603	377.901	111.678	86.227	0.00068102	0.000468	0.00012788	752.39	4.8837e-06	4.3889e-06	810.25	281.66	5.0409e-06	4.7899e-06	332.43	113.46	98.345	49.391	3.9911e-06	61.048	0.0002766	0.00021325	5.8139e-05	775.24	2.3593e-06	2.2704e-06	831.1	290.26	2.3206e-06	2.2692e-06	343.32	117.51	102.29	51.477	2.3029e-06	63.378	153.501	146.732	178.281	96.387	243.285	255.205	95.607	101.723	229.712	234.474	99.812	104.361	106.345	111.943	203.314	109.123	-8191	255	
1724.996	1	1	0	0	0.16346	0.045358	0.21572	0.33666	0.34277	0.17419	0.23192	0.14722	0.040665	0.23879	0.29832	0.19127	0.27615	0.10749	0.10329	0.34875	-2.2333	-1.925	-2.1125	-2.6292	-1.6792	-2.6521	-2.5708	-1.9729	-2.7	-2.1854	-1.9188	-2.8417	-2.1021	-2.4021	-2.6312	-1.8583	121.846	238.321	358.755	163.170	296.680	391.597	396.460	343.752	141.069	292.016	440.271	423.178	361.916	427.410	184.751	343.610	0.0007021	0.00029283	0.00011088	749.38	5.5334e-06	4.6293e-06	808.99	282.22	6.4514e-06	5.499e-06	334.97	114.21	99.156	49.398	5.1451e-06	60.997	0.00027435	0.00020733	5.8283e-05	772.74	2.315e-06	2.2291e-06	832.64	292.26	2.2801e-06	2.2537e-06	345.26	118.16	102.79	51.558	2.2512e-06	63.448	154.061	167.466	200.328	96.342	241.923	208.642	95.335	101.491	230.438	271.752	99.259	104.076	106.073	111.701	234.591	108.727	-8191	255	
1725.093	1	1	0	0	0.076319	0.15925	0.30513	0.25218	0.1469	0.043258	0.18228	0.14654	0.18451	0.24809	0.048723	0.19757	0.2278	0.03503	0.1385	0.14688	-2.2958	-2.3125	-1.6854	-2.975	-2.0187	-2.3729	-2.65	-1.7687	-2.5146	-2.25	-2.0104	-2.7229	-2.1729	-2.2271	-2.6458	-2.0542	360.525	132.534	230.508	410.140	309.012	208.747	348.053	378.028	348.838	268.356	358.173	372.777	346.978	424.628	162.677	303.578	0.00069719	0.00021134	9.7999e-05	762.07	3.8041e-06	4.311e-06	822.25	287.67	5.8953e-06	5.1462e-06	340.13	114.9	100.16	49.755	6.003e-06	61.404	0.00027409	0.00020212	5.6774e-05	785.82	2.2455e-06	2.2594e-06	845.87	296.06	2.2848e-06	2.2271e-06	349.22	119.08	103.71	51.849	2.31e-06	63.718	154.531	165.489	176.553	96.284	224.517	222.868	95.393	101.478	220.787	242.087	99.420	104.436	105.963	111.637	243.693	108.836	-8191	255	
1725.189	1	1	0	0	0.099574	0.25974	0.14295	0.13188	0.11258	0.022067	0.14729	0.27975	0.14952	0.051655	0.1273	0.19213	0.092252	0.10621	0.026339	0.16058	-2.1562	-2.2042	-1.9375	-2.675	-2.0312	-2.1271	-2.5687	-2.0542	-2.3771	-2.2354	-1.8917	-2.6417	-2.1271	-2.1333	-2.675	-2.0187	225.630	109.212	256.869	361.374	91.503	87.229	87.158	395.926	393.732	146.728	240.000	389.166	409.479	247.677	308.784	402.537	0.00070151	0.00049511	0.00010928	761.68	4.1726e-06	3.4987e-06	820.37	286.19	5.8265e-06	6.5483e-06	337.92	114.81	100.09	49.994	4.9427e-06	61.448	0.00027038	0.00020381	5.7908e-05	782.65	2.2382e-06	2.2753e-06	842.24	294.96	2.338e-06	2.2534e-06	348.63	118.94	103.6	51.894	2.3372e-06	63.611	152.975	160.470	153.035	96.252	228.422	231.223	95.180	101.197	228.929	250.746	98.889	103.854	106.182	111.663	241.614	108.731	-8191	255	
1725.285	1	1	0	0	0.10632	0.037229	0.24156	0.11376	0.12514	0.23111	0.21288	0.048085	0.11869	0.16566	0.14298	0.19208	0.09267	0.061948	0.087512	0.24678	-1.7708	-2.2229	-1.8896	-2.5312	-1.9542	-1.9646	-2.5687	-2.1042	-2.2667	-2.2875	-2.0521	-2.425	-2.2979	-1.8417	-2.6875	-1.9875	231.251	86.806	318.736	259.535	252.230	368.490	360.935	296.622	165.773	263.818	140.211	269.181	162.992	202.027	206.678	141.852	0.00066912	0.00045488	0.0001365	766.38	5.4758e-06	5.1751e-06	823.53	285.8	5.9664e-06	4.1508e-06	338.75	115.55	100.29	49.519	4.321e-06	61.099	0.00027993	0.00020924	5.9186e-05	786.5	2.39e-06	2.2995e-06	849.72	296.26	2.3794e-06	2.3128e-06	350.37	119.32	103.74	51.661	2.3916e-06	63.583	153.052	137.733	164.677	95.975	226.999	235.620	95.251	101.079	236.239	244.015	99.260	104.281	105.799	111.636	235.632	108.653	-8191	255	
1725.405	1	1	0	0	0.0726	0.23561	0.10186	0.15887	0.071197	0.26331	0.083995	0.20787	0.10717	0.22507	0.13491	0.13901	0.18853	0.11194	0.17016	0.21248	-1.7396	-2.6188	-1.7792	-2.7333	-2.3458	-1.9292	-2.6396	-2.0354	-2.0958	-2.4771	-1.8062	-2.65	-2.4271	-1.7896	-2.5625	-2.2188	221.461	176.479	391.011	290.868	161.426	350.692	408.416	403.463	411.523	346.391	408.094	416.816	252.045	376.277	114.707	356.010	0.00067308	0.00042432	0.0001429	767.19	5.797e-06	3.7902e-06	828.01	287.81	5.1423e-06	3.5962e-06	339.67	115.59	100.36	49.568	3.642e-06	61.36	0.00028585	0.00021394	6.0764e-05	789.71	2.39e-06	2.3598e-06	852.87	296.76	2.4274e-06	2.3312e-06	350.97	119.66	103.97	51.697	2.473e-06	63.526	154.798	150.201	158.663	96.178	221.628	216.152	95.129	101.180	226.623	239.032	99.059	104.182	106.037	111.429	226.945	108.567	-8191	255	
1725.477	1	1	0	0	0.17207	0.079967	0.39488	0.13752	0.25042	0.17447	0.14132	0.10649	0.093915	0.068132	0.23762	0.20738	0.058246	0.17904	0.12728	0.12686	-1.6979	-2.4354	-1.7458	-2.4979	-2.3083	-1.8667	-2.6792	-2.2146	-1.9604	-2.8417	-1.9271	-2.4771	-2.5604	-1.9042	-2.5625	-2.15	420.352	210.862	258.159	127.094	113.940	278.157	404.990	108.484	101.194	142.110	346.752	422.576	439.267	280.030	426.089	398.266	0.0006439	0.00057483	0.00011258	773.16	4.6107e-06	5.8798e-06	834.01	289.32	5.4337e-06	9.4651e-06	340.88	115.59	100.09	49.594	5.2718e-06	61.378	0.00028314	0.00022216	6.2116e-05	797.36	2.3918e-06	2.4008e-06	859.76	298.73	2.4631e-06	2.3114e-06	351.63	119.71	104.03	51.794	2.4036e-06	63.771	153.780	163.052	179.846	96.134	205.480	218.293	95.288	101.167	225.805	232.157	98.957	103.857	105.837	111.609	228.900	108.497	-8191	255	
1725.573	1	1	0	0	0.18211	0.1065	0.12345	0.19976	0.054988	0.079295	0.11333	0.29135	0.20752	0.18959	0.20598	0.21598	0.18267	0.27442	0.17318	0.33837	-1.6333	-2.9062	-1.925	-2.4625	-2.3896	-1.8042	-2.8729	-2.2708	-1.8833	-2.7188	-1.875	-2.2729	-2.5479	-2.1479	-2.6792	-2.5354	325.881	109.470	231.466	142.450	408.019	261.110	388.407	374.628	222.249	348.998	107.878	427.376	93.958	87.009	181.210	86.249	0.00072621	0.00036574	0.00016344	761.87	5.983e-06	5.0969e-06	816.6	284.88	4.8852e-06	3.5041e-06	337.55	115.8	99.772	50.253	5.6768e-06	62.147	0.00028604	0.00020764	6.026e-05	785.17	2.299e-06	2.2819e-06	841.81	295.13	2.4596e-06	2.3289e-06	348.74	119.44	103.64	52.244	2.4161e-06	64.452	156.304	160.612	162.168	95.873	219.403	197.054	95.605	101.119	211.658	286.268	99.114	104.026	106.176	111.460	247.774	108.758	-8191	255	
1725.669	1	1	0	0	0.14145	0.10375	0.14628	0.1183	0.25084	0.1757	0.24428	0.20069	0.063645	0.066384	0.1058	0.12609	0.20609	0.26527	0.13506	0.30305	-1.4042	-2.7375	-1.9646	-2.3458	-2.6937	-1.8042	-2.5083	-2.4771	-1.9271	-2.5417	-1.9875	-2.3229	-3.025	-1.8813	-2.3375	-2.7562	425.484	91.829	142.224	170.511	155.676	341.033	407.476	354.989	296.406	159.817	98.984	288.585	398.380	364.518	160.856	335.315	0.00069147	0.00037938	9.5225e-05	746.44	3.8052e-06	3.9059e-06	806.59	282.13	5.3774e-06	4.1072e-06	333.6	115.46	99.388	50.75	4.7691e-06	62.96	0.00028547	0.00021299	5.9784e-05	771.41	2.3832e-06	2.3799e-06	828.63	291.3	2.48e-06	2.397e-06	345.45	119.56	103.28	52.836	2.3884e-06	65.483	155.990	138.513	202.157	96.464	214.612	225.172	95.568	101.345	219.268	235.599	99.318	104.146	106.363	111.555	233.388	108.628	-8191	255	
1725.766	1	1	0	0	0.11358	0.24337	0.070086	0.077187	0.22743	0.18487	0.16337	0.27898	0.25242	0.086934	0.017658	0.22765	0.20129	0.1157	0.23877	0.032287	-1.5083	-2.7667	-1.9562	-2.1729	-2.7458	-1.8625	-2.6646	-2.5042	-1.5271	-2.6063	-2.3104	-2.1458	-2.6792	-1.9125	-2.2562	-2.5542	145.248	170.885	355.614	266.497	212.579	437.627	375.897	357.233	170.342	171.067	198.431	420.131	150.010	372.247	189.428	301.290	0.00068365	0.00049931	0.00014813	738.6	3.0867e-06	4.1988e-06	796.61	280.32	3.6464e-06	6.9227e-06	336.29	116.04	99.889	51.113	5.9923e-06	63.275	0.00028199	0.00021547	5.8578e-05	760.98	2.3465e-06	2.3871e-06	822.84	290.15	2.4233e-06	2.3277e-06	345.32	120	103.61	53.213	2.45e-06	65.79	154.617	152.381	189.208	96.335	238.174	231.043	95.594	101.435	218.069	235.208	99.193	104.198	106.195	111.720	225.663	108.644	-8191	255	
1725.884	1	1	0	0	0.037599	0.26361	0.10767	0.3091	0.068713	0.4448	0.12538	0.17864	0.084857	0.12347	0.06357	0.16107	0.21098	0.39471	0.19028	0.16599	-1.2583	-2.5771	-2.3563	-2.0729	-2.7958	-1.8896	-2.2417	-2.9771	-1.8687	-2.4292	-2.4	-2.025	-2.7521	-2.1208	-2.2333	-2.7167	265.923	208.075	84.319	421.908	104.107	353.826	416.433	88.976	200.141	431.797	372.592	192.184	438.370	365.548	192.903	329.575	0.00072132	0.00062134	9.9027e-05	737.88	4.4357e-06	4.0664e-06	802.53	282.06	4.9468e-06	3.5024e-06	336.18	115.38	100.06	50.338	6.3398e-06	62.373	0.00029319	0.00021842	5.9918e-05	760.04	2.4428e-06	2.3935e-06	825.7	291.67	2.478e-06	2.4188e-06	347.21	119.63	103.68	52.627	2.406e-06	64.831	153.786	166.128	173.008	96.511	237.650	233.739	95.538	101.447	217.645	221.052	99.226	104.150	106.356	111.425	226.184	108.708	-8191	255	
1725.981	1	1	0	0	0.026	0.11611	0.10754	0.20279	0.42391	0.0098319	0.25556	0.26329	0.068539	0.16918	0.12491	0.1936	0.13416	0.095306	0.22351	0.2347	-1.3167	-2.6562	-2.4938	-1.9062	-2.7583	-2.0375	-2.3771	-2.6417	-1.7313	-2.3979	-2.525	-1.9979	-2.8583	-2.3	-2.1437	-2.9083	347.631	236.293	360.509	167.132	373.362	209.386	396.026	347.251	221.485	426.841	436.361	393.773	232.903	150.442	406.497	414.307	0.00075853	0.00051221	0.00013305	749.05	4.5359e-06	5.6016e-06	809.19	282.4	4.8807e-06	5.8772e-06	335.44	115.42	99.692	50.238	6.1557e-06	62.378	0.00029305	0.00021998	6.0723e-05	771.37	2.4131e-06	2.3952e-06	831.37	292.2	2.512e-06	2.376e-06	346.38	119.36	103.35	52.522	2.4869e-06	64.844	155.137	179.647	178.453	96.371	210.567	234.791	95.439	101.558	234.911	245.485	99.347	104.212	106.201	111.335	228.838	108.898	-8191	255	
1726.077	1	1	0	0	0.27982	0.060018	0.22884	0.045389	0.19095	0.16862	0.085901	0.39081	0.34287	0.17696	0.20515	0.16372	0.15296	0.22114	0.23991	0.21729	-1.325	-2.5271	-2.4667	-1.9875	-2.75	-2.3312	-2.1937	-2.8479	-1.95	-2.3979	-2.8729	-1.9375	-2.6646	-2.4917	-1.7333	-2.7896	102.342	426.701	128.100	167.284	119.819	240.346	287.040	392.637	175.613	394.781	419.005	443.259	210.327	90.665	213.024	437.575	0.00071813	0.00043692	0.00013209	742.84	5.1894e-06	3.4536e-06	806.4	281.89	4.9803e-06	8.5134e-06	335.14	114.9	99.615	50.494	5.1761e-06	62.482	0.00029245	0.00021626	6.0279e-05	767.28	2.4324e-06	2.3914e-06	830.29	291.61	2.4871e-06	2.3628e-06	346.08	119.36	103.37	52.649	2.5134e-06	65.126	156.400	144.848	169.011	96.373	249.485	234.276	95.587	101.431	212.740	249.397	99.440	104.184	106.318	111.532	246.202	108.893	-8191	255	
1726.173	1	1	0	0	0.084206	0.079102	0.1419	0.21693	0.25114	0.060503	0.29729	0.27105	0.089608	0.13079	0.18538	0.14518	0.19332	0.29511	0.12214	0.11588	-1.7563	-1.9937	-2.6271	-1.9125	-2.4188	-2.075	-1.95	-2.8812	-2.1729	-2.2271	-2.4938	-2.05	-2.475	-2.5271	-1.9708	-2.7958	91.224	416.235	237.366	358.007	350.449	307.808	370.095	417.026	434.370	89.913	394.247	398.717	303.788	407.137	264.834	152.696	0.00071232	0.00040248	9.5415e-05	739.48	3.9144e-06	3.8816e-06	798.38	281.19	5.2239e-06	4.1977e-06	333.63	114.49	99.289	50.175	5.4192e-06	62.562	0.0002891	0.00022114	6.014e-05	763.19	2.3943e-06	2.3888e-06	823.69	290.49	2.4541e-06	2.36e-06	344.78	119.05	102.74	52.4	2.4076e-06	64.898	155.630	158.101	182.431	96.433	211.660	222.994	95.412	101.343	229.032	261.974	99.271	104.068	106.550	111.749	227.507	108.943	-8191	255	
1726.269	1	1	0	0	0.24637	0.28217	0.029122	0.11587	0.38162	0.18822	0.1892	0.099095	0.23203	0.12554	0.31169	0.13472	0.32171	0.09053	0.13528	0.19291	-1.5063	-2.0604	-2.6146	-2.0458	-2.5125	-2.3646	-2.0083	-2.8708	-2.1271	-2.0438	-2.5563	-2.0646	-2.6	-2.4542	-1.6208	-2.9396	337.028	348.538	366.245	137.509	440.429	96.530	361.155	322.466	161.161	259.445	391.164	429.611	151.157	133.381	378.892	342.824	0.0007061	0.00075841	0.0001184	737.32	4.2502e-06	3.367e-06	800.51	279.84	4.7359e-06	3.435e-06	335.17	115.21	99.649	50.361	3.8299e-06	62.426	0.00028605	0.00021556	5.9119e-05	760.38	2.328e-06	2.3442e-06	823.55	290.39	2.3403e-06	2.3701e-06	345.1	119.21	103.07	52.454	2.3278e-06	64.843	155.421	167.956	163.403	96.484	234.941	232.529	95.492	101.473	222.442	251.188	99.193	104.335	106.571	111.558	239.041	108.811	-8191	255	
1726.365	1	1	0	0	0.18959	0.15794	0.28443	0.20755	0.28824	0.26725	0.11919	0.18949	0.24167	0.023518	0.27102	0.28269	0.27697	0.53162	0.22998	0.1053	-1.5896	-2.0167	-2.4375	-2.0771	-2.375	-2.6208	-1.9792	-2.525	-2.275	-1.8271	-2.925	-1.9458	-2.3063	-2.6833	-1.8625	-2.6229	163.207	232.854	99.652	365.085	188.568	368.911	357.776	147.103	328.670	88.927	87.241	395.572	115.764	408.960	125.164	356.612	0.00073249	0.00032797	8.2626e-05	735.47	4.4653e-06	4.3473e-06	795.79	279.95	4.3654e-06	5.0534e-06	334.31	115.91	99.821	50.647	4.3939e-06	63.137	0.00027959	0.0002073	5.7315e-05	756.09	2.3072e-06	2.2498e-06	818.25	289.85	2.2583e-06	2.2342e-06	345.68	119.73	103.35	52.718	2.3456e-06	65.619	155.584	152.155	195.421	96.406	215.388	254.139	95.496	101.452	230.581	221.013	99.134	104.091	106.198	111.600	236.759	108.803	-8191	255	
1726.486	1	1	0	0	0.15376	0.1849	0.17258	0.24801	0.26949	0.10653	0.25046	0.34328	0.25306	0.12502	0.17089	0.15525	0.12741	0.040144	0.095595	0.18228	-1.9625	-1.7625	-2.7562	-2.2708	-2.1354	-2.7438	-1.9104	-2.6729	-2.55	-1.9167	-2.7958	-2.0896	-2.1479	-2.9208	-1.8	-2.5417	443.107	298.152	316.374	421.445	400.885	103.935	397.293	438.716	375.141	154.109	205.830	398.197	388.438	178.854	367.195	338.983	0.00069972	0.00044947	0.00014295	732.53	3.8084e-06	6.1982e-06	793.02	280.17	5.7613e-06	5.2158e-06	335.53	116.24	99.553	50.918	5.2082e-06	63.639	0.00027494	0.00020763	5.5212e-05	754.18	2.2972e-06	2.1982e-06	816.8	289.68	2.2359e-06	2.2312e-06	346.41	120.42	103.46	53.127	2.3601e-06	66.178	153.375	133.908	190.085	96.042	211.434	246.665	95.246	101.392	210.079	233.595	99.414	103.898	106.126	111.405	223.300	108.712	-8191	255	
1726.582	1	1	0	0	0.2424	0.34048	0.24294	0.055126	0.34673	0.25007	0.061894	0.20668	0.01237	0.068342	0.23673	0.33093	0.14735	0.25177	0.27355	0.22532	-2.1104	-1.6958	-2.6	-2.1625	-2.1125	-2.7313	-1.9833	-2.5271	-2.6708	-2.0062	-2.7625	-2.1333	-1.9438	-2.8979	-1.975	-2.3312	235.710	92.775	237.898	333.455	160.254	373.687	215.859	406.584	139.176	254.947	419.575	356.427	288.400	402.063	120.516	339.105	0.00071342	0.00052961	0.00012164	732.91	4.5159e-06	2.9892e-06	794.41	280.05	4.5621e-06	4.7589e-06	337.85	116.59	100.01	50.819	5.9102e-06	63.304	0.00027958	0.00021483	5.8645e-05	755.51	2.3458e-06	2.2743e-06	819.36	290.16	2.3329e-06	2.2639e-06	347.29	120.54	103.64	53.016	2.3972e-06	65.818	156.212	156.330	182.525	95.882	227.736	232.273	95.558	101.612	223.747	274.206	99.152	104.031	106.157	111.381	230.271	108.724	-8191	255	
1726.678	1	1	0	0	0.20642	0.0084125	0.19374	0.069414	0.13526	0.18266	0.082417	0.28591	0.062648	0.2654	0.017806	0.17817	0.2487	0.30773	0.14336	0.18227	-2.1958	-1.8667	-2.4938	-2.3979	-1.8646	-2.6458	-2.0708	-2.4521	-2.5354	-1.7479	-2.7583	-2.3479	-1.8542	-2.8708	-1.9979	-2.2875	226.212	312.844	318.601	428.914	363.146	197.016	284.617	345.200	211.890	338.122	171.393	133.002	158.781	408.780	310.477	395.625	0.00069906	0.00042307	0.00013607	739.83	4.4509e-06	4.8341e-06	807.14	282.97	4.7233e-06	5.0482e-06	338.39	116.34	100.6	50.628	4.4109e-06	62.98	0.00027814	0.00021475	5.7282e-05	762.02	2.3646e-06	2.2299e-06	827.29	292.53	2.2864e-06	2.2933e-06	348.92	120.44	103.88	52.822	2.3436e-06	65.357	153.563	162.895	174.928	96.184	228.494	215.799	95.105	101.180	228.385	226.261	99.167	103.931	106.120	111.330	227.290	108.514	-8191	255	
1726.774	1	1	0	0	0.047524	0.1232	0.17066	0.11596	0.039546	0.21484	0.17603	0.24623	0.10322	0.22571	0.05352	0.42412	0.2226	0.32288	0.13678	0.13352	-2.3167	-1.7437	-2.4688	-2.4646	-1.8813	-2.7188	-2.2125	-2.1958	-2.7375	-1.9083	-2.6646	-2.4625	-1.9167	-2.7438	-2.0854	-1.9896	299.991	114.475	380.712	297.402	210.327	272.524	336.075	382.541	246.563	371.963	412.213	411.014	413.349	435.632	146.164	98.365	0.00072813	0.00041508	0.00016301	740.82	3.2322e-06	3.2571e-06	798.32	282.05	5.1288e-06	3.7038e-06	336.91	116.51	100.19	50.873	5.4585e-06	63.351	0.00028196	0.00021392	5.7003e-05	765.63	2.2865e-06	2.268e-06	824.91	291.77	2.3314e-06	2.2705e-06	347.62	120.68	103.85	53.188	2.3196e-06	66.004	154.201	155.234	159.763	95.879	240.769	230.157	95.106	101.439	213.523	215.948	99.261	103.919	106.095	111.536	230.866	108.747	-8191	255	
1726.869	1	1	0	0	0.22313	0.14127	0.3566	0.1462	0.076421	0.34626	0.051572	0.17498	0.028939	0.091327	0.076309	0.21706	0.049208	0.072076	0.3539	0.12928	-2.3583	-1.5833	-2.5229	-2.8167	-1.6604	-2.5875	-2.3792	-2.0062	-2.7479	-2.0563	-2.4104	-2.7562	-1.8333	-2.8875	-2.2875	-1.9625	131.715	277.346	156.770	169.404	169.948	398.252	269.723	100.299	102.084	231.481	360.017	110.128	261.006	177.505	195.309	141.050	0.00069138	0.00041669	9.6833e-05	739.78	4.5899e-06	3.3044e-06	800.73	282.29	4.9961e-06	5.9266e-06	338.39	117.16	100.95	51.234	3.9642e-06	63.894	0.00027399	0.00021128	5.8119e-05	761.95	2.3564e-06	2.298e-06	825.81	291.95	2.3346e-06	2.2849e-06	349.19	121.44	104.59	53.402	2.3563e-06	66.273	154.504	148.273	202.201	96.156	243.619	247.152	95.402	101.284	227.709	240.334	99.229	104.024	106.044	111.294	243.056	108.458	-8191	255	
1726.965	1	1	0	0	0.19387	0.29237	0.31684	0.15112	0.074651	0.17287	0.18186	0.17833	0.090406	0.10909	0.064283	0.01667	0.23683	0.24558	0.11432	0.17313	-2.3	-1.8	-2.2208	-2.6708	-1.9021	-2.5125	-2.4792	-2.0042	-2.6979	-2.0396	-2.1979	-2.7625	-1.7458	-2.5354	-2.2542	-1.7125	281.292	287.830	323.699	413.981	166.377	398.867	405.042	370.679	282.153	337.603	215.271	411.372	407.097	405.917	268.626	402.973	0.00072255	0.00050866	0.00018421	745.34	3.8335e-06	5.8498e-06	809.67	283.93	5.3721e-06	5.7437e-06	338.74	117.22	100.9	51.122	4.1679e-06	63.523	0.00028146	0.00021245	5.8537e-05	767.63	2.383e-06	2.2309e-06	833.06	293.76	2.35e-06	2.2798e-06	349.33	121.23	104.43	53.254	2.3286e-06	65.98	155.370	188.487	183.113	95.899	230.422	236.644	95.272	101.321	230.397	240.235	98.913	103.882	106.216	111.284	230.002	108.481	-8191	255	
1727.085	1	1	0	0	0.16513	0.23803	0.34309	0.10678	0.16435	0.23432	0.15072	0.16426	0.15084	0.19526	0.21551	0.10692	0.19017	0.32437	0.28757	0.11995	-2.2625	-1.9979	-2.0021	-2.8063	-1.7979	-2.3063	-2.4542	-2.0625	-2.5604	-2.0563	-2.35	-2.7188	-1.6833	-2.5625	-2.2646	-2.0646	376.649	343.548	217.949	428.291	254.044	435.751	409.683	295.273	86.139	93.467	423.906	106.485	375.606	165.526	256.257	311.979	0.00071838	0.000492	0.00014281	750.77	4.5414e-06	5.3053e-06	811.37	284.87	6.2974e-06	5.014e-06	339.72	117.2	100.88	51.205	3.9569e-06	63.727	0.00027869	0.00020966	5.759e-05	771.19	2.2351e-06	2.2246e-06	834.93	294.17	2.2419e-06	2.1966e-06	350.73	121.4	104.62	53.335	2.2786e-06	66.232	155.991	164.390	185.873	96.125	226.131	217.582	95.167	101.132	248.984	256.909	99.103	104.093	106.007	111.239	264.878	108.690	-8191	255	
1727.182	1	1	0	0	0.14497	0.14721	0.077889	0.28063	0.21852	0.23697	0.18111	0.1844	0.080126	0.16726	0.1585	0.31573	0.27599	0.3907	0.18315	0.10562	-2.2313	-2.1	-1.85	-2.8187	-1.8062	-2.375	-2.7188	-1.9479	-2.5104	-2.2562	-1.8083	-2.7958	-1.8563	-2.1813	-2.6604	-1.8146	251.307	355.239	357.649	334.358	189.633	96.052	342.523	111.770	182.035	359.548	380.362	414.626	336.526	433.341	172.914	360.793	0.00072004	0.00041045	0.00014645	740.75	5.156e-06	5.4264e-06	800.43	281.6	7.297e-06	4.4438e-06	337.47	116.96	101.1	51.477	4.6465e-06	64.441	0.00027431	0.00020236	5.7262e-05	763.32	2.2825e-06	2.2071e-06	825.39	291.38	2.2834e-06	2.2084e-06	348.22	121.31	104.54	53.728	2.2589e-06	66.752	153.356	158.431	191.368	96.193	218.111	229.550	95.090	101.409	234.033	255.732	99.494	104.086	106.164	111.391	224.973	108.479	-8191	255	
1727.278	1	1	0	0	0.25765	0.049079	0.13806	0.069757	0.33524	0.2231	0.19499	0.23595	0.24022	0.13164	0.15612	0.24065	0.2118	0.13474	0.097891	0.38661	-2.1875	-2.1667	-1.8292	-2.6646	-1.8604	-2.0687	-2.6958	-1.8312	-2.4479	-2.2917	-1.7938	-2.5312	-1.9771	-1.8521	-2.5521	-1.9771	275.378	384.049	202.854	341.398	85.350	253.383	193.478	334.369	127.561	197.998	163.656	389.631	362.107	134.258	322.030	162.276	0.00072063	0.00072569	0.00012372	738.42	3.9873e-06	4.0592e-06	803.54	282.43	4.658e-06	4.8559e-06	339.99	117.55	101.12	51.445	5.747e-06	64.147	0.00028053	0.00019908	5.7823e-05	761.84	2.2667e-06	2.2498e-06	827.42	291.93	2.2903e-06	2.2415e-06	349.99	121.85	104.65	53.648	2.3577e-06	66.809	154.400	160.156	161.921	96.208	214.144	253.462	95.409	101.485	206.769	245.007	99.377	104.334	106.139	111.480	209.873	108.507	-8191	255	
1727.349	1	1	0	0	0.25005	0.11742	0.19675	0.15694	0.27908	0.24705	0.15266	0.065221	0.11228	0.024448	0.15299	0.18112	0.1824	0.23443	0.12862	0.16367	-2.1375	-2.2687	-1.6125	-2.5646	-2.1333	-1.85	-2.6375	-2.0396	-2.1562	-2.6333	-1.8667	-2.6125	-2.175	-2.2771	-2.5292	-1.9333	347.205	94.606	285.500	153.044	143.645	134.029	384.194	237.825	192.422	295.281	404.191	200.240	401.295	420.774	242.689	362.924	0.00073551	0.00038433	9.6587e-05	745.32	3.9651e-06	4.2633e-06	809.87	283.22	4.9388e-06	4.1742e-06	340.25	118.14	100.95	51.319	4.5512e-06	64.427	0.00027815	0.00020815	5.7035e-05	767.23	2.3042e-06	2.2773e-06	832.53	293.8	2.3371e-06	2.2043e-06	351.34	121.98	104.79	53.669	2.2636e-06	66.845	153.685	175.669	174.288	96.135	218.496	229.954	95.279	101.108	228.128	234.055	99.240	104.205	106.089	111.457	240.880	108.683	-8191	255	
1727.470	1	1	0	0	0.32009	0.14703	0.1167	0.13174	0.19611	0.13393	0.24237	0.22753	0.12768	0.16322	0.22226	0.36333	0.26801	0.12712	0.076719	0.2297	-1.7354	-2.2979	-1.7708	-2.5771	-2.1813	-1.8833	-2.5729	-1.9458	-2.1521	-2.5042	-1.9312	-2.6875	-2.3063	-2.0167	-2.5958	-2.0271	272.402	225.610	376.730	339.367	199.814	385.409	398.349	325.336	384.031	227.598	386.230	415.407	375.061	130.266	320.068	411.071	0.00074153	0.00042647	0.00013904	743.87	4.6062e-06	3.0288e-06	807	282.07	4.5537e-06	5.3964e-06	341.61	118.72	101.09	51.863	5.3309e-06	64.903	0.00028298	0.00020334	5.7784e-05	766.41	2.328e-06	2.2539e-06	833.51	292.55	2.3665e-06	2.2676e-06	351.45	122.53	104.84	54.048	2.3038e-06	67.448	153.771	149.844	204.504	96.178	212.179	227.119	95.490	101.188	234.113	232.382	99.090	104.182	106.023	111.494	242.217	108.611	-8191	255	
1727.566	1	1	0	0	0.15134	0.20062	0.29102	0.12056	0.1377	0.15375	0.34554	0.045569	0.16734	0.12478	0.10642	0.04681	0.35623	0.15768	0.096905	0.3304	-1.8021	-2.4437	-1.6292	-2.55	-2.4917	-1.7854	-2.7812	-2.0896	-1.9271	-2.6771	-1.95	-2.2479	-2.4646	-1.8479	-2.7146	-2.2021	95.733	113.594	92.577	123.682	419.993	285.734	371.991	442.149	368.980	149.180	390.241	255.966	434.089	441.136	158.349	365.948	0.00068565	0.00030073	0.00013018	741.33	3.5446e-06	4.957e-06	807.05	282.09	5.0094e-06	6.3886e-06	339.53	118.12	101.43	51.942	5.6498e-06	64.902	0.00028301	0.00020957	5.8474e-05	764.85	2.2715e-06	2.2489e-06	831.38	291.95	2.3303e-06	2.2731e-06	350.37	122.36	104.98	54.065	2.3279e-06	67.404	155.309	141.714	186.312	96.290	202.914	238.870	95.692	101.354	235.250	244.069	99.011	104.044	106.190	111.531	244.480	108.501	-8191	255	
1727.662	1	1	0	0	0.13876	0.24693	0.14034	0.14904	0.18233	0.066133	0.35502	0.14524	0.18174	0.12447	0.037748	0.18556	0.17623	0.39065	0.19807	0.16024	-1.4896	-2.4437	-1.7521	-2.2792	-2.5604	-1.8396	-2.6937	-2.3021	-1.9625	-2.775	-1.8854	-2.1688	-2.5083	-1.7729	-2.5896	-2.3104	416.288	228.284	318.010	430.546	417.302	424.034	434.318	119.019	232.173	273.983	94.046	182.756	103.043	404.596	400.359	360.478	0.00071317	0.00043109	0.00015316	742.43	5.1116e-06	4.4497e-06	804.92	281.85	4.9787e-06	5.2451e-06	340.38	118.26	101.21	51.774	4.5933e-06	64.498	0.00028327	0.00020399	5.825e-05	762.68	2.2456e-06	2.2273e-06	828.43	292.01	2.3538e-06	2.2105e-06	350.15	122.27	104.84	53.93	2.3152e-06	66.989	152.320	146.595	157.735	96.330	228.527	267.639	95.677	101.225	215.570	248.068	99.113	103.983	106.091	111.536	232.287	108.469	-8191	255	
1727.759	1	1	0	0	0.26743	0.19864	0.22446	0.13951	0.11992	0.081096	0.33169	0.22397	0.22166	0.18549	0.017745	0.13024	0.0521	0.31648	0.37726	0.20733	-1.3958	-2.5458	-1.7625	-2.1708	-2.4521	-1.7729	-2.5438	-2.6771	-1.7167	-2.6521	-2.0062	-2.1958	-2.6542	-1.8229	-2.2979	-2.325	434.710	373.566	420.584	386.656	100.774	340.813	96.709	361.177	251.470	115.016	109.042	386.477	440.516	441.028	356.140	410.237	0.00074637	0.00042565	0.00018247	746.28	3.8757e-06	4.1232e-06	810.74	284.28	5.1502e-06	5.0141e-06	340.83	118.51	101.35	51.427	2.9917e-06	64.025	0.00027838	0.00019934	5.7499e-05	766.56	2.2192e-06	2.285e-06	833.91	293.62	2.3234e-06	2.2267e-06	352.04	122.37	105.11	53.628	2.3272e-06	66.697	154.082	144.555	176.715	96.030	229.663	227.320	95.363	101.317	226.484	237.787	99.019	104.019	106.089	111.406	222.471	108.550	-8191	255	
1727.877	1	1	0	0	0.099725	0.1598	0.088562	0.065794	0.30584	0.07718	0.33827	0.04808	0.16637	0.26714	0.099167	0.1863	0.30156	0.28356	0.1185	0.16523	-1.4458	-2.475	-2	-1.9646	-2.6437	-1.8708	-2.6312	-2.3896	-1.6833	-2.5	-2.0958	-2.1708	-2.7104	-1.9	-2.1021	-2.5312	311.093	86.652	347.348	363.720	329.531	107.178	337.605	347.724	162.143	371.044	360.559	311.480	126.417	89.433	410.678	117.926	0.00068048	0.00036503	0.0001535	753.7	3.3878e-06	3.0035e-06	820.95	286.14	4.9991e-06	7.5062e-06	342.25	118.29	101.17	51.2	5.4243e-06	64.175	0.00028052	0.00020543	5.7742e-05	776.99	2.2885e-06	2.2913e-06	844.78	295.93	2.3354e-06	2.2279e-06	353.1	122.41	105.21	53.374	2.3429e-06	66.634	153.623	175.529	160.711	96.245	223.519	220.001	95.482	101.201	243.244	248.594	98.812	104.050	106.051	111.215	233.510	108.426	-8191	255	
1727.949	1	1	0	0	0.15002	0.13078	0.1136	0.22784	0.045767	0.10657	0.087958	0.45049	0.092093	0.36597	0.17754	0.14607	0.24747	0.52807	0.19377	0.37106	-1.35	-2.5396	-2.1458	-1.6625	-2.7562	-1.8854	-2.2687	-2.6479	-1.6417	-2.6188	-2.2854	-1.8521	-2.8417	-1.9375	-2.1104	-2.5542	125.161	318.610	195.278	140.094	381.760	259.169	387.377	393.655	407.004	437.491	390.517	429.431	239.236	439.456	240.369	270.015	0.0007455	0.00046327	9.9859e-05	753.08	4.0909e-06	5.097e-06	817.77	286.07	6.3682e-06	4.9842e-06	343.47	118.52	101.37	51.315	4.9746e-06	64.385	0.00028327	0.00020117	5.5813e-05	776.63	2.1896e-06	2.2024e-06	841.9	295.9	2.2949e-06	2.1784e-06	353.67	122.42	105.14	53.631	2.2601e-06	66.863	154.928	165.837	168.180	96.189	228.837	227.731	95.030	101.331	230.387	261.633	99.024	103.931	106.192	111.424	244.866	108.779	-8191	255	
1728.047	1	1	0	0	0.11893	0.080048	0.05515	0.14216	0.077083	0.20986	0.24177	0.17457	0.2138	0.24719	0.10053	0.42678	0.15664	0.10787	0.060043	0.16824	-1.1958	-2.4083	-2.2833	-1.8458	-2.6417	-1.8958	-2.1979	-2.7875	-1.7896	-2.525	-2.3354	-1.8563	-2.7104	-2.0917	-1.8125	-2.9375	118.388	300.880	214.604	409.377	442.035	125.076	393.359	111.589	429.497	198.310	379.442	400.720	106.303	404.274	384.201	432.280	0.00069522	0.00059751	8.3547e-05	750.92	5.7294e-06	4.0955e-06	814.1	285.18	5.262e-06	6.0101e-06	341.27	118.74	101.57	51.687	5.8296e-06	64.304	0.00026989	0.00020162	5.4836e-05	772.04	2.1804e-06	2.1748e-06	837.5	295.18	2.2333e-06	2.1432e-06	352.39	122.52	105.29	53.744	2.2398e-06	66.966	152.875	181.631	160.918	96.086	209.227	212.588	95.384	101.180	239.486	209.337	99.089	103.919	106.071	111.419	236.766	108.646	-8191	255	
1728.166	1	1	0	0	0.24086	0.15164	0.13858	0.15407	0.060804	0.20719	0.13654	0.15572	0.11964	0.05725	0.28005	0.10697	0.12774	0.2767	0.12396	0.22745	-1.1979	-2.1521	-2.4188	-1.5708	-2.4417	-1.8875	-2.1	-2.8937	-1.6292	-2.2333	-2.6	-1.7354	-2.7042	-2.1708	-1.7854	-2.7	384.318	301.917	190.156	323.781	233.956	263.166	410.587	322.403	305.565	243.845	437.087	362.209	120.014	427.383	329.492	392.435	0.00075754	0.00042522	0.000112	749.65	3.4515e-06	4.2195e-06	815.76	285.34	5.7745e-06	3.9127e-06	343.2	118.27	101.42	51.442	3.0243e-06	64.408	0.00027922	0.00020192	5.4087e-05	771.69	2.1735e-06	2.1713e-06	839.47	294.74	2.3394e-06	2.2103e-06	353.15	122.36	105.11	53.723	2.2748e-06	66.999	154.850	155.862	202.103	96.187	231.425	211.710	95.589	101.283	226.515	220.076	99.241	104.080	106.336	111.390	235.693	108.427	-8191	255	
1728.262	1	1	0	0	0.077656	0.16432	0.082026	0.17541	0.11158	0.064757	0.1281	0.21126	0.30312	0.030398	0.28792	0.048741	0.20844	0.30943	0.025062	0.10274	-1.0979	-1.9125	-2.45	-1.8125	-2.4688	-2.175	-2.0062	-2.7708	-1.8375	-1.9208	-2.6437	-1.6458	-2.6063	-2.4688	-1.6021	-2.8063	439.772	349.503	412.588	358.725	250.988	434.393	382.004	108.795	128.495	357.804	381.730	390.178	398.839	407.448	349.769	312.717	0.00075783	0.00045118	0.0001978	747.23	5.6663e-06	3.4832e-06	812.49	285.11	4.0455e-06	3.9213e-06	340.63	118.37	101.56	51.542	5.2527e-06	64.538	0.00027729	0.00020297	5.6079e-05	770.02	2.1921e-06	2.1806e-06	837.2	294.8	2.1901e-06	2.1557e-06	352.36	122.68	105.13	53.812	2.2605e-06	67.027	153.175	142.174	170.460	96.166	217.942	242.064	95.459	101.552	234.885	255.099	99.220	103.934	106.258	111.262	242.307	108.572	-8191	255	
1728.358	1	1	0	0	0.33498	0.079295	0.050172	0.1319	0.15619	0.035916	0.085221	0.073235	0.10729	0.11878	0.23846	0.1974	0.172	0.1747	0.057076	0.19421	-1.4271	-2.1208	-2.5875	-1.8979	-2.55	-2.4375	-1.8146	-2.7313	-1.8813	-1.7917	-2.6792	-1.7979	-2.4229	-2.5646	-1.6938	-2.7083	312.307	193.764	230.637	109.800	376.839	91.687	365.939	391.064	267.171	352.655	106.571	340.348	129.694	148.564	346.309	317.749	0.00072289	0.00034149	0.00015468	749.63	5.2741e-06	4.5725e-06	817.57	286.61	4.4597e-06	5.5265e-06	344.2	118.58	101.82	51.514	5.4806e-06	64.211	0.00027694	0.00019785	5.6333e-05	773.46	2.1911e-06	2.1729e-06	841.85	295.79	2.236e-06	2.1354e-06	353.71	122.6	105.24	53.648	2.305e-06	66.696	154.281	172.912	159.602	96.262	239.613	230.042	95.329	101.240	205.784	250.524	99.246	103.919	106.013	111.367	236.680	108.559	-8191	255	
1728.479	1	1	0	0	0.10749	0.32827	0.12449	0.16025	0.2975	0.17368	0.15977	0.17228	0.044651	0.32744	0.089024	0.12616	0.12169	0.35055	0.1559	0.31224	-1.6375	-1.6333	-2.3833	-1.7917	-2.2708	-2.3875	-1.7875	-2.7333	-2.1667	-1.7375	-2.7396	-2.2146	-2.2771	-2.5812	-1.7896	-2.4896	248.284	296.353	262.124	419.055	293.276	156.282	249.985	358.989	230.222	228.543	97.326	372.609	132.835	332.281	261.976	432.157	0.00073826	0.00044577	0.00015335	757.44	4.6558e-06	4.2536e-06	824.58	287.3	3.465e-06	6.2712e-06	344.93	118.9	102.11	51.389	4.8316e-06	64.083	0.00027642	0.00019973	5.4279e-05	778.08	2.1933e-06	2.1369e-06	847.66	297.06	2.2412e-06	2.177e-06	354.98	122.77	105.63	53.501	2.2582e-06	66.629	152.295	162.161	179.922	96.307	230.979	239.833	95.198	101.495	210.609	225.602	99.198	104.013	105.987	111.341	227.327	108.797	-8191	255	
1728.575	1	1	0	0	0.17936	0.034242	0.19947	0.24412	0.045799	0.22284	0.16427	0.24468	0.1101	0.19515	0.084272	0.19256	0.28944	0.29368	0.079196	0.24609	-1.6396	-1.5229	-2.5542	-2.0229	-1.9854	-2.6688	-1.8333	-2.4188	-2.3771	-1.7062	-2.7896	-2.1042	-1.9792	-2.6	-1.8083	-2.4625	251.876	420.638	108.937	123.489	343.446	181.764	405.742	165.115	274.995	280.996	385.715	395.385	405.180	93.373	222.185	369.057	0.00070618	0.00040343	0.00016351	759.77	3.6073e-06	5.9036e-06	826.75	289.36	6.461e-06	4.5605e-06	344.16	118.7	102.06	51.327	4.9235e-06	64.323	0.00027194	0.00020291	5.6455e-05	782.58	2.219e-06	2.1388e-06	851.21	297.83	2.2805e-06	2.2308e-06	355.31	122.76	105.73	53.557	2.3118e-06	66.792	154.459	163.077	188.622	96.108	205.381	237.278	95.257	101.361	208.024	266.335	99.298	103.903	106.149	111.394	219.932	108.764	-8191	255	
1728.647	1	1	0	0	0.28682	0.23691	0.18961	0.33586	0.40541	0.017643	0.21393	0.34012	0.069943	0.13534	0.17596	0.10347	0.078275	0.052251	0.064109	0.21852	-2.0021	-1.9479	-2.6875	-2.1542	-2.0083	-2.6271	-1.8729	-2.5187	-2.525	-1.4896	-2.6271	-2.1979	-1.925	-2.6875	-1.7896	-2.2896	395.448	366.355	133.386	120.969	272.176	370.442	330.612	347.939	354.240	186.594	222.207	190.332	426.451	181.473	190.110	370.594	0.00073703	0.00048186	0.00015507	758.47	5.1375e-06	3.8585e-06	821.77	287.1	5.4143e-06	6.5364e-06	343.24	118.29	102.08	51.462	4.4124e-06	64.016	0.0002756	0.00020643	5.5111e-05	780.94	2.2679e-06	2.2211e-06	846.5	297.23	2.22e-06	2.2134e-06	354.12	122.69	105.49	53.723	2.2838e-06	66.832	155.492	135.724	168.237	96.279	226.736	230.479	95.280	101.374	228.038	248.367	99.384	104.066	106.022	111.481	252.463	108.725	-8191	255	
1728.767	1	1	0	0	0.24373	0.21947	0.039117	0.20148	0.14906	0.1474	0.28521	0.26893	0.12158	0.095424	0.23881	0.2131	0.098242	0.27704	0.17502	0.1969	-1.8687	-1.7437	-2.5125	-2.2792	-1.8792	-2.5208	-1.8542	-2.4771	-2.4417	-1.9562	-2.5167	-2.3625	-1.7583	-2.8604	-2.2146	-2.1229	343.353	348.592	432.844	108.221	158.897	158.806	387.992	386.387	383.015	271.066	386.543	420.638	374.827	341.389	322.669	355.664	0.00072657	0.00027426	0.00013984	750.85	3.9027e-06	4.7746e-06	812.32	285.28	5.1992e-06	3.481e-06	341.65	118.52	101.25	51.349	4.071e-06	64.044	0.00027629	0.00020333	5.4942e-05	770.38	2.231e-06	2.1938e-06	838.16	294.76	2.2276e-06	2.1832e-06	352.19	122.5	105.19	53.655	2.3083e-06	66.749	153.997	195.156	162.307	96.175	229.882	190.518	95.220	101.487	223.581	254.648	99.227	104.055	106.187	111.456	241.053	108.714	-8191	255	
1728.862	1	1	0	0	0.15073	0.17526	0.096036	0.13786	0.15211	0.13272	0.13473	0.23608	0.23292	0.18482	0.20711	0.19315	0.48906	0.11713	0.17212	0.20172	-2.15	-1.6729	-2.5083	-2.3563	-1.7604	-2.6792	-2.1271	-2.2646	-2.625	-1.7458	-2.6792	-2.5583	-1.6854	-2.7146	-2.1083	-1.7833	167.763	397.965	349.145	359.902	276.800	430.561	379.140	332.648	412.160	110.894	158.019	361.488	342.256	127.833	424.477	397.702	0.00075378	0.00016239	0.00015146	754.42	3.3732e-06	5.7009e-06	819.89	287.01	4.3012e-06	4.7342e-06	342.4	117.92	101.23	51.275	4.6303e-06	64.106	0.00027597	0.00020542	5.7061e-05	774.56	2.1935e-06	2.1519e-06	842.97	296.33	2.2492e-06	2.2364e-06	353.6	122.37	105.05	53.444	2.2419e-06	66.58	155.476	174.433	178.767	96.251	235.732	222.765	95.400	101.523	234.148	236.250	99.324	104.011	105.962	111.406	230.120	108.929	-8191	255	
1728.958	1	1	0	0	0.094806	0.21739	0.086504	0.20556	0.083602	0.042761	0.19723	0.15005	0.10938	0.14289	0.072643	0.034563	0.15	0.32562	0.12994	0.24425	-2.4688	-1.6125	-2.2438	-2.6396	-1.7	-2.5833	-2.2958	-1.8917	-2.5062	-1.8708	-2.1958	-2.425	-1.9688	-2.5854	-2.1354	-2.2042	348.638	408.743	271.974	429.805	268.250	364.860	434.290	97.827	165.622	231.970	371.751	245.405	363.829	398.740	415.204	305.174	0.00068759	0.00050856	0.00015915	752.88	3.2402e-06	2.1016e-06	819.41	286.99	5.1504e-06	4.2274e-06	343.98	118.55	101.84	51.326	5.0453e-06	64.44	0.00027145	0.00020061	5.4286e-05	777.3	2.2028e-06	2.1755e-06	844.54	297.08	2.2059e-06	2.1725e-06	354.54	122.64	105.22	53.542	2.2332e-06	66.834	153.131	179.380	173.773	96.218	226.768	230.778	95.470	101.322	228.038	240.007	99.357	103.959	106.054	111.625	234.846	108.542	-8191	255	
1729.054	1	1	0	0	0.17663	0.17149	0.30594	0.21502	0.071048	0.098588	0.22621	0.065831	0.051355	0.27321	0.037892	0.16373	0.57415	0.21323	0.28928	0.17855	-2.1937	-1.975	-2.0917	-2.6875	-1.8917	-2.575	-2.4062	-2.0104	-2.5542	-1.6771	-2.1792	-2.7062	-1.7812	-2.5104	-2.2438	-1.9083	123.150	331.790	398.392	431.039	381.593	434.018	368.625	419.241	375.125	155.709	270.138	103.173	416.118	421.346	88.418	272.329	0.00077439	0.00038536	0.00013371	753.76	4.2182e-06	4.5097e-06	819.86	286.75	6.7539e-06	4.727e-06	342.99	118.4	101.48	51.234	4.025e-06	64.542	0.00027719	0.00020047	5.5815e-05	776.57	2.169e-06	2.161e-06	843.37	295.99	2.2742e-06	2.1709e-06	353.47	122.5	105.14	53.551	2.2311e-06	66.739	153.265	165.043	175.315	96.304	227.105	244.292	95.408	101.577	223.144	240.858	99.612	104.129	106.054	111.638	220.854	108.769	-8191	255	
1729.175	1	1	0	0	0.20733	0.12459	0.25671	0.088068	0.22247	0.07095	0.1724	0.12792	0.050358	0.17598	0.30699	0.12852	0.082886	0.16192	0.10085	0.2975	-2.15	-2.1167	-2.0625	-2.6167	-2.0104	-2.4021	-2.5312	-1.8708	-2.6625	-1.9813	-1.8292	-2.9646	-1.825	-2.6229	-2.5521	-1.8146	158.696	189.494	239.824	392.804	354.494	198.296	347.844	369.362	300.444	186.180	420.166	348.673	118.181	268.033	269.066	278.569	0.00069224	0.00035709	0.00010557	757.65	4.9985e-06	4.0508e-06	821.31	287	4.2535e-06	5.8028e-06	343.9	118.32	102	51.467	4.8579e-06	64.031	0.00027229	0.00019866	5.564e-05	778.56	2.2536e-06	2.1729e-06	845.4	296.88	2.198e-06	2.1454e-06	354.45	122.45	105.43	53.482	2.2445e-06	66.515	154.957	148.062	187.365	96.301	226.756	240.436	95.173	101.573	241.852	227.943	99.595	104.289	106.012	111.516	242.189	108.785	-8191	255	
1729.246	1	1	0	0	0.09359	0.31193	0.11674	0.096383	0.31774	0.11374	0.184	0.31695	0.15109	0.18844	0.26974	0.11042	0.31057	0.16893	0.16557	0.15187	-2.2667	-2.0292	-1.8104	-2.6854	-2.0292	-2.3	-2.6333	-1.8021	-2.4062	-2.2438	-2.0146	-2.5458	-2.0167	-2.2521	-2.5875	-1.8896	257.319	330.052	95.931	412.634	126.863	334.332	353.684	365.066	185.611	260.060	409.878	408.068	395.490	348.743	382.353	333.635	0.00072868	0.00043724	0.00012318	755.36	2.8591e-06	2.3225e-06	826.49	286.65	4.9523e-06	6.029e-06	344.64	118.46	101.45	51.07	5.4605e-06	64.435	0.00027635	0.0002036	5.4616e-05	779.5	2.2323e-06	2.2092e-06	849.74	296.97	2.3191e-06	2.2535e-06	354.44	122.58	105.14	53.296	2.2389e-06	66.652	152.370	160.657	184.170	96.483	210.619	224.869	95.430	101.484	229.385	246.719	99.403	104.305	106.361	111.597	231.284	108.898	-8191	255	
1729.342	1	1	0	0	0.32068	0.20179	0.23373	0.14819	0.004458	0.13358	0.13701	0.51632	0.33346	0.19933	0.32804	0.17334	0.25186	0.0449	0.27237	0.16144	-2.175	-2.2125	-1.6083	-2.6688	-2.0438	-1.925	-2.5771	-1.75	-2.4604	-2.3042	-1.8833	-2.5292	-1.9688	-2.1625	-2.6542	-2.0792	420.871	224.738	178.326	414.269	156.385	383.693	383.946	359.659	201.143	360.554	440.669	351.859	322.624	317.621	290.158	240.275	0.00073609	0.0004476	0.00015143	755.96	6.6139e-06	5.3006e-06	818.48	286.8	4.7397e-06	5.532e-06	343.39	118.63	101.87	51.606	5.783e-06	64.483	0.00027372	0.0002014	5.7539e-05	778.67	2.2508e-06	2.2502e-06	844.55	296.08	2.2744e-06	2.22e-06	354.42	122.84	105.2	53.615	2.3395e-06	66.953	156.326	161.968	176.140	96.290	220.713	226.476	95.443	101.390	227.762	215.664	99.567	104.290	106.368	111.760	246.307	108.804	-8191	255	
1729.439	1	1	0	0	0.15787	0.19446	0.18402	0.27046	0.092072	0.1398	0.1096	0.060049	0.039101	0.16094	0.12342	0.1739	0.1631	0.30054	0.13754	0.059999	-1.825	-2.3646	-1.7375	-2.5479	-2.1292	-1.9729	-2.5167	-1.9521	-2.2729	-2.4146	-1.4479	-2.6292	-2.025	-1.8167	-2.4417	-1.9146	138.388	329.134	232.511	417.749	435.278	370.029	389.184	427.730	331.524	208.132	400.437	267.437	349.198	425.954	401.147	413.639	0.00070565	0.00036137	9.6092e-05	749.72	5.6661e-06	4.8446e-06	819.06	286.38	4.3743e-06	4.8789e-06	343.73	118.89	101.95	51.653	5.3821e-06	64.446	0.00027544	0.00019843	5.667e-05	773.26	2.2182e-06	2.2271e-06	842.21	295.6	2.2317e-06	2.1806e-06	354.09	122.89	105.27	53.792	2.2466e-06	67.061	155.216	175.629	192.914	96.364	232.138	232.399	95.520	101.507	213.537	247.202	99.486	104.065	106.203	111.552	243.971	108.581	-8191	255	
1729.559	1	1	0	0	0.19347	0.27969	0.14114	0.35015	0.26465	0.16112	0.16356	0.14291	0.17642	0.19734	0.17499	0.36988	0.17091	0.32739	0.064259	0.14252	-1.9271	-2.3271	-1.7271	-2.7062	-2.125	-1.7521	-2.9167	-1.8583	-2.0271	-2.6854	-1.8458	-2.425	-2.375	-1.9667	-2.6458	-2.2062	224.837	221.715	220.314	378.432	335.059	353.000	239.252	174.389	148.055	437.858	312.316	416.199	389.276	381.973	176.490	397.193	0.00073676	0.00044263	0.00017339	749.29	4.6223e-06	5.056e-06	814.31	285.45	4.5674e-06	5.0749e-06	340.85	118.96	100.9	51.57	5.159e-06	64.542	0.00027809	0.00020058	5.7116e-05	770.36	2.2026e-06	2.215e-06	838.43	294.72	2.2795e-06	2.2102e-06	352.44	122.93	104.87	53.745	2.2994e-06	67.073	155.748	180.700	169.493	96.635	225.248	234.786	95.588	101.417	204.203	205.777	99.399	104.105	106.291	111.770	236.365	108.821	-8191	255	
1729.655	1	1	0	0	0.087514	0.12445	0.14495	0.10472	0.15188	0.051413	0.093734	0.28009	0.16135	0.16577	0.19678	0.25225	0.21898	0.051184	0.14985	0.13798	-1.4542	-2.7833	-1.675	-2.5354	-2.2646	-1.8646	-2.7271	-2.1375	-2.0354	-2.5417	-1.8792	-2.4292	-2.2417	-1.9417	-2.7042	-2.325	220.846	171.655	183.574	132.433	194.959	140.063	310.999	97.562	377.836	403.069	400.412	440.638	415.415	250.226	345.142	398.001	0.00077169	0.00057175	0.00014295	753.67	4.9967e-06	4.1567e-06	818.27	285.75	4.1967e-06	4.6835e-06	343.7	118.81	101.24	51.426	5.7411e-06	64.413	0.00028143	0.00020469	5.7225e-05	775.21	2.215e-06	2.2577e-06	845.8	295.92	2.3138e-06	2.2819e-06	354.89	123.05	105.19	53.615	2.2562e-06	67.038	153.056	184.091	167.630	96.453	221.605	230.851	95.707	101.463	216.007	229.558	99.478	104.357	106.118	111.513	224.791	108.890	-8191	255	
1729.751	1	1	0	0	0.044692	0.079162	0.1054	0.1952	0.18066	0.071021	0.18373	0.3267	0.24418	0.079996	0.43986	0.060866	0.29609	0.31055	0.096053	0.31383	-1.4083	-2.7125	-1.9083	-2.4083	-2.2875	-1.5958	-2.6229	-2.0438	-1.9833	-2.7604	-2.0187	-2.0875	-2.4104	-1.5083	-2.625	-2.5104	395.376	434.535	429.212	120.341	332.878	87.971	413.662	103.588	223.098	230.703	437.359	384.332	406.450	403.468	97.124	384.271	0.0007383	0.00040324	9.3343e-05	751.22	4.1721e-06	4.4386e-06	818.15	287.03	4.3926e-06	5.6693e-06	345.56	119.94	101.99	51.694	3.8777e-06	64.819	0.00027903	0.00020087	5.7712e-05	773.1	2.2008e-06	2.2179e-06	844.51	296.25	2.2417e-06	2.1614e-06	355.75	123.61	105.64	53.707	2.2854e-06	67.376	154.554	167.078	155.208	96.547	213.774	239.520	95.753	101.529	220.573	267.781	99.345	104.341	106.313	111.808	226.359	108.782	-8191	255	
1729.848	1	1	0	0	0.21984	0.13388	0.31986	0.2013	0.20443	0.09999	0.26168	0.30126	0.30022	0.18166	0.1212	0.2338	0.085342	0.17212	0.22542	0.15082	-1.3417	-2.3854	-1.8458	-2.1271	-2.3854	-1.9208	-2.7313	-2.2229	-1.65	-2.3979	-2.2021	-2.0729	-2.4854	-1.8146	-2.5708	-2.3708	108.905	320.399	219.760	390.688	90.248	84.419	334.821	105.025	255.355	97.947	308.584	390.191	325.058	359.809	367.049	365.097	0.00073084	0.0004625	0.00014378	747.17	4.5669e-06	3.451e-06	816.89	285.69	5.8153e-06	4.548e-06	344.09	119.18	102.06	51.489	3.9511e-06	64.653	0.00027935	0.00020255	5.6723e-05	770.74	2.2236e-06	2.2098e-06	840.74	295.37	2.2395e-06	2.2448e-06	355.06	123.5	105.57	53.726	2.3269e-06	67.041	153.734	161.308	184.719	96.689	219.520	229.385	95.665	101.716	220.506	237.879	99.307	104.305	106.298	111.660	219.070	108.862	-8191	255	
1729.942	1	1	0	0	0.37523	0.15328	0.10964	0.029176	0.093568	0.2368	0.2119	0.36527	0.097905	0.082706	0.061392	0.21649	0.1612	0.11114	0.24195	0.26652	-1.4125	-2.6875	-1.9813	-2.0042	-2.6729	-1.6792	-2.5125	-2.6688	-1.6896	-2.5062	-2.1979	-1.8083	-2.6729	-1.6833	-2.4729	-2.575	367.398	176.281	122.891	290.028	202.574	108.617	401.381	95.245	87.923	370.842	87.598	408.440	318.116	84.901	350.605	88.559	0.00069645	0.00045071	0.00011419	762.97	5.4522e-06	4.097e-06	835.01	291.41	5.2675e-06	5.1175e-06	348.82	119.7	102.82	51.319	4.3322e-06	64.41	0.00028278	0.00021118	6.0011e-05	785.29	2.3127e-06	2.3392e-06	860.36	300.11	2.449e-06	2.2983e-06	359.15	124.03	106.71	53.613	2.4547e-06	66.891	153.633	164.106	172.416	96.517	240.888	207.889	95.715	101.376	225.318	222.296	99.259	104.212	106.109	111.481	236.709	108.873	-8191	255	
1730.038	1	1	0	0	0.12344	0.23164	0.1629	0.13751	0.10553	0.097148	0.24501	0.30518	0.21111	0.18917	0.29199	0.32376	0.29923	0.2027	0.13156	0.18076	-1.3188	-2.5312	-2.1	-2.1875	-2.6813	-1.7271	-2.4167	-2.7792	-1.7104	-2.6625	-2.2875	-1.9521	-2.8646	-1.8646	-1.9208	-2.6896	299.815	311.213	285.483	438.855	176.009	170.664	410.264	402.924	171.751	423.165	126.039	132.287	416.362	99.758	366.902	393.810	0.00073328	0.00042484	0.00016206	802.86	5.3829e-06	2.0231e-06	891.84	302.87	4.8232e-06	4.5148e-06	362.42	124.25	108.4	51.526	5.3997e-06	64.61	0.00029826	0.00022628	6.4438e-05	825.99	2.6096e-06	2.6714e-06	918.34	313.24	2.8787e-06	2.7783e-06	374.98	128.52	111.89	53.674	2.9781e-06	67.125	152.074	180.195	179.862	96.147	216.514	263.520	95.323	101.164	219.855	255.983	99.319	104.016	105.449	111.349	221.812	108.553	-8191	255	
1730.159	1	1	0	0	0.1096	0.39155	0.25085	0.10788	0.17707	0.19773	0.33943	0.14917	0.051886	0.16542	0.10452	0.17481	0.068974	0.17557	0.11624	0.025153	-1.2417	-2.5563	-2.2687	-1.7354	-2.6312	-1.8542	-2.3292	-2.6937	-1.6104	-2.4771	-2.3792	-1.5792	-2.6083	-2.0604	-1.925	-2.8937	426.596	165.699	373.150	120.877	170.891	413.772	391.813	370.176	349.823	247.068	276.072	359.695	204.823	422.257	201.438	168.281	0.00069605	0.00054047	0.00010013	828.26	5.1567e-06	6.5772e-06	903.86	306.44	4.7217e-06	3.9763e-06	361.42	123.79	106.96	52.28	4.8165e-06	65.145	0.00033231	0.00025951	7.1438e-05	853.89	2.777e-06	2.7183e-06	929.2	315.59	2.7297e-06	2.6186e-06	372.93	128.28	110.87	54.384	2.6227e-06	67.779	153.652	154.853	177.627	96.437	221.222	209.928	95.342	101.115	235.377	242.380	99.131	104.025	105.697	111.061	223.484	108.447	-8191	255	
1730.255	1	1	0	0	0.43485	0.14076	0.14577	0.33893	0.24608	0.13201	0.025147	0.17417	0.17956	0.12844	0.093054	0.14511	0.19492	0.12563	0.28816	0.2902	-1.3979	-2.2604	-2.3729	-1.7917	-2.65	-1.9896	-2.0375	-2.8167	-1.7563	-2.3333	-2.7687	-1.8625	-2.8479	-2.2438	-1.8458	-2.8563	101.565	366.681	152.434	119.766	240.655	393.152	116.167	394.685	345.518	280.908	419.488	416.220	139.120	307.762	123.620	344.775	0.00075168	0.0005952	0.00018037	798.64	4.9564e-06	3.6503e-06	880.17	300.1	4.8513e-06	5.881e-06	357.67	123.3	106.74	52.511	3.7409e-06	65.438	0.00030007	0.00023426	6.4283e-05	824.45	2.5662e-06	2.524e-06	905.42	310.02	2.6679e-06	2.6134e-06	369.05	127.81	110.63	54.593	2.8072e-06	68.116	152.190	175.275	164.260	96.208	241.774	193.470	95.322	100.937	231.873	253.113	99.020	103.642	105.744	111.153	222.021	108.561	-8191	255	
1730.351	1	1	0	0	0.18819	0.37472	0.26937	0.19033	0.25085	0.14541	0.25088	0.085208	0.14444	0.11995	0.12362	0.13778	0.1025	0.20956	0.39745	0.082329	-1.2938	-2.3812	-2.6208	-1.6896	-2.6854	-2.3104	-1.8646	-2.6896	-1.975	-2.1	-2.5	-1.7729	-2.5229	-2.15	-1.9979	-2.9104	90.064	147.341	259.854	391.536	294.642	344.847	347.659	382.328	100.093	355.899	387.610	133.593	370.010	433.747	140.915	175.899	0.00075629	0.0004261	0.00010933	782.17	6.3866e-06	5.1948e-06	855.96	293.69	4.3647e-06	5.2138e-06	349.48	121.67	104.61	52.707	4.7082e-06	66.123	0.00031666	0.00023717	6.9012e-05	809.24	2.6503e-06	2.588e-06	879.58	303.09	2.6284e-06	2.5625e-06	360.16	125.97	108.27	55.047	2.6456e-06	68.771	155.179	183.954	183.413	96.059	238.124	223.750	95.276	101.246	214.252	258.604	99.401	104.088	106.129	111.096	240.268	108.638	-8191	255	
1730.447	1	1	0	0	0.098402	0.27583	0.11032	0.15021	0.11049	0.15771	0.12025	0.23501	0.21667	0.25114	0.1569	0.076641	0.16776	0.12474	0.20526	0.13646	-1.3813	-2.1479	-2.5062	-1.6896	-2.45	-2.3854	-1.8958	-2.7438	-1.8271	-2.0187	-2.825	-1.7542	-2.2562	-2.5312	-1.6604	-2.5854	294.125	387.094	384.418	192.431	269.909	189.066	321.976	437.377	227.388	365.619	114.277	211.602	334.988	98.932	198.186	152.300	0.00071114	0.00061364	0.00014706	752.2	3.9473e-06	3.9852e-06	818.18	285.48	4.9718e-06	8.0841e-06	344.94	120.69	104	52.996	4.7635e-06	66.743	0.00030334	0.00022945	6.2532e-05	774.04	2.4903e-06	2.504e-06	845.07	295.78	2.5136e-06	2.4676e-06	355	125.28	107.47	55.304	2.5233e-06	69.363	156.355	173.135	194.072	96.278	215.331	220.759	95.384	101.514	216.947	222.806	99.452	104.100	106.432	111.317	247.929	108.451	-8191	255	
1730.543	1	1	0	0	0.14075	0.036239	0.11152	0.25506	0.1424	0.3052	0.16883	0.30233	0.078381	0.22203	0.12915	0.12146	0.13074	0.26	0.24726	0.15671	-1.6812	-1.6875	-2.4979	-1.8521	-2.2208	-2.5521	-1.7188	-2.6229	-2.0833	-1.9604	-2.8729	-1.85	-2.4417	-2.6229	-1.8438	-2.6292	229.088	135.081	293.306	412.927	328.792	123.847	340.508	131.909	405.381	374.978	424.635	365.378	278.717	96.234	132.554	166.005	0.00078052	0.00061032	0.0001228	745.27	3.2446e-06	5.4523e-06	821.52	286.14	6.8005e-06	3.3791e-06	345.36	121.14	103.41	53.081	5.505e-06	66.805	0.00030021	0.00022524	6.0491e-05	769.48	2.444e-06	2.4232e-06	845.94	296.58	2.4883e-06	2.4298e-06	355.77	125.56	107.59	55.322	2.5183e-06	69.155	154.607	143.691	175.198	96.622	230.916	214.237	95.666	101.462	229.304	247.556	99.457	103.987	106.076	111.357	248.322	108.604	-8191	255	
#DATA ENDS
