BOXY.EXE: ISS Imagent and Oximeter Data Acquisition Program Version 0.80
Ascii Record File

#ACQ INFORMATION
2  Detector Channels 
16  External MUX Channels 
1  Auxiliary Channels 
5000  Waveform (CCF) Frequency (Hz)
1  Waveforms Skipped 
30  Waveforms Averaged 
1  Cycles Averaged 
16  Acquisitions per Waveform 
10.0806  Updata Rate (Hz) 

#FILE INFORMATION
TRUE -- External MUX Channel results are PARSED.
FALSE -- AC DC and Phase are NOT grouped.
TRUE -- Companion Program Settings File CREATED.
FALSE -- AC data not excluded
FALSE -- DC data not excluded
FALSE -- Phase data not excluded
FALSE -- Auxillary Chn. data not excluded
Tab delimiters

#CALIBRATION STATE
TRUE -- Waveform Calibration Values APPLIED.


#AUX CALIBRATION VALUES
Val Type	aux-1	

Term	1.0000e+00	
Factor	0.0000e+00	


#WF CALIBRATION VALUES
A = Detector Channel
Val Type	A-AC1	A-AC2	A-AC3	A-AC4	A-AC5	A-AC6	A-AC7	A-AC8	A-AC9	A-AC10	A-AC11	A-AC12	A-AC13	A-AC14	A-AC15	A-AC16	A-DC1	A-DC2	A-DC3	A-DC4	A-DC5	A-DC6	A-DC7	A-DC8	A-DC9	A-DC10	A-DC11	A-DC12	A-DC13	A-DC14	A-DC15	A-DC16	A-Ph1	A-Ph2	A-Ph3	A-Ph4	A-Ph5	A-Ph6	A-Ph7	A-Ph8	A-Ph9	A-Ph10	A-Ph11	A-Ph12	A-Ph13	A-Ph14	A-Ph15	A-Ph16	

Term	0.00000e+00	0.00000e+00	0.00000e+00	0.00000e+00	0.00000e+00	0.00000e+00	0.00000e+00	0.00000e+00	0.00000e+00	0.00000e+00	0.00000e+00	0.00000e+00	0.00000e+00	0.00000e+00	0.00000e+00	0.00000e+00	0.00000e+00	0.00000e+00	0.00000e+00	0.00000e+00	0.00000e+00	0.00000e+00	0.00000e+00	0.00000e+00	0.00000e+00	0.00000e+00	0.00000e+00	0.00000e+00	0.00000e+00	0.00000e+00	0.00000e+00	0.00000e+00	0.00000e+00	0.00000e+00	0.00000e+00	0.00000e+00	0.00000e+00	0.00000e+00	0.00000e+00	0.00000e+00	0.00000e+00	0.00000e+00	0.00000e+00	0.00000e+00	0.00000e+00	0.00000e+00	0.00000e+00	0.00000e+00	
Factor	1.00000e+00	1.00000e+00	1.00000e+00	1.00000e+00	1.00000e+00	1.00000e+00	1.00000e+00	1.00000e+00	1.00000e+00	1.00000e+00	1.00000e+00	1.00000e+00	1.00000e+00	1.00000e+00	1.00000e+00	1.00000e+00	1.00000e+00	1.00000e+00	1.00000e+00	1.00000e+00	1.00000e+00	1.00000e+00	1.00000e+00	1.00000e+00	1.00000e+00	1.00000e+00	1.00000e+00	1.00000e+00	1.00000e+00	1.00000e+00	1.00000e+00	1.00000e+00	X	X	X	X	X	X	X	X	X	X	X	X	X	X	X	X	

B = Detector Channel
Val Type	B-AC1	B-AC2	B-AC3	B-AC4	B-AC5	B-AC6	B-AC7	B-AC8	B-AC9	B-AC10	B-AC11	B-AC12	B-AC13	B-AC14	B-AC15	B-AC16	B-DC1	B-DC2	B-DC3	B-DC4	B-DC5	B-DC6	B-DC7	B-DC8	B-DC9	B-DC10	B-DC11	B-DC12	B-DC13	B-DC14	B-DC15	B-DC16	B-Ph1	B-Ph2	B-Ph3	B-Ph4	B-Ph5	B-Ph6	B-Ph7	B-Ph8	B-Ph9	B-Ph10	B-Ph11	B-Ph12	B-Ph13	B-Ph14	B-Ph15	B-Ph16	

Term	0.00000e+00	0.00000e+00	0.00000e+00	0.00000e+00	0.00000e+00	0.00000e+00	0.00000e+00	0.00000e+00	0.00000e+00	0.00000e+00	0.00000e+00	0.00000e+00	0.00000e+00	0.00000e+00	0.00000e+00	0.00000e+00	0.00000e+00	0.00000e+00	0.00000e+00	0.00000e+00	0.00000e+00	0.00000e+00	0.00000e+00	0.00000e+00	0.00000e+00	0.00000e+00	0.00000e+00	0.00000e+00	0.00000e+00	0.00000e+00	0.00000e+00	0.00000e+00	-1.43369e+02	-1.40021e+02	-1.25011e+02	-1.81578e+02	-7.38023e+01	-7.32306e+01	-1.57041e+02	-1.62015e+02	-7.92528e+01	-5.91734e+01	-1.74057e+02	-1.71424e+02	-1.78987e+02	-1.76327e+02	-6.84522e+01	-1.49256e+02	
Factor	1.90294e-05	1.26789e-04	3.84744e-05	1.58984e-01	1.18360e-06	1.40697e-06	1.60266e-01	4.82704e-02	1.15976e-06	1.66629e-06	8.45732e-02	2.76673e-02	2.67142e-02	8.45805e-03	1.20631e-06	1.22680e-02	3.47264e-06	3.99536e-06	1.10900e-06	8.22969e-02	4.30501e-08	4.39776e-08	7.82042e-02	2.51153e-02	4.31453e-08	4.40081e-08	4.24676e-02	1.39384e-02	1.40508e-02	4.41929e-03	4.33643e-08	6.19574e-03	X	X	X	X	X	X	X	X	X	X	X	X	X	X	X	X	



#DISTANCE SETTINGS
A = Detector Channel
A-1	A-2	A-3	A-4	A-5	A-6	A-7	A-8	A-9	A-10	A-11	A-12	A-13	A-14	A-15	A-16	

2.5000e+00	3.0000e+00	2.5000e+00	3.0000e+00	2.0000e+00	3.0000e+00	1.5000e+00	3.0000e+00	3.0000e+00	3.0000e+00	3.0000e+00	3.0000e+00	3.0000e+00	3.0000e+00	1.5000e+00	3.0000e+00	

B = Detector Channel
B-1	B-2	B-3	B-4	B-5	B-6	B-7	B-8	B-9	B-10	B-11	B-12	B-13	B-14	B-15	B-16	

1.0000e+01	1.0000e+01	1.0000e+01	1.4400e+00	1.0000e+01	1.0000e+01	1.5100e+00	1.9400e+00	1.0000e+01	1.0000e+01	1.9900e+00	2.4900e+00	2.4100e+00	2.9000e+00	1.0000e+01	2.9800e+00	




#DATA BEGINS
time	group	step	mark	flag	A-AC1	A-AC2	A-AC3	A-AC4	A-AC5	A-AC6	A-AC7	A-AC8	A-AC9	A-AC10	A-AC11	A-AC12	A-AC13	A-AC14	A-AC15	A-AC16	A-DC1	A-DC2	A-DC3	A-DC4	A-DC5	A-DC6	A-DC7	A-DC8	A-DC9	A-DC10	A-DC11	A-DC12	A-DC13	A-DC14	A-DC15	A-DC16	A-Ph1	A-Ph2	A-Ph3	A-Ph4	A-Ph5	A-Ph6	A-Ph7	A-Ph8	A-Ph9	A-Ph10	A-Ph11	A-Ph12	A-Ph13	A-Ph14	A-Ph15	A-Ph16	B-AC1	B-AC2	B-AC3	B-AC4	B-AC5	B-AC6	B-AC7	B-AC8	B-AC9	B-AC10	B-AC11	B-AC12	B-AC13	B-AC14	B-AC15	B-AC16	B-DC1	B-DC2	B-DC3	B-DC4	B-DC5	B-DC6	B-DC7	B-DC8	B-DC9	B-DC10	B-DC11	B-DC12	B-DC13	B-DC14	B-DC15	B-DC16	B-Ph1	B-Ph2	B-Ph3	B-Ph4	B-Ph5	B-Ph6	B-Ph7	B-Ph8	B-Ph9	B-Ph10	B-Ph11	B-Ph12	B-Ph13	B-Ph14	B-Ph15	B-Ph16	aux-1	digaux	

1670.362	1	1	0	256	0.32442	0.26319	0.31298	0.38072	0.15177	0.13626	0.26264	0.21118	0.07312	0.17687	0.25392	0.13401	0.29049	0.35416	0.11837	0.26705	-1.8833	-1.5979	-2.8583	-2.0062	-2.3417	-2.7083	-2.0271	-2.7833	-2.4479	-1.9312	-2.8083	-2.2667	-2.1188	-2.7458	-1.6708	-2.5687	-2.020	99.959	194.280	131.538	-133.546	-99.749	-135.470	150.832	75.022	-0.153	113.520	189.109	155.819	159.763	95.411	196.731	0.00088319	0.00094351	0.00028433	1007.5	7.6591e-06	3.1293e-06	1099.3	440.8	8.6087e-06	5.1153e-06	518.23	206.32	170.37	81.137	2.2959e-06	100.63	0.0034826	0.0039046	0.0010926	1076.4	4.2583e-05	4.3538e-05	1169.9	463.17	4.3108e-05	4.4495e-05	555.5	219.43	183.67	85.424	4.3059e-05	106.73	182.930	-107.390	-88.668	-130.677	-28.838	-89.077	-131.568	-126.032	-26.211	8.116	-127.489	-124.175	-122.005	-117.091	-73.674	-119.161	-8191	255	
1670.483	1	1	0	0	0.27965	0.18251	0.15269	0.19993	0.15504	0.16764	0.22021	0.18769	0.27158	0.065501	0.044493	0.18109	0.16974	0.2156	0.073858	0.12356	-2.175	-1.7521	-2.8083	-2.4354	-2.0875	-2.6583	-1.9	-2.5208	-2.6708	-1.7938	-2.65	-2.2562	-2.1854	-2.8667	-2.0312	-2.6229	134.316	193.613	115.220	177.527	12.508	50.755	155.015	144.081	166.719	127.629	-135.406	214.264	-114.281	152.888	144.521	-133.612	0.00084119	0.00059438	0.00049234	999.06	4.5537e-06	8.4225e-06	1086.9	437.97	9.8494e-06	1.4521e-05	514.54	204.09	169.49	80.535	8.7166e-06	99.643	0.0035395	0.0039128	0.0010786	1065.9	4.1201e-05	4.2329e-05	1155.7	458.47	4.0868e-05	4.1906e-05	550.43	216.61	182.21	84.566	4.1671e-05	105.59	181.587	-50.302	-24.204	-130.513	50.316	-47.117	-131.426	-126.010	17.189	-43.710	-127.736	-123.814	-121.928	-116.913	-82.491	-118.948	-8191	255	
1670.579	1	1	0	0	0.1607	0.14288	0.10035	0.21586	0.11146	0.055246	0.25634	0.3995	0.128	0.28138	0.10826	0.12528	0.087152	0.30586	0.1273	0.17511	-1.9521	-1.5375	-2.7875	-2.2396	-1.9479	-2.8312	-2.0021	-2.4042	-2.5646	-1.6333	-2.8208	-2.3271	-2.0042	-2.9042	-1.7583	-2.4542	117.749	103.476	147.689	176.891	159.006	18.335	151.005	196.048	109.024	8.688	185.941	202.021	202.457	-106.309	11.575	151.730	0.0008677	0.00060481	0.00018391	999.44	7.1671e-06	9.8346e-06	1082.3	436.47	1.1328e-05	1.037e-05	515.46	203.83	169.77	80.756	1.0581e-05	100.06	0.0034412	0.0038183	0.0010552	1062.5	4.0526e-05	4.1146e-05	1148	456.82	3.9982e-05	4.0874e-05	547.98	216.11	181.63	84.595	3.9722e-05	105.36	191.133	-22.105	-45.789	-130.479	-2.845	-52.106	-131.377	-125.840	-34.535	58.967	-127.458	-124.124	-121.962	-116.966	24.251	-119.411	-8191	255	
1670.675	1	1	0	0	0.045902	0.099077	0.18291	0.1528	0.16236	0.10941	0.27546	0.23077	0.16715	0.13417	0.16817	0.35889	0.35431	0.33505	0.17081	0.20527	-1.9604	-1.7396	-2.5396	-2.4792	-1.9562	-2.5542	-2.2667	-2.4688	-2.4979	-1.7417	-2.7333	-2.6125	-1.9896	-2.7667	-2.1437	-2.1292	125.640	169.907	162.656	214.983	-55.889	203.548	136.938	112.867	120.291	173.562	82.278	211.644	-132.777	140.944	6.425	119.745	0.00081725	0.00097018	0.00020503	992.98	7.6752e-06	4.5453e-06	1082.7	437.61	1.0854e-05	1.2929e-05	517.83	203.56	170.12	81.04	1.1201e-05	100.98	0.0033024	0.0036708	0.0010142	1057.4	3.9642e-05	4.0789e-05	1147.6	457.29	4.0411e-05	4.1482e-05	551.23	216.74	182.8	85.21	4.1525e-05	106.47	187.559	-62.092	-0.280	-130.540	29.858	149.783	-131.630	-125.973	-46.754	21.507	-127.699	-123.864	-122.026	-117.019	33.359	-119.216	-8191	255	
1670.771	1	1	0	0	0.21669	0.073456	0.25268	0.20326	0.33367	0.22718	0.25088	0.18112	0.16693	0.21616	0.095356	0.22173	0.096212	0.20591	0.32857	0.17236	-2.3875	-1.9	-2.3104	-2.5521	-1.6229	-2.7458	-2.0833	-2.2396	-2.6271	-1.9208	-2.5479	-2.5917	-2.0229	-2.6813	-2.2646	-2.0146	111.435	-17.194	133.255	175.985	142.470	-19.860	169.080	-75.803	144.305	69.280	170.321	125.700	-42.432	-114.375	2.196	173.402	0.00077209	0.00074766	0.0001105	1004.1	1.1142e-05	8.4293e-06	1085.5	436.76	1.194e-05	1.1596e-05	516.11	205.15	169.75	81.299	3.0901e-06	100.44	0.0034999	0.0038997	0.0010766	1069.5	4.1963e-05	4.2668e-05	1153.8	458.06	4.1383e-05	4.1607e-05	549.66	217.66	182.6	85.276	4.0403e-05	106.09	191.917	-26.576	-85.617	-130.484	-30.741	-18.674	-131.576	-125.997	-45.295	-89.797	-127.625	-123.976	-122.020	-116.869	-50.463	-119.062	-8191	255	
1670.867	1	1	0	0	0.074959	0.18907	0.15947	0.15811	0.12582	0.10231	0.24294	0.11992	0.18123	0.19036	0.13492	0.19775	0.11476	0.15905	0.10022	0.19163	-2.2875	-1.7917	-2.0292	-2.8604	-1.85	-2.6354	-2.1958	-2.175	-2.8563	-1.8229	-2.5083	-2.8479	-2.0333	-2.7	-2.4146	-2.0479	125.662	24.076	-42.870	118.253	32.064	35.643	53.247	179.371	-124.295	-105.585	152.510	114.532	142.634	155.412	156.522	156.284	0.00081066	0.00031344	0.00037521	991.98	1.0102e-05	1.2262e-05	1078.6	434.2	5.1789e-06	1.4496e-05	513.48	203.4	169.49	80.558	6.8234e-06	100.07	0.0033728	0.0037403	0.0010496	1057.3	4.0345e-05	4.0902e-05	1143.4	454.88	3.9551e-05	3.9406e-05	544.91	216.01	181.2	84.55	3.7616e-05	105.3	183.121	-99.019	-65.607	-130.533	-61.080	-7.333	-131.358	-125.922	-22.448	-48.294	-127.632	-123.927	-122.192	-116.782	-38.535	-119.121	-8191	255	
1670.962	1	1	0	0	0.071445	0.16673	0.20594	0.19285	0.28673	0.066115	0.15335	0.3237	0.08906	0.10444	0.13135	0.10917	0.22596	0.21948	0.10154	0.1801	-2.3083	-2.0271	-2.1813	-2.6646	-1.65	-2.4562	-2.6896	-2.0708	-2.75	-2.1396	-2.1063	-2.8292	-1.9521	-2.7188	-2.5979	-1.8625	-32.990	-72.741	33.723	102.192	122.733	21.523	146.816	146.737	90.066	-40.507	187.645	-81.108	210.325	206.776	170.894	125.829	0.00083695	0.0017174	0.00024235	993.92	7.2791e-06	4.615e-06	1080.6	436.19	1.2199e-05	1.4205e-05	514.6	205.93	170.19	81.699	1.0031e-05	100.86	0.0031002	0.0034087	0.00094278	1050.3	3.6325e-05	3.7346e-05	1137.5	455.16	3.6594e-05	3.6765e-05	544.76	216.65	181.66	85.211	3.5185e-05	105.9	186.851	-27.449	-39.606	-130.465	3.647	-1.104	-131.408	-125.872	20.675	-16.272	-127.259	-124.039	-122.147	-116.991	8.936	-119.144	-8191	255	
1671.082	1	1	0	0	0.20412	0.13005	0.090832	0.25976	0.029758	0.25053	0.4429	0.28937	0.33907	0.12318	0.23142	0.079894	0.20542	0.2138	0.071319	0.15401	-2.2375	-2.0875	-1.8813	-2.875	-1.9083	-2.25	-2.8792	-1.9417	-2.6708	-2.3	-2.0125	-2.8958	-2.1625	-2.4979	-2.4771	-2.1583	66.179	-5.739	193.047	207.462	20.331	-44.832	156.769	158.530	109.721	182.737	194.157	-63.982	208.670	150.779	34.531	159.317	0.00082667	0.00095805	0.00022456	1001.2	1.2541e-06	5.2976e-06	1084	440.72	6.6983e-06	4.111e-06	517.69	206.39	172.06	82.496	1.0774e-05	101.63	0.0029603	0.0032594	0.00090937	1055.8	3.5475e-05	3.6224e-05	1142.5	458.21	3.6002e-05	3.6054e-05	546.77	217.38	182.61	85.743	3.51e-05	106.41	185.036	-127.602	-28.001	-130.381	42.526	20.893	-131.578	-125.870	-86.785	34.148	-127.628	-123.764	-122.055	-116.708	32.161	-119.093	-8191	255	
1671.178	1	1	0	0	0.1674	0.1184	0.10333	0.044651	0.37493	0.093904	0.07841	0.36304	0.27824	0.11705	0.26504	0.2259	0.094388	0.14296	0.098675	0.23223	-2.2896	-2.3042	-1.9688	-2.9042	-1.8667	-2.4604	-2.6896	-2.075	-2.4917	-2.3542	-2.0708	-2.9958	-2.3271	-2.5167	-2.7521	-2.0021	96.383	113.340	20.573	174.733	-127.976	191.335	137.142	171.187	115.941	113.680	137.299	173.660	214.482	-91.089	57.025	186.985	0.00075961	0.00053476	5.2257e-05	1010.7	1.0437e-05	9.6274e-06	1090.4	442.02	1.4308e-05	1.8048e-06	517.46	207.14	171.99	82.491	1.036e-05	101.96	0.0029409	0.0032198	0.00090435	1064.5	3.5193e-05	3.5755e-05	1149.5	459.6	3.5819e-05	3.6711e-05	547.93	218.6	183.4	86.017	3.6994e-05	107.01	186.450	-128.531	-62.958	-130.295	12.099	-9.453	-131.437	-125.913	-23.819	-76.103	-127.604	-124.005	-122.007	-116.871	-41.382	-119.083	-8191	255	
1671.275	1	1	0	0	0.1891	0.36707	0.18807	0.00612	0.18343	0.2818	0.13244	0.4024	0.15852	0.06201	0.30076	0.19245	0.381	0.22688	0.15796	0.14224	-2.0667	-2.5208	-1.6417	-2.8042	-2.2125	-1.9771	-2.9062	-2.2146	-2.2875	-2.5104	-1.9375	-2.7458	-2.3542	-2.1083	-2.6854	-2.3271	-63.435	-138.312	173.497	49.015	-73.937	190.156	83.838	210.842	-64.910	95.991	164.010	208.680	-52.056	178.956	7.227	-120.584	0.00079365	0.00054793	0.0002785	1008.5	1.0379e-05	1.1049e-05	1092	438.26	6.5455e-06	1.1654e-05	518.78	205.97	171.28	82.082	6.4954e-06	101.09	0.0030668	0.0033934	0.00093744	1064	3.6149e-05	3.7114e-05	1145.7	456.45	3.5163e-05	3.5715e-05	545.62	216.62	181.94	85.37	3.4216e-05	105.69	187.825	-33.411	-25.284	-130.496	13.446	-14.674	-131.363	-125.962	-57.289	-9.905	-127.557	-123.768	-122.037	-116.951	19.304	-119.060	-8191	255	
1671.371	1	1	0	0	0.38809	0.25144	0.30248	0.28755	0.085955	0.24168	0.091503	0.14222	0.37389	0.14567	0.1522	0.024918	0.10316	0.28447	0.21298	0.29929	-1.7812	-2.6333	-1.8083	-2.7125	-2.4062	-1.7479	-2.9667	-2.0896	-2.2854	-2.5271	-1.8292	-2.7583	-2.5833	-2.1	-2.7354	-2.0354	-84.464	98.305	206.749	176.708	-107.221	115.747	180.705	202.419	127.980	138.393	200.078	115.188	173.343	194.883	-26.252	88.014	0.0007454	0.00041034	0.00025966	1002.8	1.0026e-05	8.1257e-06	1084.6	438.46	5.8951e-06	1.2796e-05	515.75	205.31	170.85	82.016	1.7366e-06	100.8	0.0028291	0.003134	0.00086769	1053.2	3.3037e-05	3.4024e-05	1135.4	455.27	3.2984e-05	3.3867e-05	542.08	215.33	181.01	84.823	3.289e-05	105.1	189.445	-46.024	-39.630	-130.155	-12.434	-36.161	-131.464	-125.988	-31.363	25.218	-127.597	-123.796	-122.222	-116.918	116.931	-118.959	-8191	255	
1671.467	1	1	0	0	0.14492	0.26991	0.15091	0.24959	0.083363	0.1332	0.12124	0.2286	0.2645	0.091861	0.3629	0.19517	0.17575	0.070607	0.20247	0.18856	-1.6479	-2.6458	-1.7125	-2.5833	-2.3021	-2.075	-2.9292	-2.2417	-2.1437	-2.7479	-1.8167	-2.6542	-2.525	-1.9979	-2.5083	-2.3104	77.791	-52.062	158.773	124.410	-72.179	82.207	-32.777	113.411	-2.694	-109.664	-141.825	179.498	194.048	93.440	-39.324	151.159	0.00086499	0.0012297	0.00030902	1004.4	3.2506e-06	7.11e-06	1090.4	441.67	5.2722e-06	1.5468e-05	517.75	207.68	172.82	82.511	2.3743e-07	101.86	0.0027301	0.0029923	0.00084672	1056.1	3.2498e-05	3.3196e-05	1141.3	457.71	3.2514e-05	3.338e-05	544.35	217.14	182.74	85.712	3.2623e-05	106.38	189.098	-46.936	-49.299	-130.201	43.620	128.815	-131.353	-125.890	-116.269	35.638	-127.531	-123.722	-121.995	-116.905	59.739	-119.176	-8191	255	
1671.563	1	1	0	0	0.29009	0.10268	0.0665	0.32201	0.21772	0.091657	0.11992	0.12248	0.13429	0.18727	0.2964	0.22142	0.28611	0.11055	0.26159	0.18999	-1.5667	-2.7146	-1.7229	-2.5	-2.3625	-1.8917	-2.7854	-2.4167	-2.125	-2.8625	-2.0542	-2.2729	-2.5854	-2.0729	-2.5354	-2.4	196.414	165.363	-23.894	154.615	58.504	-134.766	126.184	134.549	-126.307	206.776	176.875	211.622	196.051	150.683	23.536	164.207	0.00073363	0.0014407	3.4673e-05	1014.1	8.225e-06	8.5447e-06	1089.8	443.64	3.671e-06	7.3583e-06	517.18	205.77	171.97	82.261	9.3356e-07	101.45	0.0027478	0.0030204	0.00084158	1062.1	3.231e-05	3.3294e-05	1141.4	458.79	3.2435e-05	3.2942e-05	543.16	216.19	181.87	85.35	3.1702e-05	105.56	185.967	-52.074	-52.961	-130.305	16.086	35.563	-131.363	-126.001	149.828	-20.237	-127.615	-123.915	-121.864	-116.995	-87.808	-119.145	-8191	255	
1671.659	1	1	0	0	0.10856	0.14692	0.20345	0.20018	0.078357	0.10515	0.21212	0.35781	0.028158	0.28085	0.19655	0.24807	0.31805	0.17605	0.025954	0.16375	-1.375	-2.4646	-1.7708	-2.1813	-2.4896	-1.7229	-2.5771	-2.5917	-1.6875	-2.4208	-2.3354	-1.9917	-2.5146	-2.0062	-2.2479	-2.4646	80.990	124.227	-28.036	209.554	125.383	28.330	195.186	213.471	-115.315	-81.496	170.524	-142.656	207.934	92.707	202.076	137.391	0.00087644	0.0014987	0.00034018	1009.3	1.6998e-06	1.5436e-05	1089.9	440.95	1.2275e-05	1.0578e-05	516.95	206.55	171.9	82.028	2.2069e-06	100.85	0.0026294	0.0028972	0.0007946	1054	3.0821e-05	3.1225e-05	1134.9	456.67	3.0966e-05	3.1703e-05	540.87	215.58	181.18	84.891	3.0573e-05	105.01	181.684	-20.013	-28.058	-130.387	-126.094	19.017	-131.112	-125.970	-19.327	5.630	-127.557	-123.684	-121.910	-116.928	38.966	-119.257	-8191	255	
1671.755	1	1	0	0	0.06104	0.12061	0.17748	0.21681	0.17749	0.24195	0.31983	0.26732	0.25354	0.13867	0.44292	0.32832	0.18366	0.19172	0.050014	0.34316	-1.2208	-2.6875	-2.0167	-2.2354	-2.6	-1.7271	-2.5833	-2.6229	-1.8854	-2.4813	-2.35	-2.1333	-2.6521	-2.0292	-2.3688	-2.5396	-95.121	85.140	191.762	-43.994	-113.301	-18.152	153.933	171.898	-35.210	-80.134	188.106	169.136	41.147	-121.131	197.676	140.638	0.00081784	0.0011562	0.0001821	1005.9	9.4945e-06	7.0448e-06	1088.6	440.52	7.9596e-06	8.2161e-06	515.87	205.47	173.05	81.836	1.1337e-05	100.99	0.002542	0.0027728	0.00076007	1051	2.9687e-05	3.024e-05	1134.3	455.67	3.0488e-05	3.1088e-05	541.45	215.17	181.63	84.863	3.0946e-05	105.4	179.513	-82.352	-111.885	-130.160	-51.138	18.430	-131.192	-126.079	10.536	80.591	-127.642	-123.757	-122.007	-116.829	-15.652	-119.179	-8191	255	
1671.874	1	1	0	0	0.39607	0.23532	0.017816	0.088838	0.31935	0.086709	0.083589	0.17934	0.13104	0.40564	0.099478	0.15343	0.27784	0.405	0.30183	0.071552	-1.3625	-2.5146	-1.9667	-1.8583	-2.7354	-1.9417	-2.5354	-2.7625	-1.5229	-2.675	-2.2812	-1.9708	-2.8146	-2.2333	-2.0208	-2.8771	52.622	86.875	33.301	207.760	97.321	68.297	-139.944	137.643	48.500	-102.652	129.260	175.651	-114.103	209.289	103.112	125.460	0.00080007	0.0015075	0.00022134	1015.6	9.4715e-06	1.3398e-06	1092.6	444.4	7.299e-06	1.0444e-05	520.56	206.8	172.57	82.621	1.3213e-05	101.36	0.0026067	0.0028639	0.0007918	1059.4	3.145e-05	3.1833e-05	1141.9	458.85	3.2152e-05	3.2615e-05	545.13	217.1	182.71	85.635	3.2478e-05	106.11	179.485	-38.369	-37.184	-130.165	-41.270	53.450	-131.269	-125.979	-17.382	-30.573	-127.571	-123.756	-122.081	-116.864	-5.904	-119.050	-8191	255	
1671.970	1	1	0	0	0.055128	0.18212	0.19491	0.36929	0.12812	0.030078	0.32548	0.060574	0.14829	0.097302	0.29937	0.21326	0.45566	0.26339	0.27658	0.24513	-1.1583	-2.4458	-2.4417	-1.9396	-2.5667	-2.0938	-2.2229	-2.9188	-1.6292	-2.4208	-2.4667	-1.9021	-2.7021	-2.1521	-2.1604	-2.8292	-129.760	-63.615	-142.624	200.153	-41.888	-104.763	117.448	15.667	-117.067	190.604	153.395	-87.184	211.185	149.751	136.518	183.844	0.00078112	0.0007573	0.00031115	1014.9	6.4748e-06	1.0015e-05	1094.1	443.12	1.3499e-05	4.3383e-06	516.95	206.25	171.75	81.97	7.7407e-06	100.47	0.002797	0.0030917	0.00086125	1065.9	3.3866e-05	3.4572e-05	1143.9	459.06	3.4176e-05	3.4884e-05	545.2	216.75	182.29	84.998	3.4368e-05	105.41	183.601	-57.416	-14.773	-130.051	-38.430	35.216	-131.182	-126.013	-35.143	-54.543	-127.608	-123.801	-121.911	-116.968	-12.160	-119.029	-8191	255	
1672.044	1	1	0	0	0.22061	0.15745	0.1456	0.048967	0.12683	0.3283	0.36634	0.14739	0.18006	0.20836	0.090947	0.45969	0.32413	0.22271	0.093378	0.27929	-1.1083	-2.4813	-2.5604	-1.8667	-2.6896	-2.5604	-2.2333	-2.7562	-1.8417	-2.4625	-2.4333	-1.9875	-2.7458	-2.3896	-2.0125	-2.8583	170.336	-87.628	179.639	-106.905	142.896	182.292	138.635	150.161	148.878	-110.412	-120.783	125.158	149.767	204.465	-137.738	104.458	0.00083887	0.00015664	0.0001115	1006.9	4.4757e-06	8.8812e-06	1084.8	439.44	3.6721e-06	9.8152e-06	513.45	204.4	170.81	80.86	3.1458e-06	100.37	0.0028689	0.0031524	0.00088226	1059	3.4316e-05	3.4683e-05	1139.5	455.71	3.4071e-05	3.4502e-05	542.1	215.19	181.07	84.342	3.4681e-05	104.93	184.416	-80.786	23.499	-130.347	74.501	-10.219	-131.344	-125.790	118.484	103.259	-127.620	-123.916	-121.744	-117.024	-23.133	-118.988	-8191	255	
1672.163	1	1	0	0	0.36047	0.11901	0.27119	0.20192	0.12549	0.26499	0.11026	0.30136	0.18142	0.032612	0.087106	0.10611	0.36822	0.38675	0.2249	0.229	-1.4937	-2.2979	-2.5187	-1.7875	-2.5292	-2.2938	-1.975	-2.7938	-1.9271	-2.3917	-2.6208	-1.9813	-2.5521	-2.4583	-1.6812	-2.9938	-104.898	-105.670	99.776	-119.492	56.147	79.448	-36.262	161.719	172.054	192.623	203.940	24.950	168.402	206.864	-61.909	187.482	0.00084963	0.0011981	0.00020285	1004.8	1.5447e-05	3.9789e-06	1084.6	438.24	4.9659e-06	6.0448e-06	512.26	204.77	170.86	81.358	7.1895e-06	100.33	0.002901	0.0032228	0.00089986	1056.7	3.5069e-05	3.5437e-05	1137.8	455.21	3.4894e-05	3.5529e-05	542.96	215.77	181.62	84.766	3.6123e-05	105.31	186.794	-89.341	-99.150	-130.046	-26.260	47.949	-131.354	-125.757	-53.266	64.728	-127.625	-123.874	-121.746	-116.673	-63.965	-119.074	-8191	255	
1672.259	1	1	0	0	0.15403	0.14532	0.079728	0.095748	0.10523	0.39022	0.26878	0.2558	0.0646	0.12989	0.13423	0.14269	0.18323	0.19231	0.0064424	0.14818	-1.7167	-1.8563	-2.6396	-1.95	-2.3708	-2.1604	-1.9042	-2.9167	-2.1688	-1.7417	-2.7354	-2.2042	-2.4708	-2.4688	-1.8458	-2.7833	61.099	-32.174	-77.405	76.284	-75.371	89.747	189.574	187.766	40.046	117.873	133.006	170.312	146.000	208.865	-25.341	122.116	0.00074399	0.00047096	0.00019184	1002.9	1.2607e-05	2.5521e-06	1081.9	437.54	7.4273e-06	1.327e-05	514.02	204.58	170.33	80.739	1.0637e-05	99.755	0.0030215	0.0033905	0.00095744	1061.1	3.7475e-05	3.8347e-05	1144.5	456.67	3.8562e-05	4.0086e-05	547.35	217.56	183.3	84.907	4.2623e-05	105.81	190.085	-19.049	-98.679	-130.340	-18.658	26.175	-131.326	-125.885	-12.043	-10.896	-127.529	-123.985	-121.736	-116.927	-26.250	-118.960	-8191	255	
1672.355	1	1	0	0	0.09266	0.054265	0.17332	0.33723	0.27419	0.15658	0.065128	0.17535	0.055062	0.15094	0.36582	0.13187	0.20494	0.32382	0.22881	0.22682	-1.7292	-1.9542	-2.4917	-2.1792	-2.3187	-2.6708	-2.0125	-2.5646	-2.2354	-1.8771	-2.6625	-2.1792	-2.3083	-2.6312	-1.9104	-2.8333	215.694	-96.883	82.834	-138.215	74.637	178.900	-102.848	-82.638	-137.209	96.655	83.998	-45.919	-80.657	169.092	-123.631	-119.786	0.00091998	0.00098588	0.00015945	997.08	1.0383e-05	8.6244e-06	1082.6	434.81	3.5204e-06	1.2991e-05	510.82	203.17	168.68	80.424	9.6779e-06	98.877	0.0035952	0.0040013	0.0011277	1069.3	4.3654e-05	4.4939e-05	1152.6	457.37	4.2953e-05	4.3458e-05	547.38	216.55	182.75	84.566	4.3086e-05	105.01	194.225	26.738	-1.271	-130.346	-65.715	-6.066	-131.048	-125.931	-75.408	56.746	-127.312	-123.686	-121.917	-116.726	-43.918	-118.877	-8191	255	
1672.476	1	1	0	0	0.43142	0.32238	0.10466	0.075177	0.054179	0.32455	0.14375	0.08121	0.25541	0.10726	0.022567	0.11811	0.1411	0.053891	0.28232	0.36691	-2.0125	-1.8708	-2.4375	-2.1083	-2	-2.4562	-1.9667	-2.5312	-2.3271	-1.7646	-2.7958	-2.2875	-2.0187	-3.0646	-1.5583	-2.4021	168.598	-70.307	-33.338	156.803	75.040	148.676	164.465	117.242	40.788	0.920	-47.384	-122.543	-98.517	147.085	-91.758	201.252	0.00079813	0.00080389	0.00023881	998.55	3.2573e-06	7.0187e-06	1081.1	432.99	6.0799e-06	1.041e-05	510.93	202.64	169.52	79.927	7.4526e-06	98.716	0.0035598	0.0040083	0.0011168	1067.5	4.352e-05	4.5065e-05	1151.8	457.13	4.4803e-05	4.6146e-05	548.64	216.83	183.21	84.524	4.5299e-05	105.07	191.131	-122.971	-73.531	-130.496	-105.311	78.550	-131.132	-125.859	-32.781	34.822	-127.571	-123.948	-121.972	-116.672	-36.598	-118.793	-8191	255	
1672.572	1	1	0	0	0.25129	0.055928	0.16298	0.089184	0.21365	0.24739	0.021063	0.39712	0.11005	0.10335	0.34414	0.27817	0.086646	0.14784	0.23992	0.23917	-2.1479	-1.625	-2.6646	-2.2812	-2.1063	-2.7375	-1.95	-2.6479	-2.4125	-1.7104	-2.7062	-2.2562	-1.9917	-2.8563	-2.0208	-2.3479	-14.881	-58.467	-21.231	153.332	25.854	138.783	7.523	123.628	-68.301	-40.786	-117.563	-127.797	128.055	214.285	78.382	205.923	0.00074318	0.0011853	0.00033281	987.77	1.1655e-06	8.7684e-06	1076.6	432.54	7.5325e-06	1.3863e-05	508.44	202.69	168.8	80.322	1.0971e-05	99.161	0.0037066	0.0041667	0.0011649	1065.3	4.492e-05	4.6241e-05	1149.5	455.88	4.4488e-05	4.5725e-05	547.47	216.84	182.61	84.662	4.4584e-05	105.41	172.858	-16.554	-102.190	-130.444	210.197	-65.050	-131.259	-125.782	-59.267	-80.282	-127.341	-123.802	-121.512	-116.883	-33.457	-118.811	-8191	255	
1672.643	1	1	0	0	0.15917	0.23432	0.15783	0.16703	0.076507	0.030189	0.12462	0.38437	0.14391	0.18327	0.06858	0.20942	0.18228	0.019954	0.34011	0.31721	-2.3896	-1.6875	-2.4833	-2.5229	-1.8646	-2.5875	-2.1667	-2.4688	-2.4167	-1.7333	-2.8229	-2.2687	-1.9354	-2.8042	-1.7021	-2.3771	-59.262	177.870	54.509	46.205	-29.548	-42.873	145.407	165.778	-59.988	-38.340	-143.491	132.590	44.033	-98.365	-136.072	159.487	0.0008009	0.001417	0.00024069	1001.1	2.5118e-06	5.4567e-06	1081.6	434.78	1.2692e-05	1.3374e-05	509.7	202.8	169.61	80.14	3.818e-06	99.493	0.0037017	0.0041315	0.0011474	1069.7	4.4438e-05	4.5546e-05	1151	457.66	4.3751e-05	4.4865e-05	548.23	216.9	183.23	84.696	4.3799e-05	105.49	177.074	203.847	-72.588	-130.484	14.958	-88.728	-131.141	-125.763	-25.157	-18.750	-127.331	-123.663	-121.910	-116.655	3.466	-118.780	-8191	255	
1672.740	1	1	0	0	0.24494	0.090721	0.07552	0.22814	0.29697	0.18597	0.19025	0.1931	0.031218	0.059738	0.19284	0.1874	0.23875	0.18464	0.29018	0.23469	-2.3521	-1.7083	-2.4604	-2.5979	-1.6104	-2.6896	-2.1875	-2.4021	-2.4854	-1.7708	-2.5167	-2.5187	-1.9312	-2.7479	-1.9896	-2.3104	-130.306	144.059	168.636	209.816	-70.589	147.004	110.569	202.195	145.391	-98.283	-135.778	175.012	214.187	203.397	58.578	166.574	0.00086325	0.00057578	0.00034251	996.24	2.2986e-06	4.3621e-06	1082.4	435.51	9.1703e-07	9.3292e-06	513.41	203.93	170.18	80.77	8.5415e-06	99.677	0.0036646	0.004118	0.0011346	1071.4	4.4397e-05	4.5418e-05	1157.3	458.68	4.4702e-05	4.55e-05	550.65	218.18	183.83	85.127	4.4585e-05	106.07	187.773	-59.066	-41.895	-130.226	39.017	71.480	-131.213	-125.901	-65.300	78.057	-127.521	-123.760	-122.019	-116.687	-64.538	-118.979	-8191	255	
1672.858	1	1	0	0	0.28443	0.12238	0.047797	0.1507	0.068583	0.12053	0.16942	0.24561	0.27515	0.028617	0.20439	0.30351	0.40052	0.31947	0.17389	0.10721	-2.3125	-1.8229	-2.1958	-2.6875	-1.6271	-2.8583	-2.3958	-2.1104	-2.5458	-1.9375	-2.4021	-2.6583	-1.9833	-2.7292	-2.2208	-1.775	108.950	-61.295	-2.580	197.034	99.180	-22.738	61.499	160.131	132.511	1.312	81.065	212.384	-47.161	-134.198	99.904	159.642	0.00076484	0.00050169	0.00037068	998.07	6.2454e-06	1.022e-05	1084	434.85	1.0219e-05	1.1571e-05	510	204.06	169.08	80.127	7.4171e-06	99.306	0.0037465	0.00421	0.001176	1073.8	4.6364e-05	4.6993e-05	1158.4	458.74	4.6536e-05	4.7414e-05	550.49	218.31	183.18	84.66	4.5076e-05	105.52	181.924	132.804	-31.026	-130.366	16.041	61.580	-131.389	-125.831	-42.469	-55.334	-127.481	-123.737	-121.922	-116.744	-127.283	-118.824	-8191	255	
1672.955	1	1	0	0	0.17463	0.090656	0.1685	0.083544	0.21294	0.081804	0.22479	0.19162	0.11037	0.098058	0.22785	0.19697	0.4712	0.21924	0.074442	0.30108	-2.4813	-1.8792	-1.9417	-2.6937	-1.8354	-2.6375	-2.4125	-1.9896	-2.5583	-2.1188	-2.0146	-2.8042	-1.7833	-2.5896	-2.3917	-2.0646	56.441	-73.412	15.047	-99.033	127.624	-105.147	-65.661	121.972	171.001	105.473	-89.754	150.655	-141.840	205.420	-14.992	145.562	0.00093784	0.00084221	0.00023834	986.63	4.5694e-06	1.8329e-05	1076.7	432.25	7.2128e-06	9.9795e-06	510.48	203.23	168.88	80.17	4.3333e-06	99.016	0.0037127	0.0040942	0.0011311	1062.6	4.425e-05	4.5074e-05	1148.7	455.29	4.5229e-05	4.6253e-05	548.22	217.16	182.86	84.718	4.5953e-05	105.42	181.765	-112.881	-65.050	-130.270	93.259	-0.309	-131.374	-125.831	-35.777	133.622	-127.489	-123.767	-121.796	-116.644	11.601	-119.014	-8191	255	
1673.051	1	1	0	0	0.20466	0.25302	0.26368	0.33437	0.35068	0.22002	0.46915	0.14596	0.13015	0.35143	0.2677	0.21245	0.078341	0.19743	0.042371	0.24844	-2.275	-1.9854	-2.1063	-2.7042	-1.7812	-2.3417	-2.6292	-1.9937	-2.6292	-2.0479	-1.9417	-2.9458	-1.7875	-2.5	-2.4917	-1.7792	-80.197	-69.133	88.541	-80.763	207.728	122.001	179.365	159.775	-125.082	137.805	-125.173	120.233	112.837	158.979	-67.272	125.328	0.0008916	0.00091492	0.00023644	993.67	3.793e-06	1.194e-05	1072.3	431.33	9.8208e-06	6.632e-06	508.05	202.32	168.54	80.005	1.1829e-05	98.737	0.0038048	0.0042219	0.0011697	1064.8	4.5662e-05	4.6287e-05	1147.4	454.86	4.5757e-05	4.6333e-05	547.36	216.81	182.64	84.471	4.5371e-05	105.27	192.516	-66.135	-46.309	-130.249	-85.274	2.255	-131.482	-125.945	-53.313	-0.831	-127.545	-123.734	-121.811	-116.532	-64.797	-118.978	-8191	255	
1673.147	1	1	0	0	0.23279	0.37815	0.23088	0.16199	0.25964	0.20715	0.3246	0.2111	0.097298	0.15273	0.10172	0.23116	0.16831	0.24366	0.11833	0.18231	-2.1917	-2.0604	-1.7146	-2.8917	-1.7958	-2.0125	-2.9	-1.9583	-2.4458	-2.3	-1.8125	-2.5542	-2.0417	-2.2583	-2.7167	-2.0229	-99.458	-11.369	105.493	130.949	16.364	174.896	180.967	206.351	-3.647	134.874	100.085	-40.582	-114.238	208.280	-111.424	120.722	0.00080232	0.0016125	0.00045999	988.84	1.0529e-05	7.4041e-06	1076.6	430.72	7.0249e-06	1.5287e-05	510.1	203.4	168.67	80.087	1.4167e-05	99.402	0.0037639	0.0041977	0.0011752	1063	4.5183e-05	4.6078e-05	1146.5	454.26	4.5174e-05	4.5788e-05	546.93	217.27	183.1	84.71	4.5599e-05	105.51	193.203	-81.426	-76.029	-130.273	-55.204	-35.380	-131.190	-125.907	-95.566	25.889	-127.341	-123.568	-121.876	-116.643	47.073	-118.884	-8191	255	
1673.268	1	1	0	0	0.096253	0.045767	0.27283	0.18837	0.32506	0.18082	0.34704	0.12765	0.070114	0.019637	0.10308	0.14774	0.24869	0.34169	0.10618	0.20746	-1.9188	-2.4417	-1.5229	-2.5563	-2.2333	-2.0312	-2.8708	-2.0083	-2.2812	-2.4521	-1.9458	-2.6896	-2.1021	-2.0062	-2.6875	-2.0833	-14.374	-4.022	30.815	165.336	159.860	-95.399	139.342	86.640	86.951	150.310	100.183	-73.177	-137.588	196.225	126.649	163.385	0.000771	0.00087654	0.00040223	991.84	1.1651e-05	4.5967e-06	1080.1	433.32	7.8983e-06	6.5654e-06	509.58	203.73	169.72	80.616	7.8992e-06	99.105	0.0037492	0.0041572	0.0011626	1064.9	4.4556e-05	4.5441e-05	1150.6	455.93	4.4014e-05	4.4849e-05	547.13	217.3	182.47	84.706	4.288e-05	105.01	184.518	-41.660	-24.924	-130.346	-42.401	-7.952	-131.408	-125.763	145.281	24.982	-127.454	-123.427	-121.724	-116.657	20.324	-118.967	-8191	255	
1673.339	1	1	0	0	0.1503	0.14565	0.095819	0.097775	0.093831	0.10378	0.22766	0.19793	0.24131	0.18658	0.23381	0.10571	0.14574	0.08191	0.30093	0.174	-1.9271	-2.275	-1.775	-2.5479	-2.2625	-1.9125	-2.8042	-1.9438	-2.3	-2.325	-1.8208	-2.6375	-2.0771	-2.0187	-2.6479	-2.0104	192.641	17.244	209.855	121.780	-62.529	198.500	172.658	181.898	111.912	67.974	163.872	-120.397	193.318	-108.669	-11.928	-138.702	0.00075753	0.0011647	0.00038293	992.41	3.9246e-06	3.5763e-06	1072.8	434.13	7.6097e-06	6.7612e-06	507.72	203.09	169.12	80.301	1.1578e-05	99.172	0.0034591	0.0038159	0.0010608	1053.7	4.0385e-05	4.1295e-05	1137.9	453.05	4.0344e-05	4.1237e-05	542.93	215.83	181.53	84.405	4.0747e-05	104.89	187.489	-95.608	-23.507	-130.098	-51.149	11.753	-131.171	-125.734	-72.274	-32.619	-127.544	-123.545	-121.990	-116.814	17.146	-118.838	-8191	255	
1673.435	1	1	0	0	0.26682	0.080484	0.21998	0.2192	0.17827	0.12005	0.24658	0.43407	0.1743	0.22658	0.1114	0.4068	0.14385	0.46355	0.11679	0.16848	-1.7938	-2.3167	-1.725	-2.5646	-2.2167	-1.6896	-2.5938	-2.0708	-1.9292	-2.5521	-1.8563	-2.5792	-2.4625	-2.0354	-2.6083	-2.2146	18.049	58.592	50.471	128.381	203.189	-11.168	109.736	168.638	-38.551	166.238	176.659	163.609	23.510	157.249	191.141	-70.697	0.00065727	0.0013528	0.00036232	992.33	1.8438e-06	1.2116e-05	1077.7	433.09	8.0601e-06	1.1518e-05	512.81	204.11	169.43	81.009	1.079e-05	100.13	0.0033113	0.0036803	0.0010261	1055.5	3.8968e-05	3.9912e-05	1137.9	453.16	3.884e-05	3.9576e-05	543.7	216.23	182.12	84.953	3.9839e-05	105.8	186.637	-70.245	-43.306	-130.211	42.016	12.009	-131.102	-125.894	-30.202	171.934	-127.375	-123.767	-121.738	-116.742	21.670	-118.994	-8191	255	
1673.556	1	1	0	0	0.12061	0.20186	0.10651	0.21802	0.087491	0.049995	0.33614	0.22488	0.30977	0.33181	0.18107	0.15486	0.17349	0.4195	0.15999	0.29204	-1.6688	-2.7687	-1.5375	-2.4771	-2.3979	-1.7333	-2.8312	-2.0958	-2.1167	-2.7042	-2.1021	-2.4542	-2.625	-1.9854	-2.5646	-2.4062	-37.203	189.056	51.939	66.467	211.377	144.333	155.667	172.250	118.584	65.168	125.684	208.985	188.545	-126.209	38.596	128.632	0.00076975	0.00054709	0.00026589	1001	3.4819e-06	3.9421e-06	1084.8	436.25	1.2101e-05	8.009e-06	515.63	206.13	171.14	81.336	1.5015e-05	100.58	0.0033349	0.0037489	0.0010411	1064.1	4.0546e-05	4.1659e-05	1148	457.03	4.1244e-05	4.2238e-05	549.25	218.67	184.14	85.629	4.2127e-05	106.47	188.223	-37.563	-8.796	-130.134	19.793	-14.087	-131.161	-125.950	-6.018	-8.565	-127.337	-123.898	-121.777	-116.749	13.792	-118.822	-8191	255	
1673.652	1	1	0	0	0.13823	0.20852	0.26167	0.18678	0.11265	0.13897	0.071464	0.13531	0.1046	0.11823	0.091634	0.27054	0.28824	0.062204	0.025695	0.20862	-1.5063	-2.6813	-1.8833	-2.2917	-2.5021	-1.6979	-2.6833	-2.3604	-1.8687	-2.6937	-2.2104	-2.2687	-2.6271	-1.9062	-2.4896	-2.5917	155.270	-40.849	187.189	129.855	-102.515	-133.086	-68.466	101.378	-62.171	83.731	141.399	111.851	208.735	129.057	88.137	106.409	0.00075451	0.0011861	0.00039394	999.6	4.8514e-06	8.6671e-06	1089.6	435.64	3.7667e-06	1.3753e-05	512.01	205.6	171.15	80.822	1.5139e-06	99.929	0.0034776	0.0038951	0.001086	1067.5	4.2269e-05	4.3531e-05	1155.9	457.82	4.3107e-05	4.3874e-05	548.85	218.6	184.04	85.335	4.3277e-05	106.08	188.382	-99.464	-3.193	-130.143	186.465	-112.454	-131.332	-125.800	-91.702	16.340	-127.533	-123.631	-121.888	-116.578	162.640	-118.970	-8191	255	
1673.748	1	1	0	0	0.23735	0.029991	0.023274	0.22679	0.1135	0.31618	0.039643	0.33278	0.015827	0.048148	0.34106	0.36416	0.30159	0.37862	0.1363	0.23685	-1.3208	-2.6396	-1.7958	-2.1063	-2.7229	-1.6646	-2.5479	-2.5458	-1.7062	-2.6208	-2.1104	-2.0229	-2.95	-2.0854	-2.1896	-2.6312	148.480	-26.335	90.814	183.650	21.182	-130.400	139.277	189.508	-81.560	134.218	157.489	179.746	189.830	190.822	-40.507	130.027	0.00093823	0.00055364	0.00034684	995.69	8.015e-07	1.3751e-05	1072.4	432.66	1.0809e-05	1.3921e-05	511.32	204.38	170.01	80.768	1.2432e-05	100.19	0.003585	0.0040241	0.0011017	1062.9	4.2602e-05	4.3715e-05	1145	454.9	4.285e-05	4.3873e-05	547.78	217.97	183.69	85.14	4.3647e-05	106.18	181.510	-74.305	-15.371	-130.127	13.943	-5.073	-130.962	-125.842	18.638	26.968	-127.402	-123.487	-121.849	-116.596	-43.607	-118.870	-8191	255	
1673.844	1	1	0	0	0.20365	0.12944	0.19881	0.17094	0.090642	0.18303	0.076457	0.41578	0.17453	0.22458	0.19065	0.19843	0.30637	0.31849	0.22381	0.093106	-1.4438	-2.6833	-2.0146	-1.9	-2.7354	-1.7167	-2.3896	-2.8458	-1.5708	-2.6688	-2.2562	-2.0229	-2.8646	-2.0229	-2.3646	-2.7062	110.679	116.580	118.610	183.304	-17.436	49.727	145.688	157.993	13.634	50.853	53.671	183.027	132.355	-112.836	188.181	178.349	0.00085758	0.0013303	0.00013269	993.7	3.0219e-06	2.0582e-06	1078.5	430.51	6.3877e-06	2.212e-05	511.94	203.54	169.16	80.375	1.7735e-05	99.417	0.0036741	0.0041376	0.0011482	1064.9	4.5854e-05	4.7334e-05	1156	456.55	4.7936e-05	4.905e-05	551.51	219.28	184.66	85.312	4.8512e-05	106.52	185.751	-105.304	-47.099	-129.903	95.937	207.326	-131.114	-125.849	-102.099	-2.000	-127.343	-123.894	-121.713	-116.688	-4.618	-118.747	-8191	255	
1673.939	1	1	0	0	0.051279	0.3036	0.17414	0.070226	0.084292	0.038074	0.17621	0.32669	0.22708	0.18789	0.017994	0.20615	0.23633	0.24029	0.25878	0.1972	-1.5187	-2.3854	-2.1042	-1.8979	-2.8021	-1.9833	-2.1729	-2.8354	-1.7375	-2.4021	-2.3521	-2.1083	-2.725	-2.2562	-1.9688	-2.7062	117.704	177.888	24.901	-77.149	33.246	-125.130	134.099	177.002	132.242	-126.581	78.880	170.469	183.832	188.669	-45.758	84.498	0.00081964	0.00045997	0.00051959	985.34	9.9194e-06	1.4226e-05	1073.4	430.87	9.0012e-06	1.5444e-05	508.63	203.23	169.07	80.538	2.7145e-06	99.564	0.004097	0.0045216	0.0012638	1068.3	4.9374e-05	5.0567e-05	1158.5	457.55	5.0911e-05	5.2539e-05	553.72	220.04	184.97	85.55	5.1546e-05	107.07	184.246	26.431	-89.446	-130.199	-2.255	-7.493	-131.118	-125.675	-36.951	89.327	-127.391	-123.588	-121.895	-116.771	40.360	-118.903	-8191	255	
1674.037	1	1	0	0	0.15797	0.1391	0.16777	0.072711	0.35753	0.062939	0.268	0.1171	0.14136	0.20298	0.42019	0.10045	0.18936	0.2578	0.086637	0.30953	-1.5333	-2.4062	-2.4521	-1.6104	-2.8292	-1.9562	-1.95	-3.0438	-1.7875	-2.5333	-2.6333	-2.0083	-2.6875	-2.525	-1.7958	-2.8438	-84.514	170.894	117.813	72.967	130.920	-40.354	79.674	-0.926	-26.533	116.307	192.617	145.807	208.429	-127.399	6.339	-127.485	0.00097715	0.0011464	0.00028358	982.16	4.4783e-06	1.3369e-05	1079.5	430.38	8.8197e-06	1.5107e-05	509.15	204.28	168	80.34	3.5012e-06	99.855	0.0042682	0.0047729	0.0013186	1069.8	5.098e-05	5.2071e-05	1160.5	457.03	5.1252e-05	5.2053e-05	553.26	220.2	184.81	85.492	5.1599e-05	107.12	183.044	-103.485	-66.467	-130.154	-91.748	20.268	-131.054	-125.913	-109.811	-3.590	-127.446	-123.580	-121.658	-116.765	-35.346	-118.724	-8191	255	
1674.156	1	1	0	0	0.23229	0.10596	0.23727	0.2216	0.15344	0.074697	0.24082	0.3311	0.20538	0.21963	0.3872	0.24543	0.21057	0.30911	0.13173	0.33192	-1.4062	-2.0979	-2.5333	-2.0563	-2.3854	-2.3104	-2.0062	-2.8625	-2.0104	-2.1396	-2.7396	-1.9104	-2.4729	-2.5396	-1.7625	-2.8937	-15.945	214.765	52.689	119.353	-135.937	-89.178	-113.397	153.769	-93.834	33.911	187.939	190.933	173.278	-70.459	65.042	165.198	0.00073758	0.0013041	0.00057623	979.5	1.2168e-05	1.1838e-05	1068.8	427.09	7.9911e-06	1.3656e-05	507.63	204.21	168.87	80.924	8.7967e-06	100.6	0.004284	0.0047773	0.0013457	1068.3	5.2583e-05	5.3007e-05	1159.4	455.89	5.324e-05	5.4785e-05	554.78	221.61	185.82	86.507	5.5271e-05	108.8	182.777	-21.651	-46.181	-130.104	-0.991	-26.502	-131.224	-125.623	-89.315	19.179	-127.458	-123.495	-121.455	-116.877	-50.510	-118.833	-8191	255	
1674.252	1	1	0	0	0.26371	0.22357	0.17547	0.042139	0.2657	0.1965	0.10095	0.23926	0.017487	0.099211	0.31579	0.30578	0.25227	0.079691	0.13844	0.18274	-1.5021	-1.9188	-2.5187	-1.9062	-2.3354	-2.5333	-1.9521	-2.7979	-1.9396	-2.1188	-2.6583	-2.0167	-2.3729	-2.3958	-1.6875	-2.9625	-53.399	-13.411	127.811	-30.656	49.652	-84.427	-143.462	182.157	-37.569	76.996	121.700	147.595	154.127	212.464	-90.482	191.904	0.00081224	0.00070337	0.00026257	983.78	4.4036e-06	7.9135e-06	1075.4	426.82	3.6176e-06	1.8662e-05	508.95	206.79	170.03	82.197	8.5419e-06	102.43	0.0046058	0.0051618	0.0014582	1076.7	5.6843e-05	5.7769e-05	1170.5	458.29	5.7275e-05	5.8498e-05	559.77	224.72	188.35	88.193	5.9379e-05	110.72	183.471	-134.208	-108.772	-130.289	-68.860	30.823	-131.079	-125.857	42.948	-38.269	-127.142	-123.728	-121.681	-116.797	-50.138	-118.916	-8191	255	
1674.348	1	1	0	0	0.049747	0.19239	0.21751	0.31053	0.024149	0.097512	0.070521	0.37497	0.076913	0.19672	0.24169	0.023139	0.034005	0.46288	0.15623	0.094727	-1.6313	-2.0604	-2.7062	-2.1604	-2.5396	-2.5104	-2.1479	-2.7792	-2.1979	-2.0521	-3.0396	-2.3	-2.6833	-2.7438	-1.9104	-3.0438	192.909	108.351	118.273	200.513	110.856	88.602	173.323	-126.191	-120.073	186.277	165.507	-131.384	130.518	202.834	-65.931	150.708	0.00086003	0.00037639	0.00015256	977.47	7.4269e-06	8.4288e-06	1073.5	428.89	2.624e-06	7.2892e-07	511.98	208.67	172.45	83.751	4.6314e-06	104.43	0.0048352	0.0054548	0.0015244	1078.9	5.8569e-05	5.9712e-05	1175.7	460.31	5.8191e-05	5.8885e-05	562.79	226.62	189.7	89.358	5.5307e-05	111.98	196.816	-68.625	-51.722	-130.103	14.896	-23.197	-130.932	-125.740	181.057	149.125	-127.257	-123.079	-121.376	-116.868	-127.122	-118.867	-8191	255	
1674.444	1	1	0	0	0.10251	0.19918	0.18712	0.24617	0.35271	0.13995	0.31657	0.098433	0.22718	0.056576	0.10919	0.22816	0.18809	0.17024	0.3565	0.28015	-1.8979	-1.95	-2.7958	-2.2229	-2.2917	-2.8167	-2.0333	-2.6604	-2.625	-2.0646	-3.0292	-2.0708	-2.3396	-2.8063	-1.8979	-2.875	-57.719	-17.916	139.390	174.664	-76.441	203.899	135.680	136.584	-89.194	207.928	-114.543	-94.442	201.455	204.701	166.339	175.453	0.00080494	0.0013577	6.1866e-05	993.59	6.8336e-06	1.1214e-05	1090.9	437.85	6.5071e-06	1.2148e-05	521.09	212.45	176.97	85.76	1.8164e-06	106.09	0.0044541	0.00498	0.0013648	1082.1	5.1756e-05	5.2885e-05	1176.6	465.72	5.0308e-05	5.169e-05	565.25	228.28	192.3	90.886	5.1527e-05	113.22	188.794	-59.723	-88.862	-129.994	-57.159	-72.687	-130.939	-125.615	-60.253	94.665	-126.895	-123.647	-121.503	-116.606	41.056	-118.908	-8191	255	
1674.565	1	1	0	0	0.24564	0.27697	0.091003	0.30927	0.092727	0.02157	0.33352	0.29064	0.062065	0.15583	0.23241	0.24854	0.077792	0.20034	0.18122	0.30656	-2.0917	-1.8937	-2.5958	-2.4167	-2.1167	-2.6958	-2.3063	-2.6063	-2.6646	-1.8042	-2.8104	-2.4208	-2.3229	-3.0021	-2.0438	-2.5208	171.862	88.749	83.593	182.807	31.008	97.303	-141.123	173.809	165.034	131.791	-112.138	165.666	100.264	193.571	-84.488	144.946	0.00072742	0.00094681	0.00020662	1017.2	7.5644e-06	6.6068e-06	1101.3	442.77	6.4552e-06	4.9284e-06	524.62	213.34	176.98	86.019	5.4617e-06	106.04	0.0042343	0.0048023	0.0013405	1098.6	5.1627e-05	5.3106e-05	1188.5	469.27	5.2107e-05	5.3401e-05	568.03	229.84	192.99	91.165	5.1614e-05	113.33	185.112	-81.407	-63.852	-130.024	-28.938	22.862	-131.149	-125.515	-30.971	61.627	-126.925	-123.639	-121.723	-116.604	-64.922	-118.766	-8191	255	
1674.636	1	1	0	0	0.11563	0.23504	0.22017	0.23379	0.23837	0.092277	0.12664	0.31046	0.10344	0.10482	0.1559	0.13578	0.11946	0.36108	0.18057	0.26148	-2.1646	-1.8188	-2.7292	-2.2313	-1.9729	-2.7833	-1.9354	-2.4417	-2.6646	-1.8563	-2.7208	-2.5438	-2.1333	-2.8896	-2.0042	-2.4125	185.509	132.131	16.639	141.536	-119.550	102.541	202.579	208.128	46.856	163.877	106.799	-33.742	-87.913	-128.298	141.215	158.073	0.00080269	0.0013963	0.00015468	1008.4	8.0301e-06	1.4831e-06	1102.4	442.48	5.8169e-06	1.4079e-05	523.17	213.49	177.57	86.817	4.6028e-06	106.43	0.0041846	0.0046499	0.0012815	1089.5	4.8999e-05	5.0054e-05	1181.6	467.71	4.9656e-05	5.0906e-05	566.28	229.27	192.97	91.663	4.9436e-05	113.51	192.660	-52.240	-87.565	-130.039	201.032	163.870	-131.095	-125.516	-24.899	-15.865	-127.217	-123.426	-121.904	-116.749	-64.835	-118.590	-8191	255	
1674.733	1	1	0	0	0.090111	0.082538	0.1491	0.26898	0.20242	0.11879	0.014643	0.32808	0.20759	0.1949	0.098929	0.1791	0.15666	0.18719	0.17046	0.11114	-2.0812	-1.8729	-2.5542	-2.4125	-1.8771	-2.7917	-2.1979	-2.2958	-2.6021	-1.7938	-2.5333	-2.7479	-2.0167	-3.0417	-2.0417	-2.2562	208.724	-65.507	9.910	139.706	-81.818	-59.112	70.097	178.761	11.204	52.912	107.058	126.309	118.370	207.733	186.248	206.610	0.00090315	0.00083092	0.00022076	1018.5	1.1215e-05	1.6311e-05	1104.9	445.17	1.4903e-05	1.0583e-05	525.05	214.52	178.59	86.947	4.3342e-06	107.05	0.0040661	0.0045585	0.0012492	1096.8	4.8511e-05	4.9698e-05	1185.6	470.63	4.8768e-05	4.9875e-05	567.24	230.07	194.1	92.153	4.9566e-05	113.94	189.770	-14.998	10.815	-130.158	-52.100	-27.861	-131.090	-125.535	-96.047	48.111	-126.996	-123.727	-121.619	-116.658	-11.616	-118.780	-8191	255	
1674.829	1	1	0	0	0.26427	0.24227	0.16165	0.12583	0.14137	0.095009	0.24294	0.30361	0.11726	0.17017	0.11851	0.13233	0.37556	0.29129	0.31351	0.43265	-2.3875	-1.8271	-2.5229	-2.7708	-1.7979	-2.5521	-2.4104	-2.1896	-2.6875	-2.0563	-2.5333	-2.6708	-1.9167	-2.7271	-2.2229	-2.3146	129.423	-35.282	-43.058	205.332	32.453	-65.482	151.099	167.420	62.212	149.393	161.712	-18.889	135.333	183.342	17.172	208.722	0.0009439	0.00095439	0.00013466	1016.8	6.6372e-06	1.4893e-05	1112	446.42	1.1535e-05	1.1985e-05	525.36	214.81	178.89	87.443	2.7461e-06	107.33	0.0041148	0.004616	0.0012766	1100.5	4.9869e-05	5.138e-05	1192.7	472.54	5.2099e-05	5.3692e-05	573.01	232.32	195.78	93.07	5.5285e-05	115.45	189.489	-94.790	28.955	-130.135	34.764	-4.699	-130.899	-125.516	-15.857	-120.538	-127.042	-123.524	-121.630	-116.621	104.108	-118.703	-8191	255	
1674.948	1	1	0	0	0.048137	0.20445	0.17818	0.059465	0.25755	0.037136	0.24791	0.27413	0.3204	0.26294	0.18619	0.24963	0.28912	0.10303	0.13869	0.15837	-2.1667	-1.9438	-2.2562	-2.8271	-1.7437	-2.5958	-2.2687	-2.1	-2.7687	-2.2042	-2.3646	-2.9521	-2.0979	-2.7146	-2.5583	-2.15	-10.205	52.970	203.854	-125.586	182.223	117.389	196.748	166.705	-58.558	-39.607	170.246	141.727	149.771	167.332	-49.690	119.435	0.00079038	0.0011499	0.00013674	1022.2	1.017e-05	9.5059e-06	1110.6	442.51	1.3089e-05	1.2665e-05	527.98	214.41	178.85	87.537	1.0381e-05	107.66	0.0046156	0.0051688	0.0014339	1114.6	5.5963e-05	5.7314e-05	1203.6	473.24	5.5968e-05	5.647e-05	575.96	232.89	196.1	93.142	5.5473e-05	115.57	183.411	-86.497	-91.918	-130.200	16.628	18.094	-131.207	-125.539	-50.086	44.180	-127.356	-123.600	-121.560	-116.573	-9.763	-118.942	-8191	255	
1675.044	1	1	0	0	0.11496	0.24164	0.17186	0.27014	0.13988	0.27233	0.18343	0.21009	0.055024	0.14693	0.34019	0.30706	0.11489	0.30996	0.29729	0.27029	-2.3625	-2.1292	-1.8854	-2.7604	-1.7708	-2.375	-2.5729	-2.0125	-2.7479	-1.9521	-2.2729	-2.7833	-1.9562	-2.6229	-2.4083	-2.1667	-87.174	169.674	-58.605	-129.857	100.043	-106.188	-67.534	199.364	-19.065	174.641	141.613	203.866	160.341	-128.678	205.468	-131.280	0.00087123	0.0021774	0.00045829	1013.7	8.1968e-06	3.2141e-06	1101.9	441.37	7.3996e-06	1.7757e-05	522.69	214.38	177.53	86.572	4.7502e-06	106.46	0.0046072	0.0051183	0.0014129	1106.4	5.4387e-05	5.4879e-05	1194.5	469.73	5.3406e-05	5.4141e-05	568.72	230.71	193.36	91.795	5.1103e-05	113.85	185.058	-89.493	-70.637	-130.087	-7.128	-100.859	-131.002	-125.498	-139.347	59.093	-127.004	-123.503	-121.360	-116.548	49.857	-118.594	-8191	255	
1675.140	1	1	0	0	0.12816	0.3096	0.20158	0.076829	0.062485	0.12611	0.46207	0.21238	0.19217	0.025856	0.12429	0.19396	0.20603	0.3246	0.17551	0.13915	-2.2	-2.1708	-1.9771	-2.975	-1.8167	-2.35	-2.6083	-2.0646	-2.6833	-2.3146	-1.9813	-3.2125	-2.0917	-2.4854	-2.6292	-2.1542	-75.466	53.003	-138.438	154.654	-118.444	-53.839	139.182	192.817	-76.224	74.624	131.649	97.600	73.320	209.172	188.592	132.440	0.00083788	0.00061017	0.00039002	1012.3	1.1992e-05	1.4919e-05	1099.7	441.71	1.1152e-05	4.8637e-06	521.28	213.81	176.53	86.401	5.4114e-06	106.16	0.0041741	0.0045907	0.0012755	1091	4.8197e-05	4.8655e-05	1177.2	465.48	4.623e-05	4.6531e-05	560.81	227.56	190.31	90.659	4.2531e-05	112.2	195.540	-82.564	-103.665	-130.023	-69.469	-19.880	-131.149	-125.470	-85.849	115.683	-127.026	-123.353	-121.611	-116.346	-109.797	-118.670	-8191	255	
1675.236	1	1	0	0	0.24499	0.19773	0.050269	0.36112	0.12238	0.055497	0.061029	0.3592	0.18036	0.19559	0.11142	0.075374	0.31847	0.22624	0.10751	0.36918	-2.1417	-2.5062	-1.7271	-2.8875	-2.2375	-2.2333	-2.6521	-2.2938	-2.5563	-2.4062	-1.8167	-2.7938	-2.2146	-2.4375	-2.7292	-2.2583	-65.790	163.323	213.421	183.268	-60.409	-113.179	94.820	183.836	48.595	-115.976	-23.228	157.453	158.947	188.356	71.681	197.762	0.00089499	0.00051849	7.0093e-05	1017.8	4.7663e-06	2.1657e-05	1105.5	445.39	7.7177e-06	1.7467e-05	526.71	215.45	179.61	87.864	9.2141e-06	107.74	0.0034064	0.0037463	0.0010316	1077.8	3.8635e-05	3.8634e-05	1163	464.19	3.5889e-05	3.5328e-05	553.7	225.47	189.33	90.84	2.9574e-05	111.64	181.234	-90.541	-94.825	-129.855	21.764	-19.184	-131.025	-125.548	126.926	7.937	-127.082	-123.460	-121.402	-116.559	-50.487	-118.746	-8191	255	
1675.332	1	1	0	0	0.028964	0.10315	0.13372	0.060114	0.14751	0.39329	0.21085	0.40168	0.1364	0.21873	0.33118	0.25108	0.041327	0.27967	0.10427	0.27839	-1.9375	-2.4667	-1.8521	-2.8458	-2.0042	-1.9792	-2.8104	-2.175	-2.3729	-2.6292	-2.0583	-2.9083	-2.475	-1.9833	-2.6792	-2.2271	72.783	98.131	93.476	-30.740	207.257	-74.297	-143.060	164.745	146.021	68.933	178.456	180.076	37.937	178.964	161.363	141.735	0.0008866	0.00079065	0.00013666	1051.2	5.4004e-06	1.0503e-05	1126.9	460.58	8.2845e-06	1.0527e-05	537.8	218.83	184.49	89.07	3.1202e-06	108.36	0.0023291	0.0024944	0.00068931	1085.5	2.5078e-05	2.473e-05	1163.8	471.31	2.2748e-05	2.2477e-05	553.33	225.24	190.18	91.185	2.0571e-05	111.3	190.524	-80.939	-50.722	-130.198	-5.357	20.773	-130.994	-125.578	-41.451	41.880	-127.146	-123.266	-121.574	-116.405	-55.581	-118.692	-8191	255	
1675.428	1	1	0	0	0.23571	0.28598	0.27945	0.093975	0.10477	0.060886	0.26625	0.1443	0.235	0.049339	0.27317	0.25348	0.14836	0.21741	0.17858	0.17486	-1.6792	-2.5938	-1.6938	-2.55	-2.3292	-2.0042	-2.7771	-2.0687	-2.0146	-2.6	-1.9958	-2.6208	-2.4229	-1.9333	-2.7521	-2.3979	39.246	180.446	-17.734	-143.401	-43.748	-30.218	125.502	169.489	172.613	-72.159	210.771	-136.119	-129.994	168.810	24.219	180.865	0.00087988	0.00087448	0.00039241	1076.6	4.3387e-06	3.9368e-06	1148.4	469.1	6.105e-06	1.2034e-05	541.49	219.77	185.17	88.943	7.3751e-06	107.64	0.0017005	0.0017868	0.00049007	1099.4	1.8375e-05	1.8338e-05	1170.3	475.34	1.7204e-05	1.7301e-05	552.93	224.56	189.8	90.442	1.679e-05	110.14	184.874	-74.295	-39.313	-129.830	-23.540	-20.963	-130.974	-125.618	6.600	16.865	-127.022	-123.293	-121.684	-116.353	-6.616	-118.588	-8191	255	
1675.524	1	1	0	0	0.1423	0.24785	0.19717	0.16604	0.11795	0.073967	0.21279	0.17639	0.063356	0.045266	0.21713	0.24517	0.20721	0.35933	0.20969	0.30798	-1.8104	-2.6312	-1.8896	-2.6667	-2.4188	-1.7854	-2.8937	-2.4083	-2.0167	-2.6896	-1.9813	-2.6667	-2.6896	-2.0042	-2.5354	-2.1833	40.179	87.739	48.084	155.211	-134.991	-92.224	173.802	212.287	-105.491	37.104	164.386	-130.885	210.600	215.478	-50.639	207.382	0.00086432	0.00084301	0.0001209	1089.1	1.1152e-05	8.605e-06	1156.2	473.32	1.0235e-05	5.4574e-06	546.78	218.19	185.01	87.879	4.4762e-06	106.55	0.0014469	0.0015131	0.0004119	1106.1	1.5549e-05	1.5967e-05	1174.1	478.03	1.5033e-05	1.5263e-05	554.33	222.37	189.01	89.074	1.4936e-05	108.57	186.030	-107.499	-9.407	-129.976	-3.756	-7.084	-130.873	-125.551	-44.578	57.483	-126.922	-123.459	-121.362	-116.298	-74.475	-118.346	-8191	255	
1675.645	1	1	0	0	0.19435	0.17849	0.28054	0.16217	0.11964	0.13168	0.21164	0.11328	0.082431	0.17973	0.31568	0.34416	0.14265	0.025487	0.11391	0.12775	-1.525	-2.5062	-1.7792	-2.6125	-2.4396	-1.7687	-2.5646	-2.5438	-1.8813	-2.5187	-1.7896	-2.6021	-2.7812	-2.1104	-2.5146	-2.5083	-23.300	61.490	-72.888	161.956	115.825	96.039	105.327	78.492	-130.816	63.721	179.479	190.171	184.005	27.128	142.798	200.113	0.00088369	0.00075262	0.00031337	1097.5	1.0749e-05	6.0845e-06	1164.7	476.78	1.1875e-05	1.3928e-05	547.85	218.54	184.08	87.1	5.8584e-06	106	0.0013151	0.0013732	0.0003777	1112.2	1.462e-05	1.4844e-05	1179.8	480.62	1.4226e-05	1.4227e-05	555.26	221.86	188.11	88.333	1.3544e-05	107.83	187.140	-76.908	-36.420	-129.931	2.998	-12.505	-131.006	-125.691	-16.173	16.763	-127.119	-123.209	-121.331	-116.248	15.918	-118.482	-8191	255	
1675.740	1	1	0	0	0.24104	0.25521	0.29813	0.35151	0.078068	0.14245	0.19054	0.12351	0.12977	0.1693	0.36527	0.22102	0.32552	0.13758	0.072625	0.37799	-1.5063	-2.8187	-1.9188	-2.3792	-2.5229	-1.8062	-2.7479	-2.4271	-1.7479	-2.9229	-2.0563	-2.2687	-2.9271	-2.0167	-2.4208	-2.6937	70.371	-70.339	93.613	159.903	65.688	-87.294	130.911	213.653	-11.648	-5.716	193.067	-40.257	148.310	148.572	194.801	153.577	0.0008312	0.0012493	0.00010616	1112.2	7.2124e-06	8.0039e-06	1174.6	477.79	9.6843e-06	9.9016e-06	551.62	218.78	186.19	86.847	8.2743e-06	106.93	0.0012057	0.0012319	0.00034136	1120.2	1.3066e-05	1.357e-05	1188	483.02	1.3076e-05	1.3137e-05	558.3	222.03	189.08	88.301	1.2906e-05	108.09	191.030	-83.787	-47.896	-130.139	-18.610	-16.979	-131.230	-125.761	-27.615	-40.959	-127.369	-123.868	-121.760	-116.602	-10.452	-118.839	-8191	255	
1675.837	1	1	0	0	0.13873	0.33886	0.081786	0.12818	0.29531	0.37621	0.22264	0.20023	0.067261	0.21384	0.029049	0.34254	0.40225	0.33432	0.11903	0.17714	-1.1458	-2.5354	-2.1021	-2.1417	-2.7083	-1.9104	-2.7458	-2.6167	-1.9958	-2.6437	-2.0792	-2.1375	-3.025	-2.1667	-2.175	-2.7896	14.172	-79.583	185.452	152.538	188.785	112.561	147.982	-117.760	172.165	-138.932	204.982	-139.186	196.127	210.428	-55.915	179.145	0.00085006	0.00070063	0.00019592	1119.8	2.7598e-06	1.1036e-05	1184.2	481.65	5.165e-06	4.3906e-06	557.81	219.63	186.3	86.571	3.7986e-06	105.69	0.0011692	0.0012023	0.00032753	1127.5	1.3101e-05	1.3336e-05	1196.6	486.43	1.3333e-05	1.3317e-05	563.01	223.03	189.96	88.119	1.3418e-05	107.65	184.920	-42.801	-68.621	-130.411	-53.042	-4.151	-131.217	-125.874	-45.897	46.757	-127.478	-123.660	-121.854	-116.391	-29.386	-118.594	-8191	255	
1675.932	1	1	0	0	0.033914	0.23023	0.17229	0.31229	0.11195	0.18414	0.25481	0.33677	0.2807	0.28049	0.14819	0.16521	0.19241	0.079714	0.26403	0.26553	-1.2938	-2.5104	-2.2896	-2.075	-2.7771	-2.0687	-2.5312	-2.8812	-1.8208	-2.5563	-2.4854	-2.0563	-2.8063	-2.2396	-2.0854	-2.7583	-130.746	96.435	97.880	178.398	-80.250	83.890	132.226	164.718	215.368	164.842	33.462	153.136	192.968	153.634	14.691	129.445	0.0008935	0.0008094	0.00011026	1121.9	2.6741e-06	1.0513e-05	1180.7	482.14	6.9088e-06	5.0948e-06	556.78	216.33	183.93	84.977	1.488e-06	103.67	0.0012042	0.0012339	0.00034461	1131	1.3671e-05	1.386e-05	1197.4	487.13	1.4666e-05	1.484e-05	562.96	220.61	188.09	86.551	1.538e-05	105.94	186.806	-81.675	-62.417	-130.157	-62.932	-6.665	-131.321	-125.924	-53.021	-25.547	-127.335	-123.472	-121.601	-116.389	58.052	-118.592	-8191	255	
1676.028	1	1	0	0	0.1714	0.2934	0.28382	0.14438	0.18186	0.23235	0.37686	0.26671	0.14845	0.14125	0.20846	0.13339	0.051828	0.38328	0.10827	0.20969	-1.275	-2.5458	-2.3521	-2.0438	-2.7208	-1.9292	-2.2292	-2.8187	-1.7542	-2.3125	-2.4771	-1.8479	-2.775	-2.2771	-2.1583	-2.9042	36.785	17.450	177.309	-64.931	-108.893	192.451	150.124	181.427	67.850	-64.880	124.601	-131.674	-116.598	158.116	-37.713	69.132	0.00083148	0.00081653	0.00028375	1125.3	2.8225e-06	5.527e-06	1186	485.25	1.154e-05	1.2094e-05	558.74	217.54	185.49	85.506	7.6007e-06	104.19	0.0013341	0.0013797	0.00037832	1138.7	1.4606e-05	1.4868e-05	1204.9	490.42	1.4962e-05	1.5085e-05	565.21	221.84	189.34	86.99	1.519e-05	106.19	184.993	-65.264	-82.256	-130.343	-3.779	29.181	-131.312	-125.862	-37.179	2.600	-127.572	-123.670	-121.511	-116.478	-0.048	-118.558	-8191	255	
1676.124	1	1	0	0	0.13029	0.16062	0.045046	0.12085	0.33048	0.24303	0.090305	0.16349	0.035816	0.12978	0.28431	0.068521	0.094775	0.13994	0.14643	0.37088	-1.3458	-2.2771	-2.55	-2.1208	-2.6604	-2.1813	-2.2229	-2.9021	-1.8667	-2.2833	-2.7042	-1.9479	-2.7625	-2.3833	-1.9562	-2.8021	149.790	-24.336	-48.971	198.304	81.818	-24.857	198.614	152.451	138.820	167.404	157.854	187.004	183.533	149.998	103.617	158.630	0.00074639	0.0006341	0.00014035	1133.7	7.5907e-06	1.0562e-05	1194.4	485.67	1.0337e-05	1.6698e-05	559.28	215.43	184.08	84.007	5.8875e-06	102.58	0.0013792	0.0014357	0.00040408	1145.3	1.5713e-05	1.6024e-05	1213.6	492.08	1.6249e-05	1.6445e-05	568.12	220.31	188.25	85.666	1.7194e-05	104.76	187.217	-54.643	-4.429	-130.265	12.627	-8.931	-131.379	-125.808	-25.609	1.509	-127.309	-123.773	-121.623	-116.228	-19.858	-118.222	-8191	255	
1676.245	1	1	0	0	0.13625	0.17712	0.44318	0.33581	0.36773	0.034239	0.23241	0.15986	0.10588	0.044573	0.33913	0.17544	0.29635	0.092341	0.084642	0.38956	-1.3937	-2.1792	-2.6188	-1.8521	-2.4333	-2.4417	-1.875	-2.9167	-2.0687	-2.275	-2.9188	-1.8875	-2.5833	-2.6188	-1.7229	-2.8812	-139.215	190.956	168.667	149.369	201.071	-90.278	100.422	149.908	-99.282	193.200	-142.229	207.502	-11.936	184.622	39.404	184.798	0.00083051	0.00077655	0.00023251	1131.1	1.3612e-05	1.4239e-05	1198.2	483.66	5.2385e-06	7.2752e-06	558.04	213.79	181.99	82.963	5.3826e-06	101.77	0.0015035	0.001582	0.00044903	1148.5	1.7243e-05	1.7522e-05	1217.5	491.8	1.7285e-05	1.7327e-05	566.55	218.61	186.66	84.659	1.728e-05	104.04	185.331	-112.477	-63.819	-130.233	-18.800	21.619	-131.369	-125.934	-36.621	-8.718	-127.311	-123.445	-121.565	-116.316	-2.185	-118.228	-8191	255	
1676.341	1	1	0	0	0.01226	0.2174	0.15616	0.1815	0.12467	0.20809	0.2469	0.20645	0.075687	0.10625	0.11156	0.21809	0.085625	0.31891	0.06033	0.36627	-1.6104	-2.0292	-2.5292	-2.2188	-2.4521	-2.3563	-2.0396	-3.0021	-2.0146	-2.225	-3.1146	-2.1417	-2.4021	-2.5354	-1.5979	-2.6083	-91.103	196.462	-76.588	205.514	139.963	32.823	132.976	159.316	-23.581	-7.697	133.796	148.230	213.156	163.707	99.845	88.028	0.0008167	0.0011189	0.00027864	1136.5	4.0245e-06	9.4859e-06	1198.3	484.88	4.8438e-06	1.257e-05	556.81	213.15	181.96	82.444	8.5383e-06	101.45	0.0014661	0.0015691	0.00043643	1150.4	1.6916e-05	1.7402e-05	1218.5	490.84	1.7267e-05	1.749e-05	566.38	217.68	186.4	84.184	1.7211e-05	103.76	184.672	-62.451	-90.527	-130.332	-35.044	14.623	-131.251	-125.736	-33.563	37.153	-127.187	-123.663	-121.442	-116.009	-23.227	-118.237	-8191	255	
1676.437	1	1	0	0	0.13988	0.18653	0.32803	0.32304	0.060926	0.056924	0.33984	0.038289	0.13784	0.16717	0.14717	0.36201	0.16781	0.23582	0.14683	0.15995	-1.7708	-1.7979	-2.6312	-1.7208	-2.2667	-2.475	-1.7229	-2.5479	-2.2438	-1.5917	-2.7938	-2.0687	-2.0083	-2.6937	-1.9229	-2.85	-121.427	178.325	-32.183	162.807	-94.783	-43.708	127.377	104.457	46.609	-54.745	160.371	132.222	208.429	164.781	-132.649	109.295	0.00086652	0.00039602	0.0003184	1127.3	5.8399e-06	3.8279e-06	1196.3	485.48	6.9378e-06	6.3279e-06	556.65	213.45	181.75	82.61	7.4363e-06	100.96	0.0014705	0.0015634	0.00043232	1146.3	1.6612e-05	1.6784e-05	1216.4	491.84	1.621e-05	1.6239e-05	565.59	217.52	186.22	84.152	1.572e-05	103.21	182.730	-53.960	-40.370	-130.146	9.352	0.962	-131.417	-125.713	-37.185	44.518	-127.101	-123.603	-121.495	-116.149	-6.958	-118.234	-8191	255	
1676.509	1	1	0	0	0.14224	0.23979	0.16288	0.10456	0.14875	0.21207	0.18634	0.22562	0.20395	0.068831	0.10897	0.21843	0.24044	0.10954	0.1595	0.14642	-1.8333	-1.5646	-2.6312	-1.8875	-2.2396	-2.5979	-1.9	-2.4938	-2.3167	-1.8271	-2.7875	-2.0646	-1.8375	-2.9479	-1.5521	-2.3937	98.594	-110.348	52.541	124.875	112.122	89.807	172.222	160.137	-62.188	15.436	-72.114	-140.634	179.857	-69.549	47.750	-141.869	0.00084509	0.00057941	0.00040438	1128.2	5.2508e-06	4.4956e-06	1184.3	484.98	4.8399e-06	8.6253e-06	554.91	211.83	180.82	82.419	2.9421e-06	100.6	0.0013549	0.0014202	0.00039328	1140.9	1.518e-05	1.5501e-05	1206.4	490.33	1.5017e-05	1.5159e-05	562.79	216.05	185.23	83.856	1.4609e-05	102.64	184.901	-70.593	-66.717	-130.303	-27.119	53.355	-131.141	-125.757	-28.341	21.042	-127.134	-123.510	-121.744	-116.149	-76.046	-118.411	-8191	255	
1676.629	1	1	0	0	0.11047	0.13317	0.10796	0.069747	0.19144	0.24835	0.11686	0.14442	0.38092	0.33273	0.29577	0.36262	0.24089	0.29117	0.03837	0.21228	-2.1937	-1.6979	-2.5792	-1.8167	-1.8333	-2.4583	-1.9583	-2.4542	-2.3583	-1.5896	-2.3021	-2.1562	-1.6979	-2.5687	-1.5792	-2.4562	-118.452	-51.630	107.782	123.662	161.169	185.184	154.690	180.905	211.100	14.678	155.788	175.462	166.340	165.125	-124.970	139.735	0.00076428	0.00056494	0.00015941	1124.5	4.9478e-06	1.0157e-05	1189.4	486.32	9.7544e-06	2.2992e-06	554.98	211.96	181.74	83.178	9.0229e-06	101.45	0.0012798	0.0013343	0.00037011	1136.5	1.4201e-05	1.4491e-05	1203.6	490.79	1.4035e-05	1.412e-05	561.95	215.92	185.61	84.413	1.3873e-05	103.33	183.882	-33.933	-63.394	-130.171	-19.792	13.972	-131.320	-125.611	-69.334	15.587	-126.985	-123.579	-121.342	-116.094	-21.204	-118.257	-8191	255	
1676.725	1	1	0	0	0.18666	0.17004	0.14102	0.27143	0.27323	0.24888	0.20576	0.28552	0.20311	0.075527	0.34227	0.23564	0.22848	0.29637	0.50299	0.43544	-2.0625	-1.7417	-2.2542	-2.2667	-1.9792	-2.7042	-2.1083	-2.2854	-2.5396	-1.725	-2.5229	-2.4083	-2.0875	-2.9646	-2.0896	-2.4854	-60.954	151.515	104.116	-86.231	-45.459	9.249	-123.255	130.571	138.318	168.728	209.020	212.944	-81.487	179.700	163.893	89.290	0.0008184	0.00066709	0.00020762	1127.3	6.9153e-06	3.3827e-06	1190.2	489.64	8.1797e-06	1.0671e-05	558.36	215.29	183.74	84.447	5.6184e-06	102.94	0.0012168	0.0012584	0.00034488	1137.6	1.3603e-05	1.3632e-05	1205	493.15	1.3429e-05	1.3697e-05	565.23	218.39	187.39	85.611	1.3448e-05	104.35	185.128	-84.132	-56.175	-130.243	13.952	22.417	-131.146	-125.681	-43.946	-1.078	-127.274	-123.603	-121.503	-116.195	52.484	-118.393	-8191	255	
1676.822	1	1	0	0	0.19562	0.11305	0.13092	0.23419	0.084889	0.28366	0.23212	0.32507	0.0056028	0.19919	0.13372	0.40429	0.15965	0.35204	0.2014	0.04194	-2.3417	-1.9146	-2.4104	-2.5875	-1.5396	-2.625	-2.1917	-1.9375	-2.5542	-1.9708	-2.6625	-2.5354	-1.8625	-2.8521	-2.1229	-2.0896	51.395	131.057	3.536	199.764	-104.229	74.442	159.196	127.969	-83.975	79.376	-61.035	145.007	178.843	172.005	75.232	-14.653	0.00080592	0.0009017	0.00032301	1124.6	4.6062e-06	4.8367e-06	1190.4	489.46	7.9302e-06	1.2561e-05	560.66	215.7	184.35	84.846	1.4791e-06	103.28	0.0011966	0.0012369	0.00033971	1138.3	1.3106e-05	1.3345e-05	1204.3	493.75	1.2978e-05	1.3268e-05	565.99	219.42	187.82	86.014	1.2807e-05	104.89	189.684	-84.518	-45.786	-130.170	39.553	-38.104	-131.215	-125.601	-19.760	5.542	-127.283	-123.466	-121.470	-116.025	-64.194	-118.354	-8191	255	
1676.918	1	1	0	0	0.11027	0.1395	0.055904	0.016404	0.10022	0.14192	0.23649	0.46043	0.28636	0.30312	0.28919	0.32961	0.048065	0.076389	0.09933	0.1722	-2.4042	-1.5896	-2.2458	-2.5646	-1.6812	-2.4396	-2.3167	-1.9396	-2.7938	-1.8708	-2.0312	-2.7667	-1.8708	-2.7375	-2.225	-1.8687	38.151	118.686	-102.984	57.992	38.822	-35.176	178.674	154.584	-72.966	174.072	-124.745	200.990	58.192	-85.583	38.034	184.966	0.00089406	0.00055301	0.00018831	1127.2	6.0129e-06	9.2942e-06	1191.8	488.25	5.9657e-06	1.522e-05	562.07	215.5	184.73	85.021	4.7082e-06	103.54	0.0011387	0.0011567	0.00031651	1136.1	1.2486e-05	1.2743e-05	1202.5	493.31	1.2403e-05	1.2513e-05	566.07	219.02	187.95	86.046	1.2045e-05	105.11	191.245	-66.084	-37.767	-130.078	8.601	4.334	-131.188	-125.718	-81.229	24.179	-127.314	-123.624	-121.615	-116.207	4.492	-118.395	-8191	255	
1677.037	1	1	0	0	0.11641	0.25248	0.040205	0.19897	0.40926	0.26394	0.35637	0.26569	0.1436	0.11565	0.32125	0.26423	0.32956	0.13427	0.20079	0.40013	-2.2333	-1.9667	-2.0854	-2.7354	-1.6458	-2.4813	-2.7938	-2.0979	-2.4979	-1.8479	-2.1646	-2.9021	-1.6979	-2.5125	-2.2938	-1.8333	178.755	-116.183	167.413	215.963	-77.031	45.363	197.970	203.180	160.002	137.319	156.328	185.062	204.980	97.604	192.552	-131.168	0.00085206	0.0009662	0.00026609	1130	4.0885e-06	7.4313e-06	1190.9	492.03	4.7058e-06	1.4799e-05	561.69	217.36	185.09	85.086	7.6743e-06	103.61	0.0010931	0.0011034	0.00030713	1137.4	1.2217e-05	1.2387e-05	1203.7	495.72	1.2526e-05	1.2554e-05	566.8	219.93	188.54	86.326	1.2641e-05	105.32	188.023	-63.658	-68.888	-130.050	-2.870	-19.468	-131.298	-125.732	-37.302	62.823	-127.269	-123.518	-121.652	-116.158	27.577	-118.343	-8191	255	
1677.108	1	1	0	0	0.30549	0.2627	0.06501	0.12404	0.27679	0.039095	0.33739	0.26833	0.12431	0.14459	0.17052	0.35888	0.3293	0.090263	0.062562	0.45565	-2.1688	-2.1292	-1.8146	-2.9167	-1.8854	-2.1729	-2.5187	-2.0604	-2.4521	-2.1479	-2.1562	-2.5667	-1.7583	-2.2729	-2.4313	-2.0292	164.053	-137.607	-124.904	-122.790	-32.384	214.238	-111.517	116.845	-113.457	135.383	-140.221	193.425	202.239	200.940	-117.501	175.833	0.00078583	0.001157	0.00025703	1138.4	8.4621e-06	8.0152e-06	1193.4	491.87	8.4813e-06	3.0227e-06	564.08	217.54	186.11	86.13	3.224e-06	104.99	0.0011383	0.0011559	0.00032299	1141.6	1.2396e-05	1.2736e-05	1204.9	496.63	1.226e-05	1.2194e-05	568.49	221.08	189.4	87.074	1.2043e-05	106.29	187.810	-75.175	-48.429	-129.934	32.077	0.884	-131.207	-125.575	-40.496	-29.923	-127.136	-123.390	-121.362	-116.113	-19.195	-118.322	-8191	255	
1677.204	1	1	0	0	0.22255	0.16628	0.15516	0.095772	0.11244	0.18062	0.36113	0.2146	0.1732	0.18288	0.26043	0.39814	0.17062	0.20474	0.29447	0.33547	-2.1312	-2.1396	-1.7437	-2.7854	-2.0167	-2.0521	-2.625	-1.9292	-2.5187	-2.1167	-1.9167	-2.8125	-2.1979	-2.4354	-2.6562	-1.8687	-140.199	77.317	-133.224	-122.162	140.839	28.611	159.432	182.278	-104.120	213.714	153.570	119.802	106.712	-142.813	-13.938	152.853	0.00084454	0.00098546	0.00022703	1135.5	3.9191e-06	1.0558e-05	1194	495.14	7.6072e-06	8.9325e-06	564.29	219.13	186.67	86.704	3.156e-06	105.05	0.0010734	0.0010994	0.00030343	1140.4	1.1612e-05	1.1883e-05	1204.6	498.16	1.1659e-05	1.1753e-05	569.18	221.72	189.75	87.557	1.1151e-05	106.53	186.167	-40.762	-64.153	-130.014	-6.904	-14.795	-131.091	-125.533	-40.409	34.749	-127.234	-123.413	-121.564	-116.198	116.277	-118.518	-8191	255	
1677.325	1	1	0	0	0.26992	0.12231	0.059872	0.33246	0.082683	0.080132	0.16062	0.16795	0.12811	0.15803	0.18767	0.28972	0.21627	0.306	0.12887	0.38786	-2.15	-2.0958	-1.9875	-2.7396	-1.9396	-1.9833	-2.6479	-1.9542	-2.5125	-2.4458	-1.9167	-2.6875	-2.0187	-2.1604	-2.6208	-1.8937	165.590	169.140	122.809	211.046	3.896	103.277	149.113	188.213	-127.391	214.145	191.773	185.977	107.566	-129.290	2.244	129.000	0.00076147	0.0010301	0.00019537	1131.9	8.4359e-06	1.1522e-05	1194.2	496.45	4.9478e-06	8.2188e-06	566.88	219.12	187.1	86.753	3.9912e-06	105.38	0.00099985	0.0010114	0.00028274	1138.1	1.1148e-05	1.1283e-05	1205	498.86	1.1385e-05	1.1587e-05	570.25	222.04	190.27	87.791	1.1896e-05	106.88	184.577	-63.128	-35.010	-130.096	20.738	-12.824	-131.045	-125.663	-10.174	4.296	-127.124	-123.374	-121.760	-116.333	-23.284	-118.461	-8191	255	
1677.421	1	1	0	0	0.11348	0.21838	0.10095	0.076283	0.2119	0.11791	0.14462	0.4885	0.16607	0.091293	0.1526	0.28129	0.24267	0.29104	0.074971	0.26871	-1.8833	-2.4729	-1.5208	-2.6604	-2.1458	-1.7875	-2.7958	-2.0812	-2.2604	-2.2417	-1.9375	-2.5896	-2.2792	-2.1437	-2.475	-2.0542	-37.494	105.651	4.137	-130.871	143.117	102.874	25.423	149.040	85.975	63.618	208.992	210.307	135.887	169.614	56.412	175.013	0.00085577	0.00071508	0.00029268	1135.7	1.0906e-05	9.4913e-06	1199.5	494.78	8.0983e-06	1.1381e-05	567.59	219.22	187.93	87.281	8.158e-06	106.08	0.0010644	0.0010699	0.00029799	1141	1.1371e-05	1.1406e-05	1208.4	498.7	1.1357e-05	1.1361e-05	570.78	222.61	190.72	88.32	1.1454e-05	107.4	188.609	-72.656	-27.201	-129.956	-8.569	-8.820	-131.086	-125.667	-38.241	19.568	-127.146	-123.408	-121.500	-116.261	8.368	-118.518	-8191	255	
1677.517	1	1	0	0	0.14873	0.23935	0.067886	0.26647	0.1627	0.15407	0.19833	0.15179	0.2824	0.27687	0.34395	0.17234	0.17873	0.3855	0.10369	0.35451	-1.5292	-2.4688	-1.475	-2.55	-2.4583	-1.8083	-2.5542	-2.0646	-2.0042	-2.4542	-1.9396	-2.6083	-2.3833	-2.0083	-2.6437	-2.175	-61.302	-4.961	147.530	154.016	172.560	64.261	97.666	160.478	102.850	-137.051	122.501	66.839	128.116	-130.752	-15.417	144.651	0.00089916	0.00091516	0.00018269	1138	6.1783e-06	7.3638e-06	1197.9	498.67	6.2607e-06	5.6817e-06	568.94	220.82	188.76	87.801	7.799e-06	106.74	0.0010332	0.0010375	0.00028734	1142.5	1.1164e-05	1.1466e-05	1207.5	500.88	1.1228e-05	1.1322e-05	572.66	223.74	191.76	88.835	1.1531e-05	108.08	186.440	-103.042	-64.163	-129.899	-4.120	16.070	-131.059	-125.687	-23.033	44.088	-127.229	-123.278	-121.430	-116.341	3.874	-118.575	-8191	255	
1677.638	1	1	0	0	0.041289	0.11166	0.31042	0.24781	0.23888	0.15636	0.11716	0.42888	0.14706	0.01672	0.28292	0.10334	0.36155	0.37914	0.13955	0.30642	-1.3708	-2.7062	-1.775	-2.4125	-2.2396	-1.9021	-2.7687	-2.0229	-1.7938	-2.7687	-2	-2.2792	-2.6354	-1.8667	-2.4188	-2.2167	60.347	-65.802	-66.896	157.010	-3.752	3.550	173.806	186.921	-64.134	127.190	194.339	-131.487	179.007	-133.879	-6.046	145.347	0.00088516	0.00072921	0.00011015	1136.3	9.1762e-06	2.3097e-06	1196.7	497.64	5.1454e-06	7.6569e-06	568.12	220.71	188.63	88.158	3.3558e-06	106.8	0.0010396	0.0010393	0.00029033	1143	1.1276e-05	1.1392e-05	1208	500.74	1.1199e-05	1.1223e-05	572.68	224	191.69	89.005	1.1187e-05	108.22	181.734	-59.074	-42.311	-129.875	-6.352	35.402	-131.098	-125.665	-29.665	44.858	-127.210	-123.303	-121.450	-116.057	-42.461	-118.653	-8191	255	
1677.732	1	1	0	0	0.074807	0.32372	0.088974	0.1327	0.058751	0.24404	0.067166	0.22848	0.054204	0.10041	0.073159	0.16705	0.13438	0.12214	0.13725	0.33817	-1.4062	-2.5771	-1.7167	-2.2979	-2.6146	-1.5979	-2.5667	-2.3438	-1.7229	-2.5958	-2.1104	-2.2521	-2.5563	-1.7812	-2.3167	-2.6479	-54.554	48.518	169.530	-86.039	-5.910	-132.416	71.295	144.013	145.278	-98.045	138.856	137.148	190.514	-38.383	-34.094	180.033	0.00095579	0.00065568	0.00014172	1142.2	5.7248e-06	7.9553e-06	1197.2	497.9	2.7576e-06	1.8748e-05	569.74	221.73	189.97	88.781	5.2536e-06	107.38	0.0010269	0.0010317	0.00028447	1146.1	1.1115e-05	1.139e-05	1207.2	501.82	1.1309e-05	1.1399e-05	574.33	224.68	192.95	89.743	1.15e-05	109	184.190	-51.603	-65.864	-129.829	-25.561	23.257	-130.825	-125.712	-5.997	7.228	-126.995	-123.292	-121.702	-116.278	-2.973	-118.402	-8191	255	
1677.806	1	1	0	0	0.058493	0.11319	0.065644	0.165	0.2599	0.1084	0.1708	0.20739	0.29868	0.01058	0.31872	0.27498	0.17808	0.26258	0.087659	0.37703	-1.4125	-2.4083	-2.0375	-2.3375	-2.5604	-1.8729	-2.8708	-2.6188	-1.5625	-2.6562	-2.0167	-2.1271	-2.8271	-1.9562	-2.2833	-2.8667	-65.948	119.309	98.559	214.173	-1.171	-126.899	130.300	155.901	194.899	152.237	187.304	-103.405	180.377	180.743	-74.314	155.587	0.00085744	0.0012219	0.00020364	1140.7	7.1831e-06	6.9903e-06	1201.5	500.35	8.4415e-06	8.8418e-06	570.84	222.19	191	89.036	8.3529e-06	107.81	0.0010465	0.0010585	0.00029005	1145.7	1.1187e-05	1.1414e-05	1211.2	502.82	1.1407e-05	1.1571e-05	575.08	225.74	193.55	89.872	1.135e-05	109.29	181.435	-79.547	-31.840	-129.906	-26.676	12.241	-130.848	-125.406	-22.071	17.992	-127.052	-123.401	-121.362	-116.148	-40.035	-118.307	-8191	255	
1677.925	1	1	0	0	0.051367	0.17856	0.074637	0.066625	0.098901	0.084043	0.41875	0.1904	0.15469	0.13832	0.2964	0.17027	0.035309	0.22309	0.088364	0.31459	-1.4708	-2.6479	-2.1083	-2.0771	-2.6875	-1.6958	-2.4729	-2.7792	-1.5417	-2.3729	-2.1396	-1.8937	-2.8104	-2.0417	-2.0729	-2.7146	180.573	191.782	200.684	141.329	-74.807	24.235	167.748	121.098	99.780	22.150	149.990	207.857	-61.495	191.990	109.510	130.443	0.00085193	0.00090222	0.00011184	1138.1	5.1852e-06	7.126e-06	1204.8	500.77	4.4579e-06	1.1877e-05	574.92	223.91	191.76	88.972	6.7985e-06	108.53	0.0010463	0.0010377	0.00028619	1146.1	1.1125e-05	1.1207e-05	1214	504.11	1.0979e-05	1.1087e-05	576.39	226.17	193.98	90.2	1.1203e-05	109.88	189.230	-84.485	25.572	-129.863	-9.879	11.669	-130.731	-125.683	4.594	35.790	-127.257	-123.261	-121.479	-116.232	-63.813	-118.279	-8191	255	
1678.021	1	1	0	0	0.16957	0.23694	0.04341	0.15238	0.20228	0.17192	0.12632	0.13296	0.070727	0.24605	0.20978	0.18146	0.22558	0.29145	0.070997	0.21149	-1.2938	-2.3771	-2.0354	-1.9583	-2.7417	-1.9458	-2.1604	-2.7938	-1.8604	-2.3438	-2.2396	-1.9937	-2.8708	-2.2479	-2.0312	-2.8146	80.865	203.598	200.389	87.621	56.369	127.050	89.263	213.944	-22.842	57.169	-119.146	184.981	-17.340	149.899	159.511	138.463	0.00091264	0.0010517	0.00021726	1145.3	4.1805e-06	1.0754e-05	1207.3	501.87	2.068e-06	1.4343e-05	572.04	222.83	191.58	89.108	5.4139e-06	108.32	0.0010245	0.0010413	0.00028346	1148.8	1.1129e-05	1.1267e-05	1214.2	504.75	1.1078e-05	1.1143e-05	575.69	226.01	194.01	90.294	1.08e-05	109.72	184.790	-73.424	-55.438	-129.953	18.053	17.220	-130.842	-125.471	10.436	-2.628	-127.065	-123.336	-121.330	-116.161	10.548	-118.421	-8191	255	
1678.117	1	1	0	0	0.20718	0.15417	0.11461	0.10898	0.1044	0.068285	0.20389	0.14187	0.19344	0.17809	0.21438	0.15673	0.24964	0.47559	0.32883	0.1125	-1.325	-2.3979	-2.2083	-1.8604	-2.5187	-2.1042	-2.2479	-2.6042	-1.7292	-2.1375	-2.6771	-2.0938	-2.7208	-2.3187	-2	-2.8667	128.954	215.398	-136.511	133.947	22.962	128.247	165.334	62.126	98.562	39.603	-103.799	147.409	-109.829	145.656	104.195	112.803	0.00091723	0.00077969	0.00029721	1138.9	9.3453e-06	6.4712e-06	1205.6	502.33	5.7355e-06	1.0851e-05	570.06	223.16	190.58	89.418	6.5761e-06	108.07	0.0010047	0.001002	0.00027705	1144	1.0889e-05	1.1061e-05	1211.2	504.34	1.1133e-05	1.1185e-05	575.19	225.68	193.66	90.291	1.1145e-05	109.57	185.723	-87.249	-35.556	-129.872	-0.306	15.387	-130.661	-125.383	-12.776	36.703	-126.893	-123.290	-121.430	-116.327	-14.360	-118.187	-8191	255	
1678.213	1	1	0	0	0.17802	0.15612	0.068214	0.13386	0.17834	0.049533	0.32033	0.082213	0.040515	0.24329	0.43458	0.083918	0.17286	0.25108	0.039219	0.58024	-1.3021	-2.3375	-2.325	-1.9438	-2.5563	-2.1292	-2.0771	-2.775	-2.0479	-2.1458	-2.5729	-1.8917	-2.6458	-2.4437	-1.8813	-2.7812	-15.312	37.841	48.873	166.374	130.505	-143.389	123.870	179.857	14.968	137.663	76.076	19.283	-129.530	176.233	196.826	182.212	0.00088153	0.00061635	0.00031471	1142.6	4.9927e-06	1.3421e-05	1200.5	503.75	8.1723e-06	1.5605e-05	571.93	223	191.36	89.18	6.0341e-06	108.52	0.0010119	0.00099518	0.00027501	1146.3	1.0771e-05	1.0983e-05	1210.6	505.15	1.1129e-05	1.1066e-05	575.28	225.99	193.81	90.236	1.1326e-05	109.75	186.634	-69.112	-69.362	-129.672	-2.282	-5.308	-130.722	-125.458	-60.315	-8.649	-127.031	-123.431	-121.287	-116.180	-25.160	-118.181	-8191	255	
1678.334	1	1	0	0	0.039331	0.10331	0.19453	0.487	0.12376	0.08531	0.28899	0.39969	0.28893	0.15699	0.071562	0.2931	0.17061	0.11393	0.12817	0.30645	-1.6479	-2.0375	-2.55	-1.8875	-2.3187	-2.25	-2.0479	-3.0104	-1.8563	-2.2396	-2.8688	-1.875	-2.45	-2.425	-1.6063	-2.8479	131.493	115.251	197.158	-120.814	102.243	99.582	181.295	136.022	187.601	177.287	-96.796	193.457	-34.913	-128.762	166.860	192.219	0.00094631	0.00084239	0.00030802	1136.3	8.1854e-06	8.7225e-06	1208.7	502.91	8.4701e-06	1.152e-05	573.04	223.23	190.15	89.388	1.0255e-05	108.31	0.0010208	0.0010286	0.00028964	1147.7	1.1402e-05	1.1466e-05	1215.6	505.84	1.157e-05	1.16e-05	577.53	226.25	193.83	90.28	1.1618e-05	109.78	184.636	-89.242	-32.680	-129.955	14.879	15.875	-130.805	-125.378	-35.228	47.138	-127.011	-123.391	-121.193	-116.212	-14.269	-118.031	-8191	255	
1678.405	1	1	0	0	0.12468	0.097193	0.17033	0.25508	0.30152	0.13734	0.23257	0.057514	0.12576	0.19194	0.15502	0.38285	0.065259	0.22476	0.014954	0.31452	-1.6042	-2.1146	-2.4562	-1.7979	-2.2208	-2.5438	-1.7667	-2.9208	-2.0271	-2.0021	-2.8625	-1.9854	-2.5312	-2.8083	-1.8271	-2.6146	-53.687	123.687	19.055	-120.472	139.699	91.037	185.937	209.866	93.518	104.184	161.807	176.771	-4.380	140.450	53.539	152.513	0.00086937	0.00052359	0.0002696	1144.5	4.1941e-06	1.3427e-05	1204.5	504.69	7.573e-06	1.4135e-05	575.81	223.29	191.44	89.599	6.7686e-06	108.75	0.001036	0.0010412	0.00028934	1148.4	1.1191e-05	1.1212e-05	1213.9	506.68	1.1212e-05	1.1233e-05	578.16	226.43	194.19	90.477	1.1013e-05	110.05	187.947	-56.752	-55.822	-129.680	-11.878	-41.747	-130.832	-125.274	-23.096	26.546	-126.886	-123.265	-121.067	-116.165	-4.067	-118.111	-8191	255	
1678.502	1	1	0	0	0.23733	0.065806	0.13516	0.30692	0.22767	0.073041	0.025841	0.12187	0.15111	0.10058	0.12819	0.24899	0.3527	0.31675	0.2052	0.36255	-1.6125	-1.8229	-2.6125	-2.0833	-2.1292	-2.5229	-1.8813	-2.5292	-2.225	-1.8042	-2.625	-2.1458	-2.175	-2.6542	-1.5333	-2.3438	214.066	191.710	109.734	-139.775	167.602	197.538	145.437	162.360	-127.049	-130.692	158.110	200.119	196.755	168.682	54.677	204.841	0.00081406	0.00083018	0.00015639	1143.5	6.5928e-06	1.0229e-05	1206.2	506.18	1.0383e-05	1.2395e-05	577.77	225.11	192.22	89.773	8.0364e-06	109.39	0.00099906	0.00099916	0.0002789	1150.7	1.0998e-05	1.1157e-05	1217.4	507.73	1.1076e-05	1.1188e-05	580.79	227.51	194.91	90.843	1.1107e-05	110.76	184.599	-106.235	-92.361	-129.931	-9.228	-0.134	-130.634	-125.374	-25.348	7.017	-127.076	-123.569	-121.362	-116.149	-14.771	-118.258	-8191	255	
1678.598	1	1	0	0	0.024287	0.1825	0.17833	0.25391	0.22288	0.14417	0.23817	0.23398	0.1821	0.24454	0.0794	0.56783	0.29665	0.45248	0.12344	0.21724	-2.0917	-1.5458	-2.5104	-2.0146	-1.8833	-2.5729	-1.9833	-2.6104	-2.3417	-1.6729	-2.6583	-2.2271	-2.0583	-3.0542	-1.5708	-2.4208	115.279	-40.576	-139.715	-81.376	-102.435	-106.704	136.119	177.733	-68.773	-124.746	169.998	191.265	106.846	189.142	169.255	187.365	0.00096554	0.0010128	0.00022212	1144.1	9.1914e-06	4.7278e-06	1211.4	504.21	5.8244e-06	9.0538e-06	575.17	224.96	192.19	89.923	6.5745e-06	108.99	0.0010062	0.0010084	0.00028042	1151.6	1.0922e-05	1.0975e-05	1219.4	507.65	1.0915e-05	1.116e-05	578.83	227.24	194.73	90.858	1.1202e-05	110.29	190.936	-66.572	-47.808	-129.924	-17.334	-49.693	-130.891	-125.411	-26.839	40.625	-126.919	-123.353	-121.328	-116.224	-5.095	-118.393	-8191	255	
1678.718	1	1	0	0	0.18003	0.091561	0.16651	0.21642	0.07379	0.11605	0.21877	0.34284	0.1423	0.099083	0.17322	0.13139	0.089947	0.1321	0.11043	0.38037	-2.2313	-1.5646	-2.7104	-2.3042	-1.6333	-2.5646	-2.1042	-2.2667	-2.6708	-1.6313	-2.6292	-2.3604	-1.85	-2.9875	-1.8479	-2.3583	-96.755	58.508	-76.283	130.528	-62.451	-107.649	151.962	145.890	83.551	51.998	173.988	107.035	206.288	41.239	-34.279	180.989	0.00081773	0.0010462	0.00041878	1141.4	8.5975e-06	7.7255e-06	1207.2	503.42	6.7503e-06	1.0864e-05	572.72	222.68	191.04	89.369	4.3789e-06	108.63	0.0010337	0.0010387	0.00028619	1148.7	1.1217e-05	1.1469e-05	1214.5	505.99	1.1435e-05	1.1597e-05	577.2	226.07	193.98	90.469	1.1508e-05	109.77	185.887	-75.945	-42.126	-129.787	19.258	8.804	-130.825	-125.436	-13.707	-21.594	-126.926	-123.599	-121.535	-116.326	-4.707	-118.325	-8191	255	
1678.813	1	1	0	0	0.029645	0.096467	0.010172	0.35718	0.14194	0.25724	0.041624	0.56087	0.052834	0.13329	0.14939	0.20092	0.22865	0.32043	0.1194	0.23634	-2.1896	-1.7167	-2.5625	-2.2542	-1.5438	-2.625	-2.0167	-2.2833	-2.5854	-1.5812	-2.5938	-2.4542	-1.9562	-2.8979	-2.0146	-2.2604	25.204	-40.490	-25.041	159.030	75.037	137.507	97.773	146.209	-110.128	-52.784	213.149	184.351	-128.355	189.177	38.126	145.985	0.00084608	0.00057137	0.00025196	1146.6	1.1579e-05	1.0229e-05	1202.2	502.12	6.3046e-06	1.2431e-05	571.27	222.62	191.52	89.329	5.5563e-06	108.16	0.0010326	0.0010331	0.00028945	1149	1.1215e-05	1.1484e-05	1211.6	505.59	1.1519e-05	1.1767e-05	576.66	225.65	194.01	90.236	1.1777e-05	109.57	189.527	-83.180	-79.087	-130.094	-0.910	-7.916	-131.145	-125.415	-60.407	0.212	-127.175	-123.614	-121.249	-116.384	-42.133	-118.288	-8191	255	
1678.909	1	1	0	0	0.2101	0.20164	0.16384	0.22041	0.23361	0.34441	0.25478	0.36407	0.16429	0.12008	0.31012	0.40941	0.1475	0.3671	0.095844	0.45298	-2.1458	-1.6187	-2.2771	-2.3875	-1.7	-2.4437	-2.0438	-2.1688	-2.7333	-1.5771	-2.3812	-2.6188	-1.8958	-2.8917	-2.0312	-2.1146	-2.768	86.803	-0.846	152.512	71.343	126.099	-143.146	174.502	-97.557	-24.416	108.831	179.900	-127.062	207.154	95.070	184.144	0.00090791	0.00055247	0.0002447	1145.1	1.0051e-05	8.0103e-06	1209.1	503.87	9.2258e-06	6.5561e-06	572.94	223.74	191.44	89.563	9.0594e-06	108.62	0.0010771	0.0011117	0.00030668	1152	1.206e-05	1.2069e-05	1215.6	506.24	1.196e-05	1.2099e-05	577.33	226.42	194.24	90.623	1.2171e-05	110.02	188.883	-62.316	-73.073	-129.870	-6.285	-2.332	-131.013	-125.470	-47.306	10.366	-127.115	-123.470	-121.424	-116.280	-23.382	-118.330	-8191	255	
1679.005	1	1	0	0	0.14078	0.066588	0.092074	0.056583	0.023305	0.073962	0.093128	0.33986	0.2903	0.063851	0.32119	0.17138	0.28631	0.2591	0.21329	0.38901	-2.0354	-1.8167	-2.1354	-2.4208	-1.7062	-2.3729	-2.275	-1.9771	-2.725	-1.9438	-2.175	-2.6667	-1.975	-2.7229	-2.0833	-1.9875	40.004	114.170	-36.897	-111.391	88.903	208.149	33.428	161.853	-23.511	141.405	153.017	-57.024	116.695	188.553	-93.509	138.370	0.0008338	0.0010452	0.00022281	1145.7	5.8115e-06	8.6078e-06	1203.8	503.23	7.0245e-06	6.7286e-06	574.06	223.78	191.41	89.816	1.0207e-05	108.9	0.0010986	0.0011172	0.00031175	1153.4	1.2148e-05	1.2337e-05	1216.5	506.89	1.2424e-05	1.2481e-05	579.34	226.87	194.46	90.908	1.2466e-05	110.17	185.427	-61.474	-43.484	-129.748	-40.420	-10.411	-130.863	-125.331	-11.427	-16.112	-126.904	-123.354	-121.386	-116.134	-30.879	-118.490	-8191	255	
1679.101	1	1	0	0	0.14197	0.12986	0.079873	0.066783	0.26365	0.15953	0.29474	0.28294	0.15806	0.34775	0.2909	0.33726	0.10754	0.2984	0.15996	0.19462	-2.1271	-1.8604	-2.0708	-2.8104	-1.5146	-2.2833	-2.4208	-1.8167	-2.5271	-1.9958	-2.2542	-2.8937	-1.95	-2.4521	-2.2812	-1.9542	174.924	-24.081	133.179	159.603	110.945	114.179	192.084	118.717	165.678	-40.817	190.535	205.304	109.001	161.518	44.341	123.224	0.00089851	0.00055306	0.00018686	1143.4	8.4905e-06	1.1858e-05	1203.1	501.16	6.2873e-06	8.0261e-06	572.23	222.75	191.27	89.832	8.4073e-06	108.54	0.0011221	0.0011265	0.00031537	1151.2	1.1972e-05	1.2048e-05	1214.4	504.52	1.2009e-05	1.1909e-05	576.56	226.08	194.11	90.674	1.1909e-05	109.98	182.179	-76.358	-2.050	-129.767	18.155	9.614	-130.738	-125.612	-27.221	13.561	-126.850	-123.235	-121.378	-116.059	-9.057	-118.301	-8191	255	
1679.197	1	1	0	0	0.16994	0.26318	0.095114	0.1342	0.24268	0.10959	0.24044	0.12601	0.33734	0.16926	0.17497	0.09497	0.16954	0.12613	0.14808	0.33075	-2.1146	-1.9146	-1.7854	-2.8333	-1.8292	-2.2042	-2.4688	-2.1188	-2.3812	-2.0958	-2.0396	-2.8563	-2.0062	-2.3292	-2.4833	-1.7354	99.332	19.748	-25.430	64.223	2.618	184.550	153.292	-105.302	49.100	183.732	179.918	69.508	102.350	208.469	151.530	148.800	0.00080046	0.00076372	0.00019833	1140.8	7.8642e-06	6.8231e-06	1202	500.66	5.9849e-06	8.931e-06	569.66	221.72	190.9	89.264	6.0394e-06	108.27	0.0010808	0.0010914	0.00030381	1147.5	1.179e-05	1.1913e-05	1212.9	504.15	1.178e-05	1.1748e-05	575.08	225.11	193.37	90.391	1.1874e-05	109.8	185.968	-56.009	-41.400	-129.744	13.561	-26.614	-130.878	-125.335	-73.385	15.025	-126.988	-123.553	-121.465	-116.259	-14.399	-118.427	-8191	255	
1679.318	1	1	0	0	0.058744	0.20434	0.13486	0.029848	0.32022	0.16111	0.068528	0.1223	0.1183	0.05183	0.32135	0.45535	0.17956	0.27288	0.044399	0.13351	-2.1688	-2.1312	-1.7854	-2.8396	-1.8604	-2.1583	-2.725	-1.7563	-2.4292	-2.3146	-1.8875	-2.6667	-2.2104	-2.1063	-2.8708	-2.0583	7.982	113.013	-95.028	-75.139	49.720	-106.280	204.256	-102.339	-81.812	99.121	175.655	174.800	155.353	152.907	-8.968	149.401	0.00088018	0.00092077	0.00022767	1143.3	4.1411e-06	6.4943e-06	1206.8	502.08	7.8206e-06	1.2223e-05	571.65	222.77	190.43	89.635	6.9137e-06	108.79	0.0010856	0.0010973	0.00030545	1151.4	1.2038e-05	1.2104e-05	1215.9	505.68	1.2134e-05	1.2085e-05	577.87	226.35	194.05	90.742	1.2288e-05	110.32	187.356	-64.885	-66.284	-129.782	-0.015	6.689	-130.893	-125.447	-9.767	11.042	-126.816	-123.204	-121.183	-116.116	-6.981	-118.251	-8191	255	
1679.414	1	1	0	0	0.2825	0.097009	0.22934	0.33514	0.13506	0.20334	0.33509	0.34204	0.20767	0.20644	0.1413	0.30786	0.25915	0.36777	0.19393	0.10458	-1.9083	-2.3479	-1.8729	-2.5917	-2.0896	-2.075	-2.7021	-1.9896	-2.2479	-2.4313	-1.9646	-2.8333	-2.25	-2.0042	-2.5375	-1.9854	187.838	44.971	33.549	181.677	152.071	168.430	192.593	184.247	42.034	-65.623	39.336	163.619	141.490	191.930	96.394	28.614	0.00087691	0.0006864	0.00030312	1144.7	1.1506e-05	9.8994e-06	1203.3	501.53	8.4442e-06	7.4872e-06	571.3	221.97	189.86	89.505	1.0165e-05	108.2	0.0011113	0.0011158	0.00031592	1152.1	1.2165e-05	1.2349e-05	1214	504.84	1.2252e-05	1.2179e-05	576.55	225.41	192.77	90.381	1.2103e-05	109.8	183.808	-53.574	-32.470	-129.830	5.168	-29.685	-130.878	-125.486	-21.375	27.756	-126.840	-123.325	-121.558	-116.078	-20.150	-118.287	-8191	255	
1679.510	1	1	0	0	0.17675	0.052154	0.15373	0.20799	0.21769	0.039501	0.26982	0.23435	0.069194	0.024377	0.54297	0.27256	0.039911	0.24323	0.18592	0.11051	-1.7146	-2.4521	-1.8	-2.5583	-2.2104	-1.7271	-2.8438	-2.0187	-2.1125	-2.6375	-1.9125	-2.4979	-2.4375	-2.0521	-2.6813	-2.1771	207.018	91.731	-60.820	-134.021	-88.374	133.903	-140.210	138.374	185.089	135.746	173.844	171.320	120.036	-127.949	207.338	116.352	0.00087992	0.00093885	0.0002616	1141.8	6.9169e-06	6.7194e-06	1204.7	498.23	5.6098e-06	8.4321e-06	569.75	221.95	189.64	89.51	3.4784e-06	108.1	0.0010791	0.001099	0.00030728	1147.5	1.1889e-05	1.2126e-05	1211.2	502.75	1.196e-05	1.213e-05	575.07	225.35	193.02	90.591	1.2517e-05	109.86	188.500	-58.735	-42.581	-129.626	10.731	-6.182	-130.888	-125.563	-52.116	2.964	-127.008	-123.156	-121.580	-116.076	22.836	-118.349	-8191	255	
1679.606	1	1	0	0	0.32195	0.16706	0.22637	0.22921	0.14602	0.038069	0.24247	0.19313	0.17848	0.27396	0.18346	0.1776	0.20724	0.23915	0.17584	0.13654	-1.7792	-2.5271	-1.6542	-2.5187	-2.1417	-1.9229	-2.7917	-2.0958	-2.1437	-2.7938	-1.8292	-2.4813	-2.6646	-1.9979	-2.7375	-2.3604	28.586	103.325	-104.663	155.510	145.214	124.143	153.014	138.489	7.559	16.709	179.846	162.633	201.020	162.415	-123.052	215.110	0.00088624	0.00080532	0.00032919	1136.1	1.0956e-05	1.1437e-05	1200.9	499.33	7.2241e-06	8.569e-06	569.19	221.79	189.81	89.146	5.8378e-06	108.14	0.0011256	0.00115	0.00032229	1148.6	1.2675e-05	1.28e-05	1212.9	503.84	1.2727e-05	1.2802e-05	575.06	225.51	193.06	90.375	1.267e-05	109.72	188.331	-82.263	-28.949	-129.804	-13.808	-10.870	-130.768	-125.422	-27.349	1.105	-127.018	-123.205	-121.173	-116.175	-35.311	-118.379	-8191	255	
1679.703	1	1	0	0	0.072996	0.20396	0.22612	0.34089	0.16316	0.11846	0.38031	0.37319	0.082721	0.19125	0.21486	0.15595	0.22118	0.3328	0.098536	0.22207	-1.4146	-2.5083	-1.7	-2.2292	-2.3292	-1.5729	-2.7583	-2.4104	-1.9167	-2.5771	-2.0687	-2.4	-2.5438	-2.0083	-2.7375	-2.5438	-15.847	102.874	136.801	182.371	150.948	-6.442	173.059	140.763	-64.770	-92.309	175.430	124.938	212.699	-96.531	53.977	147.166	0.0008305	0.00085325	0.00016166	1143.3	8.9949e-06	2.4736e-06	1205.1	501.71	3.4907e-06	1.3766e-05	572.09	222.92	190.57	89.665	8.9103e-07	108.91	0.001127	0.0011594	0.00031969	1150.5	1.2287e-05	1.2907e-05	1214.1	504.03	1.2724e-05	1.2858e-05	576.09	226.28	193.66	90.793	1.296e-05	110.31	187.843	-62.710	-40.210	-129.703	-24.254	47.255	-130.786	-125.394	-7.660	22.886	-126.917	-123.253	-121.270	-116.181	126.585	-118.227	-8191	255	
1679.799	1	1	0	0	0.29345	0.038565	0.30264	0.21526	0.17375	0.42854	0.14775	0.37704	0.097874	0.27488	0.16664	0.16595	0.20177	0.48749	0.26221	0.1709	-1.5125	-2.5854	-1.7208	-2.5104	-2.5292	-1.8229	-2.6312	-2.5125	-1.7167	-2.4042	-1.9146	-2.3083	-2.6854	-1.9604	-2.4021	-2.6146	-61.135	-5.511	65.205	164.772	-105.780	214.411	157.222	137.058	-7.100	102.928	-134.742	138.654	-132.396	194.472	126.430	130.678	0.00079551	0.0010266	0.00020926	1140.4	9.4209e-06	3.8124e-06	1199.2	497.92	7.8595e-06	1.3915e-05	570	222.09	190.5	90.371	1.0247e-05	109.24	0.0011762	0.0011972	0.00033302	1148.6	1.3041e-05	1.3194e-05	1212	502.7	1.3049e-05	1.3128e-05	575.03	226.35	194.01	91.318	1.2868e-05	110.95	186.591	-81.017	-50.322	-129.499	-22.099	-21.146	-130.604	-125.406	-74.506	13.646	-126.898	-123.135	-121.327	-116.264	17.802	-118.275	-8191	255	
1679.895	1	1	0	0	0.39771	0.047035	0.19532	0.093864	0.1577	0.080714	0.21954	0.21634	0.2905	0.16373	0.27493	0.31594	0.085496	0.21778	0.23528	0.25043	-1.3021	-2.6229	-1.9562	-2.2188	-2.5708	-1.8646	-2.5458	-2.7917	-1.6646	-2.6437	-2.1958	-1.9688	-2.7854	-2.0458	-1.9792	-2.7167	-99.423	70.140	84.444	-112.825	116.949	57.298	178.469	124.049	-7.926	-97.554	171.714	199.719	105.119	-132.877	-71.669	186.362	0.0009071	0.0007457	0.00033212	1139.1	6.3509e-06	3.8504e-06	1197.7	499.37	5.8785e-06	1.2768e-05	570.83	223.12	190.47	90.096	8.2788e-06	109.13	0.0011704	0.0011911	0.00032659	1145.2	1.2832e-05	1.2935e-05	1209.9	503.02	1.2772e-05	1.2724e-05	574.37	225.95	193.51	91.101	1.245e-05	110.6	186.020	-74.988	-30.221	-129.500	-27.994	36.477	-130.495	-125.264	-30.196	37.185	-126.904	-123.032	-121.378	-115.853	-15.540	-118.195	-8191	255	
1679.989	1	1	0	0	0.032134	0.12845	0.22832	0.28852	0.038925	0.273	0.079736	0.30648	0.14393	0.16782	0.30238	0.23504	0.19797	0.2374	0.11937	0.13022	-1.375	-2.3937	-2.2271	-1.9479	-2.5604	-1.8958	-2.3896	-2.8563	-1.8208	-2.4188	-2.3292	-2.1375	-2.6354	-2.4083	-1.9125	-2.8896	19.855	-19.755	61.240	192.508	3.434	61.681	186.326	128.491	113.278	89.264	213.308	144.808	182.503	210.896	-53.915	206.914	0.00096807	0.001342	0.00012984	1133.3	6.5369e-06	1.2453e-05	1203	500.55	5.2863e-06	1.2122e-05	569.05	223.18	191.15	90.723	8.6054e-06	109.47	0.0011154	0.0011061	0.00030576	1144.9	1.2148e-05	1.2223e-05	1211.7	502.71	1.2345e-05	1.2375e-05	574.5	226.61	194.23	91.527	1.2422e-05	111.22	190.221	-76.747	-9.982	-129.544	20.482	10.691	-130.615	-125.312	-49.253	-22.772	-126.920	-122.910	-121.150	-116.225	9.803	-118.114	-8191	255	
1680.110	1	1	0	0	0.20572	0.16103	0.098299	0.2619	0.15188	0.17026	0.28701	0.24757	0.31573	0.072074	0.3544	0.34596	0.36153	0.24705	0.13832	0.22918	-1.3854	-2.3417	-2.2042	-1.9458	-2.5708	-1.9813	-1.9771	-2.8917	-1.7333	-2.3896	-2.4062	-2.0729	-2.6771	-2.1521	-2.0021	-2.9104	-1.455	215.668	73.689	193.377	49.552	-49.619	87.464	149.559	-123.702	163.152	187.147	189.476	182.171	-136.905	175.736	148.167	0.0008599	0.00064278	0.00038733	1136.1	5.6567e-06	8.2113e-06	1196.9	499.94	1.0444e-05	8.0811e-06	572.02	222.8	190.51	89.989	5.0216e-06	109.22	0.0011142	0.001134	0.00031475	1146.3	1.2374e-05	1.2577e-05	1211.6	503.24	1.2527e-05	1.2514e-05	575.71	226.31	193.49	91.224	1.2429e-05	110.72	186.629	-62.302	-49.929	-129.710	-8.942	24.425	-130.572	-125.226	-38.326	42.756	-127.033	-123.201	-121.324	-116.190	-32.344	-118.384	-8191	255	
1680.206	1	1	0	0	0.17329	0.062931	0.19656	0.40876	0.12137	0.14808	0.16333	0.25749	0.040794	0.028529	0.40974	0.44464	0.25232	0.27437	0.45457	0.13118	-1.3687	-2.2125	-2.4188	-1.8146	-2.6042	-2.2875	-1.9708	-2.7292	-1.9479	-2.1521	-2.5708	-1.8583	-2.5938	-2.3604	-1.8021	-2.8458	30.914	195.520	92.731	128.752	-59.056	-22.079	184.768	194.463	103.077	165.621	136.412	166.999	197.488	-137.473	200.606	-141.772	0.00086344	0.00050249	0.00022815	1135.3	1.0174e-05	6.7053e-06	1193.5	498.92	7.7699e-06	5.3448e-06	567.65	220.72	189.43	89.791	1.2165e-05	108.47	0.0011157	0.0011149	0.00031024	1141.7	1.1935e-05	1.213e-05	1204	501.03	1.1727e-05	1.1794e-05	572.13	224.29	192.35	90.698	1.1777e-05	109.98	185.854	-53.599	-64.086	-129.734	-5.746	0.429	-130.527	-125.467	-55.908	9.319	-126.972	-123.425	-121.241	-116.363	-1.028	-118.446	-8191	255	
#DATA ENDS
