BOXY.EXE: ISS Imagent and Oximeter Data Acquisition Program Version 0.80
Ascii Record File

#ACQ INFORMATION
2  Detector Channels 
16  External MUX Channels 
1  Auxiliary Channels 
5000  Waveform (CCF) Frequency (Hz)
1  Waveforms Skipped 
30  Waveforms Averaged 
1  Cycles Averaged 
16  Acquisitions per Waveform 
10.0806  Updata Rate (Hz) 

#FILE INFORMATION
TRUE -- External MUX Channel results are PARSED.
FALSE -- AC DC and Phase are NOT grouped.
TRUE -- Companion Program Settings File CREATED.
FALSE -- AC data not excluded
FALSE -- DC data not excluded
FALSE -- Phase data not excluded
FALSE -- Auxillary Chn. data not excluded
Tab delimiters

#CALIBRATION STATE
TRUE -- Waveform Calibration Values APPLIED.


#AUX CALIBRATION VALUES
Val Type	aux-1	

Term	1.0000e+00	
Factor	0.0000e+00	


#WF CALIBRATION VALUES
A = Detector Channel
Val Type	A-AC1	A-AC2	A-AC3	A-AC4	A-AC5	A-AC6	A-AC7	A-AC8	A-AC9	A-AC10	A-AC11	A-AC12	A-AC13	A-AC14	A-AC15	A-AC16	A-DC1	A-DC2	A-DC3	A-DC4	A-DC5	A-DC6	A-DC7	A-DC8	A-DC9	A-DC10	A-DC11	A-DC12	A-DC13	A-DC14	A-DC15	A-DC16	A-Ph1	A-Ph2	A-Ph3	A-Ph4	A-Ph5	A-Ph6	A-Ph7	A-Ph8	A-Ph9	A-Ph10	A-Ph11	A-Ph12	A-Ph13	A-Ph14	A-Ph15	A-Ph16	

Term	0.00000e+00	0.00000e+00	0.00000e+00	0.00000e+00	0.00000e+00	0.00000e+00	0.00000e+00	0.00000e+00	0.00000e+00	0.00000e+00	0.00000e+00	0.00000e+00	0.00000e+00	0.00000e+00	0.00000e+00	0.00000e+00	0.00000e+00	0.00000e+00	0.00000e+00	0.00000e+00	0.00000e+00	0.00000e+00	0.00000e+00	0.00000e+00	0.00000e+00	0.00000e+00	0.00000e+00	0.00000e+00	0.00000e+00	0.00000e+00	0.00000e+00	0.00000e+00	0.00000e+00	0.00000e+00	0.00000e+00	0.00000e+00	0.00000e+00	0.00000e+00	0.00000e+00	0.00000e+00	0.00000e+00	0.00000e+00	0.00000e+00	0.00000e+00	0.00000e+00	0.00000e+00	0.00000e+00	0.00000e+00	
Factor	1.00000e+00	1.00000e+00	1.00000e+00	1.00000e+00	1.00000e+00	1.00000e+00	1.00000e+00	1.00000e+00	1.00000e+00	1.00000e+00	1.00000e+00	1.00000e+00	1.00000e+00	1.00000e+00	1.00000e+00	1.00000e+00	1.00000e+00	1.00000e+00	1.00000e+00	1.00000e+00	1.00000e+00	1.00000e+00	1.00000e+00	1.00000e+00	1.00000e+00	1.00000e+00	1.00000e+00	1.00000e+00	1.00000e+00	1.00000e+00	1.00000e+00	1.00000e+00	X	X	X	X	X	X	X	X	X	X	X	X	X	X	X	X	

B = Detector Channel
Val Type	B-AC1	B-AC2	B-AC3	B-AC4	B-AC5	B-AC6	B-AC7	B-AC8	B-AC9	B-AC10	B-AC11	B-AC12	B-AC13	B-AC14	B-AC15	B-AC16	B-DC1	B-DC2	B-DC3	B-DC4	B-DC5	B-DC6	B-DC7	B-DC8	B-DC9	B-DC10	B-DC11	B-DC12	B-DC13	B-DC14	B-DC15	B-DC16	B-Ph1	B-Ph2	B-Ph3	B-Ph4	B-Ph5	B-Ph6	B-Ph7	B-Ph8	B-Ph9	B-Ph10	B-Ph11	B-Ph12	B-Ph13	B-Ph14	B-Ph15	B-Ph16	

Term	0.00000e+00	0.00000e+00	0.00000e+00	0.00000e+00	0.00000e+00	0.00000e+00	0.00000e+00	0.00000e+00	0.00000e+00	0.00000e+00	0.00000e+00	0.00000e+00	0.00000e+00	0.00000e+00	0.00000e+00	0.00000e+00	0.00000e+00	0.00000e+00	0.00000e+00	0.00000e+00	0.00000e+00	0.00000e+00	0.00000e+00	0.00000e+00	0.00000e+00	0.00000e+00	0.00000e+00	0.00000e+00	0.00000e+00	0.00000e+00	0.00000e+00	0.00000e+00	-1.43369e+02	-1.40021e+02	-1.25011e+02	-1.81578e+02	-7.38023e+01	-7.32306e+01	-1.57041e+02	-1.62015e+02	-7.92528e+01	-5.91734e+01	-1.74057e+02	-1.71424e+02	-1.78987e+02	-1.76327e+02	-6.84522e+01	-1.49256e+02	
Factor	1.90294e-05	1.26789e-04	3.84744e-05	1.58984e-01	1.18360e-06	1.40697e-06	1.60266e-01	4.82704e-02	1.15976e-06	1.66629e-06	8.45732e-02	2.76673e-02	2.67142e-02	8.45805e-03	1.20631e-06	1.22680e-02	3.47264e-06	3.99536e-06	1.10900e-06	8.22969e-02	4.30501e-08	4.39776e-08	7.82042e-02	2.51153e-02	4.31453e-08	4.40081e-08	4.24676e-02	1.39384e-02	1.40508e-02	4.41929e-03	4.33643e-08	6.19574e-03	X	X	X	X	X	X	X	X	X	X	X	X	X	X	X	X	



#DISTANCE SETTINGS
A = Detector Channel
A-1	A-2	A-3	A-4	A-5	A-6	A-7	A-8	A-9	A-10	A-11	A-12	A-13	A-14	A-15	A-16	

2.5000e+00	3.0000e+00	2.5000e+00	3.0000e+00	2.0000e+00	3.0000e+00	1.5000e+00	3.0000e+00	3.0000e+00	3.0000e+00	3.0000e+00	3.0000e+00	3.0000e+00	3.0000e+00	1.5000e+00	3.0000e+00	

B = Detector Channel
B-1	B-2	B-3	B-4	B-5	B-6	B-7	B-8	B-9	B-10	B-11	B-12	B-13	B-14	B-15	B-16	

1.0000e+01	1.0000e+01	1.0000e+01	1.4400e+00	1.0000e+01	1.0000e+01	1.5100e+00	1.9400e+00	1.0000e+01	1.0000e+01	1.9900e+00	2.4900e+00	2.4100e+00	2.9000e+00	1.0000e+01	2.9800e+00	




#DATA BEGINS
time	group	step	mark	flag	A-AC1	A-AC2	A-AC3	A-AC4	A-AC5	A-AC6	A-AC7	A-AC8	A-AC9	A-AC10	A-AC11	A-AC12	A-AC13	A-AC14	A-AC15	A-AC16	A-DC1	A-DC2	A-DC3	A-DC4	A-DC5	A-DC6	A-DC7	A-DC8	A-DC9	A-DC10	A-DC11	A-DC12	A-DC13	A-DC14	A-DC15	A-DC16	A-Ph1	A-Ph2	A-Ph3	A-Ph4	A-Ph5	A-Ph6	A-Ph7	A-Ph8	A-Ph9	A-Ph10	A-Ph11	A-Ph12	A-Ph13	A-Ph14	A-Ph15	A-Ph16	B-AC1	B-AC2	B-AC3	B-AC4	B-AC5	B-AC6	B-AC7	B-AC8	B-AC9	B-AC10	B-AC11	B-AC12	B-AC13	B-AC14	B-AC15	B-AC16	B-DC1	B-DC2	B-DC3	B-DC4	B-DC5	B-DC6	B-DC7	B-DC8	B-DC9	B-DC10	B-DC11	B-DC12	B-DC13	B-DC14	B-DC15	B-DC16	B-Ph1	B-Ph2	B-Ph3	B-Ph4	B-Ph5	B-Ph6	B-Ph7	B-Ph8	B-Ph9	B-Ph10	B-Ph11	B-Ph12	B-Ph13	B-Ph14	B-Ph15	B-Ph16	aux-1	digaux	

1533.299	1	1	0	512	0.14447	0.14754	0.051875	0.27271	0.048888	0.44738	0.19049	0.051362	0.15822	0.070574	0.25271	0.25555	0.062665	0.16071	0.17079	0.11263	-2.2208	-2.3958	-1.6938	-2.975	-2.0563	-2.1813	-2.8479	-1.9646	-2.525	-2.6271	-1.95	-2.925	-2.2917	-2.2562	-2.7146	-2.0938	120.106	-28.915	-5.008	203.853	8.268	207.143	153.333	165.899	38.087	174.433	56.314	-147.077	186.487	143.971	-5.617	-141.926	0.00087962	0.00063934	0.00018757	865.29	5.7219e-06	7.3698e-06	979.32	375.74	4.5713e-06	8.2246e-06	448.6	183.18	158.81	79.347	5.1128e-06	96.7	0.00035726	0.00027019	7.3684e-05	862	2.9082e-06	2.8931e-06	978.63	374.83	3.0144e-06	2.8881e-06	444.72	183.74	158.88	79.819	3.0748e-06	97.514	185.501	-66.616	-39.086	-138.835	-30.494	-15.254	-139.893	-133.675	-66.269	11.861	-135.645	-131.689	-129.418	-123.802	-4.745	-126.825	-8191	255	
1533.395	1	1	0	0	0.050238	0.17872	0.14163	0.16694	0.22518	0.26612	0.27089	0.33702	0.2366	0.30597	0.10426	0.17673	0.28941	0.076246	0.15964	0.22614	-2.2167	-2.6271	-1.9729	-2.6063	-2.0875	-2.1188	-2.8646	-2.0917	-2.4354	-2.6625	-1.8958	-2.7042	-2.1604	-2.1271	-2.9042	-2.2208	-64.475	20.649	88.957	154.305	23.669	181.477	150.768	180.258	-72.374	-49.071	-139.091	178.752	193.128	146.862	168.596	147.223	0.00083559	0.00082575	0.0002503	865.78	2.686e-06	7.2622e-06	978.76	373.37	6.5178e-06	6.9093e-06	445.34	182.58	158.14	79.299	6.5205e-06	97.422	0.00035868	0.00026777	7.6128e-05	860.56	2.9064e-06	2.9821e-06	978.55	373.77	3.007e-06	2.9175e-06	443.98	183.29	158.87	79.708	3.0519e-06	97.933	186.506	-85.939	-47.765	-138.659	-13.557	-7.154	-139.674	-133.454	-31.324	34.851	-135.567	-131.655	-129.572	-123.794	-32.390	-126.708	-8191	255	
1533.491	1	1	0	0	0.22475	0.11312	0.18867	0.13564	0.085702	0.10798	0.13035	0.25105	0.0047668	0.047415	0.11081	0.29697	0.2416	0.30152	0.089889	0.11401	-1.9104	-2.475	-1.6792	-2.5729	-2.1312	-1.8937	-2.8958	-2.2438	-2.2625	-2.7812	-1.8958	-2.6667	-2.3688	-2.2104	-2.6729	-2.2854	72.128	-77.807	66.484	173.988	163.535	-82.904	44.854	122.518	-67.437	92.109	202.951	194.841	164.260	129.206	0.618	38.270	0.00087909	0.00081262	0.00017314	865.95	5.2728e-06	6.2842e-06	978.23	373.74	6.3554e-06	7.6017e-06	445.4	183.4	157.61	79.528	4.3351e-06	97.416	0.00035435	0.00026988	7.6429e-05	860.78	2.9715e-06	2.9691e-06	977.06	374.29	2.9887e-06	2.9046e-06	444.85	183.84	158.62	79.783	3.064e-06	97.802	188.343	-86.145	-71.000	-138.719	-47.977	-28.355	-139.512	-133.562	-60.233	24.321	-135.596	-131.601	-129.460	-123.677	-27.940	-127.023	-8191	255	
1533.588	1	1	0	0	0.30396	0.11973	0.31491	0.13533	0.11428	0.036437	0.37799	0.43269	0.0588	0.22881	0.091147	0.13546	0.18894	0.32722	0.20574	0.17847	-1.8937	-2.8229	-1.9521	-2.7604	-2.2771	-1.7208	-2.8146	-2.2125	-2.2396	-2.9333	-2.0542	-2.7854	-2.7771	-2	-2.6375	-2.3542	-45.029	6.021	-24.165	168.278	-92.006	-146.624	180.951	157.150	-105.023	19.112	-59.614	95.306	-70.032	182.101	-147.717	97.467	0.00081737	0.0006133	0.00011201	864.55	5.5599e-06	3.8941e-06	979.02	374.49	5.4345e-06	6.6945e-06	446.81	183.3	158.52	79.469	4.5411e-06	97.544	0.00035503	0.00026775	7.4225e-05	859.62	2.8514e-06	2.9288e-06	977.82	374.63	3.0152e-06	2.9666e-06	445.15	184.09	159.2	79.918	3.0282e-06	97.991	185.975	-72.906	-80.504	-138.522	-26.090	15.958	-139.568	-133.562	-49.384	35.887	-135.529	-131.743	-129.220	-123.887	-28.111	-126.617	-8191	255	
1533.706	1	1	0	0	0.14603	0.28196	0.15697	0.32482	0.19924	0.10716	0.14009	0.31886	0.08221	0.070925	0.006987	0.17076	0.27397	0.35433	0.23775	0.16354	-1.4813	-3.0229	-2.0229	-2.6167	-2.7396	-1.9271	-2.7438	-2.4104	-1.7771	-2.5875	-2.1792	-2.4625	-2.7812	-2.1042	-2.8479	-2.6917	184.879	25.416	185.151	190.528	-2.398	-1.009	-97.159	132.875	135.167	116.262	2.074	167.569	144.786	194.598	129.577	96.459	0.00085919	0.00068365	0.00019556	865.39	5.9842e-06	6.5874e-06	979.59	374.44	6.425e-06	8.3372e-06	448.57	183.56	158.21	79.588	4.0362e-06	97.872	0.00036006	0.00026597	7.3233e-05	861.4	2.8914e-06	2.8731e-06	977.6	375.23	2.9735e-06	2.8388e-06	446.5	184.38	159.27	80.008	2.9797e-06	98.576	186.058	-69.654	-54.937	-138.465	-16.300	-13.532	-139.717	-133.561	-36.263	0.483	-135.809	-131.585	-129.264	-123.814	-29.787	-126.880	-8191	255	
1533.778	1	1	0	0	0.10956	0.21707	0.095433	0.10734	0.10766	0.16047	0.19671	0.30409	0.083452	0.15991	0.23761	0.46699	0.02534	0.41571	0.25382	0.28496	-1.5938	-2.6646	-1.9396	-2.3354	-2.9833	-1.8833	-2.85	-2.6458	-1.9688	-2.7521	-2.3604	-2.325	-2.7313	-1.9771	-2.5208	-2.5812	18.498	111.657	70.314	150.775	124.895	-96.813	161.121	173.221	16.903	-16.968	185.991	150.728	119.837	205.081	-148.208	188.702	0.00087873	0.00067584	0.0001388	867.78	6.0839e-06	5.7845e-06	982.71	377.83	6.7237e-06	7.6975e-06	449.56	184.91	158.62	79.648	4.7917e-06	97.833	0.00036125	0.00026578	7.364e-05	862.09	2.8911e-06	2.9051e-06	980.79	377.51	3.0233e-06	2.8565e-06	448.01	185.24	159.52	80.061	3.0213e-06	98.529	184.840	-85.694	-83.517	-138.547	-10.935	-2.305	-139.640	-133.665	-49.834	11.265	-135.547	-131.521	-129.586	-123.700	-53.568	-126.803	-8191	255	
1533.874	1	1	0	0	0.028039	0.07789	0.038143	0.25196	0.0096804	0.093644	0.41463	0.091136	0.070086	0.07089	0.082086	0.055411	0.1265	0.33939	0.26895	0.28818	-1.6375	-2.8021	-2.1125	-2.0333	-2.9167	-2.0083	-2.7417	-2.7917	-1.8167	-2.7583	-2.3771	-2.0917	-2.8292	-2.0771	-2.525	-2.9313	96.215	-7.289	-134.835	-7.801	44.808	-123.061	146.829	81.518	61.640	84.603	164.745	160.068	144.391	133.518	94.596	131.740	0.00089117	0.00065747	0.00024802	867.99	5.6449e-06	6.3168e-06	983.44	377.87	4.5209e-06	8.2429e-06	451.53	183.66	158.47	79.01	6.2475e-06	97.51	0.00036082	0.00026558	7.4021e-05	862.66	2.9687e-06	2.9252e-06	980.36	377.46	3.0621e-06	2.8647e-06	447.8	184.41	159.42	79.65	3.0464e-06	97.978	186.240	-74.829	-58.748	-138.490	-22.892	-7.917	-139.528	-133.639	-24.991	15.405	-135.729	-131.578	-129.538	-123.886	-37.038	-126.783	-8191	255	
1533.970	1	1	0	0	0.18224	0.070524	0.14088	0.09679	0.055365	0.23317	0.32445	0.22439	0.24222	0.10677	0.10246	0.31792	0.25401	0.053286	0.098729	0.22615	-1.5292	-2.7625	-2.2583	-1.9104	-2.7229	-2.1021	-2.5729	-2.8979	-2.0083	-2.6854	-2.5687	-2.3458	-3.1479	-2.15	-2.1521	-2.7208	125.457	113.795	-115.162	131.243	92.914	148.152	74.367	169.692	-41.569	-83.987	-137.666	205.644	204.483	171.266	-61.389	202.854	0.00087831	0.00039442	0.00021195	869.25	6.5353e-06	7.3854e-06	979.87	378	5.7095e-06	8.2184e-06	448.99	183.8	158.53	79.215	6.3329e-06	97.521	0.00036055	0.00026056	7.2864e-05	862.63	2.93e-06	2.9772e-06	979.91	377.43	3.0621e-06	2.9296e-06	448.11	184.45	159.43	79.606	3.0315e-06	98.051	186.803	-81.020	-69.918	-138.611	-24.153	-14.818	-139.563	-133.602	-58.161	20.529	-135.541	-131.525	-129.366	-123.822	-40.169	-126.679	-8191	255	
1534.067	1	1	0	0	0.19281	0.25775	0.13225	0.065869	0.24484	0.094605	0.20522	0.15445	0.22482	0.29534	0.3032	0.14195	0.09718	0.53055	0.16858	0.063531	-1.4854	-2.5333	-2.3958	-1.9896	-2.7896	-2.3	-2.2646	-3.1083	-1.7188	-2.7917	-2.7104	-1.9917	-2.8167	-2.1792	-2.25	-2.9625	201.794	-65.248	-60.899	-81.468	179.804	-29.056	198.516	167.337	-143.461	-8.206	126.680	134.917	-40.722	172.907	26.074	93.818	0.00088922	0.00041402	0.0002334	866.43	5.3412e-06	6.6644e-06	983.85	378.93	5.5079e-06	7.6547e-06	451.65	183.65	158.85	79.351	6.1066e-06	97.609	0.00036876	0.00026815	7.3991e-05	863.88	2.9658e-06	2.9742e-06	980.45	378.63	3.0928e-06	2.9878e-06	449.5	184.22	159.24	79.638	3.0715e-06	98.095	185.989	-71.800	-52.086	-138.399	-17.869	6.222	-139.455	-133.397	-36.349	-17.589	-135.564	-131.647	-129.381	-123.933	-29.451	-126.687	-8191	255	
1534.187	1	1	0	0	0.24298	0.27844	0.13944	0.13616	0.20488	0.14699	0.12831	0.32758	0.096471	0.058882	0.27317	0.23503	0.16285	0.16027	0.31395	0.33935	-1.6167	-2.2854	-2.4958	-1.9708	-2.6854	-2.4333	-2.4146	-2.9938	-2.0563	-2.375	-2.75	-2.3625	-3.0042	-2.5521	-1.8146	-2.9792	-132.784	-27.261	-75.629	158.518	95.441	179.966	94.000	187.618	-114.167	145.904	-134.053	136.940	183.834	137.701	57.097	153.601	0.00081819	0.0004605	0.00014701	863.18	3.369e-06	7.6654e-06	981.94	377.63	5.251e-06	6.0982e-06	450.42	182.75	158.69	79.155	3.7579e-06	97.037	0.00035782	0.00027009	7.5317e-05	862.31	2.9515e-06	3.0259e-06	980.82	377.71	3.0609e-06	2.971e-06	448.55	183.88	159.06	79.485	3.053e-06	97.598	184.882	-58.456	-44.072	-138.500	-27.775	-20.098	-139.354	-133.386	-34.859	9.797	-135.417	-131.563	-129.262	-123.780	-40.089	-126.603	-8191	255	
1534.283	1	1	0	0	0.10117	0.15103	0.2307	0.23172	0.17887	0.087957	0.17209	0.38266	0.35254	0.25772	0.36301	0.16289	0.20745	0.35263	0.11695	0.19073	-1.6625	-2.3979	-2.9396	-1.7917	-2.6375	-2.4333	-2.2917	-2.8729	-1.9958	-2.1458	-2.8812	-2.05	-2.6604	-2.8312	-1.6167	-2.9479	154.301	108.348	127.970	185.328	-140.037	197.989	197.788	186.517	170.884	130.736	121.424	66.673	-113.328	171.613	114.547	-12.038	0.00081899	0.0005512	0.00018483	865.2	4.9586e-06	5.5936e-06	983.39	377.35	8.4721e-06	7.0066e-06	451.4	183.42	158.33	79.094	4.9287e-06	97.181	0.00035843	0.00027155	7.4839e-05	861.15	3.0157e-06	2.9398e-06	980.09	378.1	3.0609e-06	2.9642e-06	448.99	184.02	159.07	79.588	3.0756e-06	97.804	186.013	-74.171	-27.816	-138.395	-17.655	-13.876	-139.239	-133.595	-52.132	33.724	-135.450	-131.539	-129.384	-123.711	-18.492	-126.608	-8191	255	
1534.379	1	1	0	0	0.21832	0.19498	0.1298	0.16534	0.18489	0.24113	0.17289	0.37217	0.091279	0.17335	0.04582	0.22836	0.22838	0.10562	0.13349	0.51555	-1.7563	-2.1688	-2.7792	-2.0375	-2.375	-2.7854	-2.0458	-2.9562	-2.0896	-2.0271	-2.7271	-1.9292	-2.3625	-2.8896	-1.8708	-3.1375	127.246	-40.488	177.465	-128.962	-1.685	164.578	208.476	190.542	174.100	141.880	-101.433	167.504	-66.503	100.213	85.277	149.091	0.00090148	0.00063557	0.00015373	868.77	2.9431e-06	8.2172e-06	984.26	378.86	7.439e-06	8.176e-06	452.78	183.51	158.44	79.381	5.1257e-06	98.019	0.00036841	0.00027298	7.4188e-05	863.53	2.9655e-06	2.9408e-06	981.69	378.62	3.0251e-06	2.9808e-06	449.91	184.69	159.43	79.813	3.0633e-06	98.572	186.402	-83.421	-69.418	-138.628	-13.455	-4.118	-139.510	-133.378	-43.061	2.662	-135.838	-131.898	-129.391	-123.842	-2.555	-126.702	-8191	255	
1534.476	1	1	0	0	0.20491	0.17205	0.042103	0.36404	0.051115	0.18029	0.14442	0.39883	0.29805	0.077652	0.32529	0.34699	0.21641	0.05427	0.17182	0.24535	-2.0438	-2.1771	-2.7188	-2.1271	-2.1208	-2.675	-2.1146	-2.8	-2.3812	-1.875	-2.6646	-1.9354	-2.2062	-2.8583	-2.1292	-2.8833	44.024	103.324	-103.195	190.089	-131.867	7.973	167.995	156.864	126.693	149.039	136.344	186.628	139.902	8.058	49.420	168.823	0.00088843	0.00062446	0.00018336	870.47	5.5993e-06	5.4461e-06	983.57	381.17	5.7158e-06	3.8116e-06	453.01	183.91	158.43	79.342	5.2782e-06	97.422	0.00035857	0.00027171	7.4952e-05	864.75	2.9594e-06	2.946e-06	982.63	380.57	3.0397e-06	2.9705e-06	450.75	184.67	159.4	79.667	3.0696e-06	97.968	184.917	-78.213	-55.569	-138.603	-10.483	5.008	-139.680	-133.479	-64.182	25.492	-135.402	-131.901	-129.075	-123.656	-27.695	-126.508	-8191	255	
1534.572	1	1	0	0	0.091707	0.080541	0.23681	0.187	0.15121	0.19033	0.26903	0.33288	0.10947	0.16299	0.22968	0.026986	0.08204	0.36406	0.26693	0.18634	-2.0812	-1.8875	-2.6167	-2.1	-1.9896	-2.7812	-2.0396	-2.8208	-2.4771	-2.075	-2.6729	-2.3937	-2.0479	-2.9458	-2.0083	-2.7167	-41.807	-88.787	16.790	48.661	101.833	61.767	138.699	167.033	119.038	55.355	-136.951	70.899	116.708	143.886	133.079	-114.487	0.00083873	0.00071838	0.00016556	869.79	5.8356e-06	7.728e-06	985.19	379.45	4.7805e-06	9.012e-06	451.5	182.4	158.13	78.574	5.6128e-06	96.439	0.00035955	0.00027934	7.5518e-05	864.4	2.9821e-06	3.0033e-06	981.08	379.04	2.9762e-06	2.962e-06	449.41	183.03	158.76	79.023	3.1811e-06	97.036	185.311	-88.485	-71.932	-138.615	-30.771	-16.163	-139.665	-133.465	-67.222	3.657	-135.391	-131.495	-129.256	-123.506	-18.841	-126.467	-8191	255	
1534.668	1	1	0	0	0.25821	0.046003	0.25921	0.080067	0.093436	0.27037	0.28991	0.26241	0.11394	0.2171	0.052338	0.42486	0.18286	0.22225	0.13378	0.045585	-2.1667	-1.8104	-2.7188	-2.5292	-2.3146	-2.725	-2.3354	-2.7146	-2.7458	-1.925	-2.9729	-2.4875	-2.1854	-3.1958	-2.1646	-2.6583	-137.670	71.757	-109.017	144.232	-37.110	99.513	102.462	153.299	87.297	146.829	-142.274	173.225	208.050	113.574	-113.150	-129.340	0.00086548	0.00069534	0.0001155	870.48	4.7141e-06	6.2684e-06	980.98	379.31	4.8413e-06	8.8821e-06	450.17	182.97	158.08	78.797	5.6795e-06	96.978	0.00036116	0.00027601	7.5528e-05	864	3.0067e-06	2.9254e-06	979.3	379	3.0301e-06	2.9663e-06	448.8	183.62	158.78	79.168	3.1009e-06	97.319	186.538	-75.505	-57.541	-138.412	-27.503	-8.329	-139.579	-133.424	-39.950	-12.035	-135.513	-131.470	-129.441	-123.853	-29.998	-126.658	-8191	255	
1534.787	1	1	0	0	0.012339	0.29242	0.10732	0.35693	0.10107	0.19549	0.16683	0.2244	0.13602	0.13043	0.10135	0.3375	0.38956	0.21019	0.2747	0.14164	-2.5563	-2.0583	-2.5021	-2.5104	-2.1562	-2.9708	-2.2792	-2.4354	-2.4688	-1.7958	-2.8646	-2.475	-1.9958	-2.9917	-2.2188	-2.2396	199.297	57.703	-27.763	-115.727	198.817	-61.841	198.385	150.839	9.998	110.441	122.110	172.029	180.433	195.540	-15.598	134.342	0.00091397	0.00051939	0.00018548	865.39	4.9854e-06	9.1842e-06	982.16	378.9	7.1136e-06	9.3064e-06	451.82	183.6	157.93	79.154	4.257e-06	97.068	0.00036448	0.00027429	7.5606e-05	862.6	3.0382e-06	2.9489e-06	979.74	379.33	3.0429e-06	2.9981e-06	449.99	183.73	158.82	79.375	3.055e-06	97.675	188.321	-58.817	-49.334	-138.582	-28.384	-11.853	-139.703	-133.369	-36.752	16.675	-135.192	-131.831	-129.106	-123.679	-1.420	-126.459	-8191	255	
1534.883	1	1	0	0	0.29968	0.39229	0.076038	0.20091	0.2976	0.26727	0.17211	0.27082	0.010371	0.18856	0.23206	0.25611	0.12392	0.38481	0.064877	0.4405	-2.3604	-1.8333	-2.4708	-2.6104	-1.7646	-2.4729	-2.4708	-2.2979	-2.9146	-1.9396	-2.3563	-2.825	-2.1479	-2.9708	-2.2333	-2.2812	80.420	-111.827	-95.449	-149.211	91.371	105.079	65.888	15.804	-147.882	176.799	184.862	193.877	164.171	174.979	-6.370	123.604	0.0008961	0.00070535	0.00018859	865.12	2.7244e-06	2.6694e-06	987	380.5	6.4565e-06	6.4284e-06	448.99	182.05	157.4	78.251	3.4353e-06	96.382	0.00035805	0.00027323	7.4576e-05	862.84	3.012e-06	2.9022e-06	981.33	379.31	3.0702e-06	2.9771e-06	448.77	182.64	158.03	78.792	3.1221e-06	96.859	187.089	-64.096	-63.811	-138.334	-11.685	30.966	-139.739	-133.448	-36.001	-8.535	-135.376	-131.518	-129.162	-123.721	-26.783	-126.455	-8191	255	
1534.979	1	1	0	0	0.16527	0.076134	0.35384	0.073946	0.11918	0.17576	0.1227	0.13047	0.13868	0.13769	0.28824	0.10247	0.25092	0.53827	0.21445	0.38184	-2.4062	-2.0396	-2.3187	-2.7646	-1.8625	-2.9396	-2.4313	-2.1625	-2.9458	-2.1771	-2.6292	-2.825	-2	-2.7167	-2.3208	-2.0521	-119.900	18.324	-132.080	-60.077	-145.320	-47.373	167.601	190.508	14.532	167.207	111.123	148.908	153.754	182.563	185.889	157.561	0.00080559	0.00074683	0.00022229	870.42	6.9776e-06	6.7383e-06	980.52	378.8	7.5486e-06	7.32e-06	452.6	182.15	157.79	78.226	4.6637e-06	96.757	0.00036201	0.00028022	7.7247e-05	864.96	3.0533e-06	2.9976e-06	978.43	377.98	3.0933e-06	2.965e-06	449.14	182.87	158.2	78.763	3.0909e-06	97.041	184.770	-71.030	-71.965	-138.068	-23.103	6.568	-139.588	-133.372	-37.693	29.188	-135.290	-131.484	-129.188	-123.340	0.049	-126.466	-8191	255	
1535.075	1	1	0	0	0.2466	0.34646	0.2157	0.24924	0.1591	0.24267	0.3988	0.24339	0.082635	0.14379	0.051395	0.26664	0.29085	0.21013	0.026156	0.39243	-2.6104	-2.3167	-2.3354	-2.7417	-1.9312	-2.5292	-2.6813	-2.1813	-2.7854	-2.4083	-2.325	-3.0146	-1.9646	-2.8563	-2.6979	-2.1646	112.041	-108.825	-50.863	-122.973	-77.559	-70.320	172.572	-91.967	-16.304	8.489	83.868	186.071	189.408	202.473	-126.426	189.028	0.00087346	0.00055761	0.00023417	870.08	4.7096e-06	5.1944e-06	984.86	379.47	6.7257e-06	8.9238e-06	451.76	183.63	157.77	79.203	6.1e-06	98.014	0.00036218	0.00027407	7.4969e-05	863.08	3.0509e-06	2.9568e-06	980.8	379.56	3.0511e-06	2.9241e-06	450.1	184.15	158.94	79.55	3.0079e-06	98.298	186.613	-61.908	-60.037	-138.355	-23.939	1.184	-139.764	-133.320	-64.037	3.289	-135.216	-131.538	-129.575	-123.698	-29.318	-126.579	-8191	255	
1535.171	1	1	0	0	0.17308	0.084607	0.29384	0.24437	0.41763	0.20145	0.11263	0.18141	0.19455	0.10235	0.23731	0.1769	0.20262	0.26891	0.060735	0.20163	-2.2396	-2.3854	-2.0833	-3.0979	-1.9333	-2.3667	-2.7875	-2.2354	-2.7646	-2.2042	-2.175	-3.0854	-2.2313	-2.5604	-2.5417	-1.7292	44.460	163.398	-104.634	156.801	83.115	-71.810	152.691	186.740	162.100	146.591	103.829	-100.650	183.722	168.252	136.583	133.920	0.00085846	0.00042355	0.00016107	870.05	4.8862e-06	6.6313e-06	986.01	381.35	5.9228e-06	5.839e-06	456.77	183.73	159.09	79.235	5.2439e-06	98.038	0.00035838	0.00027197	7.6447e-05	864.84	2.9908e-06	2.9306e-06	982.89	381.24	3.0422e-06	2.9077e-06	452.99	185.09	159.67	79.841	3.0369e-06	98.391	187.253	-67.662	-52.317	-138.337	-29.158	3.325	-139.631	-133.278	-41.931	14.870	-135.309	-131.388	-129.280	-123.563	-43.505	-126.644	-8191	255	
1535.268	1	1	0	0	0.13733	0.24787	0.23882	0.074236	0.11455	0.064308	0.17705	0.065146	0.28457	0.22121	0.18117	0.1605	0.25054	0.25517	0.16358	0.16504	-2.4083	-2.2333	-1.9958	-2.9625	-2.1167	-2.45	-2.8292	-2.0792	-2.4646	-2.4562	-1.8896	-2.9313	-2.275	-2.5833	-2.8563	-2.2125	46.567	92.145	-40.808	-27.754	173.665	201.138	119.136	24.007	-87.716	-16.513	103.625	-118.758	-143.192	155.795	132.122	181.863	0.0008692	0.00070632	0.00014584	872.37	5.2646e-06	7.7254e-06	987.76	382.3	5.9321e-06	8.1669e-06	455.56	183.54	159.09	79.176	6.4868e-06	97.62	0.00035656	0.00026837	7.528e-05	866.56	2.9331e-06	2.967e-06	984.95	381.59	3.0227e-06	2.9195e-06	452.46	184.65	159.7	79.843	3.0607e-06	98.217	184.408	-83.979	-48.638	-138.230	-15.815	-32.802	-139.522	-133.236	-42.840	11.780	-135.194	-131.616	-129.258	-123.577	-7.481	-126.577	-8191	255	
1535.364	1	1	0	0	0.039079	0.047238	0.17814	0.12212	0.22256	0.15822	0.17864	0.17239	0.17431	0.28347	0.15573	0.04438	0.18984	0.020298	0.13875	0.15894	-2.2979	-2.5979	-1.8333	-2.9292	-2.3688	-2.1875	-2.9021	-2.1875	-2.5854	-2.5854	-1.9625	-2.7812	-2.4688	-2.3083	-2.7354	-2.1229	-59.008	104.572	90.404	186.937	128.346	8.157	28.961	198.440	102.894	143.965	162.967	177.555	192.844	-44.274	-52.412	163.404	0.00085603	0.00069362	0.00014054	872.07	3.4731e-06	6.9179e-06	984.94	382.36	5.2528e-06	1.159e-05	456.47	183.93	158.9	79.139	4.9929e-06	97.428	0.00035544	0.00026641	7.3707e-05	867.45	2.9723e-06	2.9487e-06	985.36	381.64	3.0164e-06	2.8636e-06	453.97	185.05	159.71	79.7	3.0436e-06	98.15	185.604	-61.924	-64.492	-138.748	-21.662	-10.753	-139.563	-133.562	-28.104	25.609	-135.574	-131.760	-129.337	-123.643	-8.369	-126.511	-8191	255	
1535.484	1	1	0	0	0.21789	0.18349	0.24689	0.055676	0.25081	0.025478	0.37835	0.33396	0.13462	0.025203	0.14252	0.14911	0.26371	0.21215	0.10951	0.33594	-1.9896	-2.7229	-1.8708	-2.8271	-2.2292	-2.1	-3.0312	-2.1917	-2.4813	-2.7604	-2.2083	-2.8208	-2.4229	-2.3063	-2.9625	-2.4938	-2.431	119.277	-127.557	-52.779	36.508	187.529	126.836	-140.420	100.588	-134.237	153.849	111.941	133.570	192.066	-103.636	100.703	0.00085424	0.00062644	0.00020033	872.98	3.52e-06	5.0094e-06	984.2	382.08	4.0542e-06	6.312e-06	452.77	182.87	157.78	79.085	5.9534e-06	97.307	0.00036477	0.00026662	7.5075e-05	867.84	3.0199e-06	2.9531e-06	985.66	381.09	3.0566e-06	2.9166e-06	451.67	184.21	159.01	79.391	3.0382e-06	97.578	185.133	-64.096	-64.032	-138.490	-13.806	-7.110	-139.622	-133.443	-29.903	8.922	-135.371	-131.446	-129.281	-123.522	-44.444	-126.601	-8191	255	
1535.579	1	1	0	0	0.23942	0.070451	0.12648	0.39564	0.084212	0.23735	0.16591	0.24853	0.14855	0.13539	0.10687	0.24576	0.34282	0.015101	0.16686	0.16288	-2.0583	-2.8979	-1.8625	-2.7521	-2.6562	-2.2417	-3.25	-2.4188	-2.2042	-2.8021	-2.0417	-2.775	-2.4417	-2.0396	-2.8854	-2.5417	109.328	73.564	26.140	-111.168	73.513	-78.399	125.675	175.249	-30.021	-29.567	-146.345	138.234	-144.157	149.856	64.368	189.871	0.00085622	0.00075137	0.00013885	873.21	5.0223e-06	5.4774e-06	983.77	381.18	4.5164e-06	7.417e-06	455	184.28	158.85	79.239	6.9011e-06	96.941	0.0003642	0.00027258	7.6311e-05	868.47	2.8973e-06	2.9323e-06	984.45	381.09	2.9187e-06	2.8801e-06	452.76	184.81	159.71	79.475	2.8546e-06	97.618	185.347	-68.619	-83.768	-138.417	2.559	-24.711	-139.488	-133.238	-63.857	2.742	-135.479	-131.524	-129.415	-123.654	-13.351	-126.519	-8191	255	
1535.652	1	1	0	0	0.24364	0.1419	0.19686	0.26811	0.065756	0.24787	0.13882	0.21558	0.11918	0.13022	0.19392	0.15365	0.21548	0.070475	0.20278	0.37337	-1.7667	-2.8563	-1.9813	-2.5271	-2.475	-1.8354	-2.8688	-2.1104	-2.2125	-2.7292	-2.1708	-2.5812	-2.8063	-2.0021	-2.7979	-2.6104	30.503	171.744	2.232	-137.231	170.358	-128.341	-140.670	-131.539	41.772	179.134	178.578	-134.582	161.940	163.219	65.331	141.374	0.00085661	0.0004794	0.00016772	870.6	4.1932e-06	5.6057e-06	982.4	381.39	6.2734e-06	8.5107e-06	452.09	183.18	157.48	78.679	6.6194e-06	96.7	0.00034569	0.00025915	7.257e-05	864.69	2.7744e-06	2.8478e-06	981.84	380.07	2.9333e-06	2.8368e-06	449.7	183.9	158.61	79.104	2.9467e-06	97.225	188.539	-76.695	-56.376	-138.438	-10.298	4.828	-139.440	-133.478	-54.944	-3.678	-135.627	-131.370	-129.256	-123.709	-34.934	-126.606	-8191	255	
1535.748	1	1	0	0	0.25145	0.246	0.083375	0.10662	0.11844	0.12469	0.072975	0.30933	0.094067	0.29829	0.24101	0.085485	0.34798	0.092561	0.28858	0.38807	-1.8354	-2.9062	-1.8083	-2.45	-2.5396	-1.8375	-2.675	-2.5042	-1.9188	-2.7542	-2.2979	-2.4729	-2.8729	-2.3604	-2.65	-2.6333	-52.221	202.362	-109.620	179.582	158.480	29.967	-56.595	106.307	-133.478	-31.515	115.857	74.094	167.027	134.884	165.847	137.861	0.00080072	0.00055935	0.00020593	872.72	5.5959e-06	7.6977e-06	987.51	379.18	5.9031e-06	7.613e-06	453.38	183.86	159	79.132	8.0825e-06	97.845	0.00034452	0.00025718	7.3952e-05	865.59	2.9073e-06	2.8782e-06	983.41	379.74	2.9767e-06	2.7787e-06	451.07	184.35	159.38	79.527	2.8807e-06	98.354	185.481	-80.473	-57.686	-138.219	6.616	-7.890	-139.775	-133.573	-63.788	-15.065	-135.583	-131.430	-129.243	-123.780	-6.711	-126.516	-8191	255	
1535.867	1	1	0	0	0.22464	0.063152	0.09913	0.13563	0.015415	0.080204	0.28403	0.045038	0.089405	0.27424	0.011933	0.24068	0.26662	0.3181	0.32651	0.24449	-1.4583	-2.6729	-1.9562	-1.9542	-2.7792	-1.8875	-2.4688	-2.7979	-1.8458	-2.85	-2.4062	-2.1146	-2.7625	-2.2583	-2.5417	-2.6437	139.269	120.773	116.239	64.381	-126.030	-8.133	129.449	37.580	61.715	198.742	108.863	151.024	-115.184	130.767	-113.133	193.005	0.00087789	0.00056065	0.00019016	868.48	4.6399e-06	3.6557e-06	982.79	379.76	6.5296e-06	8.951e-06	452.43	184.69	158.51	79.691	4.2242e-06	98.081	0.00035064	0.00025495	7.1702e-05	864.18	2.7813e-06	2.7905e-06	980.53	380.39	2.8955e-06	2.707e-06	450.08	184.83	159.63	80.061	2.7922e-06	98.358	187.955	-82.882	-58.089	-138.132	-10.790	-27.808	-139.404	-133.222	-49.839	9.497	-135.600	-131.436	-129.174	-123.616	-36.615	-126.569	-8191	255	
1535.963	1	1	0	0	0.17039	0.14857	0.088389	0.16987	0.13209	0.16855	0.099405	0.24932	0.13862	0.073904	0.085046	0.19101	0.27156	0.13784	0.27215	0.36029	-1.4917	-2.7	-2.3187	-2.2854	-2.8854	-1.975	-2.4583	-2.6792	-1.8729	-2.6792	-2.4021	-2.0708	-2.8604	-2.2042	-2.3458	-3.025	106.707	43.532	38.579	144.748	157.337	104.756	-109.642	150.028	140.353	-95.055	-147.288	165.238	181.224	-32.899	-96.947	80.446	0.00091662	0.00055548	0.00016836	866.17	5.9483e-06	8.6366e-06	984.84	381.08	5.7918e-06	6.3453e-06	451.32	184.04	159.4	79.524	3.9138e-06	98.066	0.00034629	0.00025122	6.8141e-05	863.36	2.6516e-06	2.6573e-06	983.12	380.39	2.7475e-06	2.6812e-06	449.06	184.93	160.22	80.065	2.8298e-06	98.464	186.823	-77.890	-61.782	-138.174	-15.283	-3.839	-139.502	-133.400	-55.188	1.851	-135.475	-131.543	-128.930	-123.721	-2.220	-126.492	-8191	255	
1536.059	1	1	0	0	0.17724	0.16525	0.091907	0.38489	0.18193	0.32428	0.34401	0.25035	0.19658	0.13786	0.337	0.1615	0.19361	0.070634	0.19414	0.17177	-1.4333	-2.5042	-2.1896	-2.0604	-2.6042	-2.1979	-2.5208	-3.0146	-2.1396	-2.5187	-2.4188	-2.1583	-2.9396	-2.4167	-2.2792	-3.0042	-11.587	127.825	90.988	200.492	130.393	7.458	140.339	161.253	118.790	-126.431	115.705	163.601	114.578	165.947	-72.913	183.588	0.0008682	0.00051144	0.00019685	871.49	6.6262e-06	6.8023e-06	983.8	378.83	4.8274e-06	1.0125e-05	449.79	183.04	158.49	78.813	4.7491e-06	96.858	0.0003437	0.00025165	6.8543e-05	864.14	2.6835e-06	2.7258e-06	980.54	379.13	2.8137e-06	2.7125e-06	447.61	183.59	158.73	79.132	2.897e-06	97.426	183.887	-77.686	-47.050	-138.531	-3.883	14.365	-139.525	-133.322	-51.708	4.171	-135.230	-131.490	-129.313	-123.471	-3.574	-126.309	-8191	255	
1536.180	1	1	0	0	0.35022	0.14313	0.33169	0.28383	0.15094	0.14245	0.25117	0.16689	0.21726	0.22479	0.1644	0.041203	0.30628	0.26027	0.24084	0.39014	-1.4188	-2.3354	-2.4104	-2.0812	-2.7542	-2.3021	-2.0729	-2.9042	-1.8062	-2.5771	-2.8708	-2.2458	-2.9292	-2.4813	-1.8792	-2.8937	154.634	30.842	123.062	205.890	2.710	79.427	163.881	55.019	142.299	43.470	-109.558	71.007	199.032	152.817	184.150	146.625	0.00083627	0.00048391	0.00015793	864.52	6.2923e-06	5.423e-06	978.23	377.79	6.4862e-06	6.4337e-06	444.96	180.51	156.01	77.274	5.6939e-06	95.177	0.00034232	0.00026378	7.1082e-05	861.27	2.8403e-06	2.7583e-06	974.92	376.79	2.9189e-06	2.7414e-06	443.44	181.05	156.96	77.803	2.9072e-06	95.635	187.778	-85.306	-45.325	-138.276	2.193	-7.322	-139.611	-133.326	-33.710	4.758	-135.130	-131.527	-128.900	-123.390	-45.085	-126.525	-8191	255	
1536.276	1	1	0	0	0.21285	0.19414	0.26305	0.19626	0.099659	0.084357	0.092748	0.15583	0.10399	0.086257	0.14216	0.20694	0.11847	0.51209	0.10793	0.24965	-1.5354	-2.0812	-2.6354	-2.0312	-2.7646	-2.5167	-1.9771	-2.8646	-2.0979	-2.4667	-2.7896	-2.075	-2.5896	-2.5458	-1.7146	-2.8583	34.295	-20.957	34.485	204.414	-125.193	51.940	-73.961	192.146	135.169	-48.663	136.383	142.459	151.130	192.274	-19.452	207.340	0.00080666	0.00073356	0.00021156	860.12	5.1716e-06	4.9919e-06	974.54	374.42	6.9652e-06	6.2187e-06	444.21	180.3	155.93	77.242	4.2852e-06	94.51	0.00034294	0.00025236	6.9544e-05	857.24	2.7851e-06	2.7926e-06	971.26	374.29	2.9497e-06	2.8526e-06	441.99	180.35	156.48	77.508	3.0498e-06	95.04	186.180	-83.962	-60.534	-138.094	-1.712	4.310	-139.481	-133.418	-33.317	9.594	-135.588	-131.536	-128.948	-123.519	-9.054	-126.308	-8191	255	
1536.348	1	1	0	0	0.061737	0.26185	0.14419	0.15648	0.22282	0.19179	0.086315	0.049769	0.18762	0.18219	0.093052	0.14339	0.15186	0.21938	0.10854	0.21739	-1.5812	-2.3479	-2.7146	-2.0979	-2.6	-2.5292	-2.0979	-2.9625	-2.2042	-1.8417	-3.0938	-2.0979	-2.6833	-2.8125	-2.0021	-3.1229	89.129	-90.491	-1.922	195.896	160.749	122.413	-131.005	-102.480	-22.219	-97.183	-120.828	106.595	168.057	192.417	176.881	132.922	0.00084019	0.0007454	0.00013183	862.86	6.9598e-06	6.1822e-06	977.83	374.92	7.4664e-06	6.7299e-06	446.59	180.89	156.12	77.22	6.7126e-06	95.619	0.00035217	0.00026169	7.4363e-05	857.47	2.9314e-06	2.9505e-06	971.61	374.65	2.9935e-06	2.9141e-06	444.82	181.29	156.87	77.886	2.9746e-06	95.908	188.343	-88.301	-60.493	-138.244	-21.740	-1.843	-139.404	-133.136	-38.708	-7.460	-135.183	-131.499	-128.924	-123.640	-15.110	-126.416	-8191	255	
1536.469	1	1	0	0	0.083047	0.14037	0.1866	0.18258	0.098294	0.34052	0.35006	0.29654	0.22911	0.075954	0.14988	0.088033	0.23833	0.33044	0.16898	0.29553	-2.1958	-2.0312	-2.7875	-1.9354	-2.2938	-2.5417	-1.6146	-2.8083	-2.2375	-2.0521	-2.9542	-2.2542	-2.4833	-2.8187	-1.8521	-2.7188	-151.206	-83.689	151.147	-118.914	31.882	107.074	48.509	202.999	108.432	171.758	45.090	-13.423	199.545	198.774	72.655	101.576	0.00084751	0.00048614	0.00020169	865.64	3.0739e-06	5.5241e-06	974.85	376.41	7.6729e-06	5.5619e-06	448.63	182.12	157.6	78.329	4.4515e-06	96.197	0.00035107	0.00026673	7.3832e-05	857.07	2.8773e-06	2.8391e-06	973.08	376.77	2.9528e-06	2.872e-06	447.62	182.66	158.07	78.697	3.0059e-06	96.77	187.460	-88.664	-87.858	-138.421	-17.563	-25.974	-139.306	-133.315	-36.420	12.570	-135.178	-131.635	-129.115	-123.657	-14.569	-126.537	-8191	255	
1536.565	1	1	0	0	0.053145	0.24387	0.29176	0.35482	0.16476	0.063012	0.37464	0.35707	0.139	0.2382	0.1578	0.38213	0.25796	0.31871	0.10194	0.39982	-2.0771	-1.9896	-2.6896	-2.2167	-2.2604	-2.7542	-2.1167	-2.9375	-2.5021	-1.8813	-3.0812	-2.2979	-2.3521	-3.0208	-1.9229	-2.7854	-65.711	-126.543	184.064	-104.546	-24.648	39.646	129.477	116.285	113.891	-103.194	-149.409	181.623	-77.892	205.492	3.542	152.769	0.00086511	0.00057543	0.00020351	863.05	5.4668e-06	4e-06	972.93	378.04	6.3617e-06	6.4121e-06	450.67	182.53	158.42	78.91	7.1602e-06	97.635	0.00034585	0.00026075	7.1785e-05	857.59	2.8518e-06	2.8172e-06	972.06	378.57	2.8538e-06	2.7932e-06	449.28	183.95	158.81	79.447	2.9813e-06	97.941	188.378	-60.406	-65.545	-138.188	11.496	1.759	-139.390	-133.240	-51.315	9.226	-135.519	-131.549	-129.148	-123.456	-32.959	-126.406	-8191	255	
1536.659	1	1	0	0	0.16135	0.12526	0.081656	0.04636	0.15267	0.13609	0.040882	0.3124	0.097973	0.063622	0.15544	0.13473	0.16837	0.12624	0.044724	0.34358	-1.9479	-1.5875	-2.6875	-2.1583	-2.0729	-2.7271	-1.9833	-2.5729	-2.4708	-1.6812	-2.7438	-2.3792	-1.9792	-2.875	-1.8875	-2.3542	131.071	170.419	-130.296	-90.102	-33.853	-78.610	137.468	126.471	199.510	187.568	-146.524	45.684	-91.608	-106.659	54.693	100.975	0.00085963	0.00070092	0.00022932	861.33	5.6298e-06	7.0262e-06	978.37	380.09	6.2763e-06	8.1303e-06	451.56	183.3	157.96	78.843	4.7938e-06	97.702	0.00035163	0.0002599	7.1697e-05	856.72	2.8739e-06	2.841e-06	972.42	379.39	2.9121e-06	2.8349e-06	449.11	183.52	158.63	79.326	2.9023e-06	98.203	186.114	-72.440	-56.319	-138.525	-16.766	-23.943	-139.707	-133.366	-32.080	21.021	-135.273	-131.473	-128.946	-123.408	-28.465	-126.610	-8191	255	
1536.780	1	1	0	0	0.21509	0.12348	0.16484	0.26366	0.10375	0.14916	0.25628	0.3027	0.1616	0.033834	0.28782	0.069955	0.085387	0.083581	0.21749	0.21311	-2.0896	-1.8458	-2.6458	-2.5083	-2.1292	-2.8417	-2.1771	-2.3583	-2.65	-1.8062	-2.5833	-2.4375	-1.9438	-2.9437	-1.9458	-2.4375	110.177	69.031	109.897	130.099	-40.291	-77.518	-107.539	189.952	104.560	50.064	-94.724	120.541	-145.840	-120.962	-64.962	129.032	0.0008453	0.00053954	0.00022781	864.02	2.4695e-06	7.1912e-06	979.55	380.21	4.7403e-06	7.0562e-06	454.3	182.49	158.36	78.787	5.9542e-06	97.657	0.00034376	0.00025678	6.9766e-05	858.57	2.815e-06	2.7444e-06	977.18	379.85	2.855e-06	2.7403e-06	450.61	183.8	158.82	79.394	2.9496e-06	98.071	184.797	-84.417	-95.473	-138.332	10.948	-4.477	-139.676	-133.157	-42.714	15.664	-135.398	-131.567	-129.078	-123.540	-39.788	-126.305	-8191	255	
1536.876	1	1	0	0	0.1572	0.25392	0.14775	0.06974	0.059243	0.054461	0.12893	0.32668	0.1281	0.21807	0.16965	0.097345	0.11957	0.29685	0.18614	0.095783	-2.4188	-1.7833	-2.6583	-2.5792	-2.05	-2.8125	-2.2375	-2.3875	-2.8271	-1.8125	-2.6021	-2.9042	-2.1146	-2.8833	-2.3812	-2.1792	2.730	73.587	172.542	124.016	53.443	-2.404	121.763	166.133	38.214	131.421	164.277	-141.950	-122.894	185.088	180.816	114.114	0.00087649	0.00076591	0.00019381	867.07	4.9829e-06	6.0964e-06	975.08	379.5	5.7825e-06	5.5208e-06	451.21	182.51	157.81	78.596	6.5822e-06	96.763	0.00034526	0.00025812	7.3224e-05	861.28	2.8396e-06	2.7511e-06	977.1	379.76	2.9063e-06	2.8929e-06	449.79	183.14	158.4	79.073	2.9724e-06	97.291	186.509	-68.558	-56.498	-138.438	10.134	9.187	-139.635	-133.178	-45.497	-7.208	-135.406	-131.505	-129.130	-123.412	-26.487	-126.531	-8191	255	
1536.948	1	1	0	0	0.13065	0.10594	0.17583	0.082097	0.13809	0.26579	0.21578	0.31694	0.12174	0.21633	0.10474	0.14408	0.1249	0.24159	0.26033	0.19326	-2.1271	-1.5833	-2.2917	-2.7729	-1.8188	-2.8396	-2.5021	-2.0729	-2.6854	-1.9021	-2.4333	-2.7604	-1.8188	-2.7479	-2.3125	-1.9083	143.082	-109.981	202.057	187.053	91.109	6.682	127.296	181.941	-132.291	140.177	174.880	55.234	207.949	163.246	200.124	143.122	0.00084645	0.00059802	0.00023737	867.23	6.5488e-06	4.2346e-06	981.27	380.54	4.6252e-06	5.6829e-06	455.6	185.72	159.78	80.288	4.947e-06	98.941	0.000341	0.00026838	7.1069e-05	861.25	2.8934e-06	2.7736e-06	978.46	381.29	2.8713e-06	2.7777e-06	453.65	186.01	160.53	80.513	2.818e-06	99.593	185.544	-84.830	-48.328	-138.405	-27.018	-0.486	-139.549	-133.375	-9.557	-8.856	-135.365	-131.387	-128.889	-123.417	-22.117	-126.465	-8191	255	
1537.044	1	1	0	0	0.17934	0.2373	0.12865	0.25424	0.1307	0.20264	0.31046	0.19614	0.16282	0.17241	0.18005	0.10401	0.18197	0.16246	0.16728	0.21493	-2.4313	-1.975	-2.1771	-2.875	-2.0458	-2.6625	-2.5354	-2.2417	-2.8104	-2.2542	-2.3042	-2.9167	-2.0771	-2.675	-2.3625	-2.1229	-114.786	-145.557	195.890	202.782	156.345	114.200	153.007	205.685	154.891	16.866	183.067	150.836	-102.397	167.933	195.604	187.122	0.00084923	0.00052241	0.00017638	864	4.7314e-06	6.4044e-06	989.29	383.67	4.569e-06	8.9137e-06	459.1	185.52	159.61	80.378	4.0447e-06	99.362	0.0003312	0.00024694	6.8231e-05	861.86	2.6586e-06	2.6575e-06	983.3	383.48	2.8059e-06	2.7567e-06	455.61	186.69	160.45	80.887	2.7905e-06	99.732	185.366	-77.770	-59.638	-138.303	7.088	3.767	-139.380	-133.187	-53.479	6.137	-135.617	-131.503	-129.073	-123.305	-13.103	-126.290	-8191	255	
1537.164	1	1	0	0	0.11995	0.083263	0.19823	0.18037	0.14222	0.050854	0.23743	0.090917	0.26976	0.23515	0.15983	0.19492	0.30155	0.38228	0.17944	0.27473	-2.5438	-2.0687	-2.0542	-2.8812	-2.0479	-2.4938	-2.7812	-2.0729	-2.6208	-2.2042	-2.1771	-2.8667	-1.9729	-2.6146	-2.5042	-1.9583	29.681	-37.806	168.378	160.933	-4.449	24.153	-131.947	92.500	-26.358	-82.735	-116.947	146.596	134.592	208.312	71.102	-43.340	0.00087244	0.00071836	0.00024726	867.25	3.4025e-06	7.088e-06	983.38	381.41	5.4001e-06	8.1187e-06	456.38	184.92	159.26	79.781	5.6785e-06	98.425	0.00034357	0.00025311	7.0639e-05	864.04	2.8117e-06	2.6994e-06	981.24	382.19	2.8455e-06	2.7951e-06	453.33	185.44	159.91	80.335	2.9346e-06	98.978	187.371	-64.660	-54.515	-138.378	-22.700	0.462	-139.415	-133.076	-39.005	17.772	-135.247	-131.488	-129.002	-123.286	-11.160	-126.439	-8191	255	
1537.260	1	1	0	0	0.082867	0.11948	0.14313	0.15755	0.092633	0.22772	0.21196	0.27736	0.1348	0.15843	0.023391	0.39341	0.089816	0.17727	0.17891	0.20806	-2.2	-2.3583	-2.1021	-2.7854	-1.9917	-2.4104	-2.6937	-1.9542	-2.5625	-2.3187	-2.0292	-2.5396	-2.0917	-2.3271	-2.6188	-2.2917	198.482	123.689	-72.832	-123.771	137.471	15.683	100.889	192.457	74.735	-14.314	115.523	107.695	84.841	184.270	84.926	164.451	0.00087496	0.00063039	0.00016373	868.41	6.4873e-06	5.2637e-06	984.73	382.2	4.381e-06	9.9733e-06	454.45	183.43	157.91	78.48	6.8861e-06	97.162	0.00035341	0.00026709	7.3867e-05	863.9	2.9307e-06	2.9262e-06	980.62	381.42	3.0661e-06	3.0151e-06	453.41	183.77	158.52	79.03	3.0649e-06	97.545	186.629	-48.104	-48.304	-138.193	-37.961	-2.556	-139.610	-133.192	-42.522	12.347	-135.356	-131.281	-128.988	-123.238	-16.482	-126.309	-8191	255	
1537.357	1	1	0	0	0.13725	0.19796	0.13742	0.16822	0.18113	0.11588	0.13012	0.22914	0.23639	0.19769	0.036281	0.25625	0.25811	0.27856	0.15411	0.22537	-2.2583	-2.5479	-1.9417	-2.8438	-1.9479	-2.0375	-2.6312	-2.0104	-2.5	-2.5396	-1.9708	-2.9167	-2.4521	-2.3688	-2.8375	-2.175	30.075	-3.019	-81.748	-31.334	124.838	-69.751	-145.612	135.485	76.507	-150.316	148.672	7.600	-111.467	-148.430	-116.406	105.833	0.00084979	0.00060439	0.00022589	872.33	5.2754e-06	6.5259e-06	986.15	382.91	6.881e-06	6.8267e-06	459.71	184.3	158.72	78.656	5.3123e-06	96.988	0.00035232	0.00026819	7.422e-05	866.7	2.8809e-06	2.8714e-06	982.99	382.63	2.9237e-06	2.7838e-06	456.35	185.13	159.34	79.256	2.8509e-06	97.737	184.857	-56.861	-59.798	-138.271	-22.917	-6.654	-139.499	-133.228	-49.042	16.251	-135.097	-131.444	-128.977	-123.351	-26.933	-126.508	-8191	255	
1537.453	1	1	0	0	0.034505	0.050763	0.23229	0.12207	0.23705	0.042922	0.11995	0.19751	0.2938	0.29751	0.14831	0.18913	0.033553	0.21699	0.3047	0.20026	-2.1875	-2.6667	-1.75	-2.7875	-2.2042	-1.8021	-2.8021	-2.0479	-2.2687	-2.4938	-1.9625	-2.5958	-2.3021	-1.9771	-2.85	-2.2146	57.175	130.300	-47.415	131.511	72.759	-86.204	114.885	125.829	98.966	64.392	-142.883	167.356	-102.096	177.894	159.950	133.926	0.00090821	0.00066475	0.00022781	870.45	4.7516e-06	7.6142e-06	984.85	381.63	5.1214e-06	6.6347e-06	458.47	184.74	158.92	78.899	5.9509e-06	97.567	0.00034542	0.00024988	6.9851e-05	865.32	2.8022e-06	2.7229e-06	982.61	382.62	2.8311e-06	2.6405e-06	455.7	185.27	159.88	79.429	2.7632e-06	98.195	185.372	-55.569	-43.521	-138.024	-17.843	-22.155	-139.439	-133.167	-32.935	20.521	-135.122	-131.449	-129.140	-123.530	-29.017	-126.690	-8191	255	
1537.549	1	1	0	0	0.13328	0.096969	0.24385	0.19533	0.33409	0.24144	0.33335	0.063371	0.022131	0.14181	0.13292	0.14139	0.074173	0.1313	0.030981	0.21599	-2.1188	-2.7896	-1.7771	-2.7188	-2.2646	-1.7792	-2.7583	-2.0896	-2.1688	-2.5187	-2.1	-2.7896	-2.575	-2.0729	-2.8063	-2.3563	66.359	-92.457	-54.108	181.510	-83.908	22.747	123.804	-51.178	-132.708	113.919	134.706	98.755	-9.305	-42.377	171.872	139.899	0.00087557	0.00045603	0.00018424	869.23	5.8244e-06	3.9374e-06	987.52	383.96	5.3172e-06	7.1215e-06	458.68	185.08	159.88	78.877	5.7562e-06	97.191	0.00033342	0.00024149	6.7906e-05	864.12	2.6963e-06	2.7279e-06	983.73	383.56	2.8093e-06	2.7058e-06	455.4	185.48	160.04	79.365	2.8105e-06	97.862	184.918	-60.551	-35.119	-138.275	-16.784	-12.512	-139.514	-133.342	-43.404	-3.333	-135.300	-131.406	-129.261	-123.498	-13.592	-126.425	-8191	255	
1537.645	1	1	0	0	0.090102	0.17511	0.12593	0.24565	0.24887	0.26011	0.2193	0.22952	0.21596	0.2257	0.24109	0.1935	0.28215	0.251	0.1429	0.23574	-1.8708	-2.6146	-1.9562	-2.6208	-2.5896	-1.7979	-2.7729	-2.1583	-2.0625	-2.6625	-1.8917	-2.4917	-2.6188	-1.9896	-2.8187	-2.475	168.366	78.254	86.075	141.095	204.984	71.512	163.670	-142.271	134.360	-52.217	205.651	-138.415	-125.230	-147.540	-57.029	61.730	0.00083514	0.00057304	0.00020528	873.8	5.7578e-06	5.1793e-06	988.59	384.31	7.4421e-06	5.8862e-06	457.1	185.55	159.24	79.183	7.4312e-06	97.913	0.00033798	0.00024868	6.8795e-05	866.07	2.7296e-06	2.5974e-06	984.47	383.74	2.7704e-06	2.6593e-06	455.37	186.34	159.76	79.686	2.719e-06	98.47	187.949	-71.043	-69.783	-138.073	-23.504	-13.673	-139.430	-133.397	-45.114	2.263	-135.406	-131.460	-128.869	-123.468	-25.109	-126.301	-8191	255	
1537.741	1	1	0	0	0.27657	0.1393	0.076707	0.11504	0.302	0.26314	0.33014	0.32449	0.086301	0.14897	0.1584	0.17136	0.029002	0.11525	0.21905	0.28618	-1.5521	-2.8292	-1.9958	-2.5417	-2.6646	-1.875	-2.9458	-2.3875	-2.1854	-2.8125	-2.3146	-2.3729	-2.925	-1.9875	-2.675	-2.5708	-76.250	204.308	54.478	-79.988	69.343	-4.343	72.305	-97.127	-34.781	112.602	108.160	-104.656	28.665	107.834	-144.430	188.462	0.00085508	0.00042036	0.00021335	870.97	4.045e-06	6.1744e-06	987.22	385.05	5.0123e-06	5.0398e-06	462.11	187.67	160.7	79.72	4.1383e-06	98.811	0.00033591	0.00024196	6.6522e-05	864.76	2.5844e-06	2.6171e-06	983.73	384.99	2.6992e-06	2.4941e-06	459.15	187.73	161.5	80.239	2.6096e-06	99.346	184.645	-84.564	-63.699	-137.932	-20.227	-14.457	-139.336	-133.450	-41.850	-1.089	-135.132	-131.335	-129.063	-123.444	-41.195	-126.562	-8191	255	
1537.860	1	1	0	0	0.16635	0.18844	0.10616	0.15032	0.17487	0.21318	0.29767	0.13594	0.23683	0.091252	0.21298	0.10671	0.23054	0.42281	0.086121	0.2937	-1.7021	-2.6708	-1.9458	-2.4417	-2.7	-1.9458	-2.6083	-2.775	-1.9896	-2.8271	-2.2458	-2.3917	-2.7083	-2.0083	-2.4979	-2.6979	-45.546	39.010	91.006	-78.407	89.443	-139.749	155.188	189.467	-87.705	-133.695	171.483	-43.536	130.294	161.946	-30.764	195.867	0.00089245	0.00062529	0.00015986	871.93	4.3961e-06	7.6943e-06	987	386.83	8.0517e-06	6.4929e-06	463.4	187.04	160.92	80.066	5.8639e-06	98.17	0.00033217	0.0002322	6.4355e-05	866.87	2.5067e-06	2.4982e-06	985.76	386.62	2.6719e-06	2.4638e-06	458.9	187.72	161.58	80.32	2.6403e-06	98.853	184.442	-79.392	-51.940	-138.278	4.343	-0.630	-139.174	-133.321	-21.117	39.625	-135.271	-131.444	-129.043	-123.446	-28.146	-126.526	-8191	255	
1537.956	1	1	0	0	0.12132	0.25367	0.17834	0.14964	0.041988	0.26015	0.12977	0.27502	0.048282	0.11087	0.030784	0.25403	0.14105	0.17418	0.12783	0.12419	-1.4396	-2.575	-2.1646	-2.2438	-2.7854	-1.9062	-2.4813	-2.6708	-1.7771	-2.8042	-2.45	-2.0375	-2.7729	-2.1646	-2.2396	-2.8208	185.220	-70.449	-72.682	-86.379	164.827	-92.405	132.567	171.831	-96.941	-35.903	9.612	132.869	156.209	153.602	182.722	102.331	0.00084814	0.00056175	0.0002298	870.54	7.4931e-06	8.1942e-06	989.4	385.61	5.5482e-06	8.5911e-06	458.59	186.45	160.04	79.721	6.1159e-06	98.488	0.0003267	0.00022779	6.4227e-05	866.88	2.563e-06	2.5927e-06	985.91	385.3	2.72e-06	2.5189e-06	457.2	187.17	161.17	80.138	2.5855e-06	98.787	185.205	-74.797	-46.206	-138.025	-14.372	5.006	-139.204	-133.419	-33.139	2.693	-135.331	-131.333	-128.968	-123.482	-24.234	-126.384	-8191	255	
1538.052	1	1	0	0	0.038076	0.26136	0.1683	0.1748	0.083532	0.30807	0.19699	0.10641	0.065414	0.16941	0.17526	0.28162	0.26062	0.33177	0.058342	0.35867	-1.375	-2.3854	-2.3104	-1.8188	-2.6312	-1.8937	-2.2375	-2.8312	-1.7021	-2.7917	-2.5312	-1.975	-2.7271	-1.9937	-2.0687	-2.8583	132.061	-104.854	110.958	179.852	-17.314	140.288	177.465	141.287	-67.022	84.295	170.212	169.463	146.427	164.205	16.454	181.393	0.00086886	0.00065263	0.0001971	873.87	5.824e-06	5.1264e-06	989.76	386.26	6.7887e-06	7.6074e-06	460.06	186.18	160.89	79.98	5.906e-06	98.885	0.00032896	0.00022226	6.2647e-05	869.08	2.3878e-06	2.3929e-06	986.58	385.9	2.5458e-06	2.3879e-06	458.1	187.31	161.57	80.395	2.6002e-06	99.627	186.678	-59.947	-51.860	-138.138	-26.745	-15.531	-139.423	-133.293	-39.995	4.796	-135.328	-131.337	-129.030	-123.542	-29.189	-126.216	-8191	255	
1538.149	1	1	0	0	0.23712	0.30612	0.26091	0.21569	0.074548	0.075025	0.18875	0.32372	0.19784	0.083318	0.21845	0.20742	0.093915	0.10397	0.22803	0.34727	-1.4292	-2.4896	-2.4167	-2.0729	-2.7042	-2.2604	-2.1625	-2.9896	-1.8438	-2.55	-2.7979	-2.2021	-2.7604	-2.4271	-1.8833	-2.8063	-94.431	-10.657	186.458	-142.096	88.221	-48.339	-132.530	117.439	-149.111	-49.602	150.235	132.281	-138.223	154.403	-76.792	151.030	0.00086245	0.00068169	0.00021458	874.83	4.8922e-06	6.645e-06	986.01	386.95	5.5997e-06	8.2256e-06	460.99	187.36	161.3	80.086	5.28e-06	99.015	0.00032659	0.00022818	6.1633e-05	867.15	2.4147e-06	2.3903e-06	984.09	386.5	2.5859e-06	2.4047e-06	457.72	187.72	161.87	80.351	2.5412e-06	99.472	184.706	-74.446	-76.140	-138.088	-5.347	-21.690	-139.304	-133.203	-29.138	8.682	-135.448	-131.387	-128.918	-123.429	-11.022	-126.669	-8191	255	
1538.245	1	1	0	0	0.11326	0.063528	0.19008	0.089977	0.12443	0.052436	0.29122	0.26214	0.23004	0.16867	0.21064	0.19355	0.24744	0.15199	0.37133	0.37037	-1.5354	-2.1813	-2.6063	-1.9708	-2.6396	-2.3208	-2.0479	-2.8917	-2.3146	-2.3	-2.7812	-2.0812	-2.6437	-2.4354	-1.8229	-2.6896	45.026	-76.323	-93.775	-139.087	-133.792	120.288	147.380	161.812	-151.260	167.913	-12.528	-150.894	183.596	121.538	28.436	157.662	0.00086848	0.00065525	0.00025684	871.45	5.1889e-06	6.2944e-06	992.17	386.57	5.3224e-06	5.786e-06	461.01	188.93	162.38	80.933	4.3768e-06	100.68	0.00031638	0.00022041	6.0175e-05	865.81	2.3999e-06	2.3687e-06	986.9	386.73	2.4521e-06	2.3334e-06	458.74	189.12	163.09	81.339	2.4466e-06	101.08	185.036	-90.587	-77.724	-138.389	-22.938	19.334	-139.399	-133.392	-32.652	13.632	-135.505	-131.512	-128.891	-123.705	-26.345	-126.353	-8191	255	
1538.341	1	1	0	0	0.051822	0.039079	0.14989	0.27953	0.1472	0.079599	0.15876	0.40028	0.13426	0.050031	0.047238	0.14349	0.15719	0.3275	0.20526	0.038839	-1.5688	-2.2562	-2.7521	-1.8979	-2.5479	-2.2896	-1.9521	-2.8417	-2.0958	-2.175	-2.8063	-2.0792	-2.4437	-2.5979	-1.6771	-2.9562	127.806	182.994	94.344	183.014	-122.332	-88.178	125.112	106.500	-18.932	-30.767	58.571	119.503	205.357	184.715	184.876	114.319	0.00088616	0.0004979	0.0001818	873.96	4.5839e-06	4.97e-06	990.84	390.08	5.0328e-06	7.4206e-06	463	188.77	162.45	80.928	6.1952e-06	100.87	0.00031498	0.00020901	5.9999e-05	868.16	2.3548e-06	2.345e-06	987.29	388.42	2.453e-06	2.4015e-06	460.98	189.7	163.14	81.369	2.4965e-06	101.21	187.435	-64.859	-61.766	-138.270	-28.083	-13.546	-139.289	-133.127	-45.414	19.483	-135.417	-131.398	-129.094	-123.557	-13.924	-126.317	-8191	255	
1538.461	1	1	0	0	0.15121	0.17706	0.14892	0.13101	0.24329	0.24611	0.18548	0.032189	0.13106	0.12388	0.18015	0.047396	0.1277	0.16698	0.049131	0.04529	-1.5146	-1.7604	-2.5563	-1.9458	-2.4583	-2.5583	-1.875	-2.9104	-2.0854	-1.8708	-2.6667	-2.0021	-2.3708	-2.8667	-1.8188	-2.7625	160.415	-34.065	67.799	-131.059	49.568	1.999	119.298	134.814	125.593	207.373	-128.805	177.874	128.540	-130.710	-40.112	-96.239	0.00084782	0.00063624	0.00021138	876.71	2.7037e-06	7.4858e-06	986.06	388.46	5.8197e-06	8.1187e-06	461.77	187.07	161.52	79.793	5.5975e-06	98.623	0.00031722	0.00021543	5.9997e-05	867.86	2.3853e-06	2.291e-06	984.6	387.87	2.4987e-06	2.3771e-06	459.58	187.92	162.03	80.255	2.5121e-06	99.112	184.275	-85.408	-50.090	-138.120	-18.441	-21.758	-139.362	-133.294	-40.941	-5.603	-135.251	-131.372	-128.986	-123.501	-18.274	-126.495	-8191	255	
1538.558	1	1	0	0	0.032721	0.1288	0.10222	0.45681	0.11859	0.075981	0.31686	0.15883	0.16364	0.030495	0.25226	0.1859	0.02149	0.063468	0.16773	0.19806	-1.8687	-1.7396	-2.5396	-1.9312	-2.2833	-2.7479	-1.9375	-2.6979	-2.3958	-1.8188	-2.6958	-2.2146	-2.1917	-2.7687	-1.9146	-2.8063	75.429	44.114	157.755	186.802	-71.880	-66.604	3.686	-135.323	179.567	-109.059	152.543	188.181	-50.862	-29.365	-23.077	197.129	0.00086197	0.00035517	0.0001896	874.19	6.055e-06	6.1345e-06	982.74	385.54	5.0565e-06	1.0201e-05	458.39	185.75	159.98	79.109	5.2272e-06	97.771	0.0003152	0.00022018	5.8987e-05	865.43	2.4022e-06	2.2965e-06	979.42	384.69	2.4203e-06	2.3962e-06	456.42	186.42	160.48	79.408	2.558e-06	98.348	187.041	-86.745	-56.566	-138.233	-10.779	4.171	-139.122	-132.993	-31.343	-1.112	-135.063	-131.402	-128.852	-123.446	-12.201	-126.518	-8191	255	
1538.652	1	1	0	0	0.20925	0.063382	0.32021	0.043708	0.16576	0.12945	0.12061	0.31706	0.26078	0.11734	0.26426	0.22621	0.26582	0.1707	0.13949	0.18287	-2.1813	-2.0458	-2.9562	-2.1896	-2.2771	-2.7417	-2.1021	-2.5625	-2.5625	-2.0229	-2.8354	-2.3	-2.2812	-3.2313	-1.7375	-2.5062	-132.777	204.935	159.527	137.481	188.205	182.069	169.281	-134.469	162.470	71.789	156.187	146.981	165.875	160.158	-27.387	-136.969	0.00086905	0.00079071	0.00014374	868.93	5.0959e-06	5.4247e-06	978.26	385.02	7.2505e-06	6.1362e-06	459.62	185.63	159.05	78.417	5.3227e-06	97.63	0.00031334	0.00022116	6.0933e-05	864.55	2.4381e-06	2.3271e-06	976.25	383.86	2.5092e-06	2.3803e-06	455.26	185.8	159.62	78.901	2.558e-06	97.946	186.643	-85.639	-79.447	-138.237	-32.371	-27.547	-139.070	-133.082	-39.053	25.696	-135.182	-131.581	-128.619	-123.351	-29.122	-126.325	-8191	255	
1538.748	1	1	0	0	0.16612	0.027735	0.010442	0.090644	0.087199	0.12991	0.35477	0.17869	0.18613	0.17433	0.29321	0.28216	0.19885	0.26384	0.25866	0.40902	-2.1667	-1.5771	-2.5687	-2.4333	-1.8792	-2.6813	-2.2583	-2.4646	-2.7958	-1.9062	-2.7479	-2.7167	-1.9583	-2.7542	-1.8708	-2.3729	-138.676	132.093	18.259	36.108	-134.254	153.909	206.930	-91.618	167.209	27.548	-14.473	197.936	45.006	-147.623	78.872	139.218	0.00089518	0.00059872	0.00019913	868.91	3.4695e-06	6.8791e-06	974.29	383.82	5.6046e-06	8.5188e-06	458.41	184.59	158.3	78.085	5.6616e-06	97.931	0.00031971	0.00022595	6.1577e-05	863.53	2.5432e-06	2.4659e-06	971.55	383.52	2.559e-06	2.4963e-06	455.76	185.88	159.22	78.726	2.5901e-06	98.174	184.721	-91.659	-76.141	-138.147	-22.131	-13.366	-139.207	-133.136	-45.065	-1.438	-135.160	-131.465	-128.946	-123.334	-13.060	-126.433	-8191	255	
1538.822	1	1	0	0	0.066087	0.18535	0.12223	0.2142	0.37378	0.231	0.12868	0.15635	0.10317	0.24556	0.13273	0.28126	0.25086	0.46611	0.15898	0.20359	-2.3542	-1.8229	-2.7042	-2.3208	-2.1188	-2.8729	-2.3354	-2.3167	-2.8083	-1.9375	-2.7854	-2.625	-2.0854	-3.1896	-2.2583	-2.3104	-124.872	-42.980	-102.731	148.996	182.684	109.912	-133.108	167.083	-64.365	182.396	-120.937	197.432	154.696	177.128	-9.396	-119.687	0.00083568	0.00064091	0.00016732	863.92	6.0644e-06	5.5041e-06	976.3	384.26	4.8067e-06	6.5021e-06	459.04	185.12	158.81	78.25	4.8961e-06	97.347	0.000314	0.00022732	6.3816e-05	861.98	2.4972e-06	2.4576e-06	973.27	383.7	2.5275e-06	2.4879e-06	455.81	185.96	159.15	78.611	2.5966e-06	97.856	184.177	-75.764	-62.153	-138.094	-14.359	-10.042	-139.301	-132.881	-50.780	14.511	-135.115	-131.395	-128.858	-123.222	-27.063	-126.336	-8191	255	
1538.940	1	1	0	0	0.12481	0.2118	0.20352	0.1207	0.24539	0.14475	0.26487	0.28036	0.029651	0.13944	0.30692	0.29072	0.089145	0.38872	0.21354	0.28327	-2.3104	-1.7458	-2.3042	-2.4042	-1.5646	-2.7604	-2.2104	-2.05	-2.8375	-1.9708	-2.5667	-2.7562	-2.0104	-2.8729	-2.0479	-1.9438	17.029	9.693	104.408	191.131	72.145	-18.611	196.504	35.630	190.747	21.412	-143.274	196.924	-141.231	-137.299	72.191	158.200	0.00080148	0.00038446	0.00014492	868.3	6.2263e-06	5.1866e-06	979.28	382.47	6.4391e-06	9.2313e-06	458.81	184.49	157.41	77.514	5.355e-06	96.945	0.00031776	0.00023345	6.3862e-05	863.77	2.5979e-06	2.5274e-06	974.11	382.62	2.5644e-06	2.5287e-06	454.82	185.11	158.19	78.06	2.6543e-06	97.455	185.651	-54.883	-64.777	-138.082	-20.705	4.421	-139.336	-132.956	-35.267	6.848	-135.063	-131.381	-128.925	-123.397	-38.721	-126.208	-8191	255	
1539.037	1	1	0	0	0.26576	0.014352	0.10539	0.079155	0.14427	0.1683	0.31494	0.44211	0.28297	0.14243	0.32803	0.2462	0.17175	0.34539	0.070154	0.25502	-2.2417	-1.8083	-2.3458	-2.6333	-1.6417	-2.2917	-2.2271	-1.8604	-2.5687	-1.9042	-2.325	-2.8312	-1.9896	-2.7375	-2.4542	-2.0042	189.849	-83.324	61.255	-115.308	-13.418	192.269	143.035	172.770	37.430	87.972	186.679	-90.321	-53.379	177.343	186.338	178.430	0.00088804	0.0003391	0.00021329	868.05	3.6833e-06	3.7408e-06	975.6	380.51	7.3473e-06	4.6403e-06	454.19	183.33	156.7	76.838	5.5474e-06	96.04	0.00032531	0.00023004	6.3264e-05	864.38	2.5276e-06	2.4197e-06	974.68	380.76	2.5545e-06	2.5247e-06	451.75	184.09	157.4	77.354	2.4917e-06	96.346	185.396	-77.417	-76.190	-138.112	-1.505	18.400	-139.227	-133.006	-54.640	1.819	-135.000	-131.233	-128.717	-123.132	-10.945	-126.092	-8191	255	
1539.133	1	1	0	0	0.046357	0.13516	0.077249	0.223	0.23694	0.089327	0.22015	0.18733	0.1817	0.046611	0.031931	0.39903	0.29288	0.35297	0.12456	0.36904	-2.3646	-2.1292	-2.0604	-2.75	-1.875	-2.6625	-2.6042	-2.0583	-2.7687	-2.0375	-2.1188	-2.9	-1.8958	-2.5312	-2.4729	-1.9875	169.327	158.663	85.653	155.169	-97.383	-91.509	89.573	137.717	-65.839	-66.088	-55.208	127.496	176.847	170.831	116.846	-150.244	0.00085522	0.00080276	0.00019057	871.44	6.2023e-06	6.0882e-06	978.76	379.21	5.184e-06	7.2698e-06	452.42	181.6	155.94	76.28	5.5229e-06	94.608	0.00032062	0.00022609	6.1319e-05	866.31	2.4692e-06	2.4398e-06	973.82	378.36	2.5436e-06	2.4486e-06	449.2	182.8	156.61	76.709	2.4686e-06	95.161	187.036	-65.666	-69.436	-138.135	-26.651	-27.073	-139.279	-133.069	-65.840	-20.750	-135.023	-131.321	-128.790	-123.145	-35.175	-126.133	-8191	255	
1539.229	1	1	0	0	0.26574	0.19455	0.11326	0.14992	0.024627	0.28144	0.071484	0.25357	0.13669	0.24404	0.16929	0.18883	0.10479	0.24425	0.038761	0.23977	-2.3417	-2.375	-2.1229	-2.8875	-2	-2.4021	-2.8708	-2.1167	-2.625	-2.5396	-2.0646	-3.0354	-2.1271	-2.4271	-2.4625	-2.075	77.235	204.899	-21.281	169.637	-140.165	130.020	-135.276	180.703	-145.123	127.150	157.074	150.858	-48.338	193.824	48.778	131.427	0.00079994	0.00066866	0.00025966	874.33	4.3559e-06	5.9447e-06	976.68	379.44	6.0338e-06	6.5335e-06	452.27	182.62	155.83	76.196	5.8384e-06	94.729	0.0003089	0.00022411	6.2148e-05	869.4	2.4756e-06	2.3905e-06	977.27	378.96	2.4676e-06	2.3292e-06	449.3	183.33	156.6	76.735	2.4988e-06	95.312	187.224	-64.135	-52.080	-137.978	-22.340	-3.965	-139.325	-133.028	-36.612	-3.182	-135.017	-131.253	-128.556	-123.175	-4.024	-126.247	-8191	255	
1539.350	1	1	0	0	0.26833	0.27279	0.16896	0.12815	0.14863	0.069806	0.15526	0.45364	0.31319	0.19326	0.17557	0.17913	0.26883	0.15157	0.13441	0.39209	-2.4562	-2.3708	-1.7958	-2.8771	-1.9813	-2.1792	-2.9437	-1.8292	-2.3229	-2.5792	-1.9792	-2.75	-2.325	-2.2917	-2.8583	-2.1771	-63.318	83.402	18.552	-125.013	137.323	206.258	69.883	201.698	-19.732	97.444	203.139	184.796	-117.757	154.164	0.789	157.902	0.00088084	0.00077651	0.00020899	875.51	6.8799e-06	6.8971e-06	981.67	380.68	4.3207e-06	8.3059e-06	450.82	183.43	156.1	76.702	7.3467e-06	95.521	0.00031227	0.00021926	6.1194e-05	868.52	2.4574e-06	2.4188e-06	977.47	379.45	2.5652e-06	2.3659e-06	450.17	183.71	156.68	77.075	2.4657e-06	96.115	186.844	-79.136	-63.611	-137.822	-6.795	19.297	-139.048	-133.283	-33.362	-3.059	-135.143	-131.300	-128.820	-123.311	-19.040	-126.100	-8191	255	
1539.446	1	1	0	0	0.1098	0.027937	0.31256	0.30742	0.12919	0.084961	0.11456	0.27828	0.18905	0.11237	0.1377	0.50617	0.23673	0.31071	0.11028	0.048706	-1.9958	-2.3979	-1.7146	-2.5396	-1.9458	-2	-2.8583	-1.9188	-2.3396	-2.5208	-1.9188	-2.5542	-2.175	-1.9333	-2.6146	-2.1271	-47.467	19.281	-130.765	153.759	-115.729	-106.531	-142.857	84.917	39.863	169.618	143.533	176.697	-89.135	149.032	189.392	119.246	0.00085058	0.0006377	0.00015546	874.25	6.4877e-06	5.2567e-06	981.68	380	3.4281e-06	9.1404e-06	454.17	184.03	157.02	77.258	7.783e-06	96.163	0.00030598	0.00021924	6.197e-05	868.92	2.4108e-06	2.3757e-06	978.39	380.69	2.5037e-06	2.2828e-06	451.67	185.09	157.55	77.638	2.4554e-06	96.587	185.954	-71.753	-65.967	-138.103	-22.940	0.725	-139.094	-133.024	-42.261	-5.396	-134.943	-131.348	-128.867	-123.221	-9.817	-126.357	-8191	255	
1539.542	1	1	0	0	0.091411	0.077012	0.15876	0.090742	0.15145	0.015121	0.15477	0.39841	0.11193	0.14014	0.087509	0.45845	0.088872	0.046393	0.23448	0.16613	-1.8625	-2.3708	-1.5229	-2.7792	-2.2375	-2.0708	-2.8833	-2.4167	-2.1146	-2.7583	-2.1083	-2.5521	-2.4083	-2.0667	-2.6646	-2.1188	96.968	166.416	-110.605	147.551	172.610	-48.552	90.301	138.921	198.410	183.292	-31.128	170.502	-34.852	-4.161	196.164	160.938	0.00084379	0.00077651	0.00026949	874.31	4.8902e-06	5.8677e-06	981.03	381.87	6.2189e-06	5.8316e-06	450.35	183.41	155.63	76.791	4.2837e-06	95.63	0.00031165	0.00022098	6.014e-05	870.51	2.3962e-06	2.3725e-06	978.9	380.84	2.5275e-06	2.4065e-06	449.99	183.85	156.75	77.025	2.5275e-06	95.938	185.215	-76.345	-63.248	-137.922	11.315	8.497	-139.308	-133.055	-46.064	9.115	-135.170	-131.207	-128.914	-123.201	-9.607	-126.353	-8191	255	
1539.638	1	1	0	0	0.18468	0.31204	0.13662	0.082176	0.15496	0.099366	0.21187	0.22088	0.071473	0.19254	0.18701	0.21928	0.38921	0.11531	0.336	0.18817	-1.4083	-2.5167	-1.6313	-2.4208	-2.1896	-1.7021	-2.5354	-2.0458	-2.0479	-2.7479	-1.9625	-2.6792	-2.5104	-2.0833	-2.6104	-2.4042	192.702	93.200	205.095	161.598	-120.256	202.239	-10.424	118.248	1.551	100.221	-106.793	-28.209	-144.009	147.138	39.555	-149.105	0.00082832	0.00053615	0.00013469	871.09	5.0555e-06	6.0676e-06	977.1	378.27	5.9404e-06	4.2361e-06	455.05	183.16	155.97	76.51	4.878e-06	95.375	0.00031223	0.00022006	6.1744e-05	867.43	2.4113e-06	2.384e-06	975.2	379.18	2.4894e-06	2.3562e-06	450.8	183.63	156.49	76.891	2.4353e-06	95.941	186.076	-72.667	-78.778	-137.882	-18.850	-11.882	-138.892	-133.111	-55.071	11.074	-135.213	-131.143	-128.830	-123.067	-27.878	-126.363	-8191	255	
1539.732	1	1	0	0	0.067492	0.046636	0.1242	0.26982	0.059705	0.066789	0.24941	0.26255	0.097583	0.12864	0.3004	0.32811	0.082239	0.20059	0.1343	0.35018	-1.5979	-2.8396	-1.9417	-2.6208	-2.7208	-1.8687	-2.9104	-2.35	-1.8563	-2.5229	-1.9271	-2.2313	-2.6146	-2.0438	-2.55	-2.4917	-67.268	199.009	151.709	-140.143	191.514	24.033	158.171	148.235	-25.693	95.515	62.669	163.873	93.025	-109.082	-108.270	135.592	0.00091299	0.00085655	0.00018493	873.55	4.0772e-06	6.3033e-06	977.26	377.94	5.7735e-06	9.9071e-06	451.99	183.09	156.35	76.725	4.5466e-06	95.612	0.00031805	0.00021735	6.0917e-05	869.32	2.3509e-06	2.451e-06	976.35	378.47	2.5072e-06	2.3479e-06	449.44	183.65	156.8	77.066	2.4328e-06	95.949	185.158	-63.782	-75.129	-137.778	-16.573	-16.623	-139.115	-133.040	-38.163	8.519	-135.419	-130.965	-128.867	-123.105	-23.960	-126.263	-8191	255	
1539.830	1	1	0	0	0.13672	0.077981	0.25337	0.30171	0.21857	0.12541	0.26791	0.039569	0.31501	0.019331	0.30289	0.038031	0.33988	0.46319	0.13969	0.11649	-1.4604	-2.9854	-2.1688	-2.3604	-2.7146	-1.9	-2.575	-2.5542	-1.8083	-2.5458	-2.2938	-2.25	-2.525	-1.9979	-2.3833	-2.6333	158.067	-108.344	-72.754	198.066	180.791	-67.292	202.750	196.013	-6.948	-17.996	192.945	58.722	146.092	139.251	-69.265	71.699	0.00086476	0.00060159	0.00014601	878.4	3.9669e-06	8.5084e-06	977.03	379.6	6.3452e-06	6.9805e-06	451.51	182.31	155.44	76.467	3.5048e-06	94.786	0.00031069	0.0002157	6.0316e-05	869.42	2.3273e-06	2.372e-06	977.62	378.99	2.4975e-06	2.3265e-06	448.36	183.17	156.48	76.833	2.4382e-06	95.405	185.424	-70.464	-60.739	-138.021	-10.794	-4.665	-139.082	-132.953	-37.096	0.174	-135.211	-131.319	-128.685	-123.233	-12.300	-126.415	-8191	255	
1539.949	1	1	0	0	0.24816	0.14915	0.14524	0.085682	0.036641	0.17811	0.081247	0.33274	0.092301	0.19685	0.16185	0.1731	0.026824	0.14476	0.1243	0.16335	-1.4688	-2.6542	-2.0083	-2.1833	-2.8167	-1.8646	-2.6521	-2.6833	-1.7854	-2.3542	-2.1417	-1.9521	-2.8104	-1.9333	-2.2667	-2.6479	173.640	104.133	143.478	-55.056	133.617	204.799	-108.743	167.122	-10.057	-42.358	55.210	198.870	125.858	-69.224	-91.169	176.613	0.00084993	0.00073682	0.0002039	872.42	5.3097e-06	3.3372e-06	975.77	378.95	5.2839e-06	5.2567e-06	450.71	182.23	155.91	76.244	5.6746e-06	95.234	0.00030959	0.00021639	6.0339e-05	867.73	2.3462e-06	2.3884e-06	973.17	378.19	2.528e-06	2.3555e-06	447.76	183	156.31	76.848	2.4835e-06	95.741	186.684	-65.057	-74.880	-137.761	-1.881	-37.544	-139.119	-133.123	-54.721	9.170	-135.061	-131.235	-128.696	-123.271	-25.083	-126.232	-8191	255	
1540.045	1	1	0	0	0.04653	0.28339	0.098375	0.23143	0.12555	0.26205	0.16463	0.27213	0.099852	0.097894	0.39789	0.11051	0.26083	0.25295	0.21504	0.33567	-1.4562	-2.5083	-2.1854	-2.0333	-2.65	-1.9854	-2.3604	-2.7	-1.5771	-2.725	-2.2354	-1.9708	-2.7708	-2.1583	-2.1771	-2.8604	-26.112	137.013	16.537	135.717	-83.082	99.797	134.915	87.376	207.245	117.688	166.802	148.636	147.230	182.543	136.794	176.343	0.00085389	0.00069816	0.00011739	870.52	3.8722e-06	5.7152e-06	979.75	377	5.7459e-06	7.7543e-06	447.29	181.95	155.29	76.08	5.5927e-06	94.772	0.00031868	0.00021469	5.8525e-05	865.7	2.3835e-06	2.3964e-06	973.87	377.43	2.5164e-06	2.3714e-06	446.65	182.48	156.03	76.465	2.5018e-06	95.279	184.380	-74.104	-41.457	-137.801	-27.668	-13.141	-139.100	-132.898	-64.758	8.157	-135.273	-131.158	-128.651	-123.449	-23.320	-126.189	-8191	255	
1540.117	1	1	0	0	0.097402	0.071471	0.21026	0.20971	0.21797	0.063076	0.15022	0.45463	0.074997	0.11108	0.25598	0.25892	0.1357	0.075178	0.18783	0.32144	-1.4188	-2.625	-2.3292	-2.0021	-2.8396	-2.2271	-2.2104	-2.8167	-1.9562	-2.4083	-2.7812	-2.0292	-2.8333	-2.4604	-1.8708	-2.9167	83.678	59.240	-78.138	126.694	-83.431	113.587	200.578	127.880	-102.894	-11.624	201.986	-61.291	137.829	192.846	-8.319	141.555	0.0008285	0.00045655	0.00024224	869.48	5.9432e-06	6.5164e-06	972.79	377.48	4.3117e-06	8.0566e-06	445.43	180.54	154.16	75.619	5.0032e-06	94.08	0.00031482	0.00022098	6.1693e-05	863.96	2.4122e-06	2.3509e-06	968.87	376.49	2.512e-06	2.4391e-06	444.76	181.47	155.01	76.022	2.5106e-06	94.572	185.610	-75.043	-65.186	-138.080	-1.823	-2.694	-139.001	-133.014	-13.415	11.853	-134.901	-130.854	-128.544	-123.109	-34.959	-126.096	-8191	255	
1540.238	1	1	0	0	0.11902	0.17035	0.13169	0.20336	0.1124	0.22857	0.28175	0.17254	0.075101	0.041492	0.15153	0.098304	0.041568	0.27388	0.15782	0.20834	-1.3937	-2.1458	-2.4083	-1.8375	-2.6271	-2.0104	-2.1146	-2.8458	-1.8771	-2.1375	-2.75	-1.9396	-2.7271	-2.3833	-2.1021	-2.9188	-64.088	-81.455	58.364	180.399	-61.072	-93.118	139.668	143.384	65.205	191.833	47.662	110.630	110.298	143.262	166.665	119.189	0.00079091	0.00065783	0.00015672	868.56	5.3364e-06	5.9154e-06	974.66	378.66	5.0966e-06	4.6139e-06	448.07	182.2	154.74	75.875	4.9233e-06	94.608	0.00030341	0.00021625	5.963e-05	862.53	2.3285e-06	2.3414e-06	969.53	377.17	2.4098e-06	2.3454e-06	445.67	182.34	155.6	76.397	2.4651e-06	94.978	184.421	-81.022	-51.686	-137.870	-46.268	-11.299	-139.145	-133.055	-45.304	-20.192	-135.303	-131.070	-128.618	-123.368	-28.217	-126.073	-8191	255	
1540.334	1	1	0	0	0.45691	0.30148	0.14916	0.13758	0.12153	0.080323	0.1845	0.046219	0.11653	0.043348	0.4424	0.19247	0.12685	0.18037	0.25204	0.36667	-1.4771	-2.225	-2.6354	-2.0604	-2.6333	-2.4542	-2.0479	-2.9271	-2.2604	-2	-2.7958	-1.825	-2.5354	-2.6521	-1.8521	-2.9708	43.759	-116.458	137.734	-146.582	-118.758	117.262	201.463	146.788	121.104	-131.313	171.676	95.139	-129.995	-92.690	126.850	-125.024	0.00086509	0.00051996	0.00022838	870.46	3.7212e-06	6.7291e-06	972.02	375.51	5.877e-06	5.2114e-06	446.38	179.97	154.23	75.237	3.9969e-06	93.335	0.000307	0.00021604	5.9937e-05	865.04	2.3813e-06	2.3536e-06	969.8	375.57	2.4726e-06	2.3161e-06	443.23	180.6	154.82	75.749	2.476e-06	93.957	186.682	-61.648	-47.102	-137.779	-22.676	-1.030	-139.132	-132.970	-51.668	27.230	-135.397	-130.986	-128.607	-123.134	-35.961	-126.089	-8191	255	
1540.430	1	1	0	0	0.058205	0.18164	0.14354	0.17726	0.064121	0.096592	0.12439	0.13756	0.25042	0.21431	0.21428	0.14399	0.33817	0.24066	0.17426	0.099931	-1.9062	-2.0625	-2.7167	-2.1396	-2.5125	-2.5417	-1.8583	-2.95	-2.2104	-2.1646	-3.0062	-2.0458	-2.5021	-2.8292	-2.0125	-2.9188	185.568	127.119	-135.656	63.377	189.755	-120.133	94.438	163.685	-4.505	-57.498	-144.867	152.530	174.644	186.189	-68.474	-53.473	0.00081712	0.00050545	0.0001551	865.25	4.05e-06	8.36e-06	969.7	374.11	5.5645e-06	7.3543e-06	442.7	179.45	153.56	75.016	5.5483e-06	93.221	0.00031154	0.00021861	5.9408e-05	860.67	2.4247e-06	2.3647e-06	965.84	373.4	2.4357e-06	2.4161e-06	441.87	180.15	154.14	75.455	2.5489e-06	94.03	186.400	-58.709	-82.442	-137.962	-17.086	-18.555	-139.013	-132.805	-48.886	10.446	-134.892	-131.130	-128.515	-123.038	-25.172	-126.015	-8191	255	
1540.526	1	1	0	0	0.14896	0.033827	0.19912	0.0050288	0.074301	0.17723	0.17424	0.30862	0.11077	0.16627	0.024471	0.20565	0.10457	0.36166	0.21399	0.042279	-1.8188	-1.8667	-2.8187	-1.9979	-2.3458	-2.4146	-1.8188	-2.6771	-2.1333	-1.8271	-2.6854	-2.2542	-2.325	-2.7542	-1.6229	-2.6354	48.176	185.211	193.863	-6.258	18.889	38.790	92.032	90.911	134.847	1.384	174.511	131.711	190.075	197.858	-140.974	-117.582	0.00079478	0.00059735	0.00016628	867.21	4.5117e-06	7.2987e-06	970.79	375.87	5.0376e-06	5.6161e-06	445.76	180.73	154.83	76.002	5.7492e-06	94.556	0.00030259	0.0002202	5.8671e-05	861.16	2.3605e-06	2.3503e-06	966.8	375.17	2.3761e-06	2.3011e-06	443.73	181.37	155.35	76.391	2.4127e-06	95.135	186.500	-66.678	-67.440	-137.860	-28.712	21.214	-138.871	-132.788	-36.990	11.717	-135.225	-131.226	-128.564	-123.237	-24.759	-126.250	-8191	255	
1540.645	1	1	0	0	0.20404	0.38827	0.060358	0.11171	0.22738	0.14416	0.25424	0.34224	0.24784	0.12953	0.039333	0.25242	0.068208	0.26644	0.091357	0.27563	-1.9146	-1.9396	-2.6521	-2.0583	-2.1188	-2.85	-1.8979	-2.4771	-2.3312	-1.7417	-2.8875	-2.325	-2.1792	-2.8604	-1.6542	-2.625	51.960	-131.563	-62.460	62.588	-29.870	-1.446	-115.665	177.428	5.021	-89.783	-23.254	95.678	198.931	191.579	134.258	153.751	0.00082292	0.00061419	0.00014159	868.13	3.6038e-06	6.2425e-06	974.3	374.84	5.0919e-06	7.922e-06	446.27	180.84	155.02	76.166	6.44e-06	94.754	0.00030642	0.00021335	5.8403e-05	861.83	2.3188e-06	2.3081e-06	968.71	376.06	2.3853e-06	2.2949e-06	444.07	181.83	155.66	76.525	2.4527e-06	95.115	183.603	-68.788	-49.351	-138.050	-2.937	-12.238	-139.112	-132.748	-62.223	9.183	-134.836	-131.206	-128.548	-123.076	-25.428	-126.211	-8191	255	
1540.741	1	1	0	0	0.1032	0.19873	0.16278	0.37707	0.26403	0.047085	0.32313	0.22748	0.20246	0.16833	0.070929	0.25153	0.082509	0.032566	0.093613	0.31669	-1.9875	-1.7812	-2.6208	-2.3625	-2.0312	-2.6813	-2.0062	-2.4396	-2.4146	-1.7875	-2.7	-2.5167	-2.1958	-2.8896	-2.0625	-2.1979	-121.835	192.461	13.433	155.774	-125.749	-119.054	-147.852	129.496	-48.277	82.905	177.417	187.850	177.784	-74.808	138.371	-128.868	0.00078683	0.00050388	0.00018703	866.65	4.8942e-06	5.0326e-06	971.1	372.66	7.2267e-06	9.0137e-06	441.21	178.66	153.06	74.723	4.7924e-06	92.778	0.00030331	0.00021601	5.8546e-05	861.4	2.437e-06	2.3087e-06	965.68	372.53	2.452e-06	2.4053e-06	439.52	178.94	153.5	75.225	2.5028e-06	93.438	184.510	-61.723	-50.377	-138.130	3.774	-18.643	-139.088	-132.815	-43.083	20.065	-135.017	-131.167	-128.537	-123.081	-5.850	-126.188	-8191	255	
1540.813	1	1	0	0	0.094103	0.11779	0.34827	0.22393	0.21949	0.22494	0.20376	0.43991	0.090255	0.12457	0.35927	0.076745	0.34493	0.27979	0.045115	0.1219	-2.1271	-1.7458	-2.2875	-2.2667	-1.8146	-2.6771	-2.1292	-2.3688	-2.575	-1.9625	-2.6792	-2.5812	-1.8125	-2.7854	-2.0479	-2.2	96.396	-100.586	-73.732	137.481	31.256	-117.197	115.896	174.133	203.043	55.145	163.483	76.307	190.366	159.924	-120.083	-55.286	0.00081979	0.00073706	0.00023656	862.37	4.6807e-06	6.5841e-06	966.87	371.29	5.5861e-06	7.3357e-06	441.16	178.36	152.61	74.666	5.6869e-06	92.738	0.0003104	0.00022384	5.9607e-05	857.58	2.3952e-06	2.3235e-06	961.79	370.71	2.4315e-06	2.3904e-06	438.81	178.81	153.09	75.075	2.4425e-06	93.22	187.409	-66.239	-67.232	-138.012	-29.482	-27.914	-138.939	-132.835	-49.612	1.292	-134.974	-131.238	-128.555	-123.150	-2.553	-126.058	-8191	255	
1540.911	1	1	0	0	0.11934	0.2731	0.15624	0.49349	0.14688	0.07629	0.43706	0.14564	0.17448	0.21714	0.19592	0.3832	0.256	0.46605	0.10054	0.10855	-2.3354	-1.6562	-2.2833	-2.325	-1.7271	-2.6188	-2.2354	-2.2417	-2.6146	-2.0604	-2.5896	-2.6312	-2.1937	-2.8563	-2.3521	-2.1729	-42.656	195.897	91.023	156.364	-78.722	-69.307	170.180	203.208	-121.493	165.930	-139.848	175.964	121.865	165.815	155.380	166.570	0.00083047	0.00056533	0.00020309	863.36	4.1471e-06	5.4881e-06	962.77	372.13	8.2792e-06	5.2227e-06	442.44	179.69	153.5	75.426	5.8352e-06	93.942	0.0003037	0.00021537	6.0489e-05	857.55	2.3816e-06	2.232e-06	960.65	371.84	2.4254e-06	2.3241e-06	440.2	180.39	154.58	75.868	2.3887e-06	94.489	183.955	-79.338	-54.520	-137.889	-18.057	9.298	-138.903	-132.666	-44.673	1.162	-134.983	-131.161	-128.569	-123.109	-32.150	-126.176	-8191	255	
1541.030	1	1	0	0	0.041586	0.12565	0.25281	0.33306	0.11107	0.17258	0.35203	0.13361	0.0087994	0.4209	0.22867	0.26759	0.33264	0.22486	0.25111	0.2508	-2.3042	-1.9875	-2.4	-2.6167	-1.8	-2.5583	-2.2812	-1.9208	-2.625	-1.8229	-2.2271	-2.7958	-2.0958	-3.0563	-2.2979	-1.9646	-89.191	207.704	-1.574	-87.769	24.444	89.788	133.970	121.478	105.250	146.996	58.743	-131.455	184.542	-132.517	54.941	182.410	0.00081112	0.00039566	0.00018276	866.46	3.781e-06	6.6632e-06	964.91	372	5.9225e-06	7.3228e-06	442.52	179.31	153.48	74.628	4.1752e-06	93.698	0.00030451	0.00020858	5.731e-05	858.68	2.3719e-06	2.2681e-06	962.69	372.34	2.4279e-06	2.3112e-06	440.26	179.77	154.11	75.323	2.3692e-06	93.92	185.029	-70.172	-60.540	-137.955	-13.637	-3.280	-139.075	-132.636	-42.769	15.751	-134.936	-131.220	-128.356	-122.974	-4.994	-126.113	-8191	255	
1541.126	1	1	0	0	0.18568	0.077259	0.14796	0.17185	0.26193	0.0923	0.23285	0.23485	0.10626	0.20579	0.040083	0.22534	0.20115	0.30139	0.18106	0.31508	-2.3771	-2.1396	-2.0854	-2.5958	-1.9146	-2.6375	-2.5875	-1.9896	-2.7521	-2.1396	-2.4062	-2.9833	-2.0146	-2.5375	-2.3812	-1.9188	105.090	-150.217	152.208	186.113	-14.943	197.462	196.212	128.968	4.788	59.202	51.422	127.785	-145.192	208.791	202.626	-79.680	0.0008367	0.00069101	0.00022023	860.97	5.2713e-06	8.6529e-06	964.92	370.19	5.5066e-06	8.1311e-06	439.99	178.21	152.32	74.493	5.8603e-06	92.917	0.00030663	0.00021065	5.8967e-05	856.08	2.3839e-06	2.2486e-06	960.31	370.68	2.3645e-06	2.3393e-06	438.36	179.09	153.32	75.11	2.3863e-06	93.479	187.829	-80.595	-70.971	-137.709	-17.753	3.806	-138.930	-132.793	-32.350	8.877	-134.934	-131.247	-128.756	-122.865	-2.856	-126.227	-8191	255	
1541.222	1	1	0	0	0.025299	0.20789	0.1714	0.25742	0.21618	0.18883	0.17978	0.20863	0.16436	0.16431	0.37049	0.17463	0.14022	0.12118	0.26377	0.52918	-2.1063	-2.0812	-1.9188	-2.6437	-1.8771	-2.3333	-2.7562	-2.0125	-2.5771	-2.2729	-2.1458	-2.7875	-2.0333	-2.2479	-2.5979	-1.8188	-47.092	120.187	-60.637	-75.515	-115.445	180.703	85.015	-104.036	177.781	44.143	127.451	140.646	-101.529	205.569	-16.327	198.745	0.00082608	0.00044768	0.00020531	860.15	4.1404e-06	8.0678e-06	965.66	372.37	6.2735e-06	6.3647e-06	444.06	180.24	152.95	75.135	6.4167e-06	93.945	0.00030338	0.00020827	5.8837e-05	855.17	2.2987e-06	2.2911e-06	961.11	371.6	2.3697e-06	2.328e-06	440.34	180.22	153.88	75.582	2.3941e-06	94.216	183.236	-70.122	-59.228	-137.720	-5.052	-14.674	-139.224	-132.831	-45.809	-2.632	-134.861	-131.009	-128.711	-123.101	-11.669	-125.929	-8191	255	
1541.342	1	1	0	0	0.304	0.22702	0.18189	0.2276	0.047988	0.053193	0.13904	0.16343	0.11087	0.046488	0.20632	0.34024	0.33634	0.029003	0.16042	0.1444	-2.2562	-1.9917	-1.7854	-2.7708	-1.9542	-2.0062	-2.6437	-1.8979	-2.3333	-2.4396	-1.8312	-2.8688	-1.8917	-2.0917	-2.5354	-2.1729	-70.284	-51.745	-148.722	153.876	-16.240	-27.059	62.362	-141.205	25.069	-66.311	166.425	152.030	190.343	-112.040	27.393	195.953	0.00083429	0.00080559	0.00019617	861.34	4.9204e-06	6.4036e-06	965.43	371.84	4.6868e-06	8.023e-06	443.27	179.25	152.98	75.101	5.7089e-06	93.325	0.00030608	0.000211	5.8634e-05	857.08	2.2924e-06	2.2933e-06	962.87	371.85	2.3481e-06	2.2573e-06	439.72	180.11	153.92	75.554	2.385e-06	94.026	184.720	-67.688	-65.897	-137.680	4.642	-23.867	-138.856	-133.032	-20.199	25.723	-135.129	-131.172	-129.019	-122.988	-32.468	-126.126	-8191	255	
1541.414	1	1	0	0	0.41241	0.41959	0.31459	0.062945	0.086625	0.219	0.3031	0.31639	0.056047	0.11343	0.22232	0.14762	0.27689	0.24894	0.098416	0.28491	-1.8958	-2.4229	-1.6542	-2.6708	-2.2354	-2.0563	-2.9333	-1.9833	-2.3208	-2.5792	-2.1021	-2.9625	-2.2979	-2.0771	-2.7521	-1.9375	205.431	54.403	-52.927	-94.360	92.461	-100.924	-134.491	128.676	199.727	-19.263	166.938	-84.962	111.075	123.850	91.272	189.130	0.00080953	0.00058345	0.000143	863.78	2.9854e-06	3.7547e-06	960.13	370.05	5.7683e-06	8.3121e-06	438.19	179.18	151.69	74.475	5.7153e-06	92.741	0.00029878	0.00020479	5.9572e-05	856.27	2.2837e-06	2.3194e-06	959.44	370.3	2.3739e-06	2.3004e-06	437.15	179.18	152.87	74.912	2.3587e-06	93.153	185.211	-63.959	-54.644	-137.893	7.728	-9.125	-139.046	-132.827	-52.344	14.523	-134.913	-131.036	-128.768	-122.953	-12.366	-126.317	-8191	255	
1541.510	1	1	0	0	0.20614	0.069896	0.12837	0.16252	0.3337	0.32087	0.28582	0.24477	0.082884	0.32385	0.03972	0.085741	0.50454	0.15077	0.058291	0.41475	-1.9646	-2.3583	-1.6562	-2.6188	-2.2771	-2.0208	-2.9938	-2.0938	-2.3958	-2.7083	-1.6667	-2.5146	-2.375	-1.8958	-2.5771	-2.1188	119.714	-22.069	186.904	100.363	12.704	-110.318	-135.579	135.235	195.329	93.281	-22.624	200.622	-133.889	-85.962	180.602	203.188	0.00081115	0.00065131	0.0002044	860.63	4.488e-06	5.5741e-06	964.61	369.74	5.5001e-06	6.0816e-06	438.81	178.27	151.3	74.136	5.716e-06	92.524	0.00029612	0.0002113	5.9817e-05	854.52	2.3306e-06	2.2842e-06	958.33	369.82	2.4285e-06	2.2565e-06	437.45	178.88	152.58	74.717	2.3878e-06	93.106	183.863	-94.194	-60.298	-137.677	-8.901	-8.681	-139.039	-132.854	-40.242	4.648	-135.129	-130.802	-128.324	-122.933	-8.478	-125.957	-8191	255	
1541.631	1	1	0	0	0.036168	0.089669	0.13757	0.28256	0.13972	0.15237	0.080415	0.11631	0.38779	0.032432	0.067596	0.26645	0.23669	0.082021	0.073019	0.2146	-1.6688	-2.7604	-1.8542	-2.8521	-2.4208	-1.8875	-2.8729	-2.2646	-2.1146	-2.7229	-1.9188	-2.6063	-2.4208	-1.9833	-2.6854	-2.325	-126.163	-91.490	-49.255	68.514	13.789	-147.070	163.402	-121.288	-67.239	94.624	-136.778	148.658	-142.774	-60.613	-86.515	173.643	0.0008385	0.00058853	0.00021402	856.85	5.074e-06	4.8582e-06	959.95	368.11	4.5434e-06	8.1137e-06	440.11	177.25	151.42	73.717	2.6091e-06	92.171	0.00030815	0.00021344	5.9352e-05	852.43	2.3005e-06	2.3066e-06	957.76	368.31	2.4396e-06	2.3355e-06	436.77	177.97	151.86	74.207	2.459e-06	92.638	186.786	-93.407	-48.762	-137.628	-45.397	-11.579	-138.784	-132.859	-52.962	12.518	-134.764	-131.009	-128.736	-122.949	12.066	-125.970	-8191	255	
1541.725	1	1	0	0	0.16721	0.13291	0.28966	0.24444	0.087703	0.23707	0.21564	0.27807	0.21373	0.061426	0.17106	0.2652	0.17008	0.12168	0.11739	0.19432	-1.6688	-2.7229	-1.9042	-2.6063	-2.5396	-1.725	-3	-2.5292	-1.825	-2.8583	-1.9375	-2.4833	-2.6271	-2.1458	-2.6771	-2.4833	194.685	83.697	-147.056	132.784	-144.491	117.776	131.765	-102.356	-12.007	-133.637	153.970	-133.144	-127.431	45.967	89.801	-129.058	0.00084077	0.00062674	0.00010097	859	5.3153e-06	6.1797e-06	959.06	369.01	4.5462e-06	6.966e-06	438.44	177.99	151.21	73.792	4.6076e-06	92.457	0.00030628	0.00021192	5.9484e-05	851.58	2.3218e-06	2.3808e-06	955.9	368.15	2.4325e-06	2.2999e-06	436.91	178.36	151.99	74.247	2.4985e-06	92.717	187.043	-69.250	-45.006	-137.753	-13.509	-18.659	-139.150	-132.878	-45.577	-11.281	-134.752	-131.083	-128.529	-123.117	-27.211	-126.136	-8191	255	
1541.821	1	1	0	0	0.18311	0.2253	0.20342	0.13184	0.096771	0.30713	0.24418	0.18209	0.32395	0.18307	0.070932	0.10619	0.40584	0.4618	0.20925	0.15564	-1.7021	-2.6667	-2.0146	-2.5458	-2.5833	-1.8	-2.6937	-2.4208	-1.8771	-2.6188	-2.1333	-2.3917	-2.6937	-1.7062	-2.3833	-2.5812	-40.972	128.364	52.289	126.547	95.279	-107.425	120.465	94.189	16.793	-52.208	119.923	204.721	171.936	169.715	87.197	156.859	0.00080479	0.00059865	0.00020699	857.73	3.045e-06	6.9775e-06	961.64	369.38	4.4373e-06	7.5579e-06	438.55	178.93	152.4	74.697	4.5738e-06	92.739	0.00030292	0.00021136	5.9854e-05	852.27	2.3643e-06	2.313e-06	957.73	369.33	2.3779e-06	2.2615e-06	437.7	179.31	152.8	74.908	2.4108e-06	93.414	183.857	-76.919	-53.067	-137.619	-1.784	-0.470	-138.873	-132.729	-38.122	3.306	-134.979	-130.993	-128.484	-122.737	-33.677	-126.008	-8191	255	
1541.942	1	1	0	0	0.18972	0.010831	0.048024	0.16863	0.093158	0.10226	0.21825	0.11305	0.10398	0.2362	0.10528	0.18069	0.060903	0.26705	0.054005	0.16699	-1.5063	-2.375	-1.8188	-2.1437	-2.6792	-1.7333	-2.4938	-2.5521	-1.9312	-2.7104	-2.1979	-2.2417	-2.8438	-2.1021	-2.2958	-2.9875	184.216	-51.195	-28.835	198.505	-36.920	-36.496	177.510	203.501	57.028	-33.390	36.027	205.318	126.535	89.289	37.669	203.944	0.00081533	0.00041104	0.00017773	858.95	2.648e-06	7.5309e-06	963.02	370.25	5.571e-06	6.7788e-06	439.4	177.58	151.27	73.726	5.7774e-06	92.293	0.00030795	0.00020872	5.8144e-05	854.27	2.2988e-06	2.3626e-06	959.94	369.18	2.3831e-06	2.3144e-06	437.1	178.22	152.27	74.233	2.43e-06	92.655	183.097	-65.767	-50.260	-137.708	7.273	6.341	-139.032	-132.889	-52.127	-0.413	-134.799	-131.049	-128.590	-123.059	-24.011	-125.955	-8191	255	
1542.014	1	1	0	0	0.20443	0.2578	0.11333	0.011763	0.20156	0.12052	0.3092	0.1653	0.25019	0.31892	0.088744	0.23608	0.23587	0.17856	0.24593	0.23747	-1.675	-2.7833	-2.2812	-2.1188	-2.8312	-1.9937	-2.425	-2.9521	-1.9292	-2.8688	-2.4625	-2.225	-2.8688	-2.1646	-2.2875	-2.7417	-64.326	142.275	-80.265	172.902	191.299	-54.234	145.061	124.784	179.588	96.634	-8.652	123.509	-137.358	152.124	-40.975	159.944	0.00082141	0.00053461	0.00012356	855.11	3.0121e-06	6.5163e-06	960.22	367.14	5.506e-06	8.8634e-06	438.64	176.65	150.35	73.206	6.2402e-06	91.485	0.00030216	0.00020797	5.834e-05	850.24	2.373e-06	2.3569e-06	957.03	367.54	2.4927e-06	2.3738e-06	435.24	176.99	151.04	73.706	2.486e-06	91.899	185.603	-67.558	-47.108	-137.799	-40.678	-6.847	-138.605	-132.655	-47.136	8.904	-134.923	-131.092	-128.668	-123.017	-9.385	-126.007	-8191	255	
1542.110	1	1	0	0	0.10669	0.1205	0.093042	0.31867	0.16225	0.07442	0.15381	0.31673	0.21858	0.24351	0.12449	0.24626	0.19101	0.4404	0.15331	0.34635	-1.35	-2.4854	-2.3729	-1.9354	-2.6521	-2.1167	-2.1875	-2.9562	-2.0125	-2.6042	-2.5458	-2.0167	-2.8563	-2.2667	-2.0812	-2.9417	17.502	118.312	-67.513	-147.788	100.861	145.322	44.915	199.437	54.142	-110.987	172.217	-108.276	166.692	158.368	-1.079	172.671	0.00079509	0.00074148	0.00021075	854.09	4.1628e-06	6.3054e-06	954.65	365.96	6.3593e-06	7.6881e-06	437.02	176.67	150.5	73.098	5.0275e-06	91.753	0.00030086	0.00021685	6.097e-05	850.15	2.3807e-06	2.4012e-06	953.05	366.25	2.5146e-06	2.386e-06	433.73	176.91	151.08	73.619	2.4232e-06	91.894	187.647	-78.282	-33.395	-137.819	-29.701	-3.449	-138.922	-132.599	-35.137	12.125	-134.964	-131.085	-128.369	-123.084	-18.889	-126.039	-8191	255	
1542.206	1	1	0	0	0.16325	0.026583	0.17598	0.21404	0.23848	0.097569	0.11496	0.11027	0.26783	0.1224	0.30091	0.32227	0.02075	0.24184	0.12822	0.4777	-1.4125	-2.3333	-2.5104	-1.9542	-2.9333	-2.2333	-2.2938	-3.0875	-1.9521	-2.3417	-2.6479	-2.1813	-2.7604	-2.3375	-2.0812	-2.9042	-21.688	-100.144	-21.060	150.737	44.070	-140.727	117.326	143.428	-92.314	-119.181	149.702	-73.850	-47.786	157.909	123.852	-133.175	0.00078847	0.00074466	0.00018635	857.36	6.2351e-06	5.7394e-06	954.51	367.04	6.4599e-06	4.1002e-06	437.36	176.62	150.08	73.103	4.2528e-06	91.644	0.00030952	0.0002208	5.8803e-05	849.54	2.4409e-06	2.3355e-06	952.51	366.84	2.5062e-06	2.3526e-06	435.83	177.48	150.92	73.503	2.4962e-06	92.119	185.788	-83.530	-66.104	-137.631	8.743	13.243	-139.071	-132.853	-45.456	5.709	-134.926	-131.069	-128.516	-122.940	-27.791	-125.937	-8191	255	
1542.325	1	1	0	0	0.20452	0.1831	0.09091	0.21564	0.078832	0.31272	0.14363	0.025547	0.094089	0.22486	0.10477	0.29479	0.17361	0.11289	0.015509	0.24434	-1.5583	-2.25	-2.8396	-1.9771	-2.7188	-2.0979	-1.9917	-2.7375	-2.1375	-2.4542	-2.7938	-1.7833	-2.6104	-2.7562	-1.8125	-2.9292	-0.734	-87.251	-27.359	149.772	73.933	-125.747	103.351	77.689	-150.781	-5.499	192.773	162.967	64.548	177.100	134.236	123.895	0.00082383	0.00052842	0.00014881	857.45	6.0077e-06	4.0823e-06	957.41	370.1	6.339e-06	7.0024e-06	441.37	177.7	151.16	73.57	2.905e-06	92.563	0.00031327	0.00021597	6.0813e-05	850.77	2.3907e-06	2.3507e-06	954.2	368.95	2.4262e-06	2.3796e-06	437.52	178.27	151.76	74.036	2.4682e-06	93.009	185.823	-55.452	-69.647	-137.587	-38.396	-15.575	-139.206	-132.916	-51.478	-18.058	-134.843	-131.359	-128.543	-123.061	-6.675	-126.036	-8191	255	
1542.421	1	1	0	0	0.30882	0.0057399	0.0977	0.073723	0.080451	0.21372	0.14434	0.16762	0.1084	0.093158	0.06558	0.4703	0.23901	0.33967	0.14788	0.31981	-1.8396	-2.3521	-2.6312	-1.8208	-2.3937	-2.5583	-1.8875	-3.0833	-1.9146	-2.0896	-2.9375	-2.0854	-2.5542	-2.8229	-1.9188	-3.0292	185.666	-89.011	-44.009	-45.036	-72.849	79.966	176.485	150.411	142.207	-92.505	-11.216	158.288	176.799	190.904	-39.350	146.319	0.00081142	0.00057286	0.00013744	856.75	5.4091e-06	6.0184e-06	959.06	369.78	5.785e-06	9.6111e-06	441.2	178.68	151.81	73.645	6.5709e-06	92.068	0.00030598	0.00021432	5.9165e-05	851.92	2.3492e-06	2.2802e-06	954.31	369.43	2.4618e-06	2.2807e-06	438.36	178.94	152.03	74.203	2.4993e-06	92.707	184.799	-71.720	-72.065	-137.800	-19.064	12.696	-139.141	-132.742	-52.218	3.078	-135.041	-130.936	-128.507	-123.158	-26.514	-125.976	-8191	255	
1542.517	1	1	0	0	0.16394	0.13482	0.27938	0.08078	0.25475	0.16475	0.14969	0.18202	0.18173	0.1052	0.20638	0.3404	0.094018	0.38014	0.31081	0.36986	-1.9688	-2.0417	-2.7708	-2.0083	-2.0333	-2.4938	-1.9979	-2.8833	-2.2875	-2.0187	-2.9396	-2.1917	-2.4146	-2.7729	-1.9271	-2.6979	77.145	168.531	168.712	-10.790	195.863	-22.207	86.179	148.535	-21.189	-37.126	-133.395	119.520	130.084	175.914	-117.046	173.116	0.00081335	0.00057589	0.00021166	857.03	3.6029e-06	5.0228e-06	958.67	369.66	5.5523e-06	6.7577e-06	438.81	177.89	151.25	73.958	7.4442e-06	92.077	0.00030061	0.00021223	5.8454e-05	851.59	2.3296e-06	2.2833e-06	955.54	369.63	2.4554e-06	2.3581e-06	437.72	178.28	151.89	74.094	2.4917e-06	92.526	186.501	-71.229	-69.934	-137.719	-33.344	12.368	-138.822	-132.823	-50.551	16.265	-135.037	-131.204	-128.651	-123.109	-27.507	-126.060	-8191	255	
1542.613	1	1	0	0	0.12988	0.11984	0.2195	0.32189	0.17636	0.20393	0.16852	0.19507	0.32014	0.16364	0.29776	0.13758	0.19567	0.2503	0.16341	0.16554	-1.8417	-1.6625	-2.7083	-1.8896	-2.2042	-2.8021	-2.0167	-2.8396	-2.5021	-1.9937	-2.8396	-2.3875	-2.375	-2.9417	-1.6667	-2.5542	-111.163	17.190	64.494	-130.856	6.674	-131.301	200.426	192.272	134.729	134.469	87.254	159.506	-107.679	-114.187	-96.977	179.405	0.00079212	0.00063724	0.00024913	858.73	6.9267e-06	4.8031e-06	956.19	368.33	5.4153e-06	6.9259e-06	439.68	177.08	149.97	73.152	5.7967e-06	91.713	0.00029828	0.00021231	5.9706e-05	852.97	2.2946e-06	2.3e-06	954.3	368.34	2.4602e-06	2.3383e-06	436.99	177.6	151.1	73.547	2.4664e-06	92.225	187.283	-78.164	-70.186	-137.867	-25.425	15.287	-138.782	-132.985	-66.296	-5.161	-135.060	-131.062	-128.420	-123.116	-25.814	-125.921	-8191	255	
1542.710	1	1	0	0	0.29597	0.19508	0.33381	0.21089	0.14795	0.12884	0.24411	0.35459	0.39208	0.096322	0.1483	0.24546	0.26122	0.11289	0.04203	0.20165	-2.2083	-1.9771	-2.8771	-2.1208	-2.0417	-2.6229	-2.1292	-2.5292	-2.5792	-2.1792	-2.9354	-2.2646	-1.9833	-2.8875	-1.9958	-2.8792	-8.909	141.010	-5.922	123.619	181.062	-74.425	108.588	164.901	165.626	16.786	155.191	179.086	173.076	-139.354	98.871	127.889	0.00081456	0.00052698	0.00019549	855.94	5.6633e-06	6.9048e-06	958.85	370.22	7.6998e-06	7.153e-06	438.08	177.52	151.32	73.615	4.3522e-06	91.976	0.00029444	0.00021254	5.8484e-05	849.38	2.3758e-06	2.2828e-06	953.5	369.09	2.3654e-06	2.3383e-06	436.82	177.96	151.66	73.943	2.3955e-06	92.444	186.615	-84.680	-61.477	-137.862	-9.145	-5.726	-138.883	-132.703	-49.379	-12.647	-134.806	-131.124	-128.296	-122.998	-3.176	-126.031	-8191	255	
1542.806	1	1	0	0	0.045669	0.15922	0.11346	0.34621	0.31355	0.11394	0.21101	0.40112	0.11356	0.19505	0.065996	0.1797	0.14329	0.11443	0.098982	0.25006	-2.3333	-1.9271	-2.6729	-2.3854	-1.9229	-2.8646	-2.1021	-2.3167	-2.6854	-1.7792	-2.6521	-2.4729	-2.0833	-2.9417	-2.1917	-2.4021	-91.540	123.816	-112.055	195.061	-98.434	86.493	-91.886	196.766	-111.045	9.194	112.581	-150.339	202.089	180.118	20.888	126.174	0.00082289	0.00046827	0.00014515	857.02	4.1813e-06	5.9265e-06	954.28	369.81	6.5157e-06	9.1178e-06	436.75	177.09	151.38	73.691	6.6305e-06	91.539	0.00030549	0.00021541	5.862e-05	850.84	2.2843e-06	2.2788e-06	953.39	369	2.4429e-06	2.3014e-06	436.41	177.84	151.57	74.076	2.3604e-06	92.221	182.330	-71.403	-49.703	-137.709	-18.531	0.697	-139.098	-132.756	-21.077	17.512	-134.821	-131.210	-128.550	-123.112	-19.924	-126.036	-8191	255	
1542.902	1	1	0	0	0.24318	0.10275	0.18059	0.044982	0.31578	0.1462	0.10389	0.093108	0.18146	0.30415	0.17542	0.51098	0.042423	0.13629	0.069795	0.26678	-2.4604	-1.7667	-2.6042	-2.85	-1.6042	-2.5292	-2.1229	-2.3083	-2.9167	-1.9521	-2.5104	-2.3604	-1.8875	-2.9313	-2.1229	-2.0458	186.274	58.515	121.766	-112.891	-35.904	-138.361	160.152	-143.358	52.699	24.473	154.765	147.659	204.122	209.281	105.253	155.735	0.00078921	0.0005912	0.00017361	856.95	6.4064e-06	6.3475e-06	954.55	367.99	6.2947e-06	4.6939e-06	438.13	176.34	149.48	72.903	4.2617e-06	91.248	0.00029712	0.00021189	5.8694e-05	850.9	2.4169e-06	2.3034e-06	953.55	367.54	2.3898e-06	2.319e-06	435.2	176.9	150.39	73.32	2.4072e-06	91.529	185.461	-67.943	-48.004	-137.643	-7.164	-1.916	-139.153	-132.707	-25.582	-9.075	-134.861	-131.076	-128.641	-123.074	-37.786	-126.293	-8191	255	
1543.022	1	1	0	0	0.16194	0.079794	0.16297	0.20985	0.15021	0.10336	0.39003	0.25151	0.26656	0.13314	0.15214	0.26363	0.31493	0.15952	0.1246	0.37179	-2.2854	-1.7771	-2.2604	-2.7938	-1.7083	-2.7458	-2.6479	-2.175	-2.8	-2.0792	-2.3312	-2.7333	-2.0583	-2.9521	-2.4167	-2.4229	46.323	159.281	-23.393	174.042	19.146	94.825	124.498	-114.175	205.442	-75.192	-97.615	129.504	193.070	174.481	-70.981	204.954	0.0007995	0.00051059	0.00023338	856.13	4.267e-06	5.464e-06	953.07	366.3	5.2829e-06	6.8784e-06	439.27	176.93	150.21	73.542	3.9888e-06	91.887	0.00030103	0.00021984	6.0441e-05	849.91	2.3702e-06	2.3006e-06	950.9	367.06	2.3888e-06	2.3622e-06	436.7	177.64	151.06	73.779	2.4468e-06	92.363	183.456	-86.864	-65.333	-137.843	-27.568	4.551	-139.200	-132.787	-40.233	-4.686	-134.917	-131.075	-128.563	-123.067	-57.154	-125.885	-8191	255	
1543.117	1	1	0	0	0.1312	0.063098	0.23705	0.48423	0.13958	0.16339	0.26529	0.28169	0.27109	0.19289	0.16103	0.039591	0.17329	0.10276	0.18714	0.078308	-2.3646	-1.8542	-1.9937	-2.9021	-1.7812	-2.7542	-2.3896	-1.8375	-2.6667	-2.2521	-2.3646	-2.5896	-1.8	-2.725	-2.6604	-2.2	89.412	90.023	192.603	207.271	70.257	114.378	58.402	-127.384	191.960	37.679	2.474	11.395	187.013	-6.492	77.494	57.067	0.00081875	0.00058625	0.00018761	856.58	6.7771e-06	5.9786e-06	958.39	368.86	5.3178e-06	7.0594e-06	442.11	178.75	151.59	73.899	5.8573e-06	92.168	0.0003043	0.00021266	5.9251e-05	849.83	2.3757e-06	2.2397e-06	953.1	368.93	2.4018e-06	2.2903e-06	438.42	178.85	152.29	74.354	2.3671e-06	92.858	186.997	-77.553	-62.982	-138.057	-2.993	-5.780	-139.122	-132.838	-23.180	1.214	-134.795	-131.170	-128.710	-123.191	-23.510	-126.079	-8191	255	
#DATA ENDS
