BOXY.EXE: ISS Imagent and Oximeter Data Acquisition Program Version 0.80
Ascii Record File

#ACQ INFORMATION
2  Detector Channels 
16  External MUX Channels 
1  Auxiliary Channels 
5000  Waveform (CCF) Frequency (Hz)
1  Waveforms Skipped 
30  Waveforms Averaged 
1  Cycles Averaged 
16  Acquisitions per Waveform 
10.0806  Updata Rate (Hz) 

#FILE INFORMATION
TRUE -- External MUX Channel results are PARSED.
FALSE -- AC DC and Phase are NOT grouped.
TRUE -- Companion Program Settings File CREATED.
FALSE -- AC data not excluded
FALSE -- DC data not excluded
FALSE -- Phase data not excluded
FALSE -- Auxillary Chn. data not excluded
Tab delimiters

#CALIBRATION STATE
TRUE -- Waveform Calibration Values APPLIED.


#AUX CALIBRATION VALUES
Val Type	aux-1	

Term	1.0000e+00	
Factor	0.0000e+00	


#WF CALIBRATION VALUES
A = Detector Channel
Val Type	A-AC1	A-AC2	A-AC3	A-AC4	A-AC5	A-AC6	A-AC7	A-AC8	A-AC9	A-AC10	A-AC11	A-AC12	A-AC13	A-AC14	A-AC15	A-AC16	A-DC1	A-DC2	A-DC3	A-DC4	A-DC5	A-DC6	A-DC7	A-DC8	A-DC9	A-DC10	A-DC11	A-DC12	A-DC13	A-DC14	A-DC15	A-DC16	A-Ph1	A-Ph2	A-Ph3	A-Ph4	A-Ph5	A-Ph6	A-Ph7	A-Ph8	A-Ph9	A-Ph10	A-Ph11	A-Ph12	A-Ph13	A-Ph14	A-Ph15	A-Ph16	

Term	0.00000e+00	0.00000e+00	0.00000e+00	0.00000e+00	0.00000e+00	0.00000e+00	0.00000e+00	0.00000e+00	0.00000e+00	0.00000e+00	0.00000e+00	0.00000e+00	0.00000e+00	0.00000e+00	0.00000e+00	0.00000e+00	0.00000e+00	0.00000e+00	0.00000e+00	0.00000e+00	0.00000e+00	0.00000e+00	0.00000e+00	0.00000e+00	0.00000e+00	0.00000e+00	0.00000e+00	0.00000e+00	0.00000e+00	0.00000e+00	0.00000e+00	0.00000e+00	0.00000e+00	0.00000e+00	0.00000e+00	0.00000e+00	0.00000e+00	0.00000e+00	0.00000e+00	0.00000e+00	0.00000e+00	0.00000e+00	0.00000e+00	0.00000e+00	0.00000e+00	0.00000e+00	0.00000e+00	0.00000e+00	
Factor	1.00000e+00	1.00000e+00	1.00000e+00	1.00000e+00	1.00000e+00	1.00000e+00	1.00000e+00	1.00000e+00	1.00000e+00	1.00000e+00	1.00000e+00	1.00000e+00	1.00000e+00	1.00000e+00	1.00000e+00	1.00000e+00	1.00000e+00	1.00000e+00	1.00000e+00	1.00000e+00	1.00000e+00	1.00000e+00	1.00000e+00	1.00000e+00	1.00000e+00	1.00000e+00	1.00000e+00	1.00000e+00	1.00000e+00	1.00000e+00	1.00000e+00	1.00000e+00	X	X	X	X	X	X	X	X	X	X	X	X	X	X	X	X	

B = Detector Channel
Val Type	B-AC1	B-AC2	B-AC3	B-AC4	B-AC5	B-AC6	B-AC7	B-AC8	B-AC9	B-AC10	B-AC11	B-AC12	B-AC13	B-AC14	B-AC15	B-AC16	B-DC1	B-DC2	B-DC3	B-DC4	B-DC5	B-DC6	B-DC7	B-DC8	B-DC9	B-DC10	B-DC11	B-DC12	B-DC13	B-DC14	B-DC15	B-DC16	B-Ph1	B-Ph2	B-Ph3	B-Ph4	B-Ph5	B-Ph6	B-Ph7	B-Ph8	B-Ph9	B-Ph10	B-Ph11	B-Ph12	B-Ph13	B-Ph14	B-Ph15	B-Ph16	

Term	0.00000e+00	0.00000e+00	0.00000e+00	0.00000e+00	0.00000e+00	0.00000e+00	0.00000e+00	0.00000e+00	0.00000e+00	0.00000e+00	0.00000e+00	0.00000e+00	0.00000e+00	0.00000e+00	0.00000e+00	0.00000e+00	0.00000e+00	0.00000e+00	0.00000e+00	0.00000e+00	0.00000e+00	0.00000e+00	0.00000e+00	0.00000e+00	0.00000e+00	0.00000e+00	0.00000e+00	0.00000e+00	0.00000e+00	0.00000e+00	0.00000e+00	0.00000e+00	-1.29269e+02	-1.13631e+02	-1.35870e+02	-1.84844e+02	-7.69806e+01	-6.34246e+01	-1.60653e+02	-1.62015e+02	-8.22226e+01	-6.09229e+01	-1.72187e+02	-1.71626e+02	-1.83109e+02	-1.76791e+02	-6.82363e+01	-1.50157e+02	
Factor	1.61315e-05	1.31639e-04	3.54998e-05	4.91269e-01	1.07434e-06	1.37095e-06	1.84658e-01	4.54119e-02	1.02773e-06	1.19378e-06	8.37172e-02	3.01029e-02	3.50082e-02	8.20948e-03	1.09933e-06	1.21748e-02	1.13921e-06	1.19064e-06	3.31616e-07	2.32299e-01	1.30170e-08	1.30308e-08	8.60883e-02	2.28097e-02	1.29813e-08	1.30694e-08	4.01028e-02	1.44691e-02	1.71056e-02	4.09484e-03	1.30663e-08	5.83849e-03	X	X	X	X	X	X	X	X	X	X	X	X	X	X	X	X	



#DISTANCE SETTINGS
A = Detector Channel
A-1	A-2	A-3	A-4	A-5	A-6	A-7	A-8	A-9	A-10	A-11	A-12	A-13	A-14	A-15	A-16	

2.5000e+00	3.0000e+00	2.5000e+00	3.0000e+00	2.0000e+00	3.0000e+00	1.5000e+00	3.0000e+00	3.0000e+00	3.0000e+00	3.0000e+00	3.0000e+00	3.0000e+00	3.0000e+00	1.5000e+00	3.0000e+00	

B = Detector Channel
B-1	B-2	B-3	B-4	B-5	B-6	B-7	B-8	B-9	B-10	B-11	B-12	B-13	B-14	B-15	B-16	

1.0000e+01	1.0000e+01	1.0000e+01	1.4400e+00	1.0000e+01	1.0000e+01	1.5100e+00	1.9400e+00	1.0000e+01	1.0000e+01	1.9900e+00	2.4900e+00	2.4100e+00	2.9000e+00	1.0000e+01	2.9800e+00	




#DATA BEGINS
time	group	step	mark	flag	A-AC1	A-AC2	A-AC3	A-AC4	A-AC5	A-AC6	A-AC7	A-AC8	A-AC9	A-AC10	A-AC11	A-AC12	A-AC13	A-AC14	A-AC15	A-AC16	A-DC1	A-DC2	A-DC3	A-DC4	A-DC5	A-DC6	A-DC7	A-DC8	A-DC9	A-DC10	A-DC11	A-DC12	A-DC13	A-DC14	A-DC15	A-DC16	A-Ph1	A-Ph2	A-Ph3	A-Ph4	A-Ph5	A-Ph6	A-Ph7	A-Ph8	A-Ph9	A-Ph10	A-Ph11	A-Ph12	A-Ph13	A-Ph14	A-Ph15	A-Ph16	B-AC1	B-AC2	B-AC3	B-AC4	B-AC5	B-AC6	B-AC7	B-AC8	B-AC9	B-AC10	B-AC11	B-AC12	B-AC13	B-AC14	B-AC15	B-AC16	B-DC1	B-DC2	B-DC3	B-DC4	B-DC5	B-DC6	B-DC7	B-DC8	B-DC9	B-DC10	B-DC11	B-DC12	B-DC13	B-DC14	B-DC15	B-DC16	B-Ph1	B-Ph2	B-Ph3	B-Ph4	B-Ph5	B-Ph6	B-Ph7	B-Ph8	B-Ph9	B-Ph10	B-Ph11	B-Ph12	B-Ph13	B-Ph14	B-Ph15	B-Ph16	aux-1	digaux	

1062.184	1	1	0	256	0.03421	0.24363	0.12124	0.19225	0.21942	0.079473	0.07422	0.11063	0.25808	0.18222	0.35928	0.090704	0.24961	0.13124	0.13352	0.10533	-2.2729	-2.7792	-2.6625	-2.5375	-2.5167	-2.6125	-2.8125	-2.6396	-2.4917	-3.0125	-2.4833	-2.725	-2.6271	-2.5687	-2.8729	-2.7771	-72.159	-118.098	-66.262	-75.741	-51.044	-26.028	205.069	128.486	76.068	162.925	169.087	-103.251	202.542	196.675	154.561	96.382	0.00027583	0.00027467	0.00011895	330.31	1.2362e-06	4.4597e-06	452.7	93.665	1.8744e-06	1.2697e-06	162.3	73.754	39.895	17.612	2.3086e-06	34.628	0.00020561	0.00019826	5.5316e-05	349.36	2.1507e-06	2.1617e-06	464.31	97.078	2.1629e-06	2.1682e-06	167.03	75.189	41.59	18.233	2.2094e-06	35.491	191.235	43.583	-95.833	-141.807	-3.446	-15.610	-142.113	-136.894	49.008	44.727	-138.480	-135.409	-133.402	-128.801	-7.552	-131.281	-8191	255	
1062.305	1	1	0	0	0.077159	0.20986	0.17816	0.18905	0.21379	0.20919	0.17562	0.14802	0.011099	0.21568	0.19553	0.10642	0.13028	0.088069	0.12377	0.046162	-2.3063	-2.7562	-2.6813	-2.6708	-2.8	-2.5167	-2.7646	-2.6958	-2.6604	-2.725	-2.3833	-2.6937	-2.6625	-2.525	-2.6375	-2.6437	115.962	-11.078	18.419	119.766	-12.560	153.246	-103.290	119.532	135.005	-4.959	185.634	-132.208	-142.367	129.183	-86.932	-145.897	0.00027138	0.00033102	5.7145e-05	333.69	1.746e-06	3.3118e-06	451.7	92.899	1.0215e-06	2.0426e-06	162.59	73.797	39.607	17.702	2.992e-06	35.051	0.0002068	0.00020173	5.5502e-05	350.48	2.1866e-06	2.2165e-06	464.89	96.681	2.1935e-06	2.1896e-06	167.22	75.408	41.641	18.274	2.1934e-06	35.608	197.101	-18.268	-78.210	-141.242	-63.004	-91.479	-142.414	-136.465	-39.088	-74.486	-138.701	-134.783	-133.111	-129.325	-12.175	-131.455	-8191	255	
1062.401	1	1	0	0	0.23936	0.13792	0.031051	0.19564	0.090814	0.13166	0.34066	0.04924	0.173	0.061152	0.030483	0.15948	0.026116	0.25932	0.050649	0.24425	-2.2	-2.7812	-2.4625	-2.6458	-2.775	-2.5604	-3.0396	-2.7604	-2.6604	-2.7792	-2.6729	-2.6125	-2.9229	-2.5896	-2.7896	-2.7271	83.347	-123.169	135.901	-67.370	-97.644	-35.420	177.346	52.505	-66.041	46.794	-90.690	201.803	-84.272	98.696	84.158	127.742	0.00023846	0.00049687	2.0512e-05	335.23	2.6245e-06	3.1813e-06	452.58	92.998	2.3964e-06	3.234e-06	163.13	73.605	39.686	17.713	2.4383e-06	35.172	0.00020552	0.00020056	5.5273e-05	350.73	2.1757e-06	2.175e-06	465.87	96.461	2.1823e-06	2.1828e-06	167.37	75.414	41.513	18.318	2.1752e-06	35.827	199.671	-53.588	130.475	-141.152	-3.256	-62.482	-142.035	-136.813	-103.949	-39.446	-138.651	-135.175	-133.137	-129.255	15.866	-131.298	-8191	255	
1062.472	1	1	0	0	0.31768	0.15289	0.17826	0.14955	0.15249	0.36897	0.28232	0.21864	0.17376	0.32331	0.11384	0.17351	0.055008	0.16891	0.14246	0.17852	-1.8771	-2.8688	-2.5979	-2.7062	-2.9	-2.4958	-2.8375	-2.7583	-2.4625	-2.8563	-2.6562	-2.6042	-2.9583	-2.5625	-2.5812	-2.8125	-38.187	185.096	69.849	201.847	-131.046	107.892	151.942	91.291	66.965	7.881	-145.402	130.873	-63.653	-16.657	123.523	83.225	0.00031178	5.1818e-05	6.4386e-05	330.11	1.3522e-06	3.0613e-06	453.92	93.178	9.0273e-07	2.183e-06	163.54	73.459	39.981	17.97	1.6689e-06	35.328	0.00020763	0.00020047	5.5022e-05	351.33	2.1862e-06	2.1803e-06	467.65	97.09	2.2008e-06	2.1848e-06	168.07	75.724	41.809	18.416	2.1928e-06	35.936	195.629	-118.106	-1.199	-140.974	-28.584	58.252	-141.951	-136.882	72.678	-11.015	-138.405	-135.168	-133.290	-128.961	173.409	-131.376	-8191	255	
1062.593	1	1	0	0	0.21606	0.088954	0.26447	0.075901	0.35529	0.19962	0.15613	0.13518	0.37082	0.10912	0.19676	0.25577	0.14143	0.077385	0.13991	0.089594	-2.0854	-2.6167	-2.6312	-2.6063	-2.8167	-2.4104	-2.6	-2.9437	-2.3771	-2.9583	-2.7208	-2.5479	-2.9271	-2.5333	-2.9042	-2.9333	-38.928	81.601	-60.264	-127.320	-74.227	60.274	-131.560	97.497	7.928	25.675	-117.155	141.320	87.675	-16.136	-90.850	-126.416	0.00026561	7.9448e-05	4.1419e-05	332.03	1.7652e-06	2.898e-06	453.66	93.803	2.0742e-06	1.5724e-06	163.34	73.803	40.241	17.867	2.8241e-06	35.144	0.00020483	0.00019664	5.5479e-05	351.39	2.1922e-06	2.1763e-06	466.59	97.336	2.1871e-06	2.1497e-06	167.92	75.479	41.942	18.418	2.1661e-06	35.731	191.799	-15.812	187.924	-141.392	-17.246	-55.598	-142.422	-136.711	-25.435	-4.289	-138.459	-135.072	-133.278	-129.090	26.377	-131.241	-8191	255	
1062.689	1	1	0	0	0.075276	0.25608	0.36349	0.12718	0.2509	0.11426	0.087184	0.29536	0.25947	0.049071	0.22455	0.016085	0.097099	0.18808	0.091633	0.064344	-1.9333	-2.7417	-2.45	-2.4354	-2.6896	-2.6312	-2.5021	-2.7708	-2.4708	-2.8917	-2.7521	-2.5667	-2.6396	-2.7229	-2.5729	-2.8979	173.454	52.142	-116.194	39.976	57.653	-14.304	111.213	-112.972	26.043	0.997	-92.784	-65.897	25.168	113.087	168.782	119.502	0.00028322	0.00032507	2.7711e-05	330.78	2.6822e-06	3.906e-06	455.48	93.749	1.8131e-06	5.5776e-06	164.71	74.125	40.566	18.014	1.3562e-06	35.358	0.00020784	0.00020133	5.5191e-05	353.15	2.1797e-06	2.1878e-06	468.32	97.798	2.1843e-06	2.1981e-06	168.48	75.746	42.32	18.552	2.1801e-06	35.832	201.089	-62.372	120.943	-141.400	-54.588	-2.429	-142.243	-136.701	-45.411	-8.584	-138.377	-135.038	-133.577	-129.335	-28.067	-131.475	-8191	255	
1062.784	1	1	0	0	0.062532	0.11156	0.13386	0.16028	0.16121	0.34875	0.080001	0.33376	0.26389	0.10299	0.063364	0.10787	0.082281	0.2047	0.12442	0.35753	-1.9458	-2.9458	-2.7021	-2.55	-2.8583	-2.5292	-2.775	-2.7292	-2.5312	-2.6542	-2.8021	-2.4938	-2.8875	-2.7313	-2.525	-3.0375	10.060	-28.328	127.396	171.349	-124.183	96.940	-74.189	128.453	-127.972	199.738	189.825	-25.332	102.466	-135.074	-110.752	174.166	0.00026308	0.00036831	7.6749e-05	335.42	1.5942e-06	4.0698e-06	455.07	94.637	2.293e-06	3.0813e-06	164.64	74.292	40.314	17.897	2.859e-06	35.509	0.00020737	0.00019963	5.5454e-05	354.31	2.179e-06	2.196e-06	468.32	98.331	2.1725e-06	2.1891e-06	169.23	75.975	42.154	18.549	2.2219e-06	36.004	194.477	-79.574	-89.074	-141.490	-69.205	-37.191	-142.296	-136.994	27.437	-48.163	-138.760	-135.124	-133.276	-129.025	-42.583	-131.506	-8191	255	
1062.880	1	1	0	0	0.11704	0.031595	0.2802	0.20182	0.14082	0.22552	0.17073	0.22113	0.088047	0.22719	0.12687	0.11586	0.058984	0.14739	0.13849	0.019797	-2.0208	-2.6688	-2.6729	-2.4583	-2.7521	-2.7104	-2.4938	-2.9292	-2.425	-2.6208	-2.85	-2.5563	-2.6729	-2.7354	-2.5833	-2.8854	83.306	-123.171	-148.127	-105.356	116.647	160.229	-50.776	-22.201	-77.844	-67.314	83.707	39.816	-130.614	132.668	-148.578	-130.226	0.00025759	0.00039385	3.2194e-05	336.15	3.048e-06	1.7897e-06	457.9	93.996	1.36e-06	3.4436e-06	165.58	74.286	40.437	18.034	1.9048e-06	35.423	0.00020912	0.00020195	5.5828e-05	355.95	2.1933e-06	2.1943e-06	470.56	98.167	2.1993e-06	2.2148e-06	169.4	76.265	42.368	18.603	2.2211e-06	36.077	203.474	-49.382	-50.890	-141.724	-26.191	47.757	-142.039	-136.693	-56.206	-36.390	-138.612	-135.060	-133.414	-128.931	-84.114	-131.260	-8191	255	
1063.000	1	1	0	0	0.080715	0.086071	0.096905	0.015069	0.082007	0.11655	0.084994	0.063696	0.19014	0.133	0.15217	0.11042	0.088112	0.21759	0.12937	0.17757	-2.1646	-2.6542	-2.6792	-2.5292	-2.6771	-2.5125	-2.7771	-2.6958	-2.6	-2.7396	-2.9917	-2.5375	-2.8729	-2.6208	-2.6437	-2.75	189.303	-95.583	-65.311	49.254	27.127	154.393	50.582	-49.617	-149.304	40.668	154.613	172.094	70.318	46.491	87.458	48.557	0.00028832	0.00027367	5.8469e-05	334.72	4.2376e-06	3.116e-06	453.69	94.468	2.3649e-06	2.5827e-06	164.48	73.891	40.42	18.123	1.6433e-06	35.372	0.00020677	0.00019861	5.6206e-05	353.95	2.2174e-06	2.1648e-06	469.21	98.038	2.1764e-06	2.1884e-06	168.98	75.981	42.33	18.645	2.1966e-06	35.942	194.216	53.307	-89.212	-141.384	-151.533	56.505	-142.300	-136.922	-33.467	35.199	-138.548	-134.797	-133.186	-129.064	-65.834	-131.365	-8191	255	
1063.072	1	1	0	0	0.11855	0.1008	0.26065	0.0089149	0.19678	0.069589	0.031778	0.18988	0.22899	0.027922	0.23547	0.029301	0.033367	0.13251	0.069566	0.19199	-2.1646	-2.5833	-2.8521	-2.5083	-2.6833	-2.775	-2.6292	-2.7854	-2.6292	-2.4542	-2.825	-2.7	-2.7708	-2.8146	-2.5917	-2.7167	-52.883	56.604	-88.767	154.429	-122.645	-127.838	-82.233	134.700	-20.785	-103.101	-150.718	-139.728	86.388	-86.323	167.516	-120.024	0.00024907	0.00019373	6.2993e-05	329.24	1.6904e-06	3.5861e-06	452.28	93.673	3.9217e-07	6.562e-07	165.11	74.371	40.177	17.977	2.1645e-06	35.402	0.00020517	0.00019979	5.5649e-05	351.34	2.1905e-06	2.1714e-06	467.03	97.867	2.1895e-06	2.1863e-06	168.81	76.07	42.417	18.63	2.1748e-06	36.006	191.206	22.056	6.986	-141.360	-29.742	-22.962	-142.518	-136.691	-47.332	-5.091	-138.373	-135.154	-133.518	-129.219	-32.267	-131.216	-8191	255	
1063.193	1	1	0	0	0.24674	0.18194	0.22836	0.36651	0.23915	0.098181	0.10173	0.15828	0.13285	0.25357	0.33359	0.15646	0.087475	0.22762	0.043718	0.12525	-2.2812	-2.3625	-2.8896	-2.3958	-2.725	-2.7625	-2.6125	-2.5979	-2.6521	-2.6208	-2.7979	-2.6979	-2.7542	-2.9417	-2.475	-2.8625	195.111	196.546	88.700	-150.718	152.160	-14.711	74.869	183.343	68.490	-51.351	-2.346	148.078	88.678	61.269	-90.114	-140.474	0.00026189	0.0001308	6.1781e-05	335.36	9.1395e-07	2.8359e-06	457.43	93.965	2.321e-06	2.1198e-06	164.79	74.663	40.533	18.117	2.6769e-06	35.645	0.00020381	0.00019852	5.5896e-05	352.28	2.178e-06	2.1802e-06	467.6	98.086	2.1537e-06	2.1909e-06	169.06	76.34	42.494	18.701	2.2053e-06	36.184	201.946	-9.841	-121.226	-141.020	-26.556	-6.006	-142.192	-136.300	-70.876	154.449	-138.523	-135.071	-133.446	-129.363	-5.506	-131.463	-8191	255	
1063.289	1	1	0	0	0.23085	0.060874	0.080894	0.028848	0.16837	0.093067	0.19393	0.098018	0.067154	0.063387	0.06771	0.20335	0.16441	0.35995	0.18422	0.012392	-2.3146	-2.5479	-2.6375	-2.5896	-2.7229	-2.7833	-2.5833	-2.7313	-2.7	-2.4917	-2.9896	-2.5146	-2.6021	-2.6771	-2.5271	-2.7188	191.780	122.227	-153.943	87.849	135.716	-66.252	-5.726	187.254	-12.557	-37.317	177.903	-113.276	-120.459	148.690	-10.131	-115.653	0.00032693	0.00021036	7.4602e-05	333.16	1.0144e-06	3.7298e-06	454.77	95.209	2.1127e-06	3.0696e-06	165.83	75.017	41.094	18.224	3.7811e-06	35.791	0.00020637	0.00019839	5.5444e-05	352.62	2.1877e-06	2.1849e-06	468.06	98.553	2.1733e-06	2.1571e-06	169.66	76.824	42.71	18.774	2.1958e-06	36.358	200.591	21.112	-44.337	-141.756	-114.596	2.431	-142.321	-136.702	-25.213	178.633	-138.423	-135.379	-133.569	-129.295	14.979	-131.017	-8191	255	
1063.385	1	1	0	0	0.090753	0.15009	0.096967	0.33766	0.12905	0.18486	0.3089	0.16015	0.26977	0.05526	0.017245	0.28207	0.17451	0.21957	0.36132	0.14133	-2.2542	-2.3625	-2.9188	-2.4979	-2.5958	-2.9208	-2.6833	-2.5333	-2.8229	-2.7229	-2.8125	-2.7958	-2.7208	-2.9938	-2.4562	-2.8396	135.083	114.884	68.734	97.395	148.372	188.166	80.117	-93.517	-110.498	108.699	19.905	181.085	-152.708	174.559	-27.313	-46.262	0.00030816	4.3817e-05	0.00012424	332.24	5.3625e-07	9.6809e-07	455.98	94.849	3.0132e-06	2.8945e-06	164.89	75.227	40.846	18.218	2.8085e-06	35.678	0.00020335	0.00019904	5.4827e-05	352.58	2.1814e-06	2.1604e-06	469.79	98.779	2.1608e-06	2.1615e-06	169.76	76.715	42.637	18.74	2.1638e-06	36.223	199.587	-66.908	-90.190	-141.192	134.100	16.364	-142.299	-136.397	71.884	62.322	-138.133	-135.090	-133.096	-128.835	56.309	-131.343	-8191	255	
1063.481	1	1	0	0	0.12838	0.11746	0.19256	0.12279	0.30627	0.082056	0.075836	0.085121	0.15337	0.31036	0.085907	0.17083	0.18921	0.052235	0.082463	0.3776	-2.3229	-2.5687	-2.8875	-2.7292	-2.7062	-2.9104	-2.5854	-2.5875	-2.8417	-2.3833	-2.9437	-2.7354	-2.425	-2.825	-2.6375	-2.7062	-73.932	56.436	22.414	93.801	-30.348	14.100	-138.578	-77.534	-114.309	-143.870	66.902	109.064	-110.021	-42.952	23.097	-144.756	0.0003197	0.00015239	6.3206e-05	334.51	4.2908e-06	3.3306e-07	453.07	94.746	1.6331e-06	2.6649e-06	165.3	74.404	40.71	18.197	4.0714e-06	35.776	0.0002026	0.00019595	5.478e-05	352.45	2.1426e-06	2.1748e-06	466.91	98.171	2.1649e-06	2.1563e-06	169.12	76.359	42.534	18.708	2.1643e-06	36.206	192.882	40.448	61.834	-141.663	59.221	-27.607	-142.610	-136.675	-29.500	9.491	-138.467	-135.093	-133.295	-129.389	-53.701	-131.739	-8191	255	
1063.602	1	1	0	0	0.15898	0.23142	0.051371	0.061256	0.11044	0.035842	0.38282	0.28509	0.20527	0.19782	0.098327	0.1787	0.1771	0.40131	0.13815	0.178	-2.3229	-2.4958	-2.5938	-2.8271	-2.4896	-3.175	-2.625	-2.7542	-2.8417	-2.5229	-2.8042	-2.8521	-2.5	-3.0167	-2.5687	-2.6625	14.003	94.358	-58.861	176.776	140.046	-100.434	-154.278	-120.700	-118.331	-128.750	189.741	114.610	-76.179	59.726	-50.012	124.278	0.00026523	0.00054277	6.3536e-05	330.9	8.1757e-07	2.4526e-06	455.76	94.664	3.5309e-06	3.7316e-06	165.61	74.924	40.685	18.177	2.3369e-06	35.795	0.00020095	0.00019537	5.4626e-05	351.21	2.1263e-06	2.1417e-06	467.6	98.356	2.1423e-06	2.1518e-06	169.59	76.516	42.493	18.71	2.1545e-06	36.255	199.381	-103.729	145.871	-142.177	89.399	14.521	-142.360	-136.639	-13.252	14.674	-138.175	-135.089	-133.011	-128.886	-74.327	-131.397	-8191	255	
1063.696	1	1	0	0	0.13333	0.017386	0.13646	0.022936	0.41157	0.24749	0.25326	0.23128	0.14388	0.1295	0.15666	0.071913	0.34799	0.061217	0.165	0.075827	-2.3771	-2.4958	-2.5021	-2.6521	-2.4125	-2.8646	-2.5958	-2.5354	-2.6875	-2.6979	-2.9	-2.8	-2.5938	-2.7333	-2.6604	-2.6875	-51.141	30.839	-153.237	-134.786	168.806	191.556	156.008	88.123	25.775	115.747	42.648	-145.299	97.996	160.437	-23.226	134.442	0.00030096	0.00026143	6.7037e-05	332.07	2.0156e-06	2.4203e-06	454.77	94.024	2.2227e-06	4.0614e-06	166.37	75.036	40.6	18.249	6.5474e-07	35.847	0.00020196	0.00019415	5.4254e-05	350.91	2.1345e-06	2.1311e-06	468.23	98.153	2.1237e-06	2.157e-06	169.81	76.727	42.571	18.805	2.1404e-06	36.4	204.513	4.602	-135.053	-141.864	18.510	30.299	-142.415	-136.609	-6.339	-34.439	-138.351	-134.950	-133.069	-128.904	0.473	-131.354	-8191	255	
1063.768	1	1	0	0	0.18998	0.026462	0.19271	0.38477	0.10615	0.24677	0.2122	0.13002	0.064459	0.33238	0.18829	0.24597	0.20389	0.10878	0.36825	0.22813	-2.3917	-2.55	-2.7208	-3.0042	-2.5667	-2.775	-2.9313	-2.6437	-2.9271	-2.4667	-2.6813	-2.925	-2.6167	-2.9042	-2.625	-2.7458	-40.231	-67.225	157.537	152.404	195.086	49.763	174.022	-127.055	110.248	142.134	-50.671	192.705	173.602	73.393	128.023	-78.041	0.00025131	0.00015746	8.2598e-05	333.07	1.443e-06	3.668e-06	456.26	94.499	1.1064e-06	2.0236e-06	165.86	75.103	40.839	18.27	2.5652e-06	35.836	0.0002023	0.0001968	5.5428e-05	352.12	2.1493e-06	2.1501e-06	469.75	98.587	2.1511e-06	2.1518e-06	170.46	76.854	42.715	18.785	2.176e-06	36.439	193.329	-127.080	-28.898	-141.341	-23.873	-2.702	-142.043	-136.762	21.227	-21.017	-138.406	-134.957	-133.192	-129.307	-17.552	-131.656	-8191	255	
1063.864	1	1	0	0	0.09161	0.21376	0.19285	0.23979	0.19968	0.13143	0.223	0.1909	0.14652	0.094528	0.27675	0.20399	0.16527	0.11617	0.088774	0.12192	-2.2812	-2.7167	-2.5271	-2.85	-2.4229	-2.9958	-2.7229	-2.55	-2.9083	-2.4375	-2.5771	-2.7708	-2.3854	-2.7208	-2.8063	-2.5375	57.361	116.041	123.656	-144.836	-73.744	4.334	90.418	-77.524	151.148	111.084	140.983	93.753	162.434	-127.793	6.685	174.922	0.00024596	9.3009e-05	2.8837e-05	337.36	3.5309e-06	6.0771e-06	454.71	95.008	1.8108e-06	2.3238e-06	165.13	75.061	40.685	18.127	2.4037e-06	35.604	0.00020623	0.00019657	5.4313e-05	352.73	2.1671e-06	2.1353e-06	468.6	98.553	2.1734e-06	2.1608e-06	169.53	76.61	42.554	18.72	2.1492e-06	36.196	204.123	116.928	-69.696	-141.399	-63.734	-29.081	-142.308	-136.870	16.837	-44.219	-138.543	-135.026	-133.636	-129.179	-76.127	-131.586	-8191	255	
1063.985	1	1	0	0	0.35366	0.17362	0.098925	0.19207	0.11365	0.10485	0.13232	0.24672	0.15954	0.049007	0.19077	0.12415	0.10743	0.235	0.2472	0.15159	-2.2958	-2.6292	-2.6562	-2.8854	-2.5292	-2.7062	-2.9208	-2.5167	-2.7708	-2.7104	-2.85	-2.8604	-2.7479	-2.7396	-2.7958	-2.7583	172.440	120.997	168.092	-105.939	159.730	73.761	158.899	99.753	22.551	-0.955	-26.194	-121.340	-62.186	-36.343	-2.329	185.181	0.00025962	0.00042555	5.778e-05	336.38	2.0995e-06	1.5002e-06	456.07	94.75	3.6126e-06	3.6217e-06	166.4	74.86	40.692	18.207	2.2894e-06	35.692	0.00020278	0.0001974	5.4686e-05	353.29	2.1188e-06	2.1587e-06	468.53	98.542	2.1721e-06	2.1468e-06	170.09	76.586	42.636	18.802	2.1846e-06	36.311	195.167	-150.478	-46.313	-141.692	-41.690	-0.559	-141.926	-136.647	-43.348	-84.689	-138.469	-134.938	-133.614	-129.455	-37.152	-131.322	-8191	255	
1064.081	1	1	0	0	0.1335	0.092346	0.31491	0.1194	0.12402	0.031727	0.095132	0.21418	0.0043222	0.27512	0.11714	0.38425	0.27285	0.11707	0.14468	0.10586	-2.3208	-2.5667	-2.4625	-2.8604	-2.6625	-2.8771	-2.7833	-2.4688	-2.775	-2.8375	-2.4875	-2.95	-2.4854	-2.6958	-2.9583	-2.6708	141.124	36.590	-76.449	39.050	-16.980	107.407	-54.754	147.112	-37.690	160.910	50.488	150.135	-127.037	-64.319	192.680	-144.717	0.00025073	0.00024822	8.1683e-05	334.92	1.8861e-06	3.9726e-06	458.84	94.541	2.4722e-06	2.3031e-06	166.35	75.399	40.66	18.296	3.5974e-06	35.705	0.0002074	0.00019836	5.5146e-05	353.71	2.16e-06	2.1558e-06	470.44	98.746	2.1711e-06	2.1956e-06	170.13	76.948	42.651	18.803	2.1427e-06	36.387	198.760	-15.458	201.712	-141.337	-22.216	-40.297	-142.259	-136.751	-115.795	-100.878	-138.491	-135.192	-133.312	-129.021	-56.934	-131.272	-8191	255	
1064.177	1	1	0	0	0.019199	0.082743	0.16494	0.12508	0.15508	0.089618	0.13257	0.03632	0.17367	0.22035	0.29956	0.15204	0.055035	0.28072	0.035521	0.29167	-2.575	-2.5021	-2.525	-2.5917	-2.6104	-2.5083	-3.175	-2.5917	-2.8187	-2.9792	-2.5312	-2.7833	-2.5604	-2.3521	-3.0646	-2.55	-2.705	187.569	-105.908	68.986	69.466	87.029	147.990	132.002	-16.739	94.749	133.042	120.240	-122.856	167.491	57.122	193.312	0.00026038	0.00016683	4.0405e-05	337.16	6.7413e-07	2.7721e-06	456.54	94.975	9.4505e-07	4.8552e-06	166.71	75.448	40.832	18.318	1.5786e-06	35.927	0.00020494	0.00019845	5.523e-05	354.23	2.1664e-06	2.175e-06	470.47	99.01	2.174e-06	2.1365e-06	171.05	77.446	42.887	18.885	2.1863e-06	36.579	197.381	-19.684	-2.722	-141.847	155.160	40.089	-142.052	-136.728	-120.748	12.886	-138.420	-135.037	-133.587	-129.276	-2.650	-131.520	-8191	255	
1064.273	1	1	0	0	0.039017	0.12276	0.34075	0.18288	0.26506	0.21865	0.18777	0.31542	0.16973	0.12282	0.23028	0.2707	0.092792	0.22198	0.28551	0.086418	-2.325	-2.7604	-2.3792	-3.0125	-2.8833	-2.4125	-2.8563	-2.5396	-2.6229	-2.9375	-2.5687	-3.0042	-2.5646	-2.6333	-2.8187	-2.6729	201.232	40.153	48.900	-11.666	-49.112	193.871	127.218	173.756	92.725	-35.601	164.621	192.394	-133.495	202.970	-143.416	171.267	0.00029896	0.0003597	0.00013837	331.51	2.636e-06	2.1593e-06	458.67	94.221	1.024e-06	2.7709e-06	166.11	75.325	40.599	18.279	4.2842e-06	35.631	0.00020424	0.00019787	5.513e-05	353.44	2.1589e-06	2.1725e-06	470.32	98.405	2.1968e-06	2.1936e-06	170.35	76.857	42.579	18.82	2.1583e-06	36.249	191.536	40.637	-108.665	-141.631	-30.080	-4.577	-142.554	-137.012	-79.010	-46.525	-137.878	-134.777	-132.982	-129.332	-4.027	-131.325	-8191	255	
1064.369	1	1	0	0	0.15559	0.10937	0.20679	0.14961	0.13785	0.079403	0.2009	0.25758	0.27988	0.16133	0.25916	0.18193	0.2059	0.31443	0.077803	0.1129	-2.2083	-2.6896	-2.4792	-2.7479	-2.7854	-2.5146	-2.875	-2.5521	-2.5917	-2.8542	-2.6875	-2.8021	-2.7458	-2.4375	-2.7542	-2.8042	69.854	-146.593	112.418	-119.692	92.389	-20.758	75.819	167.990	158.752	-101.929	-113.920	109.417	-63.839	127.194	-133.178	114.502	0.00028303	0.00033771	6.3892e-05	335.94	2.6016e-06	1.9012e-06	454.23	94.777	2.0149e-06	1.7722e-06	166.34	75.141	40.612	18.306	4.3139e-06	35.743	0.00020492	0.00019654	5.4791e-05	353.96	2.1575e-06	2.1798e-06	469.11	98.78	2.1845e-06	2.1793e-06	170.24	76.904	42.606	18.779	2.172e-06	36.267	197.702	-27.873	-128.734	-141.377	-31.362	31.156	-142.024	-136.630	-52.695	-1.196	-138.124	-135.178	-133.566	-129.102	33.242	-131.178	-8191	255	
1064.465	1	1	0	0	0.053787	0.082697	0.25123	0.23333	0.14934	0.36508	0.37117	0.11009	0.057485	0.10169	0.30335	0.15367	0.25009	0.08093	0.20526	0.11443	-2.0146	-2.8208	-2.55	-2.5646	-2.7604	-2.5375	-2.8104	-2.8625	-2.4292	-2.7167	-2.5687	-2.8396	-2.9625	-2.525	-2.9146	-2.8438	-100.851	-67.636	191.874	163.326	145.366	74.333	6.242	38.125	80.277	162.101	136.287	-49.382	-44.205	-140.778	52.138	-79.954	0.00029221	0.00049988	1.538e-05	339.23	4.6589e-06	2.0176e-06	457.73	94.944	1.0834e-06	4.4327e-06	165.35	75.307	41.225	18.332	2.1386e-06	35.872	0.00020521	0.00019867	5.45e-05	353.95	2.1664e-06	2.1712e-06	469.52	98.887	2.1598e-06	2.1371e-06	170.68	77.239	42.911	18.855	2.1836e-06	36.407	201.459	-12.581	27.643	-141.536	-9.539	159.737	-142.313	-136.762	-14.078	-26.380	-138.508	-134.858	-133.771	-129.303	-12.883	-131.355	-8191	255	
1064.561	1	1	0	0	0.33219	0.1473	0.10666	0.25742	0.15757	0.15221	0.10056	0.1625	0.20903	0.015129	0.14887	0.29257	0.082002	0.03089	0.24726	0.28486	-2.1854	-2.7438	-2.5667	-2.7354	-2.6604	-2.55	-2.8083	-2.7687	-2.6417	-2.7438	-2.6937	-2.6479	-2.6896	-2.4917	-2.7896	-2.7708	32.306	19.769	205.159	0.063	-97.011	156.042	-19.836	-92.374	47.911	-107.884	38.942	159.918	-18.296	-29.708	-24.480	168.100	0.00029248	0.00040338	7.9394e-05	334.34	2.3443e-06	2.1141e-06	456.9	95.255	6.9527e-07	3.3744e-06	166.87	75.586	41.297	18.285	1.514e-06	36.046	0.00020429	0.00019952	5.5625e-05	353.41	2.1474e-06	2.1838e-06	471.13	99.263	2.1676e-06	2.1535e-06	171.1	77.538	43.204	18.908	2.2058e-06	36.612	191.555	-17.281	-93.369	-142.206	109.576	-28.703	-142.252	-136.618	-54.508	12.455	-138.631	-135.004	-133.062	-129.013	-27.041	-131.332	-8191	255	
1064.682	1	1	0	0	0.19462	0.17031	0.077892	0.23212	0.13163	0.10909	0.14978	0.2144	0.060513	0.20304	0.37076	0.19519	0.15329	0.089407	0.16925	0.3227	-2.0542	-2.85	-2.4479	-2.5625	-3.1229	-2.7021	-2.6354	-2.9875	-2.4104	-2.875	-2.6937	-2.6146	-2.9104	-2.5667	-2.8812	-2.7917	90.792	-2.367	-143.110	134.805	-106.350	112.078	9.143	124.119	130.635	112.283	182.405	197.037	-7.209	-85.908	75.173	174.880	0.0002542	8.1234e-05	6.16e-05	337.06	2.1962e-06	3.9608e-06	461.27	95.742	2.5127e-06	1.3768e-06	167.78	75.597	41.213	18.356	1.1287e-06	36.015	0.00020563	0.00019986	5.5149e-05	354.29	2.1684e-06	2.169e-06	472.3	99.245	2.1535e-06	2.1717e-06	172.06	77.604	43.198	18.887	2.1896e-06	36.524	197.153	124.720	-93.112	-141.921	-7.433	149.540	-142.140	-136.665	-103.444	-6.101	-138.695	-135.140	-133.813	-129.155	-49.798	-131.439	-8191	255	
1064.776	1	1	0	0	0.21656	0.2204	0.1503	0.24145	0.086242	0.28393	0.28798	0.090242	0.14411	0.14438	0.13873	0.005081	0.17724	0.10103	0.23342	0.13164	-2.35	-2.7479	-2.7375	-2.5167	-2.9979	-2.4938	-2.8375	-2.7646	-2.45	-2.9542	-2.7313	-2.7667	-2.9042	-2.5667	-2.6437	-2.9646	89.484	-31.249	165.608	-37.015	178.474	105.226	134.379	0.484	118.026	164.300	139.285	-75.541	124.468	132.982	85.760	161.760	0.00025606	0.00033189	8.6236e-05	337.4	1.231e-06	3.1952e-06	459.13	95.555	1.2391e-06	2.2898e-06	167.4	75.369	41.385	18.316	1.6535e-06	35.619	0.00020534	0.00019861	5.4642e-05	354.03	2.1267e-06	2.1632e-06	470.05	99.555	2.1644e-06	2.1578e-06	171.3	77.318	43.221	18.949	2.1557e-06	36.287	198.824	-39.550	-53.320	-141.227	-10.543	1.750	-142.435	-136.770	-146.568	-34.860	-138.406	-135.205	-133.423	-129.342	57.591	-131.462	-8191	255	
1064.873	1	1	0	0	0.041288	0.15297	0.13145	0.25729	0.15013	0.068815	0.15883	0.05205	0.17055	0.19627	0.087743	0.30809	0.14274	0.11647	0.25075	0.13586	-2.1	-2.5938	-2.7625	-2.6604	-2.7542	-2.8333	-2.6479	-2.8312	-2.4062	-2.8542	-2.5979	-2.5104	-2.8917	-2.7062	-2.6458	-2.975	-121.235	-130.725	-133.033	-106.458	-12.774	117.744	-113.717	1.884	117.862	-146.512	117.191	76.285	158.818	85.784	132.577	90.871	0.00028154	0.00014298	0.00010609	331.92	3.0091e-06	1.6551e-06	454.99	95.673	3.9288e-06	2.3188e-06	166.31	75.935	41.037	18.378	4.3686e-06	35.79	0.00020358	0.00019662	5.5205e-05	353.01	2.17e-06	2.1596e-06	469.46	99.588	2.1646e-06	2.1626e-06	170.63	77.505	43.054	18.913	2.1717e-06	36.308	-153.391	-100.951	-78.617	-140.972	-48.309	28.322	-142.349	-136.919	-3.853	84.022	-138.700	-134.905	-133.474	-128.667	-34.588	-131.115	-8191	255	
1064.969	1	1	0	0	0.32574	0.096933	0.27788	0.26442	0.063594	0.033529	0.18704	0.17321	0.038506	0.11675	0.13582	0.20198	0.32706	0.23121	0.013824	0.071261	-2.0167	-2.7729	-2.8937	-2.3208	-2.9083	-2.5042	-2.8479	-2.9146	-2.7875	-2.6854	-2.7542	-2.5812	-3.0125	-2.6604	-2.5854	-3.0604	19.696	-78.776	16.161	117.000	167.103	37.726	153.196	-103.552	34.072	3.821	-46.305	186.437	62.701	189.983	-9.213	-71.814	0.00029833	0.00012228	9.7063e-05	333.57	3.5365e-06	1.9399e-06	458.94	95.478	2.444e-07	3.2229e-06	165.66	75.667	41.011	18.213	3.2794e-06	36.138	0.00020483	0.0001981	5.3977e-05	352.38	2.1803e-06	2.1473e-06	470.53	99.141	2.1702e-06	2.1511e-06	170.68	77.223	42.88	18.802	2.1512e-06	36.471	-151.239	-2.842	-80.328	-141.285	-53.499	23.922	-142.179	-136.476	124.848	32.257	-138.483	-134.637	-133.817	-129.023	24.165	-131.293	-8191	255	
1065.065	1	1	0	0	0.30703	0.10259	0.11898	0.016944	0.15446	0.12087	0.23932	0.15858	0.086689	0.1563	0.10574	0.12395	0.17047	0.20159	0.16927	0.20142	-2.1521	-2.8	-2.8354	-2.5542	-2.7896	-2.7438	-2.7042	-2.9229	-2.5729	-2.6604	-2.9271	-2.6729	-2.7896	-2.6813	-2.4583	-2.8979	-76.731	3.595	167.204	122.937	108.534	-41.849	192.728	157.328	122.048	102.989	36.557	196.545	75.874	136.580	-80.406	-30.447	0.00028167	7.6082e-05	5.7268e-05	340.39	1.7918e-06	1.5912e-06	455.16	95.27	2.8482e-06	2.8215e-06	167.06	75.419	41.537	18.285	4.5082e-06	35.671	0.00020554	0.00019707	5.4304e-05	353.89	2.1634e-06	2.1614e-06	468.76	99.092	2.1641e-06	2.1395e-06	171.04	77.398	43.012	18.819	2.168e-06	36.281	198.471	-130.850	-57.557	-141.494	-137.143	-134.949	-142.315	-136.424	-79.887	-72.068	-138.343	-135.238	-133.139	-129.151	43.438	-131.518	-8191	255	
1065.161	1	1	0	0	0.2978	0.20844	0.23944	0.13712	0.09131	0.074064	0.16609	0.18467	0.20828	0.21244	0.13246	0.28242	0.16271	0.20209	0.2989	0.04053	-2.125	-2.8458	-2.775	-2.5792	-2.8396	-2.6208	-2.7146	-2.7896	-2.7979	-2.6083	-3.0604	-2.4104	-2.7583	-2.9396	-2.5229	-2.9708	58.141	186.189	24.144	77.052	203.122	-81.691	-130.822	68.908	-24.007	-56.609	-146.982	199.264	-108.599	-62.860	42.462	-30.766	0.00029534	0.000427	8.1584e-05	334.32	2.6418e-06	4.562e-06	457.32	95.041	2.6124e-06	2.4614e-06	165.31	74.929	40.867	18.107	9.6232e-07	35.597	0.00020329	0.00019618	5.4776e-05	352.76	2.1408e-06	2.1462e-06	469.66	99	2.1045e-06	2.1147e-06	169.68	76.64	42.626	18.643	2.1349e-06	36.029	204.468	-20.114	-25.280	-141.864	56.858	-12.831	-142.108	-136.597	-127.634	-21.500	-138.181	-134.831	-133.352	-128.927	-66.630	-131.510	-8191	255	
1065.282	1	1	0	0	0.15017	0.20182	0.32567	0.30177	0.25153	0.26652	0.054068	0.15887	0.11761	0.34218	0.34479	0.18313	0.21736	0.078301	0.04265	0.10231	-2.1021	-2.6208	-2.7021	-2.4062	-2.8833	-2.8083	-2.5896	-2.7792	-2.7229	-2.7896	-2.8542	-2.7792	-2.6396	-2.8979	-2.5167	-2.8708	133.866	-25.521	61.637	-9.752	-15.917	13.333	79.876	-113.060	-135.686	28.429	54.533	186.836	159.135	-117.708	183.763	-109.449	0.00031442	0.00015671	6.4182e-05	332.9	5.5412e-07	1.749e-06	455.14	94.398	3.0987e-06	8.0284e-07	165.2	74.364	40.244	18.064	2.3583e-07	35.111	0.00019909	0.00019449	5.373e-05	351.76	2.1121e-06	2.094e-06	468.33	98.259	2.1087e-06	2.1133e-06	169.22	76.09	42.036	18.586	2.1195e-06	35.774	192.667	118.028	-136.698	-141.131	32.787	46.707	-142.531	-137.040	-46.563	-30.396	-138.478	-135.449	-134.013	-129.197	125.443	-131.330	-8191	255	
1065.378	1	1	0	0	0.11111	0.15652	0.12824	0.11086	0.14046	0.26214	0.17507	0.23875	0.16983	0.22219	0.13432	0.16033	0.028196	0.024036	0.17502	0.048148	-2.4042	-2.4813	-2.8812	-2.5271	-2.7958	-2.9313	-2.6104	-3.1917	-2.7313	-2.6708	-2.9313	-2.4792	-2.6708	-2.6958	-2.5958	-2.8833	184.783	92.936	156.155	193.972	39.451	66.733	179.638	136.212	32.990	192.268	164.513	-113.132	115.669	-118.203	-2.170	104.496	0.00029508	0.0003712	8.5613e-05	335.89	1.999e-06	3.7472e-06	456.21	94.669	6.5696e-07	1.1294e-06	164.69	74.057	39.866	17.871	3.0191e-06	35.223	0.00019877	0.00019231	5.3741e-05	352.18	2.0795e-06	2.067e-06	468.8	97.908	2.0795e-06	2.1138e-06	168.85	75.762	41.856	18.453	2.1059e-06	35.735	198.504	-63.632	-17.384	-141.033	-91.425	67.366	-141.973	-137.032	-116.152	-109.576	-138.696	-135.039	-133.591	-128.983	3.783	-131.077	-8191	255	
1065.474	1	1	0	0	0.20045	0.21186	0.12565	0.10587	0.32359	0.22303	0.26731	0.19359	0.13411	0.13008	0.017551	0.16391	0.05873	0.23896	0.11542	0.33033	-2.0438	-2.4188	-2.775	-2.7396	-2.8667	-3.0104	-2.5792	-2.7625	-2.7438	-2.525	-2.9562	-2.5812	-2.5479	-2.9875	-2.5042	-2.9708	-141.259	-86.919	-62.998	75.709	-52.323	-55.550	129.270	74.271	-35.404	107.426	158.463	168.430	165.304	165.353	16.368	85.472	0.00026988	0.00023678	5.5248e-05	333.92	8.8771e-07	1.8272e-06	454.97	93.281	1.5119e-06	3.7951e-06	164.88	73.783	39.832	17.94	2.4539e-06	35.294	0.00019889	0.00019206	5.3065e-05	351.42	2.1028e-06	2.1061e-06	468.55	97.267	2.107e-06	2.1451e-06	168.26	75.597	41.61	18.414	2.1435e-06	35.79	199.008	-142.757	53.660	-141.186	-19.320	-21.967	-141.834	-136.850	-29.166	-6.494	-138.386	-135.027	-133.666	-129.227	-8.981	-131.147	-8191	255	
1065.570	1	1	0	0	0.065305	0.22681	0.10884	0.041686	0.1337	0.17112	0.19972	0.21466	0.20334	0.18557	0.14032	0.077838	0.12852	0.22479	0.29122	0.21492	-2.3771	-2.4875	-2.7646	-2.5146	-2.6083	-2.7833	-2.5083	-2.7	-2.85	-2.5021	-2.7292	-2.6792	-2.5708	-2.8896	-2.4458	-2.7521	-141.105	49.801	117.222	-9.106	111.558	-100.823	134.284	190.766	-56.453	-118.462	201.718	-130.179	-96.824	196.414	-61.982	-58.458	0.00029684	0.00019275	3.1839e-05	331.29	3.0806e-06	3.4102e-06	457.73	93.626	9.7102e-07	3.1058e-06	163.95	74.216	40.245	17.824	1.5068e-06	35.331	0.00020026	0.00019446	5.3472e-05	352.27	2.103e-06	2.0987e-06	470.33	97.36	2.0902e-06	2.0917e-06	168.72	75.83	41.817	18.349	2.1259e-06	35.728	198.396	-9.628	-65.460	-141.133	-68.950	-21.334	-142.119	-136.677	101.617	19.966	-138.524	-134.953	-133.806	-129.106	0.360	-131.198	-8191	255	
1065.642	1	1	0	0	0.077242	0.12234	0.14339	0.17741	0.2035	0.26158	0.045257	0.40223	0.22004	0.1639	0.2259	0.12617	0.16745	0.1162	0.10805	0.18019	-2.3979	-2.5187	-2.9313	-2.7292	-2.5167	-2.7812	-2.5271	-2.6792	-2.9042	-2.5667	-2.7729	-2.7667	-2.5438	-3.0917	-2.5542	-2.6688	-131.105	81.639	70.861	112.022	-133.609	-119.098	114.942	149.380	-149.699	-13.793	152.902	21.673	148.109	-9.214	-106.289	-31.717	0.00029598	0.00029232	5.6398e-05	333.33	9.8027e-07	2.4108e-06	455.43	93.506	2.6475e-06	1.5616e-07	164.31	73.688	39.921	17.868	2.6547e-06	35	0.0002014	0.00019127	5.362e-05	351.12	2.1204e-06	2.0763e-06	468.13	97.456	2.0817e-06	2.0983e-06	168.16	75.529	41.837	18.434	2.0944e-06	35.649	202.567	-76.933	32.430	-141.994	-97.913	-2.258	-142.294	-136.651	-56.499	159.706	-138.764	-134.954	-133.462	-128.944	-94.575	-131.456	-8191	255	
1065.761	1	1	0	0	0.23808	0.32936	0.016986	0.20847	0.14712	0.1029	0.20273	0.32259	0.10713	0.18942	0.046263	0.20973	0.33717	0.11279	0.18122	0.19502	-2.5583	-2.35	-2.8063	-2.725	-2.5396	-2.8083	-2.8125	-2.6375	-2.8625	-2.4188	-2.8063	-2.7583	-2.6042	-2.8229	-2.4979	-2.7396	156.517	67.436	97.458	49.676	108.142	132.669	162.128	-7.809	-11.271	85.294	195.038	-149.809	180.258	-115.884	-107.535	175.297	0.00026974	0.00039624	9.1584e-05	335.75	8.9993e-07	2.1261e-06	456.88	93.805	1.6773e-06	4.3403e-07	165.17	74.186	40.432	18.035	1.1588e-06	35.279	0.00019894	0.00019376	5.3797e-05	352.72	2.1286e-06	2.1027e-06	470.03	97.802	2.0946e-06	2.103e-06	168.8	75.953	42.058	18.498	2.0763e-06	35.885	198.801	-80.093	-96.581	-141.295	75.063	-25.614	-142.436	-136.482	-32.953	13.811	-138.094	-134.887	-133.245	-129.119	-68.738	-131.287	-8191	255	
1065.857	1	1	0	0	0.14128	0.19113	0.16465	0.21235	0.06275	0.10567	0.11233	0.30155	0.076846	0.066168	0.056872	0.14509	0.090756	0.16986	0.12788	0.032995	-2.2562	-2.5875	-2.7542	-2.8625	-2.5646	-2.8833	-2.775	-2.4938	-2.8917	-2.5208	-2.725	-2.9875	-2.5687	-2.825	-2.6583	-2.6146	118.899	124.472	122.548	-70.148	-124.150	122.486	117.891	131.255	-53.548	137.529	180.495	177.271	-5.995	185.513	-75.088	134.614	0.00026289	0.00045151	0.00010607	335.96	3.6154e-06	4.4975e-06	456.42	94.199	1.542e-06	1.38e-06	165.05	74.161	40.279	18.027	2.0987e-07	35.472	0.00019734	0.00019378	5.3596e-05	351.91	2.1233e-06	2.0863e-06	470.55	98.001	2.1126e-06	2.1069e-06	169.2	76.008	42.23	18.589	2.1244e-06	36.027	198.132	-67.942	-68.945	-141.699	-0.695	20.300	-142.465	-136.638	-38.683	-106.854	-138.794	-135.061	-133.393	-129.095	-69.031	-131.348	-8191	255	
1065.953	1	1	0	0	0.13097	0.34765	0.14976	0.17098	0.14767	0.095012	0.31061	0.030497	0.11424	0.15199	0.1867	0.13135	0.20501	0.077573	0.18912	0.053918	-2.6271	-2.6562	-2.7375	-2.725	-2.5458	-2.9896	-2.8125	-2.6604	-2.8396	-2.6792	-2.5521	-2.7854	-2.5521	-2.7833	-2.7542	-2.375	-137.283	-52.744	8.391	152.177	-135.608	-90.186	73.320	66.224	-104.276	167.863	-8.771	152.008	5.208	112.952	127.108	106.962	0.00029003	0.00028751	4.6533e-05	335.3	2.3838e-06	1.6954e-06	458.15	94.174	1.5952e-06	5.9339e-08	167.05	75.339	40.301	18.213	1.6704e-06	35.558	0.00020114	0.00019454	5.3886e-05	354.16	2.1153e-06	2.1288e-06	470.88	98.186	2.1211e-06	2.1223e-06	170.26	76.72	42.25	18.673	2.1366e-06	36.2	194.751	-20.069	-107.614	-141.170	-0.320	-108.277	-142.537	-136.798	-46.299	173.604	-138.408	-134.602	-133.072	-129.068	-15.706	-131.219	-8191	255	
1066.074	1	1	0	0	0.26768	0.10514	0.08933	0.14809	0.074649	0.16572	0.34779	0.083128	0.18585	0.1319	0.18359	0.069958	0.17105	0.42477	0.08047	0.2775	-2.45	-2.5625	-2.675	-2.9167	-2.4688	-2.9	-2.6562	-2.5896	-2.9125	-2.7062	-2.6792	-2.7125	-2.4875	-2.8854	-2.8104	-2.5021	59.999	-71.438	-120.480	141.036	-33.128	73.958	183.792	-134.854	199.408	192.607	154.382	124.745	-67.480	-137.642	-101.865	35.623	0.00028642	0.00020442	9.2994e-05	334.45	2.1587e-06	4.3597e-06	458.44	93.816	2.1753e-06	4.4674e-06	164.45	74.512	40.223	17.925	5.8869e-07	35.416	0.0002005	0.0001933	5.3435e-05	352.75	2.1031e-06	2.1151e-06	470.21	97.811	2.1266e-06	2.0914e-06	168.9	76.299	42.129	18.505	2.1262e-06	35.898	-154.127	-0.340	-106.455	-141.353	69.878	-44.658	-142.360	-136.614	-31.631	-32.759	-138.292	-135.066	-133.493	-129.207	-53.103	-131.320	-8191	255	
1066.170	1	1	0	0	0.22953	0.07584	0.15654	0.04953	0.12539	0.15827	0.1194	0.12347	0.20417	0.14032	0.13418	0.21186	0.042445	0.27157	0.13857	0.074358	-2.3083	-2.5062	-2.4917	-2.9271	-2.5375	-2.9167	-2.8937	-2.5146	-2.8771	-2.7812	-2.5646	-2.8646	-2.5042	-2.7812	-2.9854	-2.4875	-36.824	-78.314	-93.964	-16.739	-99.506	9.705	7.187	-29.040	88.882	-87.938	-124.090	106.865	-108.091	-102.876	120.725	156.395	0.00028606	0.00040674	5.0631e-05	334.96	5.2327e-06	8.5417e-07	457.83	94.364	1.6482e-06	1.8537e-06	164.8	74.642	40.25	17.947	1.9775e-06	35.285	0.00020066	0.00019109	5.3289e-05	353.73	2.1007e-06	2.0844e-06	469.87	97.957	2.1057e-06	2.1217e-06	169	76.068	41.97	18.519	2.1245e-06	35.83	205.031	-69.648	-57.880	-141.526	69.619	83.785	-142.057	-136.690	-9.604	-93.494	-138.248	-134.897	-133.706	-129.016	162.347	-131.323	-8191	255	
1066.241	1	1	0	0	0.028705	0.30913	0.25073	0.26343	0.13388	0.11726	0.19574	0.086012	0.15136	0.18308	0.087274	0.030749	0.18749	0.17316	0.15939	0.033679	-2.4042	-2.75	-2.5021	-2.8979	-2.5187	-2.5458	-2.8479	-2.3937	-2.7	-2.7812	-2.2917	-2.9562	-2.6312	-2.6667	-2.825	-2.6917	-46.960	-55.243	-126.430	15.615	192.012	-144.852	-15.558	-21.813	41.573	28.851	145.242	-46.575	-129.994	-53.975	42.298	43.757	0.00027193	0.00034381	2.9056e-05	331.68	2.2485e-06	6.308e-06	457.93	94.014	1.9705e-06	1.9881e-06	164.99	74.466	40.165	17.931	5.7792e-06	35.323	0.0002008	0.000193	5.42e-05	351.66	2.1267e-06	2.1243e-06	469.37	97.506	2.1064e-06	2.123e-06	169.44	76.219	42.039	18.466	2.1422e-06	35.978	203.047	-10.009	-116.057	-141.803	35.062	100.912	-142.231	-136.549	-33.719	-87.785	-138.767	-134.655	-133.235	-129.061	-42.074	-131.531	-8191	255	
1066.362	1	1	0	0	0.069119	0.11281	0.14679	0.16571	0.11742	0.20792	0.35105	0.047965	0.23711	0.060092	0.12142	0.14748	0.27241	0.039655	0.2579	0.056814	-2.2812	-2.6708	-2.4333	-2.7812	-2.5479	-2.65	-3.1125	-2.4104	-2.8229	-2.7854	-2.3417	-2.8312	-2.5312	-2.5979	-2.9375	-2.6437	-20.084	58.157	-54.044	204.117	-37.539	191.207	186.407	48.736	-69.127	133.433	111.393	146.557	-74.606	-85.133	170.867	-130.735	0.00025787	0.00030846	8.1946e-05	335.1	1.8962e-06	3.9548e-06	456.96	93.979	6.7787e-07	6.1565e-07	164.36	75.603	40.229	18.049	3.1242e-06	35.6	0.0001988	0.00019465	5.4076e-05	352.02	2.1322e-06	2.135e-06	469.87	97.907	2.0759e-06	2.1368e-06	169.78	76.7	42.104	18.561	2.134e-06	36.204	191.706	-50.836	-39.216	-141.375	22.208	21.601	-142.501	-136.877	-42.140	201.579	-137.858	-135.200	-133.622	-129.412	-59.170	-131.458	-8191	255	
1066.458	1	1	0	0	0.19134	0.15639	0.13031	0.24464	0.03306	0.092766	0.13661	0.23993	0.088265	0.13583	0.14714	0.18636	0.047544	0.03193	0.076323	0.30305	-2.2667	-2.6271	-2.4375	-2.6562	-2.7104	-2.425	-2.8292	-2.6	-2.5208	-2.8563	-2.4792	-2.7625	-2.7375	-2.6542	-2.8333	-2.4875	197.372	-114.385	105.546	60.921	-56.397	199.354	62.198	42.527	54.724	-118.847	53.363	193.554	162.669	-99.461	-97.666	157.638	0.00027014	0.00043047	2.9658e-05	335.15	1.9044e-06	2.7143e-06	455.82	94.313	2.7324e-06	2.5043e-06	164.78	74.654	40.465	18.046	3.1122e-06	35.474	0.00019934	0.00019413	5.4343e-05	352.6	2.1298e-06	2.0967e-06	469.7	97.774	2.1237e-06	2.1191e-06	169.25	76.275	42.051	18.503	2.1477e-06	35.9	196.883	-70.513	128.259	-141.223	0.998	-4.832	-142.327	-136.529	-55.649	-3.334	-138.688	-134.936	-133.493	-129.049	-66.276	-131.169	-8191	255	
1066.554	1	1	0	0	0.1876	0.13142	0.082129	0.14626	0.23283	0.17589	0.045226	0.088257	0.18578	0.11908	0.16412	0.057539	0.264	0.22538	0.057376	0.11456	-2.3125	-2.8312	-2.4458	-2.7604	-2.7146	-2.6333	-2.8667	-2.6604	-2.6771	-2.8854	-2.3792	-2.7042	-2.6188	-2.6146	-2.9271	-2.7021	55.280	150.555	-80.161	160.213	-18.934	-6.883	-97.448	18.422	-59.364	181.274	200.728	65.719	-63.875	-59.872	190.508	-115.609	0.00029903	0.00031367	6.4673e-05	330.96	2.7393e-06	1.8281e-06	455.37	93.513	5.1108e-06	1.6029e-06	164.55	74.435	39.741	17.806	1.9154e-06	35.161	0.000201	0.00019305	5.4247e-05	350.61	2.0808e-06	2.1308e-06	468.47	97.187	2.1302e-06	2.112e-06	168.54	75.854	41.593	18.395	2.1197e-06	35.785	198.683	-112.872	-84.170	-141.274	0.944	-40.966	-142.405	-137.054	-19.008	73.667	-138.289	-135.024	-133.396	-128.759	-72.038	-131.079	-8191	255	
1066.673	1	1	0	0	0.17867	0.058996	0.21421	0.10634	0.045436	0.11711	0.16081	0.096774	0.06149	0.11758	0.29005	0.21336	0.1096	0.088323	0.18571	0.19674	-2.2458	-2.8146	-2.3208	-2.6792	-2.8125	-2.5125	-2.6708	-2.5938	-2.6083	-2.9417	-2.65	-2.6354	-2.8625	-2.6271	-2.825	-2.7188	-151.815	-75.484	-143.506	-78.761	135.073	72.883	57.193	-40.925	12.001	10.929	-24.776	39.155	2.593	-143.451	25.823	104.681	0.00024059	0.00030403	8.7781e-05	331.05	4.7128e-06	4.1328e-06	457.7	93.466	2.0066e-06	1.3591e-06	163.97	74.014	39.632	17.877	1.4105e-06	35.269	0.00020138	0.00019198	5.3891e-05	349.51	2.1013e-06	2.1346e-06	469.07	97.039	2.1124e-06	2.113e-06	167.92	75.473	41.45	18.339	2.1293e-06	35.859	194.292	13.899	-54.337	-141.677	8.536	-72.380	-142.045	-136.573	-54.610	197.026	-138.025	-134.860	-133.432	-129.236	-139.117	-131.299	-8191	255	
1066.769	1	1	0	0	0.057924	0.27926	0.32305	0.23774	0.12036	0.27649	0.14571	0.109	0.26463	0.0099261	0.13749	0.092105	0.19944	0.21797	0.074097	0.16213	-2.0021	-2.7604	-2.5729	-2.8187	-2.7188	-2.5271	-3.0167	-2.5646	-2.4833	-2.7562	-2.5583	-2.6021	-2.7354	-2.4875	-2.5771	-2.8688	44.180	-150.966	-96.760	33.626	127.372	131.509	96.177	162.308	23.752	-44.523	-61.909	-124.932	-16.952	-41.379	42.347	186.719	0.00027843	0.00039369	6.5261e-05	327.49	2.6232e-06	2.3125e-06	455.66	92.5	1.5532e-06	1.6096e-06	163.96	73.748	39.59	17.66	2.5589e-06	35.294	0.0002031	0.0001951	5.4163e-05	349.47	2.1233e-06	2.1371e-06	468.25	96.473	2.1313e-06	2.112e-06	167.99	75.51	41.305	18.255	2.1383e-06	35.811	197.371	-58.191	-78.964	-141.376	-27.955	-60.613	-141.936	-136.778	0.323	-64.181	-138.352	-134.643	-133.029	-128.997	-44.633	-131.232	-8191	255	
1066.866	1	1	0	0	0.31827	0.17229	0.19334	0.13198	0.018075	0.18376	0.17059	0.24725	0.09237	0.12405	0.05832	0.18001	0.13478	0.13995	0.1867	0.19214	-2.1417	-2.7854	-2.6292	-2.3125	-2.8479	-2.4562	-2.7875	-2.8521	-2.5312	-2.7396	-2.7521	-2.5771	-2.9125	-2.4583	-2.6625	-2.7188	74.067	-105.448	-85.631	-47.471	0.986	40.568	39.583	51.793	-8.646	61.447	0.090	118.822	-96.126	-118.854	-16.887	23.277	0.00026941	0.00030864	7.427e-05	330.88	2.0141e-06	3.3314e-06	457.86	92.325	3.4625e-06	9.5538e-07	162.98	73.582	39.526	17.536	1.2929e-06	35.12	0.00020171	0.00019531	5.4018e-05	349.94	2.108e-06	2.1321e-06	469.19	96.279	2.1441e-06	2.1505e-06	167.71	74.959	41.209	18.117	2.1314e-06	35.635	201.415	-75.696	-50.853	-140.859	-63.932	-45.084	-142.191	-136.690	-18.939	-3.973	-137.825	-135.114	-133.511	-129.249	-6.671	-131.014	-8191	255	
1066.937	1	1	0	0	0.33858	0.12983	0.083719	0.23105	0.29779	0.12393	0.29408	0.13976	0.16416	0.13565	0.14507	0.097773	0.23545	0.16679	0.075725	0.15563	-2.0479	-2.9333	-2.5729	-2.5958	-2.8771	-2.6458	-2.6312	-2.7104	-2.4104	-2.8229	-2.6417	-2.5521	-2.9167	-2.6292	-2.6771	-2.9458	-103.511	107.933	-79.793	-119.827	-15.678	141.771	173.022	177.958	-142.123	-102.277	149.958	61.208	130.149	155.392	17.922	6.393	0.00031317	0.00028214	7.2814e-05	330.03	2.2124e-06	2.1672e-06	452.45	92.349	1.4212e-06	2.644e-06	163.27	73.176	39.301	17.554	1.2586e-06	34.829	0.00020189	0.00019539	5.3925e-05	348.59	2.1491e-06	2.1031e-06	465.24	96.266	2.1468e-06	2.1505e-06	167.34	74.848	41.006	18.069	2.1171e-06	35.353	195.468	-88.758	-31.205	-142.042	-6.520	-23.442	-142.190	-136.967	136.554	37.567	-138.617	-134.808	-133.278	-128.958	-1.633	-131.375	-8191	255	
1067.058	1	1	0	0	0.1251	0.16833	0.068118	0.22221	0.1685	0.22121	0.10961	0.070017	0.34306	0.14672	0.3138	0.18624	0.088971	0.083772	0.16271	0.066836	-2.0917	-2.8354	-2.5583	-2.6625	-2.7229	-2.5146	-2.5687	-2.8021	-2.4167	-2.7417	-2.8396	-2.5	-2.8375	-2.7479	-2.5667	-2.6229	-28.753	193.042	15.071	-36.411	-127.504	136.553	144.282	129.630	14.908	132.047	5.090	-147.727	-144.280	188.253	-69.703	76.413	0.00026323	0.00051842	1.4346e-05	329.52	1.8353e-06	3.6294e-06	453.71	91.971	3.9448e-06	2.0087e-06	162.66	72.846	38.966	17.382	2.1334e-06	34.484	0.00020165	0.00019389	5.4188e-05	348.09	2.109e-06	2.099e-06	465.85	95.953	2.116e-06	2.1083e-06	166.77	74.495	40.882	17.919	2.1165e-06	35.141	197.079	-0.084	95.841	-141.735	46.728	5.282	-142.252	-136.898	-39.648	-66.708	-138.254	-135.018	-133.171	-128.659	21.154	-131.308	-8191	255	
1067.154	1	1	0	0	0.068843	0.27907	0.20317	0.19887	0.055659	0.20007	0.29444	0.1308	0.20842	0.11425	0.083115	0.3235	0.19022	0.29453	0.23554	0.11947	-2.1271	-2.7042	-2.6271	-2.5542	-2.7021	-2.6979	-2.7104	-2.7062	-2.4917	-2.7687	-2.8229	-2.5438	-2.9333	-2.7812	-2.6542	-2.9292	93.513	83.908	163.667	108.119	-134.335	-31.286	-119.304	-82.850	3.078	-16.481	50.790	41.903	-40.543	90.289	-5.203	-133.383	0.0002907	0.00026056	9.9011e-05	324.91	3.2477e-06	1.5328e-06	448.08	91.264	1.8232e-06	3.059e-06	160.93	72.126	38.205	17.044	2.1852e-06	34.248	0.00019787	0.00019509	5.4064e-05	344.9	2.1446e-06	2.137e-06	463.02	95.109	2.1168e-06	2.1094e-06	165.02	73.708	40.049	17.65	2.1158e-06	34.797	194.404	-83.402	-63.150	-141.399	-39.658	-27.662	-142.299	-136.956	-17.046	-14.725	-138.354	-135.190	-133.604	-129.185	26.181	-131.288	-8191	255	
1067.250	1	1	0	0	0.089266	0.18483	0.25437	0.36892	0.092181	0.1663	0.13714	0.13379	0.11356	0.084711	0.12494	0.15557	0.19705	0.19009	0.086425	0.13736	-2.2188	-2.7687	-2.7062	-2.3271	-2.8042	-2.8063	-2.6625	-2.7396	-2.6188	-2.7104	-2.8646	-2.6042	-2.8521	-2.8542	-2.5083	-3.0417	130.418	12.401	-5.380	177.892	-73.360	145.755	80.561	114.091	-129.912	100.461	31.955	171.238	-116.463	-111.917	165.937	117.734	0.00026275	6.1841e-05	6.5655e-05	328.4	2.1651e-06	3.6823e-06	449.99	90.524	1.862e-06	2.0661e-06	159.46	70.83	38.152	16.821	3.849e-06	33.888	0.00020023	0.00019475	5.3128e-05	347.05	2.0962e-06	2.1086e-06	463.93	94.475	2.1052e-06	2.0962e-06	164.21	72.851	39.786	17.433	2.1142e-06	34.497	204.582	187.604	40.912	-141.248	-49.619	-20.681	-142.372	-136.749	-53.517	-8.761	-138.208	-135.244	-133.068	-128.784	14.337	-131.145	-8191	255	
1067.346	1	1	0	0	0.40128	0.24827	0.13733	0.056924	0.14518	0.21942	0.029057	0.16616	0.044151	0.38505	0.090656	0.13838	0.26771	0.097462	0.16843	0.13659	-2.025	-2.7	-2.675	-2.4813	-2.875	-2.6312	-2.375	-2.7062	-2.6542	-2.5375	-2.9313	-2.4688	-2.7771	-2.8583	-2.4437	-2.9167	-38.990	-149.267	-28.370	-71.786	-123.531	194.769	150.952	183.958	22.154	26.136	75.348	-32.769	-105.019	113.219	39.542	-35.447	0.00026415	0.00027063	4.5918e-05	327.68	2.0276e-06	9.0815e-07	446.96	89.484	2.0653e-06	3.3538e-06	157.99	69.928	36.98	16.583	2.9976e-06	33.503	0.00019736	0.00019191	5.3442e-05	343.84	2.0754e-06	2.0726e-06	460.44	93.093	2.0876e-06	2.0814e-06	161.86	71.623	39.023	17.137	2.1059e-06	34.035	199.712	-10.025	204.863	-141.485	-0.574	-14.606	-142.027	-136.683	-58.331	50.119	-138.383	-134.904	-133.697	-129.102	-23.817	-131.414	-8191	255	
1067.465	1	1	0	0	0.077604	0.11283	0.037989	0.24049	0.113	0.041903	0.26757	0.15758	0.13253	0.23602	0.18739	0.36102	0.17176	0.37479	0.010992	0.13533	-2.1771	-2.5104	-2.8083	-2.5042	-2.7542	-2.8896	-2.5729	-2.8542	-2.6333	-2.65	-2.8479	-2.6042	-2.4729	-2.7979	-2.4875	-2.7812	40.355	72.857	-95.253	-70.064	68.178	-88.133	107.482	-153.075	87.690	20.406	201.396	160.025	90.689	132.521	-132.573	-132.036	0.00024464	0.00021761	9.4393e-05	328.9	2.2633e-06	3.4183e-06	447.48	88.709	2.3695e-06	1.0767e-06	157.97	69.92	37.265	16.585	3.7881e-06	33.477	0.00019832	0.00019051	5.2671e-05	344.53	2.0703e-06	2.0654e-06	460.15	92.681	2.0905e-06	2.1005e-06	161.47	71.413	38.903	17.086	2.1218e-06	33.94	200.735	56.377	-82.589	-141.084	-42.451	-75.459	-142.383	-136.865	-45.575	-124.126	-138.221	-134.981	-133.203	-128.922	-13.710	-131.160	-8191	255	
1067.539	1	1	0	0	0.17502	0.26677	0.18806	0.18995	0.016966	0.14133	0.11901	0.14348	0.28945	0.19567	0.29426	0.071033	0.23273	0.15185	0.21217	0.18404	-2.425	-2.5042	-2.7729	-2.6833	-2.4708	-2.9083	-2.5375	-2.8563	-2.7042	-2.4667	-2.7687	-2.5187	-2.7271	-2.6729	-2.6458	-2.8333	124.505	-65.443	195.185	-38.933	53.682	105.784	142.902	-150.929	36.839	-62.988	83.816	-133.323	190.975	-89.866	78.433	-0.292	0.00026893	0.00012386	3.6654e-05	326.78	3.3342e-06	1.6341e-06	445.82	89.523	1.112e-06	2.1789e-06	155.84	69.683	37.026	16.534	3.1858e-06	33.358	0.00019855	0.00018968	5.3112e-05	343.35	2.0804e-06	2.0985e-06	458.37	92.713	2.0667e-06	2.0916e-06	160.9	71.439	38.868	17.057	2.0891e-06	33.95	197.958	45.803	-32.484	-141.323	-40.699	18.492	-142.388	-136.644	-97.942	37.804	-138.366	-135.205	-133.499	-128.806	-73.073	-130.856	-8191	255	
1067.635	1	1	0	0	0.21018	0.19453	0.12998	0.067812	0.12444	0.0473	0.14766	0.019299	0.13993	0.26038	0.077207	0.066104	0.094718	0.23141	0.28773	0.22786	-2.3083	-2.4125	-2.7438	-2.4229	-2.6333	-2.8458	-2.6562	-2.9	-2.6979	-2.6083	-2.7396	-2.7104	-2.65	-2.8333	-2.5896	-2.7438	99.039	158.873	173.851	-144.983	139.954	70.937	-80.677	114.247	162.021	-118.732	164.060	-95.493	-42.732	175.776	136.482	18.822	0.00026781	0.00021854	5.8276e-05	323.62	1.343e-06	3.5808e-06	445.82	88.601	1.1187e-06	1.7569e-06	157.31	69.994	36.971	16.586	4.2636e-07	33.644	0.00020023	0.00018963	5.2759e-05	341.44	2.0784e-06	2.0878e-06	458.32	92.369	2.0833e-06	2.0865e-06	161.43	71.578	38.865	17.102	2.0966e-06	34.114	194.215	-63.611	168.859	-141.501	1.222	-16.587	-141.660	-136.838	-57.045	46.913	-138.400	-134.837	-133.153	-129.146	-69.700	-131.078	-8191	255	
1067.754	1	1	0	0	0.14398	0.16152	0.14574	0.048205	0.13584	0.33503	0.12595	0.063033	0.17394	0.091162	0.12257	0.099152	0.13942	0.11614	0.20141	0.14791	-2.4333	-2.5771	-2.6229	-2.75	-2.4875	-2.875	-2.5563	-2.8271	-2.9271	-2.4542	-2.9208	-2.6583	-2.65	-2.9542	-2.5979	-2.7354	-103.303	151.410	-92.740	-22.739	172.425	-129.564	-137.001	-64.300	116.806	-98.204	-54.481	146.307	-95.698	-125.931	91.475	-150.614	0.0002684	2.1887e-05	0.00012173	321.28	2.2781e-06	2.4061e-06	445.07	88.668	6.5981e-07	4.1014e-06	156.55	69.661	36.942	16.361	2.395e-06	33.192	0.0001962	0.00019211	5.2932e-05	342.45	2.0977e-06	2.0826e-06	457.19	92.471	2.0928e-06	2.116e-06	161.04	71.231	38.693	16.951	2.0741e-06	33.827	198.763	-96.394	-91.652	-141.306	-88.451	78.409	-142.260	-136.255	-42.192	12.614	-138.114	-134.854	-133.635	-128.907	-55.153	-131.263	-8191	255	
1067.850	1	1	0	0	0.050141	0.27864	0.21946	0.099144	0.15434	0.4037	0.33025	0.35316	0.19084	0.20493	0.12026	0.19361	0.23169	0.23302	0.25305	0.086286	-2.1292	-2.5	-2.8021	-2.4667	-2.6896	-2.9792	-2.6063	-2.675	-2.6104	-2.6437	-2.6958	-2.8479	-2.4979	-2.9854	-2.675	-2.6063	75.868	83.654	92.644	-17.177	162.424	-145.794	159.334	102.702	-116.073	178.232	-134.560	-143.243	188.596	-6.709	99.243	-3.180	0.00026502	0.00012546	4.3437e-05	322.17	1.9457e-06	7.0194e-07	443.02	88.178	4.5809e-06	2.4528e-06	155.09	68.552	36.243	16.266	2.999e-06	33.157	0.00019632	0.00019142	5.2565e-05	340.61	2.1019e-06	2.0903e-06	456.79	91.969	2.0777e-06	2.0969e-06	159.73	70.312	38.176	16.795	2.1158e-06	33.717	-154.451	6.138	-50.594	-141.376	5.222	26.384	-142.449	-136.629	-58.006	-16.172	-138.053	-134.747	-133.266	-128.925	-40.162	-131.058	-8191	255	
1067.946	1	1	0	0	0.077672	0.11036	0.19795	0.12499	0.16325	0.12557	0.17253	0.15634	0.082666	0.2133	0.21734	0.094999	0.11651	0.076127	0.073468	0.25047	-2.6437	-2.4729	-2.8229	-2.5771	-2.6354	-2.7542	-2.7854	-2.6875	-2.6542	-2.5187	-2.7562	-2.8625	-2.4583	-2.9771	-2.6813	-2.6667	-64.582	-30.216	98.643	105.696	202.939	-153.507	106.601	-137.222	163.013	-69.991	134.730	-144.993	49.798	-17.116	-109.863	142.589	0.00029597	0.00039785	0.00013645	317.71	1.827e-06	1.8411e-06	441.24	87.371	3.5124e-06	1.8842e-06	154.34	67.972	36.184	16.224	1.1958e-06	33.479	0.00019958	0.00019359	5.387e-05	337.4	2.1268e-06	2.1315e-06	456.89	90.805	2.1102e-06	2.1004e-06	159.13	69.799	37.748	16.809	2.1489e-06	33.969	199.981	25.170	-56.860	-141.134	-79.598	-3.570	-142.309	-136.729	-36.078	36.954	-138.496	-134.618	-133.724	-128.825	138.933	-131.008	-8191	255	
1068.042	1	1	0	0	0.097712	0.12286	0.12052	0.14796	0.085109	0.12333	0.17293	0.27471	0.34164	0.15128	0.12195	0.096441	0.25646	0.097675	0.33099	0.090802	-2.5354	-2.5833	-2.7313	-2.8667	-2.5646	-3.0396	-2.4625	-2.6	-2.9271	-2.4958	-2.7708	-2.9375	-2.6083	-2.7625	-2.7083	-2.6833	-76.478	169.482	185.581	45.202	-138.236	190.193	68.245	125.031	-26.973	162.726	-36.263	93.499	26.617	-37.407	183.392	-76.577	0.00027142	0.00047137	3.1191e-05	320.74	2.034e-06	2.1521e-06	444.91	88.456	8.2429e-07	1.782e-06	156.39	68.814	36.266	16.445	3.3116e-06	33.781	0.00020152	0.00019607	5.4254e-05	340.2	2.1218e-06	2.1501e-06	460.16	91.893	2.1359e-06	2.1629e-06	160.43	70.84	38.154	16.989	2.1624e-06	34.3	200.195	-34.073	95.966	-141.127	-20.951	65.614	-142.275	-136.532	67.550	-17.673	-138.063	-134.894	-133.529	-128.612	29.889	-131.204	-8191	255	
1068.138	1	1	0	0	0.26974	0.13908	0.21502	0.23683	0.31403	0.1958	0.15765	0.22515	0.074674	0.2039	0.19202	0.30519	0.27132	0.048948	0.1559	0.03856	-2.1229	-2.6333	-2.5917	-2.9125	-2.3021	-2.6792	-2.6729	-2.3833	-2.8479	-2.6125	-2.9354	-2.6458	-2.6854	-2.7083	-2.8354	-2.5917	-98.762	-59.853	-72.058	116.434	-109.841	87.903	184.764	61.201	-51.423	179.037	17.645	147.971	-115.802	193.016	-75.882	194.451	0.00030453	0.00044945	9.478e-05	320.58	2.6172e-06	5.2328e-07	448.42	88.325	3.2979e-06	1.4625e-06	156.98	69.445	36.74	16.387	2.1394e-06	33.69	0.00020334	0.00019666	5.4964e-05	342.35	2.1454e-06	2.1309e-06	463.04	91.929	2.1476e-06	2.134e-06	161.2	71.027	38.347	17.018	2.1263e-06	34.228	201.094	27.648	-79.895	-141.708	-32.207	166.550	-142.156	-136.836	-56.875	10.983	-138.241	-134.332	-132.748	-128.827	-9.725	-130.930	-8191	255	
1068.234	1	1	0	0	0.2145	0.088784	0.046558	0.24681	0.17105	0.27793	0.10171	0.10269	0.019166	0.25376	0.12026	0.20028	0.21966	0.28628	0.21867	0.028016	-2.5792	-2.5583	-2.4104	-2.9083	-2.5146	-2.9229	-2.7625	-2.4729	-2.6625	-2.7313	-2.6083	-2.8021	-2.5229	-2.6688	-2.8271	-2.6229	28.924	129.474	84.064	18.099	-7.223	-11.436	-137.547	150.544	-85.467	-30.167	-144.173	-38.598	176.903	-78.629	-53.078	-150.507	0.00028778	0.00026666	3.7507e-05	321.34	2.0618e-06	1.5836e-06	451.47	88.767	3.4416e-06	2.4612e-06	156.49	69.386	36.562	16.435	6.2419e-07	33.559	0.00019983	0.00019322	5.3524e-05	343.32	2.1119e-06	2.1126e-06	462.23	92.347	2.1272e-06	2.0941e-06	161	71.061	38.484	16.958	2.1182e-06	34.157	198.103	-59.998	-12.487	-141.457	-42.065	45.910	-142.051	-136.512	-28.570	21.859	-138.254	-134.741	-133.580	-129.094	-82.070	-130.833	-8191	255	
1068.355	1	1	0	0	0.25031	0.088769	0.095658	0.22615	0.27869	0.22242	0.087238	0.095753	0.084365	0.24386	0.031608	0.31807	0.072818	0.070608	0.17049	0.2237	-2.4604	-2.8354	-2.4417	-2.8354	-2.6688	-2.7396	-2.9354	-2.6292	-2.7438	-2.6625	-2.5146	-2.8354	-2.3083	-2.6646	-2.6958	-2.7125	41.353	-48.895	-16.740	95.200	-26.581	-101.648	181.110	128.417	153.426	14.290	181.917	108.703	167.105	-148.844	-99.065	70.287	0.00030372	0.0001386	2.6627e-05	326.2	3.7754e-06	1.6032e-06	452.95	88.452	1.6968e-06	1.9869e-06	157.12	69.149	36.577	16.602	2.2744e-06	33.585	0.00019727	0.00019101	5.3397e-05	343.03	2.0873e-06	2.0816e-06	462.52	92.58	2.1157e-06	2.1061e-06	161.53	71.128	38.634	17.111	2.1004e-06	34.191	199.752	24.676	-76.199	-141.368	-63.178	60.518	-141.952	-136.819	-24.746	94.726	-138.272	-134.792	-133.279	-128.774	-65.543	-131.106	-8191	255	
1068.451	1	1	0	0	0.024197	0.032871	0.14698	0.11442	0.20667	0.097609	0.24497	0.06196	0.15756	0.12641	0.21336	0.16347	0.23901	0.092469	0.20288	0.23785	-2.2979	-2.4708	-2.5187	-2.8229	-2.7354	-2.6	-2.8667	-2.4521	-2.9125	-2.7687	-2.4062	-2.9333	-2.725	-2.7542	-2.7812	-2.7958	9.418	129.703	196.114	141.359	53.673	-95.847	-59.639	62.805	-150.984	-16.345	103.520	187.990	-143.692	-84.222	8.627	-118.016	0.00025784	0.00023097	5.1244e-05	325.99	1.3049e-06	2.1594e-06	450.39	88.429	1.8086e-06	2.4356e-06	156.58	69.244	36.586	16.437	8.4456e-07	33.63	0.00019886	0.00019089	5.3477e-05	343.98	2.0962e-06	2.1179e-06	463.71	92.563	2.1136e-06	2.1371e-06	161.46	71.191	38.512	17.027	2.1448e-06	34.271	202.079	-97.616	-121.073	-141.231	32.545	24.520	-141.995	-137.151	98.734	-9.786	-138.198	-135.021	-133.074	-128.440	-132.119	-131.277	-8191	255	
1068.547	1	1	0	0	0.080157	0.24722	0.15953	0.11012	0.13912	0.30437	0.040219	0.20754	0.24355	0.074243	0.12236	0.11371	0.19982	0.2436	0.083958	0.076011	-2.3542	-2.5771	-2.6188	-2.7375	-2.9062	-2.6208	-2.8833	-2.6021	-2.6104	-2.8417	-2.6208	-2.6562	-2.775	-2.7542	-2.8229	-2.575	-34.920	151.125	-122.634	126.766	160.614	-131.941	101.970	-72.785	186.643	121.477	193.121	44.393	122.634	143.531	52.086	128.889	0.00024411	0.00011886	1.026e-05	327.47	1.9469e-07	3.7403e-06	451.12	89.347	2.0917e-06	1.6511e-07	157.93	69.75	36.619	16.522	2.5026e-06	33.975	0.00019998	0.00019219	5.3651e-05	346.49	2.0941e-06	2.1085e-06	466.23	93.043	2.1237e-06	2.1002e-06	162.35	71.492	38.575	17.096	2.1271e-06	34.387	194.442	110.962	-14.765	-141.156	15.680	-41.224	-142.271	-136.561	-58.354	196.138	-138.079	-134.630	-133.113	-128.367	-14.678	-131.178	-8191	255	
1068.642	1	1	0	0	0.016112	0.15559	0.18688	0.14991	0.068652	0.16675	0.12313	0.12453	0.21764	0.15775	0.09489	0.31045	0.12021	0.2096	0.082807	0.10178	-2.3979	-2.8396	-2.4875	-2.8937	-2.7125	-2.7167	-2.8937	-2.7917	-2.6479	-3	-2.5187	-2.8604	-2.6667	-2.5792	-3.0708	-2.4958	129.677	47.591	66.661	195.889	47.922	-112.169	56.966	29.886	-119.302	-51.618	20.833	124.100	-86.463	81.721	198.252	-6.616	0.00028023	0.0001067	9.5311e-05	326.51	2.9153e-06	9.0681e-07	451.95	89.48	2.1301e-06	3.9884e-06	157.81	68.751	36.407	16.443	2.7998e-06	33.614	0.00019927	0.00019201	5.4164e-05	345.38	2.0965e-06	2.0981e-06	465.44	92.823	2.1145e-06	2.1256e-06	161.8	70.935	38.448	17.053	2.1459e-06	34.166	200.925	-13.134	-77.037	-141.372	42.106	-8.482	-142.072	-137.000	-98.279	-14.277	-138.277	-134.631	-133.423	-128.830	-146.859	-131.191	-8191	255	
1068.762	1	1	0	0	0.16203	0.17554	0.17513	0.035281	0.03236	0.18247	0.21719	0.09559	0.20755	0.059648	0.10097	0.15715	0.11382	0.27544	0.042061	0.11478	-2.1396	-2.8542	-2.4146	-2.6937	-2.7208	-2.3833	-2.9729	-2.5271	-2.8292	-2.9813	-2.4875	-2.9104	-2.7333	-2.8521	-2.7875	-2.6437	-18.334	-54.666	-66.959	112.235	-98.996	18.145	116.316	174.706	49.267	-123.162	-125.449	127.188	-140.447	194.871	-82.345	78.414	0.00029439	0.00026706	3.4845e-05	325.42	5.898e-07	6.7299e-06	452.75	88.874	1.291e-06	3.5384e-06	157.62	69.525	36.626	16.496	2.3629e-06	33.734	0.00019911	0.00019303	5.3956e-05	346.61	2.1256e-06	2.1416e-06	465.46	92.745	2.1326e-06	2.0995e-06	162	71.148	38.425	17.071	2.1334e-06	34.292	201.434	-13.590	-65.096	-141.039	160.865	9.624	-142.003	-136.499	68.671	-22.484	-138.325	-134.788	-133.271	-128.480	-96.883	-130.820	-8191	255	
1068.834	1	1	0	0	0.3015	0.18157	0.12896	0.20952	0.16822	0.26348	0.067948	0.11177	0.19809	0.081557	0.12548	0.29847	0.33094	0.17625	0.13828	0.1619	-2.2771	-2.8333	-2.6708	-2.75	-2.7188	-2.7958	-2.7396	-2.7	-2.5771	-2.8688	-2.8083	-2.6875	-2.7896	-2.525	-3.05	-2.7729	-48.468	14.027	1.406	-107.374	-10.031	-152.937	188.100	148.232	183.364	66.928	154.250	149.549	128.701	108.289	-74.798	56.254	0.00025507	0.00017508	9.9815e-05	331.44	3.7289e-06	2.75e-06	455.23	89.405	2.7973e-06	9.2546e-07	158.03	69.719	36.866	16.64	2.8294e-06	33.824	0.00020175	0.00019439	5.4034e-05	348.12	2.1548e-06	2.1365e-06	468.33	93.171	2.1504e-06	2.1312e-06	162.99	71.488	38.796	17.195	2.1234e-06	34.552	200.395	191.808	-45.838	-140.736	-17.240	-110.990	-142.506	-136.729	-1.508	-25.799	-138.395	-134.871	-133.129	-128.587	44.086	-131.151	-8191	255	
1068.930	1	1	0	0	0.064049	0.086305	0.043798	0.2299	0.14993	0.090523	0.044047	0.032636	0.1555	0.071197	0.15184	0.044636	0.13787	0.11123	0.086362	0.26779	-2.1875	-2.7333	-2.6521	-2.6	-2.8542	-2.7146	-2.95	-2.9083	-2.3729	-2.8667	-2.6146	-2.6167	-2.8812	-2.5563	-2.6583	-2.7812	-126.988	55.529	-74.837	-117.509	48.147	-31.131	-113.750	57.960	-81.708	5.863	-81.631	-8.914	-33.123	-59.802	10.496	-1.163	0.00026072	0.00026321	0.0001391	330.6	9.8422e-07	2.2757e-06	457.37	89.26	3.6299e-06	3.1521e-06	159.53	70.269	36.771	16.626	2.7977e-06	34.232	0.00020432	0.00019497	5.5174e-05	350.1	2.144e-06	2.175e-06	469.34	93.524	2.1563e-06	2.1548e-06	163.26	72.07	38.792	17.188	2.1479e-06	34.57	191.760	183.633	-151.970	-141.781	-58.784	-29.054	-141.840	-136.772	28.794	13.269	-138.035	-134.655	-133.165	-128.540	-88.967	-130.859	-8191	255	
1069.026	1	1	0	0	0.12945	0.043609	0.10177	0.11715	0.18689	0.16948	0.2902	0.20007	0.27439	0.25699	0.032915	0.037532	0.16992	0.099695	0.22784	0.1796	-2.3563	-2.7521	-2.4333	-2.6188	-2.7292	-2.6917	-2.8271	-2.725	-2.5021	-2.8167	-2.5854	-2.5812	-2.9354	-2.7021	-2.7	-2.7792	67.531	-68.672	-39.858	153.147	-88.747	28.683	118.635	189.830	136.577	28.488	6.616	-63.535	185.647	29.698	36.095	120.719	0.00029273	0.00023934	0.00011215	335.71	3.3934e-06	2.9762e-06	456.57	89.847	1.0982e-06	4.7356e-06	158.22	70.419	37.139	16.631	1.8944e-06	34.029	0.00020246	0.00019434	5.4261e-05	350.33	2.1051e-06	2.1302e-06	469.99	93.57	2.1205e-06	2.1196e-06	162.87	71.937	38.965	17.24	2.1306e-06	34.465	197.015	-94.550	-136.697	-141.249	-9.743	49.846	-142.069	-136.639	-27.185	-39.879	-138.338	-134.685	-133.165	-128.531	-23.354	-131.175	-8191	255	
1069.147	1	1	0	0	0.088189	0.088949	0.1234	0.041608	0.11153	0.12658	0.1369	0.07886	0.09017	0.069562	0.1667	0.1936	0.080592	0.35674	0.15721	0.1258	-1.8479	-2.9375	-2.6437	-2.5604	-2.725	-2.55	-2.7479	-2.725	-2.5646	-2.7771	-2.7292	-2.4938	-2.9688	-2.4583	-2.7896	-2.8458	-31.920	-11.613	133.888	-96.389	72.154	-101.436	-60.337	-144.269	-144.878	37.779	80.067	-151.760	173.138	181.424	-9.962	166.091	0.00027022	0.00023551	0.0001124	329.59	4.6444e-06	3.4596e-06	456.94	90.109	1.2153e-06	1.94e-06	159	70.48	37.326	16.819	2.3922e-06	33.997	0.00020114	0.00019364	5.3766e-05	348.4	2.1086e-06	2.1173e-06	467.57	93.902	2.1022e-06	2.1079e-06	162.94	72.025	39.039	17.292	2.1305e-06	34.502	202.604	189.287	-69.307	-141.393	77.502	-63.382	-142.005	-136.714	-97.851	-65.114	-138.479	-134.968	-133.540	-128.686	19.867	-131.044	-8191	255	
1069.243	1	1	0	0	0.21324	0.31147	0.14525	0.26488	0.15436	0.24955	0.21336	0.090929	0.12427	0.11022	0.23656	0.31571	0.21687	0.16089	0.10911	0.1533	-2.2125	-2.7333	-2.8292	-2.2687	-3.0021	-2.5687	-2.8	-2.8354	-2.5333	-2.7229	-2.9229	-2.6042	-2.825	-2.4	-2.6521	-2.8229	111.185	-0.986	-22.243	193.519	-128.757	90.072	-102.916	95.954	60.606	78.753	25.928	-153.776	175.241	-139.740	92.902	148.088	0.00033923	0.00025979	3.0633e-05	330.32	1.2576e-06	2.3067e-06	454.75	90.109	1.7459e-06	2.1904e-07	159.11	69.937	36.828	16.612	1.6608e-06	33.787	0.00020001	0.00019462	5.3718e-05	348.54	2.117e-06	2.1143e-06	467.51	93.487	2.1079e-06	2.0959e-06	163.2	71.727	38.953	17.203	2.1477e-06	34.476	199.468	-16.967	179.640	-141.486	-15.666	37.691	-142.067	-136.880	-65.802	-0.825	-138.317	-134.863	-133.330	-128.582	-21.989	-131.080	-8191	255	
1069.339	1	1	0	0	0.21449	0.11876	0.098878	0.12122	0.14722	0.25865	0.19815	0.19158	0.071493	0.12939	0.026089	0.18452	0.10487	0.27903	0.14558	0.1806	-2.0625	-2.6396	-2.575	-2.5563	-2.8812	-2.6521	-2.6604	-2.8667	-2.5333	-2.7521	-2.8021	-2.4042	-3	-2.6958	-2.8208	-2.8417	139.053	-76.142	-124.289	157.231	-2.333	-64.707	143.392	178.829	-34.274	84.458	-130.175	184.887	-148.750	178.702	205.175	132.258	0.00028465	0.00028812	0.00010941	326.75	2.1756e-06	1.4408e-06	453.97	89.123	2.9988e-06	2.7746e-06	159.61	70.45	37.06	16.704	5.4752e-07	34.013	0.00020015	0.00019365	5.3082e-05	347.38	2.1202e-06	2.1195e-06	468.04	93.481	2.1376e-06	2.1083e-06	163.58	71.9	38.987	17.287	2.1325e-06	34.622	199.756	-71.150	-69.538	-141.871	-4.215	88.668	-142.213	-136.709	-5.036	98.947	-137.976	-134.683	-133.467	-128.991	146.936	-131.033	-8191	255	
1069.435	1	1	0	0	0.051353	0.25392	0.27165	0.045571	0.1041	0.20015	0.041311	0.25472	0.15262	0.084643	0.11511	0.071587	0.18788	0.20657	0.077388	0.10572	-2.1833	-2.7042	-2.8937	-2.6083	-2.8208	-2.7083	-2.6937	-3.0479	-2.4521	-2.7604	-2.8104	-2.5333	-2.75	-2.8417	-2.5854	-2.9521	102.231	-87.176	53.412	-143.597	-18.079	10.648	-123.280	143.135	116.782	133.470	108.870	-120.640	-143.216	-152.276	186.544	86.510	0.00029911	0.00024301	0.00010262	329.49	2.3871e-06	2.0006e-06	454.15	90.524	3.1e-06	2.9044e-06	158.98	70.167	37.292	16.725	3.1424e-06	34.087	0.00020099	0.00019276	5.3307e-05	348.13	2.1163e-06	2.112e-06	468.63	93.913	2.1073e-06	2.1188e-06	163.16	71.926	39.162	17.279	2.1045e-06	34.544	196.066	15.812	-84.263	-141.267	-11.127	65.054	-142.298	-137.104	-36.134	-56.978	-137.845	-135.134	-133.866	-128.674	-67.270	-131.125	-8191	255	
1069.532	1	1	0	0	0.19548	0.095946	0.24098	0.13566	0.07071	0.20178	0.35307	0.061144	0.034027	0.13888	0.21137	0.071771	0.21487	0.07128	0.1155	0.18654	-2.2583	-2.6729	-3.0292	-2.4125	-2.8521	-2.6646	-2.6229	-2.8625	-2.7812	-2.5375	-2.8229	-2.5896	-2.6333	-2.7854	-2.5	-2.875	82.076	-23.382	34.344	-24.973	184.548	152.848	-39.856	61.043	-133.949	-108.753	-112.481	-77.078	58.308	101.976	191.991	178.878	0.00028087	0.00028367	8.3322e-05	331.32	1.5501e-06	1.3303e-06	456.5	90.454	2.6073e-06	3.2684e-06	159.2	70.191	36.824	16.779	9.2041e-07	33.915	0.00019901	0.00019061	5.3242e-05	349.22	2.1039e-06	2.0852e-06	468.76	93.91	2.0988e-06	2.1022e-06	163.17	72.047	38.934	17.309	2.1159e-06	34.54	196.468	-45.739	-143.430	-141.672	-51.805	-61.021	-142.186	-136.535	12.687	10.125	-138.354	-134.672	-133.689	-128.619	-10.886	-130.756	-8191	255	
1069.628	1	1	0	0	0.10497	0.11529	0.1991	0.13166	0.067403	0.17175	0.34083	0.068437	0.098689	0.14063	0.17363	0.009401	0.16303	0.095974	0.10758	0.22501	-2.2188	-2.6375	-2.7313	-2.5563	-2.7354	-2.9333	-2.5354	-2.6771	-2.6771	-2.6937	-2.7	-2.7375	-2.5479	-2.8333	-2.4104	-2.7812	175.127	193.456	52.802	-16.351	84.853	36.432	191.429	94.150	84.456	-80.821	-136.869	164.640	79.131	35.313	-100.164	-30.520	0.00027688	0.00011889	1.1221e-05	327.63	4.2584e-07	2.0584e-06	455.95	90.186	2.6316e-07	4.6381e-06	159.54	70.123	37.503	16.86	6.6411e-07	34.148	0.00019979	0.00019354	5.3422e-05	348.27	2.1041e-06	2.134e-06	469.38	94.11	2.1306e-06	2.1146e-06	163.99	72.246	39.452	17.418	2.1407e-06	34.829	202.848	54.848	184.232	-141.443	67.758	-87.707	-142.523	-136.807	112.573	-21.472	-138.253	-135.005	-132.972	-129.201	23.932	-131.352	-8191	255	
1069.724	1	1	0	0	0.19456	0.24434	0.010267	0.20122	0.18768	0.077769	0.24509	0.1754	0.37645	0.19816	0.15696	0.20409	0.29291	0.010695	0.1801	0.074342	-2.0354	-2.5104	-2.825	-2.6292	-2.6583	-2.7417	-2.4313	-2.9104	-2.6083	-2.6854	-2.7771	-2.4167	-2.7687	-2.7729	-2.5771	-2.5792	-19.613	-115.442	-70.614	-19.801	-46.523	-34.884	171.984	-117.532	3.223	-77.161	-35.977	42.695	-29.134	127.932	-76.264	-39.876	0.00022076	0.00011105	5.4622e-05	333.05	8.6213e-08	2.0169e-06	455.8	90.42	1.2691e-06	1.5455e-06	161.04	71.429	37.502	17.017	4.1037e-06	34.483	0.00020051	0.00019442	5.3888e-05	350.87	2.1137e-06	2.1012e-06	471.24	94.482	2.1475e-06	2.147e-06	165.16	73.003	39.452	17.511	2.1447e-06	35.032	201.524	-59.809	176.339	-141.545	83.585	-32.361	-142.556	-136.862	-54.461	171.864	-138.259	-134.631	-132.869	-128.817	-40.932	-130.996	-8191	255	
1069.843	1	1	0	0	0.11161	0.23774	0.075191	0.25772	0.092203	0.15363	0.25912	0.153	0.23592	0.19283	0.23915	0.23468	0.14012	0.19284	0.19742	0.24929	-2.1917	-2.4125	-2.7854	-2.5542	-2.6333	-3.0792	-2.3854	-2.7896	-3.0625	-2.425	-2.7583	-2.7792	-2.5708	-2.9333	-2.5208	-2.7708	90.930	122.273	137.254	-42.075	185.563	-63.521	110.805	58.092	120.196	106.912	-68.671	194.734	-108.641	118.145	165.151	-7.759	0.00026335	0.00031529	5.5606e-05	330.01	2.1179e-06	2.852e-06	456.35	90.538	1.475e-06	1.0275e-06	159.85	70.595	37.632	16.795	2.8734e-06	34.053	0.00020577	0.00019583	5.4784e-05	348.9	2.1185e-06	2.1506e-06	469.42	94.256	2.1352e-06	2.1294e-06	164.11	72.437	39.391	17.361	2.139e-06	34.647	-146.763	-92.297	-66.409	-141.505	-19.590	-31.284	-142.210	-136.809	-113.396	-41.507	-138.077	-134.896	-133.475	-128.676	-17.568	-131.057	-8191	255	
1069.939	1	1	0	0	0.26127	0.18806	0.17591	0.056523	0.2023	0.065071	0.21429	0.21199	0.20753	0.17662	0.12977	0.10399	0.20404	0.21202	0.152	0.035224	-2.3333	-2.35	-2.7812	-2.8312	-2.4917	-2.9938	-2.6562	-2.7792	-2.8063	-2.7229	-2.8354	-2.7917	-2.3771	-2.8333	-2.6021	-2.5604	-92.222	90.958	-128.120	-135.477	-75.690	82.800	18.722	173.978	14.247	-128.363	-67.587	54.133	155.956	43.368	-64.358	-126.387	0.00024702	0.00018476	9.26e-05	329.69	1.0373e-06	3.2996e-06	454.73	90.208	1.9686e-06	1.4724e-06	159.25	70.069	37.151	16.729	2.6359e-06	33.866	0.00020069	0.00019384	5.457e-05	347.94	2.1328e-06	2.1394e-06	467.47	93.803	2.1186e-06	2.1396e-06	163.18	71.848	39.136	17.272	2.1593e-06	34.535	199.622	-22.828	-85.696	-142.045	154.791	17.292	-141.677	-136.265	-14.028	81.492	-138.141	-134.878	-133.033	-128.653	55.299	-130.729	-8191	255	
1070.035	1	1	0	0	0.092883	0.24843	0.16545	0.03927	0.19613	0.17452	0.077505	0.078225	0.075058	0.26349	0.33508	0.42763	0.10708	0.17152	0.27787	0.10919	-2.225	-2.5583	-2.7812	-2.7875	-2.4542	-2.8438	-2.55	-2.7104	-2.7646	-2.6292	-2.8187	-2.8771	-2.2583	-2.9437	-2.7125	-2.5667	-100.132	35.425	184.595	168.951	0.387	29.787	-132.767	83.113	-16.551	34.859	103.971	108.240	56.157	92.542	171.226	-75.807	0.00024342	0.00040236	6.9839e-05	331.86	1.8551e-06	1.8423e-06	456.63	90.951	2.8933e-07	7.7228e-07	159.38	70.362	37.414	16.767	1.8101e-06	34.043	0.0002025	0.00019568	5.4148e-05	350.51	2.1354e-06	2.1326e-06	468.7	94.041	2.1424e-06	2.1722e-06	164.08	72.16	39.248	17.327	2.1486e-06	34.633	193.639	-19.224	-46.054	-141.231	-40.333	-70.991	-142.153	-136.598	167.611	-24.209	-138.285	-134.837	-133.122	-129.155	-6.505	-131.058	-8191	255	
1070.131	1	1	0	0	0.30117	0.090415	0.1939	0.077793	0.13251	0.18705	0.2145	0.10716	0.089566	0.18855	0.13719	0.077932	0.081548	0.12752	0.22711	0.055968	-2.425	-2.4479	-2.6854	-2.5375	-2.4958	-2.7542	-2.7687	-2.5021	-2.6667	-2.375	-2.8146	-2.7687	-2.4188	-2.7292	-2.6896	-2.6312	95.768	196.499	-136.755	-151.224	103.892	101.023	153.924	-35.983	2.450	-49.312	-138.669	5.598	-120.790	148.480	99.018	-44.385	0.00028966	0.00034868	0.00015483	329.68	2.9563e-06	3.2073e-06	459.08	90.11	3.759e-06	3.626e-06	159.79	70.444	37.517	16.738	1.083e-06	33.967	0.00019813	0.00019486	5.3855e-05	348.41	2.1304e-06	2.1009e-06	471	94.187	2.1086e-06	2.1475e-06	164.5	72.274	39.187	17.335	2.1411e-06	34.601	198.811	-64.307	-68.176	-141.792	-25.406	29.450	-142.196	-136.843	-78.797	-44.180	-138.187	-134.819	-133.046	-129.003	57.952	-130.952	-8191	255	
1070.227	1	1	0	0	0.19854	0.12691	0.16035	0.19575	0.35837	0.1942	0.041544	0.13309	0.17691	0.17779	0.14128	0.18683	0.11818	0.13635	0.16718	0.26644	-2.4708	-2.2521	-2.75	-2.7479	-2.6021	-2.7521	-2.5438	-2.4417	-2.8187	-2.7333	-2.6229	-2.9729	-2.4958	-2.8229	-2.8021	-2.5667	140.572	55.011	126.881	6.443	25.227	11.810	-101.478	136.402	58.500	-29.407	130.564	-107.525	192.453	114.815	-125.811	-122.692	0.0002917	0.00030566	7.4627e-05	328.11	2.9348e-06	8.5233e-07	457.16	89.422	4.0519e-06	2.5817e-06	159.35	69.918	37.462	16.724	3.1603e-06	33.789	0.00020177	0.00019562	5.4669e-05	349	2.1321e-06	2.1732e-06	470.31	93.791	2.1534e-06	2.1466e-06	163.55	71.903	39.094	17.236	2.1348e-06	34.366	197.312	-80.539	82.217	-141.826	-29.018	202.989	-142.375	-136.593	-68.020	-79.892	-138.134	-134.567	-133.944	-128.825	-42.330	-131.089	-8191	255	
1070.323	1	1	0	0	0.23309	0.23801	0.16803	0.18456	0.080102	0.049939	0.035	0.059642	0.2479	0.089602	0.15489	0.1033	0.19168	0.21771	0.18842	0.29769	-2.4062	-2.4938	-2.6688	-3.0771	-2.3896	-3.0438	-2.6542	-2.6167	-2.7083	-2.6917	-2.6354	-2.8854	-2.4458	-2.6375	-2.7	-2.5042	-40.348	105.965	-5.370	-40.706	109.943	4.527	158.891	56.473	138.503	-109.408	99.970	48.303	-47.679	156.324	-131.269	136.589	0.00023627	0.00026143	0.00015691	327.51	2.4833e-06	3.408e-06	458.4	89.967	6.5645e-07	7.583e-07	158.63	69.32	36.883	16.677	3.1541e-06	33.626	0.0001979	0.00019206	5.3747e-05	348.84	2.128e-06	2.0883e-06	468.76	93.625	2.1175e-06	2.1303e-06	162.7	71.313	38.709	17.12	2.1251e-06	34.149	-154.858	-60.357	-79.543	-141.512	-78.263	-59.181	-142.057	-137.175	8.713	54.976	-138.305	-134.744	-133.194	-128.730	-55.656	-131.103	-8191	255	
1070.444	1	1	0	0	0.18974	0.2702	0.29792	0.1756	0.21356	0.16478	0.14752	0.15146	0.14416	0.091228	0.090267	0.19716	0.15274	0.071391	0.062749	0.21961	-2.2896	-2.5208	-2.4604	-2.9083	-2.5021	-2.8896	-2.9604	-2.5208	-2.6813	-2.525	-2.7062	-2.9125	-2.6021	-2.5833	-2.7479	-2.4458	-93.910	-108.472	61.241	88.564	97.571	189.347	82.505	147.474	-60.690	59.147	-149.762	138.466	155.592	-100.725	110.326	-85.542	0.00026885	0.00028756	6.1268e-05	330.49	3.8477e-06	1.7901e-06	454.26	88.996	2.3945e-06	2.2898e-06	158.75	69.072	36.283	16.494	3.6354e-06	33.625	0.00019846	0.00019236	5.3906e-05	348.64	2.107e-06	2.1133e-06	466.68	92.784	2.1285e-06	2.0959e-06	162.09	71.077	38.385	17.06	2.1508e-06	34.197	197.244	-1.776	-38.547	-141.433	-6.591	55.171	-142.336	-136.611	98.708	51.106	-138.092	-134.957	-133.659	-128.685	14.182	-131.123	-8191	255	
1070.538	1	1	0	0	0.055408	0.083109	0.12705	0.053255	0.10034	0.1335	0.12408	0.058378	0.25782	0.10668	0.37733	0.022189	0.28036	0.26422	0.20531	0.29056	-2.3208	-2.6542	-2.4708	-2.9188	-2.65	-2.6188	-2.95	-2.6479	-2.7333	-2.9667	-2.3854	-2.95	-2.5854	-2.6729	-2.9042	-2.6042	-1.106	-108.066	72.809	169.506	-119.927	-1.959	176.658	-48.270	180.026	127.262	204.823	-55.567	201.379	104.746	65.027	141.745	0.00030214	0.00039174	4.1149e-05	327.57	1.9065e-06	4.1533e-06	456.89	90.148	3.0936e-06	3.3093e-06	158.95	69.956	36.914	16.602	1.3732e-06	34.033	0.00020106	0.00019331	5.3795e-05	347.6	2.139e-06	2.1393e-06	468.31	93.225	2.1375e-06	2.1195e-06	163.31	71.622	38.762	17.114	2.1609e-06	34.545	-149.434	-75.339	-28.955	-140.998	16.275	-22.125	-142.472	-136.964	-92.574	11.582	-138.229	-134.927	-133.358	-129.005	-40.093	-130.727	-8191	255	
1070.635	1	1	0	0	0.13414	0.055333	0.31072	0.12639	0.10543	0.058849	0.29667	0.089414	0.27155	0.16558	0.16171	0.076805	0.13642	0.062601	0.20753	0.3854	-2.2042	-2.6562	-2.3208	-2.9	-2.4917	-2.6583	-2.95	-2.4271	-2.8125	-2.7188	-2.5146	-2.7229	-2.6042	-2.6937	-2.8792	-2.75	16.868	69.397	-75.470	201.326	-39.715	11.206	179.131	-117.430	134.232	159.240	70.480	140.803	174.442	-71.523	-105.444	182.824	0.00024869	0.00017049	7.1912e-05	329.64	2.8969e-06	4.189e-06	458.01	90.283	1.6023e-06	3.2417e-06	160.32	70.717	37.764	16.801	2.3203e-06	33.947	0.00020198	0.00019374	5.5019e-05	349.4	2.1148e-06	2.1235e-06	471.22	94.068	2.1589e-06	2.1526e-06	164.4	72.307	39.346	17.313	2.1454e-06	34.536	202.960	-46.510	175.639	-141.549	82.362	-12.833	-142.351	-136.718	-72.137	33.080	-138.151	-134.843	-133.511	-129.093	-99.371	-131.088	-8191	255	
1070.708	1	1	0	0	0.20672	0.15895	0.29516	0.022904	0.22744	0.35212	0.16667	0.1688	0.11256	0.19846	0.09823	0.14785	0.11176	0.22723	0.30129	0.26386	-2.1396	-2.8	-2.3958	-2.8917	-2.5	-2.5917	-2.8583	-2.4417	-2.6813	-2.7042	-2.6375	-2.9417	-2.6542	-2.5792	-2.6688	-2.5729	-66.015	-28.871	-40.758	-84.887	59.326	-89.101	46.453	-153.940	101.685	131.254	99.454	-67.551	-121.880	-139.773	77.839	88.785	0.00029797	0.00059877	5.0899e-05	337.96	2.0304e-06	1.8253e-06	462.73	90.451	9.6622e-07	5.0767e-06	161.58	71.294	37.698	16.978	3.3222e-06	34.088	0.00020191	0.00019481	5.4404e-05	353.7	2.1303e-06	2.1163e-06	472.98	94.618	2.0934e-06	2.1124e-06	165.14	72.861	39.611	17.48	2.1133e-06	34.748	196.614	-8.247	9.323	-141.770	36.478	145.039	-141.922	-137.029	48.802	101.676	-138.353	-134.878	-133.069	-128.976	9.967	-131.390	-8191	255	
1070.829	1	1	0	0	0.26413	0.2746	0.19198	0.28667	0.18652	0.16544	0.065726	0.17394	0.051062	0.30424	0.30814	0.25523	0.20371	0.058577	0.088009	0.355	-2.1604	-2.7083	-2.4708	-2.7417	-2.6188	-2.5438	-2.8563	-2.4813	-2.7375	-2.7875	-2.3833	-2.7042	-2.65	-2.6	-2.7521	-2.6396	40.014	34.865	69.805	60.681	54.343	41.413	186.396	84.467	-42.661	-29.414	171.919	-132.921	67.281	22.613	-0.822	121.680	0.00023476	0.00013773	8.3169e-05	332.48	3.2284e-06	3.7704e-06	462.34	91.205	4.5612e-06	1.1639e-06	161.85	71.611	38.291	16.994	3.8804e-06	34.372	0.00019919	0.00019307	5.4316e-05	351.63	2.1278e-06	2.14e-06	473.5	95.065	2.1521e-06	2.1067e-06	165.75	73.452	40.105	17.561	2.1658e-06	34.934	190.518	8.487	-92.247	-141.697	-37.788	-129.526	-142.479	-136.710	-70.632	159.403	-138.593	-134.838	-132.930	-128.494	-58.598	-131.257	-8191	255	
1070.923	1	1	0	0	0.19644	0.26026	0.21363	0.21949	0.044253	0.057633	0.30684	0.16832	0.078448	0.21376	0.22509	0.25874	0.099724	0.064334	0.051089	0.092991	-2.1583	-2.7188	-2.5187	-2.7938	-2.8667	-2.5729	-2.9604	-2.5542	-2.675	-3.0042	-2.6104	-2.6521	-2.7458	-2.2917	-2.7958	-2.6021	51.177	-25.910	1.616	57.728	-51.778	54.654	183.481	-124.460	-79.323	138.160	55.536	155.281	-49.412	-97.751	-96.020	136.194	0.00024844	0.00026343	0.00014035	334.92	3.1854e-06	3.511e-06	463.8	92.581	2.8702e-06	1.5352e-06	163.47	71.707	38.495	17.136	1.7613e-06	34.64	0.00020335	0.00019475	5.5023e-05	353.53	2.1311e-06	2.1288e-06	476.52	96.163	2.1465e-06	2.1683e-06	167.77	73.899	40.223	17.66	2.1658e-06	35.177	-153.991	6.321	36.756	-141.800	-16.216	-55.975	-142.205	-136.535	-60.961	17.747	-138.280	-134.686	-133.424	-128.340	44.525	-131.040	-8191	255	
1071.019	1	1	0	0	0.065505	0.21119	0.13006	0.12839	0.18713	0.11213	0.19415	0.10093	0.080004	0.11012	0.25369	0.16885	0.15827	0.13387	0.088185	0.093756	-2.2729	-2.7875	-2.5417	-2.7104	-2.9333	-2.5354	-2.9021	-2.5896	-2.4208	-2.95	-2.7	-2.7458	-2.9396	-2.4729	-2.5479	-2.7229	-10.475	-102.962	145.064	90.124	31.402	-148.929	-87.211	96.712	129.679	97.436	160.501	-76.412	11.733	89.290	3.031	-82.474	0.00028394	0.00030376	3.4873e-05	338.23	1.9307e-06	3.4642e-06	465.44	92.866	4.0764e-06	3.5036e-06	163.62	72.304	38.309	17.155	3.9983e-06	34.922	0.00020302	0.00019725	5.5068e-05	356.44	2.1385e-06	2.1541e-06	478.83	96.359	2.13e-06	2.1611e-06	167.88	74.046	40.267	17.712	2.1716e-06	35.349	201.812	-119.895	-48.730	-141.376	38.657	41.781	-142.326	-136.655	-16.963	10.693	-138.434	-134.752	-133.584	-128.647	-32.848	-130.843	-8191	255	
1071.115	1	1	0	0	0.11319	0.076192	0.082864	0.21837	0.24413	0.20625	0.064428	0.18957	0.19117	0.22874	0.15302	0.19663	0.039378	0.24421	0.15238	0.10485	-2.0667	-2.9417	-2.7958	-2.5458	-2.9208	-2.6917	-2.6771	-2.5833	-2.6312	-2.8375	-2.8229	-2.6042	-2.8604	-2.5875	-2.7438	-2.8146	156.990	113.051	59.969	-22.836	11.363	142.618	175.620	-24.719	141.647	128.596	150.478	-89.339	83.117	82.260	203.762	-41.091	0.000233	0.00033245	0.00012792	336.37	3.4586e-06	2.8987e-06	463.58	92.21	3.5879e-06	2.712e-06	164.13	72.364	38.418	17.129	1.2212e-06	34.443	0.00020426	0.00019753	5.5239e-05	355.75	2.1399e-06	2.1529e-06	478	96.289	2.1672e-06	2.1512e-06	168.1	74.085	40.295	17.777	2.1688e-06	35.162	194.609	-13.666	-14.985	-141.328	42.003	-26.712	-142.234	-136.957	-1.127	19.031	-138.407	-134.775	-133.595	-129.175	15.271	-131.077	-8191	255	
1071.236	1	1	0	0	0.12269	0.024193	0.25131	0.17918	0.15035	0.37935	0.097811	0.23513	0.25218	0.095219	0.14163	0.10863	0.10115	0.18636	0.15665	0.031691	-2.0292	-2.9229	-2.5354	-2.5417	-2.9917	-2.5396	-2.7583	-2.625	-2.5187	-2.8479	-2.7062	-2.4917	-2.7854	-2.5792	-2.6917	-2.7958	76.991	73.373	-112.421	-107.556	-2.546	44.342	121.239	170.012	15.633	31.687	96.154	-19.415	178.400	-102.482	124.798	114.768	0.00030139	0.00033812	9.1484e-05	340.03	3.5733e-06	4.2574e-06	468.23	93.632	2.7417e-06	2.3895e-06	164.86	73.141	38.967	17.316	3.3038e-06	34.667	0.00020402	0.00019786	5.5778e-05	358.87	2.1626e-06	2.1678e-06	480.22	97.169	2.187e-06	2.1711e-06	168.82	74.722	40.746	17.881	2.1648e-06	35.309	199.869	-97.454	-72.402	-141.455	-72.335	13.091	-142.228	-136.814	24.555	-2.406	-138.453	-134.787	-133.278	-128.671	41.224	-131.240	-8191	255	
1071.308	1	1	0	0	0.14811	0.014142	0.20571	0.12812	0.12687	0.19746	0.042993	0.10575	0.27253	0.11023	0.33148	0.10669	0.067789	0.36307	0.22096	0.21928	-2.1708	-2.7708	-2.6333	-2.6063	-2.9938	-2.6417	-2.9667	-2.8187	-2.5479	-2.9833	-2.6854	-2.7917	-2.9437	-2.6458	-2.6375	-2.85	-10.214	0.886	113.605	63.716	70.573	-38.225	117.442	-125.177	10.989	47.519	102.072	-111.965	27.813	138.055	5.860	180.067	0.00023697	0.00027256	2.0767e-05	341.08	3.7214e-06	2.5565e-06	469.73	93.625	2.5425e-06	3.1196e-06	166.2	73.613	39.286	17.596	2.2606e-06	34.917	0.00020334	0.00019713	5.4699e-05	359.24	2.1291e-06	2.1334e-06	482.58	97.855	2.1209e-06	2.1347e-06	170.44	75.56	41.173	18.019	2.1263e-06	35.559	193.095	-92.893	-119.579	-141.782	33.768	-134.590	-142.060	-136.602	-58.313	14.767	-138.013	-134.941	-133.313	-128.835	-64.009	-131.360	-8191	255	
1071.404	1	1	0	0	0.048826	0.13636	0.085439	0.052019	0.078437	0.035242	0.030533	0.087903	0.051876	0.12371	0.09004	0.095793	0.22503	0.082679	0.23808	0.18272	-2.0187	-2.8896	-2.5729	-2.3271	-2.8146	-2.7833	-2.6521	-2.9458	-2.5938	-2.6271	-2.7646	-2.4583	-2.8625	-2.7896	-2.6396	-2.8854	161.735	59.412	-66.468	-23.547	148.016	-9.543	110.357	55.364	131.710	153.577	114.709	7.710	-117.827	-61.552	-45.983	160.864	0.00027571	0.00041088	0.00010685	341.16	2.9117e-07	6.204e-06	472.06	94.107	6.9208e-07	3.4811e-06	167.64	74.099	39.614	17.564	3.0419e-06	35.044	0.00020345	0.00019756	5.4902e-05	360.48	2.1133e-06	2.1547e-06	483.3	97.986	2.1636e-06	2.1555e-06	170.98	75.728	41.387	18.066	2.1354e-06	35.528	200.610	-47.863	-86.016	-141.462	37.897	-18.573	-142.058	-137.056	-106.739	65.847	-138.324	-134.793	-133.845	-128.741	26.470	-131.255	-8191	255	
1071.524	1	1	0	0	0.12979	0.11939	0.095012	0.078163	0.15541	0.097414	0.2012	0.06611	0.46199	0.08208	0.16184	0.090898	0.21099	0.084234	0.15751	0.17462	-2.2208	-2.7167	-2.75	-2.5604	-2.7833	-2.6667	-2.725	-2.9417	-2.6125	-2.7604	-2.7708	-2.5354	-3.0271	-2.6354	-2.6042	-2.8854	204.863	150.455	-15.888	172.329	-147.856	5.327	95.712	179.875	10.578	194.360	23.921	155.237	-101.860	-142.771	180.761	-118.049	0.00030314	0.00013925	6.2746e-05	341.27	7.3711e-07	2.6766e-06	470.34	93.805	2.3113e-06	2.8251e-06	166.5	73.517	39.086	17.448	2.8772e-06	34.92	0.00020218	0.00019606	5.4823e-05	359.87	2.1539e-06	2.1342e-06	483.33	97.791	2.1576e-06	2.1244e-06	170.36	75.233	41.052	17.998	2.1475e-06	35.417	201.847	-58.748	10.565	-141.170	61.845	-12.832	-141.738	-136.659	28.924	-29.563	-138.247	-134.800	-133.887	-128.776	-55.539	-130.953	-8191	255	
1071.621	1	1	0	0	0.16425	0.11822	0.22235	0.26048	0.069432	0.31639	0.081452	0.14156	0.24374	0.072033	0.22115	0.094149	0.16865	0.15191	0.23427	0.16119	-2.1958	-2.8146	-2.875	-2.6667	-2.8146	-2.5375	-2.65	-2.725	-2.7083	-2.775	-3.0583	-2.5833	-2.8104	-2.6688	-2.5583	-2.7208	180.766	83.593	80.731	82.519	189.064	176.807	69.451	-49.234	35.147	-126.470	-123.006	-125.512	16.489	-101.773	56.409	-83.942	0.000273	0.00012415	3.7202e-05	340.89	1.6939e-06	2.4024e-06	473.28	94.869	1.7287e-06	1.8822e-06	166.68	73.801	39.679	17.532	1.4974e-06	35.187	0.00020224	0.00019657	5.4143e-05	360.12	2.1467e-06	2.1482e-06	484.54	98.212	2.1511e-06	2.1455e-06	170.7	75.606	41.357	18.063	2.1933e-06	35.672	199.710	-54.797	-47.104	-141.957	81.020	63.815	-142.155	-136.890	9.732	-45.578	-138.551	-134.947	-133.112	-128.982	-14.001	-130.982	-8191	255	
1071.717	1	1	0	0	0.087319	0.19172	0.058018	0.072646	0.29289	0.29799	0.033838	0.15125	0.2305	0.16111	0.25442	0.10558	0.24579	0.11871	0.15424	0.10657	-2.0729	-2.6333	-2.8812	-2.3125	-2.7938	-2.7771	-2.5563	-2.8771	-2.6229	-2.8042	-2.8479	-2.6708	-2.6354	-2.6646	-2.6146	-3.1479	18.280	-132.578	-113.921	-69.298	-103.971	70.223	-140.026	-133.396	-17.019	29.902	-92.157	-140.952	138.060	73.543	84.387	-95.778	0.00029147	0.00025329	1.4833e-05	342.93	4.8401e-06	2.1854e-07	469.89	95.164	4.6458e-06	1.374e-06	167.27	74.051	39.489	17.606	3.523e-06	35.13	0.00020495	0.00019752	5.5142e-05	362.1	2.1611e-06	2.1453e-06	485.38	98.553	2.1663e-06	2.1468e-06	171.58	75.802	41.471	18.177	2.2025e-06	35.752	200.903	-124.652	-109.686	-142.002	-54.608	-153.985	-142.410	-136.935	-25.649	-67.565	-138.528	-134.863	-133.221	-128.938	5.277	-131.080	-8191	255	
1071.836	1	1	0	0	0.17964	0.10052	0.13879	0.32706	0.2358	0.018499	0.116	0.07426	0.14324	0.089124	0.011619	0.14377	0.25897	0.25945	0.1571	0.2767	-2.2188	-2.4938	-2.8521	-2.6958	-2.6604	-2.8792	-2.7396	-2.7646	-2.5917	-2.7667	-2.8896	-2.8208	-2.7083	-2.8333	-2.5771	-2.8312	-29.698	90.782	204.546	186.654	110.362	6.497	69.850	-141.428	191.984	-57.581	61.580	202.296	188.773	-110.904	-73.643	-97.339	0.0002797	0.00018919	4.2032e-05	343.87	1.3837e-06	6.1248e-06	474.23	94.923	2.9292e-07	2.8124e-06	167.68	74.656	39.559	17.607	4.0184e-06	35.339	0.00020291	0.00019822	5.515e-05	364.17	2.1644e-06	2.1513e-06	487.27	98.879	2.1424e-06	2.1655e-06	171.99	76.225	41.547	18.214	2.1947e-06	35.831	200.671	13.286	-74.733	-141.824	8.890	-12.255	-142.006	-136.758	93.945	29.462	-138.267	-135.180	-133.516	-128.975	-18.928	-131.090	-8191	255	
1071.932	1	1	0	0	0.35735	0.14129	0.36745	0.15302	0.13704	0.24924	0.13527	0.075713	0.14724	0.38758	0.30132	0.13378	0.074802	0.18028	0.20658	0.093156	-2.3979	-2.6146	-2.6354	-2.6458	-2.4188	-2.9875	-2.4042	-2.725	-2.75	-2.5167	-3.0354	-2.5646	-2.6625	-2.6875	-2.6042	-2.7562	161.207	-63.196	192.395	-108.168	115.121	-140.842	-68.621	-138.840	-120.063	-63.204	140.075	172.531	-46.100	-117.284	-72.696	104.061	0.00029959	0.00032806	7.6777e-05	347.29	2.8012e-06	2.9155e-06	473.31	94.964	3.595e-06	1.5752e-06	166.97	74.371	39.993	17.667	1.0303e-06	35.005	0.00020651	0.0001974	5.5352e-05	362.21	2.1462e-06	2.1435e-06	486.1	98.961	2.1643e-06	2.1601e-06	171.61	76.043	41.708	18.246	2.1477e-06	35.687	194.066	86.696	-65.042	-140.987	32.277	-41.786	-142.238	-136.711	-68.724	152.379	-138.469	-134.792	-133.066	-129.057	31.642	-131.038	-8191	255	
1072.003	1	1	0	0	0.029059	0.22952	0.2473	0.077692	0.054487	0.28915	0.10135	0.074562	0.13114	0.17151	0.15694	0.20563	0.12085	0.18446	0.087217	0.26168	-2.3417	-2.5292	-2.7708	-2.8292	-2.5104	-3.0563	-2.6021	-2.7812	-2.7354	-2.5187	-2.9521	-2.6917	-2.8312	-2.9958	-2.6	-2.7792	65.525	3.423	128.156	110.819	119.023	139.805	-35.801	64.306	-64.777	144.148	128.781	132.266	-33.111	-115.201	-41.112	-24.152	0.00027344	0.00025444	6.4198e-05	343.53	1.552e-06	3.6384e-06	470.38	94.821	3.6748e-06	3.2555e-06	167.71	74.446	39.817	17.689	3.8645e-06	35.108	0.00020545	0.00019722	5.459e-05	363.28	2.1355e-06	2.1666e-06	486.07	99.059	2.1609e-06	2.1628e-06	171.93	76.121	41.654	18.246	2.1886e-06	35.754	191.420	121.685	204.218	-141.363	-77.884	34.673	-142.413	-136.912	-29.571	-27.520	-138.637	-134.752	-133.403	-129.169	-79.834	-130.902	-8191	255	
#DATA ENDS
