BOXY.EXE: ISS Imagent and Oximeter Data Acquisition Program Version 0.80
Ascii Record File

#ACQ INFORMATION
2  Detector Channels 
16  External MUX Channels 
1  Auxiliary Channels 
5000  Waveform (CCF) Frequency (Hz)
1  Waveforms Skipped 
30  Waveforms Averaged 
1  Cycles Averaged 
16  Acquisitions per Waveform 
10.0806  Updata Rate (Hz) 

#FILE INFORMATION
TRUE -- External MUX Channel results are PARSED.
FALSE -- AC DC and Phase are NOT grouped.
TRUE -- Companion Program Settings File CREATED.
FALSE -- AC data not excluded
FALSE -- DC data not excluded
FALSE -- Phase data not excluded
FALSE -- Auxillary Chn. data not excluded
Tab delimiters

#CALIBRATION STATE
TRUE -- Waveform Calibration Values APPLIED.


#AUX CALIBRATION VALUES
Val Type	aux-1	

Term	1.0000e+00	
Factor	0.0000e+00	


#WF CALIBRATION VALUES
A = Detector Channel
Val Type	A-AC1	A-AC2	A-AC3	A-AC4	A-AC5	A-AC6	A-AC7	A-AC8	A-AC9	A-AC10	A-AC11	A-AC12	A-AC13	A-AC14	A-AC15	A-AC16	A-DC1	A-DC2	A-DC3	A-DC4	A-DC5	A-DC6	A-DC7	A-DC8	A-DC9	A-DC10	A-DC11	A-DC12	A-DC13	A-DC14	A-DC15	A-DC16	A-Ph1	A-Ph2	A-Ph3	A-Ph4	A-Ph5	A-Ph6	A-Ph7	A-Ph8	A-Ph9	A-Ph10	A-Ph11	A-Ph12	A-Ph13	A-Ph14	A-Ph15	A-Ph16	

Term	0.00000e+00	0.00000e+00	0.00000e+00	0.00000e+00	0.00000e+00	0.00000e+00	0.00000e+00	0.00000e+00	0.00000e+00	0.00000e+00	0.00000e+00	0.00000e+00	0.00000e+00	0.00000e+00	0.00000e+00	0.00000e+00	0.00000e+00	0.00000e+00	0.00000e+00	0.00000e+00	0.00000e+00	0.00000e+00	0.00000e+00	0.00000e+00	0.00000e+00	0.00000e+00	0.00000e+00	0.00000e+00	0.00000e+00	0.00000e+00	0.00000e+00	0.00000e+00	0.00000e+00	0.00000e+00	0.00000e+00	0.00000e+00	0.00000e+00	0.00000e+00	0.00000e+00	0.00000e+00	0.00000e+00	0.00000e+00	0.00000e+00	0.00000e+00	0.00000e+00	0.00000e+00	0.00000e+00	0.00000e+00	
Factor	1.00000e+00	1.00000e+00	1.00000e+00	1.00000e+00	1.00000e+00	1.00000e+00	1.00000e+00	1.00000e+00	1.00000e+00	1.00000e+00	1.00000e+00	1.00000e+00	1.00000e+00	1.00000e+00	1.00000e+00	1.00000e+00	1.00000e+00	1.00000e+00	1.00000e+00	1.00000e+00	1.00000e+00	1.00000e+00	1.00000e+00	1.00000e+00	1.00000e+00	1.00000e+00	1.00000e+00	1.00000e+00	1.00000e+00	1.00000e+00	1.00000e+00	1.00000e+00	X	X	X	X	X	X	X	X	X	X	X	X	X	X	X	X	

B = Detector Channel
Val Type	B-AC1	B-AC2	B-AC3	B-AC4	B-AC5	B-AC6	B-AC7	B-AC8	B-AC9	B-AC10	B-AC11	B-AC12	B-AC13	B-AC14	B-AC15	B-AC16	B-DC1	B-DC2	B-DC3	B-DC4	B-DC5	B-DC6	B-DC7	B-DC8	B-DC9	B-DC10	B-DC11	B-DC12	B-DC13	B-DC14	B-DC15	B-DC16	B-Ph1	B-Ph2	B-Ph3	B-Ph4	B-Ph5	B-Ph6	B-Ph7	B-Ph8	B-Ph9	B-Ph10	B-Ph11	B-Ph12	B-Ph13	B-Ph14	B-Ph15	B-Ph16	

Term	0.00000e+00	0.00000e+00	0.00000e+00	0.00000e+00	0.00000e+00	0.00000e+00	0.00000e+00	0.00000e+00	0.00000e+00	0.00000e+00	0.00000e+00	0.00000e+00	0.00000e+00	0.00000e+00	0.00000e+00	0.00000e+00	0.00000e+00	0.00000e+00	0.00000e+00	0.00000e+00	0.00000e+00	0.00000e+00	0.00000e+00	0.00000e+00	0.00000e+00	0.00000e+00	0.00000e+00	0.00000e+00	0.00000e+00	0.00000e+00	0.00000e+00	0.00000e+00	-1.29269e+02	-1.13631e+02	-1.35870e+02	-1.84844e+02	-7.69806e+01	-6.34246e+01	-1.60653e+02	-1.62015e+02	-8.22226e+01	-6.09229e+01	-1.72187e+02	-1.71626e+02	-1.83109e+02	-1.76791e+02	-6.82363e+01	-1.50157e+02	
Factor	1.61315e-05	1.31639e-04	3.54998e-05	4.91269e-01	1.07434e-06	1.37095e-06	1.84658e-01	4.54119e-02	1.02773e-06	1.19378e-06	8.37172e-02	3.01029e-02	3.50082e-02	8.20948e-03	1.09933e-06	1.21748e-02	1.13921e-06	1.19064e-06	3.31616e-07	2.32299e-01	1.30170e-08	1.30308e-08	8.60883e-02	2.28097e-02	1.29813e-08	1.30694e-08	4.01028e-02	1.44691e-02	1.71056e-02	4.09484e-03	1.30663e-08	5.83849e-03	X	X	X	X	X	X	X	X	X	X	X	X	X	X	X	X	



#DISTANCE SETTINGS
A = Detector Channel
A-1	A-2	A-3	A-4	A-5	A-6	A-7	A-8	A-9	A-10	A-11	A-12	A-13	A-14	A-15	A-16	

2.5000e+00	3.0000e+00	2.5000e+00	3.0000e+00	2.0000e+00	3.0000e+00	1.5000e+00	3.0000e+00	3.0000e+00	3.0000e+00	3.0000e+00	3.0000e+00	3.0000e+00	3.0000e+00	1.5000e+00	3.0000e+00	

B = Detector Channel
B-1	B-2	B-3	B-4	B-5	B-6	B-7	B-8	B-9	B-10	B-11	B-12	B-13	B-14	B-15	B-16	

1.0000e+01	1.0000e+01	1.0000e+01	1.4400e+00	1.0000e+01	1.0000e+01	1.5100e+00	1.9400e+00	1.0000e+01	1.0000e+01	1.9900e+00	2.4900e+00	2.4100e+00	2.9000e+00	1.0000e+01	2.9800e+00	




#DATA BEGINS
time	group	step	mark	flag	A-AC1	A-AC2	A-AC3	A-AC4	A-AC5	A-AC6	A-AC7	A-AC8	A-AC9	A-AC10	A-AC11	A-AC12	A-AC13	A-AC14	A-AC15	A-AC16	A-DC1	A-DC2	A-DC3	A-DC4	A-DC5	A-DC6	A-DC7	A-DC8	A-DC9	A-DC10	A-DC11	A-DC12	A-DC13	A-DC14	A-DC15	A-DC16	A-Ph1	A-Ph2	A-Ph3	A-Ph4	A-Ph5	A-Ph6	A-Ph7	A-Ph8	A-Ph9	A-Ph10	A-Ph11	A-Ph12	A-Ph13	A-Ph14	A-Ph15	A-Ph16	B-AC1	B-AC2	B-AC3	B-AC4	B-AC5	B-AC6	B-AC7	B-AC8	B-AC9	B-AC10	B-AC11	B-AC12	B-AC13	B-AC14	B-AC15	B-AC16	B-DC1	B-DC2	B-DC3	B-DC4	B-DC5	B-DC6	B-DC7	B-DC8	B-DC9	B-DC10	B-DC11	B-DC12	B-DC13	B-DC14	B-DC15	B-DC16	B-Ph1	B-Ph2	B-Ph3	B-Ph4	B-Ph5	B-Ph6	B-Ph7	B-Ph8	B-Ph9	B-Ph10	B-Ph11	B-Ph12	B-Ph13	B-Ph14	B-Ph15	B-Ph16	aux-1	digaux	

835.255	1	1	0	256	0.10834	0.15802	0.1588	0.018622	0.17527	0.050178	0.075993	0.29533	0.13456	0.19148	0.36524	0.25942	0.09103	0.14947	0.18435	0.083145	-2.5271	-3.0833	-2.6063	-3.0667	-2.825	-2.7896	-3.1667	-2.9229	-2.8583	-3.0104	-2.8271	-2.9146	-3.0021	-2.6854	-2.9896	-2.7979	62.750	8.824	1.635	232.958	78.680	-22.282	172.868	236.508	-29.783	199.910	177.746	209.921	97.781	-78.880	211.348	171.006	0.00015065	0.00038074	0.00010408	1107.4	3.0738e-06	4.1594e-06	1160.3	224.12	2.7868e-06	4.9569e-06	284.59	79.523	61.279	18.232	3.5074e-06	26.049	0.00020781	0.00020382	5.6021e-05	1032.6	2.1743e-06	2.1795e-06	1124.1	218.82	2.1238e-06	2.081e-06	275.8	78.772	60.237	18.129	2.107e-06	25.815	191.771	-71.294	-35.656	-107.376	-26.463	-56.673	-106.897	-99.537	3.819	3.191	-100.002	-94.135	-93.014	-85.920	37.350	-86.114	-8191	255	
835.353	1	1	0	0	0.18037	0.098955	0.038369	0.077547	0.059912	0.12083	0.075262	0.10441	0.1508	0.10722	0.36113	0.27519	0.031362	0.10512	0.29502	0.17275	-2.4458	-2.9417	-2.625	-2.8937	-3.0146	-2.8	-2.9854	-2.8458	-2.7958	-2.9792	-2.7875	-3.0062	-3.0208	-2.5687	-2.9188	-2.7771	112.242	41.895	-15.672	-8.693	37.796	56.293	180.237	-101.067	162.309	-56.712	163.360	208.890	49.049	227.891	130.596	122.699	0.00016423	0.00056201	3.397e-05	1106.2	3.0959e-06	6.4409e-06	1163.9	225.57	3.5723e-06	1.3631e-06	284.87	79.653	61.76	18.263	3.1792e-07	26.133	0.00019426	0.00019607	5.5484e-05	1033.8	2.1672e-06	2.2217e-06	1124.6	219.36	2.211e-06	2.2023e-06	275.77	79.064	60.642	18.204	2.3257e-06	25.981	201.321	-4.895	-105.551	-107.148	78.966	-1.813	-106.992	-99.906	-53.710	-43.903	-100.029	-94.255	-93.423	-86.361	148.026	-86.442	-8191	255	
835.472	1	1	0	0	0.1207	0.083587	0.1786	0.18587	0.1235	0.17506	0.22939	0.21749	0.11631	0.15753	0.18045	0.11718	0.061546	0.052734	0.046316	0.16981	-2.3083	-3.0563	-2.7833	-2.825	-2.8542	-2.6875	-2.9813	-3.1125	-2.6333	-2.9292	-2.825	-2.6958	-2.9896	-2.7458	-2.7896	-2.85	224.144	62.316	-106.824	124.357	96.024	145.462	207.445	176.671	-4.307	121.030	163.454	49.608	193.856	-70.319	35.750	223.188	0.00012135	0.00014025	0.00019271	1112.3	2.3856e-06	2.6853e-06	1174.1	225.63	3.7302e-06	3.5618e-06	285.5	79.854	61.414	18.335	7.7442e-07	26.172	0.00021315	0.00021429	5.9502e-05	1042.8	2.3098e-06	2.3182e-06	1135.4	219.9	2.3491e-06	2.2981e-06	277.3	79.471	61.006	18.324	2.243e-06	26.034	187.499	-27.515	-43.920	-107.236	91.698	18.940	-106.979	-100.068	-62.399	-38.397	-99.993	-93.597	-93.043	-85.862	19.200	-86.195	-8191	255	
835.568	1	1	0	0	0.11534	0.16458	0.18738	0.13576	0.2068	0.041105	0.12701	0.11195	0.067988	0.17448	0.12574	0.11184	0.19747	0.27476	0.066106	0.14167	-2.3042	-3.0167	-2.8896	-2.9208	-2.9625	-2.4813	-2.9542	-3.0687	-2.5042	-3.0583	-2.8125	-2.8896	-2.8875	-2.8021	-2.9313	-3.0375	126.566	197.473	59.555	-35.709	86.782	-113.864	156.034	-8.402	205.449	162.600	234.404	234.501	168.644	-67.444	-29.066	-102.182	0.00012417	0.00077157	0.00011608	1120.5	1.8568e-06	4.635e-06	1181.8	226.16	1.1629e-06	1.179e-06	286.04	81.202	61.561	18.503	4.3342e-06	26.116	0.00021066	0.0002102	5.8342e-05	1047.9	2.3195e-06	2.3123e-06	1143.8	220.81	2.3466e-06	2.361e-06	278.39	80.015	61.263	18.41	2.3261e-06	26.179	183.875	-23.748	-81.272	-106.965	22.817	40.793	-107.017	-100.083	-17.932	131.380	-100.150	-94.008	-93.594	-86.158	-14.226	-86.096	-8191	255	
835.664	1	1	0	0	0.12562	0.063783	0.20063	0.13328	0.22787	0.2401	0.31315	0.27902	0.20878	0.10255	0.1659	0.1825	0.19816	0.21262	0.15775	0.14435	-2.1229	-2.7875	-2.7313	-2.6375	-3.0479	-2.9083	-3.0812	-2.9521	-2.6521	-2.9292	-2.8833	-2.7208	-2.9979	-2.6312	-3.0896	-2.9146	52.708	135.764	80.023	-81.978	125.546	-103.597	213.994	205.238	220.318	6.570	-73.804	-55.839	233.455	-71.322	185.690	219.034	4.3776e-05	0.00028536	0.00011521	1120.6	7.7895e-07	9.6557e-07	1186.3	226.3	1.8689e-07	3.3155e-06	287.79	80.817	61.991	18.497	2.6263e-06	26.334	0.00020741	0.00020839	5.6229e-05	1046.3	2.1724e-06	2.1812e-06	1144.3	221.23	2.1994e-06	2.1775e-06	278.8	79.833	61.134	18.372	2.2567e-06	26.156	153.626	-43.323	-62.610	-106.973	9.995	15.960	-106.960	-99.763	92.872	55.225	-99.919	-93.893	-93.510	-85.885	116.278	-86.318	-8191	255	
835.761	1	1	0	0	0.13775	0.076532	0.093393	0.18732	0.071899	0.027774	0.17602	0.13855	0.11331	0.11879	0.35001	0.11928	0.26042	0.12435	0.20693	0.28573	-2.5104	-2.9354	-2.7542	-2.575	-3.0583	-2.7	-3.1396	-3.0458	-2.6021	-2.7771	-3.2083	-2.5917	-2.9854	-2.7771	-2.8583	-2.9771	105.040	201.540	204.129	189.109	110.693	-117.746	96.681	15.155	150.540	-98.222	186.055	167.736	-75.549	148.691	11.977	83.299	7.3626e-05	0.00046346	0.00010573	1129.4	2.291e-06	3.4662e-06	1179.1	226.81	1.9314e-06	4.4055e-06	287.61	81.054	61.642	18.522	3.9811e-06	26.225	0.00020565	0.0002049	5.7486e-05	1049.9	2.2584e-06	2.2656e-06	1143.8	221.43	2.3599e-06	2.3715e-06	279.44	80.056	61.447	18.447	2.4628e-06	26.207	195.479	53.355	-68.287	-106.916	111.075	98.283	-106.584	-99.821	53.890	69.524	-100.054	-93.806	-92.920	-85.958	11.940	-86.123	-8191	255	
835.857	1	1	0	0	0.081634	0.19022	0.098251	0.11263	0.11698	0.1744	0.20966	0.31576	0.015185	0.12982	0.17794	0.2701	0.21014	0.072396	0.13586	0.12029	-2.3167	-2.8917	-2.7875	-2.6937	-2.9042	-2.7313	-2.7167	-3.2458	-2.8	-2.8083	-3	-2.8792	-2.7896	-2.8125	-2.7812	-3.1396	18.274	235.615	-7.518	-108.665	89.364	-102.791	161.356	-108.549	-4.577	-44.626	13.709	85.591	126.800	185.956	-101.390	187.979	4.8799e-05	0.0003626	2.8361e-05	1122.9	4.1683e-06	3.3043e-06	1187.2	226.97	3.0101e-06	3.715e-06	287.39	81.07	62.464	18.395	3.3535e-06	26.222	0.00022019	0.00021849	6.1417e-05	1052.4	2.337e-06	2.3962e-06	1148.1	221.49	2.2829e-06	2.2264e-06	279.04	79.958	61.392	18.382	2.2158e-06	26.124	193.091	-45.460	99.331	-107.261	103.106	36.663	-106.964	-99.845	199.732	-8.079	-99.907	-93.861	-93.299	-85.925	-17.770	-86.089	-8191	255	
835.953	1	1	0	0	0.28666	0.2983	0.050259	0.14508	0.080773	0.13334	0.22216	0.23663	0.14307	0.14444	0.071818	0.18321	0.2061	0.15475	0.095305	0.093318	-2.0625	-2.8042	-2.8708	-2.5792	-3.0542	-3.025	-2.8479	-3.1	-2.7458	-2.7083	-2.9542	-2.8208	-2.9542	-3.05	-2.7667	-3.0604	213.303	97.732	54.713	26.813	202.024	6.723	132.525	76.556	149.258	170.491	-39.492	239.168	-90.070	104.752	89.706	166.379	0.00016336	0.0002741	9.5123e-05	1128	2.6625e-06	2.8472e-06	1181.1	227.34	3.3253e-06	3.9063e-06	290.41	81.036	62.265	18.578	3.0028e-06	26.565	0.00020378	0.000204	5.7001e-05	1051.9	2.2662e-06	2.2613e-06	1144.9	221.57	2.2865e-06	2.2849e-06	280.04	80.071	61.424	18.45	2.3227e-06	26.275	214.308	-75.392	-14.476	-107.003	-92.441	-46.015	-106.634	-99.891	26.328	-12.369	-100.211	-93.924	-93.025	-86.314	24.556	-86.045	-8191	255	
836.073	1	1	0	0	0.14499	0.47122	0.15436	0.094917	0.078052	0.12084	0.24238	0.26497	0.098622	0.18341	0.08307	0.26909	0.29817	0.10412	0.050282	0.30357	-2.4167	-2.7708	-3.0833	-2.6792	-2.9042	-2.9271	-2.7438	-3.0187	-2.9271	-2.5625	-3.0187	-2.7958	-3.0062	-3.0521	-2.6021	-3.0062	45.429	-81.805	-102.615	77.873	13.683	9.953	154.086	175.410	59.988	175.421	183.515	168.445	-96.750	6.699	6.007	126.476	0.00017487	0.0002003	9.966e-05	1116.9	4.5492e-06	3.6939e-06	1188.8	227.9	3.5725e-06	2.4133e-06	287.83	81.141	62.914	18.583	2.4046e-06	26.417	0.00021092	0.00021337	5.9531e-05	1050.6	2.3127e-06	2.2589e-06	1147.6	222.1	2.2365e-06	2.2642e-06	279	80.151	61.513	18.449	2.1762e-06	26.256	193.259	-26.014	76.551	-107.008	72.140	-10.549	-106.780	-99.954	7.364	201.337	-99.913	-93.656	-93.233	-86.166	52.097	-86.551	-8191	255	
836.170	1	1	0	0	0.18488	0.2174	0.030492	0.23769	0.061041	0.14332	0.056649	0.15474	0.20863	0.19465	0.17922	0.30627	0.1406	0.18354	0.27502	0.33015	-2.3667	-2.6646	-2.85	-2.5854	-2.8563	-3.0896	-2.7104	-3.0792	-2.8854	-2.725	-3.0729	-2.6146	-2.9979	-2.9229	-2.8312	-3.025	-55.429	-97.051	168.063	167.120	-112.881	94.877	163.136	85.378	-38.384	145.023	39.978	-77.589	111.993	232.698	103.418	-84.274	0.00015402	0.00021985	0.00013149	1125.4	3.9402e-06	4.1319e-06	1191.1	226.93	1.697e-06	2.0084e-06	288.18	80.963	62.546	18.638	2.1561e-06	26.612	0.00019874	0.00019632	5.3446e-05	1050.3	2.1475e-06	2.1061e-06	1148	222.17	2.1154e-06	2.1217e-06	279.5	79.95	61.48	18.479	1.9811e-06	26.245	200.492	-58.045	-38.666	-106.859	-32.522	13.503	-106.978	-99.944	-84.607	105.878	-99.828	-93.959	-92.816	-86.355	26.768	-86.212	-8191	255	
836.264	1	1	0	0	0.12521	0.13017	0.19644	0.05686	0.076458	0.23012	0.22411	0.23078	0.043991	0.18689	0.26148	0.11799	0.13016	0.25765	0.21425	0.11151	-2.3521	-2.5875	-3.0021	-2.9417	-2.85	-3.0625	-2.8688	-3.0417	-2.9188	-2.6229	-3.1167	-2.7812	-2.7667	-3.1813	-2.825	-3.1292	171.080	-114.600	149.058	15.711	229.783	181.711	-91.285	168.875	-96.249	24.260	-51.201	89.798	239.914	240.055	189.460	174.950	7.9543e-05	0.00021665	8.5059e-05	1122.7	1.5119e-06	4.7403e-06	1180.6	227.09	1.4747e-06	2.9693e-06	287.19	81.066	62.656	18.532	1.4135e-06	26.424	0.000176	0.00017203	4.6824e-05	1041.5	1.8466e-06	1.8084e-06	1137.8	220.86	1.7684e-06	1.747e-06	277.75	79.748	60.956	18.386	1.7602e-06	26.081	215.748	-8.020	212.981	-106.632	107.854	10.347	-107.115	-99.871	-104.348	35.438	-100.266	-93.615	-93.398	-86.008	70.609	-86.746	-8191	255	
836.360	1	1	0	0	0.18279	0.12798	0.035431	0.21634	0.089189	0.28682	0.13615	0.22594	0.078472	0.13644	0.2387	0.16295	0.17975	0.11277	0.21501	0.13491	-2.4375	-2.7062	-2.9979	-2.9146	-2.8063	-3.0375	-2.9688	-2.8542	-2.9604	-2.7771	-2.9562	-2.95	-2.7354	-3.0563	-2.5375	-2.9479	-69.560	-60.860	43.295	52.286	-86.394	130.144	200.209	37.557	162.685	4.853	181.002	30.883	62.658	-64.320	-53.276	214.010	0.00014586	0.00063979	0.00010605	1106.1	8.8623e-07	4.0036e-06	1173.2	225.63	1.9459e-06	4.0283e-06	287.3	81.454	62.217	18.722	1.9084e-07	26.668	0.00016007	0.00015781	4.4099e-05	1032.5	1.7048e-06	1.6676e-06	1131.6	219.67	1.6298e-06	1.6128e-06	276.58	79.556	60.577	18.33	1.5296e-06	26.123	197.728	33.769	-52.998	-107.384	8.358	-15.272	-106.981	-99.552	-30.619	21.026	-99.986	-93.766	-93.434	-85.647	212.021	-86.328	-8191	255	
836.434	1	1	0	0	0.11606	0.22576	0.16853	0.12822	0.12247	0.10578	0.17687	0.14872	0.072011	0.021177	0.24977	0.26414	0.10194	0.071341	0.12247	0.080261	-2.4146	-2.6708	-3.0104	-2.7667	-2.6708	-3.0458	-2.75	-3.0104	-3.1	-2.8208	-2.9792	-2.9104	-2.7708	-3.0646	-2.8563	-2.8833	-111.432	32.822	229.343	8.260	-66.717	11.573	202.351	179.904	-99.965	31.718	204.556	171.201	-116.321	148.679	11.686	242.157	0.00010156	0.00033676	9.2167e-05	1107.2	2.5366e-06	2.8432e-06	1170.4	226.22	4.1571e-06	2.0911e-06	285.33	80.447	62.086	18.623	2.9754e-06	26.326	0.00014243	0.00013956	3.8521e-05	1024.8	1.538e-06	1.5171e-06	1125.7	219.56	1.5613e-06	1.5084e-06	275.62	79.107	60.368	18.303	1.6041e-06	26.068	202.007	-16.157	-62.312	-107.005	-2.058	32.305	-106.871	-99.854	-4.845	-31.505	-99.904	-93.982	-93.088	-85.964	-41.800	-86.409	-8191	255	
836.552	1	1	0	0	0.14884	0.052652	0.11505	0.078121	0.082964	0.047605	0.14162	0.036357	0.13435	0.22001	0.17878	0.25624	0.37108	0.22199	0.041209	0.096551	-2.5083	-2.6104	-2.8229	-3.0167	-2.8167	-2.9646	-2.8625	-3.0771	-3.0229	-2.6104	-2.9125	-2.9354	-2.5708	-3.0604	-2.8583	-2.9625	-63.275	212.092	172.701	67.534	74.760	137.367	196.550	-36.608	47.440	147.267	-88.662	137.671	-93.047	-65.948	227.082	-63.803	0.00010489	0.00024361	3.0321e-05	1106.7	6.2219e-07	3.7207e-06	1172.3	225.67	7.9029e-07	6.0368e-06	287.14	81.044	62.449	18.589	1.6786e-06	26.49	0.00014867	0.00014653	4.1734e-05	1025.7	1.639e-06	1.6084e-06	1128.6	219.39	1.6313e-06	1.5923e-06	276.41	79.133	60.53	18.307	1.605e-06	26.042	221.638	148.084	214.086	-106.870	-32.016	122.915	-106.832	-99.696	136.814	75.424	-99.917	-94.204	-93.273	-85.790	-23.512	-86.493	-8191	255	
836.649	1	1	0	0	0.19454	0.21165	0.15399	0.18261	0.051286	0.20969	0.074602	0.34737	0.035298	0.16338	0.15309	0.15141	0.027138	0.12694	0.27666	0.16201	-2.5646	-2.5979	-2.8458	-2.9792	-2.5563	-2.8708	-2.9021	-2.8688	-2.8583	-2.5854	-2.825	-3.0083	-2.5729	-2.9708	-2.7958	-2.7062	218.113	204.315	-7.304	196.181	-85.000	25.465	236.270	200.129	-99.319	184.957	-29.878	-29.319	-43.879	232.998	238.051	135.887	0.00010334	9.6299e-05	6.857e-05	1100.2	3.414e-07	5.2606e-06	1169	226.27	7.1524e-07	3.8763e-06	286.76	80.812	62.029	18.683	5.0172e-07	26.583	0.00014733	0.00014386	4.0651e-05	1022.8	1.5923e-06	1.5866e-06	1126.7	219.04	1.5777e-06	1.5721e-06	275.18	79.038	60.484	18.307	1.6351e-06	26.087	224.917	-41.817	-45.624	-107.069	72.809	28.076	-107.011	-99.722	233.046	51.985	-99.926	-93.977	-93.306	-86.233	163.128	-86.516	-8191	255	
836.745	1	1	0	0	0.039379	0.15484	0.14959	0.092847	0.12332	0.19579	0.17553	0.12009	0.20168	0.13449	0.14734	0.15249	0.078952	0.094211	0.23014	0.23648	-2.6125	-2.7313	-2.8333	-2.8167	-2.675	-2.9396	-3.0292	-2.7146	-3.1958	-2.5812	-2.7729	-3.0812	-2.5875	-2.675	-2.8708	-2.6542	-20.741	203.963	120.917	235.418	2.183	-68.034	164.540	216.159	-46.538	177.525	149.050	126.378	118.012	18.679	-41.324	220.907	7.2744e-05	0.00046887	3.404e-05	1104.9	1.857e-06	2.525e-06	1169.7	225.42	1.1834e-06	1.0803e-06	286.39	80.807	61.724	18.596	2.5559e-06	26.545	0.00014809	0.00014882	4.2604e-05	1022	1.6406e-06	1.6608e-06	1124.6	219.41	1.649e-06	1.652e-06	275.43	79.162	60.393	18.307	1.6546e-06	26.043	196.112	3.849	38.296	-107.118	41.535	82.885	-106.817	-99.908	-57.275	88.958	-99.821	-93.600	-93.404	-86.060	41.677	-86.108	-8191	255	
836.841	1	1	0	0	0.14787	0.21865	0.19603	0.22521	0.088075	0.09032	0.25111	0.34839	0.10831	0.15757	0.027843	0.22685	0.098534	0.12943	0.22584	0.17098	-2.6479	-2.6521	-2.7292	-3.0854	-2.5708	-2.9437	-3.0042	-2.8208	-3.0333	-2.7729	-3.0438	-3.1188	-2.625	-3.1083	-2.9771	-2.7646	120.054	146.047	-109.988	-112.087	203.359	-53.561	141.137	-87.179	143.995	42.340	88.554	192.685	137.920	216.118	-105.335	83.485	0.00010776	7.3553e-05	0.00017229	1098.2	1.8057e-06	3.3009e-06	1161.9	225.09	1.847e-06	3.7785e-06	286.43	80.851	61.654	18.62	3.733e-06	26.567	0.00015412	0.00015434	4.3047e-05	1020.9	1.6789e-06	1.7062e-06	1122	218.67	1.7228e-06	1.7444e-06	275.79	79.26	60.398	18.352	1.746e-06	26.079	203.340	31.449	-2.089	-106.931	-4.015	-2.302	-106.934	-100.104	144.835	26.681	-99.783	-93.875	-93.714	-85.955	-11.292	-86.343	-8191	255	
836.962	1	1	0	0	0.18307	0.16363	0.057711	0.1391	0.13654	0.17447	0.18215	0.13052	0.052331	0.15151	0.12234	0.11895	0.29078	0.20423	0.21929	0.25343	-2.7021	-2.875	-2.7521	-3.1354	-2.8937	-2.9042	-3.0208	-2.7979	-2.9854	-2.6417	-2.6458	-3.1958	-2.6375	-2.9521	-2.8229	-2.7333	-44.575	71.434	18.397	-90.951	24.786	181.492	230.302	-111.202	218.523	196.065	-4.550	160.607	-95.443	235.924	61.376	224.085	7.6568e-05	0.00055828	0.00011563	1099.8	3.263e-06	1.1836e-06	1165.9	225.57	1.257e-06	3.3178e-06	286.34	80.795	61.593	18.56	5.286e-07	26.443	0.00015872	0.00015887	4.3715e-05	1022.5	1.7461e-06	1.7438e-06	1125.9	219.05	1.7711e-06	1.7468e-06	275.7	79.264	60.339	18.281	1.7137e-06	26.053	207.591	-87.710	-66.349	-106.755	25.609	-96.252	-106.847	-99.733	16.076	7.946	-99.964	-94.073	-93.346	-85.972	-100.239	-86.259	-8191	255	
837.058	1	1	0	0	0.045206	0.044552	0.22211	0.1396	0.10438	0.12531	0.15477	0.29408	0.095588	0.1319	0.17874	0.16184	0.22323	0.13796	0.095418	0.33996	-2.6292	-2.7958	-2.6188	-2.9375	-2.5479	-2.9146	-3.1562	-2.7208	-2.9375	-2.8271	-2.7521	-3.0417	-2.8708	-2.6417	-3.0375	-2.7375	41.980	-55.870	-67.570	-104.417	5.949	216.531	214.002	160.736	179.271	87.452	221.512	202.280	161.602	219.722	235.907	223.504	0.0001137	0.00029366	0.00018406	1108.4	2.6048e-06	4.4883e-06	1169.6	225.25	3.7642e-07	3.5692e-06	286.68	80.923	61.627	18.459	1.3798e-06	26.607	0.00015555	0.00015564	4.2751e-05	1025.6	1.6977e-06	1.6923e-06	1126.5	219.04	1.6955e-06	1.7348e-06	276.1	79.253	60.367	18.247	1.7356e-06	26.079	203.172	35.524	-54.017	-106.863	40.608	54.970	-106.832	-99.528	-82.793	106.736	-99.797	-93.804	-92.622	-86.450	115.441	-86.183	-8191	255	
837.154	1	1	0	0	0.095217	0.17746	0.066246	0.16869	0.15448	0.35992	0.39862	0.12055	0.13706	0.21816	0.029574	0.30821	0.207	0.082009	0.07721	0.26203	-2.5438	-2.8688	-2.5563	-3.0396	-2.6833	-2.6729	-3.1729	-2.8063	-2.9146	-2.9896	-2.6958	-3	-2.8312	-2.7562	-3.0292	-2.8167	59.035	-33.959	226.458	-53.011	-76.520	-76.922	204.944	100.814	191.553	162.985	-34.166	-89.566	211.684	-57.336	56.943	211.057	7.8914e-05	0.00057934	0.00011727	1106.7	2.1812e-06	1.1948e-06	1166.1	225.22	3.53e-06	1.8819e-06	285.9	81.118	62.436	18.612	3.5992e-06	26.427	0.0001573	0.00015587	4.3861e-05	1026.1	1.7038e-06	1.701e-06	1127.1	219.02	1.7283e-06	1.7102e-06	275.81	79.353	60.515	18.276	1.7441e-06	26.022	174.380	-16.759	1.684	-107.056	23.789	-38.634	-106.624	-99.663	-51.856	54.666	-99.899	-94.000	-93.068	-86.472	19.728	-86.327	-8191	255	
837.250	1	1	0	0	0.14514	0.17066	0.23864	0.10353	0.23745	0.13255	0.22238	0.2971	0.31617	0.22506	0.23817	0.14496	0.19234	0.15628	0.16408	0.10106	-2.4062	-3.0521	-2.5458	-2.9125	-2.775	-3.0312	-3.1937	-2.9042	-2.7896	-2.9646	-2.6083	-3.0979	-2.9125	-2.7146	-3.0458	-2.6771	203.839	106.363	163.210	104.549	141.491	59.861	210.926	109.591	-84.004	237.218	-102.491	154.283	-44.603	139.292	-77.574	151.245	0.00010685	0.00025102	0.00010493	1105.2	3.8085e-06	2.5989e-06	1165.2	226.08	2.1575e-06	1.2207e-06	287.39	80.477	61.409	18.573	1.5697e-06	26.544	0.00016295	0.00015723	4.3883e-05	1023.4	1.7232e-06	1.7145e-06	1125.3	219.58	1.7425e-06	1.7063e-06	276.35	79.03	60.353	18.338	1.748e-06	26.093	200.111	-29.304	-73.146	-106.941	-8.997	-4.436	-106.912	-100.015	15.489	2.935	-100.050	-93.738	-93.078	-85.635	32.651	-86.186	-8191	255	
837.344	1	1	0	0	0.21558	0.25227	0.10401	0.077598	0.20404	0.27121	0.28173	0.08725	0.12047	0.049068	0.23652	0.22905	0.1071	0.23179	0.24201	0.09126	-2.4	-3.1063	-2.6708	-3.0187	-3.0042	-2.7604	-3.0583	-2.8104	-2.7271	-3.1875	-2.8417	-2.8729	-2.8792	-2.775	-3.0333	-2.9313	69.487	153.193	-114.051	141.720	163.591	171.662	200.412	185.383	-89.058	144.615	-105.421	224.989	109.823	67.524	213.554	148.636	0.00011994	0.00057723	2.6421e-05	1103.7	9.164e-07	3.8699e-06	1170	225.9	7.9891e-07	3.8728e-06	287.84	81.519	61.999	18.52	1.7742e-06	26.563	0.00015793	0.00015618	4.3968e-05	1028.3	1.7298e-06	1.7267e-06	1128.6	219.84	1.7419e-06	1.7087e-06	276.62	79.504	60.636	18.246	1.7681e-06	26.147	203.268	-34.311	-59.600	-107.018	130.742	-3.211	-106.971	-99.949	45.799	121.473	-100.179	-93.970	-93.430	-86.030	66.415	-86.259	-8191	255	
837.442	1	1	0	0	0.053055	0.19164	0.17299	0.16736	0.091095	0.10462	0.22783	0.40525	0.24132	0.16041	0.14008	0.14288	0.27407	0.2166	0.15606	0.13323	-2.4125	-2.9562	-2.6458	-3.0083	-2.9021	-2.7188	-3.1979	-3.0042	-2.8625	-3.0542	-2.7833	-2.9229	-3.0042	-2.7208	-2.9625	-2.7687	-91.789	-83.478	96.655	242.493	-39.177	36.120	208.300	142.029	174.026	126.480	174.805	31.996	32.142	192.285	62.928	88.400	0.00011926	0.00075139	5.6559e-05	1104.2	2.849e-06	3.6827e-06	1170.8	224.89	1.8291e-06	2.3732e-06	287.57	80.73	61.941	18.647	3.1118e-06	26.468	0.00016765	0.00016708	4.6002e-05	1031.2	1.8116e-06	1.812e-06	1131.6	219.64	1.8184e-06	1.7733e-06	276.33	79.291	60.543	18.313	1.7992e-06	26.102	215.652	-0.828	-31.435	-106.707	34.368	52.184	-106.878	-99.445	74.305	-27.883	-99.908	-93.777	-93.382	-86.220	24.618	-86.184	-8191	255	
837.561	1	1	0	0	0.11703	0.23825	0.15371	0.18105	0.078196	0.19356	0.11681	0.24163	0.20495	0.14186	0.12009	0.25023	0.28045	0.26084	0.11892	0.20131	-2.2542	-3.1	-2.8438	-2.8896	-2.9604	-2.575	-3.15	-2.9188	-2.6104	-3.0312	-2.8563	-3.0083	-3.0375	-2.6688	-2.9417	-2.9083	229.391	81.994	158.097	169.499	185.425	6.214	-17.817	44.058	88.059	-101.152	137.590	112.015	64.363	182.919	72.637	127.074	7.6033e-05	0.00035369	0.00012936	1113.5	9.7473e-07	5.2081e-06	1166	225.14	1.2484e-06	2.6929e-06	287.74	81.396	62.25	18.548	2.0003e-06	26.48	0.00016513	0.00016149	4.5216e-05	1029.1	1.8247e-06	1.776e-06	1127.4	219.43	1.7819e-06	1.759e-06	276.52	79.524	60.566	18.339	1.7287e-06	26.12	187.307	38.168	-10.720	-106.762	10.228	57.178	-106.513	-99.787	206.748	62.398	-99.952	-93.636	-93.227	-85.830	41.808	-86.500	-8191	255	
837.657	1	1	0	0	0.082552	0.19442	0.176	0.17531	0.093239	0.21956	0.27763	0.47576	0.073952	0.19891	0.37782	0.22131	0.20362	0.20869	0.2114	0.21567	-2.3312	-2.9313	-2.6625	-2.7271	-2.9375	-2.5812	-2.7958	-3.2229	-2.7687	-3.1188	-2.7729	-2.6729	-3.0208	-2.6875	-2.9125	-2.9437	206.725	-44.866	75.939	238.204	-23.503	163.285	100.012	192.535	195.231	99.413	-108.349	181.415	52.866	217.406	193.177	208.371	0.00012719	0.00053916	7.9089e-05	1095.1	3.0814e-06	2.7025e-06	1174.2	224.99	5.8634e-07	3.3773e-06	287.72	81.261	62.345	18.388	2.1811e-06	26.75	0.00015852	0.00015904	4.4795e-05	1024	1.7777e-06	1.7862e-06	1132.1	219.4	1.88e-06	1.8666e-06	277.18	79.628	60.783	18.338	1.8884e-06	26.199	199.467	-62.758	-18.414	-106.936	79.360	77.653	-106.734	-99.837	-103.759	39.932	-99.929	-94.151	-93.244	-86.094	88.826	-86.359	-8191	255	
837.729	1	1	0	0	0.39674	0.25819	0.19843	0.34754	0.096928	0.10843	0.21589	0.038233	0.14085	0.17518	0.17603	0.26344	0.18085	0.049503	0.10128	0.15128	-2.15	-3.0062	-2.85	-2.6312	-3.1542	-2.7417	-3.0021	-3.1437	-2.8396	-3.1437	-3.0583	-2.7167	-2.9583	-2.7583	-3.0167	-3.1375	124.087	-48.303	166.850	17.095	162.629	11.786	182.909	215.253	47.038	-20.101	193.656	-96.828	94.063	32.999	72.790	198.881	0.00013821	0.00031902	9.5961e-05	1104.8	3.1412e-06	1.5758e-06	1166.7	225.52	8.1338e-07	3.5935e-06	287.69	80.478	61.951	18.532	2.8235e-06	26.552	0.00017361	0.00017256	4.8638e-05	1032	1.8537e-06	1.8884e-06	1130.5	219.95	1.866e-06	1.8168e-06	277.19	79.514	60.621	18.355	1.8668e-06	26.174	221.500	29.607	-1.819	-106.685	33.756	1.939	-106.643	-99.876	187.363	-18.335	-99.992	-93.905	-93.219	-86.048	17.648	-86.454	-8191	255	
837.850	1	1	0	0	0.21891	0.18838	0.15434	0.10369	0.0055619	0.10992	0.22856	0.172	0.21111	0.079013	0.16003	0.2638	0.084865	0.2694	0.23046	0.056816	-2.2875	-2.9458	-2.8083	-2.7354	-3.0021	-2.8271	-3.0687	-3.0854	-2.5	-2.9625	-2.9917	-2.8479	-3.0438	-2.6625	-2.6521	-3.0563	94.177	-2.401	82.157	123.194	56.370	-12.758	159.237	110.527	33.182	124.258	141.954	175.340	-111.189	132.224	0.448	72.273	9.9329e-05	0.00034183	3.0678e-05	1103.8	4.6417e-06	3.2174e-06	1175.9	226.55	1.1115e-06	6.5014e-06	286.32	80.699	62.341	18.703	5.3201e-06	26.495	0.00017259	0.0001699	4.698e-05	1032.2	1.8781e-06	1.883e-06	1131.2	220.4	1.8702e-06	1.8907e-06	277.18	79.38	60.797	18.394	1.8736e-06	26.121	172.687	95.203	20.149	-107.246	13.972	63.007	-106.652	-99.773	-77.287	51.542	-100.081	-93.698	-92.997	-85.309	53.966	-86.458	-8191	255	
837.946	1	1	0	0	0.34516	0.11819	0.19346	0.23116	0.10937	0.15503	0.23157	0.14312	0.077027	0.11858	0.34486	0.086291	0.03925	0.134	0.10906	0.0967	-2.3625	-2.7604	-2.7562	-2.5833	-3.0417	-2.8417	-2.8458	-3.0625	-2.6146	-3.0417	-3.0292	-2.55	-3.0271	-2.7146	-2.7833	-3.0417	4.609	41.129	-1.033	-89.118	72.653	-19.044	175.181	-23.243	-79.382	209.601	126.799	-3.087	100.013	200.513	68.405	82.707	0.00015904	0.00023567	8.6237e-05	1116.1	1.2983e-06	2.0301e-06	1177.4	226.7	3.4205e-07	6.4202e-06	287.34	80.977	62.235	18.582	3.0377e-06	26.342	0.00016918	0.0001687	4.6794e-05	1032.7	1.793e-06	1.8268e-06	1132	220.21	1.8398e-06	1.8252e-06	277.21	79.587	60.821	18.353	1.8243e-06	26.067	201.679	-70.317	182.491	-106.989	-17.404	199.827	-106.917	-99.585	-113.899	45.715	-99.910	-93.857	-93.159	-86.077	53.250	-86.333	-8191	255	
838.042	1	1	0	0	0.08133	0.29037	0.30458	0.19722	0.064903	0.29386	0.17987	0.24351	0.036004	0.2132	0.1898	0.15386	0.37777	0.03931	0.23337	0.11835	-2.175	-2.8979	-2.8063	-2.7417	-3.0896	-2.8667	-2.9125	-3.1458	-2.8792	-2.8646	-3.0021	-2.7583	-2.975	-2.9833	-2.7938	-3.1208	75.400	169.810	155.844	159.070	230.438	153.492	92.241	-6.278	37.289	31.111	200.417	221.354	71.171	18.497	212.084	-27.517	0.00010172	0.00031149	1.0499e-05	1114	3.2617e-06	2.3944e-06	1169.2	225.66	9.8585e-07	1.5107e-06	288.48	80.447	61.897	18.729	1.089e-06	26.53	0.00016434	0.00016156	4.5482e-05	1031.1	1.812e-06	1.7813e-06	1131.3	220.14	1.7953e-06	1.7814e-06	277.31	79.268	60.574	18.366	1.747e-06	26.129	169.319	-15.739	144.287	-106.824	60.034	-42.727	-107.028	-100.175	-95.062	89.033	-99.918	-93.953	-93.359	-86.126	109.272	-86.495	-8191	255	
838.138	1	1	0	0	0.095894	0.08133	0.063875	0.23419	0.2573	0.1136	0.16071	0.1218	0.058853	0.057588	0.13836	0.3997	0.17768	0.21573	0.17976	0.14929	-2.4146	-2.6667	-2.8667	-2.8083	-3.0833	-3.0521	-2.8083	-3.05	-2.7875	-2.8417	-3.1979	-2.7938	-2.8958	-3.0062	-2.7667	-3.1271	72.673	-65.517	-20.005	203.480	207.867	73.519	-99.603	-34.734	205.554	31.133	-85.347	197.357	193.497	-15.312	100.205	-94.763	0.00016662	0.00043443	0.00011492	1113	4.965e-06	3.3832e-06	1175.3	225.97	2.7528e-06	2.454e-06	287.57	81.518	62.054	18.604	1.6925e-06	26.477	0.00015983	0.00015934	4.389e-05	1031.3	1.7568e-06	1.7751e-06	1129.7	220.13	1.8122e-06	1.8452e-06	277.62	79.847	60.748	18.348	1.8733e-06	26.169	196.278	-96.409	15.904	-106.686	-80.427	95.816	-106.755	-99.836	203.988	-34.201	-100.000	-94.097	-93.275	-85.924	66.121	-86.330	-8191	255	
838.257	1	1	0	0	0.091549	0.10042	0.13285	0.052325	0.088501	0.24441	0.25507	0.28254	0.12707	0.21368	0.12148	0.20033	0.18567	0.17321	0.030859	0.1936	-2.5042	-2.8542	-2.9292	-2.7458	-2.9229	-2.7271	-2.8583	-3.15	-2.7875	-2.8	-3.2354	-2.625	-2.9229	-3.0583	-2.8375	-3.0583	102.706	199.513	-99.728	25.603	-42.520	203.362	163.841	161.700	-1.111	8.295	140.904	8.902	-26.855	210.818	203.899	125.440	0.00010538	0.00036477	0.00014927	1106.4	1.5447e-06	1.3946e-06	1174.5	226.51	1.9627e-06	6.0388e-06	288.6	80.909	62.167	18.536	1.8329e-06	26.445	0.00017262	0.00017344	4.7968e-05	1029.6	1.9257e-06	1.9041e-06	1131.9	220.34	1.8531e-06	1.8431e-06	277.65	79.451	60.625	18.305	1.8263e-06	26.13	203.004	-14.506	-32.744	-106.701	128.344	15.071	-106.929	-99.736	-1.033	26.846	-99.915	-93.863	-93.107	-86.040	56.898	-86.643	-8191	255	
838.353	1	1	0	0	0.18503	0.13322	0.15712	0.12799	0.03342	0.1602	0.20628	0.30045	0.18876	0.23228	0.081789	0.27939	0.36034	0.046654	0.32735	0.19364	-2.525	-2.6167	-3.1729	-2.8125	-2.7583	-2.9021	-2.8333	-3.0938	-2.9146	-2.7042	-3.1396	-2.725	-2.7583	-3.1125	-2.7167	-3.2417	-50.560	185.143	-85.570	211.268	5.631	167.299	198.773	157.851	187.278	-65.594	-37.213	-86.768	122.118	-42.095	194.618	201.822	0.00013835	0.00015964	8.3666e-05	1101.5	2.3479e-06	4.0022e-06	1171	226.52	2.1412e-06	3.1085e-06	286.67	80.448	61.736	18.532	1.8142e-06	26.551	0.00017107	0.00016555	4.6792e-05	1027	1.8541e-06	1.8218e-06	1128.7	220.22	1.8428e-06	1.8317e-06	277.06	79.27	60.534	18.295	1.8656e-06	26.171	200.084	-42.546	-43.182	-106.739	100.125	36.184	-106.616	-100.014	14.983	26.179	-99.911	-93.938	-92.994	-86.217	42.204	-86.197	-8191	255	
838.425	1	1	0	0	0.28584	0.20962	0.16224	0.10911	0.23178	0.084253	0.29853	0.053782	0.25639	0.22007	0.06133	0.18198	0.21584	0.055717	0.14898	0.2303	-2.3229	-2.6833	-3.0062	-2.85	-3.0083	-3.1042	-2.8708	-2.9333	-2.9625	-2.7229	-3.1937	-2.925	-2.7313	-3.0687	-2.9042	-2.8646	209.032	80.549	42.640	-13.730	151.823	102.311	-37.041	197.677	198.541	-52.081	88.265	-37.794	76.130	213.738	210.244	58.563	0.0001423	7.1882e-05	6.5698e-05	1110.3	1.886e-06	2.2041e-06	1168.4	225.68	7.2053e-07	5.3053e-06	286.97	80.753	62.074	18.509	1.4619e-06	26.588	0.00017509	0.00017279	4.8143e-05	1031.1	1.8993e-06	1.8512e-06	1129.3	219.98	1.902e-06	1.8836e-06	277.01	79.525	60.876	18.38	1.9159e-06	26.133	196.534	-64.482	44.725	-106.832	9.742	49.764	-106.885	-99.881	150.566	212.930	-100.131	-94.254	-93.114	-85.881	235.248	-86.405	-8191	255	
838.523	1	1	0	0	0.12414	0.18154	0.10537	0.21144	0.17719	0.15988	0.3025	0.11775	0.14276	0.071602	0.28439	0.31338	0.27423	0.050866	0.16466	0.23772	-2.4021	-2.6063	-3.0375	-2.7042	-2.6125	-3.0187	-2.8271	-3.0958	-2.9458	-2.7104	-3.2396	-2.7792	-2.8521	-2.8542	-2.7042	-2.8667	216.097	164.973	27.298	90.974	239.655	73.877	215.444	174.711	231.291	-47.673	227.578	141.079	189.719	170.713	-24.467	133.107	7.4242e-05	0.00025394	0.0001561	1102.6	1.2135e-06	1.6785e-06	1170.3	226.15	1.1739e-06	4.6302e-06	286.35	81.346	62.092	18.393	2.9441e-06	26.689	0.00017977	0.00017634	4.9585e-05	1034.4	1.9602e-06	1.9419e-06	1130.1	220.26	1.9354e-06	1.9396e-06	276.88	79.68	60.836	18.29	1.9299e-06	26.248	208.535	-66.169	-46.887	-106.670	112.893	-96.783	-106.664	-99.799	237.276	29.990	-100.038	-94.074	-93.677	-85.755	-10.168	-86.047	-8191	255	
838.642	1	1	0	0	0.098905	0.12649	0.16867	0.16442	0.1071	0.046526	0.15853	0.18744	0.050144	0.31268	0.28285	0.25148	0.066893	0.14976	0.24979	0.13397	-2.5896	-2.7667	-3.0021	-2.7958	-2.7104	-3.1125	-2.9667	-2.9271	-2.9625	-2.7125	-3.0917	-2.8792	-2.5792	-3.1479	-2.8146	-3.0354	-19.163	118.666	86.263	221.441	186.562	-52.641	95.419	43.866	-86.213	-44.140	-72.395	4.813	197.909	180.481	10.910	199.748	0.0001147	0.00025176	5.7312e-05	1106.9	3.0549e-06	2.0543e-06	1169	226.22	2.2038e-06	1.1821e-06	286.98	80.817	62.201	18.394	9.2131e-07	26.338	0.00017853	0.00018157	4.9377e-05	1034.9	1.9635e-06	1.9877e-06	1132.3	220.29	1.9834e-06	1.9688e-06	277.02	79.546	60.887	18.374	1.9758e-06	26.164	192.688	22.006	-1.667	-106.814	59.420	34.115	-106.637	-100.009	-97.123	-32.880	-99.855	-93.793	-93.146	-85.857	98.675	-86.197	-8191	255	
838.738	1	1	0	0	0.32391	0.24455	0.02258	0.2505	0.19615	0.26674	0.32284	0.061538	0.081076	0.14784	0.057881	0.21357	0.27055	0.23014	0.024632	0.29537	-2.525	-2.6271	-2.9062	-2.9521	-2.7333	-3.0563	-2.9583	-2.85	-3.0542	-2.5479	-3.0167	-2.975	-2.6396	-3.0812	-2.8375	-2.8708	-59.646	207.271	-40.309	195.679	114.551	114.609	179.020	233.013	-16.629	-62.754	-106.269	206.453	234.803	220.087	211.869	-99.043	9.7013e-05	0.00034375	0.00019298	1109.6	1.6986e-06	1.1213e-06	1178.5	225.93	3.2789e-06	1.7103e-06	286.69	80.473	62.022	18.482	2.921e-06	26.347	0.00017969	0.00018056	5.0633e-05	1034.5	1.9431e-06	1.979e-06	1135	220.68	1.9465e-06	1.9688e-06	277.4	79.395	60.897	18.331	1.9883e-06	26.089	187.861	-11.531	-43.160	-106.808	13.282	-5.999	-106.916	-99.614	7.127	166.066	-99.780	-93.776	-92.994	-86.023	73.834	-85.872	-8191	255	
838.834	1	1	0	0	0.31943	0.12958	0.29572	0.23324	0.13462	0.088145	0.12405	0.41373	0.063883	0.066521	0.2005	0.23344	0.20883	0.12693	0.28838	0.1737	-2.6792	-2.6354	-2.7854	-3.0062	-2.6625	-3.0021	-2.9583	-2.8771	-2.9875	-2.9542	-2.725	-2.9896	-2.7792	-3.0375	-2.7938	-2.6792	190.320	181.074	-72.621	149.891	233.859	-25.516	-30.441	174.794	181.481	98.826	175.237	224.794	32.407	214.252	31.098	64.425	0.00011035	0.00024909	4.5098e-05	1110.5	2.1105e-06	3.5793e-06	1176.4	227.21	3.1269e-06	4.9251e-06	285.68	81.268	62.032	18.682	2.5234e-06	26.559	0.00017991	0.00017858	5.0165e-05	1037.3	1.9502e-06	1.9433e-06	1134.3	220.63	1.9559e-06	1.9399e-06	277.41	79.781	60.77	18.44	1.953e-06	26.218	184.799	-95.451	236.119	-106.815	22.714	24.078	-106.773	-99.822	230.537	-4.519	-100.150	-94.153	-92.914	-86.410	55.792	-86.731	-8191	255	
838.955	1	1	0	0	0.10719	0.17652	0.14219	0.059127	0.2606	0.20548	0.31947	0.21283	0.20831	0.1874	0.075215	0.19028	0.31526	0.32196	0.18303	0.24675	-2.6396	-2.8583	-2.8812	-3.1333	-2.8042	-3.175	-3.0625	-2.8833	-3.0042	-2.7188	-3.0417	-3.1604	-2.7687	-3	-2.9188	-2.8625	236.553	-63.259	-16.966	225.978	-5.928	204.990	185.411	-89.855	7.595	-4.849	157.186	171.062	236.002	-114.595	232.946	238.373	0.00011895	0.00023988	1.0116e-05	1111.2	1.6312e-06	3.0527e-06	1178.3	225.33	4.0275e-06	2.0394e-06	287.14	81.016	62.299	18.604	4.3073e-06	26.345	0.00017934	0.00017671	4.9514e-05	1035	1.9877e-06	1.9625e-06	1135.8	220.84	2.01e-06	1.9765e-06	277.81	79.829	60.901	18.373	2.024e-06	26.164	221.186	-23.257	-24.853	-106.850	39.158	0.548	-106.736	-99.846	183.034	-100.784	-99.918	-93.912	-93.305	-85.670	-13.027	-86.381	-8191	255	
839.026	1	1	0	0	0.25324	0.15649	0.18747	0.11656	0.069466	0.24657	0.18566	0.31499	0.15968	0.060926	0.2849	0.022547	0.022297	0.22487	0.10623	0.08825	-2.7792	-2.8417	-2.9354	-3.1917	-2.7167	-3.0333	-3.2125	-2.7917	-3.1875	-2.7958	-2.9542	-3.025	-2.6583	-2.8208	-3.2375	-2.7875	-96.798	79.607	9.438	190.109	194.550	-43.489	169.725	201.467	54.008	220.857	-115.165	110.458	148.655	-26.567	20.159	191.021	0.00011694	0.00055774	0.00010089	1106.9	6.0399e-07	5.695e-06	1173	225.86	2.6569e-06	2.7617e-06	285.74	80.755	61.99	18.671	4.4837e-07	26.393	0.00018244	0.00017842	4.9932e-05	1036.1	1.9663e-06	1.9924e-06	1135.5	220.69	1.9707e-06	1.9774e-06	276.95	79.647	60.75	18.364	1.9492e-06	26.155	206.365	-9.133	-9.727	-106.828	180.539	29.637	-106.708	-99.942	-111.849	55.784	-100.279	-94.176	-93.247	-85.745	51.433	-86.510	-8191	255	
839.122	1	1	0	0	0.13049	0.23331	0.086393	0.059021	0.14332	0.11138	0.20207	0.20693	0.23546	0.1353	0.18311	0.25469	0.27671	0.28483	0.18397	0.046035	-2.5667	-2.6375	-2.8917	-3.0104	-2.9104	-3.0062	-3.0563	-2.7792	-3.1021	-3.0167	-2.8958	-3.0958	-2.8146	-2.9104	-3.1458	-2.9313	35.157	163.119	-65.394	153.074	176.734	14.323	183.207	155.191	87.948	200.978	139.767	151.519	-85.287	209.742	94.706	128.054	0.00013113	0.00023629	0.00015784	1111.2	8.6752e-07	3.9544e-06	1170.9	225.59	3.4069e-06	4.0263e-06	286.99	80.76	62.145	18.688	2.2139e-06	26.503	0.00017428	0.00017215	4.7845e-05	1033.5	1.9277e-06	1.8945e-06	1133.8	220.61	1.9591e-06	1.9628e-06	277.36	79.722	60.749	18.403	1.9453e-06	26.151	195.928	-13.176	-7.490	-106.602	45.141	210.590	-106.886	-99.906	1.085	-3.243	-100.002	-94.051	-93.374	-86.264	57.608	-86.384	-8191	255	
839.243	1	1	0	0	0.13514	0.11432	0.2259	0.20084	0.25139	0.19545	0.085419	0.1428	0.11038	0.1533	0.13503	0.124	0.11529	0.12899	0.2633	0.23303	-2.5	-3.0312	-2.5979	-3.0292	-2.9417	-2.9271	-3.2354	-2.7687	-2.8812	-2.7979	-2.8125	-3.0938	-2.9354	-2.9958	-3.0771	-2.7812	117.144	231.693	235.195	125.995	170.180	-104.730	-115.055	-67.463	-67.691	119.366	-71.418	152.167	-102.224	195.017	92.107	240.982	9.2248e-05	0.00024036	3.5734e-05	1111.4	1.0578e-06	4.4104e-06	1170.8	226.21	2.4289e-06	3.722e-06	287.89	80.838	62.284	18.527	1.0306e-06	26.576	0.00017833	0.00017715	4.9595e-05	1035.7	1.9418e-06	1.8888e-06	1132.3	220.34	1.9198e-06	1.9162e-06	277.93	79.541	61.024	18.376	1.997e-06	26.155	207.660	-42.209	-15.721	-106.880	237.951	18.995	-106.885	-99.886	-39.940	-36.043	-99.944	-93.913	-93.435	-86.099	95.628	-86.289	-8191	255	
839.337	1	1	0	0	0.20099	0.14808	0.24765	0.17166	0.12555	0.19515	0.45345	0.10009	0.21284	0.074897	0.068118	0.12994	0.13924	0.12382	0.19689	0.073286	-2.5542	-3.1021	-2.5708	-2.9917	-2.7667	-2.8021	-2.9688	-2.8229	-2.9333	-3.0708	-3.0271	-3.0583	-2.8167	-2.9083	-3.025	-2.9875	17.962	103.402	202.813	80.881	-102.070	187.992	164.244	230.733	7.344	28.882	154.605	203.751	5.792	135.757	-116.119	159.911	0.00010768	0.00033379	0.00011099	1119.8	1.8961e-06	3.2274e-06	1173.9	226.43	1.5414e-06	2.3254e-06	286.43	81.222	62.19	18.593	2.2222e-06	26.701	0.00018071	0.00017467	4.8232e-05	1038	1.8685e-06	1.8854e-06	1130.8	220.35	1.8903e-06	1.8683e-06	277.38	79.729	60.784	18.397	1.8774e-06	26.221	203.195	-20.797	3.912	-107.071	19.955	176.618	-106.849	-99.681	-51.721	204.964	-99.946	-93.789	-93.232	-86.155	5.346	-86.569	-8191	255	
839.434	1	1	0	0	0.091145	0.20487	0.23591	0.29346	0.15116	0.21417	0.24517	0.13722	0.068675	0.21228	0.24579	0.081301	0.25085	0.14793	0.16132	0.055195	-2.4146	-3.1792	-2.6708	-2.9146	-2.8063	-2.7521	-3.1188	-2.9125	-2.9208	-2.9958	-2.8625	-3.0438	-2.9188	-2.5917	-3.1375	-2.7229	27.568	-101.358	-23.127	-94.754	12.197	219.010	85.163	78.357	227.356	228.136	133.052	152.192	-64.767	193.688	-79.269	209.688	0.00012283	0.0005656	0.00012231	1119.8	1.1319e-06	4.2962e-06	1175.1	226.67	3.5844e-06	2.3377e-06	287.73	80.885	62.148	18.618	3.886e-06	26.528	0.00017324	0.00016893	4.777e-05	1038.7	1.8784e-06	1.8857e-06	1134.2	220.53	2.0058e-06	1.9944e-06	278.4	79.767	61.022	18.451	2.1367e-06	26.292	181.609	-37.602	32.118	-106.859	-28.811	-90.114	-106.964	-99.671	3.633	32.468	-99.896	-93.988	-93.141	-86.008	9.709	-86.766	-8191	255	
839.554	1	1	0	0	0.098616	0.084848	0.23901	0.19328	0.10037	0.1595	0.16142	0.24861	0.14067	0.15823	0.19229	0.022122	0.281	0.091734	0.25239	0.11512	-2.4667	-3.2188	-2.7417	-3.0167	-2.9521	-2.6813	-3.1437	-2.8729	-2.7812	-3.0854	-2.6229	-3.0333	-2.8458	-2.6833	-3.0187	-2.7083	84.875	8.091	180.477	84.963	111.843	-47.026	120.583	160.381	-69.181	127.664	185.353	10.724	210.618	-71.457	-116.498	175.715	8.0559e-05	0.00021223	6.5927e-05	1120.8	2.3397e-06	3.5953e-06	1180.6	226.83	4.7866e-07	2.3286e-06	287.54	81.041	62.737	18.483	1.2965e-06	26.534	0.00018911	0.00018757	5.238e-05	1042.3	2.0026e-06	1.9737e-06	1138.3	221.19	1.9581e-06	1.9706e-06	278.68	79.876	61.24	18.409	2.0284e-06	26.24	181.448	-20.432	-2.179	-106.716	7.433	98.062	-107.095	-99.697	-116.457	34.982	-100.164	-93.889	-93.410	-85.961	-21.572	-86.941	-8191	255	
839.626	1	1	0	0	0.23284	0.25347	0.1436	0.077883	0.12513	0.05271	0.023633	0.30737	0.045765	0.28441	0.27871	0.23843	0.060843	0.17942	0.024176	0.23897	-2.3979	-2.8625	-2.5604	-3.0021	-3.0312	-2.6833	-3.1354	-2.8667	-2.6792	-3.1521	-2.8604	-2.8917	-3.0229	-2.8125	-3.075	-2.9292	-16.411	-72.095	214.845	13.801	-26.316	-44.768	119.875	-112.895	-6.174	-62.349	-24.324	-55.364	240.162	154.953	-20.936	97.385	0.00013081	0.00025478	6.5989e-05	1122.3	2.4462e-06	2.2007e-06	1187.9	227.68	3.9769e-06	2.1297e-06	287.93	80.852	62.316	18.612	2.7884e-06	26.72	0.00018592	0.00018433	5.1338e-05	1047.1	2.0517e-06	2.0356e-06	1145.5	221.81	2.0965e-06	2.1106e-06	279.82	80.336	61.535	18.564	2.1751e-06	26.409	201.094	-18.963	-68.588	-106.709	-24.852	169.733	-106.898	-99.907	-84.449	93.866	-99.892	-93.731	-93.375	-86.216	-52.189	-86.562	-8191	255	
839.722	1	1	0	0	0.23358	0.11276	0.20301	0.24028	0.15291	0.21014	0.36026	0.19914	0.27903	0.10785	0.16659	0.17968	0.19311	0.19872	0.20063	0.16727	-2.1771	-3.0771	-2.8583	-2.8479	-3.0104	-2.7667	-3.1604	-3.0938	-2.6333	-3.1	-2.9917	-2.7854	-3.0875	-2.5729	-2.9062	-2.8896	106.699	-40.220	41.997	216.631	11.731	191.882	-76.076	166.150	154.566	78.833	-76.514	208.251	215.649	-27.449	113.809	-48.150	0.00011642	0.00012416	4.4322e-05	1132.9	2.9481e-06	2.0977e-06	1192.4	228.75	7.6227e-07	3.1733e-06	290.11	81.559	62.907	18.677	2.0001e-06	26.805	0.00020109	0.00020229	5.6185e-05	1053.3	2.2288e-06	2.2158e-06	1149	223.47	2.2475e-06	2.1987e-06	280.56	80.546	61.637	18.54	2.1017e-06	26.44	170.364	116.703	-95.740	-106.721	78.450	-68.375	-106.924	-100.120	-43.034	31.871	-100.461	-93.937	-93.091	-86.419	-34.219	-86.660	-8191	255	
839.818	1	1	0	0	0.1444	0.40292	0.22479	0.17627	0.18475	0.064617	0.27047	0.24249	0.1614	0.2015	0.14378	0.24472	0.10301	0.25853	0.11323	0.084799	-2.2521	-2.9042	-2.7854	-2.6458	-3.0521	-2.8021	-3.1375	-3.1021	-2.5875	-3.0771	-2.8438	-2.675	-2.9333	-2.6104	-2.8292	-3.0917	96.490	93.356	125.514	168.707	223.687	-14.883	208.498	188.408	-67.473	-43.972	238.158	-102.380	189.323	-91.938	11.153	-68.771	0.00012272	0.00030807	6.8494e-05	1121.1	2.3142e-06	1.3901e-06	1194.2	229.58	2.2717e-06	4.5865e-06	292.78	82.411	62.793	18.827	7.2329e-07	26.865	0.00018978	0.00018488	5.0656e-05	1049.6	1.9852e-06	1.9767e-06	1154.1	224.09	1.9471e-06	1.9861e-06	281.79	80.921	62.009	18.734	2.0041e-06	26.714	185.549	207.752	229.957	-106.920	19.140	-90.274	-107.004	-99.850	-25.755	98.819	-99.828	-94.040	-93.395	-85.993	-60.436	-86.687	-8191	255	
839.939	1	1	0	0	0.1158	0.18498	0.28872	0.34415	0.19743	0.25343	0.35996	0.080459	0.24155	0.24109	0.22506	0.36283	0.056714	0.036616	0.14654	0.27117	-2.375	-2.8125	-2.7188	-2.725	-3.1375	-2.6354	-3.0938	-2.95	-2.7417	-2.8896	-2.8396	-2.8479	-3.0938	-2.6854	-2.7812	-2.9646	117.364	193.488	-95.861	-102.691	-112.444	135.634	178.757	158.085	79.148	144.105	121.330	-90.235	-75.302	-30.517	241.316	205.541	0.00011306	0.00071856	7.7946e-05	1135.2	1.8084e-06	2.6169e-06	1208.5	231.41	2.679e-06	5.7399e-06	294.51	82.641	63.374	18.838	1.8125e-06	27.121	0.0001865	0.00018917	5.3901e-05	1064.8	2.1596e-06	2.2237e-06	1167.6	226.34	2.2419e-06	2.2026e-06	284.07	81.55	62.567	18.794	2.1652e-06	26.806	183.601	-10.093	-43.796	-107.046	94.730	68.797	-107.050	-99.839	-49.056	62.290	-100.212	-93.930	-93.084	-85.968	27.477	-86.679	-8191	255	
840.035	1	1	0	0	0.25092	0.089291	0.1772	0.28545	0.18225	0.058553	0.1829	0.094886	0.089776	0.23386	0.10884	0.048566	0.17751	0.10158	0.051141	0.12886	-2.3917	-2.9771	-2.8979	-2.6063	-2.8937	-2.7542	-2.9521	-3.0958	-2.7979	-2.9458	-2.8396	-2.7958	-2.8812	-2.7521	-2.7812	-3.0812	-58.068	189.492	94.052	148.134	-117.706	48.181	135.318	125.865	63.817	-38.463	110.129	17.667	-19.544	161.294	90.333	83.179	9.0137e-05	0.00030057	0.00017903	1145.5	3.4004e-06	2.6687e-06	1210.1	231.89	2.324e-06	1.5932e-06	294.11	83.11	63.522	19.02	1.4033e-06	26.904	0.00019716	0.00019748	5.524e-05	1069.2	2.2356e-06	2.2109e-06	1169.9	226.67	2.201e-06	2.1508e-06	284.46	81.835	62.694	18.835	2.1856e-06	26.764	213.296	-57.601	-116.204	-106.732	-20.000	137.356	-106.841	-100.187	-56.564	42.386	-100.152	-93.305	-93.615	-86.135	-49.001	-86.709	-8191	255	
840.131	1	1	0	0	0.17346	0.18264	0.13065	0.2575	0.12762	0.13317	0.42362	0.055737	0.18207	0.13227	0.25034	0.081404	0.10011	0.30653	0.078475	0.21652	-2.4062	-2.8229	-2.8375	-2.7	-3.1188	-2.7687	-2.9938	-2.9333	-2.5438	-3.0521	-2.7938	-2.6813	-2.95	-3.0208	-2.8729	-3.1375	216.247	-75.656	142.957	177.670	170.428	26.625	175.213	63.084	-11.797	217.348	205.556	-117.358	-38.329	62.164	-20.197	149.343	0.00011216	0.0004231	8.9203e-05	1144	2.5216e-06	3.8981e-06	1209.3	233.28	2.6468e-06	2.1172e-06	291.92	82.374	63.316	18.939	1.5772e-06	27.106	0.00019993	0.00019812	5.6156e-05	1067.4	2.2284e-06	2.2673e-06	1169.6	227.07	2.2952e-06	2.2949e-06	283.26	81.673	62.549	18.862	2.3446e-06	26.812	205.844	28.908	-42.381	-107.133	-14.711	69.303	-106.964	-99.730	-82.671	63.620	-99.976	-93.853	-92.957	-85.839	76.268	-86.539	-8191	255	
840.225	1	1	0	0	0.14088	0.20801	0.091419	0.34593	0.095736	0.11602	0.13795	0.15787	0.11325	0.27646	0.04035	0.36169	0.027067	0.039121	0.038448	0.080318	-2.3208	-2.8292	-2.9188	-2.6813	-3.0729	-3.0229	-2.9188	-3.1646	-2.8604	-2.9938	-3.0021	-3.0271	-3.0062	-2.8146	-2.6854	-2.9979	-101.378	226.125	-16.133	195.973	-90.197	-92.570	56.790	224.235	51.736	-51.877	31.341	105.944	200.460	-66.795	89.568	-60.003	9.5112e-05	0.00041166	8.7946e-05	1146	6.561e-06	1.3818e-06	1211.8	232.97	5.0348e-07	4.1834e-06	294.85	82.673	64.132	19.047	1.8042e-06	27.039	0.00021365	0.00021756	6.0687e-05	1074.9	2.3938e-06	2.4444e-06	1175.2	227.82	2.4882e-06	2.4643e-06	285.14	82.086	63.048	19.003	2.3411e-06	26.867	199.000	54.277	-10.564	-106.828	44.393	187.819	-106.915	-99.925	70.475	7.825	-100.129	-94.070	-93.126	-85.986	-77.522	-86.984	-8191	255	
840.322	1	1	0	0	0.16978	0.18341	0.19801	0.13685	0.12736	0.4124	0.047689	0.33149	0.16534	0.02403	0.077415	0.21946	0.11334	0.16961	0.23728	0.24905	-2.2812	-2.7479	-3.0896	-2.675	-2.9	-3.0083	-2.9104	-3.1479	-2.8729	-2.9708	-3.1083	-2.7479	-2.9	-2.9604	-2.7562	-2.9521	190.693	151.553	117.863	-95.952	-97.619	8.593	128.464	177.467	-66.488	185.363	74.286	-114.805	-5.854	-92.797	26.696	144.949	0.00011206	0.0003899	0.00013484	1152.7	1.174e-06	3.5952e-06	1215.6	232.46	2.6981e-07	1.4069e-06	296.88	82.897	64.33	19.164	5.7327e-06	27.389	0.00021242	0.00020698	5.6917e-05	1076.2	2.2474e-06	2.1898e-06	1175.4	227.72	2.1556e-06	2.1236e-06	285.62	81.801	62.968	19.032	2.0908e-06	27.011	227.663	-19.867	-49.509	-106.984	11.806	33.874	-107.293	-100.024	-21.447	-70.044	-100.148	-94.137	-92.787	-86.163	-11.699	-86.692	-8191	255	
840.418	1	1	0	0	0.13631	0.11619	0.31472	0.1615	0.11914	0.11981	0.22438	0.13218	0.14402	0.086162	0.22529	0.056112	0.10198	0.24583	0.1846	0.11294	-2.4083	-2.8896	-3.0292	-2.7292	-3.0396	-2.9396	-2.8521	-3.1083	-2.8417	-2.8187	-3.0979	-2.8417	-2.8292	-2.9854	-2.6729	-3.05	117.960	59.469	75.260	114.171	50.423	232.503	217.053	112.025	191.488	200.872	-81.145	132.926	228.406	-80.510	27.297	77.317	0.00012987	0.00011597	5.7467e-05	1153.2	8.6827e-07	4.2488e-06	1217.7	235.78	1.6159e-06	1.479e-06	294.15	84.325	63.874	19.341	1.2107e-06	27.41	0.00018769	0.00018696	5.169e-05	1076.8	2.0364e-06	2.0004e-06	1177.6	229.2	2.0486e-06	2.0507e-06	285.66	82.555	63.051	19.071	2.017e-06	27.075	217.938	28.005	-56.528	-107.252	-32.018	52.731	-106.908	-99.827	-1.934	34.723	-100.234	-94.480	-93.260	-85.869	103.920	-86.756	-8191	255	
840.514	1	1	0	0	0.085192	0.24877	0.12507	0.27446	0.17341	0.063879	0.14092	0.3148	0.13134	0.23546	0.22344	0.32335	0.19002	0.14923	0.13494	0.10866	-2.4792	-2.6875	-2.9854	-2.9042	-3.075	-3.1958	-2.8438	-3.1083	-2.7812	-2.5583	-3.1292	-2.8438	-2.85	-3.1083	-2.675	-3.0958	127.121	240.154	177.816	169.926	2.558	90.995	221.262	203.049	125.587	-76.098	208.856	75.282	240.428	191.250	167.304	89.932	0.00014927	3.7793e-05	8.3991e-05	1156.1	3.4897e-06	5.4123e-06	1226.4	236.07	2.1173e-06	3.2935e-06	297.65	84.21	64.889	19.478	3.7844e-06	27.458	0.00018412	0.00017659	4.9208e-05	1075.7	1.9117e-06	1.8571e-06	1182.7	229.1	1.8688e-06	1.8901e-06	285.52	82.853	63.401	19.212	1.9362e-06	27.162	211.286	16.945	-25.308	-107.031	185.100	128.487	-107.139	-100.027	-24.280	51.975	-100.151	-93.802	-93.427	-86.125	-39.682	-86.161	-8191	255	
840.635	1	1	0	0	0.11126	0.1545	0.099123	0.36719	0.29288	0.18458	0.49059	0.10726	0.12657	0.016776	0.26664	0.25627	0.11062	0.24319	0.33593	0.18432	-2.5542	-2.5875	-3.0771	-2.6708	-3.0125	-3.1854	-2.7729	-3.0917	-2.7771	-2.7188	-2.9792	-2.7292	-2.7375	-2.9771	-2.7729	-2.9583	80.684	97.040	-117.297	228.167	215.195	133.597	152.995	60.337	202.543	-14.693	158.471	184.310	190.947	241.589	118.712	163.990	0.00013314	0.00036739	5.4098e-05	1164.4	3.9225e-06	3.1282e-06	1223.2	235.14	2.6274e-06	7.2728e-06	296.57	84.151	64.14	19.306	2.4349e-06	27.169	0.00018137	0.0001798	5.1322e-05	1079.3	2.0286e-06	2.06e-06	1181.4	229.64	2.1259e-06	2.1108e-06	286.24	82.648	63.375	19.052	2.1736e-06	26.988	174.854	7.020	105.232	-106.898	49.623	44.641	-106.976	-99.632	-96.277	35.375	-100.153	-93.895	-93.210	-86.159	239.050	-86.238	-8191	255	
840.731	1	1	0	0	0.29549	0.16245	0.022773	0.267	0.11604	0.16769	0.24548	0.25062	0.077416	0.078613	0.12266	0.15425	0.073625	0.021993	0.14327	0.049885	-2.5458	-2.4792	-2.9792	-2.7042	-2.6771	-3.1958	-2.8458	-2.9167	-3.1542	-2.7729	-3.1188	-2.9625	-2.6833	-3.2812	-2.9146	-2.6167	22.255	108.711	-31.791	70.396	186.575	138.812	201.164	152.916	-73.820	51.203	232.885	23.280	82.261	193.657	15.166	51.326	0.00013118	0.00054423	7.5431e-05	1154.6	1.8289e-06	5.5039e-06	1215.7	233.61	3.2475e-06	2.6694e-06	293.34	83.474	64.006	19.187	2.2432e-06	27.152	0.00019644	0.00019492	5.3381e-05	1076.9	2.1648e-06	2.1012e-06	1178	228.38	2.1247e-06	2.1358e-06	285.01	82.289	62.934	18.995	2.1689e-06	26.887	173.362	54.806	37.313	-106.978	-25.032	43.665	-106.974	-99.940	1.101	53.677	-99.989	-94.022	-93.362	-86.285	11.059	-86.919	-8191	255	
840.827	1	1	0	0	0.17405	0.18765	0.047802	0.21076	0.16996	0.16843	0.22585	0.17893	0.06754	0.19107	0.18613	0.26924	0.28144	0.16412	0.24078	0.31902	-2.4271	-2.725	-2.7938	-2.8	-2.6125	-3.0583	-2.8292	-2.9958	-3.1229	-2.7583	-2.8625	-2.9042	-2.6625	-3.05	-2.7208	-3.025	-78.467	95.846	-26.175	158.848	90.972	16.135	165.468	-108.334	-20.123	-1.012	158.707	52.276	212.342	-14.751	46.011	218.466	0.0001412	0.00043026	7.0468e-05	1147.4	4.0501e-06	4.9698e-06	1224.3	233.64	2.0034e-06	7.7531e-07	293.65	82.989	63.959	19.118	2.3424e-06	27.031	0.00019759	0.00019755	5.5167e-05	1072.4	2.1426e-06	2.1484e-06	1178.5	227.88	2.1796e-06	2.1618e-06	284.1	82.022	62.951	18.955	2.2365e-06	26.834	216.929	-5.934	76.957	-107.092	23.945	71.358	-107.048	-99.921	-93.412	-1.985	-99.868	-94.183	-93.477	-85.938	29.066	-86.779	-8191	255	
840.923	1	1	0	0	0.26474	0.19749	0.17617	0.12704	0.23473	0.26112	0.060931	0.26511	0.17428	0.16488	0.060629	0.31343	0.13101	0.20707	0.1652	0.28515	-2.4917	-2.7417	-2.8479	-2.975	-2.725	-3.1292	-2.9042	-2.9604	-3.05	-2.6229	-3.1063	-2.8896	-2.6542	-3.0312	-2.8771	-2.8167	152.813	156.263	154.234	-68.512	-69.763	186.303	46.632	137.367	91.009	184.718	222.812	-87.765	73.216	222.605	121.312	121.650	7.6793e-05	0.00075871	9.2764e-05	1148.6	9.665e-07	2.9809e-06	1213.8	231.55	9.2755e-07	4.4171e-06	293.46	82.773	63.047	18.885	2.0117e-06	27.018	0.00020164	0.00019846	5.5066e-05	1073.5	2.1555e-06	2.1748e-06	1172.2	226.77	2.1713e-06	2.1329e-06	283.09	81.723	62.327	18.807	2.0947e-06	26.677	200.246	-29.008	-0.125	-107.103	91.604	234.306	-106.699	-100.106	27.041	100.070	-100.006	-93.930	-93.196	-85.851	85.866	-86.608	-8191	255	
841.019	1	1	0	0	0.10728	0.20101	0.23265	0.32664	0.15046	0.23776	0.10775	0.32548	0.14809	0.22597	0.1083	0.22208	0.0071881	0.095359	0.11005	0.17811	-2.5417	-2.6729	-2.8958	-3.1104	-2.7417	-3.0979	-3.0229	-2.8833	-3.1104	-2.7667	-2.8708	-3.125	-2.6688	-3.0312	-2.9688	-2.8667	195.702	-47.647	27.390	134.126	-96.412	-114.872	15.740	164.180	193.156	40.461	139.239	-39.215	-84.211	223.177	-16.752	-46.214	0.00010771	0.00056744	8.6684e-05	1148.2	3.9891e-06	5.2928e-06	1203.7	232.43	2.8791e-06	1.6258e-06	290.47	82.431	63.739	18.982	1.0465e-06	26.947	0.00019279	0.00019288	5.4362e-05	1065.8	2.109e-06	2.1475e-06	1167.9	226.6	2.2372e-06	2.2357e-06	281.92	81.498	62.553	18.803	2.1808e-06	26.708	176.862	31.791	-38.750	-106.878	-12.992	93.293	-106.886	-100.087	-75.307	52.702	-100.077	-94.321	-93.229	-86.159	-31.397	-86.313	-8191	255	
841.115	1	1	0	0	0.30037	0.082711	0.32513	0.13394	0.29338	0.1794	0.25118	0.23204	0.20908	0.27364	0.21296	0.038815	0.36932	0.093079	0.10082	0.13265	-2.5771	-2.6583	-2.9042	-3.2167	-2.6771	-2.925	-3.1271	-2.6979	-3.0062	-2.7375	-2.9104	-3.0125	-2.5833	-2.8583	-2.8125	-2.6083	96.909	69.859	-92.449	-112.787	14.702	13.381	137.560	131.356	-41.563	33.603	-98.750	176.338	198.624	97.032	0.744	208.767	5.7473e-05	0.00047494	0.00013184	1138.4	3.3867e-06	4.911e-06	1207.8	232.44	4.9614e-06	3.7419e-06	290.72	82.473	63.396	18.746	3.3808e-06	27.009	0.00019667	0.00019264	5.4907e-05	1065.2	2.17e-06	2.1441e-06	1166.7	226	2.2127e-06	2.1933e-06	282.59	81.241	62.472	18.719	2.2232e-06	26.627	198.360	9.818	-38.482	-107.104	-4.858	-14.258	-107.109	-99.889	-5.108	54.773	-100.069	-93.700	-93.257	-85.729	69.821	-86.525	-8191	255	
841.211	1	1	0	0	0.14582	0.087466	0.27898	0.13313	0.059841	0.15926	0.17618	0.29156	0.14097	0.15612	0.11313	0.37337	0.12451	0.10015	0.16514	0.22082	-2.725	-2.7583	-2.7333	-2.9688	-2.5542	-2.9208	-3.0125	-2.7833	-3.1417	-2.7458	-2.8854	-3.0792	-2.8208	-2.8229	-2.9396	-2.7687	48.929	141.200	66.039	-66.772	38.161	37.585	226.734	153.230	110.119	169.269	-76.366	179.237	-53.946	102.750	6.253	118.215	0.00012818	0.00037722	6.8511e-05	1139.5	1.1655e-06	1.7099e-06	1205.4	231.31	4.0575e-06	1.5576e-06	290.75	82.04	63.354	18.908	3.7561e-06	27.025	0.00020417	0.00020456	5.7075e-05	1064.6	2.2425e-06	2.2343e-06	1165.4	225.7	2.1795e-06	2.1757e-06	281.64	81.034	62.282	18.767	2.1679e-06	26.661	213.877	-11.607	-73.499	-107.302	224.684	-62.694	-106.756	-100.020	-40.967	53.100	-99.926	-93.931	-93.420	-85.884	36.431	-86.411	-8191	255	
841.330	1	1	0	0	0.050998	0.068905	0.12043	0.25592	0.26487	0.18853	0.20593	0.37068	0.17432	0.14804	0.091734	0.13534	0.12393	0.11278	0.15178	0.17316	-2.6396	-2.7667	-2.6688	-2.8729	-2.8125	-2.8208	-3.0854	-2.7979	-2.8729	-2.8625	-2.6625	-3.0729	-2.8458	-2.7917	-2.9396	-2.6979	-0.383	-106.208	20.803	150.234	213.529	-53.770	149.123	232.669	41.544	47.318	71.235	173.845	-61.728	-30.384	47.097	82.258	7.3961e-05	0.00025276	9.541e-05	1133.9	4.1077e-06	3.2336e-06	1205.2	230.59	2.383e-06	4.8707e-06	290.7	82.736	63.359	18.734	2.6683e-06	26.724	0.00019913	0.00020081	5.4793e-05	1062.4	2.2369e-06	2.1965e-06	1163.2	225.32	2.219e-06	2.211e-06	282.1	81.32	62.221	18.695	2.2205e-06	26.603	210.338	-8.744	4.172	-106.592	54.342	-90.348	-106.936	-99.753	-81.158	57.920	-99.970	-93.930	-93.340	-85.915	29.514	-86.254	-8191	255	
841.426	1	1	0	0	0.15747	0.13682	0.156	0.28741	0.11553	0.14695	0.166	0.11932	0.19864	0.25869	0.31212	0.18949	0.061825	0.1442	0.089481	0.11384	-2.4813	-2.825	-2.7458	-2.9375	-2.7625	-2.7896	-2.9875	-2.6583	-2.9229	-2.5958	-2.8125	-3.0938	-2.8771	-2.8063	-3.0917	-2.6292	53.542	139.693	45.950	205.345	80.952	-91.456	207.374	-71.963	166.927	109.559	206.619	-56.154	-44.101	-87.028	141.369	50.867	8.7376e-05	0.00029832	0.00016986	1136.5	1.5102e-06	2.844e-06	1203.8	230.54	5.2749e-06	1.8658e-06	291.56	81.849	63.162	18.923	1.9401e-06	26.969	0.000206	0.00020555	5.6943e-05	1063.1	2.2571e-06	2.2415e-06	1163.8	225.48	2.2782e-06	2.2384e-06	282.12	81.001	62.265	18.722	2.1729e-06	26.655	215.220	-93.443	-96.661	-107.168	153.716	66.421	-107.016	-100.114	-84.123	-57.518	-99.780	-93.980	-93.542	-85.616	43.294	-86.746	-8191	255	
841.523	1	1	0	0	0.21773	0.25151	0.063437	0.062026	0.18576	0.3243	0.11742	0.22172	0.11844	0.20183	0.17408	0.12873	0.12754	0.094076	0.046235	0.29061	-2.525	-2.8937	-2.7521	-2.9	-2.8458	-2.4854	-3.1646	-2.8458	-2.7271	-3.0083	-2.8229	-3.1458	-2.8167	-2.7667	-3.1437	-2.7667	-71.214	-115.303	135.228	43.072	149.314	-28.535	127.138	116.918	1.736	-25.069	205.839	207.719	12.934	-69.774	116.977	221.740	0.00010812	0.0003692	6.6026e-05	1131.8	2.0144e-06	2.2847e-06	1203.2	229.49	3.5271e-07	2.7701e-06	291.03	82.545	63.515	18.946	2.2153e-06	26.669	0.00019712	0.00019839	5.4004e-05	1062.1	2.1552e-06	2.1756e-06	1162.5	225.29	2.2262e-06	2.2022e-06	281.58	81.286	62.205	18.734	2.231e-06	26.638	221.209	-38.794	-27.159	-107.104	65.159	34.040	-107.031	-99.670	-67.572	0.509	-100.025	-93.651	-93.206	-86.243	-83.787	-86.573	-8191	255	
841.596	1	1	0	0	0.084163	0.13762	0.097321	0.10352	0.24084	0.15783	0.08552	0.32024	0.27072	0.15327	0.084609	0.32313	0.1912	0.31504	0.071101	0.18197	-2.3479	-2.975	-2.575	-3.0312	-2.8083	-2.85	-3.0896	-2.7833	-2.9917	-3.1542	-2.7167	-3.0375	-2.9729	-2.6333	-2.8583	-2.7375	-14.179	29.451	112.110	-9.335	32.702	192.997	-51.474	136.813	43.419	132.357	86.207	99.979	223.921	210.559	41.156	198.731	0.00012567	0.00096799	0.00013207	1140	1.549e-06	1.7466e-06	1202.5	231.1	4.3373e-06	3.9161e-06	292.13	81.254	63.179	18.823	2.0995e-06	26.937	0.00020384	0.00020724	5.7341e-05	1064.2	2.3171e-06	2.3094e-06	1164.9	225.69	2.3178e-06	2.302e-06	281.93	80.949	62.234	18.725	2.2819e-06	26.675	225.933	-54.799	-81.751	-106.973	27.833	50.006	-106.915	-99.823	-17.441	-30.461	-99.891	-93.946	-93.385	-86.254	-43.239	-86.596	-8191	255	
841.715	1	1	0	0	0.12158	0.16156	0.3803	0.020501	0.28071	0.090452	0.23077	0.29358	0.27607	0.011391	0.2874	0.27906	0.20833	0.082498	0.096032	0.16423	-2.1771	-3.0687	-2.7062	-2.9417	-2.8667	-2.6646	-2.9958	-2.7542	-2.7083	-2.9458	-2.6292	-2.7896	-2.8875	-2.6542	-2.9688	-2.9729	91.795	227.893	19.850	-27.220	66.921	69.611	-95.692	171.192	-39.107	42.386	-114.958	229.919	163.399	-68.817	-70.294	240.678	0.00012326	0.00033791	0.00017254	1134	3.8476e-06	1.9164e-06	1203.5	230.13	3.6431e-06	4.4103e-06	291.09	82.043	63.416	18.902	3.1699e-06	26.813	0.0002078	0.00020677	5.6809e-05	1064.3	2.2378e-06	2.2203e-06	1163.4	225.22	2.29e-06	2.3036e-06	282.66	81.326	62.487	18.733	2.2399e-06	26.632	189.925	-19.057	22.108	-106.508	118.369	60.538	-107.066	-99.946	-17.598	7.972	-99.976	-94.114	-93.243	-85.923	87.877	-86.456	-8191	255	
841.811	1	1	0	0	0.19383	0.28828	0.12699	0.39002	0.38696	0.088404	0.38098	0.090504	0.094658	0.30636	0.18787	0.26245	0.13529	0.32662	0.27799	0.060563	-2.4417	-2.8771	-2.8979	-2.925	-3.0458	-2.6813	-3.1875	-3.0396	-2.7438	-3.0583	-2.8	-2.8438	-2.7792	-2.7583	-3.0333	-2.8104	208.417	146.230	81.764	-99.467	119.383	45.041	177.769	148.015	-40.564	-36.926	167.342	233.447	-106.473	-111.143	146.385	191.573	9.8979e-05	0.00040259	3.4225e-05	1135.2	4.1042e-06	2.3045e-06	1199.4	230.11	2.0437e-06	1.8733e-06	290.86	81.821	63.529	18.746	1.5397e-06	26.974	0.00020243	0.00020313	5.5359e-05	1061.5	2.1771e-06	2.1778e-06	1160.1	224.93	2.1224e-06	2.1301e-06	281.56	80.979	62.117	18.68	2.0839e-06	26.568	212.992	-18.116	5.314	-106.953	17.385	-89.320	-106.913	-99.919	-78.284	76.787	-99.627	-94.115	-93.128	-85.847	152.417	-86.706	-8191	255	
841.907	1	1	0	0	0.14159	0.099202	0.14637	0.13419	0.20895	0.30022	0.17113	0.24653	0.14366	0.23797	0.20836	0.22872	0.12919	0.21625	0.13357	0.16757	-2.1042	-2.8833	-2.7292	-2.8896	-2.9437	-2.6521	-3.0062	-3.0479	-2.7333	-2.8896	-2.9542	-2.6896	-3.1	-2.6063	-3.1167	-3.0271	42.355	138.899	62.409	200.778	-92.603	208.458	-111.193	-26.433	126.525	-90.739	207.439	188.709	0.130	225.204	8.067	238.101	8.3865e-05	0.00015707	4.4111e-05	1130.2	3.5367e-06	5.4891e-07	1198	229.88	1.0591e-06	2.8091e-06	290.58	82.227	62.795	18.827	9.819e-07	27.024	0.00019205	0.00019357	5.4642e-05	1058.8	2.1544e-06	2.1315e-06	1160.3	225.13	2.1888e-06	2.196e-06	281.48	81.179	62.104	18.679	2.1964e-06	26.639	208.718	-37.026	-67.808	-106.808	-104.046	3.766	-106.968	-99.452	-11.455	22.118	-99.919	-93.471	-92.822	-85.909	-43.735	-86.601	-8191	255	
842.003	1	1	0	0	0.13829	0.20363	0.1669	0.15025	0.28473	0.20074	0.32396	0.20172	0.18613	0.15992	0.09321	0.27897	0.085482	0.046331	0.24942	0.13832	-2.4458	-3.0792	-2.6875	-2.8937	-3.0104	-2.8625	-3.0583	-3.0187	-2.8458	-2.9604	-2.7729	-2.8521	-2.9854	-2.7188	-2.8542	-2.9958	4.302	90.066	100.900	-105.288	140.375	68.786	197.742	-73.522	-38.527	-91.017	6.885	239.714	10.558	166.436	118.570	-102.693	0.00010272	0.00034011	3.4911e-05	1140	2.5853e-06	4.6222e-06	1198.8	229.31	2.9811e-06	1.7066e-06	291.84	81.771	62.963	18.746	4.214e-06	26.606	0.00019784	0.00019538	5.4768e-05	1060.1	2.1141e-06	2.0901e-06	1158.5	224.52	2.1237e-06	2.1275e-06	281.51	80.819	61.953	18.641	2.209e-06	26.487	192.068	76.918	22.891	-106.652	109.390	90.314	-106.756	-99.742	125.838	-64.946	-100.130	-93.727	-93.061	-86.161	40.009	-86.635	-8191	255	
842.122	1	1	0	0	0.1363	0.034473	0.15176	0.21894	0.39485	0.29472	0.16306	0.12802	0.099643	0.088202	0.11933	0.16559	0.03244	0.027469	0.16778	0.066105	-2.1646	-3.125	-2.8083	-2.6521	-2.9875	-2.6896	-3.0042	-3.0875	-2.8646	-3.0583	-2.9062	-2.6833	-3.0312	-2.7604	-2.8396	-3.0771	9.644	128.823	125.947	193.398	67.107	121.056	164.623	25.641	0.103	-103.274	17.938	212.737	-63.628	123.039	175.019	102.628	0.00012003	0.00036524	3.0754e-05	1129.2	1.9511e-06	2.8174e-06	1189	230.3	3.8476e-06	1.7244e-06	290.6	81.598	62.827	18.816	1.8299e-06	26.849	0.00019814	0.00019534	5.4242e-05	1054.3	2.102e-06	2.1209e-06	1152	223.93	2.0701e-06	2.0382e-06	280.87	80.527	61.74	18.59	2.0812e-06	26.464	205.844	-37.406	-13.491	-107.052	94.063	165.445	-107.206	-99.589	-79.604	70.891	-100.059	-94.008	-92.945	-86.051	43.038	-86.458	-8191	255	
842.196	1	1	0	0	0.037719	0.057031	0.042957	0.14852	0.18683	0.15352	0.23686	0.16398	0.15666	0.12443	0.13201	0.22606	0.05085	0.056259	0.20254	0.15193	-2.2646	-2.8604	-2.8	-2.7646	-3.1229	-2.8375	-2.9917	-3.1292	-2.6937	-3.1292	-2.9125	-2.7583	-2.9792	-2.5042	-2.8187	-3.1125	223.604	91.803	-33.645	113.249	-107.079	58.643	161.228	-2.573	-44.122	197.538	-116.969	46.226	192.874	-49.383	92.891	197.285	0.00015953	0.00026729	6.5264e-05	1126.9	3.2651e-06	2.9718e-06	1196.3	228.2	1.2331e-06	4.2999e-06	290.11	81.503	62.868	18.692	2.7646e-06	26.792	0.00019056	0.00018843	5.1579e-05	1053.1	2.041e-06	2.0608e-06	1153.3	223.73	2.1027e-06	2.1058e-06	280.62	80.786	61.713	18.574	2.0751e-06	26.445	182.028	-57.024	-36.640	-107.102	48.041	-66.427	-106.650	-99.839	-28.768	-2.664	-100.404	-93.506	-93.611	-85.827	56.210	-86.498	-8191	255	
842.316	1	1	0	0	0.058753	0.078895	0.2167	0.17995	0.17664	0.096124	0.23383	0.16089	0.27993	0.18572	0.19201	0.2208	0.081302	0.24543	0.17987	0.14261	-2.3333	-2.9854	-3.0146	-2.6104	-2.9875	-2.7646	-2.8333	-3.2	-2.7021	-2.875	-2.8438	-2.7583	-2.975	-2.7729	-2.6458	-3.1458	57.891	56.297	79.586	161.326	198.476	90.360	174.976	214.203	-79.054	-86.217	-103.626	142.121	-116.936	-74.260	-105.116	90.486	0.00013136	0.00013213	7.7279e-05	1138.6	3.1772e-06	4.0826e-06	1193.4	229.1	4.1081e-06	3.5013e-06	290.49	81.649	62.601	18.839	5.5131e-06	26.723	0.00018971	0.00019083	5.2967e-05	1055	2.1243e-06	2.1042e-06	1154.8	224.13	2.1884e-06	2.1504e-06	281.4	80.781	61.931	18.62	2.2141e-06	26.556	202.957	-91.295	0.978	-107.012	-79.996	65.391	-106.735	-99.915	-64.483	30.820	-99.894	-93.826	-93.235	-86.167	-16.935	-86.460	-8191	255	
842.412	1	1	0	0	0.22756	0.19197	0.16116	0.15054	0.20512	0.18623	0.39965	0.087804	0.16549	0.17766	0.2179	0.27887	0.054496	0.20716	0.051115	0.25736	-2.3812	-2.85	-2.6937	-2.4917	-2.9854	-2.825	-2.7021	-3.0771	-2.6813	-2.7458	-2.8187	-2.6667	-3.025	-2.8646	-2.6188	-2.8854	53.706	241.220	-111.277	85.037	110.899	123.982	196.814	232.125	81.010	33.759	-64.652	182.763	208.699	-96.231	-73.656	219.101	0.0001558	0.00021267	0.00018774	1128.4	2.5479e-06	1.399e-06	1201	230.37	2.0632e-06	2.6037e-06	291.4	82.261	63.174	18.636	8.8043e-07	26.733	0.00020419	0.00019809	5.5839e-05	1057.4	2.1871e-06	2.1879e-06	1158.6	224.77	2.1743e-06	2.1443e-06	281.13	80.945	61.949	18.613	2.1366e-06	26.518	187.151	-65.371	58.894	-106.779	-35.334	-27.773	-106.796	-99.827	-12.250	37.518	-100.174	-93.615	-93.249	-86.278	-97.568	-86.488	-8191	255	
842.507	1	1	0	0	0.085907	0.17903	0.065167	0.11389	0.25494	0.057531	0.15181	0.18727	0.29399	0.078405	0.14497	0.17067	0.19805	0.11204	0.15155	0.15877	-2.3125	-2.6792	-3.0292	-2.7333	-2.9604	-2.8646	-2.7125	-3.0208	-2.8021	-2.875	-3.05	-2.8792	-2.9792	-2.9229	-2.6792	-3.1417	-114.742	-66.622	71.887	208.477	232.209	-88.016	228.090	180.680	108.990	205.428	129.247	87.946	185.846	212.864	89.365	101.362	7.7465e-05	0.00014646	0.00014764	1125.8	2.8364e-06	2.7652e-06	1195.7	229.84	4.0413e-06	1.641e-06	290.7	81.64	62.674	18.802	4.1867e-06	26.563	0.00019356	0.00019299	5.4191e-05	1053.5	2.1607e-06	2.1646e-06	1156.5	224.18	2.2001e-06	2.2464e-06	281.03	80.654	61.775	18.614	2.1957e-06	26.455	236.832	24.252	-30.962	-107.082	50.379	7.052	-106.920	-99.891	-60.169	206.142	-100.075	-93.871	-92.910	-86.278	3.741	-86.306	-8191	255	
842.603	1	1	0	0	0.099723	0.22534	0.069828	0.28817	0.1657	0.15207	0.116	0.17161	0.16294	0.25184	0.11899	0.073047	0.064661	0.023979	0.1027	0.091076	-2.3187	-2.7792	-3.1063	-2.6917	-2.9208	-3.0854	-2.8958	-3.1417	-2.8292	-2.8896	-3.0646	-2.8104	-2.8563	-2.8563	-2.7	-3.1562	-31.552	156.278	-58.622	187.093	-87.074	-82.303	127.162	146.035	186.589	-96.214	169.410	-97.740	-70.568	9.893	-71.663	44.765	8.7989e-05	0.00021787	7.8781e-05	1137.8	3.5266e-06	1.1222e-06	1198.6	230.35	1.1567e-06	3.4554e-06	290.5	81.88	62.801	18.787	2.0526e-06	26.785	0.00019443	0.00019345	5.289e-05	1056.8	2.0605e-06	2.022e-06	1153.4	224.04	2.0312e-06	2.0163e-06	280.17	80.801	61.678	18.583	2.0859e-06	26.497	226.073	29.908	15.983	-106.732	46.412	106.340	-106.718	-99.721	-78.085	26.598	-100.177	-94.131	-93.340	-85.748	13.678	-86.138	-8191	255	
842.724	1	1	0	0	0.17828	0.10596	0.16012	0.13376	0.25034	0.19911	0.2803	0.23378	0.076947	0.079579	0.19501	0.11142	0.18573	0.22877	0.25402	0.17682	-2.3479	-2.85	-2.9313	-2.7687	-2.8896	-3.0292	-2.6958	-3.1271	-2.8	-2.6042	-3.1792	-2.6667	-2.8292	-3.0458	-2.8271	-2.9729	-113.924	182.764	54.734	97.913	107.384	68.420	119.183	219.781	87.632	228.975	-106.948	106.900	151.780	-0.513	183.810	-63.898	0.00013061	0.00040459	0.00014801	1131.3	9.8054e-07	1.6409e-06	1192.9	229.88	3.284e-06	3.7389e-06	289.87	81.254	62.374	18.76	3.9954e-06	26.68	0.00019238	0.00019294	5.3506e-05	1051.6	2.1354e-06	2.1048e-06	1153.6	224.07	2.1552e-06	2.1447e-06	280.51	80.475	61.603	18.668	2.1504e-06	26.578	204.070	-74.657	-15.338	-106.985	222.623	198.889	-106.906	-99.942	-9.796	33.338	-99.900	-93.871	-93.195	-85.776	50.279	-86.713	-8191	255	
842.795	1	1	0	0	0.35638	0.13377	0.32798	0.20831	0.28819	0.091221	0.50999	0.12632	0.21225	0.12325	0.41196	0.039881	0.19277	0.24816	0.071928	0.13649	-2.4854	-2.7958	-2.8563	-3.0125	-2.9854	-2.9771	-2.7875	-3.1479	-2.7938	-2.7146	-3.1396	-2.7271	-2.8042	-2.9854	-2.775	-2.9833	24.150	-68.192	220.573	-27.416	-87.072	71.089	205.309	198.669	26.752	5.083	186.053	-32.829	135.106	139.825	65.889	-28.053	0.00012456	0.000362	0.00021124	1128.8	4.1498e-06	4.054e-06	1192.1	230.6	6.1629e-07	3.21e-06	290.34	82.069	63.121	18.768	4.7391e-06	26.964	0.00019482	0.00019693	5.4722e-05	1053.3	2.1671e-06	2.17e-06	1153.2	224.39	2.1866e-06	2.1663e-06	281.21	80.841	61.92	18.633	2.1695e-06	26.535	203.797	240.280	-58.041	-106.875	-42.858	-18.289	-107.178	-99.645	-66.032	193.035	-99.875	-93.730	-93.244	-85.786	-21.395	-86.198	-8191	255	
842.916	1	1	0	0	0.13846	0.14661	0.15004	0.18521	0.052692	0.26683	0.18848	0.27682	0.091322	0.042144	0.39319	0.17261	0.10537	0.066711	0.13771	0.15012	-2.4604	-2.7292	-2.9	-2.8583	-2.5833	-3.0312	-2.8104	-2.9625	-3.0375	-2.7646	-2.9417	-2.7479	-2.8563	-3.1688	-2.7729	-3.0104	-97.215	170.322	108.675	-22.642	176.551	-48.435	196.454	-65.640	78.543	44.518	208.421	168.596	169.673	241.427	28.913	155.650	0.00011071	0.00044176	0.00010439	1129.8	1.5143e-06	5.5425e-06	1193.7	229.61	4.7869e-07	3.1572e-06	292.35	81.817	62.512	18.637	1.5488e-06	26.711	0.00019659	0.00019787	5.5768e-05	1056.5	2.2216e-06	2.2044e-06	1156.5	224.28	2.2057e-06	2.1944e-06	281.4	80.801	61.912	18.588	2.179e-06	26.432	196.077	-32.822	-57.842	-106.724	148.436	1.161	-106.708	-99.739	-52.923	58.891	-99.864	-94.152	-93.181	-86.073	63.970	-86.804	-8191	255	
843.012	1	1	0	0	0.1055	0.16411	0.10014	0.15961	0.15143	0.25301	0.28884	0.18414	0.11327	0.19346	0.086406	0.065043	0.41474	0.26709	0.16046	0.081069	-2.4167	-2.8917	-2.8771	-2.9021	-2.7042	-3.0729	-2.975	-2.9292	-2.9521	-2.6437	-2.9292	-2.9521	-2.6396	-2.9771	-2.9604	-2.9333	202.392	4.585	6.166	-31.977	114.108	157.065	160.026	-73.999	-106.361	109.127	97.864	159.864	203.719	-62.997	233.032	-77.352	8.5322e-05	0.00040281	0.00012437	1134.1	2.9227e-07	7.899e-07	1194.9	230.08	2.765e-06	7.6305e-07	290.55	81.789	62.614	18.767	2.8319e-06	26.814	0.0001984	0.00019946	5.4971e-05	1057.8	2.1628e-06	2.1103e-06	1153.2	224.04	2.0764e-06	2.047e-06	280.27	80.614	61.691	18.592	2.0569e-06	26.516	193.573	26.080	-60.012	-106.841	16.899	189.359	-106.844	-99.760	-68.020	64.002	-99.799	-93.772	-93.508	-85.760	9.655	-86.141	-8191	255	
843.108	1	1	0	0	0.091508	0.023307	0.17016	0.13882	0.091192	0.01932	0.1485	0.31044	0.067426	0.16159	0.21139	0.18865	0.11768	0.20211	0.045108	0.20573	-2.5917	-2.6667	-2.7292	-2.9542	-2.7375	-3.0521	-3.0667	-2.9958	-3.125	-2.65	-2.95	-2.8583	-2.6354	-3.0375	-2.8708	-2.8333	-103.233	79.783	-33.840	94.934	188.136	-14.048	207.288	176.100	89.458	239.654	231.512	184.389	213.737	195.751	-7.785	-84.372	0.00011308	0.00038138	0.00016862	1125.2	2.5719e-06	3.2627e-06	1191.5	229.88	4.4749e-06	1.2775e-06	290.4	81.577	63.089	18.89	3.7633e-06	26.794	0.00019177	0.00018919	5.2464e-05	1049.6	2.0991e-06	2.1146e-06	1151.7	223.66	2.0977e-06	2.136e-06	281.05	80.643	61.638	18.598	2.1059e-06	26.537	218.650	-54.326	-76.564	-106.646	14.314	131.146	-106.980	-99.787	-66.023	95.737	-100.146	-94.085	-93.504	-86.011	69.398	-86.470	-8191	255	
843.204	1	1	0	0	0.078083	0.11199	0.028111	0.34018	0.26889	0.016268	0.30065	0.17288	0.11459	0.071146	0.32726	0.068198	0.23765	0.17276	0.36454	0.2706	-2.7188	-2.6688	-2.9542	-3.1083	-2.7687	-2.9813	-3.0875	-3.0438	-2.9146	-2.6771	-2.9646	-3.0187	-2.6646	-2.9729	-2.7438	-2.8021	-90.518	-88.350	35.876	175.728	-38.470	96.751	146.051	150.672	139.662	41.633	-84.197	223.430	207.539	90.601	96.088	99.179	0.00013084	0.00027436	0.00013122	1132.1	3.1924e-06	6.9597e-06	1196.7	228.64	2.2363e-06	1.5999e-06	289.34	81.585	63.061	18.758	1.8664e-06	26.798	0.00019122	0.00019101	5.2509e-05	1053.8	2.0991e-06	2.106e-06	1154.5	223.62	2.1093e-06	2.0943e-06	280.5	80.657	61.773	18.632	2.107e-06	26.543	204.769	12.992	-14.655	-106.916	80.069	66.945	-106.878	-99.876	-37.227	89.151	-100.053	-93.895	-93.146	-86.071	-35.823	-86.412	-8191	255	
843.299	1	1	0	0	0.15979	0.18772	0.21161	0.17318	0.22358	0.12311	0.19963	0.21204	0.2105	0.12653	0.21009	0.065597	0.044151	0.04753	0.13548	0.10359	-2.5417	-2.6937	-2.8417	-3.0604	-2.7292	-2.9896	-2.9854	-2.7604	-3.125	-3.0271	-2.7854	-2.925	-2.7292	-2.9083	-2.7354	-2.7771	180.788	-88.027	-97.145	219.105	36.799	127.771	-92.890	173.176	64.272	24.051	214.201	163.719	229.626	215.954	39.766	-4.334	0.00011224	0.00013205	3.217e-05	1130	3.8988e-06	1.6577e-06	1192.2	229.54	2.2307e-06	6.0745e-07	290.1	81.567	62.722	18.723	1.1318e-06	26.77	0.00019103	0.0001893	5.3173e-05	1051.7	2.1139e-06	2.0807e-06	1153	224.05	2.1607e-06	2.1848e-06	280.61	80.711	61.754	18.621	2.1706e-06	26.503	219.393	224.243	-29.063	-106.965	-26.905	120.093	-106.902	-99.810	-15.666	117.474	-99.980	-93.932	-93.117	-85.732	77.874	-86.524	-8191	255	
843.419	1	1	0	0	0.10138	0.26962	0.19103	0.19061	0.090062	0.10121	0.092084	0.13732	0.14782	0.25073	0.28588	0.2185	0.22563	0.3403	0.027017	0.021914	-2.5896	-2.5646	-2.6937	-2.8312	-2.7479	-2.9167	-3.0417	-2.7125	-3.0604	-2.6042	-2.8104	-3.1021	-2.8229	-2.6167	-2.8104	-2.7771	-114.008	22.350	118.392	230.839	142.440	191.771	177.411	227.484	-22.937	-112.562	-112.063	237.111	-97.911	190.250	115.138	138.890	0.00013443	0.00011271	8.718e-05	1125.4	5.6223e-06	1.1145e-06	1187.9	229.96	2.5904e-06	1.9697e-06	291.07	81.477	62.544	18.656	3.3462e-06	26.792	0.00019614	0.00019635	5.4686e-05	1052.7	2.1447e-06	2.1324e-06	1152.7	224	2.1708e-06	2.1952e-06	281.17	80.544	61.784	18.617	2.1689e-06	26.478	191.417	180.070	27.120	-107.001	-19.570	-30.117	-107.011	-99.393	-76.084	17.181	-99.977	-93.649	-93.538	-85.974	11.335	-86.666	-8191	255	
843.491	1	1	0	0	0.056336	0.36861	0.20062	0.18166	0.1413	0.14012	0.38616	0.12712	0.19095	0.16877	0.076553	0.16518	0.01714	0.27734	0.12809	0.2921	-2.3167	-2.8229	-2.7562	-2.8375	-2.7062	-3.0938	-3.0521	-2.8125	-2.9813	-3.0396	-2.7583	-2.8688	-2.7396	-2.8521	-3.0208	-2.6771	31.233	91.992	18.945	-24.320	196.627	-33.755	196.864	-57.463	-82.564	-17.834	113.390	-64.857	19.161	160.633	21.128	178.915	9.9433e-05	0.00015702	8.4338e-05	1126.9	2.8566e-06	7.8339e-06	1192.1	228.77	1.4605e-06	3.0173e-06	289.68	82.073	62.894	18.686	2.5962e-06	26.613	0.00020159	0.00020256	5.5531e-05	1055.4	2.2302e-06	2.2099e-06	1153.3	224	2.1748e-06	2.1651e-06	280.39	80.766	61.603	18.602	2.1761e-06	26.477	216.437	87.625	-53.047	-107.027	22.187	25.466	-106.817	-99.684	-35.757	35.935	-100.072	-93.757	-93.400	-85.971	98.661	-86.694	-8191	255	
843.587	1	1	0	0	0.32365	0.2427	0.23766	0.35199	0.21994	0.16915	0.21652	0.28367	0.22721	0.08865	0.13594	0.27258	0.088373	0.13455	0.27872	0.17766	-2.5021	-2.7167	-2.6	-3.2104	-2.6604	-2.8583	-3.1875	-2.8042	-2.9062	-2.925	-2.7	-2.9771	-2.7625	-2.8625	-2.9375	-2.7042	44.495	226.684	137.587	224.089	205.169	225.934	148.177	120.720	143.821	118.371	94.109	128.534	41.314	128.822	170.265	33.826	0.00011814	0.00018709	8.5955e-05	1125.8	6.2268e-06	2.4356e-06	1192.6	228.96	3.6788e-06	3.347e-06	289.62	80.873	62.368	18.934	2.5577e-06	26.585	0.00019835	0.00019697	5.4167e-05	1054.4	2.1844e-06	2.1781e-06	1152.2	223.67	2.1739e-06	2.1659e-06	280.21	80.624	61.653	18.653	2.2087e-06	26.445	203.849	46.635	211.078	-107.060	15.282	-8.926	-106.818	-99.950	3.206	28.176	-99.731	-93.981	-93.746	-85.811	61.246	-86.559	-8191	255	
843.683	1	1	0	0	0.07131	0.12646	0.15815	0.27092	0.1157	0.15009	0.050254	0.29601	0.1019	0.076439	0.24118	0.075367	0.16554	0.35213	0.067087	0.176	-2.6479	-2.9688	-2.5021	-2.9979	-2.7854	-2.8021	-3.2125	-2.9562	-2.8063	-3.0208	-2.6958	-3.0312	-2.8583	-2.9542	-2.9083	-2.7042	-10.428	-102.227	189.662	171.871	164.002	242.133	-116.937	178.414	43.965	-81.714	53.061	54.770	-40.167	-62.791	119.251	227.155	0.00011528	0.0003905	9.7826e-05	1127.8	3.49e-06	1.727e-06	1191.5	229.09	3.1543e-06	4.107e-06	289.8	81.552	63.034	18.835	3.4056e-06	26.894	0.00020223	0.00019913	5.5833e-05	1054.5	2.1592e-06	2.1545e-06	1153.1	223.71	2.1129e-06	2.1015e-06	280.32	80.609	61.87	18.582	2.089e-06	26.49	196.393	-49.413	-19.798	-106.982	1.162	61.680	-106.931	-99.686	10.873	30.284	-100.021	-93.517	-93.367	-85.946	-11.098	-86.510	-8191	255	
843.804	1	1	0	0	0.089377	0.01985	0.080832	0.096438	0.17618	0.067552	0.21506	0.18071	0.22088	0.20727	0.22519	0.0931	0.14316	0.090825	0.18888	0.10156	-2.3125	-2.9167	-2.6479	-2.9271	-2.8729	-2.5521	-3.1917	-2.825	-2.8646	-2.9792	-2.7396	-2.9792	-2.9813	-2.9	-3.0125	-2.85	220.115	37.865	198.260	130.834	115.848	-14.282	-84.551	77.145	95.623	28.086	175.291	228.706	-31.217	150.661	103.214	63.553	0.00011811	0.00021446	7.7612e-05	1118.8	1.381e-06	4.4845e-06	1190.5	229.33	3.1241e-06	2.6629e-06	290.13	81.808	62.852	18.832	2.0509e-06	26.76	0.00018858	0.0001904	5.3217e-05	1050.3	2.1017e-06	2.0797e-06	1150.3	223.64	2.1466e-06	2.0638e-06	280.43	80.627	61.856	18.66	2.1661e-06	26.503	189.689	-41.240	-64.008	-107.185	218.782	12.851	-106.759	-99.675	-50.587	9.696	-99.953	-93.816	-93.559	-86.074	-70.467	-86.239	-8191	255	
843.900	1	1	0	0	0.082123	0.13711	0.14708	0.10397	0.12904	0.041953	0.05385	0.22966	0.18019	0.2177	0.15739	0.18127	0.092716	0.086356	0.050679	0.24323	-2.4292	-2.7958	-2.6063	-2.9479	-2.7958	-2.6917	-2.9896	-2.8	-2.75	-3.0229	-2.6479	-2.9188	-2.8104	-2.6833	-2.9188	-2.7083	182.895	208.765	42.317	218.569	53.889	-75.513	-23.511	174.054	73.505	122.934	143.589	56.897	108.164	-13.381	134.306	212.883	9.5521e-05	0.00011154	0.00010314	1138	3.3165e-06	2.7645e-06	1190.9	229.52	5.971e-08	1.6633e-06	290.88	81.158	63.064	18.745	3.8504e-06	26.759	0.00019847	0.00019763	5.4925e-05	1055.9	2.1404e-06	2.1541e-06	1152.7	223.86	2.1568e-06	2.1703e-06	281.11	80.719	61.968	18.642	2.2094e-06	26.518	199.092	-17.249	1.713	-106.777	66.366	137.161	-106.966	-99.987	156.922	114.693	-99.794	-94.263	-93.163	-86.457	-36.917	-86.637	-8191	255	
843.996	1	1	0	0	0.0186	0.16607	0.15906	0.23782	0.11769	0.10804	0.18971	0.020626	0.10626	0.1107	0.20557	0.18346	0.19179	0.20092	0.12378	0.21484	-2.3417	-2.8854	-2.6729	-3.0771	-2.9375	-2.5458	-3.1937	-2.8812	-2.6729	-2.7646	-2.8896	-2.8333	-3.0687	-2.5604	-2.9292	-2.8917	-65.785	104.331	-42.196	189.183	-44.399	98.538	194.574	107.860	193.505	9.358	182.088	-100.689	90.471	160.585	-10.551	143.446	0.00012455	0.00053995	0.00019453	1123	1.8893e-06	4.2088e-06	1193.8	229.35	1.8881e-06	8.3735e-07	289.97	81.603	62.848	18.784	2.5863e-06	26.753	0.00020374	0.00020206	5.7077e-05	1052.9	2.2287e-06	2.2662e-06	1153.7	224	2.2594e-06	2.2492e-06	281.26	80.773	61.854	18.615	2.2291e-06	26.506	210.588	-9.574	-32.433	-106.933	148.300	17.324	-106.751	-100.114	-60.307	100.850	-99.930	-93.849	-92.997	-86.059	97.149	-86.239	-8191	255	
844.092	1	1	0	0	0.11228	0.15873	0.17441	0.15735	0.20436	0.22493	0.03226	0.15354	0.078768	0.35166	0.014618	0.044727	0.12399	0.15833	0.21816	0.068414	-2.2938	-3.0333	-2.7104	-2.9667	-2.8146	-2.6771	-3.1229	-2.9333	-2.5479	-2.9479	-2.8396	-3.025	-3.05	-2.7062	-3.0771	-2.9833	150.196	16.765	-2.614	159.162	238.914	30.377	-100.962	177.100	123.100	41.859	-111.797	-37.527	-112.356	221.670	-69.167	45.016	0.00012959	0.00031126	6.1465e-05	1133.6	3.4049e-06	1.7068e-06	1195.5	228.56	3.0176e-06	4.1199e-06	290.66	81.694	62.789	18.666	4.617e-06	26.932	0.00019962	0.00020228	5.6445e-05	1059	2.2331e-06	2.215e-06	1155.7	223.78	2.2359e-06	2.2271e-06	280.97	80.951	62.053	18.634	2.236e-06	26.57	190.727	237.603	-48.634	-106.571	76.894	-24.421	-106.729	-99.790	-28.412	-36.426	-100.122	-93.781	-93.544	-86.275	40.203	-86.192	-8191	255	
844.189	1	1	0	0	0.11902	0.11377	0.23288	0.35044	0.05192	0.21984	0.18305	0.20617	0.056	0.046745	0.16645	0.2633	0.1785	0.15403	0.12135	0.18083	-2.2333	-3.0208	-2.6312	-2.6562	-2.9938	-2.6708	-2.9688	-2.875	-2.6	-2.9792	-2.8958	-2.5687	-2.9437	-2.6375	-2.7833	-3.0417	57.744	71.596	225.601	151.308	10.533	54.921	170.205	-86.379	49.748	30.971	-6.738	-102.262	210.115	189.439	163.552	-90.088	8.1174e-05	0.00054571	7.7258e-05	1127.2	1.5908e-06	6.7944e-06	1192.1	229.19	3.0219e-06	2.878e-06	289.52	81.541	62.575	18.736	1.5073e-06	26.673	0.00020177	0.00020091	5.6022e-05	1053.1	2.2212e-06	2.1941e-06	1152.9	224.14	2.2195e-06	2.2062e-06	280.89	80.594	61.785	18.649	2.2234e-06	26.508	185.410	-11.106	74.532	-106.674	55.518	43.041	-106.695	-100.117	-48.020	33.883	-99.871	-93.841	-93.100	-86.047	-24.568	-86.579	-8191	255	
844.285	1	1	0	0	0.092606	0.064605	0.15575	0.24329	0.11573	0.16605	0.10759	0.1065	0.21321	0.14052	0.023579	0.3001	0.15528	0.29576	0.2145	0.13779	-2.3229	-3.1021	-2.5938	-2.7583	-3.0771	-2.6583	-2.9542	-2.9646	-2.6167	-3.0667	-2.8688	-2.4271	-3.0625	-2.7729	-2.7021	-2.8646	44.055	198.737	-54.309	154.110	89.247	41.406	148.241	143.278	3.772	143.205	117.224	147.893	240.106	27.522	-29.526	164.351	0.00014075	0.00012265	0.00016575	1130.2	2.2088e-06	5.8103e-06	1196	228.54	3.3039e-06	5.2783e-06	288.14	81.619	62.72	18.775	4.6467e-06	26.869	0.00020054	0.0002033	5.6767e-05	1055.6	2.1828e-06	2.1839e-06	1154.2	223.82	2.2066e-06	2.1881e-06	280.45	80.841	61.899	18.651	2.1987e-06	26.511	200.206	-0.912	29.930	-106.706	-18.098	-12.988	-106.655	-99.987	-50.257	79.600	-99.910	-94.000	-93.206	-85.924	46.068	-86.482	-8191	255	
844.404	1	1	0	0	0.16451	0.22495	0.19218	0.12798	0.1279	0.2578	0.24933	0.13103	0.016812	0.029972	0.2378	0.17726	0.1794	0.058152	0.11367	0.13954	-2.25	-2.9375	-2.7271	-2.7646	-2.9896	-2.7521	-2.9375	-3.175	-2.7083	-2.8563	-2.9104	-2.6375	-3.0125	-2.6688	-2.8604	-2.9833	-58.662	169.311	-38.258	236.016	237.034	-54.734	240.860	187.155	-100.400	118.080	192.686	137.553	-50.263	94.258	86.951	22.062	9.611e-05	0.00066798	0.00014367	1131.4	1.7271e-06	5.6879e-06	1195.2	229.75	1.3802e-06	3.2946e-06	289.04	81.637	62.849	18.79	5.5294e-06	26.728	0.00019872	0.0001975	5.5695e-05	1056.8	2.193e-06	2.1653e-06	1153.2	223.87	2.2233e-06	2.2081e-06	280.43	80.714	61.85	18.621	2.229e-06	26.488	200.894	-12.275	-12.350	-106.816	225.261	19.113	-106.694	-99.556	-16.531	-53.766	-99.984	-93.796	-93.416	-86.270	29.104	-86.479	-8191	255	
844.500	1	1	0	0	0.14847	0.12137	0.092478	0.050827	0.14268	0.16274	0.19998	0.12573	0.067593	0.28734	0.24365	0.10545	0.14516	0.1248	0.19131	0.21664	-2.2687	-2.9021	-2.8125	-2.5458	-2.8354	-2.8063	-2.8729	-3.1708	-2.6583	-2.9729	-2.9896	-2.7583	-2.9521	-3.0896	-2.7479	-3.1521	227.961	151.982	104.730	-115.863	-17.312	-69.884	190.039	238.000	235.082	-9.192	142.579	227.389	166.058	13.074	-109.260	239.909	9.2115e-05	0.00026499	4.802e-05	1126.8	5.6701e-06	1.658e-06	1196.1	229.16	4.1303e-06	6.9436e-06	290.71	81.537	62.403	18.753	1.2908e-06	26.564	0.00020115	0.00019967	5.638e-05	1054.3	2.2157e-06	2.1731e-06	1153.7	223.85	2.1768e-06	2.1696e-06	281.3	80.603	61.73	18.577	2.1784e-06	26.424	208.155	-65.623	218.289	-106.509	71.465	85.012	-106.860	-99.816	12.332	69.141	-100.037	-94.023	-92.655	-85.831	-48.839	-86.328	-8191	255	
844.596	1	1	0	0	0.077277	0.12632	0.18552	0.31352	0.17171	0.042336	0.11989	0.28311	0.26938	0.18316	0.22317	0.16252	0.1085	0.092706	0.19197	0.11489	-2.4521	-2.8063	-2.9271	-2.5875	-3.1063	-2.9167	-2.9146	-3.0542	-2.7896	-2.6146	-2.8854	-2.6437	-3.0917	-2.9729	-2.6479	-3.0479	131.673	168.201	212.372	170.812	-74.988	89.912	157.100	-103.383	23.987	61.785	-62.827	-82.729	124.948	119.613	49.858	203.022	0.00016007	0.00016482	9.8127e-05	1123.2	9.4672e-07	3.3913e-06	1192.6	229.09	3.2982e-06	5.4823e-06	290.15	81.601	62.631	18.706	1.7641e-06	26.769	0.00020279	0.00019926	5.5689e-05	1057.8	2.1946e-06	2.2388e-06	1151.4	223.73	2.2098e-06	2.1799e-06	280.14	80.603	61.744	18.581	2.1933e-06	26.528	196.355	-67.225	-67.102	-107.171	-71.701	18.967	-106.840	-99.719	3.654	72.795	-100.027	-94.065	-93.295	-86.345	210.124	-86.459	-8191	255	
844.717	1	1	0	0	0.39016	0.070045	0.13148	0.029668	0.11155	0.12163	0.18133	0.15265	0.2064	0.19079	0.28973	0.11187	0.17037	0.30618	0.16862	0.27111	-2.0958	-2.8271	-2.8792	-2.7208	-3.0292	-2.9958	-2.8438	-3.1042	-2.6771	-2.7562	-3.0187	-2.7667	-2.9229	-3.0125	-2.7833	-3.0979	-25.180	37.552	104.994	207.259	-56.186	-8.684	177.866	216.922	110.128	-103.267	-105.216	214.727	-63.178	174.362	79.208	-99.329	0.00010326	0.00052834	0.00013397	1134.8	4.1347e-06	3.7279e-06	1196.2	229.17	5.4876e-07	6.4479e-07	290.77	81.628	62.844	18.697	1.4534e-06	26.689	0.00020172	0.00019801	5.5864e-05	1055.8	2.1995e-06	2.1863e-06	1152.8	223.91	2.2338e-06	2.2195e-06	280.88	80.675	61.763	18.651	2.1848e-06	26.5	221.759	-29.183	-28.835	-107.110	48.894	48.735	-106.859	-100.000	28.809	-24.302	-100.250	-93.843	-93.344	-85.722	-5.667	-86.010	-8191	255	
844.788	1	1	0	0	0.15864	0.20522	0.16393	0.30393	0.3368	0.2346	0.22507	0.14203	0.31447	0.10382	0.14362	0.0099335	0.30811	0.17906	0.135	0.080287	-2.3438	-2.6937	-2.9688	-2.6458	-2.8625	-2.9833	-2.7938	-3.1146	-2.7208	-2.6312	-3.1875	-2.5354	-2.8688	-2.8292	-2.5979	-3.0833	17.629	-85.442	-97.247	-104.099	-117.636	-20.035	185.364	-92.155	232.066	-113.188	44.261	-89.275	223.205	-57.691	226.776	189.211	8.9439e-05	0.00067833	0.00011983	1124.3	3.3526e-06	1.4153e-06	1195.4	229.39	3.2178e-06	2.5586e-06	290.13	81.959	63.137	18.89	2.6821e-06	26.962	0.0001957	0.00019659	5.3827e-05	1050.3	2.1551e-06	2.1064e-06	1152.7	223.65	2.1637e-06	2.169e-06	280.62	80.75	61.859	18.679	2.163e-06	26.591	170.161	-4.807	118.247	-106.665	3.481	80.667	-106.741	-99.703	222.950	-2.742	-100.269	-93.950	-92.952	-86.320	-12.449	-86.339	-8191	255	
844.883	1	1	0	0	0.33602	0.074306	0.14795	0.084383	0.091416	0.09445	0.40531	0.12592	0.19788	0.11475	0.20972	0.099291	0.23622	0.039843	0.18204	0.12109	-2.2604	-2.7646	-2.9562	-2.9313	-2.6896	-2.8667	-2.7667	-2.8688	-2.7979	-2.5208	-3.0792	-2.7208	-2.8458	-2.9125	-2.6917	-2.9021	158.625	240.750	69.132	-89.123	101.986	125.666	149.392	176.261	77.480	240.890	216.132	-7.309	-24.772	166.071	167.193	141.734	0.00012562	0.00024926	4.1802e-05	1139.3	4.4866e-06	4.5253e-06	1192.9	230.02	2.1341e-06	3.0743e-06	289.74	81.422	63.092	18.776	1.258e-06	26.858	0.00019815	0.00019468	5.404e-05	1055.3	2.1306e-06	2.1045e-06	1153.9	224.14	2.1486e-06	2.1285e-06	280.62	80.756	61.708	18.59	2.1496e-06	26.485	196.828	141.420	-98.973	-107.002	60.276	-82.820	-107.021	-100.039	7.390	39.745	-99.739	-94.071	-93.297	-86.153	94.834	-86.262	-8191	255	
844.979	1	1	0	0	0.097274	0.093644	0.090204	0.11768	0.059545	0.034775	0.25849	0.012672	0.1647	0.075312	0.19918	0.097832	0.05667	0.11982	0.32811	0.28363	-2.4271	-2.6542	-2.8688	-2.9083	-2.8688	-2.8917	-2.6437	-3.0104	-2.9354	-2.7125	-2.975	-2.9062	-2.7062	-2.9208	-2.6875	-2.7833	-29.959	96.864	10.879	213.676	29.553	204.525	178.742	241.566	98.132	193.466	180.664	91.687	-37.824	162.397	157.623	-96.758	0.00013859	0.00054756	2.4189e-05	1132	2.2212e-06	7.2093e-06	1194.1	229.73	2.837e-07	4.4095e-06	290.48	82.03	62.675	18.661	2.4593e-06	26.653	0.00019527	0.00019548	5.4098e-05	1053.8	2.1477e-06	2.1671e-06	1155.2	224.14	2.18e-06	2.1594e-06	281.25	80.817	61.667	18.63	2.1925e-06	26.479	204.247	-20.817	16.068	-106.510	-25.964	36.188	-106.684	-100.024	156.768	35.313	-100.049	-93.643	-93.283	-86.030	-59.891	-86.262	-8191	255	
845.099	1	1	0	0	0.18904	0.055733	0.28705	0.043082	0.27827	0.41729	0.13937	0.21157	0.20113	0.20941	0.21012	0.056887	0.20538	0.069828	0.27301	0.22084	-2.4021	-2.6437	-2.8354	-2.7979	-2.5667	-2.9917	-2.775	-2.8479	-2.9667	-2.4875	-2.9854	-2.8917	-2.7542	-2.9188	-2.7667	-2.7271	155.796	144.010	88.726	210.094	40.285	222.317	123.770	233.447	-35.108	142.067	-40.769	-116.598	-88.912	193.396	-43.473	40.460	0.00013444	0.00028009	4.6789e-05	1124.3	5.2395e-06	4.6886e-06	1190.7	229.26	3.5038e-06	2.0497e-06	290.97	81.934	62.936	18.709	2.4258e-06	26.939	0.00019827	0.00019598	5.4247e-05	1052.5	2.1446e-06	2.1435e-06	1154.7	223.85	2.1877e-06	2.1812e-06	280.78	80.623	61.932	18.611	2.1439e-06	26.579	209.056	139.276	-28.834	-106.697	0.356	51.255	-106.822	-99.553	-60.260	-5.728	-100.233	-94.024	-93.626	-86.007	81.232	-86.089	-8191	255	
#DATA ENDS
