BOXY.EXE: ISS Imagent and Oximeter Data Acquisition Program Version 0.80
Ascii Record File

#ACQ INFORMATION
2  Detector Channels 
16  External MUX Channels 
1  Auxiliary Channels 
5000  Waveform (CCF) Frequency (Hz)
1  Waveforms Skipped 
30  Waveforms Averaged 
1  Cycles Averaged 
16  Acquisitions per Waveform 
10.0806  Updata Rate (Hz) 

#FILE INFORMATION
TRUE -- External MUX Channel results are PARSED.
FALSE -- AC DC and Phase are NOT grouped.
TRUE -- Companion Program Settings File CREATED.
FALSE -- AC data not excluded
FALSE -- DC data not excluded
FALSE -- Phase data not excluded
FALSE -- Auxillary Chn. data not excluded
Tab delimiters

#CALIBRATION STATE
TRUE -- Waveform Calibration Values APPLIED.


#AUX CALIBRATION VALUES
Val Type	aux-1	

Term	1.0000e+00	
Factor	0.0000e+00	


#WF CALIBRATION VALUES
A = Detector Channel
Val Type	A-AC1	A-AC2	A-AC3	A-AC4	A-AC5	A-AC6	A-AC7	A-AC8	A-AC9	A-AC10	A-AC11	A-AC12	A-AC13	A-AC14	A-AC15	A-AC16	A-DC1	A-DC2	A-DC3	A-DC4	A-DC5	A-DC6	A-DC7	A-DC8	A-DC9	A-DC10	A-DC11	A-DC12	A-DC13	A-DC14	A-DC15	A-DC16	A-Ph1	A-Ph2	A-Ph3	A-Ph4	A-Ph5	A-Ph6	A-Ph7	A-Ph8	A-Ph9	A-Ph10	A-Ph11	A-Ph12	A-Ph13	A-Ph14	A-Ph15	A-Ph16	

Term	0.00000e+00	0.00000e+00	0.00000e+00	0.00000e+00	0.00000e+00	0.00000e+00	0.00000e+00	0.00000e+00	0.00000e+00	0.00000e+00	0.00000e+00	0.00000e+00	0.00000e+00	0.00000e+00	0.00000e+00	0.00000e+00	0.00000e+00	0.00000e+00	0.00000e+00	0.00000e+00	0.00000e+00	0.00000e+00	0.00000e+00	0.00000e+00	0.00000e+00	0.00000e+00	0.00000e+00	0.00000e+00	0.00000e+00	0.00000e+00	0.00000e+00	0.00000e+00	0.00000e+00	0.00000e+00	0.00000e+00	0.00000e+00	0.00000e+00	0.00000e+00	0.00000e+00	0.00000e+00	0.00000e+00	0.00000e+00	0.00000e+00	0.00000e+00	0.00000e+00	0.00000e+00	0.00000e+00	0.00000e+00	
Factor	1.00000e+00	1.00000e+00	1.00000e+00	1.00000e+00	1.00000e+00	1.00000e+00	1.00000e+00	1.00000e+00	1.00000e+00	1.00000e+00	1.00000e+00	1.00000e+00	1.00000e+00	1.00000e+00	1.00000e+00	1.00000e+00	1.00000e+00	1.00000e+00	1.00000e+00	1.00000e+00	1.00000e+00	1.00000e+00	1.00000e+00	1.00000e+00	1.00000e+00	1.00000e+00	1.00000e+00	1.00000e+00	1.00000e+00	1.00000e+00	1.00000e+00	1.00000e+00	X	X	X	X	X	X	X	X	X	X	X	X	X	X	X	X	

B = Detector Channel
Val Type	B-AC1	B-AC2	B-AC3	B-AC4	B-AC5	B-AC6	B-AC7	B-AC8	B-AC9	B-AC10	B-AC11	B-AC12	B-AC13	B-AC14	B-AC15	B-AC16	B-DC1	B-DC2	B-DC3	B-DC4	B-DC5	B-DC6	B-DC7	B-DC8	B-DC9	B-DC10	B-DC11	B-DC12	B-DC13	B-DC14	B-DC15	B-DC16	B-Ph1	B-Ph2	B-Ph3	B-Ph4	B-Ph5	B-Ph6	B-Ph7	B-Ph8	B-Ph9	B-Ph10	B-Ph11	B-Ph12	B-Ph13	B-Ph14	B-Ph15	B-Ph16	

Term	0.00000e+00	0.00000e+00	0.00000e+00	0.00000e+00	0.00000e+00	0.00000e+00	0.00000e+00	0.00000e+00	0.00000e+00	0.00000e+00	0.00000e+00	0.00000e+00	0.00000e+00	0.00000e+00	0.00000e+00	0.00000e+00	0.00000e+00	0.00000e+00	0.00000e+00	0.00000e+00	0.00000e+00	0.00000e+00	0.00000e+00	0.00000e+00	0.00000e+00	0.00000e+00	0.00000e+00	0.00000e+00	0.00000e+00	0.00000e+00	0.00000e+00	0.00000e+00	-1.29269e+02	-1.13631e+02	-1.35870e+02	-1.84844e+02	-7.69806e+01	-6.34246e+01	-1.60653e+02	-1.62015e+02	-8.22226e+01	-6.09229e+01	-1.72187e+02	-1.71626e+02	-1.83109e+02	-1.76791e+02	-6.82363e+01	-1.50157e+02	
Factor	1.61315e-05	1.31639e-04	3.54998e-05	4.91269e-01	1.07434e-06	1.37095e-06	1.84658e-01	4.54119e-02	1.02773e-06	1.19378e-06	8.37172e-02	3.01029e-02	3.50082e-02	8.20948e-03	1.09933e-06	1.21748e-02	1.13921e-06	1.19064e-06	3.31616e-07	2.32299e-01	1.30170e-08	1.30308e-08	8.60883e-02	2.28097e-02	1.29813e-08	1.30694e-08	4.01028e-02	1.44691e-02	1.71056e-02	4.09484e-03	1.30663e-08	5.83849e-03	X	X	X	X	X	X	X	X	X	X	X	X	X	X	X	X	



#DISTANCE SETTINGS
A = Detector Channel
A-1	A-2	A-3	A-4	A-5	A-6	A-7	A-8	A-9	A-10	A-11	A-12	A-13	A-14	A-15	A-16	

2.5000e+00	3.0000e+00	2.5000e+00	3.0000e+00	2.0000e+00	3.0000e+00	1.5000e+00	3.0000e+00	3.0000e+00	3.0000e+00	3.0000e+00	3.0000e+00	3.0000e+00	3.0000e+00	1.5000e+00	3.0000e+00	

B = Detector Channel
B-1	B-2	B-3	B-4	B-5	B-6	B-7	B-8	B-9	B-10	B-11	B-12	B-13	B-14	B-15	B-16	

1.0000e+01	1.0000e+01	1.0000e+01	1.4400e+00	1.0000e+01	1.0000e+01	1.5100e+00	1.9400e+00	1.0000e+01	1.0000e+01	1.9900e+00	2.4900e+00	2.4100e+00	2.9000e+00	1.0000e+01	2.9800e+00	




#DATA BEGINS
time	group	step	mark	flag	A-AC1	A-AC2	A-AC3	A-AC4	A-AC5	A-AC6	A-AC7	A-AC8	A-AC9	A-AC10	A-AC11	A-AC12	A-AC13	A-AC14	A-AC15	A-AC16	A-DC1	A-DC2	A-DC3	A-DC4	A-DC5	A-DC6	A-DC7	A-DC8	A-DC9	A-DC10	A-DC11	A-DC12	A-DC13	A-DC14	A-DC15	A-DC16	A-Ph1	A-Ph2	A-Ph3	A-Ph4	A-Ph5	A-Ph6	A-Ph7	A-Ph8	A-Ph9	A-Ph10	A-Ph11	A-Ph12	A-Ph13	A-Ph14	A-Ph15	A-Ph16	B-AC1	B-AC2	B-AC3	B-AC4	B-AC5	B-AC6	B-AC7	B-AC8	B-AC9	B-AC10	B-AC11	B-AC12	B-AC13	B-AC14	B-AC15	B-AC16	B-DC1	B-DC2	B-DC3	B-DC4	B-DC5	B-DC6	B-DC7	B-DC8	B-DC9	B-DC10	B-DC11	B-DC12	B-DC13	B-DC14	B-DC15	B-DC16	B-Ph1	B-Ph2	B-Ph3	B-Ph4	B-Ph5	B-Ph6	B-Ph7	B-Ph8	B-Ph9	B-Ph10	B-Ph11	B-Ph12	B-Ph13	B-Ph14	B-Ph15	B-Ph16	aux-1	digaux	

778.404	1	1	0	256	0.09541	0.10738	0.075001	0.25046	0.17296	0.22024	0.21755	0.073863	0.080447	0.086839	0.3398	0.12341	0.23004	0.29247	0.12903	0.096473	-2.3833	-3.2021	-2.7833	-3.0479	-3.0271	-2.8604	-3.2687	-3	-2.7708	-3.1729	-2.8854	-3.0458	-3.1479	-2.8771	-3.0312	-3.0521	-103.052	178.688	-79.394	-52.977	-38.197	-19.116	88.508	105.586	115.168	28.501	188.731	35.046	183.888	213.479	-118.908	-116.325	0.00028807	0.00065507	0.00010847	1374	3.7986e-06	5.2793e-06	1370.4	361.93	4.9429e-06	3.412e-06	419.94	139.63	119.44	41.913	4.7994e-06	52.824	0.00041366	0.00041121	0.0001138	1357.9	4.3786e-06	4.3874e-06	1374.8	363.76	4.3496e-06	4.3471e-06	418.47	141.16	120.3	42.12	4.288e-06	53.115	213.435	29.086	-41.838	-109.241	22.600	62.509	-109.479	-104.644	-7.283	26.493	-104.953	-101.319	-100.626	-95.590	228.430	-96.656	-8191	255	
778.500	1	1	0	0	0.11808	0.075766	0.05988	0.1215	0.18762	0.12797	0.03268	0.12007	0.32913	0.31732	0.046511	0.42431	0.24814	0.12568	0.056989	0.13892	-2.0625	-3.0854	-3.0187	-2.8583	-3.1583	-2.8354	-3.1646	-3.2354	-2.6458	-3.2271	-2.9375	-2.8896	-3.2812	-2.9583	-2.8854	-3.1167	120.578	-57.188	157.271	209.946	200.870	-116.113	159.459	157.798	-28.832	97.385	137.083	159.781	-100.464	-44.155	125.761	145.007	0.00025336	0.00056842	0.00017002	1375.7	3.475e-06	5.794e-06	1368.4	360.59	1.784e-06	4.9149e-06	416.7	139.54	119.82	41.894	3.8792e-06	52.893	0.00039439	0.00039042	0.00010895	1347.6	4.2356e-06	4.2256e-06	1369.2	362.79	4.2085e-06	4.1891e-06	416.9	140.61	120.16	42.085	4.2013e-06	53.128	195.853	-27.723	-5.837	-109.514	-25.919	43.489	-109.426	-104.854	-73.196	-32.894	-105.120	-101.190	-100.757	-95.822	-15.158	-96.372	-8191	255	
778.597	1	1	0	0	0.065122	0.1347	0.13945	0.13065	0.41943	0.26448	0.29011	0.1133	0.13353	0.26342	0.13481	0.24013	0.13675	0.20323	0.16041	0.1084	-2.3167	-3.0479	-2.8667	-2.8187	-3.1104	-2.8646	-3.075	-3.1917	-2.6417	-3.1833	-3.0958	-2.7313	-3.1271	-2.8958	-2.9229	-3.0542	-21.142	-60.840	6.786	-22.186	-84.664	178.104	191.636	121.038	37.598	9.169	168.264	176.183	-108.646	-28.442	-69.095	140.835	0.00036241	0.00032208	0.00014133	1372.7	2.963e-06	3.2998e-06	1368.8	361.01	1.2809e-06	7.2695e-06	416.12	138.54	119.3	41.862	5.0455e-06	52.734	0.00039257	0.00038729	0.00010787	1348.1	4.2375e-06	4.2311e-06	1370.6	362.52	4.2448e-06	4.1928e-06	416.7	140.39	119.95	42.093	4.1946e-06	53.101	205.829	17.534	-120.274	-109.517	52.563	-78.715	-109.427	-104.890	-30.371	67.986	-105.210	-101.212	-100.567	-95.836	67.112	-96.472	-8191	255	
778.691	1	1	0	0	0.25499	0.14194	0.19215	0.030162	0.078235	0.2104	0.24479	0.25723	0.20913	0.076142	0.17333	0.15039	0.12889	0.29955	0.35816	0.15329	-2.3896	-3.0146	-2.9625	-2.9521	-3.2146	-2.9271	-3.2188	-3.2917	-2.6667	-3.0417	-3.1333	-2.825	-3.1708	-2.9188	-2.7333	-3.2854	89.938	104.133	221.045	-111.010	221.540	-115.842	203.867	215.339	63.183	-32.604	143.909	93.117	226.118	195.362	230.858	213.400	0.00027149	0.00038949	0.00020356	1378.5	5.6973e-06	2.4506e-06	1369.9	359.94	2.8995e-06	4.9912e-06	418.39	140.36	119.84	41.942	2.666e-06	53.093	0.00038358	0.00038355	0.00010609	1348.3	4.2137e-06	4.2283e-06	1373.9	362.55	4.3165e-06	4.3655e-06	418.27	141.29	120.57	42.199	4.3834e-06	53.251	213.079	19.773	-48.493	-109.527	53.108	50.219	-109.324	-104.744	-27.838	83.239	-105.124	-101.288	-100.557	-95.893	-0.575	-96.209	-8191	255	
778.789	1	1	0	0	0.11205	0.1482	0.099887	0.07524	0.26647	0.19516	0.30044	0.33814	0.14511	0.17167	0.12862	0.090534	0.14755	0.12839	0.17486	0.17952	-2.4875	-2.8896	-3.2021	-2.8458	-3.1542	-2.9354	-2.9792	-3.1125	-2.9125	-3.0312	-3.3	-3.0458	-3.25	-3.0812	-3.0042	-3.1375	57.975	-95.136	215.185	178.549	9.490	-37.635	178.691	167.516	177.034	94.052	182.259	213.295	173.815	-97.033	-48.730	71.783	0.00026089	0.00026831	7.2164e-05	1378.5	5.9739e-06	1.0483e-06	1376	361.33	5.6287e-06	3.0808e-06	417.84	138.81	119.25	41.976	1.954e-06	52.712	0.00040058	0.00040305	0.00011104	1355.4	4.3418e-06	4.2701e-06	1378.1	363.57	4.2389e-06	4.2254e-06	416.73	140.78	119.91	42.035	4.1552e-06	52.913	205.588	-39.519	-29.308	-109.142	-51.669	-78.246	-109.289	-104.825	-28.923	8.358	-105.261	-101.361	-100.774	-95.916	31.906	-96.205	-8191	255	
778.908	1	1	0	0	0.3395	0.096114	0.088697	0.27163	0.052903	0.14164	0.19421	0.20069	0.077475	0.098187	0.26619	0.070026	0.18885	0.15095	0.18528	0.16686	-2.4271	-2.9938	-3.1813	-2.8167	-3.1021	-2.9188	-3.0396	-3.1708	-2.8	-2.9313	-3.0854	-2.8458	-2.9917	-3.0187	-2.7979	-3.2021	56.686	156.101	-73.003	90.081	158.205	-119.575	162.680	89.374	-60.110	194.775	167.877	-100.668	208.469	201.354	135.522	111.174	0.00027099	0.00058633	3.0228e-05	1370.5	2.051e-06	5.5022e-06	1367.9	360.37	4.2008e-06	1.9879e-06	415.31	138.8	119.63	41.599	5.2556e-07	52.793	0.00037645	0.00037211	0.00010326	1341.8	4.0316e-06	3.9989e-06	1365.4	361.61	3.9828e-06	3.9675e-06	414.27	139.94	119.32	41.757	3.8928e-06	52.842	204.303	40.867	-46.428	-109.482	88.659	74.037	-109.385	-104.656	-94.899	52.246	-105.148	-101.192	-100.767	-95.644	16.494	-96.488	-8191	255	
779.004	1	1	0	0	0.094681	0.16067	0.024207	0.2152	0.123	0.20774	0.26146	0.35575	0.21238	0.069252	0.19114	0.17736	0.14448	0.23193	0.15256	0.079149	-2.4875	-2.9083	-2.9396	-2.8646	-3.1	-2.9	-2.9292	-3.2812	-2.8438	-2.7896	-3.2229	-2.7625	-3.0604	-3.2625	-2.7625	-3.0771	175.741	170.763	-67.817	-78.101	140.700	233.916	235.860	208.669	-26.788	55.741	221.894	204.152	214.334	-25.945	-12.717	160.309	0.00026298	0.00054549	0.00013333	1354.8	3.6721e-06	4.279e-06	1358.1	358.17	2.4889e-06	3.9399e-06	413.74	138.1	119.21	41.473	3.0865e-06	52.67	0.00035615	0.00034933	9.7912e-05	1329.6	3.8147e-06	3.8151e-06	1356.2	359.45	3.7878e-06	3.8023e-06	412.82	139.2	118.94	41.676	3.811e-06	52.615	202.846	-26.696	-45.851	-109.189	32.030	23.729	-109.414	-104.609	77.320	30.939	-105.095	-101.365	-100.465	-95.690	46.393	-96.360	-8191	255	
779.100	1	1	0	0	0.21332	0.13318	0.11984	0.1332	0.12652	0.19974	0.19392	0.23165	0.061392	0.23063	0.15064	0.14958	0.34222	0.20913	0.2493	0.19549	-2.6375	-2.6917	-3.0667	-2.875	-3.0438	-3.2687	-3.0229	-3.2042	-3.0396	-2.8854	-3.1729	-3.0417	-3.1792	-3.3021	-2.8625	-3.3458	24.824	184.480	13.566	99.438	130.189	6.387	166.857	177.689	90.847	36.363	196.792	-83.545	89.920	206.981	184.481	-94.141	0.00021334	0.0004967	0.000164	1357.5	4.1288e-06	7.17e-06	1356.3	358.24	6.9543e-06	9.2329e-07	413.23	138.6	118.5	41.374	1.9923e-06	52.37	0.00034839	0.00034462	9.5536e-05	1325.9	3.7954e-06	3.7302e-06	1352.9	358.52	3.7676e-06	3.7493e-06	411.61	139.18	118.37	41.561	3.7827e-06	52.507	207.395	-61.568	-114.139	-109.411	149.542	-8.884	-109.469	-104.773	-23.980	-95.550	-105.239	-101.178	-100.598	-95.640	19.038	-96.247	-8191	255	
779.196	1	1	0	0	0.11792	0.18889	0.2806	0.066646	0.12016	0.10076	0.091734	0.23534	0.092399	0.047914	0.19133	0.33329	0.15985	0.2316	0.042723	0.090896	-2.6729	-2.7333	-3.0729	-2.8229	-2.9958	-3.1208	-2.9833	-3.3312	-3.0083	-2.8521	-3.2125	-3.0354	-2.8667	-3.3229	-2.8229	-3.1354	198.376	227.782	188.108	-101.561	226.230	8.305	64.122	172.122	-100.131	141.029	225.812	145.725	154.908	168.125	-84.198	120.930	0.00026857	0.00080935	9.5004e-05	1350.8	2.7519e-06	6.631e-06	1355.6	356.98	4.7764e-06	5.4231e-06	413.47	138.04	118.77	41.38	2.2529e-06	52.497	0.00034865	0.00034874	9.6379e-05	1321.6	3.8244e-06	3.772e-06	1352.8	358.26	3.7798e-06	3.789e-06	411.88	138.86	118.43	41.574	3.8121e-06	52.485	204.345	-50.249	-92.713	-109.512	57.208	15.464	-109.448	-104.825	-41.665	-22.310	-105.082	-101.298	-100.889	-95.695	-7.875	-96.518	-8191	255	
779.292	1	1	0	0	0.18526	0.15825	0.22388	0.20752	0.19748	0.11259	0.017897	0.009468	0.068851	0.15992	0.11265	0.14534	0.074095	0.26568	0.20558	0.1667	-2.5875	-2.725	-2.9708	-2.9604	-2.8563	-3.275	-3.05	-3.2125	-3.0333	-2.6708	-3.3292	-3.0333	-2.8021	-3.15	-2.8333	-3.1979	18.545	211.530	57.421	202.211	-32.264	-30.824	-99.697	195.890	-98.185	-51.464	157.064	-90.534	31.097	186.149	-89.152	227.646	0.0002747	0.00052955	0.00015109	1355.9	2.1215e-06	5.4997e-06	1354	357.89	1.3742e-06	1.8533e-06	413.7	137.52	118.51	41.655	6.1479e-06	52.243	0.00034901	0.00034561	9.589e-05	1322.6	3.8017e-06	3.7573e-06	1350.9	358.02	3.7659e-06	3.7912e-06	411.93	138.59	118.36	41.633	3.8291e-06	52.454	189.214	36.478	-15.530	-109.552	11.989	31.598	-109.337	-104.877	79.826	18.557	-105.326	-101.181	-100.518	-95.891	28.818	-96.337	-8191	255	
779.389	1	1	0	0	0.053931	0.042542	0.034328	0.26066	0.023864	0.11969	0.25643	0.29543	0.12488	0.40153	0.26191	0.09153	0.23929	0.15812	0.22983	0.054092	-2.7604	-2.7292	-3.0583	-2.8854	-2.8271	-3.1229	-3.0792	-3.1188	-3.0479	-2.7875	-3.2188	-2.9667	-2.9083	-3.3271	-2.9729	-2.9917	136.818	-44.746	-22.827	-121.177	189.415	-84.626	177.171	182.779	174.458	189.941	166.951	-88.647	213.076	-78.546	136.412	48.302	0.00028058	0.00065991	0.00014833	1356	3.1461e-06	1.0814e-06	1353.1	357.06	5.5634e-06	2.8744e-06	412.9	138.07	118.2	41.415	4.71e-06	52.198	0.00035158	0.0003502	9.6737e-05	1320.2	3.7902e-06	3.7906e-06	1348.9	357.95	3.8419e-06	3.8698e-06	411.52	139.06	118.22	41.59	3.9035e-06	52.406	191.151	-4.425	-10.897	-109.372	6.320	-44.277	-109.515	-104.850	15.183	229.074	-105.113	-101.291	-100.345	-95.919	-67.019	-96.391	-8191	255	
779.485	1	1	0	0	0.22914	0.16232	0.18264	0.15675	0.34766	0.057117	0.018057	0.16013	0.024076	0.099668	0.24187	0.27414	0.36021	0.1136	0.17637	0.26592	-2.8125	-2.6375	-3.0625	-3.0354	-2.9562	-3.0792	-2.9479	-2.9542	-3	-2.9042	-3.0563	-3.1813	-2.7625	-3.4146	-2.9	-3.0854	130.245	37.212	225.773	130.950	-97.743	-121.396	190.746	123.701	13.068	232.656	165.363	201.539	222.297	-5.506	125.542	144.702	0.0002968	0.0010184	6.288e-05	1351	6.8183e-06	5.2506e-06	1347.8	357.12	1.4527e-06	3.8028e-06	413.3	138.47	117.92	41.394	1.6285e-07	52.382	0.00035767	0.000355	9.8266e-05	1320.1	3.8645e-06	3.8687e-06	1348	357.79	3.8996e-06	3.881e-06	412.18	138.95	118.31	41.567	3.9935e-06	52.488	212.882	3.994	-55.213	-109.330	22.565	-17.960	-109.465	-104.826	-47.342	-4.782	-105.315	-101.222	-100.652	-95.579	184.067	-96.209	-8191	255	
779.604	1	1	0	0	0.19635	0.10502	0.14567	0.11528	0.17834	0.19046	0.16384	0.048503	0.078551	0.12831	0.1297	0.093466	0.16603	0.078609	0.026385	0.23711	-2.6208	-2.8688	-3.075	-3.0229	-2.8708	-3.0417	-2.9562	-2.8083	-2.9437	-2.9896	-3.0792	-3.1875	-2.8583	-3.1271	-2.8708	-2.8521	100.660	-91.865	-46.113	-52.125	220.809	8.247	229.308	209.152	-70.164	-114.303	-85.438	-54.765	-102.914	-109.334	105.597	173.278	0.00031209	0.00090746	0.00017278	1352.4	4.3106e-07	5.3804e-06	1352.2	356.87	6.4704e-06	2.1255e-06	413.1	137.65	118.38	41.469	2.7983e-06	52.181	0.00036203	0.00036278	9.9899e-05	1324.1	3.9592e-06	3.9889e-06	1351.5	358.58	4.0323e-06	4.004e-06	412.57	139.19	118.7	41.601	4.0498e-06	52.569	207.834	-10.671	-76.520	-109.330	38.458	94.703	-109.591	-104.749	-42.359	-8.164	-104.976	-101.273	-100.410	-96.003	14.292	-96.499	-8191	255	
779.700	1	1	0	0	0.25907	0.073895	0.12106	0.19679	0.071762	0.23619	0.26581	0.33046	0.26145	0.13449	0.25211	0.34191	0.17579	0.13784	0.053904	0.30048	-2.6146	-2.7208	-2.9125	-3.1583	-2.9667	-2.9417	-3.0875	-3.0583	-3.0771	-2.9104	-3.2542	-3.2792	-2.8438	-3.0771	-3.0104	-3.0625	16.324	-12.619	-18.090	181.997	-106.098	171.016	-41.180	192.021	-62.844	-114.756	167.449	122.133	221.023	21.998	10.773	230.425	0.00022787	0.00014348	0.000101	1353.9	1.5641e-06	2.6621e-06	1352.9	356.22	2.256e-06	3.8684e-06	414.3	137.73	118.02	41.692	5.3598e-06	52.245	0.00037372	0.00037039	0.00010347	1326.4	4.0106e-06	4.0418e-06	1354	358.49	4.0496e-06	4.0629e-06	413.11	139.02	118.56	41.693	4.1123e-06	52.661	197.786	-58.642	-5.991	-109.577	41.111	21.337	-109.335	-104.687	-38.747	39.089	-105.214	-101.374	-100.540	-95.609	121.484	-96.236	-8191	255	
779.796	1	1	0	0	0.03352	0.26617	0.16774	0.12966	0.092673	0.38497	0.37368	0.25318	0.19008	0.20579	0.17451	0.19974	0.13135	0.33589	0.23577	0.012976	-2.7167	-2.7646	-2.9875	-3.1896	-2.8917	-3.0875	-3.1604	-2.9667	-3.1333	-2.9771	-3.0104	-3.1396	-2.7667	-3.1	-2.9354	-2.6375	225.538	197.511	87.055	190.012	-24.509	-22.160	212.908	190.517	-39.752	216.249	198.907	214.373	131.718	-113.541	-116.251	-13.312	0.00025687	0.00045781	0.00023717	1355.6	2.3354e-06	6.7939e-06	1351.7	357.91	1.7706e-06	2.1713e-06	413.74	138.28	118.19	41.45	7.6592e-06	52.378	0.00037823	0.00037843	0.0001065	1330.9	4.1347e-06	4.1121e-06	1355.1	359.03	4.1614e-06	4.1513e-06	413.74	139.31	118.64	41.728	4.1755e-06	52.613	196.842	-60.236	21.865	-109.477	-84.855	25.040	-109.457	-104.788	223.112	-15.954	-105.267	-101.398	-100.732	-95.551	13.725	-96.495	-8191	255	
779.892	1	1	0	0	0.11908	0.12141	0.071849	0.16122	0.1339	0.19747	0.14064	0.19616	0.27512	0.13334	0.027399	0.10024	0.25863	0.16018	0.085005	0.17155	-2.6417	-2.8583	-2.825	-3.2021	-2.8458	-3.0938	-3.2062	-3.1354	-3.2438	-3.0438	-2.8583	-3.1375	-2.9875	-3.0312	-2.9833	-2.9167	148.923	42.207	15.980	234.200	31.211	60.846	195.792	197.455	-47.748	117.239	52.486	205.610	181.376	-69.855	85.557	176.261	0.00029855	0.00043537	0.00016207	1351.8	8.9754e-06	5.6546e-06	1351	357.07	3.3749e-06	6.9644e-06	411.45	137.61	118.65	41.227	7.108e-06	52.232	0.00037735	0.00037427	0.00010391	1326.1	4.1022e-06	4.1167e-06	1352.6	358.58	4.1107e-06	4.112e-06	412.08	139.17	118.69	41.564	4.0733e-06	52.511	195.516	-9.581	-58.751	-109.461	-67.555	-16.349	-109.532	-104.702	-68.310	31.979	-105.219	-101.423	-100.941	-95.755	8.019	-96.410	-8191	255	
779.988	1	1	0	0	0.29445	0.13003	0.065163	0.23122	0.047347	0.12046	0.14661	0.11238	0.1705	0.14021	0.12818	0.021095	0.071373	0.18675	0.021161	0.1751	-2.6333	-3.0521	-2.8229	-3.2104	-2.8542	-2.9875	-3.2729	-2.8688	-2.9688	-2.9292	-2.8167	-3.2521	-2.85	-3.0125	-3.0604	-2.8958	154.180	6.546	-82.334	-90.284	33.503	201.335	-113.923	113.658	230.760	117.814	-110.001	231.890	121.895	218.986	212.911	99.702	0.00023125	0.00057186	5.2033e-05	1351.3	1.1733e-06	4.5236e-06	1359.9	357.16	2.7562e-06	2.6465e-07	412.71	138.3	118.3	41.567	4.7142e-06	52.336	0.00037647	0.00037355	0.00010422	1328.6	4.1131e-06	4.1196e-06	1356.6	358.82	4.1588e-06	4.112e-06	412.08	139.19	118.44	41.705	4.1152e-06	52.612	202.941	-12.564	-23.830	-109.124	-36.089	-70.245	-109.389	-104.755	-117.562	3.536	-105.079	-101.256	-100.632	-95.698	76.481	-96.048	-8191	255	
780.084	1	1	0	0	0.29327	0.098902	0.046713	0.24199	0.2893	0.14301	0.17045	0.32587	0.1941	0.10723	0.096491	0.14302	0.086401	0.046675	0.26861	0.30789	-2.6396	-2.9792	-2.6958	-3.1396	-2.8979	-2.9313	-3.2625	-3.0792	-3.0062	-3.0375	-2.9917	-3.0104	-3.075	-2.9667	-3.1063	-2.9708	-31.347	78.891	-21.053	233.832	-38.647	208.433	175.458	208.531	156.112	61.345	176.469	234.810	-12.137	159.491	-83.246	163.850	0.00022878	0.00045959	5.3195e-05	1360.8	2.425e-06	2.9773e-06	1353.6	357.57	3.5111e-06	5.3566e-06	413.78	138.05	118.5	41.353	6.4646e-06	52.245	0.00037637	0.0003747	0.00010498	1329.8	4.1099e-06	4.0492e-06	1352.9	358.64	4.0777e-06	4.0799e-06	413.18	139.21	118.67	41.668	4.121e-06	52.545	198.712	-73.710	-52.353	-109.391	-4.556	179.200	-109.338	-104.730	-14.456	53.430	-105.027	-101.269	-100.694	-95.647	5.621	-96.583	-8191	255	
780.180	1	1	0	0	0.041129	0.029652	0.016655	0.12373	0.083255	0.141	0.097688	0.25589	0.23381	0.11087	0.11275	0.062533	0.25854	0.054162	0.061253	0.34824	-2.5896	-3.1958	-2.4688	-3.15	-2.9458	-2.8521	-3.3229	-3.0187	-2.9771	-3.0083	-3.0438	-3.1104	-3	-2.9958	-3.1188	-2.9208	-89.233	184.764	-25.525	-80.590	173.825	65.664	-96.946	167.377	59.674	122.094	150.820	97.675	184.974	-31.594	-23.158	-117.966	0.00030344	0.00066577	7.4454e-05	1351.4	4.5632e-07	7.6514e-06	1352.8	357.16	2.5346e-06	4.8493e-06	411.72	137.56	118.68	41.365	2.8031e-06	52.106	0.00038261	0.00037977	0.00010652	1328.9	4.1414e-06	4.1667e-06	1353.2	358.99	4.1601e-06	4.1198e-06	412.88	139.17	118.66	41.606	4.0889e-06	52.49	193.580	-45.261	48.299	-109.191	95.786	73.500	-109.525	-104.754	-73.955	-32.477	-105.025	-101.390	-100.968	-95.405	33.941	-96.238	-8191	255	
780.277	1	1	0	0	0.012941	0.19844	0.10703	0.28691	0.14027	0.13332	0.1146	0.24979	0.13791	0.20857	0.07619	0.18617	0.11564	0.35121	0.067052	0.16155	-2.7417	-3.125	-2.8042	-3.025	-3.1021	-2.9313	-3.1229	-2.8604	-2.8812	-3.1208	-2.9542	-3.2438	-3.0729	-2.8708	-3.1271	-3.1562	114.155	78.346	177.117	198.253	-108.156	-38.748	187.717	201.490	210.610	-58.412	173.890	172.112	122.881	221.752	56.700	69.948	0.00023981	0.00062444	0.00011295	1358.6	1.4818e-06	1.3273e-06	1352.8	355.35	5.4681e-06	3.5097e-06	411.77	137.65	117.83	41.404	2.7688e-06	52.341	0.00037371	0.00037083	0.00010337	1327.9	3.9978e-06	4.0158e-06	1350.4	357.86	4.0214e-06	3.9986e-06	412.26	138.81	118.33	41.551	4.0501e-06	52.447	204.472	-1.882	-32.551	-109.343	20.710	107.688	-109.538	-104.664	-53.306	53.743	-105.245	-101.239	-100.696	-95.771	16.480	-96.314	-8191	255	
780.397	1	1	0	0	0.2758	0.16279	0.21588	0.2879	0.093948	0.11671	0.18959	0.13608	0.12446	0.079807	0.21878	0.094084	0.19206	0.14377	0.15806	0.31622	-2.4854	-3.1625	-2.8521	-3.1979	-3.3125	-2.9271	-3.2542	-3.0646	-2.975	-3.1208	-3.1562	-3.0042	-3.1104	-2.8854	-3.0938	-2.9458	46.007	-83.553	187.228	176.301	194.420	-40.663	129.284	147.312	95.700	-24.031	171.682	160.430	-68.687	167.557	-60.684	168.896	0.00022483	0.00079504	9.081e-05	1356.6	1.7263e-06	4.627e-06	1351.1	356.67	4.9321e-06	6.3778e-06	412.66	137.88	118.27	41.077	1.1296e-06	52.198	0.00036701	0.00036271	0.00010062	1325.3	3.9218e-06	3.9439e-06	1349.9	357.33	3.954e-06	3.9405e-06	411.64	138.83	118.24	41.439	3.9239e-06	52.365	199.495	0.673	-4.651	-109.400	68.366	-7.924	-109.443	-104.730	-40.495	8.139	-105.193	-101.139	-100.536	-95.663	114.957	-96.190	-8191	255	
780.493	1	1	0	0	0.18759	0.080156	0.21424	0.22423	0.16345	0.12696	0.10736	0.15463	0.20053	0.13486	0.22222	0.14579	0.010306	0.049614	0.038148	0.26531	-2.5	-3.15	-2.8333	-2.9542	-3.1125	-2.6792	-3.2083	-3.1458	-2.825	-3.125	-2.9917	-2.9375	-3.1542	-3.0708	-3.0125	-3.1125	-33.903	-38.231	88.013	188.207	5.081	44.796	-110.732	225.751	-31.411	201.568	142.064	46.538	56.740	-9.141	-28.017	229.891	0.00023731	0.00057739	0.00015676	1354.4	2.7801e-06	5.7629e-06	1349.3	355.77	4.5888e-06	1.7677e-06	411.95	137.55	118.37	41.321	3.7382e-06	52.05	0.00036064	0.0003534	9.966e-05	1320.4	3.8401e-06	3.8611e-06	1350.9	357.44	3.8621e-06	3.9126e-06	411.26	138.47	118.02	41.514	3.9213e-06	52.342	197.789	14.332	-36.090	-109.374	6.496	24.234	-109.446	-104.553	-0.621	48.700	-104.999	-101.274	-100.458	-95.849	18.346	-96.261	-8191	255	
780.590	1	1	0	0	0.11458	0.1423	0.32885	0.09141	0.09814	0.31717	0.17994	0.015551	0.19741	0.20514	0.18541	0.055633	0.13951	0.14769	0.11059	0.20272	-2.3937	-3.0271	-2.8875	-2.9729	-3.0917	-2.8688	-3.275	-3.2271	-2.7375	-3.1312	-3.0979	-3.0229	-3.3229	-2.8167	-2.8958	-3.2542	232.446	2.644	17.376	-22.473	129.443	48.590	161.514	-96.707	-15.897	123.690	68.148	-85.390	-101.267	231.516	203.372	199.868	0.00024497	0.00038545	9.7564e-05	1352.3	3.9442e-06	7.6502e-06	1350.6	356.69	2.4979e-06	2.6125e-06	411.89	137.59	117.61	41.25	1.3792e-06	52.254	0.00035806	0.00035833	9.9423e-05	1323.9	3.9288e-06	3.8977e-06	1349.6	357.43	3.8891e-06	3.8282e-06	410.62	138.49	117.84	41.392	3.7919e-06	52.3	199.438	-56.985	-69.945	-109.340	20.212	110.505	-109.645	-104.754	-50.024	44.127	-105.044	-101.409	-100.546	-95.827	-112.880	-95.985	-8191	255	
780.686	1	1	0	0	0.20094	0.14862	0.15237	0.15691	0.062146	0.19703	0.18578	0.27059	0.13647	0.043434	0.12947	0.39624	0.23355	0.088905	0.14714	0.06124	-2.4896	-3.0938	-2.9562	-2.9146	-3.1542	-2.9333	-3.1396	-3.3271	-2.8417	-3.1583	-3.0042	-2.9646	-3.2521	-3.1292	-3.2229	-3.1063	93.621	6.169	74.315	-122.629	48.831	-67.893	194.109	139.469	-59.930	-21.227	213.558	-86.827	208.093	173.175	121.081	90.049	0.00028152	0.00053549	8.3037e-05	1352.9	3.8552e-06	4.5129e-06	1348.1	355.6	2.2524e-06	4.6309e-06	410.67	137.53	117.71	41.241	2.1863e-06	52.253	0.00034907	0.00034354	9.4886e-05	1316	3.7285e-06	3.6929e-06	1344.2	356.39	3.711e-06	3.7069e-06	408.82	138.19	117.56	41.331	3.7674e-06	52.243	202.228	-7.576	-99.018	-109.048	-19.057	27.202	-109.405	-104.681	-22.312	77.590	-105.310	-101.220	-100.599	-95.645	2.217	-96.586	-8191	255	
780.780	1	1	0	0	0.16785	0.020167	0.17521	0.17422	0.034174	0.34083	0.20757	0.25612	0.1406	0.32313	0.096208	0.1961	0.049141	0.086572	0.1764	0.23644	-2.2812	-3.1312	-2.9604	-2.9396	-3.2812	-3.0812	-3.075	-3.3312	-2.9479	-3.0396	-3.2	-2.8958	-3.2479	-3.0354	-3.0333	-3.2771	32.590	-61.332	63.640	206.009	73.295	90.777	145.500	189.827	-75.855	232.536	171.839	-90.516	-122.006	-23.158	56.551	118.407	0.00025637	0.00017834	0.00019376	1348.3	3.6743e-06	7.8103e-07	1347.5	356.32	3.9588e-06	5.9255e-06	411.45	137.5	117.47	41.358	6.875e-06	52.224	0.00034973	0.0003451	9.6891e-05	1319	3.8184e-06	3.8805e-06	1348.2	357.27	3.8533e-06	3.8379e-06	410.63	138.44	117.94	41.416	3.9195e-06	52.271	209.571	39.305	-73.243	-109.313	21.976	-101.132	-109.612	-104.689	-7.644	122.698	-105.369	-101.134	-100.775	-95.816	-0.281	-96.736	-8191	255	
780.876	1	1	0	0	0.17833	0.30888	0.10015	0.18156	0.20801	0.01193	0.049159	0.23832	0.099724	0.13143	0.12637	0.11029	0.069137	0.057645	0.15873	0.10987	-2.5187	-2.8438	-3.0125	-2.9854	-3.2104	-2.975	-3.0625	-3.3708	-2.9833	-2.9354	-3.1937	-2.9688	-3.1417	-3.1875	-2.8396	-3.3438	208.432	208.406	-51.882	-121.178	-88.356	92.314	-100.701	207.009	208.046	15.246	88.982	136.724	-20.304	-107.411	23.934	210.168	0.00030061	0.00031477	0.0002366	1351.5	5.0033e-06	2.1208e-06	1349.5	356.75	2.0402e-06	2.8516e-06	413.2	137.81	117.92	41.349	3.4438e-06	52.271	0.00035852	0.00035616	0.00010027	1324.8	3.9108e-06	3.9113e-06	1349.1	357.3	3.8925e-06	3.816e-06	411.16	138.57	117.76	41.401	3.8515e-06	52.264	206.723	-29.490	-31.640	-109.524	37.514	78.496	-109.457	-104.690	-30.930	117.171	-105.267	-101.279	-100.434	-95.689	73.614	-96.468	-8191	255	
780.997	1	1	0	0	0.08296	0.2097	0.33723	0.10949	0.10667	0.11507	0.049192	0.37222	0.21337	0.15199	0.2169	0.41912	0.13493	0.13065	0.15227	0.13374	-2.5854	-3.1167	-3.1021	-2.9396	-3.0583	-3.0458	-3.0771	-3.2375	-2.8625	-3.0521	-3.0917	-2.7729	-3.2396	-3.1521	-2.8479	-3.2125	236.692	48.242	-98.328	204.900	-72.286	42.505	97.826	185.820	-115.974	-9.042	105.791	-113.511	-120.859	84.013	-29.821	168.038	0.0002675	0.0006531	0.00021233	1353.5	2.2916e-06	4.2625e-06	1351	356.27	3.5549e-06	4.6023e-06	413.26	137.28	117.74	41.238	4.2503e-06	52.286	0.00035536	0.00035338	9.8855e-05	1321.7	3.8667e-06	3.8814e-06	1349.6	357.6	3.9257e-06	3.8996e-06	411.39	138.45	117.97	41.35	3.8134e-06	52.251	200.968	-29.173	-46.235	-109.452	9.727	-32.642	-109.404	-104.680	-39.052	-8.198	-105.150	-101.497	-100.546	-95.848	1.558	-96.424	-8191	255	
781.093	1	1	0	0	0.14215	0.23457	0.23814	0.14613	0.15804	0.056342	0.14447	0.23124	0.10324	0.23688	0.13462	0.15119	0.17405	0.21932	0.052223	0.10362	-2.6542	-2.9437	-3.1917	-2.8229	-3.2062	-3.0417	-3.0917	-3.2146	-2.9021	-3.0354	-3.3375	-3.0458	-2.9979	-3.1875	-2.7438	-3.2771	170.149	178.845	101.407	52.408	-13.772	-0.478	194.426	157.821	-46.183	-110.331	84.879	133.483	152.410	220.780	200.545	154.949	0.00026923	0.00055181	0.00017229	1352.6	4.453e-06	5.3115e-06	1345	355.81	6.3089e-06	2.714e-06	411.83	136.63	118.07	41.261	1.7399e-06	52.263	0.00035094	0.00034442	9.6738e-05	1317.3	3.8012e-06	3.7422e-06	1345.6	356.85	3.7393e-06	3.7456e-06	409.86	138.19	117.7	41.368	3.7592e-06	52.246	200.069	-78.389	-27.576	-109.449	53.175	86.633	-109.361	-104.624	-62.972	57.808	-105.368	-101.035	-100.415	-95.735	28.274	-96.287	-8191	255	
781.189	1	1	0	0	0.40335	0.11937	0.039232	0.10397	0.20027	0.2449	0.097017	0.21502	0.063267	0.21781	0.13107	0.41742	0.22543	0.12392	0.15615	0.024945	-2.5021	-3.0292	-3.15	-2.8417	-3.0708	-3.0021	-2.9354	-3.2229	-2.7917	-2.9479	-3.2104	-2.9875	-2.9396	-3.2333	-2.8417	-3.2	17.558	197.098	167.444	-69.647	-74.778	116.281	-104.366	141.019	-77.020	196.532	208.319	-104.161	127.724	112.403	100.056	78.539	0.00029476	0.00033244	0.00012901	1360.5	1.2128e-06	4.699e-06	1348.8	355.04	5.0354e-06	6.6532e-06	412.38	136.94	117.17	41.268	3.1646e-06	51.935	0.00034678	0.0003427	9.5294e-05	1321.3	3.782e-06	3.7792e-06	1346.5	356.9	3.8427e-06	3.7947e-06	411.09	138.36	117.59	41.39	3.8204e-06	52.272	199.326	39.064	-25.278	-109.155	-20.513	60.932	-109.440	-104.696	-71.155	22.719	-105.059	-101.148	-100.636	-95.728	7.590	-96.284	-8191	255	
781.285	1	1	0	0	0.19518	0.30187	0.12678	0.17518	0.061664	0.18671	0.13883	0.0038616	0.14625	0.20067	0.10669	0.1498	0.20278	0.11478	0.12996	0.32051	-2.6292	-2.7833	-3.1854	-2.8771	-3.0792	-3.175	-2.9792	-3.25	-2.9813	-2.9271	-3.2583	-2.8792	-2.8292	-3.2438	-3.0062	-3.0062	145.883	-13.704	30.209	-120.245	128.666	-39.277	-112.078	-37.800	8.135	-38.867	234.367	-36.514	-79.584	-121.881	-38.115	232.312	0.00025151	0.00062849	0.00010388	1350.2	3.1167e-06	6.1253e-06	1346.4	355.88	4.8373e-06	5.4809e-06	413.53	137.29	117.92	41.49	3.5217e-06	52.107	0.00035313	0.00034838	9.7168e-05	1320.1	3.853e-06	3.8215e-06	1346.8	357.04	3.8567e-06	3.8196e-06	410.75	138.42	117.91	41.415	3.8639e-06	52.28	203.596	7.593	-106.334	-109.239	34.862	33.846	-109.362	-104.687	-24.381	53.469	-105.230	-101.529	-100.700	-95.659	-20.994	-96.525	-8191	255	
781.381	1	1	0	0	0.12063	0.065521	0.17923	0.21044	0.06086	0.16397	0.25834	0.24864	0.24066	0.095409	0.10471	0.23917	0.16761	0.17046	0.22848	0.15968	-2.5625	-2.5229	-3.2104	-2.9875	-2.9583	-3.1604	-3.0396	-3.0542	-3.2917	-2.9208	-3.2479	-3.0521	-3.0958	-3.1229	-2.8208	-3.0083	-108.359	49.050	178.295	217.849	86.892	64.464	214.005	221.796	-26.396	-19.106	29.846	234.966	89.460	-121.059	15.961	225.480	0.0002788	0.0003487	7.9763e-05	1344.3	4.3642e-06	7.7054e-07	1344.7	355.75	3.037e-07	5.3905e-06	413.2	136.75	117.6	41.226	4.5368e-06	52.018	0.00035185	0.00034965	9.6443e-05	1315.9	3.8078e-06	3.7938e-06	1345.3	356.48	3.8457e-06	3.8289e-06	410.38	138.05	117.57	41.329	3.8221e-06	52.101	197.939	-18.859	-2.193	-109.318	-24.569	234.430	-109.557	-104.623	146.715	-82.071	-105.139	-101.350	-100.757	-95.748	-34.698	-96.300	-8191	255	
781.478	1	1	0	0	0.12751	0.10852	0.044439	0.1795	0.30872	0.18501	0.28987	0.47595	0.13865	0.25703	0.19055	0.24137	0.048681	0.061411	0.1842	0.21595	-2.6688	-2.7083	-3.1125	-3.0563	-3.0146	-3.1625	-3.125	-3.2521	-3.1208	-2.7333	-3.3812	-3.1125	-2.8583	-3.25	-2.8	-2.9458	158.345	156.611	206.264	-43.937	232.099	179.570	186.143	171.611	165.934	-3.654	136.798	188.459	144.973	12.637	-51.462	140.762	0.00031386	0.0004582	0.00018016	1348.6	4.7378e-06	7.9676e-06	1346.4	355.78	4.1163e-06	2.8018e-06	412.04	137.29	117.18	41.229	2.9715e-06	51.938	0.00034633	0.00034713	9.6143e-05	1315.5	3.7477e-06	3.709e-06	1343.6	356.08	3.7371e-06	3.6814e-06	409.53	138.08	117.33	41.29	3.7119e-06	52.053	192.676	-2.116	-95.173	-109.137	75.307	15.881	-109.688	-104.580	-44.846	-54.024	-105.330	-101.377	-100.492	-95.667	213.877	-96.341	-8191	255	
781.574	1	1	0	0	0.22848	0.091597	0.082792	0.064306	0.20887	0.11984	0.24208	0.04522	0.024078	0.1996	0.36108	0.13464	0.095269	0.13415	0.12848	0.25636	-2.7938	-2.9208	-2.9771	-3.0292	-2.8417	-3.1333	-3.15	-3.0312	-3.1437	-2.9	-3.1458	-3.1604	-2.8375	-3.2375	-2.9792	-3.0187	116.819	154.304	24.634	-43.437	234.468	-47.580	97.436	82.793	130.725	168.199	226.634	156.886	-72.780	174.479	73.502	198.651	0.0002472	0.00047742	4.3658e-05	1347.6	5.0036e-06	2.1092e-06	1347	355.46	5.5621e-06	1.9981e-06	410.08	136.95	118.01	41.283	4.2082e-06	51.623	0.00033874	0.00033752	9.4758e-05	1307.9	3.694e-06	3.6974e-06	1343.7	356.08	3.7544e-06	3.7448e-06	408.75	138.08	117.34	41.256	3.7417e-06	51.93	206.399	24.575	-102.208	-109.339	-30.412	-35.404	-109.428	-104.590	-59.504	93.988	-105.049	-101.366	-100.414	-95.777	-17.055	-96.131	-8191	255	
781.693	1	1	0	0	0.1787	0.22966	0.12177	0.20767	0.095388	0.12521	0.13677	0.28893	0.18279	0.17312	0.39012	0.23917	0.30889	0.080347	0.1132	0.12602	-2.7042	-2.8792	-2.8604	-3.3604	-2.7479	-3.2375	-3.2208	-3.0958	-3.1354	-2.9417	-3.2417	-3.3083	-2.9146	-3.3917	-2.8604	-3.1271	-56.633	-43.458	177.853	-28.870	119.059	-16.929	-77.484	219.031	189.541	-62.746	221.758	105.710	125.441	108.537	-95.030	-35.194	0.00031696	0.00019197	0.00010018	1341.4	6.2699e-06	6.1908e-06	1344.2	354.64	6.746e-06	2.7111e-06	411.46	136.97	117.01	41.179	1.2722e-06	51.988	0.00034596	0.00034513	9.6683e-05	1310.9	3.7881e-06	3.7864e-06	1343.2	355.68	3.7926e-06	3.8227e-06	409	138	117.3	41.243	3.7728e-06	52.125	197.364	-12.551	-59.582	-109.449	65.498	62.671	-109.382	-104.494	-0.830	90.482	-105.071	-101.226	-100.508	-95.930	5.171	-96.442	-8191	255	
781.789	1	1	0	0	0.18523	0.14924	0.15017	0.039202	0.1893	0.11219	0.21188	0.07527	0.1216	0.20691	0.10818	0.24317	0.22761	0.2918	0.061631	0.21245	-2.7438	-2.9292	-2.9854	-3.2375	-2.8896	-3.0229	-3.1604	-2.8042	-3.1375	-2.9354	-3.125	-3.1917	-2.8271	-3.0104	-3.1146	-2.8375	71.630	184.274	84.010	233.047	-111.744	27.144	190.809	176.384	65.876	188.899	120.559	231.798	-86.960	-100.438	20.657	143.641	0.00029844	0.00039653	9.2631e-05	1342.4	3.4713e-06	3.0762e-06	1344.2	353.25	5.1011e-06	3.2728e-06	410.26	137.25	117.45	41.222	3.7789e-06	52.118	0.00034418	0.00034229	9.5487e-05	1312.7	3.7211e-06	3.7816e-06	1341.1	355.58	3.7919e-06	3.8057e-06	409	137.79	117.32	41.261	3.7873e-06	52.08	200.997	-37.281	-92.640	-109.263	26.908	77.244	-109.421	-104.774	-88.606	47.401	-105.287	-101.281	-100.737	-95.684	82.243	-96.792	-8191	255	
781.860	1	1	0	0	0.17683	0.47309	0.11008	0.13208	0.16696	0.10329	0.16913	0.17974	0.064002	0.038819	0.12208	0.32006	0.037735	0.31999	0.11426	0.19529	-2.7208	-2.9	-3.0417	-3.0938	-2.7271	-3.0875	-3.1333	-3.0729	-3.0896	-3.0604	-3.0312	-3.3146	-2.8312	-3.1958	-2.9521	-2.875	126.704	-16.014	-9.070	215.811	193.773	202.545	195.375	216.058	89.393	84.979	107.434	221.764	-112.173	147.086	162.640	130.462	0.00030033	0.0001202	0.00025957	1347	7.2214e-06	2.7954e-06	1341.9	355.21	2.2356e-06	5.8269e-06	410.14	136.87	117.13	41.213	2.187e-06	51.938	0.00035212	0.00035142	9.8056e-05	1316.6	3.8444e-06	3.8643e-06	1342	356.03	3.8689e-06	3.8639e-06	409.93	137.81	117.33	41.283	3.8748e-06	52.103	196.320	-28.923	-52.593	-109.395	20.639	60.321	-109.346	-104.784	37.897	74.750	-105.113	-101.132	-100.391	-95.780	-21.861	-96.333	-8191	255	
781.958	1	1	0	0	0.20724	0.056027	0.061261	0.20692	0.17618	0.068345	0.3233	0.31464	0.18665	0.15711	0.17635	0.16148	0.00092799	0.26114	0.16365	0.13486	-2.7542	-3.0792	-2.9146	-2.9896	-2.9313	-3.025	-3.3979	-2.9646	-3.0938	-3.0771	-3.0875	-3.3479	-2.9313	-3.1646	-3.3042	-2.7562	-82.084	-50.416	-82.427	-20.015	60.287	142.398	195.076	134.741	-18.433	162.111	183.987	145.442	180.000	113.028	-28.473	144.253	0.00028068	0.00098264	0.00010898	1346	1.9262e-06	3.8213e-06	1340	354.88	1.7668e-06	1.8542e-06	412.97	136.56	117.62	41.014	3.1209e-06	52.26	0.00036541	0.00035658	0.00010024	1318.2	3.9724e-06	3.9548e-06	1342.3	356.2	3.9735e-06	3.9516e-06	410.65	138.12	117.77	41.321	4.0416e-06	52.298	207.088	-3.705	-15.296	-109.574	166.129	29.817	-109.541	-104.757	-20.551	-23.297	-105.271	-101.405	-100.732	-95.872	-121.174	-96.439	-8191	255	
782.077	1	1	0	0	0.25021	0.11476	0.021291	0.20402	0.043086	0.16649	0.27503	0.21739	0.035079	0.21883	0.063967	0.12012	0.18015	0.1783	0.10857	0.062528	-2.725	-2.9958	-2.9479	-3.25	-2.9479	-2.9	-3.2604	-3.0604	-3.0271	-3.0396	-3.0292	-3.3708	-2.9208	-2.9271	-3.225	-2.9667	17.853	85.145	-103.156	39.472	-37.546	52.326	230.689	155.025	188.682	-18.511	164.139	208.221	201.417	-97.980	-89.266	199.157	0.0003166	0.00035378	0.00023441	1355.3	3.0324e-06	5.8634e-06	1347.5	355.5	2.0309e-06	2.8661e-06	411.76	137.2	117.19	41.155	1.446e-06	52.289	0.00037585	0.00036934	0.00010274	1321.8	4.0189e-06	4.0031e-06	1346.7	356.72	3.9901e-06	4.0109e-06	410.88	138.21	117.62	41.344	4.0701e-06	52.282	200.910	-24.902	-44.761	-109.211	11.366	-92.278	-109.451	-104.859	84.249	146.252	-105.003	-101.098	-100.164	-95.569	-33.895	-96.403	-8191	255	
782.173	1	1	0	0	0.056524	0.25627	0.22783	0.12716	0.079974	0.21325	0.24246	0.13136	0.36785	0.15693	0.37032	0.1461	0.31862	0.11109	0.27822	0.1119	-2.7229	-3.1583	-2.7958	-3.2021	-2.8646	-3.025	-3.3604	-2.9021	-3.1188	-3.0833	-3.075	-3.2542	-3.0729	-2.925	-3.2292	-2.7896	212.716	157.044	-108.418	180.473	48.434	108.261	195.533	-96.385	-47.795	35.352	193.658	-112.690	208.157	-60.223	84.456	205.676	0.00023845	0.00070593	0.00015756	1350.3	2.3979e-06	2.6648e-06	1346.1	355.25	5.9214e-06	3.5447e-06	410.63	137.38	117.34	41.174	5.199e-06	52	0.00037117	0.00036841	0.00010309	1321.3	3.9842e-06	3.9667e-06	1346.7	356.65	3.9798e-06	3.9962e-06	410.39	138.22	117.86	41.391	4.0675e-06	52.269	187.542	-67.117	-53.949	-109.430	58.956	63.059	-109.603	-104.775	-55.040	39.645	-105.166	-101.235	-100.672	-95.667	35.290	-96.387	-8191	255	
782.270	1	1	0	0	0.030713	0.16663	0.2725	0.19974	0.10952	0.044921	0.16546	0.21273	0.1159	0.088081	0.12294	0.24119	0.23239	0.13241	0.11626	0.25238	-2.5917	-3.1063	-2.7125	-3.175	-2.9542	-2.7875	-3.2438	-2.9062	-3.1042	-3.1	-3.0292	-3.1875	-2.9854	-3.0521	-3.1646	-2.9667	28.055	-89.516	59.066	125.256	182.218	96.649	207.361	215.250	51.312	-72.160	139.413	139.108	191.925	-77.695	9.115	210.311	0.00026004	0.00013174	0.00013028	1349	5.1402e-06	2.3767e-06	1346	356.17	4.0481e-06	4.9966e-06	414.02	137.04	117.56	41.344	2.9577e-06	52.067	0.00037447	0.00037053	0.00010314	1322.3	4.0527e-06	4.0639e-06	1347.9	356.95	4.0644e-06	4.0606e-06	411.1	138.37	117.72	41.496	4.1127e-06	52.326	205.300	-51.775	-38.982	-109.263	2.894	1.488	-109.607	-104.588	-28.948	39.045	-105.140	-101.244	-100.557	-95.877	31.252	-96.332	-8191	255	
782.390	1	1	0	0	0.21377	0.049115	0.1505	0.22711	0.20489	0.13242	0.15665	0.44707	0.099289	0.45852	0.064939	0.054888	0.083526	0.16869	0.016896	0.12901	-2.4229	-3.1688	-2.7625	-3.1375	-2.8417	-2.9625	-3.2708	-2.9333	-3.0312	-3.0333	-2.9917	-3.1604	-3.2729	-2.9062	-3.1813	-2.9062	-46.616	107.614	223.951	230.424	180.417	-74.576	234.295	222.309	193.301	29.610	-68.659	-111.024	-105.946	159.019	-81.019	81.511	0.00028317	0.00091254	0.00015034	1344.7	5.0124e-06	4.8559e-06	1345.2	355.93	1.8941e-06	1.1847e-06	412.25	137.53	117.16	41.05	1.2939e-06	52.078	0.00037948	0.00037258	0.00010368	1321	4.0259e-06	4.0145e-06	1346.7	356.91	4.0832e-06	4.0199e-06	410.72	138.47	117.67	41.39	4.0683e-06	52.285	203.735	-35.663	-63.598	-109.363	30.425	89.263	-109.316	-104.750	-4.168	-14.541	-105.386	-101.272	-100.728	-95.482	65.616	-96.070	-8191	255	
782.462	1	1	0	0	0.19399	0.041883	0.19059	0.093133	0.33685	0.11118	0.081738	0.20655	0.17591	0.17249	0.19754	0.04878	0.14938	0.11532	0.11599	0.23854	-2.5083	-3.0563	-2.9667	-3.1813	-3.1958	-2.7604	-3.3375	-3.0208	-2.9104	-3.2229	-3.05	-3.0396	-3.1104	-2.8896	-3.1875	-3.1292	100.996	73.692	-20.466	49.459	-111.188	-2.876	194.159	236.232	144.621	1.235	198.877	-71.251	-54.028	6.551	-97.355	96.819	0.00019221	0.00064711	9.6405e-05	1348.1	4.1784e-06	6.9454e-06	1343.8	355.07	3.4651e-06	4.0119e-06	410.29	137.18	117.72	41.125	5.7445e-06	51.885	0.00036862	0.00037199	0.00010293	1320	4.0254e-06	4.0432e-06	1346.6	356.57	4.0793e-06	4.0555e-06	410.61	138.24	117.74	41.337	4.0929e-06	52.18	194.508	18.340	-70.449	-109.350	53.233	5.645	-109.564	-104.805	-66.499	61.313	-105.127	-101.180	-100.651	-95.760	19.137	-96.525	-8191	255	
782.558	1	1	0	0	0.15603	0.047757	0.24241	0.22359	0.14756	0.1691	0.39019	0.19091	0.088655	0.13461	0.14222	0.49554	0.11134	0.075555	0.19828	0.099871	-2.3646	-3.0583	-2.95	-3.0375	-3.0958	-2.8354	-3.1417	-3.2188	-2.8708	-3.1583	-2.8708	-3.1104	-3.1937	-2.9167	-3.1958	-3.0396	198.923	132.523	83.994	109.070	-79.759	205.284	174.495	232.659	79.357	213.843	196.112	184.038	153.712	135.793	-0.523	136.388	0.00024669	0.0004632	4.8845e-05	1345.6	3.868e-06	5.9304e-06	1340.6	354.81	9.4403e-07	1.9368e-06	412.1	136.99	117.11	41.114	1.5438e-06	52.036	0.00037307	0.00037272	0.00010316	1321.3	4.0168e-06	4.0407e-06	1345.6	356.9	4.0583e-06	4.0373e-06	411.01	138.37	118.02	41.389	4.0746e-06	52.28	196.276	-86.745	-26.614	-109.281	33.537	24.309	-109.636	-104.822	186.625	-20.587	-104.951	-101.278	-100.579	-95.801	-38.533	-96.404	-8191	255	
782.679	1	1	0	0	0.15691	0.30269	0.19779	0.071794	0.15733	0.21776	0.044447	0.087681	0.12868	0.10749	0.11366	0.16281	0.080657	0.32246	0.20322	0.21873	-2.2729	-3.1583	-2.7375	-3.0104	-3.1646	-2.7854	-3.1417	-3.0312	-2.8771	-3.0896	-2.8875	-3.0542	-3.1208	-3.0021	-3.1521	-3.1937	152.159	-99.341	-70.787	114.264	-25.626	32.175	10.347	113.530	40.881	105.622	106.111	229.467	184.663	176.950	-56.658	-59.351	0.00031053	0.00013308	0.00016586	1351.5	5.8243e-06	4.4164e-06	1344.7	354.54	2.2523e-06	6.2981e-06	411.29	136.89	117.29	41.105	1.0136e-06	52.204	0.00037115	0.00037101	0.00010328	1322.8	4.0529e-06	4.07e-06	1348.3	357	4.0852e-06	4.0616e-06	411.14	138.26	117.95	41.34	4.1152e-06	52.241	199.572	26.358	-27.807	-109.191	-36.714	98.152	-109.309	-104.774	21.151	12.545	-105.112	-101.450	-100.640	-95.885	-19.129	-96.694	-8191	255	
782.773	1	1	0	0	0.19316	0.33087	0.29151	0.078415	0.15887	0.24601	0.22263	0.3001	0.32864	0.14344	0.28731	0.029801	0.20465	0.14055	0.08456	0.063572	-2.6292	-3.0271	-3.0604	-2.9188	-3.0083	-2.9854	-3.15	-3.2208	-2.8875	-3.2188	-2.9938	-2.825	-3.2979	-3.1063	-3.1417	-3.3292	13.464	57.258	-121.910	201.954	-83.652	-93.704	210.770	201.542	-109.739	235.370	-106.501	-60.206	49.502	-1.953	87.008	134.391	0.00024525	0.00076924	0.00013146	1344.8	1.2291e-06	2.6013e-06	1348.3	356.81	4.3351e-06	4.0836e-06	409.94	137.86	117.21	41.197	3.8497e-06	52.019	0.00037757	0.00037725	0.00010511	1321.3	4.12e-06	4.0801e-06	1348.3	357.27	4.0993e-06	4.1333e-06	410.56	138.36	117.87	41.407	4.1411e-06	52.29	196.848	42.944	-32.833	-109.258	-25.885	22.403	-109.481	-104.963	-62.818	89.340	-105.117	-101.237	-100.487	-95.619	-9.238	-96.300	-8191	255	
782.869	1	1	0	0	0.2897	0.20764	0.1407	0.11181	0.21084	0.1197	0.28445	0.1782	0.1558	0.15812	0.25217	0.095428	0.20177	0.14626	0.11555	0.21559	-2.3875	-3.0979	-2.9979	-2.8479	-3.1188	-2.9021	-3.1458	-3.3208	-2.8167	-3.1458	-3.0896	-2.925	-2.9667	-3.2313	-2.9646	-3.2687	38.552	70.790	214.748	-42.355	8.018	111.921	224.651	179.518	-87.268	-94.418	201.229	164.413	168.268	-67.719	170.196	153.678	0.00024226	0.00069095	0.00011683	1349.4	4.3912e-06	6.1922e-06	1346.2	354.91	5.1668e-07	4.6441e-06	412.16	137.36	117.7	41.042	1.1756e-06	51.806	0.00037674	0.00037416	0.00010456	1322.7	4.0982e-06	4.1202e-06	1350	356.76	4.1131e-06	4.1125e-06	411.83	138.42	117.94	41.338	4.1637e-06	52.128	212.739	-22.538	-44.654	-109.444	47.564	75.948	-109.417	-104.826	-86.424	71.083	-105.259	-101.409	-100.738	-95.689	85.326	-96.393	-8191	255	
782.965	1	1	0	0	0.241	0.2298	0.17723	0.26117	0.28137	0.046265	0.16449	0.23743	0.20275	0.15309	0.10744	0.36992	0.12225	0.25107	0.20633	0.067015	-2.2271	-2.8729	-3.1167	-2.8104	-3.1375	-2.9562	-2.9917	-3.1125	-2.7979	-2.9396	-3.3187	-2.7979	-3.1042	-2.975	-2.8354	-3.2792	125.307	156.325	37.544	189.608	-80.260	143.388	157.467	187.786	20.531	-39.622	184.445	96.857	120.125	213.070	-3.417	192.561	0.00026067	0.0003188	7.4013e-05	1356.6	3.7357e-06	2.6362e-06	1349.2	355.98	5.1013e-06	5.9111e-06	411.08	136.99	118.26	41.295	1.0046e-06	51.718	0.00037867	0.00037707	0.00010544	1325.6	4.156e-06	4.1046e-06	1350.2	357.47	4.1034e-06	4.0688e-06	410.83	138.41	118.1	41.361	4.1232e-06	52.252	191.751	62.811	-8.281	-109.125	-41.914	86.226	-109.295	-104.707	10.590	45.516	-105.214	-101.360	-100.483	-95.678	47.857	-96.306	-8191	255	
783.086	1	1	0	0	0.052825	0.16375	0.26472	0.12687	0.11901	0.32712	0.11559	0.22264	0.13038	0.10979	0.13375	0.13706	0.11507	0.094774	0.2069	0.080797	-2.3979	-2.8979	-2.9938	-2.8563	-3.1042	-2.8187	-2.9313	-3.2521	-2.6646	-2.9104	-3.3146	-2.8833	-3.1104	-3.1458	-2.9729	-3.2458	121.822	67.865	144.641	215.432	71.098	-26.425	230.939	148.506	103.331	-62.428	188.898	-12.981	-3.986	-44.264	-83.160	77.346	0.00025931	0.00058231	0.00021059	1352	4.8576e-06	4.0966e-06	1351.2	355.89	4.4252e-06	3.0205e-06	411.63	136.98	117.73	41.372	1.4919e-06	51.97	0.00037974	0.00037481	0.00010474	1323.2	4.1179e-06	4.1188e-06	1349.5	357.16	4.1325e-06	4.0903e-06	410.99	138.33	118.04	41.361	4.121e-06	52.269	195.817	-30.203	1.789	-109.603	34.543	19.338	-109.289	-104.680	-48.804	93.142	-105.054	-101.159	-100.333	-95.565	87.990	-96.455	-8191	255	
783.158	1	1	0	0	0.11859	0.1648	0.1339	0.3794	0.18275	0.082773	0.11553	0.29197	0.1067	0.17219	0.31222	0.24975	0.29613	0.18288	0.086137	0.15857	-2.3708	-2.8667	-3.0917	-2.8042	-3.1042	-2.9229	-3.0708	-3.3521	-2.9437	-2.8292	-3.2479	-2.9458	-2.9958	-3.025	-2.9875	-3.3396	141.582	-93.943	-76.668	25.393	40.527	221.466	67.884	196.413	103.292	151.533	158.671	-120.429	-119.227	-102.549	48.089	210.759	0.00026821	0.0010858	0.00015269	1345.4	3.1709e-06	4.2082e-06	1348.4	355.64	5.195e-06	3.0755e-06	410.34	137.96	116.78	41.039	5.0351e-06	52.083	0.00037912	0.00037595	0.00010416	1323.6	4.1054e-06	4.0965e-06	1348.3	357.09	4.0924e-06	4.1246e-06	410.64	138.63	117.63	41.358	4.0899e-06	52.259	187.036	-8.913	-66.625	-109.053	-37.362	22.837	-109.338	-104.550	-26.307	65.655	-105.238	-101.196	-100.499	-95.613	31.641	-96.221	-8191	255	
783.254	1	1	0	0	0.15812	0.16305	0.38409	0.27059	0.28837	0.18566	0.11522	0.070068	0.35035	0.16093	0.26495	0.096122	0.22739	0.0986	0.072745	0.11079	-2.5417	-2.85	-2.9437	-2.7396	-3.0062	-3.1	-3.0146	-2.9604	-2.9771	-2.7917	-3.2333	-2.8833	-3.1208	-2.9813	-2.9125	-3.4437	-28.194	50.585	-109.617	210.709	63.523	-14.144	28.587	189.806	82.730	72.049	154.509	30.786	-69.429	203.934	-60.458	-84.528	0.00026508	0.00065464	0.00023033	1346.5	2.3161e-06	6.6429e-06	1346.6	355.51	4.5575e-07	5.321e-06	412.01	137.01	117.45	41.175	1.5261e-06	51.957	0.00037587	0.00037368	0.00010364	1323.5	4.0188e-06	4.0721e-06	1349.1	357.11	4.0778e-06	4.0677e-06	410.75	138.34	117.86	41.392	4.0304e-06	52.167	206.102	9.253	-89.648	-109.193	76.915	-20.270	-109.690	-104.676	218.817	83.608	-105.203	-101.346	-100.417	-95.887	140.965	-96.486	-8191	255	
783.350	1	1	0	0	0.19039	0.038782	0.04399	0.16009	0.21425	0.33672	0.17108	0.14795	0.10177	0.25358	0.23091	0.18281	0.041448	0.20742	0.017168	0.21456	-2.4229	-2.7833	-2.9604	-2.8896	-2.9979	-3.0729	-3.0187	-3.2	-3.0729	-2.8521	-3.325	-3.1042	-3.1354	-3.1146	-2.8917	-3.1562	-29.142	78.955	-88.240	187.279	58.124	194.761	110.037	15.735	-46.355	162.455	-120.835	121.264	-43.363	169.370	171.754	-47.703	0.00026695	4.5737e-05	0.00015918	1345.7	1.9183e-06	4.7915e-06	1344.6	356.07	5.9451e-06	3.6926e-06	411.87	137.64	116.6	41.305	1.0274e-06	52.084	0.00036457	0.00036453	0.00010002	1318	3.9504e-06	3.984e-06	1346.9	357.33	3.9879e-06	3.9957e-06	409.98	138.39	117.61	41.325	3.9962e-06	52.259	206.386	-21.026	-83.504	-109.313	63.367	31.377	-109.478	-104.755	-10.927	55.433	-105.366	-101.160	-100.646	-95.650	-42.628	-96.634	-8191	255	
783.471	1	1	0	0	0.065538	0.12592	0.17251	0.1121	0.18363	0.079893	0.035958	0.1531	0.060715	0.089441	0.14338	0.29098	0.1915	0.22225	0.22695	0.098307	-2.5396	-2.8667	-3.1292	-3.0333	-2.9583	-3.2979	-3.0083	-3.1479	-3.0146	-2.7521	-3.1188	-2.8979	-2.9146	-3.3271	-2.8229	-3.0792	176.412	-20.723	186.472	6.796	-59.375	166.035	161.682	-105.934	-47.722	119.169	190.457	150.406	232.243	87.897	68.666	-90.512	0.00024784	0.00044254	0.00019173	1352.7	6.3683e-06	6.601e-06	1341.6	355.23	3.8123e-06	2.2002e-06	411.87	137.09	117.48	41.106	3.242e-06	51.886	0.00036606	0.00036502	0.00010118	1319.9	3.9951e-06	3.9678e-06	1346.3	357.02	3.9512e-06	4.0053e-06	410.63	138.18	117.58	41.328	4.0055e-06	52.19	206.135	-5.652	-22.836	-109.259	45.794	22.331	-109.289	-104.589	-25.250	149.276	-105.237	-101.202	-100.583	-95.945	26.470	-96.376	-8191	255	
783.567	1	1	0	0	0.20987	0.21592	0.10018	0.302	0.1368	0.1223	0.1158	0.13387	0.10054	0.1024	0.313	0.14988	0.08916	0.038522	0.25811	0.14767	-2.8333	-2.7667	-3.1208	-3.0271	-2.6833	-3.1625	-2.9292	-3.0021	-3.0938	-2.7062	-3.0583	-3.1896	-2.9521	-3.2833	-2.9688	-3.0604	-53.755	142.000	181.228	65.142	-104.239	-120.196	161.856	230.481	-92.337	147.838	207.670	168.893	61.969	146.232	214.709	202.793	0.00027708	0.00027226	5.0895e-05	1349.5	3.6016e-06	5.448e-06	1346.4	356.06	5.1192e-06	5.7516e-06	413.41	136.54	117.07	41.189	1.2025e-06	51.916	0.00036215	0.00036488	0.00010137	1320.5	3.9678e-06	3.941e-06	1346.4	356.71	3.9774e-06	3.9795e-06	410.75	138.09	117.81	41.271	3.9767e-06	52.155	197.501	-30.811	-22.481	-109.435	30.658	49.818	-109.327	-104.792	-75.881	9.020	-104.954	-101.345	-100.640	-95.592	61.622	-96.199	-8191	255	
783.661	1	1	0	0	0.069497	0.12455	0.049758	0.19468	0.03241	0.16665	0.14095	0.12164	0.24114	0.12479	0.14607	0.21779	0.13485	0.053871	0.056496	0.1428	-2.8729	-2.7083	-3.1312	-3.1021	-2.5875	-3.1875	-3.0938	-3.0479	-3.1875	-2.8438	-3.2375	-3.0875	-2.9167	-3.1333	-2.9667	-3.1292	186.672	47.962	171.041	160.494	63.746	125.561	124.526	228.488	95.228	-25.658	107.758	41.794	43.283	-67.867	14.716	96.803	0.00023824	0.00070685	0.0001855	1351.2	5.8167e-06	6.2141e-06	1346.5	355.22	4.2002e-06	2.7482e-06	409.94	136.81	116.88	41.075	5.379e-06	51.94	0.00036476	0.00036154	0.00010077	1320.4	4.0039e-06	3.982e-06	1346.5	356.74	3.9966e-06	4.0143e-06	410.09	137.96	117.35	41.328	4.0153e-06	52.063	200.923	-35.249	-34.410	-109.358	-10.231	21.156	-109.457	-104.694	26.006	74.153	-105.183	-101.070	-100.572	-95.652	51.558	-96.366	-8191	255	
783.759	1	1	0	0	0.17059	0.11254	0.33749	0.21528	0.25157	0.14745	0.09981	0.12625	0.20897	0.32045	0.24783	0.11779	0.15483	0.10511	0.1403	0.12727	-2.7812	-2.7583	-2.9958	-2.9083	-2.9188	-3.1042	-3.0542	-2.95	-3.1104	-2.8438	-3.2333	-3.1542	-2.8333	-3.3604	-3.0833	-2.9021	110.995	94.794	-57.247	174.281	-87.703	-72.834	221.303	177.522	-23.118	180.808	116.981	177.129	174.370	172.767	27.629	-110.698	0.00023051	0.0010914	0.00020374	1356.5	7.3279e-06	4.3839e-06	1346.3	354.93	5.797e-06	3.7429e-06	410.91	136.59	117.23	40.949	2.4707e-06	52.156	0.0003674	0.00036619	0.00010179	1322.5	3.9622e-06	3.959e-06	1347.3	357	3.954e-06	3.9348e-06	410.33	137.85	117.51	41.214	3.9408e-06	52.121	201.362	-62.462	-62.612	-109.387	20.684	-19.011	-109.443	-104.963	-4.476	38.897	-105.132	-101.305	-100.434	-95.641	-79.218	-96.437	-8191	255	
783.853	1	1	0	0	0.38204	0.11017	0.08189	0.059107	0.16016	0.2138	0.052537	0.23139	0.1029	0.14792	0.46438	0.15492	0.19581	0.1913	0.22167	0.28618	-2.8146	-2.8625	-2.7896	-3.0833	-2.8917	-3.2229	-3.1833	-3.1146	-3.0854	-2.9125	-2.8854	-3.3958	-2.7229	-3.1562	-3.0167	-2.8875	175.656	213.749	-33.409	170.985	214.141	73.963	77.632	167.516	31.359	120.052	193.394	144.196	217.470	213.573	-41.802	130.850	0.00030596	0.00027534	8.7621e-05	1351	1.8556e-06	7.875e-06	1345.8	355.81	2.9886e-06	2.4982e-06	409.47	137.19	117.19	41.139	6.0192e-06	52.014	0.00036252	0.00036273	0.00010116	1318.2	3.9796e-06	3.962e-06	1345.1	356.68	3.9799e-06	3.9783e-06	409.52	138.16	117.65	41.242	3.9359e-06	52.156	214.820	-21.241	-29.780	-109.248	180.947	47.114	-109.401	-104.840	-43.198	-6.736	-104.950	-101.206	-100.897	-95.821	-20.274	-96.144	-8191	255	
783.950	1	1	0	0	0.15676	0.11894	0.15102	0.3642	0.28841	0.23035	0.30152	0.20945	0.081632	0.089049	0.24023	0.072908	0.2196	0.20562	0.15595	0.11359	-2.5792	-2.7104	-3.15	-3.2729	-2.7062	-3.2167	-3.1104	-2.9292	-3.225	-2.7354	-3.1875	-3.1937	-2.8375	-3.1729	-3.0042	-2.8	48.842	95.674	236.865	227.170	122.962	195.425	178.464	115.093	192.961	-41.918	-103.166	212.328	124.383	115.290	-48.595	130.270	0.00023582	0.00045845	0.00020818	1351.9	3.257e-06	3.0495e-06	1345.9	355.62	3.543e-06	3.6374e-06	412.07	137.31	117.66	41.046	3.1949e-06	51.815	0.00036241	0.00036137	0.00010007	1319.4	3.9592e-06	3.9464e-06	1345.1	356.69	3.9398e-06	3.951e-06	410.28	138.02	117.62	41.285	3.9659e-06	52.155	194.661	-121.876	-26.140	-109.278	-26.851	4.285	-109.500	-104.716	-31.232	39.357	-104.951	-101.305	-100.568	-95.712	-54.787	-96.375	-8191	255	
784.070	1	1	0	0	0.083588	0.235	0.045688	0.14645	0.057374	0.21415	0.29716	0.21915	0.082501	0.092334	0.1103	0.37776	0.041041	0.044596	0.22399	0.099323	-2.6458	-2.9604	-2.8792	-3.1458	-2.7938	-2.925	-3.1688	-2.7438	-3.0396	-3.0396	-3.0375	-3.3646	-2.8625	-3.0958	-3.075	-2.7562	-41.390	106.181	219.616	179.390	55.809	-1.936	166.837	136.517	-62.010	214.286	117.519	191.713	165.998	100.691	-85.648	75.354	0.0002704	0.00058454	9.3243e-05	1345.1	4.4414e-06	7.1885e-06	1347.7	355.69	6.3692e-06	2.6734e-06	411.25	136.69	117.19	41.022	6.9582e-06	52.107	0.00036293	0.00036088	0.00010031	1318.4	3.9349e-06	3.9308e-06	1344.8	356.32	3.9411e-06	3.9286e-06	410.41	137.79	117.38	41.238	3.9418e-06	52.212	204.426	-26.025	-49.584	-109.448	23.302	80.333	-109.291	-104.771	-33.138	49.161	-105.026	-101.266	-100.364	-95.534	3.951	-96.385	-8191	255	
784.166	1	1	0	0	0.12249	0.055359	0.11791	0.27733	0.1646	0.048853	0.072957	0.085994	0.13855	0.23639	0.27841	0.076616	0.066479	0.043896	0.30261	0.31645	-2.525	-2.8708	-2.7854	-3.1437	-2.9083	-2.9104	-3.3229	-3.1042	-2.9354	-3.075	-2.825	-3.1354	-2.7812	-3.0521	-3.1083	-2.8771	39.255	50.371	156.015	195.394	-91.654	-4.129	-89.705	236.971	36.074	-68.988	-116.048	151.693	-71.258	-18.432	-67.396	183.385	0.00029682	0.00089195	0.00014509	1351	7.6356e-06	9.6903e-06	1342.3	355.37	2.8822e-06	4.3046e-06	410.27	136.29	117.05	41.082	7.0922e-06	51.93	0.00036153	0.00036045	9.9842e-05	1319.9	3.9843e-06	3.9732e-06	1346.4	356.75	4.0096e-06	4.0028e-06	409.99	137.85	117.39	41.311	4.005e-06	52.148	201.176	-3.913	-42.349	-109.238	7.702	21.953	-109.569	-104.557	17.178	86.285	-105.074	-101.460	-100.630	-95.789	-38.631	-96.430	-8191	255	
784.263	1	1	0	0	0.17879	0.12	0.13032	0.23567	0.039903	0.18163	0.23682	0.34579	0.25145	0.30249	0.11632	0.3116	0.17125	0.42822	0.22102	0.1656	-2.7708	-2.8479	-2.7854	-3.0958	-2.9229	-2.9313	-3.3396	-2.9479	-2.9896	-3.0729	-3.0771	-3.2375	-3.0583	-3.1021	-3.1958	-3.0958	23.015	-119.841	217.360	214.447	208.769	-102.187	151.319	173.666	177.907	81.674	90.076	-101.868	30.391	228.758	186.081	153.538	0.00022227	0.00072706	0.00019588	1349	2.4506e-06	1.2062e-05	1345.1	354.96	7.4308e-06	4.5877e-06	411.28	136.85	116.77	41.147	2.4338e-06	51.821	0.00036666	0.0003614	0.00010067	1320.8	3.997e-06	4.0009e-06	1346	356.16	3.9764e-06	3.9671e-06	410.02	137.98	117.58	41.279	3.9411e-06	52.101	190.239	-23.321	-72.650	-109.383	25.679	13.443	-109.350	-104.774	-33.678	60.110	-105.159	-101.262	-100.633	-95.679	-46.292	-96.470	-8191	255	
784.359	1	1	0	0	0.046955	0.10549	0.074317	0.28233	0.30076	0.053854	0.19187	0.26283	0.070255	0.049708	0.10356	0.22502	0.15605	0.17031	0.23288	0.080105	-2.5438	-2.9333	-2.9167	-3.1167	-2.9896	-2.8208	-3.3042	-3.0229	-3.1667	-3.175	-2.8792	-3.2208	-2.9	-2.7292	-3.2188	-2.8563	11.953	-57.237	146.981	134.090	-57.750	108.345	-113.982	153.745	106.588	67.091	137.391	52.018	232.451	157.967	218.278	-38.424	0.00027886	0.00083696	0.00027544	1347.6	2.5261e-06	9.2963e-06	1344	355.26	9.9377e-07	1.4235e-06	409.54	136.57	117.2	41.142	1.5232e-06	51.897	0.00036136	0.00036223	0.00010067	1319.5	3.9623e-06	3.9839e-06	1347.3	356.81	3.9875e-06	3.9838e-06	410.09	138.07	117.53	41.306	3.99e-06	52.156	203.383	12.663	-49.030	-109.340	-24.720	22.648	-109.507	-104.702	-105.574	35.457	-105.172	-101.528	-100.431	-96.036	206.182	-96.392	-8191	255	
784.455	1	1	0	0	0.073498	0.032343	0.13352	0.2466	0.40176	0.049877	0.1235	0.23981	0.40389	0.21986	0.19204	0.28404	0.24718	0.18314	0.19091	0.087556	-2.5292	-2.8771	-2.9062	-2.9542	-2.9521	-2.8229	-3.1229	-2.8792	-2.8604	-3.1146	-2.9875	-3.1396	-3.2521	-2.7938	-3.1312	-2.9313	188.248	227.613	72.611	117.350	-26.813	-91.870	144.704	192.947	137.695	203.138	73.562	187.562	159.301	-121.447	-118.016	165.313	0.00023549	0.00075378	0.00018583	1347	3.967e-06	7.042e-06	1345.3	355.29	4.9497e-06	5.2104e-06	413.08	136.98	117.24	40.955	7.0073e-06	51.935	0.00037124	0.00036486	0.00010192	1319.9	4.0211e-06	4.0299e-06	1347.7	356.63	3.9893e-06	4.0036e-06	410.46	138.08	117.46	41.303	4.0615e-06	52.101	200.071	-29.130	-46.353	-109.281	-7.064	23.369	-109.407	-104.740	-14.264	40.793	-104.980	-101.346	-100.633	-95.680	-19.120	-96.272	-8191	255	
784.551	1	1	0	0	0.16791	0.064282	0.18946	0.1097	0.15722	0.125	0.2728	0.04789	0.14682	0.19992	0.10781	0.15152	0.17314	0.1684	0.12887	0.10069	-2.3104	-3.2333	-2.65	-3.15	-3.1479	-2.8125	-3.3042	-3.1083	-2.8333	-3.2021	-2.9625	-3.1437	-3.2062	-2.7854	-3.075	-3.0979	28.940	-20.850	-8.962	221.305	148.619	146.948	-103.063	-81.899	197.800	43.224	131.073	225.974	-116.132	231.140	-103.637	106.684	0.00021496	0.00035109	0.00020094	1352.8	3.0833e-06	5.4509e-06	1344.6	354.75	5.4603e-06	4.5819e-06	411.91	136.56	117.09	40.917	5.5314e-06	51.641	0.00036539	0.00036783	0.00010235	1321.1	4.016e-06	4.0156e-06	1347.3	356.39	3.9905e-06	3.9402e-06	410.19	137.88	117.44	41.276	4.0145e-06	52.119	195.929	2.502	-41.496	-109.152	-4.668	4.120	-109.395	-104.475	-47.747	22.196	-104.992	-101.075	-100.530	-95.589	-9.871	-96.246	-8191	255	
784.647	1	1	0	0	0.053439	0.0767	0.012591	0.25853	0.2377	0.089158	0.18253	0.22952	0.12575	0.16356	0.12334	0.016546	0.16082	0.15557	0.1018	0.12034	-2.3396	-3.0187	-2.8896	-3.0417	-3.2333	-2.9042	-3.2083	-3.1271	-2.925	-3.1854	-2.9375	-3.0875	-3.0875	-2.8937	-2.9375	-2.9813	36.710	102.635	55.140	214.430	17.523	179.918	142.066	59.755	169.220	0.393	-99.305	-47.382	201.524	-63.991	180.015	-90.279	0.0002437	0.00050155	0.00017428	1360.6	3.9197e-06	1.7596e-06	1348.6	355.45	6.1337e-06	1.451e-06	410.72	137.06	117.3	41.311	3.0143e-06	51.701	0.0003701	0.00036347	0.00010191	1321.3	3.969e-06	3.9726e-06	1346.1	356.12	3.9693e-06	3.9933e-06	410.4	137.98	117.53	41.336	4.0403e-06	52.06	202.612	-20.229	-74.116	-109.236	34.936	119.963	-109.384	-104.739	-47.119	39.744	-105.200	-101.209	-100.512	-95.728	12.161	-96.413	-8191	255	
784.766	1	1	0	0	0.17905	0.13002	0.22958	0.053852	0.13531	0.060187	0.20414	0.19975	0.20072	0.20003	0.1749	0.16695	0.203	0.21331	0.15823	0.23028	-2.4188	-3.1063	-2.9375	-2.8333	-2.9917	-2.8771	-3.2521	-3.0521	-3.1146	-3.1	-3.0042	-2.9708	-3.2062	-2.9375	-2.8771	-3.1813	152.831	138.319	106.033	76.889	128.566	-77.102	215.540	176.577	138.037	181.512	219.683	-59.951	184.465	-62.482	109.417	161.249	0.00021844	0.00048643	0.00017574	1355.8	3.2512e-06	3.6485e-06	1348.6	355.46	2.4075e-06	8.7715e-06	409.13	136.87	116.57	41.036	2.1506e-06	51.866	0.00036903	0.00036636	0.00010222	1323.1	3.9476e-06	3.9777e-06	1347.1	356.34	3.96e-06	3.9957e-06	410.04	138.12	117.42	41.245	4.0147e-06	52.099	203.330	-46.448	-34.853	-108.919	131.403	76.193	-109.342	-104.605	-47.935	16.626	-105.277	-101.250	-100.658	-95.640	29.142	-96.315	-8191	255	
784.862	1	1	0	0	0.1818	0.24898	0.15828	0.25566	0.24742	0.3327	0.066029	0.14246	0.11114	0.10624	0.14901	0.21172	0.017417	0.12826	0.11157	0.14055	-2.3208	-3.1208	-2.9354	-2.7354	-2.9021	-2.7917	-3.1417	-3.2958	-2.7958	-2.9458	-3.0187	-2.5875	-3.2125	-2.9667	-3.0354	-3.2438	141.893	224.696	22.103	-91.806	76.937	88.931	45.287	94.522	107.219	74.085	215.468	-58.317	100.277	-102.078	151.758	187.343	0.00025821	5.4017e-05	0.00011425	1351.6	2.3578e-06	5.2033e-06	1345.6	356.07	4.1504e-06	6.3617e-06	410.86	136.48	117.58	41.094	4.6551e-06	52.064	0.0003654	0.00036421	0.00010199	1319.7	3.9692e-06	3.9579e-06	1346.1	356.39	3.9893e-06	3.9524e-06	410.17	137.92	117.73	41.199	3.9876e-06	52.174	204.211	-8.014	-16.892	-109.217	-33.338	23.915	-109.262	-104.774	18.371	45.770	-105.306	-101.285	-100.547	-95.421	60.633	-96.386	-8191	255	
784.958	1	1	0	0	0.094425	0.15019	0.11109	0.13948	0.10614	0.090104	0.33874	0.050393	0.19762	0.2361	0.13284	0.12015	0.096791	0.10439	0.077314	0.38225	-2.3979	-3.0646	-3.1021	-2.8271	-3.1	-2.6917	-3.2208	-3.2146	-2.6271	-3.2583	-3.0958	-2.8604	-3.3021	-2.8063	-3.1188	-3.2417	9.428	111.531	-82.977	5.872	63.375	80.681	165.224	-63.305	6.645	-29.740	100.517	107.820	-0.382	228.442	-62.943	167.580	0.0003121	0.00041072	9.0617e-05	1350.6	6.8132e-06	3.363e-06	1341.7	355.36	5.4518e-06	6.6871e-07	410.49	136.19	116.57	41.056	6.2496e-06	52.138	0.00036497	0.0003647	0.00010138	1320.9	3.9694e-06	4.0002e-06	1343.8	356.62	3.9635e-06	3.9971e-06	409.91	137.84	117.3	41.215	3.9895e-06	52.255	196.986	-11.900	-65.744	-109.189	-1.579	-18.357	-109.427	-104.679	-63.927	50.790	-105.131	-101.224	-100.654	-95.837	-3.797	-96.269	-8191	255	
785.030	1	1	0	0	0.057441	0.11156	0.25046	0.29081	0.083989	0.11675	0.15427	0.20997	0.25335	0.34823	0.20238	0.10783	0.023534	0.12668	0.19013	0.022174	-2.25	-2.8729	-3.1333	-2.8146	-3.2646	-2.9958	-3.0083	-3.225	-2.8854	-2.8104	-3.1021	-3.0208	-3.1896	-3.0938	-2.9042	-3.3792	65.364	-42.500	139.204	142.353	31.934	92.057	132.698	153.261	234.143	-34.538	157.183	-120.104	170.892	157.595	98.071	-40.769	0.00025646	0.00036144	0.00018476	1351.5	1.5809e-06	1.68e-06	1345	354.99	4.8709e-06	2.6951e-06	409.2	136.11	116.88	41.061	1.8427e-06	52.111	0.00036652	0.00036587	0.00010066	1318.8	3.9249e-06	3.9326e-06	1344	356.26	3.9883e-06	3.9656e-06	409.44	137.99	117.59	41.247	4.0698e-06	52.101	201.050	-53.100	-46.934	-109.045	57.141	32.968	-109.278	-104.865	-11.395	-36.505	-105.254	-101.004	-100.799	-95.777	-7.485	-96.207	-8191	255	
785.151	1	1	0	0	0.21598	0.12875	0.17013	0.27434	0.12932	0.22739	0.10227	0.2424	0.10828	0.3674	0.21123	0.27334	0.068496	0.077658	0.093803	0.16511	-2.4458	-2.9792	-3.1771	-2.8833	-2.9313	-2.9125	-2.7771	-3.3854	-2.8125	-2.7167	-3.1312	-3.0125	-3.0146	-3.1104	-2.6875	-3.2875	99.080	160.542	41.872	-69.216	-51.861	-58.572	199.401	192.365	136.789	-29.188	196.109	145.370	-98.356	135.800	19.566	123.112	0.00029839	0.00067526	0.00011089	1352.2	2.4606e-06	3.2028e-06	1346.9	355.56	1.7109e-06	6.2279e-06	409.76	136.77	117.05	41.094	2.9995e-06	51.871	0.00036974	0.0003674	0.00010194	1320.8	4.026e-06	4.0258e-06	1348.2	356.61	4.0312e-06	3.9822e-06	409.4	137.9	117.59	41.257	4.0143e-06	52.12	201.850	-8.366	-67.069	-109.183	-2.732	57.778	-109.375	-104.507	78.572	21.717	-104.929	-101.327	-100.432	-95.635	54.063	-96.432	-8191	255	
785.247	1	1	0	0	0.13723	0.14309	0.1315	0.31017	0.23122	0.034061	0.16258	0.23993	0.18269	0.23158	0.31505	0.41088	0.049318	0.11943	0.13738	0.25792	-2.4104	-2.6896	-3.0917	-2.8729	-2.9062	-3.0292	-2.8812	-3.2083	-2.9646	-3.0604	-3.3167	-2.9	-3.1167	-3.0042	-2.7521	-3.0708	75.405	186.287	226.008	140.445	89.254	182.350	171.604	167.107	-30.854	229.485	212.372	231.969	67.729	57.118	-3.810	196.108	0.00028766	0.00062796	0.00011019	1347.8	1.4983e-06	6.1232e-06	1347.2	355.59	4.3759e-06	1.0978e-06	412.72	136.54	117.37	41.173	7.8716e-06	52.064	0.00036994	0.00036565	0.00010134	1320.4	4.0181e-06	4.0419e-06	1347.3	356.65	4.0079e-06	4.0144e-06	410.35	137.71	117.59	41.231	4.0334e-06	52.164	197.016	-39.760	-81.012	-109.054	229.254	33.892	-109.324	-104.643	16.826	234.009	-105.150	-101.181	-100.743	-95.410	14.016	-96.197	-8191	255	
785.343	1	1	0	0	0.11594	0.30427	0.083781	0.094726	0.31531	0.076857	0.20964	0.34095	0.20788	0.15876	0.15133	0.067669	0.088886	0.39741	0.12993	0.22845	-2.4562	-2.8625	-3.0979	-2.8167	-2.8917	-3.0604	-2.8563	-3.25	-2.925	-2.9354	-3.25	-2.9917	-3.0604	-3.1562	-2.7938	-3.225	55.848	-122.192	-35.173	209.075	108.342	-100.631	159.441	219.194	-22.411	2.965	228.699	224.431	235.159	-120.220	36.987	168.045	0.0002691	0.00034289	3.744e-05	1346.9	3.2799e-06	1.7269e-06	1346.7	355.04	6.621e-06	4.6453e-06	412.24	136.81	117.23	40.812	5.3468e-06	51.78	0.00036921	0.00036745	0.00010117	1319.4	3.9981e-06	3.9822e-06	1347.6	356.47	4.0071e-06	3.9699e-06	410.42	137.95	117.72	41.2	3.9857e-06	52.114	182.897	16.630	227.598	-109.228	-54.735	47.031	-109.368	-104.824	-69.337	5.550	-105.250	-101.100	-100.219	-95.421	13.048	-96.391	-8191	255	
785.439	1	1	0	0	0.24822	0.20419	0.13086	0.17049	0.27297	0.27406	0.19493	0.5097	0.2499	0.22549	0.21274	0.23992	0.050608	0.17748	0.22658	0.23331	-2.4188	-2.7958	-2.9542	-2.8229	-2.8021	-2.8646	-2.7438	-3.0417	-3.05	-2.7708	-3.0167	-2.9604	-2.9417	-3.1958	-2.8979	-3.2542	-8.923	31.274	-86.170	-77.835	120.768	-114.266	146.625	177.674	129.860	159.899	154.437	-42.574	-112.545	185.484	-40.652	209.382	0.00027035	0.00038878	8.8446e-05	1354.1	3.1461e-06	4.8235e-06	1338.4	354.62	5.3998e-06	7.105e-06	410.58	136.56	116.82	41.073	5.5706e-06	51.887	0.00036581	0.00036193	0.00010109	1318.3	3.9771e-06	3.9046e-06	1342.2	355.95	3.9755e-06	3.9128e-06	409.68	137.57	117.36	41.25	3.9794e-06	52.039	200.037	13.596	-10.227	-109.404	-32.331	14.810	-109.441	-104.556	-55.258	29.553	-105.390	-101.085	-100.495	-95.674	19.567	-96.426	-8191	255	
785.558	1	1	0	0	0.088643	0.097852	0.37524	0.22157	0.057897	0.18363	0.14449	0.25116	0.16378	0.13341	0.34002	0.065237	0.030858	0.25598	0.21404	0.14318	-2.6521	-2.6562	-3.1937	-2.7479	-2.8896	-3.3542	-2.9021	-3.1333	-3	-2.8396	-3.0563	-2.9	-2.9292	-3.0292	-2.8563	-3.0583	-119.829	130.791	-50.598	97.285	162.985	-56.959	125.143	125.344	173.750	186.152	221.273	8.566	-19.955	206.280	-15.932	-79.328	0.0002705	0.00070972	0.00015875	1350.7	2.8376e-06	2.4973e-06	1348.2	354.72	4.4907e-06	2.9385e-06	410.49	136.37	116.8	41.192	2.5026e-06	51.832	0.00036313	0.00035975	0.00010045	1318.1	3.9412e-06	3.9078e-06	1344.8	356.24	3.9237e-06	3.9193e-06	409.58	137.54	117.16	41.222	3.9231e-06	52.056	196.955	1.641	-42.390	-109.510	157.949	12.800	-109.386	-104.733	-44.491	73.097	-105.009	-101.313	-100.390	-95.759	-30.677	-96.191	-8191	255	
785.631	1	1	0	0	0.15579	0.30868	0.092456	0.046705	0.27651	0.16165	0.09373	0.37009	0.067033	0.36599	0.19924	0.32673	0.19723	0.22641	0.15272	0.22276	-2.7521	-2.6958	-2.9125	-2.8812	-2.7458	-3.1292	-3.0646	-3.1292	-2.9833	-2.7167	-3.1646	-2.8563	-2.8438	-3.375	-2.8042	-2.9792	131.285	-42.983	67.429	174.941	7.235	-56.121	179.569	-119.905	207.730	-80.594	126.582	113.037	13.032	-81.147	114.212	218.379	0.00030052	0.00036329	0.00016789	1349.5	6.071e-07	6.1699e-07	1345.5	354.33	2.6889e-06	5.446e-06	410.38	136.76	116.73	41.198	5.7522e-07	51.764	0.00036214	0.00035642	9.934e-05	1318.3	3.8717e-06	3.8976e-06	1343.7	356.01	3.8866e-06	3.9535e-06	409.17	137.78	117.42	41.25	3.9253e-06	51.99	200.994	27.000	-84.845	-109.184	25.498	52.363	-109.376	-104.550	23.318	-8.195	-105.165	-101.091	-100.463	-95.490	-44.228	-96.409	-8191	255	
785.750	1	1	0	0	0.107	0.056553	0.18849	0.18637	0.14107	0.050888	0.15138	0.32774	0.16185	0.23516	0.17055	0.16132	0.33494	0.17813	0.13483	0.12106	-2.7042	-2.8292	-2.7958	-3.0229	-2.7687	-3.0979	-3.0583	-2.9562	-2.8854	-2.7708	-3.1354	-2.9938	-2.9688	-3.2458	-2.8646	-2.8958	-64.023	171.870	3.515	144.567	186.870	-118.724	147.689	209.941	-113.288	142.586	193.385	121.309	-119.518	-84.084	-58.431	-6.163	0.00024716	0.00020973	8.0128e-05	1349.1	2.1515e-06	2.693e-06	1345.9	353.83	2.1853e-06	4.1348e-06	409.54	136.56	117.33	40.891	5.0961e-06	51.87	0.00035941	0.00035691	0.00010091	1317.1	3.9684e-06	3.9503e-06	1344.1	355.81	3.9015e-06	3.9224e-06	408.9	137.42	117.52	41.152	3.9521e-06	52.126	201.766	-29.279	-67.354	-109.075	18.312	22.065	-109.436	-104.514	-16.292	-13.995	-105.046	-100.989	-100.510	-95.797	12.970	-96.560	-8191	255	
785.846	1	1	0	0	0.10444	0.056511	0.092474	0.13039	0.058482	0.19318	0.25217	0.026723	0.10355	0.093787	0.32938	0.15042	0.093434	0.25857	0.10962	0.2194	-2.55	-2.7625	-2.85	-3.0708	-2.9021	-3.1562	-3.1	-2.9396	-3.2	-2.7646	-3.0917	-3.075	-2.8812	-3.075	-2.9729	-2.8271	56.981	5.290	-101.616	2.836	51.295	232.399	197.842	229.406	142.763	70.848	203.721	221.777	-30.090	162.949	174.251	222.836	0.00025997	0.00071514	0.0002763	1341	2.115e-06	5.7086e-06	1343.4	354.39	2.2606e-06	3.587e-06	409.21	136.64	117.09	40.991	3.0541e-06	51.833	0.00035922	0.0003604	0.00010016	1316.9	3.9493e-06	3.8881e-06	1343.3	355.85	3.9253e-06	3.9141e-06	408.72	137.55	117.27	41.215	3.9393e-06	52.06	206.021	-20.528	-14.654	-109.582	-4.217	66.975	-109.390	-104.737	120.450	-6.122	-104.944	-101.172	-100.796	-95.833	138.988	-96.318	-8191	255	
785.943	1	1	0	0	0.13519	0.11106	0.10121	0.087606	0.25785	0.11408	0.17025	0.20485	0.15088	0.15128	0.11177	0.17031	0.039427	0.039456	0.19268	0.091123	-2.5979	-2.8875	-2.9625	-2.9062	-2.7687	-3.0854	-2.9062	-2.8083	-3.1625	-2.6771	-3.0292	-3.2292	-2.7646	-3.0625	-3.0521	-2.6562	87.586	-59.088	-43.714	-60.008	-41.720	205.579	152.095	164.903	120.455	130.004	87.919	169.835	211.642	-113.384	-76.730	169.630	0.00030644	0.0007367	7.7561e-05	1345.4	4.9761e-06	3.5959e-06	1344.9	354.53	2.009e-06	2.4623e-06	410.78	136.88	116.83	40.995	5.0253e-06	51.993	0.0003604	0.00035842	9.9495e-05	1315	3.8796e-06	3.8559e-06	1342.7	356.09	3.909e-06	3.9068e-06	409.18	137.7	117.12	41.159	3.974e-06	52.037	196.291	-32.732	-94.563	-109.501	39.065	15.955	-109.451	-104.721	-25.398	80.365	-104.937	-101.163	-100.485	-95.560	25.763	-96.515	-8191	255	
786.039	1	1	0	0	0.15496	0.16809	0.19498	0.11098	0.21362	0.20541	0.16492	0.051338	0.014536	0.16045	0.21624	0.16886	0.072597	0.10056	0.049306	0.39559	-2.6708	-2.8146	-2.7229	-3.1146	-2.7625	-2.9833	-3.1667	-2.8563	-3.2708	-2.8458	-3.0333	-3.2333	-2.8375	-3.1	-2.9562	-2.9021	164.159	114.864	176.062	230.825	37.381	-14.100	135.222	124.243	62.838	171.690	187.517	168.860	226.452	230.409	-83.597	206.707	0.00028065	0.00052148	0.0001381	1348.6	2.1138e-06	4.5976e-06	1341.2	354.21	3.4989e-06	5.4604e-06	409.07	136.83	116.43	41.246	3.517e-06	51.949	0.0003614	0.00035791	9.9295e-05	1319.2	3.9637e-06	3.9465e-06	1341.1	355.52	3.892e-06	3.8988e-06	408.85	137.56	117.08	41.21	3.9516e-06	52.033	203.611	-55.022	-70.776	-109.276	38.386	-79.339	-109.394	-104.728	-58.149	43.116	-105.129	-101.332	-100.588	-95.715	68.125	-96.383	-8191	255	
786.159	1	1	0	0	0.2459	0.07369	0.10021	0.11362	0.27089	0.23183	0.11575	0.08867	0.14647	0.064743	0.15332	0.24262	0.34634	0.14971	0.1773	0.052422	-2.6188	-2.7667	-2.7771	-3.2021	-3.025	-2.9854	-3.1125	-2.8854	-2.875	-2.9792	-3.0396	-3.2438	-2.7188	-3.2667	-3.0396	-2.8979	-74.729	-73.875	225.876	178.263	65.848	-81.032	183.381	148.037	-19.342	90.744	2.367	217.606	197.286	-7.154	174.330	-116.875	0.00030105	0.00091299	0.00022878	1346.5	3.6776e-06	6.1278e-06	1335.8	354.99	5.1611e-06	3.4955e-06	411.86	136.79	116.77	41.082	3.0752e-06	51.91	0.00036142	0.00036294	0.00010051	1317.8	3.9522e-06	3.9527e-06	1341.9	355.93	3.9106e-06	3.9055e-06	409.26	137.78	117.15	41.159	3.9353e-06	51.969	193.038	-36.959	-35.981	-109.330	62.062	-21.930	-109.336	-104.822	-51.763	104.541	-105.198	-101.261	-100.535	-95.571	-26.652	-96.097	-8191	255	
786.255	1	1	0	0	0.23477	0.19098	0.057136	0.14232	0.21155	0.38697	0.071179	0.088854	0.025403	0.18812	0.274	0.12118	0.1316	0.29867	0.12451	0.37532	-2.5729	-2.7604	-2.6958	-3.0729	-2.6792	-3.025	-3.1312	-3.0375	-3.1333	-2.9604	-2.925	-3.2354	-2.8688	-2.9167	-3.1792	-2.925	-119.804	-110.438	17.564	69.476	90.731	-78.583	67.759	235.174	-9.364	-10.784	210.550	-5.854	-82.817	-64.422	27.183	-90.209	0.00023617	0.0011107	7.2536e-05	1346.4	3.3247e-06	3.3648e-06	1340.7	354.08	2.4285e-06	2.6571e-06	410.03	136.68	116.48	40.766	3.9188e-06	52.016	0.00036195	0.00036146	0.00010009	1317.1	3.9297e-06	3.9145e-06	1342.4	355.29	3.9239e-06	3.9182e-06	409.1	137.64	116.89	41.103	3.8887e-06	52.079	201.135	-7.692	-0.578	-109.220	23.389	-24.386	-109.429	-104.671	-116.289	85.397	-105.421	-101.219	-100.319	-95.595	17.537	-96.580	-8191	255	
786.327	1	1	0	0	0.14233	0.15021	0.10949	0.11129	0.10681	0.12539	0.22073	0.32538	0.12014	0.11674	0.16955	0.084726	0.21279	0.18442	0.21786	0.16115	-2.6542	-2.9646	-2.7583	-3.1083	-3	-2.9188	-3.325	-3.0167	-3.1271	-2.8479	-2.8604	-3.0604	-3.1688	-2.8688	-3.0312	-2.9167	200.235	-3.331	-115.805	231.929	-72.434	50.551	185.626	197.881	73.132	-43.745	174.357	176.667	184.244	198.863	-68.779	87.319	0.00028285	0.00033442	8.3482e-05	1352.9	1.6872e-06	5.7478e-06	1341	353.35	4.3443e-06	3.4108e-06	409.8	136.81	116.91	40.918	1.9759e-06	51.861	0.00036152	0.00035702	0.00010051	1316.4	3.8961e-06	3.9137e-06	1342.5	354.98	3.9217e-06	3.8905e-06	408.26	137.46	117.22	41.161	3.9526e-06	52.051	199.756	-4.544	-49.705	-109.116	-14.341	34.950	-109.282	-104.638	-0.042	17.525	-105.194	-101.232	-100.710	-95.651	13.014	-96.378	-8191	255	
786.448	1	1	0	0	0.22932	0.062266	0.25698	0.31418	0.08461	0.12016	0.15454	0.070557	0.026689	0.14606	0.063541	0.12093	0.1479	0.20512	0.18216	0.080022	-2.5542	-3.1104	-2.8042	-3.1521	-2.9875	-2.8875	-3.3	-2.9604	-2.9396	-3.0021	-2.9958	-2.9646	-2.9583	-3.0625	-3.0875	-3.0229	-76.589	-100.275	25.828	176.777	-63.980	157.886	235.967	195.507	106.717	26.803	-79.426	193.544	218.027	-121.514	222.126	-69.420	0.00028784	0.00014044	0.00012834	1349.1	3.7376e-06	5.667e-06	1342.2	353.2	6.7605e-06	1.4093e-06	411.05	137.09	116.46	40.988	4.1763e-06	51.726	0.000358	0.00035821	9.9911e-05	1316.9	3.8805e-06	3.8736e-06	1340.6	354.96	3.9169e-06	3.9264e-06	409.4	137.58	117.01	41.115	3.9921e-06	51.956	190.299	164.428	-44.807	-109.251	-14.688	6.270	-109.480	-104.845	41.627	56.882	-105.235	-101.062	-100.733	-95.597	7.713	-96.138	-8191	255	
786.544	1	1	0	0	0.23117	0.1581	0.094315	0.058527	0.11525	0.14551	0.078404	0.20684	0.13202	0.15555	0.070547	0.12909	0.023703	0.15289	0.054571	0.1923	-2.475	-3.2021	-2.5792	-3.1562	-3.0042	-2.8688	-3.2375	-2.9771	-2.8417	-3.2687	-2.8708	-3.1521	-3.1	-3.0104	-3.0687	-2.8125	-107.511	46.353	66.651	-11.396	227.284	-34.263	213.781	227.225	98.029	124.419	51.701	218.016	124.896	-94.500	-43.324	227.628	0.00033523	0.0010086	0.00015508	1344.9	3.7463e-06	6.9651e-06	1336.1	353.8	3.4139e-06	4.6982e-06	409.99	136.75	116.64	40.882	2.056e-06	51.651	0.00036329	0.00036002	9.9044e-05	1313.3	3.8977e-06	3.8967e-06	1339.4	355.32	3.9273e-06	3.9234e-06	408.45	137.73	116.93	41.091	3.9568e-06	51.945	208.635	6.338	-11.597	-109.466	7.962	-47.104	-109.386	-104.786	27.078	55.529	-105.276	-101.473	-100.688	-95.626	83.576	-96.503	-8191	255	
786.638	1	1	0	0	0.22608	0.15732	0.1493	0.12761	0.16166	0.12221	0.30549	0.2607	0.16744	0.3127	0.094829	0.38146	0.11283	0.052484	0.19603	0.13095	-2.3271	-3.0833	-2.8854	-3.0646	-3.0146	-2.6792	-3.2417	-2.9333	-2.8104	-3.1021	-2.9604	-3.2271	-3.0583	-2.9938	-3.0292	-2.9917	66.679	95.149	-78.163	-109.120	13.217	43.082	171.877	195.776	-94.471	55.509	104.073	-116.854	175.345	51.423	-32.438	151.708	0.0002801	0.00045196	7.5399e-05	1339.5	3.7189e-06	1.1052e-05	1336.9	354.11	6.2387e-06	7.9879e-06	408.89	136.64	116.4	41.03	2.4429e-06	51.726	0.00035725	0.00035484	9.9088e-05	1314	3.8757e-06	3.8772e-06	1339.8	355.03	3.9084e-06	3.9186e-06	408.03	137.46	117.05	41.133	3.9265e-06	51.945	206.434	-64.517	-35.968	-109.219	-8.061	57.346	-109.297	-104.867	-32.646	16.968	-104.980	-101.137	-100.743	-95.523	-18.130	-96.255	-8191	255	
786.734	1	1	0	0	0.10009	0.161	0.17288	0.13668	0.18325	0.1177	0.18567	0.18765	0.19587	0.073927	0.39902	0.036342	0.26652	0.18289	0.079379	0.1735	-2.3771	-3.0396	-2.725	-2.8479	-3.1542	-2.8063	-3.1625	-3.0396	-2.6437	-3.0854	-2.9208	-3.1188	-3.0583	-2.8125	-2.9354	-3.1417	55.056	179.453	143.503	208.930	-59.152	204.090	180.483	108.524	100.816	107.125	154.869	147.115	207.939	-65.802	55.176	155.343	0.00028802	0.00065838	0.00013842	1334.8	1.6974e-06	5.1073e-06	1342.4	354.34	6.2069e-06	1.928e-06	410.54	136.34	116.66	41.211	2.7917e-06	51.781	0.00035812	0.00035472	9.9034e-05	1313.2	3.9013e-06	3.9112e-06	1342.8	355.93	3.987e-06	3.9336e-06	409.33	137.47	117.12	41.199	3.9321e-06	51.978	198.710	-13.739	-12.250	-109.207	96.317	-17.936	-109.365	-104.696	-5.079	22.389	-105.240	-101.078	-100.606	-95.814	54.603	-96.504	-8191	255	
786.832	1	1	0	0	0.17041	0.13466	0.039687	0.25789	0.059548	0.11499	0.11729	0.17749	0.15612	0.25154	0.13182	0.22691	0.060514	0.14071	0.086477	0.016933	-2.1167	-3.0896	-2.8792	-2.7625	-3.0729	-2.7687	-3.2021	-3.1042	-2.6958	-2.9875	-3.0479	-2.9354	-3.1667	-2.8521	-3.0979	-3.1875	11.283	125.500	112.893	193.692	227.757	-75.003	178.044	167.669	-8.338	118.923	151.314	174.314	94.098	-45.393	-90.165	59.230	0.00026491	0.00045041	6.6899e-05	1347.3	6.1998e-06	9.2635e-06	1340.8	354.44	3.9735e-06	2.1067e-06	410.33	136.65	116.28	41.14	4.7657e-06	51.805	0.00036193	0.00035812	9.9909e-05	1315.2	3.952e-06	3.904e-06	1341.9	355.51	3.9362e-06	3.9444e-06	408.8	137.41	116.86	41.194	3.9058e-06	51.995	197.825	21.091	-109.381	-109.121	24.688	49.519	-109.451	-104.626	-9.454	74.679	-105.212	-101.297	-100.653	-95.776	113.643	-96.302	-8191	255	
786.927	1	1	0	0	0.11731	0.073886	0.22759	0.085303	0.07669	0.1145	0.3288	0.13343	0.067379	0.10641	0.25116	0.095525	0.21732	0.07901	0.09935	0.10907	-2.3563	-2.9958	-2.8167	-2.9062	-3.0729	-2.7167	-3.1813	-3.3146	-2.8688	-3.3063	-3.0479	-2.7792	-3.2271	-2.8771	-2.8583	-3.3021	141.731	-0.159	58.004	-119.520	-59.583	65.897	177.731	-99.778	209.662	215.183	235.110	144.203	231.632	171.391	-35.767	157.638	0.00022672	0.00035224	0.00018627	1341	5.0376e-06	3.8586e-06	1340.6	354.57	3.4318e-06	3.9437e-06	410.5	136.48	116.75	41.001	9.2178e-07	51.871	0.00035986	0.00035661	9.9462e-05	1313.2	3.9279e-06	3.9587e-06	1340.9	355.54	3.9634e-06	3.9377e-06	408.71	137.6	117.15	41.159	3.9499e-06	51.943	201.526	-65.814	-55.342	-109.454	0.540	0.951	-109.563	-104.763	-25.448	92.251	-105.248	-101.367	-100.667	-95.449	196.971	-96.209	-8191	255	
787.023	1	1	0	0	0.23111	0.10746	0.026977	0.1243	0.13843	0.067403	0.14672	0.13731	0.21282	0.037293	0.29499	0.10659	0.15413	0.2057	0.05756	0.089739	-2.5708	-3.0292	-2.9688	-2.9604	-3.1375	-2.9292	-3.0062	-3.2313	-2.7708	-3.2354	-3.1208	-2.95	-3.3146	-2.9708	-2.7875	-3.1333	181.428	237.274	177.627	124.500	149.852	112.830	136.621	175.159	235.053	72.469	177.917	-63.944	-55.012	232.334	186.177	-93.639	0.00028758	0.00038419	5.6321e-05	1335.9	3.9908e-06	5.3205e-06	1342.5	352.77	3.1191e-06	2.3045e-06	410.52	136.24	116.43	40.77	4.9932e-06	51.73	0.00035949	0.00035416	9.8891e-05	1312.7	3.905e-06	3.9224e-06	1341.5	354.64	3.9505e-06	3.9074e-06	408.96	137.46	116.78	41.063	3.8953e-06	51.865	201.202	-8.788	15.716	-109.066	-13.035	60.497	-109.325	-104.672	-73.213	16.510	-105.013	-101.142	-100.595	-95.820	26.770	-96.302	-8191	255	
787.119	1	1	0	0	0.28795	0.12835	0.096012	0.10356	0.10798	0.083867	0.15825	0.18279	0.013701	0.07167	0.082355	0.17522	0.058316	0.30059	0.12264	0.21549	-2.3438	-3.0125	-2.8792	-2.7833	-3.1396	-2.8229	-3.1813	-3.425	-2.6813	-2.9562	-3.1958	-2.9083	-3.1521	-3.0687	-2.7583	-3.2292	229.238	-107.164	27.949	143.923	108.139	99.315	139.391	157.100	-53.608	227.185	233.382	153.424	-104.372	157.241	-70.613	170.238	0.0002331	0.00051914	9.3426e-05	1339.3	2.7757e-06	9.2961e-07	1337.7	353.53	5.2609e-06	4.272e-06	409.97	136.66	116.62	40.973	4.5026e-06	51.816	0.0003568	0.00035482	9.9188e-05	1313.3	3.8923e-06	3.9131e-06	1340.8	355.06	3.9097e-06	3.9135e-06	408.85	137.5	117	41.125	3.9064e-06	51.935	199.741	-1.134	-21.866	-109.185	-1.479	44.174	-109.468	-104.740	-61.577	39.051	-105.053	-101.077	-100.589	-95.771	-0.370	-96.299	-8191	255	
787.240	1	1	0	0	0.15083	0.10429	0.23301	0.21709	0.3284	0.057388	0.24328	0.44174	0.073078	0.089825	0.13092	0.17267	0.071531	0.19281	0.18252	0.12192	-2.425	-3.0292	-2.9708	-2.8187	-3.2562	-3.0083	-3.0625	-3.3542	-2.7583	-2.9354	-3.1646	-2.7875	-3.0958	-2.9708	-2.9625	-3.2417	103.451	183.545	132.677	135.579	195.904	89.068	-121.364	176.725	-92.628	231.870	-66.602	191.787	112.730	223.839	-41.819	-101.309	0.00028241	0.00027007	0.00024383	1348.1	1.8072e-06	2.5375e-06	1338.8	353.21	4.0015e-06	5.639e-06	409.13	136.56	117.1	40.873	6.2084e-06	51.549	0.00035536	0.00035343	9.9419e-05	1313.5	3.9052e-06	3.8892e-06	1340.7	354.74	3.9041e-06	3.8576e-06	408.28	137.68	116.95	41.062	3.9044e-06	51.868	195.455	-48.020	-19.681	-108.981	2.992	-15.436	-109.459	-104.701	-39.743	115.513	-105.198	-101.226	-100.603	-95.659	11.207	-96.153	-8191	255	
787.336	1	1	0	0	0.060322	0.12407	0.25304	0.23758	0.25417	0.12971	0.38484	0.086276	0.36654	0.04504	0.17703	0.071146	0.096552	0.1871	0.249	0.2912	-2.4604	-2.7917	-3.0687	-2.9958	-3.0062	-2.9875	-2.8333	-3.1417	-2.7604	-3.1271	-3.2146	-2.8167	-3.0354	-3.2208	-2.8187	-3.175	107.186	1.840	203.112	-117.786	189.478	100.141	208.933	190.041	-47.833	204.414	156.896	115.658	199.625	202.179	7.507	-0.385	0.00029666	0.00023526	0.00011507	1348.8	3.826e-06	2.6698e-06	1338.9	354.56	3.3552e-06	2.1542e-06	410.48	136.53	116.94	41.115	5.2132e-06	51.893	0.0003591	0.00035768	9.9178e-05	1313	3.8701e-06	3.8714e-06	1340.9	355.4	3.8802e-06	3.8995e-06	408.86	137.38	117.08	41.162	3.911e-06	52.007	197.908	-87.329	-32.896	-109.116	10.608	87.830	-109.491	-104.645	-41.033	79.719	-105.072	-101.397	-100.431	-95.499	-1.361	-96.489	-8191	255	
787.432	1	1	0	0	0.053631	0.11931	0.11396	0.17867	0.16145	0.058698	0.20509	0.33018	0.24449	0.070447	0.14945	0.24427	0.081927	0.22767	0.12026	0.064059	-2.3958	-2.8208	-3.2792	-2.8458	-3.0979	-2.9938	-2.925	-3.1979	-3.0125	-2.8187	-3.3917	-3.0333	-2.9708	-3.2667	-2.7667	-3.175	124.156	6.225	112.975	27.303	-18.105	-85.687	159.411	211.249	-29.450	9.179	186.050	62.381	-16.128	199.730	110.126	-119.264	0.00026464	0.00055101	0.00012025	1345.9	3.66e-06	1.0964e-05	1341.2	353.24	4.5877e-06	2.2866e-06	410.61	135.36	117.07	41.089	5.8233e-06	51.905	0.00035895	0.00035506	9.8985e-05	1315.2	3.8999e-06	3.9037e-06	1341.3	354.88	3.9214e-06	3.8765e-06	408.34	137.18	117.21	41.048	3.876e-06	51.991	196.822	0.679	-49.124	-109.255	-6.833	15.490	-109.538	-104.749	-61.822	96.700	-105.103	-101.097	-100.446	-95.674	-47.022	-96.421	-8191	255	
787.553	1	1	0	0	0.10969	0.099286	0.19585	0.27004	0.26641	0.27887	0.33505	0.33227	0.27401	0.2626	0.14938	0.14116	0.099644	0.08578	0.1397	0.1355	-2.3958	-2.9396	-2.9375	-2.9167	-2.9104	-2.8667	-2.975	-3.0333	-2.8396	-2.8583	-3.1625	-3.025	-2.8688	-3.1937	-2.8458	-3.0792	-39.008	45.048	-48.538	165.286	-21.397	199.592	217.091	210.539	163.151	220.073	-116.495	160.695	125.269	225.547	120.056	105.782	0.00024066	0.00051524	0.00011701	1345.6	1.6861e-06	3.2857e-06	1345.6	352.78	7.0644e-07	7.8602e-06	409.36	136.23	117.05	41.091	5.8639e-06	51.588	0.00035797	0.00035396	9.8942e-05	1312	3.8911e-06	3.8568e-06	1341.6	354.85	3.841e-06	3.8546e-06	407.86	137.37	116.87	41.175	3.9022e-06	51.877	211.595	-8.779	-42.321	-109.051	32.916	109.049	-109.401	-104.780	216.643	51.036	-105.097	-101.362	-100.760	-95.573	78.303	-96.292	-8191	255	
787.624	1	1	0	0	0.18746	0.04848	0.20721	0.14714	0.40503	0.083533	0.11597	0.16172	0.15209	0.20657	0.34723	0.29609	0.067907	0.19709	0.15107	0.20019	-2.4979	-2.5792	-3.1708	-2.8083	-2.8458	-3.2396	-3.1813	-3.0354	-3.1083	-2.7042	-3.3063	-3.1604	-2.9479	-3.2188	-2.8396	-3.1104	79.996	25.835	-114.787	-60.112	185.149	24.878	135.350	156.262	185.715	15.159	205.957	217.576	173.155	-72.501	-15.746	165.243	0.00028153	0.0001559	0.00011406	1339.2	4.6563e-06	6.6551e-06	1337	353.85	1.0715e-06	5.4175e-06	409.71	136.52	116.77	40.972	7.0909e-06	51.915	0.00035346	0.00035342	9.8286e-05	1314.5	3.9102e-06	3.859e-06	1339.5	355.16	3.8965e-06	3.8887e-06	408.05	137.4	117.04	41.081	3.8481e-06	51.932	195.850	104.377	-33.613	-109.078	-20.328	11.197	-109.464	-104.676	-40.184	8.629	-105.026	-101.021	-100.494	-95.709	-16.334	-96.337	-8191	255	
787.720	1	1	0	0	0.35627	0.11018	0.13566	0.13594	0.21542	0.18306	0.0058299	0.4556	0.10206	0.17378	0.47845	0.084449	0.2177	0.1756	0.10764	0.27766	-2.5438	-2.7896	-2.9833	-3.0104	-2.9396	-3.0771	-3.0292	-3.1188	-2.9875	-2.8875	-3.2708	-2.9875	-2.7917	-3.2687	-2.7833	-2.9938	183.808	117.465	173.964	44.195	42.074	109.439	88.124	193.574	212.095	-107.375	140.606	174.918	164.339	188.293	30.723	214.491	0.00032256	0.00045768	0.00012698	1342.6	1.8136e-06	5.0577e-06	1337.6	354.91	3.1701e-06	6.0374e-06	409.99	136.36	117.18	40.916	2.881e-06	51.98	0.00035224	0.00034734	9.7163e-05	1311.7	3.8212e-06	3.7976e-06	1339.9	355.18	3.8579e-06	3.8609e-06	407.91	137.31	116.9	41.078	3.8097e-06	51.991	200.704	-55.302	-55.381	-108.988	56.988	81.073	-109.501	-104.716	-43.114	43.200	-105.215	-101.047	-100.636	-95.652	15.675	-96.031	-8191	255	
787.839	1	1	0	0	0.18361	0.17174	0.14501	0.1921	0.25061	0.084721	0.34732	0.20233	0.1114	0.13572	0.097963	0.078538	0.19328	0.27461	0.04909	0.074757	-2.6958	-2.6729	-2.7458	-3.0417	-2.6813	-2.9917	-3.0083	-2.9875	-3.0771	-3.0542	-3.1833	-3.1292	-2.7729	-3.2604	-2.7562	-2.9792	221.060	56.874	183.582	213.047	209.508	-103.272	182.686	172.015	-8.247	-4.767	8.483	55.928	-87.014	223.821	-116.697	174.995	0.00023425	0.00025857	0.00011054	1339.2	4.6506e-06	5.3493e-06	1339.7	354.58	4.7179e-06	3.1026e-06	410.61	135.73	116.23	40.908	2.4213e-06	52.034	0.00035076	0.00035031	9.6879e-05	1311.3	3.8028e-06	3.7622e-06	1340.7	354.82	3.8159e-06	3.8332e-06	408.2	137.22	116.61	41.081	3.8287e-06	51.958	196.472	22.307	-49.861	-109.387	29.753	-23.938	-109.354	-104.602	18.299	2.097	-105.029	-101.229	-100.458	-95.888	-73.845	-96.261	-8191	255	
787.935	1	1	0	0	0.12655	0.11241	0.095714	0.21201	0.27423	0.083854	0.29665	0.33751	0.09033	0.037485	0.03845	0.074753	0.1972	0.20261	0.26707	0.15456	-2.7417	-2.8979	-3.0125	-3.0729	-2.9979	-3.1312	-2.9542	-3.1708	-3.1021	-2.8333	-3.2542	-3.1042	-2.9208	-3.2167	-2.8729	-2.9854	80.978	-55.784	-57.918	-107.340	76.909	-31.410	134.080	196.545	52.588	41.450	65.349	-117.639	218.897	-118.291	-98.026	199.882	0.00020321	0.00019634	0.00015481	1341.4	4.7415e-06	5.2615e-06	1336.6	353.41	4.7449e-06	1.0108e-06	409.34	135.9	116.67	40.875	3.5911e-06	51.684	0.000351	0.00034536	9.6758e-05	1310.1	3.8165e-06	3.7977e-06	1337.8	354.95	3.781e-06	3.7633e-06	407.79	137.28	116.87	41.051	3.8449e-06	51.894	203.357	-64.184	-28.885	-108.984	5.382	84.350	-109.572	-104.510	-45.245	110.937	-105.112	-101.158	-100.595	-95.745	14.381	-96.449	-8191	255	
788.032	1	1	0	0	0.26608	0.087739	0.12187	0.084993	0.2004	0.15938	0.32377	0.13453	0.17061	0.29318	0.11141	0.044005	0.064935	0.087235	0.10167	0.28295	-2.9854	-2.75	-2.9396	-2.9875	-2.8292	-2.9896	-3.0125	-2.9729	-3.1604	-2.8542	-3.275	-3.1562	-2.7271	-3.2146	-3.0292	-2.8333	16.097	120.999	-20.982	130.161	101.543	8.823	179.759	167.011	41.863	33.626	144.947	-118.762	-39.597	175.872	-102.177	193.122	0.00029276	0.0006606	0.00015714	1341.5	4.685e-06	6.3236e-06	1337.8	353.08	2.0513e-06	3.4075e-06	408.06	136.14	116.43	40.95	2.8582e-06	51.91	0.0003458	0.00034783	9.7284e-05	1311.8	3.8118e-06	3.8325e-06	1338.4	354.53	3.7862e-06	3.7953e-06	407.52	137.17	116.6	41.04	3.8485e-06	51.897	190.607	10.795	-77.513	-109.025	15.023	-10.988	-109.357	-104.918	-115.187	15.705	-104.841	-100.899	-100.239	-95.564	-24.907	-96.352	-8191	255	
788.152	1	1	0	0	0.1456	0.11884	0.24701	0.18849	0.40443	0.23438	0.23068	0.14531	0.1873	0.11289	0.25505	0.30785	0.13758	0.22112	0.18683	0.10008	-2.6729	-3	-2.8104	-3.2042	-2.6417	-3.0687	-3.2438	-2.8521	-3.125	-2.975	-2.975	-3.1312	-2.9458	-3.0604	-3.1979	-2.8271	11.161	52.311	-98.181	-113.563	-66.430	-54.387	-116.350	216.947	108.543	199.408	-103.594	166.512	56.132	193.201	-14.044	232.818	0.00028516	0.00062079	0.00014856	1344.6	3.6092e-06	7.1561e-06	1337.3	353.69	2.0707e-06	4.3528e-06	410.44	136.83	116.87	41.057	6.6304e-06	51.942	0.00035236	0.00034687	9.6777e-05	1310.8	3.8325e-06	3.8268e-06	1339.4	355	3.8678e-06	3.8354e-06	408.34	137.62	116.8	41.054	3.8252e-06	51.98	201.968	1.588	-37.900	-109.504	-34.051	1.454	-109.496	-104.658	-111.638	24.580	-104.850	-101.452	-100.311	-95.688	16.678	-96.175	-8191	255	
788.224	1	1	0	0	0.28167	0.30992	0.33588	0.10802	0.25774	0.14026	0.16311	0.33906	0.059497	0.10741	0.10598	0.17708	0.12021	0.11879	0.15245	0.23383	-2.65	-2.7771	-2.7292	-3.2229	-2.7771	-2.8604	-3.25	-3.0354	-2.9313	-2.925	-2.9854	-3.2729	-2.7438	-3.0083	-3.0292	-2.9271	87.125	-9.050	-11.436	142.339	123.393	-74.796	223.483	152.261	112.320	58.806	111.424	167.584	179.441	-52.938	101.057	230.912	0.0002394	0.00046144	4.3846e-05	1337.5	8.3303e-06	4.6412e-06	1338.7	354.47	2.0227e-06	4.4776e-06	411.25	136.36	116.21	40.955	2.2642e-06	51.834	0.0003512	0.00035238	9.759e-05	1308.7	3.8171e-06	3.8424e-06	1338.3	354.93	3.849e-06	3.8496e-06	408.47	137.21	116.77	41.076	3.8633e-06	51.871	198.809	-43.447	-82.862	-109.416	1.251	55.545	-109.498	-104.773	-31.057	10.722	-105.077	-101.268	-100.310	-95.738	-60.340	-96.301	-8191	255	
#DATA ENDS
