BOXY.EXE: ISS Imagent and Oximeter Data Acquisition Program Version 0.80
Ascii Record File

#ACQ INFORMATION
2  Detector Channels 
16  External MUX Channels 
1  Auxiliary Channels 
5000  Waveform (CCF) Frequency (Hz)
1  Waveforms Skipped 
30  Waveforms Averaged 
1  Cycles Averaged 
16  Acquisitions per Waveform 
10.0806  Updata Rate (Hz) 

#FILE INFORMATION
TRUE -- External MUX Channel results are PARSED.
FALSE -- AC DC and Phase are NOT grouped.
TRUE -- Companion Program Settings File CREATED.
FALSE -- AC data not excluded
FALSE -- DC data not excluded
FALSE -- Phase data not excluded
FALSE -- Auxillary Chn. data not excluded
Tab delimiters

#CALIBRATION STATE
TRUE -- Waveform Calibration Values APPLIED.


#AUX CALIBRATION VALUES
Val Type	aux-1	

Term	1.0000e+00	
Factor	0.0000e+00	


#WF CALIBRATION VALUES
A = Detector Channel
Val Type	A-AC1	A-AC2	A-AC3	A-AC4	A-AC5	A-AC6	A-AC7	A-AC8	A-AC9	A-AC10	A-AC11	A-AC12	A-AC13	A-AC14	A-AC15	A-AC16	A-DC1	A-DC2	A-DC3	A-DC4	A-DC5	A-DC6	A-DC7	A-DC8	A-DC9	A-DC10	A-DC11	A-DC12	A-DC13	A-DC14	A-DC15	A-DC16	A-Ph1	A-Ph2	A-Ph3	A-Ph4	A-Ph5	A-Ph6	A-Ph7	A-Ph8	A-Ph9	A-Ph10	A-Ph11	A-Ph12	A-Ph13	A-Ph14	A-Ph15	A-Ph16	

Term	0.00000e+00	0.00000e+00	0.00000e+00	0.00000e+00	0.00000e+00	0.00000e+00	0.00000e+00	0.00000e+00	0.00000e+00	0.00000e+00	0.00000e+00	0.00000e+00	0.00000e+00	0.00000e+00	0.00000e+00	0.00000e+00	0.00000e+00	0.00000e+00	0.00000e+00	0.00000e+00	0.00000e+00	0.00000e+00	0.00000e+00	0.00000e+00	0.00000e+00	0.00000e+00	0.00000e+00	0.00000e+00	0.00000e+00	0.00000e+00	0.00000e+00	0.00000e+00	0.00000e+00	0.00000e+00	0.00000e+00	0.00000e+00	0.00000e+00	0.00000e+00	0.00000e+00	0.00000e+00	0.00000e+00	0.00000e+00	0.00000e+00	0.00000e+00	0.00000e+00	0.00000e+00	0.00000e+00	0.00000e+00	
Factor	1.00000e+00	1.00000e+00	1.00000e+00	1.00000e+00	1.00000e+00	1.00000e+00	1.00000e+00	1.00000e+00	1.00000e+00	1.00000e+00	1.00000e+00	1.00000e+00	1.00000e+00	1.00000e+00	1.00000e+00	1.00000e+00	1.00000e+00	1.00000e+00	1.00000e+00	1.00000e+00	1.00000e+00	1.00000e+00	1.00000e+00	1.00000e+00	1.00000e+00	1.00000e+00	1.00000e+00	1.00000e+00	1.00000e+00	1.00000e+00	1.00000e+00	1.00000e+00	X	X	X	X	X	X	X	X	X	X	X	X	X	X	X	X	

B = Detector Channel
Val Type	B-AC1	B-AC2	B-AC3	B-AC4	B-AC5	B-AC6	B-AC7	B-AC8	B-AC9	B-AC10	B-AC11	B-AC12	B-AC13	B-AC14	B-AC15	B-AC16	B-DC1	B-DC2	B-DC3	B-DC4	B-DC5	B-DC6	B-DC7	B-DC8	B-DC9	B-DC10	B-DC11	B-DC12	B-DC13	B-DC14	B-DC15	B-DC16	B-Ph1	B-Ph2	B-Ph3	B-Ph4	B-Ph5	B-Ph6	B-Ph7	B-Ph8	B-Ph9	B-Ph10	B-Ph11	B-Ph12	B-Ph13	B-Ph14	B-Ph15	B-Ph16	

Term	0.00000e+00	0.00000e+00	0.00000e+00	0.00000e+00	0.00000e+00	0.00000e+00	0.00000e+00	0.00000e+00	0.00000e+00	0.00000e+00	0.00000e+00	0.00000e+00	0.00000e+00	0.00000e+00	0.00000e+00	0.00000e+00	0.00000e+00	0.00000e+00	0.00000e+00	0.00000e+00	0.00000e+00	0.00000e+00	0.00000e+00	0.00000e+00	0.00000e+00	0.00000e+00	0.00000e+00	0.00000e+00	0.00000e+00	0.00000e+00	0.00000e+00	0.00000e+00	-1.29269e+02	-1.13631e+02	-1.35870e+02	-1.84844e+02	-7.69806e+01	-6.34246e+01	-1.60653e+02	-1.62015e+02	-8.22226e+01	-6.09229e+01	-1.72187e+02	-1.71626e+02	-1.83109e+02	-1.76791e+02	-6.82363e+01	-1.50157e+02	
Factor	1.61315e-05	1.31639e-04	3.54998e-05	4.91269e-01	1.07434e-06	1.37095e-06	1.84658e-01	4.54119e-02	1.02773e-06	1.19378e-06	8.37172e-02	3.01029e-02	3.50082e-02	8.20948e-03	1.09933e-06	1.21748e-02	1.13921e-06	1.19064e-06	3.31616e-07	2.32299e-01	1.30170e-08	1.30308e-08	8.60883e-02	2.28097e-02	1.29813e-08	1.30694e-08	4.01028e-02	1.44691e-02	1.71056e-02	4.09484e-03	1.30663e-08	5.83849e-03	X	X	X	X	X	X	X	X	X	X	X	X	X	X	X	X	



#DISTANCE SETTINGS
A = Detector Channel
A-1	A-2	A-3	A-4	A-5	A-6	A-7	A-8	A-9	A-10	A-11	A-12	A-13	A-14	A-15	A-16	

2.5000e+00	3.0000e+00	2.5000e+00	3.0000e+00	2.0000e+00	3.0000e+00	1.5000e+00	3.0000e+00	3.0000e+00	3.0000e+00	3.0000e+00	3.0000e+00	3.0000e+00	3.0000e+00	1.5000e+00	3.0000e+00	

B = Detector Channel
B-1	B-2	B-3	B-4	B-5	B-6	B-7	B-8	B-9	B-10	B-11	B-12	B-13	B-14	B-15	B-16	

1.0000e+01	1.0000e+01	1.0000e+01	1.4400e+00	1.0000e+01	1.0000e+01	1.5100e+00	1.9400e+00	1.0000e+01	1.0000e+01	1.9900e+00	2.4900e+00	2.4100e+00	2.9000e+00	1.0000e+01	2.9800e+00	




#DATA BEGINS
time	group	step	mark	flag	A-AC1	A-AC2	A-AC3	A-AC4	A-AC5	A-AC6	A-AC7	A-AC8	A-AC9	A-AC10	A-AC11	A-AC12	A-AC13	A-AC14	A-AC15	A-AC16	A-DC1	A-DC2	A-DC3	A-DC4	A-DC5	A-DC6	A-DC7	A-DC8	A-DC9	A-DC10	A-DC11	A-DC12	A-DC13	A-DC14	A-DC15	A-DC16	A-Ph1	A-Ph2	A-Ph3	A-Ph4	A-Ph5	A-Ph6	A-Ph7	A-Ph8	A-Ph9	A-Ph10	A-Ph11	A-Ph12	A-Ph13	A-Ph14	A-Ph15	A-Ph16	B-AC1	B-AC2	B-AC3	B-AC4	B-AC5	B-AC6	B-AC7	B-AC8	B-AC9	B-AC10	B-AC11	B-AC12	B-AC13	B-AC14	B-AC15	B-AC16	B-DC1	B-DC2	B-DC3	B-DC4	B-DC5	B-DC6	B-DC7	B-DC8	B-DC9	B-DC10	B-DC11	B-DC12	B-DC13	B-DC14	B-DC15	B-DC16	B-Ph1	B-Ph2	B-Ph3	B-Ph4	B-Ph5	B-Ph6	B-Ph7	B-Ph8	B-Ph9	B-Ph10	B-Ph11	B-Ph12	B-Ph13	B-Ph14	B-Ph15	B-Ph16	aux-1	digaux	

796.386	1	1	0	256	0.1299	0.18591	0.16533	0.14782	0.17986	0.086634	0.36001	0.11682	0.10595	0.30627	0.25091	0.13858	0.13454	0.067568	0.25804	0.18079	-2.7188	-2.8958	-2.9958	-3.1521	-2.8604	-3.0479	-3.1188	-2.8521	-3.1667	-3.1208	-3.1	-3.2438	-2.6896	-3.1792	-3.0542	-2.8042	-10.407	-45.034	107.039	170.754	-112.930	220.303	195.849	220.350	5.833	-71.206	161.911	241.632	-114.929	-1.054	-93.599	150.466	0.00012714	0.00047617	0.00012737	1200.4	1.2573e-06	1.8781e-06	1264.2	238.68	2.0139e-06	4.1962e-06	301.99	84.489	65.691	19.024	3.0416e-06	27.092	0.00045073	0.00046383	0.00013036	1175.1	5.1984e-06	5.2137e-06	1240.2	237.82	5.12e-06	5.172e-06	301.58	86.608	68.239	19.843	5.1121e-06	28.41	193.256	-58.576	-107.414	-107.255	-5.781	-76.764	-107.440	-100.382	80.129	91.752	-100.511	-94.499	-93.995	-86.886	35.467	-87.162	-8191	255	
796.458	1	1	0	0	0.070813	0.11891	0.089365	0.19238	0.18751	0.21381	0.057992	0.069159	0.015632	0.10187	0.26152	0.14821	0.19366	0.096945	0.12866	0.27539	-2.6854	-2.9208	-2.8021	-3.2625	-2.8771	-3.1583	-3.1375	-2.9167	-3.1125	-2.8125	-3.0792	-3.2375	-3.0896	-3.0146	-3.2792	-2.8833	-28.216	237.990	200.855	-78.503	190.783	229.856	54.795	-33.130	38.345	135.530	210.709	-55.293	216.210	-109.262	-6.804	-41.982	4.1422e-05	0.0006046	7.6671e-05	1205.8	2.2863e-06	2.8581e-06	1263.7	240.13	1.355e-06	3.3911e-06	300.67	84.476	65.361	18.962	5.9571e-06	27.294	0.00044921	0.00046226	0.00012844	1169.4	4.9277e-06	4.8988e-06	1235.8	238	4.8012e-06	4.7906e-06	300.07	86.123	67.596	19.662	4.7645e-06	28.278	196.861	56.021	-7.646	-107.439	-21.071	-0.311	-107.606	-100.623	-67.913	-18.987	-100.579	-94.182	-94.507	-86.757	51.882	-87.040	-8191	255	
796.554	1	1	0	0	0.39664	0.04016	0.29025	0.072844	0.1	0.11467	0.23288	0.17067	0.18157	0.20834	0.23632	0.044586	0.1564	0.20436	0.29194	0.26627	-2.8354	-2.8312	-2.8896	-3.2917	-2.7521	-3.075	-3.1354	-2.9208	-3.1958	-3.0208	-2.9625	-3.0958	-2.9708	-3.0146	-3.0375	-2.6813	137.012	-26.828	63.454	-85.126	-34.513	1.372	125.753	140.243	99.249	99.514	142.487	129.828	-110.394	152.970	-110.415	-79.730	0.00014171	0.00098829	8.7597e-05	1194.9	1.7573e-06	6.3746e-06	1256.6	238.05	5.7412e-06	8.4237e-07	301.14	83.642	65.229	18.979	1.8788e-06	27.506	0.00042977	0.00043975	0.00012159	1163.6	4.7555e-06	4.7819e-06	1231.4	236.89	4.8045e-06	4.8182e-06	299.53	86.007	67.577	19.692	4.8714e-06	28.339	223.004	-13.375	-87.186	-107.220	120.044	110.978	-107.437	-100.405	20.771	-66.363	-100.423	-94.557	-93.754	-86.474	173.453	-87.090	-8191	255	
796.650	1	1	0	0	0.15421	0.084988	0.30812	0.093637	0.36715	0.18756	0.20463	0.083071	0.3828	0.057698	0.068875	0.17139	0.046446	0.10829	0.12278	0.091697	-2.6646	-3.15	-2.7458	-3.3396	-2.8417	-2.9813	-3.4125	-2.7667	-3.0958	-3.0125	-2.9375	-3.1833	-2.9333	-3.1042	-3.1854	-2.8625	-78.839	187.083	-28.724	221.115	86.530	44.836	151.066	200.734	-42.000	153.054	29.681	1.770	157.765	202.805	198.495	196.853	0.00012215	0.0008151	0.00010229	1200.8	3.7401e-06	4.6428e-06	1256.8	238.37	3.286e-06	4.7239e-06	302.05	83.971	64.821	18.826	4.7704e-06	27.131	0.0004346	0.00044204	0.00012273	1164.3	4.803e-06	4.7379e-06	1230.4	237.15	4.8026e-06	4.8385e-06	299.73	85.998	67.258	19.661	4.9521e-06	28.262	-114.561	102.372	-20.603	-107.362	120.056	-104.960	-107.399	-100.200	-35.112	58.017	-100.905	-94.599	-94.317	-86.459	57.668	-86.728	-8191	255	
796.771	1	1	0	0	0.18793	0.18205	0.2504	0.11505	0.17557	0.13808	0.18604	0.35319	0.15734	0.054603	0.35995	0.045049	0.17133	0.12988	0.31859	0.17306	-2.7729	-2.8	-2.7667	-3.1729	-2.7792	-2.9875	-3.1167	-2.9292	-2.9271	-3.0333	-3.0229	-3.2167	-2.95	-3.0812	-3.1542	-2.7875	182.312	-35.252	-109.513	59.723	43.168	105.360	183.859	207.049	-63.677	93.199	207.041	153.284	-71.059	188.960	67.050	90.017	0.00013559	0.00033395	0.00010436	1192.4	7.2635e-06	7.2029e-06	1257.3	237.8	4.168e-06	2.5911e-06	301.51	84.31	65.679	18.836	7.6218e-07	27.321	0.00043748	0.00044578	0.00012603	1162.8	4.9073e-06	4.9106e-06	1231.5	236.57	4.873e-06	4.9013e-06	300.06	86.258	67.772	19.667	4.9192e-06	28.279	185.308	45.706	-42.112	-107.603	0.427	-5.325	-107.561	-100.400	-42.610	61.913	-100.402	-94.393	-94.142	-86.481	-7.608	-87.001	-8191	255	
796.867	1	1	0	0	0.22813	0.035102	0.16263	0.16084	0.028571	0.10509	0.30931	0.2637	0.16673	0.078393	0.1913	0.094014	0.36609	0.1788	0.15286	0.16261	-2.5729	-3.1167	-2.7104	-3.0042	-2.9062	-2.9604	-3.3312	-2.8167	-2.8917	-3.0667	-2.9271	-3.3979	-2.9938	-2.65	-3.1375	-2.8979	87.158	56.266	21.096	231.554	197.562	-56.037	211.087	134.632	20.469	98.555	-107.661	175.510	-106.333	43.321	139.022	69.358	0.00014639	0.00062371	0.00012015	1202.6	4.9338e-06	3.6261e-06	1258.3	239.29	8.8379e-06	3.5164e-06	302.03	84.143	65.24	18.861	4.9923e-06	27.34	0.0004429	0.00044999	0.00012534	1171.8	4.8996e-06	4.8685e-06	1235.2	237.96	4.8688e-06	4.8422e-06	300.37	86.131	67.707	19.714	4.9574e-06	28.405	187.121	-6.777	-11.659	-107.638	56.206	45.783	-107.532	-100.218	-42.792	-16.588	-100.673	-94.328	-94.302	-86.643	-37.254	-87.368	-8191	255	
796.963	1	1	0	0	0.056992	0.12275	0.16237	0.30308	0.18564	0.14559	0.13904	0.068365	0.2295	0.20971	0.28346	0.17292	0.053186	0.20204	0.10354	0.20703	-2.3271	-2.9979	-2.675	-2.9625	-2.8438	-2.7979	-3.3333	-3.0333	-2.8771	-3.0833	-2.9958	-2.9875	-3.0125	-2.6562	-3.175	-3.0417	118.029	125.932	136.936	184.413	237.857	134.400	-108.525	-43.719	77.430	95.614	198.720	237.550	1.255	72.538	46.365	-83.087	0.00015893	0.00068718	0.00012407	1203.2	5.1546e-06	9.4595e-06	1264.2	238.02	2.4928e-06	5.1415e-06	303.55	84.611	65.321	18.963	2.5797e-06	27.431	0.00044764	0.00045342	0.00012711	1173.5	5.0052e-06	5.058e-06	1239.5	237.41	4.9419e-06	4.9387e-06	300.88	86.158	67.541	19.697	4.8918e-06	28.323	211.780	100.993	-30.169	-107.502	59.793	-10.551	-107.285	-100.491	-95.576	-53.129	-100.637	-94.470	-94.145	-87.045	162.137	-86.728	-8191	255	
797.059	1	1	0	0	0.0347	0.30171	0.18854	0.27665	0.22482	0.11411	0.006606	0.15655	0.068711	0.52757	0.13865	0.030211	0.13098	0.234	0.067983	0.032909	-2.2646	-3.1937	-2.6813	-3.025	-3.0833	-2.7625	-3.2896	-3.1063	-3.0146	-3.0083	-2.9562	-2.9646	-3.0167	-2.8167	-3.2625	-3.0854	161.738	192.446	85.193	235.238	158.399	30.217	208.326	164.165	152.810	151.301	-115.663	150.925	-76.037	204.074	61.087	-59.153	9.125e-05	0.00055349	0.00015568	1202	6.0461e-06	3.7168e-07	1259.3	238.88	3.9846e-06	6.7296e-06	302.05	84.211	65.224	19.203	7.7037e-06	27.241	0.00042934	0.00044723	0.0001247	1168.5	4.8764e-06	4.9211e-06	1236.8	237.74	4.9527e-06	4.9446e-06	300.04	86.286	67.768	19.753	4.9823e-06	28.335	182.151	22.517	-36.106	-107.301	-34.178	70.041	-107.580	-100.525	13.268	76.314	-100.599	-94.814	-93.830	-86.951	-61.331	-86.999	-8191	255	
797.154	1	1	0	0	0.33647	0.1226	0.27742	0.11726	0.25108	0.2507	0.21338	0.19292	0.32768	0.33884	0.20456	0.11544	0.066583	0.14436	0.019871	0.12121	-2.4833	-3.1792	-2.8167	-3.0125	-3.2042	-2.8333	-3.2562	-2.9375	-2.7479	-3.025	-2.975	-2.95	-3.1167	-2.6771	-2.9437	-2.8875	-71.089	-105.458	-110.625	201.079	-56.085	180.715	118.236	110.310	51.180	-112.279	26.246	60.588	190.043	134.781	10.834	216.276	9.2353e-05	0.00091133	0.00015629	1204.4	2.9112e-06	4.0203e-06	1262.9	237.92	3.3926e-06	1.5774e-06	302.39	84.516	65.053	19.059	4.6751e-06	27.411	0.00044159	0.00045693	0.00012621	1172.2	4.9349e-06	4.8909e-06	1238.1	237.15	4.8192e-06	4.8155e-06	299.63	86.145	67.525	19.711	4.7667e-06	28.259	232.727	-19.665	-44.944	-107.598	119.630	227.266	-107.477	-100.033	-101.309	160.146	-100.434	-94.537	-94.153	-86.837	-0.579	-86.829	-8191	255	
797.250	1	1	0	0	0.068523	0.29934	0.16909	0.09698	0.29908	0.087778	0.27823	0.10994	0.17869	0.027942	0.097977	0.10779	0.19272	0.11858	0.078498	0.081872	-2.3083	-2.9479	-2.7667	-2.8937	-2.9146	-2.6562	-3.1813	-3.0833	-2.675	-3.1604	-2.8271	-2.8271	-3.1625	-2.8583	-3.0458	-3.1292	38.307	221.210	10.623	20.378	221.316	92.257	183.272	216.996	183.357	136.202	-38.389	215.153	-15.262	229.809	-23.482	61.353	0.00010088	0.00030616	0.00018948	1208.8	3.8187e-06	2.9514e-06	1262.5	238.03	3.3348e-06	1.6747e-06	300.76	83.915	65.157	19.026	6.1708e-06	27.383	0.0004236	0.00044201	0.00012309	1170.1	4.7858e-06	4.8562e-06	1237.1	237.34	4.8453e-06	4.9084e-06	300.08	86.103	67.577	19.792	5.0703e-06	28.39	206.179	73.300	16.472	-107.427	49.610	181.910	-107.254	-100.321	-97.981	54.774	-100.652	-94.009	-94.316	-86.869	20.460	-86.992	-8191	255	
797.348	1	1	0	0	0.23537	0.13472	0.10686	0.12095	0.45084	0.23323	0.15	0.10917	0.068135	0.070738	0.2058	0.16438	0.076638	0.15797	0.25913	0.20903	-2.2875	-3.0312	-2.8958	-2.8917	-3.1083	-2.8146	-3.1208	-3.0208	-2.8333	-2.9979	-3.0563	-2.725	-3.1583	-2.7812	-2.8708	-3.1667	-78.853	131.156	170.716	192.908	-114.145	191.772	191.738	187.657	-13.715	3.806	191.706	26.655	54.487	-4.235	22.051	167.304	0.00020753	0.00013167	0.00014949	1194.6	2.1102e-06	5.3921e-06	1267.1	237.61	1.9497e-06	5.9491e-06	302.77	83.895	65.474	18.945	1.0718e-06	27.459	0.0004494	0.00046675	0.00012992	1172.3	5.0061e-06	5.0677e-06	1239.7	237.3	4.9655e-06	5.0313e-06	300.66	86.026	67.766	19.696	4.8293e-06	28.235	195.865	217.498	34.006	-107.533	114.086	-26.609	-107.331	-100.377	159.043	67.421	-100.552	-94.344	-93.616	-86.675	-72.533	-86.899	-8191	255	
797.467	1	1	0	0	0.045991	0.22934	0.042762	0.2203	0.17655	0.080013	0.4017	0.23363	0.074197	0.14711	0.04807	0.014749	0.33803	0.077296	0.31815	0.2426	-2.3458	-2.8917	-2.9208	-2.8271	-3.2771	-2.9583	-3.2146	-3.2375	-2.7604	-3.2083	-2.9354	-2.7958	-2.9896	-2.9875	-2.85	-3.1875	25.684	233.390	2.045	15.932	100.591	-63.869	170.845	140.964	-35.417	136.327	146.882	-88.016	123.056	116.656	-28.138	60.009	8.07e-05	0.00029427	6.8188e-05	1196	3.4062e-06	5.2595e-06	1260.5	237.81	3.7868e-06	2.281e-06	300.41	83.864	65.014	18.952	3.6229e-06	27.072	0.00042317	0.00043122	0.00011831	1164.3	4.6625e-06	4.6227e-06	1233.6	236.24	4.6357e-06	4.5794e-06	298.2	85.554	67.109	19.514	4.5059e-06	27.947	207.423	-12.800	129.464	-107.455	102.410	109.520	-107.409	-100.337	20.348	92.060	-100.710	-94.505	-94.200	-86.811	67.250	-87.437	-8191	255	
797.563	1	1	0	0	0.26491	0.10521	0.13942	0.43687	0.062988	0.10098	0.23281	0.11832	0.12153	0.19968	0.066965	0.14842	0.17632	0.061047	0.066336	0.22007	-2.4375	-2.9125	-2.9	-2.7188	-3.0208	-2.7188	-3.025	-3.1292	-2.7438	-3.0292	-2.9562	-2.7271	-3.0792	-2.8083	-2.8187	-3.2542	-61.080	-63.234	171.717	192.263	151.502	99.810	180.339	192.957	-88.148	230.090	-94.476	42.623	215.804	-70.257	86.454	81.538	7.1117e-05	0.00034587	0.00013892	1204.3	1.7412e-06	3.8713e-06	1250.6	237.23	2.2229e-06	4.704e-06	300.74	83.269	64.299	18.906	5.5563e-06	27.177	0.00040073	0.0004046	0.00011356	1158.6	4.4016e-06	4.3913e-06	1226.2	235.45	4.3914e-06	4.2928e-06	297.13	84.822	66.2	19.353	4.0722e-06	27.72	196.497	5.023	51.061	-107.182	146.548	106.896	-107.165	-100.211	-80.763	16.519	-100.875	-94.446	-93.931	-86.585	-14.494	-87.052	-8191	255	
797.659	1	1	0	0	0.050501	0.019425	0.039479	0.26658	0.21316	0.21528	0.040296	0.16425	0.012324	0.10201	0.34483	0.23605	0.12572	0.11467	0.19632	0.21736	-2.3937	-3.0042	-3.0229	-2.8667	-3.0438	-2.9708	-2.8833	-3.2917	-3.0771	-2.9646	-3.0917	-3.0104	-3.1333	-2.9396	-2.7313	-3.175	-78.842	130.294	-68.824	150.593	-66.924	174.145	-73.196	215.723	9.498	87.197	168.993	-77.391	144.854	22.556	209.218	-29.907	9.4005e-05	0.00047836	7.0474e-05	1184.7	1.1606e-06	4.9515e-06	1240.5	235.65	2.1679e-06	1.9295e-06	297.8	83.062	64.44	18.696	5.0712e-06	27.124	0.00036437	0.00037359	0.00010359	1138.5	4.024e-06	4.0121e-06	1212.8	233.07	4.0191e-06	4.0168e-06	293.8	84.275	65.946	19.234	4.0503e-06	27.678	196.484	-20.020	44.367	-107.370	47.186	-8.223	-107.096	-100.052	23.575	-64.580	-100.342	-94.294	-93.786	-86.630	4.187	-86.806	-8191	255	
797.755	1	1	0	0	0.18797	0.094053	0.14155	0.17774	0.16357	0.12864	0.23427	0.10634	0.26871	0.28826	0.12337	0.10656	0.22732	0.19354	0.10722	0.22057	-2.575	-2.8854	-3.2042	-2.9688	-3.0417	-2.9708	-3.0104	-3.3	-2.8354	-2.8792	-3.2313	-2.7938	-3.1271	-3.1417	-2.6208	-3.075	139.139	106.297	225.952	215.516	-61.430	124.084	195.590	29.410	222.605	-4.331	-85.630	170.771	211.871	-88.193	134.735	200.594	9.4906e-05	0.00028705	0.00010637	1191.7	2.5288e-06	5.7651e-06	1237.4	234.89	3.3685e-06	7.7394e-06	296.78	83.277	64.412	18.882	2.6488e-06	27.172	0.00036483	0.00036793	0.00010131	1137	3.9394e-06	3.8702e-06	1208.6	232.79	3.9474e-06	3.9017e-06	292.9	84.279	65.633	19.207	3.954e-06	27.618	182.643	-27.885	25.964	-107.462	128.680	-4.804	-107.397	-100.411	139.228	31.752	-100.658	-94.299	-94.344	-86.944	-44.739	-86.710	-8191	255	
797.851	1	1	0	0	0.36452	0.05749	0.10041	0.12249	0.039755	0.26906	0.20074	0.1765	0.21249	0.099934	0.18455	0.1323	0.093514	0.21524	0.10177	0.07829	-2.3542	-2.7583	-2.9896	-2.7729	-3.0042	-3.0396	-2.9125	-3.1521	-2.9396	-2.9458	-3.1229	-2.8812	-2.9792	-3.0312	-2.9938	-3.1083	239.637	-9.742	106.603	125.881	169.106	175.208	142.714	-117.725	158.625	105.252	162.106	26.263	55.483	125.620	-60.849	76.272	0.00013484	0.00050824	0.00021276	1184.2	1.4323e-06	8.0081e-06	1236.2	235.26	3.0369e-06	5.4841e-06	297.04	83.086	64.448	18.776	4.9312e-06	27.053	0.00035321	0.00035857	9.9186e-05	1133.8	3.9282e-06	3.9067e-06	1208.3	232.43	3.9607e-06	3.9378e-06	293.14	84.136	65.495	19.203	3.9117e-06	27.566	192.001	-84.987	-32.973	-107.446	142.675	61.860	-107.516	-100.335	-37.764	68.173	-100.678	-94.462	-93.663	-86.661	98.119	-87.052	-8191	255	
797.947	1	1	0	0	0.14047	0.022611	0.23686	0.070947	0.18022	0.096027	0.30015	0.064672	0.2724	0.11175	0.036372	0.08907	0.16476	0.14715	0.23502	0.19644	-2.5604	-2.7812	-3.0312	-2.9146	-2.8271	-3.1542	-3.1937	-3.2167	-3.0646	-2.8417	-3.175	-2.8896	-2.8979	-3.2667	-2.8979	-3.1271	-12.140	-30.765	-0.476	-29.440	-43.267	32.462	215.193	129.978	90.457	129.200	225.714	186.327	-76.048	221.918	25.363	-111.582	9.691e-05	0.0003721	0.00021408	1177.5	2.9603e-06	5.7981e-06	1237.4	233.74	4.0718e-06	1.5553e-06	298.83	82.964	64.344	18.912	4.6658e-06	27.028	0.00034595	0.00035055	9.7418e-05	1128.2	3.8497e-06	3.7661e-06	1205.7	231.77	3.7785e-06	3.8194e-06	292.78	83.899	65.624	19.212	3.9245e-06	27.524	216.411	123.416	-65.299	-107.022	23.552	101.478	-107.426	-100.161	193.470	96.132	-100.631	-94.524	-94.210	-86.483	67.204	-87.026	-8191	255	
798.068	1	1	0	0	0.18393	0.17758	0.11014	0.27981	0.14123	0.065301	0.13377	0.3694	0.17031	0.054632	0.059072	0.044764	0.24249	0.26928	0.064422	0.13467	-2.4646	-2.8833	-3.1396	-2.9417	-2.8875	-3.2562	-2.9667	-3.0479	-3.2375	-2.6604	-3.1271	-2.975	-2.9229	-3.3604	-2.7875	-3.0729	-114.290	10.668	146.010	-109.085	128.836	107.714	122.544	238.207	203.022	-20.880	8.362	89.144	-17.945	-102.399	134.169	64.187	0.00013354	0.00052063	0.00027988	1181.7	2.5396e-06	2.8533e-06	1236.5	233.35	2.4742e-06	6.6367e-06	299.46	82.747	64.553	18.826	4.0879e-06	27.117	0.00034725	0.00035712	9.9083e-05	1132.6	3.8435e-06	3.8423e-06	1208.3	231.65	3.7368e-06	3.7887e-06	292.67	83.785	65.329	19.207	3.893e-06	27.509	217.215	-7.260	-52.066	-107.668	-71.843	-11.948	-107.193	-100.286	87.923	111.676	-100.575	-94.321	-93.816	-86.462	94.552	-86.843	-8191	255	
798.164	1	1	0	0	0.20212	0.2117	0.11972	0.18605	0.30319	0.12196	0.30445	0.27993	0.14527	0.21678	0.16252	0.097126	0.20837	0.29602	0.29015	0.13454	-2.6292	-2.8375	-3.0146	-3.0229	-2.9354	-3.0854	-2.9437	-3.0833	-3.0896	-2.5687	-3.0854	-2.7333	-2.8187	-3.1375	-2.8146	-3.0271	-16.180	41.417	-99.617	228.938	211.495	108.516	-88.097	-87.651	135.170	-14.048	190.761	-101.695	195.553	74.622	70.297	120.325	0.00010968	0.00040689	6.2806e-05	1182.1	4.8294e-06	2.9445e-06	1239.1	234.56	3.0642e-06	3.8913e-06	296.5	83.307	64.383	18.653	2.6688e-06	27.06	0.0003508	0.00036222	0.00010201	1129.9	3.9802e-06	3.9695e-06	1209.6	232	3.9776e-06	3.9933e-06	292.76	84.212	65.466	19.223	3.9674e-06	27.512	190.328	-35.565	-28.655	-107.590	47.472	-16.473	-107.212	-100.404	-4.720	-118.365	-100.579	-94.595	-94.144	-86.383	-8.890	-86.821	-8191	255	
798.258	1	1	0	0	0.27319	0.14666	0.1136	0.16834	0.2907	0.071564	0.29348	0.14356	0.10696	0.18803	0.10977	0.24167	0.16403	0.23413	0.099922	0.019828	-2.5292	-2.6875	-2.9813	-3.0479	-2.8646	-3.1312	-3.1646	-2.9604	-3.2396	-2.8563	-3.1271	-3.0833	-2.9542	-3.0583	-2.9208	-2.9813	39.755	94.616	-28.419	229.553	192.695	193.940	136.331	-106.163	212.468	122.061	-112.310	194.656	-35.197	214.801	63.577	-40.042	0.00013118	6.8678e-05	5.1856e-05	1179.8	3.8277e-06	2.2138e-06	1239.7	234.53	1.2507e-06	1.5992e-06	295.73	83.379	64.096	18.774	3.0688e-06	27.183	0.00035697	0.00035882	0.0001006	1130.7	3.9914e-06	3.9666e-06	1209.4	232.42	4.0004e-06	4.0577e-06	292.75	84.422	65.704	19.255	4.056e-06	27.618	187.232	189.335	134.422	-107.341	71.390	76.252	-107.411	-100.626	131.411	116.374	-100.536	-94.264	-93.776	-86.648	17.222	-87.065	-8191	255	
798.330	1	1	0	0	0.046584	0.12302	0.069043	0.1724	0.16555	0.074917	0.2523	0.32757	0.12739	0.068922	0.2561	0.084724	0.12032	0.24094	0.055411	0.13167	-2.6063	-2.8354	-3.0396	-2.9271	-2.7604	-3.0896	-3.0896	-2.9604	-3.1625	-2.9229	-2.9479	-2.9833	-2.7771	-3.2542	-2.9562	-2.9646	156.758	-19.560	229.798	185.169	187.725	3.894	231.095	165.080	135.137	-36.742	-67.942	226.016	174.892	186.391	-94.596	-20.333	0.00013898	0.00023681	0.00028293	1173.5	4.6298e-06	6.1109e-06	1238.6	236.39	6.942e-06	2.4182e-06	297.62	83.433	64.7	18.715	1.0357e-06	26.952	0.0003648	0.00037774	0.00010276	1134.5	4.0527e-06	4.0466e-06	1209.4	232.64	4.0758e-06	4.0386e-06	293.33	84.194	65.97	19.23	4.123e-06	27.633	198.239	75.807	-18.982	-107.384	-22.689	60.274	-107.280	-100.107	6.645	50.907	-100.308	-94.278	-93.959	-86.780	33.927	-86.629	-8191	255	
798.451	1	1	0	0	0.23335	0.2025	0.14322	0.089221	0.29354	0.24105	0.346	0.090497	0.10672	0.18555	0.10659	0.25445	0.039885	0.091289	0.20546	0.17987	-2.8083	-2.7729	-3.0083	-3.0625	-2.7708	-3.0938	-2.9729	-2.8854	-3.25	-2.9021	-2.9792	-3.1104	-2.8333	-3.0292	-2.9479	-2.8604	-13.705	111.006	-1.970	97.867	111.691	62.921	178.340	-59.539	126.166	-3.371	226.374	-66.976	100.430	181.423	95.337	-92.094	0.00011469	0.0007769	0.00015764	1183.1	4.9013e-06	6.5729e-06	1240.8	234.03	3.311e-06	2.4049e-06	295.37	82.62	64.415	18.73	1.1097e-06	26.966	0.00036748	0.00037607	0.00010412	1136.8	4.1636e-06	4.1932e-06	1208.9	231.94	4.1948e-06	4.1667e-06	293.49	84.188	65.745	19.27	4.1746e-06	27.577	151.477	-75.404	232.907	-107.796	79.717	145.923	-107.343	-100.223	-2.007	39.201	-100.336	-94.329	-93.931	-86.686	-91.353	-86.712	-8191	255	
798.547	1	1	0	0	0.19425	0.1401	0.078526	0.2115	0.17033	0.12436	0.15721	0.092466	0.095916	0.067847	0.15641	0.14628	0.14434	0.30532	0.070742	0.16478	-2.6417	-2.8292	-3.1792	-3.0042	-2.75	-2.9708	-3.2854	-2.9042	-3.1333	-2.925	-3.0146	-3.0646	-2.8146	-3.0146	-3.1437	-2.8688	-18.395	166.655	119.129	145.756	155.640	-19.618	204.916	197.121	1.217	-54.108	-86.277	165.786	187.404	78.958	7.243	231.579	0.00014766	0.0005043	0.00021534	1177.6	6.5497e-06	1.0144e-05	1234.8	234.34	4.1581e-06	3.7586e-06	297.18	82.875	64.34	18.708	3.3961e-06	26.967	0.00036598	0.0003723	0.00010253	1134	4.0087e-06	3.9757e-06	1206.8	232.14	4.0322e-06	4.0496e-06	293.12	84.033	65.95	19.227	4.0878e-06	27.584	232.593	-89.851	-5.306	-107.104	9.608	62.918	-107.423	-100.391	-97.532	181.343	-100.570	-94.407	-93.850	-86.431	20.856	-86.920	-8191	255	
798.643	1	1	0	0	0.1122	0.2532	0.11694	0.084249	0.08868	0.13105	0.26138	0.27712	0.2792	0.065076	0.057144	0.087915	0.15321	0.11686	0.089019	0.1309	-2.7083	-2.9625	-2.8812	-3.1229	-2.8729	-3.0021	-3.3771	-2.8354	-3.0812	-2.9104	-3.0667	-3.1604	-2.8021	-2.9583	-3.1458	-2.7938	-20.499	91.161	-85.291	54.312	8.508	40.075	238.163	162.510	-91.530	165.242	181.238	239.765	205.747	-63.160	141.850	-8.067	8.8572e-05	0.0006828	9.3135e-05	1177.5	3.025e-06	2.5481e-06	1241.8	233.7	6.0265e-07	4.6034e-06	296.48	83.027	64.67	18.802	3.5553e-06	26.808	0.00036193	0.00037488	0.00010427	1134	4.0903e-06	4.0749e-06	1210.1	232.03	4.0983e-06	4.1198e-06	292.97	84.1	65.798	19.294	4.2063e-06	27.612	187.841	-94.137	-36.186	-107.313	89.853	3.353	-107.609	-100.233	-62.622	47.032	-100.756	-94.540	-94.021	-86.416	5.057	-87.126	-8191	255	
798.739	1	1	0	0	0.03559	0.052119	0.16915	0.24409	0.095204	0.14807	0.24559	0.22922	0.14033	0.055322	0.29775	0.086639	0.13657	0.18619	0.028321	0.22153	-2.7917	-2.8583	-2.8458	-3.1396	-2.7687	-2.8583	-3.1208	-2.8917	-3.075	-2.9896	-2.8875	-3.4146	-2.9958	-2.9375	-3.1958	-2.8063	135.893	-14.107	-23.992	-36.701	131.022	-113.811	204.131	187.732	-73.661	-81.877	225.812	216.120	235.237	-67.203	-36.964	26.835	9.8073e-05	0.00056286	0.00020603	1177.8	9.6505e-07	1.0311e-05	1237.1	234.78	3.2611e-06	2.1145e-06	296.45	83.203	64.689	18.809	2.5495e-06	26.893	0.0003745	0.00038898	0.00010653	1137.2	4.1541e-06	4.1503e-06	1209.1	232.21	4.1299e-06	4.1025e-06	293.21	84.29	65.86	19.263	4.1061e-06	27.553	233.472	-26.056	97.546	-107.662	17.435	49.048	-107.437	-100.308	6.570	43.996	-100.274	-94.541	-94.087	-86.826	-74.289	-87.019	-8191	255	
798.860	1	1	0	0	0.18699	0.16851	0.22624	0.24483	0.076573	0.16621	0.26296	0.25458	0.11478	0.29567	0.13059	0.09435	0.22063	0.20336	0.093202	0.35572	-2.6208	-2.9958	-2.5938	-3.1229	-2.9688	-2.9	-3.2146	-2.9667	-3.05	-2.9354	-2.8479	-3.1396	-2.9188	-2.9271	-3.2979	-2.9104	84.370	65.631	-80.444	-107.001	110.182	97.560	173.093	148.898	-1.059	-34.280	231.277	107.166	114.979	39.695	-86.414	149.812	0.00010667	0.00043918	4.9409e-05	1179.1	2.939e-06	3.3859e-06	1241.3	232.94	2.9733e-06	1.8192e-06	295.95	82.839	64.822	18.843	8.6803e-07	27.007	0.00037094	0.00037609	0.00010514	1136.7	4.2119e-06	4.1913e-06	1208.6	231.36	4.153e-06	4.1228e-06	293.01	84.057	65.851	19.267	4.0868e-06	27.594	167.958	140.298	75.865	-107.225	6.062	90.507	-107.518	-100.677	39.044	7.995	-100.621	-94.471	-94.043	-86.386	225.597	-87.045	-8191	255	
798.956	1	1	0	0	0.19988	0.070687	0.15142	0.057221	0.23088	0.20555	0.24868	0.10243	0.23053	0.18011	0.088295	0.19766	0.16676	0.16519	0.12449	0.11388	-2.5	-3.0729	-2.8438	-3.1562	-3.0875	-2.7542	-3.4	-2.8979	-2.9833	-3.1208	-2.8125	-3.1833	-2.8854	-2.9229	-3.1146	-2.9667	120.370	17.390	-35.880	-74.524	-12.970	53.323	181.464	90.222	74.626	-5.411	129.487	-50.569	79.923	-24.682	95.240	-107.184	0.00013239	0.00050824	0.00012321	1172.7	3.6384e-06	3.4013e-06	1241	234	1.6803e-06	4.2424e-06	295.09	83.094	64.002	18.733	6.7761e-07	27.169	0.00036713	0.00036582	0.00010274	1132	4.0349e-06	4.0712e-06	1208.3	232	4.0983e-06	4.1485e-06	292.76	84.318	65.819	19.294	4.1913e-06	27.679	210.517	6.186	177.534	-107.437	48.160	-71.106	-107.403	-100.211	-76.239	-16.798	-100.426	-94.155	-93.549	-86.475	96.309	-86.730	-8191	255	
799.028	1	1	0	0	0.1309	0.1465	0.071361	0.35596	0.15938	0.089763	0.31706	0.22746	0.18359	0.037844	0.15038	0.13059	0.075922	0.015437	0.093683	0.065089	-2.5521	-3.1229	-2.5875	-3.2021	-3.0771	-2.8667	-3.1979	-3.1312	-2.9396	-3.2604	-2.7021	-3.1083	-3.0625	-2.8396	-3.1854	-2.9167	-31.724	231.670	108.578	238.709	146.424	51.643	169.158	184.835	214.702	-45.293	186.418	-55.542	230.987	220.520	106.609	-90.655	8.7943e-05	0.00014459	0.00017	1178.1	6.5221e-06	3.8591e-06	1234.8	233.57	7.0947e-06	4.1743e-06	297.88	82.832	64.336	18.799	2.2009e-06	27.035	0.00037533	0.00037552	0.00010581	1136.6	4.121e-06	4.0581e-06	1207.5	231.75	3.9631e-06	3.9867e-06	292.78	84.097	65.614	19.235	4.0622e-06	27.536	153.428	-50.215	-92.326	-107.930	-13.796	48.700	-107.311	-100.481	-91.909	93.757	-100.400	-94.449	-94.313	-86.941	167.776	-86.939	-8191	255	
799.148	1	1	0	0	0.096683	0.14418	0.11649	0.081397	0.15599	0.056135	0.12956	0.067437	0.27647	0.1931	0.09429	0.1598	0.15247	0.32576	0.18865	0.028891	-2.5167	-2.9979	-2.7708	-3.1875	-3.0208	-2.6437	-3.2896	-3.0292	-3.0792	-3.0958	-2.8438	-3.0438	-3.175	-2.7625	-3.1542	-2.8521	38.403	199.869	-26.815	-114.656	-31.800	16.964	155.530	-57.765	161.874	233.769	192.215	-64.545	95.100	-103.282	-99.303	83.008	0.00013409	0.00054273	0.00012306	1178.5	3.4277e-06	7.0519e-06	1238.3	234.17	4.4364e-06	4.318e-06	296.6	83.209	64.173	18.839	3.6601e-06	27.027	0.00036136	0.00037005	0.00010187	1135.6	4.0225e-06	4.0936e-06	1207.4	231.8	4.0901e-06	4.0438e-06	292.57	84.271	65.769	19.283	4.1699e-06	27.561	207.474	-28.836	-0.293	-107.870	103.678	7.246	-107.355	-100.514	-4.169	51.228	-100.701	-94.570	-93.958	-86.608	-41.436	-86.948	-8191	255	
799.244	1	1	0	0	0.39278	0.088685	0.093166	0.24372	0.045507	0.094145	0.18315	0.26982	0.13314	0.17836	0.090279	0.15524	0.16889	0.044434	0.008128	0.12334	-2.5833	-2.9708	-2.8521	-2.8937	-2.9958	-2.7687	-3.4021	-3.0021	-2.7646	-3.2792	-2.95	-3.0292	-3.075	-2.7896	-3.0208	-2.9271	155.136	2.750	127.223	217.541	107.815	207.586	174.664	94.003	193.016	-10.042	197.456	1.579	165.125	153.854	99.159	-38.723	9.2532e-05	0.00024349	0.00015288	1175.7	3.0072e-06	9.0706e-06	1240.7	234.41	4.2737e-06	3.6113e-06	295.42	82.855	64.556	18.647	6.0679e-06	26.973	0.00037062	0.00037925	0.00010484	1135.5	4.1172e-06	4.0959e-06	1209.1	232.1	4.0694e-06	4.1267e-06	292.74	84.091	65.848	19.21	4.0521e-06	27.512	197.056	222.488	-62.320	-107.204	49.750	-77.467	-107.237	-100.742	80.337	96.126	-100.456	-94.514	-93.965	-86.706	82.807	-87.002	-8191	255	
799.339	1	1	0	0	0.21516	0.27845	0.18105	0.30219	0.29878	0.10619	0.18727	0.16994	0.17337	0.27183	0.20475	0.13669	0.37595	0.31895	0.14309	0.053524	-2.4229	-3.125	-2.6896	-3.0187	-3.2854	-2.7938	-3.1208	-3.1208	-2.625	-3.2146	-3.1604	-3.1625	-3.2062	-2.8354	-3.0187	-3.0458	232.868	-85.316	205.808	-79.946	190.708	-14.762	166.456	94.106	42.684	58.633	202.004	163.889	-62.646	232.186	-117.619	90.004	9.8039e-05	0.00042208	3.0792e-05	1175.4	4.5372e-06	4.0378e-06	1232.2	233.15	4.0923e-06	2.6313e-06	295.89	82.847	63.969	18.735	4.9574e-06	26.915	0.00036111	0.00037093	0.00010234	1131.5	4.0089e-06	4.0266e-06	1205.7	231.56	4.1171e-06	4.1436e-06	292.45	84.224	65.892	19.266	4.2312e-06	27.616	184.383	240.814	-89.767	-107.453	33.989	-106.601	-107.374	-100.454	-21.017	93.070	-100.565	-94.437	-93.966	-86.608	-12.198	-87.014	-8191	255	
799.435	1	1	0	0	0.25071	0.199	0.05681	0.1532	0.053341	0.16904	0.087423	0.098996	0.15779	0.059413	0.20718	0.17311	0.26119	0.16854	0.14175	0.16608	-2.3292	-3.1125	-2.9146	-3.0021	-3.1417	-2.8708	-3.2208	-3.0542	-2.8021	-3.1146	-3.0812	-2.7979	-3.1312	-2.9292	-3.1125	-3.1542	-48.595	169.472	10.275	-83.679	-8.607	-47.354	139.698	-14.179	94.817	178.897	209.477	-86.486	-8.089	198.504	-91.001	-56.838	0.00012987	0.00060429	1.9389e-05	1175.6	3.0692e-06	2.8576e-06	1236.1	234.12	3.1458e-06	5.5547e-06	295.62	82.939	64.116	18.826	3.4176e-06	27.007	0.00037416	0.00038212	0.00010603	1133.8	4.1218e-06	4.1436e-06	1209	231.71	4.1095e-06	4.1056e-06	292.7	84.171	65.618	19.268	4.0905e-06	27.591	230.589	80.150	-116.975	-107.715	98.578	57.054	-107.399	-100.372	-76.016	28.998	-100.548	-94.287	-94.022	-86.865	108.943	-87.267	-8191	255	
799.556	1	1	0	0	0.30334	0.24572	0.18076	0.078606	0.12166	0.12489	0.18606	0.14706	0.071819	0.22235	0.16109	0.32166	0.36	0.24664	0.15099	0.048195	-2.4917	-3.0167	-3	-2.8083	-3.15	-2.9792	-3.0438	-3.1771	-2.8875	-3.2042	-3.1104	-2.9271	-3.0062	-3.0062	-2.8854	-3.05	-12.316	-16.293	-44.161	154.383	-5.485	30.226	155.655	125.518	199.619	223.578	221.523	-74.427	227.814	-42.367	110.071	44.344	0.00015707	0.00025847	0.0001811	1182.4	5.1679e-06	1.5143e-06	1236.8	235.28	1.2202e-07	2.7098e-06	296.1	82.627	64.336	18.725	4.9552e-06	27.101	0.00036842	0.00037755	0.0001048	1136	4.1758e-06	4.1394e-06	1208.4	232.41	4.1748e-06	4.1516e-06	292.6	84.205	65.924	19.246	4.1932e-06	27.639	215.642	234.549	-21.752	-107.389	-2.365	-29.546	-107.403	-100.452	-34.923	97.269	-100.362	-94.505	-93.766	-86.720	188.269	-86.965	-8191	255	
799.627	1	1	0	0	0.13997	0.02032	0.061342	0.071832	0.10128	0.14816	0.19149	0.06656	0.015249	0.18769	0.018529	0.17363	0.21396	0.17914	0.17946	0.24579	-2.3854	-2.9229	-2.8312	-2.9688	-3.3583	-2.8729	-3.0729	-3.2562	-2.7438	-3.1604	-3.1771	-2.9104	-3.0104	-3.0667	-2.8708	-3.3542	198.786	34.325	68.278	158.734	109.019	23.368	201.919	-74.140	149.632	-86.468	56.359	209.159	48.041	-75.393	-63.547	-117.635	0.00011134	0.00066709	0.00014601	1181.8	3.5227e-06	6.0034e-06	1238	233.56	2.9355e-06	7.4662e-06	296.43	83.428	64.41	18.734	2.5078e-06	26.615	0.00038015	0.00038454	0.00010724	1136.7	4.2382e-06	4.1655e-06	1209.2	231.9	4.1322e-06	4.175e-06	292.96	84.259	65.759	19.249	4.1063e-06	27.479	203.901	47.228	-61.282	-107.245	194.928	46.219	-107.439	-100.402	204.813	58.215	-100.628	-94.885	-93.818	-86.577	41.311	-86.895	-8191	255	
799.748	1	1	0	0	0.14839	0.093692	0.037118	0.099267	0.21008	0.11816	0.12792	0.29509	0.19555	0.11349	0.088715	0.062724	0.096322	0.091698	0.16916	0.035167	-2.4146	-3.0146	-2.8979	-2.7917	-3.2167	-2.9521	-2.7896	-3.2896	-2.9021	-3.0438	-3.1958	-2.9042	-3.1521	-3.0896	-2.9313	-3.1896	-110.716	77.464	84.362	131.471	76.206	41.958	93.657	211.250	156.525	146.882	151.731	94.170	-71.797	-84.095	181.983	-96.484	0.00013553	0.0002591	3.5548e-05	1179.9	2.9022e-06	8.6169e-07	1231.2	233.37	1.9624e-06	1.0703e-06	295.81	83.416	63.977	18.749	3.4734e-06	26.969	0.00036036	0.00037086	0.00010087	1134.2	3.9902e-06	4.0025e-06	1206.3	231.72	4.0143e-06	3.9775e-06	291.88	84.328	65.646	19.264	4.0479e-06	27.511	227.829	-56.123	200.444	-107.377	18.416	17.727	-107.341	-100.393	13.898	69.555	-100.567	-94.443	-94.083	-86.372	-14.158	-86.872	-8191	255	
799.844	1	1	0	0	0.095874	0.045969	0.15799	0.10463	0.20426	0.10834	0.23618	0.089689	0.13247	0.19079	0.12077	0.23194	0.3055	0.1644	0.14578	0.22953	-2.5667	-3.0208	-3.0208	-2.7792	-2.9896	-3.05	-3.0771	-3.1792	-2.7958	-2.8875	-3.0604	-2.8438	-3.0062	-2.9354	-2.6521	-3.1542	157.036	-47.108	88.426	-33.837	196.866	201.553	-112.546	124.229	-12.621	181.307	76.865	175.996	116.575	32.595	184.166	147.040	0.00012005	0.00021174	8.3023e-05	1168.9	3.8672e-06	2.7583e-06	1240.9	235.02	4.4018e-06	4.7765e-06	295.26	82.779	64.596	18.812	4.7247e-06	26.737	0.000362	0.00037314	0.00010244	1132.8	4.1144e-06	4.1428e-06	1209.9	231.89	4.1557e-06	4.1228e-06	292.38	84.179	65.689	19.247	4.1305e-06	27.486	229.448	-36.659	-96.608	-107.359	-18.500	166.288	-107.276	-100.557	-97.916	32.704	-100.568	-93.840	-93.720	-86.473	20.716	-87.033	-8191	255	
799.940	1	1	0	0	0.048627	0.11398	0.28017	0.093424	0.1197	0.086469	0.18992	0.31429	0.21651	0.14175	0.085623	0.19769	0.13691	0.071091	0.13486	0.042005	-2.4917	-2.7229	-3.1458	-2.8542	-2.9062	-3.0708	-2.9	-3.1813	-2.9042	-2.8667	-2.9229	-2.6396	-3.0417	-2.975	-2.6396	-2.9833	66.818	141.051	78.250	-79.465	214.922	175.230	-109.348	153.351	-42.526	81.891	157.878	233.534	-105.639	169.494	22.962	135.846	0.00015747	0.00019926	0.00021602	1179.8	9.3274e-07	3.5763e-06	1242	234.68	3.2978e-06	2.8576e-06	295.3	82.787	64.002	18.94	2.0121e-06	26.929	0.00036634	0.00037019	0.00010318	1132.1	4.0107e-06	4.0212e-06	1212	231.64	4.0343e-06	4.0488e-06	292.55	84.019	65.564	19.298	4.0586e-06	27.563	212.269	47.944	49.596	-107.825	-100.831	69.259	-107.298	-99.985	61.823	61.914	-100.690	-94.284	-93.492	-86.760	140.910	-86.724	-8191	255	
800.036	1	1	0	0	0.19029	0.090929	0.11415	0.052211	0.066542	0.025579	0.1624	0.20814	0.1213	0.17207	0.21321	0.22341	0.14604	0.38435	0.099409	0.18969	-2.4208	-2.6542	-3.1521	-2.5896	-2.875	-2.8792	-3.0646	-3.1854	-2.8042	-2.7271	-3.1167	-2.6167	-2.8458	-3.1042	-2.6604	-3.2292	12.495	160.092	94.311	72.397	154.395	19.177	100.735	179.042	143.520	-69.962	-106.608	223.783	41.298	-9.640	164.695	-74.445	0.00018251	0.00036412	0.0001255	1181.8	2.2842e-06	2.5744e-06	1240.7	234.12	4.0131e-06	4.9721e-06	297.8	83.328	63.895	18.781	2.7486e-06	26.996	0.00036331	0.00036741	0.00010218	1138.5	4.0104e-06	3.9937e-06	1210.7	232	4.0194e-06	4.0532e-06	293.13	84.232	65.538	19.235	4.0904e-06	27.602	190.605	-64.184	-7.439	-107.877	47.067	82.831	-107.518	-100.555	-17.268	76.232	-100.590	-93.935	-93.976	-87.045	206.451	-86.941	-8191	255	
800.155	1	1	0	0	0.14288	0.29491	0.065948	0.22257	0.043154	0.097427	0.16791	0.21039	0.22308	0.12046	0.30951	0.10171	0.22608	0.056221	0.086816	0.18413	-2.5729	-2.6375	-3.2729	-3.1688	-2.8792	-3.1958	-2.8146	-3.1688	-2.9188	-2.6646	-3.2521	-2.8771	-2.8875	-3.0146	-2.6708	-2.9271	-98.755	-32.429	-81.226	214.750	-4.949	203.081	188.991	-91.065	134.911	-92.397	155.145	171.173	-89.852	23.724	14.736	99.377	8.3554e-05	0.00030066	0.0001005	1179.2	2.6354e-06	1.0403e-05	1235.6	235.42	6.1538e-06	6.7134e-06	294.75	83.136	64.971	18.833	4.2022e-06	27.146	0.00036767	0.00037059	0.00010556	1134.9	4.14e-06	4.1237e-06	1210.6	232.55	4.1594e-06	4.1693e-06	292.57	84.394	66.061	19.331	4.186e-06	27.644	169.108	-78.266	238.259	-106.979	87.767	96.223	-107.643	-100.241	37.131	51.266	-100.590	-94.487	-94.186	-86.530	10.227	-86.979	-8191	255	
800.251	1	1	0	0	0.077397	0.084764	0.20181	0.1339	0.11182	0.064242	0.38234	0.11227	0.078273	0.21439	0.23734	0.066314	0.19424	0.074846	0.13266	0.056862	-2.7521	-2.6208	-2.9792	-2.9813	-2.8292	-3.1167	-3.0187	-3.0354	-2.9167	-2.8104	-3.0979	-3.0687	-2.7542	-3.075	-2.8333	-2.9188	-117.509	206.814	131.567	79.237	-15.531	-5.903	197.316	198.632	4.353	98.479	-95.751	221.859	94.270	210.050	-77.580	-100.735	9.9465e-05	0.00055909	0.00019934	1186.5	6.3275e-07	8.3548e-06	1239.7	235.22	2.0624e-06	1.7565e-06	296.09	83.166	64.038	18.773	2.687e-06	27.033	0.00036994	0.00037994	0.00010543	1138.2	4.0709e-06	4.1656e-06	1211.7	231.99	4.1681e-06	4.166e-06	292.82	84.406	65.834	19.305	4.1599e-06	27.684	232.181	22.699	27.958	-107.389	-91.193	-21.255	-107.426	-100.366	-73.280	-14.061	-100.651	-94.267	-93.675	-86.635	188.361	-86.951	-8191	255	
800.323	1	1	0	0	0.21994	0.21555	0.2061	0.10363	0.0063303	0.076385	0.34915	0.38342	0.039993	0.25401	0.20355	0.20656	0.083083	0.14761	0.20035	0.039784	-2.4813	-2.6583	-3.05	-3.0708	-2.8854	-3.1792	-2.8104	-2.9958	-3.0708	-2.7458	-3.2	-3.15	-2.7042	-3.0875	-2.9146	-2.9437	116.579	-14.581	-80.919	-5.138	95.066	-52.655	197.788	217.742	66.519	97.817	127.626	140.542	-76.490	-12.790	21.630	106.462	0.00010613	0.00065866	0.00012107	1183	2.1599e-06	4.0591e-06	1240.6	233.59	5.2228e-06	3.1118e-06	298.01	83.497	64.355	18.83	2.8968e-06	26.948	0.00036718	0.00038236	0.00010562	1138.8	4.1363e-06	4.2053e-06	1210.8	232.06	4.2796e-06	4.2313e-06	294.12	84.527	65.997	19.359	4.2461e-06	27.667	217.215	-15.669	-75.579	-107.089	59.044	34.906	-107.455	-100.571	29.589	145.835	-100.333	-94.697	-93.940	-86.638	37.981	-87.077	-8191	255	
800.419	1	1	0	0	0.25743	0.041245	0.16905	0.16388	0.15708	0.27058	0.059506	0.035235	0.17152	0.21687	0.060646	0.35801	0.10907	0.21492	0.1385	0.13101	-2.6333	-2.7292	-3.0229	-3.0042	-2.65	-3.1292	-3.0792	-2.7979	-3.0125	-2.7896	-3.0292	-2.9896	-2.9167	-3.3208	-2.9292	-2.8354	57.360	68.524	-12.977	-1.421	-69.078	-6.354	241.262	180.990	142.761	-91.571	-51.011	197.482	119.107	66.080	-51.343	190.117	0.00015838	0.00025217	0.00011282	1187.8	2.5906e-06	2.2166e-06	1236.1	233.96	8.7243e-07	5.2113e-06	294.95	82.988	64.893	18.83	6.4204e-06	27.118	0.00037084	0.00038382	0.00010753	1140	4.2053e-06	4.2252e-06	1211.8	232.42	4.2348e-06	4.2646e-06	292.97	84.546	66.193	19.382	4.2782e-06	27.763	206.560	-27.983	-56.564	-107.089	-88.475	204.324	-107.323	-100.390	0.269	73.713	-100.335	-94.308	-94.113	-86.620	71.765	-87.007	-8191	255	
800.515	1	1	0	0	0.041297	0.18456	0.1736	0.075626	0.15318	0.21095	0.189	0.25465	0.034854	0.13653	0.11918	0.11225	0.21086	0.19738	0.06617	0.15148	-2.6771	-2.7375	-2.8937	-3.2271	-2.7938	-2.9875	-2.9562	-2.8979	-3.0146	-2.7875	-2.9979	-2.8521	-2.7938	-3.1562	-2.9083	-2.7875	164.740	46.171	-28.805	162.029	60.519	164.016	182.398	179.429	13.149	-95.572	177.188	-13.019	6.593	206.826	-88.876	188.043	0.00014511	0.00014981	0.00013203	1184.1	3.0224e-06	8.3768e-06	1244.7	235.31	5.9135e-06	8.8522e-06	297.1	83.452	65.043	18.885	4.7108e-06	26.855	0.00037777	0.00038602	0.00010573	1142.2	4.1387e-06	4.1521e-06	1212.4	232.51	4.1291e-06	4.1221e-06	293.21	84.54	66.029	19.344	4.2081e-06	27.58	218.058	87.160	31.401	-108.188	237.554	52.331	-107.478	-100.374	-40.893	39.472	-100.562	-94.235	-94.366	-86.747	38.237	-86.898	-8191	255	
800.636	1	1	0	0	0.11632	0.17374	0.19184	0.084214	0.24793	0.074551	0.094874	0.22302	0.061839	0.12549	0.40254	0.21123	0.25646	0.15628	0.14591	0.10823	-2.7792	-2.8917	-2.9021	-3.1583	-2.8583	-2.9938	-3.075	-2.8792	-3.1688	-2.9042	-2.9333	-3.1792	-2.8292	-2.8688	-2.9646	-2.7125	-86.857	158.729	64.594	199.353	163.344	168.172	54.827	112.247	34.952	122.388	182.169	118.803	208.210	-78.453	167.811	84.745	0.00016685	0.00038808	5.3625e-05	1182.1	3.6955e-06	2.9744e-06	1242.7	235.46	5.1138e-06	4.2426e-06	298.73	83.699	64.722	18.781	2.8876e-06	26.813	0.0003765	0.00038566	0.000107	1139.5	4.1584e-06	4.2186e-06	1214.1	232.89	4.1857e-06	4.1909e-06	294.38	84.515	65.984	19.33	4.1851e-06	27.585	211.698	-113.175	126.633	-107.591	15.332	66.400	-107.531	-100.467	44.118	-46.371	-100.584	-94.577	-93.822	-86.658	47.332	-87.070	-8191	255	
800.732	1	1	0	0	0.21425	0.21665	0.15957	0.22645	0.044574	0.28937	0.30797	0.18952	0.24515	0.23624	0.059237	0.10037	0.20527	0.21597	0.11563	0.059508	-2.6625	-2.8354	-2.9354	-3.1521	-2.9125	-2.9688	-3.0583	-2.7562	-3.0312	-2.9104	-2.8146	-3.1229	-2.7062	-3.1208	-3.0354	-2.9042	93.547	90.662	128.725	-48.403	83.324	148.024	85.438	233.038	163.429	169.839	219.565	200.609	228.306	-90.304	139.838	-3.420	0.00011331	0.0007288	2.8393e-05	1174	3.55e-06	4.9648e-06	1242.3	234.21	2.8163e-06	9.8557e-06	295.5	83.352	64.181	18.949	3.9729e-06	27.084	0.00037432	0.00037786	0.00010502	1136.2	4.1702e-06	4.1154e-06	1213.3	232.17	4.0602e-06	4.0879e-06	292.96	84.388	65.708	19.405	4.1562e-06	27.629	179.866	225.077	-11.391	-107.540	-5.697	112.333	-107.237	-100.381	-56.977	56.086	-100.508	-94.422	-93.880	-86.160	-16.143	-87.061	-8191	255	
800.828	1	1	0	0	0.18076	0.21086	0.033349	0.33089	0.14962	0.16101	0.27725	0.11461	0.17329	0.15331	0.2723	0.29589	0.26906	0.12827	0.34142	0.22142	-2.4562	-2.7917	-2.7	-3.1604	-2.7917	-3.0333	-3.3	-2.9146	-3.0083	-2.9	-2.6729	-3.1708	-2.6979	-3.075	-3.0187	-2.9479	-82.616	34.000	-5.468	205.961	-35.119	-45.064	179.863	-49.319	-65.888	231.526	-24.917	213.423	208.756	191.356	-54.953	-55.799	8.198e-05	0.00051642	0.00025511	1176.3	1.0276e-06	5.1031e-06	1240.9	234.84	4.5207e-06	4.7301e-06	296.26	83.715	64.292	18.858	2.9017e-06	26.902	0.00037713	0.00037875	0.00010734	1140.5	4.2082e-06	4.1652e-06	1214.7	232.56	4.1559e-06	4.148e-06	293.11	84.467	65.946	19.326	4.1576e-06	27.654	231.725	234.002	-60.513	-107.509	13.574	-60.904	-107.314	-100.307	-67.265	147.097	-100.364	-94.383	-93.759	-86.824	-2.525	-87.318	-8191	255	
800.924	1	1	0	0	0.19608	0.065744	0.13296	0.25228	0.036367	0.088829	0.12028	0.2556	0.16219	0.2167	0.062652	0.12312	0.17372	0.057564	0.17666	0.13875	-2.5042	-2.8042	-2.8125	-3.1479	-2.9667	-2.9125	-3.1542	-2.9	-2.9021	-3.0896	-2.9229	-2.8833	-2.9625	-2.8625	-3.1083	-2.6979	-59.133	11.269	128.198	102.295	-32.184	198.980	-106.421	170.945	-106.230	-74.699	46.612	147.796	15.297	-66.213	-14.201	-115.921	0.00016627	0.00039749	4.4977e-05	1182.4	1.0166e-06	7.7679e-06	1244.1	233.85	4.5074e-06	6.4644e-06	296.75	83.537	64.414	18.896	5.8512e-06	27.001	0.00037502	0.00038877	0.00010764	1140.1	4.2238e-06	4.1716e-06	1215	232.33	4.1416e-06	4.1435e-06	293.56	84.467	65.861	19.37	4.08e-06	27.591	209.695	28.783	229.641	-107.568	79.922	-84.446	-107.469	-100.533	154.293	169.140	-100.610	-94.011	-93.543	-86.915	-42.239	-86.849	-8191	255	
801.021	1	1	0	0	0.06712	0.1073	0.062228	0.049577	0.22632	0.09221	0.071176	0.37339	0.2953	0.088911	0.26503	0.012578	0.085866	0.22308	0.091943	0.061373	-2.6458	-2.8708	-2.8042	-3.125	-2.6854	-2.8646	-3.375	-2.8083	-2.9062	-2.9771	-2.7042	-3.1375	-2.8458	-2.8833	-3.0292	-2.8792	-25.616	146.008	137.209	185.034	-100.779	-18.934	105.888	133.132	193.563	107.119	217.973	84.397	225.588	46.809	140.521	177.194	5.6229e-05	0.00047403	9.3195e-05	1174.3	4.1085e-06	3.097e-06	1243.6	234.33	3.4335e-06	4.4727e-06	296.23	83.412	64.459	18.776	2.3796e-06	27.16	0.00036609	0.00038013	0.00010568	1138.2	4.2363e-06	4.2131e-06	1215.7	232.37	4.2276e-06	4.2274e-06	293.27	84.671	66.072	19.392	4.237e-06	27.728	219.314	23.411	90.398	-107.143	125.461	-72.558	-107.690	-100.321	240.954	94.244	-100.782	-94.274	-93.975	-86.543	197.815	-87.492	-8191	255	
801.117	1	1	0	0	0.29051	0.18854	0.10869	0.20249	0.10255	0.26526	0.11997	0.1745	0.06153	0.037061	0.15843	0.29957	0.081158	0.13118	0.10992	0.22758	-2.65	-3.0542	-2.5563	-3.0292	-2.925	-2.9437	-3.1625	-2.7812	-2.8604	-3.0458	-2.9542	-3.0771	-2.925	-2.7542	-3.0812	-2.775	-2.401	210.101	71.355	-103.726	18.081	131.266	118.681	205.098	142.546	240.208	166.151	165.547	-40.622	174.664	194.373	-102.480	0.00018499	0.00049403	3.812e-05	1186	2.9808e-06	2.2804e-06	1243.5	235.4	3.8282e-06	5.155e-06	297.31	83.125	63.974	18.912	3.0847e-06	26.924	0.00038448	0.00038388	0.00010811	1142.2	4.2515e-06	4.2709e-06	1216.4	233.12	4.3094e-06	4.3267e-06	294.4	84.531	65.965	19.386	4.2663e-06	27.672	197.470	229.887	23.822	-107.537	94.688	45.240	-107.594	-100.436	-71.965	61.677	-100.452	-94.463	-94.282	-86.223	-44.156	-86.793	-8191	255	
801.237	1	1	0	0	0.22873	0.12547	0.088653	0.17191	0.051155	0.21168	0.13258	0.12886	0.11441	0.25713	0.094967	0.1464	0.057827	0.013167	0.20461	0.13969	-2.2958	-3.1625	-2.6542	-2.8146	-3	-2.8438	-3.3083	-3.1667	-2.9	-3.1292	-2.9083	-2.8604	-2.9521	-2.8146	-2.9479	-2.7542	229.843	-7.280	-72.546	49.265	197.458	161.971	163.896	171.131	154.784	208.592	222.272	16.210	-105.180	148.635	-51.136	191.714	9.849e-05	0.00038772	2.6405e-05	1194	3.6242e-06	7.4209e-06	1245	235.32	2.2509e-06	8.5905e-06	297.77	83.134	64.024	18.873	9.2243e-06	26.992	0.00038024	0.00038937	0.0001089	1144.7	4.3169e-06	4.3173e-06	1218.4	233.26	4.2888e-06	4.3165e-06	294.02	84.829	66.239	19.454	4.3743e-06	27.694	207.282	-73.364	46.329	-107.728	135.310	87.426	-107.343	-100.455	91.659	61.554	-100.640	-94.339	-94.314	-86.533	39.016	-87.161	-8191	255	
801.332	1	1	0	0	0.22027	0.11897	0.071098	0.20135	0.04627	0.20302	0.13838	0.21641	0.16955	0.28625	0.084494	0.15239	0.27975	0.17685	0.034941	0.1906	-2.5479	-3.0146	-2.75	-2.8688	-2.9917	-2.825	-3.3792	-3.0312	-2.7188	-2.9854	-2.95	-3.0125	-2.9917	-2.7396	-2.9292	-2.9792	142.754	121.596	199.440	-99.100	-10.998	-74.371	203.224	176.521	200.299	48.994	110.213	-75.283	-93.727	-110.546	26.690	202.233	0.00019524	0.00041745	0.00015866	1195.2	1.3006e-06	1.0018e-06	1247.3	235.07	6.4918e-06	2.8779e-06	298.39	83.517	64.051	18.84	1.9795e-06	26.935	0.00038794	0.0003988	0.00011161	1149	4.375e-06	4.3771e-06	1220.1	233.33	4.4128e-06	4.3611e-06	294.63	84.777	66.288	19.477	4.3866e-06	27.772	195.427	-4.519	6.646	-107.266	210.481	157.848	-107.603	-100.311	-71.614	40.410	-100.715	-94.484	-93.902	-86.438	-74.783	-87.116	-8191	255	
801.428	1	1	0	0	0.23414	0.074313	0.029757	0.10311	0.215	0.12793	0.20584	0.27387	0.10166	0.02871	0.19891	0.11916	0.047998	0.041451	0.21016	0.059397	-2.2167	-2.9354	-2.825	-2.9854	-3.0833	-2.8229	-3.0146	-3.0438	-2.825	-3.1	-2.7667	-2.8833	-3.3417	-2.6354	-2.8792	-2.9167	216.478	112.070	106.401	82.278	52.089	-65.559	175.963	127.695	-27.619	176.398	123.335	161.064	-22.537	170.266	-63.232	75.544	0.00010929	0.00051424	0.00017884	1195.3	3.4314e-06	8.3466e-06	1249.8	235.36	6.6514e-06	3.5189e-06	298.05	83.285	64.451	18.912	4.7029e-06	27.108	0.00038992	0.00039435	0.00011273	1152.3	4.4203e-06	4.4309e-06	1222.7	233.66	4.4675e-06	4.3935e-06	295.45	84.902	66.235	19.448	4.4362e-06	27.846	-99.491	236.563	167.160	-107.406	23.340	85.788	-107.351	-100.295	32.311	52.032	-100.791	-94.485	-93.934	-86.707	141.356	-87.168	-8191	255	
801.524	1	1	0	0	0.28973	0.16682	0.12111	0.1766	0.051602	0.067445	0.31987	0.093229	0.035155	0.14399	0.18658	0.20888	0.2307	0.16883	0.038608	0.20093	-2.3479	-3.0083	-2.7812	-2.7687	-3.0083	-2.7771	-3.1458	-3.0125	-2.8042	-3.0833	-2.8375	-2.6562	-3.3187	-2.7979	-2.9688	-3.0333	-101.238	182.291	188.460	-92.829	183.626	-77.162	199.757	7.316	-24.303	88.646	119.791	-39.757	213.123	-22.509	221.214	-41.485	0.00014657	0.00066042	0.00011627	1192.3	3.504e-06	3.9911e-06	1250.8	236.51	1.8782e-06	5.5065e-06	297.82	83.158	65.024	18.989	1.9562e-06	27.162	0.00039712	0.00040882	0.0001117	1151.6	4.465e-06	4.4527e-06	1223.4	234.08	4.4797e-06	4.444e-06	295.26	84.871	66.674	19.483	4.4518e-06	27.855	196.906	-54.126	-108.058	-107.172	-39.945	4.456	-107.573	-100.142	-30.795	17.344	-100.820	-94.542	-93.979	-86.583	117.668	-87.170	-8191	255	
801.620	1	1	0	0	0.12699	0.24366	0.097404	0.10686	0.17428	0.10113	0.23641	0.08585	0.14978	0.062543	0.32001	0.25286	0.072778	0.037722	0.15976	0.25066	-2.2375	-2.9042	-2.7667	-2.7396	-3.1146	-2.6854	-2.9667	-3.025	-2.6771	-2.9917	-2.9792	-2.7938	-3.2062	-2.7208	-2.8083	-3.2125	25.963	38.874	89.488	189.734	31.812	-30.676	125.573	113.465	-25.354	-37.066	208.370	160.792	180.751	78.596	14.975	140.216	0.0001086	0.00042868	0.00018832	1190.6	1.5397e-06	9.7337e-06	1249.1	234.67	5.892e-06	4.5804e-06	298.65	83.106	64.706	18.93	4.3653e-06	27.251	0.0003939	0.00040285	0.00011215	1151.3	4.3992e-06	4.3961e-06	1224.3	233.67	4.4055e-06	4.3934e-06	295.67	84.898	66.469	19.484	4.3885e-06	27.881	206.873	-28.625	-35.400	-107.460	-94.057	0.967	-107.494	-100.253	-46.247	200.819	-100.709	-94.802	-94.027	-86.565	22.087	-86.997	-8191	255	
801.716	1	1	0	0	0.11612	0.070269	0.11307	0.18993	0.041269	0.056385	0.22177	0.050575	0.18219	0.051201	0.31339	0.28387	0.026721	0.19704	0.29795	0.070333	-2.2542	-2.9354	-2.7667	-2.8125	-3.0979	-2.8271	-3.0542	-3.0875	-2.7083	-3.0125	-3.1083	-2.6708	-2.975	-2.7438	-2.8438	-3.2292	207.981	157.733	84.471	152.988	-3.432	-9.052	130.096	-48.869	231.328	207.386	224.521	184.887	29.624	163.569	-72.310	63.386	0.00017316	0.00021715	3.0661e-05	1195.8	4.2605e-06	3.3338e-06	1250.8	236.06	1.1022e-06	3.8497e-06	297.01	83.975	65.098	18.922	8.3675e-06	27.092	0.00039709	0.00040846	0.00011289	1156.8	4.4632e-06	4.4938e-06	1225.3	233.75	4.523e-06	4.5265e-06	295.1	85.048	66.742	19.512	4.4956e-06	27.866	195.998	74.901	-74.205	-107.573	-57.124	233.497	-107.385	-100.451	-83.332	18.671	-100.382	-94.152	-93.743	-86.585	88.914	-86.455	-8191	255	
801.813	1	1	0	0	0.12343	0.25317	0.18786	0.07593	0.23098	0.17223	0.27256	0.315	0.12883	0.080145	0.16147	0.27482	0.082297	0.36695	0.081278	0.051952	-2.3187	-2.8229	-3.0146	-2.8167	-2.9458	-2.9417	-2.8833	-3.0604	-2.7917	-3.0938	-3.0146	-2.9375	-3.1312	-2.7292	-2.7687	-3.1375	40.393	48.562	-25.013	-79.530	140.297	-10.669	132.040	114.076	-45.502	200.583	97.166	174.463	-5.407	183.948	-37.637	147.793	0.00016964	0.00057297	0.00015744	1201.9	4.0733e-06	1.3911e-06	1252	235.91	3.6454e-06	5.1214e-06	297.51	83.701	64.416	19.01	6.0518e-06	27.078	0.00040078	0.00041113	0.00011473	1156.9	4.5233e-06	4.5272e-06	1225.7	234.31	4.5441e-06	4.5609e-06	295.38	85.237	66.637	19.566	4.6022e-06	27.915	208.571	-26.327	-23.144	-107.229	51.474	35.695	-107.172	-100.282	218.240	-37.213	-100.586	-94.483	-94.006	-86.516	8.122	-87.044	-8191	255	
801.933	1	1	0	0	0.11316	0.21719	0.19458	0.022498	0.039854	0.14415	0.19544	0.37424	0.11426	0.21522	0.27045	0.082604	0.088202	0.059523	0.084793	0.23803	-2.3729	-2.8271	-3.1729	-2.9062	-2.9646	-2.9167	-2.8146	-3.1458	-2.8667	-2.8708	-3.05	-2.9396	-3.0438	-2.8979	-2.7167	-3.0417	-14.589	170.790	164.440	-34.420	-38.356	215.033	203.421	163.364	112.874	170.157	160.475	53.270	-9.234	193.487	-99.124	193.036	5.8958e-05	0.00017608	0.00014824	1198	3.3333e-06	7.2229e-08	1256	236.34	3.269e-06	9.3529e-06	298.19	83.886	64.714	18.975	4.1376e-06	27.062	0.00041656	0.00042324	0.00011853	1159.2	4.6573e-06	4.6346e-06	1226.8	234.58	4.6291e-06	4.6441e-06	295.64	85.402	66.921	19.626	4.6287e-06	27.886	211.772	53.071	1.536	-107.306	62.335	-5.271	-107.494	-100.407	-28.728	-92.499	-100.549	-94.357	-93.741	-86.767	36.772	-87.049	-8191	255	
802.029	1	1	0	0	0.3407	0.10138	0.11593	0.247	0.20005	0.16952	0.084228	0.27609	0.40475	0.24502	0.18856	0.1251	0.10583	0.2056	0.067244	0.27693	-2.5563	-2.9708	-2.9708	-2.925	-3.0083	-3.0083	-3.0563	-3.2313	-2.8083	-2.6167	-3.1063	-2.8187	-2.7979	-2.8792	-2.8896	-3.1479	160.045	176.847	61.421	133.519	29.787	27.074	123.377	200.463	-40.374	-98.573	-66.475	120.549	112.438	235.088	174.496	17.924	0.00016244	0.00060238	0.0001185	1193	5.0031e-06	5.8333e-06	1255.1	236.83	3.8077e-06	4.8193e-06	299.01	83.901	64.83	18.855	6.6935e-06	26.994	0.00040896	0.00041899	0.00011723	1159.6	4.6145e-06	4.6019e-06	1229.6	235.31	4.6057e-06	4.6189e-06	296.52	85.296	66.806	19.598	4.624e-06	27.954	220.515	-48.724	239.955	-107.261	79.347	129.218	-107.557	-100.752	-21.500	103.855	-100.902	-94.429	-94.252	-86.228	-36.501	-86.767	-8191	255	
802.124	1	1	0	0	0.090973	0.18353	0.26125	0.1489	0.0388	0.16028	0.35149	0.21432	0.087405	0.20861	0.19054	0.25331	0.29676	0.2979	0.061458	0.016031	-2.4271	-2.8312	-3.0875	-2.925	-3.0812	-2.9833	-2.8563	-2.9479	-2.9688	-2.9167	-2.9521	-2.8396	-2.9062	-3.0583	-2.8583	-3.1917	44.829	-99.065	215.020	-62.778	76.866	-98.748	205.163	-110.845	-34.601	-35.747	219.926	194.725	-104.045	-77.228	-29.576	44.137	8.7474e-05	0.00010934	0.00019829	1195	5.9909e-06	7.9464e-06	1251	236.05	5.5097e-06	4.9612e-06	298.57	83.475	64.961	18.886	2.5453e-06	27.215	0.000413	0.00042418	0.00011822	1161.9	4.6972e-06	4.6713e-06	1229.4	235.23	4.6439e-06	4.6576e-06	296.81	85.514	67.13	19.583	4.6525e-06	27.979	177.411	179.000	-76.795	-107.684	-28.743	69.437	-107.631	-100.448	-10.577	33.587	-100.622	-94.267	-93.779	-86.740	58.299	-87.017	-8191	255	
802.197	1	1	0	0	0.24968	0.039824	0.17312	0.21668	0.17168	0.069566	0.066987	0.17657	0.14551	0.057129	0.14501	0.048745	0.068637	0.19582	0.1746	0.19498	-2.3854	-2.7667	-3.2604	-2.8604	-2.95	-3.0417	-2.8187	-3.0396	-2.9125	-2.7708	-3.1188	-2.9167	-2.725	-3.1208	-2.7792	-2.9854	53.880	195.446	-15.358	179.963	86.651	11.963	72.494	199.369	232.945	-40.962	-81.425	-7.694	238.113	151.747	-69.978	186.338	0.0001434	0.00039295	0.00021724	1197.8	3.7103e-06	1.8991e-06	1254.1	236.05	6.5187e-06	3.5634e-06	298.16	83.919	64.955	19.004	2.1163e-06	27.042	0.00041348	0.00041989	0.0001188	1162.5	4.6052e-06	4.6291e-06	1229.3	234.92	4.6252e-06	4.666e-06	297.03	85.635	67.097	19.618	4.6231e-06	27.99	186.122	186.132	-69.050	-107.148	151.368	-90.780	-107.320	-100.344	211.191	38.423	-100.530	-94.391	-94.379	-86.491	110.858	-86.714	-8191	255	
802.316	1	1	0	0	0.18669	0.012441	0.051709	0.092251	0.096572	0.17665	0.21989	0.11011	0.077828	0.22155	0.29123	0.10087	0.13688	0.25908	0.31021	0.38701	-2.6375	-2.6521	-2.9292	-2.7812	-2.6104	-3.1333	-2.9042	-3.0958	-3.0271	-2.85	-3.0771	-2.8937	-2.7458	-3.1083	-2.8937	-2.7292	83.681	138.478	58.457	-70.274	-91.110	-34.280	214.675	191.162	8.969	153.323	46.437	192.802	205.439	221.978	208.814	2.226	0.00018446	0.00056978	0.0001479	1193.7	2.515e-06	4.5315e-06	1258	237.05	1.2514e-06	3.7777e-06	298.3	84.651	65.541	19.03	6.7415e-06	27.195	0.0004123	0.00042292	0.0001164	1161.8	4.5927e-06	4.6001e-06	1230.8	235.43	4.6492e-06	4.6219e-06	296.82	85.691	67.273	19.711	4.7951e-06	28.059	190.173	3.566	-106.417	-107.328	-2.946	131.477	-107.442	-100.391	-117.157	167.061	-100.594	-94.964	-93.866	-86.853	130.908	-87.078	-8191	255	
802.412	1	1	0	0	0.10666	0.1618	0.18082	0.17505	0.11167	0.19958	0.19801	0.20701	0.22307	0.14251	0.07198	0.14216	0.15497	0.17648	0.17623	0.15237	-2.6875	-2.7896	-3.0042	-2.9042	-2.6708	-3.1396	-2.8854	-2.9208	-2.9938	-2.8979	-2.9771	-3.0563	-2.7812	-3.0687	-2.7375	-2.9188	-64.075	144.155	138.107	134.509	-48.875	170.815	48.451	115.526	221.796	28.792	-52.185	-26.109	-49.729	61.140	-99.608	238.680	0.00019661	0.00078536	0.00012349	1203.6	2.2401e-06	7.2435e-06	1258.3	236.84	5.1794e-06	4.1332e-06	300.43	83.891	64.689	18.982	2.7514e-06	26.965	0.00041846	0.00043237	0.00012003	1164.9	4.683e-06	4.6785e-06	1232.4	235.58	4.6542e-06	4.7024e-06	297.67	85.498	67.097	19.604	4.7104e-06	28.024	219.582	-57.627	-40.279	-107.666	-30.079	43.287	-107.472	-100.478	-54.437	61.200	-100.664	-94.512	-94.480	-86.692	32.733	-86.803	-8191	255	
802.508	1	1	0	0	0.075257	0.048463	0.060614	0.030353	0.10554	0.12398	0.21034	0.045387	0.038083	0.15152	0.17283	0.13299	0.21767	0.17011	0.20859	0.088906	-2.6396	-2.5583	-2.9167	-3.2292	-2.5792	-3.1042	-3.0229	-2.9104	-3.05	-2.8	-3.0438	-3.0646	-3.0083	-3.1188	-2.7917	-2.9792	163.306	-53.584	-22.955	-75.687	-74.365	-6.886	168.868	-68.049	110.666	186.074	206.089	-56.076	166.891	-42.055	-9.012	-88.358	9.531e-05	0.00011269	0.0001295	1206	1.7936e-06	4.9252e-06	1251.3	236.55	1.0918e-06	5.1017e-06	299.63	84.063	65.171	19.027	4.7024e-06	27.166	0.00041313	0.0004238	0.00011742	1163.8	4.6272e-06	4.5644e-06	1229.8	234.95	4.6142e-06	4.6555e-06	296.51	85.304	66.896	19.615	4.6281e-06	27.952	201.853	27.075	172.987	-107.419	221.092	43.907	-107.407	-100.478	-113.972	-90.772	-100.671	-94.326	-94.355	-86.856	28.183	-87.507	-8191	255	
802.629	1	1	0	0	0.19595	0.13819	0.053253	0.29648	0.27271	0.25795	0.36696	0.25553	0.03092	0.3872	0.15206	0.073299	0.40225	0.36456	0.15947	0.19401	-2.6937	-2.7062	-3.1104	-3.0979	-2.8187	-2.9417	-2.9938	-2.8042	-3.1708	-2.9271	-3.1479	-2.9271	-2.7458	-3.1979	-2.7875	-2.7188	90.885	77.547	120.816	203.045	112.045	-114.795	197.972	207.194	-52.933	197.305	122.578	-107.652	157.413	-116.947	213.865	153.080	7.342e-05	0.00053087	5.99e-05	1196.5	2.2602e-06	1.6173e-06	1255.4	235.7	4.7197e-06	2.92e-06	299.03	83.662	65.247	19.017	3.393e-06	26.989	0.00041206	0.00041923	0.00011577	1160.6	4.5678e-06	4.5688e-06	1230.1	234.67	4.5701e-06	4.6155e-06	296.17	85.379	66.918	19.602	4.6464e-06	27.943	232.500	-40.666	116.090	-107.480	31.423	116.129	-107.683	-100.262	8.185	-32.842	-100.725	-94.874	-94.514	-86.587	140.662	-87.076	-8191	255	
802.725	1	1	0	0	0.052517	0.21469	0.35448	0.16406	0.040101	0.10507	0.10602	0.12042	0.11066	0.089752	0.15836	0.072449	0.16887	0.029482	0.09679	0.11777	-2.4917	-2.7083	-2.9021	-3.0083	-2.6333	-3.0604	-2.9208	-2.8063	-3.0833	-2.7271	-2.8979	-3.1625	-2.7292	-3.0771	-2.975	-2.7125	-4.226	-81.163	-21.958	228.925	89.030	32.963	173.966	-6.459	172.535	71.550	218.685	86.900	-92.391	29.286	-78.917	73.515	0.00011184	0.00031267	0.00019789	1190.3	6.9782e-06	1.0449e-05	1256.2	236.71	1.8878e-06	2.7196e-06	298.71	83.364	65.481	18.978	4.5397e-06	27.241	0.00040904	0.00041948	0.00011778	1161.6	4.6357e-06	4.6325e-06	1230.3	235.36	4.5634e-06	4.5915e-06	296.66	85.218	67.015	19.595	4.5534e-06	27.943	211.552	-9.017	-13.665	-107.317	73.784	103.957	-107.414	-100.670	-11.802	39.361	-100.556	-94.455	-93.945	-86.790	-79.965	-87.180	-8191	255	
802.797	1	1	0	0	0.14645	0.2822	0.30218	0.40813	0.12671	0.015673	0.082873	0.087422	0.13492	0.26441	0.15134	0.30994	0.37557	0.31782	0.10117	0.18076	-2.8375	-2.8417	-2.7938	-3.1437	-2.7313	-3.1521	-3.2021	-2.8438	-2.9813	-2.7896	-2.8771	-2.9979	-2.8563	-2.9562	-2.9229	-2.7667	-94.738	174.471	-95.050	130.654	233.466	-77.129	-54.416	61.741	123.186	-62.001	104.554	226.663	-104.732	177.214	47.804	-41.622	0.00011756	0.00061161	0.00021216	1190.8	1.9175e-06	5.2961e-06	1248.3	237.22	2.5732e-06	2.5758e-06	297.51	83.655	64.853	19.049	5.5443e-06	27.115	0.00039871	0.00040805	0.00011285	1156	4.4761e-06	4.4143e-06	1224.1	234.59	4.3873e-06	4.4954e-06	295.59	85.092	66.447	19.529	4.4792e-06	27.861	209.356	35.037	-3.662	-107.437	3.601	20.433	-107.450	-100.206	-67.643	155.135	-100.549	-94.617	-93.742	-86.730	-32.538	-86.937	-8191	255	
802.917	1	1	0	0	0.12907	0.11078	0.21509	0.24739	0.20419	0.12879	0.21986	0.18486	0.25077	0.1655	0.1515	0.29346	0.096245	0.17231	0.12879	0.081981	-2.5875	-2.8479	-2.775	-3.0729	-2.7188	-3.2208	-2.9479	-2.6583	-2.8854	-2.9875	-2.7646	-3.2167	-2.8542	-3.0125	-3.0646	-2.6813	24.512	-55.811	-0.963	76.481	70.315	-65.496	50.789	206.648	1.249	109.990	163.846	150.884	175.740	236.895	73.017	76.831	0.00012606	0.00011838	0.00015018	1201.8	1.4195e-06	4.1517e-06	1253.9	235.54	1.7325e-06	1.8316e-06	299.45	83.609	64.598	18.985	4.8519e-06	27.331	0.00039804	0.00040977	0.00011333	1158.5	4.4587e-06	4.4466e-06	1224.8	233.99	4.371e-06	4.3784e-06	296.22	84.961	66.518	19.515	4.3082e-06	27.795	217.064	-7.652	-117.378	-107.526	-17.606	67.521	-107.531	-100.285	156.681	46.642	-100.739	-93.988	-93.931	-86.848	49.220	-86.836	-8191	255	
803.014	1	1	0	0	0.17473	0.21845	0.15263	0.13122	0.090765	0.1764	0.36771	0.19167	0.21824	0.27922	0.29404	0.11586	0.061288	0.19726	0.011473	0.25445	-2.525	-2.8979	-2.6542	-3.1063	-2.7646	-2.9	-3.0187	-2.7208	-3.1479	-2.8521	-2.7313	-3.0938	-2.9437	-2.6583	-3.2021	-2.7188	238.430	181.572	-18.268	-85.232	173.571	-74.169	178.384	-50.101	-111.049	216.906	92.455	-20.363	27.332	-101.545	126.544	102.631	9.3138e-05	0.00042999	0.00012623	1193.9	5.9794e-06	5.1032e-06	1249.5	234.88	5.1902e-06	4.1991e-06	295.93	83.906	64.815	18.987	4.3282e-06	27.083	0.00038025	0.00039115	0.00010789	1149.7	4.2643e-06	4.2824e-06	1221.7	233.74	4.2933e-06	4.2995e-06	294.32	84.699	66.252	19.468	4.2512e-06	27.72	149.110	-32.146	117.961	-107.504	21.829	-5.487	-107.330	-100.450	-30.038	-15.377	-100.738	-94.240	-93.682	-86.560	-11.164	-87.125	-8191	255	
803.110	1	1	0	0	0.13862	0.16865	0.15521	0.11286	0.012159	0.21623	0.26603	0.27877	0.064857	0.070836	0.13698	0.26813	0.18738	0.19351	0.068376	0.061148	-2.6208	-2.8958	-2.6042	-3.1083	-2.8542	-2.9125	-3.3104	-2.7854	-3	-3.0354	-2.7625	-3.2021	-2.8875	-2.8563	-3.0729	-3.1042	168.690	219.305	-37.831	44.637	93.498	-61.457	209.822	-106.147	4.535	15.789	-56.504	237.423	-27.712	-88.743	-23.896	204.999	5.2735e-05	0.00065602	0.00022889	1191.6	3.4194e-06	9.526e-06	1247.1	234.7	1.4371e-06	1.9039e-06	298.43	83.499	64.609	18.914	7.3853e-06	26.988	0.00037681	0.00038489	0.00010678	1146	4.1671e-06	4.1579e-06	1216.7	232.72	4.2205e-06	4.2027e-06	293.81	84.614	65.96	19.406	4.3093e-06	27.692	210.748	-92.132	27.063	-107.717	55.132	-104.337	-107.291	-100.224	-93.058	11.741	-100.453	-94.627	-94.229	-86.636	29.382	-86.889	-8191	255	
803.229	1	1	0	0	0.18485	0.19494	0.15862	0.17946	0.24536	0.1836	0.037074	0.20312	0.11379	0.11759	0.13757	0.059627	0.15665	0.11209	0.091515	0.11297	-2.6312	-2.9729	-2.725	-3.0625	-2.9688	-2.8229	-3.3667	-3.0667	-2.8438	-3.0021	-2.8146	-3.0708	-2.9813	-2.6875	-3.1333	-2.7812	10.059	152.750	91.042	0.751	113.714	-95.496	184.962	187.604	32.443	21.199	-74.918	-44.530	0.268	106.093	89.849	-47.083	0.00010543	0.00070608	0.00020922	1191.2	8.7792e-07	3.0612e-06	1249.7	234.84	2.9924e-06	6.704e-06	298.88	83.246	64.498	18.858	5.8075e-06	27.128	0.00038504	0.00040066	0.00011225	1153.3	4.464e-06	4.488e-06	1221.1	233.35	4.4311e-06	4.4173e-06	295.19	84.617	66.194	19.421	4.4307e-06	27.753	198.295	12.785	5.611	-107.732	-112.836	-54.856	-107.404	-100.404	-79.016	89.010	-100.399	-94.488	-94.134	-86.355	94.168	-86.984	-8191	255	
803.325	1	1	0	0	0.064468	0.2077	0.13304	0.096881	0.11207	0.17281	0.24459	0.27595	0.16358	0.21593	0.28084	0.12685	0.16124	0.14463	0.16137	0.11257	-2.5854	-2.9479	-2.7562	-3.0479	-2.9062	-2.7542	-3.2583	-3.0396	-2.8333	-3.1333	-2.8667	-3.1271	-3.1542	-2.8479	-3.1063	-2.8667	14.488	-88.531	45.857	-113.753	169.406	-74.770	218.163	80.630	173.502	-44.568	162.749	190.471	190.355	123.682	13.076	-11.365	0.00013198	0.00012857	0.00013281	1195	5.7723e-06	3.6663e-06	1249.1	235.91	2.6398e-06	7.331e-06	298	82.756	64.118	18.749	2.3677e-06	27.204	0.00039964	0.00040458	0.00011288	1151.6	4.3818e-06	4.4044e-06	1219.5	233.64	4.3578e-06	4.3491e-06	294.73	84.498	66.028	19.331	4.3329e-06	27.734	208.083	-113.734	-9.405	-107.700	-16.216	180.508	-107.422	-100.507	40.032	39.106	-100.702	-94.553	-94.282	-86.639	51.392	-87.176	-8191	255	
803.421	1	1	0	0	0.1415	0.11887	0.13461	0.29551	0.05605	0.34691	0.16738	0.25315	0.14632	0.19692	0.19074	0.11687	0.3416	0.026473	0.16683	0.13754	-2.3625	-3.0792	-2.6333	-3.0625	-2.85	-2.7687	-3.1625	-3.0729	-2.7896	-3.2396	-2.7604	-2.9958	-2.9375	-2.7375	-3.1896	-2.6833	-61.123	-87.442	27.777	191.871	3.074	-98.673	187.322	133.467	77.958	-21.584	-52.205	127.886	171.366	193.567	205.866	-83.597	0.00012229	0.00019278	0.00023654	1188.1	3.1343e-06	7.4584e-06	1240.6	233.11	2.5854e-06	2.1166e-06	295.33	83.167	64.86	18.594	4.5073e-06	27.027	0.00038212	0.00038734	0.00010985	1144.2	4.2208e-06	4.2319e-06	1211.4	232.08	4.1812e-06	4.2067e-06	292.54	84.149	65.912	19.227	4.1959e-06	27.581	225.855	149.136	-8.823	-107.309	-50.206	80.385	-107.344	-100.294	103.989	-7.793	-100.631	-94.236	-93.877	-86.331	-102.190	-86.341	-8191	255	
803.493	1	1	0	0	0.45861	0.08237	0.10516	0.033662	0.1958	0.19601	0.21044	0.070175	0.12506	0.18766	0.38487	0.20452	0.075991	0.20544	0.16943	0.219	-2.4875	-3.0354	-2.6354	-2.7896	-3.2104	-2.8521	-3.1917	-3.1437	-2.8229	-3.275	-2.875	-2.9708	-2.9604	-2.9146	-2.8438	-2.8604	-71.505	50.182	-115.989	-57.940	-63.156	219.740	224.998	191.162	157.571	131.934	188.270	-102.550	223.528	229.295	-78.888	198.613	6.3134e-05	0.00027787	0.00016582	1179.3	6.1781e-07	2.8529e-06	1238.6	234.85	2.7343e-06	3.595e-06	294.94	83.278	64.343	18.773	4.8649e-06	27.215	0.00038547	0.00039751	0.00011181	1144.2	4.5187e-06	4.5907e-06	1217.1	233.31	4.6835e-06	4.7793e-06	295.5	84.923	66.6	19.451	4.8244e-06	27.965	223.332	10.804	-30.554	-107.135	-53.339	72.132	-107.421	-100.398	81.409	-39.051	-100.369	-94.087	-93.872	-86.996	47.300	-87.113	-8191	255	
803.613	1	1	0	0	0.19066	0.24805	0.16348	0.256	0.2239	0.22681	0.33673	0.24006	0.086699	0.19585	0.030117	0.23525	0.094387	0.073892	0.28851	0.19752	-2.4375	-3.0458	-2.6479	-2.8021	-3.1125	-2.6042	-3.0438	-3.0458	-2.7083	-2.9062	-2.7771	-2.6479	-3.2083	-2.8729	-2.7854	-3.1646	116.963	-100.167	-80.016	117.170	-58.041	139.144	112.377	229.238	152.273	-93.342	141.491	127.693	196.058	214.953	32.756	-85.696	0.00012108	0.00016046	6.6542e-05	1183.9	7.1107e-06	8.9185e-06	1251	234.07	4.1902e-06	3.3616e-06	298.55	83.086	64.303	18.788	4.7603e-06	26.982	0.00042089	0.00043726	0.00012142	1152.6	4.7496e-06	4.8357e-06	1223	233.59	4.7503e-06	4.8083e-06	296.12	84.994	66.784	19.489	4.8705e-06	27.951	195.181	185.128	26.214	-107.200	-48.557	90.734	-107.274	-100.595	-10.349	92.342	-100.209	-94.564	-93.847	-87.130	48.668	-86.872	-8191	255	
803.709	1	1	0	0	0.20288	0.064652	0.086046	0.19445	0.045735	0.030078	0.17249	0.16592	0.1228	0.069851	0.057694	0.26772	0.13091	0.08394	0.24046	0.11823	-2.2896	-2.9917	-2.7896	-2.8375	-3.0146	-2.75	-3.0708	-3.1188	-2.6208	-3.0792	-2.925	-2.9562	-3.0792	-2.8771	-2.7333	-3.1437	-14.701	-107.894	173.175	-62.881	-45.615	-27.214	236.757	170.877	-106.725	202.564	-103.174	240.909	-101.765	4.698	-49.342	230.679	0.00011792	0.00068714	0.00010198	1196.6	4.1534e-06	4.8931e-06	1254	235.61	2.0585e-06	4.7341e-06	297.31	83.472	64.22	18.859	2.06e-06	27.057	0.00043105	0.00044501	0.00012422	1161.6	4.896e-06	4.876e-06	1226.8	234.43	4.9616e-06	4.9515e-06	296.22	85.15	66.989	19.546	5.0184e-06	27.999	191.916	-36.083	-82.694	-107.405	94.791	41.983	-107.330	-100.372	-89.401	-41.588	-100.649	-94.398	-93.951	-86.946	156.468	-87.017	-8191	255	
803.805	1	1	0	0	0.088611	0.2236	0.17653	0.18321	0.20984	0.14624	0.21859	0.083424	0.10756	0.1538	0.32197	0.096971	0.16559	0.2752	0.16789	0.055529	-2.3937	-2.9479	-2.9938	-2.5563	-3.075	-2.8833	-3.0354	-3.1625	-2.7854	-3.0292	-2.9271	-2.6792	-3.0146	-2.7229	-2.8146	-3.0062	222.304	-84.730	56.900	229.497	-111.024	106.741	121.952	195.224	22.772	103.504	87.072	232.030	-28.148	221.586	198.775	156.265	0.00012119	0.00076686	0.000155	1190.7	1.1803e-06	7.6286e-06	1251	235.21	6.0737e-07	2.4417e-06	297.67	83.374	64.635	18.749	2.2245e-06	27.104	0.00044811	0.00045928	0.00012744	1165.7	4.9776e-06	5.0337e-06	1227.4	234.4	4.9383e-06	4.9587e-06	296.53	85.182	66.92	19.51	4.971e-06	28.03	184.252	-65.542	-53.413	-107.377	192.346	79.354	-107.613	-100.177	-32.417	67.314	-100.422	-94.536	-93.959	-86.907	25.484	-87.032	-8191	255	
803.902	1	1	0	0	0.085384	0.25223	0.15786	0.35485	0.13265	0.12591	0.25734	0.086338	0.071723	0.12156	0.17074	0.15142	0.086523	0.22762	0.17467	0.17833	-2.1667	-2.9479	-2.8875	-2.7333	-2.8729	-2.9104	-2.8438	-3.1479	-2.7917	-2.7875	-3.0625	-2.7479	-3.0042	-2.7854	-2.7875	-3.1271	176.401	-77.466	113.262	225.926	211.233	49.888	154.949	-31.106	33.600	-102.134	16.950	-34.451	216.472	201.500	-34.960	-45.737	0.00019468	0.00011973	6.4719e-05	1189.5	2.714e-06	5.0501e-06	1247.2	235.18	1.9074e-06	5.5125e-06	297.31	82.818	64.06	18.762	2.7983e-06	27.188	0.00044215	0.00045428	0.00012642	1163.9	5.0097e-06	4.9937e-06	1226.3	234.4	4.9759e-06	4.986e-06	296.88	85.094	66.983	19.574	5.0882e-06	28.083	204.891	35.885	-88.059	-107.609	23.812	73.243	-107.360	-100.110	20.520	38.969	-100.422	-94.889	-93.988	-86.559	127.298	-86.882	-8191	255	
804.020	1	1	0	0	0.31555	0.18596	0.096968	0.08025	0.058846	0.17129	0.4394	0.066741	0.2821	0.086406	0.20012	0.29519	0.15511	0.19266	0.046805	0.10555	-2.3021	-2.7875	-2.9167	-2.7125	-2.9729	-2.9062	-2.9979	-3.3042	-2.8708	-2.8792	-3.1688	-2.6354	-2.9521	-2.8625	-2.6	-3.0521	108.993	51.736	85.632	-112.865	135.679	109.436	191.945	193.791	9.889	-4.981	-86.371	129.166	112.351	-85.634	202.205	54.703	0.00013771	0.00036362	2.1746e-05	1199.4	4.2567e-06	2.0623e-06	1251.9	234.81	2.5047e-06	3.4723e-06	297.16	83.037	64.904	18.786	2.9313e-06	27.048	0.00045314	0.00046451	0.00012821	1168	5.0461e-06	4.9948e-06	1228.3	234.76	4.9783e-06	5.0102e-06	296.85	85.207	67.216	19.557	5.0346e-06	28.08	177.405	-23.323	-82.011	-106.952	29.033	37.719	-107.520	-100.284	-38.805	13.906	-100.358	-94.148	-93.693	-86.654	0.723	-87.028	-8191	255	
804.094	1	1	0	0	0.07079	0.23047	0.11513	0.3684	0.35064	0.10842	0.10508	0.17713	0.087026	0.1675	0.03565	0.17429	0.11379	0.1224	0.10941	0.12512	-2.4979	-2.8958	-3.0146	-2.7729	-2.8521	-2.8438	-2.9313	-3.2188	-2.8479	-2.8458	-3.1562	-2.7167	-2.9083	-2.9458	-2.7687	-3.0312	-97.782	-49.287	-3.530	199.158	156.042	199.312	175.033	210.516	163.134	-49.798	-37.568	-11.002	178.042	-78.044	9.882	24.730	9.1905e-05	0.00050888	0.00021764	1209.8	3.4509e-06	3.6911e-06	1257.7	235.98	4.301e-06	8.6626e-06	297.81	83.06	64.561	18.993	1.5885e-06	26.985	0.00044441	0.00045406	0.00012566	1166.6	4.9586e-06	4.9345e-06	1228.7	235.4	4.9143e-06	4.9837e-06	296.77	85.347	67.211	19.625	5.0804e-06	28.103	193.117	27.611	-11.193	-107.536	-1.312	17.029	-107.322	-100.391	19.833	111.419	-100.285	-94.407	-94.188	-87.011	203.103	-87.195	-8191	255	
804.190	1	1	0	0	0.28729	0.041501	0.11798	0.18	0.050521	0.21526	0.028484	0.12335	0.24312	0.24263	0.19768	0.20529	0.10362	0.12363	0.11539	0.25188	-2.1792	-2.6583	-3.1146	-2.8542	-2.9375	-3.1833	-2.7458	-3.025	-2.8667	-2.7812	-3.1333	-2.8521	-2.8583	-3.0979	-2.7458	-2.925	99.474	123.368	76.662	-58.930	113.507	194.052	-35.173	-103.610	143.545	154.116	-87.469	176.634	221.984	50.425	40.665	159.194	0.00011454	0.00041735	0.00014406	1195.2	2.4131e-06	6.5711e-06	1253.7	236.49	3.8757e-06	5.9716e-06	296.97	83.191	64.596	18.816	3.3263e-06	27.156	0.00044978	0.00046146	0.00012895	1167.8	5.0461e-06	5.0076e-06	1229.8	235.55	5.0587e-06	5.0978e-06	297.07	85.304	67.356	19.649	5.1622e-06	28.129	210.307	-40.600	-14.724	-107.463	-20.309	116.028	-107.588	-100.518	231.534	134.374	-100.512	-94.312	-93.869	-86.112	61.251	-86.820	-8191	255	
804.309	1	1	0	0	0.23824	0.10128	0.17731	0.076664	0.32249	0.23205	0.12927	0.12105	0.16281	0.089077	0.11665	0.41282	0.20227	0.10814	0.048072	0.25605	-2.5479	-2.6688	-2.9417	-2.7583	-2.8812	-3.0021	-2.7833	-2.9604	-2.9458	-2.8208	-3.0375	-2.8354	-2.7458	-2.9396	-2.8729	-2.975	-85.470	208.042	-85.971	-92.409	5.654	-86.912	223.515	169.773	230.229	166.021	-106.364	169.488	-45.211	139.085	227.487	146.712	0.00023186	0.00037504	0.00018862	1197.2	3.4275e-06	2.3071e-06	1253.5	235.51	3.6373e-06	2.5235e-06	298.45	83.211	64.484	18.758	1.2892e-06	27.092	0.00046088	0.00046764	0.00012917	1168.5	5.0566e-06	5.0538e-06	1228.4	235.31	4.9585e-06	4.9902e-06	297.34	85.494	67.203	19.534	5.017e-06	28.122	204.046	-47.563	-74.265	-107.806	58.309	74.906	-107.454	-100.614	226.262	-69.880	-100.508	-94.296	-93.714	-86.529	103.896	-87.449	-8191	255	
804.405	1	1	0	0	0.129	0.084951	0.15132	0.015425	0.10156	0.28777	0.14594	0.073453	0.042884	0.10044	0.016014	0.24361	0.14672	0.17798	0.17024	0.046366	-2.3521	-2.7667	-2.9729	-2.6979	-2.7708	-3.1833	-2.8646	-2.9146	-3.0042	-2.7	-3.0979	-2.9688	-2.8958	-3.2313	-2.7208	-3.0354	17.128	-117.528	192.883	-85.525	170.414	59.608	190.662	203.469	-50.626	168.225	203.505	185.585	180.258	191.784	95.059	2.380	5.869e-05	0.00066031	0.00012108	1190	2.7564e-06	3.2569e-06	1254.5	235.08	3.6961e-06	1.7433e-06	296.68	82.92	64.528	18.624	1.9938e-06	26.895	0.00044693	0.00045894	0.00012714	1162.8	4.9839e-06	4.9908e-06	1228.3	234.84	4.9872e-06	5.0135e-06	296.68	85.252	67.002	19.497	5.1038e-06	28.063	190.202	38.415	-6.809	-107.542	-14.756	-25.653	-107.538	-100.478	51.194	-49.828	-100.411	-94.414	-94.101	-86.556	99.553	-87.524	-8191	255	
804.501	1	1	0	0	0.12376	0.058619	0.15246	0.11388	0.09427	0.1375	0.15125	0.16387	0.18798	0.14421	0.18294	0.10782	0.23339	0.2257	0.12947	0.21171	-2.4417	-2.7917	-2.95	-3.0208	-2.6958	-3.0625	-2.8917	-2.95	-3.0229	-2.9562	-2.8937	-2.8479	-2.8583	-2.9771	-2.7396	-2.9042	220.083	-30.522	28.664	-39.760	-91.053	10.831	144.795	179.401	144.885	115.513	151.553	-89.212	-86.658	238.412	-109.282	-78.040	0.00018103	0.0002472	9.612e-05	1199.1	3.3877e-06	4.1459e-06	1250.6	234.8	1.9804e-06	2.9533e-06	298.87	83.19	64.316	18.672	5.8215e-06	27.123	0.00044848	0.0004637	0.00012979	1166.7	5.0491e-06	5.0325e-06	1228.7	234.84	5.0146e-06	5.0478e-06	297.66	85.449	67.129	19.573	5.0031e-06	28.083	195.170	-109.563	-60.621	-107.423	112.776	207.757	-107.301	-100.327	-117.208	212.998	-100.632	-94.456	-93.540	-86.567	5.275	-87.176	-8191	255	
804.597	1	1	0	0	0.14685	0.1308	0.1892	0.24324	0.082743	0.058293	0.39236	0.21932	0.11435	0.29104	0.1042	0.097793	0.073473	0.18705	0.19233	0.1525	-2.6583	-2.6125	-3.0604	-2.9208	-2.7667	-3	-2.8667	-2.9479	-2.9979	-2.8292	-3.1813	-2.725	-2.7083	-2.975	-2.8708	-2.9167	-32.254	83.992	46.154	198.194	25.984	156.007	-109.344	-56.627	2.620	-6.620	98.099	-94.380	-115.618	13.957	14.359	155.816	0.00010735	0.00071611	0.00022866	1198.3	3.9405e-06	5.0042e-06	1250.8	235.93	2.8393e-06	2.1198e-06	298.01	83.551	64.325	18.745	6.7333e-06	27.065	0.00044511	0.00045804	0.00012786	1163.6	4.9914e-06	4.9455e-06	1227.2	234.81	4.9364e-06	4.9983e-06	296.8	85.417	66.951	19.571	5.0542e-06	28.085	196.221	-2.067	-19.972	-107.685	50.617	13.486	-107.298	-100.346	28.059	63.921	-100.210	-94.154	-94.085	-86.442	16.261	-86.755	-8191	255	
804.694	1	1	0	0	0.18376	0.094648	0.053155	0.33338	0.06814	0.26635	0.092951	0.04345	0.14779	0.062652	0.1373	0.23572	0.16892	0.28217	0.16123	0.28428	-2.5792	-2.8271	-3.1521	-3.0938	-2.8521	-2.9813	-2.9292	-2.8875	-3.0312	-2.9229	-3.0333	-3.1083	-2.8167	-3.075	-2.7562	-2.8438	-6.152	162.645	-100.472	189.995	92.377	59.770	76.151	88.189	-66.874	158.869	-61.667	196.926	224.756	100.935	-110.119	141.832	0.00014616	0.00066038	0.00013498	1195.1	2.2222e-06	9.6624e-07	1252.9	236.03	4.5839e-07	4.5988e-06	297.98	83.139	64.609	18.837	5.8291e-06	26.964	0.0004433	0.00045872	0.00012731	1161.3	5.0142e-06	5.0348e-06	1226.4	235.44	5.0433e-06	5.0866e-06	296.58	85.364	67.155	19.585	5.0464e-06	28.102	189.493	-67.089	-56.216	-107.330	18.194	29.571	-107.387	-100.549	24.676	153.141	-100.631	-94.665	-93.893	-87.035	82.504	-86.840	-8191	255	
804.790	1	1	0	0	0.27373	0.11639	0.23826	0.22458	0.039895	0.14892	0.2528	0.10888	0.1433	0.16332	0.095193	0.026892	0.12204	0.11049	0.24379	0.13968	-2.7854	-2.7646	-2.7979	-3.0625	-2.7896	-2.9375	-2.8583	-2.9396	-3.0854	-2.8646	-3.0187	-3.0938	-2.7021	-3.1042	-2.925	-2.675	209.869	195.524	41.587	172.833	3.944	44.355	177.993	118.154	120.823	227.105	-84.255	134.649	-37.072	214.973	3.876	-105.100	8.7358e-05	0.00042819	0.00012135	1189.8	3.2631e-06	7.6767e-06	1248.2	236.17	8.0437e-06	8.0935e-06	297.89	83.628	64.006	18.812	4.3068e-06	27.061	0.0004479	0.00046235	0.00012907	1166.4	5.062e-06	5.0994e-06	1228.3	235.03	5.1263e-06	5.1883e-06	297.78	85.588	67.102	19.583	5.186e-06	28.17	210.652	-45.452	154.891	-107.658	60.684	17.900	-107.406	-100.378	9.635	86.962	-100.696	-94.451	-93.843	-86.329	-36.955	-87.052	-8191	255	
804.910	1	1	0	0	0.24767	0.029906	0.10075	0.10314	0.29622	0.17745	0.11007	0.217	0.1568	0.14179	0.12019	0.28512	0.10975	0.07194	0.18133	0.088766	-2.7521	-2.8229	-2.7333	-3.175	-2.7229	-3.1333	-3.0375	-2.6604	-3.15	-2.8729	-3.1813	-3.0917	-2.7313	-2.9917	-2.9917	-2.7583	143.266	177.563	190.328	123.395	-86.878	-86.464	144.770	164.137	-74.706	68.102	231.201	-92.594	19.906	137.731	150.471	22.328	0.00016631	0.00035046	4.2814e-05	1199.2	9.5712e-06	6.5529e-06	1253.4	235.39	2.3631e-06	6.1002e-06	298.51	83.498	64.815	18.842	3.8056e-06	27.037	0.00046791	0.00047666	0.00013358	1167.6	5.2358e-06	5.2142e-06	1231.2	235.7	5.2842e-06	5.3089e-06	297.5	85.66	67.598	19.673	5.3062e-06	28.249	220.197	230.063	-85.433	-107.371	137.027	-68.868	-107.506	-100.679	165.289	36.168	-100.756	-94.771	-93.980	-86.532	-32.685	-87.121	-8191	255	
805.006	1	1	0	0	0.058877	0.14293	0.19665	0.059787	0.25757	0.057306	0.15241	0.11096	0.29676	0.11923	0.049992	0.09512	0.094636	0.11628	0.15218	0.041619	-2.6667	-2.8396	-2.7979	-3.1417	-2.6813	-3.0229	-3.1625	-2.8479	-3.0417	-2.8375	-2.8458	-3.0979	-2.6729	-2.8	-2.9396	-2.8229	94.123	-73.579	108.142	-36.668	213.483	141.305	-93.716	224.954	116.338	33.073	-107.448	-35.003	173.742	-115.176	81.270	9.032	0.0001449	0.0002898	0.00017096	1197.8	4.5012e-06	2.3625e-06	1254.6	236.28	1.3822e-06	7.4298e-06	296.98	83.263	64.283	18.749	4.1134e-06	26.836	0.00047419	0.00048512	0.00013403	1171.2	5.2743e-06	5.2705e-06	1233.6	235.91	5.2404e-06	5.3269e-06	298.34	85.407	67.405	19.655	5.2557e-06	28.221	216.028	38.340	14.038	-107.548	190.151	127.104	-107.171	-100.371	14.236	76.323	-100.226	-94.318	-94.133	-86.782	-39.727	-87.152	-8191	255	
805.103	1	1	0	0	0.13519	0.14658	0.27537	0.11763	0.15673	0.15714	0.32151	0.13103	0.26448	0.10894	0.078923	0.13386	0.206	0.17484	0.19102	0.12	-2.5896	-2.9646	-2.6521	-3.0229	-2.8667	-3.0542	-3.2	-2.7083	-2.8229	-3.0208	-2.8104	-3.1458	-2.8063	-2.7521	-2.9542	-2.8729	21.548	129.873	210.743	219.307	35.186	181.038	81.563	208.820	-108.299	44.653	116.518	-8.701	-33.892	103.036	-35.852	-91.414	0.00013817	0.00070213	0.00020293	1199.8	3.3624e-06	7.718e-06	1257.9	234.9	3.3244e-06	1.9522e-06	297.87	83.485	64.192	18.863	3.996e-06	27.038	0.00047022	0.00048007	0.00013453	1173.4	5.2824e-06	5.2864e-06	1235	235.66	5.3222e-06	5.325e-06	298.05	85.654	67.262	19.67	5.2256e-06	28.135	220.747	-5.486	-15.691	-107.751	-57.585	76.615	-107.342	-100.355	26.768	-88.621	-100.518	-94.482	-94.010	-86.612	45.291	-86.943	-8191	255	
805.197	1	1	0	0	0.091152	0.13733	0.16279	0.2956	0.078125	0.093734	0.080605	0.11366	0.23549	0.094174	0.15562	0.073562	0.070437	0.086511	0.10648	0.11485	-2.4896	-2.8875	-2.7938	-2.9667	-2.8021	-2.7625	-3.2229	-2.7812	-2.9188	-2.9396	-2.8354	-2.9938	-3.0167	-2.7625	-3.1437	-2.625	-62.971	-18.260	86.209	166.101	35.703	56.980	177.448	228.178	221.885	-38.286	201.582	-71.110	-108.515	-86.290	103.166	81.774	0.0001458	0.00091028	7.6592e-05	1198.3	9.1563e-06	2.7457e-06	1255.9	236.76	3.7075e-06	2.7987e-06	299.64	83.005	64.669	18.721	5.1477e-06	27.318	0.00047043	0.00048167	0.00013347	1173.9	5.2829e-06	5.311e-06	1231.9	236.16	5.258e-06	5.2906e-06	298.44	85.773	67.594	19.589	5.3353e-06	28.29	198.010	-14.680	223.641	-107.695	-23.658	58.889	-107.461	-100.311	233.393	136.035	-100.536	-94.383	-93.917	-86.212	97.287	-87.171	-8191	255	
805.318	1	1	0	0	0.013553	0.25457	0.062865	0.048202	0.23583	0.15496	0.16104	0.25012	0.062152	0.17027	0.15655	0.04507	0.075623	0.14926	0.35449	0.28994	-2.5438	-2.9708	-2.8167	-3.0021	-2.7979	-2.9042	-3.1458	-2.9042	-2.7271	-3.0583	-2.8563	-2.9917	-2.9375	-2.5521	-3.1771	-2.9354	-108.346	68.796	-33.408	71.455	102.941	178.851	113.361	222.333	84.466	142.006	128.284	98.718	80.618	236.717	-114.321	151.830	0.00014431	0.00099172	0.00013618	1198.3	7.0007e-06	2.7573e-06	1255.3	235.41	7.3003e-07	2.5956e-06	297.41	83.231	64.716	18.825	2.2973e-06	26.999	0.00046932	0.00048368	0.0001337	1175.2	5.348e-06	5.3121e-06	1233.1	235.69	5.3438e-06	5.3062e-06	297.68	85.805	67.473	19.712	5.3523e-06	28.169	235.811	231.661	-118.165	-107.392	16.416	117.051	-107.554	-100.330	-95.298	140.579	-100.521	-94.409	-93.722	-86.929	184.091	-87.208	-8191	255	
805.389	1	1	0	0	0.11598	0.23532	0.12305	0.22886	0.19455	0.24047	0.3375	0.41513	0.14162	0.066116	0.21712	0.24418	0.24393	0.22218	0.19703	0.044884	-2.2125	-2.9562	-2.7208	-2.8187	-2.9	-2.8354	-3.075	-3.1667	-2.8208	-3.0646	-2.7667	-2.9708	-2.9854	-2.5812	-3.0396	-2.8104	13.859	187.825	-33.237	-74.032	207.636	205.949	226.554	219.096	55.743	24.596	214.514	108.208	214.993	-61.910	-40.656	193.667	8.723e-05	0.00032238	0.00010843	1199	3.7484e-06	2.2582e-06	1253.8	235.36	3.9319e-06	8.4165e-07	297.71	82.902	64.342	18.856	3.9358e-06	27.056	0.00046731	0.0004774	0.00013462	1172.7	5.2551e-06	5.2311e-06	1232.6	235.56	5.3613e-06	5.3612e-06	298.04	85.663	67.465	19.711	5.4206e-06	28.244	223.446	29.586	5.300	-107.518	-25.693	-40.909	-107.435	-100.204	-77.344	232.505	-100.324	-94.222	-93.901	-86.415	147.005	-86.572	-8191	255	
805.485	1	1	0	0	0.17374	0.25112	0.088319	0.11084	0.16309	0.19342	0.13456	0.27574	0.076602	0.13729	0.18399	0.059785	0.21341	0.089434	0.076919	0.28935	-2.4729	-2.8917	-2.6729	-3.0271	-2.8625	-2.775	-3.2229	-3.0917	-2.7708	-3.2062	-2.8312	-3.0479	-2.9854	-2.8333	-3.0729	-2.9729	185.138	-53.885	44.076	207.587	111.951	234.534	131.572	167.463	206.772	-97.598	72.264	-4.670	106.591	-17.534	225.655	10.147	0.00012812	0.00072879	0.00010854	1201.1	2.8415e-06	8.1675e-06	1255.4	236.12	2.9154e-06	1.1198e-06	298.55	83.284	64.431	18.741	8.5626e-06	27.025	0.0004774	0.00048789	0.00013602	1173.2	5.3505e-06	5.3277e-06	1233.7	236.17	5.3227e-06	5.3783e-06	298.58	85.621	67.306	19.647	5.2985e-06	28.191	192.758	129.122	-77.716	-107.723	-6.239	52.009	-107.074	-100.430	-64.298	119.628	-100.183	-94.429	-94.074	-87.234	-5.155	-86.621	-8191	255	
805.582	1	1	0	0	0.079329	0.11245	0.29594	0.13784	0.15423	0.14483	0.41784	0.052401	0.21194	0.1219	0.21926	0.042707	0.16108	0.39485	0.20625	0.1598	-2.425	-2.8354	-2.6208	-3.0375	-3.1229	-2.8042	-3.0687	-2.925	-2.7188	-3.1271	-2.9271	-3.0875	-3.1063	-2.7896	-3	-2.8375	-30.733	-109.265	-70.781	125.060	86.158	-115.700	198.127	211.731	-39.630	5.596	178.665	223.995	73.194	71.375	-69.431	139.094	8.3601e-05	0.00070274	9.6062e-05	1192	7.0729e-06	3.9606e-06	1253.6	236	6.492e-06	5.0968e-06	297.93	83.597	64.522	18.764	2.7699e-06	26.658	0.00046752	0.00048389	0.00013443	1171.9	5.2727e-06	5.3079e-06	1232.9	235.77	5.2733e-06	5.3512e-06	298.43	85.695	67.376	19.648	5.3105e-06	28.033	189.963	63.848	217.461	-107.568	15.433	53.180	-107.444	-100.605	-99.279	92.545	-100.739	-94.563	-93.785	-86.990	8.500	-86.531	-8191	255	
805.702	1	1	0	0	0.4176	0.23768	0.21299	0.13411	0.088058	0.085811	0.16696	0.12016	0.21301	0.042488	0.36973	0.049329	0.19237	0.26268	0.35729	0.11753	-2.2354	-2.8729	-2.8354	-2.9354	-3.075	-2.7375	-3.225	-2.9042	-2.7438	-3.1542	-2.9062	-2.9437	-3.1729	-2.8375	-3.1188	-3.0125	-51.017	188.535	190.857	-29.534	199.540	-60.981	196.317	240.165	76.200	185.284	144.907	12.133	101.181	120.814	209.876	194.123	9.9469e-05	0.0008818	0.00011585	1194.9	6.3023e-07	3.9256e-06	1252.6	235.58	1.0661e-06	1.9612e-06	297.72	83.28	64.087	18.805	5.6634e-06	26.98	0.00047253	0.00048062	0.0001341	1171.7	5.3307e-06	5.349e-06	1232.1	235.86	5.3591e-06	5.3196e-06	298.02	85.46	67.364	19.645	5.4229e-06	28.116	205.369	-9.075	-58.922	-107.597	-56.108	177.369	-107.173	-100.287	-105.191	226.531	-100.119	-94.663	-94.140	-86.655	25.983	-87.336	-8191	255	
805.798	1	1	0	0	0.12318	0.24922	0.095343	0.069674	0.1508	0.22507	0.25683	0.10536	0.091531	0.10395	0.10414	0.13829	0.24621	0.038941	0.19416	0.19173	-2.25	-3.0604	-2.7979	-2.8937	-2.9875	-2.7708	-3.0187	-3.1354	-2.6688	-3.1708	-2.8688	-2.6	-3.2375	-2.6937	-2.9375	-3.0375	-25.356	197.025	-102.078	-83.847	1.858	-50.145	182.397	238.701	-50.672	39.456	-4.008	150.928	173.882	-115.791	15.622	230.871	0.00010409	0.00058168	0.00016177	1196.4	2.2039e-06	6.2605e-06	1254.3	234.95	2.2078e-06	4.2843e-06	297.94	82.525	64.047	18.661	5.8304e-06	26.905	0.00048729	0.00049447	0.00013783	1173.2	5.4751e-06	5.4802e-06	1233.1	235.88	5.4247e-06	5.4829e-06	298.35	85.728	67.495	19.619	5.4218e-06	28.025	217.159	16.181	-91.078	-107.229	155.636	25.016	-107.336	-100.400	-24.079	51.029	-100.351	-93.951	-93.878	-86.780	94.421	-87.464	-8191	255	
805.895	1	1	0	0	0.15701	0.25375	0.12934	0.13283	0.19261	0.033529	0.029519	0.1964	0.1888	0.03698	0.18646	0.24667	0.25649	0.20215	0.050935	0.11908	-2.4604	-2.9021	-2.7396	-2.8021	-3.2667	-2.7396	-2.9625	-3.2875	-2.5708	-3.0062	-2.9875	-2.9229	-3.0167	-2.975	-2.6042	-2.9708	112.594	-38.798	99.958	166.115	-118.028	-37.341	-90.370	20.474	117.386	204.862	167.938	-113.336	182.095	-14.712	-52.156	95.135	8.2691e-05	0.00073639	0.00010799	1197.6	3.495e-06	1.2379e-06	1251.8	234.98	2.2887e-06	5.5577e-06	296.02	82.91	63.948	18.862	3.3257e-06	26.799	0.00048257	0.00049668	0.00013751	1175.5	5.3747e-06	5.4295e-06	1232.3	235.88	5.3625e-06	5.3405e-06	298.14	85.507	67.33	19.654	5.3861e-06	27.997	213.200	-16.349	-84.060	-107.405	30.932	-24.801	-107.497	-100.491	26.696	9.426	-100.609	-94.480	-94.135	-86.682	152.613	-86.953	-8191	255	
805.991	1	1	0	0	0.26639	0.22155	0.25188	0.27372	0.10106	0.16322	0.057642	0.14982	0.068571	0.082008	0.23283	0.10973	0.2616	0.37	0.15029	0.24955	-2.2771	-2.7521	-2.975	-2.6646	-3.0167	-2.8667	-2.9708	-3.1063	-2.7438	-2.8417	-3.1312	-2.6417	-3.0521	-2.9917	-2.7521	-3.0354	-28.957	-16.815	-76.484	139.458	199.280	218.157	-87.699	-46.445	203.928	236.935	210.993	209.349	239.739	135.394	116.415	-110.013	0.00020022	0.00055922	0.00011852	1201	3.0809e-06	4.3766e-06	1254.1	234.2	6.0584e-06	5.0073e-06	297.99	82.825	64.315	18.675	6.5797e-06	26.762	0.00048295	0.00049253	0.00013803	1175.9	5.4583e-06	5.4367e-06	1234.2	235.53	5.4897e-06	5.4392e-06	298.21	85.624	67.496	19.65	5.4978e-06	28.084	196.176	-65.852	209.176	-107.676	105.826	44.487	-107.256	-100.320	61.711	131.012	-100.096	-94.574	-94.051	-86.808	-16.936	-87.111	-8191	255	
806.087	1	1	0	0	0.14303	0.23734	0.19586	0.28851	0.10679	0.23145	0.027258	0.16823	0.053101	0.15681	0.33431	0.083704	0.040863	0.28018	0.10466	0.16908	-2.1562	-3.0083	-3.0312	-2.6917	-3.0875	-2.7958	-2.9542	-3.05	-2.7979	-2.9083	-2.9729	-2.7667	-2.9958	-2.7729	-2.7625	-3.1375	-17.256	205.011	36.309	66.951	187.563	123.550	50.720	-69.230	-73.450	189.785	174.417	187.439	-72.202	115.681	105.516	-91.185	0.00011743	0.00040907	5.3423e-05	1202.8	2.1696e-06	6.8249e-06	1254.3	236.83	5.0642e-06	1.3943e-06	298.17	83.324	63.861	18.849	3.0646e-06	27.115	0.00049261	0.00050048	0.00014115	1177.5	5.5328e-06	5.5612e-06	1235.9	236.5	5.5026e-06	5.4869e-06	298.75	85.85	67.586	19.681	5.5455e-06	28.145	211.808	-45.258	190.865	-107.325	16.269	-13.230	-107.518	-100.361	216.702	207.304	-100.578	-94.407	-93.842	-86.221	54.206	-86.937	-8191	255	
806.183	1	1	0	0	0.21473	0.13971	0.093601	0.43216	0.040416	0.24229	0.36538	0.099848	0.12938	0.093747	0.096217	0.19214	0.28959	0.10583	0.059302	0.23516	-2.1937	-2.7458	-2.9521	-2.7562	-2.9521	-2.7333	-2.7188	-3.0917	-2.6125	-2.6708	-3.0312	-2.8312	-2.8937	-2.7625	-2.5875	-2.9854	-15.557	-47.265	-65.378	195.483	98.067	86.096	192.124	-72.014	58.857	-94.497	198.883	201.819	-108.708	17.568	205.625	28.913	9.4377e-05	0.00083273	0.00010151	1205.2	4.4833e-06	5.3114e-06	1256.7	237.32	4.3627e-06	4.4873e-06	296.64	82.982	64.015	19.021	1.9394e-06	26.831	0.00049715	0.00051138	0.00014107	1180.4	5.5607e-06	5.5388e-06	1235	236.28	5.5598e-06	5.5193e-06	298.29	85.802	67.466	19.716	5.5488e-06	28.174	197.912	18.051	85.447	-107.200	-37.565	-92.795	-107.361	-100.411	166.484	0.890	-100.519	-94.711	-93.973	-87.005	187.659	-86.944	-8191	255	
#DATA ENDS
