BOXY.EXE: ISS Imagent and Oximeter Data Acquisition Program Version 0.80
Ascii Record File

#ACQ INFORMATION
2  Detector Channels 
16  External MUX Channels 
1  Auxiliary Channels 
5000  Waveform (CCF) Frequency (Hz)
1  Waveforms Skipped 
30  Waveforms Averaged 
1  Cycles Averaged 
16  Acquisitions per Waveform 
10.0806  Updata Rate (Hz) 

#FILE INFORMATION
TRUE -- External MUX Channel results are PARSED.
FALSE -- AC DC and Phase are NOT grouped.
TRUE -- Companion Program Settings File CREATED.
FALSE -- AC data not excluded
FALSE -- DC data not excluded
FALSE -- Phase data not excluded
FALSE -- Auxillary Chn. data not excluded
Tab delimiters

#CALIBRATION STATE
TRUE -- Waveform Calibration Values APPLIED.


#AUX CALIBRATION VALUES
Val Type	aux-1	

Term	1.0000e+00	
Factor	0.0000e+00	


#WF CALIBRATION VALUES
A = Detector Channel
Val Type	A-AC1	A-AC2	A-AC3	A-AC4	A-AC5	A-AC6	A-AC7	A-AC8	A-AC9	A-AC10	A-AC11	A-AC12	A-AC13	A-AC14	A-AC15	A-AC16	A-DC1	A-DC2	A-DC3	A-DC4	A-DC5	A-DC6	A-DC7	A-DC8	A-DC9	A-DC10	A-DC11	A-DC12	A-DC13	A-DC14	A-DC15	A-DC16	A-Ph1	A-Ph2	A-Ph3	A-Ph4	A-Ph5	A-Ph6	A-Ph7	A-Ph8	A-Ph9	A-Ph10	A-Ph11	A-Ph12	A-Ph13	A-Ph14	A-Ph15	A-Ph16	

Term	0.00000e+00	0.00000e+00	0.00000e+00	0.00000e+00	0.00000e+00	0.00000e+00	0.00000e+00	0.00000e+00	0.00000e+00	0.00000e+00	0.00000e+00	0.00000e+00	0.00000e+00	0.00000e+00	0.00000e+00	0.00000e+00	0.00000e+00	0.00000e+00	0.00000e+00	0.00000e+00	0.00000e+00	0.00000e+00	0.00000e+00	0.00000e+00	0.00000e+00	0.00000e+00	0.00000e+00	0.00000e+00	0.00000e+00	0.00000e+00	0.00000e+00	0.00000e+00	0.00000e+00	0.00000e+00	0.00000e+00	0.00000e+00	0.00000e+00	0.00000e+00	0.00000e+00	0.00000e+00	0.00000e+00	0.00000e+00	0.00000e+00	0.00000e+00	0.00000e+00	0.00000e+00	0.00000e+00	0.00000e+00	
Factor	1.00000e+00	1.00000e+00	1.00000e+00	1.00000e+00	1.00000e+00	1.00000e+00	1.00000e+00	1.00000e+00	1.00000e+00	1.00000e+00	1.00000e+00	1.00000e+00	1.00000e+00	1.00000e+00	1.00000e+00	1.00000e+00	1.00000e+00	1.00000e+00	1.00000e+00	1.00000e+00	1.00000e+00	1.00000e+00	1.00000e+00	1.00000e+00	1.00000e+00	1.00000e+00	1.00000e+00	1.00000e+00	1.00000e+00	1.00000e+00	1.00000e+00	1.00000e+00	X	X	X	X	X	X	X	X	X	X	X	X	X	X	X	X	

B = Detector Channel
Val Type	B-AC1	B-AC2	B-AC3	B-AC4	B-AC5	B-AC6	B-AC7	B-AC8	B-AC9	B-AC10	B-AC11	B-AC12	B-AC13	B-AC14	B-AC15	B-AC16	B-DC1	B-DC2	B-DC3	B-DC4	B-DC5	B-DC6	B-DC7	B-DC8	B-DC9	B-DC10	B-DC11	B-DC12	B-DC13	B-DC14	B-DC15	B-DC16	B-Ph1	B-Ph2	B-Ph3	B-Ph4	B-Ph5	B-Ph6	B-Ph7	B-Ph8	B-Ph9	B-Ph10	B-Ph11	B-Ph12	B-Ph13	B-Ph14	B-Ph15	B-Ph16	

Term	0.00000e+00	0.00000e+00	0.00000e+00	0.00000e+00	0.00000e+00	0.00000e+00	0.00000e+00	0.00000e+00	0.00000e+00	0.00000e+00	0.00000e+00	0.00000e+00	0.00000e+00	0.00000e+00	0.00000e+00	0.00000e+00	0.00000e+00	0.00000e+00	0.00000e+00	0.00000e+00	0.00000e+00	0.00000e+00	0.00000e+00	0.00000e+00	0.00000e+00	0.00000e+00	0.00000e+00	0.00000e+00	0.00000e+00	0.00000e+00	0.00000e+00	0.00000e+00	-1.29269e+02	-1.13631e+02	-1.35870e+02	-1.84844e+02	-7.69806e+01	-6.34246e+01	-1.60653e+02	-1.62015e+02	-8.22226e+01	-6.09229e+01	-1.72187e+02	-1.71626e+02	-1.83109e+02	-1.76791e+02	-6.82363e+01	-1.50157e+02	
Factor	1.61315e-05	1.31639e-04	3.54998e-05	4.91269e-01	1.07434e-06	1.37095e-06	1.84658e-01	4.54119e-02	1.02773e-06	1.19378e-06	8.37172e-02	3.01029e-02	3.50082e-02	8.20948e-03	1.09933e-06	1.21748e-02	1.13921e-06	1.19064e-06	3.31616e-07	2.32299e-01	1.30170e-08	1.30308e-08	8.60883e-02	2.28097e-02	1.29813e-08	1.30694e-08	4.01028e-02	1.44691e-02	1.71056e-02	4.09484e-03	1.30663e-08	5.83849e-03	X	X	X	X	X	X	X	X	X	X	X	X	X	X	X	X	



#DISTANCE SETTINGS
A = Detector Channel
A-1	A-2	A-3	A-4	A-5	A-6	A-7	A-8	A-9	A-10	A-11	A-12	A-13	A-14	A-15	A-16	

2.5000e+00	3.0000e+00	2.5000e+00	3.0000e+00	2.0000e+00	3.0000e+00	1.5000e+00	3.0000e+00	3.0000e+00	3.0000e+00	3.0000e+00	3.0000e+00	3.0000e+00	3.0000e+00	1.5000e+00	3.0000e+00	

B = Detector Channel
B-1	B-2	B-3	B-4	B-5	B-6	B-7	B-8	B-9	B-10	B-11	B-12	B-13	B-14	B-15	B-16	

1.0000e+01	1.0000e+01	1.0000e+01	1.4400e+00	1.0000e+01	1.0000e+01	1.5100e+00	1.9400e+00	1.0000e+01	1.0000e+01	1.9900e+00	2.4900e+00	2.4100e+00	2.9000e+00	1.0000e+01	2.9800e+00	




#DATA BEGINS
time	group	step	mark	flag	A-AC1	A-AC2	A-AC3	A-AC4	A-AC5	A-AC6	A-AC7	A-AC8	A-AC9	A-AC10	A-AC11	A-AC12	A-AC13	A-AC14	A-AC15	A-AC16	A-DC1	A-DC2	A-DC3	A-DC4	A-DC5	A-DC6	A-DC7	A-DC8	A-DC9	A-DC10	A-DC11	A-DC12	A-DC13	A-DC14	A-DC15	A-DC16	A-Ph1	A-Ph2	A-Ph3	A-Ph4	A-Ph5	A-Ph6	A-Ph7	A-Ph8	A-Ph9	A-Ph10	A-Ph11	A-Ph12	A-Ph13	A-Ph14	A-Ph15	A-Ph16	B-AC1	B-AC2	B-AC3	B-AC4	B-AC5	B-AC6	B-AC7	B-AC8	B-AC9	B-AC10	B-AC11	B-AC12	B-AC13	B-AC14	B-AC15	B-AC16	B-DC1	B-DC2	B-DC3	B-DC4	B-DC5	B-DC6	B-DC7	B-DC8	B-DC9	B-DC10	B-DC11	B-DC12	B-DC13	B-DC14	B-DC15	B-DC16	B-Ph1	B-Ph2	B-Ph3	B-Ph4	B-Ph5	B-Ph6	B-Ph7	B-Ph8	B-Ph9	B-Ph10	B-Ph11	B-Ph12	B-Ph13	B-Ph14	B-Ph15	B-Ph16	aux-1	digaux	

1024.970	1	1	0	256	0.21615	0.081336	0.24651	0.032714	0.18969	0.24998	0.13128	0.21215	0.19695	0.25725	0.069911	0.29107	0.19298	0.28304	0.17926	0.11884	-2.1417	-2.6833	-2.8812	-2.5354	-2.5438	-2.8729	-2.6208	-2.8312	-2.5542	-2.7208	-3.0458	-2.3375	-2.6813	-2.7854	-2.55	-2.9	-149.692	-144.761	-37.352	135.617	102.387	203.210	145.990	-131.944	-43.117	121.209	160.515	11.079	129.533	125.782	61.722	92.793	0.00024691	0.00017178	1.3349e-05	389.36	8.4171e-07	5.048e-06	500.8	128.41	3.4446e-06	4.0022e-06	198.21	72.964	44.594	17.979	5.5776e-06	31.305	0.00015597	0.00014986	4.1459e-05	397.56	1.6395e-06	1.6196e-06	512.11	131.52	1.6441e-06	1.6313e-06	201.35	73.86	45.45	18.305	1.6685e-06	31.641	195.270	113.500	75.668	-142.395	-47.536	6.050	-142.543	-137.521	-53.077	-24.817	-139.192	-135.797	-134.523	-130.178	-12.509	-132.259	-8191	255	
1025.066	1	1	0	0	0.26428	0.12134	0.10213	0.12417	0.29021	0.078922	0.15238	0.25153	0.0413	0.13983	0.10369	0.19718	0.16449	0.039108	0.078921	0.14843	-2.3396	-2.5708	-2.7958	-2.5458	-2.7333	-3.0042	-2.7292	-2.8729	-2.8083	-2.6437	-2.95	-2.6375	-2.7292	-2.9625	-2.5979	-2.7833	-60.383	80.899	81.868	128.196	-76.693	-79.451	177.583	142.095	-96.286	61.793	177.890	163.639	172.056	147.015	-54.334	145.498	0.00026978	0.00035437	1.7871e-05	390.92	1.4274e-06	3.9817e-06	504.1	128.19	1.8634e-06	7.3072e-07	198.47	72.119	44.549	17.892	1.3425e-06	31.282	0.00015952	0.00015243	4.1962e-05	397.3	1.6458e-06	1.6368e-06	510.6	130.97	1.6587e-06	1.6503e-06	200.48	73.288	45.368	18.271	1.6446e-06	31.476	200.325	-86.468	148.997	-141.735	-32.231	4.588	-142.736	-137.630	-79.937	54.215	-139.338	-136.168	-134.452	-130.280	-12.102	-132.266	-8191	255	
1025.187	1	1	0	0	0.27251	0.24761	0.033014	0.075611	0.13693	0.11388	0.21233	0.16399	0.078094	0.093861	0.13506	0.059494	0.15525	0.24136	0.27035	0.25525	-2.3396	-2.4208	-2.7417	-2.6312	-2.7938	-2.8396	-2.5646	-2.8729	-2.9854	-2.5521	-2.9542	-2.6625	-2.6063	-2.8646	-2.5604	-2.6104	119.228	-27.653	-10.960	201.829	195.725	-103.889	103.851	-123.783	61.659	-154.606	182.967	125.380	-43.788	-115.120	117.176	170.026	0.00023697	0.00025242	0.00012296	392.99	2.3352e-06	1.7383e-06	502.9	128.46	1.0084e-06	2.5619e-06	198.43	72.185	44.617	17.894	1.5142e-06	30.94	0.00015645	0.0001518	4.1857e-05	398.27	1.6386e-06	1.6232e-06	511	131.08	1.6441e-06	1.6303e-06	200.19	73.32	45.396	18.28	1.6643e-06	31.473	197.941	-53.369	-75.553	-142.152	-57.733	-2.007	-142.850	-137.488	-86.373	117.129	-139.075	-136.298	-133.862	-130.130	-44.730	-132.263	-8191	255	
1025.283	1	1	0	0	0.30372	0.38021	0.12575	0.14377	0.10543	0.092218	0.1604	0.034172	0.14588	0.1498	0.055845	0.23954	0.22347	0.17043	0.22553	0.064136	-2.4896	-2.4562	-2.8854	-2.7354	-2.65	-2.9792	-2.6437	-2.9042	-2.9417	-2.5833	-2.7979	-2.6125	-2.5354	-2.8438	-2.5563	-2.7292	3.171	149.203	-43.690	142.705	173.819	-58.217	12.329	102.331	-150.336	-151.133	199.922	-117.367	190.214	152.923	42.025	-19.044	0.00026069	0.00014952	6.348e-06	392.86	1.3321e-06	1.584e-06	504.61	127.91	1.4775e-06	1.9269e-06	198.4	72.642	44.25	17.893	2.3896e-06	31.469	0.00015867	0.00015156	4.1207e-05	398.02	1.638e-06	1.6295e-06	511.4	131.07	1.6408e-06	1.6366e-06	200.55	73.528	45.284	18.286	1.6695e-06	31.628	192.520	-73.005	133.211	-141.539	-129.228	89.475	-142.547	-137.355	51.822	39.459	-139.105	-136.051	-134.200	-130.012	-14.178	-132.459	-8191	255	
1025.379	1	1	0	0	0.21514	0.33756	0.076157	0.086199	0.24162	0.11605	0.1584	0.12227	0.2377	0.12156	0.14464	0.29138	0.138	0.034943	0.10598	0.10405	-2.4667	-2.4188	-2.7208	-2.6667	-2.6167	-2.9271	-2.7188	-2.575	-3.0292	-2.6917	-3.0229	-2.8708	-2.5333	-2.8896	-2.5917	-2.8021	185.246	180.187	-64.732	158.055	155.844	-108.572	-95.714	188.221	61.343	147.766	64.178	137.161	122.656	171.215	-118.686	200.854	0.00025902	0.0002578	0.00011042	394.22	1.7528e-06	3.7973e-06	507.79	127.21	4.1777e-07	4.316e-06	199.84	72.81	44.417	18.028	3.9633e-06	31.384	0.00015743	0.00015012	4.1548e-05	398.57	1.6507e-06	1.6218e-06	512.6	130.55	1.624e-06	1.6346e-06	201.29	73.674	45.345	18.358	1.6329e-06	31.804	-153.384	-43.458	-44.335	-141.674	16.725	6.970	-142.812	-137.323	173.402	8.194	-139.287	-136.261	-133.805	-129.842	10.474	-132.332	-8191	255	
1025.475	1	1	0	0	0.12458	0.1651	0.15205	0.42369	0.06912	0.20288	0.17844	0.050509	0.072282	0.096271	0.12722	0.085105	0.21658	0.07403	0.073006	0.15946	-2.4604	-2.6104	-2.7604	-2.825	-2.75	-2.9188	-2.6437	-2.6688	-3.1188	-2.6167	-2.7792	-2.7896	-2.5062	-2.9229	-2.8521	-2.6375	-84.191	196.029	131.463	93.206	128.896	149.082	63.078	93.869	-133.945	-12.713	-35.102	98.972	-111.576	189.094	-39.833	-52.013	0.00025003	0.0001861	4.4615e-05	389.51	9.6338e-07	3.7571e-06	505.34	128.05	2.2148e-06	2.399e-06	199.32	72.279	44.481	17.94	2.993e-06	31.386	0.00015621	0.00014817	4.1675e-05	398.23	1.6343e-06	1.632e-06	513.12	130.73	1.638e-06	1.6197e-06	200.66	73.314	45.336	18.273	1.6397e-06	31.667	190.375	-38.880	-75.182	-141.642	-2.966	11.642	-142.859	-137.353	-52.203	42.036	-139.212	-136.039	-134.074	-129.775	-6.787	-132.114	-8191	255	
1025.594	1	1	0	0	0.26325	0.026592	0.12424	0.15202	0.093525	0.10401	0.20064	0.099406	0.18813	0.26203	0.10991	0.029835	0.046974	0.074207	0.11469	0.088449	-2.475	-2.6063	-2.6625	-2.9437	-2.55	-2.7854	-2.7417	-2.6146	-2.9979	-2.6708	-2.7229	-2.8	-2.4979	-2.9417	-2.7708	-2.675	188.080	-65.087	-53.008	95.842	-95.559	153.207	154.849	20.387	42.664	108.840	-32.285	-103.683	97.909	-84.887	39.186	22.513	0.00021848	0.00021004	6.6699e-05	389.94	1.9281e-06	1.4398e-06	503.04	127.19	1.7905e-06	3.0365e-06	198.08	71.337	43.971	17.95	2.0882e-06	31.319	0.00015593	0.0001476	4.163e-05	396.83	1.6312e-06	1.6062e-06	511.39	129.86	1.6285e-06	1.6305e-06	199	72.871	44.982	18.26	1.6131e-06	31.706	-155.258	-87.580	-98.703	-142.047	-51.024	-36.495	-142.872	-137.402	-54.186	-48.146	-139.114	-136.229	-133.842	-130.297	7.694	-132.386	-8191	255	
1025.666	1	1	0	0	0.1355	0.30263	0.17292	0.11264	0.19426	0.12466	0.15193	0.11812	0.2509	0.02209	0.24089	0.0655	0.25177	0.20969	0.038105	0.17959	-2.55	-2.7042	-2.8104	-2.8333	-2.4958	-2.8167	-2.8896	-2.5125	-2.9813	-2.6854	-2.6354	-2.8646	-2.6063	-2.7958	-2.8125	-2.6667	-92.028	40.795	186.363	203.305	84.290	172.896	-143.146	195.272	-69.955	-150.200	141.518	-89.078	26.843	-82.208	-57.734	181.234	0.00026586	0.00048596	3.5111e-05	394.22	2.1402e-06	2.9492e-06	502.12	127.76	3.2224e-06	1.375e-06	197.13	72.258	44.012	18.001	1.5384e-06	31.417	0.00015518	0.00014708	4.0543e-05	398.01	1.6205e-06	1.6148e-06	512.39	129.91	1.6131e-06	1.6296e-06	199.51	73.101	44.982	18.324	1.6621e-06	31.763	200.533	-22.080	-5.701	-142.059	2.794	-21.661	-142.836	-137.639	-43.470	80.896	-138.928	-136.110	-133.914	-130.004	-1.640	-132.261	-8191	255	
1025.762	1	1	0	0	0.12875	0.075944	0.10108	0.17062	0.061229	0.44109	0.17123	0.26045	0.063042	0.1221	0.22671	0.43533	0.046619	0.085865	0.13552	0.17643	-2.3937	-2.6437	-2.7458	-2.7021	-2.5417	-2.7729	-3.0146	-2.5104	-2.8333	-2.8604	-2.7958	-2.9958	-2.6646	-2.6333	-2.8083	-2.6396	177.030	200.775	31.113	54.595	50.670	11.223	104.311	173.395	102.447	118.565	10.794	170.466	109.018	88.176	-66.345	150.464	0.00023043	0.00018687	5.0152e-05	390.75	2.6306e-06	3.5844e-06	500.92	127.14	2.3172e-06	2.2311e-06	198.54	72.519	44.071	17.918	2.3313e-06	31.58	0.00015683	0.00014727	4.1073e-05	397.69	1.5919e-06	1.5996e-06	513.12	129.99	1.6304e-06	1.6019e-06	199.92	73.609	45.051	18.28	1.6258e-06	31.866	196.755	-70.620	-77.937	-141.854	-32.318	-74.384	-142.725	-137.460	-56.629	50.833	-139.005	-136.243	-134.117	-130.173	-57.019	-132.227	-8191	255	
1025.858	1	1	0	0	0.1686	0.26943	0.13346	0.02033	0.18416	0.23816	0.32616	0.1984	0.10019	0.18323	0.29358	0.18649	0.24878	0.084707	0.26044	0.10827	-2.525	-2.7354	-2.5104	-2.6875	-2.4979	-2.8354	-2.8021	-2.6562	-2.8229	-2.8229	-2.6396	-2.8146	-2.6708	-2.7042	-2.7417	-2.7625	51.709	-33.770	-148.026	-51.337	-99.945	33.210	160.177	70.038	3.246	31.464	-26.472	179.991	81.468	-110.246	-42.990	-128.500	0.00026999	0.00017095	4.493e-05	391.55	1.5896e-06	2.2841e-06	507.56	127.83	1.4544e-06	3.5081e-06	199.19	72.82	44.407	18.011	1.0189e-06	31.454	0.00015516	0.00014844	4.0919e-05	397.56	1.6185e-06	1.6105e-06	514.65	130.1	1.6066e-06	1.5925e-06	200.76	73.598	45.169	18.382	1.6155e-06	31.796	-154.814	-51.445	-19.022	-141.604	26.073	-8.507	-142.794	-137.483	-72.843	1.192	-139.282	-136.274	-134.228	-129.888	79.413	-132.472	-8191	255	
1025.979	1	1	0	0	0.24953	0.13451	0.28755	0.09037	0.11361	0.33312	0.2824	0.19899	0.15247	0.24814	0.1401	0.15665	0.27927	0.16804	0.06465	0.22203	-2.2313	-2.6104	-2.3604	-2.9062	-2.7604	-2.6146	-2.9417	-2.7833	-2.5833	-2.7917	-2.5167	-2.9	-2.6437	-2.5563	-2.5938	-2.7646	170.723	-19.182	8.259	-105.594	155.432	162.341	-101.783	93.596	110.726	-146.706	-102.203	110.227	-64.000	170.967	68.497	122.231	0.00026003	0.00024882	6.4716e-05	392.18	2.1624e-06	1.4125e-06	503.12	127.01	2.6053e-06	1.161e-06	195.69	71.614	43.741	17.844	2.8341e-06	31.394	0.00015294	0.00014508	4.0226e-05	397.57	1.59e-06	1.5954e-06	511.74	129.45	1.6006e-06	1.6125e-06	198.34	72.636	44.704	18.216	1.6029e-06	31.581	195.383	-44.670	-53.025	-141.520	4.144	119.609	-142.836	-137.378	-52.371	57.955	-139.119	-136.289	-134.080	-130.013	-54.058	-132.132	-8191	255	
1026.075	1	1	0	0	0.18202	0.10631	0.21023	0.2149	0.17312	0.16595	0.079217	0.16087	0.13759	0.018075	0.16476	0.12691	0.068722	0.17971	0.16136	0.24525	-2.2917	-2.7833	-2.5833	-2.7687	-2.5458	-2.6479	-3.0125	-2.6042	-2.9125	-2.7917	-2.6813	-2.8812	-2.7812	-2.3854	-2.7146	-2.5625	-35.188	-40.462	187.876	43.837	67.569	-131.995	118.454	-43.536	124.726	164.935	-38.470	-143.101	74.439	146.050	-79.873	116.878	0.00025878	0.00038419	2.7778e-05	393.67	3.1301e-06	2.4696e-06	501.87	126.49	2.2868e-06	2.0276e-06	197.49	71.789	43.75	17.937	3.7104e-06	31.369	0.00015314	0.00014456	4.028e-05	397.88	1.5947e-06	1.5952e-06	511.42	129.28	1.567e-06	1.5908e-06	199.03	72.894	44.852	18.226	1.5773e-06	31.617	200.893	-13.589	-45.520	-141.975	-63.343	-16.529	-142.812	-137.556	21.725	-55.773	-139.198	-135.987	-134.279	-129.818	23.981	-132.009	-8191	255	
1026.171	1	1	0	0	0.043698	0.23347	0.10227	0.066729	0.10654	0.17075	0.25015	0.14748	0.28305	0.17404	0.046788	0.10963	0.12323	0.2666	0.1332	0.093611	-2.2708	-2.8125	-2.3604	-2.9083	-2.5854	-2.425	-2.9021	-2.4688	-2.6458	-2.7042	-2.5875	-2.8479	-2.8333	-2.7812	-2.7771	-2.8563	-61.719	-130.241	69.831	77.455	-27.786	25.640	125.070	-149.033	199.378	-27.888	-130.761	164.038	164.679	167.094	199.768	-54.485	0.00026239	0.00029148	0.00011549	395.11	3.6555e-06	4.3e-06	501.55	126.42	4.9139e-06	2.6697e-06	196.41	71.811	43.753	17.885	2.0357e-06	31.106	0.00015201	0.00014621	4.0003e-05	397.64	1.5602e-06	1.5757e-06	510.97	129.01	1.5788e-06	1.5672e-06	198.34	72.722	44.678	18.194	1.5804e-06	31.594	-154.926	-33.096	-98.340	-141.519	-53.349	33.066	-142.779	-137.335	-70.361	-1.237	-139.472	-136.280	-134.517	-129.851	28.062	-132.358	-8191	255	
1026.267	1	1	0	0	0.10449	0.13632	0.17931	0.077129	0.23413	0.1945	0.15003	0.16226	0.22999	0.13482	0.029817	0.15075	0.05833	0.088707	0.097107	0.14722	-2.1958	-2.8646	-2.6021	-2.7292	-2.8521	-2.5375	-2.8042	-2.6188	-2.6125	-2.8146	-2.5792	-2.8	-2.6521	-2.6188	-2.7667	-2.7271	134.526	35.380	-88.670	46.639	171.938	-61.315	109.839	-116.442	-14.711	-60.230	179.455	-142.731	122.096	3.292	-148.980	-116.768	0.00021543	0.00052637	7.6465e-05	393.51	2.2657e-06	4.9127e-06	498.17	125.33	2.7149e-06	1.3908e-06	196.69	72.026	43.164	17.904	2.526e-06	31.564	0.00014985	0.00014115	3.9413e-05	397.83	1.5615e-06	1.5598e-06	510.18	128.6	1.5646e-06	1.5409e-06	197.83	72.878	44.439	18.17	1.5613e-06	31.762	192.362	-69.804	-109.285	-141.719	-16.360	16.986	-142.492	-137.702	52.108	24.871	-139.398	-136.004	-134.280	-130.146	9.021	-131.897	-8191	255	
1026.364	1	1	0	0	0.22563	0.23198	0.17338	0.10764	0.12021	0.25154	0.15006	0.24077	0.034687	0.30805	0.28556	0.02658	0.096254	0.14429	0.14832	0.31346	-2.2313	-2.9	-2.5917	-2.6854	-2.8021	-2.6083	-2.9875	-2.5667	-2.475	-3.1021	-2.7771	-2.6083	-2.9979	-2.5729	-2.7542	-2.8625	-3.888	112.045	-32.978	94.026	-94.846	-103.233	54.993	-151.309	172.022	5.352	130.168	138.104	172.787	135.206	-37.491	170.454	0.00025027	0.00038796	4.1434e-05	391.29	2.6004e-06	2.574e-06	501.56	126.43	1.9252e-06	1.4607e-06	195.84	71.632	43.447	17.747	2.2154e-06	31.266	0.00014983	0.00014006	3.921e-05	394.8	1.5317e-06	1.5263e-06	510.19	128.8	1.5337e-06	1.5388e-06	197.7	72.631	44.497	18.135	1.5151e-06	31.513	-153.380	-60.422	-93.362	-141.910	-18.347	-14.627	-142.637	-137.716	-67.589	-24.925	-139.657	-136.328	-134.315	-130.234	-98.550	-132.309	-8191	255	
1026.460	1	1	0	0	0.13662	0.25743	0.39116	0.064507	0.045472	0.25	0.34432	0.092135	0.1469	0.23357	0.0907	0.091251	0.09927	0.16183	0.052588	0.26141	-2.1354	-3.0833	-2.5896	-2.4854	-2.8354	-2.6188	-3.0042	-2.8042	-2.5125	-2.8917	-2.7646	-2.6688	-2.9458	-2.5292	-2.6479	-2.8604	186.269	35.735	27.295	135.624	-56.965	8.556	132.030	-96.350	174.632	-89.589	71.549	183.050	-40.531	-116.704	-25.141	-131.451	0.00024662	0.00031422	4.7885e-05	387.25	3.293e-06	2.7843e-06	499.44	126.33	3.285e-06	5.1706e-06	197.74	71.676	43.678	17.92	6.6691e-07	31.357	0.0001491	0.00013972	3.8877e-05	394.34	1.504e-06	1.5149e-06	509.32	128.84	1.539e-06	1.5313e-06	198.72	72.676	44.643	18.221	1.5078e-06	31.668	-155.366	-36.240	-84.959	-141.763	-69.833	48.144	-142.699	-137.491	-74.879	15.846	-139.628	-136.275	-134.167	-129.774	-74.271	-132.246	-8191	255	
1026.556	1	1	0	0	0.2166	0.31594	0.2742	0.06522	0.17238	0.29464	0.012139	0.087863	0.093294	0.24277	0.24062	0.20711	0.14492	0.13685	0.27535	0.15204	-2.1896	-2.8354	-2.6917	-2.5375	-2.7188	-2.6646	-2.7208	-2.7896	-2.6	-2.9125	-2.6312	-2.6937	-3.0438	-2.6042	-2.6042	-3.0438	29.041	169.305	171.723	186.511	151.228	83.238	-108.361	-147.505	153.255	100.852	159.628	181.927	-15.665	-147.295	-97.404	190.698	0.00024636	0.00047223	0.00013892	393.74	3.2577e-06	3.092e-06	504.41	126.91	2.6621e-06	1.4389e-06	196.59	71.864	43.467	17.995	2.4202e-06	31.406	0.00014736	0.00013959	3.8682e-05	395.96	1.5213e-06	1.5079e-06	512.41	129.38	1.4957e-06	1.5293e-06	198.53	72.914	44.624	18.263	1.5261e-06	31.733	197.098	-97.722	-58.272	-142.168	-28.643	-45.876	-142.899	-137.286	33.405	-128.918	-139.497	-136.371	-134.294	-130.097	-64.745	-132.253	-8191	255	
1026.675	1	1	0	0	0.14809	0.092832	0.071078	0.21675	0.041104	0.1994	0.24906	0.1142	0.21683	0.069629	0.080791	0.052289	0.23873	0.10512	0.2019	0.20109	-2.1458	-2.7771	-2.9333	-2.4917	-2.9354	-2.7229	-2.7188	-2.9062	-2.5354	-2.8896	-2.5875	-2.6562	-2.7833	-2.525	-2.5604	-2.8771	-120.282	138.587	18.979	44.387	-48.176	12.384	92.486	191.468	-105.459	34.353	126.153	-47.246	148.629	181.471	136.073	61.301	0.00025506	0.00019303	0.0001376	395.55	1.6619e-06	2.1052e-06	505.45	126.3	1.0237e-06	1.3064e-06	196.52	72.38	43.775	18.048	1.3393e-06	31.703	0.00014842	0.00013908	3.8642e-05	397.31	1.5e-06	1.5132e-06	513.03	128.74	1.5359e-06	1.53e-06	199.01	73.204	44.803	18.339	1.5426e-06	31.917	-154.744	-84.586	-73.796	-141.439	70.356	-36.331	-142.650	-137.422	192.088	-52.606	-138.986	-136.244	-133.996	-130.037	-7.419	-132.188	-8191	255	
1026.771	1	1	0	0	0.23119	0.16914	0.083627	0.3987	0.25656	0.18276	0.089786	0.072318	0.018553	0.045369	0.15696	0.09238	0.084253	0.12485	0.060202	0.097503	-2.2792	-3.0062	-2.6312	-2.5896	-2.9021	-2.7042	-2.5875	-3.1	-2.6583	-2.8854	-2.8771	-2.6354	-2.9479	-2.7271	-2.6917	-3.0083	195.826	-120.771	-99.178	166.722	39.189	22.645	136.422	69.302	177.934	114.135	135.516	107.621	85.972	183.316	-132.357	-41.909	0.00023996	0.00046503	7.6354e-05	394.04	1.684e-06	4.1826e-06	506.73	126.31	1.9715e-06	1.1711e-06	197.64	72.043	44.281	17.977	2.6403e-06	31.475	0.0001467	0.00013845	3.8532e-05	397.52	1.5375e-06	1.5214e-06	514.41	129.21	1.5362e-06	1.5137e-06	199.13	73.106	44.887	18.306	1.5481e-06	31.816	-154.984	-72.956	-97.881	-142.334	-89.134	-10.124	-142.774	-137.268	6.505	-58.627	-139.331	-136.235	-134.116	-129.751	-113.981	-132.209	-8191	255	
1026.867	1	1	0	0	0.14133	0.21228	0.11962	0.051128	0.13895	0.16712	0.18061	0.21678	0.10634	0.2723	0.15316	0.26469	0.20628	0.2608	0.12796	0.21892	-2.0771	-2.7667	-2.8208	-2.4479	-2.8	-2.6667	-2.5104	-2.9333	-2.7417	-2.675	-2.8521	-2.6813	-2.8396	-2.8104	-2.4062	-2.9062	122.588	180.686	120.062	59.467	148.009	-131.686	-58.358	-8.025	58.293	-91.424	125.436	11.994	-99.557	51.935	43.301	160.392	0.00028423	0.00022645	5.5333e-05	394.72	1.8408e-06	4.1152e-06	506.94	126.16	2.4312e-06	1.8496e-06	198	71.829	44.184	18.015	2.0965e-06	31.459	0.00014647	0.00013775	3.8184e-05	396.59	1.5183e-06	1.5093e-06	513.04	128.99	1.5343e-06	1.5118e-06	199.08	72.999	44.803	18.326	1.5274e-06	31.788	198.801	-31.293	-101.141	-141.860	64.647	-47.831	-142.796	-137.495	-47.854	19.821	-139.570	-135.847	-134.582	-129.963	-99.252	-131.930	-8191	255	
1026.963	1	1	0	0	0.10524	0.21058	0.16158	0.1595	0.081511	0.15427	0.23019	0.056928	0.14163	0.26457	0.20655	0.15004	0.18752	0.065172	0.10556	0.031739	-2.1437	-2.7458	-2.8479	-2.5375	-2.8396	-2.8167	-2.5521	-2.8854	-2.6333	-2.7875	-3.0354	-2.5812	-2.7417	-2.9375	-2.5979	-2.9958	15.791	-1.815	160.630	72.509	-20.527	61.797	121.591	108.895	47.218	109.462	-88.201	95.885	167.573	94.224	-47.894	45.617	0.00024199	0.00031926	2.3649e-05	392.48	4.3911e-06	2.0611e-06	504.21	126.43	5.5884e-08	3.3647e-06	197.21	72.536	44.219	18.086	1.9983e-06	31.863	0.00014489	0.00013948	3.9036e-05	396.83	1.5341e-06	1.5026e-06	511.32	129.03	1.5571e-06	1.5258e-06	199.19	73.434	44.918	18.406	1.523e-06	32.019	199.051	-71.476	2.508	-141.418	-65.765	-32.493	-142.501	-137.236	-53.759	-125.652	-139.337	-136.024	-134.171	-130.073	-67.265	-132.045	-8191	255	
1027.059	1	1	0	0	0.12599	0.27179	0.12609	0.31448	0.09739	0.17035	0.1318	0.055046	0.20204	0.10367	0.34716	0.22452	0.1482	0.089249	0.067916	0.09997	-2.1437	-2.6042	-2.8021	-2.4854	-2.7771	-2.7875	-2.575	-2.825	-2.7375	-2.7354	-2.9125	-2.4938	-2.6708	-3	-2.4562	-2.9354	-28.918	150.915	39.516	94.834	-4.667	25.433	72.699	70.099	-114.948	-129.655	21.169	86.927	-102.034	97.272	-7.684	101.422	0.00025711	0.00021311	4.1399e-05	393.32	2.8931e-06	1.7381e-06	504.6	126.4	3.3091e-06	2.58e-06	198.15	71.851	43.899	18.233	1.1367e-06	31.913	0.00014756	0.00013996	3.8982e-05	396.6	1.5467e-06	1.5301e-06	514.25	129.2	1.5382e-06	1.5218e-06	199.73	73.467	45.012	18.477	1.5695e-06	32.13	193.151	-124.794	-77.578	-142.075	0.092	-10.476	-142.474	-137.581	-71.331	40.723	-139.447	-136.492	-134.128	-130.024	-13.221	-132.485	-8191	255	
1027.155	1	1	0	0	0.29638	0.12623	0.23568	0.12878	0.16689	0.14725	0.17757	0.12631	0.086096	0.13258	0.085666	0.14264	0.033736	0.11331	0.13261	0.069263	-2.275	-2.6708	-2.7917	-2.625	-2.5938	-2.8354	-2.8146	-3.0021	-2.8063	-2.5125	-3.1437	-2.7542	-2.6854	-2.8792	-2.4917	-2.8521	53.432	175.466	146.175	-135.712	-64.727	173.637	-24.559	99.018	71.353	-74.820	182.780	173.847	-103.274	-127.203	6.623	86.337	0.00028154	0.00033941	0.00010136	393.87	1.3056e-06	3.7777e-07	505.59	127.54	2.792e-06	3.5163e-06	199.23	73.083	44.445	18.24	1.1473e-06	32.075	0.00014972	0.00014015	3.8793e-05	398.72	1.5491e-06	1.5187e-06	516.12	129.94	1.5381e-06	1.5309e-06	200.45	73.92	45.17	18.544	1.5525e-06	32.262	199.142	-95.229	-97.987	-141.915	199.318	85.694	-142.641	-137.391	-94.879	-18.913	-138.909	-136.343	-134.437	-130.104	98.118	-132.338	-8191	255	
1027.276	1	1	0	0	0.48603	0.1464	0.11714	0.16235	0.14299	0.019746	0.16334	0.069125	0.353	0.11499	0.31158	0.18972	0.24516	0.28	0.16887	0.24326	-2.1917	-2.5812	-2.7854	-2.6417	-2.6417	-2.9333	-2.725	-2.7562	-2.7042	-2.7542	-2.975	-2.6958	-2.7875	-2.9562	-2.6479	-2.9354	116.967	-65.367	-126.903	106.901	7.918	-62.803	131.040	178.535	-33.518	19.410	-125.778	125.382	50.411	-39.564	68.187	169.073	0.00023792	0.0003335	5.5508e-05	392.11	3.0009e-06	3.5227e-06	508.87	126.98	1.3705e-06	5.0281e-07	197.22	72.336	44.126	18.315	2.3678e-06	31.812	0.00014799	0.00013994	3.9649e-05	397.54	1.542e-06	1.5543e-06	515.83	129.41	1.5541e-06	1.5411e-06	199.01	73.217	44.949	18.461	1.5427e-06	32.062	200.063	-53.925	-82.946	-141.358	16.855	22.270	-142.704	-137.516	-31.669	-140.263	-139.412	-135.950	-133.857	-129.832	-12.353	-132.122	-8191	255	
1027.372	1	1	0	0	0.10364	0.07711	0.025367	0.19242	0.11996	0.35275	0.14737	0.24457	0.098079	0.25588	0.17721	0.13868	0.030298	0.18305	0.24165	0.11464	-2.2479	-2.6042	-3.0625	-2.5812	-2.5396	-2.8458	-2.5729	-2.7583	-2.7146	-2.4833	-3.0146	-2.8187	-2.4938	-2.8563	-2.5479	-2.8625	-52.217	-117.008	172.198	-139.471	-28.350	-31.161	-152.355	-65.592	-81.876	-2.441	-107.696	170.421	192.769	128.242	-3.064	-147.525	0.00026393	0.00027644	1.1087e-05	395.81	4.9637e-07	3.632e-06	505.18	126.89	3.9653e-06	9.6719e-07	198.34	72.728	44.273	18.209	2.4388e-06	31.916	0.00014782	0.00014027	3.9367e-05	399.19	1.5579e-06	1.5396e-06	514.73	129.5	1.5399e-06	1.5443e-06	199.92	73.667	45.064	18.533	1.5536e-06	32.165	193.694	-59.582	-121.661	-141.649	65.493	42.747	-142.846	-137.711	-57.677	144.168	-139.318	-136.294	-133.919	-129.759	-77.324	-132.289	-8191	255	
1027.467	1	1	0	0	0.21525	0.16706	0.22106	0.17258	0.16485	0.16318	0.17272	0.03721	0.24985	0.32333	0.37299	0.11471	0.1317	0.17591	0.207	0.2213	-2.3083	-2.5729	-2.8667	-2.7625	-2.65	-2.9021	-2.5021	-2.6979	-3.0563	-2.6521	-2.9583	-2.75	-2.3583	-2.9458	-2.6292	-2.7792	-83.947	133.928	62.003	75.501	90.076	109.810	-150.359	111.430	111.488	203.177	107.862	199.048	-104.465	143.902	131.716	22.965	0.00025206	0.00028757	0.00017162	394.16	2.5181e-06	2.8626e-06	506.13	125.99	2.2442e-06	1.7828e-06	197.61	72.324	43.633	18.126	1.2669e-06	31.994	0.00014859	0.00014082	3.9106e-05	398.36	1.5428e-06	1.5502e-06	514.82	128.88	1.5405e-06	1.5482e-06	199.64	73.497	44.745	18.523	1.5567e-06	32.272	197.498	-13.514	-107.688	-141.516	59.455	49.932	-142.755	-137.567	-95.541	59.770	-139.328	-136.189	-134.294	-130.263	36.497	-132.326	-8191	255	
1027.540	1	1	0	0	0.10172	0.084731	0.39477	0.15892	0.072684	0.10501	0.2172	0.13357	0.27866	0.10829	0.50507	0.24071	0.1844	0.1591	0.43174	0.138	-2.4625	-2.3792	-2.6792	-2.7667	-2.5438	-2.8729	-2.6458	-2.7146	-2.8771	-2.4625	-2.8708	-3.0563	-2.5271	-2.8063	-2.7792	-2.5667	61.568	14.996	164.483	-133.318	156.877	167.246	160.656	-128.698	-128.224	55.515	194.202	87.711	175.830	-112.562	-112.954	-9.678	0.00024404	0.00028033	6.1848e-05	395.66	4.8123e-06	2.3812e-06	507.84	126.17	2.912e-06	2.0733e-06	198.32	72.753	43.632	18.228	2.584e-06	32.299	0.00014923	0.00014213	4.0175e-05	398.68	1.5445e-06	1.5669e-06	516.5	128.81	1.5444e-06	1.5433e-06	199.39	73.701	44.668	18.563	1.5853e-06	32.524	203.527	-27.512	-55.392	-141.238	-29.605	-20.029	-142.530	-137.278	-44.581	-10.881	-139.315	-136.182	-134.344	-129.957	-26.959	-132.142	-8191	255	
1027.659	1	1	0	0	0.31761	0.17926	0.095203	0.12003	0.18683	0.075951	0.24383	0.064299	0.22595	0.21442	0.049949	0.18383	0.17835	0.23345	0.13921	0.18133	-2.4083	-2.6479	-2.7812	-2.7771	-2.5312	-2.8729	-2.7896	-2.7021	-2.7646	-2.6292	-2.6729	-2.8312	-2.5458	-2.7896	-2.7833	-2.6021	186.028	171.023	162.548	-129.275	-130.737	-59.851	44.802	64.991	95.481	-24.058	92.871	-79.359	-133.941	-96.092	96.803	37.410	0.00025608	6.7296e-05	6.4716e-05	394.36	2.1278e-06	1.7704e-06	507.35	126.1	8.1451e-07	2.1436e-06	198.47	72.926	44.095	18.331	2.0479e-06	31.919	0.00015071	0.00014207	3.9399e-05	398.3	1.5485e-06	1.5587e-06	516.43	129.24	1.5664e-06	1.548e-06	200.04	73.619	44.997	18.573	1.5549e-06	32.258	202.919	3.031	-63.443	-142.163	-0.843	172.650	-142.852	-137.559	-82.339	7.801	-139.279	-136.275	-134.143	-129.825	-98.561	-132.290	-8191	255	
1027.755	1	1	0	0	0.12006	0.11779	0.14971	0.11	0.17458	0.26253	0.16997	0.10924	0.14931	0.055086	0.22701	0.08018	0.096459	0.13376	0.11024	0.21746	-2.4437	-2.5667	-2.6042	-2.9417	-2.5167	-2.725	-2.7438	-2.6583	-2.8167	-2.7292	-2.725	-2.9229	-2.6646	-2.9667	-2.825	-2.4271	-75.293	-130.264	34.828	-70.307	-154.875	-71.101	55.343	191.680	14.359	-118.242	-61.584	-27.000	169.518	-12.652	103.964	-95.710	0.00023894	0.00023642	5.385e-05	396.05	2.2397e-06	2.8637e-06	505.27	126.54	9.4915e-07	1.3322e-06	199.03	72.721	44.212	18.256	2.5727e-06	31.946	0.00015168	0.00014029	3.9364e-05	397.71	1.5578e-06	1.5502e-06	514.35	129.18	1.579e-06	1.5776e-06	200.13	73.607	45.045	18.578	1.5716e-06	32.33	191.877	-72.050	-81.745	-142.378	-2.738	-13.912	-142.545	-137.593	-17.541	-13.898	-139.065	-135.859	-133.485	-130.019	-75.452	-132.047	-8191	255	
1027.851	1	1	0	0	0.10493	0.1491	0.27692	0.12971	0.17697	0.28459	0.035229	0.23305	0.061811	0.20704	0.094788	0.22403	0.030245	0.061515	0.068155	0.14573	-2.4792	-2.6083	-2.6354	-3.0354	-2.7125	-2.7917	-2.8292	-2.6271	-2.9958	-2.6646	-2.6708	-2.9562	-2.6792	-2.625	-2.9042	-2.5896	133.339	150.266	155.700	-73.007	53.466	-8.529	74.474	156.664	180.726	13.670	-50.228	12.448	-58.856	95.910	145.853	119.928	0.00024494	0.00031355	7.3163e-05	389.43	1.7353e-06	3.1387e-06	504.93	125.88	2.1075e-06	4.3997e-06	198.24	73.03	44.273	18.247	1.8861e-06	32.263	0.00014936	0.00014319	4.0193e-05	397.88	1.5832e-06	1.5848e-06	514.48	129.17	1.6105e-06	1.6101e-06	199.98	73.829	44.997	18.536	1.5969e-06	32.429	-154.885	-56.010	-127.847	-141.898	14.140	-56.924	-142.707	-137.254	-58.632	-17.381	-138.964	-136.104	-134.099	-130.386	72.127	-132.395	-8191	255	
1027.947	1	1	0	0	0.064909	0.088826	0.19285	0.13293	0.063912	0.17089	0.10593	0.14788	0.214	0.1812	0.1208	0.30838	0.17192	0.25458	0.10336	0.20866	-2.5896	-2.7313	-2.6667	-3.0042	-2.7854	-2.8771	-2.8312	-2.6146	-2.9729	-2.625	-2.4938	-2.9792	-2.725	-2.8896	-2.8333	-2.6354	-148.981	-31.384	-127.062	118.612	169.727	26.735	-70.049	150.226	-0.648	56.366	94.610	106.012	169.332	138.488	-0.132	185.123	0.00024782	0.00020778	0.00013173	394.38	2.7923e-06	1.9077e-06	504.83	126.24	1.5377e-06	9.5567e-07	200.11	73.228	44.393	18.289	1.9055e-06	32.146	0.00015414	0.00014541	4.0757e-05	399.23	1.6029e-06	1.5928e-06	515.31	129.32	1.5953e-06	1.6316e-06	201.12	74.182	45.306	18.681	1.6318e-06	32.483	195.379	-39.734	-47.502	-142.035	-36.303	115.395	-142.563	-137.162	-10.899	-20.592	-139.395	-136.173	-134.160	-130.228	9.207	-132.176	-8191	255	
1028.068	1	1	0	0	0.14615	0.13979	0.24882	0.17208	0.087698	0.24477	0.19028	0.15891	0.31279	0.18886	0.20073	0.0317	0.26748	0.14109	0.15691	0.27496	-2.3688	-2.9021	-2.5917	-2.8104	-2.6521	-2.6188	-3.1271	-2.5792	-2.8812	-2.825	-2.7	-2.9375	-2.4792	-2.5708	-2.9688	-2.8208	-49.787	-114.055	191.616	143.055	-64.179	-105.458	179.248	-109.625	77.783	39.574	186.799	-25.726	2.020	-110.365	-109.759	171.908	0.00026873	0.00029881	6.5017e-05	390.2	2.8501e-06	2.2377e-06	505.88	127.28	3.532e-06	2.6576e-06	199.2	72.979	44.259	18.273	2.764e-07	32.018	0.00015461	0.00014786	4.1587e-05	398.02	1.6257e-06	1.6067e-06	515.23	129.59	1.6139e-06	1.6026e-06	200.69	73.879	45.226	18.545	1.6166e-06	32.369	-153.985	-31.249	-43.792	-141.852	5.125	24.659	-142.844	-137.246	-99.921	-17.514	-139.327	-136.081	-133.792	-130.022	-68.819	-132.415	-8191	255	
1028.140	1	1	0	0	0.11299	0.2374	0.13995	0.14964	0.29862	0.14976	0.054273	0.23152	0.066096	0.047771	0.083676	0.26747	0.25144	0.096375	0.057326	0.073759	-2.1417	-2.7917	-2.45	-2.7875	-2.5979	-2.4771	-2.8458	-2.6667	-2.7396	-2.8479	-2.5208	-2.925	-2.6646	-2.5396	-2.9854	-2.7083	-130.955	22.937	142.690	-47.748	-30.793	-51.035	184.563	101.738	38.565	-89.506	163.574	-94.818	-104.194	-69.885	-30.915	93.204	0.00024231	0.00021194	9.0706e-05	394.76	1.9313e-06	3.1002e-06	505.4	126.56	2.6036e-06	1.6219e-06	196.9	71.934	43.911	18.118	2.6583e-06	31.986	0.00015364	0.0001445	4.0631e-05	396.91	1.5873e-06	1.587e-06	512.97	129.13	1.5817e-06	1.5823e-06	198.93	73.235	44.945	18.475	1.5936e-06	32.238	199.110	42.286	-83.953	-141.909	10.639	48.903	-142.546	-137.455	-23.990	19.475	-139.418	-135.966	-133.881	-130.015	-35.497	-132.398	-8191	255	
1028.236	1	1	0	0	0.10378	0.20115	0.18396	0.1472	0.20297	0.055697	0.15514	0.17262	0.020977	0.068317	0.036835	0.29939	0.21937	0.16216	0.23549	0.18606	-2.125	-2.7958	-2.4271	-2.7479	-2.7583	-2.5521	-2.8937	-2.6958	-2.7854	-3.0417	-2.5208	-2.8583	-2.6583	-2.7771	-2.9354	-2.7979	180.394	24.402	157.171	194.216	136.271	-2.387	168.793	117.234	-150.352	-117.358	43.917	165.573	-98.869	-20.281	131.383	54.072	0.00024885	7.605e-05	0.00013747	391.56	3.6509e-06	3.7174e-06	502.54	125.44	3.6738e-06	3.5394e-06	198.95	72.398	43.676	18.231	2.3039e-07	31.884	0.00015354	0.00014394	4.0487e-05	396.15	1.5784e-06	1.6107e-06	510.81	128.94	1.6163e-06	1.5825e-06	199.38	73.383	44.813	18.521	1.5993e-06	32.212	193.004	-72.250	-55.749	-141.435	-11.328	-140.219	-142.355	-137.327	-49.182	40.523	-139.054	-136.304	-134.184	-129.761	126.545	-132.342	-8191	255	
1028.356	1	1	0	0	0.068281	0.13625	0.062898	0.14183	0.214	0.13342	0.20745	0.047894	0.087321	0.12704	0.052755	0.19862	0.33966	0.28965	0.21519	0.26376	-2.2333	-2.8792	-2.4167	-2.7479	-2.7521	-2.4354	-2.875	-2.7979	-2.5792	-2.9958	-2.4354	-2.7687	-2.8229	-2.4208	-2.8187	-2.8146	161.625	-81.122	16.327	47.205	184.306	69.977	-145.687	-30.958	188.616	5.591	-139.758	201.806	70.618	112.372	-125.664	177.019	0.0002507	0.00025045	6.1987e-05	390.24	1.1026e-06	8.524e-07	503.92	125.5	3.507e-06	1.2725e-06	197.27	72.146	43.548	18.084	3.4707e-06	31.933	0.00015143	0.00014523	4.0381e-05	394.99	1.5985e-06	1.5791e-06	512.99	128.17	1.597e-06	1.5884e-06	198.75	73.163	44.591	18.443	1.5964e-06	32.296	202.529	-68.315	-80.417	-142.132	-36.674	-98.961	-142.596	-137.292	-15.256	42.623	-139.089	-135.726	-134.034	-129.856	28.829	-132.797	-8191	255	
1028.453	1	1	0	0	0.065594	0.24772	0.10481	0.24274	0.27153	0.044871	0.14582	0.15514	0.21482	0.37048	0.26496	0.081585	0.18387	0.20337	0.17381	0.27364	-2.4146	-2.7062	-2.5083	-2.8375	-2.9854	-2.6417	-2.8917	-2.8021	-2.45	-2.9354	-2.6458	-2.8396	-2.9813	-2.3625	-2.7875	-2.8271	181.058	84.890	146.991	22.041	-112.298	-2.711	119.429	-27.525	98.296	139.537	203.722	126.516	167.539	11.180	65.248	-87.314	0.00024738	0.00022164	5.0282e-05	391	4.4903e-06	7.7241e-07	503.78	125.01	1.0594e-06	1.0246e-06	196.29	71.986	43.312	18.145	1.1972e-06	31.87	0.00015213	0.00014528	4.059e-05	395.94	1.5636e-06	1.5867e-06	512.97	127.83	1.5858e-06	1.6015e-06	198.05	72.936	44.366	18.349	1.5837e-06	32.209	192.843	-99.810	161.543	-141.914	-81.121	146.770	-142.296	-137.748	-24.482	-61.991	-139.190	-135.977	-133.982	-129.690	-50.187	-132.133	-8191	255	
1028.549	1	1	0	0	0.29005	0.18924	0.11759	0.037709	0.15563	0.12351	0.085391	0.14009	0.10484	0.25444	0.019657	0.041648	0.15894	0.31365	0.08759	0.19595	-2.1521	-2.6813	-2.7417	-2.6021	-3.0812	-2.8208	-2.7667	-2.7521	-2.4917	-2.7146	-2.8333	-2.7792	-2.8083	-2.7583	-2.825	-3.0417	-144.562	99.869	-6.496	-97.734	-63.247	40.658	-34.358	-21.199	188.221	-34.267	11.506	122.717	-129.337	203.971	-50.362	34.864	0.00025727	8.0715e-05	6.9946e-05	390.62	2.0308e-06	5.4737e-06	503.27	124.56	1.1443e-07	2.1362e-06	195.34	71.484	43.436	17.881	2.5335e-06	31.635	0.00015167	0.00014569	4.024e-05	396.29	1.565e-06	1.5683e-06	511.85	127.24	1.5882e-06	1.5766e-06	196.71	72.56	44.221	18.278	1.5834e-06	32.011	195.051	-29.981	-81.229	-142.639	-50.116	-14.265	-142.736	-137.553	-149.138	48.355	-139.146	-136.286	-134.231	-129.952	47.501	-132.261	-8191	255	
1028.668	1	1	0	0	0.15539	0.19238	0.1221	0.43861	0.076321	0.18137	0.072724	0.33755	0.11104	0.11987	0.28565	0.14659	0.068208	0.07555	0.17901	0.089813	-2.2687	-2.9979	-2.6479	-2.6458	-2.9958	-2.675	-2.8438	-2.8604	-2.5667	-2.9792	-2.7917	-2.6042	-2.8625	-2.65	-2.75	-2.8646	-134.737	11.158	189.547	117.562	102.428	95.840	-60.115	115.888	87.218	-106.195	-69.126	101.983	-37.983	191.478	55.330	19.329	0.00028761	0.00012795	6.1516e-05	391.8	1.578e-06	2.4405e-06	503.89	125.08	4.1434e-06	2.0254e-06	194.31	71.194	42.928	17.933	9.6304e-07	31.738	0.00015125	0.00014318	4.0214e-05	396.46	1.5673e-06	1.5584e-06	512.25	127.1	1.5851e-06	1.5758e-06	196.07	72.402	44.072	18.319	1.6002e-06	32.073	198.581	124.040	-47.741	-142.154	-42.762	22.081	-142.802	-137.444	-48.118	41.033	-139.188	-136.166	-134.089	-130.079	-31.032	-132.377	-8191	255	
1028.764	1	1	0	0	0.32171	0.081243	0.13555	0.13331	0.21218	0.062888	0.10502	0.09946	0.27581	0.25392	0.17266	0.21327	0.20206	0.031337	0.0059119	0.11498	-1.9042	-2.7792	-2.7562	-2.5104	-2.7458	-2.6042	-2.7604	-2.825	-2.4562	-2.8229	-2.8187	-2.5354	-2.725	-2.6083	-2.6167	-2.8312	19.431	151.456	26.877	-18.705	-49.402	146.292	103.057	-71.080	37.243	57.776	29.871	172.602	65.913	62.469	-120.093	-119.259	0.00023241	0.00019995	8.3203e-05	388.39	2.9873e-06	3.9327e-06	503.08	123.5	2.6416e-06	1.4143e-06	195.27	71.91	43.438	18.026	4.7196e-06	32.006	0.00015325	0.00014389	4.0107e-05	397.1	1.5762e-06	1.5802e-06	511.86	126.88	1.6035e-06	1.5852e-06	196.72	72.598	44.334	18.361	1.5985e-06	32.26	193.653	-96.755	-55.437	-141.895	11.241	-9.321	-142.538	-137.802	-43.539	122.502	-139.248	-135.983	-134.289	-129.834	-34.147	-132.495	-8191	255	
1028.835	1	1	0	0	0.13725	0.23511	0.22469	0.070278	0.3035	0.079641	0.13519	0.39904	0.10939	0.14328	0.1438	0.1444	0.21962	0.18494	0.069003	0.24598	-2.1479	-2.5354	-2.5667	-2.6104	-2.95	-2.6542	-2.6792	-2.8958	-2.5896	-2.75	-2.975	-2.5854	-2.8354	-2.4729	-2.4313	-2.9625	176.199	40.791	-6.817	-44.288	115.319	-113.808	52.859	122.563	198.719	-2.652	155.741	6.186	123.367	196.096	132.980	77.050	0.00027718	0.00012097	0.00010266	389.8	1.6008e-06	1.6167e-06	503.2	124.56	9.2872e-07	4.7123e-06	196.15	71.85	43.165	18.113	5.6582e-06	32.058	0.00015168	0.00014556	4.0049e-05	396.13	1.5967e-06	1.5949e-06	514.2	127.01	1.6011e-06	1.5944e-06	197.16	72.951	44.304	18.407	1.5936e-06	32.386	198.668	-61.137	-101.383	-141.744	2.535	-46.383	-143.009	-137.596	11.538	20.783	-139.467	-136.002	-134.156	-129.701	-72.662	-132.200	-8191	255	
1028.956	1	1	0	0	0.26227	0.16843	0.33922	0.11415	0.18044	0.19426	0.11097	0.24697	0.32127	0.20614	0.26821	0.32328	0.065986	0.054359	0.13532	0.2168	-2.2021	-2.8729	-2.7479	-2.575	-2.825	-2.8063	-2.5792	-2.8854	-2.6167	-2.6813	-2.9313	-2.675	-2.7583	-2.7687	-2.3896	-2.9979	-87.369	140.402	-149.289	-88.854	-149.524	-116.235	143.696	-133.624	153.944	-119.759	-33.668	128.933	42.355	-24.727	-119.408	-147.155	0.00025058	0.00040218	0.00013488	390.09	1.32e-06	3.962e-06	506.1	124.18	1.25e-06	7.0173e-07	195.4	71.874	43.504	18.068	2.3064e-06	31.956	0.0001539	0.00014497	4.0528e-05	397.94	1.6095e-06	1.6072e-06	516.15	127.41	1.6191e-06	1.5792e-06	197.41	72.887	44.27	18.416	1.6008e-06	32.238	189.003	-80.741	-114.471	-141.739	-8.889	35.054	-142.615	-137.427	-17.376	129.673	-139.258	-136.023	-133.981	-129.868	-39.940	-132.255	-8191	255	
1029.052	1	1	0	0	0.075761	0.12464	0.22058	0.067804	0.12816	0.097335	0.15806	0.1229	0.24409	0.043936	0.15788	0.10327	0.19246	0.17593	0.18112	0.22665	-2.2104	-2.7646	-2.925	-2.675	-2.9042	-2.8333	-2.5208	-2.9125	-2.7875	-2.7167	-3.025	-2.675	-2.8937	-2.8688	-2.4562	-2.7229	-107.722	-23.028	93.669	-127.741	-84.536	-102.623	160.753	-88.323	-53.843	-92.508	118.815	-88.709	-1.057	13.224	-89.525	-154.909	0.00022394	0.00026688	0.00010644	388.96	3.7521e-07	1.7178e-06	502.7	124.85	9.323e-07	1.5594e-06	195.87	71.965	43.318	18.124	4.1301e-07	32.17	0.00015512	0.00014603	4.0301e-05	396.37	1.5781e-06	1.6062e-06	513.03	127.32	1.6055e-06	1.5761e-06	197.39	72.926	44.377	18.462	1.6331e-06	32.345	201.521	-73.213	142.367	-141.435	-86.888	-38.527	-142.425	-137.426	-15.584	-88.241	-139.058	-136.342	-134.319	-129.610	-29.418	-132.072	-8191	255	
1029.148	1	1	0	0	0.30406	0.19655	0.26125	0.28968	0.15531	0.047841	0.23104	0.012994	0.20381	0.12571	0.17729	0.16202	0.20773	0.055415	0.094778	0.083377	-2.2521	-2.6854	-2.85	-2.6354	-2.7708	-2.9625	-2.7292	-2.9583	-2.7104	-2.6458	-3.1937	-2.7104	-2.7	-2.8979	-2.5396	-2.8312	-102.648	-110.700	-38.533	115.084	87.408	-12.176	-141.350	-0.961	191.025	-6.597	-136.583	-72.685	164.955	-120.918	-13.290	147.956	0.00028107	0.00033407	3.6702e-05	389.97	1.5443e-06	1.4985e-06	507	123.48	3.33e-06	3.4638e-06	195.82	72.006	43.435	18.209	3.3156e-06	32.079	0.00015447	0.00014583	4.0831e-05	397.4	1.5802e-06	1.5746e-06	516.41	126.84	1.5914e-06	1.5604e-06	197.75	73.064	44.299	18.501	1.602e-06	32.426	193.143	-0.929	-48.291	-141.583	-89.189	110.036	-142.807	-137.365	-60.902	13.406	-139.261	-136.032	-133.917	-129.933	57.219	-132.038	-8191	255	
1029.245	1	1	0	0	0.041287	0.092818	0.21106	0.2876	0.067491	0.19325	0.30538	0.17651	0.051199	0.12146	0.081488	0.17797	0.023323	0.081919	0.092063	0.19432	-2.2938	-2.575	-2.8688	-2.5563	-2.8812	-2.8729	-2.6292	-2.9792	-2.8146	-2.6146	-2.8271	-2.7938	-2.6271	-2.8854	-2.5792	-2.85	-146.608	185.060	5.594	95.333	27.034	65.849	-0.152	73.938	156.633	4.431	117.578	143.155	149.789	-112.854	-57.128	172.784	0.00024084	0.00020377	8.3335e-05	394	5.9019e-07	2.1366e-06	506.59	125.35	6.4708e-07	1.5205e-06	196.42	72.542	43.472	18.135	1.2949e-06	32.3	0.00015266	0.00014604	4.0439e-05	398.53	1.5726e-06	1.5869e-06	516.06	127.74	1.5937e-06	1.5988e-06	198.11	73.292	44.526	18.514	1.6284e-06	32.543	195.737	-9.886	-78.824	-141.876	136.663	33.538	-142.580	-137.440	-74.461	-44.204	-139.180	-136.157	-134.094	-129.768	15.644	-131.700	-8191	255	
1029.365	1	1	0	0	0.17741	0.18602	0.11383	0.098752	0.18438	0.2174	0.23682	0.26151	0.29784	0.34332	0.15343	0.020883	0.24571	0.13427	0.054201	0.2012	-2.2083	-2.4229	-2.8021	-2.6667	-2.7667	-2.8792	-2.5896	-2.8	-2.7042	-2.5854	-2.7854	-2.7604	-2.5042	-2.8458	-2.6542	-2.7292	-29.074	116.366	-126.012	147.147	90.741	-101.336	-121.417	183.369	24.839	96.479	-120.409	-64.180	155.418	202.368	86.791	-15.485	0.00028471	0.00023642	2.3186e-05	394.16	2.809e-06	4.1215e-06	512.42	123.95	1.7288e-06	3.9503e-06	197.42	72.317	43.386	18.14	6.0577e-07	32.191	0.00015397	0.00014578	4.0917e-05	397.71	1.5701e-06	1.5664e-06	518.22	127.08	1.5857e-06	1.6072e-06	198.59	73.265	44.377	18.504	1.5954e-06	32.529	199.866	-98.855	37.392	-142.012	12.201	21.211	-142.647	-137.726	-39.814	8.440	-139.239	-136.516	-133.869	-130.070	-15.260	-132.242	-8191	255	
1029.437	1	1	0	0	0.31424	0.15929	0.15013	0.24014	0.24514	0.05251	0.13795	0.11695	0.16045	0.15726	0.21887	0.10254	0.043603	0.20803	0.21165	0.36032	-2.5	-2.5812	-2.8042	-2.475	-2.625	-2.8625	-2.6958	-2.7229	-2.7938	-2.5687	-3.0125	-2.7979	-2.7854	-2.9917	-2.6146	-2.7687	71.762	77.009	-41.156	152.392	-133.522	-99.604	89.295	170.678	3.476	0.584	125.069	-113.163	56.281	198.169	53.920	164.827	0.00026545	0.00027635	1.7528e-05	391.63	2.2839e-06	1.0779e-06	503.08	124.31	2.7223e-06	1.2123e-06	194.42	72.039	43.133	18.161	1.8942e-06	32.187	0.00015297	0.00014638	4.0249e-05	397.03	1.5679e-06	1.5704e-06	514.2	126.76	1.6042e-06	1.5832e-06	197.15	73	44.194	18.483	1.5943e-06	32.49	194.676	-103.707	27.731	-141.647	-54.663	9.473	-142.912	-137.543	-70.488	79.272	-139.206	-136.207	-133.906	-129.791	-21.366	-132.164	-8191	255	
1029.533	1	1	0	0	0.090334	0.18543	0.17843	0.22323	0.27991	0.17935	0.24027	0.1815	0.163	0.11975	0.19161	0.26248	0.11261	0.12523	0.16624	0.15129	-2.6146	-2.4167	-2.8729	-2.8479	-2.4729	-2.9437	-2.7542	-2.7083	-2.8521	-2.5938	-2.8688	-2.7958	-2.7604	-3.0333	-2.6292	-2.5979	69.124	-115.174	12.794	56.894	46.346	-111.707	138.469	82.385	10.298	85.561	123.988	124.182	151.639	88.046	21.199	129.656	0.00025654	0.00013653	8.7063e-05	390.43	1.3336e-06	3.4995e-06	504.84	124.31	7.3378e-07	1.8343e-06	195.3	71.802	43.327	18.201	1.5797e-06	32.165	0.00015225	0.00014367	4.0551e-05	396.67	1.5899e-06	1.5839e-06	512.58	127.12	1.5593e-06	1.5886e-06	197.52	73.035	44.379	18.476	1.5914e-06	32.532	201.149	13.146	-81.159	-141.651	34.267	4.150	-142.576	-137.689	117.502	10.511	-139.396	-136.140	-134.178	-129.914	-0.883	-131.870	-8191	255	
1029.629	1	1	0	0	0.16901	0.082129	0.16515	0.12493	0.10828	0.19588	0.22644	0.17617	0.04847	0.14597	0.1076	0.18655	0.079581	0.063451	0.075502	0.029029	-2.2812	-2.4271	-2.5979	-2.8063	-2.4333	-2.9313	-2.7208	-2.6437	-2.9208	-2.3542	-2.7542	-2.6688	-2.6208	-2.975	-2.8	-2.6021	127.826	-84.831	63.731	123.531	153.933	-34.954	156.032	102.462	-151.565	-31.519	-109.085	-78.993	-31.439	62.183	-103.090	170.315	0.00023736	2.1003e-05	0.00014945	390.17	1.959e-06	2.7786e-06	503.45	124.68	1.9762e-06	4.0463e-06	195.78	72.017	43.272	18.262	9.4495e-07	32.444	0.00015271	0.00014495	4.0443e-05	397.24	1.5764e-06	1.5875e-06	513.6	127.44	1.5935e-06	1.5903e-06	198.06	73.082	44.378	18.544	1.5909e-06	32.75	197.201	74.315	-118.937	-141.842	-51.322	-8.857	-142.701	-137.333	-11.513	33.696	-139.134	-136.053	-134.476	-129.933	-44.535	-132.328	-8191	255	
1029.748	1	1	0	0	0.20497	0.073389	0.34196	0.35054	0.22552	0.033363	0.34294	0.1215	0.14159	0.22633	0.32775	0.21652	0.10817	0.14492	0.052845	0.42521	-2.3833	-2.5833	-2.8063	-2.8771	-2.4979	-2.8167	-2.7729	-2.5667	-3.0438	-2.5292	-2.6813	-2.8688	-2.5792	-2.7396	-2.7583	-2.6063	5.095	-96.334	-132.831	178.366	113.334	139.133	124.791	37.874	0.204	16.130	-42.113	69.847	201.099	-135.176	-1.502	186.013	0.00021778	0.00015552	8.2348e-05	388.67	9.5463e-07	2.08e-06	502.31	124.46	3.9079e-06	2.4268e-06	198.09	72.282	43.568	18.359	5.5405e-07	32.418	0.00015385	0.0001452	4.0083e-05	395.03	1.5939e-06	1.5793e-06	514.4	127.53	1.582e-06	1.6038e-06	199.22	73.473	44.501	18.639	1.5957e-06	32.89	196.960	27.574	-127.679	-141.651	-9.528	40.339	-142.552	-137.553	-15.267	-6.217	-139.100	-136.056	-133.990	-129.697	32.196	-131.941	-8191	255	
1029.844	1	1	0	0	0.20237	0.15591	0.39944	0.10948	0.10786	0.27659	0.051421	0.063066	0.14968	0.12452	0.14429	0.12369	0.09761	0.091863	0.13183	0.218	-2.5521	-2.4167	-2.7062	-2.9396	-2.6354	-2.8896	-2.5979	-2.5875	-2.8521	-2.7229	-2.5792	-2.8604	-2.5042	-2.8979	-2.7812	-2.6688	-152.753	-57.395	-59.936	118.608	-28.755	87.714	-7.587	-14.884	59.261	193.414	6.490	-76.340	88.636	-22.913	93.648	-132.706	0.00026906	0.00035208	0.00011566	390.22	1.7873e-06	2.6658e-06	506.19	123.95	2.2623e-06	1.3443e-06	196.9	72.54	43.357	18.215	3.6219e-07	32.527	0.0001545	0.00014527	4.0203e-05	394.86	1.5843e-06	1.5774e-06	514.19	127.2	1.5987e-06	1.5791e-06	198.18	73.229	44.399	18.582	1.6021e-06	32.76	199.925	-20.420	-45.171	-141.936	19.858	-54.486	-142.775	-137.417	-20.691	-115.687	-139.354	-135.610	-134.045	-129.832	42.284	-132.171	-8191	255	
1029.940	1	1	0	0	0.25427	0.14635	0.098772	0.057747	0.24814	0.16996	0.25251	0.15452	0.096748	0.16105	0.020403	0.069688	0.0068508	0.20271	0.14541	0.11296	-2.3417	-2.5167	-2.4375	-2.8688	-2.5875	-2.6917	-2.7208	-2.7062	-2.8792	-2.6458	-2.7562	-2.8875	-2.7229	-2.7458	-2.7146	-2.6042	-101.452	15.062	16.577	9.278	-73.768	-73.063	204.005	-111.351	-4.538	199.061	138.282	-89.002	-131.486	-138.161	122.209	-96.604	0.00026372	0.00037395	9.8816e-05	392.41	2.1243e-06	4.9495e-06	504.69	124.78	1.9515e-06	4.3607e-06	197	72.809	43.777	18.364	2.001e-06	32.583	0.0001536	0.00014399	4.0305e-05	395.89	1.5901e-06	1.59e-06	513.87	127.68	1.578e-06	1.584e-06	198.49	73.54	44.547	18.664	1.5732e-06	32.846	197.473	-53.133	-57.680	-141.531	-49.403	40.570	-142.603	-137.167	-35.898	50.976	-139.470	-136.103	-133.664	-130.275	-88.656	-132.483	-8191	255	
1030.036	1	1	0	0	0.085312	0.17631	0.14369	0.14322	0.099036	0.18952	0.050633	0.021994	0.060012	0.23702	0.14199	0.23348	0.23657	0.19217	0.20909	0.26577	-2.3667	-2.6708	-2.5896	-2.7771	-2.6312	-2.7667	-3.1271	-2.6229	-2.7896	-2.6646	-2.575	-2.7708	-2.6625	-2.7188	-2.7958	-2.7542	-135.730	140.284	-45.087	-49.903	-38.240	164.804	196.612	-31.014	99.163	-20.009	-138.292	144.077	172.772	-150.919	195.612	135.415	0.00026902	0.00038286	2.2545e-05	389.96	3.7017e-06	9.4683e-07	501.45	125.34	1.1117e-06	1.6929e-06	198.48	72.88	43.694	18.375	3.7895e-06	32.68	0.000152	0.00014266	3.9789e-05	395.96	1.58e-06	1.5712e-06	513.67	128.23	1.5831e-06	1.5444e-06	200.05	73.964	44.78	18.75	1.5691e-06	33.079	201.658	8.491	-75.965	-141.400	65.346	58.608	-142.839	-137.595	-94.081	38.865	-139.192	-135.854	-133.983	-129.842	-28.418	-132.280	-8191	255	
1030.133	1	1	0	0	0.28127	0.022343	0.14764	0.11633	0.10976	0.23027	0.11914	0.25136	0.085644	0.18089	0.21009	0.06309	0.17106	0.083113	0.25416	0.35084	-2.3104	-2.7479	-2.5375	-2.7479	-2.7271	-2.5958	-2.8729	-2.3708	-2.8542	-2.825	-2.6792	-3.0229	-2.7417	-2.7625	-2.9437	-2.7562	145.472	-122.895	121.618	-124.798	167.249	70.798	-51.981	107.524	-80.971	178.303	24.543	129.406	-26.869	-135.968	-39.026	124.360	0.00027692	8.3754e-05	1.1724e-05	393.27	1.1688e-06	9.631e-07	504.22	126.18	1.9964e-06	2.3771e-06	198.72	73.455	44.477	18.524	2.459e-06	32.969	0.0001509	0.00014314	4.045e-05	395.98	1.5495e-06	1.5761e-06	514.4	128.9	1.5854e-06	1.5573e-06	200.84	74.545	45.129	18.872	1.5757e-06	33.239	201.745	-46.926	100.491	-142.081	-27.706	-33.065	-142.847	-137.380	-82.610	98.482	-139.497	-135.893	-134.264	-129.841	-2.131	-132.056	-8191	255	
1030.229	1	1	0	0	0.17532	0.0087258	0.050601	0.19724	0.049987	0.1135	0.25937	0.25227	0.032907	0.055437	0.14809	0.21141	0.16956	0.096504	0.088806	0.18299	-2.3688	-2.8146	-2.6979	-2.9208	-2.8979	-2.6375	-2.9771	-2.5667	-2.85	-2.9292	-2.3729	-2.8021	-2.7417	-2.7583	-2.7708	-2.7833	-145.126	100.528	169.131	139.024	189.531	115.452	-150.161	-148.972	-62.272	-108.023	-81.094	22.936	176.034	197.436	193.529	190.493	0.00027951	0.00043152	0.00011813	392	1.6487e-06	2.762e-06	508.63	126.41	2.0318e-06	9.5754e-07	200.08	73.599	44.505	18.586	1.9117e-06	32.742	0.00015134	0.00014393	3.9958e-05	398.19	1.571e-06	1.5641e-06	517.11	128.94	1.5572e-06	1.5587e-06	201.44	74.681	45.202	18.872	1.5843e-06	33.124	-153.533	-65.943	-100.869	-141.884	39.726	-36.515	-142.596	-137.590	-112.624	-57.453	-139.323	-136.127	-134.461	-129.965	-90.883	-132.332	-8191	255	
1030.349	1	1	0	0	0.074455	0.22598	0.11032	0.10789	0.090343	0.15789	0.15687	0.15884	0.1249	0.24461	0.039511	0.0808	0.18463	0.15261	0.050168	0.2035	-2.2667	-2.7938	-2.5875	-2.875	-2.7042	-2.7	-2.9792	-2.6667	-2.4479	-3.0708	-2.7	-2.5729	-2.6604	-2.6833	-2.7812	-2.7229	-91.941	106.604	100.524	51.331	144.453	-100.042	72.020	124.660	144.200	-130.729	-115.368	127.293	-63.339	171.143	127.774	129.461	0.00029068	0.00015397	6.4317e-05	388.78	1.5554e-06	3.5062e-06	506.24	126.06	1.5765e-06	2.9618e-06	198.12	72.447	43.944	18.4	3.3247e-06	32.724	0.00014996	0.00014171	4.009e-05	395.05	1.5676e-06	1.5614e-06	515.11	128.72	1.5964e-06	1.5737e-06	199.99	73.777	44.852	18.714	1.5792e-06	33.053	-154.332	-60.031	-46.483	-141.661	11.224	16.062	-142.873	-137.487	3.519	20.931	-139.168	-136.263	-133.859	-129.845	42.447	-132.314	-8191	255	
1030.446	1	1	0	0	0.22305	0.088435	0.16433	0.24121	0.091076	0.2505	0.13083	0.13605	0.076915	0.22983	0.27989	0.24108	0.28136	0.07658	0.15422	0.14006	-2.1854	-3.0917	-2.4313	-2.9604	-2.7896	-2.5521	-3.0667	-2.8021	-2.7479	-3.0167	-2.5396	-2.7646	-2.8646	-2.6125	-2.9125	-2.7271	75.926	94.347	187.385	-151.948	-89.012	181.019	-115.135	88.248	40.733	190.781	158.576	133.243	-52.506	154.318	-138.362	-70.421	0.00025064	0.00038699	7.3708e-05	392.79	2.1078e-06	1.7918e-06	506.41	125.67	1.0824e-06	2.6753e-06	198.14	73.618	44.102	18.487	2.9975e-06	32.893	0.00015235	0.00014342	3.9288e-05	397.19	1.5644e-06	1.5702e-06	515.48	128.44	1.5682e-06	1.5751e-06	200.4	74.355	45.008	18.823	1.5694e-06	33.168	202.251	-36.741	-119.687	-141.656	-5.033	72.283	-142.681	-137.690	-7.238	-24.805	-139.387	-136.166	-134.246	-129.421	-37.844	-132.228	-8191	255	
1030.540	1	1	0	0	0.064994	0.087334	0.17249	0.057329	0.074731	0.22292	0.32888	0.25854	0.08582	0.024463	0.12033	0.19587	0.09101	0.25822	0.071773	0.002869	-2.25	-2.9979	-2.6625	-2.5375	-3.0729	-2.5521	-2.8521	-2.8729	-2.6125	-2.9354	-2.6979	-2.7458	-2.9521	-2.5396	-2.8042	-2.925	-146.545	38.547	69.060	178.288	64.391	-113.272	129.171	134.695	59.350	-22.479	8.930	119.078	160.535	-99.243	123.259	27.799	0.0002694	0.00035669	8.3401e-05	390.33	1.4342e-06	9.1625e-07	506.77	125.92	1.5989e-06	2.6295e-06	197.45	73.622	43.931	18.552	8.3453e-07	32.955	0.00014977	0.00014321	3.9786e-05	396.02	1.5537e-06	1.5647e-06	517.65	128.59	1.5773e-06	1.582e-06	200.23	74.495	44.987	18.857	1.5789e-06	33.334	201.978	-33.581	-116.669	-141.427	-56.419	26.699	-142.565	-137.118	-43.282	-53.576	-139.106	-136.333	-134.106	-130.223	-34.296	-132.035	-8191	255	
1030.638	1	1	0	0	0.16469	0.29144	0.15345	0.14055	0.27713	0.14264	0.096006	0.157	0.07574	0.035208	0.13901	0.063031	0.12811	0.29185	0.12631	0.17864	-2.0167	-2.8417	-2.7271	-2.725	-2.8	-2.5792	-2.8708	-2.7229	-2.7	-2.7979	-2.5938	-2.5146	-2.7938	-2.6542	-2.8	-2.9729	-106.971	119.827	-66.486	-114.313	-27.796	-104.339	-102.153	-94.097	-53.935	-107.321	-100.251	-56.104	-149.569	51.581	-126.442	123.958	0.00026438	0.00033836	4.0559e-05	390.5	1.8676e-06	4.6616e-06	511.08	125.22	2.0605e-06	3.1653e-06	200.2	73.765	44.322	18.574	1.5489e-06	32.942	0.00015235	0.00014213	3.9967e-05	397.74	1.5743e-06	1.5815e-06	518.77	128.42	1.5778e-06	1.5701e-06	201.43	74.648	45.056	18.919	1.5823e-06	33.342	197.524	-75.448	-153.115	-142.185	-39.928	10.968	-142.375	-137.355	16.615	14.903	-139.389	-135.886	-134.226	-129.888	10.750	-132.204	-8191	255	
1030.732	1	1	0	0	0.11375	0.084036	0.1182	0.15426	0.2416	0.14235	0.14236	0.32365	0.2056	0.20028	0.30356	0.048212	0.18336	0.2722	0.25739	0.31489	-2.0938	-2.6708	-2.6833	-2.5458	-3.025	-2.5292	-2.6229	-2.8229	-2.5687	-2.9688	-2.725	-2.6063	-2.9104	-2.5312	-2.7958	-2.8625	180.790	122.391	103.835	-50.904	6.501	-39.016	-30.947	-142.417	114.965	141.228	123.686	78.771	181.911	-44.960	-17.556	183.878	0.00027489	0.00041791	0.00010568	394.77	2.9115e-06	3.0056e-06	508.98	125.45	6.3234e-07	2.8452e-06	198.01	73.084	44.259	18.544	1.4756e-06	32.881	0.00014863	0.00014319	3.9898e-05	398.47	1.5634e-06	1.5699e-06	517.84	128.31	1.5919e-06	1.5611e-06	200.02	74.179	44.965	18.865	1.5674e-06	33.239	192.851	-65.649	-114.982	-142.153	-18.466	-3.690	-142.761	-137.429	-61.166	-10.502	-139.389	-136.012	-134.161	-130.021	-28.608	-132.033	-8191	255	
1030.828	1	1	0	0	0.13541	0.10754	0.16183	0.23034	0.0083834	0.15295	0.28901	0.40155	0.13978	0.015536	0.1011	0.10867	0.11403	0.14995	0.17515	0.11333	-2.1292	-2.7125	-2.7104	-2.4958	-2.9167	-2.6021	-2.8688	-2.9375	-2.8187	-2.7792	-2.7583	-2.6667	-2.9146	-2.6188	-2.775	-3.0271	-91.497	-138.381	-76.261	128.924	-143.244	-27.982	140.770	-66.835	135.211	-58.900	201.681	192.497	172.418	-143.635	73.502	-39.806	0.00023572	0.0003772	7.381e-05	391.89	9.8932e-07	3.8444e-06	510.61	126.38	2.7878e-06	3.5696e-06	198.33	73.44	44.372	18.655	1.8711e-06	33.091	0.00015082	0.0001425	3.914e-05	398.15	1.5761e-06	1.5595e-06	518.19	128.91	1.573e-06	1.5828e-06	200.79	74.456	45.177	18.917	1.5416e-06	33.404	196.509	-26.545	-93.691	-142.265	-19.533	33.464	-142.475	-137.541	-148.880	-16.641	-139.350	-136.093	-134.246	-129.859	8.229	-132.395	-8191	255	
1030.925	1	1	0	0	0.13295	0.14931	0.19412	0.13771	0.20171	0.3056	0.12033	0.22822	0.19673	0.18184	0.13543	0.058931	0.096888	0.11513	0.16921	0.12819	-2.0667	-2.675	-2.7292	-2.5271	-2.8063	-2.5354	-2.6083	-2.8604	-2.4938	-2.7875	-2.7229	-2.6667	-2.8417	-2.8	-2.475	-2.8833	-26.207	77.700	-102.894	149.304	66.714	58.883	-144.088	202.482	0.816	-2.100	98.500	-153.633	81.708	76.373	-28.429	133.610	0.00028809	0.00031859	6.6506e-05	394.21	1.6726e-06	2.6442e-06	509.96	126.24	2.1733e-06	3.197e-06	200.45	74.015	44.688	18.622	3.1832e-06	33.072	0.00015225	0.00014186	3.9574e-05	397.58	1.5629e-06	1.5571e-06	519.39	129.02	1.5848e-06	1.5501e-06	202.17	74.826	45.156	18.956	1.5954e-06	33.434	-153.540	-11.559	-18.827	-141.979	19.037	35.601	-142.689	-137.396	-7.009	-37.846	-139.105	-135.975	-134.571	-130.003	-9.606	-132.236	-8191	255	
1031.045	1	1	0	0	0.10174	0.16521	0.067438	0.050828	0.11687	0.11274	0.42196	0.14401	0.17005	0.22831	0.18435	0.062133	0.15574	0.27118	0.23802	0.31306	-2.1708	-2.5375	-2.8646	-2.6458	-2.8979	-2.8021	-2.3688	-2.9979	-2.4146	-2.7812	-3.0271	-2.4854	-2.6833	-2.7167	-2.4458	-2.8917	48.948	-62.411	-49.673	-127.151	-138.848	-67.248	-106.940	38.729	-23.314	132.560	190.626	-51.809	173.677	151.565	-122.876	64.973	0.00025439	0.00020031	3.4107e-05	394	4.2451e-06	2.9875e-06	510.2	125.82	1.8186e-06	2.4923e-06	199.7	74.014	44.367	18.721	4.5602e-06	33.29	0.0001515	0.00014401	4e-05	398.43	1.5787e-06	1.5864e-06	519.52	128.68	1.5876e-06	1.5913e-06	201.55	74.858	45.153	18.993	1.5958e-06	33.556	-154.085	-64.820	-92.547	-141.841	-27.430	6.436	-142.336	-137.471	14.920	34.621	-139.283	-135.672	-134.308	-129.899	5.923	-132.024	-8191	255	
1031.141	1	1	0	0	0.21954	0.25338	0.18342	0.23137	0.02337	0.092187	0.11455	0.2181	0.30119	0.011676	0.16146	0.24095	0.16432	0.39487	0.050107	0.36588	-2.15	-2.5708	-2.7292	-2.3937	-2.7583	-2.8312	-2.6208	-2.9896	-2.7104	-2.6958	-2.9875	-2.5708	-2.7687	-2.875	-2.5438	-3.0021	-81.898	144.560	-8.207	19.381	105.918	-70.959	-4.483	87.018	-138.833	-46.860	-16.968	122.054	39.995	178.975	-116.885	-120.938	0.00026856	0.00027271	3.0265e-05	392.96	1.4356e-06	3.5057e-06	510.57	126.66	1.5681e-06	4.1022e-06	200.33	73.44	44.136	18.639	7.4442e-07	33.071	0.00015348	0.00014276	3.9701e-05	398.31	1.5639e-06	1.5658e-06	519.39	129.1	1.5685e-06	1.574e-06	201.25	74.706	44.958	18.92	1.5784e-06	33.375	199.336	-25.097	19.286	-142.257	-11.898	-26.536	-142.650	-137.287	-62.552	-76.254	-139.445	-135.869	-134.013	-129.835	-91.893	-132.245	-8191	255	
1031.237	1	1	0	0	0.11121	0.2843	0.038329	0.13441	0.04777	0.20412	0.23185	0.042047	0.11741	0.27428	0.078962	0.2454	0.41748	0.20112	0.16788	0.34312	-2.4354	-2.7479	-3.0271	-2.7583	-2.8042	-2.7646	-2.5792	-3.0333	-2.675	-2.6417	-2.9604	-2.3438	-2.6146	-2.8479	-2.6104	-2.85	35.909	66.877	-4.634	143.456	199.325	-95.733	43.580	64.984	38.844	84.902	203.874	190.458	-132.896	98.816	-82.927	169.495	0.00027876	0.00029733	2.1671e-05	390.95	2.3713e-06	1.9809e-06	510.65	125.07	2.8972e-06	5.8278e-07	198.46	73.291	43.772	18.582	1.3512e-06	33.078	0.00015292	0.00014238	3.9703e-05	398.47	1.5799e-06	1.5505e-06	518.21	128.19	1.5707e-06	1.5889e-06	200.22	74.34	44.733	18.87	1.5788e-06	33.35	198.327	-61.362	0.406	-141.730	-5.930	111.850	-142.784	-137.244	11.652	-112.440	-138.950	-136.179	-133.856	-130.099	19.503	-131.836	-8191	255	
1031.309	1	1	0	0	0.18068	0.19757	0.30599	0.081933	0.056333	0.11923	0.27126	0.26396	0.20919	0.18765	0.1771	0.24689	0.21371	0.1716	0.079938	0.14511	-2.0125	-2.5417	-2.7042	-2.7938	-2.6167	-2.7958	-2.5687	-2.9979	-2.9625	-2.4583	-2.9458	-2.7375	-2.7271	-2.8312	-2.4042	-2.9	47.417	185.505	37.141	125.542	45.626	4.377	166.618	149.283	-48.961	172.602	120.977	178.368	0.132	154.302	-15.724	146.141	0.00025276	0.00057773	5.9097e-05	389.82	3.1292e-06	1.6665e-06	509.28	125.42	1.817e-06	3.1695e-06	198.48	72.643	43.741	18.463	1.6188e-06	33.21	0.00015077	0.00014305	4.022e-05	396.82	1.5606e-06	1.5579e-06	518.38	127.85	1.5683e-06	1.5753e-06	199.63	74.117	44.644	18.817	1.5769e-06	33.492	198.764	-57.162	-17.105	-142.027	0.929	-88.394	-142.333	-137.613	-4.129	44.854	-139.225	-136.152	-133.759	-129.581	-65.751	-132.084	-8191	255	
1031.430	1	1	0	0	0.23934	0.3385	0.36315	0.097854	0.092446	0.23704	0.25731	0.028009	0.17797	0.14814	0.30623	0.14574	0.21805	0.035831	0.22737	0.28208	-2.2792	-2.4688	-2.8312	-2.5687	-2.6167	-3.0458	-2.55	-3.0646	-2.8521	-2.45	-2.8667	-2.6396	-2.6792	-2.9792	-2.6562	-2.8354	-13.737	137.999	-104.074	38.467	-39.730	128.496	194.465	164.667	34.673	180.948	-86.723	-154.881	-23.804	120.212	-52.200	131.673	0.00027247	0.00039409	0.00012475	396.89	1.1362e-06	3.4316e-06	508.14	125.28	1.5874e-06	2.3679e-06	198.34	73.678	43.599	18.604	1.2314e-06	33.239	0.00015212	0.00014358	4.0476e-05	397.82	1.5563e-06	1.5819e-06	519.95	127.72	1.5807e-06	1.5639e-06	200.64	74.487	44.7	18.887	1.58e-06	33.66	202.494	-26.400	-88.245	-141.742	132.482	-23.419	-142.783	-137.449	-84.963	-56.989	-139.045	-135.828	-134.372	-129.927	89.197	-132.078	-8191	255	
1031.526	1	1	0	0	0.19887	0.080156	0.1462	0.22267	0.188	0.083651	0.14052	0.31573	0.17152	0.14673	0.060108	0.10675	0.083873	0.082344	0.14232	0.1816	-2.4833	-2.4688	-2.8354	-2.8542	-2.65	-2.9688	-2.6875	-2.7562	-2.8417	-2.6167	-3.0542	-2.7708	-2.5875	-2.7562	-2.7604	-2.775	-44.092	170.688	34.692	10.712	121.345	73.338	-80.281	170.673	154.091	-29.018	-55.443	-103.246	198.258	-147.660	-1.251	166.091	0.00030088	5.014e-05	6.1996e-05	390.58	1.2e-06	2.3519e-06	513.06	125.56	2.6863e-06	1.6006e-06	198.46	73.484	43.517	18.555	1.2305e-06	33.181	0.00015037	0.00014544	4.0041e-05	397.18	1.5644e-06	1.5636e-06	521.81	127.93	1.5692e-06	1.5775e-06	200.49	74.516	44.603	18.883	1.566e-06	33.498	-152.249	-91.093	-86.522	-141.838	-73.552	4.781	-142.623	-137.558	-30.671	-59.678	-139.212	-135.900	-134.078	-129.476	-71.486	-131.970	-8191	255	
1031.622	1	1	0	0	0.31011	0.23828	0.23712	0.12812	0.11703	0.21797	0.14459	0.33798	0.036841	0.15321	0.21559	0.064237	0.041416	0.18573	0.31459	0.085451	-2.5167	-2.5083	-2.975	-2.7979	-2.5167	-2.8708	-2.9875	-2.9417	-2.7396	-2.5958	-2.9708	-2.7875	-2.6458	-2.7958	-2.7292	-2.8438	86.528	-105.754	-24.351	-13.643	-53.679	-136.118	145.744	-139.031	-124.884	171.265	203.137	146.220	185.034	-32.583	119.468	106.554	0.00028497	0.00043602	0.00012306	393.45	2.7758e-06	1.7288e-06	510.73	124.44	1.0591e-06	2.4251e-06	197.8	73.169	43.475	18.491	2.3402e-06	33.374	0.0001531	0.00014538	3.9784e-05	398.01	1.5842e-06	1.5691e-06	520.54	126.8	1.5834e-06	1.6006e-06	199.36	74.062	44.494	18.885	1.5733e-06	33.533	199.283	-81.745	-103.760	-142.536	42.839	-104.472	-142.634	-137.375	-13.613	71.850	-139.276	-135.873	-134.390	-129.913	-23.071	-131.914	-8191	255	
1031.718	1	1	0	0	0.31759	0.36447	0.10655	0.20336	0.049111	0.1169	0.11915	0.37683	0.061786	0.11428	0.19648	0.10565	0.16904	0.15103	0.13587	0.063665	-2.4062	-2.5979	-2.575	-2.6813	-2.6437	-2.9021	-2.6479	-2.4625	-2.8896	-2.5563	-2.6312	-2.7438	-2.4396	-2.85	-2.5187	-2.5687	-28.791	78.458	-72.741	93.571	203.194	48.641	14.263	194.032	-38.346	-131.133	204.276	148.315	0.329	9.624	-133.646	111.993	0.00025925	0.00019551	7.6651e-05	394.02	1.1468e-06	8.6749e-07	514.11	125.45	3.7311e-06	1.6642e-06	199.8	73.36	43.986	18.561	2.0528e-06	33.217	0.00015094	0.00014318	3.9248e-05	400.43	1.5692e-06	1.5206e-06	522.69	128.03	1.5493e-06	1.5479e-06	201.19	74.437	44.679	18.873	1.5624e-06	33.592	199.702	-47.716	-130.959	-141.766	-30.623	45.869	-142.688	-137.554	-25.278	-57.655	-139.016	-136.008	-134.386	-130.065	-29.585	-132.008	-8191	255	
1031.837	1	1	0	0	0.24061	0.10348	0.23561	0.05853	0.21148	0.13674	0.1034	0.15745	0.12771	0.075301	0.25226	0.051229	0.26611	0.048687	0.17666	0.20023	-2.5042	-2.5021	-2.7042	-2.85	-2.6083	-2.7021	-2.8396	-2.8104	-2.9167	-2.4375	-2.7333	-2.7875	-2.5271	-2.8021	-2.6312	-2.5458	68.747	153.317	83.010	87.788	-96.044	-59.747	139.384	125.168	116.822	36.662	-84.306	-100.029	140.744	173.296	-79.929	192.334	0.00027518	0.00020907	9.4157e-05	398.09	2.7127e-06	4.8754e-07	518.53	124.86	1.6268e-06	3.6039e-06	197.54	73.643	43.248	18.542	1.1472e-06	33.585	0.00015019	0.00014156	3.9044e-05	402.1	1.56e-06	1.5602e-06	525.5	127.41	1.525e-06	1.5592e-06	200.25	74.495	44.543	18.86	1.5469e-06	33.745	200.120	-15.236	-126.269	-142.250	-121.804	-109.480	-143.051	-137.620	2.375	-22.536	-139.275	-136.072	-133.357	-129.599	9.815	-132.113	-8191	255	
1031.933	1	1	0	0	0.1353	0.12161	0.079684	0.15094	0.15784	0.18716	0.12055	0.17111	0.086261	0.22099	0.20362	0.21746	0.23505	0.17017	0.23345	0.17291	-2.4521	-2.6333	-2.5771	-2.8854	-2.2125	-2.8688	-2.6042	-2.3083	-2.6937	-2.6729	-2.6521	-2.85	-2.6396	-2.7458	-2.7333	-2.4583	-43.857	-14.840	22.752	70.758	-74.413	-146.694	73.430	7.703	168.096	198.041	190.188	-46.407	19.972	-82.619	30.057	-68.909	0.00026128	0.00059965	8.4606e-05	396.28	1.984e-06	3.5256e-06	518.13	124.46	2.5649e-06	3.2421e-07	199.23	73.308	43.171	18.524	2.7273e-06	33.318	0.00015024	0.0001425	3.956e-05	400.96	1.5906e-06	1.5564e-06	526.62	126.97	1.5712e-06	1.5751e-06	199.77	74.292	44.268	18.846	1.5641e-06	33.7	195.959	-90.772	-117.075	-141.540	-6.527	11.740	-142.800	-137.400	-58.219	-146.281	-139.201	-136.026	-134.036	-129.412	-17.731	-132.312	-8191	255	
1032.029	1	1	0	0	0.10467	0.20282	0.15908	0.10713	0.21866	0.04001	0.14834	0.18173	0.20541	0.084829	0.1704	0.19219	0.18307	0.072027	0.10828	0.20869	-2.5021	-2.7979	-2.6125	-2.925	-2.5146	-2.6833	-2.8229	-2.5917	-2.8708	-2.7208	-2.5375	-2.8937	-2.6021	-2.5354	-2.8271	-2.5708	176.558	-23.342	22.704	-116.364	29.843	-43.200	-93.718	113.205	170.093	5.795	60.693	5.800	11.907	-149.773	103.149	105.413	0.00026313	0.00013063	7.5961e-05	396.9	2.3613e-06	3.2681e-06	516.12	123.55	2.4004e-06	1.6269e-06	197.93	72.82	43.175	18.53	3.0746e-06	33.128	0.00015172	0.00014406	3.9344e-05	402.06	1.5581e-06	1.5626e-06	524.87	126.62	1.5559e-06	1.5616e-06	199.31	74.03	44.352	18.864	1.5726e-06	33.427	201.963	95.439	203.583	-141.795	-21.703	-14.575	-142.696	-137.575	-11.381	-107.100	-139.352	-135.978	-133.791	-129.739	-101.766	-131.965	-8191	255	
1032.126	1	1	0	0	0.076256	0.036366	0.17278	0.12763	0.14992	0.19808	0.12987	0.15188	0.23887	0.2646	0.11196	0.053011	0.25349	0.10674	0.28679	0.30037	-2.4062	-2.6646	-2.6937	-2.9458	-2.5333	-2.7354	-2.8292	-2.6771	-2.7229	-2.7417	-2.5083	-2.8	-2.6375	-2.7833	-2.8958	-2.5958	79.865	-75.970	37.725	140.913	-98.029	-63.963	-127.527	81.211	-70.022	194.543	94.717	-95.797	180.915	162.524	-111.626	130.075	0.00030493	0.00039046	0.00010972	395.87	2.2378e-06	2.2775e-06	516.38	124.11	1.5465e-06	2.0709e-06	197.39	72.738	43.539	18.44	2.3697e-06	33.206	0.00015209	0.00014104	3.8984e-05	401.49	1.5466e-06	1.5297e-06	524.64	127.01	1.552e-06	1.5487e-06	199.61	74.087	44.431	18.86	1.563e-06	33.536	196.675	-128.652	-46.007	-141.616	13.655	32.977	-142.755	-137.183	-98.188	18.726	-139.357	-135.940	-134.118	-129.842	-59.909	-132.209	-8191	255	
1032.222	1	1	0	0	0.12434	0.18148	0.35927	0.10309	0.019663	0.14271	0.17427	0.21545	0.12763	0.37889	0.091605	0.43004	0.22549	0.24004	0.23625	0.05457	-2.3708	-2.6167	-2.4625	-2.75	-2.5521	-2.3792	-3.0438	-2.5375	-2.5833	-2.8271	-2.525	-2.725	-2.7562	-2.5896	-2.7583	-2.6188	-115.743	-31.756	-109.921	16.132	-9.003	-64.579	147.167	-137.835	143.353	-0.723	61.954	158.657	-113.442	-62.674	-97.893	-71.500	0.00029931	0.00037327	5.8273e-05	394.32	2.3159e-06	1.6657e-06	516.19	123.94	2.26e-06	2.0802e-06	197.47	72.925	43.655	18.405	2.1888e-06	33.381	0.00015037	0.00014117	3.9808e-05	401.09	1.5393e-06	1.5534e-06	523.92	126.59	1.5473e-06	1.5337e-06	199.04	73.927	44.301	18.802	1.5405e-06	33.686	194.678	-50.086	-45.635	-141.973	-2.842	-47.377	-142.559	-137.750	-8.475	51.452	-139.079	-136.068	-134.270	-129.497	-0.446	-132.316	-8191	255	
1032.318	1	1	0	0	0.17453	0.15776	0.21325	0.14783	0.11619	0.087646	0.14586	0.20123	0.075688	0.28603	0.092	0.29877	0.13749	0.1097	0.14881	0.15005	-2.2271	-2.5917	-2.4646	-2.8896	-2.6562	-2.6396	-2.7812	-2.5271	-2.6542	-2.8104	-2.525	-2.9354	-2.7396	-2.4437	-2.8708	-2.6188	152.277	64.879	170.293	-108.965	189.696	-92.012	52.601	134.660	39.097	-4.795	-39.264	127.261	166.636	-48.238	-34.474	132.477	0.00027895	1.9415e-06	7.0061e-05	397.86	1.9637e-06	2.9437e-06	515.84	124.14	3.4275e-06	2.9623e-06	198.12	73.634	43.588	18.654	1.73e-06	33.591	0.00014884	0.00014041	3.848e-05	400.37	1.5517e-06	1.5398e-06	523.47	127.12	1.5105e-06	1.5488e-06	200.24	74.657	44.621	18.939	1.5662e-06	33.756	194.564	25.387	-105.694	-141.789	29.327	12.464	-142.520	-137.222	-37.669	19.873	-139.336	-135.940	-134.336	-129.798	-38.728	-132.205	-8191	255	
1032.438	1	1	0	0	0.11047	0.24086	0.20658	0.14954	0.023178	0.20597	0.020386	0.084089	0.059479	0.2678	0.09733	0.18044	0.26569	0.096502	0.1143	0.12083	-2.2521	-2.5896	-2.5417	-2.8625	-2.6063	-2.8312	-2.9896	-2.6583	-2.6875	-2.8771	-2.5729	-2.6937	-2.7604	-2.5667	-2.8167	-2.6646	-16.129	58.340	171.724	-135.819	133.807	-2.118	147.623	166.117	-118.082	98.878	-104.757	161.557	-152.719	-139.250	166.147	-117.623	0.00031231	0.00017138	8.0274e-05	394.02	2.0333e-06	1.2374e-06	515.38	124.03	3.3604e-06	3.574e-06	199.59	72.995	43.64	18.669	3.0284e-06	33.317	0.00014943	0.00014257	3.9697e-05	399.71	1.5524e-06	1.5488e-06	523.02	127.04	1.543e-06	1.5447e-06	199.96	74.18	44.447	18.909	1.5658e-06	33.628	200.455	-46.051	-73.020	-141.999	10.718	-96.577	-142.522	-137.480	-93.764	-67.495	-139.352	-135.927	-134.530	-129.762	-101.195	-132.156	-8191	255	
1032.533	1	1	0	0	0.19106	0.2172	0.33356	0.067163	0.20761	0.156	0.094544	0.20794	0.10668	0.13483	0.16807	0.081567	0.043971	0.064165	0.19057	0.097737	-1.9813	-2.8104	-2.2917	-2.8979	-2.7542	-2.5229	-2.8875	-2.8688	-2.6229	-2.8333	-2.7458	-2.7583	-2.8271	-2.6042	-2.8479	-2.7146	-94.447	-28.707	-7.295	-18.315	-132.626	146.054	-152.439	129.869	44.516	85.579	65.614	-126.828	148.104	-29.652	-98.687	-140.670	0.00026809	0.00028155	6.9284e-05	391.18	3.2115e-06	8.5437e-07	508.8	123.88	2.1278e-06	3.2117e-06	197.98	73.06	43.787	18.471	1.1422e-06	33.477	0.00014791	0.00013971	3.9248e-05	396.83	1.5383e-06	1.5332e-06	519.6	126.6	1.5261e-06	1.5318e-06	199.44	74.136	44.43	18.874	1.5334e-06	33.671	202.604	-38.843	-81.399	-141.997	-8.600	-44.635	-142.690	-137.342	37.257	-11.044	-139.346	-135.946	-134.110	-129.908	-93.064	-132.104	-8191	255	
1032.606	1	1	0	0	0.092466	0.051833	0.17836	0.17763	0.29967	0.12911	0.25739	0.15177	0.040267	0.19263	0.12149	0.10887	0.10859	0.1259	0.16983	0.31611	-2.1542	-2.7896	-2.5042	-2.5146	-2.8937	-2.6021	-2.7792	-2.8083	-2.6479	-2.95	-2.7708	-2.7854	-2.7708	-2.4625	-2.7812	-2.8792	81.369	-144.882	30.337	72.006	-54.221	-72.167	-126.453	78.557	146.178	147.205	155.764	-44.422	-62.502	33.507	-55.378	61.636	0.00028213	9.4732e-05	2.4342e-05	392.88	4.5198e-07	4.9323e-06	509.01	124.67	1.575e-06	3.5314e-06	198.01	73.959	43.715	18.63	3.8955e-06	33.443	0.00014763	0.00014086	3.9201e-05	398.32	1.529e-06	1.5276e-06	520.21	127.37	1.5346e-06	1.5258e-06	199.97	74.532	44.568	18.947	1.5534e-06	33.831	193.901	-62.937	-80.322	-142.180	-97.868	-23.596	-142.700	-137.701	-72.184	35.459	-139.096	-136.047	-133.872	-129.715	-11.995	-132.141	-8191	255	
1032.702	1	1	0	0	0.10581	0.087013	0.10959	0.14871	0.11648	0.10008	0.05624	0.32064	0.33231	0.25068	0.18553	0.18091	0.073326	0.10398	0.21827	0.094849	-2.0062	-2.9146	-2.65	-2.6479	-2.9396	-2.5042	-2.8312	-2.6146	-2.5792	-2.8125	-2.5938	-2.5229	-2.8063	-2.4458	-2.8083	-2.7479	-127.775	131.998	142.108	16.372	59.682	112.708	97.424	203.095	-106.405	73.465	-49.696	-135.615	-65.736	195.334	-87.803	158.142	0.00022691	0.00047924	4.1044e-05	388.31	2.4327e-06	2.7063e-06	512.8	125.17	3.6536e-06	3.1994e-06	198.54	74.333	43.807	18.725	2.6781e-06	33.654	0.00015132	0.00014046	3.9248e-05	397.55	1.5472e-06	1.5417e-06	520.94	127.77	1.5501e-06	1.5327e-06	201.25	75.13	44.8	19.027	1.544e-06	33.947	-152.831	-59.816	-140.438	-142.041	-107.984	48.407	-142.508	-137.649	-69.455	67.659	-139.503	-135.888	-134.060	-129.905	34.654	-132.210	-8191	255	
1032.821	1	1	0	0	0.25001	0.21015	0.19279	0.1442	0.091789	0.21139	0.16066	0.28373	0.087351	0.23077	0.23021	0.19404	0.02047	0.057683	0.080183	0.28475	-2.0917	-2.8354	-2.65	-2.7042	-2.875	-2.4229	-2.7229	-2.8917	-2.5271	-2.8354	-2.6167	-2.7229	-2.7167	-2.65	-2.8	-2.8563	198.268	-134.119	72.597	122.728	-119.323	126.477	100.276	180.160	-96.337	-104.376	199.632	181.715	-152.127	-31.118	112.471	-105.763	0.00029391	8.0221e-05	0.00010316	395.92	1.9362e-06	1.0746e-06	514.47	124.8	9.1225e-07	6.417e-07	199.5	73.97	44.003	18.789	1.7585e-06	33.82	0.00014994	0.00014084	3.9729e-05	397.54	1.5365e-06	1.528e-06	521.41	127.57	1.5515e-06	1.5571e-06	201.15	74.932	44.775	19.037	1.5573e-06	34.011	200.505	-77.457	-52.977	-142.378	-8.258	-28.359	-142.585	-137.599	-48.351	7.981	-139.160	-135.510	-133.836	-129.683	-26.106	-132.245	-8191	255	
1032.917	1	1	0	0	0.15781	0.043198	0.22267	0.11489	0.10729	0.30689	0.262	0.05735	0.2031	0.07075	0.053385	0.18316	0.24403	0.08919	0.078568	0.46357	-2.1375	-2.8167	-2.6958	-2.6375	-2.9562	-2.6042	-2.7062	-2.9729	-2.6021	-2.8167	-2.8563	-2.4875	-2.9146	-2.7042	-2.5812	-2.8375	-112.751	154.139	76.160	137.535	191.888	32.663	160.328	-72.533	-20.615	5.036	163.644	93.130	16.531	-50.763	31.377	-144.188	0.0002598	8.9981e-05	9.1056e-05	393.5	2.897e-06	2.5704e-06	511.35	124.89	2.8928e-06	3.087e-06	199.62	73.956	43.787	18.68	2.1596e-06	33.588	0.00014907	0.00013961	3.9455e-05	397.12	1.5441e-06	1.5175e-06	519.8	127.52	1.5373e-06	1.5285e-06	200.23	74.797	44.612	18.989	1.5502e-06	33.895	197.588	-31.127	-43.489	-141.716	19.543	-31.987	-142.757	-137.342	-57.938	-24.993	-139.154	-135.957	-134.172	-129.874	-47.963	-131.941	-8191	255	
1033.014	1	1	0	0	0.19472	0.14234	0.13818	0.13436	0.13731	0.074062	0.22226	0.17467	0.16655	0.33844	0.16165	0.28794	0.042943	0.23765	0.044108	0.12531	-2.0729	-2.7646	-2.6771	-2.7146	-2.8292	-2.5854	-2.7167	-2.8958	-2.5542	-2.7542	-2.7438	-2.6479	-2.9208	-2.7708	-2.5771	-2.9562	22.371	112.790	21.164	166.122	-98.966	-93.370	13.212	141.580	71.559	-17.751	108.784	176.244	10.490	-140.987	-17.996	88.147	0.00027858	0.00037157	4.738e-05	388.75	4.1755e-06	1.09e-06	511.8	124.4	3.2993e-06	1.2488e-06	198.49	73.977	43.975	18.77	6.645e-07	33.833	0.00015028	0.00013939	3.895e-05	395.9	1.5443e-06	1.5456e-06	520.62	127.17	1.5471e-06	1.5082e-06	200.72	74.85	44.787	19.073	1.5513e-06	34.072	202.168	-92.757	-106.868	-141.800	-4.101	135.653	-142.518	-137.417	-54.733	32.832	-139.189	-135.802	-134.115	-129.800	-27.649	-132.258	-8191	255	
1033.110	1	1	0	0	0.17394	0.21444	0.40214	0.12304	0.11885	0.056549	0.096029	0.18888	0.10685	0.23416	0.16109	0.16097	0.090749	0.24472	0.17514	0.13274	-2.1708	-2.7083	-2.7875	-2.5208	-2.7896	-2.7875	-2.7687	-2.8542	-2.6771	-2.8	-2.8896	-2.7188	-2.925	-2.675	-2.4354	-3.0563	-71.350	-49.069	166.643	-89.686	-136.235	14.375	193.080	-107.102	-79.343	114.047	138.643	-107.135	17.337	-59.607	33.769	-70.912	0.00028725	0.0003362	3.7382e-05	392.09	2.5408e-06	2.6476e-06	516.69	125.5	7.2763e-07	1.6159e-06	199.56	74.159	44.236	18.801	2.611e-06	34.037	0.00014788	0.00014093	3.8577e-05	397.11	1.5112e-06	1.5291e-06	523.36	127.99	1.5487e-06	1.5246e-06	201.64	75.273	44.99	19.12	1.5406e-06	34.312	197.854	-50.363	-70.260	-142.238	-69.389	-52.542	-142.518	-137.468	-110.900	-63.159	-139.118	-135.848	-133.915	-129.750	-43.847	-132.136	-8191	255	
1033.206	1	1	0	0	0.3131	0.085509	0.17648	0.21744	0.002981	0.17656	0.11251	0.09498	0.2104	0.087405	0.16053	0.29535	0.25108	0.21921	0.14416	0.052897	-2.0604	-2.9479	-2.7	-2.3708	-2.7979	-2.7646	-2.6333	-2.7021	-2.4229	-2.8708	-2.9562	-2.5208	-2.8021	-2.7333	-2.7375	-2.9833	8.487	-52.656	17.204	88.311	-38.963	-79.968	155.682	178.975	106.885	50.926	170.714	72.253	148.898	145.779	18.146	-22.541	0.00027823	0.00029147	8.4357e-05	393.25	9.6528e-07	1.5937e-06	516	125.88	3.404e-06	3.2343e-06	202.4	75.043	44.456	18.934	2.8143e-06	34.237	0.00014928	0.00014257	3.8698e-05	397.26	1.5277e-06	1.5178e-06	525.14	129.01	1.5223e-06	1.5381e-06	203.76	75.955	45.336	19.269	1.5506e-06	34.449	-155.231	-82.913	-16.857	-141.571	-36.731	0.607	-142.676	-137.408	-33.591	24.796	-139.434	-136.142	-134.193	-130.189	-14.128	-131.885	-8191	255	
1033.302	1	1	0	0	0.026376	0.11904	0.029561	0.074731	0.18407	0.045822	0.062064	0.15667	0.19794	0.20683	0.12994	0.3189	0.095618	0.093644	0.19283	0.18608	-2.1521	-2.6437	-2.9104	-2.6625	-2.7458	-2.7792	-2.7167	-2.8937	-2.5542	-2.6146	-2.8896	-2.7167	-2.6917	-2.8083	-2.4875	-2.8125	200.324	121.121	-109.932	31.072	0.898	150.858	-24.253	174.598	47.529	-11.389	134.266	170.878	-92.460	106.885	80.753	106.878	0.00027141	0.00036672	0.00011783	397.69	2.3229e-06	1.9555e-06	514.76	125.77	3.4624e-06	1.5416e-06	201.86	74.553	44.111	18.907	1.8261e-06	33.784	0.00014838	0.0001392	3.8902e-05	398.76	1.5571e-06	1.527e-06	523.78	128.78	1.5125e-06	1.5362e-06	202.81	75.76	45.195	19.229	1.5135e-06	34.165	189.426	-52.813	-79.046	-142.148	16.833	-25.830	-142.871	-137.219	-34.385	24.901	-139.086	-135.803	-133.714	-130.014	-80.475	-132.394	-8191	255	
1033.398	1	1	0	0	0.038645	0.070523	0.14485	0.18123	0.19492	0.3026	0.31879	0.19711	0.10043	0.045531	0.12261	0.10409	0.098073	0.2466	0.082588	0.38818	-2.3312	-2.6667	-2.7729	-2.5729	-2.6125	-2.9542	-2.6458	-2.8063	-2.8292	-2.6104	-3.0104	-2.6896	-2.75	-2.9562	-2.6375	-2.9396	127.275	-21.447	-40.113	153.329	-118.433	161.311	186.732	-110.606	-62.767	-30.795	180.268	155.708	-81.429	150.125	-131.746	129.771	0.0002282	0.00046767	5.2611e-05	392.5	2.2711e-06	4.0636e-06	514.91	126.01	1.1627e-06	6.528e-07	199.32	73.978	44.313	18.814	1.4423e-06	33.781	0.00014838	0.00013839	3.8745e-05	396.89	1.5072e-06	1.5126e-06	522.13	128.09	1.5194e-06	1.5114e-06	201.37	75.189	44.947	19.052	1.5508e-06	34.071	197.840	-60.951	-123.224	-141.790	-7.289	-53.566	-142.522	-137.462	10.896	-124.789	-139.386	-135.919	-134.093	-130.316	-140.198	-131.990	-8191	255	
1033.519	1	1	0	0	0.23833	0.059011	0.20847	0.020179	0.10051	0.05726	0.30228	0.19086	0.19755	0.040983	0.20537	0.12559	0.23664	0.32058	0.11884	0.29569	-2.3854	-2.5	-2.9667	-2.7208	-2.6146	-2.9562	-2.7667	-2.6646	-2.8521	-2.5542	-2.8854	-2.8667	-2.6646	-2.8708	-2.5271	-2.8542	-140.010	164.551	141.673	25.283	28.441	-96.055	-112.086	105.593	-48.758	-70.782	59.048	-16.852	54.544	-51.805	196.318	158.936	0.00026015	0.00041111	0.00012393	390.9	3.6603e-06	6.2835e-07	515.55	124.74	2.744e-06	2.3758e-06	201.32	74.688	43.927	18.787	6.4494e-07	33.648	0.00014602	0.0001382	3.8644e-05	397.16	1.5186e-06	1.5161e-06	522.59	127.48	1.5345e-06	1.5181e-06	201.71	75.236	44.797	19.1	1.5067e-06	34.096	201.754	-87.570	-128.171	-141.850	-25.536	-17.147	-142.528	-137.502	-58.949	35.784	-139.137	-136.008	-134.355	-129.865	-2.522	-132.191	-8191	255	
1033.613	1	1	0	0	0.13293	0.089631	0.19712	0.27269	0.24145	0.039841	0.2691	0.074798	0.19398	0.24306	0.078084	0.19601	0.12104	0.055321	0.31624	0.12259	-2.3667	-2.5792	-2.7687	-2.6958	-2.6271	-2.925	-2.775	-2.6688	-2.7604	-2.4958	-2.8063	-2.7458	-2.7583	-3.1312	-2.5875	-2.6479	132.186	80.940	104.890	-141.930	-57.286	-49.231	50.825	192.511	195.000	165.876	112.588	-39.915	52.349	123.154	153.488	56.037	0.00029743	0.00018803	2.4347e-05	394.99	1.0519e-06	2.405e-06	514.94	125	2.0074e-06	3.6193e-06	199.26	74.292	43.95	18.772	8.8889e-07	33.829	0.00014662	0.00013706	3.8641e-05	399.63	1.5434e-06	1.5072e-06	522.77	127.45	1.5401e-06	1.5251e-06	201.2	75.211	44.869	19.063	1.5395e-06	34.211	204.037	45.016	-117.351	-142.091	-36.128	-131.541	-142.765	-137.436	-33.053	5.283	-139.177	-135.830	-133.854	-130.061	-50.730	-132.178	-8191	255	
1033.711	1	1	0	0	0.094175	0.14289	0.10788	0.11548	0.13176	0.32568	0.11764	0.11489	0.1677	0.30783	0.11049	0.20747	0.09631	0.23914	0.19516	0.10271	-2.4083	-2.5792	-2.6854	-2.5417	-2.6125	-2.95	-2.725	-2.8167	-2.9417	-2.675	-2.7875	-2.7396	-2.3458	-3.0208	-2.8083	-2.6271	31.811	-80.076	171.595	117.360	-102.453	64.527	-73.557	131.214	147.576	-146.473	-97.363	177.661	12.412	162.934	-61.336	147.677	0.00029759	0.00024271	7.9256e-05	391.68	2.3964e-06	2.3021e-06	512.2	124.73	1.6847e-06	1.693e-06	199.09	73.915	43.827	18.721	2.2181e-06	33.792	0.00014771	0.00013819	3.8803e-05	396.31	1.5367e-06	1.5191e-06	521.6	127.39	1.5317e-06	1.5295e-06	201.32	75.081	44.585	18.999	1.5147e-06	34.07	204.335	-42.609	-86.753	-141.524	-25.780	-10.806	-142.885	-137.439	-81.887	4.706	-139.208	-136.162	-133.426	-129.693	-67.533	-132.137	-8191	255	
1033.830	1	1	0	0	0.10361	0.069911	0.10661	0.058778	0.089051	0.29837	0.16169	0.13367	0.027895	0.057847	0.15816	0.080567	0.057045	0.12918	0.073202	0.23444	-2.5021	-2.6292	-2.6396	-2.7396	-2.6375	-2.8604	-2.6437	-2.7146	-2.9813	-2.8312	-2.8979	-2.8271	-2.4604	-2.8604	-2.6979	-2.6813	149.794	28.349	-67.357	-46.676	73.723	191.585	199.085	141.154	201.397	-89.959	140.846	102.561	28.608	75.341	114.325	129.751	0.00025575	8.2524e-05	0.00011193	392.45	1.7942e-06	1.2696e-06	510.55	123.88	1.6193e-06	2.6817e-06	199.17	73.868	43.778	18.65	2.681e-06	33.61	0.0001477	0.00013885	3.7919e-05	397.25	1.515e-06	1.4985e-06	521.25	126.94	1.5114e-06	1.5101e-06	200.81	74.729	44.572	18.996	1.5396e-06	33.978	204.211	144.429	-23.538	-141.567	-31.575	-8.813	-142.486	-137.600	-55.593	-33.818	-139.320	-136.081	-134.362	-130.227	-113.138	-132.210	-8191	255	
1033.902	1	1	0	0	0.06813	0.32765	0.13773	0.059145	0.14764	0.096692	0.089277	0.12551	0.17775	0.19074	0.27372	0.19126	0.096008	0.13949	0.020516	0.2957	-2.3563	-2.5563	-2.6354	-2.7938	-2.4479	-2.8771	-2.9208	-2.6875	-2.8354	-2.5667	-2.725	-2.9437	-2.6417	-2.6063	-2.6354	-2.5583	108.302	-75.847	71.091	93.708	101.299	-14.163	189.738	186.750	-124.727	-151.215	116.117	70.869	136.141	189.019	34.522	163.988	0.0002914	0.00029534	9.4923e-05	393.16	2.598e-06	4.4593e-06	512.24	125.02	1.8539e-06	3.4734e-06	199.42	73.913	43.875	18.872	2.3181e-06	33.785	0.0001493	0.00013837	3.928e-05	397.11	1.5256e-06	1.5288e-06	520.3	127.28	1.5079e-06	1.5069e-06	200.84	74.999	44.754	19.139	1.5244e-06	34.085	201.391	-41.593	-67.315	-141.964	-47.583	-9.315	-142.647	-137.242	-35.968	0.012	-139.224	-136.211	-134.414	-130.207	-83.453	-132.176	-8191	255	
1033.998	1	1	0	0	0.11198	0.18474	0.33749	0.050338	0.35289	0.16394	0.19322	0.11476	0.2093	0.053203	0.13649	0.090935	0.034074	0.20603	0.17034	0.18132	-2.3958	-2.6396	-2.5604	-2.7062	-2.6	-2.8229	-2.9417	-2.5687	-3.0583	-2.7188	-2.5729	-2.9958	-2.5229	-2.6833	-2.6792	-2.6417	-100.808	-14.745	-120.001	79.891	127.861	72.745	169.268	195.960	-101.780	-67.638	123.993	139.144	-57.373	55.487	-14.430	158.120	0.00029988	0.00012385	2.7829e-05	395.24	2.8453e-06	4.2281e-06	513.14	125.33	1.574e-06	2.0369e-06	199.91	73.875	43.668	18.756	3.211e-06	33.917	0.00014817	0.00013745	3.8729e-05	397.31	1.5324e-06	1.5254e-06	522.06	127.22	1.5544e-06	1.553e-06	201.24	75.129	44.63	19.072	1.5564e-06	34.283	193.614	152.435	50.660	-142.295	-13.706	-12.636	-142.508	-137.577	-33.792	61.973	-139.255	-135.957	-133.923	-129.843	-99.390	-132.157	-8191	255	
1034.119	1	1	0	0	0.15285	0.16234	0.21945	0.27134	0.2344	0.2453	0.1988	0.24403	0.34201	0.31582	0.29385	0.093737	0.12446	0.12423	0.118	0.2231	-2.4792	-2.5646	-2.7521	-2.675	-2.4896	-2.7062	-2.8917	-2.6208	-2.8333	-2.6896	-2.7167	-2.9083	-2.6688	-2.8146	-3.0187	-2.7438	-77.699	-53.433	152.179	-96.968	-15.115	-23.249	98.344	56.561	-98.376	-99.277	41.566	-123.530	111.503	174.530	-58.508	108.240	0.00026574	0.00012663	3.986e-05	395.82	2.0132e-06	1.1759e-06	509.54	124.88	2.8728e-06	2.0761e-06	199.99	74.035	44.025	18.78	1.7805e-06	34.352	0.0001483	0.00014502	3.9277e-05	398.93	1.5476e-06	1.5587e-06	521.01	127.59	1.5435e-06	1.539e-06	201.92	75.323	44.838	19.158	1.5393e-06	34.484	201.051	25.077	-40.059	-142.009	-9.251	-100.379	-142.560	-137.223	-14.945	-27.122	-139.600	-135.716	-134.188	-129.968	7.099	-132.234	-8191	255	
1034.215	1	1	0	0	0.21572	0.089153	0.20022	0.34598	0.2118	0.089147	0.15975	0.1742	0.17137	0.1918	0.22781	0.38168	0.39669	0.093456	0.17836	0.2536	-2.6771	-2.525	-2.5021	-2.95	-2.6604	-2.6104	-3.0563	-2.6104	-2.8479	-2.9375	-2.5396	-2.8854	-2.6937	-2.7125	-2.8229	-2.5354	29.221	15.443	145.127	161.248	47.124	-2.989	157.918	85.976	-18.590	159.379	95.843	-148.078	181.579	5.055	163.820	153.876	0.00032283	0.00035422	1.6423e-05	391.23	1.1827e-06	3.7394e-06	512.22	124.28	1.2807e-06	1.5229e-06	199.71	74.142	43.451	18.807	1.7648e-06	34.015	0.00014889	0.00014149	3.9934e-05	396.2	1.5537e-06	1.5268e-06	520.59	127.19	1.5615e-06	1.5524e-06	201.14	74.908	44.566	19.069	1.5437e-06	34.272	200.328	-84.766	195.307	-141.586	141.232	-8.802	-142.718	-137.563	-23.904	-51.622	-139.066	-136.094	-134.441	-129.619	98.020	-132.324	-8191	255	
1034.311	1	1	0	0	0.12567	0.013919	0.15573	0.15972	0.22646	0.12305	0.14275	0.1239	0.13787	0.21858	0.033441	0.029543	0.009244	0.24817	0.021367	0.14158	-2.4417	-2.8083	-2.6125	-3.0333	-2.5479	-2.5687	-2.925	-2.6375	-2.7646	-2.8833	-2.6083	-2.8833	-2.8312	-2.6979	-2.8208	-2.7458	-13.139	145.855	72.767	124.117	118.825	119.451	-118.161	124.981	-93.343	54.065	90.622	94.076	26.572	72.343	-128.806	-145.354	0.0002559	0.00052514	9.0428e-05	391.1	2.426e-06	3.1907e-06	513.83	124.82	4.0659e-06	1.4563e-06	200.83	74.235	43.856	18.832	1.9697e-06	34.008	0.00014799	0.00014023	3.9117e-05	396.64	1.5299e-06	1.5277e-06	520.12	127.45	1.5204e-06	1.5191e-06	201.52	75.089	44.796	19.12	1.5373e-06	34.346	196.833	-37.305	-68.288	-141.946	-18.982	-27.946	-142.656	-137.622	-58.106	-15.931	-139.173	-136.268	-134.003	-130.149	-27.706	-132.276	-8191	255	
1034.407	1	1	0	0	0.067154	0.20729	0.22102	0.24036	0.20605	0.19733	0.28566	0.034878	0.3332	0.11902	0.03139	0.11277	0.20292	0.17797	0.058433	0.10661	-2.2479	-2.6937	-2.625	-3.025	-2.625	-2.5292	-2.9708	-2.5167	-2.5729	-2.7979	-2.6667	-2.775	-2.4958	-2.5604	-2.7938	-2.6167	19.197	-23.775	179.105	-93.227	-64.895	-81.488	121.702	-23.233	19.776	-49.371	-57.211	161.715	42.176	91.493	-39.753	92.425	0.00025757	0.00024851	6.8032e-05	392.81	3.2647e-07	3.7542e-06	509.91	125.08	3.0404e-06	2.2065e-06	201.29	74.44	44.16	19.024	1.9025e-06	34.216	0.00014957	0.00013818	3.8983e-05	396.35	1.5146e-06	1.5025e-06	520.37	127.98	1.5139e-06	1.5331e-06	202.45	75.478	45.012	19.247	1.5492e-06	34.49	200.979	-2.142	-90.966	-141.969	17.778	-20.782	-142.863	-137.594	-32.290	-4.610	-139.095	-136.193	-134.267	-130.114	-58.101	-132.138	-8191	255	
1034.503	1	1	0	0	0.22591	0.18765	0.056579	0.37884	0.11546	0.091166	0.025904	0.12396	0.076456	0.20876	0.27417	0.31311	0.0079629	0.13359	0.36594	0.10861	-2.2583	-2.9104	-2.5438	-2.7917	-2.6521	-2.5292	-2.7896	-2.7438	-2.6229	-2.8604	-2.4667	-2.7854	-2.8354	-2.4938	-2.725	-2.6063	83.994	151.709	157.249	148.310	-45.777	23.072	163.309	79.497	49.552	-107.550	85.228	162.068	20.854	-64.067	76.207	172.143	0.00026501	0.00024108	3.0557e-05	395.54	1.8522e-06	9.989e-07	513.24	124.93	2.7622e-06	1.5506e-06	200.89	74.842	44.241	18.967	1.9854e-06	34.427	0.00014892	0.00014059	3.9412e-05	397.17	1.5369e-06	1.5359e-06	523.14	127.51	1.5424e-06	1.5408e-06	202.15	75.597	44.946	19.254	1.5729e-06	34.591	197.008	-63.129	-90.775	-141.723	-46.278	56.472	-142.616	-137.368	-33.025	-8.767	-139.373	-136.019	-134.111	-129.997	-53.176	-132.193	-8191	255	
1034.599	1	1	0	0	0.22018	0.071587	0.15172	0.17153	0.08374	0.18768	0.14868	0.30265	0.13482	0.12411	0.12636	0.29512	0.10493	0.10546	0.14818	0.19086	-2.1104	-2.7979	-2.525	-2.7583	-2.7104	-2.5833	-2.9417	-2.725	-2.675	-2.6625	-2.6771	-2.7438	-2.9	-2.6292	-2.9854	-2.8375	-89.891	-118.772	-69.003	177.836	183.729	116.065	-145.664	168.712	-129.202	195.700	-85.462	-21.311	48.526	193.258	153.714	191.999	0.00027158	0.00011724	8.8866e-05	392.64	2.3669e-06	2.125e-06	515.8	124.43	1.4437e-06	2.9364e-06	198.87	74.203	44.166	18.751	2.2489e-06	34.237	0.00014898	0.00014008	3.9461e-05	397.53	1.5233e-06	1.5292e-06	523.8	127.24	1.5489e-06	1.5563e-06	201.79	75.236	44.695	19.106	1.5383e-06	34.464	195.613	-48.371	-66.455	-141.649	-33.670	-24.402	-142.521	-137.420	62.809	21.736	-138.786	-135.925	-134.485	-129.960	-36.061	-132.365	-8191	255	
1034.694	1	1	0	0	0.19267	0.088333	0.10143	0.19634	0.19662	0.15188	0.14401	0.12134	0.27387	0.37205	0.11156	0.20625	0.14866	0.12216	0.061587	0.10315	-2.1625	-3.0833	-2.5042	-2.6104	-2.8	-2.6729	-2.9292	-2.825	-2.55	-2.8979	-2.7604	-2.7667	-3.0187	-2.4188	-2.9833	-2.7271	4.382	108.314	28.551	146.073	136.230	-84.010	-16.399	-19.069	111.331	189.957	190.450	-129.913	-88.623	-35.630	-21.255	-4.829	0.00026575	0.00022542	5.2166e-05	393.55	2.582e-06	4.0642e-06	514.2	124.62	1.637e-06	2.3082e-06	200.12	74.387	44.067	18.943	3.2258e-06	34.104	0.00015141	0.00013846	3.8967e-05	397.76	1.5283e-06	1.5229e-06	523.14	127.36	1.5681e-06	1.4928e-06	201.72	75.251	44.683	19.172	1.5368e-06	34.402	201.551	-67.516	-91.802	-142.091	0.666	-38.332	-142.492	-137.470	-52.287	66.615	-139.374	-136.031	-134.259	-129.766	17.704	-131.941	-8191	255	
1034.792	1	1	0	0	0.067275	0.15009	0.22437	0.22722	0.070334	0.14144	0.2509	0.23217	0.11555	0.078813	0.39861	0.18918	0.033135	0.24783	0.16321	0.23667	-2.2146	-3.05	-2.5042	-2.7375	-3.0479	-2.6958	-2.6458	-2.7271	-2.5229	-2.8375	-2.7875	-2.7562	-2.9167	-2.6562	-2.7708	-3.0021	7.013	-74.758	118.954	-29.062	176.070	176.876	-153.284	-146.495	157.747	20.448	148.382	160.947	13.998	-145.434	26.721	33.766	0.00026168	0.00025595	0.00011636	396	3.1188e-06	2.0227e-06	515.89	124.68	3.0106e-06	1.5182e-06	200.21	74.371	44.171	18.845	2.2634e-06	34.246	0.00014871	0.00013768	3.8829e-05	398.25	1.5283e-06	1.5048e-06	523.63	127.46	1.5135e-06	1.5314e-06	201.46	75.48	44.937	19.177	1.5197e-06	34.451	196.977	-70.813	-78.503	-141.758	-39.869	-14.764	-143.071	-137.198	-19.838	-60.474	-139.470	-135.760	-134.265	-130.130	-36.381	-132.137	-8191	255	
#DATA ENDS
