BOXY.EXE: ISS Imagent and Oximeter Data Acquisition Program Version 0.80
Ascii Record File

#ACQ INFORMATION
2  Detector Channels 
16  External MUX Channels 
1  Auxiliary Channels 
5000  Waveform (CCF) Frequency (Hz)
1  Waveforms Skipped 
30  Waveforms Averaged 
1  Cycles Averaged 
16  Acquisitions per Waveform 
10.0806  Updata Rate (Hz) 

#FILE INFORMATION
TRUE -- External MUX Channel results are PARSED.
FALSE -- AC DC and Phase are NOT grouped.
TRUE -- Companion Program Settings File CREATED.
FALSE -- AC data not excluded
FALSE -- DC data not excluded
FALSE -- Phase data not excluded
FALSE -- Auxillary Chn. data not excluded
Tab delimiters

#CALIBRATION STATE
TRUE -- Waveform Calibration Values APPLIED.


#AUX CALIBRATION VALUES
Val Type	aux-1	

Term	1.0000e+00	
Factor	0.0000e+00	


#WF CALIBRATION VALUES
A = Detector Channel
Val Type	A-AC1	A-AC2	A-AC3	A-AC4	A-AC5	A-AC6	A-AC7	A-AC8	A-AC9	A-AC10	A-AC11	A-AC12	A-AC13	A-AC14	A-AC15	A-AC16	A-DC1	A-DC2	A-DC3	A-DC4	A-DC5	A-DC6	A-DC7	A-DC8	A-DC9	A-DC10	A-DC11	A-DC12	A-DC13	A-DC14	A-DC15	A-DC16	A-Ph1	A-Ph2	A-Ph3	A-Ph4	A-Ph5	A-Ph6	A-Ph7	A-Ph8	A-Ph9	A-Ph10	A-Ph11	A-Ph12	A-Ph13	A-Ph14	A-Ph15	A-Ph16	

Term	0.00000e+00	0.00000e+00	0.00000e+00	0.00000e+00	0.00000e+00	0.00000e+00	0.00000e+00	0.00000e+00	0.00000e+00	0.00000e+00	0.00000e+00	0.00000e+00	0.00000e+00	0.00000e+00	0.00000e+00	0.00000e+00	0.00000e+00	0.00000e+00	0.00000e+00	0.00000e+00	0.00000e+00	0.00000e+00	0.00000e+00	0.00000e+00	0.00000e+00	0.00000e+00	0.00000e+00	0.00000e+00	0.00000e+00	0.00000e+00	0.00000e+00	0.00000e+00	0.00000e+00	0.00000e+00	0.00000e+00	0.00000e+00	0.00000e+00	0.00000e+00	0.00000e+00	0.00000e+00	0.00000e+00	0.00000e+00	0.00000e+00	0.00000e+00	0.00000e+00	0.00000e+00	0.00000e+00	0.00000e+00	
Factor	1.00000e+00	1.00000e+00	1.00000e+00	1.00000e+00	1.00000e+00	1.00000e+00	1.00000e+00	1.00000e+00	1.00000e+00	1.00000e+00	1.00000e+00	1.00000e+00	1.00000e+00	1.00000e+00	1.00000e+00	1.00000e+00	1.00000e+00	1.00000e+00	1.00000e+00	1.00000e+00	1.00000e+00	1.00000e+00	1.00000e+00	1.00000e+00	1.00000e+00	1.00000e+00	1.00000e+00	1.00000e+00	1.00000e+00	1.00000e+00	1.00000e+00	1.00000e+00	X	X	X	X	X	X	X	X	X	X	X	X	X	X	X	X	

B = Detector Channel
Val Type	B-AC1	B-AC2	B-AC3	B-AC4	B-AC5	B-AC6	B-AC7	B-AC8	B-AC9	B-AC10	B-AC11	B-AC12	B-AC13	B-AC14	B-AC15	B-AC16	B-DC1	B-DC2	B-DC3	B-DC4	B-DC5	B-DC6	B-DC7	B-DC8	B-DC9	B-DC10	B-DC11	B-DC12	B-DC13	B-DC14	B-DC15	B-DC16	B-Ph1	B-Ph2	B-Ph3	B-Ph4	B-Ph5	B-Ph6	B-Ph7	B-Ph8	B-Ph9	B-Ph10	B-Ph11	B-Ph12	B-Ph13	B-Ph14	B-Ph15	B-Ph16	

Term	0.00000e+00	0.00000e+00	0.00000e+00	0.00000e+00	0.00000e+00	0.00000e+00	0.00000e+00	0.00000e+00	0.00000e+00	0.00000e+00	0.00000e+00	0.00000e+00	0.00000e+00	0.00000e+00	0.00000e+00	0.00000e+00	0.00000e+00	0.00000e+00	0.00000e+00	0.00000e+00	0.00000e+00	0.00000e+00	0.00000e+00	0.00000e+00	0.00000e+00	0.00000e+00	0.00000e+00	0.00000e+00	0.00000e+00	0.00000e+00	0.00000e+00	0.00000e+00	-1.29269e+02	-1.13631e+02	-1.35870e+02	-1.84844e+02	-7.69806e+01	-6.34246e+01	-1.60653e+02	-1.62015e+02	-8.22226e+01	-6.09229e+01	-1.72187e+02	-1.71626e+02	-1.83109e+02	-1.76791e+02	-6.82363e+01	-1.50157e+02	
Factor	1.61315e-05	1.31639e-04	3.54998e-05	4.91269e-01	1.07434e-06	1.37095e-06	1.84658e-01	4.54119e-02	1.02773e-06	1.19378e-06	8.37172e-02	3.01029e-02	3.50082e-02	8.20948e-03	1.09933e-06	1.21748e-02	1.13921e-06	1.19064e-06	3.31616e-07	2.32299e-01	1.30170e-08	1.30308e-08	8.60883e-02	2.28097e-02	1.29813e-08	1.30694e-08	4.01028e-02	1.44691e-02	1.71056e-02	4.09484e-03	1.30663e-08	5.83849e-03	X	X	X	X	X	X	X	X	X	X	X	X	X	X	X	X	



#DISTANCE SETTINGS
A = Detector Channel
A-1	A-2	A-3	A-4	A-5	A-6	A-7	A-8	A-9	A-10	A-11	A-12	A-13	A-14	A-15	A-16	

2.5000e+00	3.0000e+00	2.5000e+00	3.0000e+00	2.0000e+00	3.0000e+00	1.5000e+00	3.0000e+00	3.0000e+00	3.0000e+00	3.0000e+00	3.0000e+00	3.0000e+00	3.0000e+00	1.5000e+00	3.0000e+00	

B = Detector Channel
B-1	B-2	B-3	B-4	B-5	B-6	B-7	B-8	B-9	B-10	B-11	B-12	B-13	B-14	B-15	B-16	

1.0000e+01	1.0000e+01	1.0000e+01	1.4400e+00	1.0000e+01	1.0000e+01	1.5100e+00	1.9400e+00	1.0000e+01	1.0000e+01	1.9900e+00	2.4900e+00	2.4100e+00	2.9000e+00	1.0000e+01	2.9800e+00	




#DATA BEGINS
time	group	step	mark	flag	A-AC1	A-AC2	A-AC3	A-AC4	A-AC5	A-AC6	A-AC7	A-AC8	A-AC9	A-AC10	A-AC11	A-AC12	A-AC13	A-AC14	A-AC15	A-AC16	A-DC1	A-DC2	A-DC3	A-DC4	A-DC5	A-DC6	A-DC7	A-DC8	A-DC9	A-DC10	A-DC11	A-DC12	A-DC13	A-DC14	A-DC15	A-DC16	A-Ph1	A-Ph2	A-Ph3	A-Ph4	A-Ph5	A-Ph6	A-Ph7	A-Ph8	A-Ph9	A-Ph10	A-Ph11	A-Ph12	A-Ph13	A-Ph14	A-Ph15	A-Ph16	B-AC1	B-AC2	B-AC3	B-AC4	B-AC5	B-AC6	B-AC7	B-AC8	B-AC9	B-AC10	B-AC11	B-AC12	B-AC13	B-AC14	B-AC15	B-AC16	B-DC1	B-DC2	B-DC3	B-DC4	B-DC5	B-DC6	B-DC7	B-DC8	B-DC9	B-DC10	B-DC11	B-DC12	B-DC13	B-DC14	B-DC15	B-DC16	B-Ph1	B-Ph2	B-Ph3	B-Ph4	B-Ph5	B-Ph6	B-Ph7	B-Ph8	B-Ph9	B-Ph10	B-Ph11	B-Ph12	B-Ph13	B-Ph14	B-Ph15	B-Ph16	aux-1	digaux	

2437.585	1	1	0	512	0.18232	0.1028	0.14779	0.047125	0.27999	0.14001	0.14846	0.32448	0.17232	0.23232	0.182	0.15151	0.21228	0.34398	0.31771	0.36131	-2.4938	-2.8896	-2.7375	-2.9854	-2.7083	-2.825	-3.0396	-2.6958	-3.2438	-2.7479	-2.7104	-3.1083	-2.8771	-2.9	-2.9854	-2.8104	119.784	185.679	33.198	248.865	196.119	40.728	125.081	271.558	168.140	197.320	199.088	118.757	111.675	-55.937	170.383	211.053	0.00021579	0.00069631	0.00013393	224.95	2.5807e-06	3.8312e-06	325.71	99.99	5.9861e-06	1.5652e-06	168.23	88.953	47.751	27.764	4.2434e-06	53.558	0.0011808	0.0012026	0.00033513	455.53	1.3053e-05	1.2987e-05	428.19	128.58	1.2936e-05	1.3071e-05	215.61	108.06	66.513	33.256	1.3083e-05	61.542	203.730	-0.140	-6.221	-62.166	37.118	93.470	-62.983	-57.613	-3.972	195.612	-59.376	-55.566	-54.968	-51.339	130.541	-53.355	-8191	255	
2437.681	1	1	0	0	0.23275	0.076457	0.078695	0.072591	0.091403	0.17588	0.16242	0.056073	0.14753	0.34409	0.22295	0.23293	0.16485	0.29385	0.19943	0.095772	-2.5479	-3.0312	-2.7062	-3.1333	-2.8167	-2.8646	-3.025	-2.9021	-2.9167	-3.0583	-2.825	-3.0875	-2.8646	-2.8333	-2.9292	-2.9604	54.610	90.188	5.986	104.317	269.997	7.843	175.017	78.653	-30.081	184.169	172.180	246.698	126.546	-63.942	278.540	242.644	0.00016568	0.00068835	1.0284e-05	227.31	4.6054e-06	1.0175e-05	324.88	100.41	1.7406e-06	3.3938e-06	168.1	88.807	47.34	27.827	4.8843e-06	53.51	0.0011538	0.0011759	0.00032838	451.18	1.2726e-05	1.2656e-05	425.36	127.94	1.251e-05	1.2584e-05	213.34	107.28	65.389	33.059	1.2503e-05	61.406	178.634	-41.099	-70.791	-62.062	39.687	39.400	-62.966	-57.820	-72.687	129.997	-59.424	-55.556	-54.888	-51.497	120.754	-53.174	-8191	255	
2437.777	1	1	0	0	0.26654	0.23745	0.08568	0.092292	0.065325	0.062524	0.12862	0.029968	0.2289	0.16796	0.32983	0.24046	0.18888	0.049685	0.13199	0.33227	-2.45	-3.0083	-2.5938	-3.0229	-2.9688	-2.7021	-3.0042	-2.7875	-2.7562	-3.0896	-2.525	-2.9792	-2.7646	-2.6917	-3.1396	-2.8792	241.946	199.020	241.208	61.438	140.032	116.110	-20.517	178.459	214.964	84.403	-71.577	95.326	215.985	146.644	136.751	-39.210	0.00023026	0.00081845	6.3973e-05	223.33	6.0548e-06	4.6875e-06	325.32	99.936	2.9519e-06	1.2064e-06	169.18	89.433	47.564	27.771	5.1966e-06	53.901	0.0011013	0.0011369	0.00031709	444.2	1.2442e-05	1.2429e-05	424.84	127.67	1.2319e-05	1.2411e-05	213.94	107.59	65.374	33.021	1.231e-05	61.515	176.105	56.489	166.558	-61.458	168.643	22.920	-63.118	-57.945	130.049	227.136	-59.400	-55.586	-55.001	-51.400	167.798	-52.954	-8191	255	
2437.898	1	1	0	0	0.10078	0.24287	0.071924	0.14225	0.1277	0.063771	0.18088	0.064754	0.0072389	0.12354	0.17721	0.19458	0.04015	0.11738	0.054622	0.23238	-2.5667	-2.8812	-2.6521	-3.1708	-2.7938	-2.7062	-3.2125	-2.6063	-2.7021	-3.1875	-2.7583	-3.0417	-2.9896	-2.7167	-3.1021	-2.8896	12.990	-27.119	-0.026	-42.950	210.190	17.534	81.937	133.230	60.144	210.440	245.121	225.629	254.071	71.189	9.169	237.488	0.00022101	0.00064155	0.0001125	223.42	4.3952e-06	1.857e-06	324.68	99.742	4.9935e-06	4.5022e-06	168.89	89.174	47.363	27.763	3.246e-06	53.702	0.0010875	0.0011229	0.00031295	441.14	1.2191e-05	1.2236e-05	423.62	127.11	1.2295e-05	1.2437e-05	213.5	107.45	65.503	33.098	1.2738e-05	61.512	160.244	-9.024	12.206	-63.023	40.280	-21.916	-63.065	-57.865	50.816	-4.201	-59.510	-55.749	-54.899	-51.478	79.955	-53.079	-8191	255	
2437.970	1	1	0	0	0.23123	0.2751	0.064424	0.1034	0.18112	0.085333	0.25364	0.2266	0.039089	0.16844	0.20554	0.13619	0.22461	0.07702	0.13125	0.17663	-2.3208	-3.1125	-2.6437	-2.8563	-3.0563	-2.7104	-3.075	-3.1521	-2.7604	-3.0917	-2.8792	-2.9271	-3.1208	-2.8729	-3.0083	-2.7875	-9.165	123.837	242.116	-53.919	45.428	193.872	230.978	39.565	199.280	230.226	149.399	203.927	265.805	6.059	194.084	14.338	0.00025155	0.00035864	9.8047e-05	224.2	1.7555e-06	6.3075e-06	322.42	100.13	5.8807e-06	7.8866e-06	167.5	88.84	47.272	27.738	4.9297e-06	53.464	0.0011374	0.0011851	0.00033219	454.67	1.3036e-05	1.3079e-05	426.24	128.02	1.2812e-05	1.2924e-05	214.05	107.4	65.612	33.058	1.2663e-05	61.279	172.799	-49.560	250.716	-61.743	-14.128	62.675	-63.048	-57.867	279.206	175.628	-59.128	-55.867	-55.137	-51.311	11.798	-53.178	-8191	255	
2438.066	1	1	0	0	0.022289	0.17698	0.13182	0.032005	0.1629	0.21371	0.26174	0.2406	0.097123	0.048762	0.20173	0.12422	0.35774	0.33491	0.10596	0.039529	-2.4229	-3.1063	-2.7521	-2.8146	-3.1188	-2.9062	-3.1063	-3.0729	-2.8	-3.1042	-2.7646	-2.9292	-2.9458	-2.7833	-2.8896	-2.8583	30.765	135.777	7.140	170.156	168.600	99.786	-51.772	192.403	-36.813	49.716	-16.480	29.418	60.741	264.260	188.701	79.881	0.00024672	0.00066797	8.8645e-05	226.07	1.5989e-06	5.5873e-07	324.35	99.632	3.1595e-06	3.6764e-06	166.89	89.3	47.549	27.943	5.2938e-06	53.973	0.0011126	0.0011498	0.00031886	444.68	1.2507e-05	1.26e-05	424.84	127.56	1.2714e-05	1.2875e-05	213.84	107.88	65.969	33.278	1.2847e-05	61.745	181.052	2.491	24.526	-62.447	152.842	99.983	-63.056	-57.625	74.989	101.273	-58.776	-55.924	-54.920	-51.465	68.835	-52.937	-8191	255	
2438.162	1	1	0	0	0.16518	0.027938	0.11696	0.21863	0.22175	0.31935	0.063023	0.28737	0.043139	0.008105	0.25278	0.067516	0.31693	0.045441	0.22755	0.21052	-2.1708	-3.0125	-2.8708	-2.8458	-2.9437	-2.7771	-2.9583	-3.0458	-2.8563	-3.0146	-2.875	-2.8688	-3.0146	-2.7771	-2.9021	-3.0771	-21.700	4.938	204.184	183.257	-38.763	-68.018	219.964	-20.134	271.959	269.213	242.434	57.993	206.011	-62.670	-57.503	159.295	0.00020766	0.00069688	0.00023907	223.75	3.163e-06	8.9643e-06	325.55	99.917	1.4134e-06	6.1356e-06	169.14	89.178	47.272	27.909	7.6998e-07	53.885	0.0011349	0.0011732	0.00032616	449.33	1.2835e-05	1.2944e-05	425.89	128.26	1.2948e-05	1.3003e-05	214.96	108.15	66.373	33.276	1.3062e-05	61.867	199.710	-20.480	64.468	-62.095	-11.367	48.566	-63.184	-57.429	52.215	103.835	-59.400	-55.529	-54.726	-51.336	-54.246	-53.052	-8191	255	
2438.283	1	1	0	0	0.12673	0.049545	0.15418	0.16251	0.19093	0.14182	0.17057	0.26804	0.29469	0.37035	0.18861	0.15751	0.15684	0.14863	0.42839	0.17031	-2.3542	-3.0354	-2.7979	-2.8021	-3.2271	-2.7771	-2.9688	-2.9146	-2.6729	-3.0354	-2.9896	-2.9583	-3.0271	-2.7333	-2.95	-3.0708	171.337	194.601	50.047	3.255	63.285	-42.889	0.917	6.610	212.325	-5.703	245.043	273.834	34.221	-28.867	-67.057	148.660	0.0001585	0.00066081	0.00016016	224.01	4.9864e-06	1.3416e-05	325.7	99.885	2.6079e-06	3.666e-06	168.16	89.286	47.283	27.922	6.1804e-06	53.849	0.001152	0.0011836	0.00033006	451.79	1.2883e-05	1.2947e-05	426.65	127.99	1.2824e-05	1.2971e-05	215.24	108.15	66.152	33.293	1.2987e-05	61.856	187.457	45.415	-21.974	-61.912	1.553	158.443	-63.119	-57.871	139.921	-43.129	-59.165	-55.579	-55.157	-51.330	70.185	-52.979	-8191	255	
2438.377	1	1	0	0	0.059684	0.052188	0.18176	0.067565	0.04812	0.16681	0.19403	0.237	0.1556	0.1749	0.19932	0.078409	0.13722	0.059608	0.061899	0.10081	-2.3063	-2.9437	-2.95	-2.9021	-3.1125	-2.9813	-3.1063	-3.0729	-2.9604	-2.9354	-3.1271	-2.9146	-3.075	-2.8458	-2.7667	-3.3167	-19.233	-58.852	-44.327	250.911	78.843	-53.158	133.646	283.765	175.301	275.294	-45.153	70.444	79.829	229.061	142.444	-10.178	0.00023379	0.00030425	0.00013449	218.84	3.0528e-06	4.8721e-06	323.84	99.302	3.454e-06	1.1183e-06	169.03	89.172	47.345	27.936	1.994e-06	53.698	0.0011516	0.0011801	0.00032862	449.38	1.2878e-05	1.2829e-05	424.93	127.6	1.2812e-05	1.2879e-05	214.13	107.77	65.944	33.179	1.2789e-05	61.704	169.885	-32.474	45.313	-62.527	135.772	-30.018	-62.585	-57.739	104.295	107.627	-59.585	-55.661	-55.057	-51.425	87.393	-52.996	-8191	255	
2438.473	1	1	0	0	0.26174	0.11828	0.099836	0.246	0.17238	0.21724	0.13632	0.31422	0.1313	0.22813	0.11912	0.21451	0.11192	0.25129	0.19571	0.31271	-2.225	-3	-2.825	-2.6063	-2.9771	-2.6542	-2.8458	-3.0854	-2.6937	-3.0354	-2.8146	-2.8187	-3.0021	-2.9125	-2.8417	-3.1354	0.890	176.378	17.125	134.265	3.007	24.939	-44.695	138.418	165.070	111.978	227.648	255.549	5.915	-46.516	274.990	175.159	0.00024694	0.00075598	0.00014792	222.6	6.6363e-06	6.7154e-06	323.61	99.444	2.036e-06	4.2239e-06	167.01	88.828	47.413	27.896	3.5671e-06	53.747	0.0011377	0.0011725	0.00032707	450.82	1.2937e-05	1.2877e-05	426.06	128.55	1.2946e-05	1.3021e-05	214.46	108.07	66.219	33.293	1.3008e-05	61.878	167.975	-18.818	74.584	-62.211	108.741	79.599	-62.538	-57.728	-18.273	92.993	-59.100	-55.624	-54.761	-51.385	69.105	-53.017	-8191	255	
2438.569	1	1	0	0	0.31225	0.15623	0.21871	0.21853	0.12006	0.019661	0.051448	0.13971	0.21169	0.10883	0.15799	0.14318	0.19643	0.022434	0.10993	0.15177	-2.3792	-2.9083	-2.9437	-2.6167	-2.8083	-2.8312	-2.9354	-2.9896	-2.8646	-2.7313	-2.9562	-2.7854	-2.9375	-2.8958	-2.8	-3.1688	94.310	-6.985	209.388	85.689	150.058	171.637	24.485	191.111	57.319	230.521	-14.383	244.727	281.602	75.395	256.587	177.125	0.00025024	0.00038204	8.599e-05	220.83	1.3216e-06	1.5495e-06	322.09	99.214	1.5489e-06	1.3287e-06	168.21	89.256	47.385	27.831	3.3519e-06	53.931	0.0011544	0.0011869	0.00032988	452.63	1.2965e-05	1.2991e-05	425.66	128.2	1.3053e-05	1.3099e-05	215.71	108.41	66.396	33.339	1.3202e-05	62.084	174.011	20.315	-74.620	-62.209	169.344	70.569	-62.670	-57.583	152.438	78.308	-59.263	-55.745	-55.093	-51.407	-67.061	-53.000	-8191	255	
2438.665	1	1	0	0	0.17801	0.11205	0.12646	0.11033	0.12835	0.16547	0.28426	0.084074	0.15494	0.15671	0.31974	0.22665	0.25334	0.37887	0.12227	0.21658	-2.3063	-2.8958	-3.0354	-2.8833	-2.8917	-2.9437	-2.6646	-2.8625	-2.8187	-2.7917	-3.0729	-2.8229	-3.0646	-3.0208	-2.6729	-2.8708	-52.081	184.415	31.162	132.057	-43.057	200.799	195.235	283.897	191.142	7.762	202.963	129.024	194.649	218.386	131.121	253.682	0.00018694	0.00066495	7.407e-05	225.51	6.4799e-06	6.114e-06	323.64	100.2	6.5841e-06	3.2916e-06	168.69	89.729	47.848	27.803	6.7702e-06	54.119	0.0011667	0.0011967	0.00033675	457.84	1.3161e-05	1.3102e-05	428.48	128.91	1.3008e-05	1.3108e-05	215.77	108.89	66.467	33.348	1.3118e-05	62.171	174.360	82.272	220.540	-62.128	48.297	-41.405	-62.980	-57.787	50.373	87.441	-59.320	-55.665	-55.060	-51.270	45.200	-53.212	-8191	255	
2438.762	1	1	0	0	0.077385	0.081397	0.081296	0.11317	0.13479	0.16821	0.20255	0.28266	0.028284	0.16386	0.19846	0.20191	0.17037	0.044352	0.16138	0.016104	-2.6104	-2.8917	-3.0604	-2.6396	-2.9792	-3.0979	-2.8542	-3	-2.9354	-2.7917	-3.0271	-2.8563	-2.8833	-3.0396	-2.8646	-3.1521	30.176	194.714	-27.344	28.597	-47.805	189.261	247.291	236.084	278.461	-64.885	118.989	-66.208	-52.416	110.414	137.198	122.064	0.00017378	0.00036686	7.6578e-05	223.51	4.1636e-06	5.155e-06	325.12	100.09	3.2792e-06	6.4757e-06	168.64	89.44	47.41	27.809	6.071e-06	53.802	0.0011504	0.0011794	0.00032948	452.73	1.2973e-05	1.2952e-05	428.12	128.88	1.2921e-05	1.3138e-05	216.08	108.63	66.507	33.269	1.3189e-05	61.875	183.363	-32.783	-10.210	-61.865	49.934	131.818	-62.928	-57.960	80.406	86.798	-59.313	-55.832	-54.788	-51.540	276.304	-52.890	-8191	255	
2438.858	1	1	0	0	0.074495	0.11177	0.10365	0.088661	0.13568	0.24328	0.14356	0.10913	0.11312	0.24634	0.10029	0.13843	0.097606	0.17633	0.17651	0.18597	-2.4333	-2.6542	-3.1396	-2.8542	-2.7792	-3.0396	-2.7792	-2.9667	-2.8854	-2.8208	-3.0229	-2.7146	-2.7167	-3.1667	-2.6104	-3.1271	14.029	-62.169	-16.732	-3.306	83.717	218.679	89.811	251.360	155.665	41.527	38.376	79.615	115.058	-45.741	226.830	-32.804	0.00016175	0.00076921	6.6344e-05	225.98	5.1091e-06	4.7593e-06	323.22	99.613	4.2495e-06	2.4892e-06	169.24	89.27	47.4	27.672	4.6851e-06	53.901	0.0011564	0.001192	0.00033156	452.13	1.2959e-05	1.2984e-05	425.71	128.3	1.2954e-05	1.3118e-05	215.39	108.28	66.474	33.246	1.3164e-05	61.788	173.194	44.003	-21.396	-62.657	41.966	49.325	-62.903	-57.503	45.820	-25.659	-59.245	-55.531	-54.919	-51.297	95.502	-53.218	-8191	255	
2438.978	1	1	0	0	0.1632	0.1774	0.20889	0.22281	0.26254	0.075253	0.20349	0.055888	0.25092	0.28975	0.42582	0.053087	0.362	0.19841	0.34138	0.164	-2.4708	-2.6354	-3.1562	-2.8375	-2.7958	-2.9042	-2.6333	-3.025	-2.9208	-2.6646	-2.9437	-2.8771	-2.7875	-3.1896	-2.8688	-3.0792	-6.506	272.293	238.064	233.345	39.043	255.743	265.933	45.608	-65.346	106.640	272.138	107.684	257.957	250.932	253.495	231.076	0.00020209	0.00045282	0.00014209	222.37	2.2965e-07	7.336e-06	322.55	99.576	3.1042e-06	3.5131e-06	168.12	89.076	47.466	27.889	2.6602e-06	53.665	0.0011487	0.0011803	0.0003286	451.19	1.2792e-05	1.2835e-05	424.47	127.61	1.2686e-05	1.2775e-05	213.29	107.54	65.594	33.095	1.2553e-05	61.546	161.909	-2.386	16.702	-61.465	-27.170	116.454	-63.244	-57.782	-15.396	154.049	-59.153	-55.433	-55.386	-51.155	65.061	-52.898	-8191	255	
2439.074	1	1	0	0	0.1891	0.1965	0.27213	0.084536	0.087347	0.092749	0.050378	0.03671	0.41332	0.15748	0.17591	0.16368	0.13289	0.172	0.10244	0.201	-2.5021	-2.7104	-2.8667	-2.7542	-2.85	-3.1167	-2.7146	-2.4917	-2.9771	-2.7104	-3.0083	-2.9417	-2.6771	-3.0979	-2.7875	-2.8333	175.601	102.531	208.036	130.939	151.046	63.778	237.661	-42.250	143.975	199.097	27.342	135.944	275.628	265.399	18.968	-57.446	0.00015371	0.00028563	0.00014805	222.04	1.5536e-06	5.3068e-06	327.33	99.584	2.7478e-06	7.0208e-06	168.53	89.483	47.242	27.905	9.875e-06	53.996	0.0011063	0.0011457	0.00031996	442.12	1.2397e-05	1.24e-05	423.11	127.27	1.2319e-05	1.2448e-05	213.57	107.78	65.397	33.103	1.2467e-05	61.79	189.786	187.545	-16.817	-61.661	-15.749	2.216	-62.857	-57.642	281.818	141.113	-59.328	-55.655	-55.370	-51.672	183.646	-52.857	-8191	255	
2439.171	1	1	0	0	0.15525	0.13808	0.12777	0.10102	0.21359	0.12828	0.16796	0.2727	0.10923	0.23486	0.38025	0.19332	0.15881	0.3382	0.19246	0.14786	-2.5354	-2.7125	-3.0646	-2.875	-2.5729	-3.0708	-2.7021	-2.6604	-3.1375	-2.7979	-2.9437	-3.0708	-2.9125	-2.9042	-2.9542	-2.9604	166.760	141.254	215.327	-52.789	68.764	91.950	218.070	-68.556	-17.002	66.757	234.075	259.926	263.519	226.675	274.908	-68.628	0.00017555	0.00056554	0.0001977	224.94	4.2019e-06	4.345e-06	324.02	99.818	3.1464e-06	3.2407e-06	167.85	89.432	47.293	27.864	1.4423e-06	53.835	0.00109	0.0011259	0.00031103	437.73	1.2112e-05	1.2163e-05	420.33	126.53	1.2155e-05	1.2268e-05	212.29	107.36	65.127	32.987	1.2158e-05	61.516	178.774	266.642	243.256	-61.610	146.205	18.161	-62.819	-57.776	43.467	87.299	-59.266	-55.509	-55.168	-51.162	105.941	-52.923	-8191	255	
2439.267	1	1	0	0	0.060724	0.064155	0.094953	0.055641	0.054129	0.060283	0.19707	0.1267	0.16264	0.13549	0.088995	0.14007	0.064259	0.049911	0.13049	0.1489	-2.6354	-2.7896	-3.0542	-2.8958	-2.7417	-3.1604	-2.8	-2.7396	-2.9188	-2.7792	-2.9229	-3.0521	-2.6312	-3.1229	-2.8021	-2.9146	-24.663	-16.589	-22.641	69.716	65.723	-40.771	247.224	202.978	-33.528	75.626	179.920	-5.228	264.174	16.795	262.232	-7.875	0.00023585	0.00070529	0.00012169	220.97	2.4445e-06	6.1861e-06	322.51	99.5	5.1921e-06	4.813e-06	167.69	89.313	47.267	27.687	4.2743e-06	53.493	0.0010836	0.0011094	0.00030713	432.93	1.1882e-05	1.1831e-05	417.1	125.67	1.1601e-05	1.1554e-05	209.49	106.41	64.092	32.662	1.1472e-05	61.131	149.564	-42.093	-66.118	-62.686	165.121	48.157	-62.931	-57.613	82.815	29.806	-59.441	-55.781	-54.610	-51.261	-61.567	-53.027	-8191	255	
2439.363	1	1	0	0	0.066742	0.23838	0.11056	0.072141	0.14644	0.11098	0.03917	0.29564	0.074385	0.15805	0.25297	0.24033	0.06639	0.052785	0.097664	0.15059	-2.5729	-2.7625	-2.8479	-2.9333	-2.6875	-3.0687	-2.975	-2.7417	-3.1104	-2.7938	-2.7938	-3.0563	-2.7833	-3.0542	-2.9375	-2.8604	225.998	39.964	229.122	94.659	150.342	145.891	64.910	-43.327	44.382	147.221	48.757	273.960	2.558	29.950	38.367	278.916	0.00019075	0.00062919	4.9565e-05	219.63	3.3329e-06	2.7927e-06	324.62	99.536	6.193e-06	5.2375e-06	167.76	89.355	47.17	27.685	2.3638e-06	53.543	0.0010256	0.0010623	0.00029786	429.71	1.1844e-05	1.1918e-05	418.57	126.35	1.2079e-05	1.213e-05	211.25	107.06	64.831	32.806	1.1992e-05	61.18	195.952	6.021	157.800	-62.626	92.025	222.054	-63.027	-57.455	88.231	37.281	-59.418	-55.702	-54.870	-51.406	-27.146	-52.705	-8191	255	
2439.457	1	1	0	0	0.20046	0.040915	0.19222	0.41521	0.17192	0.32719	0.14012	0.11267	0.31111	0.16679	0.12612	0.21726	0.10845	0.10059	0.14251	0.070082	-2.4958	-2.8229	-2.8312	-2.9646	-2.6604	-2.9479	-3.0479	-2.7729	-3.0854	-2.7333	-2.8375	-3.0729	-2.7708	-3.0604	-2.9146	-2.9271	201.269	274.190	63.421	20.275	226.159	208.248	-17.571	226.207	182.085	121.290	12.764	101.252	121.416	177.612	266.608	63.537	0.00016774	0.00049315	8.2196e-05	223.62	4.4193e-06	3.0452e-06	321.94	100.17	1.9731e-06	1.1893e-06	167.6	89.168	47.31	27.606	3.7202e-06	53.674	0.0010559	0.0010862	0.00029989	433.26	1.1936e-05	1.1991e-05	418.63	126.59	1.2238e-05	1.2306e-05	211.99	107.41	65.109	32.848	1.2066e-05	61.243	173.828	4.375	149.059	-62.058	-21.101	14.175	-62.629	-57.690	11.861	179.189	-58.983	-55.604	-55.209	-51.376	76.592	-52.906	-8191	255	
2439.578	1	1	0	0	0.27074	0.12243	0.043442	0.19077	0.13783	0.11343	0.30654	0.085086	0.15361	0.067553	0.075998	0.014613	0.05759	0.095903	0.080846	0.1291	-2.5896	-2.9938	-2.7979	-3.0083	-2.4646	-2.8229	-2.8604	-2.6146	-3.0938	-2.8917	-2.7021	-3.0729	-2.6771	-2.9021	-2.8333	-2.7812	266.584	259.831	26.355	152.363	180.858	202.430	146.966	269.058	81.137	-10.172	263.972	28.245	207.340	145.790	79.699	-63.342	0.00023661	0.00041359	9.7514e-05	221.34	1.6624e-06	8.0537e-06	324.45	99.264	3.0243e-06	3.5161e-06	168.94	89.246	47.143	27.689	1.3445e-06	54.021	0.001058	0.0010753	0.00029917	429.36	1.1715e-05	1.1657e-05	416.23	125.24	1.1517e-05	1.1522e-05	210.31	106.77	64.047	32.626	1.1541e-05	61.171	168.970	24.935	48.268	-62.188	250.008	115.910	-62.952	-57.834	-0.499	95.023	-59.480	-55.542	-54.789	-51.361	275.339	-52.996	-8191	255	
2439.674	1	1	0	0	0.22101	0.082315	0.15125	0.11008	0.234	0.24951	0.07456	0.21604	0.076114	0.18958	0.14725	0.15342	0.096029	0.32354	0.091133	0.17747	-2.4146	-2.775	-2.6937	-3.0417	-2.8854	-2.7438	-3.075	-2.8	-2.9958	-2.8438	-2.6146	-2.9833	-2.8604	-2.6875	-2.9458	-2.7583	80.068	103.336	262.936	251.155	116.940	68.867	272.369	154.637	210.211	190.701	234.714	232.688	135.720	179.451	88.536	127.695	0.00013568	0.00059046	4.0046e-05	223.49	6.4235e-06	2.0935e-06	324.71	99.678	4.5676e-06	3.3666e-06	167.78	89.342	46.879	27.735	4.6662e-06	53.846	0.0010185	0.0010465	0.00029189	425.6	1.1462e-05	1.1444e-05	415.53	125.23	1.1401e-05	1.1425e-05	209.71	106.41	63.908	32.529	1.1363e-05	60.932	174.183	19.370	270.259	-62.183	67.001	11.667	-63.096	-57.686	23.553	229.375	-59.606	-55.616	-54.952	-51.288	153.642	-52.998	-8191	255	
2439.770	1	1	0	0	0.048644	0.4275	0.11258	0.33234	0.17658	0.092702	0.093667	0.28274	0.19119	0.11849	0.27227	0.16912	0.17383	0.19223	0.1383	0.24398	-2.6375	-2.85	-2.5521	-3.1708	-2.6792	-2.8021	-3.1354	-2.9292	-2.8604	-2.8917	-2.6021	-2.8729	-2.8417	-2.8	-3.1562	-2.8583	181.852	218.220	38.954	-23.365	185.769	257.740	276.834	254.191	96.844	-46.269	82.737	55.200	84.704	170.564	242.830	204.753	0.00016688	0.00022918	3.1194e-05	220.05	9.8923e-07	5.2578e-06	321.22	98.677	4.5684e-06	3.0854e-06	166.13	88.546	47.348	27.594	3.5634e-07	53.581	0.001002	0.0010246	0.00028614	418.56	1.1102e-05	1.1101e-05	410.69	123.71	1.1095e-05	1.1161e-05	207.35	105.56	63.582	32.5	1.1535e-05	60.891	179.071	153.051	-52.068	-61.626	136.844	108.389	-63.011	-57.476	207.384	75.382	-59.335	-55.500	-55.209	-51.213	-7.684	-52.789	-8191	255	
2439.842	1	1	0	0	0.25365	0.31014	0.19256	0.13981	0.12984	0.20534	0.22705	0.13144	0.10173	0.080593	0.090353	0.15911	0.20989	0.17891	0.1781	0.019351	-2.5771	-3.05	-2.7875	-3.1292	-2.8833	-2.7438	-3.0021	-2.8167	-2.8479	-2.9458	-2.6604	-3	-2.925	-2.8042	-3.2438	-2.8812	55.538	199.150	64.030	107.698	44.360	-66.049	279.815	112.738	106.876	100.592	283.276	260.495	-18.121	208.160	68.839	13.091	0.00027075	0.00029174	9.6611e-05	220.04	1.7232e-06	1.0617e-06	320.64	98.652	3.0488e-06	2.5331e-06	166.06	89.009	46.995	27.595	2.1073e-06	53.632	0.0010285	0.0010584	0.00029725	426.42	1.1567e-05	1.1558e-05	414.69	124.58	1.139e-05	1.1461e-05	208.66	105.81	63.565	32.516	1.1268e-05	60.813	188.877	69.985	51.541	-62.552	55.487	49.252	-62.868	-57.842	-52.460	95.395	-59.064	-55.519	-55.018	-51.255	112.263	-52.867	-8191	255	
2439.963	1	1	0	0	0.11099	0.078122	0.11374	0.25578	0.084622	0.094814	0.22074	0.061068	0.28001	0.33934	0.25381	0.22481	0.29662	0.32531	0.07462	0.13147	-2.3479	-3.0438	-2.8917	-3.0583	-2.9125	-2.6854	-2.9958	-2.7188	-2.825	-2.9958	-2.6208	-3.1979	-2.9021	-2.8958	-2.9354	-2.8333	0.074	119.125	163.618	278.635	-4.387	-15.535	-34.774	243.312	-14.540	-53.142	189.551	-73.725	267.801	221.954	13.703	155.817	0.00014324	0.00051359	0.00013381	220.97	4.7588e-06	2.8817e-06	321.93	99.544	2.8223e-06	9.2481e-06	167.37	88.862	47.537	27.648	3.5782e-06	53.685	0.00099554	0.0010271	0.00028775	419.46	1.1241e-05	1.1238e-05	413.65	124.64	1.1289e-05	1.1482e-05	209.53	106.27	63.867	32.601	1.1459e-05	61.058	185.722	90.477	110.209	-61.684	21.373	261.119	-62.717	-57.914	24.661	52.268	-59.166	-55.508	-55.154	-51.432	11.741	-52.971	-8191	255	
2440.059	1	1	0	0	0.17628	0.14243	0.2383	0.18855	0.049239	0.37471	0.1136	0.067842	0.16304	0.085663	0.23113	0.10888	0.15294	0.034157	0.10493	0.18541	-2.4896	-3.1604	-2.7938	-2.8646	-2.9521	-2.7229	-2.8792	-2.8937	-2.8312	-3.0083	-2.9562	-3.125	-3.05	-2.8875	-2.9	-3.0979	229.780	7.533	225.603	193.239	164.371	242.023	-38.318	203.870	-66.606	-50.623	-65.177	-21.943	243.839	-39.325	208.566	193.488	0.00022925	0.00040509	0.00014474	222.85	2.3204e-06	1.7718e-06	321.54	99.23	1.175e-06	6.4041e-06	167.43	89.106	47.162	27.763	1.9553e-06	53.516	0.0010076	0.0010417	0.00028963	423.28	1.1373e-05	1.1376e-05	413.61	124.34	1.133e-05	1.1505e-05	209.21	106.44	64.076	32.718	1.1778e-05	61.143	177.072	136.971	160.924	-61.951	179.404	121.417	-62.471	-57.618	280.259	115.611	-59.273	-55.435	-54.782	-51.505	73.601	-52.914	-8191	255	
2440.155	1	1	0	0	0.17606	0.073	0.27098	0.20338	0.25491	0.32638	0.13709	0.29431	0.040265	0.11213	0.086431	0.051345	0.029011	0.20365	0.10404	0.37275	-2.4542	-3.0208	-2.5896	-2.7792	-3.0917	-2.7083	-3.0563	-3.1083	-2.5938	-2.9521	-2.7313	-2.8292	-2.9188	-2.7729	-3.0396	-3.0812	-46.560	74.557	73.034	139.998	-16.494	114.789	282.002	-64.319	216.391	-43.134	276.075	16.069	239.307	7.656	267.260	212.996	0.00014682	0.00057254	0.00012183	220.33	1.7944e-06	4.9732e-06	321.69	98.63	2.6519e-06	5.972e-06	165.2	88.267	46.69	27.685	7.1051e-06	53.423	0.0010387	0.0010648	0.00029459	423.4	1.1379e-05	1.1392e-05	411.3	123.76	1.1279e-05	1.1311e-05	206.76	105.15	63.133	32.469	1.1213e-05	60.608	176.085	56.921	245.134	-62.294	104.744	28.711	-63.089	-57.694	54.229	83.127	-59.186	-55.605	-54.795	-51.319	221.519	-52.890	-8191	255	
2440.251	1	1	0	0	0.13497	0.35583	0.31176	0.15777	0.056042	0.22789	0.123	0.12402	0.14838	0.19675	0.16778	0.13687	0.073698	0.1012	0.11116	0.070854	-2.2729	-3.0854	-2.8896	-2.9125	-2.925	-2.7854	-3.0667	-2.9229	-2.6521	-3.0604	-2.7062	-2.9229	-3.1208	-2.9354	-2.8688	-2.8854	-35.617	-0.459	21.475	267.049	145.029	256.874	46.561	156.161	173.944	195.178	-23.027	45.696	95.084	-5.196	227.575	-63.595	0.00028208	0.00069479	0.00024469	220.39	3.6514e-06	8.8295e-06	320.28	98.514	4.5858e-06	3.3749e-06	166.01	88.107	47.014	27.667	2.5664e-06	53.48	0.00098794	0.0010217	0.00028323	414.92	1.1115e-05	1.1059e-05	409.48	123.19	1.1047e-05	1.1101e-05	206.34	104.81	62.85	32.36	1.0878e-05	60.577	181.394	34.736	-53.404	-61.750	91.390	110.507	-62.985	-57.950	131.393	-41.755	-59.183	-55.627	-54.883	-51.317	26.308	-52.835	-8191	255	
2440.370	1	1	0	0	0.20221	0.16703	0.14574	0.21602	0.060819	0.088773	0.1421	0.1066	0.15474	0.20141	0.18258	0.19448	0.22801	0.11673	0.31148	0.203	-2.2208	-3.0396	-2.9062	-2.7042	-3.0021	-2.6937	-3.075	-2.9208	-2.775	-2.9813	-2.8333	-2.9083	-3.2646	-2.9083	-3.0021	-3.1125	-28.159	257.704	276.490	106.373	172.331	-32.405	167.139	70.749	179.109	210.005	31.017	195.618	-69.975	209.378	193.099	166.140	0.00024101	0.00068422	0.00029828	222.78	3.7925e-06	7.1507e-06	319.47	98.294	5.6261e-06	9.3649e-07	165.58	88.553	46.769	27.553	6.1074e-06	53.619	0.00096043	0.00099003	0.00027819	413.91	1.1036e-05	1.0999e-05	409.91	123.41	1.1077e-05	1.1114e-05	206.25	105.13	62.919	32.385	1.0829e-05	60.682	178.444	195.902	-4.331	-62.163	200.121	52.996	-62.757	-57.673	-38.316	-36.461	-59.368	-55.781	-54.773	-51.305	160.209	-53.005	-8191	255	
2440.466	1	1	0	0	0.081591	0.063051	0.26384	0.021515	0.060318	0.075782	0.2038	0.13408	0.071169	0.13561	0.090274	0.18028	0.094535	0.11241	0.12148	0.25791	-2.3417	-2.9	-2.8979	-2.5104	-2.8375	-2.8042	-2.8333	-3.0771	-2.775	-3.0563	-2.9604	-2.7125	-2.7833	-2.8646	-2.8104	-3	-40.109	149.135	16.668	-0.270	131.567	-3.728	-13.939	46.348	98.509	-65.247	-10.613	-74.839	-40.376	242.669	11.414	43.546	0.00024884	0.00024646	0.00014284	220.6	4.2559e-06	3.224e-06	319.23	98.145	4.0582e-06	2.4996e-06	167.23	88.55	46.995	27.626	3.5197e-07	53.725	0.00095291	0.0009746	0.00026791	407.17	1.0535e-05	1.0442e-05	405.15	122.13	1.0335e-05	1.0321e-05	204.61	104.48	61.974	32.122	1.0068e-05	60.443	176.782	84.212	-49.178	-61.652	197.717	108.597	-62.807	-57.456	58.100	10.974	-59.173	-55.483	-55.007	-51.438	108.428	-53.061	-8191	255	
2440.539	1	1	0	0	0.10087	0.08996	0.1308	0.25421	0.11247	0.10733	0.2403	0.38536	0.47376	0.16184	0.30296	0.085152	0.099329	0.21242	0.32036	0.13953	-2.2104	-2.9521	-2.75	-2.6688	-2.9833	-2.7875	-2.7667	-2.9813	-2.7375	-2.9562	-3.0354	-2.8729	-3.0667	-2.9667	-2.7938	-3.1396	-45.630	237.914	-69.076	266.312	217.097	-21.616	212.727	255.341	119.577	265.459	212.685	4.364	264.350	250.301	242.247	153.679	0.00020416	0.00052886	9.0978e-05	217.71	2.7681e-06	7.0888e-06	318.08	97.208	1.6886e-06	4.2154e-06	165.33	88.233	46.563	27.496	1.6539e-06	53.542	0.00088208	0.00090379	0.00025069	391.64	9.8263e-06	9.8463e-06	400.26	120.26	9.9268e-06	9.9737e-06	202.21	104.01	61.651	32.027	1.0338e-05	60.309	194.883	-73.964	-34.145	-61.976	14.188	93.677	-62.949	-57.427	26.449	45.012	-59.386	-55.256	-54.951	-51.099	-46.780	-52.962	-8191	255	
2440.658	1	1	0	0	0.18288	0.28017	0.16913	0.12338	0.20054	0.26755	0.1179	0.12815	0.069346	0.22945	0.224	0.051004	0.15269	0.42515	0.29198	0.043498	-2.5167	-2.8479	-2.9458	-2.5583	-3.0167	-2.9146	-2.8937	-3.1125	-2.7708	-2.8333	-3.075	-2.8229	-3.2167	-2.9896	-2.6896	-3.1917	235.900	8.453	-72.170	-33.108	259.629	36.356	-6.006	64.543	-3.213	77.779	252.440	149.408	173.465	168.789	74.329	114.230	0.00016395	0.00061921	0.00024142	220.66	5.3878e-06	6.9865e-06	317.46	97.51	1.1946e-06	5.9535e-06	165.44	88.122	46.646	27.484	1.9591e-06	53.671	0.00092312	0.00093693	0.00026036	398.45	1.0027e-05	9.9477e-06	399.05	120.06	9.7383e-06	9.717e-06	200.68	103.24	60.966	31.813	9.6637e-06	60.047	158.785	3.934	-32.747	-61.422	78.004	77.452	-62.780	-57.520	-60.457	120.392	-59.492	-55.729	-54.963	-51.225	75.870	-52.709	-8191	255	
2440.754	1	1	0	0	0.25965	0.22051	0.098201	0.058772	0.026881	0.030042	0.26729	0.086845	0.35864	0.27306	0.16277	0.12764	0.20049	0.15904	0.032906	0.21587	-2.4437	-2.6479	-2.9562	-2.7438	-2.9042	-3.0833	-2.6917	-3.1396	-2.8729	-2.7562	-3.1333	-2.8187	-2.9354	-2.9771	-2.7875	-3.15	225.422	118.422	-60.974	144.022	280.244	56.774	17.974	30.953	186.163	82.997	229.924	18.572	174.067	197.126	280.738	264.689	0.00020098	0.00017388	7.7405e-05	220.43	2.9724e-06	3.478e-06	320.65	97.815	3.2051e-06	3.7108e-06	165.18	88.683	46.647	27.495	1.1695e-06	53.76	0.00085077	0.00087178	0.00024414	389.12	9.6236e-06	9.6709e-06	399.77	120.26	9.7714e-06	9.8345e-06	201.75	103.82	61.102	31.882	9.8054e-06	60.215	168.078	13.834	-24.654	-62.042	45.581	214.788	-62.884	-57.638	60.246	74.951	-59.305	-55.533	-54.563	-51.269	269.086	-52.710	-8191	255	
2440.851	1	1	0	0	0.21816	0.25357	0.10456	0.27377	0.13359	0.25043	0.20132	0.05883	0.15406	0.18509	0.086307	0.1425	0.27465	0.13134	0.16996	0.2181	-2.5083	-2.8104	-3.0417	-2.6583	-3.0167	-2.9938	-2.7562	-2.9771	-2.8458	-2.6729	-3.2333	-2.8333	-2.8271	-3.1979	-2.725	-3.0542	96.449	95.864	24.025	229.792	118.672	107.826	174.552	148.148	274.784	63.853	256.350	241.074	59.663	155.373	266.398	195.526	0.00017864	0.00038891	7.0406e-05	218.03	3.79e-07	6.0012e-06	319.33	96.796	3.2876e-06	4.601e-06	165.97	88.718	46.579	27.574	4.9575e-06	53.884	0.00086047	0.00087215	0.00024379	386.84	9.5215e-06	9.5359e-06	398.67	119.27	9.5514e-06	9.6587e-06	201.33	103.83	60.871	31.92	9.6942e-06	60.352	153.008	59.839	270.756	-61.876	-61.792	49.200	-62.950	-57.517	39.167	130.188	-59.231	-55.262	-54.589	-51.232	114.098	-53.034	-8191	255	
2440.947	1	1	0	0	0.19831	0.29272	0.21729	0.13648	0.10924	0.32471	0.076544	0.13296	0.18443	0.077389	0.12864	0.067025	0.082323	0.072721	0.24507	0.12633	-2.5667	-2.7333	-2.9896	-2.7104	-2.8792	-2.9896	-2.7604	-3.0875	-2.7354	-2.7083	-3.0229	-2.8583	-2.8875	-2.9521	-2.6208	-3.0792	-55.936	-9.253	185.310	-4.059	-46.498	201.045	148.197	9.440	21.496	154.923	141.491	264.124	111.612	213.999	120.405	261.931	0.00019865	0.00062303	9.7854e-05	219.43	2.5796e-06	1.733e-06	321.34	97.88	4.2158e-06	5.2028e-06	166.48	89.012	46.795	27.573	3.7339e-06	54.134	0.00085258	0.00087195	0.00024365	387.76	9.374e-06	9.3766e-06	399.84	119.67	9.3234e-06	9.4191e-06	201.32	103.81	60.917	31.928	9.5611e-06	60.433	183.872	6.477	100.362	-61.015	256.975	114.152	-62.747	-57.692	147.132	99.115	-59.028	-55.717	-54.909	-51.194	-21.384	-52.904	-8191	255	
2441.067	1	1	0	0	0.17583	0.23465	0.1969	0.10307	0.06199	0.25243	0.19555	0.19854	0.093701	0.28931	0.30306	0.37968	0.15645	0.14003	0.22211	0.084679	-2.5312	-2.6271	-3.0396	-2.7208	-2.6229	-3.0354	-2.8438	-2.9083	-2.9771	-2.7979	-2.9729	-2.9604	-2.8312	-3.2	-2.7229	-3.125	-18.816	219.767	54.569	2.088	1.415	75.762	142.481	190.008	-72.660	211.069	31.934	185.073	217.513	151.552	112.893	267.933	0.00015175	0.00049267	0.00021825	217.81	1.5956e-06	4.0256e-06	320.55	97.534	6.9988e-07	4.7647e-06	164.99	88.901	46.689	27.641	5.1678e-06	53.945	0.00083909	0.00086159	0.00023956	385.29	9.339e-06	9.3787e-06	398.1	119.38	9.4015e-06	9.5323e-06	200.93	103.61	60.797	31.944	9.4913e-06	60.365	185.320	53.529	-6.803	-61.948	149.879	250.524	-62.915	-57.731	133.852	123.895	-59.112	-55.383	-54.849	-51.611	66.150	-52.814	-8191	255	
2441.139	1	1	0	0	0.093048	0.055804	0.091237	0.13915	0.18194	0.064646	0.2437	0.19218	0.079421	0.15936	0.25251	0.068597	0.34245	0.05491	0.29705	0.12068	-2.5771	-2.7229	-3.1188	-2.8292	-2.8063	-3.1312	-2.7292	-2.8104	-3.0521	-2.7708	-2.9417	-3.0625	-2.6562	-3.1396	-2.6292	-2.9437	-38.461	41.982	198.019	48.403	129.999	246.700	-64.203	194.395	37.774	-73.818	132.511	95.038	232.375	249.299	203.046	13.264	0.0001716	0.00020068	0.00015534	219.17	5.6013e-06	3.2902e-06	317.37	97.962	3.3626e-06	4.083e-06	166.02	88.894	46.938	27.639	3.7777e-06	53.887	0.00084505	0.00087362	0.00024413	387.42	9.5765e-06	9.65e-06	399.88	120.08	9.417e-06	9.4774e-06	201.08	103.8	60.721	31.84	9.2727e-06	60.273	153.520	-62.266	-40.735	-61.834	12.912	43.691	-62.919	-57.557	225.955	-48.525	-58.956	-55.579	-54.951	-51.424	122.596	-52.806	-8191	255	
2441.260	1	1	0	0	0.18609	0.13286	0.12613	0.033498	0.12444	0.12832	0.3118	0.080479	0.20461	0.038066	0.21135	0.11345	0.12644	0.17187	0.16865	0.20758	-2.6417	-2.6521	-2.8667	-2.8667	-2.8083	-3.0812	-3.0021	-2.7479	-3.0833	-2.7	-2.9167	-3.025	-2.6937	-3.0604	-2.7604	-3.0229	5.529	183.885	71.592	-3.080	-28.073	-42.198	-11.054	205.008	-18.494	232.745	259.185	-14.415	254.709	151.943	165.604	196.667	0.00016223	0.000366	6.3115e-05	219.96	2.1077e-06	3.8762e-06	320.96	98.075	3.1417e-06	3.3043e-06	166.46	89.385	46.601	27.641	2.682e-06	54.068	0.00082956	0.00085609	0.00023922	385.52	9.474e-06	9.4829e-06	399.06	119.97	9.3657e-06	9.3176e-06	201.71	103.94	60.792	31.862	9.1964e-06	60.35	170.260	12.938	19.559	-61.423	-14.722	-31.815	-62.880	-57.576	80.521	-20.484	-59.169	-55.642	-54.757	-51.403	194.354	-52.827	-8191	255	
2441.356	1	1	0	0	0.10378	0.052055	0.08713	0.28621	0.0309	0.15371	0.092084	0.30776	0.24375	0.14925	0.044452	0.12232	0.10948	0.057161	0.14048	0.2295	-2.4667	-2.7313	-2.8104	-3.0625	-2.725	-3.1125	-3.0417	-2.6583	-3.0771	-2.7667	-2.9188	-2.9583	-2.6813	-2.7667	-2.8667	-2.7125	174.765	205.851	134.766	-71.346	-63.577	198.478	31.496	196.190	68.964	243.591	247.830	48.491	35.638	43.910	270.456	-73.015	0.00021188	0.00040562	0.00013858	220.21	1.0366e-06	2.7568e-06	321.59	98.299	2.9266e-06	3.9302e-06	166.96	89.863	47.02	27.65	2.5978e-06	54.255	0.00082207	0.00084612	0.00023565	383.53	9.334e-06	9.3817e-06	399.3	120.15	9.3946e-06	9.4693e-06	202.36	104.46	61.142	31.943	9.3501e-06	60.529	192.805	-41.546	-9.895	-61.975	20.429	243.120	-63.143	-57.687	-19.691	33.120	-59.545	-55.614	-54.959	-51.198	166.522	-52.876	-8191	255	
2441.450	1	1	0	0	0.17449	0.14258	0.2393	0.08864	0.20296	0.076419	0.20783	0.036068	0.1846	0.1906	0.20343	0.11729	0.12007	0.079162	0.1927	0.15404	-2.55	-2.7792	-2.7729	-2.7625	-2.8208	-2.9854	-2.8937	-2.8792	-3.0167	-3.0521	-2.8187	-3.1083	-2.9562	-3.0583	-3.0604	-2.8667	158.593	51.482	130.449	60.441	132.095	262.155	157.807	252.104	222.574	162.731	-74.422	223.899	229.098	-61.929	280.779	151.377	0.00017523	0.00098718	9.216e-05	219.92	2.746e-06	3.1927e-06	321.18	97.458	3.6478e-06	4.407e-06	166.56	89.154	46.56	27.551	4.2166e-06	54.051	0.00082985	0.00085027	0.00023545	382.05	9.2608e-06	9.2224e-06	397.06	119.24	9.1925e-06	9.2032e-06	200.7	103.6	60.303	31.768	9.051e-06	60.272	202.255	-6.187	-17.991	-61.853	72.445	143.782	-62.915	-57.523	-32.695	87.631	-59.054	-55.249	-55.061	-51.386	51.867	-52.846	-8191	255	
2441.546	1	1	0	0	0.10674	0.18407	0.27304	0.21211	0.19332	0.21095	0.26641	0.2222	0.01796	0.12595	0.20452	0.11733	0.14285	0.12936	0.1338	0.32965	-2.6833	-2.625	-2.6646	-3.0396	-2.5479	-2.9938	-2.8312	-2.5938	-3.0771	-2.9562	-2.8896	-3.0125	-2.7938	-3.1	-2.8438	-2.9167	77.219	154.694	120.607	189.261	53.350	223.545	261.664	248.167	206.472	-8.108	50.753	223.859	145.892	185.109	187.615	-70.527	0.00025964	0.0008928	9.3109e-05	220.27	3.6598e-06	6.9432e-06	320.67	98.268	3.2825e-06	5.0038e-06	165.61	89.164	46.959	27.625	6.435e-06	53.95	0.00079744	0.00081133	0.00022449	375.3	8.802e-06	8.804e-06	394.35	118.93	8.8504e-06	8.8428e-06	200.49	103.58	60.307	31.723	8.8763e-06	60.187	177.758	-30.634	48.471	-61.983	78.062	97.388	-62.812	-57.666	193.920	23.124	-58.928	-55.355	-55.205	-51.407	143.168	-53.193	-8191	255	
2441.667	1	1	0	0	0.30981	0.11646	0.30862	0.020611	0.23446	0.24339	0.13919	0.1018	0.20268	0.050984	0.15478	0.064363	0.091235	0.24788	0.28982	0.24576	-2.5021	-2.9354	-2.5438	-2.9667	-2.9208	-2.8958	-3.0375	-2.6417	-2.8979	-2.8063	-2.8563	-3.1833	-2.8563	-2.9083	-3.2917	-2.9896	-30.935	24.118	103.136	170.921	44.791	254.221	280.765	-0.650	-48.746	-31.606	157.960	104.078	-38.485	-63.852	-64.620	197.548	0.00019095	0.00061842	4.2344e-05	218.71	5.5039e-06	3.0685e-06	319.98	97.35	2.5667e-06	3.0537e-06	165.41	88.73	46.641	27.57	1.5034e-06	54.047	0.00078575	0.00080366	0.00022423	373.59	8.743e-06	8.6816e-06	392.62	118.1	8.7759e-06	8.7521e-06	199.05	103.2	59.969	31.676	8.9485e-06	60.143	168.872	18.972	197.655	-61.775	-1.632	4.755	-62.903	-57.538	141.605	49.141	-59.071	-55.448	-54.764	-51.283	211.275	-52.836	-8191	255	
2441.763	1	1	0	0	0.086623	0.17796	0.20565	0.06042	0.094796	0.2024	0.12059	0.19141	0.1272	0.11268	0.14989	0.13615	0.076718	0.19766	0.20905	0.22892	-2.8083	-3.025	-2.6604	-3.0896	-2.9625	-2.9542	-3.0875	-2.7833	-3.0187	-2.9813	-2.7375	-3.1063	-2.7083	-2.775	-3.2062	-2.9083	125.826	88.123	224.007	-52.073	115.541	193.604	235.086	221.314	-49.111	240.633	-17.936	-27.270	71.591	254.920	42.764	262.058	0.00022387	0.00043394	1.0515e-05	220.01	2.5019e-06	2.1161e-06	319.87	97.652	3.8849e-06	4.6576e-06	166.77	89.218	46.711	27.593	2.8336e-06	54.113	0.00079624	0.00081582	0.00022682	376.62	8.801e-06	8.7782e-06	394.97	118.68	8.6839e-06	8.7584e-06	199.93	103.43	59.974	31.661	8.9369e-06	60.282	180.561	103.378	85.492	-62.829	35.796	51.140	-63.040	-57.704	-10.729	18.784	-59.197	-55.420	-54.781	-51.137	94.984	-52.821	-8191	255	
2441.835	1	1	0	0	0.28902	0.16754	0.23217	0.079533	0.2548	0.092469	0.30552	0.077999	0.1458	0.11169	0.066968	0.030489	0.22323	0.042476	0.20092	0.058649	-2.7062	-2.9042	-2.7125	-3.0229	-3.0187	-2.8521	-3.0021	-2.7896	-2.9062	-3.0792	-2.8563	-3.1042	-2.9417	-2.8854	-3.0021	-2.85	153.094	20.367	14.782	246.782	11.187	50.986	113.242	-71.442	235.365	66.683	-37.158	187.258	-1.514	-34.838	-54.572	175.814	0.00017325	0.00070191	0.00015803	221.47	1.4446e-06	7.3174e-06	321.94	97.774	4.3042e-06	2.8254e-06	166.69	89.048	46.866	27.493	4.1029e-06	53.978	0.00078696	0.0008072	0.00022474	377.2	8.8756e-06	8.8896e-06	397.46	119	8.9782e-06	8.9137e-06	200.84	103.78	60.25	31.681	9.0441e-06	60.239	164.378	10.367	-20.523	-62.562	110.507	147.790	-62.892	-57.588	145.293	176.020	-59.155	-55.569	-54.415	-51.434	30.020	-52.686	-8191	255	
2441.931	1	1	0	0	0.20497	0.084632	0.15147	0.14312	0.12801	0.19037	0.16629	0.24893	0.23433	0.051169	0.15667	0.21397	0.13085	0.1553	0.053506	0.24146	-2.5896	-3.0979	-2.5062	-2.8854	-2.8979	-2.8229	-2.95	-2.65	-2.9396	-3.1021	-2.7271	-3.0104	-2.9021	-2.8375	-3.075	-3.0333	19.986	224.264	-16.156	-43.188	80.911	61.532	205.429	181.543	176.729	166.064	174.600	-5.733	48.898	228.658	74.432	212.101	0.00025202	0.00062394	0.00025934	220.33	1.015e-06	4.1376e-06	320.13	97.526	2.1142e-06	4.1173e-06	165.35	88.927	46.727	27.481	3.8286e-06	53.722	0.00079694	0.00081276	0.00022534	374.62	8.7961e-06	8.8017e-06	394.52	118.02	8.7783e-06	8.8376e-06	199.26	103.28	60.054	31.579	9.0238e-06	59.976	166.736	33.823	219.720	-62.230	-2.489	99.886	-62.903	-57.512	206.149	12.488	-59.258	-55.460	-54.721	-51.323	54.609	-52.856	-8191	255	
2442.052	1	1	0	0	0.13037	0.33521	0.056223	0.23206	0.18579	0.25363	0.1671	0.093481	0.13012	0.074833	0.16579	0.10608	0.081793	0.082811	0.26015	0.20009	-2.4813	-2.9229	-2.6937	-2.825	-2.7667	-2.8396	-3.1917	-2.7271	-2.6604	-3.2042	-2.7646	-2.9437	-2.9562	-2.8458	-2.9729	-2.8812	92.772	60.381	254.226	71.202	205.602	102.828	-73.029	23.944	-25.793	70.094	100.370	47.686	141.371	175.498	162.366	175.857	0.00016002	0.00071843	0.00017158	218.91	3.2389e-06	1.8402e-06	319.94	97.469	1.3692e-06	1.0162e-06	165.18	88.653	46.296	27.448	3.8692e-06	53.649	0.00080235	0.00082652	0.00022815	376.12	8.8785e-06	8.9055e-06	394.26	118.11	8.7495e-06	8.8781e-06	199.26	102.76	59.698	31.512	8.8692e-06	59.861	207.709	22.772	50.951	-62.125	91.149	11.197	-62.936	-57.689	259.412	130.477	-59.516	-55.430	-55.013	-51.210	-1.243	-52.910	-8191	255	
2442.148	1	1	0	0	0.15959	0.19874	0.10467	0.25334	0.12929	0.056322	0.19563	0.14151	0.13895	0.10047	0.12634	0.26793	0.21698	0.23166	0.11793	0.29667	-2.3521	-3.1083	-2.7521	-3.1042	-2.9208	-2.5979	-3.0646	-2.8312	-2.8187	-3.15	-3	-2.8958	-3.0125	-2.9083	-2.9938	-2.9813	197.470	33.898	211.283	-41.224	-62.312	180.887	-18.208	166.638	37.824	10.156	73.491	141.043	261.358	193.339	99.017	202.619	0.00021313	0.00057895	4.0554e-05	221.78	4.9094e-06	4.7673e-06	318.93	97.121	3.2157e-06	1.6805e-06	165.77	89.036	46.568	27.547	5.7547e-06	54.058	0.00079333	0.0008168	0.00022674	376.6	8.8547e-06	8.8846e-06	394.33	118.09	8.7587e-06	8.8237e-06	199.29	103.21	59.894	31.597	8.8101e-06	60.138	180.217	-8.988	260.274	-62.409	124.041	160.627	-62.675	-57.714	246.248	112.469	-59.212	-55.382	-54.800	-51.357	69.554	-52.770	-8191	255	
2442.244	1	1	0	0	0.3265	0.078165	0.11432	0.17095	0.27682	0.096926	0.18003	0.25752	0.24775	0.058644	0.17204	0.1702	0.22811	0.21134	0.15066	0.35079	-2.4292	-2.9354	-2.7313	-2.8333	-3.2687	-2.8354	-3.0396	-2.9688	-2.7417	-3.0208	-2.8937	-3.0292	-3.0062	-2.8396	-2.9229	-3.0438	282.546	114.625	220.902	237.636	92.510	-59.255	267.991	-41.330	75.592	114.868	215.802	143.685	184.054	232.878	-33.933	259.203	0.00017944	0.00052512	7.6175e-05	220.12	6.7308e-06	9.7358e-06	322.35	97.442	2.1188e-06	1.1207e-06	165.41	89.412	46.849	27.639	3.6049e-06	54.206	0.00077608	0.00079651	0.00022005	371.15	8.5622e-06	8.5908e-06	392.84	117.83	8.3883e-06	8.4322e-06	198.48	103.04	59.449	31.496	8.3452e-06	60.141	179.714	94.072	112.346	-62.140	85.812	25.184	-62.661	-57.520	90.672	251.381	-59.279	-55.574	-54.930	-51.276	137.594	-52.581	-8191	255	
2442.340	1	1	0	0	0.1272	0.15686	0.12034	0.30205	0.056685	0.2038	0.17196	0.092273	0.25235	0.093263	0.3308	0.035854	0.19364	0.12436	0.21386	0.094835	-2.3146	-3.0062	-2.7479	-2.9417	-3.0833	-2.7083	-2.875	-2.8458	-2.6583	-3.1021	-2.7	-2.8146	-2.9562	-2.7458	-2.8646	-3.1437	130.521	164.183	48.150	85.895	168.314	2.312	184.444	243.651	198.781	235.296	138.273	129.544	-11.797	16.699	27.466	-73.893	0.00015592	0.00023871	0.00016476	219.76	1.7089e-06	2.7827e-06	320.74	97.469	1.3903e-06	2.584e-06	166.02	89.091	46.616	27.535	3.9154e-06	53.974	0.00075074	0.00077236	0.00021603	369.16	8.4987e-06	8.5249e-06	393.68	117.76	8.4674e-06	8.4741e-06	198.14	102.89	59.228	31.399	8.1752e-06	59.874	196.287	-46.691	1.655	-61.892	-31.059	171.855	-62.867	-57.639	154.424	79.022	-59.092	-55.452	-54.944	-51.360	75.435	-52.937	-8191	255	
2442.436	1	1	0	0	0.10238	0.11022	0.19752	0.1992	0.13971	0.026011	0.022372	0.10092	0.36529	0.13756	0.19016	0.3097	0.12087	0.15478	0.15157	0.25756	-2.2313	-2.8896	-2.8417	-2.8396	-3.0521	-2.8896	-2.9854	-3.075	-2.6688	-3.1146	-2.9479	-2.7354	-3.0771	-2.9	-2.8229	-3.0833	-41.883	78.681	30.254	209.531	233.442	278.229	139.142	171.839	170.348	270.744	173.044	264.120	207.506	261.968	126.571	254.708	0.00022097	3.6938e-05	0.00018652	219.24	1.0026e-06	4.9744e-06	319.49	97.867	2.4726e-06	6.4326e-06	166.1	88.974	46.524	27.347	3.9424e-06	53.98	0.00072693	0.00074197	0.00020408	361.17	8.0791e-06	8.1133e-06	389.09	117.05	8.16e-06	8.1877e-06	197.5	102.46	59.08	31.29	8.1105e-06	59.663	181.199	26.083	-6.528	-62.348	40.450	-12.447	-62.869	-57.708	276.390	34.626	-59.412	-55.454	-55.207	-51.209	143.652	-52.913	-8191	255	
2442.531	1	1	0	0	0.29649	0.097868	0.36144	0.12478	0.22993	0.081606	0.1548	0.10218	0.19474	0.067676	0.23129	0.27514	0.13447	0.29041	0.13018	0.22802	-2.3125	-2.8063	-2.95	-2.7083	-3.0104	-3.0104	-2.8417	-3.0521	-2.7333	-2.9396	-2.9458	-2.7875	-3.1	-2.8292	-2.6292	-3.1146	181.222	-14.429	172.223	80.152	64.542	250.509	238.079	269.804	30.167	275.643	189.964	180.628	128.423	249.695	47.840	255.798	0.00025166	0.00035658	1.2734e-05	217.16	4.9369e-06	4.5653e-06	317.85	96.742	1.5418e-06	2.7338e-06	164.65	88.973	46.413	27.396	3.2641e-06	53.618	0.00072051	0.00072869	0.00020235	358.4	7.9516e-06	7.9273e-06	388.25	116.29	7.8469e-06	7.8896e-06	195.85	102.09	58.54	31.176	7.8495e-06	59.575	176.974	1.208	275.544	-61.410	67.371	86.173	-62.666	-57.367	186.008	39.488	-59.291	-55.468	-54.805	-51.073	52.806	-52.778	-8191	255	
2442.629	1	1	0	0	0.19653	0.21828	0.11453	0.14873	0.079027	0.28894	0.12152	0.043584	0.19924	0.23455	0.17321	0.10654	0.088582	0.14078	0.057928	0.27745	-2.3646	-2.9979	-2.9437	-2.6937	-3.0542	-2.9625	-2.7562	-2.9542	-2.6229	-2.8396	-2.9583	-2.5333	-2.8354	-2.8375	-2.7875	-3.1813	110.025	230.747	-25.253	-72.561	60.547	107.212	185.779	26.275	198.856	-49.255	-44.128	270.594	134.412	181.580	234.049	273.940	0.00024433	0.00019361	7.3873e-05	218.55	4.4589e-06	7.4198e-06	318.44	96.252	3.927e-06	4.5253e-06	164.69	88.625	46.214	27.245	3.1724e-07	53.674	0.00070779	0.00071767	0.00020185	359.65	8.0154e-06	7.8872e-06	387.09	115.61	7.6916e-06	7.616e-06	194.42	101.5	57.682	30.937	7.3827e-06	59.242	161.762	46.788	-47.242	-61.665	130.395	119.993	-62.544	-57.672	64.579	91.828	-59.001	-55.272	-54.729	-51.193	38.551	-52.617	-8191	255	
2442.747	1	1	0	0	0.28211	0.079784	0.21185	0.20379	0.19894	0.18393	0.10235	0.1977	0.010605	0.28683	0.16466	0.16148	0.070757	0.37192	0.26803	0.081496	-2.4146	-2.8521	-3.1271	-2.8854	-2.9521	-2.9813	-2.7583	-3.1375	-2.8812	-2.8125	-2.9938	-2.8083	-3.0521	-2.8438	-2.8125	-3.3417	177.402	25.248	221.866	241.918	35.095	188.637	238.335	41.966	280.903	159.631	266.078	102.656	43.611	241.488	276.637	267.996	0.00015495	0.00057247	9.3912e-05	218.38	3.6238e-06	4.9958e-06	321.02	96.774	3.9708e-06	3.3039e-06	165.4	89.591	46.447	27.329	2.3267e-07	53.666	0.00065474	0.00066347	0.00018683	347.94	7.4348e-06	7.4404e-06	385.97	115.2	7.3984e-06	7.398e-06	194.71	101.73	57.585	30.904	7.0732e-06	59.081	177.635	23.373	-6.253	-61.834	33.703	76.703	-62.988	-57.551	91.169	94.501	-59.026	-55.250	-54.834	-51.326	88.806	-52.832	-8191	255	
2442.844	1	1	0	0	0.17803	0.16122	0.13529	0.192	0.33372	0.1595	0.023487	0.21377	0.11186	0.19634	0.17395	0.16254	0.12823	0.25922	0.10672	0.16894	-2.5667	-2.6875	-3.1125	-2.7188	-2.9437	-2.9313	-2.7292	-2.9625	-2.9313	-2.8271	-3.0479	-2.8271	-2.8688	-3.1771	-2.7375	-2.9625	-48.465	-38.877	-42.302	-13.182	64.526	164.244	237.277	77.979	144.711	-36.330	210.850	117.195	101.532	244.023	216.843	228.665	0.00019515	0.00019371	0.00013667	214.64	2.4387e-06	1.3507e-06	319.13	96.177	3.4747e-06	1.6617e-06	164.81	88.547	46.253	27.252	8.1981e-06	53.775	0.00062738	0.0006424	0.00018006	341.6	7.1011e-06	7.1694e-06	382.63	114.49	7.2791e-06	7.3446e-06	193.74	101.22	57.636	30.905	7.4036e-06	59.069	169.816	81.800	80.487	-62.178	96.224	-45.117	-62.951	-57.626	271.289	-48.128	-59.165	-55.339	-54.608	-51.209	74.560	-52.742	-8191	255	
2442.940	1	1	0	0	0.24726	0.093598	0.19811	0.22354	0.23169	0.134	0.10354	0.073499	0.12692	0.14234	0.29727	0.099139	0.29909	0.10958	0.088491	0.019893	-2.3646	-2.7875	-3.1	-2.8354	-2.7313	-3.0146	-2.7896	-2.8396	-3.0312	-2.8667	-3.1229	-2.9542	-2.9229	-3.0417	-2.7979	-3.1562	129.375	13.745	273.263	12.374	268.805	202.635	-54.017	219.542	222.527	213.795	193.273	266.607	217.454	254.320	284.369	112.287	0.00018356	0.00018353	0.0001505	215.59	3.7438e-06	7.4747e-06	317.56	95.932	3.7717e-06	4.5181e-06	163.54	88.473	46.093	27.213	2.4903e-06	53.522	0.00065846	0.00067191	0.00018831	346.48	7.4079e-06	7.4621e-06	383.76	114.77	7.6005e-06	7.6693e-06	194.22	101.37	58.048	30.905	7.9009e-06	59.049	176.737	-5.492	71.573	-62.168	46.948	65.800	-62.879	-57.496	32.484	17.900	-59.298	-55.516	-54.895	-51.212	22.030	-52.757	-8191	255	
2443.036	1	1	0	0	0.15982	0.064182	0.078001	0.26513	0.099893	0.2826	0.14875	0.08218	0.11314	0.16426	0.12231	0.072984	0.15823	0.21627	0.20427	0.066215	-2.5271	-2.7083	-3.1188	-2.9208	-2.7479	-3.2521	-2.7271	-3.075	-3.0354	-2.7417	-3.1083	-2.7313	-2.8167	-3.0625	-2.6458	-3.0375	282.603	227.750	22.313	156.179	1.217	94.266	221.751	111.628	56.538	-56.139	114.483	-22.950	271.755	201.599	269.700	-45.041	0.00017979	0.00025093	7.1145e-05	217.43	3.4341e-06	5.8851e-06	315.99	95.911	7.0055e-06	1.6056e-06	164.95	88.801	46.254	27.146	4.4462e-06	53.419	0.00069744	0.00070989	0.00019684	353.65	7.5833e-06	7.6267e-06	383.34	114.69	7.5277e-06	7.6286e-06	194.52	101.4	57.86	30.83	7.756e-06	58.99	155.930	55.169	46.920	-62.141	66.837	51.615	-62.494	-57.584	58.991	-5.232	-59.409	-55.348	-55.025	-51.157	138.934	-52.731	-8191	255	
2443.132	1	1	0	0	0.30764	0.16769	0.26734	0.23534	0.1399	0.11089	0.049167	0.23369	0.049748	0.24904	0.027779	0.13876	0.28459	0.14259	0.092738	0.16233	-2.5687	-2.6104	-2.9875	-2.7812	-2.7521	-3.0479	-2.6167	-2.8792	-2.9062	-2.5604	-3.1083	-2.7333	-2.7812	-3.2021	-2.7125	-2.9646	116.639	13.992	-63.784	21.850	73.263	179.063	69.336	236.256	219.532	132.140	-1.276	237.825	183.309	9.483	234.112	-15.134	0.00016556	0.00040519	0.00010399	219.84	1.5026e-06	5.8374e-07	320.37	96.319	5.437e-06	9.4975e-06	164.56	89.071	46.504	27.151	2.1186e-06	53.39	0.0006906	0.00071275	0.00019749	355.21	7.6943e-06	7.682e-06	385	114.86	7.4871e-06	7.5158e-06	194.27	101.36	57.739	30.736	7.3982e-06	58.843	185.599	32.886	-37.567	-62.113	33.607	-0.149	-62.915	-57.654	38.871	82.048	-59.038	-55.443	-54.878	-50.976	108.821	-52.845	-8191	255	
2443.228	1	1	0	0	0.21448	0.36761	0.15059	0.20693	0.061432	0.22384	0.078869	0.10761	0.17405	0.094711	0.088609	0.17866	0.34103	0.12233	0.030267	0.22391	-2.6479	-2.5875	-2.9208	-2.8229	-2.6813	-3.0062	-2.9417	-2.7208	-3.0146	-2.7854	-3.0417	-2.9313	-2.5729	-3.2313	-2.5667	-3.0396	13.212	140.673	137.107	41.891	140.535	233.335	54.313	-39.997	220.169	68.660	47.496	136.715	-56.464	158.823	111.679	-62.823	0.00021215	0.00082872	9.7283e-05	217.93	4.5299e-06	3.3783e-06	318.89	96.367	2.2071e-06	4.8611e-06	165.3	88.483	45.854	27.111	2.9194e-06	53.025	0.00067042	0.00069204	0.00019531	354.11	7.7447e-06	7.8118e-06	386.4	115.5	7.6216e-06	7.6611e-06	194.28	101.1	57.773	30.74	7.5402e-06	58.556	180.346	31.861	148.922	-61.170	74.564	64.297	-62.545	-57.719	37.852	132.706	-59.304	-55.586	-54.849	-51.227	36.797	-53.034	-8191	255	
2443.324	1	1	0	0	0.12255	0.23473	0.05272	0.19236	0.14722	0.031763	0.079473	0.3079	0.065858	0.039149	0.24879	0.18161	0.019798	0.24488	0.099322	0.039592	-2.6625	-2.7438	-3.0458	-3.0062	-2.6333	-3.0271	-2.7583	-2.9562	-3.125	-2.7229	-2.9521	-3.0146	-2.7333	-3.0646	-2.8104	-2.9479	30.935	135.031	66.520	187.259	253.103	91.354	169.959	172.727	43.500	250.766	234.886	103.587	273.197	92.167	-3.078	117.716	0.00015027	0.00041045	0.00012963	217.22	7.1421e-07	6.6155e-06	317.16	96.398	1.8422e-06	1.6247e-06	163.45	88.18	46.193	27.014	2.1117e-06	52.898	0.00067521	0.00069131	0.00019186	350.49	7.5805e-06	7.5779e-06	383.38	114.83	7.6178e-06	7.6606e-06	193.79	100.95	57.961	30.695	7.7403e-06	58.461	200.635	57.984	29.160	-61.928	151.692	85.772	-62.954	-57.491	-12.753	37.085	-58.940	-55.407	-54.891	-51.267	112.311	-52.965	-8191	255	
2443.443	1	1	0	0	0.10617	0.019517	0.27635	0.26689	0.19702	0.30886	0.22108	0.2366	0.26651	0.18353	0.1501	0.22452	0.15372	0.15781	0.25129	0.14164	-2.7854	-2.6354	-2.8354	-2.9146	-2.7188	-3.0208	-2.9396	-2.7771	-3.1229	-2.775	-2.9896	-2.8458	-2.6958	-3.0146	-2.9833	-2.9375	263.091	142.701	-17.107	-36.750	0.441	132.146	231.713	149.970	66.976	260.540	-15.671	276.556	92.298	237.520	1.404	228.180	0.00018455	0.00017478	0.00013191	221.21	1.4967e-06	6.7994e-06	317.39	96.303	2.4312e-06	2.7274e-06	163.16	88.148	46.025	27.097	3.0375e-06	52.929	0.00068352	0.0006928	0.00019131	349.32	7.4521e-06	7.4373e-06	382.55	114.63	7.363e-06	7.3903e-06	193.02	100.63	57.442	30.606	7.355e-06	58.475	175.413	164.939	-10.814	-62.251	124.941	45.719	-62.795	-57.831	18.776	20.515	-59.054	-55.423	-54.795	-51.241	111.085	-52.828	-8191	255	
2443.539	1	1	0	0	0.029529	0.018122	0.30883	0.033818	0.16928	0.14723	0.19251	0.12601	0.115	0.20959	0.10641	0.10198	0.13679	0.33448	0.082385	0.11638	-2.6	-2.7354	-2.7417	-2.9083	-2.7042	-3.0438	-2.9021	-2.7562	-3.15	-2.8896	-3.0083	-3.1188	-2.8	-2.8771	-2.9313	-3.0854	197.323	191.578	61.522	8.072	78.224	175.099	158.665	190.806	-43.922	152.188	275.117	-22.831	-63.541	201.620	143.284	171.057	0.00020225	0.00069226	5.4497e-05	217.81	2.0204e-06	4.2877e-06	317.95	95.973	3.6155e-06	3.8088e-06	163.73	88.365	46.309	26.97	2.2913e-06	53.213	0.00066044	0.00067083	0.00018767	346.23	7.2433e-06	7.2339e-06	381.53	114.24	7.1135e-06	7.1223e-06	192.32	100.64	57.177	30.546	6.8883e-06	58.467	179.295	46.643	36.127	-61.334	218.299	86.696	-63.124	-57.054	58.896	115.229	-59.183	-55.226	-54.715	-51.010	195.876	-52.721	-8191	255	
2443.635	1	1	0	0	0.124	0.083809	0.11339	0.15552	0.19196	0.10861	0.14716	0.21802	0.14065	0.22719	0.1055	0.2081	0.22838	0.086447	0.28833	0.094947	-2.7458	-2.9208	-2.9375	-3.0021	-3.0896	-2.9313	-2.8583	-2.9208	-3.2042	-2.9125	-2.9229	-3.0417	-3.0167	-2.8812	-3.0167	-2.8063	193.837	68.144	31.994	205.967	194.141	-72.686	264.263	85.886	267.757	-53.931	126.195	195.749	151.482	255.777	210.122	102.517	0.00021123	0.0002264	9.7552e-05	222.74	1.7291e-06	3.2526e-06	320.88	96.682	2.5353e-06	2.6649e-06	164.49	88.67	46.561	27.063	3.173e-06	53.183	0.00061532	0.00061784	0.00017124	337.09	6.6862e-06	6.594e-06	379.74	113.55	6.5298e-06	6.5072e-06	191.33	100.43	56.789	30.422	6.5651e-06	58.322	199.123	-7.729	275.866	-61.709	206.491	99.592	-62.960	-57.480	114.856	-53.324	-59.259	-55.278	-54.845	-51.157	77.708	-52.884	-8191	255	
2443.709	1	1	0	0	0.063427	0.085653	0.16917	0.20693	0.12391	0.15824	0.35425	0.099127	0.37122	0.19512	0.065202	0.2475	0.17453	0.24349	0.11468	0.095241	-2.3979	-2.7792	-2.8167	-3.0021	-2.7792	-2.8729	-3.1125	-2.7125	-3.0354	-2.7854	-2.8708	-3.0958	-2.7167	-2.8937	-3.1312	-2.8104	-32.344	68.737	114.550	215.518	88.139	19.725	130.176	-41.189	283.845	93.121	-39.439	-63.074	196.331	225.732	12.329	80.619	0.0002013	0.0001387	8.0802e-05	219.95	3.1889e-06	4.2677e-06	320.26	96.391	2.8558e-06	4.7772e-06	164.19	88.521	46.135	27.115	3.8036e-06	53.165	0.00058539	0.00059459	0.00016591	334.4	6.5551e-06	6.4799e-06	378.69	113.03	6.392e-06	6.4419e-06	190.71	99.983	56.393	30.388	6.5495e-06	58.19	177.849	211.970	44.955	-62.001	146.785	110.330	-62.580	-57.688	12.632	103.596	-59.047	-55.705	-55.038	-51.025	84.503	-52.807	-8191	255	
2443.828	1	1	0	0	0.24669	0.04445	0.1163	0.29551	0.13354	0.24709	0.19513	0.24832	0.024538	0.14873	0.2513	0.26699	0.18666	0.18391	0.2281	0.34295	-2.6958	-3.0521	-2.6854	-3.0667	-2.9958	-2.8396	-3.2062	-2.6646	-2.9938	-2.8896	-2.7521	-2.9813	-2.7583	-2.8833	-3.0792	-2.9292	67.276	-19.326	-57.778	108.137	123.274	24.684	199.460	12.219	195.958	244.463	-17.410	235.371	244.198	246.757	-3.536	242.049	0.0001663	0.00011277	0.00013746	217.11	1.0149e-06	5.5837e-06	317.92	95.714	3.114e-06	1.4322e-06	164.51	88.437	46.6	27.113	9.0373e-07	53.237	0.00057951	0.00058716	0.0001627	330.22	6.2793e-06	6.2184e-06	375.55	112.1	6.0485e-06	6.0415e-06	189.39	99.685	56.038	30.256	6.1399e-06	58.043	187.719	-26.665	26.964	-62.575	190.093	146.877	-62.683	-57.739	177.126	115.059	-59.055	-55.535	-54.412	-51.381	75.472	-52.798	-8191	255	
2443.924	1	1	0	0	0.27624	0.14747	0.11187	0.34354	0.27441	0.26533	0.059808	0.16937	0.12626	0.096713	0.132	0.065122	0.048934	0.12184	0.27762	0.11336	-2.5667	-2.9083	-2.5833	-2.8792	-2.9979	-2.7687	-3.1208	-2.8479	-2.9	-3.1604	-2.8083	-2.95	-3.0271	-2.7958	-3.1583	-3.0563	-9.262	218.118	282.500	47.445	95.183	84.522	272.989	-69.943	69.469	54.847	-31.400	217.074	18.679	118.075	112.233	233.414	0.00017583	0.00025723	0.00017475	217.55	2.8866e-06	1.7322e-06	321.23	96.342	1.3803e-06	2.3572e-06	164.99	88.897	46.773	27.03	1.9961e-06	53.202	0.00055055	0.00055689	0.00015597	325.59	6.0326e-06	6.0228e-06	376.24	112.22	5.9171e-06	5.9203e-06	189.31	99.691	55.771	30.127	5.8931e-06	58.006	197.325	148.627	-22.715	-62.490	52.278	29.768	-62.580	-57.720	235.694	158.820	-59.332	-55.436	-54.824	-51.289	80.775	-52.722	-8191	255	
2444.020	1	1	0	0	0.11655	0.18406	0.17481	0.12439	0.085692	0.12341	0.16012	0.12192	0.15331	0.23921	0.13893	0.19975	0.14666	0.13464	0.13719	0.045925	-2.3604	-3.0458	-2.7583	-3.1021	-2.9271	-2.8688	-3.0854	-2.9521	-2.8167	-3.1458	-2.8312	-3.25	-2.9604	-2.7083	-3.0583	-3.0958	220.192	107.623	107.444	174.501	135.350	33.369	80.850	90.387	-46.210	107.535	-36.160	257.222	253.926	180.069	66.399	108.773	0.00022222	0.00032857	0.00011367	218.02	1.8495e-06	2.6642e-06	318.95	95.891	1.5298e-06	3.9369e-06	164.48	88.382	46.509	27.081	1.695e-06	53.29	0.00052565	0.00053349	0.00014949	320.86	5.8709e-06	5.9039e-06	375.75	111.91	5.9569e-06	6.0168e-06	189.95	99.991	56.135	30.24	6.1269e-06	58.164	181.907	132.202	-13.756	-61.997	98.894	114.872	-62.623	-57.827	-28.807	69.130	-59.104	-55.323	-54.700	-51.310	41.654	-52.713	-8191	255	
2444.141	1	1	0	0	0.2135	0.23429	0.26623	0.089374	0.19087	0.10972	0.022015	0.26852	0.11812	0.21563	0.1588	0.13862	0.22745	0.087882	0.1924	0.20891	-2.4292	-3.0333	-2.7792	-2.8312	-3.0375	-2.825	-3.0583	-2.8521	-2.9104	-3.0958	-2.8563	-3.0292	-3.0187	-2.8104	-3.0563	-3.0792	92.420	92.623	94.936	24.572	108.548	259.443	152.419	213.103	227.715	239.098	243.822	256.602	249.672	-1.852	230.103	227.954	0.00017974	0.00051708	5.5306e-05	219.64	4.6226e-06	3.2141e-06	322.14	96.698	2.6724e-06	4.8821e-06	164.92	89.145	46.637	27.099	2.305e-06	53.208	0.00055057	0.00056021	0.00015691	327.51	6.1773e-06	6.2149e-06	379	112.92	6.189e-06	6.257e-06	190.67	100.29	56.454	30.301	6.3259e-06	58.222	178.098	-28.530	-60.180	-61.513	63.052	126.798	-62.804	-57.811	31.781	50.964	-59.217	-55.525	-54.852	-51.324	12.794	-52.866	-8191	255	
2444.237	1	1	0	0	0.12456	0.21481	0.078589	0.16139	0.15035	0.14106	0.13682	0.0667	0.11841	0.18191	0.14039	0.14894	0.1438	0.049883	0.050337	0.099286	-2.4437	-2.8563	-2.7958	-2.8042	-3.0271	-2.7458	-3.0354	-2.9313	-2.8229	-3.0271	-2.9354	-2.9083	-2.9521	-2.7625	-3.0479	-2.9417	206.627	140.794	15.092	-73.525	15.733	158.924	252.317	34.858	-62.813	61.787	63.074	281.164	14.087	163.050	74.849	165.256	0.00019986	0.00027156	0.00012025	217.86	1.0775e-06	3.6897e-06	321.8	96.347	1.4094e-07	3.6016e-06	165.79	89.036	46.521	27.156	2.7334e-06	53.043	0.00057236	0.00058134	0.00016304	332.2	6.3932e-06	6.4387e-06	380.01	113.45	6.4155e-06	6.4499e-06	191.38	100.46	56.585	30.36	6.4365e-06	58.132	175.411	102.035	-0.985	-61.990	101.492	30.317	-63.015	-57.510	20.298	25.691	-58.912	-55.563	-54.557	-51.193	162.060	-52.909	-8191	255	
2444.309	1	1	0	0	0.18309	0.075897	0.078216	0.15194	0.037666	0.23392	0.34768	0.038965	0.18389	0.11971	0.084298	0.31751	0.27809	0.060533	0.17426	0.19819	-2.3417	-3.0375	-2.7417	-2.7313	-3.1771	-2.7167	-3.1083	-3.0875	-2.7021	-2.9938	-2.8771	-3.025	-3.0875	-2.8521	-2.9021	-2.9688	57.064	-68.938	252.765	151.183	60.484	30.073	246.180	45.733	134.876	66.826	-72.473	279.116	216.058	226.167	-32.078	239.205	0.00017377	0.00028408	6.4744e-05	215.99	7.6363e-07	1.0785e-06	320.91	97.799	3.0432e-06	4.475e-06	165.64	89.036	46.766	27.093	7.6523e-07	53.077	0.00057462	0.00058771	0.00016296	331.67	6.4695e-06	6.489e-06	380.91	114.16	6.5789e-06	6.5997e-06	192.52	100.78	57.005	30.393	6.6348e-06	58.242	165.424	51.731	45.284	-61.943	63.225	104.355	-62.611	-57.650	125.752	94.148	-59.140	-55.324	-55.051	-51.237	-53.088	-52.888	-8191	255	
2444.429	1	1	0	0	0.070806	0.23252	0.16054	0.28997	0.46917	0.14538	0.15633	0.15541	0.24344	0.12592	0.1019	0.079375	0.26525	0.23967	0.042668	0.14891	-2.2562	-3.1	-2.9042	-2.8417	-2.9562	-2.7854	-2.8396	-2.9979	-2.7708	-3.0979	-3.1125	-2.8833	-3.0167	-2.7396	-2.8521	-3.1125	32.872	-16.027	-48.689	265.627	76.447	177.526	235.494	37.332	91.244	90.505	136.345	-43.938	-56.169	65.958	154.454	36.031	0.00021097	0.00013187	1.8267e-05	218.79	2.3544e-06	4.6029e-07	321.77	96.702	5.3025e-06	6.1948e-06	165.94	88.971	46.686	26.881	2.6495e-06	53.171	0.00059661	0.00061485	0.00016946	337.7	6.7303e-06	6.7426e-06	381.61	114.01	6.7366e-06	6.7729e-06	192.69	100.86	56.926	30.312	6.667e-06	58.265	180.296	-12.921	173.383	-62.509	-63.200	271.620	-62.662	-57.542	58.486	161.168	-59.220	-55.683	-54.619	-51.304	60.174	-52.726	-8191	255	
2444.524	1	1	0	0	0.23405	0.09661	0.18967	0.10496	0.10619	0.086781	0.21151	0.16896	0.1304	0.1425	0.089419	0.06558	0.077441	0.28976	0.081329	0.25586	-2.3646	-2.95	-2.8542	-2.5354	-3.0729	-2.9229	-2.9562	-3.125	-2.8583	-3.0604	-2.7292	-2.9521	-3.1417	-2.9417	-2.8875	-3.1437	214.476	-59.416	179.292	212.895	-38.584	-61.801	-58.221	278.985	-53.125	157.042	163.921	268.265	173.062	239.184	211.730	200.622	0.00018122	0.00033699	8.5691e-05	220.6	3.7837e-06	4.0419e-06	318.9	96.681	2.1755e-06	5.703e-06	166.18	89.159	46.605	26.957	2.8126e-06	53.297	0.00059077	0.00060119	0.00016755	333.14	6.5315e-06	6.5364e-06	378.19	113.26	6.4859e-06	6.4773e-06	192.07	100.81	56.588	30.27	6.4164e-06	58.276	166.579	6.876	49.347	-61.854	14.713	110.215	-62.863	-57.675	248.988	110.459	-59.234	-55.628	-54.818	-51.391	107.382	-52.933	-8191	255	
2444.620	1	1	0	0	0.17022	0.14084	0.029857	0.091477	0.058621	0.21206	0.13912	0.22449	0.20567	0.26375	0.11629	0.046493	0.18818	0.16128	0.14271	0.23881	-2.375	-2.9292	-2.8229	-2.4625	-2.8771	-2.8375	-2.8146	-2.9604	-2.6562	-2.975	-2.8375	-2.7188	-3.15	-2.9042	-2.8438	-3.1979	36.401	278.482	122.945	-9.127	8.517	240.236	-54.696	263.458	196.439	262.748	212.309	96.997	238.900	2.924	204.086	27.411	0.00025101	0.00033223	0.00012724	218.52	1.8327e-06	2.1484e-06	321.15	96.846	4.3019e-06	3.0677e-06	166.09	88.573	46.569	26.94	3.0147e-06	53.263	0.00057217	0.00058336	0.00016257	331.06	6.4426e-06	6.4871e-06	379.36	113.61	6.5155e-06	6.5503e-06	191.89	100.33	56.416	30.243	6.3178e-06	58.13	173.177	-61.648	160.084	-62.099	-34.226	-21.857	-63.157	-57.538	72.861	239.564	-59.189	-55.696	-54.805	-51.302	181.431	-52.836	-8191	255	
2444.740	1	1	0	0	0.16753	0.037209	0.041732	0.089429	0.11005	0.27396	0.11171	0.07311	0.055245	0.13402	0.31148	0.052296	0.060819	0.23995	0.22681	0.3717	-2.4833	-2.9021	-2.9917	-2.5708	-3.0396	-2.7792	-2.6917	-3.0292	-2.9125	-2.9167	-2.8312	-2.825	-2.8438	-2.9771	-2.9167	-3.1229	216.808	225.921	76.995	-45.777	40.049	105.963	198.457	240.310	244.609	-69.223	280.092	153.154	274.947	-73.900	146.477	-38.926	0.00020667	0.00063392	1.2558e-05	215.96	3.9665e-06	6.6059e-06	317.55	96.262	1.5884e-06	2.0682e-06	164.77	88.656	46.376	27.039	8.3998e-07	53.023	0.00056726	0.00057122	0.00015826	326.94	6.2641e-06	6.2992e-06	376.35	113.25	6.4392e-06	6.4446e-06	191.39	100.19	56.419	30.269	6.4325e-06	58.134	169.201	20.950	-46.064	-62.241	40.402	97.152	-62.775	-57.809	58.621	147.321	-59.211	-55.704	-54.732	-51.331	179.205	-52.845	-8191	255	
2444.836	1	1	0	0	0.14588	0.10043	0.15971	0.19109	0.28373	0.13137	0.18882	0.13048	0.13403	0.21154	0.099319	0.24448	0.099531	0.19512	0.044159	0.062273	-2.4083	-2.6813	-2.8792	-2.8271	-2.9813	-3.0062	-2.8438	-3.075	-2.825	-2.8187	-3.1271	-2.7104	-2.9583	-2.9396	-2.875	-3.1271	-68.809	124.325	122.690	78.963	131.257	198.771	19.350	182.635	171.893	53.429	212.566	274.907	71.170	260.005	127.670	-21.214	0.00016734	0.00041584	0.0001427	219.69	2.54e-06	2.838e-06	318.75	96.491	1.7354e-06	1.9543e-06	164.51	88.887	45.999	26.96	5.1475e-06	53.207	0.00057149	0.00057419	0.00015941	328.42	6.2039e-06	6.1744e-06	376.11	112.7	6.1369e-06	6.2291e-06	190.17	100.03	55.89	30.157	6.1902e-06	58.126	189.171	70.693	-55.858	-61.760	105.122	-34.264	-62.712	-57.468	132.942	62.710	-58.987	-55.311	-54.811	-51.179	111.308	-52.805	-8191	255	
2444.933	1	1	0	0	0.15654	0.071285	0.13395	0.13352	0.25806	0.13892	0.11398	0.16783	0.27219	0.15811	0.11583	0.22335	0.16962	0.18928	0.052025	0.26935	-2.3312	-2.5375	-3.0875	-2.4979	-2.9688	-2.9875	-2.9688	-2.9292	-2.8396	-2.9625	-2.9896	-3.0625	-2.8396	-3.0333	-2.6875	-3.1292	94.395	272.319	-7.858	157.325	-44.132	196.420	128.630	-42.889	-61.163	152.106	116.500	-19.493	268.605	223.046	145.669	260.770	0.00020915	0.00052215	2.4534e-05	218.11	3.0024e-06	1.7383e-06	319.01	96.167	6.6368e-07	3.3688e-06	165.43	89.149	46.293	26.809	3.761e-06	53.157	0.00054853	0.00055777	0.00015504	325.42	6.0984e-06	6.1386e-06	376.49	112.45	6.1098e-06	6.1767e-06	190.75	100.12	55.99	30.092	6.252e-06	58.157	189.132	24.051	88.914	-61.601	13.334	-20.283	-62.622	-57.517	199.084	157.120	-59.114	-55.368	-54.903	-51.300	94.542	-52.817	-8191	255	
2445.004	1	1	0	0	0.25838	0.045213	0.13701	0.28763	0.31938	0.14625	0.20076	0.14158	0.35051	0.23975	0.1675	0.2669	0.28594	0.087172	0.15801	0.045261	-2.4771	-2.8479	-3.0146	-2.8375	-2.9125	-3.0167	-2.8542	-3.0708	-2.8854	-2.7854	-3.0854	-2.8792	-2.8	-3.2104	-2.8521	-3.0667	89.708	257.811	211.000	251.770	30.682	104.403	238.623	205.174	169.913	59.297	196.836	29.712	-47.161	-66.044	259.774	-24.873	0.00022104	0.00027022	3.39e-05	219.69	1.7209e-06	2.84e-06	319.34	96.103	4.622e-06	1.2148e-06	165.1	88.855	45.99	26.891	2.8475e-06	52.994	0.00056361	0.00056441	0.00015833	324.86	6.1553e-06	6.2067e-06	376.38	112.15	6.2178e-06	6.2478e-06	190.69	100.1	56.055	30.076	6.3566e-06	57.933	187.429	20.393	122.048	-62.228	24.292	102.351	-62.740	-57.553	-33.395	75.462	-59.434	-55.434	-54.756	-51.246	112.237	-52.759	-8191	255	
2445.125	1	1	0	0	0.15593	0.1256	0.12064	0.10285	0.14651	0.29992	0.11405	0.20227	0.18161	0.086815	0.16559	0.051682	0.078712	0.16835	0.023563	0.19266	-2.45	-2.7083	-3.2167	-2.8187	-2.7812	-3.0979	-2.8896	-2.7979	-2.9396	-2.6937	-3.1146	-2.8104	-2.7771	-3.0438	-2.8146	-3.0187	37.210	-43.128	155.276	-60.647	215.607	53.910	210.055	30.750	177.626	250.597	-62.294	-46.428	100.361	-53.146	-67.043	-33.085	0.00018782	0.00060151	0.00023225	218.51	2.1908e-06	4.3927e-06	316.93	95.751	9.9269e-07	2.0717e-06	163.28	88.329	46.091	26.777	2.6555e-06	52.614	0.00056478	0.0005715	0.00015841	325.76	6.1473e-06	6.1421e-06	374.01	111.57	6.1188e-06	6.1757e-06	189.03	99.427	55.731	29.932	6.2107e-06	57.574	176.157	-65.773	-58.094	-62.111	16.448	83.022	-63.115	-57.558	55.511	197.254	-59.158	-55.534	-54.726	-51.216	154.276	-52.789	-8191	255	
2445.221	1	1	0	0	0.2839	0.10909	0.098258	0.20488	0.18674	0.14721	0.084144	0.060065	0.10277	0.074517	0.29548	0.10161	0.13581	0.1265	0.17742	0.35346	-2.4396	-2.5396	-3.0521	-2.7938	-2.7188	-2.8479	-2.7604	-2.8896	-3.0042	-2.575	-3.0021	-2.8667	-2.8604	-3.0667	-2.7167	-2.775	20.520	16.060	96.328	100.253	-41.204	163.187	155.822	32.992	141.351	31.241	256.543	-7.643	-40.901	280.752	13.807	154.609	0.00016285	0.00024041	3.1539e-05	217.82	4.2579e-06	3.6113e-06	318.32	95.508	1.8095e-06	6.7594e-06	164.01	87.763	45.964	26.661	1.944e-06	52.882	0.00055633	0.00056607	0.00015721	325.22	6.1121e-06	6.0925e-06	374.72	111.81	6.0144e-06	6.0625e-06	189.13	99.137	55.426	29.819	6.0564e-06	57.605	167.505	125.149	146.198	-62.016	90.417	166.335	-62.788	-57.786	25.636	114.859	-58.909	-55.588	-54.846	-51.322	281.518	-52.633	-8191	255	
2445.317	1	1	0	0	0.1678	0.14146	0.2602	0.042128	0.12616	0.13956	0.091259	0.009392	0.16328	0.06865	0.10824	0.16631	0.19415	0.1342	0.20562	0.11138	-2.5312	-2.4792	-2.9646	-2.9729	-2.7396	-2.9479	-2.9854	-2.8187	-3.0896	-2.7729	-2.9562	-3.0917	-2.8354	-3.0854	-2.7875	-2.8917	93.519	63.512	-67.010	-42.479	-69.050	80.261	80.195	201.412	11.050	129.803	255.395	224.010	139.668	280.333	63.872	190.890	0.00020527	0.00043557	8.8945e-05	218.66	1.9278e-06	2.9239e-06	319.98	95.518	5.9794e-06	6.4012e-06	165.29	88.647	46.241	26.839	2.7521e-06	52.963	0.00053853	0.00054766	0.00015143	321.14	5.9834e-06	5.9983e-06	374.74	111.76	6.0108e-06	6.0384e-06	189.74	99.594	55.706	29.973	6.0546e-06	57.834	184.772	46.446	-6.832	-61.757	-71.811	99.849	-62.974	-57.542	60.084	99.763	-59.410	-55.575	-55.136	-51.230	107.701	-52.729	-8191	255	
2445.413	1	1	0	0	0.30218	0.08758	0.17642	0.24915	0.13355	0.045812	0.089142	0.098278	0.10985	0.13542	0.12845	0.09813	0.06792	0.11857	0.11275	0.28758	-2.7062	-2.8208	-2.9062	-2.9646	-2.725	-3.1375	-2.85	-2.9292	-3.2354	-2.8646	-3.0271	-3.1208	-2.6333	-3.075	-2.9021	-2.8521	78.325	127.636	181.429	-47.227	-70.893	96.336	187.842	253.001	159.620	201.981	281.144	3.499	236.428	192.105	42.326	117.556	0.00012392	0.00033243	3.1434e-05	220.28	3.4238e-06	2.0288e-06	321.4	95.712	1.8158e-06	2.8758e-06	164.85	88.384	46.573	26.688	1.8271e-06	52.915	0.0005465	0.00055214	0.00015282	322.93	5.9315e-06	5.9101e-06	375.67	111.79	5.8993e-06	5.954e-06	190.18	99.898	55.845	29.932	6.0512e-06	57.94	174.476	-59.171	-29.806	-61.506	89.550	55.106	-63.032	-57.598	284.163	77.127	-59.323	-55.346	-55.229	-51.249	-12.744	-52.970	-8191	255	
2445.532	1	1	0	0	0.28161	0.037915	0.22923	0.0768	0.12638	0.21491	0.12394	0.21292	0.087987	0.11793	0.080199	0.18941	0.28431	0.10921	0.29309	0.15479	-2.5667	-2.8292	-2.8625	-2.9458	-2.8458	-3.0292	-2.9542	-2.8812	-2.9396	-2.7292	-2.9083	-3.2062	-2.7146	-3.0875	-2.8896	-2.8063	216.884	22.367	138.586	-11.849	248.743	197.641	208.395	115.222	-0.538	15.010	170.272	222.833	273.442	172.985	209.051	141.394	0.00017822	0.00012246	2.9477e-05	216.7	6.4694e-07	3.5142e-06	319.37	95.767	3.3689e-06	1.7961e-06	164.39	88.346	45.966	26.629	2.9921e-06	52.75	0.00055313	0.00056079	0.00015439	324.81	6.0975e-06	6.0783e-06	375.15	111.9	6.0622e-06	6.0649e-06	189.43	99.434	55.593	29.87	5.9997e-06	57.608	171.079	283.529	191.327	-61.975	142.661	-2.499	-62.838	-57.472	-21.858	61.704	-58.996	-55.711	-54.862	-51.090	19.584	-52.837	-8191	255	
2445.604	1	1	0	0	0.1456	0.24106	0.21477	0.19443	0.071985	0.092087	0.27524	0.11823	0.25404	0.095978	0.16567	0.13747	0.080842	0.072544	0.12493	0.18319	-2.7854	-2.7438	-2.725	-3.0125	-2.7604	-3.0479	-2.7792	-2.6125	-3.075	-2.8792	-2.9021	-3.1083	-2.6104	-2.9021	-3.0167	-2.825	174.391	78.025	47.464	16.245	274.530	251.472	246.274	275.742	152.549	117.392	99.304	264.778	44.019	59.771	179.696	225.258	0.00023376	0.00015873	6.1419e-05	218.4	3.8641e-06	5.4734e-06	318.03	95.47	1.3269e-06	3.6143e-06	163.71	87.916	45.639	26.612	3.8109e-07	52.585	0.000541	0.00055022	0.00015316	323.97	6.1761e-06	6.2533e-06	375.64	112.02	6.3428e-06	6.4113e-06	189.69	99.152	55.709	29.813	6.2553e-06	57.542	169.539	52.726	-50.316	-61.922	91.556	97.835	-62.685	-57.635	281.481	73.737	-59.439	-55.466	-54.803	-51.317	-27.991	-52.847	-8191	255	
2445.702	1	1	0	0	0.36385	0.13805	0.10896	0.087472	0.1665	0.077908	0.053751	0.30451	0.16592	0.17888	0.13259	0.21181	0.16349	0.38452	0.18354	0.16877	-2.7896	-2.7708	-2.7687	-3.0479	-2.8792	-3	-3.0312	-2.8333	-3.0438	-3.0271	-2.6854	-3.0979	-2.8312	-2.8812	-2.9437	-2.8187	146.351	151.599	-60.167	255.086	29.047	54.568	279.266	214.408	162.967	146.243	44.410	-31.046	110.839	181.019	134.538	-14.428	0.00018365	0.0003974	8.7468e-05	219.62	1.9394e-06	2.8402e-06	315.7	94.973	3.3902e-06	2.4509e-06	163.43	87.794	45.533	26.639	1.8866e-06	52.773	0.00055573	0.00056189	0.00015694	324.44	6.2002e-06	6.2055e-06	373.88	111.12	6.2722e-06	6.3227e-06	188.77	99.006	55.476	29.838	6.2795e-06	57.632	177.055	-72.042	72.278	-62.189	47.475	134.315	-62.857	-57.455	-6.184	97.633	-59.474	-55.236	-54.638	-51.178	-18.315	-52.846	-8191	255	
2445.821	1	1	0	0	0.082263	0.197	0.22457	0.1518	0.24479	0.23337	0.16073	0.23652	0.048202	0.21268	0.2928	0.11739	0.16912	0.27393	0.10774	0.23966	-2.4833	-2.8125	-2.6729	-2.8937	-2.6583	-2.975	-3.0083	-2.875	-2.9083	-3.0646	-2.8104	-3.0292	-2.8417	-2.8292	-3.0458	-2.6813	169.717	-22.969	153.970	196.303	-62.979	37.273	214.993	-30.855	55.289	161.518	223.640	261.729	-72.908	-54.795	-72.858	205.400	0.00014842	0.00019446	6.7259e-05	215.97	5.1039e-06	6.6585e-06	319.47	94.755	5.7866e-06	1.4334e-06	163.56	87.558	45.726	26.637	1.9622e-06	53.044	0.00055953	0.0005669	0.00015928	325.82	6.1634e-06	6.1659e-06	375.01	111	6.1027e-06	6.1147e-06	188.4	98.915	55.237	29.813	6.1162e-06	57.703	184.404	76.392	-69.340	-62.429	-35.712	-4.320	-62.897	-57.510	15.406	89.949	-59.274	-55.254	-54.922	-51.391	138.706	-52.884	-8191	255	
2445.917	1	1	0	0	0.26585	0.31537	0.097049	0.22096	0.07657	0.13123	0.13988	0.17433	0.22074	0.15648	0.078372	0.082908	0.112	0.26496	0.10404	0.13298	-2.5729	-2.8854	-2.7646	-2.9938	-2.8833	-2.7729	-3	-2.6917	-2.8771	-3.0417	-2.7333	-2.9625	-2.9521	-2.7562	-3.0625	-2.9979	273.319	157.061	-40.835	34.617	248.910	208.858	196.151	176.871	160.374	-12.195	255.310	160.458	-11.786	1.158	249.859	-75.273	0.00023151	0.00040049	4.0296e-05	217.01	4.2382e-06	4.0611e-06	317.24	94.999	1.7426e-06	1.1283e-06	162.62	87.717	45.42	26.452	4.4584e-07	52.491	0.00054573	0.00055041	0.00015341	321.43	6.0336e-06	6.0314e-06	373.73	110.56	6.0131e-06	6.0235e-06	187.87	98.416	54.825	29.624	5.8695e-06	57.097	186.496	-65.674	-54.979	-61.552	84.701	110.412	-62.738	-57.584	41.681	40.792	-59.354	-55.419	-54.612	-51.074	275.403	-52.906	-8191	255	
2446.013	1	1	0	0	0.1239	0.052454	0.020575	0.12896	0.21052	0.10399	0.14989	0.14756	0.042863	0.0492	0.049493	0.42472	0.076534	0.21768	0.052036	0.17021	-2.5312	-2.8354	-2.7188	-3.0687	-2.9354	-2.8146	-3.0604	-2.7833	-2.8063	-3.0542	-2.725	-3.0833	-2.85	-2.7104	-3.0396	-2.8729	53.033	11.973	-65.034	267.102	112.979	145.114	81.341	17.356	53.881	263.833	127.915	218.194	-8.524	112.434	54.920	181.749	0.00016425	0.00032992	0.00012644	216.08	2.8947e-06	4.4e-06	315.29	94.237	3.3256e-06	3.3163e-07	162.76	87.172	45.395	26.316	2.4014e-06	52.391	0.00052125	0.00052525	0.00014672	316.19	5.6281e-06	5.666e-06	369.6	109.4	5.6234e-06	5.6551e-06	185.74	97.732	54.322	29.425	5.7807e-06	56.896	178.423	44.880	-27.719	-62.097	14.835	70.009	-62.812	-57.510	119.271	83.478	-59.447	-55.154	-54.436	-51.125	91.203	-52.777	-8191	255	
2446.109	1	1	0	0	0.14819	0.13342	0.25842	0.072801	0.2541	0.055846	0.38766	0.23276	0.027098	0.064617	0.27359	0.22836	0.047103	0.14877	0.10847	0.32767	-2.4646	-2.9146	-2.7021	-2.8542	-3.0354	-2.7438	-2.9896	-2.7646	-2.7542	-3.0125	-2.775	-3.1271	-3.1125	-2.6229	-3.0917	-2.8708	-13.923	88.996	214.349	115.648	87.004	103.032	-37.136	267.645	150.075	116.081	57.813	-74.050	112.473	-11.245	28.632	206.898	0.000191	0.00014978	0.00010679	215.18	3.2321e-06	2.2083e-06	315.65	94.179	2.6886e-06	2.5276e-06	160.53	86.824	45.255	26.46	3.2512e-06	52.249	0.00051043	0.00051655	0.00014344	312.67	5.5675e-06	5.5745e-06	369.26	109.29	5.6001e-06	5.6589e-06	185.13	97.732	54.185	29.435	5.6554e-06	56.852	177.853	132.832	2.584	-62.113	99.212	25.354	-62.637	-57.551	51.160	29.559	-59.284	-55.389	-54.634	-51.153	-47.820	-52.577	-8191	255	
2446.205	1	1	0	0	0.1442	0.11546	0.23621	0.052618	0.30106	0.10226	0.084621	0.12411	0.10378	0.24293	0.13	0.10285	0.22283	0.30589	0.087383	0.10992	-2.3979	-2.9958	-2.6375	-2.9333	-2.9688	-2.6854	-3.15	-3.025	-2.9208	-3.1021	-2.8125	-3.0604	-2.975	-2.8417	-3.0729	-2.9729	13.210	269.517	214.897	-7.623	131.632	16.621	24.231	249.957	-46.632	217.589	260.528	201.054	213.214	257.102	152.384	260.791	0.00023387	0.00061404	0.00016984	211.13	1.0346e-06	4.4696e-06	315.13	94.066	1.8086e-06	1.3808e-06	161.9	87.027	45.198	26.491	2.0405e-06	52.425	0.0004962	0.00049919	0.00013789	309.2	5.3545e-06	5.4268e-06	366.9	108.39	5.3915e-06	5.4533e-06	184.58	97.36	53.813	29.362	5.3962e-06	56.905	171.172	36.521	66.714	-62.825	-37.552	73.191	-63.261	-57.577	-37.831	-26.528	-59.063	-55.349	-54.578	-51.201	140.346	-52.697	-8191	255	
2446.301	1	1	0	0	0.15484	0.17507	0.22931	0.27462	0.13968	0.14648	0.27609	0.028899	0.31031	0.16931	0.18524	0.041498	0.11787	0.063908	0.048988	0.10531	-2.2979	-3.2167	-2.8542	-2.8896	-2.9667	-2.7979	-3.0125	-2.7812	-2.9125	-2.8958	-2.6375	-2.9562	-2.9479	-2.7188	-2.9167	-3.0167	283.644	75.533	57.238	197.979	281.029	75.747	-50.134	263.583	112.022	166.787	-30.728	191.229	14.096	198.099	-37.624	263.063	0.00017265	0.00045463	0.00011058	213.86	2.8526e-06	4.5198e-06	316.32	93.487	2.4111e-06	8.2464e-07	161.67	87.361	45.371	26.476	2.7114e-06	52.546	0.0004866	0.00049151	0.00013636	305.01	5.2375e-06	5.2242e-06	366.66	107.55	5.1281e-06	5.0806e-06	183.73	97.176	53.353	29.29	5.1115e-06	56.949	187.436	2.604	54.856	-62.163	54.475	45.278	-62.849	-57.430	266.480	247.204	-58.771	-55.356	-54.872	-51.464	35.389	-52.635	-8191	255	
2446.422	1	1	0	0	0.088618	0.26895	0.11302	0.2428	0.024964	0.0674	0.23034	0.15773	0.049448	0.077454	0.35169	0.27763	0.2117	0.076679	0.34923	0.26623	-2.2812	-2.9938	-2.8167	-2.9333	-3.0771	-2.6854	-3.0125	-3.0208	-2.675	-2.9896	-2.7958	-2.8458	-3.0083	-2.8063	-2.8396	-3.0042	178.352	128.794	171.587	125.357	-33.911	128.235	-44.483	54.685	71.204	199.390	-0.920	211.902	172.258	207.086	175.573	209.526	0.00016896	0.00035459	0.00015434	216.76	4.1664e-06	5.9158e-06	315.67	93.46	2.8073e-06	2.605e-06	162.05	86.915	45.349	26.328	1.6887e-06	52.358	0.00046455	0.0004726	0.00013123	305.95	5.1154e-06	5.1614e-06	366.66	108.01	4.9966e-06	5.0285e-06	183.1	96.822	53.109	29.179	4.8428e-06	56.576	179.667	-30.312	33.601	-61.358	2.237	107.210	-62.628	-57.603	29.070	182.752	-59.108	-55.482	-54.905	-51.329	73.424	-52.911	-8191	255	
2446.518	1	1	0	0	0.12167	0.24187	0.31751	0.0060738	0.32619	0.016494	0.16092	0.18702	0.050197	0.10768	0.25036	0.26395	0.21558	0.27957	0.28055	0.44944	-1.9562	-3.1229	-2.75	-2.825	-3.1729	-2.7687	-2.8708	-2.7667	-2.675	-3.0479	-2.7	-2.6958	-3.0042	-2.8271	-2.9542	-2.9583	-35.703	14.453	187.247	268.188	180.372	4.077	128.467	-67.750	47.853	105.493	262.135	153.713	236.240	148.706	198.036	236.424	0.00017202	0.00047459	6.5261e-05	215.29	1.0621e-06	5.488e-06	317.95	93.456	8.2397e-07	5.7544e-06	161.13	87.159	45.37	26.496	3.3121e-06	52.427	0.00043798	0.00044469	0.00012429	300.6	4.9747e-06	4.973e-06	365.7	107.61	5.0852e-06	5.0563e-06	182.84	96.956	53.244	29.248	4.9181e-06	56.617	181.669	33.233	-8.288	-61.834	-26.946	51.118	-62.854	-57.647	41.248	115.399	-59.166	-55.683	-54.918	-51.298	60.146	-52.829	-8191	255	
2446.613	1	1	0	0	0.17398	0.18195	0.25599	0.20523	0.050052	0.15378	0.042918	0.047947	0.20563	0.084172	0.15911	0.27713	0.23852	0.25697	0.059721	0.19573	-2.2354	-2.8042	-2.8104	-2.5354	-3.0354	-2.7313	-2.9562	-2.875	-2.7229	-3.0167	-2.9604	-2.7062	-3.0417	-2.6792	-2.9437	-3.0125	195.139	-48.543	78.332	247.251	122.476	239.235	10.019	-57.469	-25.217	86.883	24.545	242.358	198.814	-20.724	269.435	-45.560	0.00019827	0.00033767	5.7605e-05	215.81	1.1295e-06	2.5161e-06	316.19	93.388	1.6658e-06	5.3489e-06	161.56	87.448	45.343	26.349	1.7306e-06	52.491	0.00044047	0.00043851	0.0001221	298.79	4.777e-06	4.8071e-06	364.83	107.55	4.8409e-06	4.9287e-06	183.56	97.144	53.475	29.226	5.0733e-06	56.806	169.771	16.312	86.767	-62.645	6.062	19.383	-62.810	-57.416	9.038	49.678	-58.690	-55.389	-54.934	-51.289	87.893	-52.852	-8191	255	
2446.709	1	1	0	0	0.060288	0.16659	0.25853	0.15794	0.33844	0.16721	0.24576	0.22489	0.16316	0.063665	0.16558	0.022849	0.11286	0.0028989	0.074635	0.19776	-2.2021	-2.9562	-2.7896	-2.6833	-3.1375	-2.8375	-2.7417	-2.9854	-2.6917	-2.9396	-3.0312	-2.5958	-2.9604	-2.7146	-2.7417	-3.1292	-50.200	48.151	204.622	-27.437	276.235	197.486	205.403	41.794	-5.690	48.802	119.955	104.804	151.546	123.297	146.765	124.449	0.00019311	0.00061251	0.00010158	213.52	3.3908e-06	3.1866e-06	317.57	93.854	2.4118e-06	5.1714e-07	163.07	87.588	45.228	26.472	2.0011e-06	52.478	0.00046183	0.00046223	0.0001291	303.4	5.0558e-06	5.0412e-06	366.41	107.9	5.0196e-06	5.0196e-06	184.06	97.555	53.554	29.288	5.0923e-06	56.93	171.849	26.364	10.832	-62.308	69.981	104.493	-62.892	-57.456	-9.420	-18.656	-59.185	-55.281	-54.999	-51.113	-10.635	-52.802	-8191	255	
2446.829	1	1	0	0	0.053813	0.17172	0.059323	0.1653	0.27634	0.23248	0.20642	0.022408	0.20976	0.20995	0.010695	0.24115	0.22544	0.062841	0.22195	0.090425	-2.3583	-2.8896	-2.7708	-2.9021	-2.9813	-2.8083	-2.875	-2.8479	-2.8229	-3.0125	-3.1271	-2.875	-2.9833	-2.8979	-2.7833	-3.0896	153.807	161.935	251.237	218.499	52.194	116.941	264.825	-32.623	-40.932	153.724	11.950	-54.561	-22.783	-25.997	155.370	243.795	0.0001427	0.00021889	9.8704e-05	216.99	4.7955e-06	5.0985e-06	318.46	94.478	5.1109e-06	5.2816e-06	162.09	87.072	44.758	26.382	4.2363e-06	52.387	0.00046493	0.00046903	0.00013149	306.3	5.1728e-06	5.1411e-06	368.77	108.18	5.1312e-06	5.1272e-06	183.93	97.242	53.179	29.2	5.1073e-06	56.636	175.245	272.625	23.592	-62.058	7.285	134.051	-62.714	-57.617	-6.387	115.717	-59.170	-55.383	-54.689	-51.273	127.091	-52.762	-8191	255	
2446.901	1	1	0	0	0.18137	0.16657	0.10751	0.13916	0.099309	0.11784	0.10071	0.22268	0.051694	0.082079	0.11991	0.38507	0.22113	0.39637	0.035101	0.10117	-2.4667	-2.5979	-2.9333	-2.725	-2.9625	-2.9458	-2.6729	-3.0938	-2.85	-2.9	-3.1125	-2.8479	-2.9646	-3.2021	-2.6396	-3.2083	74.696	150.430	277.641	244.754	31.159	255.835	-37.818	-10.785	237.542	213.202	-49.121	70.720	-67.889	-37.201	251.379	173.452	0.00022474	0.00010918	0.00014458	212.69	2.4056e-06	2.4698e-06	317.71	92.964	7.7294e-07	3.6871e-06	161.83	87.626	45.154	26.344	2.9624e-06	52.128	0.0004547	0.00046129	0.00012798	303.79	5.0379e-06	5.0615e-06	366.62	107.33	5.0405e-06	5.0303e-06	183.07	96.991	53.186	29.109	4.9576e-06	56.486	172.684	38.733	-73.185	-61.638	-3.343	95.021	-62.481	-57.704	-46.859	94.000	-59.023	-55.289	-54.994	-51.097	29.470	-52.569	-8191	255	
2446.997	1	1	0	0	0.17652	0.058302	0.18879	0.13531	0.23112	0.093016	0.38937	0.023761	0.026823	0.077415	0.20124	0.16894	0.16284	0.27609	0.12504	0.16583	-2.5208	-2.8063	-3.0979	-2.7708	-2.9271	-3.0625	-2.7938	-2.9708	-2.9917	-2.6688	-3.0062	-2.7479	-3.0104	-3.0875	-2.6792	-3.2896	81.262	-1.325	162.563	239.345	261.989	99.538	228.183	82.268	-32.323	144.186	162.311	168.003	105.468	280.609	165.869	99.598	0.00014911	9.5619e-05	0.00010585	215.96	2.4733e-06	2.0014e-06	318.12	93.922	2.3052e-06	3.1063e-06	161.32	87.055	45.039	26.436	3.8243e-06	52.17	0.00044331	0.00044937	0.00012559	301.41	4.9264e-06	4.9686e-06	366.36	107.7	5.0021e-06	5.0712e-06	183.3	97.054	53.383	29.215	5.1235e-06	56.658	177.114	276.808	39.911	-61.415	32.335	73.356	-62.767	-57.765	-45.702	62.301	-58.862	-55.507	-54.852	-51.074	19.489	-52.741	-8191	255	
2447.093	1	1	0	0	0.13465	0.18774	0.11812	0.1418	0.13514	0.17511	0.14063	0.15451	0.10813	0.067052	0.095519	0.086381	0.23816	0.24738	0.16887	0.1458	-2.3979	-2.6896	-2.9875	-2.7438	-2.8646	-3.1146	-2.7542	-2.9562	-2.9354	-2.7979	-3.0604	-2.8146	-2.8312	-3.1	-2.8375	-2.9375	-10.275	-1.574	92.655	128.479	252.043	-66.145	253.013	120.480	74.910	134.678	229.270	229.393	258.495	-52.877	105.612	93.423	0.0001528	0.00031387	3.8001e-05	216.45	1.9027e-06	2.0195e-06	317.9	93.338	2.4749e-06	5.5903e-06	162.33	87.534	45.163	26.242	2.9876e-06	52.358	0.00045429	0.00045471	0.00012656	301.55	4.9362e-06	4.9532e-06	366.92	107.52	4.9794e-06	5.0557e-06	184.04	97.34	53.429	29.113	5.105e-06	56.702	177.700	10.920	21.580	-62.049	95.367	30.207	-62.821	-57.351	95.947	33.578	-59.107	-55.357	-54.879	-50.955	22.591	-52.640	-8191	255	
2447.214	1	1	0	0	0.12282	0.18332	0.066953	0.086082	0.14304	0.046828	0.21637	0.084648	0.087241	0.082596	0.065185	0.20178	0.11987	0.073748	0.083175	0.26652	-2.5604	-2.5625	-3.025	-2.8479	-2.8875	-3.0563	-2.8104	-3.0125	-2.9313	-2.7854	-3.0583	-2.8312	-2.8708	-3.1437	-2.9146	-3.1896	163.430	95.545	176.464	279.409	48.974	87.067	252.201	208.492	47.321	-34.640	-4.581	223.918	176.519	99.652	130.182	182.792	0.00019306	0.00044012	0.00012202	214.94	2.0612e-06	4.6281e-06	318.6	93.861	2.2899e-06	4.246e-06	162.61	87.487	45.387	26.392	1.086e-06	52.486	0.00045276	0.00045855	0.00012677	301.84	4.9428e-06	4.9361e-06	367.06	107.51	4.9442e-06	5.0154e-06	184.49	97.429	53.468	29.21	5.1134e-06	56.843	172.857	59.383	47.497	-61.700	87.850	44.341	-62.537	-57.730	245.487	141.254	-58.999	-55.390	-54.775	-51.225	54.884	-52.812	-8191	255	
2447.310	1	1	0	0	0.13729	0.20079	0.11339	0.22725	0.1379	0.056843	0.095503	0.13749	0.10064	0.1049	0.10891	0.15799	0.09467	0.10303	0.08404	0.090082	-2.6188	-2.5979	-3.0146	-2.9646	-2.7	-3.0458	-2.9708	-2.9042	-3.1312	-2.8458	-3.0438	-2.9708	-2.7687	-3.1521	-2.8292	-3.0563	220.536	76.543	11.562	244.860	89.596	190.448	133.878	283.013	1.594	261.450	198.863	-0.568	16.524	50.095	-15.260	42.771	0.00018755	0.00041841	2.9809e-05	216.8	2.2137e-06	2.1124e-06	319.05	93.648	2.9188e-06	1.7575e-06	163.05	87.088	44.967	26.408	2.2812e-06	52.488	0.00045837	0.00046451	0.00012877	304.8	5.0509e-06	5.1132e-06	368.45	107.69	5.015e-06	5.0758e-06	184.03	97.039	53.289	29.14	5.0097e-06	56.623	165.311	273.676	31.420	-61.750	147.779	-42.170	-62.701	-57.426	67.289	41.487	-59.068	-55.374	-54.565	-51.187	32.333	-52.959	-8191	255	
2447.405	1	1	0	0	0.29707	0.19225	0.15271	0.28083	0.10048	0.21176	0.15367	0.14869	0.14313	0.12893	0.029529	0.20199	0.13128	0.23896	0.17108	0.089325	-2.5729	-2.7938	-2.8396	-2.7604	-2.8812	-3.0604	-2.8729	-2.9292	-3.0396	-2.7125	-2.95	-2.9375	-2.8979	-2.9354	-2.85	-3.05	111.270	125.452	233.884	220.234	129.874	97.765	161.149	-24.826	-53.851	-73.209	60.914	241.558	87.262	-13.697	67.770	-46.145	0.00018476	0.0002262	0.00010562	217.25	2.2438e-06	3.6815e-06	317.38	93.783	2.9747e-06	4.721e-06	161.76	86.912	44.803	26.247	2.3342e-06	52.277	0.00045405	0.00045987	0.00012846	304.52	5.0592e-06	5.0927e-06	367.15	107.76	5.091e-06	5.1558e-06	183.56	96.896	53.263	29.06	5.1287e-06	56.487	160.406	41.103	25.529	-61.817	63.858	97.013	-63.025	-57.408	96.561	84.157	-59.067	-55.555	-54.398	-51.169	96.007	-53.000	-8191	255	
#DATA ENDS
