BOXY.EXE: ISS Imagent and Oximeter Data Acquisition Program Version 0.80
Ascii Record File

#ACQ INFORMATION
2  Detector Channels 
16  External MUX Channels 
1  Auxiliary Channels 
5000  Waveform (CCF) Frequency (Hz)
1  Waveforms Skipped 
30  Waveforms Averaged 
1  Cycles Averaged 
16  Acquisitions per Waveform 
10.0806  Updata Rate (Hz) 

#FILE INFORMATION
TRUE -- External MUX Channel results are PARSED.
FALSE -- AC DC and Phase are NOT grouped.
TRUE -- Companion Program Settings File CREATED.
FALSE -- AC data not excluded
FALSE -- DC data not excluded
FALSE -- Phase data not excluded
FALSE -- Auxillary Chn. data not excluded
Tab delimiters

#CALIBRATION STATE
TRUE -- Waveform Calibration Values APPLIED.


#AUX CALIBRATION VALUES
Val Type	aux-1	

Term	1.0000e+00	
Factor	0.0000e+00	


#WF CALIBRATION VALUES
A = Detector Channel
Val Type	A-AC1	A-AC2	A-AC3	A-AC4	A-AC5	A-AC6	A-AC7	A-AC8	A-AC9	A-AC10	A-AC11	A-AC12	A-AC13	A-AC14	A-AC15	A-AC16	A-DC1	A-DC2	A-DC3	A-DC4	A-DC5	A-DC6	A-DC7	A-DC8	A-DC9	A-DC10	A-DC11	A-DC12	A-DC13	A-DC14	A-DC15	A-DC16	A-Ph1	A-Ph2	A-Ph3	A-Ph4	A-Ph5	A-Ph6	A-Ph7	A-Ph8	A-Ph9	A-Ph10	A-Ph11	A-Ph12	A-Ph13	A-Ph14	A-Ph15	A-Ph16	

Term	0.00000e+00	0.00000e+00	0.00000e+00	0.00000e+00	0.00000e+00	0.00000e+00	0.00000e+00	0.00000e+00	0.00000e+00	0.00000e+00	0.00000e+00	0.00000e+00	0.00000e+00	0.00000e+00	0.00000e+00	0.00000e+00	0.00000e+00	0.00000e+00	0.00000e+00	0.00000e+00	0.00000e+00	0.00000e+00	0.00000e+00	0.00000e+00	0.00000e+00	0.00000e+00	0.00000e+00	0.00000e+00	0.00000e+00	0.00000e+00	0.00000e+00	0.00000e+00	0.00000e+00	0.00000e+00	0.00000e+00	0.00000e+00	0.00000e+00	0.00000e+00	0.00000e+00	0.00000e+00	0.00000e+00	0.00000e+00	0.00000e+00	0.00000e+00	0.00000e+00	0.00000e+00	0.00000e+00	0.00000e+00	
Factor	1.00000e+00	1.00000e+00	1.00000e+00	1.00000e+00	1.00000e+00	1.00000e+00	1.00000e+00	1.00000e+00	1.00000e+00	1.00000e+00	1.00000e+00	1.00000e+00	1.00000e+00	1.00000e+00	1.00000e+00	1.00000e+00	1.00000e+00	1.00000e+00	1.00000e+00	1.00000e+00	1.00000e+00	1.00000e+00	1.00000e+00	1.00000e+00	1.00000e+00	1.00000e+00	1.00000e+00	1.00000e+00	1.00000e+00	1.00000e+00	1.00000e+00	1.00000e+00	X	X	X	X	X	X	X	X	X	X	X	X	X	X	X	X	

B = Detector Channel
Val Type	B-AC1	B-AC2	B-AC3	B-AC4	B-AC5	B-AC6	B-AC7	B-AC8	B-AC9	B-AC10	B-AC11	B-AC12	B-AC13	B-AC14	B-AC15	B-AC16	B-DC1	B-DC2	B-DC3	B-DC4	B-DC5	B-DC6	B-DC7	B-DC8	B-DC9	B-DC10	B-DC11	B-DC12	B-DC13	B-DC14	B-DC15	B-DC16	B-Ph1	B-Ph2	B-Ph3	B-Ph4	B-Ph5	B-Ph6	B-Ph7	B-Ph8	B-Ph9	B-Ph10	B-Ph11	B-Ph12	B-Ph13	B-Ph14	B-Ph15	B-Ph16	

Term	0.00000e+00	0.00000e+00	0.00000e+00	0.00000e+00	0.00000e+00	0.00000e+00	0.00000e+00	0.00000e+00	0.00000e+00	0.00000e+00	0.00000e+00	0.00000e+00	0.00000e+00	0.00000e+00	0.00000e+00	0.00000e+00	0.00000e+00	0.00000e+00	0.00000e+00	0.00000e+00	0.00000e+00	0.00000e+00	0.00000e+00	0.00000e+00	0.00000e+00	0.00000e+00	0.00000e+00	0.00000e+00	0.00000e+00	0.00000e+00	0.00000e+00	0.00000e+00	-1.29269e+02	-1.13631e+02	-1.35870e+02	-1.84844e+02	-7.69806e+01	-6.34246e+01	-1.60653e+02	-1.62015e+02	-8.22226e+01	-6.09229e+01	-1.72187e+02	-1.71626e+02	-1.83109e+02	-1.76791e+02	-6.82363e+01	-1.50157e+02	
Factor	1.61315e-05	1.31639e-04	3.54998e-05	4.91269e-01	1.07434e-06	1.37095e-06	1.84658e-01	4.54119e-02	1.02773e-06	1.19378e-06	8.37172e-02	3.01029e-02	3.50082e-02	8.20948e-03	1.09933e-06	1.21748e-02	1.13921e-06	1.19064e-06	3.31616e-07	2.32299e-01	1.30170e-08	1.30308e-08	8.60883e-02	2.28097e-02	1.29813e-08	1.30694e-08	4.01028e-02	1.44691e-02	1.71056e-02	4.09484e-03	1.30663e-08	5.83849e-03	X	X	X	X	X	X	X	X	X	X	X	X	X	X	X	X	



#DISTANCE SETTINGS
A = Detector Channel
A-1	A-2	A-3	A-4	A-5	A-6	A-7	A-8	A-9	A-10	A-11	A-12	A-13	A-14	A-15	A-16	

2.5000e+00	3.0000e+00	2.5000e+00	3.0000e+00	2.0000e+00	3.0000e+00	1.5000e+00	3.0000e+00	3.0000e+00	3.0000e+00	3.0000e+00	3.0000e+00	3.0000e+00	3.0000e+00	1.5000e+00	3.0000e+00	

B = Detector Channel
B-1	B-2	B-3	B-4	B-5	B-6	B-7	B-8	B-9	B-10	B-11	B-12	B-13	B-14	B-15	B-16	

1.0000e+01	1.0000e+01	1.0000e+01	1.4400e+00	1.0000e+01	1.0000e+01	1.5100e+00	1.9400e+00	1.0000e+01	1.0000e+01	1.9900e+00	2.4900e+00	2.4100e+00	2.9000e+00	1.0000e+01	2.9800e+00	




#DATA BEGINS
time	group	step	mark	flag	A-AC1	A-AC2	A-AC3	A-AC4	A-AC5	A-AC6	A-AC7	A-AC8	A-AC9	A-AC10	A-AC11	A-AC12	A-AC13	A-AC14	A-AC15	A-AC16	A-DC1	A-DC2	A-DC3	A-DC4	A-DC5	A-DC6	A-DC7	A-DC8	A-DC9	A-DC10	A-DC11	A-DC12	A-DC13	A-DC14	A-DC15	A-DC16	A-Ph1	A-Ph2	A-Ph3	A-Ph4	A-Ph5	A-Ph6	A-Ph7	A-Ph8	A-Ph9	A-Ph10	A-Ph11	A-Ph12	A-Ph13	A-Ph14	A-Ph15	A-Ph16	B-AC1	B-AC2	B-AC3	B-AC4	B-AC5	B-AC6	B-AC7	B-AC8	B-AC9	B-AC10	B-AC11	B-AC12	B-AC13	B-AC14	B-AC15	B-AC16	B-DC1	B-DC2	B-DC3	B-DC4	B-DC5	B-DC6	B-DC7	B-DC8	B-DC9	B-DC10	B-DC11	B-DC12	B-DC13	B-DC14	B-DC15	B-DC16	B-Ph1	B-Ph2	B-Ph3	B-Ph4	B-Ph5	B-Ph6	B-Ph7	B-Ph8	B-Ph9	B-Ph10	B-Ph11	B-Ph12	B-Ph13	B-Ph14	B-Ph15	B-Ph16	aux-1	digaux	

2351.553	1	1	0	768	0.1686	0.13892	0.31106	0.038337	0.19319	0.15365	0.14173	0.30152	0.13768	0.012414	0.30559	0.086295	0.061218	0.053128	0.26617	0.075736	-2.2062	-3.1646	-2.8187	-2.7833	-3.0646	-2.7542	-2.9896	-3.0687	-2.9604	-2.8083	-2.8	-2.9375	-3.0729	-3.0729	-2.9604	-3.075	2.666	-128.572	168.114	87.261	16.533	94.209	74.726	44.488	135.259	-16.959	201.075	63.142	198.254	136.047	-91.254	0.207	0.00044075	0.00045055	0.0001843	257.47	4.8802e-06	5.097e-06	401.24	105.11	3.6382e-06	2.6268e-06	196.81	105.8	55.372	32.485	1.2539e-06	63.268	0.0005751	0.00057315	0.00015948	368.56	6.2943e-06	6.316e-06	462.66	122.16	6.3382e-06	6.3368e-06	224.7	117.8	65.564	36.039	6.2397e-06	68.945	190.869	9.038	-31.631	-122.494	-37.928	-15.929	-123.703	-118.798	-60.201	-122.806	-120.133	-117.220	-117.045	-112.518	64.635	-113.951	-8191	255	
2351.649	1	1	0	0	0.23205	0.19633	0.21622	0.27565	0.21845	0.17066	0.11714	0.1395	0.053965	0.24634	0.024701	0.12707	0.20831	0.12712	0.12627	0.26766	-2.1958	-2.8958	-2.8229	-2.4875	-2.9958	-2.9271	-2.7417	-2.9562	-2.7396	-2.8708	-2.9417	-2.725	-2.9917	-2.7458	-2.7771	-3.1771	160.077	99.359	137.822	117.161	114.926	-60.429	-97.876	-28.929	109.450	44.864	-15.201	23.333	40.851	196.952	-66.536	161.349	0.00043589	0.00049016	0.00011744	259.13	5.1051e-06	3.0195e-06	398.94	104.91	3.5256e-06	6.9947e-07	198.2	106.03	55.46	32.528	1.6663e-06	63.493	0.00057041	0.00056032	0.00015671	365.47	6.1007e-06	6.0272e-06	460.19	121.52	6.0217e-06	6.0259e-06	224.32	117.65	65.373	36.012	5.9788e-06	69.023	191.886	-58.821	-79.379	-122.914	-16.165	0.799	-123.781	-118.633	-37.035	28.095	-120.259	-116.652	-117.318	-112.586	-41.100	-113.824	-8191	255	
2351.746	1	1	0	0	0.069456	0.039513	0.034861	0.25219	0.072805	0.064003	0.19554	0.28212	0.12911	0.14243	0.43836	0.032156	0.092017	0.31102	0.19748	0.28835	-2.4458	-2.7854	-3	-2.6792	-3.0479	-2.9375	-2.7208	-3.0438	-2.6854	-2.8979	-3.0187	-2.7521	-3.0125	-3.0396	-2.7062	-3.1854	188.259	4.693	-86.133	-133.052	198.008	-129.109	16.155	213.287	186.013	-8.465	121.299	20.879	-75.196	-118.005	-32.150	195.089	0.00045752	0.00027164	0.00015209	259.03	3.15e-06	3.3858e-06	399.76	106.13	4.7711e-06	4.4079e-06	198.37	105.44	55.577	32.648	2.4794e-06	63.533	0.00054789	0.00054111	0.00015125	362.29	5.9581e-06	5.8965e-06	460.37	122.13	5.9701e-06	5.9461e-06	224.18	117.47	65.271	36.091	5.9736e-06	68.957	196.892	-119.465	-75.232	-122.378	13.097	-4.973	-123.561	-118.790	-40.777	63.990	-120.179	-116.987	-116.785	-112.739	-50.485	-113.865	-8191	255	
2351.842	1	1	0	0	0.21082	0.088135	0.1317	0.1266	0.28244	0.1988	0.11321	0.25575	0.18959	0.16945	0.19558	0.33637	0.22903	0.049067	0.024351	0.11823	-2.1729	-2.7438	-3.0354	-2.6292	-2.8021	-3.0187	-2.7062	-2.8854	-2.7979	-2.8271	-3	-2.9021	-2.9813	-3.0833	-2.7667	-3.0417	46.632	116.279	203.598	-131.650	127.715	-20.119	84.351	38.966	217.654	177.545	156.612	136.945	212.879	160.787	125.837	-133.781	0.00046249	0.00025949	0.0001335	260.27	1.0016e-06	1.9814e-06	398.3	105.75	2.5785e-06	1.3747e-06	198.91	105.75	55.69	32.741	8.8392e-07	63.569	0.00054169	0.00054119	0.00015126	362.5	5.9436e-06	5.9432e-06	459.72	121.81	5.8895e-06	5.9317e-06	224.61	117.68	65.318	36.137	5.95e-06	69.146	196.375	-16.770	171.465	-123.170	-90.393	2.906	-123.801	-118.836	-92.432	-26.889	-120.070	-116.956	-117.093	-112.713	0.707	-113.913	-8191	255	
2351.936	1	1	0	0	0.12695	0.16911	0.075007	0.18889	0.16473	0.11714	0.031978	0.19544	0.14132	0.10098	0.048209	0.3566	0.31479	0.14038	0.24097	0.17761	-2.4042	-2.8354	-3.0958	-2.7958	-2.9292	-2.9562	-2.6562	-3.0396	-3.0583	-2.8208	-3.0583	-2.75	-2.9875	-3.1562	-2.7062	-3.0375	-66.427	56.471	83.418	-9.203	65.220	180.956	40.711	42.165	95.357	92.948	25.926	148.409	-47.624	162.167	168.513	190.489	0.00040234	0.00070493	7.7571e-05	257.16	3.9609e-06	2.5331e-06	398.05	105.5	4.7775e-06	2.2569e-06	198.01	105.77	55.581	32.627	5.5553e-06	63.957	0.00054039	0.00054012	0.00015064	362.67	5.9261e-06	5.9193e-06	460.37	122.03	5.9514e-06	5.9654e-06	224.86	117.75	65.24	36.176	5.9889e-06	69.32	200.984	0.417	-33.754	-122.886	-30.237	3.120	-123.852	-118.741	-6.373	83.907	-119.809	-116.989	-116.888	-112.478	-0.909	-113.844	-8191	255	
2352.034	1	1	0	0	0.22288	0.065509	0.045356	0.12931	0.11436	0.1161	0.14189	0.22504	0.031712	0.25667	0.10121	0.16402	0.065412	0.13242	0.20763	0.26823	-2.3792	-2.7708	-2.9458	-2.6479	-2.7687	-3.05	-2.7167	-2.9375	-2.7208	-2.6375	-2.9479	-2.6354	-2.7771	-3.1042	-2.8438	-3.1167	186.695	62.176	-51.820	-25.248	-125.660	97.705	-130.669	177.807	12.434	108.490	177.677	91.578	29.067	-36.658	45.931	111.972	0.00043614	0.00042533	0.00012543	258.82	4.3007e-06	2.6226e-06	399.23	105.52	4.2678e-06	3.9247e-06	198.61	106.06	55.859	32.845	7.1395e-07	63.831	0.00054274	0.00054044	0.00014971	361.49	5.8575e-06	5.8353e-06	460.3	121.98	5.7922e-06	5.862e-06	224.55	117.71	65.174	36.211	5.8592e-06	69.433	195.436	-99.980	21.069	-122.691	-8.668	76.215	-123.653	-119.041	-24.901	13.379	-120.011	-116.927	-117.145	-112.673	56.761	-113.844	-8191	255	
2352.153	1	1	0	0	0.1107	0.04227	0.33291	0.0632	0.109	0.09894	0.12198	0.154	0.11355	0.060569	0.34218	0.085602	0.12708	0.43522	0.27378	0.060048	-2.3667	-2.625	-2.9062	-2.6562	-2.6625	-3.0208	-2.6937	-2.9458	-3.0708	-2.5917	-3.0396	-2.9354	-2.8208	-2.9458	-2.7438	-3.0438	-4.480	-96.393	71.920	147.152	-115.944	-61.742	-18.158	149.404	-129.081	155.959	192.578	165.091	100.517	215.605	-122.093	-126.604	0.000414	0.00023849	0.00013249	260.43	4.1131e-06	5.415e-06	400.14	105.84	2.9016e-06	1.6838e-06	199.07	105.74	55.613	32.747	4.6736e-06	63.873	0.00053402	0.00053397	0.00014968	361.76	5.8511e-06	5.8664e-06	460.93	121.95	5.8135e-06	5.8921e-06	225.19	117.52	65.234	36.145	5.9129e-06	69.278	194.489	144.868	-20.099	-123.707	0.539	-11.693	-124.032	-118.807	19.239	-18.681	-120.019	-116.993	-116.986	-112.431	25.324	-113.944	-8191	255	
2352.249	1	1	0	0	0.075127	0.20479	0.17801	0.23355	0.15504	0.047625	0.10436	0.19576	0.15231	0.21022	0.068588	0.30374	0.25422	0.11704	0.11373	0.18823	-2.4646	-2.6875	-2.9208	-2.7792	-2.7292	-3.1333	-2.8646	-2.7583	-3.1104	-2.8854	-3.0604	-2.8896	-2.8896	-3.2333	-2.5958	-3.1542	-0.989	-114.270	51.664	-69.664	115.204	131.540	94.845	177.540	176.473	112.149	153.598	-111.520	-91.466	-71.609	38.206	95.857	0.00043701	0.00045867	5.6384e-06	257.32	3.4372e-06	1.2114e-06	398.57	105.53	3.1325e-06	2.2209e-06	197.07	106.07	55.782	32.704	2.5452e-06	63.899	0.0005364	0.0005361	0.00014888	360.8	5.8009e-06	5.8453e-06	457.65	121.47	5.7701e-06	5.7705e-06	223.75	117.36	64.991	36.03	5.7683e-06	69.179	194.237	-44.296	-69.288	-123.466	10.334	-39.528	-123.643	-118.727	-21.644	135.534	-120.191	-116.973	-117.168	-112.881	71.817	-113.877	-8191	255	
2352.345	1	1	0	0	0.17599	0.33753	0.058992	0.26205	0.22731	0.19853	0.23644	0.061406	0.17633	0.30246	0.12113	0.13624	0.42222	0.12556	0.067295	0.26339	-2.7021	-2.7208	-2.8187	-2.9	-2.7604	-3.0729	-2.7438	-2.9292	-3.2146	-2.675	-3.0521	-3.0104	-2.6729	-3.0896	-2.8333	-2.9938	154.847	49.172	146.096	-90.377	30.072	103.622	129.481	82.253	69.632	95.489	203.437	157.943	4.716	210.429	22.659	70.925	0.00046892	0.00028017	4.5884e-05	258.47	1.2242e-06	8.5764e-06	397.3	105.28	1.1426e-06	2.4647e-06	199.36	105.52	56.149	32.806	4.2064e-06	63.814	0.00052401	0.00052377	0.00014558	358.55	5.7784e-06	5.7719e-06	458.27	121.8	5.7742e-06	5.8036e-06	224.51	117.3	65.116	36.14	5.6972e-06	69.333	196.669	-11.961	106.690	-122.944	12.696	20.876	-123.808	-118.585	-19.321	-14.467	-120.039	-117.003	-117.224	-112.594	-22.754	-113.851	-8191	255	
2352.441	1	1	0	0	0.24115	0.12042	0.10939	0.16592	0.22313	0.10449	0.16985	0.15909	0.20637	0.18025	0.11041	0.10702	0.12109	0.29921	0.13845	0.29636	-2.5333	-2.7042	-2.8083	-2.8708	-2.6813	-3.0458	-2.775	-2.7562	-2.9458	-2.7521	-2.9917	-2.8875	-2.775	-2.8625	-2.7354	-2.8354	145.257	61.319	52.535	163.295	97.486	-18.490	-34.574	-107.117	156.139	-22.124	207.798	-131.848	76.658	-87.401	-5.012	-122.962	0.00047828	0.00067956	5.2424e-05	261.9	4.1999e-06	5.6164e-06	398.32	105.16	3.4094e-06	1.7633e-06	198.44	105.85	55.48	32.704	1.8934e-06	64.222	0.0005209	0.00051629	0.00014374	358.74	5.6842e-06	5.7176e-06	457.79	121.5	5.7301e-06	5.7789e-06	224.25	117.48	64.957	36.094	5.7094e-06	69.408	198.956	-82.850	-49.814	-123.030	-67.165	-17.895	-123.884	-118.962	-90.274	69.241	-120.019	-116.908	-117.221	-112.535	27.920	-113.909	-8191	255	
2352.538	1	1	0	0	0.17034	0.1307	0.18208	0.14278	0.13112	0.017546	0.18853	0.16193	0.036329	0.17657	0.091617	0.27477	0.066088	0.23055	0.0070921	0.46556	-2.6896	-2.6771	-2.9188	-3.0104	-2.6917	-3.0458	-2.9167	-2.7854	-2.9688	-2.7021	-2.8708	-3.0042	-2.7062	-2.9458	-3.0062	-3.0229	98.681	-106.499	-32.316	-45.142	-0.928	-75.488	52.444	109.845	-90.425	69.937	-132.028	39.459	-64.866	-14.145	-36.371	77.207	0.00047352	0.00021121	7.7247e-05	258.07	5.7248e-06	4.029e-06	398.88	105.27	2.0212e-06	5.8559e-06	198.6	106.15	55.566	32.778	3.0475e-06	63.988	0.00052635	0.00052019	0.00014408	357.83	5.6618e-06	5.6734e-06	458.01	121.54	5.6987e-06	5.7221e-06	224.51	117.7	65.063	36.186	5.8314e-06	69.448	198.943	-48.503	-30.032	-122.602	28.228	-5.285	-123.544	-118.821	-80.172	1.833	-120.095	-116.996	-117.280	-112.376	48.398	-113.955	-8191	255	
2352.634	1	1	0	0	0.042976	0.11532	0.25233	0.11835	0.061407	0.13229	0.096699	0.17545	0.17666	0.19325	0.01544	0.095935	0.19579	0.17739	0.18622	0.20859	-2.6979	-2.7458	-2.6979	-3.0354	-2.7021	-3.1	-2.9521	-2.7438	-3.0396	-2.6875	-2.9437	-3.0542	-2.575	-3.0083	-3.0792	-2.9125	71.324	170.015	-112.690	-35.885	-67.117	-35.751	-93.887	28.234	-106.395	39.604	210.388	196.727	172.065	133.997	82.520	180.639	0.00046522	0.00071619	0.00014148	261.32	3.4627e-06	9.9407e-07	398.71	105.7	1.2698e-06	7.6516e-06	197.82	105.8	55.857	32.859	8.884e-07	64.126	0.00053624	0.00052921	0.00014671	360.05	5.6969e-06	5.724e-06	457.85	121.66	5.6725e-06	5.6644e-06	224.16	117.57	65.062	36.217	5.6636e-06	69.476	199.623	-28.855	-53.346	-123.223	-66.661	40.363	-123.826	-118.983	155.209	24.699	-119.873	-116.950	-116.994	-112.466	82.082	-113.953	-8191	255	
2352.730	1	1	0	0	0.29297	0.058849	0.16073	0.21728	0.087669	0.19885	0.078857	0.10465	0.18298	0.26615	0.15522	0.21246	0.45097	0.1096	0.31752	0.080766	-2.6625	-2.7458	-2.6271	-3.025	-2.625	-2.8667	-2.975	-2.8458	-3.075	-2.8271	-2.8792	-3.175	-2.8021	-3.0896	-2.9667	-2.8312	101.897	85.025	48.091	36.695	-113.487	78.607	85.631	125.812	75.586	-48.336	-80.833	119.954	202.705	-98.069	-74.009	103.353	0.0004788	0.00037608	0.00016143	257.75	2.9301e-06	4.0467e-06	398.61	105.73	3.4021e-06	3.234e-06	197.62	105.75	55.978	32.791	2.7957e-06	64.057	0.00052008	0.00051148	0.00014258	356.71	5.5668e-06	5.5905e-06	455.9	121.47	5.5048e-06	5.5007e-06	222.96	117.12	64.783	36.093	5.5178e-06	69.322	198.581	-72.823	-85.506	-122.465	-0.194	61.625	-123.948	-118.580	-34.434	-22.158	-120.168	-116.811	-116.727	-112.464	-36.115	-113.999	-8191	255	
2352.849	1	1	0	0	0.21998	0.09057	0.14321	0.27892	0.21857	0.28443	0.087159	0.15252	0.16268	0.16207	0.1544	0.27011	0.19119	0.3098	0.17425	0.37194	-2.5646	-2.8458	-2.7167	-3.2313	-2.6896	-2.7604	-3.0104	-2.7729	-2.9292	-3.0521	-2.7667	-3.0771	-2.8042	-2.9417	-3.1625	-2.8083	117.025	164.144	77.150	201.080	-134.455	-52.167	143.806	173.763	181.843	29.837	2.508	-72.032	-11.261	-114.060	115.721	89.549	0.00046759	0.00042328	0.0001503	257.21	4.5648e-06	9.4785e-07	396.78	105.49	1.769e-06	3.1273e-06	198.83	105.89	55.531	32.867	2.654e-06	64.269	0.00051157	0.00050368	0.00013988	354.08	5.4722e-06	5.4542e-06	454.61	121.12	5.4275e-06	5.4242e-06	223.3	117.18	64.355	36.046	5.4156e-06	69.34	194.982	-71.937	-83.583	-123.725	-27.085	115.890	-123.666	-118.567	-37.502	7.444	-120.056	-116.940	-116.650	-112.589	-9.455	-113.911	-8191	255	
2352.945	1	1	0	0	0.17228	0.40492	0.1301	0.32741	0.14666	0.19422	0.14965	0.038686	0.10115	0.087826	0.11946	0.28792	0.076328	0.09236	0.067153	0.17737	-2.5354	-2.6646	-2.5375	-2.9875	-2.8708	-2.8833	-3.1458	-2.8479	-2.7938	-3.0938	-2.7438	-3.2521	-2.75	-2.9604	-3.1854	-3.0021	-65.873	-14.402	145.498	-11.166	-66.498	95.273	115.570	158.724	-88.035	100.137	-86.896	168.383	183.774	-81.804	37.224	149.541	0.00044087	0.00050657	0.00013095	256.36	2.2553e-06	2.036e-06	397.3	105.2	4.0947e-06	2.3407e-06	197.94	105.95	55.534	32.685	1.84e-06	64.063	0.00049837	0.00049102	0.00013776	352.6	5.4107e-06	5.4644e-06	453.42	120.93	5.3939e-06	5.4731e-06	223.26	117.54	64.648	36.029	5.5411e-06	69.347	193.504	23.284	-78.217	-122.995	144.282	50.900	-123.594	-118.805	-27.263	-27.564	-120.283	-117.201	-117.187	-112.467	171.209	-113.889	-8191	255	
2353.041	1	1	0	0	0.12267	0.15409	0.067434	0.092786	0.026293	0.055789	0.065345	0.10899	0.11591	0.1505	0.29979	0.33145	0.19717	0.14119	0.078763	0.34549	-2.5812	-2.8104	-2.6312	-3.0104	-2.8937	-2.6771	-3.1271	-2.7771	-2.9229	-3.0438	-2.7687	-3.0583	-2.7333	-2.7375	-3.0146	-2.8083	154.247	55.801	-0.382	90.665	194.722	152.286	64.155	95.387	-49.636	-134.613	135.334	186.916	129.791	46.223	-100.939	153.483	0.00043814	0.00019753	0.00012803	257.01	4.0279e-06	3.592e-06	395.5	104.54	4.3691e-06	3.439e-06	198.22	106.08	55.582	32.754	8.4433e-07	63.822	0.00050364	0.00050572	0.00014313	353.98	5.4593e-06	5.4591e-06	453.44	120.51	5.4048e-06	5.4915e-06	223.14	117.15	64.457	35.946	5.4231e-06	69.096	198.410	51.394	5.923	-122.785	51.411	24.039	-123.826	-119.128	25.355	79.719	-120.115	-116.911	-117.023	-112.649	-57.847	-113.936	-8191	255	
2353.114	1	1	0	0	0.088267	0.15183	0.26202	0.1734	0.24497	0.064254	0.027985	0.28908	0.097359	0.058597	0.090148	0.1736	0.15443	0.29151	0.10271	0.33384	-2.4313	-3.0417	-2.7458	-3.0042	-2.9521	-2.6979	-3.2354	-2.8521	-2.7979	-2.9021	-2.8812	-2.8396	-2.9792	-2.6292	-3.0604	-2.8563	69.822	-72.478	220.349	17.707	122.445	-49.898	191.154	43.667	177.936	29.894	152.184	-103.187	161.856	185.383	208.629	131.493	0.00046428	0.00050096	0.00012844	258.18	3.7697e-06	4.9801e-06	396.64	104.5	3.0289e-06	2.2803e-06	197.61	105.68	55.275	32.555	4.0947e-07	63.415	0.00049644	0.00048918	0.00013713	351.56	5.4136e-06	5.4402e-06	453.48	120.52	5.4563e-06	5.5105e-06	222.7	116.93	64.54	35.926	5.7626e-06	68.884	194.115	-34.898	0.161	-122.902	-53.760	40.897	-123.757	-118.673	-39.221	-72.768	-120.095	-116.670	-116.839	-112.592	-47.214	-114.045	-8191	255	
2353.233	1	1	0	0	0.2597	0.12554	0.14055	0.31296	0.070893	0.12507	0.080776	0.13559	0.29031	0.20734	0.079865	0.22194	0.22217	0.2403	0.089674	0.25862	-2.3146	-2.9979	-2.65	-3.0146	-2.7	-2.7146	-3.0187	-2.8083	-2.8021	-3.2125	-2.8479	-3.1854	-3.0042	-2.7229	-3.1333	-2.9208	99.357	87.123	143.306	-135.149	22.422	4.521	-2.312	109.653	-87.945	-71.537	16.298	161.623	169.643	-87.341	72.614	175.502	0.00045807	0.00030845	0.00014838	255.1	5.5107e-06	3.1506e-06	396.94	105.24	3.659e-06	2.6784e-07	196.77	105.64	55.258	32.56	4.529e-06	63.456	0.00052225	0.0005218	0.00014589	355.88	5.6998e-06	5.6953e-06	454.58	121.04	5.6506e-06	5.7088e-06	222.82	117.19	64.606	35.853	5.7562e-06	68.813	196.761	-8.541	-54.609	-122.979	-66.327	25.455	-123.532	-118.558	-52.581	134.166	-120.187	-116.885	-116.954	-112.832	-20.442	-113.966	-8191	255	
2353.329	1	1	0	0	0.16733	0.072097	0.3191	0.080753	0.28195	0.076803	0.26033	0.24077	0.169	0.13041	0.07033	0.11355	0.2749	0.23519	0.055698	0.055579	-2.2062	-2.9354	-2.5417	-2.9083	-2.8875	-2.8208	-3.0604	-2.9062	-2.7708	-2.9667	-2.9562	-2.925	-2.9292	-2.7542	-2.9958	-3.0125	181.441	-107.042	1.340	-62.488	71.705	92.863	163.611	115.874	70.011	65.329	173.603	-134.152	-89.196	114.535	118.650	205.179	0.00043609	0.00064527	0.00012002	257.61	4.9464e-06	3.6138e-06	395.24	104.53	3.4335e-06	3.3959e-06	197.54	105.89	55.291	32.528	3.6685e-06	63.549	0.00052409	0.00052296	0.00014538	357.63	5.7272e-06	5.7724e-06	453.78	120.51	5.7159e-06	5.7687e-06	223.02	117.18	64.561	35.811	5.6575e-06	68.81	194.878	-13.380	-71.026	-122.466	-49.832	-10.969	-123.887	-118.900	-74.501	34.880	-120.255	-117.247	-116.993	-112.705	-25.579	-113.986	-8191	255	
2353.426	1	1	0	0	0.031715	0.055894	0.22889	0.055626	0.056094	0.18162	0.12263	0.22983	0.087819	0.18046	0.097364	0.011021	0.14204	0.13535	0.043718	0.29273	-2.3292	-2.9458	-2.6458	-2.8438	-3.2583	-2.8417	-3.0229	-2.9479	-2.6396	-3.0458	-2.7583	-2.8	-3.1063	-2.6583	-3.025	-2.7833	104.690	190.696	64.947	-98.415	152.674	11.165	30.078	-125.193	59.481	174.337	91.320	-104.884	94.616	212.905	214.836	178.707	0.00046878	0.00055771	0.00019973	254.28	2.5965e-06	4.2879e-06	395.58	104.34	3.9384e-06	3.0072e-06	197.08	105.87	55.204	32.429	1.9466e-06	63.557	0.00052043	0.00052165	0.00014605	356.6	5.8125e-06	5.8449e-06	455.12	120.48	5.7869e-06	5.7756e-06	222.94	117.25	64.331	35.748	5.55e-06	68.855	194.695	-17.595	-65.128	-123.425	-4.490	-24.350	-123.697	-118.888	-16.509	-11.071	-119.987	-116.830	-116.816	-112.711	-29.794	-113.869	-8191	255	
2353.522	1	1	0	0	0.22577	0.15524	0.067401	0.26349	0.17925	0.14337	0.26057	0.099828	0.15179	0.11432	0.036177	0.23696	0.060194	0.28049	0.084193	0.14602	-2.3479	-2.8292	-2.7	-2.7833	-3.05	-2.7042	-2.9542	-2.9333	-2.6167	-2.9583	-2.8812	-2.7333	-2.9375	-2.7208	-2.8083	-3.0979	-99.713	-9.586	-132.073	-60.921	87.470	-88.647	152.275	-6.914	-23.195	143.772	186.175	200.144	62.825	151.886	141.193	188.504	0.00043422	0.00058376	0.00013598	257	1.526e-06	7.7189e-06	396.66	104.98	2.3043e-06	4.8742e-06	197.09	105.57	55.565	32.525	3.6282e-06	63.478	0.00050417	0.00050081	0.0001388	351.77	5.5086e-06	5.5304e-06	453.55	120.15	5.488e-06	5.4558e-06	222.37	116.7	64.245	35.728	5.4044e-06	68.817	201.128	-35.128	-87.740	-122.707	51.569	-47.376	-123.826	-118.859	172.908	30.261	-119.959	-116.894	-116.572	-112.672	48.018	-114.017	-8191	255	
2353.642	1	1	0	0	0.09767	0.21301	0.13496	0.23508	0.2769	0.14295	0.048772	0.095158	0.080806	0.25126	0.047491	0.18102	0.10467	0.30722	0.052472	0.031948	-2.2729	-2.9313	-2.6813	-2.6333	-3.1292	-2.7729	-2.7667	-2.8375	-2.7938	-2.9062	-2.825	-2.7938	-3.0146	-2.9354	-2.6667	-3.0042	-39.252	193.131	134.761	97.184	146.981	34.680	71.066	-68.832	179.965	27.985	206.587	174.535	217.145	201.778	-59.030	-81.411	0.0004752	0.00027969	6.9815e-05	256.99	1.6257e-06	3.1839e-06	397.75	104.15	1.587e-06	3.884e-06	197.69	105.06	55.126	32.477	3.7343e-06	63.707	0.00049387	0.00049058	0.00013491	349.16	5.2968e-06	5.2353e-06	451.44	119.25	5.1621e-06	5.1255e-06	220.95	115.86	63.509	35.607	5.0659e-06	68.762	197.302	-48.205	63.277	-122.554	-42.165	28.924	-123.904	-118.774	47.273	32.905	-120.523	-116.751	-117.425	-112.696	-1.877	-113.805	-8191	255	
2353.714	1	1	0	0	0.23982	0.11988	0.17823	0.11031	0.21668	0.027126	0.11957	0.042378	0.086394	0.13531	0.21081	0.1626	0.20674	0.0607	0.10278	0.037708	-2.3208	-2.8896	-2.8146	-2.6021	-2.9167	-2.9542	-2.825	-3.0146	-2.7271	-2.7958	-2.9854	-2.6875	-3.0229	-2.9542	-2.5	-3.2542	211.520	43.070	36.348	141.820	150.533	69.292	15.950	-39.411	220.862	164.607	-107.598	-65.698	201.676	108.483	170.963	6.680	0.00045069	0.00041163	0.00012981	256.1	2.8746e-06	7.4535e-06	395.85	104.29	3.1686e-06	3.7701e-06	196.67	105.03	55.16	32.437	5.7423e-06	63.74	0.00046803	0.00046417	0.00012899	345.52	5.1073e-06	5.1396e-06	450.36	119.29	5.204e-06	5.2687e-06	221.44	116.32	63.86	35.658	5.4038e-06	68.89	196.612	-38.867	-71.427	-122.841	4.207	-12.875	-123.697	-118.699	17.883	42.441	-120.100	-117.037	-117.088	-112.542	-46.975	-113.847	-8191	255	
2353.835	1	1	0	0	0.12091	0.30242	0.22148	0.068305	0.25404	0.072835	0.18283	0.29839	0.18273	0.082023	0.13214	0.34236	0.20656	0.20641	0.117	0.023409	-2.2562	-2.8875	-2.925	-2.6708	-2.8812	-2.8208	-2.6417	-3.0958	-2.6646	-2.7562	-2.9875	-2.6958	-2.95	-2.9062	-2.6396	-2.9417	173.297	-18.564	118.125	-82.976	90.835	70.056	-53.505	183.942	170.290	19.796	192.536	-131.561	156.944	203.772	189.796	-9.667	0.00043938	0.00022998	1.4189e-05	255.91	2.6958e-06	6.706e-06	396.93	104.36	2.7631e-06	2.8881e-06	196.97	105.02	54.804	32.28	1.5242e-06	63.554	0.00049743	0.00049097	0.00013628	349.51	5.3778e-06	5.3698e-06	452.6	119.62	5.4148e-06	5.4245e-06	221.59	116.6	63.862	35.569	5.502e-06	68.775	203.948	-60.399	201.718	-122.491	10.869	-35.383	-123.611	-118.751	2.231	-17.837	-119.971	-116.802	-117.154	-112.451	61.938	-114.047	-8191	255	
2353.929	1	1	0	0	0.13446	0.17454	0.04163	0.15985	0.079076	0.2761	0.073778	0.12403	0.16145	0.1866	0.049841	0.13656	0.3497	0.22534	0.078924	0.074806	-2.3271	-2.7542	-2.9562	-2.7646	-2.9917	-2.9188	-2.6625	-2.9396	-2.7729	-2.6708	-3.2146	-2.7687	-3.0417	-3.1021	-2.6875	-2.9833	41.928	-87.461	152.662	-88.395	-15.351	140.029	177.247	197.297	-18.528	213.469	120.381	-95.693	192.150	-116.712	186.780	-121.953	0.00042332	0.00034357	9.8228e-05	253.57	2.1906e-06	4.5112e-06	396.36	104.05	2.4755e-06	5.0279e-06	196.94	105.13	54.593	32.158	3.3923e-06	63.355	0.00049885	0.00049289	0.00013764	349.21	5.3558e-06	5.3433e-06	452.62	119.34	5.3594e-06	5.3681e-06	221.02	116.29	63.453	35.477	5.4306e-06	68.586	197.027	-36.862	18.486	-122.858	-72.546	14.951	-123.686	-119.122	-59.496	-113.898	-120.212	-116.884	-117.101	-112.485	-29.081	-113.904	-8191	255	
2354.025	1	1	0	0	0.28106	0.17897	0.16271	0.13651	0.35505	0.30759	0.17754	0.12098	0.024245	0.39379	0.094002	0.29495	0.19414	0.24474	0.12897	0.13451	-2.3771	-2.5875	-3.0521	-2.6667	-2.8125	-2.7604	-2.6271	-2.9062	-2.6229	-2.9042	-2.95	-2.9104	-2.8354	-3.1063	-2.5292	-3.0062	176.400	-81.506	57.645	41.658	22.532	11.426	24.991	16.314	173.707	-16.595	58.271	200.936	162.870	-55.109	102.832	13.727	0.0004338	0.00028101	0.00012151	256.91	2.6859e-06	3.16e-06	395.68	103.89	2.9944e-06	1.4827e-06	195.9	104.49	54.619	31.993	2.3511e-06	63.122	0.00049711	0.00049351	0.00013829	352.19	5.4526e-06	5.4944e-06	453.38	119.55	5.473e-06	5.5528e-06	221.33	115.86	63.697	35.316	5.599e-06	68.353	195.121	-75.201	0.089	-122.601	1.360	-2.259	-123.856	-118.789	-91.856	-25.210	-119.912	-116.939	-116.871	-112.653	-33.592	-114.083	-8191	255	
2354.123	1	1	0	0	0.062735	0.13134	0.046351	0.19503	0.1105	0.13522	0.12728	0.15038	0.15321	0.15045	0.12219	0.1287	0.076466	0.21434	0.11818	0.25486	-2.3396	-2.8396	-2.9375	-2.6625	-2.9042	-2.8771	-2.4021	-2.8708	-2.8833	-2.6917	-3.0833	-2.8771	-2.8354	-3.15	-2.7104	-3.0187	-51.393	87.371	-1.257	191.328	78.629	19.697	-107.455	-103.021	-113.348	-76.185	198.033	21.379	-129.517	133.183	132.463	175.521	0.0004639	0.00046481	0.00011836	256.13	2.5005e-06	3.4559e-06	396.49	103.31	4.5091e-06	3.1623e-06	196.44	104.61	54.482	32.011	3.1584e-06	63.042	0.00050557	0.00050066	0.00014	349.84	5.5196e-06	5.5267e-06	452.64	118.88	5.5307e-06	5.5776e-06	221.56	115.99	63.721	35.38	5.646e-06	68.309	204.657	-22.883	-54.308	-123.150	-33.621	-45.391	-123.681	-118.971	-2.872	22.548	-120.180	-117.034	-117.194	-112.536	30.323	-113.999	-8191	255	
2354.242	1	1	0	0	0.10142	0.22038	0.11518	0.024068	0.3143	0.11121	0.11791	0.19508	0.1239	0.20932	0.11338	0.17069	0.057373	0.16885	0.18245	0.22611	-2.4208	-2.7062	-2.9042	-2.5917	-2.7313	-3.0479	-2.5	-2.925	-2.7646	-2.6417	-2.8792	-2.8292	-2.8167	-3.1271	-2.7521	-2.9792	217.665	-21.661	138.463	166.311	-38.821	211.722	3.217	133.202	55.300	37.712	-95.157	25.824	102.859	197.515	123.497	124.184	0.00043	0.00022882	9.3824e-05	259.27	3.0555e-06	7.5791e-06	394.48	103.87	2.3997e-06	2.1472e-06	196.72	104.59	54.461	32.078	4.6653e-06	63.071	0.00051272	0.00050715	0.00014173	352.74	5.5442e-06	5.5979e-06	453.72	119.28	5.5519e-06	5.6143e-06	221.39	116.02	63.674	35.335	5.6686e-06	68.235	199.798	-9.497	-23.923	-123.639	176.421	55.759	-124.001	-118.855	33.299	-16.713	-120.123	-116.919	-117.121	-112.526	10.427	-113.879	-8191	255	
2354.338	1	1	0	0	0.13078	0.15591	0.21938	0.13114	0.096347	0.071945	0.19481	0.077181	0.028752	0.17409	0.10415	0.2225	0.32639	0.19343	0.16737	0.20335	-2.3875	-2.5812	-2.8375	-2.5271	-2.675	-2.9938	-2.7021	-2.8146	-2.9833	-2.6167	-2.9833	-2.7687	-2.7	-3.2125	-2.8563	-2.8083	-44.267	-51.341	-88.142	50.134	-29.611	1.706	137.348	123.558	-104.176	204.088	15.549	153.912	8.043	-124.033	-64.078	190.791	0.00047105	0.00017355	9.3188e-05	255.43	3.797e-06	1.7442e-06	394.99	103.1	1.5126e-06	7.0278e-06	195.95	104.58	54.329	31.894	2.8683e-06	62.881	0.00052104	0.00052052	0.00014483	353.9	5.6922e-06	5.7436e-06	453.24	118.82	5.6939e-06	5.7174e-06	221.56	115.97	63.657	35.28	5.683e-06	68.268	198.371	-81.528	-66.884	-122.775	-26.254	104.115	-123.714	-119.087	2.507	-35.615	-119.976	-116.867	-117.009	-112.735	111.240	-114.031	-8191	255	
2354.434	1	1	0	0	0.074224	0.28477	0.27862	0.05258	0.12185	0.053977	0.2148	0.043601	0.11704	0.15181	0.073367	0.029544	0.24491	0.15163	0.28454	0.22912	-2.6104	-2.6896	-2.8146	-2.9417	-2.8229	-3.075	-2.775	-2.75	-3.0938	-2.8625	-2.9021	-2.7917	-2.6917	-3.0625	-2.9458	-2.9062	8.835	174.611	-20.633	65.662	178.256	54.445	37.656	-45.752	95.084	114.993	-73.498	154.066	125.002	115.696	152.373	191.109	0.00047473	0.00039332	0.00020878	253.53	1.6137e-06	7.5697e-06	395.03	103.06	3.6547e-06	2.949e-06	195.21	104.69	54.395	32.004	2.5e-06	63.035	0.00052249	0.00052415	0.00014635	354.34	5.8296e-06	5.8669e-06	454.35	119.03	5.8277e-06	5.8174e-06	221.51	116	63.826	35.278	5.7253e-06	68.25	199.963	-11.173	-91.460	-123.738	55.737	-4.750	-123.727	-118.946	-14.768	-29.791	-119.999	-116.982	-117.063	-112.660	-12.343	-113.856	-8191	255	
2354.530	1	1	0	0	0.15067	0.28538	0.077111	0.13124	0.22871	0.062432	0.23215	0.20021	0.13621	0.25032	0.15301	0.025871	0.042361	0.043781	0.044048	0.35736	-2.6417	-2.6583	-2.9833	-2.8708	-2.6937	-2.925	-2.7438	-2.6958	-3.0917	-2.8271	-3.1083	-2.875	-2.6708	-2.9917	-2.8125	-2.9062	39.665	-66.456	177.672	204.538	147.062	-99.825	-58.524	152.212	-59.022	-37.883	160.972	-106.512	143.404	65.709	102.113	151.387	0.00043017	0.00050577	0.0001107	253.96	3.9563e-06	3.8015e-06	393.59	103.25	3.4131e-06	4.9077e-06	195.69	104.6	54.541	31.977	2.9835e-06	62.773	0.00052087	0.00052045	0.0001442	352.57	5.6783e-06	5.6918e-06	453.84	119.25	5.6821e-06	5.7052e-06	221.57	116.23	63.935	35.368	5.7211e-06	68.284	199.167	-21.629	22.392	-122.786	-44.552	8.096	-123.827	-118.860	-56.304	31.123	-120.091	-117.099	-116.951	-112.630	-21.904	-113.822	-8191	255	
2354.627	1	1	0	0	0.03294	0.093676	0.077972	0.11284	0.35096	0.092509	0.085643	0.14046	0.19151	0.10285	0.0778	0.18023	0.24788	0.034012	0.12302	0.055413	-2.6354	-2.4521	-2.8458	-2.7708	-2.6875	-2.9229	-2.7375	-2.5333	-2.9479	-2.8083	-2.7229	-3.0438	-2.6104	-2.9333	-2.8479	-2.7812	-78.795	24.989	-17.033	-16.865	189.143	162.080	111.040	104.921	198.360	101.961	99.955	127.004	158.720	106.902	135.500	183.642	0.00045143	0.00061695	0.00014153	255.62	3.4078e-06	1.4098e-06	395.09	103.29	1.8587e-06	3.7953e-06	196.19	105.07	54.566	31.925	1.8048e-06	62.871	0.00051752	0.00051602	0.00014215	352.91	5.5576e-06	5.5125e-06	452.8	119.01	5.5215e-06	5.5784e-06	221.33	116.22	63.763	35.262	5.6205e-06	68.245	201.647	-42.663	1.364	-122.723	40.794	86.754	-123.922	-118.749	-108.645	-3.308	-120.058	-117.030	-117.030	-112.481	21.090	-113.923	-8191	255	
2354.723	1	1	0	0	0.065891	0.28188	0.14099	0.18758	0.10358	0.12201	0.23579	0.058561	0.26444	0.2337	0.24604	0.16848	0.15606	0.37181	0.16618	0.25771	-2.2854	-2.6458	-2.6167	-2.9417	-2.6875	-2.9083	-2.8625	-2.7021	-3.0646	-2.8312	-2.6937	-3	-2.6625	-2.9062	-2.8167	-2.7812	19.592	108.888	41.169	162.829	192.600	-59.188	-42.131	-75.605	181.133	-95.463	160.441	31.502	44.150	183.083	57.968	152.006	0.00045471	0.00033764	7.7713e-05	255.6	6.3051e-06	3.2745e-06	397.03	103.92	3.2009e-06	4.2418e-06	197.78	104.91	54.665	31.976	2.4617e-06	63.111	0.00051595	0.00051213	0.00014181	352.74	5.6094e-06	5.6457e-06	454.27	119.34	5.6841e-06	5.6642e-06	221.92	116.28	63.841	35.335	5.6845e-06	68.429	198.464	-28.883	3.413	-123.328	12.182	79.462	-123.596	-118.944	-44.379	15.100	-120.052	-116.880	-116.645	-112.805	-10.117	-113.936	-8191	255	
2354.819	1	1	0	0	0.049744	0.17345	0.057378	0.058836	0.20133	0.14706	0.12319	0.05699	0.087001	0.19307	0.17326	0.3824	0.18707	0.1331	0.097569	0.30574	-2.5646	-2.6083	-2.4833	-2.9313	-2.4938	-2.7833	-3.0083	-2.5542	-2.9521	-2.8729	-2.7958	-2.9083	-2.5104	-2.7625	-2.7729	-2.6229	-29.453	77.689	-64.876	-15.598	-60.387	-63.242	-70.623	117.091	-119.176	20.493	189.690	214.519	208.357	-132.144	-119.663	168.990	0.00045	0.00064395	0.00019722	256.39	4.24e-06	4.2961e-06	398.25	103.24	3.2258e-06	1.2347e-06	197.25	104.97	54.866	31.999	3.8304e-06	63.148	0.00052682	0.00052362	0.00014674	358.02	5.8098e-06	5.8538e-06	457.36	119.86	5.838e-06	5.8232e-06	222.98	116.85	64.352	35.387	5.762e-06	68.438	194.936	-84.571	-75.754	-122.450	4.336	91.474	-123.510	-118.881	24.060	-95.788	-120.059	-116.975	-116.861	-112.488	2.951	-113.949	-8191	255	
2354.938	1	1	0	0	0.060983	0.10833	0.1409	0.26247	0.25131	0.13956	0.20091	0.31756	0.05333	0.064116	0.12411	0.05585	0.15004	0.18591	0.078492	0.22726	-2.5083	-2.8083	-2.5812	-2.7792	-2.6396	-2.9146	-3.0125	-2.5708	-2.9042	-3.0021	-2.8417	-3.0396	-2.5729	-2.8729	-3.1021	-2.7354	15.355	72.757	-95.165	-88.135	-66.740	-119.865	106.250	-108.680	-17.282	-25.304	213.431	-41.985	165.198	-128.849	214.285	-99.996	0.0004007	0.00047129	0.00011812	255.35	1.2197e-06	1.837e-06	398.22	104.65	1.6778e-06	2.7804e-06	196.57	105.24	55.193	31.971	3.3768e-06	62.682	0.00052963	0.00052009	0.00014583	356.04	5.7112e-06	5.6957e-06	457.06	120.12	5.7217e-06	5.7596e-06	222.52	116.85	64.438	35.341	5.8785e-06	68.232	199.934	-16.995	-13.763	-123.181	23.349	-26.975	-123.628	-118.891	64.589	-9.655	-120.144	-117.045	-117.024	-112.810	-10.672	-114.046	-8191	255	
2355.011	1	1	0	0	0.2195	0.32377	0.33886	0.32849	0.029033	0.045398	0.15934	0.064187	0.081952	0.12017	0.22859	0.0607	0.34798	0.060392	0.015712	0.32055	-2.475	-2.8167	-2.6417	-2.8604	-2.7583	-2.8396	-3.1188	-2.6167	-2.8771	-2.9333	-2.8167	-3.1375	-2.6917	-2.8312	-3.0146	-2.7062	63.533	126.338	92.454	24.930	160.302	-135.313	139.454	174.459	55.236	39.682	-10.747	-135.049	169.599	120.728	92.075	171.575	0.00042998	0.00020781	4.2e-05	256	3.5084e-06	2.391e-06	398.95	104.45	3.3632e-06	3.9037e-06	197.12	105.22	54.846	31.99	4.0121e-06	62.919	0.00053962	0.0005354	0.00015118	359.19	5.8706e-06	5.8587e-06	456.83	120.14	5.808e-06	5.8116e-06	222.87	116.81	64.321	35.312	5.8807e-06	68.297	196.087	-35.671	-16.302	-122.582	18.416	-95.523	-123.976	-119.191	14.121	-6.584	-120.076	-117.024	-116.930	-112.639	13.248	-114.182	-8191	255	
2355.106	1	1	0	0	0.41638	0.25528	0.13754	0.077625	0.15437	0.077134	0.25931	0.082901	0.18729	0.1665	0.086193	0.1493	0.18665	0.029427	0.20855	0.23333	-2.475	-2.8521	-2.6312	-2.8917	-2.7979	-2.7438	-3.1604	-2.6562	-2.9354	-3.1271	-2.7333	-3.0896	-2.6875	-2.5938	-3.0854	-2.9	201.673	156.480	150.946	175.983	-1.538	-51.877	129.213	-45.838	-101.521	-117.199	-31.315	100.926	174.595	98.471	138.557	188.285	0.00043352	0.00082539	0.00019017	254.61	5.0642e-06	1.3414e-06	395.96	103.18	1.9592e-06	5.2362e-06	196.5	105.49	54.738	31.883	3.2564e-06	63.069	0.00053722	0.00054383	0.00015171	360.16	5.9353e-06	5.9575e-06	457.12	119.7	5.8678e-06	5.9213e-06	222.81	117.08	64.354	35.365	5.9211e-06	68.415	198.994	-20.324	24.815	-122.985	85.840	63.633	-123.981	-118.750	-113.339	-31.847	-120.109	-117.071	-117.159	-112.740	-25.983	-113.945	-8191	255	
2355.203	1	1	0	0	0.22123	0.20042	0.22551	0.089331	0.10776	0.24061	0.11455	0.010658	0.014582	0.10647	0.04303	0.19047	0.12138	0.060701	0.14159	0.23919	-2.4188	-2.7792	-2.5417	-2.8958	-2.9104	-2.6854	-3.1375	-2.7188	-2.9083	-3.0021	-2.6625	-3.0021	-2.9417	-2.6479	-2.8896	-2.7938	110.188	87.951	-118.419	141.914	-34.455	-92.306	-80.309	174.612	-0.085	183.643	172.911	-48.857	164.534	199.699	178.392	139.566	0.0004302	9.7916e-05	0.0001831	257.94	4.5825e-06	3.0549e-06	397.71	103.8	3.5231e-06	2.9972e-06	197.29	105.4	54.829	32.006	3.3165e-06	63.026	0.00053648	0.0005327	0.00014881	357.42	5.8097e-06	5.8241e-06	457.54	120.09	5.8448e-06	5.9194e-06	223.03	117.28	64.459	35.417	5.9008e-06	68.445	197.914	-44.868	-50.756	-122.913	-5.164	-34.477	-124.012	-118.974	-20.581	-25.918	-120.217	-117.163	-117.051	-112.640	-41.745	-113.907	-8191	255	
2355.322	1	1	0	0	0.19473	0.23554	0.25853	0.20717	0.091804	0.33906	0.16417	0.23229	0.0505	0.054473	0.073364	0.10362	0.15833	0.10516	0.10479	0.10289	-2.3063	-3.0125	-2.525	-2.8937	-2.9708	-2.9375	-3.0479	-2.8812	-2.7042	-3.0375	-2.7354	-2.8812	-3.0771	-2.6979	-2.8583	-2.9604	-136.227	-104.815	-57.164	102.381	98.151	150.114	-115.749	-63.819	50.681	-94.888	-35.999	-92.319	182.157	-101.170	-135.898	-13.505	0.00047115	0.0004876	0.00012769	257.44	2.1599e-06	1.7748e-06	398.18	103.87	5.3471e-06	6.1665e-06	196.25	105.46	54.987	32.021	1.1759e-06	63.002	0.00053172	0.0005302	0.00014795	357.73	5.801e-06	5.8339e-06	458.65	120.26	5.7774e-06	5.8644e-06	222.7	116.93	64.249	35.354	5.7755e-06	68.389	199.625	-18.881	-95.096	-122.483	30.508	-33.746	-123.715	-118.870	-32.849	8.663	-120.101	-117.022	-117.075	-112.687	-24.424	-114.043	-8191	255	
2355.419	1	1	0	0	0.03161	0.11116	0.12785	0.099891	0.082142	0.14249	0.16368	0.13315	0.096312	0.20035	0.12203	0.08521	0.10632	0.083461	0.1663	0.076765	-2.2667	-2.8104	-2.6354	-2.7833	-2.9583	-2.5563	-2.9375	-2.8125	-2.7438	-3.1042	-2.8125	-2.9042	-2.9375	-2.8292	-2.8521	-3.05	99.767	167.404	14.260	120.227	-1.097	60.433	-90.130	-112.504	42.392	118.593	132.067	160.658	-106.768	141.624	153.800	114.026	0.00046756	0.00034521	5.278e-05	256.62	1.0859e-06	3.2709e-06	398.65	104.25	2.309e-06	4.458e-06	196.73	104.92	54.856	31.837	1.0934e-06	62.763	0.00052931	0.00052708	0.00014779	357.62	5.8126e-06	5.8222e-06	457.51	120.09	5.8422e-06	5.9007e-06	222.26	116.53	64.336	35.277	5.9682e-06	68.199	191.695	-49.468	46.676	-123.037	-59.899	171.094	-123.640	-119.103	-8.973	-0.499	-120.069	-117.027	-117.414	-112.821	67.249	-113.960	-8191	255	
2355.515	1	1	0	0	0.18999	0.15003	0.14968	0.15459	0.36081	0.14283	0.076829	0.046153	0.28903	0.12036	0.15709	0.15818	0.15406	0.2477	0.21367	0.15482	-2.2854	-3.0875	-2.7771	-2.7458	-3.05	-2.7583	-3.0021	-2.7854	-2.6667	-3.1021	-2.7708	-2.7292	-3.0771	-2.8917	-2.9562	-3.0208	26.957	74.137	106.575	165.336	-123.369	-13.720	3.208	125.506	-6.594	46.460	173.688	178.390	-41.644	151.032	18.233	-107.783	0.00038773	0.00056091	0.00015377	255.02	2.8794e-06	7.3819e-06	397.47	103.93	1.7411e-06	8.0681e-07	195.95	104.42	54.465	31.813	2.2223e-06	62.846	0.00054447	0.00054162	0.0001505	358.74	5.8125e-06	5.8192e-06	455.57	119.69	5.6987e-06	5.6984e-06	221.32	116.04	63.858	35.152	5.6688e-06	68.053	196.041	-36.523	-18.534	-123.013	70.388	22.584	-123.801	-119.011	31.433	-89.743	-120.148	-116.889	-117.402	-112.633	-32.920	-113.948	-8191	255	
2355.611	1	1	0	0	0.12449	0.18482	0.19032	0.10678	0.19325	0.15819	0.24402	0.096183	0.23113	0.17064	0.11477	0.21657	0.10428	0.11513	0.31373	0.13894	-2.1771	-3.0187	-2.6458	-2.8125	-2.8333	-2.8396	-2.975	-3.0354	-2.7313	-3.1083	-2.7875	-2.8646	-3.0792	-2.775	-3.0521	-3.0229	67.036	-133.335	4.851	50.244	127.255	7.112	176.472	205.720	-65.037	92.080	-117.774	183.968	32.702	215.918	-0.260	107.130	0.00041989	0.00061052	9.8638e-05	254.69	4.2939e-06	5.1964e-06	398.3	103.55	2.8117e-06	2.8321e-06	195.74	104.74	54.661	31.827	5.046e-06	62.745	0.00052152	0.00052253	0.00014438	355.19	5.7331e-06	5.7615e-06	456.06	119.45	5.7455e-06	5.7955e-06	221.36	116.1	63.887	35.172	5.7884e-06	68.166	195.363	-2.122	-16.558	-122.969	13.654	7.885	-123.811	-119.029	59.728	-16.416	-119.954	-117.083	-117.110	-112.820	65.348	-114.155	-8191	255	
2355.707	1	1	0	0	0.10608	0.15957	0.11973	0.15626	0.16425	0.18224	0.089266	0.23037	0.12891	0.17234	0.079874	0.27709	0.24458	0.16874	0.14581	0.25066	-2.1417	-2.8688	-2.7458	-2.6875	-3.0812	-2.7313	-2.9271	-3.0438	-2.5208	-2.9354	-2.7833	-2.8583	-2.8458	-2.8667	-2.7729	-3.0396	-4.968	220.908	132.937	-68.194	62.205	211.599	48.130	63.519	205.022	-115.392	21.133	118.429	175.815	-120.245	12.598	179.607	0.00046726	0.00016968	7.3951e-05	254.56	2.5364e-06	2.408e-06	395.57	103.38	4.7735e-06	3.9565e-06	196.86	105.37	54.822	31.931	6.7263e-06	62.951	0.00053487	0.00052831	0.00014845	356.69	5.8398e-06	5.7789e-06	455.27	119.68	5.8092e-06	5.8423e-06	222.3	116.84	64.259	35.288	5.9652e-06	68.335	195.836	-49.052	-71.857	-123.586	-66.393	-10.862	-123.811	-118.903	6.137	-38.008	-120.009	-117.127	-117.079	-112.693	-6.882	-113.996	-8191	255	
2355.803	1	1	0	0	0.1357	0.10518	0.15134	0.17336	0.20435	0.10998	0.079066	0.17522	0.18532	0.15133	0.17441	0.093468	0.22595	0.18597	0.12265	0.15018	-2.4167	-2.9333	-2.9688	-2.8417	-3.0771	-2.7062	-2.775	-2.8854	-2.5729	-3.0438	-2.8292	-2.7875	-3.1333	-2.8583	-2.6604	-2.8937	-15.630	-55.615	-130.176	-65.899	-78.162	108.408	186.232	186.811	-40.994	83.315	181.640	197.604	-38.770	-124.130	121.791	-46.994	0.00041541	0.00043493	7.0447e-05	253.9	1.7473e-06	3.4081e-06	392.92	103.65	2.202e-06	1.0124e-06	194.52	104.21	54.568	31.788	3.1078e-06	62.614	0.00054735	0.00054498	0.00015241	358.8	5.9459e-06	5.9318e-06	453.41	119.63	5.8885e-06	5.8852e-06	221.37	116.2	64.018	35.125	5.9365e-06	67.97	197.149	-10.743	12.032	-122.683	148.558	-42.343	-123.794	-118.936	-20.209	-12.509	-120.500	-116.923	-117.253	-112.601	-59.011	-113.930	-8191	255	
2355.924	1	1	0	0	0.097873	0.098681	0.021619	0.22784	0.13644	0.13935	0.12508	0.10048	0.16998	0.27961	0.20749	0.25425	0.11179	0.15595	0.12233	0.24837	-2.2562	-2.7479	-2.8688	-2.6437	-3.0167	-2.5729	-2.7896	-2.9458	-2.7062	-2.9313	-2.8937	-2.6271	-2.8083	-2.775	-2.6708	-3.0229	-108.165	174.068	115.207	189.621	168.117	2.376	206.350	-42.441	29.421	-101.799	186.015	194.132	76.952	114.435	174.836	179.875	0.00045996	0.00036805	0.00016974	253.34	3.7236e-06	3.6864e-06	393.54	102.5	3.6622e-06	8.7771e-07	194.44	104.22	54.509	31.571	3.2659e-06	62.084	0.00054976	0.00055135	0.00015433	360.84	6.0835e-06	6.0846e-06	454.41	119.3	6.0642e-06	6.0031e-06	221.13	115.8	63.916	34.996	5.9855e-06	67.62	200.444	-64.989	-114.969	-122.399	33.456	-4.020	-123.863	-118.752	-44.310	-10.598	-120.189	-116.997	-117.170	-112.748	-6.102	-114.164	-8191	255	
2356.018	1	1	0	0	0.31458	0.15173	0.33557	0.14963	0.096931	0.09147	0.1254	0.10208	0.34885	0.04225	0.086417	0.28474	0.17277	0.23468	0.13938	0.25444	-2.3187	-2.7375	-2.9521	-2.7354	-3.0812	-2.9354	-2.5417	-2.9813	-2.5875	-2.825	-2.8729	-2.7188	-3.0312	-2.875	-2.5708	-2.9708	-133.240	205.413	128.577	215.549	158.600	0.484	211.983	128.197	158.969	102.851	215.007	164.880	-130.357	178.483	-104.714	166.146	0.00043043	0.00047364	9.1269e-05	253.6	2.3614e-06	8.3916e-06	391.21	102.6	4.4382e-06	3.5139e-06	194.66	104.16	53.796	31.583	3.0274e-06	62.288	0.00054467	0.00054063	0.00015136	357.51	5.9579e-06	5.9403e-06	452.81	118.9	5.9655e-06	6.013e-06	220.92	116	63.928	34.975	6.1056e-06	67.651	198.238	-61.602	30.226	-123.187	29.069	-18.236	-123.776	-118.935	-77.060	-44.468	-120.262	-117.090	-117.149	-112.583	23.056	-113.975	-8191	255	
2356.114	1	1	0	0	0.19631	0.16773	0.22567	0.09144	0.32692	0.30787	0.086221	0.31222	0.059735	0.013918	0.063899	0.39708	0.012201	0.277	0.21175	0.27437	-2.2333	-2.7771	-3.0042	-2.5104	-2.8875	-2.9833	-2.6625	-2.9458	-2.8354	-2.7167	-3.1042	-2.7146	-2.8854	-2.9083	-2.6188	-3.0667	-114.018	174.048	0.506	221.901	156.148	216.837	145.852	109.144	-32.012	-1.834	-122.247	99.931	64.694	176.315	53.135	148.515	0.00043697	0.00052357	0.00018632	252.48	1.4712e-06	4.0999e-06	392.79	103.01	1.3665e-06	2.8779e-06	194.73	103.93	54.343	31.481	2.9875e-06	62.194	0.00055234	0.00055133	0.00015284	357	5.8793e-06	5.8839e-06	452.15	118.93	5.827e-06	5.8472e-06	220.56	115.52	63.624	34.819	5.8801e-06	67.509	199.470	-57.629	-48.146	-122.903	189.486	-28.141	-124.136	-118.925	-104.147	-23.131	-119.971	-116.979	-117.238	-112.790	51.024	-114.136	-8191	255	
2356.235	1	1	0	0	0.19815	0.21191	0.26071	0.15664	0.19395	0.080266	0.09699	0.099766	0.3356	0.12139	0.1241	0.30397	0.18121	0.18267	0.12118	0.2788	-2.5021	-2.6333	-2.9542	-2.6875	-2.8125	-2.9271	-2.75	-3.0583	-2.7938	-2.5896	-2.9437	-2.6292	-2.7521	-2.9958	-2.7146	-2.8854	163.798	139.770	189.199	-55.445	1.047	119.274	19.639	89.732	-2.849	-97.949	157.552	133.618	92.433	-96.724	107.649	214.269	0.00044359	0.00031014	8.0284e-05	254.16	4.8846e-06	5.9371e-06	393.92	102.58	2.5525e-06	1.8419e-06	193.76	104.11	54.116	31.507	4.0306e-06	62.442	0.00054092	0.00054248	0.00014991	357.37	5.9349e-06	5.9427e-06	454.23	118.84	5.8776e-06	5.9448e-06	220.46	115.61	63.59	34.808	5.8409e-06	67.585	201.279	-99.051	20.606	-122.989	-7.403	66.531	-123.419	-118.814	-39.316	-119.666	-120.138	-117.128	-117.028	-112.655	-105.372	-113.902	-8191	255	
2356.307	1	1	0	0	0.13238	0.17948	0.13744	0.01712	0.44273	0.13103	0.16217	0.16501	0.15603	0.069727	0.16158	0.18915	0.17831	0.10709	0.18505	0.18348	-2.4396	-2.6146	-3.1063	-2.5438	-2.8229	-3.0667	-2.7083	-2.8896	-2.7354	-2.6646	-3.0187	-2.8208	-2.7854	-3.05	-2.825	-3.1188	131.007	87.506	-67.005	205.530	25.255	147.674	75.697	94.277	4.367	114.250	-134.627	84.387	39.777	176.805	-100.300	146.563	0.00047957	0.00018347	6.9784e-05	252.92	2.593e-06	4.985e-06	390.74	102.02	3.2499e-06	2.8743e-06	193.98	103.37	54.264	31.607	4.1442e-06	62.415	0.00052802	0.00052473	0.00014531	350.47	5.6192e-06	5.6415e-06	449.16	117.91	5.5529e-06	5.6254e-06	218.9	115.01	63.179	34.845	5.6837e-06	67.62	197.456	47.468	-105.626	-123.376	-34.313	11.021	-123.751	-119.218	18.005	90.609	-120.203	-117.074	-117.385	-112.594	-49.687	-114.038	-8191	255	
2356.403	1	1	0	0	0.15214	0.28448	0.083741	0.24681	0.18111	0.14796	0.25602	0.1684	0.39772	0.22031	0.027387	0.13183	0.043093	0.26187	0.12067	0.20739	-2.4042	-2.6854	-2.9792	-2.5729	-2.6729	-2.9104	-2.7125	-2.7354	-3.0292	-2.5417	-3.0438	-2.8146	-2.7896	-3.0708	-2.6146	-2.9	15.268	-68.019	62.412	222.576	-85.134	-128.573	-8.864	216.567	-24.376	31.075	149.998	166.012	150.948	-37.635	-87.655	135.863	0.00045655	0.00017277	0.00014883	248.41	7.0194e-07	7.4141e-07	390.75	102.94	1.842e-06	1.4849e-06	194.94	103.97	54.046	31.673	2.5953e-06	62.46	0.0005192	0.00051786	0.00014338	348.5	5.6233e-06	5.6527e-06	448.29	118.32	5.5643e-06	5.6122e-06	219.59	115.29	63.151	34.9	5.6066e-06	67.7	197.195	52.449	-41.469	-123.399	160.312	-131.685	-123.805	-118.831	-115.435	149.956	-120.290	-116.805	-117.266	-112.689	7.907	-114.075	-8191	255	
2356.499	1	1	0	0	0.11597	0.16348	0.13406	0.23907	0.14299	0.33512	0.13269	0.14361	0.11956	0.055139	0.086589	0.23163	0.052864	0.070715	0.15512	0.16283	-2.5187	-2.6958	-3.1208	-2.9104	-2.6146	-3.0604	-2.9562	-2.8542	-3.0062	-2.7354	-2.9021	-3.0938	-2.6229	-3.0771	-2.8208	-2.9313	62.588	-56.925	84.007	80.193	-87.693	-125.357	103.021	157.307	-34.270	-85.665	-5.343	198.401	14.476	-37.517	-89.366	137.171	0.00045003	0.00030065	0.00016151	252.4	5.1657e-06	7.8069e-06	389.71	103.16	4.0113e-06	3.7235e-06	194.74	104.29	54.101	31.54	1.8045e-06	62.387	0.00051516	0.00051623	0.00014498	351.41	5.6768e-06	5.7268e-06	449.84	118.64	5.7111e-06	5.7348e-06	220.49	115.57	63.505	34.857	5.8265e-06	67.623	198.570	47.507	-52.981	-123.050	-40.279	15.680	-123.712	-118.767	5.859	53.123	-120.395	-117.077	-117.187	-112.628	21.159	-114.009	-8191	255	
2356.620	1	1	0	0	0.074485	0.2208	0.05011	0.1953	0.25041	0.097157	0.022301	0.073112	0.20112	0.20126	0.12145	0.11827	0.25747	0.085124	0.18181	0.18126	-2.5604	-2.7938	-2.9646	-2.8583	-2.7083	-3.0625	-2.7729	-2.9167	-2.9104	-2.6792	-2.8625	-3.1562	-2.6188	-2.9979	-2.7583	-2.8104	-40.575	66.156	65.383	-89.797	180.201	114.630	-106.767	-94.624	-133.439	86.225	144.884	79.077	81.796	-129.648	-56.180	174.639	0.00042118	0.000599	0.00018961	251.88	2.6589e-06	3.3565e-06	389.74	102.25	2.2473e-06	3.2966e-06	193.3	104.27	53.786	31.368	2.8488e-06	62.106	0.00053546	0.00053487	0.00014878	352.88	5.8688e-06	5.9086e-06	451.09	118.4	6.0162e-06	6.0517e-06	220.56	116.07	63.727	34.833	6.12e-06	67.619	203.641	-17.480	-73.682	-123.095	12.190	53.069	-123.666	-119.153	-101.639	-13.582	-120.240	-116.925	-117.021	-112.485	-49.502	-113.901	-8191	255	
2356.716	1	1	0	0	0.11749	0.13816	0.091099	0.23541	0.24185	0.10051	0.30005	0.13341	0.23361	0.074063	0.062016	0.061859	0.054355	0.15201	0.23445	0.30304	-2.6854	-2.7229	-2.8021	-2.8354	-2.7208	-3.0979	-3.0083	-2.7729	-3.1292	-2.7875	-3.0687	-3.0354	-2.8854	-3.1729	-2.7812	-2.9104	-52.464	146.759	-47.525	-35.756	105.673	154.379	175.180	186.127	83.021	-84.112	214.360	51.549	77.379	196.642	203.410	173.798	0.00050959	0.00020229	5.5815e-05	252.86	2.8745e-06	2.4921e-06	391.9	102.22	1.583e-06	4.3744e-06	193.14	103.55	53.655	31.389	9.0655e-07	61.906	0.00056336	0.00055914	0.00015462	356.8	6.0447e-06	5.9613e-06	452.51	118.34	5.9112e-06	5.9082e-06	219.4	115.03	63.034	34.673	5.7428e-06	67.272	200.841	-18.024	-107.188	-123.338	-110.819	143.782	-124.021	-118.876	-69.933	63.417	-120.321	-117.223	-117.150	-112.887	-116.660	-113.941	-8191	255	
2356.812	1	1	0	0	0.12095	0.074595	0.14526	0.1376	0.024239	0.072384	0.15942	0.056913	0.24717	0.2159	0.1194	0.054949	0.086937	0.18096	0.2488	0.24377	-2.5187	-2.7146	-2.8438	-3.0229	-2.7062	-3.0062	-2.9813	-2.7875	-3.0625	-2.8646	-2.8521	-3.0187	-2.5375	-2.9854	-2.925	-2.7667	166.412	-114.914	139.234	13.236	31.021	-66.003	-126.254	-30.248	2.854	157.596	-108.764	145.583	160.448	213.073	139.237	160.981	0.00041904	0.0005016	9.6193e-05	250.88	6.8326e-07	4.0037e-06	393.47	101.91	5.3441e-06	2.6324e-06	194.26	103.41	53.891	31.416	2.4361e-06	62.086	0.00051824	0.00050961	0.00014099	347.32	5.547e-06	5.4771e-06	448.87	117.43	5.4694e-06	5.5107e-06	218.38	114.4	62.644	34.554	5.5013e-06	67.194	196.762	-59.872	-34.022	-123.193	-34.435	13.754	-123.993	-118.912	-53.835	49.489	-120.255	-116.976	-117.004	-112.793	-86.544	-114.127	-8191	255	
2356.884	1	1	0	0	0.079844	0.28439	0.095703	0.030314	0.35462	0.32488	0.1413	0.015416	0.21008	0.23875	0.26007	0.063495	0.12349	0.13387	0.091899	0.074873	-2.6583	-2.6813	-2.8833	-3.0312	-2.7938	-3.0938	-2.8688	-2.8271	-3.05	-2.7708	-2.9375	-3.0854	-2.7062	-2.875	-2.8333	-2.7125	85.431	103.822	69.819	91.398	-34.082	41.044	71.318	-109.699	219.459	177.790	143.568	7.234	192.510	210.983	-3.235	-125.390	0.00044435	0.00054754	3.3694e-05	254.77	3.6354e-06	7.2979e-06	392.61	102.47	3.5613e-06	7.3344e-06	194.85	103.33	53.793	31.309	3.405e-06	62.026	0.00050532	0.00050584	0.00014142	351.46	5.632e-06	5.668e-06	451.43	118.04	5.7942e-06	5.8126e-06	219.65	114.9	63.091	34.701	5.7615e-06	67.312	193.641	-38.190	21.196	-122.277	25.533	12.600	-123.877	-118.728	55.631	34.238	-120.157	-117.067	-116.930	-112.533	-39.528	-114.095	-8191	255	
2357.002	1	1	0	0	0.14022	0.064079	0.33681	0.35563	0.16305	0.15337	0.24683	0.21301	0.10163	0.1495	0.14846	0.17634	0.15148	0.15185	0.1145	0.11374	-2.6	-2.7167	-2.5354	-2.8292	-2.7125	-2.9562	-3.0125	-2.7375	-2.8917	-2.75	-2.7062	-2.8083	-2.5979	-2.6083	-3.0062	-2.6125	206.089	213.480	-77.544	98.785	-54.492	103.858	123.195	208.124	147.741	148.049	-41.667	105.347	54.226	24.056	-91.279	172.442	0.00045656	0.00040818	2.6699e-05	252.84	1.9251e-06	1.0641e-06	393.87	102.49	3.2655e-06	2.0321e-06	194.34	103.36	53.82	31.367	4.321e-06	62.135	0.00051896	0.00051216	0.00014276	350.17	5.5025e-06	5.4834e-06	451.07	117.75	5.3866e-06	5.3561e-06	218.58	114.26	62.349	34.555	5.3341e-06	67.369	194.191	-52.604	-39.644	-123.329	-25.252	92.640	-123.730	-119.270	-17.563	-75.338	-120.373	-117.076	-116.988	-112.701	29.325	-113.958	-8191	255	
2357.099	1	1	0	0	0.086551	0.1669	0.24911	0.13528	0.17599	0.048747	0.18885	0.10615	0.19658	0.28377	0.25722	0.13999	0.19752	0.30462	0.13921	0.20403	-2.5187	-2.7979	-2.6021	-3.025	-2.7771	-2.7188	-2.9854	-2.4833	-2.8187	-2.9583	-2.7396	-2.8688	-2.7042	-2.6875	-2.9229	-2.6417	18.162	71.722	57.116	128.397	205.430	211.863	141.399	-105.631	185.007	19.738	221.796	104.406	205.242	-33.056	-99.476	-105.564	0.00046867	0.00023364	9.5426e-05	257.62	1.7877e-06	6.195e-06	395.82	102.26	4.3593e-06	1.6001e-06	194.15	102.89	53.454	31.376	3.2244e-06	62.138	0.00048628	0.00048095	0.00013409	347.99	5.2622e-06	5.268e-06	452.43	117.32	5.2209e-06	5.2259e-06	218.56	113.66	61.981	34.504	5.2103e-06	67.376	198.421	-90.017	-79.416	-122.841	91.359	45.995	-123.618	-118.838	-42.831	204.045	-120.404	-116.986	-116.776	-112.585	76.448	-113.944	-8191	255	
2357.195	1	1	0	0	0.14275	0.088161	0.12402	0.13317	0.19574	0.10028	0.202	0.16814	0.32474	0.16778	0.12585	0.096226	0.08144	0.23073	0.20699	0.2154	-2.4125	-2.8812	-2.7104	-2.9875	-2.8458	-2.5646	-3.1729	-2.7667	-2.9271	-3.0375	-2.6458	-3.0771	-2.6562	-2.6771	-3.2125	-2.8417	146.107	4.721	132.118	114.356	-45.302	194.827	-17.262	-106.253	2.289	171.650	-70.040	185.357	-39.464	148.800	199.533	138.505	0.00042769	0.00024621	0.00017553	256.6	8.5154e-07	1.7202e-06	395.51	101.73	5.3755e-06	3.7446e-06	192.81	102.98	53.362	31.156	2.0013e-06	62.092	0.00047937	0.00047467	0.00013406	346.93	5.2931e-06	5.3044e-06	451.04	117.2	5.4339e-06	5.476e-06	218.02	114	62.192	34.438	5.3432e-06	67.038	201.829	15.102	-47.643	-122.819	-62.565	-56.356	-123.654	-118.911	22.493	17.233	-120.325	-117.167	-117.256	-112.599	-6.066	-113.996	-8191	255	
2357.315	1	1	0	0	0.1876	0.15819	0.29937	0.1728	0.1979	0.31227	0.079343	0.14578	0.21472	0.22029	0.23366	0.10195	0.2005	0.20583	0.063022	0.089546	-2.4854	-2.85	-2.5521	-2.9062	-2.8583	-2.6792	-2.9562	-2.7979	-2.6729	-2.8625	-2.6333	-2.8979	-2.6354	-2.5938	-3.0396	-2.9688	197.529	60.810	-109.687	66.205	208.147	183.414	-97.578	-8.897	58.682	220.398	84.111	114.764	167.571	-88.201	-17.003	32.368	0.00047046	0.00027168	0.00016355	253.47	1.1885e-06	4.0275e-07	398.1	102.28	4.6685e-07	5.1256e-06	193.74	102.47	53.26	31.26	4.4764e-06	61.996	0.00048125	0.00047312	0.00013205	343.87	5.0805e-06	5.0619e-06	450.87	116.75	5.0107e-06	5.0449e-06	216.94	113.11	61.689	34.332	5.0536e-06	66.851	198.311	-90.520	44.312	-122.509	15.397	137.576	-123.755	-118.981	-113.708	2.812	-120.215	-117.219	-116.995	-112.585	-15.225	-114.074	-8191	255	
2357.411	1	1	0	0	0.22355	0.20194	0.21698	0.13872	0.12831	0.24954	0.15833	0.19447	0.25415	0.16142	0.19396	0.1911	0.17154	0.27379	0.18848	0.3054	-2.425	-2.8667	-2.5687	-2.7667	-2.8042	-2.6208	-3.0292	-2.75	-2.7021	-2.7771	-2.7292	-2.8167	-2.75	-2.725	-2.9625	-2.9208	201.573	44.565	-14.998	95.778	26.394	-109.277	84.475	64.175	10.782	-62.133	208.074	-120.308	-67.432	161.030	134.024	199.871	0.00044217	0.00019355	5.3699e-05	254.49	2.1679e-06	2.6656e-06	396.8	101.91	1.4807e-06	5.76e-06	193.82	102.75	53.135	31.254	2.337e-06	62.231	0.00045788	0.00044892	0.00012457	339.6	4.8451e-06	4.875e-06	449.01	116.42	4.8281e-06	4.9427e-06	216.38	113.12	61.446	34.374	4.984e-06	67.175	198.686	-47.658	-78.305	-122.921	-45.674	-87.742	-123.825	-118.958	-44.457	68.942	-120.189	-116.908	-117.377	-112.721	-72.308	-113.924	-8191	255	
2357.508	1	1	0	0	0.14232	0.075112	0.35131	0.15462	0.36654	0.061816	0.242	0.1757	0.035243	0.2171	0.070131	0.25346	0.12148	0.14109	0.11947	0.22706	-2.3125	-2.7708	-2.6833	-2.6688	-2.7938	-2.5812	-2.9688	-2.8625	-2.5854	-2.8896	-2.8125	-2.7812	-2.9604	-2.6125	-2.9479	-2.9188	199.297	27.995	-60.107	160.790	-80.146	123.715	113.543	135.669	-24.056	74.582	167.892	-113.870	-58.002	212.575	60.223	133.727	0.00042204	0.000213	0.00018117	255.75	3.6965e-06	2.3988e-06	396.39	101.99	4.084e-06	1.4797e-06	194.12	102.91	53.438	31.375	4.1047e-06	62.333	0.00045747	0.0004544	0.00012625	341.72	4.9432e-06	4.9354e-06	449.72	116.49	4.9377e-06	4.893e-06	216.89	113.48	61.53	34.426	4.8968e-06	67.334	198.337	-110.148	-47.722	-122.897	55.611	-21.038	-123.924	-119.014	-50.056	-3.333	-120.068	-117.057	-117.160	-112.690	-96.348	-114.064	-8191	255	
2357.604	1	1	0	0	0.12385	0.10151	0.27897	0.14169	0.18934	0.11663	0.3704	0.099663	0.23052	0.040841	0.28272	0.1296	0.10263	0.21919	0.0038341	0.14539	-2.2292	-2.9021	-2.6021	-2.7333	-2.8937	-2.6312	-2.8875	-2.775	-2.5896	-2.8729	-2.9562	-2.8625	-2.8375	-2.6083	-2.8438	-3.2042	112.075	-117.541	43.429	30.680	184.499	89.694	219.222	178.675	21.127	-136.521	100.124	151.762	197.454	-55.776	193.916	218.506	0.00042789	0.00036056	0.00014038	256.82	8.265e-07	5.3287e-06	393.36	102.2	3.5091e-06	5.0827e-06	194.28	103.05	53.188	31.406	2.2496e-06	62.41	0.0004523	0.00044634	0.00012521	341.05	4.9572e-06	4.9971e-06	449.6	116.58	4.9562e-06	4.9737e-06	217.53	113.5	61.532	34.397	4.9367e-06	67.269	198.587	-39.003	-48.519	-122.970	28.966	-28.495	-124.044	-119.063	-39.640	60.240	-120.228	-117.245	-117.082	-112.530	-113.643	-114.113	-8191	255	
2357.700	1	1	0	0	0.051089	0.11038	0.10704	0.19117	0.070888	0.16083	0.13248	0.20495	0.14535	0.15788	0.11526	0.1986	0.10612	0.26535	0.089074	0.0071331	-2.1208	-2.7667	-2.7562	-2.7146	-3.1063	-2.8292	-2.8438	-3.0146	-2.5563	-2.9479	-2.7292	-2.7458	-2.9271	-2.7146	-2.9479	-3.05	-85.353	144.317	16.773	191.886	62.781	0.228	111.588	73.049	-70.992	173.747	-41.156	73.214	220.258	178.889	-68.763	-19.949	0.00045269	0.00023187	9.4595e-05	255.14	1.9659e-06	5.8286e-06	394.88	101.78	6.896e-07	2.1807e-06	193.09	102.66	53.093	31.298	1.4883e-06	62.004	0.00045714	0.0004514	0.00012578	339.95	4.9412e-06	4.9369e-06	448.55	116.48	4.9447e-06	4.9495e-06	216.48	113.04	61.493	34.31	5.0032e-06	66.95	198.440	-41.751	-123.644	-122.640	39.346	-47.216	-123.983	-118.804	-40.853	23.767	-120.245	-117.059	-116.923	-112.686	3.844	-114.100	-8191	255	
2357.796	1	1	0	0	0.23589	0.2031	0.10656	0.12437	0.14409	0.19457	0.15348	0.066334	0.13403	0.069153	0.061358	0.10979	0.3143	0.16073	0.24835	0.20594	-2.1417	-2.9083	-2.7458	-2.5229	-2.8104	-2.5312	-2.9083	-2.9833	-2.675	-2.7396	-2.9583	-2.6813	-3.0833	-2.7604	-2.8521	-2.8646	-90.582	5.489	204.731	188.005	-23.021	-17.819	-62.076	-111.791	192.754	160.323	52.415	-7.246	118.349	117.988	88.461	107.295	0.00043069	0.00019303	6.6662e-05	255.42	3.3017e-06	7.6022e-06	394.5	101.45	5.7726e-06	1.0887e-06	192.95	102.76	53.167	31.384	2.5192e-06	61.901	0.00046328	0.00045698	0.00012779	341.41	4.949e-06	4.9724e-06	448.52	116.14	4.9469e-06	4.9461e-06	216.4	113.05	61.448	34.32	4.9797e-06	66.957	198.361	-55.852	-101.229	-122.946	-38.854	16.755	-123.847	-119.073	-7.057	-85.593	-120.667	-117.083	-116.898	-112.700	88.536	-114.116	-8191	255	
2357.917	1	1	0	0	0.1678	0.23085	0.27694	0.14389	0.1855	0.065889	0.19671	0.24625	0.18109	0.10482	0.067343	0.14274	0.073761	0.11415	0.19822	0.053905	-2.075	-2.8396	-2.7479	-2.4979	-3.0104	-2.7958	-2.7521	-2.9333	-2.6271	-3.0563	-2.95	-2.8896	-2.8063	-2.8667	-2.7729	-3.2729	101.021	-135.675	126.446	84.399	-80.556	33.439	-22.869	158.041	117.110	164.417	192.770	213.426	58.543	22.702	-49.167	-1.543	0.000446	0.00027339	3.4747e-06	257.91	1.8354e-06	4.6655e-06	396.03	101.67	3.081e-06	6.0727e-06	193.4	102.68	53.114	31.231	3.048e-06	62.452	0.00046239	0.00045278	0.00012568	341.73	4.972e-06	4.9613e-06	448.83	116.2	4.936e-06	4.9463e-06	216.74	113.03	61.378	34.254	4.8345e-06	67.169	199.361	-52.456	183.126	-123.315	70.333	-15.870	-123.624	-118.888	-1.627	14.109	-120.106	-117.002	-117.200	-112.431	-121.202	-113.961	-8191	255	
2358.011	1	1	0	0	0.19181	0.090969	0.26316	0.14519	0.237	0.088854	0.19496	0.11544	0.13066	0.27783	0.075422	0.23821	0.07883	0.022804	0.05557	0.1446	-2.3063	-2.9938	-2.9958	-2.5125	-2.9	-2.8396	-2.6312	-2.8229	-2.675	-2.7625	-3.05	-2.675	-2.9333	-2.8167	-2.8354	-3.0792	75.146	-57.826	71.792	-56.022	147.083	57.449	203.299	-100.673	91.231	101.586	120.157	-67.522	128.954	-72.597	101.646	-126.940	0.00040614	0.0001397	4.757e-05	256.46	3.8762e-06	3.8238e-06	396.11	101.67	4.1781e-06	4.5853e-06	193.76	102.78	53.335	31.335	3.81e-06	62.423	0.00044617	0.00043774	0.00012229	338.19	4.8349e-06	4.8111e-06	448.74	115.91	4.8218e-06	4.8145e-06	216.41	113.11	61.322	34.253	4.8317e-06	67.199	194.619	-98.304	30.857	-123.058	-43.999	-7.786	-124.050	-118.929	-32.933	-10.836	-120.305	-117.107	-117.272	-112.522	16.548	-114.051	-8191	255	
2358.107	1	1	0	0	0.19017	0.079702	0.0381	0.10252	0.24159	0.12173	0.18733	0.15429	0.068496	0.32075	0.068864	0.37528	0.19663	0.09036	0.34094	0.14027	-2.35	-2.8292	-3.0417	-2.575	-2.9437	-2.7604	-2.6583	-2.9875	-2.8396	-2.9396	-2.9125	-2.7667	-2.8312	-2.8083	-2.7667	-3.0833	-56.188	-128.326	-117.885	4.506	159.847	77.014	-61.672	-116.628	-11.050	27.947	218.175	199.020	115.171	-99.619	203.789	69.318	0.00040264	0.00021934	3.7878e-05	255.11	3.7124e-06	1.7661e-06	396.99	101.96	2.3913e-06	1.8435e-06	193.28	102.33	52.949	31.24	2.2893e-06	62.035	0.00044558	0.00044098	0.00012367	340.18	4.8731e-06	4.8505e-06	450.49	115.78	4.8347e-06	4.8408e-06	216.05	113.05	61.18	34.256	4.8552e-06	67.015	199.091	46.758	38.373	-123.327	-11.284	222.043	-123.621	-118.891	-37.667	-22.180	-120.518	-116.908	-117.038	-112.556	-41.834	-113.868	-8191	255	
2358.179	1	1	0	0	0.14422	0.14502	0.20829	0.074045	0.059472	0.25597	0.045489	0.107	0.093119	0.11728	0.038917	0.19897	0.12369	0.088073	0.16213	0.12387	-2.3271	-2.7313	-3.0458	-2.6771	-2.9458	-2.85	-2.5271	-3.0583	-2.725	-2.8542	-2.9813	-2.9188	-2.9542	-2.9229	-2.7417	-2.9792	24.253	84.936	-6.301	81.282	-109.713	-109.803	-43.165	208.530	215.004	-46.226	-22.541	-125.158	115.049	215.626	201.135	-75.499	0.00044007	0.00025439	5.8073e-05	256.05	5.1523e-06	2.9164e-06	396.91	101.63	3.5572e-06	2.4175e-06	192.65	102.51	52.96	31.172	4.3047e-06	62.152	0.00044629	0.00044059	0.00012434	341.15	4.8642e-06	4.8811e-06	449.7	115.95	4.8523e-06	4.8647e-06	216.21	113.06	61.235	34.251	4.9367e-06	67.016	193.989	-24.000	-54.814	-122.927	-56.030	29.626	-123.740	-118.834	-54.068	10.429	-120.341	-117.179	-117.187	-112.652	22.495	-113.913	-8191	255	
2358.277	1	1	0	0	0.019885	0.11314	0.18671	0.32908	0.14552	0.14502	0.18828	0.18398	0.12034	0.15528	0.17775	0.084558	0.095221	0.27442	0.23157	0.091715	-2.3563	-2.625	-2.8375	-2.6625	-2.9021	-2.8167	-2.725	-2.8104	-2.8021	-2.6792	-3.1396	-2.8375	-2.8229	-3.125	-2.5687	-3.0833	-74.584	189.063	63.969	-122.522	23.501	74.340	-126.130	100.222	36.539	-66.279	198.358	-9.686	217.135	189.755	-52.273	-124.955	0.00041979	0.00041108	2.4618e-05	257.47	4.6057e-06	1.7803e-06	398.34	101.53	4.2299e-06	3.8459e-06	193.65	102.47	53.334	31.276	1.3806e-06	62.179	0.0004493	0.00044774	0.00012603	341.22	4.9201e-06	4.9621e-06	450.05	115.97	4.9106e-06	4.9105e-06	216.51	112.96	61.284	34.261	4.8015e-06	67.008	196.612	71.768	-107.627	-122.941	-38.813	21.604	-124.049	-119.190	-13.296	-5.296	-120.136	-117.153	-116.882	-112.578	10.992	-113.972	-8191	255	
2358.396	1	1	0	0	0.15031	0.028539	0.16896	0.11885	0.04475	0.12011	0.29352	0.32044	0.2228	0.049625	0.10549	0.16048	0.046074	0.10158	0.20963	0.10887	-2.5167	-2.5583	-2.8354	-2.7583	-2.8521	-3.0958	-2.6396	-2.8042	-3.0938	-2.6104	-3.1521	-2.6792	-2.7438	-2.8292	-2.7167	-3.0771	167.613	41.398	78.814	-48.013	203.918	160.893	82.952	164.559	30.414	-116.589	-100.021	-126.772	-92.552	-52.600	91.447	20.050	0.0004675	0.00049318	0.00011737	255.36	2.3511e-06	2.5813e-06	394.95	101.19	3.9102e-06	2.3723e-06	192.96	103.06	53.057	31.194	4.3085e-06	62.369	0.00044288	0.00043914	0.00012282	338.86	4.8058e-06	4.825e-06	449.08	115.56	4.8226e-06	4.86e-06	216.23	113.23	61.151	34.218	4.7952e-06	67.203	201.097	-75.765	-44.055	-123.008	0.382	95.384	-123.845	-118.883	0.699	-76.538	-120.242	-117.102	-117.049	-112.609	-21.714	-113.897	-8191	255	
2358.492	1	1	0	0	0.14565	0.11815	0.08753	0.23908	0.28804	0.098857	0.24507	0.24155	0.046763	0.12899	0.058212	0.30661	0.24089	0.10345	0.18271	0.015288	-2.4938	-2.6208	-2.9437	-2.7521	-2.8	-3.0146	-2.625	-2.7875	-3.0229	-2.6542	-2.9979	-2.7104	-2.7646	-2.9458	-2.6479	-2.8563	166.376	185.586	-23.522	-38.956	-80.097	-7.865	-136.030	197.317	-106.163	-20.144	-113.951	182.169	-95.654	-75.775	22.607	-40.324	0.0003774	0.00063199	0.000127	254.33	2.5213e-06	5.808e-06	398.13	101.51	3.3807e-06	5.7753e-06	194.15	102.76	53.101	31.231	6.1265e-06	62.301	0.00043784	0.00043726	0.00012102	337.96	4.8104e-06	4.8426e-06	450.74	115.78	4.874e-06	4.8834e-06	216.73	113.23	61.22	34.198	4.8496e-06	67.112	197.484	11.947	30.650	-123.453	202.378	6.743	-123.943	-118.640	-44.645	29.983	-120.244	-116.930	-117.018	-112.640	-27.872	-113.891	-8191	255	
2358.588	1	1	0	0	0.26835	0.23872	0.055995	0.25109	0.041675	0.15336	0.12204	0.21827	0.18755	0.073678	0.37672	0.15715	0.073849	0.33838	0.053091	0.078038	-2.5042	-2.7083	-2.8167	-2.6312	-2.7062	-2.8583	-2.6917	-2.7208	-2.8208	-2.7458	-3.1229	-2.9813	-2.4729	-3.0854	-2.6458	-2.9146	16.844	22.205	-136.545	185.649	-79.449	47.169	161.218	3.626	-106.930	-70.851	-114.158	137.825	-115.573	187.312	-97.284	-51.267	0.0004233	0.00051394	0.00020823	253.49	1.0071e-06	2.1179e-06	397.96	101.25	2.271e-06	4.0577e-06	193.09	102.14	53.265	31.048	1.6177e-06	61.865	0.00044533	0.00044036	0.00012263	338.12	4.8317e-06	4.8122e-06	448.8	115.19	4.7728e-06	4.8466e-06	215.68	112.61	61.093	34.06	4.8745e-06	66.748	199.353	-33.635	-47.940	-123.169	83.385	109.383	-123.780	-118.920	-10.351	34.650	-120.079	-117.149	-117.135	-112.606	221.075	-114.101	-8191	255	
2358.709	1	1	0	0	0.049477	0.19523	0.052901	0.17949	0.13323	0.14023	0.29071	0.085409	0.21659	0.22851	0.096203	0.094222	0.20394	0.10011	0.2104	0.174	-2.6292	-2.5062	-2.7979	-2.8708	-2.6	-2.875	-2.6167	-2.7771	-2.9625	-2.6646	-2.7646	-2.9333	-2.6333	-2.9208	-2.6937	-2.7771	112.920	91.480	-90.086	83.506	-63.171	84.621	35.158	128.221	-77.635	88.171	162.503	-85.085	147.094	151.439	186.484	199.369	0.00045164	0.00018032	9.7656e-05	251.72	1.7724e-06	2.8158e-06	396.6	101.19	1.3362e-06	3.0133e-06	193.7	101.92	53.193	31.205	4.1162e-06	62	0.00044607	0.00044394	0.00012384	338.32	4.8759e-06	4.8842e-06	449.14	115.39	4.8772e-06	4.9186e-06	216.25	112.8	61.338	34.202	4.9289e-06	66.918	197.684	-66.565	-86.172	-122.763	-14.363	5.044	-123.815	-118.782	17.454	-68.717	-120.273	-117.134	-117.176	-112.589	26.594	-114.035	-8191	255	
2358.780	1	1	0	0	0.20215	0.12282	0.24582	0.33742	0.12306	0.1458	0.098086	0.20313	0.11864	0.080359	0.12695	0.21518	0.11449	0.14507	0.12864	0.32539	-2.5583	-2.6667	-2.9062	-2.8146	-2.5958	-2.9688	-2.8667	-2.6896	-2.8792	-2.8167	-2.7417	-2.9771	-2.5917	-2.9188	-2.8271	-2.7333	214.673	-125.721	-114.624	123.678	5.223	-14.636	-109.458	-71.323	151.649	137.266	68.693	-63.939	23.941	204.542	217.060	121.156	0.00041667	0.00052579	4.0167e-05	256.75	4.3891e-06	4.2286e-06	397.84	101.73	2.8083e-06	4.1667e-06	193.14	102.37	53.025	31.247	1.4006e-06	62.027	0.00045257	0.00045047	0.00012517	340.37	4.9329e-06	4.9587e-06	450.8	115.96	4.9633e-06	5.0316e-06	216.94	113.35	61.438	34.267	5.0186e-06	67.122	197.532	-29.918	-39.323	-123.117	34.653	81.769	-123.795	-118.680	-74.430	7.519	-119.994	-117.254	-117.322	-112.543	36.767	-114.104	-8191	255	
2358.876	1	1	0	0	0.19863	0.33728	0.222	0.13861	0.13136	0.18638	0.17325	0.1287	0.15385	0.21367	0.27359	0.3054	0.030392	0.12974	0.14086	0.26975	-2.475	-2.6625	-2.975	-3.0229	-2.6688	-2.9854	-2.8729	-2.5542	-2.8438	-2.8396	-2.6604	-2.9729	-2.6937	-2.9667	-2.8833	-2.6958	46.194	89.670	17.709	-124.261	153.632	-82.209	-126.177	-31.143	151.540	69.226	80.681	-104.270	-5.712	-130.249	164.318	-126.774	0.00040766	0.00020212	9.2178e-05	257.45	2.2837e-06	3.6056e-06	398.41	101.97	1.5815e-06	2.5627e-06	194.56	103.05	53.366	31.173	2.5301e-06	62.522	0.00045982	0.00045259	0.0001257	341.51	4.884e-06	4.8615e-06	450.86	115.97	4.9128e-06	4.9503e-06	217.06	113.53	61.617	34.292	5.0396e-06	67.404	196.739	-74.396	-14.800	-122.933	-28.005	24.330	-124.051	-118.884	7.097	15.260	-120.064	-116.930	-117.045	-112.948	-6.512	-113.982	-8191	255	
2358.997	1	1	0	0	0.14599	0.077353	0.22907	0.2156	0.17826	0.20058	0.12988	0.1626	0.17454	0.14148	0.10357	0.17194	0.19225	0.17314	0.12026	0.057283	-2.5521	-2.8646	-2.4729	-2.7604	-2.7333	-2.975	-3.0604	-2.5917	-3.0271	-2.7417	-2.65	-2.9958	-2.5812	-2.8937	-2.925	-2.5521	-117.913	83.016	-118.288	-75.837	215.343	43.175	-71.194	186.359	168.431	-105.894	176.547	126.509	-128.031	145.177	207.511	-113.722	0.00044356	0.00027498	0.00010602	255.85	4.7786e-06	6.5477e-06	398.37	101.58	3.002e-06	5.0424e-06	193.39	102.28	52.906	31.252	1.5941e-06	62.136	0.00046332	0.00045133	0.000126	342.66	4.9761e-06	4.906e-06	451.16	115.85	4.9669e-06	4.9477e-06	216.62	113.23	61.294	34.32	4.9775e-06	67.201	197.727	7.325	-96.601	-122.310	-34.860	1.072	-124.096	-118.889	-34.757	-21.086	-120.464	-116.933	-116.996	-112.668	10.342	-113.878	-8191	255	
2359.091	1	1	0	0	0.23025	0.17607	0.16866	0.15588	0.17842	0.049095	0.41054	0.15394	0.063337	0.058529	0.042682	0.18506	0.14361	0.41054	0.19688	0.13044	-2.6375	-2.5979	-2.4708	-2.7542	-2.7771	-2.6708	-3.0396	-2.7646	-2.825	-2.7521	-2.7521	-2.9417	-2.8146	-2.7521	-2.9729	-2.6021	8.333	-31.057	221.338	-0.704	82.403	42.106	141.190	-86.371	-22.630	201.766	-131.009	196.058	134.998	124.682	2.053	-5.999	0.00043688	0.00033962	1.8879e-05	256.68	1.9216e-06	3.1587e-06	398.19	101.82	1.4507e-06	1.6384e-06	193.09	102.32	53.041	31.229	1.5247e-06	62.217	0.00045915	0.00045199	0.00012633	342.46	4.9696e-06	4.932e-06	451.06	116	4.9193e-06	4.9311e-06	216.46	112.79	61.324	34.262	4.9827e-06	67.096	199.633	-29.099	-64.327	-122.784	64.015	-118.048	-123.897	-118.834	-64.503	-2.458	-120.247	-117.314	-117.140	-112.537	-101.288	-113.976	-8191	255	
2359.188	1	1	0	0	0.12957	0.36947	0.27886	0.38637	0.058243	0.10373	0.116	0.33484	0.27241	0.069757	0.20193	0.19915	0.2967	0.21207	0.17489	0.025291	-2.4604	-3.0146	-2.4521	-2.9354	-2.6437	-2.7354	-3.0167	-2.7542	-2.8125	-2.9375	-2.6792	-3.1708	-2.7938	-2.7771	-3.0458	-2.9354	57.291	43.626	-31.534	-16.698	134.299	-42.035	-120.235	174.335	166.975	23.741	-90.024	-68.489	131.082	-114.891	-86.627	100.624	0.00046312	0.0003423	3.7785e-05	256.1	2.2278e-06	3.941e-06	397.88	101.52	1.1128e-06	3.7679e-06	193.36	102.4	53.3	31.147	3.7078e-06	62.111	0.00045799	0.00044749	0.00012494	342.44	4.8924e-06	4.8293e-06	450.85	115.64	4.7753e-06	4.7809e-06	215.62	112.54	61.123	34.167	4.8246e-06	66.99	200.345	-57.602	-40.648	-122.822	-53.876	15.841	-123.612	-118.884	-10.789	-0.719	-120.219	-117.089	-117.334	-112.623	36.802	-113.973	-8191	255	
2359.284	1	1	0	0	0.22642	0.17376	0.097095	0.13093	0.096236	0.21967	0.15954	0.075166	0.033326	0.06479	0.099162	0.22424	0.12121	0.20565	0.0863	0.2763	-2.475	-2.8771	-2.6125	-2.9354	-2.7625	-2.7521	-2.9396	-2.8083	-2.8583	-2.9917	-2.6521	-3.0583	-2.7333	-2.7229	-3.1562	-2.7542	-95.758	171.204	-31.015	163.269	-13.549	85.114	-101.145	100.545	-38.899	38.860	-72.032	148.476	61.492	162.488	150.231	186.511	0.0004372	0.00030823	0.00014788	257.91	3.5633e-06	5.4294e-06	399.43	102.03	1.27e-06	3.9857e-06	193.64	102.26	53.029	31.333	2.1087e-06	62.288	0.00044144	0.00043794	0.00012081	340.05	4.7474e-06	4.7493e-06	452.11	115.88	4.6963e-06	4.7033e-06	216.38	112.63	61.104	34.254	4.767e-06	67.102	201.700	-73.073	-74.355	-123.361	-28.585	1.368	-123.890	-118.880	62.234	72.688	-120.216	-117.049	-117.187	-112.705	57.804	-113.909	-8191	255	
2359.404	1	1	0	0	0.12601	0.2151	0.30121	0.088418	0.22598	0.066136	0.10091	0.1093	0.17539	0.22112	0.14352	0.033492	0.14954	0.28266	0.30058	0.44586	-2.3375	-2.8208	-2.5333	-2.8875	-2.7021	-2.7417	-3.0833	-2.6875	-2.7125	-2.8187	-2.6792	-2.8667	-2.7417	-2.725	-3.0167	-2.7875	48.756	29.068	-75.126	175.212	-19.610	-75.465	-116.058	22.385	-11.892	-47.723	197.067	-121.611	117.531	193.362	-35.104	-78.737	0.00044946	0.00051548	0.00010285	257.69	1.39e-06	3.3969e-06	401.01	101.98	4.8612e-07	2.7585e-06	193.99	102.73	53.006	31.332	2.2503e-06	62.372	0.00043681	0.00043166	0.00012011	340.07	4.6795e-06	4.6455e-06	452.98	115.76	4.6373e-06	4.6448e-06	216.37	113.05	61.06	34.291	4.6908e-06	67.236	193.935	-7.115	-71.235	-123.470	-26.258	37.422	-123.987	-118.937	2.289	-21.217	-120.016	-117.125	-117.000	-112.705	-11.484	-113.909	-8191	255	
2359.476	1	1	0	0	0.29387	0.11722	0.27987	0.20329	0.23321	0.19456	0.059146	0.18609	0.18894	0.086387	0.22092	0.41835	0.085169	0.13263	0.12588	0.11275	-2.2812	-2.8458	-2.5729	-2.8646	-2.7271	-2.6542	-2.9792	-2.6312	-2.7562	-3.0375	-2.6292	-2.7313	-3.0667	-2.8333	-2.8979	-3.0125	-14.232	36.542	221.207	-133.083	-2.564	137.978	101.537	160.983	145.494	-34.000	107.536	148.314	136.136	148.077	-87.854	-20.433	0.00044051	0.00038071	0.00011074	258.72	3.7611e-06	2.5096e-06	400.15	101.68	4.5746e-06	3.4219e-06	193.4	102.44	53.012	31.201	5.5313e-06	62.111	0.00043502	0.00043218	0.00012027	339.95	4.6811e-06	4.7142e-06	452.02	115.76	4.6637e-06	4.6774e-06	215.7	112.56	61.015	34.183	4.7273e-06	66.978	193.200	-13.507	19.737	-122.331	109.927	-68.459	-123.940	-119.075	-28.039	-0.294	-120.249	-117.196	-117.273	-112.657	-61.317	-114.023	-8191	255	
2359.597	1	1	0	0	0.14292	0.08363	0.27614	0.25442	0.23539	0.13753	0.20099	0.36452	0.18825	0.35878	0.09032	0.30119	0.089958	0.13045	0.051305	0.33498	-2.2125	-2.8542	-2.5187	-2.8312	-2.6792	-2.5438	-2.9958	-2.7875	-2.6458	-2.9375	-2.7875	-2.875	-2.875	-2.7896	-3.1854	-2.9583	-21.544	48.115	-126.441	67.262	180.399	-17.658	-134.197	68.063	197.699	95.293	185.832	211.787	-135.495	222.835	205.284	169.901	0.00042497	0.00065541	4.2855e-05	257.97	1.3242e-06	4.9724e-06	401.33	101.9	2.402e-06	2.7196e-06	194.29	102.51	52.992	31.141	2.9575e-06	62.161	0.00043617	0.00042888	0.00012066	338.22	4.713e-06	4.6962e-06	451.88	115.6	4.649e-06	4.6404e-06	215.68	112.24	60.808	34.124	4.6552e-06	66.83	195.940	-38.508	-29.488	-123.048	51.641	-12.438	-124.057	-118.883	-29.486	85.821	-120.233	-117.060	-117.360	-112.717	57.389	-114.063	-8191	255	
2359.693	1	1	0	0	0.2829	0.0042968	0.1024	0.22209	0.24538	0.10438	0.056051	0.090289	0.13551	0.20238	0.40235	0.38597	0.24271	0.010326	0.046588	0.063305	-2.2042	-3.0125	-2.5021	-2.6917	-2.9167	-2.6646	-3.0187	-2.9188	-2.6333	-2.8812	-2.7	-2.7604	-2.9062	-2.5021	-2.8792	-2.9667	10.932	-33.414	-92.237	-100.924	76.594	13.627	116.401	6.307	145.601	22.205	173.805	138.460	130.882	80.932	-42.321	-110.262	0.0004604	0.00029364	2.4094e-05	257.78	4.0392e-06	6.0244e-06	401.53	101.83	1.8844e-06	4.3197e-06	192.88	102.44	53.058	31.205	2.5945e-06	62.297	0.00042871	0.00042654	0.00011809	337.36	4.62e-06	4.6431e-06	451.31	115.48	4.6433e-06	4.6536e-06	215.55	112.49	61.07	34.229	4.6741e-06	67.113	192.963	-27.866	167.553	-122.630	4.920	-2.839	-123.839	-118.959	-27.483	-10.911	-120.408	-116.810	-117.308	-112.722	67.250	-114.080	-8191	255	
2359.789	1	1	0	0	0.067866	0.033645	0.20378	0.19615	0.15207	0.25351	0.21491	0.24897	0.19545	0.059352	0.35537	0.053583	0.067946	0.20718	0.091821	0.20533	-2.0667	-2.8229	-2.5854	-2.6667	-2.9167	-2.5938	-2.8917	-2.9313	-2.7208	-2.7396	-2.85	-2.8854	-3.0375	-2.9792	-2.5938	-2.8979	205.927	118.613	67.977	201.497	-28.128	207.082	121.450	-101.232	58.159	164.428	165.421	116.475	-97.075	-97.932	13.866	174.580	0.00046158	0.00017053	1.1449e-05	255.7	1.71e-06	1.4268e-06	400.05	101.43	1.0502e-06	7.6208e-07	193.53	102.45	53.07	31.112	5.0334e-06	62.51	0.00043422	0.00042771	0.0001193	337.33	4.661e-06	4.6642e-06	450.77	115.42	4.6271e-06	4.6427e-06	215.47	112.39	60.897	34.137	4.6379e-06	67.125	197.310	-73.353	-69.167	-123.090	6.132	152.384	-123.940	-119.172	-4.540	177.979	-120.337	-116.961	-116.969	-112.564	-28.708	-113.917	-8191	255	
2359.883	1	1	0	0	0.11857	0.27428	0.26382	0.10262	0.071565	0.12544	0.08179	0.27902	0.20013	0.2367	0.10242	0.16876	0.19476	0.13673	0.16447	0.22779	-2.1771	-2.875	-2.7583	-2.8354	-3	-2.6292	-2.9292	-3	-2.5375	-2.9813	-2.9083	-2.7938	-2.8896	-2.8583	-2.7417	-2.8604	143.987	-6.376	74.457	-86.174	-102.545	90.431	45.135	-120.225	61.871	159.122	-52.363	102.807	170.995	-128.629	-41.869	103.661	0.00047076	0.00057767	0.00011836	255.61	4.4727e-06	2.5598e-06	397.39	101.24	2.2145e-06	2.5642e-06	192.27	102.16	53.119	31.108	3.0205e-06	62.089	0.00043145	0.00042368	0.00011743	336.92	4.6334e-06	4.6491e-06	450.59	115.27	4.6978e-06	4.6572e-06	215.23	112.42	60.986	34.084	4.7481e-06	66.903	198.989	-10.370	-78.389	-123.371	-10.929	-25.242	-123.798	-119.207	-2.476	-64.274	-120.339	-116.864	-117.335	-112.668	-46.613	-113.824	-8191	255	
2360.004	1	1	0	0	0.28217	0.13133	0.16601	0.078317	0.15243	0.2192	0.25414	0.19725	0.10592	0.21716	0.22661	0.19587	0.068617	0.1544	0.084334	0.25047	-2.2083	-2.8187	-2.9188	-2.6792	-2.8375	-2.7729	-2.8375	-2.9208	-2.6521	-3.0396	-2.6896	-2.7354	-2.9417	-2.7354	-2.6646	-2.9062	-53.651	203.023	85.429	199.684	-98.688	125.068	107.230	152.144	181.325	-79.791	154.383	-113.515	65.526	29.429	71.586	218.456	0.00042128	0.00032388	4.0512e-05	252.56	1.2299e-06	1.1743e-06	399.2	101.04	5.0037e-06	1.1504e-06	192.36	101.93	52.869	30.977	4.1386e-06	61.733	0.00044158	0.00043353	0.00012063	338.99	4.7521e-06	4.7706e-06	451.87	115.17	4.7862e-06	4.811e-06	214.87	112.07	60.841	33.998	4.7672e-06	66.612	200.442	14.468	38.479	-122.681	181.568	-113.215	-123.942	-119.142	-2.495	71.898	-120.366	-117.153	-117.048	-112.724	12.941	-114.035	-8191	255	
2360.076	1	1	0	0	0.12875	0.16884	0.14971	0.12821	0.28223	0.1474	0.29475	0.17653	0.10521	0.15066	0.34185	0.20178	0.11041	0.071894	0.2857	0.35299	-2.1583	-2.7958	-2.7875	-2.7875	-2.9979	-3.0042	-2.8833	-3.1208	-2.6604	-2.7875	-2.8229	-2.7771	-2.9333	-2.8542	-2.7	-2.975	-75.006	208.133	-47.146	113.578	62.553	110.703	182.267	80.958	107.285	219.329	78.619	136.859	5.945	130.830	188.366	130.182	0.00047585	0.00054281	6.4231e-05	256.93	3.3224e-06	2.026e-06	397.55	100.8	5.7287e-06	6.6809e-07	192.64	102.42	52.949	31.128	3.7696e-06	62.043	0.00043775	0.00043202	0.00011991	338.64	4.7024e-06	4.6853e-06	449.74	114.94	4.647e-06	4.6834e-06	214.75	112.03	60.592	33.953	4.6427e-06	66.733	197.799	-31.602	-28.865	-123.363	38.456	-43.632	-123.815	-118.946	-34.480	-26.926	-120.385	-116.996	-117.144	-112.705	12.645	-114.146	-8191	255	
2360.172	1	1	0	0	0.10816	0.22437	0.053186	0.26843	0.20307	0.033771	0.09338	0.32881	0.13027	0.29679	0.13989	0.24816	0.11966	0.16542	0.14093	0.083075	-2.25	-2.7792	-2.9	-2.4417	-2.9146	-3.025	-2.6646	-2.8667	-2.5896	-2.7271	-3.025	-2.7708	-2.875	-2.9375	-2.7646	-2.9854	58.805	34.809	211.694	-102.862	23.547	-20.475	185.534	75.524	206.416	220.819	-107.128	-98.453	128.320	76.465	73.173	97.229	0.00040418	0.00054998	7.972e-05	256.23	7.7783e-07	4.1449e-06	398.63	101.25	1.2966e-06	3.3784e-06	193.69	102.53	52.685	31.183	4.0771e-06	62.26	0.00042781	0.00042064	0.00011727	336.76	4.5744e-06	4.5328e-06	449.82	114.81	4.5438e-06	4.4784e-06	214.66	112.27	60.216	34.042	4.3902e-06	66.895	196.326	-47.931	-43.331	-123.486	-54.250	-26.573	-123.838	-118.935	59.331	-19.541	-120.053	-117.004	-117.335	-112.786	-13.365	-114.021	-8191	255	
2360.268	1	1	0	0	0.22956	0.039909	0.18344	0.086403	0.18359	0.1131	0.18855	0.22366	0.1502	0.10025	0.10915	0.18046	0.23282	0.22241	0.24301	0.26799	-2.3375	-2.6854	-2.8979	-2.7667	-2.8958	-2.9771	-2.875	-2.875	-2.7104	-2.7292	-2.9271	-2.9146	-2.8646	-2.9646	-2.5312	-3.1917	169.870	-43.477	-110.134	-50.071	138.574	171.073	144.288	191.198	-102.328	-74.472	154.545	153.739	212.669	163.905	-130.847	167.152	0.0004269	0.00013586	2.8718e-05	257.13	2.8303e-06	2.7894e-06	399.24	101.08	3.3492e-06	2.7539e-06	193.94	102.82	53.232	31.306	1.4957e-06	62.416	0.0003992	0.00038829	0.00010854	330.06	4.2392e-06	4.2792e-06	446.73	114.54	4.3524e-06	4.3837e-06	214.9	112.54	60.662	34.263	4.4346e-06	67.216	199.046	-52.819	-11.141	-123.052	81.727	59.133	-123.870	-118.700	-87.057	-51.911	-120.299	-116.919	-116.802	-112.690	-42.571	-113.931	-8191	255	
2360.364	1	1	0	0	0.26637	0.078053	0.070361	0.14867	0.17432	0.13017	0.30385	0.21862	0.14925	0.050987	0.04956	0.18715	0.14747	0.10437	0.18849	0.059228	-2.4604	-2.65	-2.9062	-2.5479	-2.9979	-2.9542	-2.7917	-2.9333	-2.7896	-2.7062	-2.825	-2.7333	-2.7708	-3.1	-2.6729	-3.0062	85.366	126.280	189.148	-91.654	216.763	-57.226	81.797	-128.745	-52.748	214.846	-23.765	183.959	167.766	92.835	150.615	209.377	0.0004631	0.00037934	0.0001905	254.52	2.5004e-06	3.3994e-06	397.37	100.83	4.6412e-06	1.3542e-06	194.04	102.55	52.98	31.152	1.4951e-06	62.161	0.00040705	0.0004019	0.00011245	331.54	4.3403e-06	4.3423e-06	446.81	114.35	4.2826e-06	4.3181e-06	214.43	112.08	60.287	34.028	4.328e-06	66.722	198.522	-90.836	-46.209	-122.613	0.165	60.545	-123.919	-118.944	-32.251	54.454	-120.314	-117.179	-116.886	-112.577	14.920	-114.007	-8191	255	
2360.485	1	1	0	0	0.36822	0.3131	0.23991	0.082071	0.26906	0.10102	0.038547	0.24284	0.15909	0.060115	0.14822	0.12426	0.26802	0.033081	0.14944	0.17969	-2.2667	-2.4396	-2.9208	-2.675	-2.7333	-2.8312	-2.6625	-2.9021	-2.85	-2.6479	-2.8708	-2.7646	-2.7354	-2.9417	-2.6021	-2.8417	199.102	-26.907	-117.342	208.863	-78.460	82.465	221.309	71.660	27.785	174.793	-113.547	145.288	-9.867	1.440	-117.104	-130.858	0.00046173	0.00031705	0.000119	253.43	4.3648e-06	2.3088e-06	395.62	100.86	1.621e-06	1.8912e-06	193.27	102.08	52.985	31.197	3.7088e-06	62.093	0.00039366	0.00038731	0.00010709	326.64	4.2052e-06	4.2422e-06	443.72	113.78	4.2437e-06	4.2472e-06	213.62	111.65	60.181	34.023	4.2013e-06	66.767	195.762	1.404	-124.476	-123.201	32.579	-75.783	-123.986	-118.840	-33.615	29.093	-120.034	-117.184	-116.673	-112.626	4.040	-114.109	-8191	255	
2360.581	1	1	0	0	0.075685	0.22782	0.32456	0.20519	0.060923	0.30348	0.18328	0.14274	0.27695	0.12121	0.17619	0.09404	0.039675	0.10928	0.13866	0.34719	-2.4146	-2.6937	-2.9542	-2.8021	-2.775	-3.0375	-2.6688	-2.6896	-2.8625	-2.6875	-2.9083	-2.8625	-2.6729	-3.1625	-2.6167	-2.8021	-71.522	128.901	-83.832	222.969	-28.474	104.126	-38.396	145.101	124.238	-63.991	-112.859	108.093	-127.568	168.623	47.435	95.544	0.00044445	0.00016809	6.9913e-05	253.06	2.1815e-06	3.9413e-06	396.45	100.7	2.5668e-06	1.7223e-06	192.21	102.35	52.978	31.311	1.5931e-06	62.356	0.00039072	0.00038091	0.0001053	324.79	4.1375e-06	4.1633e-06	444.64	113.8	4.1495e-06	4.2271e-06	213.57	112.05	60.316	34.121	4.2517e-06	66.911	193.313	-84.180	-26.250	-122.868	14.803	31.571	-123.985	-118.891	2.771	86.012	-119.999	-117.012	-117.296	-112.694	-37.950	-113.859	-8191	255	
2360.677	1	1	0	0	0.14079	0.11058	0.11206	0.067848	0.11278	0.065648	0.21058	0.28146	0.20395	0.030591	0.17583	0.26983	0.22892	0.078639	0.15366	0.14072	-2.4458	-2.6104	-2.85	-2.7604	-2.6333	-2.8563	-2.7375	-2.7438	-2.9229	-2.7646	-2.9896	-2.7229	-2.6437	-2.8667	-2.7708	-2.9208	-1.426	137.942	-120.026	200.583	4.314	129.490	126.147	54.365	-35.499	59.489	-32.144	188.127	7.160	61.607	-42.654	74.219	0.00045677	7.427e-05	3.1272e-05	256.15	3.3121e-06	3.9048e-06	397.42	100.69	2.0902e-06	1.6292e-06	192.76	102.76	53.03	31.316	2.6301e-06	62.431	0.00039749	0.00039201	0.00010891	328.06	4.2869e-06	4.2642e-06	445.34	113.92	4.2592e-06	4.2756e-06	214.02	112.41	60.316	34.146	4.2759e-06	66.95	201.380	-38.493	-38.774	-122.887	12.856	40.251	-123.846	-118.979	-61.288	19.893	-120.123	-117.132	-116.892	-112.548	-10.782	-113.892	-8191	255	
2360.773	1	1	0	0	0.10227	0.16784	0.33747	0.082479	0.21028	0.3614	0.10553	0.14323	0.11258	0.067912	0.22842	0.12292	0.19217	0.10957	0.13604	0.1722	-2.4833	-2.6292	-2.9021	-2.7146	-2.7146	-3.0917	-2.6708	-2.7458	-2.8312	-2.5333	-2.8708	-2.8937	-2.5354	-3.0583	-2.9354	-2.7938	173.172	58.853	45.822	199.712	166.838	71.119	194.289	168.559	116.812	-34.720	124.263	-50.910	103.248	-104.617	-96.114	164.490	0.000396	0.00041165	3.6239e-05	256.04	4.2867e-06	5.601e-06	398.98	101.22	9.3277e-07	4.1119e-06	192.35	102.47	53.018	31.34	1.7698e-06	62.368	0.00039863	0.00038859	0.00010817	327.04	4.254e-06	4.2857e-06	447.05	114.22	4.2575e-06	4.2826e-06	213.84	112.17	60.298	34.138	4.2521e-06	66.962	196.730	-74.009	221.448	-123.495	-23.083	-2.933	-123.809	-118.843	19.580	51.039	-120.401	-117.106	-116.856	-112.689	79.274	-113.909	-8191	255	
2360.869	1	1	0	0	0.28232	0.15125	0.096195	0.22599	0.25767	0.032796	0.19371	0.26847	0.12519	0.065578	0.20819	0.31163	0.16638	0.16263	0.27561	0.017765	-2.3896	-2.525	-2.6292	-2.7229	-2.4625	-3.0187	-2.8333	-2.7646	-2.9188	-2.6958	-2.9313	-2.9875	-2.6437	-2.95	-2.8125	-2.7792	219.602	-124.872	-43.751	71.582	146.627	-45.667	174.130	-127.216	-8.282	34.180	108.130	68.541	160.253	210.398	-110.253	-128.907	0.00043047	0.00011442	5.3113e-05	251.86	5.656e-07	3.2362e-06	394.9	101.47	2.4531e-06	3.1524e-06	193.5	102.43	53.111	31.309	2.1561e-06	62.257	0.00039358	0.00038552	0.00010671	326.97	4.2072e-06	4.2128e-06	444.94	114.2	4.1793e-06	4.1829e-06	213.73	112	60.176	34.109	4.2122e-06	66.851	198.038	-103.074	-102.350	-123.311	-104.382	3.323	-124.049	-119.111	-0.205	54.421	-120.140	-117.020	-117.236	-112.347	-0.706	-114.146	-8191	255	
2360.966	1	1	0	0	0.048709	0.034632	0.29778	0.17487	0.24196	0.34634	0.15649	0.1086	0.065202	0.25301	0.087528	0.26401	0.10352	0.15696	0.21116	0.15265	-2.4417	-2.5563	-2.6396	-2.9396	-2.5958	-2.9	-2.8458	-2.5875	-2.8396	-2.7583	-2.7021	-2.9854	-2.5563	-2.9042	-2.8542	-2.6479	-44.633	96.553	196.342	-11.734	131.122	-93.176	-84.650	202.873	-30.041	-103.522	31.512	198.990	-75.605	-104.331	60.202	95.112	0.00043845	0.00041694	0.00012811	259.11	3.1807e-06	1.6431e-06	398.07	101.28	2.8535e-06	3.1336e-06	193.03	102.29	53.191	31.153	2.5997e-06	62.04	0.00039607	0.00038439	0.00010748	328.56	4.2223e-06	4.2337e-06	445.89	114.42	4.1805e-06	4.1714e-06	213.78	111.73	60.184	33.983	4.2179e-06	66.604	195.610	-23.787	-64.613	-122.942	-25.430	26.369	-123.887	-118.782	-62.172	-17.157	-120.261	-117.081	-116.873	-112.675	-58.404	-114.020	-8191	255	
2361.084	1	1	0	0	0.06605	0.18553	0.10728	0.0033661	0.20924	0.18593	0.2457	0.11114	0.043777	0.1241	0.19354	0.095188	0.011881	0.10201	0.19362	0.088697	-2.5729	-2.5125	-2.5979	-2.9125	-2.4688	-3.0417	-2.8	-2.6458	-2.9375	-2.7562	-2.7792	-3.0729	-2.7812	-2.7917	-2.7062	-2.5875	-77.379	64.038	62.638	-82.140	127.479	174.333	-101.040	39.871	-74.119	-83.409	-94.052	-46.175	21.379	-107.144	6.874	179.952	0.00042489	0.00053651	0.0001387	253.01	6.1213e-06	5.669e-06	400.02	101.13	1.7055e-06	4.6315e-06	194.06	101.85	52.669	31.033	5.1389e-06	62.025	0.00038976	0.00037851	0.0001061	328.37	4.1555e-06	4.1358e-06	447.07	114.21	4.1141e-06	4.1823e-06	214.2	111.47	59.885	33.892	4.214e-06	66.667	203.746	1.710	-45.003	-123.504	2.779	58.593	-123.744	-118.635	-29.793	35.533	-120.149	-116.987	-116.952	-112.386	-2.915	-113.847	-8191	255	
2361.181	1	1	0	0	0.051123	0.17049	0.15497	0.13281	0.17646	0.082965	0.3243	0.01041	0.082423	0.17024	0.067329	0.44788	0.21771	0.21321	0.11166	0.35464	-2.4917	-2.6479	-2.5187	-2.95	-2.7521	-2.7667	-2.8958	-2.5958	-2.8438	-2.7167	-2.7792	-2.8708	-2.6188	-2.7687	-3.0687	-2.775	214.733	148.279	105.043	116.412	25.735	154.218	185.990	-89.200	148.414	-19.374	-0.288	-133.650	57.540	142.013	190.812	-122.964	0.0004288	0.00048906	0.00016288	256.05	1.1798e-06	9.537e-06	401.18	101.01	2.8221e-06	3.6776e-06	194.4	102.37	52.796	31.189	6.4184e-07	62.214	0.00039079	0.00037906	0.00010643	328.29	4.1788e-06	4.1941e-06	447.62	114.13	4.1374e-06	4.1502e-06	214.34	111.74	59.849	33.939	4.1921e-06	66.751	196.404	-16.235	-31.725	-122.934	44.881	0.080	-123.828	-118.939	-46.475	-53.058	-120.113	-117.099	-117.183	-112.557	51.454	-114.030	-8191	255	
2361.277	1	1	0	0	0.14045	0.23677	0.23661	0.19699	0.14746	0.05331	0.18529	0.29804	0.1669	0.038564	0.08819	0.39897	0.13286	0.12883	0.28177	0.10867	-2.3979	-2.7521	-2.5479	-3.0479	-2.8937	-2.8417	-2.9604	-2.8167	-2.9437	-2.9167	-2.5938	-3.1146	-2.8292	-2.8458	-2.9562	-2.8729	123.542	60.209	-124.692	135.300	148.719	192.875	33.225	209.073	98.948	188.503	214.658	188.738	-4.658	-78.368	75.368	136.121	0.00044691	0.00049062	0.00016352	252.87	9.5046e-07	1.4264e-06	399.4	101.18	4.2195e-06	1.6307e-06	192.57	101.83	52.871	31.156	2.2152e-06	61.91	0.00038914	0.00037947	0.00010641	327.05	4.1409e-06	4.176e-06	448.07	114.21	4.1662e-06	4.107e-06	213.74	111.43	59.713	33.913	4.1504e-06	66.531	197.980	-18.249	-64.599	-122.415	-57.780	210.161	-123.880	-118.917	-33.261	23.520	-120.074	-117.046	-117.130	-112.707	7.525	-113.957	-8191	255	
2361.373	1	1	0	0	0.12379	0.21694	0.023616	0.19748	0.16328	0.21708	0.2027	0.14744	0.16227	0.13779	0.1018	0.20256	0.035946	0.35429	0.16826	0.13947	-2.5	-2.8021	-2.575	-2.9229	-2.7667	-2.8104	-3.0396	-2.7812	-2.8187	-2.8229	-2.5062	-2.8688	-2.5896	-2.7771	-2.9062	-2.8333	-121.349	59.760	111.798	-75.184	173.151	-72.255	93.808	1.314	-89.280	139.557	-124.810	-109.680	126.787	-115.932	91.546	-119.761	0.00044819	0.00029847	5.526e-05	256	5.4288e-07	5.2157e-06	398.12	100.27	2.1281e-06	1.723e-06	193.14	101.76	52.531	31.092	2.3371e-06	61.792	0.00038177	0.00037624	0.00010446	326.77	4.0722e-06	4.0989e-06	446.32	113.65	4.0446e-06	4.0675e-06	213.2	111.11	59.47	33.825	4.0373e-06	66.371	193.872	-45.945	-61.627	-123.078	101.032	57.321	-123.885	-118.702	90.761	87.942	-120.397	-117.185	-116.652	-112.754	-87.853	-114.066	-8191	255	
#DATA ENDS
