BOXY.EXE: ISS Imagent and Oximeter Data Acquisition Program Version 0.80
Ascii Record File

#ACQ INFORMATION
2  Detector Channels 
16  External MUX Channels 
1  Auxiliary Channels 
5000  Waveform (CCF) Frequency (Hz)
1  Waveforms Skipped 
30  Waveforms Averaged 
1  Cycles Averaged 
16  Acquisitions per Waveform 
10.0806  Updata Rate (Hz) 

#FILE INFORMATION
TRUE -- External MUX Channel results are PARSED.
FALSE -- AC DC and Phase are NOT grouped.
TRUE -- Companion Program Settings File CREATED.
FALSE -- AC data not excluded
FALSE -- DC data not excluded
FALSE -- Phase data not excluded
FALSE -- Auxillary Chn. data not excluded
Tab delimiters

#CALIBRATION STATE
TRUE -- Waveform Calibration Values APPLIED.


#AUX CALIBRATION VALUES
Val Type	aux-1	

Term	1.0000e+00	
Factor	0.0000e+00	


#WF CALIBRATION VALUES
A = Detector Channel
Val Type	A-AC1	A-AC2	A-AC3	A-AC4	A-AC5	A-AC6	A-AC7	A-AC8	A-AC9	A-AC10	A-AC11	A-AC12	A-AC13	A-AC14	A-AC15	A-AC16	A-DC1	A-DC2	A-DC3	A-DC4	A-DC5	A-DC6	A-DC7	A-DC8	A-DC9	A-DC10	A-DC11	A-DC12	A-DC13	A-DC14	A-DC15	A-DC16	A-Ph1	A-Ph2	A-Ph3	A-Ph4	A-Ph5	A-Ph6	A-Ph7	A-Ph8	A-Ph9	A-Ph10	A-Ph11	A-Ph12	A-Ph13	A-Ph14	A-Ph15	A-Ph16	

Term	0.00000e+00	0.00000e+00	0.00000e+00	0.00000e+00	0.00000e+00	0.00000e+00	0.00000e+00	0.00000e+00	0.00000e+00	0.00000e+00	0.00000e+00	0.00000e+00	0.00000e+00	0.00000e+00	0.00000e+00	0.00000e+00	0.00000e+00	0.00000e+00	0.00000e+00	0.00000e+00	0.00000e+00	0.00000e+00	0.00000e+00	0.00000e+00	0.00000e+00	0.00000e+00	0.00000e+00	0.00000e+00	0.00000e+00	0.00000e+00	0.00000e+00	0.00000e+00	0.00000e+00	0.00000e+00	0.00000e+00	0.00000e+00	0.00000e+00	0.00000e+00	0.00000e+00	0.00000e+00	0.00000e+00	0.00000e+00	0.00000e+00	0.00000e+00	0.00000e+00	0.00000e+00	0.00000e+00	0.00000e+00	
Factor	1.00000e+00	1.00000e+00	1.00000e+00	1.00000e+00	1.00000e+00	1.00000e+00	1.00000e+00	1.00000e+00	1.00000e+00	1.00000e+00	1.00000e+00	1.00000e+00	1.00000e+00	1.00000e+00	1.00000e+00	1.00000e+00	1.00000e+00	1.00000e+00	1.00000e+00	1.00000e+00	1.00000e+00	1.00000e+00	1.00000e+00	1.00000e+00	1.00000e+00	1.00000e+00	1.00000e+00	1.00000e+00	1.00000e+00	1.00000e+00	1.00000e+00	1.00000e+00	X	X	X	X	X	X	X	X	X	X	X	X	X	X	X	X	

B = Detector Channel
Val Type	B-AC1	B-AC2	B-AC3	B-AC4	B-AC5	B-AC6	B-AC7	B-AC8	B-AC9	B-AC10	B-AC11	B-AC12	B-AC13	B-AC14	B-AC15	B-AC16	B-DC1	B-DC2	B-DC3	B-DC4	B-DC5	B-DC6	B-DC7	B-DC8	B-DC9	B-DC10	B-DC11	B-DC12	B-DC13	B-DC14	B-DC15	B-DC16	B-Ph1	B-Ph2	B-Ph3	B-Ph4	B-Ph5	B-Ph6	B-Ph7	B-Ph8	B-Ph9	B-Ph10	B-Ph11	B-Ph12	B-Ph13	B-Ph14	B-Ph15	B-Ph16	

Term	0.00000e+00	0.00000e+00	0.00000e+00	0.00000e+00	0.00000e+00	0.00000e+00	0.00000e+00	0.00000e+00	0.00000e+00	0.00000e+00	0.00000e+00	0.00000e+00	0.00000e+00	0.00000e+00	0.00000e+00	0.00000e+00	0.00000e+00	0.00000e+00	0.00000e+00	0.00000e+00	0.00000e+00	0.00000e+00	0.00000e+00	0.00000e+00	0.00000e+00	0.00000e+00	0.00000e+00	0.00000e+00	0.00000e+00	0.00000e+00	0.00000e+00	0.00000e+00	-1.29269e+02	-1.13631e+02	-1.35870e+02	-1.84844e+02	-7.69806e+01	-6.34246e+01	-1.60653e+02	-1.62015e+02	-8.22226e+01	-6.09229e+01	-1.72187e+02	-1.71626e+02	-1.83109e+02	-1.76791e+02	-6.82363e+01	-1.50157e+02	
Factor	1.61315e-05	1.31639e-04	3.54998e-05	4.91269e-01	1.07434e-06	1.37095e-06	1.84658e-01	4.54119e-02	1.02773e-06	1.19378e-06	8.37172e-02	3.01029e-02	3.50082e-02	8.20948e-03	1.09933e-06	1.21748e-02	1.13921e-06	1.19064e-06	3.31616e-07	2.32299e-01	1.30170e-08	1.30308e-08	8.60883e-02	2.28097e-02	1.29813e-08	1.30694e-08	4.01028e-02	1.44691e-02	1.71056e-02	4.09484e-03	1.30663e-08	5.83849e-03	X	X	X	X	X	X	X	X	X	X	X	X	X	X	X	X	



#DISTANCE SETTINGS
A = Detector Channel
A-1	A-2	A-3	A-4	A-5	A-6	A-7	A-8	A-9	A-10	A-11	A-12	A-13	A-14	A-15	A-16	

2.5000e+00	3.0000e+00	2.5000e+00	3.0000e+00	2.0000e+00	3.0000e+00	1.5000e+00	3.0000e+00	3.0000e+00	3.0000e+00	3.0000e+00	3.0000e+00	3.0000e+00	3.0000e+00	1.5000e+00	3.0000e+00	

B = Detector Channel
B-1	B-2	B-3	B-4	B-5	B-6	B-7	B-8	B-9	B-10	B-11	B-12	B-13	B-14	B-15	B-16	

1.0000e+01	1.0000e+01	1.0000e+01	1.4400e+00	1.0000e+01	1.0000e+01	1.5100e+00	1.9400e+00	1.0000e+01	1.0000e+01	1.9900e+00	2.4900e+00	2.4100e+00	2.9000e+00	1.0000e+01	2.9800e+00	




#DATA BEGINS
time	group	step	mark	flag	A-AC1	A-AC2	A-AC3	A-AC4	A-AC5	A-AC6	A-AC7	A-AC8	A-AC9	A-AC10	A-AC11	A-AC12	A-AC13	A-AC14	A-AC15	A-AC16	A-DC1	A-DC2	A-DC3	A-DC4	A-DC5	A-DC6	A-DC7	A-DC8	A-DC9	A-DC10	A-DC11	A-DC12	A-DC13	A-DC14	A-DC15	A-DC16	A-Ph1	A-Ph2	A-Ph3	A-Ph4	A-Ph5	A-Ph6	A-Ph7	A-Ph8	A-Ph9	A-Ph10	A-Ph11	A-Ph12	A-Ph13	A-Ph14	A-Ph15	A-Ph16	B-AC1	B-AC2	B-AC3	B-AC4	B-AC5	B-AC6	B-AC7	B-AC8	B-AC9	B-AC10	B-AC11	B-AC12	B-AC13	B-AC14	B-AC15	B-AC16	B-DC1	B-DC2	B-DC3	B-DC4	B-DC5	B-DC6	B-DC7	B-DC8	B-DC9	B-DC10	B-DC11	B-DC12	B-DC13	B-DC14	B-DC15	B-DC16	B-Ph1	B-Ph2	B-Ph3	B-Ph4	B-Ph5	B-Ph6	B-Ph7	B-Ph8	B-Ph9	B-Ph10	B-Ph11	B-Ph12	B-Ph13	B-Ph14	B-Ph15	B-Ph16	aux-1	digaux	

740.303	1	1	0	768	0.043022	0.1125	0.068734	0.080488	0.059263	0.19028	0.14706	0.20826	0.1364	0.11358	0.11467	0.20957	0.060979	0.073476	0.16499	0.099424	-2.3312	-3.4375	-2.9667	-3.2354	-3.1396	-2.8479	-3.375	-3.0396	-2.8021	-3.325	-3.1229	-2.9437	-3.3125	-2.9188	-3.2042	-3.25	50.721	79.853	-94.613	-108.398	-73.787	129.492	39.920	215.031	153.970	-22.193	180.822	199.936	136.272	110.606	113.875	157.294	0.0002675	0.00042992	0.00027752	1378.7	2.3262e-06	4.5447e-06	1368	370.46	4.2733e-06	4.741e-06	423.42	140.31	122.72	42.608	3.9733e-06	52.323	0.00054283	0.00054914	0.00015521	1389.5	6.092e-06	6.1182e-06	1384.5	375.63	6.0854e-06	6.0425e-06	429.11	143.72	125.73	43.232	6.0661e-06	53.437	199.745	25.069	-45.222	-109.761	16.088	30.630	-109.992	-105.514	-67.225	45.785	-105.758	-101.765	-101.059	-96.413	51.799	-96.881	-8191	255	
740.399	1	1	0	0	0.030851	0.12168	0.19365	0.1307	0.19439	0.12788	0.25001	0.24068	0.19627	0.072301	0.10333	0.10173	0.082633	0.10878	0.25387	0.19527	-2.5104	-3.3167	-3.0271	-3.1562	-3.2021	-2.9958	-3.2479	-3.2396	-2.7396	-3.3854	-3.0354	-3.2125	-3.3979	-3.0125	-3.2062	-3.1583	-24.586	33.493	27.357	-81.425	-9.067	-105.224	231.188	185.838	53.900	175.667	-100.510	-55.419	134.015	-118.930	-72.032	109.397	0.00031554	0.00058718	0.0001894	1380.5	1.2031e-06	2.6625e-06	1367.3	370.14	1.7474e-06	2.7929e-06	424.47	140.71	122.92	42.539	5.524e-06	52.404	0.00054165	0.000548	0.00015277	1387.2	6.049e-06	6.0593e-06	1383.6	375.4	6.0715e-06	6.023e-06	429.38	143.76	125.76	43.249	6.0852e-06	53.431	193.388	45.521	-14.907	-109.779	-20.697	15.184	-109.955	-105.407	-95.832	57.771	-105.813	-102.016	-101.501	-96.516	-0.961	-97.151	-8191	255	
740.495	1	1	0	0	0.092783	0.19679	0.12167	0.061469	0.047377	0.24982	0.27882	0.1779	0.071225	0.11158	0.11154	0.15722	0.10707	0.24531	0.15889	0.17225	-2.575	-3.1625	-2.8542	-2.8958	-3.1688	-2.8917	-3.2208	-3.25	-2.8292	-3.2292	-2.9917	-2.7979	-3.325	-2.9292	-3.125	-3.2542	92.221	-9.059	-82.958	151.709	-121.867	177.617	174.111	229.018	-47.846	143.095	198.398	196.292	162.920	-40.802	156.707	124.696	0.00024283	0.00041789	0.00013852	1380.2	6.4516e-06	6.5642e-06	1378.4	370.51	3.616e-07	2.7029e-06	423.12	140.17	123.19	42.372	4.3628e-06	52.42	0.00054703	0.0005527	0.00015306	1387	5.9986e-06	6.0206e-06	1387.2	375.71	6.0667e-06	6.02e-06	428.84	143.74	125.79	43.171	6.0143e-06	53.489	211.025	231.728	-44.808	-109.630	-35.213	32.554	-110.083	-105.519	194.930	43.090	-105.735	-101.837	-101.402	-96.384	-31.303	-96.875	-8191	255	
740.591	1	1	0	0	0.29179	0.076615	0.14429	0.091817	0.17699	0.24474	0.24245	0.29528	0.039941	0.1782	0.12849	0.25233	0.40739	0.13927	0.13151	0.09205	-2.6417	-3.0896	-3.0021	-2.9437	-3.275	-2.9083	-3.0667	-3.2042	-2.8208	-3.1688	-3.275	-3.0292	-3.2854	-2.9375	-2.8229	-3.2021	179.778	-60.335	-60.371	-27.323	-84.741	-77.755	193.012	167.018	95.161	-115.817	156.294	230.397	194.078	180.395	177.200	-39.058	0.00027055	0.00013294	0.00014449	1383.4	5.2472e-06	4.1201e-06	1373.4	370.51	3.0987e-06	3.2471e-06	423.31	140.28	122.56	42.319	9.0304e-07	52.505	0.00053959	0.00054609	0.00015257	1387.3	6.0034e-06	5.9577e-06	1385.9	375.42	6.0283e-06	6.0156e-06	428.22	143.68	125.39	43.206	5.9881e-06	53.481	206.971	4.642	-26.092	-109.805	-33.381	-14.164	-109.953	-105.427	106.774	60.747	-105.766	-101.830	-101.280	-96.568	2.083	-96.971	-8191	255	
740.685	1	1	0	0	0.4397	0.11476	0.057454	0.056112	0.15345	0.10951	0.20482	0.21746	0.042864	0.15897	0.10068	0.20254	0.31248	0.20069	0.14573	0.26388	-2.3854	-3.2125	-3.0354	-3.0312	-3.2854	-3.0062	-2.8354	-3.2354	-3.1042	-3.1896	-3.3542	-3.0083	-3.2021	-3.1271	-2.8042	-3.2729	191.852	79.588	-110.202	160.301	-0.227	-47.343	128.391	210.284	17.744	147.433	125.149	140.487	-104.139	165.508	90.512	187.013	0.00028857	0.00077335	0.00017046	1388.7	5.7186e-06	1.422e-06	1371	370.09	3.4694e-06	5.7843e-06	425.21	140.15	122.92	42.333	4.0359e-06	52.536	0.00054037	0.00054748	0.00015201	1385.6	5.984e-06	5.9764e-06	1386.2	375.35	5.9981e-06	5.971e-06	428.8	143.48	125.41	43.137	5.9505e-06	53.397	196.448	15.196	-77.550	-109.928	-27.839	-38.735	-110.041	-105.420	-93.171	42.526	-105.818	-101.784	-101.296	-96.234	190.482	-97.011	-8191	255	
740.783	1	1	0	0	0.10971	0.20956	0.16107	0.26648	0.049237	0.25529	0.24346	0.20529	0.32513	0.1275	0.10658	0.025063	0.050981	0.2856	0.17271	0.30139	-2.4875	-3.0604	-3.0854	-2.9167	-3.3271	-3.1229	-3.0104	-3.3937	-2.8812	-2.8646	-3.2458	-2.8875	-3.1	-3.0042	-2.9958	-3.2667	-59.519	-17.914	100.263	175.416	57.922	-24.800	190.431	126.587	-99.463	233.539	74.730	224.767	157.734	-100.781	155.110	149.049	0.00025325	0.00080706	8.5986e-05	1374.8	5.1417e-06	5.4651e-06	1370.7	369.26	7.0886e-06	9.5577e-06	423.93	139.86	122.58	42.458	1.4303e-06	52.406	0.00053766	0.00054759	0.00015121	1385.1	5.9508e-06	5.9727e-06	1384.3	374.76	5.9756e-06	5.9845e-06	428.76	143.7	125.54	43.158	5.9155e-06	53.479	205.809	12.122	43.257	-110.033	46.243	53.333	-109.826	-105.492	-22.367	31.119	-105.897	-101.760	-101.410	-96.364	51.677	-96.901	-8191	255	
740.902	1	1	0	0	0.18031	0.09203	0.087086	0.12253	0.2025	0.18438	0.048448	0.32638	0.2166	0.12399	0.23594	0.20144	0.14932	0.29388	0.060483	0.12007	-2.4979	-3.025	-3.3646	-2.8667	-3.2271	-2.9646	-3.0271	-3.2917	-2.8187	-3.1271	-3.5083	-3.0896	-3.3	-3.2208	-2.7458	-3.1792	8.195	-71.744	-48.695	191.169	-107.507	146.363	92.458	137.102	60.935	48.235	-113.530	-88.575	-59.073	191.310	29.967	-115.484	0.00025846	0.00064044	5.5323e-05	1381.5	1.0695e-05	1.3017e-06	1374.3	371.77	2.8883e-06	2.0533e-06	422.61	140.55	122.89	42.331	3.4136e-06	52.382	0.00053409	0.00054232	0.00015087	1384.7	5.9232e-06	5.9618e-06	1384.9	375.53	6.0182e-06	6.0548e-06	428.76	143.86	125.62	43.185	6.0125e-06	53.442	201.663	-86.882	-63.941	-110.062	43.643	55.769	-109.932	-105.486	3.716	-10.954	-105.977	-101.649	-101.494	-96.516	-35.725	-97.101	-8191	255	
740.998	1	1	0	0	0.19957	0.10226	0.1185	0.20372	0.065844	0.18863	0.25185	0.073834	0.36366	0.096038	0.2183	0.064453	0.11087	0.21205	0.11039	0.15153	-2.3458	-2.9646	-3.2604	-2.9083	-3.1375	-3.1167	-2.8396	-3.2354	-3.1271	-2.9188	-3.35	-2.825	-3.1208	-3.2125	-2.7625	-3.2938	-83.203	-29.192	50.680	-111.024	221.647	225.787	222.470	206.778	-65.840	200.213	-95.771	147.289	145.549	177.447	-2.241	181.567	0.0002879	0.00071364	0.00020123	1382.6	3.3479e-06	7.3727e-06	1375.7	372.35	3.2589e-06	2.555e-06	424.17	141.12	122.12	42.34	4.8084e-06	52.419	0.00053965	0.00054468	0.00015192	1384.1	5.9934e-06	5.9823e-06	1386.9	375.98	6.0472e-06	6.014e-06	428.96	144.02	125.38	43.131	5.9387e-06	53.388	205.410	48.579	-53.039	-110.027	-53.576	62.569	-110.037	-105.446	33.616	80.350	-105.737	-101.874	-101.408	-96.220	38.702	-96.977	-8191	255	
741.095	1	1	0	0	0.020362	0.11385	0.18516	0.151	0.11196	0.32859	0.33432	0.18132	0.10948	0.22754	0.2345	0.22664	0.21387	0.032566	0.11711	0.30088	-2.4146	-3.0167	-3.175	-2.9	-3.0458	-3.0292	-2.9313	-3.2958	-3.0292	-2.8833	-3.2354	-3.0062	-3	-3.3063	-2.7625	-3.1271	-81.016	-5.136	-96.840	-3.458	24.332	113.430	208.927	-107.056	101.647	103.128	-95.631	210.564	84.796	-53.385	176.727	-98.936	0.00020985	0.00011038	0.000135	1372.9	4.4637e-06	1.1882e-05	1370.8	371.69	5.5253e-06	2.937e-06	425.01	140.69	122.57	42.557	3.4704e-06	52.345	0.00053885	0.00054934	0.00015169	1383.1	5.983e-06	5.9929e-06	1385.1	375.66	5.9494e-06	6.0116e-06	428.68	143.82	125.62	43.231	5.9488e-06	53.425	198.163	-92.315	-77.664	-109.595	-15.802	-1.185	-110.113	-105.366	-2.604	23.314	-105.983	-101.808	-101.434	-96.429	-39.390	-96.966	-8191	255	
741.191	1	1	0	0	0.31632	0.33269	0.25661	0.1932	0.15746	0.1182	0.18096	0.17741	0.23032	0.11982	0.34051	0.29835	0.04272	0.27597	0.039225	0.09031	-2.675	-2.9396	-3.0646	-2.9875	-2.9333	-3.2458	-3.0958	-3.2958	-3.0458	-2.8958	-3.3542	-2.9521	-2.9813	-3.3208	-2.8604	-3.2021	-6.780	198.872	35.313	156.830	62.503	148.423	-81.846	203.979	1.683	-73.675	148.817	207.495	-93.349	204.477	84.684	-117.947	0.00027955	0.00026928	0.00021351	1380.7	2.581e-06	4.2256e-06	1369.2	371.2	3.1139e-06	4.9576e-06	425.16	140.34	122.34	42.33	4.373e-06	52.469	0.00053825	0.00054178	0.00015006	1383.1	5.9161e-06	5.9225e-06	1383.6	375.52	5.8665e-06	5.9383e-06	428.46	143.71	125.19	43.117	5.879e-06	53.419	202.991	32.015	-27.895	-109.868	58.825	37.044	-109.986	-105.453	-16.776	-2.779	-105.796	-101.896	-101.254	-96.614	19.919	-96.985	-8191	255	
741.287	1	1	0	0	0.18852	0.23055	0.064894	0.23211	0.21144	0.146	0.41923	0.10171	0.16528	0.13716	0.29581	0.15083	0.14293	0.24739	0.11529	0.13042	-2.575	-2.8167	-3.2375	-2.9188	-2.8729	-3.2812	-3.0792	-3.2354	-3.0667	-2.9875	-3.3583	-2.8812	-3.1417	-3.3729	-3.0396	-3.1229	85.966	155.603	-37.869	120.863	122.242	-95.636	168.544	184.859	-6.323	46.008	165.610	213.566	-94.775	227.670	101.376	-99.714	0.0002621	0.00013556	0.00015585	1378.6	3.0464e-06	3.6066e-06	1369.1	371.02	1.4304e-06	4.4271e-06	425.16	140.35	122.28	42.5	4.2299e-06	52.398	0.00053869	0.00053629	0.00015151	1384.4	5.8547e-06	5.8715e-06	1382.3	375.37	5.8663e-06	5.8313e-06	428.39	143.64	125.24	43.192	5.9048e-06	53.38	218.140	200.458	7.537	-109.866	63.652	54.456	-109.938	-105.223	-33.455	45.354	-105.925	-101.987	-101.415	-96.400	-47.364	-96.807	-8191	255	
741.383	1	1	0	0	0.066831	0.20606	0.22215	0.12809	0.098552	0.13162	0.27919	0.30684	0.32075	0.34369	0.22661	0.2205	0.12221	0.056308	0.12926	0.22658	-2.7292	-2.6917	-3.1729	-2.9479	-2.8896	-3.1312	-3.2812	-3.2625	-3.2708	-3.0792	-3.2583	-3.1854	-2.8604	-3.3021	-2.9979	-3.1083	-13.156	235.203	139.507	54.507	210.880	82.011	174.750	206.578	-112.924	-41.735	75.404	158.228	49.041	22.107	119.253	106.108	0.00022457	0.00013948	0.00030215	1380	4.8509e-06	2.5443e-06	1371	371.82	3.3241e-06	5.308e-06	422.78	140.71	122.13	42.392	4.356e-06	52.225	0.0005331	0.00053573	0.00014984	1381.8	5.8082e-06	5.8075e-06	1383.3	375.74	5.8577e-06	5.8201e-06	427.48	143.63	125.06	43.133	5.8582e-06	53.425	213.849	-6.010	-17.929	-110.157	20.851	-73.109	-109.777	-105.397	-77.617	48.949	-105.984	-101.669	-101.246	-96.465	31.459	-97.076	-8191	255	
741.479	1	1	0	0	0.16883	0.23638	0.07801	0.0846	0.11753	0.031866	0.17802	0.15968	0.12199	0.31452	0.19595	0.14835	0.1716	0.11469	0.069712	0.23144	-2.925	-2.9604	-3.0583	-3.1896	-2.8771	-3.2146	-2.975	-3.1583	-3.2583	-3.0167	-3.2375	-3.1646	-2.8708	-3.2917	-2.9854	-2.9396	79.791	13.006	-51.193	125.938	-17.216	122.510	207.966	190.304	129.265	-49.867	-106.569	190.074	-82.410	-88.816	217.695	175.871	0.00025466	0.00099155	0.00018421	1378.2	3.5442e-06	4.3532e-06	1366.3	369.67	5.252e-06	9.5469e-07	425.67	140.26	122.99	42.405	4.8003e-06	52.531	0.00052638	0.00053387	0.0001502	1384.3	5.8808e-06	5.803e-06	1381.5	374.97	5.7783e-06	5.8808e-06	428.66	143.75	125.3	43.215	5.9404e-06	53.43	205.231	10.173	-73.069	-109.983	-90.441	-5.475	-109.869	-105.418	-72.810	-38.612	-105.964	-101.854	-101.366	-96.435	29.294	-97.001	-8191	255	
741.598	1	1	0	0	0.13937	0.20012	0.32316	0.11284	0.16421	0.086413	0.25035	0.24635	0.072163	0.044649	0.15566	0.083241	0.18382	0.070192	0.038941	0.27467	-2.9479	-2.9479	-2.95	-3.2583	-2.8646	-3.0708	-3.1479	-2.9854	-3.2104	-2.8	-3.3021	-3.2917	-2.7625	-3.2292	-3.0979	-2.9188	156.637	162.869	224.488	230.670	-16.652	-95.859	213.790	194.863	122.780	95.738	172.218	-121.059	226.979	-97.636	189.581	158.666	0.00030012	0.00025708	0.00021554	1383.8	2.2266e-06	3.3829e-06	1373.2	370.99	6.6425e-06	3.5764e-06	427.62	141.12	123.15	42.431	2.6513e-06	52.327	0.00053167	0.00053775	0.0001516	1384.9	5.9251e-06	5.9401e-06	1383.9	376.02	5.9486e-06	5.9953e-06	429.6	143.79	125.38	43.23	5.9276e-06	53.369	202.787	-43.304	-38.382	-109.901	70.756	65.214	-109.871	-105.437	-41.633	60.199	-105.858	-102.046	-101.417	-96.474	-85.979	-96.877	-8191	255	
741.694	1	1	0	0	0.19528	0.18232	0.13196	0.29501	0.22214	0.23485	0.20143	0.27977	0.037412	0.0358	0.1354	0.095867	0.11599	0.43493	0.10496	0.048144	-3.0312	-2.9896	-2.9583	-3.0417	-2.9104	-3.1354	-3.1688	-2.9125	-3.2208	-2.7875	-3.1479	-3.4333	-2.9333	-3.2583	-3.1042	-2.9979	103.541	152.142	-102.908	-121.375	-49.233	67.229	74.274	189.679	159.344	66.649	71.282	146.335	55.422	200.874	146.727	-111.886	0.00024267	0.00042578	0.00025153	1383	5.6097e-06	4.0432e-06	1367.7	370.66	3.6125e-06	4.9766e-06	424.47	140.11	122.26	42.473	5.4655e-06	52.489	0.00054029	0.00054641	0.00015108	1385.7	5.9241e-06	5.9134e-06	1383.6	375.72	5.8887e-06	5.8892e-06	428.9	143.66	125.08	43.236	5.9485e-06	53.515	195.587	-36.055	-55.062	-109.820	-0.683	23.786	-109.947	-105.315	231.030	83.481	-105.668	-101.872	-101.454	-96.503	-39.780	-96.983	-8191	255	
741.790	1	1	0	0	0.13346	0.1195	0.06576	0.23949	0.086762	0.11935	0.080837	0.077295	0.23769	0.21446	0.14652	0.081471	0.2099	0.094636	0.032192	0.1742	-2.9375	-3.0458	-2.9375	-3.0812	-2.9521	-3.2875	-3.4125	-3.0771	-3.2146	-3.15	-3.2104	-3.2354	-2.9896	-3.1188	-3.1937	-2.8646	-106.188	109.313	-91.946	229.937	-2.835	-82.264	87.319	207.511	7.037	39.237	200.299	217.302	-53.562	73.487	27.052	-29.136	0.00035802	0.00063896	3.9788e-05	1372.1	3.9847e-06	8.4548e-06	1369.7	371.68	3.4085e-06	5.5345e-06	425.29	140.51	122.68	42.434	4.1877e-06	52.576	0.00053113	0.00054137	0.00015096	1381.1	5.905e-06	5.8729e-06	1383.1	376.29	5.8856e-06	5.8874e-06	429.55	143.78	125.49	43.15	5.8507e-06	53.472	201.626	-61.330	-89.726	-110.075	20.010	26.967	-109.987	-105.550	-106.225	50.273	-105.800	-101.743	-101.597	-96.125	63.903	-96.882	-8191	255	
741.864	1	1	0	0	0.086845	0.16262	0.12965	0.26977	0.17096	0.26581	0.21351	0.16239	0.1107	0.19292	0.24383	0.36072	0.20608	0.11681	0.17624	0.26377	-2.5917	-3.0104	-3.0375	-3.1458	-2.9562	-3.0479	-3.1292	-3.0708	-3.1188	-3.1604	-3.0104	-3.3104	-3.0417	-3.0792	-3.2438	-2.8812	38.330	174.493	0.078	-114.484	159.185	-43.977	188.150	159.967	-28.956	184.948	170.930	27.480	-92.509	200.074	-82.125	-117.030	0.00022502	0.00089397	0.00012133	1382	6.3848e-06	3.8495e-06	1374.3	371.99	1.9063e-06	1.0461e-05	424.02	141.23	122.77	42.542	1.6044e-06	52.513	0.00052694	0.00052986	0.000148	1383.1	5.7636e-06	5.7656e-06	1384	375.67	5.7359e-06	5.7334e-06	428.68	143.88	125.33	43.271	5.7812e-06	53.547	200.770	-20.819	-26.602	-109.878	23.214	29.632	-110.006	-105.506	-116.514	41.099	-105.796	-102.212	-101.596	-96.272	-24.972	-97.230	-8191	255	
741.983	1	1	0	0	0.16446	0.042489	0.2435	0.17272	0.17544	0.1898	0.12797	0.11038	0.13342	0.086405	0.19296	0.056387	0.17619	0.3145	0.16778	0.16926	-2.8146	-3.0979	-2.75	-3.1354	-2.9208	-2.9042	-3.4313	-3.0938	-3.1021	-3.1583	-2.9313	-3.125	-3.0042	-3.1562	-3.3479	-3.0375	127.029	74.079	-19.087	209.009	132.479	-61.247	109.731	144.577	221.041	10.860	180.629	117.347	8.558	206.944	-121.850	233.819	0.00031017	0.00021586	8.8983e-05	1389	6.6268e-06	2.0467e-06	1378.8	371.69	3.2506e-06	4.695e-06	425.67	141.39	123.38	42.619	7.9332e-07	52.429	0.00052974	0.0005334	0.00014836	1391.2	5.8963e-06	5.8782e-06	1390.2	376.58	5.8874e-06	5.8302e-06	429.66	144.13	125.7	43.337	5.9337e-06	53.552	197.733	167.601	14.557	-109.615	-16.720	108.859	-109.921	-105.483	-78.427	40.657	-105.688	-101.623	-101.371	-96.494	216.137	-96.937	-8191	255	
742.079	1	1	0	0	0.13929	0.39168	0.12918	0.17522	0.098839	0.26456	0.14383	0.38173	0.065394	0.114	0.10991	0.28394	0.23327	0.098158	0.14792	0.23546	-2.625	-2.8792	-3.0062	-3.2708	-2.9562	-2.7896	-3.4292	-2.9417	-3.0417	-3.1375	-2.8896	-3.2125	-3.0229	-3.1167	-3.2979	-3.0396	-87.604	-21.071	1.643	231.601	102.120	160.791	158.207	229.291	-96.860	134.517	194.808	-119.700	186.598	184.110	101.852	225.422	0.00030574	0.00025536	0.00018171	1388.5	5.0168e-06	8.7588e-06	1378.7	372.82	3.7634e-06	7.0906e-06	425.31	141.05	122.73	42.677	5.6259e-06	52.702	0.00053507	0.00053902	0.00015077	1392	5.8927e-06	5.8508e-06	1390.1	376.72	5.8036e-06	5.8179e-06	429.53	144.27	125.52	43.361	5.7971e-06	53.699	200.184	19.133	-40.016	-109.812	139.009	44.328	-109.853	-105.432	-61.331	16.551	-105.569	-101.778	-101.625	-96.368	53.169	-96.909	-8191	255	
742.175	1	1	0	0	0.13033	0.13321	0.26512	0.093634	0.2041	0.033236	0.098903	0.35203	0.24503	0.052316	0.22383	0.21141	0.31167	0.21706	0.29037	0.061826	-2.6896	-2.9917	-2.8	-3.3875	-2.9875	-2.9875	-3.5417	-3.05	-2.9	-3.3146	-2.9917	-3.2458	-2.9958	-2.9	-3.2542	-3.2104	195.428	107.066	200.635	-74.919	139.285	-99.370	177.381	159.466	22.414	147.993	139.054	228.274	-97.968	175.921	170.640	-63.168	0.00021306	0.00015367	9.1552e-05	1390.8	5.3111e-06	3.2318e-06	1377.1	372.65	6.6866e-06	2.506e-06	424.76	140.93	123.74	42.839	6.4558e-06	52.637	0.00052125	0.0005248	0.00014753	1391.3	5.7875e-06	5.7181e-06	1389.7	376.38	5.73e-06	5.7031e-06	429.3	144.13	125.57	43.504	5.673e-06	53.627	206.698	-110.785	-5.434	-109.712	220.232	110.024	-109.943	-105.427	-24.139	-122.438	-105.810	-101.728	-101.649	-96.411	64.245	-97.227	-8191	255	
742.271	1	1	0	0	0.095913	0.11017	0.24313	0.043616	0.17426	0.036227	0.070682	0.18214	0.067312	0.16501	0.10553	0.10615	0.16336	0.17369	0.025907	0.20669	-2.5312	-3.0125	-2.9833	-3.1167	-3.0208	-2.7104	-3.4396	-3.2146	-2.9854	-3.1188	-2.8292	-3.2208	-3.2604	-2.9771	-3.1104	-3.0729	164.152	186.555	177.258	140.402	147.768	159.107	-73.965	228.823	188.927	58.261	122.854	134.381	-77.534	206.021	210.903	210.177	0.00020207	0.00052171	9.0364e-05	1383.8	5.0232e-06	3.4601e-06	1376.2	372.56	6.8423e-06	6.3771e-07	423.82	141.1	123.62	42.695	3.0173e-06	52.701	0.00051282	0.0005156	0.0001449	1386.8	5.6979e-06	5.7025e-06	1388.7	376.36	5.6966e-06	5.6709e-06	428.82	144.09	125.34	43.415	5.6909e-06	53.63	227.208	21.083	-93.524	-109.857	34.612	38.155	-109.771	-105.373	-26.306	169.918	-105.669	-102.020	-101.294	-96.502	108.562	-96.896	-8191	255	
742.392	1	1	0	0	0.13972	0.13328	0.086031	0.098461	0.022239	0.047927	0.18823	0.39826	0.16497	0.058614	0.34897	0.082128	0.27202	0.1871	0.17764	0.013343	-2.3917	-3.075	-2.8229	-3.0542	-3.1979	-2.8146	-3.3292	-3.2125	-2.9979	-3.2646	-2.875	-3.0625	-3.1104	-2.9542	-3.2042	-3.1292	-104.277	43.511	80.722	79.301	19.346	-14.498	211.566	173.527	171.689	164.471	166.657	96.330	207.754	-87.215	-71.421	-75.029	0.0002695	0.00055895	6.2159e-05	1387.3	1.8342e-06	9.9081e-06	1372.2	372.83	5.9145e-06	9.0211e-06	425.68	141.59	123.46	42.83	4.872e-06	52.817	0.00051444	0.00051805	0.00014669	1387.8	5.7007e-06	5.804e-06	1388.6	376.6	5.7705e-06	5.8033e-06	429.45	144.39	125.78	43.431	5.8483e-06	53.772	205.944	-33.209	70.115	-109.613	80.834	72.897	-109.903	-105.568	-13.780	29.076	-105.951	-101.803	-101.375	-96.471	-8.483	-96.911	-8191	255	
742.463	1	1	0	0	0.14011	0.16808	0.096175	0.028796	0.15346	0.075297	0.30614	0.098483	0.13137	0.14139	0.21599	0.38743	0.078078	0.18019	0.11702	0.20321	-2.4188	-3.0625	-2.9188	-3.125	-3.075	-2.7854	-3.2896	-3.3229	-2.6813	-3.375	-3.1104	-3.1042	-3.2833	-2.8854	-3.0708	-3.2229	72.747	107.939	-46.118	2.644	226.231	-123.369	194.461	234.236	25.978	195.060	166.415	208.739	-118.418	-93.663	28.861	-97.345	0.00024127	0.00042644	0.00021743	1387.8	5.0401e-06	6.9441e-06	1379.7	372.55	4.8067e-06	3.327e-06	425.91	140.92	123.24	42.794	2.9497e-06	52.592	0.00052927	0.00053627	0.00014857	1394.8	5.8689e-06	5.8818e-06	1393.5	377.34	5.8016e-06	5.7774e-06	429.87	144.21	125.58	43.412	5.7274e-06	53.655	196.827	-39.795	-22.230	-109.831	7.183	74.949	-110.050	-105.609	-47.801	-56.659	-105.809	-101.735	-101.535	-96.426	-20.540	-97.138	-8191	255	
742.584	1	1	0	0	0.095258	0.18737	0.24575	0.18455	0.12443	0.19283	0.36344	0.11636	0.06026	0.13102	0.27835	0.39059	0.15183	0.13647	0.14816	0.30581	-2.3583	-3.1042	-2.7479	-3.0333	-3.1979	-2.8917	-3.175	-3.2479	-2.7229	-3.0104	-3.1063	-2.9896	-3.2354	-3.1375	-2.9208	-3.0354	150.871	48.458	128.310	206.292	-55.252	186.919	206.832	-90.132	78.052	111.788	136.949	201.473	138.880	148.434	166.636	223.307	0.00017498	0.00027036	5.6769e-05	1396.1	3.8674e-06	7.447e-06	1381.4	373.66	4.2817e-06	1.6647e-06	426.11	141.51	122.54	42.705	1.9222e-06	52.681	0.00051866	0.00052312	0.00014626	1390.5	5.6814e-06	5.6991e-06	1391.5	377.18	5.7024e-06	5.7059e-06	429.79	144.42	125.65	43.442	5.8104e-06	53.788	200.550	21.471	-101.968	-109.671	-10.568	31.166	-110.006	-105.493	-25.853	5.941	-105.948	-101.620	-101.445	-96.594	73.875	-97.016	-8191	255	
742.678	1	1	0	0	0.33038	0.20285	0.095304	0.16547	0.12433	0.16166	0.14256	0.13555	0.096923	0.22321	0.18577	0.10741	0.12149	0.23078	0.096827	0.092699	-2.4042	-3.2625	-2.8667	-2.9021	-3.1521	-3.0167	-3.1208	-3.3063	-2.8312	-3.0979	-3.2771	-2.8729	-3.2062	-3.0917	-2.8542	-3.1104	14.232	212.193	174.435	169.763	57.052	197.403	176.932	163.273	-5.943	-108.905	-112.711	-48.740	-86.721	219.901	209.344	210.318	0.00024835	0.00056595	0.00019931	1398.7	4.8172e-06	5.8463e-06	1382	373.37	4.6788e-06	4.8022e-06	426.11	140.87	123.87	42.718	8.077e-06	52.923	0.00053182	0.00053542	0.00014921	1395.6	5.8481e-06	5.8619e-06	1394.7	377.56	5.7684e-06	5.7652e-06	429.73	144.31	125.69	43.448	5.7871e-06	53.746	199.862	-61.432	-51.986	-109.825	-22.305	60.570	-109.911	-105.529	-17.323	50.435	-105.607	-101.821	-101.305	-96.460	10.257	-96.979	-8191	255	
742.775	1	1	0	0	0.070297	0.20142	0.35833	0.24741	0.14686	0.059415	0.31597	0.03901	0.23406	0.17149	0.22163	0.029411	0.1524	0.064983	0.15882	0.24377	-2.5125	-3.1521	-3.1771	-2.8063	-3.0938	-3.0583	-3.1521	-3.3292	-2.7708	-3.1104	-3.1312	-2.9646	-3.2833	-2.9625	-2.9062	-3.4396	167.641	216.791	44.570	114.587	-11.175	25.685	193.964	-20.454	-109.611	206.025	135.308	167.563	89.522	35.983	-109.675	211.884	0.00024357	0.00071493	0.0001125	1386.4	5.3222e-06	4.2067e-06	1381.3	372.49	4.5835e-06	5.2279e-06	426.23	141.63	123.33	42.736	5.917e-06	53.117	0.00052063	0.0005273	0.00014792	1390.7	5.8047e-06	5.8007e-06	1393	377.12	5.8856e-06	5.8692e-06	430.6	144.7	125.93	43.576	5.917e-06	53.924	206.571	-41.299	-29.480	-109.721	91.706	20.604	-109.916	-105.399	10.806	38.091	-105.769	-101.751	-101.603	-96.485	51.599	-96.796	-8191	255	
742.871	1	1	0	0	0.17246	0.25152	0.20627	0.04906	0.14491	0.2748	0.13386	0.26176	0.2491	0.24715	0.37793	0.16771	0.064358	0.11202	0.11596	0.13725	-2.4458	-3.0792	-3.0417	-2.8771	-3.0958	-2.8333	-3.0625	-3.2792	-2.8354	-3.2104	-3.2542	-3.1229	-3.1458	-2.9062	-3.0438	-3.0792	-43.144	40.849	85.027	163.374	80.089	160.626	208.169	212.278	-70.399	182.373	-99.021	196.152	-75.703	212.529	93.279	169.828	0.00026829	0.00039313	9.1565e-05	1387.8	2.4306e-06	7.0761e-06	1385.2	373.85	4.0618e-06	6.4395e-06	426.65	141.42	123.65	42.794	8.8973e-07	52.715	0.0005322	0.00054011	0.00014913	1393.9	5.9168e-06	5.8984e-06	1397.8	378.17	5.9176e-06	5.9123e-06	430.63	144.67	126.04	43.548	5.9299e-06	53.775	190.675	-30.854	-35.373	-109.951	-118.006	49.002	-109.851	-105.404	-27.989	25.465	-105.927	-101.899	-101.267	-96.579	-78.230	-97.070	-8191	255	
742.991	1	1	0	0	0.16187	0.12024	0.11639	0.15221	0.078428	0.26305	0.29487	0.13055	0.17611	0.17695	0.25519	0.18471	0.21196	0.31971	0.20836	0.12981	-2.4146	-3.0062	-3.0687	-3.05	-3.0812	-3.1958	-2.9896	-3.2687	-3.0104	-3.0687	-3.3917	-2.8167	-3.1917	-3.1146	-2.9292	-3.2229	181.537	0.519	-33.241	181.068	28.727	82.852	152.701	215.377	90.644	49.352	185.377	74.931	216.608	-39.752	152.948	175.504	0.00027871	0.00039834	9.6468e-06	1395.8	2.3806e-06	3.7532e-06	1384.2	372.9	3.6488e-06	7.908e-06	427.06	141.48	123.54	43.012	1.7195e-06	52.72	0.0005357	0.00054327	0.00015071	1399.6	6.0322e-06	6.0919e-06	1397.4	377.79	6.0449e-06	6.0615e-06	431.5	144.61	126.32	43.606	6.0424e-06	53.918	196.528	1.428	5.487	-109.977	-98.128	93.314	-109.888	-105.377	-18.888	-2.304	-105.659	-101.938	-101.599	-96.439	-7.507	-96.868	-8191	255	
743.087	1	1	0	0	0.24098	0.075419	0.06742	0.18476	0.23518	0.085223	0.27533	0.27895	0.23921	0.20434	0.16608	0.09399	0.10699	0.10133	0.028918	0.0034226	-2.6292	-2.8771	-3.0833	-2.6396	-3.1146	-3.0917	-2.9396	-3.4354	-3.0292	-2.8771	-3.2854	-2.9562	-3.0833	-3.3	-2.8688	-3.3438	108.976	-15.507	-29.884	180.874	160.778	-57.921	180.353	154.655	-115.076	201.510	152.731	208.636	143.670	179.653	87.907	145.039	0.0002995	0.00076872	5.275e-05	1391.2	4.2175e-06	4.3527e-06	1382.1	373.74	3.3544e-06	1.7062e-06	427.21	141.43	123.18	42.802	4.4795e-06	52.939	0.00054441	0.00054316	0.00015101	1400.1	5.9245e-06	5.8997e-06	1396.3	378.41	5.8468e-06	5.8372e-06	430.1	144.65	125.93	43.507	5.9224e-06	53.849	204.872	-12.789	-106.170	-109.790	59.875	-21.510	-110.111	-105.529	21.508	51.317	-105.815	-101.764	-101.544	-96.438	-35.834	-96.995	-8191	255	
743.159	1	1	0	0	0.11384	0.14622	0.28713	0.061231	0.34224	0.23952	0.18355	0.46952	0.25759	0.15088	0.15884	0.16351	0.25375	0.14927	0.16904	0.21588	-2.5375	-2.9125	-3.1833	-2.8	-3.075	-3.2771	-2.8708	-3.3917	-2.9583	-2.8854	-3.1979	-3.0354	-3.125	-3.2396	-2.8271	-3.1271	-82.179	124.262	230.300	-85.361	52.796	229.796	176.507	213.110	184.378	145.612	211.631	189.802	223.458	197.451	94.306	229.781	0.00022163	0.00056968	0.00010129	1397.2	3.3852e-06	8.5213e-06	1383.7	372.02	2.0526e-06	3.9904e-06	427.53	141.77	123.38	42.877	1.1586e-06	52.756	0.00053656	0.00053937	0.00015171	1397.2	5.9337e-06	5.945e-06	1395.9	377.78	5.8673e-06	5.7961e-06	429.84	144.56	125.79	43.537	5.8042e-06	53.859	214.406	-49.284	-42.379	-109.832	38.945	79.881	-110.043	-105.379	193.075	62.245	-105.815	-101.859	-101.417	-96.356	27.499	-96.973	-8191	255	
743.280	1	1	0	0	0.056931	0.1012	0.12803	0.13914	0.1584	0.12634	0.27553	0.16248	0.13188	0.092303	0.1989	0.099142	0.14369	0.029924	0.040572	0.15535	-2.7833	-2.675	-3.2417	-2.9854	-2.9542	-3.05	-3.1104	-3.1167	-3.2125	-2.8958	-3.1896	-3.025	-3.0083	-3.2625	-3.1125	-3.2979	-12.711	35.455	35.979	-80.010	76.439	183.542	231.263	180.358	38.566	-106.874	187.731	-113.841	-88.952	31.913	70.335	-109.047	0.00029954	0.00039236	1.5266e-05	1392.1	2.915e-06	6.0058e-06	1387.1	373.6	3.0426e-06	6.221e-06	426.11	141.63	123.52	42.747	3.0491e-06	52.822	0.00052557	0.00052917	0.00014772	1397.8	5.8745e-06	5.84e-06	1397.9	377.82	5.7931e-06	5.8082e-06	430.44	144.7	125.76	43.518	5.7918e-06	53.828	194.753	23.208	43.996	-109.839	15.662	0.711	-110.043	-105.415	-74.688	40.166	-105.502	-102.080	-100.988	-96.335	-1.618	-96.817	-8191	255	
743.376	1	1	0	0	0.053695	0.031863	0.16814	0.22745	0.11541	0.33121	0.18681	0.26757	0.18407	0.22714	0.13159	0.24721	0.18622	0.28105	0.16897	0.12696	-2.5667	-2.8146	-3.1771	-2.9521	-3.0729	-3.325	-3	-3.3	-3.0375	-2.8333	-3.2542	-3.1354	-2.8625	-3.3375	-2.7875	-3.1896	40.630	118.688	-6.228	117.421	101.321	-61.643	-94.196	-117.409	39.274	-50.587	197.758	-113.179	-88.811	-122.415	207.715	185.760	0.00029957	0.00085768	0.00010142	1388.3	5.3388e-06	2.8871e-06	1383.9	373.67	6.3345e-06	2.1807e-06	423.79	141.24	123.21	42.592	4.5184e-06	52.799	0.00052031	0.00052521	0.00014578	1389.3	5.7208e-06	5.672e-06	1393.6	377.24	5.7563e-06	5.7577e-06	429.41	144.57	125.96	43.396	5.8158e-06	53.643	205.547	-90.101	88.229	-109.446	52.412	139.535	-109.960	-105.489	-25.338	47.027	-105.706	-101.676	-101.400	-96.466	-38.591	-97.017	-8191	255	
743.472	1	1	0	0	0.11956	0.13795	0.16991	0.2085	0.23502	0.11776	0.15686	0.48471	0.23944	0.12788	0.11053	0.13327	0.13388	0.11166	0.31105	0.098298	-2.6708	-2.7938	-3.1937	-2.925	-2.9938	-3.2646	-3.1437	-3.1146	-3.1146	-2.9542	-3.2417	-3.0812	-2.9917	-3.2771	-2.875	-3.1292	141.553	130.274	171.422	186.717	-57.409	187.886	-26.367	171.500	97.860	57.463	212.034	171.046	-116.191	215.180	84.692	19.946	0.00025475	0.00055176	0.00018119	1397.7	6.0063e-06	7.7688e-06	1375.2	373.52	4.394e-06	4.2596e-06	427.24	140.89	123.23	42.79	1.3793e-06	52.829	0.00052835	0.0005287	0.00014879	1394.4	5.8426e-06	5.838e-06	1391.4	377.88	5.8258e-06	5.8755e-06	430.55	144.44	125.98	43.462	5.8362e-06	53.728	211.532	-46.984	-69.505	-109.867	-15.721	-25.762	-109.984	-105.221	7.903	16.362	-105.727	-101.817	-101.286	-96.236	-121.412	-97.130	-8191	255	
743.568	1	1	0	0	0.13674	0.2032	0.33272	0.1731	0.21533	0.15173	0.17412	0.39737	0.21096	0.0019503	0.047978	0.15416	0.14632	0.084417	0.09207	0.21216	-2.6063	-2.8187	-3.0479	-3.1312	-2.7854	-3.2646	-3.0979	-2.9062	-3.1604	-2.8292	-3.1146	-3.2792	-2.8708	-3.2062	-2.9062	-2.9562	213.896	-100.425	0.386	63.382	5.683	33.002	129.124	201.590	-69.883	180.000	-104.082	182.893	-5.513	209.402	164.664	182.481	0.00023834	0.00049403	0.00012364	1397.3	4.7451e-06	2.7997e-06	1376.7	372.84	1.1679e-06	1.0358e-06	426.66	141.56	122.8	42.904	3.9758e-06	52.714	0.00052874	0.00053297	0.00014914	1394.2	5.8069e-06	5.8145e-06	1390.7	377.18	5.8057e-06	5.8059e-06	429.89	144.57	125.59	43.444	5.8521e-06	53.678	211.320	31.073	-28.146	-110.025	31.711	-68.348	-110.160	-105.251	-20.977	173.786	-105.663	-102.039	-101.446	-96.220	16.270	-97.086	-8191	255	
743.687	1	1	0	0	0.10382	0.18075	0.06163	0.17942	0.13755	0.080453	0.25549	0.20167	0.075119	0.12776	0.22643	0.30489	0.10315	0.12262	0.13301	0.21192	-2.8625	-2.8292	-2.9958	-3.2625	-2.8875	-3.2375	-3.1188	-3.0333	-3.2417	-2.9875	-3.2104	-3.2271	-3.0083	-3.1562	-3.0563	-3.0792	66.449	81.092	-46.288	83.966	-107.721	22.149	161.393	174.750	29.025	141.346	-110.098	206.226	-93.587	233.455	24.806	-94.534	0.00031402	0.00041636	0.00016891	1394.5	3.1004e-06	5.5638e-06	1382.4	373.01	4.3536e-06	3.4433e-06	424.83	141.32	122.83	42.564	3.5796e-06	52.84	0.00052668	0.00053136	0.0001471	1390.9	5.7475e-06	5.721e-06	1393.2	377.34	5.8425e-06	5.8372e-06	429.46	144.39	125.82	43.432	5.9343e-06	53.774	190.680	-4.911	-96.694	-109.619	139.930	120.900	-109.970	-105.466	-54.817	80.827	-105.716	-101.879	-101.464	-96.229	-66.465	-96.989	-8191	255	
743.759	1	1	0	0	0.26575	0.036781	0.23677	0.15849	0.094835	0.088693	0.17988	0.27365	0.13395	0.1662	0.25892	0.082442	0.12256	0.13696	0.076496	0.14645	-2.6688	-3	-2.9917	-3.2562	-2.8125	-3.2062	-3.1729	-3.0062	-3.1771	-2.8729	-3.0667	-3.3104	-2.8792	-3.3354	-2.9458	-2.8438	134.192	-42.494	10.119	209.410	57.008	43.631	187.929	168.225	-13.406	145.258	143.939	-76.574	-22.774	-115.690	-67.892	-79.774	0.00019222	0.00039436	0.00012638	1382.1	8.9586e-06	3.6945e-06	1378.3	371.88	5.5845e-06	5.1026e-06	426.21	141.06	123.09	42.947	2.4925e-06	52.799	0.00053598	0.00053691	0.00014931	1388.8	5.8445e-06	5.8209e-06	1391.2	377.02	5.7145e-06	5.7387e-06	429.52	144.19	125.62	43.492	5.7804e-06	53.71	203.683	-7.442	-80.736	-110.080	22.918	1.075	-109.861	-105.511	-38.188	53.394	-105.871	-101.791	-101.310	-96.187	-33.699	-97.137	-8191	255	
743.855	1	1	0	0	0.074688	0.11466	0.17088	0.0052136	0.096079	0.11003	0.32203	0.30259	0.15825	0.36296	0.20456	0.10147	0.22334	0.081877	0.29023	0.039281	-2.6896	-2.925	-2.8896	-3.1271	-2.7604	-3.1042	-3.2125	-2.8417	-3.0708	-3.0167	-3.0896	-3.1917	-2.8458	-3.15	-3.1646	-2.9625	209.458	14.522	-32.658	234.425	83.412	150.102	165.560	214.451	126.171	-52.858	156.100	-112.070	219.315	-67.912	-121.960	40.723	0.00031008	0.00067789	9.075e-05	1383.9	4.6475e-06	2.6163e-06	1377.9	372.78	4.594e-06	3.0659e-06	425.33	141.17	123.91	42.739	7.753e-06	52.953	0.00052567	0.00053004	0.00014759	1392.4	5.7827e-06	5.8129e-06	1392.5	377.47	5.8686e-06	5.9335e-06	429.42	144.49	126.01	43.509	5.9152e-06	53.937	192.403	36.725	216.430	-110.107	80.533	81.146	-110.102	-105.222	-33.933	71.711	-105.940	-101.869	-101.395	-96.304	71.247	-97.110	-8191	255	
743.951	1	1	0	0	0.23842	0.22437	0.061604	0.12553	0.33272	0.27836	0.15813	0.23375	0.33047	0.10345	0.14322	0.36674	0.20549	0.23871	0.083892	0.32775	-2.7542	-2.975	-2.7562	-3.2917	-2.8875	-3.1271	-3.3167	-2.8937	-3.1708	-3.0229	-2.8646	-3.2146	-3.0979	-3.1896	-3.1167	-2.9708	225.095	121.705	71.890	181.786	203.584	220.404	92.672	187.548	37.997	179.929	185.129	-122.936	173.781	234.455	57.485	202.074	0.00024453	2.5618e-05	0.00019517	1391.6	2.608e-06	2.3342e-06	1382.8	374.41	9.0708e-07	9.3545e-06	427.82	141.32	123.64	42.862	3.7207e-06	53.222	0.00053988	0.00054446	0.00015291	1401.2	5.999e-06	5.994e-06	1398.6	378.98	6.012e-06	6.0306e-06	431.97	145.24	126.34	43.667	6.1117e-06	54.105	191.183	-119.334	-51.591	-109.629	131.741	77.651	-109.840	-105.419	-102.235	112.553	-105.867	-101.684	-101.192	-96.329	36.818	-97.062	-8191	255	
744.072	1	1	0	0	0.18991	0.20456	0.23574	0.20947	0.26807	0.13285	0.26267	0.19998	0.046934	0.20886	0.20351	0.23444	0.16339	0.32576	0.034006	0.20362	-2.5625	-2.8833	-2.9208	-3.2417	-3.0229	-3	-3.425	-2.9938	-3.2833	-2.9813	-2.9021	-3.3979	-3.0646	-3.0604	-3.2917	-3.0708	-85.611	77.169	-46.344	216.457	36.931	207.356	-67.348	204.792	-49.250	-73.545	200.413	-74.507	-86.950	200.719	198.777	-86.659	0.00026568	0.00073781	0.00013059	1404.7	7.112e-06	4.0255e-06	1380.4	374.62	3.6993e-06	8.5384e-06	427.16	141.89	124.07	42.974	4.3569e-06	52.816	0.00055017	0.00054995	0.00015263	1404.1	5.9581e-06	6.0045e-06	1399.7	378.65	5.9352e-06	5.9721e-06	431.27	145.03	126.37	43.609	5.9644e-06	53.951	201.291	-44.185	-18.774	-109.979	-29.650	109.743	-110.110	-105.397	189.441	34.064	-105.734	-101.995	-101.379	-96.722	-3.988	-97.046	-8191	255	
744.168	1	1	0	0	0.17724	0.20542	0.17752	0.18907	0.039952	0.078153	0.22286	0.12042	0.25845	0.21935	0.34798	0.076724	0.26295	0.19308	0.14351	0.15133	-2.7417	-3.1312	-3.0563	-3.2125	-3.0229	-2.8771	-3.3667	-3.1771	-2.9708	-3.0958	-3.0875	-3.25	-3.0938	-3.0667	-3.2021	-2.8937	-94.588	-77.678	-48.375	215.686	-58.405	-37.281	224.066	166.950	89.197	101.104	170.830	119.811	-10.540	167.488	119.855	-120.910	0.00026687	0.00060148	0.00016248	1392.1	6.1301e-06	5.2747e-06	1384.2	375.7	4.3606e-06	2.7052e-06	424.91	142.08	123.95	42.844	1.6511e-06	52.803	0.00053819	0.00054328	0.00015127	1398.4	5.911e-06	5.9e-06	1398.2	378.83	5.9337e-06	5.9897e-06	431.21	145.05	126.41	43.645	5.9932e-06	53.946	216.440	-26.825	42.335	-109.947	-8.141	76.608	-109.858	-105.397	-98.721	-59.092	-105.752	-102.130	-101.192	-96.283	-20.245	-97.197	-8191	255	
744.264	1	1	0	0	0.1253	0.10625	0.12205	0.25709	0.14744	0.18903	0.12904	0.35774	0.061182	0.10749	0.24838	0.10531	0.13434	0.11607	0.19519	0.31951	-2.5375	-3.0542	-2.9896	-3.1021	-3.05	-3.0625	-3.3229	-2.9229	-3.1229	-3.1688	-2.9021	-3.2771	-3.1479	-3.0521	-3.2271	-3.1	149.969	27.368	-93.901	201.602	171.640	-45.083	-79.948	148.745	-36.842	228.323	234.442	14.026	214.365	192.396	191.124	184.315	0.00022272	0.00069893	0.00016721	1391.2	6.7846e-06	6.0508e-06	1385	374.37	2.3875e-06	4.6331e-06	428.62	141.33	123.49	42.991	6.0132e-06	52.753	0.00053644	0.00054384	0.00015076	1399.4	5.9177e-06	5.9403e-06	1399.6	379.05	5.9343e-06	5.9923e-06	432.6	145.25	126.41	43.744	6.0334e-06	53.991	207.073	-20.581	-110.151	-109.793	3.737	22.422	-109.844	-105.503	-74.828	59.099	-105.895	-101.743	-101.441	-96.342	233.077	-97.010	-8191	255	
744.360	1	1	0	0	0.20611	0.20095	0.10525	0.17678	0.16354	0.11605	0.029559	0.28925	0.069943	0.10255	0.19308	0.28349	0.07799	0.12493	0.21685	0.23557	-2.6667	-3.0521	-2.7792	-3.2542	-3.1208	-2.8937	-3.4625	-3.0375	-3.0833	-3.2396	-2.8896	-3.3625	-3.2042	-2.8729	-3.2104	-2.95	-89.973	158.063	-24.144	40.686	39.358	30.299	10.986	139.090	33.744	161.831	-45.994	226.227	131.411	205.640	179.055	184.167	0.00030945	0.00020977	0.00010404	1403.3	6.2499e-06	2.8416e-06	1385.2	375.17	5.4263e-06	1.781e-06	426	142.43	123.84	42.996	2.9654e-06	52.94	0.00053762	0.0005418	0.00014986	1402.5	5.8169e-06	5.8335e-06	1400	378.85	5.7732e-06	5.8459e-06	431.07	145.19	126.35	43.707	5.8804e-06	53.913	198.487	79.078	26.606	-109.742	85.553	-8.677	-109.968	-105.484	-71.485	109.910	-105.730	-101.823	-101.390	-96.404	-67.886	-96.991	-8191	255	
744.456	1	1	0	0	0.066413	0.13957	0.25751	0.26094	0.10646	0.29827	0.2437	0.329	0.23246	0.10585	0.11732	0.072161	0.098917	0.10486	0.071483	0.22358	-2.5021	-3.2562	-2.8521	-3.1562	-3.0687	-2.8583	-3.3146	-3.2208	-2.8833	-3.2875	-2.9125	-3.1896	-3.1708	-2.8646	-3.1979	-3.1312	114.814	37.106	186.647	205.394	56.171	193.631	183.958	166.733	39.097	163.422	117.808	194.246	189.230	-101.144	165.324	212.548	0.00026505	0.00028224	0.00011483	1402.7	2.7331e-06	3.3912e-06	1394.1	373.87	5.932e-06	5.0602e-06	427.07	142.12	124	42.93	4.9644e-06	53.211	0.00053231	0.00053918	0.00015017	1400.4	5.8919e-06	5.8278e-06	1401.1	378.19	5.8488e-06	5.8325e-06	431.44	145.25	126.15	43.707	5.8817e-06	54.106	208.896	-50.591	-29.587	-109.940	32.617	-30.414	-109.977	-105.472	-63.666	-7.324	-105.729	-101.904	-101.402	-96.325	83.925	-96.982	-8191	255	
744.552	1	1	0	0	0.28015	0.17172	0.1356	0.22811	0.1185	0.036474	0.14745	0.27409	0.21276	0.23409	0.10028	0.068181	0.081121	0.14607	0.098981	0.36568	-2.5042	-3.2646	-2.8417	-3.2271	-3.1625	-2.7729	-3.2083	-3.15	-2.9875	-3.2542	-3.1604	-3.225	-3.1646	-2.8292	-3.1104	-3.25	195.230	0.551	117.771	198.401	206.483	4.476	182.585	184.404	-81.403	142.197	-87.410	186.103	225.298	188.301	-11.239	182.664	0.00028733	0.00097527	0.00010184	1392.7	2.9189e-06	9.2323e-06	1388.1	374.55	3.9011e-06	1.0978e-06	426.39	142.05	123.48	43.071	2.9238e-06	52.781	0.00053544	0.00053825	0.00015109	1400.8	5.9004e-06	5.86e-06	1400.9	378.53	5.8645e-06	5.8742e-06	431.24	145.06	126.13	43.679	5.8488e-06	53.962	201.105	-63.336	-33.620	-109.982	92.887	6.287	-109.962	-105.568	-68.146	-37.801	-105.880	-101.997	-101.439	-96.447	-1.129	-96.782	-8191	255	
744.671	1	1	0	0	0.090476	0.14171	0.043403	0.07301	0.032598	0.10473	0.17551	0.13733	0.22994	0.030508	0.23511	0.32534	0.13463	0.1937	0.081715	0.18362	-2.3458	-3.0917	-2.9042	-3.05	-3.0563	-2.8604	-3.3792	-3.2229	-2.7562	-3.2375	-3.0312	-2.9271	-3.1146	-2.9333	-3.1479	-3.0229	-57.341	-46.467	-20.317	26.726	-113.724	139.196	171.318	184.182	12.704	-6.871	205.928	-111.255	110.175	165.008	218.306	73.517	0.00027193	0.00089923	0.0002287	1397.6	2.6109e-06	3.2367e-06	1389.5	374.54	2.6913e-06	4.3993e-06	428.07	142.12	123.52	42.958	1.5173e-06	52.761	0.00053229	0.00053516	0.00014878	1397.7	5.8444e-06	5.7647e-06	1399.7	378.8	5.8655e-06	5.8863e-06	432.56	145.15	126.29	43.752	6.0356e-06	53.998	199.364	-45.779	-22.296	-109.503	10.721	53.722	-110.055	-105.504	-57.396	63.874	-105.828	-101.994	-101.154	-96.573	-50.392	-97.260	-8191	255	
744.767	1	1	0	0	0.061271	0.31939	0.093629	0.060401	0.15043	0.14991	0.12701	0.081856	0.093448	0.060793	0.113	0.31367	0.078276	0.13335	0.23117	0.16251	-2.3854	-2.9521	-2.9896	-2.9896	-3.175	-2.6937	-3.2625	-3.2292	-2.8896	-3.1604	-2.8896	-2.9417	-3.2333	-3.0667	-2.9104	-3.2875	-5.129	164.546	-79.276	-88.398	101.437	-104.614	229.952	-116.683	183.322	117.921	212.197	195.238	200.955	150.162	-83.724	235.084	0.00038633	0.00028898	0.00013128	1406.8	6.0763e-06	7.3562e-06	1395.4	375.12	2.352e-06	5.6441e-06	427.83	141.66	123.99	42.957	1.376e-06	52.801	0.00054433	0.00054761	0.00015222	1404.6	5.9411e-06	5.9568e-06	1404.1	379.52	5.9231e-06	5.9684e-06	432.05	145.07	126.45	43.744	6.0591e-06	54.11	208.083	-14.466	-26.654	-109.584	48.227	8.144	-110.084	-105.434	-72.786	95.225	-105.890	-101.808	-101.437	-96.373	-8.373	-96.873	-8191	255	
744.864	1	1	0	0	0.20835	0.27491	0.12017	0.097193	0.11923	0.096952	0.18376	0.26984	0.26182	0.2186	0.2528	0.12542	0.071074	0.13571	0.14194	0.22843	-2.4062	-2.9771	-3.1292	-2.8812	-3.2354	-3.025	-3.2604	-3.3521	-2.8271	-3.2375	-3.3375	-2.95	-3.2458	-3.1104	-2.9188	-3.4313	-118.886	111.989	46.869	169.220	139.945	32.574	165.376	207.696	149.494	164.365	-113.783	55.905	-53.034	221.824	61.149	-37.998	0.00031141	0.00065712	0.00017397	1395	3.9812e-06	3.0835e-06	1386.1	374.72	5.2647e-06	1.7334e-06	427.06	142.16	123.31	42.969	4.0835e-06	53.121	0.00054454	0.00055081	0.00015236	1403.7	5.9567e-06	5.9032e-06	1399.8	378.98	5.9193e-06	5.8866e-06	431.83	145.12	126.37	43.705	5.9863e-06	54.012	185.290	60.304	-60.914	-110.057	41.434	4.203	-109.826	-105.455	-11.148	92.178	-105.745	-101.780	-101.359	-96.297	-92.473	-97.033	-8191	255	
744.984	1	1	0	0	0.20884	0.13166	0.14314	0.15669	0.19389	0.20254	0.13632	0.26739	0.05469	0.22904	0.23813	0.33339	0.16175	0.24567	0.12468	0.28618	-2.5521	-3.0583	-3.0917	-2.9562	-3.2042	-3.0792	-3.0979	-3.4625	-2.8417	-3.0271	-3.2229	-2.9896	-3.2062	-2.9354	-2.9854	-3.2333	42.251	70.210	9.725	210.134	228.791	160.249	223.400	149.751	211.341	-27.917	194.801	156.994	186.728	213.216	11.478	-58.184	0.00023615	0.0004424	0.00021998	1401.4	3.4243e-06	3.9243e-06	1387.4	374.55	3.1874e-06	3.9756e-06	427.26	141.84	123.74	42.932	2.0806e-06	52.847	0.00054302	0.0005541	0.00015219	1404.7	5.9744e-06	5.9581e-06	1403.2	379.69	5.9856e-06	6.0045e-06	432.63	145.51	126.76	43.713	6.0654e-06	54.103	199.664	-54.123	-20.626	-109.771	56.834	-50.319	-109.909	-105.505	28.119	130.498	-106.007	-102.112	-101.395	-96.383	-108.328	-97.050	-8191	255	
745.056	1	1	0	0	0.082901	0.15127	0.1036	0.34597	0.24013	0.1958	0.43211	0.30269	0.21456	0.11585	0.26614	0.077613	0.17575	0.24225	0.26319	0.2222	-2.5646	-3.1646	-2.9792	-2.75	-3.3375	-3.1542	-3.1396	-3.3729	-3.0312	-2.9437	-3.3271	-3.1625	-3.1917	-3.0646	-2.9167	-3.4042	77.875	116.056	49.400	110.473	46.520	-1.780	155.915	221.311	-37.759	-4.539	201.179	-27.443	87.992	221.837	7.531	101.173	0.00032319	0.00029516	0.00012361	1405.2	6.0778e-06	3.3924e-06	1391.3	376.66	5.177e-06	2.6498e-06	427.38	142	123.62	43.192	4.3953e-06	52.848	0.00054654	0.00055259	0.00015423	1409.3	6.0397e-06	5.9519e-06	1405.6	380.63	5.9404e-06	5.9892e-06	432.58	145.62	126.38	43.846	5.968e-06	54.144	207.538	30.081	-59.174	-109.811	20.214	24.642	-110.083	-105.501	-40.825	87.533	-105.723	-101.876	-101.168	-96.371	-98.688	-96.892	-8191	255	
745.152	1	1	0	0	0.085869	0.14769	0.043465	0.084639	0.26032	0.023004	0.3864	0.16651	0.18378	0.13606	0.21496	0.13177	0.22275	0.30155	0.20016	0.21067	-2.375	-3.0312	-3.425	-2.7708	-3.1146	-3.0854	-2.9479	-3.4979	-2.9792	-3.0458	-3.4396	-3.1	-3.1792	-3.1604	-2.95	-3.3	-79.761	-21.399	204.245	122.701	51.511	-67.821	172.734	-112.908	184.202	212.202	208.734	-123.012	228.349	205.150	95.052	224.268	0.00024624	0.00043872	0.00010023	1408	7.6705e-06	3.3855e-06	1391.8	375.32	5.1651e-06	3.9124e-06	428.45	141.84	123.31	43.088	9.3413e-07	53.002	0.00053465	0.00053999	0.00015065	1407.5	5.8544e-06	5.7985e-06	1402.8	379.82	5.8119e-06	5.8033e-06	431.28	144.79	125.98	43.689	5.8043e-06	53.912	203.277	-109.049	40.967	-109.974	-27.031	197.169	-109.968	-105.342	20.826	63.172	-105.850	-101.910	-101.486	-96.275	234.690	-97.008	-8191	255	
745.248	1	1	0	0	0.10045	0.059536	0.11277	0.22871	0.035374	0.086255	0.18483	0.16679	0.098715	0.092323	0.17827	0.076084	0.1973	0.22794	0.23301	0.12415	-2.6479	-3.0042	-3.2292	-2.8312	-3.1521	-3.0938	-3.0604	-3.2438	-3.0729	-3.2125	-3.4542	-3.1292	-2.9604	-3.1875	-2.8688	-3.2667	-40.890	178.366	150.231	125.964	143.433	-116.858	178.040	149.214	38.862	-29.123	181.599	-96.483	96.587	-64.445	189.706	87.657	0.00030383	0.00058549	5.8318e-05	1406.5	3.9946e-06	6.7354e-06	1382.3	375.57	9.6407e-08	4.4876e-06	429.01	141.82	123.49	42.917	7.3824e-06	52.725	0.00052772	0.00053434	0.00014893	1402.4	5.9373e-06	5.9436e-06	1398.7	379.41	5.9444e-06	5.8941e-06	432.23	145.06	125.97	43.587	5.8513e-06	53.833	192.759	-46.842	86.446	-109.959	59.866	31.136	-110.102	-105.559	-82.158	-8.800	-105.702	-101.720	-100.965	-96.621	69.091	-96.868	-8191	255	
745.369	1	1	0	0	0.17633	0.24318	0.13889	0.12479	0.17399	0.21719	0.10557	0.18985	0.13962	0.16552	0.30092	0.23961	0.13449	0.057525	0.30105	0.25919	-2.6937	-2.7896	-3.175	-3.0458	-3.0667	-3.3271	-2.9729	-3.4375	-3.15	-2.8771	-3.2146	-2.9792	-3.0771	-3.2458	-2.9396	-3.3125	200.660	100.237	120.213	171.184	113.638	22.868	217.715	173.219	-73.022	127.684	141.635	-117.760	200.142	234.617	20.116	150.694	0.00022695	0.00041841	0.00017956	1398	1.3668e-06	9.4115e-06	1391.7	375.46	4.2537e-06	2.4319e-06	427.75	141.49	123.88	42.766	8.6678e-07	52.722	0.00053158	0.00053697	0.00014931	1402.5	5.911e-06	5.9556e-06	1401.5	379.57	5.9091e-06	5.8602e-06	431.56	144.84	126	43.661	5.9375e-06	53.926	196.245	17.375	-30.324	-109.683	-113.778	31.859	-110.003	-105.323	-17.893	-58.139	-105.736	-101.909	-101.176	-96.508	67.445	-97.136	-8191	255	
745.465	1	1	0	0	0.21863	0.17585	0.17786	0.12715	0.059824	0.069988	0.40578	0.24021	0.094969	0.026337	0.16316	0.067736	0.019873	0.18237	0.076992	0.12048	-2.4646	-2.6229	-3.2583	-2.9896	-2.9	-3.2833	-3.2333	-3.0958	-3.2229	-2.8417	-3.3333	-2.8896	-3.0979	-3.1083	-2.7479	-3.2125	74.943	85.672	-111.425	23.260	179.835	76.502	158.780	168.991	197.403	-69.004	228.912	58.096	119.350	133.932	-36.621	135.951	0.0003051	4.2595e-05	0.0001272	1397.2	4.5342e-06	4.7751e-06	1388.3	375.2	3.4376e-06	7.4964e-06	427.58	142.13	123.72	42.957	7.611e-06	52.929	0.00053787	0.00054296	0.00015319	1399.7	6.0449e-06	6.0002e-06	1400	379.44	5.9263e-06	5.9545e-06	431.71	145.08	126.2	43.603	5.9223e-06	53.945	198.302	201.940	-15.194	-109.751	24.807	34.003	-109.972	-105.257	-55.391	24.100	-105.692	-101.798	-101.350	-96.400	16.505	-97.158	-8191	255	
745.561	1	1	0	0	0.07888	0.036998	0.1279	0.081412	0.27701	0.11616	0.18081	0.18603	0.1947	0.19287	0.11482	0.12179	0.1284	0.19943	0.085091	0.053443	-2.8146	-2.8917	-3.1896	-2.8688	-3.0875	-3.1792	-3.1	-3.1042	-3.1312	-2.8729	-3.2604	-3.1396	-3.0687	-3.3958	-3.0521	-3.1646	93.422	147.446	64.668	-48.641	41.119	173.761	192.616	115.615	125.318	132.722	-92.149	110.310	-44.006	211.338	-34.452	235.771	0.00026837	0.00069144	0.00022481	1393.4	2.5087e-06	7.2582e-06	1384.6	374.79	6.4257e-06	8.6547e-07	424.72	141.52	123.37	42.799	5.8672e-06	52.934	0.00053609	0.0005434	0.00015333	1400.9	5.9872e-06	5.9845e-06	1399.4	379.15	5.9828e-06	5.9857e-06	430.78	144.91	126.1	43.574	5.987e-06	53.992	201.461	2.913	-69.147	-110.068	-25.568	11.226	-110.084	-105.402	21.341	-78.539	-105.753	-101.917	-101.292	-96.412	28.295	-96.778	-8191	255	
745.633	1	1	0	0	0.11497	0.11108	0.12951	0.091342	0.2298	0.073779	0.29801	0.40004	0.073144	0.30641	0.062443	0.10691	0.21613	0.17277	0.11157	0.11351	-2.7021	-2.9167	-3.2292	-3.1813	-3.0729	-3.3208	-3.2687	-3.1958	-3.3271	-2.8104	-3.1958	-3.1063	-2.8208	-3.1729	-3.175	-3.1604	131.790	162.033	-116.259	87.719	-39.563	216.892	187.097	164.153	190.822	156.109	163.813	188.498	188.866	171.138	-79.925	-55.386	0.00027102	0.00067386	0.00015666	1396.4	5.1996e-06	5.6622e-06	1383.7	374.26	5.5516e-06	5.0844e-06	427.34	142.28	123.74	42.967	4.9466e-06	53.128	0.00054544	0.00055355	0.00015543	1401.4	6.0591e-06	6.0557e-06	1400	379.12	6.0248e-06	6.0575e-06	432.01	145.27	126.35	43.71	6.129e-06	54.068	199.165	8.380	-53.687	-110.009	45.660	-60.831	-109.978	-105.539	-47.929	17.619	-105.970	-101.798	-101.392	-96.471	-45.929	-96.976	-8191	255	
745.752	1	1	0	0	0.20019	0.08014	0.31494	0.10235	0.12574	0.21905	0.26689	0.27586	0.12735	0.15559	0.25356	0.074243	0.17906	0.185	0.2497	0.043055	-2.7458	-2.9667	-3.2042	-3.2521	-2.8083	-3.2646	-3.2917	-3.1542	-3.2146	-2.9313	-3.2083	-3.1458	-2.9813	-3.3042	-2.9854	-3.0167	15.866	195.579	-29.867	162.880	-102.007	87.970	190.710	188.192	-32.104	232.546	-101.752	71.566	105.876	200.602	136.794	119.941	0.00028747	0.00033655	0.00021937	1402.3	7.5029e-06	2.0937e-06	1391.9	375.85	1.6337e-06	3.9732e-06	428.53	142.09	123.79	42.935	4.4229e-06	52.995	0.00055288	0.00056619	0.00015823	1413.5	6.2244e-06	6.2119e-06	1405.7	380.66	6.1183e-06	6.1135e-06	433.07	145.39	126.33	43.747	6.1397e-06	54.068	210.093	-53.682	-18.227	-109.827	-10.256	54.129	-109.998	-105.415	33.765	5.934	-105.804	-101.949	-101.111	-96.419	-22.975	-96.975	-8191	255	
745.848	1	1	0	0	0.3679	0.19886	0.19561	0.14559	0.13176	0.097232	0.14095	0.39858	0.25709	0.11184	0.16177	0.20171	0.062041	0.19586	0.027608	0.22959	-2.8563	-2.9313	-2.8812	-3.1729	-2.825	-3.0979	-3.1917	-3.1937	-3.1521	-2.9958	-3.1562	-3.2771	-2.9667	-3.1896	-3.0417	-3.0125	132.743	175.548	103.174	209.752	89.369	231.321	159.797	200.359	-19.503	-118.692	150.626	83.564	152.839	169.819	152.900	198.608	0.00030305	0.00084696	0.00023069	1396.6	7.1825e-06	7.1145e-06	1387.4	375.37	1.3387e-06	3.8612e-06	426.58	142.48	123.82	42.966	5.3173e-06	53.034	0.00055736	0.00056407	0.00015818	1407.9	6.1803e-06	6.1205e-06	1403.6	379.95	6.1448e-06	6.1421e-06	433.02	145.47	126.48	43.74	6.2396e-06	54.178	198.852	-64.297	-46.377	-109.846	16.830	63.385	-110.208	-105.447	-116.651	149.582	-105.944	-101.826	-101.600	-96.419	41.246	-97.147	-8191	255	
745.944	1	1	0	0	0.28945	0.13375	0.1034	0.12099	0.13197	0.17134	0.14625	0.39146	0.18356	0.41375	0.11163	0.22486	0.37051	0.20924	0.40031	0.15986	-2.7542	-3.0229	-2.9875	-3.2208	-2.6562	-3.1937	-3.325	-3.0396	-3.0667	-2.9583	-3.0312	-3.3167	-2.8875	-3.1771	-3.0542	-2.9104	-97.699	56.192	38.810	229.524	2.922	130.577	178.977	205.151	162.294	-53.111	-54.453	231.396	181.476	160.139	104.745	-23.266	0.00024071	0.0001906	0.00018254	1399.2	4.1061e-06	8.769e-06	1390.1	376.11	6.1297e-06	3.502e-06	428.51	142.14	123.35	42.927	5.4088e-06	53.212	0.00056152	0.00057286	0.00016089	1408.7	6.2618e-06	6.2463e-06	1407.2	380.46	6.1896e-06	6.2332e-06	432.99	145.55	126.53	43.771	6.2624e-06	54.127	214.026	223.661	-78.517	-110.113	-28.089	-17.867	-109.851	-105.336	188.394	-8.806	-105.894	-101.934	-101.074	-96.535	64.988	-97.107	-8191	255	
746.065	1	1	0	0	0.20777	0.087424	0.054881	0.14407	0.12904	0.20233	0.30454	0.18605	0.30704	0.050454	0.15971	0.4024	0.1565	0.21421	0.25345	0.23957	-2.7708	-3.0187	-3.0292	-3.3438	-2.8688	-3.075	-3.2771	-3.1625	-3.1479	-2.9813	-3.0521	-3.2583	-2.9167	-3.2542	-3.0292	-2.9271	75.830	171.600	-4.585	-44.395	170.373	62.158	175.772	199.627	52.095	206.665	226.899	-120.121	-75.791	146.955	126.733	191.778	0.00027378	0.00050431	0.00020867	1405.7	1.229e-06	3.4474e-06	1391.2	376.59	4.1437e-06	3.2784e-06	426.7	141.89	123.11	42.798	5.1202e-06	52.954	0.00056357	0.00057394	0.00016006	1411.1	6.2301e-06	6.2601e-06	1405.6	380.8	6.1576e-06	6.1717e-06	432.36	145.43	126.39	43.693	6.2661e-06	54.053	203.333	-14.075	-40.139	-109.983	-7.336	103.329	-110.059	-105.437	-29.522	95.041	-105.996	-101.756	-101.288	-96.385	-24.814	-97.080	-8191	255	
746.161	1	1	0	0	0.055922	0.086851	0.13433	0.054006	0.18854	0.10951	0.10518	0.006323	0.17439	0.26968	0.033273	0.081457	0.079634	0.11391	0.14054	0.29175	-2.8187	-2.8688	-2.8625	-3.1354	-2.8583	-3.0146	-3.3187	-3.0438	-3.1833	-3.1854	-3	-3.1375	-2.8542	-2.9896	-3.2875	-2.9708	127.472	231.426	-102.823	166.230	200.666	232.405	171.318	216.616	-51.105	220.245	-71.062	191.178	207.470	-122.443	-115.884	183.110	0.00026449	0.00023563	0.00014672	1399.5	4.5721e-06	2.8698e-06	1391.9	375.77	2.0417e-06	5.0334e-06	429.19	142.63	124.48	42.911	8.9555e-06	53.032	0.00056317	0.0005765	0.00015957	1412.1	6.3586e-06	6.3753e-06	1408.3	381.19	6.4048e-06	6.4573e-06	435.46	146.18	127.4	43.907	6.5996e-06	54.361	191.568	125.091	-31.451	-109.759	-24.306	101.506	-109.970	-105.436	35.284	59.617	-105.733	-102.112	-101.336	-96.337	6.771	-96.885	-8191	255	
746.257	1	1	0	0	0.025009	0.081264	0.1508	0.16319	0.2418	0.12306	0.1636	0.36456	0.10019	0.17415	0.21685	0.17032	0.1587	0.25884	0.096707	0.19751	-2.4917	-3.0083	-2.9396	-3.2854	-2.9375	-3.0104	-3.4854	-2.9771	-3.1	-3.15	-2.8792	-3.3333	-3.1646	-3.0542	-3.1458	-3.0375	-63.504	-7.840	-95.285	155.184	-35.996	-53.729	62.372	221.941	229.490	62.904	-119.057	186.095	219.347	-113.063	87.102	-79.764	0.00029723	0.00020143	9.0609e-05	1417.5	3.5469e-06	5.1565e-06	1395	376.79	3.8204e-06	4.2677e-06	428.44	142.97	123.44	42.809	5.8262e-06	53.022	0.00059536	0.00059938	0.00016705	1425.2	6.5061e-06	6.4687e-06	1413	381.98	6.387e-06	6.3972e-06	435.47	146.2	127.1	43.852	6.4094e-06	54.318	194.799	19.516	15.004	-109.669	-23.232	18.151	-109.981	-105.515	-23.101	31.606	-105.736	-101.620	-101.266	-96.400	63.324	-97.035	-8191	255	
746.353	1	1	0	0	0.054677	0.32989	0.10596	0.064565	0.21213	0.33398	0.046564	0.36816	0.069981	0.19289	0.25038	0.30265	0.2434	0.16891	0.20306	0.2265	-2.6354	-3.0542	-2.9208	-3.4854	-3.0958	-3.0521	-3.3875	-3.1333	-3.0938	-3.2521	-2.9208	-3.2833	-3.0042	-3.0917	-3.3042	-2.8625	193.734	14.472	190.198	151.998	-109.915	1.817	47.729	146.355	-90.753	-78.511	-119.886	235.397	175.481	207.792	125.393	43.268	0.00026479	0.0010006	0.00019976	1405.3	3.7017e-06	6.7675e-06	1396	377.03	3.9345e-06	5.3345e-06	429.09	142.76	124.57	43.082	3.9351e-06	52.982	0.0005843	0.00059263	0.00016559	1421.2	6.5236e-06	6.5311e-06	1413.9	382.33	6.5029e-06	6.6182e-06	436.73	146.48	127.72	43.964	6.6306e-06	54.418	206.418	-71.041	-105.696	-109.799	33.534	39.315	-109.953	-105.489	-27.703	-3.152	-105.903	-101.936	-101.426	-96.293	133.818	-96.615	-8191	255	
746.449	1	1	0	0	0.069291	0.25233	0.10563	0.20622	0.089434	0.10086	0.17703	0.3028	0.20722	0.096646	0.22162	0.17252	0.12015	0.070556	0.046151	0.25549	-2.55	-3.1854	-2.7979	-3.2729	-3.0708	-2.9104	-3.3604	-3.1271	-2.9104	-3.1583	-2.9458	-3.2042	-3.0729	-3.0333	-3.2229	-3.2021	179.382	-90.517	-113.013	187.627	-86.242	190.532	225.506	133.728	227.587	-12.373	177.529	227.562	60.103	130.755	-10.103	-122.685	0.00024272	0.00050175	0.0001711	1410.8	3.5373e-06	5.0354e-06	1395.4	378.29	2.5562e-06	6.3324e-06	432.55	142.52	124.34	43.108	2.2016e-06	53.334	0.00059831	0.00060635	0.00016957	1427.3	6.6802e-06	6.6894e-06	1418.8	383.71	6.6506e-06	6.6471e-06	437.67	146.54	127.64	44.052	6.5273e-06	54.476	204.162	9.433	-29.157	-109.871	-38.690	5.938	-109.899	-105.486	11.873	32.734	-105.693	-101.957	-101.103	-96.434	-52.283	-96.776	-8191	255	
746.545	1	1	0	0	0.15833	0.12083	0.10176	0.056353	0.07795	0.15759	0.17044	0.16255	0.38334	0.20685	0.22817	0.17055	0.10075	0.21797	0.34615	0.35693	-2.6021	-3.125	-2.6146	-3.1729	-3.125	-2.8729	-3.2771	-3.1167	-2.8333	-3.25	-3.0292	-3.2458	-3.1396	-2.9354	-3.0854	-3.1979	116.069	-77.000	-51.082	138.207	-66.758	71.291	68.601	165.987	-35.398	55.862	163.209	157.310	-50.595	236.423	-97.676	144.702	0.00023135	0.00026745	0.00019832	1415.8	3.2619e-06	6.4685e-06	1401.8	377.89	2.9326e-06	6.5456e-06	429.77	142.34	124.28	42.995	2.4824e-06	53.14	0.0005855	0.00059334	0.00016328	1425.1	6.3563e-06	6.3361e-06	1415.8	382.8	6.2838e-06	6.3372e-06	436.36	146.4	127.19	43.958	6.3547e-06	54.337	211.620	-60.768	-16.035	-109.929	-68.445	-46.712	-109.896	-105.344	-53.914	86.241	-105.604	-102.003	-101.318	-96.373	17.489	-97.238	-8191	255	
746.664	1	1	0	0	0.1742	0.088603	0.20399	0.18691	0.17376	0.14473	0.11137	0.27659	0.14573	0.11064	0.045999	0.22125	0.11921	0.32987	0.11327	0.24982	-2.4813	-3.0667	-2.8479	-2.9938	-2.9625	-2.875	-3.1729	-3.1688	-2.7958	-3.1646	-3.0521	-3.0104	-3.2667	-2.9083	-3.2313	-3.15	91.433	235.693	205.585	-117.492	-55.614	159.924	112.400	175.009	66.867	-80.515	144.301	111.046	39.409	233.864	-60.312	147.201	0.00030028	0.00060321	0.00019168	1409.7	5.01e-06	7.588e-06	1401.5	377.67	2.7065e-06	8.4345e-06	431.06	142.44	124.68	43.096	5.5356e-06	53.159	0.00057216	0.00057717	0.00016174	1418.8	6.3459e-06	6.3404e-06	1413.5	382.54	6.2997e-06	6.2195e-06	436	146.05	127.09	43.894	6.1322e-06	54.266	191.683	210.597	-54.658	-109.900	32.200	46.489	-110.035	-105.379	155.694	52.853	-105.665	-101.909	-101.522	-96.467	74.884	-96.993	-8191	255	
746.760	1	1	0	0	0.25197	0.171	0.13864	0.15008	0.094589	0.11109	0.14252	0.36449	0.095014	0.26771	0.23384	0.070333	0.086405	0.39997	0.10046	0.15176	-2.4625	-3.1604	-2.8542	-2.9437	-3.1646	-2.8396	-3.2667	-3.3271	-3.0146	-3.1333	-3.0292	-3.0521	-3.1604	-2.9375	-2.8708	-3.0438	-11.245	-104.848	-120.511	-8.980	168.640	-40.687	170.118	226.418	-10.615	-10.395	153.028	-91.191	194.768	-104.446	-57.683	140.685	0.00034027	0.00066175	0.00015304	1399.9	2.8832e-06	7.5854e-06	1394.7	377.28	6.1079e-06	7.855e-06	428.91	141.7	123.96	43.028	3.4523e-06	53.123	0.00055177	0.00056097	0.00015661	1410.6	6.2039e-06	6.1717e-06	1411.4	381.81	6.1746e-06	6.2434e-06	434.03	145.76	126.87	43.815	6.1794e-06	54.204	203.848	-19.173	-73.419	-109.804	-38.707	3.854	-110.056	-105.549	1.382	29.268	-105.703	-101.744	-101.447	-96.457	96.130	-96.824	-8191	255	
746.857	1	1	0	0	0.11167	0.037463	0.24644	0.15117	0.078035	0.13833	0.30056	0.29398	0.052743	0.14581	0.20407	0.18711	0.31334	0.15177	0.14255	0.040782	-2.7	-3.1396	-2.9562	-2.8917	-3.25	-2.8604	-3.3167	-3.3521	-3.0104	-3.1771	-3.0854	-2.9042	-3.2042	-3.0271	-3.0438	-3.2438	-122.750	-112.740	234.871	128.317	129.507	9.865	183.104	164.551	-73.976	-50.410	-55.091	200.722	191.068	196.663	-62.589	-94.459	0.00024152	0.00077688	0.00017929	1408.2	3.2075e-06	4.7316e-06	1392	376.72	4.3345e-06	3.1463e-06	431.07	141.93	124.22	42.809	4.6946e-06	53.239	0.0005575	0.00056178	0.00015557	1411.9	6.0918e-06	6.1406e-06	1405.1	381.32	6.0585e-06	6.0676e-06	434.53	145.59	126.37	43.629	5.9159e-06	54.049	183.644	33.774	-92.441	-110.028	43.241	33.033	-109.779	-105.433	214.516	-17.336	-105.960	-101.862	-101.068	-96.173	-11.081	-96.952	-8191	255	
746.928	1	1	0	0	0.13746	0.060548	0.22587	0.18263	0.1627	0.16673	0.13145	0.21956	0.084088	0.12315	0.12471	0.33899	0.092329	0.16158	0.18035	0.22527	-2.4292	-3.0875	-2.9333	-2.9583	-3.3	-2.9229	-3.25	-3.2896	-2.9042	-3.2812	-3.0146	-2.9104	-3.1312	-3.1833	-3.0021	-3.2292	90.455	-106.027	39.702	-87.205	-1.429	12.124	-86.417	-103.373	-64.835	227.200	-108.373	155.334	-18.227	-28.686	-101.490	190.199	0.00029122	0.00017636	0.00015509	1404.4	3.5824e-06	8.2094e-06	1395.4	374.93	5.2081e-06	3.5296e-06	427.7	141.89	123.85	42.878	4.4706e-06	53.089	0.00052782	0.00052819	0.00014746	1402	5.7379e-06	5.7712e-06	1400.9	379.21	5.8141e-06	5.819e-06	432.01	144.91	126.14	43.606	5.9911e-06	53.976	198.413	192.303	-53.722	-109.518	42.849	74.659	-109.979	-105.332	177.537	41.943	-105.555	-101.959	-101.438	-96.302	30.943	-97.133	-8191	255	
747.049	1	1	0	0	0.15982	0.2018	0.30345	0.20573	0.2223	0.13746	0.43787	0.26371	0.10648	0.10995	0.038747	0.19854	0.11259	0.1427	0.068751	0.083601	-2.4375	-3.1833	-3.0917	-2.9458	-3.1125	-3.0375	-3.0854	-3.4125	-2.8208	-3.0208	-3.2667	-2.7583	-3.2229	-2.8771	-3.0312	-3.1292	-83.222	201.395	123.249	110.234	82.814	-80.227	199.037	197.787	-74.900	-52.788	-109.944	138.549	-80.624	-91.225	94.992	231.415	0.00020858	0.00038928	0.00012175	1404.8	1.1639e-06	7.8189e-06	1387.2	375.13	2.877e-06	4.4726e-06	427.35	141.79	123.3	42.96	2.8859e-06	52.745	0.00054508	0.0005531	0.00015464	1405.6	6.1382e-06	6.1054e-06	1402.3	380.19	6.1738e-06	6.1499e-06	432.85	145.5	126.42	43.759	6.13e-06	53.967	196.434	21.373	33.014	-109.653	86.235	3.612	-109.914	-105.487	-22.913	10.824	-106.017	-101.812	-101.435	-96.439	-109.070	-97.030	-8191	255	
747.145	1	1	0	0	0.19482	0.077525	0.048235	0.19781	0.21012	0.25322	0.17129	0.23682	0.029526	0.11137	0.14237	0.057186	0.34428	0.16359	0.17965	0.20551	-2.4437	-2.8271	-3.0542	-2.7646	-3.1688	-3.0187	-3.2	-3.2021	-2.9542	-3.0062	-3.2938	-2.9	-3.1979	-3.2	-2.8271	-3.2917	114.201	-40.507	1.390	191.909	-74.416	162.712	130.299	181.821	-20.551	229.207	97.693	-37.556	200.983	213.854	83.514	-105.550	0.00029397	0.0006923	0.0001077	1397.9	5.2911e-07	7.0685e-06	1383	375.68	5.3831e-06	3.7859e-06	426.44	141.97	123.26	42.816	2.5232e-06	53.037	0.00054982	0.00055069	0.00015295	1404.2	5.9353e-06	5.9989e-06	1397.9	379.98	6.0269e-06	6.0357e-06	432.82	145.26	126.13	43.581	6.0865e-06	53.904	193.208	-45.046	-78.132	-109.724	229.919	35.786	-109.922	-105.436	-97.440	169.489	-105.853	-102.077	-101.186	-96.639	93.460	-96.927	-8191	255	
747.241	1	1	0	0	0.019817	0.096167	0.22914	0.17278	0.13013	0.20752	0.37554	0.24205	0.18085	0.13172	0.10503	0.1183	0.39289	0.34527	0.15164	0.043701	-2.2708	-2.9167	-3.1479	-2.9417	-3.1396	-3.1917	-3.0375	-3.4	-2.8083	-2.9313	-3.3063	-2.9854	-3.1792	-3.0896	-2.6813	-3.3083	44.133	-36.836	57.849	-87.623	193.085	96.669	209.500	204.201	0.768	56.385	15.847	-70.387	144.528	-87.790	232.236	-45.526	0.00027496	0.00076962	0.00011168	1400.4	3.13e-06	6.5799e-06	1383.8	374.34	2.1523e-06	2.6839e-06	426.61	141.37	122.77	42.79	4.1614e-07	52.847	0.00054011	0.00054579	0.00015191	1401.5	5.9677e-06	5.9849e-06	1400.2	379.36	6.0242e-06	6.0594e-06	432.68	144.82	126.08	43.627	6.1319e-06	53.876	205.708	-4.669	14.329	-109.957	-18.928	18.961	-109.951	-105.379	-73.216	43.292	-105.761	-101.746	-101.349	-96.463	-111.892	-96.899	-8191	255	
747.337	1	1	0	0	0.12333	0.18176	0.080698	0.094654	0.21067	0.21643	0.40413	0.08391	0.11084	0.11856	0.18944	0.10721	0.14516	0.24487	0.19196	0.17838	-2.4021	-2.9458	-3.1521	-2.9271	-3.1417	-3.2375	-3.1646	-3.2896	-2.8854	-2.8792	-3.3021	-2.9354	-3.1625	-3.1979	-2.7812	-3.4292	20.618	75.889	184.716	127.527	103.917	85.032	199.412	77.006	116.442	110.743	86.387	181.087	88.879	227.144	15.775	96.393	0.00031123	0.001129	0.00019149	1394.6	3.2798e-06	8.0037e-06	1386	374.38	7.8406e-07	4.0521e-06	429.14	141.67	123.04	42.681	3.5594e-06	52.371	0.0005518	0.00055966	0.00015439	1405.2	6.1333e-06	6.126e-06	1401.4	379.8	6.1439e-06	6.1608e-06	432.85	145.17	126.06	43.572	6.2075e-06	53.823	205.347	-27.486	-61.659	-109.661	-29.180	31.113	-109.816	-105.346	8.815	37.710	-105.745	-101.667	-101.390	-96.326	30.633	-96.790	-8191	255	
747.433	1	1	0	0	0.1078	0.042714	0.11881	0.18713	0.22096	0.039812	0.16046	0.11557	0.15131	0.13622	0.15458	0.26833	0.17543	0.22776	0.082819	0.15757	-2.6083	-2.8208	-3.2	-2.9042	-2.975	-3.2104	-3.1521	-3.1833	-3.1417	-2.7833	-3.1813	-2.9896	-3.0083	-3.1625	-2.6854	-3.2375	186.435	-100.780	-27.472	-92.729	62.487	204.494	169.339	-92.937	88.561	102.649	113.686	190.195	138.112	230.524	82.504	-96.088	0.00033674	0.00036002	0.00019788	1395.1	2.23e-06	1.1559e-05	1381.2	374.69	4.1082e-06	9.6922e-07	427.11	141.91	123.15	42.575	4.7408e-06	52.588	0.00055764	0.00056485	0.00015779	1404.4	6.2689e-06	6.2423e-06	1400.3	379.73	6.214e-06	6.2202e-06	432.67	144.99	126.05	43.482	6.1588e-06	53.832	197.229	-38.010	-11.396	-109.733	-43.989	84.399	-110.090	-105.446	13.912	-26.469	-105.886	-102.041	-101.429	-96.193	83.495	-96.920	-8191	255	
747.530	1	1	0	0	0.20499	0.20019	0.083563	0.19401	0.11359	0.0742	0.31809	0.079608	0.17242	0.098009	0.15191	0.16371	0.34287	0.18862	0.14617	0.060309	-2.8187	-2.6479	-3.1333	-2.775	-2.8583	-3.1146	-2.85	-3.1937	-2.8979	-2.8583	-3.2	-3.0375	-2.9083	-3.1458	-2.9333	-3.1604	226.889	210.053	11.468	29.591	-25.073	56.587	157.557	202.987	-107.430	17.390	-97.368	-31.396	-117.178	-61.213	49.829	-8.329	0.00028465	0.00062932	0.00013609	1390.9	4.3223e-06	5.3023e-06	1389.5	374.37	3.2451e-06	2.5464e-06	426.92	140.97	122.8	42.65	3.6679e-06	52.515	0.0005584	0.00056164	0.00015679	1402.7	6.1821e-06	6.2035e-06	1401.8	379.54	6.1923e-06	6.1806e-06	432.46	144.57	125.85	43.489	6.2709e-06	53.84	202.220	-12.562	-26.056	-109.670	17.101	-4.790	-109.835	-105.382	-41.761	-1.042	-105.792	-101.879	-101.375	-96.174	8.865	-96.808	-8191	255	
747.626	1	1	0	0	0.15437	0.10204	0.097393	0.1026	0.20304	0.15259	0.091448	0.27373	0.083021	0.088234	0.15209	0.079586	0.22043	0.26425	0.069673	0.24776	-2.6917	-2.8812	-3.15	-2.9479	-3.0938	-3.1813	-3.1167	-3.0521	-3.0979	-3.0958	-3.4417	-3.2417	-3.0104	-3.3208	-2.9542	-2.9521	104.139	121.525	35.940	139.361	-0.283	2.011	18.472	160.617	142.067	-79.491	106.370	-97.392	223.830	185.628	-21.488	39.061	0.00023913	0.0003301	0.00018413	1401	4.4187e-06	5.0935e-06	1393.9	376.57	6.5932e-06	5.4996e-06	427.21	141.13	124.41	42.818	5.8709e-06	52.779	0.00056899	0.00057821	0.00016459	1413.4	6.4768e-06	6.5685e-06	1409.9	382.03	6.5698e-06	6.5736e-06	435.65	145.71	126.98	43.755	6.4049e-06	54.124	218.407	21.584	-27.191	-109.735	217.381	-56.891	-110.016	-105.334	-66.508	-32.702	-106.044	-101.842	-101.125	-96.240	18.074	-96.915	-8191	255	
747.745	1	1	0	0	0.020733	0.13827	0.14574	0.089038	0.26009	0.045422	0.090854	0.16111	0.2327	0.1618	0.19853	0.24489	0.15205	0.23339	0.15135	0.17209	-2.8937	-2.9917	-3.1271	-2.9875	-2.8271	-3.1437	-3.1146	-3.1937	-3.2417	-2.8583	-3.3958	-3.2667	-2.9896	-3.1458	-2.8146	-3.0646	-101.415	153.469	-114.171	-25.226	77.598	136.969	232.730	174.684	136.013	26.450	200.125	193.219	158.968	216.063	-114.616	217.745	0.00025595	0.00018332	0.00024705	1409.1	3.3626e-06	9.4466e-06	1390.2	375.14	4.2439e-06	4.1061e-06	429.48	141.93	123.05	42.823	5.4655e-06	52.887	0.00056893	0.00057223	0.00015957	1412	6.2123e-06	6.1761e-06	1407.7	380.56	6.1922e-06	6.2489e-06	434.09	145.38	126.39	43.676	6.2654e-06	53.982	196.427	-115.176	-101.083	-109.829	34.532	23.138	-109.962	-105.336	-4.502	-21.320	-105.795	-101.758	-101.184	-96.408	63.590	-96.993	-8191	255	
747.841	1	1	0	0	0.27929	0.17065	0.15237	0.23778	0.1477	0.15265	0.20923	0.44992	0.20464	0.1111	0.15763	0.19658	0.13816	0.13227	0.13464	0.28031	-2.725	-2.85	-2.9604	-2.9854	-2.9146	-3.1354	-3.1625	-3.1688	-3.2271	-2.95	-3.2729	-3.1229	-2.8583	-3.3417	-2.9688	-3.0417	-19.651	-11.444	33.821	53.952	-109.149	2.680	-98.341	162.279	22.661	-58.439	192.543	-73.010	-89.049	-44.904	137.467	189.682	0.00028365	0.00039883	0.00018491	1405.7	4.4414e-06	1.145e-05	1395.2	377.83	8.6344e-07	7.6075e-06	429.8	141.72	123.59	42.942	4.2937e-06	52.967	0.00056567	0.00057638	0.00016065	1414.9	6.3622e-06	6.3473e-06	1410.4	382.24	6.3795e-06	6.4573e-06	435.63	145.89	126.91	43.843	6.408e-06	54.219	205.750	11.588	-81.399	-109.948	-2.684	1.531	-110.016	-105.365	-110.430	12.264	-105.881	-101.970	-101.276	-96.435	11.506	-97.041	-8191	255	
747.937	1	1	0	0	0.14127	0.053045	0.20784	0.025497	0.079384	0.25731	0.070357	0.13163	0.1575	0.27325	0.20662	0.10546	0.27532	0.19787	0.25584	0.12284	-2.8083	-2.9104	-3.0146	-3.1646	-2.875	-3.1042	-3.0563	-3.0521	-3.2604	-2.9208	-3.1104	-3.1458	-2.7313	-3.1583	-3.0438	-2.9813	208.677	111.965	111.258	217.615	158.417	223.059	181.833	-91.846	-90.608	181.270	210.799	125.449	195.980	-87.937	-106.623	218.777	0.00026236	0.00083735	0.00013551	1416.2	8.248e-06	1.1149e-06	1403.6	376.42	3.1525e-06	6.447e-06	431.52	141.63	123.41	42.797	2.0868e-06	53.076	0.00057912	0.00058254	0.00016137	1424.2	6.4025e-06	6.3872e-06	1416.7	382.14	6.4124e-06	6.495e-06	436.7	146.35	127.16	43.897	6.5358e-06	54.409	193.203	-11.439	-73.632	-109.837	3.929	38.402	-109.863	-105.179	232.042	49.406	-105.804	-101.780	-101.226	-96.513	84.898	-96.888	-8191	255	
748.033	1	1	0	0	0.14345	0.11701	0.11613	0.055824	0.26136	0.14502	0.33121	0.083968	0.054485	0.08212	0.080701	0.14847	0.17781	0.033391	0.12925	0.29055	-2.6917	-2.925	-3.0771	-3.2646	-2.8542	-2.9958	-3.2792	-3.0042	-3.1896	-2.8646	-2.9146	-3.3333	-2.9021	-3.375	-3.0208	-2.9188	27.159	178.860	58.881	-10.922	194.069	74.294	207.193	54.943	227.904	91.130	235.920	233.242	212.721	34.920	218.710	198.619	0.00025774	0.00051196	0.0002903	1417.8	5.6843e-06	6.5331e-06	1408.1	377.98	3.9937e-06	3.1554e-06	430.95	142.75	124.01	42.954	8.1957e-06	52.921	0.00058426	0.00059821	0.00016765	1433.7	6.5822e-06	6.6347e-06	1424	383.64	6.6048e-06	6.6717e-06	438.49	147	127.92	44.032	6.601e-06	54.55	195.799	27.758	-78.497	-109.822	22.810	-11.718	-110.013	-105.514	-73.129	31.845	-106.036	-101.690	-101.388	-96.189	19.238	-96.922	-8191	255	
748.154	1	1	0	0	0.12848	0.26187	0.17234	0.25039	0.12331	0.12424	0.12773	0.041471	0.10089	0.35917	0.30112	0.16298	0.30008	0.1948	0.11838	0.088331	-2.8646	-2.8604	-2.9813	-3.2146	-3.0125	-3.225	-3.3375	-2.9771	-3.0229	-2.8604	-2.9146	-3.2438	-2.9125	-3.3021	-3.1771	-2.7979	144.718	9.170	-75.322	-113.798	-1.311	-35.395	195.483	217.808	135.007	28.482	147.270	55.540	-68.334	143.313	-48.846	165.839	0.00028017	0.0011047	7.8184e-05	1422.8	3.2041e-06	3.1818e-06	1409	378.36	6.2425e-06	5.4948e-07	433.4	142.77	124.4	43.268	2.0792e-06	53.268	0.00059094	0.00060132	0.00016662	1433.5	6.5411e-06	6.4469e-06	1428	383.99	6.4554e-06	6.463e-06	438.28	146.65	127.86	44.03	6.5647e-06	54.514	202.110	-25.901	-35.545	-109.744	54.405	66.680	-109.602	-105.532	-60.046	-102.972	-106.038	-101.885	-101.320	-96.263	91.059	-97.028	-8191	255	
748.225	1	1	0	0	0.12128	0.085979	0.14812	0.17613	0.25666	0.27021	0.39233	0.20092	0.18052	0.15214	0.15177	0.14537	0.237	0.32219	0.032603	0.11657	-2.7	-3.0042	-2.9271	-3.1688	-2.9479	-2.8937	-3.2208	-3.075	-3.2417	-3.0042	-2.9938	-3.3708	-3.0271	-2.9562	-3.2646	-3.025	-15.732	214.428	93.230	228.249	-51.129	182.643	152.908	188.248	-37.767	67.855	176.540	167.871	229.410	-105.473	221.073	175.169	0.00027644	0.00083934	7.0544e-05	1416.3	4.3007e-06	1.4315e-06	1410.2	379.64	2.1359e-06	2.6772e-06	430.17	142.73	124.25	43.156	6.5227e-06	53.156	0.00058861	0.00059487	0.00016512	1431.3	6.4857e-06	6.4148e-06	1426.3	384.21	6.3775e-06	6.4942e-06	437.01	146.88	127.65	44.125	6.4811e-06	54.613	200.259	24.835	17.182	-109.740	-27.937	46.890	-109.895	-105.481	12.342	-5.511	-105.793	-101.959	-101.299	-96.554	-37.394	-96.829	-8191	255	
748.346	1	1	0	0	0.34067	0.13028	0.39608	0.11021	0.15587	0.20664	0.098846	0.043437	0.20753	0.29588	0.12172	0.17278	0.17227	0.26458	0.28824	0.081788	-2.7583	-3.0729	-2.8187	-3.1479	-2.9313	-3.0187	-3.3646	-2.9437	-3.1292	-2.9667	-2.8708	-3.3896	-3.0729	-2.9771	-3.1063	-2.9708	-91.025	-12.320	-43.771	191.299	-33.749	-114.305	190.108	219.363	138.146	-118.361	182.800	87.028	-61.042	-121.099	-9.707	213.556	0.00029959	0.00095039	0.00027335	1426	3.5215e-06	2.1607e-06	1404	378.2	4.8346e-06	1.9437e-06	432.91	143.08	124.07	42.983	3.3572e-06	53.204	0.00058577	0.00059358	0.00016459	1434.4	6.4422e-06	6.4539e-06	1422.9	383.71	6.4617e-06	6.4886e-06	437.72	146.72	127.41	43.994	6.4597e-06	54.484	196.343	0.403	-65.019	-110.039	54.404	-27.452	-110.045	-105.383	-46.025	-120.749	-105.822	-101.754	-101.341	-96.375	74.341	-96.992	-8191	255	
748.442	1	1	0	0	0.11951	0.19174	0.089537	0.14314	0.13908	0.19883	0.27146	0.25899	0.13772	0.030793	0.24018	0.19275	0.37253	0.14256	0.1018	0.060063	-2.6208	-3.0687	-2.7042	-3.1146	-2.9292	-2.8604	-3.2562	-2.8708	-3.0438	-2.875	-3.0563	-3.2708	-3.1229	-3.1021	-3.2083	-3.0583	214.597	3.697	-98.882	236.640	131.330	153.302	175.488	135.372	225.965	-74.157	187.000	129.793	232.885	192.214	192.092	-110.850	0.00027365	0.00041201	0.00012645	1412.9	2.4321e-06	4.8571e-06	1408.1	377.9	5.0561e-06	5.4817e-06	431.39	143.06	124.47	43.312	6.3768e-06	52.844	0.00058428	0.0005922	0.00016477	1429.7	6.5116e-06	6.4299e-06	1423.9	383.69	6.5382e-06	6.5264e-06	437.82	146.74	128	44.258	6.6465e-06	54.571	210.375	-74.369	38.961	-109.797	-70.801	27.120	-109.902	-105.308	5.614	83.117	-106.141	-101.863	-101.309	-96.378	-25.512	-96.810	-8191	255	
748.538	1	1	0	0	0.21983	0.18756	0.10845	0.34844	0.048746	0.27537	0.28737	0.28248	0.26004	0.39069	0.32312	0.23412	0.14745	0.068659	0.12578	0.14167	-2.7562	-3.1417	-2.8979	-3.2292	-3.0021	-2.9417	-3.3125	-3.1896	-3.0958	-3.2333	-2.8917	-3.15	-3.1021	-2.9521	-3.1542	-3.0396	139.441	122.172	214.507	209.704	122.698	13.171	220.058	203.334	176.995	-14.239	168.987	-72.416	123.806	226.418	138.639	109.489	0.0003264	0.00066102	6.6745e-05	1425.6	8.2235e-06	1.8957e-06	1414.2	379.8	3.1086e-06	3.4973e-06	431.26	142.49	124.07	43.055	7.2834e-06	53.266	0.00060536	0.00061041	0.00017006	1439.7	6.7292e-06	6.6289e-06	1428.9	385.1	6.6951e-06	6.687e-06	438.38	146.79	127.84	44.12	6.6341e-06	54.571	204.232	31.843	-39.597	-109.682	18.007	61.105	-110.062	-105.489	-81.464	-8.468	-105.903	-101.995	-101.344	-96.201	7.698	-96.942	-8191	255	
748.633	1	1	0	0	0.24527	0.15177	0.12437	0.48967	0.10164	0.10466	0.34018	0.12078	0.090392	0.13418	0.21334	0.10842	0.062998	0.2996	0.087175	0.18367	-2.5979	-3.2042	-2.8396	-3.15	-2.9875	-2.8312	-3.3438	-3.0625	-2.9104	-3.0917	-3.075	-3.125	-3.1021	-2.8146	-3.2021	-3.2229	-122.821	128.528	-72.329	141.080	-20.483	-44.386	147.866	226.102	-11.422	19.135	232.073	152.780	72.080	173.808	147.465	220.379	0.00017858	0.00053889	0.00012438	1427.7	7.1775e-06	5.7823e-06	1415	379.61	4.1759e-06	2.5469e-06	432	142.92	124.15	43.179	1.8818e-06	53.244	0.00059753	0.00059954	0.00016862	1438.1	6.5609e-06	6.6366e-06	1428.7	384.45	6.6341e-06	6.5988e-06	438.42	146.66	127.71	44.073	6.4718e-06	54.479	187.369	-36.097	-27.469	-109.670	50.552	7.263	-109.958	-105.408	-34.212	113.412	-105.700	-102.098	-101.318	-96.374	114.422	-96.964	-8191	255	
748.753	1	1	0	0	0.024074	0.22268	0.26499	0.12415	0.22105	0.10385	0.20102	0.3147	0.32096	0.12386	0.10627	0.12684	0.27951	0.28865	0.10445	0.21387	-2.2938	-3.2542	-2.7646	-3.0333	-3.0021	-2.7896	-3.2438	-3.3937	-2.7208	-3.2875	-3.1917	-3.1604	-3.25	-3.0333	-3.1813	-3.0062	-17.791	42.561	192.040	-38.834	33.695	140.103	138.342	191.858	-26.310	125.455	211.493	139.025	-110.582	183.867	123.093	139.335	0.00032423	0.0010923	0.00011522	1428.5	6.0224e-06	1.0254e-05	1403.2	379.94	5.4541e-06	6.5112e-06	432.02	141.81	124.3	43.042	5.5283e-06	52.93	0.00058449	0.00058605	0.00016488	1432.2	6.462e-06	6.4342e-06	1421	384.46	6.4842e-06	6.4694e-06	437.61	146.21	127.33	43.984	6.5234e-06	54.427	207.895	10.896	-62.473	-109.946	15.763	-0.391	-110.016	-105.361	-71.659	58.623	-105.979	-101.690	-101.361	-96.281	-9.992	-97.045	-8191	255	
748.825	1	1	0	0	0.18734	0.078964	0.32246	0.08571	0.15854	0.14314	0.17814	0.017485	0.14043	0.19644	0.25438	0.048613	0.30379	0.091451	0.034925	0.25364	-2.3917	-3.0563	-2.7542	-2.9313	-3.1354	-2.8063	-3.3625	-3.1188	-2.7771	-3.1458	-3.0792	-3.1604	-3.2792	-3.0021	-3.1396	-3.025	232.053	209.415	85.936	27.062	189.083	-68.180	180.384	-63.978	159.350	-118.590	81.269	154.769	-86.579	-97.664	35.186	192.808	0.00026243	0.00081356	0.00024368	1421.5	1.6174e-06	5.4244e-06	1405	378.53	5.8201e-06	8.9993e-06	431.81	142.57	124.42	42.92	6.6546e-06	52.81	0.00057903	0.00059033	0.00016469	1426.5	6.4919e-06	6.4699e-06	1421.1	383.86	6.4665e-06	6.5007e-06	437.07	146.21	127.23	43.94	6.4148e-06	54.259	192.005	-10.742	-35.878	-109.960	22.885	194.807	-109.849	-105.412	-85.331	37.959	-105.791	-101.787	-101.389	-96.385	5.536	-96.806	-8191	255	
748.921	1	1	0	0	0.017324	0.079656	0.09365	0.15025	0.03594	0.13253	0.13015	0.21494	0.11737	0.2446	0.38701	0.16142	0.19135	0.1288	0.099842	0.18647	-2.4021	-3.0687	-2.8667	-2.9938	-3.2687	-2.8688	-3.3187	-3.2188	-2.7917	-3.05	-3.1896	-3.0292	-3.2771	-2.9583	-3.0875	-3.1167	182.794	221.943	149.274	131.106	149.149	-86.173	189.539	196.312	107.412	-62.933	178.041	172.276	-73.846	156.950	0.607	-4.666	0.00030601	0.00081646	0.00011475	1420.7	7.9357e-06	2.5489e-06	1407.6	377.03	5.9084e-06	5.3079e-06	433.08	142.36	124.11	42.818	8.5922e-06	52.993	0.00057858	0.00058786	0.00016485	1432.1	6.5074e-06	6.4878e-06	1422.5	383.04	6.4696e-06	6.4556e-06	436.84	146.22	127.27	43.931	6.4822e-06	54.36	198.997	-27.216	-56.897	-109.750	24.973	-3.895	-110.017	-105.420	-56.075	-33.630	-105.873	-102.089	-101.162	-96.352	-42.787	-96.834	-8191	255	
749.017	1	1	0	0	0.26129	0.13779	0.14671	0.11019	0.009813	0.14181	0.10618	0.1606	0.18458	0.27838	0.14147	0.22605	0.093945	0.034684	0.12078	0.10003	-2.4583	-3.0187	-2.8333	-2.8979	-3.1208	-2.8312	-3.0438	-3.3042	-2.7104	-3.1167	-3.0146	-2.9896	-3.2354	-2.9583	-3.0042	-3.275	-5.869	206.764	-121.506	-72.849	152.875	-66.941	-55.172	155.011	53.025	165.471	-45.949	119.085	-65.479	-65.535	217.187	223.198	0.00028193	0.00054809	4.0593e-05	1413.1	1.034e-05	6.9971e-06	1408.4	377.57	1.7159e-06	8.913e-06	430.39	142.87	123.93	42.882	4.3427e-06	52.98	0.00058507	0.00059161	0.00016538	1425.1	6.5211e-06	6.5498e-06	1420.1	383.64	6.5225e-06	6.5247e-06	437.15	146.23	127.34	43.85	6.448e-06	54.24	196.444	-8.225	207.546	-109.765	-9.000	29.720	-109.815	-105.467	-35.713	75.061	-105.727	-101.574	-101.147	-96.366	20.523	-96.839	-8191	255	
749.113	1	1	0	0	0.24228	0.15297	0.10007	0.13337	0.11709	0.12519	0.17344	0.29058	0.09054	0.19666	0.087913	0.071386	0.30379	0.057395	0.032089	0.09013	-2.1937	-3.1375	-2.9854	-2.7896	-3.1479	-2.8917	-3.1083	-3.3958	-2.8583	-3.0042	-3.2771	-2.8521	-3.2479	-3.0458	-2.8917	-3.3521	-91.395	158.459	-106.256	111.263	-65.857	-31.769	-113.127	159.368	214.181	100.255	222.574	138.960	-85.199	-84.185	108.976	198.723	0.00026794	0.00020555	6.0481e-05	1411.1	3.6718e-06	8.0995e-06	1400.5	378.32	5.8618e-06	6.254e-06	430.15	142.48	124.16	43.209	5.6902e-06	53.228	0.00058141	0.00058864	0.000165	1424.2	6.494e-06	6.4853e-06	1417.3	383.25	6.5425e-06	6.5503e-06	436.93	146.55	127.45	43.992	6.6573e-06	54.447	210.280	-48.927	-116.230	-109.694	-6.396	2.728	-110.018	-105.269	-4.043	32.339	-105.793	-101.701	-101.228	-96.447	9.112	-96.913	-8191	255	
749.234	1	1	0	0	0.15552	0.178	0.17128	0.25415	0.11833	0.27361	0.23746	0.14897	0.30333	0.3607	0.16811	0.26439	0.20026	0.31108	0.089878	0.067478	-2.5625	-2.9792	-3.0542	-2.7896	-3.1188	-2.9208	-3.0854	-3.3583	-2.7687	-3.0938	-3.15	-2.925	-3.1437	-3.1937	-2.8875	-3.3583	144.146	-32.000	-83.082	228.740	-106.188	82.617	107.713	-120.543	54.459	-81.419	185.615	110.673	214.388	221.564	153.912	142.436	0.00025182	0.00094755	0.00032713	1428.4	2.1729e-06	1.0078e-05	1401.8	377.73	4.973e-06	3.3994e-06	429.25	142.66	123.5	42.902	2.1476e-06	53.2	0.00060302	0.00061185	0.0001701	1433	6.6857e-06	6.6975e-06	1421.3	383.94	6.5629e-06	6.5629e-06	437.09	146.49	127.2	43.889	6.5983e-06	54.479	203.107	16.855	-43.348	-109.726	50.414	-50.922	-109.933	-105.294	-93.290	48.723	-106.012	-101.800	-101.141	-96.380	41.064	-96.856	-8191	255	
749.330	1	1	0	0	0.077362	0.41467	0.18368	0.2523	0.10013	0.067852	0.11924	0.28392	0.19514	0.16889	0.21194	0.27375	0.17827	0.40715	0.13914	0.19051	-2.5062	-2.9646	-2.9729	-2.9729	-3.1833	-2.8875	-2.9729	-3.275	-2.8146	-2.9854	-3.1896	-2.9042	-3.2021	-3.125	-2.9104	-3.2812	171.076	-122.343	212.046	212.784	68.730	107.540	233.929	188.657	218.240	216.555	21.005	196.674	230.442	201.797	19.751	220.240	0.00027633	0.00072208	0.00011556	1423	6.9089e-06	3.5837e-06	1404.4	377.13	1.8015e-06	5.1434e-06	430.88	142.66	124.28	42.962	3.7896e-06	52.91	0.00059071	0.00060161	0.00016792	1433	6.524e-06	6.487e-06	1420.4	383.57	6.3895e-06	6.3747e-06	436.81	146.22	127.28	43.788	6.4323e-06	54.271	196.214	-39.120	-110.764	-109.874	27.879	23.044	-109.869	-105.261	-120.072	39.700	-105.607	-101.878	-101.135	-96.356	0.561	-96.883	-8191	255	
749.426	1	1	0	0	0.07009	0.24096	0.073255	0.20983	0.19969	0.20854	0.060662	0.54059	0.12509	0.19442	0.34257	0.18506	0.16419	0.1512	0.26303	0.30773	-2.4688	-2.7979	-3.1458	-2.8979	-3.2188	-3.1417	-2.9417	-3.2875	-3.0396	-2.9958	-3.3542	-3.1417	-3.0833	-3.2646	-2.9021	-3.3563	-31.243	18.971	-56.522	-19.346	25.846	115.359	29.842	224.848	-8.848	-46.672	-115.875	-57.242	168.702	176.227	-27.920	187.049	0.0002665	0.00041592	0.00026709	1415.8	2.4089e-06	7.8192e-06	1400.8	377.81	1.0692e-05	5.074e-06	429.36	142.44	123.76	43.108	5.8307e-06	52.863	0.00057984	0.00058758	0.00016461	1423.6	6.4421e-06	6.4553e-06	1417.1	383.28	6.5104e-06	6.478e-06	436.77	146.35	127.1	43.876	6.3782e-06	54.239	190.962	-59.344	-44.133	-109.824	61.145	7.867	-109.976	-105.303	-49.656	-69.930	-105.777	-101.646	-101.352	-96.623	45.102	-97.068	-8191	255	
749.523	1	1	0	0	0.32613	0.083628	0.15587	0.062459	0.045422	0.17722	0.31404	0.37247	0.20996	0.32892	0.1839	0.26511	0.13848	0.24122	0.19939	0.27683	-2.7521	-2.8937	-3.2604	-3.0292	-3.1583	-3.075	-3.15	-3.3604	-3.0271	-2.8688	-3.4104	-2.8521	-3.1083	-3.2188	-2.7979	-3.1813	135.353	155.023	123.342	20.682	217.594	135.902	162.347	160.848	-84.344	36.800	154.026	150.370	228.546	226.834	-0.306	156.532	0.00028807	0.0003341	0.00018981	1414.3	4.7639e-06	5.7601e-06	1396.7	377.88	3.8813e-06	2.5909e-06	430.45	143.15	123.2	42.814	6.3742e-06	53.018	0.00056823	0.00057441	0.0001597	1418.9	6.2697e-06	6.2698e-06	1414.9	382.77	6.3033e-06	6.3398e-06	436.62	146.28	126.86	43.745	6.3524e-06	54.318	224.084	-117.825	-78.265	-109.869	41.408	89.265	-109.893	-105.566	-25.307	209.479	-105.835	-101.624	-101.280	-96.429	-36.302	-97.055	-8191	255	
749.619	1	1	0	0	0.08766	0.22434	0.20347	0.26293	0.091674	0.20198	0.088569	0.12486	0.29592	0.15869	0.28684	0.18652	0.18528	0.073053	0.052364	0.12179	-2.6396	-2.7896	-3.0729	-2.9688	-2.9896	-3.2479	-2.9354	-3.3021	-3.2625	-2.8208	-3.3688	-3.0854	-3.0896	-3.4354	-2.9125	-3.2271	119.184	53.221	99.715	230.171	196.774	-1.717	140.253	197.657	191.095	16.817	-96.462	-115.766	236.337	95.181	124.461	134.757	0.0002706	0.00084723	0.00016906	1419.1	6.2998e-06	3.4749e-06	1399.5	378.45	1.4278e-06	7.4902e-06	430.27	142.3	123.32	43.1	5.8625e-06	53.017	0.00056703	0.00058253	0.00016168	1423.8	6.3494e-06	6.3592e-06	1418.1	383.29	6.3971e-06	6.3505e-06	437.02	146.35	127.17	43.956	6.4747e-06	54.383	209.560	-44.674	-62.850	-109.884	3.742	-27.409	-110.190	-105.324	-108.681	14.321	-105.566	-101.888	-101.091	-96.635	6.462	-96.925	-8191	255	
749.715	1	1	0	0	0.34539	0.18073	0.098116	0.16871	0.13644	0.20397	0.26175	0.12155	0.12584	0.1048	0.29541	0.12263	0.14144	0.14992	0.075115	0.2033	-2.7625	-2.8042	-3.2917	-2.9417	-3.0125	-3.2687	-3.2	-3.0896	-3	-2.9062	-3.2	-2.9333	-2.9792	-3.3125	-2.9354	-3.0292	10.227	-32.181	204.613	188.334	-121.167	43.784	195.246	111.214	106.033	-92.545	155.612	218.975	217.471	-36.859	-56.760	154.601	0.00030467	0.0012209	0.00011364	1415.7	5.6959e-06	4.4663e-06	1413.2	379.98	3.3452e-07	3.6263e-06	431.59	142.52	124.21	43.119	5.5039e-06	53.081	0.00058843	0.00060483	0.00016794	1434.7	6.6538e-06	6.6938e-06	1426.6	384.69	6.733e-06	6.7383e-06	438.83	146.73	127.84	43.997	6.6259e-06	54.424	196.810	-14.106	-47.064	-109.853	44.789	34.520	-109.897	-105.292	88.310	84.767	-105.778	-101.596	-101.523	-96.622	48.966	-96.820	-8191	255	
749.834	1	1	0	0	0.17597	0.079212	0.14007	0.17907	0.10651	0.088101	0.31946	0.008944	0.068322	0.045195	0.24233	0.13284	0.12455	0.19924	0.20503	0.32724	-2.6417	-2.8604	-3.2042	-3.1104	-2.8979	-3.1417	-3.1354	-3.2062	-3.1479	-2.9583	-3.075	-2.9646	-2.9167	-3.15	-2.9333	-3.1208	50.999	-79.368	95.202	115.197	185.354	-43.673	215.953	-9.080	158.326	171.777	199.321	209.301	-85.713	214.852	-63.980	208.467	0.00027468	0.001464	0.00020458	1415.3	2.3899e-06	8.9141e-06	1406.3	377.63	1.3517e-06	6.8337e-06	431.47	142.66	123.56	43.032	4.544e-06	52.974	0.00059505	0.00059889	0.00016886	1430.9	6.6162e-06	6.6455e-06	1425.7	384.28	6.6205e-06	6.6221e-06	437.5	146.59	127.39	43.985	6.4837e-06	54.396	203.205	-20.662	-1.421	-109.880	87.292	23.802	-110.052	-105.441	-86.301	14.777	-106.184	-101.948	-101.074	-96.261	-70.687	-97.092	-8191	255	
749.930	1	1	0	0	0.1299	0.086583	0.20441	0.19408	0.17136	0.041841	0.29057	0.16378	0.021714	0.25164	0.068933	0.091798	0.26048	0.09342	0.26209	0.30584	-2.6521	-2.7354	-3.1208	-2.9771	-2.8479	-3.2729	-3.2292	-3.2708	-3.2354	-2.9604	-3.1937	-3.1937	-2.9229	-3.1625	-2.8833	-3.0167	-113.901	-28.359	123.887	-70.095	87.238	226.021	179.461	189.764	85.725	-44.171	143.157	-99.461	212.814	205.693	-117.063	140.447	0.00029407	0.00057976	0.00013034	1411.9	5.4075e-06	4.888e-06	1413.3	377.61	5.1972e-06	5.9218e-06	430.43	143.04	123.97	43.06	3.0655e-06	53.015	0.00059198	0.00060052	0.00016878	1432.1	6.668e-06	6.6704e-06	1426.2	384.08	6.659e-06	6.685e-06	438.31	146.55	127.7	44.025	6.6675e-06	54.499	200.055	6.879	-79.276	-109.967	10.204	80.860	-109.945	-105.305	-46.307	11.047	-105.912	-101.750	-100.992	-96.427	52.116	-96.950	-8191	255	
750.026	1	1	0	0	0.14385	0.24747	0.20391	0.1076	0.25438	0.090394	0.27838	0.14601	0.04602	0.14951	0.076664	0.14839	0.17476	0.20306	0.11442	0.1676	-2.7125	-2.8521	-3.0583	-3.1917	-2.8042	-3.2646	-3.2396	-3.1	-3.2854	-3.0958	-3.1437	-3.0708	-2.9958	-3.3354	-2.9292	-3.0062	23.944	126.542	38.515	197.035	187.795	-20.196	166.831	171.067	-77.495	18.980	82.643	-78.833	221.415	230.810	-18.219	144.821	0.00021748	0.00038114	0.00011025	1423.6	2.9332e-06	5.0525e-06	1413	378.9	9.6107e-06	8.4583e-06	433.05	143.5	123.76	42.902	1.7435e-06	53.096	0.00059614	0.00060142	0.00016814	1435.9	6.6224e-06	6.6302e-06	1430.3	384.57	6.7015e-06	6.7088e-06	439.71	147.56	128.17	44.111	6.8102e-06	54.573	222.278	-53.023	-91.483	-109.806	50.845	62.306	-109.944	-105.469	-14.743	53.241	-105.729	-101.873	-100.867	-96.495	163.767	-96.985	-8191	255	
750.122	1	1	0	0	0.14173	0.10422	0.10482	0.023597	0.2076	0.11018	0.14163	0.34574	0.088903	0.12272	0.18248	0.26135	0.095824	0.26051	0.11385	0.17412	-2.9062	-2.9021	-3.1813	-3.3021	-2.825	-3.1458	-3.2812	-2.9125	-3.1729	-2.9708	-2.9958	-3.1625	-2.9062	-3.1458	-2.9646	-2.8875	31.169	-82.502	-71.928	147.575	-28.667	79.923	-110.993	121.306	5.046	-96.681	110.021	222.667	-109.901	224.217	55.949	185.310	0.00026568	0.00040041	0.00014799	1419.3	9.2952e-06	2.8045e-06	1406.8	379.37	6.5024e-06	1.386e-06	432.29	142.73	125.17	43.309	3.2984e-06	53.245	0.00060705	0.00060809	0.0001702	1435.2	6.6025e-06	6.5862e-06	1425.7	384.45	6.5459e-06	6.5934e-06	438.6	146.88	127.85	44.117	6.5617e-06	54.575	217.837	16.535	-3.877	-109.815	73.905	-81.409	-109.749	-105.356	-42.077	-9.118	-105.739	-101.800	-101.506	-96.379	-26.859	-96.572	-8191	255	
#DATA ENDS
