BOXY.EXE: ISS Imagent and Oximeter Data Acquisition Program Version 0.80
Ascii Record File

#ACQ INFORMATION
2  Detector Channels 
16  External MUX Channels 
1  Auxiliary Channels 
5000  Waveform (CCF) Frequency (Hz)
1  Waveforms Skipped 
30  Waveforms Averaged 
1  Cycles Averaged 
16  Acquisitions per Waveform 
10.0806  Updata Rate (Hz) 

#FILE INFORMATION
TRUE -- External MUX Channel results are PARSED.
FALSE -- AC DC and Phase are NOT grouped.
TRUE -- Companion Program Settings File CREATED.
FALSE -- AC data not excluded
FALSE -- DC data not excluded
FALSE -- Phase data not excluded
FALSE -- Auxillary Chn. data not excluded
Tab delimiters

#CALIBRATION STATE
TRUE -- Waveform Calibration Values APPLIED.


#AUX CALIBRATION VALUES
Val Type	aux-1	

Term	1.0000e+00	
Factor	0.0000e+00	


#WF CALIBRATION VALUES
A = Detector Channel
Val Type	A-AC1	A-AC2	A-AC3	A-AC4	A-AC5	A-AC6	A-AC7	A-AC8	A-AC9	A-AC10	A-AC11	A-AC12	A-AC13	A-AC14	A-AC15	A-AC16	A-DC1	A-DC2	A-DC3	A-DC4	A-DC5	A-DC6	A-DC7	A-DC8	A-DC9	A-DC10	A-DC11	A-DC12	A-DC13	A-DC14	A-DC15	A-DC16	A-Ph1	A-Ph2	A-Ph3	A-Ph4	A-Ph5	A-Ph6	A-Ph7	A-Ph8	A-Ph9	A-Ph10	A-Ph11	A-Ph12	A-Ph13	A-Ph14	A-Ph15	A-Ph16	

Term	0.00000e+00	0.00000e+00	0.00000e+00	0.00000e+00	0.00000e+00	0.00000e+00	0.00000e+00	0.00000e+00	0.00000e+00	0.00000e+00	0.00000e+00	0.00000e+00	0.00000e+00	0.00000e+00	0.00000e+00	0.00000e+00	0.00000e+00	0.00000e+00	0.00000e+00	0.00000e+00	0.00000e+00	0.00000e+00	0.00000e+00	0.00000e+00	0.00000e+00	0.00000e+00	0.00000e+00	0.00000e+00	0.00000e+00	0.00000e+00	0.00000e+00	0.00000e+00	0.00000e+00	0.00000e+00	0.00000e+00	0.00000e+00	0.00000e+00	0.00000e+00	0.00000e+00	0.00000e+00	0.00000e+00	0.00000e+00	0.00000e+00	0.00000e+00	0.00000e+00	0.00000e+00	0.00000e+00	0.00000e+00	
Factor	1.00000e+00	1.00000e+00	1.00000e+00	1.00000e+00	1.00000e+00	1.00000e+00	1.00000e+00	1.00000e+00	1.00000e+00	1.00000e+00	1.00000e+00	1.00000e+00	1.00000e+00	1.00000e+00	1.00000e+00	1.00000e+00	1.00000e+00	1.00000e+00	1.00000e+00	1.00000e+00	1.00000e+00	1.00000e+00	1.00000e+00	1.00000e+00	1.00000e+00	1.00000e+00	1.00000e+00	1.00000e+00	1.00000e+00	1.00000e+00	1.00000e+00	1.00000e+00	X	X	X	X	X	X	X	X	X	X	X	X	X	X	X	X	

B = Detector Channel
Val Type	B-AC1	B-AC2	B-AC3	B-AC4	B-AC5	B-AC6	B-AC7	B-AC8	B-AC9	B-AC10	B-AC11	B-AC12	B-AC13	B-AC14	B-AC15	B-AC16	B-DC1	B-DC2	B-DC3	B-DC4	B-DC5	B-DC6	B-DC7	B-DC8	B-DC9	B-DC10	B-DC11	B-DC12	B-DC13	B-DC14	B-DC15	B-DC16	B-Ph1	B-Ph2	B-Ph3	B-Ph4	B-Ph5	B-Ph6	B-Ph7	B-Ph8	B-Ph9	B-Ph10	B-Ph11	B-Ph12	B-Ph13	B-Ph14	B-Ph15	B-Ph16	

Term	0.00000e+00	0.00000e+00	0.00000e+00	0.00000e+00	0.00000e+00	0.00000e+00	0.00000e+00	0.00000e+00	0.00000e+00	0.00000e+00	0.00000e+00	0.00000e+00	0.00000e+00	0.00000e+00	0.00000e+00	0.00000e+00	0.00000e+00	0.00000e+00	0.00000e+00	0.00000e+00	0.00000e+00	0.00000e+00	0.00000e+00	0.00000e+00	0.00000e+00	0.00000e+00	0.00000e+00	0.00000e+00	0.00000e+00	0.00000e+00	0.00000e+00	0.00000e+00	-1.29269e+02	-1.13631e+02	-1.35870e+02	-1.84844e+02	-7.69806e+01	-6.34246e+01	-1.60653e+02	-1.62015e+02	-8.22226e+01	-6.09229e+01	-1.72187e+02	-1.71626e+02	-1.83109e+02	-1.76791e+02	-6.82363e+01	-1.50157e+02	
Factor	1.61315e-05	1.31639e-04	3.54998e-05	4.91269e-01	1.07434e-06	1.37095e-06	1.84658e-01	4.54119e-02	1.02773e-06	1.19378e-06	8.37172e-02	3.01029e-02	3.50082e-02	8.20948e-03	1.09933e-06	1.21748e-02	1.13921e-06	1.19064e-06	3.31616e-07	2.32299e-01	1.30170e-08	1.30308e-08	8.60883e-02	2.28097e-02	1.29813e-08	1.30694e-08	4.01028e-02	1.44691e-02	1.71056e-02	4.09484e-03	1.30663e-08	5.83849e-03	X	X	X	X	X	X	X	X	X	X	X	X	X	X	X	X	



#DISTANCE SETTINGS
A = Detector Channel
A-1	A-2	A-3	A-4	A-5	A-6	A-7	A-8	A-9	A-10	A-11	A-12	A-13	A-14	A-15	A-16	

2.5000e+00	3.0000e+00	2.5000e+00	3.0000e+00	2.0000e+00	3.0000e+00	1.5000e+00	3.0000e+00	3.0000e+00	3.0000e+00	3.0000e+00	3.0000e+00	3.0000e+00	3.0000e+00	1.5000e+00	3.0000e+00	

B = Detector Channel
B-1	B-2	B-3	B-4	B-5	B-6	B-7	B-8	B-9	B-10	B-11	B-12	B-13	B-14	B-15	B-16	

1.0000e+01	1.0000e+01	1.0000e+01	1.4400e+00	1.0000e+01	1.0000e+01	1.5100e+00	1.9400e+00	1.0000e+01	1.0000e+01	1.9900e+00	2.4900e+00	2.4100e+00	2.9000e+00	1.0000e+01	2.9800e+00	




#DATA BEGINS
time	group	step	mark	flag	A-AC1	A-AC2	A-AC3	A-AC4	A-AC5	A-AC6	A-AC7	A-AC8	A-AC9	A-AC10	A-AC11	A-AC12	A-AC13	A-AC14	A-AC15	A-AC16	A-DC1	A-DC2	A-DC3	A-DC4	A-DC5	A-DC6	A-DC7	A-DC8	A-DC9	A-DC10	A-DC11	A-DC12	A-DC13	A-DC14	A-DC15	A-DC16	A-Ph1	A-Ph2	A-Ph3	A-Ph4	A-Ph5	A-Ph6	A-Ph7	A-Ph8	A-Ph9	A-Ph10	A-Ph11	A-Ph12	A-Ph13	A-Ph14	A-Ph15	A-Ph16	B-AC1	B-AC2	B-AC3	B-AC4	B-AC5	B-AC6	B-AC7	B-AC8	B-AC9	B-AC10	B-AC11	B-AC12	B-AC13	B-AC14	B-AC15	B-AC16	B-DC1	B-DC2	B-DC3	B-DC4	B-DC5	B-DC6	B-DC7	B-DC8	B-DC9	B-DC10	B-DC11	B-DC12	B-DC13	B-DC14	B-DC15	B-DC16	B-Ph1	B-Ph2	B-Ph3	B-Ph4	B-Ph5	B-Ph6	B-Ph7	B-Ph8	B-Ph9	B-Ph10	B-Ph11	B-Ph12	B-Ph13	B-Ph14	B-Ph15	B-Ph16	aux-1	digaux	

2305.683	1	1	0	768	0.15779	0.012855	0.20279	0.12089	0.16917	0.16761	0.20087	0.11269	0.11363	0.13332	0.12954	0.098371	0.22756	0.1835	0.020134	0.022846	-2.3646	-2.8104	-2.475	-2.9104	-2.8	-2.9333	-3.1458	-2.8396	-2.9667	-2.9042	-2.7625	-3.0208	-2.8229	-2.7667	-3.1354	-2.9646	371.268	214.772	410.135	326.460	376.858	179.096	353.148	205.032	184.214	178.954	401.846	161.141	165.998	449.722	228.227	373.858	0.00077195	0.00032937	6.4504e-05	281.49	2.3436e-06	3.1213e-06	410.84	131.76	4.9257e-06	3.2061e-06	219.63	122.72	70.398	41.215	2.3984e-06	74.086	0.0001193	8.1485e-05	2.3336e-05	297.02	8.9573e-07	8.9394e-07	440.17	141.48	9.0207e-07	8.9005e-07	232.67	129.62	73.293	43.843	9.1938e-07	78.163	185.960	224.016	213.852	152.637	292.929	288.380	151.498	155.781	250.352	302.488	154.726	158.078	158.325	162.107	277.082	160.639	-8191	255	
2305.779	1	1	0	0	0.21136	0.14992	0.34994	0.093329	0.09894	0.088899	0.13015	0.23666	0.17989	0.15404	0.16851	0.28514	0.094857	0.090568	0.25987	0.19655	-2.5083	-2.9625	-2.6562	-3.0083	-2.9313	-2.6729	-2.9208	-2.7708	-2.8042	-3.0375	-2.6958	-2.9042	-2.9313	-2.7542	-3.175	-2.9083	448.099	344.894	462.632	249.720	355.251	472.028	435.947	166.569	474.069	355.619	436.891	497.126	267.719	301.336	294.159	425.898	0.00076691	0.00025134	0.00010443	281.31	2.6764e-06	1.7508e-06	412.99	132.08	2.1231e-06	3.1779e-06	220.11	122.83	70.147	40.994	3.6682e-06	73.691	0.00011694	8.0993e-05	2.2752e-05	297.02	8.8415e-07	8.9392e-07	440.49	141.8	9.1278e-07	8.9111e-07	232.91	129.68	73.319	43.667	9.3127e-07	77.704	186.140	221.525	214.277	152.959	294.783	296.022	151.517	156.065	260.130	300.230	154.817	158.229	158.099	162.177	279.139	160.685	-8191	255	
2305.873	1	1	0	0	0.17637	0.19877	0.032796	0.098573	0.10359	0.028988	0.2581	0.41519	0.20778	0.07752	0.10423	0.25499	0.21749	0.12909	0.098269	0.13245	-2.3604	-2.825	-2.5875	-3.0208	-2.8125	-2.6937	-3.0083	-2.6479	-2.6604	-2.9813	-2.8292	-2.9938	-3.0896	-2.6792	-2.9292	-2.8333	325.660	373.192	368.067	232.116	304.685	343.558	375.425	190.341	490.911	208.358	161.368	470.209	329.711	448.668	176.911	325.193	0.00077729	0.00027607	8.3371e-05	280.9	3.5469e-06	2.0337e-06	409.1	131.86	3.6819e-06	3.0653e-06	219.89	122.61	70.322	41.119	3.9151e-06	73.723	0.00011847	8.1418e-05	2.2926e-05	295.92	8.9942e-07	8.9248e-07	438.82	141.49	9.0823e-07	8.8422e-07	232.61	129.39	73.34	43.702	9.1083e-07	77.784	186.675	256.671	209.847	152.543	283.969	316.134	151.497	155.878	284.555	283.822	154.987	158.076	158.266	162.133	261.834	160.786	-8191	255	
2305.971	1	1	0	0	0.066426	0.13987	0.13759	0.33031	0.17314	0.1647	0.12158	0.28101	0.0705	0.14328	0.32631	0.17322	0.23015	0.14499	0.22912	0.32377	-2.3396	-3.0646	-2.6479	-2.6854	-2.8292	-2.7021	-3.0187	-2.9167	-2.6021	-2.8875	-2.7625	-2.9729	-2.8937	-2.7896	-2.9917	-3.0646	479.454	303.737	297.112	169.367	337.262	259.768	430.784	473.039	169.127	477.607	410.381	226.584	368.491	349.237	405.768	429.347	0.00079403	0.00027545	0.00014319	279.4	2.8046e-06	5.0844e-06	410.51	132.07	3.808e-06	3.9291e-06	219.36	122.23	70.063	41.075	4.5673e-06	73.772	0.00012001	8.3003e-05	2.2884e-05	294.88	8.9421e-07	9.0754e-07	438.79	141.46	9.1621e-07	8.7856e-07	232.3	129.52	73.26	43.677	9.1091e-07	77.896	183.142	239.266	229.215	152.509	266.994	291.855	151.306	155.947	255.164	291.014	154.969	158.323	158.153	162.171	266.271	160.708	-8191	255	
2306.065	1	1	0	0	0.18161	0.10016	0.15744	0.041789	0.059464	0.20079	0.2161	0.034148	0.1177	0.32353	0.11908	0.23655	0.23163	0.068271	0.2178	0.20859	-2.1917	-2.8063	-2.6937	-2.8	-3.2687	-2.6437	-3.0729	-2.975	-2.6583	-2.9188	-2.8229	-2.8875	-3.0062	-2.725	-3.0083	-3.0521	403.895	443.229	379.829	360.000	233.996	206.610	445.520	138.832	445.979	345.406	474.799	408.040	345.339	226.987	212.307	399.137	0.00078936	0.00031284	0.00011627	278.72	2.4502e-06	3.017e-06	410.81	132.13	3.0721e-06	3.6036e-06	220.01	122.07	70.385	41.217	4.8553e-06	74.203	0.00011874	8.1552e-05	2.2794e-05	296.08	8.9025e-07	8.9745e-07	438.64	141.48	9.062e-07	8.8853e-07	232.58	129.59	73.301	43.803	9.2623e-07	78.208	185.186	248.949	220.586	152.577	273.021	290.611	151.454	156.130	277.176	299.206	155.045	158.083	158.091	162.218	275.328	160.733	-8191	255	
2306.162	1	1	0	0	0.15684	0.1973	0.052616	0.13458	0.099988	0.14401	0.14528	0.21677	0.1806	0.20696	0.28098	0.24607	0.18395	0.17349	0.19973	0.2129	-2.3479	-2.7729	-2.5896	-2.8167	-2.9896	-2.6562	-2.95	-2.9479	-2.5292	-3.1646	-2.9229	-2.8271	-3.0604	-2.6729	-2.8458	-2.9542	267.675	232.839	156.128	308.015	419.172	208.693	413.537	207.378	463.475	484.241	141.917	142.562	283.976	154.342	140.463	185.252	0.00076264	0.00029098	8.8724e-05	281.83	2.8987e-06	2.7559e-06	412.49	131.58	2.6106e-06	2.5791e-06	219.65	122.73	70.431	41.099	3.2124e-06	73.974	0.00011746	8.1723e-05	2.2486e-05	297.56	8.7805e-07	8.8436e-07	441.48	141.37	8.9333e-07	8.864e-07	232.7	129.84	73.391	43.81	9.2003e-07	78.139	186.133	264.559	199.807	152.500	269.097	267.517	151.349	156.063	252.128	279.125	154.673	158.193	158.250	162.271	280.514	160.672	-8191	255	
2306.282	1	1	0	0	0.27105	0.11833	0.10467	0.2311	0.13724	0.053435	0.18042	0.20969	0.17809	0.18513	0.075769	0.22143	0.1689	0.26804	0.10118	0.21047	-2.3104	-2.9042	-2.8104	-2.6042	-2.9313	-2.8208	-2.7875	-2.9354	-2.6688	-2.9125	-2.8146	-2.8583	-3.0625	-2.7646	-2.675	-3.2812	221.719	494.779	328.371	356.527	456.536	328.120	398.027	183.096	248.937	387.822	494.571	407.127	296.737	472.733	441.658	420.271	0.00076071	0.00034109	9.0997e-05	280.83	3.3988e-06	3.6593e-06	410.85	131.3	2.5485e-06	2.984e-06	217.27	122	70.151	41.009	4.5223e-06	73.804	0.00011756	8.0589e-05	2.2764e-05	295.35	8.8383e-07	8.8536e-07	438.93	141.07	9.1083e-07	9.1505e-07	231.54	128.87	72.976	43.572	9.185e-07	77.689	184.830	230.586	221.815	152.663	269.607	275.025	151.211	155.987	262.023	295.435	154.887	158.081	157.750	162.180	282.285	160.593	-8191	255	
2306.378	1	1	0	0	0.10433	0.1814	0.099031	0.13475	0.083297	0.17216	0.20743	0.20146	0.27945	0.061705	0.31571	0.13004	0.23668	0.18132	0.12368	0.16635	-2.2271	-2.8208	-2.9896	-2.7313	-2.9771	-2.8792	-2.6854	-3.0458	-2.75	-3.0125	-2.8521	-2.6583	-3.0271	-2.8021	-2.8771	-3.0958	195.068	386.112	366.186	341.093	147.295	441.136	346.667	194.018	272.228	328.863	357.784	157.158	278.111	142.180	213.151	382.968	0.00079602	0.00032589	8.1431e-05	281.64	3.1872e-06	1.8272e-06	409.48	131.05	2.7582e-06	2.1177e-06	217.51	121.76	70.05	40.939	3.421e-06	73.676	0.00011908	8.0527e-05	2.2368e-05	295.16	8.9494e-07	8.8721e-07	438	140.78	9.1583e-07	9.0179e-07	231.14	128.8	72.757	43.462	9.2384e-07	77.577	185.770	223.394	213.663	152.576	247.231	306.407	151.528	156.025	260.535	270.523	154.979	158.318	158.177	161.998	272.817	160.485	-8191	255	
2306.475	1	1	0	0	0.097741	0.24681	0.29772	0.24139	0.070119	0.080088	0.28254	0.3159	0.13813	0.14631	0.16373	0.17292	0.18836	0.19376	0.093456	0.16589	-2.2854	-2.8083	-2.9521	-2.7542	-3.0146	-2.8229	-2.5958	-3.1583	-2.7104	-3.0146	-3.0833	-2.7229	-3.05	-2.9896	-2.6854	-3.2625	486.872	166.418	386.046	459.323	236.587	224.102	146.002	410.061	483.977	280.469	228.944	427.363	352.100	139.941	199.052	351.703	0.00077341	0.0003211	8.4698e-05	279.41	1.7187e-06	4.3085e-06	408.41	130.53	2.854e-06	1.5488e-06	217.92	121.15	69.565	40.711	3.7512e-06	73.481	0.00011779	8.2281e-05	2.2893e-05	294.07	8.8716e-07	8.9687e-07	436.98	140.18	9.0977e-07	9.1077e-07	230.56	128.4	72.462	43.286	9.3018e-07	77.363	184.157	257.748	197.094	152.746	252.701	338.574	151.459	156.165	254.448	286.407	154.965	158.068	158.308	162.154	278.334	160.798	-8191	255	
2306.571	1	1	0	0	0.31066	0.10825	0.14207	0.088683	0.26748	0.099067	0.084931	0.082311	0.1388	0.037827	0.12814	0.084439	0.19563	0.15205	0.20682	0.28505	-2.2333	-2.8771	-3.0917	-2.6271	-2.8937	-2.8646	-2.7521	-2.9562	-2.8167	-2.975	-3.1021	-2.7167	-2.9208	-3.0729	-2.7938	-3.1792	330.851	411.128	237.524	199.328	236.413	496.726	402.483	269.013	181.198	191.700	215.243	165.653	449.086	491.109	423.854	396.292	0.0007712	0.00038313	9.9531e-05	277.26	2.5561e-06	3.5659e-06	408.86	130.38	3.7796e-06	3.8505e-06	217.96	121.42	69.642	40.641	3.2813e-06	73.51	0.00011865	8.2504e-05	2.2817e-05	293.67	9.0663e-07	8.8775e-07	437.79	140.18	9.2065e-07	8.946e-07	231.12	128.47	72.61	43.245	9.4295e-07	77.547	185.087	239.392	228.690	152.771	278.392	258.878	151.352	156.171	258.646	288.120	155.201	158.095	158.117	162.212	286.345	160.784	-8191	255	
2306.667	1	1	0	0	0.064486	0.12259	0.10478	0.11581	0.13339	0.16595	0.11843	0.080785	0.17533	0.22904	0.082543	0.032557	0.18112	0.12956	0.046912	0.18401	-2.3312	-2.6833	-3.05	-2.6958	-2.8812	-2.9396	-2.8083	-3.2167	-2.9104	-2.7521	-3.0875	-2.8396	-2.9917	-3.0292	-2.6417	-3.1	387.973	407.700	407.765	268.806	338.853	311.985	443.950	477.638	476.892	237.493	452.016	237.010	351.944	147.604	265.777	143.156	0.00077344	0.00021462	9.9228e-05	281.02	3.4375e-06	2.3517e-06	409.29	131.03	3.6398e-06	3.2941e-06	218.33	121.8	69.807	40.853	2.7106e-06	73.219	0.00011801	8.3732e-05	2.3369e-05	294.24	9.1726e-07	9.1444e-07	436.43	140.42	9.1846e-07	9.123e-07	231.33	128.68	72.863	43.426	9.2114e-07	77.499	183.995	218.825	212.843	152.647	267.352	325.711	151.304	156.092	274.922	271.191	154.813	158.233	157.849	161.984	269.628	160.660	-8191	255	
2306.763	1	1	0	0	0.1096	0.19628	0.30231	0.12559	0.12956	0.15053	0.15515	0.21464	0.21124	0.038882	0.14163	0.17762	0.25792	0.22876	0.22211	0.22309	-2.225	-2.7854	-3.0854	-2.6958	-2.7625	-2.9688	-2.8229	-2.875	-2.9562	-2.9833	-3.1146	-2.7917	-2.6917	-3.1021	-2.8	-3.0375	281.380	150.468	204.386	219.880	426.413	338.365	439.941	277.209	324.707	384.219	408.134	433.929	458.840	141.485	152.795	426.287	0.00082831	0.00036881	5.9652e-05	277.14	3.1419e-06	4.7517e-06	405.21	130.79	1.9213e-06	1.8509e-06	217.78	121.88	69.99	40.897	3.5076e-06	73.575	0.00012126	8.4025e-05	2.3047e-05	292.85	9.2692e-07	9.1227e-07	435.68	140.67	9.2089e-07	9.1635e-07	231.13	128.88	72.976	43.427	9.2613e-07	77.605	184.264	249.046	204.419	152.730	275.656	284.240	151.271	155.872	241.307	280.325	155.124	158.243	158.240	162.020	270.839	160.505	-8191	255	
2306.884	1	1	0	0	0.3164	0.15071	0.30797	0.17887	0.080488	0.18097	0.12505	0.24114	0.082983	0.25638	0.1537	0.20067	0.064542	0.40562	0.047564	0.1246	-2.5271	-2.6688	-3.1125	-2.7125	-2.9083	-3.1042	-2.8396	-3.0771	-3.0771	-2.6125	-3.0792	-2.8271	-2.8792	-3.025	-2.75	-3.0938	483.137	467.609	209.534	224.985	336.811	232.010	159.203	294.124	361.021	411.310	470.895	186.832	206.366	485.046	460.017	422.420	0.00077332	0.0003675	8.6512e-05	278.07	3.1821e-06	3.9928e-06	409.97	130.47	3.722e-06	3.8276e-06	217.71	121.35	69.656	40.843	3.774e-06	73.494	0.00011806	8.2301e-05	2.2431e-05	293.84	8.8789e-07	8.9055e-07	436	140.3	9.0147e-07	8.9773e-07	230.48	128.53	72.632	43.39	9.0585e-07	77.489	184.800	232.843	198.818	152.323	256.750	270.882	151.316	155.884	240.266	293.528	154.801	158.104	158.022	162.064	276.188	160.732	-8191	255	
2306.978	1	1	0	0	0.063347	0.12077	0.14072	0.05433	0.21189	0.21729	0.098209	0.15608	0.25441	0.27351	0.16621	0.32465	0.19961	0.43448	0.046663	0.04748	-2.3937	-2.5771	-3.0667	-2.9437	-2.7667	-3.0938	-2.7854	-2.9125	-2.8833	-2.7854	-2.9042	-2.6937	-2.6354	-3.1229	-2.7771	-2.9437	232.763	388.264	398.500	182.648	469.240	242.975	361.792	382.654	483.027	181.046	458.640	464.804	237.045	475.878	252.696	455.873	0.00078178	0.00022107	7.9981e-05	278.21	2.6687e-06	4.7674e-06	408.13	130.55	2.1521e-06	2.5e-06	217.82	121.84	70.024	40.896	4.5982e-06	73.793	0.0001167	8.1435e-05	2.2501e-05	292.78	8.7444e-07	8.621e-07	436.16	140.32	8.9888e-07	8.839e-07	231.16	128.76	72.951	43.447	9.0277e-07	77.884	184.751	269.208	238.484	152.477	278.974	301.455	151.453	156.011	245.370	292.160	155.091	157.905	158.311	162.081	269.385	160.758	-8191	255	
2307.074	1	1	0	0	0.11921	0.031427	0.34166	0.22771	0.15424	0.17632	0.023884	0.19444	0.11285	0.35095	0.18018	0.079842	0.080103	0.031115	0.16368	0.17676	-2.4979	-2.5708	-2.9292	-2.6562	-2.6896	-2.9375	-2.9375	-2.7229	-3.0542	-2.7792	-2.8771	-2.9104	-2.7167	-3.1229	-2.8625	-2.9542	361.736	186.728	464.804	202.241	310.010	377.138	256.265	466.382	440.563	142.225	208.689	425.558	491.288	217.182	265.360	258.659	0.00076903	0.00048495	0.000154	279.62	3.4717e-06	1.2762e-06	408.97	131.33	3.3114e-06	3.2967e-06	218.4	122.21	70.167	40.875	4.0398e-06	73.782	0.00011693	8.0346e-05	2.238e-05	294.12	8.7504e-07	8.7073e-07	437.67	140.49	8.7905e-07	8.7638e-07	231.37	129.16	72.806	43.472	8.9607e-07	77.815	185.947	233.883	232.157	152.555	246.077	324.431	151.382	156.064	267.462	295.204	154.625	158.205	158.014	162.070	271.674	160.626	-8191	255	
2307.170	1	1	0	0	0.15804	0.17099	0.11966	0.33466	0.098551	0.18254	0.14675	0.13094	0.050386	0.094351	0.20615	0.26721	0.15856	0.3109	0.12934	0.28429	-2.5917	-2.6104	-2.8396	-2.7854	-2.6458	-2.9	-2.8917	-2.7104	-2.8979	-2.7271	-2.9625	-3.0312	-2.5563	-2.9521	-2.7146	-2.8979	291.572	396.241	379.329	184.480	229.850	390.071	425.509	385.227	361.783	158.690	399.928	256.770	333.549	440.957	263.846	408.880	0.00078374	0.0004422	0.00011734	278.72	2.7593e-06	2.9473e-06	407.2	130.5	3.1971e-06	3.066e-06	217.14	121.59	69.49	40.583	4.1327e-06	73.157	0.0001169	7.9331e-05	2.2033e-05	294.16	8.6042e-07	8.6571e-07	436.14	140.02	8.8863e-07	8.6171e-07	229.98	128.21	72.464	43.249	8.9836e-07	77.167	184.165	235.622	210.490	153.096	285.451	321.917	151.650	155.765	264.616	299.852	154.981	158.064	158.262	162.180	275.079	160.779	-8191	255	
2307.244	1	1	0	0	0.27303	0.11692	0.10553	0.069079	0.13105	0.11946	0.15159	0.28165	0.41014	0.148	0.089963	0.23824	0.27202	0.16511	0.25666	0.25983	-2.7438	-2.6229	-2.7271	-2.7583	-2.5021	-2.875	-2.8583	-2.6792	-2.9271	-2.8417	-2.7562	-2.9583	-2.6667	-3.2313	-2.7875	-2.8604	321.477	462.687	230.012	423.509	460.578	147.463	346.787	139.224	371.012	172.459	391.182	273.761	147.711	458.736	244.611	469.873	0.00077196	0.00036161	7.9095e-05	276.25	2.9599e-06	1.8787e-06	407.23	130.1	2.5313e-06	2.3839e-06	216.95	121.23	69.114	40.545	2.4717e-06	73.06	0.00011665	7.9451e-05	2.2113e-05	292.87	8.7658e-07	8.7187e-07	435.52	139.73	8.605e-07	8.723e-07	229.54	127.86	72.175	43.16	8.9019e-07	77.214	185.560	217.441	241.437	153.056	272.529	293.903	151.297	155.950	245.907	267.202	154.914	157.928	158.109	162.127	276.637	160.794	-8191	255	
2307.363	1	1	0	0	0.073241	0.28574	0.13946	0.16759	0.21097	0.24047	0.10454	0.20702	0.17953	0.18191	0.19371	0.29051	0.20554	0.1587	0.12143	0.14074	-2.6771	-2.7438	-2.7771	-3.0458	-2.7	-2.8896	-2.8958	-2.6958	-2.9896	-2.7896	-2.8458	-3.0375	-2.7354	-3.1604	-2.8771	-2.7604	432.904	389.596	489.294	401.942	216.275	177.664	147.797	236.129	254.251	493.106	463.846	394.860	393.299	225.727	436.650	350.969	0.00077856	0.00038366	0.00010554	276.11	3.0314e-06	3.6332e-06	404.85	129.59	4.2434e-06	3.2785e-06	216.09	121.26	69.777	40.718	3.0897e-06	73.112	0.00011501	8.0274e-05	2.2323e-05	292.61	8.6482e-07	8.6918e-07	436	139.68	8.8213e-07	8.7614e-07	229.88	128.17	72.456	43.208	8.9779e-07	77.215	185.456	247.737	207.551	152.231	260.929	287.578	151.277	156.191	258.810	268.849	154.970	157.923	158.067	162.040	268.247	160.547	-8191	255	
2307.459	1	1	0	0	0.33283	0.2895	0.17496	0.090716	0.23755	0.056015	0.22746	0.062388	0.12016	0.095151	0.25538	0.13847	0.15968	0.24144	0.25257	0.17546	-2.5771	-2.7646	-2.5687	-2.8646	-2.6479	-3.0292	-2.9854	-2.6688	-2.9208	-2.9042	-2.8646	-3.1708	-2.8354	-2.9979	-2.9813	-2.9604	473.675	151.932	471.214	487.720	387.956	245.701	149.838	316.328	382.031	396.964	467.754	415.896	356.861	486.141	293.070	407.775	0.00076451	0.00025188	4.3459e-05	280.35	1.6379e-06	4.7012e-06	406.61	130.16	2.2074e-06	1.043e-06	217.37	121.25	69.6	40.73	3.2949e-06	73.278	0.00011613	7.9634e-05	2.2032e-05	293.44	8.7328e-07	8.6541e-07	436.9	139.77	8.7957e-07	8.6971e-07	230.01	128.2	72.341	43.23	8.9371e-07	77.36	184.701	241.942	249.007	152.416	259.198	299.538	151.235	155.842	255.982	287.391	154.870	158.180	157.799	162.232	276.804	160.564	-8191	255	
2307.555	1	1	0	0	0.40357	0.094502	0.03197	0.41995	0.17205	0.098491	0.21678	0.11111	0.23499	0.12409	0.14916	0.12083	0.055759	0.27121	0.24735	0.14223	-2.6125	-2.8521	-2.6354	-3.0208	-2.8208	-2.7188	-3.0854	-2.7896	-2.9813	-2.8667	-2.7729	-3.0833	-2.7292	-2.8458	-3.0271	-2.8375	226.688	480.995	153.252	355.186	431.414	469.287	380.280	442.525	372.657	373.386	445.951	403.641	273.769	357.429	241.083	238.266	0.00077159	0.00021347	8.399e-05	276.49	4.1232e-06	3.9392e-06	407.78	129.26	2.4652e-06	1.8301e-06	216.95	121.2	69.532	40.508	4.6644e-06	73.294	0.00011706	7.9952e-05	2.2547e-05	292.18	8.9389e-07	8.7964e-07	436.49	139.24	8.9119e-07	8.7301e-07	229.99	128.21	72.259	43.163	9.0487e-07	77.408	183.499	205.193	221.346	152.338	279.479	283.687	151.207	156.078	256.450	333.343	154.983	158.034	157.971	162.270	287.028	160.770	-8191	255	
2307.651	1	1	0	0	0.056068	0.11245	0.2182	0.055649	0.19051	0.096671	0.072949	0.22737	0.32867	0.23088	0.088917	0.055547	0.1165	0.20914	0.21648	0.057129	-2.5	-2.875	-2.7188	-2.9854	-2.8521	-2.8063	-2.8812	-2.825	-2.8688	-2.9562	-2.9437	-3.1229	-2.9813	-2.9292	-3.0292	-2.9583	166.204	277.286	299.222	489.761	192.071	295.123	142.092	363.853	342.995	493.992	241.291	329.148	429.257	492.730	302.300	469.476	0.00077234	0.00052189	7.71e-05	278.6	2.2976e-06	1.3098e-06	406.02	130.29	2.363e-06	3.6689e-06	216.16	121.04	69.523	40.745	3.6306e-06	73.432	0.00011696	8.0321e-05	2.2231e-05	293.4	8.8271e-07	8.741e-07	435.08	139.78	8.9192e-07	8.79e-07	229.39	128.24	72.329	43.225	8.8943e-07	77.416	183.657	241.558	208.829	152.256	270.951	293.893	151.408	156.131	268.808	320.666	154.932	158.034	158.101	162.100	283.174	160.469	-8191	255	
2307.772	1	1	0	0	0.025393	0.19363	0.30452	0.2736	0.23613	0.28492	0.061585	0.15499	0.13811	0.1049	0.35246	0.16723	0.12802	0.064156	0.16269	0.24118	-2.4813	-2.8688	-2.675	-3.0208	-2.9729	-2.8937	-2.9542	-2.925	-2.9521	-2.9542	-2.8312	-3.0542	-3.0917	-2.8875	-3.1688	-2.7833	277.228	420.512	374.302	444.920	287.574	262.427	474.386	442.595	413.400	364.572	417.959	470.285	164.825	423.709	190.817	417.712	0.00076956	0.00037161	1.4248e-05	278.71	2.5882e-06	2.5013e-06	406.49	129.79	4.058e-06	2.9792e-06	216.57	121.55	69.651	40.607	3.5302e-06	73.391	0.00011615	8.0021e-05	2.2239e-05	293.3	8.5869e-07	8.7372e-07	434.77	139.49	8.9655e-07	8.7409e-07	229.52	128.15	72.36	43.174	9.0353e-07	77.306	186.828	253.592	182.869	152.859	272.959	298.808	151.159	155.890	256.157	293.363	154.694	158.031	158.193	162.098	272.596	160.544	-8191	255	
2307.843	1	1	0	0	0.26621	0.10754	0.098697	0.2427	0.13137	0.15816	0.011352	0.16273	0.35272	0.23965	0.18594	0.10226	0.12689	0.13425	0.17034	0.08695	-2.55	-2.9208	-2.7146	-2.9917	-2.9146	-2.8438	-3.1354	-2.7708	-2.8667	-3.0417	-2.7958	-3.2229	-2.8917	-2.9042	-3.1167	-2.9458	447.286	485.057	413.445	362.004	239.077	258.803	238.057	394.758	223.222	344.237	227.119	492.319	303.942	459.759	191.560	432.694	0.00075584	0.00042186	0.0001103	276.4	3.1078e-06	3.2321e-06	407.8	129.92	3.3841e-06	2.766e-06	216.86	121.63	69.318	40.646	5.0009e-06	73.65	0.00011552	7.8625e-05	2.237e-05	292.18	8.6842e-07	8.6973e-07	435.76	139.65	8.8092e-07	8.7507e-07	229.62	128.62	72.278	43.25	9.0525e-07	77.628	185.563	239.160	220.163	152.311	277.964	318.069	151.264	155.857	258.012	295.828	154.633	157.972	157.888	162.057	289.010	160.713	-8191	255	
2307.964	1	1	0	0	0.20225	0.085403	0.146	0.10311	0.06901	0.052933	0.14167	0.11429	0.083689	0.17429	0.1935	0.14496	0.1571	0.16197	0.065491	0.19186	-2.3729	-3.0104	-2.6937	-2.9062	-2.8125	-2.8563	-2.9562	-2.8563	-3.0625	-3.0083	-2.7875	-3.0375	-2.8958	-2.6979	-2.9208	-2.9979	195.356	471.699	298.509	351.715	393.915	469.212	416.368	452.146	382.553	194.377	172.718	272.967	447.644	236.169	291.547	235.811	0.00078911	0.00028919	9.5858e-05	276.69	2.853e-06	2.4904e-06	408.26	130.51	2.3115e-06	2.7802e-06	218.05	121.87	69.379	40.742	3.9575e-06	73.65	0.00011804	8.0187e-05	2.2268e-05	293.37	8.7458e-07	8.8509e-07	436.35	139.83	8.8711e-07	8.7527e-07	230.43	128.69	72.49	43.239	9.1137e-07	77.623	185.243	224.723	210.809	152.734	254.646	285.110	151.214	156.040	292.381	262.618	154.904	158.161	158.109	161.912	284.579	160.717	-8191	255	
2308.058	1	1	0	0	0.20088	0.25062	0.13886	0.38773	0.15579	0.05309	0.15769	0.19034	0.0717	0.23099	0.27092	0.12161	0.040758	0.14343	0.14358	0.11263	-2.3375	-3.1146	-2.8146	-2.9667	-2.9542	-2.7625	-2.9479	-2.7562	-2.775	-2.9437	-2.7958	-3.0771	-2.975	-2.8	-2.8937	-2.9	246.023	485.764	198.668	332.423	168.904	364.290	164.023	344.532	417.443	277.233	425.547	199.060	217.092	236.966	369.208	177.158	0.00076903	0.00036259	0.00011432	276.32	2.5946e-06	4.4833e-06	405.8	130.63	3.1114e-06	3.3745e-06	217.85	121.69	69.905	40.839	2.9664e-06	73.398	0.00011639	8.1308e-05	2.2732e-05	292.83	8.8437e-07	8.8154e-07	436.14	139.66	8.9736e-07	8.7927e-07	230.24	128.47	72.595	43.336	9.0911e-07	77.437	185.651	226.207	216.845	152.566	264.420	260.336	151.322	155.911	267.844	292.773	154.774	158.006	158.260	162.103	270.856	160.791	-8191	255	
2308.155	1	1	0	0	0.12057	0.17803	0.18776	0.24159	0.20551	0.19556	0.049014	0.29272	0.17635	0.079446	0.075873	0.072411	0.20934	0.18791	0.15588	0.26687	-2.2667	-3.0062	-2.5521	-2.8083	-3.0583	-2.6896	-3.0917	-3.0042	-2.7292	-2.8625	-2.9813	-2.8688	-2.9813	-2.8479	-2.8312	-3.0667	254.645	409.044	205.626	336.222	356.177	287.593	249.435	365.331	372.100	249.746	479.140	268.874	360.448	195.404	206.751	456.156	0.00077101	0.00028183	2.9323e-05	280.1	2.9514e-06	3.2752e-06	407.2	129.73	2.172e-06	4.3586e-06	215.77	121.28	69.282	40.521	3.6452e-06	73.414	0.00011684	8.0649e-05	2.2428e-05	292.66	8.6929e-07	8.7988e-07	435.37	139.34	9.018e-07	8.7548e-07	229.14	128.2	72.212	43.102	8.9302e-07	77.292	185.741	241.300	273.714	152.262	277.453	314.623	151.369	155.887	264.184	295.750	154.931	158.073	158.249	162.054	254.613	160.679	-8191	255	
2308.251	1	1	0	0	0.04817	0.037129	0.12571	0.14172	0.14544	0.1795	0.093808	0.28473	0.24925	0.15098	0.25299	0.14784	0.13769	0.18093	0.034151	0.31731	-2.1625	-2.9167	-2.7208	-2.7188	-3.0333	-2.9437	-2.9562	-3.0208	-2.8458	-2.9417	-2.9854	-2.7583	-3.1771	-2.9542	-2.8292	-3.1417	382.808	337.186	321.113	392.085	338.690	255.112	376.181	176.328	317.223	472.264	298.122	249.697	329.754	488.594	317.311	468.155	0.00076817	0.00024411	8.3737e-05	273.81	2.0229e-06	4.1647e-06	405.32	129.67	3.7412e-06	3.5921e-06	215.08	120.41	69.332	40.323	2.1598e-06	72.636	0.0001178	8.0083e-05	2.1914e-05	291.11	8.7658e-07	8.858e-07	433.86	138.97	9.1288e-07	9.1213e-07	228.46	127.5	72.01	42.855	9.0974e-07	76.724	184.253	242.665	232.667	152.280	265.642	303.434	151.565	156.065	272.828	269.930	154.901	157.868	157.927	162.170	276.313	160.621	-8191	255	
2308.371	1	1	0	0	0.17663	0.24824	0.10238	0.03421	0.0629	0.1144	0.15715	0.15764	0.15906	0.075582	0.24655	0.17935	0.21553	0.39071	0.29114	0.12238	-2.3729	-2.9896	-2.6958	-2.7354	-3.0812	-2.7417	-2.8333	-2.9938	-2.6896	-3.0104	-3.2	-2.8042	-3.1021	-2.7917	-2.8604	-3.3146	201.979	199.259	213.837	193.551	182.712	364.176	461.487	153.312	329.097	309.684	468.887	182.644	449.088	429.254	205.793	423.118	0.0007582	0.00027173	9.8774e-05	272.21	2.7604e-06	4.2841e-06	401.11	128.73	2.5546e-06	2.7245e-06	215.34	120.74	69.141	40.297	2.4524e-06	72.632	0.00011813	8.2814e-05	2.2913e-05	289.58	8.9576e-07	8.8857e-07	431.7	138.69	9.0036e-07	8.8945e-07	228.41	127.7	71.911	42.788	9.1317e-07	76.787	184.838	246.314	223.262	152.110	279.866	277.550	151.470	155.797	270.177	271.535	154.700	158.031	157.879	162.221	261.687	160.589	-8191	255	
2308.467	1	1	0	0	0.013832	0.16722	0.18639	0.12867	0.34811	0.025049	0.083711	0.062441	0.10791	0.24605	0.15024	0.18903	0.27447	0.25786	0.24256	0.21966	-2.3063	-3.0187	-2.8458	-2.5521	-3.0938	-2.8354	-2.7396	-2.9979	-2.6646	-3.1063	-2.9833	-2.8354	-3.0833	-2.8521	-2.8812	-3.0708	489.254	286.801	141.666	358.707	355.839	474.542	247.225	497.129	367.710	484.783	490.303	491.467	228.026	447.203	316.682	409.821	0.0007704	0.0002872	7.7789e-05	273.93	3.3392e-06	4.0451e-06	404.08	129.03	4.8034e-06	3.1828e-06	217.5	120.95	68.897	40.335	2.4651e-06	73.273	0.00011775	8.0921e-05	2.251e-05	288.97	8.8806e-07	8.953e-07	432.9	138.8	9.0469e-07	8.8782e-07	229.36	128.15	71.947	42.835	9.157e-07	77.101	185.835	257.328	222.056	152.972	261.187	319.011	151.414	156.046	261.827	269.563	154.979	158.125	157.742	162.203	296.615	160.787	-8191	255	
2308.539	1	1	0	0	0.12817	0.10128	0.14001	0.17266	0.16453	0.075102	0.10756	0.20304	0.14969	0.21684	0.27375	0.10493	0.11913	0.24936	0.18768	0.047439	-2.3292	-2.8792	-2.9104	-2.7292	-3.0125	-2.7521	-2.825	-3.0333	-2.7792	-2.7479	-3.05	-2.6625	-2.9333	-2.9042	-2.4021	-3.0854	389.750	223.407	438.773	331.078	175.061	350.533	350.231	486.457	488.245	237.527	227.746	405.000	157.145	247.051	302.108	232.856	0.00076745	0.00049525	0.00013641	275.4	4.5691e-06	4.6396e-06	405.62	129.18	2.8821e-06	3.6948e-06	217.29	120.59	69.187	40.263	2.9365e-06	72.861	0.00011703	8.1492e-05	2.235e-05	290.39	8.6937e-07	8.7969e-07	432.82	138.55	8.9398e-07	8.8567e-07	228.45	127.67	71.994	42.784	9.111e-07	76.86	184.120	256.649	239.173	152.681	276.996	292.498	151.564	155.982	245.374	302.063	154.853	157.915	158.331	162.153	266.538	160.644	-8191	255	
2308.660	1	1	0	0	0.15821	0.11914	0.071025	0.21312	0.24481	0.093709	0.23046	0.14762	0.24601	0.19711	0.086421	0.016548	0.18254	0.27249	0.11373	0.32567	-2.3187	-2.6354	-2.9062	-2.5917	-2.9396	-2.8604	-2.5438	-2.9167	-2.725	-2.7042	-3.05	-2.8208	-2.9333	-3.0208	-2.7438	-3.1729	330.841	496.772	158.131	211.420	149.728	188.616	444.212	483.503	451.983	448.182	312.774	462.040	226.714	435.644	273.035	379.048	0.00076799	0.00025802	0.00013786	276.3	2.9991e-06	2.0009e-06	405.28	128.87	2.3166e-06	2.1238e-06	216.12	120.88	69.062	40.452	2.5341e-06	72.969	0.00011708	8.0311e-05	2.2638e-05	290.56	8.7843e-07	8.6481e-07	433.2	138.69	8.8043e-07	8.7412e-07	228.74	127.84	71.993	42.941	8.992e-07	77.079	186.330	215.791	219.732	152.602	265.101	291.785	151.092	156.082	259.561	281.354	154.990	158.010	158.074	162.102	296.581	160.739	-8191	255	
2308.756	1	1	0	0	0.13463	0.25004	0.036377	0.2158	0.12272	0.082908	0.23063	0.11121	0.14824	0.12441	0.29782	0.25676	0.20327	0.20036	0.16889	0.32705	-2.2917	-2.6188	-2.7417	-2.6146	-2.8042	-3.0438	-2.7687	-2.8396	-2.9229	-2.8667	-3.0521	-2.9562	-2.8	-3.0563	-2.625	-3.1417	478.023	345.982	377.315	458.508	440.041	243.785	359.934	473.549	342.508	416.519	465.799	475.381	475.113	439.839	227.338	448.766	0.00075983	0.00040007	0.00010307	276.69	2.561e-06	4.0472e-06	407.45	128.82	2.3331e-06	1.3169e-06	215.42	120.5	68.612	40.158	3.6529e-06	72.921	0.00011527	7.9542e-05	2.214e-05	292.09	8.6077e-07	8.5955e-07	434.74	138.59	8.8208e-07	8.6737e-07	228.26	127.3	71.615	42.732	9.0081e-07	76.816	184.855	242.751	218.081	152.499	269.619	282.005	151.219	155.979	268.102	267.328	154.905	158.109	157.926	162.191	260.165	160.674	-8191	255	
2308.852	1	1	0	0	0.21496	0.1134	0.20353	0.11543	0.1285	0.14263	0.12498	0.032354	0.18035	0.21816	0.22107	0.21489	0.12054	0.064223	0.13249	0.033036	-2.35	-2.7562	-2.8563	-2.7667	-2.8771	-3.1667	-2.6604	-2.9417	-2.9125	-2.7833	-3.0271	-2.7521	-2.9354	-3	-2.6917	-3.1354	259.457	361.075	177.607	469.464	326.367	452.331	432.249	216.850	255.892	445.405	445.828	155.266	168.049	494.885	143.742	327.258	0.00073728	0.00038703	9.76e-05	276.95	2.6856e-06	1.6895e-06	405.56	128.26	3.3075e-06	3.8536e-06	214.31	121.26	69.144	40.232	4.3301e-06	73.17	0.00011552	8.0001e-05	2.2421e-05	290.21	8.7341e-07	8.7402e-07	433.22	138.1	8.8603e-07	8.7818e-07	227.98	127.76	71.793	42.824	9.1791e-07	77.209	183.689	239.673	213.633	152.738	287.188	263.379	151.442	156.035	265.400	306.779	155.135	157.924	157.836	162.231	278.170	160.591	-8191	255	
2308.946	1	1	0	0	0.13496	0.21608	0.069577	0.28982	0.36785	0.14738	0.2717	0.27516	0.21204	0.18715	0.11293	0.19934	0.15326	0.16208	0.14234	0.047738	-2.2313	-2.5604	-2.9104	-2.5979	-2.7938	-2.975	-2.8083	-2.8792	-3.0396	-2.625	-3.1167	-2.725	-2.8063	-3.2292	-2.8396	-3.1417	339.767	202.881	204.829	250.020	231.648	171.397	361.781	430.821	356.025	480.423	363.687	465.985	409.932	496.502	328.083	144.623	0.00075502	0.00027323	7.9098e-05	277.13	3.122e-06	1.8031e-06	407.25	129.05	2.8797e-06	3.2054e-06	215.68	120.48	69.146	40.212	3.4691e-06	72.955	0.00011627	8.107e-05	2.2279e-05	292.67	8.6842e-07	8.6427e-07	434.64	138.52	8.8917e-07	8.7156e-07	228.47	127.54	71.868	42.839	9.1047e-07	76.902	184.563	230.530	246.323	152.366	251.579	259.733	151.422	156.077	278.297	274.828	154.892	158.188	158.233	162.180	290.254	160.594	-8191	255	
2309.067	1	1	0	0	0.10861	0.17772	0.25028	0.18078	0.13295	0.23464	0.17944	0.18762	0.10379	0.18945	0.12226	0.22278	0.14452	0.12841	0.10333	0.14305	-2.3021	-2.5479	-2.9062	-2.7	-2.7875	-2.9646	-2.6229	-2.8729	-2.8792	-2.6271	-2.9354	-2.9146	-2.6958	-3.1604	-2.5958	-3.0521	384.599	483.627	434.745	429.067	323.917	485.128	419.173	351.249	469.751	495.278	144.822	484.646	163.659	442.241	427.108	486.703	0.00078008	0.00039093	0.00011209	276.6	2.8071e-06	2.461e-06	402.86	128.38	3.2422e-06	2.0806e-06	213.4	120.53	68.494	40.092	2.6434e-06	72.449	0.00011583	8.0036e-05	2.2189e-05	290.32	8.6105e-07	8.7231e-07	432.17	137.85	8.8078e-07	8.8311e-07	226.64	127.04	71.433	42.677	9.0141e-07	76.466	186.267	234.045	214.594	152.939	252.011	280.297	151.441	156.341	259.578	309.105	154.785	158.178	158.146	162.175	288.073	160.790	-8191	255	
2309.139	1	1	0	0	0.12928	0.052725	0.19724	0.25932	0.12493	0.35521	0.19583	0.17215	0.29434	0.19603	0.088651	0.25316	0.14905	0.18896	0.1389	0.20242	-2.4	-2.5854	-2.9708	-2.7417	-2.7479	-3.0646	-2.6896	-2.8	-2.9667	-2.6354	-2.925	-2.9833	-2.6375	-3.1063	-2.7854	-2.8667	313.559	348.704	320.723	410.698	463.637	184.473	329.688	277.868	162.860	396.615	151.213	426.730	203.960	467.348	299.848	494.911	0.00074773	0.00036611	0.00011101	273.31	2.1046e-06	4.8133e-06	403.05	127.67	3.2181e-06	2.0064e-06	213.78	119.63	68.174	40.398	2.2143e-06	72.611	0.00011547	8.0879e-05	2.2114e-05	288.63	8.7238e-07	8.5789e-07	430.98	137.43	8.7205e-07	8.7704e-07	226.71	126.91	71.358	42.829	9.0149e-07	76.855	184.755	221.737	186.582	152.722	259.839	276.664	151.296	156.204	263.227	311.788	154.630	158.099	158.082	162.070	283.870	160.569	-8191	255	
2309.235	1	1	0	0	0.087875	0.18283	0.15253	0.35408	0.082983	0.11274	0.12206	0.13687	0.15885	0.090601	0.018358	0.20965	0.052884	0.27253	0.062532	0.37569	-2.3417	-2.6583	-2.8542	-2.8292	-2.6042	-2.9188	-2.7875	-2.7771	-2.9958	-2.6917	-2.85	-2.9792	-2.6021	-3.1083	-2.7	-2.9437	309.775	304.509	465.096	412.388	231.475	436.400	377.268	276.778	358.810	290.345	497.512	416.176	344.507	447.895	350.183	479.058	0.00074774	0.00032587	0.00013474	274.16	1.0931e-06	3.2471e-06	405.43	128.52	1.6292e-06	4.9237e-06	215.25	120.14	68.547	40.469	3.9294e-06	73.518	0.00011483	8.0884e-05	2.2284e-05	288.91	8.713e-07	8.8327e-07	433.14	137.96	8.8606e-07	8.7592e-07	227.48	127.53	71.722	42.994	9.0489e-07	77.459	185.985	235.244	205.205	152.784	357.430	267.550	151.188	155.866	240.619	273.390	155.055	158.096	158.167	162.206	285.668	160.549	-8191	255	
2309.331	1	1	0	0	0.26764	0.22683	0.12662	0.26371	0.081829	0.10823	0.17979	0.10781	0.05828	0.14301	0.23929	0.15049	0.084898	0.21464	0.22327	0.10427	-2.6	-2.8333	-2.8771	-2.9854	-2.7604	-2.8396	-2.7229	-2.7208	-3.0208	-2.6958	-3.0396	-3.0563	-2.7167	-3.0604	-2.7771	-2.8333	406.467	485.945	143.284	363.803	246.872	329.343	380.402	149.557	398.451	427.689	184.966	475.069	424.864	461.486	254.959	470.087	0.00078333	0.00035366	0.00011444	276.81	1.9372e-06	4.1049e-06	405.35	128.94	2.6533e-06	4.0725e-06	216.44	121.86	69.254	40.552	3.1892e-06	73.674	0.00011611	8.0009e-05	2.227e-05	291.65	8.7273e-07	8.6981e-07	434.86	138.6	8.7432e-07	8.696e-07	229.03	128.54	72.136	43.13	8.7579e-07	77.786	184.127	231.158	202.642	152.658	232.145	294.590	151.512	156.035	271.202	283.232	154.871	158.246	157.977	162.264	274.759	160.653	-8191	255	
2309.452	1	1	0	0	0.1568	0.19512	0.35833	0.049395	0.16809	0.10076	0.23551	0.067248	0.10506	0.205	0.1703	0.11695	0.20835	0.22558	0.34077	0.19301	-2.5708	-2.6854	-2.6792	-2.9542	-2.5667	-2.9854	-2.6979	-2.5667	-2.9917	-2.7104	-2.7958	-3.0542	-2.7938	-2.8729	-2.8292	-2.7979	428.078	164.078	485.953	332.564	295.093	338.545	158.619	347.907	289.071	408.490	231.428	347.699	477.639	427.799	296.052	428.395	0.00075648	0.00035457	0.00011392	278.93	2.6021e-06	3.5772e-06	405.64	129.37	2.7397e-06	2.577e-06	215.61	121.65	68.811	40.356	4.04e-06	73.071	0.0001158	7.9661e-05	2.1811e-05	293.06	8.4949e-07	8.5857e-07	434.68	138.85	8.6864e-07	8.6745e-07	228.34	128.08	71.929	42.993	8.7868e-07	77.126	186.225	223.973	212.166	152.497	268.552	315.540	151.474	156.193	272.417	314.115	155.020	158.221	157.959	161.969	258.382	160.485	-8191	255	
2309.548	1	1	0	0	0.29858	0.2323	0.13779	0.32576	0.12903	0.10782	0.18997	0.18616	0.04151	0.28296	0.24048	0.21261	0.23068	0.23867	0.10849	0.24426	-2.4688	-2.6625	-2.7833	-2.8	-2.65	-2.8167	-2.7146	-2.6583	-2.9208	-2.7354	-2.7146	-2.8625	-2.5396	-2.9333	-3.05	-2.7521	420.896	337.925	311.815	468.849	360.930	237.887	390.188	248.779	403.026	155.396	423.718	359.939	198.236	458.205	181.616	410.891	0.00076692	0.0002334	7.2794e-05	279.05	2.9015e-06	1.0504e-06	406.2	129.23	2.2884e-06	2.9132e-06	215.02	120.76	69.185	40.551	2.9998e-06	73.005	0.00011479	7.8796e-05	2.1776e-05	293.58	8.3656e-07	8.5013e-07	434.71	138.83	8.5431e-07	8.4414e-07	227.66	127.86	72.049	43.11	8.6942e-07	77.113	184.509	296.635	230.505	152.053	270.677	322.549	151.263	155.986	271.220	292.587	154.908	158.327	158.255	162.234	276.322	160.703	-8191	255	
2309.644	1	1	0	0	0.3024	0.23411	0.33934	0.18969	0.19617	0.11861	0.031098	0.28736	0.079359	0.34602	0.10961	0.20726	0.17115	0.14324	0.10877	0.24344	-2.3937	-2.7646	-2.6208	-2.9208	-2.6	-2.85	-2.8708	-2.6917	-2.7479	-2.7958	-2.7104	-3.0583	-2.7979	-2.9583	-2.9792	-2.7562	316.157	251.689	344.973	158.007	158.601	189.997	150.525	154.843	334.565	264.609	138.580	445.746	491.802	433.437	354.335	457.489	0.00077179	0.00023573	7.8066e-05	277.47	2.2825e-06	3.0526e-06	405.06	128.92	3.0471e-06	4.0229e-06	214.94	121.05	68.947	40.506	4.0384e-06	73.119	0.0001146	7.8483e-05	2.1619e-05	292.64	8.5031e-07	8.3921e-07	434.12	138.53	8.6228e-07	8.4706e-07	227.45	127.82	71.669	43.001	8.5973e-07	77.103	186.086	247.560	202.264	152.149	300.140	311.149	151.407	155.845	268.488	279.585	154.859	158.091	158.127	162.076	276.281	160.772	-8191	255	
2309.740	1	1	0	0	0.17517	0.23871	0.15755	0.079301	0.24358	0.066629	0.23688	0.14757	0.21629	0.041073	0.033466	0.15602	0.16103	0.2476	0.23177	0.21415	-2.5062	-2.6562	-2.5583	-2.8042	-2.6167	-2.6896	-2.9042	-2.7729	-2.9437	-2.9271	-2.7562	-3.0667	-2.7	-2.7979	-2.8375	-2.7979	154.660	403.595	187.764	264.076	247.028	461.232	404.871	440.173	205.833	211.119	284.002	412.774	174.449	200.722	414.324	415.027	0.00074979	0.00036303	0.00010562	275.05	3.2858e-06	3.3086e-06	405.23	129.28	3.4633e-06	3.25e-06	214.74	121.02	69.233	40.603	3.4649e-06	73.234	0.00011276	7.8071e-05	2.1986e-05	291.59	8.4952e-07	8.3074e-07	434.06	138.36	8.5474e-07	8.4414e-07	227.68	128	71.818	43.089	8.6044e-07	77.296	184.880	274.826	217.812	152.808	273.757	269.827	151.195	155.956	251.047	295.820	154.779	158.119	157.990	162.155	277.554	160.486	-8191	255	
2309.836	1	1	0	0	0.3477	0.051139	0.14344	0.074481	0.17116	0.062422	0.26198	0.13394	0.10529	0.13429	0.28393	0.2898	0.21679	0.1027	0.23899	0.1684	-2.4542	-2.5875	-2.6042	-2.9854	-2.7479	-2.7833	-3.0062	-2.6208	-2.8167	-3.125	-2.7313	-3.0792	-2.9479	-2.8625	-3.0604	-2.7542	347.420	372.902	263.834	269.634	427.530	186.766	362.257	468.626	304.385	236.730	447.025	479.782	148.241	444.524	497.280	420.790	0.00076986	0.0003697	6.1487e-05	281.42	2.1858e-06	5.5869e-06	406.7	128.96	4.7873e-06	3.346e-06	215.9	121.27	69.122	40.572	3.024e-06	73.268	0.00011344	7.7801e-05	2.1716e-05	292.67	8.5741e-07	8.4717e-07	435.64	138.43	8.7145e-07	8.4755e-07	227.97	128.36	71.977	43.112	8.7914e-07	77.335	184.444	236.095	190.883	152.165	282.056	309.822	151.252	156.054	274.179	269.082	154.711	158.082	158.196	162.131	276.334	160.801	-8191	255	
2309.932	1	1	0	0	0.24555	0.36039	0.14862	0.12299	0.21504	0.14329	0.05511	0.23242	0.11577	0.18546	0.30012	0.20964	0.25528	0.094255	0.081045	0.084906	-2.3958	-2.8271	-2.6542	-2.8625	-2.7667	-2.8438	-2.9917	-2.6854	-2.7646	-2.7854	-2.7271	-2.9958	-2.8458	-2.7208	-3.0021	-2.8792	353.901	210.168	193.808	195.209	272.625	348.477	193.356	396.725	275.848	281.536	152.677	177.538	152.555	332.222	434.915	487.723	0.00078463	0.00015318	0.00010746	278.51	2.7398e-06	3.8131e-06	407.01	128.26	2.6411e-06	2.3971e-06	214.92	120.54	68.662	40.518	3.386e-06	72.671	0.00011586	7.6982e-05	2.1837e-05	291.31	8.6905e-07	8.5374e-07	434.23	138.17	8.5761e-07	8.5972e-07	227.08	127.55	71.657	42.979	8.7514e-07	76.739	185.412	247.348	210.681	152.478	257.105	272.257	151.364	155.951	270.554	274.805	154.822	158.007	157.863	161.985	264.470	160.508	-8191	255	
2310.051	1	1	0	0	0.26961	0.059782	0.051143	0.35517	0.11399	0.11528	0.23267	0.25832	0.24225	0.084975	0.16714	0.20889	0.27543	0.12391	0.1579	0.266	-2.2708	-2.8167	-2.6667	-2.7562	-2.9437	-2.7854	-2.9917	-2.7229	-2.7292	-2.925	-2.7333	-2.9625	-2.9688	-2.7917	-2.8729	-3.0229	154.697	199.159	173.960	238.116	322.381	213.545	455.193	410.692	211.791	354.456	400.980	318.735	216.481	165.065	415.051	463.666	0.00076347	0.00045165	0.00010448	281.23	3.1992e-06	1.5765e-06	404.61	128.19	3.0056e-06	3.0531e-06	214.02	120.38	68.535	40.334	2.8529e-06	72.848	0.000113	7.825e-05	2.2202e-05	292.08	8.5985e-07	8.6853e-07	432.78	137.89	8.7251e-07	8.7325e-07	226.92	127.19	71.464	42.849	8.9115e-07	76.661	186.045	228.824	222.558	153.103	300.729	272.831	151.476	156.076	275.748	281.616	154.628	157.803	158.271	162.328	278.409	160.783	-8191	255	
2310.147	1	1	0	0	0.36012	0.15463	0.067103	0.12146	0.20657	0.17457	0.080285	0.047191	0.1472	0.18039	0.17568	0.13106	0.13785	0.1993	0.17376	0.20082	-2.35	-3.0208	-2.7229	-2.7729	-2.7958	-2.7042	-3.0979	-2.7687	-2.6625	-3.1104	-2.8354	-2.7479	-2.9062	-2.6354	-2.8021	-2.9271	378.056	307.139	204.911	385.312	430.803	449.901	372.911	455.612	298.223	473.525	425.573	219.553	341.577	448.424	217.132	478.564	0.0007363	0.00037183	8.0724e-05	274.38	2.2364e-06	3.1116e-06	404.56	128.32	3.1255e-06	3.5174e-06	215.22	120.43	68.579	40.427	3.3596e-06	72.807	0.00011622	7.9428e-05	2.2244e-05	290.62	8.6951e-07	8.7475e-07	433.33	138.09	8.8013e-07	8.7543e-07	227.02	127.23	71.517	42.911	8.9224e-07	76.893	185.087	230.528	187.022	152.518	270.193	278.819	151.436	156.107	283.893	317.446	154.709	158.184	157.982	161.978	286.048	160.663	-8191	255	
2310.244	1	1	0	0	0.24139	0.21227	0.12828	0.18786	0.31405	0.31143	0.159	0.23468	0.20384	0.10732	0.066294	0.087082	0.16113	0.20057	0.16871	0.071322	-2.1854	-2.9042	-2.6479	-2.7687	-2.9333	-2.8229	-2.8917	-2.7125	-2.6312	-2.9521	-2.7667	-2.7583	-3.0604	-2.5792	-2.8021	-2.725	388.750	248.126	429.945	433.193	344.120	302.072	430.605	161.833	178.492	444.327	150.080	489.920	271.914	179.834	319.613	427.255	0.00076957	0.00047612	7.5404e-05	275.6	2.8231e-06	2.9461e-06	405.57	128.65	2.9249e-06	2.0184e-06	214.01	119.96	68.65	40.252	2.9728e-06	72.768	0.00011682	8.0249e-05	2.2332e-05	291.53	8.6734e-07	8.6813e-07	433.89	137.87	8.9647e-07	8.7467e-07	227.04	127.17	71.471	42.774	8.872e-07	76.724	185.502	258.012	204.811	152.689	277.744	273.346	151.235	156.157	253.158	302.085	155.141	157.932	158.037	162.214	282.462	160.730	-8191	255	
2310.364	1	1	0	0	0.092897	0.064279	0.19089	0.13188	0.2453	0.26938	0.12038	0.16191	0.094496	0.085905	0.20958	0.23389	0.27033	0.24082	0.038428	0.23012	-2.2146	-2.9583	-2.725	-2.6521	-2.9437	-2.8312	-3.0979	-2.5812	-2.6813	-2.8875	-2.7667	-2.9813	-2.9083	-2.7917	-3.0125	-3.05	363.678	143.874	293.652	337.425	330.060	449.628	351.256	194.178	431.552	228.818	489.817	150.916	388.530	358.296	409.898	442.746	0.00075051	0.00024943	0.00010434	276.33	2.1708e-06	2.6904e-06	404.79	128.32	3.0331e-06	3.5769e-06	213.09	120.01	68.125	40.002	2.9153e-06	72.392	0.00011475	8.0304e-05	2.2383e-05	290.14	8.8426e-07	8.6405e-07	432.12	137.27	8.9531e-07	8.6977e-07	226.11	126.65	71.214	42.622	8.9327e-07	76.299	185.106	230.565	196.138	152.736	314.363	311.213	151.375	155.886	267.712	289.686	154.881	158.095	158.167	162.242	266.050	160.705	-8191	255	
2310.436	1	1	0	0	0.4595	0.034594	0.20832	0.056304	0.19962	0.22047	0.22992	0.15047	0.10637	0.097655	0.052525	0.24178	0.22316	0.33144	0.089869	0.11727	-2.0229	-2.8104	-2.7292	-2.6437	-3.05	-2.7729	-2.8667	-3.0708	-2.7979	-2.825	-3.0958	-2.7333	-2.9625	-2.7729	-2.7562	-2.8833	155.667	486.795	331.960	430.820	406.310	329.979	480.596	190.543	308.992	404.027	247.617	454.111	225.708	487.715	273.971	415.277	0.00078243	0.00031806	7.032e-05	273.02	2.0451e-06	3.5596e-06	402	128.13	2.8901e-06	3.9674e-06	214.79	119.89	68.901	40.084	2.4861e-06	72.437	0.00011652	7.9255e-05	2.2338e-05	289.36	8.7762e-07	8.7206e-07	430.35	137.55	8.9969e-07	8.739e-07	226.08	126.72	71.442	42.625	9.0304e-07	76.283	184.843	242.733	234.662	152.534	257.720	302.121	151.482	156.052	273.365	290.446	154.840	158.046	158.223	162.241	271.464	160.546	-8191	255	
2310.532	1	1	0	0	0.0311	0.043734	0.13889	0.25001	0.048999	0.25986	0.20925	0.22607	0.088177	0.17754	0.05873	0.17834	0.30658	0.35148	0.1324	0.21227	-2.1021	-3.0563	-2.5438	-2.6958	-2.925	-2.6437	-2.6521	-2.9604	-2.5042	-2.9396	-2.8292	-2.5938	-2.9	-2.7583	-2.8063	-3.2042	237.900	253.228	232.660	471.991	388.911	385.128	304.494	440.784	195.837	390.020	162.757	417.012	250.416	471.842	195.553	495.483	0.00073032	0.00040147	8.1181e-05	275.93	2.344e-06	3.2471e-06	404.07	128.29	3.1449e-06	1.7244e-06	212.98	119.95	68.826	40.019	4.0019e-06	72.096	0.0001165	8.0497e-05	2.2432e-05	290.28	8.7715e-07	8.8045e-07	432.18	137.64	9.0593e-07	8.6157e-07	225.96	126.65	71.469	42.64	9.1464e-07	76.307	185.095	247.475	206.964	152.172	265.357	288.295	151.349	156.033	265.203	281.143	154.772	157.974	157.833	162.129	266.001	160.726	-8191	255	
2310.628	1	1	0	0	0.20368	0.16577	0.16316	0.22589	0.12903	0.13341	0.18793	0.056978	0.24534	0.047413	0.17836	0.045971	0.18893	0.18846	0.14389	0.31199	-2.1813	-2.5625	-2.7896	-2.4396	-2.7542	-2.7229	-2.6854	-3.1271	-2.6937	-2.8792	-3.1	-2.7333	-2.9	-2.8083	-2.7417	-3.1167	359.731	140.005	238.334	397.890	194.553	389.712	201.206	282.876	279.110	161.410	352.327	237.288	479.396	406.733	439.836	387.629	0.00075714	0.00030917	0.0001184	277.46	3.115e-06	3.5903e-06	403.23	128.12	2.918e-06	3.3534e-06	213.29	119.99	68.228	40.149	3.8329e-06	72.451	0.00011524	8.1192e-05	2.2511e-05	291.01	8.9386e-07	8.7977e-07	431.43	137.59	8.9349e-07	8.6446e-07	225.83	126.77	71.377	42.713	9.1469e-07	76.423	185.815	256.762	209.193	152.635	301.959	298.530	151.411	156.077	266.451	273.888	154.802	158.277	158.112	162.111	273.000	160.737	-8191	255	
2310.747	1	1	0	0	0.19804	0.18457	0.18575	0.21907	0.22799	0.33423	0.14719	0.15645	0.23216	0.19234	0.016312	0.14604	0.050192	0.081057	0.12685	0.38242	-2.3	-2.8083	-2.8333	-2.6604	-2.8958	-2.9437	-2.6	-2.9792	-2.6354	-2.8125	-2.9437	-2.7583	-2.8312	-3.0042	-2.6146	-3.1583	310.436	480.420	382.968	151.373	201.554	165.028	268.615	456.658	229.099	237.586	379.827	232.647	387.440	403.567	464.293	476.940	0.00077839	0.00043974	7.5242e-05	272.54	2.3589e-06	2.3123e-06	401.18	127.34	3.6089e-06	3.1645e-06	213.84	119.98	68.294	40.02	4.2632e-06	72.233	0.00011731	8.2626e-05	2.258e-05	290.42	8.8624e-07	8.7817e-07	430.43	137.08	9.081e-07	8.8757e-07	225.45	126.57	71.191	42.505	9.117e-07	76.138	186.655	244.602	227.653	152.223	257.702	270.981	151.233	156.013	251.342	301.914	154.817	158.040	158.111	162.136	271.905	160.583	-8191	255	
2310.845	1	1	0	0	0.28454	0.19165	0.087236	0.12458	0.28996	0.029838	0.18098	0.21809	0.33874	0.26107	0.077291	0.12572	0.20385	0.074308	0.068269	0.03027	-2.0812	-2.7167	-2.8438	-2.6875	-2.7104	-2.8958	-2.6771	-2.95	-2.7667	-2.5479	-2.8312	-2.8	-2.6271	-2.8646	-2.5208	-2.8688	440.965	138.325	179.961	151.434	140.815	492.036	199.741	160.178	246.111	256.341	428.169	336.368	244.340	380.510	198.953	169.330	0.00074547	0.00047581	9.9853e-05	273.38	2.3434e-06	3.4989e-06	400.83	127.74	2.3756e-06	2.6684e-06	213.17	119.25	68.367	40.163	2.363e-06	72.085	0.00011587	8.1398e-05	2.2363e-05	289.41	8.9494e-07	8.8232e-07	430.24	137.41	8.9536e-07	9.001e-07	225.54	126.46	71.317	42.671	9.108e-07	76.025	183.469	253.109	244.538	152.397	248.217	272.553	151.472	155.807	226.352	268.294	154.848	158.052	158.060	161.925	269.929	160.654	-8191	255	
2310.939	1	1	0	0	0.12361	0.12684	0.12276	0.20529	0.026657	0.12247	0.14984	0.29578	0.21253	0.0276	0.033026	0.11934	0.18908	0.19407	0.20321	0.16188	-2.3	-2.7021	-2.8667	-2.7812	-2.8104	-2.8979	-2.7542	-2.9292	-2.6937	-2.7979	-3.0812	-2.6958	-2.9604	-3.1813	-2.6354	-3.1688	190.433	216.191	450.999	215.659	394.263	280.183	273.483	494.284	420.927	256.086	334.686	487.592	446.314	159.203	281.511	289.034	0.00077973	0.00013003	0.00012168	274.23	2.7166e-06	4.9166e-06	403.76	127.56	3.4947e-06	3.1379e-06	212.08	118.92	67.952	40.019	3.1848e-06	72.145	0.0001161	8.1862e-05	2.2567e-05	289.11	8.9093e-07	8.8713e-07	430.81	137.11	9.0047e-07	8.8548e-07	224.79	125.94	71.045	42.592	9.2275e-07	75.885	185.334	257.664	218.623	151.778	256.582	280.172	151.402	155.926	266.048	265.340	154.994	158.013	158.009	162.114	246.177	160.571	-8191	255	
2311.013	1	1	0	0	0.17551	0.14616	0.17878	0.23488	0.13311	0.26168	0.06442	0.13758	0.1506	0.16902	0.076655	0.22657	0.032419	0.11756	0.14201	0.2218	-2.4021	-2.6792	-3.0396	-2.6292	-2.9562	-2.875	-2.7229	-2.9729	-2.6354	-2.7667	-3.0125	-2.9333	-2.6562	-3.025	-2.8083	-3.0458	488.668	358.131	389.000	145.196	494.776	149.288	452.587	340.125	223.273	217.049	196.411	153.562	283.237	441.222	147.298	430.659	0.00073434	0.00036245	0.0001021	274.37	3.4494e-06	1.6417e-06	400.88	126.56	2.5964e-06	4.1059e-06	211.81	118.44	68.034	39.905	4.2715e-06	71.54	0.0001155	8.1246e-05	2.2435e-05	288.65	8.9136e-07	8.7584e-07	428.92	136.33	9.0277e-07	8.8101e-07	223.91	125.36	70.854	42.344	9.1733e-07	75.62	185.254	220.436	226.923	152.314	282.157	344.546	151.266	156.030	270.417	291.739	154.757	157.996	158.178	162.124	297.558	160.720	-8191	255	
2311.132	1	1	0	0	0.27828	0.23426	0.20873	0.30776	0.12983	0.18689	0.18582	0.18117	0.16832	0.070406	0.19492	0.12192	0.095839	0.26055	0.030524	0.35244	-2.4854	-2.6271	-2.9521	-2.7958	-2.7062	-3.1417	-2.4583	-2.8854	-2.9188	-2.65	-2.9167	-2.8333	-2.8375	-3.0187	-2.6625	-2.9354	254.150	451.499	173.958	474.797	179.797	469.905	285.322	482.229	442.352	302.405	410.035	453.307	163.849	186.404	259.415	399.198	0.00075872	0.00053852	0.00012677	272.18	2.9766e-06	3.7446e-06	402.09	127.1	3.1678e-06	2.3188e-06	211.75	119.4	67.78	39.929	4.4318e-06	71.829	0.00011649	8.2318e-05	2.3037e-05	288.79	8.8966e-07	8.9454e-07	429.58	136.85	8.9293e-07	8.824e-07	224.34	125.81	70.826	42.45	9.2466e-07	75.944	183.998	249.190	206.158	152.281	259.157	290.923	151.054	156.315	271.753	301.041	154.854	158.011	158.028	162.245	273.913	160.733	-8191	255	
2311.228	1	1	0	0	0.11339	0.085363	0.16319	0.21961	0.13737	0.17334	0.26689	0.13675	0.074688	0.12559	0.22546	0.26346	0.16275	0.046176	0.034478	0.26641	-2.4	-2.6354	-2.9375	-2.6354	-2.7729	-2.9958	-2.8625	-2.9771	-2.8688	-2.675	-2.8833	-2.8896	-2.7583	-3.1188	-2.6688	-2.7583	454.322	338.414	487.454	258.108	183.761	155.519	370.470	437.444	401.286	490.137	399.702	402.196	261.006	272.574	350.891	408.335	0.00075403	0.00018244	0.00010036	274.87	2.6472e-06	3.1687e-06	402.41	127.72	2.2623e-06	2.5526e-06	212.64	119.38	68.285	40.014	4.1545e-06	72.127	0.00011723	8.0728e-05	2.2743e-05	290.99	8.6788e-07	8.7404e-07	431.78	137.24	8.929e-07	8.9569e-07	225.41	126.28	71.242	42.575	9.019e-07	75.953	185.333	212.257	202.769	152.370	277.974	300.039	151.241	156.131	274.181	276.911	154.858	158.252	158.105	162.069	278.122	160.817	-8191	255	
2311.324	1	1	0	0	0.17151	0.40527	0.065612	0.27025	0.090407	0.23541	0.17584	0.18321	0.054024	0.088096	0.20713	0.039622	0.26363	0.10745	0.053657	0.31034	-2.6375	-2.7062	-2.7938	-2.8312	-2.4792	-3.0083	-2.8896	-2.7375	-2.8688	-2.5708	-2.8688	-2.8854	-2.6479	-2.9479	-2.7062	-2.9083	424.516	335.622	466.151	267.524	336.129	271.182	366.018	407.022	278.043	420.614	146.622	166.844	430.540	329.274	327.155	434.006	0.00076777	0.00042697	0.00010434	274.47	4.0697e-06	4.0631e-06	401.96	128	2.2959e-06	4.1635e-06	212.69	119.04	68.371	40.098	4.1798e-06	71.766	0.00011557	8.083e-05	2.2205e-05	290.85	8.858e-07	8.7228e-07	431.84	137.47	8.6829e-07	8.781e-07	224.52	125.76	71.204	42.611	8.9441e-07	75.745	185.159	248.957	218.894	152.301	279.842	324.754	151.225	156.024	261.427	296.092	154.864	158.030	157.967	162.116	262.968	160.580	-8191	255	
2311.445	1	1	0	0	0.29921	0.094761	0.060304	0.11761	0.095605	0.04609	0.036995	0.36712	0.09604	0.034723	0.23585	0.20414	0.1218	0.15032	0.27811	0.13016	-2.6271	-2.7021	-2.8625	-2.85	-2.5542	-3.0646	-2.7188	-2.5667	-3.1042	-2.8896	-2.9271	-2.9729	-2.6375	-2.8958	-2.7146	-2.9833	151.669	352.248	465.160	317.711	379.351	152.998	220.387	377.743	492.762	185.431	284.258	379.824	187.940	393.426	228.383	359.649	0.00077764	0.00032061	0.00011459	278.74	2.1159e-06	2.8548e-06	402.36	127.87	1.7861e-06	3.667e-06	211.88	119.09	67.962	40.002	4.3181e-06	71.946	0.00011661	8.0559e-05	2.2421e-05	291.97	8.6566e-07	8.6986e-07	431.13	137.12	8.8159e-07	8.6459e-07	224.54	125.82	71.021	42.492	9.0217e-07	75.854	186.368	226.998	224.850	152.537	286.263	280.968	151.422	156.061	250.161	282.470	154.799	158.041	158.111	162.070	274.640	160.630	-8191	255	
2311.541	1	1	0	0	0.091457	0.059505	0.13353	0.16998	0.22569	0.29031	0.28506	0.36345	0.04481	0.10956	0.1056	0.33233	0.19634	0.16192	0.16795	0.21943	-2.4562	-2.6688	-2.8604	-2.7125	-2.6521	-2.9313	-2.7729	-2.6792	-3	-2.8708	-2.6625	-3.1375	-2.6979	-3.0708	-2.8271	-2.8792	273.028	382.449	291.722	489.057	452.818	358.228	153.238	465.322	381.350	342.201	274.599	475.437	213.902	138.545	142.564	165.960	0.00074786	0.00023501	0.00011456	275.57	2.3471e-06	5.8893e-06	403.45	127.47	3.7066e-06	2.8511e-06	212.16	119	68.451	40.012	4.4047e-06	72.049	0.0001154	8.0867e-05	2.2314e-05	291.09	8.7789e-07	8.6989e-07	431.3	137.13	8.8703e-07	8.8115e-07	224.66	125.83	71.039	42.485	8.8644e-07	75.938	185.625	251.485	216.918	152.116	295.186	286.230	151.235	155.938	258.404	262.491	154.922	158.180	157.765	162.079	278.274	160.581	-8191	255	
2311.637	1	1	0	0	0.096222	0.083255	0.27093	0.14388	0.13276	0.13682	0.17403	0.29806	0.060565	0.096734	0.053704	0.16635	0.26233	0.23844	0.13542	0.16054	-2.4354	-2.5417	-2.6375	-2.9104	-2.5708	-2.7771	-2.7958	-2.5062	-3.0062	-2.6833	-2.5583	-2.9896	-2.5958	-3.0417	-2.9021	-3.0396	420.447	237.042	263.429	276.768	363.221	322.108	280.826	448.447	351.619	144.126	144.566	208.478	348.189	183.201	250.433	406.116	0.00075563	0.00035578	9.6546e-05	278.3	2.0398e-06	3.5055e-06	403.8	127.35	2.9619e-06	1.8009e-06	213.63	119.21	68.155	39.915	3.4884e-06	71.896	0.00011559	8.0306e-05	2.263e-05	291.4	8.7908e-07	8.627e-07	431.83	136.9	8.8057e-07	8.8474e-07	225.32	125.93	71.068	42.455	9.1725e-07	75.729	185.478	236.347	216.824	152.454	278.644	291.682	151.021	156.198	247.176	270.188	154.733	158.236	158.230	162.092	283.174	160.810	-8191	255	
2311.733	1	1	0	0	0.19239	0.28164	0.22558	0.16755	0.060492	0.38723	0.30947	0.067178	0.18726	0.17874	0.22183	0.13937	0.098347	0.16272	0.036636	0.27004	-2.575	-2.7958	-2.7604	-3.1333	-2.6729	-2.8396	-3.1229	-2.6979	-2.7917	-2.75	-2.6875	-2.9938	-2.7604	-2.9396	-2.9688	-2.8396	438.325	397.545	195.862	377.643	381.676	347.070	313.702	445.022	263.805	188.545	397.960	172.387	237.149	393.567	183.444	412.802	0.00074835	0.00039311	9.9432e-05	275.39	2.4454e-06	2.4468e-06	402.65	127.73	2.1329e-06	3.4322e-06	211.66	118.31	67.901	39.701	3.9057e-06	71.052	0.00011573	8.0574e-05	2.2446e-05	289.66	9.0151e-07	8.9155e-07	429.24	136.83	9.0034e-07	8.7491e-07	223.94	125.05	70.727	42.134	9.0636e-07	74.959	185.571	256.628	208.483	152.405	270.245	307.274	151.262	156.068	261.704	308.728	154.795	158.103	158.031	162.097	279.463	160.567	-8191	255	
2311.829	1	1	0	0	0.12148	0.24516	0.11907	0.1957	0.10425	0.31074	0.049591	0.25213	0.22262	0.085848	0.27695	0.17087	0.12374	0.21579	0.24392	0.21315	-2.5167	-2.8958	-2.5563	-2.9229	-2.6729	-2.8688	-2.9917	-2.6063	-2.9667	-2.7729	-2.6688	-3.1792	-2.8729	-2.8229	-3.0042	-2.6875	256.907	384.491	414.648	433.087	300.634	497.174	232.010	149.722	250.472	322.893	160.312	450.009	483.322	433.907	258.262	381.862	0.00076215	0.00046064	8.2188e-05	271.17	4.0165e-06	3.0541e-06	397.47	126.85	3.828e-06	4.5678e-06	210.53	117.85	67.85	39.616	4.0946e-06	70.669	0.00011728	8.1728e-05	2.2836e-05	287.47	8.9172e-07	8.8178e-07	426.52	136.26	8.9974e-07	8.8912e-07	223.22	124.78	70.707	42.018	9.2177e-07	74.793	184.593	246.023	198.661	152.547	294.073	258.189	151.326	156.035	274.081	303.205	154.963	157.999	158.209	162.069	286.328	160.612	-8191	255	
2311.924	1	1	0	0	0.31668	0.31004	0.24397	0.095013	0.31667	0.11536	0.17184	0.28303	0.10318	0.16264	0.048151	0.17375	0.24549	0.1574	0.14437	0.12106	-2.3396	-3.0042	-2.7	-2.8167	-2.8333	-2.6604	-2.9208	-2.7708	-2.7687	-2.7458	-2.6979	-3.0542	-2.7167	-2.7625	-3.025	-2.6229	456.116	274.846	253.996	325.814	471.868	415.956	200.130	156.394	418.355	402.065	452.239	153.975	425.220	490.021	153.914	429.698	0.00075004	0.00026406	0.00012223	269.25	2.8239e-06	3.1172e-06	400.97	127.61	3.4705e-06	2.9546e-06	210.55	118.41	68.001	39.835	3.8279e-06	71.629	0.00011706	8.1276e-05	2.288e-05	286.87	8.8312e-07	8.8319e-07	428.66	136.56	8.7808e-07	8.7916e-07	223.62	125.18	70.884	42.321	9.0106e-07	75.465	187.384	251.557	222.213	152.725	268.141	334.182	151.495	156.187	271.046	294.230	154.965	158.138	158.251	162.200	251.902	160.841	-8191	255	
2312.044	1	1	0	0	0.095505	0.090703	0.10547	0.16473	0.13043	0.14471	0.28773	0.27709	0.21541	0.25901	0.072748	0.10717	0.072924	0.261	0.11773	0.14708	-2.3083	-2.8146	-2.5417	-2.9375	-2.8458	-2.7479	-2.9562	-2.6104	-2.8375	-3.0438	-2.7708	-3.05	-2.8104	-2.7833	-2.8979	-2.9271	222.691	445.538	271.086	412.028	201.420	481.852	464.913	448.827	394.362	282.687	255.932	475.384	234.885	401.842	239.677	407.581	0.00075897	0.00034134	6.9387e-05	274.89	3.307e-06	2.8665e-06	400.53	126.85	3.1524e-06	3.7978e-06	211.96	118.76	68.009	39.809	3.3759e-06	71.726	0.00011469	8.0832e-05	2.2184e-05	289.33	8.7417e-07	8.7774e-07	429.51	136.61	9.0704e-07	8.8229e-07	224.62	125.78	70.977	42.387	9.1785e-07	75.705	184.543	245.173	219.956	152.137	276.643	315.560	151.262	156.120	275.560	325.085	155.104	158.189	157.962	162.152	274.238	160.743	-8191	255	
2312.140	1	1	0	0	0.057925	0.27336	0.1516	0.10505	0.30102	0.06348	0.16853	0.04573	0.085513	0.12515	0.04513	0.099803	0.2324	0.3207	0.19418	0.11125	-2.3583	-2.9854	-2.6437	-2.9437	-2.825	-2.6042	-3.0854	-2.7417	-2.7125	-3.075	-2.6604	-3.0062	-2.9375	-2.8063	-2.7625	-2.9521	189.950	342.819	442.646	312.120	488.325	386.538	148.502	157.584	438.778	457.809	424.091	397.386	172.085	155.741	372.637	215.722	0.00074611	0.0003508	0.00010622	274.29	3.0918e-06	3.4998e-06	403.13	128.48	3.3143e-06	1.1826e-06	212.14	119.68	68.377	39.979	3.4029e-06	71.83	0.00011551	8.0527e-05	2.2506e-05	290.02	8.7696e-07	8.8184e-07	431.47	137.21	8.8879e-07	8.7341e-07	225.23	126.46	71.272	42.557	9.0789e-07	75.903	185.975	244.540	215.826	152.074	296.379	299.281	151.222	156.006	266.806	251.607	154.877	158.237	158.073	162.065	276.554	160.729	-8191	255	
2312.237	1	1	0	0	0.080724	0.14728	0.23528	0.018052	0.06472	0.037194	0.098052	0.11713	0.25879	0.086138	0.24609	0.095628	0.24312	0.18451	0.24604	0.15441	-2.3146	-2.8042	-2.6813	-2.7292	-2.8729	-2.7729	-3.1021	-2.8021	-2.6312	-3.0104	-2.8375	-3.0521	-2.9354	-2.7167	-3.0438	-2.9542	324.357	287.264	377.044	303.461	483.951	425.931	381.993	144.135	351.804	410.027	208.471	243.662	158.123	457.503	372.382	149.003	0.00073201	0.00025773	0.00011023	275.56	2.4679e-06	3.7335e-06	401.65	127.19	2.0558e-06	3.4884e-06	211.16	118.41	68.309	39.852	3.6686e-06	71.626	0.00011435	8.1403e-05	2.2837e-05	290.49	8.7211e-07	8.7969e-07	429.74	136.96	8.8825e-07	8.7173e-07	223.7	125.48	71.087	42.379	8.9251e-07	75.535	185.673	246.911	200.548	152.615	282.184	299.071	151.503	156.026	283.780	280.957	154.857	158.092	158.286	162.334	271.326	160.522	-8191	255	
2312.308	1	1	0	0	0.11977	0.36996	0.13094	0.085952	0.26418	0.097298	0.21193	0.065315	0.20091	0.13893	0.063478	0.31551	0.11134	0.06175	0.082933	0.26197	-2.1896	-2.9292	-2.6063	-2.7667	-2.9521	-2.6937	-3.0125	-2.8333	-2.7042	-3.1542	-2.65	-2.9875	-3.0438	-2.9021	-2.9542	-3.0187	249.133	260.070	240.196	442.757	377.677	297.628	151.176	441.632	158.769	303.878	385.763	439.822	139.123	165.303	468.222	376.195	0.00073332	0.00018258	7.4879e-05	274.48	2.0342e-06	3.8047e-06	401.79	127.19	2.5246e-06	2.5526e-06	211.31	118.53	68.233	40.008	3.5647e-06	71.608	0.00011612	8.0673e-05	2.2309e-05	289.78	8.7591e-07	8.8094e-07	429.77	136.76	8.9403e-07	8.7006e-07	223.92	125.45	70.99	42.477	9.01e-07	75.512	183.444	228.939	222.997	152.883	282.275	307.297	151.510	155.891	267.821	263.229	154.749	158.343	158.273	162.156	280.640	160.639	-8191	255	
2312.429	1	1	0	0	0.037076	0.067799	0.030813	0.20511	0.39666	0.028902	0.024805	0.21483	0.1109	0.12697	0.20614	0.084355	0.13752	0.22869	0.27879	0.15639	-2.2167	-2.8937	-2.6437	-2.5583	-3.0083	-2.6104	-2.8354	-2.9646	-2.6667	-2.9396	-2.7896	-2.6917	-2.9313	-2.8042	-2.9188	-2.8958	215.668	240.017	451.285	167.253	373.557	154.845	400.945	160.814	290.714	312.306	417.070	448.637	209.172	484.236	380.351	443.790	0.00075031	0.00052255	0.00013142	273.77	1.8357e-06	1.6822e-06	403.56	127.87	3.512e-06	2.2132e-06	211.22	119.02	68.243	40.053	2.9687e-06	71.991	0.00011652	7.9359e-05	2.2184e-05	290.55	8.7585e-07	8.7041e-07	431.21	136.92	8.949e-07	8.7823e-07	224.07	125.76	71.204	42.656	8.9901e-07	75.983	185.015	239.750	199.041	152.711	266.539	287.123	151.333	156.271	291.346	306.825	154.712	158.060	158.201	162.231	286.341	160.722	-8191	255	
2312.525	1	1	0	0	0.053541	0.16035	0.15135	0.070985	0.044028	0.14123	0.081908	0.25633	0.20832	0.14066	0.26123	0.18914	0.24142	0.19905	0.20576	0.20522	-2.2458	-2.8375	-2.6854	-2.7854	-2.9917	-2.6854	-2.8063	-2.9771	-2.6104	-2.9458	-2.8479	-2.6458	-2.9979	-2.7875	-2.775	-3.0354	337.822	191.429	433.428	449.833	330.516	450.733	356.609	442.473	432.081	277.602	441.656	436.307	490.958	146.366	370.635	188.552	0.00074248	0.00033076	7.5667e-05	274.47	2.9852e-06	2.9961e-06	405.64	128.07	2.6515e-06	4.4007e-06	212.22	119.35	68.217	40.26	2.6911e-06	72.246	0.00011551	7.9679e-05	2.1887e-05	291.19	8.6685e-07	8.5911e-07	433.64	137.36	8.8822e-07	8.5779e-07	224.73	126.16	71.242	42.808	8.9066e-07	76.259	185.307	232.239	231.908	152.411	255.665	278.190	151.287	155.906	265.819	279.913	155.189	158.101	157.951	162.128	260.908	160.747	-8191	255	
2312.621	1	1	0	0	0.24301	0.03244	0.13388	0.22508	0.19741	0.10002	0.066272	0.038551	0.15029	0.14235	0.11584	0.2702	0.26123	0.1485	0.29013	0.15366	-2.2396	-2.7458	-2.8229	-2.6937	-3.0021	-2.6292	-2.9042	-2.9708	-2.6646	-3.0583	-2.8479	-2.8229	-3.075	-2.7542	-2.7271	-3.1937	328.042	302.907	484.863	382.083	211.029	409.520	385.640	273.709	353.167	286.903	447.671	453.479	216.474	225.812	255.911	462.997	0.000761	0.00036004	0.0001026	275.87	3.9166e-06	3.4983e-06	403.85	128	1.6361e-06	3.6603e-06	212.12	119.3	68.199	40.172	2.9995e-06	71.747	0.00011289	7.9488e-05	2.1567e-05	292.52	8.7097e-07	8.6413e-07	433.82	137.28	8.8005e-07	8.5732e-07	224.05	125.85	71.106	42.701	8.9221e-07	75.824	184.150	224.616	201.076	152.469	270.642	291.313	151.397	155.918	257.280	306.778	154.647	158.054	158.161	162.133	267.281	160.697	-8191	255	
2312.717	1	1	0	0	0.14057	0.20636	0.063589	0.097988	0.029554	0.30508	0.12957	0.032896	0.18636	0.24676	0.1668	0.21706	0.078007	0.23611	0.084563	0.17817	-2.3937	-2.8646	-2.9604	-2.8229	-2.9646	-2.8229	-2.5792	-2.9354	-2.7	-2.9688	-2.9771	-2.8063	-2.9625	-3.0271	-2.7771	-3.1292	482.851	200.973	204.788	166.966	302.054	445.438	190.725	205.250	273.191	191.244	399.333	478.202	478.535	492.440	280.318	401.394	0.00077486	0.00038373	0.0001187	276.76	2.3172e-06	2.8417e-06	404.52	128.35	3.9201e-06	3.6953e-06	212.34	118.88	68.58	40.329	2.4169e-06	72.071	0.00011535	7.9748e-05	2.208e-05	291.29	8.678e-07	8.4657e-07	432.36	137.48	8.698e-07	8.5207e-07	224.54	125.8	71.153	42.822	8.6804e-07	75.992	184.827	247.023	229.248	152.504	260.341	270.718	151.478	156.025	264.817	286.928	154.667	158.170	158.127	162.113	283.127	160.550	-8191	255	
2312.838	1	1	0	0	0.21492	0.1081	0.25141	0.061313	0.04669	0.048529	0.16248	0.069727	0.15231	0.10042	0.2319	0.20126	0.1191	0.063688	0.073342	0.17562	-2.3104	-2.8354	-2.9188	-2.6958	-3.1	-2.9688	-2.7583	-3.0979	-2.7896	-2.8063	-2.8146	-2.8333	-2.9917	-2.7917	-2.7458	-3.2542	435.153	481.427	282.766	181.804	465.165	451.392	181.267	479.397	409.538	346.830	459.854	298.158	354.176	490.066	348.466	493.290	0.00076937	0.00038396	9.9179e-05	280.75	3.2843e-06	2.2709e-06	407.37	128.48	2.9966e-06	3.561e-06	212.74	119.24	68.902	40.365	3.3717e-06	72.367	0.00011388	7.7104e-05	2.161e-05	293.87	8.4467e-07	8.3967e-07	434.95	137.72	8.5163e-07	8.4507e-07	224.82	126.21	71.512	42.961	8.75e-07	76.346	184.446	237.594	238.403	152.277	284.847	277.865	151.377	156.085	265.492	299.609	154.714	158.222	158.156	162.176	277.847	160.629	-8191	255	
2312.910	1	1	0	0	0.23631	0.23108	0.41021	0.026915	0.14328	0.26158	0.26045	0.22971	0.093242	0.21335	0.21186	0.12591	0.109	0.15029	0.077376	0.17218	-2.3438	-2.7417	-2.775	-2.4979	-2.6937	-2.8958	-2.6667	-3.0583	-2.8312	-2.7083	-2.9167	-2.7646	-2.9271	-3.1146	-2.5604	-3.1167	338.165	475.700	407.348	285.742	348.401	185.686	355.994	385.036	147.630	494.755	419.224	374.140	238.921	156.581	174.949	393.402	0.00075539	0.00035234	0.00010008	280.72	2.7542e-06	2.9277e-06	406.4	127.75	3.1341e-06	2.8171e-06	211.41	119.36	68.649	40.464	4.4436e-06	72.42	0.00011144	7.6318e-05	2.1469e-05	293.77	8.2905e-07	8.3093e-07	435.09	137.38	8.3616e-07	8.3802e-07	224.53	126.07	71.333	43.008	8.6409e-07	76.346	186.415	261.509	205.550	153.061	258.898	301.311	151.687	156.098	280.894	287.204	155.003	158.067	158.259	162.186	280.966	160.672	-8191	255	
2313.006	1	1	0	0	0.13661	0.092003	0.18258	0.15349	0.22623	0.086091	0.17405	0.084214	0.13516	0.21528	0.38589	0.2117	0.14458	0.31821	0.072006	0.161	-2.2521	-2.4313	-2.9479	-2.5604	-2.95	-2.9292	-2.6479	-2.8479	-2.7938	-2.8271	-3.0812	-2.7	-2.6958	-3.0312	-2.6312	-3.0458	485.440	395.359	213.370	437.497	146.125	444.100	466.151	170.977	298.732	253.434	338.207	482.281	431.354	459.380	486.599	460.808	0.0007442	0.00020873	7.4428e-05	278.12	2.2886e-06	3.495e-06	407.93	128.09	2.3079e-06	2.2909e-06	212.19	119.64	68.952	40.495	3.1955e-06	72.706	0.00011115	7.5199e-05	2.1e-05	293.82	8.1679e-07	8.1902e-07	435.17	137.73	8.4108e-07	8.3957e-07	225.17	126.56	71.555	43.082	8.7288e-07	76.641	184.081	231.233	221.408	152.249	290.535	264.737	151.151	156.059	257.690	251.002	155.207	158.150	158.173	162.421	288.360	160.683	-8191	255	
2313.125	1	1	0	0	0.141	0.18052	0.26769	0.15077	0.10722	0.32362	0.17246	0.1256	0.28293	0.22983	0.13431	0.13065	0.076445	0.24111	0.20304	0.21178	-2.4375	-2.7167	-2.9458	-2.5875	-2.8063	-2.8625	-2.7438	-3.0354	-2.775	-2.7354	-2.9896	-2.975	-2.775	-3.1104	-2.6604	-3.0458	248.561	205.853	471.139	250.053	179.931	267.382	144.646	461.751	363.437	309.619	338.608	201.626	176.665	189.835	189.473	495.089	0.00073889	0.0003283	8.0192e-05	281.14	2.4305e-06	3.4616e-06	406.56	128.23	3.2144e-06	2.9217e-06	212.37	119.46	69.023	40.62	4.3764e-06	72.352	0.00011069	7.5598e-05	2.1292e-05	294.39	8.301e-07	8.182e-07	434.9	138.05	8.2602e-07	8.3369e-07	224.85	126.49	71.882	43.139	8.627e-07	76.505	184.338	259.909	225.447	152.524	283.799	278.906	151.322	156.279	250.429	321.397	154.831	158.226	158.250	162.132	274.778	160.611	-8191	255	
2313.221	1	1	0	0	0.12715	0.10493	0.12069	0.24109	0.1607	0.16039	0.062163	0.13485	0.095947	0.35463	0.13084	0.13245	0.17349	0.26441	0.068808	0.28009	-2.4167	-2.7167	-2.8396	-2.7479	-2.8396	-2.9375	-2.4938	-2.8958	-2.75	-2.5438	-3.1104	-3.1	-2.7146	-3.0208	-2.8563	-2.9938	473.865	442.361	305.237	387.882	249.699	336.051	272.582	453.298	141.939	423.061	139.500	237.765	372.388	460.668	389.647	423.436	0.00074096	0.00024126	9.1307e-05	279.98	3.6512e-06	5.2797e-06	407.29	128.91	3.278e-06	3.6249e-06	212.32	120.08	69.13	40.917	3.7282e-06	72.626	0.00011116	7.6759e-05	2.1214e-05	294.78	8.4445e-07	8.2306e-07	434.64	138.49	8.3002e-07	8.2116e-07	225.08	126.76	71.987	43.396	8.7264e-07	76.696	184.997	240.885	226.706	152.280	299.496	297.998	151.503	155.994	255.680	257.663	154.760	158.008	158.098	161.967	294.577	160.779	-8191	255	
2313.317	1	1	0	0	0.27331	0.21306	0.12677	0.2035	0.13715	0.076358	0.19281	0.17964	0.1859	0.031221	0.21214	0.18311	0.23922	0.094869	0.089825	0.12432	-2.5229	-2.5062	-2.8958	-2.8187	-2.5958	-3.0771	-2.8708	-2.925	-2.8354	-2.5479	-3.0938	-2.8521	-2.6417	-3.0896	-2.6917	-2.8812	386.865	469.092	308.863	144.506	405.286	169.535	264.687	361.591	196.513	183.317	294.764	489.220	367.017	404.773	236.617	424.754	0.00076512	0.00051139	9.4574e-05	281.75	3.1441e-06	1.4749e-06	406.17	129.22	2.3458e-06	2.1366e-06	212.94	119.77	68.591	40.723	3.6582e-06	72.678	0.00011132	7.7223e-05	2.1172e-05	294.39	8.4296e-07	8.3243e-07	433.69	138.14	8.4833e-07	8.2794e-07	225.5	126.58	71.686	43.228	8.5192e-07	76.529	183.720	242.046	220.846	152.435	294.130	288.367	151.442	156.073	241.747	288.592	154.790	158.122	158.295	162.250	289.295	160.650	-8191	255	
2313.413	1	1	0	0	0.30092	0.13701	0.27489	0.10337	0.056789	0.20965	0.15307	0.1906	0.3337	0.39367	0.046792	0.29644	0.11014	0.17139	0.25041	0.28817	-2.5208	-2.4875	-2.6792	-2.9167	-2.675	-2.95	-2.6833	-2.7958	-2.8958	-2.7812	-3.0854	-2.9	-2.7979	-2.9833	-2.7104	-2.8438	199.430	481.137	168.429	490.719	190.047	207.983	186.994	476.412	320.572	350.300	252.139	144.671	441.468	169.679	416.337	142.438	0.00078549	0.00049643	9.9977e-05	279.21	2.9737e-06	4.3747e-06	406.64	128.92	2.4659e-06	2.3639e-06	211.55	119.66	68.861	40.694	4.1744e-06	72.52	0.00011304	7.6541e-05	2.1062e-05	294.22	8.3319e-07	8.2303e-07	434.67	138.38	8.5144e-07	8.3862e-07	225.36	126.39	71.605	43.219	8.621e-07	76.421	184.805	258.823	223.162	152.432	288.763	286.395	151.564	155.976	254.069	293.757	154.771	158.169	158.413	162.114	266.070	160.802	-8191	255	
2313.534	1	1	0	0	0.143	0.1446	0.22703	0.052763	0.12806	0.15727	0.13012	0.31552	0.16463	0.20273	0.16752	0.22768	0.059018	0.35553	0.13247	0.11914	-2.4917	-2.6229	-2.8083	-2.8667	-2.7	-2.9437	-2.8354	-2.8979	-3.0938	-2.7958	-2.7583	-2.9854	-2.6979	-2.9333	-2.8312	-2.9396	258.358	352.501	490.136	252.355	270.501	419.642	382.856	471.164	217.090	276.980	319.228	181.325	344.740	470.361	166.323	433.385	0.00074584	0.0002946	8.9464e-05	278.77	2.7077e-06	3.2452e-06	407.43	127.96	2.9167e-06	2.2677e-06	211.89	118.83	68.742	40.455	2.4619e-06	71.934	0.00011284	7.7469e-05	2.1134e-05	294.75	8.4694e-07	8.3886e-07	434.89	137.9	8.4325e-07	8.5582e-07	224.47	125.51	71.316	42.97	8.8431e-07	75.946	186.393	249.984	217.289	152.513	300.995	299.284	151.161	155.885	277.104	294.246	154.890	158.156	158.217	162.333	266.401	160.610	-8191	255	
2313.605	1	1	0	0	0.16714	0.10751	0.061067	0.22114	0.24699	0.21601	0.23754	0.23596	0.24174	0.32151	0.11488	0.097399	0.22386	0.18052	0.071697	0.44908	-2.6604	-2.7271	-2.9979	-2.7542	-2.5792	-2.8167	-2.8417	-2.675	-2.8979	-2.6604	-2.9458	-2.9833	-2.5333	-3.1604	-2.8354	-2.7979	277.239	348.171	311.350	145.143	178.558	345.197	450.630	249.529	367.607	481.576	368.291	235.120	377.071	160.194	453.463	486.894	0.00074078	0.00026106	0.00010561	279.01	1.9029e-06	4.3166e-06	406.21	127.94	3.4278e-06	3.1936e-06	212	118.47	68.172	40.445	3.4537e-06	71.692	0.00011412	7.8406e-05	2.1807e-05	292.71	8.6191e-07	8.5784e-07	432.86	137.82	8.7637e-07	8.5912e-07	223.78	125.3	71.19	42.966	8.924e-07	75.732	184.285	245.223	195.811	152.385	263.391	314.174	151.535	156.054	262.491	241.999	154.926	158.266	158.207	162.192	257.182	160.693	-8191	255	
2313.726	1	1	0	0	0.14568	0.0062924	0.30098	0.11924	0.080394	0.19951	0.14726	0.11025	0.22878	0.28003	0.021954	0.1539	0.17311	0.17368	0.18876	0.28668	-2.5438	-2.5917	-2.5917	-2.9667	-2.6292	-2.7792	-2.9146	-2.6021	-2.9292	-2.7375	-2.8187	-2.8917	-2.8708	-2.8729	-2.9021	-2.8458	283.432	375.850	427.310	410.379	235.121	180.023	456.830	387.723	210.017	199.372	438.095	414.715	315.407	477.322	346.927	443.518	0.00075281	0.00052977	8.1051e-05	278.18	2.115e-06	1.9855e-06	404.08	128.81	2.7704e-06	8.3516e-07	212.52	118.24	68.816	40.485	3.4294e-06	72.237	0.0001143	7.8957e-05	2.1637e-05	293.29	8.5375e-07	8.5382e-07	432.95	138.33	8.7337e-07	8.5016e-07	224.77	125.32	71.493	43.083	8.8328e-07	76.082	186.848	243.516	226.052	152.646	270.976	306.517	151.490	156.257	258.115	280.028	154.886	157.989	158.186	162.073	291.406	160.708	-8191	255	
2313.822	1	1	0	0	0.16455	0.26896	0.15233	0.094235	0.069611	0.10414	0.23556	0.071278	0.2049	0.1126	0.26737	0.14718	0.06465	0.17413	0.21698	0.11234	-2.6479	-2.6	-2.5542	-2.8958	-2.6312	-2.9062	-3.075	-2.8479	-2.8937	-2.7604	-2.8563	-3.0021	-2.85	-3.0104	-2.8125	-2.7042	432.899	249.105	233.809	292.311	221.669	438.468	220.558	385.863	277.665	281.689	430.343	435.174	185.630	447.800	139.099	471.412	0.00075609	0.00036623	0.00012164	278.06	3.1342e-06	1.2336e-06	404.87	128.37	2.7225e-06	1.7313e-06	212.35	118.88	68.568	40.634	4.6476e-06	72.466	0.0001131	7.8203e-05	2.1901e-05	292.91	8.6124e-07	8.6476e-07	432.95	138.02	8.6988e-07	8.5122e-07	224.88	125.6	71.573	43.224	8.6828e-07	76.376	184.773	249.748	216.507	152.394	272.940	308.842	151.458	155.900	267.312	310.624	154.802	158.153	158.344	162.185	266.676	160.690	-8191	255	
2313.917	1	1	0	0	0.2018	0.27273	0.11324	0.21952	0.31469	0.2268	0.15903	0.10669	0.15646	0.026784	0.16003	0.12266	0.154	0.14248	0.045623	0.2567	-2.2146	-2.6708	-2.5875	-3.0271	-2.6479	-2.9625	-2.9146	-2.6937	-2.7979	-2.7875	-2.7396	-3.0458	-2.7	-2.7812	-2.9458	-2.7729	167.605	273.986	323.545	315.380	224.504	147.627	419.887	472.379	146.227	197.911	364.437	421.051	497.825	399.758	465.437	390.144	0.00076154	0.00041897	0.00010183	277.19	2.6522e-06	3.9586e-06	405.05	128.17	3.24e-06	2.3241e-06	212.76	119.26	68.63	40.791	3.2088e-06	72.401	0.00011417	7.8171e-05	2.1585e-05	294.47	8.3916e-07	8.3862e-07	435.15	138.19	8.6009e-07	8.5542e-07	225.41	126.22	71.68	43.334	8.8045e-07	76.505	186.027	226.188	191.739	152.660	282.627	301.693	151.513	156.052	289.246	275.775	154.706	157.998	158.318	162.120	262.476	160.612	-8191	255	
2314.013	1	1	0	0	0.2821	0.23476	0.06625	0.31263	0.1204	0.049618	0.070282	0.15299	0.14348	0.11315	0.097855	0.06763	0.13486	0.39138	0.23542	0.1463	-2.4729	-2.9021	-2.5896	-2.8812	-2.9188	-2.85	-3.0396	-2.7458	-2.9688	-2.7812	-2.5833	-2.95	-2.6354	-2.9229	-3.0271	-2.7812	271.848	256.733	208.796	474.300	463.701	424.337	344.968	164.300	266.528	478.563	394.042	448.805	153.355	490.786	459.580	347.528	0.00076045	0.00030749	8.2049e-05	280.02	2.1562e-06	2.5229e-06	404.77	128.61	3.031e-06	2.5337e-06	211.32	119.41	69.358	40.964	4.3494e-06	73.066	0.00011462	7.8089e-05	2.1867e-05	295.02	8.5456e-07	8.567e-07	433.97	138.42	8.5233e-07	8.4267e-07	224.76	126.28	71.948	43.53	8.6997e-07	76.778	184.294	237.222	231.676	152.420	296.116	292.510	151.788	156.193	262.779	263.225	155.085	157.998	158.285	162.095	263.907	160.611	-8191	255	
2314.133	1	1	0	0	0.31639	0.14781	0.12269	0.14791	0.019893	0.24272	0.21926	0.24404	0.098227	0.084784	0.19431	0.01863	0.24335	0.071657	0.11899	0.051703	-2.3542	-2.8812	-2.5333	-3.0125	-2.9521	-2.6667	-2.9437	-2.9729	-2.6833	-2.9313	-2.675	-2.9229	-2.6604	-2.7667	-3.1542	-2.8875	266.190	235.876	251.848	271.836	266.519	277.212	367.149	431.571	419.182	185.595	421.435	156.857	451.675	168.841	461.996	279.434	0.00076059	0.00042515	5.5257e-05	280.44	2.2784e-06	3.591e-06	406.04	129.25	3.6679e-06	1.5721e-06	212.23	119.88	69.142	41.149	3.5829e-06	72.757	0.00011354	7.6576e-05	2.1803e-05	295.57	8.4431e-07	8.4016e-07	435.07	138.79	8.6288e-07	8.3543e-07	225.15	126.68	72.081	43.713	8.7274e-07	76.957	185.576	202.683	218.436	151.900	249.157	283.161	151.390	156.228	252.577	306.033	154.831	158.201	158.449	162.203	288.888	160.564	-8191	255	
2314.205	1	1	0	0	0.13742	0.15952	0.19849	0.15515	0.16484	0.12106	0.20144	0.12752	0.10349	0.10325	0.013294	0.16728	0.13571	0.24952	0.18853	0.32593	-2.4646	-2.8688	-2.4	-2.9708	-2.9292	-2.5708	-3.0083	-2.7771	-2.8479	-2.7458	-2.6354	-3.1125	-2.9771	-2.7396	-2.8042	-3.0687	312.321	304.864	459.656	310.742	306.927	347.107	194.251	444.809	244.843	163.862	266.669	197.985	463.006	464.707	307.453	477.488	0.00075457	0.00027443	8.1515e-05	282.08	3.4508e-06	3.9846e-06	411.52	130.03	3.4124e-06	2.3476e-06	212.43	119.92	69.314	41.209	2.6405e-06	73.219	0.00011295	7.663e-05	2.1876e-05	296.24	8.3639e-07	8.3441e-07	437.14	139.21	8.5017e-07	8.3677e-07	225.56	127.1	72.347	43.819	8.707e-07	77.301	185.248	243.184	204.037	152.285	280.511	251.280	151.540	156.009	278.665	298.422	154.798	158.133	158.217	162.388	278.559	160.610	-8191	255	
2314.301	1	1	0	0	0.15935	0.1263	0.2344	0.097138	0.094271	0.23842	0.19084	0.099601	0.14105	0.14706	0.14833	0.13928	0.2136	0.24772	0.10847	0.21966	-2.3146	-3.1292	-2.775	-2.9542	-2.8958	-2.6042	-3.0542	-2.6229	-2.7562	-2.9854	-2.8167	-2.7604	-2.9854	-2.5896	-2.8375	-2.9333	152.238	309.988	411.705	419.088	393.529	290.109	156.554	172.420	375.784	333.444	489.040	409.849	185.664	474.197	336.457	425.039	0.0007582	0.00038476	9.8678e-05	281.59	1.6837e-06	4.2999e-06	409.67	129.09	3.7862e-06	4.0026e-06	213.79	120.33	69.789	41.391	3.9274e-06	73.652	0.00011231	7.5839e-05	2.1584e-05	297.07	8.2568e-07	8.3853e-07	437.55	138.99	8.5366e-07	8.4384e-07	226.18	127.56	72.752	44.036	8.6765e-07	77.611	185.702	228.004	246.984	152.282	250.747	269.295	151.268	156.179	235.345	287.899	154.957	158.223	158.131	162.307	295.874	160.612	-8191	255	
2314.397	1	1	0	0	0.37998	0.061695	0.15713	0.14972	0.15984	0.20868	0.085576	0.41193	0.19005	0.01222	0.063087	0.39937	0.10494	0.32024	0.12195	0.16333	-2.2083	-3.0146	-2.8479	-2.8063	-2.8958	-2.675	-3.0792	-2.9583	-2.8167	-3.0458	-2.8312	-3.1042	-3	-2.85	-2.9313	-2.9771	270.799	459.784	345.722	443.097	237.893	455.804	438.056	434.307	378.901	472.183	367.153	468.334	429.476	487.134	219.957	393.872	0.00077846	0.00040791	0.00011299	282.59	2.2533e-06	3.7139e-06	410.51	129.71	2.0976e-06	2.2627e-06	213.63	121.45	70.076	41.469	3.4236e-06	73.644	0.0001147	7.8074e-05	2.1698e-05	298.69	8.4876e-07	8.4413e-07	437.65	139.4	8.5501e-07	8.3867e-07	226.38	128.22	73.01	44.131	8.6814e-07	77.83	184.523	213.526	226.964	151.972	285.516	277.681	151.460	156.002	263.540	292.502	154.932	158.107	158.185	162.229	261.621	160.607	-8191	255	
2314.493	1	1	0	0	0.090778	0.21424	0.09046	0.1526	0.12809	0.1996	0.14955	0.22294	0.031032	0.29612	0.29661	0.0975	0.38838	0.082416	0.15179	0.3267	-2.3146	-3.0271	-2.7333	-2.7833	-3.0833	-2.6771	-2.9646	-2.8812	-2.6354	-3.0208	-2.8937	-2.7667	-3.0625	-2.8438	-2.9062	-2.9667	379.360	472.249	191.873	258.008	363.670	203.467	139.473	497.448	268.345	448.104	475.411	450.743	171.171	311.079	280.453	368.919	0.0007922	0.00040406	5.0178e-05	287.66	3.5367e-06	3.2758e-06	410.83	130.02	3.4948e-06	3.4561e-06	213.34	120.29	69.726	41.788	3.7183e-06	73.831	0.00011361	7.6925e-05	2.1318e-05	299.35	8.3542e-07	8.308e-07	438.47	139.45	8.4773e-07	8.3039e-07	225.65	127.63	72.728	44.26	8.4669e-07	77.836	185.592	244.442	230.086	152.366	271.466	275.361	151.421	155.987	263.349	309.357	154.691	158.136	158.392	162.120	282.969	160.557	-8191	255	
2314.614	1	1	0	0	0.071572	0.17884	0.022757	0.21213	0.23065	0.24735	0.10626	0.12973	0.1937	0.36682	0.11307	0.030913	0.15234	0.02227	0.12233	0.18979	-2.1667	-2.7042	-2.6625	-2.8083	-3.2625	-2.6417	-2.9583	-3	-2.8958	-3.0708	-2.9292	-2.8229	-3.0125	-2.7687	-2.9354	-3.05	482.981	457.736	160.607	384.026	370.165	323.557	474.422	451.132	308.424	154.873	488.380	368.293	243.504	300.109	284.851	466.391	0.00076635	0.00039902	0.00011994	283.81	3.0081e-06	3.241e-06	409.92	129.75	2.2297e-06	3.5194e-06	213.73	120.99	69.869	41.606	2.7372e-06	73.734	0.00011223	7.5368e-05	2.1096e-05	298.91	8.3981e-07	8.3444e-07	437.7	139.19	8.483e-07	8.4069e-07	225.55	127.77	72.831	44.232	8.7187e-07	77.618	184.209	221.147	201.987	152.391	269.145	268.116	151.191	156.056	301.111	284.466	155.000	157.921	158.362	162.231	287.731	160.479	-8191	255	
2314.710	1	1	0	0	0.084231	0.24956	0.20112	0.10012	0.14774	0.097673	0.06283	0.072175	0.1498	0.17865	0.25213	0.141	0.13903	0.14302	0.37034	0.081786	-2.1229	-2.8646	-2.8021	-2.5917	-2.9479	-2.7833	-2.8646	-3.0583	-2.7896	-3.0083	-2.8833	-2.8521	-2.9333	-2.7021	-2.6604	-3.2354	353.533	415.390	147.977	297.354	288.217	244.077	234.111	497.340	276.713	453.824	442.215	166.611	376.876	493.362	351.165	357.344	0.00077351	0.00030592	0.00012268	283.84	1.9723e-06	2.0106e-06	408.41	129.86	3.492e-06	3.696e-06	214.12	121.42	70.327	41.707	3.0567e-06	74.1	0.00011296	7.5115e-05	2.1098e-05	298.85	8.4201e-07	8.3082e-07	438.3	139.31	8.4846e-07	8.2446e-07	226.21	128.32	73.053	44.285	8.5815e-07	78.07	185.540	223.899	216.612	152.049	278.883	275.475	151.310	156.005	270.160	297.604	154.812	158.047	158.299	162.220	290.384	160.561	-8191	255	
2314.806	1	1	0	0	0.41132	0.11659	0.096769	0.18262	0.029706	0.11712	0.050013	0.26729	0.1526	0.22324	0.22678	0.18222	0.14423	0.39598	0.19254	0.30414	-2.2083	-2.7583	-2.7042	-2.55	-2.8354	-2.9437	-2.6958	-2.9146	-2.6729	-3	-2.8688	-2.5833	-2.9938	-2.8896	-2.7125	-3.1104	392.254	389.175	251.661	452.113	394.050	419.638	213.286	465.059	209.309	161.903	438.400	472.594	407.093	484.683	338.319	415.606	0.00077943	0.00038747	9.0535e-05	285.45	2.409e-06	3.8159e-06	411.32	129.16	2.2146e-06	2.9356e-06	214.04	121.43	70.222	41.662	2.5574e-06	73.961	0.00011319	7.6154e-05	2.1489e-05	299.92	8.4044e-07	8.3091e-07	439.78	139.4	8.4557e-07	8.1493e-07	226.49	128.39	73.011	44.361	8.6207e-07	78.086	185.503	252.540	200.120	152.432	309.203	292.460	151.271	156.169	251.875	289.326	154.948	158.205	158.281	162.258	255.381	160.634	-8191	255	
2314.903	1	1	0	0	0.080536	0.17894	0.095215	0.3116	0.052331	0.19327	0.26182	0.28458	0.22228	0.18992	0.12268	0.32231	0.1054	0.11714	0.093988	0.36446	-2.1917	-2.7333	-2.7188	-2.7062	-2.8812	-2.8396	-2.775	-3.0708	-2.5792	-2.7167	-3.1021	-2.6437	-2.925	-2.9167	-2.625	-3.1562	231.099	429.077	377.871	458.305	192.627	441.667	376.940	387.685	225.051	268.202	453.416	493.898	419.877	195.313	181.977	461.748	0.00077562	0.00050841	9.6451e-05	287.07	2.2526e-06	2.515e-06	411.92	129.97	3.2168e-06	2.7919e-06	213.54	120.35	69.966	41.475	5.0994e-06	73.536	0.00011188	7.6204e-05	2.1118e-05	300.18	8.2037e-07	8.296e-07	440.26	139.28	8.4041e-07	8.2201e-07	225.33	127.28	72.508	44.155	8.5775e-07	77.556	185.015	240.131	256.402	152.297	260.330	302.348	151.468	155.946	257.722	284.944	154.880	158.103	158.140	162.168	283.053	160.603	-8191	255	
2314.997	1	1	0	0	0.27408	0.25492	0.030982	0.2696	0.33474	0.15148	0.11414	0.14592	0.16354	0.21927	0.1931	0.22947	0.31195	0.29712	0.030563	0.25257	-2.4958	-2.8021	-2.7625	-2.675	-2.9167	-2.6771	-2.6229	-3.0667	-2.7292	-2.8438	-3.05	-2.6854	-2.9562	-2.7729	-2.5563	-3.1521	182.557	489.763	150.188	369.151	226.887	152.846	456.539	381.346	376.963	435.649	459.591	477.979	442.022	458.189	405.239	436.963	0.00077645	0.00041918	7.2447e-05	284.55	1.4747e-06	4.9814e-06	407.63	129.78	3.7539e-06	2.4287e-06	213.03	119.76	69.501	41.635	2.9537e-06	73.522	0.00011182	7.5323e-05	2.1203e-05	299.49	8.2761e-07	8.1663e-07	437.94	139.03	8.4795e-07	8.2862e-07	224.85	126.82	72.376	44.15	8.7255e-07	77.534	184.122	244.552	247.683	152.375	249.222	267.135	151.509	156.184	275.905	256.464	154.807	158.135	158.280	162.109	290.436	160.721	-8191	255	
2315.095	1	1	0	0	0.0391	0.027668	0.21156	0.11347	0.17459	0.24844	0.17939	0.057141	0.24023	0.12398	0.14288	0.078927	0.13842	0.27279	0.067075	0.15307	-2.5396	-2.5917	-2.9833	-2.9083	-2.8146	-2.8979	-2.6854	-2.8812	-2.9042	-2.7458	-3.0375	-2.7229	-2.9583	-3.0125	-2.5979	-2.9396	218.326	380.030	185.668	380.453	443.994	477.558	402.957	426.442	388.559	144.196	374.735	453.153	152.594	449.097	354.311	490.102	0.00077339	0.00037759	0.00011208	287.68	2.331e-06	2.7343e-06	409.54	129.6	3.5394e-06	2.7575e-06	211.93	120.49	69.582	41.504	2.4654e-06	73.57	0.00011197	7.5569e-05	2.1111e-05	300.66	8.2804e-07	8.2295e-07	438.44	138.98	8.258e-07	8.2402e-07	224.81	127.39	72.462	44.162	8.5903e-07	77.614	185.608	236.573	201.626	152.611	291.963	280.201	151.252	156.092	269.397	307.558	154.849	157.960	158.345	162.201	249.060	160.491	-8191	255	
2315.214	1	1	0	0	0.20639	0.12334	0.089925	0.10602	0.091041	0.15794	0.12622	0.17823	0.089601	0.15355	0.32794	0.11535	0.15569	0.37093	0.070676	0.031765	-2.3271	-2.85	-3.1292	-2.6688	-2.8688	-3.1042	-2.6292	-2.9958	-2.9917	-2.5563	-3.0229	-2.7083	-2.8104	-3.1042	-2.7625	-3.0833	401.293	233.811	475.969	460.885	295.691	222.139	367.360	450.804	199.669	371.135	390.556	296.606	159.737	459.656	378.316	491.181	0.00078106	0.00026659	9.4571e-05	286.99	1.9159e-06	3.7907e-06	410.8	129.8	3.271e-06	2.5255e-06	213.46	121.3	69.981	41.684	3.2858e-06	74.033	0.00011228	7.6199e-05	2.1011e-05	299.28	8.3615e-07	8.1815e-07	439.41	139.14	8.4011e-07	8.4395e-07	225.92	127.93	72.928	44.344	8.6744e-07	78.055	186.136	206.767	230.549	152.194	294.391	305.551	151.288	155.883	271.340	283.934	155.005	158.154	158.336	162.280	281.641	160.648	-8191	255	
2315.310	1	1	0	0	0.2578	0.12235	0.065171	0.1814	0.049225	0.15294	0.18497	0.11394	0.21804	0.024869	0.36916	0.25004	0.083875	0.23707	0.16985	0.11708	-2.5354	-2.7125	-3.0646	-2.8333	-2.5104	-3.0375	-2.825	-2.9375	-3.0687	-2.4667	-3.0312	-3.0646	-2.6875	-2.9604	-2.7146	-3.0833	214.828	494.070	392.405	319.440	163.304	140.213	352.379	467.937	145.057	402.963	393.488	445.428	436.756	367.100	401.114	200.559	0.00080276	0.00030191	7.2785e-05	285.54	1.988e-06	2.5152e-06	412.49	130.78	3.5887e-06	2.3835e-06	214.31	121.56	70.154	41.902	4.9777e-06	74.216	0.00011336	7.6037e-05	2.0963e-05	300.17	8.2753e-07	8.2911e-07	440.06	139.66	8.3543e-07	8.3249e-07	226.55	128.57	73.153	44.544	8.5633e-07	78.351	185.901	238.276	208.407	152.476	269.729	259.482	151.399	156.156	261.583	310.697	154.819	157.963	158.151	162.172	265.856	160.774	-8191	255	
2315.406	1	1	0	0	0.17839	0.088643	0.27055	0.23462	0.14864	0.1743	0.2666	0.26494	0.46064	0.18491	0.28991	0.14252	0.020151	0.18773	0.093941	0.47233	-2.5854	-2.6125	-3.05	-2.8375	-2.7604	-2.8771	-2.8375	-2.9208	-2.9917	-2.8521	-3.0417	-2.7667	-2.7438	-3.2792	-2.5583	-2.8688	254.131	413.318	456.856	376.815	362.418	388.470	160.225	481.731	441.966	250.791	426.140	159.864	437.797	407.022	363.735	409.095	0.00078526	0.00031233	0.00010663	286.21	1.9612e-06	3.6048e-06	410.35	130.22	2.4283e-06	2.924e-06	213.02	121.24	70.131	41.923	2.3997e-06	73.864	0.00011309	7.7302e-05	2.1111e-05	300	8.2831e-07	8.1326e-07	439.58	139.68	8.3619e-07	8.3088e-07	225.63	128.19	73.1	44.432	8.5135e-07	77.88	185.388	239.903	203.759	152.852	273.573	306.661	151.437	156.154	263.212	299.984	154.992	157.796	158.189	162.191	256.210	160.695	-8191	255	
2315.502	1	1	0	0	0.17242	0.16043	0.12006	0.18218	0.031167	0.075309	0.27261	0.1327	0.18847	0.064259	0.11628	0.16146	0.3578	0.15281	0.28195	0.078156	-2.5271	-2.6312	-3.0125	-2.7167	-2.7021	-2.8688	-2.8187	-2.7938	-2.9958	-2.6021	-2.8292	-2.9813	-2.7667	-3.0563	-2.6417	-2.8	152.242	138.799	481.570	168.726	373.715	341.681	427.617	273.921	194.834	406.463	409.203	141.903	319.478	445.976	270.852	490.696	0.00080634	0.00041951	0.00011755	289.75	3.7785e-06	1.7213e-06	408.35	129.71	3.5286e-06	1.2826e-06	213.08	121.29	69.835	41.918	4.0569e-06	74.131	0.00011233	7.6603e-05	2.1324e-05	299.58	8.2528e-07	8.1348e-07	438.61	139.18	8.4051e-07	8.3584e-07	225.26	128	72.938	44.481	8.4708e-07	77.987	183.814	247.479	211.838	152.646	290.759	254.561	151.160	156.290	239.497	283.257	154.759	158.011	158.355	162.334	281.103	160.614	-8191	255	
#DATA ENDS
