BOXY.EXE: ISS Imagent and Oximeter Data Acquisition Program Version 0.80
Ascii Record File

#ACQ INFORMATION
2  Detector Channels 
16  External MUX Channels 
1  Auxiliary Channels 
5000  Waveform (CCF) Frequency (Hz)
1  Waveforms Skipped 
30  Waveforms Averaged 
1  Cycles Averaged 
16  Acquisitions per Waveform 
10.0806  Updata Rate (Hz) 

#FILE INFORMATION
TRUE -- External MUX Channel results are PARSED.
FALSE -- AC DC and Phase are NOT grouped.
TRUE -- Companion Program Settings File CREATED.
FALSE -- AC data not excluded
FALSE -- DC data not excluded
FALSE -- Phase data not excluded
FALSE -- Auxillary Chn. data not excluded
Tab delimiters

#CALIBRATION STATE
TRUE -- Waveform Calibration Values APPLIED.


#AUX CALIBRATION VALUES
Val Type	aux-1	

Term	1.0000e+00	
Factor	0.0000e+00	


#WF CALIBRATION VALUES
A = Detector Channel
Val Type	A-AC1	A-AC2	A-AC3	A-AC4	A-AC5	A-AC6	A-AC7	A-AC8	A-AC9	A-AC10	A-AC11	A-AC12	A-AC13	A-AC14	A-AC15	A-AC16	A-DC1	A-DC2	A-DC3	A-DC4	A-DC5	A-DC6	A-DC7	A-DC8	A-DC9	A-DC10	A-DC11	A-DC12	A-DC13	A-DC14	A-DC15	A-DC16	A-Ph1	A-Ph2	A-Ph3	A-Ph4	A-Ph5	A-Ph6	A-Ph7	A-Ph8	A-Ph9	A-Ph10	A-Ph11	A-Ph12	A-Ph13	A-Ph14	A-Ph15	A-Ph16	

Term	0.00000e+00	0.00000e+00	0.00000e+00	0.00000e+00	0.00000e+00	0.00000e+00	0.00000e+00	0.00000e+00	0.00000e+00	0.00000e+00	0.00000e+00	0.00000e+00	0.00000e+00	0.00000e+00	0.00000e+00	0.00000e+00	0.00000e+00	0.00000e+00	0.00000e+00	0.00000e+00	0.00000e+00	0.00000e+00	0.00000e+00	0.00000e+00	0.00000e+00	0.00000e+00	0.00000e+00	0.00000e+00	0.00000e+00	0.00000e+00	0.00000e+00	0.00000e+00	0.00000e+00	0.00000e+00	0.00000e+00	0.00000e+00	0.00000e+00	0.00000e+00	0.00000e+00	0.00000e+00	0.00000e+00	0.00000e+00	0.00000e+00	0.00000e+00	0.00000e+00	0.00000e+00	0.00000e+00	0.00000e+00	
Factor	1.00000e+00	1.00000e+00	1.00000e+00	1.00000e+00	1.00000e+00	1.00000e+00	1.00000e+00	1.00000e+00	1.00000e+00	1.00000e+00	1.00000e+00	1.00000e+00	1.00000e+00	1.00000e+00	1.00000e+00	1.00000e+00	1.00000e+00	1.00000e+00	1.00000e+00	1.00000e+00	1.00000e+00	1.00000e+00	1.00000e+00	1.00000e+00	1.00000e+00	1.00000e+00	1.00000e+00	1.00000e+00	1.00000e+00	1.00000e+00	1.00000e+00	1.00000e+00	X	X	X	X	X	X	X	X	X	X	X	X	X	X	X	X	

B = Detector Channel
Val Type	B-AC1	B-AC2	B-AC3	B-AC4	B-AC5	B-AC6	B-AC7	B-AC8	B-AC9	B-AC10	B-AC11	B-AC12	B-AC13	B-AC14	B-AC15	B-AC16	B-DC1	B-DC2	B-DC3	B-DC4	B-DC5	B-DC6	B-DC7	B-DC8	B-DC9	B-DC10	B-DC11	B-DC12	B-DC13	B-DC14	B-DC15	B-DC16	B-Ph1	B-Ph2	B-Ph3	B-Ph4	B-Ph5	B-Ph6	B-Ph7	B-Ph8	B-Ph9	B-Ph10	B-Ph11	B-Ph12	B-Ph13	B-Ph14	B-Ph15	B-Ph16	

Term	0.00000e+00	0.00000e+00	0.00000e+00	0.00000e+00	0.00000e+00	0.00000e+00	0.00000e+00	0.00000e+00	0.00000e+00	0.00000e+00	0.00000e+00	0.00000e+00	0.00000e+00	0.00000e+00	0.00000e+00	0.00000e+00	0.00000e+00	0.00000e+00	0.00000e+00	0.00000e+00	0.00000e+00	0.00000e+00	0.00000e+00	0.00000e+00	0.00000e+00	0.00000e+00	0.00000e+00	0.00000e+00	0.00000e+00	0.00000e+00	0.00000e+00	0.00000e+00	-1.29269e+02	-1.13631e+02	-1.35870e+02	-1.84844e+02	-7.69806e+01	-6.34246e+01	-1.60653e+02	-1.62015e+02	-8.22226e+01	-6.09229e+01	-1.72187e+02	-1.71626e+02	-1.83109e+02	-1.76791e+02	-6.82363e+01	-1.50157e+02	
Factor	1.61315e-05	1.31639e-04	3.54998e-05	4.91269e-01	1.07434e-06	1.37095e-06	1.84658e-01	4.54119e-02	1.02773e-06	1.19378e-06	8.37172e-02	3.01029e-02	3.50082e-02	8.20948e-03	1.09933e-06	1.21748e-02	1.13921e-06	1.19064e-06	3.31616e-07	2.32299e-01	1.30170e-08	1.30308e-08	8.60883e-02	2.28097e-02	1.29813e-08	1.30694e-08	4.01028e-02	1.44691e-02	1.71056e-02	4.09484e-03	1.30663e-08	5.83849e-03	X	X	X	X	X	X	X	X	X	X	X	X	X	X	X	X	



#DISTANCE SETTINGS
A = Detector Channel
A-1	A-2	A-3	A-4	A-5	A-6	A-7	A-8	A-9	A-10	A-11	A-12	A-13	A-14	A-15	A-16	

2.5000e+00	3.0000e+00	2.5000e+00	3.0000e+00	2.0000e+00	3.0000e+00	1.5000e+00	3.0000e+00	3.0000e+00	3.0000e+00	3.0000e+00	3.0000e+00	3.0000e+00	3.0000e+00	1.5000e+00	3.0000e+00	

B = Detector Channel
B-1	B-2	B-3	B-4	B-5	B-6	B-7	B-8	B-9	B-10	B-11	B-12	B-13	B-14	B-15	B-16	

1.0000e+01	1.0000e+01	1.0000e+01	1.4400e+00	1.0000e+01	1.0000e+01	1.5100e+00	1.9400e+00	1.0000e+01	1.0000e+01	1.9900e+00	2.4900e+00	2.4100e+00	2.9000e+00	1.0000e+01	2.9800e+00	




#DATA BEGINS
time	group	step	mark	flag	A-AC1	A-AC2	A-AC3	A-AC4	A-AC5	A-AC6	A-AC7	A-AC8	A-AC9	A-AC10	A-AC11	A-AC12	A-AC13	A-AC14	A-AC15	A-AC16	A-DC1	A-DC2	A-DC3	A-DC4	A-DC5	A-DC6	A-DC7	A-DC8	A-DC9	A-DC10	A-DC11	A-DC12	A-DC13	A-DC14	A-DC15	A-DC16	A-Ph1	A-Ph2	A-Ph3	A-Ph4	A-Ph5	A-Ph6	A-Ph7	A-Ph8	A-Ph9	A-Ph10	A-Ph11	A-Ph12	A-Ph13	A-Ph14	A-Ph15	A-Ph16	B-AC1	B-AC2	B-AC3	B-AC4	B-AC5	B-AC6	B-AC7	B-AC8	B-AC9	B-AC10	B-AC11	B-AC12	B-AC13	B-AC14	B-AC15	B-AC16	B-DC1	B-DC2	B-DC3	B-DC4	B-DC5	B-DC6	B-DC7	B-DC8	B-DC9	B-DC10	B-DC11	B-DC12	B-DC13	B-DC14	B-DC15	B-DC16	B-Ph1	B-Ph2	B-Ph3	B-Ph4	B-Ph5	B-Ph6	B-Ph7	B-Ph8	B-Ph9	B-Ph10	B-Ph11	B-Ph12	B-Ph13	B-Ph14	B-Ph15	B-Ph16	aux-1	digaux	

1044.730	1	1	0	256	0.29164	0.25693	0.18686	0.16668	0.25255	0.042491	0.1585	0.25444	0.16438	0.11595	0.19001	0.40386	0.083807	0.11657	0.12437	0.079749	-2.3979	-2.5625	-2.4521	-2.875	-2.4854	-2.75	-2.825	-2.3208	-2.5604	-2.8583	-2.8292	-2.9021	-2.6958	-2.6188	-2.725	-2.5187	72.256	157.478	-22.431	-111.765	-154.538	-124.073	34.720	43.032	121.716	-133.763	112.296	138.246	104.860	79.281	-74.799	176.043	0.00024741	0.00036053	0.00012441	354.68	5.6696e-06	2.2882e-06	472.3	124.93	2.9944e-06	4.367e-06	203	77.089	46.173	19.146	1.3577e-06	33.661	0.00018678	0.00018174	5.0169e-05	365.91	1.9541e-06	1.9629e-06	485.49	128.85	1.9785e-06	1.9675e-06	205.51	78.33	47.656	19.504	1.9683e-06	34.218	197.877	-59.480	-87.306	-142.057	-65.594	8.302	-142.821	-137.368	-27.119	15.002	-139.349	-136.245	-134.075	-130.061	20.238	-132.474	-8191	255	
1044.826	1	1	0	0	0.4038	0.22701	0.18625	0.078705	0.3046	0.23253	0.24886	0.1083	0.22357	0.080032	0.13168	0.13259	0.12008	0.13301	0.076786	0.088344	-2.3896	-2.9083	-2.4208	-2.875	-2.6562	-2.6417	-2.9938	-2.5938	-2.7208	-2.775	-2.4729	-2.8021	-2.6354	-2.4771	-2.9375	-2.6458	-20.455	186.780	-68.211	79.140	0.355	75.423	146.185	128.870	180.773	-154.209	97.676	163.912	186.200	168.171	153.563	156.690	0.00026966	0.00050343	1.0041e-05	350.16	8.5647e-07	1.4368e-06	476.12	125.48	2.1484e-06	3.8339e-06	202.64	76.561	46.199	19.157	2.2094e-06	33.915	0.00018794	0.0001794	5.0167e-05	365.03	1.9355e-06	1.9822e-06	486.31	128.99	1.9779e-06	1.9628e-06	205.92	78.476	47.558	19.602	1.971e-06	34.379	200.028	-45.657	99.612	-141.319	-72.874	9.605	-142.838	-137.354	-2.009	20.264	-139.232	-136.333	-134.320	-129.973	12.554	-132.145	-8191	255	
1044.922	1	1	0	0	0.22989	0.13625	0.065394	0.12682	0.18409	0.2531	0.3094	0.24003	0.11816	0.26493	0.1667	0.084236	0.13138	0.208	0.11447	0.21169	-2.1979	-2.8167	-2.575	-2.7188	-2.7812	-2.6063	-2.8333	-2.6917	-2.7042	-2.9042	-2.625	-2.7562	-2.6479	-2.4104	-2.7896	-2.6583	62.172	96.947	-139.600	186.570	-20.742	40.551	139.728	196.090	94.302	164.774	28.930	37.661	-42.122	97.353	38.476	179.003	0.00024071	0.00059021	2.8031e-05	352.25	3.1584e-06	1.6898e-06	477.02	125.56	1.6667e-06	9.028e-07	204.15	77.249	46.223	19.177	1.0046e-06	34.118	0.00018815	0.00018185	5.0485e-05	366.73	1.9943e-06	1.9746e-06	489.47	129.31	1.9736e-06	2.0051e-06	206.68	78.695	47.649	19.651	2.0233e-06	34.566	195.155	-43.197	-70.754	-141.365	-60.981	36.570	-142.750	-137.353	-16.789	-140.716	-139.323	-135.939	-134.528	-130.028	-24.632	-132.205	-8191	255	
1045.018	1	1	0	0	0.14983	0.34083	0.17992	0.28122	0.1568	0.16299	0.042413	0.21872	0.24083	0.078594	0.15009	0.18062	0.038922	0.28619	0.33974	0.13603	-2.2938	-2.6917	-2.5396	-2.8104	-2.9375	-2.4188	-2.8937	-2.7208	-2.7042	-3.0333	-2.475	-2.7458	-2.6792	-2.4083	-2.9292	-2.7083	63.862	26.329	179.620	149.739	202.973	61.399	-128.253	130.877	134.822	166.732	-138.755	-126.568	167.979	55.631	158.794	-150.202	0.00024351	0.00045147	5.9019e-05	352.37	7.9663e-07	2.6867e-06	477.05	126.76	2.7511e-06	4.492e-06	203.97	77.049	46.634	19.159	3.3025e-06	34.104	0.00018849	0.00018126	5.1221e-05	367.11	2.0011e-06	1.9892e-06	489.68	129.91	2.0004e-06	1.9859e-06	207.45	78.996	47.954	19.673	2.0087e-06	34.517	192.011	-71.129	58.664	-141.817	126.079	-29.854	-143.159	-137.339	-89.013	15.963	-139.503	-136.323	-133.978	-130.488	32.650	-132.451	-8191	255	
1045.115	1	1	0	0	0.16442	0.15276	0.14038	0.1234	0.065604	0.25445	0.078996	0.088453	0.11974	0.10756	0.09133	0.23899	0.25739	0.16944	0.055084	0.06745	-2.2042	-2.825	-2.5396	-2.7583	-2.6708	-2.3333	-2.8021	-2.7167	-2.7875	-2.9646	-2.6729	-2.6979	-2.8646	-2.55	-2.9688	-2.6167	94.661	-142.091	43.598	136.025	-8.548	89.499	-150.144	88.954	-135.695	-133.592	108.587	-154.401	-138.270	-152.267	146.652	138.540	0.00027471	0.00024234	5.8164e-05	352.6	6.9431e-07	1.503e-06	475.82	126.54	3.1408e-06	3.6854e-06	204.09	77.195	46.525	19.069	8.64e-07	34.083	0.00018879	0.00018073	5.0749e-05	366.28	1.9735e-06	1.9959e-06	487.88	129.77	1.9777e-06	1.9785e-06	206.72	78.944	47.894	19.621	1.9997e-06	34.49	202.071	-40.997	-77.621	-142.496	-55.366	53.851	-142.913	-137.356	7.317	16.832	-139.460	-136.421	-134.345	-130.141	-95.588	-132.053	-8191	255	
1045.233	1	1	0	0	0.22915	0.065549	0.091817	0.12945	0.31855	0.12208	0.16367	0.40982	0.20915	0.19817	0.20715	0.29762	0.14475	0.11297	0.28429	0.23334	-2.1167	-2.7062	-2.6646	-2.5542	-2.6542	-2.6167	-2.8958	-2.5479	-2.5167	-3.0333	-2.525	-2.6958	-2.6688	-2.4896	-2.875	-2.6896	57.882	-64.425	126.383	119.298	-39.154	181.971	47.761	104.632	56.746	-86.159	191.442	-100.388	1.310	76.412	144.268	-86.953	0.00027241	0.00041957	9.7585e-05	351.23	2.7744e-06	5.0592e-06	477.3	126.92	2.4968e-06	2.0016e-06	204.29	77.059	46.744	19.238	1.4121e-06	34.035	0.00018936	0.00018217	5.0252e-05	366.99	1.9979e-06	1.9869e-06	490.15	130.03	2.0005e-06	1.9853e-06	207.17	78.73	47.782	19.681	2.0022e-06	34.491	200.952	-54.644	-73.799	-141.777	-28.111	43.471	-142.831	-137.490	-57.711	1.608	-139.320	-136.128	-134.394	-129.929	-43.569	-132.144	-8191	255	
1045.305	1	1	0	0	0.23848	0.28949	0.15415	0.14613	0.20754	0.10225	0.50232	0.17147	0.13643	0.38062	0.29311	0.083582	0.13765	0.29277	0.10155	0.25428	-2.0292	-2.9396	-2.5646	-2.7979	-2.6854	-2.4229	-2.7833	-2.8187	-2.5083	-2.8667	-2.6542	-2.7521	-2.9208	-2.5479	-2.6792	-2.95	56.225	-123.451	128.504	-80.724	31.123	-131.976	117.075	54.705	65.231	36.571	104.201	78.139	67.866	154.380	145.538	-142.652	0.00027008	0.00030698	4.3686e-05	356.46	2.2346e-06	1.3025e-06	481.54	126.71	4.4067e-06	3.4788e-06	204.93	77.69	46.116	19.209	2.6817e-06	34.088	0.0001904	0.00018305	5.0896e-05	370.51	2.0175e-06	1.9991e-06	492.51	130.36	1.9991e-06	2.0212e-06	207.71	79.118	47.947	19.709	2.0144e-06	34.576	-153.807	-72.887	-108.739	-141.715	-34.616	195.264	-142.866	-137.535	-66.135	26.575	-139.384	-136.084	-134.264	-129.905	-16.258	-132.469	-8191	255	
1045.403	1	1	0	0	0.10036	0.19041	0.20447	0.25525	0.056434	0.090671	0.12093	0.094779	0.14405	0.10477	0.38422	0.14627	0.16265	0.17004	0.18835	0.1534	-2.1771	-2.7458	-2.5229	-2.4417	-2.7771	-2.6021	-2.8042	-2.8	-2.5292	-2.925	-2.5479	-2.6458	-2.7562	-2.5625	-2.6979	-2.8604	-83.013	-83.830	155.422	-82.716	176.334	1.398	-102.601	143.433	-154.170	-36.559	164.697	173.030	137.681	188.142	52.468	184.437	0.0002772	0.00028525	0.00016912	355.79	1.8713e-06	4.2296e-06	482.1	126.75	2.3548e-06	3.5959e-06	204.4	77.131	46.405	19.155	1.8309e-06	34.189	0.00019034	0.00018284	5.0686e-05	370.46	1.9879e-06	2.0113e-06	493.48	129.98	2.0043e-06	1.9731e-06	207.68	78.982	47.897	19.642	2.0165e-06	34.586	-146.978	-6.484	-94.016	-142.132	39.227	-10.542	-142.816	-137.628	-91.360	28.198	-139.394	-136.332	-134.395	-129.747	-21.322	-132.277	-8191	255	
1045.522	1	1	0	0	0.1638	0.21584	0.22627	0.091872	0.13491	0.051581	0.06092	0.12899	0.21627	0.22679	0.03922	0.056753	0.12418	0.050356	0.32488	0.33868	-2.0812	-2.7542	-2.7167	-2.3896	-2.6729	-2.6292	-2.7354	-2.7188	-2.55	-2.7875	-2.6688	-2.5792	-2.8937	-2.7125	-2.4917	-2.7396	-35.843	131.527	128.131	-131.008	118.958	-108.304	-86.070	110.842	92.785	-145.517	35.138	163.150	0.812	65.097	94.699	97.043	0.00023856	0.00040336	0.00010202	356.13	1.5829e-06	1.6599e-06	480.19	126.52	2.9946e-06	2.6804e-06	203.78	76.899	45.861	19.106	2.1567e-06	33.903	0.00018838	0.00018121	5.0302e-05	369.83	1.9958e-06	1.9798e-06	491.96	129.81	1.9731e-06	1.981e-06	206.53	78.392	47.462	19.581	2.0007e-06	34.417	196.976	-23.037	-92.088	-141.355	-25.709	-27.065	-143.036	-137.521	-109.949	-60.055	-139.478	-136.094	-134.187	-130.058	-31.703	-132.100	-8191	255	
1045.618	1	1	0	0	0.24161	0.33094	0.17038	0.27619	0.10172	0.25166	0.082809	0.21549	0.22016	0.31069	0.23419	0.17237	0.14888	0.22174	0.090271	0.26192	-1.9271	-2.6312	-2.6042	-2.5687	-2.8604	-2.5062	-2.5729	-2.8667	-2.4271	-2.7125	-2.7667	-2.7167	-2.8375	-2.7083	-2.6146	-2.7729	88.062	59.623	-123.525	-56.354	86.160	91.234	-57.504	46.171	7.449	165.413	-154.089	199.391	-108.872	-47.219	160.182	143.233	0.00023358	0.00014022	2.4096e-05	354.75	6.1766e-07	3.0772e-06	481.17	126.29	2.7633e-06	3.2833e-06	204.12	77.496	46.191	19.265	5.0074e-06	34.108	0.00018811	0.00018185	4.9867e-05	369.99	1.9825e-06	1.9634e-06	492.94	129.98	1.9632e-06	2.0023e-06	207.16	78.909	47.654	19.687	1.9848e-06	34.491	193.311	-115.650	8.783	-142.186	53.468	132.488	-142.833	-137.172	-37.739	25.449	-139.396	-136.067	-134.208	-130.097	1.409	-132.298	-8191	255	
1045.714	1	1	0	0	0.0449	0.24998	0.15278	0.27564	0.1146	0.17858	0.14796	0.12664	0.092826	0.058939	0.28804	0.019388	0.10975	0.097231	0.056123	0.29495	-2.3187	-2.6688	-2.7667	-2.4917	-2.7771	-2.7604	-2.5708	-2.9146	-2.6104	-2.5542	-2.8688	-2.5792	-2.8771	-2.6688	-2.3438	-2.7062	161.377	-119.691	61.220	9.865	75.917	184.452	-16.342	-43.924	57.448	-20.120	-51.194	-82.584	0.068	33.877	-60.969	-137.807	0.00025053	0.00039746	8.9558e-05	362.7	4.7693e-06	6.759e-07	480.88	126.44	4.5652e-06	1.9542e-06	204.67	77.795	46.345	19.302	1.6868e-06	34.115	0.00018651	0.00017891	4.975e-05	372.41	1.9442e-06	1.9726e-06	494	130.23	1.9835e-06	1.9705e-06	207.3	79.068	47.888	19.732	1.9938e-06	34.615	197.161	-47.705	-48.090	-141.968	17.935	-18.659	-142.502	-137.351	-73.041	29.320	-139.327	-135.982	-134.002	-130.229	-77.762	-132.318	-8191	255	
1045.835	1	1	0	0	0.24092	0.17775	0.20295	0.10864	0.1049	0.073168	0.058865	0.13632	0.12087	0.042751	0.055897	0.10982	0.19412	0.38477	0.23688	0.088581	-2.1729	-2.5938	-2.7812	-2.4458	-2.9542	-2.7792	-2.5062	-3.0583	-2.5104	-2.8042	-2.9896	-2.6417	-2.8979	-2.725	-2.4104	-2.8187	-56.400	134.630	-75.128	82.687	63.093	41.230	-69.600	141.336	202.352	0.573	108.858	74.837	-89.862	-147.205	-144.554	-25.462	0.00025992	8.3538e-05	4.5731e-05	353.73	1.2931e-06	3.4418e-06	484.69	126.29	4.9241e-07	3.8222e-06	205.05	77.433	46.236	19.299	1.8706e-06	34.258	0.00018742	0.00017975	4.9863e-05	369.9	1.9706e-06	1.9734e-06	495.94	130.02	1.9642e-06	1.9818e-06	207.83	79.003	47.598	19.724	1.9874e-06	34.782	191.006	85.110	-53.370	-141.660	-62.483	-12.756	-143.151	-137.178	-140.087	69.759	-139.466	-136.009	-134.061	-130.295	-29.991	-132.293	-8191	255	
1045.907	1	1	0	0	0.12766	0.18171	0.16658	0.2838	0.12205	0.093153	0.12186	0.32345	0.088221	0.22772	0.097951	0.29748	0.15355	0.31069	0.091348	0.28839	-2.1063	-2.7188	-2.85	-2.4562	-2.8271	-2.6396	-2.5	-3.0083	-2.6979	-2.7208	-2.9208	-2.5542	-2.6437	-2.8333	-2.5458	-2.9458	-30.747	62.766	7.016	-124.781	-88.469	0.737	-121.397	175.838	-142.637	-73.448	101.145	155.623	199.063	166.697	83.020	120.575	0.00027032	0.00015224	2.0465e-05	355.72	8.2019e-07	2.3714e-06	482.49	126.71	3.3797e-06	9.564e-07	204.36	76.981	46.178	19.129	2.1111e-06	34.137	0.00018976	0.00017971	4.9975e-05	370.59	1.9469e-06	1.9376e-06	494.03	130.18	1.9891e-06	1.9697e-06	207.33	78.779	47.798	19.671	1.9802e-06	34.602	204.308	25.022	-61.919	-141.801	21.011	-43.234	-142.465	-137.568	-4.560	14.538	-139.094	-136.393	-134.160	-130.009	0.321	-132.110	-8191	255	
1046.003	1	1	0	0	0.23046	0.071032	0.13207	0.15209	0.11882	0.093386	0.10201	0.27288	0.11313	0.14892	0.14764	0.23581	0.049365	0.060361	0.35567	0.10762	-2.1937	-2.7083	-2.7083	-2.4208	-2.6479	-2.8396	-2.5458	-2.9188	-2.6813	-2.4562	-2.8	-2.5229	-2.7812	-2.8104	-2.5354	-2.8708	-41.381	-105.761	-140.890	58.141	-141.948	-77.724	169.922	-93.118	72.038	-12.200	-140.495	171.959	-142.242	54.136	-73.682	111.784	0.00027619	0.00046029	6.6615e-05	357.49	4.3014e-06	4.0699e-06	482.42	126.22	2.2928e-06	1.299e-06	203.16	77.356	45.923	19.23	1.8516e-06	34.015	0.00018775	0.00018015	5.0728e-05	371.54	1.9852e-06	1.9686e-06	493.66	129.62	1.9841e-06	1.9842e-06	206.83	78.686	47.371	19.661	2.0106e-06	34.523	192.660	-74.942	168.926	-141.571	-64.656	-41.594	-142.812	-137.457	-21.547	47.768	-139.459	-136.116	-133.847	-130.079	-67.842	-132.202	-8191	255	
1046.123	1	1	0	0	0.17216	0.16741	0.044834	0.080954	0.10348	0.1832	0.11288	0.32344	0.19554	0.16403	0.14494	0.040845	0.090088	0.12423	0.12203	0.095977	-2.175	-2.5312	-2.775	-2.525	-2.7375	-2.9396	-2.4417	-2.7583	-2.6083	-2.5062	-2.8896	-2.6958	-2.7292	-2.8625	-2.6042	-2.6354	-144.301	-60.169	-136.988	-37.616	45.843	96.153	68.585	23.580	68.395	167.623	145.170	-67.156	132.162	-114.395	-14.892	44.507	0.00026612	0.00024286	8.0453e-05	356.68	1.805e-06	3.5156e-06	482.7	125.57	4.711e-06	9.7703e-07	203.59	77.049	46.316	19.147	3.1518e-06	34.152	0.00018997	0.00018498	5.1593e-05	370.99	2.0005e-06	2.0318e-06	495.13	129.46	2.0396e-06	2.0227e-06	206.83	78.558	47.522	19.655	2.0433e-06	34.688	197.975	-26.787	-119.983	-141.856	180.016	-46.000	-142.714	-137.542	-113.104	-83.233	-139.187	-136.077	-134.169	-129.919	-6.125	-132.430	-8191	255	
1046.218	1	1	0	0	0.1894	0.21509	0.12386	0.22722	0.1282	0.11342	0.20941	0.12276	0.1364	0.23752	0.10473	0.17927	0.1116	0.11835	0.054625	0.015394	-2.2354	-2.4833	-2.8521	-2.6083	-2.4875	-2.8146	-2.5458	-2.7146	-2.7917	-2.4292	-2.9333	-2.8	-2.4313	-2.8021	-2.4833	-2.6583	-94.358	199.905	-34.596	-131.516	-112.538	26.175	-68.567	-93.671	-22.999	141.925	177.308	180.718	144.249	151.531	-3.567	-148.515	0.00024698	0.00034952	0.00010897	359.62	1.6804e-07	3.0045e-07	485.43	126.35	1.5894e-06	1.99e-06	204.65	77.937	46.202	19.302	1.3091e-06	34.355	0.0001931	0.00018687	5.2054e-05	373.3	2.0572e-06	2.0105e-06	497.35	130.15	2.0694e-06	2.0582e-06	208.29	79.352	47.775	19.762	2.059e-06	34.815	202.106	-26.988	-35.116	-142.311	175.573	116.108	-142.966	-137.319	-144.655	-59.920	-139.204	-135.826	-134.053	-130.155	-131.185	-132.456	-8191	255	
1046.314	1	1	0	0	0.26395	0.095899	0.10811	0.1895	0.10037	0.1923	0.20316	0.16266	0.10237	0.21746	0.21817	0.10468	0.22678	0.20144	0.071959	0.1718	-2.3333	-2.4437	-2.9396	-2.6063	-2.4188	-2.9521	-2.6354	-2.6	-2.6979	-2.7021	-2.8312	-2.9188	-2.575	-2.6354	-2.6354	-2.6729	-103.604	-51.506	168.024	-83.115	-83.446	3.478	136.602	-144.736	196.713	125.427	74.817	-82.692	94.063	166.955	-12.713	-76.446	0.00027465	0.00049183	8.8983e-05	357.58	1.1853e-06	2.2077e-06	482.52	127.23	1.1091e-06	1.0605e-06	205.77	78.395	46.52	19.418	1.5652e-06	34.367	0.00019389	0.00018938	5.2502e-05	372.88	2.0483e-06	2.0259e-06	496.42	130.73	2.0694e-06	2.0718e-06	209.23	79.783	48.127	19.855	2.0752e-06	34.808	-154.267	-130.604	-16.483	-142.059	73.900	-53.474	-142.568	-137.441	18.574	110.897	-139.430	-136.531	-133.988	-129.903	27.736	-132.520	-8191	255	
1046.410	1	1	0	0	0.075707	0.11606	0.26437	0.12562	0.24616	0.1156	0.036866	0.40564	0.20882	0.11427	0.15313	0.044884	0.25603	0.10752	0.058657	0.19655	-2.3417	-2.3333	-2.8104	-2.6708	-2.425	-2.9625	-2.6479	-2.6688	-2.8167	-2.6375	-2.8958	-2.85	-2.6562	-2.9083	-2.5938	-2.6083	-128.755	106.205	-77.387	25.293	-114.786	-115.374	63.147	169.072	144.652	87.299	190.843	135.586	-94.994	81.239	-66.904	192.995	0.00028352	0.00024732	9.787e-05	358.42	1.2386e-06	2.6177e-06	482.22	126.92	1.6298e-06	2.8406e-06	205.82	77.591	46.334	19.383	2.1743e-06	34.224	0.00019609	0.00019117	5.2158e-05	373.17	2.0679e-06	2.0711e-06	494.98	130.42	2.0558e-06	2.0495e-06	207.88	78.913	47.801	19.804	2.0546e-06	34.733	-154.440	-32.171	-70.526	-141.960	-25.263	-7.305	-142.974	-137.273	-24.231	-2.118	-139.688	-136.278	-134.110	-129.825	-21.425	-132.564	-8191	255	
1046.531	1	1	0	0	0.27423	0.24974	0.080923	0.19514	0.044194	0.2368	0.12842	0.090592	0.25699	0.23584	0.086551	0.2204	0.037551	0.19842	0.22192	0.095318	-2.3875	-2.4542	-2.775	-2.7271	-2.4458	-2.8312	-2.8187	-2.5563	-2.7438	-2.6271	-2.7812	-2.6833	-2.6125	-3.075	-2.7438	-2.575	25.047	-101.225	-16.522	141.369	-10.951	-132.482	106.749	80.283	-21.610	159.362	139.249	159.938	-100.373	-98.325	50.463	-152.281	0.0002874	0.00016954	0.00014575	360.38	8.8439e-07	4.8245e-06	486.66	126.91	2.8999e-06	5.3841e-07	203.67	77.821	46.147	19.225	2.2314e-06	34.283	0.00019642	0.00018865	5.2561e-05	373.68	2.0385e-06	2.0527e-06	497.37	130.24	2.0523e-06	2.0656e-06	207.56	78.931	47.632	19.738	2.0847e-06	34.771	200.834	-55.187	-103.204	-142.483	41.234	45.152	-142.696	-137.420	-42.119	147.991	-139.231	-136.343	-134.285	-130.378	-30.235	-132.459	-8191	255	
1046.602	1	1	0	0	0.1334	0.37661	0.24927	0.15402	0.14772	0.19678	0.11951	0.15002	0.25411	0.12948	0.19284	0.27234	0.13923	0.32884	0.20164	0.20758	-2.3937	-2.5542	-2.525	-2.8792	-2.4688	-2.7625	-2.6375	-2.4792	-2.8917	-2.6917	-2.6583	-2.8625	-2.5646	-2.7021	-2.7771	-2.5687	-85.239	200.137	69.215	202.107	77.838	-95.642	163.073	168.730	42.294	158.669	58.085	43.894	114.139	-135.053	201.160	-134.019	0.00027903	0.00041478	7.4583e-05	354.12	2.6873e-06	4.4372e-06	484.68	125.74	1.2763e-06	3.95e-06	204.42	77.151	46.099	19.195	3.3991e-06	34.185	0.00019584	0.00018924	5.3129e-05	374.2	2.108e-06	2.0846e-06	498.83	129.44	2.0818e-06	2.0643e-06	207.64	78.73	47.377	19.693	2.1159e-06	34.816	197.087	-20.789	-59.982	-141.658	-86.106	14.853	-142.528	-137.503	-64.927	17.467	-139.070	-136.025	-134.145	-129.900	-25.468	-132.014	-8191	255	
1046.698	1	1	0	0	0.18223	0.062555	0.24081	0.18084	0.25442	0.22766	0.3035	0.24245	0.094359	0.073939	0.19372	0.13909	0.40597	0.22086	0.1584	0.099817	-2.2854	-2.5333	-2.5604	-2.6688	-2.4958	-2.8042	-3.0042	-2.5958	-2.7604	-2.5979	-2.6083	-2.9167	-2.6396	-2.7208	-2.8063	-2.5417	117.021	14.778	27.064	-127.097	-56.788	47.732	-120.215	-109.761	188.098	-20.623	99.029	-97.897	-40.929	177.816	-49.077	169.270	0.00026055	0.00034032	5.9897e-05	357.02	5.94e-07	1.9651e-06	489	125.59	2.8836e-06	1.8788e-06	205.03	77.38	45.553	19.262	1.8643e-06	34.529	0.00019754	0.00019117	5.3358e-05	374.29	2.1027e-06	2.0879e-06	501.09	129.64	2.0963e-06	2.0936e-06	208.49	78.908	47.299	19.797	2.1182e-06	35.025	199.733	-49.335	-117.943	-142.252	83.696	-49.467	-142.536	-137.670	-115.392	33.307	-139.267	-136.241	-133.993	-130.056	-61.696	-132.439	-8191	255	
1046.795	1	1	0	0	0.30466	0.025768	0.11582	0.1358	0.11219	0.21147	0.29989	0.33096	0.20757	0.15476	0.1848	0.11602	0.18235	0.30621	0.20643	0.1954	-2.3896	-2.6188	-2.75	-3.0208	-2.5896	-2.5958	-2.7167	-2.6833	-3.025	-2.7188	-2.5958	-3.0167	-2.5167	-2.6479	-2.9146	-2.5792	-46.991	172.014	145.751	188.188	96.876	-44.335	176.848	148.630	-150.341	-146.248	203.455	168.096	141.334	-46.245	166.140	130.417	0.00030673	0.00044708	0.00011462	357.12	3.7935e-06	3.635e-06	485.94	126.13	1.3862e-06	1.7112e-06	203.41	77.295	45.87	19.402	1.0853e-06	34.349	0.00019862	0.00019034	5.3755e-05	374.78	2.0655e-06	2.1043e-06	499.43	129.75	2.0811e-06	2.069e-06	207.15	78.843	47.482	19.838	2.0885e-06	34.822	197.011	-18.202	-31.312	-141.670	36.096	-13.170	-142.683	-137.419	-60.563	63.752	-139.326	-136.062	-134.596	-129.731	-24.358	-132.097	-8191	255	
1046.915	1	1	0	0	0.16994	0.23146	0.15752	0.051808	0.045346	0.078457	0.10855	0.047935	0.31863	0.16012	0.11677	0.20701	0.16715	0.20895	0.17883	0.26747	-2.5125	-2.6083	-2.7125	-3.1021	-2.5625	-2.6271	-2.8792	-2.75	-2.6708	-2.8354	-2.5417	-2.7625	-2.5125	-2.8479	-2.7875	-2.5229	-131.335	121.195	9.806	126.514	78.909	-51.790	-130.912	135.380	38.582	128.906	201.478	-62.519	176.592	-152.482	45.329	-143.980	0.00030327	0.00076105	7.3744e-05	358.42	1.8692e-06	5.9018e-06	485.56	126.55	4.8148e-06	1.4836e-06	204.84	77.286	46.321	19.494	2.9831e-06	34.468	0.00019807	0.00019192	5.3064e-05	373.9	2.0831e-06	2.0643e-06	497.95	129.89	2.0945e-06	2.0817e-06	207.64	79.013	47.858	19.912	2.0888e-06	34.966	192.543	-47.264	-58.490	-141.769	-2.006	-26.300	-142.870	-137.403	-29.651	164.690	-139.072	-136.375	-134.400	-129.878	33.120	-132.483	-8191	255	
1047.011	1	1	0	0	0.070929	0.2625	0.18742	0.17742	0.041313	0.12515	0.16189	0.09737	0.047065	0.2106	0.17974	0.26261	0.29207	0.041605	0.34504	0.15743	-2.225	-2.6708	-2.2646	-2.7646	-2.4292	-2.4354	-2.975	-2.6021	-2.4771	-2.7833	-2.5563	-2.8208	-2.7667	-2.6292	-2.7979	-2.625	-3.005	169.239	-72.647	203.678	-149.262	94.387	71.945	54.015	170.334	160.392	-137.732	154.323	-34.743	-107.382	176.070	-129.791	0.00025664	0.00050394	4.8914e-05	357.5	2.8396e-06	3.1433e-06	484.98	126.24	7.2815e-07	3.8448e-06	205.33	77.804	46.46	19.396	2.5766e-06	34.302	0.00019549	0.00019112	5.2896e-05	374.9	2.069e-06	2.0653e-06	498.08	129.95	2.1001e-06	2.0755e-06	208.29	79.373	47.962	19.876	2.0882e-06	34.95	196.502	-39.909	133.994	-141.719	24.606	9.720	-142.730	-137.309	-55.131	-26.261	-139.280	-136.019	-134.102	-129.986	-0.329	-132.470	-8191	255	
1047.106	1	1	0	0	0.37136	0.098998	0.18015	0.18073	0.17676	0.19281	0.16557	0.14018	0.05589	0.032232	0.2773	0.09726	0.073591	0.38621	0.13881	0.11392	-2.2562	-2.7146	-2.4417	-2.8729	-2.7542	-2.5896	-2.9583	-2.7562	-2.6604	-2.8125	-2.4229	-2.8583	-2.6229	-2.7083	-2.8208	-2.4896	195.811	-72.236	106.374	181.806	74.319	-68.738	134.218	0.949	-120.940	-132.677	135.117	161.442	-140.406	180.351	-61.419	174.582	0.0003146	0.00016293	5.7133e-05	358.04	2.0401e-06	2.514e-06	486.18	126.57	7.1565e-07	9.2584e-07	205.85	77.806	46.214	19.275	2.2432e-06	34.48	0.00019752	0.00018966	5.3446e-05	375.62	2.0925e-06	2.0615e-06	498.84	130.26	2.1042e-06	2.0878e-06	208.72	79.507	47.857	19.837	2.1103e-06	35	197.814	-7.463	-124.975	-142.479	3.186	-37.452	-142.853	-137.607	-5.577	-26.391	-139.064	-136.183	-134.134	-129.555	39.891	-132.325	-8191	255	
1047.204	1	1	0	0	0.26744	0.18188	0.2316	0.17525	0.13488	0.057777	0.047899	0.18816	0.20772	0.20183	0.18016	0.14143	0.09323	0.13802	0.064794	0.10045	-2.1312	-2.7979	-2.55	-2.6979	-2.6979	-2.4729	-2.8833	-2.6688	-2.7729	-2.7562	-2.5208	-2.8083	-2.8396	-2.5583	-2.75	-2.6146	184.505	75.540	198.737	25.346	-128.667	-154.142	-89.510	43.070	-20.035	86.137	5.592	42.803	91.821	-12.298	33.367	-24.710	0.0002244	0.00039012	2.5602e-05	358.63	3.2365e-06	3.0393e-06	486.39	126.01	3.2289e-06	4.7416e-06	205.1	77.615	46.243	19.289	3.2473e-06	34.3	0.00019845	0.00019248	5.2761e-05	374.64	2.0937e-06	2.0902e-06	499.33	129.47	2.088e-06	2.092e-06	207.35	79.124	47.714	19.774	2.0969e-06	34.785	198.660	-29.470	-7.085	-141.557	-58.208	-4.892	-142.912	-137.483	-44.873	-28.072	-139.239	-136.208	-134.615	-130.057	-17.367	-132.246	-8191	255	
1047.298	1	1	0	0	0.15359	0.13266	0.11336	0.032855	0.12531	0.11514	0.10918	0.24109	0.12039	0.15965	0.17963	0.17488	0.048304	0.10923	0.04219	0.15622	-2.2062	-2.9437	-2.4979	-2.7771	-2.9292	-2.5896	-2.95	-2.6375	-2.5604	-2.8771	-2.725	-2.6375	-2.8563	-2.6063	-2.6917	-2.7188	90.186	1.822	109.129	154.114	-154.326	-14.559	82.740	-118.259	6.107	95.500	179.951	-104.180	-113.064	-50.705	-82.441	-142.975	0.00028936	0.0004205	7.8634e-05	356.89	2.2394e-06	2.087e-06	484.16	125.39	2.6937e-06	3.2977e-06	203.37	77.273	46.185	19.36	1.3506e-06	34.205	0.00019584	0.00019021	5.342e-05	372.89	2.0827e-06	2.049e-06	495.57	128.96	2.0893e-06	2.0598e-06	206.82	78.831	47.693	19.807	2.1059e-06	34.766	202.285	-106.335	-124.780	-141.371	-35.925	82.607	-143.052	-137.403	-50.694	-20.308	-139.037	-136.178	-134.075	-129.715	-2.545	-132.184	-8191	255	
1047.394	1	1	0	0	0.093398	0.077562	0.045408	0.25938	0.10105	0.2309	0.331	0.07453	0.24451	0.058026	0.19812	0.09451	0.21632	0.21257	0.29908	0.16137	-2.225	-2.6583	-2.5062	-2.5771	-2.9104	-2.5271	-2.8833	-2.7979	-2.375	-3.0208	-2.7958	-2.6896	-2.7771	-2.6729	-2.8187	-2.8208	-87.846	-96.067	178.152	-14.765	189.033	-133.242	128.857	-38.400	-82.731	-72.046	101.381	26.890	110.967	179.195	130.443	139.926	0.0002636	0.00033525	0.0001076	356.96	1.2363e-06	6.9077e-06	478.55	125.72	2.6903e-06	2.6509e-06	204.08	77.841	46.726	19.465	3.1348e-06	34.327	0.00019823	0.0001887	5.2722e-05	372.24	2.0835e-06	2.06e-06	494.9	129.36	2.0667e-06	2.0693e-06	207.26	79.337	47.961	19.885	2.1017e-06	34.913	202.826	-43.026	-18.609	-141.712	-35.587	-10.091	-142.641	-137.691	-89.815	-31.849	-139.313	-135.754	-134.159	-129.921	6.844	-132.208	-8191	255	
1047.515	1	1	0	0	0.11094	0.096058	0.28459	0.057123	0.21279	0.15118	0.040011	0.30609	0.11648	0.11213	0.16193	0.15225	0.19811	0.05719	0.31608	0.096692	-1.9312	-2.9021	-2.4875	-2.6354	-2.8708	-2.4146	-2.9771	-2.8312	-2.5438	-2.7875	-2.7458	-2.8083	-2.9292	-2.7375	-2.7354	-2.9125	-68.683	-104.889	204.000	114.211	40.127	-81.396	144.365	33.096	-24.449	130.265	193.488	112.651	167.525	-141.804	134.584	-33.094	0.00028327	5.17e-05	6.615e-05	353.77	1.8878e-06	4.6522e-06	483.24	125.9	2.0029e-06	1.109e-06	205.32	77.736	46.497	19.491	2.2962e-06	34.657	0.00019606	0.00018897	5.3151e-05	371.69	2.057e-06	2.0803e-06	495.19	129.81	2.0952e-06	2.0724e-06	208.63	79.716	48.186	19.99	2.0837e-06	35.168	200.622	-61.501	-104.758	-141.951	36.742	-36.994	-142.964	-137.685	-27.146	68.005	-139.365	-136.210	-133.782	-129.975	-25.372	-132.241	-8191	255	
1047.611	1	1	0	0	0.29537	0.12607	0.2778	0.047625	0.050889	0.32616	0.25665	0.084719	0.22695	0.13701	0.2176	0.14292	0.2065	0.11625	0.11404	0.042917	-2.0125	-2.7042	-2.7354	-2.5542	-2.7979	-2.8	-2.5812	-2.8896	-2.5417	-3.0187	-2.7146	-2.775	-2.9688	-2.6354	-2.8292	-2.9917	92.773	-103.968	164.671	162.671	59.273	58.216	166.302	-132.368	-137.008	5.337	136.217	-15.696	-120.622	-109.773	24.458	-123.500	0.00027788	0.00013039	0.00014054	352.53	2.2533e-06	3.0646e-06	481.77	126.34	7.995e-07	7.7373e-07	204.83	78.49	46.742	19.712	4.63e-06	34.755	0.00019875	0.00019103	5.3139e-05	371.78	2.0993e-06	2.0574e-06	495.52	130.16	2.1148e-06	2.0837e-06	208.62	80.18	48.312	20.109	2.1e-06	35.307	195.071	-57.078	-76.520	-141.958	42.232	192.976	-142.522	-137.411	-26.943	-30.258	-138.970	-136.239	-134.270	-129.929	-37.536	-132.428	-8191	255	
1047.707	1	1	0	0	0.14433	0.21143	0.12236	0.10883	0.16258	0.28177	0.11179	0.10299	0.17674	0.26558	0.11929	0.24887	0.16332	0.31092	0.19941	0.038663	-2.1146	-2.725	-2.6625	-2.5771	-2.9292	-2.7104	-2.8208	-3.0792	-2.55	-2.8292	-2.9271	-2.5583	-2.9188	-2.7208	-2.6604	-3.1479	11.211	-136.407	-73.389	24.513	152.568	-151.764	166.197	151.956	107.142	-97.728	12.414	141.363	11.776	175.652	-48.190	193.157	0.00026478	0.00019005	4.0851e-05	355.3	1.0827e-06	2.0099e-06	483.07	126.34	3.9546e-06	2.9507e-06	204.56	77.778	46.036	19.413	2.0248e-06	34.504	0.00019657	0.00018935	5.2802e-05	372.36	2.0601e-06	2.084e-06	494.81	130.08	2.1064e-06	2.0932e-06	207.77	79.488	47.797	19.917	2.1072e-06	35.052	194.695	-125.958	-61.879	-141.604	161.364	-91.630	-142.625	-137.591	-46.302	22.536	-139.463	-135.793	-134.143	-130.047	47.044	-131.960	-8191	255	
1047.803	1	1	0	0	0.16052	0.17938	0.11454	0.20746	0.23047	0.12459	0.13269	0.11382	0.19776	0.1941	0.19497	0.13936	0.070768	0.12632	0.1026	0.16175	-2.1937	-2.7646	-2.5375	-2.5354	-2.8396	-2.6937	-2.6396	-2.9375	-2.5896	-2.5	-2.8021	-2.6188	-2.9958	-2.5146	-2.5854	-2.925	-75.112	-116.838	-143.065	-118.894	88.464	58.479	0.422	101.341	-124.400	19.080	-32.867	110.170	99.464	173.671	29.528	-62.460	0.00031391	0.00033461	0.00015213	357.22	3.7883e-07	3.7145e-06	482.27	125.44	3.165e-06	1.7987e-06	203.79	78.139	46.803	19.594	7.031e-07	34.863	0.00019763	0.00019116	5.3018e-05	372.46	2.0694e-06	2.0731e-06	494.52	129.25	2.1056e-06	2.108e-06	207.46	79.62	48.114	20.059	2.1164e-06	35.345	197.232	-83.633	-45.700	-141.463	175.164	37.113	-142.806	-137.557	-43.645	46.894	-139.196	-136.050	-134.087	-129.991	-95.747	-132.288	-8191	255	
1047.899	1	1	0	0	0.19614	0.10004	0.082148	0.08758	0.13758	0.25778	0.30042	0.14305	0.11399	0.17974	0.09783	0.13818	0.17369	0.090751	0.23141	0.12391	-2.2229	-2.5896	-2.7188	-2.6354	-2.9479	-2.5646	-2.5417	-2.8417	-2.4417	-2.6813	-2.8479	-2.5958	-2.7875	-2.7438	-2.4771	-3.0729	159.645	168.360	54.401	-89.708	-97.211	-151.389	125.998	128.327	29.324	-37.577	-113.787	181.282	26.459	75.572	-127.205	82.310	0.00026088	0.00018453	3.8036e-05	352.22	2.4868e-06	2.5993e-06	481.47	126.31	1.8898e-06	3.082e-06	205.51	78.299	46.689	19.674	2.4752e-06	35.038	0.00019744	0.00019219	5.3347e-05	371.87	2.1108e-06	2.0867e-06	494.31	129.89	2.1138e-06	2.0924e-06	208.8	80.112	48.404	20.182	2.1269e-06	35.515	200.691	-28.217	155.621	-141.834	-10.051	-72.111	-142.740	-137.438	-45.016	12.187	-139.015	-135.954	-133.877	-129.942	14.371	-132.216	-8191	255	
1047.996	1	1	0	0	0.16278	0.14421	0.082514	0.26006	0.13022	0.16079	0.2791	0.08706	0.2763	0.084859	0.084805	0.24281	0.088386	0.22152	0.25816	0.32384	-2.0917	-2.6958	-2.7083	-2.4917	-2.6771	-2.7521	-2.4875	-2.9437	-2.4708	-2.3937	-2.7438	-2.5938	-2.8146	-2.7625	-2.5479	-2.8458	125.433	-13.691	35.117	91.465	112.576	156.480	187.976	133.635	114.753	-96.287	-16.399	71.280	-74.219	-135.764	156.510	193.072	0.000302	0.00031132	0.00010265	357.6	2.2878e-06	1.7749e-06	482.46	127.86	4.4544e-06	9.7333e-07	207.37	79.532	47.48	19.869	3.1926e-06	35.113	0.00020207	0.00019123	5.3425e-05	374.03	2.1007e-06	2.0996e-06	496.7	131.44	2.114e-06	2.125e-06	211.01	80.993	49.045	20.331	2.1406e-06	35.744	-153.722	-27.074	-110.171	-141.253	-42.551	4.460	-142.918	-137.200	-106.612	58.296	-138.981	-136.170	-133.888	-130.144	17.431	-132.125	-8191	255	
1048.092	1	1	0	0	0.14573	0.12727	0.16706	0.10363	0.025909	0.153	0.28405	0.21401	0.32387	0.22511	0.2077	0.098123	0.28764	0.26433	0.15056	0.34774	-2.1813	-2.5146	-2.6021	-2.575	-2.7104	-2.7979	-2.3729	-2.7729	-2.7667	-2.4854	-2.8167	-2.6458	-2.7396	-2.7562	-2.3917	-2.9021	175.220	146.570	185.542	-30.245	144.928	99.261	178.677	-139.854	200.578	-115.664	-124.224	-142.913	180.193	145.493	-25.957	112.944	0.00028296	0.0003507	5.7448e-05	353.55	3.3133e-06	1.7362e-06	484.35	127.7	9.9185e-07	2.8153e-06	208.55	79.584	47.557	19.956	3.8799e-06	35.159	0.00020052	0.00019146	5.3941e-05	373.29	2.1157e-06	2.1002e-06	497.11	131.38	2.12e-06	2.1136e-06	211.31	81.204	48.953	20.351	2.1292e-06	35.683	192.804	-16.064	-95.415	-141.320	-5.256	-21.934	-142.638	-137.258	-69.932	-40.750	-139.393	-135.966	-133.845	-129.824	-14.856	-132.179	-8191	255	
1048.211	1	1	0	0	0.022521	0.029371	0.24296	0.15258	0.11025	0.11588	0.2513	0.19959	0.23378	0.11092	0.082795	0.31491	0.16123	0.25585	0.10147	0.21031	-2.1833	-2.4938	-2.9	-2.7729	-2.7	-2.6917	-2.5958	-2.6167	-2.8937	-2.6604	-2.9833	-2.675	-2.6042	-2.875	-2.5563	-2.9354	41.248	-115.069	-150.733	81.660	-72.161	-57.094	65.949	-135.128	-127.265	141.479	-143.215	63.389	-2.980	123.604	154.447	118.482	0.00028404	0.00029525	0.00013416	357.61	6.0582e-06	2.8156e-06	485.43	127.01	3.03e-06	3.0745e-06	206.27	79.129	47.152	19.933	3.8274e-06	35.146	0.00020031	0.00019389	5.3245e-05	374.38	2.1033e-06	2.0811e-06	497.8	130.82	2.1165e-06	2.0918e-06	209.97	80.876	48.797	20.322	2.1354e-06	35.668	192.682	-20.731	-59.680	-141.412	-25.236	0.844	-142.681	-137.831	-23.939	10.884	-139.210	-136.118	-134.196	-129.902	-17.452	-132.516	-8191	255	
1048.307	1	1	0	0	0.14115	0.11646	0.23654	0.15811	0.12069	0.095307	0.28911	0.15956	0.17781	0.32519	0.34226	0.088819	0.15663	0.11577	0.15346	0.065027	-2.1792	-2.4271	-2.7854	-2.5708	-2.825	-3.0146	-2.6562	-2.7375	-2.65	-2.5729	-2.7479	-2.6688	-2.5979	-2.8667	-2.6771	-2.8792	184.825	81.372	86.220	199.377	175.787	-13.732	127.185	-123.204	-11.478	74.508	-142.565	160.808	29.125	-152.672	-38.770	30.971	0.00025561	0.00013597	4.1255e-05	358.35	8.6291e-07	1.4632e-06	487.07	127.66	2.8119e-06	3.1936e-06	207.55	79.683	47.298	19.826	1.6737e-06	35.233	0.00019759	0.00019127	5.3949e-05	375.02	2.1161e-06	2.1102e-06	498.83	131.41	2.1017e-06	2.1268e-06	210.61	81.197	48.848	20.332	2.1137e-06	35.683	200.490	5.187	-18.388	-142.098	165.440	-53.812	-142.867	-137.403	2.189	-41.545	-139.483	-136.357	-134.246	-130.428	-101.507	-132.115	-8191	255	
1048.403	1	1	0	0	0.28756	0.092488	0.12964	0.23677	0.23869	0.10517	0.082813	0.2933	0.27683	0.22681	0.12856	0.33251	0.21508	0.20748	0.10026	0.21282	-2.5	-2.3271	-2.7687	-2.575	-2.4708	-3.0021	-2.5583	-2.6021	-2.6562	-2.4375	-2.8271	-2.8083	-2.6333	-2.9417	-2.5229	-2.7458	98.206	-9.062	141.447	191.476	-135.639	-49.847	192.485	144.902	-74.330	-63.217	122.925	123.725	-69.233	96.264	55.396	134.490	0.00030891	0.00048759	0.00015078	357.82	1.6986e-06	1.2456e-06	485.39	127.42	2.7042e-06	3.5919e-06	207.85	79.315	47.27	19.744	3.3067e-06	35.433	0.00020139	0.00019156	5.3726e-05	374.97	2.1185e-06	2.1234e-06	498.4	131.25	2.1113e-06	2.1315e-06	210.88	81.036	48.803	20.324	2.1513e-06	35.868	196.632	-21.315	-66.831	-142.117	61.931	117.154	-142.596	-137.652	-90.191	18.372	-139.244	-136.241	-134.493	-129.924	0.874	-132.089	-8191	255	
1048.476	1	1	0	0	0.18906	0.11456	0.17652	0.025171	0.18838	0.26976	0.21317	0.28442	0.1591	0.24514	0.041699	0.15593	0.22896	0.18465	0.22247	0.10023	-2.5062	-2.575	-2.7021	-2.7271	-2.5938	-2.8333	-2.7646	-2.6542	-2.8688	-2.4729	-2.9208	-2.6854	-2.4396	-2.9833	-2.6583	-2.7896	64.032	-25.387	201.290	-7.844	-77.342	-14.794	180.709	186.819	-114.214	162.814	-5.763	-6.977	60.723	203.671	21.251	44.260	0.00028682	0.00014258	5.5865e-05	360.42	2.0859e-06	1.8421e-06	487.97	127.24	9.5359e-07	2.3174e-06	208.43	79.808	47.278	19.856	2.5161e-06	35.479	0.00020084	0.00019389	5.3531e-05	376.8	2.1199e-06	2.1049e-06	502.09	131.28	2.1057e-06	2.1149e-06	211.27	81.316	48.716	20.313	2.1205e-06	35.797	196.997	193.979	-99.918	-141.941	76.879	191.592	-142.985	-137.208	-81.975	-40.791	-139.418	-136.415	-133.983	-130.104	12.211	-132.102	-8191	255	
1048.595	1	1	0	0	0.071649	0.0066282	0.10531	0.01365	0.22782	0.025996	0.28893	0.098959	0.049755	0.24441	0.027734	0.088755	0.16671	0.16559	0.15778	0.14818	-2.3854	-2.4521	-2.6396	-2.8708	-2.4708	-2.9146	-2.6521	-2.6417	-2.9958	-2.5312	-2.8875	-2.825	-2.5438	-2.7542	-2.6	-2.5583	146.355	127.593	-96.401	-147.219	-113.043	202.884	194.907	196.982	-44.728	-147.645	-116.984	-105.726	31.628	-17.738	-18.662	-90.211	0.00026119	0.00031409	0.00016819	355.16	1.91e-06	2.9679e-06	490.67	127.65	3.0113e-06	4.1131e-06	208.35	79.404	47.874	19.908	8.8443e-07	35.198	0.00020052	0.00019262	5.3525e-05	374.49	2.1156e-06	2.1015e-06	499.8	131.84	2.0897e-06	2.1047e-06	211.44	81.139	49.235	20.353	2.0839e-06	35.721	-155.041	-7.489	-67.188	-141.831	-124.126	11.886	-142.846	-137.320	-12.691	-1.408	-139.415	-136.197	-134.358	-130.207	-96.830	-132.425	-8191	255	
1048.691	1	1	0	0	0.16248	0.23764	0.080985	0.049985	0.15535	0.055072	0.28466	0.21268	0.16166	0.18264	0.19676	0.13419	0.12564	0.24017	0.18436	0.16436	-2.6063	-2.3854	-2.7229	-2.5854	-2.5208	-2.775	-2.5938	-2.6708	-2.7979	-2.7938	-2.7313	-2.8083	-2.5271	-2.8542	-2.6688	-2.7417	100.306	192.610	58.589	186.278	-118.209	-149.247	-153.892	-43.222	-105.379	135.954	119.794	55.479	77.973	-68.556	-63.516	114.549	0.00029587	0.00028801	5.5084e-05	358.82	4.5357e-06	3.5545e-06	488.84	129.54	3.079e-06	9.4773e-07	210.55	80.346	47.913	19.963	3.3199e-06	35.041	0.00019861	0.00019273	5.3095e-05	376.92	2.1029e-06	2.0995e-06	501.38	132.82	2.1078e-06	2.1271e-06	213.09	81.782	49.425	20.432	2.1549e-06	35.695	195.301	-143.985	-47.682	-141.397	-84.133	16.692	-142.834	-137.544	-108.368	1.391	-139.034	-136.315	-134.497	-130.101	-24.377	-132.175	-8191	255	
1048.788	1	1	0	0	0.23405	0.061866	0.15191	0.22526	0.12889	0.029764	0.16417	0.23825	0.1288	0.12026	0.20134	0.027599	0.28091	0.35843	0.10662	0.083848	-2.4292	-2.5792	-2.5854	-3.0187	-2.6958	-2.6583	-2.7604	-2.6562	-2.8646	-2.5271	-2.7313	-2.9437	-2.5958	-2.8646	-2.8104	-2.5875	-54.954	190.960	-105.707	102.374	22.229	23.081	204.397	130.046	59.278	-113.206	189.244	3.073	178.140	-136.984	182.074	-139.243	0.00028424	0.00024703	4.3921e-05	358.15	5.9262e-06	1.3862e-06	488.33	128.65	1.1887e-06	3.5552e-06	210.14	80.014	47.927	20.01	2.7162e-06	35.366	0.00020297	0.00019518	5.4131e-05	376.99	2.1428e-06	2.1632e-06	502.37	132.58	2.1547e-06	2.1308e-06	213.1	81.917	49.606	20.431	2.1804e-06	35.838	197.397	-44.921	-113.986	-142.430	-39.882	-90.964	-143.052	-137.525	-50.327	37.991	-139.297	-136.335	-134.173	-129.825	17.234	-132.396	-8191	255	
1048.884	1	1	0	0	0.19816	0.16219	0.34458	0.086963	0.017857	0.24161	0.16036	0.15065	0.18871	0.1511	0.28211	0.37175	0.25361	0.12132	0.19757	0.28304	-2.4375	-2.5583	-2.3521	-2.975	-2.6458	-2.7104	-2.975	-2.5812	-2.8583	-2.7938	-2.6813	-2.8	-2.5979	-2.7354	-2.6437	-2.5396	-154.089	-118.973	150.282	10.302	26.717	121.849	141.806	-108.745	-80.602	-79.558	144.906	-124.530	104.329	14.730	-136.398	41.468	0.00031919	0.00034807	7.1578e-05	359.81	4.3903e-06	2.6047e-06	491.08	129.93	2.4916e-06	3.6099e-06	211.44	81.253	48.229	19.989	2.4323e-06	35.369	0.00020491	0.00019607	5.4355e-05	377.65	2.1418e-06	2.1408e-06	503.11	133.08	2.1684e-06	2.15e-06	214.29	82.51	49.767	20.488	2.1817e-06	35.865	188.339	-83.540	-78.368	-142.154	-40.815	-46.850	-142.869	-137.336	-92.264	-11.951	-139.267	-136.240	-134.230	-129.950	-46.674	-132.369	-8191	255	
1049.003	1	1	0	0	0.13502	0.34926	0.2128	0.17214	0.12168	0.11719	0.11036	0.30336	0.077412	0.15881	0.24097	0.11504	0.087168	0.29482	0.1119	0.29434	-2.3937	-2.625	-2.4979	-2.7	-2.5521	-2.6083	-2.9833	-2.5229	-2.7292	-2.7875	-2.6	-2.9417	-2.6646	-2.7292	-2.8438	-2.7438	24.935	-80.579	89.586	-108.632	-61.540	-111.603	-146.090	101.182	-114.806	-53.814	160.577	89.595	91.094	150.712	-118.924	154.033	0.00029845	0.00016705	3.2134e-05	362.72	1.5533e-06	5.1227e-06	488.33	129.07	3.6288e-06	2.5061e-06	209.3	80.171	47.595	19.938	1.5175e-06	35.104	0.0002048	0.00019703	5.4871e-05	380.22	2.1716e-06	2.1795e-06	503.53	132.84	2.1208e-06	2.1601e-06	213.2	81.813	49.533	20.369	2.1434e-06	35.592	-153.424	-108.224	-143.184	-141.680	41.278	-25.316	-142.725	-137.848	-39.287	-61.696	-139.500	-136.292	-134.345	-130.198	-48.122	-132.173	-8191	255	
1049.076	1	1	0	0	0.055758	0.13577	0.061066	0.14317	0.080184	0.2009	0.22087	0.15474	0.22643	0.27917	0.24169	0.10629	0.18158	0.1201	0.25295	0.070385	-2.2938	-2.6042	-2.5208	-2.9083	-2.5375	-2.5792	-2.8583	-2.5646	-2.7313	-2.6708	-2.6479	-2.7875	-2.5687	-2.6083	-2.9813	-2.5854	-17.599	-47.334	135.626	-113.282	63.116	2.766	102.803	109.922	-135.980	-99.815	133.426	107.046	-77.850	161.979	-22.374	168.644	0.00028776	8.2433e-05	4.869e-05	359.99	2.8527e-06	6.0634e-06	492.39	129.22	2.0229e-06	5.2944e-06	209.1	79.987	47.915	19.739	1.5523e-06	34.88	0.00020409	0.00019727	5.4994e-05	378.67	2.1474e-06	2.1547e-06	504.08	132.58	2.1693e-06	2.1723e-06	212.64	81.587	49.439	20.291	2.1852e-06	35.487	201.764	-107.803	-143.158	-141.958	-16.544	-38.755	-143.002	-137.636	-6.171	-10.034	-139.447	-135.781	-134.213	-129.947	-89.541	-132.380	-8191	255	
1049.197	1	1	0	0	0.14523	0.032826	0.14764	0.11061	0.17838	0.1578	0.12833	0.19404	0.16829	0.36505	0.12825	0.20065	0.15937	0.10706	0.2751	0.18945	-2.2438	-2.75	-2.5333	-2.8854	-2.7625	-2.7854	-2.8646	-2.6604	-2.6583	-2.8271	-2.5687	-2.8979	-2.7646	-2.5583	-2.9313	-2.6792	-58.260	86.157	-22.545	-13.488	-137.241	-45.666	78.530	21.936	179.624	30.221	147.840	185.359	-139.770	-108.009	-119.881	171.476	0.00025638	0.00035021	6.7262e-05	361.9	3.5339e-07	4.0453e-06	491.7	129.39	2.6005e-06	3.6516e-06	210.09	80.064	47.989	19.742	2.1229e-06	35.187	0.00020429	0.00019628	5.5757e-05	378.96	2.1518e-06	2.1594e-06	504.35	133	2.1673e-06	2.1751e-06	213.43	81.848	49.444	20.329	2.18e-06	35.664	199.069	-43.935	-115.621	-141.710	135.585	7.415	-142.763	-137.519	-35.909	-43.604	-139.132	-136.213	-134.344	-129.996	-36.139	-132.340	-8191	255	
1049.291	1	1	0	0	0.2055	0.3057	0.038539	0.11016	0.23172	0.10693	0.17672	0.079428	0.1181	0.19181	0.23097	0.098987	0.14882	0.052734	0.070903	0.074252	-2.2979	-2.8208	-2.4	-2.7062	-2.8333	-2.4417	-2.8104	-2.5812	-2.7229	-2.9896	-2.5021	-2.8063	-2.7	-2.4125	-3.0271	-2.5229	-84.888	74.613	114.453	62.945	189.787	-31.560	167.388	151.836	96.394	141.486	169.655	167.258	158.429	-125.486	-136.576	79.022	0.00025172	0.00048685	9.4533e-05	362.78	2.2665e-06	2.3843e-06	490.7	129.13	1.0615e-06	2.5415e-06	212.23	80.823	48.172	19.955	3.4504e-06	35.324	0.00020349	0.00019756	5.4629e-05	379.32	2.1391e-06	2.1561e-06	503.65	132.77	2.1678e-06	2.1489e-06	214.3	82.262	49.739	20.434	2.1712e-06	35.86	193.512	-27.271	-108.307	-142.096	130.614	80.956	-142.816	-137.580	-17.732	69.454	-139.259	-136.090	-134.105	-130.048	33.085	-132.401	-8191	255	
1049.387	1	1	0	0	0.10335	0.093449	0.098064	0.052752	0.1021	0.092185	0.14139	0.21388	0.075135	0.15438	0.21524	0.15218	0.32093	0.27226	0.08887	0.19026	-2.2333	-2.7854	-2.4479	-2.8563	-2.8354	-2.325	-2.8125	-2.85	-2.6813	-2.9146	-2.5292	-2.6333	-2.6583	-2.4562	-2.6813	-2.6417	52.863	-58.911	10.157	138.899	-104.770	125.613	199.985	144.727	13.537	-80.195	36.437	-66.698	157.035	-93.467	-66.924	152.921	0.00026526	0.00030498	4.5596e-05	362.81	3.9593e-06	2.1226e-06	490.16	128.53	2.7023e-06	1.3337e-06	210.52	80.781	47.876	19.918	2.092e-06	35.08	0.00020493	0.00019833	5.5523e-05	379.87	2.1636e-06	2.1646e-06	505.07	132.4	2.1784e-06	2.1493e-06	213.62	82.215	49.565	20.438	2.1606e-06	35.678	196.566	-77.785	58.912	-141.496	-4.055	-111.515	-142.525	-137.335	-36.419	-35.988	-139.351	-136.172	-134.060	-130.111	0.041	-131.734	-8191	255	
1049.483	1	1	0	0	0.028331	0.12895	0.11769	0.20484	0.29996	0.23479	0.068299	0.076266	0.1063	0.12022	0.17602	0.097428	0.16734	0.3518	0.10325	0.27719	-2.1604	-2.9104	-2.5521	-2.6208	-2.8396	-2.4813	-2.6896	-2.6208	-2.7354	-2.8958	-2.8208	-2.7354	-2.8479	-2.5229	-2.8583	-2.8	34.653	197.035	50.902	160.266	186.164	58.431	-79.345	177.070	66.186	73.683	139.802	3.669	175.440	-122.150	1.805	131.327	0.00027362	0.00060148	0.00011874	362.2	9.4274e-07	5.1427e-06	492.21	128.15	2.9305e-06	3.0534e-06	208.7	79.929	47.679	19.836	1.6573e-06	35.178	0.00020466	0.00019611	5.5238e-05	380.48	2.1555e-06	2.1759e-06	504.56	132.04	2.1536e-06	2.1703e-06	212.51	81.45	49.204	20.347	2.2029e-06	35.589	201.946	-107.557	-98.015	-142.295	163.386	-5.399	-142.494	-137.214	-49.213	-60.171	-139.324	-136.331	-134.171	-130.167	-79.150	-132.036	-8191	255	
1049.604	1	1	0	0	0.096541	0.13248	0.21781	0.017406	0.086795	0.058207	0.23783	0.21092	0.089781	0.06269	0.165	0.2189	0.24252	0.13073	0.17509	0.15506	-2.0042	-2.7125	-2.5771	-2.5687	-2.8792	-2.6396	-2.95	-2.9542	-2.5938	-2.8979	-2.7208	-2.6542	-2.9437	-2.5312	-2.6562	-2.7625	-71.734	4.553	90.287	-64.607	-45.094	102.209	-151.882	93.031	40.183	66.011	-119.738	40.112	-129.948	88.853	-34.032	171.812	0.00031055	0.00039194	6.131e-05	366.74	5.1522e-07	4.4417e-06	489.81	127.73	2.4841e-06	1.8331e-06	208.85	79.385	47.478	19.786	1.785e-06	35.245	0.00020875	0.00019957	5.5662e-05	383.29	2.1805e-06	2.1596e-06	505.97	131.65	2.1666e-06	2.1757e-06	211.87	81.392	49.18	20.312	2.1849e-06	35.699	203.171	-62.180	-79.679	-142.328	183.233	47.025	-142.639	-137.511	-15.444	-32.835	-139.193	-136.276	-134.064	-130.202	44.408	-132.247	-8191	255	
1049.700	1	1	0	0	0.22738	0.28167	0.26445	0.26082	0.18569	0.074314	0.12842	0.13264	0.31997	0.27148	0.2069	0.20765	0.3381	0.12022	0.196	0.1836	-2.0312	-2.7812	-2.5208	-2.7792	-2.9271	-2.5854	-2.8146	-2.6479	-2.3708	-2.9792	-2.8063	-2.7167	-2.9542	-2.6146	-2.8146	-2.9354	-65.376	6.908	38.173	91.711	-0.495	-96.769	135.817	128.676	-130.563	197.669	58.045	11.654	108.586	-149.689	-142.855	196.142	0.00028785	0.00031393	5.4543e-05	363.35	5.6354e-06	2.6981e-06	491.46	128.66	2.0449e-06	3.1924e-06	209.24	79.818	47.57	19.942	1.8034e-06	35.607	0.00020639	0.00019892	5.5656e-05	380.54	2.1967e-06	2.1738e-06	506.2	131.98	2.2165e-06	2.1636e-06	212.91	81.781	49.257	20.488	2.2189e-06	36.128	204.522	-40.135	-1.984	-142.069	-76.844	-29.393	-142.592	-137.393	-61.204	-80.752	-139.099	-136.039	-134.055	-130.254	-88.474	-132.357	-8191	255	
1049.772	1	1	0	0	0.26	0.13632	0.17111	0.23498	0.13402	0.18491	0.20266	0.17227	0.17076	0.34342	0.17536	0.17486	0.1256	0.089285	0.1593	0.10715	-2.0042	-2.7562	-2.7521	-2.725	-2.8312	-2.5958	-2.7604	-2.8458	-2.5167	-2.9146	-2.7667	-2.6167	-2.8771	-2.6542	-2.625	-3.1021	119.393	40.871	134.578	35.543	-117.188	33.225	69.874	-120.836	-77.904	-154.069	127.353	-49.319	-113.764	137.732	-34.875	129.151	0.00032034	0.00039276	7.6585e-06	361.27	8.6642e-07	6.0046e-06	494.12	128.84	2.3042e-06	1.7704e-06	210.69	81.261	48.376	20.405	3.144e-06	36.106	0.00020385	0.0001974	5.5301e-05	379.89	2.1654e-06	2.1819e-06	505.28	132.54	2.1779e-06	2.1594e-06	214.09	82.819	49.877	20.852	2.1824e-06	36.528	200.210	-76.273	-113.352	-141.438	-21.815	38.056	-142.498	-137.532	-93.599	7.102	-139.201	-136.114	-134.318	-129.837	-57.699	-132.320	-8191	255	
1049.868	1	1	0	0	0.10935	0.16976	0.15697	0.25559	0.05425	0.15513	0.22193	0.14831	0.13332	0.15076	0.069408	0.18044	0.19426	0.11521	0.27065	0.17025	-2.1021	-2.7188	-2.525	-2.3312	-2.7812	-2.525	-2.7875	-2.8479	-2.5438	-2.8646	-2.9021	-2.4833	-2.7875	-2.7354	-2.5396	-2.9562	87.308	-132.615	-108.361	-61.084	154.499	197.298	37.416	47.878	-52.594	-37.655	171.921	70.370	127.508	-52.465	-61.769	114.648	0.00029941	0.00020599	7.3102e-05	364.36	2.8275e-06	2.692e-06	487.96	128.73	1.3948e-06	2.4831e-07	209.89	81.06	48.613	20.475	2.2219e-06	35.883	0.0002048	0.00019662	5.5192e-05	379.55	2.1651e-06	2.1383e-06	502.24	132.63	2.1688e-06	2.1646e-06	212.83	82.69	49.895	20.895	2.1638e-06	36.384	196.112	-41.508	-12.719	-141.577	-20.940	0.959	-143.089	-137.583	-51.874	-33.034	-139.066	-136.096	-134.385	-129.927	-107.586	-132.213	-8191	255	
1049.989	1	1	0	0	0.34174	0.15689	0.18033	0.18292	0.18491	0.18318	0.12753	0.18765	0.26039	0.13069	0.12306	0.10363	0.22594	0.1854	0.095133	0.20208	-2.0792	-2.6083	-2.7521	-2.5938	-2.8167	-2.7896	-2.55	-3.1604	-2.75	-2.7292	-2.8875	-2.4771	-2.9042	-2.7771	-2.6188	-2.975	130.940	192.483	-63.778	-69.344	92.831	-20.026	40.101	-45.773	-35.348	-30.092	133.148	147.070	-62.384	198.081	61.805	121.007	0.00027404	0.00033914	7.9154e-05	360.44	2.0694e-06	3.8106e-06	486.22	127.68	1.5728e-06	3.7837e-06	208.85	80.345	47.792	20.276	1.14e-06	35.776	0.00020327	0.00019575	5.5061e-05	377.23	2.1407e-06	2.1405e-06	499.38	131.43	2.1432e-06	2.1713e-06	211.85	81.991	49.45	20.727	2.1989e-06	36.236	195.507	38.332	-23.947	-141.704	-1.962	-9.117	-142.775	-137.187	-45.709	94.189	-138.971	-136.112	-134.141	-129.989	-37.749	-132.305	-8191	255	
1050.085	1	1	0	0	0.066346	0.046081	0.15311	0.13504	0.071082	0.12701	0.16251	0.22321	0.1339	0.28493	0.12485	0.23856	0.085518	0.11814	0.098791	0.11354	-2.2042	-2.7083	-2.9021	-2.6042	-2.7313	-2.6958	-2.6354	-2.9208	-2.5979	-2.5792	-2.8812	-2.8792	-2.7229	-2.6833	-2.6854	-2.8104	-87.028	-36.034	-33.996	55.252	131.572	-124.288	128.097	144.249	40.451	-102.874	139.555	190.896	-8.762	-120.256	-138.388	-60.566	0.00028791	0.00021092	6.9348e-05	363.72	2.2652e-06	1.6113e-06	485.14	126.53	2.7117e-06	2.0779e-06	207.59	79.668	47.323	20.07	3.9686e-06	35.762	0.00020458	0.0001982	5.5756e-05	377.1	2.1839e-06	2.1782e-06	500.14	130.26	2.1751e-06	2.1775e-06	210.51	81.616	49.194	20.666	2.171e-06	36.275	203.114	-9.343	-59.673	-142.034	-42.234	-46.837	-142.868	-137.330	-14.724	28.764	-139.340	-136.153	-133.924	-130.044	-43.294	-132.224	-8191	255	
1050.179	1	1	0	0	0.11129	0.3218	0.31668	0.15899	0.20698	0.079721	0.24473	0.0081814	0.27189	0.11234	0.1419	0.22652	0.21081	0.074583	0.20888	0.18524	-2.1167	-2.5021	-2.7812	-2.6375	-2.8458	-2.6854	-2.6583	-2.7625	-2.7083	-2.4562	-2.875	-2.6167	-2.7646	-2.7375	-2.5708	-2.7583	51.941	-35.930	99.422	-93.502	138.065	-21.770	151.421	102.083	-34.525	103.963	166.618	171.556	-17.559	-45.156	109.367	61.391	0.00028359	0.00028548	6.6099e-05	359.58	4.1427e-06	3.383e-06	483.25	126.12	1.6103e-06	2.5503e-06	206.38	80.25	47.803	20.044	2.9758e-06	35.786	0.00020473	0.00019892	5.5119e-05	377.37	2.182e-06	2.1784e-06	496.52	130.03	2.1434e-06	2.1724e-06	209.71	81.674	49.036	20.595	2.1545e-06	36.284	199.297	-71.429	39.976	-141.577	-47.429	-39.397	-142.807	-137.302	50.067	8.985	-139.062	-135.634	-134.044	-129.986	-40.695	-132.292	-8191	255	
1050.300	1	1	0	0	0.06092	0.26136	0.080878	0.14083	0.14822	0.13804	0.29152	0.30658	0.11642	0.25069	0.16555	0.072351	0.1161	0.15787	0.10057	0.17786	-2.2708	-2.6146	-2.7333	-2.7354	-2.725	-2.7812	-2.6813	-2.7521	-2.8104	-2.5979	-2.9708	-2.6229	-2.7438	-2.8354	-2.35	-2.8021	117.652	36.861	-84.235	200.558	-126.110	132.332	155.144	127.817	-124.373	-3.643	-133.458	-141.074	-84.766	137.516	43.037	-33.429	0.00024169	8.1888e-05	0.00012125	355.98	3.4176e-07	4.2507e-06	477.7	126.08	3.0689e-06	7.5173e-07	206.08	79.91	47.463	20.118	2.3715e-06	35.619	0.00020581	0.00019654	5.5313e-05	372.93	2.1381e-06	2.1647e-06	493.08	129.72	2.1285e-06	2.1392e-06	209.5	81.601	49.007	20.536	2.1581e-06	36.145	198.014	27.905	-29.988	-141.821	-42.376	-24.485	-142.471	-137.412	-65.256	10.587	-139.410	-136.007	-134.269	-129.953	-1.735	-132.597	-8191	255	
1050.371	1	1	0	0	0.050545	0.20512	0.26537	0.088229	0.021436	0.16358	0.1298	0.1433	0.0094438	0.15893	0.026786	0.11628	0.31406	0.12766	0.23395	0.26857	-2.4042	-2.5938	-2.8104	-2.6271	-2.4958	-2.7104	-2.6417	-2.7417	-2.8729	-2.4271	-2.9188	-2.5438	-2.6167	-2.7792	-2.6167	-2.8708	-1.588	25.280	117.761	190.162	178.005	-121.106	80.814	189.987	-13.565	40.049	170.825	161.060	107.840	-117.344	159.212	175.566	0.00026146	0.00049298	0.00011524	353.16	6.0464e-07	3.3436e-06	478.44	125.42	1.711e-06	2.9933e-06	205.62	79.617	47.546	20.084	2.2316e-06	35.632	0.00020447	0.00019524	5.4672e-05	370.79	2.1197e-06	2.1191e-06	490.35	129.62	2.1196e-06	2.1494e-06	209.02	81.228	48.956	20.56	2.1571e-06	36.067	200.517	-23.986	-78.878	-141.385	-6.538	-56.638	-142.617	-137.848	33.340	42.268	-139.199	-136.115	-134.164	-130.010	9.888	-132.079	-8191	255	
1050.468	1	1	0	0	0.12136	0.24078	0.21751	0.0733	0.067983	0.15565	0.1061	0.444	0.031672	0.30167	0.14929	0.11652	0.085783	0.28906	0.19472	0.11479	-2.4958	-2.4979	-2.7562	-2.8187	-2.7271	-2.9062	-2.425	-2.7938	-2.7604	-2.525	-2.7708	-2.6771	-2.5417	-2.8917	-2.6188	-2.8958	-68.450	-82.725	26.191	-26.436	37.180	-97.830	-30.640	114.705	-108.626	46.369	-150.035	57.852	-5.180	86.865	140.634	-119.362	0.00032011	0.00020452	0.0001149	351.68	2.2511e-06	2.2656e-06	476.27	126.02	1.1178e-06	9.7147e-07	206.26	79.82	47.528	19.972	1.983e-06	35.689	0.00020403	0.00019582	5.427e-05	371.3	2.1387e-06	2.1665e-06	490.51	129.58	2.1397e-06	2.1672e-06	208.74	81.183	48.911	20.47	2.1654e-06	36.184	193.173	-82.547	-59.311	-141.653	-3.350	4.387	-142.674	-137.672	-1.218	18.798	-139.567	-136.097	-134.212	-130.138	0.852	-132.423	-8191	255	
1050.564	1	1	0	0	0.13426	0.27875	0.28503	0.10845	0.11221	0.16851	0.12383	0.32234	0.13739	0.073868	0.2509	0.099708	0.060229	0.15733	0.028253	0.12451	-2.5021	-2.3604	-2.9	-2.6437	-2.4792	-2.8937	-2.4667	-2.7062	-2.8083	-2.4938	-2.8104	-2.8042	-2.5854	-2.7792	-2.5917	-2.7792	77.497	-42.875	-27.833	90.647	-122.748	103.215	-82.567	79.019	72.392	28.193	92.563	128.089	134.195	7.814	-58.725	117.362	0.00025671	0.00044068	9.5804e-05	356.02	5.4069e-07	5.6392e-06	478.23	125.23	1.7468e-06	3.4289e-06	205.7	79.166	47.299	19.807	1.8462e-06	35.537	0.00020164	0.0001966	5.4233e-05	371.9	2.1653e-06	2.1614e-06	491.36	129.31	2.154e-06	2.1444e-06	208.27	80.862	48.608	20.343	2.1543e-06	36.051	202.731	-92.216	-51.998	-141.773	39.849	-78.256	-142.611	-137.314	153.460	53.168	-139.262	-136.081	-133.941	-130.009	121.336	-132.168	-8191	255	
1050.684	1	1	0	0	0.14374	0.10831	0.25212	0.17852	0.19374	0.074528	0.29238	0.27974	0.019198	0.10015	0.10802	0.17302	0.19987	0.15172	0.11992	0.20219	-2.4583	-2.5208	-2.7438	-2.7396	-2.3917	-2.7188	-2.7292	-2.4979	-2.8458	-2.5021	-2.7292	-2.7479	-2.4646	-2.8521	-2.7646	-2.65	150.911	-72.513	-47.902	170.688	179.389	145.028	-127.272	52.578	-88.659	87.112	119.965	125.758	193.404	93.967	62.417	149.058	0.0003154	0.00024646	6.4488e-05	356.41	1.6591e-06	3.3963e-07	481.78	124.92	4.6663e-06	1.8773e-06	204.82	79.191	46.646	19.72	2.4997e-06	35.313	0.00020463	0.00019933	5.5276e-05	371.61	2.1885e-06	2.158e-06	494.43	128.89	2.1642e-06	2.1531e-06	208.39	80.721	48.373	20.276	2.1824e-06	35.827	203.671	-34.379	-149.383	-141.647	-33.465	-148.570	-142.792	-137.276	-50.693	14.947	-139.115	-135.878	-134.252	-129.678	43.870	-132.442	-8191	255	
1050.780	1	1	0	0	0.23379	0.17451	0.17939	0.1089	0.12933	0.21803	0.16216	0.15471	0.14896	0.15649	0.01553	0.045344	0.26453	0.091941	0.1452	0.20879	-2.4938	-2.4479	-2.7854	-2.8667	-2.5312	-2.8771	-2.8146	-2.725	-2.8688	-2.6729	-2.8771	-2.7188	-2.6125	-2.8583	-2.6813	-2.7104	-116.538	-27.711	147.396	-22.837	-101.525	4.153	-114.372	-131.025	31.710	-9.419	-5.593	-127.050	151.416	-127.026	27.931	132.717	0.00026418	0.00016409	0.00010246	356.88	4.4867e-06	2.0332e-06	481.48	125.2	3.1463e-06	2.5899e-06	204.03	77.856	45.939	19.533	1.8326e-06	34.867	0.00020306	0.00019628	5.477e-05	373.74	2.1813e-06	2.1745e-06	494.88	128.6	2.1758e-06	2.1902e-06	206.92	79.554	47.777	19.972	2.2114e-06	35.442	199.642	159.035	16.747	-141.867	-33.690	12.635	-143.070	-137.423	-48.119	-102.324	-139.382	-135.876	-133.927	-130.140	18.056	-132.049	-8191	255	
1050.877	1	1	0	0	0.18874	0.095624	0.19381	0.24858	0.056946	0.21667	0.16689	0.089856	0.071682	0.20045	0.03743	0.23453	0.03072	0.28793	0.13221	0.22577	-2.3896	-2.4875	-2.7542	-2.7375	-2.675	-3.0083	-2.6562	-2.6458	-2.9146	-2.5417	-2.5792	-2.8354	-2.6292	-2.7104	-2.6	-2.7354	135.237	102.412	13.550	202.837	93.946	-72.350	155.255	105.611	-101.672	169.468	-139.131	160.199	-57.588	-45.480	140.313	23.392	0.00030428	0.00021675	4.9621e-05	357.85	1.699e-06	2.1199e-06	484.35	123.89	1.8683e-06	1.8831e-06	201.4	77.199	45.747	19.428	2.2794e-06	35.008	0.00020725	0.00019969	5.5788e-05	374.97	2.1809e-06	2.182e-06	496.5	127.91	2.1918e-06	2.1792e-06	205.71	79.08	47.561	19.965	2.1912e-06	35.511	189.664	-92.121	110.041	-141.822	81.277	60.870	-143.037	-137.347	19.923	-39.659	-139.107	-136.315	-133.946	-129.634	-32.812	-132.009	-8191	255	
1050.997	1	1	0	0	0.22109	0.16918	0.13302	0.069376	0.17834	0.17408	0.44408	0.098561	0.12482	0.12502	0.081958	0.2251	0.24248	0.13918	0.18359	0.21011	-2.3021	-2.6083	-2.5417	-2.9375	-2.65	-2.9	-2.7625	-2.6937	-2.7896	-2.5771	-2.5771	-2.8375	-2.3812	-2.7292	-2.8104	-2.5833	46.617	-63.274	-117.238	-37.699	48.698	90.159	102.822	-131.525	109.847	81.010	-37.215	148.749	-141.237	-119.522	-146.225	130.417	0.00030771	0.00016733	8.9987e-05	358.57	3.1426e-06	1.5604e-06	482.24	123.65	2.0544e-06	1.1038e-06	203.06	78.084	46.092	19.641	3.295e-06	35.26	0.00020383	0.00019778	5.5494e-05	374.21	2.1716e-06	2.1428e-06	495.89	127.48	2.1691e-06	2.1935e-06	206.48	79.783	47.842	20.097	2.155e-06	35.805	197.650	-111.871	-117.110	-142.245	-83.576	60.502	-142.550	-137.389	-13.705	180.453	-139.018	-136.431	-134.163	-129.836	8.311	-132.033	-8191	255	
1051.069	1	1	0	0	0.11238	0.22566	0.25517	0.1412	0.32673	0.18808	0.099124	0.16856	0.076763	0.24593	0.26808	0.30581	0.27508	0.097769	0.19119	0.076699	-2.4792	-2.5917	-2.4437	-2.8479	-2.6104	-2.8104	-2.8167	-2.5354	-2.85	-2.7333	-2.5458	-2.6708	-2.8167	-2.6771	-2.8479	-2.8479	46.952	-65.356	83.309	42.930	122.395	-77.370	145.032	-141.979	-80.974	73.054	-80.611	117.150	0.876	174.012	-121.789	121.101	0.00028424	0.00019144	2.2614e-05	356.44	5.511e-06	9.5189e-07	486.74	125.4	1.7904e-06	9.5983e-07	205.6	79.408	46.63	19.897	5.2132e-06	35.675	0.00020337	0.0001964	5.463e-05	374.45	2.1546e-06	2.1689e-06	497.68	129.27	2.1658e-06	2.1535e-06	209	80.9	48.411	20.373	2.1458e-06	36.21	189.990	-24.092	160.443	-141.117	-20.217	-6.546	-142.729	-137.537	-72.872	-106.470	-139.152	-136.013	-134.131	-129.813	-48.306	-132.151	-8191	255	
1051.165	1	1	0	0	0.16783	0.046607	0.080092	0.10967	0.33681	0.099405	0.24372	0.075577	0.082074	0.16526	0.25502	0.18826	0.051546	0.03933	0.15991	0.15653	-2.3625	-2.5938	-2.3792	-3.0875	-2.5667	-2.6792	-3.0417	-2.6396	-2.7042	-2.8625	-2.6521	-2.8167	-2.5292	-2.4958	-2.9146	-2.5354	200.360	-4.838	133.560	131.191	182.926	-93.667	-151.484	197.633	-136.359	-103.849	185.133	-5.361	32.097	203.760	-87.560	193.929	0.00027033	0.00060521	6.0086e-05	359.7	4.6898e-07	4.9519e-06	483.84	125.41	8.2219e-07	4.537e-06	205.04	79.854	46.702	19.878	7.7683e-07	35.819	0.00020512	0.0001975	5.5207e-05	374.95	2.1326e-06	2.1302e-06	497.21	129.39	2.157e-06	2.1797e-06	209.29	81.299	48.346	20.425	2.1649e-06	36.236	195.686	-4.264	-86.867	-142.244	-81.495	-23.873	-142.976	-137.335	-128.013	31.594	-139.385	-136.046	-133.553	-129.525	-4.644	-132.388	-8191	255	
1051.284	1	1	0	0	0.18245	0.2003	0.27635	0.12724	0.17199	0.15257	0.15349	0.35232	0.15763	0.092633	0.087689	0.27935	0.18363	0.049886	0.30502	0.13206	-2.3333	-2.6354	-2.7042	-2.9021	-2.6688	-2.6333	-2.9813	-2.6042	-2.8479	-2.8792	-2.6125	-2.8187	-2.5958	-2.5708	-2.7854	-2.6729	152.566	-87.178	-17.897	152.559	152.682	-108.660	158.903	172.735	-15.759	192.549	38.407	80.284	5.024	116.173	-49.357	112.484	0.00026268	0.00043634	2.6357e-05	357.79	3.2938e-06	2.6241e-06	483.38	124.34	2.5752e-06	4.5575e-06	203.84	79.029	46.919	20.064	4.2763e-06	35.522	0.00020288	0.00019433	5.4318e-05	373.25	2.1615e-06	2.1341e-06	495.05	128.61	2.1523e-06	2.1454e-06	207.87	80.873	48.591	20.527	2.1408e-06	36.222	192.475	-50.757	-153.909	-141.812	4.965	-23.715	-142.796	-137.215	-43.690	38.495	-139.295	-136.297	-133.876	-130.069	-4.008	-132.229	-8191	255	
1051.380	1	1	0	0	0.17349	0.090702	0.19899	0.0066349	0.019526	0.38017	0.19232	0.33267	0.16499	0.2297	0.039235	0.21753	0.26628	0.060575	0.087451	0.1334	-2.4229	-2.8333	-2.3917	-2.6521	-2.7292	-2.5812	-2.9313	-2.5083	-2.5667	-2.8979	-2.5083	-3.0417	-2.8	-2.5146	-3.0792	-2.7292	92.533	142.027	16.349	123.414	-134.160	153.059	88.867	75.050	137.076	132.642	172.960	-108.953	33.872	-127.754	-129.165	137.946	0.00029008	0.00011944	5.3397e-05	354.4	1.109e-06	4.1484e-06	482	124.99	4.1855e-06	3.0623e-06	205.5	79.862	46.994	20.115	1.8379e-06	35.924	0.00020437	0.00019375	5.4393e-05	372.83	2.1184e-06	2.1223e-06	494.77	128.99	2.1427e-06	2.1373e-06	208.51	81.325	48.619	20.598	2.144e-06	36.492	194.740	-25.781	-114.166	-141.695	-104.873	46.915	-142.691	-137.583	-21.738	83.491	-139.149	-135.968	-134.189	-129.894	-101.328	-132.193	-8191	255	
1051.476	1	1	0	0	0.19177	0.1086	0.094121	0.096187	0.051077	0.27603	0.26224	0.20773	0.062475	0.0944	0.021648	0.20066	0.19224	0.19163	0.20242	0.21338	-2.3125	-2.8646	-2.6063	-2.7958	-2.6667	-2.4625	-3.0438	-2.5583	-2.825	-2.9604	-2.5979	-2.7979	-2.85	-2.5417	-2.8521	-2.7229	-94.957	36.833	17.959	-33.515	16.875	134.025	-147.290	132.902	114.897	53.909	-29.706	74.231	137.907	160.238	-41.561	5.559	0.00028757	0.00023267	6.395e-05	354.87	4.0361e-06	1.6783e-06	480.44	124.96	3.3947e-06	3.6979e-06	205.56	80.04	47.421	20.131	1.0779e-06	36.207	0.00019986	0.0001961	5.4807e-05	373.31	2.1307e-06	2.1303e-06	494.95	128.9	2.1611e-06	2.1594e-06	208.72	81.539	48.673	20.617	2.178e-06	36.662	198.022	-154.695	-77.153	-141.562	85.177	-74.678	-142.706	-137.318	34.674	-8.573	-139.185	-135.720	-133.778	-130.021	23.427	-132.188	-8191	255	
1051.572	1	1	0	0	0.10551	0.18105	0.11554	0.09577	0.084772	0.10182	0.14979	0.023693	0.32122	0.11351	0.15723	0.1002	0.27881	0.082197	0.11429	0.14373	-2.2604	-2.9479	-2.6917	-2.6188	-2.7208	-2.5375	-2.9313	-2.7583	-2.7667	-2.7792	-2.6562	-2.7958	-2.9083	-2.5542	-2.7854	-2.6437	157.331	99.416	-19.557	-23.281	33.974	-140.887	38.129	180.043	102.574	201.064	-47.049	-104.062	188.601	22.226	-109.590	152.871	0.00026915	0.00016404	7.0288e-05	356.87	2.3171e-06	1.8753e-06	484.4	124.34	4.7782e-06	1.5062e-06	206.28	80.229	47.265	20.123	1.2948e-06	36.254	0.0002052	0.00019467	5.4643e-05	373.6	2.1569e-06	2.1515e-06	496.88	128.79	2.1419e-06	2.1449e-06	209.74	81.748	48.825	20.667	2.1788e-06	36.748	200.195	-92.323	-13.600	-142.110	-6.734	35.429	-142.486	-137.365	-61.610	-46.469	-139.079	-135.995	-133.787	-130.226	135.085	-132.319	-8191	255	
1051.669	1	1	0	0	0.068937	0.2589	0.04932	0.16829	0.039814	0.27831	0.23482	0.14067	0.29038	0.24567	0.25644	0.1622	0.11092	0.20265	0.14745	0.29305	-2.2042	-2.8167	-2.5479	-2.6979	-2.7521	-2.6271	-2.8563	-2.7687	-2.4417	-2.8792	-2.7146	-2.6833	-2.7042	-2.5333	-2.8417	-2.8646	86.104	-76.659	-77.598	148.608	-71.152	61.203	-35.464	106.782	175.747	-32.350	84.238	-9.044	-60.826	166.806	-33.112	185.284	0.00031351	0.00044831	9.8076e-05	356.29	3.7863e-06	3.2854e-06	483.95	125.56	7.4153e-07	5.1357e-06	206.54	79.724	46.857	20.061	3.6723e-06	36.144	0.0002034	0.00019602	5.4408e-05	373.61	2.1517e-06	2.1492e-06	496.51	129.24	2.1564e-06	2.1404e-06	209.48	81.371	48.606	20.583	2.1648e-06	36.508	202.949	-15.031	-49.148	-142.155	-22.555	25.547	-142.835	-137.461	-100.983	2.621	-139.319	-136.407	-134.039	-130.112	-54.535	-132.003	-8191	255	
1051.765	1	1	0	0	0.20153	0.20586	0.11283	0.061662	0.054468	0.18826	0.3005	0.15971	0.10522	0.25455	0.12037	0.29876	0.17709	0.27283	0.10939	0.18278	-2.0604	-2.8021	-2.5167	-2.45	-2.8375	-2.8438	-2.7896	-2.8187	-2.5062	-2.7729	-2.8875	-2.5438	-2.7729	-2.6542	-2.8083	-2.8729	-13.784	59.165	165.409	-59.075	71.229	-114.662	142.102	-74.953	24.584	33.626	-31.421	162.675	5.597	40.591	162.533	-141.378	0.00027825	0.00044016	0.00010566	355.48	3.0867e-06	4.8643e-06	484.49	125.17	3.9512e-06	3.0946e-06	205.06	79.716	47.315	20.038	3.0957e-06	35.743	0.00020312	0.00019419	5.4715e-05	374.33	2.1442e-06	2.147e-06	496.82	129.16	2.174e-06	2.1362e-06	208.94	81.207	48.618	20.545	2.1451e-06	36.335	199.747	-45.827	-43.708	-141.613	20.696	2.972	-142.695	-137.565	-57.839	-0.644	-139.307	-136.068	-134.275	-130.006	17.839	-132.356	-8191	255	
1051.861	1	1	0	0	0.051394	0.048244	0.23144	0.12174	0.11855	0.3095	0.15967	0.12384	0.045151	0.2	0.1764	0.13213	0.12763	0.064225	0.16286	0.11372	-2.1521	-2.8146	-2.6583	-2.6063	-2.7479	-2.7375	-2.7812	-2.8625	-2.575	-2.725	-2.5583	-2.7	-3.0167	-2.4542	-2.7292	-3.0062	-128.350	147.659	-77.828	-67.697	-38.094	1.214	198.117	108.913	76.034	20.130	-41.176	-89.942	47.491	-130.876	-11.509	88.868	0.00029023	0.00029261	0.00011561	356.41	2.1677e-06	3.1951e-06	487.39	124.25	2.3243e-06	2.4e-06	205.16	79.592	47.217	19.916	9.0584e-07	35.965	0.00020379	0.00019842	5.4716e-05	376.05	2.1363e-06	2.1508e-06	498.83	128.52	2.1972e-06	2.1516e-06	208.98	81.119	48.601	20.486	2.1832e-06	36.422	202.496	-1.815	-74.367	-141.827	-99.590	78.156	-142.650	-137.695	-3.685	-31.371	-139.066	-135.870	-133.886	-130.172	-136.067	-132.201	-8191	255	
1051.957	1	1	0	0	0.25912	0.25193	0.021763	0.055873	0.060634	0.23588	0.22185	0.16195	0.088889	0.18039	0.18782	0.14414	0.1148	0.038262	0.24573	0.079612	-1.9854	-2.725	-2.8979	-2.5563	-2.8396	-2.7438	-2.6396	-2.8688	-2.6146	-2.6896	-2.6521	-2.6063	-2.9062	-2.7271	-2.5833	-3.1083	60.394	14.112	-76.846	120.096	-47.318	41.801	176.976	116.202	-152.237	-131.356	-144.043	-60.411	-1.629	-55.924	-52.645	-108.956	0.00026175	0.00032768	6.6094e-05	356.43	1.7098e-06	3.3946e-06	488.24	126.16	4.246e-06	4.8277e-06	207.08	80.04	47.018	20.147	2.3739e-06	35.971	0.00020545	0.00019744	5.4176e-05	375.99	2.1478e-06	2.1694e-06	500.03	129.62	2.1507e-06	2.1701e-06	210.74	81.712	48.84	20.616	2.1494e-06	36.594	200.105	-62.682	-33.044	-141.644	-42.027	146.252	-142.534	-137.490	-62.639	-4.516	-139.049	-135.796	-134.017	-129.831	-86.852	-132.019	-8191	255	
1052.076	1	1	0	0	0.19322	0.28899	0.080376	0.1778	0.19575	0.23688	0.13499	0.0038851	0.1784	0.080291	0.19087	0.059175	0.17558	0.18533	0.40374	0.2695	-1.9583	-2.7042	-2.7458	-2.5417	-2.825	-2.8521	-2.4562	-2.7646	-2.5896	-2.9604	-3.0542	-2.5333	-2.6583	-2.5563	-2.5729	-2.875	-133.630	11.453	-78.786	-122.593	-44.756	-124.827	188.258	-128.882	-1.554	-64.996	5.493	-146.494	-115.094	-87.773	-25.322	110.310	0.00032615	0.00035248	7.4904e-05	357.46	2.0495e-06	2.6603e-06	489.25	125.07	1.7811e-06	2.5855e-06	207.52	80.223	47.289	20.151	1.8465e-06	35.843	0.00020384	0.00019748	5.4629e-05	376.49	2.1721e-06	2.1269e-06	501.89	129.22	2.1846e-06	2.1749e-06	210.65	81.867	48.846	20.613	2.1522e-06	36.412	198.068	136.803	-92.063	-142.217	-36.127	-8.723	-142.702	-137.315	-110.885	-15.045	-139.100	-136.133	-134.328	-129.991	-60.856	-132.134	-8191	255	
1052.172	1	1	0	0	0.08677	0.045537	0.39054	0.080459	0.10438	0.10643	0.034409	0.16281	0.065036	0.27882	0.087212	0.06149	0.30472	0.10288	0.085868	0.094939	-2.0271	-2.6958	-2.9021	-2.4729	-2.7562	-2.6042	-2.4896	-2.9125	-2.5396	-2.5354	-2.8688	-2.4083	-2.775	-2.6354	-2.7188	-2.8271	24.342	-16.874	-139.736	135.892	18.341	160.397	22.834	49.175	95.399	111.550	81.553	-47.421	-37.159	196.477	-38.559	44.779	0.00029236	0.00021388	2.7909e-05	362.47	3.5478e-06	3.4013e-06	484.53	125.29	2.7147e-06	2.6203e-06	205.46	79.361	46.633	19.921	1.4765e-06	35.964	0.00020404	0.00019713	5.4879e-05	377.89	2.1573e-06	2.157e-06	499.31	128.78	2.1603e-06	2.162e-06	209.39	81.221	48.451	20.5	2.2078e-06	36.339	201.800	-24.612	-154.380	-141.716	-44.891	-42.379	-143.005	-137.788	-13.775	-12.309	-138.849	-136.168	-134.300	-129.833	-9.980	-132.047	-8191	255	
1052.245	1	1	0	0	0.20411	0.2445	0.19709	0.069573	0.19001	0.2436	0.067997	0.29989	0.081966	0.22281	0.25652	0.21859	0.09029	0.059106	0.14043	0.059063	-2.0625	-2.5042	-2.8812	-2.6854	-2.6896	-2.6271	-2.5542	-2.6708	-2.7	-2.6521	-2.9813	-2.7104	-2.8104	-2.7146	-2.5229	-2.8688	11.492	176.240	-131.720	44.880	-14.036	145.630	-14.200	-17.230	118.322	-0.434	62.880	136.034	20.889	0.213	193.834	-65.814	0.0003267	0.00038357	4.3969e-05	361.5	2.5561e-06	2.8998e-06	488.97	125.03	3.2129e-06	2.7827e-06	206.18	79.945	47.127	20.063	2.8378e-06	35.851	0.00020602	0.00019804	5.5318e-05	377.67	2.1855e-06	2.1976e-06	501.26	129.04	2.1882e-06	2.165e-06	209.75	81.294	48.632	20.573	2.1897e-06	36.333	203.071	-46.570	15.226	-141.729	-1.760	33.850	-142.698	-137.492	-69.267	9.549	-139.326	-135.953	-134.150	-129.914	-8.666	-132.280	-8191	255	
1052.364	1	1	0	0	0.12312	0.068999	0.1776	0.14042	0.16862	0.23862	0.083471	0.11459	0.23718	0.13282	0.10474	0.25391	0.26312	0.28456	0.12463	0.26389	-2.2271	-2.7333	-2.9313	-2.5854	-2.6625	-2.9667	-2.6063	-2.925	-2.6562	-2.6146	-2.8812	-2.6083	-2.7729	-2.7396	-2.6188	-2.775	143.885	86.281	124.249	28.805	20.310	150.536	86.897	176.748	-65.035	-44.118	99.346	184.684	69.893	153.633	-31.065	112.585	0.00031389	0.00021641	0.00010425	361.68	1.3535e-06	1.8852e-06	490.16	124.91	3.1299e-06	2.1865e-06	206.87	79.769	46.691	19.994	3.7315e-06	35.97	0.00020792	0.0002002	5.5861e-05	379.07	2.1727e-06	2.1946e-06	502.77	128.77	2.1798e-06	2.1891e-06	209.57	81.495	48.541	20.571	2.2343e-06	36.482	200.227	-1.999	-27.761	-141.448	92.920	-10.210	-142.396	-137.367	-41.253	100.936	-138.844	-135.808	-134.321	-129.757	-24.780	-132.271	-8191	255	
1052.460	1	1	0	0	0.2164	0.052573	0.13124	0.28476	0.17091	0.12288	0.090831	0.19126	0.30437	0.34113	0.33266	0.14877	0.14911	0.32298	0.1742	0.12071	-2.2396	-2.6146	-2.7667	-2.5208	-2.7271	-2.6396	-2.6708	-2.8583	-2.7042	-2.4188	-3.0229	-2.6479	-2.6208	-2.8354	-2.6063	-2.7604	0.982	185.111	58.252	-51.467	41.082	7.152	89.933	-50.090	-59.607	-9.253	-149.238	117.543	75.758	150.992	123.773	126.884	0.00030066	5.7448e-05	7.1421e-05	364.21	2.826e-06	3.3027e-06	495.56	124.84	9.3119e-07	3.8812e-06	206.93	80.267	47.121	20.096	1.4252e-06	35.997	0.00020908	0.00020082	5.5765e-05	379.69	2.2031e-06	2.2125e-06	506.97	128.85	2.2059e-06	2.1997e-06	210.3	81.743	48.632	20.602	2.2127e-06	36.55	201.761	-102.412	102.543	-142.043	8.330	50.654	-142.788	-137.453	21.596	-14.435	-139.074	-135.947	-133.544	-130.010	-5.657	-132.195	-8191	255	
1052.557	1	1	0	0	0.06833	0.046595	0.16445	0.14033	0.16364	0.23385	0.19842	0.26478	0.0030829	0.050632	0.18225	0.18609	0.12349	0.28525	0.24725	0.34996	-2.2396	-2.3937	-2.7167	-2.6875	-2.5583	-2.9292	-2.7021	-2.8312	-2.8917	-2.5271	-2.8771	-2.5521	-2.5042	-2.8708	-2.5854	-2.8083	-91.792	138.643	-26.155	75.368	111.703	49.620	-52.454	172.069	148.837	-113.181	158.095	159.855	-69.133	194.994	-131.899	199.471	0.00027021	0.00016424	7.9139e-05	362.48	1.9432e-06	3.4294e-06	492.7	125.42	3.2807e-06	1.4385e-06	206.16	79.765	46.798	20.122	2.6142e-06	35.828	0.00020941	0.00020298	5.6547e-05	381.33	2.1827e-06	2.1876e-06	506.17	129.35	2.2003e-06	2.1949e-06	210.24	81.567	48.621	20.574	2.2457e-06	36.306	199.636	-36.695	-58.987	-141.870	-24.821	22.374	-142.787	-137.443	-30.716	36.074	-139.291	-136.106	-134.522	-129.909	-42.737	-132.232	-8191	255	
1052.677	1	1	0	0	0.13111	0.21247	0.14964	0.14597	0.19884	0.1724	0.28058	0.24884	0.13549	0.31305	0.23295	0.18183	0.20331	0.41292	0.080788	0.039994	-2.2896	-2.4479	-2.8563	-2.775	-2.6396	-2.7667	-2.5229	-2.6729	-2.8167	-2.6063	-2.8771	-2.7812	-2.5479	-2.7979	-2.5958	-2.5833	-50.508	60.343	183.507	158.523	90.207	79.294	91.466	179.009	182.576	-36.004	-133.563	51.230	-137.747	150.461	136.615	-116.101	0.00027385	0.00017077	0.0001325	360.44	8.3434e-07	3.4778e-06	487.06	124.85	3.7039e-06	3.1121e-06	206.84	80.017	47.281	20.087	7.6213e-07	35.722	0.00020637	0.00020228	5.5882e-05	380.25	2.1985e-06	2.2105e-06	504.12	129.04	2.1948e-06	2.2322e-06	210.07	81.511	48.838	20.555	2.2215e-06	36.333	197.014	-86.086	-62.551	-141.666	-54.353	34.953	-142.721	-137.456	-79.798	49.038	-139.157	-135.998	-133.795	-129.946	114.395	-132.215	-8191	255	
1052.773	1	1	0	0	0.18181	0.11496	0.025793	0.21471	0.22565	0.17484	0.073352	0.12519	0.18646	0.23894	0.31265	0.18973	0.12727	0.10576	0.16555	0.21553	-2.4667	-2.6813	-2.6333	-2.6271	-2.4813	-2.9021	-2.6813	-2.7854	-2.7375	-2.4625	-2.9042	-2.6792	-2.6104	-2.9125	-2.7583	-2.8917	-8.151	-102.179	68.559	119.663	-105.410	114.065	146.564	203.440	-60.707	153.112	-131.800	143.509	131.020	-73.097	60.907	192.334	0.00030528	0.00018824	4.2091e-05	362.96	1.8359e-06	3.3473e-06	492.93	123.81	2.8803e-06	3.6114e-06	205.07	80.156	47.011	19.949	2.8328e-06	35.813	0.0002067	0.00020145	5.6089e-05	382.71	2.2226e-06	2.222e-06	506.15	128.21	2.2193e-06	2.2278e-06	209.59	81.487	48.568	20.494	2.2049e-06	36.292	-153.931	15.239	196.187	-141.658	-8.116	14.113	-142.802	-137.277	-86.348	-36.097	-139.220	-136.138	-133.603	-129.856	-80.488	-132.165	-8191	255	
1052.870	1	1	0	0	0.24044	0.1414	0.13894	0.055988	0.15931	0.16727	0.087588	0.17225	0.38036	0.13697	0.21951	0.11211	0.11235	0.1684	0.30497	0.19623	-2.5021	-2.5479	-2.7	-2.625	-2.6188	-2.8708	-2.6417	-2.6792	-2.9208	-2.6646	-2.7417	-2.8688	-2.4354	-2.8542	-2.7021	-2.7125	-154.578	-81.117	-64.523	160.604	0.968	107.199	-57.575	-96.148	75.267	-20.375	82.453	20.320	168.863	88.967	13.951	198.722	0.00029013	0.00022012	6.2904e-05	365.12	3.9422e-06	4.9929e-06	497.41	123.71	2.8047e-06	2.6429e-06	206.37	80.314	46.888	20.072	2.6487e-06	35.713	0.00021104	0.00020418	5.6904e-05	383.44	2.2215e-06	2.2272e-06	508.65	128.32	2.2199e-06	2.2066e-06	209.44	81.497	48.383	20.511	2.2333e-06	36.264	196.976	-2.541	-66.374	-141.438	-28.415	25.975	-142.811	-137.316	-21.441	71.035	-139.442	-135.909	-134.378	-129.722	36.763	-132.219	-8191	255	
1052.966	1	1	0	0	0.23186	0.14961	0.15658	0.13016	0.21964	0.12747	0.25366	0.2265	0.18826	0.1129	0.2649	0.053667	0.2261	0.20236	0.15202	0.037303	-2.5396	-2.3771	-2.7729	-2.8479	-2.6	-2.8604	-2.8271	-2.6021	-2.9667	-2.5625	-2.6208	-2.8563	-2.5563	-2.8458	-2.7042	-2.7062	103.243	135.351	-13.645	-31.617	-34.444	93.849	135.083	-75.748	-142.768	55.915	-3.606	146.359	-125.400	181.857	135.281	-149.492	0.00028878	0.00026216	5.4617e-05	366.53	3.5226e-06	3.8432e-06	496.56	124.26	1.134e-06	1.4337e-06	206.01	79.737	46.694	19.871	1.8934e-06	35.565	0.00020906	0.00020248	5.6069e-05	384.6	2.2349e-06	2.2079e-06	510.77	128.33	2.2215e-06	2.2145e-06	209.49	81.205	48.276	20.376	2.2175e-06	36.101	202.956	-58.563	-4.550	-141.536	-69.507	-32.859	-142.910	-137.499	-88.291	3.098	-139.333	-135.800	-134.047	-129.913	-54.826	-132.026	-8191	255	
1053.062	1	1	0	0	0.12672	0.29466	0.18895	0.23565	0.18249	0.13032	0.073366	0.37636	0.20075	0.19727	0.09391	0.19031	0.073076	0.073464	0.20328	0.22149	-2.475	-2.45	-2.625	-2.6771	-2.4938	-2.9333	-2.8979	-2.4688	-2.9437	-2.5021	-2.6917	-2.9583	-2.7125	-2.5896	-2.8333	-2.6188	-77.229	-66.729	-133.592	174.773	-95.221	162.398	-117.629	168.245	-75.629	-136.213	153.425	171.280	140.436	-106.369	83.771	-88.769	0.00029952	0.00033738	9.882e-05	368.31	2.1403e-06	1.9202e-06	496.12	124.21	3.7774e-06	2.1454e-06	205.25	78.887	46.682	19.764	1.4896e-06	35.216	0.00020755	0.00020082	5.5629e-05	383.85	2.2119e-06	2.1855e-06	507.45	127.91	2.2088e-06	2.1899e-06	208.1	80.652	48.105	20.299	2.1869e-06	35.821	203.772	-114.287	-80.745	-141.681	26.272	41.690	-142.831	-137.487	-68.571	43.625	-139.347	-135.931	-134.379	-129.709	-20.622	-132.164	-8191	255	
1053.158	1	1	0	0	0.22124	0.13883	0.11839	0.20067	0.12641	0.024601	0.25643	0.37477	0.19789	0.11941	0.15324	0.2179	0.065583	0.098369	0.15205	0.037508	-2.3375	-2.6188	-2.5917	-2.9042	-2.5625	-2.7313	-2.725	-2.3125	-2.9104	-2.7562	-2.6292	-3.1229	-2.6417	-2.6708	-2.8854	-2.6562	-91.085	-56.342	175.768	-130.365	77.261	143.482	86.114	-105.640	-127.309	-60.245	25.771	128.233	95.539	-138.739	-141.492	-121.741	0.00030569	0.00017296	6.659e-05	365.72	2.9261e-06	2.7763e-06	496.86	123.67	2.1762e-06	2.6187e-06	206.2	79.098	46.716	19.733	8.0636e-07	35.165	0.00020906	0.000204	5.557e-05	383.81	2.1924e-06	2.1884e-06	509.19	128.05	2.1957e-06	2.1856e-06	208.82	80.745	48.164	20.225	2.1984e-06	35.802	195.044	89.257	-95.023	-141.796	8.372	-55.253	-142.991	-137.349	8.189	-18.434	-139.299	-136.386	-134.126	-130.074	88.566	-132.336	-8191	255	
1053.252	1	1	0	0	0.098978	0.23474	0.171	0.20594	0.14133	0.24982	0.14204	0.028492	0.080684	0.017569	0.11383	0.20534	0.3078	0.090931	0.23015	0.11717	-2.6125	-2.5646	-2.3979	-2.8667	-2.7479	-2.5958	-3.1167	-2.5438	-2.7125	-2.8792	-2.6521	-2.8396	-2.4979	-2.7354	-2.9562	-2.6833	-122.757	24.223	93.471	-102.246	-112.029	-90.248	184.733	188.397	-148.864	58.929	42.670	103.801	-114.305	-153.301	-110.891	80.704	0.00026929	0.00036706	8.4135e-05	365.63	9.613e-07	2.5136e-06	495.55	124.4	2.5315e-06	2.1571e-06	205.55	79.081	46.092	19.67	1.2824e-06	35.307	0.00020683	0.00020022	5.5687e-05	382.39	2.1921e-06	2.2084e-06	507.81	127.75	2.2136e-06	2.1866e-06	209	80.759	47.897	20.185	2.1943e-06	35.843	197.073	-43.781	-68.240	-142.108	37.042	-2.074	-142.213	-137.334	-61.801	106.223	-139.208	-135.900	-133.677	-130.011	-52.375	-132.317	-8191	255	
1053.373	1	1	0	0	0.18718	0.17964	0.18136	0.11691	0.060525	0.15675	0.092244	0.33633	0.21424	0.053294	0.19166	0.1166	0.16301	0.31937	0.19868	0.15831	-2.4479	-2.5833	-2.5812	-2.9396	-2.6146	-2.7667	-2.9792	-2.5479	-2.7062	-2.9437	-2.6188	-2.7542	-2.6771	-2.6437	-2.8229	-2.7292	3.622	152.555	-86.398	56.622	-84.493	69.852	-76.635	54.834	-21.298	48.762	16.423	131.936	122.013	-139.982	149.337	38.017	0.00029954	0.00032817	9.76e-05	368.27	1.1473e-06	1.6594e-06	494.08	123.71	2.0303e-06	4.9053e-06	206.25	79.057	46.21	19.64	2.8465e-06	35.297	0.00020498	0.00019897	5.6183e-05	384.32	2.1724e-06	2.1822e-06	509.09	127.56	2.1859e-06	2.1516e-06	208.88	80.758	47.907	20.131	2.1801e-06	35.755	200.997	-45.621	-61.634	-141.808	-8.904	47.089	-142.678	-137.559	-76.374	-19.463	-138.969	-135.936	-134.460	-129.690	-44.647	-132.049	-8191	255	
1053.469	1	1	0	0	0.31489	0.10851	0.29366	0.21343	0.27887	0.13028	0.048079	0.18146	0.066515	0.090034	0.11061	0.077584	0.19411	0.38036	0.11392	0.048416	-2.4354	-2.8937	-2.5229	-2.825	-2.7875	-2.6604	-2.9562	-2.6042	-2.6937	-2.7938	-2.6271	-3.0417	-2.6417	-2.6354	-2.8812	-2.7458	-121.008	-93.022	-106.406	15.310	41.698	182.903	78.047	202.144	13.840	-104.206	121.244	-133.637	-58.878	75.835	104.316	95.475	0.00029595	0.00028775	8.063e-05	365.07	4.3505e-06	2.0233e-06	494.12	123.71	8.5655e-07	3.1402e-06	203.21	78.757	46.205	19.568	1.7276e-06	34.888	0.00020469	0.00019863	5.5765e-05	383.54	2.1553e-06	2.1608e-06	506.34	127.47	2.1689e-06	2.152e-06	207.47	80.259	47.695	20.039	2.168e-06	35.413	203.055	-77.375	-49.819	-141.820	1.030	-23.876	-142.970	-137.201	13.201	69.119	-139.114	-135.953	-134.144	-129.813	-58.498	-132.074	-8191	255	
1053.541	1	1	0	0	0.27434	0.11625	0.32087	0.15888	0.18957	0.12055	0.26212	0.12278	0.15639	0.20228	0.19381	0.2137	0.13383	0.19277	0.12287	0.2677	-2.1979	-2.9104	-2.5687	-2.8604	-2.7938	-2.5438	-2.9292	-2.7438	-2.6792	-3.0542	-2.5833	-2.9	-2.7708	-2.5062	-2.9979	-2.975	165.578	10.728	-24.073	136.294	31.530	-155.009	57.414	120.794	-23.040	180.313	-137.872	-58.656	-40.887	51.329	112.363	-1.148	0.00024932	0.00041774	5.1564e-05	361.75	2.3568e-06	2.2867e-06	493.05	123.71	1.9597e-06	1.1592e-06	203.81	78.352	46.409	19.66	7.5287e-07	35.256	0.00020468	0.00019675	5.4692e-05	380.91	2.1529e-06	2.1501e-06	504.75	127.26	2.1464e-06	2.1756e-06	207.34	80.216	47.919	20.108	2.1706e-06	35.652	200.379	-18.916	-92.809	-141.949	-40.762	15.510	-142.723	-137.541	-56.255	-136.116	-138.859	-135.983	-134.320	-129.661	154.875	-132.287	-8191	255	
1053.637	1	1	0	0	0.26368	0.15937	0.074325	0.066373	0.094517	0.22407	0.25898	0.075404	0.045527	0.16044	0.19098	0.22999	0.10352	0.1378	0.14886	0.13703	-2.3271	-2.8625	-2.5542	-2.8771	-2.8458	-2.5417	-2.9458	-2.7458	-2.6188	-2.8229	-2.6229	-2.7542	-2.7562	-2.6688	-2.7687	-2.7438	201.578	-4.721	-47.787	58.294	11.029	-71.666	26.482	197.441	25.847	93.631	157.414	91.995	-95.293	131.295	102.795	117.711	0.00028393	0.00061367	3.6044e-05	363.6	1.9568e-06	3.495e-06	491.93	123.68	3.5792e-07	3.5477e-06	204.41	79.073	46.211	19.666	7.361e-07	35.202	0.00020319	0.00019808	5.4745e-05	381.42	2.148e-06	2.1731e-06	505.77	127.37	2.1386e-06	2.1711e-06	207.69	80.615	47.77	20.157	2.1701e-06	35.755	204.719	6.891	-18.566	-141.689	40.381	-0.011	-142.760	-137.233	5.853	-0.967	-138.889	-136.006	-134.135	-129.962	-2.606	-132.344	-8191	255	
1053.758	1	1	0	0	0.046279	0.25188	0.1238	0.11291	0.1565	0.28069	0.30662	0.22469	0.080571	0.20863	0.25741	0.2189	0.23211	0.10979	0.21471	0.28189	-2.0958	-2.7062	-2.6729	-2.5917	-2.9417	-2.5333	-2.7479	-2.7062	-2.5083	-2.8667	-2.6021	-2.6437	-2.9646	-2.5833	-3.1542	-2.9542	106.984	96.491	-143.598	199.070	-146.025	165.867	164.857	189.249	46.513	-115.801	124.328	189.287	83.172	-15.282	189.075	-37.878	0.00027893	0.0001817	3.7692e-05	359.69	1.9521e-06	4.2302e-06	493.85	123.89	3.0926e-06	2.6158e-06	206.19	79.31	46.913	19.767	1.0254e-06	35.517	0.00020107	0.00019512	5.5227e-05	379.89	2.1362e-06	2.152e-06	505.06	127.73	2.1472e-06	2.1614e-06	208.97	81.047	48.14	20.267	2.203e-06	36.034	192.686	189.105	-107.931	-142.071	-6.916	65.322	-142.782	-137.692	-86.634	5.763	-139.417	-135.798	-133.984	-129.825	-8.862	-132.426	-8191	255	
1053.854	1	1	0	0	0.13239	0.032917	0.013079	0.14455	0.17981	0.12137	0.15972	0.081523	0.22509	0.10614	0.15838	0.24002	0.12599	0.24406	0.13213	0.29864	-2.0667	-2.6083	-2.7875	-2.6375	-3.025	-2.7979	-2.8792	-2.6042	-2.6688	-2.8021	-2.8396	-2.675	-2.6958	-2.7375	-3.0729	-2.9458	63.269	17.861	181.500	-130.522	102.465	190.014	202.924	-63.108	31.730	-1.293	-121.351	-148.693	-107.668	179.244	-62.780	53.482	0.00028022	0.00028525	2.8216e-05	360.53	2.5778e-06	1.0296e-06	492.93	124.74	1.2847e-06	1.7651e-06	205.91	80.213	46.258	19.691	1.7497e-06	35.582	0.00020448	0.00019751	5.4615e-05	379.68	2.1484e-06	2.1689e-06	504.84	128.34	2.1657e-06	2.1647e-06	209.09	81.408	48.161	20.283	2.1464e-06	36.088	191.156	-35.092	-56.879	-141.559	-12.683	-97.027	-142.657	-137.544	-86.846	12.350	-139.198	-136.305	-134.334	-130.251	12.393	-132.296	-8191	255	
1053.950	1	1	0	0	0.082509	0.2132	0.28146	0.1026	0.17029	0.14735	0.19458	0.36717	0.062153	0.15025	0.36707	0.17086	0.096191	0.30825	0.12447	0.18614	-2.2708	-2.8708	-2.6708	-2.65	-2.9958	-2.6896	-2.7854	-2.9229	-2.6083	-2.8521	-2.7104	-2.4667	-2.8896	-2.5771	-2.7667	-3.0396	-87.153	41.685	-50.331	85.861	-134.522	-42.746	170.317	127.580	-36.117	-94.855	107.846	165.738	53.081	175.199	-142.720	-142.898	0.00021536	0.00038813	0.00010731	361.5	3.2864e-06	3.2341e-06	485.81	124.52	1.4359e-06	2.9791e-06	205.3	79.584	46.56	19.775	5.2133e-06	35.607	0.0002043	0.00019412	5.4487e-05	375.97	2.1333e-06	2.1317e-06	500.51	127.93	2.1421e-06	2.1403e-06	208.43	81.053	48.24	20.362	2.1304e-06	36.102	192.403	-80.032	203.488	-141.910	-58.001	-65.711	-142.975	-137.121	-86.208	-18.900	-139.110	-135.971	-133.697	-129.960	-51.586	-131.874	-8191	255	
1054.046	1	1	0	0	0.42582	0.079844	0.30825	0.13482	0.28858	0.14553	0.05005	0.30133	0.14158	0.16882	0.21786	0.11376	0.21952	0.23129	0.11122	0.12951	-2.0417	-2.6396	-2.7333	-2.6354	-2.8187	-2.6854	-3.0042	-2.7833	-2.6208	-2.9167	-2.8271	-2.5979	-2.8646	-2.7	-2.7604	-2.9854	54.534	-139.004	20.216	-101.966	-150.964	128.175	-124.827	179.112	67.544	196.733	135.607	155.448	134.718	202.674	-125.582	68.499	0.00029673	0.00010449	2.0581e-05	358.13	1.5214e-06	6.454e-06	488.91	124.49	1.1896e-06	2.3865e-06	206.99	80.234	47.165	19.977	5.1621e-07	35.621	0.00020236	0.00019588	5.3926e-05	376	2.115e-06	2.1053e-06	500.22	128.34	2.1505e-06	2.1226e-06	209.92	81.515	48.666	20.466	2.1282e-06	36.207	195.029	136.221	58.377	-141.824	38.184	-11.175	-142.751	-137.364	-19.339	82.963	-139.361	-136.278	-133.749	-130.030	-38.391	-132.161	-8191	255	
1054.165	1	1	0	0	0.11893	0.0099017	0.06456	0.13773	0.22822	0.084024	0.075252	0.25024	0.10397	0.35287	0.17652	0.088375	0.17524	0.19535	0.079229	0.2471	-2.1458	-2.5312	-2.5958	-2.4896	-2.9146	-2.7812	-2.5396	-2.9604	-2.6688	-2.4896	-2.8292	-2.4542	-2.8229	-2.6813	-2.5729	-2.8896	146.366	179.361	153.214	-47.263	200.307	8.845	49.567	175.371	38.539	75.905	133.690	11.740	53.066	80.686	118.332	121.174	0.00027568	0.00040096	9.1308e-05	358.94	1.0683e-06	1.9372e-06	490.54	125.16	2.5358e-06	1.3455e-06	207.56	79.664	47.346	19.999	1.7252e-06	35.824	0.00019883	0.00019542	5.3952e-05	375.64	2.1599e-06	2.1262e-06	501.91	128.87	2.1133e-06	2.1375e-06	211.13	81.783	48.964	20.5	2.1339e-06	36.403	197.409	-73.145	-12.011	-142.042	-55.216	104.108	-142.747	-137.426	-92.813	-24.158	-139.099	-136.047	-134.350	-129.973	119.881	-132.202	-8191	255	
1054.238	1	1	0	0	0.36814	0.21571	0.048309	0.11265	0.12803	0.21104	0.13526	0.22049	0.077486	0.25051	0.35806	0.009931	0.22251	0.18295	0.19719	0.038394	-2.2042	-2.7604	-2.7896	-2.5271	-2.8208	-2.625	-2.5312	-2.8854	-2.5167	-2.8667	-2.8	-2.3542	-2.8167	-2.6583	-2.55	-2.9771	49.607	-30.534	7.596	58.547	113.736	-130.171	57.855	-41.198	163.734	165.096	90.344	-73.557	-120.088	1.771	201.623	145.922	0.00036655	7.8181e-05	3.3205e-05	356.62	1.0686e-06	4.7487e-06	490.56	125.79	3.859e-06	1.3866e-06	206.96	80.2	46.891	19.95	3.2084e-06	35.862	0.00020394	0.00019744	5.4409e-05	377.45	2.157e-06	2.1329e-06	503.51	129.33	2.1546e-06	2.1655e-06	211.16	82.058	48.714	20.461	2.2037e-06	36.415	194.265	17.827	5.103	-141.583	127.896	3.934	-142.635	-137.108	-74.389	85.846	-139.448	-135.651	-134.119	-130.084	56.044	-132.038	-8191	255	
1054.357	1	1	0	0	0.18147	0.15038	0.35411	0.12845	0.15782	0.14728	0.093365	0.20788	0.057474	0.26974	0.18	0.096223	0.054756	0.1853	0.033943	0.2696	-2.0917	-2.775	-2.6667	-2.5687	-2.7979	-2.8292	-2.7292	-2.9208	-2.5646	-2.7562	-2.9854	-2.5104	-2.6833	-2.6875	-2.5646	-2.9458	94.373	69.461	-128.365	-101.302	84.844	171.830	-114.571	186.977	-86.212	-3.844	41.302	65.145	186.584	-99.829	187.885	159.583	0.00029753	0.00039943	4.6094e-05	361.78	1.2822e-06	1.6478e-06	486.41	125.21	1.8864e-06	1.7987e-06	206.18	80.313	47.357	19.855	9.9373e-07	35.524	0.00020492	0.00019593	5.4027e-05	377.53	2.1768e-06	2.1461e-06	501.63	129.22	2.1526e-06	2.1615e-06	210.07	81.615	48.646	20.395	2.1902e-06	36.127	203.304	-77.234	-117.439	-141.901	-16.531	15.411	-142.920	-137.551	0.194	4.761	-139.446	-136.076	-134.251	-130.188	38.494	-131.986	-8191	255	
1054.453	1	1	0	0	0.055908	0.20823	0.17539	0.2716	0.16411	0.33233	0.21094	0.1126	0.096167	0.27044	0.11971	0.11799	0.051734	0.1149	0.16293	0.30937	-2.2875	-2.5208	-2.7979	-2.5354	-2.6312	-2.7229	-2.7104	-2.8917	-2.8125	-2.6542	-2.9188	-2.7729	-2.8896	-2.8896	-2.5896	-2.8312	124.295	-67.004	-24.416	-95.116	18.062	-131.389	160.857	145.486	12.189	-108.863	59.838	70.706	166.951	167.484	125.757	58.851	0.00030221	0.00017807	0.00011696	359.23	1.2228e-06	2.75e-06	486.93	124.8	3.7741e-06	2.7375e-06	206.64	79.882	46.811	19.931	3.5203e-06	35.579	0.00020493	0.00019629	5.4708e-05	376.54	2.1378e-06	2.1609e-06	500.96	128.64	2.1649e-06	2.185e-06	209.57	81.374	48.528	20.364	2.184e-06	36.168	199.657	-23.946	-91.674	-141.309	-48.052	90.517	-142.756	-137.438	-25.950	165.706	-139.313	-135.981	-134.345	-129.992	-53.558	-132.085	-8191	255	
1054.550	1	1	0	0	0.10115	0.04073	0.27195	0.33418	0.20866	0.23305	0.1371	0.19002	0.09106	0.011556	0.046187	0.28346	0.15763	0.14128	0.13082	0.18642	-2.3833	-2.5729	-2.8646	-2.5687	-2.5979	-3.0354	-2.4375	-2.6667	-2.7458	-2.5896	-2.7979	-2.6292	-2.5833	-2.825	-2.5438	-2.9104	102.575	200.014	35.244	-71.805	177.562	188.723	-90.124	104.812	132.745	-133.185	115.606	-64.344	86.705	-104.996	-46.309	160.565	0.00027555	0.00038214	5.9624e-05	358.39	1.2935e-06	4.6557e-06	489.08	124.56	2.5744e-06	2.3029e-06	207.38	79.868	46.863	19.909	2.8473e-06	35.491	0.000206	0.00019886	5.4961e-05	376.23	2.1575e-06	2.1496e-06	502.44	128.54	2.1434e-06	2.1964e-06	210.22	81.556	48.426	20.363	2.1771e-06	36.112	202.179	-51.798	-34.339	-141.926	3.294	15.078	-142.561	-136.985	-59.610	-39.602	-139.237	-136.080	-134.101	-130.075	-23.135	-132.192	-8191	255	
#DATA ENDS
