BOXY.EXE: ISS Imagent and Oximeter Data Acquisition Program Version 0.80
Ascii Record File

#ACQ INFORMATION
2  Detector Channels 
16  External MUX Channels 
1  Auxiliary Channels 
5000  Waveform (CCF) Frequency (Hz)
1  Waveforms Skipped 
30  Waveforms Averaged 
1  Cycles Averaged 
16  Acquisitions per Waveform 
10.0806  Updata Rate (Hz) 

#FILE INFORMATION
TRUE -- External MUX Channel results are PARSED.
FALSE -- AC DC and Phase are NOT grouped.
TRUE -- Companion Program Settings File CREATED.
FALSE -- AC data not excluded
FALSE -- DC data not excluded
FALSE -- Phase data not excluded
FALSE -- Auxillary Chn. data not excluded
Tab delimiters

#CALIBRATION STATE
TRUE -- Waveform Calibration Values APPLIED.


#AUX CALIBRATION VALUES
Val Type	aux-1	

Term	1.0000e+00	
Factor	0.0000e+00	


#WF CALIBRATION VALUES
A = Detector Channel
Val Type	A-AC1	A-AC2	A-AC3	A-AC4	A-AC5	A-AC6	A-AC7	A-AC8	A-AC9	A-AC10	A-AC11	A-AC12	A-AC13	A-AC14	A-AC15	A-AC16	A-DC1	A-DC2	A-DC3	A-DC4	A-DC5	A-DC6	A-DC7	A-DC8	A-DC9	A-DC10	A-DC11	A-DC12	A-DC13	A-DC14	A-DC15	A-DC16	A-Ph1	A-Ph2	A-Ph3	A-Ph4	A-Ph5	A-Ph6	A-Ph7	A-Ph8	A-Ph9	A-Ph10	A-Ph11	A-Ph12	A-Ph13	A-Ph14	A-Ph15	A-Ph16	

Term	0.00000e+00	0.00000e+00	0.00000e+00	0.00000e+00	0.00000e+00	0.00000e+00	0.00000e+00	0.00000e+00	0.00000e+00	0.00000e+00	0.00000e+00	0.00000e+00	0.00000e+00	0.00000e+00	0.00000e+00	0.00000e+00	0.00000e+00	0.00000e+00	0.00000e+00	0.00000e+00	0.00000e+00	0.00000e+00	0.00000e+00	0.00000e+00	0.00000e+00	0.00000e+00	0.00000e+00	0.00000e+00	0.00000e+00	0.00000e+00	0.00000e+00	0.00000e+00	0.00000e+00	0.00000e+00	0.00000e+00	0.00000e+00	0.00000e+00	0.00000e+00	0.00000e+00	0.00000e+00	0.00000e+00	0.00000e+00	0.00000e+00	0.00000e+00	0.00000e+00	0.00000e+00	0.00000e+00	0.00000e+00	
Factor	1.00000e+00	1.00000e+00	1.00000e+00	1.00000e+00	1.00000e+00	1.00000e+00	1.00000e+00	1.00000e+00	1.00000e+00	1.00000e+00	1.00000e+00	1.00000e+00	1.00000e+00	1.00000e+00	1.00000e+00	1.00000e+00	1.00000e+00	1.00000e+00	1.00000e+00	1.00000e+00	1.00000e+00	1.00000e+00	1.00000e+00	1.00000e+00	1.00000e+00	1.00000e+00	1.00000e+00	1.00000e+00	1.00000e+00	1.00000e+00	1.00000e+00	1.00000e+00	X	X	X	X	X	X	X	X	X	X	X	X	X	X	X	X	

B = Detector Channel
Val Type	B-AC1	B-AC2	B-AC3	B-AC4	B-AC5	B-AC6	B-AC7	B-AC8	B-AC9	B-AC10	B-AC11	B-AC12	B-AC13	B-AC14	B-AC15	B-AC16	B-DC1	B-DC2	B-DC3	B-DC4	B-DC5	B-DC6	B-DC7	B-DC8	B-DC9	B-DC10	B-DC11	B-DC12	B-DC13	B-DC14	B-DC15	B-DC16	B-Ph1	B-Ph2	B-Ph3	B-Ph4	B-Ph5	B-Ph6	B-Ph7	B-Ph8	B-Ph9	B-Ph10	B-Ph11	B-Ph12	B-Ph13	B-Ph14	B-Ph15	B-Ph16	

Term	0.00000e+00	0.00000e+00	0.00000e+00	0.00000e+00	0.00000e+00	0.00000e+00	0.00000e+00	0.00000e+00	0.00000e+00	0.00000e+00	0.00000e+00	0.00000e+00	0.00000e+00	0.00000e+00	0.00000e+00	0.00000e+00	0.00000e+00	0.00000e+00	0.00000e+00	0.00000e+00	0.00000e+00	0.00000e+00	0.00000e+00	0.00000e+00	0.00000e+00	0.00000e+00	0.00000e+00	0.00000e+00	0.00000e+00	0.00000e+00	0.00000e+00	0.00000e+00	-1.29269e+02	-1.13631e+02	-1.35870e+02	-1.84844e+02	-7.69806e+01	-6.34246e+01	-1.60653e+02	-1.62015e+02	-8.22226e+01	-6.09229e+01	-1.72187e+02	-1.71626e+02	-1.83109e+02	-1.76791e+02	-6.82363e+01	-1.50157e+02	
Factor	1.61315e-05	1.31639e-04	3.54998e-05	4.91269e-01	1.07434e-06	1.37095e-06	1.84658e-01	4.54119e-02	1.02773e-06	1.19378e-06	8.37172e-02	3.01029e-02	3.50082e-02	8.20948e-03	1.09933e-06	1.21748e-02	1.13921e-06	1.19064e-06	3.31616e-07	2.32299e-01	1.30170e-08	1.30308e-08	8.60883e-02	2.28097e-02	1.29813e-08	1.30694e-08	4.01028e-02	1.44691e-02	1.71056e-02	4.09484e-03	1.30663e-08	5.83849e-03	X	X	X	X	X	X	X	X	X	X	X	X	X	X	X	X	



#DISTANCE SETTINGS
A = Detector Channel
A-1	A-2	A-3	A-4	A-5	A-6	A-7	A-8	A-9	A-10	A-11	A-12	A-13	A-14	A-15	A-16	

2.5000e+00	3.0000e+00	2.5000e+00	3.0000e+00	2.0000e+00	3.0000e+00	1.5000e+00	3.0000e+00	3.0000e+00	3.0000e+00	3.0000e+00	3.0000e+00	3.0000e+00	3.0000e+00	1.5000e+00	3.0000e+00	

B = Detector Channel
B-1	B-2	B-3	B-4	B-5	B-6	B-7	B-8	B-9	B-10	B-11	B-12	B-13	B-14	B-15	B-16	

1.0000e+01	1.0000e+01	1.0000e+01	1.4400e+00	1.0000e+01	1.0000e+01	1.5100e+00	1.9400e+00	1.0000e+01	1.0000e+01	1.9900e+00	2.4900e+00	2.4100e+00	2.9000e+00	1.0000e+01	2.9800e+00	




#DATA BEGINS
time	group	step	mark	flag	A-AC1	A-AC2	A-AC3	A-AC4	A-AC5	A-AC6	A-AC7	A-AC8	A-AC9	A-AC10	A-AC11	A-AC12	A-AC13	A-AC14	A-AC15	A-AC16	A-DC1	A-DC2	A-DC3	A-DC4	A-DC5	A-DC6	A-DC7	A-DC8	A-DC9	A-DC10	A-DC11	A-DC12	A-DC13	A-DC14	A-DC15	A-DC16	A-Ph1	A-Ph2	A-Ph3	A-Ph4	A-Ph5	A-Ph6	A-Ph7	A-Ph8	A-Ph9	A-Ph10	A-Ph11	A-Ph12	A-Ph13	A-Ph14	A-Ph15	A-Ph16	B-AC1	B-AC2	B-AC3	B-AC4	B-AC5	B-AC6	B-AC7	B-AC8	B-AC9	B-AC10	B-AC11	B-AC12	B-AC13	B-AC14	B-AC15	B-AC16	B-DC1	B-DC2	B-DC3	B-DC4	B-DC5	B-DC6	B-DC7	B-DC8	B-DC9	B-DC10	B-DC11	B-DC12	B-DC13	B-DC14	B-DC15	B-DC16	B-Ph1	B-Ph2	B-Ph3	B-Ph4	B-Ph5	B-Ph6	B-Ph7	B-Ph8	B-Ph9	B-Ph10	B-Ph11	B-Ph12	B-Ph13	B-Ph14	B-Ph15	B-Ph16	aux-1	digaux	

1003.747	1	1	0	768	0.21046	0.072108	0.17232	0.2268	0.24431	0.21883	0.064917	0.38647	0.069725	0.12523	0.18148	0.30984	0.18356	0.23472	0.090192	0.071306	-2.0854	-2.8667	-2.7208	-2.5938	-2.6708	-2.8417	-2.5667	-2.7458	-2.5229	-2.5771	-2.7833	-2.5708	-2.8375	-2.7271	-2.4938	-2.7208	1.396	-62.023	-9.444	-11.644	-88.122	118.216	-135.662	-155.065	-97.102	-35.552	-147.495	153.483	67.139	-90.012	-99.519	147.911	0.00021357	0.00024242	5.2962e-05	359.13	2.7606e-06	1.3293e-06	425.97	124.54	2.2212e-06	1.6158e-06	172.71	58.649	39.054	15.013	1.3017e-06	24.667	0.0001386	0.00013043	3.6937e-05	364.59	1.4419e-06	1.424e-06	434.81	127.08	1.4446e-06	1.4651e-06	174.31	59.505	39.953	15.24	1.4893e-06	24.96	197.679	4.927	-30.791	-141.872	-9.623	-28.243	-142.649	-137.562	-79.026	-79.748	-139.647	-136.519	-134.496	-130.321	-35.860	-132.382	-8191	255	
1003.843	1	1	0	0	0.096553	0.19391	0.06148	0.2141	0.037648	0.14645	0.31927	0.097032	0.19621	0.15231	0.20157	0.12051	0.078364	0.068922	0.13544	0.17979	-2.1333	-2.5896	-2.7188	-2.4104	-2.9125	-2.7667	-2.525	-2.8396	-2.5292	-2.4708	-2.8833	-2.3146	-2.6792	-2.7104	-2.4542	-2.9771	-131.302	-101.684	167.408	55.134	156.922	-138.306	203.726	82.713	19.371	17.147	190.731	11.113	119.759	-127.013	-118.078	74.940	0.00019463	0.00016653	0.00010588	363.06	2.0778e-06	3.9855e-06	430.77	124.74	2.0769e-06	1.7888e-06	173.56	58.831	39.68	15.014	1.9327e-06	24.753	0.00014031	0.00013417	3.7414e-05	364.76	1.4755e-06	1.4696e-06	437.78	127.33	1.4625e-06	1.4743e-06	174.93	59.836	40.32	15.3	1.492e-06	25.121	-150.531	44.429	-58.153	-141.665	-70.553	-14.893	-142.825	-137.513	-59.092	36.561	-139.603	-135.914	-134.480	-129.843	-10.851	-132.641	-8191	255	
1003.940	1	1	0	0	0.19444	0.22511	0.20086	0.10266	0.43245	0.19557	0.18266	0.086975	0.0306	0.35787	0.064379	0.070634	0.14447	0.081692	0.21056	0.034535	-2.3667	-2.5	-2.9104	-2.6542	-2.7333	-2.625	-2.8042	-2.8604	-2.8063	-2.5646	-2.7646	-2.7354	-2.7458	-2.7604	-2.4979	-3.025	170.359	-41.032	178.903	-31.053	140.699	-103.776	165.725	84.959	113.456	191.711	51.378	-100.072	158.274	-26.969	-118.115	180.143	0.00021131	0.00017185	5.4479e-05	360.51	1.6645e-06	3.9624e-06	430.3	124.74	9.3141e-07	1.6767e-06	174.43	58.864	39.206	15.134	3.1009e-06	25.071	0.00013902	0.00013398	3.7107e-05	365.31	1.4764e-06	1.4817e-06	438.55	127.51	1.478e-06	1.4875e-06	175.43	60.109	40.2	15.424	1.4853e-06	25.34	201.742	183.544	-138.625	-141.421	66.188	20.338	-142.743	-137.464	-133.805	-52.029	-139.183	-136.496	-134.080	-130.311	-56.156	-132.129	-8191	255	
1004.036	1	1	0	0	0.10973	0.28002	0.16944	0.13865	0.0869	0.1219	0.17335	0.16203	0.047921	0.1057	0.1111	0.23308	0.034869	0.16658	0.18398	0.095972	-2.1104	-2.475	-2.7583	-2.5146	-2.7229	-2.9333	-2.525	-2.6979	-2.7687	-2.5646	-2.7562	-2.8104	-2.575	-2.7333	-2.6854	-2.6896	-141.046	30.299	-31.348	-113.442	-90.017	141.049	150.295	55.555	104.774	-108.557	102.960	103.510	-57.363	147.723	-123.333	91.198	0.00019782	0.00021607	5.3453e-05	358.8	1.1509e-06	2.5622e-06	428.87	124.26	8.4279e-07	3.1493e-06	173.96	58.654	39.279	15.047	2.9987e-06	24.89	0.00014109	0.00013376	3.7585e-05	363.84	1.4604e-06	1.4396e-06	435.66	127.04	1.4622e-06	1.4701e-06	174.51	59.736	40.139	15.453	1.4777e-06	25.175	198.842	-16.348	-24.273	-141.811	195.472	-73.873	-143.022	-137.719	3.852	13.086	-139.569	-136.673	-134.170	-130.559	28.553	-132.361	-8191	255	
1004.130	1	1	0	0	0.28866	0.083884	0.13103	0.19293	0.051594	0.16352	0.062065	0.084182	0.061391	0.048779	0.17141	0.17416	0.19981	0.22043	0.30698	0.2055	-2.2542	-2.7042	-2.9042	-2.5104	-2.6708	-2.7292	-2.6354	-2.85	-2.8229	-2.5208	-2.8187	-2.6	-2.5417	-2.9917	-2.7271	-2.7333	39.515	78.062	141.785	-73.685	162.408	167.482	41.687	157.771	-70.117	32.487	112.052	-117.543	74.413	160.491	-71.450	21.952	0.0002055	0.00030177	5.9559e-05	356.39	4.0281e-07	1.2784e-06	428.32	125.13	3.0937e-06	1.3335e-06	172.6	58.84	39.684	15.015	2.2905e-06	24.802	0.00013877	0.00013493	3.6882e-05	362.73	1.4433e-06	1.4591e-06	436.31	127.41	1.4498e-06	1.447e-06	174.54	59.785	40.168	15.366	1.4695e-06	25.137	199.055	-9.412	-28.518	-141.685	23.851	-32.136	-142.459	-137.522	-36.433	-50.270	-139.161	-136.401	-134.109	-129.995	-22.515	-132.152	-8191	255	
1004.228	1	1	0	0	0.098578	0.054966	0.11956	0.12167	0.087356	0.15947	0.15546	0.17585	0.27264	0.16246	0.11081	0.13654	0.24916	0.22589	0.15051	0.093761	-2.4313	-2.5375	-2.8417	-2.4979	-2.6188	-2.9292	-2.6312	-2.6958	-2.7438	-2.6417	-2.8604	-2.6708	-2.6604	-2.7625	-2.5125	-2.8125	-40.566	103.172	72.328	44.927	197.070	-91.915	80.759	-137.200	123.355	193.907	-103.339	166.052	-119.894	130.151	-103.060	-2.993	0.0002039	0.00016908	8.0412e-05	361.85	5.978e-07	1.8766e-06	430.64	125.58	2.2036e-06	1.4882e-06	174.47	58.74	39.717	15.098	2.1329e-06	24.814	0.00013735	0.00013097	3.7375e-05	364.07	1.4417e-06	1.4281e-06	436.86	128.11	1.4478e-06	1.471e-06	175.51	59.741	40.327	15.381	1.4488e-06	25.075	199.173	-58.330	-47.655	-142.081	-19.183	-87.136	-142.410	-137.297	-11.858	76.794	-139.487	-136.328	-134.774	-130.375	29.367	-132.376	-8191	255	
1004.347	1	1	0	0	0.28534	0.14006	0.14175	0.055987	0.14834	0.071985	0.45008	0.30372	0.17015	0.22866	0.070016	0.10552	0.25917	0.03301	0.19076	0.30127	-2.4146	-2.4271	-2.7917	-2.5792	-2.5563	-2.9625	-2.6167	-2.6854	-3.0229	-2.4354	-2.7521	-2.8271	-2.5875	-2.8292	-2.6958	-2.8417	199.676	160.234	-88.887	7.639	156.684	183.942	132.975	154.962	62.192	42.281	-33.259	10.584	-76.970	109.947	98.492	83.435	0.00020636	0.00024332	6.1811e-05	358.81	1.3468e-06	2.3752e-06	432.12	125.39	5.5586e-06	1.0618e-06	174.27	59.417	39.365	15.145	2.8931e-06	25.169	0.00013608	0.00013292	3.6644e-05	365.01	1.4394e-06	1.4618e-06	439.31	128.28	1.4765e-06	1.4737e-06	176.34	60.141	40.359	15.424	1.4639e-06	25.391	-152.628	-48.962	-72.298	-142.102	-50.053	68.811	-142.663	-137.307	-21.769	-130.252	-139.705	-136.089	-134.225	-130.028	-12.507	-132.334	-8191	255	
1004.443	1	1	0	0	0.03468	0.13301	0.14622	0.082507	0.31771	0.21531	0.12701	0.13454	0.041563	0.14356	0.01882	0.070853	0.23946	0.16436	0.27541	0.28054	-2.5208	-2.525	-2.6937	-2.7917	-2.6167	-2.8958	-2.8146	-2.7396	-2.8979	-2.7083	-2.6	-3.0229	-2.7354	-2.9771	-2.6771	-2.4208	-84.148	22.006	-56.159	107.365	-92.498	34.503	179.291	148.737	-66.512	-77.104	110.236	27.351	199.108	172.416	-15.183	168.126	0.00021411	0.00047429	5.7641e-05	361.89	9.2802e-07	2.7431e-07	429.27	125.92	3.0732e-06	1.0048e-06	172.67	58.557	39.786	15.042	3.0945e-07	24.729	0.00013868	0.00013339	3.7725e-05	365.36	1.4862e-06	1.4614e-06	438.5	128.29	1.4821e-06	1.4802e-06	175.08	59.82	40.41	15.416	1.4891e-06	25.149	-153.201	-27.215	-59.369	-142.249	-13.119	-133.910	-142.719	-137.606	-117.839	-13.010	-139.632	-136.139	-134.352	-130.263	-54.574	-132.436	-8191	255	
1004.539	1	1	0	0	0.065556	0.133	0.060909	0.11941	0.16954	0.21187	0.11624	0.051979	0.097019	0.1025	0.38672	0.11595	0.20578	0.12341	0.062573	0.13751	-2.4896	-2.6146	-2.775	-2.7458	-2.5229	-2.9188	-2.7646	-2.6417	-2.8021	-2.5708	-2.7396	-3	-2.7292	-2.9729	-2.6375	-2.5042	124.212	-13.502	27.273	-94.290	112.129	-127.142	203.629	168.217	-38.955	-93.807	-150.086	136.374	-32.776	59.874	199.024	45.374	0.00016475	0.00020468	3.1568e-05	361.45	2.0064e-06	2.1529e-06	425.95	125.56	3.0188e-06	1.5281e-06	173.28	58.514	39.273	15.065	1.6382e-06	24.73	0.00013954	0.00013602	3.7434e-05	364.16	1.4863e-06	1.4792e-06	435.53	127.91	1.4775e-06	1.4867e-06	174.75	59.659	40.32	15.401	1.5317e-06	25.125	196.532	-11.584	191.973	-142.005	-24.533	31.862	-142.497	-137.684	-41.151	61.398	-139.474	-136.342	-134.545	-130.129	-122.010	-132.605	-8191	255	
1004.635	1	1	0	0	0.17391	0.1154	0.059373	0.18211	0.021091	0.032705	0.2773	0.34451	0.14428	0.17965	0.094868	0.1302	0.11111	0.084821	0.15068	0.19049	-2.5146	-2.5396	-2.7167	-2.9188	-2.65	-2.8458	-2.7708	-2.4188	-2.9292	-2.6667	-2.7979	-2.8542	-2.5687	-2.7771	-2.7271	-2.6021	-133.256	74.528	15.480	83.947	54.230	55.979	117.661	94.803	80.883	80.331	-120.031	-137.617	30.348	-19.464	88.617	38.832	0.00019038	7.5004e-05	3.9638e-07	360.37	2.7316e-06	2.6299e-06	427.76	125	3.0941e-06	3.4737e-06	172.93	58.668	39.798	15.078	4.686e-06	24.957	0.00014212	0.00013706	3.7907e-05	365.75	1.5067e-06	1.5197e-06	436.67	128.1	1.5218e-06	1.5291e-06	175.02	59.9	40.387	15.446	1.5373e-06	25.276	191.607	170.507	162.800	-141.215	-34.186	44.848	-142.802	-137.561	-100.394	-28.396	-139.662	-136.497	-134.798	-130.272	12.055	-132.684	-8191	255	
1004.731	1	1	0	0	0.077037	0.074029	0.41827	0.11789	0.073548	0.03868	0.16222	0.30771	0.32652	0.097827	0.055158	0.068445	0.21388	0.098132	0.23051	0.14685	-2.5438	-2.475	-2.6271	-2.9875	-2.5417	-3.0083	-2.9	-2.5229	-2.8896	-2.6646	-2.7021	-3.0104	-2.5417	-2.8396	-2.8875	-2.6792	12.954	116.504	-82.604	-123.881	177.467	96.021	-64.964	131.916	161.881	4.734	141.934	90.913	110.103	142.149	53.368	145.825	0.00023242	0.00023133	9.2329e-05	358.38	2.1992e-06	3.3825e-06	429.35	125.52	9.2753e-07	1.0272e-06	173.73	58.649	39.432	15.193	2.6605e-06	25.155	0.00014757	0.00014258	3.9401e-05	364.51	1.5614e-06	1.527e-06	436.62	128.19	1.593e-06	1.5584e-06	175.53	60.04	40.505	15.495	1.5928e-06	25.396	199.667	-79.610	4.177	-141.534	-17.245	-30.647	-142.772	-137.383	10.513	176.830	-139.679	-135.964	-134.460	-130.285	-9.173	-132.332	-8191	255	
1004.828	1	1	0	0	0.13058	0.23134	0.18607	0.12	0.054178	0.20359	0.22523	0.18285	0.20297	0.074294	0.35009	0.32534	0.13765	0.13979	0.14002	0.065644	-2.3042	-2.8875	-2.6521	-2.8396	-2.6104	-2.7833	-2.9229	-2.5438	-2.9833	-2.8146	-2.5062	-2.9479	-2.7292	-2.6542	-2.9021	-2.6208	-146.037	-143.396	119.742	-77.362	-49.757	-52.933	144.789	188.516	178.365	-6.703	176.129	-127.728	-5.771	119.645	-45.717	117.005	0.00022817	0.0003061	4.7729e-05	360.64	2.2351e-06	4.4283e-06	429.31	125.63	1.2752e-06	8.9475e-07	173.12	59.274	39.595	15.091	1.3724e-06	24.769	0.00014814	0.00014429	4.0463e-05	366.6	1.5639e-06	1.5727e-06	439.2	128.25	1.6072e-06	1.596e-06	175.33	60.003	40.524	15.439	1.5954e-06	25.145	196.734	-18.115	70.833	-141.224	-57.110	-26.329	-142.713	-137.540	31.339	-57.688	-139.452	-136.237	-134.197	-130.454	21.901	-132.334	-8191	255	
1004.924	1	1	0	0	0.27863	0.05478	0.11782	0.48153	0.13767	0.089365	0.02935	0.05933	0.11501	0.14954	0.14206	0.025568	0.16846	0.23939	0.066535	0.43202	-2.5042	-2.8333	-2.4562	-2.7729	-2.6729	-2.75	-2.9083	-2.6958	-2.8229	-2.8771	-2.3646	-2.8688	-2.7708	-2.825	-2.7729	-2.4729	-1.330	-127.606	0.628	171.972	39.505	82.137	57.962	177.220	-108.049	156.641	21.082	5.752	66.977	-63.422	-87.429	191.096	0.00019845	0.00034128	3.5089e-05	360.23	3.2719e-06	2.7735e-06	424.71	125.26	2.6706e-06	2.2753e-06	172.67	58.385	39.201	15.022	1.0565e-06	24.465	0.0001483	0.00014463	3.9898e-05	366.25	1.6002e-06	1.584e-06	434.13	128.07	1.5708e-06	1.5558e-06	174.68	59.514	40.156	15.332	1.5864e-06	24.911	199.818	16.442	-56.839	-141.977	16.824	10.168	-142.737	-137.818	-65.879	-39.016	-139.466	-136.211	-134.362	-130.260	-76.266	-132.939	-8191	255	
1005.043	1	1	0	0	0.099298	0.14575	0.23045	0.17088	0.24774	0.14006	0.044529	0.14193	0.25936	0.27788	0.31165	0.29322	0.16891	0.19727	0.1706	0.03168	-2.3146	-2.7083	-2.4167	-2.9188	-2.7896	-2.6396	-3.0042	-2.675	-2.8479	-2.8875	-2.7229	-2.7521	-2.8125	-2.6646	-3	-2.7604	176.826	-6.964	136.660	118.940	78.746	-129.169	74.196	86.997	69.545	-60.037	2.184	181.413	22.509	144.991	-33.762	161.260	0.00017666	0.00018335	5.4392e-05	359.24	3.5845e-06	1.3837e-06	426.39	125.16	9.096e-07	2.844e-06	172.38	58.064	39.356	14.919	3.8523e-07	24.607	0.00015061	0.00014548	4.0825e-05	365.31	1.5809e-06	1.5955e-06	435.49	127.53	1.618e-06	1.6271e-06	174.61	59.461	40.243	15.354	1.6524e-06	25.022	195.600	198.835	-16.247	-142.024	-22.130	86.407	-142.554	-137.459	192.316	-16.618	-139.955	-136.717	-134.286	-130.258	16.151	-132.456	-8191	255	
1005.139	1	1	0	0	0.2264	0.10427	0.11932	0.093647	0.077256	0.12693	0.23737	0.031574	0.068052	0.098257	0.090629	0.22083	0.1058	0.13782	0.11206	0.1071	-2.2646	-2.675	-2.5187	-2.8208	-2.6271	-2.6375	-2.9521	-2.5708	-2.6021	-2.7792	-2.6021	-2.825	-2.7146	-2.4188	-2.8958	-2.6896	-0.772	84.394	-94.017	-109.388	-110.879	-109.881	179.434	179.829	-99.807	-155.106	-139.137	173.068	96.528	72.669	-9.721	151.601	0.0001959	0.00012849	7.9042e-05	358.32	1.8333e-07	3.0361e-06	423.99	125.62	9.5345e-07	3.2566e-06	172.69	58.561	39.167	15.082	1.9152e-06	24.712	0.00015149	0.00014669	4.1056e-05	366.35	1.619e-06	1.5959e-06	434.32	127.69	1.6256e-06	1.6103e-06	174.45	59.539	40.224	15.371	1.6156e-06	25.023	198.261	-137.078	-90.028	-142.067	-77.424	18.210	-142.567	-137.574	138.819	-15.871	-139.412	-136.367	-134.361	-130.303	-124.391	-132.668	-8191	255	
1005.235	1	1	0	0	0.25032	0.054152	0.21678	0.056221	0.18135	0.16076	0.14882	0.067064	0.18784	0.25931	0.22329	0.21359	0.33225	0.24152	0.22075	0.15964	-2.3438	-2.7438	-2.5812	-2.7396	-2.8083	-2.6271	-2.8187	-2.6354	-2.4583	-3.0812	-2.4542	-2.9021	-2.8208	-2.5938	-3.0187	-2.7708	202.185	132.439	188.203	-39.645	109.964	58.839	166.805	-30.066	98.993	196.436	62.759	183.283	-15.247	75.131	164.055	81.839	0.0002032	0.00027656	5.9941e-05	363.88	1.6666e-06	6.3049e-07	428.08	124.94	1.3535e-06	2.5608e-06	171.8	58.743	39.251	15.015	2.9482e-06	24.776	0.00015092	0.00014634	4.0801e-05	367.36	1.5916e-06	1.5844e-06	435.21	127.73	1.6182e-06	1.5919e-06	174.54	59.795	40.174	15.379	1.6122e-06	25.151	197.118	57.022	-112.134	-141.662	56.247	-60.244	-142.923	-137.746	-137.300	-42.457	-139.430	-136.092	-134.379	-130.315	-2.189	-132.612	-8191	255	
1005.308	1	1	0	0	0.13192	0.05892	0.19205	0.21751	0.018689	0.14492	0.24651	0.041632	0.3488	0.11855	0.070642	0.046424	0.1122	0.12121	0.15641	0.081495	-2.1604	-2.7833	-2.525	-2.8104	-2.7104	-2.4625	-2.7812	-2.8396	-2.7146	-2.9625	-2.6604	-2.7188	-2.8229	-2.3854	-2.8708	-2.6667	199.115	87.158	-99.707	194.279	201.295	87.673	29.259	32.748	68.822	-105.696	-39.551	96.567	85.157	73.231	-146.454	-104.031	0.00018454	0.00027545	2.5199e-05	358.28	1.3597e-06	1.2957e-06	423.15	123.93	4.1504e-06	1.4163e-06	172.46	58.176	38.748	14.948	2.3244e-06	24.556	0.0001487	0.00014576	4.0633e-05	363.91	1.5909e-06	1.6017e-06	433.06	126.9	1.5989e-06	1.5933e-06	173.54	59.375	39.961	15.307	1.607e-06	24.918	-149.391	-55.043	39.181	-141.684	-64.328	-10.223	-142.663	-137.401	-49.834	-52.655	-139.557	-136.410	-134.484	-130.413	-5.334	-132.894	-8191	255	
1005.427	1	1	0	0	0.11403	0.061103	0.068507	0.17103	0.16198	0.16255	0.091567	0.15775	0.25595	0.034948	0.13946	0.3654	0.2835	0.074987	0.055555	0.18135	-2.1229	-2.8625	-2.4938	-2.6604	-2.8292	-2.7021	-2.7667	-2.7333	-2.6604	-2.8896	-2.7542	-2.55	-2.85	-2.6146	-2.8125	-2.7229	178.276	156.253	-67.594	-35.814	115.033	58.765	182.752	55.532	-71.548	90.530	-61.031	153.565	73.128	199.261	168.328	199.637	0.00021287	0.00040592	7.9724e-05	353.19	1.4435e-06	2.0883e-06	422.13	123.4	3.5536e-06	2.8172e-06	172.35	58.146	39.463	14.914	5.6958e-07	24.436	0.00015015	0.00014532	4.049e-05	362.17	1.5826e-06	1.573e-06	431.9	126.31	1.6178e-06	1.5961e-06	173.16	59.28	40.16	15.308	1.5813e-06	24.867	198.039	-48.392	-43.567	-142.020	49.884	37.313	-142.878	-137.771	-41.645	-31.428	-139.738	-136.517	-133.953	-130.253	53.644	-132.577	-8191	255	
1005.523	1	1	0	0	0.25977	0.16792	0.21445	0.15468	0.07989	0.12632	0.13394	0.021463	0.053163	0.092608	0.087624	0.16182	0.10232	0.13949	0.24074	0.10831	-2.1375	-2.9125	-2.6417	-2.7188	-2.9688	-2.7979	-2.8438	-2.4958	-2.5312	-2.9229	-2.5521	-2.7062	-2.8896	-2.6521	-2.5167	-2.6688	149.285	-150.495	135.864	-136.593	94.135	-1.903	-100.530	144.494	21.367	-30.319	119.907	117.539	74.114	132.864	-115.548	-50.164	0.00021456	3.5579e-05	5.8869e-05	357.84	3.1368e-06	4.6213e-06	425.95	124.1	3.4824e-06	1.8268e-06	171.53	58.641	39.182	14.977	2.5978e-06	24.619	0.00015156	0.00014481	4.1072e-05	363.71	1.5917e-06	1.606e-06	433.51	126.97	1.6208e-06	1.5974e-06	174.13	59.615	40.236	15.35	1.606e-06	25.015	203.707	35.481	-61.566	-142.128	-5.502	67.829	-142.749	-137.441	-44.337	-66.978	-139.834	-136.273	-133.899	-130.341	29.406	-132.430	-8191	255	
1005.620	1	1	0	0	0.25508	0.039813	0.14152	0.047074	0.25479	0.11706	0.30879	0.32638	0.25703	0.2505	0.22888	0.20037	0.18279	0.15049	0.24138	0.16427	-2.0896	-2.9354	-2.5187	-2.6104	-2.725	-2.45	-2.8063	-2.7562	-2.6729	-2.875	-2.6312	-2.6875	-2.8312	-2.5708	-2.75	-2.8917	-72.889	64.783	140.085	-98.873	-75.524	-25.094	70.580	33.386	27.992	-118.926	133.083	-137.013	93.358	62.413	168.684	20.059	0.00019625	0.0002238	3.8515e-05	353.85	1.1539e-06	9.8481e-07	425.7	124.72	1.0297e-06	1.9179e-06	172.93	59.313	39.05	15.076	1.2838e-06	24.918	0.00015227	0.00014462	4.0406e-05	363.04	1.5923e-06	1.6086e-06	434.17	127.56	1.6229e-06	1.6146e-06	174.78	60.095	40.395	15.476	1.6215e-06	25.265	200.936	-138.900	-17.079	-142.423	-32.170	-1.473	-142.477	-137.532	-100.205	88.868	-139.391	-136.396	-134.735	-130.441	-83.208	-132.420	-8191	255	
1005.716	1	1	0	0	0.22105	0.073279	0.14679	0.24207	0.1269	0.24335	0.055772	0.16803	0.13302	0.034631	0.15239	0.14035	0.14202	0.018567	0.12526	0.065437	-2.1937	-2.8292	-2.6146	-2.4542	-3.1833	-2.6646	-2.75	-3.0667	-2.4083	-2.8312	-2.775	-2.65	-3	-2.5542	-2.6583	-2.8312	-11.331	-81.453	35.487	119.384	-32.112	62.485	45.264	117.831	40.498	198.314	172.357	90.714	147.335	-65.991	-49.025	30.828	0.00014715	1.5317e-05	7.9518e-05	357.23	1.1493e-06	2.6896e-06	428.41	124.13	1.9059e-06	3.9748e-06	173.03	58.906	39.359	15.13	1.6783e-06	25.024	0.00015213	0.00015121	4.1225e-05	367.14	1.6051e-06	1.6208e-06	436.12	127.24	1.63e-06	1.6257e-06	175.23	59.962	40.449	15.442	1.6235e-06	25.253	200.874	42.603	-94.037	-141.987	-43.241	-94.436	-142.850	-137.606	-109.787	33.367	-139.596	-136.165	-133.939	-129.966	-80.816	-132.767	-8191	255	
1005.836	1	1	0	0	0.21393	0.13296	0.050759	0.13205	0.2856	0.12842	0.26977	0.10444	0.15912	0.19826	0.14015	0.18846	0.28701	0.17194	0.39041	0.11797	-2.1688	-2.8125	-2.7188	-2.5479	-2.9708	-2.5354	-2.65	-3.0917	-2.4562	-2.4875	-2.7	-2.6167	-2.7333	-2.9271	-2.6312	-3.0396	9.145	76.702	-90.434	147.840	118.701	-60.137	-87.831	125.264	-26.449	17.344	78.122	-8.089	89.355	198.646	108.228	-27.970	0.00016278	0.00016794	2.7509e-05	357.34	2.1664e-06	1.5701e-06	423.26	124.15	3.1346e-06	3.6006e-06	172.92	58.247	39.18	15.142	3.5868e-06	24.942	0.00015376	0.00014976	4.1199e-05	364.6	1.625e-06	1.6238e-06	434.04	127.11	1.6548e-06	1.6238e-06	174.51	59.748	40.349	15.498	1.6679e-06	25.252	-154.160	94.861	101.558	-142.148	-65.752	82.010	-142.663	-137.688	-88.057	12.988	-139.413	-136.447	-134.258	-130.265	-25.179	-132.400	-8191	255	
1005.908	1	1	0	0	0.11159	0.14649	0.17803	0.25141	0.10701	0.30068	0.25563	0.22876	0.30932	0.17821	0.35908	0.050997	0.02245	0.13237	0.098393	0.28812	-2.3812	-2.5458	-2.9521	-2.4958	-2.6937	-2.6646	-2.65	-2.8937	-2.5812	-2.4	-2.7875	-2.7062	-2.8833	-2.6667	-2.4583	-2.9021	40.838	-88.502	182.821	174.308	-79.021	-95.485	-89.075	-22.036	-121.113	97.361	118.789	173.607	112.389	43.911	89.368	-33.876	0.0001925	0.00014483	7.8957e-05	358.46	2.5096e-06	3.1523e-07	424.44	124.15	1.5361e-06	4.5865e-06	172.43	58.921	39.374	15.243	1.8589e-06	24.849	0.00015352	0.00014791	4.201e-05	366.05	1.6491e-06	1.6527e-06	433.45	127.19	1.661e-06	1.6676e-06	174.43	60.111	40.478	15.57	1.701e-06	25.354	192.902	-117.789	-104.009	-142.315	-108.856	104.362	-142.690	-137.678	-82.277	-44.475	-139.510	-136.374	-134.193	-130.321	81.034	-132.219	-8191	255	
1006.029	1	1	0	0	0.13224	0.1431	0.19061	0.05574	0.085397	0.33336	0.16113	0.15883	0.063242	0.15864	0.14793	0.26424	0.0098175	0.36594	0.091691	0.074847	-2.3688	-2.6021	-2.7687	-2.4062	-2.7479	-2.8688	-2.3937	-2.8271	-2.6167	-2.6625	-2.8167	-2.65	-2.5792	-2.6667	-2.4875	-2.8333	8.155	149.531	-5.097	56.373	201.534	-89.984	146.707	-73.864	-2.110	163.938	44.640	-133.532	-37.489	116.138	69.621	117.081	0.00021108	0.00046672	0.00012043	355.35	1.8122e-06	1.6059e-06	423.37	124.06	2.9225e-06	8.016e-07	172.65	58.817	39.434	15.073	5.1656e-07	24.873	0.0001586	0.00015202	4.2713e-05	365.78	1.6765e-06	1.6728e-06	434.93	127.38	1.6945e-06	1.6966e-06	174.97	60.232	40.658	15.56	1.7064e-06	25.368	-150.817	-77.479	-30.736	-141.641	-89.458	-125.254	-142.606	-137.557	-49.516	174.652	-139.562	-136.345	-134.440	-129.917	158.476	-132.728	-8191	255	
1006.123	1	1	0	0	0.1415	0.13272	0.22272	0.22043	0.20493	0.20676	0.12188	0.21014	0.083582	0.070796	0.15504	0.26062	0.17982	0.069214	0.2511	0.094004	-2.2292	-2.6604	-2.7854	-2.475	-2.6125	-3.0667	-2.5396	-2.8438	-2.7979	-2.4271	-2.8146	-2.5563	-2.6188	-2.9458	-2.6146	-2.8417	180.500	127.555	96.741	43.622	15.079	154.822	179.668	61.820	-25.104	-93.067	196.009	118.633	149.363	68.960	-80.524	122.335	0.00018858	0.00016725	8.8784e-05	361.07	3.1454e-06	5.7924e-07	426.97	124.97	1.6879e-06	1.957e-06	174.31	59.046	39.692	15.169	2.136e-06	25.091	0.00015999	0.00015764	4.3162e-05	366.98	1.731e-06	1.7205e-06	437.29	127.99	1.726e-06	1.7337e-06	176.23	60.446	40.799	15.625	1.7443e-06	25.437	198.600	-20.661	-98.036	-141.814	-1.796	-16.306	-142.472	-137.537	-59.015	0.216	-139.440	-136.060	-134.254	-130.231	4.202	-132.671	-8191	255	
1006.219	1	1	0	0	0.14422	0.13455	0.13413	0.15615	0.30482	0.26732	0.11915	0.1685	0.27641	0.1429	0.55201	0.12334	0.3594	0.33513	0.10412	0.14355	-2.2958	-2.5292	-2.7583	-2.6292	-2.5938	-2.9646	-2.7292	-2.7333	-2.7542	-2.5146	-2.8292	-2.7188	-2.4271	-2.9417	-2.4292	-2.8917	134.021	-50.991	179.917	171.548	-113.326	25.456	124.412	170.302	-114.679	177.739	116.473	-24.396	15.228	120.198	-112.863	163.066	0.00021382	0.0002997	8.1013e-05	357.78	5.38e-07	1.6722e-06	424.09	125.3	1.5146e-06	9.1475e-07	171.94	58.889	39.36	15.225	1.8302e-06	25.025	0.00015972	0.00015808	4.4195e-05	368.66	1.7289e-06	1.7082e-06	435.45	127.77	1.7238e-06	1.7385e-06	174.91	60.228	40.666	15.603	1.7628e-06	25.426	196.692	-50.793	-34.260	-141.348	-36.659	-74.996	-142.822	-137.565	-101.829	7.436	-139.254	-136.514	-134.360	-130.270	116.449	-132.082	-8191	255	
1006.315	1	1	0	0	0.13335	0.21187	0.23776	0.17841	0.18449	0.10033	0.020069	0.17947	0.24091	0.29326	0.071863	0.24039	0.21211	0.18082	0.03647	0.28884	-2.4104	-2.4167	-2.9938	-2.625	-2.6896	-2.825	-2.3896	-2.7521	-2.6458	-2.3146	-2.9354	-2.6125	-2.5271	-2.9854	-2.5625	-2.725	-105.528	38.686	-145.931	-85.952	-83.136	61.547	35.830	40.767	-6.599	-64.533	-93.899	141.158	-147.665	-60.435	-86.500	-120.422	0.00020152	7.1745e-05	6.5704e-05	356.81	3.0052e-07	2.2681e-06	424.31	125.03	1.7884e-06	2.594e-06	173.76	59.212	39.596	15.227	2.6465e-06	24.895	0.00016168	0.00015977	4.3933e-05	368.07	1.7245e-06	1.7418e-06	435.1	127.89	1.7577e-06	1.7549e-06	175.3	60.256	40.679	15.613	1.7446e-06	25.34	203.683	52.783	18.058	-141.721	114.522	0.683	-142.868	-137.518	-105.023	-11.887	-139.370	-136.540	-134.018	-130.502	-37.274	-132.533	-8191	255	
1006.436	1	1	0	0	0.24864	0.16454	0.14257	0.28089	0.22044	0.19827	0.059777	0.21559	0.17536	0.1397	0.10742	0.36838	0.4281	0.14261	0.15846	0.17009	-2.3937	-2.475	-2.8125	-2.6604	-2.5938	-2.9125	-2.7562	-2.8063	-2.9083	-2.5	-2.8167	-2.6646	-2.4917	-2.8146	-2.5604	-2.5875	126.638	-53.155	-0.353	183.846	144.087	-62.216	-77.965	156.747	-118.549	-76.190	-0.945	-66.454	-147.670	-155.026	-145.817	104.613	0.00019605	0.00025344	3.551e-05	360.93	1.7407e-06	2.062e-06	427.8	124.78	3.3033e-06	3.9467e-06	174.07	58.956	39.598	15.25	3.9549e-06	24.972	0.00016281	0.00016104	4.4244e-05	368.98	1.7519e-06	1.7515e-06	436.84	127.99	1.7595e-06	1.7758e-06	176.6	60.485	40.732	15.648	1.7703e-06	25.516	196.652	-30.822	86.469	-141.705	69.201	48.433	-142.880	-137.627	-61.172	-10.905	-139.379	-136.659	-134.349	-130.417	-87.384	-132.579	-8191	255	
1006.532	1	1	0	0	0.056849	0.21002	0.24938	0.053597	0.10637	0.086945	0.16105	0.32888	0.28776	0.065326	0.17794	0.21093	0.15951	0.26051	0.30084	0.092615	-2.325	-2.4229	-2.7792	-2.5479	-2.3708	-2.8292	-2.5938	-2.5833	-2.8354	-2.5312	-2.8417	-2.8833	-2.3417	-2.9062	-2.6896	-2.8229	31.106	-24.172	201.540	-83.746	175.627	96.604	-128.917	-141.555	-119.270	120.115	122.909	134.615	-101.037	-146.866	-92.729	145.765	0.00017886	0.00034658	1.6185e-05	354.71	1.7297e-06	2.1525e-06	425.88	125	4.7887e-06	1.3601e-06	173.69	59.561	40.117	15.378	2.7241e-06	25.247	0.00016564	0.00016114	4.4909e-05	368.5	1.7429e-06	1.7835e-06	437.59	128.34	1.7724e-06	1.7929e-06	176.54	60.868	41.006	15.759	1.7915e-06	25.682	203.667	-13.416	-43.902	-141.712	-21.337	200.616	-142.655	-137.490	-74.596	28.907	-139.721	-136.268	-134.323	-130.197	-29.457	-132.360	-8191	255	
1006.628	1	1	0	0	0.16679	0.082851	0.1591	0.13739	0.201	0.26849	0.076326	0.15113	0.14427	0.16835	0.20902	0.26919	0.1132	0.092931	0.22927	0.21891	-2.4604	-2.5062	-2.6833	-2.7396	-2.4625	-2.8125	-2.7458	-2.6417	-2.7417	-2.4896	-2.7562	-2.8292	-2.4021	-2.925	-2.6063	-2.5354	29.909	100.510	84.183	44.720	-135.008	156.493	-14.747	170.615	35.624	136.550	110.787	155.699	-58.939	-17.646	-5.355	142.085	0.00020154	0.00018856	7.3461e-05	355.28	6.8162e-07	3.8476e-06	426.52	124.79	3.5927e-06	5.867e-06	172.7	59.115	39.289	15.346	2.0421e-06	25.154	0.00016612	0.00015944	4.5753e-05	369.73	1.7701e-06	1.7598e-06	436.13	127.85	1.7864e-06	1.7946e-06	175.39	60.448	40.745	15.688	1.783e-06	25.555	194.538	-61.537	-25.111	-141.755	146.067	-50.087	-142.833	-137.389	-42.046	-9.543	-139.177	-136.229	-134.129	-130.213	38.621	-132.508	-8191	255	
1006.724	1	1	0	0	0.060266	0.032115	0.10674	0.030158	0.44857	0.21025	0.062014	0.1848	0.26148	0.11181	0.032502	0.25951	0.10296	0.16241	0.21484	0.044556	-2.4396	-2.6208	-2.5792	-2.7979	-2.5729	-2.9688	-2.8	-2.4917	-2.6854	-2.5354	-2.7542	-2.875	-2.5979	-2.8896	-2.8438	-2.6333	196.510	56.174	-130.354	-120.609	150.922	-32.170	123.619	-100.860	109.644	-136.102	19.182	194.180	152.155	-25.830	-111.562	-66.877	0.00019902	0.00011582	0.00011323	356.53	1.9481e-06	1.6564e-06	422.3	124.12	1.3688e-06	2.8631e-06	172.37	59.071	39.496	15.327	1.3745e-06	25.134	0.00016525	0.00016109	4.4832e-05	368.08	1.7734e-06	1.7538e-06	433.26	127.23	1.7559e-06	1.7424e-06	174.96	60.237	40.594	15.682	1.7426e-06	25.509	187.763	-71.888	-67.411	-142.117	27.725	-26.354	-142.625	-137.932	-64.853	45.646	-139.403	-136.212	-134.496	-129.876	-57.127	-132.403	-8191	255	
1006.821	1	1	0	0	0.19947	0.05312	0.099306	0.050845	0.32198	0.23433	0.12612	0.1562	0.22873	0.15074	0.16348	0.13252	0.084585	0.17368	0.167	0.16154	-2.2896	-2.575	-2.6354	-2.7562	-2.5021	-2.8458	-2.9	-2.5375	-2.8438	-2.4771	-2.5583	-2.8167	-2.5125	-2.5625	-2.8187	-2.3771	119.348	-53.431	124.652	-94.767	-145.943	91.729	-146.163	-59.985	26.499	51.950	-102.847	8.891	74.975	177.301	115.289	-121.167	0.00017108	0.00041287	8.1416e-05	352.87	3.9673e-06	4.5574e-06	423.54	124.63	1.74e-06	1.5294e-06	173.51	59.347	39.377	15.278	8.7012e-07	25.223	0.0001618	0.00015852	4.34e-05	366	1.7486e-06	1.7301e-06	435.32	127.7	1.7453e-06	1.7299e-06	175.31	60.51	40.628	15.651	1.7516e-06	25.596	198.684	-82.179	-104.547	-142.554	32.008	32.862	-143.070	-137.439	188.065	21.313	-139.452	-135.939	-134.431	-130.121	-46.890	-132.641	-8191	255	
1006.917	1	1	0	0	0.1754	0.053782	0.16444	0.1272	0.014273	0.13735	0.092394	0.27789	0.23039	0.20177	0.22518	0.23793	0.14941	0.10996	0.31426	0.20868	-2.2938	-2.5146	-2.4542	-2.8083	-2.6729	-2.8542	-2.6896	-2.6146	-2.8583	-2.8208	-2.6333	-2.7896	-2.6771	-2.7042	-2.7604	-2.2646	18.740	151.315	80.494	80.387	-147.677	-31.597	-25.212	-134.599	-69.117	124.379	139.726	85.350	110.632	3.862	28.331	-136.715	0.00019375	0.00010768	4.3128e-05	359.97	5.824e-07	1.3299e-06	424.86	124.66	3.5353e-06	4.8244e-06	172.83	59.166	39.617	15.35	2.0699e-06	25.484	0.00016069	0.00015941	4.3687e-05	368.56	1.7587e-06	1.7497e-06	436.73	127.71	1.7436e-06	1.7493e-06	175.74	60.687	40.806	15.746	1.7771e-06	25.811	-148.115	25.610	-67.345	-142.263	-20.436	123.575	-142.407	-137.440	-79.862	-33.130	-139.732	-136.134	-134.056	-130.052	-23.934	-132.806	-8191	255	
1007.013	1	1	0	0	0.34482	0.13965	0.10287	0.039094	0.23501	0.06931	0.097142	0.20501	0.29387	0.16978	0.17815	0.075524	0.35679	0.18239	0.11264	0.34925	-2.1562	-2.6396	-2.4437	-2.8708	-2.6479	-2.7875	-2.9104	-2.6271	-2.7729	-2.7854	-2.6188	-2.7229	-2.6188	-2.7208	-2.8063	-2.6979	-93.449	48.247	-1.307	39.263	113.467	-38.573	-8.605	-129.358	119.877	174.530	191.080	-86.360	82.318	-135.813	128.475	102.437	0.00020169	0.00015895	6.7467e-05	359.96	2.0568e-06	2.636e-06	428.11	124.96	1.1186e-06	3.199e-06	173.85	59.271	39.473	15.243	2.0329e-06	25.337	0.00016481	0.00016048	4.5427e-05	368.6	1.801e-06	1.7603e-06	437.46	127.52	1.7955e-06	1.7622e-06	176.1	60.687	40.774	15.706	1.7857e-06	25.753	-153.779	-110.835	-87.793	-142.190	-61.504	-39.023	-142.725	-137.604	-10.545	-3.054	-139.699	-135.994	-134.664	-130.548	-148.839	-132.342	-8191	255	
1007.132	1	1	0	0	0.23245	0.12384	0.20766	0.2046	0.27678	0.06859	0.09766	0.17069	0.10223	0.11936	0.25732	0.22997	0.15014	0.12759	0.058988	0.027667	-2.3521	-2.5521	-2.5521	-2.9729	-2.5521	-2.6417	-2.9437	-2.6042	-2.7625	-2.7812	-2.3708	-2.6979	-2.7313	-2.4854	-2.8729	-2.675	159.046	-123.675	-121.627	161.726	19.750	163.394	59.807	-101.247	-46.188	17.258	105.550	154.039	132.315	-94.185	176.987	108.215	0.00016129	0.0001701	6.9232e-05	359.77	1.2545e-06	2.1215e-06	422.38	124.11	2.8961e-06	1.3758e-06	172.23	59.015	39.157	15.252	4.419e-06	25.195	0.00016517	0.00016124	4.443e-05	367.72	1.7642e-06	1.7576e-06	433.96	126.97	1.7625e-06	1.7477e-06	174.32	60.318	40.574	15.693	1.7504e-06	25.609	-153.188	-35.586	-93.766	-141.922	11.189	-63.902	-142.718	-137.375	-19.655	65.305	-139.215	-136.699	-134.069	-130.094	-39.525	-132.489	-8191	255	
1007.205	1	1	0	0	0.15183	0.20476	0.037028	0.16184	0.24111	0.17637	0.23256	0.23869	0.27689	0.081465	0.19154	0.32906	0.10017	0.27397	0.19484	0.14782	-2.375	-2.7625	-2.4979	-2.8875	-2.7	-2.5438	-2.7792	-2.6604	-2.6937	-2.9729	-2.5458	-2.8688	-2.6083	-2.5771	-2.825	-2.4646	26.256	126.212	83.362	28.752	-116.217	-122.798	185.380	-117.224	124.164	103.619	-77.631	199.180	179.803	-11.782	171.498	68.297	0.00017208	5.671e-05	9.6702e-05	356.85	2.5571e-06	2.3648e-06	425.32	124.67	1.855e-06	1.972e-06	172.73	59.001	39.565	15.316	4.0205e-06	25.31	0.00016386	0.00016182	4.4811e-05	365.43	1.7337e-06	1.7416e-06	434.18	127.33	1.7715e-06	1.7479e-06	174.93	60.505	40.665	15.75	1.7582e-06	25.663	197.345	-66.730	76.640	-141.962	-62.220	203.680	-142.630	-137.678	-87.356	-105.235	-139.221	-136.086	-134.296	-130.211	-35.016	-132.532	-8191	255	
1007.300	1	1	0	0	0.16502	0.20434	0.22695	0.24195	0.12533	0.31869	0.12207	0.12819	0.23016	0.25707	0.20447	0.047876	0.13682	0.21934	0.17816	0.051372	-2.1729	-2.6229	-2.2167	-2.6167	-2.6104	-2.5667	-2.7	-2.5187	-2.5521	-2.8083	-2.4771	-2.7854	-2.75	-2.5625	-2.9833	-2.7229	-29.252	7.355	37.913	30.084	154.138	-140.966	-88.856	-13.091	173.278	93.247	-52.385	46.324	54.777	-76.114	-90.384	123.932	0.00021849	8.3872e-05	8.0986e-05	355.89	3.4611e-06	2.0353e-06	424.77	124.27	1.3154e-06	2.9653e-06	172.28	59.386	39.307	15.329	1.8731e-06	25.243	0.00016362	0.00015928	4.4768e-05	367.89	1.7472e-06	1.74e-06	434.82	127.22	1.7688e-06	1.7464e-06	175.19	60.664	40.72	15.784	1.8022e-06	25.757	201.834	-113.293	-113.165	-141.513	-39.619	35.424	-142.830	-137.447	-45.664	-11.685	-139.520	-136.373	-134.517	-129.926	15.236	-132.440	-8191	255	
1007.396	1	1	0	0	0.038719	0.22914	0.1303	0.13464	0.17206	0.11122	0.082061	0.13692	0.12376	0.051628	0.20367	0.25704	0.027658	0.30619	0.1908	0.08366	-2.4042	-2.8438	-2.575	-2.8583	-2.6479	-2.6437	-2.8792	-2.7333	-2.5833	-2.8521	-2.6292	-2.6604	-2.7417	-2.525	-2.875	-2.7562	-95.133	172.612	138.527	-125.303	-151.617	40.458	196.593	198.805	184.343	57.231	-98.303	-118.303	-74.796	30.982	-70.231	45.299	0.00017288	0.00026455	9.0774e-05	356.85	1.4985e-06	1.943e-06	424.66	124.16	9.9165e-07	1.0835e-06	173.41	59.403	39.544	15.47	2.3705e-06	25.319	0.00016905	0.00016002	4.4618e-05	369.38	1.7606e-06	1.7629e-06	436.26	127.57	1.792e-06	1.7934e-06	175.55	60.738	40.73	15.773	1.7753e-06	25.786	-153.834	-37.191	-83.896	-141.763	-17.085	128.349	-142.530	-137.311	-135.227	95.633	-139.303	-136.158	-134.199	-130.464	-46.781	-132.313	-8191	255	
1007.516	1	1	0	0	0.30742	0.060174	0.21586	0.20471	0.082399	0.18029	0.43744	0.24468	0.16564	0.13341	0.14894	0.29495	0.28823	0.18921	0.43441	0.14428	-2.2167	-2.8521	-2.6292	-2.7208	-2.8583	-2.5292	-2.975	-2.675	-2.5521	-3.025	-2.5542	-2.7042	-2.9104	-2.4771	-2.725	-2.7354	168.354	-98.867	-46.578	23.730	-138.897	110.825	73.850	-12.999	61.011	48.492	-88.006	165.895	132.179	194.219	48.950	25.223	0.00019937	0.00029554	4.3931e-05	358.65	4.4112e-07	1.4861e-06	425.2	124.38	2.5691e-06	3.7619e-06	172.07	59.159	39.305	15.267	4.532e-06	25.139	0.00016643	0.00016048	4.3984e-05	368.72	1.7189e-06	1.761e-06	434.63	127.43	1.7303e-06	1.7163e-06	174.69	60.434	40.489	15.683	1.7283e-06	25.504	190.830	-37.014	-67.090	-141.598	-139.820	13.570	-142.548	-137.343	-97.989	-8.958	-139.356	-136.211	-134.405	-130.565	-26.642	-132.579	-8191	255	
1007.613	1	1	0	0	0.23705	0.10589	0.05675	0.12765	0.11671	0.17074	0.15518	0.1672	0.10341	0.055691	0.14755	0.086384	0.32945	0.30963	0.29699	0.13268	-2.0875	-2.875	-2.4979	-2.525	-2.7792	-2.4771	-2.8646	-2.6125	-2.3667	-2.7583	-2.6	-2.4042	-2.9062	-2.4646	-2.7979	-2.7958	-151.783	-72.310	110.384	77.303	-32.212	194.285	-27.021	174.131	-122.968	84.276	-46.604	-155.081	-145.063	-11.230	-64.383	4.917	0.00022659	0.00015388	3.2092e-05	358.26	2.6425e-06	1.0422e-06	422.98	124.18	3.8759e-06	2.6624e-06	172.13	58.63	39.445	15.357	2.0785e-06	25.35	0.00016247	0.00015782	4.4175e-05	368.39	1.7299e-06	1.7151e-06	433.66	127.06	1.7195e-06	1.721e-06	174.29	60.142	40.607	15.696	1.7107e-06	25.581	-152.663	-19.119	-23.951	-142.455	-1.338	-46.284	-142.622	-137.607	-8.800	-31.723	-139.433	-136.239	-134.163	-130.113	-71.414	-132.371	-8191	255	
1007.709	1	1	0	0	0.12817	0.39633	0.18205	0.15043	0.108	0.081296	0.16175	0.19573	0.22169	0.075796	0.18743	0.21973	0.05101	0.10368	0.0041983	0.16872	-2.1729	-2.7542	-2.6396	-2.5438	-2.9042	-2.6396	-2.8167	-2.8729	-2.5938	-2.8979	-2.6333	-2.6292	-2.7229	-2.5229	-2.725	-2.8667	96.312	145.738	-139.561	154.038	-144.211	6.371	168.964	140.840	-147.718	41.390	-27.470	55.078	37.479	144.400	157.847	21.584	0.00021015	9.4538e-05	8.412e-06	355.41	4.5957e-06	1.8396e-06	423.85	123.73	6.5863e-07	1.2175e-06	172.07	59.025	39.471	15.265	3.3235e-06	25.245	0.0001586	0.00015506	4.298e-05	366.29	1.7166e-06	1.7009e-06	433.34	126.84	1.6942e-06	1.6885e-06	174.34	60.293	40.545	15.706	1.7223e-06	25.687	-153.639	-130.974	67.376	-141.627	-30.544	-4.786	-142.567	-137.640	1.568	-26.279	-139.098	-136.419	-134.292	-130.396	31.459	-132.475	-8191	255	
1007.805	1	1	0	0	0.19897	0.10323	0.12047	0.17464	0.089688	0.13205	0.15431	0.092103	0.13624	0.042992	0.26574	0.19068	0.23506	0.33624	0.1258	0.13429	-2.1542	-2.6542	-2.5104	-2.4625	-2.6708	-2.4083	-2.6729	-2.9583	-2.5917	-2.7167	-2.6479	-2.4875	-2.9646	-2.6854	-2.6583	-2.8354	129.025	9.029	22.441	-116.809	99.263	166.158	169.332	180.776	-79.634	189.521	-144.227	-80.658	196.305	134.320	9.470	-99.266	0.00020137	0.00041214	0.00013767	355.16	2.5777e-06	2.5078e-06	423.19	123.75	5.2063e-07	2.6378e-06	172.13	59.249	39.396	15.264	2.3029e-06	25.239	0.00016102	0.00015502	4.3302e-05	366.49	1.7085e-06	1.6896e-06	433.93	127.2	1.699e-06	1.7139e-06	174.31	60.3	40.401	15.681	1.7333e-06	25.641	201.281	14.225	-80.466	-141.745	-41.428	-28.832	-142.713	-137.687	200.648	-14.662	-139.329	-135.899	-134.322	-130.277	-7.562	-132.826	-8191	255	
1007.901	1	1	0	0	0.087889	0.12367	0.096556	0.30761	0.14302	0.19039	0.11732	0.15364	0.20607	0.22999	0.12355	0.1138	0.17675	0.057013	0.21874	0.22304	-2.1104	-2.6688	-2.4479	-2.4083	-2.8812	-2.6396	-2.4271	-2.8521	-2.8312	-2.8604	-2.7083	-2.4104	-2.7896	-2.7833	-2.5896	-2.8979	-5.423	-102.349	62.156	-27.478	-143.847	-8.792	118.539	-63.976	94.192	83.408	-140.542	164.527	25.168	173.541	-81.388	166.065	0.00019065	0.00018831	8.1893e-05	359.81	2.6177e-06	1.3836e-06	422.95	123.87	3.191e-06	2.5248e-06	170.67	58.452	39.237	15.255	6.5841e-07	25.132	0.00016237	0.00015768	4.4101e-05	367.17	1.7462e-06	1.73e-06	434.11	126.9	1.7501e-06	1.7502e-06	173.71	60.04	40.392	15.684	1.7704e-06	25.547	200.180	-52.017	-103.764	-141.656	7.489	3.950	-142.566	-137.661	-57.876	22.089	-139.259	-136.184	-134.420	-130.422	66.426	-132.431	-8191	255	
1007.997	1	1	0	0	0.081397	0.073954	0.32312	0.096818	0.061765	0.28753	0.24207	0.38221	0.024054	0.012076	0.088547	0.066097	0.23861	0.057633	0.35094	0.25054	-2.2354	-2.6479	-2.7188	-2.3375	-2.7333	-2.6417	-2.6458	-2.9167	-2.4208	-2.6604	-2.8167	-2.4062	-2.8417	-2.7271	-2.4458	-2.8812	64.581	-104.842	151.787	125.261	187.629	100.403	153.040	170.391	-34.761	68.846	147.524	3.976	-41.452	124.152	51.731	-136.136	0.00018916	0.0002473	0.00010638	355.25	1.9596e-06	3.0718e-07	422.16	123.54	2.312e-06	1.8852e-06	170.07	58.469	39.07	15.199	2.9766e-06	24.981	0.0001659	0.00015911	4.4602e-05	365.99	1.7702e-06	1.7327e-06	430.7	126.48	1.7535e-06	1.7634e-06	172.82	59.821	40.391	15.612	1.7657e-06	25.373	204.760	-99.478	-37.896	-141.886	-132.507	85.233	-142.892	-137.193	-14.646	-31.310	-139.491	-136.492	-134.246	-130.107	204.722	-132.370	-8191	255	
1008.118	1	1	0	0	0.23283	0.27801	0.29442	0.056204	0.12735	0.12156	0.2349	0.1711	0.23048	0.049717	0.32475	0.26731	0.09942	0.14848	0.041838	0.043349	-2.125	-2.6354	-2.6833	-2.5583	-2.8292	-2.8104	-2.5875	-2.8604	-2.5563	-2.6979	-2.7875	-2.5792	-2.8271	-2.7271	-2.5042	-2.9583	-16.598	53.008	-87.136	123.307	198.263	108.102	200.486	118.334	29.323	-118.992	77.821	192.610	70.242	6.078	42.728	4.893	0.0002221	0.00023296	0.00013293	355.83	1.6955e-06	2.6717e-06	422.1	123.65	4.1027e-06	3.6117e-06	170.74	58.313	39.224	15.244	1.0892e-06	24.747	0.00016332	0.0001601	4.4316e-05	367.36	1.7563e-06	1.7497e-06	432.01	126.68	1.7529e-06	1.7593e-06	173.28	59.551	40.308	15.555	1.7506e-06	25.187	201.862	8.344	-71.538	-142.234	68.537	34.067	-142.434	-137.706	-24.310	-37.004	-139.704	-136.056	-133.704	-130.313	126.475	-132.177	-8191	255	
1008.212	1	1	0	0	0.14183	0.38561	0.13164	0.22277	0.14895	0.18401	0.19856	0.053322	0.30702	0.10657	0.21438	0.18345	0.22447	0.26385	0.049091	0.12282	-2.2	-2.6667	-2.8104	-2.5812	-2.5292	-2.7333	-2.5208	-2.8167	-2.6562	-2.5833	-2.7562	-2.5354	-2.7042	-2.9313	-2.4396	-2.8333	-31.762	57.471	-12.707	-81.994	189.355	137.223	-97.159	-89.100	-10.263	194.562	-100.970	177.435	-17.207	160.535	35.543	-122.106	0.00017203	0.00019194	3.2832e-05	355.79	1.8945e-06	2.6954e-06	421.44	123.65	1.9967e-06	3.0251e-06	171.12	58.585	39.119	15.089	1.4217e-06	24.712	0.00016285	0.00015814	4.439e-05	366.43	1.7307e-06	1.7248e-06	431.79	126.8	1.7437e-06	1.7359e-06	173.35	59.708	40.372	15.526	1.7711e-06	25.256	-153.982	-9.074	-32.484	-141.932	-78.679	86.118	-142.679	-137.847	-34.404	54.033	-139.331	-136.392	-133.935	-130.285	-70.672	-132.714	-8191	255	
1008.308	1	1	0	0	0.15869	0.25403	0.17311	0.079063	0.14722	0.13187	0.25647	0.17724	0.22543	0.24894	0.15516	0.21613	0.076619	0.1144	0.14619	0.28539	-2.2062	-2.5229	-2.9792	-2.5917	-2.7292	-2.9458	-2.6083	-2.7687	-2.5896	-2.4792	-2.8667	-2.6646	-2.4313	-2.7625	-2.5312	-2.7687	-105.797	57.191	203.361	-6.734	107.402	-59.674	171.672	52.079	-97.683	-40.743	-27.540	-133.720	175.711	123.118	49.203	171.528	0.0001921	9.6269e-05	5.9243e-05	357.92	1.2374e-06	1.2246e-06	422.67	124.13	1.4245e-06	4.6749e-06	171.66	58.484	38.814	15.177	2.2424e-06	24.633	0.00016172	0.00016025	4.4647e-05	366.9	1.7638e-06	1.7493e-06	433.05	126.82	1.7818e-06	1.7794e-06	173.8	59.753	40.315	15.532	1.7844e-06	25.148	199.798	196.611	-79.304	-141.617	56.033	151.078	-142.730	-137.608	94.062	67.737	-139.563	-136.295	-134.499	-130.106	-78.295	-132.378	-8191	255	
1008.429	1	1	0	0	0.090655	0.28007	0.18669	0.14138	0.14948	0.23503	0.13898	0.033419	0.088985	0.058503	0.071617	0.10864	0.14674	0.041893	0.11792	0.22	-2.2479	-2.6688	-2.8021	-2.4542	-2.6104	-2.8729	-2.7833	-2.9542	-2.8083	-2.4229	-2.8812	-2.7667	-2.6562	-2.8896	-2.6125	-2.775	-147.397	-134.838	118.569	55.975	-29.133	-7.394	-32.781	187.901	-148.360	-34.394	60.361	198.583	-16.985	153.634	-147.421	-131.948	0.00021264	0.00022146	3.0349e-05	354.29	2.31e-07	2.1885e-06	420.12	123.14	1.9993e-06	3.3793e-06	170.3	57.844	38.758	15.085	1.6831e-06	24.527	0.00016515	0.00016208	4.5031e-05	367.48	1.8003e-06	1.7724e-06	432.12	126.42	1.7777e-06	1.7824e-06	172.53	59.203	40.123	15.436	1.813e-06	24.98	199.524	-26.125	-49.696	-142.165	-12.291	193.200	-142.633	-137.686	-27.070	27.654	-139.661	-136.657	-134.028	-130.154	1.951	-132.692	-8191	255	
1008.501	1	1	0	0	0.36553	0.18684	0.17733	0.16163	0.31364	0.1795	0.19372	0.069689	0.12816	0.23226	0.1908	0.024605	0.19545	0.096786	0.068708	0.11205	-2.3125	-2.5375	-2.7354	-2.5938	-2.5833	-2.8833	-2.6146	-2.6854	-2.8125	-2.5146	-2.8292	-2.6417	-2.4375	-2.8896	-2.4229	-2.7104	-79.447	-9.387	71.691	72.047	-71.082	-83.659	-130.783	-60.351	-52.195	-24.203	129.272	-41.249	139.506	113.363	152.081	189.212	0.00020268	0.00032417	5.3305e-05	352.33	3.8737e-06	2.4371e-06	420.22	123.68	2.8378e-06	2.2682e-06	169.27	58.123	38.584	15.04	5.8325e-07	24.625	0.00016674	0.00016568	4.5697e-05	366.83	1.8128e-06	1.8134e-06	431.62	126.57	1.7881e-06	1.8153e-06	172.36	59.34	40.148	15.44	1.8019e-06	25.109	-154.018	-23.977	-84.475	-142.067	16.351	17.138	-143.101	-137.778	-77.208	-0.407	-139.253	-136.252	-134.032	-130.666	-28.529	-132.538	-8191	255	
1008.597	1	1	0	0	0.23155	0.08917	0.062645	0.12907	0.21918	0.24157	0.13989	0.12763	0.12283	0.10517	0.32159	0.31341	0.14202	0.054711	0.069828	0.1525	-2.4583	-2.4479	-2.8333	-2.6792	-2.4958	-2.8937	-2.6437	-2.7687	-2.7667	-2.6437	-2.8271	-2.65	-2.45	-2.8208	-2.5687	-2.7167	135.757	6.628	202.550	128.286	55.698	171.877	-107.936	102.076	123.925	-9.411	-152.539	111.972	-41.598	171.227	93.356	22.714	0.00020122	0.00014892	1.4009e-05	354.24	1.4792e-06	4.9071e-06	420.41	123.33	1.9425e-06	1.7372e-06	170.76	58.365	38.892	15.2	1.2016e-06	24.651	0.0001701	0.0001652	4.6281e-05	366.34	1.8043e-06	1.7977e-06	431.85	126.69	1.7991e-06	1.8224e-06	173.45	59.594	40.357	15.534	1.8284e-06	25.199	198.216	-8.158	-67.887	-141.099	13.003	-38.270	-142.580	-137.838	-64.730	45.002	-139.221	-136.619	-134.194	-130.198	-83.898	-132.652	-8191	255	
1008.693	1	1	0	0	0.23146	0.32142	0.20074	0.052419	0.07163	0.16189	0.14234	0.21756	0.080353	0.20411	0.16238	0.15416	0.2199	0.28056	0.20639	0.091759	-2.3833	-2.4958	-2.6667	-2.6917	-2.6104	-2.8625	-2.6437	-2.7021	-2.7542	-2.5563	-2.6125	-2.7708	-2.3958	-2.6458	-2.7396	-2.6208	52.755	152.717	200.354	5.917	13.106	-128.185	50.449	-154.336	79.499	12.815	-37.595	161.390	-123.440	118.017	90.008	102.664	0.00020046	0.00038791	0.00011474	359.75	2.2754e-06	1.6198e-06	419.69	123.05	6.5751e-07	4.2225e-06	171.36	58.555	39.152	15.197	1.6614e-07	24.908	0.00017005	0.00016427	4.6149e-05	367.65	1.8084e-06	1.8186e-06	433.48	126.7	1.7795e-06	1.7748e-06	173.7	59.972	40.39	15.58	1.7743e-06	25.286	194.300	-46.838	-23.103	-141.633	39.615	183.256	-142.707	-137.568	-109.145	67.074	-139.457	-136.090	-133.957	-130.142	166.230	-132.402	-8191	255	
1008.814	1	1	0	0	0.032828	0.4237	0.067056	0.17612	0.11242	0.20789	0.13943	0.17859	0.11244	0.034502	0.34403	0.19413	0.12959	0.029203	0.23857	0.13456	-2.3979	-2.6042	-2.6042	-2.85	-2.5917	-2.8229	-2.6813	-2.5646	-2.8729	-2.475	-2.8312	-2.9104	-2.5896	-2.8896	-2.6188	-2.6937	-72.169	64.977	-137.290	-2.691	82.564	159.503	103.243	111.498	143.501	-121.889	150.302	177.667	134.785	77.901	168.516	133.084	0.00020262	0.00012778	7.7444e-05	358.28	8.6172e-07	1.1838e-06	421.85	123.3	2.6462e-06	1.4201e-06	170.64	58.267	39.157	15.166	3.5237e-06	24.875	0.00016693	0.00016185	4.4861e-05	369.15	1.7534e-06	1.7723e-06	432.21	126.44	1.7582e-06	1.7753e-06	172.87	59.577	40.218	15.534	1.7523e-06	25.25	191.343	-103.997	-89.603	-142.323	98.042	22.384	-142.374	-137.796	-23.603	-31.419	-139.515	-135.791	-134.266	-130.289	-39.429	-132.372	-8191	255	
1008.910	1	1	0	0	0.15337	0.13926	0.28949	0.23171	0.22151	0.26791	0.11655	0.16269	0.13625	0.23831	0.14638	0.27451	0.23088	0.10349	0.2325	0.20859	-2.3854	-2.4958	-2.5687	-2.7604	-2.5396	-2.7792	-2.7062	-2.4375	-2.6979	-2.6042	-2.6646	-2.9	-2.575	-2.8104	-2.8646	-2.5667	148.731	-67.111	117.623	-39.948	-61.079	-36.656	-115.128	113.719	-75.993	137.703	108.459	-18.167	154.238	151.374	41.415	27.875	0.00021128	0.00032577	7.2595e-05	357.76	1.4673e-06	2.5279e-06	417.61	123.54	1.485e-06	8.9805e-07	170.41	58.336	39.042	15.165	2.308e-06	24.765	0.0001627	0.000159	4.4823e-05	365.93	1.744e-06	1.7312e-06	430.42	126.65	1.7632e-06	1.7475e-06	173.12	59.765	40.334	15.55	1.7531e-06	25.235	-150.471	9.777	-47.973	-141.945	-16.839	6.017	-142.563	-137.657	167.521	15.757	-139.410	-136.391	-134.087	-130.232	25.653	-132.254	-8191	255	
1009.006	1	1	0	0	0.028146	0.24109	0.21475	0.079909	0.13243	0.026953	0.12118	0.091484	0.20225	0.063831	0.1058	0.19599	0.13327	0.060615	0.14815	0.11242	-2.4292	-2.6	-2.7333	-2.8521	-2.6417	-2.9021	-2.6813	-2.4542	-2.8688	-2.6896	-2.5625	-2.7958	-2.5521	-2.6813	-2.8042	-2.5938	79.636	-137.278	64.898	107.763	39.640	-118.653	126.044	9.029	120.742	-128.786	-63.328	-113.520	118.293	12.625	168.864	88.811	0.00018863	0.00012478	6.1497e-05	355.54	3.0044e-06	5.1938e-06	422.39	123.91	2.1823e-06	1.6921e-06	171.98	58.181	39.301	15.127	3.0432e-06	24.883	0.00016352	0.00016102	4.4345e-05	367.04	1.7784e-06	1.7456e-06	433.05	127.05	1.745e-06	1.7379e-06	173.68	59.741	40.404	15.579	1.7518e-06	25.266	194.640	-81.025	-74.761	-142.111	-56.251	-52.530	-143.058	-137.367	-36.166	60.569	-139.431	-136.264	-134.754	-129.944	-4.694	-132.247	-8191	255	
1009.077	1	1	0	0	0.23397	0.11745	0.10389	0.050048	0.25019	0.075865	0.10118	0.23579	0.18449	0.18405	0.15238	0.22318	0.01391	0.01459	0.16765	0.087002	-2.3854	-2.7146	-2.5292	-2.8417	-2.4792	-2.6625	-2.9062	-2.5854	-2.7021	-2.7167	-2.4271	-2.8187	-2.6	-2.5917	-2.8917	-2.55	147.679	186.101	171.459	20.681	137.093	-139.543	21.280	20.491	145.148	107.501	51.090	151.626	-146.638	-107.287	-53.608	162.944	0.00016902	0.00034981	9.2006e-05	359	2.6761e-06	2.2036e-06	422.87	123.81	2.9915e-06	9.7309e-07	171.32	58.738	39.019	15.324	1.0896e-06	25.098	0.00016201	0.0001588	4.4276e-05	367.7	1.7195e-06	1.7534e-06	434.52	127.15	1.7488e-06	1.7377e-06	174.26	60.198	40.39	15.636	1.7386e-06	25.465	200.265	190.606	-57.266	-142.184	-55.795	-18.707	-142.741	-137.666	-37.942	-131.117	-139.347	-136.331	-134.112	-130.308	194.927	-132.457	-8191	255	
1009.196	1	1	0	0	0.035427	0.067731	0.52089	0.23013	0.020282	0.13898	0.1632	0.34124	0.409	0.30866	0.29118	0.020089	0.17586	0.13529	0.21662	0.037816	-2.3854	-2.7188	-2.4062	-2.5938	-2.625	-2.7604	-2.8979	-2.6958	-2.8021	-2.7042	-2.6063	-2.8896	-2.6771	-2.7167	-2.8354	-2.5042	-44.637	184.712	-6.095	20.710	-104.242	189.407	-46.469	203.296	1.574	-68.864	121.609	3.407	-144.374	-142.630	178.620	40.407	0.00019024	5.506e-05	3.3343e-05	363.93	2.0895e-06	6.3438e-06	423.73	123.91	4.2412e-06	4.2706e-06	170.64	58.989	39.294	15.209	3.0115e-07	25.053	0.0001624	0.00015888	4.4389e-05	369.86	1.7398e-06	1.7689e-06	435.37	126.95	1.7318e-06	1.7177e-06	174.04	60.07	40.384	15.572	1.7374e-06	25.356	190.867	80.838	142.220	-141.826	-53.208	-6.756	-142.863	-137.606	-44.957	0.646	-139.331	-136.149	-134.204	-130.143	201.422	-132.079	-8191	255	
1009.293	1	1	0	0	0.12197	0.062175	0.13724	0.12063	0.28743	0.041791	0.13109	0.036339	0.26816	0.25817	0.28489	0.47404	0.040056	0.33228	0.10711	0.16311	-2.2646	-2.8417	-2.5146	-2.7792	-2.8167	-2.5438	-2.7896	-2.5333	-2.8	-2.8354	-2.65	-2.9688	-2.6167	-2.6292	-2.8479	-2.6083	-4.731	14.442	-26.571	95.644	-11.231	-125.448	44.750	199.736	41.153	141.266	23.302	202.340	-9.287	162.616	84.178	-77.178	0.00021984	0.00019495	1.2156e-05	357.98	3.2002e-06	4.7234e-06	423.44	123.63	2.915e-06	3.6293e-06	169.91	58.419	38.725	15.263	1.3297e-06	24.659	0.00016164	0.00015484	4.4224e-05	366.35	1.6923e-06	1.7044e-06	431.76	126.05	1.7103e-06	1.701e-06	172.54	59.528	40.037	15.57	1.6979e-06	25.147	198.429	19.339	192.774	-141.407	-35.686	-54.346	-142.790	-137.359	-30.112	15.238	-139.638	-136.394	-134.262	-130.039	-23.401	-132.341	-8191	255	
1009.389	1	1	0	0	0.12589	0.1981	0.037068	0.14564	0.023458	0.09577	0.17685	0.068785	0.057748	0.11364	0.14484	0.19251	0.013929	0.19304	0.055204	0.13386	-2.3333	-2.8375	-2.4188	-2.9125	-2.7792	-2.4458	-2.8812	-2.7875	-2.7271	-2.775	-2.4771	-2.7625	-2.7646	-2.6146	-2.9708	-2.7979	-46.901	184.259	-35.621	-134.629	96.585	60.815	-154.360	64.636	190.763	13.917	-44.019	202.741	-104.883	-137.893	179.184	-72.943	0.00018501	0.00030591	1.7342e-05	357.4	1.6892e-06	4.211e-06	423.15	122.89	8.5367e-07	1.3565e-06	169.98	58.159	39.389	15.202	4.396e-07	24.804	0.00015654	0.00015224	4.3065e-05	365.14	1.6832e-06	1.6946e-06	431.96	126.1	1.6761e-06	1.6488e-06	172.63	59.411	40.173	15.514	1.6679e-06	25.19	-154.117	-38.556	30.015	-141.291	-51.297	28.756	-142.875	-137.504	-84.773	180.138	-139.667	-136.321	-134.229	-130.374	-105.696	-132.279	-8191	255	
1009.509	1	1	0	0	0.099072	0.13304	0.17449	0.1456	0.23411	0.13948	0.17061	0.16754	0.31364	0.10063	0.19314	0.15943	0.076475	0.078349	0.01676	0.10754	-2.1167	-2.8375	-2.5208	-2.6688	-2.9396	-2.5938	-2.7479	-2.6854	-2.6188	-2.9437	-2.5521	-2.7479	-2.8333	-2.4917	-2.7667	-2.7396	172.692	-13.900	29.791	-48.265	176.739	145.221	117.088	-23.209	-66.804	-76.405	135.125	-51.721	-104.163	94.049	-59.257	-124.232	0.00021358	0.00032124	2.3941e-05	358.08	1.9706e-06	4.111e-06	425.6	123.92	1.8044e-06	1.4575e-06	170.72	58.22	38.719	15.151	1.7729e-06	25.164	0.00015444	0.00015195	4.2531e-05	366.54	1.6447e-06	1.6605e-06	433.3	126.14	1.6726e-06	1.65e-06	173.11	59.683	40.008	15.558	1.661e-06	25.407	198.233	-57.971	-146.713	-141.585	-137.580	-9.355	-142.840	-137.598	-97.035	-9.115	-139.312	-136.434	-134.578	-130.255	39.158	-132.566	-8191	255	
1009.605	1	1	0	0	0.14951	0.32013	0.062589	0.032869	0.25129	0.16373	0.05456	0.30297	0.14954	0.11679	0.2536	0.02454	0.18114	0.011839	0.074423	0.13746	-2.3	-2.8729	-2.5458	-2.6646	-2.8375	-2.6271	-2.85	-2.6312	-2.5187	-2.8	-2.6312	-2.6688	-2.7125	-2.5896	-2.6792	-2.7479	151.060	-146.754	185.389	-139.519	60.451	21.424	90.646	170.640	4.482	-123.768	194.823	-88.364	171.229	-95.439	27.658	-31.180	0.00022025	0.00026429	7.6375e-05	357.53	1.6352e-06	2.1492e-06	423.11	123.23	1.1363e-06	2.3335e-06	170.19	58.337	38.816	15.258	1.8452e-06	24.892	0.0001557	0.00015206	4.1941e-05	365.07	1.6602e-06	1.6514e-06	433.11	126.09	1.6438e-06	1.65e-06	172.79	59.853	40.146	15.586	1.6606e-06	25.412	195.695	-107.755	-107.027	-142.323	-64.964	-75.437	-142.753	-137.757	68.346	10.224	-139.355	-135.936	-134.277	-130.159	-93.141	-132.579	-8191	255	
1009.702	1	1	0	0	0.08088	0.32947	0.17384	0.32303	0.067574	0.25831	0.065734	0.25644	0.15479	0.11728	0.18146	0.1726	0.20358	0.16811	0.22422	0.20237	-2.0542	-2.7771	-2.5812	-2.6229	-2.8604	-2.275	-2.6375	-2.7687	-2.5292	-2.9792	-2.5625	-2.3354	-2.85	-2.6312	-2.7958	-2.8229	-11.822	177.298	-13.546	-89.030	45.766	-97.658	-95.081	166.849	-12.305	149.910	28.936	51.654	-109.493	166.837	-79.754	-72.540	0.00020917	9.7278e-05	2.6891e-05	352.72	1.178e-06	4.7881e-07	419.74	123.33	2.3605e-06	8.8475e-07	170.29	58.321	38.93	15.147	2.6178e-06	24.751	0.00015636	0.0001515	4.1475e-05	361.55	1.6379e-06	1.6199e-06	429.46	125.77	1.6243e-06	1.6148e-06	172.08	59.488	39.937	15.481	1.63e-06	25.136	198.496	177.417	-5.555	-141.955	-5.190	-14.590	-142.378	-137.688	-72.900	-89.231	-139.480	-135.776	-134.025	-130.427	-30.355	-132.500	-8191	255	
1009.798	1	1	0	0	0.1369	0.10495	0.21131	0.22362	0.16729	0.1834	0.099333	0.098231	0.082297	0.075206	0.14044	0.13795	0.23196	0.039044	0.11861	0.12945	-2.1646	-2.9375	-2.7583	-2.4479	-2.9	-2.6292	-2.8021	-2.8208	-2.4292	-2.7167	-2.8625	-2.4833	-2.8125	-2.4938	-2.6646	-2.9354	114.020	20.700	-130.089	-151.249	10.337	43.065	203.269	-64.015	191.503	5.458	157.181	44.145	-61.793	-135.569	-10.550	123.855	0.00019698	0.00024063	9.8214e-05	355.4	2.2126e-06	5.275e-06	418.22	122.12	2.9543e-06	3.2793e-06	170.09	58.167	38.624	15.073	2.6839e-06	25.042	0.00015257	0.00014881	4.1663e-05	363.27	1.6424e-06	1.6552e-06	428.59	125.15	1.6339e-06	1.635e-06	171.58	59.339	39.797	15.511	1.6332e-06	25.409	202.234	84.918	58.607	-142.258	-139.711	32.064	-142.613	-137.760	-45.686	-39.256	-139.280	-136.249	-134.414	-130.117	-22.896	-132.708	-8191	255	
1009.894	1	1	0	0	0.1352	0.18506	0.16168	0.13211	0.14489	0.14651	0.27286	0.20756	0.2232	0.045758	0.21451	0.017109	0.209	0.17474	0.048135	0.1496	-1.8479	-2.8625	-2.5375	-2.4604	-2.8729	-2.6417	-2.4167	-2.7083	-2.5542	-2.6417	-2.6375	-2.6063	-2.6521	-2.6375	-2.5771	-3.0875	58.163	95.570	58.685	-13.716	122.416	7.077	-51.144	122.938	198.031	-5.820	122.039	98.490	41.949	76.075	-57.102	193.461	0.00018909	0.00047325	3.099e-05	359.27	1.3667e-06	3.1508e-06	419.12	121.88	2.8161e-06	2.0419e-06	169.21	58.279	38.903	15.244	2.085e-06	25.294	0.00015271	0.00015039	4.0798e-05	362.46	1.6272e-06	1.634e-06	429.46	125	1.6498e-06	1.6248e-06	171.38	59.7	39.961	15.634	1.6568e-06	25.642	198.888	-44.762	-42.959	-141.965	-62.393	4.192	-142.247	-137.743	-25.953	6.987	-139.337	-136.126	-134.421	-130.389	58.674	-132.151	-8191	255	
1009.990	1	1	0	0	0.03474	0.27505	0.21729	0.041577	0.15009	0.20557	0.079531	0.12844	0.2351	0.24616	0.024964	0.29307	0.064905	0.10083	0.13612	0.027969	-1.9271	-2.8042	-2.5938	-2.5083	-2.7458	-2.725	-2.7292	-2.9021	-2.5479	-2.8479	-2.7604	-2.4396	-2.7938	-2.6458	-2.6396	-2.9521	21.771	101.765	-130.468	34.673	35.703	181.406	-2.755	133.613	-122.131	-21.103	-36.602	72.611	143.976	6.305	105.624	-25.951	0.00018433	0.00013383	2.0614e-05	351.22	7.1686e-07	3.6227e-06	423.38	122.39	2.0613e-06	1.4823e-06	169.38	59.101	38.841	15.199	3.3651e-06	25.467	0.00015542	0.00015044	4.1493e-05	362.57	1.6379e-06	1.6416e-06	431.35	125.25	1.6742e-06	1.6607e-06	171.99	60.115	39.866	15.714	1.6804e-06	25.872	197.214	-66.871	-101.362	-142.176	-117.058	-29.881	-142.682	-137.519	-2.689	-127.938	-139.145	-136.446	-134.942	-129.861	-20.774	-132.590	-8191	255	
1010.109	1	1	0	0	0.20703	0.18236	0.085861	0.21461	0.12569	0.16585	0.16771	0.08673	0.25471	0.09479	0.02257	0.062705	0.049829	0.1598	0.14764	0.13756	-2.225	-2.6292	-2.7458	-2.4125	-3.1125	-2.6562	-2.7208	-3.0354	-2.6208	-2.7021	-2.8625	-2.6896	-2.9104	-2.7792	-2.6396	-3.0396	-151.364	-67.047	38.512	0.937	183.534	101.129	-154.572	135.143	-68.613	157.729	79.070	-22.706	102.453	133.805	27.418	75.272	0.00021745	0.00013438	3.9007e-05	354.11	3.3646e-06	4.676e-06	424.43	122.91	6.6445e-07	2.4082e-06	170.54	58.596	39.002	15.239	2.408e-06	25.423	0.00015604	0.00015369	4.2315e-05	363.29	1.6736e-06	1.6434e-06	432.5	125.25	1.6753e-06	1.6476e-06	172.67	60.047	40.079	15.679	1.6942e-06	25.792	203.860	-83.268	-71.608	-141.866	-26.647	0.668	-142.660	-137.519	137.117	-51.984	-139.624	-135.942	-134.097	-130.254	-45.508	-132.137	-8191	255	
1010.205	1	1	0	0	0.14905	0.028867	0.047138	0.11909	0.16705	0.22691	0.29699	0.098117	0.20479	0.16158	0.31657	0.11594	0.075041	0.2596	0.17138	0.14553	-2.1854	-2.5687	-2.9625	-2.55	-2.8812	-2.7271	-2.6396	-2.9625	-2.7625	-2.7583	-2.9854	-2.6104	-2.9	-2.8542	-2.5812	-3.0042	-76.391	-15.623	166.556	182.239	35.219	-112.337	-82.888	77.787	40.683	-10.710	2.291	-47.137	183.797	139.962	-70.401	175.801	0.0002079	0.00015701	4.6022e-05	358.47	1.6594e-06	1.3116e-06	423.23	122.75	3.8759e-06	1.9044e-06	169.4	58.699	39.461	15.367	2.8501e-06	25.371	0.00015494	0.00015123	4.2416e-05	365.11	1.6776e-06	1.6741e-06	431.42	125.31	1.6782e-06	1.6815e-06	172.66	60.041	40.241	15.743	1.7004e-06	25.786	203.684	-127.694	30.202	-141.663	-109.152	-6.001	-142.678	-137.338	-21.109	-24.522	-139.702	-136.181	-134.106	-130.376	-32.890	-132.353	-8191	255	
1010.301	1	1	0	0	0.080331	0.069345	0.141	0.16333	0.010085	0.37088	0.11036	0.1718	0.12849	0.28035	0.11809	0.27226	0.048709	0.10087	0.22541	0.24379	-2.3604	-2.5667	-2.8708	-2.5187	-2.6771	-2.7313	-2.7062	-2.8875	-2.7875	-2.6333	-2.9396	-2.5062	-2.7021	-2.8292	-2.5479	-2.7958	-110.809	-54.786	117.934	-81.942	111.637	-113.033	131.688	-20.417	-134.318	69.363	-128.551	103.568	135.114	-32.614	-14.944	104.189	0.00017931	0.00036532	2.7237e-05	357.25	1.0685e-06	6.4214e-06	424.62	122.84	2.4633e-06	8.4179e-07	169.79	58.389	38.809	15.391	1.0506e-07	25.452	0.00015744	0.00015187	4.2855e-05	363.17	1.7044e-06	1.6785e-06	433.85	125.43	1.6708e-06	1.6932e-06	173.05	59.944	40.03	15.748	1.6959e-06	25.835	200.240	-34.641	-87.500	-141.774	-93.499	43.837	-142.794	-137.530	-43.472	-118.069	-139.413	-136.117	-134.326	-130.081	-58.051	-132.439	-8191	255	
1010.373	1	1	0	0	0.33197	0.18709	0.16321	0.26425	0.11339	0.1736	0.17222	0.23516	0.075555	0.15833	0.13177	0.29525	0.12783	0.082474	0.17364	0.16792	-2.2958	-2.5479	-2.8375	-2.4583	-2.7333	-2.7146	-2.575	-2.7875	-2.8021	-2.5146	-2.9729	-2.7062	-2.7812	-2.7708	-2.6125	-2.8542	-84.709	-121.204	-51.085	44.909	-19.664	-42.058	78.869	168.005	94.832	-109.919	143.235	82.414	6.019	-134.797	97.218	154.764	0.00020757	0.00034558	2.5723e-05	358.39	2.2332e-06	9.7777e-07	424.29	122.51	9.7265e-07	2.5678e-06	171.11	58.815	39.079	15.426	1.2139e-06	25.596	0.00015934	0.0001543	4.2956e-05	366.65	1.6707e-06	1.67e-06	434.87	125.33	1.6906e-06	1.6632e-06	173.14	60.24	40.02	15.756	1.703e-06	25.853	191.436	-61.144	-38.330	-141.789	-79.056	-97.173	-142.366	-137.738	6.455	47.088	-139.281	-135.964	-134.503	-130.373	-6.396	-132.656	-8191	255	
1010.469	1	1	0	0	0.13209	0.29282	0.15956	0.2276	0.24409	0.16477	0.225	0.075739	0.047811	0.2296	0.15647	0.082755	0.1658	0.25788	0.22833	0.11095	-2.1792	-2.6375	-2.6458	-2.7479	-2.8125	-2.9313	-2.5563	-2.7354	-2.6521	-2.5083	-2.8917	-2.6854	-2.7708	-2.7521	-2.4396	-3.0187	196.294	54.472	-78.469	-45.001	-143.533	118.963	123.939	201.485	175.733	-143.720	134.289	117.161	23.880	102.499	-85.746	-80.434	0.00019138	0.00023159	1.776e-05	354.67	3.5318e-06	1.1199e-06	423.59	121.29	2.8719e-06	4.1192e-06	170.31	58.595	38.506	15.299	4.5028e-06	25.501	0.00015832	0.00015419	4.2874e-05	366.08	1.6789e-06	1.6589e-06	434.12	124.89	1.6715e-06	1.683e-06	172.75	60.035	39.617	15.708	1.6817e-06	25.871	203.942	-69.103	7.777	-141.940	-28.743	189.195	-142.683	-137.449	-4.989	-16.047	-139.183	-135.992	-134.135	-129.550	-50.825	-132.178	-8191	255	
1010.590	1	1	0	0	0.077641	0.069967	0.091079	0.092697	0.086689	0.17667	0.075722	0.091553	0.11868	0.1771	0.27275	0.029762	0.21479	0.13653	0.1921	0.22988	-2.4542	-2.5229	-2.8458	-2.6958	-2.6562	-2.9875	-2.6333	-2.7542	-2.7771	-2.6688	-2.9583	-2.8229	-2.4958	-2.8458	-2.5208	-2.5854	61.181	201.054	185.137	-72.112	-139.988	-121.184	153.490	104.160	-109.739	-40.762	-74.350	-108.780	13.411	-124.478	-84.723	15.713	0.0001887	0.00029226	3.3554e-05	353.54	1.7874e-06	3.8869e-07	421.85	121.12	1.0042e-06	4.2654e-06	167.93	58.138	38.132	15.24	3.0724e-06	25.553	0.00015901	0.00015276	4.2199e-05	364.92	1.6706e-06	1.6811e-06	431.91	123.9	1.6702e-06	1.6693e-06	170.91	59.441	39.281	15.596	1.6921e-06	25.892	201.406	25.141	-96.053	-141.999	-1.929	-52.254	-142.701	-137.490	14.455	54.766	-139.415	-135.855	-133.826	-130.269	45.917	-132.098	-8191	255	
1010.686	1	1	0	0	0.090057	0.22311	0.046617	0.31294	0.14098	0.31208	0.21995	0.32119	0.10584	0.04627	0.11727	0.22162	0.19324	0.12363	0.21201	0.18797	-2.3542	-2.7125	-2.8187	-2.8	-2.5375	-2.8875	-2.4917	-2.7396	-2.9062	-2.5792	-2.9188	-2.7229	-2.3438	-2.8063	-2.8021	-2.6375	24.608	171.235	191.933	-81.933	87.863	104.358	46.301	159.798	-43.743	71.916	-128.372	123.260	47.464	66.008	138.624	139.652	0.00018542	0.00027655	8.2609e-05	356.51	2.2563e-06	4.609e-06	423.48	120.46	2.3377e-06	3.0446e-06	168.99	57.822	37.76	15.063	2.6365e-06	25.67	0.00015881	0.00015471	4.2758e-05	362.38	1.698e-06	1.6909e-06	432.81	123.58	1.7244e-06	1.7057e-06	171.29	59.225	39.073	15.561	1.713e-06	25.987	193.299	-36.172	41.015	-141.592	-58.671	-65.862	-142.778	-137.419	-43.213	-69.181	-139.101	-136.014	-134.015	-130.038	-56.486	-132.178	-8191	255	
1010.782	1	1	0	0	0.092462	0.16755	0.12948	0.21433	0.11633	0.15791	0.20883	0.095123	0.11405	0.31083	0.10095	0.1134	0.10503	0.19902	0.055499	0.1804	-2.1875	-2.5896	-2.625	-2.8479	-2.4188	-2.8958	-2.8167	-2.7417	-2.8979	-2.5354	-2.7979	-2.8146	-2.5125	-2.8917	-2.725	-2.6708	-69.960	30.141	-23.083	-123.486	3.572	188.397	10.844	-28.556	-7.556	-18.345	-74.209	-3.565	-116.664	-145.333	-50.903	-76.593	0.00021464	0.00034864	7.0373e-05	352.31	1.745e-06	2.4761e-06	423.48	121.2	3.607e-06	5.5117e-07	169.41	57.966	38.05	15.168	2.6965e-06	25.639	0.00015896	0.00015652	4.3689e-05	363.89	1.7029e-06	1.7294e-06	435.66	123.96	1.7043e-06	1.7375e-06	171.85	59.391	39.254	15.552	1.7295e-06	26.043	196.854	-44.337	-89.944	-142.126	42.222	-103.443	-142.811	-137.567	-65.440	-26.449	-139.380	-136.264	-133.741	-129.665	-2.421	-132.626	-8191	255	
1010.878	1	1	0	0	0.2673	0.14568	0.025099	0.16822	0.059138	0.18615	0.13846	0.19659	0.10204	0.10467	0.087076	0.1595	0.16026	0.26462	0.19026	0.30374	-2.375	-2.4333	-2.6813	-2.95	-2.6208	-2.7146	-2.5271	-2.7375	-2.8146	-2.6437	-2.7854	-2.8771	-2.7375	-2.9583	-2.7354	-2.3792	26.712	67.048	166.541	-111.570	37.249	-117.936	133.970	135.119	114.690	177.886	78.212	142.039	166.809	193.962	68.724	90.050	0.00022402	0.0004178	0.0001083	352.76	1.4862e-06	3.8703e-06	428.74	121.75	4.0769e-06	7.4161e-07	171.11	58.507	37.92	15.116	3.0752e-06	25.625	0.00016246	0.00015796	4.3849e-05	364.51	1.7235e-06	1.7111e-06	437.11	124.26	1.7428e-06	1.7628e-06	172.6	59.614	39.163	15.598	1.7553e-06	26.011	198.353	-46.386	-116.062	-142.059	33.780	30.037	-142.732	-137.721	12.690	78.314	-139.480	-136.304	-134.243	-130.079	14.454	-132.330	-8191	255	
1010.974	1	1	0	0	0.075551	0.11056	0.21405	0.13921	0.094991	0.053469	0.03133	0.17799	0.14946	0.028575	0.12969	0.27511	0.31172	0.24239	0.14709	0.10512	-2.3271	-2.5417	-2.6125	-2.7896	-2.4125	-2.8167	-2.7062	-2.5687	-2.8604	-2.6833	-2.6667	-3.0042	-2.5104	-2.6375	-2.7188	-2.5125	73.981	191.358	37.552	-37.637	-90.653	60.981	-97.371	122.457	68.234	20.358	19.538	-10.271	-147.577	-1.190	109.076	-40.903	0.00022673	0.0001333	7.0139e-05	358.26	1.081e-06	1.9269e-06	426.86	121.58	9.163e-07	2.4836e-06	168.85	57.416	37.851	15.166	1.9819e-06	25.199	0.00016122	0.0001608	4.4245e-05	367.63	1.7213e-06	1.7407e-06	437.37	124.4	1.7609e-06	1.7535e-06	171.23	59.124	39.24	15.513	1.7438e-06	25.657	-154.067	-64.067	-72.814	-141.460	-115.090	30.868	-142.867	-137.658	-73.718	-14.908	-139.197	-136.288	-134.103	-130.089	-2.450	-132.021	-8191	255	
1011.070	1	1	0	0	0.19769	0.093119	0.12418	0.20908	0.20686	0.12375	0.16335	0.093957	0.10223	0.12769	0.082826	0.17477	0.027867	0.17041	0.12125	0.062035	-2.5542	-2.6979	-2.5687	-2.8417	-2.4521	-2.7667	-3.1604	-2.5875	-2.9104	-2.6458	-2.7042	-2.7521	-2.475	-2.6729	-2.8937	-2.5792	193.816	178.789	16.522	-103.659	-40.797	132.846	118.384	181.276	36.758	-24.494	155.448	47.492	95.238	170.262	78.027	-61.184	0.00017562	0.00045655	8.6257e-05	352.31	3.024e-06	2.4654e-06	424.84	121.7	9.2007e-07	1.1058e-06	168.61	57.822	38.115	15.151	4.2696e-06	25.178	0.0001623	0.00015941	4.4084e-05	365.34	1.7661e-06	1.7344e-06	435.75	124.46	1.7533e-06	1.7263e-06	171.62	59.196	39.402	15.549	1.7739e-06	25.62	196.434	-56.812	-76.545	-142.134	-28.707	-11.388	-142.613	-137.452	-111.947	40.732	-139.265	-136.164	-134.096	-129.887	-32.255	-132.263	-8191	255	
1011.189	1	1	0	0	0.19466	0.094393	0.078368	0.22895	0.27399	0.10129	0.24432	0.087481	0.22273	0.20287	0.096427	0.15848	0.19388	0.13072	0.048831	0.10054	-2.4479	-2.7125	-2.4792	-2.7771	-2.55	-2.6667	-2.8771	-2.6625	-2.8958	-2.8458	-2.6813	-2.7417	-2.5396	-2.775	-2.7521	-2.55	-82.550	-99.578	7.518	-143.773	122.741	167.316	118.697	-133.302	-41.489	172.432	33.719	-117.840	103.078	-59.712	-68.735	-53.985	0.00020343	0.00025728	7.4374e-05	353.98	5.386e-07	2.0387e-06	427.25	121.45	1.3081e-06	2.1074e-06	169.68	57.982	38.394	15.154	4.8191e-06	25.14	0.00016402	0.00015948	4.4408e-05	366.51	1.7619e-06	1.7385e-06	436.17	124.82	1.7456e-06	1.746e-06	172.18	59.442	39.597	15.559	1.7589e-06	25.641	-155.110	2.731	-79.986	-141.246	93.887	67.750	-142.746	-137.674	63.863	0.763	-139.299	-135.903	-134.125	-130.230	6.276	-132.134	-8191	255	
1011.285	1	1	0	0	0.075229	0.19062	0.12873	0.19539	0.17854	0.069441	0.18817	0.059795	0.31204	0.24505	0.13459	0.22787	0.086005	0.081003	0.2149	0.08841	-2.4062	-2.7979	-2.5271	-3.0667	-2.7417	-2.7313	-2.9125	-2.6312	-2.8417	-2.8521	-2.4667	-2.9375	-2.7792	-2.5396	-2.7875	-2.6792	135.167	143.719	118.754	181.630	-8.833	99.720	140.742	171.459	177.327	201.135	65.338	-77.084	-134.183	112.932	31.527	-22.414	0.00020548	0.00032886	4.5248e-05	358.9	2.4442e-06	8.8026e-07	427.77	121.78	2.466e-06	2.9622e-06	169.96	58.826	38.304	15.222	3.6603e-06	25.342	0.00016409	0.00016208	4.4797e-05	367.39	1.7291e-06	1.7574e-06	437.9	125.19	1.7603e-06	1.7521e-06	172.51	59.908	39.633	15.621	1.7906e-06	25.831	194.974	-26.483	-7.920	-141.564	-64.709	-64.617	-142.598	-137.141	-29.358	16.029	-139.494	-135.975	-133.742	-130.273	-38.505	-132.403	-8191	255	
1011.382	1	1	0	0	0.078992	0.0833	0.12524	0.18862	0.11872	0.11538	0.10696	0.2826	0.21138	0.17086	0.099738	0.12299	0.27247	0.16457	0.072527	0.14506	-2.3563	-2.7812	-2.4771	-2.8688	-2.6771	-2.7021	-2.9437	-2.5667	-2.9125	-2.8875	-2.4667	-2.8875	-2.7	-2.3104	-2.9792	-2.6375	-128.707	93.406	102.363	-47.087	-22.189	155.003	50.479	170.004	194.968	69.987	-99.611	95.799	128.851	-85.248	-4.790	-103.571	0.00021466	0.00019776	3.6109e-05	358.1	6.3624e-07	3.9512e-06	427.62	121.83	1.5047e-06	2.2717e-06	170.68	58.398	38.123	15.249	1.5159e-06	25.28	0.00016351	0.00016171	4.4763e-05	369.01	1.783e-06	1.7727e-06	438.21	125.26	1.7879e-06	1.761e-06	172.5	59.656	39.562	15.653	1.7684e-06	25.66	187.603	-76.775	-78.961	-141.604	-138.558	52.648	-142.711	-137.576	-100.970	-7.429	-138.939	-135.912	-134.069	-130.274	-9.110	-132.542	-8191	255	
1011.478	1	1	0	0	0.035147	0.035897	0.15244	0.15876	0.13401	0.16343	0.24708	0.077015	0.14192	0.10039	0.046791	0.085698	0.16837	0.16626	0.26461	0.1033	-2.1042	-2.7417	-2.3688	-2.7229	-2.875	-2.5708	-2.8312	-2.55	-2.6854	-2.8146	-2.5021	-2.8396	-2.6542	-2.5812	-2.8187	-2.5167	85.637	112.592	17.586	36.011	2.518	-76.953	98.656	47.746	16.411	-84.027	62.802	146.463	-130.778	-113.567	185.492	29.970	0.00016655	0.00015463	3.6371e-05	354.62	1.0365e-06	3.6211e-06	424.06	122.18	2.6858e-06	1.3004e-06	169.57	58.259	38.758	15.191	3.0509e-06	25.34	0.0001656	0.00016051	4.4847e-05	367.31	1.7485e-06	1.7487e-06	435.73	125.03	1.7569e-06	1.7439e-06	172.21	59.629	39.72	15.648	1.7719e-06	25.767	197.930	-97.581	-148.495	-141.774	-43.457	-4.475	-142.651	-137.540	-61.507	-31.618	-139.439	-136.247	-133.895	-129.881	28.359	-132.369	-8191	255	
1011.598	1	1	0	0	0.24658	0.10832	0.12276	0.10986	0.19898	0.16395	0.20592	0.13269	0.15815	0.24131	0.26032	0.25822	0.24014	0.099809	0.11896	0.20307	-1.975	-2.8937	-2.6479	-2.6708	-2.875	-2.3771	-2.8792	-2.6354	-2.5896	-2.9333	-2.5875	-2.8042	-2.7208	-2.5854	-2.6854	-2.575	180.894	-33.773	186.823	-48.293	0.309	-87.387	119.909	-112.709	-89.825	44.251	150.037	122.038	-150.381	2.386	-71.956	96.125	0.0001747	0.00032843	7.2691e-05	356.38	3.087e-06	1.7906e-06	430.47	122.38	2.0101e-06	4.9794e-06	170.34	59.155	38.465	15.345	1.6396e-06	25.403	0.00016645	0.00016104	4.5458e-05	369.02	1.7796e-06	1.775e-06	438.5	125.51	1.7777e-06	1.7721e-06	173.49	60.101	39.909	15.701	1.7644e-06	25.861	201.965	3.437	-72.831	-141.956	-16.791	25.599	-142.435	-137.706	-84.836	-16.381	-139.351	-136.215	-133.862	-130.273	-5.189	-132.514	-8191	255	
1011.670	1	1	0	0	0.1614	0.052167	0.28458	0.2605	0.098546	0.14444	0.13475	0.10255	0.064786	0.10845	0.1144	0.13617	0.11516	0.12746	0.064622	0.14722	-2.0542	-2.7625	-2.5438	-2.7667	-2.8937	-2.5187	-2.9417	-2.5229	-2.6875	-2.8354	-2.6042	-2.5229	-2.8292	-2.6792	-2.9896	-2.7146	23.104	-123.072	73.160	6.597	-39.133	68.087	-36.316	-12.091	33.773	100.666	-86.358	41.888	147.592	-83.674	61.339	94.767	0.00019653	0.00019637	5.8962e-05	356.49	1.2683e-06	2.9786e-06	429.97	123.03	2.8265e-06	2.1414e-06	170.87	59.35	38.837	15.35	3.3639e-06	25.353	0.00016557	0.00016027	4.4845e-05	368.17	1.7745e-06	1.7688e-06	438.84	126.41	1.7692e-06	1.769e-06	174.25	60.484	40.162	15.762	1.7806e-06	25.961	203.851	168.973	-26.281	-141.817	-107.617	-53.996	-142.653	-137.481	-87.307	28.855	-139.530	-136.071	-134.206	-130.131	-102.679	-132.239	-8191	255	
1011.791	1	1	0	0	0.40187	0.31882	0.26293	0.062214	0.17812	0.17482	0.2366	0.086936	0.11119	0.29302	0.13192	0.1113	0.0951	0.085009	0.14129	0.11616	-2.2854	-2.8292	-2.5667	-2.55	-2.7792	-2.5687	-2.9625	-2.7562	-2.5771	-2.8396	-2.65	-2.5833	-2.7833	-2.4708	-2.8333	-2.8354	-49.771	-37.084	-26.618	-102.681	106.083	36.671	88.197	-43.476	-33.465	201.796	97.187	138.458	-62.275	168.748	-12.176	-91.859	0.00019377	0.00014036	9.5433e-05	359.36	4.2715e-06	4.655e-06	429.56	123.1	2.1267e-06	3.4822e-06	170.65	58.673	38.677	15.338	7.4109e-07	25.399	0.00016484	0.00016221	4.5273e-05	370.27	1.7708e-06	1.753e-06	439.98	126.45	1.7677e-06	1.7723e-06	174.03	60.171	39.923	15.715	1.8068e-06	25.826	196.691	-20.092	-108.672	-141.877	-9.187	-64.422	-142.802	-137.432	-151.659	202.564	-139.309	-136.071	-134.014	-130.103	73.730	-132.192	-8191	255	
1011.887	1	1	0	0	0.13991	0.1465	0.13752	0.063969	0.21694	0.15471	0.17374	0.19857	0.064061	0.030608	0.24576	0.20486	0.045179	0.08855	0.063532	0.091393	-2.1813	-3.0729	-2.6479	-2.6521	-2.7938	-2.5875	-2.7417	-2.8125	-2.6208	-2.975	-2.65	-2.5167	-2.8917	-2.55	-2.6375	-2.8937	31.452	-150.892	16.461	-36.967	117.839	-74.495	110.552	-127.036	6.373	-132.104	76.712	-11.115	104.332	152.208	175.092	71.686	0.00019763	0.00013113	6.6421e-05	358.08	1.9281e-06	2.4622e-06	432.02	122.25	2.8457e-06	2.688e-06	169.78	57.926	38.258	15.237	1.7445e-06	25.327	0.00017009	0.0001625	4.5032e-05	370.01	1.8134e-06	1.7952e-06	439.75	125.01	1.8199e-06	1.8083e-06	172.03	59.459	39.58	15.658	1.811e-06	25.709	196.339	-73.466	201.376	-141.546	203.346	61.006	-142.761	-137.306	-101.252	3.136	-139.388	-136.222	-133.892	-130.003	-57.703	-132.413	-8191	255	
1011.983	1	1	0	0	0.28072	0.10256	0.23998	0.031752	0.12452	0.19655	0.047134	0.043707	0.095474	0.13013	0.14188	0.088866	0.18582	0.18327	0.22032	0.14003	-1.9083	-2.8146	-2.775	-2.5375	-2.9875	-2.5563	-2.6729	-2.8333	-2.5646	-2.95	-2.7646	-2.5438	-2.7917	-2.6312	-2.5292	-2.6875	170.589	-14.601	-23.043	-64.861	-132.093	-45.429	57.122	4.719	-40.709	40.487	144.584	-44.739	-136.810	26.016	203.171	-40.247	0.00020413	0.0001805	0.00012649	359.37	2.892e-06	3.025e-06	426.59	121.59	1.916e-06	9.2682e-07	171.11	58.213	38.362	15.32	4.5852e-06	25.195	0.00017041	0.00016488	4.5677e-05	370.84	1.7902e-06	1.8142e-06	439.02	125.02	1.8176e-06	1.8053e-06	172.69	59.568	39.6	15.66	1.8138e-06	25.704	202.971	61.029	-121.526	-141.877	-39.889	29.619	-142.786	-137.406	161.030	-55.879	-139.522	-135.956	-134.100	-129.888	-36.348	-132.705	-8191	255	
1012.077	1	1	0	0	0.11437	0.15533	0.1514	0.29902	0.029678	0.18548	0.213	0.076315	0.20556	0.213	0.23955	0.10543	0.20823	0.21321	0.15687	0.19937	-2.15	-2.6792	-2.8604	-2.4292	-2.8354	-2.6167	-2.5438	-2.8458	-2.8292	-2.8625	-2.6521	-2.5396	-2.8208	-2.6792	-2.7479	-2.9875	86.775	-150.987	142.714	-2.714	123.364	183.319	-137.339	-41.705	202.160	-81.519	158.664	-92.069	201.824	108.554	-109.741	71.393	0.0002001	7.3005e-05	4.3604e-05	357.38	1.0798e-06	1.7121e-06	428.69	122.41	1.3564e-06	2.1664e-06	171.29	58.438	38.745	15.192	1.9692e-06	25.23	0.00016784	0.00016419	4.5467e-05	370.03	1.8196e-06	1.8055e-06	440.66	125.59	1.8228e-06	1.8208e-06	173.53	59.93	39.818	15.613	1.8205e-06	25.665	199.133	126.638	-23.029	-141.922	-28.916	187.474	-142.384	-137.535	-11.269	-8.421	-139.565	-135.778	-133.628	-130.008	189.170	-132.455	-8191	255	
1012.198	1	1	0	0	0.050735	0.30874	0.22091	0.075916	0.41265	0.19057	0.097164	0.19023	0.18986	0.12631	0.20202	0.084672	0.12187	0.052069	0.074126	0.12434	-2.275	-2.7229	-2.7708	-2.3875	-2.9167	-2.7313	-2.5167	-2.8625	-2.4521	-2.65	-2.8875	-2.5938	-2.7208	-2.7479	-2.5563	-2.8229	204.138	84.453	16.387	39.857	-31.620	13.911	160.917	74.540	-50.414	32.672	162.547	-93.146	-128.211	181.826	26.450	-55.525	0.00020288	0.00028967	8.0013e-05	359.59	1.8977e-06	1.8629e-06	430.61	122.43	1.5652e-06	2.57e-06	170.92	58.514	38.725	15.266	3.1313e-06	25.192	0.00016651	0.00016379	4.5241e-05	371.56	1.8038e-06	1.7723e-06	441.78	125.75	1.7999e-06	1.7858e-06	173.96	60.095	39.885	15.689	1.8082e-06	25.769	191.303	-63.808	-112.958	-141.621	-9.317	1.956	-142.724	-137.441	170.734	11.959	-139.359	-135.851	-133.911	-130.165	-57.413	-131.963	-8191	255	
1012.270	1	1	0	0	0.14861	0.27663	0.30067	0.068605	0.069673	0.041531	0.097226	0.14184	0.13449	0.25474	0.35302	0.26504	0.043178	0.2218	0.24038	0.073792	-2.2396	-2.7229	-2.8187	-2.4667	-2.8125	-2.8083	-2.6875	-3.1188	-2.5563	-2.5187	-2.8104	-2.6167	-2.6792	-2.8792	-2.5062	-2.875	-144.567	-108.901	-80.723	40.343	59.016	72.847	-145.102	60.902	-139.038	43.014	163.994	165.666	-136.791	186.186	-47.384	133.347	0.0002623	0.00020325	2.1269e-05	361.9	3.5388e-06	4.7881e-06	429.82	122.54	1.3738e-06	2.7964e-06	169.18	58.54	38.367	15.15	3.0779e-06	25.257	0.0001682	0.00016442	4.5664e-05	370.84	1.8041e-06	1.8004e-06	440.28	125.58	1.773e-06	1.8064e-06	172.44	59.711	39.739	15.591	1.7813e-06	25.618	201.017	75.409	-112.579	-141.664	-28.778	-76.943	-142.619	-137.690	-31.295	73.420	-139.388	-135.982	-133.853	-129.839	-97.001	-132.494	-8191	255	
1012.366	1	1	0	0	0.073937	0.10625	0.19707	0.19381	0.13842	0.14938	0.28265	0.071338	0.1638	0.22367	0.3072	0.22573	0.099991	0.28363	0.20783	0.23197	-2.1375	-2.5521	-2.9146	-2.45	-2.7917	-2.7646	-2.5146	-2.7792	-2.6667	-2.7125	-2.8312	-2.5958	-2.6479	-2.7896	-2.5396	-2.9792	92.768	-120.876	-72.581	-54.559	-149.028	69.266	121.438	-80.558	105.072	-150.564	91.938	-81.450	-26.900	74.082	-23.491	67.447	0.00018862	0.00011729	2.4049e-05	363.43	2.1889e-06	2.3187e-06	431.27	122.59	1.1319e-06	1.0098e-06	171.61	58.402	38.471	15.321	2.9612e-06	25.25	0.00016562	0.00016597	4.5428e-05	371.42	1.8028e-06	1.7851e-06	440.37	125.91	1.7926e-06	1.8289e-06	173.37	59.814	39.719	15.699	1.8031e-06	25.669	200.796	-76.782	197.104	-142.314	53.722	-12.952	-142.710	-137.380	-68.887	-55.075	-139.687	-135.824	-134.038	-130.188	-88.357	-132.481	-8191	255	
1012.462	1	1	0	0	0.14009	0.27578	0.10736	0.18686	0.11583	0.18209	0.32587	0.19118	0.19793	0.21227	0.19013	0.10813	0.17985	0.083362	0.25791	0.13676	-2.1437	-2.55	-2.8771	-2.6479	-2.7062	-2.8479	-2.5438	-2.8812	-2.7646	-2.6625	-2.9562	-2.55	-2.6896	-2.7771	-2.6479	-2.9562	-100.156	79.170	112.661	-26.247	83.579	34.409	193.295	64.200	119.438	114.838	-115.045	-32.465	183.634	-90.131	14.028	154.256	0.0001657	0.00014313	0.00013165	359.61	1.8895e-06	3.3946e-07	429.43	122.98	2.7796e-06	3.0544e-06	171.96	58.797	39.041	15.404	9.4781e-07	25.48	0.00016799	0.00016233	4.5372e-05	369.85	1.805e-06	1.777e-06	440.19	126.33	1.8039e-06	1.7962e-06	174.15	60.304	40.137	15.733	1.7922e-06	25.824	201.224	27.105	-65.450	-141.725	-10.055	-83.347	-142.448	-137.547	-19.008	48.127	-139.407	-136.160	-134.313	-130.012	203.529	-132.398	-8191	255	
1012.558	1	1	0	0	0.13972	0.046995	0.22149	0.36588	0.091135	0.19539	0.059885	0.20934	0.082676	0.13906	0.053678	0.154	0.16322	0.30061	0.07826	0.23861	-2.2896	-2.4688	-2.7833	-2.5917	-2.6896	-2.9125	-2.7604	-2.7229	-2.6875	-2.5833	-2.8625	-2.75	-2.6562	-2.8958	-2.6354	-2.7271	-120.231	-68.750	57.532	-41.563	76.321	192.822	141.930	50.610	137.519	130.867	111.508	188.248	-124.248	158.105	133.240	184.837	0.00020032	0.00021263	9.1038e-05	359.29	3.4935e-07	2.2561e-06	429.95	123.43	2.4333e-06	5.0894e-06	171.99	59.04	38.826	15.308	5.2494e-07	25.39	0.00016626	0.00016225	4.4908e-05	369.9	1.7696e-06	1.783e-06	440.99	126.71	1.7846e-06	1.7875e-06	174.88	60.418	40.158	15.758	1.7944e-06	25.866	197.410	-68.814	-39.353	-141.963	-91.803	61.363	-142.498	-137.581	-104.794	-34.308	-139.611	-136.231	-134.077	-130.457	-57.069	-132.443	-8191	255	
1012.679	1	1	0	0	0.30845	0.15171	0.059976	0.18269	0.050313	0.12304	0.093783	0.17438	0.12905	0.22506	0.18966	0.06759	0.17805	0.17265	0.10549	0.096025	-2.3667	-2.4104	-2.8729	-2.7271	-2.5458	-3.2104	-2.65	-2.725	-3.0687	-2.5833	-3.0083	-2.6708	-2.5792	-2.8146	-2.7396	-2.7604	104.866	172.341	14.087	152.847	-135.687	-98.380	152.486	140.809	100.228	54.281	101.897	84.828	91.600	203.718	199.285	138.577	0.00019756	0.00018	4.1408e-05	357.45	1.6893e-06	1.6563e-06	428.99	123.17	2.0152e-06	2.7431e-06	171.64	58.78	38.973	15.362	1.5219e-06	25.008	0.00016491	0.00016277	4.5194e-05	370.95	1.7521e-06	1.7692e-06	439.96	126.27	1.7665e-06	1.7778e-06	173.71	60.055	40.168	15.708	1.7892e-06	25.561	199.966	-109.479	-40.928	-141.909	-92.831	-127.957	-142.484	-137.416	-20.001	-28.129	-139.393	-136.073	-134.120	-130.295	-34.574	-132.296	-8191	255	
1012.775	1	1	0	0	0.13598	0.2646	0.080768	0.19728	0.18871	0.13322	0.12934	0.12257	0.028521	0.21539	0.1722	0.16841	0.064322	0.016885	0.18861	0.086803	-2.4	-2.4208	-2.7792	-2.7896	-2.5667	-3	-2.5542	-2.8042	-2.9313	-2.45	-2.7208	-2.575	-2.5	-2.9604	-2.7021	-2.5375	-131.247	186.142	-112.599	120.773	-150.873	101.717	-71.705	167.128	169.898	17.885	-95.196	-54.252	-40.739	133.551	145.980	-124.879	0.00021163	0.00033554	3.6936e-05	357.15	1.0002e-06	2.4213e-06	425.25	122.78	3.016e-06	2.5318e-06	170.35	58.57	38.461	15.218	2.1647e-06	25.09	0.00016772	0.00016123	4.5335e-05	369.43	1.7595e-06	1.7644e-06	436.7	125.66	1.7781e-06	1.7674e-06	172.9	59.784	39.934	15.62	1.8102e-06	25.629	203.220	-30.343	-41.420	-141.296	-38.007	-117.844	-142.752	-137.645	-89.969	67.214	-139.557	-136.154	-134.540	-129.987	116.524	-132.382	-8191	255	
1012.871	1	1	0	0	0.199	0.13075	0.1611	0.085021	0.3186	0.13894	0.20143	0.11283	0.1728	0.23313	0.2145	0.17404	0.026695	0.19762	0.062097	0.10653	-2.5833	-2.6542	-2.6292	-2.9271	-2.4354	-2.7083	-2.6042	-2.5187	-3.0583	-2.6875	-2.6833	-2.8229	-2.5792	-2.9062	-2.75	-2.7146	-93.958	149.192	-26.958	-93.584	66.718	-24.342	192.799	27.495	-118.866	-129.519	57.174	157.369	112.051	169.378	132.440	158.684	0.00020222	0.00025581	9.1595e-05	356.01	1.0517e-06	2.4401e-06	426.26	122.71	4.7153e-07	1.5921e-06	170.03	58.147	38.555	15.167	2.437e-06	25.132	0.00016536	0.00016335	4.5532e-05	369.21	1.8226e-06	1.7977e-06	437.53	125.44	1.8235e-06	1.8109e-06	172.65	59.403	39.725	15.59	1.8031e-06	25.529	197.204	-9.908	-117.861	-141.921	19.801	49.436	-142.626	-137.584	89.843	49.005	-139.559	-136.038	-133.982	-130.182	-69.832	-132.007	-8191	255	
1012.967	1	1	0	0	0.24365	0.084623	0.19812	0.19392	0.089504	0.13217	0.071375	0.081584	0.16485	0.086278	0.13075	0.12248	0.2795	0.13609	0.19033	0.17747	-2.4313	-2.3979	-2.4896	-2.6833	-2.5104	-2.825	-2.7354	-2.6396	-2.7771	-2.4813	-2.5687	-2.6875	-2.3854	-2.6833	-2.6125	-2.4542	-0.336	-20.641	33.779	7.010	5.768	-1.951	158.561	-80.586	72.496	161.107	-3.787	-62.688	91.217	76.900	-106.275	69.781	0.00017903	0.00018843	0.00012352	361.06	8.8987e-07	1.7852e-06	428.31	121.76	2.3897e-06	2.931e-06	170.96	58.251	38.318	15.108	1.7493e-06	25.1	0.0001666	0.00016196	4.5693e-05	369.53	1.7653e-06	1.7806e-06	438.71	125.28	1.7795e-06	1.8031e-06	172.84	59.368	39.643	15.517	1.8218e-06	25.491	-152.718	-95.590	-53.293	-142.059	-14.074	72.972	-142.600	-137.566	-74.969	88.514	-139.196	-136.173	-133.897	-130.034	38.083	-132.358	-8191	255	
1013.063	1	1	0	0	0.22185	0.08575	0.1364	0.14056	0.25163	0.26795	0.23158	0.082944	0.087079	0.20813	0.13847	0.12282	0.073355	0.14582	0.093776	0.17553	-2.475	-2.6292	-2.5979	-2.5646	-2.5833	-2.8417	-2.6646	-2.4708	-2.7188	-2.5812	-2.7458	-2.8812	-2.5104	-2.75	-2.7854	-2.4854	77.140	-93.467	21.929	112.826	-116.216	20.552	194.406	151.418	-86.782	81.900	4.962	191.588	175.743	121.826	98.388	104.996	0.00019182	0.00031968	8.3602e-05	358.49	1.7323e-06	2.8688e-06	430.82	121.34	3.2027e-06	2.8944e-06	169.48	57.956	38.05	14.907	2.7881e-06	24.623	0.00016917	0.00016581	4.6348e-05	370.89	1.8428e-06	1.7959e-06	439.79	124.47	1.7889e-06	1.7831e-06	171.83	59.204	39.287	15.386	1.7955e-06	25.171	-147.454	7.490	-27.654	-141.463	-117.788	18.954	-142.786	-137.620	-1.173	23.401	-139.570	-136.145	-134.223	-130.036	-10.220	-132.398	-8191	255	
1013.159	1	1	0	0	0.1955	0.25381	0.15504	0.11048	0.1096	0.098627	0.13303	0.12712	0.31054	0.064647	0.014742	0.12951	0.13467	0.11952	0.32836	0.10094	-2.5	-2.7104	-2.5667	-2.7458	-2.4417	-2.8042	-2.7146	-2.4125	-2.9313	-2.9	-2.6937	-2.7896	-2.6833	-2.7313	-2.8458	-2.3479	93.776	178.806	-68.561	-78.480	156.952	-146.227	121.723	-129.355	-44.206	-66.763	170.040	-149.124	87.404	137.044	81.374	39.333	0.00018771	0.00022218	6.3685e-05	361.39	1.7743e-06	2.3218e-06	423.91	121.11	1.3833e-06	2.3484e-06	167.99	57.596	38.13	14.987	2.3606e-06	24.615	0.00016608	0.00016121	4.5282e-05	369.26	1.7541e-06	1.7534e-06	435.1	124.26	1.7612e-06	1.7386e-06	170.64	58.884	39.319	15.372	1.7837e-06	25.09	203.423	-26.869	-33.246	-141.847	-78.456	95.929	-142.679	-137.451	-60.108	-37.515	-139.176	-136.604	-134.236	-130.491	-6.270	-132.471	-8191	255	
1013.278	1	1	0	0	0.19458	0.31589	0.039433	0.038785	0.16975	0.14031	0.081057	0.32722	0.15763	0.1127	0.19925	0.11791	0.056463	0.1032	0.10067	0.2876	-2.3354	-2.6875	-2.5458	-2.7646	-2.6188	-2.4729	-2.8646	-2.5208	-2.8063	-2.8125	-2.5854	-2.8271	-2.5792	-2.6375	-2.7896	-2.5417	-130.213	-61.762	-5.417	-84.958	-73.240	114.142	-37.174	154.386	174.288	161.326	-149.521	66.503	-150.192	99.170	38.641	-106.345	0.00018158	0.00032189	0.0001175	356.32	8.2162e-07	3.8156e-06	424.23	121.21	8.0916e-07	2.2826e-06	168.69	57.439	37.887	14.934	2.9238e-06	24.767	0.00016565	0.00016175	4.6017e-05	368.6	1.7932e-06	1.7522e-06	435.14	124.3	1.7762e-06	1.773e-06	170.79	58.77	39.273	15.366	1.7855e-06	25.163	-155.348	-87.963	-63.881	-141.963	-96.810	10.309	-142.866	-137.706	138.322	8.180	-139.113	-136.132	-134.161	-130.474	-55.619	-132.130	-8191	255	
1013.375	1	1	0	0	0.14269	0.24659	0.098831	0.14381	0.23616	0.31913	0.29493	0.17977	0.099943	0.23417	0.071482	0.042177	0.2551	0.10782	0.18993	0.10306	-2.2667	-2.5312	-2.4292	-2.8125	-2.5542	-2.6042	-2.8292	-2.5271	-2.6437	-2.6229	-2.4771	-2.7646	-2.5958	-2.5563	-2.9979	-2.3583	-71.481	157.395	155.073	-108.520	-85.872	43.902	167.621	31.791	85.553	-31.625	76.744	8.633	164.034	-70.245	-49.409	45.332	0.00016233	9.1845e-05	8.8658e-05	356.9	4.9275e-07	2.5956e-06	425.3	120.89	2.3445e-06	3.3965e-06	168.56	57.92	37.851	15.087	2.9423e-06	24.962	0.00016656	0.00016221	4.5526e-05	368.55	1.7847e-06	1.7977e-06	436.23	124.45	1.8157e-06	1.8101e-06	171.4	59.133	39.29	15.449	1.7797e-06	25.307	-152.383	-24.826	-18.862	-142.259	153.412	14.355	-142.841	-137.855	-98.673	40.256	-138.921	-135.774	-134.412	-130.293	-24.844	-132.261	-8191	255	
1013.471	1	1	0	0	0.12525	0.21712	0.23726	0.25901	0.038416	0.21152	0.054064	0.31567	0.18147	0.25967	0.12218	0.19212	0.26775	0.082647	0.10947	0.12315	-2.2958	-2.675	-2.4354	-2.5938	-2.5479	-2.6792	-2.7938	-2.5104	-2.6729	-2.9167	-2.6562	-2.9458	-2.6646	-2.7167	-2.9021	-2.8312	-135.096	-96.948	-121.438	-120.453	-143.123	-153.567	-114.778	65.202	-147.485	173.281	43.864	-39.347	100.265	-128.226	-39.434	28.665	0.00017534	0.00033733	8.5109e-05	357.74	3.9149e-06	1.8595e-06	427.06	121.4	1.4572e-06	1.1254e-06	168.87	57.426	38.104	15.072	4.1134e-06	24.842	0.00016701	0.00016224	4.548e-05	368.6	1.801e-06	1.7778e-06	438.32	124.38	1.8061e-06	1.8063e-06	171.91	59.171	39.372	15.458	1.7887e-06	25.324	203.668	-99.139	-68.550	-141.695	13.040	126.701	-142.358	-137.647	-141.170	136.228	-139.335	-135.833	-134.308	-130.213	-85.187	-132.401	-8191	255	
1013.567	1	1	0	0	0.11459	0.02607	0.19756	0.22982	0.092683	0.14923	0.086172	0.22621	0.22073	0.25888	0.067349	0.24237	0.051414	0.14152	0.14436	0.17303	-2.2792	-2.6417	-2.3729	-2.7188	-2.7583	-2.5771	-2.9021	-2.5292	-2.5083	-2.8146	-2.5938	-2.9229	-2.7	-2.4688	-2.8417	-2.7625	-130.426	132.192	94.552	71.943	35.625	-108.111	-51.952	-135.229	-66.866	90.364	-152.033	139.248	56.810	-130.500	19.461	-97.358	0.00016405	0.00033968	6.5218e-05	360.96	2.1316e-06	4.5989e-06	424.98	121.24	1.4869e-06	1.7198e-06	168.47	57.767	38.349	15.07	2.0277e-06	24.72	0.00016614	0.00016054	4.5348e-05	367.74	1.7511e-06	1.7746e-06	434.5	124.47	1.7633e-06	1.7667e-06	171.14	59.19	39.435	15.488	1.7682e-06	25.277	194.033	-74.363	-15.479	-141.936	-37.256	0.962	-142.773	-137.621	-15.015	-50.442	-139.253	-135.936	-134.391	-130.181	-36.724	-132.181	-8191	255	
#DATA ENDS
