BOXY.EXE: ISS Imagent and Oximeter Data Acquisition Program Version 0.80
Ascii Record File

#ACQ INFORMATION
2  Detector Channels 
16  External MUX Channels 
1  Auxiliary Channels 
5000  Waveform (CCF) Frequency (Hz)
1  Waveforms Skipped 
30  Waveforms Averaged 
1  Cycles Averaged 
16  Acquisitions per Waveform 
10.0806  Updata Rate (Hz) 

#FILE INFORMATION
TRUE -- External MUX Channel results are PARSED.
FALSE -- AC DC and Phase are NOT grouped.
TRUE -- Companion Program Settings File CREATED.
FALSE -- AC data not excluded
FALSE -- DC data not excluded
FALSE -- Phase data not excluded
FALSE -- Auxillary Chn. data not excluded
Tab delimiters

#CALIBRATION STATE
TRUE -- Waveform Calibration Values APPLIED.


#AUX CALIBRATION VALUES
Val Type	aux-1	

Term	1.0000e+00	
Factor	0.0000e+00	


#WF CALIBRATION VALUES
A = Detector Channel
Val Type	A-AC1	A-AC2	A-AC3	A-AC4	A-AC5	A-AC6	A-AC7	A-AC8	A-AC9	A-AC10	A-AC11	A-AC12	A-AC13	A-AC14	A-AC15	A-AC16	A-DC1	A-DC2	A-DC3	A-DC4	A-DC5	A-DC6	A-DC7	A-DC8	A-DC9	A-DC10	A-DC11	A-DC12	A-DC13	A-DC14	A-DC15	A-DC16	A-Ph1	A-Ph2	A-Ph3	A-Ph4	A-Ph5	A-Ph6	A-Ph7	A-Ph8	A-Ph9	A-Ph10	A-Ph11	A-Ph12	A-Ph13	A-Ph14	A-Ph15	A-Ph16	

Term	0.00000e+00	0.00000e+00	0.00000e+00	0.00000e+00	0.00000e+00	0.00000e+00	0.00000e+00	0.00000e+00	0.00000e+00	0.00000e+00	0.00000e+00	0.00000e+00	0.00000e+00	0.00000e+00	0.00000e+00	0.00000e+00	0.00000e+00	0.00000e+00	0.00000e+00	0.00000e+00	0.00000e+00	0.00000e+00	0.00000e+00	0.00000e+00	0.00000e+00	0.00000e+00	0.00000e+00	0.00000e+00	0.00000e+00	0.00000e+00	0.00000e+00	0.00000e+00	0.00000e+00	0.00000e+00	0.00000e+00	0.00000e+00	0.00000e+00	0.00000e+00	0.00000e+00	0.00000e+00	0.00000e+00	0.00000e+00	0.00000e+00	0.00000e+00	0.00000e+00	0.00000e+00	0.00000e+00	0.00000e+00	
Factor	1.00000e+00	1.00000e+00	1.00000e+00	1.00000e+00	1.00000e+00	1.00000e+00	1.00000e+00	1.00000e+00	1.00000e+00	1.00000e+00	1.00000e+00	1.00000e+00	1.00000e+00	1.00000e+00	1.00000e+00	1.00000e+00	1.00000e+00	1.00000e+00	1.00000e+00	1.00000e+00	1.00000e+00	1.00000e+00	1.00000e+00	1.00000e+00	1.00000e+00	1.00000e+00	1.00000e+00	1.00000e+00	1.00000e+00	1.00000e+00	1.00000e+00	1.00000e+00	X	X	X	X	X	X	X	X	X	X	X	X	X	X	X	X	

B = Detector Channel
Val Type	B-AC1	B-AC2	B-AC3	B-AC4	B-AC5	B-AC6	B-AC7	B-AC8	B-AC9	B-AC10	B-AC11	B-AC12	B-AC13	B-AC14	B-AC15	B-AC16	B-DC1	B-DC2	B-DC3	B-DC4	B-DC5	B-DC6	B-DC7	B-DC8	B-DC9	B-DC10	B-DC11	B-DC12	B-DC13	B-DC14	B-DC15	B-DC16	B-Ph1	B-Ph2	B-Ph3	B-Ph4	B-Ph5	B-Ph6	B-Ph7	B-Ph8	B-Ph9	B-Ph10	B-Ph11	B-Ph12	B-Ph13	B-Ph14	B-Ph15	B-Ph16	

Term	0.00000e+00	0.00000e+00	0.00000e+00	0.00000e+00	0.00000e+00	0.00000e+00	0.00000e+00	0.00000e+00	0.00000e+00	0.00000e+00	0.00000e+00	0.00000e+00	0.00000e+00	0.00000e+00	0.00000e+00	0.00000e+00	0.00000e+00	0.00000e+00	0.00000e+00	0.00000e+00	0.00000e+00	0.00000e+00	0.00000e+00	0.00000e+00	0.00000e+00	0.00000e+00	0.00000e+00	0.00000e+00	0.00000e+00	0.00000e+00	0.00000e+00	0.00000e+00	-1.01651e+02	-1.31598e+02	-1.20738e+02	-1.91400e+02	-6.33302e+01	-6.26078e+01	-1.55998e+02	-1.62015e+02	-5.85124e+01	-6.34004e+01	-1.71242e+02	-1.69256e+02	-1.82252e+02	-1.76911e+02	-6.36124e+01	-1.48894e+02	
Factor	1.65450e-05	1.63506e-04	4.61476e-05	7.96256e-01	1.42743e-06	1.71502e-06	1.68508e-01	5.36599e-02	1.14399e-06	1.82088e-06	9.19581e-02	2.79579e-02	3.18351e-02	9.46751e-03	1.44351e-06	1.32714e-02	9.20689e-06	1.42985e-05	3.97790e-06	4.00663e-01	1.55516e-07	1.58660e-07	8.09809e-02	2.75310e-02	1.46786e-07	1.58617e-07	4.56486e-02	1.40073e-02	1.65838e-02	4.88813e-03	1.51075e-07	6.63547e-03	X	X	X	X	X	X	X	X	X	X	X	X	X	X	X	X	



#DISTANCE SETTINGS
A = Detector Channel
A-1	A-2	A-3	A-4	A-5	A-6	A-7	A-8	A-9	A-10	A-11	A-12	A-13	A-14	A-15	A-16	

2.5000e+00	3.0000e+00	2.5000e+00	3.0000e+00	2.0000e+00	3.0000e+00	1.5000e+00	3.0000e+00	3.0000e+00	3.0000e+00	3.0000e+00	3.0000e+00	3.0000e+00	3.0000e+00	1.5000e+00	3.0000e+00	

B = Detector Channel
B-1	B-2	B-3	B-4	B-5	B-6	B-7	B-8	B-9	B-10	B-11	B-12	B-13	B-14	B-15	B-16	

1.0000e+01	1.0000e+01	1.0000e+01	1.4400e+00	1.0000e+01	1.0000e+01	1.5100e+00	1.9400e+00	1.0000e+01	1.0000e+01	1.9900e+00	2.4900e+00	2.4100e+00	2.9000e+00	1.0000e+01	2.9800e+00	




#DATA BEGINS
time	group	step	mark	flag	A-AC1	A-AC2	A-AC3	A-AC4	A-AC5	A-AC6	A-AC7	A-AC8	A-AC9	A-AC10	A-AC11	A-AC12	A-AC13	A-AC14	A-AC15	A-AC16	A-DC1	A-DC2	A-DC3	A-DC4	A-DC5	A-DC6	A-DC7	A-DC8	A-DC9	A-DC10	A-DC11	A-DC12	A-DC13	A-DC14	A-DC15	A-DC16	A-Ph1	A-Ph2	A-Ph3	A-Ph4	A-Ph5	A-Ph6	A-Ph7	A-Ph8	A-Ph9	A-Ph10	A-Ph11	A-Ph12	A-Ph13	A-Ph14	A-Ph15	A-Ph16	B-AC1	B-AC2	B-AC3	B-AC4	B-AC5	B-AC6	B-AC7	B-AC8	B-AC9	B-AC10	B-AC11	B-AC12	B-AC13	B-AC14	B-AC15	B-AC16	B-DC1	B-DC2	B-DC3	B-DC4	B-DC5	B-DC6	B-DC7	B-DC8	B-DC9	B-DC10	B-DC11	B-DC12	B-DC13	B-DC14	B-DC15	B-DC16	B-Ph1	B-Ph2	B-Ph3	B-Ph4	B-Ph5	B-Ph6	B-Ph7	B-Ph8	B-Ph9	B-Ph10	B-Ph11	B-Ph12	B-Ph13	B-Ph14	B-Ph15	B-Ph16	aux-1	digaux	

1389.873	1	1	0	768	0.13933	0.12147	0.042199	0.19789	0.14057	0.21255	0.12204	0.13509	0.15465	0.36842	0.12495	0.31809	0.2146	0.17417	0.16065	0.20451	-1.0812	-1.3833	-0.8	-1.7229	-1.0688	-0.99583	-1.7792	-0.9875	-1.3479	-1.4062	-0.83958	-1.6771	-0.9875	-1.0125	-1.6437	-0.71458	0.851	193.548	-1.780	111.782	40.979	24.752	153.187	158.542	116.031	66.360	204.014	181.317	-54.982	195.544	94.877	95.846	0.00015488	0.00059727	0.00012696	670.36	2.7113e-06	6.3054e-06	581.66	263.72	3.451e-07	6.9252e-06	267.4	102.79	96.831	47.743	4.333e-06	51.453	0.0061407	0.0093877	0.0026269	966.23	9.9009e-05	0.00010255	672.15	300.1	9.4255e-05	0.00010322	314.05	120.81	115.7	54.771	9.9273e-05	59.773	217.841	6.312	36.285	-83.176	54.311	24.318	-83.864	-77.508	-0.194	52.305	-79.125	-74.298	-72.632	-66.975	73.259	-69.998	-8191	255	
1389.969	1	1	0	0	0.18242	0.11904	0.19311	0.094316	0.15844	0.10304	0.11999	0.18614	0.0067845	0.098366	0.21399	0.27743	0.098497	0.19981	0.31024	0.28684	-1.0187	-1.3875	-0.59167	-1.5333	-1.0292	-0.85	-1.6917	-0.95	-1.1646	-1.5875	-0.9	-1.4854	-1.2354	-0.81667	-1.7333	-0.78125	63.780	170.022	30.321	62.051	85.888	-53.620	233.973	232.055	163.108	-9.380	244.833	78.445	71.571	230.833	97.443	223.903	0.00019491	0.0004734	0.00013237	671.4	1.6668e-06	1.0903e-05	578.82	262.6	4.946e-06	1.6665e-06	261.04	99.813	94.397	46.232	2.0246e-06	49.298	0.0060095	0.0092384	0.0025858	968.03	9.9688e-05	0.00010386	671	299.18	9.6535e-05	0.00010681	308.35	117.54	114.22	53.369	0.00010409	57.694	217.750	-17.521	32.512	-83.563	56.478	61.716	-84.473	-77.704	59.427	-56.489	-79.391	-74.687	-72.739	-67.430	-41.036	-70.077	-8191	255	
1390.065	1	1	0	0	0.10719	0.18126	0.045611	0.11075	0.35932	0.18957	0.091786	0.53174	0.14921	0.21262	0.17818	0.19418	0.044367	0.17716	0.26816	0.2544	-0.77917	-1.6167	-0.64583	-1.3896	-1.3438	-0.7625	-1.6292	-1.1313	-0.90208	-1.5875	-0.88958	-1.3958	-1.3062	-0.69375	-1.5375	-1.1396	64.963	-49.462	6.124	-32.820	121.717	34.986	136.412	250.967	7.463	215.356	136.076	218.735	-70.304	-91.665	212.024	161.048	0.00022562	0.00033186	0.00015736	668.6	1.7857e-06	6.7596e-06	577.26	261.19	1.4794e-06	4.8694e-06	256.23	97.218	93.03	44.75	8.8459e-06	47.367	0.0063699	0.0098137	0.0026969	973.37	0.0001037	0.00010568	668.31	297.36	9.6273e-05	0.0001057	303.67	114.74	112.15	51.671	0.00010242	55.481	219.921	-77.509	7.132	-84.069	135.349	-1.408	-84.406	-78.185	-81.705	68.647	-80.110	-75.048	-73.102	-67.770	71.044	-70.287	-8191	255	
1390.161	1	1	0	0	0.14152	0.061454	0.29313	0.13905	0.26367	0.13877	0.32496	0.21704	0.092221	0.12089	0.096466	0.32656	0.17498	0.27867	0.091394	0.18983	-0.65833	-1.6021	-0.5625	-1.1	-1.5104	-0.675	-1.5729	-1.3583	-0.95833	-1.6354	-0.89167	-1.3042	-1.625	-0.70833	-1.3563	-1.25	101.644	166.061	84.195	162.198	34.701	-62.229	188.176	173.722	-62.112	-72.049	82.893	191.417	-21.607	-51.573	-82.744	19.292	0.00023464	0.00026941	0.00019506	674.86	1.1249e-05	6.6724e-06	579.63	258.14	3.1522e-06	4.865e-06	253	96.284	92.453	43.899	8.6063e-07	46.564	0.0062635	0.0096499	0.0026217	970.93	0.00010265	0.00010459	668.88	294.35	9.5239e-05	0.00010398	299.01	113.31	110.83	50.65	9.6845e-05	54.49	212.767	162.697	-8.761	-84.089	83.100	7.165	-84.696	-78.137	251.124	-23.376	-79.918	-74.628	-73.391	-67.619	-85.730	-70.064	-8191	255	
1390.257	1	1	0	0	0.29163	0.039045	0.15322	0.050075	0.2452	0.15871	0.027048	0.087673	0.11094	0.18635	0.19053	0.32777	0.068246	0.46686	0.18861	0.10434	-0.56875	-1.6521	-0.90208	-0.97292	-1.5292	-0.49375	-1.7771	-1.4729	-0.68542	-1.5667	-1.1667	-1.125	-1.5479	-0.76042	-1.3375	-1.1938	99.048	169.352	166.362	115.875	98.968	-66.669	113.441	-45.656	21.500	35.622	137.084	220.914	168.009	177.325	-62.905	149.544	0.00023486	0.00028265	0.00033454	672.2	6.0875e-06	5.2129e-06	580.51	255.21	3.6292e-06	6.1242e-06	249.58	95.353	91.079	43.234	4.4713e-06	45.941	0.0060568	0.0093837	0.0025665	968.36	0.00010302	0.00010385	669.97	291.53	9.7887e-05	0.00010686	296.8	112.52	110.21	50.079	0.00010273	54.139	212.067	-49.930	11.599	-83.739	11.644	31.467	-84.742	-78.084	99.967	40.549	-79.921	-74.752	-73.046	-67.622	139.993	-70.123	-8191	255	
1390.353	1	1	0	0	0.26735	0.20708	0.18496	0.30096	0.31024	0.14973	0.23867	0.4459	0.23376	0.081785	0.19678	0.18831	0.26858	0.19758	0.10651	0.13857	-0.15833	-1.6125	-0.85625	-1.2021	-1.5063	-0.86875	-1.6333	-1.3813	-0.61458	-1.7062	-1.0521	-1.1333	-1.5729	-0.79792	-1.2333	-1.5542	222.593	-80.369	21.779	-66.288	180.561	-16.487	207.569	164.193	-3.714	154.092	40.993	114.346	-34.016	206.442	256.836	225.977	0.00018218	0.00062119	0.00017643	678.57	7.7774e-06	3.7225e-06	586.79	254.41	3.4727e-06	5.5036e-06	250	95.63	91.63	43.511	5.5785e-06	46.271	0.0065959	0.01014	0.0027527	998.17	0.00011134	0.00011177	680.76	292.5	0.00010566	0.00011496	299.27	113.82	111.47	50.63	0.0001074	54.726	244.509	30.418	59.718	-84.264	-4.808	-30.338	-84.622	-78.090	8.648	15.842	-79.867	-74.663	-72.860	-67.847	-5.474	-69.942	-8191	255	
1390.472	1	1	0	0	0.074248	0.14468	0.14804	0.18431	0.11609	0.39365	0.33665	0.1426	0.15861	0.36495	0.11652	0.14386	0.29419	0.16241	0.27118	0.18042	-0.4	-1.4958	-1.0896	-0.74167	-1.6917	-1.0625	-1.1875	-1.4854	-0.70625	-1.4583	-1.0958	-0.79375	-1.7375	-0.93125	-1.0167	-1.7896	149.294	36.609	236.095	45.424	50.914	114.830	-70.011	223.365	44.765	62.496	126.855	87.287	204.390	208.687	-0.008	166.490	0.00018651	0.00026493	0.00016177	678.94	5.4773e-06	1.8314e-06	584.68	252.35	6.0549e-06	1.2289e-05	247.05	93.973	90.813	43.051	1.1342e-06	45.332	0.0067562	0.010366	0.0028436	1005.4	0.0001159	0.00011613	683.17	291.39	0.0001099	0.00011831	297.48	112.16	110.98	50.348	0.00011388	54.073	203.929	-41.503	13.107	-83.950	114.851	201.828	-84.667	-78.097	82.064	75.971	-79.728	-74.771	-72.978	-67.338	97.723	-70.137	-8191	255	
1390.568	1	1	0	0	0.069299	0.16161	0.1114	0.16056	0.12437	0.12177	0.15202	0.29256	0.34252	0.17387	0.15821	0.1126	0.21392	0.03829	0.099638	0.079122	-0.18958	-1.375	-1.325	-0.82083	-1.5458	-1.0063	-1.1958	-1.7146	-0.67292	-1.4875	-1.525	-0.675	-1.7104	-1.0271	-0.86042	-1.6375	234.897	-38.463	-80.464	219.307	-82.821	126.740	141.539	197.211	-88.546	-69.965	-11.581	240.247	200.575	-1.947	77.644	58.198	0.0001701	0.00084059	0.00015103	679.95	8.5028e-06	1.4645e-05	581.99	252.45	1.5703e-06	6.9608e-06	244.21	92.281	89.873	42.61	4.8518e-06	44.781	0.0071301	0.010909	0.0030677	1027	0.0001217	0.00012125	683.01	291.13	0.00011554	0.00012573	297.31	111.75	111.24	50.109	0.0001281	54.104	204.497	-58.647	78.495	-83.757	21.607	41.266	-84.599	-77.977	124.038	110.651	-79.605	-74.693	-72.953	-67.485	98.020	-69.849	-8191	255	
1390.665	1	1	0	0	0.27979	0.1924	0.032535	0.30089	0.1837	0.13831	0.123	0.17009	0.11146	0.29566	0.16383	0.14599	0.41208	0.09907	0.10606	0.21873	-0.45208	-1.4021	-1.3854	-0.58125	-1.6187	-1.0312	-0.72917	-1.7417	-0.78958	-1.1667	-1.4396	-0.69167	-1.3917	-1.2375	-0.7375	-1.8583	93.222	152.892	234.602	142.088	118.594	238.336	183.231	114.757	153.489	140.120	152.792	139.846	-48.798	234.151	140.492	252.006	0.00010307	0.00046526	5.5881e-05	687.5	1.9315e-06	1.0095e-05	582.59	250.79	1.2126e-06	4.4241e-06	245.45	93.483	90.167	42.785	5.6849e-06	45.342	0.0079901	0.012245	0.003442	1064.7	0.00013523	0.00013597	690.42	293.34	0.00012751	0.00013825	302.34	113.3	112.43	50.711	0.0001363	55.074	227.920	65.171	-15.670	-83.934	180.662	69.759	-84.316	-77.832	69.279	-36.982	-79.654	-74.375	-72.629	-67.456	45.601	-69.833	-8191	255	
1390.761	1	1	0	0	0.48007	0.34542	0.080701	0.27142	0.1879	0.23689	0.15984	0.13187	0.20908	0.058143	0.15288	0.093948	0.26584	0.10302	0.16418	0.095052	-0.31667	-1.1688	-1.5667	-0.46667	-1.5667	-1.3146	-0.68333	-1.7333	-1.1042	-1.1292	-1.5875	-0.875	-1.4562	-1.2021	-0.77083	-1.6792	145.421	44.521	252.666	25.834	15.721	-35.326	172.767	-92.452	256.443	-59.392	192.296	246.071	-3.992	163.133	114.580	222.691	0.00016987	0.00080192	0.00016954	677.56	7.7441e-06	3.8153e-06	585.92	252.25	2.5097e-06	3.6858e-06	246.93	93.481	90.902	43.135	4.3698e-06	45.691	0.0084768	0.013117	0.0037355	1088.7	0.00014403	0.00014714	698.64	296.24	0.00013336	0.00014318	306.41	114.38	113.45	51.151	0.00013622	55.481	216.172	-4.811	150.176	-83.958	49.691	67.050	-84.754	-77.989	32.996	149.441	-79.939	-74.829	-72.893	-67.229	-38.370	-69.863	-8191	255	
1390.857	1	1	0	0	0.14362	0.19793	0.061748	0.071423	0.13614	0.14468	0.35239	0.30189	0.11229	0.10421	0.11098	0.2041	0.15104	0.089838	0.2094	0.068595	-0.73125	-0.8875	-1.5917	-0.74792	-1.4083	-1.4833	-0.73125	-1.6604	-1.1833	-0.95833	-1.6146	-1.0167	-1.2354	-1.3521	-0.85	-1.5958	176.599	164.032	-49.296	225.713	-48.324	-54.843	194.489	207.053	167.033	104.896	234.719	105.541	226.473	-63.197	260.223	1.103	0.00011409	0.0010885	5.3394e-05	678.14	2.2555e-06	3.1488e-06	582.17	249.34	3.8547e-06	2.7668e-06	243.18	92.817	90.501	42.66	6.4904e-06	44.623	0.0083118	0.012832	0.0036514	1072.5	0.00013969	0.00014305	692.09	292.76	0.0001302	0.00014191	300.69	112.61	112.45	50.46	0.00013137	53.799	206.708	9.353	21.128	-84.024	-52.905	72.615	-84.663	-77.707	152.443	149.416	-79.855	-74.673	-72.568	-67.378	-25.960	-69.839	-8191	255	
1390.953	1	1	0	0	0.19628	0.16826	0.15934	0.20268	0.38195	0.31257	0.25027	0.18795	0.25849	0.19654	0.077236	0.19295	0.094213	0.10637	0.19716	0.1545	-0.67292	-0.6375	-1.5792	-0.8125	-0.96042	-1.5688	-0.81458	-1.5667	-1.075	-0.63958	-1.9271	-1.0271	-1.125	-1.5417	-0.58333	-1.5896	-68.853	256.409	-39.714	223.851	-31.330	69.339	-64.305	176.492	234.128	121.514	121.904	174.996	198.688	205.422	201.415	83.371	0.00015075	0.00053101	0.00012969	669	3.3025e-06	6.7902e-06	570.55	247.9	5.728e-06	9.8164e-06	240.34	91.308	89.614	42.247	8.5486e-06	43.887	0.0079281	0.012209	0.0034461	1046.6	0.00013116	0.00013651	676.46	289.19	0.00012489	0.0001359	294.99	110.55	111.01	49.897	0.00012731	53.011	201.113	-17.651	253.191	-83.815	-32.987	-24.804	-84.288	-77.838	-2.594	100.872	-79.699	-74.561	-72.631	-67.379	-40.825	-69.742	-8191	255	
1391.074	1	1	0	0	0.16741	0.094203	0.1762	0.26942	0.11625	0.15054	0.15878	0.085272	0.1887	0.11897	0.048671	0.18478	0.093471	0.21758	0.070279	0.1796	-0.85833	-0.72292	-1.5604	-0.90208	-0.85417	-1.6083	-0.66042	-1.3563	-1.225	-0.68125	-1.2729	-0.90833	-1.0354	-1.6646	-0.64167	-1.6104	0.716	237.374	-84.218	151.815	169.369	-45.676	151.812	213.273	-65.791	-25.187	120.454	-33.559	-19.351	-72.988	-44.095	237.382	0.00014319	0.00090244	0.00031152	670.11	6.701e-06	4.5106e-06	569.19	247.95	7.8738e-06	1.1259e-05	241.19	92.475	89.889	42.584	3.0228e-06	44.182	0.0078692	0.012141	0.0034028	1038.3	0.00013102	0.00013576	673.67	289.24	0.00012225	0.00013236	295.53	111.34	111.24	50.137	0.00012308	53.208	224.756	32.078	-72.165	-83.517	57.213	14.408	-84.802	-77.859	55.343	82.179	-79.895	-74.827	-72.821	-67.472	215.907	-69.717	-8191	255	
1391.168	1	1	0	0	0.27417	0.17488	0.079245	0.054628	0.28757	0.073809	0.087959	0.18993	0.11277	0.066804	0.16178	0.15619	0.051021	0.16357	0.081897	0.12886	-0.93542	-0.7125	-1.4062	-0.81458	-1.0229	-1.7104	-0.90208	-1.2333	-1.2375	-0.71042	-1.5521	-0.98542	-0.85	-1.6417	-0.57917	-1.0521	178.623	-91.045	43.600	211.754	66.441	-46.523	48.665	-68.426	217.851	-73.622	172.982	-83.099	259.365	242.911	60.665	69.779	0.00015811	0.00048946	3.9502e-05	669.11	3.4308e-06	1.1056e-05	567.93	247.92	4.32e-06	4.3143e-06	240.73	91.724	89.112	41.79	5.4814e-06	43.587	0.0076552	0.011783	0.0032766	1026.6	0.00012757	0.00013249	670.42	287.73	0.00012098	0.00012981	293.52	110.57	110.08	49.364	0.00012065	52.294	215.450	38.739	263.614	-83.950	197.778	86.780	-84.746	-77.654	-51.806	52.515	-79.784	-74.572	-72.920	-67.407	48.713	-69.552	-8191	255	
1391.264	1	1	0	0	0.28111	0.057989	0.17372	0.3521	0.15172	0.21014	0.24486	0.30796	0.13313	0.12464	0.29548	0.17132	0.17678	0.18866	0.31237	0.13585	-0.90833	-0.55208	-1.4	-0.94167	-0.69583	-1.4438	-1.1479	-1.0229	-1.6604	-0.76875	-1.4708	-1.4104	-0.71042	-1.6271	-0.98542	-1.2062	45.323	-70.678	-73.171	-12.615	42.537	202.027	-88.030	222.807	44.267	66.749	226.885	161.767	241.389	259.664	243.880	-83.165	0.00018343	0.00069627	0.00015124	663.7	2.844e-06	1.0795e-05	562.3	245.9	3.1138e-06	6.9612e-06	234.31	89.412	87.382	40.984	6.1684e-06	42.272	0.0076247	0.011724	0.003263	1028.8	0.00012879	0.00013287	665.71	285.22	0.00012291	0.00013022	288.03	108.43	108.77	48.382	0.00012256	50.935	212.116	-59.843	-58.153	-83.902	160.778	72.906	-84.573	-77.801	-11.938	33.898	-79.466	-74.665	-72.793	-67.306	-79.785	-69.512	-8191	255	
1391.360	1	1	0	0	0.096946	0.015327	0.20578	0.066846	0.15603	0.087481	0.1302	0.12188	0.17179	0.19507	0.10655	0.21747	0.13015	0.14612	0.143	0.19172	-1.2604	-0.725	-1.3167	-1.4688	-0.69792	-1.6646	-1.0646	-1.2271	-1.5917	-0.85	-1.3771	-1.525	-0.6125	-1.7271	-0.96042	-1.0354	245.787	45.566	11.842	245.830	-68.923	117.173	232.445	76.300	228.543	129.305	-86.834	246.212	224.587	21.921	165.848	247.941	0.00019124	0.0011117	5.415e-05	656.43	6.7533e-06	5.8209e-06	555.91	243.41	1.2072e-06	5.9128e-06	234.28	89.269	87.299	40.871	6.7308e-06	42.227	0.0077927	0.01176	0.0032594	1024.5	0.00012775	0.00013087	659.25	283.57	0.00012159	0.00012875	286.73	108.2	108.49	48.277	0.0001216	51.057	212.762	10.569	18.617	-83.702	71.422	30.648	-84.653	-77.813	112.234	113.281	-79.642	-74.492	-72.709	-67.179	41.999	-69.562	-8191	255	
1391.458	1	1	0	0	0.027287	0.19588	0.048118	0.15778	0.30924	0.17136	0.2267	0.076293	0.04074	0.30522	0.12062	0.16472	0.13361	0.24204	0.033759	0.17626	-1.2646	-0.86042	-1.1667	-1.5458	-0.675	-1.5896	-1.1583	-1.1125	-1.5042	-0.82917	-1.2521	-1.5729	-0.79167	-1.5646	-1.1375	-0.81042	97.139	30.784	97.397	133.936	82.747	206.858	126.608	46.368	98.534	31.806	230.163	106.794	-71.669	68.274	90.575	77.111	8.9748e-05	0.00083104	0.00017642	663.42	2.9151e-06	8.8268e-06	557.44	244.85	1.554e-06	3.9047e-06	236.84	90.853	87.656	41.491	2.3965e-06	42.895	0.0077023	0.011594	0.0032124	1021.6	0.00012643	0.00012965	659.06	284.45	0.00012086	0.00012695	288.17	109.38	108.83	48.687	0.00011844	51.686	230.491	23.498	13.016	-83.771	27.722	14.495	-84.807	-77.813	2.628	119.303	-79.793	-74.372	-72.860	-67.199	126.578	-69.579	-8191	255	
1391.553	1	1	0	0	0.082816	0.30269	0.17082	0.078825	0.10316	0.18657	0.24403	0.23139	0.36889	0.32496	0.13626	0.31893	0.22887	0.21198	0.25437	0.24907	-1.3	-0.83542	-0.8375	-1.5583	-0.53542	-1.3458	-1.1437	-0.93958	-1.4458	-0.92708	-0.94583	-1.5063	-0.79583	-1.5063	-1.3042	-0.65833	-49.284	99.812	13.854	170.050	221.911	229.709	28.731	205.896	184.667	-21.538	-78.982	240.465	4.467	180.982	136.422	195.235	0.00015351	0.00052847	0.00012692	665.39	4.1644e-06	4.9644e-06	560.26	245.3	3.4548e-06	3.3878e-06	237.35	90.455	87.774	41.253	9.9821e-06	43.041	0.007401	0.011139	0.0031027	1015.9	0.00012311	0.0001251	660.45	284.02	0.00011817	0.00012469	288.91	109.5	108.62	48.558	0.00012082	51.732	225.575	1.880	90.006	-83.667	85.991	44.724	-84.362	-77.797	103.010	33.004	-79.872	-74.582	-72.913	-67.322	67.647	-69.692	-8191	255	
1391.649	1	1	0	0	0.26135	0.17181	0.13467	0.013494	0.13744	0.19532	0.19711	0.11965	0.12962	0.33893	0.15097	0.11861	0.20663	0.10941	0.15227	0.15641	-1.2313	-0.90417	-0.97292	-1.5417	-0.93958	-1.3	-1.4542	-0.72292	-1.5104	-0.98125	-0.83125	-1.6417	-0.86042	-1.2854	-1.3167	-0.68958	-50.622	-47.991	5.542	131.366	-14.312	77.785	243.814	107.730	189.628	0.435	11.179	103.371	116.527	221.025	203.513	184.366	0.00010614	4.1295e-05	0.00017816	660.43	5.7558e-06	9.9044e-06	560.06	244.48	6.9508e-06	1.0658e-05	238.14	90.929	87.487	40.979	6.748e-06	43.066	0.0074551	0.01129	0.0031442	1015.7	0.00012231	0.00012331	660.38	283.43	0.00011551	0.0001235	288.87	109.56	107.96	48.146	0.00011798	51.498	250.053	55.174	-2.215	-83.620	110.019	62.161	-84.588	-77.744	91.042	57.861	-79.595	-74.367	-72.909	-67.280	225.492	-69.910	-8191	255	
1391.745	1	1	0	0	0.22401	0.14561	0.26714	0.27541	0.23838	0.088523	0.051575	0.041783	0.14837	0.26731	0.092897	0.28549	0.39353	0.089353	0.065632	0.047526	-1.0792	-1.0958	-0.64167	-1.6521	-0.75625	-0.99167	-1.7604	-0.91458	-1.3229	-1.3521	-0.60625	-1.6688	-1	-1.0292	-1.5271	-0.975	-20.032	3.908	-30.696	82.168	8.444	112.943	197.566	-84.644	78.501	161.417	8.000	-4.646	-26.558	15.814	-88.803	198.188	0.00015632	0.00042734	0.00027813	662.92	2.9731e-06	5.1048e-06	554.5	242.42	9.2839e-07	7.8262e-06	233.26	89.227	86.505	40.593	1.9589e-06	42.137	0.0072727	0.011022	0.003091	1009.7	0.00012017	0.00012249	654.81	281.04	0.00011399	0.00012306	284.31	107.85	107.02	47.682	0.00011858	50.616	209.410	-14.746	-56.873	-83.920	213.816	59.987	-84.755	-78.085	20.273	55.413	-80.003	-74.759	-73.088	-67.726	60.800	-70.132	-8191	255	
1391.841	1	1	0	0	0.15512	0.059749	0.17476	0.1651	0.14831	0.13024	0.2999	0.17087	0.16833	0.14053	0.21792	0.27646	0.15554	0.29717	0.16386	0.35488	-0.98333	-1.3354	-0.5125	-1.5187	-0.95208	-0.925	-1.5812	-0.8	-1.2625	-1.3687	-0.60625	-1.6521	-0.88542	-0.825	-1.65	-0.92917	1.494	34.127	233.386	20.711	166.003	217.484	255.659	160.512	202.496	30.129	-80.473	144.786	135.158	254.949	82.229	240.621	0.00017007	0.000661	0.00020862	641.29	2.6994e-06	5.2093e-06	541.67	238.04	2.6279e-06	6.4771e-06	231.6	92.111	89.393	43.112	7.7117e-06	45.512	0.0071142	0.010838	0.0029997	979.38	0.00011412	0.00011504	635.55	274.22	0.00010237	0.00011002	278.27	108.84	107.63	49.764	9.7577e-05	53.325	215.085	52.829	17.474	-84.184	-42.517	80.187	-84.761	-77.995	33.710	-32.777	-80.220	-75.214	-73.371	-68.065	-0.244	-70.892	-8191	255	
1391.962	1	1	0	0	0.075051	0.18328	0.16838	0.17591	0.14777	0.28585	0.042698	0.030396	0.047456	0.077054	0.16505	0.20527	0.18978	0.21837	0.35152	0.15135	-0.80208	-1.5458	-0.66458	-1.4417	-1.3292	-0.79375	-1.5021	-0.98542	-1.0083	-1.5562	-0.72292	-1.5292	-1.1021	-0.825	-1.3937	-0.90833	-33.227	20.208	96.824	3.650	-34.060	-94.332	178.228	165.476	232.203	195.181	76.514	240.530	120.286	-9.332	113.366	192.847	0.00019476	0.00048144	0.0001565	625.42	5.5046e-06	1.006e-05	538.94	237.03	7.3693e-07	1.4246e-05	235.33	95.05	91.286	44.725	7.9605e-06	47.339	0.0057343	0.0087585	0.0024134	907.23	9.2126e-05	9.3659e-05	622	269.27	8.4169e-05	9.1859e-05	276.69	111.27	108.58	51.327	8.9876e-05	54.944	201.694	63.085	11.837	-84.157	88.775	124.338	-84.873	-77.899	77.782	46.068	-80.125	-75.264	-73.667	-68.463	-14.907	-70.659	-8191	255	
1392.033	1	1	0	0	0.25497	0.20271	0.0761	0.16095	0.13013	0.1192	0.26369	0.23207	0.13772	0.19274	0.084439	0.039719	0.21622	0.21405	0.064793	0.13533	-0.46458	-1.4271	-0.67083	-1.1812	-1.2583	-0.75833	-1.9062	-1.1354	-0.79375	-1.5312	-0.70833	-1.3917	-1.2396	-0.8625	-1.8042	-1.1375	-51.075	260.230	76.960	234.151	38.951	-17.631	223.236	222.904	-60.848	120.449	152.581	219.821	-72.082	187.889	23.829	202.229	0.00016031	0.00092826	3.1802e-05	634.42	1.8153e-06	7.5688e-06	542.44	236.8	1.7188e-06	3.4556e-06	234.19	93.565	89.558	43.496	1.3141e-06	45.964	0.0055033	0.0086017	0.0023779	905.12	9.2541e-05	9.4867e-05	626.6	270.42	8.7795e-05	9.6987e-05	277.23	109.87	107.46	50.017	9.5244e-05	53.654	220.491	27.218	205.926	-84.071	105.286	19.886	-84.756	-77.914	135.846	10.067	-79.886	-74.940	-73.187	-68.195	9.908	-70.674	-8191	255	
1392.154	1	1	0	0	0.10714	0.0995	0.099537	0.17086	0.23578	0.17806	0.33983	0.3142	0.22435	0.11788	0.12417	0.082177	0.19043	0.18782	0.031103	0.18095	-0.37708	-1.6917	-0.73333	-1.2604	-1.5792	-0.78125	-1.6042	-1.0396	-0.89375	-1.5792	-0.8375	-1.1104	-1.5562	-0.79375	-1.3625	-1.175	86.132	-56.561	36.162	60.396	188.862	-18.470	199.000	179.481	7.459	-87.461	140.854	82.547	-41.532	222.260	204.344	256.318	0.00013003	0.00058849	0.00015546	636.39	8.0941e-06	1.3811e-05	543.45	235.44	3.1252e-06	8.9816e-06	231.7	90.827	86.852	41.592	5.0793e-06	43.976	0.0059909	0.0094569	0.0026261	934.89	0.00010507	0.00010846	635.73	271.2	0.0001021	0.00011379	278.48	108.53	106.65	48.749	0.00011499	52.515	211.145	-61.228	22.765	-84.600	253.557	64.136	-84.766	-78.056	-33.675	42.312	-79.999	-74.891	-73.279	-68.075	174.203	-70.395	-8191	255	
1392.250	1	1	0	0	0.17062	0.0075319	0.097387	0.14566	0.3452	0.31158	0.17392	0.34659	0.17669	0.12733	0.13207	0.10025	0.19217	0.23634	0.31781	0.15501	-0.40833	-1.4917	-0.8375	-1.0417	-1.4229	-0.58333	-1.3813	-1.1958	-0.7125	-1.4688	-0.7875	-1.0312	-1.7958	-0.71667	-1.1917	-1.3354	69.251	-49.856	248.652	207.051	49.106	-69.878	23.209	-48.300	93.646	-6.647	-2.938	115.743	229.464	149.091	13.188	-45.544	0.00010732	0.00062723	0.00021752	634.96	1.1157e-05	3.5615e-06	543.05	232.14	5.539e-06	2.54e-06	223.97	86.421	83.872	39.608	2.65e-06	41.244	0.0072028	0.011329	0.003099	987.88	0.00012564	0.0001296	645.49	272.2	0.00012557	0.00013923	278.74	105.75	106.17	47.249	0.00013658	50.458	213.205	-21.541	34.219	-83.991	76.101	-31.640	-84.908	-78.373	89.327	190.214	-80.216	-74.969	-73.259	-67.910	173.084	-70.030	-8191	255	
1392.345	1	1	0	0	0.25078	0.17454	0.097568	0.08614	0.062373	0.21793	0.27848	0.071323	0.17692	0.14015	0.046078	0.19349	0.2912	0.070636	0.11965	0.11873	-0.28125	-1.5	-0.96667	-0.8625	-1.5667	-0.84375	-1.4917	-1.5562	-0.58125	-1.4146	-1.0542	-0.8375	-1.6021	-0.725	-1.1437	-1.3312	-62.028	71.821	-48.487	185.010	214.149	-61.193	160.663	-45.272	32.076	167.475	140.002	164.984	188.212	256.068	-79.441	51.113	0.00024896	0.00030202	0.00011792	645.25	5.4617e-06	8.5218e-06	544.31	232.15	2.2411e-06	4.3728e-06	221.12	83.469	82.145	37.948	5.5509e-06	38.79	0.0085576	0.013272	0.0036607	1047.5	0.00014704	0.00014878	655.43	275.49	0.00014105	0.00015541	280.92	104.47	106.13	46.017	0.00015619	48.9	221.822	226.502	227.376	-83.940	52.317	47.939	-85.087	-78.467	-75.225	186.476	-80.085	-74.862	-73.107	-67.855	105.700	-70.217	-8191	255	
1392.442	1	1	0	0	0.19105	0.16817	0.046085	0.26522	0.053024	0.14033	0.33843	0.14627	0.2905	0.12701	0.082066	0.21783	0.030764	0.015128	0.17659	0.074239	-0.5375	-1.2792	-0.96667	-0.69375	-1.5979	-0.79375	-1.3354	-1.5583	-0.62083	-1.3146	-1.2958	-0.74167	-1.6271	-0.76875	-1.15	-1.4813	-4.236	149.442	25.082	96.834	116.375	-44.935	165.515	214.907	211.046	34.538	-21.574	1.176	114.190	45.804	77.371	-24.388	0.00020269	0.00093489	0.0001827	646.35	8.8682e-06	4.0933e-06	547.53	231.73	3.2322e-06	1.1871e-05	216.76	80.822	79.838	35.99	5.3631e-06	37.066	0.0099461	0.0156	0.0043433	1128	0.00017513	0.0001766	674.56	278.7	0.00016612	0.00018046	283.83	103.62	105.79	44.65	0.00017474	47.789	226.519	-38.461	-23.962	-84.391	92.332	-64.073	-85.096	-78.533	138.315	64.899	-80.162	-75.011	-73.197	-67.497	257.542	-70.231	-8191	255	
1392.561	1	1	0	0	0.26011	0.072849	0.070517	0.16804	0.3215	0.22493	0.23033	0.26337	0.22283	0.075795	0.10153	0.035814	0.11464	0.14487	0.26532	0.11547	-0.24375	-1.275	-1.1812	-0.63542	-1.5542	-0.91042	-0.98542	-1.5604	-0.65833	-1.3583	-1.3312	-0.6375	-1.5	-0.98958	-0.90833	-1.6625	43.112	171.714	124.871	91.310	155.236	43.602	133.562	175.554	186.618	18.625	-51.244	-77.765	257.330	43.217	44.868	174.801	0.0001736	0.00052343	6.5698e-05	662.46	3.711e-06	4.4641e-06	561.83	231.69	2.0384e-06	1.0293e-05	217.7	77.814	76.896	33.911	4.1737e-06	34.72	0.011132	0.017214	0.0048176	1190.1	0.00019499	0.00019766	699.75	283.75	0.00019487	0.00021394	294.57	104.21	107.7	43.834	0.00022104	47.515	223.907	82.974	-11.324	-84.852	186.905	187.738	-85.337	-78.522	-35.018	47.567	-80.366	-74.800	-73.149	-67.375	257.936	-69.611	-8191	255	
1392.657	1	1	0	0	0.045142	0.12476	0.14845	0.38708	0.11833	0.17407	0.14224	0.11471	0.21079	0.048893	0.11996	0.23579	0.12993	0.16748	0.18461	0.094658	-0.52292	-1.1646	-1.1917	-0.65833	-1.2604	-0.90833	-0.91667	-1.8771	-0.7375	-1.0854	-1.6167	-0.60417	-1.4792	-1.1938	-0.63333	-1.5521	-64.220	102.299	201.528	-24.016	8.316	57.913	179.139	219.884	110.035	259.041	189.255	148.239	-45.240	202.761	-31.995	102.417	0.0001544	0.00050555	0.00012306	682.09	8.8916e-06	9.5872e-06	576.5	233.11	4.5772e-06	8.4346e-06	218.17	76.62	76.033	33.131	4.0926e-06	33.914	0.013894	0.021552	0.0060755	1337	0.00024281	0.00024657	739.8	292.83	0.00022884	0.00024396	304.14	104.87	108.4	43.339	0.00022986	46.874	200.896	-15.005	-11.281	-84.356	84.805	-22.653	-85.671	-78.706	58.440	146.785	-80.578	-74.912	-73.079	-67.048	137.852	-69.752	-8191	255	
1392.729	1	1	0	0	0.064678	0.26697	0.20361	0.17295	0.04998	0.12331	0.3377	0.13361	0.11344	0.21881	0.16743	0.07278	0.12777	0.19652	0.094334	0.21283	-0.26042	-0.95208	-1.5542	-0.54167	-1.5542	-1.3042	-1.025	-1.6146	-0.85208	-0.94792	-1.475	-0.47708	-1.425	-1.4125	-0.81667	-1.5562	113.640	15.563	197.262	137.360	16.531	39.636	238.881	257.649	92.891	231.342	12.411	-28.452	-92.314	118.230	-13.130	137.198	2.7283e-05	0.00046947	0.00027091	681.74	4.4401e-06	7.5212e-06	569.93	232.48	2.3167e-06	1.0889e-05	217	75.897	76.185	33.398	8.213e-06	33.763	0.014182	0.021857	0.0061652	1335.9	0.00023965	0.00024077	731.29	290.69	0.00021697	0.0002294	298.12	102.8	106.7	43.243	0.00021866	46.384	137.468	-46.983	-18.939	-84.140	150.353	117.537	-85.459	-78.547	58.977	114.783	-80.596	-74.750	-73.129	-67.023	89.373	-69.471	-8191	255	
1392.850	1	1	0	0	0.16751	0.11758	0.1434	0.19301	0.10703	0.11064	0.34082	0.18236	0.36082	0.050324	0.082669	0.060189	0.078609	0.14609	0.2751	0.091138	-0.46042	-0.86042	-1.4208	-0.62083	-1.3479	-1.3917	-0.725	-1.6104	-0.90208	-0.82917	-1.5875	-0.85625	-1.2542	-1.4688	-0.66042	-1.3854	133.611	232.868	118.169	-63.734	208.870	139.274	241.919	204.467	59.597	215.188	219.449	19.020	-83.767	16.096	47.779	192.676	0.00010581	0.0009619	0.00021707	684.39	3.8258e-06	1.3266e-05	568.78	232.91	3.1281e-06	6.7602e-06	217.69	77.003	77.069	33.878	3.1671e-06	34.643	0.013467	0.02068	0.0058983	1304.4	0.00022633	0.00022982	722.58	289.44	0.00020717	0.00022086	296.83	102.83	106.1	43.401	0.00020338	46.368	215.161	18.401	63.787	-83.829	241.765	42.612	-85.285	-78.302	190.495	235.527	-80.585	-74.861	-72.515	-67.065	167.832	-69.920	-8191	255	
1392.946	1	1	0	0	0.074158	0.072025	0.14983	0.21548	0.13804	0.18522	0.24438	0.07953	0.23691	0.13909	0.066211	0.27641	0.15557	0.1309	0.31603	0.19051	-0.6625	-0.55833	-1.6917	-0.89167	-1.1333	-1.4354	-0.58542	-1.6583	-1.1	-0.84167	-1.5438	-0.89167	-1.1167	-1.6021	-0.60417	-1.5167	-33.904	251.056	223.185	169.916	-93.699	-15.786	11.559	-18.226	219.633	-1.755	182.776	59.580	236.213	64.988	8.064	183.868	0.0001046	0.00056391	0.00039518	683.35	1.5354e-06	7.8361e-06	569.66	233.25	3.0622e-06	4.3509e-06	220.4	77.613	77.104	34.012	1.6772e-06	34.418	0.012331	0.018851	0.0053645	1246.6	0.00020337	0.00020955	715.47	286.62	0.00019126	0.00020743	294.62	102.16	104.76	43.02	0.00019504	45.847	191.369	82.771	-32.426	-84.333	44.448	58.351	-85.260	-78.267	224.676	25.803	-80.207	-74.705	-73.086	-66.955	79.742	-69.423	-8191	255	
1393.042	1	1	0	0	0.026824	0.16426	0.23749	0.32977	0.045209	0.094774	0.21364	0.23259	0.17046	0.24477	0.22996	0.13721	0.42615	0.13287	0.10548	0.069195	-0.72083	-0.6875	-1.5521	-0.87708	-1.1042	-1.6771	-0.50208	-1.3729	-1.3875	-0.56042	-1.5333	-0.76875	-1.0854	-1.6521	-0.56667	-1.3875	213.299	18.333	41.299	-63.853	152.722	62.567	151.143	-39.910	28.019	159.704	91.726	44.029	-42.523	52.692	-56.256	130.262	0.00015158	0.00082603	0.00017066	685.47	4.6935e-06	8.6974e-06	575.1	235.96	3.4914e-06	6.5896e-06	220.63	77.992	76.959	33.962	6.0272e-06	35.044	0.01175	0.01811	0.0050646	1225	0.00019332	0.00020159	715.64	286.44	0.00018585	0.00020296	295.69	102.7	104.93	43.268	0.00019817	46.511	214.206	1.768	5.400	-84.677	172.445	70.253	-85.269	-78.342	125.741	-15.277	-80.102	-74.514	-73.064	-66.674	-0.469	-69.096	-8191	255	
1393.163	1	1	0	0	0.19256	0.092159	0.22633	0.3082	0.15547	0.19166	0.31585	0.17224	0.13817	0.17667	0.18296	0.11198	0.36745	0.13884	0.14774	0.21282	-0.85833	-0.5	-1.4312	-0.93333	-1.0458	-1.6958	-0.73333	-1.1979	-1.3604	-0.58125	-1.625	-1.2333	-0.72917	-1.7375	-0.70208	-1.0604	100.376	-75.002	134.943	244.753	66.116	17.462	196.302	-87.023	-2.758	45.395	133.008	106.334	96.329	95.610	40.218	244.768	0.0002185	0.00049114	0.00025903	688.6	2.2485e-06	7.463e-06	578.87	234.77	5.3327e-06	8.3264e-06	220.98	77.913	76.994	34.128	6.0695e-06	34.817	0.012105	0.018719	0.0052515	1253	0.00020502	0.00021538	726.02	289.48	0.00020184	0.00022098	300.43	104.12	106.95	43.997	0.00021242	46.74	195.677	-42.308	90.215	-84.598	177.848	223.978	-84.970	-77.926	66.478	21.423	-80.011	-74.728	-72.550	-66.927	141.317	-69.087	-8191	255	
1393.257	1	1	0	0	0.26229	0.1787	0.084333	0.11605	0.11189	0.24157	0.071443	0.13548	0.10734	0.0041802	0.10132	0.032909	0.2088	0.094815	0.20906	0.18006	-1.0208	-0.575	-1.5854	-0.99792	-0.52292	-1.625	-1.0417	-1.0917	-1.5688	-0.73333	-1.1625	-1.2146	-0.66875	-1.6979	-0.78542	-1.0562	174.982	164.785	14.212	-4.835	-28.636	227.497	212.482	217.511	147.925	23.549	150.964	84.389	240.104	207.577	85.793	218.442	0.00014491	0.00056844	0.00014196	678.73	7.2491e-07	3.7567e-06	571.63	235.6	2.0186e-06	4.2495e-06	221.9	78.481	77.549	34.737	6.5237e-06	35.54	0.012977	0.019863	0.0054746	1262.1	0.00020901	0.00021427	716.61	288.15	0.00019472	0.00020909	296.28	103.35	106.22	44.209	0.00019675	47.037	250.569	161.040	-27.583	-84.168	145.251	176.707	-84.982	-78.070	191.312	123.440	-80.064	-74.715	-72.875	-66.853	21.991	-69.353	-8191	255	
1393.331	1	1	0	0	0.13823	0.12048	0.3136	0.25956	0.26651	0.14539	0.20631	0.13691	0.084176	0.068397	0.15755	0.13311	0.1802	0.10166	0.24353	0.22734	-1.1042	-0.75417	-1.3083	-1.1979	-0.53958	-1.5583	-1.0167	-0.975	-1.6896	-0.60625	-1.2104	-1.4292	-0.76875	-1.4188	-0.83333	-0.81042	193.264	235.781	141.315	23.791	224.863	201.057	124.562	188.571	18.776	200.829	42.497	169.371	-86.375	260.044	23.283	-93.343	0.00014274	0.00071082	0.00023921	678.49	1.1267e-05	3.8004e-06	568.99	235.3	3.6653e-06	1.0617e-05	223.15	80.215	79.03	35.476	2.066e-06	36.577	0.012245	0.018614	0.0051489	1228.9	0.00020023	0.00020488	709.12	287.77	0.00018804	0.00020055	296.4	104.44	106.66	44.755	0.00019144	47.848	200.050	-58.111	69.029	-84.624	92.054	-77.205	-85.207	-78.372	35.515	17.057	-80.267	-74.509	-72.825	-66.774	4.710	-69.694	-8191	255	
1393.425	1	1	0	0	0.27882	0.3365	0.012021	0.081441	0.042044	0.037447	0.037561	0.13093	0.018732	0.092827	0.3726	0.10779	0.2653	0.29217	0.065464	0.056219	-1.2083	-0.82083	-1.1542	-1.3833	-0.5125	-1.4729	-1.2021	-0.94792	-1.6146	-0.97083	-0.99375	-1.6646	-0.74792	-1.5312	-1.3979	-0.80625	-7.040	168.386	182.945	258.982	36.835	-16.906	105.597	154.407	86.910	205.233	-6.165	238.371	33.690	237.565	-53.520	39.750	9.0398e-05	0.00037496	0.00023692	678.37	1.2535e-05	3.003e-06	571.26	236.5	2.7281e-06	9.4078e-06	224.76	80.077	78.76	35.098	4.8682e-06	35.593	0.012093	0.01845	0.0050999	1235.3	0.00020165	0.0002054	712.6	289.95	0.00019391	0.00020867	299.85	105.8	107.67	44.744	0.00020725	47.819	219.829	95.140	53.357	-84.513	33.037	33.362	-85.263	-78.361	-28.276	24.801	-80.671	-74.740	-72.720	-67.279	35.279	-69.685	-8191	255	
1393.523	1	1	0	0	0.040232	0.076521	0.20526	0.046424	0.0489	0.11061	0.21647	0.19888	0.10622	0.27521	0.17425	0.34007	0.30573	0.056862	0.09607	0.10209	-1.1063	-0.75625	-1.0021	-1.3875	-0.54375	-1.3062	-1.2437	-0.8125	-1.7208	-0.95625	-0.9375	-1.5312	-0.70208	-1.4396	-1.2917	-0.72292	-52.987	13.003	-82.364	104.572	-57.209	191.526	166.918	-62.835	2.208	115.863	2.987	31.404	-56.871	110.876	-55.118	-16.804	8.6186e-05	0.0005958	0.00020439	674.82	3.5302e-06	1.1871e-05	565.95	234.33	2.9566e-06	1.2956e-05	220.33	79.053	77.912	34.754	4.4628e-06	35.235	0.013222	0.020547	0.0057099	1306.8	0.00023148	0.00023822	726.08	293.89	0.00022762	0.00024453	304.85	107.15	110.22	45.161	0.00022849	48.056	221.105	-63.341	1.175	-84.155	32.592	34.965	-85.618	-78.354	157.494	51.905	-80.505	-74.854	-72.643	-67.082	90.699	-69.534	-8191	255	
1393.642	1	1	0	0	0.21825	0.16827	0.37606	0.17662	0.080471	0.13709	0.10029	0.13343	0.05803	0.15035	0.14454	0.15601	0.13154	0.32214	0.30475	0.34756	-1.3312	-0.825	-0.89583	-1.5667	-0.69167	-1.0854	-1.4312	-0.81875	-1.4625	-1.0792	-0.81875	-1.7396	-0.81875	-1.3396	-1.3479	-0.77708	-61.951	165.470	-47.847	-44.836	189.695	-27.093	-33.242	248.374	-9.458	-15.562	257.893	-24.468	255.893	-92.893	181.077	186.345	0.00012635	0.00056679	0.00014629	666.31	9.0491e-06	1.0997e-05	559.2	234.56	3.6029e-06	1.5096e-05	219.73	78.963	78.521	34.88	5.8487e-06	35.132	0.014	0.021435	0.0059013	1311	0.00023285	0.00023611	717.64	292.7	0.00022071	0.00023642	302	106.45	109.26	44.814	0.00021615	47.394	225.771	-16.439	-43.448	-83.654	62.487	20.047	-85.305	-78.218	-68.539	3.633	-80.259	-74.820	-73.302	-66.956	111.570	-69.890	-8191	255	
1393.738	1	1	0	0	0.27662	0.28312	0.12297	0.10542	0.072589	0.16938	0.18386	0.1207	0.22477	0.29116	0.22493	0.23733	0.088719	0.11962	0.031441	0.20241	-1.1229	-1.1583	-0.6875	-1.6417	-0.74167	-1.0938	-1.5958	-0.78542	-1.6938	-1.1521	-0.74792	-1.7333	-0.88542	-1.0292	-1.5708	-0.75208	28.755	38.052	47.631	-70.057	214.414	261.260	41.771	232.861	-20.192	177.854	53.095	119.162	-50.802	162.927	54.061	239.418	0.0001758	0.00045015	0.00016473	670.21	8.6497e-06	6.3582e-06	559.56	234.54	4.0244e-06	4.766e-06	219.35	78.599	77.379	34.202	1.7037e-06	34.954	0.0129	0.019439	0.0053112	1242.3	0.00020637	0.00020637	703.36	286.98	0.00019392	0.00020867	294.22	103.71	106.06	43.606	0.00020162	46.589	205.468	-14.981	41.363	-84.500	56.649	115.558	-85.231	-78.338	46.320	62.386	-80.392	-74.800	-73.065	-66.931	44.778	-69.776	-8191	255	
1393.834	1	1	0	0	0.11397	0.19728	0.17174	0.11353	0.06799	0.19063	0.15682	0.36791	0.16609	0.16578	0.019438	0.25913	0.26987	0.11786	0.22611	0.044206	-1.15	-1.3396	-0.82083	-1.6854	-0.8125	-1.125	-1.8771	-0.84375	-1.2812	-1.4479	-0.9125	-1.4833	-1.0021	-0.98542	-1.7917	-0.71458	223.966	-48.420	125.634	38.754	-20.524	163.134	28.046	65.387	208.304	34.511	181.939	247.269	103.842	74.259	-49.010	-13.053	0.00017466	0.00037361	0.0003991	666.63	6.6035e-06	5.1796e-06	560.84	233.39	1.3486e-05	9.7825e-06	221.53	79.15	77.654	34.659	5.7353e-06	35.435	0.012218	0.018815	0.0052481	1237.5	0.00020635	0.0002076	707.68	286.56	0.00019063	0.00020545	294.94	103.89	105.42	43.673	0.00019359	46.71	209.771	158.303	25.908	-84.338	29.697	61.930	-85.295	-78.357	61.720	104.412	-80.006	-74.889	-73.116	-66.905	94.614	-69.608	-8191	255	
1393.930	1	1	0	0	0.19205	0.27705	0.056468	0.23906	0.15494	0.25694	0.21452	0.25991	0.11735	0.15709	0.17629	0.15582	0.22627	0.10053	0.23891	0.060452	-0.72708	-1.5354	-0.55208	-1.4937	-0.95417	-0.63958	-1.7479	-0.8125	-1.1833	-1.4958	-0.68333	-1.4625	-1.1271	-0.71667	-1.6833	-0.84167	-10.087	15.324	-86.263	47.483	146.090	120.015	-30.106	184.686	143.203	254.441	140.875	75.897	6.055	-5.490	-49.422	-6.635	0.00015981	0.00077811	0.00029437	675.35	8.7731e-06	7.8329e-06	569.02	235.24	3.8264e-06	5.0933e-06	223.98	80.658	78.549	35.098	8.466e-06	35.965	0.011609	0.01812	0.0050137	1218.9	0.00019713	0.00020059	708.69	287.74	0.00018526	0.0002021	297.19	105.17	106.18	44.153	0.00019028	47.073	209.597	-38.998	-8.957	-84.622	-56.564	-43.789	-85.325	-78.404	-52.324	-25.667	-80.376	-74.750	-72.996	-67.125	93.192	-69.526	-8191	255	
1394.026	1	1	0	0	0.16935	0.19314	0.27377	0.1455	0.13709	0.39889	0.21337	0.29056	0.10084	0.070145	0.26356	0.29728	0.27391	0.20404	0.24024	0.065904	-0.725	-1.6604	-0.5125	-1.4604	-1.325	-0.6625	-1.6938	-0.95833	-0.95	-1.5208	-0.75833	-1.4625	-1.3687	-0.81458	-1.4667	-1.0125	-57.572	31.843	226.439	218.878	21.798	50.588	-47.851	174.228	261.269	-42.694	92.991	167.647	66.668	152.228	257.636	261.172	0.00016055	0.00075159	0.0001057	671.5	3.2941e-06	4.7731e-06	562.91	233.99	4.9876e-06	4.5337e-06	219.67	78.523	77.838	34.4	3.2429e-06	34.792	0.011371	0.017847	0.0049278	1208.7	0.00019121	0.00019536	702.06	285.65	0.00017892	0.00019804	291.34	102.46	104.22	43.161	0.00018344	45.485	226.293	-52.048	-33.006	-84.025	30.291	112.654	-85.266	-78.457	96.839	167.439	-80.452	-74.943	-72.806	-66.907	117.142	-69.707	-8191	255	
1394.122	1	1	0	0	0.10677	0.35351	0.09832	0.23353	0.16974	0.35637	0.28055	0.085884	0.16022	0.19068	0.17718	0.29542	0.19743	0.34685	0.16791	0.18811	-0.34375	-1.5854	-0.52917	-1.2542	-1.3563	-0.53958	-1.5833	-1.2292	-0.9375	-1.5833	-0.92083	-1.3104	-1.3104	-0.625	-1.3583	-1.1437	70.631	33.514	215.685	-76.440	-88.109	46.239	-57.106	28.855	207.627	205.677	150.221	-23.296	0.719	170.094	129.071	226.263	0.00016482	0.00091147	0.00012117	672.02	5.3065e-06	1.8243e-06	559.15	231.7	2.498e-06	2.5639e-06	216.35	77.045	76.017	33.65	6.7595e-06	33.983	0.011063	0.017424	0.0048536	1193.7	0.00019367	0.00019999	697.88	283.74	0.00018566	0.00020465	289.63	101.33	104.06	42.632	0.0001924	45.089	227.983	-15.778	-35.394	-84.527	65.332	41.167	-85.341	-78.435	222.104	159.866	-80.448	-75.017	-72.721	-67.077	106.253	-69.800	-8191	255	
1394.243	1	1	0	0	0.30373	0.1321	0.39844	0.20491	0.068448	0.12163	0.054688	0.041864	0.10923	0.1552	0.21352	0.20195	0.16479	0.11473	0.046608	0.28571	-0.57292	-1.6333	-0.88333	-1.0438	-1.5	-0.67917	-1.3583	-1.1875	-0.75625	-1.8354	-0.96667	-1.0771	-1.7604	-0.7375	-1.4604	-1.4854	171.801	95.130	255.401	-48.974	194.179	50.615	18.864	-85.799	65.963	219.380	173.748	-67.182	212.667	244.805	-94.646	155.309	0.00015337	0.00028433	0.00018555	666.35	2.7816e-06	1.2852e-05	553.79	230.55	4.4238e-06	6.9926e-06	216.15	77.336	76.57	33.579	4.0439e-06	33.967	0.011612	0.018301	0.005102	1209	0.0002003	0.00020334	694.5	282.65	0.00018682	0.00020535	289.26	101.59	104.29	42.718	0.00019164	45.1	205.954	-82.718	-61.712	-84.555	83.750	89.928	-85.404	-78.421	32.488	47.686	-80.272	-74.608	-72.819	-66.838	77.477	-69.468	-8191	255	
1394.337	1	1	0	0	0.19832	0.21271	0.15379	0.29702	0.27726	0.15493	0.078092	0.14178	0.19584	0.045282	0.28269	0.16169	0.36602	0.13746	0.4013	0.15106	-0.48125	-1.5333	-0.91042	-0.83542	-1.6375	-0.94792	-1.4729	-1.3958	-0.68542	-1.6625	-1.0375	-0.93333	-1.6583	-0.68333	-1.2042	-1.5458	87.662	162.138	-9.222	15.698	-25.851	236.551	69.759	240.321	-26.165	2.513	103.836	-94.304	-23.079	151.413	213.525	154.191	7.5376e-05	0.00069415	0.00017998	668.97	2.5044e-06	6.186e-06	553.77	229.24	4.2595e-06	1.1011e-05	216.16	77.299	76.293	33.583	2.9401e-06	34.412	0.011473	0.017903	0.004916	1186.6	0.0001918	0.00019506	689.39	280.6	0.00018192	0.00019982	288.58	101.61	104.28	42.844	0.00019521	45.694	235.948	-17.358	100.402	-84.068	205.105	6.163	-85.436	-78.395	-77.870	109.149	-80.627	-74.613	-73.005	-67.265	112.770	-69.565	-8191	255	
1394.434	1	1	0	0	0.22956	0.16282	0.11116	0.24065	0.20845	0.34468	0.1245	0.18113	0.10338	0.06179	0.18175	0.31591	0.14006	0.16841	0.14909	0.21326	-0.23542	-1.4542	-1.1375	-0.70833	-1.5229	-0.82083	-1.1812	-1.3833	-0.7125	-1.5375	-1.1854	-0.77708	-1.4167	-0.85625	-1.0167	-1.3979	217.791	-85.521	105.493	-69.062	134.419	-8.651	173.083	252.581	89.657	99.874	111.765	170.756	207.242	128.904	178.497	164.862	0.00010776	0.00029696	0.00027796	661.69	9.0159e-06	6.2155e-06	557.33	232.2	1.1068e-06	7.5782e-06	219.25	78.445	77.365	34.047	3.9744e-06	34.554	0.011963	0.01865	0.0051222	1206	0.00020171	0.00020439	695.65	283.32	0.00018436	0.00019896	290.29	102.45	104.61	43.059	0.00018525	45.647	211.070	-89.007	-81.051	-84.479	71.789	179.983	-85.174	-78.387	81.871	21.557	-80.257	-74.515	-72.963	-67.040	49.657	-69.701	-8191	255	
1394.554	1	1	0	0	0.099847	0.074997	0.3917	0.072226	0.20666	0.21045	0.31059	0.14699	0.16553	0.11132	0.15011	0.061716	0.071384	0.14071	0.15915	0.21913	-0.43542	-1.525	-1.1146	-0.6875	-1.5146	-0.95417	-1.1812	-1.5521	-0.71458	-1.4021	-1.4292	-0.71875	-1.4688	-0.975	-0.96042	-1.4229	-39.212	195.967	33.795	57.084	172.979	8.687	214.286	71.776	-31.981	208.687	53.930	147.103	247.586	83.844	162.017	118.423	0.00014408	0.00058052	0.00021286	666.63	3.9232e-06	6.2902e-06	549.69	231.31	3.4819e-06	5.2033e-06	216.06	77.686	77.329	34.068	9.2048e-06	34.398	0.011421	0.017518	0.0048079	1170.8	0.00018665	0.00018811	679.39	279.39	0.00016786	0.0001782	279.98	99.441	101.77	42.051	0.00015524	43.938	225.935	53.562	-26.650	-84.551	230.781	17.941	-85.023	-78.389	246.654	258.949	-80.279	-74.781	-73.171	-67.287	101.084	-69.850	-8191	255	
1394.626	1	1	0	0	0.22473	0.046572	0.26201	0.3427	0.17051	0.27851	0.28813	0.11402	0.089449	0.18022	0.22947	0.19523	0.19422	0.36947	0.11549	0.18875	-0.36875	-1.3604	-1.3292	-0.63125	-1.5354	-1.0729	-0.83125	-1.7125	-0.65833	-1.3042	-1.45	-0.83125	-1.5208	-1.0583	-0.8375	-1.7729	-87.244	167.758	107.881	230.245	-26.887	223.092	237.805	80.628	240.537	-47.212	-56.743	-57.031	38.142	-76.062	-52.900	4.075	0.00011486	0.00018501	0.00028372	644.84	4.0387e-06	6.6597e-06	536.73	226.52	3.5964e-06	7.857e-06	210.93	77.288	76.959	34.179	8.8154e-06	34.392	0.0093126	0.013949	0.00379	1054.4	0.00014192	0.00013846	636.91	264.96	0.00011833	0.00012271	259.41	94.253	95.91	40.527	0.00011117	42.036	204.486	240.833	55.697	-83.933	192.935	49.767	-85.073	-78.311	13.661	86.364	-80.159	-74.883	-73.234	-67.722	70.255	-70.182	-8191	255	
1394.722	1	1	0	0	0.14547	0.070995	0.11957	0.29137	0.1969	0.085321	0.071815	0.18929	0.15732	0.16216	0.1753	0.15385	0.043244	0.17111	0.20612	0.13747	-0.42708	-1.0146	-1.4583	-0.62917	-1.4062	-1.1479	-0.90625	-1.6	-0.87708	-1.1521	-1.5458	-0.53958	-1.5646	-1.3167	-0.73542	-1.575	5.473	258.714	140.516	243.013	197.292	183.942	-62.708	-93.370	-57.192	-6.492	241.192	173.836	103.505	50.229	194.327	-79.471	0.00015505	0.00052858	0.00011848	639.98	1.9429e-06	4.4948e-06	531.08	225.46	1.9049e-06	4.0484e-06	212.75	78.882	78.458	34.767	2.3533e-06	34.974	0.0069658	0.010593	0.0030048	976.17	0.00012053	0.00012279	630.35	263.35	0.0001211	0.00013072	265.66	97.542	99.347	41.927	0.00013439	43.947	221.490	-52.644	115.213	-84.150	87.057	-69.217	-85.147	-78.310	-34.022	-42.601	-80.073	-75.012	-73.219	-67.566	-87.416	-69.936	-8191	255	
1394.818	1	1	0	0	0.10381	0.2109	0.011693	0.092773	0.39153	0.20801	0.066465	0.16972	0.28051	0.060276	0.19283	0.18496	0.28166	0.19169	0.36179	0.057995	-0.46875	-0.95625	-1.6417	-0.5875	-1.2542	-1.2333	-0.49792	-1.6333	-0.94583	-1.0688	-1.575	-0.7625	-1.4708	-1.4271	-0.72917	-1.4854	-8.093	-73.821	258.805	213.235	42.975	-48.216	98.766	259.573	71.497	125.712	160.504	91.437	22.607	69.589	100.553	-79.501	0.00010334	0.00039662	0.0003478	653.04	2.6327e-06	1.5516e-05	541.4	227.23	2.4897e-06	7.9102e-06	213.24	77.549	76.659	33.685	3.8686e-06	34.281	0.0085186	0.01296	0.0037201	1061.6	0.00014788	0.00015299	656.17	270.33	0.00014652	0.00015741	273.47	98.412	100.26	41.536	0.00015639	43.69	219.200	6.787	20.383	-84.203	85.768	67.269	-85.017	-78.242	258.614	238.939	-80.167	-74.766	-72.557	-67.410	-8.287	-69.458	-8191	255	
1394.939	1	1	0	0	0.11652	0.17953	0.030836	0.068694	0.14905	0.15099	0.041967	0.11585	0.15404	0.17555	0.052049	0.2559	0.28291	0.13246	0.33279	0.0020229	-0.82292	-0.82917	-1.7062	-0.71042	-1.2042	-1.4958	-0.64792	-1.525	-1.1396	-0.75833	-1.65	-0.92083	-1.075	-1.6313	-0.72292	-1.5021	-1.246	256.326	-39.362	149.513	257.953	78.140	-56.854	-89.930	-27.702	-32.950	-70.612	253.349	229.460	208.322	154.112	180.000	0.00010343	0.00076948	0.00010321	657.57	7.109e-06	3.8841e-06	545.93	226.91	4.1225e-06	7.384e-06	209.17	75.098	74.816	32.482	5.1434e-06	32.283	0.0096076	0.014647	0.0041227	1105.7	0.00015854	0.00016238	664.36	270.48	0.00014621	0.00015376	268.09	94.647	96.651	39.651	0.00013713	40.755	208.957	11.535	57.171	-84.519	77.383	84.504	-85.211	-78.288	245.249	102.474	-80.285	-74.936	-72.803	-67.447	-33.821	-69.751	-8191	255	
1395.035	1	1	0	0	0.41554	0.021115	0.26243	0.067822	0.24205	0.29485	0.26807	0.23717	0.11249	0.10549	0.15013	0.28897	0.1516	0.25422	0.15107	0.12795	-0.73125	-0.76458	-1.5479	-0.77292	-1.1417	-1.4438	-0.72083	-1.3792	-1.3604	-0.7875	-1.6313	-1.0229	-0.99167	-1.7021	-0.65208	-1.4917	244.986	55.783	96.921	139.946	115.630	136.906	103.153	242.143	128.317	65.803	203.953	-82.633	120.644	203.724	19.527	-33.395	0.000144	0.00086586	0.00026612	656.99	7.5517e-06	7.7446e-06	539.75	223.68	1.9369e-06	9.8764e-06	205.45	73.121	73.804	31.841	4.5592e-06	32.103	0.0081176	0.012244	0.0034561	1029.5	0.00012985	0.00013352	642.2	262.01	0.00011981	0.00012691	255.84	90.158	92.36	38.229	0.00011403	39.345	210.373	3.373	38.157	-84.354	20.167	4.426	-85.125	-78.288	-65.847	57.912	-80.482	-74.894	-72.669	-67.267	251.746	-69.457	-8191	255	
1395.131	1	1	0	0	0.16219	0.084182	0.24911	0.15774	0.1663	0.29278	0.10067	0.4682	0.14402	0.16809	0.18248	0.11661	0.14697	0.06398	0.14786	0.17299	-0.88125	-0.87292	-1.5	-0.93125	-0.80208	-1.6896	-0.72292	-1.2563	-1.25	-0.6375	-1.7083	-1.1021	-0.89792	-1.6979	-0.67917	-1.2437	78.282	-80.093	144.017	160.024	-17.749	108.051	36.022	262.613	229.754	-16.409	33.765	35.921	155.373	-76.854	224.222	-63.227	0.00012214	0.00054201	0.00021214	651.32	3.4681e-06	4.5882e-06	541.19	224.05	2.5762e-06	4.7791e-06	208.3	73.426	73.536	31.634	7.9479e-06	31.93	0.0067408	0.010155	0.0028048	961.69	0.00010394	0.00010587	626.34	257.68	9.4716e-05	0.00010179	250.88	88.432	90.049	37.374	9.5585e-05	38.446	211.071	-3.482	-44.690	-84.092	210.746	120.406	-85.015	-78.332	169.600	61.421	-80.315	-75.013	-73.051	-67.216	56.484	-69.748	-8191	255	
1395.203	1	1	0	0	0.23022	0.27515	0.09018	0.36104	0.091072	0.13827	0.16997	0.14898	0.25021	0.1388	0.21227	0.13154	0.07285	0.036751	0.17515	0.13892	-0.97917	-0.56042	-1.4208	-1.2375	-0.69583	-1.5771	-1.0375	-1.1917	-1.4417	-0.68542	-1.3563	-1.2958	-0.78958	-1.6688	-0.8	-0.90625	-17.359	98.081	43.330	189.502	-75.242	159.994	94.177	155.656	106.514	-61.021	57.294	258.198	98.530	-83.437	219.160	218.107	0.00010586	0.00030227	0.0001489	656.79	2.2603e-06	2.899e-06	546.67	226.54	2.6935e-06	2.0081e-06	211.39	73.782	73.073	31.835	5.1484e-06	32.868	0.0057431	0.0087315	0.0024309	933.01	9.1757e-05	9.4331e-05	629.49	257.47	8.5914e-05	9.3809e-05	252.13	88.213	89.245	37.474	9.559e-05	39.505	205.663	66.737	-6.942	-84.758	197.138	78.910	-85.195	-78.457	44.410	21.105	-80.382	-74.840	-72.505	-66.941	-29.501	-69.430	-8191	255	
1395.323	1	1	0	0	0.10713	0.2461	0.19658	0.19309	0.087013	0.24691	0.11228	0.18091	0.13114	0.097642	0.096669	0.11368	0.20229	0.29408	0.21976	0.25217	-1.1354	-0.58542	-1.4167	-1.3729	-0.875	-1.4937	-0.98333	-1.0021	-1.4771	-0.8375	-1.3104	-1.2542	-0.75417	-1.7042	-0.82917	-0.84167	228.518	252.661	70.322	198.152	21.544	128.207	-29.573	180.701	-63.842	243.442	185.057	78.720	152.973	-60.309	189.657	219.836	0.00010223	0.00031586	0.00018816	664.66	4.4857e-06	1.0669e-05	553.21	230.58	7.6838e-07	3.3216e-07	219.66	77.666	76.507	34.167	1.5722e-06	35.17	0.005879	0.0091604	0.0025218	948.7	9.7687e-05	0.00010187	641.85	264.6	9.5049e-05	0.00010465	263.83	93.333	94.114	40.294	0.00010354	42.438	191.892	-17.020	-14.708	-84.490	14.122	55.085	-85.219	-78.418	41.137	101.181	-80.069	-74.731	-72.807	-66.761	63.871	-69.269	-8191	255	
1395.418	1	1	0	0	0.19479	0.070269	0.24089	0.28367	0.15094	0.12132	0.084712	0.2257	0.1628	0.4	0.072819	0.1916	0.26223	0.21049	0.14461	0.049974	-1.225	-0.59792	-1.1042	-1.4813	-0.61458	-1.4021	-1.1229	-0.96667	-1.4833	-0.8375	-1.2646	-1.5479	-0.875	-1.5167	-1.1167	-1.0625	205.043	254.257	197.748	51.784	52.137	196.177	169.285	108.244	91.432	239.240	177.400	-14.530	148.108	62.958	102.521	43.025	0.00012823	0.00063853	0.00018396	661.68	4.417e-06	1.7192e-06	558.55	236.19	3.5487e-06	1.3372e-05	225.85	81.72	80.17	36.512	3.5393e-06	37.667	0.0065005	0.010009	0.002753	976.15	0.00010801	0.00011057	649.16	271.59	0.00010195	0.00010922	270.91	97.853	97.697	42.683	9.4953e-05	44.739	215.781	-6.170	77.979	-84.375	90.756	-19.231	-85.121	-78.266	49.643	36.514	-79.984	-74.794	-72.525	-66.676	47.204	-69.256	-8191	255	
1395.516	1	1	0	0	0.23512	0.03841	0.042496	0.17171	0.26835	0.098692	0.20549	0.093304	0.098856	0.1128	0.064126	0.18096	0.14355	0.29785	0.10815	0.15182	-1.5521	-0.57708	-1.0104	-1.4625	-0.74583	-1.5104	-1.3729	-0.85625	-1.8458	-0.99583	-1.0604	-1.7229	-0.87292	-1.3937	-1.3396	-0.69583	210.384	224.523	141.647	231.178	164.520	202.863	189.375	248.879	88.067	206.437	261.178	169.693	214.939	196.369	163.943	185.864	0.00010458	0.00097284	0.00019706	664.99	3.7623e-06	2.3043e-06	565.41	240.7	3.5361e-06	8.0378e-06	233.15	85.361	81.945	38.253	5.5079e-06	39.738	0.0059013	0.0090122	0.0024609	948.82	9.8817e-05	0.00010057	651.41	275.71	9.5401e-05	0.00010333	277.73	101.24	100.03	44.379	9.8176e-05	47.087	173.724	7.499	-60.154	-83.827	21.724	85.663	-84.919	-78.006	164.430	88.986	-79.507	-74.411	-72.710	-66.890	52.533	-69.350	-8191	255	
1395.635	1	1	0	0	0.023101	0.097837	0.18184	0.20199	0.30154	0.33376	0.42316	0.075652	0.2288	0.14977	0.13224	0.10975	0.15074	0.18502	0.10333	0.11217	-1.4021	-0.975	-0.86458	-1.6583	-0.84167	-1.3667	-1.5812	-0.76875	-1.4417	-1.0396	-1.0792	-1.7125	-0.79583	-1.2792	-1.5896	-0.92708	222.639	-9.696	89.334	-39.041	239.731	-9.675	177.410	13.149	-49.348	35.703	-31.074	179.794	7.515	15.227	-63.003	252.294	0.00012344	0.00072509	0.0001495	668.19	4.8269e-06	4.2574e-06	569.39	245.09	1.7571e-06	6.0272e-06	237.74	87.512	84.177	39.754	4.8663e-06	42.291	0.0060602	0.0092518	0.0025347	964.47	0.00010217	0.00010272	658.83	280.54	9.9594e-05	0.00010889	285.61	104.76	103.54	46.613	0.00011234	50.735	196.661	-28.396	4.050	-83.983	40.881	-58.026	-84.898	-77.941	263.346	50.357	-79.853	-74.507	-72.621	-66.926	261.796	-69.539	-8191	255	
1395.731	1	1	0	0	0.17915	0.13916	0.17228	0.12671	0.15096	0.14774	0.12183	0.39834	0.31689	0.22923	0.19706	0.17628	0.17434	0.22562	0.16476	0.08406	-1.0438	-1.1063	-0.75	-1.4438	-0.8875	-1.1375	-1.4937	-0.85833	-1.3375	-1.1729	-0.66458	-1.7437	-1.0854	-1	-1.5375	-0.85833	-31.606	163.255	41.224	0.553	71.150	-94.532	186.023	198.038	5.315	108.495	-15.040	124.132	216.473	205.323	38.888	231.828	0.00018136	0.00048097	8.4773e-05	674.49	2.5189e-06	9.253e-06	573.7	248.66	4.5092e-06	4.7174e-06	245.68	90.957	86.811	41.333	8.5142e-06	43.604	0.0071627	0.010975	0.003017	1016.9	0.00012068	0.00012073	672.68	287.96	0.00010922	0.00011439	293.84	108.39	105.62	48.118	0.00010524	51.843	212.140	-79.470	15.623	-83.749	-22.874	-2.601	-84.737	-78.201	71.761	42.226	-80.048	-74.768	-72.551	-66.961	37.958	-69.792	-8191	255	
1395.827	1	1	0	0	0.2139	0.24998	0.33438	0.17781	0.23433	0.15819	0.2003	0.17381	0.13864	0.44806	0.088844	0.19581	0.090618	0.026001	0.070007	0.12255	-1.0688	-1.3312	-0.6	-1.6458	-0.86875	-0.96042	-1.6083	-0.78542	-1.2812	-1.3396	-0.60833	-1.5354	-1.0542	-0.90208	-1.725	-1.0042	64.855	217.770	147.234	224.282	203.752	116.805	101.249	35.307	-80.991	-5.282	7.013	-84.657	141.732	151.006	-17.452	236.929	0.00011604	0.00093996	0.00011811	672.89	4.5222e-06	3.9467e-06	570.79	247.46	2.8507e-06	6.593e-06	239.34	86.958	83.917	39.657	3.5984e-06	41.13	0.0067082	0.010409	0.0029089	1012.8	0.00011933	0.00011954	670.69	286.69	0.00011436	0.00012305	289.89	105.34	104.56	46.617	0.00012105	49.746	250.298	-49.013	38.742	-84.101	101.555	58.523	-85.084	-78.112	-19.567	110.422	-80.295	-74.820	-72.886	-66.928	165.743	-69.753	-8191	255	
1395.923	1	1	0	0	0.17893	0.10139	0.19096	0.1182	0.12954	0.11533	0.17683	0.022422	0.1134	0.15124	0.27863	0.18981	0.13053	0.10073	0.17408	0.12378	-1.0167	-1.2062	-0.67083	-1.5542	-1.0917	-0.91458	-1.6625	-0.89792	-1.3521	-1.6812	-0.8	-1.7375	-1.1958	-0.91875	-1.5438	-0.8125	83.352	35.132	137.339	-84.024	174.490	49.561	208.234	160.838	173.652	87.380	259.158	-52.896	231.160	-24.516	-0.294	-75.473	0.00014118	0.00011162	2.7476e-05	664.93	6.4117e-06	6.1241e-06	566.53	243.74	5.4843e-06	6.965e-06	234.33	85.373	83.087	38.873	2.9836e-06	40.455	0.0075162	0.011595	0.0032667	1039.1	0.00012995	0.00013158	672	285.28	0.00012813	0.00014097	290.54	105.2	105.41	46.486	0.00014194	50.068	232.790	-94.842	-13.897	-83.697	95.516	17.672	-84.849	-78.197	-37.757	65.060	-80.194	-74.780	-73.135	-67.245	-13.933	-69.641	-8191	255	
1396.019	1	1	0	0	0.33936	0.49081	0.40993	0.15148	0.20763	0.056822	0.16554	0.15302	0.145	0.17495	0.10592	0.31897	0.27647	0.16343	0.099324	0.09893	-0.71042	-1.3625	-0.79792	-1.6292	-1.3271	-0.67917	-1.6646	-0.95833	-0.84792	-1.7833	-0.86458	-1.1979	-1.3937	-0.80625	-1.4917	-0.99583	94.664	102.091	206.822	232.614	24.271	-58.361	190.457	-79.515	7.990	-39.575	-95.028	261.790	-71.409	113.856	257.467	212.995	0.00015167	0.00037281	0.00018373	674.99	1.5922e-05	2.54e-06	572.56	245.53	3.928e-06	3.7927e-06	236.68	86.484	84.132	39.68	1.0015e-05	41.871	0.0087586	0.013688	0.0039391	1111.2	0.00015579	0.00015827	691.32	290.57	0.0001462	0.00016111	299.39	108.28	108.48	48.171	0.00016422	52.469	204.170	-22.263	43.341	-83.921	64.745	54.778	-85.063	-78.186	49.794	-3.436	-80.086	-74.704	-72.712	-67.139	17.017	-69.574	-8191	255	
1396.115	1	1	0	0	0.20179	0.027848	0.1085	0.029401	0.45766	0.12054	0.13049	0.38566	0.23874	0.21836	0.26058	0.3515	0.30402	0.080052	0.37347	0.23055	-0.57083	-1.5021	-0.62292	-1.4042	-1.4417	-0.72083	-1.6375	-1.2375	-1.025	-1.7	-0.95208	-1.2625	-1.5896	-0.8625	-1.5479	-1.0854	208.075	40.424	48.828	237.414	177.349	14.380	165.186	178.041	50.147	-92.496	-70.553	233.340	248.735	188.446	235.476	-75.417	0.00011325	0.00099456	0.0001849	681.83	3.7651e-06	6.5506e-06	571.74	246.32	5.0588e-06	8.6507e-06	238.17	87.151	84.461	39.777	9.51e-07	41.98	0.0098989	0.015477	0.0043458	1143.7	0.0001675	0.00017214	698.96	294.38	0.00016156	0.00018053	306.78	110.55	110.95	49.034	0.00018574	53.493	214.029	56.085	3.665	-83.928	71.316	-51.346	-84.951	-78.365	-6.084	31.287	-80.131	-74.788	-72.833	-67.127	45.176	-69.751	-8191	255	
1396.236	1	1	0	0	0.30729	0.12068	0.1792	0.10802	0.12473	0.29783	0.16699	0.090197	0.26668	0.15653	0.09508	0.24001	0.36739	0.21269	0.16798	0.12632	-0.45417	-1.6021	-0.88333	-0.99792	-1.4417	-0.57708	-1.4979	-1.2354	-0.80417	-1.7083	-0.97292	-1.1271	-1.4562	-0.8125	-1.3917	-1.1	-78.166	-89.388	43.439	76.083	254.644	-53.545	234.566	-88.179	141.053	39.902	87.948	-40.674	248.930	233.395	99.484	5.828	0.00025766	0.00086979	5.6306e-05	671	4.8892e-06	8.9127e-06	575.03	248.09	1.3689e-06	1.0943e-05	241.56	89.186	85.219	40.614	2.3405e-06	42.798	0.011368	0.018025	0.0050297	1207.2	0.00019334	0.00019912	714.43	299.81	0.00018031	0.00020031	315.32	113.9	114.04	50.455	0.00020098	55.046	212.908	186.343	224.764	-84.387	49.777	135.312	-84.864	-78.219	251.949	26.106	-80.003	-74.514	-72.890	-66.987	35.292	-69.610	-8191	255	
1396.330	1	1	0	0	0.14576	0.18018	0.16831	0.19814	0.1849	0.2799	0.12972	0.049706	0.14745	0.22624	0.379	0.17616	0.2111	0.20929	0.40988	0.12276	-0.08125	-1.4917	-0.75625	-1.0167	-1.5625	-0.7375	-1.4062	-1.4229	-0.60625	-1.5438	-1.0604	-1	-1.6812	-0.84167	-1.2875	-1.3563	210.916	190.892	257.977	-41.139	-77.525	-95.007	-89.177	231.522	87.042	-95.660	248.968	-12.383	208.019	-41.796	9.462	184.983	0.0001729	0.001076	7.6597e-05	670.9	1.668e-06	8.0419e-06	571.09	247.32	3.595e-06	9.754e-06	238.95	88.588	86.446	41.472	4.1143e-06	43.174	0.012564	0.020225	0.0056978	1279.2	0.00022651	0.00023742	729.89	306.12	0.0002165	0.00023844	323.7	116.64	118.47	52.102	0.00022214	56.554	238.613	-28.089	75.363	-83.922	178.150	56.126	-84.862	-78.253	138.954	68.752	-80.222	-74.554	-72.792	-67.095	-93.258	-69.460	-8191	255	
1396.427	1	1	0	0	0.12737	0.34984	0.24278	0.18192	0.24989	0.22784	0.33042	0.25872	0.18619	0.4102	0.22992	0.036965	0.21797	0.078254	0.10323	0.071833	-0.13542	-1.4333	-0.88333	-0.78542	-1.6292	-0.91042	-1.2625	-1.5708	-0.71667	-1.525	-1.1771	-0.98958	-1.6354	-0.85417	-1.0854	-1.5896	71.212	229.362	-27.059	-23.753	172.828	18.292	238.772	209.626	-39.743	29.309	238.490	159.973	42.687	209.307	120.725	5.758	0.00021784	0.00065356	6.2405e-06	668.96	2.4202e-06	1.574e-06	569.51	246.04	8.3426e-07	7.0414e-06	237.52	88.988	86.5	41.645	9.8221e-06	43.308	0.013995	0.022163	0.0062029	1328	0.00025003	0.00026094	738.38	310.27	0.00024659	0.00026807	331.1	119.77	122.59	53.434	0.00025632	58.184	223.431	43.448	-79.095	-83.744	86.987	131.032	-84.871	-78.072	197.351	110.627	-79.995	-74.482	-72.571	-67.113	-74.805	-69.644	-8191	255	
1396.498	1	1	0	0	0.23997	0.044199	0.18514	0.044917	0.092167	0.12984	0.063221	0.24116	0.13418	0.10928	0.19281	0.22639	0.17337	0.19372	0.2548	0.22474	-0.18125	-1.4458	-1.3167	-0.73542	-1.6792	-0.96875	-1.125	-1.8125	-0.6625	-1.2875	-1.3042	-0.59792	-1.6604	-1.0979	-1.175	-1.7375	238.046	194.632	96.585	-82.712	151.408	204.346	229.714	244.290	-61.293	4.051	-94.199	35.885	-84.438	-38.136	36.299	219.732	0.00013057	0.00076469	0.0001921	663.01	3.4253e-06	5.8554e-06	566.43	245.89	7.3066e-06	1.0555e-05	235.78	88.803	86.619	41.357	3.7909e-06	43.419	0.016194	0.025108	0.0069986	1405.4	0.00027994	0.00028813	750.55	314.07	0.00027378	0.00029701	338.06	122.63	126	54.258	0.00028182	59.351	207.656	258.816	53.462	-84.225	45.028	106.631	-84.618	-77.819	118.372	-57.973	-80.083	-74.669	-72.708	-66.889	127.214	-69.680	-8191	255	
1396.596	1	1	0	0	0.13021	0.2384	0.27737	0.2696	0.32858	0.12968	0.11311	0.19693	0.27671	0.21168	0.13353	0.53292	0.21455	0.12198	0.10903	0.0333	-0.4	-1.4146	-1.3958	-0.58542	-1.5542	-1.0479	-0.94792	-1.5938	-0.6875	-1.3937	-1.5063	-0.70208	-1.5312	-1.0375	-0.78542	-1.6646	-64.962	167.288	42.327	239.454	91.302	-42.931	-32.159	231.807	-23.526	179.367	1.503	182.583	-73.698	-67.384	-72.152	257.506	0.00019471	0.00049775	0.00023884	662.65	4.0054e-06	8.3415e-06	569.74	244.92	4.9827e-06	7.1507e-06	235.69	88.09	85.663	40.446	7.2236e-06	42.133	0.017619	0.026703	0.0073526	1443.3	0.00028875	0.00029267	753.39	313.3	0.00026937	0.00028606	334.96	120.95	123.24	52.715	0.00026838	57.468	219.100	221.717	-13.972	-84.526	162.103	51.165	-84.885	-78.186	238.159	155.729	-80.170	-74.536	-72.698	-67.298	-63.266	-69.972	-8191	255	
1396.715	1	1	0	0	0.11061	0.2572	0.27717	0.32879	0.27064	0.24654	0.08054	0.29667	0.18251	0.035509	0.19597	0.16402	0.39007	0.097957	0.057413	0.099523	-0.42917	-1.1063	-1.2167	-0.63542	-1.3583	-1.1417	-0.62917	-1.675	-0.78958	-1.1083	-1.5479	-0.60625	-1.4479	-1.2333	-0.63958	-1.6167	19.466	130.750	152.754	203.559	-57.230	154.503	235.943	-21.482	34.266	165.039	-50.531	221.551	220.328	120.605	-42.971	255.748	0.00017343	0.00092639	0.00016315	667.94	9.1469e-06	4.6282e-06	574.22	245.26	2.5141e-06	1.8232e-06	233.58	86.159	83.569	39.338	5.6847e-06	40.913	0.016324	0.024091	0.0066286	1380.8	0.00025799	0.00026013	741.78	307.22	0.00023931	0.00025039	322.74	115.86	117.47	50.454	0.00023904	55.012	180.375	5.894	-8.093	-84.135	-20.269	96.347	-84.951	-78.012	-57.486	161.550	-79.938	-74.505	-72.854	-67.034	158.892	-69.526	-8191	255	
1396.811	1	1	0	0	0.44514	0.24383	0.2204	0.091745	0.37329	0.12169	0.30967	0.32484	0.23554	0.067767	0.27244	0.099023	0.12091	0.023023	0.12055	0.16861	-0.41458	-0.96458	-1.5833	-0.83333	-1.2896	-1.2458	-0.73542	-1.6854	-0.825	-0.80833	-1.7062	-0.7875	-1.5187	-1.4958	-0.47292	-1.6	183.172	99.676	209.480	244.136	-55.421	144.857	106.065	156.330	86.282	166.130	83.917	-1.164	220.749	215.075	159.912	107.599	8.4085e-05	0.00054487	0.00017263	675.36	5.1239e-06	8.547e-06	568.58	242.68	6.7992e-06	1.4177e-05	231.92	85.329	83.624	39.363	6.1808e-06	40.973	0.015198	0.023181	0.0065989	1386.6	0.00025904	0.00026376	740.32	306.71	0.00024489	0.00025815	323.43	115.8	118.19	50.8	0.00024997	55.611	204.342	-21.808	143.747	-83.968	42.945	67.192	-85.041	-77.787	131.521	35.592	-79.839	-74.469	-72.558	-66.869	197.293	-69.644	-8191	255	
1396.907	1	1	0	0	0.13123	0.094405	0.13213	0.33979	0.17705	0.29455	0.13067	0.20664	0.2258	0.10936	0.096106	0.13732	0.26631	0.034909	0.20671	0.1849	-0.6625	-0.8125	-1.4937	-0.66458	-1.25	-1.4708	-0.52083	-1.6063	-1.1042	-0.9875	-1.6771	-0.775	-1.0375	-1.6146	-0.62292	-1.5604	137.992	-4.349	-20.450	33.882	241.137	209.706	-23.473	112.311	195.084	-77.384	0.856	243.174	4.683	-9.868	0.832	-35.156	0.00022218	0.00050783	0.0001767	676.85	1.2343e-05	4.4548e-06	568.45	244.9	7.1265e-06	8.8641e-06	233.61	86.179	84.279	40.219	3.8885e-06	42.265	0.015512	0.023649	0.0067636	1394.2	0.00026365	0.00026927	745.53	310.1	0.00025526	0.00027274	330.69	118.51	120.65	52.24	0.00027012	57.611	221.031	-65.730	86.531	-84.773	70.719	144.677	-85.177	-78.127	-8.454	71.524	-79.874	-74.775	-72.853	-67.130	-6.287	-69.643	-8191	255	
1397.028	1	1	0	0	0.084136	0.30783	0.10077	0.059515	0.24314	0.13076	0.14215	0.1597	0.12022	0.032596	0.059029	0.094878	0.17625	0.1382	0.18838	0.36341	-0.75	-0.90417	-1.8458	-0.81875	-1.1354	-1.7333	-0.8625	-1.325	-1.3208	-0.98125	-1.6854	-0.75625	-0.91875	-1.5917	-0.64583	-1.5521	104.755	79.093	-50.775	-84.832	-26.600	135.426	202.385	214.963	78.461	26.436	58.361	186.554	-95.009	-64.984	94.519	210.511	0.00024478	0.00096939	0.00024585	672.47	9.4498e-07	1.7544e-06	572.84	245.74	5.2361e-06	8.8222e-06	235.13	87.347	85.109	40.694	5.2737e-06	42.595	0.016523	0.025144	0.0071361	1431.7	0.00027385	0.00028274	756.33	312.64	0.00025879	0.00027586	333	119.37	120.72	52.532	0.00026557	57.553	220.597	73.557	-54.895	-84.240	204.485	-25.949	-85.092	-77.965	3.888	111.940	-79.880	-74.493	-72.945	-66.768	60.886	-69.505	-8191	255	
1397.100	1	1	0	0	0.15483	0.2778	0.20704	0.059978	0.21117	0.17414	0.15924	0.12855	0.10597	0.1822	0.081245	0.065438	0.17234	0.20147	0.072762	0.22339	-1.0583	-0.6625	-1.7021	-0.89583	-0.71458	-1.7062	-0.875	-1.3563	-1.3396	-0.78333	-1.5562	-0.9875	-0.85208	-1.6917	-0.59583	-1.1208	258.368	142.979	38.569	87.728	186.610	-32.604	-13.560	-93.614	156.819	33.346	42.031	-17.241	-64.991	263.730	184.249	172.553	0.00012521	0.00055312	0.00026261	681.98	7.0931e-06	7.5626e-06	573.54	244.81	6.6894e-06	1.4471e-05	234	86.334	84.328	39.898	4.5443e-07	41.5	0.016028	0.024743	0.0069802	1414.1	0.00026693	0.00027671	757.13	311.81	0.00025848	0.00028402	333.14	118.76	120.88	52.169	0.00027273	56.632	189.247	172.601	16.243	-84.291	124.164	-12.319	-84.859	-77.922	-0.681	109.167	-79.843	-74.304	-72.696	-66.705	17.043	-69.457	-8191	255	
1397.196	1	1	0	0	0.033297	0.18345	0.10809	0.17038	0.066461	0.11066	0.26743	0.20897	0.17746	0.23901	0.18855	0.19806	0.067119	0.22232	0.068427	0.13077	-0.98542	-0.675	-1.3979	-1.1083	-0.67708	-1.5312	-1.0729	-1.1917	-1.5125	-0.72083	-1.5729	-1.2437	-0.66042	-1.6562	-0.9	-1.2604	-24.238	-3.089	-1.270	73.961	152.750	-7.582	205.367	142.508	131.679	47.860	218.512	244.650	115.637	151.235	173.652	159.560	0.0001819	0.00030265	0.00044903	685.05	9.3657e-06	2.2146e-06	571.14	244.31	2.2094e-06	8.3645e-06	232.94	85.146	83.204	39.403	1.0514e-05	40.848	0.016268	0.025294	0.0069981	1411.1	0.00026549	0.00027639	749.19	308.51	0.00025122	0.00027523	326.98	116.41	118.83	51.207	0.00026471	55.635	245.448	248.800	-61.010	-83.809	175.075	-43.896	-84.912	-77.939	171.759	20.031	-79.924	-74.615	-72.298	-66.718	57.039	-69.425	-8191	255	
1397.316	1	1	0	0	0.26066	0.17787	0.16338	0.20447	0.052578	0.11143	0.27493	0.094179	0.050496	0.2119	0.070539	0.15558	0.055052	0.10879	0.019482	0.13309	-1.1229	-0.59375	-1.4042	-1.0875	-0.7875	-1.3917	-1.0667	-1.0104	-1.5458	-0.75	-1.4688	-1.4062	-0.5875	-1.5896	-1.1063	-1.0375	-5.448	-58.681	-76.204	162.871	-23.279	25.339	229.236	-31.525	126.713	-76.849	146.132	106.023	192.225	23.080	-53.778	254.387	0.00015816	0.00104	0.00023094	676.23	8.1174e-06	9.2173e-06	572.54	243.72	4.2575e-06	1.5284e-05	232.73	84.972	83.449	39.331	4.2123e-06	41.109	0.016191	0.025505	0.0069779	1420.8	0.00027178	0.00028307	752.53	309.25	0.00025845	0.00028435	328.89	117.04	120.25	51.443	0.00027194	55.909	205.277	-1.252	-6.646	-84.632	212.306	-16.543	-85.001	-77.757	76.858	51.607	-79.724	-74.262	-72.283	-66.868	88.678	-69.486	-8191	255	
1397.411	1	1	0	0	0.20282	0.13347	0.1429	0.12647	0.23389	0.22629	0.35461	0.26173	0.11095	0.12448	0.12709	0.15922	0.19406	0.13814	0.22622	0.10329	-1.2542	-0.85625	-1.1604	-1.2667	-0.60208	-1.5667	-1.2021	-0.92292	-1.575	-0.92708	-1.2229	-1.6437	-0.81875	-1.525	-1.2563	-0.91042	52.601	52.113	-74.859	-92.850	167.857	-83.004	247.383	-73.280	248.102	90.707	63.106	44.703	-39.257	165.059	161.849	185.431	0.0001624	0.0010588	0.00020479	676.66	5.567e-06	7.7719e-06	574.74	243.19	5.6156e-06	5.4006e-06	234.5	85.802	83.509	39.278	2.1236e-06	41.256	0.016339	0.025188	0.0068226	1389.7	0.00026097	0.00026381	742.84	305.23	0.00023437	0.00025197	320.31	114.57	116.26	50.112	0.00022891	54.492	200.536	32.078	76.905	-83.872	89.519	75.540	-84.651	-77.890	-49.619	-9.708	-79.684	-74.163	-72.449	-66.513	173.261	-69.203	-8191	255	
1397.507	1	1	0	0	0.13651	0.26908	0.08498	0.22744	0.17672	0.16136	0.24385	0.064463	0.13663	0.36237	0.29929	0.1575	0.23045	0.21885	0.24876	0.16504	-1.0271	-0.87292	-1.0833	-1.3583	-0.51875	-1.4625	-1.3854	-0.93958	-1.6333	-0.86458	-1.1854	-1.5583	-0.75417	-1.425	-1.4354	-0.73542	198.549	120.764	154.173	224.577	-19.754	-78.671	181.030	150.964	31.306	157.954	203.773	197.397	184.621	173.751	-48.702	253.489	0.00020396	0.001218	0.00018484	675.43	9.8427e-07	1.0614e-05	574.63	244.48	8.2387e-06	2.1013e-05	237.15	86.671	84.137	39.795	5.1054e-06	41.897	0.014093	0.021865	0.0059756	1321.3	0.00024215	0.00024658	738.1	304.9	0.00023157	0.00025237	323.67	116.29	118.04	50.761	0.00023516	55.665	229.260	24.232	-2.337	-83.578	107.671	57.061	-84.887	-78.105	161.965	78.136	-80.029	-74.319	-72.916	-66.844	21.558	-69.484	-8191	255	
1397.603	1	1	0	0	0.14519	0.25229	0.29092	0.10512	0.19679	0.31791	0.25287	0.3444	0.15428	0.024297	0.22799	0.28594	0.33708	0.19192	0.16454	0.0049931	-1.2083	-1.0396	-1.0896	-1.6875	-0.72083	-1.3208	-1.4458	-0.84167	-1.6437	-0.97292	-1.0125	-1.7417	-0.68958	-1.2146	-1.4042	-0.69375	69.093	-87.098	-61.048	26.967	251.723	92.113	253.785	252.897	-67.206	120.221	215.643	220.876	190.666	-23.232	221.211	63.970	0.00020583	0.00038799	4.4897e-05	674.96	1.5173e-05	1.1655e-06	575.66	245.77	4.5247e-06	1.609e-05	236.71	86.166	83.912	39.784	1.2847e-05	41.381	0.01461	0.022459	0.0060757	1329.8	0.00024128	0.00024216	735.19	305.4	0.0002247	0.00024408	320.67	115.31	117.39	50.761	0.00023448	55.332	205.208	221.749	109.536	-83.866	57.697	109.598	-84.649	-78.042	24.440	146.132	-79.906	-74.204	-72.525	-66.668	63.014	-69.416	-8191	255	
1397.724	1	1	0	0	0.17458	0.088904	0.14349	0.2133	0.43898	0.03786	0.1506	0.44843	0.033646	0.21796	0.064895	0.10426	0.22517	0.30272	0.072931	0.15914	-1.0875	-0.95625	-0.70833	-1.6104	-0.80208	-1.0542	-1.5167	-0.67083	-1.4708	-1.0979	-0.78542	-1.6708	-0.80208	-1.0208	-1.5375	-0.66875	47.528	196.895	230.664	146.436	121.309	-74.167	-7.152	141.294	96.623	89.223	137.537	255.405	0.340	197.487	68.247	181.606	0.00017093	0.00076564	0.00020661	677.9	1.2568e-05	7.8776e-06	576.75	246.23	4.0003e-06	1.1275e-05	236.58	87.132	84.759	40.582	1.7345e-05	42.393	0.014669	0.022598	0.0061646	1341.9	0.00024485	0.00024368	736.13	306.39	0.00022621	0.00024137	320.83	115.73	117.56	51.171	0.00022145	55.705	211.984	16.427	21.418	-83.291	105.176	92.512	-84.865	-78.002	54.133	34.161	-79.961	-74.611	-72.607	-66.924	161.868	-69.611	-8191	255	
1397.795	1	1	0	0	0.18329	0.17913	0.13837	0.22665	0.14181	0.19231	0.23345	0.23784	0.055846	0.095781	0.22876	0.13996	0.14981	0.24869	0.077811	0.38058	-0.89375	-1.1187	-0.70625	-1.5812	-0.71042	-1.0417	-1.7521	-0.61042	-1.4208	-1.3896	-0.7875	-1.5542	-0.95417	-0.98542	-1.4729	-0.7375	-31.856	54.226	213.492	231.428	26.204	184.397	199.929	-96.148	-10.851	77.731	199.178	247.359	-81.987	188.903	96.367	-12.837	0.00013827	0.00049081	0.00013285	683.97	5.1026e-06	4.0197e-06	575.84	247.36	1.7604e-06	3.6893e-06	239.88	88.307	85.543	41.002	5.0129e-06	42.981	0.013441	0.020504	0.0056308	1287.6	0.00021992	0.00021868	726.94	304.1	0.00020175	0.000216	318.97	115.18	115.86	51.041	0.00020639	55.803	197.644	185.085	62.102	-84.360	46.247	-59.402	-85.188	-78.178	-20.944	209.301	-79.735	-74.364	-72.654	-66.870	-2.235	-69.334	-8191	255	
1397.916	1	1	0	0	0.10158	0.15365	0.02568	0.33807	0.091423	0.2039	0.10359	0.15278	0.25374	0.26118	0.11302	0.181	0.33918	0.20815	0.18876	0.075485	-0.75	-1.4688	-0.63542	-1.3708	-0.91667	-0.93958	-1.6917	-1.0208	-1.2292	-1.3937	-0.71875	-1.5958	-1.25	-0.71667	-1.6333	-0.88542	55.005	86.888	242.964	13.012	-12.053	114.628	180.523	57.076	28.234	43.095	-94.540	185.562	182.781	261.417	175.130	86.659	0.00023266	0.00013382	0.00020681	682.48	8.2863e-06	6.8336e-06	581.15	246.33	1.6947e-06	3.386e-06	240.75	87.843	84.723	40.28	1.0177e-05	42.465	0.012709	0.019534	0.00548	1271.6	0.00021643	0.00021605	729.88	303.53	0.00020131	0.00021601	319.1	114.33	114.63	50.138	0.0002039	54.848	207.439	-46.932	14.287	-84.171	123.770	231.203	-84.778	-78.287	42.743	-6.378	-80.045	-74.438	-72.709	-67.029	63.669	-69.332	-8191	255	
1398.012	1	1	0	0	0.18341	0.21208	0.20488	0.10681	0.15145	0.21227	0.084912	0.31421	0.13198	0.10084	0.12159	0.28751	0.15809	0.056566	0.1508	0.15345	-0.75417	-1.3167	-0.53333	-1.5917	-1.2396	-0.86042	-1.8	-0.84375	-1.1	-1.6479	-0.76458	-1.4917	-1.2917	-0.91042	-1.6167	-0.95208	-19.519	-18.490	11.664	207.424	254.868	-9.863	226.052	185.949	120.727	110.691	138.272	250.042	219.376	45.837	221.169	245.237	0.00015116	0.00032297	0.00029974	683.35	6.6341e-06	6.7985e-06	578.76	246.44	2.1035e-06	1.0798e-06	240.95	88.131	84.562	40.01	3.2674e-06	42.54	0.012255	0.018959	0.0053179	1249.3	0.00020606	0.00020708	724.2	301.32	0.00018985	0.00020796	318.15	114.15	113.94	49.839	0.00019985	54.825	222.128	257.178	239.710	-84.172	65.216	16.106	-85.070	-78.109	124.595	244.176	-79.908	-74.378	-72.846	-67.042	-20.169	-69.579	-8191	255	
1398.108	1	1	0	0	0.083201	0.23583	0.17404	0.38087	0.15338	0.18512	0.3574	0.13291	0.16346	0.18819	0.10573	0.22054	0.16589	0.12047	0.12207	0.1578	-0.80833	-1.5542	-0.70208	-1.2917	-1.1917	-0.74375	-1.5646	-1.125	-0.92292	-1.5333	-0.74792	-1.275	-1.6021	-0.78125	-1.6083	-1.0667	-66.495	-61.268	138.328	247.724	195.259	89.249	235.859	13.334	103.221	-75.368	74.368	22.015	48.746	149.241	174.147	175.584	0.00017446	0.0010493	0.00038787	683.15	1.2137e-05	8.157e-06	579.99	247.11	5.094e-06	4.7335e-06	237.91	86.375	84.308	39.628	3.8767e-06	41.322	0.01216	0.019134	0.0054364	1259.4	0.00021147	0.00021908	731.75	303.33	0.00020088	0.00022069	318.29	113.17	114.39	49.821	0.00021273	54.069	177.866	-23.814	14.878	-84.325	67.071	123.168	-84.907	-78.318	157.883	-7.614	-80.063	-74.624	-72.891	-66.779	-23.324	-69.413	-8191	255	
1398.204	1	1	0	0	0.2236	0.11688	0.21079	0.16778	0.23628	0.12517	0.16666	0.25647	0.19999	0.058062	0.3128	0.25415	0.16581	0.13371	0.32123	0.1291	-0.33958	-1.7083	-0.7	-1.1354	-1.4958	-0.7	-1.5021	-1.1688	-0.85833	-1.6187	-0.84375	-1.125	-1.6562	-0.83333	-1.6271	-1.2938	206.250	-78.866	-19.742	68.063	-20.433	129.965	-59.924	192.870	-15.911	105.232	-82.171	40.102	-71.069	-92.634	68.501	200.699	0.00018777	0.00085613	0.00032663	690.45	1.2151e-06	5.1578e-06	581.23	247.88	1.2985e-06	6.2347e-06	239.93	87.358	85.262	40.576	6.4015e-06	42.882	0.012777	0.020016	0.0056101	1276.7	0.0002143	0.00021973	729.85	302.57	0.00019346	0.00021001	315.21	112.93	113.94	50.272	0.00018949	54.432	218.757	249.802	-25.927	-83.446	118.327	51.946	-84.954	-78.116	-2.367	24.127	-80.027	-74.168	-72.771	-66.824	91.115	-70.003	-8191	255	
1398.323	1	1	0	0	0.29616	0.31812	0.38261	0.011934	0.0072112	0.32016	0.18767	0.26297	0.27316	0.090581	0.16675	0.39884	0.03213	0.16235	0.17729	0.22873	-0.38958	-1.6	-0.69792	-1.0333	-1.4688	-0.57917	-1.4542	-1.2125	-0.78958	-1.6021	-0.97917	-0.92917	-1.5812	-0.85417	-1.2542	-1.35	50.132	43.011	35.930	21.252	21.556	75.274	31.795	221.573	7.298	78.809	145.956	167.507	-25.343	259.812	155.284	163.122	0.00014634	0.00096986	0.00018885	682.4	1.325e-06	7.0668e-06	581.76	248.49	7.412e-06	1.4526e-05	240.78	88.797	85.374	40.814	1.3977e-05	43.224	0.011358	0.017643	0.0048889	1198.1	0.00018587	0.000192	715.73	299.32	0.00017245	0.00018624	311.51	112.26	112.01	49.887	0.00017132	54.079	228.976	3.183	-42.206	-84.383	224.381	223.459	-85.262	-78.538	225.223	-1.987	-80.188	-74.607	-72.866	-67.193	48.838	-69.763	-8191	255	
1398.395	1	1	0	0	0.15693	0.12416	0.047413	0.046222	0.13018	0.27686	0.29605	0.16945	0.14241	0.11553	0.16851	0.22216	0.09945	0.1047	0.11976	0.16251	-0.27917	-1.4583	-1.1187	-0.90625	-1.5312	-0.75833	-1.25	-1.4396	-0.63125	-1.675	-1.0583	-0.73958	-1.575	-0.9	-1.0104	-1.5479	-22.832	-77.662	-47.925	187.204	223.294	86.811	206.640	1.063	191.445	179.057	-40.546	-61.661	84.721	156.303	103.801	256.253	0.00022361	0.00066352	6.4355e-05	680.82	7.3309e-06	8.36e-06	582.74	248.54	4.4174e-06	7.4896e-06	241.13	88.292	84.93	40.183	3.5835e-06	42.456	0.010522	0.01626	0.0045343	1170.5	0.00017871	0.00018659	715.03	299.37	0.00017594	0.0001932	313.64	112.75	113.03	49.711	0.00018558	54.301	212.462	205.595	244.599	-84.489	127.624	94.170	-85.143	-78.523	-94.344	69.712	-80.337	-74.771	-72.974	-67.211	70.711	-69.750	-8191	255	
1398.491	1	1	0	0	0.080566	0.2153	0.15556	0.10553	0.27352	0.074548	0.19693	0.11139	0.30546	0.11083	0.17471	0.25531	0.088387	0.34667	0.067182	0.22528	-0.16458	-1.2875	-1.1437	-0.8125	-1.5854	-0.87083	-1.3417	-1.5	-0.6	-1.6396	-1.2146	-0.74375	-1.7021	-1.0625	-1.0812	-1.3792	-35.728	17.325	183.731	191.705	137.169	224.251	252.526	189.038	255.939	113.690	200.789	-38.598	173.042	199.605	97.974	184.454	0.00017204	0.00031803	0.00027972	686.68	6.1968e-07	1.2134e-05	583.53	248.91	4.0359e-06	2.4197e-06	241.13	88.157	84.951	39.939	9.538e-06	41.662	0.011707	0.018031	0.0050013	1221.1	0.00019565	0.00020049	723.99	301.09	0.00018667	0.00020105	315.18	113.31	113.87	49.774	0.00019855	54.197	205.378	39.295	-78.687	-84.280	209.951	36.268	-85.113	-78.575	-13.624	86.815	-80.240	-74.691	-73.151	-67.239	-14.544	-69.979	-8191	255	
1398.587	1	1	0	0	0.10293	0.12429	0.12287	0.2414	0.26633	0.17922	0.12379	0.039942	0.13297	0.13239	0.084111	0.12796	0.23219	0.14154	0.21893	0.11666	-0.32292	-1.3813	-1.1792	-0.63333	-1.525	-0.82292	-0.98125	-1.5229	-0.70833	-1.2062	-1.4333	-0.71667	-1.5833	-0.98958	-0.79167	-1.5333	-27.376	206.927	187.573	-36.394	-73.257	203.363	156.102	-83.913	-24.837	131.219	47.909	183.516	163.266	126.675	233.236	144.904	0.00018146	0.00064251	4.2497e-05	678.1	4.5214e-06	9.6336e-06	582.03	247.73	5.4228e-06	1.5704e-05	237.37	86.889	84.247	39.656	2.9886e-06	41.311	0.012627	0.019292	0.0053686	1263.2	0.0002118	0.00021555	726.8	302.33	0.00019644	0.0002061	313.31	112.25	112.98	49.251	0.00019239	53.421	223.983	-62.989	153.720	-84.411	4.464	69.870	-85.209	-78.483	-43.686	4.185	-80.218	-74.846	-73.175	-67.192	198.157	-69.743	-8191	255	
1398.683	1	1	0	0	0.082989	0.21377	0.13331	0.12496	0.19412	0.28857	0.064784	0.14616	0.21068	0.33706	0.05572	0.24647	0.10577	0.2131	0.21378	0.19824	-0.30417	-1.1125	-1.2625	-0.67083	-1.3896	-1.05	-0.825	-1.6146	-0.82292	-1.0396	-1.3771	-0.73333	-1.2271	-1.2812	-0.80625	-1.4979	-66.217	139.012	-72.009	145.586	71.924	136.847	164.192	245.044	103.653	202.066	127.063	61.331	187.175	-51.447	143.572	158.090	0.00021191	0.00022366	0.0001403	688.55	8.067e-06	6.704e-06	582.4	247.25	4.7026e-06	6.6631e-06	240.05	86.39	84.296	39.443	5.93e-06	41.741	0.012322	0.018806	0.0052978	1267.7	0.00021199	0.00021707	729.26	303.68	0.00020374	0.0002147	317.27	113.34	114.06	49.459	0.00020243	54.003	231.383	50.167	-29.731	-84.461	-67.447	7.810	-85.399	-78.699	256.499	122.318	-80.527	-74.875	-73.367	-67.448	-42.159	-69.873	-8191	255	
1398.804	1	1	0	0	0.25513	0.27434	0.074	0.17576	0.203	0.33616	0.16087	0.11535	0.22616	0.2467	0.11184	0.24356	0.18953	0.30102	0.081782	0.17304	-0.41875	-0.86667	-1.4146	-0.67083	-1.4312	-1.275	-0.74583	-1.7792	-0.99792	-0.88333	-1.6063	-0.7	-1.55	-1.3375	-0.64583	-1.625	23.799	-70.184	259.674	-44.240	94.910	78.778	191.621	29.592	250.486	-22.090	75.997	211.196	255.210	236.447	68.817	243.707	0.00015032	0.00039349	0.00022716	686.19	9.3689e-06	8.6293e-06	581.79	247.85	4.0729e-06	1.7833e-05	241.05	87.675	84.667	40.147	6.9578e-06	42.526	0.012543	0.018929	0.0053083	1265.4	0.00020884	0.00021394	730.36	303.73	0.00020225	0.00021357	319.32	114.66	114.62	50.056	0.00020488	55.019	219.119	-25.877	-9.713	-84.392	29.481	157.830	-85.389	-78.420	1.458	91.508	-80.353	-74.830	-72.844	-67.304	-9.155	-69.681	-8191	255	
1398.900	1	1	0	0	0.2035	0.31379	0.25055	0.12954	0.11465	0.10849	0.15897	0.19838	0.14763	0.14716	0.2101	0.094669	0.16839	0.016006	0.11895	0.16682	-0.6625	-0.69375	-1.6625	-0.61667	-1.1896	-1.3875	-0.62083	-1.6812	-0.93125	-1.0063	-1.4146	-0.7375	-1.0979	-1.5875	-0.57292	-1.5458	-22.476	-94.823	-76.048	-30.360	169.311	-58.011	254.794	142.136	-33.208	124.852	105.269	183.332	245.932	-88.427	-13.670	216.687	0.00017544	0.00088795	0.00020239	690.09	1.4891e-06	1.0807e-05	582.37	248.4	5.9814e-06	5.5387e-06	242.15	88.469	85.1	40.103	4.9537e-06	42.541	0.012629	0.018921	0.0052746	1256.9	0.00020166	0.00020272	724.72	301.12	0.0001831	0.00019261	314.63	113.22	112.36	49.26	0.00018253	53.925	214.423	-6.443	-49.908	-84.209	-89.430	8.925	-85.466	-78.443	91.489	130.636	-80.169	-74.919	-73.015	-67.412	54.249	-69.836	-8191	255	
1398.996	1	1	0	0	0.32878	0.10391	0.10562	0.19939	0.15417	0.068062	0.089288	0.24255	0.13107	0.11274	0.082631	0.25185	0.37822	0.30105	0.27359	0.19902	-0.75833	-0.80417	-1.3875	-0.80208	-1.2104	-1.6063	-0.68125	-1.4	-0.93125	-0.83125	-1.6646	-0.68542	-0.9875	-1.575	-0.50833	-1.4354	38.080	66.726	150.178	123.069	145.868	26.881	-69.459	-64.546	188.229	-63.971	151.548	-89.580	234.377	250.552	226.223	196.489	0.00013993	0.00045201	1.3079e-05	680.67	2.6729e-06	4.6106e-06	579.74	247.94	3.9909e-06	8.0628e-06	239.12	86.319	84.044	39.074	6.9463e-06	40.975	0.011298	0.017342	0.00493	1224.4	0.00019368	0.00019978	721.31	300.99	0.00019055	0.00020712	315.1	112.65	113.1	48.959	0.00020471	53.305	227.415	247.341	174.669	-84.548	139.792	81.288	-85.298	-78.566	-2.359	-24.521	-80.321	-75.058	-73.229	-67.278	121.775	-69.667	-8191	255	
1399.093	1	1	0	0	0.051144	0.12919	0.14277	0.15958	0.12596	0.1332	0.19984	0.086702	0.25074	0.16996	0.27626	0.14135	0.21747	0.2324	0.10107	0.21432	-0.825	-0.56042	-1.5271	-0.91667	-0.77708	-1.4667	-0.76458	-1.2667	-1.2042	-0.53958	-1.4688	-0.8875	-0.875	-1.5979	-0.72083	-1.3896	211.929	235.905	43.505	181.615	-31.971	186.412	10.800	-76.833	178.716	253.399	211.143	-8.359	-46.710	120.354	69.567	199.964	0.0001209	0.0006901	0.00034353	679.86	6.0403e-06	2.354e-06	575.96	246.61	5.675e-07	6.0428e-06	236.31	85.403	82.965	38.404	8.6146e-06	40.061	0.012344	0.019004	0.0052936	1251	0.00020384	0.00021047	722.22	300.47	0.00019304	0.00021084	312.99	111.24	111.72	48.072	0.0002019	52.112	199.014	27.344	-70.451	-84.275	146.056	129.851	-85.305	-78.405	48.558	88.314	-80.624	-75.088	-73.053	-67.462	-12.149	-69.968	-8191	255	
1399.189	1	1	0	0	0.19795	0.17055	0.21155	0.11075	0.13844	0.059342	0.053681	0.28611	0.2008	0.11201	0.23739	0.31184	0.083496	0.33658	0.34308	0.049544	-1.0167	-0.69167	-1.4479	-1.0646	-0.88125	-1.6521	-0.90208	-1.2479	-1.5312	-0.84583	-1.6083	-1.05	-0.67917	-1.6542	-0.88542	-1.1	238.822	-75.511	-41.863	168.350	255.651	117.940	172.008	225.294	143.455	81.432	237.523	225.930	260.024	245.072	-88.622	119.566	0.00014554	0.00051894	0.00021242	680.72	3.5764e-06	1.0825e-05	581.23	245.74	4.4935e-06	1.6128e-06	236.69	85.573	82.874	38.763	1.4152e-05	40.743	0.012107	0.018855	0.005225	1240.7	0.00020174	0.00020875	725.32	299.79	0.00019271	0.00021181	314.18	111.48	112.19	48.439	0.00020406	52.92	210.963	25.708	81.211	-85.336	217.640	153.744	-85.490	-78.314	31.309	70.035	-80.317	-74.950	-72.992	-67.115	28.346	-69.611	-8191	255	
1399.285	1	1	0	0	0.1572	0.17443	0.34636	0.14985	0.38981	0.21475	0.36172	0.42321	0.15794	0.22132	0.162	0.33418	0.21165	0.27002	0.14316	0.25255	-1.2417	-0.52083	-1.3042	-1.2563	-0.77292	-1.5312	-0.91042	-1.05	-1.3833	-0.7625	-1.3375	-1.1354	-0.7125	-1.8292	-1.0021	-1.0042	55.686	-18.925	119.329	5.707	58.483	55.039	80.159	262.326	203.161	224.957	173.719	243.155	22.331	-82.399	-61.186	198.517	0.00022761	0.00026538	4.4973e-05	691.1	6.535e-06	4.0141e-06	584.24	249.21	6.5493e-06	6.6532e-06	240.51	87.112	83.852	39.452	2.4495e-06	41.768	0.012308	0.019303	0.0053327	1259.5	0.00020922	0.00021769	735.39	304.06	0.00020584	0.0002283	321.58	114.59	115.13	49.791	0.00022113	54.698	241.379	219.259	90.665	-84.540	210.141	103.064	-85.426	-78.561	-62.419	158.380	-80.164	-74.875	-72.820	-67.085	162.384	-69.500	-8191	255	
1399.405	1	1	0	0	0.042988	0.086366	0.090224	0.094245	0.24482	0.22665	0.15893	0.11868	0.073361	0.18981	0.15753	0.32548	0.23995	0.25867	0.14757	0.20755	-1.2333	-0.7125	-1.1146	-1.3563	-0.66667	-1.4813	-1.0854	-0.83125	-1.5271	-0.7375	-1.2271	-1.3792	-0.66458	-1.7083	-1.0771	-0.85417	-0.690	-37.603	-52.391	155.246	125.681	87.581	221.432	146.436	100.305	257.697	23.031	-93.420	69.790	-49.036	1.632	107.276	0.00017125	0.0012575	8.8555e-05	691.04	8.579e-06	1.0012e-05	583.46	248.19	6.8504e-06	7.5601e-06	240.43	87.07	84.308	39.622	6.7553e-06	41.857	0.013404	0.020799	0.0056595	1288.9	0.00022035	0.00022399	733.62	304.77	0.00020403	0.00022318	319.14	113.6	114.35	49.712	0.00020749	54.225	236.660	-32.705	51.648	-84.431	-47.903	38.871	-85.262	-78.428	14.448	41.336	-80.386	-74.622	-72.990	-67.255	27.566	-69.676	-8191	255	
1399.500	1	1	0	0	0.1878	0.29537	0.3439	0.26674	0.2521	0.1849	0.1108	0.28794	0.14705	0.24091	0.062201	0.12464	0.10314	0.22248	0.097975	0.076493	-1.3583	-0.72083	-1.1146	-1.4	-0.7125	-1.2812	-1.2083	-0.96875	-1.6958	-0.63333	-1.2917	-1.5417	-0.40417	-1.4917	-1.2	-0.73125	234.551	260.284	10.675	-54.580	148.831	200.342	263.411	-41.323	-17.637	48.014	261.042	-19.024	-76.366	-83.929	0.331	-38.707	8.2215e-05	0.00059539	0.00011127	682.39	4.2832e-06	7.4044e-06	579.89	248.48	2.2673e-06	1.2195e-05	240.65	87.041	84.558	39.644	1.6407e-06	41.695	0.012772	0.020081	0.0054891	1273.2	0.00021878	0.00022314	730.86	304.7	0.00020765	0.00022783	320.73	114.32	115.45	49.855	0.00021301	54.401	246.744	97.950	188.924	-83.910	-66.747	58.429	-85.459	-78.291	199.082	26.799	-80.209	-74.672	-72.932	-67.125	192.232	-69.367	-8191	255	
1399.596	1	1	0	0	0.062593	0.09973	0.070506	0.13017	0.056537	0.037415	0.13642	0.0879	0.27897	0.24119	0.10182	0.27581	0.11005	0.17747	0.041001	0.28218	-1.0292	-0.65208	-0.95833	-1.4396	-0.80625	-1.2229	-1.3312	-0.73542	-1.5771	-0.86667	-0.79792	-1.5854	-0.57083	-1.3792	-1.3792	-0.67917	117.597	43.542	-32.396	12.558	-30.737	-88.161	154.378	66.592	-45.238	-72.591	202.845	108.855	261.131	234.359	59.850	-19.280	0.00011698	0.0014598	0.00045359	678.68	1.2647e-05	1.9807e-06	580.57	245.69	2.4507e-06	9.0407e-06	238.87	86.057	82.904	38.433	7.2699e-06	40.45	0.01313	0.020459	0.0055951	1289.3	0.00022576	0.00022959	735.09	304.48	0.00021765	0.00023693	321.8	114.15	115.29	48.976	0.00022271	53.669	220.438	44.778	-13.270	-84.374	30.314	-6.352	-85.552	-78.455	-72.200	-54.370	-80.457	-74.719	-73.299	-67.133	153.269	-69.723	-8191	255	
1399.692	1	1	0	0	0.32041	0.26588	0.096899	0.1549	0.18875	0.19958	0.39255	0.24037	0.063519	0.18569	0.057134	0.219	0.03877	0.22599	0.13347	0.13414	-1.1292	-1.025	-0.89583	-1.3083	-0.63542	-1.4271	-1.6979	-0.67708	-1.4937	-1.0021	-0.76042	-1.4937	-0.95	-1.275	-1.1771	-0.66458	66.748	127.834	233.907	-9.886	244.534	-93.660	214.677	-35.764	-76.082	57.343	-69.187	130.242	94.008	240.097	-36.108	233.909	7.2568e-05	0.00058267	0.00014801	676.32	4.421e-06	6.8032e-06	577.02	245.87	3.1457e-06	8.3068e-06	238.28	86.127	83.218	38.348	8.762e-07	40.833	0.013762	0.021215	0.0058477	1306.3	0.00023337	0.00023347	735.11	304.94	0.00022178	0.00024209	324.57	115.16	116.29	49.187	0.00023145	54.4	190.874	1.239	-24.310	-84.106	26.131	115.979	-85.341	-78.563	28.805	142.140	-80.461	-74.801	-73.077	-67.103	183.208	-69.760	-8191	255	
#DATA ENDS
