BOXY.EXE: ISS Imagent and Oximeter Data Acquisition Program Version 0.80
Ascii Record File

#ACQ INFORMATION
2  Detector Channels 
16  External MUX Channels 
1  Auxiliary Channels 
5000  Waveform (CCF) Frequency (Hz)
1  Waveforms Skipped 
30  Waveforms Averaged 
1  Cycles Averaged 
16  Acquisitions per Waveform 
10.0806  Updata Rate (Hz) 

#FILE INFORMATION
TRUE -- External MUX Channel results are PARSED.
FALSE -- AC DC and Phase are NOT grouped.
TRUE -- Companion Program Settings File CREATED.
FALSE -- AC data not excluded
FALSE -- DC data not excluded
FALSE -- Phase data not excluded
FALSE -- Auxillary Chn. data not excluded
Tab delimiters

#CALIBRATION STATE
TRUE -- Waveform Calibration Values APPLIED.


#AUX CALIBRATION VALUES
Val Type	aux-1	

Term	1.0000e+00	
Factor	0.0000e+00	


#WF CALIBRATION VALUES
A = Detector Channel
Val Type	A-AC1	A-AC2	A-AC3	A-AC4	A-AC5	A-AC6	A-AC7	A-AC8	A-AC9	A-AC10	A-AC11	A-AC12	A-AC13	A-AC14	A-AC15	A-AC16	A-DC1	A-DC2	A-DC3	A-DC4	A-DC5	A-DC6	A-DC7	A-DC8	A-DC9	A-DC10	A-DC11	A-DC12	A-DC13	A-DC14	A-DC15	A-DC16	A-Ph1	A-Ph2	A-Ph3	A-Ph4	A-Ph5	A-Ph6	A-Ph7	A-Ph8	A-Ph9	A-Ph10	A-Ph11	A-Ph12	A-Ph13	A-Ph14	A-Ph15	A-Ph16	

Term	0.00000e+00	0.00000e+00	0.00000e+00	0.00000e+00	0.00000e+00	0.00000e+00	0.00000e+00	0.00000e+00	0.00000e+00	0.00000e+00	0.00000e+00	0.00000e+00	0.00000e+00	0.00000e+00	0.00000e+00	0.00000e+00	0.00000e+00	0.00000e+00	0.00000e+00	0.00000e+00	0.00000e+00	0.00000e+00	0.00000e+00	0.00000e+00	0.00000e+00	0.00000e+00	0.00000e+00	0.00000e+00	0.00000e+00	0.00000e+00	0.00000e+00	0.00000e+00	0.00000e+00	0.00000e+00	0.00000e+00	0.00000e+00	0.00000e+00	0.00000e+00	0.00000e+00	0.00000e+00	0.00000e+00	0.00000e+00	0.00000e+00	0.00000e+00	0.00000e+00	0.00000e+00	0.00000e+00	0.00000e+00	
Factor	1.00000e+00	1.00000e+00	1.00000e+00	1.00000e+00	1.00000e+00	1.00000e+00	1.00000e+00	1.00000e+00	1.00000e+00	1.00000e+00	1.00000e+00	1.00000e+00	1.00000e+00	1.00000e+00	1.00000e+00	1.00000e+00	1.00000e+00	1.00000e+00	1.00000e+00	1.00000e+00	1.00000e+00	1.00000e+00	1.00000e+00	1.00000e+00	1.00000e+00	1.00000e+00	1.00000e+00	1.00000e+00	1.00000e+00	1.00000e+00	1.00000e+00	1.00000e+00	X	X	X	X	X	X	X	X	X	X	X	X	X	X	X	X	

B = Detector Channel
Val Type	B-AC1	B-AC2	B-AC3	B-AC4	B-AC5	B-AC6	B-AC7	B-AC8	B-AC9	B-AC10	B-AC11	B-AC12	B-AC13	B-AC14	B-AC15	B-AC16	B-DC1	B-DC2	B-DC3	B-DC4	B-DC5	B-DC6	B-DC7	B-DC8	B-DC9	B-DC10	B-DC11	B-DC12	B-DC13	B-DC14	B-DC15	B-DC16	B-Ph1	B-Ph2	B-Ph3	B-Ph4	B-Ph5	B-Ph6	B-Ph7	B-Ph8	B-Ph9	B-Ph10	B-Ph11	B-Ph12	B-Ph13	B-Ph14	B-Ph15	B-Ph16	

Term	0.00000e+00	0.00000e+00	0.00000e+00	0.00000e+00	0.00000e+00	0.00000e+00	0.00000e+00	0.00000e+00	0.00000e+00	0.00000e+00	0.00000e+00	0.00000e+00	0.00000e+00	0.00000e+00	0.00000e+00	0.00000e+00	0.00000e+00	0.00000e+00	0.00000e+00	0.00000e+00	0.00000e+00	0.00000e+00	0.00000e+00	0.00000e+00	0.00000e+00	0.00000e+00	0.00000e+00	0.00000e+00	0.00000e+00	0.00000e+00	0.00000e+00	0.00000e+00	-1.01651e+02	-1.31598e+02	-1.20738e+02	-1.91400e+02	-6.33302e+01	-6.26078e+01	-1.55998e+02	-1.62015e+02	-5.85124e+01	-6.34004e+01	-1.71242e+02	-1.69256e+02	-1.82252e+02	-1.76911e+02	-6.36124e+01	-1.48894e+02	
Factor	1.65450e-05	1.63506e-04	4.61476e-05	7.96256e-01	1.42743e-06	1.71502e-06	1.68508e-01	5.36599e-02	1.14399e-06	1.82088e-06	9.19581e-02	2.79579e-02	3.18351e-02	9.46751e-03	1.44351e-06	1.32714e-02	9.20689e-06	1.42985e-05	3.97790e-06	4.00663e-01	1.55516e-07	1.58660e-07	8.09809e-02	2.75310e-02	1.46786e-07	1.58617e-07	4.56486e-02	1.40073e-02	1.65838e-02	4.88813e-03	1.51075e-07	6.63547e-03	X	X	X	X	X	X	X	X	X	X	X	X	X	X	X	X	



#DISTANCE SETTINGS
A = Detector Channel
A-1	A-2	A-3	A-4	A-5	A-6	A-7	A-8	A-9	A-10	A-11	A-12	A-13	A-14	A-15	A-16	

2.5000e+00	3.0000e+00	2.5000e+00	3.0000e+00	2.0000e+00	3.0000e+00	1.5000e+00	3.0000e+00	3.0000e+00	3.0000e+00	3.0000e+00	3.0000e+00	3.0000e+00	3.0000e+00	1.5000e+00	3.0000e+00	

B = Detector Channel
B-1	B-2	B-3	B-4	B-5	B-6	B-7	B-8	B-9	B-10	B-11	B-12	B-13	B-14	B-15	B-16	

1.0000e+01	1.0000e+01	1.0000e+01	1.4400e+00	1.0000e+01	1.0000e+01	1.5100e+00	1.9400e+00	1.0000e+01	1.0000e+01	1.9900e+00	2.4900e+00	2.4100e+00	2.9000e+00	1.0000e+01	2.9800e+00	




#DATA BEGINS
time	group	step	mark	flag	A-AC1	A-AC2	A-AC3	A-AC4	A-AC5	A-AC6	A-AC7	A-AC8	A-AC9	A-AC10	A-AC11	A-AC12	A-AC13	A-AC14	A-AC15	A-AC16	A-DC1	A-DC2	A-DC3	A-DC4	A-DC5	A-DC6	A-DC7	A-DC8	A-DC9	A-DC10	A-DC11	A-DC12	A-DC13	A-DC14	A-DC15	A-DC16	A-Ph1	A-Ph2	A-Ph3	A-Ph4	A-Ph5	A-Ph6	A-Ph7	A-Ph8	A-Ph9	A-Ph10	A-Ph11	A-Ph12	A-Ph13	A-Ph14	A-Ph15	A-Ph16	B-AC1	B-AC2	B-AC3	B-AC4	B-AC5	B-AC6	B-AC7	B-AC8	B-AC9	B-AC10	B-AC11	B-AC12	B-AC13	B-AC14	B-AC15	B-AC16	B-DC1	B-DC2	B-DC3	B-DC4	B-DC5	B-DC6	B-DC7	B-DC8	B-DC9	B-DC10	B-DC11	B-DC12	B-DC13	B-DC14	B-DC15	B-DC16	B-Ph1	B-Ph2	B-Ph3	B-Ph4	B-Ph5	B-Ph6	B-Ph7	B-Ph8	B-Ph9	B-Ph10	B-Ph11	B-Ph12	B-Ph13	B-Ph14	B-Ph15	B-Ph16	aux-1	digaux	

1699.310	1	1	0	768	0.24093	0.29575	0.043874	0.045532	0.14307	0.23389	0.143	0.36859	0.1343	0.23526	0.10399	0.11716	0.10415	0.22138	0.32418	0.034171	-0.84792	-1.5354	-0.92083	-1.4271	-1.525	-0.83542	-1.6313	-1.2417	-0.93542	-1.7104	-0.97917	-1.5292	-1.6292	-0.89375	-1.7083	-1.4937	-94.407	-138.252	129.582	-121.094	-77.008	-139.824	-15.243	-143.258	-111.928	-23.566	104.518	-92.056	-143.492	156.024	-105.558	-121.101	0.00043229	0.00046776	0.00012303	939.38	3.8087e-06	4.4578e-06	875.88	296.35	3.3328e-06	4.7279e-06	315.93	109.38	94.665	47.374	3.3237e-06	53.083	0.00039158	0.00032758	9.1873e-05	947.8	3.537e-06	3.6568e-06	891.36	302.55	3.7186e-06	3.6257e-06	321.7	112.66	98.276	49.07	3.6482e-06	54.581	-132.875	-89.006	-69.134	-155.809	-40.251	-11.741	-156.706	-149.798	-52.386	-27.416	-151.443	-145.825	-143.830	-137.268	-28.497	-140.824	-8191	255	
1699.406	1	1	0	0	0.15525	0.18574	0.12243	0.31984	0.053985	0.17858	0.09465	0.1648	0.054842	0.18205	0.2044	0.13219	0.059556	0.073745	0.1066	0.07137	-0.47083	-1.6021	-1.0667	-1.3354	-1.5667	-0.70833	-1.6542	-1.5	-0.7875	-1.7375	-1.1271	-1.2521	-1.8479	-0.73958	-1.5229	-1.4042	30.769	20.547	-33.574	163.096	116.193	-50.132	-128.234	157.808	-95.865	157.060	148.580	164.073	107.854	-164.647	-130.909	-80.578	0.00041469	0.00050236	0.00012241	937.81	4.3068e-06	4.7292e-06	872.06	296.03	2.5401e-06	6.6069e-06	312.31	108.81	95.936	47.782	2.7848e-06	52.78	0.00039231	0.00032651	9.6555e-05	942.07	3.7952e-06	3.8885e-06	886.84	302.5	3.9192e-06	3.7724e-06	319.22	112.07	99.319	49.444	4.1376e-06	54.43	-133.127	-93.583	-70.487	-155.702	-12.645	-19.901	-156.765	-149.485	-22.614	-11.787	-151.326	-145.952	-143.572	-136.991	-38.168	-140.549	-8191	255	
1699.503	1	1	0	0	0.13763	0.102	0.18619	0.22019	0.14986	0.13722	0.22053	0.37775	0.22628	0.13386	0.22584	0.29926	0.23445	0.33259	0.31399	0.21945	-0.31667	-1.7354	-0.96042	-1.1875	-1.5604	-0.66875	-1.5396	-1.5083	-0.90208	-1.5333	-1.1063	-1.2375	-1.8167	-0.91042	-1.2979	-1.5854	71.082	-30.502	-18.039	84.147	167.377	33.296	98.033	-130.185	156.906	-7.773	74.054	172.753	77.285	-153.004	-35.170	93.655	0.00040856	0.0003512	0.00011852	930.66	3.0303e-06	4.8691e-06	871.67	297.79	3.8172e-06	4.6324e-06	313.81	109.08	96.474	47.77	3.7188e-06	52.52	0.00041646	0.00035392	0.00010198	942.49	4.0211e-06	4.2204e-06	882.89	304.38	4.2663e-06	4.0527e-06	320.2	112.29	99.541	49.412	4.0819e-06	54.263	-129.851	-98.419	-60.232	-155.557	-31.807	-3.193	-156.612	-149.369	-29.835	-10.262	-151.504	-145.883	-144.070	-137.167	-14.051	-140.344	-8191	255	
1699.599	1	1	0	0	0.16332	0.074822	0.22106	0.18631	0.024137	0.11734	0.16054	0.20319	0.20908	0.19455	0.031244	0.15266	0.16452	0.11431	0.22506	0.15684	-0.45625	-1.7771	-1.075	-0.90208	-1.7479	-1.025	-1.4438	-1.8458	-0.53958	-1.7083	-1.2604	-1.0479	-1.875	-1.0104	-1.2458	-1.7021	113.514	164.109	-13.836	-57.140	28.744	-157.557	139.256	114.543	6.821	179.864	0.748	-146.742	172.329	2.009	-120.087	91.012	0.00042277	0.00044608	0.00011343	928.93	3.9352e-06	3.9123e-06	871.62	299.52	3.5356e-06	5.4457e-06	316.45	109.39	96.987	47.835	4.9261e-06	52.656	0.00041442	0.00038397	0.0001073	942.95	4.1319e-06	4.2967e-06	885.79	306.27	4.5332e-06	4.2827e-06	322.37	113.1	100.45	49.535	4.5379e-06	54.49	-133.568	-87.659	-65.647	-155.350	-33.608	-0.769	-156.787	-149.497	-29.698	-24.520	-151.501	-145.588	-143.554	-137.048	-21.572	-140.456	-8191	255	
1699.695	1	1	0	0	0.093109	0.073636	0.15364	0.13082	0.10692	0.21288	0.1418	0.10667	0.14189	0.073077	0.13395	0.18065	0.31168	0.22221	0.28041	0.18582	-0.34167	-1.5021	-1.2062	-0.95833	-1.6812	-1.0604	-1.3563	-1.675	-0.63542	-1.6	-1.5083	-0.92292	-1.5542	-1.1521	-0.95625	-1.7938	-80.602	52.028	46.251	-161.696	-148.425	-86.780	184.639	142.251	127.071	55.491	-125.355	123.821	-84.453	14.487	187.573	153.300	0.0004063	0.00044394	0.00016203	933.43	3.82e-06	4.6681e-06	872.01	301.99	2.8386e-06	3.8622e-06	317.89	111.01	97.992	48.78	3.7173e-06	54.491	0.00045135	0.00041114	0.00011821	943.64	4.7355e-06	4.8005e-06	883.7	307.84	4.984e-06	4.9231e-06	324.7	114.43	101.57	50.386	5.3509e-06	56.277	-132.130	-84.748	-87.027	-155.777	-7.488	-24.067	-156.411	-149.352	-26.177	-27.592	-151.243	-145.871	-143.787	-136.976	-59.605	-140.160	-8191	255	
1699.791	1	1	0	0	0.15852	0.21417	0.11022	0.066536	0.1958	0.077174	0.18344	0.21046	0.11231	0.15385	0.12117	0.20859	0.090451	0.13402	0.069503	0.29096	-0.55208	-1.4562	-1.2917	-0.70417	-1.7271	-1.2313	-1.2104	-1.8125	-0.89583	-1.5896	-1.5667	-0.87917	-1.6583	-1.3813	-1.0354	-2.0146	10.113	-159.658	-71.200	-143.706	-137.842	102.693	-148.719	155.811	-136.982	-152.894	137.724	134.480	-98.274	166.770	164.316	13.217	0.0004235	0.00035179	0.00012548	920.29	4.9909e-06	4.1882e-06	866.94	302.9	3.4292e-06	5.0278e-06	318.01	112.77	99.465	50.08	5.7367e-06	55.907	0.00050099	0.00047828	0.00013506	942.05	5.3909e-06	5.571e-06	881.66	309.55	5.7711e-06	5.3913e-06	325.84	116.45	103.07	51.973	6.0559e-06	57.653	-132.371	-75.404	-72.474	-155.357	-11.332	-28.062	-156.335	-149.366	-17.946	10.717	-151.169	-145.435	-143.668	-137.296	-44.191	-140.512	-8191	255	
1699.910	1	1	0	0	0.16721	0.33819	0.17326	0.059921	0.1182	0.12369	0.28286	0.20364	0.21984	0.20542	0.081576	0.17183	0.18122	0.13173	0.26523	0.12841	-0.63125	-1.4458	-1.6104	-0.83542	-1.4771	-1.2333	-0.99792	-1.7958	-0.8875	-1.2146	-1.8042	-0.69583	-1.4937	-1.4042	-0.88125	-1.7687	-73.096	4.965	-39.735	-100.462	-137.321	161.370	156.341	-149.194	-136.840	-129.367	43.624	-80.100	176.194	-78.348	7.777	140.981	0.00043108	0.00059825	0.00013604	922.07	4.1226e-06	4.6595e-06	855.12	301.31	4.3856e-06	3.8894e-06	319.01	113.05	99.933	50.697	2.4203e-06	55.741	0.0005409	0.00054754	0.00015109	938.68	6.0752e-06	6.3061e-06	871.12	309.33	6.4295e-06	6.2825e-06	325.06	116.74	103.86	52.568	6.8475e-06	57.72	-133.359	-81.689	-90.046	-155.532	-12.840	-13.862	-156.195	-149.082	-23.220	-18.887	-151.179	-145.740	-143.129	-137.159	-44.605	-140.398	-8191	255	
1700.006	1	1	0	0	0.086948	0.15989	0.17243	0.17445	0.12566	0.13288	0.22946	0.23265	0.19329	0.26449	0.29708	0.13588	0.062285	0.041553	0.3702	0.39233	-0.56667	-1.0938	-1.4854	-0.90208	-1.6729	-1.2521	-0.99375	-1.9354	-1.0688	-1.2042	-1.7167	-0.92708	-1.4667	-1.5521	-0.85833	-1.8354	-34.082	-84.938	-19.429	-126.093	26.254	-6.363	108.897	134.987	94.339	-60.778	99.712	0.926	169.981	166.449	-77.265	66.162	0.00042072	0.00039662	0.00015104	920.6	3.3259e-06	4.7272e-06	851.05	302.18	3.0103e-06	4.4324e-06	317.2	113.82	100.79	51.442	4.2464e-06	56.402	0.00058776	0.00063146	0.00017235	937.78	6.8657e-06	7.0915e-06	865.76	309.61	7.3316e-06	7.4867e-06	325.04	117.54	104.49	53.326	7.6004e-06	58.642	-132.536	-112.742	-83.784	-155.195	-3.567	-9.764	-156.613	-149.296	-28.140	-17.063	-151.151	-145.665	-143.443	-136.998	-22.600	-140.233	-8191	255	
1700.102	1	1	0	0	0.11195	0.50634	0.16882	0.089907	0.027606	0.12402	0.31069	0.27576	0.10413	0.029065	0.36282	0.16794	0.13027	0.13671	0.1275	0.08916	-0.66875	-0.76042	-1.5917	-0.76667	-1.4208	-1.4833	-0.90625	-1.9604	-1.2062	-0.80417	-1.7563	-1.0812	-1.3333	-1.9062	-0.86667	-1.5958	-76.858	28.687	15.899	82.088	-130.790	115.498	165.070	152.139	36.789	-104.421	128.511	160.049	-134.174	157.107	-55.441	161.156	0.00044689	0.00044208	0.00021429	928.76	2.9647e-06	5.0036e-06	854.19	301.56	4.2689e-06	3.0751e-06	318.93	114.07	100.46	51.447	3.8589e-06	56.833	0.00063616	0.00067459	0.00018928	939.84	7.213e-06	7.3572e-06	866.03	308.79	7.4708e-06	7.7415e-06	325.73	117.77	104.33	53.32	7.7499e-06	58.917	-128.582	-93.032	-87.081	-155.229	-42.158	-19.192	-156.377	-149.077	-35.278	-13.432	-150.964	-145.517	-143.517	-137.033	-32.262	-140.169	-8191	255	
1700.198	1	1	0	0	0.24548	0.17708	0.1284	0.15706	0.30657	0.093672	0.13365	0.16645	0.11458	0.12293	0.17097	0.15063	0.080387	0.19009	0.14477	0.091919	-0.94375	-0.775	-1.7458	-1.0542	-1.1313	-1.7729	-0.85	-1.6354	-1.4083	-0.79375	-1.7042	-1.3062	-1.2563	-1.8875	-0.68333	-1.6292	-54.988	-88.569	-131.034	118.728	-41.993	148.642	112.344	152.833	-56.294	-108.785	-162.605	32.255	-68.553	129.315	-131.340	-76.194	0.00047236	0.00035616	0.00013883	920.38	3.35e-06	7.2435e-06	849.87	300.55	4.4526e-06	3.8691e-06	316.68	112.26	99.469	50.577	5.0868e-06	55.418	0.00064492	0.00070736	0.00019255	938.38	7.5409e-06	7.8071e-06	865.88	308.54	7.6292e-06	7.7025e-06	323.58	116.03	103.22	52.521	7.5097e-06	57.513	-131.400	-65.415	-76.839	-155.463	-34.440	-5.700	-156.741	-149.260	-37.975	-13.121	-151.092	-145.766	-143.735	-137.337	-27.273	-140.710	-8191	255	
1700.295	1	1	0	0	0.43273	0.15563	0.12884	0.1672	0.22986	0.091707	0.16846	0.17236	0.26367	0.34479	0.14653	0.10699	0.084412	0.25603	0.26473	0.12511	-1.1229	-0.9	-1.4958	-0.9875	-0.91458	-1.9188	-0.925	-1.4979	-1.3333	-0.65208	-1.7667	-1.1208	-1.0771	-1.8333	-0.89583	-1.5396	-154.187	-127.577	65.298	-5.289	-94.680	-68.622	1.070	165.863	-62.734	-149.836	-73.419	102.116	177.615	-145.529	112.180	99.551	0.00043225	0.00062742	0.00010929	909.54	3.4373e-06	5.6859e-06	841.69	298.68	3.4132e-06	1.9857e-06	312.57	110.91	98.775	49.868	3.6556e-06	54.431	0.00061301	0.00069512	0.00018851	930.8	7.6621e-06	7.656e-06	857.67	306.57	7.8102e-06	8.2391e-06	319.88	114.7	102.51	51.778	7.8383e-06	56.394	-133.927	-94.007	-51.280	-155.824	-11.042	-5.320	-156.515	-149.104	-58.000	-22.704	-151.099	-145.759	-143.722	-136.965	-14.585	-140.339	-8191	255	
1700.391	1	1	0	0	0.26626	0.34511	0.03415	0.11949	0.17625	0.15654	0.13538	0.1219	0.26011	0.13256	0.23715	0.060727	0.19034	0.1812	0.15017	0.28329	-1.0917	-0.67292	-1.5896	-1.1479	-0.86875	-1.7458	-1.0375	-1.5833	-1.7042	-0.88333	-1.525	-1.1521	-0.85	-1.9104	-1.1375	-1.0812	33.798	170.059	-73.130	110.179	34.931	-97.990	177.317	86.789	-107.565	87.979	-124.819	113.838	-139.378	-138.986	127.229	62.356	0.00042726	0.00048451	0.00017008	907.11	4.7642e-06	2.7748e-06	845.08	295.53	3.8598e-06	6.5465e-06	309.48	108.94	96.967	49.596	5.0541e-06	54.697	0.00061504	0.00068201	0.00018099	928.68	7.2049e-06	6.8816e-06	858.7	302.59	6.7818e-06	7.2901e-06	317.04	113	100.74	51.535	7.0297e-06	56.568	-132.723	-88.467	-83.593	-155.871	6.097	-51.564	-156.410	-149.201	-31.920	2.407	-151.142	-145.689	-143.531	-137.023	-33.389	-140.235	-8191	255	
1700.511	1	1	0	0	0.31531	0.054756	0.079578	0.16	0.14651	0.11824	0.13829	0.12092	0.12072	0.21762	0.32635	0.10627	0.15222	0.26501	0.13973	0.25335	-1.4688	-0.78958	-1.4396	-1.3479	-0.85833	-1.6229	-1.2146	-1.1625	-1.6854	-1.0208	-1.5771	-1.6104	-0.825	-1.8083	-1.1271	-0.99583	73.311	-107.913	21.540	70.787	-162.148	77.216	175.590	28.779	156.538	97.426	-148.884	-165.988	132.114	-78.654	52.222	-33.233	0.00044997	0.00047908	0.00013894	908.02	3.7689e-06	3.9719e-06	846.14	295.13	3.5848e-06	5.2908e-06	311.98	109.86	97.412	49.725	4.156e-06	54.774	0.00058707	0.00064385	0.00016919	928.72	6.9551e-06	6.6571e-06	861.9	301.85	6.5794e-06	7.152e-06	318.66	113.49	100.92	51.531	7.1827e-06	56.939	-134.184	-100.445	-58.930	-155.467	-40.012	-23.618	-156.502	-148.976	-39.521	-38.714	-150.838	-145.634	-143.382	-136.760	-25.386	-140.417	-8191	255	
1700.607	1	1	0	0	0.17657	0.21066	0.08123	0.051105	0.083984	0.34165	0.20679	0.32812	0.18925	0.10094	0.24669	0.25465	0.25859	0.23968	0.14661	0.36463	-1.3958	-0.69792	-1.3771	-1.4021	-0.87708	-1.675	-1.2104	-1.0542	-1.9604	-0.85625	-1.4542	-1.6542	-0.75833	-1.7604	-1.3146	-1.0833	39.744	138.518	-49.298	118.757	-83.213	19.753	88.020	-162.980	-164.942	179.736	101.361	95.324	152.018	108.544	-147.082	117.356	0.00042496	0.00041628	0.00013939	915.87	4.1293e-06	3.307e-06	854.09	297.11	4.1121e-06	4.7162e-06	314.52	111.49	97.946	50.269	2.3167e-06	55.578	0.00060334	0.00067831	0.00018502	934.66	7.4661e-06	7.0759e-06	869.21	304.55	7.046e-06	7.3096e-06	322.11	115.3	101.79	51.984	6.924e-06	57.671	-133.654	-102.024	-86.335	-155.340	-31.460	-18.577	-156.539	-148.966	-14.654	10.609	-150.938	-145.611	-143.568	-136.602	-9.544	-140.302	-8191	255	
1700.702	1	1	0	0	0.17957	0.15239	0.16254	0.33442	0.11481	0.12517	0.15189	0.27791	0.31937	0.11906	0.14109	0.1827	0.12427	0.15746	0.043127	0.083019	-1.3813	-0.95625	-1.1812	-1.4	-0.79792	-1.7313	-1.4167	-0.97708	-1.8167	-0.94792	-1.1208	-1.7687	-0.75	-1.7542	-1.5042	-0.9625	169.535	-116.406	127.230	-152.590	180.611	133.831	-153.074	145.282	-155.326	-48.409	108.305	-118.034	115.315	142.358	156.831	51.503	0.00043749	0.00043567	7.9196e-05	917.43	4.6378e-06	3.6919e-06	858.67	298.5	3.6055e-06	5.3057e-06	313.42	111.04	97.693	49.77	5.3225e-06	54.6	0.00059112	0.00063357	0.0001718	937.27	6.9866e-06	6.6244e-06	873.23	304.66	6.7904e-06	6.9692e-06	321.21	114.64	101.49	51.701	6.9599e-06	56.524	-130.945	-73.306	-28.902	-155.612	-1.738	-33.161	-156.743	-149.146	-26.005	-17.101	-150.939	-145.643	-143.862	-136.866	-27.171	-140.060	-8191	255	
1700.798	1	1	0	0	0.13593	0.078919	0.11246	0.26138	0.29962	0.13535	0.12549	0.2911	0.23595	0.08632	0.26471	0.55888	0.14466	0.19524	0.15749	0.1716	-1.4458	-0.93333	-1.1042	-1.7062	-0.62708	-1.5625	-1.5979	-1.0604	-1.7042	-1.1271	-0.93125	-1.6938	-1.125	-1.4792	-1.6625	-0.9375	190.469	-55.441	172.040	107.737	72.208	-143.840	-42.265	164.385	-45.666	167.455	-65.105	129.439	136.086	-50.255	102.205	43.779	0.00041302	0.00054373	0.00015912	920.33	3.6761e-06	5.5412e-06	851.16	296.33	2.7137e-06	5.427e-06	311.84	110.11	97.529	49.724	4.3954e-06	54.692	0.00056473	0.00062201	0.00017429	936.91	6.8537e-06	6.5768e-06	868.74	302.8	6.335e-06	6.7326e-06	318.98	113.72	101.13	51.568	6.721e-06	56.636	-132.849	-75.316	-80.691	-155.961	-37.278	-8.307	-156.477	-149.032	-25.246	-26.549	-150.866	-145.386	-143.355	-136.874	-35.827	-140.461	-8191	255	
1700.871	1	1	0	0	0.3096	0.18036	0.34869	0.24292	0.21099	0.089074	0.1243	0.19256	0.087792	0.14102	0.21238	0.19652	0.258	0.074745	0.1198	0.29705	-1.4292	-1.0042	-1.2	-1.6292	-0.89792	-1.2917	-1.6833	-0.77083	-1.5812	-1.3583	-1.2708	-1.9	-0.81458	-1.3125	-1.6042	-1.0271	73.425	95.522	-19.747	-20.585	-101.842	-13.879	139.529	-45.539	-72.136	156.836	143.510	-13.812	125.677	-159.516	-115.922	135.277	0.00042405	0.00054014	0.00012895	915.06	4.8592e-06	3.9736e-06	858.57	296	5.2709e-06	4.1528e-06	314.83	111.19	97.781	50.444	5.0595e-06	55.442	0.00058049	0.00063837	0.00018012	935.09	6.9649e-06	6.8852e-06	869.55	303.34	6.7781e-06	7.1136e-06	320.61	114.75	101.53	52.19	6.9221e-06	57.476	-131.759	-95.354	-90.835	-155.224	-22.465	-12.444	-156.517	-149.079	-30.070	-15.011	-150.928	-145.249	-143.277	-136.545	-29.914	-140.135	-8191	255	
1700.990	1	1	0	0	0.13669	0.098406	0.25811	0.1575	0.13097	0.21094	0.1459	0.045788	0.089474	0.28788	0.18454	0.23222	0.16087	0.39605	0.07317	0.11474	-1.2104	-1.1917	-0.68542	-1.6708	-0.99583	-1.1063	-1.8229	-1.05	-1.5688	-1.3438	-0.93958	-1.7917	-1.0479	-0.84583	-1.7104	-0.80208	159.225	121.551	109.071	173.210	105.774	-161.256	54.385	-120.228	-84.407	110.789	93.213	162.061	12.467	143.172	118.105	164.248	0.00041602	0.00041716	0.00011251	919.03	5.3603e-06	6.043e-06	860.38	297.11	3.5833e-06	4.8096e-06	314.77	110.85	96.691	50.072	4.2449e-06	55.443	0.00057706	0.00061251	0.00016963	933.16	6.6467e-06	6.4208e-06	875.05	303.63	6.3066e-06	6.3344e-06	321.11	114.74	100.79	51.708	6.3631e-06	57.236	-132.768	-60.275	-83.773	-155.023	-1.285	-8.034	-156.101	-148.857	-39.910	-26.976	-150.834	-145.102	-143.455	-136.682	-40.444	-139.914	-8191	255	
1701.086	1	1	0	0	0.28405	0.092561	0.12745	0.14797	0.067385	0.18059	0.1416	0.26977	0.19015	0.13396	0.064908	0.20823	0.21383	0.29243	0.16473	0.16081	-1.0417	-1.2437	-0.82083	-1.6792	-1.1562	-0.94167	-1.7792	-0.94375	-1.4	-1.6167	-0.74583	-1.7125	-1.2271	-1.2146	-1.5854	-0.82917	-146.476	-0.210	77.464	73.348	-50.168	138.989	56.250	105.017	-10.298	83.338	10.635	174.661	-53.740	161.920	10.003	164.421	0.00043119	0.00048229	0.00013664	925.5	4.4514e-06	5.125e-06	862.73	295.41	4.153e-06	5.5164e-06	316.64	111.11	97.484	49.848	3.5941e-06	55.717	0.00055567	0.00058138	0.00016943	940.34	6.3726e-06	6.6221e-06	877.59	303.38	6.4118e-06	6.382e-06	323.08	114.89	101	51.727	6.388e-06	57.612	-133.245	-85.109	-96.098	-155.206	-26.370	-27.238	-156.214	-148.835	-35.041	1.107	-150.810	-145.162	-143.386	-136.672	-22.898	-139.946	-8191	255	
1701.183	1	1	0	0	0.047032	0.14815	0.15008	0.143	0.071141	0.20935	0.14287	0.093873	0.27386	0.16378	0.065682	0.067139	0.20331	0.19824	0.095573	0.16825	-1.0375	-1.475	-0.74375	-1.7437	-1.3667	-0.84583	-1.8188	-0.95417	-1.175	-1.6125	-0.89792	-1.4937	-1.35	-0.975	-1.8479	-1.1688	57.834	-26.387	136.909	127.346	-114.911	171.199	51.997	11.063	157.236	169.020	-104.264	-132.052	141.819	94.114	-18.778	144.105	0.0004227	0.000494	0.00014764	920.95	4.2141e-06	5.5878e-06	871.17	296.42	3.3699e-06	2.9012e-06	316.19	110.76	97.444	49.518	3.9313e-06	54.77	0.0005547	0.00058707	0.00016892	940.92	6.3635e-06	6.5702e-06	883.42	303.5	6.3518e-06	6.1692e-06	322.61	114.52	100.79	51.378	6.2482e-06	56.597	-133.529	-89.054	-69.838	-155.279	12.919	-18.621	-156.445	-149.084	-31.773	7.379	-150.769	-145.303	-143.307	-136.694	-30.288	-140.160	-8191	255	
1701.279	1	1	0	0	0.17906	0.18016	0.31254	0.17539	0.31008	0.29431	0.1025	0.2716	0.13584	0.12375	0.096241	0.1465	0.26612	0.23849	0.24082	0.22946	-0.65208	-1.6271	-0.775	-1.5	-1.5542	-0.7	-1.9333	-1.1562	-0.87292	-1.7125	-1.1854	-1.4979	-1.5979	-0.975	-1.6458	-1.1938	-37.466	128.139	-135.226	-154.429	44.830	115.541	86.811	149.279	21.006	73.173	-116.325	162.348	162.994	-138.378	-146.794	132.562	0.00041371	0.00050769	0.00012672	916.91	4.4089e-06	3.0709e-06	866.24	294.99	3.8843e-06	6.1626e-06	310.68	107.48	94.923	47.399	3.4538e-06	51.994	0.00056421	0.0005619	0.00016043	937.39	6.1834e-06	6.3262e-06	880.27	302.36	6.006e-06	5.889e-06	317.73	111.02	98.724	49.131	5.942e-06	53.685	-131.652	-87.109	-66.434	-155.424	-22.559	-19.365	-156.395	-149.049	-13.983	-17.078	-151.127	-145.496	-143.431	-136.808	-31.890	-140.282	-8191	255	
1701.399	1	1	0	0	0.26483	0.1989	0.19446	0.23889	0.14425	0.17325	0.073925	0.074078	0.18291	0.22238	0.036744	0.085829	0.0944	0.33299	0.27094	0.15266	-0.80417	-1.625	-0.78333	-1.35	-1.4479	-0.68125	-1.7417	-1.2938	-0.90625	-1.7333	-0.99792	-1.375	-1.7292	-0.93125	-1.5792	-1.3979	0.989	-43.732	35.567	182.323	146.881	22.962	131.498	130.215	0.465	192.552	167.651	-13.549	-108.242	143.773	131.783	-147.521	0.00041776	0.00057146	9.5614e-05	929.41	4.2862e-06	4.9629e-06	867.18	295.46	3.4868e-06	4.0693e-06	312.55	108.09	95.093	47.648	2.3732e-06	52.891	0.00051234	0.00050536	0.0001537	944.6	5.6009e-06	5.7739e-06	882.68	302.31	5.6546e-06	5.5612e-06	318.79	111.42	98.545	49.244	5.5945e-06	54.55	-134.190	-88.738	-68.169	-155.315	-36.847	8.710	-156.280	-149.158	-12.847	-23.732	-151.001	-145.235	-143.481	-136.519	-26.121	-140.188	-8191	255	
1701.471	1	1	0	0	0.065329	0.34364	0.080935	0.12172	0.23266	0.14282	0.34493	0.31242	0.25817	0.18535	0.11543	0.069291	0.16883	0.16341	0.13578	0.37082	-0.38542	-1.7354	-0.93542	-0.975	-1.6562	-0.81875	-1.5375	-1.5417	-0.84375	-1.5979	-1.1833	-1.1042	-1.6375	-0.93958	-1.6083	-1.4813	103.221	111.859	97.545	139.964	47.393	168.508	176.549	-160.622	-24.272	-23.939	-66.137	54.910	143.365	173.060	106.077	140.969	0.00041569	0.00032586	0.00010903	924.93	3.1383e-06	4.0286e-06	870.96	295.84	3.5585e-06	4.5304e-06	316.03	111.07	97.631	49.237	4.3327e-06	54.792	0.00050227	0.00050539	0.00014184	940.27	5.4855e-06	5.8483e-06	885.82	303.28	5.7965e-06	5.6739e-06	323.42	114.77	100.78	51.042	5.687e-06	56.789	-132.365	-66.818	-88.854	-155.898	2.478	12.200	-156.231	-149.073	-11.419	-11.014	-150.902	-145.145	-143.231	-136.766	-37.749	-140.184	-8191	255	
1701.592	1	1	0	0	0.14236	0.10228	0.084399	0.13813	0.18709	0.10019	0.28708	0.067456	0.28102	0.22887	0.07245	0.17989	0.19173	0.2424	0.08225	0.14774	-0.43125	-1.7125	-1	-0.90625	-1.7396	-0.79583	-1.6417	-1.5812	-0.59167	-1.7521	-1.2417	-1.05	-1.6417	-0.89167	-1.2833	-1.6063	-78.429	-33.266	-157.910	161.682	130.742	65.409	95.805	159.659	14.923	-159.678	-122.336	148.749	141.049	157.394	-87.768	-160.954	0.00042923	0.00047445	0.00014019	932.95	3.6767e-06	4.1353e-06	880.02	299.47	3.9193e-06	3.5952e-06	321.1	112.28	98.25	49.582	3.8228e-06	55.627	0.00054112	0.00052791	0.00014767	947.2	5.6358e-06	6.0288e-06	893.3	306.26	5.8702e-06	5.8077e-06	327.25	116.02	101.58	51.366	6.1604e-06	57.535	-134.255	-90.030	-82.774	-155.204	-17.854	-28.495	-156.290	-149.002	-40.836	-14.838	-151.043	-145.323	-143.592	-136.599	-33.892	-139.929	-8191	255	
1701.688	1	1	0	0	0.28026	0.17578	0.34521	0.13264	0.034654	0.059653	0.059889	0.15252	0.31403	0.04172	0.18302	0.16912	0.17185	0.18636	0.09067	0.27299	-0.5	-1.5271	-1.3125	-0.91042	-1.775	-1.0104	-1.2396	-1.6167	-0.81458	-1.7229	-1.5354	-0.825	-1.6729	-1.0458	-1.2417	-1.6167	-41.430	129.537	29.200	-31.649	-71.720	162.320	-64.367	-160.116	-163.349	29.542	-130.178	186.481	-68.955	104.428	-52.965	149.287	0.00041545	0.00042499	0.00015122	928.79	2.4185e-06	3.9479e-06	875.63	298.91	3.291e-06	3.5093e-06	319.21	112.02	97.873	50.112	4.7571e-06	55.761	0.00055069	0.00054373	0.00015397	947.89	5.9715e-06	6.3653e-06	889.87	306.21	6.3543e-06	6.1173e-06	326.36	115.98	101.68	51.879	6.3552e-06	57.66	-131.535	-84.747	-81.104	-155.316	-3.068	-26.864	-156.445	-149.233	-35.488	-36.679	-150.956	-145.351	-143.491	-136.764	-20.370	-140.342	-8191	255	
1701.782	1	1	0	0	0.21961	0.27257	0.11564	0.14704	0.19346	0.22086	0.3542	0.09519	0.31261	0.078904	0.12346	0.15725	0.078062	0.23517	0.094209	0.12031	-0.40625	-1.5292	-1.2333	-0.67292	-1.6542	-0.99792	-1.2125	-1.7479	-0.78958	-1.4229	-1.5229	-0.73542	-1.6458	-1.1	-0.86667	-1.9937	143.420	-34.954	-132.427	-90.580	-95.255	-49.051	124.654	112.143	17.965	96.260	70.560	-106.828	19.219	188.801	-15.567	-141.897	0.00044407	0.00041344	0.0001489	928.52	5.7656e-06	5.4546e-06	870.73	299.86	3.3184e-06	4.9327e-06	318.24	112.53	98.868	50.279	4.3402e-06	55.822	0.0005842	0.00059884	0.00016231	946.23	6.5142e-06	6.6908e-06	884.91	307.46	6.6332e-06	6.6804e-06	325.42	116.23	102.62	52.151	6.8192e-06	57.7	-132.375	-55.296	-70.499	-155.564	-26.984	5.254	-156.309	-148.778	-37.183	-32.854	-150.814	-145.436	-143.390	-136.720	-30.088	-140.063	-8191	255	
1701.880	1	1	0	0	0.082507	0.18123	0.16431	0.12498	0.39691	0.1405	0.16411	0.11029	0.38045	0.31904	0.27939	0.30643	0.096521	0.27782	0.13589	0.045427	-0.48958	-1.4708	-1.5583	-0.825	-1.725	-1.1437	-0.9375	-1.7417	-0.70417	-1.2917	-1.5354	-0.81875	-1.8146	-1.3875	-0.775	-1.9562	-114.262	116.085	167.510	114.493	-135.890	-42.102	105.949	76.003	1.220	-59.264	117.078	142.412	32.380	156.155	-95.171	-122.422	0.00044413	0.00067676	0.00017785	932.61	2.1454e-06	5.3894e-06	870.05	301.92	4.1921e-06	5.7563e-06	320.74	114.65	99.546	51.338	4.3828e-06	57.321	0.00057712	0.00063658	0.00017192	947.01	6.6726e-06	7.0273e-06	883.12	309.11	7.1292e-06	7.1992e-06	328.23	118.28	103.82	53.2	7.4578e-06	59.103	-134.047	-79.092	-63.705	-154.638	-42.721	-36.468	-156.242	-148.851	-49.334	-39.944	-150.776	-145.449	-143.276	-136.935	-46.144	-139.993	-8191	255	
1701.999	1	1	0	0	0.10208	0.31207	0.13008	0.16013	0.11387	0.25676	0.19173	0.095648	0.13291	0.29273	0.15104	0.27521	0.16535	0.21792	0.337	0.13689	-0.70208	-1.0146	-1.5396	-0.6875	-1.4354	-1.3875	-0.93333	-1.7417	-0.95417	-1.1896	-1.7333	-0.90417	-1.3521	-1.5542	-0.775	-1.8062	70.693	-19.210	48.988	59.125	75.730	-81.302	94.733	31.102	51.888	-98.857	176.063	136.898	74.814	118.525	-129.892	78.750	0.00045482	0.00052498	0.00013077	927.65	2.8649e-06	3.8695e-06	866.37	301.84	3.8759e-06	5.7778e-06	322.21	114.38	100.01	51.276	5.3557e-06	57.481	0.00062875	0.00070054	0.00019252	945.29	7.5756e-06	7.8107e-06	881.75	309.51	7.8264e-06	8.0865e-06	328.72	118.48	104.34	53.398	9.005e-06	59.612	-131.274	-78.517	-46.876	-155.263	-6.219	17.737	-156.456	-149.137	-47.115	-26.151	-150.847	-145.396	-143.438	-136.862	-44.815	-140.380	-8191	255	
1702.095	1	1	0	0	0.19907	0.12683	0.12888	0.13352	0.21151	0.075986	0.47622	0.26876	0.081702	0.20225	0.12718	0.039829	0.26933	0.31121	0.082032	0.29365	-0.71667	-0.99167	-1.7	-0.58958	-1.5625	-1.2875	-1.0292	-1.8479	-1.0083	-0.89792	-1.7938	-0.86875	-1.2083	-1.8188	-0.83542	-1.8083	-127.955	-131.850	-102.899	-93.634	-153.175	110.678	137.019	121.120	75.609	-7.526	80.876	116.500	-119.018	139.320	66.759	138.299	0.00047002	0.00064573	0.00015915	917.86	4.453e-06	5.9619e-06	862.92	301.82	4.9034e-06	6.8496e-06	322.82	115.53	101.14	51.641	3.676e-06	57.809	0.00071756	0.00082794	0.00022792	945.06	9.3358e-06	9.3081e-06	879.46	309.98	9.3191e-06	9.8283e-06	330.76	119.68	105	53.707	1.0143e-05	59.84	-132.448	-76.869	-70.010	-155.537	-13.891	-31.093	-156.488	-149.041	-23.696	-19.786	-151.055	-145.440	-143.501	-137.303	-1.404	-140.213	-8191	255	
1702.167	1	1	0	0	0.14731	0.14238	0.1313	0.13716	0.22256	0.098743	0.24962	0.1886	0.085732	0.30164	0.20665	0.06966	0.32927	0.17181	0.073758	0.16475	-0.85208	-0.82708	-1.6375	-0.82917	-1.275	-1.8458	-0.82083	-1.6625	-1.3125	-0.875	-1.8167	-1.0729	-1.3979	-1.7979	-0.86042	-1.6729	-61.319	78.583	-119.355	169.608	191.864	136.855	-85.902	141.868	65.223	-68.874	-83.153	-94.199	-27.038	105.229	-12.108	155.548	0.00042781	0.00061942	7.9734e-05	919.1	5.3453e-06	3.3984e-06	857.25	302.3	3.9466e-06	6.0599e-06	320.68	113.29	99.818	50.952	3.6757e-06	56.282	0.00078408	0.00093077	0.00025414	946.7	9.9611e-06	9.8611e-06	874.45	309.77	9.9371e-06	1.0348e-05	327.39	117.45	104.04	52.855	1.0624e-05	58.409	-134.253	-89.243	-57.585	-155.373	1.540	-17.080	-156.343	-149.077	-39.703	-7.614	-151.052	-145.622	-143.459	-136.993	-24.908	-140.255	-8191	255	
1702.287	1	1	0	0	0.17494	0.31627	0.088387	0.25179	0.21891	0.05312	0.29374	0.15354	0.17258	0.22877	0.2358	0.10893	0.10618	0.19435	0.075605	0.076905	-1.1354	-0.91667	-1.6667	-1.0958	-1.0125	-1.5187	-0.99167	-1.4875	-1.4229	-0.82708	-1.8	-1.1792	-1.0958	-1.9125	-0.70208	-1.4771	-139.671	-121.205	-121.782	-76.784	61.646	11.577	85.928	129.642	-60.267	22.069	53.756	168.983	1.795	148.445	5.767	16.318	0.00046912	0.0004528	0.00010376	914.96	4.2765e-06	4.6564e-06	851.57	299.85	5.5404e-06	4.2683e-06	316.51	112.77	100.1	51.201	6.0262e-06	56.698	0.00079574	0.00096592	0.00025649	941.4	1.0272e-05	9.9837e-06	866.78	307.91	9.5646e-06	1.0175e-05	324.97	116.79	104.01	52.995	1.013e-05	58.683	-131.627	-90.486	-49.989	-155.086	-6.157	-6.017	-156.144	-149.006	-39.353	-48.202	-150.867	-145.363	-143.436	-136.842	-9.203	-140.318	-8191	255	
1702.384	1	1	0	0	0.21223	0.10307	0.1676	0.045217	0.19716	0.22368	0.17001	0.060839	0.25357	0.29244	0.12271	0.2375	0.10643	0.12195	0.14021	0.20639	-1.0312	-0.67708	-1.6688	-1.0229	-1.0958	-1.9417	-0.80208	-1.4854	-1.6979	-0.82708	-1.8021	-1.2146	-0.96667	-1.7979	-0.95833	-1.2146	162.571	-98.870	136.772	-27.425	43.564	170.883	-138.382	-64.588	-34.367	2.072	70.269	105.327	-5.300	18.649	150.839	169.302	0.00045149	0.0004355	0.00017731	917.3	4.099e-06	3.3112e-06	852.91	300.64	4.0966e-06	8.221e-06	317.62	113.13	100.45	51.115	5.834e-06	56.567	0.000786	0.00096157	0.00026146	941.77	1.0398e-05	1.0781e-05	866.04	309.3	1.0055e-05	1.1032e-05	326.22	117.58	104.58	53.152	1.0497e-05	58.795	-131.866	-87.924	-63.373	-154.857	0.065	-17.143	-156.331	-149.002	-17.964	-4.874	-150.658	-145.522	-143.522	-136.794	-33.392	-139.980	-8191	255	
1702.480	1	1	0	0	0.11912	0.36223	0.070589	0.10794	0.11133	0.12307	0.13653	0.28093	0.2862	0.10391	0.11468	0.10414	0.15252	0.26824	0.22793	0.3534	-1.1479	-0.77708	-1.5417	-1.2271	-0.86458	-1.7	-1.0312	-1.1562	-1.4813	-0.85625	-1.4729	-1.5229	-1.1187	-1.7708	-0.98542	-1.0063	155.893	-37.752	151.283	-61.060	6.020	-110.558	-77.528	90.154	-11.079	182.292	-136.661	185.929	-40.590	163.471	41.772	145.585	0.00046052	0.00058365	0.00013437	915.32	2.8965e-06	6.0141e-06	851.55	301.11	4.7729e-06	5.3031e-06	319.47	114.42	100.49	51.377	5.2893e-06	56.808	0.00078005	0.00093098	0.00024544	939.78	9.8986e-06	9.866e-06	868.59	309.35	9.3276e-06	1.0324e-05	327.67	118.31	104.37	53.331	1.0011e-05	59.202	-133.101	-71.018	-103.370	-155.299	-13.111	-20.284	-156.303	-148.925	-15.310	-20.946	-150.812	-145.395	-143.447	-136.748	-17.158	-140.023	-8191	255	
1702.576	1	1	0	0	0.30632	0.26556	0.16381	0.22169	0.19808	0.32948	0.18991	0.051382	0.19839	0.20365	0.22666	0.31604	0.18823	0.19719	0.12631	0.14164	-1.1208	-0.73542	-1.3729	-1.4375	-0.74375	-1.6292	-1.3563	-1.2979	-1.7271	-1.1042	-1.4312	-1.6146	-0.72708	-1.8125	-1.1313	-1.1437	-72.278	-77.585	-137.326	-50.785	-7.159	-85.964	134.173	146.371	-92.132	150.787	-106.301	159.090	152.650	122.248	-94.174	137.656	0.00047744	0.00036341	0.0002453	915.47	2.9116e-06	3.8321e-06	853.27	299.64	4.2076e-06	4.7205e-06	320.44	113.97	100.37	50.985	3.2567e-06	56.654	0.00076281	0.00091942	0.00024877	941.39	1.0015e-05	9.8247e-06	870.97	308.09	9.3203e-06	9.9525e-06	328.34	118.15	104.13	53.026	9.2893e-06	58.807	-129.820	-60.154	-70.650	-155.027	10.637	37.143	-156.288	-148.915	-22.794	-13.610	-150.741	-145.384	-143.268	-136.487	-2.430	-140.285	-8191	255	
1702.695	1	1	0	0	0.14485	0.1953	0.21273	0.15247	0.098212	0.2464	0.34773	0.12986	0.091709	0.071233	0.15878	0.25878	0.20183	0.31577	0.15817	0.066475	-1.3958	-0.78958	-1.3458	-1.65	-0.76875	-1.6083	-1.2104	-1.0458	-1.8542	-1.0125	-1.3813	-1.875	-0.60208	-1.8229	-1.5292	-0.89583	-13.649	90.014	67.998	19.704	138.634	-154.271	159.996	-35.072	107.075	-126.897	36.206	103.687	72.631	158.250	17.966	156.120	0.00045809	0.00046965	0.0001739	918.93	2.7133e-06	3.603e-06	857.75	299.79	3.9278e-06	5.3092e-06	316.56	112.31	98.777	50.625	3.909e-06	55.55	0.00071524	0.00086601	0.00023412	936.7	9.4476e-06	9.4476e-06	869.73	306.78	9.3252e-06	9.9357e-06	324.13	116.24	103.23	52.521	1.0053e-05	57.896	-133.801	-86.070	-70.684	-155.411	-5.388	9.197	-156.308	-148.951	-41.990	10.290	-150.777	-145.646	-143.963	-136.857	-36.378	-140.095	-8191	255	
1702.768	1	1	0	0	0.089815	0.24925	0.25933	0.1595	0.30927	0.10129	0.27002	0.3248	0.30223	0.13368	0.16742	0.12692	0.14619	0.15822	0.15364	0.29066	-1.6833	-0.92708	-1.1187	-1.8	-0.71875	-1.4479	-1.6938	-1.0479	-1.6354	-1.3771	-1.1042	-1.8792	-0.98333	-1.5771	-1.3188	-0.85208	181.744	-146.754	174.706	97.092	32.003	-3.186	85.444	131.825	-60.647	180.118	140.348	-106.335	187.653	-144.585	-68.953	85.641	0.00042336	0.00046297	0.00010961	910.04	4.6681e-06	5.174e-06	843.23	298.82	3.4328e-06	5.4278e-06	314.98	111.1	99.003	49.975	5.7319e-06	54.989	0.00077186	0.00096625	0.00026265	937.91	1.0708e-05	1.0559e-05	860.59	306.72	1.006e-05	1.0913e-05	322.15	115.3	102.92	51.968	1.0908e-05	57.2	-137.353	-87.812	-87.184	-155.611	-10.747	-29.105	-156.500	-149.143	-40.294	-21.575	-150.806	-145.818	-143.902	-136.894	-40.770	-140.422	-8191	255	
1702.863	1	1	0	0	0.042648	0.21586	0.1933	0.28812	0.24766	0.1905	0.11969	0.27823	0.18682	0.28711	0.13561	0.23377	0.11379	0.26752	0.24431	0.15378	-1.1437	-1.1479	-1.0667	-1.8375	-0.76458	-1.3583	-1.6792	-0.96458	-1.4146	-1.2208	-0.84583	-1.9	-0.95	-1.3583	-1.6	-0.86458	101.465	20.123	89.286	154.205	-40.619	9.903	78.582	120.988	-72.703	159.147	154.791	-125.496	191.573	188.082	123.029	-114.271	0.00043094	0.00060149	6.804e-05	908.11	3.3659e-06	6.2411e-06	840.37	298.47	5.2503e-06	5.0621e-06	315.48	111.62	99.387	50.347	6.1921e-06	55.354	0.00082478	0.0010372	0.00028886	936.95	1.1827e-05	1.1778e-05	859	306.76	1.1328e-05	1.2123e-05	323.41	115.87	103.51	52.241	1.1895e-05	57.462	-135.518	-69.669	-56.047	-155.512	-39.622	-10.071	-156.646	-149.371	-38.509	-18.308	-151.161	-145.837	-143.922	-137.459	-28.666	-140.622	-8191	255	
1702.961	1	1	0	0	0.052911	0.29492	0.18692	0.17412	0.19223	0.21497	0.25607	0.28664	0.10426	0.14709	0.47424	0.072661	0.16267	0.21274	0.073867	0.1631	-1.3125	-1.2708	-0.87292	-1.6354	-0.96667	-1.3417	-1.7083	-0.90208	-1.7146	-1.45	-0.98125	-1.8208	-0.99583	-1.1854	-1.6938	-0.71042	-44.002	144.297	101.473	-38.616	-35.568	-165.414	106.980	19.198	128.051	-126.003	158.769	-70.785	16.758	164.522	-127.100	101.349	0.00044105	0.00037073	0.00014125	906.61	3.6182e-06	5.929e-06	845.55	299.87	2.0037e-06	5.2982e-06	314.38	112.07	99.02	50.256	5.1626e-06	55.603	0.0009013	0.0011156	0.00031807	937.95	1.2149e-05	1.2284e-05	861.31	307.82	1.167e-05	1.2499e-05	323.47	116.39	103.35	52.243	1.2308e-05	57.822	-131.973	-75.871	-65.012	-155.926	-14.611	-0.393	-156.446	-149.496	-29.064	10.016	-151.167	-145.869	-143.992	-137.150	-43.729	-140.396	-8191	255	
1703.079	1	1	0	0	0.33215	0.32483	0.34541	0.33075	0.24726	0.092669	0.17992	0.14244	0.14135	0.092959	0.20765	0.24371	0.12041	0.07124	0.22532	0.46075	-0.94375	-1.5875	-0.65625	-1.7479	-1.1042	-1.0625	-1.9937	-0.93333	-1.4896	-1.3417	-1.0229	-1.7958	-1.2812	-0.975	-1.7292	-1.0625	103.030	99.135	-70.297	-109.121	38.578	27.682	153.018	75.548	-118.217	-22.106	175.550	-84.199	144.768	160.975	-123.177	162.677	0.00044219	0.00048505	0.00012719	910.05	5.6006e-06	4.1492e-06	846.41	298.57	3.1411e-06	5.8791e-06	315.31	112.35	98.523	50.307	3.2065e-06	55.674	0.00090887	0.0011409	0.00032322	940.45	1.2296e-05	1.2414e-05	863.99	307.02	1.1486e-05	1.2e-05	324.46	116.39	103.07	52.299	1.1836e-05	57.875	-129.848	-107.432	-65.399	-155.418	-22.120	16.319	-156.595	-149.231	-4.455	-40.357	-151.231	-145.782	-143.740	-137.299	-71.054	-140.711	-8191	255	
1703.176	1	1	0	0	0.23325	0.063045	0.17327	0.093048	0.16322	0.18557	0.20234	0.2956	0.11554	0.31003	0.24828	0.416	0.27867	0.3613	0.14239	0.10438	-1.0021	-1.5979	-0.66667	-1.6167	-1.4354	-1.0479	-1.9083	-1.2333	-1.3062	-1.6604	-1.0979	-1.6875	-1.6125	-1.0771	-1.8396	-1.2771	-91.847	85.892	123.583	-50.846	0.680	59.175	94.212	102.561	-110.171	6.238	-154.853	149.200	183.584	137.251	25.531	158.877	0.00040398	0.00068476	0.00012722	908.48	2.1611e-06	7.3578e-06	845.61	297.44	1.8703e-06	8.7962e-06	313.9	111.58	98.385	50.697	4.4982e-06	55.94	0.00090158	0.0011192	0.0003295	941.58	1.2379e-05	1.2932e-05	861.07	306.36	1.2162e-05	1.2088e-05	322.56	115.85	103.2	52.776	1.2053e-05	58.098	-134.243	-86.747	-37.439	-155.290	6.647	-8.366	-156.820	-149.349	-53.207	-19.527	-151.353	-145.995	-143.781	-136.995	-32.017	-140.707	-8191	255	
1703.272	1	1	0	0	0.13884	0.28679	0.072053	0.14949	0.25162	0.24735	0.34861	0.16876	0.11939	0.18756	0.30584	0.087671	0.25084	0.079831	0.099229	0.091762	-0.78125	-1.7333	-0.8	-1.3438	-1.3875	-0.96042	-1.9083	-1.2667	-1.2167	-1.7979	-0.975	-1.6021	-1.4937	-0.75208	-1.6646	-1.3104	4.190	82.050	-33.392	-150.035	69.559	134.047	115.495	110.178	134.526	-43.329	-156.347	106.216	-42.414	60.758	0.295	91.371	0.00044215	0.00057559	0.00014963	906.69	5.037e-06	3.9771e-06	835.43	296.49	3.8008e-06	4.2331e-06	314.81	111.96	99.052	50.861	3.1521e-06	56.23	0.00092646	0.0011384	0.00032518	938.56	1.219e-05	1.3039e-05	855.58	305.5	1.1551e-05	1.1656e-05	322.2	116.29	103.21	53.002	1.092e-05	58.426	-131.252	-72.147	-52.523	-154.951	-4.654	-16.116	-156.783	-149.443	-39.425	-2.954	-151.241	-145.419	-143.808	-137.180	-27.847	-140.404	-8191	255	
1703.368	1	1	0	0	0.11686	0.11405	0.14637	0.14113	0.13661	0.10014	0.21706	0.20808	0.13184	0.35012	0.17998	0.15473	0.069095	0.16836	0.051605	0.19728	-0.73125	-1.7667	-0.80417	-1.3833	-1.5458	-0.73333	-1.8354	-1.3854	-0.8375	-1.7042	-0.92917	-1.2792	-1.6396	-0.82917	-1.7729	-1.4208	4.347	36.690	-119.825	-11.746	-22.178	-21.507	108.158	174.040	-117.411	-71.716	152.252	148.473	-101.505	158.433	-160.657	139.586	0.00041891	0.00059561	8.2012e-05	900.49	5.0319e-06	4.299e-06	845.12	296.65	3.3705e-06	5.1082e-06	316.24	112.86	99.245	51.213	3.6569e-06	57.113	0.00084458	0.0010109	0.0002938	934.29	1.0929e-05	1.1273e-05	860.38	304.88	1.0732e-05	1.1058e-05	324.05	116.95	103.29	53.317	1.0363e-05	59.075	-130.000	-61.284	-99.969	-155.410	-28.444	-2.465	-156.364	-149.402	-11.280	-7.412	-151.076	-145.501	-143.796	-136.994	-30.222	-140.399	-8191	255	
1703.464	1	1	0	0	0.093224	0.14907	0.087024	0.018033	0.21534	0.12502	0.099873	0.30404	0.25742	0.4275	0.19148	0.35428	0.3013	0.18277	0.12708	0.15028	-0.325	-1.7313	-1.0125	-1.1021	-1.5708	-1.0354	-1.675	-1.4583	-0.91875	-1.9083	-0.99167	-1.2354	-1.6208	-0.92292	-1.4312	-1.5271	114.874	117.553	-94.790	61.169	153.391	130.064	176.423	188.314	-110.574	-25.878	139.317	186.571	92.361	-89.264	-150.536	116.573	0.00044969	0.00063664	0.00014825	910.45	2.5965e-06	5.5739e-06	850.28	298.28	5.3656e-06	4.4073e-06	317.06	112.67	98.888	50.84	3.4889e-06	56.485	0.00081571	0.00095329	0.00026738	936.07	1.0208e-05	1.0855e-05	866.24	305.81	1.0696e-05	1.0668e-05	324.32	116.62	102.96	52.739	1.1029e-05	58.577	-132.626	-54.683	-76.823	-155.369	-24.839	14.316	-156.417	-148.990	-34.345	-34.978	-150.798	-145.335	-143.766	-136.908	-110.875	-140.206	-8191	255	
1703.560	1	1	0	0	0.11054	0.17198	0.1102	0.27556	0.24946	0.14719	0.44489	0.089974	0.059666	0.13879	0.13091	0.23748	0.11813	0.15981	0.081857	0.097198	-0.48125	-1.5583	-0.95	-1.1542	-1.5938	-0.91667	-1.6	-1.5729	-0.675	-1.8354	-1.0833	-0.99167	-1.8583	-0.97292	-1.4688	-1.6375	69.717	68.231	93.869	-139.824	27.283	16.104	99.234	-143.755	-121.140	1.656	29.660	118.126	11.904	77.313	-158.114	-61.856	0.00045489	0.00056794	0.00015156	908.44	4.2444e-06	6.3848e-06	850	298.2	3.9381e-06	3.6021e-06	313.6	111.25	98.161	49.66	2.5286e-06	54.74	0.00086639	0.001013	0.00029146	941.42	1.1275e-05	1.1892e-05	864.95	306.18	1.1309e-05	1.1524e-05	322.45	115.46	102.44	51.778	1.1834e-05	56.622	-133.123	-76.159	-86.127	-155.599	-31.862	-23.104	-156.134	-149.018	-20.257	-11.315	-150.997	-145.322	-143.436	-136.806	-45.237	-140.098	-8191	255	
1703.681	1	1	0	0	0.13558	0.25196	0.12886	0.1782	0.19629	0.11298	0.095572	0.32855	0.21887	0.094539	0.042141	0.16942	0.2133	0.14303	0.26538	0.19939	-0.37917	-1.6417	-1.0812	-1.0542	-1.8563	-0.9625	-1.5438	-1.8854	-0.81458	-1.575	-1.3167	-1.0667	-1.7167	-1.2292	-1.1479	-1.9333	163.062	129.224	94.293	-56.755	-143.849	-8.980	-8.582	112.825	-153.040	174.018	54.761	-2.309	90.006	-95.358	180.810	121.673	0.00040531	0.00036433	0.00011222	905.28	1.5465e-06	3.6697e-06	842.72	297.85	3.3436e-06	5.7883e-06	311.03	109.52	97.72	49.325	3.4488e-06	53.899	0.00089303	0.0010913	0.00030257	941.04	1.168e-05	1.2194e-05	858.99	305.42	1.166e-05	1.2064e-05	319.31	113.5	101.83	51.302	1.2388e-05	55.881	-129.882	-84.665	-85.669	-154.631	97.129	-2.278	-156.380	-148.872	-13.644	-30.959	-150.878	-145.033	-143.239	-136.654	-45.994	-140.052	-8191	255	
1703.775	1	1	0	0	0.14548	0.15209	0.15094	0.13411	0.46331	0.033702	0.15706	0.3889	0.070439	0.24688	0.23278	0.35157	0.11959	0.14749	0.11768	0.12161	-0.2875	-1.5958	-1.4208	-0.74583	-1.9104	-1.1229	-1.3375	-1.7646	-0.92708	-1.3937	-1.5771	-0.96875	-1.7354	-1.2292	-1	-1.875	-81.924	-126.358	100.992	168.638	30.661	45.029	105.857	82.418	112.988	-135.326	84.000	-160.302	161.642	132.618	-22.843	-112.487	0.00041582	0.00068771	0.00024496	910.48	2.6443e-06	6.6709e-06	836.94	297.19	5.8113e-06	2.7106e-06	311	109.49	97.559	49.298	8.6108e-07	54.392	0.00092389	0.0011409	0.00031141	939.84	1.2232e-05	1.2688e-05	855.57	304.62	1.1765e-05	1.1821e-05	318.8	113.5	101.58	51.307	1.1137e-05	56.417	-131.493	-77.276	-56.416	-154.906	-48.293	2.263	-156.154	-148.957	-25.454	-19.584	-150.993	-145.180	-143.485	-136.837	-35.736	-140.118	-8191	255	
1703.871	1	1	0	0	0.20739	0.10092	0.18003	0.15731	0.30378	0.22143	0.2838	0.4204	0.10397	0.16061	0.15864	0.29747	0.20563	0.1061	0.24426	0.40265	-0.55208	-1.5646	-1.4917	-0.72292	-1.8104	-1.1583	-1.0167	-1.6521	-0.9625	-1.1479	-1.5812	-1.0333	-1.7479	-1.3979	-1.1021	-1.9896	103.381	-66.978	-93.472	137.574	131.811	57.514	93.764	170.025	11.336	-75.107	-115.992	164.694	178.217	-19.646	-16.558	152.760	0.00042489	0.00062474	0.0001198	903.68	4.6679e-06	6.3345e-06	844.8	296.75	4.9783e-06	2.5032e-06	313.49	110.38	98.021	50.034	4.1611e-06	55.144	0.00085777	0.0010051	0.00027475	935.93	1.0998e-05	1.1406e-05	860.03	304.48	1.1029e-05	1.1456e-05	321.02	114.61	102.21	51.923	1.1476e-05	57.346	-136.219	-80.330	-56.614	-155.116	-9.188	-11.171	-156.115	-148.862	-46.226	-23.493	-150.887	-145.149	-143.154	-136.648	-40.248	-139.784	-8191	255	
1703.992	1	1	0	0	0.27161	0.065644	0.19559	0.33914	0.19279	0.11943	0.14128	0.18075	0.077381	0.15623	0.17989	0.090811	0.27295	0.19023	0.12811	0.13747	-0.72292	-1.2375	-1.5354	-0.85625	-1.5187	-1.4646	-1.0229	-1.6458	-0.92083	-1.2396	-1.9167	-0.92917	-1.6208	-1.5167	-0.88958	-1.6063	65.630	-118.707	78.086	-124.227	38.742	-62.962	-117.755	177.838	21.803	66.117	-101.484	4.552	-139.625	-123.359	93.029	145.806	0.00041035	0.00044414	0.0001323	911.84	3.4192e-06	2.6885e-06	847.08	297.45	2.6037e-06	3.8494e-06	311.16	111.54	97.748	50.577	5.6989e-06	55.671	0.00086021	0.0010286	0.00028252	939.36	1.1194e-05	1.1333e-05	860.34	304.77	1.1113e-05	1.1403e-05	320.36	115.32	102.56	52.472	1.1754e-05	57.894	-132.513	-66.359	-79.680	-155.123	-29.845	78.720	-155.987	-148.541	-45.363	-7.040	-150.479	-145.127	-143.138	-136.411	-3.488	-139.796	-8191	255	
1704.064	1	1	0	0	0.24524	0.18308	0.042021	0.11518	0.15064	0.10167	0.23749	0.32644	0.2005	0.043293	0.022174	0.044255	0.11208	0.25356	0.12166	0.13428	-0.59167	-1.1021	-1.6854	-0.5375	-1.5187	-1.6	-0.91875	-1.7729	-1.1167	-0.98958	-1.8521	-0.90417	-1.4146	-1.6104	-0.87917	-1.5583	32.998	15.771	144.831	-93.741	-1.914	-91.043	147.240	95.047	-117.167	-126.599	129.428	136.588	178.327	-154.346	-117.819	117.336	0.00045404	0.00070986	0.00015515	901.49	3.9011e-06	5.9489e-06	835.05	295.44	3.4247e-06	5.9903e-06	312.01	110.98	98.764	51.203	5.9689e-06	56.446	0.00091089	0.0011349	0.0003118	934.08	1.2517e-05	1.2459e-05	850.97	303.91	1.2113e-05	1.2528e-05	319.44	115.51	102.91	53.09	1.2122e-05	58.54	-129.758	-77.786	-32.172	-154.731	5.923	-34.432	-156.007	-148.696	-18.182	-19.639	-150.878	-145.335	-143.350	-136.908	-7.030	-140.143	-8191	255	
1704.160	1	1	0	0	0.14101	0.26362	0.28185	0.15605	0.089948	0.13384	0.16283	0.23452	0.15971	0.098438	0.20185	0.1118	0.28759	0.11072	0.16669	0.28842	-1.0583	-0.99167	-1.95	-0.92708	-1.2167	-1.7625	-0.79583	-1.6417	-1.25	-0.95625	-1.9271	-1.1917	-1.4292	-1.7604	-1.0208	-1.8333	-78.759	-38.217	-53.719	63.351	-64.701	83.472	-54.764	97.342	6.196	-16.274	50.171	97.314	-16.099	-55.490	29.729	162.980	0.00046534	0.00064328	0.00011336	896.46	4.3688e-06	4.8732e-06	832.35	295.74	2.2142e-06	7.6551e-06	311.05	111.93	98.824	51.316	4.8588e-06	57.008	0.00089019	0.0010915	0.00030282	931.45	1.2139e-05	1.2092e-05	852.58	303.9	1.2024e-05	1.2813e-05	320.66	116.52	103.24	53.526	1.3128e-05	59.265	-132.020	-99.750	-61.155	-155.286	-64.609	-8.956	-156.181	-148.894	-56.418	-21.170	-150.636	-145.263	-143.503	-137.090	-27.750	-140.201	-8191	255	
1704.256	1	1	0	0	0.1349	0.19442	0.10078	0.17094	0.1357	0.13468	0.16689	0.14098	0.18251	0.39238	0.030223	0.026806	0.2368	0.019884	0.15128	0.15988	-0.91667	-0.8375	-1.8563	-1.0125	-1.2125	-1.675	-0.96875	-1.7167	-1.3458	-0.92708	-1.9604	-1.0854	-1.2771	-1.6562	-0.78958	-1.5396	-108.774	-38.560	-118.164	-156.352	-111.898	36.783	170.383	177.420	-141.716	-156.477	99.362	122.823	96.426	118.494	40.449	-142.642	0.00047034	0.00042424	0.00018178	904.51	5.5709e-06	5.9964e-06	833.76	295.54	6.3889e-06	6.3111e-06	312.66	112.11	98.741	51.4	3.8828e-06	57.358	0.00096739	0.0012577	0.00034241	937.42	1.4142e-05	1.3853e-05	852.79	303.96	1.3387e-05	1.4484e-05	322.05	116.79	103.31	53.547	1.5075e-05	59.563	-131.222	-72.463	-50.398	-155.179	9.776	-14.478	-156.280	-148.934	-14.854	7.587	-150.952	-145.589	-143.466	-136.812	-13.562	-140.532	-8191	255	
1704.377	1	1	0	0	0.088424	0.096744	0.083685	0.28138	0.18151	0.080434	0.20056	0.33581	0.17426	0.14054	0.14715	0.078205	0.11664	0.048911	0.29805	0.040162	-1.1521	-0.70625	-1.7333	-1.0958	-0.95417	-1.675	-0.95417	-1.4083	-1.5812	-0.80208	-1.6396	-1.1229	-1.0167	-1.9896	-0.83958	-1.1688	149.216	113.083	102.083	-140.303	-166.910	78.220	-1.205	179.800	-117.739	20.566	-138.018	137.842	155.790	-165.115	-46.195	-133.141	0.00044192	0.00046567	8.937e-05	889.04	4.2735e-06	7.9285e-06	829.7	294.51	2.2267e-06	8.3948e-06	311.06	112.85	98.404	51.069	2.2102e-06	56.976	0.0010804	0.0014659	0.00041107	934.51	1.647e-05	1.6689e-05	848.78	303.41	1.6294e-05	1.7872e-05	322.11	117.22	103.29	53.282	1.7345e-05	59.43	-134.888	-67.369	-42.412	-155.434	-6.335	-30.825	-156.340	-149.019	-23.943	-3.776	-151.034	-145.898	-143.993	-137.099	-53.018	-140.281	-8191	255	
1704.473	1	1	0	0	0.19522	0.21712	0.11384	0.31048	0.047869	0.20537	0.29887	0.26976	0.25382	0.091716	0.10708	0.15259	0.22831	0.2494	0.14911	0.29925	-1.1729	-0.93958	-1.5375	-1.4146	-0.91875	-1.7125	-1.1604	-1.1771	-1.3604	-0.88333	-1.5458	-1.3438	-1.0187	-1.9292	-1.0583	-1.2313	155.883	190.493	-149.415	180.338	14.430	-4.089	92.877	146.587	162.639	3.449	63.144	-59.366	-126.599	183.464	28.751	172.559	0.00043848	0.00034436	0.00018265	893.85	2.0665e-06	6.6211e-06	826.59	294.53	4.2686e-06	4.5707e-06	310.49	111.28	98.459	50.903	1.6659e-06	56.206	0.0012008	0.0016514	0.00045163	941.39	1.801e-05	1.7871e-05	849.16	303.55	1.6969e-05	1.8493e-05	321.08	116.28	103.52	53.123	1.7478e-05	58.728	-136.631	-92.237	-51.052	-155.429	-56.493	-9.500	-156.244	-149.170	-19.385	45.481	-151.181	-145.965	-143.814	-137.102	-48.136	-140.445	-8191	255	
1704.569	1	1	0	0	0.2327	0.31583	0.19257	0.25612	0.10039	0.25896	0.18839	0.13913	0.24628	0.14235	0.14808	0.088245	0.27009	0.26372	0.086251	0.32161	-1.35	-0.8375	-1.55	-1.3646	-0.89583	-1.7854	-1.2333	-1.0438	-1.7083	-0.85	-1.4417	-1.5542	-0.81875	-1.6917	-1.2104	-1.1021	101.573	167.970	104.100	-70.485	-28.950	-143.098	154.932	128.348	94.340	165.237	152.974	162.156	-12.478	138.357	-42.533	127.881	0.00045191	0.00041662	0.00015082	891.71	5.4349e-06	3.8026e-06	827.16	295.68	3.1907e-06	3.4112e-06	311.54	112.88	99.439	52.012	8.0086e-06	57.794	0.0012126	0.0016243	0.00044838	937.26	1.8001e-05	1.8005e-05	845.04	303.96	1.7384e-05	1.9479e-05	323.42	117.96	104.98	54.286	2.0149e-05	60.565	-133.119	-103.998	-75.162	-155.603	-11.785	-58.114	-156.331	-149.086	-26.977	3.479	-151.057	-145.440	-143.550	-137.419	-49.403	-140.574	-8191	255	
1704.641	1	1	0	0	0.33445	0.3867	0.30752	0.12086	0.13748	0.14246	0.24313	0.26329	0.14752	0.21534	0.16585	0.027526	0.24498	0.079042	0.12609	0.22944	-1.3188	-0.90833	-1.2229	-1.5333	-0.87083	-1.6146	-1.2521	-0.96667	-1.7083	-0.90208	-1.4271	-1.6938	-0.86458	-1.7062	-1.3667	-1.0167	-49.447	164.333	69.361	33.242	-85.843	168.864	55.237	97.979	-134.158	-115.972	-140.095	80.431	-26.061	93.210	37.174	-69.936	0.00047496	0.00039495	0.00015159	890.76	4.8058e-06	6.0097e-06	827.82	297.38	6.0952e-06	7.2201e-06	314.26	115.2	101.05	52.706	5.9905e-06	58.857	0.0014148	0.0019431	0.00054174	945.39	2.1321e-05	2.1416e-05	848.84	307.5	1.9596e-05	2.1319e-05	326.44	120.31	106.26	55.127	2.0413e-05	61.697	-131.834	-136.285	-50.889	-155.213	-18.690	-9.398	-156.361	-148.964	-29.266	-2.999	-151.010	-145.754	-143.510	-136.933	-34.706	-140.373	-8191	255	
1704.759	1	1	0	0	0.25154	0.34669	0.23907	0.10237	0.09378	0.24885	0.18118	0.23478	0.041115	0.12669	0.30768	0.10803	0.19055	0.21161	0.35596	0.2533	-1.1917	-1.1083	-1.0417	-1.6521	-0.89375	-1.575	-1.4458	-0.95208	-1.6562	-0.95625	-1.2396	-1.5812	-0.99792	-1.5562	-1.3375	-1.0083	22.536	47.662	110.717	76.421	30.426	78.301	-116.979	131.200	175.524	152.362	182.196	55.197	-26.117	-165.417	57.676	41.002	0.00046222	0.00036262	0.00011877	894.63	7.1088e-06	4.4355e-06	834.93	298.99	4.9603e-06	7.9466e-06	318.22	116.05	101.78	53.057	3.5747e-06	59.641	0.001425	0.0019919	0.00053895	948.99	2.1727e-05	2.1239e-05	853.82	308.59	1.9518e-05	2.1146e-05	329.68	121.46	106.97	55.585	1.9359e-05	62.33	-137.934	-135.498	-55.030	-155.190	-23.930	1.933	-156.279	-148.724	-13.128	-12.543	-150.808	-145.643	-143.905	-136.923	-20.939	-140.263	-8191	255	
1704.856	1	1	0	0	0.23612	0.10611	0.034882	0.12757	0.02584	0.16616	0.1045	0.039779	0.17304	0.22761	0.35294	0.06033	0.14206	0.22039	0.11853	0.31474	-1.5229	-1.2417	-1.0854	-1.6833	-0.72917	-1.5708	-1.55	-0.94583	-1.6646	-1.1604	-1.0021	-1.8146	-0.90625	-1.3979	-1.6875	-0.77917	-150.773	-82.999	-158.325	-78.337	24.556	171.982	107.635	192.127	-66.439	143.528	142.852	-157.952	-98.010	152.921	23.042	24.682	0.00047986	0.00079941	0.0001213	902.65	4.0254e-06	7.4218e-06	836.03	298.94	4.0331e-06	7.0828e-06	318.83	116.33	101.58	52.864	3.8476e-06	59.672	0.0013434	0.0018191	0.00050463	946.45	1.9577e-05	1.9465e-05	857.43	308.25	1.7999e-05	1.9019e-05	330.32	121.51	106.55	55.262	1.8564e-05	62.308	-135.069	-77.516	-44.290	-154.770	-10.744	1.962	-156.089	-148.944	-46.871	-40.852	-150.659	-145.627	-143.563	-136.959	-13.883	-140.384	-8191	255	
1704.953	1	1	0	0	0.20666	0.04936	0.12056	0.29562	0.052707	0.18815	0.32425	0.20572	0.075816	0.19553	0.060981	0.10217	0.29748	0.21437	0.17812	0.29441	-1.1917	-1.3354	-1.075	-1.6437	-1.0583	-1.1562	-1.8937	-0.78125	-1.5729	-1.4438	-0.95417	-1.7437	-1.1833	-1.2375	-1.825	-1.125	-10.526	-49.942	53.581	-63.096	-110.021	-86.329	91.210	97.669	115.441	48.692	-64.824	137.507	157.701	191.028	23.942	114.908	0.0005067	0.0004338	0.00014153	899.64	4.3535e-06	1.6227e-06	833.21	298.64	8.22e-06	5.4799e-06	316.77	116.27	101.68	53.363	5.0489e-06	59.711	0.001326	0.0017852	0.00050781	947.62	2.034e-05	2.0401e-05	856.04	308.37	1.9903e-05	2.0982e-05	328.68	121.63	107.11	55.838	2.0633e-05	62.385	-134.204	-60.236	-68.002	-154.946	-33.007	-106.923	-156.537	-149.200	-32.674	-66.939	-150.751	-145.990	-143.622	-136.967	-56.599	-140.264	-8191	255	
1705.072	1	1	0	0	0.17159	0.22402	0.39836	0.25432	0.38891	0.21011	0.036399	0.45286	0.22614	0.17191	0.085877	0.2348	0.11123	0.15893	0.36293	0.13879	-1.1562	-1.625	-0.76667	-1.7708	-1.0271	-1.1292	-1.8833	-0.92292	-1.4875	-1.625	-0.96875	-1.7188	-1.1063	-1.0208	-1.6833	-0.84792	16.087	-140.962	138.865	17.342	-163.217	-104.611	155.272	159.780	-82.039	85.464	-63.597	111.509	80.553	-55.622	-44.700	-129.071	0.00050876	0.00067892	0.00011048	882.57	4.2039e-06	6.8074e-06	822.56	296.84	4.1825e-06	7.5135e-06	314.99	115.39	100.49	52.586	5.0494e-06	58.586	0.0014609	0.0019318	0.00054807	942.31	2.1145e-05	2.1232e-05	845.43	306.18	1.8993e-05	1.9331e-05	325.68	120.07	105.48	54.779	1.6976e-05	61.004	-134.033	-102.273	-28.793	-155.071	-17.796	-14.382	-156.159	-149.169	-28.368	-7.663	-151.001	-145.422	-143.745	-136.965	28.700	-140.525	-8191	255	
1705.168	1	1	0	0	0.21022	0.26269	0.089783	0.18231	0.21379	0.25813	0.38953	0.44797	0.36513	0.1187	0.20167	0.14553	0.29648	0.34229	0.17172	0.17925	-1.0333	-1.3625	-0.7875	-1.7333	-1.1646	-1.0208	-1.7292	-0.82917	-1.3438	-1.4604	-0.95625	-1.6521	-1.4438	-1.0063	-1.6917	-0.96875	-108.385	-90.424	86.228	-6.473	13.007	-8.340	185.383	119.170	-59.252	40.831	126.848	173.623	61.640	184.011	8.596	-107.863	0.00050056	0.0007849	0.00014706	885.3	2.1357e-06	6.0248e-06	829.58	296.05	3.0563e-06	1.1897e-05	315.78	115.87	100.47	52.721	4.3937e-06	59.258	0.0012065	0.0015299	0.00044494	934.93	1.7108e-05	1.7787e-05	849.33	305.5	1.7447e-05	1.7883e-05	327.01	120.87	105.83	54.994	1.8105e-05	62.001	-131.446	-88.806	-2.639	-154.764	-57.436	-46.155	-156.094	-148.742	-28.653	-11.786	-150.883	-145.253	-143.374	-136.977	-26.327	-140.353	-8191	255	
1705.265	1	1	0	0	0.10601	0.066589	0.16429	0.22276	0.28038	0.16556	0.21338	0.063331	0.068353	0.10669	0.22289	0.21708	0.056647	0.19574	0.15772	0.18696	-0.89792	-1.6271	-0.78125	-1.4979	-1.4271	-1.0063	-1.8396	-1.1896	-0.94792	-1.6292	-0.88542	-1.3687	-1.4062	-0.98125	-1.5771	-1.2104	180.762	149.230	8.531	-75.306	-126.561	137.862	-161.190	5.254	-52.903	-66.350	-108.694	170.979	-95.876	181.897	-72.957	96.078	0.0004721	0.00033136	0.00010913	890.39	6.1614e-06	2.6944e-06	825.99	295.31	3.6357e-06	3.0483e-06	317.95	118.18	101.2	53.274	6.4656e-06	60.722	0.0012992	0.0016653	0.0004846	937.45	1.9026e-05	1.9574e-05	848.79	305.84	1.931e-05	2.0268e-05	329.01	122.73	106.63	55.778	2.1319e-05	63.758	-128.855	-100.198	-62.493	-155.411	-5.256	3.266	-155.959	-149.059	-16.208	57.118	-150.453	-145.471	-143.707	-137.248	-32.489	-140.303	-8191	255	
1705.361	1	1	0	0	0.044317	0.4099	0.094897	0.33596	0.1576	0.13071	0.16361	0.20235	0.1504	0.13242	0.092929	0.10774	0.17599	0.31766	0.18419	0.26393	-0.78542	-1.6187	-0.82917	-1.3875	-1.4438	-0.72083	-1.8292	-1.4104	-0.87917	-1.6271	-0.97292	-1.375	-1.6146	-0.88125	-1.8438	-1.2542	-31.390	17.599	-158.071	-157.741	88.201	-1.736	-23.663	111.482	-35.331	5.811	145.804	-133.520	-80.079	-81.239	-91.583	67.801	0.00044758	0.00069223	0.00023794	880.97	6.4623e-06	5.0575e-06	827.06	295.15	6.3575e-06	3.5668e-06	320.87	119.67	102.1	54.542	3.9391e-06	62.869	0.0015347	0.0020455	0.00059335	940.73	2.2897e-05	2.3682e-05	850.15	305.97	2.233e-05	2.3417e-05	332	125.23	107.82	57.109	2.2589e-05	65.672	-133.984	-56.840	-83.218	-155.005	-14.314	16.729	-156.016	-148.630	-31.051	-26.052	-150.797	-145.210	-143.364	-137.126	-46.852	-140.743	-8191	255	
1705.457	1	1	0	0	0.16829	0.21099	0.10451	0.12976	0.17038	0.069537	0.1091	0.054191	0.25319	0.16251	0.2289	0.22172	0.059719	0.1212	0.19179	0.13256	-0.55833	-1.6313	-0.71458	-1.2313	-1.7896	-0.81667	-1.6792	-1.25	-0.75417	-1.7083	-1.0187	-1.3375	-1.5896	-0.975	-1.575	-1.3813	-8.054	109.473	-158.697	83.008	-57.173	-148.644	-108.894	-149.811	61.519	-68.293	190.019	-126.865	135.325	-136.371	191.318	56.983	0.00049265	0.00053994	0.0001636	877.29	1.6142e-06	4.3375e-06	818.56	294.99	4.7145e-06	7.6859e-06	318.34	119.54	101.82	54.371	3.2697e-06	62.074	0.0015662	0.0020917	0.00059802	935.44	2.2399e-05	2.3408e-05	843.76	305.43	2.168e-05	2.2584e-05	329.7	124.63	107.1	57.011	2.1062e-05	64.705	-131.828	-112.055	-65.446	-154.463	-40.233	-33.149	-156.041	-148.668	-18.393	-17.367	-150.502	-145.433	-143.503	-137.171	-51.235	-140.726	-8191	255	
1705.553	1	1	0	0	0.094978	0.21501	0.2152	0.074807	0.27477	0.090515	0.13579	0.26157	0.15612	0.11839	0.25502	0.13413	0.12677	0.10937	0.22935	0.069667	-0.39167	-1.5521	-1.1771	-1.0833	-1.7313	-0.8	-1.725	-1.5375	-0.73542	-1.725	-1.1437	-1.0708	-1.7417	-0.88542	-1.4375	-1.725	84.619	-33.532	189.853	-131.658	143.824	-116.521	20.130	154.232	115.398	68.510	119.257	-142.812	-142.656	103.897	179.316	-152.979	0.00048739	0.00068843	0.00013354	868.72	3.266e-06	7.9326e-06	813.54	292.13	3.8722e-06	7.4653e-06	313.92	118	100.97	54.513	1.5759e-06	61.675	0.0014654	0.0019398	0.00054562	924.17	2.0747e-05	2.1635e-05	835.13	301.72	2.0448e-05	2.1329e-05	325.75	123.17	106.33	56.995	2.1813e-05	64.651	-132.147	-79.820	-77.417	-154.455	-7.090	-8.155	-155.975	-148.779	-16.146	2.227	-150.686	-145.172	-143.434	-137.155	-58.079	-140.487	-8191	255	
1705.674	1	1	0	0	0.14203	0.1564	0.25475	0.21742	0.36324	0.076416	0.20897	0.11409	0.23899	0.15556	0.24058	0.16564	0.035046	0.074141	0.10553	0.35963	-0.52083	-1.6354	-1.1667	-0.83333	-1.6667	-0.8125	-1.3563	-1.7167	-0.78958	-1.45	-1.2604	-0.8	-1.5104	-1.1979	-1.3312	-1.7167	118.230	186.940	-43.354	-33.807	-109.426	79.671	141.831	30.324	143.399	-120.779	106.538	-148.188	31.330	169.042	33.285	104.687	0.00050527	0.00014156	0.00020003	866.38	5.1851e-06	9.6473e-06	812.01	292.11	5.2997e-06	6.8723e-06	314.79	117.67	100.55	54.353	4.5841e-06	61.542	0.001527	0.0020378	0.00055928	922.93	2.1477e-05	2.2358e-05	836.11	301.48	2.0849e-05	2.1734e-05	326.55	122.98	106.22	56.727	2.1184e-05	64.391	-128.933	-105.677	-56.970	-154.875	-12.148	-3.579	-155.760	-149.070	-69.248	-6.634	-150.971	-145.218	-143.342	-137.107	-40.098	-140.614	-8191	255	
1705.768	1	1	0	0	0.30156	0.12027	0.14958	0.25415	0.038178	0.14872	0.4282	0.052851	0.071423	0.076609	0.38898	0.19781	0.11396	0.19387	0.052023	0.06157	-0.40625	-1.6354	-1.2375	-0.89792	-1.7083	-1.0521	-1.3646	-1.5833	-0.81458	-1.525	-1.4417	-0.88542	-1.6063	-1.1625	-0.98542	-1.8083	77.528	-84.217	73.286	174.151	46.239	-81.054	128.469	-70.287	-43.172	-88.049	-34.531	76.657	190.123	-79.343	178.107	95.429	0.00050091	0.00055554	0.0001116	869.22	3.0221e-06	6.3158e-06	822.64	292.73	3.0796e-06	3.2783e-06	315.26	118.57	101.02	54.311	5.8977e-06	61.951	0.0014939	0.001994	0.00054834	929.96	2.1473e-05	2.1468e-05	843.05	302.71	2.0336e-05	2.1417e-05	328.17	123.65	106.64	56.759	2.0895e-05	64.666	-132.287	-53.311	3.622	-155.120	-33.586	-11.554	-156.096	-148.748	-15.353	-47.538	-150.643	-145.439	-143.554	-137.121	-59.656	-140.336	-8191	255	
1705.864	1	1	0	0	0.053978	0.28575	0.36214	0.24643	0.012448	0.21473	0.37186	0.25477	0.1793	0.36718	0.044602	0.14519	0.22225	0.2725	0.19135	0.27898	-0.41042	-1.4021	-1.3896	-0.89167	-1.7313	-1.2812	-1.2313	-1.7896	-0.97083	-1.5396	-1.5521	-0.88125	-1.7042	-1.2313	-1.0542	-1.9917	179.268	-93.339	-9.815	159.509	138.150	49.700	135.085	136.024	41.362	-79.700	-26.887	175.544	50.966	-116.993	60.966	153.316	0.00052132	0.00034295	0.00013905	878.59	8.1389e-07	7.2588e-06	828.09	294.03	4.4624e-06	4.9774e-06	319.29	118.58	101.28	53.774	7.0736e-06	61.695	0.0014386	0.0018732	0.00050785	933.4	2.0218e-05	2.0388e-05	849.42	304.01	1.9496e-05	2.0406e-05	329.75	123.62	106.25	56.108	1.9977e-05	64.167	-130.491	-78.595	-74.918	-155.405	-155.668	5.195	-155.803	-148.567	-37.612	-21.692	-150.449	-145.550	-143.072	-137.261	-20.933	-140.527	-8191	255	
1705.936	1	1	0	0	0.36387	0.24022	0.15311	0.22793	0.19199	0.05039	0.35549	0.33435	0.18486	0.32748	0.32553	0.24947	0.22515	0.067946	0.12421	0.14783	-0.5625	-1.3833	-1.6354	-0.72708	-1.7083	-1.4062	-0.81042	-1.6875	-0.86875	-1.3875	-1.7604	-0.90625	-1.5521	-1.4792	-0.80208	-1.8687	3.822	5.534	-38.739	-80.610	116.096	-49.411	-150.299	142.353	18.808	151.653	120.033	86.693	-61.846	-90.674	71.547	75.593	0.0004674	0.0005316	0.00018258	883.1	4.4747e-06	3.8886e-06	827.21	293.75	2.7441e-06	6.2818e-06	315.56	116.23	100.54	53.324	5.5705e-06	60.494	0.0014121	0.001893	0.00051986	939.17	2.0908e-05	2.0712e-05	848.94	304.25	2.0224e-05	2.1053e-05	326.12	121.77	106.05	55.647	2.119e-05	63.082	-132.361	-89.667	-73.468	-155.677	-16.578	-29.635	-156.074	-148.874	-41.583	-33.316	-150.514	-145.409	-143.303	-136.830	-56.770	-140.305	-8191	255	
1706.057	1	1	0	0	0.1455	0.086172	0.13828	0.14466	0.1575	0.14022	0.38595	0.19117	0.26964	0.13323	0.16374	0.26147	0.28092	0.30129	0.14246	0.063796	-0.975	-1.2	-1.5458	-0.84583	-1.4958	-1.4438	-0.81458	-1.9729	-1.1375	-1.0708	-1.8646	-0.925	-1.4125	-1.6187	-0.78333	-1.5729	63.307	163.681	11.889	-127.721	-152.455	-93.712	101.300	189.653	-89.923	-57.928	-67.732	145.568	-131.801	92.973	-31.976	-145.357	0.00045952	0.00073173	8.5311e-05	885.6	4.3665e-06	4.4377e-06	819.2	294.83	3.3717e-06	6.1474e-06	315.8	116.7	100.62	53.977	6.4138e-06	60.789	0.0014826	0.002043	0.00055924	939.5	2.2926e-05	2.2693e-05	843.12	304.38	2.2459e-05	2.3939e-05	326.55	122.16	106.54	56.49	2.3349e-05	63.761	-130.504	-45.934	-99.158	-155.247	8.566	-38.822	-156.246	-148.595	-39.861	-42.442	-150.825	-145.423	-143.307	-137.092	-49.426	-140.378	-8191	255	
1706.153	1	1	0	0	0.13872	0.20575	0.15644	0.098256	0.18844	0.43073	0.11699	0.16146	0.085131	0.2637	0.027802	0.24457	0.17321	0.18539	0.12004	0.045886	-0.57917	-0.75417	-1.5438	-0.80625	-1.3062	-1.5333	-0.875	-1.6542	-1.2667	-0.89375	-1.8792	-1.0292	-1.4479	-1.8208	-0.90208	-1.5958	-102.308	-97.465	1.236	111.570	-48.612	182.547	48.033	96.673	-90.928	-97.863	15.136	0.426	104.729	156.745	-153.753	115.686	0.00048839	0.00052835	6.979e-05	877.98	3.3024e-06	5.6047e-06	820.45	293.88	6.5864e-06	6.8745e-06	315.3	116.95	101.13	53.833	4.749e-06	61.137	0.0015551	0.0021246	0.00056973	934.91	2.239e-05	2.2103e-05	844.34	303.81	2.0796e-05	2.2084e-05	326.56	122.3	106.5	56.464	2.1487e-05	63.997	-135.572	-75.971	-40.524	-154.865	-19.665	8.442	-156.038	-148.723	-19.211	-27.283	-150.653	-145.123	-143.066	-137.001	-22.232	-140.486	-8191	255	
1706.249	1	1	0	0	0.12016	0.2013	0.29869	0.21094	0.042095	0.28227	0.23326	0.18148	0.23329	0.16704	0.2377	0.31959	0.071774	0.24748	0.13466	0.15141	-1.0688	-0.75	-1.825	-1.0125	-1	-1.8229	-0.96458	-1.3937	-1.1437	-0.68542	-1.8062	-1.1375	-1.0063	-1.8542	-0.88542	-1.5167	-114.476	128.467	67.895	-97.251	-74.734	-112.293	34.732	97.904	37.236	168.780	22.213	163.154	192.094	-141.413	-53.709	-129.746	0.00052563	0.00079717	0.00013122	880.78	4.9155e-06	4.5145e-06	824.46	293.6	2.5292e-06	4.6897e-06	314.75	117.11	100.29	53.67	3.6771e-06	61.114	0.0014528	0.0019797	0.00053852	935.44	2.1075e-05	2.0227e-05	846.15	302.67	1.8709e-05	2.0437e-05	326.01	121.85	105.39	56.078	1.9284e-05	63.752	-128.329	-74.051	-53.580	-155.123	-44.698	48.681	-155.953	-148.413	-10.694	8.906	-150.765	-145.200	-143.243	-136.877	-14.570	-140.306	-8191	255	
1706.345	1	1	0	0	0.13361	0.17306	0.094466	0.13579	0.12689	0.14693	0.23545	0.18345	0.28428	0.089049	0.15258	0.17675	0.10717	0.23891	0.066971	0.18007	-0.98333	-0.78542	-1.6396	-1.1792	-0.89792	-1.4396	-0.9125	-1.5667	-1.5229	-0.96042	-1.7062	-1.3	-1.0812	-1.8083	-0.92083	-1.3854	-89.495	-164.042	169.917	-34.015	-148.251	188.804	153.223	125.601	65.970	-81.079	31.327	20.572	-114.527	-128.414	177.505	128.971	0.00044332	0.00059693	0.00011797	883.83	5.0623e-06	8.0004e-06	832.4	291.36	6.2383e-06	6.3187e-06	315.08	116.35	99.702	53.496	3.7161e-06	60.601	0.0013236	0.0017981	0.00050081	932	1.936e-05	1.9139e-05	851.61	301.33	1.7466e-05	1.9036e-05	325.79	121.39	104.6	55.815	1.7987e-05	63.28	-133.217	-86.297	-104.119	-155.061	-5.111	-37.366	-156.143	-148.798	-21.646	-56.007	-150.636	-145.209	-143.209	-137.017	-67.845	-140.418	-8191	255	
1706.466	1	1	0	0	0.21289	0.24666	0.17895	0.21495	0.12737	0.12022	0.15374	0.16398	0.17378	0.13902	0.11428	0.22102	0.12033	0.22356	0.20843	0.29745	-1.2188	-0.7125	-1.4438	-1.2229	-0.98125	-1.8167	-1.0479	-1.2917	-1.5688	-0.80625	-1.6271	-1.4708	-0.99167	-1.9979	-0.93125	-1.275	90.900	116.928	99.525	156.536	-43.597	-110.362	-162.988	174.403	92.844	66.455	-161.189	50.508	107.861	-97.344	137.212	106.249	0.00048354	0.00052367	0.00021676	884.83	3.2546e-06	5.8648e-06	825.16	290.49	3.3705e-06	6.7957e-06	310.91	114.79	98.595	53.093	3.6573e-06	59.721	0.0012301	0.0016322	0.00045443	929.09	1.7693e-05	1.7726e-05	847.15	299.58	1.6224e-05	1.7785e-05	321.81	119.51	103.81	55.46	1.6841e-05	62.304	-131.111	-62.100	-41.035	-155.238	-39.224	-38.958	-156.323	-148.540	-81.493	-48.590	-150.655	-145.497	-143.509	-137.011	-54.010	-140.431	-8191	255	
1706.537	1	1	0	0	0.046086	0.12265	0.040857	0.13567	0.13743	0.20929	0.11078	0.29548	0.14281	0.28072	0.17319	0.069502	0.15672	0.37315	0.078889	0.15987	-1.5167	-0.82083	-1.5938	-1.3854	-0.90625	-1.6354	-1.0292	-1.4	-1.7104	-0.8625	-1.6646	-1.5375	-0.88958	-1.7833	-1.0125	-0.99375	-18.177	-27.451	132.983	155.970	-26.797	-157.989	-9.497	189.994	49.034	-35.158	-60.801	-76.773	-121.135	157.505	158.021	45.225	0.00048671	0.00050857	0.00016319	885.68	4.9497e-06	5.5647e-06	824.67	290.73	4.0038e-06	6.1141e-06	311.12	115.04	99.243	53.218	5.7193e-06	59.787	0.0012012	0.0016153	0.00044269	927.32	1.7595e-05	1.7555e-05	844.86	300	1.6781e-05	1.8053e-05	321.73	119.61	104.18	55.563	1.7622e-05	62.502	-130.051	-106.327	-85.887	-154.882	-20.385	6.345	-156.151	-148.689	-38.974	-25.499	-150.631	-145.442	-143.200	-137.147	9.376	-140.445	-8191	255	
1706.633	1	1	0	0	0.014528	0.042869	0.072478	0.19346	0.142	0.13854	0.24209	0.24209	0.28917	0.20884	0.18581	0.18008	0.36686	0.36527	0.35756	0.18464	-1.375	-0.8125	-1.3146	-1.4542	-0.95833	-1.675	-1.3062	-1.0583	-1.7458	-0.95	-1.3937	-1.7646	-0.9375	-1.7396	-1.3417	-0.92292	7.015	75.317	6.799	102.548	122.742	42.341	192.857	-142.996	188.115	91.796	48.650	173.417	-159.351	74.550	104.485	98.075	0.00047968	0.00031322	0.00015327	886.54	3.8185e-06	6.2196e-06	825.03	291.92	3.4688e-06	8.8988e-06	312.49	115.47	99.513	53.488	5.6173e-06	60.314	0.0012669	0.0017239	0.00047537	932.23	1.9159e-05	1.8984e-05	846.4	301.62	1.7671e-05	1.9078e-05	323.92	120.52	104.78	55.746	1.7871e-05	62.962	-131.440	-73.120	-62.531	-155.450	-20.014	-19.839	-156.236	-148.497	-26.762	-14.244	-150.453	-145.218	-143.275	-137.083	-59.034	-140.275	-8191	255	
1706.754	1	1	0	0	0.10866	0.3289	0.11033	0.24777	0.078501	0.045765	0.023987	0.20243	0.078735	0.24472	0.07116	0.38541	0.16707	0.27285	0.15829	0.19123	-1.3833	-0.92708	-1.0292	-1.5375	-0.86458	-1.5854	-1.3188	-1.0229	-1.6167	-1.0812	-1.2979	-1.5354	-0.94792	-1.5479	-1.4833	-1.0333	-145.124	20.289	29.105	96.113	71.431	145.012	-10.922	60.996	-41.626	68.123	-129.935	105.382	178.188	172.337	46.734	107.352	0.00046251	0.00030777	0.0001351	888.45	5.7019e-06	2.5311e-06	829.32	292.54	2.8093e-06	7.7391e-06	313.64	116.11	99.588	53.386	5.1636e-06	60.855	0.0012905	0.0017251	0.00047592	934.68	1.8594e-05	1.8587e-05	851.54	302.65	1.7535e-05	1.8542e-05	325.9	121.42	104.93	55.752	1.7442e-05	63.395	-132.347	-31.722	-70.976	-155.081	41.299	-18.111	-156.027	-148.786	-62.060	-3.502	-150.509	-145.351	-143.206	-136.825	-7.445	-140.094	-8191	255	
1706.848	1	1	0	0	0.12253	0.35234	0.16878	0.21487	0.14142	0.083632	0.22335	0.25149	0.10172	0.10263	0.3463	0.049216	0.30551	0.05879	0.072378	0.19028	-1.3354	-1.1437	-1.2208	-1.6625	-0.84167	-1.525	-1.6167	-0.89375	-1.6583	-1.2	-1.0896	-1.9312	-0.73125	-1.4813	-1.5854	-0.90625	-70.948	168.354	73.883	98.770	77.353	136.257	117.282	86.423	-130.719	-73.244	-112.333	-2.322	192.377	61.735	-68.438	5.209	0.00046488	0.00079374	0.00016868	891.5	5.1962e-06	6.6038e-06	833.72	293.22	3.5638e-06	5.2941e-06	315.18	116.12	99.936	53.238	4.9285e-06	60.121	0.0012865	0.0016522	0.00046428	934.61	1.8199e-05	1.8283e-05	853.17	302.87	1.7244e-05	1.8339e-05	326.04	121.1	104.97	55.668	1.8184e-05	62.663	-131.311	-102.471	-26.379	-154.917	4.373	-12.058	-156.194	-148.801	-25.977	0.825	-150.678	-145.158	-143.269	-136.972	-33.209	-140.348	-8191	255	
1706.945	1	1	0	0	0.31589	0.22088	0.2685	0.20136	0.13439	0.06232	0.11448	0.26826	0.084629	0.1032	0.17345	0.38649	0.020746	0.073334	0.071515	0.091161	-1.2958	-1.2188	-0.94375	-1.7771	-0.98333	-1.2896	-1.7583	-0.58542	-1.6271	-1.2667	-0.97083	-1.8438	-0.83958	-1.3354	-1.5854	-0.83333	4.889	113.610	-71.183	-35.196	12.058	-15.425	125.150	36.615	148.230	-43.390	167.585	176.223	-129.613	26.344	133.821	134.924	0.00047885	0.00026845	0.000174	883.54	4.4246e-06	3.786e-06	825.28	293.38	3.8085e-06	3.6523e-06	311.53	114.14	98.544	52.571	7.2719e-06	58.35	0.0013313	0.0017291	0.00048749	934.6	1.9367e-05	1.9696e-05	845.12	302.05	1.8262e-05	1.9048e-05	321.86	119.14	103.87	54.873	1.7928e-05	61.148	-134.290	-74.775	-48.173	-154.804	-14.142	17.363	-156.140	-148.686	-15.667	-30.017	-150.848	-145.384	-143.407	-136.977	-24.873	-140.491	-8191	255	
1707.041	1	1	0	0	0.24232	0.17445	0.16179	0.088154	0.022333	0.12785	0.063229	0.083419	0.090894	0.091183	0.082494	0.17319	0.1964	0.11044	0.10555	0.15047	-1.0812	-1.3438	-0.72917	-1.6667	-0.92917	-0.975	-1.7375	-0.96875	-1.4583	-1.5063	-0.71875	-1.725	-1.0875	-1.0521	-1.5583	-0.99167	132.934	-56.172	-10.690	109.269	-119.354	-165.194	121.069	137.781	40.715	-78.116	-126.420	-164.435	171.662	-148.386	156.399	110.847	0.00049133	0.00041696	0.00016932	883.52	5.813e-06	5.1044e-06	823.04	291.61	4.8736e-06	5.7719e-06	310.98	114.29	99.144	53.01	5.4338e-06	59.488	0.0013194	0.0017004	0.00048042	933	1.8767e-05	1.9256e-05	843.73	301	1.8384e-05	1.8928e-05	321.06	119.32	104.19	55.305	1.8293e-05	62.253	-133.214	-76.921	-63.812	-154.753	-7.151	-13.945	-156.237	-149.033	-35.401	-18.624	-151.234	-145.413	-143.631	-137.316	-37.406	-140.516	-8191	255	
1707.161	1	1	0	0	0.10192	0.065347	0.11847	0.10815	0.10722	0.30607	0.20917	0.21878	0.10401	0.20156	0.16859	0.1709	0.049616	0.23704	0.046031	0.015895	-1.0771	-1.45	-0.85833	-1.7208	-1.25	-1.0542	-1.8396	-0.88333	-1.375	-1.65	-0.80833	-1.5979	-1.2896	-0.92708	-1.8687	-1.0333	2.711	-124.551	-142.912	166.871	-93.846	-49.757	118.873	164.118	-158.260	-83.622	9.980	160.434	113.843	169.560	88.750	-127.045	0.00047588	0.00052326	0.00023085	882.88	4.9206e-06	7.0749e-06	822.96	292.02	4.2793e-06	3.0144e-06	314.36	116.45	99.899	53.779	5.5847e-06	60.786	0.0013091	0.0016836	0.00047963	929.77	1.8302e-05	1.8583e-05	845.12	301.14	1.7071e-05	1.7043e-05	324.18	121.44	104.85	56.168	1.6784e-05	63.711	-134.745	-91.190	-73.985	-155.130	-22.666	-32.750	-156.529	-149.152	-24.623	-124.912	-150.753	-145.358	-143.307	-137.111	-40.431	-140.544	-8191	255	
1707.233	1	1	0	0	0.32306	0.041298	0.2731	0.21471	0.11793	0.19053	0.10642	0.29091	0.11417	0.033073	0.1849	0.07816	0.21306	0.24889	0.088298	0.22853	-0.80833	-1.6562	-0.70625	-1.5396	-1.2604	-0.95	-1.5354	-1.0625	-1.0792	-1.6104	-0.95208	-1.4479	-1.5354	-0.8625	-1.6479	-1.2521	-165.636	-28.432	38.017	-6.312	82.705	154.679	124.988	123.763	64.743	7.027	149.110	-54.773	144.469	-156.280	156.580	131.774	0.00049826	0.00050698	0.00017533	888.02	5.2285e-06	3.3962e-06	825.7	290.91	4.5486e-06	6.0022e-06	316.04	117.28	100.54	54.786	4.2653e-06	61.763	0.0012144	0.0015398	0.00043086	929.51	1.6183e-05	1.6674e-05	848.68	300.97	1.5054e-05	1.5576e-05	326.11	122.34	105.56	57.219	1.633e-05	64.456	-130.115	-73.778	-68.360	-155.362	-13.578	-58.047	-156.397	-148.968	-24.775	-21.577	-151.045	-145.382	-143.720	-137.211	-44.209	-140.780	-8191	255	
1707.329	1	1	0	0	0.030312	0.20991	0.027231	0.26695	0.13415	0.13219	0.15306	0.44507	0.18806	0.072176	0.16763	0.12553	0.20662	0.15494	0.163	0.2926	-0.50417	-1.5479	-0.93958	-1.3479	-1.4771	-0.84792	-1.8146	-1.1458	-0.81667	-1.7854	-0.89375	-1.4438	-1.5146	-0.86875	-1.6125	-1.2083	-150.913	-82.532	-127.417	55.863	-10.421	86.351	39.201	160.992	68.118	-34.814	118.269	173.371	-139.318	157.675	-135.677	171.629	0.0004969	0.00021542	9.8241e-05	873.98	3.3253e-06	4.4217e-06	824.27	293.26	4.0895e-06	4.1318e-06	316.84	118.04	100.16	54.463	3.9804e-06	61.893	0.0012037	0.001537	0.00044046	925.23	1.682e-05	1.7924e-05	845.62	302.07	1.7246e-05	1.8416e-05	326.19	122.84	106.02	57.114	1.9218e-05	64.59	-131.364	-56.298	-71.165	-155.217	-38.519	-33.787	-156.229	-149.177	-24.715	-20.055	-150.973	-145.600	-143.746	-137.135	-57.462	-140.920	-8191	255	
1707.450	1	1	0	0	0.15461	0.085099	0.17619	0.13511	0.22174	0.30972	0.092276	0.21146	0.22985	0.13772	0.18112	0.16677	0.31429	0.10009	0.13234	0.038089	-0.69167	-1.5917	-0.95208	-1.4292	-1.6917	-0.55833	-1.8	-1.3604	-0.95625	-1.6812	-1.0104	-1.2583	-1.6333	-0.8375	-1.3771	-1.3125	126.987	107.789	10.197	41.415	-28.256	52.666	-108.946	40.824	-85.373	-53.159	-88.032	-90.413	105.558	-133.733	-122.951	-98.212	0.00051066	0.00041016	0.00021382	878.06	5.3975e-06	4.2085e-06	822.43	294.11	1.7729e-06	5.504e-06	316.12	118.96	101.96	54.98	4.9855e-06	62.076	0.0014177	0.0018822	0.00055341	935.45	2.1565e-05	2.3373e-05	843.98	304.2	2.2468e-05	2.4215e-05	328.76	124.2	107.8	57.776	2.431e-05	65.115	-137.430	-49.892	-46.977	-154.954	-16.335	2.691	-156.225	-148.972	-71.130	-8.871	-151.035	-145.502	-143.656	-137.377	-40.403	-140.679	-8191	255	
1707.546	1	1	0	0	0.14099	0.15171	0.21079	0.35612	0.19329	0.023433	0.31834	0.14428	0.15797	0.114	0.18581	0.11378	0.17632	0.34536	0.19559	0.29206	-0.44167	-1.6542	-0.91875	-1.0521	-1.6	-0.64583	-1.55	-1.4562	-0.86042	-1.5688	-1.125	-1.1042	-1.5708	-1.0917	-1.4188	-1.6583	-121.860	-122.496	-2.086	-107.050	179.353	-101.429	164.982	-159.476	153.861	76.343	-117.541	83.143	73.366	87.384	-10.551	124.271	0.00056446	0.00040706	0.00024065	874.89	3.7885e-06	6.9969e-06	823.12	295.55	3.5083e-06	2.5522e-06	317.71	119.49	102.44	55.237	3.4791e-06	62.709	0.0017007	0.0022736	0.00063951	944.94	2.4983e-05	2.6284e-05	848.24	306.35	2.4244e-05	2.6165e-05	331.1	125.03	108.42	58.036	2.5355e-05	65.862	-127.665	-62.856	-97.987	-155.692	62.558	3.446	-156.031	-149.077	-4.365	1.859	-151.053	-145.331	-143.672	-137.474	-1.003	-140.643	-8191	255	
1707.642	1	1	0	0	0.17291	0.039333	0.13671	0.29147	0.12348	0.10947	0.16936	0.2219	0.19786	0.34521	0.17142	0.35095	0.072468	0.35729	0.17278	0.17253	-0.56875	-1.5167	-0.95833	-0.88125	-1.5375	-0.85625	-1.3937	-1.7437	-0.94375	-1.4667	-1.0417	-0.95	-1.7563	-1.0771	-1.1437	-1.7125	155.667	192.069	84.979	154.918	-109.271	-91.333	73.582	143.771	-118.201	25.157	124.829	108.237	-143.673	-161.249	20.796	59.464	0.0004962	0.00083687	0.000193	876.94	4.1488e-06	9.2653e-06	825.29	297.54	2.8157e-06	4.7079e-06	321.56	120.4	103.4	56.051	6.3901e-06	63.958	0.0017544	0.0024216	0.00067386	949.54	2.6411e-05	2.7461e-05	848.52	308.35	2.5994e-05	2.7271e-05	334.34	126.46	109.53	58.711	2.6356e-05	66.841	-134.110	-109.158	-97.103	-155.154	-13.490	-5.771	-156.224	-148.850	-40.445	-59.915	-150.763	-145.590	-143.587	-137.221	-58.491	-140.882	-8191	255	
1707.761	1	1	0	0	0.31319	0.082845	0.17503	0.2488	0.30996	0.29073	0.26559	0.27646	0.14319	0.14945	0.16894	0.31982	0.22518	0.047312	0.23814	0.091927	-0.44792	-1.5667	-1.3792	-0.79583	-1.7521	-0.875	-1.1437	-1.7458	-0.61042	-1.3542	-1.4917	-0.86667	-1.9083	-1.1375	-1.0812	-1.7229	-49.327	95.821	-92.215	-26.242	-145.945	32.703	97.165	-62.832	-106.369	51.750	99.919	64.036	-19.766	-156.914	58.851	32.588	0.00052523	0.00033328	0.00014339	883.93	3.8024e-06	5.1331e-06	821.77	297.34	4.7329e-06	5.578e-06	318.63	119.09	102.8	55.579	2.7879e-06	62.77	0.0018042	0.002468	0.00066016	951.78	2.5922e-05	2.6005e-05	846.21	308.59	2.4603e-05	2.6046e-05	331.41	125.24	108.92	58.254	2.5149e-05	65.795	-136.010	-106.042	-63.647	-154.946	9.590	-47.381	-156.202	-149.126	-31.188	-6.651	-150.887	-145.435	-143.502	-137.335	-12.895	-140.855	-8191	255	
1707.833	1	1	0	0	0.1517	0.26626	0.19968	0.23757	0.14103	0.23843	0.20311	0.14774	0.038874	0.20586	0.11912	0.28704	0.054676	0.13776	0.15431	0.38775	-0.32708	-1.1958	-1.3333	-0.70625	-1.6146	-1.0667	-1	-1.7167	-0.78333	-1.3312	-1.5375	-0.84375	-1.5625	-1.1604	-0.94792	-1.7167	0.823	7.710	113.216	79.219	-66.899	-139.720	153.988	78.900	-78.862	1.559	139.826	131.106	41.829	165.568	106.724	99.480	0.00048714	0.0003779	0.00014984	884.78	4.183e-06	6.4307e-06	817.54	295.2	3.1809e-06	2.4126e-06	317.38	118.83	102.1	55.434	1.4071e-06	62.833	0.0017267	0.0023764	0.0006338	946.15	2.4955e-05	2.509e-05	841.11	306.79	2.3223e-05	2.4705e-05	329.43	124.69	108.16	58.089	2.3486e-05	65.758	-133.526	-86.045	-63.087	-155.231	7.432	-15.884	-156.186	-148.537	-84.619	-65.439	-151.072	-145.755	-143.463	-137.482	46.841	-140.875	-8191	255	
1707.929	1	1	0	0	0.21547	0.12437	0.22919	0.09786	0.10815	0.095634	0.2703	0.086354	0.11668	0.10087	0.1989	0.19726	0.05985	0.34502	0.19319	0.23647	-0.38125	-1.3687	-1.3104	-0.79375	-1.6458	-1.2208	-0.99375	-1.8375	-0.97083	-1.4771	-1.7604	-0.9375	-1.5521	-1.375	-0.8375	-1.7771	-21.173	-56.532	171.136	103.507	165.370	159.625	134.419	-158.154	-161.873	55.501	-73.133	-150.580	-68.239	-94.218	50.104	137.455	0.00049251	0.00059055	0.00014007	880.18	6.8084e-06	2.9418e-06	817.53	294.81	5.674e-06	5.0927e-06	316.44	117.75	101.29	54.784	5.8128e-06	62.034	0.0016187	0.0021767	0.00059189	940.22	2.3442e-05	2.2924e-05	841.12	305.27	2.0857e-05	2.2129e-05	328.61	123.62	106.82	57.353	1.9824e-05	64.796	-128.441	-86.569	-61.143	-155.026	-3.938	32.865	-156.173	-148.993	8.403	-18.645	-150.949	-145.595	-143.526	-137.554	-46.127	-140.617	-8191	255	
1708.025	1	1	0	0	0.18289	0.1771	0.047983	0.15873	0.11029	0.22127	0.032009	0.054337	0.22395	0.12155	0.41081	0.24799	0.14254	0.2884	0.1017	0.18106	-0.53333	-1.1562	-1.5	-0.74167	-1.5187	-1.25	-0.90833	-1.7	-1.1458	-1.1333	-1.6646	-0.90833	-1.5104	-1.4813	-0.68958	-1.8271	-31.861	-67.452	-129.361	141.333	-66.468	37.505	81.289	-48.716	-141.368	36.392	132.440	84.656	-142.981	137.051	-97.740	101.977	0.00050876	0.00051888	0.00012813	872.46	2.9849e-06	2.7439e-06	823.31	291.72	3.659e-06	4.7317e-06	312.78	116.22	99.077	53.303	3.5446e-06	59.763	0.0013486	0.0018105	0.00048437	929.55	1.9699e-05	1.9207e-05	844.93	301.9	1.8164e-05	1.8997e-05	325.03	121.15	104.22	55.597	1.5539e-05	62.585	-131.236	-115.942	-97.768	-155.076	-41.562	-20.868	-156.394	-148.904	-33.612	-66.142	-150.737	-145.478	-143.583	-137.247	-30.753	-140.787	-8191	255	
1708.123	1	1	0	0	0.23742	0.049351	0.27688	0.31501	0.10042	0.19066	0.13747	0.26903	0.10713	0.14193	0.20752	0.2519	0.23194	0.10858	0.17409	0.20831	-0.52708	-1.0958	-1.6771	-1.0063	-1.4813	-1.4375	-0.98333	-1.575	-1.2375	-0.93125	-1.7563	-0.85625	-1.2167	-1.4937	-0.65417	-1.8146	1.202	-68.392	111.715	185.549	75.573	72.078	120.202	146.693	-84.138	-54.733	174.083	154.349	-164.363	-129.658	-44.213	103.495	0.00051266	0.00038146	0.0001218	894.05	4.2881e-06	3.5e-06	838.39	288.87	3.5375e-06	5.6085e-06	310.3	112.21	95.755	50.501	5.2389e-06	57.004	0.0010609	0.0013161	0.0003469	925.19	1.2877e-05	1.2459e-05	856.03	297.14	1.1385e-05	1.1947e-05	319.17	116.28	100.2	52.408	1.1431e-05	59.4	-131.791	-120.575	-100.380	-155.326	-4.286	-40.551	-156.909	-149.217	-31.179	-5.549	-150.855	-145.468	-143.453	-137.399	-44.557	-140.273	-8191	255	
1708.242	1	1	0	0	0.15063	0.15802	0.20609	0.18745	0.24854	0.09171	0.16419	0.34557	0.097378	0.074111	0.44118	0.26922	0.37028	0.22941	0.35351	0.12985	-0.9	-0.92917	-1.6875	-0.79375	-1.3958	-1.525	-0.79375	-1.5562	-1.2542	-0.81042	-1.9312	-1.2396	-1.2375	-1.7604	-0.74167	-1.5104	104.688	18.937	173.751	174.022	29.700	-128.069	130.247	131.405	45.803	-12.562	-133.002	155.460	-110.183	139.284	47.862	56.648	0.00047317	0.00034661	9.2778e-05	889.81	3.2734e-06	6.1515e-06	833.7	287.34	4.6147e-06	6.0532e-06	304.39	109.11	94.509	48.812	4.6867e-06	54.537	0.00084197	0.0010428	0.00028479	921.87	1.136e-05	1.1326e-05	852.58	295.09	1.0867e-05	1.187e-05	313.67	113.02	98.677	50.747	1.1502e-05	56.655	-134.459	-77.705	-77.249	-156.002	-2.472	1.054	-156.759	-149.204	-28.206	-3.220	-151.045	-145.829	-143.590	-137.287	-35.863	-140.495	-8191	255	
1708.338	1	1	0	0	0.27877	0.052962	0.042799	0.30049	0.12123	0.2259	0.053046	0.1299	0.075509	0.080623	0.24443	0.18794	0.17013	0.23466	0.25871	0.34349	-0.88958	-0.70417	-1.7458	-1.1313	-1.0646	-1.7208	-0.98125	-1.5187	-1.5312	-0.675	-1.6979	-1.1354	-1.0688	-1.7104	-0.75208	-1.3896	-112.343	174.959	117.218	156.814	-88.585	5.816	-31.531	139.679	72.942	69.844	106.817	139.379	153.659	-92.599	128.750	121.731	0.00042989	0.00036019	0.00013455	886.04	2.7998e-06	4.4695e-06	827.37	287.84	3.6714e-06	4.0092e-06	304.75	109.12	95.193	49.549	2.9181e-06	55.224	0.0008576	0.0010847	0.00030267	921.31	1.2319e-05	1.2079e-05	846.96	296.22	1.1812e-05	1.2791e-05	313.78	113.75	99.692	51.428	1.2836e-05	57.639	-135.225	-62.585	-49.041	-155.486	-22.268	10.635	-156.669	-149.271	-53.956	-18.826	-151.149	-145.745	-143.569	-137.104	-16.594	-140.530	-8191	255	
1708.434	1	1	0	0	0.13869	0.020296	0.10037	0.088022	0.16744	0.18523	0.19252	0.26323	0.12737	0.017598	0.091749	0.27364	0.053953	0.24302	0.19263	0.18233	-1.0562	-0.77708	-1.5958	-1.3687	-0.94792	-1.6187	-0.95	-1.4646	-1.9	-0.71458	-1.7062	-1.3917	-1.0583	-1.8896	-0.95208	-1.2125	-166.027	-95.482	-18.361	-44.180	130.451	164.475	-23.180	170.804	67.416	56.432	-135.727	155.716	191.796	-150.252	-28.222	37.790	0.00045077	0.00046788	0.00016847	897.27	4.0937e-06	7.235e-06	833.83	289.54	4.1907e-06	5.7763e-06	307.54	110.48	96.47	49.691	4.1199e-06	56.054	0.00092911	0.0011768	0.0003243	924.78	1.2916e-05	1.2963e-05	848.9	297.57	1.2316e-05	1.3653e-05	317.3	115.08	100.87	51.855	1.3876e-05	58.39	-130.680	-58.782	-47.763	-155.750	-13.606	-33.507	-156.755	-149.164	-14.892	-37.996	-151.070	-145.703	-143.755	-137.363	-25.674	-140.416	-8191	255	
1708.530	1	1	0	0	0.14107	0.05519	0.32703	0.12339	0.15274	0.15992	0.11946	0.30051	0.24363	0.12938	0.10448	0.061744	0.30518	0.37505	0.15906	0.38479	-1.3458	-0.76042	-1.4917	-1.3708	-0.71042	-1.5167	-1.3292	-1.2167	-1.55	-0.87917	-1.55	-1.5583	-0.95625	-1.6771	-1.0792	-1.2771	152.451	-57.060	-120.433	132.285	-16.975	150.128	156.554	148.047	-21.913	-134.662	-1.136	19.797	-68.277	141.510	-131.703	163.527	0.00044419	0.00076855	0.00012854	882.65	3.0653e-06	5.2907e-06	831.06	289.6	3.8677e-06	4.1465e-06	311.02	111.58	97.445	50.337	4.7122e-06	57.313	0.001022	0.0013454	0.00038046	927.3	1.5286e-05	1.543e-05	849.62	299.09	1.4975e-05	1.6264e-05	320.28	116.49	101.9	52.502	1.6301e-05	59.599	-127.964	-70.252	-38.831	-155.310	-44.058	-25.093	-156.790	-148.938	-15.304	-53.449	-150.974	-145.693	-143.553	-137.227	-24.152	-140.394	-8191	255	
1708.626	1	1	0	0	0.19276	0.11732	0.14747	0.13973	0.071283	0.11092	0.38857	0.10306	0.16746	0.1424	0.14214	0.2286	0.31477	0.034254	0.30316	0.17744	-1.3375	-0.81042	-1.4021	-1.3979	-0.72708	-1.5729	-1.3229	-1.1437	-1.5417	-0.96667	-1.475	-1.7083	-0.80208	-1.6688	-1.3188	-1.0021	-72.933	152.501	4.037	58.297	-50.583	0.944	108.036	-114.105	-160.131	83.311	62.468	139.011	170.854	132.421	178.560	169.833	0.00043778	0.00038608	0.00014108	884.46	4.7183e-06	3.2985e-06	828.93	291.89	4.4526e-06	5.3739e-06	310.67	112.31	96.817	50.251	4.7448e-06	56.97	0.0011845	0.0015935	0.00044313	931.28	1.6911e-05	1.7188e-05	851.3	300.34	1.5453e-05	1.6144e-05	321.31	117.18	101.63	52.302	1.4856e-05	59.346	-135.704	-78.974	-64.488	-155.390	-25.368	18.511	-156.323	-149.091	-6.327	-3.007	-150.857	-145.754	-143.552	-137.037	-50.932	-140.289	-8191	255	
1708.723	1	1	0	0	0.14409	0.26513	0.24289	0.2955	0.082809	0.15571	0.16289	0.27666	0.31306	0.0078467	0.08054	0.10141	0.33215	0.60469	0.048129	0.38718	-1.3479	-0.99375	-1.1854	-1.5333	-0.75417	-1.7333	-1.3854	-0.83125	-1.625	-0.875	-1.1958	-1.65	-0.60833	-1.6354	-1.3583	-0.91458	89.349	30.135	-3.722	-159.535	50.582	-1.840	141.120	133.301	-34.320	169.448	110.822	-159.685	145.091	165.348	-136.657	114.568	0.00043986	0.00054115	0.00018231	890.83	3.7822e-06	8.062e-06	830.18	290.38	3.5871e-06	6.9208e-06	307.6	109.36	94.886	48.86	5.1212e-06	54.55	0.0010649	0.0013506	0.00037628	929.79	1.4321e-05	1.4666e-05	849.97	297.86	1.3139e-05	1.3755e-05	316.07	113.68	99.19	50.769	1.2546e-05	56.709	-130.921	-83.813	-51.907	-155.226	-32.879	-20.507	-156.669	-149.000	-60.530	-2.899	-151.150	-145.672	-143.826	-137.236	-10.994	-140.663	-8191	255	
1708.841	1	1	0	0	0.1066	0.13923	0.1283	0.066546	0.21306	0.15051	0.31842	0.28274	0.079441	0.036874	0.30363	0.086126	0.092609	0.31656	0.1411	0.41366	-1.2375	-0.86875	-1.1375	-1.7437	-0.69375	-1.5896	-1.4813	-0.66875	-1.6979	-1.0396	-0.95833	-1.7271	-0.88958	-1.5312	-1.3708	-0.88542	-79.896	-54.578	80.021	-43.828	-17.044	28.876	150.930	-110.433	-103.858	36.022	185.089	126.624	-11.575	144.422	40.022	115.601	0.00045207	0.00066123	0.00020178	887.51	4.6166e-06	5.6123e-06	830.19	286.29	1.0363e-06	3.5857e-06	302.36	107.61	93.928	48.025	3.0646e-06	53.622	0.00093968	0.0011869	0.00033477	921.43	1.2989e-05	1.3178e-05	844.41	294.39	1.236e-05	1.3083e-05	311.54	111.88	98.106	49.94	1.2043e-05	55.786	-130.891	-95.115	-67.645	-155.358	-26.958	9.731	-156.532	-148.973	-54.608	-42.191	-151.056	-145.546	-143.722	-137.043	-47.880	-140.452	-8191	255	
1708.938	1	1	0	0	0.19796	0.17703	0.14343	0.065621	0.10529	0.096871	0.24418	0.2012	0.25061	0.10163	0.11322	0.058517	0.065083	0.012404	0.20103	0.11845	-1.0917	-1.1042	-0.78958	-1.8208	-0.71875	-1.2479	-1.6479	-0.93542	-1.4979	-1.3	-0.97292	-1.95	-0.93333	-1.3813	-1.5896	-0.98542	54.599	26.037	23.107	45.142	-61.826	58.158	-153.822	163.692	-74.761	-137.630	3.230	113.359	-103.859	86.473	-83.186	-61.565	0.00041863	0.00082238	0.00017586	888.9	5.4079e-06	5.0561e-06	825.61	285.92	3.1818e-06	5.7733e-06	301.11	106.71	93.387	47.609	6.2256e-06	53.409	0.000912	0.0010997	0.00031348	920.69	1.2185e-05	1.2457e-05	843.69	293.12	1.1939e-05	1.2042e-05	310.23	110.89	97.477	49.427	1.1208e-05	55.329	-133.775	-88.401	-83.572	-155.844	-1.469	14.080	-157.004	-149.385	-43.570	-7.319	-150.966	-145.509	-143.982	-137.274	-13.206	-140.598	-8191	255	
1709.034	1	1	0	0	0.14475	0.22805	0.14053	0.3553	0.14885	0.16399	0.098071	0.28528	0.10574	0.19679	0.11733	0.094655	0.067175	0.22163	0.20954	0.29136	-1.2229	-1.4917	-0.65208	-1.6042	-0.75833	-1.2062	-1.6729	-1.025	-1.5333	-1.3958	-0.84167	-1.9208	-1.0979	-1.0333	-1.8625	-0.92292	-6.725	108.594	131.440	-13.344	140.201	187.757	-80.945	98.434	-57.773	49.468	117.125	78.210	-85.612	109.843	186.573	157.330	0.00041016	0.00051514	0.00016175	884.13	4.1799e-06	6.1385e-06	830.99	284.83	5.5987e-06	7.6232e-06	302.67	106.84	92.363	47.126	4.487e-06	53.216	0.00083576	0.0010067	0.00028095	917.37	1.0862e-05	1.0987e-05	847.81	292.59	1.0521e-05	1.0618e-05	311.19	110.85	96.429	49.024	1.0429e-05	55.204	-134.397	-65.497	-61.894	-155.056	-23.362	-32.887	-156.649	-149.451	-40.598	-15.143	-151.170	-145.993	-143.809	-137.116	-34.099	-140.464	-8191	255	
1709.130	1	1	0	0	0.11988	0.15793	0.23465	0.20199	0.11225	0.17385	0.060586	0.21324	0.1697	0.23275	0.36094	0.25175	0.36161	0.10696	0.12437	0.23129	-1.3292	-1.4521	-0.85625	-1.8083	-0.95833	-1.0604	-1.7146	-0.9125	-1.5521	-1.8375	-0.84375	-1.6417	-1.3854	-0.99167	-1.6375	-0.91458	186.226	76.736	79.328	-19.963	-44.389	53.805	63.319	-2.332	25.567	-167.278	93.388	172.467	-154.706	-15.071	187.570	48.308	0.00041838	0.00032114	8.6361e-05	886.32	2.4246e-06	7.8559e-06	833.24	283.42	3.7817e-06	4.1181e-06	303.44	106.26	91.873	46.49	2.5867e-06	52.383	0.00080131	0.00095082	0.00026125	918.82	1.0318e-05	1.0474e-05	852.33	291.34	9.7368e-06	9.8627e-06	311.43	110.33	95.885	48.325	9.2886e-06	54.594	-135.788	-68.056	-84.146	-155.560	-49.353	-1.145	-156.582	-149.401	-10.670	0.809	-151.268	-145.681	-144.034	-136.959	-38.838	-140.599	-8191	255	
#DATA ENDS
