BOXY.EXE: ISS Imagent and Oximeter Data Acquisition Program Version 0.80
Ascii Record File

#ACQ INFORMATION
2  Detector Channels 
16  External MUX Channels 
1  Auxiliary Channels 
5000  Waveform (CCF) Frequency (Hz)
1  Waveforms Skipped 
30  Waveforms Averaged 
1  Cycles Averaged 
16  Acquisitions per Waveform 
10.0806  Updata Rate (Hz) 

#FILE INFORMATION
TRUE -- External MUX Channel results are PARSED.
FALSE -- AC DC and Phase are NOT grouped.
TRUE -- Companion Program Settings File CREATED.
FALSE -- AC data not excluded
FALSE -- DC data not excluded
FALSE -- Phase data not excluded
FALSE -- Auxillary Chn. data not excluded
Tab delimiters

#CALIBRATION STATE
TRUE -- Waveform Calibration Values APPLIED.


#AUX CALIBRATION VALUES
Val Type	aux-1	

Term	1.0000e+00	
Factor	0.0000e+00	


#WF CALIBRATION VALUES
A = Detector Channel
Val Type	A-AC1	A-AC2	A-AC3	A-AC4	A-AC5	A-AC6	A-AC7	A-AC8	A-AC9	A-AC10	A-AC11	A-AC12	A-AC13	A-AC14	A-AC15	A-AC16	A-DC1	A-DC2	A-DC3	A-DC4	A-DC5	A-DC6	A-DC7	A-DC8	A-DC9	A-DC10	A-DC11	A-DC12	A-DC13	A-DC14	A-DC15	A-DC16	A-Ph1	A-Ph2	A-Ph3	A-Ph4	A-Ph5	A-Ph6	A-Ph7	A-Ph8	A-Ph9	A-Ph10	A-Ph11	A-Ph12	A-Ph13	A-Ph14	A-Ph15	A-Ph16	

Term	0.00000e+00	0.00000e+00	0.00000e+00	0.00000e+00	0.00000e+00	0.00000e+00	0.00000e+00	0.00000e+00	0.00000e+00	0.00000e+00	0.00000e+00	0.00000e+00	0.00000e+00	0.00000e+00	0.00000e+00	0.00000e+00	0.00000e+00	0.00000e+00	0.00000e+00	0.00000e+00	0.00000e+00	0.00000e+00	0.00000e+00	0.00000e+00	0.00000e+00	0.00000e+00	0.00000e+00	0.00000e+00	0.00000e+00	0.00000e+00	0.00000e+00	0.00000e+00	0.00000e+00	0.00000e+00	0.00000e+00	0.00000e+00	0.00000e+00	0.00000e+00	0.00000e+00	0.00000e+00	0.00000e+00	0.00000e+00	0.00000e+00	0.00000e+00	0.00000e+00	0.00000e+00	0.00000e+00	0.00000e+00	
Factor	1.00000e+00	1.00000e+00	1.00000e+00	1.00000e+00	1.00000e+00	1.00000e+00	1.00000e+00	1.00000e+00	1.00000e+00	1.00000e+00	1.00000e+00	1.00000e+00	1.00000e+00	1.00000e+00	1.00000e+00	1.00000e+00	1.00000e+00	1.00000e+00	1.00000e+00	1.00000e+00	1.00000e+00	1.00000e+00	1.00000e+00	1.00000e+00	1.00000e+00	1.00000e+00	1.00000e+00	1.00000e+00	1.00000e+00	1.00000e+00	1.00000e+00	1.00000e+00	X	X	X	X	X	X	X	X	X	X	X	X	X	X	X	X	

B = Detector Channel
Val Type	B-AC1	B-AC2	B-AC3	B-AC4	B-AC5	B-AC6	B-AC7	B-AC8	B-AC9	B-AC10	B-AC11	B-AC12	B-AC13	B-AC14	B-AC15	B-AC16	B-DC1	B-DC2	B-DC3	B-DC4	B-DC5	B-DC6	B-DC7	B-DC8	B-DC9	B-DC10	B-DC11	B-DC12	B-DC13	B-DC14	B-DC15	B-DC16	B-Ph1	B-Ph2	B-Ph3	B-Ph4	B-Ph5	B-Ph6	B-Ph7	B-Ph8	B-Ph9	B-Ph10	B-Ph11	B-Ph12	B-Ph13	B-Ph14	B-Ph15	B-Ph16	

Term	0.00000e+00	0.00000e+00	0.00000e+00	0.00000e+00	0.00000e+00	0.00000e+00	0.00000e+00	0.00000e+00	0.00000e+00	0.00000e+00	0.00000e+00	0.00000e+00	0.00000e+00	0.00000e+00	0.00000e+00	0.00000e+00	0.00000e+00	0.00000e+00	0.00000e+00	0.00000e+00	0.00000e+00	0.00000e+00	0.00000e+00	0.00000e+00	0.00000e+00	0.00000e+00	0.00000e+00	0.00000e+00	0.00000e+00	0.00000e+00	0.00000e+00	0.00000e+00	-1.01651e+02	-1.31598e+02	-1.20738e+02	-1.91400e+02	-6.33302e+01	-6.26078e+01	-1.55998e+02	-1.62015e+02	-5.85124e+01	-6.34004e+01	-1.71242e+02	-1.69256e+02	-1.82252e+02	-1.76911e+02	-6.36124e+01	-1.48894e+02	
Factor	1.65450e-05	1.63506e-04	4.61476e-05	7.96256e-01	1.42743e-06	1.71502e-06	1.68508e-01	5.36599e-02	1.14399e-06	1.82088e-06	9.19581e-02	2.79579e-02	3.18351e-02	9.46751e-03	1.44351e-06	1.32714e-02	9.20689e-06	1.42985e-05	3.97790e-06	4.00663e-01	1.55516e-07	1.58660e-07	8.09809e-02	2.75310e-02	1.46786e-07	1.58617e-07	4.56486e-02	1.40073e-02	1.65838e-02	4.88813e-03	1.51075e-07	6.63547e-03	X	X	X	X	X	X	X	X	X	X	X	X	X	X	X	X	



#DISTANCE SETTINGS
A = Detector Channel
A-1	A-2	A-3	A-4	A-5	A-6	A-7	A-8	A-9	A-10	A-11	A-12	A-13	A-14	A-15	A-16	

2.5000e+00	3.0000e+00	2.5000e+00	3.0000e+00	2.0000e+00	3.0000e+00	1.5000e+00	3.0000e+00	3.0000e+00	3.0000e+00	3.0000e+00	3.0000e+00	3.0000e+00	3.0000e+00	1.5000e+00	3.0000e+00	

B = Detector Channel
B-1	B-2	B-3	B-4	B-5	B-6	B-7	B-8	B-9	B-10	B-11	B-12	B-13	B-14	B-15	B-16	

1.0000e+01	1.0000e+01	1.0000e+01	1.4400e+00	1.0000e+01	1.0000e+01	1.5100e+00	1.9400e+00	1.0000e+01	1.0000e+01	1.9900e+00	2.4900e+00	2.4100e+00	2.9000e+00	1.0000e+01	2.9800e+00	




#DATA BEGINS
time	group	step	mark	flag	A-AC1	A-AC2	A-AC3	A-AC4	A-AC5	A-AC6	A-AC7	A-AC8	A-AC9	A-AC10	A-AC11	A-AC12	A-AC13	A-AC14	A-AC15	A-AC16	A-DC1	A-DC2	A-DC3	A-DC4	A-DC5	A-DC6	A-DC7	A-DC8	A-DC9	A-DC10	A-DC11	A-DC12	A-DC13	A-DC14	A-DC15	A-DC16	A-Ph1	A-Ph2	A-Ph3	A-Ph4	A-Ph5	A-Ph6	A-Ph7	A-Ph8	A-Ph9	A-Ph10	A-Ph11	A-Ph12	A-Ph13	A-Ph14	A-Ph15	A-Ph16	B-AC1	B-AC2	B-AC3	B-AC4	B-AC5	B-AC6	B-AC7	B-AC8	B-AC9	B-AC10	B-AC11	B-AC12	B-AC13	B-AC14	B-AC15	B-AC16	B-DC1	B-DC2	B-DC3	B-DC4	B-DC5	B-DC6	B-DC7	B-DC8	B-DC9	B-DC10	B-DC11	B-DC12	B-DC13	B-DC14	B-DC15	B-DC16	B-Ph1	B-Ph2	B-Ph3	B-Ph4	B-Ph5	B-Ph6	B-Ph7	B-Ph8	B-Ph9	B-Ph10	B-Ph11	B-Ph12	B-Ph13	B-Ph14	B-Ph15	B-Ph16	aux-1	digaux	

1544.272	1	1	0	768	0.26401	0.23733	0.16602	0.26356	0.14462	0.33822	0.20121	0.25878	0.13491	0.13932	0.4132	0.14067	0.31683	0.1841	0.32229	0.1661	-1.1479	-1.1833	-0.58125	-1.7313	-0.73333	-1.4833	-1.5375	-0.83958	-1.4354	-1.3292	-0.84583	-1.9021	-0.91875	-1.2167	-1.4583	-0.82917	21.681	-151.405	-140.583	39.252	-143.676	30.429	152.843	36.017	-49.945	66.165	109.272	-61.750	-35.718	99.442	85.330	-31.261	0.00017371	0.00042028	0.00012099	390.21	2.2616e-06	2.1732e-06	326.35	136.15	1.8995e-06	2.6138e-06	138.13	46.582	43.02	19.397	3.3209e-06	19.876	0.00075612	0.0010843	0.00030866	446.97	1.2409e-05	1.2292e-05	354.81	147.98	1.1842e-05	1.2767e-05	151.23	51.336	47.881	21.385	1.2405e-05	22.036	-133.163	-123.223	-80.823	-164.653	6.460	7.776	-166.543	-159.401	-52.285	-41.660	-161.816	-157.212	-154.922	-149.483	-50.231	-152.197	-8191	255	
1544.369	1	1	0	0	0.049975	0.053156	0.1843	0.14846	0.18864	0.15502	0.22806	0.29339	0.12515	0.32524	0.099053	0.15976	0.17983	0.28186	0.13627	0.20632	-1.1542	-1.3646	-0.91667	-1.6604	-0.97708	-1.175	-1.5688	-0.76667	-1.4562	-1.3875	-0.53125	-1.7021	-1.0438	-0.8625	-1.6146	-0.80208	174.355	-106.596	-31.618	112.886	62.419	0.041	110.062	114.367	-69.579	-159.952	168.710	23.265	72.879	99.881	107.007	20.306	0.0001934	0.00012229	5.1048e-05	395.97	2.752e-06	3.9208e-06	326.98	136.33	1.6841e-06	4.7725e-06	134.52	44.756	42.512	18.825	3.7503e-06	18.908	0.00082465	0.0011936	0.00033892	450.66	1.3232e-05	1.3489e-05	355.38	148.77	1.2645e-05	1.3598e-05	148.59	49.528	47.363	20.808	1.2694e-05	20.938	-140.612	-72.954	-159.128	-165.151	-25.296	-43.454	-166.507	-159.054	-46.496	-8.316	-161.669	-157.221	-154.812	-149.992	-36.259	-152.687	-8191	255	
1544.465	1	1	0	0	0.1368	0.10107	0.068759	0.10644	0.21727	0.17807	0.27375	0.26935	0.22232	0.14499	0.23998	0.34844	0.22737	0.13412	0.22403	0.086962	-0.81458	-1.4188	-0.75417	-1.6708	-1.0396	-0.95833	-1.825	-1	-1.4292	-1.4542	-0.71667	-1.6292	-1.2896	-0.94583	-1.6583	-0.98958	-170.321	-100.986	-23.765	-6.993	141.485	152.742	-30.711	161.418	50.085	110.006	-161.242	34.930	-98.836	-157.980	99.560	79.163	0.0001498	0.0002544	5.0227e-05	395.93	1.1077e-06	3.5486e-06	323.9	135.57	7.0092e-07	2.5356e-06	133.69	44.398	42.39	18.786	4.4463e-06	18.529	0.00081078	0.00115	0.00032543	448.65	1.2208e-05	1.2294e-05	351.19	147.65	1.0873e-05	1.1718e-05	146.88	49.065	47.19	20.657	1.1408e-05	20.619	-126.386	-79.896	-126.392	-164.473	-20.148	-28.109	-166.474	-159.380	17.668	-43.042	-161.899	-157.107	-155.199	-149.752	-56.808	-152.372	-8191	255	
1544.561	1	1	0	0	0.10296	0.42831	0.097726	0.082245	0.20361	0.14329	0.11958	0.16491	0.050673	0.15543	0.15443	0.10379	0.23347	0.13814	0.07379	0.07452	-1.0854	-1.5708	-0.6875	-1.7833	-1.2687	-0.86875	-1.6542	-0.79375	-1.0479	-1.7563	-0.8875	-1.5	-1.1896	-0.78125	-1.6208	-0.83333	-109.567	153.974	159.810	-163.120	89.509	134.203	-148.877	-123.845	121.385	-105.057	-66.163	-43.380	-94.605	79.371	22.049	-31.747	0.00016536	0.00025817	4.2126e-05	399.62	2.972e-06	2.0515e-06	326.94	136.24	1.9909e-06	1.1381e-06	135.08	44.37	42.276	18.511	2.8487e-06	18.391	0.00075477	0.001064	0.00030622	451.1	1.1768e-05	1.2079e-05	353.91	148.23	1.1134e-05	1.1805e-05	147.81	48.829	47.051	20.439	1.1301e-05	20.361	-139.793	-141.136	-103.660	-164.550	-41.662	-77.454	-166.709	-159.047	-22.969	-64.806	-161.993	-157.216	-155.033	-149.779	-39.029	-152.723	-8191	255	
1544.655	1	1	0	0	0.1507	0.098572	0.20997	0.20752	0.099642	0.28364	0.21825	0.25863	0.23051	0.16391	0.0568	0.05441	0.08443	0.14986	0.17875	0.13796	-0.80625	-1.5312	-0.78958	-1.7083	-1.2896	-0.71042	-1.4542	-1.1021	-0.98958	-1.6063	-1.0812	-1.2958	-1.2354	-0.875	-1.7313	-1.0938	-65.757	14.927	170.165	-130.143	-116.486	-9.954	-168.912	60.112	139.358	-42.216	179.793	-80.999	-139.529	112.169	99.116	118.377	0.00016889	0.00029971	7.165e-05	402.98	2.8422e-06	7.6231e-07	332.2	137.38	1.9699e-07	3.7309e-06	135.64	44.081	42.593	18.416	9.1771e-07	17.912	0.00074459	0.0010525	0.00029809	454.54	1.1273e-05	1.1897e-05	359.13	149.61	1.0858e-05	1.1573e-05	148.91	48.403	47.158	20.224	1.105e-05	19.903	-139.898	-108.761	-66.325	-164.514	-48.399	0.959	-166.465	-159.357	15.360	-45.536	-161.894	-157.391	-155.132	-149.898	-123.904	-152.556	-8191	255	
1544.753	1	1	0	0	0.11557	0.097386	0.20205	0.13988	0.092266	0.34506	0.15611	0.11017	0.19425	0.13582	0.10506	0.12571	0.2763	0.13774	0.18556	0.18294	-0.41458	-1.6167	-0.93125	-1.1125	-1.2729	-0.67917	-1.5979	-1.2917	-1.0271	-1.7146	-0.90417	-1.4146	-1.6063	-0.85833	-1.5208	-1.1667	-39.933	-139.053	-141.995	-80.646	-112.051	73.914	67.242	-152.232	24.457	-85.263	104.264	-152.839	-62.438	158.844	-15.470	-155.120	0.00016595	0.00017943	3.6863e-05	408.48	2.9183e-06	2.9981e-06	339.1	139.96	1.2412e-06	2.7543e-06	137.21	43.626	42.143	18.12	4.7776e-06	17.405	0.00075809	0.0010679	0.00029932	462.3	1.1694e-05	1.2107e-05	368.56	152.14	1.1029e-05	1.17e-05	149.34	48.094	46.895	19.957	1.0554e-05	19.365	-138.330	-54.905	-101.707	-165.027	-41.053	-32.805	-166.527	-159.747	-29.706	-36.388	-161.909	-157.838	-155.320	-150.064	-13.080	-153.030	-8191	255	
1544.872	1	1	0	0	0.23123	0.13113	0.060179	0.13646	0.065974	0.11024	0.22057	0.25341	0.26834	0.13617	0.25381	0.18483	0.11103	0.10731	0.13036	0.16453	-0.54792	-1.775	-0.90208	-1.0729	-1.6187	-0.77292	-1.3917	-1.3854	-0.825	-1.55	-1.0042	-1.0479	-1.8146	-0.60625	-1.3417	-1.3917	-105.044	-41.099	-163.173	-160.942	-59.922	-165.537	-140.309	-36.323	-43.666	-2.048	20.812	-91.585	-33.482	21.116	29.968	67.392	0.00016267	0.00020895	8.1204e-05	411.2	2.9928e-06	3.4214e-06	335.12	139.02	2.7907e-06	1.7049e-06	135.35	43.16	42.27	18.083	1.6397e-06	17.443	0.00071748	0.00098469	0.00027699	459.7	1.0647e-05	1.095e-05	362.89	151.05	9.9249e-06	1.0073e-05	147.41	47.381	46.749	19.861	9.1014e-06	19.316	-131.205	-82.438	-64.587	-164.236	-26.267	-7.357	-166.282	-159.292	-32.684	-28.815	-162.282	-157.526	-154.945	-149.852	15.559	-152.750	-8191	255	
1544.968	1	1	0	0	0.27218	0.14806	0.36184	0.087305	0.23186	0.21133	0.14608	0.22423	0.24893	0.16144	0.16819	0.20175	0.05975	0.14374	0.2588	0.24026	-0.47292	-1.5688	-1.0542	-0.93958	-1.5688	-0.86458	-1.4292	-1.2938	-0.66875	-1.6104	-1.0729	-0.87917	-1.7	-0.87292	-1.3396	-1.3458	-168.084	138.521	52.114	90.934	-17.953	27.117	78.212	-102.508	-49.101	-4.300	-29.759	118.357	-144.093	-142.180	-171.663	-122.221	0.00015307	0.00020161	9.4412e-05	413.3	9.713e-07	1.3762e-06	337.35	139.96	2.1866e-06	1.6548e-06	136.55	43.63	42.661	18.203	8.2804e-07	17.683	0.00063648	0.00085916	0.00024383	457.82	9.4881e-06	9.8079e-06	364.45	151.97	9.3714e-06	9.6446e-06	149.23	48.101	47.049	20.024	9.1583e-06	19.571	-135.879	-75.944	-86.073	-164.313	-46.035	116.525	-166.560	-159.214	-43.799	-34.385	-162.130	-157.240	-155.138	-150.001	-90.291	-153.059	-8191	255	
1545.064	1	1	0	0	0.11936	0.10206	0.26788	0.28328	0.20894	0.11285	0.17921	0.12529	0.23967	0.10349	0.14752	0.20221	0.32359	0.15271	0.29444	0.20145	-0.37083	-1.4062	-1.1271	-0.97917	-1.4396	-0.86458	-1.1917	-1.6896	-0.77708	-1.7354	-1.2854	-0.74583	-1.7208	-0.69583	-1.1187	-1.5771	59.175	-160.336	40.802	-21.563	138.983	-175.475	-101.563	-176.537	88.230	146.767	172.018	-118.003	6.534	16.689	-153.806	-68.412	0.00017438	0.00010895	2.145e-05	414.16	1.8605e-06	1.9594e-06	337.12	140	2.7068e-06	2.8804e-06	137.1	44.015	42.561	18.364	2.4977e-06	17.982	0.00063466	0.00083834	0.00023475	459.58	9.2889e-06	9.5454e-06	364.74	151.62	9.4151e-06	9.2328e-06	149.76	48.54	47.175	20.131	9.4828e-06	19.893	-134.777	-117.369	-114.319	-164.269	-77.804	9.531	-166.417	-159.474	-100.778	-30.849	-162.058	-157.168	-155.245	-150.164	17.394	-152.782	-8191	255	
1545.160	1	1	0	0	0.081541	0.21923	0.020357	0.21305	0.077281	0.21755	0.21851	0.15927	0.19735	0.29865	0.18151	0.10645	0.080508	0.24661	0.12009	0.16672	-0.34167	-1.4292	-1.2875	-0.80833	-1.7896	-0.94792	-1.0688	-1.6958	-0.82292	-1.4833	-1.5021	-0.69583	-1.7167	-1.2375	-1.1354	-1.7625	28.653	-141.351	-146.165	-62.888	-64.465	-148.388	173.187	77.099	176.567	-3.014	67.040	-64.399	48.663	-104.959	87.742	146.625	0.00017193	0.00012188	5.2513e-05	410.47	1.9406e-06	1.8768e-06	339.54	140.29	1.4807e-06	3.5736e-06	138.36	44.792	42.968	18.555	1.837e-06	18.278	0.00066326	0.000879	0.00024765	459.79	1.0002e-05	1.009e-05	367.71	152.31	9.7704e-06	9.8888e-06	151.1	49.315	47.482	20.34	9.6333e-06	20.17	-130.315	-89.568	-99.517	-164.565	-1.050	17.432	-166.512	-159.481	-18.138	-35.651	-162.077	-157.139	-155.126	-149.786	-73.255	-152.640	-8191	255	
1545.257	1	1	0	0	0.28173	0.14576	0.14011	0.14836	0.11368	0.19405	0.13597	0.42925	0.10976	0.18422	0.24933	0.12086	0.16141	0.19299	0.068583	0.18741	-0.53125	-1.3958	-1.3813	-0.77083	-1.6083	-1.1583	-1.0104	-1.8417	-0.82917	-1.2458	-1.6	-0.87708	-1.4937	-1.1958	-0.80625	-1.5938	67.791	-35.682	167.077	-160.983	-128.755	-21.506	1.302	161.580	-32.528	35.083	93.752	109.826	-160.244	-154.665	30.903	-59.629	0.00014454	4.0475e-05	5.9374e-05	414.52	2.1671e-06	1.6425e-06	341.51	140.62	3.4373e-06	2.6483e-06	138.26	44.792	42.92	18.504	4.531e-07	18.186	0.00064997	0.00087891	0.00024708	461.85	9.4256e-06	9.8849e-06	369.46	152.55	9.3503e-06	9.6796e-06	150.74	49.101	47.468	20.326	9.5426e-06	19.977	-132.834	-95.468	-146.828	-163.777	-63.352	-11.426	-166.532	-159.623	-59.694	-30.344	-161.984	-157.456	-155.204	-149.997	-1.428	-152.881	-8191	255	
1545.353	1	1	0	0	0.071622	0.21197	0.24664	0.2145	0.1632	0.025074	0.37072	0.13963	0.078398	0.026451	0.21466	0.24448	0.23801	0.18129	0.20717	0.014943	-0.62292	-1.3333	-1.6208	-0.69167	-1.5083	-1.1	-0.7875	-1.7125	-0.77292	-1.2583	-1.7333	-0.8125	-1.5438	-1.4729	-0.83333	-1.6042	-161.769	148.548	-119.669	-18.955	-124.766	66.735	151.263	-146.661	-115.985	-168.986	122.129	-161.610	-0.953	-151.670	-26.062	175.906	0.00017185	0.00024778	3.3316e-05	410.92	3.0398e-06	3.1729e-06	335.56	140.03	1.1718e-06	2.15e-06	136.3	44.389	42.867	18.494	6.462e-07	18.159	0.00064567	0.00089455	0.00025177	458.8	9.7026e-06	1.0008e-05	363.75	151.6	9.5032e-06	1.0056e-05	149.11	48.715	47.331	20.31	9.8004e-06	19.953	-133.638	-100.323	-100.752	-164.991	-31.865	-39.514	-166.382	-159.283	-60.546	-5.553	-161.970	-157.278	-154.671	-149.315	-15.081	-152.673	-8191	255	
1545.449	1	1	0	0	0.20334	0.17682	0.19089	0.15348	0.16363	0.053556	0.2115	0.059592	0.11331	0.17175	0.18651	0.11099	0.1152	0.13963	0.11709	0.11349	-0.42083	-0.99792	-1.9042	-0.68125	-1.3396	-1.4521	-1.0083	-1.7396	-1.0375	-0.96875	-1.775	-0.92083	-1.4708	-1.3125	-0.86042	-1.6417	88.126	55.353	-58.449	-80.749	-72.250	162.840	52.561	-125.364	15.895	-148.501	-172.808	124.538	181.872	49.917	155.430	128.626	0.0001772	0.00020851	0.00010053	407.3	1.3449e-06	1.2052e-06	333.4	139.67	1.7364e-06	2.988e-06	137.4	44.578	42.792	18.5	3.1624e-06	17.966	0.00064799	0.00091826	0.0002553	456.14	9.9355e-06	1.0192e-05	361.77	151.07	1.005e-05	1.0807e-05	149.63	48.858	47.363	20.329	1.143e-05	20.025	-131.546	-89.368	-58.676	-163.742	-29.202	-23.374	-166.141	-159.190	-2.956	-6.611	-162.014	-157.157	-154.540	-149.782	-3.790	-152.562	-8191	255	
1545.568	1	1	0	0	0.13476	0.10005	0.055225	0.28336	0.19509	0.19982	0.13578	0.029493	0.15814	0.22833	0.33725	0.15511	0.08065	0.14307	0.30601	0.14212	-0.72083	-1.0667	-1.5833	-0.83125	-1.2354	-1.4188	-0.68542	-1.7333	-1.1708	-0.93958	-1.7687	-1.0042	-1.3563	-1.7375	-0.8375	-1.4646	-10.676	134.856	26.734	-30.572	-41.457	-0.725	-123.982	-162.923	146.312	15.476	-125.673	-26.329	51.265	84.729	-70.193	-84.356	0.00015587	0.00018266	9.3696e-05	408.08	1.4452e-06	7.9341e-08	335.26	139.26	9.2836e-07	1.3907e-07	138.03	44.649	43.048	18.535	1.3042e-06	18.262	0.00076141	0.001131	0.00030922	462.38	1.2768e-05	1.3083e-05	365.79	152.05	1.3049e-05	1.4434e-05	151.54	49.408	47.922	20.526	1.4652e-05	20.371	-136.414	-103.219	-73.464	-164.505	-55.595	16.473	-166.437	-159.351	-108.804	-120.781	-161.753	-157.122	-154.459	-149.858	-12.079	-152.561	-8191	255	
1545.664	1	1	0	0	0.15283	0.17897	0.31789	0.050366	0.16644	0.051527	0.049938	0.28854	0.074468	0.099897	0.064051	0.092991	0.049038	0.10507	0.15039	0.21123	-1.0292	-0.73333	-1.5875	-0.88125	-1.0667	-1.6104	-0.8375	-1.4917	-1.3563	-0.82292	-1.6625	-1.2146	-1.2646	-1.5438	-0.77083	-1.5	57.846	-78.474	54.437	-65.727	65.361	-100.380	154.203	158.180	-161.788	-75.916	53.900	-67.776	-97.955	152.926	135.882	35.272	0.00014921	0.00044243	4.5911e-05	406.27	3.7088e-07	9.2074e-07	337.66	139.92	1.7388e-06	3.8407e-06	139.02	45.1	43.096	18.719	1.7416e-06	18.745	0.00094351	0.0014081	0.00038078	469.23	1.5405e-05	1.5591e-05	368.36	153.17	1.4989e-05	1.6589e-05	153.7	50.218	48.437	20.816	1.638e-05	20.985	-129.710	-100.664	-71.559	-164.224	176.970	178.903	-166.107	-159.311	-62.435	17.480	-161.774	-157.037	-154.725	-149.999	-122.559	-152.559	-8191	255	
1545.760	1	1	0	0	0.27385	0.1439	0.25056	0.3084	0.19607	0.09311	0.25465	0.079762	0.088053	0.26384	0.2327	0.16044	0.12455	0.11436	0.27495	0.11251	-1.1688	-0.77292	-1.7375	-1.0562	-0.95417	-1.725	-0.79792	-1.2875	-1.4813	-0.84375	-1.6146	-0.90625	-0.97083	-1.7625	-0.975	-1.3979	-36.619	-88.003	-168.950	-117.477	97.939	104.923	-20.789	2.195	100.988	24.165	48.019	-44.933	25.460	-11.649	-29.627	-45.210	0.00018081	0.00017982	0.00013525	406.58	1.2208e-06	1.8378e-06	337.78	142.46	1.3592e-06	2.0641e-06	143.21	46.969	44.8	19.747	2.3029e-06	19.653	0.0010691	0.0016127	0.00043537	475.19	1.7799e-05	1.8219e-05	369.77	156.3	1.7748e-05	1.9848e-05	158.94	52.429	50.498	21.98	1.9386e-05	22.175	-129.612	-123.335	-83.256	-164.065	-19.724	34.906	-166.255	-159.132	-68.303	-68.427	-161.826	-157.042	-154.630	-149.537	-46.072	-152.315	-8191	255	
1545.834	1	1	0	0	0.19006	0.075984	0.24664	0.10552	0.056379	0.32269	0.13826	0.1245	0.26089	0.26716	0.14378	0.2408	0.11139	0.19286	0.35004	0.074216	-1.0875	-0.95208	-1.6792	-1.275	-0.71667	-1.7271	-0.8875	-1.4729	-1.725	-0.58333	-1.4917	-1.1688	-0.7125	-1.6187	-0.84792	-0.94375	24.401	143.355	49.306	92.821	-65.776	68.527	36.855	-166.234	-19.517	166.159	-91.083	110.271	-21.400	-9.658	102.740	67.717	0.0001997	0.00010176	1.362e-05	408.62	3.0537e-06	8.4462e-07	335.17	142.18	1.5652e-06	2.3256e-06	141.33	46.505	44.332	19.6	1.4949e-06	19.299	0.00122	0.0018252	0.00048469	481.13	1.9448e-05	1.9164e-05	366.36	156.19	1.7749e-05	1.8965e-05	155.92	51.531	49.746	21.731	1.6835e-05	21.658	-132.660	-71.711	-70.374	-164.491	-20.976	-121.103	-166.251	-159.076	-28.648	-36.312	-161.826	-157.290	-154.923	-149.453	-64.708	-152.347	-8191	255	
1545.952	1	1	0	0	0.29268	0.12061	0.071991	0.23259	0.074335	0.022497	0.19594	0.27006	0.26066	0.27127	0.091993	0.14662	0.033502	0.17778	0.15629	0.23752	-1.3188	-0.79792	-1.3917	-1.2687	-0.74583	-1.55	-1.1792	-1.0104	-1.6333	-0.80625	-1.5771	-1.3354	-0.7625	-1.6063	-0.97083	-1.1021	105.192	-101.635	123.571	-114.126	-133.083	-58.507	136.452	77.371	29.429	-55.350	160.739	112.462	112.313	48.297	82.068	18.439	0.00018279	0.00032879	3.3018e-05	400.34	3.4794e-06	1.2589e-06	328.91	139.62	3.9318e-06	2.9609e-06	138.51	45.738	43.721	19.276	1.1116e-06	19.131	0.0010641	0.0015786	0.00041601	468.14	1.6473e-05	1.6201e-05	359.38	152.87	1.4665e-05	1.5862e-05	151.83	50.515	48.934	21.359	1.4395e-05	21.439	-143.267	-48.859	-117.374	-163.937	-38.087	-29.763	-165.985	-159.260	-47.764	16.476	-161.796	-156.828	-154.765	-149.307	-6.687	-152.447	-8191	255	
1546.049	1	1	0	0	0.41828	0.20579	0.14852	0.12904	0.20668	0.072874	0.26154	0.11972	0.13159	0.20647	0.22991	0.10792	0.049869	0.19158	0.13384	0.17268	-1.4292	-0.75417	-1.4271	-1.4625	-0.81458	-1.5187	-1.1146	-0.92292	-1.7208	-0.71042	-1.2729	-1.4167	-0.79792	-1.6938	-1.2521	-0.7125	-57.839	-158.755	135.180	126.250	-128.222	33.387	17.451	136.899	140.023	-117.492	-31.289	149.937	31.539	-165.034	22.658	54.490	0.00015973	0.00032644	0.00013691	401.64	2.1891e-06	8.8639e-07	327.87	140.18	2.038e-06	2.7623e-06	139.5	46.4	44.036	19.738	2.9895e-06	19.784	0.00093074	0.0013576	0.00036699	462.49	1.4481e-05	1.4301e-05	357.84	152.79	1.3211e-05	1.3988e-05	153.18	51.338	49.141	21.782	1.2914e-05	22.019	-133.705	-94.619	-68.614	-164.702	17.792	105.890	-166.060	-159.180	-14.428	5.798	-161.349	-156.982	-154.530	-149.226	-30.613	-152.330	-8191	255	
1546.145	1	1	0	0	0.13894	0.030133	0.20522	0.13276	0.047114	0.1696	0.2382	0.14667	0.23345	0.21628	0.17651	0.21402	0.085703	0.21326	0.18398	0.05985	-1.4312	-0.79583	-1.0271	-1.3438	-0.67917	-1.6354	-1.425	-0.9875	-1.7417	-0.95625	-1.2458	-1.6479	-0.81042	-1.5125	-1.3625	-0.85208	57.317	73.022	-138.817	105.142	-28.872	-31.472	118.042	-38.090	133.084	-50.888	67.828	132.186	132.745	-176.467	-76.639	116.606	0.0001733	9.7199e-05	4.2374e-05	405.91	2.6848e-06	2.9216e-06	333.81	140.43	3.0751e-06	2.3213e-06	141.66	46.941	44.675	19.79	3.525e-06	19.893	0.00084373	0.0011961	0.00032922	461.14	1.3286e-05	1.2879e-05	361.56	153.48	1.2015e-05	1.3057e-05	155.31	52.014	49.476	21.893	1.2263e-05	22.151	-138.487	-150.278	-62.629	-164.554	-49.709	-83.558	-166.368	-158.926	-35.135	-126.487	-161.687	-156.958	-154.712	-149.117	-36.227	-152.193	-8191	255	
1546.241	1	1	0	0	0.18827	0.13934	0.084213	0.27382	0.23873	0.026106	0.069394	0.21003	0.14337	0.17874	0.048343	0.090312	0.10627	0.13343	0.36953	0.074205	-1.2188	-0.8625	-0.90208	-1.5646	-0.91042	-1.4542	-1.5792	-0.78125	-1.5562	-0.99792	-0.94792	-1.8458	-0.97917	-1.4333	-1.4854	-0.85208	62.462	-2.945	124.299	59.794	-153.544	-168.894	-81.179	1.811	-133.683	88.193	-4.682	110.569	-93.226	-172.225	-22.588	0.741	0.00018195	0.00019986	0.00010062	408.32	1.0642e-07	3.4942e-06	333.82	141.34	1.5903e-06	1.8156e-06	140.23	47.023	44.856	19.978	2.9655e-06	19.848	0.0008056	0.0011448	0.00032093	461.26	1.2824e-05	1.2728e-05	362.82	154.04	1.1862e-05	1.3032e-05	154.19	51.81	49.659	22.004	1.2231e-05	22.018	-134.512	-134.372	-108.990	-163.888	40.049	-11.711	-165.765	-158.965	-59.896	34.299	-161.584	-156.856	-154.687	-149.102	22.150	-151.828	-8191	255	
1546.361	1	1	0	0	0.087825	0.22045	0.20698	0.088104	0.22061	0.20881	0.093526	0.17156	0.119	0.34557	0.15887	0.12145	0.39242	0.16457	0.16728	0.28828	-1.2833	-1.1479	-1.0167	-1.625	-0.7125	-1.1875	-1.6021	-0.76458	-1.5979	-1.4542	-0.8	-1.8687	-0.86875	-1.1792	-1.5208	-0.77083	-102.914	-3.325	-146.470	56.605	-114.298	118.844	77.837	122.037	97.636	-73.511	-147.732	0.329	133.700	-56.407	-77.718	43.741	0.00017404	0.00036851	2.9538e-05	405.31	3.6037e-06	2.2532e-07	331.2	141.23	3.6489e-06	2.1742e-06	138.45	45.849	44.026	19.479	3.3632e-06	19.061	0.0008037	0.001134	0.0003148	460.91	1.1967e-05	1.2141e-05	359.44	153.37	1.0928e-05	1.1476e-05	151.5	50.526	48.718	21.416	1.0284e-05	21.149	-135.873	-39.888	7.913	-164.594	-50.389	6.854	-165.831	-158.613	-42.676	8.508	-161.573	-156.803	-155.040	-149.307	-23.704	-152.495	-8191	255	
1546.433	1	1	0	0	0.07113	0.19897	0.29353	0.22256	0.058341	0.074595	0.15048	0.22744	0.17322	0.03997	0.15351	0.2076	0.13504	0.10219	0.20642	0.22655	-1.125	-1.3271	-0.76667	-1.525	-0.86458	-1.1125	-1.7938	-0.92917	-1.4167	-1.2708	-0.74375	-1.5958	-0.97292	-1.0938	-1.8479	-0.80833	13.366	-100.007	144.526	-6.207	46.620	-173.682	74.800	126.977	50.363	165.257	77.755	-77.811	-173.639	2.460	103.524	-149.740	0.00018106	0.00025474	6.6804e-05	406.96	1.5068e-06	1.3117e-06	331.19	139.84	1.7513e-06	6.2413e-07	135.81	44.512	43.361	18.855	1.4014e-06	18.195	0.0006732	0.00091862	0.00025752	454.09	9.5895e-06	9.6446e-06	357.38	151.06	8.6539e-06	9.0378e-06	147.9	48.857	47.602	20.703	8.4212e-06	20.125	-138.838	-33.463	-58.745	-164.627	2.683	-62.985	-166.505	-158.989	-9.576	14.656	-162.056	-157.505	-154.846	-149.545	-110.234	-152.634	-8191	255	
1546.554	1	1	0	0	0.03259	0.25547	0.19377	0.19151	0.061159	0.17203	0.33647	0.12539	0.12899	0.1294	0.1083	0.20182	0.22078	0.15495	0.18008	0.20267	-0.96667	-1.4083	-0.71042	-1.6875	-0.93125	-0.925	-1.6542	-0.85417	-1.3708	-1.5792	-0.78333	-1.6896	-1.0146	-0.88958	-1.6187	-0.73125	-82.263	45.356	77.173	-41.484	-155.029	36.485	171.202	167.441	169.650	-86.488	-65.700	-118.116	90.734	6.355	9.717	38.952	0.00017171	0.00012447	4.1476e-05	413.89	1.8405e-06	1.429e-06	333.63	139.31	1.6182e-06	3.8797e-06	136.31	44.172	42.903	18.655	1.4575e-06	18.06	0.00057861	0.00078412	0.00022457	456.63	8.3804e-06	8.7617e-06	360.59	150.89	8.1111e-06	8.5524e-06	147.78	48.447	47.259	20.511	8.3019e-06	19.947	-126.447	-82.613	-54.126	-164.624	-71.372	10.736	-166.692	-159.179	-57.779	-36.577	-161.724	-157.436	-155.141	-149.769	-22.980	-152.966	-8191	255	
1546.648	1	1	0	0	0.30066	0.18215	0.036628	0.32473	0.14607	0.041609	0.13194	0.41949	0.066406	0.14275	0.096377	0.16235	0.27701	0.037557	0.24235	0.099756	-1.0063	-1.4625	-0.62083	-1.6	-1.1875	-0.83958	-1.8396	-0.88333	-1.1083	-1.7771	-0.58125	-1.6479	-1.3875	-0.77083	-1.5896	-0.97708	95.829	-120.071	-76.790	-51.652	143.249	-62.538	128.895	80.006	-143.816	-19.342	-169.840	88.781	-44.345	151.360	113.738	167.120	0.00018512	0.00026892	3.606e-05	412.82	1.7542e-06	2.8359e-06	335.54	139.91	1.1632e-06	1.7759e-06	137.13	44.13	42.973	18.668	1.6842e-06	17.965	0.00059634	0.00082875	0.0002407	456.76	9.1602e-06	9.8545e-06	362.85	151.67	9.3888e-06	9.7397e-06	148.92	48.501	47.665	20.542	9.7711e-06	19.908	-131.634	-61.478	-23.171	-164.938	15.541	-10.619	-166.781	-159.455	-108.245	-19.258	-161.794	-157.351	-155.258	-149.755	-11.595	-153.021	-8191	255	
1546.744	1	1	0	0	0.28983	0.14994	0.08155	0.059715	0.13251	0.043456	0.059611	0.21389	0.22627	0.14405	0.23389	0.25425	0.14931	0.2895	0.14881	0.30905	-0.76667	-1.5146	-0.90208	-1.3854	-1.2812	-0.88125	-1.8208	-1.1375	-1.0458	-1.7062	-0.79167	-1.3521	-1.5333	-0.73958	-1.6604	-1.1375	106.480	-177.002	-88.595	-147.122	-49.517	162.113	-96.627	-155.754	44.817	50.577	-86.740	-39.940	120.025	44.993	98.204	79.324	0.0001546	0.00028436	8.221e-05	408.71	3.8461e-07	2.2559e-06	332.04	140.55	3.0865e-06	2.8821e-06	135.29	43.666	43.281	18.744	1.701e-06	17.857	0.00067358	0.0009235	0.00026194	457.7	9.8383e-06	1.0392e-05	358.47	152.59	9.7359e-06	1.0102e-05	147.53	48.004	47.77	20.552	9.8397e-06	19.722	-129.384	-92.919	-85.966	-164.631	-14.441	-37.671	-166.712	-159.448	-3.837	-29.205	-161.825	-157.444	-155.029	-149.821	-89.104	-152.875	-8191	255	
1546.842	1	1	0	0	0.074253	0.04798	0.1803	0.081209	0.28066	0.23048	0.066218	0.29909	0.12023	0.16523	0.18298	0.17811	0.032464	0.068685	0.34089	0.14777	-0.51458	-1.5604	-0.98333	-1.2958	-1.625	-0.9125	-1.8625	-1.15	-0.90208	-1.6896	-0.81458	-1.3062	-1.4792	-0.78125	-1.4854	-1.3771	-141.686	-172.881	59.406	-0.851	88.610	-149.446	-21.812	129.580	28.628	-41.358	-173.768	133.883	-10.102	114.066	61.479	-78.968	0.00015619	6.969e-05	4.2579e-05	405.12	3.647e-06	4.2589e-06	329.64	140.55	1.373e-06	1.4606e-06	135.07	43.376	43.333	18.625	2.2732e-06	17.769	0.00066573	0.00088436	0.00025385	456.53	9.5393e-06	1.004e-05	355.96	152.38	9.3634e-06	9.6885e-06	146.86	47.728	47.654	20.501	9.5067e-06	19.632	-134.539	160.929	-48.990	-164.422	-19.826	-62.368	-166.417	-159.457	-63.486	126.948	-161.872	-157.342	-155.053	-150.111	-67.337	-152.830	-8191	255	
1546.961	1	1	0	0	0.14259	0.027608	0.15438	0.043091	0.14871	0.086316	0.29895	0.2251	0.13842	0.30369	0.1967	0.026386	0.046765	0.11	0.027993	0.23093	-0.49167	-1.625	-0.91667	-0.99375	-1.9438	-0.98333	-1.3875	-1.425	-0.82292	-1.7375	-1.0354	-1.1292	-1.5396	-0.87917	-1.475	-1.5125	-26.440	27.511	169.193	-13.492	-123.621	-111.488	-153.552	-87.245	-71.254	-44.054	-67.659	114.094	-121.228	-111.813	-59.309	77.230	0.00015058	0.00017615	4.4883e-05	412.25	1.525e-06	2.0688e-06	328.75	140.78	1.317e-06	2.212e-06	135.33	43.621	43.145	18.833	1.5398e-06	17.929	0.00067206	0.00089887	0.00025461	456.89	9.6232e-06	9.8462e-06	355.6	152.78	9.3365e-06	9.398e-06	147.53	47.883	47.711	20.7	8.8684e-06	19.82	-141.727	-92.531	-109.320	-164.370	-100.320	-6.195	-166.369	-159.437	-23.088	-106.237	-162.192	-157.703	-155.215	-149.793	-24.214	-152.724	-8191	255	
1547.057	1	1	0	0	0.19354	0.10634	0.11526	0.12781	0.13419	0.24566	0.19775	0.058573	0.20973	0.2075	0.27288	0.11092	0.26817	0.11957	0.092683	0.25255	-0.35625	-1.5167	-1.0708	-0.81042	-1.65	-0.95417	-1.3042	-1.5708	-0.64583	-1.7396	-1.1396	-0.85208	-1.6792	-0.99583	-1.325	-1.5729	65.148	171.830	32.108	-51.336	-171.213	42.187	148.484	72.272	-19.765	152.573	-151.123	124.771	-70.762	-41.342	71.574	-153.894	0.0001604	0.00025247	7.2742e-05	411.83	2.5056e-06	9.6867e-07	328.73	141.58	2.0004e-06	1.7221e-06	137.32	44.449	44.274	19.375	1.8716e-06	18.591	0.00062461	0.00082976	0.0002324	457.61	8.8249e-06	9.2767e-06	357.4	153.61	8.6833e-06	8.7285e-06	149.14	48.856	48.555	21.218	8.7101e-06	20.477	-132.702	-113.895	-107.072	-164.856	-7.591	-22.089	-166.530	-159.324	-77.674	48.392	-162.152	-157.236	-154.877	-149.756	38.853	-152.698	-8191	255	
1547.153	1	1	0	0	0.27941	0.14001	0.31286	0.076831	0.10116	0.089035	0.1417	0.08089	0.050943	0.3396	0.237	0.19746	0.26492	0.33937	0.19539	0.1125	-0.45625	-1.4271	-1.0771	-0.84375	-1.5833	-0.87708	-1.2104	-1.6354	-0.85625	-1.3958	-1.3729	-0.91875	-1.7396	-0.94583	-1.2292	-1.7146	156.585	121.960	-38.340	20.812	32.690	-55.440	170.677	62.561	-8.262	-127.047	-153.522	-75.852	-73.773	85.631	16.152	171.650	0.00017625	0.00031944	7.3919e-05	414.83	2.3002e-06	1.4748e-06	328.09	142.16	1.6967e-06	2.1748e-06	136.58	44.749	44.195	19.587	1.3714e-06	19.057	0.00060361	0.00080164	0.00021935	454.59	8.4708e-06	8.5296e-06	353.44	153.3	8.0546e-06	8.3677e-06	147.99	49.146	48.493	21.52	8.1216e-06	20.93	-138.070	-128.869	-55.749	-164.820	-96.517	-49.726	-166.492	-159.295	-78.701	-13.676	-161.997	-156.983	-154.643	-149.366	-36.017	-152.548	-8191	255	
1547.250	1	1	0	0	0.19105	0.042212	0.082713	0.16177	0.032504	0.047533	0.081885	0.069987	0.30338	0.063322	0.22932	0.17483	0.28238	0.17795	0.13099	0.24797	-0.38333	-1.4542	-1.2771	-0.775	-1.5667	-0.99375	-0.91875	-1.5438	-0.8625	-1.375	-1.3917	-0.63958	-1.55	-1.0583	-0.90625	-1.6063	-58.786	-150.231	-102.102	-99.368	-94.536	-91.060	139.311	-62.879	-100.261	74.963	177.723	154.466	100.767	59.421	-144.497	73.313	0.00018509	0.00030824	5.2e-05	405.92	4.9481e-07	1.3112e-06	327.84	141.46	1.4848e-06	1.1693e-06	137.6	45.522	44.283	19.867	2.2968e-06	19.278	0.00057311	0.00077146	0.00021259	450.37	8.2932e-06	8.5068e-06	352.88	153.12	8.0922e-06	8.3277e-06	149.49	49.876	48.799	21.763	8.2641e-06	21.264	-135.604	-85.128	-83.947	-164.066	-55.687	-30.285	-165.996	-158.894	-12.408	-51.284	-161.518	-157.031	-154.575	-149.417	-47.078	-152.560	-8191	255	
1547.346	1	1	0	0	0.22184	0.268	0.35108	0.14444	0.15053	0.1148	0.061985	0.15694	0.14754	0.15841	0.25667	0.28995	0.16527	0.10738	0.080273	0.089208	-0.37917	-1.5958	-1.4083	-0.82292	-1.5063	-1.1792	-0.88333	-1.7708	-0.76667	-1.2417	-1.7417	-0.96875	-1.3729	-1.2333	-0.77083	-1.6229	98.617	-12.429	-33.420	65.696	89.584	111.988	-29.533	7.087	91.955	50.602	-145.371	160.440	-69.508	-6.623	-59.525	113.899	0.000166	0.00040438	4.8094e-05	403.81	1.8428e-06	3.0143e-06	328.15	141.86	1.5383e-06	2.5712e-06	137.99	45.985	44.913	20.004	1.8346e-06	19.57	0.00057273	0.00076887	0.00020962	450.15	8.4047e-06	8.5287e-06	354.04	153.63	8.3952e-06	8.6205e-06	150.42	50.407	49.228	21.89	8.594e-06	21.547	-137.781	-118.554	-95.343	-164.663	-23.413	-86.254	-166.132	-159.104	-48.569	-33.075	-161.615	-156.639	-154.683	-149.093	24.995	-152.207	-8191	255	
1547.442	1	1	0	0	0.27306	0.19037	0.10759	0.25608	0.046902	0.22604	0.27979	0.14414	0.25931	0.078892	0.028508	0.15052	0.038665	0.26931	0.156	0.14461	-0.47917	-1.1917	-1.5208	-0.70625	-1.6229	-1.3542	-0.80833	-1.8146	-1.075	-1.1354	-1.7104	-0.65417	-1.625	-1.5333	-0.63542	-1.5875	-0.244	117.698	47.764	-95.040	-22.029	-140.665	48.141	-86.947	52.179	77.220	76.544	-40.041	-35.179	180.856	102.291	94.199	0.00018599	0.00023734	3.0349e-05	408.44	1.2742e-06	4.5148e-07	330.45	143.32	1.2076e-06	2.4963e-06	139.71	46.831	45.198	20.342	3.5463e-06	20.237	0.00056772	0.00076068	0.00021257	451.5	8.3729e-06	8.4761e-06	356.12	154.81	8.0943e-06	8.6215e-06	152.15	51.163	49.61	22.313	8.3784e-06	22.206	-133.949	-65.028	-87.489	-163.916	-41.931	-65.882	-166.075	-158.834	-40.731	-23.552	-161.380	-156.756	-154.380	-148.907	-43.431	-151.792	-8191	255	
1547.538	1	1	0	0	0.19989	0.1593	0.10955	0.18603	0.18446	0.12939	0.21616	0.27589	0.067775	0.22643	0.15516	0.1409	0.16514	0.13647	0.23523	0.36754	-0.59583	-1.0187	-1.7021	-0.81458	-1.4271	-1.2563	-1.0125	-1.7875	-1.2167	-1.0479	-1.5354	-0.95625	-1.2417	-1.6583	-0.76042	-1.6896	69.859	41.217	-153.535	114.924	81.688	-2.391	8.839	-165.389	-69.281	151.802	-65.730	-110.546	177.193	148.206	119.769	125.308	0.00019227	0.00024687	8.0428e-05	407.61	2.3193e-06	1.3918e-06	332.29	145.08	2.2261e-06	7.1679e-07	142.57	47.615	46.228	20.96	3.1762e-06	20.72	0.00056039	0.00078752	0.00021629	453.08	8.5016e-06	8.7108e-06	359.49	157.16	8.6185e-06	9.445e-06	155.55	52.377	50.968	23.033	9.745e-06	22.884	-132.593	-101.347	-66.937	-163.524	-1.907	-81.195	-165.827	-158.795	-40.351	25.424	-161.278	-156.766	-154.475	-149.031	-69.749	-152.086	-8191	255	
1547.657	1	1	0	0	0.29446	0.17457	0.13552	0.24221	0.21565	0.020493	0.35931	0.23459	0.098903	0.097432	0.32773	0.30666	0.19585	0.1206	0.1879	0.066903	-0.975	-0.88125	-1.5979	-0.99167	-1.1375	-1.5521	-0.78958	-1.6146	-1.4396	-0.7375	-1.8083	-0.8	-1.2417	-1.7854	-0.775	-1.4813	-155.230	-130.350	-161.376	-171.126	34.111	110.701	112.192	164.885	8.480	-119.773	-148.139	2.316	-35.162	66.630	-143.051	132.688	0.00018733	0.00032455	4.9995e-05	411.63	2.2405e-06	1.9732e-06	331.57	146.68	1.6307e-06	3.8977e-06	144.61	47.927	46.778	21.218	1.214e-06	20.881	0.000651	0.00092684	0.00025252	460.13	1.0025e-05	1.0075e-05	359.98	159.76	9.4643e-06	1.0385e-05	157	52.784	51.388	23.3	9.6978e-06	23.071	-134.319	-103.695	-57.211	-163.962	-15.390	138.720	-165.949	-158.584	-64.549	-8.197	-161.359	-156.755	-154.444	-148.755	-65.670	-151.858	-8191	255	
1547.729	1	1	0	0	0.095711	0.38267	0.2008	0.15472	0.12684	0.11152	0.12872	0.31298	0.13628	0.058411	0.33569	0.23133	0.11728	0.059956	0.19704	0.22636	-0.97917	-0.83958	-1.7875	-1.0042	-1.2938	-1.6042	-0.93542	-1.6208	-1.4625	-0.88958	-1.6979	-0.85208	-0.91458	-1.5688	-0.8625	-1.3208	135.622	42.252	114.894	-157.210	88.757	161.390	63.933	-152.011	-148.761	-104.466	98.397	5.595	169.715	62.853	90.570	120.678	0.0001683	0.00023432	6.1776e-06	417.54	1.4711e-06	1.7155e-06	331.01	147.5	2.8072e-06	2.534e-06	144.34	48.318	46.745	21.219	2.2973e-06	20.807	0.00063884	0.00090465	0.00024393	461.68	9.4625e-06	9.5157e-06	360.07	160.5	8.7494e-06	9.6171e-06	156.96	52.909	51.505	23.265	8.944e-06	22.931	-138.929	-25.548	84.093	-163.959	-131.346	-7.639	-165.854	-158.795	-59.565	22.577	-161.517	-157.127	-154.608	-149.210	-37.937	-152.327	-8191	255	
1547.825	1	1	0	0	0.17143	0.096817	0.26866	0.16179	0.14599	0.1605	0.24431	0.36138	0.093038	0.03711	0.26632	0.067849	0.086594	0.14892	0.057182	0.10523	-1.1396	-0.775	-1.5021	-1.15	-0.85208	-1.6792	-0.8375	-1.3333	-1.4083	-0.71667	-1.4979	-1.1458	-1.1458	-1.6875	-1.0125	-1.4167	103.150	161.298	0.943	116.603	115.639	-144.097	-74.731	32.116	-23.312	-79.633	-14.010	-149.515	167.020	161.134	-40.244	-60.565	0.00018175	0.00027304	7.0883e-05	412.71	1.9523e-06	1.9304e-06	333.45	148.44	7.4363e-07	2.6164e-06	142.92	47.851	46.525	20.909	1.003e-06	20.285	0.00059359	0.0008121	0.00021956	457.64	8.7264e-06	8.486e-06	360.11	160.41	7.9692e-06	8.7537e-06	156.1	52.232	51.213	22.912	8.3205e-06	22.397	-137.969	-109.977	-58.073	-163.727	-55.354	-13.096	-165.972	-159.169	-16.511	11.440	-161.543	-156.977	-154.590	-149.255	-58.035	-152.542	-8191	255	
1547.923	1	1	0	0	0.30928	0.35476	0.1695	0.21254	0.21634	0.28565	0.22713	0.057658	0.16811	0.44582	0.19606	0.26752	0.27111	0.26065	0.21101	0.078068	-1.3146	-0.56875	-1.4979	-1.0604	-0.925	-1.7542	-1.0396	-1.1146	-1.4583	-0.94792	-1.6333	-1.1562	-0.81458	-1.8208	-0.89167	-1.0542	-57.060	37.503	178.261	178.583	-154.553	154.779	130.742	-122.949	168.204	42.818	-38.543	146.321	179.223	168.945	-81.209	129.163	0.0001781	0.00038161	4.231e-05	410.87	9.8455e-07	1.7694e-06	334.19	148.49	2.2015e-06	2.1377e-06	144.37	47.4	46.34	20.655	1.889e-06	20.112	0.00055945	0.00078106	0.00021045	457.3	8.2864e-06	8.132e-06	360.75	160.62	7.5833e-06	8.1291e-06	156.47	51.789	50.965	22.686	7.8345e-06	22.162	-136.916	-87.943	-117.405	-164.146	134.255	-20.920	-166.145	-159.302	-13.034	-14.724	-161.881	-157.557	-154.824	-149.467	-28.708	-152.203	-8191	255	
1548.042	1	1	0	0	0.04854	0.074506	0.14774	0.14849	0.1697	0.047549	0.20473	0.15258	0.076558	0.062507	0.21269	0.15732	0.15008	0.18998	0.33863	0.063388	-1.2479	-0.86458	-1.4479	-1.4562	-0.68125	-1.7563	-0.92083	-1.1688	-1.5646	-0.72917	-1.4271	-1.2	-0.85417	-1.7396	-1.0187	-0.87708	75.048	-16.999	1.522	-109.808	-130.744	16.989	-135.463	173.504	-20.972	-17.893	121.861	93.287	-124.202	-143.236	-4.077	25.221	0.0001711	0.00017503	6.378e-05	415.92	2.4847e-06	3.403e-06	335.85	149.8	1.3946e-06	5.8094e-07	143.3	46.511	46.315	20.466	9.2108e-08	19.426	0.00053498	0.00074102	0.00020228	461.21	8.1575e-06	8.1066e-06	362.58	161.62	7.468e-06	8.0366e-06	155.24	50.792	50.787	22.386	7.7313e-06	21.418	-134.969	-126.233	-106.076	-164.501	8.855	-40.687	-166.352	-159.011	-20.693	18.801	-161.902	-157.342	-155.094	-149.609	131.969	-152.918	-8191	255	
1548.138	1	1	0	0	0.30821	0.15681	0.1943	0.098883	0.15093	0.066306	0.17857	0.33762	0.2583	0.074221	0.42138	0.044732	0.24376	0.089486	0.075531	0.08103	-1.2	-0.87917	-1.1667	-1.5646	-0.81042	-1.6354	-1.2021	-0.93542	-1.6	-0.94792	-1.1625	-1.4896	-0.61042	-1.6396	-1.2833	-0.85833	-172.971	-101.527	-125.667	37.425	162.457	-120.375	20.282	140.629	121.908	-7.666	150.078	-176.857	-54.556	-107.408	-150.865	48.430	0.00016335	0.0001044	6.9458e-05	421.28	2.2456e-06	1.8121e-06	331.82	148.84	1.8798e-06	3.2301e-06	142.34	45.974	45.972	20.129	2.2587e-06	19.067	0.00053498	0.00073852	0.00020207	461.66	8.1649e-06	8.1353e-06	359.2	161.32	7.9194e-06	8.7153e-06	154.33	50.348	50.61	22.083	8.4564e-06	20.985	-140.536	-113.236	-54.798	-164.311	-18.016	-69.181	-166.036	-159.311	-71.752	-10.287	-161.781	-157.660	-154.961	-149.964	-116.010	-152.835	-8191	255	
1548.234	1	1	0	0	0.2531	0.063829	0.10659	0.2161	0.14247	0.15202	0.21855	0.29535	0.12753	0.10891	0.17249	0.1683	0.16534	0.20206	0.32083	0.42745	-1.4875	-0.77708	-1.0667	-1.5604	-0.78542	-1.4396	-1.3146	-0.82292	-1.6063	-1.05	-1.2042	-1.5646	-0.95833	-1.2687	-1.2229	-0.88125	-135.255	-27.009	-144.393	89.906	-162.870	-67.647	30.083	-166.677	146.835	16.312	-24.348	-70.082	39.734	93.573	-24.602	99.468	0.00016433	0.00025666	0.00010768	417.7	2.1938e-06	3.4956e-06	333.28	150.61	3.3466e-07	2.1584e-06	143.74	45.66	46.065	19.861	3.1075e-06	18.726	0.0005706	0.0007801	0.00021966	465.19	8.5401e-06	8.4744e-06	361.62	162.76	8.0053e-06	8.6648e-06	155	49.895	50.522	21.766	8.2141e-06	20.589	-135.746	-151.923	-50.670	-164.496	-27.488	-71.930	-166.248	-159.313	-49.162	30.265	-162.232	-158.022	-155.254	-150.407	-93.070	-153.122	-8191	255	
1548.330	1	1	0	0	0.14576	0.12209	0.22299	0.12501	0.12284	0.093114	0.060502	0.023704	0.12884	0.078148	0.21138	0.23919	0.16706	0.12843	0.178	0.3724	-1.3854	-1.1812	-0.88542	-1.4958	-0.72917	-1.5104	-1.4229	-0.88542	-1.4958	-0.92083	-1.0146	-1.7021	-0.925	-1.4438	-1.1917	-0.78125	72.363	116.005	140.690	-50.079	175.400	-43.298	144.855	57.107	-55.663	-90.728	141.059	45.763	-138.271	73.877	-66.060	-38.155	0.00017336	0.00033542	4.7768e-05	429.58	1.547e-06	2.4958e-06	345.15	155.29	1.1744e-06	3.1718e-06	148.2	46.569	47.817	20.282	1.569e-06	18.868	0.00057526	0.00081129	0.00022923	477.66	9.1055e-06	9.119e-06	372.5	168.79	8.8258e-06	9.2916e-06	160.99	51.03	52.57	22.25	9.8873e-06	20.902	-128.701	-79.030	-47.660	-164.473	21.318	-32.375	-166.315	-159.700	9.546	11.118	-162.302	-158.014	-156.065	-150.500	-17.764	-153.995	-8191	255	
1548.426	1	1	0	0	0.1299	0.10872	0.29267	0.021762	0.14236	0.14433	0.12971	0.095839	0.10943	0.41656	0.19525	0.089843	0.092051	0.16627	0.15139	0.21437	-1.3333	-1.1229	-0.80833	-1.6479	-0.9875	-1.4958	-1.6458	-0.73958	-1.5604	-1.3708	-0.98542	-1.5875	-0.94167	-1.0917	-1.5688	-0.76458	1.974	141.361	94.866	-121.517	128.633	-7.758	-147.435	179.069	-155.324	-48.768	152.505	-34.836	162.882	156.757	92.285	-82.489	0.0001796	0.00011686	0.00011251	450.21	3.1346e-06	1.912e-06	364.01	164.78	2.0991e-06	3.7343e-06	154.21	48.041	49.285	20.603	1.1649e-06	18.98	0.000689	0.00095297	0.00027858	504.77	1.098e-05	1.1136e-05	393.3	178.55	1.0456e-05	1.1084e-05	168.11	52.649	54.39	22.619	1.0629e-05	20.941	-135.505	-94.463	-134.869	-164.512	-19.453	63.465	-166.346	-160.199	-32.917	-43.136	-162.903	-158.362	-156.082	-150.784	47.255	-153.674	-8191	255	
1548.522	1	1	0	0	0.11499	0.34465	0.42795	0.23216	0.10572	0.057028	0.1149	0.1786	0.21268	0.091531	0.030716	0.33603	0.21201	0.11286	0.41027	0.18877	-1.0625	-1.1	-0.78333	-1.5688	-0.9	-0.93333	-1.7396	-0.92917	-1.4813	-1.4396	-0.80625	-1.7271	-1.0458	-1.1104	-1.7271	-0.89167	-152.871	119.651	20.070	79.215	-172.691	-4.067	128.947	-45.217	-100.211	-115.338	65.450	95.344	32.365	83.702	53.382	36.001	0.00017813	9.8089e-05	2.2459e-05	460.26	5.8153e-07	5.5597e-07	363.23	165.31	2.0874e-06	1.6419e-06	152.79	47.533	49.446	20.631	1.1071e-06	18.924	0.0007246	0.0010085	0.00028405	512.01	1.1122e-05	1.1519e-05	392.68	179.48	1.0764e-05	1.1278e-05	166.25	52.42	54.26	22.7	1.0509e-05	20.936	-135.698	132.601	-117.158	-164.170	7.807	-130.865	-166.690	-160.076	-72.162	-53.767	-162.554	-158.140	-155.912	-150.797	85.242	-153.713	-8191	255	
1548.643	1	1	0	0	0.35652	0.09843	0.13413	0.27894	0.050018	0.12953	0.14169	0.19682	0.2353	0.34152	0.17551	0.15434	0.19757	0.083661	0.0622	0.33431	-0.94375	-1.4167	-0.75417	-1.625	-1.0063	-1.2021	-1.8458	-0.79583	-1.1208	-1.5479	-0.81458	-1.675	-1.225	-0.75625	-1.5958	-0.7875	151.720	23.747	-91.424	-94.173	13.150	127.181	-144.378	153.633	-146.511	0.413	75.015	-122.216	121.255	112.464	169.696	95.140	0.00018136	0.00031851	0.00010409	459.82	2.5984e-06	3.2775e-06	359.08	163.91	1.3977e-06	2.0674e-06	150.81	47.439	48.675	20.704	3.7526e-06	19.066	0.00069364	0.00094665	0.00026909	506.69	9.827e-06	1.0092e-05	387.98	176.9	9.1622e-06	9.2705e-06	164.12	52.007	53.578	22.637	8.2468e-06	20.964	-139.254	-69.263	-68.100	-164.801	-49.075	2.419	-166.916	-159.958	-28.082	-10.966	-162.805	-158.271	-155.976	-150.428	-30.261	-153.924	-8191	255	
1548.737	1	1	0	0	0.27315	0.36545	0.19089	0.1395	0.22588	0.20432	0.25496	0.28453	0.05999	0.40588	0.13847	0.035913	0.23853	0.21323	0.26328	0.04545	-0.775	-1.5042	-0.73542	-1.4521	-1.1917	-0.88125	-1.6313	-0.89167	-1.3167	-1.6021	-0.81458	-1.5	-1.1979	-0.82708	-1.6375	-0.85417	-76.150	166.483	69.683	-164.352	149.507	85.404	124.408	52.662	109.200	63.211	99.501	7.060	4.269	29.957	-142.623	-164.236	0.0001581	0.0002889	5.7776e-05	446.18	1.2129e-06	1.6426e-06	354.79	161.7	1.7221e-06	1.7424e-06	150.68	47.728	48.625	20.925	2.0852e-06	19.447	0.00055447	0.00071376	0.00020342	492.19	7.5996e-06	7.7416e-06	382.04	174.23	7.057e-06	7.1546e-06	162.74	52.027	53.139	22.83	6.8639e-06	21.37	-130.265	-93.620	-79.456	-164.701	-39.811	-10.610	-166.493	-159.745	-38.662	-30.091	-162.506	-158.214	-155.686	-150.245	-4.304	-153.468	-8191	255	
1548.833	1	1	0	0	0.079421	0.16302	0.16557	0.30694	0.2108	0.34625	0.11748	0.11626	0.34674	0.2364	0.38528	0.46709	0.10352	0.23182	0.10869	0.037315	-0.725	-1.5229	-0.75833	-1.2563	-1.4062	-0.78958	-1.6042	-1.0625	-0.68542	-1.8146	-0.69375	-1.3979	-1.4542	-0.7625	-1.4417	-1.1792	-11.657	-21.673	47.446	-80.342	136.053	-82.397	-150.058	-16.409	-69.331	-61.603	158.539	127.659	-100.925	60.755	-58.240	-82.847	0.00017604	0.00017781	6.4131e-05	445.1	1.6787e-06	2.5979e-06	352.43	160.06	1.1155e-06	2.3956e-06	150.51	47.545	48.11	20.737	1.6749e-06	19.027	0.00049529	0.00062374	0.00017718	486.84	6.6901e-06	6.9021e-06	379.92	173.05	6.3665e-06	6.2386e-06	162.14	51.814	52.686	22.599	6.0156e-06	20.844	-135.424	-74.516	-84.490	-164.365	-34.194	24.978	-166.422	-159.688	-19.122	-7.945	-162.552	-157.799	-155.794	-150.197	-26.158	-153.495	-8191	255	
1548.954	1	1	0	0	0.25239	0.034246	0.2637	0.21239	0.41851	0.23567	0.1821	0.04572	0.041186	0.12414	0.17735	0.078313	0.18092	0.051119	0.26268	0.067977	-0.58125	-1.7771	-0.70833	-1.1667	-1.5396	-0.82083	-1.6688	-1.1354	-1.0042	-1.7146	-0.82917	-1.2437	-1.5875	-0.79375	-1.45	-1.2667	-118.316	182.007	17.665	146.538	94.986	-92.911	-14.113	72.254	-169.865	100.259	94.408	-64.361	79.863	6.346	-126.861	80.700	0.00017106	0.00022453	6.5766e-05	446.69	1.0184e-06	1.2972e-06	351.02	160.27	1.5837e-06	3.0963e-06	147.7	46.324	47.688	20	1.8374e-06	18.381	0.00041905	0.00050879	0.00014345	483.85	5.2014e-06	5.3508e-06	377.83	172.62	4.9458e-06	4.8824e-06	159.17	50.047	51.89	21.846	4.4753e-06	20.009	-135.642	-119.162	-93.438	-164.167	-20.240	-23.650	-166.277	-159.701	-25.241	-54.209	-162.350	-158.453	-155.785	-150.697	-28.674	-153.617	-8191	255	
1549.026	1	1	0	0	0.21306	0.21206	0.18285	0.25488	0.26723	0.04294	0.090158	0.28409	0.096558	0.20762	0.43661	0.24095	0.061093	0.17614	0.0097909	0.13816	-0.30208	-1.6896	-0.82292	-1.1271	-1.5	-0.61042	-1.4458	-1.3396	-0.74583	-1.7104	-0.98958	-1.1583	-1.7521	-0.65417	-1.3708	-1.3792	124.236	40.138	49.749	97.645	14.967	22.129	-5.514	-85.097	36.507	-7.952	46.788	130.796	116.270	70.325	-32.745	165.455	0.00016387	0.00026235	4.5611e-05	447.04	1.8848e-06	2.0056e-06	356.17	160.58	1.9271e-06	4.1303e-06	150.33	46.946	47.896	20.284	2.0602e-06	18.739	0.00032675	0.00039872	0.00010759	483.22	4.0671e-06	4.1648e-06	381.26	173.4	4.118e-06	3.9671e-06	160.76	50.517	52.108	22.091	3.7649e-06	20.437	-133.917	-112.058	-91.762	-164.746	-47.760	9.305	-166.306	-159.675	-25.489	-39.817	-162.799	-158.412	-156.102	-150.819	-63.857	-153.869	-8191	255	
1549.122	1	1	0	0	0.1526	0.1542	0.051053	0.11316	0.053691	0.17567	0.023493	0.356	0.1992	0.20465	0.21697	0.19487	0.17082	0.22144	0.1477	0.12617	-0.44375	-1.5583	-0.95833	-0.95208	-1.6375	-0.73542	-1.4	-1.4646	-0.59375	-1.4708	-1.125	-0.82708	-1.6792	-0.93542	-1.1812	-1.6083	-92.161	13.446	117.139	-95.867	-81.304	-24.114	-39.638	126.832	-109.402	-27.338	166.192	-31.856	-56.116	52.960	46.980	45.635	0.00017519	9.2781e-05	7.6223e-05	451.77	2.2004e-06	1.2005e-06	360.61	162.83	2.111e-06	2.0949e-06	153.78	47.929	48.548	20.853	2.6635e-06	19.346	0.00030325	0.00033709	9.2387e-05	485.24	3.5451e-06	3.6968e-06	387.43	175.47	3.5397e-06	3.4532e-06	164.33	51.732	52.894	22.568	3.4341e-06	21.027	-134.860	-87.164	-58.409	-164.585	-50.821	-45.733	-165.933	-160.047	-34.331	-28.836	-162.586	-158.073	-155.753	-150.469	-19.592	-153.437	-8191	255	
1549.218	1	1	0	0	0.29342	0.24924	0.051048	0.13311	0.09914	0.036917	0.27172	0.30789	0.13685	0.18259	0.22231	0.11425	0.2171	0.1279	0.25106	0.24006	-0.38958	-1.5458	-1.1104	-0.81042	-1.6521	-0.83125	-1.2938	-1.6146	-0.74583	-1.6146	-1.2896	-0.81042	-1.8542	-0.9375	-1.15	-1.6604	-40.244	86.286	42.365	168.627	41.286	14.225	-107.373	-164.938	84.618	-133.410	74.090	-173.520	-161.581	-52.212	-107.063	24.592	0.00018651	0.00025093	4.4513e-05	452.52	1.8974e-06	2.037e-06	368.74	165.89	1.8798e-06	1.5014e-06	156.96	49.372	50.036	21.447	2.0307e-06	20.196	0.00027782	0.0003104	8.5475e-05	489.3	3.3093e-06	3.3854e-06	394.89	178.56	3.433e-06	3.3197e-06	168.64	53.525	54.313	23.286	3.4033e-06	21.992	-133.089	-98.008	-73.954	-163.935	-30.689	-34.198	-166.033	-159.779	-24.823	-13.474	-162.654	-157.851	-155.313	-150.171	-48.939	-153.163	-8191	255	
1549.339	1	1	0	0	0.29004	0.2646	0.34303	0.27592	0.084126	0.10304	0.25064	0.23518	0.17739	0.065461	0.23214	0.38693	0.025082	0.21536	0.21737	0.12522	-0.36042	-1.3854	-1.3375	-0.71667	-1.7521	-1.0021	-1.1667	-1.6271	-0.65208	-1.2125	-1.4979	-0.85417	-1.4271	-0.8875	-0.87708	-1.5521	-12.247	-113.048	-166.684	-58.957	-161.551	-130.667	14.811	132.473	-44.700	62.140	49.775	143.194	-107.440	108.422	81.177	-34.389	0.00019	0.0002648	4.3883e-05	463.23	2.7662e-06	9.7575e-07	376.02	168.48	2.6478e-06	2.2236e-06	160.61	50.25	51.237	21.898	2.4014e-06	20.519	0.00027782	0.00030057	8.6561e-05	496.08	3.2671e-06	3.3547e-06	401.59	181.6	3.4721e-06	3.4407e-06	172.27	54.577	55.339	23.773	3.47e-06	22.211	-133.529	-73.829	-83.310	-163.812	-29.708	-35.067	-166.100	-159.935	-7.855	-10.152	-162.318	-157.824	-155.530	-150.152	-26.806	-153.247	-8191	255	
1549.435	1	1	0	0	0.18433	0.26516	0.21732	0.17328	0.14942	0.20712	0.24045	0.18682	0.072075	0.17399	0.13798	0.29288	0.29192	0.26586	0.087978	0.15687	-0.2375	-1.4042	-1.4458	-0.70208	-1.4521	-1.2042	-1.0479	-1.6875	-0.66667	-1.2687	-1.6583	-0.79792	-1.5271	-1.2958	-0.63125	-1.6458	104.373	94.495	120.831	47.645	177.129	56.197	127.444	149.139	-157.326	63.752	41.134	-66.925	-162.037	146.316	-50.143	49.977	0.00019409	0.00022407	6.8061e-05	468.71	1.1474e-06	1.9047e-06	374	169.41	1.3813e-06	3.0772e-06	158.72	49.648	50.96	21.602	3.0897e-06	19.942	0.00028355	0.00031001	8.8749e-05	500.37	3.4356e-06	3.4439e-06	400.82	182.5	3.4183e-06	3.557e-06	170.17	53.845	55.01	23.54	3.5588e-06	21.743	-134.265	-81.138	-91.943	-163.603	-23.234	-8.944	-165.662	-159.494	1.453	-1.301	-162.241	-157.795	-155.380	-149.952	-28.243	-153.317	-8191	255	
1549.531	1	1	0	0	0.062737	0.1864	0.15743	0.14304	0.34932	0.27741	0.40595	0.23921	0.32788	0.093995	0.095839	0.14706	0.1385	0.13049	0.099137	0.11392	-0.48958	-1.0354	-1.7188	-0.8875	-1.4479	-1.3875	-0.95	-1.7646	-0.83125	-1.1396	-1.7188	-0.91875	-1.325	-1.3792	-0.84375	-1.6688	-99.870	-72.329	56.100	152.712	114.330	-155.388	112.941	156.373	-68.523	-33.238	5.611	-141.658	-110.742	-126.847	169.965	74.639	0.00017653	0.00022518	0.00010022	464.67	2.3829e-06	2.2792e-06	369.87	168.49	1.9893e-06	1.4042e-06	157.21	48.729	50.346	21.062	1.668e-06	19.182	0.00028211	0.00031737	8.4928e-05	497.9	3.4768e-06	3.4383e-06	396.36	181.71	3.5378e-06	3.6389e-06	168.41	52.7	54.515	22.889	3.7615e-06	20.804	-135.231	-60.825	-85.616	-163.772	-23.899	-49.568	-166.694	-159.821	-57.095	-30.965	-162.958	-158.261	-156.336	-151.009	-58.793	-153.939	-8191	255	
1549.603	1	1	0	0	0.12516	0.04837	0.097154	0.24566	0.3326	0.22652	0.10285	0.10701	0.26932	0.13902	0.20428	0.13139	0.12893	0.16303	0.030486	0.13143	-0.67292	-1.0708	-1.6	-0.64375	-1.5229	-1.4604	-0.825	-1.7167	-1.1792	-1.0417	-1.725	-0.7375	-1.3792	-1.3604	-0.78958	-1.7188	-15.717	-36.274	21.070	132.797	-82.374	25.652	133.435	78.418	-5.958	36.001	20.885	-176.003	-42.235	-112.620	97.520	139.923	0.00015879	0.00012975	7.9655e-05	480.36	1.1128e-06	2.1309e-06	396.03	179.66	2.6098e-06	1.9386e-06	165.96	49.056	51.638	20.099	2.5855e-06	17.953	0.00028773	0.00034021	9.4964e-05	517.7	3.7301e-06	3.8283e-06	423.06	192.6	3.8305e-06	4.0219e-06	177.95	52.918	55.811	21.826	4.045e-06	19.593	-134.647	-98.727	-103.368	-164.995	-47.185	-21.171	-166.604	-160.337	-37.051	-18.592	-163.419	-159.698	-157.064	-152.444	-28.951	-156.063	-8191	255	
1549.722	1	1	0	0	0.31381	0.024433	0.31874	0.29307	0.19718	0.1334	0.16005	0.32295	0.24216	0.062789	0.1944	0.066426	0.083402	0.21603	0.30111	0.098527	-0.92917	-0.99792	-1.9208	-0.91667	-1.1917	-1.7188	-0.45833	-1.7292	-1.2583	-0.76458	-1.6104	-0.75417	-0.97083	-1.5208	-0.70833	-1.5688	-159.265	149.257	-145.586	-137.274	-87.963	171.308	84.694	29.793	-85.762	66.389	114.203	-91.859	-174.167	164.459	-47.361	109.789	0.00016749	0.00023409	5.7972e-05	528.73	1.2996e-06	1.3778e-06	436.11	191.47	2.2323e-06	1.5554e-06	173.08	49.837	52.291	20.1	2.3425e-06	18.063	0.00029982	0.00038177	0.00010357	567.71	4.2242e-06	4.0154e-06	467.06	205.44	4.2207e-06	4.4016e-06	185.64	53.724	56.8	21.904	4.435e-06	19.676	-134.922	-84.492	-71.774	-165.423	-61.646	-25.446	-167.637	-161.345	-40.777	17.108	-164.777	-160.557	-157.852	-152.910	-74.884	-156.218	-8191	255	
1549.818	1	1	0	0	0.036685	0.094692	0.049653	0.1779	0.16059	0.23395	0.33028	0.061331	0.15393	0.21199	0.28155	0.29808	0.33159	0.13867	0.092108	0.030993	-0.71042	-0.79375	-1.5938	-0.94792	-1.0354	-1.4937	-0.82917	-1.5333	-1.3438	-0.91458	-1.7833	-1.1104	-1.1187	-1.7208	-0.90625	-1.4146	-166.858	-80.490	-13.748	-41.238	-18.280	7.086	92.173	-8.194	-156.267	17.185	144.863	99.329	104.962	-173.896	-65.848	-25.903	0.00016723	0.00038306	7.2194e-05	516.37	1.2714e-06	2.7382e-06	419.89	184.75	2.0345e-06	2.2171e-06	166.23	48.658	51.37	20.749	1.6651e-06	18.692	0.00033045	0.00042818	0.00011492	556.98	4.6843e-06	4.6041e-06	449.26	198.7	4.4559e-06	4.7466e-06	178.25	52.948	55.757	22.447	4.2927e-06	20.332	-129.716	-95.402	-68.421	-165.403	-27.350	-22.772	-167.482	-161.337	-41.545	-28.018	-164.109	-160.030	-157.375	-152.210	-52.517	-155.310	-8191	255	
1549.916	1	1	0	0	0.16686	0.072658	0.13355	0.12895	0.1784	0.076615	0.03394	0.0771	0.20637	0.18157	0.067583	0.30587	0.028053	0.37327	0.18841	0.40258	-1.1083	-0.6875	-1.5875	-1.125	-1.125	-1.6396	-0.87917	-1.4354	-1.5312	-0.78333	-1.675	-1.3146	-0.95833	-1.5521	-0.90208	-1.2854	13.731	-138.962	-25.372	115.042	-178.352	52.542	133.316	62.658	-18.933	-34.081	90.201	164.762	120.227	155.513	113.410	-129.255	0.00017835	0.00026846	6.1497e-05	489.05	2.4965e-06	2.6524e-06	393.1	175.42	1.2165e-06	1.9094e-06	160.01	49.249	51.004	21.402	2.1543e-06	19.669	0.00031967	0.0003913	0.00010592	523.16	4.1869e-06	4.2481e-06	421.97	188.65	4.225e-06	4.6719e-06	172.31	53.454	55.402	23.373	4.8936e-06	21.581	-130.369	-125.338	-82.633	-164.926	-17.183	-47.045	-167.239	-160.604	-26.912	-10.982	-163.428	-159.529	-156.430	-151.309	-56.908	-154.169	-8191	255	
1550.034	1	1	0	0	0.11378	0.089849	0.27337	0.28956	0.14763	0.11366	0.12822	0.066363	0.031663	0.27541	0.11948	0.089991	0.26838	0.22496	0.069072	0.12395	-1.1812	-0.77917	-1.6125	-1.2354	-0.62083	-1.7208	-0.9375	-1.1375	-1.4229	-0.87083	-1.6917	-1.225	-0.75208	-1.525	-1.1167	-1.0771	-176.778	46.552	127.177	-145.955	-174.330	3.543	-51.270	43.266	-124.401	-174.200	-132.512	-35.081	119.981	72.879	-154.526	107.741	0.0001738	0.00023139	3.9858e-05	461.41	2.6827e-06	1.7442e-06	373.8	168.07	2.0938e-06	2.5361e-06	156.98	50.472	50.377	22.029	9.7663e-07	21.04	0.00036555	0.00047709	0.00013102	498.49	5.2629e-06	5.3227e-06	401.1	180.74	5.2947e-06	5.7019e-06	169.08	54.711	55.215	24.156	5.7594e-06	23.042	-128.481	-95.739	-90.825	-165.522	1.643	59.612	-166.767	-160.169	-48.970	-14.702	-162.591	-158.013	-155.689	-150.421	-68.798	-153.517	-8191	255	
1550.131	1	1	0	0	0.103	0.29563	0.24774	0.14021	0.012566	0.27964	0.34517	0.23044	0.21599	0.21253	0.033292	0.18653	0.053406	0.27276	0.26724	0.19883	-1.3542	-0.93958	-1.3042	-1.2854	-0.88125	-1.5771	-1.1958	-0.825	-1.6729	-0.74792	-1.4	-1.3729	-0.80625	-1.6958	-1.1771	-1.0396	-76.345	-54.770	122.844	-133.518	-93.969	-107.748	-166.142	90.370	24.119	-155.064	167.008	-43.698	-147.666	13.111	126.485	14.322	0.00019356	0.00021056	0.00010444	443.38	3.2629e-06	1.2928e-06	362	161.81	2.2938e-06	3.3499e-06	156.22	52.057	50.36	23.024	2.4208e-06	22.817	0.00041934	0.00054495	0.00014709	480.65	5.7748e-06	5.6873e-06	387.89	174.58	5.462e-06	5.58e-06	168.11	56.714	54.863	25.018	5.3037e-06	24.994	-132.619	-92.040	-80.397	-165.061	-50.609	-27.325	-166.514	-160.087	-52.345	-57.715	-162.612	-158.071	-155.416	-149.482	-47.231	-152.762	-8191	255	
1550.227	1	1	0	0	0.13353	0.28624	0.22838	0.067808	0.10894	0.12948	0.039653	0.22939	0.26059	0.11555	0.30451	0.17364	0.15531	0.16852	0.29845	0.19543	-1.2417	-0.84792	-1.2125	-1.3958	-0.80417	-1.6	-1.1313	-1.1458	-1.5417	-0.94375	-1.3458	-1.5417	-0.7625	-1.7667	-1.1458	-0.86875	-175.082	42.762	-69.548	165.787	164.272	8.826	-143.211	127.515	-155.997	-127.501	64.758	139.588	-89.026	-158.869	88.840	146.337	0.00020642	0.00031539	8.7508e-05	433.69	1.6476e-06	2.252e-06	357.59	158.68	1.9279e-06	2.7806e-06	156.31	52.781	49.577	23.139	2.1349e-06	23.232	0.00040388	0.00048368	0.00013503	467.91	5.1719e-06	5.0649e-06	384.5	171.47	4.6192e-06	4.6908e-06	168.06	57.566	54.496	25.245	4.2219e-06	25.358	-134.409	-83.215	-78.052	-164.916	-68.305	1.614	-166.796	-159.767	-43.646	-50.054	-162.252	-157.771	-154.846	-149.496	-36.688	-152.643	-8191	255	
1550.323	1	1	0	0	0.059333	0.22214	0.028571	0.31434	0.19649	0.061854	0.020112	0.15332	0.21656	0.18016	0.049833	0.11538	0.20477	0.16588	0.088662	0.18769	-1.375	-0.82917	-1.2313	-1.6104	-0.74792	-1.5083	-1.4333	-0.70833	-1.4438	-0.93958	-1.1187	-1.5771	-0.62917	-1.525	-1.3896	-0.89583	-17.115	-6.211	-13.375	128.802	107.084	142.129	-104.118	163.712	13.166	175.327	89.606	56.961	22.521	-158.456	-13.781	178.226	0.00022583	0.00027188	6.5125e-05	421.74	1.0914e-06	2.551e-06	349.47	155.65	1.9778e-06	2.3261e-06	151.01	52.096	49.631	23.152	2.0157e-06	23.283	0.00032629	0.00038094	0.00010096	454.83	3.9994e-06	4.0101e-06	374.09	167.59	3.7837e-06	3.8729e-06	163.41	56.582	53.931	25.193	3.8011e-06	25.494	-134.549	-87.763	-85.638	-165.269	-20.867	-34.618	-166.788	-159.839	-49.059	-10.370	-162.291	-157.770	-155.209	-149.521	-50.665	-152.853	-8191	255	
1550.419	1	1	0	0	0.090623	0.23013	0.084589	0.30965	0.089189	0.38782	0.13034	0.07592	0.057449	0.11248	0.28522	0.15841	0.31295	0.22268	0.16473	0.28963	-1.325	-0.93958	-1.1208	-1.6854	-0.82917	-1.4792	-1.5521	-0.7	-1.6625	-1.1125	-1.0375	-1.8438	-0.7625	-1.3438	-1.4917	-0.88958	-158.497	-74.078	-75.712	84.824	85.626	-98.430	-54.155	134.071	-28.380	-65.193	3.540	90.057	129.080	-144.444	25.009	160.207	0.00021186	0.00023631	4.8238e-05	419.09	1.9327e-06	2.8538e-06	344.23	154.16	1.2655e-06	2.3863e-06	153.38	53.338	50.274	23.678	1.8607e-06	24.008	0.00031246	0.00034331	9.7492e-05	450.8	3.7188e-06	3.7645e-06	371.34	167.08	3.6455e-06	3.7777e-06	165.39	58.01	54.62	25.822	3.6607e-06	26.292	-132.302	-76.627	-132.547	-165.165	-33.649	-38.304	-166.900	-159.516	-61.150	-13.862	-162.026	-157.338	-155.090	-149.428	-40.783	-152.926	-8191	255	
1550.515	1	1	0	0	0.38378	0.19218	0.046459	0.32596	0.3074	0.39512	0.095393	0.13134	0.20699	0.16829	0.10135	0.39206	0.17182	0.058221	0.30296	0.04709	-1.1771	-1.1125	-0.75625	-1.5562	-0.93542	-1.2375	-1.7	-0.84375	-1.6354	-1.1187	-0.8125	-1.6792	-0.93542	-1.2083	-1.7417	-0.75	-49.335	31.268	96.452	75.926	-4.321	-50.836	-70.975	53.981	-90.722	-161.657	162.368	73.869	-141.134	-52.035	26.875	30.048	0.00021206	0.00013441	5.7604e-05	419.51	1.8969e-06	1.7611e-06	349.22	157.59	1.5708e-06	2.7577e-06	155.88	53.83	50.922	23.936	2.6902e-06	24.185	0.00030789	0.00032943	9.6447e-05	452	3.7084e-06	3.5864e-06	374.4	169.97	3.4865e-06	3.5735e-06	167.34	58.506	55.402	26.021	3.4451e-06	26.256	-133.605	-101.791	-104.107	-164.881	-26.114	11.279	-166.538	-159.640	-50.282	-23.451	-162.215	-157.410	-155.053	-149.495	-44.369	-152.283	-8191	255	
1550.636	1	1	0	0	0.024598	0.11857	0.27386	0.070262	0.13148	0.18749	0.17518	0.1558	0.19856	0.080462	0.13889	0.38116	0.097957	0.26702	0.15931	0.25972	-1.3354	-1.1479	-0.97292	-1.6104	-1.0458	-1.1979	-1.6271	-0.93125	-1.4188	-1.4917	-1.0333	-1.6896	-1	-1.0229	-1.8312	-0.84792	-141.453	93.653	179.329	81.961	-113.612	92.747	73.129	146.414	-86.800	26.815	111.583	-70.011	69.019	-74.632	-140.196	-134.440	0.00021592	0.00015755	5.0635e-05	420.91	1.5341e-06	2.4989e-06	352.43	158.71	1.431e-06	2.127e-06	154.36	52.94	50.711	23.583	1.3548e-06	23.075	0.00028399	0.00030655	8.5276e-05	456.41	3.2406e-06	3.2915e-06	377.3	171.26	3.2076e-06	3.1469e-06	166.05	57.354	55.126	25.606	3.0681e-06	25.143	-134.468	-80.019	-74.594	-165.000	0.515	-54.021	-166.479	-159.537	-43.397	-40.996	-161.860	-157.548	-154.852	-149.470	-53.240	-152.606	-8191	255	
1550.730	1	1	0	0	0.094681	0.1799	0.16542	0.11017	0.18959	0.24836	0.22823	0.18882	0.30192	0.14941	0.27845	0.13337	0.079479	0.18344	0.039155	0.27717	-1.0854	-1.4375	-0.72083	-1.5979	-1.0375	-1.0125	-1.5979	-0.9125	-1.4417	-1.5312	-0.78958	-1.6417	-1.4021	-0.94375	-1.7437	-1.1812	-87.948	181.494	36.525	-97.318	118.777	-28.534	114.212	-143.491	95.808	131.517	-5.329	85.767	-136.138	26.560	-150.963	23.125	0.00021229	0.0003012	9.2478e-05	424.17	1.5775e-06	1.9456e-06	343.32	156.76	1.9739e-06	3.6858e-06	150.62	51.465	49.589	22.988	2.2188e-06	22.39	0.00026094	0.00027584	7.7412e-05	455.7	2.9985e-06	3.1954e-06	368.71	168.81	2.9531e-06	2.9539e-06	161.51	55.589	54.022	25.058	2.8522e-06	24.359	-137.404	-114.475	-77.688	-164.478	-79.256	-42.160	-166.317	-159.299	-50.898	-55.701	-162.057	-156.980	-154.961	-149.558	-34.935	-152.540	-8191	255	
1550.826	1	1	0	0	0.23091	0.07563	0.20341	0.12638	0.30171	0.075851	0.16858	0.368	0.08614	0.15429	0.14559	0.097005	0.10206	0.18553	0.065624	0.09861	-0.89792	-1.575	-0.7125	-1.5104	-1.3479	-0.88333	-1.8833	-1.0833	-1.0646	-1.6125	-0.72708	-1.6104	-1.3687	-0.95417	-1.8021	-0.92917	136.600	79.170	-26.959	129.146	109.207	-131.485	93.892	-105.367	-174.541	-28.889	88.863	-130.729	60.319	107.476	5.695	174.053	0.00021969	0.00027413	3.9275e-05	416.52	2.004e-06	1.8417e-06	340.55	154.99	2.0369e-06	1.6992e-06	148.75	50.177	48.988	22.418	2.1733e-06	21.758	0.00025881	0.00026825	7.6889e-05	449.41	2.9898e-06	2.9035e-06	364.3	166.82	3.0268e-06	2.9261e-06	159.51	54.289	53.226	24.446	2.9963e-06	23.662	-136.134	-78.410	-83.086	-164.300	-0.652	-39.231	-166.355	-159.567	-37.725	-39.752	-161.893	-157.279	-155.278	-149.362	-53.426	-152.729	-8191	255	
1550.898	1	1	0	0	0.087954	0.25881	0.16491	0.33807	0.25726	0.2034	0.092245	0.48428	0.10119	0.22603	0.18629	0.15911	0.25664	0.024646	0.15395	0.21596	-0.67917	-1.7375	-0.63958	-1.4396	-1.4458	-0.77083	-1.5896	-1.0688	-0.99583	-1.5979	-0.90833	-1.5917	-1.5542	-0.72292	-1.5479	-1.1604	-14.145	2.309	2.227	-43.587	34.385	-61.309	174.108	131.511	98.330	-26.640	44.506	160.330	172.775	-169.868	-150.618	-172.242	0.00020527	0.00029007	8.3792e-05	418.31	1.5665e-06	2.8174e-06	340.23	154.09	1.5904e-06	2.2692e-06	149.53	50.473	48.906	22.428	2.2884e-06	21.842	0.00025929	0.00027382	7.9011e-05	449.89	2.9843e-06	3.1534e-06	365.42	166.31	3.1987e-06	3.1485e-06	160.03	54.634	53.378	24.374	3.2922e-06	23.767	-132.687	-97.581	-109.247	-164.507	-45.078	-12.534	-166.292	-159.407	-46.223	-31.071	-161.963	-157.168	-154.823	-149.233	-41.198	-152.309	-8191	255	
1550.996	1	1	0	0	0.21999	0.21079	0.31232	0.079556	0.14091	0.20454	0.1578	0.23348	0.24419	0.11726	0.3225	0.15525	0.22149	0.15135	0.13796	0.1413	-0.58333	-1.7437	-0.875	-1.3312	-1.4708	-0.72917	-1.6729	-1.4083	-0.70625	-1.8667	-0.97917	-1.45	-1.5438	-0.91458	-1.4854	-1.3083	-92.602	112.657	31.839	-51.677	19.958	-88.235	109.865	138.098	-127.713	-167.419	14.300	-65.973	-45.487	181.982	41.531	-20.767	0.00020679	0.00010798	4.5255e-05	422.38	1.3671e-06	2.8266e-06	347.84	156	1.8351e-06	3.0962e-06	150.95	51.236	49.458	22.487	2.5565e-06	21.78	0.00027295	0.00028984	8.3412e-05	455.45	3.1489e-06	3.3738e-06	372.27	167.62	3.3378e-06	3.2156e-06	162.46	55.476	53.816	24.454	3.2154e-06	23.747	-134.885	-66.907	-68.084	-164.246	-15.273	-54.607	-166.125	-159.319	-37.813	-29.664	-161.591	-157.019	-155.179	-149.190	-18.508	-152.284	-8191	255	
1551.115	1	1	0	0	0.038628	0.23609	0.021377	0.063927	0.19142	0.21181	0.11129	0.067009	0.1281	0.11875	0.11955	0.19169	0.23515	0.11893	0.084989	0.079754	-0.53125	-1.8479	-1.0875	-1.3229	-1.7604	-0.8375	-1.7479	-1.5167	-0.70417	-1.7354	-1.1354	-1.0021	-1.6812	-0.99583	-1.5771	-1.4521	84.713	-91.386	4.445	-139.240	75.525	-79.265	162.947	15.808	6.106	-129.630	-91.426	-53.006	-81.770	100.803	133.384	-93.651	0.00020247	0.00016507	4.0917e-05	428.91	1.8879e-06	2.4396e-06	344.8	154.39	1.9978e-06	2.949e-06	147.57	49.451	48.54	21.775	2.3315e-06	20.551	0.00027949	0.00029607	8.4149e-05	457.59	3.1761e-06	3.4059e-06	370.39	166.27	3.3177e-06	3.2549e-06	158.59	53.583	52.802	23.69	3.3158e-06	22.408	-135.454	-89.555	-99.390	-164.244	-38.640	-26.673	-166.050	-159.366	-49.813	-30.709	-162.078	-157.297	-154.698	-149.358	-49.962	-152.505	-8191	255	
1551.211	1	1	0	0	0.19039	0.19715	0.15819	0.062148	0.35222	0.070324	0.1513	0.10711	0.41593	0.31792	0.24321	0.10582	0.22842	0.27952	0.24754	0.24023	-0.30208	-1.6417	-1.0708	-1.1042	-1.8104	-0.75	-1.4896	-1.4813	-0.71042	-1.6542	-1.175	-0.92708	-1.9	-0.99167	-1.3375	-1.6	-36.761	-17.627	-158.158	131.329	-26.607	176.347	95.584	138.330	-29.683	6.330	-45.281	14.892	35.199	127.593	64.268	124.753	0.00019558	0.00028872	3.4597e-05	420.14	1.1661e-06	3.736e-06	340.69	152.83	1.6706e-06	2.1305e-06	143.11	47.567	47.715	21.292	1.4862e-06	19.822	0.00028083	0.00031924	8.6238e-05	454.14	3.4521e-06	3.557e-06	364.02	164.52	3.4969e-06	3.5282e-06	154.61	51.68	51.979	23.137	3.4961e-06	21.675	-132.801	-75.360	-91.305	-164.102	-16.516	-24.465	-165.938	-159.192	-54.103	-29.787	-161.735	-157.256	-154.836	-149.421	-9.356	-152.467	-8191	255	
1551.307	1	1	0	0	0.089002	0.1785	0.046184	0.17168	0.19088	0.28736	0.23344	0.18208	0.26139	0.16773	0.052679	0.061657	0.10959	0.12988	0.28482	0.22486	-0.41667	-1.5542	-1.2563	-0.875	-1.9	-1.0125	-1.3875	-1.5771	-0.7625	-1.6854	-1.3563	-0.89375	-1.7333	-1.0083	-1.1146	-1.6938	13.340	-142.067	100.055	165.937	167.738	162.267	-53.190	-104.845	-73.108	15.990	62.567	-119.050	-105.547	-150.720	-47.600	161.558	0.00018229	0.00020121	4.2333e-05	416.9	1.5637e-06	1.9973e-06	337.77	151.84	2.2627e-06	3.1908e-06	144.01	48.155	47.823	21.543	1.6234e-06	20.807	0.00028373	0.00031618	8.9552e-05	450.51	3.4502e-06	3.5338e-06	361.4	162.91	3.5807e-06	3.4757e-06	154.91	52.201	51.946	23.446	3.5695e-06	22.576	-133.090	-88.743	-82.286	-164.172	-14.076	-22.833	-166.295	-159.614	-49.036	-8.810	-162.242	-157.261	-154.620	-149.556	-33.267	-152.565	-8191	255	
1551.428	1	1	0	0	0.11829	0.10375	0.12326	0.24069	0.16257	0.19193	0.16444	0.13662	0.27059	0.15725	0.29433	0.18535	0.31414	0.12029	0.05874	0.13672	-0.29167	-1.6063	-1.1854	-0.72083	-1.7208	-0.93542	-1.1854	-1.6667	-0.77917	-1.2771	-1.4562	-0.80625	-1.6146	-1.1542	-1.0708	-1.5521	47.988	-78.044	-74.280	179.565	-88.801	54.982	-117.773	-126.504	102.349	-167.308	140.279	-1.434	51.687	149.236	-108.967	-144.518	0.0002027	0.00026881	6.5882e-05	419.07	1.9384e-06	1.7423e-06	344.79	153.68	2.8209e-06	1.8749e-06	151.27	51.136	49.225	22.437	1.3805e-06	21.813	0.00029009	0.0003272	8.8392e-05	451.36	3.6472e-06	3.6495e-06	369.04	165.86	3.6485e-06	3.5193e-06	162.28	55.233	53.719	24.374	3.6412e-06	23.85	-134.385	-80.362	-90.949	-164.725	-26.739	-16.587	-165.459	-158.973	-48.616	-24.866	-161.384	-156.650	-154.315	-149.308	-14.659	-152.282	-8191	255	
1551.499	1	1	0	0	0.17724	0.19179	0.10991	0.14751	0.17675	0.32272	0.075709	0.0082539	0.26931	0.097126	0.15655	0.27964	0.12336	0.18506	0.15955	0.15871	-0.21458	-1.3896	-1.4521	-0.62708	-1.5021	-1.3521	-0.88125	-1.8396	-0.86042	-1.2437	-1.7396	-0.725	-1.55	-1.3667	-0.83958	-1.6229	155.666	-142.970	-137.164	67.515	87.805	-44.979	93.764	15.002	156.936	-80.221	95.214	-55.647	135.279	-169.823	67.358	-145.515	0.00019329	0.00025255	5.3549e-05	427.32	1.6976e-06	2.4188e-06	354.9	158.13	1.8006e-06	2.1863e-06	156.61	52.908	50.967	23.156	2.3408e-06	22.855	0.00028681	0.00031165	8.8384e-05	460.54	3.4411e-06	3.4909e-06	380.23	170.44	3.518e-06	3.6102e-06	168.6	57.498	55.343	25.173	3.691e-06	24.928	-136.792	-105.211	-70.348	-164.158	-19.631	-15.183	-165.946	-158.752	-41.599	-26.704	-162.129	-157.340	-155.226	-149.873	-27.027	-152.530	-8191	255	
1551.596	1	1	0	0	0.18652	0.11955	0.10207	0.26325	0.35864	0.23478	0.20933	0.12659	0.16408	0.13165	0.025943	0.22488	0.091695	0.33073	0.20852	0.074592	-0.64792	-1.1313	-1.5896	-0.69792	-1.6	-1.4542	-0.89375	-1.7604	-0.88333	-1.0542	-1.65	-0.7	-1.4708	-1.2729	-0.91875	-1.7521	-135.985	67.076	-141.896	113.220	-100.538	159.687	-130.069	37.266	20.174	100.313	149.982	-23.834	138.668	138.994	-86.423	19.975	0.00021814	0.00023973	6.4492e-05	435.68	1.9769e-06	3.676e-06	362.13	161.48	2.4617e-06	1.5345e-06	157.79	53.169	51.536	23.349	2.2671e-06	22.633	0.00030024	0.00032705	9.0796e-05	468.59	3.6737e-06	3.7493e-06	387.8	173.53	3.6779e-06	3.706e-06	169.55	57.648	55.923	25.44	3.7816e-06	24.629	-135.367	-84.121	-67.601	-164.372	-40.481	-26.546	-165.948	-159.029	-36.922	-12.070	-161.384	-156.703	-154.644	-149.198	-48.841	-152.370	-8191	255	
1551.716	1	1	0	0	0.10685	0.18602	0.1497	0.19405	0.13342	0.37926	0.18997	0.34412	0.12185	0.10857	0.14682	0.12137	0.076059	0.34678	0.16142	0.17311	-0.50417	-0.93542	-1.6229	-0.8625	-1.5708	-1.4792	-0.85833	-1.7104	-1.0896	-0.99375	-1.6833	-1.0042	-1.3021	-1.375	-0.71458	-1.7083	-5.611	-41.572	62.703	49.383	40.134	-135.083	98.749	142.588	-63.797	-167.856	78.041	-127.187	-171.654	-81.423	-116.145	-71.137	0.00020394	0.00018011	7.6924e-05	432.88	2.0037e-06	2.7232e-06	356.41	160.44	1.9646e-06	2.7992e-06	155.6	51.545	50.797	22.985	1.3743e-06	21.959	0.00030045	0.00033765	9.4326e-05	466.19	3.6831e-06	3.6908e-06	382.5	172.3	3.4761e-06	3.665e-06	166.8	56.173	55.09	24.987	3.6532e-06	23.921	-135.286	-79.380	-85.128	-164.537	-21.262	-8.181	-166.234	-159.310	-52.113	4.125	-162.019	-157.044	-155.148	-149.500	-42.976	-152.625	-8191	255	
1551.811	1	1	0	0	0.31894	0.41015	0.19507	0.25819	0.2556	0.10085	0.06668	0.18128	0.039191	0.15332	0.41508	0.30845	0.29645	0.22947	0.22716	0.22676	-0.61667	-0.90208	-1.625	-0.93125	-1.3208	-1.6896	-0.79792	-1.6083	-1.3604	-0.91667	-1.7458	-1.0375	-1.3708	-1.6854	-0.91667	-1.65	172.582	-130.892	-93.458	-40.810	-166.490	-143.014	112.706	168.998	-132.696	168.979	68.935	-166.665	133.656	-133.010	105.796	85.074	0.00020077	0.00026501	7.9827e-05	434.21	1.5343e-06	1.6325e-06	358.69	159.28	8.8397e-07	2.4503e-06	154.48	51.752	50.502	22.966	2.29e-06	21.966	0.00028965	0.00033035	8.8707e-05	465.09	3.561e-06	3.4095e-06	381.87	171.32	3.4057e-06	3.6614e-06	166.38	56.132	54.925	24.927	3.5235e-06	24.002	-130.634	-103.150	-56.405	-164.790	-21.240	-36.568	-166.066	-159.423	-45.286	-49.644	-161.843	-157.222	-154.833	-149.568	-16.858	-152.359	-8191	255	
1551.907	1	1	0	0	0.23914	0.14446	0.19506	0.074566	0.17672	0.22212	0.26837	0.12437	0.27929	0.15558	0.060611	0.17265	0.27366	0.095786	0.069303	0.098897	-0.73125	-0.80625	-1.6167	-0.89375	-1.1083	-1.6958	-0.91667	-1.4604	-1.4188	-0.80833	-1.6604	-1.0896	-1.0375	-1.7604	-0.82917	-1.5375	160.938	91.206	4.103	162.275	-2.142	27.141	95.186	98.117	104.924	-86.250	20.659	-33.368	-118.373	74.342	92.150	-26.111	0.00019848	0.00027948	5.9588e-05	435.08	3.4911e-06	1.4944e-06	358.06	160	3.3372e-06	1.2112e-06	157.52	52.869	50.972	23.261	3.0208e-06	22.68	0.0002829	0.00031963	8.4456e-05	466.66	3.4797e-06	3.353e-06	385.15	172.33	3.4911e-06	3.5768e-06	169.32	57.343	55.576	25.311	3.4835e-06	24.731	-133.439	-94.436	-88.230	-164.557	-27.449	-39.719	-166.101	-159.027	-20.986	-1.229	-161.785	-157.257	-154.996	-149.132	-67.491	-152.114	-8191	255	
1552.003	1	1	0	0	0.1945	0.22079	0.26857	0.15361	0.083448	0.025474	0.10425	0.16839	0.14813	0.1711	0.19699	0.2237	0.25506	0.084336	0.22322	0.26115	-1.2417	-0.78542	-1.6917	-1.0604	-0.975	-1.7167	-0.91667	-1.2854	-1.5354	-0.875	-1.6	-1.0562	-0.81667	-1.5688	-0.76667	-1.1771	-151.574	-81.003	70.470	161.548	162.023	-40.982	163.330	70.310	42.712	-163.421	-162.909	93.403	171.468	-121.915	-76.302	-15.743	0.00020465	0.00016591	8.2117e-05	437.67	9.215e-07	2.2868e-06	367.12	163.61	2.2007e-06	2.3495e-06	160.4	54.067	52.213	23.841	1.9826e-06	23.145	0.00028394	0.00032541	8.7945e-05	471.55	3.503e-06	3.314e-06	394.17	175.66	3.3776e-06	3.6221e-06	172.82	58.693	56.757	25.855	3.4716e-06	25.18	-137.130	-88.417	-89.145	-164.217	-37.592	-28.184	-166.051	-159.060	-46.203	-40.598	-162.087	-157.811	-155.525	-149.802	-44.432	-152.621	-8191	255	
1552.124	1	1	0	0	0.23308	0.024486	0.052264	0.048266	0.12484	0.083311	0.34914	0.010092	0.086519	0.14076	0.10637	0.24819	0.28526	0.27465	0.20083	0.18844	-1.0562	-0.74792	-1.3667	-0.92708	-0.65	-1.7583	-0.74792	-1.2396	-1.4396	-0.87917	-1.7708	-1.3604	-0.86042	-1.7917	-1.0187	-0.99167	-133.844	-47.627	26.155	145.379	33.154	-90.459	11.846	100.511	32.134	-145.603	76.645	152.338	-63.713	128.937	-170.624	162.577	0.00021383	0.00026445	8.7052e-05	444.49	2.5057e-06	2.0398e-06	365.67	163.96	1.494e-06	1.3558e-06	159.5	53.554	52.153	23.738	2.5085e-06	22.895	0.00028396	0.00032478	8.7878e-05	476.35	3.5215e-06	3.316e-06	393.21	176.55	3.433e-06	3.4757e-06	171.97	58.208	56.738	25.804	3.3636e-06	24.934	-135.910	-75.356	-85.473	-164.927	-48.306	-8.024	-166.355	-159.306	-72.000	16.457	-161.853	-157.450	-154.919	-149.485	-36.826	-152.730	-8191	255	
1552.195	1	1	0	0	0.11184	0.32665	0.18184	0.11405	0.25127	0.09574	0.36473	0.23607	0.1474	0.087008	0.31521	0.031461	0.17377	0.2277	0.22543	0.071408	-1.1979	-0.8125	-1.4458	-1.3438	-0.525	-1.7521	-1.1146	-1.1208	-1.6875	-0.90208	-1.3854	-1.2812	-0.74375	-1.5396	-1.1083	-1.0417	74.349	-118.088	13.821	-118.206	23.311	-141.177	-82.323	93.382	16.428	-170.964	78.118	-133.553	-83.990	-122.100	-148.933	16.472	0.00020705	0.00022035	5.3507e-05	439.98	1.8816e-06	3.6131e-06	366.92	163.62	1.8529e-06	1.4752e-06	159.7	53.506	52.095	23.55	1.9022e-06	22.881	0.00028075	0.00032032	8.6072e-05	474.46	3.4628e-06	3.3352e-06	391.63	175.7	3.2599e-06	3.4374e-06	171.72	58.096	56.586	25.728	3.317e-06	24.976	-135.426	-124.606	-65.262	-164.473	-29.012	-22.312	-166.127	-159.560	-53.447	-28.252	-162.036	-157.282	-154.586	-149.508	-39.899	-152.728	-8191	255	
1552.316	1	1	0	0	0.30665	0.16944	0.14465	0.17384	0.11634	0.17915	0.2217	0.069262	0.11708	0.14508	0.1576	0.083382	0.027821	0.092894	0.20675	0.19193	-1.35	-0.66667	-1.3083	-1.45	-0.98958	-1.4917	-1.0896	-0.69792	-1.6938	-0.82292	-1.2563	-1.6437	-0.87917	-1.6021	-1.0708	-0.71042	-120.156	-93.119	-133.653	93.753	175.072	-132.297	150.298	51.253	23.890	-66.998	21.569	79.791	182.535	112.990	96.992	115.369	0.00022077	0.0002578	8.7707e-05	440.45	1.9123e-06	2.2613e-06	364.35	162.84	2.3276e-06	1.9043e-06	162.04	54.57	52.569	23.94	2.0235e-06	23.595	0.00028478	0.00031025	8.5641e-05	471.05	3.3834e-06	3.2182e-06	390.46	175.61	3.1996e-06	3.3762e-06	172.91	58.973	56.849	26.096	3.2708e-06	25.671	-136.949	-115.874	-61.409	-164.743	9.464	-31.055	-166.241	-159.385	-38.048	-44.526	-162.059	-157.516	-154.967	-149.472	-46.969	-152.293	-8191	255	
1552.412	1	1	0	0	0.14892	0.30643	0.10968	0.18515	0.27296	0.10823	0.12577	0.078989	0.087664	0.1237	0.19548	0.080663	0.071326	0.11847	0.14346	0.017087	-1.2542	-0.7375	-1.1667	-1.5167	-0.76042	-1.6271	-1.4542	-0.93125	-1.6625	-1.0396	-1.0021	-1.6396	-0.7125	-1.4562	-1.2417	-0.85625	-156.595	165.283	-102.450	-164.965	9.137	33.795	29.740	95.369	-62.021	126.469	-58.924	139.371	45.171	74.498	78.968	-104.086	0.00021424	0.00037241	7.6353e-05	438.73	2.0765e-06	2.5445e-06	365.64	163.93	2.1443e-06	2.2283e-06	161.51	54.537	52.495	23.993	2.208e-06	23.409	0.00028014	0.00030125	8.463e-05	470.54	3.2658e-06	3.2211e-06	392.18	176.44	3.2345e-06	3.2166e-06	173.47	58.99	56.904	26.092	3.2824e-06	25.51	-133.967	-99.192	-86.340	-164.448	-18.969	-29.097	-165.979	-159.126	-70.017	-48.845	-161.589	-156.725	-154.903	-149.451	-21.096	-152.598	-8191	255	
1552.508	1	1	0	0	0.15312	0.11229	0.23995	0.16985	0.25979	0.1322	0.018773	0.17364	0.097164	0.26402	0.073668	0.11202	0.13175	0.19937	0.29471	0.14041	-1.1812	-0.96458	-0.70625	-1.6792	-0.70417	-1.35	-1.5979	-0.925	-1.5958	-1.0521	-1.0187	-1.6021	-0.67292	-1.3125	-1.5333	-0.69375	-1.797	-53.855	174.261	-2.052	66.684	107.856	-59.757	10.197	168.574	-146.587	-38.152	-39.188	-97.932	120.345	-177.403	-66.341	0.00020475	0.00018648	3.955e-05	443.78	2.245e-06	1.8527e-06	364.95	163.69	1.8314e-06	2.8144e-06	161.5	54.564	52.798	24.127	2.4545e-06	23.604	0.00027053	0.00028764	8.2682e-05	471.99	3.3313e-06	3.1993e-06	392.05	176.52	3.2137e-06	3.2616e-06	173.74	59.247	57.138	26.288	3.228e-06	25.704	-134.222	-102.042	-69.906	-165.162	-34.003	-20.452	-166.331	-159.665	-11.422	-44.836	-162.078	-157.522	-155.368	-149.587	-67.106	-152.715	-8191	255	
1552.604	1	1	0	0	0.20359	0.021358	0.038945	0.3793	0.13529	0.16847	0.071462	0.059975	0.13857	0.091961	0.27644	0.30314	0.11092	0.19699	0.23944	0.12652	-1.1187	-1.2021	-0.8625	-1.7687	-0.95833	-1.2104	-1.5333	-0.92292	-1.5729	-1.2583	-0.83958	-1.7104	-0.93125	-1.1437	-1.6146	-0.8125	-123.471	-73.438	-55.393	165.937	-114.289	-165.928	-10.085	65.456	-50.515	-65.433	-155.882	-107.994	35.002	-125.616	159.687	176.074	0.00021192	0.0002005	3.0781e-05	444.96	2.9048e-06	2.6112e-06	368.62	165.55	1.6209e-06	1.8782e-06	163.04	55.187	52.924	24.304	2.7783e-06	23.946	0.00027617	0.00028853	8.4862e-05	474.54	3.2837e-06	3.2582e-06	394.41	178.1	3.207e-06	3.3514e-06	175.37	60.013	57.651	26.47	3.2591e-06	26.156	-139.955	-91.007	-50.637	-164.176	-39.464	-10.632	-166.409	-159.393	-50.566	-45.886	-161.963	-157.532	-154.753	-149.212	-31.985	-152.305	-8191	255	
1552.699	1	1	0	0	0.06485	0.13491	0.17187	0.027779	0.13551	0.22588	0.25126	0.096904	0.28082	0.21066	0.11954	0.38189	0.34395	0.054715	0.051555	0.21548	-1.0938	-1.2875	-0.88958	-1.6417	-1.0417	-0.89583	-1.8208	-0.75625	-1.4604	-1.5167	-0.70833	-1.7208	-1.1229	-0.98542	-1.6958	-0.92292	45.489	-104.264	-53.977	-120.836	17.562	99.474	141.273	-55.924	-45.812	35.234	-113.242	159.531	105.918	-3.780	181.506	-166.964	0.00020318	0.00020142	5.2897e-05	442.96	2.5557e-06	1.6588e-06	373.54	166.45	2.2821e-06	1.9262e-06	165.77	56.375	53.178	24.489	3.1732e-06	24.492	0.00027609	0.0002964	8.4746e-05	477.1	3.2425e-06	3.3411e-06	399.19	179.5	3.2385e-06	3.1895e-06	178.19	61.093	58.027	26.759	3.2639e-06	26.647	-133.234	-98.882	-75.963	-164.697	-19.736	-17.661	-166.221	-159.120	-52.447	-53.488	-162.187	-157.403	-154.864	-149.478	-51.588	-152.569	-8191	255	
1552.795	1	1	0	0	0.069319	0.024689	0.064271	0.068895	0.14874	0.20953	0.11113	0.0086422	0.14214	0.030793	0.21657	0.17418	0.21766	0.21061	0.21773	0.040887	-0.98542	-1.4542	-0.67708	-1.6938	-1.1021	-1.0833	-1.875	-0.75	-1.0958	-1.4583	-0.70208	-1.5771	-1.1938	-0.87292	-1.6521	-0.87917	-16.670	-4.203	-75.389	54.699	-67.390	-124.890	-93.373	-52.965	131.818	-115.858	-57.513	-102.780	-14.284	-163.842	-66.190	99.265	0.0002189	0.00027038	7.7501e-05	448.04	1.8614e-06	2.4453e-06	379.44	168.62	1.6631e-06	2.2359e-06	167.51	57.77	53.951	24.79	2.7688e-06	24.906	0.00028534	0.00029929	8.5765e-05	479.87	3.2561e-06	3.3722e-06	406.48	181.77	3.2739e-06	3.2335e-06	181.4	62.402	58.82	26.976	3.4203e-06	27.169	-135.882	-87.702	-63.599	-163.914	-7.238	-15.572	-166.151	-159.068	-29.555	-36.331	-161.709	-157.278	-154.767	-149.245	-44.325	-152.266	-8191	255	
1552.891	1	1	0	0	0.017933	0.092363	0.12562	0.19579	0.079505	0.20718	0.0774	0.23344	0.12714	0.29743	0.2477	0.13835	0.24992	0.157	0.12571	0.12792	-0.78542	-1.6229	-0.75833	-1.4917	-1.2687	-0.89583	-1.6479	-1.0104	-1.1938	-1.7083	-0.72083	-1.3167	-1.3604	-0.94792	-1.7479	-1.1375	-10.823	-102.640	126.048	9.675	-13.514	-113.636	169.361	162.953	-145.499	48.300	127.228	175.969	154.473	91.277	-14.980	-29.861	0.00022432	0.00030287	0.00010874	446.34	2.0536e-06	2.4158e-06	381.45	169.59	1.7588e-06	2.2122e-06	169.06	57.073	54.288	24.854	2.2824e-06	24.64	0.00028933	0.00030256	8.3387e-05	482.36	3.2503e-06	3.2948e-06	407.5	182.26	3.2446e-06	3.2586e-06	181.37	61.961	58.834	26.969	3.3196e-06	26.819	-130.241	-107.961	-84.451	-164.031	-42.518	-26.909	-165.739	-159.153	-35.277	-32.105	-161.510	-156.851	-154.643	-148.736	-27.861	-152.191	-8191	255	
1552.987	1	1	0	0	0.4934	0.49705	0.084996	0.2476	0.20212	0.26216	0.27269	0.26918	0.076785	0.19478	0.061926	0.1291	0.15076	0.18194	0.099433	0.19928	-0.74167	-1.6833	-0.61875	-1.3083	-1.3542	-0.72917	-1.9521	-1.0771	-1.1	-1.925	-0.81667	-1.4771	-1.4312	-0.84792	-1.4854	-1.2188	-42.953	-131.488	39.423	-98.839	-90.873	-56.451	-123.666	112.265	11.143	133.249	-110.829	131.611	88.621	-168.918	180.015	-163.089	0.00023094	0.000197	6.5483e-05	452.46	1.0227e-06	2.8841e-06	380.08	168.58	2.9159e-06	2.0829e-06	166.78	56.34	53.314	24.068	1.1962e-06	24.025	0.00029136	0.00029777	8.4605e-05	484.73	3.2522e-06	3.3586e-06	406.19	181.55	3.3626e-06	3.2837e-06	179.21	60.894	57.824	26.222	3.2673e-06	26.159	-133.952	-58.581	-68.113	-164.158	-7.752	-17.244	-165.569	-158.925	-47.123	-12.964	-161.878	-157.338	-154.933	-149.600	-9.868	-152.402	-8191	255	
1553.083	1	1	0	0	0.076658	0.088346	0.27303	0.19623	0.19661	0.1276	0.28797	0.13976	0.071562	0.15701	0.17953	0.20731	0.039246	0.074279	0.042571	0.19825	-0.55417	-1.5688	-0.92708	-1.3771	-1.4875	-0.8125	-1.5979	-1.3333	-0.86667	-1.5583	-0.85	-1.275	-1.7375	-0.87292	-1.4292	-1.1125	142.550	-121.338	108.212	-39.018	80.308	-93.966	150.257	124.624	-18.560	25.764	38.661	-62.050	7.373	-43.352	138.605	160.040	0.00021511	0.00032002	5.2753e-05	446.86	1.7387e-06	2.0782e-06	380.8	167.58	2.7736e-06	2.1664e-06	167.86	56.746	53.239	24.07	1.6445e-06	24.309	0.00028071	0.00029005	8.2119e-05	482.4	3.1968e-06	3.3325e-06	406.71	180.61	3.333e-06	3.2397e-06	180.25	61.524	57.847	26.199	3.3882e-06	26.563	-133.859	-102.215	-108.483	-164.695	-24.702	6.843	-165.756	-158.862	-48.853	-28.307	-162.383	-157.388	-155.635	-149.522	-44.578	-152.565	-8191	255	
1553.204	1	1	0	0	0.19579	0.21217	0.26224	0.34654	0.020857	0.16862	0.17348	0.18631	0.1619	0.15583	0.22146	0.13883	0.35451	0.071098	0.16972	0.22457	-0.49167	-1.7188	-0.89583	-1.0917	-1.5625	-0.71458	-1.6396	-1.3708	-0.85833	-1.7292	-1.0875	-1.0583	-1.525	-0.93333	-1.4708	-1.5375	141.322	-87.755	102.264	-58.032	126.301	-57.869	114.730	93.701	-46.493	171.351	23.352	123.008	151.724	-98.488	151.973	39.323	0.00022414	0.00026072	7.9725e-05	457.82	2.1111e-06	2.0592e-06	385.76	170.24	1.8499e-06	3.1445e-06	171.54	57.86	54.226	24.697	2.7475e-06	25.318	0.00029247	0.00030748	8.3635e-05	486.69	3.2373e-06	3.437e-06	412.82	183.09	3.2745e-06	3.2718e-06	184.26	62.962	58.953	26.882	3.2991e-06	27.53	-136.873	-90.213	-58.506	-164.329	-4.713	-5.466	-165.460	-158.798	-45.939	-10.313	-161.324	-156.980	-154.637	-148.812	-8.537	-152.166	-8191	255	
1553.300	1	1	0	0	0.23389	0.02429	0.28641	0.13825	0.16375	0.14951	0.31183	0.24336	0.17697	0.14378	0.42842	0.14114	0.10606	0.26406	0.04336	0.14304	-0.37917	-1.6313	-0.975	-1.0375	-1.6396	-0.73958	-1.4917	-1.5521	-0.77917	-1.5125	-1.1792	-0.82917	-1.6896	-0.87708	-1.2667	-1.4021	-90.121	-174.900	-117.896	10.644	6.084	-0.456	74.254	87.468	-81.811	30.980	152.396	-96.704	-152.231	162.922	-45.481	-153.064	0.0002332	0.00029117	5.2991e-05	460.54	2.1897e-06	2.9497e-06	390.72	173.96	2.3061e-06	1.4021e-06	175	59.492	55.375	25.219	1.5467e-06	25.718	0.00029756	0.00030185	8.4273e-05	490.96	3.2419e-06	3.3008e-06	419.55	186.63	3.3122e-06	3.251e-06	188.39	64.377	60.161	27.452	3.2991e-06	27.949	-132.821	-73.284	-78.691	-163.989	-33.884	-4.750	-165.803	-159.233	-48.719	-47.303	-161.459	-156.623	-154.475	-148.873	-36.867	-152.086	-8191	255	
1553.396	1	1	0	0	0.12879	0.22811	0.093947	0.25691	0.20909	0.094442	0.057717	0.12957	0.3134	0.054777	0.06399	0.089441	0.18426	0.16575	0.18306	0.1492	-0.29792	-1.5167	-1.2375	-0.67083	-1.6229	-0.94792	-1.1063	-1.475	-0.68958	-1.4875	-1.3104	-0.9375	-1.6833	-1.0646	-1.1042	-1.5208	-13.033	-72.440	3.343	116.200	102.418	1.308	63.150	-34.172	50.177	-127.743	28.574	143.776	34.541	39.547	-109.545	54.926	0.00024111	0.00039785	6.6735e-05	458.76	2.5448e-06	2.3786e-06	389.4	174.66	1.3922e-06	2.5635e-06	173.86	58.914	55.316	25.296	2.6298e-06	25.342	0.00029821	0.00030012	8.361e-05	494.54	3.249e-06	3.3729e-06	418.69	188.22	3.3278e-06	3.3399e-06	187.13	63.917	60.256	27.521	3.3803e-06	27.612	-135.693	-83.972	-96.205	-163.761	-4.432	-54.143	-165.497	-158.918	-25.448	-16.358	-161.108	-156.640	-154.634	-149.023	-46.956	-152.071	-8191	255	
1553.492	1	1	0	0	0.10132	0.045819	0.056059	0.24183	0.20661	0.07757	0.057323	0.17493	0.29061	0.19142	0.11661	0.12295	0.1166	0.05344	0.14257	0.29836	-0.29792	-1.5812	-1.4917	-0.84167	-1.85	-1.2083	-1.1437	-1.6938	-0.64375	-1.6479	-1.2854	-0.9	-1.9667	-1.0854	-1.0312	-1.7437	-175.128	-157.585	-44.258	-47.664	-48.689	-105.273	-21.638	-162.733	23.834	51.492	104.732	-159.159	-45.061	-55.979	-173.979	53.050	0.00021906	0.00021056	8.1595e-05	463.63	2.2118e-06	3.5643e-06	390.77	174.1	2.7988e-06	2.3722e-06	175.26	59.109	55.459	25.278	1.2366e-06	25.546	0.00029464	0.00030617	8.3354e-05	493.94	3.2389e-06	3.3732e-06	418.49	188.01	3.3397e-06	3.2573e-06	188.28	64.009	60.34	27.568	3.4171e-06	27.851	-136.322	-111.317	-77.170	-164.337	-20.766	-28.324	-166.065	-159.437	-55.329	-7.884	-161.870	-157.002	-154.996	-149.407	-30.378	-152.257	-8191	255	
1553.588	1	1	0	0	0.216	0.24813	0.060671	0.19714	0.16881	0.19115	0.079218	0.18842	0.17079	0.040467	0.15003	0.1147	0.31686	0.13321	0.3077	0.17125	-0.39583	-1.225	-1.3854	-0.75	-1.6729	-1.2083	-1.1938	-1.8104	-0.7625	-1.2458	-1.575	-0.71458	-1.6542	-1.1604	-0.78542	-1.7021	36.891	-26.896	140.836	-173.945	115.800	58.993	175.572	108.844	80.947	21.264	-57.444	-87.071	-148.112	134.452	-120.767	99.076	0.00022906	0.00033778	8.9794e-05	463.46	2.0806e-06	2.3896e-06	392.59	175.31	2.0352e-06	2.5422e-06	175.63	59.454	55.656	25.625	1.4325e-06	25.766	0.00029272	0.00029905	8.4447e-05	496.55	3.2474e-06	3.2889e-06	420.81	188.7	3.3736e-06	3.3115e-06	189.36	64.595	60.613	27.79	3.357e-06	28.111	-135.741	-79.470	-76.739	-164.175	-65.381	-20.852	-165.956	-159.103	-40.006	-28.309	-161.581	-157.198	-154.963	-149.249	-57.975	-152.458	-8191	255	
1553.685	1	1	0	0	0.12163	0.15246	0.16935	0.23646	0.15198	0.1586	0.123	0.068005	0.040197	0.27454	0.070808	0.12228	0.24393	0.42761	0.10453	0.17134	-0.71667	-1.1896	-1.4875	-0.56667	-1.5938	-1.3458	-0.6875	-1.7563	-0.9125	-1.0208	-1.5042	-0.84167	-1.7542	-1.3021	-0.75208	-1.65	-81.382	-131.189	63.532	-134.182	-0.854	-7.441	172.956	62.948	25.820	-109.070	164.185	102.017	148.272	176.352	-156.479	-65.663	0.00022836	0.0002527	8.3557e-05	464.64	1.2922e-06	1.9986e-06	394.77	175.73	2.8738e-06	2.8852e-06	177.35	60.503	56.208	25.751	1.7009e-06	26.49	0.00029199	0.00030542	8.4166e-05	495.94	3.2367e-06	3.469e-06	423.89	189.36	3.4171e-06	3.4985e-06	191.6	65.766	61.15	28.066	3.5345e-06	28.749	-135.934	-90.939	-81.578	-164.202	-27.484	-22.014	-165.853	-159.212	-45.362	-10.457	-161.612	-156.867	-154.936	-149.396	-29.063	-152.224	-8191	255	
1553.804	1	1	0	0	0.30451	0.10851	0.16648	0.19324	0.071861	0.10167	0.19863	0.31273	0.12364	0.39633	0.10756	0.12078	0.15661	0.12493	0.32912	0.029769	-0.91458	-0.96042	-1.4354	-0.88333	-1.2042	-1.5187	-0.78958	-1.6542	-1.1187	-1.0083	-1.6083	-0.8375	-1.3458	-1.5417	-1.0875	-1.6396	-138.524	85.003	101.739	57.552	-25.416	41.722	-51.315	160.309	-114.042	-62.800	-151.870	21.293	-137.498	-110.969	3.232	-121.862	0.00024161	0.00014816	6.3888e-05	463.86	2.4297e-06	2.8936e-06	396.22	177.11	2.4361e-06	3.3426e-06	177.88	60.165	56.227	25.789	2.0305e-06	26	0.00030296	0.00031055	8.4903e-05	496.49	3.3838e-06	3.4899e-06	425.13	189.94	3.3733e-06	3.5074e-06	191.43	65.477	61.071	27.985	3.453e-06	28.38	-135.870	-99.382	-74.531	-164.216	-35.735	-25.930	-165.917	-159.104	-33.583	-17.719	-161.828	-156.749	-154.672	-149.370	-33.974	-152.456	-8191	255	
1553.900	1	1	0	0	0.0092917	0.16859	0.2409	0.33476	0.090637	0.14352	0.16979	0.23588	0.052942	0.23706	0.074329	0.10964	0.17253	0.084759	0.27666	0.25291	-0.83958	-1.0625	-1.6083	-0.90208	-1.2583	-1.5417	-0.9	-1.7375	-1.2521	-1.0604	-1.8625	-0.79583	-1.2708	-1.625	-0.71042	-1.5729	-119.669	-126.583	12.691	-60.585	-160.327	166.330	40.424	128.365	130.126	-50.829	-135.878	102.154	59.070	-8.394	-30.723	-141.329	0.00023214	0.00019388	0.00010342	457.85	2.4697e-06	2.6693e-06	391.98	176.08	1.9348e-06	3.3871e-06	176.68	59.938	55.995	25.629	2.3459e-06	25.936	0.00029205	0.00031111	8.3105e-05	494.2	3.3799e-06	3.3348e-06	420.59	188.88	3.3589e-06	3.4631e-06	189.43	65.007	60.762	27.852	3.5037e-06	28.306	-135.049	-108.851	-69.833	-164.735	-38.833	-16.730	-165.783	-159.118	-25.603	-35.249	-161.501	-157.446	-154.599	-149.147	-26.403	-151.978	-8191	255	
1553.996	1	1	0	0	0.195	0.20934	0.23097	0.2062	0.17468	0.18182	0.15376	0.16381	0.04138	0.27312	0.29483	0.074914	0.2032	0.22589	0.32123	0.057624	-0.95833	-0.73125	-1.4813	-0.94792	-1.1583	-1.7104	-0.78125	-1.3604	-1.45	-0.68958	-1.7458	-0.92708	-0.89167	-1.7646	-0.63542	-1.4146	-174.822	83.072	-23.504	-142.285	-5.115	80.775	-173.061	-3.291	-96.314	-58.880	-147.155	-107.644	4.007	-23.740	49.931	-0.798	0.00023809	0.00033221	8.3143e-05	459.87	1.7212e-06	2.665e-06	392.93	173.75	1.6143e-06	2.243e-06	176.03	59.538	55.597	25.352	2.0029e-06	25.857	0.00029938	0.00032836	8.6677e-05	491.55	3.4084e-06	3.4631e-06	420.5	187.42	3.4366e-06	3.4159e-06	189.21	64.661	60.34	27.573	3.4942e-06	28.146	-137.374	-92.659	-87.655	-164.588	-20.935	-9.102	-165.910	-159.128	-56.694	-3.550	-161.586	-157.297	-154.799	-149.225	-55.329	-152.215	-8191	255	
1554.092	1	1	0	0	0.30674	0.048743	0.45114	0.1291	0.25467	0.14688	0.069892	0.097249	0.28202	0.18761	0.026514	0.31144	0.037343	0.039482	0.054025	0.10239	-1.3104	-0.92292	-1.6625	-1.1396	-0.93333	-1.8104	-1.0042	-1.4813	-1.5104	-0.72708	-1.6958	-1.2563	-0.95	-1.775	-0.97708	-1.1667	182.530	-157.106	45.444	112.300	151.567	84.491	3.478	146.644	148.899	19.829	163.339	137.755	37.428	-33.331	23.813	-46.413	0.00023819	0.00030009	8.308e-05	457.65	1.9991e-06	2.0437e-06	394.37	175.08	1.7307e-06	2.7723e-06	177.34	60.229	55.88	25.397	2.2732e-06	25.923	0.00029702	0.00031552	8.5641e-05	492.89	3.4126e-06	3.4257e-06	422.48	188.5	3.3791e-06	3.4383e-06	190.66	65.282	60.626	27.688	3.5172e-06	28.28	-135.380	-88.244	-103.580	-163.998	-43.104	10.033	-165.891	-158.842	-40.676	-12.315	-161.620	-156.705	-154.904	-149.320	-34.292	-152.258	-8191	255	
#DATA ENDS
