BOXY.EXE: ISS Imagent and Oximeter Data Acquisition Program Version 0.80
Ascii Record File

#ACQ INFORMATION
2  Detector Channels 
16  External MUX Channels 
1  Auxiliary Channels 
5000  Waveform (CCF) Frequency (Hz)
1  Waveforms Skipped 
30  Waveforms Averaged 
1  Cycles Averaged 
16  Acquisitions per Waveform 
10.0806  Updata Rate (Hz) 

#FILE INFORMATION
TRUE -- External MUX Channel results are PARSED.
FALSE -- AC DC and Phase are NOT grouped.
TRUE -- Companion Program Settings File CREATED.
FALSE -- AC data not excluded
FALSE -- DC data not excluded
FALSE -- Phase data not excluded
FALSE -- Auxillary Chn. data not excluded
Tab delimiters

#CALIBRATION STATE
TRUE -- Waveform Calibration Values APPLIED.


#AUX CALIBRATION VALUES
Val Type	aux-1	

Term	1.0000e+00	
Factor	0.0000e+00	


#WF CALIBRATION VALUES
A = Detector Channel
Val Type	A-AC1	A-AC2	A-AC3	A-AC4	A-AC5	A-AC6	A-AC7	A-AC8	A-AC9	A-AC10	A-AC11	A-AC12	A-AC13	A-AC14	A-AC15	A-AC16	A-DC1	A-DC2	A-DC3	A-DC4	A-DC5	A-DC6	A-DC7	A-DC8	A-DC9	A-DC10	A-DC11	A-DC12	A-DC13	A-DC14	A-DC15	A-DC16	A-Ph1	A-Ph2	A-Ph3	A-Ph4	A-Ph5	A-Ph6	A-Ph7	A-Ph8	A-Ph9	A-Ph10	A-Ph11	A-Ph12	A-Ph13	A-Ph14	A-Ph15	A-Ph16	

Term	0.00000e+00	0.00000e+00	0.00000e+00	0.00000e+00	0.00000e+00	0.00000e+00	0.00000e+00	0.00000e+00	0.00000e+00	0.00000e+00	0.00000e+00	0.00000e+00	0.00000e+00	0.00000e+00	0.00000e+00	0.00000e+00	0.00000e+00	0.00000e+00	0.00000e+00	0.00000e+00	0.00000e+00	0.00000e+00	0.00000e+00	0.00000e+00	0.00000e+00	0.00000e+00	0.00000e+00	0.00000e+00	0.00000e+00	0.00000e+00	0.00000e+00	0.00000e+00	0.00000e+00	0.00000e+00	0.00000e+00	0.00000e+00	0.00000e+00	0.00000e+00	0.00000e+00	0.00000e+00	0.00000e+00	0.00000e+00	0.00000e+00	0.00000e+00	0.00000e+00	0.00000e+00	0.00000e+00	0.00000e+00	
Factor	1.00000e+00	1.00000e+00	1.00000e+00	1.00000e+00	1.00000e+00	1.00000e+00	1.00000e+00	1.00000e+00	1.00000e+00	1.00000e+00	1.00000e+00	1.00000e+00	1.00000e+00	1.00000e+00	1.00000e+00	1.00000e+00	1.00000e+00	1.00000e+00	1.00000e+00	1.00000e+00	1.00000e+00	1.00000e+00	1.00000e+00	1.00000e+00	1.00000e+00	1.00000e+00	1.00000e+00	1.00000e+00	1.00000e+00	1.00000e+00	1.00000e+00	1.00000e+00	X	X	X	X	X	X	X	X	X	X	X	X	X	X	X	X	

B = Detector Channel
Val Type	B-AC1	B-AC2	B-AC3	B-AC4	B-AC5	B-AC6	B-AC7	B-AC8	B-AC9	B-AC10	B-AC11	B-AC12	B-AC13	B-AC14	B-AC15	B-AC16	B-DC1	B-DC2	B-DC3	B-DC4	B-DC5	B-DC6	B-DC7	B-DC8	B-DC9	B-DC10	B-DC11	B-DC12	B-DC13	B-DC14	B-DC15	B-DC16	B-Ph1	B-Ph2	B-Ph3	B-Ph4	B-Ph5	B-Ph6	B-Ph7	B-Ph8	B-Ph9	B-Ph10	B-Ph11	B-Ph12	B-Ph13	B-Ph14	B-Ph15	B-Ph16	

Term	0.00000e+00	0.00000e+00	0.00000e+00	0.00000e+00	0.00000e+00	0.00000e+00	0.00000e+00	0.00000e+00	0.00000e+00	0.00000e+00	0.00000e+00	0.00000e+00	0.00000e+00	0.00000e+00	0.00000e+00	0.00000e+00	0.00000e+00	0.00000e+00	0.00000e+00	0.00000e+00	0.00000e+00	0.00000e+00	0.00000e+00	0.00000e+00	0.00000e+00	0.00000e+00	0.00000e+00	0.00000e+00	0.00000e+00	0.00000e+00	0.00000e+00	0.00000e+00	-1.85345e+02	-1.23737e+02	-1.11857e+02	-1.80493e+02	-1.02631e+02	-7.18909e+01	-1.55190e+02	-1.62015e+02	-8.30239e+01	-6.30682e+01	-1.71086e+02	-1.70392e+02	-1.81065e+02	-1.76742e+02	-5.60175e+01	-1.49283e+02	
Factor	3.45794e-05	1.28973e-04	3.64895e-05	1.78598e-01	1.50782e-06	1.48164e-06	1.55936e-01	4.98493e-02	1.25560e-06	1.27048e-06	8.53734e-02	2.92799e-02	2.65120e-02	9.74353e-03	1.48999e-06	1.28900e-02	2.28479e-06	2.43523e-06	6.78434e-07	9.15091e-02	2.64387e-08	2.67660e-08	7.53430e-02	2.56481e-02	2.64425e-08	2.67481e-08	4.24034e-02	1.45225e-02	1.36176e-02	5.01221e-03	2.65546e-08	6.42646e-03	X	X	X	X	X	X	X	X	X	X	X	X	X	X	X	X	



#DISTANCE SETTINGS
A = Detector Channel
A-1	A-2	A-3	A-4	A-5	A-6	A-7	A-8	A-9	A-10	A-11	A-12	A-13	A-14	A-15	A-16	

2.5000e+00	3.0000e+00	2.5000e+00	3.0000e+00	2.0000e+00	3.0000e+00	1.5000e+00	3.0000e+00	3.0000e+00	3.0000e+00	3.0000e+00	3.0000e+00	3.0000e+00	3.0000e+00	1.5000e+00	3.0000e+00	

B = Detector Channel
B-1	B-2	B-3	B-4	B-5	B-6	B-7	B-8	B-9	B-10	B-11	B-12	B-13	B-14	B-15	B-16	

1.0000e+01	1.0000e+01	1.0000e+01	1.4400e+00	1.0000e+01	1.0000e+01	1.5100e+00	1.9400e+00	1.0000e+01	1.0000e+01	1.9900e+00	2.4900e+00	2.4100e+00	2.9000e+00	1.0000e+01	2.9800e+00	




#DATA BEGINS
time	group	step	mark	flag	A-AC1	A-AC2	A-AC3	A-AC4	A-AC5	A-AC6	A-AC7	A-AC8	A-AC9	A-AC10	A-AC11	A-AC12	A-AC13	A-AC14	A-AC15	A-AC16	A-DC1	A-DC2	A-DC3	A-DC4	A-DC5	A-DC6	A-DC7	A-DC8	A-DC9	A-DC10	A-DC11	A-DC12	A-DC13	A-DC14	A-DC15	A-DC16	A-Ph1	A-Ph2	A-Ph3	A-Ph4	A-Ph5	A-Ph6	A-Ph7	A-Ph8	A-Ph9	A-Ph10	A-Ph11	A-Ph12	A-Ph13	A-Ph14	A-Ph15	A-Ph16	B-AC1	B-AC2	B-AC3	B-AC4	B-AC5	B-AC6	B-AC7	B-AC8	B-AC9	B-AC10	B-AC11	B-AC12	B-AC13	B-AC14	B-AC15	B-AC16	B-DC1	B-DC2	B-DC3	B-DC4	B-DC5	B-DC6	B-DC7	B-DC8	B-DC9	B-DC10	B-DC11	B-DC12	B-DC13	B-DC14	B-DC15	B-DC16	B-Ph1	B-Ph2	B-Ph3	B-Ph4	B-Ph5	B-Ph6	B-Ph7	B-Ph8	B-Ph9	B-Ph10	B-Ph11	B-Ph12	B-Ph13	B-Ph14	B-Ph15	B-Ph16	aux-1	digaux	

1737.531	1	1	0	512	0.16394	0.073654	0.21596	0.2008	0.12314	0.070274	0.23315	0.14755	0.15913	0.16364	0.19061	0.30564	0.15746	0.18189	0.10277	0.044818	-2.6813	-3.4854	-2.6312	-3.3833	-3.45	-2.875	-3.675	-3.3	-2.8771	-3.375	-3.1104	-3.2333	-3.3167	-2.95	-3.2938	-3.1688	107.563	-48.466	-96.105	170.108	-73.251	-54.924	-75.299	-56.875	213.527	-88.813	197.609	175.520	-133.958	124.374	-96.174	-44.712	0.0008942	0.00054963	0.00012387	813.53	1.1996e-05	2.0725e-06	842.44	323.44	2.5199e-06	7.2932e-06	372.2	157.83	134.38	62.428	3.4708e-06	82.911	0.00049465	0.00045702	0.00012942	793.64	4.9277e-06	5.1303e-06	825.49	314.75	5.0498e-06	5.0353e-06	362.31	153.44	130.49	61.036	5.0505e-06	80.947	142.030	-33.288	-26.950	-124.980	-54.955	-25.777	-126.700	-120.037	17.733	-7.397	-122.826	-119.322	-116.053	-110.612	39.491	-113.873	-8191	255	
1737.627	1	1	0	0	0.094224	0.30575	0.062385	0.16876	0.13363	0.12604	0.25001	0.20973	0.24528	0.063744	0.25552	0.16535	0.11313	0.10891	0.10308	0.082622	-2.7	-3.4625	-2.8396	-3.1917	-3.5062	-2.8375	-3.4375	-3.2458	-2.9083	-3.3646	-3.1146	-3.1583	-3.3521	-3.0646	-3.3063	-3.3812	12.919	63.596	125.659	194.780	210.017	-111.180	-124.425	86.495	8.012	-56.385	143.224	-101.439	205.370	-119.510	33.617	173.250	0.0011216	0.00056138	0.00020189	824.56	4.4205e-06	4.8715e-06	857.95	323.09	2.3264e-06	4.6766e-06	376.61	159.63	133.97	62.398	6.4438e-06	83.586	0.00049729	0.00046168	0.00012863	797.95	4.9393e-06	5.0518e-06	833.56	314.87	5.0126e-06	4.9973e-06	364.97	155.03	130.39	61.117	5.173e-06	81.584	146.392	-47.365	-38.316	-125.673	-64.444	-61.830	-127.482	-120.238	56.381	50.049	-122.783	-118.824	-115.919	-110.487	-28.749	-113.535	-8191	255	
1737.723	1	1	0	0	0.035497	0.17824	0.12632	0.11856	0.091535	0.18877	0.075622	0.18504	0.033256	0.14469	0.26935	0.21984	0.069885	0.15376	0.22348	0.20782	-2.3979	-3.4938	-3.0583	-2.8958	-3.3604	-2.8896	-3.4729	-3.6083	-2.7854	-3.6208	-3.0958	-3.0771	-3.5375	-2.975	-2.95	-3.4396	53.332	25.679	178.918	192.999	129.623	121.555	209.585	100.277	47.282	12.555	158.134	-102.784	111.805	210.598	66.426	193.056	0.0010764	0.00027056	0.0002295	820.36	3.7645e-06	5.6208e-06	850.27	324.34	8.4514e-06	4.5472e-06	369.86	156.24	131.95	61.286	9.3583e-06	81.379	0.00049432	0.00045651	0.00012434	799.05	5.0252e-06	5.0138e-06	832.16	315.02	5.1511e-06	5.011e-06	361.93	152.53	129.27	60.302	5.0757e-06	79.625	143.922	187.904	-76.544	-125.271	-35.326	-33.030	-127.050	-120.065	-60.606	-17.236	-122.565	-118.673	-115.445	-109.861	47.466	-113.874	-8191	255	
1737.819	1	1	0	0	0.16094	0.31852	0.17432	0.20559	0.15458	0.089715	0.31634	0.23717	0.086731	0.31966	0.085193	0.14679	0.17228	0.18756	0.067989	0.16672	-2.3667	-3.5312	-3.0812	-3.0458	-3.3917	-2.8	-3.4938	-3.3792	-2.8271	-3.5083	-3.0938	-3.0729	-3.5271	-2.9708	-3.3396	-3.4042	-110.789	200.632	-122.614	161.718	112.626	-50.733	150.273	-122.464	50.350	151.077	148.441	186.624	161.542	164.425	34.967	159.179	0.00096701	0.00045206	0.00011069	811.11	3.9347e-06	1.0403e-05	848.6	321.19	3.938e-06	5.3194e-06	367.57	155.34	131.94	61.366	8.4867e-06	82.795	0.00049338	0.00046172	0.00012727	792.06	5.0317e-06	5.1832e-06	826.96	313.69	5.0858e-06	5.0908e-06	360.52	152.54	129.4	60.426	5.0781e-06	80.392	146.503	-100.863	7.403	-124.887	-98.776	3.648	-126.809	-119.684	-35.260	1.944	-122.205	-118.668	-115.706	-110.032	21.343	-114.061	-8191	255	
1737.940	1	1	0	0	0.16244	0.064459	0.089765	0.16803	0.1532	0.17364	0.05066	0.37874	0.11897	0.18236	0.2807	0.30907	0.041839	0.16578	0.30346	0.28293	-2.5333	-3.3146	-3.0042	-2.95	-3.3479	-2.9	-3.2812	-3.5771	-2.7833	-3.3708	-3.3146	-2.9625	-3.4979	-3.0417	-3.075	-3.4521	147.104	141.899	-39.000	-12.310	-86.364	206.946	121.767	172.370	-122.771	9.347	178.321	-110.159	67.215	132.150	44.996	208.126	0.0011686	0.00071953	0.00011252	819.56	4.6537e-06	5.3981e-06	856.56	322.98	5.997e-06	6.0173e-06	371.9	159.14	132.37	61.808	7.8677e-06	82.357	0.00049264	0.00046436	0.00012555	797.24	4.9434e-06	4.8959e-06	832.16	314.26	5.0811e-06	5.0164e-06	363.04	154.32	129.86	60.7	5.1093e-06	80.843	146.402	-9.477	-39.744	-125.431	-37.817	36.554	-127.754	-120.037	-63.490	-23.425	-122.329	-118.866	-115.762	-110.221	-10.382	-113.296	-8191	255	
1738.034	1	1	0	0	0.13408	0.083814	0.22563	0.28741	0.23189	0.063389	0.1591	0.26782	0.02255	0.062566	0.18633	0.27018	0.023389	0.28651	0.13579	0.29438	-2.2958	-3.1896	-3.2417	-2.9562	-3.4188	-3.0542	-2.9271	-3.5833	-2.6458	-3.3104	-3.3708	-3.0083	-3.5333	-3.1646	-2.9313	-3.4313	17.444	218.171	156.907	185.898	19.904	58.770	193.696	207.429	-17.086	105.718	194.250	99.813	138.746	177.561	-15.583	99.989	0.001125	0.00075079	0.0001137	812.45	3.1907e-06	8.4267e-06	859.8	321.76	9.509e-06	2.8709e-06	371.8	158.22	133.12	61.499	6.6901e-06	83.152	0.00048574	0.00046152	0.00012457	797.73	5.009e-06	5.0211e-06	835.69	314.63	5.0035e-06	5.0052e-06	365.28	154.78	130.19	60.774	5.1307e-06	81.693	142.923	-30.880	-78.422	-125.028	-6.627	26.151	-126.953	-119.607	-41.491	21.480	-122.146	-118.226	-115.745	-110.127	-3.553	-113.262	-8191	255	
1738.131	1	1	0	0	0.21731	0.10422	0.23285	0.098119	0.092302	0.24293	0.043341	0.043705	0.20191	0.31556	0.25733	0.034394	0.037805	0.30239	0.18553	0.22937	-2.5208	-3.0146	-3.2104	-2.85	-3.2146	-3.1604	-2.9583	-3.6271	-2.8812	-2.8625	-3.4833	-2.7208	-3.4979	-3.2354	-2.9938	-3.7625	-95.898	191.782	20.343	167.390	-81.107	-82.547	-43.964	121.296	-123.717	-23.183	149.212	-74.244	-120.042	-127.661	29.381	151.486	0.00095409	0.00013543	0.00012638	810.14	4.0411e-06	5.3029e-06	847.69	321.17	3.1577e-06	6.6068e-06	372.26	156.5	131.56	60.773	6.407e-06	81.029	0.00049095	0.00046592	0.00012624	794.93	5.1096e-06	5.0252e-06	834.41	314	5.0136e-06	5.0865e-06	363.27	152.83	129.22	60.044	5.2386e-06	79.568	138.779	-70.264	-25.076	-124.783	17.247	32.669	-126.526	-119.853	-53.779	63.383	-122.394	-118.998	-115.534	-109.939	-34.236	-113.481	-8191	255	
1738.227	1	1	0	0	0.0075213	0.25376	0.21284	0.090268	0.33522	0.1762	0.3212	0.092488	0.032621	0.15363	0.24996	0.085108	0.32142	0.11804	0.095847	0.089629	-2.4688	-3.0396	-3.3417	-2.7958	-3.3708	-3.3708	-3.0354	-3.4896	-2.9208	-2.8271	-3.5979	-2.8625	-3.4042	-3.3563	-2.7979	-3.6188	-6.340	23.781	161.586	-45.339	-70.234	-115.900	-109.695	-83.398	61.638	168.934	-63.904	138.154	206.728	205.497	-37.959	154.502	0.0011652	0.00057964	0.00010482	813.74	5.4566e-06	6.8777e-06	850.3	322.3	2.9281e-06	3.6733e-06	374.68	157.8	133.55	62.068	4.738e-06	82.551	0.00049281	0.00047125	0.0001293	792.73	5.1229e-06	5.0358e-06	826.45	312.86	5.1037e-06	5.1464e-06	362.37	153.27	129.49	60.373	5.2945e-06	80.341	143.950	-48.351	-31.694	-125.271	-63.919	-31.163	-127.113	-120.261	10.264	-46.097	-123.116	-119.105	-116.483	-110.661	-22.109	-114.333	-8191	255	
1738.300	1	1	0	0	0.20194	0.12886	0.018467	0.18899	0.026077	0.088643	0.28115	0.25392	0.13814	0.12818	0.21768	0.17762	0.18016	0.16502	0.19101	0.25113	-2.6958	-2.9229	-3.4271	-2.8646	-3.1188	-3.25	-2.8187	-3.3271	-2.9521	-2.9271	-3.4229	-3.0021	-3.2583	-3.4979	-2.6333	-3.7562	13.581	-66.395	102.357	187.667	94.981	-28.616	125.317	174.971	30.740	187.307	138.905	142.020	198.002	177.387	-131.011	171.755	0.00099443	0.00067146	9.0891e-05	814.59	1.0572e-05	1.1309e-05	853.47	323.2	7.0188e-06	7.2208e-07	373.41	157.89	133.01	61.953	1.0047e-05	83.151	0.00048473	0.00047528	0.00012845	792.94	5.0849e-06	4.9261e-06	830.3	313.51	5.0364e-06	5.185e-06	363.66	153.95	129.13	60.471	5.1988e-06	81.244	142.024	-81.899	-59.784	-125.481	-52.181	40.515	-127.114	-120.130	-72.668	36.133	-122.699	-118.962	-116.361	-110.293	12.621	-114.268	-8191	255	
1738.419	1	1	0	0	0.06945	0.27619	0.02637	0.27303	0.12713	0.30686	0.22158	0.013399	0.12819	0.18554	0.20027	0.070445	0.086609	0.24126	0.049261	0.16277	-2.7146	-2.6833	-3.4375	-2.8854	-2.8229	-3.5396	-2.9042	-3.3021	-3.1521	-2.7833	-3.7208	-3.1562	-3.1646	-3.5042	-2.8875	-3.3458	118.914	154.833	114.221	173.897	-111.772	168.201	-127.254	-107.802	109.750	168.735	212.085	-54.112	-49.407	-98.486	100.163	197.679	0.00097135	0.00058671	9.0578e-05	819.89	4.3883e-06	3.9768e-06	866.67	322.98	7.065e-06	8.3542e-06	377.4	159.8	132.79	62.266	7.6939e-06	84.073	0.00049103	0.00047976	0.00013103	794.79	5.1538e-06	5.037e-06	840.02	314.11	4.9807e-06	5.2145e-06	367.25	155.45	129.66	60.762	5.1438e-06	82.235	147.502	-29.440	-72.131	-125.667	-22.677	-5.507	-127.426	-120.209	-33.581	17.472	-122.539	-118.800	-116.500	-110.608	-32.424	-113.915	-8191	255	
1738.515	1	1	0	0	0.094452	0.10086	0.1356	0.1537	0.1655	0.27982	0.11365	0.13235	0.076212	0.075166	0.13686	0.12831	0.17775	0.37793	0.12908	0.2258	-2.9146	-3.0333	-3.4771	-3.2021	-2.9833	-3.4813	-3.0042	-3.4146	-3.3167	-2.9229	-3.675	-3.2021	-2.9625	-3.9167	-2.9729	-3.2812	122.101	94.550	22.199	211.125	-2.272	26.155	79.573	103.779	-21.399	1.595	-85.321	167.941	192.906	221.681	-135.690	69.886	0.0010637	0.00040237	0.00018278	819.94	7.8763e-06	3.1635e-06	861.9	323.23	3.8028e-06	5.7846e-06	377.66	159.49	132.95	61.447	5.8039e-06	82.416	0.00048669	0.00048078	0.00013223	797.25	5.1558e-06	5.0009e-06	838.95	314.45	5.0302e-06	5.2332e-06	365.71	153.98	129.13	60.107	5.1727e-06	80.104	144.661	-1.846	-44.950	-125.199	-53.752	38.951	-127.266	-120.128	-70.418	-1.169	-122.968	-119.158	-116.619	-110.512	-4.874	-114.309	-8191	255	
1738.611	1	1	0	0	0.24611	0.075364	0.19918	0.15717	0.073098	0.28787	0.029711	0.22723	0.18854	0.19025	0.14536	0.08511	0.050631	0.13796	0.14455	0.082271	-2.9854	-2.8312	-3.2875	-3.1625	-2.8688	-3.4292	-3.0146	-3.325	-3.4729	-2.9396	-3.5771	-3.2146	-3.0833	-3.75	-3.0271	-3.2313	100.216	8.063	-75.727	211.684	199.743	-6.742	198.534	169.168	-107.179	206.087	107.459	164.981	-38.487	89.674	-128.034	-129.930	0.0010471	0.00019938	0.00020041	817.47	7.4507e-06	4.4882e-06	855.68	322.32	4.1195e-06	1.2204e-06	373.89	158.21	131.94	61.207	1.8034e-06	82.618	0.00049224	0.00046183	0.00012765	794.4	5.0759e-06	5.0457e-06	831.37	313.41	5.0067e-06	5.1342e-06	364.26	153.91	128.94	60.081	5.0248e-06	80.641	146.252	-97.353	24.770	-125.380	-45.250	-4.860	-127.127	-120.264	-47.579	-35.697	-122.754	-118.745	-116.249	-110.593	-75.196	-114.190	-8191	255	
1738.707	1	1	0	0	0.23603	0.16752	0.25435	0.15766	0.0045603	0.32834	0.11793	0.34481	0.2288	0.041707	0.05518	0.15748	0.059847	0.15609	0.061371	0.30066	-3.0417	-2.6646	-3.1854	-3.2229	-2.8583	-3.3521	-3.0333	-2.9583	-3.4042	-2.8625	-3.4958	-3.3104	-3.2208	-3.5312	-3.1625	-3.0417	125.232	4.752	-56.010	158.178	126.154	101.096	200.874	149.792	35.210	58.037	-50.843	50.409	101.734	147.887	-116.297	211.963	0.00099202	0.00045473	0.00015316	815.24	6.295e-06	3.3778e-06	855.34	323.06	5.2358e-06	6.6739e-06	374	159.5	132.64	61.283	6.9906e-06	83.483	0.00048811	0.00047266	0.00012864	795.48	5.1031e-06	5.0612e-06	836.53	313.96	4.9852e-06	5.0077e-06	365.92	154.88	129.08	60.183	4.9159e-06	81.233	140.854	0.997	-70.757	-125.439	-19.290	-3.701	-127.104	-120.161	-29.205	22.250	-122.573	-118.852	-116.292	-110.339	6.828	-113.930	-8191	255	
1738.828	1	1	0	0	0.22246	0.062653	0.12482	0.12039	0.13917	0.071912	0.19344	0.1638	0.12723	0.13306	0.22898	0.43782	0.24064	0.29282	0.046086	0.1344	-2.9938	-2.7729	-3.1417	-3.3229	-2.7896	-3.5146	-3.0833	-2.9104	-3.4979	-2.7583	-3.2083	-3.5125	-2.8375	-3.5875	-3.05	-3.1667	93.210	-55.607	38.371	171.737	-4.846	-92.388	151.408	138.244	122.566	171.364	-73.945	170.497	-62.551	165.421	146.217	198.735	0.00099944	0.00059089	0.0001842	817.53	6.2673e-06	8.2588e-06	857.11	321.21	9.0522e-06	5.5249e-06	375.7	159.94	132.26	61.519	9.4481e-06	83.523	0.00048278	0.00045864	0.00012883	796.26	5.0851e-06	4.9906e-06	837.97	313.83	5.0212e-06	4.9496e-06	367.16	155.98	129.28	60.308	4.9123e-06	81.997	149.362	-59.482	-9.277	-125.375	-81.309	46.027	-126.667	-119.806	6.651	23.993	-122.096	-118.363	-115.891	-110.174	26.017	-113.763	-8191	255	
1738.924	1	1	0	0	0.21375	0.10667	0.037953	0.098581	0.10132	0.16738	0.13237	0.062393	0.34028	0.21702	0.25949	0.28539	0.4428	0.14622	0.26794	0.086156	-3.1604	-2.9771	-3.1646	-3.5563	-2.6146	-3.3937	-3.3937	-3.1146	-3.4083	-2.9521	-3.0583	-3.5229	-2.8688	-3.4833	-3.3312	-3.0187	117.182	122.330	-23.363	-36.042	117.676	114.850	129.006	-53.202	147.823	207.809	175.539	137.147	155.871	117.792	-4.716	111.844	0.0010032	0.00078241	0.00019108	814.97	8.3639e-06	1.0585e-05	857.06	319.91	4.6011e-06	7.6169e-06	374.25	157.89	132.34	60.685	5.4339e-06	82.05	0.00048783	0.00045562	0.00012609	797.18	5.0041e-06	5.0501e-06	838.54	313.04	4.9419e-06	4.8451e-06	365.15	153.84	128.96	59.71	4.8632e-06	80.104	152.405	-24.868	-80.234	-124.697	-15.954	-0.189	-126.840	-119.970	-33.884	24.160	-122.880	-118.770	-116.281	-110.529	9.796	-113.870	-8191	255	
1739.020	1	1	0	0	0.048121	0.085974	0.17761	0.095365	0.025144	0.055422	0.1857	0.10239	0.15381	0.11869	0.11866	0.1579	0.24863	0.08689	0.14113	0.26459	-3.1146	-2.9271	-3.0667	-3.4604	-2.8958	-3.2188	-3.3583	-3.0479	-3.375	-3.0208	-3.0187	-3.3583	-3.0479	-3.1312	-3.3	-2.9771	-36.258	159.781	75.084	-85.542	185.375	74.964	160.931	95.372	-26.508	178.866	-49.846	162.377	185.677	183.756	16.102	212.008	0.0010027	0.00040032	0.00024752	811.92	6.5259e-06	1.127e-05	850.3	318.7	7.8165e-06	5.1237e-06	372.78	157.09	130.66	60.878	7.5624e-06	83.027	0.00047748	0.00044862	0.00012868	793.34	4.9473e-06	5.0231e-06	831.14	311.85	4.9312e-06	4.8262e-06	364.22	153.72	128.13	59.741	4.8735e-06	80.56	150.486	-35.139	-11.569	-124.995	26.627	14.066	-126.666	-120.234	-52.151	7.312	-122.250	-118.542	-115.924	-110.370	14.554	-114.104	-8191	255	
1739.115	1	1	0	0	0.25252	0.14642	0.12799	0.22804	0.090226	0.2546	0.1955	0.35428	0.22784	0.25515	0.27079	0.14818	0.17196	0.17293	0.072627	0.23275	-3.0021	-3.1229	-2.8333	-3.7417	-2.7083	-3.3187	-3.5146	-2.8875	-3.3708	-3.1646	-2.975	-3.7146	-2.8812	-3.3479	-3.3229	-2.9813	24.472	213.425	84.229	139.717	-61.633	56.302	212.757	183.968	1.140	42.972	174.479	68.966	121.169	202.402	-37.855	-59.572	0.0010675	0.00062942	0.00022736	816.85	4.5964e-06	4.2542e-06	862.62	322.93	4.5886e-06	5.7059e-06	377.09	159.32	131.25	61.15	8.7702e-06	83.567	0.00048731	0.00044557	0.0001274	795.21	4.9455e-06	4.9767e-06	836.56	313.23	5.0184e-06	4.8647e-06	366.44	154.72	128.44	59.863	4.9487e-06	81.355	146.916	-38.087	26.730	-125.017	-57.127	-52.255	-127.289	-120.597	-19.491	22.504	-122.907	-118.829	-116.032	-110.394	-1.808	-114.057	-8191	255	
1739.211	1	1	0	0	0.11886	0.10654	0.25229	0.26538	0.14138	0.1313	0.1245	0.21484	0.24205	0.24222	0.10256	0.20061	0.13606	0.1529	0.17405	0.13256	-3.0271	-3.0375	-2.8229	-3.475	-2.8542	-2.9604	-3.4583	-2.9062	-3.2792	-3.2458	-2.9562	-3.6688	-3.0083	-3.0417	-3.4958	-3.0417	104.397	-75.714	155.625	134.770	118.398	-83.016	132.536	147.671	-107.657	75.106	70.258	88.212	110.757	171.611	96.196	-137.204	0.0011034	0.00037911	0.00011425	811.96	3.2554e-06	5.977e-06	855.86	320.49	3.4047e-06	4.8351e-07	379.22	159.8	131.43	61.083	6.8992e-06	84.142	0.00048812	0.00044966	0.0001302	793.47	4.9062e-06	5.0508e-06	838.39	312.52	4.9926e-06	4.9861e-06	368.44	155.95	128.66	60.107	4.9876e-06	82.239	147.861	-50.668	-44.181	-125.200	-12.065	-17.168	-127.112	-119.986	-3.134	-87.290	-122.566	-118.848	-116.040	-110.172	24.645	-113.885	-8191	255	
1739.309	1	1	0	0	0.14683	0.2119	0.20649	0.20632	0.039887	0.047633	0.25822	0.12901	0.1859	0.1658	0.049945	0.12084	0.17091	0.1762	0.012632	0.12276	-2.8521	-3.4417	-2.8187	-3.5979	-3.2167	-2.8042	-3.5771	-3.0708	-3.1771	-3.3042	-2.9792	-3.3583	-3.3646	-2.8146	-3.5125	-3.025	-50.444	207.222	75.986	-39.041	-19.538	116.111	49.802	-19.996	201.314	205.985	-132.569	209.616	-5.957	139.831	-59.273	-124.291	0.0011056	0.00053602	0.0002039	817.61	2.8063e-06	4.4889e-06	858.32	320.15	2.3895e-06	4.4517e-06	375.43	158.93	130.22	60.275	5.3635e-06	82.593	0.00049067	0.00045076	0.00012721	797.82	4.8095e-06	5.0503e-06	841.02	312.28	4.9735e-06	4.8363e-06	366.92	154.71	127.93	59.435	4.9419e-06	80.302	146.947	-73.635	-11.590	-125.674	13.126	-16.571	-127.094	-119.985	-23.847	19.959	-122.616	-119.265	-115.982	-110.503	6.842	-113.835	-8191	255	
1739.428	1	1	0	0	0.22706	0.27908	0.11325	0.13247	0.027237	0.31038	0.12619	0.18077	0.14792	0.1056	0.17806	0.11816	0.12409	0.29079	0.11926	0.30168	-2.8042	-3.5833	-2.5979	-3.2792	-3.25	-2.9208	-3.6437	-2.9917	-3.0271	-3.6917	-2.7542	-3.4958	-3.4	-2.9417	-3.5333	-3.0563	27.323	-92.008	-64.931	-76.447	151.305	103.411	81.947	-102.309	77.760	4.927	-74.796	-49.188	53.223	142.475	70.583	168.435	0.001089	0.0011081	0.00024719	813.73	6.9269e-06	7.7254e-06	852.13	318.94	7.8791e-06	6.5705e-06	375.74	159.21	131.87	60.656	3.6917e-06	83.007	0.0004845	0.00044753	0.00012607	792.08	4.7654e-06	5.034e-06	834.12	311.9	4.9417e-06	4.8655e-06	365.8	154.6	128.31	59.56	4.9311e-06	80.847	148.570	-40.519	-35.188	-125.529	-42.118	37.004	-127.098	-119.914	5.404	-19.051	-122.721	-119.211	-116.098	-110.665	-29.255	-113.971	-8191	255	
1739.524	1	1	0	0	0.10826	0.25379	0.1494	0.31835	0.14551	0.15546	0.14161	0.36075	0.09933	0.16362	0.069866	0.14664	0.21111	0.24441	0.24365	0.19175	-2.6021	-3.4146	-2.5687	-3.3917	-3.3583	-2.8667	-3.6021	-3.2771	-2.9646	-3.4771	-3.0354	-3.3729	-3.3542	-2.975	-3.3875	-3.3417	-33.580	48.327	-46.110	-24.324	177.980	113.782	118.103	120.831	-54.538	-121.524	168.961	211.008	-88.831	208.804	-91.822	138.703	0.0009673	0.00057034	0.00015346	809.85	4.4735e-06	5.7773e-06	855.82	317.34	2.3414e-06	3.8809e-06	376.62	159.1	131.71	60.825	1.0221e-06	83.531	0.00048442	0.000453	0.00012385	793.01	4.7514e-06	5.0469e-06	839.17	311.73	4.9614e-06	4.9165e-06	366.67	155.19	128.55	59.648	4.8686e-06	81.504	151.674	-16.990	-48.092	-125.427	-7.479	16.788	-126.812	-119.542	-28.966	-15.976	-122.826	-118.877	-116.096	-110.599	-45.512	-113.853	-8191	255	
1739.620	1	1	0	0	0.1685	0.020608	0.10644	0.14783	0.12108	0.19369	0.10672	0.19561	0.34814	0.095762	0.065879	0.26399	0.15448	0.11658	0.1599	0.25641	-2.5271	-3.4167	-3.0062	-3.1792	-3.3333	-2.8375	-3.3708	-3.4021	-2.8896	-3.5938	-3.0896	-3.2438	-3.525	-2.9938	-3.5021	-3.2104	41.554	-125.900	107.844	-95.169	131.650	212.455	125.785	-86.539	220.171	51.188	-111.353	220.088	88.057	203.880	129.837	194.700	0.0010991	0.00082655	0.00022684	811.39	6.7001e-06	6.8794e-06	868.71	320.8	5.8419e-06	9.6019e-07	379.41	161.9	132.35	61.106	4.6337e-06	84.46	0.00048331	0.00043882	0.00012558	795.12	4.7991e-06	4.9452e-06	845.31	313.03	5.0635e-06	4.9492e-06	369.37	156.35	128.9	59.89	4.8921e-06	82.279	146.113	-24.073	-28.973	-125.734	-28.731	0.002	-127.209	-120.351	-71.788	21.592	-122.793	-119.281	-116.316	-110.309	-24.178	-113.826	-8191	255	
1739.716	1	1	0	0	0.22681	0.06611	0.064173	0.13464	0.14098	0.16887	0.21291	0.17175	0.11697	0.10909	0.19698	0.10206	0.17281	0.19662	0.17845	0.10153	-2.6417	-3.4354	-2.8292	-3.275	-3.375	-2.7396	-3.5208	-3.2917	-2.9208	-3.5687	-2.9667	-3.1271	-3.5042	-2.8708	-3.3354	-3.4688	-107.619	-75.717	75.052	-28.419	196.512	4.159	159.402	-120.784	19.267	216.070	-11.635	199.507	214.703	-35.031	-9.302	204.738	0.0010908	0.0008248	0.00023087	825.91	8.2481e-06	7.9237e-06	867.7	322.83	7.7434e-06	5.0726e-06	381.19	161.08	131.9	60.839	5.23e-06	82.981	0.00047909	0.00044609	0.00012327	798.74	4.8746e-06	4.9311e-06	844.46	313.56	4.9702e-06	4.8926e-06	368.74	155.54	128.22	59.371	4.8898e-06	80.545	147.347	-15.176	-35.822	-125.733	-34.865	28.677	-127.158	-120.236	-15.329	-7.081	-122.820	-119.289	-116.295	-110.907	6.395	-114.401	-8191	255	
1739.812	1	1	0	0	0.13331	0.27887	0.21659	0.17901	0.11465	0.25502	0.21379	0.24594	0.097808	0.011652	0.097072	0.27516	0.21095	0.17815	0.15221	0.076438	-2.4813	-3.4104	-2.9396	-3.0021	-3.4688	-2.6312	-3.3063	-3.3021	-2.7354	-3.6271	-3.2125	-2.8625	-3.5083	-3.1146	-3.1417	-3.5583	171.443	-57.111	81.740	158.844	74.399	-3.706	-104.403	218.344	115.818	131.118	151.332	143.635	155.692	61.411	-118.222	217.538	0.0010742	0.00070666	0.00022039	821.42	5.9047e-06	6.3295e-06	867.83	322.5	3.9538e-06	6.2471e-06	380.01	161.46	132.66	61.123	2.8108e-06	83.452	0.00047643	0.00044482	0.00012169	795.81	4.8161e-06	4.8286e-06	838.98	312.93	5.0466e-06	4.8786e-06	367.54	155.25	128.55	59.46	4.9119e-06	80.886	146.565	-46.640	-41.197	-125.863	-11.461	43.274	-127.586	-120.411	-6.408	3.926	-123.141	-119.365	-116.484	-110.783	26.928	-114.267	-8191	255	
1739.908	1	1	0	0	0.11962	0.04239	0.12583	0.24083	0.28466	0.10082	0.1898	0.062333	0.22615	0.11873	0.25203	0.21605	0.1112	0.15088	0.2469	0.10701	-2.4083	-3.3083	-3.225	-3.0354	-3.5396	-2.8833	-3.15	-3.6458	-2.7646	-3.4271	-3.3312	-3.0062	-3.6542	-3.0167	-3.1125	-3.6542	184.964	86.098	23.718	158.372	213.193	9.841	-117.188	202.571	-14.444	154.410	197.784	-132.917	94.807	-98.467	199.708	54.921	0.0010539	0.00050373	7.8572e-05	820.42	4.2259e-06	4.4071e-06	870.64	323.99	1.8084e-06	2.1134e-06	381.56	161.64	132.61	61.368	7.1183e-06	84.432	0.0004844	0.00044942	0.00012241	795.82	4.8847e-06	4.7924e-06	841.42	313.19	4.9582e-06	4.8746e-06	369.3	156.04	128.6	59.64	5.0356e-06	81.61	148.331	-72.422	93.700	-126.097	-19.585	29.543	-127.798	-120.502	6.476	146.019	-122.937	-119.648	-116.528	-110.835	28.091	-114.341	-8191	255	
1740.005	1	1	0	0	0.31121	0.14769	0.19129	0.27205	0.1722	0.41197	0.12457	0.25788	0.30533	0.25904	0.24897	0.49417	0.01903	0.067053	0.071418	0.15953	-2.4333	-3.3292	-3.3333	-2.9042	-3.5	-2.9146	-3.0979	-3.6667	-2.8875	-3.3042	-3.3646	-2.9646	-3.7104	-3.1354	-2.8854	-3.7229	60.425	1.023	167.822	199.252	51.221	81.813	198.988	169.984	-21.943	122.335	97.149	195.678	204.078	-84.761	175.267	96.318	0.0011931	0.0003236	0.00011149	824.28	4.5954e-06	9.7177e-06	875.06	323.75	6.5709e-06	5.2321e-06	382.09	163.05	133.09	61.859	8.8575e-06	85.258	0.00047471	0.0004406	0.00012324	798.37	4.7851e-06	4.7057e-06	847.41	313.3	4.8851e-06	4.87e-06	370.52	157.34	128.88	59.967	5.0313e-06	82.683	147.900	-48.545	-61.557	-125.794	-8.394	-25.012	-127.507	-120.232	-30.045	-10.071	-123.139	-119.475	-116.379	-111.006	-16.335	-114.131	-8191	255	
1740.123	1	1	0	0	0.14491	0.29619	0.027095	0.4144	0.26047	0.19587	0.16812	0.19567	0.2218	0.10856	0.25432	0.30634	0.31664	0.20517	0.11134	0.30497	-2.3854	-3.0417	-3.4542	-2.7396	-3.1021	-3.1583	-2.9854	-3.5229	-2.7375	-3.3292	-3.6063	-2.9813	-3.3771	-3.2271	-2.7771	-3.7417	194.709	46.054	-60.771	-133.809	115.156	-58.916	108.651	-4.217	38.921	3.341	208.000	211.151	219.120	-93.217	154.946	177.512	0.0010926	0.00042792	5.6899e-05	822.31	2.7171e-06	5.6181e-06	877.79	324.01	5.1795e-06	6.1797e-06	380.2	160.31	131.6	60.644	7.79e-06	83.277	0.000471	0.00044955	0.00012351	797.36	4.8307e-06	4.738e-06	848.35	313.24	4.79e-06	4.8962e-06	369.65	155.63	127.91	59.218	5.0117e-06	80.831	153.035	-56.179	5.571	-125.723	-37.371	-4.362	-127.725	-120.598	-79.484	10.728	-122.904	-119.291	-116.654	-110.988	25.758	-114.282	-8191	255	
1740.220	1	1	0	0	0.21351	0.25066	0.039192	0.134	0.07718	0.16685	0.11994	0.15174	0.14862	0.19896	0.19343	0.17289	0.22855	0.033657	0.14179	0.20838	-2.4021	-3.0312	-3.3042	-2.975	-3.3375	-3.3667	-2.9938	-3.7125	-2.8417	-3.0396	-3.525	-2.9667	-3.3875	-3.4396	-2.6083	-3.6188	-51.935	60.575	123.248	199.311	220.775	44.039	68.977	-111.768	150.618	-61.208	178.037	152.953	203.055	-48.645	-135.618	174.595	0.0010024	0.00032657	0.00018158	819.43	4.7475e-06	4.9052e-06	861.56	320.82	5.3116e-06	7.8798e-06	381.01	160.65	131.93	60.733	2.0908e-06	83.651	0.00046719	0.00045054	0.00012155	794.1	4.8065e-06	4.7767e-06	838.34	311.88	4.7005e-06	4.8839e-06	368.12	155.42	127.97	59.244	4.8951e-06	81.069	142.513	5.905	-41.273	-125.580	-46.951	24.371	-127.384	-120.347	10.576	-35.944	-122.843	-119.222	-116.311	-110.716	-129.746	-114.226	-8191	255	
1740.291	1	1	0	0	0.01046	0.073395	0.13207	0.10779	0.022371	0.075962	0.1473	0.24723	0.14254	0.10125	0.14126	0.12252	0.058276	0.16324	0.10539	0.31639	-2.7354	-2.8375	-3.4	-3.0042	-3.1146	-3.1792	-2.8729	-3.6104	-3.2667	-3.0146	-3.6354	-3.0125	-3.1312	-3.5667	-2.7271	-3.7083	156.067	144.927	-9.040	-71.608	-0.214	117.443	25.162	188.880	-36.477	183.944	151.332	216.358	63.175	180.161	173.353	205.914	0.0010577	0.0008711	9.3288e-05	820.43	5.6968e-06	4.3099e-06	866.31	319.76	5.7805e-06	2.9691e-06	380.77	161.42	131.68	60.979	2.231e-06	84.109	0.00046283	0.00044494	0.00012195	793.74	4.8365e-06	4.7194e-06	842.78	311.79	4.7942e-06	4.9548e-06	369.68	156.12	128.01	59.564	4.9067e-06	81.723	145.078	-40.082	-73.727	-125.768	-64.429	-20.155	-127.545	-120.223	-40.805	-7.691	-122.451	-119.063	-116.506	-110.577	32.055	-114.491	-8191	255	
1740.389	1	1	0	0	0.14472	0.19874	0.094501	0.35571	0.27223	0.069869	0.30108	0.2079	0.10155	0.10699	0.20238	0.13822	0.10111	0.11621	0.089555	0.17664	-2.8208	-2.7354	-3.6229	-3.0354	-2.9729	-3.4167	-2.9688	-3.4292	-3.1063	-2.9646	-3.5271	-3.1417	-3.2458	-3.5208	-2.7521	-3.3729	-3.416	68.435	-99.158	140.128	178.143	46.837	146.232	171.810	83.550	30.182	124.401	-40.620	64.156	190.057	177.101	181.363	0.0011107	0.0004841	0.00014237	825.59	1.116e-06	7.7047e-06	873.52	324.21	1.0433e-05	1.0002e-05	385.44	162.52	132.42	61.246	1.0035e-05	84.777	0.00046774	0.00044602	0.00012458	796.54	4.9177e-06	4.868e-06	847.82	313.24	4.8217e-06	4.9883e-06	372.15	157.39	128.44	59.796	4.8278e-06	82.674	146.838	-20.130	-58.872	-125.969	67.360	31.690	-127.743	-120.467	-64.399	39.330	-122.614	-119.127	-116.204	-111.087	-3.038	-114.076	-8191	255	
1740.508	1	1	0	0	0.16435	0.2385	0.11289	0.21362	0.20364	0.01782	0.12457	0.30852	0.11569	0.1389	0.1227	0.21104	0.1593	0.20079	0.08203	0.34394	-2.8146	-2.6646	-3.3396	-3.1396	-2.9188	-3.3958	-2.8958	-3.3625	-3.2583	-2.8312	-3.7708	-2.9521	-2.9521	-3.5271	-3.0042	-3.3042	174.138	-96.393	102.530	-126.037	-41.080	214.203	74.899	142.752	29.535	-88.824	-59.470	187.084	-133.565	215.995	36.678	173.457	0.0010986	0.00046345	0.00022844	813.28	4.8032e-06	6.134e-06	870.49	320.86	2.1925e-06	7.1851e-06	377.71	159.82	129.35	60.354	4.6278e-06	83.264	0.00046937	0.00045174	0.00012324	795.86	4.9525e-06	4.8835e-06	847.2	312.5	4.8438e-06	4.8871e-06	369.76	155.89	127.56	59.256	4.7318e-06	80.975	146.906	-90.679	-34.992	-125.343	-2.792	5.590	-127.152	-120.384	218.822	47.246	-122.410	-118.740	-115.826	-110.296	74.043	-113.841	-8191	255	
1740.604	1	1	0	0	0.029209	0.17016	0.11167	0.18877	0.22104	0.08355	0.16078	0.21085	0.17834	0.2122	0.088744	0.054663	0.31363	0.26594	0.17194	0.10414	-2.8958	-2.825	-3.2208	-3.2458	-3.0062	-3.775	-2.9792	-3.4125	-3.4875	-2.7875	-3.4042	-3.4125	-2.9562	-3.5583	-2.8312	-3.3312	129.835	18.706	-28.419	191.087	158.280	170.996	-131.759	195.249	156.742	45.857	133.722	179.437	-56.379	208.293	44.220	-99.004	0.00091447	0.00066035	2.98e-05	811.95	2.9264e-06	4.9072e-06	856.93	316.35	9.226e-06	2.517e-06	374.82	158.18	130.55	60.268	4.4693e-06	83.221	0.00046537	0.00044545	0.00012309	792.1	4.9792e-06	4.827e-06	837.04	310.91	4.8238e-06	4.8843e-06	367.67	155.07	127.58	59.121	4.7193e-06	81.216	151.333	-93.500	193.260	-125.168	-131.962	-35.496	-126.642	-119.949	-22.822	-9.584	-122.342	-118.519	-115.959	-110.365	45.082	-114.247	-8191	255	
1740.700	1	1	0	0	0.057551	0.2142	0.072409	0.14634	0.12095	0.06728	0.37592	0.35191	0.091298	0.13199	0.35568	0.2084	0.13497	0.34844	0.20189	0.14305	-2.8896	-2.7667	-3.5958	-3.2292	-2.8708	-3.5187	-3.225	-3.1708	-3.4208	-2.75	-3.3854	-3.5375	-3.0958	-3.5604	-2.9896	-3.1479	88.798	-121.057	153.662	-89.285	44.847	189.839	184.434	-118.098	13.581	81.493	162.103	201.680	146.126	213.864	42.713	208.737	0.001066	0.0006139	0.00016913	813.32	9.4941e-06	9.5564e-06	865.58	321.15	8.3342e-06	7.0783e-06	379.41	161.27	131.54	60.617	5.3964e-06	84.435	0.00046911	0.00044596	0.00012272	790.65	4.949e-06	4.8201e-06	840.91	311.7	4.7273e-06	4.8383e-06	370.19	156.63	128.11	59.471	4.7173e-06	81.988	147.119	-29.632	-37.148	-125.426	-55.191	-21.529	-127.046	-120.363	-51.972	62.298	-122.854	-119.160	-116.457	-110.766	50.092	-113.688	-8191	255	
1740.821	1	1	0	0	0.086935	0.071401	0.1868	0.17166	0.13802	0.087045	0.31479	0.26275	0.069689	0.16611	0.33575	0.25306	0.081258	0.20253	0.27235	0.26342	-3.2208	-2.9458	-3.0708	-3.3563	-2.8583	-3.4792	-3.1708	-2.9875	-3.4083	-2.825	-3.4021	-3.4979	-2.9167	-3.5333	-2.9417	-3.1583	-111.425	86.748	-31.151	221.580	-11.090	39.049	145.377	186.760	106.317	-64.799	173.362	157.940	-128.043	143.226	-67.623	221.808	0.0011068	0.00066547	0.00019942	808.77	3.391e-06	1.1215e-05	861.65	316.49	3.0654e-06	4.9211e-06	377.71	161.04	130.35	60.697	5.4716e-06	84.569	0.00046987	0.000435	0.00012371	791.79	4.8891e-06	4.7709e-06	845.99	310.99	4.8266e-06	4.8419e-06	370.71	157.72	128.03	59.696	4.7271e-06	82.806	142.376	-62.084	-61.888	-125.117	-4.417	-2.069	-126.543	-119.834	43.818	58.627	-122.472	-118.313	-115.811	-110.191	-17.321	-113.483	-8191	255	
1740.893	1	1	0	0	0.019213	0.34384	0.21809	0.25985	0.18748	0.20213	0.3292	0.31527	0.28955	0.068936	0.12206	0.32092	0.13438	0.2254	0.23063	0.25302	-3.2271	-2.9437	-2.9083	-3.5208	-2.9542	-3.2458	-3.3375	-3.1479	-3.6979	-3.0583	-3.2229	-3.7229	-2.9125	-3.3187	-3.1771	-3.1167	58.536	206.641	46.200	112.153	184.014	221.069	136.543	164.275	-62.246	-9.186	10.433	135.178	103.172	-137.256	123.484	213.036	0.0010749	0.00054892	0.00012892	813.34	9.35e-06	8.7108e-06	864.87	318.42	6.7672e-06	4.7455e-06	379.57	159.99	129.18	59.707	5.9082e-06	82.861	0.00046896	0.00043781	0.00012552	793.62	4.8567e-06	4.7865e-06	847.85	311.69	4.8224e-06	4.6405e-06	370.97	156.32	127.45	59.029	4.8088e-06	81.219	144.386	-33.650	9.573	-125.104	-49.411	32.782	-126.716	-119.543	-76.301	-9.783	-122.303	-118.210	-115.642	-110.164	4.526	-113.892	-8191	255	
1740.989	1	1	0	0	0.20479	0.24846	0.30508	0.33293	0.12112	0.079193	0.15046	0.1287	0.10978	0.20242	0.098594	0.3122	0.26842	0.24633	0.32337	0.15479	-3.1542	-2.9	-2.9313	-3.3792	-2.8875	-3.1333	-3.1125	-2.9854	-3.5104	-3.0125	-2.7542	-3.6375	-2.8688	-3.325	-3.2146	-2.8333	-47.590	196.705	-41.553	199.900	167.935	24.309	191.542	68.542	34.751	150.226	99.309	191.193	-130.122	-111.888	-20.832	186.001	0.0012484	0.00042617	0.0001942	807.01	5.984e-06	6.087e-06	852.34	316.02	7.3981e-06	3.9489e-06	373.98	159.59	129.61	60.149	6.7383e-06	83.465	0.0004699	0.00043368	0.00012488	791.62	4.8055e-06	4.8193e-06	838.79	310.39	4.7346e-06	4.7029e-06	367.69	155.98	127.18	59.099	4.7311e-06	81.502	138.797	-39.682	-25.677	-124.908	-23.745	-30.517	-126.550	-119.752	-49.174	4.286	-122.250	-118.365	-115.828	-110.255	-21.559	-113.598	-8191	255	
1741.109	1	1	0	0	0.065342	0.20525	0.36505	0.12544	0.12391	0.17393	0.24321	0.03515	0.071841	0.089035	0.20562	0.03154	0.061053	0.11877	0.1768	0.15856	-3.0917	-3.0208	-2.8896	-3.6146	-2.7083	-2.9833	-3.475	-2.9604	-3.3667	-3.1771	-3.0312	-3.6333	-3.0604	-3.1292	-3.2833	-3.0104	-124.368	-40.050	5.782	79.543	160.086	202.640	139.083	70.237	182.812	-53.944	186.409	154.566	179.105	198.556	-26.544	146.283	0.0010477	0.00091166	0.00018606	815.27	3.135e-06	5.0189e-06	857.19	316.9	5.4737e-06	2.393e-06	377.91	159.41	130.34	60.117	6.7022e-06	83.08	0.00046881	0.00042709	0.00012451	793.48	4.6517e-06	4.8339e-06	840.34	311.21	4.7733e-06	4.702e-06	370.66	156.55	127.65	59.358	4.775e-06	81.809	149.743	-82.890	-27.879	-124.961	-10.096	7.486	-126.389	-119.724	-46.684	-46.415	-122.246	-118.066	-115.705	-109.971	10.701	-113.419	-8191	255	
1741.204	1	1	0	0	0.10369	0.07474	0.14643	0.32188	0.19141	0.23773	0.10899	0.2369	0.044797	0.12328	0.081507	0.27512	0.38579	0.057317	0.10624	0.072913	-2.9104	-3.1958	-2.9375	-3.4229	-2.8396	-2.8458	-3.5792	-2.8	-3.3146	-3.2208	-3.0083	-3.7021	-3.1562	-2.9208	-3.4062	-2.925	110.571	-36.024	221.014	180.622	-131.276	13.173	-28.928	118.825	-127.041	-54.449	63.008	-109.463	98.723	-34.759	-87.904	194.368	0.0010487	0.00078021	0.00011234	806.3	5.0426e-06	4.6418e-06	869.85	318.1	7.1372e-06	2.813e-06	378.27	160.54	130.37	60.301	4.9201e-06	83.8	0.00046686	0.00043092	0.00012401	791.5	4.7398e-06	4.8321e-06	847.57	310.98	4.9083e-06	4.7936e-06	370.78	157.47	127.92	59.398	4.7293e-06	82.435	144.309	-24.173	-45.081	-124.484	-18.369	-95.464	-126.629	-119.663	-66.286	-33.832	-122.419	-118.153	-115.745	-110.295	8.785	-113.112	-8191	255	
1741.300	1	1	0	0	0.16702	0.15396	0.17534	0.2008	0.1404	0.23402	0.27052	0.10484	0.0070098	0.30437	0.20337	0.17453	0.17941	0.32771	0.11956	0.18472	-2.6958	-3.1729	-2.8458	-3.4021	-3.025	-2.8458	-3.6813	-2.8312	-3.2854	-3.3792	-2.9313	-3.6375	-3.0792	-2.9562	-3.625	-2.85	28.738	-25.919	44.168	185.876	198.744	-67.929	182.851	154.839	-65.658	-47.867	188.264	157.392	204.168	212.775	173.517	171.544	0.0010095	0.00021919	0.00023338	803.26	5.3482e-06	7.6912e-06	863.09	314.33	4.9032e-06	3.934e-06	379.44	160.03	128.78	59.501	7.6811e-06	82.618	0.0004622	0.00043191	0.00012438	789.89	4.751e-06	4.9061e-06	847.21	309.83	4.8121e-06	4.7939e-06	371.32	156.38	127.11	58.932	4.8889e-06	81.196	140.970	-31.288	20.627	-124.836	34.736	-5.578	-126.400	-119.733	-50.046	24.659	-122.188	-118.393	-115.500	-110.041	23.519	-113.160	-8191	255	
1741.421	1	1	0	0	0.029093	0.17919	0.10881	0.20626	0.12695	0.041565	0.067761	0.16816	0.12619	0.19257	0.11781	0.19418	0.16487	0.028131	0.34126	0.12405	-2.8021	-3.3667	-2.8146	-3.4	-3.2313	-2.8312	-3.6208	-2.9771	-3.2042	-3.3021	-2.7812	-3.4917	-3.3563	-2.9188	-3.3042	-3.1583	207.055	-27.164	57.272	140.001	168.372	-126.389	175.783	3.849	41.133	129.711	13.383	191.968	-10.143	6.972	73.878	83.228	0.00099981	0.00053946	0.00020605	798.24	6.7526e-06	2.0514e-06	850.1	316.25	8.8364e-06	8.0297e-06	378.43	161.58	130.76	60.357	4.5001e-06	83.252	0.00047212	0.00043671	0.00012404	786.62	4.7331e-06	4.9646e-06	837.81	309.57	4.9571e-06	4.7908e-06	368.76	156.3	127.54	59.12	4.8275e-06	81.242	148.281	-24.800	-18.306	-124.858	-16.635	213.015	-126.499	-119.587	-30.699	28.736	-122.645	-119.164	-116.002	-110.625	-2.411	-114.081	-8191	255	
1741.492	1	1	0	0	0.26215	0.033441	0.16961	0.25352	0.16828	0.028008	0.26887	0.13803	0.012555	0.09677	0.049767	0.04982	0.35749	0.17752	0.077622	0.017415	-2.7667	-3.2667	-2.6958	-3.3125	-3.2896	-2.8354	-3.5	-3.1875	-3.1	-3.3167	-2.8979	-3.625	-3.2917	-2.9125	-3.3438	-3.2854	-79.296	143.766	108.508	193.758	189.979	-1.038	205.789	158.856	13.945	184.190	40.754	-137.570	-106.457	170.225	184.290	-123.789	0.0010746	0.00052775	0.00031612	808.86	7.5632e-06	2.7571e-06	865.41	317.47	8.115e-06	4.0331e-06	378.43	160.2	129.52	60.273	4.1106e-06	82.675	0.00048003	0.00043987	0.00012186	789.74	4.7612e-06	4.9192e-06	842.77	309.97	4.9362e-06	4.8358e-06	370.24	156.73	127.28	59.174	4.7896e-06	81.737	150.490	-56.206	-47.339	-125.708	-26.852	14.548	-127.089	-119.999	-60.777	65.474	-122.387	-118.789	-115.905	-110.599	-4.407	-113.060	-8191	255	
1741.588	1	1	0	0	0.03994	0.10721	0.11551	0.12479	0.22833	0.151	0.032341	0.15651	0.074639	0.19088	0.16655	0.31607	0.18892	0.12747	0.17227	0.11518	-2.6854	-3.3729	-2.6896	-3.3375	-3.4188	-2.7021	-3.6917	-3.3896	-2.775	-3.4729	-3.1042	-3.4042	-3.3625	-2.9542	-3.475	-3.2812	128.469	203.207	-82.786	-133.097	199.588	-96.849	74.495	215.216	49.132	-73.692	188.169	154.878	-135.259	184.330	-93.154	179.855	0.0010113	0.00075764	0.00021476	806.4	5.8091e-06	6.2672e-06	855.38	315.15	8.6856e-06	7.7479e-06	377.84	161.64	129.74	59.824	1.0946e-05	84.817	0.00048843	0.00043894	0.0001209	790.56	4.8153e-06	4.936e-06	843.81	309.39	4.9118e-06	4.8101e-06	370.7	157.84	127.53	59.293	4.8933e-06	82.91	149.394	-26.269	-19.172	-124.741	-52.610	21.287	-126.197	-119.565	-32.901	-32.057	-122.061	-118.629	-115.752	-109.851	29.997	-113.443	-8191	255	
1741.685	1	1	0	0	0.18201	0.013177	0.14632	0.18039	0.2453	0.13239	0.14727	0.15194	0.15722	0.22479	0.02307	0.1523	0.16679	0.2446	0.25737	0.16373	-2.5563	-3.25	-2.8771	-3.2438	-3.4771	-2.8854	-3.5083	-3.2208	-2.9708	-3.6688	-3.1813	-3.2583	-3.5333	-2.9437	-3.4938	-3.6396	156.806	-24.619	201.307	-110.091	187.931	22.048	143.338	168.913	111.771	50.957	-10.777	120.424	206.155	221.302	-24.871	205.262	0.0010824	0.00042139	3.3444e-05	814.49	2.8757e-06	8.3552e-06	871.66	316.3	6.4743e-06	2.683e-06	378.37	161.32	129.76	59.986	3.0913e-06	83.937	0.00048192	0.00044077	0.00012236	792.09	4.7953e-06	4.864e-06	850.54	310.11	4.9633e-06	4.7595e-06	371.84	157.37	127.15	59.012	4.9623e-06	81.919	143.813	-101.743	153.831	-125.187	-12.453	2.848	-126.611	-119.662	-43.216	-69.067	-121.815	-118.510	-115.282	-110.254	55.119	-113.983	-8191	255	
1741.803	1	1	0	0	0.11015	0.098239	0.22787	0.28261	0.16542	0.20833	0.24297	0.062962	0.12576	0.065041	0.10524	0.12909	0.24124	0.09086	0.16871	0.02386	-2.5812	-3.5563	-2.875	-3.1625	-3.4958	-2.8771	-3.4021	-3.3396	-2.9	-3.3667	-3.1375	-3.0958	-3.4729	-2.7417	-3.125	-3.5667	211.325	207.972	138.660	115.111	79.058	202.254	187.532	-41.349	187.759	-73.927	-88.391	-124.077	112.949	-44.738	-77.507	30.456	0.0011357	0.00028464	0.00012846	804.62	6.0824e-06	5.7896e-06	850.98	313.85	6.31e-06	4.4715e-06	372.84	158.6	129.49	59.748	3.6482e-06	83.602	0.00048273	0.00043675	0.00011865	787.31	4.8355e-06	4.7871e-06	838.48	308.73	4.9591e-06	4.7446e-06	367.39	155.96	127.06	58.816	4.8807e-06	81.729	152.934	56.249	-55.785	-125.267	-26.691	29.510	-126.139	-119.303	-61.058	6.763	-121.979	-118.347	-115.441	-110.285	14.347	-113.891	-8191	255	
1741.900	1	1	0	0	0.28623	0.19521	0.050019	0.070664	0.2287	0.070181	0.15478	0.17188	0.083947	0.11963	0.17566	0.086179	0.21438	0.07488	0.06948	0.026416	-2.5854	-3.3083	-3.1229	-2.9875	-3.5646	-2.9167	-3.2625	-3.5187	-2.6896	-3.4	-3.3	-2.9104	-3.5104	-3.0062	-3.15	-3.6458	-123.294	204.452	91.166	-119.825	-6.049	202.772	143.124	-105.222	77.073	-5.561	-137.800	-83.444	80.820	-110.079	133.315	209.978	0.0010567	0.00081524	0.00013415	804.7	5.9561e-06	6.1284e-06	861.66	319.7	7.9276e-06	3.1538e-06	381.81	161.61	131.05	60.499	6.4923e-06	84.241	0.00047691	0.00043559	0.00012324	787.02	4.7762e-06	4.7524e-06	841.41	310.28	4.9392e-06	4.8264e-06	371.42	157.58	127.8	59.259	4.9338e-06	82.25	139.205	-78.501	-22.786	-125.692	-92.593	-65.246	-126.840	-120.228	-2.182	31.990	-122.505	-118.854	-116.010	-110.265	52.788	-113.748	-8191	255	
1741.996	1	1	0	0	0.14365	0.072855	0.1158	0.080971	0.10898	0.10336	0.13517	0.24309	0.102	0.085122	0.039856	0.43874	0.3062	0.087829	0.11207	0.1528	-2.1937	-3.1833	-3.2021	-2.9458	-3.4833	-2.9313	-3.1604	-3.5979	-2.6917	-3.2729	-3.3979	-2.9646	-3.65	-3.175	-3.1771	-3.6688	-6.414	-42.444	-131.994	-63.369	-95.314	-117.294	52.362	195.522	-28.473	104.835	73.461	208.741	189.517	-96.938	201.278	139.522	0.0011036	0.00062915	0.00015463	803.52	8.288e-06	7.3848e-06	863.74	317.13	4.4321e-06	6.7508e-06	378.77	160.58	129.67	59.679	3.4298e-06	84.186	0.00046832	0.00044196	0.00012195	788.48	4.8119e-06	4.7667e-06	844.64	310.57	4.7843e-06	4.8966e-06	371.75	158.05	127.59	59.31	4.9701e-06	82.989	147.225	-44.684	-52.761	-125.314	-68.832	33.812	-126.667	-119.793	-39.101	54.977	-122.266	-118.326	-115.602	-109.850	58.451	-113.253	-8191	255	
1742.092	1	1	0	0	0.1049	0.14286	0.22343	0.30854	0.29284	0.17555	0.066576	0.14917	0.10373	0.17472	0.10316	0.13376	0.15602	0.21123	0.19341	0.18313	-2.5479	-3.3875	-3.5042	-2.8479	-3.55	-3.1229	-2.975	-3.4688	-3.1104	-3.2229	-3.3312	-2.7875	-3.5479	-3.3854	-2.9062	-3.4604	-23.282	154.252	-32.103	110.602	-63.857	-4.707	168.622	142.954	-11.643	5.513	44.473	179.064	-55.037	199.317	133.225	180.282	0.0011404	0.00087835	0.00019971	802.1	6.4498e-06	4.3892e-06	867.04	316.21	4.9896e-06	2.6945e-06	378.01	161.44	130.74	60.557	6.8017e-06	84.621	0.00046626	0.00044156	0.0001213	790.64	4.8287e-06	4.7477e-06	849.34	310.05	4.7516e-06	4.8987e-06	372.43	157.97	127.79	59.267	4.9227e-06	82.279	149.857	-56.845	-74.853	-124.847	-51.079	8.645	-126.413	-119.592	-44.973	19.752	-121.761	-118.861	-116.347	-110.910	-42.631	-114.425	-8191	255	
1742.188	1	1	0	0	0.090263	0.18052	0.083079	0.22993	0.18933	0.078806	0.16199	0.27519	0.23926	0.14277	0.078668	0.16788	0.18848	0.43056	0.065439	0.11603	-2.7229	-3.2083	-3.2125	-2.7479	-3.4958	-3.4167	-2.7896	-3.6771	-3.0854	-3.1104	-3.5563	-2.8917	-3.4188	-3.3979	-2.9437	-3.5812	-55.291	-51.736	138.176	173.474	-37.595	-41.805	127.757	193.581	58.197	31.062	134.247	99.183	-77.924	158.387	178.858	67.549	0.0012118	0.0010179	0.00020393	812.39	3.0813e-06	7.7387e-06	861.63	320.42	6.7466e-06	8.66e-06	383.22	160.97	131.32	61.046	9.3853e-06	84.603	0.00047028	0.00045222	0.00012108	789	4.8852e-06	4.7767e-06	841.94	309.98	4.8014e-06	4.8445e-06	371.18	157	127.6	59.244	4.9227e-06	82.045	148.220	-28.490	-36.812	-125.593	12.578	31.961	-127.072	-120.267	-18.225	-16.366	-122.729	-119.056	-116.309	-110.785	28.983	-114.262	-8191	255	
1742.284	1	1	0	0	0.16609	0.030011	0.10096	0.28279	0.21755	0.15036	0.20574	0.18919	0.080075	0.024975	0.050613	0.28911	0.25654	0.15902	0.099593	0.12605	-2.55	-3.1312	-3.3187	-2.8292	-3.3104	-3.3708	-2.9604	-3.5729	-3.1896	-2.9208	-3.5208	-2.9229	-3.3125	-3.425	-2.7479	-3.6792	31.531	4.868	144.093	198.434	-97.451	-132.388	200.015	150.006	18.099	-123.922	180.913	109.115	181.399	134.582	-56.721	125.863	0.0010604	0.00097279	8.7316e-05	808.56	2.742e-06	7.7532e-06	860.67	318.23	6.1419e-06	6.7968e-06	382.69	162.31	130.38	60.685	4.7144e-06	84.709	0.00046546	0.00044851	0.00012164	787.47	4.8405e-06	4.72e-06	839.12	310.12	4.7276e-06	4.9782e-06	371.33	157.8	127.37	59.369	4.886e-06	82.569	146.090	-68.383	-70.180	-125.561	3.206	46.947	-127.189	-120.201	-7.757	-28.054	-122.688	-118.776	-116.105	-110.592	-4.575	-113.864	-8191	255	
1742.380	1	1	0	0	0.010328	0.21674	0.14093	0.20507	0.26623	0.069715	0.066297	0.27226	0.25124	0.045859	0.072062	0.21409	0.099256	0.020858	0.21487	0.11011	-2.5229	-2.75	-3.4854	-2.8917	-3.1729	-3.3458	-3.0208	-3.5833	-3.0583	-2.8667	-3.4688	-2.9521	-3.0667	-3.4583	-2.8354	-3.5042	7.964	-102.304	-96.823	-90.065	-85.919	206.184	-93.951	167.235	-7.462	-41.268	-35.171	129.473	-51.205	189.693	-132.252	195.998	0.0010806	0.00053482	0.00017863	807.83	1.2918e-06	6.2442e-06	862.27	315.94	2.9047e-06	5.9095e-06	383.65	162.23	130.55	60.193	7.5687e-06	85.202	0.00045648	0.00045196	0.0001215	788.61	4.8616e-06	4.7585e-06	843.33	309.7	4.7607e-06	4.9179e-06	373.58	158.39	127.95	59.403	4.8058e-06	83.209	145.740	-94.011	-10.891	-125.398	-135.995	-21.908	-126.879	-120.073	-43.858	-10.897	-122.591	-118.954	-116.065	-110.270	-14.781	-113.783	-8191	255	
1742.501	1	1	0	0	0.26779	0.31177	0.10138	0.062183	0.18791	0.13202	0.17214	0.32741	0.018479	0.18242	0.14702	0.22726	0.13631	0.078456	0.12644	0.16268	-2.7083	-2.9958	-3.3229	-3.0646	-2.8937	-3.5938	-3.0333	-3.5833	-3.2208	-2.8375	-3.5458	-3.1021	-3.075	-3.6729	-2.7979	-3.2521	60.711	27.635	-133.189	-126.215	165.777	59.588	-121.455	203.217	215.894	-44.923	155.242	220.348	133.869	-107.429	-113.334	124.148	0.0010774	0.00071425	0.00012773	807.74	7.6163e-06	6.0204e-06	863.6	315.8	8.0986e-06	6.9397e-06	381.3	161.06	129.17	59.339	2.3147e-06	82.992	0.00046881	0.00044699	0.00012067	789.16	4.9452e-06	4.7599e-06	846.96	309.9	4.7674e-06	4.8426e-06	372.39	157.96	127.08	59.051	4.7321e-06	81.956	145.551	-28.936	-74.372	-125.113	-28.826	54.602	-126.325	-119.819	-59.174	0.330	-122.288	-117.938	-114.908	-109.497	63.713	-112.944	-8191	255	
1742.595	1	1	0	0	0.25168	0.1646	0.098099	0.15263	0.1135	0.24913	0.22283	0.31776	0.063027	0.17626	0.1307	0.23922	0.27989	0.13108	0.13986	0.26459	-3.05	-2.775	-3.2917	-2.9188	-2.925	-3.5042	-3.0438	-3.3083	-3.3312	-2.7521	-3.325	-3.4	-3.1833	-3.5521	-3.0583	-3.1854	114.359	43.326	30.174	99.041	100.503	159.062	167.121	208.178	6.075	140.460	19.068	180.884	-129.485	203.345	-49.180	150.819	0.0011292	0.00042847	0.00011757	804.78	1.6453e-06	7.5893e-06	852.18	316.2	5.3339e-06	2.3959e-06	377.87	160.28	129.11	59.795	1.0064e-06	82.591	0.00046629	0.00044001	0.00012117	785.6	4.9398e-06	4.7482e-06	837.96	309.3	4.8017e-06	4.8236e-06	370.2	156.62	126.74	58.914	4.7796e-06	81.273	141.792	-21.681	-49.127	-125.076	-14.604	30.212	-126.769	-120.003	-17.496	-79.328	-122.658	-118.369	-115.819	-109.915	-52.961	-113.581	-8191	255	
1742.692	1	1	0	0	0.17547	0.18728	0.035809	0.27414	0.24501	0.13637	0.073996	0.23724	0.075388	0.20565	0.1343	0.022341	0.26549	0.075801	0.14554	0.26726	-2.8854	-2.6771	-3.3583	-3.2458	-2.9583	-3.5375	-3.1833	-3.3208	-3.3667	-2.9458	-3.5708	-3.3146	-2.8896	-3.6458	-2.9562	-3.2167	192.781	111.410	164.519	166.099	-54.014	-10.509	22.276	129.314	-97.301	-91.726	174.237	219.672	139.498	218.787	129.050	155.593	0.0010781	0.0002079	0.00016226	800.08	7.7213e-06	7.383e-06	860.34	317.49	4.7109e-06	6.7644e-06	377.75	161.48	130.12	60.097	4.7465e-06	83.931	0.00046981	0.00044088	0.00012206	785.13	4.9321e-06	4.7609e-06	839.85	309.15	4.799e-06	4.783e-06	370.62	157.36	127.26	59.04	4.7144e-06	82.399	148.585	-64.721	-85.064	-124.984	-18.325	39.706	-126.830	-120.072	-41.287	-3.573	-122.424	-118.581	-116.231	-110.337	-36.119	-113.568	-8191	255	
1742.788	1	1	0	0	0.092062	0.30171	0.058476	0.17971	0.15432	0.12703	0.26484	0.24107	0.1129	0.22245	0.16534	0.26349	0.28623	0.22899	0.21409	0.2894	-3.2125	-2.7333	-3.025	-3.5104	-2.6562	-3.5083	-3.2521	-3.1104	-3.5125	-2.9458	-3.3458	-3.5958	-2.9146	-3.375	-3.0979	-3.1833	35.782	128.958	-106.740	169.395	25.433	93.731	-34.057	-95.582	31.995	113.350	-76.612	162.684	175.136	-130.354	162.198	166.544	0.0010863	0.00053916	0.00013465	802.88	1.2826e-05	6.1242e-06	859.6	312.99	4.8621e-06	5.0723e-06	376.88	160.53	129.73	59.955	4.2793e-06	84.448	0.00046573	0.00043608	0.00012303	786.49	4.854e-06	4.7737e-06	842.42	307.94	4.8164e-06	4.7174e-06	371.37	158.03	127.31	59.354	4.8224e-06	83.045	143.069	-11.396	-33.075	-125.240	-16.034	52.524	-126.440	-119.541	-57.103	46.501	-121.430	-117.895	-115.572	-110.107	26.492	-113.494	-8191	255	
1742.884	1	1	0	0	0.10671	0.15533	0.12374	0.061271	0.2756	0.13501	0.009138	0.13963	0.15299	0.11912	0.18057	0.070838	0.23092	0.19419	0.037536	0.089376	-3.1188	-2.9021	-3.2562	-3.3875	-2.9583	-3.5146	-3.1979	-2.8542	-3.5854	-2.9188	-3.1896	-3.6292	-3	-3.5187	-3.2396	-3.1917	143.700	16.277	222.276	16.349	-2.320	77.921	210.562	-127.548	-134.005	40.447	203.376	-123.379	189.104	125.298	1.641	-3.275	0.0011992	0.0009917	0.00017582	801.62	5.6822e-06	1.0671e-05	861.61	316.45	3.2892e-06	6.7095e-06	384.26	163.83	130.35	60.787	4.4256e-06	85.115	0.00046698	0.00043425	0.0001235	785.55	4.752e-06	4.7896e-06	848.78	309.76	4.7416e-06	4.7568e-06	374.05	159.39	127.22	59.513	4.8385e-06	82.756	144.848	-46.251	-34.420	-124.696	-39.169	42.552	-126.200	-119.733	-41.184	36.250	-122.698	-118.694	-116.054	-110.872	117.784	-114.398	-8191	255	
1742.980	1	1	0	0	0.19472	0.031154	0.024095	0.080233	0.20871	0.084799	0.10119	0.25207	0.12627	0.11837	0.12437	0.25221	0.24755	0.24759	0.14214	0.29716	-3.2021	-2.7646	-3.0333	-3.8271	-2.8125	-3.3417	-3.4188	-2.8771	-3.6083	-3.0833	-3.1063	-3.825	-2.9625	-3.3917	-3.3271	-2.8729	110.677	-64.819	-47.710	172.521	-39.972	101.654	-49.160	-127.865	30.107	-78.732	-49.111	72.199	-121.197	170.190	-1.052	212.631	0.0010407	0.00045917	0.00021559	813.78	3.7418e-06	4.8825e-06	867.33	317.94	3.1033e-06	4.6932e-06	382.54	161.94	130.08	60.499	4.4306e-06	83.683	0.00046555	0.00043534	0.00012249	788.29	4.7688e-06	4.8548e-06	843.08	309.22	4.7298e-06	4.7924e-06	372.02	157.43	126.89	59.182	4.7804e-06	81.824	139.192	-81.865	-54.968	-125.648	-16.173	-1.707	-127.251	-120.582	-31.378	18.200	-123.168	-118.719	-116.444	-110.743	-48.647	-114.143	-8191	255	
1743.101	1	1	0	0	0.060469	0.24796	0.055852	0.29671	0.20968	0.06877	0.12523	0.16011	0.083832	0.15774	0.43722	0.18894	0.11987	0.097695	0.11993	0.11752	-3.1208	-3.0812	-2.9938	-3.525	-2.8417	-3.2396	-3.3667	-2.9146	-3.5521	-3.0792	-3.0104	-3.6229	-3.0167	-3.4271	-3.5708	-2.7375	125.575	-59.677	90.484	-17.329	147.720	-51.567	197.335	123.995	-106.066	90.483	-126.003	148.613	194.682	189.176	114.356	-112.202	0.0011638	0.00037124	0.00011941	810.58	2.8573e-06	6.6053e-06	865.5	317.58	2.1709e-06	8.7826e-06	381.59	162.48	130.52	60.815	7.0063e-06	84.77	0.00046572	0.00043386	0.00012094	786.63	4.6754e-06	4.8866e-06	843.54	309.57	4.7946e-06	4.8015e-06	371.87	158.11	127.21	59.427	4.778e-06	82.501	141.036	-92.957	52.763	-125.663	13.818	57.282	-127.169	-120.183	24.764	-25.638	-122.897	-119.077	-116.096	-110.663	-6.596	-113.947	-8191	255	
1743.197	1	1	0	0	0.099725	0.04339	0.13716	0.19264	0.16744	0.17508	0.26355	0.088197	0.045159	0.074888	0.3773	0.11826	0.08027	0.23232	0.075887	0.097888	-2.9479	-3.1792	-2.6729	-3.5812	-2.8958	-3.0667	-3.4729	-2.9437	-3.3521	-3.3833	-3.0417	-3.5312	-3.1792	-3.1437	-3.2958	-2.9813	-123.733	182.474	133.083	203.611	126.693	-51.947	173.249	-90.940	201.537	53.261	164.940	45.348	-108.911	172.952	-78.484	78.749	0.00093758	0.00098308	0.0002297	807.27	8.2601e-06	5.792e-07	871.21	316.25	5.0012e-06	4.727e-06	387.05	163.44	130.8	60.853	5.8066e-06	84.608	0.0004677	0.00042249	0.0001232	786.62	4.7363e-06	4.8035e-06	847.78	308.88	4.8089e-06	4.7564e-06	374.74	158.94	127.25	59.519	4.7137e-06	83.108	141.092	-48.520	-19.448	-125.386	-50.165	-40.383	-126.807	-119.970	-22.192	58.307	-122.431	-118.802	-116.070	-110.669	57.394	-113.400	-8191	255	
1743.293	1	1	0	0	0.046691	0.02096	0.21673	0.19542	0.11897	0.16976	0.27421	0.29767	0.44257	0.18402	0.33162	0.23526	0.13937	0.2271	0.16487	0.16138	-2.8875	-3.1375	-2.8646	-3.6979	-3.0604	-3.0625	-3.6792	-2.9146	-3.2896	-3.2354	-3.0854	-3.6771	-3.0521	-3.2188	-3.4521	-2.9167	76.729	193.253	36.752	209.997	180.027	191.137	185.181	191.531	153.068	-73.753	197.092	23.355	-72.749	172.621	80.856	117.424	0.0010183	0.00012174	0.00023132	795.85	9.8203e-06	9.3326e-06	865.08	316.66	7.6262e-06	4.8512e-06	384.75	164.49	130.65	60.884	4.7851e-06	84.951	0.00047236	0.00043388	0.00012357	785.99	4.6641e-06	4.8922e-06	849.89	309.46	4.8781e-06	4.7965e-06	375	159.81	127.38	59.44	4.7412e-06	82.699	144.435	-126.336	-95.208	-124.189	-40.453	-1.537	-126.530	-119.855	-49.497	34.660	-122.550	-118.918	-116.186	-110.829	-54.842	-114.158	-8191	255	
1743.389	1	1	0	0	0.16904	0.096271	0.22927	0.16286	0.039333	0.10343	0.1876	0.2153	0.36197	0.1896	0.23694	0.11584	0.21664	0.221	0.13466	0.093742	-2.9313	-3.4083	-2.8208	-3.65	-3.1354	-3.0604	-3.5854	-2.9333	-3.1854	-3.2875	-2.8958	-3.4313	-3.3896	-2.8688	-3.3937	-3.1208	173.957	-111.249	-4.822	198.622	29.143	21.206	136.191	171.092	-40.407	-43.974	200.666	128.700	188.704	164.335	142.112	109.850	0.00097676	0.00096323	0.00018707	813.29	5.7663e-06	5.9475e-07	870	316.78	4.7825e-06	8.7355e-06	384.34	162.39	131.53	60.505	1.1913e-06	84.325	0.00047136	0.00043245	0.00012145	787.83	4.6585e-06	4.8772e-06	843.21	308.23	4.8567e-06	4.7898e-06	372.3	157.68	127.08	59.067	4.7666e-06	81.978	144.453	-12.002	-19.766	-125.684	-25.601	40.904	-127.266	-120.423	-67.808	-6.695	-123.091	-119.077	-116.614	-110.901	6.909	-114.328	-8191	255	
1743.483	1	1	0	0	0.3262	0.12194	0.039998	0.14969	0.07308	0.14148	0.16467	0.017623	0.079419	0.19874	0.029182	0.07712	0.04144	0.28752	0.15312	0.20207	-2.5563	-3.2833	-2.8458	-3.35	-3.3104	-2.7917	-3.4667	-3.0646	-3.0438	-3.5	-3.0062	-3.4333	-3.4813	-3.0312	-3.6167	-3.1854	-115.399	-97.382	154.360	169.241	-112.227	37.303	153.495	-2.499	17.129	-67.097	-42.103	-32.354	139.851	-122.241	15.658	175.529	0.001035	0.00069907	0.00025277	806.74	9.3515e-06	1.3607e-05	870.24	315.72	6.907e-06	4.5541e-06	384.23	162.68	130.73	60.462	6.7366e-06	84.555	0.00047943	0.00043605	0.00012172	784.49	4.6775e-06	4.7923e-06	844.88	308.53	4.8036e-06	4.6902e-06	372.68	158.1	126.96	59.196	4.7525e-06	82.393	144.611	-14.013	-8.505	-125.453	-70.452	0.795	-127.223	-120.388	-65.802	20.889	-122.776	-119.279	-116.373	-110.853	-51.873	-114.208	-8191	255	
1743.580	1	1	0	0	0.16009	0.20357	0.22212	0.14812	0.21513	0.13651	0.22221	0.11046	0.23629	0.13423	0.097785	0.06603	0.092565	0.090861	0.096194	0.13699	-2.3583	-3.5438	-2.8896	-3.1813	-3.2979	-2.7729	-3.4833	-3.3688	-2.9229	-3.6437	-3.0792	-3.2958	-3.3	-2.85	-3.4667	-3.2354	-110.118	-53.435	212.136	145.155	65.105	-15.007	64.951	151.916	87.362	-17.195	-55.482	-66.209	-67.787	-125.578	-93.811	2.440	0.0010929	0.00023879	0.00010958	797.45	3.9844e-06	2.5962e-06	865.08	318.45	6.4631e-06	1.0714e-05	385.88	163.51	129.73	60.451	3.5879e-06	84.988	0.00047948	0.0004281	0.00011957	783.61	4.704e-06	4.82e-06	847.05	309.08	4.8685e-06	4.7923e-06	374.36	159.11	126.91	59.34	4.8439e-06	83.197	147.825	41.457	3.610	-124.950	-30.705	23.458	-126.749	-120.263	-24.359	-5.760	-122.809	-118.922	-115.976	-110.819	-47.822	-113.209	-8191	255	
1743.676	1	1	0	0	0.15695	0.2875	0.25905	0.23805	0.22579	0.10569	0.17204	0.13782	0.17296	0.067771	0.10824	0.19672	0.098724	0.032212	0.14581	0.16332	-2.4708	-3.35	-2.9188	-3.3646	-3.3083	-2.9583	-3.4292	-3.175	-2.9188	-3.6271	-3.3146	-3.3458	-3.4792	-2.9208	-3.3375	-3.4688	129.426	8.490	-120.418	-123.115	-7.885	-76.337	153.835	141.994	199.448	-116.509	175.754	150.447	104.158	213.464	-21.057	-57.981	0.001004	0.00061931	0.00010883	799.84	2.2675e-06	1.1216e-05	867.98	314.98	6.933e-06	2.2118e-06	382.67	163.12	129.53	59.838	7.1573e-06	83.904	0.00047624	0.00043659	0.00012118	783.68	4.6268e-06	4.8156e-06	850.59	308.58	4.8527e-06	4.7308e-06	374.62	159.58	126.94	59.206	4.8386e-06	82.658	152.993	-27.176	-51.303	-124.810	-30.907	-11.566	-126.778	-119.888	-31.313	21.605	-122.211	-118.596	-115.550	-110.228	28.214	-113.262	-8191	255	
1743.774	1	1	0	0	0.1377	0.16574	0.10603	0.15888	0.13707	0.16481	0.27951	0.14369	0.083523	0.1185	0.084637	0.20921	0.23385	0.094086	0.28405	0.13997	-2.3438	-3.5646	-2.9375	-3.1917	-3.6146	-2.7833	-3.4562	-3.5458	-2.7062	-3.5958	-3.1292	-3.2021	-3.6417	-2.9583	-3.4083	-3.4958	68.367	97.627	206.501	188.928	29.224	-87.624	144.952	156.233	-50.456	67.711	220.630	217.128	188.377	30.369	-16.707	94.367	0.0009965	0.00074488	0.00019455	793.79	7.799e-06	5.8394e-06	867.34	317.35	4.832e-06	7.877e-06	381.79	160.89	129.32	60.078	1.2167e-06	83.58	0.00046774	0.0004316	0.00011984	781.85	4.749e-06	4.7806e-06	845.69	308.5	4.8355e-06	4.8245e-06	372.34	157.31	126.16	58.809	4.8277e-06	81.582	143.561	-39.529	-37.965	-124.838	-18.154	13.485	-127.238	-120.316	-10.903	17.323	-122.734	-119.025	-116.200	-110.424	-38.400	-113.756	-8191	255	
1743.893	1	1	0	0	0.20522	0.37517	0.2447	0.25194	0.13914	0.18521	0.2264	0.10258	0.086474	0.21314	0.30205	0.16077	0.15418	0.21152	0.19703	0.35843	-2.5729	-3.3688	-3.2958	-2.9604	-3.5625	-3.1625	-3.175	-3.6667	-2.8146	-3.5146	-3.4896	-3.0938	-3.5292	-3.0521	-3.3312	-3.6562	-112.762	57.851	179.678	151.624	29.318	47.784	41.546	131.189	-109.258	0.832	190.495	182.204	156.528	193.193	59.625	176.593	0.00097493	0.00026574	0.0001723	795.78	8.3495e-06	4.1105e-06	851.96	311.24	6.9918e-06	4.7432e-06	371.04	159.1	126.8	59.573	3.5458e-06	82.442	0.00046834	0.00043718	0.00012107	780.45	4.7077e-06	4.7962e-06	838.31	306.96	4.8209e-06	4.8403e-06	369.03	156.96	126.14	58.838	4.8756e-06	81.934	149.084	-103.651	-61.992	-125.160	-36.364	7.124	-126.707	-119.349	-57.088	24.423	-121.315	-117.866	-115.124	-109.316	0.972	-112.423	-8191	255	
1743.989	1	1	0	0	0.24444	0.28213	0.084629	0.13814	0.34364	0.051506	0.17297	0.11526	0.16581	0.066573	0.26114	0.31738	0.16547	0.071105	0.025755	0.17369	-2.4417	-3.3583	-3.0104	-2.9813	-3.6854	-3.0938	-3.1625	-3.5896	-2.9833	-3.3812	-3.2812	-3.0083	-3.6437	-3.0833	-3.0208	-3.5292	-117.040	89.662	-21.717	-132.369	12.365	-84.007	-104.727	187.656	128.917	172.474	205.630	-82.032	-76.512	203.054	-117.498	120.240	0.0010916	0.0004201	0.00016403	794.12	8.5596e-06	7.1532e-06	849.63	311.19	6.1419e-06	5.258e-07	378.65	159.52	127.18	59.288	4.4388e-06	83.886	0.00046718	0.000431	0.00011886	781.44	4.7249e-06	4.7541e-06	840.55	307.24	4.7272e-06	4.8027e-06	372.57	157.6	126.18	58.92	4.8783e-06	82.635	145.073	-47.507	-14.751	-125.027	-63.095	10.844	-126.052	-119.030	-116.904	72.455	-121.702	-118.016	-114.904	-109.499	-44.182	-112.757	-8191	255	
1744.060	1	1	0	0	0.2861	0.14588	0.069592	0.15269	0.23966	0.1486	0.033951	0.22365	0.13001	0.11257	0.10908	0.041164	0.17306	0.38864	0.26198	0.1473	-2.5	-3.2104	-3.3583	-2.8604	-3.5625	-3.1458	-3.0521	-3.5312	-3.0521	-3.4021	-3.6771	-3.0125	-3.4917	-3.3833	-2.8583	-3.6729	-115.418	26.215	167.526	199.965	133.392	171.876	5.381	173.306	114.314	-122.890	162.621	174.144	201.368	-115.432	202.266	-109.190	0.0011585	0.00079727	0.00015657	790.47	6.7146e-06	6.5229e-06	855.05	309.83	8.1412e-06	3.6647e-06	381.59	163.92	130.09	60.93	5.6212e-06	85.238	0.00047379	0.00043428	0.00012106	781.43	4.8153e-06	4.7262e-06	845.13	306.45	4.795e-06	4.7042e-06	374.52	159.84	127.02	59.472	4.8678e-06	83.358	145.226	-31.574	-41.827	-124.341	-45.540	-31.961	-125.983	-119.276	-14.378	-4.212	-121.846	-118.702	-116.237	-110.458	-18.980	-114.208	-8191	255	
1744.181	1	1	0	0	0.1512	0.090277	0.099417	0.1675	0.15288	0.18301	0.25758	0.12745	0.063651	0.13718	0.19507	0.15055	0.013413	0.22527	0.15406	0.27766	-2.6396	-3.1042	-3.5917	-2.8542	-3.4417	-3.1	-3.0146	-3.6979	-3.0375	-3.1292	-3.5542	-2.8583	-3.4437	-3.3167	-2.8812	-3.55	-109.394	26.607	163.811	184.255	189.566	177.457	140.642	196.954	-136.397	217.501	-119.003	126.318	-127.662	-119.593	-35.482	149.952	0.0010474	0.00086438	0.00018497	804.08	3.3154e-06	4.1036e-06	867.75	316.26	4.6974e-06	3.4105e-06	380.71	162.98	129.53	59.438	2.7862e-06	82.178	0.0004665	0.00044642	0.00012182	783.31	4.8183e-06	4.755e-06	844.05	307.86	4.7771e-06	4.8442e-06	371.88	157.99	126.6	58.701	4.8337e-06	81.46	145.609	-61.126	-27.707	-125.540	-14.807	28.864	-127.308	-120.709	-45.812	-4.878	-122.759	-118.720	-116.042	-110.099	-25.237	-112.692	-8191	255	
1744.277	1	1	0	0	0.040694	0.02168	0.070096	0.11628	0.13733	0.28695	0.2801	0.11948	0.16707	0.076145	0.15869	0.21757	0.0087824	0.28257	0.17841	0.14992	-2.7188	-3.0229	-3.2875	-2.8417	-3.2083	-3.3771	-2.9688	-3.4458	-2.9917	-3.1458	-3.5583	-2.9354	-3.3729	-3.4437	-2.8	-3.7729	-2.544	85.316	1.466	84.151	-91.784	-80.035	130.769	186.730	61.008	96.271	68.791	133.900	141.924	128.685	120.806	148.664	0.0010538	0.00035162	0.0002063	779.38	8.8764e-06	9.0497e-06	835.21	308.77	1.0691e-05	5.045e-06	370.91	157.3	125.64	58.092	6.6405e-06	81.657	0.00046368	0.00044162	0.00011556	775.32	4.7676e-06	4.728e-06	834.55	306.05	4.7021e-06	4.7642e-06	368.83	156.66	125.73	58.506	4.6665e-06	81.634	148.499	-74.529	-55.120	-123.544	-42.494	16.818	-125.443	-119.005	-23.828	7.434	-120.719	-117.193	-114.301	-108.648	14.781	-112.002	-8191	255	
1744.373	1	1	0	0	0.049973	0.21966	0.21928	0.044198	0.13099	0.17088	0.16304	0.13484	0.1985	0.2912	0.07105	0.082138	0.083557	0.0077821	0.03256	0.11113	-2.8292	-2.8604	-3.4979	-2.9917	-3.2521	-3.275	-3.1208	-3.55	-3.3021	-3.0542	-3.5417	-3.0062	-3.3396	-3.3563	-2.8917	-3.6437	119.112	12.347	-131.460	107.744	104.579	163.688	-131.061	153.293	155.955	182.111	-107.369	-96.613	128.686	110.840	16.273	42.763	0.0011341	0.00060721	0.00017897	777.05	3.7291e-06	6.2205e-06	841.19	309.83	4.3265e-06	4.0795e-06	376.47	159.96	126.29	58.97	9.2121e-06	83.156	0.00045302	0.00043529	0.000118	776.94	4.7936e-06	4.6875e-06	839.08	306.7	4.6133e-06	4.7855e-06	372.05	158	126.29	58.921	4.7419e-06	82.499	150.521	-34.187	-26.744	-123.320	-92.542	-11.581	-125.449	-119.194	-45.631	44.324	-121.356	-117.477	-114.875	-108.755	24.202	-112.819	-8191	255	
1744.494	1	1	0	0	0.14097	0.31585	0.23521	0.37254	0.047212	0.27295	0.11817	0.04711	0.14844	0.20226	0.28796	0.036211	0.25277	0.1355	0.17872	0.16895	-2.8542	-2.7854	-3.6333	-3.1979	-3.0771	-3.4208	-3.0792	-3.4813	-3.3958	-2.9771	-3.6625	-3.0833	-3.1312	-3.7938	-2.925	-3.3479	136.527	157.086	-76.124	209.979	130.186	-134.623	162.204	-70.995	52.438	-61.454	-133.994	-26.146	153.335	-115.765	110.404	146.015	0.00095211	0.00034296	1.8393e-05	785.97	3.9003e-06	7.0153e-06	850.31	306.57	4.7147e-06	4.4663e-06	376.26	159.29	126.47	59.163	6.8856e-06	83.202	0.00045988	0.00043081	0.0001195	780.8	4.7734e-06	4.6304e-06	843.57	306.06	4.7264e-06	4.7538e-06	373.69	158.66	126	59.025	4.6828e-06	82.691	146.270	-12.029	38.916	-124.267	-63.832	62.602	-125.603	-118.131	-24.462	-5.232	-121.013	-117.239	-114.605	-109.243	-60.567	-112.175	-8191	255	
1744.588	1	1	0	0	0.13106	0.23664	0.29057	0.29963	0.076086	0.16916	0.24385	0.10706	0.060338	0.035624	0.067195	0.23264	0.13181	0.19791	0.19394	0.087618	-2.9229	-2.7021	-3.3208	-3.2687	-3.1417	-3.4771	-2.8458	-3.4688	-3.2313	-2.6917	-3.675	-2.9708	-3.0708	-3.5812	-2.7167	-3.375	135.524	202.283	-13.225	165.519	13.033	64.007	142.972	44.966	-83.422	95.878	-85.024	172.101	172.089	184.016	-76.469	113.813	0.00092891	0.00072301	1.4934e-05	785.38	1.0111e-05	7.112e-06	836.34	304.56	3.9746e-06	9.1789e-06	372.53	158.68	126.29	58.298	3.7554e-06	81.343	0.00045505	0.00042702	0.00011963	779.55	4.7314e-06	4.6261e-06	837.47	304.71	4.6501e-06	4.7317e-06	370.59	156.78	125.44	58.305	4.7297e-06	81.073	146.776	-72.193	61.230	-123.543	-65.395	10.823	-124.939	-118.297	-76.581	0.964	-121.169	-117.760	-114.957	-109.243	24.417	-112.401	-8191	255	
1744.660	1	1	0	0	0.29511	0.049117	0.10762	0.05637	0.23912	0.12239	0.16416	0.23425	0.18688	0.21973	0.19503	0.03207	0.16578	0.15929	0.1124	0.43309	-3.1	-2.8	-3.35	-3.3917	-2.875	-3.4437	-3.0375	-3.1917	-3.2917	-2.8875	-3.5479	-3.4042	-3.0458	-3.4458	-2.9979	-3.1646	200.678	-43.946	144.520	180.276	32.818	51.700	57.594	156.574	-128.790	81.528	154.943	29.429	76.455	-110.864	-2.697	124.607	0.0011483	0.00038368	0.00025257	774.09	9.0232e-06	2.8179e-06	832.69	305	4.1989e-06	6.1421e-06	372.12	157.48	125.6	58.374	6.0939e-06	82.254	0.00045596	0.00043386	0.00012137	774.53	4.6324e-06	4.6688e-06	833.95	304.68	4.6853e-06	4.6703e-06	369.91	156.87	125.41	58.526	4.6492e-06	81.548	143.606	-64.153	-72.732	-123.220	27.569	-57.846	-125.026	-118.348	-35.056	18.289	-120.990	-117.373	-114.473	-109.066	23.504	-112.504	-8191	255	
1744.781	1	1	0	0	0.11346	0.21192	0.14344	0.23764	0.2548	0.10468	0.29869	0.20939	0.16686	0.13442	0.091866	0.15518	0.24443	0.036232	0.19338	0.11737	-3.0458	-2.8021	-3.2271	-3.4667	-2.7771	-3.4833	-2.9813	-3.225	-3.4083	-2.825	-3.3542	-3.4542	-2.8187	-3.5563	-2.9667	-2.9271	-75.895	120.169	-58.843	134.954	155.804	-65.633	177.382	209.977	-76.278	78.425	134.938	105.395	163.266	-76.423	-25.527	96.544	0.00091711	0.00066789	7.6066e-05	791.39	7.9847e-06	5.8508e-06	847.08	310.03	6.0062e-06	5.6168e-06	374.99	159.7	126.17	59.074	1.0995e-06	84.043	0.00045003	0.00042666	0.00011941	778.41	4.723e-06	4.7451e-06	840.83	306.38	4.6354e-06	4.7239e-06	371.85	158.03	125.85	58.735	4.6568e-06	82.764	143.831	-15.610	-63.697	-124.246	-16.559	36.041	-125.747	-118.999	-33.569	-15.672	-121.919	-117.596	-115.078	-109.714	-32.741	-113.399	-8191	255	
1744.877	1	1	0	0	0.17802	0.13986	0.11074	0.18992	0.10762	0.10127	0.086391	0.15002	0.12506	0.090911	0.55037	0.12893	0.17349	0.10256	0.15187	0.11372	-3.3042	-2.9917	-3.0187	-3.4708	-2.8125	-3.5271	-3.2083	-3.0146	-3.7354	-2.95	-3.2938	-3.525	-3.1167	-3.4021	-3.1833	-3.0292	29.588	30.589	140.571	-114.709	-40.928	-120.591	134.857	214.677	195.008	-12.780	193.541	-12.084	126.244	148.291	87.498	-96.970	0.00096489	0.00055659	0.00013149	779.37	2.5141e-06	6.7005e-06	846.91	306.73	3.7657e-06	3.6771e-06	372.86	159.82	126.11	58.607	2.3488e-06	83.933	0.00045784	0.0004272	0.00012345	778.15	4.715e-06	4.7117e-06	842.31	306.05	4.6529e-06	4.7047e-06	372.32	159.15	125.95	59.007	4.6525e-06	83.348	141.117	-28.691	-3.745	-123.588	129.900	2.588	-124.755	-118.398	-17.443	-11.487	-120.256	-116.738	-114.249	-108.965	-130.297	-112.607	-8191	255	
1744.973	1	1	0	0	0.18526	0.16686	0.1248	0.07489	0.28576	0.22232	0.28879	0.23557	0.024974	0.18311	0.21439	0.074894	0.23851	0.27285	0.24278	0.077164	-3.2062	-3.0312	-3.0083	-3.5104	-2.9208	-3.3479	-3.4979	-2.85	-3.7146	-2.8542	-2.9125	-3.6417	-3.05	-3.3792	-3.4167	-2.9479	130.370	206.377	-82.870	145.127	49.107	57.846	182.339	169.353	-17.605	161.051	201.437	-133.047	194.963	-122.434	218.711	-101.145	0.0012337	0.00073536	9.1689e-05	793.16	9.9319e-06	3.4629e-06	848.11	308.83	5.6777e-06	9.0949e-06	373.4	159.89	126.74	58.898	5.6764e-06	81.978	0.00046884	0.00042401	0.00012075	780.47	4.6281e-06	4.7141e-06	840.24	305.9	4.6894e-06	4.712e-06	370.84	157.57	125.47	58.623	4.6542e-06	81.457	148.055	-89.247	16.932	-124.405	-36.507	37.777	-125.610	-119.149	12.539	37.030	-121.667	-117.871	-114.962	-109.168	25.450	-112.821	-8191	255	
1745.069	1	1	0	0	0.15293	0.20112	0.34457	0.23692	0.15652	0.12139	0.098249	0.058355	0.18913	0.068111	0.076973	0.048806	0.21093	0.1808	0.1219	0.19355	-3.1729	-3.1188	-2.9813	-3.4708	-3.0229	-3.2083	-3.4708	-2.9917	-3.6271	-3.0646	-3.1583	-3.5083	-2.9437	-3.2583	-3.6146	-3.0542	132.822	119.927	-49.374	217.476	154.939	219.144	69.930	-135.515	167.899	73.008	209.486	-55.200	186.503	137.449	-62.210	13.433	0.001079	0.00043566	0.00014128	783.8	7.3346e-06	8.1734e-06	838.88	307.01	2.5637e-06	3.014e-06	372.88	159.74	126.11	58.637	3.5552e-06	82.154	0.00045837	0.00042598	0.00012071	775.91	4.6533e-06	4.7454e-06	834.68	304.55	4.7241e-06	4.6472e-06	370.26	157.44	125.5	58.548	4.579e-06	81.858	148.172	-21.766	16.179	-124.005	4.065	34.620	-125.646	-118.851	-17.792	10.599	-121.638	-117.698	-114.840	-109.073	-9.755	-112.494	-8191	255	
1745.190	1	1	0	0	0.0015524	0.23088	0.17906	0.1053	0.15146	0.15751	0.33921	0.14243	0.10324	0.24287	0.31675	0.28443	0.16306	0.072532	0.20672	0.23948	-2.9604	-3.1437	-2.7375	-3.5312	-2.8375	-3.3167	-3.5687	-3.0021	-3.3542	-3.2729	-3.0292	-3.5771	-2.9771	-3.3396	-3.3937	-3.0479	180.000	-36.348	189.530	119.552	19.648	-94.677	192.205	207.169	198.365	71.196	170.155	172.051	110.338	173.756	-62.219	162.129	0.00098902	0.00083608	0.00014699	783.75	5.4921e-06	7.265e-06	847.52	307.6	6.4486e-06	2.9457e-06	372.44	158.11	125.6	58.552	4.5323e-06	82.549	0.0004599	0.00042183	0.00011965	778.19	4.6346e-06	4.76e-06	838.81	305.96	4.6993e-06	4.5672e-06	371.12	158.04	125.3	58.644	4.6416e-06	82.356	143.040	-10.058	-41.129	-123.791	-24.907	-5.975	-125.460	-118.459	-19.653	-18.397	-120.863	-116.728	-114.493	-108.684	50.358	-112.006	-8191	255	
1745.286	1	1	0	0	0.14025	0.158	0.055098	0.2239	0.25822	0.29697	0.24481	0.047409	0.12391	0.15267	0.29568	0.16771	0.32194	0.15903	0.24753	0.22026	-2.8125	-3.2625	-2.8479	-3.6375	-2.8563	-3.0771	-3.6917	-3.15	-3.2333	-3.2271	-3.125	-3.5312	-3.2292	-3.0354	-3.5354	-2.975	178.354	152.988	144.074	203.299	-11.755	-36.287	185.411	20.122	-33.318	118.084	152.360	179.158	-112.847	-69.656	52.458	152.394	0.0012466	0.00026658	0.00010967	781.68	6.8003e-06	5.3097e-06	847.02	306.34	5.6255e-06	6.9728e-06	377.02	160.45	127.2	58.833	3.6558e-06	84.204	0.00046404	0.00042423	0.0001208	776.88	4.5598e-06	4.847e-06	841.77	305.14	4.6003e-06	4.5937e-06	373.45	159.06	125.92	58.965	4.6056e-06	83.173	149.170	-68.904	-30.439	-123.820	-5.527	43.342	-125.285	-118.591	-37.295	-5.280	-121.500	-117.768	-114.918	-109.202	-26.527	-113.146	-8191	255	
1745.358	1	1	0	0	0.10484	0.10257	0.297	0.12713	0.1185	0.10031	0.034479	0.16393	0.060838	0.20848	0.16847	0.18701	0.037049	0.17534	0.3931	0.37725	-2.8833	-3.35	-2.7333	-3.6708	-3.0604	-3.0417	-3.5375	-3.2292	-3.0854	-3.425	-2.7562	-3.5292	-3.2417	-3.0875	-3.5979	-3.2	115.810	175.545	22.348	189.154	179.433	222.232	90.339	213.698	124.213	84.115	78.554	158.345	-10.457	200.709	34.672	184.326	0.0010429	0.00075828	0.00027154	795.37	6.4265e-06	2.0269e-06	851.75	308.73	4.1211e-06	3.3614e-06	376.56	159.32	126.2	58.309	7.1551e-06	82.656	0.00046152	0.00041104	0.00011954	783.82	4.5855e-06	4.6093e-06	843.27	305.65	4.7108e-06	4.5729e-06	371.66	157.36	125.04	58.278	4.577e-06	81.501	143.625	-31.779	-34.117	-124.796	-27.058	-96.950	-125.650	-119.073	-55.772	63.213	-121.393	-117.572	-114.958	-109.464	-3.434	-112.788	-8191	255	
1745.454	1	1	0	0	0.052975	0.10131	0.36655	0.31083	0.20872	0.18149	0.15173	0.031399	0.22195	0.059212	0.27664	0.10482	0.14882	0.20809	0.16933	0.22927	-2.9062	-3.3979	-2.7979	-3.2083	-3.1646	-3.0208	-3.4188	-3.1708	-3.1688	-3.4917	-2.6437	-3.4667	-3.3021	-3.025	-3.5292	-3.1312	-70.113	-91.943	207.283	206.408	46.927	121.521	204.605	194.692	-73.017	-97.789	165.888	113.979	112.662	106.258	149.392	-127.262	0.0010253	0.00082835	0.00018316	788.03	2.9265e-06	5.5002e-06	849.76	308.09	5.9999e-06	3.491e-06	376.13	159.37	125.85	58.789	7.7312e-06	82.691	0.00046447	0.00041686	0.00011866	777.78	4.5563e-06	4.6982e-06	839.91	305.33	4.6832e-06	4.5982e-06	371.52	157.61	125.27	58.497	4.5908e-06	81.816	139.095	-18.504	-41.859	-124.472	-4.572	-6.311	-126.187	-118.894	-35.594	10.591	-121.586	-117.528	-114.617	-109.223	-7.470	-112.633	-8191	255	
1745.574	1	1	0	0	0.21702	0.33799	0.077367	0.23402	0.22027	0.16497	0.10736	0.20774	0.10874	0.19569	0.20018	0.058797	0.22952	0.10352	0.13227	0.23912	-2.7833	-3.4437	-2.7375	-3.25	-3.1542	-3.0521	-3.4625	-3.1063	-2.9167	-3.6146	-2.9729	-3.3604	-3.5229	-2.7208	-3.3729	-3.2708	218.046	168.816	33.305	-91.441	-34.973	87.021	-136.658	149.286	75.491	-54.912	86.564	-22.409	186.242	63.407	-126.642	195.937	0.0010802	0.00062296	0.00030737	788.74	8.141e-06	7.2629e-06	850.66	312.43	6.1653e-06	5.4191e-06	379.49	161.24	127.6	59.088	4.06e-06	83.7	0.00046337	0.00041927	0.00011778	778.65	4.5071e-06	4.6789e-06	842.29	307.04	4.7053e-06	4.6168e-06	373.06	158.49	125.9	58.736	4.7615e-06	82.548	146.161	-30.782	-4.993	-124.391	-64.679	50.267	-125.821	-119.318	-7.288	10.684	-121.920	-118.336	-115.309	-109.935	-56.901	-112.929	-8191	255	
1745.669	1	1	0	0	0.21214	0.12783	0.12799	0.1321	0.065512	0.11513	0.1764	0.047432	0.053406	0.29055	0.18409	0.19778	0.073831	0.11512	0.2683	0.29457	-2.6583	-3.4688	-2.8312	-3.2729	-3.1521	-2.8792	-3.6271	-3.3792	-2.9333	-3.3333	-3.1125	-3.2229	-3.5896	-3.1333	-3.5917	-3.3958	-47.570	29.886	-9.262	62.374	-26.061	-26.541	-136.214	127.592	-37.750	47.801	161.131	144.465	221.290	-59.883	-39.510	136.970	0.00099891	0.00031362	0.00011457	782.79	9.8664e-06	7.1263e-06	858.09	312.07	5.373e-06	3.8358e-06	379.85	161.61	126.93	59.125	4.0923e-06	84.526	0.00045579	0.00042157	0.00011762	777.98	4.5068e-06	4.6677e-06	846.07	306.65	4.6821e-06	4.6016e-06	373.6	159.76	125.93	58.832	4.7594e-06	83.676	148.390	-46.523	8.641	-124.185	-7.566	11.468	-126.045	-119.401	-31.632	26.997	-121.500	-117.921	-115.051	-109.447	-13.652	-112.890	-8191	255	
1745.765	1	1	0	0	0.11276	0.15593	0.11275	0.041979	0.28979	0.1764	0.1309	0.037803	0.097063	0.22216	0.12838	0.19955	0.14527	0.31573	0.14766	0.16145	-2.4417	-3.3375	-3.175	-3.1479	-3.5771	-2.8458	-3.3042	-3.35	-2.825	-3.5333	-3.0479	-3.2292	-3.5687	-2.7542	-3.4146	-3.3292	-110.386	84.211	36.353	117.338	-91.743	204.954	72.049	85.704	62.371	-23.596	74.363	-117.230	115.820	185.077	-6.926	121.863	0.0010875	0.00067711	0.00011388	792.9	8.4593e-06	6.4578e-06	857.89	310.58	6.6494e-06	6.572e-06	376.56	161.09	127.15	58.518	6.0326e-06	82.787	0.00046315	0.00042443	0.0001153	779.31	4.6022e-06	4.6365e-06	846.64	306.04	4.6789e-06	4.7009e-06	372.45	158.13	125.42	58.286	4.7226e-06	81.715	144.467	-62.667	-64.833	-124.384	-24.951	30.270	-126.289	-119.220	-24.467	57.518	-121.741	-118.159	-115.280	-109.627	-45.397	-112.931	-8191	255	
1745.861	1	1	0	0	0.057672	0.11595	0.086386	0.29368	0.079665	0.2911	0.18124	0.27299	0.080532	0.069742	0.21314	0.35521	0.19646	0.1739	0.11404	0.30866	-2.4396	-3.3625	-2.9125	-3.1604	-3.5438	-2.9688	-3.3667	-3.5125	-2.8333	-3.4604	-3.2479	-3.0396	-3.5354	-3.0708	-3.125	-3.3958	-136.980	25.239	118.010	-99.333	198.432	-29.609	201.252	159.833	144.828	152.068	208.438	-105.319	159.997	218.141	-124.683	175.982	0.0010317	0.00063913	0.00014483	794.22	6.8117e-06	4.6141e-06	854.7	312.08	4.3872e-06	7.6821e-06	376.13	159.18	126	58.883	7.3891e-06	83.364	0.00046593	0.00042542	0.00011821	777.74	4.5166e-06	4.6126e-06	841.06	306.25	4.7136e-06	4.6434e-06	371.43	157.59	125.21	58.437	4.6666e-06	81.964	143.187	-25.884	-60.976	-124.744	-24.781	-12.147	-126.461	-119.675	-60.465	-4.952	-121.500	-117.913	-114.965	-109.701	5.671	-113.483	-8191	255	
1745.957	1	1	0	0	0.096232	0.27983	0.099248	0.19564	0.25547	0.065504	0.20644	0.11114	0.059653	0.065496	0.28615	0.12937	0.1697	0.1332	0.091148	0.3049	-2.4542	-3.4833	-3.0875	-3.0042	-3.3688	-2.8063	-3.1604	-3.4854	-2.9521	-3.2875	-3.3604	-2.9708	-3.3875	-3.1271	-3.0292	-3.5104	-114.747	-127.214	-108.979	217.876	-46.491	-96.898	165.384	112.077	-45.656	-119.646	154.013	176.938	-103.583	104.001	-11.706	163.891	0.00091983	0.00062809	0.00019609	793.01	5.9967e-06	5.4109e-06	859.1	310.63	2.3029e-06	6.1341e-06	378.96	160.89	127.5	58.88	5.2839e-06	83.537	0.00045788	0.00042624	0.00011646	779.13	4.667e-06	4.6331e-06	844.27	305.92	4.6591e-06	4.65e-06	371.88	158.26	125.49	58.427	4.6625e-06	82.538	144.823	-57.988	-39.488	-124.958	-60.965	-2.870	-126.571	-119.537	145.088	-8.842	-122.044	-117.969	-115.328	-109.668	-12.589	-113.255	-8191	255	
1746.053	1	1	0	0	0.27145	0.26866	0.093949	0.11928	0.26647	0.091313	0.22971	0.095327	0.24008	0.012035	0.16712	0.049635	0.041735	0.066444	0.084618	0.040356	-2.4917	-3.2521	-3.2021	-2.8271	-3.4938	-2.8667	-3.1271	-3.5417	-2.95	-3.3271	-3.5646	-2.9271	-3.7375	-3.3708	-2.8417	-3.7438	103.744	95.474	122.308	126.076	-44.812	186.814	70.372	4.294	-109.783	-115.744	121.292	147.471	-59.522	84.500	-66.246	143.527	0.0011573	0.0010532	0.000215	788.52	2.1507e-06	8.9647e-06	854	309.7	7.4466e-06	8.9559e-07	379.65	161.42	126.33	59.173	4.0792e-06	84.541	0.00045403	0.00043153	0.0001167	778.9	4.6311e-06	4.5803e-06	844.97	305.81	4.6369e-06	4.7033e-06	374.02	159.26	125.44	58.663	4.6804e-06	83.561	140.647	-35.432	-27.915	-124.559	15.216	23.467	-125.950	-118.980	-62.855	-73.393	-121.969	-118.096	-115.317	-109.772	23.501	-112.705	-8191	255	
1746.174	1	1	0	0	0.28661	0.098148	0.12372	0.29171	0.11204	0.13749	0.42792	0.046172	0.069727	0.18344	0.18349	0.22996	0.19972	0.28094	0.24556	0.22832	-2.3937	-3.1396	-3.5958	-2.9292	-3.5292	-3.0187	-3.1813	-3.5771	-3.025	-3.1271	-3.4854	-2.8646	-3.5021	-3.5312	-3.0187	-3.6146	-99.950	153.896	116.980	193.224	89.471	-124.387	196.770	-40.969	207.260	10.114	-97.374	95.488	202.302	-129.721	-28.107	196.753	0.0010517	0.00084358	0.00026789	790.11	3.8031e-06	8.5323e-06	860.6	306.85	6.5285e-06	6.8879e-06	373.56	158.93	124.83	58.207	7.2622e-06	81.844	0.00045469	0.00042669	0.00011519	778.44	4.6269e-06	4.5503e-06	846.99	304.61	4.6883e-06	4.7134e-06	371.6	157.3	124.4	57.951	4.6914e-06	81.174	147.716	17.733	-68.048	-124.198	-23.318	-4.823	-125.952	-118.656	-40.129	-25.486	-121.237	-117.765	-114.987	-109.319	32.407	-112.580	-8191	255	
1746.270	1	1	0	0	0.10627	0.082299	0.26022	0.11449	0.1692	0.077807	0.33107	0.10339	0.17577	0.1949	0.065011	0.17759	0.19201	0.14224	0.16345	0.28231	-2.6292	-3.0792	-3.375	-2.9083	-3.3438	-3.3083	-2.85	-3.7396	-2.9375	-2.9292	-3.5563	-2.9688	-3.2313	-3.3167	-2.675	-3.4958	74.526	-110.678	-23.188	131.716	29.539	-67.182	154.286	-102.513	160.971	-132.674	147.303	87.053	13.465	184.709	-87.755	172.941	0.0010356	0.00047078	0.00014315	779.67	2.2588e-06	3.9364e-06	841.77	304.31	4.6645e-06	6.8344e-06	371.4	158.63	125.18	58.344	5.3674e-06	82.745	0.00045305	0.00042954	0.00011531	773.31	4.7003e-06	4.5437e-06	836.69	303.08	4.5529e-06	4.6897e-06	369.76	156.98	124.35	58.065	4.7021e-06	81.62	146.621	-72.058	-6.775	-123.766	-99.901	18.535	-125.477	-118.643	-118.891	-1.070	-121.069	-117.437	-115.071	-109.338	-27.151	-112.999	-8191	255	
1746.366	1	1	0	0	0.11536	0.3993	0.16496	0.23282	0.16764	0.091545	0.26339	0.15445	0.058669	0.12516	0.19771	0.31648	0.16551	0.09297	0.23456	0.16339	-2.5771	-2.8667	-3.4792	-3.0687	-3.1542	-3.5917	-2.7979	-3.5292	-3.0604	-2.8479	-3.5896	-2.7896	-3.3	-3.5062	-2.7083	-3.5458	176.850	143.979	3.474	201.918	15.372	-101.380	189.905	204.936	-103.403	123.299	100.395	160.022	-136.447	106.151	100.642	181.701	0.0010461	0.00066812	0.00018654	780.87	7.4933e-06	8.4904e-06	848.54	305.7	7.9252e-06	4.6353e-06	375.59	159.76	125.53	58.426	1.6914e-06	82.917	0.00045084	0.00042702	0.00011736	773.75	4.6129e-06	4.471e-06	840.86	303.42	4.6163e-06	4.6515e-06	372.11	157.81	124.77	58.308	4.7247e-06	82.354	142.955	-38.967	-13.366	-124.147	-80.365	-0.917	-125.605	-118.609	-48.458	41.836	-121.549	-117.676	-114.308	-108.927	33.635	-112.929	-8191	255	
1746.462	1	1	0	0	0.079566	0.1283	0.19806	0.10647	0.20893	0.24763	0.29108	0.16846	0.14049	0.052619	0.029149	0.016558	0.38051	0.26994	0.016039	0.22748	-2.6625	-2.8771	-3.4188	-2.9417	-3.1104	-3.2417	-2.9271	-3.4292	-3.1125	-3.0292	-3.6375	-2.9854	-3.0667	-3.6542	-2.7313	-3.35	59.484	183.894	75.546	100.611	217.717	105.618	145.531	-134.977	80.565	25.197	28.847	125.831	108.414	198.653	13.601	153.197	0.001063	0.00043312	9.9371e-05	792.97	7.1798e-06	8.8516e-06	861.64	310.38	9.5627e-06	7.0727e-06	379.98	162.09	126.53	59.275	1.4641e-06	84.543	0.00045219	0.00042967	0.00011863	780.02	4.6192e-06	4.5893e-06	848.53	305.83	4.5812e-06	4.7186e-06	375.22	159.47	125.08	58.62	4.626e-06	83.376	140.665	-66.595	-56.442	-124.983	-35.517	17.510	-126.208	-119.418	-29.451	-18.619	-121.937	-117.983	-115.487	-109.866	7.661	-113.382	-8191	255	
1746.581	1	1	0	0	0.050973	0.0572	0.097223	0.058162	0.27192	0.032965	0.1062	0.058516	0.16959	0.057771	0.17667	0.17589	0.2068	0.2382	0.18482	0.10395	-2.9854	-2.7729	-3.4813	-3.0042	-2.8312	-3.4021	-3.0354	-3.2104	-3.2604	-2.7875	-3.425	-3.1646	-2.8292	-3.7458	-2.7542	-3.2188	107.397	-36.410	111.440	118.099	38.720	-16.420	70.156	-58.258	69.154	116.231	140.690	130.531	70.000	140.914	91.956	30.649	0.0010946	0.00047674	0.00013041	792.46	2.6541e-06	5.7244e-06	866.44	310.18	7.6014e-06	6.6557e-06	378.77	160.86	125.86	58.672	6.0843e-06	82.276	0.00044857	0.00043268	0.00011989	779.58	4.679e-06	4.5701e-06	851.58	305.81	4.5233e-06	4.7272e-06	374.23	157.98	124.37	58.121	4.579e-06	81.531	138.664	-54.331	-68.527	-124.758	3.054	29.949	-126.181	-119.517	-59.570	48.601	-121.710	-117.690	-115.465	-109.799	25.600	-112.977	-8191	255	
1746.653	1	1	0	0	0.43969	0.19877	0.30853	0.066058	0.16148	0.077839	0.18611	0.12578	0.15137	0.069966	0.12737	0.16061	0.04661	0.28456	0.17876	0.2249	-2.7875	-2.8563	-3.2792	-3.0729	-3.1396	-3.4062	-2.8896	-3.1708	-3.4979	-2.6771	-3.5667	-3.2042	-3.025	-3.5417	-2.8146	-3.1396	-56.428	-136.201	78.282	-54.402	90.321	-106.687	146.271	70.995	-66.179	44.766	214.361	-97.620	-22.238	151.233	-91.545	181.509	0.0011455	0.00045354	0.00027277	787.93	2.8454e-06	3.347e-06	848.03	307.89	4.6164e-06	9.1706e-06	375.97	159.77	126.19	58.927	1.2776e-05	82.697	0.00044446	0.00042919	0.00011716	775.15	4.5947e-06	4.6225e-06	841.67	304.41	4.6479e-06	4.6927e-06	371.5	157.43	124.48	58.192	4.5656e-06	81.596	144.417	-64.853	-44.373	-124.518	-61.887	18.408	-126.216	-118.894	-21.657	34.271	-121.457	-117.458	-115.326	-110.078	17.761	-113.720	-8191	255	
1746.749	1	1	0	0	0.095461	0.039468	0.10584	0.092127	0.08663	0.044698	0.27316	0.010345	0.21877	0.20167	0.05805	0.21918	0.25255	0.096222	0.25112	0.17813	-3.1729	-2.7917	-3.2708	-3.5042	-2.875	-3.4375	-2.9208	-2.9854	-3.4979	-2.8375	-3.2687	-3.4083	-2.8125	-3.5521	-2.9333	-3.0792	11.162	66.788	31.266	-44.122	-0.240	5.988	11.292	218.298	194.862	92.921	126.771	194.104	-94.341	217.240	163.423	93.192	0.0010361	0.0004906	0.00016739	788.52	5.4093e-06	3.2535e-06	856.32	306.43	6.7998e-06	5.9573e-06	377.63	159.88	126.19	58.758	2.558e-06	83.876	0.00044797	0.00041695	0.00011747	777.49	4.609e-06	4.5971e-06	845.32	303.97	4.5667e-06	4.628e-06	373.26	157.95	124.84	58.228	4.5131e-06	82.349	145.293	-127.505	-35.172	-124.435	-37.968	-37.792	-125.739	-119.253	-55.843	-2.281	-121.397	-117.743	-115.229	-110.053	-35.211	-113.438	-8191	255	
1746.845	1	1	0	0	0.24542	0.15802	0.18825	0.20138	0.2132	0.21287	0.28888	0.16895	0.16408	0.3088	0.042599	0.17808	0.25182	0.061578	0.18236	0.21737	-2.9313	-2.8646	-3.2188	-3.3458	-2.6125	-3.5021	-3.1583	-3.0604	-3.3917	-2.7979	-3.2167	-3.3375	-2.8271	-3.3542	-3.0229	-2.8208	-63.065	79.614	51.065	-91.045	103.027	216.130	189.910	208.899	114.612	-92.755	164.381	-113.075	176.672	-67.994	180.447	144.582	0.0010075	0.00074197	0.00021914	790.42	6.0934e-06	1.1373e-05	869.26	310.76	6.0502e-06	3.439e-06	382.5	163.15	127.04	59.058	5.4475e-07	84.493	0.00045993	0.00042567	0.00011943	778.87	4.6946e-06	4.6437e-06	850.05	304.82	4.6139e-06	4.6117e-06	375.53	159.61	125.25	58.453	4.5854e-06	82.924	138.923	-66.065	-31.194	-124.376	-44.246	28.242	-126.398	-119.622	-51.022	21.203	-122.393	-118.474	-115.468	-110.134	51.123	-113.840	-8191	255	
1746.966	1	1	0	0	0.049558	0.25989	0.31179	0.1787	0.058322	0.10114	0.18172	0.10944	0.1124	0.18012	0.23136	0.15187	0.078751	0.079722	0.20476	0.091234	-3.0708	-2.6188	-3.05	-3.4333	-2.6479	-3.3125	-3.0396	-2.9292	-3.3083	-3.0208	-3.075	-3.7021	-2.8	-3.4229	-3.3042	-2.975	154.239	-22.005	16.630	91.773	46.715	-124.369	181.898	204.328	85.960	125.205	153.620	-23.533	20.761	-40.999	5.584	-136.366	0.0010944	0.00076887	0.00020639	802.66	5.3987e-06	7.5184e-06	858.67	308.98	5.489e-06	7.7794e-06	377.54	160.03	125.17	57.978	7.7046e-07	82.524	0.00046159	0.0004181	0.00011965	782.85	4.7445e-06	4.6135e-06	850.81	305.4	4.6346e-06	4.5937e-06	373.99	157.94	124.1	57.679	4.56e-06	81.253	143.298	-70.126	-60.855	-125.110	-64.004	-24.681	-126.063	-119.048	-20.613	9.547	-121.705	-117.666	-114.792	-109.273	-65.822	-113.509	-8191	255	
1747.062	1	1	0	0	0.068639	0.26496	0.15901	0.24159	0.059638	0.18395	0.063232	0.021494	0.19694	0.16171	0.19975	0.22452	0.18617	0.14562	0.14743	0.22343	-2.9625	-2.7875	-3.0125	-3.4313	-2.9729	-3.0792	-3.2438	-3.05	-3.3688	-2.8375	-3.1125	-3.4146	-2.8375	-3.4667	-3.4896	-2.8063	-48.077	208.944	-17.242	49.289	58.881	37.104	160.709	-49.922	-57.047	-42.287	-103.505	130.748	-122.117	161.110	-60.039	96.935	0.0010406	0.00022348	0.000198	787.59	5.7667e-06	2.6919e-06	859.04	310.48	4.8316e-06	4.4043e-06	378.99	161.3	128.26	59.29	9.0152e-06	83.521	0.0004583	0.00042444	0.00011795	776.93	4.6325e-06	4.7109e-06	841.29	305.23	4.6964e-06	4.5378e-06	371.86	157.38	124.82	58.062	4.6568e-06	81.412	148.427	-55.896	-4.018	-124.578	-11.395	-34.691	-126.594	-119.677	19.461	7.885	-122.694	-118.761	-116.131	-110.941	17.687	-114.106	-8191	255	
1747.158	1	1	0	0	0.23894	0.20835	0.099145	0.23516	0.074713	0.14425	0.146	0.27995	0.38727	0.14515	0.17383	0.26158	0.16875	0.034861	0.17562	0.24562	-3.0271	-3.3354	-2.9521	-3.5542	-2.6417	-3.2229	-3.5771	-2.9292	-3.6375	-2.9875	-3.1042	-3.6625	-2.8479	-3.2333	-3.6292	-2.9062	146.666	-55.750	110.437	178.561	144.101	-67.257	41.529	94.340	108.351	77.903	-72.086	79.150	-51.955	26.576	-131.395	152.120	0.00094812	0.00030858	0.00024734	794.82	5.2732e-06	2.6855e-06	859.52	309.5	3.8512e-06	4.8224e-06	378.91	160.05	125.01	58.297	5.8342e-06	82.051	0.00046025	0.00041626	0.00012023	777.75	4.6078e-06	4.7314e-06	844.33	304	4.7275e-06	4.5361e-06	372.88	157.73	123.85	57.848	4.6028e-06	81.418	147.559	-63.233	-24.005	-125.064	-29.378	26.758	-126.590	-119.862	-54.415	-0.826	-122.132	-118.028	-115.130	-109.400	22.299	-112.666	-8191	255	
1747.254	1	1	0	0	0.13819	0.18314	0.1444	0.24288	0.25168	0.17158	0.17272	0.15445	0.084803	0.10853	0.10782	0.12898	0.20548	0.2243	0.17813	0.12001	-3.1833	-2.9667	-2.9208	-3.8042	-2.8708	-2.8042	-3.6229	-2.8167	-3.225	-3.3	-3.0542	-3.4208	-3.1042	-3.2062	-3.3563	-3.0458	68.529	172.993	141.675	170.422	13.971	-64.025	132.256	126.015	-129.458	-112.501	81.087	89.958	-121.065	161.154	219.936	-123.656	0.00099778	0.00050786	0.00012969	781.82	7.2476e-06	3.2686e-06	856.32	307.18	6.4064e-06	3.2488e-06	380.11	161.36	125.56	58.655	6.7975e-06	82.754	0.00045758	0.00041013	0.00011883	776.67	4.5205e-06	4.5582e-06	848.16	304.25	4.5788e-06	4.5131e-06	374.23	158.85	124.32	58.199	4.5958e-06	82.406	143.008	-27.026	4.044	-123.731	18.488	49.102	-125.613	-118.944	-4.221	-24.148	-121.871	-118.167	-115.481	-109.585	12.850	-112.366	-8191	255	
1747.350	1	1	0	0	0.045013	0.08997	0.069822	0.2578	0.057307	0.074862	0.19493	0.21954	0.073524	0.12652	0.26704	0.15213	0.34292	0.41828	0.21613	0.33894	-2.8583	-3.05	-2.8812	-3.4229	-2.8125	-2.9479	-3.5542	-3.0438	-3.2729	-3.275	-2.9396	-3.5729	-3.1688	-2.8271	-3.5167	-2.7812	-54.930	111.620	-96.706	-109.739	140.776	21.056	203.692	175.669	110.173	45.128	219.880	201.312	200.422	-106.475	69.920	143.193	0.00097883	0.00043849	2.6844e-05	784.78	6.1563e-06	5.4126e-06	857.58	303.95	2.5404e-06	2.6946e-06	377.26	160.35	124.39	58.041	4.2683e-06	82.164	0.00045236	0.00041515	0.00012122	778.55	4.5486e-06	4.6547e-06	850.53	303.27	4.6364e-06	4.5963e-06	373.81	158.3	123.98	57.835	4.6135e-06	81.321	148.545	-78.270	52.515	-123.755	-79.733	-58.069	-125.574	-118.351	24.120	27.129	-121.353	-117.477	-114.745	-109.359	-36.766	-113.035	-8191	255	
#DATA ENDS
