BOXY.EXE: ISS Imagent and Oximeter Data Acquisition Program Version 0.80
Ascii Record File

#ACQ INFORMATION
2  Detector Channels 
16  External MUX Channels 
1  Auxiliary Channels 
5000  Waveform (CCF) Frequency (Hz)
1  Waveforms Skipped 
30  Waveforms Averaged 
1  Cycles Averaged 
16  Acquisitions per Waveform 
10.0806  Updata Rate (Hz) 

#FILE INFORMATION
TRUE -- External MUX Channel results are PARSED.
FALSE -- AC DC and Phase are NOT grouped.
TRUE -- Companion Program Settings File CREATED.
FALSE -- AC data not excluded
FALSE -- DC data not excluded
FALSE -- Phase data not excluded
FALSE -- Auxillary Chn. data not excluded
Tab delimiters

#CALIBRATION STATE
TRUE -- Waveform Calibration Values APPLIED.


#AUX CALIBRATION VALUES
Val Type	aux-1	

Term	1.0000e+00	
Factor	0.0000e+00	


#WF CALIBRATION VALUES
A = Detector Channel
Val Type	A-AC1	A-AC2	A-AC3	A-AC4	A-AC5	A-AC6	A-AC7	A-AC8	A-AC9	A-AC10	A-AC11	A-AC12	A-AC13	A-AC14	A-AC15	A-AC16	A-DC1	A-DC2	A-DC3	A-DC4	A-DC5	A-DC6	A-DC7	A-DC8	A-DC9	A-DC10	A-DC11	A-DC12	A-DC13	A-DC14	A-DC15	A-DC16	A-Ph1	A-Ph2	A-Ph3	A-Ph4	A-Ph5	A-Ph6	A-Ph7	A-Ph8	A-Ph9	A-Ph10	A-Ph11	A-Ph12	A-Ph13	A-Ph14	A-Ph15	A-Ph16	

Term	0.00000e+00	0.00000e+00	0.00000e+00	0.00000e+00	0.00000e+00	0.00000e+00	0.00000e+00	0.00000e+00	0.00000e+00	0.00000e+00	0.00000e+00	0.00000e+00	0.00000e+00	0.00000e+00	0.00000e+00	0.00000e+00	0.00000e+00	0.00000e+00	0.00000e+00	0.00000e+00	0.00000e+00	0.00000e+00	0.00000e+00	0.00000e+00	0.00000e+00	0.00000e+00	0.00000e+00	0.00000e+00	0.00000e+00	0.00000e+00	0.00000e+00	0.00000e+00	0.00000e+00	0.00000e+00	0.00000e+00	0.00000e+00	0.00000e+00	0.00000e+00	0.00000e+00	0.00000e+00	0.00000e+00	0.00000e+00	0.00000e+00	0.00000e+00	0.00000e+00	0.00000e+00	0.00000e+00	0.00000e+00	
Factor	1.00000e+00	1.00000e+00	1.00000e+00	1.00000e+00	1.00000e+00	1.00000e+00	1.00000e+00	1.00000e+00	1.00000e+00	1.00000e+00	1.00000e+00	1.00000e+00	1.00000e+00	1.00000e+00	1.00000e+00	1.00000e+00	1.00000e+00	1.00000e+00	1.00000e+00	1.00000e+00	1.00000e+00	1.00000e+00	1.00000e+00	1.00000e+00	1.00000e+00	1.00000e+00	1.00000e+00	1.00000e+00	1.00000e+00	1.00000e+00	1.00000e+00	1.00000e+00	X	X	X	X	X	X	X	X	X	X	X	X	X	X	X	X	

B = Detector Channel
Val Type	B-AC1	B-AC2	B-AC3	B-AC4	B-AC5	B-AC6	B-AC7	B-AC8	B-AC9	B-AC10	B-AC11	B-AC12	B-AC13	B-AC14	B-AC15	B-AC16	B-DC1	B-DC2	B-DC3	B-DC4	B-DC5	B-DC6	B-DC7	B-DC8	B-DC9	B-DC10	B-DC11	B-DC12	B-DC13	B-DC14	B-DC15	B-DC16	B-Ph1	B-Ph2	B-Ph3	B-Ph4	B-Ph5	B-Ph6	B-Ph7	B-Ph8	B-Ph9	B-Ph10	B-Ph11	B-Ph12	B-Ph13	B-Ph14	B-Ph15	B-Ph16	

Term	0.00000e+00	0.00000e+00	0.00000e+00	0.00000e+00	0.00000e+00	0.00000e+00	0.00000e+00	0.00000e+00	0.00000e+00	0.00000e+00	0.00000e+00	0.00000e+00	0.00000e+00	0.00000e+00	0.00000e+00	0.00000e+00	0.00000e+00	0.00000e+00	0.00000e+00	0.00000e+00	0.00000e+00	0.00000e+00	0.00000e+00	0.00000e+00	0.00000e+00	0.00000e+00	0.00000e+00	0.00000e+00	0.00000e+00	0.00000e+00	0.00000e+00	0.00000e+00	-1.85345e+02	-1.23737e+02	-1.11857e+02	-1.80493e+02	-1.02631e+02	-7.18909e+01	-1.55190e+02	-1.62015e+02	-8.30239e+01	-6.30682e+01	-1.71086e+02	-1.70392e+02	-1.81065e+02	-1.76742e+02	-5.60175e+01	-1.49283e+02	
Factor	3.45794e-05	1.28973e-04	3.64895e-05	1.78598e-01	1.50782e-06	1.48164e-06	1.55936e-01	4.98493e-02	1.25560e-06	1.27048e-06	8.53734e-02	2.92799e-02	2.65120e-02	9.74353e-03	1.48999e-06	1.28900e-02	2.28479e-06	2.43523e-06	6.78434e-07	9.15091e-02	2.64387e-08	2.67660e-08	7.53430e-02	2.56481e-02	2.64425e-08	2.67481e-08	4.24034e-02	1.45225e-02	1.36176e-02	5.01221e-03	2.65546e-08	6.42646e-03	X	X	X	X	X	X	X	X	X	X	X	X	X	X	X	X	



#DISTANCE SETTINGS
A = Detector Channel
A-1	A-2	A-3	A-4	A-5	A-6	A-7	A-8	A-9	A-10	A-11	A-12	A-13	A-14	A-15	A-16	

2.5000e+00	3.0000e+00	2.5000e+00	3.0000e+00	2.0000e+00	3.0000e+00	1.5000e+00	3.0000e+00	3.0000e+00	3.0000e+00	3.0000e+00	3.0000e+00	3.0000e+00	3.0000e+00	1.5000e+00	3.0000e+00	

B = Detector Channel
B-1	B-2	B-3	B-4	B-5	B-6	B-7	B-8	B-9	B-10	B-11	B-12	B-13	B-14	B-15	B-16	

1.0000e+01	1.0000e+01	1.0000e+01	1.4400e+00	1.0000e+01	1.0000e+01	1.5100e+00	1.9400e+00	1.0000e+01	1.0000e+01	1.9900e+00	2.4900e+00	2.4100e+00	2.9000e+00	1.0000e+01	2.9800e+00	




#DATA BEGINS
time	group	step	mark	flag	A-AC1	A-AC2	A-AC3	A-AC4	A-AC5	A-AC6	A-AC7	A-AC8	A-AC9	A-AC10	A-AC11	A-AC12	A-AC13	A-AC14	A-AC15	A-AC16	A-DC1	A-DC2	A-DC3	A-DC4	A-DC5	A-DC6	A-DC7	A-DC8	A-DC9	A-DC10	A-DC11	A-DC12	A-DC13	A-DC14	A-DC15	A-DC16	A-Ph1	A-Ph2	A-Ph3	A-Ph4	A-Ph5	A-Ph6	A-Ph7	A-Ph8	A-Ph9	A-Ph10	A-Ph11	A-Ph12	A-Ph13	A-Ph14	A-Ph15	A-Ph16	B-AC1	B-AC2	B-AC3	B-AC4	B-AC5	B-AC6	B-AC7	B-AC8	B-AC9	B-AC10	B-AC11	B-AC12	B-AC13	B-AC14	B-AC15	B-AC16	B-DC1	B-DC2	B-DC3	B-DC4	B-DC5	B-DC6	B-DC7	B-DC8	B-DC9	B-DC10	B-DC11	B-DC12	B-DC13	B-DC14	B-DC15	B-DC16	B-Ph1	B-Ph2	B-Ph3	B-Ph4	B-Ph5	B-Ph6	B-Ph7	B-Ph8	B-Ph9	B-Ph10	B-Ph11	B-Ph12	B-Ph13	B-Ph14	B-Ph15	B-Ph16	aux-1	digaux	

1175.195	1	1	0	256	0.097586	0.097266	0.18861	0.18851	0.27929	0.026182	0.16018	0.093622	0.11856	0.18107	0.16365	0.22266	0.31363	0.051859	0.13206	0.012198	-3.0438	-2.7208	-3.1813	-3.4375	-2.9104	-3.625	-3.1771	-3.2375	-3.3833	-2.8833	-3.0875	-3.3271	-2.9125	-3.6083	-3.2396	-3.1813	322.128	333.423	-11.217	306.225	26.069	239.158	254.218	91.116	104.218	79.267	336.394	223.525	319.059	274.660	292.474	171.221	0.00078236	0.00051392	0.00014586	788.99	6.3332e-06	5.9809e-06	812.59	313.88	4.038e-06	4.4363e-06	374.21	160.35	133.25	71.954	6.2394e-06	90.455	0.00010084	5.1642e-05	1.3676e-05	771.33	5.6799e-07	5.211e-07	795.7	309.19	5.7826e-07	5.2153e-07	366.61	157.47	131.12	71.347	5.9128e-07	89.106	78.537	84.470	82.223	-2.873	101.615	131.090	-3.575	3.052	137.837	129.182	1.165	5.647	7.863	13.122	151.935	9.684	-8191	255	
1175.292	1	1	0	0	0.14612	0.12145	0.19727	0.16582	0.068953	0.21889	0.12183	0.24896	0.11171	0.078264	0.03215	0.14208	0.16214	0.092692	0.16352	0.23299	-3.1625	-2.7604	-3.0292	-3.4646	-2.7792	-3.5438	-3.3271	-2.9417	-3.4646	-3.0771	-3.2021	-3.5792	-2.8229	-3.5167	-3.0021	-2.8979	134.967	291.804	3.445	97.919	16.354	148.686	194.500	101.137	82.426	71.103	132.383	109.083	-13.926	315.772	151.882	272.563	0.00081756	0.00053086	0.00015955	792.68	6.7738e-06	5.438e-06	814.4	317.84	5.3553e-06	5.2848e-06	379.43	162.37	135.21	72.702	6.4672e-06	90.433	0.00010357	4.9293e-05	1.394e-05	777.84	5.7989e-07	5.4519e-07	800.77	312.92	5.8741e-07	5.47e-07	371.01	158.95	132.72	71.812	6.2757e-07	89.054	78.302	76.002	103.590	-2.413	110.535	128.280	-3.610	3.186	136.845	142.444	1.078	5.512	7.753	13.087	160.649	9.463	-8191	255	
1175.388	1	1	0	0	0.10756	0.17193	0.14793	0.045696	0.19212	0.12737	0.11886	0.2669	0.16452	0.23646	0.21117	0.16897	0.083403	0.3077	0.20022	0.087128	-3.0729	-2.9896	-3.0396	-3.4104	-2.5875	-3.2229	-3.3625	-3.0042	-3.3333	-2.975	-2.7521	-3.4771	-2.9229	-3.2646	-3.1083	-2.7729	327.940	35.511	315.435	276.563	54.884	62.549	279.655	293.087	177.460	102.475	113.886	113.507	77.611	297.360	104.938	84.969	0.00082847	0.00065601	0.00017998	802.65	7.7126e-06	7.0631e-06	819.3	320.22	4.5472e-06	4.7477e-06	373.72	158.74	133.53	71.321	5.6781e-06	87.37	0.00010617	5.2768e-05	1.4008e-05	788.02	6.0423e-07	5.5199e-07	803.77	315.84	6.2256e-07	5.4561e-07	368.3	155.59	131.5	70.618	6.1745e-07	86.113	77.723	71.258	92.578	-2.442	104.315	132.802	-3.490	3.491	135.756	141.632	1.350	5.776	8.487	13.322	150.528	9.650	-8191	255	
1175.484	1	1	0	0	0.10028	0.12847	0.19956	0.24669	0.095583	0.30232	0.02956	0.095568	0.1515	0.1068	0.24594	0.11499	0.1527	0.26269	0.16658	0.20289	-3.1917	-3.0708	-2.8521	-3.4188	-2.725	-3.2125	-3.5	-2.6917	-3.1958	-3.0938	-2.8979	-3.4146	-2.9125	-3.275	-3.5104	-3.1083	91.695	-10.649	129.558	256.415	288.279	119.010	137.708	327.067	180.894	107.710	297.294	187.529	-13.457	-1.197	212.793	-11.061	0.00075633	0.00056701	0.0001659	809.34	4.9825e-06	5.4929e-06	814.85	320.9	3.4409e-06	4.4388e-06	375.58	157.39	132.91	70.713	3.7443e-06	86.987	0.000104	5.2571e-05	1.4787e-05	791.62	5.9691e-07	5.5121e-07	797.98	315.15	5.9936e-07	5.4444e-07	367.09	154.17	130.85	69.883	6.1181e-07	85.486	81.365	83.914	86.267	-2.246	86.483	136.817	-3.315	3.086	129.818	145.319	1.175	5.715	8.015	13.424	169.056	9.351	-8191	255	
1175.580	1	1	0	0	0.094954	0.14638	0.10375	0.27045	0.16406	0.18262	0.11858	0.26987	0.082233	0.067493	0.16987	0.12735	0.33171	0.19318	0.15857	0.051716	-3.0708	-3.2083	-2.9188	-3.3875	-2.8708	-2.925	-3.5646	-2.9083	-3.1292	-3.1458	-2.7938	-3.2875	-2.9562	-3.0708	-3.4583	-2.9771	182.625	114.264	223.297	281.658	152.666	94.538	15.795	252.540	175.319	268.456	88.263	333.794	-13.805	1.245	-14.143	79.105	0.00079011	0.00049831	0.00016697	810.26	5.9117e-06	5.283e-06	815.23	319.54	3.3147e-06	4.8051e-06	372.01	155.83	131.42	69.536	5.5452e-06	85.833	0.00010629	5.0176e-05	1.4449e-05	794.51	5.8958e-07	5.5891e-07	800.64	315.13	6.2696e-07	5.665e-07	366.86	153.7	130.22	69.342	6.0782e-07	84.839	82.781	70.075	83.336	-2.547	104.250	115.317	-3.346	3.318	139.548	144.865	1.373	5.943	8.505	13.734	160.470	10.014	-8191	255	
1175.699	1	1	0	0	0.33038	0.059545	0.20884	0.18779	0.14489	0.31962	0.1832	0.31492	0.0092615	0.097541	0.3048	0.20778	0.11738	0.21839	0.13714	0.32573	-2.9333	-3.35	-2.7583	-3.5438	-2.8708	-2.7979	-3.3729	-2.9188	-3.0604	-3.5542	-2.8604	-3.3292	-3.1083	-2.9229	-3.3937	-2.9625	306.857	174.291	50.069	305.222	112.938	274.786	323.039	292.368	149.009	77.899	317.232	229.886	-8.918	312.819	15.371	212.991	0.00077306	0.00046213	0.00010731	811.12	5.6835e-06	4.6455e-06	826.15	321.68	5.2027e-06	4.6366e-06	378.15	157.65	133.11	70.017	5.2467e-06	85.818	0.00010265	5.1845e-05	1.4632e-05	795.82	6.0605e-07	5.5411e-07	806.77	316.58	6.225e-07	5.5112e-07	368.85	154.49	130.55	69.227	6.0777e-07	84.585	80.842	89.917	113.238	-2.341	106.489	133.266	-3.630	3.073	139.241	140.224	1.566	5.669	7.983	13.271	171.238	9.904	-8191	255	
1175.795	1	1	0	0	0.42415	0.10652	0.095002	0.29405	0.39419	0.27722	0.20765	0.19332	0.23611	0.21856	0.28215	0.073013	0.14166	0.12879	0.28404	0.28921	-2.9271	-3.3583	-2.6813	-3.5146	-3.0083	-2.8208	-3.2875	-2.8354	-3.0042	-3.3458	-3.0187	-3.4833	-3.4417	-3.0604	-3.5896	-3.0271	228.128	322.346	-11.532	300.342	31.604	269.495	281.784	247.192	-0.638	80.938	279.495	-5.854	11.258	322.275	82.361	266.877	0.00075847	0.0005169	0.00011241	812.62	4.2324e-06	6.5222e-06	811.89	318.62	4.7389e-06	4.9288e-06	373.37	154.98	132.3	69.959	5.3608e-06	85.861	0.00010301	5.113e-05	1.5012e-05	796.86	5.9157e-07	5.7084e-07	798.69	315.36	6.5588e-07	5.4327e-07	365.69	151.99	129.81	68.873	6.1717e-07	83.674	78.966	82.059	84.500	-2.482	86.511	135.622	-3.331	3.224	138.927	125.649	1.203	5.472	8.104	12.965	142.387	9.238	-8191	255	
1175.891	1	1	0	0	0.20425	0.17034	0.27161	0.10773	0.088617	0.11376	0.24724	0.24941	0.04105	0.1483	0.19513	0.20371	0.15991	0.070678	0.028759	0.015622	-2.6312	-3.3208	-2.6688	-3.3187	-3.2042	-2.9146	-3.6479	-3.1458	-3.1208	-3.6	-2.9021	-3.5458	-3.3812	-2.8604	-3.8354	-3.2354	87.027	49.736	311.307	224.000	48.703	124.047	334.771	322.141	166.378	49.934	-6.506	48.076	322.118	123.285	299.778	97.744	0.00076862	0.0005607	0.00012183	819.53	6.2969e-06	5.6821e-06	822.16	321.52	3.6e-06	4.2438e-06	375.17	155.39	132.6	70.165	4.7506e-06	85.909	0.00010359	5.2479e-05	1.468e-05	795.37	5.7824e-07	5.8361e-07	799.45	314.63	6.2399e-07	5.4772e-07	364.92	152.21	129.87	68.84	6.2403e-07	83.734	81.583	75.552	84.319	-3.164	104.624	138.584	-4.182	2.683	135.222	134.912	0.655	5.209	7.447	12.852	161.138	9.325	-8191	255	
1175.987	1	1	0	0	0.086783	0.035492	0.2625	0.22985	0.02538	0.11679	0.2845	0.30063	0.17539	0.069849	0.31545	0.081692	0.20008	0.15606	0.14824	0.16446	-2.6771	-3.5021	-2.8604	-3.4062	-3.2146	-3.0292	-3.7021	-3.1854	-2.8542	-3.4375	-2.7812	-3.0792	-3.3958	-2.7438	-3.4479	-3.1688	311.374	75.832	52.251	-1.643	63.138	205.417	232.247	263.545	26.919	279.573	203.459	86.399	65.223	0.402	-5.134	337.757	0.00071766	0.00048752	0.00017157	817.48	5.7283e-06	4.3595e-06	818.67	321.63	5.5671e-06	4.6325e-06	378.22	156.51	133.34	69.959	5.194e-06	85.888	0.0001069	5.2768e-05	1.5341e-05	795.32	5.7554e-07	5.7396e-07	798.71	315.36	6.4018e-07	5.3597e-07	367.06	152.74	129.88	68.77	6.4218e-07	83.759	79.178	79.692	86.017	-3.384	120.543	121.811	-4.073	2.575	117.670	160.575	0.672	4.914	7.813	12.878	155.364	9.209	-8191	255	
1176.083	1	1	0	0	0.17215	0.19348	0.20059	0.36359	0.097187	0.27086	0.47186	0.27063	0.28715	0.10165	0.14976	0.13902	0.14426	0.12191	0.20005	0.26729	-2.6937	-3.3646	-2.7604	-2.9333	-3.0208	-2.6604	-3.4562	-3.2875	-2.9333	-3.5333	-3.0625	-3.0271	-3.5833	-2.6396	-3.1708	-3.2625	91.840	124.743	59.923	-13.455	168.016	92.881	322.741	298.444	202.235	122.910	292.840	337.299	283.395	320.902	124.282	318.874	0.00068576	0.00041513	0.00016072	818.75	5.1906e-06	4.0748e-06	823.15	324.04	4.58e-06	4.3095e-06	380.7	157.3	132.55	69.674	5.227e-06	85.529	0.00010186	5.0506e-05	1.5047e-05	798.87	6.06e-07	5.9119e-07	803.45	317.29	6.3688e-07	5.8172e-07	368.95	153.37	129.87	68.814	6.6005e-07	83.693	80.960	90.792	88.292	-3.323	97.770	118.000	-4.179	2.686	124.039	160.833	0.757	5.176	7.699	12.871	159.374	9.281	-8191	255	
1176.180	1	1	0	0	0.04667	0.095578	0.026111	0.28999	0.15461	0.20247	0.056688	0.20019	0.1672	0.09963	0.019209	0.1629	0.35365	0.34309	0.13091	0.26418	-2.4354	-3.4313	-3.0417	-3.0896	-3.5375	-2.9021	-3.2271	-3.2958	-2.6167	-3.3229	-3.0979	-3.2	-3.4958	-3.0333	-3.0083	-3.3021	328.926	331.032	297.179	241.731	324.899	310.932	282.355	285.501	4.458	20.310	64.453	317.974	-8.003	-7.068	-7.451	29.646	0.00075346	0.00035832	0.00013713	819.15	6.1672e-06	5.0255e-06	817.55	321.48	4.78e-06	4.1938e-06	373.28	154.82	132.49	69.227	5.4632e-06	84.267	0.00010392	5.4301e-05	1.4984e-05	798.36	5.9548e-07	5.6844e-07	796.43	315.59	6.5098e-07	5.5898e-07	363.94	150.7	129.39	68.145	6.4749e-07	82.538	82.920	69.889	86.606	-3.047	109.892	140.999	-4.277	2.671	146.896	128.767	0.693	5.218	7.554	13.133	156.692	9.499	-8191	255	
1176.276	1	1	0	0	0.20024	0.13427	0.15034	0.1985	0.054661	0.14908	0.083621	0.12043	0.0077794	0.050782	0.28425	0.085779	0.13025	0.20916	0.083223	0.25041	-2.2438	-3.2896	-3.1146	-3.15	-3.6667	-2.8771	-3.3187	-3.5958	-2.6083	-3.3187	-2.9208	-2.7854	-3.5812	-3.2646	-3.0854	-3.6271	204.491	296.050	215.379	294.459	275.172	54.859	131.161	271.036	23.806	21.919	272.264	271.683	295.844	286.561	224.850	297.796	0.00074208	0.00037834	0.00015672	813.39	7.3098e-06	5.3298e-06	809.89	321.11	4.0145e-06	5.0047e-06	375.62	154.38	132.01	69.154	4.4239e-06	84.707	0.00010301	5.2814e-05	1.5203e-05	796.18	6.2213e-07	5.7223e-07	795.1	315.74	6.4503e-07	5.8545e-07	365.68	150.93	129.36	68.301	6.5496e-07	82.979	83.812	66.485	82.344	-2.895	102.124	138.558	-3.863	3.002	140.099	149.339	1.097	5.285	7.892	12.969	167.680	9.793	-8191	255	
1176.396	1	1	0	0	0.064247	0.10951	0.044808	0.13338	0.041081	0.12464	0.10531	0.26768	0.26755	0.097645	0.014876	0.14558	0.079245	0.15773	0.21878	0.19964	-2.5521	-3.1771	-3.0833	-2.8688	-3.3146	-2.9104	-3.0812	-3.6479	-3.0083	-3.3187	-3.2417	-2.9292	-3.4604	-3.0583	-2.675	-3.3	154.307	109.349	96.046	204.699	43.420	157.878	223.374	316.941	38.334	298.495	337.748	102.007	35.795	333.000	223.828	303.590	0.00073491	0.00054675	0.00014971	818.09	3.9438e-06	5.8486e-06	813.32	321.42	3.848e-06	5.3328e-06	374.87	155.29	131.51	69.783	4.6294e-06	85.591	0.00010453	5.3793e-05	1.5309e-05	798.68	5.8865e-07	5.4792e-07	797.67	316.39	6.5583e-07	5.7631e-07	367.27	151.93	129.52	68.692	6.6044e-07	83.816	79.448	76.597	106.864	-3.145	111.276	145.890	-4.002	2.946	129.203	142.646	1.127	5.572	7.914	13.363	155.312	9.375	-8191	255	
1176.491	1	1	0	0	0.094198	0.16335	0.10436	0.053455	0.035095	0.1265	0.11478	0.15033	0.1325	0.02338	0.26004	0.18604	0.36409	0.29485	0.20831	0.1564	-2.4854	-3.0646	-3.2708	-2.7979	-3.3979	-3.0687	-3.0646	-3.5729	-2.7958	-3.3187	-3.3375	-3.1	-3.6937	-3.3187	-2.8333	-3.5375	-2.266	49.574	22.151	284.591	250.871	147.616	269.814	343.287	41.564	333.172	274.699	151.599	315.001	20.888	274.821	318.124	0.0007119	0.00054013	0.00014319	818.03	6.8544e-06	3.2578e-06	821.27	323.05	3.3603e-06	4.4302e-06	377.95	156.93	132.89	69.917	4.8446e-06	85.421	0.00010655	5.5762e-05	1.5057e-05	799.39	6.2247e-07	6.0881e-07	804.03	317.68	6.734e-07	5.9225e-07	369.51	152.65	130.04	68.797	6.6287e-07	83.682	79.689	81.312	79.805	-2.836	105.041	117.892	-3.651	2.745	119.156	132.598	1.182	5.387	7.684	13.206	152.998	9.538	-8191	255	
1176.564	1	1	0	0	0.28959	0.16726	0.25659	0.079916	0.06922	0.066277	0.31918	0.18798	0.14126	0.18782	0.23381	0.11097	0.09174	0.39863	0.01489	0.17602	-2.5	-3.0438	-3.2562	-2.6083	-3.3229	-2.9313	-2.8688	-3.4813	-2.8729	-2.9667	-3.4125	-2.8896	-3.4646	-3.3625	-2.6146	-3.5312	272.836	331.910	328.340	321.680	-7.470	296.826	304.804	270.097	54.113	278.355	24.654	331.430	231.935	339.114	187.010	279.892	0.0007574	0.00057556	0.00014532	816.46	4.9997e-06	5.3956e-06	820.11	325.6	4.496e-06	5.6313e-06	377.08	155.88	133.75	70.377	5.2458e-06	86.056	0.00010537	5.5219e-05	1.4914e-05	796.76	6.0881e-07	5.6605e-07	797.84	317.62	6.6409e-07	5.9019e-07	366.49	151.29	130.17	68.867	6.6486e-07	83.674	79.890	80.498	76.850	-2.884	117.760	123.404	-4.327	2.638	128.135	144.350	0.784	4.759	7.617	12.975	176.338	9.093	-8191	255	
1176.660	1	1	0	0	0.063249	0.14337	0.12661	0.10326	0.10465	0.096741	0.11628	0.34646	0.1053	0.12729	0.13912	0.12406	0.14799	0.054267	0.27084	0.17392	-2.4146	-2.9729	-3.3	-2.9792	-3.2125	-3.3146	-2.7938	-3.6167	-3.0438	-3.1042	-3.5062	-2.7771	-3.1646	-3.2562	-2.8896	-3.5021	331.125	19.529	217.794	43.203	127.231	191.734	242.772	288.965	168.300	176.577	301.924	198.067	301.857	77.385	324.220	-10.899	0.00071558	0.00044916	0.00013175	821.1	5.3553e-06	3.3811e-06	816.07	324.09	3.1066e-06	4.3629e-06	381.35	157.6	134.58	71.323	6.3192e-06	86.954	0.00010282	5.6863e-05	1.4945e-05	797.53	6.0748e-07	5.6354e-07	797.58	317.94	6.5016e-07	5.7168e-07	370	153.32	131.34	69.866	6.762e-07	85.123	81.712	69.290	82.040	-2.980	100.680	122.962	-3.898	2.656	128.744	141.330	0.900	5.105	7.525	12.894	162.830	9.230	-8191	255	
1176.779	1	1	0	0	0.053581	0.11702	0.18573	0.24849	0.20199	0.10471	0.28435	0.20346	0.26056	0.069811	0.069659	0.16022	0.17074	0.24195	0.28327	0.24467	-2.4354	-2.6604	-3.4625	-2.9146	-3.1083	-3.3146	-2.7917	-3.3688	-3.0312	-3.0417	-3.5958	-3	-3.3063	-3.55	-2.8354	-3.4938	52.849	324.112	242.697	332.256	186.220	266.269	222.523	323.902	268.064	60.738	310.540	338.929	305.890	160.620	94.257	307.180	0.00078778	0.00061472	0.00013332	820.3	7.8417e-06	5.9696e-06	820.91	323.82	7.1777e-06	4.1613e-06	383.33	159.79	134.46	71.801	6.2588e-06	88.786	0.00010403	5.6178e-05	1.5586e-05	797	6.2605e-07	5.7078e-07	803.41	317.29	6.3704e-07	5.889e-07	372.12	155.62	131.38	70.481	6.8251e-07	87.12	81.170	76.652	89.797	-3.215	121.033	136.495	-3.918	2.708	133.207	142.288	0.833	5.042	7.563	12.611	165.459	9.273	-8191	255	
1176.875	1	1	0	0	0.036726	0.010969	0.18725	0.082267	0.21331	0.21398	0.31945	0.31994	0.18949	0.047966	0.035983	0.16481	0.17182	0.15891	0.087581	0.22357	-2.5604	-2.7229	-3.3979	-3.0208	-3.1063	-3.4167	-3.0354	-3.4896	-3.1354	-2.6625	-3.4688	-2.7687	-3.05	-3.4896	-2.7979	-3.2771	124.567	65.954	117.031	174.849	77.449	111.475	92.852	317.257	239.721	129.662	268.405	27.780	1.333	14.062	162.870	241.624	0.00075022	0.00056686	0.00015592	811.03	5.5463e-06	5.5466e-06	825.93	322.77	4.4233e-06	5.1801e-06	387.38	162.12	134.29	72.268	6.8436e-06	90.298	0.00010563	5.7781e-05	1.5074e-05	789.37	6.1018e-07	5.5958e-07	804.56	314.89	6.279e-07	5.9815e-07	374.8	157.65	131.27	70.976	6.7023e-07	88.382	82.383	88.194	85.055	-3.082	94.455	139.389	-4.010	2.671	122.853	131.296	0.489	5.192	7.742	12.782	168.429	8.872	-8191	255	
1176.972	1	1	0	0	0.29353	0.18733	0.13834	0.17752	0.27742	0.13264	0.29944	0.52604	0.099389	0.095989	0.22164	0.14748	0.30768	0.1514	0.31442	0.18843	-2.9896	-2.7917	-3.4833	-3.1437	-3.0292	-3.3312	-2.9292	-3.075	-3.2604	-2.7646	-3.4958	-3.0958	-2.8958	-3.4521	-2.7708	-3.3021	278.584	307.689	315.087	305.169	77.397	96.078	302.220	-3.328	235.945	24.118	-9.750	217.272	-11.033	299.396	34.432	319.734	0.00072088	0.00048456	0.00017556	794.28	6.7153e-06	5.1728e-06	816.92	316.33	3.1698e-06	3.7471e-06	380.58	160.42	133.69	71.822	4.5622e-06	90.493	0.00010255	5.4894e-05	1.4681e-05	772.03	5.8016e-07	5.5188e-07	793.6	309.14	5.8901e-07	5.353e-07	368.58	156	129.83	70.445	6.0312e-07	88.056	82.252	76.340	86.156	-3.052	103.148	123.918	-4.218	2.501	132.310	124.204	0.624	4.858	7.101	12.387	165.928	8.687	-8191	255	
1177.068	1	1	0	0	0.21939	0.083389	0.07537	0.073943	0.21667	0.17548	0.032127	0.25008	0.13916	0.1163	0.16982	0.21155	0.20236	0.051872	0.27353	0.25506	-2.8917	-2.7208	-3.5125	-3.2021	-2.6833	-3.3167	-2.8792	-3.2354	-3.4333	-2.8521	-3.4646	-3.05	-2.8187	-3.5708	-2.75	-3.1354	301.148	78.515	326.119	288.294	226.431	154.306	114.393	282.257	194.384	114.838	33.557	344.512	59.824	326.435	128.321	300.580	0.00076882	0.00053991	0.00018109	778.89	5.4114e-06	5.992e-06	809.24	311.72	4.001e-06	4.4059e-06	380.47	160.91	132.2	71.683	6.096e-06	91.222	9.9027e-05	5.0602e-05	1.3854e-05	759.79	5.7443e-07	5.2422e-07	788.08	304.95	5.4907e-07	5.1512e-07	368.88	157.32	129.18	70.539	5.9173e-07	88.956	83.188	77.316	84.495	-2.903	92.530	122.685	-4.144	2.720	142.379	117.198	0.583	5.072	7.548	12.843	163.609	8.919	-8191	255	
1177.188	1	1	0	0	0.088481	0.22463	0.011103	0.087944	0.29925	0.088589	0.1935	0.27225	0.090982	0.08919	0.063428	0.2398	0.12259	0.1524	0.11776	0.18242	-3.0417	-2.7521	-3.3708	-3.1188	-2.6792	-3.3208	-2.875	-3.1604	-3.3146	-2.85	-3.3	-3.4146	-2.9542	-3.6688	-2.9833	-3.1042	94.681	309.133	74.020	14.522	128.668	149.490	321.854	319.975	112.636	27.260	304.905	37.208	255.341	319.804	177.481	265.171	0.00076719	0.00057818	0.00020854	773.96	6.1363e-06	5.7316e-06	810.01	309.48	4.102e-06	5.2071e-06	381.15	164.93	132.91	72.678	6.9706e-06	93.671	9.8532e-05	4.8446e-05	1.3829e-05	753.49	5.5554e-07	5.0727e-07	787.48	302.93	5.4042e-07	5.2014e-07	371.12	160.17	129.76	71.288	5.8586e-07	91.301	79.824	79.316	89.162	-3.087	104.516	136.665	-3.828	2.660	123.442	142.691	0.819	4.786	7.148	12.495	154.262	8.510	-8191	255	
1177.260	1	1	0	0	0.29856	0.20475	0.11368	0.36216	0.2127	0.085116	0.15366	0.30334	0.21519	0.09613	0.086787	0.21846	0.12128	0.056754	0.082202	0.083448	-2.9229	-2.7438	-3.0521	-3.2229	-2.6854	-3.4375	-3.0604	-3.0896	-3.4521	-2.9667	-3.3646	-3.3333	-2.8688	-3.25	-3.0646	-2.9729	213.570	135.039	237.485	232.860	224.956	322.418	75.426	296.887	226.660	24.431	8.621	-7.251	-5.977	215.902	336.738	221.866	0.00084518	0.00046832	0.00015222	758.99	5.5772e-06	4.6179e-06	805.17	306.98	3.4808e-06	3.9926e-06	383.27	165.66	132.69	72.434	6.0078e-06	93.578	0.00010111	4.6381e-05	1.3194e-05	739.83	5.4161e-07	4.6645e-07	784.38	299.69	5.2251e-07	4.8353e-07	370.66	160.94	129.24	71.178	5.5803e-07	91.267	79.012	79.575	86.652	-3.151	105.604	133.646	-3.996	2.556	127.844	144.623	0.699	4.709	7.226	12.356	158.078	8.505	-8191	255	
1177.381	1	1	0	0	0.12617	0.20575	0.059662	0.071773	0.0595	0.08177	0.29665	0.18142	0.18282	0.15155	0.097977	0.053318	0.26807	0.28419	0.26916	0.20096	-3.1229	-3.0229	-3.15	-3.4	-2.8979	-3.3146	-3.1271	-3.0833	-3.45	-3.0458	-3.2771	-3.5042	-2.8271	-3.2958	-3.0708	-2.8917	189.973	143.208	216.513	60.742	339.383	96.380	-15.293	31.928	113.286	39.627	299.900	105.370	27.523	338.026	39.810	235.391	0.00078136	0.0005213	0.00015849	755.81	5.0064e-06	5.4822e-06	795.58	304.49	4.1573e-06	6.3482e-06	377.31	162.36	131.17	71.905	6.2235e-06	92.5	9.8689e-05	4.7015e-05	1.2287e-05	734.13	5.3087e-07	4.751e-07	774.37	297.37	5.3182e-07	4.8291e-07	365.4	158.3	128.17	70.51	5.6932e-07	90.062	79.561	87.212	80.663	-3.154	89.103	128.126	-3.872	2.485	115.225	138.437	0.475	4.956	7.158	12.258	154.191	8.679	-8191	255	
1177.477	1	1	0	0	0.19763	0.10772	0.042653	0.26999	0.11854	0.1606	0.14129	0.19955	0.2552	0.17851	0.12794	0.20057	0.17591	0.22784	0.15353	0.39896	-2.9854	-2.8833	-2.825	-3.2583	-2.7875	-3.0583	-3.3438	-2.8958	-3.3417	-3.2146	-3.1125	-3.6479	-3.0958	-3.4771	-3.3833	-3.075	318.595	259.546	116.113	329.873	93.433	132.407	237.221	149.081	12.508	271.600	246.143	270.584	8.157	1.420	-4.637	257.165	0.0007879	0.00043022	0.0001412	756.19	5.1452e-06	5.7544e-06	792.4	302.65	3.1239e-06	5.7917e-06	370.86	162.38	129.77	71.393	5.1935e-06	92.2	9.8256e-05	4.4585e-05	1.2938e-05	732.73	5.1555e-07	4.7008e-07	773.82	295.43	5.1354e-07	4.8275e-07	362.72	157.9	126.86	69.993	5.2722e-07	90.204	80.079	57.115	93.015	-3.146	105.270	148.559	-4.204	2.161	120.523	146.526	0.483	4.974	7.340	12.308	163.382	8.465	-8191	255	
1177.571	1	1	0	0	0.2763	0.12517	0.043537	0.14914	0.15327	0.12172	0.077775	0.14628	0.083342	0.051007	0.22381	0.11156	0.045099	0.22582	0.13479	0.29868	-3.2146	-3.1813	-2.9542	-3.4938	-2.7062	-3.1333	-3.4938	-2.7812	-3.225	-3.0396	-3.0708	-3.5396	-2.925	-3.0375	-3.1937	-3.0563	265.463	191.298	236.807	262.928	283.798	184.617	250.776	272.865	13.986	151.258	290.842	244.881	188.310	-14.140	181.836	284.651	0.00085698	0.00055938	0.00011411	753.04	5.1084e-06	7.0979e-06	796.8	304.3	4.587e-06	4.5309e-06	376.12	163.55	130.53	71.016	5.5058e-06	92.994	9.8494e-05	4.5955e-05	1.2818e-05	733.58	5.2976e-07	5.129e-07	776.64	297.22	5.7028e-07	4.9138e-07	366.41	158.91	127.27	69.894	5.4747e-07	90.394	80.454	75.384	82.014	-3.204	105.612	120.385	-3.899	2.361	123.539	137.925	0.452	4.882	7.291	12.128	153.722	8.505	-8191	255	
1177.669	1	1	0	0	0.065976	0.13383	0.096287	0.23701	0.05827	0.034663	0.13603	0.16622	0.12313	0.094945	0.27821	0.24233	0.2243	0.2472	0.12394	0.05713	-2.9667	-3.1021	-2.7833	-3.3167	-2.7479	-3.1146	-3.6021	-2.9042	-3.3083	-3.3208	-2.9396	-3.6188	-3.1646	-3.2479	-3.4125	-2.8	191.919	12.335	2.139	22.933	52.081	52.347	188.344	326.556	177.838	156.723	284.705	266.557	323.830	-6.858	133.619	191.012	0.00078505	0.00063046	0.0001744	751.85	5.7699e-06	5.2051e-06	801.73	300.57	4.7409e-06	4.0581e-06	375.69	162.03	129.21	70.575	5.0243e-06	91.105	0.00010041	4.667e-05	1.3129e-05	731.22	5.1616e-07	4.974e-07	779.29	293.81	5.4775e-07	4.5215e-07	364.35	157.21	125.9	69.173	5.442e-07	88.799	80.443	76.843	80.467	-3.337	114.618	129.271	-4.306	2.436	130.085	132.935	0.634	4.506	7.207	12.142	163.421	8.581	-8191	255	
1177.788	1	1	0	0	0.31573	0.11522	0.28564	0.19155	0.22621	0.042857	0.37763	0.12751	0.13559	0.20643	0.11487	0.15289	0.067908	0.25171	0.044944	0.2645	-2.7479	-3.2625	-2.6917	-3.4792	-3.1083	-2.9604	-3.7375	-2.9896	-3.2687	-3.3542	-2.9583	-3.5312	-3.0521	-3.1042	-3.6146	-2.9354	277.674	25.530	145.623	330.902	34.351	201.833	-14.257	197.219	3.292	257.046	-14.868	0.431	334.915	238.105	313.020	298.500	0.00076778	0.00045862	0.00013606	749.61	6.3897e-06	5.1008e-06	793.65	298.73	3.4772e-06	5.6637e-06	371.43	159.93	128.24	70.617	6.0339e-06	91.041	9.8056e-05	4.3723e-05	1.2793e-05	727.54	5.014e-07	4.688e-07	770.7	291.67	5.3844e-07	4.5801e-07	359.87	155.53	125.37	69.069	5.3209e-07	88.615	77.689	63.634	91.598	-3.297	106.262	128.655	-4.167	2.411	128.583	131.342	0.272	4.635	6.939	11.985	169.893	8.416	-8191	255	
1177.860	1	1	0	0	0.22246	0.13129	0.11011	0.19951	0.13714	0.14965	0.17634	0.10149	0.10494	0.086709	0.23063	0.1155	0.10598	0.29962	0.26307	0.099403	-2.8708	-3.2458	-2.7917	-3.6688	-3.1562	-2.8583	-3.5479	-2.8542	-3.0271	-3.3625	-2.7521	-3.475	-3.1979	-3.0208	-3.4896	-3.1208	167.941	121.351	302.875	233.561	51.684	129.672	342.953	42.317	199.673	336.379	258.299	178.231	207.151	324.542	188.025	50.015	0.00076662	0.00059753	0.00012038	744.45	5.1493e-06	6.3369e-06	793.68	298.79	4.403e-06	3.5687e-06	369.98	159.95	128.4	70.505	7.0878e-06	90.992	9.9155e-05	4.6026e-05	1.2899e-05	725.54	5.1159e-07	4.8742e-07	771.48	292.2	5.2896e-07	4.7695e-07	360.3	155.82	125.17	68.989	5.3275e-07	88.712	77.424	78.933	94.953	-3.431	107.240	125.805	-4.130	2.444	144.118	142.498	0.299	4.467	7.100	12.194	167.246	8.654	-8191	255	
1177.956	1	1	0	0	0.086809	0.17765	0.10237	0.27792	0.26767	0.34151	0.24878	0.024994	0.063766	0.13551	0.16399	0.17181	0.042739	0.25398	0.16625	0.21097	-2.6917	-3.3396	-2.6458	-3.4667	-3.225	-2.8458	-3.5083	-3.0187	-3.0271	-3.4667	-2.8979	-3.4875	-3.3875	-2.8833	-3.1917	-3.2687	107.166	113.351	126.327	301.791	306.530	186.907	299.995	190.857	94.271	314.128	340.048	222.823	250.028	285.886	311.201	273.426	0.00078567	0.00048808	0.00010644	743.54	4.7715e-06	5.3389e-06	788.88	298.25	4.3883e-06	6.0889e-06	369.49	160.03	127.54	69.938	6.7917e-06	91.951	9.9284e-05	4.5361e-05	1.2131e-05	724.94	4.8273e-07	5.1157e-07	770.67	291.05	5.532e-07	4.891e-07	359.53	155.83	124.65	68.715	5.4979e-07	89.315	81.886	79.415	101.556	-3.345	106.264	117.826	-4.227	2.455	145.495	116.485	0.689	4.687	7.385	12.238	153.677	8.671	-8191	255	
1178.052	1	1	0	0	0.23325	0.12618	0.20879	0.25579	0.14246	0.12176	0.065273	0.25185	0.086412	0.09671	0.098513	0.11509	0.18337	0.004383	0.084766	0.10655	-2.5438	-3.5271	-2.8021	-3.2354	-3.3021	-2.7687	-3.3417	-3.0812	-2.8542	-3.3333	-2.875	-3.2792	-3.4833	-2.9333	-3.4542	-3.3875	34.251	78.758	68.787	12.583	307.145	220.166	273.828	290.927	220.708	241.452	-6.771	98.092	272.190	340.868	247.698	76.174	0.00073421	0.00061541	0.00010248	747.02	5.1036e-06	5.0127e-06	793.35	297.86	3.7299e-06	4.6135e-06	372.52	160.25	127.38	70.159	5.4226e-06	90.597	0.00010058	4.6077e-05	1.3026e-05	726.27	4.8223e-07	4.8653e-07	773.4	291.14	5.6229e-07	4.6854e-07	361.48	156.21	125.08	68.81	5.4354e-07	88.55	79.365	89.431	100.785	-3.249	101.800	139.818	-4.049	2.695	132.707	145.381	0.517	4.686	7.390	12.570	154.605	8.889	-8191	255	
1178.173	1	1	0	0	0.11537	0.21261	0.07181	0.2008	0.19035	0.16755	0.39319	0.21641	0.26074	0.18621	0.18125	0.21117	0.2042	0.097967	0.14905	0.2061	-2.5896	-3.4333	-2.7958	-3.2687	-3.5854	-2.8333	-3.4771	-3.2458	-2.9708	-3.4292	-3.2104	-3.125	-3.575	-2.9313	-3.3292	-3.2479	116.134	102.445	272.127	183.135	318.545	69.453	194.759	73.688	122.004	192.851	187.507	45.001	18.583	256.522	268.870	324.237	0.00077383	0.00054759	0.00017548	737.58	4.9071e-06	4.5201e-06	777.54	292.3	3.9973e-06	2.7835e-06	362.96	156.22	125.69	69.199	4.4845e-06	89.282	9.8979e-05	4.3778e-05	1.2128e-05	721.29	4.8465e-07	4.7677e-07	761.01	286.63	5.3992e-07	4.365e-07	353.78	152.87	123.17	68.073	5.2523e-07	87.537	83.498	70.065	88.275	-3.060	90.665	124.613	-3.693	2.726	123.661	120.833	1.153	5.240	7.668	12.530	145.758	8.804	-8191	255	
1178.269	1	1	0	0	0.13116	0.18049	0.29503	0.17634	0.16216	0.25604	0.021663	0.13981	0.15054	0.025603	0.12067	0.22261	0.10013	0.25104	0.28604	0.09081	-2.5708	-3.4938	-3	-3.0979	-3.4042	-2.8917	-3.3792	-3.4688	-2.9188	-3.4792	-3.2104	-2.8063	-3.6229	-2.9188	-3.2104	-3.6833	156.080	0.501	303.608	314.186	136.692	257.855	24.534	251.844	87.246	72.217	265.959	293.181	28.098	-5.424	179.318	221.780	0.00076567	0.00065704	0.00010758	732.54	4.926e-06	6.6229e-06	781.4	292.62	3.6965e-06	4.5201e-06	364.97	158.55	127.7	69.973	5.0839e-06	91.793	9.6785e-05	4.3484e-05	1.1398e-05	715.21	4.8438e-07	4.761e-07	761.66	286.04	5.3634e-07	4.5043e-07	355.81	155.09	124.47	68.914	5.3906e-07	89.71	81.553	81.691	88.675	-2.827	110.283	123.858	-3.865	2.937	134.962	137.415	0.696	4.896	7.635	12.300	152.323	8.942	-8191	255	
1178.365	1	1	0	0	0.29445	0.16076	0.22979	0.15495	0.14015	0.21194	0.10226	0.1371	0.32334	0.21364	0.20958	0.12676	0.10388	0.29103	0.3804	0.33025	-2.3583	-3.3021	-3.1312	-2.9896	-3.5958	-2.7229	-3.2562	-3.6188	-2.8917	-3.4667	-3.075	-2.8083	-3.3229	-3	-3.075	-3.5771	230.276	129.514	218.308	322.044	339.123	99.070	-9.827	335.502	33.102	341.477	22.169	250.058	234.094	25.539	230.618	299.647	0.00077777	0.00041023	0.00014718	731.12	3.5149e-06	4.8611e-06	788.25	294.49	4.5571e-06	5.0675e-06	369.11	160.27	127.54	70.227	5.298e-06	92.296	9.9608e-05	4.1947e-05	1.1798e-05	715.59	4.8691e-07	4.6032e-07	768.31	287.98	5.332e-07	4.7071e-07	358.69	156.57	124.24	68.991	5.4299e-07	89.98	81.054	66.768	85.370	-3.001	114.077	109.102	-4.162	2.223	125.336	142.815	0.568	4.984	7.446	12.281	165.480	8.715	-8191	255	
1178.484	1	1	0	0	0.23125	0.074656	0.06242	0.029591	0.075099	0.13877	0.23517	0.60528	0.11147	0.14618	0.13077	0.23251	0.088002	0.2145	0.20394	0.15736	-2.2021	-3.1854	-3.0979	-2.7021	-3.5687	-2.7875	-3.1667	-3.6646	-2.6083	-3.1833	-3.1562	-3.0729	-3.5542	-3.1292	-2.9313	-3.4646	100.052	111.936	156.165	27.209	77.296	71.223	18.842	271.417	112.157	132.234	-11.885	141.275	7.903	313.520	115.287	-3.743	0.0007926	0.00046395	0.00016178	733.7	5.821e-06	4.7732e-06	784.81	291.49	4.0929e-06	4.3376e-06	365.75	158.39	125.23	69.146	4.5562e-06	90.081	9.9922e-05	4.3768e-05	1.2049e-05	713.6	4.7066e-07	4.5e-07	766.17	285.33	5.2301e-07	4.3627e-07	355.61	154.59	122.61	68.104	5.1981e-07	88.341	80.307	79.872	81.963	-3.429	94.721	128.324	-4.063	2.721	128.731	144.167	0.936	4.774	7.312	12.638	140.955	9.003	-8191	255	
1178.555	1	1	0	0	0.12216	0.082205	0.33461	0.12362	0.24603	0.0082386	0.20238	0.18636	0.18455	0.073456	0.1471	0.15165	0.15342	0.13886	0.062461	0.14903	-2.3	-3.1521	-3.3792	-3.0729	-3.4688	-3.1542	-2.9437	-3.3	-2.7188	-3.1396	-3.4333	-2.7917	-3.5146	-3.25	-2.9792	-3.4583	145.882	329.027	243.140	208.427	153.282	41.500	333.417	297.837	341.446	325.582	326.523	14.394	243.508	272.584	27.933	303.342	0.00079741	0.0004695	0.00013485	723.28	6.1262e-06	6.3005e-06	769.36	288.73	3.49e-06	4.974e-06	362.63	157.7	125.33	69.322	3.6617e-06	90.453	9.5343e-05	4.5067e-05	1.1485e-05	706.96	4.857e-07	4.4827e-07	754.19	283.26	5.0918e-07	4.5583e-07	352.5	153.61	122.48	68.064	5.3972e-07	88.305	83.909	68.128	104.741	-2.872	85.757	124.401	-3.726	2.858	151.384	145.305	0.658	4.418	7.065	12.101	163.793	8.442	-8191	255	
1178.652	1	1	0	0	0.11527	0.10083	0.040055	0.15198	0.23037	0.22035	0.11164	0.13588	0.30107	0.35648	0.066835	0.26808	0.12651	0.25523	0.12038	0.073138	-2.5479	-2.9792	-3.3083	-2.7729	-3.3333	-3.1333	-2.8063	-3.6854	-2.9042	-2.9896	-3.4688	-2.8521	-3.4292	-3.325	-2.8521	-3.6937	147.984	318.438	343.533	-3.045	20.076	208.001	308.770	140.737	332.714	272.566	211.609	253.257	291.171	309.074	112.795	293.034	0.00083408	0.00046108	0.00011694	720.31	6.0916e-06	5.6573e-06	768.84	287.94	4.5904e-06	5.2034e-06	361.67	155.98	123.55	68.311	4.7703e-06	89.468	9.7946e-05	4.2449e-05	1.1388e-05	702.31	4.6829e-07	4.4682e-07	751.95	281.89	4.9745e-07	4.5282e-07	352.31	152.33	121.14	67.31	5.291e-07	87.769	81.930	71.082	99.243	-3.244	101.379	126.040	-3.594	2.580	127.896	136.418	0.588	5.023	7.538	12.495	149.152	8.935	-8191	255	
1178.748	1	1	0	0	0.1979	0.23363	0.071697	0.41875	0.12315	0.11914	0.38903	0.11309	0.090647	0.069559	0.016933	0.1215	0.25546	0.31481	0.17795	0.27854	-2.5938	-3.1333	-3.3958	-2.8896	-3.2625	-3.225	-2.9125	-3.5229	-2.9813	-2.9	-3.4437	-2.9146	-3.3688	-3.3604	-2.8833	-3.6146	245.264	166.449	77.688	343.174	22.297	128.893	303.525	250.124	167.464	4.192	197.161	296.568	-4.939	327.424	236.618	230.006	0.00082478	0.00040618	0.00011591	714.62	6.06e-06	7.2762e-06	764.69	286.6	3.7725e-06	3.9929e-06	362.43	158.09	124.78	68.688	6.8167e-06	91.302	9.7308e-05	4.2495e-05	1.1793e-05	697.65	5.0784e-07	4.3991e-07	750.81	281.55	4.8935e-07	4.516e-07	353.8	153.68	122.31	67.863	5.2794e-07	89.364	81.249	80.041	80.166	-2.792	108.475	123.051	-3.480	3.284	121.589	164.044	0.911	4.783	7.389	12.402	158.965	8.507	-8191	255	
1178.868	1	1	0	0	0.058877	0.07082	0.053635	0.17449	0.10043	0.18143	0.059489	0.045424	0.13618	0.14547	0.24188	0.26167	0.016079	0.22226	0.041531	0.24316	-2.8917	-2.9437	-3.3812	-3.0229	-3.1188	-3.3042	-2.9771	-3.3438	-3.0167	-2.7646	-3.3021	-2.9917	-3.1896	-3.2896	-2.7417	-3.6104	174.039	303.805	93.953	339.036	31.677	183.383	255.968	159.128	194.700	251.047	279.707	53.368	266.439	279.402	50.851	298.357	0.00080988	0.00046545	0.00015759	717.2	6.1124e-06	6.333e-06	765.85	288.89	3.9664e-06	3.7017e-06	361.64	156.56	124.08	68.876	5.8079e-06	89.879	9.7451e-05	4.5615e-05	1.174e-05	698.49	4.841e-07	4.6517e-07	750.38	283.16	4.9514e-07	4.5227e-07	353.6	153.2	121.7	67.895	5.3806e-07	88.098	76.318	86.234	82.350	-2.642	107.366	141.030	-3.698	2.965	129.883	122.663	1.101	4.828	7.305	12.529	158.998	8.527	-8191	255	
1178.963	1	1	0	0	0.1778	0.13164	0.062104	0.14677	0.31833	0.016045	0.21315	0.056208	0.14083	0.11917	0.12553	0.2399	0.1256	0.31914	0.22814	0.15125	-2.8104	-2.725	-3.5312	-3.1229	-3.2417	-3.4688	-2.7021	-3.3833	-3.2854	-2.8146	-3.2229	-3.0625	-3.2542	-3.7667	-2.8583	-3.3396	163.882	42.092	229.315	322.551	260.115	305.997	285.719	-13.115	274.869	120.411	47.779	125.493	270.335	330.665	107.041	338.843	0.00077699	0.00063398	0.00011856	713.95	6.0306e-06	4.561e-06	763.69	285.75	4.1596e-06	4.9917e-06	358.7	155.46	124.22	68.839	4.9343e-06	89.734	9.5128e-05	4.2231e-05	1.1433e-05	697.71	4.7083e-07	4.2246e-07	746.27	281.94	5.0709e-07	4.7144e-07	352.82	153.21	122.12	68.336	5.3054e-07	88.961	79.456	75.340	85.458	-3.075	111.559	112.616	-3.700	2.922	143.258	133.989	1.134	5.631	7.899	13.111	160.701	9.714	-8191	255	
1179.061	1	1	0	0	0.12068	0.21495	0.073259	0.065249	0.18482	0.15123	0.20079	0.25367	0.063935	0.27718	0.1644	0.076088	0.20887	0.12627	0.023813	0.20882	-2.8271	-2.7583	-3.4313	-2.8896	-2.9167	-3.4771	-3.0062	-3.2021	-3.0229	-2.6771	-3.5292	-3.1521	-2.9417	-3.6625	-2.8167	-3.2875	175.279	131.925	103.761	32.094	-8.281	69.348	291.821	9.785	235.539	192.776	175.431	316.244	-2.634	316.472	332.996	299.970	0.00079667	0.00051061	0.00016883	706.57	6.438e-06	5.4727e-06	762.78	286.41	3.4717e-06	6.222e-06	360.75	157.1	124.54	68.984	6.6234e-06	90.2	9.5709e-05	4.564e-05	1.1806e-05	695.25	4.9617e-07	4.4532e-07	749.55	283.49	5.2477e-07	4.667e-07	354.84	154.52	122.96	68.44	5.4481e-07	89.336	82.365	89.653	81.860	-1.696	96.962	136.751	-3.071	3.239	122.941	143.337	1.267	5.429	8.269	13.284	163.204	9.360	-8191	255	
1179.155	1	1	0	0	0.14957	0.30402	0.27531	0.15307	0.25193	0.075024	0.11438	0.11775	0.047885	0.10691	0.33405	0.050378	0.26884	0.14428	0.09811	0.17866	-2.7521	-2.6063	-3.3208	-3.1063	-2.8729	-3.5021	-3.0438	-3.2083	-3.4542	-2.7021	-3.5062	-3.275	-2.9313	-3.6292	-2.9896	-3.0083	23.272	85.271	-3.371	297.539	2.157	145.973	131.343	181.647	142.912	17.398	272.153	249.495	219.340	337.227	254.290	303.098	0.00077765	0.00041818	0.00012086	709.01	4.7268e-06	6.1182e-06	763.78	286.27	4.4735e-06	5.1575e-06	361.95	157.29	124.04	68.309	5.0083e-06	90.948	9.7318e-05	4.5564e-05	1.1295e-05	695.17	4.8559e-07	4.4214e-07	750.47	282.77	5.1943e-07	4.6826e-07	355.87	154.59	122.33	68.154	5.1195e-07	89.677	80.816	78.643	88.630	-2.407	111.987	121.223	-3.181	3.318	138.470	135.149	1.156	5.648	8.171	13.014	169.037	9.599	-8191	255	
1179.251	1	1	0	0	0.29318	0.33151	0.14963	0.12613	0.055498	0.17994	0.49557	0.25037	0.10993	0.094939	0.15271	0.05621	0.014983	0.22051	0.05002	0.42767	-2.9813	-2.7812	-3.2083	-3.3083	-2.7542	-3.5208	-2.9646	-3.0083	-3.6063	-2.9375	-3.4021	-3.3125	-2.9167	-3.4396	-2.9229	-2.8417	179.380	78.865	125.191	5.751	246.028	168.965	259.902	242.417	166.563	130.074	63.787	9.213	284.889	278.828	88.935	322.559	0.00074114	0.00052562	0.00015018	701.93	6.0424e-06	5.7928e-06	758.25	284.76	4.5363e-06	3.9769e-06	358.79	155.12	122.5	68.083	4.8485e-06	89.076	9.5262e-05	4.4052e-05	1.1539e-05	692.99	4.976e-07	4.509e-07	746.66	281.21	5.0351e-07	4.4848e-07	351.65	152.41	121.13	67.569	5.161e-07	87.845	83.201	82.328	83.839	-2.090	100.146	139.453	-3.312	3.022	144.079	149.906	1.031	5.800	8.100	12.591	154.955	8.972	-8191	255	
1179.347	1	1	0	0	0.19553	0.33611	0.29747	0.03152	0.10689	0.11279	0.14826	0.22729	0.045737	0.22535	0.13093	0.2437	0.12379	0.25532	0.14063	0.33777	-3.2083	-2.9604	-3.2604	-3.275	-2.7188	-3.3792	-3.1188	-2.9833	-3.4208	-2.7938	-3.2146	-3.4313	-2.8063	-3.3333	-2.9396	-3.0521	47.502	-1.021	315.059	241.055	104.442	194.625	327.326	306.236	183.099	336.820	307.256	338.250	216.794	330.295	47.639	235.348	0.0007822	0.0005399	0.00015034	697.14	4.2266e-06	6.2798e-06	743.86	280.53	3.6759e-06	3.8359e-06	355.77	152.95	121.22	66.89	3.5002e-06	88.087	9.6252e-05	4.1957e-05	1.1323e-05	686.64	4.9765e-07	4.2909e-07	735.66	278.33	4.7773e-07	4.424e-07	349.03	150.79	120.14	66.992	4.9873e-07	87.55	79.570	89.207	81.259	-2.356	122.615	126.505	-2.782	3.425	110.635	131.101	1.521	5.830	8.321	13.294	153.387	9.668	-8191	255	
1179.468	1	1	0	0	0.19496	0.13927	0.43099	0.15142	0.075571	0.15598	0.18769	0.2259	0.13394	0.22887	0.14834	0.15937	0.17064	0.20946	0.1724	0.22001	-3.0833	-2.7854	-3.2208	-3.3625	-2.8167	-3.1896	-3.125	-2.7646	-3.3208	-3.1104	-3.0479	-3.7188	-2.9188	-3.2625	-3.0542	-2.9792	220.145	139.871	186.017	297.307	293.021	222.234	275.215	299.865	326.867	96.168	252.725	58.324	266.858	261.838	343.635	315.080	0.00076809	0.00066855	0.00014552	699.44	5.4946e-06	7.8544e-06	754.04	283.23	4.6897e-06	5.9391e-06	355.59	154.68	122.81	68.404	5.3969e-06	90.396	9.5738e-05	4.4128e-05	1.1908e-05	686.92	4.8471e-07	4.2937e-07	740.59	279.53	4.796e-07	4.3817e-07	350.43	152.15	121.1	67.856	4.9508e-07	88.898	80.215	86.527	91.695	-2.315	109.082	130.711	-3.356	3.391	117.272	135.114	1.662	5.528	8.134	12.689	169.500	8.975	-8191	255	
1179.564	1	1	0	0	0.22563	0.19246	0.24567	0.077773	0.23154	0.12682	0.13813	0.18094	0.21158	0.067566	0.041419	0.31495	0.21835	0.46762	0.12868	0.36138	-3.0375	-2.8896	-2.9313	-3.5646	-2.7208	-3.3146	-3.4104	-2.8208	-3.3875	-3.025	-3.0875	-3.6688	-2.8563	-3.2938	-3.3083	-2.6813	214.956	99.382	54.779	132.818	18.185	48.865	305.653	-11.806	305.371	90.011	164.260	274.326	26.146	279.163	79.807	-13.671	0.00081217	0.00052252	0.00011797	698.28	5.8058e-06	4.0953e-06	750.37	285.38	3.6415e-06	4.4838e-06	360.99	156.13	123.35	69.2	4.1023e-06	90.757	9.8537e-05	4.0978e-05	1.1702e-05	687.65	4.955e-07	4.3907e-07	742.96	281.68	5.0191e-07	4.4073e-07	354.47	154.08	121.92	68.432	5.2866e-07	89.802	84.580	82.231	90.125	-2.391	92.316	117.901	-2.888	3.409	128.048	142.056	1.776	5.674	7.915	13.012	167.934	9.493	-8191	255	
1179.660	1	1	0	0	0.17863	0.10662	0.24624	0.18557	0.26807	0.31871	0.075847	0.1215	0.22113	0.22242	0.052359	0.13435	0.21157	0.33405	0.0069914	0.15288	-2.9771	-3.0875	-2.9688	-3.5208	-2.7042	-3.2271	-3.4188	-2.7146	-3.35	-3.0271	-2.7875	-3.5833	-3.0271	-3.0917	-3.5521	-2.9771	154.782	180.906	178.506	55.039	80.941	160.028	43.209	23.106	47.414	57.809	44.778	0.887	286.418	240.327	135.266	340.422	0.00085447	0.00060644	0.0001175	697.61	5.8444e-06	6.0227e-06	751.37	282.4	4.8856e-06	3.5137e-06	356.12	154.07	122.23	68.391	5.7793e-06	89.529	9.4262e-05	4.0795e-05	1.2236e-05	685.67	4.7254e-07	4.5112e-07	739.91	280.26	5.2582e-07	4.5494e-07	351.42	152.26	121.14	67.946	4.9978e-07	88.692	82.135	62.983	91.825	-2.153	107.200	143.523	-3.474	3.431	130.870	140.850	1.772	5.789	8.263	12.959	144.039	9.293	-8191	255	
1179.732	1	1	0	0	0.09927	0.28528	0.23185	0.30588	0.12689	0.1127	0.036542	0.16657	0.19642	0.082173	0.26621	0.11753	0.20661	0.22168	0.26674	0.2037	-2.8958	-2.8625	-2.6813	-3.4104	-3.0708	-2.8937	-3.5208	-2.9437	-3.1771	-3.075	-2.9167	-3.4854	-2.875	-3.1042	-3.1979	-2.6937	221.955	99.701	300.894	292.818	-4.643	-0.620	324.015	241.563	127.974	92.462	222.768	340.493	-8.598	7.126	12.212	236.153	0.00077588	0.00062709	0.00012852	694.43	5.9181e-06	5.4075e-06	746.66	281.75	4.587e-06	4.1012e-06	360.39	155.9	123.97	69.202	7.3523e-06	91.656	9.6018e-05	4.2535e-05	1.2119e-05	682.7	4.7915e-07	4.3985e-07	738.17	280.7	5.088e-07	4.6257e-07	352.79	153.25	122.27	68.434	5.3369e-07	89.571	80.416	82.309	100.465	-2.299	90.602	140.033	-3.027	3.807	134.312	124.419	1.067	5.604	7.851	12.543	157.390	8.806	-8191	255	
1179.853	1	1	0	0	0.18793	0.24676	0.10646	0.077222	0.065611	0.096764	0.24844	0.23425	0.20914	0.14973	0.15151	0.40981	0.15984	0.20219	0.088797	0.3181	-2.9042	-3.1021	-2.7604	-3.5646	-3.0292	-2.9604	-3.5042	-2.9146	-3.2042	-3.2062	-2.7625	-3.3771	-3.0938	-3.1604	-3.525	-3.2271	279.410	297.668	67.741	-11.308	246.979	9.787	114.379	306.360	315.430	-11.331	317.754	318.980	274.831	32.281	146.963	315.767	0.00076108	0.0005685	0.00017007	700.53	4.6205e-06	4.4061e-06	755.63	287.39	4.7989e-06	4.391e-06	364.12	156.61	124.66	69.508	5.5739e-06	91.239	9.5928e-05	4.1916e-05	1.2612e-05	685.21	5.0079e-07	4.63e-07	739.8	281.36	5.1794e-07	4.3449e-07	354.29	153.19	122.03	68.489	5.1035e-07	89.582	81.309	82.242	77.857	-3.154	83.389	143.865	-3.501	2.812	127.383	133.206	1.104	4.674	7.364	12.314	153.101	8.669	-8191	255	
1179.947	1	1	0	0	0.18645	0.13296	0.22695	0.1398	0.1845	0.039205	0.32641	0.22395	0.12885	0.22734	0.2889	0.21505	0.1905	0.18821	0.167	0.17858	-2.8083	-3.4396	-2.875	-3.3229	-3.1021	-3.0021	-3.4083	-3.1604	-3.25	-3.4583	-2.6396	-3.4	-3.2917	-2.9333	-3.3563	-3.0812	26.189	233.567	168.322	13.335	-10.903	108.621	274.044	236.075	341.076	154.329	307.308	281.209	313.483	332.133	262.009	283.286	0.00081208	0.00044883	0.00013586	698.84	6.263e-06	4.8234e-06	759.5	286.36	3.2163e-06	2.9097e-06	363.21	156.74	123.91	69.069	5.6199e-06	91.964	9.5581e-05	4.1698e-05	1.2275e-05	682.12	4.8058e-07	4.6071e-07	741.33	280.99	5.1623e-07	4.5561e-07	354.13	153.72	121.82	68.244	5.0548e-07	89.993	84.632	72.809	93.392	-2.669	117.272	125.636	-3.860	2.892	122.016	134.349	0.701	5.083	7.051	12.381	142.670	8.731	-8191	255	
1180.043	1	1	0	0	0.11746	0.17649	0.058069	0.30808	0.098805	0.22067	0.14127	0.22286	0.21528	0.20817	0.049246	0.16508	0.14449	0.012293	0.12727	0.42404	-2.575	-3.3625	-2.8667	-3.3542	-3.2062	-2.7021	-3.5187	-2.9562	-2.9313	-3.325	-3.2083	-3.2938	-3.3542	-2.6146	-3.3667	-3.1312	323.608	222.121	22.509	269.050	225.916	298.281	322.646	332.689	207.569	118.204	4.202	305.520	4.010	231.833	257.208	-7.063	0.00083273	0.00051177	0.00017133	694.9	4.4627e-06	5.1546e-06	755.69	284.8	3.6494e-06	4.3882e-06	358.81	154.58	123.69	68.615	5.8572e-06	90.196	9.816e-05	4.2474e-05	1.2152e-05	679.49	4.7518e-07	4.4393e-07	739.2	278.92	5.0918e-07	4.4407e-07	350.5	151.77	120.7	67.481	4.9264e-07	88.097	80.947	80.292	88.929	-3.182	88.800	122.920	-3.781	2.885	144.548	141.793	0.699	5.124	7.438	12.561	149.244	8.523	-8191	255	
1180.141	1	1	0	0	0.30359	0.19125	0.081908	0.13484	0.1334	0.055209	0.077942	0.1649	0.084728	0.056094	0.19723	0.18709	0.028655	0.11669	0.22417	0.30166	-2.475	-3.6063	-2.8396	-3.2646	-3.2812	-2.7479	-3.4208	-3.1333	-2.8979	-3.5833	-2.9625	-3.1083	-3.2604	-2.825	-3.5479	-3.3854	57.813	175.639	130.286	294.716	24.586	286.230	322.105	302.311	287.694	101.451	-4.752	277.788	240.464	318.653	207.065	305.598	0.00083669	0.00048097	0.00013564	699.53	5.0956e-06	6.2122e-06	754.4	282.35	5.5956e-06	3.6931e-06	358.65	155.22	123.38	68.693	6.2826e-06	91.038	9.8418e-05	4.2307e-05	1.1946e-05	680.56	4.7441e-07	4.4833e-07	736.28	277.9	5.1447e-07	4.2646e-07	350.33	151.87	120.47	67.478	5.3745e-07	88.747	77.237	75.745	89.853	-3.041	112.918	127.405	-3.709	2.649	134.308	158.330	0.992	4.883	7.326	11.988	156.638	8.428	-8191	255	
1180.260	1	1	0	0	0.17884	0.10287	0.16105	0.095088	0.17814	0.13636	0.16478	0.099111	0.11564	0.15841	0.12746	0.054293	0.074314	0.33274	0.22733	0.25447	-2.3625	-3.4333	-2.9646	-3.2708	-3.2729	-2.5396	-3.4542	-3.2938	-2.7542	-3.3458	-3.0333	-3.1667	-3.5521	-2.9583	-3.2188	-3.4104	74.664	203.757	264.002	220.010	240.269	296.915	265.930	188.295	-3.203	260.047	336.180	242.875	150.302	237.577	170.838	273.220	0.000789	0.00045822	0.00013438	698.76	4.8339e-06	6.1516e-06	756.4	283.83	3.0247e-06	4.5855e-06	360.33	155.38	122.84	68.427	5.695e-06	91.226	9.6528e-05	4.15e-05	1.1501e-05	680.15	4.6477e-07	4.582e-07	740.33	278.63	5.2136e-07	4.0668e-07	351.28	152.77	120.82	67.587	5.1245e-07	89.3	81.745	103.849	79.786	-3.096	93.631	129.256	-3.772	2.823	104.670	142.047	0.984	5.260	7.710	12.681	151.854	8.907	-8191	255	
1180.356	1	1	0	0	0.045968	0.13899	0.079837	0.19036	0.15981	0.081263	0.16216	0.23573	0.22194	0.23091	0.39945	0.14974	0.072325	0.35489	0.12992	0.12238	-2.3417	-3.3958	-3.1417	-3.1292	-3.4271	-2.8063	-3.2938	-3.3312	-2.8083	-3.4	-3.2333	-3.2	-3.6292	-2.9542	-3.2562	-3.4938	217.693	-9.126	89.363	238.896	107.096	-1.209	5.108	331.545	-1.477	147.914	9.732	277.857	142.317	342.672	-5.427	-13.040	0.00079762	0.00061075	0.00018042	696.87	4.9237e-06	5.2597e-06	757.2	282.27	5.026e-06	5.2451e-06	359	155.39	122.57	68.046	3.7274e-06	91.564	9.5576e-05	4.1683e-05	1.1555e-05	679.81	4.6367e-07	4.413e-07	741.23	277.35	5.1712e-07	4.0858e-07	351.1	153.15	120.33	67.425	5.1721e-07	89.609	80.351	84.020	87.761	-3.189	88.550	132.525	-3.862	3.313	134.872	141.465	1.354	5.386	7.676	12.480	158.963	8.872	-8191	255	
1180.428	1	1	0	0	0.032691	0.29558	0.38402	0.29173	0.089834	0.097483	0.29208	0.17256	0.22436	0.18259	0.12638	0.1954	0.19233	0.17208	0.11629	0.28427	-2.4396	-3.2313	-2.7729	-2.8917	-3.4833	-2.9646	-3.3208	-3.3438	-2.6229	-3.275	-3.2125	-2.95	-3.7708	-2.8667	-3.1229	-3.6375	220.114	148.309	112.026	267.886	114.281	137.352	315.454	315.272	310.983	125.964	314.886	-1.898	260.345	343.436	-6.738	39.427	0.0008286	0.00053801	0.00012763	693.34	5.7462e-06	3.7309e-06	757.53	282.52	4.9811e-06	4.9686e-06	361.72	156.57	122.75	68.748	4.5357e-06	91.353	9.6737e-05	4.2074e-05	1.1129e-05	678.89	4.613e-07	4.2318e-07	741.26	277.64	5.0973e-07	4.336e-07	352.34	153.43	121.08	67.823	5.1073e-07	89.675	81.065	69.741	98.290	-2.938	99.707	124.571	-3.628	2.859	120.682	135.745	1.113	5.189	7.840	12.686	156.748	9.197	-8191	255	
1180.548	1	1	0	0	0.12556	0.17119	0.18589	0.13019	0.12585	0.016786	0.085539	0.086276	0.15808	0.13859	0.14783	0.20132	0.17985	0.19493	0.081162	0.17144	-2.3	-3.25	-3.2333	-2.9604	-3.5667	-3.0354	-3.0375	-3.3854	-2.8292	-3.3688	-3.2396	-2.8021	-3.4771	-3.0396	-3.0167	-3.5583	172.498	194.354	165.593	305.659	212.589	163.630	112.955	343.757	4.751	-2.164	265.424	272.620	51.835	280.407	199.135	310.135	0.00078209	0.00048918	0.00016141	693.3	4.7127e-06	6.2742e-06	756.88	280.68	4.4785e-06	4.7776e-06	360.14	155.49	122.12	68.053	5.9099e-06	90.561	9.8127e-05	4.0856e-05	1.1111e-05	679.16	4.4577e-07	4.3277e-07	742.22	277.7	4.9194e-07	4.5004e-07	352.29	153.81	121.06	67.671	5.3142e-07	89.638	82.780	83.378	89.125	-3.070	101.899	119.564	-3.967	3.194	147.721	132.099	1.720	5.440	7.972	13.256	150.292	9.624	-8191	255	
1180.644	1	1	0	0	0.084311	0.19907	0.22125	0.099937	0.10061	0.19485	0.041637	0.026667	0.073812	0.0090921	0.16455	0.36264	0.12977	0.053883	0.087241	0.1597	-2.4354	-3.025	-3.3479	-2.8083	-3.3792	-3.1125	-3.2938	-3.5687	-3.0687	-3.2313	-3.3021	-2.8833	-3.4854	-3.1979	-2.7167	-3.6896	123.320	153.539	185.038	19.815	231.530	269.145	282.803	87.766	303.878	216.701	-6.170	331.800	20.637	308.299	78.676	336.908	0.00077662	0.00053356	0.00016494	694.5	5.7041e-06	4.874e-06	754.84	280.51	3.3831e-06	3.5566e-06	355.59	155.7	121.88	68.152	4.3923e-06	91.52	9.4481e-05	4.2525e-05	1.1263e-05	681.03	4.5127e-07	4.4002e-07	742.2	277.38	4.7503e-07	4.5338e-07	351.12	153.77	120.39	67.598	5.2434e-07	89.94	83.224	80.464	88.937	-2.592	109.834	138.304	-3.202	3.490	101.560	154.351	1.584	5.532	7.923	13.022	161.975	9.043	-8191	255	
1180.741	1	1	0	0	0.12199	0.25796	0.10946	0.15101	0.11544	0.14584	0.23469	0.13952	0.29313	0.15139	0.19358	0.13387	0.12447	0.15426	0.080281	0.15184	-2.5396	-3.1521	-3.2354	-2.7833	-3.5875	-3.2375	-3.0042	-3.6583	-2.9688	-3.0583	-3.5896	-3.0625	-3.4646	-3.3479	-2.9021	-3.7479	308.267	310.173	46.687	320.960	284.628	155.111	237.958	37.668	58.696	327.321	78.228	339.471	322.575	16.708	175.332	305.368	0.00078057	0.00057972	0.00014436	689.46	6.3329e-06	5.9047e-06	752.42	281.19	4.6931e-06	4.575e-06	361.06	157.49	121.98	68.239	5.9675e-06	91.828	9.4267e-05	4.1617e-05	1.1044e-05	679.27	4.6009e-07	4.3406e-07	741.97	276.53	4.9976e-07	4.3382e-07	352.03	154.18	120.27	67.316	5.0681e-07	89.786	80.776	79.098	82.419	-2.381	107.576	128.914	-3.165	3.152	119.417	140.643	1.116	5.176	7.775	12.737	143.161	8.407	-8191	255	
1180.861	1	1	0	0	0.12641	0.20315	0.048609	0.12643	0.01136	0.02384	0.083944	0.21784	0.1474	0.17294	0.32856	0.29788	0.083639	0.30934	0.22272	0.43392	-2.5458	-2.7188	-3.15	-2.8708	-3.2958	-3.3521	-2.9938	-3.4896	-2.9688	-3.0938	-3.6771	-3.1688	-3.3812	-3.2375	-2.7021	-3.6479	141.059	-12.302	202.263	138.601	71.755	317.243	119.487	312.483	36.689	26.378	233.998	302.178	46.495	-0.102	204.197	272.159	0.00074573	0.000467	0.00017295	697.06	5.4808e-06	4.3341e-06	756.11	280.5	4.6505e-06	4.8324e-06	358.16	155.93	121.6	67.888	4.9707e-06	90.382	9.381e-05	4.2759e-05	1.081e-05	679.67	4.5882e-07	4.1844e-07	739.3	275.23	4.9034e-07	4.2373e-07	349.11	152.64	119.54	66.985	5.2285e-07	88.61	83.217	78.278	82.732	-3.221	105.253	137.858	-3.697	2.748	132.537	142.978	0.927	5.112	7.239	12.400	150.449	8.704	-8191	255	
1180.956	1	1	0	0	0.21429	0.080102	0.041555	0.18572	0.11883	0.25837	0.16679	0.29886	0.23732	0.30109	0.13668	0.22802	0.25288	0.17344	0.086777	0.11591	-2.6083	-2.9917	-3.5417	-2.7396	-3.0521	-3.375	-2.8917	-3.2562	-3.0312	-2.925	-3.6792	-3.0563	-2.9146	-3.5542	-2.8604	-3.3542	263.396	268.366	38.190	52.071	258.731	313.352	335.122	270.286	103.583	186.573	293.825	166.765	340.374	300.411	76.148	331.141	0.00080552	0.00045386	0.00010014	694.91	6.599e-06	5.9707e-06	756.32	281.61	4.3411e-06	4.3628e-06	359.25	156.61	122.58	68.429	5.7215e-06	91.661	9.509e-05	4.1323e-05	1.1003e-05	676.71	4.6405e-07	4.0768e-07	738.33	274.87	4.839e-07	4.3326e-07	348.22	152.77	119.86	67.091	5.2246e-07	89.221	77.760	87.926	94.987	-3.137	94.242	133.587	-4.042	2.430	116.961	137.080	0.778	4.902	7.173	12.106	142.491	8.245	-8191	255	
1181.029	1	1	0	0	0.22101	0.32837	0.14903	0.11916	0.049872	0.11619	0.12537	0.2604	0.12769	0.15777	0.21216	0.18599	0.059925	0.32711	0.18948	0.20221	-2.4917	-2.7562	-3.5958	-2.9021	-3.0125	-3.3646	-2.9542	-3.5396	-3.1521	-2.9604	-3.5729	-3.1125	-3.1937	-3.4813	-2.9	-3.3	164.450	141.091	306.798	303.620	160.922	18.064	330.616	229.441	311.736	70.103	18.722	333.451	112.335	302.417	166.738	262.198	0.00081325	0.00048928	0.00014546	703.05	5.0096e-06	5.7559e-06	763.38	282.45	4.31e-06	4.8413e-06	360.19	157.23	122	68.367	4.9186e-06	91.78	9.6147e-05	4.3068e-05	1.0821e-05	680.38	4.7518e-07	4.2374e-07	742.17	275.71	4.9387e-07	4.5522e-07	350.18	153.5	119.54	67.039	4.9917e-07	89.37	79.611	74.814	87.723	-3.430	103.258	136.726	-4.307	2.447	114.539	141.967	0.549	4.843	6.980	12.098	170.030	8.213	-8191	255	
1181.148	1	1	0	0	0.14486	0.32141	0.1341	0.16954	0.14104	0.19237	0.1482	0.17527	0.11944	0.07286	0.19943	0.25807	0.158	0.10781	0.23445	0.11135	-2.6479	-2.7625	-3.5708	-3.0542	-2.8458	-3.3604	-2.8604	-3.3958	-3.2271	-2.9292	-3.4125	-2.9062	-2.8604	-3.5687	-2.9354	-3.1354	206.718	157.695	281.579	283.645	298.500	57.949	244.463	233.246	52.973	85.423	8.375	313.726	-10.438	212.385	208.361	329.027	0.00075284	0.00056408	0.00011338	696.13	5.7497e-06	4.9508e-06	767.84	282.52	3.3936e-06	4.9028e-06	360.99	157.29	122.13	67.903	5.3351e-06	91.216	9.3172e-05	4.1308e-05	1.1017e-05	678.33	4.8741e-07	4.0835e-07	744.49	275.73	4.6902e-07	4.0997e-07	350.42	153.38	119.35	66.889	5.0963e-07	88.928	77.658	80.612	87.937	-3.285	103.901	121.939	-4.339	2.265	133.390	132.930	0.512	4.904	7.106	12.087	166.812	8.196	-8191	255	
1181.244	1	1	0	0	0.12316	0.14917	0.19785	0.13646	0.19079	0.045725	0.17298	0.20206	0.19331	0.18549	0.17489	0.13777	0.23883	0.33983	0.11518	0.16916	-2.9021	-2.75	-3.3917	-3.0479	-2.9688	-3.4333	-3.0979	-3.1813	-3.5312	-3.0229	-3.5958	-3.4417	-2.8396	-3.4979	-2.9583	-3.1396	227.305	38.152	284.889	18.834	108.049	266.165	25.006	261.531	-12.775	-6.471	227.721	274.904	306.502	243.783	14.511	247.171	0.00075972	0.00060296	0.00011489	696.73	5.6233e-06	3.671e-06	762.55	280.75	3.3905e-06	3.5077e-06	358.05	155.36	121.12	67.443	4.7238e-06	89.819	9.2477e-05	4.1485e-05	1.1422e-05	677.14	4.7628e-07	4.1855e-07	739.91	273.59	4.9167e-07	4.1103e-07	346.23	150.93	118.11	66.031	4.6963e-07	87.484	79.788	79.880	87.009	-3.426	96.854	135.251	-4.376	2.218	138.502	123.431	0.536	4.548	6.741	11.887	183.037	8.040	-8191	255	
1181.340	1	1	0	0	0.12931	0.090234	0.24098	0.18029	0.18321	0.30025	0.31048	0.13056	0.21596	0.17587	0.21679	0.16184	0.096659	0.0035569	0.1359	0.31682	-3.0438	-2.7938	-3.25	-3.1458	-2.7292	-3.4646	-3.1417	-3.1875	-3.5167	-2.7208	-3.3396	-3.2625	-2.7667	-3.6104	-3.0208	-3.0729	38.184	42.351	134.896	293.711	31.624	280.821	266.583	226.602	323.801	289.867	-2.852	216.135	334.958	155.168	133.333	299.956	0.00077055	0.00047534	0.00015847	696.91	6.3476e-06	5.903e-06	759.06	277.22	3.4854e-06	4.6475e-06	357.33	155.95	120.87	67.189	4.9165e-06	89.931	9.2853e-05	4.0384e-05	1.1521e-05	675.06	4.5921e-07	3.9842e-07	736.88	271.96	4.7167e-07	4.3694e-07	346.14	151.23	117.94	65.842	4.8988e-07	87.694	78.122	74.003	100.192	-3.728	107.204	116.503	-4.531	2.267	120.353	141.496	0.165	4.608	6.916	11.732	176.216	8.130	-8191	255	
1181.436	1	1	0	0	0.025226	0.15233	0.13645	0.13918	0.28324	0.070726	0.077011	0.091069	0.09691	0.083614	0.11635	0.09659	0.17138	0.2661	0.15797	0.15887	-3.0333	-2.6125	-3.2021	-3.575	-2.9146	-3.4188	-3.3646	-3.1188	-3.5542	-2.9313	-3.3396	-3.3896	-2.7354	-3.6	-3.2792	-2.8625	49.485	298.094	230.324	296.915	221.675	223.228	-13.197	293.310	142.355	61.697	129.205	9.927	156.537	295.558	253.031	192.468	0.00076718	0.00049349	0.00014511	698.61	6.7152e-06	6.2263e-06	758.75	278.76	3.5009e-06	4.4432e-06	358.41	156.09	120.34	67.301	4.6226e-06	90.495	9.1287e-05	4.111e-05	1.1401e-05	674.29	4.4164e-07	4.3127e-07	739.05	272.09	4.3873e-07	4.2229e-07	347.15	151.29	117.91	65.907	4.8932e-07	88.033	84.256	70.530	101.873	-3.380	93.401	123.155	-4.238	1.880	123.650	133.085	0.347	4.666	6.857	11.792	178.306	8.002	-8191	255	
1181.557	1	1	0	0	0.091608	0.18855	0.22136	0.11692	0.41616	0.18171	0.13397	0.16713	0.10417	0.092359	0.062365	0.21174	0.31866	0.20054	0.10753	0.27183	-3.0687	-3.0208	-2.9188	-3.4521	-2.6833	-3.2625	-3.1542	-2.9313	-3.6167	-2.9521	-3.3917	-3.5292	-2.7729	-3.2687	-3.1583	-3.1375	144.803	136.213	67.169	32.505	303.828	297.371	307.211	23.073	5.272	102.030	334.833	212.648	317.168	286.996	294.321	192.172	0.00081977	0.00046689	0.00015927	695.02	5.9334e-06	3.9984e-06	763.04	277.67	4.6363e-06	4.2607e-06	358.28	155.01	120.46	66.602	5.9822e-06	89.439	9.3667e-05	4.0171e-05	1.1478e-05	674.93	4.6119e-07	4.2034e-07	740.27	271.25	4.8054e-07	4.2457e-07	346.51	150.72	117.35	65.458	4.4745e-07	87.194	77.787	89.076	89.849	-3.565	111.787	103.479	-4.078	2.278	133.741	127.591	0.554	4.476	6.888	12.073	151.517	8.368	-8191	255	
1181.653	1	1	0	0	0.2614	0.073054	0.097988	0.052181	0.17571	0.089217	0.21956	0.27998	0.27673	0.022107	0.090089	0.089415	0.25188	0.28702	0.060613	0.23275	-3.4188	-2.825	-3.0021	-3.4229	-2.7917	-3.0875	-3.3771	-2.8979	-3.5292	-3.3521	-3.1792	-3.6437	-2.8083	-3.0958	-3.3458	-2.7646	177.358	209.573	241.973	299.911	36.763	277.954	-13.044	-7.707	277.296	262.770	292.186	270.310	-13.613	177.257	138.261	323.937	0.00077628	0.00049145	0.0001328	691.56	5.1409e-06	5.8665e-06	750.97	274.93	4.0108e-06	4.0864e-06	349.22	152.32	119.39	66.463	5.9466e-06	88.701	9.2606e-05	3.9852e-05	1.1333e-05	671.64	4.4367e-07	4.1342e-07	732.62	269.09	4.7271e-07	4.21e-07	341.32	148.74	116.48	65.064	4.9331e-07	86.437	80.150	73.687	104.622	-3.503	104.263	140.970	-4.226	2.157	124.455	137.199	0.247	4.639	7.238	11.988	168.659	8.491	-8191	255	
1181.725	1	1	0	0	0.13713	0.15503	0.16169	0.13038	0.10177	0.078502	0.15277	0.16237	0.36846	0.16437	0.36916	0.28332	0.10837	0.17279	0.079298	0.25336	-3.0917	-2.8917	-2.8021	-3.4792	-2.8646	-3.2125	-3.4667	-2.8771	-3.6021	-3.3563	-2.8979	-3.4917	-3.0146	-3.3063	-3.4062	-2.9813	332.600	112.552	126.321	322.125	143.939	194.111	323.059	253.367	297.677	189.291	283.385	333.113	307.217	235.436	46.272	342.520	0.00075079	0.00049253	0.0001267	687.16	5.7176e-06	4.4007e-06	751.41	275.13	4.2868e-06	5.1397e-06	354.11	153.7	119.48	66.462	5.45e-06	88.825	9.2782e-05	4.0212e-05	1.1283e-05	670.71	4.4296e-07	4.3037e-07	732.55	268.86	4.7316e-07	4.0378e-07	342.72	149.66	116.61	65.168	4.7831e-07	86.868	82.365	78.592	80.886	-3.128	100.255	136.767	-4.196	2.465	120.295	128.550	0.360	4.775	6.795	11.958	151.297	8.360	-8191	255	
1181.821	1	1	0	0	0.2406	0.10501	0.21883	0.18019	0.04943	0.22006	0.27756	0.10375	0.15602	0.31666	0.22407	0.17224	0.24404	0.14072	0.26686	0.24182	-2.7292	-3.1333	-2.7438	-3.8125	-2.9167	-2.9729	-3.4833	-3.1583	-3.2021	-3.2729	-2.9	-3.4729	-2.9667	-3.1958	-3.4083	-3.0271	58.847	23.267	256.920	70.961	251.347	295.320	295.580	-11.814	111.200	312.050	-3.155	220.233	313.110	310.252	20.061	322.772	0.00075681	0.00059718	0.00012147	690.76	4.8593e-06	5.418e-06	753.02	275.62	5.1608e-06	4.5208e-06	353.78	154.57	120.09	66.178	5.2219e-06	89.537	9.1977e-05	3.9268e-05	1.0934e-05	671.81	4.4081e-07	4.2608e-07	735.29	270.05	4.899e-07	4.0445e-07	344.72	150.67	117.15	65.242	4.8191e-07	87.537	80.745	69.258	87.941	-3.178	89.318	120.379	-3.949	2.517	124.806	140.205	0.774	4.820	7.073	12.313	158.092	8.616	-8191	255	
1181.940	1	1	0	0	0.012404	0.094797	0.31907	0.27866	0.25836	0.38936	0.31785	0.15653	0.12175	0.084552	0.062759	0.30084	0.071169	0.13606	0.11896	0.28207	-2.6979	-3.2438	-2.7167	-3.5938	-3.1771	-2.95	-3.5271	-2.8896	-3.35	-3.5167	-2.8396	-3.4542	-3.2271	-3.0146	-3.4979	-2.9167	33.994	173.915	252.408	-0.283	-8.577	140.057	242.233	308.662	149.566	222.631	99.207	326.832	269.032	293.373	-4.731	324.689	0.00075421	0.00063804	0.00015408	687.09	4.9009e-06	6.2716e-06	756.16	276.95	3.6559e-06	4.5137e-06	355.31	155.31	119.75	66.543	5.7673e-06	89.486	9.3467e-05	4.0607e-05	1.1559e-05	670.91	4.488e-07	4.4682e-07	739.25	270.01	4.9343e-07	4.1577e-07	345.18	151.02	117.32	65.503	4.9154e-07	87.464	82.986	68.728	87.578	-3.186	107.071	126.295	-4.036	2.540	129.972	141.659	0.525	4.664	7.507	12.342	145.377	8.440	-8191	255	
1182.036	1	1	0	0	0.013172	0.11712	0.18086	0.21827	0.19985	0.096935	0.17852	0.068632	0.10302	0.067371	0.10437	0.14404	0.045994	0.23328	0.054525	0.23303	-2.7583	-3.175	-2.8917	-3.6333	-3.1271	-2.8354	-3.7583	-3.0479	-3.1188	-3.4792	-2.6625	-3.5167	-3.3458	-2.8521	-3.3979	-3.1792	321.313	-1.683	42.309	25.222	219.345	210.780	189.031	226.297	266.017	289.970	121.304	318.464	70.393	333.221	282.973	274.920	0.00077607	0.00031577	0.00012442	692.4	6.1732e-06	5.8108e-06	754.65	275.09	4.2405e-06	4.6996e-06	353.01	155.08	120.41	66.922	4.4736e-06	89.855	9.2558e-05	3.764e-05	1.0712e-05	672.77	4.5662e-07	4.3617e-07	736.98	270.37	5.0472e-07	3.9632e-07	344.4	151	117.5	65.54	5.0155e-07	87.623	79.558	69.707	100.330	-3.641	107.543	144.715	-4.022	2.453	144.097	143.471	0.546	4.752	7.379	11.786	155.989	8.394	-8191	255	
1182.132	1	1	0	0	0.12075	0.22354	0.059099	0.18035	0.20375	0.0868	0.083747	0.21903	0.096096	0.17327	0.15657	0.29244	0.10112	0.20483	0.17459	0.14062	-2.6688	-3.4938	-2.725	-3.3688	-3.1729	-2.9813	-3.6063	-3.1146	-3.0375	-3.3542	-2.9313	-3.4354	-3.4021	-2.8521	-3.5187	-3.3104	246.416	30.097	133.597	-4.494	102.456	69.879	342.283	76.279	214.899	253.681	300.639	302.110	58.606	-5.049	328.077	298.371	0.00073574	0.00042972	0.00011387	692.04	6.594e-06	4.2969e-06	759.12	275.88	4.157e-06	3.9382e-06	354.95	155.61	120.48	66.896	5.2539e-06	90.195	9.3853e-05	4.0247e-05	1.1752e-05	673.16	4.3365e-07	4.2898e-07	739.46	269.99	5.0759e-07	4.0161e-07	345.83	151.36	117.68	65.677	4.7267e-07	87.927	76.065	64.285	91.727	-2.954	110.206	120.224	-3.906	2.575	116.425	135.301	0.443	4.750	7.333	12.129	147.427	8.668	-8191	255	
1182.228	1	1	0	0	0.17097	0.04851	0.20233	0.13307	0.10989	0.10618	0.20206	0.22709	0.072056	0.26583	0.16031	0.18493	0.28658	0.18294	0.24068	0.23466	-2.5667	-3.5708	-2.8354	-3.1375	-3.5708	-2.8	-3.5167	-3.0896	-2.9667	-3.5062	-3.0792	-3.4083	-3.3271	-2.7771	-3.4354	-3.4708	116.295	83.974	7.624	262.286	174.111	172.056	-5.402	241.115	165.130	331.304	-13.795	263.020	20.077	311.946	179.728	320.756	0.00078522	0.00055584	0.000139	691.27	6.6288e-06	3.9521e-06	758.91	275.67	3.2807e-06	4.4444e-06	357.1	155.32	120.26	66.856	4.6502e-06	90.396	9.441e-05	3.7604e-05	1.1436e-05	674.04	4.6389e-07	4.4381e-07	741.96	270.51	4.8985e-07	4.0819e-07	346.95	151.68	117.74	65.726	4.9049e-07	88.376	82.075	79.221	86.699	-3.217	90.393	133.515	-4.036	2.684	134.173	128.184	0.585	4.653	7.401	11.896	154.510	8.420	-8191	255	
1182.324	1	1	0	0	0.10132	0.22386	0.090191	0.20921	0.050962	0.052075	0.20553	0.46154	0.049461	0.17948	0.19603	0.05419	0.13131	0.17498	0.098715	0.077174	-2.4604	-3.3104	-2.8	-3.0833	-3.4583	-3.0042	-3.5333	-3.3396	-2.8479	-3.5563	-3.0896	-3.1854	-3.5708	-2.8917	-3.225	-3.3167	65.301	103.665	140.976	-4.933	237.256	313.398	261.448	300.324	327.912	275.558	62.658	69.729	1.384	301.832	64.927	275.732	0.00079236	0.00055444	0.0001326	693.45	4.6836e-06	5.9956e-06	758.69	275.82	3.7911e-06	4.1828e-06	356.66	155.38	120.38	66.515	4.1627e-06	89.841	9.3215e-05	3.8959e-05	1.0943e-05	673.57	4.4522e-07	4.3366e-07	741.91	270.82	4.7222e-07	4.0234e-07	346.74	151.67	117.64	65.759	4.8634e-07	87.847	80.665	90.510	93.119	-3.302	108.931	126.991	-3.956	2.883	124.597	135.845	0.916	4.804	7.367	12.300	143.962	8.514	-8191	255	
1182.421	1	1	0	0	0.099113	0.082886	0.066488	0.17122	0.20909	0.20806	0.045064	0.17312	0.18218	0.036177	0.1526	0.40116	0.18392	0.19611	0.253	0.11378	-2.6125	-3.6042	-3.1542	-3.0125	-3.4062	-2.7458	-3.2833	-3.35	-2.9458	-3.4583	-3.1479	-2.7687	-3.5896	-3.0521	-3.2104	-3.6646	64.080	265.115	225.910	251.380	192.974	-3.148	27.391	137.654	156.764	130.211	223.482	335.968	257.580	339.274	278.781	303.336	0.00077913	0.00051478	0.00015181	692.85	5.5699e-06	5.852e-06	757.03	277.64	3.9353e-06	4.9387e-06	355.73	155.12	121.48	67.004	4.8268e-06	90.072	9.3343e-05	3.8822e-05	1.0876e-05	674.49	4.3739e-07	4.2458e-07	742.2	272.25	4.9354e-07	4.0211e-07	347.06	151.81	118.51	66.118	4.7953e-07	88.259	81.618	66.624	92.816	-3.445	105.914	132.955	-3.815	2.658	127.422	147.404	0.596	4.889	7.230	12.337	177.738	8.589	-8191	255	
1182.541	1	1	0	0	0.15435	0.19105	0.068463	0.12347	0.23972	0.11402	0.11627	0.17153	0.18653	0.32166	0.28736	0.16594	0.055398	0.022791	0.03805	0.36549	-2.4708	-3.3438	-3.0438	-3.0187	-3.5062	-2.9521	-3.3229	-3.2375	-2.6125	-3.25	-3.2979	-3.0729	-3.4042	-3.1896	-3.2188	-3.3708	47.274	133.596	268.702	319.959	145.650	1.239	-6.033	264.198	72.470	175.382	0.839	44.942	141.189	152.953	234.502	270.065	0.00076114	0.00049434	0.00012231	692.19	5.5785e-06	4.282e-06	759.24	277.89	4.3123e-06	4.0594e-06	358.27	156.48	121.11	67.082	5.2999e-06	90.221	9.3186e-05	4.047e-05	1.0892e-05	674.34	4.2908e-07	4.1866e-07	743.95	272.01	4.8285e-07	3.8489e-07	348.29	152.49	118.56	66.12	4.9901e-07	88.305	78.535	88.868	73.647	-3.186	103.621	131.261	-3.769	2.428	127.772	130.972	0.523	4.813	7.362	12.475	153.190	8.788	-8191	255	
1182.637	1	1	0	0	0.16725	0.20037	0.12037	0.22191	0.25359	0.21897	0.25554	0.13525	0.055204	0.079557	0.11814	0.050717	0.25332	0.13723	0.15909	0.16824	-2.4208	-3.1896	-3.2646	-2.9604	-3.4479	-3.0042	-3	-3.375	-2.9938	-3.3729	-3.3479	-2.8563	-3.5479	-3.1208	-2.8083	-3.5083	173.063	94.883	98.295	141.847	329.827	15.965	175.331	123.390	152.669	-13.584	41.866	177.439	250.351	19.767	152.224	275.163	0.00074589	0.00056321	0.0001309	692.73	4.3113e-06	5.5293e-06	758.38	275.63	4.762e-06	3.2805e-06	357.88	155.23	119.52	66.393	4.903e-06	90.066	9.2725e-05	4.044e-05	1.0774e-05	675.71	4.2291e-07	4.1978e-07	743.47	270.91	4.8059e-07	4.2151e-07	347.81	152.21	117.58	65.573	4.886e-07	88.318	81.851	76.107	107.299	-3.149	114.640	125.408	-3.524	2.912	139.301	147.270	1.138	5.315	7.542	12.731	149.251	8.854	-8191	255	
1182.734	1	1	0	0	0.031872	0.23555	0.044139	0.19934	0.25456	0.048597	0.13738	0.13862	0.094374	0.076041	0.16908	0.13685	0.077058	0.091734	0.19189	0.051621	-2.2979	-3.1917	-3.3021	-2.7229	-3.2604	-2.9521	-2.9521	-3.7396	-3.0417	-3.4146	-3.6125	-3.0125	-3.4938	-3.2	-3.0521	-3.6937	299.201	25.431	141.756	299.654	12.253	170.340	35.762	305.364	81.700	211.519	205.455	235.193	64.721	248.799	258.800	35.194	0.00074869	0.00055804	0.00018309	685.66	4.725e-06	5.3967e-06	755.51	274.44	4.2677e-06	4.6881e-06	356.14	154.78	119.75	65.956	6.3091e-06	88.62	9.162e-05	4.2571e-05	1.0528e-05	673.31	4.5695e-07	4.0523e-07	742.96	270.7	4.9541e-07	4.2736e-07	346.96	151.8	117.7	65.567	5.0703e-07	87.555	81.204	83.251	80.224	-2.722	105.942	148.029	-3.246	3.106	128.242	136.807	1.108	5.259	7.971	12.903	162.320	9.330	-8191	255	
1182.830	1	1	0	0	0.051348	0.19585	0.028052	0.31182	0.099301	0.17972	0.11091	0.18043	0.20323	0.22756	0.12291	0.10132	0.43166	0.19163	0.22507	0.20599	-2.5521	-3.075	-3.4396	-2.7938	-3.3729	-2.9729	-2.9083	-3.4458	-2.8667	-3.2021	-3.5104	-2.8583	-3.2646	-3.3146	-2.9	-3.6437	345.233	126.700	131.869	1.912	180.359	206.472	337.788	302.727	322.251	127.624	113.119	293.060	309.675	-1.881	235.113	275.943	0.00076058	0.00056006	0.00012395	682.65	6.1576e-06	4.9172e-06	750.62	270.68	4.4059e-06	4.9667e-06	350.05	153.02	118.66	65.996	4.3282e-06	88.782	9.2629e-05	3.8867e-05	1.0391e-05	672.21	4.526e-07	4.2575e-07	741	269.11	4.6181e-07	4.1861e-07	344.78	151.17	117.31	65.498	4.7748e-07	87.725	82.424	75.939	101.933	-2.550	102.325	108.272	-3.120	3.520	127.725	155.347	1.536	5.649	7.497	12.990	156.750	9.615	-8191	255	
1182.926	1	1	0	0	0.20157	0.13863	0.12547	0.1263	0.19525	0.23003	0.45537	0.14029	0.1403	0.050138	0.28187	0.19001	0.29092	0.48039	0.20761	0.27007	-2.4021	-2.8625	-3.3688	-2.9667	-3.3333	-3.3396	-3.0687	-3.4875	-2.9021	-3.0917	-3.6125	-2.8896	-3.4354	-3.3417	-2.8542	-3.5146	229.026	125.446	182.979	151.249	76.530	4.611	282.821	22.121	259.175	-2.181	308.890	334.118	317.210	329.911	195.725	285.922	0.0008153	0.0005856	0.00012046	681.81	5.488e-06	4.6342e-06	753.06	272.39	4.1885e-06	4.3097e-06	354.92	154.35	119.37	66.2	6.0871e-06	89.599	9.2387e-05	4.0567e-05	1.0825e-05	671.18	4.3117e-07	3.9781e-07	742.34	270.28	4.7508e-07	4.3037e-07	348.08	152.18	117.84	65.688	4.9325e-07	88.331	81.252	80.288	86.852	-1.966	112.116	124.840	-3.240	3.822	135.525	130.685	1.344	5.691	7.750	13.058	147.454	9.375	-8191	255	
1183.020	1	1	0	0	0.21257	0.17755	0.12052	0.15185	0.033223	0.098028	0.37734	0.15128	0.11509	0.090292	0.088508	0.17948	0.14076	0.090549	0.31008	0.10457	-2.75	-2.7792	-3.3187	-2.9042	-3.2604	-3.4771	-3.0604	-3.4188	-3.1312	-2.75	-3.6083	-2.8688	-3.3708	-3.4896	-2.6958	-3.1562	211.923	128.617	324.112	336.639	324.344	228.786	330.189	252.058	236.365	339.999	314.268	270.037	4.219	14.781	16.941	304.945	0.0008112	0.00059052	0.00012947	684.34	4.2745e-06	6.6542e-06	755.31	274.87	4.8675e-06	4.2058e-06	355.65	154.43	119.22	66.361	6.3943e-06	89.62	9.153e-05	4.1571e-05	1.1107e-05	672.98	4.4191e-07	4.1248e-07	742.71	270.98	4.7762e-07	4.3939e-07	347.64	152.12	117.39	65.652	5.1151e-07	88.191	86.165	88.095	98.095	-2.444	114.953	125.236	-3.354	3.320	124.271	141.789	1.443	5.695	7.691	12.747	150.496	9.230	-8191	255	
1183.116	1	1	0	0	0.10817	0.12042	0.32932	0.046297	0.057421	0.20092	0.099262	0.19573	0.033657	0.22633	0.20829	0.29335	0.11849	0.13517	0.19803	0.10362	-2.8667	-2.7667	-3.4979	-3.1063	-3.0896	-3.5375	-3.0125	-3.3667	-3.1896	-3.0625	-3.5979	-3.2708	-3.1979	-3.3438	-2.7792	-3.3625	56.637	185.106	262.910	174.615	72.402	148.836	0.641	40.908	86.144	24.987	73.932	324.275	97.866	-5.288	288.795	220.213	0.00080058	0.00052379	0.0001421	684.4	5.8087e-06	4.6765e-06	750.24	272.13	4.6402e-06	5.8565e-06	353.11	153.86	118.63	65.798	4.4937e-06	88.195	9.3072e-05	3.9872e-05	1.0267e-05	672.93	4.4786e-07	4.064e-07	740.27	269.51	4.7839e-07	4.3767e-07	344.95	150.41	116.68	65.148	4.8174e-07	86.85	78.058	79.539	81.927	-2.516	117.633	119.318	-3.237	3.127	134.992	127.425	0.988	5.206	7.461	12.565	167.445	8.872	-8191	255	
1183.237	1	1	0	0	0.080199	0.033064	0.12751	0.11684	0.073528	0.051971	0.20584	0.24828	0.137	0.11324	0.08789	0.088185	0.23484	0.045125	0.20539	0.079112	-2.7188	-2.7583	-3.4313	-3.1833	-3.1417	-3.7333	-3.0333	-3.2313	-3.2708	-2.7021	-3.4333	-3.3104	-3.1417	-3.6583	-2.7938	-3.0583	186.434	333.091	5.210	318.299	56.960	112.925	272.230	289.777	179.654	216.217	305.509	221.342	38.459	55.622	321.708	150.324	0.0007583	0.0005033	0.00014992	684.63	5.0843e-06	4.8392e-06	756.24	272.93	2.3834e-06	4.3886e-06	351.1	152.21	118.19	65.628	5.1772e-06	88.907	9.2786e-05	3.8933e-05	1.107e-05	670.66	4.4329e-07	4.0255e-07	739.77	268.65	4.4655e-07	4.3555e-07	343.83	150.32	116.59	65.186	4.943e-07	87.392	78.260	81.891	82.404	-2.463	106.596	119.684	-3.600	2.903	137.769	143.754	1.467	5.677	7.703	13.001	154.872	8.696	-8191	255	
1183.333	1	1	0	0	0.1693	0.11324	0.20509	0.16287	0.16259	0.18547	0.24087	0.21937	0.08075	0.26694	0.18013	0.11396	0.26587	0.16202	0.3053	0.15682	-2.9917	-2.9	-3.4188	-3.1125	-2.8396	-3.5208	-3.0375	-3.275	-3.3792	-2.7604	-3.2812	-3.2438	-2.7979	-3.6292	-2.9771	-3.2625	314.955	24.249	330.631	315.796	224.323	310.061	318.156	301.125	95.658	86.898	316.906	30.988	286.885	282.205	312.968	280.386	0.00078519	0.00053911	0.00015045	682.02	4.455e-06	5.5183e-06	749.31	272.09	4.2916e-06	4.7397e-06	352.82	152.98	118.74	65.903	5.0458e-06	89.562	9.4186e-05	4.1658e-05	1.0746e-05	669.94	4.5017e-07	4.1287e-07	739.1	268.74	4.4732e-07	4.4028e-07	344.67	150.23	116.77	65.167	4.8849e-07	87.726	78.933	78.921	81.448	-2.651	95.483	139.665	-3.559	3.093	132.553	138.959	0.943	5.252	7.742	12.579	159.206	8.725	-8191	255	
1183.429	1	1	0	0	0.05384	0.16719	0.22504	0.17451	0.1601	0.083466	0.17522	0.14922	0.10591	0.23921	0.28793	0.21503	0.20617	0.21803	0.24704	0.13134	-3.0187	-2.5979	-3.2604	-3.0854	-2.8896	-3.775	-3.1771	-3.0479	-3.3208	-2.7208	-3.1437	-3.2042	-3.05	-3.5458	-3.0771	-3.25	189.671	62.915	141.965	12.494	83.327	10.301	310.637	77.923	244.822	178.996	281.163	49.158	45.602	302.388	125.319	308.740	0.0007932	0.00044311	0.00013473	693.07	5.827e-06	5.1357e-06	762.48	275	4.4851e-06	5.1592e-06	357.39	155.5	119.33	66.487	4.9353e-06	90.043	9.1554e-05	4.0775e-05	1.1074e-05	672.81	4.7975e-07	4.0071e-07	743.3	269.58	4.6715e-07	4.2635e-07	346.87	151.48	116.76	65.508	4.9165e-07	88.147	81.594	78.038	86.925	-3.253	101.743	115.278	-3.983	2.484	133.472	123.670	0.585	4.756	7.123	12.284	170.168	8.666	-8191	255	
1183.525	1	1	0	0	0.11062	0.28248	0.069651	0.12641	0.081648	0.16882	0.053248	0.5314	0.04392	0.15196	0.20921	0.068112	0.20103	0.26489	0.37549	0.32511	-3.1083	-2.7125	-3.1646	-3.3458	-2.6854	-3.4333	-3.3792	-3.1229	-3.3792	-2.825	-3.1625	-3.3708	-2.7604	-3.4896	-3.0729	-3.1479	239.030	150.669	-4.953	6.162	151.577	243.182	-2.015	259.187	84.749	64.312	2.921	64.276	329.848	319.939	227.370	264.786	0.00076163	0.00042866	0.00013022	689	6.3732e-06	4.8323e-06	758.98	273.81	5.3226e-06	4.6265e-06	352.34	152.38	118.73	65.686	4.0253e-06	88.355	9.4372e-05	4.2561e-05	1.0965e-05	672.4	4.5006e-07	4.2067e-07	741.34	269	4.655e-07	4.1838e-07	343.79	149.36	116.19	64.769	4.7417e-07	86.412	85.572	76.670	106.535	-2.989	112.531	124.529	-3.899	2.530	119.842	143.591	0.656	4.852	7.615	12.339	167.680	8.744	-8191	255	
1183.622	1	1	0	0	0.14694	0.20311	0.23378	0.062516	0.080043	0.083925	0.16256	0.33878	0.15839	0.15263	0.1296	0.07894	0.014013	0.13876	0.11916	0.066961	-3.3396	-2.8583	-3.0792	-3.375	-2.9146	-3.425	-3.2687	-2.9562	-3.6021	-3.0542	-3.1167	-3.5146	-2.9875	-3.4417	-3.2771	-3.0708	111.883	297.839	109.863	235.214	180.843	2.029	28.710	11.257	323.645	184.912	267.284	48.900	29.557	38.871	247.960	218.831	0.00076654	0.00056965	0.00015729	680.77	4.8152e-06	5.1623e-06	744.62	268.81	4.2203e-06	4.5794e-06	347.31	149.87	115.88	64.202	4.8866e-06	87.223	9.0026e-05	4.0496e-05	1.1043e-05	666.52	4.4505e-07	3.9915e-07	733.78	265.63	4.7205e-07	4.0234e-07	340.43	148.02	114.56	64.012	4.719e-07	85.889	80.141	81.937	83.566	-2.713	97.893	135.601	-3.059	3.519	131.553	127.285	1.555	5.897	7.966	13.084	162.933	8.916	-8191	255	
1183.718	1	1	0	0	0.24673	0.13622	0.15926	0.19642	0.2455	0.24733	0.057375	0.090062	0.21534	0.14855	0.077163	0.1272	0.28832	0.21448	0.16279	0.28368	-3.0812	-2.9521	-3.0896	-3.5792	-2.8708	-3.3375	-3.5875	-3.0187	-3.5271	-3.0417	-3.0646	-3.5771	-2.9083	-3.3271	-3.2833	-3.0333	154.152	251.268	16.239	210.435	-13.748	322.768	116.591	7.486	303.961	18.862	329.701	24.875	192.680	306.753	206.943	308.032	0.00077356	0.00053908	0.00011084	677.72	5.1037e-06	5.569e-06	752.45	269.08	4.1631e-06	3.9524e-06	347.05	150.88	116.2	64.837	4.7163e-06	87.403	9.1235e-05	3.7477e-05	1.0636e-05	666.69	4.5293e-07	4.0093e-07	738.27	265.97	4.7745e-07	4.039e-07	342.33	148.84	115.1	64.38	4.6399e-07	86.561	81.533	80.848	84.856	-2.412	109.353	130.492	-3.107	3.030	116.088	141.979	1.041	5.899	7.922	13.187	161.874	9.332	-8191	255	
1183.814	1	1	0	0	0.11135	0.1528	0.15729	0.1041	0.07919	0.17177	0.10305	0.35361	0.073423	0.17177	0.21475	0.086393	0.20211	0.17507	0.14195	0.12285	-3.1771	-3.1271	-3.0792	-3.5104	-2.7875	-3.0917	-3.3208	-2.8979	-3.4396	-3.2542	-3.1	-3.7625	-2.9979	-3.2042	-3.5042	-2.8896	324.533	6.906	-2.935	290.000	213.153	186.442	204.635	302.334	265.399	250.407	302.950	0.073	-6.853	332.822	277.796	264.210	0.00079465	0.00038611	0.0001566	676.15	6.6973e-06	5.2642e-06	746.74	269.37	2.9874e-06	4.4488e-06	346.58	150.83	116.54	64.619	4.3338e-06	87.457	9.3267e-05	3.7579e-05	1.0913e-05	664.99	4.6516e-07	4.224e-07	738.8	266.21	4.5437e-07	3.976e-07	342.56	149.27	115.29	64.474	4.7311e-07	86.51	83.052	57.698	86.374	-2.615	109.481	126.521	-3.235	3.192	119.113	139.047	1.844	5.836	7.781	13.279	157.510	9.350	-8191	255	
1183.910	1	1	0	0	0.072917	0.04354	0.070051	0.13626	0.090516	0.18869	0.099327	0.23994	0.17738	0.10909	0.30098	0.34031	0.30765	0.34389	0.075247	0.25811	-2.9562	-3.1583	-2.9958	-3.6063	-2.9417	-3.1333	-3.6729	-2.8354	-3.0396	-3.2333	-2.8917	-3.5083	-2.875	-3.1562	-3.475	-3.0646	-11.048	197.190	315.401	245.243	281.558	26.045	283.965	247.029	333.997	93.680	309.509	171.828	293.593	337.212	229.080	301.552	0.00078511	0.00038691	0.00014492	680.51	5.2876e-06	4.1815e-06	740.11	267.25	4.7892e-06	3.6781e-06	345.1	149.79	115.1	63.784	5.3443e-06	86.785	9.2134e-05	3.7832e-05	1.0985e-05	667.16	4.4092e-07	4.1019e-07	734.34	265.67	4.9161e-07	4.0663e-07	339.83	147.48	114.5	63.761	4.7411e-07	85.454	83.228	84.118	94.925	-2.514	94.995	148.443	-2.307	3.493	143.533	167.671	1.447	5.774	8.475	13.392	154.670	9.239	-8191	255	
1184.031	1	1	0	0	0.13885	0.040695	0.21844	0.35149	0.083162	0.043498	0.026508	0.24564	0.27361	0.11101	0.18265	0.43034	0.12231	0.080819	0.10027	0.28244	-2.7708	-3.225	-2.8125	-3.675	-3.075	-2.9938	-3.6021	-2.9021	-3.2167	-3.1792	-2.7875	-3.4271	-3.2958	-3.0187	-3.525	-3.1125	306.268	11.777	274.774	3.327	208.260	35.670	25.263	47.323	24.574	231.017	281.940	329.877	273.578	227.892	183.184	227.095	0.00075018	0.00044432	0.0001684	675.36	6.691e-06	5.5972e-06	743.99	267.67	4.7259e-06	3.6563e-06	346.19	150.21	116.08	64.316	5.1122e-06	87.012	9.0168e-05	3.6767e-05	1.1311e-05	667.07	4.4362e-07	4.0355e-07	734.21	264.93	4.5261e-07	3.9353e-07	339.67	147.9	114.53	63.77	4.8241e-07	85.687	80.404	73.722	91.276	-2.010	96.147	124.815	-2.804	3.328	136.768	143.618	1.513	5.335	8.209	12.768	168.421	8.870	-8191	255	
1184.125	1	1	0	0	0.20159	0.11251	0.092852	0.14326	0.20556	0.30345	0.1048	0.13128	0.20914	0.30159	0.090478	0.046376	0.05786	0.12444	0.21765	0.085563	-2.7271	-3.3479	-2.6875	-3.2708	-3.2958	-3.0271	-3.7271	-3.0687	-3.3812	-3.4771	-3.0292	-3.4688	-3.2062	-3.0187	-3.3458	-3.1542	292.304	20.679	215.063	25.765	126.935	206.053	11.248	-7.949	55.062	33.897	89.341	13.878	43.303	17.505	120.159	87.222	0.00075902	0.00055825	0.00015181	684.69	6.432e-06	4.7408e-06	758.36	271.23	4.0537e-06	4.5913e-06	352.69	153.29	117.62	65.514	3.9925e-06	88.706	9.0149e-05	3.7848e-05	1.1389e-05	670.34	4.2395e-07	4.2591e-07	743.11	266.65	4.6715e-07	4.1203e-07	344.22	149.85	115.69	64.592	4.8003e-07	86.784	83.977	81.795	70.875	-3.054	114.943	137.172	-3.686	2.580	120.363	124.126	0.759	4.894	7.220	12.204	140.310	8.472	-8191	255	
1184.221	1	1	0	0	0.12266	0.12722	0.20748	0.21072	0.051922	0.050759	0.06572	0.16206	0.22448	0.14272	0.26902	0.077815	0.19769	0.10639	0.18229	0.33528	-2.7417	-3.4062	-2.8708	-3.1937	-3.1375	-2.6792	-3.4771	-2.85	-2.9229	-3.5479	-3.1	-3.3396	-3.4042	-2.9938	-3.6021	-3.0604	213.603	84.341	65.074	303.114	167.933	32.532	296.909	235.808	143.676	199.176	-12.524	16.736	24.640	307.014	108.653	253.066	0.00076154	0.00046112	0.00014108	694.17	3.9938e-06	4.2395e-06	767.01	274.69	4.1355e-06	4.3615e-06	355.92	154.43	119.29	65.8	4.5444e-06	89.276	9.2044e-05	3.7355e-05	1.1292e-05	678.83	4.5899e-07	4.1766e-07	750.68	269.31	4.6236e-07	4.1783e-07	346.57	151.07	116.45	64.779	4.8235e-07	87.122	82.272	71.595	104.047	-3.234	89.815	120.015	-4.035	2.500	125.453	133.830	0.716	4.637	7.480	12.235	158.125	8.698	-8191	255	
1184.317	1	1	0	0	0.14243	0.1252	0.13128	0.12569	0.11507	0.018821	0.19479	0.2355	0.25911	0.15141	0.26695	0.18559	0.076278	0.050347	0.23003	0.13952	-2.6896	-3.5042	-2.8583	-3.1083	-3.2896	-2.7521	-3.5	-3.2604	-2.8917	-3.4146	-2.8271	-3.2833	-3.4417	-3.0021	-3.3854	-3.4188	200.091	23.359	288.916	330.285	313.217	146.080	238.222	297.610	144.419	13.229	211.653	343.035	83.213	34.489	73.043	189.821	0.00080933	0.00043946	0.00011548	697.98	6.2532e-06	5.4897e-06	765	274.63	3.1999e-06	5.5601e-06	353	151.89	117.8	65.161	5.0042e-06	87.345	9.1782e-05	3.8035e-05	1.1512e-05	681.14	4.4257e-07	4.2257e-07	749.09	268.73	4.6996e-07	4.0278e-07	342.35	148.37	115.38	63.995	4.8495e-07	85.383	80.299	75.613	87.893	-3.243	110.000	121.580	-3.810	2.826	124.860	141.206	0.761	4.548	7.388	12.197	161.455	8.585	-8191	255	
1184.414	1	1	0	0	0.054092	0.11767	0.24603	0.089678	0.15914	0.1567	0.14239	0.079247	0.17282	0.067796	0.11781	0.27442	0.015861	0.10932	0.30249	0.23922	-2.3729	-3.4146	-2.8958	-3.0312	-3.4688	-2.6813	-3.5187	-3.2271	-2.7792	-3.3125	-3.0792	-3.275	-3.5458	-3.025	-3.3354	-3.3229	44.242	175.022	198.289	268.507	286.846	116.575	277.359	181.897	258.905	199.779	153.846	11.929	-9.735	344.628	91.785	253.083	0.0007559	0.00052402	0.00016783	697.88	5.8372e-06	6.3709e-06	767.03	273.06	3.827e-06	4.1118e-06	352.36	152.98	118.92	65.329	5.6513e-06	88.485	9.1278e-05	4.0049e-05	1.0432e-05	681.55	4.5337e-07	4.2909e-07	751	268.49	4.7316e-07	4.1705e-07	343.82	149.39	116.17	64.561	4.7649e-07	86.439	79.046	75.720	87.005	-3.178	98.148	126.653	-3.654	2.675	139.864	139.341	0.698	4.959	7.401	12.255	157.074	8.740	-8191	255	
1184.510	1	1	0	0	0.26031	0.073274	0.20076	0.12414	0.099535	0.14488	0.16181	0.25276	0.17872	0.090521	0.042735	0.121	0.15102	0.23929	0.19247	0.29735	-2.6229	-3.4771	-2.8688	-2.8479	-3.3396	-2.8667	-3.5312	-3.4271	-2.9125	-3.5438	-3.1208	-3.0417	-3.4271	-2.9729	-3.2438	-3.5375	16.551	173.967	194.740	290.109	313.870	33.511	68.813	269.432	40.159	93.912	330.688	303.111	339.051	311.402	254.200	273.580	0.00079358	0.0004727	0.0001418	701.5	5.1796e-06	5.1328e-06	776.15	275.24	4.2596e-06	4.8949e-06	356	154.04	117.76	65.375	5.0833e-06	88.82	9.4729e-05	3.9583e-05	1.027e-05	684.85	4.3828e-07	4.3467e-07	756.53	270	4.7024e-07	3.9459e-07	346.74	150.5	116.08	64.497	4.7837e-07	86.832	78.063	81.018	95.046	-3.426	91.427	135.314	-3.982	2.611	129.839	140.191	1.207	4.909	7.358	12.374	162.373	8.916	-8191	255	
1184.630	1	1	0	0	0.27839	0.14316	0.090817	0.082435	0.18856	0.16247	0.11216	0.19801	0.11881	0.027845	0.34986	0.065475	0.45515	0.16087	0.19868	0.17761	-2.4417	-3.4646	-3.0375	-3.1271	-3.5771	-2.8292	-3.2417	-3.4833	-2.9167	-3.1417	-3.1625	-3.0208	-3.6167	-3.1271	-2.8708	-3.4417	97.299	317.175	328.173	260.963	343.980	3.148	87.892	317.759	24.705	127.203	319.241	304.042	326.657	337.502	173.338	318.744	0.00080143	0.00046739	0.00016255	703.84	5.8064e-06	4.9691e-06	776.39	275.8	4.203e-06	4.8173e-06	358.58	154.32	118.87	65.285	5.4144e-06	88.366	9.3077e-05	3.9958e-05	1.0762e-05	686.77	4.369e-07	4.1844e-07	758.08	270.96	4.9745e-07	4.1543e-07	348.37	150.71	116.28	64.366	4.8838e-07	86.385	80.730	86.957	89.418	-3.007	107.396	147.264	-3.803	2.567	129.497	127.295	0.944	4.990	7.393	12.314	160.592	8.540	-8191	255	
1184.726	1	1	0	0	0.15408	0.10348	0.082452	0.15906	0.13391	0.24379	0.23087	0.23918	0.19695	0.15472	0.30214	0.20353	0.35206	0.17335	0.13358	0.13979	-2.4708	-3.2667	-3.0583	-3.0583	-3.4688	-2.7958	-3.1833	-3.6229	-2.6833	-3.0604	-3.4271	-2.7479	-3.4417	-3.0125	-2.8646	-3.4083	187.744	107.144	-14.963	320.246	214.129	309.510	280.170	300.029	18.182	247.308	335.676	303.855	10.066	327.517	294.154	328.841	0.00078636	0.00055661	0.00010666	704.72	5.0681e-06	3.5009e-06	771.04	275.82	3.1842e-06	4.3207e-06	355.46	153.55	119.35	65.724	6.2493e-06	88.182	9.3415e-05	3.8786e-05	1.0699e-05	686.77	4.2506e-07	4.1526e-07	753.77	270.92	4.9359e-07	4.0117e-07	345.96	149.77	116.86	64.668	5.0537e-07	86.102	78.511	87.225	77.701	-3.067	111.211	130.716	-3.772	2.788	140.393	136.242	1.203	4.934	7.487	12.310	155.527	8.829	-8191	255	
1184.823	1	1	0	0	0.14984	0.038331	0.29029	0.34259	0.22236	0.1887	0.24028	0.053192	0.043392	0.27233	0.15719	0.23828	0.11999	0.2621	0.23862	0.11056	-2.4437	-3.3208	-3.1917	-2.8458	-3.6479	-3.0271	-3.1083	-3.5625	-2.6604	-3.0083	-3.4604	-3.1375	-3.4583	-3.0604	-3.05	-3.7021	204.738	82.767	272.558	322.127	155.008	344.182	282.405	261.220	256.973	324.978	299.949	298.392	299.965	333.464	16.188	322.844	0.0007695	0.00048879	0.00015811	701.98	6.3824e-06	5.6086e-06	775.46	276.34	4.1038e-06	5.0262e-06	356.74	154.7	119.49	65.25	5.0867e-06	88.791	8.9883e-05	4.0501e-05	1.0911e-05	686.19	4.4885e-07	4.1398e-07	756.02	270.44	4.5955e-07	4.2758e-07	346.86	150.62	117.03	64.498	5.0194e-07	86.545	82.383	73.688	89.373	-3.223	101.319	132.568	-3.782	2.788	138.132	129.183	0.688	4.436	7.282	12.466	144.198	8.532	-8191	255	
1184.894	1	1	0	0	0.24094	0.12028	0.078332	0.12527	0.03532	0.29796	0.14956	0.1958	0.084957	0.18624	0.051875	0.26904	0.25428	0.31778	0.17781	0.027077	-2.4146	-3.0417	-3.2833	-2.7792	-3.4271	-3.1937	-2.7854	-3.6354	-2.8771	-3.2479	-3.6021	-2.8083	-3.3292	-3.4833	-2.8229	-3.7958	294.084	163.848	108.893	14.242	180.317	52.594	326.663	292.838	43.141	230.685	150.947	304.544	306.571	308.281	51.591	237.236	0.00075644	0.00049158	0.0001683	702.47	5.2372e-06	5.8097e-06	771.29	278.16	3.8767e-06	5.022e-06	358.96	155.4	120.57	66.467	4.9072e-06	89.668	9.2344e-05	3.9933e-05	1.1217e-05	688.14	4.3266e-07	4.3171e-07	757.05	272.6	4.9712e-07	4.2819e-07	350.29	152.39	118.12	65.281	5.0044e-07	87.542	79.679	68.400	85.108	-3.289	95.326	145.201	-3.756	2.566	123.667	138.238	1.124	5.120	7.285	12.357	149.138	8.791	-8191	255	
1185.013	1	1	0	0	0.14432	0.14517	0.11033	0.14881	0.10193	0.25007	0.26509	0.34584	0.24207	0.057616	0.036007	0.19033	0.30974	0.21362	0.092436	0.16669	-2.3458	-2.95	-3.5438	-2.8229	-3.1083	-3.2958	-3.0458	-3.5979	-2.8792	-2.8854	-3.6021	-2.9646	-3.3521	-3.5375	-2.9104	-3.7062	23.018	269.085	125.108	289.596	174.231	140.247	278.783	331.680	196.755	73.532	261.269	234.235	-9.558	316.789	189.311	313.359	0.00078337	0.00048628	0.0001416	706.47	4.9028e-06	6.6994e-06	780.34	277.15	5.6174e-06	5.301e-06	359.39	156.38	120.74	65.744	6.2059e-06	88.399	8.9902e-05	4.0897e-05	1.0825e-05	689.59	4.456e-07	3.9909e-07	761	272.45	4.7321e-07	4.3923e-07	350.04	152.29	117.79	64.802	5.0697e-07	86.685	81.782	72.505	87.067	-3.244	100.390	124.335	-4.042	2.458	126.411	131.912	0.779	4.858	7.289	12.202	158.855	8.591	-8191	255	
#DATA ENDS
