BOXY.EXE: ISS Imagent and Oximeter Data Acquisition Program Version 0.80
Ascii Record File

#ACQ INFORMATION
2  Detector Channels 
16  External MUX Channels 
1  Auxiliary Channels 
5000  Waveform (CCF) Frequency (Hz)
1  Waveforms Skipped 
30  Waveforms Averaged 
1  Cycles Averaged 
16  Acquisitions per Waveform 
10.0806  Updata Rate (Hz) 

#FILE INFORMATION
TRUE -- External MUX Channel results are PARSED.
FALSE -- AC DC and Phase are NOT grouped.
TRUE -- Companion Program Settings File CREATED.
FALSE -- AC data not excluded
FALSE -- DC data not excluded
FALSE -- Phase data not excluded
FALSE -- Auxillary Chn. data not excluded
Tab delimiters

#CALIBRATION STATE
TRUE -- Waveform Calibration Values APPLIED.


#AUX CALIBRATION VALUES
Val Type	aux-1	

Term	1.0000e+00	
Factor	0.0000e+00	


#WF CALIBRATION VALUES
A = Detector Channel
Val Type	A-AC1	A-AC2	A-AC3	A-AC4	A-AC5	A-AC6	A-AC7	A-AC8	A-AC9	A-AC10	A-AC11	A-AC12	A-AC13	A-AC14	A-AC15	A-AC16	A-DC1	A-DC2	A-DC3	A-DC4	A-DC5	A-DC6	A-DC7	A-DC8	A-DC9	A-DC10	A-DC11	A-DC12	A-DC13	A-DC14	A-DC15	A-DC16	A-Ph1	A-Ph2	A-Ph3	A-Ph4	A-Ph5	A-Ph6	A-Ph7	A-Ph8	A-Ph9	A-Ph10	A-Ph11	A-Ph12	A-Ph13	A-Ph14	A-Ph15	A-Ph16	

Term	0.00000e+00	0.00000e+00	0.00000e+00	0.00000e+00	0.00000e+00	0.00000e+00	0.00000e+00	0.00000e+00	0.00000e+00	0.00000e+00	0.00000e+00	0.00000e+00	0.00000e+00	0.00000e+00	0.00000e+00	0.00000e+00	0.00000e+00	0.00000e+00	0.00000e+00	0.00000e+00	0.00000e+00	0.00000e+00	0.00000e+00	0.00000e+00	0.00000e+00	0.00000e+00	0.00000e+00	0.00000e+00	0.00000e+00	0.00000e+00	0.00000e+00	0.00000e+00	0.00000e+00	0.00000e+00	0.00000e+00	0.00000e+00	0.00000e+00	0.00000e+00	0.00000e+00	0.00000e+00	0.00000e+00	0.00000e+00	0.00000e+00	0.00000e+00	0.00000e+00	0.00000e+00	0.00000e+00	0.00000e+00	
Factor	1.00000e+00	1.00000e+00	1.00000e+00	1.00000e+00	1.00000e+00	1.00000e+00	1.00000e+00	1.00000e+00	1.00000e+00	1.00000e+00	1.00000e+00	1.00000e+00	1.00000e+00	1.00000e+00	1.00000e+00	1.00000e+00	1.00000e+00	1.00000e+00	1.00000e+00	1.00000e+00	1.00000e+00	1.00000e+00	1.00000e+00	1.00000e+00	1.00000e+00	1.00000e+00	1.00000e+00	1.00000e+00	1.00000e+00	1.00000e+00	1.00000e+00	1.00000e+00	X	X	X	X	X	X	X	X	X	X	X	X	X	X	X	X	

B = Detector Channel
Val Type	B-AC1	B-AC2	B-AC3	B-AC4	B-AC5	B-AC6	B-AC7	B-AC8	B-AC9	B-AC10	B-AC11	B-AC12	B-AC13	B-AC14	B-AC15	B-AC16	B-DC1	B-DC2	B-DC3	B-DC4	B-DC5	B-DC6	B-DC7	B-DC8	B-DC9	B-DC10	B-DC11	B-DC12	B-DC13	B-DC14	B-DC15	B-DC16	B-Ph1	B-Ph2	B-Ph3	B-Ph4	B-Ph5	B-Ph6	B-Ph7	B-Ph8	B-Ph9	B-Ph10	B-Ph11	B-Ph12	B-Ph13	B-Ph14	B-Ph15	B-Ph16	

Term	0.00000e+00	0.00000e+00	0.00000e+00	0.00000e+00	0.00000e+00	0.00000e+00	0.00000e+00	0.00000e+00	0.00000e+00	0.00000e+00	0.00000e+00	0.00000e+00	0.00000e+00	0.00000e+00	0.00000e+00	0.00000e+00	0.00000e+00	0.00000e+00	0.00000e+00	0.00000e+00	0.00000e+00	0.00000e+00	0.00000e+00	0.00000e+00	0.00000e+00	0.00000e+00	0.00000e+00	0.00000e+00	0.00000e+00	0.00000e+00	0.00000e+00	0.00000e+00	-1.85345e+02	-1.23737e+02	-1.11857e+02	-1.80493e+02	-1.02631e+02	-7.18909e+01	-1.55190e+02	-1.62015e+02	-8.30239e+01	-6.30682e+01	-1.71086e+02	-1.70392e+02	-1.81065e+02	-1.76742e+02	-5.60175e+01	-1.49283e+02	
Factor	3.45794e-05	1.28973e-04	3.64895e-05	1.78598e-01	1.50782e-06	1.48164e-06	1.55936e-01	4.98493e-02	1.25560e-06	1.27048e-06	8.53734e-02	2.92799e-02	2.65120e-02	9.74353e-03	1.48999e-06	1.28900e-02	2.28479e-06	2.43523e-06	6.78434e-07	9.15091e-02	2.64387e-08	2.67660e-08	7.53430e-02	2.56481e-02	2.64425e-08	2.67481e-08	4.24034e-02	1.45225e-02	1.36176e-02	5.01221e-03	2.65546e-08	6.42646e-03	X	X	X	X	X	X	X	X	X	X	X	X	X	X	X	X	



#DISTANCE SETTINGS
A = Detector Channel
A-1	A-2	A-3	A-4	A-5	A-6	A-7	A-8	A-9	A-10	A-11	A-12	A-13	A-14	A-15	A-16	

2.5000e+00	3.0000e+00	2.5000e+00	3.0000e+00	2.0000e+00	3.0000e+00	1.5000e+00	3.0000e+00	3.0000e+00	3.0000e+00	3.0000e+00	3.0000e+00	3.0000e+00	3.0000e+00	1.5000e+00	3.0000e+00	

B = Detector Channel
B-1	B-2	B-3	B-4	B-5	B-6	B-7	B-8	B-9	B-10	B-11	B-12	B-13	B-14	B-15	B-16	

1.0000e+01	1.0000e+01	1.0000e+01	1.4400e+00	1.0000e+01	1.0000e+01	1.5100e+00	1.9400e+00	1.0000e+01	1.0000e+01	1.9900e+00	2.4900e+00	2.4100e+00	2.9000e+00	1.0000e+01	2.9800e+00	




#DATA BEGINS
time	group	step	mark	flag	A-AC1	A-AC2	A-AC3	A-AC4	A-AC5	A-AC6	A-AC7	A-AC8	A-AC9	A-AC10	A-AC11	A-AC12	A-AC13	A-AC14	A-AC15	A-AC16	A-DC1	A-DC2	A-DC3	A-DC4	A-DC5	A-DC6	A-DC7	A-DC8	A-DC9	A-DC10	A-DC11	A-DC12	A-DC13	A-DC14	A-DC15	A-DC16	A-Ph1	A-Ph2	A-Ph3	A-Ph4	A-Ph5	A-Ph6	A-Ph7	A-Ph8	A-Ph9	A-Ph10	A-Ph11	A-Ph12	A-Ph13	A-Ph14	A-Ph15	A-Ph16	B-AC1	B-AC2	B-AC3	B-AC4	B-AC5	B-AC6	B-AC7	B-AC8	B-AC9	B-AC10	B-AC11	B-AC12	B-AC13	B-AC14	B-AC15	B-AC16	B-DC1	B-DC2	B-DC3	B-DC4	B-DC5	B-DC6	B-DC7	B-DC8	B-DC9	B-DC10	B-DC11	B-DC12	B-DC13	B-DC14	B-DC15	B-DC16	B-Ph1	B-Ph2	B-Ph3	B-Ph4	B-Ph5	B-Ph6	B-Ph7	B-Ph8	B-Ph9	B-Ph10	B-Ph11	B-Ph12	B-Ph13	B-Ph14	B-Ph15	B-Ph16	aux-1	digaux	

836.175	1	1	0	256	0.11549	0.23018	0.17694	0.19351	0.22873	0.16396	0.067728	0.22782	0.27022	0.020858	0.16455	0.10011	0.12808	0.18375	0.21522	0.10898	-3.1417	-3.4917	-3.1604	-3.7396	-3.2167	-3.2458	-3.9062	-3.0875	-3.4417	-3.6146	-3.1958	-3.5646	-3.2125	-3.2	-3.8	-3.1937	98.099	135.174	4.953	145.767	-48.019	52.931	70.770	181.239	-97.917	-121.403	183.429	-57.003	106.624	165.693	-5.385	-127.318	0.00034371	0.00011739	7.9838e-05	1049.2	3.8062e-06	3.667e-06	1130.1	214.83	2.4349e-06	1.6581e-06	270.74	77.315	59.591	18.022	1.5065e-06	25.254	0.00010577	9.1595e-05	2.6882e-05	1031	1.0291e-06	1.0092e-06	1122.8	212.91	1.0297e-06	1.0098e-06	270.93	77.413	59.902	18.19	1.0202e-06	25.407	149.524	-4.262	-67.870	-140.037	-82.518	2.224	-140.310	-132.935	-57.832	42.812	-132.560	-127.033	-125.997	-118.010	56.107	-118.994	-8191	255	
836.269	1	1	0	0	0.22025	0.25453	0.14755	0.26209	0.19078	0.092943	0.21724	0.29565	0.057709	0.19248	0.061854	0.28032	0.15992	0.13066	0.17806	0.30752	-3.0125	-3.6271	-3.0458	-3.5458	-3.3125	-3.1042	-3.9062	-2.9938	-3.2479	-3.6292	-2.8646	-3.6833	-3.2292	-3.2062	-3.7479	-3.1333	-92.414	-19.460	-18.698	140.317	33.722	-56.998	176.915	145.494	163.868	130.781	-67.847	195.165	188.406	-71.782	63.187	88.381	0.00036149	9.7643e-05	5.1912e-05	1047.7	1.9627e-06	1.6474e-06	1125.9	214.28	9.813e-07	1.9936e-06	272.28	77.402	60.621	18.013	2.9747e-06	25.241	0.00010497	9.0489e-05	2.5622e-05	1030.6	1.0227e-06	1.0223e-06	1121.9	212.17	1.0411e-06	1.0119e-06	270.76	77.412	60.04	18.156	1.0363e-06	25.376	142.240	33.899	-53.982	-140.042	-118.278	76.758	-140.118	-132.597	-29.412	48.960	-132.674	-126.801	-126.244	-118.761	-24.554	-119.357	-8191	255	
836.365	1	1	0	0	0.067192	0.14439	0.12988	0.15866	0.22872	0.28588	0.14654	0.097278	0.22831	0.078663	0.37115	0.13614	0.18765	0.098026	0.13933	0.082103	-3.1521	-3.6896	-2.9521	-3.5708	-3.3979	-3.1125	-3.7687	-3.2625	-3.1312	-3.6979	-3.0625	-3.65	-3.4917	-2.9604	-3.7062	-3.4	132.421	39.102	-99.430	71.801	51.160	187.337	140.557	108.200	153.804	-79.178	-123.634	-113.203	-140.005	-82.192	195.673	143.955	0.00030937	0.00027048	6.8945e-05	1045.6	3.5524e-06	2.2811e-06	1132	213.97	3.8442e-06	1.6404e-06	273.62	77.278	60.287	17.957	2.5593e-06	25.105	0.00010898	9.4477e-05	2.6217e-05	1028.6	1.0762e-06	1.0341e-06	1123.2	212.29	1.0693e-06	1.0105e-06	271.26	77.357	59.81	18.173	1.0158e-06	25.444	145.499	-68.546	4.760	-140.323	-71.436	-12.862	-140.150	-132.850	-43.963	6.311	-132.842	-126.951	-126.070	-118.583	3.954	-118.635	-8191	255	
836.462	1	1	0	0	0.090105	0.16749	0.13039	0.046313	0.14154	0.12205	0.31323	0.17287	0.13766	0.31107	0.21309	0.16923	0.12419	0.082402	0.17839	0.019175	-2.7958	-3.6333	-3.1375	-3.4375	-3.5542	-3.1896	-3.8729	-3.5	-3.2771	-3.7479	-3.1208	-3.2521	-3.5667	-2.8583	-3.6688	-3.4229	111.222	125.044	-148.424	21.803	10.063	123.712	142.761	175.851	-88.612	-22.789	-105.222	-5.570	65.806	-69.834	163.441	171.898	0.00036706	0.00040604	5.5469e-05	1044.4	3.5344e-07	2.4404e-06	1127.6	213.74	4.2117e-06	2.3427e-06	273.69	76.888	59.875	18.094	3.2145e-06	25.096	0.00010458	9.2863e-05	2.6103e-05	1027.9	1.0251e-06	1.0343e-06	1121.7	212.61	1.0335e-06	9.8656e-07	271.18	77.255	59.94	18.151	9.943e-07	25.385	154.535	-55.269	-35.935	-139.883	-150.452	-56.219	-140.098	-132.946	-33.334	3.521	-132.768	-126.526	-126.065	-118.663	41.037	-119.100	-8191	255	
836.558	1	1	0	0	0.12668	0.1485	0.27117	0.28793	0.091418	0.30588	0.06232	0.10523	0.21343	0.10025	0.20194	0.086066	0.22199	0.13106	0.082171	0.31425	-2.8021	-3.7104	-3.1604	-3.4437	-3.6104	-3.0771	-3.7521	-3.4792	-3.0812	-3.7146	-3.3521	-3.2875	-3.7521	-3.1292	-3.4958	-3.4437	-2.181	-82.556	176.293	124.001	178.842	24.610	141.223	-14.213	36.534	-117.452	64.730	159.368	200.366	-88.619	-135.681	35.573	0.00034822	0.00032911	3.5837e-05	1043.8	2.907e-06	2.8124e-06	1128.5	213.6	2.5625e-06	1.362e-06	270.03	76.383	59.737	18.011	3.0403e-06	25.16	0.00010453	9.0682e-05	2.5163e-05	1027.6	9.8165e-07	9.8588e-07	1118.1	211.97	1.0235e-06	9.6444e-07	269.66	77.017	59.66	18.142	9.3682e-07	25.324	138.628	-68.536	-50.087	-140.168	-30.122	-28.808	-140.156	-132.798	-63.678	-39.364	-132.237	-126.406	-125.841	-117.953	1.047	-119.148	-8191	255	
836.654	1	1	0	0	0.40592	0.05875	0.066539	0.17123	0.093478	0.21356	0.10647	0.062619	0.16414	0.12441	0.26761	0.16367	0.12398	0.1428	0.24561	0.068491	-2.7667	-3.5104	-3.2021	-3.4042	-3.6292	-3	-3.6792	-3.4667	-3.0687	-3.8292	-3.3063	-3.2875	-3.775	-3.0687	-3.4396	-3.7479	152.589	-29.435	78.764	154.167	60.381	172.298	-47.069	20.959	-34.134	-85.928	157.154	3.107	134.551	78.529	23.842	159.487	0.00033377	0.00045482	7.8135e-05	1036.6	2.2315e-06	2.9909e-06	1117.6	212.62	1.2727e-06	2.0138e-06	270.11	76.884	59.552	17.838	1.2561e-06	24.94	0.00010086	8.3178e-05	2.3512e-05	1024.6	9.8848e-07	9.3648e-07	1114.7	211.58	1.0153e-06	8.7912e-07	269.75	77.143	59.601	18.028	9.1326e-07	25.271	158.068	-61.300	-62.514	-139.958	-40.077	-7.150	-139.904	-132.540	-38.529	-21.871	-132.401	-127.040	-125.944	-118.225	61.196	-119.327	-8191	255	
836.750	1	1	0	0	0.20663	0.029288	0.21699	0.1586	0.15986	0.23066	0.10698	0.13762	0.093568	0.18085	0.36007	0.14425	0.087349	0.048138	0.14223	0.11005	-2.7438	-3.5187	-3.1125	-3.2167	-3.7812	-3.1146	-3.2833	-3.6375	-2.875	-3.6583	-3.3896	-3.1875	-3.5667	-3.0333	-3.1792	-3.6208	-4.989	89.301	-51.032	192.835	-116.437	170.366	-67.145	116.081	9.564	148.467	152.004	-132.527	-69.711	-138.264	151.455	-50.940	0.00035732	0.00018665	0.00010761	1037.6	3.0704e-06	2.385e-06	1127	212.72	2.2954e-06	2.4925e-06	272.56	77.443	60.04	17.966	1.842e-06	24.837	0.00010063	8.3741e-05	2.3499e-05	1021.8	9.5262e-07	9.0062e-07	1115.7	211.66	9.4978e-07	8.9784e-07	269.79	77.095	59.639	18.032	9.0966e-07	25.21	143.590	-67.607	-36.643	-139.915	-35.005	1.215	-140.153	-132.703	-49.489	-5.740	-132.859	-126.633	-125.984	-118.519	-9.883	-119.238	-8191	255	
836.846	1	1	0	0	0.19025	0.21943	0.1344	0.083782	0.24485	0.15343	0.085121	0.1184	0.18812	0.21885	0.065688	0.25064	0.11724	0.20119	0.1361	0.11126	-2.6125	-3.5958	-3.4062	-2.9562	-3.5792	-3.0542	-3.3083	-3.6292	-3.0458	-3.5375	-3.3833	-3.1729	-3.6521	-3.275	-3.1562	-3.7042	-89.259	-97.919	-85.880	-97.830	-31.185	29.411	170.046	160.090	147.584	-123.445	180.514	13.407	208.871	12.341	183.389	-75.635	0.00036873	0.0001859	6.8409e-05	1033.3	2.2182e-06	3.0739e-06	1119.4	212.9	4.1904e-06	2.6379e-06	272.74	76.816	59.978	18.011	3.2082e-06	25.172	9.659e-05	7.7664e-05	2.1943e-05	1019.6	9.4452e-07	8.7469e-07	1113.6	211.11	9.5546e-07	9.0988e-07	270.27	76.795	59.576	18.029	9.277e-07	25.257	153.561	-56.444	-109.363	-140.185	-12.693	-15.863	-140.262	-132.571	-31.501	23.070	-132.894	-126.546	-126.052	-118.887	16.924	-119.272	-8191	255	
836.967	1	1	0	0	0.13227	0.11984	0.16406	0.054127	0.27491	0.02876	0.23165	0.051271	0.12049	0.27944	0.1339	0.21822	0.12847	0.105	0.058425	0.25649	-2.6937	-3.5354	-3.4875	-3.1083	-3.6833	-3.3625	-3.2042	-3.6292	-3.2208	-3.4021	-3.4354	-2.8438	-3.5333	-3.2458	-3.2125	-3.7104	-12.500	82.798	-147.011	-31.093	89.137	106.072	176.695	94.116	-33.849	44.176	10.662	193.354	199.434	38.926	-90.974	8.382	0.0003616	0.00033555	6.6393e-05	1042.1	2.902e-06	1.7696e-06	1121	213.58	2.8303e-06	3.1634e-06	273.54	76.954	59.95	18.042	1.0981e-06	25.026	9.6785e-05	8.1524e-05	2.2641e-05	1019.6	9.2045e-07	8.8986e-07	1113	210.8	9.1128e-07	8.9433e-07	270.01	77.003	59.507	18.055	9.5442e-07	25.168	148.602	-92.812	-76.289	-140.482	3.771	-17.600	-140.802	-132.637	-86.229	15.574	-133.035	-127.075	-126.405	-117.852	-1.640	-118.975	-8191	255	
837.063	1	1	0	0	0.10663	0.13664	0.089639	0.16136	0.091977	0.22424	0.12054	0.092265	0.15241	0.25096	0.13193	0.25672	0.12317	0.26816	0.31197	0.21124	-2.725	-3.2958	-3.6875	-3.1146	-3.5271	-3.5208	-3.2708	-3.7188	-3.0271	-3.3729	-3.5604	-2.9813	-3.4479	-3.4854	-3.175	-3.5521	-22.007	-68.453	-10.243	146.040	-86.032	82.986	189.754	-63.026	153.706	5.201	127.153	155.916	-8.233	-130.099	141.255	135.560	0.00036161	0.00022874	8.5769e-05	1036.1	2.4882e-06	1.5755e-06	1117.6	212.46	1.8333e-06	1.9371e-06	269.3	76.598	59.72	17.844	3.1825e-06	24.835	9.807e-05	8.2199e-05	2.3399e-05	1019.2	9.3301e-07	8.8646e-07	1112.2	210.88	9.4896e-07	8.8715e-07	268.54	76.682	59.431	18.037	8.914e-07	25.146	148.814	-5.021	-37.749	-140.208	-85.124	18.784	-140.098	-132.630	3.479	-22.383	-132.667	-127.056	-126.541	-118.372	-8.007	-118.740	-8191	255	
837.159	1	1	0	0	0.15392	0.23033	0.37387	0.28098	0.14549	0.18457	0.27107	0.090916	0.18667	0.23965	0.18256	0.074052	0.0343	0.12046	0.13947	0.13092	-2.7438	-2.9708	-3.5729	-3.0938	-3.4688	-3.5271	-3.2833	-3.6562	-3	-3.3292	-3.7208	-3.2396	-3.5729	-3.4333	-3.0917	-3.5729	-139.456	179.546	115.255	-140.871	107.189	-25.353	163.389	163.199	31.713	35.481	70.187	54.741	-0.401	-28.535	-39.961	91.253	0.00032339	0.00024885	0.0001062	1029.9	2.3546e-06	2.3088e-06	1126.1	211.76	1.0093e-06	2.2216e-06	271.74	76.896	60.235	17.908	2.4793e-06	24.916	9.4514e-05	7.8262e-05	2.201e-05	1017.2	8.8256e-07	8.6159e-07	1113.3	210.18	9.2411e-07	8.7834e-07	268.94	76.739	59.48	17.973	9.095e-07	25.151	148.407	-33.787	-46.214	-139.600	-101.593	32.141	-140.320	-132.989	-73.414	84.013	-132.714	-126.417	-125.885	-118.323	-15.866	-119.196	-8191	255	
837.255	1	1	0	0	0.084572	0.18305	0.022008	0.27691	0.28248	0.32086	0.19938	0.1214	0.21757	0.22495	0.029309	0.095329	0.15076	0.22534	0.32255	0.27027	-2.9271	-3.1917	-3.7396	-3.0333	-3.35	-3.5458	-3.1125	-3.7896	-3.2604	-3.1396	-3.7979	-3.0958	-3.4604	-3.6583	-3.0438	-3.6521	89.192	190.947	111.057	185.115	191.618	38.229	44.100	109.480	-18.988	11.355	68.537	14.157	157.294	-149.818	93.766	157.838	0.00035536	0.00019386	0.00014869	1032	2.5054e-06	2.0912e-06	1118.2	213.18	2.3539e-06	1.7045e-07	270.71	76.998	59.279	18	2.6729e-06	24.866	9.4072e-05	8.1058e-05	2.187e-05	1020.1	9.2464e-07	8.9716e-07	1111	210.88	9.0384e-07	9.0253e-07	268.7	76.882	59.366	18.003	9.1691e-07	25.219	151.068	-71.549	-54.591	-139.852	-45.451	-31.673	-140.441	-132.775	-90.773	59.530	-132.782	-126.870	-125.889	-118.388	-11.257	-119.230	-8191	255	
837.350	1	1	0	0	0.24935	0.10775	0.1863	0.11809	0.21009	0.041903	0.1246	0.2154	0.2511	0.090355	0.14132	0.2352	0.2171	0.046682	0.052907	0.047863	-2.9875	-3.1479	-3.6583	-3.0792	-3.25	-3.6437	-3.0917	-3.4333	-3.5333	-3.1979	-3.6771	-3.3083	-3.1312	-3.7771	-2.8146	-3.4	179.607	195.776	-12.550	-70.188	117.936	-48.559	172.633	-64.893	-69.046	-15.837	-88.999	-72.382	67.538	32.779	93.418	-15.103	0.00035585	0.00024064	3.8979e-05	1033.3	2.3423e-06	3.2788e-06	1119.4	211.44	3.2291e-06	2.1778e-06	269.59	76.977	60.084	17.988	2.9675e-06	24.835	9.4843e-05	8.3686e-05	2.26e-05	1019.5	9.1566e-07	8.9287e-07	1112.3	210.44	9.1728e-07	9.2933e-07	268.83	76.802	59.514	17.975	9.4241e-07	25.118	144.291	-66.266	-58.769	-140.133	-65.051	-8.622	-140.174	-132.455	-47.836	10.324	-132.915	-126.473	-126.121	-118.578	20.987	-119.334	-8191	255	
837.446	1	1	0	0	0.054586	0.12366	0.15425	0.16612	0.19621	0.31738	0.19805	0.2309	0.063503	0.15086	0.16133	0.09927	0.16574	0.13501	0.15552	0.12573	-3.1521	-3	-3.3937	-3.3354	-3.1458	-3.7792	-3.3042	-3.4604	-3.4875	-3.0167	-3.7042	-3.2062	-3.1958	-3.9313	-3.0312	-3.3021	17.772	-118.332	-6.001	107.898	134.580	39.010	119.263	196.717	114.317	7.147	170.517	168.711	-78.844	94.029	109.301	-53.497	0.00031981	0.00018315	2.5714e-05	1030.7	3.565e-06	1.104e-06	1122.1	210.89	3.2535e-06	4.0889e-06	270.72	76.523	59.99	17.879	3.7249e-06	24.586	9.5733e-05	8.538e-05	2.3328e-05	1017	9.7393e-07	8.9633e-07	1110.6	210.42	9.5028e-07	9.4766e-07	268.59	76.712	59.572	18.006	9.1315e-07	25.123	160.146	-78.538	24.876	-139.702	-112.430	-53.615	-140.245	-132.758	-40.217	-4.836	-132.688	-126.697	-125.728	-118.621	-20.256	-119.285	-8191	255	
837.566	1	1	0	0	0.05451	0.28493	0.11928	0.08999	0.031862	0.010172	0.1264	0.28934	0.14047	0.1526	0.18345	0.068346	0.32483	0.27737	0.26179	0.38951	-3.2875	-2.8854	-3.5792	-3.4646	-3.1917	-3.6813	-3.2313	-3.4208	-3.5812	-3.1562	-3.6708	-3.2396	-3.0708	-3.5896	-3.2292	-3.4083	2.165	-88.423	169.223	22.045	-84.208	2.737	189.793	134.445	108.240	204.895	-5.844	-82.112	-139.659	150.303	-72.323	42.210	0.00033355	0.00032852	6.0263e-05	1034.6	7.2323e-07	3.5516e-06	1120.3	212.05	3.9419e-06	6.114e-07	270.65	77.044	59.986	17.859	4.4719e-06	25.056	0.00010117	8.2864e-05	2.3202e-05	1017.2	9.3312e-07	9.4517e-07	1111.3	210.65	9.538e-07	9.4867e-07	268.73	76.773	59.601	17.986	8.9638e-07	25.15	146.091	-65.699	-47.493	-139.661	-20.340	7.650	-140.267	-132.845	-26.165	14.082	-132.597	-127.024	-126.227	-118.256	5.522	-119.534	-8191	255	
837.661	1	1	0	0	0.47807	0.13915	0.32368	0.10188	0.28167	0.11871	0.14943	0.23454	0.091607	0.12473	0.068878	0.22907	0.20082	0.082064	0.1678	0.32604	-3.2271	-3.0125	-3.5062	-3.5729	-3.0854	-3.7083	-3.4313	-3.3312	-3.7583	-3.0146	-3.5958	-3.6208	-3.0187	-3.7625	-3.2583	-3.1188	-42.052	123.151	-106.920	-144.464	175.469	-140.500	159.778	172.922	156.356	70.903	144.396	132.011	25.772	209.000	152.171	75.360	0.00035531	0.00032099	9.6906e-05	1034.7	2.8315e-06	5.1186e-06	1122.4	211.09	1.7854e-06	2.4189e-06	270.17	76.889	59.537	17.955	3.3579e-06	24.995	9.7213e-05	8.4523e-05	2.3477e-05	1018.5	1.003e-06	8.8813e-07	1111.8	210.29	9.4763e-07	9.4716e-07	269.03	76.581	59.362	18	9.1934e-07	25.169	142.158	-97.146	-69.104	-140.079	-33.797	2.035	-140.233	-132.425	3.563	42.772	-132.532	-126.557	-126.131	-118.615	50.072	-119.024	-8191	255	
837.757	1	1	0	0	0.22055	0.1641	0.1828	0.21854	0.12462	0.31559	0.11869	0.05564	0.16376	0.10541	0.28631	0.05593	0.067094	0.15809	0.25321	0.078526	-3.1604	-2.9354	-3.2583	-3.7188	-2.9813	-3.5854	-3.5375	-3.3021	-3.6729	-2.9583	-3.3854	-3.4958	-3.125	-3.6	-3.3312	-3.1354	-58.315	-52.353	-11.948	170.711	121.946	-110.372	115.081	-123.017	18.225	-124.252	182.795	163.066	42.438	-9.397	125.113	0.478	0.00028461	0.0004476	5.707e-05	1033.1	1.5711e-06	3.1225e-06	1119	211.88	1.6003e-06	3.1875e-06	271.16	76.51	59.977	17.795	2.7041e-06	24.941	9.6461e-05	8.4553e-05	2.2781e-05	1017.8	9.6705e-07	9.1071e-07	1111.6	210.8	9.6433e-07	9.2298e-07	268.85	76.499	59.293	17.961	8.8737e-07	25.127	145.128	-60.794	-12.092	-139.997	-69.045	-6.202	-140.193	-132.849	-55.331	31.597	-132.930	-126.596	-126.365	-118.418	-5.385	-119.630	-8191	255	
837.853	1	1	0	0	0.079059	0.24471	0.041556	0.24878	0.13939	0.23266	0.14394	0.21904	0.20403	0.2287	0.18435	0.13402	0.11898	0.31709	0.080609	0.29179	-3.4042	-3.05	-3.1958	-3.5333	-2.9479	-3.5333	-3.625	-3.2042	-3.6	-3.2146	-3.2188	-3.7167	-2.9833	-3.4729	-3.5417	-2.95	136.166	126.598	-6.171	-59.753	-14.617	152.015	-146.165	141.990	-68.741	166.153	12.647	153.320	-1.070	-13.165	125.682	160.718	0.00035478	0.00023902	7.701e-05	1033	3.5485e-06	3.0078e-06	1124.8	212.94	3.0426e-06	3.4425e-06	270.93	77.121	59.851	17.981	3.2348e-06	24.933	9.3248e-05	7.9485e-05	2.2226e-05	1017.5	9.5124e-07	8.7826e-07	1112.1	210.71	9.1486e-07	8.6954e-07	268.71	76.737	59.378	17.969	8.8217e-07	25.167	141.886	-9.209	-44.528	-140.431	-32.740	24.509	-140.513	-132.968	-81.732	-19.522	-133.175	-126.770	-126.276	-118.758	16.413	-119.429	-8191	255	
837.949	1	1	0	0	0.073517	0.042269	0.24966	0.34773	0.18835	0.39696	0.3478	0.18063	0.087569	0.084287	0.20189	0.13515	0.37617	0.03049	0.080807	0.18897	-3.2542	-3.0729	-3.4021	-3.7396	-2.8937	-3.4625	-3.5271	-2.875	-3.5854	-3.3333	-3.1979	-3.5833	-3.0021	-3.3292	-3.4771	-3.05	-84.425	201.621	-65.234	193.472	60.719	-76.846	203.341	198.918	-18.499	122.383	168.043	-18.217	-104.390	-8.602	193.934	-97.319	0.00035046	0.00016642	4.683e-05	1033.2	3.01e-06	3.0511e-06	1115.6	212.56	3.4817e-06	2.6273e-06	268.99	76.923	59.622	17.869	4.4735e-06	24.793	9.3777e-05	7.7978e-05	2.2412e-05	1017.2	9.3334e-07	8.7469e-07	1108.6	210.37	8.9679e-07	8.6218e-07	268.15	76.674	59.366	17.938	8.9926e-07	25.164	146.258	-92.493	-31.624	-140.064	-23.283	-2.189	-140.362	-132.677	-41.133	45.641	-132.824	-126.482	-125.791	-118.418	-14.278	-118.924	-8191	255	
838.045	1	1	0	0	0.018588	0.16499	0.12047	0.15994	0.1586	0.26097	0.14032	0.19861	0.1206	0.12404	0.16344	0.11868	0.11795	0.27736	0.13981	0.16181	-3.2896	-3.3167	-3.1562	-3.8354	-2.9458	-3.3812	-3.6896	-3.1937	-3.4625	-3.2958	-3.0708	-3.6104	-3.1688	-3.2896	-3.6	-3.0479	-119.532	-30.212	-78.059	174.891	14.540	-99.154	56.962	-73.005	-84.758	-3.488	142.365	-22.737	154.732	206.125	173.335	131.841	0.0004036	0.0003397	9.21e-05	1032.5	3.5358e-06	2.6248e-06	1116.6	212.6	3.0937e-06	1.9649e-06	269.62	76.486	60.123	17.879	1.9859e-06	24.787	9.6018e-05	8.1773e-05	2.2169e-05	1016.6	9.3802e-07	9.0302e-07	1107.8	210.58	9.2868e-07	8.8748e-07	268.84	76.625	59.398	17.984	8.94e-07	25.126	143.138	-43.636	-75.663	-140.022	-72.028	-10.299	-140.253	-132.600	-52.987	34.473	-133.036	-126.703	-126.432	-117.933	63.109	-119.020	-8191	255	
838.142	1	1	0	0	0.26644	0.16326	0.043554	0.13645	0.28726	0.051462	0.15456	0.16166	0.20657	0.12801	0.10947	0.20394	0.13364	0.26406	0.1388	0.11794	-3.0583	-3.4354	-3.0354	-3.6583	-3.0375	-3.2979	-3.7708	-3.0875	-3.6188	-3.4604	-3.1667	-3.7562	-3.0625	-3.1354	-3.5646	-3.0521	-119.471	-46.730	-56.051	-34.633	152.772	-119.887	168.870	144.113	79.880	-71.898	149.982	151.181	14.265	12.723	11.894	63.722	0.00034672	3.4971e-05	8.639e-05	1031.4	3.6333e-06	2.9698e-06	1117.9	211.64	1.4291e-06	1.5842e-06	270.18	76.989	59.799	17.957	4.9908e-06	24.963	9.351e-05	7.9267e-05	2.36e-05	1016.9	9.0993e-07	9.1066e-07	1109.6	210.41	8.9293e-07	8.551e-07	268.71	76.62	59.372	17.97	8.8936e-07	25.182	154.439	202.655	-23.482	-140.032	-94.636	-35.083	-140.075	-132.575	-85.545	22.803	-132.989	-126.750	-126.406	-118.304	4.817	-119.209	-8191	255	
838.238	1	1	0	0	0.28897	0.14403	0.23307	0.14504	0.30041	0.12578	0.13673	0.046579	0.21546	0.052231	0.30583	0.18903	0.14195	0.1249	0.35206	0.16462	-3.1792	-3.3542	-2.9917	-3.725	-3.2771	-3.1625	-3.8854	-3.1354	-3.3688	-3.5604	-3.0396	-3.6917	-3.3833	-2.9729	-3.5583	-3.0583	-85.907	-34.732	-19.835	149.412	-116.051	-29.223	162.729	16.988	-70.876	-79.248	-110.868	144.898	-45.560	-46.158	-92.711	103.617	0.00032665	0.00014732	3.7452e-05	1030.6	5.6058e-06	4.557e-06	1116	211.2	3.2759e-06	5.4886e-07	270.71	76.497	59.566	17.87	3.0796e-06	25.072	9.7518e-05	8.2504e-05	2.2411e-05	1016.8	9.0784e-07	8.8144e-07	1109.3	209.78	9.3061e-07	8.6101e-07	268.78	76.549	59.385	17.935	9.049e-07	25.236	142.275	-71.109	-88.398	-139.887	-42.889	-21.205	-140.327	-132.611	-30.943	-2.047	-132.679	-126.817	-126.127	-118.546	12.774	-118.866	-8191	255	
838.358	1	1	0	0	0.0342	0.1853	0.21118	0.1149	0.16843	0.10134	0.16977	0.13991	0.21215	0.057727	0.14619	0.10689	0.012766	0.074106	0.079969	0.19454	-2.9104	-3.5875	-2.9813	-3.6292	-3.3438	-2.9167	-3.7625	-3.0938	-3.2229	-3.7208	-3.1667	-3.5042	-3.3604	-3.0938	-3.6542	-3.1271	-24.058	-116.487	163.675	-137.467	60.718	-108.059	140.396	156.422	-113.581	-106.108	192.148	-143.647	-57.235	174.989	11.029	148.870	0.00038178	0.0001731	7.1793e-05	1035.6	2.5565e-06	2.2059e-06	1124.7	213.14	3.6069e-06	2.1569e-06	270.82	76.971	59.741	17.77	3.7611e-06	25.121	9.6409e-05	8.1859e-05	2.274e-05	1017.5	9.329e-07	9.0218e-07	1112	210.5	9.3375e-07	8.692e-07	268.36	76.858	59.414	17.946	8.5351e-07	25.165	143.614	-64.376	-53.978	-140.539	-48.097	-47.631	-140.741	-132.978	-59.419	16.205	-132.963	-127.246	-126.496	-118.706	5.639	-119.364	-8191	255	
838.455	1	1	0	0	0.42558	0.10072	0.34039	0.35149	0.073238	0.19976	0.23523	0.1189	0.2275	0.10289	0.1657	0.066455	0.24867	0.038752	0.17272	0.13233	-2.925	-3.625	-2.95	-3.5375	-3.6479	-3.0729	-3.8646	-3.1708	-3.1271	-3.8458	-2.9958	-3.3875	-3.4938	-3.0479	-3.4229	-3.3312	96.478	-22.215	14.582	184.972	-146.313	-105.523	201.114	111.947	117.302	-8.332	149.175	-132.162	124.945	-104.940	177.657	135.088	0.00030215	0.00046966	4.1406e-05	1031.6	3.3517e-06	2.6519e-06	1117.9	212.28	1.6523e-06	2.2928e-06	270.45	76.786	59.704	17.904	2.3014e-06	24.909	9.8479e-05	8.2351e-05	2.1817e-05	1016.4	9.1715e-07	8.9934e-07	1109.8	210.17	9.1673e-07	9.0693e-07	268.4	76.597	59.435	17.987	8.7835e-07	25.113	146.401	-25.379	-76.183	-140.200	-74.421	-47.753	-140.259	-132.988	-60.900	21.242	-132.724	-127.206	-125.611	-118.376	30.753	-119.024	-8191	255	
838.526	1	1	0	0	0.1241	0.1533	0.16271	0.23127	0.17739	0.067881	0.22319	0.34278	0.077352	0.16196	0.3399	0.091274	0.051406	0.13218	0.05104	0.03892	-2.8417	-3.6813	-2.8708	-3.4833	-3.6167	-2.8667	-3.6792	-3.2708	-3.0687	-3.7146	-3.1271	-3.3229	-3.5812	-3.0292	-3.7021	-3.3979	-131.827	201.854	46.177	189.625	26.938	61.323	93.341	105.872	-21.265	-48.868	136.576	158.723	40.434	139.247	181.212	31.777	0.00037673	0.00018117	7.8188e-05	1028.3	3.097e-06	3.7429e-06	1115.8	212.31	1.9964e-06	1.3256e-06	269.1	76.547	59.988	17.853	2.4506e-06	24.851	9.6004e-05	7.9987e-05	2.2261e-05	1014.6	9.329e-07	8.9666e-07	1107.7	210.76	9.7094e-07	8.624e-07	267.74	76.645	59.461	17.952	8.8443e-07	25.099	157.917	-92.407	-22.207	-139.782	-27.577	5.771	-140.294	-132.610	-39.250	-29.988	-132.665	-126.852	-125.991	-118.254	37.714	-119.281	-8191	255	
838.647	1	1	0	0	0.21165	0.11796	0.10781	0.19647	0.067791	0.011372	0.24833	0.15069	0.034236	0.10913	0.1668	0.17084	0.38284	0.057623	0.2499	0.12581	-2.6833	-3.5333	-3.0625	-3.3667	-3.525	-3.1562	-3.7229	-3.6312	-3.1562	-3.8146	-3.1937	-3.2438	-3.7104	-2.9167	-3.4667	-3.5875	59.803	-111.784	27.390	202.755	-115.955	169.325	174.256	133.804	0.072	-15.735	83.641	139.236	54.066	-70.649	25.611	126.772	0.00036322	0.00020962	3.9349e-05	1030.4	2.987e-06	1.9e-06	1117.7	211.66	3.2699e-06	2.7349e-06	270.93	76.379	59.462	17.717	2.7271e-06	24.777	9.8018e-05	7.951e-05	2.2342e-05	1014.7	9.4226e-07	8.975e-07	1110.2	210.22	8.9563e-07	8.6118e-07	268.07	76.352	59.26	17.891	8.5628e-07	25.077	149.527	-47.606	-31.986	-140.106	-49.963	0.230	-140.133	-132.510	-109.205	13.782	-132.642	-126.402	-126.062	-118.419	11.898	-118.971	-8191	255	
838.741	1	1	0	0	0.16171	0.13644	0.16482	0.14385	0.22295	0.18881	0.20829	0.11062	0.21213	0.075743	0.098816	0.1682	0.14457	0.11996	0.1595	0.11828	-2.9396	-3.5708	-3.0333	-3.275	-3.6771	-3.2021	-3.6521	-3.6917	-3.0812	-3.7687	-3.3438	-3.2	-3.6729	-3.0958	-3.5458	-3.6458	-11.251	-64.614	-103.105	61.080	175.722	-139.528	143.265	108.409	-97.058	124.090	129.571	148.544	-41.127	-61.293	-100.232	-46.829	0.00034954	0.00025458	6.0785e-05	1031.6	2.9854e-06	2.0075e-06	1114.6	211.97	2.2246e-06	8.4241e-07	268.98	76.54	59.525	17.735	1.8978e-06	24.814	9.6742e-05	7.7806e-05	2.1742e-05	1015.5	8.8371e-07	8.5897e-07	1107	210.05	9.0676e-07	8.492e-07	268.48	76.716	59.348	17.894	8.7276e-07	25.09	144.407	-84.509	-54.690	-140.135	-24.667	11.940	-140.146	-132.598	-40.035	-107.297	-132.401	-126.797	-125.858	-118.059	-23.976	-119.152	-8191	255	
838.839	1	1	0	0	0.20369	0.1093	0.13527	0.063835	0.090449	0.22577	0.15612	0.12173	0.062743	0.18668	0.046119	0.14779	0.18206	0.1409	0.12507	0.13834	-2.6937	-3.4917	-3.4229	-3.25	-3.7521	-3.0646	-3.4479	-3.575	-3.2188	-3.5687	-3.5729	-3.0792	-3.8646	-3.1021	-3.2771	-3.7396	134.797	-0.864	98.483	-137.068	159.735	-87.213	-134.810	190.078	176.379	21.165	140.124	54.868	-20.252	-134.427	39.902	25.441	0.00031638	0.00028096	8.2304e-05	1027	3.3953e-06	1.9838e-06	1120.1	211	3.3013e-06	1.7606e-06	270.57	77.203	59.384	17.952	3.1469e-06	24.92	9.509e-05	7.6796e-05	2.2134e-05	1014	8.895e-07	8.593e-07	1108.4	209.88	8.9591e-07	8.2568e-07	268.36	76.644	59.216	17.961	8.5661e-07	25.13	149.948	-70.278	-25.516	-139.974	-76.676	5.586	-140.176	-132.817	-38.633	47.500	-132.698	-127.400	-126.224	-119.028	21.865	-119.666	-8191	255	
838.958	1	1	0	0	0.31121	0.015324	0.17769	0.19637	0.19849	0.30266	0.45007	0.29403	0.15828	0.22168	0.073158	0.34547	0.05191	0.25497	0.27184	0.1702	-2.6354	-3.5375	-3.4458	-2.9917	-3.7625	-3.1583	-3.2729	-3.775	-3.0083	-3.5062	-3.5583	-3.1417	-3.6396	-3.3063	-3.3854	-3.6562	135.175	32.142	153.157	-148.374	-86.817	176.199	97.818	104.687	-128.403	19.908	140.452	204.210	122.241	-97.780	-39.093	41.240	0.00033717	0.00024224	6.5746e-05	1030.8	2.2235e-06	2.9005e-06	1120.3	212	4.3517e-06	1.4763e-06	270.43	76.388	59.75	17.838	2.3818e-06	24.824	9.4543e-05	7.5918e-05	2.0609e-05	1014	8.9027e-07	8.5936e-07	1108.5	209.8	9.1348e-07	8.41e-07	267.87	76.492	59.333	17.897	9.1005e-07	25.094	153.371	-65.953	-83.751	-140.429	-38.815	-13.376	-140.516	-132.908	-43.720	18.237	-133.083	-126.419	-126.306	-118.572	68.539	-119.154	-8191	255	
839.054	1	1	0	0	0.17241	0.20174	0.32962	0.28219	0.12253	0.17392	0.12852	0.11428	0.20745	0.20377	0.11162	0.22661	0.24171	0.16236	0.037759	0.27789	-2.7479	-3.3896	-3.5625	-3.1	-3.7562	-3.1792	-3.3417	-3.8375	-3.0021	-3.4188	-3.6396	-2.9542	-3.5604	-3.4417	-3.2292	-3.7521	176.701	142.977	86.743	182.904	-67.904	66.850	144.522	-126.966	156.196	41.668	131.827	-98.923	96.439	109.264	83.447	90.145	0.00032712	0.00028954	8.3381e-05	1036.1	2.9024e-06	4.2684e-06	1119	211.05	3.3413e-06	2.8429e-06	270.47	76.879	59.634	17.777	2.1438e-06	24.827	9.5971e-05	7.9865e-05	2.2415e-05	1016	8.8757e-07	8.7123e-07	1108.2	210.07	9.2202e-07	8.8252e-07	268.48	76.702	59.341	17.984	9.4944e-07	25.084	155.912	-72.217	-41.237	-140.477	-73.770	-25.754	-140.266	-132.767	-79.832	22.511	-132.628	-127.015	-126.421	-118.746	44.279	-119.040	-8191	255	
839.150	1	1	0	0	0.1371	0.1356	0.1819	0.060639	0.12693	0.060686	0.11215	0.082637	0.13015	0.15648	0.16693	0.19423	0.090137	0.11423	0.14791	0.054151	-2.7292	-3.175	-3.5521	-2.9604	-3.4562	-3.3042	-3.1917	-3.7729	-3.2938	-3.2229	-3.6	-3.0375	-3.55	-3.475	-3.1208	-3.7729	154.302	-128.554	12.852	-81.314	127.925	-3.769	167.896	-72.299	164.772	101.472	-115.972	201.592	24.950	27.761	155.790	-23.076	0.00040085	0.00035537	0.00010131	1031.3	3.3965e-06	2.9682e-06	1114.4	211.76	3.0351e-06	2.5116e-06	270.14	76.515	59.632	17.8	4.9821e-06	24.71	9.6494e-05	8.4731e-05	2.3496e-05	1015	9.0453e-07	9.0542e-07	1106.8	209.79	9.0108e-07	8.7333e-07	268.33	76.468	59.224	17.869	8.7481e-07	25.011	150.178	-44.841	-31.759	-140.129	-5.507	-19.102	-140.119	-132.758	-48.968	14.633	-132.627	-126.741	-125.803	-118.579	2.086	-118.860	-8191	255	
839.246	1	1	0	0	0.069629	0.1087	0.21253	0.13483	0.15233	0.16795	0.24566	0.17436	0.043596	0.15386	0.1145	0.34407	0.11969	0.20196	0.15631	0.051634	-2.8625	-3.0896	-3.7042	-3.2604	-3.3958	-3.5833	-3.1813	-3.5187	-3.1562	-3.1083	-3.8208	-3.0625	-3.4354	-3.5125	-3.1104	-3.7083	195.765	178.106	81.347	-66.918	100.175	33.778	171.436	133.426	28.723	-110.669	-93.574	130.573	128.234	-97.331	-17.066	155.136	0.00038199	0.00026697	9.8191e-05	1027.5	2.6546e-06	3.0397e-06	1113.1	212	1.9033e-06	1.8558e-06	269.24	76.284	59.075	17.923	2.9462e-06	24.822	9.1259e-05	7.6552e-05	2.1065e-05	1015.4	8.9247e-07	8.385e-07	1104.2	210.07	8.758e-07	8.1576e-07	267.44	76.428	58.851	17.937	8.4936e-07	25.022	143.486	-7.476	-47.093	-139.956	-92.273	14.622	-140.192	-132.702	-68.504	-22.660	-132.684	-126.822	-126.091	-118.421	-19.680	-119.629	-8191	255	
839.343	1	1	0	0	0.073916	0.055203	0.13029	0.18815	0.2097	0.19947	0.18155	0.38671	0.20681	0.17505	0.23212	0.15709	0.15275	0.094823	0.17335	0.1061	-2.9417	-2.95	-3.7146	-3.2875	-3.3958	-3.4521	-3.1479	-3.7396	-3.2979	-3.2042	-3.725	-3.3375	-3.2979	-3.7313	-3.0354	-3.6208	43.002	-62.071	16.848	165.959	-34.216	23.347	-129.505	192.614	-139.304	132.326	86.778	20.832	-106.752	99.437	-102.214	-11.254	0.00027843	0.00015995	4.5995e-05	1026.7	2.3891e-06	1.9205e-06	1111.9	211.09	1.8283e-06	1.8227e-06	271.01	76.375	59.539	17.824	1.5437e-06	24.67	9.0616e-05	7.8861e-05	2.1537e-05	1013	8.9897e-07	8.2746e-07	1103.5	209.5	8.9789e-07	8.5193e-07	268.24	76.518	59.277	17.895	9.002e-07	25.059	145.064	15.484	-75.479	-140.013	-28.438	-2.953	-140.164	-132.807	6.821	-10.593	-132.540	-126.525	-126.113	-118.419	-11.161	-118.896	-8191	255	
839.439	1	1	0	0	0.19121	0.21878	0.11962	0.076972	0.12865	0.11346	0.15188	0.18259	0.014046	0.076908	0.14911	0.14198	0.082204	0.048616	0.12061	0.096355	-3.0521	-3.1521	-3.7167	-3.2625	-3.2958	-3.8083	-3.4042	-3.6167	-3.5146	-2.9938	-3.7292	-3.3417	-3.2188	-3.6125	-2.9979	-3.4646	40.216	27.479	134.832	-100.745	9.448	12.233	119.945	101.447	153.197	173.590	-128.351	-128.897	-130.901	-100.601	-26.094	208.249	0.00031169	0.00014332	0.00011182	1029.1	3.5217e-06	2.819e-06	1113.2	210.86	1.8238e-06	3.9946e-06	271.49	76.766	60.062	17.809	1.4123e-06	24.925	9.4381e-05	7.9155e-05	2.1816e-05	1013.6	9.3356e-07	8.6828e-07	1103.3	209.68	8.9117e-07	8.9935e-07	268.49	76.52	59.26	17.94	8.7968e-07	25.034	148.055	-34.404	-31.281	-139.952	-55.173	-27.392	-140.043	-132.583	-54.025	16.414	-132.967	-126.682	-125.940	-118.554	44.254	-119.116	-8191	255	
839.535	1	1	0	0	0.24044	0.06651	0.27176	0.264	0.039703	0.061363	0.065525	0.19758	0.055285	0.073287	0.088129	0.11645	0.24978	0.2003	0.13346	0.11001	-3.1521	-2.925	-3.5708	-3.2917	-3.1208	-3.6958	-3.2229	-3.45	-3.5062	-3.0687	-3.6625	-3.4125	-3.2438	-3.65	-3.1208	-3.2208	-71.874	62.800	-27.872	18.709	-146.542	198.406	64.205	-123.564	-51.819	153.229	28.681	197.801	173.840	179.086	36.802	197.852	0.00034639	0.00025848	2.4764e-05	1032.1	3.7208e-06	2.5421e-06	1109.9	211.95	2.862e-06	1.9583e-06	269.34	76.724	59.433	17.869	1.9696e-07	24.785	9.3539e-05	8.0814e-05	2.1742e-05	1013.6	9.2811e-07	8.4698e-07	1103.6	209.69	8.8742e-07	8.7277e-07	267.43	76.402	59.276	17.892	8.8482e-07	25.013	149.237	-72.275	-37.976	-140.304	-28.684	-25.450	-140.328	-132.736	-48.394	7.630	-132.686	-126.730	-125.907	-118.627	-30.397	-118.762	-8191	255	
839.656	1	1	0	0	0.053632	0.14311	0.15393	0.11614	0.15947	0.023514	0.3089	0.084129	0.095442	0.29439	0.097951	0.079875	0.0064311	0.14702	0.03733	0.20435	-3.1479	-2.8833	-3.4	-3.4813	-3.0729	-3.7917	-3.325	-3.4104	-3.6083	-3.0542	-3.5563	-3.3479	-2.9979	-3.6312	-3.1708	-3.3542	9.154	117.208	127.517	162.306	58.894	-45.339	98.944	-123.740	136.202	14.037	-128.674	-144.527	193.853	-73.345	-49.001	-79.397	0.00031743	0.00024724	6.3571e-05	1023.3	2.5708e-06	1.6503e-06	1110.4	211.74	2.7383e-06	8.7924e-07	270.12	76.861	59.935	17.952	1.3657e-06	24.797	9.3643e-05	7.6766e-05	2.1846e-05	1011.4	9.1516e-07	8.3694e-07	1104.5	210.05	8.9844e-07	8.351e-07	267.74	76.568	59.311	17.935	8.5533e-07	25.025	143.473	-64.513	-28.702	-139.952	-72.174	-29.401	-140.245	-132.886	-58.310	-10.695	-132.788	-127.114	-126.385	-118.765	8.642	-119.604	-8191	255	
839.750	1	1	0	0	0.024578	0.29602	0.2705	0.19425	0.23326	0.2395	0.19823	0.10049	0.24109	0.21735	0.2925	0.17746	0.20406	0.25569	0.12056	0.028202	-3.1896	-2.9583	-3.4708	-3.5417	-2.9104	-3.6833	-3.3021	-3.2313	-3.7062	-2.9646	-3.3	-3.3854	-3.05	-3.5875	-3.1813	-3.0646	-15.475	100.200	-69.063	-140.350	167.947	-39.608	156.142	8.465	176.876	24.629	199.892	-47.204	-137.170	129.909	186.659	-21.892	0.00030081	8.7866e-05	7.2526e-05	1031.2	3.0749e-06	2.2494e-06	1111.1	212.35	2.1947e-06	2.4687e-06	269.71	76.887	59.752	18.022	2.3004e-06	24.969	9.2729e-05	7.6355e-05	2.0729e-05	1013.1	9.1428e-07	8.283e-07	1103.6	210.04	8.5531e-07	8.3047e-07	267.45	76.577	59.201	17.93	8.5605e-07	25.11	142.058	-43.026	13.189	-140.442	-35.843	-8.915	-140.387	-133.170	-71.341	6.517	-133.329	-126.477	-126.310	-118.966	18.806	-119.116	-8191	255	
839.823	1	1	0	0	0.1767	0.1939	0.056387	0.10923	0.30067	0.089173	0.20273	0.05919	0.34924	0.1157	0.11358	0.076167	0.13669	0.064104	0.14145	0.05001	-3.3688	-3.0438	-3.4313	-3.3979	-3.0021	-3.6437	-3.3438	-3.2042	-3.7146	-3.1896	-3.3771	-3.5667	-3.1	-3.6479	-3.3104	-3.1312	-15.720	101.216	-142.662	-128.322	-123.346	148.955	-82.940	-131.118	-46.397	16.718	10.030	99.745	63.226	-89.643	-107.304	25.164	0.00033062	0.00019791	6.7431e-05	1033.4	3.5925e-06	1.3189e-06	1118.2	211.17	3.2005e-06	2.3679e-06	268.85	76.659	59.776	17.825	1.7901e-06	24.802	9.2287e-05	7.6664e-05	2.1694e-05	1012.4	8.8553e-07	8.245e-07	1104.6	209.38	8.515e-07	8.5867e-07	267.97	76.341	59.185	17.904	8.5329e-07	24.999	149.939	-7.685	-48.105	-140.130	-13.223	-17.967	-140.597	-133.229	-87.093	-6.637	-133.323	-127.271	-126.777	-118.601	15.806	-119.385	-8191	255	
839.920	1	1	0	0	0.25111	0.034797	0.11108	0.21945	0.091796	0.096604	0.11004	0.21506	0.20045	0.056466	0.12586	0.12001	0.16766	0.084081	0.084249	0.25574	-3.3208	-3.1688	-3.3875	-3.8104	-3.0479	-3.4437	-3.5583	-3.1604	-3.5917	-3.1292	-3.2646	-3.6792	-3.0917	-3.4104	-3.5812	-3.0833	13.329	-150.396	133.012	-144.722	7.432	172.080	146.679	144.983	-74.979	169.514	43.443	-148.222	-133.589	-26.452	-94.734	24.299	0.00030134	0.00029665	2.9454e-05	1024.8	6.1982e-07	1.835e-06	1112.6	211.34	3.7214e-06	3.0421e-06	270.91	76.67	59.571	17.863	2.1423e-06	24.895	9.3405e-05	7.7613e-05	2.1843e-05	1012.3	8.8674e-07	8.5105e-07	1102.8	209.6	8.861e-07	8.5549e-07	267.67	76.318	59.182	17.918	8.5091e-07	25.014	143.820	-119.424	-2.272	-140.267	184.117	-8.113	-140.467	-132.861	-35.441	-0.393	-132.866	-127.079	-126.236	-118.464	-3.980	-119.288	-8191	255	
840.038	1	1	0	0	0.045118	0.18014	0.25676	0.23306	0.19071	0.069152	0.22598	0.44654	0.2242	0.21381	0.099569	0.34839	0.080013	0.3181	0.13021	0.10538	-3.2208	-3.2625	-3.175	-3.8458	-3.0083	-3.5167	-3.6854	-3.0708	-3.5042	-3.2896	-3.1937	-3.7438	-2.9292	-3.2229	-3.6896	-3.1271	194.177	-21.230	52.353	121.258	-75.641	23.673	177.605	101.149	111.664	34.419	-41.378	116.524	171.533	-98.848	76.312	-87.041	0.00033291	0.0002468	9.9411e-05	1034.5	1.7084e-06	1.4375e-06	1119.3	212.27	4.4432e-06	3.52e-06	270.92	76.911	59.316	17.82	1.545e-06	24.972	9.1268e-05	7.9931e-05	2.3342e-05	1013.7	8.9208e-07	8.7218e-07	1106	209.73	9.0213e-07	8.4858e-07	267.49	76.57	59.064	17.879	8.9434e-07	24.988	147.272	-56.630	-22.307	-140.533	-94.514	1.410	-140.533	-132.687	-52.301	11.086	-132.606	-126.885	-126.556	-118.516	26.153	-119.593	-8191	255	
840.135	1	1	0	0	0.11664	0.214	0.23155	0.16022	0.31262	0.19347	0.20328	0.10238	0.17862	0.12888	0.22279	0.29003	0.25251	0.14135	0.19458	0.15805	-3.1729	-3.3375	-3.0583	-3.7625	-3.0104	-3.3688	-3.7875	-3.1958	-3.5229	-3.4854	-3.2938	-3.6729	-3.2146	-3.4604	-3.75	-3.0875	-92.425	186.404	-114.226	-104.790	132.106	-12.056	113.787	-85.818	203.733	132.262	115.994	-134.024	156.226	201.596	164.634	-149.469	0.00036876	0.0002921	7.4438e-05	1033.3	1.4861e-06	5.055e-07	1112.6	211.72	3.0889e-06	2.162e-06	270.24	76.16	59.246	17.858	1.6791e-06	24.785	9.2225e-05	7.9952e-05	2.267e-05	1014.1	9.1428e-07	8.9114e-07	1104.5	209.79	9.1937e-07	8.6062e-07	267.48	76.118	59.135	17.879	8.4919e-07	25.052	146.579	-70.786	-31.605	-140.082	-7.360	1.560	-140.377	-132.961	-33.978	-35.843	-132.830	-126.725	-126.060	-118.597	-22.575	-119.044	-8191	255	
840.231	1	1	0	0	0.067693	0.067586	0.14189	0.1597	0.094317	0.096465	0.24781	0.23549	0.12031	0.038162	0.12331	0.080268	0.16435	0.12045	0.050093	0.086149	-3.1688	-3.4125	-3.1667	-4.0021	-3.2104	-3.4146	-3.7917	-3.1896	-3.4313	-3.4458	-3.225	-3.5729	-3.1708	-3.2271	-3.9104	-3.2812	-92.468	88.170	47.292	153.951	-99.288	-54.769	7.767	155.032	1.390	122.237	-138.791	192.530	-87.552	193.672	158.723	-114.303	0.0003214	0.00015157	9.3572e-05	1033.8	2.92e-06	3.9317e-06	1114.4	211.98	3.2715e-06	1.1124e-06	270.19	76.485	59.281	17.884	4.0156e-06	24.747	9.2958e-05	7.778e-05	2.1588e-05	1012.3	8.9737e-07	8.5746e-07	1103	209.7	8.9227e-07	8.371e-07	267.69	76.334	59.15	17.898	8.4803e-07	24.985	142.646	-78.872	-38.748	-140.254	-84.212	-47.845	-140.346	-132.969	-54.174	-10.387	-132.792	-126.521	-125.969	-118.654	-1.181	-118.921	-8191	255	
840.327	1	1	0	0	0.095853	0.12446	0.06209	0.31682	0.23559	0.087617	0.12068	0.057914	0.097956	0.18483	0.19874	0.24357	0.023642	0.1533	0.23931	0.20158	-3.0312	-3.5354	-3.0396	-3.7604	-3.2729	-3.2562	-3.6417	-3.0187	-3.3937	-3.4854	-3.0146	-3.4646	-3.4375	-3.1312	-3.725	-3.1708	128.969	64.249	-119.302	202.727	93.627	123.181	-71.551	176.304	-132.042	16.188	118.481	-101.849	-107.460	165.435	194.355	76.948	0.00037134	0.00027673	9.0246e-05	1026	1.2441e-06	3.8465e-06	1115.7	211.13	2.4604e-06	1.4018e-06	270.12	76.925	59.121	17.757	4.1133e-06	24.827	9.5362e-05	7.5934e-05	2.2038e-05	1010.5	9.1566e-07	8.3605e-07	1103.8	209.39	8.9695e-07	8.3995e-07	267.62	76.424	58.938	17.816	8.4859e-07	25.07	141.165	-37.052	-66.241	-139.973	-85.448	-6.094	-140.147	-132.555	-27.284	-16.695	-132.847	-126.636	-126.175	-118.737	-20.675	-119.106	-8191	255	
840.447	1	1	0	0	0.070841	0.075254	0.1696	0.20685	0.15028	0.2601	0.10708	0.14951	0.20171	0.15167	0.054774	0.10961	0.14616	0.12639	0.0546	0.19122	-2.9875	-3.5396	-2.8479	-3.6833	-3.3125	-3.2271	-4.1167	-3.1875	-3.3	-3.6708	-3.2	-3.4958	-3.5875	-3.0917	-3.65	-3.2771	87.798	61.505	-117.208	97.289	66.055	-18.596	102.933	144.374	87.542	103.890	-140.398	200.745	30.936	15.301	204.011	38.079	0.00039613	0.00030853	6.8572e-05	1027.3	1.6515e-06	3.1662e-06	1115.6	211.58	2.8504e-06	2.8747e-06	270.3	76.803	59.684	17.785	3.1693e-06	24.703	9.4067e-05	7.7745e-05	2.1776e-05	1010.3	8.8762e-07	8.3939e-07	1103.1	209.9	8.7949e-07	8.0774e-07	267.67	76.298	59.188	17.847	7.9824e-07	24.989	146.883	-43.058	-48.650	-139.940	-35.607	19.369	-140.575	-133.066	-69.643	5.292	-133.144	-127.046	-126.169	-118.604	-7.008	-119.220	-8191	255	
840.519	1	1	0	0	0.1184	0.19795	0.2613	0.2874	0.095351	0.1563	0.22994	0.17873	0.035895	0.036186	0.15656	0.027214	0.28243	0.1053	0.15704	0.074896	-3.0625	-3.7	-2.8333	-3.6375	-3.4792	-2.8	-3.8521	-3.2896	-3.1604	-3.7542	-3.0354	-3.6333	-3.4458	-3.1625	-3.6792	-3.4375	160.957	13.435	204.984	198.105	58.527	40.088	-150.510	183.750	159.216	130.883	112.873	-76.603	-9.228	-87.145	-16.281	-36.564	0.00039074	0.00021563	0.00010134	1028.8	1.9966e-06	1.1422e-06	1111.1	211.57	1.9025e-06	1.2129e-06	270.6	76.446	59.752	17.671	4.8013e-06	24.805	9.1877e-05	7.5807e-05	2.1286e-05	1011.3	8.6019e-07	8.1313e-07	1101.4	209.27	8.7101e-07	7.9486e-07	267.94	76.218	59.159	17.848	8.3055e-07	24.962	150.143	-33.048	-46.360	-140.278	-43.508	-106.219	-140.405	-133.020	-73.954	-16.340	-133.185	-126.857	-126.206	-118.832	-12.655	-119.442	-8191	255	
840.640	1	1	0	0	0.2623	0.32544	0.13946	0.24585	0.23078	0.066863	0.18624	0.14439	0.17997	0.11419	0.05005	0.072803	0.1766	0.16149	0.11465	0.29534	-3.1375	-3.6479	-3.0917	-3.4708	-3.4688	-2.9333	-3.7604	-3.575	-3.0667	-3.7604	-3.175	-3.4479	-3.6292	-2.9625	-3.6437	-3.475	105.151	20.125	183.481	202.482	59.536	-124.629	168.466	35.819	-144.273	-69.025	40.064	-29.256	8.782	141.441	152.053	100.773	0.00037368	0.00010214	6.3493e-05	1024.7	2.2408e-06	3.0208e-06	1103.8	209.78	3.2311e-06	2.4334e-06	268.24	76.404	59.578	17.565	5.2766e-06	24.654	9.2948e-05	7.1946e-05	2.0692e-05	1009.6	8.5502e-07	8.1252e-07	1099.4	208.98	8.8621e-07	8.1543e-07	266.96	76.259	59.107	17.765	8.6208e-07	24.908	147.433	-73.791	-85.440	-139.821	-37.093	-25.788	-140.125	-132.439	-42.167	7.720	-132.795	-127.054	-126.007	-118.253	13.086	-118.977	-8191	255	
840.736	1	1	0	0	0.15713	0.15015	0.095102	0.17101	0.12939	0.28257	0.13804	0.28179	0.10559	0.186	0.1949	0.20236	0.2096	0.15319	0.034114	0.15208	-2.7292	-3.7646	-3.0187	-3.1542	-3.6625	-3.0146	-3.6104	-3.5625	-2.8063	-3.8312	-3.2125	-3.3396	-3.7604	-3.0792	-3.4708	-3.6562	-42.358	-109.725	149.753	140.263	148.188	116.268	53.714	94.152	-108.864	-19.520	89.010	154.727	181.719	173.311	124.012	84.954	0.00037135	0.0001853	8.3212e-05	1023.8	3.9397e-06	1.8754e-06	1111	209.89	2.6374e-06	8.9954e-07	269.13	76.608	59.304	17.825	1.8143e-06	24.837	9.1092e-05	7.7268e-05	2.0675e-05	1009.1	8.6179e-07	8.1792e-07	1101.2	208.99	9.3199e-07	8.3304e-07	266.73	76.437	59.03	17.864	8.9229e-07	25	143.703	-17.745	-28.138	-140.108	-48.658	-0.114	-140.058	-132.650	-75.809	17.116	-132.804	-127.249	-125.905	-118.502	-4.620	-119.549	-8191	255	
840.830	1	1	0	0	0.19013	0.14655	0.18941	0.15884	0.024302	0.19246	0.15456	0.21682	0.045615	0.12467	0.020935	0.19389	0.24445	0.17982	0.34064	0.22886	-2.4708	-3.7042	-3.1021	-3.2479	-3.7521	-2.9583	-3.5	-3.5625	-2.8208	-3.5375	-3.3438	-2.9542	-3.7083	-3.0125	-3.2958	-3.6688	100.198	-64.940	12.935	61.150	19.031	-87.669	116.112	-142.545	-129.977	132.142	111.510	175.864	-107.089	163.943	-63.653	120.002	0.00032557	0.00027274	6.5892e-05	1025.5	1.882e-06	2.3219e-06	1114.6	211.75	3.1381e-06	1.6803e-06	269.39	76.271	59.671	17.846	2.9604e-06	24.767	9.3067e-05	7.8541e-05	2.193e-05	1008.2	8.7115e-07	8.8077e-07	1102.4	209.48	8.8715e-07	8.3426e-07	267.44	76.309	59.109	17.873	9.0236e-07	24.959	155.700	-50.559	-39.954	-140.342	11.351	51.351	-140.172	-132.997	-59.222	2.936	-132.768	-126.925	-126.038	-118.579	-32.007	-118.819	-8191	255	
840.926	1	1	0	0	0.16084	0.19751	0.15152	0.14431	0.13549	0.11883	0.1949	0.14284	0.024835	0.12979	0.15482	0.11405	0.047184	0.083773	0.12208	0.10131	-2.7271	-3.5292	-3.3104	-3.0396	-3.5667	-3.2208	-3.4417	-3.5979	-3.0104	-3.5354	-3.2625	-3.1417	-3.5792	-3.1771	-3.2292	-3.6292	-89.866	40.606	22.508	-33.900	-42.031	7.513	-35.649	176.055	187.602	20.165	-69.388	121.496	126.602	1.879	52.671	-145.504	0.0003455	0.00026978	5.2173e-05	1029	2.3903e-06	1.9924e-06	1113	211.27	5.0017e-06	1.7999e-06	269.91	76.756	59.568	17.855	2.709e-06	24.666	9.3196e-05	8.0591e-05	2.1898e-05	1010.7	9.0062e-07	8.6649e-07	1101.8	209.36	9.3678e-07	8.6329e-07	266.96	76.296	59.033	17.846	9.0402e-07	24.932	146.508	-45.167	-15.340	-140.321	-101.375	21.359	-140.571	-132.972	-40.084	26.722	-133.315	-127.482	-126.414	-118.555	-5.079	-118.979	-8191	255	
841.047	1	1	0	0	0.14336	0.080416	0.16253	0.21391	0.089162	0.13588	0.13587	0.15307	0.066457	0.19095	0.093111	0.0048593	0.13362	0.075839	0.21832	0.10595	-2.5	-3.3125	-3.4604	-2.8417	-3.5125	-2.9333	-3.4479	-3.6271	-2.9688	-3.5375	-3.4396	-2.8208	-3.6437	-3.2354	-3.1458	-3.8167	179.484	7.181	-44.726	188.470	-2.863	50.124	99.235	-111.111	201.077	2.673	122.374	140.546	73.691	191.882	-46.796	187.536	0.00034839	0.0001297	3.8243e-05	1029.4	3.4818e-06	3.0464e-06	1113.4	211.8	3.1669e-06	1.933e-06	268.28	76.265	59.393	17.822	3.4071e-06	24.727	9.4905e-05	8.1124e-05	2.2586e-05	1009.7	9.1114e-07	8.7687e-07	1100.6	209.37	9.2587e-07	8.9924e-07	266.85	76.374	59.136	17.857	9.225e-07	24.995	146.571	16.274	-95.465	-140.459	-55.580	-3.275	-140.476	-132.938	-79.908	-4.232	-132.684	-127.041	-126.610	-118.420	15.960	-118.991	-8191	255	
841.119	1	1	0	0	0.15586	0.2276	0.16145	0.2198	0.10347	0.22506	0.12515	0.084053	0.21001	0.17628	0.0874	0.10595	0.097736	0.11786	0.28404	0.1026	-2.4688	-3.3271	-3.4646	-3.1479	-3.5333	-3.1854	-3.2354	-3.8	-2.9792	-3.1542	-3.5875	-2.875	-3.6396	-3.2604	-3.0146	-3.7417	-26.303	48.042	104.908	132.403	66.716	-79.257	108.134	89.013	175.940	-17.697	-56.691	0.379	180.196	88.438	-71.808	159.196	0.00034609	0.00018868	6.3997e-05	1023.3	2.887e-06	3.8142e-06	1114.7	210.18	2.6689e-06	2.2783e-06	269.1	76.184	59.392	17.877	6.2709e-07	24.838	9.7851e-05	8.1651e-05	2.3485e-05	1008.2	9.2728e-07	8.8289e-07	1101.4	209.29	9.4262e-07	9.2108e-07	267.12	76.133	59.137	17.876	9.3445e-07	24.975	147.821	-38.535	-27.023	-140.109	-27.100	6.711	-140.641	-132.887	-22.778	18.547	-132.970	-127.225	-126.452	-118.382	79.925	-119.467	-8191	255	
841.215	1	1	0	0	0.17084	0.20516	0.09795	0.18721	0.16147	0.099975	0.17192	0.1227	0.18539	0.11714	0.12793	0.14899	0.28246	0.156	0.26091	0.27069	-2.7562	-3.3729	-3.6542	-3.1917	-3.625	-3.5542	-3.2313	-3.9333	-3.1521	-3.2146	-3.5833	-3.025	-3.3875	-3.5521	-3.1083	-3.7062	195.399	9.891	26.032	-144.481	71.486	101.055	158.421	162.903	93.882	-31.461	96.845	181.254	180.876	-11.021	-123.039	1.946	0.00037162	4.4558e-05	5.0683e-05	1027	2.8658e-06	3.8113e-06	1110.1	211.57	2.8006e-06	1.7113e-06	269.58	75.839	58.917	17.89	2.8589e-06	24.622	9.5457e-05	8.193e-05	2.1928e-05	1009.9	8.9594e-07	8.7603e-07	1100.5	209.26	9.3876e-07	8.7951e-07	267.35	76.022	58.931	17.866	8.6568e-07	24.92	150.333	201.570	-15.386	-140.253	-25.002	-19.505	-140.283	-132.780	-70.192	-7.245	-132.803	-127.013	-126.264	-118.678	40.116	-118.973	-8191	255	
841.336	1	1	0	0	0.2854	0.19956	0.14882	0.11528	0.088953	0.20472	0.17591	0.042412	0.12468	0.15059	0.24543	0.072284	0.091213	0.106	0.12434	0.27421	-2.6167	-3.0854	-3.5604	-3.125	-3.4313	-3.4	-3.1479	-3.8375	-3.2979	-3.075	-3.6375	-3.0896	-3.5417	-3.4354	-2.975	-3.6354	159.308	198.272	30.256	-5.797	-63.324	-94.309	156.820	161.542	25.273	-30.330	111.379	154.345	-148.281	-2.925	115.362	-90.525	0.00029376	0.00048453	0.00011439	1026.3	2.6263e-06	3.9454e-06	1118.5	211.39	2.8044e-06	1.9491e-06	270.53	75.967	59.491	17.808	8.739e-07	24.791	9.4576e-05	8.0951e-05	2.1676e-05	1010.1	9.1671e-07	8.6599e-07	1103.1	209.22	9.2791e-07	8.7216e-07	267.04	76.105	59.179	17.825	8.8443e-07	24.919	144.122	-57.503	-72.201	-140.498	-86.010	-44.888	-140.364	-132.839	-47.613	-35.422	-133.321	-127.358	-126.170	-118.700	48.956	-119.393	-8191	255	
841.432	1	1	0	0	0.18268	0.092028	0.16544	0.3651	0.11311	0.20623	0.32768	0.34728	0.33868	0.21665	0.15814	0.17292	0.07894	0.04217	0.26982	0.059851	-3.05	-2.9604	-3.4667	-3.1771	-3.3042	-3.5104	-3.0917	-3.7188	-3.3146	-3.1188	-3.8167	-3.2604	-3.2938	-3.6854	-2.9813	-3.4188	-105.312	56.269	-17.624	113.950	-93.158	40.611	127.680	-85.897	132.733	66.741	-5.914	207.636	2.530	-138.952	-61.328	109.391	0.00031969	0.00017285	7.8114e-05	1029.6	9.5652e-07	3.8141e-06	1111.4	210.77	2.6661e-06	3.5084e-06	269.93	76.04	59.28	17.788	9.3133e-07	24.89	9.5842e-05	8.2422e-05	2.1922e-05	1010.3	9.1973e-07	8.6649e-07	1100.6	208.89	9.0268e-07	8.4591e-07	267.42	76.133	58.948	17.842	8.9738e-07	24.977	148.651	-58.447	-16.770	-140.286	-60.782	-19.465	-140.514	-133.064	-67.429	21.573	-133.290	-126.868	-126.168	-118.820	-73.847	-119.615	-8191	255	
841.528	1	1	0	0	0.13714	0.069417	0.28787	0.25863	0.15219	0.14609	0.051965	0.10808	0.36038	0.089743	0.18521	0.1038	0.011165	0.1352	0.21794	0.15934	-2.9646	-3.0125	-3.6104	-3.1958	-3.2479	-3.8646	-3.1625	-3.6333	-3.4458	-2.9833	-3.6708	-3.2792	-3.15	-3.6792	-3.0146	-3.5187	-16.873	82.977	138.947	149.325	-14.915	113.012	117.032	133.931	40.220	43.195	-135.959	168.912	110.474	-136.813	141.825	-103.735	0.00032132	0.00022619	7.473e-05	1027.4	2.9604e-06	1.347e-06	1110.4	211.74	3.6335e-06	1.7325e-06	268.44	76.565	59.526	17.794	2.1822e-06	24.73	9.4738e-05	7.8673e-05	2.1762e-05	1009.3	9.1472e-07	8.2512e-07	1101.6	209.14	8.6164e-07	8.6998e-07	267.09	76.292	59.102	17.798	8.513e-07	24.914	148.313	-71.138	-10.320	-140.468	-99.065	-29.928	-140.436	-133.023	-32.612	36.163	-132.799	-126.913	-126.445	-118.904	48.136	-119.418	-8191	255	
841.624	1	1	0	0	0.15107	0.26131	0.076752	0.15046	0.046977	0.13582	0.074656	0.066956	0.093574	0.17248	0.067981	0.30726	0.24215	0.1783	0.043149	0.25476	-3.0958	-2.8771	-3.6604	-3.4375	-3.2167	-3.5625	-3.3042	-3.4208	-3.6063	-2.8021	-3.6	-3.4229	-3.0104	-3.8583	-3.0354	-3.4125	56.621	-8.186	125.629	-13.753	-111.115	9.700	186.683	-87.701	-146.275	3.184	-70.543	103.804	58.361	-77.868	188.378	206.638	0.00035792	0.00021172	0.00010748	1026.4	9.9292e-07	3.2695e-06	1115.4	211.11	2.6681e-06	1.3875e-06	270.93	76.132	59.266	17.786	5.1907e-06	24.841	9.1516e-05	7.7324e-05	2.2083e-05	1008	8.8492e-07	8.3672e-07	1100.8	209.3	8.5933e-07	8.4184e-07	267.28	76.098	58.937	17.8	8.9854e-07	24.939	152.590	-48.422	-41.385	-140.304	-70.270	-8.648	-140.388	-133.189	-74.707	16.296	-133.145	-126.829	-126.461	-118.788	-0.820	-119.664	-8191	255	
841.718	1	1	0	0	0.1916	0.070742	0.30572	0.10792	0.13076	0.18738	0.21918	0.20304	0.055897	0.019718	0.0036106	0.28676	0.20501	0.095551	0.13476	0.24035	-3.3187	-2.9667	-3.5438	-3.4146	-2.9729	-3.825	-3.2792	-3.5125	-3.5875	-2.9229	-3.4542	-3.4396	-3.1937	-3.7146	-3.2354	-3.2417	-75.913	151.937	12.462	110.030	-112.342	-65.961	177.317	160.476	-58.161	142.979	175.127	101.683	173.582	95.635	-14.311	90.368	0.00034103	0.00021111	3.4555e-05	1027	2.287e-06	2.0997e-06	1115.4	211.95	1.2872e-06	2.4149e-06	269.21	77.307	60.163	17.879	2.9166e-06	24.994	9.1244e-05	7.7603e-05	2.1689e-05	1009.3	8.8465e-07	8.3934e-07	1101.6	209.43	8.8406e-07	8.6079e-07	266.87	76.496	59.019	17.81	8.862e-07	24.94	146.249	-55.656	-15.427	-140.071	-23.620	1.344	-140.467	-132.860	-32.888	-4.074	-133.546	-127.179	-126.747	-118.989	35.012	-119.122	-8191	255	
841.815	1	1	0	0	0.2074	0.17863	0.0397	0.099736	0.017512	0.35293	0.24418	0.10695	0.080129	0.14862	0.12735	0.14106	0.14026	0.075152	0.23267	0.18237	-3.1542	-3.1854	-3.4104	-3.4396	-2.9104	-3.7729	-3.3792	-3.3542	-3.6771	-3.0875	-3.6125	-3.5375	-2.9833	-3.5438	-3.275	-3.1271	-135.202	-50.764	-30.098	160.586	67.467	36.110	131.300	48.919	-133.129	78.502	6.834	109.904	129.573	153.134	55.683	79.372	0.00029835	0.00026554	6.7758e-05	1034.1	2.4714e-06	4.2017e-06	1113.9	211.52	3.363e-06	1.0249e-06	272.29	76.77	59.344	17.792	1.2367e-06	24.858	9.3005e-05	8.1935e-05	2.2729e-05	1010.2	9.0106e-07	8.6331e-07	1100.5	209.42	8.6208e-07	8.8598e-07	267.85	76.247	58.948	17.797	8.5716e-07	25.031	142.165	-77.198	-79.763	-140.362	-68.902	9.489	-140.814	-133.225	-14.477	-111.365	-133.219	-127.078	-126.893	-119.094	-0.570	-119.628	-8191	255	
841.911	1	1	0	0	0.14015	0.1377	0.20074	0.15111	0.16708	0.19126	0.070819	0.2106	0.12019	0.15764	0.099025	0.11745	0.25999	0.10561	0.30327	0.065988	-3.3229	-3.0958	-3.1292	-3.7042	-2.8583	-3.6229	-3.4521	-3.1417	-3.7333	-3.0604	-3.3729	-3.6208	-3.1229	-3.5729	-3.3812	-2.9854	30.471	-22.893	-58.113	144.117	170.055	71.881	104.740	124.833	150.407	-5.353	-149.861	191.056	-52.608	-87.539	74.423	41.036	0.00031712	0.00027489	6.1835e-05	1030.1	1.9332e-06	3.8219e-06	1115.1	212.89	3.913e-06	2.7345e-06	268.63	76.776	59.68	17.963	1.9642e-06	24.904	9.1568e-05	7.9693e-05	2.263e-05	1010.3	9.0453e-07	8.5991e-07	1101.3	209.45	8.9838e-07	8.6792e-07	266.81	76.217	59.037	17.905	8.8526e-07	24.955	146.500	-10.594	-58.606	-140.370	-21.949	-6.803	-140.931	-133.046	-44.995	30.548	-133.152	-126.869	-126.526	-119.002	-17.852	-119.421	-8191	255	
842.009	1	1	0	0	0.11075	0.2347	0.13092	0.074265	0.25695	0.31773	0.12473	0.001205	0.13064	0.080588	0.25086	0.10828	0.095671	0.059707	0.2271	0.13154	-3.3	-3.0812	-3.1917	-3.7188	-3.0854	-3.5187	-3.5687	-3.0792	-3.75	-3.3854	-3.15	-3.6479	-3.0854	-3.475	-3.4792	-3.1063	-78.861	52.972	-14.208	-22.139	-7.097	56.172	122.517	180.000	-127.715	-39.211	199.275	194.644	-52.339	207.302	-33.529	88.984	0.0003867	0.00017908	8.336e-05	1027.2	4.5797e-07	3.2864e-06	1115.7	212.31	1.75e-06	2.4373e-06	270.51	76.16	59.322	17.857	1.9339e-06	25.01	9.4995e-05	7.9668e-05	2.2934e-05	1008.9	9.1885e-07	8.4831e-07	1101.6	209.23	9.2687e-07	8.9623e-07	267.61	76.121	59.073	17.925	8.5683e-07	25.055	143.316	-76.074	-57.967	-139.983	187.329	27.404	-140.281	-132.902	-70.389	8.033	-133.193	-127.062	-126.200	-118.605	-63.859	-119.208	-8191	255	
842.127	1	1	0	0	0.05856	0.18384	0.25879	0.13305	0.2073	0.26588	0.11472	0.23586	0.14437	0.12156	0.061975	0.20571	0.064342	0.046613	0.13023	0.028407	-3.3125	-3.1896	-3.05	-3.7458	-3.0875	-3.3667	-3.6542	-3.2958	-3.4479	-3.2833	-3.1833	-3.6417	-3.075	-3.4062	-3.8083	-3.0021	176.665	133.973	-133.538	-108.472	161.900	176.799	-119.294	-146.598	69.646	164.280	-67.512	194.691	139.044	80.405	13.606	74.461	0.00042089	0.00024577	6.5511e-05	1031.8	3.8551e-06	2.2772e-06	1114.6	212.23	2.9059e-06	1.1723e-06	269.15	76.662	59.333	17.758	4.7791e-06	24.837	9.5052e-05	8.4097e-05	2.2255e-05	1010.3	9.2888e-07	8.9571e-07	1101.6	209.25	8.9078e-07	8.6435e-07	267.1	76.103	58.989	17.809	8.6413e-07	25.014	150.850	-41.418	-61.702	-140.344	-47.773	12.240	-140.279	-132.885	-49.378	21.768	-133.562	-126.569	-126.344	-118.562	12.803	-119.233	-8191	255	
842.224	1	1	0	0	0.12611	0.153	0.20809	0.12348	0.15992	0.19535	0.25458	0.23994	0.24347	0.32629	0.17587	0.39762	0.11484	0.10228	0.14162	0.21563	-3.1875	-3.4542	-3.0479	-3.8708	-3.1292	-3.2417	-3.7375	-3.0687	-3.5708	-3.5167	-3.0854	-3.8104	-3.1229	-3.3396	-3.7083	-3.1125	-127.555	209.189	32.812	-68.699	172.959	-94.358	145.994	147.859	106.834	18.916	4.929	194.382	-97.235	108.479	-149.857	-83.491	0.00038629	0.00026349	8.6579e-05	1030.5	1.8626e-06	2.0925e-06	1113.2	210.93	2.1219e-06	2.585e-06	269.41	76.866	59.302	17.8	3.595e-06	24.844	9.4648e-05	7.8912e-05	2.1932e-05	1010.1	9.0112e-07	8.7001e-07	1101.5	209.2	9.159e-07	8.4039e-07	267.07	76.236	59.056	17.843	8.5561e-07	24.917	152.554	-94.779	-61.003	-140.117	-59.350	-19.699	-140.330	-132.796	-76.000	17.118	-132.873	-126.536	-126.250	-118.616	21.434	-118.959	-8191	255	
842.320	1	1	0	0	0.15501	0.26718	0.21596	0.36321	0.19907	0.17447	0.077724	0.24899	0.053759	0.24063	0.12739	0.18087	0.2138	0.06205	0.32579	0.21842	-3.2021	-3.6042	-2.8146	-3.8208	-3.2	-3.1979	-3.8479	-3.0792	-3.4333	-3.6625	-2.8854	-3.8	-3.0771	-3.1604	-3.7896	-3.1271	-146.911	-36.513	-8.879	150.423	-124.558	145.255	155.122	-142.762	8.799	187.987	-142.141	81.749	-26.684	202.972	46.668	133.286	0.00036523	0.00015631	2.3403e-05	1027.2	4.1935e-06	2.4358e-06	1117.9	211.56	2.6841e-06	3.7943e-06	271.25	76.676	59.934	17.753	3.0333e-06	24.668	9.1468e-05	7.6994e-05	2.16e-05	1010.1	9.0541e-07	8.4659e-07	1102.3	209.24	8.9277e-07	8.3053e-07	267.18	76.329	59.217	17.829	8.3442e-07	24.888	152.820	-79.175	-113.054	-140.194	-48.237	36.356	-140.513	-132.943	-80.861	-13.780	-133.099	-127.084	-126.048	-118.961	21.156	-119.621	-8191	255	
842.416	1	1	0	0	0.15277	0.10497	0.051159	0.21317	0.22908	0.1658	0.14825	0.28559	0.40229	0.21934	0.17961	0.12299	0.16774	0.1975	0.17546	0.25242	-3.0146	-3.6625	-2.8896	-3.7604	-3.3875	-3.1979	-3.6125	-3.1688	-3.3937	-3.6083	-2.9771	-3.5396	-3.5	-3.1312	-3.6833	-3.1667	-104.683	-106.663	-114.249	174.703	113.225	-20.558	151.059	153.144	-16.315	-66.663	-132.968	-109.980	-49.349	-19.654	75.662	-118.701	0.00037629	0.0001678	6.8617e-05	1022.9	2.3344e-06	2.8326e-06	1108	210.17	2.1899e-06	1.794e-06	268.04	76.602	59.049	17.86	2.8897e-06	24.9	9.2391e-05	7.5325e-05	2.22e-05	1008	8.5386e-07	8.6811e-07	1098.8	208.98	8.574e-07	8.4045e-07	266.49	76.456	58.953	17.828	8.669e-07	24.982	149.129	-71.699	-68.913	-140.084	-90.584	-22.550	-140.200	-132.774	-33.732	-4.510	-132.846	-127.017	-125.947	-118.597	44.429	-119.786	-8191	255	
842.512	1	1	0	0	0.048419	0.15211	0.10919	0.2233	0.039273	0.14399	0.26273	0.059048	0.15476	0.015435	0.17945	0.16744	0.09927	0.09098	0.15966	0.3132	-2.8667	-3.6854	-2.8521	-3.5625	-3.4188	-3.2375	-3.7104	-3.3729	-3.1271	-3.7646	-3.1479	-3.55	-3.3688	-3.0812	-3.5292	-3.3646	67.064	203.789	167.884	-133.570	-140.973	102.109	135.109	107.506	2.328	35.877	169.061	137.327	-67.875	159.868	-3.198	97.883	0.00041875	0.00025341	4.0349e-05	1024.7	1.6594e-06	2.1957e-06	1109.9	211.81	2.9015e-06	1.0278e-06	269.15	76.45	59.174	17.841	3.2763e-06	24.859	9.3948e-05	7.8795e-05	2.2455e-05	1007.7	9.1825e-07	8.4759e-07	1098.4	209.18	8.7899e-07	8.4162e-07	266.56	76.047	58.912	17.853	8.4361e-07	24.982	145.369	-80.450	-10.624	-140.551	-68.284	6.611	-140.336	-133.106	-35.105	12.583	-133.147	-127.513	-126.545	-118.939	-10.740	-119.723	-8191	255	
842.608	1	1	0	0	0.29636	0.30145	0.23094	0.17353	0.097869	0.15537	0.29584	0.2086	0.3666	0.17893	0.17537	0.24331	0.30725	0.049488	0.16504	0.18804	-2.6667	-3.625	-3.0604	-3.5625	-3.55	-3.0167	-3.7354	-3.4729	-3.0875	-3.7854	-3.0896	-3.4042	-3.6833	-2.9979	-3.5271	-3.2646	-86.806	-0.371	23.612	-111.789	112.922	-115.082	145.352	-68.033	135.873	208.253	-94.620	-139.479	181.545	115.593	-16.089	-100.604	0.00040513	0.00018604	6.4934e-05	1022.3	1.5747e-06	2.9215e-06	1112.2	210.91	2.431e-06	2.387e-06	270.46	76.888	59.147	17.803	2.4663e-06	24.779	9.1225e-05	7.6801e-05	2.1287e-05	1007.2	8.6603e-07	8.2679e-07	1100.4	209.09	8.9354e-07	8.6129e-07	267.33	76.347	58.951	17.82	8.6955e-07	24.97	142.707	-26.385	-50.713	-140.094	-88.921	-6.972	-140.488	-133.158	-78.982	21.333	-133.329	-127.180	-126.793	-118.771	-6.212	-119.352	-8191	255	
842.729	1	1	0	0	0.05237	0.13396	0.15121	0.15069	0.07152	0.22106	0.20358	0.42475	0.14007	0.15736	0.13473	0.24717	0.24677	0.16918	0.10653	0.13791	-2.7125	-3.475	-3.0875	-3.4958	-3.5292	-2.9458	-3.8792	-3.4813	-2.9792	-3.8146	-3.0417	-3.2375	-3.6021	-3.0687	-3.3375	-3.5021	-128.993	114.843	-130.921	148.762	126.411	116.572	154.745	118.610	191.146	20.373	137.538	-123.202	-28.178	161.571	120.965	126.190	0.0003168	0.00013681	6.4428e-05	1033.2	3.012e-06	1.282e-06	1118.3	211.44	1.8606e-06	2.1246e-06	271.16	77.008	59.88	17.929	2.1872e-06	24.837	9.6242e-05	7.6695e-05	2.1173e-05	1009.4	8.901e-07	8.6493e-07	1102.8	209.51	9.1425e-07	8.5834e-07	267.64	76.474	59.015	17.874	8.8349e-07	24.943	148.742	1.287	-60.745	-140.698	-76.339	-13.708	-140.727	-132.894	-36.263	33.205	-133.210	-127.187	-126.424	-118.825	-63.244	-119.130	-8191	255	
842.823	1	1	0	0	0.07057	0.2945	0.33415	0.32434	0.13052	0.25966	0.33054	0.075027	0.2161	0.1751	0.21929	0.15317	0.14531	0.21283	0.14627	0.30273	-2.5479	-3.7208	-3.1104	-3.1521	-3.6583	-3.0187	-3.6021	-3.5354	-2.9667	-3.6437	-3.2667	-3.1729	-3.6625	-2.9958	-3.35	-3.6958	-68.377	13.039	-149.495	-136.041	200.908	-36.395	178.884	154.954	15.429	-114.792	11.519	123.327	-7.201	-145.149	-73.303	-21.425	0.00040627	0.00029971	6.9803e-05	1028.4	2.9274e-06	3.4687e-06	1116.2	211.51	2.3079e-06	2.7524e-06	268.86	76.678	59.609	17.786	1.3627e-06	24.72	9.479e-05	7.8125e-05	2.2169e-05	1009.1	9.1985e-07	8.7012e-07	1101.3	209.29	9.0279e-07	8.5365e-07	267.05	76.294	59.238	17.822	8.6496e-07	24.911	142.772	0.108	-59.452	-140.479	-68.814	4.289	-140.934	-132.795	-96.635	16.760	-133.291	-127.661	-126.524	-118.864	29.453	-119.533	-8191	255	
842.919	1	1	0	0	0.15739	0.23672	0.049738	0.075029	0.12275	0.065367	0.11613	0.20435	0.17233	0.1712	0.20839	0.16783	0.037452	0.23882	0.21509	0.099265	-2.6937	-3.6542	-3.2354	-3.1958	-3.5917	-3.0042	-3.4667	-3.4562	-2.9375	-3.425	-3.2958	-3.1604	-3.6667	-3.2042	-3.2396	-3.6542	-10.751	-18.087	-105.389	-143.096	-110.221	88.588	22.210	-114.162	193.171	-122.560	12.413	10.201	161.596	203.595	77.904	-55.018	0.00039213	0.0003249	6.5265e-05	1025.4	4.4622e-06	2.0156e-06	1114.6	212.95	3.7139e-06	3.2464e-06	268.78	76.715	59.469	17.816	2.2439e-06	24.726	9.4986e-05	7.7633e-05	2.2332e-05	1007.9	9.1186e-07	8.5952e-07	1102.2	209.72	9.3232e-07	8.5661e-07	267.07	76.035	59.107	17.84	8.5102e-07	24.912	146.439	-61.649	-43.471	-140.366	-50.871	-20.895	-140.915	-133.415	-52.963	17.353	-133.084	-127.253	-125.931	-118.303	24.458	-119.105	-8191	255	
842.991	1	1	0	0	0.20671	0.07144	0.33793	0.11583	0.17939	0.20166	0.11299	0.25476	0.14162	0.065085	0.043249	0.20101	0.099512	0.057558	0.087054	0.12405	-2.7229	-3.4875	-3.3125	-3.1	-3.6271	-3.175	-3.4104	-3.6646	-2.95	-3.5896	-3.3958	-3.1625	-3.7333	-3.2729	-3.0875	-3.7375	106.816	62.165	122.724	166.066	-37.549	-146.497	3.188	116.857	-97.619	57.107	-51.170	161.352	-66.823	115.211	-122.187	-114.431	0.00037027	0.00035421	9.932e-05	1025	3.0887e-06	1.1911e-06	1109.1	212.02	2.4442e-06	2.4339e-06	267.85	76.768	59.426	17.745	1.7709e-06	24.918	9.6642e-05	7.9901e-05	2.195e-05	1007.3	8.8349e-07	8.6984e-07	1099.1	209.37	8.8604e-07	8.5271e-07	266.24	76.173	59.107	17.744	8.5865e-07	24.98	142.688	-20.927	-22.196	-140.258	-73.191	28.374	-140.675	-132.917	-65.067	-6.190	-132.828	-126.906	-126.393	-118.790	139.624	-119.213	-8191	255	
843.112	1	1	0	0	0.10397	0.031373	0.20914	0.16627	0.14233	0.081233	0.13526	0.2913	0.24832	0.081552	0.16812	0.24078	0.08461	0.17257	0.090409	0.083966	-2.5438	-3.2375	-3.55	-3.1	-3.4979	-3.2521	-3.2438	-3.6854	-3.1875	-3.4458	-3.6646	-3.1708	-3.725	-3.3854	-3.0375	-3.7479	-35.341	67.233	26.170	186.356	88.117	-130.516	60.285	114.697	183.901	-140.408	157.747	56.724	206.444	-119.176	-71.516	54.340	0.00039409	0.00022814	6.3929e-05	1031.4	3.2684e-06	2.5956e-06	1111.4	210.6	2.0263e-06	1.1803e-06	269.37	76.55	59.205	17.844	2.5906e-06	24.994	9.2986e-05	7.6593e-05	2.0846e-05	1009	8.8234e-07	8.3939e-07	1099.6	208.63	9.1183e-07	8.4362e-07	266.75	76.119	58.93	17.816	8.2828e-07	24.995	148.340	-52.908	-70.259	-140.623	-94.853	-3.922	-140.637	-133.330	-29.393	41.729	-132.762	-126.981	-126.427	-118.735	-33.803	-119.426	-8191	255	
843.208	1	1	0	0	0.055852	0.090699	0.088586	0.1111	0.23106	0.097712	0.32566	0.32146	0.33214	0.15113	0.25952	0.072384	0.18866	0.038628	0.2783	0.089998	-2.7729	-3.425	-3.7646	-2.9667	-3.5729	-3.1688	-3.2917	-3.6958	-3.1271	-3.2208	-3.6104	-3.0542	-3.4771	-3.6375	-3.1771	-3.7083	100.631	60.295	60.468	202.021	176.778	145.929	127.667	148.621	-28.748	-135.153	120.632	201.349	-66.727	-54.603	72.553	87.485	0.00033209	0.00023166	7.5321e-05	1029.5	2.9534e-06	2.5573e-06	1114.6	211.59	2.5998e-06	2.4964e-06	268.86	76.352	59.355	17.854	1.622e-06	24.926	9.4429e-05	7.5928e-05	2.0492e-05	1007.7	8.7611e-07	8.2478e-07	1099.8	209.45	8.9172e-07	8.2206e-07	266.77	76.095	59.053	17.852	8.6374e-07	24.927	152.408	-57.970	-21.636	-140.554	-67.082	-7.180	-140.498	-132.921	-52.626	39.579	-132.994	-126.828	-126.347	-118.540	8.452	-119.222	-8191	255	
843.304	1	1	0	0	0.13217	0.021219	0.1212	0.098791	0.12451	0.207	0.2663	0.12492	0.27832	0.13418	0.1084	0.090649	0.15079	0.092846	0.16086	0.20735	-2.8125	-3.1729	-3.5708	-2.9979	-3.4313	-3.5417	-3.0729	-3.6917	-3.2521	-3.125	-3.7604	-3.2542	-3.4979	-3.5833	-2.8625	-3.7292	32.439	84.024	-42.088	179.454	143.921	-98.817	90.149	-83.691	49.899	-69.737	146.232	-75.686	-59.794	42.268	167.619	159.272	0.00034098	0.00022084	0.00010325	1023	2.4964e-06	1.0866e-06	1113	211.06	2.6438e-06	3.4463e-06	268.32	76.528	59.792	17.747	2.8477e-06	24.88	9.3286e-05	7.6786e-05	2.0896e-05	1006.2	8.6543e-07	8.5595e-07	1099.5	209.09	8.4021e-07	8.3766e-07	266.87	76.157	59.084	17.787	8.4958e-07	24.951	143.923	-39.633	-26.087	-140.203	-103.208	0.110	-140.468	-132.989	-58.267	17.972	-132.870	-127.125	-126.504	-118.939	10.759	-119.792	-8191	255	
843.400	1	1	0	0	0.24114	0.18904	0.25908	0.007123	0.17404	0.22223	0.13074	0.1796	0.12544	0.31756	0.25375	0.27112	0.18218	0.34726	0.032816	0.26943	-3.0167	-3.1625	-3.7104	-3.1813	-3.4604	-3.5521	-3.1667	-3.6521	-3.2438	-3.0938	-3.7188	-3.3646	-3.2812	-3.5875	-2.9354	-3.5292	-100.364	100.915	113.988	-86.988	47.239	77.207	163.018	156.064	-56.801	-37.517	180.313	-33.614	43.337	-30.186	196.382	39.840	0.00034054	0.00020787	8.4088e-05	1025.8	2.2865e-06	9.1723e-07	1105.1	210.82	2.4125e-06	2.2437e-06	270.07	76.374	59.463	17.746	2.952e-06	24.683	9.1368e-05	7.4934e-05	2.1191e-05	1006.7	8.359e-07	8.1062e-07	1097.1	208.95	8.3046e-07	8.2122e-07	266.42	75.989	59.044	17.782	8.472e-07	24.847	147.241	-74.672	-48.689	-140.195	25.308	-42.918	-140.419	-132.879	-43.741	-10.885	-133.410	-126.780	-126.462	-118.843	22.787	-119.590	-8191	255	
843.521	1	1	0	0	0.13074	0.25861	0.13224	0.15595	0.27766	0.15929	0.088602	0.20664	0.16382	0.02537	0.038878	0.18853	0.27184	0.10064	0.17566	0.097104	-2.9562	-3.175	-3.6854	-3.2542	-3.275	-3.5625	-3.075	-3.4667	-3.3875	-3.1646	-3.7667	-3.1292	-3.2583	-3.5771	-2.8854	-3.375	70.761	-10.462	106.583	7.719	158.469	159.185	164.443	-146.859	23.127	108.129	-30.847	160.837	-56.168	103.378	-9.779	173.651	0.0003907	0.00020136	5.6307e-05	1028.9	1.7692e-06	3.4619e-06	1114.9	212.46	1.6434e-06	3.2804e-06	272.79	76.944	59.574	17.754	3.8225e-06	24.682	8.7441e-05	7.8577e-05	2.0848e-05	1008.5	8.8206e-07	8.3744e-07	1099.1	209.3	8.5222e-07	8.5065e-07	268.02	76.01	59.038	17.816	8.7066e-07	24.876	151.820	-57.331	1.722	-140.450	-67.157	-15.189	-140.644	-133.324	-40.080	7.198	-133.306	-126.981	-126.430	-119.343	34.448	-119.427	-8191	255	
843.617	1	1	0	0	0.19355	0.18526	0.086292	0.31178	0.26012	0.24138	0.17881	0.0053883	0.35843	0.35262	0.20847	0.1428	0.15753	0.14015	0.21997	0.1584	-3.1375	-3.0146	-3.6479	-3.2188	-3.1875	-3.7458	-3.2229	-3.4542	-3.4708	-2.9458	-3.6604	-3.2917	-3.1271	-3.65	-2.9417	-3.2875	166.132	-18.761	175.711	204.838	191.732	-117.405	175.519	140.636	-25.555	31.993	67.400	148.351	107.898	69.335	155.174	143.926	0.00037403	0.00023603	3.1035e-05	1026.5	1.3856e-06	4.3317e-06	1111.8	211.26	3.5964e-06	1.0618e-06	270	76.791	59.777	17.886	3.3986e-06	24.98	9.2853e-05	8.0028e-05	2.1468e-05	1006.9	9.0696e-07	8.3705e-07	1098.1	208.68	8.986e-07	8.599e-07	266.63	76.173	59.028	17.879	8.5196e-07	25	143.906	-38.004	-35.947	-140.408	-87.884	-21.548	-140.493	-132.849	-75.055	4.836	-133.294	-126.759	-126.306	-118.202	-2.680	-119.381	-8191	255	
843.689	1	1	0	0	0.1664	0.18806	0.12302	0.35543	0.14582	0.075439	0.31014	0.14105	0.2416	0.033556	0.22864	0.25874	0.072368	0.15413	0.1301	0.086257	-3.2083	-2.8583	-3.3229	-3.3083	-3.0292	-3.7708	-3.3146	-3.1479	-3.6125	-2.9417	-3.4729	-3.2083	-2.9083	-3.6979	-3.1854	-3.3417	121.759	130.300	-0.690	186.617	34.204	-80.122	153.810	107.897	-99.339	161.050	177.998	-112.590	203.762	-79.535	-7.105	-39.746	0.00035741	0.00028791	8.3211e-05	1027.3	3.6643e-06	2.4042e-06	1111.2	212.41	1.569e-06	2.8869e-06	270.31	76.638	59.579	17.782	4.5861e-06	24.766	9.0064e-05	7.9211e-05	2.2295e-05	1008.9	9.2948e-07	8.3281e-07	1097.3	209.29	8.8296e-07	8.5137e-07	267.32	76.083	58.974	17.814	8.6208e-07	24.938	144.194	-35.971	-20.355	-140.331	-30.860	-24.324	-140.566	-133.187	-44.996	15.492	-133.341	-127.244	-126.888	-118.413	-8.104	-119.299	-8191	255	
843.809	1	1	0	0	0.27835	0.1009	0.15896	0.24632	0.26569	0.17839	0.080934	0.37004	0.13272	0.10238	0.15597	0.22848	0.33597	0.15532	0.092973	0.14697	-3.1813	-2.8958	-3.3479	-3.4417	-2.9188	-3.5417	-3.1208	-3.2417	-3.6354	-2.8979	-3.3812	-3.3688	-2.8375	-3.6083	-3.2979	-3.1729	21.276	-136.565	193.545	94.849	172.567	-109.699	73.525	123.375	34.128	105.438	-137.576	183.492	180.297	97.778	-86.018	-118.022	0.00029795	0.00029881	7.0559e-05	1026.2	2.1856e-06	2.2907e-06	1110.5	210.83	6.3482e-07	8.6667e-07	270.13	76.396	59.295	17.754	2.1336e-06	24.818	9.2053e-05	7.8323e-05	2.2311e-05	1007.9	9.3587e-07	8.7737e-07	1099.5	208.66	8.9844e-07	8.585e-07	267.24	76.139	58.922	17.845	8.83e-07	24.938	153.725	-52.454	-51.396	-140.292	-5.283	-8.488	-140.397	-132.950	60.603	-67.682	-133.022	-126.709	-126.390	-118.544	-25.390	-119.491	-8191	255	
843.904	1	1	0	0	0.099615	0.29567	0.15989	0.21623	0.19117	0.10691	0.12476	0.14372	0.1189	0.20181	0.13287	0.071302	0.13951	0.11912	0.27174	0.071345	-3.2188	-2.9583	-3.3833	-3.6312	-2.8812	-3.6396	-3.3688	-2.9042	-3.8292	-2.9729	-3.3021	-3.6729	-2.9604	-3.5854	-3.4979	-3.1458	-84.275	-12.857	125.859	182.240	129.019	157.914	-64.761	-83.931	-57.200	-80.627	99.522	122.644	19.850	-139.518	-101.642	7.825	0.00033377	0.0003179	9.9443e-05	1025.5	1.1638e-06	2.6677e-06	1113.4	211.38	2.2109e-06	2.5493e-06	269.49	76.805	59.276	17.827	2.9914e-06	24.814	9.1306e-05	7.6588e-05	2.1899e-05	1007.4	9.0029e-07	8.6231e-07	1099	208.8	9.0885e-07	8.5221e-07	266.89	76.216	58.907	17.836	8.5412e-07	24.966	143.104	-35.204	-70.107	-140.232	-49.313	-32.179	-140.429	-132.884	-57.928	-7.575	-133.237	-127.386	-126.478	-119.013	8.794	-120.318	-8191	255	
844.000	1	1	0	0	0.13484	0.15776	0.15048	0.041065	0.26071	0.16773	0.10484	0.10113	0.10467	0.15101	0.24842	0.09703	0.17224	0.18742	0.03209	0.22391	-3.3375	-3.1021	-3.1396	-3.6646	-2.9354	-3.5104	-3.5229	-3.0917	-3.6104	-3.0083	-3.175	-3.5458	-3.0896	-3.3792	-3.5563	-2.9146	1.890	0.302	199.425	157.799	-89.901	43.693	129.495	82.106	157.777	-25.500	-76.477	-15.355	39.316	177.413	116.151	192.239	0.00032139	0.00023035	4.9985e-05	1024.9	9.5287e-07	2.8522e-06	1107.9	210.13	4.7943e-06	3.2976e-06	269.25	76.325	59.141	17.802	2.9978e-06	24.823	9.4976e-05	7.3914e-05	2.1416e-05	1006.2	8.9275e-07	8.3778e-07	1099.8	208.75	8.455e-07	8.6419e-07	266.49	76.057	58.872	17.846	8.2712e-07	24.928	149.411	-54.448	-56.826	-140.554	-27.407	-14.521	-140.578	-133.033	-35.027	20.361	-133.010	-127.161	-126.652	-119.045	-5.264	-119.555	-8191	255	
844.120	1	1	0	0	0.055813	0.16934	0.083465	0.21186	0.14711	0.3343	0.14125	0.12034	0.071403	0.11693	0.23535	0.16348	0.062275	0.21368	0.11442	0.051227	-3.2917	-3.1	-3.0854	-3.5729	-2.8583	-3.4667	-3.6188	-3.1229	-3.6896	-3.1646	-3.1542	-3.7542	-3.0396	-3.4229	-3.6042	-2.9583	-2.873	40.642	52.359	146.602	4.742	-52.371	43.157	31.642	88.216	206.550	152.622	168.298	157.626	59.718	186.776	58.727	0.00034284	0.00024484	7.6104e-05	1028.2	4.4284e-06	3.5081e-06	1108.8	211.45	3.6915e-06	4.6114e-06	269.61	76.728	59.177	17.731	2.7741e-06	24.694	9.1949e-05	7.774e-05	2.1365e-05	1008.5	8.9533e-07	8.2852e-07	1099.7	209.23	8.5222e-07	8.3688e-07	266.72	76.243	58.864	17.818	8.139e-07	24.843	149.404	-66.114	-44.917	-140.131	-54.911	-31.800	-140.412	-133.061	-41.133	13.607	-133.303	-126.996	-126.064	-118.971	-6.537	-118.765	-8191	255	
844.217	1	1	0	0	0.049433	0.21322	0.086081	0.1623	0.092906	0.15182	0.25019	0.24169	0.17169	0.13398	0.24398	0.13874	0.098929	0.12908	0.21293	0.080163	-3.2812	-3.3187	-3.2333	-3.8521	-2.9417	-3.3729	-3.7896	-2.8771	-3.525	-3.1625	-3.0583	-3.7229	-3.0667	-3.2604	-3.5896	-3.075	6.649	-34.816	194.237	167.490	163.131	-26.520	164.714	-139.097	-80.205	-37.182	174.725	-120.966	16.712	100.210	-81.450	152.393	0.00035774	0.00028887	8.3723e-05	1024.9	1.6251e-07	2.5352e-06	1108	211.13	1.8825e-06	2.8048e-06	269.24	76.132	59.082	17.835	2.6161e-06	24.838	9.1025e-05	7.4777e-05	2.1468e-05	1007.6	8.5353e-07	8.2149e-07	1098	208.7	8.5222e-07	8.1114e-07	266.82	76.039	58.776	17.767	8.1512e-07	24.921	144.702	-70.864	-31.656	-140.267	-98.361	-36.181	-140.409	-132.807	-40.291	-7.395	-133.189	-126.830	-126.021	-119.117	-9.305	-119.552	-8191	255	
844.288	1	1	0	0	0.15091	0.1632	0.13003	0.1603	0.16035	0.036566	0.14393	0.22201	0.042631	0.24287	0.16198	0.15141	0.37185	0.18003	0.16597	0.11888	-3.0917	-3.3771	-2.8958	-3.6375	-3.1167	-3.3417	-3.8458	-3.1063	-3.3875	-3.4688	-3.1958	-3.6271	-3.1104	-3.15	-3.7521	-2.8354	-100.835	117.115	-1.459	147.016	97.273	90.214	-104.586	-128.828	-1.556	70.373	57.856	-109.874	54.955	-106.094	15.067	-70.980	0.00032531	0.00029813	8.8894e-05	1025.9	3.7335e-06	2.8844e-06	1110.1	212.01	2.8065e-06	3.8238e-06	268.18	76.453	59.265	17.738	2.0009e-06	24.81	8.7408e-05	7.3483e-05	2.1258e-05	1006.4	8.6047e-07	8.1257e-07	1097.5	209.23	8.3988e-07	8.127e-07	266.12	76.279	58.883	17.817	8.368e-07	24.95	147.244	-46.878	3.848	-140.316	-53.056	15.336	-140.492	-132.904	-57.494	43.296	-133.464	-127.128	-126.660	-119.024	-48.769	-119.809	-8191	255	
844.409	1	1	0	0	0.019136	0.20292	0.15733	0.10298	0.2326	0.060557	0.12703	0.073569	0.27643	0.10403	0.17799	0.15453	0.16717	0.17867	0.082031	0.15019	-3.05	-3.3729	-2.85	-3.6583	-3.1688	-3.175	-3.7667	-2.9917	-3.3688	-3.6792	-3.1167	-3.5896	-3.3917	-3.0021	-3.6771	-3.0312	119.224	189.465	64.202	45.497	44.493	-108.308	141.555	83.913	25.103	-135.306	168.171	103.950	159.371	-129.919	-36.889	90.415	0.00033984	0.00045951	4.0875e-05	1024.9	2.6414e-06	3.4073e-06	1117.1	211.11	1.4628e-06	2.8399e-06	269.56	76.78	59.428	17.793	3.992e-06	24.662	9.063e-05	7.6527e-05	2.1348e-05	1007	8.6267e-07	8.7174e-07	1100.4	208.85	8.6731e-07	8.03e-07	266.26	76.164	58.962	17.802	8.3807e-07	24.862	148.363	-36.643	-86.136	-140.548	-60.466	-14.202	-140.683	-133.029	-24.041	2.610	-133.427	-126.974	-126.425	-118.815	15.609	-119.663	-8191	255	
844.505	1	1	0	0	0.18936	0.15312	0.24764	0.14747	0.1683	0.046528	0.034167	0.19803	0.16643	0.15843	0.2877	0.11444	0.12296	0.051778	0.061118	0.069211	-2.9583	-3.5958	-3.0104	-3.6688	-3.3083	-3.0583	-3.8583	-3.1562	-3.4062	-3.4896	-3.1083	-3.4542	-3.6813	-2.9667	-3.6375	-3.2458	120.545	-39.550	175.725	132.528	143.420	23.756	198.871	83.093	113.594	57.821	-114.801	56.409	141.258	118.683	-134.193	-123.652	0.00031456	0.00040006	0.00010747	1030.1	4.0702e-06	2.778e-06	1113	211.02	4.0588e-06	1.9949e-06	266.53	76.726	59.83	17.847	2.7765e-06	24.83	8.9897e-05	7.5573e-05	2.1272e-05	1007.3	8.6008e-07	8.0398e-07	1099.1	209.22	8.5894e-07	8.4017e-07	265.74	76.048	59.043	17.783	8.2529e-07	24.875	146.040	-28.148	-36.576	-140.329	-32.251	-0.213	-140.734	-133.060	-65.301	-6.349	-133.319	-126.768	-126.263	-118.780	49.101	-119.502	-8191	255	
844.601	1	1	0	0	0.18172	0.090309	0.3616	0.025581	0.058893	0.32002	0.17652	0.24274	0.26534	0.17095	0.16865	0.053033	0.05484	0.082984	0.29285	0.11349	-2.8563	-3.6229	-3.0938	-3.6021	-3.4667	-3.0563	-3.6854	-3.4396	-3.2458	-3.7229	-3.1229	-3.3708	-3.5958	-3.0333	-3.4354	-3.2771	169.859	104.865	97.245	112.235	124.761	151.993	-110.145	162.853	50.817	106.291	-130.182	167.221	-38.710	-33.482	33.129	-145.545	0.00033562	0.00030282	7.3165e-05	1030.1	4.8932e-06	3.3352e-06	1112.2	210.9	1.9557e-06	2.4372e-06	268.09	76.751	59.356	17.806	3.616e-06	24.697	9.1644e-05	7.9302e-05	2.1817e-05	1009	8.6377e-07	8.4815e-07	1098.2	209.04	8.9673e-07	8.278e-07	266.57	76.236	58.869	17.827	8.6253e-07	24.878	136.900	-104.573	-60.987	-140.454	-60.580	-4.486	-140.506	-133.081	-58.040	15.797	-133.194	-127.415	-126.787	-118.926	-17.445	-119.286	-8191	255	
844.697	1	1	0	0	0.12016	0.046908	0.11005	0.2105	0.18835	0.12073	0.15027	0.17586	0.1638	0.096846	0.33182	0.16304	0.18184	0.1961	0.23055	0.05321	-2.7125	-3.7708	-2.8583	-3.3688	-3.3354	-2.8375	-3.8208	-3.4271	-2.9771	-3.6375	-3.0708	-3.3125	-3.7896	-3.0396	-3.5687	-3.35	-64.458	5.502	182.309	-130.326	118.948	-96.168	117.989	93.670	174.309	102.506	159.047	49.170	152.226	-15.692	-115.052	43.982	0.00032484	0.00019765	6.5815e-05	1030.2	2.4244e-06	3.1249e-06	1114.1	212.41	4.0299e-06	4.2164e-06	271.77	77.127	59.823	17.969	3.1441e-06	25.01	9.1154e-05	7.6116e-05	2.1669e-05	1009.8	8.8906e-07	8.3984e-07	1099.7	209.16	8.9849e-07	8.273e-07	266.88	76.207	59.007	17.884	8.2275e-07	24.971	148.116	-79.975	-25.266	-140.540	-50.249	-20.261	-140.458	-133.215	-13.303	8.569	-133.680	-127.567	-126.827	-118.979	-11.800	-119.416	-8191	255	
844.816	1	1	0	0	0.11213	0.30698	0.14976	0.15948	0.062744	0.12005	0.16759	0.037181	0.18149	0.11408	0.12628	0.091659	0.078525	0.18731	0.05961	0.187	-2.6271	-3.525	-3.1208	-3.2604	-3.5583	-3.0938	-3.5417	-3.5792	-3.0792	-3.5208	-3.2042	-3.1875	-3.5396	-2.8708	-3.4458	-3.5479	-39.716	179.213	85.227	94.159	-98.195	56.137	158.775	71.774	-64.007	-40.392	163.871	55.480	-129.322	3.138	34.514	157.121	0.00030023	0.00028853	5.4097e-05	1030.1	4.3304e-06	3.5499e-06	1111	210.37	2.3566e-06	3.1219e-06	269.38	75.995	59.392	17.725	4.0458e-06	24.781	9.3348e-05	7.5421e-05	2.1157e-05	1009.7	8.3722e-07	8.4692e-07	1098.5	208.71	8.986e-07	8.1359e-07	266.75	75.924	58.821	17.784	8.3736e-07	24.933	159.569	-14.396	7.287	-140.611	-95.283	-16.702	-140.561	-132.997	-22.336	5.081	-133.150	-126.753	-126.810	-118.608	24.646	-118.927	-8191	255	
844.888	1	1	0	0	0.25361	0.11695	0.21599	0.078054	0.23428	0.28005	0.11698	0.12377	0.050749	0.15552	0.080812	0.18043	0.13138	0.3509	0.10604	0.23448	-2.5792	-3.6542	-3.0458	-3.1854	-3.7375	-3.0062	-3.5021	-3.6729	-2.9958	-3.6063	-3.3854	-3.1417	-3.7313	-3.2042	-3.2667	-3.6583	-84.581	-96.394	9.729	-144.731	146.535	57.431	70.483	139.101	-145.876	21.500	194.520	185.659	159.126	120.226	-91.365	104.193	0.00035631	0.00027339	2.0602e-05	1027.7	3.6717e-06	2.661e-06	1108.9	210.41	3.0668e-06	1.9262e-06	269.5	76.213	59.747	17.633	1.7532e-06	24.937	8.9197e-05	7.533e-05	2.0412e-05	1008.4	8.4956e-07	8.2807e-07	1098	208.64	9.0031e-07	8.1832e-07	266.42	75.927	58.919	17.706	8.347e-07	24.902	152.833	-26.664	-28.910	-140.399	-39.069	-17.686	-140.734	-133.059	-82.663	23.668	-133.210	-127.247	-126.045	-119.062	38.939	-119.237	-8191	255	
844.984	1	1	0	0	0.2803	0.13038	0.11478	0.015273	0.1997	0.08197	0.26914	0.10482	0.024227	0.19056	0.077749	0.32334	0.15351	0.193	0.16713	0.23314	-2.6229	-3.4979	-3.1708	-3.0521	-3.4604	-2.9292	-3.5479	-3.6396	-2.7146	-3.4125	-3.4521	-3.2271	-3.5396	-3.0208	-3.2687	-3.5833	-97.227	-31.505	173.973	160.328	99.758	-44.050	144.151	-136.344	-85.634	-77.886	113.417	-150.673	111.111	-116.218	52.614	-5.163	0.00033808	0.0003197	3.8355e-05	1031.4	4.1427e-06	9.285e-07	1112.2	211.66	3.1424e-06	2.1524e-06	269.11	76.3	59.779	17.713	2.5684e-06	24.795	9.3515e-05	7.7095e-05	2.0961e-05	1009.9	8.6934e-07	8.4224e-07	1099.7	209.19	8.6583e-07	8.0484e-07	266.62	75.923	59.136	17.758	8.0953e-07	24.953	145.013	-56.656	14.634	-140.471	-51.933	115.126	-140.716	-133.377	-66.368	52.303	-133.061	-126.977	-126.806	-118.847	-34.534	-119.005	-8191	255	
845.080	1	1	0	0	0.23397	0.12333	0.063849	0.22023	0.3299	0.17609	0.20806	0.11905	0.077221	0.12211	0.25242	0.20685	0.15598	0.12896	0.26363	0.1511	-2.7542	-3.3438	-3.4958	-3.1875	-3.5521	-3.0083	-3.3646	-3.6875	-3.0583	-3.4292	-3.6896	-2.9833	-3.4708	-3.3958	-3.0208	-3.7375	88.396	193.961	26.051	198.177	111.386	52.462	97.134	-135.407	8.225	-108.718	161.533	174.972	-125.596	-18.504	70.241	129.079	0.00034928	0.00037219	3.4011e-05	1023.9	3.4448e-06	2.5352e-06	1107.5	212.24	2.0542e-06	9.3399e-07	270.16	76.474	59.459	17.854	1.826e-06	24.609	9.0487e-05	7.5066e-05	2.118e-05	1006.7	8.3689e-07	8.1491e-07	1097.3	209.09	8.9916e-07	8.4502e-07	266.63	75.952	59.012	17.836	8.5904e-07	24.818	146.354	-57.895	-96.421	-140.222	-60.904	-45.819	-140.346	-132.926	-62.653	10.798	-133.120	-127.258	-126.823	-118.554	21.729	-119.772	-8191	255	
845.201	1	1	0	0	0.037115	0.042183	0.18648	0.19943	0.31972	0.18685	0.32868	0.27964	0.26186	0.14784	0.13039	0.21323	0.096802	0.06971	0.24672	0.062552	-2.7333	-3.2292	-3.4917	-3.1042	-3.6375	-3.2146	-3.2271	-3.675	-2.9917	-3.4	-3.5854	-3.0271	-3.6208	-3.3833	-3.0146	-3.8187	135.888	-31.803	181.145	-112.702	-70.723	119.946	147.431	174.588	-15.376	44.004	87.373	205.196	178.742	120.966	122.439	135.600	0.0004019	0.00024482	6.4011e-05	1027.3	2.493e-06	5.0883e-07	1110.8	211.88	4.0354e-06	4.5477e-07	269.06	76.664	59.667	17.773	3.5956e-06	24.728	9.4329e-05	7.5254e-05	2.1365e-05	1007.9	8.5237e-07	8.3493e-07	1098.4	208.97	8.9243e-07	8.2523e-07	266.71	76.121	59.007	17.793	8.5749e-07	24.85	143.881	-74.898	-23.930	-140.533	-52.289	-4.078	-140.575	-132.940	-19.891	-15.733	-132.671	-126.972	-126.708	-118.820	5.047	-119.662	-8191	255	
845.297	1	1	0	0	0.054623	0.091695	0.3416	0.23517	0.21853	0.1249	0.31615	0.10302	0.17319	0.23235	0.19958	0.033626	0.26369	0.14321	0.068598	0.12736	-2.5917	-3.2792	-3.5563	-3	-3.4437	-3.3187	-3.0667	-3.6688	-3.0229	-3.3021	-3.7604	-3.1104	-3.4958	-3.3958	-2.9688	-3.6292	8.192	146.896	-67.349	55.394	22.306	-128.526	134.956	65.216	27.360	-58.206	59.059	-31.784	134.057	170.688	148.500	-6.877	0.00028317	0.00017576	9.9044e-05	1030.3	4.7223e-06	2.4448e-06	1118.9	211.39	2.9144e-06	2.7814e-06	270.63	76.106	59.565	17.857	3.1325e-06	24.793	8.8388e-05	7.671e-05	2.1258e-05	1007.8	8.4962e-07	8.2261e-07	1099.8	209.1	8.6753e-07	8.5917e-07	266.5	75.765	59.008	17.832	8.493e-07	24.902	148.050	-55.242	-59.016	-140.577	-33.464	36.682	-140.640	-133.192	2.039	-3.869	-133.345	-127.292	-126.348	-118.726	-23.195	-119.470	-8191	255	
845.393	1	1	0	0	0.021443	0.093926	0.093427	0.03498	0.26708	0.089293	0.24736	0.11026	0.14546	0.045859	0.16017	0.23815	0.33177	0.32059	0.10166	0.23727	-2.8854	-2.9792	-3.6104	-3.1292	-3.3542	-3.425	-3.1312	-3.6708	-2.9875	-3.2042	-3.675	-3.0896	-3.1813	-3.4188	-3.0792	-3.5292	151.493	-58.098	4.566	76.382	-40.669	110.642	144.200	179.631	55.526	87.552	107.244	100.822	154.904	149.556	54.397	-142.919	0.00035875	0.00027966	4.2834e-05	1026.6	3.3139e-06	1.3886e-06	1113.4	212.5	2.8119e-06	2.3143e-06	269.78	76.349	59.28	17.782	3.4105e-06	24.661	9.0716e-05	8.0682e-05	2.1017e-05	1006.2	8.8999e-07	8.3705e-07	1100	209.4	8.5299e-07	8.4869e-07	266.42	75.799	58.906	17.729	8.8858e-07	24.875	147.264	-82.841	-68.026	-140.564	-89.102	14.005	-140.734	-133.410	-29.896	44.502	-133.109	-127.344	-126.652	-118.913	-1.558	-119.655	-8191	255	
845.489	1	1	0	0	0.14432	0.092169	0.12476	0.15077	0.13788	0.22729	0.2776	0.19028	0.069174	0.081718	0.033756	0.3168	0.12578	0.027695	0.18725	0.15884	-2.8396	-3.1458	-3.5896	-3.1083	-3.1917	-3.6562	-2.9396	-3.5083	-3.3292	-2.9458	-3.6562	-3.1854	-3.2729	-3.3208	-2.9104	-3.4938	62.578	26.340	-139.974	-142.051	-126.695	-6.043	131.066	134.766	-54.039	11.660	47.772	122.158	-47.921	-100.546	-126.580	159.136	0.00031634	0.00012325	0.00010401	1025.1	2.3767e-06	1.5029e-06	1113.2	212.8	4.8413e-08	1.6056e-06	270.86	76.988	59.672	17.829	3.0606e-06	24.596	9.1639e-05	7.9297e-05	2.2691e-05	1005.6	8.8977e-07	8.7508e-07	1098.9	209.06	9.0588e-07	8.4953e-07	266.94	76.038	58.891	17.842	8.945e-07	24.796	151.661	-76.790	-20.505	-140.491	-55.038	-39.600	-141.023	-133.717	-56.668	8.245	-133.323	-127.166	-126.984	-118.917	12.107	-119.675	-8191	255	
845.585	1	1	0	0	0.099833	0.22462	0.13113	0.19186	0.10744	0.15514	0.25011	0.21472	0.26226	0.15543	0.29474	0.022211	0.18496	0.26202	0.18139	0.13011	-2.9313	-2.8438	-3.65	-3.275	-3.1208	-3.4375	-3.2042	-3.4854	-3.4479	-3.1125	-3.5542	-3.1771	-3.0583	-3.5812	-2.8688	-3.3708	-121.547	53.265	-52.878	-10.274	-71.902	-89.182	188.333	204.850	-10.348	-99.211	198.394	165.328	160.428	167.349	-38.320	17.535	0.0003819	0.00031281	6.673e-05	1036.6	1.1492e-06	2.7551e-06	1113.1	212.68	3.7203e-06	1.0573e-06	271.26	76.879	59.891	17.789	2.1248e-06	24.867	9.679e-05	8.4518e-05	2.2812e-05	1008.1	9.1874e-07	8.9878e-07	1098.4	209.13	9.4455e-07	9.018e-07	267.51	76.176	59.06	17.809	8.6878e-07	24.965	153.217	-105.520	-29.773	-140.717	180.842	-28.026	-140.805	-133.079	-47.016	87.771	-133.162	-127.525	-126.546	-118.635	4.585	-119.719	-8191	255	
845.682	1	1	0	0	0.27383	0.11841	0.19729	0.2128	0.1395	0.12796	0.25536	0.15123	0.14719	0.086107	0.16898	0.14657	0.31176	0.11531	0.17902	0.25726	-3.0271	-3.0312	-3.5	-3.3563	-3.025	-3.7479	-3.3563	-3.3792	-3.5354	-2.9896	-3.6771	-3.3479	-3.0625	-3.6042	-2.9521	-3.2687	-135.773	-118.170	-85.409	157.504	204.785	188.040	163.896	-145.393	10.199	-36.972	-88.436	169.498	182.207	154.501	-84.719	126.340	0.00031974	0.00026241	6.1473e-05	1030.6	1.9336e-06	3.676e-06	1115.7	210.98	3.1717e-06	4.1347e-06	269.09	76.71	59.928	17.966	3.4854e-06	24.623	9.699e-05	8.1124e-05	2.2641e-05	1008.2	9.3659e-07	9.009e-07	1098	208.87	9.3629e-07	9.1239e-07	266.95	76.064	59.108	17.885	9.0324e-07	24.837	149.670	-57.516	-23.714	-140.464	-74.651	-13.266	-140.638	-133.436	-67.459	38.717	-133.659	-127.484	-126.559	-119.599	-0.506	-119.715	-8191	255	
845.802	1	1	0	0	0.24037	0.046592	0.15924	0.021887	0.25329	0.067886	0.11349	0.38397	0.044639	0.078815	0.080631	0.092407	0.033914	0.17978	0.17765	0.19056	-3.1688	-2.8312	-3.4521	-3.5375	-3.025	-3.55	-3.1813	-3.3312	-3.4979	-2.8771	-3.3542	-3.4146	-2.9313	-3.6312	-3.1958	-3.2979	-105.088	19.603	-108.360	-89.848	206.668	-146.253	-51.341	-70.126	-137.790	179.885	92.585	-136.863	137.782	-72.937	47.540	204.971	0.00030023	0.000319	0.00010956	1028.5	3.4874e-06	1.6323e-06	1115	211.62	2.7772e-06	2.5653e-06	270.29	76.817	59.844	17.894	2.902e-06	24.725	9.6218e-05	8.3889e-05	2.2747e-05	1009.1	9.6727e-07	8.7781e-07	1100.5	209.13	9.5138e-07	9.417e-07	266.71	76.223	59.093	17.878	9.4308e-07	24.932	145.052	-61.700	-48.392	-140.534	-44.739	56.571	-140.988	-133.340	-65.298	-55.257	-133.969	-127.283	-126.701	-119.275	12.942	-120.274	-8191	255	
845.897	1	1	0	0	0.14075	0.24773	0.081275	0.32435	0.088578	0.3522	0.035596	0.10072	0.15497	0.062003	0.13684	0.097024	0.15148	0.36266	0.28212	0.10997	-3.075	-3.0896	-3.3542	-3.7083	-2.8292	-3.5875	-3.4146	-3.2542	-3.5312	-3.0833	-3.3604	-3.5625	-2.8208	-3.5833	-3.2167	-2.9813	-134.835	-98.369	98.009	153.466	167.667	-117.991	-79.330	-58.519	-19.606	-12.278	168.627	-27.033	163.817	-147.620	123.073	19.967	0.00035645	0.0003206	4.1777e-05	1030.6	1.9043e-06	3.8344e-06	1111.9	211.44	1.4774e-06	2.123e-06	270.42	76.744	59.811	17.886	1.4554e-06	25.028	9.9046e-05	8.4913e-05	2.3272e-05	1007.9	1.0027e-06	9.6157e-07	1098.9	209.42	9.862e-07	9.7201e-07	267.49	76.184	58.98	17.83	9.7566e-07	24.986	142.402	-10.494	-33.406	-140.669	27.210	-25.767	-140.706	-133.284	-61.629	-39.409	-133.700	-127.233	-126.828	-118.926	-13.102	-119.299	-8191	255	
845.993	1	1	0	0	0.33753	0.12079	0.081963	0.29443	0.048907	0.11442	0.47306	0.28568	0.11431	0.3894	0.27329	0.21833	0.093044	0.11055	0.050065	0.064938	-3.3021	-2.9396	-3.3438	-3.625	-2.7938	-3.4292	-3.5167	-3.0938	-3.6542	-3.1437	-3.3646	-3.7062	-2.9417	-3.3729	-3.2438	-2.8979	5.172	-7.094	-51.516	-43.313	54.848	-67.625	167.358	116.977	-130.510	36.880	124.656	-106.213	65.111	-139.659	170.945	136.141	0.00034835	0.00031521	9.3568e-05	1037.4	1.1779e-06	2.8574e-06	1117	213.1	3.8445e-06	2.1209e-06	272.74	76.418	60.08	17.929	2.0702e-06	24.879	0.00010106	8.7861e-05	2.4285e-05	1012	1.0223e-06	9.2069e-07	1101.4	210.07	9.9446e-07	9.0436e-07	267.37	76.184	59.095	17.904	9.1021e-07	24.956	150.732	-80.707	-39.592	-140.649	-42.031	-30.304	-140.855	-133.813	-50.684	30.831	-133.924	-128.031	-126.637	-119.301	-12.298	-119.480	-8191	255	
#DATA ENDS
