BOXY.EXE: ISS Imagent and Oximeter Data Acquisition Program Version 0.80
Ascii Record File

#ACQ INFORMATION
2  Detector Channels 
16  External MUX Channels 
1  Auxiliary Channels 
5000  Waveform (CCF) Frequency (Hz)
1  Waveforms Skipped 
30  Waveforms Averaged 
1  Cycles Averaged 
16  Acquisitions per Waveform 
10.0806  Updata Rate (Hz) 

#FILE INFORMATION
TRUE -- External MUX Channel results are PARSED.
FALSE -- AC DC and Phase are NOT grouped.
TRUE -- Companion Program Settings File CREATED.
FALSE -- AC data not excluded
FALSE -- DC data not excluded
FALSE -- Phase data not excluded
FALSE -- Auxillary Chn. data not excluded
Tab delimiters

#CALIBRATION STATE
TRUE -- Waveform Calibration Values APPLIED.


#AUX CALIBRATION VALUES
Val Type	aux-1	

Term	1.0000e+00	
Factor	0.0000e+00	


#WF CALIBRATION VALUES
A = Detector Channel
Val Type	A-AC1	A-AC2	A-AC3	A-AC4	A-AC5	A-AC6	A-AC7	A-AC8	A-AC9	A-AC10	A-AC11	A-AC12	A-AC13	A-AC14	A-AC15	A-AC16	A-DC1	A-DC2	A-DC3	A-DC4	A-DC5	A-DC6	A-DC7	A-DC8	A-DC9	A-DC10	A-DC11	A-DC12	A-DC13	A-DC14	A-DC15	A-DC16	A-Ph1	A-Ph2	A-Ph3	A-Ph4	A-Ph5	A-Ph6	A-Ph7	A-Ph8	A-Ph9	A-Ph10	A-Ph11	A-Ph12	A-Ph13	A-Ph14	A-Ph15	A-Ph16	

Term	0.00000e+00	0.00000e+00	0.00000e+00	0.00000e+00	0.00000e+00	0.00000e+00	0.00000e+00	0.00000e+00	0.00000e+00	0.00000e+00	0.00000e+00	0.00000e+00	0.00000e+00	0.00000e+00	0.00000e+00	0.00000e+00	0.00000e+00	0.00000e+00	0.00000e+00	0.00000e+00	0.00000e+00	0.00000e+00	0.00000e+00	0.00000e+00	0.00000e+00	0.00000e+00	0.00000e+00	0.00000e+00	0.00000e+00	0.00000e+00	0.00000e+00	0.00000e+00	0.00000e+00	0.00000e+00	0.00000e+00	0.00000e+00	0.00000e+00	0.00000e+00	0.00000e+00	0.00000e+00	0.00000e+00	0.00000e+00	0.00000e+00	0.00000e+00	0.00000e+00	0.00000e+00	0.00000e+00	0.00000e+00	
Factor	1.00000e+00	1.00000e+00	1.00000e+00	1.00000e+00	1.00000e+00	1.00000e+00	1.00000e+00	1.00000e+00	1.00000e+00	1.00000e+00	1.00000e+00	1.00000e+00	1.00000e+00	1.00000e+00	1.00000e+00	1.00000e+00	1.00000e+00	1.00000e+00	1.00000e+00	1.00000e+00	1.00000e+00	1.00000e+00	1.00000e+00	1.00000e+00	1.00000e+00	1.00000e+00	1.00000e+00	1.00000e+00	1.00000e+00	1.00000e+00	1.00000e+00	1.00000e+00	X	X	X	X	X	X	X	X	X	X	X	X	X	X	X	X	

B = Detector Channel
Val Type	B-AC1	B-AC2	B-AC3	B-AC4	B-AC5	B-AC6	B-AC7	B-AC8	B-AC9	B-AC10	B-AC11	B-AC12	B-AC13	B-AC14	B-AC15	B-AC16	B-DC1	B-DC2	B-DC3	B-DC4	B-DC5	B-DC6	B-DC7	B-DC8	B-DC9	B-DC10	B-DC11	B-DC12	B-DC13	B-DC14	B-DC15	B-DC16	B-Ph1	B-Ph2	B-Ph3	B-Ph4	B-Ph5	B-Ph6	B-Ph7	B-Ph8	B-Ph9	B-Ph10	B-Ph11	B-Ph12	B-Ph13	B-Ph14	B-Ph15	B-Ph16	

Term	0.00000e+00	0.00000e+00	0.00000e+00	0.00000e+00	0.00000e+00	0.00000e+00	0.00000e+00	0.00000e+00	0.00000e+00	0.00000e+00	0.00000e+00	0.00000e+00	0.00000e+00	0.00000e+00	0.00000e+00	0.00000e+00	0.00000e+00	0.00000e+00	0.00000e+00	0.00000e+00	0.00000e+00	0.00000e+00	0.00000e+00	0.00000e+00	0.00000e+00	0.00000e+00	0.00000e+00	0.00000e+00	0.00000e+00	0.00000e+00	0.00000e+00	0.00000e+00	-1.85345e+02	-1.23737e+02	-1.11857e+02	-1.80493e+02	-1.02631e+02	-7.18909e+01	-1.55190e+02	-1.62015e+02	-8.30239e+01	-6.30682e+01	-1.71086e+02	-1.70392e+02	-1.81065e+02	-1.76742e+02	-5.60175e+01	-1.49283e+02	
Factor	3.45794e-05	1.28973e-04	3.64895e-05	1.78598e-01	1.50782e-06	1.48164e-06	1.55936e-01	4.98493e-02	1.25560e-06	1.27048e-06	8.53734e-02	2.92799e-02	2.65120e-02	9.74353e-03	1.48999e-06	1.28900e-02	2.28479e-06	2.43523e-06	6.78434e-07	9.15091e-02	2.64387e-08	2.67660e-08	7.53430e-02	2.56481e-02	2.64425e-08	2.67481e-08	4.24034e-02	1.45225e-02	1.36176e-02	5.01221e-03	2.65546e-08	6.42646e-03	X	X	X	X	X	X	X	X	X	X	X	X	X	X	X	X	



#DISTANCE SETTINGS
A = Detector Channel
A-1	A-2	A-3	A-4	A-5	A-6	A-7	A-8	A-9	A-10	A-11	A-12	A-13	A-14	A-15	A-16	

2.5000e+00	3.0000e+00	2.5000e+00	3.0000e+00	2.0000e+00	3.0000e+00	1.5000e+00	3.0000e+00	3.0000e+00	3.0000e+00	3.0000e+00	3.0000e+00	3.0000e+00	3.0000e+00	1.5000e+00	3.0000e+00	

B = Detector Channel
B-1	B-2	B-3	B-4	B-5	B-6	B-7	B-8	B-9	B-10	B-11	B-12	B-13	B-14	B-15	B-16	

1.0000e+01	1.0000e+01	1.0000e+01	1.4400e+00	1.0000e+01	1.0000e+01	1.5100e+00	1.9400e+00	1.0000e+01	1.0000e+01	1.9900e+00	2.4900e+00	2.4100e+00	2.9000e+00	1.0000e+01	2.9800e+00	




#DATA BEGINS
time	group	step	mark	flag	A-AC1	A-AC2	A-AC3	A-AC4	A-AC5	A-AC6	A-AC7	A-AC8	A-AC9	A-AC10	A-AC11	A-AC12	A-AC13	A-AC14	A-AC15	A-AC16	A-DC1	A-DC2	A-DC3	A-DC4	A-DC5	A-DC6	A-DC7	A-DC8	A-DC9	A-DC10	A-DC11	A-DC12	A-DC13	A-DC14	A-DC15	A-DC16	A-Ph1	A-Ph2	A-Ph3	A-Ph4	A-Ph5	A-Ph6	A-Ph7	A-Ph8	A-Ph9	A-Ph10	A-Ph11	A-Ph12	A-Ph13	A-Ph14	A-Ph15	A-Ph16	B-AC1	B-AC2	B-AC3	B-AC4	B-AC5	B-AC6	B-AC7	B-AC8	B-AC9	B-AC10	B-AC11	B-AC12	B-AC13	B-AC14	B-AC15	B-AC16	B-DC1	B-DC2	B-DC3	B-DC4	B-DC5	B-DC6	B-DC7	B-DC8	B-DC9	B-DC10	B-DC11	B-DC12	B-DC13	B-DC14	B-DC15	B-DC16	B-Ph1	B-Ph2	B-Ph3	B-Ph4	B-Ph5	B-Ph6	B-Ph7	B-Ph8	B-Ph9	B-Ph10	B-Ph11	B-Ph12	B-Ph13	B-Ph14	B-Ph15	B-Ph16	aux-1	digaux	

815.046	1	1	0	256	0.11292	0.12095	0.22216	0.18613	0.071253	0.19377	0.26184	0.070387	0.069895	0.25871	0.15899	0.09343	0.20497	0.063403	0.14886	0.18049	-3.1146	-3.0917	-3.0812	-3.8438	-3.0229	-3.3375	-3.4854	-2.8917	-3.5917	-3.1688	-2.9833	-3.4833	-3.1	-3.2667	-3.4562	-2.9562	-129.273	-95.887	121.130	90.032	10.852	-77.833	148.740	141.841	79.866	34.079	170.600	-153.510	161.674	125.801	-3.384	-153.921	0.00085264	0.00046501	0.00015006	1356.9	6.7906e-06	5.5345e-06	1352.2	364.25	7.2064e-06	4.0329e-06	417.62	140.49	121.54	42.249	5.8568e-06	52.08	0.00045817	0.00044529	0.00012467	1371.8	4.8585e-06	4.829e-06	1373.7	370.93	4.8229e-06	4.857e-06	425.9	143.45	123.85	43.229	4.8187e-06	53.463	149.298	-25.202	-37.535	-143.248	-64.450	29.123	-143.593	-138.715	-63.562	-7.875	-138.951	-135.099	-134.843	-129.739	-24.444	-130.398	-8191	255	
815.118	1	1	0	0	0.18851	0.18697	0.34304	0.22545	0.14719	0.10518	0.29674	0.28176	0.066881	0.096487	0.20981	0.19807	0.19339	0.22523	0.22672	0.2131	-3.1042	-3.1896	-2.8375	-3.7625	-2.825	-3.3563	-3.7938	-3.1104	-3.3229	-3.3958	-3.1146	-3.5729	-3.0708	-3.2042	-3.5812	-3.0729	182.865	-45.447	60.538	155.337	146.953	-7.721	116.465	96.750	147.448	-30.609	151.647	187.836	197.796	185.062	155.600	138.798	0.0007807	0.00057197	0.0002244	1350.2	5.2453e-06	3.2636e-06	1351.4	364.94	3.0366e-06	1.7859e-06	416.42	140.78	122.07	41.912	4.7809e-06	52.07	0.00045722	0.00043995	0.00012286	1368.3	4.8741e-06	4.8408e-06	1374.8	370.94	4.8455e-06	4.8259e-06	425.06	143.6	124.04	43.095	4.8443e-06	53.467	143.662	-45.900	-53.379	-143.307	-38.355	-78.730	-143.521	-138.778	-35.578	18.257	-139.229	-135.005	-134.876	-129.850	-20.359	-130.477	-8191	255	
815.239	1	1	0	0	0.20046	0.1236	0.23979	0.093391	0.26388	0.091528	0.20476	0.12155	0.053494	0.15662	0.069017	0.1525	0.010395	0.16177	0.12481	0.18458	-3.1521	-3.2625	-3.0042	-3.6667	-3.1188	-3.2458	-3.5438	-3.0625	-3.3167	-3.2458	-2.9562	-3.7167	-3.175	-3.0396	-3.6354	-3.0687	171.873	114.065	202.091	178.803	-77.343	178.745	138.797	102.150	162.243	-71.646	37.566	149.146	-2.746	-110.274	-69.554	-124.272	0.00081696	0.0004739	0.0001074	1354.2	6.3351e-06	4.6438e-06	1348.8	363.8	6.5595e-06	5.9651e-06	416.3	140.9	121.54	41.828	1.7978e-06	51.661	0.0004526	0.00044164	0.00012366	1371.8	4.7897e-06	4.7941e-06	1373.2	370.81	4.8398e-06	4.7453e-06	424.97	143.56	123.84	43.08	4.7915e-06	53.408	137.867	-66.196	-0.594	-143.411	-69.064	-39.725	-143.653	-138.884	-33.419	38.029	-138.766	-135.004	-134.410	-129.510	-30.007	-130.107	-8191	255	
815.335	1	1	0	0	0.23228	0.16519	0.18871	0.048771	0.14165	0.12428	0.31292	0.16961	0.10467	0.37311	0.2997	0.18488	0.34033	0.17793	0.28434	0.066888	-3.0146	-3.3771	-2.9729	-3.8292	-3.0729	-3	-3.8521	-3.1813	-3.3479	-3.4	-2.9229	-3.6167	-3.1625	-3.2542	-3.7521	-3.0208	-62.868	147.369	-3.221	-66.499	106.864	-121.845	184.850	165.186	30.855	-126.657	116.837	192.136	-144.842	175.866	27.039	135.998	0.00074596	0.00095463	0.00015555	1345.3	1.8779e-06	8.8726e-06	1346.4	362.72	4.9456e-06	4.971e-06	418.47	140.71	120.97	41.859	2.5786e-07	51.83	0.00046123	0.00043973	0.00012318	1369	4.7619e-06	4.8154e-06	1371.9	370.35	4.879e-06	4.8041e-06	425.66	143.61	123.73	43.098	4.8116e-06	53.37	151.230	-81.946	-52.559	-142.932	-1.562	0.053	-143.289	-138.329	-66.681	14.681	-139.100	-135.142	-134.406	-129.553	157.813	-130.290	-8191	255	
815.431	1	1	0	0	0.13912	0.10893	0.34388	0.12323	0.12591	0.18757	0.29419	0.26034	0.10449	0.13893	0.15713	0.30609	0.3133	0.16535	0.038752	0.22241	-2.8646	-3.5771	-2.8271	-3.6125	-3.4625	-2.8792	-3.8396	-3.2417	-3.3042	-3.3542	-2.9062	-3.4875	-3.4646	-3.025	-3.6104	-3.1083	-76.010	-85.957	31.998	170.908	31.087	165.587	140.621	126.065	-89.308	202.642	150.574	113.715	169.084	179.267	-137.894	115.173	0.00087794	0.00046301	0.00019768	1343.5	7.5014e-06	7.0745e-06	1351.8	362.97	7.0112e-06	3.0523e-06	416.2	140.52	122.02	41.939	3.2225e-06	52.203	0.00045556	0.00043095	0.00012249	1366.5	4.7676e-06	4.7656e-06	1374.5	370.63	4.79e-06	4.6874e-06	425.13	143.35	123.9	43.076	4.7651e-06	53.455	145.825	-72.120	-45.504	-142.821	-23.370	-21.505	-143.445	-138.637	-47.512	-30.943	-139.010	-135.122	-134.541	-129.648	2.485	-130.136	-8191	255	
815.527	1	1	0	0	0.087118	0.30233	0.051389	0.10596	0.16902	0.13875	0.26479	0.17661	0.080489	0.06572	0.1711	0.12771	0.10254	0.22469	0.085052	0.081854	-2.6875	-3.4958	-2.9792	-3.5042	-3.3583	-2.9104	-3.825	-3.3646	-2.8792	-3.5062	-3.0479	-3.3854	-3.5896	-2.975	-3.5458	-3.2229	12.169	-132.061	54.021	148.352	197.628	-96.972	-152.503	193.448	178.354	200.853	194.434	105.364	191.285	134.536	-53.324	-60.158	0.00072682	0.00031576	0.00024942	1346.9	4.8835e-06	6.0998e-06	1348.9	364.51	6.0878e-06	1.9319e-06	417.05	140.68	120.96	41.853	5.3457e-06	51.831	0.00044777	0.00042987	0.00012078	1367.1	4.6726e-06	4.7217e-06	1371.1	370.36	4.7433e-06	4.6158e-06	424.7	143.31	123.67	42.992	4.689e-06	53.297	142.089	-67.181	-49.343	-143.269	-116.231	-39.108	-143.618	-138.809	-64.581	-11.141	-138.826	-135.161	-134.202	-129.321	4.907	-130.006	-8191	255	
815.623	1	1	0	0	0.046414	0.16617	0.17656	0.16263	0.055161	0.18603	0.27406	0.15658	0.18412	0.26347	0.22712	0.15789	0.28826	0.1194	0.16912	0.10893	-2.6312	-3.5271	-2.8604	-3.3583	-3.4479	-2.7583	-3.925	-3.3708	-3.0292	-3.5938	-3.0292	-3.3979	-3.6813	-2.8583	-3.3646	-3.3438	-71.270	122.015	91.926	194.539	189.902	141.636	132.668	106.266	10.394	46.864	155.342	127.387	196.337	145.703	140.965	-13.352	0.00073	0.00066302	0.00020441	1342	3.5488e-06	5.3116e-06	1344	361.85	6.6294e-06	3.111e-06	415.4	140.63	121.42	41.858	6.9524e-06	51.632	0.00044415	0.00042719	0.00011732	1365.8	4.6531e-06	4.6344e-06	1371.2	369.83	4.7681e-06	4.7196e-06	424.31	143.36	123.68	43.01	4.6924e-06	53.322	145.570	-50.258	-48.927	-143.089	-41.744	-21.614	-143.308	-138.318	-42.353	-35.643	-138.806	-135.303	-134.606	-129.542	-43.498	-130.356	-8191	255	
815.719	1	1	0	0	0.19188	0.096184	0.23331	0.10643	0.32225	0.080712	0.19272	0.095044	0.16543	0.036002	0.13248	0.20594	0.066091	0.048331	0.040357	0.26564	-2.6583	-3.5083	-2.975	-3.4458	-3.6042	-2.8688	-3.6792	-3.5896	-2.8063	-3.7438	-3.1604	-3.1771	-3.5354	-3.1417	-3.5	-3.3896	109.738	109.971	67.600	-115.096	32.295	-24.378	177.657	102.340	-53.744	32.361	40.513	-115.911	66.006	34.434	-25.808	-101.919	0.00073755	0.00055429	8.8034e-05	1344.1	2.8391e-06	2.0325e-06	1343.9	361.69	5.8643e-06	4.101e-06	418.3	140.75	120.62	41.779	2.1598e-06	51.639	0.00043943	0.00042218	0.00011695	1366.4	4.6033e-06	4.6156e-06	1370.3	369.68	4.6061e-06	4.5925e-06	425.14	143.25	123.45	42.991	4.5828e-06	53.184	141.494	-56.541	-19.644	-142.940	-114.767	-7.501	-143.337	-138.617	-60.416	-3.039	-139.082	-135.460	-134.378	-129.342	38.141	-130.019	-8191	255	
815.814	1	1	0	0	0.13674	0.26424	0.14182	0.18715	0.15703	0.1817	0.4624	0.093366	0.16096	0.31389	0.16499	0.13676	0.043687	0.3047	0.15645	0.13864	-2.4917	-3.5563	-3.0146	-3.1854	-3.6417	-3.0187	-3.4125	-3.7417	-2.9792	-3.5354	-3.4062	-3.275	-3.5792	-2.9667	-3.1875	-3.6354	148.223	168.439	-131.153	-65.774	-39.990	141.115	117.757	54.171	145.645	-4.168	93.267	-124.966	89.609	-136.186	40.297	171.775	0.00084369	0.0005732	0.00016497	1339.7	4.2258e-06	4.5237e-06	1340.8	362.09	6.7895e-06	8.9332e-07	414.26	140.27	121.44	41.935	3.5362e-06	51.875	0.00044192	0.00042103	0.00011728	1365.1	4.5962e-06	4.5896e-06	1369.7	369.78	4.6809e-06	4.6948e-06	424.08	143.21	123.67	42.921	4.7225e-06	53.323	139.695	-79.998	-55.956	-143.025	-70.273	-25.418	-143.401	-138.518	-45.935	-113.055	-139.017	-135.372	-134.516	-129.593	13.283	-130.269	-8191	255	
815.910	1	1	0	0	0.34998	0.19765	0.096667	0.31587	0.062625	0.076812	0.0082497	0.099568	0.30736	0.19344	0.061356	0.099975	0.097729	0.11045	0.17796	0.060851	-2.7125	-3.6396	-3.1583	-3.2083	-3.6167	-3.1167	-3.3708	-3.6271	-2.9854	-3.4333	-3.2625	-3.1792	-3.7167	-3.1	-3.1833	-3.5479	155.426	137.201	17.724	181.759	-20.823	76.514	-44.183	123.693	-11.423	-124.800	165.126	-64.946	192.744	-116.377	144.553	142.324	0.00075838	0.00072385	0.00016848	1345.2	6.7669e-06	3.4655e-06	1344.2	362.92	4.2357e-06	6.0872e-06	414.91	140.28	121.08	41.857	7.6739e-06	52.013	0.00044389	0.00042509	0.00011946	1364.2	4.7703e-06	4.777e-06	1369.1	370.37	4.8414e-06	4.7941e-06	424.17	143.15	123.57	42.933	4.77e-06	53.334	150.343	-37.745	-49.868	-143.138	-49.250	-48.513	-143.511	-138.646	-42.832	19.161	-138.896	-135.505	-134.442	-129.314	-38.849	-130.312	-8191	255	
816.008	1	1	0	0	0.090011	0.081042	0.15105	0.22084	0.1584	0.073849	0.15821	0.052852	0.14819	0.13695	0.055912	0.14651	0.06594	0.30809	0.23239	0.18837	-2.5583	-3.4833	-3.2917	-3.075	-3.525	-3.05	-3.4542	-3.5396	-3.0583	-3.4188	-3.525	-3.0083	-3.7417	-3.2958	-3.225	-3.6625	201.830	-112.896	-74.973	149.874	150.922	64.798	103.385	-16.717	124.179	57.480	25.805	164.037	23.414	202.167	23.117	129.297	0.00082393	0.00065662	0.00022456	1345.2	8.7114e-06	1.5063e-06	1343.5	363.72	4.0055e-06	2.906e-06	415.89	140.27	121.21	41.849	5.6341e-06	51.712	0.00045585	0.00043705	0.00012412	1367.7	4.8878e-06	4.8527e-06	1370.5	370.23	4.9313e-06	4.7963e-06	425.01	143.33	123.71	42.97	4.8897e-06	53.281	146.076	-80.070	-51.513	-143.115	-65.046	-16.979	-143.818	-138.556	-25.167	59.109	-138.711	-135.447	-134.374	-129.252	-27.659	-130.141	-8191	255	
816.127	1	1	0	0	0.01511	0.091804	0.18692	0.12307	0.33697	0.18898	0.13596	0.15824	0.099475	0.24075	0.16155	0.22844	0.17143	0.066181	0.061321	0.12585	-2.5854	-3.3271	-3.3146	-2.9854	-3.4854	-3.2604	-3.1292	-3.7188	-2.9271	-3.2229	-3.6312	-2.9354	-3.6188	-3.3021	-2.9333	-3.5812	-133.756	147.253	110.888	171.739	-123.549	-96.253	196.603	152.324	8.008	199.773	-152.856	99.868	150.124	-71.981	98.723	188.065	0.00088127	0.00022959	0.00022673	1346.4	4.4134e-06	5.7259e-06	1337.8	363.54	1.9276e-06	5.8679e-06	417.4	139.93	121.25	41.766	7.9707e-06	51.624	0.00045883	0.00044627	0.00012465	1367.1	4.9016e-06	4.9376e-06	1369.7	370.81	4.9378e-06	4.8946e-06	425.55	143.05	123.64	42.94	4.8941e-06	53.274	145.557	-68.197	-56.878	-143.017	-31.752	-38.712	-143.283	-138.550	-58.357	-32.632	-138.763	-135.213	-134.331	-129.236	-21.973	-130.201	-8191	255	
816.223	1	1	0	0	0.039463	0.094298	0.13451	0.16813	0.19794	0.35703	0.17803	0.1013	0.20116	0.30962	0.21014	0.026005	0.083298	0.27509	0.15221	0.1261	-2.5396	-3.2062	-3.5354	-3.1083	-3.4562	-3.2979	-3.1333	-3.7104	-3.0542	-3.1667	-3.7125	-3.25	-3.5646	-3.3271	-3.0271	-3.6417	35.107	-132.971	17.594	-112.705	-124.728	-89.427	153.742	119.465	-43.140	168.227	-150.711	57.301	-149.477	172.747	152.889	59.010	0.0008698	0.00017555	9.3471e-05	1352	4.3295e-06	3.0372e-06	1349.7	364.3	8.4623e-06	5.7552e-06	417.17	140.92	122.09	42.236	8.2697e-06	51.824	0.00046222	0.00045211	0.00012598	1368	4.9e-06	4.9526e-06	1371.4	370.74	4.9944e-06	4.9045e-06	425.48	143.37	123.9	43.065	5.0165e-06	53.278	143.689	196.885	-59.801	-143.138	-105.329	-0.817	-143.654	-138.723	-52.979	43.397	-139.041	-135.489	-134.955	-129.889	-19.102	-130.297	-8191	255	
816.319	1	1	0	0	0.19568	0.096466	0.21871	0.11807	0.17738	0.023886	0.15296	0.036601	0.11053	0.032428	0.098415	0.086025	0.13092	0.16401	0.1585	0.15417	-2.8292	-3.1292	-3.75	-3.1479	-3.4854	-3.4479	-3.1063	-3.7146	-3.0854	-3.025	-3.6417	-2.9854	-3.3937	-3.4292	-3.0958	-3.4813	104.071	55.176	117.980	138.764	183.318	18.555	174.098	-131.060	66.218	-47.104	179.475	-2.016	139.254	159.616	183.144	78.081	0.00079972	0.00039227	0.0001377	1347.3	6.8001e-06	3.738e-06	1353.5	364.57	8.7924e-06	5.5946e-06	416.11	140.29	121.85	41.841	3.1773e-06	51.97	0.0004686	0.00045131	0.00012469	1367.4	5.0636e-06	4.9912e-06	1375	370.74	5.0344e-06	4.9654e-06	425.03	143.42	123.93	43.04	5.0268e-06	53.321	145.975	-88.846	-49.279	-143.287	-82.794	-67.865	-143.755	-138.779	-31.755	-3.466	-138.849	-135.587	-134.583	-129.655	-43.796	-130.523	-8191	255	
816.415	1	1	0	0	0.1505	0.11498	0.043196	0.18453	0.19542	0.16989	0.15609	0.24322	0.12907	0.20081	0.20485	0.079709	0.066898	0.16395	0.18239	0.2596	-2.8979	-3.0042	-3.6708	-3.1813	-3.2333	-3.5062	-3.1729	-3.8563	-3.2417	-2.9	-3.7188	-3.2104	-3.0958	-3.7271	-2.6167	-3.6083	20.430	-24.208	-16.852	98.683	102.338	-66.334	139.072	176.369	44.024	41.784	126.979	176.467	108.980	1.864	-132.177	200.937	0.00086481	0.00041604	0.000179	1347.5	2.7623e-06	5.589e-06	1355.8	364.51	6.533e-06	4.674e-06	418.52	140.13	121.3	41.937	5.259e-06	51.963	0.00047796	0.00046825	0.00013018	1370	5.118e-06	5.0436e-06	1374.7	371.07	5.0815e-06	5.0653e-06	425.98	143.51	123.84	43.004	5.1045e-06	53.449	140.901	-45.468	-39.324	-143.187	-9.392	13.923	-143.593	-138.780	-32.341	-33.574	-139.046	-135.347	-134.444	-129.607	55.875	-130.392	-8191	255	
816.511	1	1	0	0	0.14893	0.056739	0.18761	0.23654	0.16968	0.20274	0.54561	0.094585	0.13568	0.25054	0.2094	0.28577	0.29704	0.3924	0.21668	0.14913	-2.9396	-2.9958	-3.3667	-3.2458	-3.0542	-3.6437	-3.1604	-3.5875	-3.3063	-3.1	-3.5375	-3.1437	-3.1146	-3.6208	-3.0062	-3.4958	-120.446	65.234	-61.702	165.644	95.754	27.140	138.815	-115.289	-14.149	-144.081	186.780	116.109	200.225	121.251	62.673	117.430	0.00084143	0.00055821	0.00016726	1351.1	6.0315e-06	5.3957e-06	1346.4	363.68	4.4924e-06	5.6848e-06	416.74	140.2	121.52	41.987	5.3043e-06	51.713	0.00046942	0.00046809	0.00013244	1368.3	5.0724e-06	5.1005e-06	1373.4	370.75	5.0563e-06	5.1717e-06	425.75	143.37	123.82	43.04	5.1825e-06	53.335	148.973	-100.452	-60.118	-143.253	-33.832	-12.703	-143.729	-138.760	-70.985	44.515	-139.241	-135.717	-135.135	-129.952	45.913	-130.501	-8191	255	
816.607	1	1	0	0	0.091875	0.055494	0.026428	0.22233	0.15747	0.14868	0.025011	0.27483	0.26932	0.15746	0.090151	0.19375	0.19542	0.043539	0.12088	0.074691	-2.9938	-2.7625	-3.5479	-3.3396	-2.9875	-3.45	-3.1125	-3.35	-3.525	-2.9354	-3.6521	-3.4208	-3.2438	-3.6354	-2.9292	-3.3271	-24.432	26.060	165.552	181.687	-150.425	118.700	132.815	144.941	54.888	175.293	189.750	19.170	-114.950	-66.062	-101.806	8.812	0.00084918	0.00043111	0.00019053	1356.6	8.9576e-06	4.3486e-06	1353	366.09	3.6176e-06	5.1192e-06	416.96	140.98	121.84	42.211	2.6054e-06	51.896	0.00048224	0.00047817	0.00013312	1371.1	5.1702e-06	5.1371e-06	1374.3	371.24	5.1865e-06	5.1766e-06	425.35	143.46	123.99	43.107	5.2292e-06	53.334	146.313	-65.154	-46.647	-143.379	-93.631	-52.789	-143.985	-139.063	-92.318	-20.761	-139.407	-135.670	-134.688	-129.904	-27.476	-130.581	-8191	255	
816.728	1	1	0	0	0.25553	0.17628	0.094368	0.31225	0.08054	0.13604	0.29953	0.29324	0.23584	0.21187	0.31814	0.096536	0.17671	0.10225	0.1924	0.17877	-2.8896	-2.8937	-3.3979	-3.5708	-2.9417	-3.6083	-3.0979	-3.275	-3.3563	-3.0187	-3.4938	-3.3208	-2.9917	-3.6	-3.0792	-3.1125	55.051	185.482	-22.501	164.949	76.427	-98.746	114.041	-137.640	82.610	187.926	133.480	192.053	172.688	-135.389	-38.525	-127.840	0.00079715	0.00016338	0.00015731	1352.8	6.1181e-06	2.7733e-06	1349.5	364.34	4.5324e-06	4.0513e-06	415.05	139.5	121.06	41.924	5.1638e-06	51.919	0.00048925	0.00047092	0.00013114	1370.8	5.3065e-06	5.1382e-06	1374.4	371.06	5.1895e-06	5.1584e-06	424.81	143.21	123.83	43.076	5.123e-06	53.395	142.681	-92.095	-56.866	-143.103	-45.214	8.946	-143.461	-138.603	-84.374	17.861	-138.963	-135.346	-134.723	-129.584	-5.740	-130.566	-8191	255	
816.822	1	1	0	0	0.064946	0.027879	0.20364	0.26002	0.29757	0.094983	0.24563	0.32219	0.21157	0.20071	0.088307	0.12318	0.13647	0.10429	0.13291	0.11934	-3.125	-2.75	-3.3896	-3.5312	-2.9125	-3.5312	-3.3292	-3.2146	-3.5062	-2.7438	-3.5146	-3.3646	-3.0187	-3.5708	-3.075	-2.9375	39.374	160.755	-140.278	198.246	19.339	92.736	137.412	143.814	61.915	-32.735	-140.960	117.758	83.878	-112.753	-16.779	50.686	0.00086866	0.00026192	0.00019662	1353.6	4.9485e-06	3.7264e-06	1351.3	364.61	8.2597e-06	6.2446e-06	416.32	140.37	121.67	41.875	6.5638e-06	51.845	0.00048727	0.00047281	0.00013038	1370.3	5.1663e-06	5.1238e-06	1373.5	370.88	5.2355e-06	5.0896e-06	425.57	143.31	123.84	43.004	5.2003e-06	53.337	143.758	-94.578	-35.411	-143.097	-63.557	5.781	-143.451	-138.809	-17.289	6.560	-139.057	-135.313	-134.679	-129.364	-0.597	-130.614	-8191	255	
816.919	1	1	0	0	0.19136	0.28971	0.33824	0.091789	0.16533	0.24318	0.28241	0.028562	0.11585	0.23885	0.20085	0.28588	0.01992	0.069297	0.12765	0.067439	-3.1396	-3.0271	-3.3271	-3.7396	-2.9271	-3.6	-3.1708	-2.9354	-3.5146	-3.0021	-3.4042	-3.4271	-2.9958	-3.4896	-3.2083	-3.0833	79.253	169.913	-59.039	123.222	42.137	-20.792	187.375	160.454	176.741	185.502	79.366	-103.617	67.379	126.162	81.102	48.230	0.00076538	0.00019513	0.00017058	1344	5.53e-06	5.406e-06	1346	363.22	1.7201e-06	5.7359e-06	417.13	139.91	120.96	41.85	4.7396e-06	51.466	0.00048688	0.00047199	0.00012998	1367.2	5.1618e-06	5.1061e-06	1372.1	370.52	5.1533e-06	5.1328e-06	425.56	143.19	123.6	42.916	5.119e-06	53.217	145.803	-108.874	-31.895	-142.983	-53.741	2.060	-143.520	-138.703	-110.222	14.886	-139.162	-135.133	-134.529	-129.624	23.413	-130.519	-8191	255	
817.015	1	1	0	0	0.2659	0.16643	0.13192	0.15247	0.16692	0.090708	0.35472	0.10382	0.13242	0.10802	0.076623	0.18902	0.043075	0.12455	0.023784	0.18622	-3.2792	-2.8271	-2.9979	-3.6083	-2.9896	-3.5167	-3.5229	-3.1229	-3.5333	-3.2083	-3.2375	-3.5458	-2.9958	-3.5521	-3.1813	-2.9667	-99.669	141.586	38.610	157.375	54.640	181.809	81.981	162.793	-116.289	-139.648	-1.000	41.695	148.632	166.040	127.415	101.066	0.0007999	0.00058507	0.00023939	1349.2	8.4753e-06	4.2099e-06	1349	363.96	5.0962e-06	8.0272e-06	416.37	140.39	121.24	41.911	8.4948e-06	51.753	0.00048009	0.00046789	0.00013137	1368.6	5.1678e-06	5.1267e-06	1373	370.33	5.1723e-06	5.1164e-06	425.68	143.31	123.73	43.01	5.163e-06	53.217	152.181	-61.615	-82.371	-143.117	-69.800	35.129	-143.535	-138.670	-76.513	-21.811	-139.088	-135.208	-134.394	-129.636	-44.255	-130.400	-8191	255	
817.111	1	1	0	0	0.16189	0.059797	0.048572	0.25167	0.14708	0.14239	0.015313	0.11525	0.28953	0.12231	0.21677	0.27549	0.13199	0.19145	0.19187	0.54102	-3.1667	-3	-2.9083	-3.7042	-2.9625	-3.4875	-3.7104	-3.0604	-3.4562	-2.9521	-3.1312	-3.6271	-2.9542	-3.5542	-3.4646	-2.975	1.543	62.731	-86.678	140.141	-122.611	-152.111	173.335	164.445	200.302	-39.045	-142.854	161.174	-140.233	143.687	145.860	109.242	0.0009699	0.00029838	0.00025364	1347	1.2571e-06	4.1057e-06	1349.2	364.77	4.6858e-06	5.9716e-06	416.63	140.7	120.33	41.888	2.6429e-06	51.896	0.00047612	0.00046646	0.00013036	1368	5.1688e-06	5.072e-06	1370.5	371.11	5.1971e-06	5.1023e-06	425.61	143.47	123.49	42.944	5.1161e-06	53.393	145.260	-107.189	-60.964	-142.888	8.465	-39.809	-143.759	-138.690	-32.124	4.201	-139.062	-135.319	-134.486	-129.345	26.521	-129.986	-8191	255	
817.207	1	1	0	0	0.31925	0.22391	0.10735	0.28448	0.16545	0.23068	0.38144	0.32092	0.14251	0.057409	0.13576	0.23752	0.13962	0.11029	0.15084	0.15596	-3.1854	-3.1813	-3.0583	-3.6063	-2.9146	-3.1917	-3.5708	-3.1208	-3.5875	-3.2313	-2.9146	-3.675	-3.0292	-3.1854	-3.4625	-2.9667	-117.689	151.410	-105.457	101.902	109.773	184.979	162.173	119.321	-146.107	10.188	56.559	-150.706	-130.523	-21.704	-67.884	115.795	0.00077775	0.00060535	0.00017054	1346.4	7.9882e-06	3.322e-06	1347.4	363.78	6.9562e-06	1.4046e-06	414.47	140.14	121.16	41.622	3.5318e-06	51.611	0.00048111	0.00046585	0.00013159	1368.9	5.176e-06	5.1173e-06	1372.5	370.82	5.1522e-06	5.144e-06	424.95	143.36	123.57	42.924	5.1452e-06	53.223	149.958	-35.346	-98.832	-143.178	-23.079	64.048	-143.767	-139.038	-79.898	-38.834	-138.834	-135.191	-134.307	-129.720	-15.783	-129.881	-8191	255	
817.303	1	1	0	0	0.19365	0.081869	0.059722	0.28876	0.15767	0.33474	0.14315	0.13567	0.047843	0.11415	0.34444	0.28287	0.17183	0.14109	0.12556	0.14122	-2.8146	-3.1271	-2.775	-3.7833	-2.8479	-3.0229	-3.8083	-3.2521	-3.3208	-3.3833	-3.0021	-3.6896	-3.2917	-3.0667	-3.4396	-3.0917	115.443	-71.487	160.470	170.572	-14.949	-13.423	159.107	202.105	80.247	-21.609	157.305	-22.497	-94.547	197.113	69.226	-113.137	0.00078326	0.00045805	0.00014927	1347.5	4.0332e-06	3.3298e-06	1343.2	364.26	4.5279e-06	3.736e-06	417.71	140.44	121.22	41.895	7.9065e-06	51.799	0.00048273	0.00046168	0.00013048	1368.5	5.0173e-06	5.098e-06	1372	370.49	5.0725e-06	5.0787e-06	425.47	143.28	123.79	43.009	5.1447e-06	53.271	139.317	-34.947	-40.794	-143.090	-83.477	-59.923	-143.404	-138.681	-51.380	-22.348	-139.260	-135.282	-134.454	-129.416	-16.657	-130.296	-8191	255	
817.424	1	1	0	0	0.17843	0.085448	0.15842	0.18676	0.13045	0.19287	0.24579	0.29139	0.34832	0.065732	0.24686	0.31825	0.044588	0.15881	0.28123	0.15221	-2.8771	-3.3333	-2.6688	-3.6771	-3.1813	-3.0875	-3.8937	-3.1688	-3.3	-3.4333	-2.975	-3.5333	-3.2354	-3.2125	-3.5729	-3.1833	-40.139	-75.368	136.197	191.444	95.307	-22.952	119.565	120.804	-83.971	-29.493	161.722	146.542	-21.037	183.991	3.429	-30.016	0.00083195	0.00019735	0.00011663	1341.4	7.3286e-06	5.1078e-06	1348.4	364.36	5.0551e-06	5.8249e-06	414.98	140.43	121.05	42.007	4.0062e-06	51.727	0.00047672	0.00047161	0.00013291	1366.6	5.0755e-06	5.2266e-06	1372.1	370.83	5.1749e-06	5.1636e-06	425.26	143.27	123.59	43.014	5.1884e-06	53.226	143.503	-78.912	-35.757	-142.885	-75.593	-19.709	-143.491	-138.772	-39.120	-12.689	-138.946	-135.183	-134.475	-130.175	-34.609	-130.807	-8191	255	
817.520	1	1	0	0	0.15353	0.24311	0.13804	0.057987	0.081159	0.087159	0.16682	0.16954	0.072617	0.20515	0.19926	0.099711	0.32721	0.095976	0.19823	0.083073	-2.9479	-3.5583	-2.9688	-3.6083	-3.2854	-2.9479	-3.9333	-3.1042	-3.1063	-3.4354	-3.0583	-3.4104	-3.5229	-2.9562	-3.6083	-3.0646	-97.638	38.864	115.160	-148.058	70.030	-33.908	181.699	116.678	70.737	107.365	-141.765	-78.290	-133.563	77.452	-78.203	-27.105	0.00079036	0.00067854	0.00013236	1352.4	3.7122e-06	4.8221e-06	1350.3	364.82	6.3822e-06	6.1562e-06	418.74	140.35	121.43	41.981	7.8121e-07	51.712	0.00048541	0.00046749	0.00013178	1370.7	5.1537e-06	5.1676e-06	1372.2	370.79	5.1672e-06	5.1431e-06	426.03	143.44	123.52	43.04	5.1591e-06	53.269	144.801	-44.430	-30.878	-143.716	-54.329	-8.397	-143.637	-138.829	-56.683	11.041	-139.443	-135.115	-134.789	-129.656	-42.764	-130.434	-8191	255	
817.592	1	1	0	0	0.12203	0.049777	0.28028	0.19911	0.18038	0.18874	0.19065	0.20232	0.22061	0.18126	0.10606	0.14313	0.29632	0.018491	0.059395	0.10293	-2.6854	-3.4458	-3.0521	-3.5938	-3.4375	-2.9875	-3.7042	-3.2604	-3.0667	-3.5896	-2.9854	-3.3937	-3.4271	-2.8792	-3.4167	-3.1708	199.115	185.807	-29.418	183.482	4.403	131.035	160.966	155.373	-93.475	-25.377	120.219	199.891	130.647	-116.044	82.967	105.207	0.00087232	0.00035344	8.8521e-05	1351.2	3.5722e-06	6.0901e-06	1352.2	366.51	7.4465e-06	3.9018e-06	415.77	140.17	121.7	41.829	6.2463e-06	51.955	0.00048336	0.00047097	0.00013362	1369.8	5.1388e-06	5.2365e-06	1372.4	371.03	5.2904e-06	5.2207e-06	424.55	143.14	123.71	42.939	5.1524e-06	53.301	140.603	-63.279	-93.326	-143.391	-63.368	6.158	-143.595	-138.892	-56.612	-11.174	-139.112	-135.551	-134.625	-129.714	0.927	-130.217	-8191	255	
817.688	1	1	0	0	0.1876	0.041596	0.2759	0.23233	0.1003	0.098802	0.21638	0.19067	0.15893	0.17728	0.18719	0.25607	0.092913	0.2864	0.15809	0.18501	-2.5938	-3.5583	-2.925	-3.3083	-3.4417	-2.9729	-3.7854	-3.4938	-3.0479	-3.5083	-2.9771	-3.2979	-3.5312	-2.9167	-3.4646	-3.4333	77.007	154.030	7.881	132.376	-4.959	186.126	157.790	145.820	-125.214	152.664	79.917	185.005	-57.411	-143.327	-120.139	100.398	0.00085385	0.00078442	7.5028e-05	1350.1	6.1629e-06	4.9843e-06	1344.4	365.29	6.8717e-06	7.0116e-06	417.21	140.67	120.83	41.937	6.7658e-06	51.563	0.00049483	0.0004768	0.0001323	1370	5.2346e-06	5.31e-06	1371.1	371.29	5.2735e-06	5.216e-06	425.22	143.32	123.76	43.033	5.2006e-06	53.256	144.216	-56.500	-109.235	-143.134	-36.142	16.485	-143.608	-138.874	-94.665	-10.141	-139.078	-135.595	-134.731	-129.914	-48.239	-130.275	-8191	255	
817.807	1	1	0	0	0.13512	0.16415	0.12899	0.24027	0.070412	0.12227	0.21289	0.16041	0.13442	0.34936	0.067965	0.18223	0.1303	0.083294	0.2405	0.20423	-2.5833	-3.5833	-3.2083	-3.3542	-3.7438	-2.8792	-3.8312	-3.3208	-2.9479	-3.6375	-3.2604	-3.4521	-3.6667	-3	-3.3	-3.5375	187.463	-148.539	-66.179	202.904	-14.840	8.977	130.281	41.995	175.697	-1.101	79.610	153.843	197.411	24.605	16.099	147.262	0.00095439	0.00039403	0.00016819	1348.7	1.8111e-06	7.1113e-06	1343.6	364.15	9.7281e-06	4.6568e-06	416.21	140.46	121.55	41.874	4.722e-06	51.821	0.00049626	0.00047689	0.00013323	1370	5.1951e-06	5.19e-06	1372.3	371.03	5.1839e-06	5.1625e-06	425.3	143.36	123.93	42.948	5.1122e-06	53.256	146.788	-60.732	-15.470	-143.246	122.475	-4.370	-143.511	-138.626	-63.005	-61.118	-139.147	-135.542	-134.825	-129.406	-52.871	-130.516	-8191	255	
817.903	1	1	0	0	0.20493	0.11825	0.087785	0.16686	0.092922	0.085651	0.31793	0.36294	0.19772	0.062108	0.083524	0.19473	0.13818	0.14464	0.081527	0.24944	-2.5604	-3.6458	-3.1646	-3.2542	-3.5229	-2.8625	-3.4813	-3.6417	-2.9625	-3.4854	-3.2229	-3.3167	-3.7938	-3.0771	-3.3333	-3.4688	-3.163	-74.399	143.169	165.406	-74.492	82.507	125.775	157.383	-85.821	97.405	169.411	123.429	-123.133	-123.158	140.260	-94.040	0.00089581	0.00041335	6.2507e-05	1348.6	4.9757e-06	6.0258e-06	1340	363.9	8.2472e-06	6.0684e-06	416.87	140.3	121.23	41.861	6.8212e-06	51.601	0.00049218	0.00047905	0.00013221	1369.1	5.2266e-06	5.2653e-06	1371.3	370.93	5.2369e-06	5.194e-06	425.19	143.33	123.86	42.914	5.1796e-06	53.276	141.777	-31.407	-71.054	-143.234	-21.540	-27.400	-143.508	-138.828	-100.590	-31.955	-139.088	-135.351	-134.735	-129.595	-12.405	-130.550	-8191	255	
817.999	1	1	0	0	0.11304	0.094919	0.053665	0.17077	0.12859	0.083479	0.33723	0.2064	0.023022	0.092278	0.17614	0.12056	0.22935	0.20674	0.03497	0.027585	-2.6229	-3.4313	-3.2458	-3.0125	-3.6958	-3.1354	-3.3063	-3.7521	-2.7854	-3.3979	-3.5021	-3.1229	-3.7167	-3.0646	-3.1958	-3.4062	-148.995	116.175	-28.872	167.152	35.079	51.717	165.619	130.711	-14.599	170.730	-55.694	38.204	199.729	63.890	48.951	-146.047	0.00084953	0.00065712	0.00020509	1353.4	4.2816e-06	3.6823e-06	1346.3	364.41	4.0526e-06	3.212e-06	417.75	139.78	121.16	41.868	5.3398e-06	51.629	0.00049039	0.00047689	0.00013165	1370.6	5.2233e-06	5.2124e-06	1371.5	370.68	5.2535e-06	5.2283e-06	426.03	143.25	123.83	42.966	5.2543e-06	53.209	143.765	-45.011	-72.576	-143.297	-141.718	-43.205	-143.435	-138.760	-21.572	-38.264	-139.167	-135.439	-134.558	-129.561	-58.943	-130.392	-8191	255	
818.120	1	1	0	0	0.049001	0.08357	0.14889	0.056854	0.34175	0.21691	0.27143	0.40848	0.080437	0.071942	0.16648	0.41071	0.11067	0.21661	0.026596	0.11878	-2.3958	-3.3479	-3.35	-3.2542	-3.5417	-3.1333	-3.4292	-3.5854	-2.7625	-3.3896	-3.4125	-3.325	-3.7313	-3.5479	-2.9458	-3.6771	31.559	124.339	128.461	202.130	-145.807	-80.372	73.327	127.935	157.786	16.881	89.521	-133.925	197.089	138.606	91.721	106.300	0.00088671	0.00052598	0.00013176	1350	3.648e-06	8.4799e-06	1346.2	365.43	8.3714e-06	1.8642e-06	417.87	139.73	121.3	41.851	3.4568e-06	51.324	0.00049342	0.00047425	0.00013238	1368.5	5.2599e-06	5.1966e-06	1371.9	371.21	5.3484e-06	5.2395e-06	425.97	143.08	123.96	42.98	5.3194e-06	53.25	145.599	-36.534	-64.957	-143.212	-44.649	-0.426	-143.484	-138.819	-77.804	-8.477	-138.923	-135.361	-134.549	-129.795	-45.913	-130.178	-8191	255	
818.216	1	1	0	0	0.2619	0.082264	0.16064	0.10018	0.38044	0.11194	0.070847	0.18453	0.22723	0.18707	0.077481	0.40567	0.16634	0.1981	0.14588	0.060327	-2.5396	-3.4229	-3.4917	-3.0125	-3.525	-3.2042	-3.3146	-3.7292	-2.8979	-3.2396	-3.6271	-3.0042	-3.5021	-3.2	-2.8521	-3.7188	147.135	28.400	158.717	194.994	115.737	88.521	-103.666	138.347	-24.886	-27.461	176.093	139.056	-145.489	-98.128	-59.479	120.889	0.00079966	0.00011941	7.2899e-05	1347.3	8.2308e-06	8.4045e-06	1345.1	363.8	6.348e-06	3.2421e-06	417.61	140.04	120.99	41.906	1.2178e-05	51.675	0.00048979	0.00047834	0.00013466	1369.5	5.2611e-06	5.2305e-06	1372.4	370.67	5.2726e-06	5.2675e-06	425.59	143.04	123.71	42.943	5.322e-06	53.226	147.663	-53.646	-122.831	-143.201	-34.300	12.096	-143.303	-138.664	-59.105	1.943	-138.811	-135.389	-134.583	-129.404	8.779	-130.284	-8191	255	
818.287	1	1	0	0	0.33889	0.16823	0.045263	0.1294	0.12717	0.30821	0.35439	0.34052	0.19233	0.15902	0.19646	0.10327	0.105	0.075168	0.15301	0.24942	-2.6104	-3.1708	-3.6125	-3.0104	-3.4646	-3.2042	-3.1771	-3.7583	-3.0146	-3.0708	-3.6063	-3.0229	-3.4208	-3.6667	-2.8667	-3.6271	150.232	-43.170	104.530	169.115	-31.543	-90.677	116.179	139.931	173.894	-49.015	155.982	164.665	-95.037	-108.338	-105.144	-132.866	0.00084944	0.00058368	4.5584e-05	1349.6	6.5466e-06	2.5223e-06	1349.4	364.33	5.823e-06	4.1028e-06	416.67	140.07	121.22	41.897	2.9022e-06	51.892	0.00049273	0.00048382	0.00013621	1370.5	5.278e-06	5.3269e-06	1374.1	371.28	5.2602e-06	5.3554e-06	425.46	143.26	123.76	42.986	5.3397e-06	53.295	144.813	-24.008	-118.275	-143.202	-69.634	36.088	-143.761	-138.892	-74.001	4.199	-139.236	-135.540	-134.558	-129.501	7.402	-130.088	-8191	255	
818.408	1	1	0	0	0.22439	0.039499	0.089966	0.44064	0.12598	0.33245	0.20164	0.22858	0.28851	0.2554	0.12721	0.056945	0.19229	0.089014	0.17561	0.19611	-2.775	-3.1042	-3.725	-2.9542	-3.4188	-3.5167	-3.2812	-3.5958	-3.2667	-3.1063	-3.7146	-3.1167	-3.4667	-3.525	-2.8875	-3.7812	139.912	33.606	-97.646	170.999	98.913	-17.664	118.936	173.208	-67.824	-66.263	111.681	90.386	202.530	185.422	-61.367	-156.180	0.00082933	0.0003246	0.00010365	1353.6	2.4726e-06	7.4974e-06	1343.9	364.25	2.4473e-06	5.5556e-06	417.87	139.99	121.14	41.819	1.1449e-06	51.801	0.00049737	0.00047961	0.00013409	1371.6	5.2789e-06	5.2771e-06	1371.9	371.11	5.2719e-06	5.2985e-06	425.9	143.29	123.83	42.939	5.3457e-06	53.297	145.720	-51.048	-40.186	-143.321	-40.542	24.247	-143.394	-138.761	-73.583	-12.064	-138.862	-135.280	-134.769	-129.711	23.420	-130.593	-8191	255	
818.504	1	1	0	0	0.074069	0.11968	0.092216	0.2129	0.20646	0.028396	0.36589	0.1131	0.086336	0.23001	0.17719	0.076499	0.037455	0.30678	0.14766	0.088814	-2.8104	-3.2188	-3.4833	-3.3333	-3.3312	-3.475	-3.2521	-3.6146	-3.2062	-3.075	-3.75	-3.0646	-3.3104	-3.8083	-2.9667	-3.4854	102.426	60.267	36.088	172.075	72.840	-89.469	94.754	176.682	201.227	-3.579	111.199	126.844	-149.443	-149.858	-81.561	197.905	0.00086221	0.0002108	0.00017698	1344.1	5.3664e-06	2.3969e-06	1345.8	363.48	6.1715e-06	4.7598e-06	415.38	139.79	121.29	41.833	4.1212e-06	51.562	0.000492	0.00048546	0.00013459	1367.6	5.3317e-06	5.294e-06	1370.8	371.03	5.2702e-06	5.3187e-06	425.57	143.19	123.96	42.969	5.2875e-06	53.228	148.423	-50.847	-40.041	-142.704	-29.248	16.970	-143.493	-138.499	-45.404	-6.529	-138.921	-135.197	-134.593	-129.427	-6.120	-130.356	-8191	255	
818.600	1	1	0	0	0.144	0.25763	0.17326	0.038159	0.11622	0.1629	0.32807	0.27358	0.13143	0.30931	0.025753	0.20029	0.068081	0.24353	0.17011	0.18282	-3.075	-2.8563	-3.5771	-3.2583	-3.1104	-3.5292	-3.2396	-3.8063	-3.3229	-2.9125	-3.7792	-3.1	-3.1708	-3.4896	-2.6479	-3.4437	32.571	164.597	-113.983	-103.559	-85.209	95.189	136.467	169.592	195.383	33.701	-122.285	-75.137	126.061	-97.868	-133.478	169.113	0.00093265	0.00033527	8.0079e-05	1340.3	6.4896e-06	6.1955e-06	1346.9	364.6	4.8139e-06	7.1978e-06	416.04	140.18	120.7	41.911	5.6071e-06	51.471	0.00050405	0.00048685	0.00013453	1367.4	5.3254e-06	5.2379e-06	1371.7	371.53	5.2876e-06	5.3152e-06	425.8	143.37	123.79	43.004	5.2687e-06	53.205	146.738	-57.706	-67.270	-143.075	-45.153	-34.476	-143.767	-138.649	-69.336	-11.103	-139.018	-135.294	-134.371	-129.270	-2.795	-130.035	-8191	255	
818.721	1	1	0	0	0.36244	0.16423	0.11359	0.30822	0.12194	0.090696	0.27188	0.30935	0.21523	0.065751	0.17341	0.15792	0.21248	0.17313	0.16459	0.13812	-2.9771	-2.75	-3.4042	-3.2313	-3.1	-3.5979	-3.175	-3.4333	-3.4917	-2.9625	-3.6417	-3.3896	-3.1792	-3.5979	-2.8708	-3.3625	137.535	-60.007	14.178	146.111	164.001	-68.006	-138.061	143.389	-145.725	-9.052	89.133	191.224	-143.447	-133.317	-154.480	143.437	0.00076872	0.00015804	0.00019162	1348.1	5.5154e-06	7.6379e-06	1348.6	363.72	7.857e-06	6.3497e-06	415.58	140.53	121.28	41.721	9.2944e-06	51.774	0.00049265	0.00048367	0.0001333	1370	5.301e-06	5.2517e-06	1371.1	371.05	5.3168e-06	5.3269e-06	424.69	143.47	123.95	42.901	5.2037e-06	53.256	149.898	-90.127	-36.422	-142.726	-30.976	36.435	-143.668	-138.838	-55.255	27.362	-139.111	-135.169	-134.698	-129.340	-20.733	-130.243	-8191	255	
818.815	1	1	0	0	0.095128	0.23809	0.055755	0.16967	0.22381	0.037297	0.031125	0.15567	0.12166	0.23191	0.20652	0.058275	0.22413	0.17692	0.16223	0.21296	-2.9875	-2.825	-3.4583	-3.5083	-2.8167	-3.5938	-3.2625	-3.2729	-3.5062	-3.0354	-3.5396	-3.2938	-3.0104	-3.7687	-3.0854	-3.1458	162.399	72.924	-70.968	149.688	-35.262	-124.619	64.410	-85.565	183.480	103.813	58.672	-106.813	157.456	174.257	-18.477	170.374	0.00081671	0.00056553	0.00011526	1348.1	3.7059e-06	3.8215e-06	1346.5	364.04	6.203e-06	2.8564e-06	416.04	139.62	120.7	41.598	2.2308e-06	51.39	0.00049653	0.00048404	0.0001325	1368.6	5.3865e-06	5.2369e-06	1372.5	370.98	5.2587e-06	5.2329e-06	425.18	143.11	123.63	42.847	5.2159e-06	53.062	144.725	-91.384	-26.467	-142.778	-67.223	-36.672	-143.342	-138.622	-87.528	13.742	-139.192	-135.113	-134.314	-129.146	-10.002	-130.343	-8191	255	
818.887	1	1	0	0	0.1245	0.18306	0.069032	0.25789	0.19062	0.068396	0.29846	0.37989	0.1266	0.20447	0.14223	0.228	0.26487	0.25685	0.084548	0.30717	-3.1417	-2.8917	-3.3396	-3.3688	-3.0125	-3.4813	-3.4542	-3.1104	-3.4875	-3.0125	-3.4208	-3.5604	-2.9875	-3.6896	-3.1167	-3.1375	125.189	115.748	40.919	-141.258	23.044	102.943	193.212	156.438	50.500	116.138	192.424	174.801	-102.247	148.435	119.083	-122.505	0.00080167	0.00058152	0.00018794	1345.1	1.8907e-06	8.1384e-06	1346.6	362.63	5.3924e-06	3.0142e-06	417.61	139.54	120.9	41.68	6.0281e-06	51.256	0.00048972	0.00047346	0.00013085	1367	5.2811e-06	5.2493e-06	1371.6	370.24	5.3155e-06	5.203e-06	425.63	143.1	123.77	42.942	5.1853e-06	53.231	146.011	-64.776	-51.439	-142.874	47.936	-58.461	-143.431	-138.746	-49.904	18.949	-138.983	-135.187	-134.638	-129.145	8.452	-129.906	-8191	255	
818.983	1	1	0	0	0.223	0.16145	0.15675	0.30946	0.15093	0.32498	0.0374	0.057637	0.25056	0.10345	0.12729	0.17954	0.11032	0.040016	0.15984	0.23704	-3.1417	-2.9146	-3.3854	-3.5458	-2.9313	-3.5958	-3.45	-3.2583	-3.6667	-2.9396	-3.3354	-3.7542	-3.0646	-3.5229	-3.3896	-3.0917	198.084	43.181	-141.893	179.226	-100.864	-56.828	-75.189	140.401	-80.883	-3.272	141.435	143.721	174.030	183.274	-18.559	148.549	0.00080376	0.0004867	3.7777e-05	1338.8	6.1185e-06	4.7743e-06	1336.9	362.34	3.0226e-06	9.0856e-07	414	139.2	120.81	41.725	2.4186e-06	51.2	0.00048295	0.00047115	0.00013165	1367.3	5.1718e-06	5.1828e-06	1369.8	370.9	5.1983e-06	5.188e-06	425.45	143.01	123.62	42.889	5.2455e-06	53.168	150.005	-94.997	-53.273	-142.573	-133.321	11.705	-143.031	-138.226	-4.039	18.023	-138.891	-134.879	-134.017	-129.334	48.873	-130.219	-8191	255	
819.104	1	1	0	0	0.26017	0.29639	0.21647	0.1663	0.24875	0.085434	0.1973	0.14922	0.13097	0.16072	0.10995	0.28932	0.017806	0.2697	0.15869	0.13159	-3.2125	-2.9271	-3.025	-3.5667	-3.0958	-3.3667	-3.5583	-3.0542	-3.7458	-3.1375	-3.2812	-3.7646	-3.0458	-3.4271	-3.5125	-3.0771	-37.137	51.214	40.593	168.235	159.921	118.112	108.245	152.116	103.097	-18.653	155.738	157.574	-105.433	91.952	-35.292	-131.959	0.00067901	0.00063293	0.00015945	1342.8	7.5431e-06	4.002e-07	1341	363.38	8.9055e-06	5.8387e-06	413	140.05	121.61	41.813	6.3215e-06	51.367	0.00048645	0.00047622	0.00013505	1366.9	5.2498e-06	5.1232e-06	1370.2	370.83	5.1107e-06	5.111e-06	425.21	143.32	123.86	42.934	5.1892e-06	53.188	148.111	-35.374	-53.419	-142.717	-55.412	27.474	-143.144	-138.519	-54.298	-30.005	-138.737	-135.167	-134.555	-129.364	-40.060	-130.289	-8191	255	
819.200	1	1	0	0	0.18218	0.13066	0.041472	0.2778	0.060351	0.15225	0.12376	0.095339	0.023482	0.17363	0.019479	0.1661	0.32361	0.14064	0.3415	0.099646	-3.3063	-3.1562	-2.9146	-3.6312	-2.7938	-3.3854	-3.8125	-3.0146	-3.6	-3.1792	-3.1937	-3.7812	-3.2292	-3.3	-3.5938	-3.1021	195.085	9.084	-10.528	-146.008	25.832	-117.094	113.994	115.830	-118.132	39.800	108.106	203.056	-154.467	121.587	-104.676	-128.135	0.00083452	0.00043184	0.00016417	1346.5	5.9921e-06	3.96e-06	1339.6	363.38	8.8393e-06	5.6525e-06	414.56	139.66	120.22	41.726	8.4989e-06	51.364	0.00048857	0.0004779	0.00013387	1369.8	5.2019e-06	5.2341e-06	1369	370.62	5.2637e-06	5.1554e-06	425	143.15	123.39	42.964	5.226e-06	53.12	145.088	-61.410	-84.003	-142.954	-45.631	-23.123	-143.375	-138.632	-79.723	-20.065	-138.922	-135.049	-134.219	-129.442	2.646	-130.427	-8191	255	
819.296	1	1	0	0	0.15391	0.13968	0.13758	0.41552	0.11719	0.20414	0.11026	0.35614	0.14013	0.22287	0.076821	0.28211	0.26736	0.17283	0.11808	0.22559	-3.1271	-3.1625	-3.125	-3.6917	-2.9458	-3.3438	-3.7833	-3.0708	-3.5	-3.2438	-3.0646	-3.7479	-3.0375	-3.3375	-3.6792	-2.9583	48.703	69.277	45.254	181.539	-65.645	-153.831	111.427	154.677	23.542	126.201	172.063	180.964	87.109	118.176	-3.719	184.140	0.00086844	0.00045248	0.00015359	1350	5.5551e-06	4.0751e-06	1328.8	361.48	3.5063e-06	7.6834e-07	413.13	138.89	121.57	41.588	4.6881e-06	51.253	0.00048672	0.00047708	0.00013344	1369.1	5.1698e-06	5.2588e-06	1367.6	370.17	5.1069e-06	5.1857e-06	424.42	142.81	123.86	42.852	5.2331e-06	53.154	151.067	-92.770	-81.075	-143.244	-102.115	-11.022	-142.989	-138.195	-70.324	-139.505	-138.788	-135.331	-134.444	-129.305	-43.677	-129.918	-8191	255	
819.392	1	1	0	0	0.060542	0.084774	0.083199	0.33042	0.16739	0.28554	0.031917	0.20361	0.13304	0.12449	0.081407	0.20223	0.2398	0.077358	0.15671	0.25216	-3.1083	-3.3187	-2.9354	-3.6521	-3.3083	-3.1104	-3.8021	-3.2542	-3.3812	-3.45	-3.0917	-3.7313	-3.3042	-3.0812	-3.6042	-3.175	-97.929	142.343	175.129	167.106	196.501	-34.958	107.505	193.926	-155.835	132.218	-31.121	110.335	95.082	-4.848	21.453	195.565	0.00075326	0.00080858	0.00014727	1343.7	7.1739e-06	8.2867e-06	1340.9	362.9	6.6688e-06	6.8905e-06	414.08	140.11	120.8	41.595	6.3057e-06	51.456	0.00049199	0.00048051	0.00013447	1369.4	5.2416e-06	5.321e-06	1372.2	370.95	5.2447e-06	5.3317e-06	425.33	143.27	123.79	42.933	5.2459e-06	53.187	148.621	-73.102	-45.944	-142.714	-55.792	52.542	-143.138	-138.424	-73.554	16.280	-138.857	-134.741	-134.237	-129.295	-5.344	-130.274	-8191	255	
819.488	1	1	0	0	0.15965	0.4073	0.11376	0.13159	0.25123	0.3882	0.24081	0.37475	0.2618	0.032225	0.17854	0.2485	0.17415	0.12269	0.12639	0.22901	-2.9604	-3.3771	-2.9188	-3.7021	-3.2167	-2.8667	-3.7917	-3.2521	-3.4	-3.4417	-3.0292	-3.5521	-3.2854	-3.0521	-3.5167	-2.9313	69.612	-3.781	-5.573	192.927	104.351	-56.297	142.855	133.997	-40.603	163.055	192.904	150.456	86.002	-98.251	151.409	67.134	0.00079137	0.00070558	0.0001082	1350.8	6.772e-07	7.806e-06	1351.5	361.94	5.0173e-06	3.4665e-06	414.83	138.98	120.46	41.604	5.7921e-06	51.265	0.00048844	0.00047363	0.00013138	1371.4	5.0606e-06	5.0147e-06	1374	370.27	4.9327e-06	4.9271e-06	423.98	142.65	123.31	42.813	4.8928e-06	53.038	150.354	-48.606	-78.710	-142.999	38.298	-5.351	-143.469	-138.663	-47.144	21.829	-138.708	-135.199	-134.058	-129.290	-16.812	-129.747	-8191	255	
819.585	1	1	0	0	0.038867	0.2392	0.025097	0.11318	0.17952	0.21921	0.1097	0.22024	0.16942	0.045075	0.16577	0.25877	0.24323	0.099832	0.056296	0.087088	-2.8688	-3.4896	-2.8042	-3.5646	-3.325	-3.0979	-3.8083	-3.2875	-3.1417	-3.6083	-3.2229	-3.6333	-3.3396	-2.8479	-3.6063	-3.2271	161.073	-34.339	55.810	143.148	159.510	31.512	-104.805	-155.480	152.808	172.528	-88.835	-93.397	-126.268	-17.337	84.412	172.649	0.00071283	0.00051091	5.7612e-05	1344.5	7.4708e-06	6.4472e-06	1337.6	359.95	7.0011e-06	7.3664e-07	413.88	138.91	120.28	41.631	6.5969e-06	51.356	0.00046058	0.00044259	0.00012225	1365.6	4.815e-06	4.8149e-06	1366.9	368.96	4.9145e-06	4.8854e-06	423.86	142.47	123.38	42.835	4.9533e-06	53.038	143.706	-69.691	-73.179	-143.102	-55.896	-0.364	-143.031	-138.454	-70.390	2.380	-138.752	-135.047	-134.151	-129.367	11.769	-130.066	-8191	255	
819.681	1	1	0	0	0.062138	0.13047	0.2797	0.4863	0.070501	0.14872	0.24089	0.33713	0.17483	0.26099	0.33036	0.15859	0.23787	0.074338	0.1133	0.26493	-2.7167	-3.5417	-2.8167	-3.5875	-3.3667	-2.9479	-3.6063	-3.1792	-2.9562	-3.5229	-2.975	-3.5479	-3.6375	-3	-3.5458	-3.1917	81.204	-66.192	-23.949	171.778	113.313	-41.269	134.951	-151.490	158.756	-78.245	62.081	132.546	145.260	100.475	48.127	-153.664	0.00091973	0.00070925	0.00019146	1346.2	8.6392e-06	5.222e-06	1344.8	362.46	2.254e-06	4.9633e-06	415.12	138.86	120.73	41.542	6.7933e-06	51.274	0.00047891	0.0004592	0.00013035	1371.8	5.1621e-06	5.2644e-06	1372.8	370.54	5.2839e-06	5.3326e-06	425.13	143.1	123.7	42.89	5.3534e-06	53.146	149.437	-79.153	-69.941	-142.992	-55.964	-29.810	-143.394	-138.396	-58.156	-0.040	-138.901	-134.889	-134.525	-129.222	6.990	-129.911	-8191	255	
819.801	1	1	0	0	0.15855	0.18372	0.18762	0.20547	0.2491	0.35377	0.14164	0.21815	0.13893	0.071368	0.20738	0.059296	0.15195	0.21907	0.19059	0.1518	-2.65	-3.5229	-3.0896	-3.2938	-3.4688	-3.0104	-3.8104	-3.3688	-2.9042	-3.5583	-3.2687	-3.2854	-3.7167	-2.9833	-3.7208	-3.4062	-55.555	-23.216	-30.572	191.835	-26.824	54.328	189.501	147.951	64.437	41.974	94.113	-68.791	90.847	178.794	-97.080	23.292	0.00085541	0.00017295	0.00012636	1343.5	6.6167e-06	5.7093e-06	1341	364.22	7.0483e-06	6.6559e-06	417.19	140.16	121.12	41.803	3.7806e-06	51.351	0.00050965	0.00049704	0.0001375	1372.1	5.5276e-06	5.4957e-06	1372.1	371.63	5.5254e-06	5.478e-06	426.29	143.76	124.08	43.027	5.5542e-06	53.301	142.237	-24.442	-70.306	-142.759	-39.475	-21.146	-143.330	-138.469	-73.649	-21.628	-138.899	-135.084	-134.603	-129.409	-70.157	-130.161	-8191	255	
819.896	1	1	0	0	0.13616	0.1228	0.21502	0.31488	0.21061	0.070013	0.1951	0.082641	0.10393	0.28276	0.10809	0.18367	0.055211	0.2228	0.070445	0.15295	-2.8021	-3.2896	-2.9708	-3.4437	-3.6125	-2.9292	-3.6271	-3.4813	-2.8563	-3.55	-3.225	-3.2021	-3.7375	-3.1562	-3.45	-3.4792	174.286	-8.002	-51.670	180.842	-23.182	73.659	119.243	-135.906	-62.426	-12.921	114.747	183.832	49.581	-88.280	81.830	-154.404	0.00078421	0.00047503	0.00014788	1358	4.6648e-06	7.6375e-06	1354.5	365.99	2.9993e-06	3.3036e-06	416.48	140.61	121.95	41.869	6.2043e-06	51.685	0.0005217	0.00050351	0.00014091	1375.6	5.5794e-06	5.4914e-06	1378.3	372.45	5.6378e-06	5.4937e-06	426.59	143.68	124.27	43.013	5.4948e-06	53.358	143.000	-91.198	-74.848	-143.391	-21.523	17.138	-143.722	-138.787	-50.032	-25.129	-139.271	-135.545	-134.835	-129.689	-61.759	-130.380	-8191	255	
819.992	1	1	0	0	0.25451	0.13502	0.3052	0.41513	0.12632	0.26413	0.14739	0.23455	0.11249	0.082464	0.034922	0.074497	0.1009	0.47824	0.11271	0.069404	-2.6021	-3.525	-2.9604	-3.1312	-3.4854	-2.8229	-3.5792	-3.4917	-2.9521	-3.5625	-3.2687	-3.0604	-3.5542	-2.9875	-3.3937	-3.4625	-19.562	-13.730	63.121	-128.405	-139.173	-38.186	122.782	175.762	-84.065	122.371	1.304	201.168	-59.244	159.623	-113.262	-3.298	0.0008833	0.00026831	4.8315e-05	1353.9	2.9246e-06	4.8821e-06	1350.6	364.68	5.2215e-06	5.2441e-06	419.49	139.99	121.6	41.877	1.5752e-06	51.255	0.00052017	0.00049881	0.00013865	1375.4	5.5222e-06	5.5278e-06	1376.4	372.2	5.6122e-06	5.5524e-06	426.87	143.51	124.14	43.071	5.593e-06	53.225	147.746	-115.564	-94.753	-142.993	-65.891	6.873	-143.627	-138.589	-55.358	-22.350	-139.089	-135.561	-134.693	-129.656	42.696	-130.196	-8191	255	
820.088	1	1	0	0	0.086636	0.081882	0.14799	0.23379	0.17735	0.050941	0.1237	0.050802	0.18444	0.22411	0.055858	0.141	0.30407	0.20806	0.14715	0.151	-2.6125	-3.55	-3.0854	-3.2562	-3.5083	-3.1167	-3.4833	-3.6375	-2.9813	-3.4042	-3.4292	-3.1542	-3.8438	-3.1146	-3.1375	-3.6917	58.015	83.273	142.409	200.277	91.795	-9.814	112.301	195.252	108.189	65.268	47.528	-137.625	124.564	-152.375	138.151	142.045	0.00073025	0.00023127	0.00018938	1347.1	6.0641e-06	6.7831e-07	1348.2	365.99	4.5072e-06	2.1767e-06	415.81	140.32	121.07	41.863	9.5338e-06	51.391	0.00051805	0.00050698	0.00014187	1372	5.4583e-06	5.5562e-06	1375	371.9	5.5022e-06	5.4813e-06	426.61	143.47	124	43.054	5.5583e-06	53.287	147.781	-82.921	-50.867	-143.132	-13.234	-62.395	-143.530	-138.678	-19.385	20.633	-139.154	-135.153	-134.480	-129.509	44.345	-130.193	-8191	255	
820.182	1	1	0	0	0.075316	0.090247	0.17555	0.20602	0.097873	0.29082	0.24235	0.18942	0.12233	0.092924	0.21016	0.16869	0.25943	0.21132	0.045754	0.15317	-2.5062	-3.4125	-3.2208	-3.0167	-3.4646	-3.1312	-3.3792	-3.6792	-2.7958	-3.4521	-3.5604	-2.9208	-3.6104	-3.4167	-3.0812	-3.6542	-85.429	84.162	158.687	150.579	30.371	40.997	167.043	129.472	-115.544	-10.982	157.333	116.985	131.932	-128.423	89.176	-130.239	0.00082327	0.00048349	0.00010609	1351.9	4.7528e-06	4.7621e-06	1349.4	363.77	2.9449e-06	6.2717e-06	415.96	139.57	121.67	41.841	5.1974e-06	51.573	0.00051871	0.00051016	0.00014323	1372.6	5.6027e-06	5.6567e-06	1376	371.74	5.6304e-06	5.6036e-06	426.44	143.37	124.19	43.019	5.5949e-06	53.369	150.473	-78.069	-76.152	-143.152	-98.322	-27.438	-143.433	-138.559	-54.346	-28.455	-138.977	-135.190	-134.515	-129.492	16.115	-130.090	-8191	255	
820.279	1	1	0	0	0.071464	0.22199	0.19165	0.21456	0.14222	0.18465	0.13992	0.047437	0.17108	0.098816	0.28945	0.20701	0.19528	0.13005	0.12557	0.083884	-2.5792	-3.2167	-3.4646	-2.9167	-3.5021	-3.2771	-3.2042	-3.8104	-2.9958	-3.2417	-3.5521	-3.0271	-3.5021	-3.3833	-2.9854	-3.7708	40.708	2.875	80.764	179.116	82.630	97.491	51.614	131.943	46.292	121.234	88.543	166.874	-142.212	199.646	-70.720	195.974	0.0008109	0.00050909	9.7427e-05	1351.9	7.2205e-06	2.7581e-06	1351.3	364.52	3.93e-06	5.4336e-06	417.05	139.51	121.56	41.879	3.7346e-06	51.394	0.0005237	0.00051715	0.00014179	1374.8	5.6578e-06	5.752e-06	1378.7	372.62	5.7221e-06	5.6822e-06	427.3	143.82	124.37	43.135	5.7619e-06	53.39	139.753	-50.071	-41.786	-143.114	-120.707	7.538	-143.392	-138.525	-66.905	-21.804	-139.091	-134.902	-134.176	-129.192	-29.141	-130.213	-8191	255	
820.399	1	1	0	0	0.22839	0.2601	0.19336	0.15477	0.070296	0.28081	0.40788	0.2146	0.070271	0.10953	0.15998	0.21509	0.05871	0.30507	0.19381	0.24884	-2.65	-3.1792	-3.6063	-2.9667	-3.3729	-3.4583	-3.2396	-3.6958	-2.9625	-3.0583	-3.8333	-3.0687	-3.6104	-3.4729	-2.9417	-3.6292	-13.583	48.521	-0.234	121.626	70.875	105.441	86.083	-155.887	-106.050	-100.624	-140.835	185.820	163.708	-137.316	54.853	97.610	0.00081584	0.00055439	7.7434e-05	1344.8	1.2098e-05	3.9241e-06	1343.6	365.46	7.9151e-06	2.841e-06	418.37	140.28	121.79	41.495	8.8061e-06	51.429	0.00054188	0.00053196	0.00014521	1375.9	5.757e-06	5.7747e-06	1377.5	373.58	5.7519e-06	5.759e-06	427.45	144.09	124.46	43.026	5.6769e-06	53.332	148.143	-94.621	-71.661	-142.793	-49.800	8.389	-143.086	-138.477	-68.144	-44.912	-138.743	-135.153	-134.457	-129.238	-38.094	-130.159	-8191	255	
820.495	1	1	0	0	0.23909	0.16106	0.053159	0.25654	0.12821	0.013736	0.39172	0.082496	0.28515	0.052763	0.42992	0.076958	0.11191	0.13265	0.20788	0.16594	-2.8104	-2.9333	-3.5792	-2.9979	-3.3625	-3.5687	-3.1437	-3.7083	-3.2875	-2.9542	-3.9458	-3.0792	-3.3271	-3.5958	-3.0042	-3.4938	198.752	163.836	-126.497	138.005	116.550	127.634	139.703	129.892	57.223	-20.248	125.882	-19.263	168.563	-46.151	92.685	163.910	0.00093449	0.00031781	0.00011286	1347.2	8.7808e-07	7.7743e-06	1342.6	364.36	5.8603e-06	7.2161e-06	416.76	139.74	120.96	41.638	7.451e-06	51.407	0.00052696	0.00051893	0.00014332	1374.5	5.6984e-06	5.6814e-06	1375.4	372.33	5.6903e-06	5.6869e-06	427.38	143.55	124.18	43.012	5.6484e-06	53.282	146.775	-64.956	-47.196	-142.703	4.939	0.059	-143.287	-138.452	-68.575	-17.825	-138.993	-135.189	-134.576	-128.910	7.439	-130.375	-8191	255	
820.592	1	1	0	0	0.11192	0.079584	0.022893	0.053174	0.18917	0.29743	0.15469	0.15301	0.11597	0.10121	0.30631	0.097147	0.11351	0.16458	0.30553	0.15533	-2.8708	-2.9542	-3.4521	-3.1417	-3.4271	-3.625	-3.3	-3.525	-3.1937	-2.9354	-3.7146	-3.2062	-3.3792	-3.5687	-2.8625	-3.5979	111.094	128.221	44.272	-58.070	174.785	34.427	149.431	189.904	159.447	90.033	-156.374	-122.129	191.566	-92.661	25.253	26.747	0.000743	0.00041764	0.00017391	1344.1	6.9647e-06	5.9148e-06	1343.3	363.22	7.6679e-06	2.9797e-06	416.35	139.74	121.18	41.759	5.366e-06	51.553	0.00052172	0.00051586	0.00014295	1372.3	5.6708e-06	5.7186e-06	1376.1	372.23	5.6661e-06	5.7357e-06	427.14	143.5	124.17	43.061	5.705e-06	53.393	144.728	-18.143	-26.507	-142.734	-78.159	-8.049	-142.928	-138.456	-76.997	2.298	-138.562	-135.492	-134.168	-128.884	-46.950	-130.360	-8191	255	
820.688	1	1	0	0	0.11868	0.032977	0.097764	0.18542	0.22182	0.17676	0.11574	0.26762	0.12267	0.39568	0.084422	0.21011	0.20877	0.092698	0.2244	0.23002	-2.8729	-2.8896	-3.5771	-3.2833	-3.2208	-3.4792	-3.1813	-3.5438	-3.3292	-2.9979	-3.6688	-3.2854	-3.1104	-3.6021	-3.025	-3.3958	14.719	58.892	-41.027	196.249	-114.103	119.022	111.887	132.027	68.789	-154.383	200.203	81.860	-141.860	124.248	129.144	20.519	0.00080122	0.00032861	0.00018488	1348.8	3.4987e-06	4.2971e-06	1346.4	365.23	8.7005e-06	3.9106e-06	413.85	140.16	121.01	41.825	3.6897e-06	51.641	0.00053744	0.00052433	0.00014593	1372.5	5.7806e-06	5.7204e-06	1375.8	372.94	5.8039e-06	5.7697e-06	426.74	143.57	124.27	43.11	5.7321e-06	53.383	146.655	-77.127	-15.323	-142.903	-30.391	123.936	-143.281	-138.377	-49.757	-31.880	-138.986	-134.880	-134.334	-129.464	-1.818	-130.349	-8191	255	
820.784	1	1	0	0	0.065816	0.066183	0.017541	0.10638	0.16355	0.066381	0.072218	0.010271	0.20448	0.1926	0.083385	0.15919	0.15594	0.13142	0.14654	0.23669	-3.2521	-2.9646	-3.6125	-3.4167	-3.1521	-3.5875	-3.125	-3.5104	-3.4667	-2.8625	-3.7313	-3.3208	-3.1188	-3.7292	-2.9625	-3.2958	58.573	192.115	57.748	-74.914	-20.570	202.895	120.458	171.104	16.222	48.360	183.453	173.132	161.360	-87.124	-4.093	121.813	0.00091776	0.00042089	0.00021489	1346.6	7.5255e-06	4.5028e-06	1348.7	365.53	6.2733e-06	5.9983e-06	416.74	140.33	120.73	41.805	9.3576e-06	51.39	0.00053938	0.00052166	0.00014459	1373	5.7197e-06	5.655e-06	1377.2	373.2	5.6773e-06	5.6728e-06	427.3	143.82	124.05	43.04	5.6369e-06	53.312	148.707	-42.381	-57.228	-142.808	-39.982	-38.459	-143.402	-138.769	-17.898	-14.432	-138.811	-135.164	-134.562	-129.320	-2.314	-130.359	-8191	255	
820.880	1	1	0	0	0.14223	0.21583	0.33222	0.30523	0.11984	0.15803	0.11092	0.16272	0.25911	0.13659	0.20512	0.10759	0.12374	0.11935	0.11513	0.03721	-3.1667	-2.9188	-3.3417	-3.3875	-2.9396	-3.7062	-3.2479	-3.4458	-3.5104	-2.8563	-3.5792	-3.1354	-3.1083	-3.6458	-3.0875	-3.4021	-93.362	83.941	179.337	133.208	-48.987	-49.817	170.958	72.375	196.317	-105.345	144.006	148.526	63.807	-51.000	-135.783	-83.989	0.00086111	0.00091939	0.00013211	1347.2	4.1256e-06	6.8275e-06	1345.3	364.64	6.9428e-06	3.4328e-06	415.13	139.73	120.73	41.79	1.0424e-05	51.801	0.00051591	0.00051211	0.00014352	1374.8	5.6434e-06	5.5923e-06	1376	372.64	5.6023e-06	5.5944e-06	426.61	143.6	123.98	43.042	5.618e-06	53.409	145.683	-90.684	-59.796	-142.753	-75.444	-9.960	-142.928	-138.429	-63.194	6.672	-138.807	-134.883	-134.482	-129.390	17.043	-130.327	-8191	255	
820.976	1	1	0	0	0.16856	0.26457	0.20633	0.17681	0.090552	0.11585	0.098842	0.11591	0.042589	0.089097	0.18689	0.16766	0.16782	0.29317	0.17149	0.35214	-3.1271	-2.8688	-3.3187	-3.4396	-2.9167	-3.5938	-3.2812	-3.2333	-3.475	-2.8833	-3.5563	-3.475	-2.8375	-3.5625	-3	-3.2	-58.655	-93.651	42.887	182.532	-43.852	63.738	92.254	-121.530	-144.299	-45.492	-118.305	-107.651	165.920	190.977	-122.772	-137.370	0.0007807	0.00038307	0.00019038	1346.5	7.7006e-06	6.735e-06	1346.2	364.65	1.6052e-06	6.8268e-06	415.87	139.26	121.02	41.496	4.922e-06	51.547	0.00052767	0.00051675	0.00014492	1375.4	5.5932e-06	5.6177e-06	1376.5	372.18	5.58e-06	5.559e-06	427.4	143.52	124.23	42.953	5.617e-06	53.373	144.149	-25.741	-92.136	-142.595	-46.543	-32.358	-143.054	-138.638	-84.927	-7.471	-139.011	-134.958	-134.445	-129.459	-23.134	-130.515	-8191	255	
821.072	1	1	0	0	0.29645	0.044868	0.04998	0.22816	0.066055	0.25337	0.23362	0.21479	0.23646	0.23806	0.10134	0.17578	0.25695	0.15297	0.046363	0.30383	-3.2271	-2.8542	-3.2	-3.5771	-2.9375	-3.4979	-3.4417	-3.1188	-3.6063	-2.9333	-3.35	-3.6208	-3.0792	-3.575	-3.4646	-3.0042	22.963	181.768	-107.329	172.489	191.861	105.074	159.585	76.966	-47.548	-12.856	-130.518	178.413	123.333	134.053	-124.488	173.963	0.00087927	0.00067069	0.00016666	1352.4	7.4435e-06	4.4623e-06	1344.3	363.69	7.3928e-06	3.7668e-06	415.65	139.37	121.22	41.702	3.2412e-06	51.308	0.00052692	0.00051567	0.00014591	1375.8	5.6269e-06	5.6691e-06	1377.7	372.13	5.6051e-06	5.6662e-06	426.83	143.53	124.16	43.08	5.6503e-06	53.298	146.042	-63.433	-66.437	-142.602	-76.729	-73.323	-143.212	-138.456	-47.742	25.554	-138.750	-134.937	-134.431	-129.391	-15.470	-130.192	-8191	255	
821.168	1	1	0	0	0.018865	0.19853	0.19235	0.25295	0.18859	0.32834	0.16185	0.11436	0.13528	0.12352	0.3722	0.076588	0.16796	0.048756	0.14388	0.25091	-3.2292	-3.0312	-3.2021	-3.7542	-2.8792	-3.4646	-3.7562	-3.125	-3.5458	-3.3083	-3.3563	-3.6667	-2.9813	-3.5292	-3.3542	-3.0479	-61.124	-116.184	-86.641	153.254	-77.073	149.683	122.403	195.716	-102.477	-90.456	-117.136	111.856	111.267	-95.349	173.816	144.397	0.00088092	0.00022277	0.00028796	1344	5.1041e-06	3.0672e-06	1345.8	363.52	4.989e-06	5.8638e-07	416.72	140.01	120.59	41.808	2.2293e-06	51.531	0.00052802	0.00051115	0.00014369	1372.9	5.6135e-06	5.5904e-06	1376.6	372.5	5.6307e-06	5.617e-06	426.88	143.68	123.96	43.048	5.6052e-06	53.295	144.520	-137.604	-56.451	-143.013	-62.296	-92.759	-143.202	-138.619	-36.098	-53.473	-139.100	-135.099	-134.556	-129.600	-133.889	-130.448	-8191	255	
821.287	1	1	0	0	0.16384	0.093076	0.24367	0.29511	0.12617	0.30602	0.1014	0.18942	0.064153	0.19819	0.18628	0.25528	0.095576	0.053518	0.11693	0.26638	-3.2875	-3.0729	-3.1833	-3.7979	-3.0271	-3.2729	-3.7479	-3.2271	-3.6146	-3.1667	-3.2083	-3.7083	-3.0563	-3.5438	-3.6667	-3.15	115.768	131.555	-44.544	180.529	-15.873	-47.143	127.956	92.224	-2.923	-155.572	169.506	143.428	194.680	-113.818	-129.836	-137.561	0.00082851	0.00039755	0.00013524	1354.5	3.62e-06	6.5211e-06	1346.6	364.21	7.6972e-06	5.2727e-06	416.57	140.28	121.18	41.737	5.7018e-06	51.297	0.00051932	0.00051454	0.0001431	1376.5	5.6733e-06	5.7096e-06	1376.7	372.52	5.6876e-06	5.6423e-06	427.24	143.7	124.18	43.12	5.5931e-06	53.288	137.067	-113.210	-41.656	-142.925	-31.392	11.586	-143.309	-138.643	-67.412	-94.404	-138.995	-135.161	-134.519	-129.423	-26.732	-129.991	-8191	255	
821.383	1	1	0	0	0.19376	0.22988	0.04748	0.25502	0.14045	0.15489	0.18983	0.21392	0.089472	0.082702	0.25586	0.25316	0.14298	0.12913	0.17201	0.19595	-3.1917	-3.2354	-3.0854	-3.8542	-3.0833	-3.3667	-3.7708	-3.2	-3.6479	-3.3979	-3.1021	-3.675	-3.0229	-3.3146	-3.6021	-2.9917	32.177	-59.290	-67.993	174.055	109.498	-32.544	63.684	102.277	-13.806	128.036	160.960	111.180	108.766	198.901	99.982	193.777	0.00081042	0.00052189	9.8315e-05	1342.2	3.9345e-06	3.9951e-06	1339.1	363.76	3.7096e-06	5.3589e-06	418.85	140.52	121.3	41.694	7.6997e-06	51.583	0.00052568	0.00051717	0.00014409	1373.4	5.5669e-06	5.6598e-06	1374.3	372.33	5.6172e-06	5.6231e-06	427.88	143.73	124.28	42.988	5.5592e-06	53.266	152.080	-76.196	-35.897	-142.851	-62.488	-61.420	-143.110	-138.476	-73.612	18.578	-138.975	-135.158	-134.574	-129.520	11.191	-130.542	-8191	255	
821.480	1	1	0	0	0.16269	0.047689	0.12631	0.22606	0.20187	0.041137	0.1402	0.22828	0.12124	0.091534	0.0094678	0.0769	0.078883	0.10087	0.081563	0.21261	-3.0229	-3.3271	-2.9271	-3.8021	-2.9125	-3.0417	-3.7167	-2.9104	-3.4292	-3.5646	-3.1417	-3.6458	-3.3729	-3.1146	-3.7	-3.0896	-119.474	88.823	-53.545	-64.661	-95.686	200.409	67.060	-142.636	136.223	-127.440	105.497	145.059	183.621	70.483	-86.774	-139.652	0.00086699	0.00082564	0.00014264	1350.7	7.1772e-06	2.6493e-06	1347.3	365.44	7.7628e-06	5.973e-06	419.75	140.66	121.73	41.881	6.3285e-06	51.659	0.00051856	0.00051389	0.00014273	1375.3	5.6314e-06	5.6591e-06	1375.8	372.59	5.638e-06	5.6e-06	427.97	143.73	124.25	43.015	5.6429e-06	53.307	148.574	-67.640	-61.067	-143.051	-83.731	-10.803	-143.553	-138.813	-66.576	-49.193	-139.192	-135.526	-135.038	-130.086	26.580	-130.278	-8191	255	
821.576	1	1	0	0	0.35892	0.14539	0.084714	0.20457	0.057099	0.19321	0.22928	0.16874	0.21961	0.094409	0.08533	0.20042	0.1197	0.25481	0.063058	0.33284	-2.9375	-3.4042	-2.9396	-3.6437	-3.2438	-2.9542	-3.825	-3.1417	-3.15	-3.3979	-3.0604	-3.7729	-3.3104	-3.125	-3.775	-3.2104	54.561	-139.162	-70.245	172.809	5.184	138.265	105.784	169.707	-100.104	52.159	-31.649	-156.296	-125.821	-148.015	150.004	151.111	0.0007956	0.00028682	0.00024098	1348.4	4.1786e-06	5.7017e-06	1350.9	364.9	1.0959e-05	4.3804e-07	416.04	139.49	121.68	41.632	4.4921e-06	51.51	0.00052445	0.00050417	0.00014232	1373.9	5.6401e-06	5.6071e-06	1377	372.58	5.6081e-06	5.6143e-06	426.73	143.52	124.33	42.999	5.5651e-06	53.223	149.658	-117.336	-48.831	-143.174	-0.986	-22.877	-143.430	-138.837	-35.368	-51.150	-138.700	-135.104	-134.351	-129.547	-0.522	-130.186	-8191	255	
821.672	1	1	0	0	0.075858	0.26579	0.025453	0.30181	0.059872	0.069073	0.16527	0.10845	0.11411	0.10406	0.17628	0.3579	0.22257	0.032241	0.093192	0.31948	-2.8854	-3.5979	-3.0104	-3.6125	-3.3417	-3.1479	-3.7396	-3.2833	-3.2938	-3.6208	-3.1188	-3.5687	-3.3125	-2.9437	-3.7021	-3.0292	134.442	162.492	16.794	-137.985	-121.587	57.863	126.874	-147.380	60.812	-131.890	-149.912	-100.292	196.484	8.469	12.822	111.734	0.0008382	0.00037028	4.0128e-05	1348.3	6.8643e-06	6.1603e-06	1340.5	362.87	5.1251e-06	1.0062e-05	415.45	139.47	120.74	41.583	6.4993e-06	51.307	0.00052121	0.00050638	0.00014286	1374.1	5.5312e-06	5.5805e-06	1375.4	371.97	5.6548e-06	5.5944e-06	426.91	143.64	124.08	43.003	5.5714e-06	53.197	141.232	-104.713	-83.336	-142.996	-60.208	-3.207	-142.884	-138.089	-52.250	-14.351	-138.702	-135.050	-134.554	-129.202	11.313	-130.142	-8191	255	
821.768	1	1	0	0	0.091384	0.096831	0.2785	0.31517	0.23149	0.08941	0.23583	0.073157	0.19538	0.1613	0.33178	0.25142	0.12315	0.048001	0.11135	0.13686	-2.9542	-3.6063	-2.9313	-3.5125	-3.4958	-2.9667	-3.9729	-3.2396	-3.0375	-3.5521	-3.0083	-3.4292	-3.4313	-2.8583	-3.6083	-3.1875	-14.806	-137.883	36.846	147.003	69.235	46.537	140.264	45.497	-63.937	-132.346	190.048	-152.934	-63.361	160.648	-98.513	107.100	0.00081428	0.00025835	0.00011616	1349.4	5.4179e-06	3.5315e-06	1343	364.01	3.9579e-06	5.1217e-06	413.77	139.84	121.03	41.689	2.3341e-06	51.728	0.00051914	0.00050578	0.00014208	1374.7	5.5192e-06	5.5428e-06	1375.7	372.04	5.6094e-06	5.4712e-06	426.87	143.4	124.16	43.015	5.5428e-06	53.247	145.539	-92.944	-35.831	-142.860	-46.330	1.509	-143.087	-138.417	-63.935	42.342	-138.767	-135.252	-134.529	-129.505	76.833	-130.262	-8191	255	
821.889	1	1	0	0	0.2129	0.10645	0.007186	0.09481	0.073635	0.094965	0.52659	0.17409	0.40348	0.16883	0.062528	0.058925	0.23156	0.17904	0.17591	0.14574	-2.6437	-3.7438	-3.0021	-3.4313	-3.4229	-3.0146	-3.6917	-3.3083	-2.9667	-3.5646	-2.975	-3.2896	-3.5	-3.1063	-3.5479	-3.3458	-87.170	-55.110	83.997	-30.787	-30.563	97.041	145.907	192.129	-57.063	-133.749	-138.425	117.052	98.021	-122.123	-81.862	87.332	0.00082487	0.00067223	6.9347e-05	1348.1	6.4942e-06	7.7121e-06	1346	365.18	5.7388e-06	6.1209e-06	415.4	139.78	121.2	41.51	6.0196e-06	51.574	0.00051176	0.00050207	0.0001391	1374.7	5.5325e-06	5.5242e-06	1376.2	372.52	5.5715e-06	5.4909e-06	426.17	143.33	124.39	42.912	5.4841e-06	53.254	142.935	-62.744	-54.761	-143.160	-72.560	-14.826	-143.426	-138.272	-77.080	12.230	-138.707	-135.200	-134.457	-129.581	30.554	-130.091	-8191	255	
821.985	1	1	0	0	0.13103	0.019091	0.11504	0.2676	0.15602	0.022448	0.10297	0.32333	0.085224	0.17186	0.15443	0.16606	0.26489	0.19535	0.10911	0.12653	-2.6417	-3.5938	-3.0896	-3.2938	-3.475	-2.8667	-3.5521	-3.4604	-3.0021	-3.5646	-3.0542	-3.2375	-3.6417	-2.8729	-3.4583	-3.5042	-57.782	114.018	65.900	129.652	-9.044	-108.586	101.263	-107.082	164.683	59.477	-35.952	-4.335	-129.528	-48.043	-124.258	185.517	0.00076322	0.00058147	0.00013559	1353.1	5.3123e-06	7.1085e-06	1350.6	365.3	6.7212e-06	4.1321e-06	415.8	140.03	121.2	41.699	6.3355e-06	51.362	0.00051453	0.00050486	0.00014018	1375.4	5.4495e-06	5.5717e-06	1377.8	372.97	5.5868e-06	5.479e-06	427.06	143.36	124.1	42.955	5.551e-06	53.239	136.795	-76.289	-62.603	-142.791	-79.336	-33.383	-143.547	-138.701	-66.602	44.731	-138.961	-135.365	-134.360	-129.765	-42.401	-130.112	-8191	255	
822.081	1	1	0	0	0.1323	0.26799	0.21099	0.064999	0.036007	0.038313	0.13688	0.044294	0.31409	0.08006	0.040065	0.28836	0.075229	0.098063	0.37517	0.10217	-2.5187	-3.4979	-3.0167	-3.1083	-3.5792	-3.0083	-3.6875	-3.5958	-3.0021	-3.4562	-3.2917	-3.1188	-3.7208	-3.1292	-3.3521	-3.5771	-11.691	-154.013	56.690	166.962	-105.944	29.176	116.340	81.895	14.431	-150.647	201.248	174.175	162.628	181.387	158.040	160.227	0.00075255	0.00065968	0.00016115	1347.7	7.5118e-07	5.065e-06	1347.5	364.14	4.8353e-06	3.6048e-06	415.51	139.77	121.47	41.778	2.3817e-06	51.434	0.00051803	0.00049876	0.00013964	1373.4	5.4656e-06	5.5016e-06	1376.1	372.5	5.4485e-06	5.4815e-06	426.45	143.56	124.3	42.978	5.4653e-06	53.243	144.128	-75.891	-34.693	-142.948	128.353	-79.682	-143.268	-138.136	-87.070	25.073	-138.654	-135.136	-134.223	-129.201	-55.796	-130.055	-8191	255	
822.175	1	1	0	0	0.063944	0.18309	0.07876	0.046372	0.14291	0.2668	0.13004	0.2117	0.20177	0.052052	0.25576	0.18773	0.036637	0.016166	0.14591	0.15511	-2.6	-3.4229	-3.3104	-3.2104	-3.5125	-3.0042	-3.4958	-3.525	-2.8896	-3.5021	-3.4417	-3.1125	-3.6188	-3.0146	-3.2458	-3.5604	96.490	180.725	-69.529	126.094	202.335	58.116	52.088	106.279	17.319	60.834	139.614	66.385	99.818	152.155	41.845	115.193	0.00084639	0.00066888	0.0002048	1351.1	5.6875e-06	7.4057e-06	1351.4	366.08	6.435e-06	6.4907e-06	418.62	140.03	121.59	41.73	5.0344e-06	51.616	0.00051998	0.00049684	0.00014003	1375.1	5.5e-06	5.4997e-06	1377.2	373	5.6026e-06	5.5443e-06	426.91	143.58	124.26	42.972	5.5135e-06	53.368	144.169	-55.431	-71.707	-143.021	-82.879	-27.572	-143.678	-138.696	-42.805	-31.945	-139.387	-135.530	-134.514	-129.501	-16.851	-130.293	-8191	255	
822.272	1	1	0	0	0.2096	0.15922	0.18019	0.052053	0.26149	0.1366	0.24814	0.35384	0.25585	0.13112	0.15509	0.37351	0.10117	0.15934	0.060943	0.33424	-2.4875	-3.3333	-3.2104	-3.0938	-3.5854	-2.9562	-3.2333	-3.8125	-2.975	-3.3292	-3.5479	-3.0583	-3.5021	-3.1958	-3.05	-3.55	95.760	-117.926	177.799	175.481	-52.214	-113.934	176.542	153.087	46.708	0.979	167.943	-124.650	124.120	-126.334	188.401	53.904	0.00073035	0.00056074	0.00011672	1351.5	6.3597e-06	4.8992e-06	1350.5	366.35	5.4135e-06	5.3799e-06	418.52	140.42	121.51	41.965	4.0027e-06	51.592	0.00051409	0.00050753	0.0001395	1374.4	5.4929e-06	5.4389e-06	1375.9	373.15	5.4969e-06	5.484e-06	427.41	143.57	124.21	43.004	5.4231e-06	53.259	149.477	-61.106	-41.946	-143.221	-41.979	29.006	-143.301	-138.808	-46.195	-15.422	-139.138	-135.402	-134.664	-129.455	-35.159	-130.324	-8191	255	
822.368	1	1	0	0	0.18146	0.21352	0.13123	0.25547	0.1263	0.27868	0.26961	0.092327	0.29324	0.043333	0.13085	0.29081	0.1473	0.085705	0.13366	0.087757	-2.5604	-3.225	-3.4396	-3.1312	-3.2917	-3.1083	-3.3854	-3.5458	-3.0271	-3.1562	-3.5417	-2.9188	-3.6104	-3.3812	-2.9604	-3.8292	-87.955	5.268	-18.921	141.543	108.347	79.035	147.258	135.251	-17.659	42.026	143.574	177.967	98.983	105.811	-55.868	-50.447	0.00084775	0.0005911	0.00012391	1349.9	3.1784e-06	3.6379e-06	1346.2	365.36	7.0352e-06	2.5337e-06	415.62	140.25	121.28	41.688	7.1258e-06	51.219	0.00051062	0.00049935	0.00013835	1372.5	5.4686e-06	5.3853e-06	1375	372.81	5.4285e-06	5.3961e-06	426.58	143.63	124.35	42.997	5.3994e-06	53.215	149.393	-43.928	-38.021	-142.877	4.729	1.480	-143.325	-138.732	-75.183	-6.993	-138.914	-135.102	-134.328	-129.410	-17.292	-130.147	-8191	255	
822.464	1	1	0	0	0.13637	0.1335	0.18446	0.16612	0.1005	0.060812	0.27023	0.18302	0.14367	0.16608	0.29529	0.19197	0.13366	0.13205	0.035055	0.035474	-2.6729	-3.1417	-3.5	-3.0042	-3.5667	-3.25	-3.1458	-3.7083	-3.0021	-3.3271	-3.5292	-2.9896	-3.4646	-3.55	-2.9938	-3.8167	129.938	-15.158	120.591	162.379	55.633	-142.184	90.207	126.722	171.654	106.517	171.644	95.896	-4.937	-132.318	-113.166	-13.493	0.00080885	0.00044432	0.00014694	1346.7	4.6296e-06	5.2266e-06	1343.3	365.16	6.9394e-06	3.5364e-06	415.94	140.02	120.52	41.675	6.4557e-06	51.602	0.00050988	0.00048862	0.00013716	1372.7	5.3625e-06	5.2817e-06	1372.7	372.6	5.4256e-06	5.2943e-06	426.22	143.32	124.02	42.915	5.3316e-06	53.191	141.058	-75.766	-12.488	-142.754	-68.368	6.170	-143.543	-138.518	-76.631	-38.288	-138.825	-135.181	-134.588	-129.401	-25.707	-130.484	-8191	255	
822.584	1	1	0	0	0.11878	0.30861	0.48287	0.15084	0.19259	0.074515	0.17664	0.095899	0.17512	0.21593	0.17701	0.059021	0.18893	0.072801	0.1766	0.15909	-2.7354	-3.1583	-3.7479	-2.8792	-3.2854	-3.2833	-3.2125	-3.6271	-3.0771	-3.0875	-3.6958	-3.0271	-3.3667	-3.5458	-3.0021	-3.8063	161.988	-70.904	77.270	166.150	11.956	-109.911	42.941	155.184	-135.484	32.596	168.530	163.426	168.879	126.564	-101.555	42.824	0.00078551	0.00060746	0.00016635	1354.5	3.3487e-06	5.112e-06	1347.8	365.07	1.0002e-05	3.8793e-06	417.54	140.41	120.89	41.677	8.7893e-06	51.526	0.00050033	0.00048642	0.00013573	1372.8	5.2746e-06	5.2758e-06	1373.9	372.47	5.273e-06	5.2484e-06	426.76	143.45	123.76	42.884	5.2588e-06	53.061	144.841	-40.688	-23.347	-143.169	-120.000	12.163	-143.428	-138.568	-67.187	-5.862	-139.236	-135.396	-134.437	-129.397	-22.088	-130.164	-8191	255	
822.656	1	1	0	0	0.18118	0.17246	0.14346	0.26954	0.023662	0.17981	0.17557	0.022785	0.198	0.23492	0.14204	0.084968	0.078423	0.40728	0.11609	0.04149	-2.8375	-2.8333	-3.6333	-3.1813	-3.3229	-3.6167	-3.1292	-3.55	-3.2667	-2.9292	-3.7354	-3.1083	-3.475	-3.5	-2.9562	-3.4542	-55.495	-112.108	-119.793	108.486	-106.324	-11.332	-134.592	24.796	115.496	12.640	34.992	145.545	-141.964	159.321	-147.062	93.852	0.00078611	0.00043244	0.00011101	1348.9	6.8917e-06	7.5073e-06	1349.1	365.41	8.6114e-06	6.2526e-06	419.04	140.46	121.38	41.668	3.6909e-06	51.411	0.00048775	0.00046971	0.00013153	1370.5	5.1493e-06	5.1206e-06	1374.1	371.88	5.0843e-06	5.1257e-06	426.63	143.44	123.88	42.862	5.0609e-06	53.022	135.957	-93.615	-86.824	-142.892	-61.506	-1.052	-143.530	-139.068	-50.815	-8.781	-139.071	-135.392	-134.729	-129.446	-13.069	-130.125	-8191	255	
822.752	1	1	0	0	0.15752	0.22671	0.4026	0.24756	0.25802	0.071128	0.14309	0.12228	0.22366	0.13844	0.05275	0.029083	0.073982	0.067007	0.089127	0.27656	-3.1917	-2.8646	-3.5542	-3.3021	-3.1042	-3.6229	-3.2125	-3.6562	-3.4667	-2.9188	-3.6792	-3.1813	-3.2271	-3.5958	-2.7687	-3.3167	-29.502	-12.974	-151.917	131.229	-103.884	-41.884	158.127	123.624	-5.708	-92.243	50.472	177.314	-105.411	-37.205	188.636	141.783	0.00073182	0.00048158	0.00020736	1352.2	4.8227e-06	2.721e-06	1344.9	364.73	3.9371e-06	3.7504e-06	417.58	140.16	120.84	41.814	6.1278e-06	51.302	0.00047717	0.00046577	0.00012935	1371.9	5.0933e-06	5.0473e-06	1371.6	371.68	5.0695e-06	5.1364e-06	426.15	143.12	123.66	42.894	5.1353e-06	53.12	139.924	-43.407	-26.272	-142.920	-80.835	-38.499	-143.343	-138.769	-9.175	29.052	-138.996	-135.160	-134.709	-129.692	-28.156	-130.146	-8191	255	
822.848	1	1	0	0	0.044486	0.054082	0.076467	0.31516	0.24775	0.22737	0.091326	0.39972	0.29218	0.14724	0.095877	0.19841	0.21049	0.14665	0.051913	0.034786	-3.1229	-2.8875	-3.3875	-3.3729	-3.1333	-3.7042	-3.2458	-3.475	-3.5083	-2.8479	-3.7042	-3.3688	-3.0458	-3.7771	-2.7583	-3.15	51.442	133.685	71.826	109.572	45.425	55.307	161.108	155.178	93.042	-137.349	138.619	58.116	-77.929	166.457	-18.579	5.965	0.00071517	0.00029799	0.00010413	1350.1	6.3222e-06	5.7286e-06	1347.4	366.29	7.4698e-06	7.8725e-06	417.43	140.36	120.82	41.981	8.5594e-06	51.437	0.00047376	0.00046328	0.00012758	1370.5	5.0399e-06	5.0606e-06	1371.5	372.18	5.0814e-06	5.1217e-06	425.9	143.21	123.56	42.928	5.034e-06	53.077	142.905	-76.580	-34.875	-143.104	-57.992	-12.820	-143.412	-138.967	-96.733	-1.323	-138.982	-135.373	-134.651	-129.280	-25.058	-130.563	-8191	255	
822.969	1	1	0	0	0.10707	0.2666	0.27354	0.12493	0.12265	0.11362	0.29567	0.053719	0.11664	0.14148	0.18772	0.19738	0.20041	0.096236	0.19009	0.32125	-2.9354	-2.9292	-3.4875	-3.4354	-2.9313	-3.5187	-3.2583	-3.325	-3.3396	-3.0729	-3.4458	-3.4	-3.0583	-3.6396	-2.8479	-3.35	40.051	-61.034	-3.067	88.055	-141.029	-94.188	157.242	-106.566	-128.340	22.868	159.174	75.963	172.902	-153.701	9.045	140.416	0.0007744	0.00075603	9.6641e-05	1348.3	6.0009e-06	3.5643e-06	1346.3	364.85	3.6503e-06	6.5e-06	416.67	139.78	121.53	41.678	2.914e-06	51.586	0.0004697	0.00046229	0.0001268	1369.5	4.9654e-06	5.0537e-06	1372.7	371.72	4.9903e-06	4.9465e-06	425.44	143.13	123.7	42.835	4.9324e-06	53.092	151.684	-61.107	-19.240	-143.087	-11.337	19.378	-143.616	-138.570	-99.367	11.419	-139.167	-135.085	-134.764	-129.561	9.875	-130.657	-8191	255	
823.065	1	1	0	0	0.11872	0.044715	0.098718	0.31162	0.18783	0.17939	0.3059	0.23857	0.17672	0.038405	0.062326	0.30373	0.14206	0.029699	0.0097169	0.053159	-3.1958	-2.9208	-3.3042	-3.6271	-3.0667	-3.4792	-3.2812	-3.3333	-3.5792	-2.9396	-3.3708	-3.25	-3.0312	-3.5938	-3.2646	-3.2208	99.545	-62.448	137.516	-153.407	166.647	48.146	115.249	176.076	169.326	198.379	-20.618	154.498	-122.059	-124.900	185.008	154.331	0.000834	0.00015728	8.9327e-05	1351.8	6.018e-06	8.9378e-06	1348.6	365.34	6.3363e-06	4.2316e-06	416.89	140.51	121.21	41.824	6.163e-06	51.702	0.00046535	0.00045156	0.0001251	1370.6	4.9716e-06	4.9101e-06	1373.3	371.76	4.9205e-06	4.83e-06	425.2	143.27	123.63	42.882	4.8873e-06	53.06	145.558	-44.590	-44.944	-143.188	-68.664	-20.708	-143.346	-138.745	-16.231	27.346	-139.219	-135.323	-134.396	-129.593	1.344	-130.518	-8191	255	
823.161	1	1	0	0	0.24654	0.26181	0.13605	0.099677	0.071895	0.050301	0.085379	0.30433	0.043694	0.21291	0.10509	0.17211	0.014283	0.22131	0.037551	0.072063	-3.1437	-2.8208	-3.3083	-3.7271	-2.9313	-3.4958	-3.4188	-3.0563	-3.6021	-2.9437	-3.4896	-3.525	-2.8667	-3.3854	-3.2062	-3.1958	-97.466	-99.918	126.877	53.908	-73.335	19.216	114.107	194.988	71.967	178.352	-135.140	149.513	-36.584	-145.544	11.312	144.389	0.00086888	0.0007836	0.00017358	1347.6	9.7541e-06	8.8214e-06	1349.4	364.51	4.3975e-06	4.0533e-06	419.43	140.3	121.1	41.76	4.6869e-06	51.503	0.00046081	0.00044499	0.00012223	1368.4	4.8623e-06	4.8119e-06	1372.6	371.3	4.8351e-06	4.8732e-06	426.03	143.09	123.44	42.85	4.8119e-06	53.005	144.460	-59.709	-68.719	-143.180	-88.981	-33.362	-143.447	-138.995	-19.402	-16.795	-139.347	-135.215	-134.712	-129.501	-36.472	-130.438	-8191	255	
823.280	1	1	0	0	0.11101	0.20126	0.21766	0.21908	0.14307	0.18179	0.11605	0.046954	0.21032	0.081681	0.29787	0.096315	0.15701	0.17287	0.16285	0.14641	-3.1958	-2.8958	-3.125	-3.6854	-2.9271	-3.325	-3.4917	-2.8625	-3.6458	-2.9646	-3.2083	-3.55	-3.0396	-3.5333	-3.3208	-2.9813	114.622	-69.624	108.033	-118.910	-57.720	46.872	115.619	106.802	-14.639	-89.955	168.117	183.299	-12.277	-105.866	175.116	-131.529	0.00081647	0.00026271	0.00010923	1356.4	2.8176e-06	2.0403e-06	1349.8	366.55	7.1721e-06	3.9261e-06	418.12	140.15	121.67	41.661	7.093e-06	51.71	0.00045773	0.00044051	0.00012214	1369.8	4.8759e-06	4.7868e-06	1371.5	371.33	4.8433e-06	4.7822e-06	425.26	143	123.59	42.744	4.8177e-06	53.009	150.066	-90.009	-25.951	-143.524	-53.091	-46.816	-143.457	-138.981	-31.253	19.585	-139.418	-135.511	-134.681	-129.545	1.470	-130.617	-8191	255	
823.352	1	1	0	0	0.15608	0.11236	0.037081	0.078933	0.21766	0.057207	0.24752	0.12674	0.0544	0.16421	0.37532	0.2433	0.18674	0.09345	0.14115	0.15525	-3.1854	-3.2021	-2.9625	-3.7292	-2.8792	-3.4854	-3.5208	-2.9146	-3.6583	-3.1063	-2.9958	-3.7313	-3.0042	-3.2854	-3.3563	-2.9313	-81.802	-31.375	-33.929	-57.766	139.601	44.726	88.825	-81.515	-90.225	187.200	178.690	132.138	-121.717	65.129	72.385	37.176	0.00089963	0.00028068	0.00019761	1344.9	5.9891e-06	3.4212e-06	1344.6	365.56	2.9896e-06	2.7342e-06	418.2	140.03	121.42	41.707	4.9478e-06	51.235	0.00045928	0.00043741	0.00012395	1369.5	4.8235e-06	4.767e-06	1371.3	371.84	4.7742e-06	4.6973e-06	425.21	142.97	123.52	42.802	4.7585e-06	52.908	147.177	-109.904	-27.613	-143.317	-72.609	-25.967	-143.354	-138.693	-72.364	45.363	-139.161	-135.539	-134.818	-129.765	-17.697	-130.349	-8191	255	
823.450	1	1	0	0	0.22171	0.10206	0.22294	0.22268	0.20485	0.13156	0.40006	0.35309	0.23416	0.21393	0.24529	0.090771	0.10302	0.17186	0.081175	0.086488	-3.0312	-3.1021	-2.8396	-3.575	-2.8625	-3.1083	-3.6792	-2.9792	-3.4979	-3.3521	-3.0438	-3.4188	-3.1188	-3.2729	-3.5125	-2.8563	-64.336	65.317	180.827	87.570	-142.615	73.553	130.399	151.190	-9.247	48.829	121.630	-92.656	-117.192	186.908	-55.890	-26.785	0.00083854	0.00041	9.106e-05	1346.2	4.7237e-06	5.5261e-06	1348.4	364.02	8.1642e-06	5.2302e-06	415.92	140.07	121.09	41.738	3.3882e-06	51.437	0.00045305	0.00043295	0.00012214	1368.3	4.8236e-06	4.762e-06	1371.7	371.4	4.8517e-06	4.8156e-06	424.97	142.97	123.58	42.874	4.7906e-06	52.98	151.721	-63.156	-75.063	-142.917	-45.166	-16.164	-143.383	-138.573	-49.098	26.643	-138.842	-135.187	-134.426	-129.773	8.776	-130.160	-8191	255	
823.569	1	1	0	0	0.23137	0.076966	0.21416	0.22704	0.18983	0.2359	0.24944	0.072031	0.25465	0.27305	0.061299	0.21948	0.36124	0.069839	0.22141	0.12216	-3.1521	-3.2687	-2.95	-3.7771	-2.9583	-3.2104	-3.75	-2.9896	-3.5062	-3.4938	-2.9417	-3.6771	-3.1688	-3.2875	-3.5375	-2.9938	-147.747	91.583	-7.882	170.162	20.594	160.348	-11.090	130.101	134.795	159.884	23.565	-78.812	-155.178	103.255	-81.972	-144.335	0.0007961	0.000515	6.5881e-05	1347.3	4.0993e-06	4.3196e-06	1344.6	364.96	5.9584e-06	3.3767e-06	416.76	139.77	121.34	41.797	1.7954e-06	51.492	0.00045138	0.00043513	0.00012396	1369.1	4.818e-06	4.7941e-06	1370.9	371.49	4.7503e-06	4.7397e-06	425.25	143.04	123.59	42.803	4.8382e-06	52.971	150.008	-94.504	-88.161	-142.875	-64.196	-56.866	-143.256	-138.541	-61.788	1.056	-139.167	-135.421	-134.626	-129.647	-24.355	-130.316	-8191	255	
823.665	1	1	0	0	0.033866	0.28111	0.27447	0.20955	0.035851	0.10433	0.19209	0.29232	0.30602	0.10365	0.11453	0.020914	0.24479	0.19692	0.070451	0.15913	-2.9625	-3.4417	-2.7729	-3.6042	-3.2708	-3.3917	-3.8708	-3.1562	-3.1979	-3.45	-3.1583	-3.6417	-3.3208	-3.0583	-3.55	-3.1771	119.196	63.162	75.120	169.097	39.067	140.099	202.928	169.148	111.804	46.991	64.984	-70.251	179.938	184.667	-37.386	-148.170	0.00084358	0.00051623	0.0001158	1349.7	5.3181e-06	3.8164e-06	1345.6	365.05	5.6245e-06	3.2808e-06	416.28	140.07	121.27	41.749	5.3126e-06	51.428	0.0004553	0.00043568	0.00012381	1368.1	4.8552e-06	4.8405e-06	1370.5	371.79	4.8856e-06	4.8577e-06	424.75	142.74	123.69	42.788	4.9497e-06	52.999	144.464	-124.015	-83.784	-142.979	-6.485	-89.783	-143.263	-138.737	-23.740	-48.346	-138.821	-134.922	-134.318	-129.417	50.981	-130.366	-8191	255	
823.761	1	1	0	0	0.10729	0.25212	0.20879	0.20591	0.19535	0.17211	0.28698	0.21866	0.085308	0.049551	0.28223	0.23013	0.32675	0.25439	0.19957	0.077029	-2.9	-3.45	-2.8563	-3.6125	-3.1625	-3.0146	-3.8833	-3.3208	-3.1688	-3.6625	-2.9896	-3.4708	-3.4167	-2.8875	-3.7146	-3.2729	60.600	38.447	179.601	122.495	79.330	99.155	120.528	131.676	196.711	-68.287	107.181	-154.984	-151.739	139.313	83.832	93.464	0.00082799	0.00029924	0.00017478	1347	3.3967e-06	6.5321e-06	1334.7	363.59	5.9527e-06	2.134e-06	414.79	139.83	121.02	41.779	2.8881e-06	51.387	0.0004611	0.0004536	0.00012629	1369.1	4.8708e-06	4.9491e-06	1367.8	370.97	4.9664e-06	4.9991e-06	424.7	143.09	123.65	42.79	4.9614e-06	52.923	142.605	-62.161	-59.372	-143.182	-26.482	-39.163	-143.036	-138.422	-51.572	67.524	-138.962	-135.313	-134.356	-129.671	18.490	-130.387	-8191	255	
823.882	1	1	0	0	0.233	0.031528	0.26337	0.21446	0.12091	0.099306	0.28967	0.50722	0.069559	0.1516	0.2744	0.3175	0.036661	0.10736	0.136	0.13465	-2.8146	-3.575	-2.9542	-3.7208	-3.6188	-3.0021	-3.8208	-3.2604	-3.1375	-3.5667	-3.0062	-3.35	-3.4979	-2.9917	-3.3771	-3.2125	151.617	-60.344	-114.830	202.361	52.166	94.332	158.067	131.225	127.870	74.516	139.189	161.857	-66.961	-49.053	-83.395	182.619	0.00081241	0.00035819	0.00014204	1347.5	5.567e-06	5.5649e-06	1346.2	365	4.1296e-06	2.5898e-06	415.21	139.99	121.09	41.79	5.6078e-06	51.421	0.00047586	0.0004554	0.00012708	1369.1	5.0054e-06	5.1056e-06	1372.1	371.17	5.0382e-06	5.0447e-06	425.03	142.97	123.58	42.811	5.0344e-06	52.997	152.433	-120.475	-77.021	-143.201	-64.321	-33.980	-143.281	-138.667	-78.909	-40.480	-139.075	-135.330	-134.491	-129.521	-36.754	-130.250	-8191	255	
823.953	1	1	0	0	0.041344	0.043728	0.25004	0.20168	0.11529	0.11643	0.16767	0.16288	0.038076	0.13527	0.040697	0.10047	0.1225	0.22109	0.14305	0.26235	-2.6208	-3.5021	-2.9979	-3.3438	-3.5625	-2.8375	-3.7042	-3.4062	-2.7875	-3.6792	-3.1396	-3.2083	-3.6	-2.9083	-3.6146	-3.1667	-30.671	-18.649	168.135	197.454	-70.790	52.833	94.473	108.764	13.844	-84.731	190.842	-134.277	184.181	142.620	-151.154	81.483	0.00088171	0.00067484	0.00011581	1350.5	8.8906e-06	7.0862e-06	1344.9	364.37	6.9469e-06	4.8612e-06	418.74	139.88	120.95	41.717	6.0912e-06	50.975	0.00047439	0.00045651	0.00012824	1368.4	5.0668e-06	5.0528e-06	1370.3	371.07	5.1054e-06	4.9969e-06	425.26	142.97	123.52	42.791	4.9665e-06	52.853	144.698	-68.129	-68.864	-143.013	-55.767	-12.459	-143.292	-138.373	-73.147	-36.195	-138.959	-135.181	-134.387	-129.385	9.669	-130.431	-8191	255	
824.049	1	1	0	0	0.2439	0.23488	0.026925	0.085097	0.21628	0.19337	0.14786	0.062128	0.10923	0.225	0.32203	0.37638	0.176	0.090229	0.12219	0.034953	-2.6063	-3.5583	-3.0812	-3.1729	-3.4896	-2.8375	-3.6042	-3.3542	-3.0271	-3.5458	-3.0958	-3.2708	-3.6958	-2.8875	-3.325	-3.3792	-120.110	-53.722	-100.135	120.085	43.526	34.019	-143.115	-143.983	7.843	-147.339	179.584	-138.962	-146.001	174.184	162.998	180.096	0.0007981	0.00042635	0.00012955	1345.7	8.7203e-06	3.5217e-06	1341	364.45	2.8204e-06	7.6382e-06	414.68	139.71	121.4	41.578	9.699e-06	51.6	0.0004739	0.00045797	0.00012634	1368.1	4.9994e-06	5.0185e-06	1368.4	371.27	5.0562e-06	5.0517e-06	424.16	142.76	123.64	42.678	5.0228e-06	52.985	148.930	-92.145	-68.703	-142.858	-51.075	10.942	-143.313	-138.433	-42.452	-3.739	-139.020	-135.406	-134.441	-129.458	-2.040	-130.313	-8191	255	
824.146	1	1	0	0	0.12796	0.2363	0.13416	0.12532	0.23333	0.32011	0.25401	0.1167	0.12551	0.069652	0.1217	0.22244	0.14207	0.19178	0.25668	0.24407	-2.6479	-3.5604	-3.0708	-3.3	-3.5438	-2.9979	-3.5771	-3.5479	-2.7979	-3.55	-3.4917	-3.2979	-3.6021	-3.0104	-3.3187	-3.4104	164.486	63.393	119.478	196.356	-19.078	33.213	-151.166	135.776	133.347	22.287	145.594	192.897	151.680	-115.626	74.016	92.106	0.00088787	0.00042376	0.00014834	1343.3	4.4733e-06	1.94e-06	1341.2	363.76	6.2455e-06	2.8453e-06	416.38	139.51	120.52	41.799	5.2982e-06	51.284	0.00047874	0.0004552	0.00012571	1365.2	5.0286e-06	5.0326e-06	1368.9	370.85	5.0333e-06	5.012e-06	424.83	142.7	123.31	42.811	4.9597e-06	52.947	145.143	-29.959	-58.477	-142.960	-53.873	0.511	-143.514	-138.481	-33.471	-16.657	-138.980	-135.381	-134.442	-129.530	-51.423	-130.512	-8191	255	
824.264	1	1	0	0	0.20606	0.12956	0.15943	0.27706	0.2251	0.24389	0.18277	0.12398	0.15702	0.208	0.14123	0.15886	0.20013	0.095434	0.22453	0.2079	-2.4062	-3.3417	-3.2354	-3.0708	-3.6354	-3.0083	-3.4688	-3.7958	-2.8438	-3.45	-3.3833	-3.0062	-3.6063	-3.2771	-3.1292	-3.6396	-109.911	78.010	201.929	147.543	111.299	-5.523	-75.585	161.984	98.627	-145.068	76.086	54.712	135.647	152.727	-90.368	181.444	0.00083467	0.00020069	0.00013129	1343.3	5.9345e-06	5.6598e-06	1344.4	364.1	4.8887e-06	2.8089e-06	416.35	140.21	120.71	41.676	3.5369e-06	51.628	0.00047468	0.00045826	0.00012643	1365.1	4.9977e-06	4.997e-06	1368.1	371.42	5.0642e-06	4.9025e-06	424.92	142.73	123.22	42.719	4.9535e-06	52.942	154.549	-107.188	-69.285	-143.137	-53.981	-12.509	-143.594	-138.693	-42.668	10.661	-138.912	-135.460	-134.654	-129.705	-58.560	-130.323	-8191	255	
824.361	1	1	0	0	0.33419	0.11827	0.070838	0.057613	0.17471	0.092861	0.062959	0.37481	0.063361	0.090502	0.40938	0.18008	0.29957	0.15843	0.096784	0.14404	-2.5354	-3.3854	-3.2333	-3.0625	-3.4979	-3.225	-3.2521	-3.7521	-2.8083	-3.45	-3.3271	-3.0021	-3.6167	-3.3604	-3.0875	-3.8167	-25.504	-146.915	176.512	114.419	-136.074	144.976	-117.199	135.097	94.965	-87.232	146.971	140.068	137.362	-154.718	83.188	138.374	0.00077337	0.00054999	0.00012055	1342	4.3753e-06	7.9405e-06	1339	364.37	4.8461e-06	4.8338e-06	417.1	139.66	120.84	41.51	5.6077e-06	51.34	0.00046725	0.00044709	0.00012516	1365.3	4.9697e-06	4.9125e-06	1366.3	370.57	4.9778e-06	4.9311e-06	424.63	142.68	123.38	42.607	4.9158e-06	52.922	151.562	-40.613	-68.777	-143.232	-72.418	-24.359	-143.561	-138.692	-75.006	34.238	-139.146	-135.376	-134.753	-129.287	-5.417	-130.358	-8191	255	
824.457	1	1	0	0	0.11985	0.10723	0.085992	0.099467	0.14645	0.10523	0.36498	0.21998	0.065877	0.10399	0.16482	0.23105	0.15274	0.23292	0.16678	0.16876	-2.4104	-3.3354	-3.55	-3.1688	-3.6937	-3.3354	-3.3458	-3.7792	-3.0438	-3.2208	-3.6167	-2.9354	-3.6292	-3.4146	-2.9354	-3.7167	-8.783	182.954	19.494	-0.596	139.696	37.904	91.483	55.433	119.662	53.483	145.527	120.166	111.368	122.781	143.840	-150.408	0.00080644	0.00069475	0.00018397	1349.1	5.3615e-06	5.7734e-06	1336.9	362.8	5.0668e-06	4.7395e-06	416.91	140.06	120.68	41.667	2.1422e-06	51.702	0.0004586	0.00043939	0.00012356	1364	4.8621e-06	4.8783e-06	1366.4	370.01	4.8278e-06	4.8466e-06	424.46	142.68	123.14	42.661	4.8614e-06	52.822	147.973	-41.151	-37.307	-143.284	-87.589	27.721	-143.527	-138.617	-53.359	4.211	-139.087	-135.526	-134.525	-129.382	-30.620	-130.621	-8191	255	
824.553	1	1	0	0	0.21816	0.21104	0.054686	0.30239	0.36829	0.083099	0.23637	0.2832	0.19383	0.13127	0.11163	0.21664	0.09889	0.054683	0.16217	0.018122	-2.8312	-3.1688	-3.5375	-3.1479	-3.4375	-3.3958	-3.1604	-3.7708	-2.9833	-3.1542	-3.55	-3.0104	-3.3917	-3.3083	-2.9083	-3.6875	41.984	-116.231	123.396	175.939	-55.492	-144.042	157.126	176.757	-64.110	-70.117	125.633	176.875	-42.349	-82.592	-46.454	-0.737	0.00074262	0.00035228	0.0001529	1346.7	5.4835e-06	4.9495e-06	1342.7	365.41	4.4502e-06	3.008e-06	417.97	140.02	121.39	41.745	8.5714e-06	51.467	0.00045302	0.00043899	0.00012133	1363.1	4.7336e-06	4.7952e-06	1366.7	370.76	4.8288e-06	4.8067e-06	423.92	142.45	123.01	42.637	4.8361e-06	52.87	147.112	-36.478	-45.981	-143.453	-56.541	43.209	-143.873	-139.145	-26.866	18.757	-139.204	-135.780	-135.010	-129.862	28.514	-130.972	-8191	255	
824.649	1	1	0	0	0.071107	0.051481	0.066407	0.39325	0.1969	0.26061	0.27484	0.18016	0.26511	0.10348	0.11408	0.21215	0.16408	0.19964	0.051741	0.28168	-2.7396	-2.975	-3.3792	-3.1854	-3.3896	-3.6333	-3.1479	-3.8292	-3.4021	-3.2271	-3.6792	-2.95	-3.4125	-3.4354	-3	-3.5563	104.739	2.628	-49.555	167.539	-130.436	-82.318	165.193	127.109	-152.575	135.191	-105.357	-38.876	161.134	186.519	71.705	103.753	0.00084423	0.00055546	0.00014217	1349.2	4.7748e-06	3.797e-06	1345.2	364.82	4.1722e-06	3.662e-06	416.85	140.01	121.24	41.725	3.8418e-06	51.445	0.00045236	0.00044216	0.00012285	1361.6	4.7012e-06	4.8224e-06	1365.3	370.54	4.7116e-06	4.7684e-06	423.85	142.18	122.94	42.614	4.7526e-06	52.734	141.347	-119.309	-35.737	-143.606	-56.769	-33.181	-143.792	-139.200	-100.657	14.498	-139.320	-135.771	-135.162	-130.012	-36.473	-130.741	-8191	255	
824.745	1	1	0	0	0.25699	0.16894	0.092357	0.17548	0.01732	0.14567	0.5374	0.10584	0.24921	0.30919	0.034817	0.21782	0.16401	0.14821	0.030039	0.18394	-2.9521	-2.9646	-3.5854	-3.2021	-3.3229	-3.5854	-3.0771	-3.55	-3.1146	-2.8417	-3.6083	-3.1583	-3.2771	-3.5208	-2.8333	-3.6333	125.425	-46.121	150.233	-115.924	123.972	-99.535	139.073	-55.641	-148.697	192.075	-63.289	141.833	112.212	141.918	58.336	159.877	0.0007805	0.00029263	0.00015838	1343.8	3.6147e-06	4.8361e-06	1338.4	363.75	5.4639e-06	5.1274e-06	414.56	138.85	120.84	41.362	5.3252e-06	51.422	0.00043945	0.0004309	0.00012025	1359.4	4.6354e-06	4.6625e-06	1361.1	369.18	4.6899e-06	4.666e-06	423.2	141.89	122.81	42.445	4.6668e-06	52.607	146.464	-81.822	-45.018	-143.458	19.422	-97.717	-143.596	-138.830	-56.935	-4.500	-139.229	-135.626	-134.713	-129.696	-53.762	-130.566	-8191	255	
824.841	1	1	0	0	0.26059	0.069286	0.12112	0.066156	0.14828	0.21154	0.053811	0.41282	0.22728	0.19181	0.12531	0.1012	0.12224	0.14513	0.25541	0.30153	-3.0771	-2.9062	-3.4437	-3.1854	-3.1354	-3.4083	-3.1417	-3.3625	-3.2708	-2.7458	-3.5687	-3.1667	-3.2646	-3.6688	-3.0438	-3.6521	-10.033	-122.696	-53.990	109.149	-133.623	-12.539	-105.492	181.175	43.069	-123.094	-106.454	-149.366	-118.277	29.112	181.188	184.213	0.00072359	0.00044303	0.00010779	1339.6	6.1458e-06	6.0272e-06	1340.7	363.88	7.8111e-06	1.8796e-06	415.07	139.09	120.17	41.355	5.5636e-06	51.141	0.0004375	0.00042211	0.00011644	1356.7	4.5967e-06	4.6009e-06	1359.9	368.53	4.5833e-06	4.5893e-06	422.17	141.63	122.56	42.456	4.6028e-06	52.571	146.288	-64.033	-76.704	-143.282	-66.233	-3.806	-143.765	-138.900	-56.189	100.782	-139.204	-135.482	-134.665	-129.509	-2.293	-130.146	-8191	255	
#DATA ENDS
