BOXY.EXE: ISS Imagent and Oximeter Data Acquisition Program Version 0.80
Ascii Record File

#ACQ INFORMATION
2  Detector Channels 
16  External MUX Channels 
1  Auxiliary Channels 
5000  Waveform (CCF) Frequency (Hz)
1  Waveforms Skipped 
30  Waveforms Averaged 
1  Cycles Averaged 
16  Acquisitions per Waveform 
10.0806  Updata Rate (Hz) 

#FILE INFORMATION
TRUE -- External MUX Channel results are PARSED.
FALSE -- AC DC and Phase are NOT grouped.
TRUE -- Companion Program Settings File CREATED.
FALSE -- AC data not excluded
FALSE -- DC data not excluded
FALSE -- Phase data not excluded
FALSE -- Auxillary Chn. data not excluded
Tab delimiters

#CALIBRATION STATE
TRUE -- Waveform Calibration Values APPLIED.


#AUX CALIBRATION VALUES
Val Type	aux-1	

Term	1.0000e+00	
Factor	0.0000e+00	


#WF CALIBRATION VALUES
A = Detector Channel
Val Type	A-AC1	A-AC2	A-AC3	A-AC4	A-AC5	A-AC6	A-AC7	A-AC8	A-AC9	A-AC10	A-AC11	A-AC12	A-AC13	A-AC14	A-AC15	A-AC16	A-DC1	A-DC2	A-DC3	A-DC4	A-DC5	A-DC6	A-DC7	A-DC8	A-DC9	A-DC10	A-DC11	A-DC12	A-DC13	A-DC14	A-DC15	A-DC16	A-Ph1	A-Ph2	A-Ph3	A-Ph4	A-Ph5	A-Ph6	A-Ph7	A-Ph8	A-Ph9	A-Ph10	A-Ph11	A-Ph12	A-Ph13	A-Ph14	A-Ph15	A-Ph16	

Term	0.00000e+00	0.00000e+00	0.00000e+00	0.00000e+00	0.00000e+00	0.00000e+00	0.00000e+00	0.00000e+00	0.00000e+00	0.00000e+00	0.00000e+00	0.00000e+00	0.00000e+00	0.00000e+00	0.00000e+00	0.00000e+00	0.00000e+00	0.00000e+00	0.00000e+00	0.00000e+00	0.00000e+00	0.00000e+00	0.00000e+00	0.00000e+00	0.00000e+00	0.00000e+00	0.00000e+00	0.00000e+00	0.00000e+00	0.00000e+00	0.00000e+00	0.00000e+00	0.00000e+00	0.00000e+00	0.00000e+00	0.00000e+00	0.00000e+00	0.00000e+00	0.00000e+00	0.00000e+00	0.00000e+00	0.00000e+00	0.00000e+00	0.00000e+00	0.00000e+00	0.00000e+00	0.00000e+00	0.00000e+00	
Factor	1.00000e+00	1.00000e+00	1.00000e+00	1.00000e+00	1.00000e+00	1.00000e+00	1.00000e+00	1.00000e+00	1.00000e+00	1.00000e+00	1.00000e+00	1.00000e+00	1.00000e+00	1.00000e+00	1.00000e+00	1.00000e+00	1.00000e+00	1.00000e+00	1.00000e+00	1.00000e+00	1.00000e+00	1.00000e+00	1.00000e+00	1.00000e+00	1.00000e+00	1.00000e+00	1.00000e+00	1.00000e+00	1.00000e+00	1.00000e+00	1.00000e+00	1.00000e+00	X	X	X	X	X	X	X	X	X	X	X	X	X	X	X	X	

B = Detector Channel
Val Type	B-AC1	B-AC2	B-AC3	B-AC4	B-AC5	B-AC6	B-AC7	B-AC8	B-AC9	B-AC10	B-AC11	B-AC12	B-AC13	B-AC14	B-AC15	B-AC16	B-DC1	B-DC2	B-DC3	B-DC4	B-DC5	B-DC6	B-DC7	B-DC8	B-DC9	B-DC10	B-DC11	B-DC12	B-DC13	B-DC14	B-DC15	B-DC16	B-Ph1	B-Ph2	B-Ph3	B-Ph4	B-Ph5	B-Ph6	B-Ph7	B-Ph8	B-Ph9	B-Ph10	B-Ph11	B-Ph12	B-Ph13	B-Ph14	B-Ph15	B-Ph16	

Term	0.00000e+00	0.00000e+00	0.00000e+00	0.00000e+00	0.00000e+00	0.00000e+00	0.00000e+00	0.00000e+00	0.00000e+00	0.00000e+00	0.00000e+00	0.00000e+00	0.00000e+00	0.00000e+00	0.00000e+00	0.00000e+00	0.00000e+00	0.00000e+00	0.00000e+00	0.00000e+00	0.00000e+00	0.00000e+00	0.00000e+00	0.00000e+00	0.00000e+00	0.00000e+00	0.00000e+00	0.00000e+00	0.00000e+00	0.00000e+00	0.00000e+00	0.00000e+00	-1.85345e+02	-1.23737e+02	-1.11857e+02	-1.80493e+02	-1.02631e+02	-7.18909e+01	-1.55190e+02	-1.62015e+02	-8.30239e+01	-6.30682e+01	-1.71086e+02	-1.70392e+02	-1.81065e+02	-1.76742e+02	-5.60175e+01	-1.49283e+02	
Factor	3.45794e-05	1.28973e-04	3.64895e-05	1.78598e-01	1.50782e-06	1.48164e-06	1.55936e-01	4.98493e-02	1.25560e-06	1.27048e-06	8.53734e-02	2.92799e-02	2.65120e-02	9.74353e-03	1.48999e-06	1.28900e-02	2.28479e-06	2.43523e-06	6.78434e-07	9.15091e-02	2.64387e-08	2.67660e-08	7.53430e-02	2.56481e-02	2.64425e-08	2.67481e-08	4.24034e-02	1.45225e-02	1.36176e-02	5.01221e-03	2.65546e-08	6.42646e-03	X	X	X	X	X	X	X	X	X	X	X	X	X	X	X	X	



#DISTANCE SETTINGS
A = Detector Channel
A-1	A-2	A-3	A-4	A-5	A-6	A-7	A-8	A-9	A-10	A-11	A-12	A-13	A-14	A-15	A-16	

2.5000e+00	3.0000e+00	2.5000e+00	3.0000e+00	2.0000e+00	3.0000e+00	1.5000e+00	3.0000e+00	3.0000e+00	3.0000e+00	3.0000e+00	3.0000e+00	3.0000e+00	3.0000e+00	1.5000e+00	3.0000e+00	

B = Detector Channel
B-1	B-2	B-3	B-4	B-5	B-6	B-7	B-8	B-9	B-10	B-11	B-12	B-13	B-14	B-15	B-16	

1.0000e+01	1.0000e+01	1.0000e+01	1.4400e+00	1.0000e+01	1.0000e+01	1.5100e+00	1.9400e+00	1.0000e+01	1.0000e+01	1.9900e+00	2.4900e+00	2.4100e+00	2.9000e+00	1.0000e+01	2.9800e+00	




#DATA BEGINS
time	group	step	mark	flag	A-AC1	A-AC2	A-AC3	A-AC4	A-AC5	A-AC6	A-AC7	A-AC8	A-AC9	A-AC10	A-AC11	A-AC12	A-AC13	A-AC14	A-AC15	A-AC16	A-DC1	A-DC2	A-DC3	A-DC4	A-DC5	A-DC6	A-DC7	A-DC8	A-DC9	A-DC10	A-DC11	A-DC12	A-DC13	A-DC14	A-DC15	A-DC16	A-Ph1	A-Ph2	A-Ph3	A-Ph4	A-Ph5	A-Ph6	A-Ph7	A-Ph8	A-Ph9	A-Ph10	A-Ph11	A-Ph12	A-Ph13	A-Ph14	A-Ph15	A-Ph16	B-AC1	B-AC2	B-AC3	B-AC4	B-AC5	B-AC6	B-AC7	B-AC8	B-AC9	B-AC10	B-AC11	B-AC12	B-AC13	B-AC14	B-AC15	B-AC16	B-DC1	B-DC2	B-DC3	B-DC4	B-DC5	B-DC6	B-DC7	B-DC8	B-DC9	B-DC10	B-DC11	B-DC12	B-DC13	B-DC14	B-DC15	B-DC16	B-Ph1	B-Ph2	B-Ph3	B-Ph4	B-Ph5	B-Ph6	B-Ph7	B-Ph8	B-Ph9	B-Ph10	B-Ph11	B-Ph12	B-Ph13	B-Ph14	B-Ph15	B-Ph16	aux-1	digaux	

1217.947	1	1	0	768	0.10416	0.1342	0.21799	0.052584	0.13491	0.20033	0.30796	0.2178	0.038097	0.12416	0.089429	0.11407	0.28295	0.049973	0.19806	0.0094392	-2.75	-3.4542	-2.8375	-3.4667	-3.1854	-2.7271	-3.5146	-3.0417	-3.1354	-3.4333	-2.8771	-3.2521	-3.1333	-2.9437	-3.3417	-3.0875	385.372	216.614	107.582	169.900	225.792	300.560	369.618	269.258	369.391	209.629	348.009	31.634	371.223	136.158	131.565	275.255	0.00071447	0.00048393	7.4734e-05	744.69	3.3038e-06	2.6775e-06	798.93	241.47	2.7392e-06	2.4948e-06	310.44	116.77	89.15	42.215	4.5772e-06	57.395	6.9639e-05	2.6453e-05	7.7271e-06	723.35	3.2151e-07	2.9247e-07	780.52	235.76	3.4733e-07	3.0002e-07	300.7	113.72	86.334	41.461	3.4427e-07	56.07	90.668	115.455	126.898	39.221	133.024	171.628	38.332	44.306	173.348	185.385	42.418	47.487	49.911	55.839	180.949	52.288	-8191	255	
1218.043	1	1	0	0	0.090793	0.051492	0.13636	0.29459	0.16968	0.052658	0.3587	0.34916	0.30159	0.31683	0.25871	0.1035	0.18447	0.043463	0.16374	0.40031	-2.7354	-3.4354	-2.95	-3.2562	-3.275	-2.8187	-3.4917	-3.0875	-3.1396	-3.4542	-2.9938	-3.2438	-3.4167	-3.0125	-3.3083	-3.1354	245.526	78.508	146.386	321.905	201.962	150.950	344.822	342.450	104.673	132.206	381.775	81.162	356.770	49.385	117.889	348.329	0.00074016	0.00021848	9.7156e-05	742.05	4.8349e-06	3.4883e-06	802.86	239.64	3.4092e-06	2.8964e-06	308.84	116.73	88.216	41.98	4.0177e-06	57.175	7.1014e-05	2.7183e-05	7.7299e-06	723.84	3.3125e-07	2.8628e-07	780.94	235.08	3.5642e-07	2.852e-07	301.87	114	86.317	41.48	3.3592e-07	56.223	91.341	97.584	135.192	39.545	144.368	180.394	38.729	44.813	166.241	166.351	43.072	47.932	50.369	55.942	191.782	52.312	-8191	255	
1218.140	1	1	0	0	0.1528	0.11585	0.13769	0.086509	0.14557	0.15321	0.14705	0.18725	0.10908	0.11291	0.14092	0.14549	0.30697	0.026669	0.21848	0.058594	-2.5438	-3.4542	-2.7062	-3.3396	-3.3271	-2.8417	-3.6208	-2.9958	-2.8854	-3.5125	-3.0104	-3.4354	-3.4521	-2.9792	-3.275	-3.1833	308.122	85.326	143.582	37.354	30.024	201.938	332.568	277.270	104.073	126.003	310.494	305.581	368.236	270.987	34.376	384.326	0.00073249	0.00047014	9.6936e-05	735.23	3.979e-06	4.6274e-06	794.7	238.7	4.2036e-06	3.2403e-06	308.28	116.52	87.063	41.384	3.6173e-06	57.209	7.1086e-05	2.73e-05	7.7455e-06	722.16	3.2696e-07	3.0814e-07	782.67	235.35	3.849e-07	2.7824e-07	302.23	114.43	86.266	41.495	3.2037e-07	56.438	87.890	122.317	135.379	39.821	141.739	181.095	39.117	45.557	175.509	185.681	43.886	48.775	50.939	57.098	204.902	52.993	-8191	255	
1218.236	1	1	0	0	0.24166	0.091089	0.049946	0.058232	0.20012	0.15977	0.081639	0.22614	0.18101	0.047603	0.26195	0.28115	0.08413	0.083322	0.035245	0.06581	-2.3396	-3.3	-2.9375	-2.9208	-3.3333	-2.9354	-3.5375	-3.2438	-2.8292	-3.5625	-3.1708	-3.0479	-3.3812	-2.675	-3.4021	-3.3833	296.183	66.831	56.977	214.989	47.451	301.775	303.478	47.090	292.371	336.403	38.327	320.404	92.842	353.357	243.441	82.173	0.00080114	0.00025344	0.00011998	730.06	5.6996e-06	3.2472e-06	793.29	238.71	4.512e-06	3.8376e-06	308.01	116.39	87.386	41.418	3.5909e-06	56.203	7.2442e-05	2.6219e-05	7.8402e-06	721.01	3.4007e-07	3.0039e-07	782.8	235.07	3.6078e-07	2.7316e-07	302.19	114.47	86.134	41.346	3.2546e-07	55.863	89.205	104.838	123.168	40.254	167.548	155.235	39.577	45.708	171.226	178.593	44.062	48.682	50.956	57.396	207.467	53.471	-8191	255	
1218.332	1	1	0	0	0.21268	0.29395	0.20966	0.25803	0.24677	0.17655	0.10603	0.094985	0.19729	0.084873	0.2627	0.1124	0.15192	0.18087	0.037275	0.088624	-2.5229	-3.4021	-3.1771	-3.1417	-3.5646	-2.9146	-3.4458	-3.3042	-2.8729	-3.4167	-3.175	-2.9708	-3.65	-2.8146	-3.2542	-3.5708	296.944	156.322	294.366	381.423	146.328	122.133	33.848	305.325	202.849	62.401	358.758	87.848	107.269	358.992	255.269	86.878	0.00073913	0.00036158	0.00011848	728.25	4.1544e-06	4.5933e-06	781.5	236.56	3.1963e-06	3.14e-06	304.15	113.74	85.612	41.046	5.3104e-06	55.716	6.9048e-05	2.661e-05	7.7723e-06	719.47	3.1815e-07	2.9922e-07	777.71	234.89	3.4342e-07	2.7344e-07	299.58	112.85	85.162	40.875	3.1937e-07	55.377	92.696	134.595	128.992	40.842	156.047	168.649	39.975	46.300	181.663	187.623	44.186	48.980	51.171	57.195	196.602	53.333	-8191	255	
1218.428	1	1	0	0	0.087473	0.33295	0.16811	0.066269	0.092541	0.10169	0.071201	0.20086	0.062821	0.096216	0.35938	0.21021	0.10785	0.18333	0.31957	0.20654	-2.3854	-3.3354	-3.0833	-3.0187	-3.5833	-2.7	-3.4417	-3.325	-2.7896	-3.4583	-3.3271	-2.8	-3.6771	-2.9229	-3.1771	-3.5167	198.839	238.035	133.009	39.075	352.545	335.086	366.658	370.114	203.911	183.949	50.932	295.411	67.037	105.600	231.229	51.800	0.00075497	0.00035887	0.00010665	732.77	4.2507e-06	3.2958e-06	785.81	235.76	3.9157e-06	1.7026e-06	303.49	114.39	86.957	40.956	3.9696e-06	56.665	6.9034e-05	2.6737e-05	7.7087e-06	721.23	3.2409e-07	3.0892e-07	778.21	234.16	3.4392e-07	2.7372e-07	300.66	113.41	85.83	40.996	3.2729e-07	55.993	92.280	113.926	146.062	40.452	149.941	174.730	39.601	46.229	178.631	181.665	44.163	49.004	51.020	57.009	188.677	52.921	-8191	255	
1218.549	1	1	0	0	0.22514	0.058055	0.19604	0.15832	0.025136	0.126	0.17328	0.092704	0.061279	0.060515	0.16985	0.091057	0.15255	0.26036	0.24896	0.13368	-2.2687	-3.4021	-3.3625	-2.8896	-3.4167	-3.1854	-3.0812	-3.4521	-2.8875	-3.3563	-3.3625	-2.85	-3.4979	-3.1021	-2.9708	-3.3958	172.513	86.839	163.310	35.513	362.605	352.766	127.865	137.815	252.576	270.854	332.062	293.627	114.294	48.500	128.282	344.259	0.000708	0.00038774	0.00011991	735.23	5.1944e-06	3.4865e-06	792.53	236.52	4.5086e-06	4.4341e-06	308.21	116.48	87.381	41.715	4.0606e-06	57.002	7.0267e-05	2.9588e-05	7.3257e-06	720.37	3.0366e-07	2.942e-07	780.74	234.57	3.329e-07	3.0014e-07	302.55	114.36	86.025	41.349	3.415e-07	56.414	90.295	124.213	123.972	40.306	147.259	161.820	39.597	45.775	181.997	188.453	43.903	48.275	50.754	56.670	195.050	52.926	-8191	255	
1218.643	1	1	0	0	0.13697	0.055547	0.23587	0.22132	0.1826	0.11006	0.18394	0.22531	0.20079	0.11436	0.21154	0.05126	0.060945	0.28083	0.26826	0.05696	-2.5375	-3.3021	-3.1437	-2.8187	-3.3229	-3.0667	-2.9896	-3.4208	-2.9062	-3.0396	-3.4979	-2.9292	-3.3458	-3.2938	-2.7687	-3.6146	263.203	278.492	221.485	225.717	163.650	158.789	45.956	156.861	209.560	249.538	358.569	68.757	27.398	50.493	63.000	308.138	0.00079155	0.00038325	0.00010878	736.48	3.4113e-06	3.5729e-06	800.06	236.9	3.6486e-06	3.0679e-06	309.37	116.34	86.76	41.158	4.7912e-06	56.793	7.2428e-05	3.0136e-05	7.6946e-06	721.58	3.1743e-07	3.019e-07	786.43	234.24	3.4888e-07	2.9217e-07	302.49	114.23	85.694	41.139	3.607e-07	55.97	88.946	126.814	119.444	39.963	152.139	174.272	39.154	45.333	173.776	183.208	43.832	48.033	50.558	56.488	181.753	52.896	-8191	255	
1218.739	1	1	0	0	0.093153	0.013766	0.13666	0.13488	0.033199	0.22747	0.19032	0.18602	0.17663	0.10402	0.19958	0.217	0.25194	0.13173	0.14945	0.30181	-2.5354	-2.9542	-3.3333	-3.0312	-3.4896	-3.1896	-3.0375	-3.5312	-2.85	-3.0521	-3.5021	-2.7458	-3.4104	-3.325	-2.6229	-3.5312	41.050	192.215	234.758	381.485	232.027	342.523	328.245	206.940	86.131	71.111	339.372	378.141	111.815	294.240	315.315	341.077	0.00072676	0.00027379	0.00012013	735.17	3.9171e-06	4.8915e-06	789.5	234.91	4.0874e-06	3.1562e-06	304.75	115.15	86.356	40.955	3.5599e-06	56.235	7.0134e-05	2.9933e-05	8.1144e-06	721.23	3.2128e-07	2.9181e-07	781.06	233.68	3.5598e-07	3.0615e-07	300.84	113.42	85.413	41.013	3.3774e-07	55.766	90.694	115.624	142.443	40.219	143.568	165.727	39.505	45.825	168.783	165.116	43.934	49.061	50.911	57.299	187.406	53.120	-8191	255	
1218.837	1	1	0	0	0.20146	0.14742	0.091985	0.12154	0.07855	0.17494	0.2676	0.1405	0.15957	0.15661	0.16653	0.24145	0.34996	0.24067	0.2426	0.20609	-2.7021	-3.0333	-3.3812	-2.6813	-3.1271	-3.3479	-2.7625	-3.5167	-2.9417	-3.025	-3.4875	-2.9188	-3.3625	-3.1854	-2.7333	-3.5083	56.604	202.018	242.403	383.828	378.647	33.716	57.082	346.265	130.060	213.864	72.279	37.810	310.390	377.298	67.995	260.297	0.00076628	0.00034464	0.00011894	728.71	5.294e-06	2.6835e-06	792.39	237.61	3.0025e-06	3.8132e-06	307.05	116.03	86.804	41.41	4.7255e-06	56.715	6.8149e-05	2.8457e-05	7.1137e-06	720.57	3.1842e-07	2.7524e-07	781.92	234.62	3.4733e-07	3.0833e-07	301.76	114.08	85.537	41.202	3.3857e-07	56.047	91.139	131.306	136.588	40.180	156.212	185.528	39.367	45.445	161.453	173.248	44.029	48.884	50.508	56.717	199.957	53.426	-8191	255	
1218.931	1	1	0	0	0.0495	0.32596	0.053416	0.22637	0.16965	0.17285	0.063086	0.2496	0.14429	0.05051	0.19831	0.14145	0.193	0.24855	0.23436	0.086061	-2.95	-2.8146	-3.4688	-2.9396	-3.1396	-3.3312	-2.975	-3.4458	-3.0542	-3.0479	-3.7	-2.7938	-3.1896	-3.5271	-2.7458	-3.5125	95.711	287.015	372.072	364.072	241.733	107.703	287.514	358.205	220.673	181.998	298.225	157.875	361.966	310.414	146.131	165.865	0.00071048	0.00033052	0.00010839	732.91	4.1897e-06	4.7575e-06	792.19	236.89	3.6347e-06	2.73e-06	305.84	114.86	86.45	40.899	4.7674e-06	56.112	6.7035e-05	2.8071e-05	7.532e-06	719.51	3.3539e-07	2.8238e-07	783.44	234.35	3.5097e-07	2.9178e-07	302.31	113.78	85.515	40.996	3.3769e-07	56.049	89.120	118.674	141.463	40.399	149.146	173.300	39.461	45.467	173.812	199.720	43.987	48.721	51.044	57.215	183.296	53.854	-8191	255	
1219.028	1	1	0	0	0.23683	0.11251	0.10709	0.35456	0.11484	0.12354	0.12072	0.13236	0.26806	0.11816	0.2838	0.23609	0.068709	0.19342	0.1243	0.070091	-2.6417	-2.8896	-3.4437	-2.9938	-3.1396	-3.3833	-2.8896	-3.5354	-3.3208	-2.9188	-3.5312	-2.9333	-3.0729	-3.5333	-2.9458	-3.4333	157.333	249.667	281.579	311.870	147.315	45.065	54.005	271.266	172.630	312.791	308.006	170.306	383.008	169.151	271.356	79.251	0.00080056	0.00045576	9.3266e-05	724.81	4.3135e-06	3.5518e-06	793.16	234.74	4.0724e-06	3.3746e-06	305.91	114.62	85.211	40.738	4.0367e-06	56.574	6.9163e-05	3.1064e-05	6.9582e-06	719.07	3.3456e-07	2.8272e-07	783.98	233.57	3.4926e-07	2.9663e-07	301.85	113.77	85.263	40.944	3.4045e-07	55.968	90.029	130.639	138.359	41.344	146.753	182.002	39.695	45.781	159.195	166.998	43.993	49.141	51.741	57.865	194.599	52.857	-8191	255	
1219.148	1	1	0	0	0.32841	0.23735	0.18907	0.10206	0.15075	0.097412	0.1363	0.13692	0.14663	0.071106	0.099136	0.15488	0.080127	0.14545	0.12104	0.14202	-2.9708	-2.8292	-3.2271	-3.0187	-2.9458	-3.6	-3.0229	-3.35	-3.2854	-2.9396	-3.4771	-3.1104	-2.9938	-3.7292	-2.8854	-3.2646	128.517	90.379	200.314	190.409	244.973	267.946	359.809	323.402	64.808	321.829	355.562	378.191	169.367	356.629	146.396	365.704	0.00072637	0.00032458	0.00010165	729.09	4.0207e-06	4.7033e-06	786.78	233.4	2.3492e-06	3.0581e-06	303.67	114.11	85.636	40.899	4.7291e-06	56.359	6.9524e-05	3.0171e-05	7.4543e-06	719.08	3.2602e-07	2.9532e-07	781.18	233.05	3.2811e-07	3.0164e-07	299.94	113.35	84.961	40.855	3.3719e-07	55.755	88.872	112.842	137.583	40.890	141.756	173.339	40.046	46.296	171.398	190.228	44.394	49.142	51.165	57.313	199.475	53.068	-8191	255	
1219.244	1	1	0	0	0.20676	0.1005	0.13638	0.25535	0.246	0.25308	0.058427	0.12596	0.12198	0.16066	0.15321	0.10447	0.19983	0.21825	0.073368	0.10781	-3.0729	-2.7042	-3.3417	-3.2687	-2.8979	-3.4854	-3.0229	-3.2146	-3.4917	-2.9062	-3.2854	-3.2396	-2.9625	-3.4646	-2.75	-3.1604	378.787	385.535	330.578	34.955	273.805	229.617	301.687	35.099	310.198	160.934	356.427	58.807	155.213	45.253	120.897	314.033	0.00078267	0.00041132	0.00010953	720.32	3.7026e-06	4.3897e-06	781.92	233.1	3.4146e-06	3.6635e-06	306.34	116.07	86.054	41.454	4.6282e-06	56.644	6.9653e-05	2.8142e-05	8.0903e-06	715.35	3.3654e-07	2.782e-07	777.7	232.72	3.2447e-07	2.9601e-07	301.86	114.09	85.352	41.25	3.4029e-07	56.242	89.821	126.193	139.033	40.898	144.944	181.143	40.558	46.358	179.986	197.932	44.008	48.908	50.624	56.739	170.677	53.006	-8191	255	
1219.341	1	1	0	0	0.21527	0.058906	0.28883	0.18027	0.070464	0.19089	0.16564	0.24641	0.057793	0.053872	0.11506	0.2245	0.26696	0.04591	0.23781	0.13118	-3.2208	-2.5917	-3.0729	-3.2979	-3.0479	-3.5646	-3.0938	-3.1229	-3.5646	-2.6937	-3.3979	-3.35	-2.7687	-3.5687	-3.1583	-3.0604	115.685	201.474	334.031	281.402	243.676	139.774	380.618	327.983	371.061	248.189	367.710	373.324	288.688	62.487	172.381	348.630	0.00072955	0.00041672	0.00012417	727.82	4.4563e-06	4.9131e-06	788.52	234.83	2.9253e-06	2.822e-06	306.1	116.62	86.823	41.454	4.3525e-06	57.86	6.9534e-05	2.832e-05	8.0366e-06	717.58	3.3434e-07	2.8796e-07	780.89	233.1	3.3736e-07	3.115e-07	302.33	114.84	85.809	41.371	3.4427e-07	56.997	88.463	115.628	132.115	40.627	137.070	174.191	39.645	45.967	172.407	171.087	44.191	48.813	50.902	57.020	199.592	53.023	-8191	255	
1219.437	1	1	0	0	0.052678	0.28791	0.098755	0.085119	0.016195	0.15475	0.14606	0.0994	0.15121	0.070215	0.15614	0.087427	0.14443	0.045346	0.09901	0.28536	-2.975	-2.975	-3.1917	-3.4104	-2.9021	-3.475	-3.2708	-2.7271	-3.4958	-2.825	-3.2604	-3.4437	-2.6583	-3.3896	-3.2271	-2.8771	332.644	252.266	230.171	339.419	234.892	110.734	306.562	333.001	302.744	83.374	258.831	92.629	172.407	276.045	375.032	360.186	0.00078387	0.00029493	7.3059e-05	727.71	5.7935e-06	4.5476e-06	788.56	235.32	3.6796e-06	4.1395e-06	307.51	116.24	86.837	41.211	4.4612e-06	56.947	7.0015e-05	2.936e-05	7.6084e-06	718.18	3.345e-07	2.9376e-07	784.17	233.39	3.3257e-07	3.0805e-07	302.63	114.66	85.558	41.207	3.2098e-07	56.488	91.569	131.457	114.843	40.670	149.408	187.347	39.898	45.919	170.829	182.001	44.344	49.292	51.118	57.218	192.837	53.271	-8191	255	
1219.508	1	1	0	0	0.06871	0.24133	0.22452	0.069445	0.22872	0.25753	0.30988	0.054411	0.15546	0.1198	0.1473	0.094109	0.24544	0.37805	0.094628	0.10188	-2.975	-2.775	-2.9771	-3.3917	-2.8125	-3.2604	-3.3667	-2.6271	-3.5917	-2.7188	-2.8604	-3.3458	-2.7313	-3.35	-3.1521	-3.125	335.444	120.459	374.104	96.242	112.895	230.091	228.697	195.083	121.102	48.922	66.691	277.960	278.662	360.920	321.240	352.735	0.00080477	0.00028986	0.00011573	723.79	4.3529e-06	3.7693e-06	790.94	234.79	3.9711e-06	3.1644e-06	304.66	116.7	86.637	41.605	5.2256e-06	57.651	7.0086e-05	2.869e-05	8.0917e-06	714.99	3.3963e-07	2.7892e-07	779.68	232.26	3.4507e-07	2.8698e-07	301.06	114.51	85.616	41.504	3.3912e-07	56.727	92.039	114.733	121.722	40.384	146.348	166.612	39.622	45.894	177.922	191.933	43.691	48.805	51.051	56.948	214.325	52.838	-8191	255	
1219.629	1	1	0	0	0.1995	0.21412	0.14186	0.047584	0.093365	0.13226	0.030987	0.11723	0.16745	0.14968	0.13675	0.24014	0.17548	0.32105	0.17795	0.14427	-3.1875	-2.975	-3.1437	-3.4	-2.825	-3.3833	-3.2875	-2.8146	-3.3812	-3.1896	-2.9833	-3.2896	-3.1229	-3.0521	-3.1417	-2.7583	356.807	152.427	147.494	353.129	353.695	228.050	183.426	113.950	41.013	275.680	227.861	36.463	51.337	323.801	344.293	31.857	0.00075848	0.0004635	7.8802e-05	726.05	3.7869e-06	3.6679e-06	786.94	234.72	4.0461e-06	2.7558e-06	307.57	116	86.84	41.718	5.2073e-06	57.616	7.0695e-05	2.9202e-05	7.8486e-06	716.4	3.3517e-07	2.9604e-07	778.44	232.76	3.405e-07	2.8147e-07	301.89	114.73	85.632	41.559	3.2662e-07	57.023	89.081	139.245	148.184	40.415	140.083	152.332	39.961	45.490	180.431	187.534	43.979	48.469	50.494	56.764	191.712	53.087	-8191	255	
1219.723	1	1	0	0	0.063078	0.16495	0.1205	0.22448	0.12418	0.26426	0.10139	0.10627	0.1366	0.25075	0.07268	0.12324	0.15221	0.13968	0.08375	0.24167	-2.9729	-2.9625	-2.6417	-3.6333	-2.65	-3.0979	-3.4813	-2.7625	-3.4188	-3.0667	-2.7896	-3.6583	-2.9188	-3.1875	-3.3292	-3.0062	344.203	217.878	56.655	259.795	79.869	84.092	240.824	231.668	247.058	83.440	339.189	71.168	256.461	69.842	92.745	293.903	0.0007943	0.00041354	9.5313e-05	725.96	3.9874e-06	5.1538e-06	797.23	238.87	5.0686e-06	3.2442e-06	308.1	117.57	87.214	41.807	2.9632e-06	57.979	7.0743e-05	2.8005e-05	7.8769e-06	716.12	3.3775e-07	2.9788e-07	782.25	234.11	3.4899e-07	2.7668e-07	303.08	115.4	86.105	41.713	3.2662e-07	57.523	90.709	131.358	128.585	40.733	165.801	175.822	39.284	44.865	168.335	190.381	43.933	48.805	50.912	56.907	184.543	53.265	-8191	255	
1219.820	1	1	0	0	0.29375	0.44932	0.15995	0.12412	0.10994	0.081251	0.25935	0.25268	0.11171	0.22073	0.07122	0.095146	0.27992	0.067473	0.20514	0.075391	-2.8979	-3.2833	-2.8042	-3.3979	-2.825	-3.0521	-3.4417	-2.7479	-3.2771	-3.2458	-2.8167	-3.6896	-2.7875	-2.9979	-3.3375	-2.9938	68.964	169.043	293.197	232.877	227.561	287.906	337.962	299.442	187.272	37.070	243.800	77.549	343.658	267.353	113.964	35.455	0.00079623	0.00042263	9.9912e-05	729.21	3.7835e-06	4.1354e-06	790.07	234.82	3.7995e-06	2.9036e-06	309.35	117.88	86.953	41.975	4.8936e-06	57.906	7.0134e-05	2.7828e-05	8.0069e-06	715.79	3.3759e-07	3.0028e-07	781.76	232.82	3.4612e-07	2.9718e-07	303.34	115.4	85.988	41.595	3.2762e-07	57.076	89.340	117.621	129.455	40.362	159.250	197.307	39.970	45.940	181.432	167.930	43.609	48.297	50.549	56.603	205.122	52.791	-8191	255	
1219.917	1	1	0	0	0.014215	0.14728	0.16896	0.21986	0.094568	0.21245	0.20927	0.11836	0.24163	0.1436	0.19773	0.27378	0.093998	0.081683	0.09054	0.2649	-2.6875	-3.0521	-2.7229	-3.5917	-2.8312	-3.0687	-3.5167	-2.7958	-3.1979	-3.2125	-2.825	-3.5042	-3.0958	-2.8792	-3.3083	-2.9938	255.590	283.164	164.520	341.407	35.429	186.265	244.569	215.977	47.239	29.079	193.878	335.283	88.380	265.997	222.660	293.639	0.0007833	0.00031847	9.4161e-05	732.23	5.6449e-06	4.5965e-06	794.23	236.36	3.5413e-06	2.7619e-06	309.72	117.95	88.191	42.218	3.6679e-06	58.276	7.2661e-05	2.8979e-05	7.8826e-06	716.63	3.3401e-07	3.0602e-07	781.57	233.07	3.5835e-07	2.7506e-07	302.64	115.18	86.157	41.669	3.3641e-07	57.058	91.232	129.139	150.444	40.020	154.386	187.013	39.002	45.270	182.235	187.027	43.446	48.064	50.191	56.365	189.941	52.140	-8191	255	
1220.036	1	1	0	0	0.18953	0.18406	0.13727	0.067216	0.065838	0.19434	0.33346	0.055088	0.19034	0.16047	0.26467	0.35413	0.0615	0.13252	0.17586	0.18661	-2.6604	-3.1583	-2.8229	-3.4625	-3.0292	-2.8104	-3.6042	-2.8729	-2.9938	-3.4458	-2.7021	-3.4604	-3.1188	-2.7542	-3.5146	-2.9604	188.893	174.481	123.682	108.171	222.058	56.453	351.101	77.251	52.937	177.941	145.256	300.565	41.697	370.080	148.306	373.661	0.00077854	0.00028663	8.553e-05	731.51	4.7343e-06	3.5555e-06	798.4	237.73	4.7058e-06	4.0023e-06	310.49	118.31	87.891	42.347	3.4845e-06	58.462	7.2457e-05	2.8e-05	8.0112e-06	715.47	3.2889e-07	3.1567e-07	780.81	233.16	3.665e-07	2.8548e-07	303.46	115.43	86.127	41.831	3.2817e-07	57.554	92.792	117.289	122.453	39.996	148.589	164.606	39.092	45.261	183.518	162.929	43.346	48.312	50.159	56.146	198.240	52.369	-8191	255	
1220.108	1	1	0	0	0.1034	0.15108	0.26603	0.056669	0.047947	0.20311	0.1395	0.20587	0.15811	0.069189	0.31446	0.055553	0.2277	0.25459	0.077535	0.20082	-2.7417	-3.3396	-2.6042	-3.2917	-3.3312	-2.825	-3.5729	-3.2792	-2.9854	-3.6042	-2.9583	-3.3583	-3.1625	-2.7875	-3.5375	-3.2188	120.380	159.844	141.611	49.825	230.252	196.416	76.570	295.283	200.835	260.268	30.312	385.893	80.652	276.153	91.270	328.474	0.00077693	0.00037866	8.2296e-05	730.01	3.4025e-06	3.8688e-06	798.32	237.64	2.9209e-06	2.9663e-06	310.2	118.77	87.987	42.485	4.8182e-06	58.802	7.3756e-05	2.9142e-05	8.0451e-06	714.58	3.1192e-07	3.1606e-07	782.98	233.54	3.7179e-07	2.8208e-07	303.82	116.02	86.243	41.953	3.3304e-07	58.024	87.679	122.546	131.506	39.796	143.986	165.969	39.237	45.308	176.830	165.963	43.117	47.949	50.272	56.290	183.306	52.799	-8191	255	
1220.229	1	1	0	0	0.17833	0.17114	0.10235	0.14823	0.11611	0.079325	0.065147	0.19851	0.13719	0.041653	0.21513	0.03566	0.10613	0.23744	0.20782	0.25255	-2.4625	-3.4375	-2.9688	-3.0854	-3.3667	-2.9562	-3.65	-2.9729	-2.8792	-3.4229	-3.0146	-3.0229	-3.25	-3.0292	-3.0625	-3.0646	380.104	195.004	189.478	355.659	342.684	340.780	207.991	64.788	47.977	111.431	251.721	268.871	60.347	30.714	202.514	353.446	0.00071148	0.00032193	0.00010583	730.98	4.1566e-06	4.7439e-06	799.45	236.19	4.4257e-06	3.677e-06	311.4	118.51	87.172	42.011	5.447e-06	58.464	7.0976e-05	2.8431e-05	7.7582e-06	715.8	3.2845e-07	3.2298e-07	784.21	232.77	3.529e-07	2.8648e-07	304.13	115.87	86.079	41.704	3.5008e-07	57.5	90.796	110.469	144.996	39.492	144.094	171.739	39.241	45.473	166.821	175.025	43.287	48.089	50.688	56.141	190.472	52.779	-8191	255	
1220.325	1	1	0	0	0.29864	0.22043	0.083127	0.33235	0.44466	0.21008	0.15475	0.19024	0.073124	0.23154	0.2265	0.067956	0.023475	0.18521	0.13725	0.03366	-2.4375	-3.35	-2.7042	-3.0958	-3.3979	-2.8792	-3.4583	-3.2708	-2.7146	-3.3875	-3.0583	-3.1875	-3.3042	-2.6937	-3.1583	-3.4375	128.805	174.030	283.833	313.669	141.576	340.258	267.599	93.704	71.032	111.355	197.116	308.288	146.163	363.652	94.185	287.676	0.0007461	0.00033374	0.0001309	731.86	4.345e-06	5.199e-06	804.16	239.24	3.3192e-06	2.5825e-06	310.58	118.3	88.19	42.029	4.8467e-06	57.988	7.2304e-05	2.7148e-05	8.3702e-06	716.07	3.3021e-07	3.1874e-07	784.26	233.35	3.7218e-07	2.8855e-07	303.08	115.03	85.912	41.545	3.3608e-07	57.172	88.250	125.803	140.452	39.665	167.755	160.403	38.543	44.542	164.923	181.442	42.906	47.771	49.852	56.082	197.367	52.509	-8191	255	
1220.421	1	1	0	0	0.032004	0.1362	0.032043	0.10443	0.018783	0.22911	0.11359	0.10396	0.068912	0.15358	0.21264	0.13764	0.034547	0.18004	0.0060479	0.07562	-2.1542	-3.4292	-3.0479	-2.8438	-3.4646	-2.7417	-3.3563	-3.4125	-2.6271	-3.3729	-3.1854	-2.9229	-3.4604	-2.9188	-3.0333	-3.3458	336.663	182.087	125.057	69.682	73.275	189.715	358.410	49.794	92.764	128.250	326.034	150.830	109.074	360.382	286.889	109.630	0.00081352	0.00042278	0.00010719	729.79	4.6206e-06	3.6079e-06	803.07	238.4	4.9111e-06	3.3937e-06	312.54	118.38	88.646	42.181	4.0539e-06	58.798	7.4251e-05	2.6914e-05	7.6183e-06	713.86	3.2905e-07	3.0575e-07	783.24	233.02	3.7207e-07	2.8659e-07	303.83	115.6	86.17	41.545	3.4471e-07	57.459	89.448	133.462	141.709	39.251	141.891	187.560	38.765	45.115	181.521	185.646	43.375	48.021	50.271	56.002	193.193	52.179	-8191	255	
1220.517	1	1	0	0	0.074139	0.10708	0.21587	0.12479	0.35969	0.19227	0.11908	0.15471	0.211	0.26685	0.14467	0.23057	0.063468	0.17655	0.11324	0.11407	-2.4313	-3.2875	-2.875	-2.9958	-3.5458	-2.7479	-3.1521	-3.5042	-2.6375	-3.2333	-3.4083	-2.7021	-3.475	-2.9979	-3.1208	-3.4562	327.008	129.968	147.061	384.397	91.893	61.528	334.628	335.001	310.464	337.739	285.887	266.023	51.091	93.145	231.891	62.986	0.00080145	0.00035334	0.00011156	731.69	3.5283e-06	4.9362e-06	800.58	238.41	3.7236e-06	3.8937e-06	311.82	118.72	87.334	42.187	3.187e-06	58.566	7.3271e-05	2.7599e-05	7.6804e-06	716.77	3.1258e-07	3.0948e-07	784.65	233.65	3.4788e-07	2.8392e-07	304.63	115.93	85.767	41.501	3.4167e-07	57.498	89.931	121.967	127.924	39.722	136.411	176.272	38.704	45.011	162.538	153.240	43.207	47.680	50.024	56.281	212.588	52.504	-8191	255	
1220.638	1	1	0	0	0.25279	0.077209	0.051683	0.25495	0.21026	0.19392	0.12393	0.0894	0.14733	0.1062	0.14453	0.45636	0.41866	0.21223	0.32101	0.15062	-2.3812	-3.1854	-3.1437	-2.8021	-3.3771	-2.6604	-3.1021	-3.6292	-2.7292	-3.1625	-3.3563	-2.6979	-3.4146	-3.1708	-2.8604	-3.4542	218.982	221.376	58.091	105.604	346.454	300.087	251.839	357.116	92.519	188.578	358.248	76.956	374.945	278.886	353.816	336.564	0.00071506	0.00036429	0.00011987	729.6	3.9777e-06	2.6547e-06	805.74	239.06	3.4891e-06	3.332e-06	310.88	118.75	87.799	42.037	4.2097e-06	58.604	7.0372e-05	2.8979e-05	7.8387e-06	714.86	3.4662e-07	3.0759e-07	787.42	233.48	3.3775e-07	2.9172e-07	304.69	115.78	85.896	41.476	3.5406e-07	57.406	89.891	134.149	130.919	39.575	148.433	189.064	38.866	44.892	169.460	180.852	43.035	47.936	50.074	56.197	198.982	52.268	-8191	255	
1220.732	1	1	0	0	0.17433	0.049558	0.1288	0.18512	0.073163	0.13712	0.089385	0.2308	0.15786	0.17383	0.1262	0.27355	0.052009	0.27012	0.11537	0.072391	-2.1958	-3.2292	-3.2708	-2.6667	-3.4188	-3.025	-2.9938	-3.6458	-2.8625	-3.0375	-3.3417	-2.7646	-3.2208	-3.1458	-2.9708	-3.5896	61.929	333.610	348.468	284.849	152.964	360.617	377.099	280.069	157.558	140.466	237.635	326.269	277.955	327.044	344.063	133.391	0.00073492	0.0004379	8.388e-05	728.06	4.6504e-06	4.7776e-06	796.62	236.41	4.5877e-06	3.4146e-06	309.91	118.11	87.486	41.96	3.7239e-06	58.713	7.0253e-05	2.9776e-05	6.9525e-06	712.21	3.4177e-07	3.072e-07	780.23	232.77	3.5202e-07	3.1736e-07	302.84	115.43	85.821	41.57	3.4134e-07	57.604	91.095	113.657	125.751	39.521	142.737	172.023	38.694	45.074	161.955	181.101	43.469	47.969	50.081	55.979	194.492	52.236	-8191	255	
1220.806	1	1	0	0	0.2125	0.15675	0.050729	0.18312	0.1423	0.024339	0.23607	0.16469	0.15665	0.28171	0.16351	0.2025	0.08358	0.027475	0.052202	0.23261	-2.0458	-3.0625	-3.575	-2.7729	-3.1854	-3.0583	-2.8417	-3.4771	-2.8292	-2.9271	-3.4417	-2.825	-3.3125	-3.3312	-2.6625	-3.5875	138.464	105.456	283.609	57.862	195.102	382.844	333.563	360.331	322.551	364.713	330.217	73.281	41.338	188.606	48.520	328.977	0.00076547	0.00040154	9.918e-05	728.49	4.7628e-06	3.3412e-06	799.8	236.99	4.8278e-06	2.5343e-06	310.79	118.64	87.668	42.034	4.5402e-06	58.665	7.1119e-05	2.8954e-05	7.1886e-06	712.15	3.3919e-07	2.9075e-07	780.52	232.42	3.665e-07	3.1067e-07	303.82	115.93	86.065	41.706	3.4654e-07	57.727	90.763	120.081	151.837	39.861	136.169	169.859	38.710	44.802	178.895	195.934	43.150	47.855	50.205	56.371	197.651	52.295	-8191	255	
1220.924	1	1	0	0	0.17031	0.1068	0.25744	0.06698	0.23422	0.27919	0.19408	0.14374	0.31637	0.28634	0.16367	0.1636	0.10977	0.14989	0.12586	0.098313	-2.3292	-2.8833	-3.3292	-3.0708	-2.9771	-3.2958	-2.8833	-3.3125	-3.1271	-2.8604	-3.5729	-2.7854	-3.2833	-3.5229	-2.6937	-3.5917	158.977	298.672	188.466	307.186	50.565	102.328	351.363	339.888	311.316	237.213	384.169	298.710	316.570	47.223	118.368	178.870	0.00078381	0.00033355	0.00011653	727.3	4.4134e-06	3.7835e-06	795.94	237	3.3148e-06	4.3202e-06	313.45	118.72	87.775	42.176	4.4119e-06	59.281	7.0514e-05	2.9436e-05	7.2649e-06	711.62	3.3533e-07	3.0363e-07	782.91	233.09	3.3406e-07	3.0554e-07	304.94	116.3	85.949	41.6	3.5307e-07	58.005	90.852	135.510	126.645	39.755	146.083	195.498	39.275	45.292	175.726	181.537	43.275	48.281	50.297	56.318	198.413	52.426	-8191	255	
1221.021	1	1	0	0	0.059095	0.078886	0.09311	0.033217	0.20153	0.073897	0.11131	0.18013	0.043162	0.20984	0.094233	0.43615	0.18875	0.31246	0.14726	0.32024	-2.8167	-2.5729	-3.4146	-2.8479	-3.0604	-3.2812	-2.7729	-3.5125	-3.1667	-2.8125	-3.5792	-3	-3.0333	-3.3812	-2.8438	-3.4562	190.548	81.776	34.527	364.591	298.461	229.654	338.166	354.816	90.107	209.333	93.652	365.616	374.946	325.057	46.762	214.659	0.00073069	0.00039561	7.7139e-05	731.2	4.9084e-06	2.8335e-06	800.33	238.64	3.8062e-06	2.6437e-06	310.4	117.99	87.376	41.965	4.383e-06	58.422	7.0472e-05	2.9994e-05	7.426e-06	713.24	3.4486e-07	2.797e-07	784.18	233.27	3.3505e-07	3.0621e-07	304.84	116.11	85.697	41.55	3.5589e-07	57.555	91.485	121.910	129.670	39.872	144.128	169.469	38.963	45.029	163.135	168.740	43.299	48.339	50.491	56.888	202.498	52.556	-8191	255	
1221.117	1	1	0	0	0.12348	0.11949	0.23317	0.12456	0.13025	0.19681	0.13755	0.25929	0.055616	0.10564	0.15123	0.28646	0.10249	0.08032	0.07688	0.16337	-2.875	-2.9375	-3.4229	-2.9792	-2.9417	-3.3583	-2.6229	-3.4583	-3.2167	-2.7375	-3.6437	-3.0667	-3.0125	-3.5292	-2.8458	-3.2313	170.034	378.657	230.441	66.912	43.634	173.170	312.673	341.992	315.137	78.169	95.512	333.132	280.677	359.095	156.306	379.165	0.00073755	0.00030379	0.00013164	726.83	4.3185e-06	4.7784e-06	801.03	238.11	4.6276e-06	2.6455e-06	311.6	118.33	87.943	41.842	4.6369e-06	58.722	7.0129e-05	2.8822e-05	7.2338e-06	710.85	3.4034e-07	2.8383e-07	781.71	233.02	3.5483e-07	3.0075e-07	303.07	115.47	85.643	41.32	3.4543e-07	57.457	90.121	109.459	136.255	39.638	169.305	163.232	38.402	44.562	163.381	181.177	42.779	47.534	50.018	56.186	207.767	52.249	-8191	255	
1221.213	1	1	0	0	0.27912	0.12955	0.077408	0.30138	0.3483	0.12617	0.32324	0.10751	0.068333	0.16093	0.11189	0.24363	0.097162	0.23521	0.17929	0.26925	-2.7604	-2.9271	-3.4125	-3.0062	-3.1604	-3.3521	-2.7229	-3.2292	-3.225	-2.6333	-3.5083	-3.1312	-2.9875	-3.4604	-2.8688	-3.1042	41.505	32.014	218.116	42.286	122.430	209.916	293.062	211.402	372.279	364.615	58.051	66.933	41.212	48.756	238.147	298.009	0.0007848	0.00037223	9.1393e-05	726.99	3.29e-06	4.2378e-06	794.93	236.01	4.5189e-06	2.5315e-06	307.55	118.16	87.315	41.965	3.3234e-06	59.016	6.8287e-05	2.9669e-05	7.7356e-06	710.65	3.3952e-07	2.8946e-07	779.93	231.99	3.4171e-07	3.0861e-07	303.03	115.93	85.685	41.597	3.4648e-07	57.92	94.171	106.126	136.343	39.986	150.624	156.500	39.102	44.963	160.498	198.176	43.457	48.196	50.259	56.243	189.121	52.215	-8191	255	
1221.333	1	1	0	0	0.16366	0.082437	0.014623	0.14034	0.056747	0.14296	0.16422	0.30974	0.14263	0.23978	0.17888	0.28954	0.1929	0.14941	0.068452	0.1046	-3.0583	-2.7104	-3.1188	-3.1167	-2.6542	-3.3104	-3.0312	-3.1479	-3.4104	-2.7625	-3.2458	-3.3583	-2.8312	-3.3396	-2.9417	-3.0979	76.908	65.885	121.980	383.449	120.278	133.887	313.180	381.677	321.145	313.558	83.606	373.446	348.821	299.733	229.149	351.057	0.00080477	0.00041878	0.00012085	727.92	4.3122e-06	3.5385e-06	798.96	236.22	3.7536e-06	4.0465e-06	313.66	119.47	87.884	42.18	4.5813e-06	59.29	7.0933e-05	3.0486e-05	7.6649e-06	710.33	3.5075e-07	3.0641e-07	783.23	232.41	3.4557e-07	2.9741e-07	304.66	116.61	85.974	41.595	3.4289e-07	58.186	88.872	125.657	135.024	39.853	150.004	159.449	38.750	45.112	180.501	169.277	43.179	47.935	49.875	56.246	206.953	52.029	-8191	255	
1221.405	1	1	0	0	0.29283	0.038857	0.31221	0.17628	0.16317	0.049792	0.21387	0.068394	0.20142	0.22266	0.16836	0.034519	0.087545	0.25031	0.39564	0.24124	-3.0229	-2.8042	-3.1958	-3.2208	-2.9313	-3.4396	-3.1708	-2.925	-3.4313	-2.9188	-3.1063	-3.4313	-2.8312	-3.4062	-2.8729	-3.0708	136.550	163.363	50.029	306.238	51.118	89.195	338.501	30.233	244.160	327.883	104.593	53.926	266.313	125.760	125.708	346.496	0.00079667	0.00030026	0.00011133	730.45	4.7461e-06	3.1469e-06	799.45	236.87	4.2985e-06	3.1672e-06	312.34	118.93	87.488	41.867	4.2645e-06	58.562	7.1962e-05	2.9918e-05	8.2783e-06	711.53	3.5483e-07	2.8372e-07	784.64	232.68	3.47e-07	3.0827e-07	304.65	116.08	85.589	41.478	3.4455e-07	57.547	88.817	122.028	123.152	39.598	147.642	160.461	39.078	44.931	171.957	190.737	42.796	47.842	50.229	56.247	208.215	52.140	-8191	255	
1221.501	1	1	0	0	0.20653	0.097564	0.2415	0.17688	0.11898	0.10176	0.17169	0.10733	0.27215	0.11781	0.15603	0.059605	0.088182	0.1968	0.28301	0.12567	-3.0729	-2.6562	-3.1437	-3.4667	-2.6979	-3.5854	-3.1104	-3.0083	-3.6021	-2.6542	-3.1479	-3.4167	-2.6396	-3.4729	-3.1208	-2.8833	269.645	106.800	202.445	62.318	361.908	221.858	257.757	317.868	84.048	185.944	317.881	384.958	57.637	29.802	337.787	264.626	0.0007695	0.00043257	8.3721e-05	727.48	2.9289e-06	4.0731e-06	792.76	235.8	3.1264e-06	4.5123e-06	310.3	117.73	87.154	41.677	4.3231e-06	58.298	7.0443e-05	2.8096e-05	7.5264e-06	710.93	3.3566e-07	2.8528e-07	779.61	231.71	3.3081e-07	3.1925e-07	303.67	115.44	85.333	41.238	3.1119e-07	57.276	89.791	112.819	119.963	39.827	144.830	167.225	39.114	45.026	187.963	183.992	43.345	48.024	50.158	56.194	183.428	52.360	-8191	255	
1221.597	1	1	0	0	0.13829	0.33834	0.24405	0.32022	0.08112	0.27281	0.092688	0.25872	0.14062	0.15675	0.2143	0.21509	0.29499	0.31613	0.082798	0.18521	-2.9021	-2.8542	-3.1333	-3.2729	-2.6708	-3.3458	-3.1333	-2.8833	-3.3417	-2.7875	-2.8979	-3.4646	-2.8937	-3.1104	-3.0792	-2.9542	167.359	254.707	31.014	372.275	197.300	190.470	39.290	56.822	136.604	231.061	313.244	51.516	376.920	269.340	138.694	345.373	0.00077759	0.00037695	9.051e-05	723.56	4.7112e-06	4.0314e-06	793.62	235.57	4.5706e-06	3.1382e-06	310.54	118.4	87.165	41.652	4.583e-06	58.532	7.0067e-05	2.7838e-05	7.4218e-06	710.35	3.4982e-07	2.9214e-07	779.95	231.72	3.4204e-07	3.0521e-07	303.1	115.62	85.196	41.117	3.4554e-07	57.334	89.438	115.094	153.121	39.844	147.866	186.096	39.079	45.159	175.291	184.740	42.991	48.249	50.378	56.316	211.450	52.430	-8191	255	
1221.716	1	1	0	0	0.1846	0.19078	0.29766	0.069124	0.10486	0.24746	0.067102	0.10854	0.17861	0.1337	0.11645	0.085463	0.090413	0.069978	0.053508	0.091987	-3.1979	-2.9833	-2.8792	-3.4896	-2.7375	-3.2125	-3.4	-2.8563	-3.4437	-2.9729	-2.9208	-3.5771	-2.9417	-3.2062	-3.0396	-2.8354	71.754	98.817	39.463	126.063	171.733	232.548	302.350	65.532	32.597	73.289	266.930	90.068	132.413	69.700	264.377	27.329	0.00081895	0.00036602	0.00010234	728.34	5.4252e-06	2.7751e-06	801.32	235.62	3.3873e-06	3.1266e-06	311.7	118.44	86.921	41.744	5.002e-06	58.656	7.2528e-05	2.9289e-05	7.6451e-06	711.55	3.5841e-07	2.8606e-07	784.6	231.74	3.2822e-07	2.8788e-07	304.46	116.09	84.978	41.04	3.456e-07	57.503	87.643	127.440	147.098	39.644	145.952	184.176	38.831	44.937	182.335	186.470	43.082	47.746	49.529	55.838	209.951	52.317	-8191	255	
1221.812	1	1	0	0	0.10766	0.2857	0.079233	0.10273	0.23245	0.14206	0.17533	0.14723	0.10121	0.083646	0.33241	0.24301	0.22059	0.24363	0.14773	0.14277	-3.0083	-2.9	-2.7083	-3.3521	-2.8958	-3.0896	-3.4125	-2.7687	-3.3	-2.975	-2.8312	-3.4604	-2.8896	-3.175	-3.1125	-2.8104	339.419	226.079	314.964	343.732	204.550	356.571	304.017	339.864	340.474	215.280	377.881	53.472	337.300	67.972	151.205	343.241	0.0007711	0.00031891	0.00011962	730.69	5.4447e-06	3.5531e-06	808.99	237.03	4.7898e-06	2.8968e-06	312.08	118.47	87.084	41.648	4.4155e-06	58.616	7.2033e-05	2.7604e-05	7.966e-06	712.07	3.2889e-07	2.9102e-07	786.94	231.51	3.5604e-07	2.8687e-07	303.93	116	84.902	41.048	3.311e-07	57.269	90.638	103.100	139.006	39.566	157.144	184.065	38.543	44.743	174.319	159.868	42.728	47.441	49.948	55.753	195.252	52.271	-8191	255	
1221.909	1	1	0	0	0.09548	0.24738	0.075084	0.068733	0.17577	0.20668	0.14933	0.063032	0.2295	0.1445	0.14494	0.050124	0.15584	0.17456	0.051335	0.1371	-2.8354	-3.0833	-2.6479	-3.4229	-2.6896	-3.0958	-3.5438	-2.8271	-3.1792	-3.325	-2.8187	-3.4042	-2.9958	-3.1333	-3.5479	-2.7958	116.364	190.253	100.819	333.608	217.267	67.711	39.240	253.441	32.388	307.440	354.122	259.703	60.816	376.856	365.798	281.127	0.00080064	0.00031424	9.9236e-05	730.24	5.1952e-06	4.6341e-06	802.77	235.23	3.6116e-06	4.6365e-06	312.13	118.19	87.12	41.598	3.6689e-06	58.766	7.2033e-05	2.6346e-05	8.3631e-06	710.17	3.4469e-07	3.1997e-07	784.16	231.03	3.5483e-07	2.9986e-07	303.2	115.17	84.774	40.913	3.4914e-07	57.216	90.502	98.540	128.846	39.361	154.501	171.063	38.838	44.676	178.582	180.745	42.830	47.469	49.711	55.794	205.257	51.894	-8191	255	
1222.005	1	1	0	0	0.043391	0.13614	0.069174	0.15695	0.1783	0.16639	0.02222	0.20244	0.1765	0.14092	0.17256	0.15657	0.080661	0.15287	0.28507	0.21613	-2.7771	-3.2938	-2.8625	-3.7083	-2.8979	-2.7729	-3.7417	-3.0375	-3.0854	-3.1542	-3.1437	-3.4146	-3.0042	-2.75	-3.4229	-2.7938	303.126	124.159	299.783	311.382	89.858	110.198	248.311	317.124	134.411	173.411	344.680	265.986	215.693	335.962	35.613	292.672	0.00078147	0.00036471	0.00013211	732.57	3.4353e-06	3.3897e-06	806.85	234.63	4.9682e-06	2.6546e-06	312.44	119.09	87.304	42.131	3.9348e-06	59.308	7.0334e-05	2.7198e-05	8.4691e-06	710.21	3.1776e-07	3.2169e-07	784.4	230.64	3.7008e-07	2.8999e-07	303.86	115.98	85.081	41.345	3.4128e-07	57.888	90.651	100.402	131.092	39.313	146.986	173.760	38.755	44.645	172.000	195.898	43.127	47.396	49.785	55.872	192.897	51.995	-8191	255	
1222.101	1	1	0	0	0.18358	0.23998	0.15125	0.047219	0.24476	0.34009	0.083194	0.068748	0.13991	0.14626	0.28737	0.25123	0.20979	0.31701	0.14945	0.14384	-2.8604	-3.3063	-2.7812	-3.3021	-3.1646	-2.9125	-3.4542	-2.8208	-2.9938	-3.5104	-2.7792	-3.3292	-3.3479	-2.975	-3.4813	-2.9958	319.987	227.495	33.646	290.640	54.747	103.021	381.866	344.867	265.927	66.669	279.135	149.071	123.331	357.099	91.334	371.181	0.00075876	0.000368	9.884e-05	728.27	5.2201e-06	3.906e-06	805.98	236.44	3.2664e-06	3.3188e-06	313.34	119.73	87.526	41.929	3.6721e-06	59.436	7.2133e-05	2.7432e-05	8.479e-06	709.89	3.1704e-07	3.1216e-07	786.86	231.61	3.3813e-07	2.9306e-07	305.92	116.85	85.557	41.299	3.3099e-07	58.183	89.931	131.830	108.572	39.571	128.969	188.055	38.626	44.768	172.095	158.662	42.503	47.966	49.902	55.823	191.246	52.135	-8191	255	
1222.197	1	1	0	0	0.24268	0.098961	0.28006	0.18296	0.054624	0.077257	0.070393	0.18333	0.033495	0.11934	0.15896	0.26405	0.043175	0.3874	0.1661	0.30728	-2.4708	-3.5	-2.7188	-3.3063	-3.1	-2.7875	-3.5	-3.0187	-2.9875	-3.2729	-3.0687	-3.3667	-3.3771	-2.6979	-3.4771	-3.2375	266.004	225.402	308.725	285.328	366.459	349.468	151.051	286.794	215.898	251.928	307.469	329.954	135.535	345.400	103.132	284.285	0.00082137	0.00038242	9.0555e-05	731.28	4.2558e-06	4.3694e-06	806.26	236.85	3.4365e-06	2.5264e-06	315.11	120.24	87.804	41.863	5.2509e-06	59.323	7.3194e-05	2.766e-05	7.6027e-06	711.33	3.2211e-07	3.2041e-07	786.95	231.79	3.7912e-07	2.8726e-07	306.15	116.84	85.546	41.268	3.4787e-07	57.781	93.754	124.682	140.551	39.540	135.945	182.054	38.874	44.718	176.261	220.247	42.868	47.690	50.038	55.750	200.628	52.175	-8191	255	
1222.318	1	1	0	0	0.081863	0.16743	0.17998	0.20578	0.016805	0.035721	0.087032	0.23202	0.20787	0.1604	0.27504	0.32056	0.22888	0.05001	0.23426	0.075238	-2.575	-3.2854	-2.775	-3.0521	-3.1667	-2.7792	-3.4667	-2.9979	-2.8625	-3.5021	-2.7375	-2.9271	-3.4583	-2.7896	-3.3	-3.1146	277.272	339.596	362.986	373.420	367.555	378.338	259.043	60.158	335.560	57.823	327.693	39.984	110.953	369.664	279.763	229.384	0.00075192	0.00039225	9.9507e-05	729.47	4.6681e-06	3.3668e-06	803.32	236.94	3.3977e-06	2.9844e-06	315.73	119.22	87.267	41.725	3.0402e-06	58.675	7.2161e-05	2.8726e-05	7.443e-06	711.38	3.0762e-07	3.1668e-07	786.05	231.86	3.5681e-07	2.7567e-07	305.42	116.09	85.333	41.085	3.3824e-07	57.434	87.990	123.674	146.597	39.532	150.765	184.874	38.445	44.776	181.004	175.142	42.862	47.703	49.788	55.856	194.099	52.318	-8191	255	
1222.414	1	1	0	0	0.24294	0.0495	0.04851	0.088778	0.15095	0.14625	0.17959	0.14642	0.1704	0.1555	0.22201	0.19761	0.082437	0.23826	0.15694	0.33805	-2.2458	-3.2875	-2.7313	-3.1125	-3.125	-2.6042	-3.3542	-3.1625	-2.7687	-3.6208	-2.8937	-2.9188	-3.3667	-2.8021	-3.2917	-3.3042	338.512	271.085	142.624	266.530	302.674	287.929	29.616	359.238	81.224	338.588	59.214	318.116	151.596	31.640	196.263	327.796	0.00075413	0.00029692	0.0001179	736.78	3.6051e-06	4.3022e-06	808.53	236.74	2.832e-06	3.385e-06	314.26	120.64	88.173	41.858	4.4365e-06	59.563	7.1995e-05	2.9441e-05	7.5207e-06	713.47	3.1881e-07	3.2437e-07	790.23	232.18	3.719e-07	2.7473e-07	306.58	117.16	85.878	41.358	3.389e-07	58.185	89.778	120.793	121.609	39.406	142.272	174.687	38.575	44.829	171.071	160.629	42.831	47.441	50.039	56.009	200.098	52.384	-8191	255	
1222.510	1	1	0	0	0.15265	0.13989	0.026856	0.2699	0.13709	0.14257	0.132	0.010823	0.1252	0.16693	0.14862	0.085944	0.21617	0.23666	0.041602	0.15733	-2.2583	-3.3208	-2.9896	-2.9417	-3.6208	-2.8146	-3.2125	-3.1729	-2.7083	-3.3646	-3.0896	-2.9208	-3.6042	-2.8271	-3.1979	-3.3937	101.383	249.242	88.159	296.645	319.738	72.163	41.914	90.198	200.021	112.129	295.090	314.440	363.318	380.424	288.235	386.275	0.00076057	0.00033049	0.00014173	733.18	4.7637e-06	3.3556e-06	815.91	238.56	3.7265e-06	3.0381e-06	320.76	121.2	88.731	42.297	5.0303e-06	60.224	7.2338e-05	2.8315e-05	8.0281e-06	713.43	3.372e-07	3.0273e-07	794.9	232.73	3.5455e-07	2.9362e-07	310.23	118.35	86.383	41.662	3.3829e-07	58.895	91.088	117.636	123.809	39.431	146.177	184.477	38.648	44.776	168.867	187.409	42.653	47.769	49.835	55.783	193.401	52.372	-8191	255	
1222.629	1	1	0	0	0.1746	0.17525	0.20472	0.22873	0.13719	0.16831	0.19158	0.11519	0.16155	0.12452	0.16935	0.097147	0.10241	0.19256	0.11578	0.31486	-2.1854	-3.1792	-3.0292	-3.1208	-3.5354	-2.8708	-3.1979	-3.4021	-2.8146	-3.2792	-3.0521	-2.9021	-3.4333	-2.9833	-2.9208	-3.4333	282.987	300.063	364.689	361.535	224.762	119.904	292.971	119.628	289.172	260.951	282.724	334.309	373.840	82.625	242.230	320.175	0.00081123	0.00045275	8.5647e-05	729.21	4.491e-06	4.0187e-06	816.54	239.46	3.656e-06	3.4569e-06	321.19	122.75	89.51	42.66	5.484e-06	60.116	7.3842e-05	2.9233e-05	7.9349e-06	713.24	3.3483e-07	3.1651e-07	797.89	234.5	3.4943e-07	3.1546e-07	311.87	119.55	87.252	42.035	3.498e-07	58.786	89.258	120.035	136.843	39.712	154.625	186.666	38.354	44.730	187.052	188.340	43.103	47.489	49.951	55.996	191.161	51.967	-8191	255	
1222.702	1	1	0	0	0.12048	0.2165	0.14826	0.35662	0.20722	0.15922	0.39647	0.13736	0.26426	0.11993	0.28144	0.14198	0.11145	0.25713	0.020166	0.069495	-2.3833	-3.1771	-3.2021	-2.8021	-3.3333	-2.9375	-3.0583	-3.6875	-2.7125	-3.1	-3.2771	-2.7021	-3.3979	-3.1875	-2.9146	-3.3667	337.695	47.219	274.041	372.877	93.679	41.918	324.316	367.442	323.358	385.966	359.721	346.872	375.156	231.714	205.640	106.287	0.00079918	0.00038243	8.3217e-05	738.29	3.2396e-06	4.7176e-06	821.42	241.38	4.3405e-06	3.7194e-06	327.76	122.83	89.75	42.618	4.127e-06	60.315	7.3599e-05	2.7767e-05	7.7978e-06	717.82	3.1137e-07	3.0586e-07	801.7	236.76	3.7973e-07	3.0287e-07	316.91	120.04	87.921	42.103	3.6275e-07	59.018	87.881	141.272	121.518	39.526	138.058	162.881	38.814	44.664	168.799	195.492	42.807	47.372	49.498	55.872	196.364	51.965	-8191	255	
1222.797	1	1	0	0	0.14589	0.18953	0.12295	0.21648	0.043143	0.075134	0.38388	0.23638	0.12617	0.16798	0.074442	0.12693	0.020094	0.067355	0.20134	0.031378	-2.2583	-3.0312	-3.225	-2.6708	-3.3333	-2.9479	-2.9458	-3.4667	-2.8396	-3.0146	-3.4917	-2.8146	-3.3833	-3.0854	-2.9021	-3.5042	176.361	133.318	178.591	256.641	173.150	254.844	39.731	292.743	81.437	258.196	32.757	361.175	93.994	291.238	124.843	373.042	0.00077105	0.00043237	0.0001028	740.74	4.9638e-06	3.8651e-06	829.2	243.79	4.072e-06	3.8425e-06	329.71	124.57	90.393	42.882	3.7915e-06	61.074	7.2714e-05	2.9375e-05	7.7101e-06	721.37	3.3329e-07	2.9214e-07	809.53	239.19	3.583e-07	2.9044e-07	320.66	121.18	88.485	42.343	3.5307e-07	59.492	87.196	121.022	136.117	39.519	147.242	169.308	38.518	44.667	182.641	190.761	43.239	47.879	49.661	55.802	206.338	51.948	-8191	255	
1222.893	1	1	0	0	0.24899	0.090974	0.1252	0.11623	0.22291	0.05912	0.13245	0.1231	0.16457	0.036462	0.068868	0.3544	0.17001	0.1263	0.13718	0.23311	-2.3646	-2.9375	-3.1854	-2.6729	-3.2729	-3.0979	-3.0521	-3.4792	-2.9604	-3.0208	-3.4917	-2.7562	-3.2396	-3.2771	-2.8854	-3.4104	342.282	94.378	277.089	169.731	380.362	74.428	353.566	363.784	63.865	95.154	294.472	343.072	304.685	92.226	149.791	279.624	0.00086337	0.00031262	0.00013363	744.62	4.3174e-06	3.2755e-06	834.76	246.28	4.3644e-06	3.6651e-06	333.15	125.3	91.324	43.395	5.1323e-06	61.599	7.7093e-05	2.941e-05	7.8698e-06	724.58	3.2955e-07	2.8601e-07	814.11	240.71	3.6204e-07	3.1992e-07	324.56	122.08	89.221	42.618	3.6363e-07	60.286	88.321	125.346	136.127	39.470	137.737	186.159	38.791	44.981	164.429	174.252	42.936	47.458	49.826	55.670	205.008	52.217	-8191	255	
1223.014	1	1	0	0	0.2365	0.12056	0.19424	0.11728	0.15423	0.037048	0.25138	0.19004	0.17444	0.19449	0.081557	0.22407	0.24286	0.083873	0.17322	0.058678	-2.6562	-2.7438	-3.4938	-2.9625	-3.2896	-3.3083	-2.9542	-3.5083	-3.1208	-2.9688	-3.6833	-2.825	-3.1625	-3.2958	-2.7771	-3.6	356.005	333.925	121.293	130.281	375.377	372.574	363.897	336.261	287.516	49.657	81.984	285.363	225.023	59.478	358.659	257.896	0.00077823	0.00035425	0.0001194	747.82	5.3546e-06	5.4908e-06	838.72	247.63	5.2611e-06	4.2288e-06	334.48	125.03	91.275	43.107	4.4069e-06	60.759	7.2666e-05	2.9213e-05	7.7949e-06	725.93	3.1897e-07	2.9978e-07	816.54	242.15	3.3791e-07	3.1084e-07	325.21	121.93	89.133	42.503	3.4195e-07	59.466	92.911	124.123	124.319	39.383	148.402	181.122	38.362	44.730	160.259	171.583	42.907	47.613	49.870	55.846	194.628	52.061	-8191	255	
1223.110	1	1	0	0	0.07545	0.055306	0.22834	0.1473	0.10637	0.1143	0.35449	0.24586	0.43704	0.1411	0.089521	0.14816	0.24312	0.14608	0.23913	0.2941	-2.6667	-2.8604	-3.3458	-2.9417	-2.9146	-3.5292	-2.8896	-3.5958	-3.3042	-2.8208	-3.3292	-2.85	-3.1292	-3.4979	-2.7875	-3.5146	293.169	381.452	195.253	102.578	207.625	321.475	319.888	368.196	376.743	143.763	327.840	295.567	68.823	27.696	178.864	304.548	0.00079534	0.00043278	8.7374e-05	743.4	3.9549e-06	3.3247e-06	830.36	244.79	5.0055e-06	2.3723e-06	329.99	123.28	90.285	42.759	4.0779e-06	60.398	7.1281e-05	2.8675e-05	7.5334e-06	722.42	3.3384e-07	2.9075e-07	808.67	240.05	3.4915e-07	2.9506e-07	322.39	120.8	88.265	42.088	3.3177e-07	58.878	89.350	103.655	123.813	39.386	145.750	179.088	38.606	44.745	163.320	195.605	43.283	47.690	49.874	55.706	192.645	51.999	-8191	255	
1223.206	1	1	0	0	0.10914	0.23344	0.16812	0.20855	0.096073	0.15527	0.16298	0.13355	0.12805	0.23035	0.0099365	0.23089	0.25065	0.18037	0.1923	0.18347	-2.7812	-2.8125	-3.0917	-2.8583	-2.9583	-3.2042	-2.7458	-3.3854	-3.2188	-2.9104	-3.5396	-3.0687	-3.05	-3.375	-2.7146	-3.0667	358.313	136.214	173.379	147.057	45.919	330.510	275.205	320.347	284.959	70.033	297.781	57.117	367.502	96.340	357.941	373.172	0.00082977	0.00039829	9.235e-05	739.63	4.273e-06	4.9053e-06	824.55	242.63	4.8346e-06	2.8811e-06	327.93	123.43	89.643	42.042	4.4015e-06	59.696	7.337e-05	2.9563e-05	8.0705e-06	720.02	3.3252e-07	2.8227e-07	807.64	237.89	3.4006e-07	2.9222e-07	319.89	120.04	87.404	41.493	3.4167e-07	58.516	88.683	127.355	125.673	39.923	166.672	169.971	38.774	44.486	174.904	175.850	42.732	47.781	49.900	55.895	194.801	52.385	-8191	255	
1223.277	1	1	0	0	0.09126	0.18463	0.21903	0.21993	0.21056	0.11342	0.31119	0.2381	0.070635	0.22817	0.10867	0.035969	0.18096	0.1125	0.11406	0.21844	-2.9938	-2.9333	-3.2479	-2.9292	-3.0104	-3.4979	-2.8812	-3.1667	-3.1354	-2.6	-3.3458	-3.1417	-2.9792	-3.4729	-2.9771	-3.1063	139.956	138.188	306.799	347.878	250.168	95.068	328.003	373.601	364.279	83.705	64.826	88.136	36.717	151.684	180.559	233.876	0.00076013	0.00047961	0.00014046	736.17	3.0104e-06	2.6157e-06	824.57	241.78	3.9124e-06	3.6828e-06	329.04	123.61	89.387	41.922	4.9615e-06	59.902	7.0871e-05	2.8837e-05	7.6098e-06	720.22	3.2889e-07	2.7775e-07	808.67	237.61	3.3483e-07	2.9947e-07	320.09	120.15	87.197	41.344	3.2336e-07	58.586	90.408	115.681	115.645	39.690	161.472	164.948	39.004	44.831	182.840	193.306	43.286	47.484	49.827	55.938	205.610	52.124	-8191	255	
1223.398	1	1	0	0	0.32406	0.1538	0.23937	0.070552	0.3084	0.092418	0.43588	0.30004	0.34099	0.1381	0.30629	0.13707	0.21715	0.31457	0.22028	0.1689	-2.8146	-2.55	-3.3833	-3.1854	-2.7646	-3.4562	-3.0917	-3.1562	-3.6063	-2.8375	-3.3438	-3.125	-2.6979	-3.5083	-2.9417	-3.1792	230.927	51.563	165.157	339.781	343.548	94.549	355.760	344.779	197.111	295.777	298.450	306.564	225.736	136.759	94.622	276.083	0.00078076	0.00045458	0.00011328	743.74	5.1443e-06	2.9603e-06	836.28	243.59	3.4386e-06	2.9951e-06	327.83	122.56	88.521	41.457	4.1176e-06	58.603	7.1643e-05	2.9334e-05	7.7582e-06	722.66	3.3599e-07	2.792e-07	812.57	237.39	3.3389e-07	3.0147e-07	319.29	118.77	86.299	40.716	3.1323e-07	57.421	88.274	121.481	151.147	39.513	147.605	188.703	38.660	44.477	190.001	191.058	42.579	47.459	49.418	55.815	204.458	52.085	-8191	255	
1223.494	1	1	0	0	0.1447	0.18449	0.098051	0.034408	0.13891	0.15535	0.44111	0.014105	0.2595	0.091899	0.093685	0.15725	0.096264	0.21774	0.063237	0.068113	-2.8354	-2.5604	-3.0792	-3.3583	-2.8375	-3.4313	-3.0375	-2.9042	-3.3688	-2.7375	-3.3958	-3.4667	-2.7812	-3.3292	-2.9062	-3.1208	147.612	48.241	299.141	171.390	78.896	378.553	313.719	351.973	211.013	343.968	384.809	310.108	165.469	313.390	185.986	83.231	0.00077009	0.00044637	8.6788e-05	740.78	4.8122e-06	4.0601e-06	826.46	240.43	4.2932e-06	3.8746e-06	323.64	119.83	87.506	40.751	4.0719e-06	57.46	6.8111e-05	2.8477e-05	7.3342e-06	719.61	3.3192e-07	2.7747e-07	807.66	236.03	3.1378e-07	2.9172e-07	316.53	117.04	85.368	40.068	3.1517e-07	56.432	90.126	132.173	139.621	39.424	145.236	157.095	39.092	44.756	172.365	183.283	42.826	47.711	49.376	56.283	203.602	52.210	-8191	255	
1223.590	1	1	0	0	0.1813	0.10122	0.098939	0.16897	0.06627	0.1333	0.13378	0.20066	0.068784	0.18196	0.1763	0.29383	0.2249	0.14647	0.25947	0.22768	-2.9604	-2.8792	-3.3458	-3.3896	-2.8042	-3.6417	-3.0687	-2.9188	-3.3771	-2.9271	-3.1979	-3.3792	-2.6396	-3.4229	-3.0563	-2.8833	61.987	97.455	253.542	69.736	154.355	385.299	314.247	369.683	188.651	385.617	134.172	334.808	38.757	357.014	289.213	356.753	0.00077328	0.00042407	0.00010907	730.65	3.9342e-06	4.0607e-06	823.88	239.19	4.5223e-06	2.9256e-06	323.72	119.73	86.071	39.99	5.0836e-06	57.258	6.9248e-05	2.8573e-05	7.8826e-06	716.72	3.3225e-07	2.8595e-07	805.99	234.35	3.3802e-07	2.8988e-07	315.27	116.61	84.285	39.559	3.1567e-07	56.296	87.449	112.711	124.447	39.741	147.668	160.609	38.732	44.727	172.945	185.695	42.626	47.896	49.923	56.064	185.444	52.069	-8191	255	
1223.711	1	1	0	0	0.15224	0.18001	0.28323	0.17317	0.10489	0.48192	0.30596	0.17932	0.043548	0.25976	0.14625	0.083412	0.17644	0.040717	0.11779	0.12958	-3.1854	-2.8167	-3.0625	-3.3688	-2.7938	-3.2396	-3.3917	-2.7771	-3.3021	-2.8771	-3.0979	-3.4062	-2.8271	-3.1875	-3.25	-2.875	145.664	292.625	267.621	289.524	347.101	224.119	277.625	261.384	371.095	291.360	48.515	28.579	80.917	53.083	346.161	302.336	0.00077126	0.0003646	8.781e-05	732.79	3.9874e-06	3.5998e-06	826.65	238.49	3.4757e-06	3.0812e-06	325.68	120.48	86.239	40.14	5.2616e-06	57.633	6.6745e-05	2.589e-05	7.3031e-06	717.21	3.3643e-07	2.7686e-07	809.62	233.45	3.361e-07	2.8392e-07	315.68	117.02	84.218	39.644	3.3525e-07	56.546	90.252	117.557	114.578	39.650	161.049	168.033	38.908	44.690	171.450	198.516	42.829	47.669	49.719	55.943	203.576	52.141	-8191	255	
1223.805	1	1	0	0	0.21093	0.15814	0.16436	0.14535	0.22146	0.039497	0.20037	0.25657	0.12197	0.10592	0.21601	0.20715	0.23083	0.12703	0.20819	0.069854	-3	-2.8937	-2.725	-3.4458	-2.9688	-3.25	-3.4708	-2.7958	-3.2917	-3.0917	-3.0271	-3.3521	-2.7	-3.1437	-3.2042	-3.0771	269.666	198.078	125.109	298.201	159.010	126.741	350.939	361.121	347.327	381.157	279.473	207.522	29.778	36.835	193.504	349.237	0.00076914	0.00028515	0.00013808	735.03	3.8687e-06	4.5035e-06	827.56	237.59	4.138e-06	2.5761e-06	322.46	118.67	85.592	39.994	4.8132e-06	56.824	6.9648e-05	2.6032e-05	7.8797e-06	717	3.1038e-07	2.898e-07	808.59	233.4	3.5102e-07	2.8604e-07	313.88	115.83	83.606	39.353	3.1556e-07	55.688	90.002	136.143	123.207	39.607	158.545	180.109	38.917	44.446	168.654	199.443	43.224	47.974	50.135	55.769	212.639	52.187	-8191	255	
1223.902	1	1	0	0	0.067363	0.042251	0.23317	0.22925	0.15357	0.23574	0.31828	0.15256	0.15284	0.2274	0.33902	0.26303	0.21426	0.33557	0.13803	0.28926	-2.8917	-3.0333	-2.6396	-3.5583	-2.8833	-3.1813	-3.3312	-2.6813	-3.2583	-3.2292	-3.0354	-3.7083	-2.9	-3.1646	-3.2208	-2.9625	168.765	142.795	263.254	343.635	89.253	160.218	61.478	277.027	286.081	153.560	58.884	303.167	383.202	380.728	167.371	31.813	0.00075492	0.00044293	0.00010433	736.95	4.0595e-06	5.051e-06	820.55	237.96	3.6922e-06	3.6279e-06	321.47	118.69	85.482	39.761	5.382e-06	56.979	6.8015e-05	2.7127e-05	7.9292e-06	716.24	2.9314e-07	3.0112e-07	802.45	232.93	3.2767e-07	2.7651e-07	312.58	115.45	83.617	39.191	3.3387e-07	55.64	92.763	123.520	137.397	39.505	152.095	171.295	38.909	44.610	185.480	163.012	42.720	47.957	49.670	55.844	211.654	52.248	-8191	255	
1223.998	1	1	0	0	0.28272	0.14547	0.14082	0.033277	0.28305	0.072989	0.41825	0.31918	0.13191	0.14227	0.068559	0.29795	0.18524	0.17271	0.10482	0.086874	-3.0354	-3.0917	-2.6396	-3.3792	-2.9521	-2.9646	-3.3958	-2.8729	-3.2646	-3.2083	-2.6583	-3.5375	-3.0146	-3.0521	-3.3146	-2.8958	263.159	235.161	196.654	79.764	321.909	179.939	360.752	70.891	166.363	282.144	335.168	368.150	309.613	363.708	145.691	372.366	0.00072446	0.00034799	0.00011284	732.66	5.6629e-06	2.9259e-06	823.28	238.08	4.4817e-06	4.7271e-06	321.98	118.76	85.532	40.051	4.5152e-06	57.018	6.6045e-05	2.7138e-05	8.2811e-06	715.41	3.2608e-07	2.9236e-07	804.19	232.79	3.5047e-07	2.9211e-07	313.02	115.81	83.703	39.346	3.0593e-07	56.015	85.665	109.789	141.243	39.342	144.189	171.174	38.900	44.935	181.172	180.535	42.975	47.681	49.870	55.898	203.607	52.283	-8191	255	
1224.094	1	1	0	0	0.24894	0.19213	0.11163	0.17777	0.040063	0.15065	0.079428	0.21515	0.20872	0.15188	0.048818	0.23817	0.13344	0.033318	0.087292	0.11146	-2.8125	-3.3604	-2.6792	-3.4917	-3.1708	-2.775	-3.5125	-2.9708	-3.1792	-3.3625	-2.9417	-3.575	-3.1083	-2.8667	-3.7229	-2.9417	371.214	141.130	264.280	361.434	127.416	376.540	141.437	223.373	251.522	181.903	44.630	385.421	213.762	130.944	321.900	348.151	0.00078159	0.00044445	9.8487e-05	731.44	4.6798e-06	3.8023e-06	828.75	237.79	4.0491e-06	3.1715e-06	321.99	119.27	85.921	39.506	4.4536e-06	57.096	6.8201e-05	2.629e-05	7.4161e-06	715.68	3.2927e-07	3.0067e-07	808.02	233.14	3.394e-07	2.7172e-07	313.98	116.05	83.7	39.095	3.269e-07	55.916	91.305	115.914	128.861	39.478	153.769	173.582	39.082	44.659	176.043	172.641	42.835	47.901	49.976	55.942	168.963	52.164	-8191	255	
1224.190	1	1	0	0	0.018585	0.064196	0.10236	0.011343	0.19375	0.067127	0.22473	0.20903	0.247	0.27781	0.28907	0.13679	0.30475	0.34951	0.094492	0.21277	-2.8021	-3.5104	-2.6167	-3.3667	-3.1125	-2.9979	-3.6708	-3.125	-2.8958	-3.3354	-2.9729	-3.3958	-3.2104	-2.6813	-3.4292	-3.0625	75.039	186.481	29.642	166.166	183.966	70.798	42.008	381.138	152.355	236.528	307.279	347.645	323.620	38.390	173.953	385.189	0.00077824	0.00032308	0.00010374	735.4	3.7651e-06	3.9948e-06	827.48	237.11	3.0989e-06	3.2201e-06	322.06	118.73	85.584	39.522	4.462e-06	56.659	6.9853e-05	2.5758e-05	7.5561e-06	716.11	3.0889e-07	2.9721e-07	807.56	232.44	3.4601e-07	2.769e-07	313.54	115.53	83.372	38.943	3.1102e-07	55.208	87.876	131.947	120.098	39.313	154.941	170.797	38.584	44.426	173.007	187.110	42.858	47.699	49.924	55.579	184.179	51.948	-8191	255	
1224.311	1	1	0	0	0.24394	0.098459	0.21332	0.21652	0.14691	0.09052	0.22496	0.19193	0.24832	0.16341	0.049756	0.27633	0.18989	0.13508	0.053439	0.12791	-2.5062	-3.4729	-2.8104	-3.3125	-3.0833	-2.7167	-3.6146	-3.1229	-2.9792	-3.4146	-2.75	-3.325	-3.3646	-2.7396	-3.425	-3.0563	327.044	62.071	137.982	222.316	318.205	114.716	235.312	329.266	124.428	302.610	363.629	376.975	377.710	148.942	326.844	382.560	0.00074184	0.00036131	0.00011431	734.93	4.0643e-06	3.3517e-06	821.17	237.48	3.1681e-06	3.7433e-06	320.21	118.4	85.256	39.553	5.1543e-06	56.133	6.7644e-05	2.6793e-05	7.4331e-06	714.08	3.1567e-07	2.9175e-07	801.75	231.97	3.41e-07	2.8191e-07	311.28	114.95	83.359	38.956	3.1838e-07	55.262	90.476	124.917	115.526	39.232	152.018	147.337	38.476	44.558	166.642	182.565	42.634	47.288	49.901	55.982	192.760	52.460	-8191	255	
1224.407	1	1	0	0	0.14036	0.21777	0.087158	0.24147	0.19433	0.30768	0.14104	0.069845	0.13482	0.055673	0.093629	0.17541	0.079452	0.2132	0.055651	0.11093	-2.575	-3.1854	-2.6792	-3.2458	-3.4	-2.5854	-3.3208	-3.2375	-2.9208	-3.4479	-2.9521	-3.2042	-3.3312	-2.8521	-3.1125	-3.1833	236.394	281.535	275.634	310.119	348.601	307.117	255.549	243.425	101.487	104.551	298.859	327.294	279.033	354.800	374.138	116.436	0.00069036	0.00025634	0.00010895	728.58	5.022e-06	4.869e-06	821.61	236.17	4.0157e-06	3.3609e-06	321.77	118.1	85.097	39.668	5.7571e-06	56.509	6.7725e-05	2.7691e-05	7.7751e-06	711.99	3.1286e-07	3.2169e-07	803.15	231.86	3.6375e-07	2.6932e-07	313.36	115.49	83.277	39.059	3.316e-07	55.499	88.417	114.741	123.634	40.061	150.687	182.424	38.789	44.960	166.741	180.695	43.245	47.877	50.195	55.964	193.983	52.478	-8191	255	
1224.503	1	1	0	0	0.19166	0.055776	0.098586	0.071013	0.24391	0.26076	0.21765	0.29722	0.049243	0.14057	0.24348	0.22596	0.033984	0.099553	0.062548	0.20259	-2.4333	-3.3542	-2.9208	-3.0583	-3.5646	-2.8646	-3.1792	-3.1875	-2.8833	-3.5521	-2.8542	-3.0604	-3.6833	-2.7708	-2.9542	-3.2896	303.228	274.228	252.403	203.147	196.204	341.536	270.897	288.073	108.411	314.040	345.928	367.376	245.141	383.843	292.376	56.140	0.00073664	0.00039314	7.885e-05	730.62	4.4417e-06	4.0961e-06	824.77	235.73	3.5189e-06	2.7647e-06	319.45	118.31	85.212	39.44	3.5735e-06	57.046	6.9681e-05	2.6737e-05	7.5716e-06	713.83	3.2404e-07	2.8935e-07	807.41	232.09	3.4689e-07	2.7634e-07	313.84	116.14	83.306	38.976	3.4267e-07	56.008	89.004	108.369	131.495	39.587	151.426	168.990	39.018	45.016	163.556	181.440	43.245	48.222	50.394	56.163	202.433	52.536	-8191	255	
1224.575	1	1	0	0	0.033765	0.1562	0.26803	0.27431	0.17909	0.14181	0.34657	0.21712	0.13564	0.058912	0.039518	0.37923	0.13292	0.45398	0.1905	0.2112	-2.3979	-3.4542	-2.9771	-2.8625	-3.3417	-2.8333	-3.1896	-3.1771	-2.75	-3.2667	-2.9688	-2.9396	-3.4833	-2.8771	-3.3333	-3.375	322.835	61.732	113.666	327.582	155.427	304.652	334.466	383.597	247.516	263.764	233.689	348.115	48.392	313.220	274.248	78.729	0.00077537	0.0003673	0.000125	732.71	4.2788e-06	3.9205e-06	823.81	236.54	3.2548e-06	3.0379e-06	321.19	118.41	84.908	39.191	4.7414e-06	56.309	7.1057e-05	2.6164e-05	7.3582e-06	715.67	3.1765e-07	2.8372e-07	807	232.26	3.4166e-07	2.5739e-07	313.35	115.47	83.094	38.689	3.363e-07	55.176	88.913	115.106	138.398	39.609	151.991	176.414	38.702	44.740	158.284	170.402	42.813	47.747	49.767	56.007	188.152	52.193	-8191	255	
1224.671	1	1	0	0	0.10491	0.13689	0.21225	0.089121	0.27309	0.22043	0.039661	0.042387	0.090272	0.22032	0.054062	0.13697	0.22281	0.094665	0.10771	0.13589	-2.35	-3.3583	-3.0083	-3.0438	-3.3958	-2.7875	-3.1458	-3.4083	-2.5667	-3.3354	-3.1896	-2.9521	-3.3479	-3.0979	-2.9958	-3.6875	105.695	376.668	262.981	216.320	372.472	66.777	40.830	262.449	297.594	80.744	53.786	33.500	314.398	226.957	105.985	47.117	0.00074132	0.0003599	8.083e-05	732.98	4.7987e-06	4.1552e-06	824.55	236.79	4.4309e-06	3.6002e-06	320.12	118.3	85.146	39.178	4.3838e-06	56.697	6.8458e-05	2.7772e-05	7.7455e-06	712.35	3.0581e-07	2.8506e-07	805.1	232.11	3.6358e-07	2.8788e-07	312.58	115.2	83.22	38.795	3.3791e-07	55.352	88.091	123.061	127.696	39.440	146.306	184.600	38.751	44.765	168.217	158.610	42.959	47.455	49.555	55.799	194.085	52.364	-8191	255	
1224.790	1	1	0	0	0.16926	0.092697	0.08009	0.1224	0.15462	0.33787	0.15366	0.31716	0.082974	0.34017	0.16773	0.27614	0.18259	0.25375	0.23366	0.13791	-2.2958	-3.2	-3.1583	-3.0604	-3.5875	-3.1312	-3.2542	-3.4771	-2.6917	-3.0583	-3.2438	-2.9458	-3.6292	-3.0354	-2.8333	-3.6333	363.427	88.209	193.903	43.279	241.993	200.061	130.493	350.256	262.515	96.122	57.748	308.616	280.845	69.376	313.129	302.474	0.00071246	0.00043143	0.00011532	731.89	5.4038e-06	3.6718e-06	826.18	237.06	2.9091e-06	2.5066e-06	322.45	118.15	85.365	39.476	4.8358e-06	56.98	6.941e-05	2.6407e-05	7.4783e-06	712.6	3.4051e-07	2.8489e-07	805.65	232.36	3.4965e-07	2.8314e-07	314.13	115.9	83.608	38.956	3.4029e-07	55.885	87.482	122.265	137.010	39.668	134.077	168.292	38.622	44.780	170.874	181.395	42.722	47.605	49.655	56.171	189.662	52.348	-8191	255	
1224.886	1	1	0	0	0.25706	0.19147	0.061842	0.064006	0.3829	0.26211	0.42347	0.2117	0.044642	0.11638	0.12137	0.15142	0.098977	0.26955	0.10191	0.11667	-2.4	-3.1063	-3.2979	-2.8646	-3.4021	-3.1375	-2.8792	-3.5979	-3.1	-3.1458	-3.7083	-3.0667	-3.3146	-3.3667	-2.8729	-3.5458	58.536	348.393	386.179	125.042	176.015	31.351	337.650	350.461	136.450	210.420	362.334	274.600	156.781	375.904	172.368	286.343	0.00075325	0.00038171	0.00011533	727.78	3.7187e-06	4.035e-06	826.27	237.25	4.1343e-06	3.7754e-06	323.87	119.32	85.963	39.709	5.6089e-06	57.635	6.7925e-05	2.6321e-05	7.279e-06	712.47	3.0107e-07	2.8634e-07	807.09	232.94	3.4965e-07	3.0911e-07	315.77	116.83	84.033	39.245	3.5301e-07	56.52	91.317	128.544	135.590	39.552	155.460	161.539	38.793	44.798	181.695	180.875	43.223	47.925	50.162	55.953	188.469	52.280	-8191	255	
1224.982	1	1	0	0	0.23295	0.18313	0.29222	0.26379	0.26517	0.25653	0.24448	0.31631	0.11528	0.065559	0.30105	0.30563	0.12974	0.1355	0.093102	0.22238	-2.5	-3.1479	-3.5021	-2.7375	-3.3917	-3.4458	-3.2021	-3.3729	-3.0292	-3.0917	-3.45	-2.8583	-3.3521	-3.3458	-2.7958	-3.6	81.125	262.974	215.883	352.514	293.712	42.111	349.823	349.993	141.876	357.033	310.725	344.023	369.889	338.048	44.972	386.378	0.00073253	0.00045084	0.00011474	735.2	3.8175e-06	4.7597e-06	827.89	237.87	3.9215e-06	3.642e-06	323.96	119.55	85.547	39.969	4.3882e-06	57.367	6.7773e-05	2.7508e-05	7.1872e-06	712.25	3.133e-07	2.8991e-07	807.81	232.62	3.4392e-07	3.1e-07	315.8	116.44	83.761	39.327	3.5401e-07	56.015	90.054	109.097	129.984	39.299	155.056	170.630	38.343	44.839	178.200	182.725	42.736	47.396	49.754	55.962	194.537	51.830	-8191	255	
1225.078	1	1	0	0	0.24149	0.12366	0.14909	0.11321	0.17272	0.11044	0.12035	0.16191	0.17871	0.10721	0.053747	0.10529	0.26424	0.097811	0.064711	0.016856	-2.8292	-2.9271	-3.3063	-2.9104	-3.1375	-3.2938	-2.9625	-3.3937	-3.0187	-2.775	-3.475	-2.9375	-3.275	-3.1063	-2.8438	-3.5042	350.054	31.392	132.213	41.390	338.027	385.892	363.184	299.540	116.139	234.569	380.388	367.580	65.014	365.803	310.120	287.394	0.00075483	0.0003818	0.00012263	728.49	3.7195e-06	4.399e-06	821.95	236.74	4.0415e-06	2.9232e-06	322.81	118.83	85.3	39.85	5.8445e-06	57.08	6.8253e-05	2.8223e-05	6.92e-06	710.64	3.2608e-07	2.8433e-07	802.83	232.36	3.5752e-07	3.0153e-07	314.58	116.01	83.596	39.233	3.3592e-07	56.092	91.442	109.944	135.825	39.537	152.443	153.233	38.599	44.901	176.198	161.017	42.868	47.868	49.708	56.090	195.670	52.280	-8191	255	
1225.174	1	1	0	0	0.22584	0.15374	0.014191	0.069224	0.22348	0.053157	0.29182	0.031962	0.028309	0.049505	0.1945	0.16762	0.0086377	0.1234	0.11361	0.16946	-2.9083	-2.8125	-3.4208	-3.0125	-3.1646	-3.3271	-3.0354	-3.4104	-2.9875	-2.8083	-3.6083	-2.7896	-3.0354	-3.5979	-2.7625	-3.3708	376.321	335.488	270.451	296.619	46.487	316.535	342.724	315.453	358.789	97.917	127.119	106.725	166.322	157.061	240.802	29.641	0.00073794	0.00043013	7.1171e-05	730.08	4.3089e-06	3.9742e-06	822.25	236.58	3.6486e-06	2.8916e-06	322.43	120.02	85.671	39.966	3.9863e-06	57.626	6.8444e-05	2.9583e-05	7.166e-06	712.26	3.3417e-07	2.7686e-07	804.68	232.53	3.4998e-07	2.9211e-07	315.09	116.99	83.836	39.498	3.487e-07	56.579	87.462	129.265	139.649	39.692	150.143	161.143	38.691	44.818	172.862	169.824	43.138	48.099	50.032	56.071	195.523	52.236	-8191	255	
1225.270	1	1	0	0	0.18568	0.10946	0.22412	0.14702	0.24694	0.30297	0.22479	0.087801	0.064651	0.44272	0.077567	0.28638	0.079682	0.045357	0.22054	0.1051	-3.1458	-2.8167	-3.3271	-3.0771	-2.9104	-3.2083	-2.9167	-3.1708	-3.1292	-2.8708	-3.5563	-2.9396	-2.875	-3.4583	-2.7625	-3.1688	289.616	212.216	213.118	378.538	190.648	196.369	301.140	44.740	108.406	215.562	74.370	262.634	274.878	333.622	115.117	238.486	0.00077358	0.00030381	9.2914e-05	729.88	4.0809e-06	4.9317e-06	824.32	238	3.7844e-06	3.2478e-06	325.39	121.33	86.176	40.039	3.982e-06	57.754	6.9496e-05	2.9903e-05	7.1702e-06	711.76	3.3864e-07	2.7904e-07	806.85	232.67	3.351e-07	3.0487e-07	316.73	117.71	84.003	39.517	3.3149e-07	56.811	89.224	120.533	123.832	39.493	147.215	183.558	38.909	44.845	185.875	193.566	43.052	47.843	50.198	56.160	193.269	52.257	-8191	255	
1225.391	1	1	0	0	0.19931	0.11315	0.1974	0.1971	0.22674	0.27609	0.17058	0.090528	0.18488	0.10629	0.083459	0.11762	0.14074	0.12433	0.10521	0.10231	-2.9021	-2.7771	-3.325	-3.0333	-2.8042	-3.4042	-3.1937	-3.3104	-3.2896	-2.8375	-3.7	-3.125	-2.9792	-3.5917	-3.0167	-3.1167	194.749	218.682	156.166	337.847	327.706	44.688	138.610	361.176	311.122	264.349	57.004	244.709	370.172	360.274	306.165	287.432	0.00070463	0.00037977	0.00010551	730.33	6.0274e-06	4.8599e-06	824.7	236.09	3.3363e-06	3.6509e-06	324.42	120.09	85.65	39.775	3.4723e-06	56.956	6.7839e-05	2.7751e-05	7.4388e-06	712.45	3.3043e-07	2.6236e-07	807.45	232.21	3.3538e-07	2.9479e-07	315.62	116.71	83.518	39.14	3.3403e-07	56.004	90.056	112.031	136.246	39.682	136.518	171.075	38.969	44.629	172.987	183.859	42.818	47.866	49.895	55.861	203.303	52.106	-8191	255	
1225.487	1	1	0	0	0.049447	0.22706	0.1432	0.079647	0.25059	0.23258	0.20568	0.12398	0.15199	0.037474	0.10869	0.075362	0.12053	0.31681	0.028303	0.20315	-3.0729	-2.7438	-3.4396	-3.1583	-2.6896	-3.4125	-3.2021	-2.9333	-3.5125	-2.9188	-3.2271	-3.2687	-3.05	-3.3896	-3.1896	-3	117.286	107.936	335.432	367.929	299.027	91.847	284.797	334.493	163.205	348.563	36.630	289.717	361.220	75.219	234.729	248.623	0.0007694	0.00032971	0.00012407	720.84	6.3272e-06	4.648e-06	816.79	235.83	3.8217e-06	3.1258e-06	322.53	119.05	85.751	40.057	3.467e-06	57.81	6.932e-05	2.869e-05	7.4331e-06	708.49	3.3985e-07	2.7641e-07	803.21	231.93	3.2403e-07	2.8949e-07	315.02	116.65	83.873	39.43	3.3282e-07	56.395	88.108	124.838	123.445	39.839	146.670	159.706	38.943	44.571	178.476	179.470	42.809	47.773	49.655	56.019	214.060	52.042	-8191	255	
1225.583	1	1	0	0	0.2109	0.36447	0.037618	0.12004	0.15638	0.19713	0.38135	0.19367	0.22602	0.16073	0.19025	0.25859	0.010656	0.061315	0.1396	0.066719	-2.9229	-2.775	-3.2833	-3.3146	-2.7479	-3.5396	-3.1208	-3.1604	-3.6854	-2.7354	-3.1833	-3.4521	-2.8646	-3.6542	-3.1333	-3	228.695	97.090	345.212	277.384	216.475	226.392	384.769	310.336	302.624	157.106	36.381	91.558	117.347	194.944	292.591	346.494	0.00077142	0.00036423	8.8852e-05	729.38	3.0124e-06	3.4671e-06	823.82	236.87	2.9188e-06	2.8697e-06	326.05	120.72	85.925	40.046	4.893e-06	58.05	7.0681e-05	2.763e-05	7.5942e-06	709.28	3.0669e-07	2.8194e-07	804.88	232.44	3.3554e-07	2.9289e-07	316.63	117.58	83.901	39.614	3.2103e-07	56.819	87.686	135.103	139.149	39.854	145.059	182.114	39.138	45.056	177.696	194.465	42.823	47.630	49.881	55.976	204.371	52.160	-8191	255	
1225.679	1	1	0	0	0.18033	0.10633	0.096643	0.1403	0.15129	0.10071	0.16612	0.094595	0.30541	0.21754	0.36778	0.058135	0.12754	0.081331	0.1799	0.19002	-2.8292	-2.7104	-3.1583	-3.2896	-2.7729	-3.225	-3.2479	-3.0625	-3.6042	-2.75	-2.9875	-3.6	-2.8625	-3.45	-3.0125	-2.8708	189.108	149.490	95.389	349.774	284.027	345.670	376.157	74.172	212.726	70.653	378.975	316.459	310.941	125.201	154.266	315.565	0.00081466	0.00045321	9.5305e-05	731.3	4.6589e-06	4.6316e-06	827.69	238.42	4.361e-06	4.1888e-06	326.65	121.4	86.465	40.124	3.6947e-06	57.993	7.1171e-05	2.7295e-05	7.8925e-06	710.19	3.4277e-07	2.8829e-07	808.74	232.93	3.3466e-07	2.7807e-07	317.81	118.14	84.273	39.567	3.2651e-07	56.949	91.510	121.653	139.664	39.381	168.142	171.838	38.693	44.515	177.432	173.863	42.868	47.520	49.608	55.777	198.189	52.089	-8191	255	
1225.798	1	1	0	0	0.17015	0.071625	0.22295	0.10074	0.042024	0.22887	0.20148	0.19595	0.031149	0.14839	0.08154	0.063555	0.25588	0.23158	0.11289	0.15453	-3.1854	-3.0167	-3.0042	-3.6021	-2.6729	-3.3438	-3.4	-2.9771	-3.4979	-2.7667	-2.7833	-3.4292	-2.9	-3.0375	-3.2667	-3.0125	164.888	225.907	208.478	281.228	228.640	199.943	85.116	349.445	167.069	310.939	243.372	276.759	334.243	357.234	384.496	289.249	0.00078622	0.00044649	0.00011507	731.02	5.7983e-06	3.4779e-06	825.93	237.81	3.071e-06	3.103e-06	324.04	119.78	85.828	39.748	4.0805e-06	57.041	6.98e-05	2.9116e-05	8.5002e-06	711.94	3.2784e-07	2.9593e-07	807.62	232.48	3.1814e-07	2.8308e-07	316.39	116.81	83.628	39.18	3.2209e-07	55.975	89.956	108.813	134.394	39.658	146.217	175.693	38.694	44.635	194.224	169.667	42.807	47.577	49.399	55.743	184.181	52.168	-8191	255	
1225.870	1	1	0	0	0.10565	0.29504	0.068676	0.066087	0.14282	0.126	0.090619	0.234	0.13719	0.068548	0.12366	0.09762	0.14101	0.19602	0.078426	0.16626	-3.1417	-3.0021	-2.8021	-3.4458	-2.7979	-3.1604	-3.4375	-2.9021	-3.4313	-2.9146	-2.9104	-3.5062	-2.8229	-3.2479	-3.5208	-2.8208	297.015	193.601	319.261	92.222	42.679	384.338	376.439	43.423	269.123	368.078	91.743	316.440	249.037	380.851	221.957	358.373	0.00078196	0.00032285	9.4639e-05	730.1	5.3359e-06	4.2887e-06	828.86	236.76	3.5427e-06	2.6612e-06	322.49	119.26	85.417	39.575	2.9772e-06	57.103	6.9086e-05	2.7244e-05	7.7723e-06	709.48	3.4508e-07	2.9292e-07	807.16	232.24	3.2767e-07	2.9367e-07	315.99	116.46	83.458	39.018	3.1589e-07	55.965	88.040	107.626	133.157	39.478	164.792	173.809	38.785	44.683	171.326	155.342	43.015	47.632	50.040	56.026	199.142	52.164	-8191	255	
1225.991	1	1	0	0	0.096325	0.17929	0.14438	0.098412	0.057542	0.26531	0.13862	0.016986	0.13071	0.15237	0.29012	0.15325	0.075834	0.2297	0.16007	0.10675	-2.8833	-3.0125	-2.8479	-3.2875	-2.7875	-3.15	-3.375	-2.9146	-3.2833	-3.0229	-3.0229	-3.5542	-3.0062	-3.1792	-3.5062	-2.8792	260.423	376.533	156.946	258.082	130.919	298.851	280.929	307.898	358.026	165.906	44.444	39.372	373.285	378.799	331.934	28.479	0.00078077	0.00036345	0.00010832	730.91	3.7229e-06	4.2859e-06	824.59	237.45	4.0774e-06	3.8309e-06	325.75	120.41	85.639	39.807	5.6475e-06	57.772	6.932e-05	2.802e-05	7.9645e-06	710.96	3.2321e-07	3.0853e-07	807.21	232.56	3.4116e-07	2.8035e-07	317.62	117.69	83.795	39.339	3.4139e-07	56.512	90.663	114.143	113.458	39.790	142.624	164.971	38.864	44.696	181.510	184.712	42.911	47.628	49.674	56.021	193.155	52.297	-8191	255	
1226.087	1	1	0	0	0.19733	0.24823	0.34837	0.17154	0.072206	0.24558	0.11267	0.14094	0.3159	0.14905	0.063263	0.10257	0.039875	0.31119	0.18498	0.12709	-2.6875	-3.1	-2.9375	-3.2708	-2.8396	-3.0979	-3.4625	-2.8646	-3.1604	-3.4458	-2.5979	-3.3729	-3.05	-2.8521	-3.3646	-3.0604	53.172	311.553	233.323	333.179	220.273	88.273	201.102	99.377	365.622	209.958	311.042	199.516	173.587	372.076	61.675	288.992	0.0007651	0.00033687	7.7598e-05	727.39	4.7186e-06	3.2343e-06	833.71	237.38	4.6652e-06	3.1645e-06	328.87	119.97	86.112	39.573	3.3332e-06	57.951	6.7297e-05	2.6402e-05	8.0239e-06	710.98	3.2729e-07	2.8584e-07	814.19	232.91	3.5918e-07	2.847e-07	320.15	117.76	83.833	39.128	3.2114e-07	56.62	90.419	116.164	133.378	39.575	142.435	153.406	38.991	44.579	174.322	196.357	42.994	47.969	49.701	55.901	197.318	52.231	-8191	255	
1226.183	1	1	0	0	0.13672	0.097614	0.11837	0.14716	0.16165	0.073134	0.18929	0.20922	0.10917	0.094507	0.042369	0.10959	0.02951	0.025415	0.13742	0.1531	-2.8104	-3.1229	-2.6833	-3.3	-3.0312	-2.8937	-3.375	-2.8708	-3.2438	-3.3563	-2.775	-3.55	-3.3688	-2.9313	-3.2458	-2.9792	136.781	111.744	118.287	278.175	193.074	298.352	350.068	90.435	198.842	291.501	210.471	81.218	122.130	156.255	93.139	52.086	0.00076159	0.00027316	0.00011421	735.91	3.1966e-06	5.5059e-06	827.51	237.62	4.0415e-06	3.5462e-06	325.25	120.47	85.852	39.691	4.5415e-06	57.028	6.952e-05	2.6823e-05	8.038e-06	713.28	3.3825e-07	3.0312e-07	811.11	232.97	3.4634e-07	2.7506e-07	317.67	117.36	83.791	39.2	3.4515e-07	56.218	89.113	143.293	134.372	39.270	142.112	170.670	39.122	44.842	159.068	180.575	43.075	47.830	49.633	56.117	184.384	52.097	-8191	255	
1226.279	1	1	0	0	0.23398	0.35959	0.03482	0.17057	0.021719	0.14673	0.27673	0.19182	0.25832	0.2133	0.16806	0.063514	0.12761	0.13685	0.22534	0.10314	-2.7354	-3.3354	-2.7271	-3.4958	-3.2125	-2.7396	-3.6937	-3.1083	-2.8688	-3.4917	-2.8042	-3.2313	-3.2958	-2.9208	-3.35	-3.05	227.712	228.476	377.500	286.881	141.827	243.273	341.552	33.177	299.684	190.870	286.184	121.179	313.886	271.361	293.376	374.598	0.00075367	0.00035506	9.7139e-05	727.8	3.3245e-06	4.1852e-06	824.62	237.74	3.6896e-06	3.8606e-06	326.17	120.17	85.975	39.814	5.0249e-06	57.517	6.8449e-05	2.762e-05	7.973e-06	710.58	3.1456e-07	3.082e-07	808.7	233.24	3.4574e-07	2.7918e-07	318.73	117.63	84.229	39.373	3.1622e-07	56.642	88.832	124.680	124.814	39.445	145.224	187.883	38.835	45.064	180.206	174.195	43.047	47.835	49.880	56.134	182.952	52.552	-8191	255	
1226.400	1	1	0	0	0.14297	0.047212	0.16509	0.3603	0.20735	0.078616	0.21673	0.077587	0.19485	0.095196	0.32351	0.13844	0.050285	0.15103	0.21869	0.1803	-2.6479	-3.3854	-2.65	-3.2708	-3.5375	-2.9437	-3.6792	-3	-2.9625	-3.6958	-2.7812	-3.3167	-3.5917	-2.8333	-3.3458	-3.3937	152.484	96.494	168.341	322.889	255.430	79.341	279.437	63.419	77.251	49.384	385.726	377.136	101.949	249.415	30.658	363.704	0.00077523	0.0002786	0.00014804	728.63	5.2303e-06	3.6904e-06	837.32	239.87	4.434e-06	3.8449e-06	332.09	121.2	86.521	39.915	3.8876e-06	58.676	7.0924e-05	2.664e-05	7.8769e-06	714.13	3.0283e-07	2.9967e-07	817.75	235.39	3.6843e-07	2.9512e-07	323.41	118.93	84.841	39.576	3.3083e-07	57.355	90.918	113.514	136.895	39.844	145.779	177.082	38.681	44.763	172.346	184.203	42.996	48.059	50.111	55.988	201.245	52.361	-8191	255	
1226.471	1	1	0	0	0.28162	0.2009	0.1434	0.2243	0.12459	0.13197	0.050018	0.13249	0.10374	0.14711	0.16496	0.041804	0.18275	0.13334	0.10004	0.17797	-2.6333	-3.4292	-2.7938	-3.2021	-3.2604	-2.6562	-3.5687	-3.1542	-2.75	-3.4146	-2.9833	-3.2292	-3.3917	-2.7771	-3.45	-3.2229	131.811	385.619	302.077	333.690	113.810	93.875	29.400	270.314	223.857	375.333	299.017	76.251	356.026	42.244	137.707	288.979	0.00078681	0.00044617	8.1638e-05	739.29	3.707e-06	4.6936e-06	848.66	243.91	2.7909e-06	3.0309e-06	338.97	123.79	87.595	40.778	4.6947e-06	58.939	7.3489e-05	2.6782e-05	7.713e-06	721.73	3.2916e-07	3.0602e-07	830.12	239.33	3.4419e-07	2.8799e-07	330.47	121.3	86.129	40.137	3.4742e-07	58.134	91.698	123.082	121.914	39.793	141.500	182.240	38.784	45.125	180.737	186.855	43.248	47.677	49.983	55.923	188.236	52.480	-8191	255	
1226.568	1	1	0	0	0.22645	0.047981	0.20842	0.22425	0.10327	0.3004	0.045174	0.18906	0.073759	0.054667	0.3117	0.12154	0.24933	0.31671	0.18862	0.12296	-2.3458	-3.4437	-3.0646	-3.025	-3.1729	-2.9479	-3.2958	-3.2521	-2.9396	-3.4792	-3.0146	-2.9583	-3.5396	-2.6771	-3.0625	-3.525	354.097	350.376	290.242	301.482	236.133	332.126	373.989	351.241	176.454	236.764	381.637	69.932	81.021	41.739	52.868	101.052	0.00083927	0.0004835	0.000128	751.96	3.4967e-06	4.5943e-06	863.44	250.3	2.8325e-06	3.3207e-06	344.18	124.49	90.405	41.126	5.7665e-06	59.395	7.7069e-05	2.7041e-05	7.826e-06	733	3.1054e-07	2.9799e-07	848.15	246.7	3.5213e-07	3.0008e-07	337.35	122.31	88.269	40.832	3.4593e-07	58.38	90.879	131.982	126.654	39.593	134.770	190.917	38.970	44.894	175.369	186.840	43.283	47.744	50.097	56.024	198.161	52.507	-8191	255	
1226.664	1	1	0	0	0.16878	0.1573	0.19457	0.17074	0.12356	0.24391	0.29248	0.25307	0.16705	0.19888	0.045647	0.2717	0.16033	0.025919	0.19436	0.033121	-2.3854	-3.4042	-3.0396	-2.9396	-3.3708	-3.0208	-3.2604	-3.4458	-2.6542	-3.4854	-3.2104	-2.9562	-3.5354	-2.8792	-3.0292	-3.2667	327.621	368.252	41.468	377.314	174.171	133.042	80.228	44.979	287.532	230.101	386.797	340.577	350.092	370.949	38.135	68.288	0.00078604	0.00035683	0.00012147	757.12	4.4764e-06	4.2647e-06	873.73	254.7	2.752e-06	4.5406e-06	348.29	125.63	90.742	41.606	6.9736e-06	59.869	7.4789e-05	2.8974e-05	8.4606e-06	742.06	3.2162e-07	3.14e-07	856.88	250.05	3.5427e-07	3.1557e-07	341.01	123.03	88.889	41.112	3.6347e-07	58.846	89.338	120.765	128.682	39.962	145.102	172.381	38.999	44.897	179.773	180.586	42.997	47.789	49.951	55.972	200.861	52.680	-8191	255	
1226.760	1	1	0	0	0.048406	0.028428	0.18116	0.084592	0.16568	0.11867	0.1707	0.12134	0.19602	0.077627	0.038776	0.13103	0.089704	0.057713	0.22128	0.26139	-2.2438	-3.3063	-3.1	-2.775	-3.2917	-2.9646	-3.0521	-3.55	-2.6667	-3.2917	-3.2812	-2.8833	-3.4729	-3.0271	-3.0062	-3.5875	208.093	198.403	381.937	270.227	307.085	147.943	272.774	293.845	87.922	327.330	379.284	366.877	355.298	110.005	74.508	28.909	0.00078872	0.00043625	0.00012258	763.73	4.9059e-06	4.9444e-06	878.04	256.62	3.4177e-06	3.9121e-06	351.42	126.88	90.977	41.625	4.7778e-06	60.56	7.2704e-05	3.1085e-05	8.2599e-06	746.47	3.3302e-07	3.1149e-07	861.48	251.81	3.6276e-07	3.003e-07	344.56	124.58	89.704	41.355	3.7237e-07	59.834	89.690	115.153	127.787	39.621	136.734	172.097	39.102	44.806	157.065	159.013	43.614	47.671	49.870	56.131	206.400	52.608	-8191	255	
1226.879	1	1	0	0	0.19762	0.20185	0.04594	0.4114	0.19209	0.15063	0.21595	0.11802	0.21324	0.089516	0.25913	0.055784	0.14648	0.17324	0.14027	0.24789	-2.5	-3.2521	-3.2104	-2.9688	-3.4104	-3.0375	-3.0854	-3.5438	-2.5771	-3.2292	-3.3375	-2.8	-3.4313	-3.275	-3.1312	-3.4188	224.636	307.680	67.193	379.010	66.495	185.582	264.796	205.653	222.866	366.324	103.149	349.832	34.663	288.347	176.094	36.828	0.00077192	0.00047807	0.00012571	759.75	4.7282e-06	4.5432e-06	876.96	256.3	4.2917e-06	3.7535e-06	352.54	129.01	91.848	42.131	4.4506e-06	61.108	7.4965e-05	2.9837e-05	7.9561e-06	745.46	3.4436e-07	3.1221e-07	864.38	252.56	3.8612e-07	3.2031e-07	346.98	125.95	89.959	41.684	3.571e-07	60.275	88.368	123.939	129.078	40.205	139.903	162.081	39.322	45.020	171.579	183.137	43.286	47.754	49.945	55.942	188.349	52.871	-8191	255	
1226.975	1	1	0	0	0.15401	0.15704	0.1583	0.1467	0.1107	0.13753	0.33568	0.23375	0.19113	0.17232	0.1391	0.37334	0.22863	0.14439	0.18664	0.12918	-2.6083	-3.3271	-3.2354	-2.7958	-3.325	-3.2	-2.9208	-3.6583	-3.0229	-2.8812	-3.35	-2.9229	-3.3542	-3.2021	-2.9979	-3.5479	205.472	192.047	172.564	55.239	255.462	102.551	338.191	327.152	214.760	189.768	357.127	364.865	329.657	27.689	141.442	306.650	0.0008078	0.00042917	0.00010177	760.71	3.9254e-06	4.6083e-06	877.06	258.8	4.3596e-06	2.9822e-06	352.88	127.34	91.847	41.938	4.7767e-06	60.481	7.7264e-05	3.1085e-05	7.7483e-06	745.61	3.6078e-07	2.9944e-07	863.5	253.84	3.7157e-07	3.1869e-07	345.42	124.63	90.099	41.538	3.5782e-07	59.529	87.913	127.810	143.610	40.005	160.195	174.878	38.986	44.743	175.111	181.692	43.296	47.786	50.062	56.055	201.930	52.566	-8191	255	
1227.071	1	1	0	0	0.07088	0.19791	0.24753	0.16956	0.082457	0.084899	0.25372	0.30375	0.2579	0.092856	0.27796	0.12704	0.16235	0.22989	0.19612	0.22212	-2.4562	-3.0729	-3.4521	-2.75	-3.4188	-3.1792	-2.9042	-3.3792	-3.025	-3.0917	-3.5708	-2.8563	-3.1271	-3.1875	-2.7417	-3.6667	366.967	93.882	231.709	292.120	52.361	312.369	377.663	94.820	150.803	170.825	240.518	196.672	331.640	71.654	280.139	312.382	0.00082754	0.00045875	0.00011693	758.92	5.7333e-06	5.7958e-06	873.28	256.55	4.4263e-06	3.6496e-06	352.8	126.91	91.366	42.23	4.1722e-06	61.042	7.5065e-05	3.2378e-05	7.7271e-06	743.81	3.5582e-07	3.092e-07	857.92	252.33	3.6661e-07	3.2215e-07	345.76	124.76	89.949	41.897	3.6717e-07	60.157	88.666	113.963	134.843	40.025	144.930	178.040	38.992	45.061	179.519	182.106	43.424	48.075	50.312	55.964	185.807	52.632	-8191	255	
1227.167	1	1	0	0	0.016146	0.12709	0.26762	0.24952	0.046386	0.099442	0.19919	0.26738	0.26446	0.1645	0.11246	0.17445	0.1243	0.061501	0.20401	0.30583	-2.7271	-2.8417	-3.4146	-2.7958	-3.2458	-3.3438	-2.9146	-3.4479	-2.9167	-2.9375	-3.5687	-2.9625	-2.9667	-3.3417	-2.7333	-3.6063	45.589	130.578	82.062	309.592	310.296	171.886	315.034	307.782	141.338	126.430	300.214	41.791	355.616	359.138	170.018	265.222	0.00079202	0.00036532	0.0001198	752.42	4.5515e-06	3.2231e-06	869	255.68	3.5961e-06	3.6623e-06	354.98	129.16	92.147	42.921	5.7103e-06	62.368	7.3599e-05	3.1298e-05	8.1172e-06	738.84	3.4871e-07	2.9275e-07	854.33	251.74	3.4667e-07	3.2371e-07	346	126.43	90.564	42.479	3.6723e-07	61.34	91.260	115.036	148.008	40.206	153.493	177.605	38.898	44.905	201.930	181.476	42.914	48.066	49.828	55.947	197.746	52.579	-8191	255	
1227.263	1	1	0	0	0.16721	0.031609	0.14698	0.12766	0.30154	0.18358	0.43699	0.12472	0.061544	0.10604	0.18303	0.23072	0.10917	0.084829	0.25598	0.20768	-2.7271	-2.7438	-3.2188	-2.7604	-2.9021	-3.2083	-2.8646	-3.3521	-3.0687	-2.8187	-3.6625	-3.2354	-3.1333	-3.2792	-2.6437	-3.3542	179.039	345.220	36.432	91.475	39.700	68.102	282.702	280.768	186.494	146.612	318.887	356.464	365.033	312.087	284.706	365.184	0.00083319	0.00045684	0.00011745	754.12	5.693e-06	3.8436e-06	874.71	256.33	4.6321e-06	3.9339e-06	357.71	130.65	93.583	43.281	4.5204e-06	62.924	7.5446e-05	3.0349e-05	8.0847e-06	736.5	3.4376e-07	3.0023e-07	855	252.02	3.8182e-07	3.2048e-07	348.08	127.3	91.16	42.692	3.9345e-07	61.695	88.734	123.119	140.245	40.052	137.115	171.820	38.659	44.857	161.195	198.132	42.965	47.768	49.721	55.854	195.463	52.344	-8191	255	
1227.359	1	1	0	0	0.12023	0.20333	0.12801	0.38138	0.10798	0.1389	0.062995	0.10513	0.148	0.19716	0.21412	0.16987	0.15627	0.11239	0.22478	0.18961	-2.9542	-2.9417	-3.3708	-2.9083	-2.7896	-3.3708	-2.9437	-3.3583	-3.3312	-2.7729	-3.6188	-3.1146	-2.9562	-3.4979	-2.775	-3.1396	171.698	201.332	84.623	183.400	82.758	60.143	199.020	237.518	149.413	280.081	323.858	349.967	187.248	312.508	158.944	112.954	0.00082046	0.00041193	9.8137e-05	755.61	4.7942e-06	3.6834e-06	871.41	255.78	4.1203e-06	3.8322e-06	353.42	129.39	93.192	43.193	3.4825e-06	62.503	7.4356e-05	3.079e-05	8.3942e-06	735.96	3.626e-07	3.145e-07	850.85	251.6	3.719e-07	3.1802e-07	344.77	126.51	91.084	42.721	3.5522e-07	61.397	90.670	111.533	137.645	39.617	149.080	178.814	38.866	44.616	179.573	172.947	43.293	47.695	50.006	56.339	199.678	52.769	-8191	255	
1227.480	1	1	0	0	0.13255	0.19265	0.1146	0.34721	0.23791	0.31721	0.11104	0.39566	0.12013	0.089243	0.16087	0.27741	0.18502	0.21875	0.098273	0.21932	-2.9417	-2.8396	-3.3854	-3.1	-2.9042	-3.4875	-2.8583	-3.3187	-3.3958	-2.8187	-3.4958	-3.1271	-3.0229	-3.5062	-2.8458	-3.1354	126.000	303.578	329.311	348.303	77.000	320.626	45.925	48.155	304.733	361.163	334.042	342.763	287.011	297.249	79.074	68.416	0.00082776	0.00039984	0.0001381	750.35	5.8099e-06	4.0549e-06	860.12	253.28	3.7373e-06	2.6238e-06	349.42	128.42	92.008	42.992	5.1495e-06	62.452	7.3637e-05	3.1186e-05	8.3603e-06	732.96	3.5896e-07	2.9365e-07	845.09	250.38	3.5609e-07	3.2204e-07	343.41	126.4	90.803	42.732	3.7005e-07	61.473	88.116	122.886	131.284	40.282	154.441	180.667	39.127	45.501	159.453	176.081	43.520	48.586	50.415	56.376	198.220	52.974	-8191	255	
1227.576	1	1	0	0	0.22088	0.26428	0.27544	0.12989	0.16367	0.06139	0.042325	0.3227	0.38002	0.18259	0.11521	0.04789	0.21814	0.18375	0.30863	0.36917	-2.9875	-2.5958	-3.3729	-3.2542	-2.9188	-3.6104	-3.0396	-3.1229	-3.5021	-2.75	-3.2708	-3.1146	-2.8146	-3.5812	-2.975	-2.9646	277.827	49.127	191.623	321.959	327.584	166.759	376.052	349.468	167.421	346.258	49.007	326.787	369.208	355.385	72.341	34.809	0.0008095	0.00037558	0.00010915	745.49	4.568e-06	3.5293e-06	865.52	252.97	4.349e-06	5.0581e-06	352.95	129.25	92.378	42.784	4.6898e-06	62.645	7.4261e-05	3.0801e-05	8.1977e-06	732.18	3.5163e-07	3.1796e-07	849.56	249.99	3.497e-07	3.275e-07	345.97	127.45	91.113	42.758	3.6424e-07	62.237	89.030	102.347	137.535	40.244	133.304	180.563	39.015	45.608	188.207	180.048	43.587	48.631	50.606	56.869	204.478	53.255	-8191	255	
1227.671	1	1	0	0	0.21795	0.18501	0.26579	0.10254	0.22073	0.10935	0.18441	0.22981	0.069366	0.09203	0.18121	0.14571	0.24656	0.2474	0.14842	0.27095	-3.0396	-2.7729	-3.0875	-3.1292	-2.8458	-3.4771	-3.2354	-2.9542	-3.4208	-2.9042	-2.95	-3.3063	-2.7354	-3.5812	-3.1396	-3.0771	225.304	191.431	83.071	229.664	235.749	318.396	363.847	37.061	367.924	383.063	149.914	379.231	379.695	43.189	330.999	367.816	0.0007884	0.00052715	0.00010197	746.24	4.7734e-06	4.0489e-06	870.22	254.41	4.8384e-06	3.312e-06	355.23	131	93.693	43.548	5.0637e-06	63.745	7.5784e-05	3.3129e-05	8.1879e-06	732.33	3.7477e-07	3.1216e-07	853.1	251.31	3.8154e-07	3.3051e-07	348.58	128.57	91.75	43.17	3.7199e-07	62.502	88.943	107.742	128.450	40.169	156.593	165.446	39.299	45.023	204.870	161.000	43.245	48.170	49.939	56.095	181.564	52.607	-8191	255	
1227.767	1	1	0	0	0.10088	0.31486	0.1308	0.20827	0.070053	0.099421	0.18622	0.26171	0.022874	0.10786	0.20513	0.24392	0.037916	0.076351	0.19453	0.093373	-3.0687	-2.8771	-3.05	-3.3458	-2.7812	-3.2687	-3.0875	-3.0354	-3.5104	-2.9229	-2.9188	-3.425	-2.9167	-3.3417	-3.2562	-2.6312	221.542	371.411	269.273	338.668	318.199	183.439	43.001	311.703	332.540	226.274	370.582	29.899	266.961	68.188	203.301	269.310	0.00083255	0.00056563	0.00013088	749.84	4.3878e-06	4.0598e-06	863.77	254.78	3.3626e-06	3.8307e-06	353.18	130.3	92.652	43.19	4.8836e-06	62.531	7.6993e-05	3.1881e-05	8.8818e-06	732.72	3.5439e-07	3.276e-07	849.78	250.62	3.5675e-07	3.0504e-07	345.88	127.69	91.166	43.026	3.5135e-07	62.029	90.688	123.175	111.443	40.123	141.351	165.358	39.342	45.153	176.620	170.385	43.414	48.412	50.445	56.463	194.784	52.474	-8191	255	
#DATA ENDS
