BOXY.EXE: ISS Imagent and Oximeter Data Acquisition Program Version 0.80
Ascii Record File

#ACQ INFORMATION
2  Detector Channels 
16  External MUX Channels 
1  Auxiliary Channels 
5000  Waveform (CCF) Frequency (Hz)
1  Waveforms Skipped 
30  Waveforms Averaged 
1  Cycles Averaged 
16  Acquisitions per Waveform 
10.0806  Updata Rate (Hz) 

#FILE INFORMATION
TRUE -- External MUX Channel results are PARSED.
FALSE -- AC DC and Phase are NOT grouped.
TRUE -- Companion Program Settings File CREATED.
FALSE -- AC data not excluded
FALSE -- DC data not excluded
FALSE -- Phase data not excluded
FALSE -- Auxillary Chn. data not excluded
Tab delimiters

#CALIBRATION STATE
TRUE -- Waveform Calibration Values APPLIED.


#AUX CALIBRATION VALUES
Val Type	aux-1	

Term	1.0000e+00	
Factor	0.0000e+00	


#WF CALIBRATION VALUES
A = Detector Channel
Val Type	A-AC1	A-AC2	A-AC3	A-AC4	A-AC5	A-AC6	A-AC7	A-AC8	A-AC9	A-AC10	A-AC11	A-AC12	A-AC13	A-AC14	A-AC15	A-AC16	A-DC1	A-DC2	A-DC3	A-DC4	A-DC5	A-DC6	A-DC7	A-DC8	A-DC9	A-DC10	A-DC11	A-DC12	A-DC13	A-DC14	A-DC15	A-DC16	A-Ph1	A-Ph2	A-Ph3	A-Ph4	A-Ph5	A-Ph6	A-Ph7	A-Ph8	A-Ph9	A-Ph10	A-Ph11	A-Ph12	A-Ph13	A-Ph14	A-Ph15	A-Ph16	

Term	0.00000e+00	0.00000e+00	0.00000e+00	0.00000e+00	0.00000e+00	0.00000e+00	0.00000e+00	0.00000e+00	0.00000e+00	0.00000e+00	0.00000e+00	0.00000e+00	0.00000e+00	0.00000e+00	0.00000e+00	0.00000e+00	0.00000e+00	0.00000e+00	0.00000e+00	0.00000e+00	0.00000e+00	0.00000e+00	0.00000e+00	0.00000e+00	0.00000e+00	0.00000e+00	0.00000e+00	0.00000e+00	0.00000e+00	0.00000e+00	0.00000e+00	0.00000e+00	0.00000e+00	0.00000e+00	0.00000e+00	0.00000e+00	0.00000e+00	0.00000e+00	0.00000e+00	0.00000e+00	0.00000e+00	0.00000e+00	0.00000e+00	0.00000e+00	0.00000e+00	0.00000e+00	0.00000e+00	0.00000e+00	
Factor	1.00000e+00	1.00000e+00	1.00000e+00	1.00000e+00	1.00000e+00	1.00000e+00	1.00000e+00	1.00000e+00	1.00000e+00	1.00000e+00	1.00000e+00	1.00000e+00	1.00000e+00	1.00000e+00	1.00000e+00	1.00000e+00	1.00000e+00	1.00000e+00	1.00000e+00	1.00000e+00	1.00000e+00	1.00000e+00	1.00000e+00	1.00000e+00	1.00000e+00	1.00000e+00	1.00000e+00	1.00000e+00	1.00000e+00	1.00000e+00	1.00000e+00	1.00000e+00	X	X	X	X	X	X	X	X	X	X	X	X	X	X	X	X	

B = Detector Channel
Val Type	B-AC1	B-AC2	B-AC3	B-AC4	B-AC5	B-AC6	B-AC7	B-AC8	B-AC9	B-AC10	B-AC11	B-AC12	B-AC13	B-AC14	B-AC15	B-AC16	B-DC1	B-DC2	B-DC3	B-DC4	B-DC5	B-DC6	B-DC7	B-DC8	B-DC9	B-DC10	B-DC11	B-DC12	B-DC13	B-DC14	B-DC15	B-DC16	B-Ph1	B-Ph2	B-Ph3	B-Ph4	B-Ph5	B-Ph6	B-Ph7	B-Ph8	B-Ph9	B-Ph10	B-Ph11	B-Ph12	B-Ph13	B-Ph14	B-Ph15	B-Ph16	

Term	0.00000e+00	0.00000e+00	0.00000e+00	0.00000e+00	0.00000e+00	0.00000e+00	0.00000e+00	0.00000e+00	0.00000e+00	0.00000e+00	0.00000e+00	0.00000e+00	0.00000e+00	0.00000e+00	0.00000e+00	0.00000e+00	0.00000e+00	0.00000e+00	0.00000e+00	0.00000e+00	0.00000e+00	0.00000e+00	0.00000e+00	0.00000e+00	0.00000e+00	0.00000e+00	0.00000e+00	0.00000e+00	0.00000e+00	0.00000e+00	0.00000e+00	0.00000e+00	-1.85345e+02	-1.23737e+02	-1.11857e+02	-1.80493e+02	-1.02631e+02	-7.18909e+01	-1.55190e+02	-1.62015e+02	-8.30239e+01	-6.30682e+01	-1.71086e+02	-1.70392e+02	-1.81065e+02	-1.76742e+02	-5.60175e+01	-1.49283e+02	
Factor	3.45794e-05	1.28973e-04	3.64895e-05	1.78598e-01	1.50782e-06	1.48164e-06	1.55936e-01	4.98493e-02	1.25560e-06	1.27048e-06	8.53734e-02	2.92799e-02	2.65120e-02	9.74353e-03	1.48999e-06	1.28900e-02	2.28479e-06	2.43523e-06	6.78434e-07	9.15091e-02	2.64387e-08	2.67660e-08	7.53430e-02	2.56481e-02	2.64425e-08	2.67481e-08	4.24034e-02	1.45225e-02	1.36176e-02	5.01221e-03	2.65546e-08	6.42646e-03	X	X	X	X	X	X	X	X	X	X	X	X	X	X	X	X	



#DISTANCE SETTINGS
A = Detector Channel
A-1	A-2	A-3	A-4	A-5	A-6	A-7	A-8	A-9	A-10	A-11	A-12	A-13	A-14	A-15	A-16	

2.5000e+00	3.0000e+00	2.5000e+00	3.0000e+00	2.0000e+00	3.0000e+00	1.5000e+00	3.0000e+00	3.0000e+00	3.0000e+00	3.0000e+00	3.0000e+00	3.0000e+00	3.0000e+00	1.5000e+00	3.0000e+00	

B = Detector Channel
B-1	B-2	B-3	B-4	B-5	B-6	B-7	B-8	B-9	B-10	B-11	B-12	B-13	B-14	B-15	B-16	

1.0000e+01	1.0000e+01	1.0000e+01	1.4400e+00	1.0000e+01	1.0000e+01	1.5100e+00	1.9400e+00	1.0000e+01	1.0000e+01	1.9900e+00	2.4900e+00	2.4100e+00	2.9000e+00	1.0000e+01	2.9800e+00	




#DATA BEGINS
time	group	step	mark	flag	A-AC1	A-AC2	A-AC3	A-AC4	A-AC5	A-AC6	A-AC7	A-AC8	A-AC9	A-AC10	A-AC11	A-AC12	A-AC13	A-AC14	A-AC15	A-AC16	A-DC1	A-DC2	A-DC3	A-DC4	A-DC5	A-DC6	A-DC7	A-DC8	A-DC9	A-DC10	A-DC11	A-DC12	A-DC13	A-DC14	A-DC15	A-DC16	A-Ph1	A-Ph2	A-Ph3	A-Ph4	A-Ph5	A-Ph6	A-Ph7	A-Ph8	A-Ph9	A-Ph10	A-Ph11	A-Ph12	A-Ph13	A-Ph14	A-Ph15	A-Ph16	B-AC1	B-AC2	B-AC3	B-AC4	B-AC5	B-AC6	B-AC7	B-AC8	B-AC9	B-AC10	B-AC11	B-AC12	B-AC13	B-AC14	B-AC15	B-AC16	B-DC1	B-DC2	B-DC3	B-DC4	B-DC5	B-DC6	B-DC7	B-DC8	B-DC9	B-DC10	B-DC11	B-DC12	B-DC13	B-DC14	B-DC15	B-DC16	B-Ph1	B-Ph2	B-Ph3	B-Ph4	B-Ph5	B-Ph6	B-Ph7	B-Ph8	B-Ph9	B-Ph10	B-Ph11	B-Ph12	B-Ph13	B-Ph14	B-Ph15	B-Ph16	aux-1	digaux	

1393.815	1	1	0	512	0.16208	0.043329	0.14477	0.34225	0.12879	0.064867	0.14847	0.11269	0.12746	0.13926	0.22454	0.2063	0.17562	0.054764	0.15667	0.20265	-2.7938	-2.9625	-3.5542	-2.9396	-2.9833	-3.4813	-2.7917	-3.3312	-3.1167	-2.775	-3.4437	-2.8688	-2.8896	-3.35	-2.7646	-3.4333	321.676	85.977	227.995	343.172	80.575	237.671	274.373	150.185	188.083	339.898	253.132	130.124	30.055	218.171	256.524	286.384	0.00015704	0.00020058	8.6698e-05	225.88	1.033e-06	2.2689e-06	327.82	71.966	6.5705e-07	2.5049e-06	114.33	48.626	29.626	12.062	2.4923e-06	19.591	0.00013998	0.00014395	3.832e-05	226.03	1.5338e-06	1.5293e-06	326.85	72.115	1.4915e-06	1.5828e-06	114.58	48.515	29.911	12.216	1.4983e-06	19.738	91.518	102.340	122.411	6.479	192.954	149.600	4.511	13.044	133.845	145.140	10.017	13.876	16.110	21.587	185.544	18.465	-8191	255	
1393.911	1	1	0	0	0.071992	0.27157	0.25995	0.053792	0.1678	0.24574	0.077763	0.055317	0.1007	0.30585	0.19642	0.22732	0.14705	0.34137	0.12167	0.10031	-3.0646	-2.95	-3.4208	-3.15	-3.1146	-3.6229	-3.0187	-3.3438	-3.3604	-2.8937	-3.5667	-3.2875	-3.0062	-3.6104	-2.9354	-3.2625	108.143	24.806	337.369	216.399	322.713	98.263	14.733	221.448	180.091	201.219	207.204	5.962	33.722	353.826	331.833	210.259	0.00017284	9.9336e-05	7.7687e-05	227.66	1.5359e-06	2.2353e-06	329.68	72.486	3.3844e-06	1.9111e-06	115.57	48.775	29.847	12.286	5.6314e-07	19.796	0.00014215	0.00014129	3.7404e-05	227.08	1.5744e-06	1.4855e-06	327.28	72.765	1.4506e-06	1.5549e-06	115.7	48.708	30.085	12.309	1.4597e-06	19.891	73.893	38.082	79.110	7.062	332.519	-4.507	4.837	12.646	217.921	171.761	9.934	13.400	16.213	21.443	342.987	18.123	-8191	255	
1393.984	1	1	0	0	0.14154	0.20362	0.08735	0.061455	0.0045586	0.27587	0.17545	0.073869	0.21891	0.027331	0.11665	0.10143	0.061673	0.11589	0.20355	0.043784	-3.0542	-3.0354	-3.475	-3.2542	-3.1	-3.475	-3.0812	-3.1417	-3.4625	-2.7292	-3.5958	-3.3375	-2.9208	-3.5083	-2.8438	-3.0312	262.621	348.307	51.841	250.124	176.033	218.475	235.222	245.720	340.328	158.215	138.196	321.755	214.459	256.891	21.418	179.164	0.00015839	0.00020173	6.6947e-05	226.74	3.1165e-06	1.7869e-06	336.18	73.396	1.1997e-06	1.4589e-06	117.42	49.851	30.107	12.326	2.4006e-06	20.055	0.00014081	0.00014278	3.7481e-05	227.24	1.5763e-06	1.5007e-06	333.31	73.531	1.53e-06	1.517e-06	116.62	49.145	30.092	12.391	1.4837e-06	19.947	87.440	272.443	94.165	6.052	158.192	188.170	4.746	12.421	321.149	202.350	10.172	12.940	14.624	21.192	121.180	18.254	-8191	255	
1394.103	1	1	0	0	0.010193	0.099377	0.066065	0.12099	0.036594	0.024435	0.057553	0.017964	0.21988	0.21999	0.12131	0.19796	0.18792	0.061931	0.10638	0.029377	-3.025	-2.65	-3.3875	-3.3438	-3	-3.5958	-3.2583	-3.1583	-3.6229	-2.8771	-3.3312	-3.3979	-2.8104	-3.3604	-3.0938	-2.9167	294.589	119.954	4.260	250.307	323.466	201.137	157.517	34.398	337.117	313.569	70.041	49.168	-2.588	260.190	173.523	163.274	0.00019238	0.00025371	3.061e-05	227.9	1.4627e-06	4.9869e-07	331.97	72.943	2.8121e-06	1.7184e-06	114.75	48.648	29.604	12.283	1.9071e-06	19.634	0.00014309	0.00013741	3.8476e-05	228.01	1.5775e-06	1.4843e-06	328.13	72.781	1.4861e-06	1.5024e-06	113.89	48.277	29.829	12.237	1.4741e-06	19.663	86.164	88.628	334.957	5.905	123.193	256.695	4.150	11.871	72.921	166.427	9.818	13.167	15.018	21.701	215.350	18.388	-8191	255	
1394.199	1	1	0	0	0.27194	0.083959	0.16475	0.17722	0.17337	0.15569	0.18338	0.10939	0.22788	0.12077	0.030425	0.4485	0.19143	0.22088	0.060383	0.12384	-3.1667	-2.9208	-3.4021	-3.5042	-2.625	-3.5583	-3.2875	-2.8542	-3.4521	-2.9271	-3.3104	-3.4479	-2.9979	-3.4333	-3.0958	-2.8187	252.138	14.843	247.840	7.884	101.325	98.354	283.895	254.837	282.457	-2.188	276.143	13.878	208.945	300.005	127.110	270.898	0.00024934	0.00021279	2.1322e-05	227.61	3.5972e-06	1.5219e-06	330.43	72.175	1.4962e-06	1.9963e-06	116.05	48.042	29.477	12.192	2.2598e-06	19.745	0.00014108	0.00013376	3.8874e-05	227.46	1.522e-06	1.4478e-06	327.28	72.512	1.4553e-06	1.439e-06	115.19	48.016	29.864	12.271	1.4569e-06	19.718	93.148	-1.960	134.512	6.556	9.228	134.305	4.721	12.831	105.972	67.441	9.905	13.956	16.041	22.042	167.564	18.497	-8191	255	
1394.296	1	1	0	0	0.11846	0.082328	0.063341	0.10197	0.55685	0.22605	0.076359	0.046281	0.20569	0.21437	0.22886	0.12211	0.12023	0.021795	0.30122	0.048239	-3.2958	-2.8583	-3.3396	-3.5854	-2.875	-3.4792	-3.25	-2.9667	-3.5833	-3.0187	-3.1771	-3.5812	-2.8375	-3.1625	-3.1437	-2.9292	10.042	306.271	224.493	111.106	328.729	289.128	16.143	336.705	56.262	92.281	177.498	238.014	38.062	348.895	74.998	344.490	0.00023294	0.00026002	3.5424e-05	224.59	3.2595e-06	2.1022e-06	331.63	72.633	1.4036e-06	2.6936e-06	116.4	48.821	29.588	12.178	1.3572e-06	19.709	0.00013878	0.00013478	3.9459e-05	226.49	1.5223e-06	1.4875e-06	328.34	72.962	1.4488e-06	1.4937e-06	115.55	48.577	29.863	12.294	1.4715e-06	19.812	60.241	115.861	83.128	7.089	250.957	29.531	4.909	12.323	116.468	196.115	9.936	13.788	15.941	21.485	54.246	17.960	-8191	255	
1394.416	1	1	0	0	0.068313	0.11558	0.1099	0.19256	0.093819	0.29619	0.077212	0.052019	0.15742	0.08312	0.049665	0.054292	0.26032	0.024264	0.19928	0.10516	-3.4021	-2.9896	-3.0333	-3.4771	-2.6854	-3.3396	-3.3563	-2.8187	-3.4542	-2.9708	-2.875	-3.4	-2.8708	-3.2854	-3.4708	-3.0062	226.556	263.409	133.868	202.802	296.355	2.459	181.834	64.800	303.417	309.224	245.665	29.914	146.781	103.627	170.579	86.873	0.00019548	0.0001238	4.4657e-05	226.67	1.3567e-07	4.5415e-07	330.96	71.921	1.7891e-06	3.7198e-06	114.4	48.423	29.565	12.042	2.3945e-06	19.564	0.00013883	0.00013599	4.0411e-05	227.8	1.4778e-06	1.5471e-06	328.81	72.721	1.4525e-06	1.5097e-06	114.11	48.326	29.738	12.172	1.474e-06	19.568	61.605	46.218	26.108	6.532	174.990	144.043	5.141	12.542	188.802	202.355	9.835	13.251	15.848	21.516	176.368	18.359	-8191	255	
1394.512	1	1	0	0	0.19837	0.21623	0.16672	0.1329	0.32028	0.049826	0.054715	0.26541	0.26062	0.29325	0.22301	0.13566	0.11819	0.26397	0.31645	0.30694	-3.1229	-3.2792	-3.0167	-3.3833	-2.8104	-3.0167	-3.3479	-3.1104	-3.5646	-3.3979	-2.9437	-3.5146	-3.1021	-3.1708	-3.3833	-2.8	203.259	323.739	253.971	25.754	342.181	125.217	1.023	227.537	36.113	26.746	201.261	115.651	21.874	263.560	165.048	239.562	0.00014407	0.00015322	2.8469e-05	227.74	1.9844e-06	1.4977e-06	323.95	72.272	9.78e-07	1.5016e-06	112.86	48.137	29.16	12.057	1.5948e-06	19.443	0.00013789	0.00013283	4.0028e-05	226.47	1.4477e-06	1.5795e-06	323.41	72.094	1.466e-06	1.4296e-06	112.95	47.752	29.57	12.124	1.502e-06	19.374	78.405	286.114	29.750	6.431	165.788	93.856	4.548	12.696	123.993	212.718	9.574	13.541	15.755	21.047	183.579	18.651	-8191	255	
1394.607	1	1	0	0	0.24065	0.32122	0.14272	0.39407	0.27238	0.1117	0.087292	0.18134	0.15987	0.087038	0.1109	0.1727	0.12448	0.075309	0.011442	0.20511	-2.6979	-3.0458	-2.9417	-3.5	-3.1354	-2.9729	-3.5708	-2.8729	-3.2458	-3.4604	-2.7583	-3.3688	-2.9521	-2.9521	-3.5167	-3.0333	349.640	263.190	333.594	185.590	175.754	340.733	266.126	317.228	126.538	339.145	301.995	129.454	82.863	349.816	114.975	-1.829	0.00024835	0.00035968	8.7456e-05	226.64	2.1648e-06	7.851e-07	327.51	72.637	1.9227e-06	1.6062e-06	114.5	48.092	29.486	11.961	1.6056e-06	19.612	0.00014123	0.00013579	3.9524e-05	225.81	1.4465e-06	1.5975e-06	325.95	72.281	1.4997e-06	1.443e-06	114.54	47.973	29.717	12.159	1.479e-06	19.587	81.934	50.442	163.972	6.280	168.590	210.228	4.588	12.673	82.694	113.778	9.509	13.984	16.070	21.342	262.123	18.798	-8191	255	
1394.680	1	1	0	0	0.25248	0.13077	0.17648	0.10568	0.15948	0.088301	0.15527	0.094213	0.29196	0.091	0.15615	0.19681	0.17864	0.062502	0.061573	0.17597	-3.075	-3.3208	-2.8854	-3.6271	-3.1229	-3.1917	-3.4729	-2.9667	-3.3479	-3.4437	-2.8708	-3.3896	-3.0167	-3.0583	-3.625	-2.9104	136.799	303.814	285.808	277.679	339.668	34.238	81.901	153.742	345.030	38.079	185.064	15.740	36.730	236.413	188.580	315.513	0.0002363	0.0001976	6.0076e-05	226.44	1.8568e-06	1.1822e-06	330.7	72.554	1.7957e-06	1.983e-06	117.48	48.874	29.645	12.107	3.106e-06	19.715	0.00014373	0.0001347	3.9782e-05	226.81	1.4732e-06	1.5793e-06	328.39	73.009	1.5406e-06	1.4961e-06	116.51	48.52	29.838	12.225	1.4486e-06	19.776	82.613	94.852	18.913	6.778	121.671	146.977	4.936	12.449	148.919	256.313	9.657	13.682	15.743	21.580	213.636	18.179	-8191	255	
1394.799	1	1	0	0	0.039517	0.11986	0.16857	0.10107	0.25488	0.20889	0.07488	0.21737	0.18559	0.07549	0.10146	0.25339	0.045306	0.18572	0.17412	0.23631	-3.0271	-3.55	-2.725	-3.4813	-3.2958	-3.025	-3.3208	-2.9167	-2.9375	-3.475	-2.925	-3.3333	-2.9292	-2.8042	-3.3396	-2.8854	13.863	182.743	182.170	88.226	215.967	271.115	340.236	240.173	274.430	92.538	66.061	2.598	234.679	328.065	131.960	302.735	0.00019408	0.00016165	6.7825e-05	226.71	2.6531e-06	1.5542e-06	331.87	72.042	2.5756e-06	3.3483e-06	114.96	48.05	29.515	11.987	1.2969e-06	19.449	0.00014657	0.00013154	3.8066e-05	228.62	1.4835e-06	1.5535e-06	329.38	72.915	1.5505e-06	1.4722e-06	114.55	48.036	29.814	12.124	1.4744e-06	19.462	81.860	21.386	85.270	6.674	143.296	189.801	4.468	12.765	137.863	132.621	10.100	13.571	16.180	21.615	145.959	18.934	-8191	255	
1394.895	1	1	0	0	0.096678	0.13223	0.1348	0.082463	0.10876	0.25585	0.30149	0.024925	0.064606	0.067276	0.038111	0.040314	0.094031	0.23332	0.12226	0.095519	-2.6437	-3.4146	-2.7104	-3.3083	-3.2958	-2.9667	-3.5333	-3.0833	-3.125	-3.5708	-2.8104	-3.2271	-3.2292	-2.8458	-3.4396	-3.15	84.863	38.375	289.373	91.714	140.263	99.672	316.264	46.916	238.562	33.640	48.928	231.561	47.515	338.386	240.504	128.604	0.0001219	0.00010044	1.1423e-05	230.12	1.1742e-06	3.3968e-06	327.95	71.148	1.471e-06	2.9414e-06	114.12	47.725	29.367	11.948	2.2757e-06	19.453	0.00014685	0.0001316	3.7858e-05	228.05	1.4313e-06	1.5888e-06	326.3	71.928	1.5693e-06	1.4463e-06	113.5	47.858	29.751	12.098	1.4757e-06	19.459	73.858	289.537	27.246	6.351	77.304	119.823	5.039	12.393	110.290	105.048	10.342	13.127	16.578	21.811	254.338	18.942	-8191	255	
1394.991	1	1	0	0	0.063302	0.13174	0.17009	0.12524	0.082074	0.25892	0.095342	0.0080409	0.29625	0.097246	0.21947	0.34658	0.34826	0.11572	0.19944	0.24689	-2.5354	-3.55	-2.9146	-3.4271	-3.5167	-2.8354	-3.4417	-3.2	-2.9521	-3.7438	-3	-3.1625	-3.5312	-2.9437	-3.3354	-3.2042	158.172	119.335	132.368	216.975	263.372	194.304	236.523	269.617	214.582	272.831	141.925	5.061	236.925	333.758	264.770	123.727	0.00021705	0.00038219	9.9322e-05	227.69	1.7088e-06	1.7561e-06	328.61	71.78	1.3964e-06	1.7167e-06	114.27	48.326	29.472	12.042	1.2965e-06	19.522	0.0001439	0.00013109	3.7175e-05	226.51	1.4504e-06	1.4796e-06	326.1	72.499	1.5969e-06	1.4704e-06	114.73	48.191	29.88	12.181	1.5189e-06	19.542	79.376	135.161	138.897	6.258	329.780	105.885	4.793	13.309	172.093	114.897	10.099	13.591	16.421	22.022	214.957	19.072	-8191	255	
1395.087	1	1	0	0	0.12556	0.089843	0.19632	0.052535	0.060715	0.1093	0.13134	0.10238	0.18168	0.15987	0.15532	0.079441	0.16186	0.28272	0.082131	0.34475	-2.5604	-3.45	-2.8563	-3.15	-3.4792	-2.775	-3.5271	-3.2417	-2.8312	-3.5667	-2.9542	-2.9938	-3.4021	-2.8438	-3.3375	-3.2375	240.970	79.218	67.095	191.107	201.423	140.760	183.045	133.606	338.426	1.641	97.450	74.185	137.687	59.569	323.056	272.891	0.00017422	0.00024419	7.557e-05	228.05	2.7608e-06	1.7529e-06	332.97	73.338	1.1052e-06	2.6854e-06	116.2	48.565	29.998	12.12	1.9432e-06	19.635	0.00014395	0.00013337	3.7551e-05	227.33	1.4531e-06	1.4659e-06	330.26	73.169	1.5444e-06	1.4844e-06	115.9	48.579	30.101	12.258	1.561e-06	19.635	92.128	148.332	7.936	5.823	120.183	124.582	4.538	11.782	27.467	188.215	9.585	12.688	16.494	21.800	109.048	18.489	-8191	255	
1395.208	1	1	0	0	0.10231	0.12734	0.15521	0.22038	0.21641	0.23858	0.21993	0.090558	0.18056	0.036705	0.099663	0.16856	0.10696	0.22782	0.11165	0.27625	-2.3042	-3.425	-2.9604	-2.8271	-3.3104	-2.7438	-3.225	-3.1354	-2.9062	-3.4146	-3.0771	-2.8229	-3.5312	-2.6958	-3.3271	-3.3625	16.395	248.099	197.758	169.714	0.217	148.218	312.161	36.495	194.491	63.926	136.202	65.959	9.946	304.167	193.642	287.377	0.00013015	0.00017399	4.548e-05	227.37	2.9524e-06	1.8134e-06	330.62	72.784	9.8175e-07	9.9037e-07	113.93	48.166	29.737	12.021	2.7522e-06	19.29	0.00014635	0.00013829	3.7433e-05	226.42	1.4787e-06	1.5147e-06	325.95	72.855	1.4772e-06	1.4673e-06	113.51	47.913	29.768	12.124	1.5716e-06	19.321	86.212	183.698	50.451	5.785	225.179	175.074	4.086	12.196	104.898	147.761	9.589	12.923	16.104	21.594	231.399	18.532	-8191	255	
1395.280	1	1	0	0	0.092807	0.10412	0.06185	0.25888	0.25324	0.1998	0.15305	0.10793	0.24383	0.096841	0.1224	0.10538	0.22976	0.042386	0.15807	0.14588	-2.2771	-3.3542	-2.8937	-2.7208	-3.1146	-2.8625	-3.2167	-3.4333	-2.7938	-3.2542	-3.0792	-2.7979	-3.45	-2.9125	-3.0708	-3.6271	260.178	107.437	137.468	323.977	75.843	262.374	155.896	7.208	34.861	96.804	313.792	286.194	89.094	98.371	258.827	108.349	0.00022616	0.00021714	3.7283e-05	227.71	2.7662e-06	3.632e-06	327.55	73.362	4.1251e-06	2.6953e-06	114.86	48.103	30.197	12.017	1.4476e-06	19.222	0.00014337	0.00013739	3.7671e-05	226.51	1.4363e-06	1.4917e-06	325.63	72.746	1.503e-06	1.5344e-06	113.96	47.831	29.989	12.106	1.5674e-06	19.256	76.174	71.986	97.373	6.029	165.824	93.800	4.277	12.327	152.109	169.394	9.723	12.942	15.950	21.753	171.218	18.334	-8191	255	
1395.376	1	1	0	0	0.1634	0.1984	0.20557	0.11556	0.22539	0.023526	0.11772	0.079077	0.061222	0.13705	0.27208	0.20204	0.14522	0.22585	0.19442	0.018186	-2.4	-3.3958	-3.1562	-2.9917	-3.4625	-2.9896	-2.9708	-3.5396	-3.0333	-3.5792	-3.3979	-2.9104	-3.4437	-2.9	-2.7208	-3.4375	243.882	192.801	202.959	139.326	212.812	232.818	295.893	20.571	152.200	216.216	316.998	283.804	93.820	337.334	136.120	24.339	0.00023528	0.00019525	5.9647e-05	226.04	2.6293e-06	2.2025e-06	328.45	73.378	2.8573e-06	2.1815e-06	115.41	48.722	29.709	12.158	3.9394e-06	19.42	0.00014181	0.00014292	3.6931e-05	226.23	1.4725e-06	1.4845e-06	326.02	73.15	1.4959e-06	1.5615e-06	115.22	48.352	30.053	12.206	1.5783e-06	19.511	69.941	103.059	296.254	6.226	136.047	180.955	4.662	12.398	89.155	220.917	9.520	12.681	16.608	21.793	113.348	17.976	-8191	255	
1395.497	1	1	0	0	0.20967	0.095658	0.14031	0.25902	0.15858	0.13559	0.27833	0.11574	0.17794	0.31627	0.015745	0.05582	0.077111	0.1094	0.16363	0.076303	-2.5479	-3.1708	-3.2625	-2.7646	-3.1042	-3.0083	-2.9938	-3.3792	-2.9792	-3.3812	-3.4854	-2.9292	-3.3104	-3.1813	-2.6604	-3.4542	76.395	139.428	183.910	102.649	164.788	130.658	73.770	330.456	12.268	8.719	21.364	329.783	298.679	59.823	201.904	283.833	0.00013093	0.00014487	7.6177e-05	228.7	8.6581e-07	1.9827e-06	333.2	73.87	2.7986e-06	2.3328e-06	117.45	49.063	29.932	12.21	3.8676e-06	19.606	0.00014369	0.00014113	3.6792e-05	227.83	1.5259e-06	1.4458e-06	329.01	73.835	1.5023e-06	1.5318e-06	116.54	48.668	30.191	12.272	1.5141e-06	19.552	88.129	66.089	110.513	5.937	330.144	156.529	4.551	12.142	322.310	88.108	9.663	13.637	16.418	21.725	216.446	18.315	-8191	255	
1395.591	1	1	0	0	0.13773	0.11623	0.077712	0.11257	0.2182	0.089834	0.18567	0.12089	0.11131	0.12069	0.07553	0.2102	0.22852	0.094509	0.29967	0.050367	-2.3729	-3.1167	-3.1854	-2.7792	-3.525	-3.1521	-2.9188	-3.5563	-2.7854	-3.1562	-3.5125	-2.7896	-3.3229	-3.2083	-2.8479	-3.6083	326.198	103.129	55.984	232.547	54.077	343.803	340.971	261.811	286.652	334.921	44.167	235.026	304.132	168.902	34.843	304.722	0.00017612	0.00015299	6.0296e-05	228.34	1.9289e-06	2.6092e-06	329.22	72.48	5.3022e-07	1.4237e-06	113.37	48.233	29.604	12.025	1.9123e-06	19.225	0.00014569	0.00014213	3.6669e-05	227.66	1.5278e-06	1.4163e-06	327.25	72.967	1.4555e-06	1.5493e-06	113.41	47.798	29.953	12.164	1.4737e-06	19.298	96.823	272.855	90.181	5.786	96.983	151.726	4.156	12.506	141.704	99.929	9.945	13.335	15.802	21.529	200.661	18.793	-8191	255	
1395.687	1	1	0	0	0.060327	0.14179	0.18327	0.15308	0.10167	0.37874	0.21164	0.066896	0.10979	0.10261	0.13589	0.24328	0.21323	0.10056	0.22972	0.25684	-2.7396	-3.1542	-3.5021	-2.9562	-3.4062	-3.3771	-2.7792	-3.4271	-3.0625	-3.0479	-3.4479	-3	-3.3875	-3.4667	-2.9396	-3.4417	262.475	148.314	65.364	189.235	316.357	219.999	86.843	101.400	240.434	312.741	101.010	237.728	323.213	309.423	234.166	316.441	0.00017968	0.00030292	9.9248e-05	228.84	1.4798e-06	3.543e-06	327.93	72.275	9.6587e-07	2.902e-06	114.37	48.198	29.905	12.107	3.6154e-06	19.419	0.00014003	0.00014249	3.7218e-05	227.25	1.4952e-06	1.4272e-06	324.81	72.702	1.4707e-06	1.5327e-06	114.13	47.908	29.921	12.219	1.4696e-06	19.479	81.814	45.182	125.221	6.554	85.422	87.623	4.315	12.933	134.618	124.517	9.926	13.118	15.616	22.062	200.558	18.882	-8191	255	
1395.785	1	1	0	0	0.11372	0.17611	0.095442	0.049597	0.15728	0.18622	0.1679	0.17433	0.1782	0.070754	0.36926	0.2967	0.10952	0.096606	0.13352	0.10504	-2.8229	-2.9375	-3.5229	-2.8979	-3.0083	-3.35	-2.7812	-3.2354	-2.9062	-3.025	-3.5604	-2.9292	-3.3125	-3.4021	-2.7313	-3.3917	289.059	262.837	238.312	193.824	187.957	299.951	290.619	106.722	184.864	261.651	292.293	39.826	182.321	82.187	94.634	346.923	0.00011328	0.00017058	7.7215e-05	226.92	1.7518e-06	1.9729e-06	331.73	73.716	1.6152e-06	2.0768e-06	115.58	48.411	29.861	12.275	2.2384e-06	19.575	0.00013349	0.00014136	3.6758e-05	226.61	1.5291e-06	1.4436e-06	325.94	73.623	1.4669e-06	1.5156e-06	115.28	48.308	30.082	12.298	1.4949e-06	19.57	92.638	24.567	23.115	5.986	95.219	183.803	4.122	12.356	38.526	7.406	9.866	13.316	15.525	21.959	154.658	17.713	-8191	255	
1395.879	1	1	0	0	0.1207	0.21617	0.22119	0.26298	0.1131	0.16189	0.15756	0.12569	0.14186	0.19041	0.21458	0.43417	0.07391	0.15478	0.14901	0.14214	-2.5542	-2.75	-3.2729	-2.8292	-2.9375	-3.3792	-2.7833	-3.1833	-3.25	-2.9917	-3.4708	-2.7083	-3.0958	-3.4646	-2.675	-3.3208	325.408	192.350	67.959	173.915	269.309	229.328	348.131	203.358	172.074	188.342	292.214	272.596	279.833	229.409	57.579	323.226	0.00022822	0.00015187	8.7829e-05	227.72	2.7392e-06	2.2652e-06	330.57	73.273	1.1807e-06	7.9919e-07	114.09	48.305	30.045	12.105	1.822e-06	19.419	0.00014136	0.00013968	3.7252e-05	226.79	1.5622e-06	1.448e-06	327.52	73.755	1.5019e-06	1.5054e-06	115.1	48.061	30.086	12.22	1.4841e-06	19.461	92.351	18.516	134.890	5.942	346.502	70.078	4.878	12.049	250.212	115.994	9.691	13.519	16.413	22.125	260.431	18.882	-8191	255	
1395.976	1	1	0	0	0.13532	0.11647	0.088838	0.09101	0.097298	0.076173	0.022819	0.2078	0.12041	0.16486	0.094676	0.048877	0.027694	0.1251	0.26323	0.18882	-2.9271	-2.7708	-3.5333	-2.9979	-2.7229	-3.3229	-2.7208	-3.1437	-3.1771	-2.7917	-3.4896	-3.1188	-2.9146	-3.4792	-2.9688	-3.2646	261.635	158.636	189.874	182.846	101.834	328.777	340.380	142.060	2.783	315.781	43.555	46.710	162.651	206.686	6.881	186.555	0.000143	0.00024041	8.3907e-05	224.47	2.1489e-06	1.501e-06	325.22	71.786	8.5462e-07	1.2946e-07	112.92	47.495	29.248	11.957	3.0111e-06	19.051	0.00013762	0.0001384	3.7649e-05	225.42	1.5496e-06	1.4002e-06	322.49	72.682	1.4043e-06	1.5237e-06	112.91	47.312	29.691	12.156	1.4543e-06	19.225	90.715	133.015	145.929	6.549	93.929	265.549	4.417	12.775	167.118	48.631	9.647	13.324	16.228	21.901	146.002	18.519	-8191	255	
1396.096	1	1	0	0	0.12698	0.046563	0.17111	0.23322	0.016546	0.21512	0.28736	0.27365	0.087826	0.19064	0.15184	0.27159	0.19854	0.21341	0.071049	0.091921	-2.8333	-2.775	-3.3917	-3.25	-2.9188	-3.4562	-3.1083	-3.1333	-3.45	-2.9417	-3.5354	-3.15	-2.8229	-3.3083	-3.0021	-3.1688	269.471	279.532	119.815	149.387	98.708	109.560	214.725	262.119	277.737	294.515	-3.493	28.978	327.848	184.632	301.698	19.941	0.0001919	0.00034854	3.8365e-05	224.67	2.2592e-06	3.563e-06	325.31	73.187	2.4134e-06	2.0581e-06	114.11	47.825	29.425	12.154	1.4062e-07	19.472	0.0001363	0.00013794	3.7967e-05	224.92	1.5014e-06	1.4797e-06	322.52	73.42	1.4183e-06	1.4986e-06	114.16	47.664	29.87	12.273	1.4648e-06	19.462	72.166	129.317	231.338	6.407	99.336	153.465	4.918	12.711	133.888	72.210	9.596	14.173	16.197	22.012	311.831	18.912	-8191	255	
1396.192	1	1	0	0	0.10867	0.037649	0.10011	0.18016	0.049426	0.14661	0.25723	0.14764	0.24793	0.18737	0.086066	0.27418	0.048839	0.1011	0.20428	0.12287	-3.2167	-2.8312	-3.3937	-3.2292	-2.775	-3.35	-2.9708	-2.8583	-3.5021	-2.9354	-3.2625	-3.2896	-2.7979	-3.4	-2.9021	-2.8542	15.685	332.909	117.315	98.984	7.968	353.859	129.758	154.761	159.111	115.634	244.946	314.900	220.812	7.174	120.779	113.254	0.00030657	7.4486e-05	2.3384e-05	227.09	1.9012e-06	7.6738e-07	328.21	73.557	2.6606e-06	4.7041e-07	114.72	47.919	29.882	12.171	1.8038e-06	19.482	0.00013582	0.0001382	3.9057e-05	226.28	1.5309e-06	1.4698e-06	325.98	73.912	1.4444e-06	1.48e-06	115.12	48.163	30.043	12.365	1.445e-06	19.607	77.511	92.597	121.130	6.378	170.178	152.534	4.391	12.674	174.579	334.857	9.765	13.209	16.409	22.670	275.432	18.807	-8191	255	
1396.288	1	1	0	0	0.17741	0.15106	0.021144	0.1741	0.30493	0.31577	0.2419	0.15227	0.22366	0.2388	0.073903	0.3589	0.21063	0.24028	0.13052	0.12346	-3.1208	-2.8542	-3.1896	-3.4333	-2.7271	-3.3771	-3.0687	-3.0896	-3.5917	-2.8125	-3.075	-3.3146	-2.6521	-3.2667	-3.1479	-2.9104	312.724	4.328	66.120	295.836	273.302	-2.245	313.107	209.898	102.411	34.691	92.222	220.145	329.815	98.933	119.166	92.637	0.00022909	0.00024094	1.5181e-05	229.01	7.8338e-07	1.5931e-06	328.27	72.831	1.3792e-06	1.4813e-06	113.68	47.687	29.497	12.258	1.4865e-06	19.319	0.00013757	0.00013745	3.8946e-05	228.09	1.5057e-06	1.4676e-06	328.12	73.623	1.4877e-06	1.4607e-06	114.14	47.732	29.854	12.342	1.4275e-06	19.378	87.911	129.760	289.880	6.836	54.342	227.195	4.875	12.783	220.047	167.265	10.462	13.720	16.106	21.942	188.246	18.550	-8191	255	
1396.385	1	1	0	0	0.1989	0.18443	0.16087	0.20082	0.12346	0.11883	0.085417	0.10507	0.17713	0.14077	0.13246	0.386	0.074332	0.31953	0.08324	0.071778	-3.0229	-2.8229	-3.0229	-3.3729	-2.4542	-3.2542	-3.2417	-2.7979	-3.3604	-2.8937	-2.9396	-3.1292	-2.8396	-3.1937	-2.9625	-2.6625	348.105	39.892	68.494	204.135	138.964	233.089	129.867	294.524	287.561	143.757	-2.382	-1.640	239.468	11.755	320.295	303.710	0.00013218	0.00028245	8.5017e-05	224.57	1.3882e-06	1.8131e-06	322.89	72.497	1.6299e-06	2.0044e-06	112.96	47.466	29.416	11.998	2.2297e-06	19.137	0.0001362	0.00013501	3.9643e-05	226.29	1.4874e-06	1.5205e-06	323.01	73.004	1.4686e-06	1.4422e-06	112.97	47.495	29.727	12.237	1.4147e-06	19.337	94.900	85.414	47.972	6.122	221.637	262.440	5.026	13.006	140.246	113.709	9.825	14.042	16.446	21.904	168.960	18.971	-8191	255	
1396.505	1	1	0	0	0.15189	0.10102	0.1133	0.20515	0.083913	0.21748	0.18438	0.18559	0.15872	0.2983	0.14471	0.001146	0.08479	0.029792	0.1912	0.22891	-2.9583	-2.9771	-2.7479	-3.4729	-2.8563	-3.3271	-3.4333	-2.8208	-3.5187	-3.0083	-3.1396	-3.4792	-2.8271	-3.2667	-3.375	-2.8604	258.575	264.457	172.683	10.692	44.199	159.697	48.745	282.220	263.382	31.227	68.973	180.000	186.557	210.456	262.326	171.940	0.00018219	0.00031238	5.429e-05	226.4	4.0375e-06	2.3254e-06	324.44	72.864	7.5382e-07	1.1043e-06	114.25	47.674	29.599	12.204	1.7289e-06	19.269	0.00014297	0.00012911	3.9435e-05	226.72	1.4649e-06	1.52e-06	323.01	73.34	1.4596e-06	1.4491e-06	114.46	47.699	29.844	12.328	1.446e-06	19.418	91.036	106.628	28.996	6.572	66.643	214.091	5.032	13.027	283.458	204.567	10.151	13.702	16.525	21.820	179.470	18.638	-8191	255	
1396.577	1	1	0	0	0.22173	0.17308	0.12727	0.046037	0.18141	0.42208	0.096208	0.14637	0.21746	0.047103	0.2534	0.035383	0.16303	0.12456	0.1575	0.07578	-3.1167	-3.1271	-2.8458	-3.3396	-2.8	-3.1542	-3.5604	-2.9	-3.4146	-3.2333	-2.9417	-3.4437	-2.9875	-3.1271	-3.4854	-2.9646	308.723	43.304	184.434	282.325	183.303	278.031	243.307	185.414	225.401	303.212	299.476	50.717	85.122	350.000	54.876	265.034	0.00020515	0.00046356	4.8485e-05	227.42	2.0618e-06	3.3858e-06	328.37	74.134	1.292e-06	1.9869e-06	115.02	48.094	29.86	12.306	4.0724e-06	19.518	0.00014447	0.0001355	3.9629e-05	227.04	1.4536e-06	1.5432e-06	325.85	74.437	1.5566e-06	1.4586e-06	115.7	48.136	30.149	12.437	1.4445e-06	19.546	77.348	106.423	210.836	6.692	222.958	89.603	4.143	12.282	116.226	232.073	10.663	13.938	16.651	21.971	192.795	18.767	-8191	255	
1396.673	1	1	0	0	0.06039	0.12439	0.018377	0.12172	0.10656	0.064308	0.19043	0.12226	0.082731	0.28325	0.1556	0.26431	0.070696	0.16677	0.12879	0.20481	-3.0542	-3.1958	-2.8708	-3.4833	-2.8771	-2.9292	-3.3271	-2.625	-3.1229	-3.2333	-2.9396	-3.4479	-3.1292	-3.1875	-3.5187	-2.9021	295.580	296.865	287.882	6.246	250.054	245.229	253.674	247.958	57.830	64.527	253.679	287.503	299.648	98.119	6.767	317.279	0.00025015	0.00028173	3.0229e-05	226.63	3.9653e-06	7.1831e-07	326.3	73.488	1.2154e-06	9.1152e-07	114.47	47.632	29.888	12.097	1.4689e-06	19.088	0.00014686	0.00013102	3.9167e-05	227.56	1.4451e-06	1.5556e-06	324.58	74.173	1.5045e-06	1.4233e-06	114.63	47.607	30.103	12.338	1.4296e-06	19.261	73.485	54.664	155.639	6.244	142.450	169.649	4.878	12.493	15.647	193.947	10.316	13.837	17.190	22.323	159.713	18.942	-8191	255	
1396.767	1	1	0	0	0.084529	0.22192	0.2562	0.080726	0.03652	0.093749	0.27248	0.23403	0.078909	0.19226	0.16675	0.12592	0.11555	0.14551	0.064716	0.24412	-2.9958	-3.1562	-2.6604	-3.2875	-2.9896	-2.8208	-3.3542	-2.7125	-3.1604	-3.45	-2.8958	-3.3542	-3.0667	-2.725	-3.4104	-2.6396	253.313	87.368	147.155	139.590	234.477	230.461	160.287	297.640	124.302	141.955	197.208	87.668	248.487	230.876	256.907	280.731	0.00010361	0.00033325	2.1925e-05	227.6	1.9705e-06	1.7648e-06	321.97	73.441	1.5046e-06	1.4584e-06	113.33	47.188	29.62	12.146	4.1125e-06	19.274	0.00014235	0.00013111	3.9198e-05	227.23	1.4639e-06	1.5214e-06	321.42	74.258	1.5386e-06	1.4571e-06	114.16	47.458	29.98	12.312	1.4945e-06	19.25	60.291	128.152	155.453	6.570	48.072	192.879	4.940	13.037	159.953	90.340	10.826	13.965	16.658	22.485	145.899	18.717	-8191	255	
1396.888	1	1	0	0	0.2728	0.077214	0.11268	0.16051	0.070843	0.16835	0.13256	0.073485	0.037392	0.22634	0.19813	0.090653	0.09666	0.18587	0.14791	0.15518	-2.7146	-3.2979	-2.4917	-3.3333	-3.0875	-3.0083	-3.5854	-2.95	-3.2792	-3.4521	-2.8063	-3.3104	-2.9875	-2.5771	-3.3958	-2.9917	308.346	306.564	9.134	353.691	214.507	264.871	270.882	42.155	325.208	258.448	235.697	317.227	296.861	62.660	218.596	151.504	0.00021953	0.00020228	1.2423e-05	224.81	1.0941e-06	2.2288e-06	321.6	73.645	4.8452e-06	2.3731e-06	114.31	48.282	29.856	12.232	2.9151e-06	19.119	0.00014377	0.00013003	3.8618e-05	226.46	1.4106e-06	1.5265e-06	322.34	74.424	1.53e-06	1.4038e-06	115.18	48.02	30.153	12.389	1.4947e-06	19.393	91.001	132.407	20.874	6.828	214.942	109.786	5.058	13.650	94.896	149.629	10.335	13.888	17.552	22.376	97.798	18.976	-8191	255	
1396.984	1	1	0	0	0.24663	0.10808	0.12218	0.15576	0.23027	0.25673	0.097426	0.08931	0.12186	0.0076046	0.05699	0.1361	0.16501	0.34655	0.23932	0.28279	-2.5979	-3.3021	-2.6271	-3.3812	-3.2792	-2.9208	-3.4583	-3.1458	-3.1542	-3.5583	-2.7792	-3.2188	-3.2042	-2.6917	-3.5104	-3.0021	114.146	237.944	154.273	327.193	261.053	151.026	17.094	76.289	166.866	305.541	337.172	57.498	252.671	242.151	295.441	49.221	0.00020972	0.00027658	1.801e-05	226.51	1.2846e-06	2.4528e-06	327.9	74.414	1.9324e-06	1.0952e-06	115.98	48.326	29.794	12.37	5.0613e-07	19.263	0.00014258	0.00012961	3.8012e-05	227.96	1.4268e-06	1.5045e-06	326.31	74.773	1.4769e-06	1.4408e-06	116.46	48.347	30.229	12.482	1.5019e-06	19.513	73.588	56.835	333.578	6.343	34.754	122.489	4.973	13.280	199.730	201.409	10.691	13.157	16.730	21.670	246.152	19.410	-8191	255	
1397.080	1	1	0	0	0.18628	0.12	0.28591	0.061066	0.055687	0.22342	0.23376	0.12922	0.083208	0.057921	0.091788	0.27494	0.17954	0.093637	0.29083	0.12375	-2.6917	-3.5354	-3.0083	-3.1771	-3.5125	-2.8125	-3.2833	-3.2271	-3.2146	-3.6188	-2.9979	-3.1042	-3.3438	-2.8229	-3.4188	-3.3021	24.875	235.042	297.157	71.741	51.991	335.285	333.776	245.254	226.253	218.832	285.153	329.182	287.395	348.090	322.161	62.202	0.00017759	0.00016924	3.1731e-05	226.6	1.6579e-06	1.3127e-06	324.17	73.797	1.2931e-06	2.92e-06	114.42	47.14	29.765	12.145	1.9939e-06	19.163	0.00013958	0.0001311	3.7156e-05	227.57	1.4203e-06	1.4887e-06	323.72	73.999	1.4911e-06	1.4069e-06	114.33	47.356	30.058	12.359	1.4968e-06	19.305	100.115	119.410	127.534	6.641	122.800	110.016	4.835	13.158	13.524	46.377	10.551	14.071	16.402	22.276	130.200	19.198	-8191	255	
1397.177	1	1	0	0	0.15674	0.027986	0.16045	0.080465	0.1861	0.25819	0.060974	0.13246	0.17842	0.07332	0.091233	0.16796	0.27746	0.044605	0.19861	0.27791	-2.4104	-3.4542	-2.8937	-3.0604	-3.4813	-2.85	-3.3042	-3.0604	-2.7958	-3.5604	-3.1312	-2.8438	-3.6104	-2.8292	-3.2229	-3.3396	90.627	71.037	66.994	264.409	121.431	163.139	32.010	349.216	281.137	274.163	250.374	281.467	161.652	200.660	-4.221	107.342	0.00013686	0.0002404	7.2017e-05	227.03	1.2579e-06	9.6676e-07	323.62	74.008	2.4561e-06	1.2938e-06	114.59	47.394	29.939	12.339	4.8455e-07	19.264	0.00014332	0.00013432	3.6281e-05	227.87	1.426e-06	1.4808e-06	323.05	74.309	1.4934e-06	1.4534e-06	114.45	47.775	30.091	12.425	1.5236e-06	19.379	62.257	152.309	114.191	6.775	64.493	5.445	4.834	12.944	226.288	67.246	9.726	13.772	16.461	21.905	94.809	18.527	-8191	255	
1397.273	1	1	0	0	0.22152	0.18822	0.017913	0.085996	0.17184	0.081522	0.19724	0.040705	0.24909	0.17976	0.18283	0.19007	0.15679	0.056292	0.053143	0.25808	-2.6083	-3.4938	-3.125	-3	-3.3083	-2.8708	-3.0187	-3.2771	-2.675	-3.3438	-3.0625	-2.8458	-3.3729	-2.7646	-3.1521	-3.2562	350.205	27.813	222.682	239.362	314.518	237.493	300.370	242.138	141.469	162.907	124.874	256.244	-1.655	45.621	229.696	102.389	0.00022604	0.00018528	3.302e-05	226.67	2.3759e-06	1.2488e-06	324.05	74.581	1.5683e-06	2.5301e-06	115.66	48.178	30.112	12.29	1.7912e-06	19.337	0.00014259	0.00013643	3.7394e-05	227.62	1.4597e-06	1.4524e-06	323.87	75.064	1.5676e-06	1.4754e-06	115.95	48.202	30.465	12.473	1.5448e-06	19.548	103.414	224.984	99.209	6.511	90.575	181.002	4.789	12.782	174.918	108.712	10.398	13.325	16.754	22.577	198.296	19.119	-8191	255	
1397.369	1	1	0	0	0.13095	0.10051	0.17116	0.16822	0.046715	0.15491	0.050264	0.16946	0.10474	0.10121	0.1088	0.21823	0.19083	0.047799	0.29464	0.077923	-2.0979	-3.2271	-3.0479	-2.7604	-3.4125	-2.9	-2.9375	-3.4292	-2.8458	-3.4083	-3.2188	-2.9	-3.3854	-2.9854	-3.0458	-3.4104	110.395	202.392	37.484	292.786	14.847	173.224	95.111	344.513	92.829	151.413	22.303	259.661	323.332	190.008	186.608	83.679	0.00023418	0.00021823	9.5512e-05	226.93	1.648e-06	1.4272e-06	325.13	75.791	2.6884e-06	1.5924e-06	116.05	48.098	30.242	12.439	3.496e-06	19.1	0.00014426	0.00014104	3.7951e-05	228.51	1.5705e-06	1.4929e-06	325.14	76.017	1.5273e-06	1.5229e-06	116.57	48.351	30.592	12.519	1.518e-06	19.41	94.772	107.702	109.327	6.974	42.732	71.713	5.157	13.269	176.602	53.418	10.351	13.695	16.576	22.065	136.219	18.938	-8191	255	
1397.465	1	1	0	0	0.23021	0.35415	0.077592	0.36452	0.22181	0.22081	0.043531	0.15164	0.28013	0.14851	0.16083	0.30733	0.28468	0.10031	0.18417	0.23828	-2.4396	-3.3396	-3.2667	-2.8646	-3.4979	-3.1667	-3.0312	-3.4333	-2.7729	-3.3396	-3.3812	-2.9062	-3.5563	-3.0292	-3.1542	-3.5208	34.535	233.492	103.682	267.759	281.263	115.960	154.980	15.292	225.226	115.393	345.928	19.466	41.552	192.102	284.271	296.462	0.00016965	0.00022557	5.3836e-05	227.09	4.0987e-06	2.3922e-06	322.31	74.014	3.7566e-06	3.1382e-06	114.12	47.581	30.087	12.164	2.9864e-06	19.116	0.00014367	0.00014017	3.6736e-05	227.56	1.4792e-06	1.4839e-06	321.05	74.884	1.5541e-06	1.5207e-06	114.58	47.718	30.436	12.393	1.5072e-06	19.314	72.890	150.853	106.094	6.326	142.118	203.856	5.132	12.866	187.489	215.919	10.115	13.637	16.540	22.493	132.643	19.349	-8191	255	
1397.586	1	1	0	0	0.18156	0.16532	0.080939	0.12635	0.17016	0.20662	0.10005	0.088156	0.11949	0.075809	0.1846	0.14171	0.17681	0.096637	0.15343	0.18125	-2.3083	-3.1729	-3.2375	-2.7583	-3.2479	-2.9083	-2.9813	-3.3896	-2.7375	-3.0833	-3.1562	-2.6792	-3.3792	-3.2104	-2.9562	-3.5208	58.558	148.875	164.982	62.553	347.488	143.537	254.130	261.829	267.515	139.164	219.134	129.615	214.113	341.281	255.318	64.819	0.00015018	0.00010808	4.5852e-05	224.02	2.6625e-06	3.7163e-06	320.29	74.265	2.047e-06	1.606e-06	116.36	47.618	30.167	12.301	2.2994e-06	19.257	0.00014438	0.00014183	3.6203e-05	226.02	1.4963e-06	1.4618e-06	320.49	75.097	1.4954e-06	1.5337e-06	116.23	47.946	30.48	12.447	1.5759e-06	19.435	78.941	82.224	65.805	6.499	47.357	148.589	4.943	12.806	108.896	101.633	9.832	14.171	16.385	22.279	44.221	18.732	-8191	255	
1397.680	1	1	0	0	0.15268	0.13606	0.061506	0.22069	0.13148	0.17711	0.3415	0.16393	0.28907	0.10442	0.21921	0.25543	0.2854	0.22418	0.042768	0.24554	-2.6292	-3.0833	-3.4208	-2.8833	-3.4646	-3.2104	-2.8583	-3.3667	-3.0354	-2.9521	-3.4625	-2.7896	-3.3312	-3.1875	-2.8542	-3.4688	202.154	74.859	280.999	278.939	89.290	349.481	249.962	202.314	92.680	217.267	8.213	267.551	119.558	207.058	293.186	105.855	0.00024432	0.0003353	3.5874e-05	225.3	2.9946e-06	1.6661e-06	323.01	74.143	2.0936e-06	1.561e-06	115.71	48.191	30.466	12.39	2.7263e-06	19.612	0.00014191	0.00013849	3.6941e-05	227.27	1.5047e-06	1.4023e-06	322.91	75.702	1.5234e-06	1.5268e-06	117.13	48.365	30.851	12.572	1.5863e-06	19.747	97.752	38.992	109.883	6.536	80.807	215.782	5.096	12.702	197.479	206.054	10.097	13.834	16.559	21.588	161.496	19.250	-8191	255	
1397.778	1	1	0	0	0.21291	0.060398	0.11113	0.065792	0.11718	0.077273	0.074156	0.36208	0.15911	0.18952	0.24539	0.10546	0.13981	0.13668	0.01515	0.1316	-2.6375	-3.0729	-3.4146	-3.0083	-3.3125	-3.3792	-3	-3.4708	-3.1813	-3.1333	-3.6896	-2.8667	-3.3	-3.2229	-2.6896	-3.2812	277.731	282.217	18.294	46.841	57.921	98.287	286.799	263.645	52.584	163.707	343.055	47.116	190.969	108.155	1.296	6.025	0.00017654	0.00013705	4.0232e-05	226.36	1.3142e-06	1.6652e-06	325.99	75.269	1.3064e-06	9.9155e-07	116.92	48.469	30.382	12.358	1.64e-06	19.239	0.00014241	0.00014039	3.8647e-05	228.68	1.5341e-06	1.4651e-06	325.42	76.134	1.4509e-06	1.5736e-06	117.01	48.414	30.899	12.617	1.582e-06	19.504	65.672	77.118	142.191	6.927	255.251	155.991	4.671	12.974	72.113	289.503	10.195	14.062	17.002	22.332	133.156	18.370	-8191	255	
1397.872	1	1	0	0	0.18402	0.15238	0.034009	0.12025	0.12189	0.081351	0.069853	0.069159	0.18237	0.22829	0.10908	0.0095434	0.091309	0.077324	0.21732	0.21082	-2.8167	-2.8812	-3.35	-2.7083	-3.2	-3.45	-2.8812	-3.5083	-3.1625	-2.7417	-3.4062	-2.8458	-3.1813	-3.5938	-2.7042	-3.3167	214.446	136.283	307.208	314.689	203.547	164.256	-4.655	10.056	150.186	9.139	321.092	-1.645	341.468	256.377	38.027	109.005	0.00021212	0.00020558	3.6622e-05	224.92	2.8546e-06	2.6394e-06	321.12	75.123	1.0588e-06	1.6421e-06	115.55	47.54	30.436	12.338	3.3503e-06	19.122	0.00013718	0.00014482	3.7632e-05	227	1.5116e-06	1.4891e-06	322.32	75.145	1.4309e-06	1.6056e-06	115.56	47.721	30.681	12.555	1.5303e-06	19.392	63.996	107.296	83.551	6.792	165.791	162.463	4.940	13.016	136.211	133.830	10.402	13.915	16.567	22.018	140.320	18.764	-8191	255	
1397.968	1	1	0	0	0.10137	0.11666	0.22798	0.11725	0.080987	0.010305	0.32882	0.19456	0.10014	0.077119	0.19241	0.25453	0.21386	0.16422	0.17947	0.10596	-2.7208	-2.7875	-3.4771	-3.0667	-2.9667	-3.2938	-3.0312	-3.3229	-3.4667	-2.9938	-3.4896	-2.9604	-3.1146	-3.7229	-2.9437	-3.3396	29.685	4.430	118.044	163.692	68.576	113.792	72.619	192.569	3.361	37.282	310.714	37.526	305.623	268.118	287.923	121.658	0.00018958	0.00015962	8.1579e-05	224.54	1.5659e-06	9.9447e-07	322.94	74.334	1.8188e-06	2.276e-06	115.59	47.801	30.676	12.503	3.0428e-06	19.273	0.00013295	0.00014393	3.8006e-05	227.23	1.5393e-06	1.5192e-06	321.98	75.241	1.4261e-06	1.5341e-06	116.08	48.181	30.876	12.645	1.5589e-06	19.504	75.239	76.272	101.229	6.802	148.371	248.751	5.386	12.805	110.645	185.040	10.033	13.765	16.164	21.862	189.076	18.378	-8191	255	
1398.065	1	1	0	0	0.06078	0.18075	0.081155	0.24908	0.18039	0.091055	0.04347	0.28935	0.071447	0.39592	0.056698	0.15186	0.27812	0.062558	0.11533	0.13896	-2.8563	-2.7687	-3.1208	-3.0167	-2.8604	-3.4729	-2.9229	-3.3438	-3.3875	-2.7625	-3.3396	-2.8917	-2.7292	-3.5646	-2.8708	-3.1	319.784	310.265	173.271	126.976	28.494	155.991	249.789	313.507	293.264	43.113	45.166	156.949	233.891	125.484	292.611	104.998	0.00016017	0.00020559	5.4848e-05	226.89	1.5841e-06	2.9375e-06	323.73	74.957	2.3258e-06	1.2489e-06	118.13	48.651	30.976	12.458	1.3315e-06	19.709	0.00013792	0.00014443	3.9301e-05	227.26	1.5694e-06	1.5261e-06	324.01	75.456	1.4843e-06	1.5719e-06	117.84	48.656	31.192	12.68	1.526e-06	19.749	65.296	92.391	14.128	6.723	92.595	96.344	4.665	12.497	135.672	209.944	9.770	13.510	16.704	21.927	271.694	18.558	-8191	255	
1398.161	1	1	0	0	0.24732	0.10508	0.16963	0.15177	0.12859	0.030997	0.12414	0.27486	0.079482	0.19136	0.1797	0.073942	0.036508	0.056342	0.11428	0.24347	-2.8875	-3.0542	-3.3771	-3.075	-2.6979	-3.4125	-2.7396	-2.9625	-3.2083	-2.7979	-3.3083	-3.3	-2.7583	-3.5167	-3.0563	-3.1271	135.299	48.510	343.170	351.402	14.226	264.637	94.095	207.835	203.727	259.917	256.615	43.194	136.051	231.915	170.889	264.116	0.00016182	0.00026917	5.5668e-05	226.83	2.6956e-06	1.5396e-06	323.47	74.616	1.1709e-06	8.353e-07	115.65	47.716	30.815	12.383	5.7231e-07	19.191	0.00013972	0.00014327	3.9206e-05	227.05	1.6379e-06	1.5367e-06	323.28	75.268	1.5314e-06	1.5775e-06	115.89	48.078	31.114	12.65	1.5125e-06	19.447	69.068	96.480	63.715	6.587	123.179	184.505	4.891	13.312	350.833	239.389	9.730	13.449	16.577	22.174	88.897	18.879	-8191	255	
1398.281	1	1	0	0	0.10297	0.1313	0.29281	0.10103	0.33054	0.12022	0.26892	0.27359	0.1392	0.20086	0.18122	0.19791	0.20464	0.35022	0.20503	0.25754	-3.2062	-2.85	-3.1688	-3.0875	-2.7875	-3.45	-2.9146	-2.8063	-3.5021	-2.7521	-3.2604	-3.3896	-2.7042	-3.4813	-2.775	-2.8521	121.529	81.137	353.273	134.048	141.883	287.328	195.290	289.668	214.156	98.426	338.795	11.672	56.757	35.387	73.698	114.842	0.00021338	3.8019e-05	8.3644e-05	224.5	3.8487e-06	3.7864e-06	320.89	74.083	2.2711e-06	1.2267e-06	115.62	48.064	30.496	12.441	4.7312e-07	19.347	0.00014108	0.00014476	3.9154e-05	225.21	1.5664e-06	1.5602e-06	319.38	74.733	1.5081e-06	1.5169e-06	116.01	48.053	31.009	12.68	1.4951e-06	19.447	58.214	127.061	72.764	6.629	115.046	139.068	5.133	12.550	152.709	137.303	9.782	13.444	16.368	22.262	229.681	18.304	-8191	255	
1398.378	1	1	0	0	0.052776	0.44366	0.040812	0.13352	0.19782	0.10448	0.37069	0.44581	0.041827	0.11082	0.14269	0.19497	0.18906	0.10687	0.17742	0.14869	-2.8521	-2.6708	-3.0687	-3.2375	-2.7354	-3.55	-3.0667	-2.7646	-3.4396	-2.9167	-3.2229	-3.4896	-2.8375	-3.3625	-3.4313	-3.0375	286.941	135.362	-0.068	344.635	38.103	339.814	326.964	218.133	212.165	265.481	95.776	303.098	228.807	89.078	180.680	220.183	0.00019401	0.00041939	4.2937e-05	225.65	1.7063e-06	3.74e-06	322.91	75.508	2.8115e-06	3.1645e-06	117.08	48.316	31.056	12.491	2.2702e-06	19.541	0.00014144	0.00013976	3.8365e-05	226.52	1.5576e-06	1.538e-06	321.03	75.693	1.5502e-06	1.5164e-06	116.86	48.242	31.26	12.681	1.4284e-06	19.603	82.379	83.203	70.594	6.329	161.155	173.387	5.233	13.251	158.532	217.573	9.733	13.937	16.123	21.776	105.640	18.497	-8191	255	
1398.449	1	1	0	0	0.28916	0.057363	0.20006	0.107	0.20483	0.15145	0.051278	0.03373	0.14799	0.27519	0.13207	0.042417	0.23469	0.10355	0.10382	0.22099	-2.9833	-2.9271	-3.0687	-3.2708	-2.8333	-3.2604	-3.4062	-2.8792	-3.6437	-2.9667	-3.0125	-3.3729	-2.7417	-3.2562	-3.1646	-2.7583	335.465	152.025	338.245	193.363	112.582	332.237	162.974	41.600	317.110	301.257	50.394	14.458	48.468	236.607	320.750	46.591	0.00014953	2.6404e-05	6.3709e-05	227.73	2.2967e-06	3.6287e-06	324.85	75.192	1.2818e-06	1.9403e-06	118.82	48.596	30.808	12.601	2.1207e-06	19.662	0.00014299	0.00013315	3.9085e-05	227.01	1.5673e-06	1.5065e-06	323.5	75.979	1.5166e-06	1.4826e-06	119.07	48.78	31.369	12.763	1.4781e-06	19.815	79.528	144.809	102.110	6.351	111.253	142.534	4.778	12.599	142.933	157.422	10.057	13.557	16.527	21.860	185.669	18.965	-8191	255	
1398.545	1	1	0	0	0.17007	0.22547	0.12651	0.15734	0.018181	0.050421	0.15752	0.19033	0.2089	0.14571	0.10062	0.033065	0.13414	0.16792	0.07224	0.07193	-3.1875	-2.9042	-2.7125	-3.4188	-2.8604	-3.3333	-3.4062	-2.9458	-3.4396	-3.1104	-2.8542	-3.5875	-2.8417	-3.1312	-3.3271	-2.8563	40.204	119.167	226.772	18.538	172.226	130.957	328.696	7.357	214.354	258.162	47.591	304.691	305.327	191.764	93.047	1.311	0.00021413	8.0079e-05	4.2716e-05	225.57	4.0303e-06	1.8717e-06	323.97	74.991	1.6405e-06	1.5064e-06	116.43	48.025	30.887	12.42	1.5965e-06	19.321	0.00014669	0.00013908	3.9639e-05	227.99	1.5152e-06	1.5263e-06	322.91	75.731	1.506e-06	1.4211e-06	116.98	48.171	31.137	12.687	1.4762e-06	19.469	74.751	96.991	122.853	6.519	110.217	213.783	4.948	13.302	179.187	228.929	9.501	13.625	16.163	21.928	246.339	18.195	-8191	255	
1398.664	1	1	0	0	0.25117	0.14606	0.17553	0.25578	0.045765	0.069016	0.13145	0.026691	0.11443	0.016816	0.32367	0.14456	0.033802	0.078853	0.25696	0.068947	-3.0667	-3.1646	-3.0333	-3.4625	-2.8646	-3.3229	-3.4021	-2.6312	-3.1458	-3.1917	-2.8583	-3.6792	-3.0646	-3.0604	-3.4896	-2.7646	273.375	177.900	138.214	33.764	74.999	247.473	17.867	331.638	-3.529	33.833	184.299	319.232	329.336	20.123	235.267	192.125	0.00023612	0.00029522	2.8075e-05	225.86	1.7223e-06	1.754e-06	322.14	74.491	2.0281e-06	2.4974e-06	115.67	48.467	30.902	12.493	2.3104e-06	19.24	0.0001447	0.00013492	4.0616e-05	226.82	1.5069e-06	1.5276e-06	320.81	75.061	1.5062e-06	1.4281e-06	116.23	48.208	31.144	12.722	1.4954e-06	19.466	88.642	95.083	146.612	6.346	114.592	176.458	4.712	12.597	160.103	85.535	9.961	14.011	16.607	21.830	140.163	19.000	-8191	255	
1398.760	1	1	0	0	0.12029	0.036619	0.24224	0.17588	0.12333	0.2467	0.19649	0.04891	0.14726	0.042592	0.11273	0.033036	0.21411	0.24001	0.18222	0.16432	-2.7792	-3.1	-2.7208	-3.4396	-3.0792	-2.9521	-3.5146	-2.9042	-3.2313	-3.2729	-2.8563	-3.5646	-2.9104	-2.85	-3.4146	-2.8104	60.603	216.668	345.538	259.991	96.120	91.879	80.741	38.660	298.879	245.979	42.291	348.381	195.746	16.723	229.036	143.330	0.0001328	0.00032935	6.3445e-05	224.82	2.7733e-06	2.6936e-06	321.29	74.733	2.0629e-06	2.5546e-06	117.5	48.168	30.999	12.61	2.3837e-06	19.404	0.00014286	0.0001319	4.0108e-05	227.12	1.4602e-06	1.5902e-06	321.51	75.277	1.4916e-06	1.444e-06	117.79	48.549	31.337	12.791	1.5466e-06	19.594	80.195	131.583	109.569	6.940	137.517	199.480	5.286	13.251	133.848	142.056	9.877	13.470	16.939	22.701	124.739	18.954	-8191	255	
1398.858	1	1	0	0	0.052819	0.26832	0.039521	0.28034	0.184	0.11952	0.031126	0.074597	0.02664	0.19722	0.011971	0.17884	0.091702	0.22688	0.31105	0.18545	-2.8542	-3.3312	-2.5083	-3.3792	-2.9521	-2.8917	-3.5604	-2.8833	-3.1562	-3.6417	-2.7	-3.4542	-3.2021	-2.9313	-3.6354	-2.8333	145.666	127.440	337.742	328.673	340.905	10.042	86.073	131.353	12.785	178.551	50.379	255.323	119.249	44.023	301.122	56.513	0.00022161	0.00012294	3.87e-05	224.71	1.499e-06	1.4761e-06	326.61	74.63	2.4653e-06	1.6849e-06	118.6	49.013	31.352	12.606	2.5199e-06	19.698	0.00014127	0.00013542	4.0011e-05	227.25	1.4442e-06	1.5863e-06	324.28	75.775	1.5392e-06	1.4865e-06	118.61	48.985	31.677	12.838	1.5052e-06	19.807	84.796	51.578	138.021	7.043	83.068	66.295	5.129	13.210	143.395	122.822	10.213	13.399	16.281	22.433	228.222	18.807	-8191	255	
1398.977	1	1	0	0	0.15875	0.03004	0.089282	0.33922	0.17201	0.041439	0.26529	0.036752	0.25265	0.10307	0.065053	0.21405	0.095314	0.11129	0.20498	0.35738	-2.775	-3.325	-2.8688	-3.2875	-3.1896	-3.0042	-3.65	-2.9958	-3.0187	-3.4979	-2.85	-3.3729	-3.1479	-2.8167	-3.4562	-2.9375	263.174	0.404	50.523	312.811	48.765	112.693	83.920	110.599	43.782	332.477	236.793	8.917	278.606	179.405	123.679	271.200	0.00020396	7.7307e-05	5.0621e-05	225.89	2.2356e-06	8.2965e-07	320.53	74.472	4.813e-07	9.1378e-07	116.58	48.251	31.146	12.508	9.8314e-07	19.436	0.00014741	0.00013772	4.103e-05	227.05	1.4627e-06	1.5877e-06	321.37	74.862	1.5645e-06	1.5277e-06	115.97	48.314	31.269	12.778	1.5573e-06	19.447	72.757	311.447	85.421	7.269	179.781	74.881	4.332	12.991	149.807	219.609	10.225	13.329	16.775	22.113	66.888	19.094	-8191	255	
1399.049	1	1	0	0	0.16745	0.15739	0.050508	0.1321	0.16673	0.084113	0.0043245	0.12651	0.42641	0.38394	0.12681	0.16597	0.16078	0.34727	0.10339	0.24414	-2.5812	-3.225	-2.725	-3.1271	-3.1271	-2.8833	-3.4562	-3.1104	-2.9813	-3.4604	-2.9062	-3.2583	-3.2271	-2.8563	-3.4229	-3.1521	331.851	133.586	256.320	-3.459	135.656	170.135	294.985	170.168	55.140	82.889	210.668	8.204	43.454	28.906	268.928	324.640	0.00022566	0.00016957	5.4977e-05	226.76	2.9798e-06	6.6902e-07	323.52	75.001	1.0337e-06	1.652e-06	117.04	48.747	31.369	12.739	2.0486e-06	19.537	0.00014795	0.0001391	3.9376e-05	226.8	1.4756e-06	1.6224e-06	320.61	75.037	1.6268e-06	1.5227e-06	116.39	48.427	31.36	12.863	1.5409e-06	19.571	93.953	92.129	78.585	6.758	173.535	102.619	4.119	12.225	114.086	102.277	9.625	13.534	15.964	21.559	178.240	18.309	-8191	255	
1399.145	1	1	0	0	0.12619	0.13032	0.10564	0.1359	0.20548	0.15618	0.24105	0.060769	0.3099	0.058764	0.062056	0.16295	0.19054	0.13559	0.1259	0.13979	-2.5167	-3.4104	-2.9021	-2.9771	-3.2729	-2.6625	-3.3563	-3.0354	-2.6979	-3.4833	-2.6688	-3.2396	-3.2917	-2.7333	-3.3417	-3.25	64.237	326.638	68.242	294.422	98.377	189.952	266.159	48.919	117.088	274.774	184.205	10.720	170.713	279.243	243.263	190.444	0.00018842	0.00030933	4.8768e-05	228.19	2.8371e-06	2.3567e-06	326.53	75.193	4.9102e-06	2.0123e-06	118.78	49.155	31.563	12.8	1.1627e-06	19.802	0.00015236	0.00013901	3.8618e-05	227.95	1.5058e-06	1.5762e-06	322.07	75.166	1.6299e-06	1.5561e-06	117.71	48.774	31.665	12.896	1.5533e-06	19.761	105.720	95.289	89.912	5.748	100.070	233.778	4.318	11.836	111.692	50.409	9.581	13.346	16.684	22.009	112.376	18.338	-8191	255	
1399.266	1	1	0	0	0.10916	0.17531	0.11292	0.24308	0.14025	0.27303	0.24711	0.11514	0.076376	0.18038	0.30699	0.11799	0.12126	0.095754	0.1003	0.31933	-2.2792	-3.4667	-2.9167	-2.9771	-3.5542	-2.5896	-3.1896	-3.3375	-2.8854	-3.5229	-2.9271	-2.8625	-3.3917	-2.9229	-3.1875	-3.1562	56.091	337.736	171.056	326.036	89.124	63.122	1.029	44.710	237.290	208.055	201.427	346.434	148.381	124.785	83.234	309.360	0.00024522	0.00024369	2.1603e-05	231.55	3.9515e-06	5.1055e-07	327.42	74.507	2.7868e-06	1.6775e-06	118.75	49.243	31.42	12.884	5.0608e-07	19.79	0.00015101	0.00013982	3.7573e-05	228.64	1.5252e-06	1.5775e-06	324.62	75.33	1.6448e-06	1.5606e-06	118.66	49.278	31.857	12.982	1.5242e-06	19.916	69.554	119.790	207.119	6.112	126.147	144.133	4.682	12.892	171.535	168.006	10.041	12.951	16.206	21.581	158.275	18.442	-8191	255	
1399.362	1	1	0	0	0.21706	0.05808	0.095601	0.11968	0.41126	0.39491	0.3105	0.40439	0.073127	0.13428	0.16575	0.11626	0.067438	0.35472	0.1158	0.20434	-2.3104	-3.4521	-2.8438	-2.9875	-3.5542	-2.7833	-3.0896	-3.0667	-2.7875	-3.5229	-3.0958	-2.9292	-3.475	-2.7771	-3.3271	-3.3771	141.599	277.675	223.138	256.881	132.754	62.421	295.365	302.082	232.337	78.623	107.767	231.745	39.060	201.123	267.829	203.823	0.00013174	0.00025483	7.9421e-05	227.21	4.169e-06	1.1792e-06	324.55	74.744	3.4357e-06	1.477e-06	116.04	48.604	31.607	12.795	2.2489e-06	19.59	0.00015341	0.00013811	3.7782e-05	228.3	1.5631e-06	1.515e-06	322.09	74.262	1.6094e-06	1.491e-06	115.74	48.435	31.721	12.826	1.5575e-06	19.537	80.967	12.081	29.451	6.630	101.851	171.566	4.098	12.261	146.655	99.128	9.590	13.121	15.705	21.542	137.622	18.167	-8191	255	
1399.458	1	1	0	0	0.22584	0.13045	0.15615	0.13825	0.097079	0.20857	0.097793	0.25903	0.066538	0.054109	0.14896	0.1206	0.41244	0.21384	0.10121	0.14499	-2.5062	-3.2854	-3.0479	-2.9333	-3.4542	-2.9125	-3.2167	-3.4021	-2.9583	-3.5438	-3.3	-2.9688	-3.5625	-3.0125	-3.0625	-3.4708	74.000	11.374	337.863	233.264	311.778	347.518	96.510	27.292	278.177	43.524	280.196	346.817	49.292	324.899	125.710	70.633	0.00020322	1.1677e-05	5.434e-05	228	4.6896e-06	2.2628e-06	322.85	74.124	1.288e-06	2.3368e-06	116.08	48.729	31.124	12.744	2.2729e-06	19.501	0.00015108	0.00013891	3.7663e-05	227.52	1.526e-06	1.5157e-06	320.35	74.453	1.5773e-06	1.535e-06	116.06	48.587	31.561	12.823	1.5859e-06	19.57	63.288	309.585	274.915	6.376	87.364	144.096	4.290	12.401	346.670	157.147	9.501	13.266	16.020	21.671	242.057	17.865	-8191	255	
1399.579	1	1	0	0	0.18498	0.35648	0.2051	0.04699	0.11155	0.2364	0.16022	0.021043	0.20643	0.027026	0.28141	0.068496	0.26559	0.1468	0.11832	0.16954	-2.4021	-3.0896	-3.2708	-2.6646	-3.4021	-2.9417	-2.975	-3.4167	-2.8521	-3.4083	-3.2646	-2.7396	-3.2375	-2.9938	-3.0583	-3.575	228.302	303.416	90.720	178.446	256.089	78.587	151.505	180.464	259.715	140.086	274.246	173.464	-3.842	326.493	42.461	189.632	0.00018357	0.00030981	7.272e-05	225.92	2.5993e-06	3.2753e-06	324.08	74.205	9.2007e-07	1.9793e-06	118.15	49.605	31.385	12.707	1.8488e-06	19.727	0.00014858	0.0001397	3.8527e-05	226.88	1.5631e-06	1.4885e-06	321.96	74.546	1.529e-06	1.5557e-06	117.79	48.915	31.626	12.854	1.625e-06	19.709	81.846	113.315	91.614	6.431	75.316	212.609	4.127	12.755	31.219	102.275	9.688	12.856	15.816	21.916	175.704	18.516	-8191	255	
1399.673	1	1	0	0	0.077393	0.30284	0.14871	0.14192	0.36317	0.06461	0.38286	0.17083	0.24887	0.10374	0.0074601	0.11233	0.045293	0.21102	0.11344	0.26612	-2.4875	-3.1396	-3.2104	-2.575	-3.2188	-3.1312	-2.9896	-3.5083	-2.8083	-3.1417	-3.4521	-2.9333	-3.2875	-3.0729	-2.6979	-3.6667	338.086	297.970	107.135	115.131	238.651	222.234	208.227	79.270	85.935	230.901	149.827	121.243	69.544	323.962	282.822	237.526	0.0002275	9.6967e-05	3.6955e-05	228.68	2.8699e-06	1.4522e-06	328.03	74.547	1.373e-06	8.6951e-07	118.83	48.972	31.555	12.663	1.1512e-06	19.546	0.00014341	0.00014426	3.7544e-05	228	1.5631e-06	1.4996e-06	324.53	74.929	1.4952e-06	1.5979e-06	118.46	48.918	31.817	12.839	1.621e-06	19.619	82.539	90.359	179.661	5.980	151.209	228.455	4.419	12.312	111.790	256.172	9.268	12.773	16.031	21.933	268.250	18.156	-8191	255	
1399.746	1	1	0	0	0.10515	0.037904	0.044454	0.26564	0.23046	0.14558	0.065515	0.097332	0.30846	0.024032	0.24798	0.16906	0.057592	0.14691	0.2319	0.13568	-2.5354	-3.0458	-3.5312	-2.8729	-3.4958	-3.3	-2.8729	-3.2958	-2.8375	-3.0354	-3.2979	-2.5271	-3.0187	-3.1312	-2.7646	-3.3375	312.381	213.124	303.691	85.203	34.470	30.630	38.924	180.057	8.382	301.668	26.604	325.353	223.412	268.608	323.474	239.155	0.00019616	0.00014721	2.5033e-05	229.61	2.1467e-06	1.9474e-06	323.44	73.152	1.6532e-06	7.1207e-07	115.41	47.435	31.268	12.583	3.7031e-06	19.219	0.00014013	0.00014564	3.8989e-05	227.53	1.4913e-06	1.5173e-06	320.06	73.824	1.4706e-06	1.6184e-06	115.56	47.894	31.494	12.728	1.6168e-06	19.381	73.212	1.693	292.545	6.323	145.149	120.681	4.488	12.605	113.306	349.796	9.657	13.802	15.357	22.213	176.169	18.143	-8191	255	
1399.841	1	1	0	0	0.04315	0.073254	0.21755	0.14824	0.064847	0.14518	0.12932	0.075866	0.061937	0.11372	0.23154	0.13287	0.062868	0.08654	0.1629	0.22357	-2.5354	-2.6875	-3.4521	-2.65	-3.1458	-3.2792	-2.9	-3.3417	-3.0146	-2.8417	-3.5458	-2.9437	-3.1208	-3.2875	-2.6729	-3.3292	72.155	107.573	303.507	36.923	2.078	283.097	199.321	115.188	208.871	288.863	231.388	20.807	20.021	348.794	226.259	41.898	0.00019138	0.0001264	6.124e-05	226.16	3.6878e-07	2.7077e-06	322.2	73.975	4.282e-06	2.458e-06	117.03	47.687	30.934	12.624	1.5191e-06	19.438	0.00014017	0.00014857	3.9663e-05	226.9	1.5667e-06	1.5232e-06	319.26	73.912	1.4958e-06	1.6327e-06	116.45	47.883	31.472	12.743	1.6415e-06	19.389	74.346	157.955	86.613	5.910	65.051	183.876	4.187	12.616	219.947	168.806	9.725	12.826	16.407	22.171	203.082	18.502	-8191	255	
1399.961	1	1	0	0	0.16529	0.12425	0.038727	0.29686	0.10377	0.14406	0.2903	0.22699	0.47582	0.043471	0.093415	0.22075	0.15467	0.077097	0.10865	0.33709	-2.4542	-2.8	-3.4062	-2.925	-3.2188	-3.5104	-2.7021	-3.3563	-3.2396	-2.925	-3.5687	-3.0062	-3.1917	-3.5375	-2.725	-3.4125	155.471	302.483	314.882	10.677	146.486	168.943	335.426	1.230	183.759	7.680	58.179	313.460	85.435	237.361	45.912	299.621	0.0001471	0.00015284	1.7717e-05	224.12	3.2456e-06	2.4e-06	324.03	73.614	7.4206e-07	5.3964e-06	116.36	48.368	31.578	12.731	7.6338e-07	19.688	0.00014245	0.00014655	3.8525e-05	225.77	1.5912e-06	1.4751e-06	320.31	74.322	1.4279e-06	1.5981e-06	116.86	48.358	31.697	12.801	1.5677e-06	19.675	53.930	327.085	172.098	6.763	153.793	304.848	4.386	12.459	165.156	176.957	9.597	12.874	15.819	21.967	181.418	18.415	-8191	255	
1400.058	1	1	0	0	0.14426	0.06267	0.083316	0.29587	0.095624	0.13893	0.16841	0.21632	0.029278	0.1972	0.26938	0.073848	0.20378	0.13777	0.12221	0.027099	-3.0417	-2.7333	-3.4604	-3.0479	-3.0729	-3.4854	-2.9083	-3.2687	-3.2167	-2.7396	-3.5354	-2.9333	-2.725	-3.3312	-2.5979	-3.1854	132.331	348.679	116.234	16.383	134.183	127.921	243.323	50.947	107.110	124.164	41.979	302.578	100.998	301.347	273.722	284.450	0.00021355	8.804e-05	6.5527e-05	228.82	2.0055e-06	2.6313e-06	325.9	74.748	3.9397e-06	2.3678e-06	118.14	48.731	31.114	12.68	1.2668e-06	19.498	0.00013977	0.00014989	3.89e-05	227.47	1.6164e-06	1.5373e-06	322.97	74.832	1.5139e-06	1.6095e-06	117.46	48.409	31.501	12.835	1.5547e-06	19.529	87.737	162.702	140.360	6.222	31.698	141.882	4.538	11.988	158.165	89.807	9.236	12.908	15.545	22.011	164.371	18.692	-8191	255	
1400.154	1	1	0	0	0.11838	0.22112	0.20507	0.10002	0.22319	0.17512	0.1718	0.2082	0.17851	0.14718	0.19643	0.22196	0.3349	0.060538	0.07127	0.16206	-2.9125	-2.7188	-3.4125	-3.2021	-2.9958	-3.4083	-2.9917	-3.0729	-3.1021	-2.8	-3.2562	-3.1604	-2.8896	-3.4313	-2.9333	-3.1625	242.147	14.745	353.091	293.224	198.684	353.845	291.205	297.449	326.010	115.740	350.713	319.808	66.020	70.575	342.679	344.465	0.00019766	0.00038622	2.5446e-05	226.15	2.6607e-06	9.8436e-07	320.25	73.501	1.2917e-06	3.7097e-07	115.18	47.889	31.417	12.578	3.1635e-06	19.479	0.00014221	0.00014721	3.897e-05	226.58	1.5724e-06	1.5295e-06	317.78	74.007	1.5254e-06	1.6217e-06	115.23	47.804	31.429	12.797	1.489e-06	19.467	78.863	78.762	328.359	6.415	108.259	232.735	4.544	12.493	97.983	183.173	9.743	13.462	15.915	22.039	219.060	18.776	-8191	255	
1400.250	1	1	0	0	0.33889	0.086948	0.23575	0.11391	0.17154	0.22393	0.29209	0.18945	0.16402	0.052139	0.26603	0.044451	0.10025	0.11136	0.24676	0.25491	-2.8375	-2.6625	-3.3625	-2.9167	-2.8208	-3.4208	-3.0208	-3.2396	-3.4146	-2.8771	-3.3146	-3.1417	-2.9854	-3.5771	-3.0375	-3.2354	343.158	299.603	177.210	148.972	90.879	139.602	124.713	313.356	187.744	60.918	2.425	310.559	22.121	4.925	56.761	269.781	0.00020314	0.00016798	4.7133e-05	226.28	2.9912e-06	2.6012e-06	324.33	74.146	8.109e-07	1.6346e-06	117.85	48.365	31.531	12.713	1.3481e-06	19.683	0.0001419	0.0001432	3.8026e-05	226.73	1.5562e-06	1.5353e-06	319.3	74.279	1.5532e-06	1.5315e-06	117.03	48.166	31.703	12.868	1.4534e-06	19.578	62.885	312.769	35.076	6.726	84.823	129.775	4.521	12.020	79.967	92.806	9.660	13.128	16.007	21.615	113.530	18.523	-8191	255	
1400.346	1	1	0	0	0.056306	0.13644	0.14383	0.27363	0.24613	0.19625	0.13045	0.10799	0.15497	0.11328	0.13442	0.1802	0.061921	0.19804	0.13	0.17941	-3.2188	-2.9062	-3.1813	-3.1604	-2.8208	-3.4958	-3.1208	-3.05	-3.4521	-2.8021	-3.2167	-3.2438	-2.6625	-3.4208	-3.1333	-3.0875	239.008	123.362	250.663	253.273	168.563	159.527	87.816	181.000	1.971	176.526	82.816	283.761	271.348	336.896	154.900	299.882	0.00023421	0.00014039	8.21e-05	226.68	1.3588e-06	1.7093e-06	320.87	74.159	2.1839e-06	8.3632e-07	118.58	49.137	32.177	12.935	3.837e-06	19.663	0.00014359	0.00013696	3.9866e-05	226.65	1.6272e-06	1.522e-06	321.26	74.578	1.5548e-06	1.5347e-06	118.06	48.781	32.047	13.005	1.5238e-06	19.788	81.597	56.290	97.353	6.376	85.450	132.249	4.827	12.225	125.514	86.509	9.532	13.414	15.834	21.899	196.130	18.611	-8191	255	
1400.442	1	1	0	0	0.10439	0.21368	0.15149	0.10604	0.030968	0.25616	0.12433	0.14345	0.12421	0.056825	0.073764	0.13497	0.20974	0.10106	0.1796	0.16112	-3.1125	-2.8792	-3.2458	-3.3479	-2.6479	-3.3021	-3.0417	-2.8729	-3.5938	-2.8458	-3.2354	-3.3708	-2.7167	-3.3375	-3.4458	-2.9375	151.614	161.720	148.587	62.565	131.938	130.832	220.809	243.221	150.234	180.623	287.876	180.860	31.343	287.899	95.640	63.762	0.00021222	0.00022597	1.3084e-05	227.7	6.2421e-07	1.3522e-06	325.5	73.792	1.0404e-06	1.1546e-06	117.66	48.821	31.627	12.877	1.9466e-06	19.591	0.0001467	0.00013762	4.1704e-05	228.39	1.5972e-06	1.537e-06	322.6	74.619	1.5007e-06	1.4901e-06	117.79	48.583	31.894	12.949	1.559e-06	19.664	97.960	81.704	208.286	6.003	168.666	115.400	4.706	12.845	299.524	226.718	9.495	13.805	16.240	22.247	168.510	18.421	-8191	255	
1400.538	1	1	0	0	0.24062	0.058685	0.1499	0.14134	0.29017	0.13098	0.1169	0.093114	0.033825	0.093232	0.062914	0.29108	0.16753	0.27307	0.15321	0.26416	-3.3271	-2.7167	-3.0458	-3.4708	-2.6562	-3.4313	-3.3312	-2.9229	-3.6292	-2.9896	-2.9333	-3.4271	-2.7125	-3.2	-3.2542	-2.7875	26.717	305.064	345.352	327.056	135.636	104.706	305.931	49.916	278.006	179.188	32.683	195.698	321.947	194.833	149.213	339.955	0.00021031	0.00029094	5.1502e-05	227.33	2.9965e-06	1.5593e-06	322.36	74.44	1.2243e-06	1.0707e-06	117.71	48.663	31.479	12.798	2.4632e-06	19.581	0.00014439	0.00013447	4.0382e-05	227.03	1.5397e-06	1.5556e-06	317.75	74.337	1.5043e-06	1.5037e-06	116.38	48.488	31.698	12.927	1.5217e-06	19.667	86.584	55.375	277.814	6.394	81.113	347.915	4.722	12.574	244.207	149.512	9.280	13.390	16.100	21.725	125.718	18.234	-8191	255	
1400.659	1	1	0	0	0.082592	0.25017	0.13312	0.13439	0.16716	0.09094	0.09848	0.092195	0.022593	0.14982	0.11022	0.34986	0.15539	0.33297	0.023167	0.065922	-2.975	-2.9229	-2.9396	-3.4375	-2.6833	-3.1417	-3.3542	-2.6458	-3.3333	-2.8167	-2.8021	-3.4021	-2.9083	-3.0875	-3.4021	-2.575	236.877	192.961	336.878	132.691	218.934	54.744	110.680	132.504	254.651	142.910	99.654	192.898	190.131	33.781	78.334	199.851	0.00017673	0.00029194	8.2537e-05	230.44	1.4049e-06	7.8513e-07	323.27	74.404	8.8172e-07	2.9942e-06	118.13	48.716	32.054	12.727	4.7186e-06	19.904	0.00014285	0.0001363	4.0477e-05	228.37	1.5216e-06	1.5963e-06	320.59	74.875	1.4898e-06	1.5328e-06	118.06	48.832	31.967	13.01	1.511e-06	19.872	94.067	71.147	146.384	6.683	71.307	60.704	4.322	12.381	121.530	175.261	9.216	13.570	16.096	21.726	130.390	18.374	-8191	255	
1400.753	1	1	0	0	0.19631	0.21518	0.1104	0.12771	0.076587	0.10604	0.11114	0.10626	0.12778	0.12641	0.1734	0.13051	0.20256	0.157	0.17264	0.040611	-2.9625	-2.9437	-2.8958	-3.4542	-2.9833	-3.0896	-3.4042	-2.7021	-3.4375	-3.1208	-2.7583	-3.4875	-3.1	-3.05	-3.4354	-2.9354	178.356	172.726	270.348	25.465	310.284	208.641	342.354	128.347	42.988	237.278	45.964	226.372	347.955	5.974	332.639	352.631	0.00016478	0.00020694	3.5879e-05	226.85	2.8184e-07	1.9552e-06	325.69	74.704	6.0612e-07	3.0538e-06	119.9	49.467	31.898	12.921	2.2689e-06	19.907	0.00014729	0.0001421	4.1156e-05	228.61	1.5609e-06	1.5928e-06	323.92	75.158	1.5191e-06	1.5433e-06	119.63	49.423	32.043	13.117	1.5677e-06	20.006	86.901	2.554	25.503	6.139	259.936	138.431	4.613	12.706	38.493	123.381	9.911	13.185	16.256	21.677	147.920	18.528	-8191	255	
1400.849	1	1	0	0	0.16911	0.2465	0.32909	0.12567	0.083815	0.066742	0.15505	0.1866	0.28063	0.22065	0.20152	0.1098	0.24744	0.13851	0.14867	0.14959	-3.0083	-3.0458	-2.8958	-3.5229	-3.1583	-3.1771	-3.5542	-2.9125	-3.3229	-3.3417	-2.6667	-3.4188	-2.8625	-2.7958	-3.4313	-2.8104	119.249	324.173	213.211	189.065	341.237	354.096	182.801	89.647	324.256	272.140	295.034	199.293	171.078	158.652	213.594	238.796	0.00017591	9.5102e-05	7.0548e-05	230.52	1.4445e-06	3.3296e-06	327.45	75.091	1.1139e-06	1.3193e-06	118.22	49.138	31.752	13.047	9.2352e-07	19.9	0.00014678	0.00013933	4.0992e-05	230.18	1.5365e-06	1.597e-06	323.94	74.973	1.6099e-06	1.5023e-06	118.1	49.031	32.043	13.111	1.5461e-06	19.846	77.959	164.262	90.289	6.470	194.803	275.000	4.619	12.494	240.640	93.702	10.388	13.351	16.639	21.672	108.149	18.709	-8191	255	
1400.946	1	1	0	0	0.13863	0.23739	0.27902	0.16693	0.041982	0.29917	0.049465	0.095016	0.17758	0.28022	0.062138	0.02858	0.26936	0.11032	0.039522	0.29332	-2.9646	-3.2604	-2.8396	-3.5292	-3.0896	-2.7792	-3.3083	-3.0417	-2.9917	-3.4062	-2.9583	-3.2521	-3.1375	-2.8063	-3.4542	-2.9542	185.331	186.807	81.795	30.904	19.477	43.941	133.239	8.841	348.944	163.497	116.897	45.467	298.317	214.912	181.843	83.785	0.00022251	0.00028855	6.9438e-05	229.74	2.6057e-06	2.3635e-06	322.04	74.887	1.2128e-06	3.8175e-06	116.2	49.155	32.063	13.018	1.2842e-06	19.59	0.00015355	0.00014047	4.0354e-05	228.17	1.4877e-06	1.6206e-06	320.06	74.621	1.5915e-06	1.5316e-06	116.48	48.685	31.956	13.034	1.5716e-06	19.705	79.638	82.882	112.927	6.350	149.144	202.825	4.241	12.727	67.912	143.895	9.553	13.086	16.314	21.886	253.735	18.692	-8191	255	
1401.042	1	1	0	0	0.04589	0.21928	0.24477	0.16271	0.086878	0.1547	0.27896	0.31572	0.13399	0.16904	0.11832	0.16551	0.22823	0.17297	0.20397	0.11657	-2.6312	-3.3521	-2.7	-3.2104	-3.0604	-2.8396	-3.5187	-3.0062	-3.1271	-3.3333	-2.7229	-3.3792	-3.1979	-2.8667	-3.3396	-3.0438	141.981	155.413	139.694	86.766	85.001	294.626	309.624	82.809	185.592	321.792	323.888	323.229	346.658	189.392	241.646	349.059	0.00025473	0.000266	8.2002e-05	225.85	2.062e-06	2.1974e-06	324.74	75.442	1.961e-06	1.6767e-06	119.3	49.16	31.618	12.923	5.5348e-07	19.833	0.00015242	0.00013943	3.9485e-05	226.71	1.533e-06	1.624e-06	321.03	74.851	1.6305e-06	1.5213e-06	118.16	49.112	32.04	13.049	1.5314e-06	19.848	94.964	79.172	1.684	6.919	165.424	65.833	4.598	12.979	154.496	137.412	10.011	12.953	16.487	21.741	3.919	18.924	-8191	255	
1401.138	1	1	0	0	0.13812	0.17414	0.14723	0.21908	0.10552	0.11711	0.13386	0.17644	0.18121	0.16904	0.23032	0.12153	0.26157	0.11546	0.093564	0.18339	-2.6583	-3.3979	-2.5938	-3.2396	-3.2958	-2.8479	-3.5292	-2.9125	-2.6771	-3.4208	-3.0708	-3.2833	-3.4271	-2.8771	-3.5271	-3.175	29.798	194.885	248.880	180.192	87.736	251.553	130.590	91.163	126.822	141.399	161.878	77.118	282.107	149.734	339.966	105.675	0.00021744	0.0002538	5.4153e-05	225.66	3.6225e-06	1.6242e-06	323.8	74.398	1.4297e-06	2.0635e-06	119.25	49.756	32.368	12.96	2.1687e-06	19.948	0.00015104	0.00014176	3.8592e-05	226.73	1.53e-06	1.6407e-06	322.33	74.714	1.6194e-06	1.5303e-06	119.34	49.5	32.37	13.157	1.5524e-06	19.978	80.978	55.280	98.564	6.761	142.174	32.530	4.976	12.876	170.297	212.484	9.775	13.251	16.492	21.905	215.849	18.401	-8191	255	
1401.259	1	1	0	0	0.13943	0.1038	0.12653	0.20696	0.16123	0.26238	0.11642	0.11214	0.077462	0.11962	0.089232	0.13617	0.2094	0.27699	0.1168	0.14599	-2.3187	-3.3	-2.7458	-3.225	-3.3604	-2.9167	-3.1854	-3.0354	-2.8417	-3.6479	-3.0687	-3.1354	-3.2812	-2.8125	-3.2354	-3.4437	109.705	285.538	348.640	231.869	38.497	90.473	222.059	273.290	230.103	68.738	104.347	249.203	173.748	209.155	52.960	3.374	0.00020401	0.00031897	2.6425e-05	224.39	1.8e-06	3.268e-06	325.86	73.867	1.3757e-06	1.6061e-06	116.31	49.39	31.823	12.906	3.0931e-06	19.517	0.00015464	0.00013895	3.8801e-05	226.29	1.5266e-06	1.6226e-06	321.55	74.392	1.624e-06	1.5195e-06	116.94	48.874	32.071	13.042	1.5706e-06	19.587	79.720	36.362	275.433	5.890	141.634	86.153	4.317	12.347	89.735	154.755	9.807	13.169	15.893	21.996	140.900	18.868	-8191	255	
1401.355	1	1	0	0	0.10162	0.13638	0.076142	0.19848	0.11861	0.080238	0.13255	0.10476	0.22217	0.19449	0.1366	0.067466	0.047532	0.16041	0.06305	0.10029	-2.6333	-3.6312	-2.9021	-2.8292	-3.2479	-2.9396	-3.2229	-3.0312	-2.8458	-3.5729	-3.1479	-3.0479	-3.2042	-2.775	-3.2833	-3.2542	327.931	142.655	46.815	241.747	114.322	308.692	47.714	48.848	71.303	49.485	44.218	58.662	67.788	278.925	193.073	111.480	0.000193	0.00013604	6.7234e-05	227.38	4.011e-06	1.8816e-06	321.13	72.851	1.5475e-06	1.8861e-06	118.23	49.083	31.588	12.909	2.0687e-06	19.723	0.00015476	0.00013557	3.8563e-05	226.5	1.5235e-06	1.5203e-06	318.75	73.779	1.5851e-06	1.507e-06	116.83	48.869	32.013	13.015	1.6242e-06	19.755	75.858	69.276	120.476	6.178	134.171	165.692	4.809	13.139	126.177	181.703	9.625	13.124	16.200	21.894	101.797	18.608	-8191	255	
1401.451	1	1	0	0	0.12806	0.093592	0.20277	0.39516	0.15195	0.17626	0.29697	0.19534	0.29869	0.05239	0.12198	0.21055	0.097798	0.1139	0.15771	0.12918	-2.5729	-3.1146	-3.075	-2.9708	-3.6458	-3.1188	-3.3063	-3.4417	-2.7333	-3.2146	-3.1125	-2.8646	-3.4854	-2.8354	-3.1854	-3.5292	326.399	23.506	291.165	236.647	247.798	274.552	333.208	138.991	135.409	165.532	266.367	120.245	267.985	191.420	29.273	70.342	0.00015793	0.00034504	3.0329e-05	225.28	1.1995e-06	2.0233e-06	325.72	74.392	2.9844e-06	2.7993e-06	118.32	49.338	32.14	12.825	1.6002e-06	19.793	0.00015262	0.00013983	3.8948e-05	226.62	1.5231e-06	1.5414e-06	321.49	74.741	1.5715e-06	1.5584e-06	118.19	48.998	32.067	13.066	1.6077e-06	19.857	81.309	79.627	85.248	5.941	56.440	122.156	4.240	12.880	164.992	101.269	10.072	13.189	15.985	22.391	219.100	18.571	-8191	255	
1401.547	1	1	0	0	0.3617	0.10252	0.036294	0.2537	0.24573	0.1641	0.12191	0.13754	0.14004	0.13027	0.069786	0.21281	0.1202	0.16682	0.26707	0.11335	-2.525	-3.6604	-3.1937	-2.9917	-3.5062	-2.9875	-3.0979	-3.3021	-2.8708	-3.5458	-3.2396	-2.8167	-3.5021	-2.8438	-3.1354	-3.4104	299.726	225.292	115.503	201.551	346.460	284.903	224.680	102.049	329.512	300.054	279.522	0.786	263.563	348.803	47.816	202.628	0.00022531	0.00012635	8.2732e-05	228.09	3.1599e-06	9.3035e-07	323.66	73.79	2.1852e-06	2.5055e-06	119.55	49.441	31.68	12.961	2.7093e-06	19.681	0.00014449	0.00014286	3.8717e-05	228.3	1.5047e-06	1.5289e-06	323.06	74.593	1.543e-06	1.6377e-06	119.08	49.264	32.062	13.099	1.6258e-06	19.934	87.037	331.165	125.089	6.375	159.926	160.878	4.702	13.263	197.928	109.008	10.002	13.188	16.659	21.886	173.408	18.533	-8191	255	
1401.643	1	1	0	0	0.18841	0.30179	0.19493	0.22741	0.17459	0.19861	0.038894	0.23427	0.14042	0.076717	0.11776	0.32012	0.16813	0.23664	0.39047	0.038483	-2.3375	-3.1667	-3.2729	-2.7792	-3.5292	-3.2292	-3.0125	-3.6792	-2.8833	-3.3375	-3.2917	-2.7771	-3.425	-3.1583	-2.9354	-3.575	119.344	91.204	62.567	344.205	252.399	84.604	74.115	223.972	157.978	106.168	295.554	13.837	226.715	51.627	202.035	112.720	0.00018105	0.00031882	4.7493e-05	226.25	4.8875e-06	2.0907e-06	323.09	74.068	3.1409e-06	1.3982e-06	116.54	48.534	31.88	12.853	3.8036e-06	19.651	0.00014402	0.00014823	3.8587e-05	226.64	1.5109e-06	1.522e-06	321.4	74.177	1.5233e-06	1.6159e-06	116.54	48.25	31.819	13.011	1.642e-06	19.628	68.924	114.003	117.689	6.421	111.491	104.652	5.236	13.126	174.401	85.950	9.633	12.683	16.767	21.516	127.885	18.938	-8191	255	
1401.738	1	1	0	0	0.29573	0.32149	0.18862	0.14512	0.11638	0.0735	0.12082	0.21818	0.11301	0.037096	0.047114	0.062177	0.063144	0.15068	0.19787	0.056846	-2.4938	-3.2104	-3.3021	-2.8438	-3.4333	-3.2188	-3.3021	-3.6125	-2.8146	-3.1771	-3.3854	-2.6979	-3.275	-3.3563	-3.0417	-3.5125	157.874	257.022	49.182	129.657	322.126	233.589	342.044	144.467	248.833	339.602	50.396	216.461	122.088	193.117	252.319	31.992	0.00021709	0.000137	8.6559e-05	225	8.0436e-07	3.3504e-06	322.27	73.984	3.2135e-06	6.6627e-07	117.03	48.527	31.775	12.923	3.0686e-06	19.678	0.00014557	0.00014737	3.901e-05	225.31	1.5387e-06	1.563e-06	319.49	74.082	1.5582e-06	1.6019e-06	117.18	48.467	31.941	13.023	1.6487e-06	19.676	79.284	132.219	152.931	6.033	267.696	140.870	4.930	12.486	169.264	0.453	9.130	13.421	16.024	21.697	169.434	18.250	-8191	255	
1401.834	1	1	0	0	0.14971	0.13822	0.12151	0.33299	0.052753	0.10195	0.021069	0.22645	0.069519	0.26853	0.11016	0.12819	0.2248	0.083142	0.11864	0.1825	-2.5792	-2.9125	-3.3708	-2.8937	-3.4458	-3.1875	-3.0833	-3.5396	-3.0708	-3.1188	-3.5896	-2.9521	-3.2562	-3.4292	-2.7917	-3.4583	275.034	267.805	47.096	99.263	22.464	320.648	76.721	272.043	302.213	314.756	259.662	161.001	59.310	353.428	132.630	162.014	0.00018594	0.00012473	2.2243e-05	224.99	5.7625e-07	3.3627e-06	323.33	74.813	1.7164e-06	3.2584e-06	118.04	48.894	31.988	12.839	1.6607e-06	19.557	0.00014682	0.00014853	3.9168e-05	224.69	1.5716e-06	1.5412e-06	319.63	74.385	1.5523e-06	1.6389e-06	118.04	48.785	32.089	13.009	1.5983e-06	19.752	95.463	45.262	67.371	6.396	59.421	138.424	4.369	12.312	143.049	211.871	9.415	12.810	15.765	21.121	229.094	18.460	-8191	255	
1401.930	1	1	0	0	0.22952	0.17428	0.051403	0.10085	0.25583	0.098602	0.16262	0.26977	0.13288	0.17255	0.18633	0.27753	0.22959	0.042878	0.089875	0.28306	-2.6083	-2.7208	-3.2771	-2.8542	-3.2208	-3.1604	-2.5312	-3.3125	-2.9833	-3.1125	-3.5667	-2.7521	-3.0979	-3.2354	-2.8771	-3.525	38.650	273.037	15.023	205.669	71.137	36.323	269.349	319.472	243.288	336.743	104.917	72.436	220.520	179.429	123.452	5.972	0.00013803	0.00019945	5.7157e-05	227.74	6.1303e-07	2.7813e-06	323.83	74.164	1.3839e-06	9.7661e-07	118.9	49.263	32.044	12.803	1.926e-06	19.536	0.00014523	0.00015192	3.8637e-05	226.11	1.5923e-06	1.5325e-06	320.88	74.595	1.5533e-06	1.6171e-06	117.93	48.816	32.058	13.02	1.5755e-06	19.642	105.408	82.917	81.345	6.318	65.269	230.853	4.478	12.395	123.962	83.491	9.643	13.196	15.515	21.684	183.905	18.699	-8191	255	
1402.050	1	1	0	0	0.1414	0.18096	0.020789	0.29199	0.2756	0.20576	0.12887	0.048103	0.1793	0.22625	0.087097	0.032911	0.18847	0.13336	0.2335	0.19507	-2.65	-2.8083	-3.4146	-2.7396	-2.8438	-3.5667	-2.875	-3.4958	-3.2188	-2.8042	-3.3958	-3.0354	-3.0375	-3.3979	-2.8479	-3.3271	148.838	72.908	77.915	312.957	265.997	96.398	311.711	102.636	284.431	167.599	-5.036	340.289	317.306	88.084	68.586	185.445	0.00020174	9.1287e-05	5.7364e-05	222.19	2.6855e-06	3.6224e-06	317.9	73.415	1.9938e-06	2.7091e-06	116.1	47.489	31.529	12.685	3.9685e-06	19.427	0.00014486	0.00015001	3.8654e-05	224.01	1.6361e-06	1.5104e-06	315.58	73.606	1.5219e-06	1.6025e-06	115.59	47.61	31.747	12.865	1.562e-06	19.426	79.459	276.955	87.897	6.469	127.682	182.686	4.310	12.865	347.670	136.995	9.896	13.249	16.415	21.919	209.779	18.905	-8191	255	
1402.147	1	1	0	0	0.12272	0.20293	0.014577	0.183	0.066505	0.20182	0.23159	0.1908	0.10429	0.093047	0.1638	0.2306	0.082193	0.041856	0.073534	0.2203	-2.7896	-2.7146	-3.4938	-3.1208	-3.1146	-3.3417	-2.7438	-3.1875	-3.1979	-2.7771	-3.5521	-3.2458	-3.0146	-3.5062	-2.8375	-3.1729	279.826	178.468	303.270	25.787	316.914	62.138	245.958	69.086	129.973	166.012	40.414	3.282	337.334	81.696	51.714	20.699	0.00020612	0.00025401	4.1645e-05	224.63	7.3324e-07	2.1708e-06	317.22	73.344	8.6936e-07	2.7843e-06	117.51	48.284	31.297	12.796	4.2654e-06	19.333	0.00014452	0.00014539	3.9078e-05	224.38	1.594e-06	1.4765e-06	316.32	73.719	1.5186e-06	1.5811e-06	116.64	47.956	31.649	12.888	1.5226e-06	19.511	68.254	34.002	90.453	6.791	333.514	125.706	4.900	12.518	317.805	170.721	9.951	13.365	16.517	22.225	164.449	18.472	-8191	255	
1402.218	1	1	0	0	0.12211	0.1291	0.12925	0.14158	0.056391	0.086891	0.017885	0.14036	0.30093	0.23878	0.025868	0.33306	0.26488	0.042606	0.26963	0.16134	-2.8479	-3.0042	-3.5729	-3.1792	-2.8521	-3.3771	-2.7146	-3.0021	-3.2687	-2.625	-3.3875	-3.1354	-3.0625	-3.4271	-2.9104	-3.1	106.866	254.142	123.183	209.924	251.687	183.998	150.048	104.107	149.637	297.639	136.269	-3.362	257.877	341.033	65.974	8.381	0.00014509	0.0001226	3.0611e-05	224.07	1.7797e-06	2.1018e-06	321.38	74.017	4.058e-06	9.256e-07	117.36	48.56	31.725	12.874	2.3701e-06	19.692	0.00014149	0.00013844	4.0098e-05	224.27	1.6225e-06	1.5099e-06	319.09	74.01	1.5464e-06	1.5253e-06	117.42	48.57	31.942	12.998	1.5694e-06	19.762	68.297	4.650	289.754	7.006	135.859	190.322	4.451	12.432	149.097	116.752	10.003	13.124	15.375	21.697	113.809	18.362	-8191	255	
1402.339	1	1	0	0	0.098328	0.15554	0.073845	0.13992	0.24818	0.15576	0.25426	0.11346	0.35074	0.071962	0.18061	0.11579	0.092347	0.10885	0.063151	0.10796	-3.0958	-2.6813	-3.3042	-3.1208	-2.7229	-3.3604	-2.8917	-2.8771	-3.3208	-2.6771	-3.4083	-3.3271	-2.9396	-3.4688	-3.0229	-3.0479	33.461	9.876	307.381	354.442	152.085	24.873	254.221	321.852	109.277	244.124	190.014	294.082	341.634	194.672	25.868	107.357	0.0002283	0.00018838	9.0847e-05	228.62	2.4782e-06	2.2264e-06	326.44	73.885	7.7531e-07	3.4959e-06	115.88	48.282	31.555	12.835	4.5588e-06	19.661	0.00014024	0.00014335	4.0839e-05	227.42	1.5735e-06	1.5458e-06	321.82	74.49	1.5347e-06	1.5596e-06	116.7	48.355	31.786	12.981	1.5273e-06	19.557	74.750	191.707	45.487	6.449	118.765	102.704	4.868	12.737	46.516	94.455	9.068	13.023	16.691	21.830	153.631	18.076	-8191	255	
1402.435	1	1	0	0	0.16526	0.060039	0.22718	0.12996	0.27895	0.14507	0.16919	0.10629	0.077885	0.27857	0.096875	0.064723	0.081612	0.10182	0.1117	0.11522	-3.1437	-2.8896	-3.2313	-3.2938	-2.6292	-3.4333	-3.1146	-2.9688	-3.4229	-2.9542	-3.1542	-3.2438	-2.8583	-3.35	-2.9271	-2.7396	31.337	146.651	222.129	25.807	284.664	60.679	142.643	247.798	281.784	250.152	272.750	167.805	30.113	7.763	80.096	219.349	0.00021454	0.00020473	3.3656e-05	223.98	5.3247e-07	1.0177e-06	319.62	72.976	3.2791e-06	3.5634e-06	116.12	48.387	31.347	12.786	1.7446e-06	19.288	0.00014538	0.00013821	3.9533e-05	223.77	1.56e-06	1.5521e-06	316.06	73.522	1.5174e-06	1.5543e-06	115.55	47.982	31.618	12.934	1.4883e-06	19.471	81.181	53.620	247.052	6.818	229.832	115.828	4.528	12.682	80.779	131.049	9.732	13.321	16.060	22.006	181.133	18.746	-8191	255	
1402.531	1	1	0	0	0.2749	0.10379	0.12268	0.2871	0.050156	0.040236	0.080668	0.2285	0.053092	0.31594	0.21611	0.21021	0.17351	0.17294	0.068124	0.053113	-2.8104	-2.7417	-3.3021	-3.2729	-2.8354	-3.2833	-3.2562	-2.8521	-3.6208	-2.9771	-3.1854	-3.3583	-2.7792	-3.3063	-3.0958	-2.5979	66.476	208.963	339.166	10.003	312.171	87.785	232.532	44.183	152.667	281.848	114.190	281.743	185.923	71.454	93.619	1.605	0.00021132	0.00041377	1.8876e-05	222.05	1.5884e-06	3.0704e-06	318.47	72.859	4.1995e-06	3.5308e-06	117.43	48.716	31.527	12.791	2.9056e-06	19.64	0.0001441	0.00014209	4.0866e-05	223.48	1.5369e-06	1.5448e-06	316.91	73.654	1.4984e-06	1.5238e-06	116.65	48.104	31.707	12.959	1.4921e-06	19.607	84.880	46.378	252.886	7.077	102.039	158.180	4.563	12.982	182.795	120.720	9.661	13.249	16.342	21.947	87.415	18.196	-8191	255	
1402.627	1	1	0	0	0.23039	0.24428	0.19885	0.032573	0.23801	0.050217	0.20019	0.13576	0.20894	0.32807	0.25264	0.10874	0.31106	0.37321	0.14827	0.26972	-3.0896	-2.9583	-2.9646	-3.4979	-2.7646	-3.55	-3.3083	-2.7521	-3.6479	-3.0104	-2.8688	-3.2667	-2.7354	-3.0771	-3.1125	-2.6688	229.529	298.414	108.781	349.146	337.772	151.160	317.796	323.671	132.175	88.762	92.666	324.574	-1.777	352.912	128.137	333.820	0.00022139	2.4964e-05	5.5508e-05	222.86	1.2708e-06	2.8343e-06	321.09	74.521	4.2391e-06	2.365e-06	117.97	48.79	31.899	12.917	3.4346e-06	19.692	0.00014904	0.0001408	4.1331e-05	223.42	1.5178e-06	1.5961e-06	317.76	74.119	1.548e-06	1.5375e-06	117.35	48.456	31.959	12.998	1.4795e-06	19.717	77.348	186.437	93.983	6.664	145.632	187.429	4.388	12.492	137.616	104.303	9.252	13.219	15.952	21.596	175.968	18.630	-8191	255	
1402.746	1	1	0	0	0.13767	0.1648	0.011333	0.1585	0.072713	0.34573	0.15744	0.30345	0.061572	0.13127	0.14355	0.05814	0.17116	0.28881	0.23235	0.32654	-3.2	-3.1146	-2.9125	-3.3167	-2.9021	-3.225	-3.3708	-2.9542	-3.6104	-3.1771	-2.9708	-3.6583	-2.9	-2.9583	-3.5438	-2.925	47.265	345.582	155.274	256.607	299.885	56.320	90.389	257.896	191.810	250.713	144.205	70.575	51.320	131.400	148.013	333.824	0.00016553	8.2154e-05	9.8226e-05	224.56	2.1858e-06	4.7707e-06	319	74.097	4.3946e-06	1.9295e-06	115.32	48.397	31.691	12.813	1.6192e-06	19.288	0.00014655	0.00014084	4.129e-05	223.94	1.5526e-06	1.5984e-06	316.17	73.712	1.5569e-06	1.5041e-06	115.48	47.981	31.616	12.939	1.5445e-06	19.323	74.082	277.844	19.600	6.431	95.841	65.567	4.435	12.448	174.376	162.659	9.552	13.143	16.093	21.489	132.599	18.339	-8191	255	
1402.842	1	1	0	0	0.11175	0.046804	0.13079	0.31155	0.034074	0.13321	0.21481	0.074534	0.24601	0.12089	0.15563	0.17619	0.21822	0.085683	0.067001	0.073689	-2.9938	-3.0729	-2.725	-3.3833	-2.9021	-3.05	-3.4604	-2.9417	-3.35	-3.0417	-2.6604	-3.4729	-2.9562	-3.0833	-3.4625	-2.7979	12.606	50.659	280.134	348.124	33.801	282.348	253.909	267.869	207.231	188.882	235.017	315.765	66.819	259.027	1.794	-2.370	0.00012181	0.00036525	3.3818e-05	226.05	3.522e-06	3.109e-06	319.29	72.736	2.0172e-06	1.9209e-06	115.3	48.102	31.691	12.743	3.4035e-06	19.318	0.0001453	0.00014044	4.0343e-05	223.64	1.5197e-06	1.637e-06	314.37	73.221	1.5707e-06	1.5371e-06	115.12	47.877	31.763	12.941	1.5123e-06	19.359	109.066	84.764	351.857	6.413	149.782	198.494	4.482	12.428	161.593	165.199	9.141	12.836	15.509	21.750	258.429	18.108	-8191	255	
1402.939	1	1	0	0	0.11587	0.099524	0.17224	0.13386	0.24822	0.29706	0.11005	0.13278	0.15677	0.15022	0.22829	0.19953	0.15799	0.35371	0.2985	0.12019	-2.9542	-3.0375	-2.6937	-3.3792	-2.9104	-2.9292	-3.6	-2.8771	-3.2021	-3.3083	-2.7604	-3.3688	-3.1833	-2.725	-3.3771	-2.8646	152.414	238.815	104.316	261.558	322.628	269.393	265.283	74.608	102.001	-2.237	4.457	246.808	5.295	36.796	107.672	277.518	0.00017506	0.0001718	9.608e-05	224.31	3.6561e-06	3.3262e-06	317.61	73.522	2.4227e-06	1.6728e-06	117.31	48.736	31.731	12.827	1.4437e-06	19.451	0.00014888	0.00013987	4.036e-05	223.37	1.5207e-06	1.6121e-06	314.53	73.64	1.5755e-06	1.4937e-06	116.61	48.299	31.863	12.972	1.5349e-06	19.575	93.461	137.233	59.477	5.945	134.901	153.600	4.318	12.352	80.075	141.372	9.490	13.300	15.910	22.225	203.483	18.502	-8191	255	
1403.035	1	1	0	0	0.35701	0.24493	0.14569	0.15785	0.044765	0.32726	0.17852	0.19935	0.26347	0.085889	0.26868	0.042013	0.14212	0.15213	0.11953	0.1928	-2.8271	-3.4229	-2.8979	-3.3646	-3.0229	-2.8083	-3.5521	-2.8604	-3.0604	-3.5062	-2.8729	-3.4271	-3.0875	-2.8042	-3.3	-2.8542	160.314	105.908	113.939	199.588	71.734	17.353	33.989	333.082	217.389	218.423	229.109	143.496	211.358	128.077	309.286	106.937	0.00017909	0.00027592	0.0001036	227.36	3.1616e-06	9.1438e-07	322.55	74.121	2.2453e-06	1.5423e-06	118.13	48.995	31.935	12.875	1.1448e-06	19.699	0.00015396	0.00013525	4.0213e-05	225.6	1.4991e-06	1.5681e-06	318.76	74.189	1.6291e-06	1.5115e-06	117.74	48.878	32.003	13.053	1.5522e-06	19.735	95.563	119.076	93.333	5.960	81.294	257.235	4.580	12.333	87.540	252.358	9.777	12.929	15.573	21.484	146.773	18.574	-8191	255	
1403.131	1	1	0	0	0.17553	0.16812	0.30601	0.1184	0.18626	0.21572	0.036654	0.073206	0.28304	0.18483	0.098153	0.11527	0.1457	0.25068	0.078919	0.37149	-2.7271	-3.4146	-2.6771	-3.1979	-3.2229	-2.8833	-3.55	-3.0625	-2.9417	-3.2729	-2.7479	-3.1021	-3.2229	-2.5667	-3.4458	-2.975	121.199	62.073	115.330	254.171	85.075	130.318	241.058	159.834	147.491	108.766	157.086	178.054	324.236	72.614	257.969	342.128	0.00020638	0.00014467	8.9616e-05	226.44	1.5343e-06	2.5736e-06	322.3	73.693	1.9394e-06	4.3817e-06	115.85	48.496	31.565	12.78	1.4722e-06	19.288	0.00015158	0.00013699	4.0474e-05	225.22	1.4875e-06	1.6019e-06	317.57	73.664	1.6201e-06	1.4868e-06	115.52	48.191	31.672	12.947	1.5527e-06	19.401	82.450	170.376	166.242	6.068	108.564	124.286	4.350	12.480	96.037	174.581	9.222	13.190	16.083	21.297	102.840	18.531	-8191	255	
1403.227	1	1	0	0	0.27047	0.26958	0.20515	0.18033	0.23631	0.046573	0.17696	0.11091	0.11966	0.19012	0.15224	0.024095	0.11003	0.077035	0.12675	0.25697	-2.4125	-3.3583	-2.825	-3.2625	-3.4562	-3.0229	-3.5208	-3.1729	-3.0208	-3.5458	-2.9875	-3.1396	-3.2938	-2.6479	-3.2208	-3.2208	86.808	253.285	32.330	197.845	130.578	346.460	256.181	256.760	292.703	277.164	145.725	348.363	166.457	231.908	177.300	-3.768	0.0001483	0.00033993	9.0447e-05	223	7.81e-07	1.7566e-06	318	73.489	2.8927e-06	6.6208e-07	115.81	48.168	31.685	12.793	1.7653e-06	19.37	0.00015128	0.00013966	4.0122e-05	223.9	1.4875e-06	1.5978e-06	316	73.449	1.5806e-06	1.5072e-06	115.55	48.132	31.654	12.98	1.5606e-06	19.389	76.957	62.842	72.777	6.244	22.931	172.071	4.180	12.882	125.769	194.932	9.553	13.363	16.193	21.987	137.985	18.454	-8191	255	
1403.348	1	1	0	0	0.18277	0.15148	0.057616	0.036645	0.19225	0.043673	0.079446	0.20133	0.073632	0.16803	0.12698	0.16651	0.004936	0.15673	0.048256	0.19902	-2.425	-3.1813	-2.8625	-3.0625	-3.3187	-2.7354	-3.3896	-3.3187	-2.9083	-3.425	-2.9271	-2.9146	-3.4167	-2.9562	-3.2896	-3.0271	151.840	6.247	168.319	47.338	131.600	86.598	243.857	68.600	349.143	183.354	287.618	127.285	42.459	315.086	139.077	1.598	0.00017456	0.00017884	3.4873e-05	221.99	4.1101e-06	8.6751e-07	317.99	73.327	2.1501e-06	6.6103e-07	117.1	48.677	31.64	12.796	4.9661e-06	19.411	0.00015029	0.00014246	3.9741e-05	222.25	1.4894e-06	1.5819e-06	316.42	73.932	1.5826e-06	1.5372e-06	116.88	48.566	31.895	12.988	1.5827e-06	19.497	50.199	101.003	20.967	6.585	78.000	77.360	4.418	12.601	61.670	33.910	9.641	13.566	16.129	22.527	195.223	18.691	-8191	255	
1403.444	1	1	0	0	0.12684	0.17792	0.20461	0.21758	0.14294	0.10208	0.16506	0.12653	0.12791	0.024222	0.2824	0.14796	0.39691	0.1349	0.11625	0.015119	-2.4188	-3.3729	-2.9708	-2.9688	-3.4646	-2.725	-3.3563	-3.1021	-2.7417	-3.4333	-3.1979	-2.9583	-3.375	-2.9875	-3.1813	-3.3167	116.892	325.375	42.746	225.004	52.842	5.647	129.103	34.599	262.986	76.980	52.317	189.312	91.307	178.957	202.156	9.603	0.00027715	0.00018471	2.5985e-05	222.81	6.8803e-07	2.0297e-06	319.84	73.242	1.6709e-06	2.3512e-06	116.11	48.41	31.527	12.906	8.8785e-07	19.506	0.00015184	0.00014163	3.8247e-05	223.33	1.4725e-06	1.5528e-06	319.4	74.077	1.5787e-06	1.5561e-06	116.68	48.567	31.889	13.018	1.644e-06	19.471	76.901	181.897	162.871	6.870	263.154	66.675	4.812	13.363	222.136	204.921	10.533	13.585	16.173	21.568	26.367	18.253	-8191	255	
1403.515	1	1	0	0	0.30081	0.050416	0.17579	0.092765	0.13488	0.12073	0.11765	0.21669	0.17531	0.10865	0.2199	0.020306	0.25163	0.28761	0.097675	0.19704	-2.1979	-3.2896	-2.9521	-2.8375	-3.5521	-2.8542	-3.0875	-3.2354	-2.675	-3.2208	-3.0833	-3.0375	-3.3563	-2.8854	-3.1042	-3.3521	192.114	249.565	143.375	300.571	28.900	42.881	240.994	73.462	151.454	-4.187	76.736	14.985	73.756	31.630	200.133	16.843	0.00014996	0.00014417	7.31e-05	221.94	1.6813e-06	1.4152e-06	315.56	72.642	1.5434e-06	1.126e-06	115.35	47.875	31.387	12.785	4.3641e-06	19.299	0.00015138	0.00014308	3.9171e-05	223.02	1.5246e-06	1.5815e-06	314.31	73.153	1.5853e-06	1.5482e-06	115.02	47.868	31.65	12.928	1.6063e-06	19.317	80.369	57.717	86.369	7.158	57.523	169.452	4.389	12.992	152.020	174.768	9.591	13.474	16.861	22.461	211.304	18.027	-8191	255	
1403.612	1	1	0	0	0.1877	0.27043	0.22071	0.10038	0.18315	0.28923	0.15534	0.18366	0.10976	0.12206	0.193	0.22854	0.13996	0.20858	0.10513	0.18294	-2.375	-3.2	-3.0375	-2.975	-3.3896	-2.8979	-2.9479	-3.2354	-2.7542	-3.1104	-3.125	-2.7625	-3.3167	-2.9833	-2.7125	-3.4104	167.338	149.869	292.565	352.737	138.384	270.371	236.856	312.728	323.100	183.159	299.101	251.630	52.169	309.354	314.355	331.804	0.00020408	0.00020556	2.2853e-05	222.1	1.2853e-06	2.0647e-06	315.52	73.406	7.9901e-07	6.5093e-07	115.06	48.198	31.35	12.705	4.1797e-06	19.245	0.00014886	0.00014326	3.8098e-05	222.79	1.5874e-06	1.4974e-06	314.19	73.373	1.5736e-06	1.6283e-06	115.55	48.096	31.723	12.947	1.6204e-06	19.455	78.456	112.179	140.878	6.217	230.284	121.042	5.164	12.843	140.387	282.432	10.587	13.556	16.278	22.729	244.467	19.181	-8191	255	
#DATA ENDS
