BOXY.EXE: ISS Imagent and Oximeter Data Acquisition Program Version 0.80
Ascii Record File

#ACQ INFORMATION
2  Detector Channels 
16  External MUX Channels 
1  Auxiliary Channels 
5000  Waveform (CCF) Frequency (Hz)
1  Waveforms Skipped 
30  Waveforms Averaged 
1  Cycles Averaged 
16  Acquisitions per Waveform 
10.0806  Updata Rate (Hz) 

#FILE INFORMATION
TRUE -- External MUX Channel results are PARSED.
FALSE -- AC DC and Phase are NOT grouped.
TRUE -- Companion Program Settings File CREATED.
FALSE -- AC data not excluded
FALSE -- DC data not excluded
FALSE -- Phase data not excluded
FALSE -- Auxillary Chn. data not excluded
Tab delimiters

#CALIBRATION STATE
TRUE -- Waveform Calibration Values APPLIED.


#AUX CALIBRATION VALUES
Val Type	aux-1	

Term	1.0000e+00	
Factor	0.0000e+00	


#WF CALIBRATION VALUES
A = Detector Channel
Val Type	A-AC1	A-AC2	A-AC3	A-AC4	A-AC5	A-AC6	A-AC7	A-AC8	A-AC9	A-AC10	A-AC11	A-AC12	A-AC13	A-AC14	A-AC15	A-AC16	A-DC1	A-DC2	A-DC3	A-DC4	A-DC5	A-DC6	A-DC7	A-DC8	A-DC9	A-DC10	A-DC11	A-DC12	A-DC13	A-DC14	A-DC15	A-DC16	A-Ph1	A-Ph2	A-Ph3	A-Ph4	A-Ph5	A-Ph6	A-Ph7	A-Ph8	A-Ph9	A-Ph10	A-Ph11	A-Ph12	A-Ph13	A-Ph14	A-Ph15	A-Ph16	

Term	0.00000e+00	0.00000e+00	0.00000e+00	0.00000e+00	0.00000e+00	0.00000e+00	0.00000e+00	0.00000e+00	0.00000e+00	0.00000e+00	0.00000e+00	0.00000e+00	0.00000e+00	0.00000e+00	0.00000e+00	0.00000e+00	0.00000e+00	0.00000e+00	0.00000e+00	0.00000e+00	0.00000e+00	0.00000e+00	0.00000e+00	0.00000e+00	0.00000e+00	0.00000e+00	0.00000e+00	0.00000e+00	0.00000e+00	0.00000e+00	0.00000e+00	0.00000e+00	0.00000e+00	0.00000e+00	0.00000e+00	0.00000e+00	0.00000e+00	0.00000e+00	0.00000e+00	0.00000e+00	0.00000e+00	0.00000e+00	0.00000e+00	0.00000e+00	0.00000e+00	0.00000e+00	0.00000e+00	0.00000e+00	
Factor	1.00000e+00	1.00000e+00	1.00000e+00	1.00000e+00	1.00000e+00	1.00000e+00	1.00000e+00	1.00000e+00	1.00000e+00	1.00000e+00	1.00000e+00	1.00000e+00	1.00000e+00	1.00000e+00	1.00000e+00	1.00000e+00	1.00000e+00	1.00000e+00	1.00000e+00	1.00000e+00	1.00000e+00	1.00000e+00	1.00000e+00	1.00000e+00	1.00000e+00	1.00000e+00	1.00000e+00	1.00000e+00	1.00000e+00	1.00000e+00	1.00000e+00	1.00000e+00	X	X	X	X	X	X	X	X	X	X	X	X	X	X	X	X	

B = Detector Channel
Val Type	B-AC1	B-AC2	B-AC3	B-AC4	B-AC5	B-AC6	B-AC7	B-AC8	B-AC9	B-AC10	B-AC11	B-AC12	B-AC13	B-AC14	B-AC15	B-AC16	B-DC1	B-DC2	B-DC3	B-DC4	B-DC5	B-DC6	B-DC7	B-DC8	B-DC9	B-DC10	B-DC11	B-DC12	B-DC13	B-DC14	B-DC15	B-DC16	B-Ph1	B-Ph2	B-Ph3	B-Ph4	B-Ph5	B-Ph6	B-Ph7	B-Ph8	B-Ph9	B-Ph10	B-Ph11	B-Ph12	B-Ph13	B-Ph14	B-Ph15	B-Ph16	

Term	0.00000e+00	0.00000e+00	0.00000e+00	0.00000e+00	0.00000e+00	0.00000e+00	0.00000e+00	0.00000e+00	0.00000e+00	0.00000e+00	0.00000e+00	0.00000e+00	0.00000e+00	0.00000e+00	0.00000e+00	0.00000e+00	0.00000e+00	0.00000e+00	0.00000e+00	0.00000e+00	0.00000e+00	0.00000e+00	0.00000e+00	0.00000e+00	0.00000e+00	0.00000e+00	0.00000e+00	0.00000e+00	0.00000e+00	0.00000e+00	0.00000e+00	0.00000e+00	-1.85345e+02	-1.23737e+02	-1.11857e+02	-1.80493e+02	-1.02631e+02	-7.18909e+01	-1.55190e+02	-1.62015e+02	-8.30239e+01	-6.30682e+01	-1.71086e+02	-1.70392e+02	-1.81065e+02	-1.76742e+02	-5.60175e+01	-1.49283e+02	
Factor	3.45794e-05	1.28973e-04	3.64895e-05	1.78598e-01	1.50782e-06	1.48164e-06	1.55936e-01	4.98493e-02	1.25560e-06	1.27048e-06	8.53734e-02	2.92799e-02	2.65120e-02	9.74353e-03	1.48999e-06	1.28900e-02	2.28479e-06	2.43523e-06	6.78434e-07	9.15091e-02	2.64387e-08	2.67660e-08	7.53430e-02	2.56481e-02	2.64425e-08	2.67481e-08	4.24034e-02	1.45225e-02	1.36176e-02	5.01221e-03	2.65546e-08	6.42646e-03	X	X	X	X	X	X	X	X	X	X	X	X	X	X	X	X	



#DISTANCE SETTINGS
A = Detector Channel
A-1	A-2	A-3	A-4	A-5	A-6	A-7	A-8	A-9	A-10	A-11	A-12	A-13	A-14	A-15	A-16	

2.5000e+00	3.0000e+00	2.5000e+00	3.0000e+00	2.0000e+00	3.0000e+00	1.5000e+00	3.0000e+00	3.0000e+00	3.0000e+00	3.0000e+00	3.0000e+00	3.0000e+00	3.0000e+00	1.5000e+00	3.0000e+00	

B = Detector Channel
B-1	B-2	B-3	B-4	B-5	B-6	B-7	B-8	B-9	B-10	B-11	B-12	B-13	B-14	B-15	B-16	

1.0000e+01	1.0000e+01	1.0000e+01	1.4400e+00	1.0000e+01	1.0000e+01	1.5100e+00	1.9400e+00	1.0000e+01	1.0000e+01	1.9900e+00	2.4900e+00	2.4100e+00	2.9000e+00	1.0000e+01	2.9800e+00	




#DATA BEGINS
time	group	step	mark	flag	A-AC1	A-AC2	A-AC3	A-AC4	A-AC5	A-AC6	A-AC7	A-AC8	A-AC9	A-AC10	A-AC11	A-AC12	A-AC13	A-AC14	A-AC15	A-AC16	A-DC1	A-DC2	A-DC3	A-DC4	A-DC5	A-DC6	A-DC7	A-DC8	A-DC9	A-DC10	A-DC11	A-DC12	A-DC13	A-DC14	A-DC15	A-DC16	A-Ph1	A-Ph2	A-Ph3	A-Ph4	A-Ph5	A-Ph6	A-Ph7	A-Ph8	A-Ph9	A-Ph10	A-Ph11	A-Ph12	A-Ph13	A-Ph14	A-Ph15	A-Ph16	B-AC1	B-AC2	B-AC3	B-AC4	B-AC5	B-AC6	B-AC7	B-AC8	B-AC9	B-AC10	B-AC11	B-AC12	B-AC13	B-AC14	B-AC15	B-AC16	B-DC1	B-DC2	B-DC3	B-DC4	B-DC5	B-DC6	B-DC7	B-DC8	B-DC9	B-DC10	B-DC11	B-DC12	B-DC13	B-DC14	B-DC15	B-DC16	B-Ph1	B-Ph2	B-Ph3	B-Ph4	B-Ph5	B-Ph6	B-Ph7	B-Ph8	B-Ph9	B-Ph10	B-Ph11	B-Ph12	B-Ph13	B-Ph14	B-Ph15	B-Ph16	aux-1	digaux	

2187.390	1	1	0	256	0.20113	0.121	0.30964	0.20191	0.16711	0.038784	0.15554	0.19986	0.18527	0.070412	0.12029	0.25524	0.13949	0.094011	0.18373	0.26278	-2.5146	-3.2479	-2.8396	-3.2354	-3.1354	-2.9062	-3.5479	-2.8958	-2.8063	-3.4688	-2.6229	-3.0438	-3.1458	-2.5271	-3.4667	-3.0125	213.274	193.573	266.879	46.565	37.525	299.675	300.361	288.996	28.298	132.795	275.778	338.596	356.363	267.163	177.633	153.151	0.00022387	0.00031518	9.057e-06	509.99	2.3468e-06	2.1964e-06	527.34	168.93	1.7609e-06	1.6441e-06	196.9	57.261	47.657	12.407	1.8879e-06	19.41	6.248e-05	5.1104e-05	1.3379e-05	490.84	5.4932e-07	5.4229e-07	506.02	164.09	5.9562e-07	5.3362e-07	188.85	55.309	46.096	12.154	5.5444e-07	18.861	79.793	122.786	291.709	29.637	137.179	170.619	28.280	35.869	149.423	188.536	33.194	38.433	40.386	46.934	102.403	42.756	-8191	255	
2187.462	1	1	0	0	0.10986	0.26079	0.32026	0.10436	0.24288	0.16955	0.25739	0.18308	0.19204	0.15744	0.064308	0.21091	0.016469	0.061754	0.30065	0.27728	-2.4562	-3.3354	-2.5042	-3.1604	-3.2604	-2.6208	-3.3583	-3.0708	-2.7292	-3.5062	-2.8104	-2.7875	-3.325	-2.6771	-3.3417	-3.0354	256.293	183.399	317.842	368.644	299.273	122.525	335.131	365.867	200.332	360.238	22.119	218.409	138.927	21.858	288.762	42.388	0.00018185	0.00018824	5.3723e-05	509.31	3.4876e-06	2.491e-06	531.1	171.66	2.9119e-06	8.4948e-07	199.74	58.079	48.239	12.598	2.7657e-06	19.806	6.1009e-05	4.8862e-05	1.3583e-05	492.29	5.502e-07	5.6772e-07	512.03	165.63	5.8956e-07	5.0275e-07	191.32	56.312	46.679	12.277	5.0349e-07	19.33	81.608	134.613	139.326	29.527	131.937	157.922	28.040	35.299	153.837	174.973	33.014	38.103	40.476	46.830	212.204	42.394	-8191	255	
2187.558	1	1	0	0	0.39229	0.15586	0.20348	0.137	0.15184	0.12604	0.1456	0.1619	0.1163	0.16607	0.11293	0.073003	0.184	0.041818	0.094303	0.028389	-2.3375	-3.3833	-2.6625	-2.8521	-3.4896	-2.7271	-3.2333	-3.1688	-2.6458	-3.4521	-2.9625	-2.9917	-3.1583	-2.7875	-3.15	-3.2125	163.594	340.394	64.803	136.521	80.281	60.079	298.532	236.651	53.600	324.851	333.043	26.597	134.475	189.939	374.975	337.579	0.00022881	0.00013171	7.1661e-05	514.39	1.5006e-06	2.2482e-06	536.77	171.11	2.5837e-06	2.0681e-06	200.02	57.603	48.007	12.393	2.0549e-06	19.174	6.268e-05	5.0039e-05	1.3484e-05	495.16	5.5934e-07	5.4368e-07	518.72	165.29	6.1572e-07	5.1958e-07	190.72	55.716	46.238	12.133	5.6949e-07	18.67	78.241	119.631	121.298	29.785	169.886	127.478	28.225	35.958	163.676	161.719	32.995	38.437	40.327	47.528	157.576	42.784	-8191	255	
2187.678	1	1	0	0	0.2213	0.14227	0.28981	0.31166	0.14794	0.17177	0.23698	0.1343	0.12061	0.1686	0.33572	0.26593	0.28743	0.3153	0.096694	0.25399	-2.4354	-3.425	-2.9521	-2.7875	-3.3688	-3.075	-3.2521	-3.1833	-2.7771	-3.4458	-2.9792	-2.6875	-3.4729	-2.7396	-3.2062	-3.3417	85.522	349.161	90.621	315.106	55.443	46.425	102.359	312.181	304.622	110.196	225.200	198.761	92.562	280.274	345.935	283.105	0.00027063	0.00032115	0.0001498	506.93	9.913e-07	3.4092e-06	518.81	168.49	2.3474e-06	1.9993e-06	193.03	55.977	47.422	12.235	1.1362e-06	18.873	6.0062e-05	4.6696e-05	1.3266e-05	489.26	5.4342e-07	5.2383e-07	500.34	163.09	5.7986e-07	5.2571e-07	185.59	54.201	45.707	12.024	5.3884e-07	18.425	79.841	126.464	111.372	29.577	197.277	152.021	28.033	35.850	203.339	202.364	33.059	38.436	39.995	47.277	168.866	42.639	-8191	255	
2187.774	1	1	0	0	0.056356	0.14475	0.36515	0.047455	0.30244	0.18979	0.23658	0.24304	0.18086	0.16458	0.14954	0.19208	0.22599	0.1577	0.21938	0.16604	-2.425	-3.0187	-3.0979	-2.7104	-3.2917	-2.7708	-3.2333	-3.3812	-2.6312	-3.45	-3.1063	-2.7042	-3.3646	-2.9479	-2.9354	-3.4625	192.582	201.955	96.941	217.190	347.606	358.005	274.419	42.896	201.824	253.191	361.069	252.546	58.035	125.870	170.827	332.298	0.00023008	9.0429e-05	1.7002e-05	509.52	2.6899e-06	4.1077e-06	519.85	169.21	2.5742e-06	3.3285e-06	194.95	57.114	47.274	12.339	2.5453e-06	19.163	5.8234e-05	4.6802e-05	1.3515e-05	490.09	5.334e-07	5.2617e-07	502.76	163.86	5.8333e-07	5.3329e-07	187.93	55.145	45.923	12.133	5.5416e-07	18.713	76.091	87.267	139.912	29.682	110.711	194.842	28.247	36.085	151.785	159.526	33.408	38.414	41.113	47.565	117.473	42.984	-8191	255	
2187.869	1	1	0	0	0.05705	0.038763	0.091484	0.14576	0.19818	0.24872	0.26576	0.071708	0.070412	0.25089	0.084643	0.17357	0.0086323	0.16124	0.16534	0.16771	-2.3771	-3.0729	-3.1083	-2.7521	-3.4833	-2.7021	-3.0146	-3.45	-2.6146	-3.1167	-3.4167	-2.6417	-3.3958	-2.9562	-2.9896	-3.3979	267.046	302.889	365.069	333.308	232.668	198.612	337.922	305.473	190.245	50.363	107.949	351.977	348.625	248.396	50.339	287.021	0.00022028	0.00014621	3.3602e-05	506.4	2.9732e-06	3.2686e-06	525.48	168.97	2.4758e-06	1.2242e-06	197.66	57.924	47.846	12.49	8.8487e-07	19.498	6.0223e-05	4.8887e-05	1.3601e-05	490.31	5.5064e-07	5.5567e-07	509.1	164.42	5.6587e-07	5.2972e-07	190.85	56.009	46.499	12.233	5.9084e-07	19.112	87.449	103.100	117.525	29.952	139.772	157.175	28.949	36.025	175.498	186.503	33.724	38.093	40.834	47.923	188.335	43.159	-8191	255	
2187.967	1	1	0	0	0.068661	0.17617	0.012701	0.36023	0.17754	0.107	0.042447	0.14563	0.060471	0.03834	0.3293	0.37023	0.18085	0.06085	0.12098	0.12652	-2.4813	-3.175	-3.0854	-2.6437	-3.2667	-3.0563	-2.9583	-3.5396	-2.8083	-3.1	-3.475	-2.7083	-3.3354	-3.0167	-2.8979	-3.4417	81.092	48.088	176.704	20.694	345.482	360.869	20.523	242.091	320.404	249.406	208.244	329.211	294.927	191.598	350.508	66.070	0.00025467	0.0003267	8.1781e-05	512.83	2.7232e-06	1.3903e-06	525.36	168.92	1.5662e-06	2.147e-06	194.91	56.393	47.228	12.461	1.2669e-06	18.864	6.0566e-05	4.9207e-05	1.3131e-05	494.8	5.2894e-07	5.2015e-07	510.15	164.81	5.2527e-07	5.4187e-07	187.89	54.749	45.9	12.109	5.2938e-07	18.402	90.552	141.129	90.332	30.216	144.914	120.138	28.721	36.454	135.065	214.690	33.739	38.802	40.618	47.497	194.290	43.126	-8191	255	
2188.086	1	1	0	0	0.090978	0.22091	0.13315	0.042321	0.075693	0.10263	0.22311	0.14589	0.037206	0.18555	0.15086	0.10632	0.23708	0.13089	0.16278	0.20212	-2.5292	-2.8458	-3.3375	-2.7896	-3.3063	-3.2313	-2.7667	-3.4396	-2.8396	-2.9188	-3.3	-2.4979	-3.25	-3.2104	-2.7229	-3.4188	165.090	240.805	153.575	250.069	68.584	257.726	74.195	41.327	325.231	163.608	30.380	26.182	250.152	137.168	79.665	302.710	0.00026227	0.00034179	3.4451e-05	499.52	4.6317e-06	3.9931e-07	511.63	167.42	1.9664e-06	1.7182e-06	191.16	55.549	47.091	12.279	3.009e-06	18.417	6.0714e-05	4.9663e-05	1.3719e-05	485.64	5.307e-07	5.0075e-07	494.93	162.41	5.4466e-07	5.2293e-07	184.03	53.662	45.61	12.013	5.6622e-07	18.289	89.736	126.491	94.178	29.822	149.838	204.934	28.747	36.461	168.113	96.156	33.159	38.018	40.750	47.465	149.928	43.372	-8191	255	
2188.157	1	1	0	0	0.12315	0.38514	0.17592	0.11423	0.31826	0.097505	0.31265	0.17269	0.1171	0.025762	0.040011	0.14941	0.20524	0.13614	0.29344	0.35801	-2.5958	-2.8958	-3.2646	-2.8688	-3.0271	-3.325	-2.7188	-3.3229	-2.8625	-2.8229	-3.3292	-2.8375	-3.0958	-3.2771	-2.6146	-3.3521	342.394	216.138	74.961	252.536	120.064	175.090	266.787	172.356	119.347	117.623	135.600	235.823	29.301	22.244	237.501	238.066	0.00029913	0.00031957	9.8831e-05	502.59	2.4191e-06	1.5824e-06	515.5	167.95	2.7006e-06	3.2269e-06	192.31	56.011	47.234	12.224	1.9632e-06	18.936	5.9976e-05	5.0663e-05	1.3362e-05	487.41	5.4943e-07	5.1625e-07	499	162.98	5.2835e-07	5.5669e-07	186.57	54.455	45.763	12.061	5.3402e-07	18.613	86.374	110.467	145.938	29.831	162.747	192.473	28.433	36.533	156.778	171.126	33.152	38.661	40.493	47.064	132.684	42.752	-8191	255	
2188.278	1	1	0	0	0.25509	0.13512	0.092144	0.066009	0.16144	0.19231	0.14025	0.014388	0.40806	0.19857	0.18191	0.1117	0.17626	0.11739	0.14335	0.16785	-2.8167	-2.8125	-3.3479	-3.1188	-3.025	-3.4021	-2.6958	-3.3438	-3.1833	-2.7646	-3.4104	-2.8167	-2.9625	-3.3708	-2.6458	-3.3542	182.676	67.888	283.409	112.296	284.561	344.912	337.961	311.055	132.716	82.910	47.511	222.906	230.353	343.977	215.791	196.102	0.00023993	0.00023579	5.6761e-05	507.51	2.9949e-06	3.5412e-06	526.59	170.26	2.6259e-06	2.3135e-06	195.58	57.752	48.051	12.334	1.5647e-06	19.514	6.1699e-05	4.7898e-05	1.2824e-05	491.2	5.6402e-07	5.1012e-07	508.39	164.7	5.3976e-07	5.5257e-07	189.14	55.8	46.456	12.148	5.4614e-07	18.992	77.917	117.466	138.834	29.687	91.785	198.897	28.548	35.828	196.114	193.244	33.437	38.152	40.818	47.502	160.806	43.007	-8191	255	
2188.374	1	1	0	0	0.272	0.14119	0.21022	0.065439	0.14778	0.073551	0.22009	0.24117	0.28175	0.40946	0.26534	0.3491	0.065267	0.18264	0.15265	0.12189	-2.8208	-2.6021	-3.4688	-2.9604	-2.8042	-3.3917	-2.6333	-3.3312	-3.1417	-2.6354	-3.2521	-2.8063	-2.85	-3.35	-2.7375	-3.1063	218.688	75.057	172.920	69.454	230.247	157.090	350.797	216.179	232.378	369.205	302.191	250.429	97.036	186.799	227.517	313.684	0.00023783	0.00030902	6.0004e-05	514.05	2.6336e-06	1.463e-06	522.15	168.06	1.1881e-06	2.599e-06	191.92	55.832	46.727	12.154	1.6002e-06	18.532	5.8234e-05	4.942e-05	1.322e-05	494.36	5.5769e-07	4.9852e-07	503.45	163.47	5.1023e-07	5.2683e-07	184.99	53.691	45.355	11.991	5.4459e-07	18.101	85.382	121.015	110.844	29.612	138.478	125.586	28.226	36.024	101.869	183.120	33.482	38.249	40.714	47.674	249.807	42.943	-8191	255	
2188.470	1	1	0	0	0.074836	0.16902	0.17499	0.36712	0.24115	0.19344	0.23488	0.24615	0.088371	0.12728	0.43098	0.14169	0.14765	0.11516	0.16587	0.12138	-2.7479	-2.5062	-3.2896	-3.0938	-2.8417	-3.3688	-2.8125	-2.9625	-3.0083	-2.7854	-3.2479	-2.8875	-2.8479	-3.4562	-2.8208	-2.9646	260.800	192.539	313.580	374.027	235.167	232.349	284.734	321.637	118.624	373.262	280.344	321.458	339.168	121.214	260.572	268.505	0.00021535	0.0001285	4.2107e-05	499.38	2.5033e-06	2.7117e-07	509.67	166.35	1.4664e-06	1.8428e-06	190.21	55.26	46.648	12.309	2.9889e-06	18.554	5.6025e-05	4.8913e-05	1.2746e-05	483.89	5.4761e-07	4.911e-07	491.97	161.98	5.3282e-07	4.7734e-07	182.97	53.463	45.505	12.004	5.509e-07	18.199	95.361	138.812	110.889	29.929	167.395	302.848	28.795	36.227	176.701	162.020	33.242	38.691	41.025	47.374	210.760	42.690	-8191	255	
2188.566	1	1	0	0	0.10133	0.20485	0.10428	0.24546	0.19116	0.17603	0.26599	0.055202	0.12485	0.14723	0.058863	0.18054	0.078513	0.085154	0.14428	0.2585	-3.1104	-2.6833	-3.3729	-3.2604	-2.7375	-3.4813	-2.9125	-3.2354	-3.3625	-2.7458	-3.3729	-3.15	-2.8563	-3.5729	-2.9792	-3.1042	71.978	118.083	106.590	348.402	282.324	98.301	300.731	213.040	291.512	123.083	183.788	372.583	254.709	305.853	59.437	283.264	0.00025225	0.00020719	6.4631e-05	502.85	1.4972e-06	3.7724e-06	516.1	168.49	1.6282e-06	2.2623e-06	192.39	56.376	47.523	12.295	2.8e-06	19.019	5.7129e-05	5.0323e-05	1.2988e-05	486.66	5.6314e-07	4.9188e-07	499.39	163.3	5.6091e-07	5.227e-07	185.86	54.494	45.946	12.12	5.2694e-07	18.602	90.555	153.608	96.256	29.927	109.118	153.483	28.448	36.270	146.459	156.135	33.095	38.332	40.877	47.474	224.865	42.527	-8191	255	
2188.687	1	1	0	0	0.14373	0.15075	0.14077	0.21256	0.18782	0.17638	0.23704	0.27319	0.22336	0.1391	0.13291	0.17426	0.012938	0.32538	0.28961	0.31233	-2.9771	-2.725	-3.2562	-3.3667	-2.65	-3.3438	-3.2604	-3.0125	-3.4146	-2.8812	-3.1125	-3.3833	-2.9042	-3.3792	-3.0021	-2.8667	213.438	267.375	232.570	49.037	333.121	96.819	297.086	211.921	163.037	320.768	223.846	80.542	313.794	248.729	90.367	347.632	0.00022096	0.00023337	6.424e-05	505.48	2.7339e-06	3.9733e-06	526.76	170.75	2.1436e-06	1.8441e-06	196.98	57.624	48.459	12.375	1.9162e-06	19.166	5.5644e-05	4.8431e-05	1.3542e-05	490.6	5.8281e-07	5.1837e-07	507.34	164.97	5.294e-07	5.2532e-07	189.36	55.819	46.545	12.223	5.2418e-07	18.873	91.736	167.152	145.826	29.634	153.159	163.244	28.432	35.888	118.147	197.450	33.112	38.546	40.883	47.353	198.655	42.609	-8191	255	
2188.759	1	1	0	0	0.10973	0.16235	0.077189	0.018495	0.32351	0.19446	0.1634	0.2141	0.17048	0.15127	0.076266	0.086211	0.16691	0.18088	0.11181	0.11427	-3.1021	-2.7062	-3.125	-3.325	-2.8	-3.3604	-3.1333	-3.0292	-3.3333	-2.9875	-2.9875	-3.3937	-2.7708	-3.1771	-3.2542	-2.7	269.236	359.348	49.254	189.860	167.621	276.687	377.986	282.131	369.887	50.115	158.770	315.372	21.439	317.662	181.307	338.173	0.00025381	0.00012951	1.6849e-05	507.73	2.3645e-06	1.739e-06	512.7	167	3.0304e-06	2.1268e-06	188.87	55.654	46.992	12.159	2.7741e-06	18.45	6.1661e-05	5.0577e-05	1.4656e-05	488.58	5.4734e-07	5.1976e-07	497.61	162.95	5.1623e-07	4.9534e-07	182.77	53.433	45.47	12.019	5.2207e-07	18.007	79.690	153.553	95.524	29.975	99.850	192.286	28.762	36.138	183.308	198.640	32.730	38.640	40.105	46.859	141.609	42.397	-8191	255	
2188.855	1	1	0	0	0.1854	0.129	0.15915	0.16648	0.17232	0.25787	0.14873	0.1957	0.33419	0.14951	0.15726	0.084807	0.20819	0.074705	0.19119	0.20408	-3.1104	-2.8792	-2.8167	-3.375	-2.675	-3.1083	-3.125	-2.7771	-3.4229	-2.8771	-3.0333	-3.4458	-2.8104	-3.2292	-3.1583	-2.775	345.486	64.436	269.199	300.025	280.430	284.298	265.277	333.278	246.430	295.545	20.720	308.107	157.538	140.956	241.375	283.097	0.00027961	4.2423e-05	5.3513e-05	499.59	2.4464e-06	1.8402e-06	509.74	165.74	2.2839e-06	2.3707e-06	187.08	55.338	46.999	12.174	1.0476e-06	18.663	5.9043e-05	4.6802e-05	1.4451e-05	482.14	5.4728e-07	5.4631e-07	489.67	161.13	5.6141e-07	5.4048e-07	181.24	53.22	45.531	11.971	5.4111e-07	18.028	84.608	335.301	99.606	29.500	192.199	179.601	28.244	35.720	155.862	202.010	33.402	38.224	40.376	47.352	171.081	42.319	-8191	255	
2188.974	1	1	0	0	0.1241	0.17839	0.0083731	0.14652	0.18773	0.25362	0.13594	0.16286	0.15367	0.15305	0.16038	0.071893	0.28677	0.30715	0.1462	0.20034	-3.1292	-2.9896	-2.9792	-3.4833	-2.6188	-3.1208	-3.4208	-2.5625	-3.3917	-3.1562	-2.9458	-3.5458	-2.9813	-3.0083	-3.3354	-2.6875	188.437	240.624	232.811	120.509	273.114	121.898	326.026	301.389	262.101	204.180	251.683	61.384	353.803	274.289	95.929	162.771	0.00021454	0.00020786	3.7037e-05	500.56	2.006e-06	1.0937e-06	508.66	166.32	2.3111e-06	3.0702e-06	191.1	55.234	46.846	12.205	3.1032e-06	18.612	5.5268e-05	4.9572e-05	1.3546e-05	482.81	5.2784e-07	5.3342e-07	492.05	161.59	5.4405e-07	5.1267e-07	183.2	53.559	45.595	11.984	5.333e-07	18.149	95.922	126.144	122.391	29.828	133.475	199.037	28.543	35.857	172.399	180.922	33.293	38.359	40.999	47.518	201.818	43.047	-8191	255	
2189.070	1	1	0	0	0.07962	0.13311	0.19193	0.21286	0.13357	0.22687	0.09111	0.23933	0.17172	0.25682	0.15197	0.12176	0.22106	0.082677	0.04327	0.20087	-2.9021	-3.0625	-2.7146	-3.3917	-2.9521	-3.1083	-3.4292	-2.6375	-3.2062	-3.125	-2.8833	-3.5104	-3.0521	-2.8937	-3.2292	-2.8	204.506	313.882	36.184	284.530	219.138	116.367	276.835	120.529	113.900	243.470	209.650	132.446	70.869	267.991	307.061	130.319	0.00027722	0.00014916	2.1497e-05	503.04	4.5089e-06	3.3474e-06	519.5	166.92	1.7633e-06	5.7428e-07	192.36	56.551	47.147	12.251	2.1608e-06	18.638	5.9024e-05	4.906e-05	1.4285e-05	484.92	5.7752e-07	5.342e-07	499.69	161.99	5.5535e-07	5.3591e-07	185.11	54.359	45.704	12.059	5.3032e-07	18.217	82.617	104.954	138.905	29.721	173.040	157.778	28.212	36.724	163.368	175.371	33.154	38.297	41.235	47.203	169.240	42.525	-8191	255	
2189.166	1	1	0	0	0.15421	0.18057	0.12654	0.36825	0.083084	0.089072	0.16511	0.13167	0.22774	0.093096	0.084968	0.057561	0.04333	0.067242	0.18983	0.079635	-2.8146	-3.1688	-2.8	-3.4	-2.7667	-2.8375	-3.5	-2.8792	-3.0792	-3.3063	-2.6708	-3.5292	-2.8667	-3.0354	-3.075	-2.6917	64.534	30.402	66.005	363.765	127.218	111.488	248.030	340.421	125.542	156.180	277.510	119.338	274.432	337.564	290.392	248.628	0.00021564	0.00016408	5.1466e-05	496.65	3.2652e-06	2.9088e-06	504.31	163.6	2.4114e-06	1.9955e-06	187.11	53.742	46.402	12.118	2.6021e-06	18.079	5.8653e-05	4.7888e-05	1.3908e-05	480.82	5.1346e-07	5.366e-07	488.26	159.83	5.7683e-07	5.6444e-07	180.08	52.085	44.753	11.852	5.2346e-07	17.541	86.288	101.481	154.041	30.014	145.776	159.094	28.536	36.456	212.236	199.851	33.735	38.604	40.578	46.597	156.928	42.200	-8191	255	
2189.262	1	1	0	0	0.10449	0.10782	0.12291	0.04325	0.16337	0.17884	0.27758	0.058501	0.28165	0.32201	0.23701	0.045884	0.29881	0.10086	0.23701	0.11166	-2.6292	-3.2146	-2.5938	-3.2104	-3.1104	-2.9229	-3.4813	-2.7354	-2.9813	-3.2812	-2.675	-3.3375	-3	-2.8958	-3.2271	-2.7458	143.426	255.208	157.353	283.639	218.900	31.910	310.128	58.197	236.828	126.860	340.780	278.024	42.868	264.860	175.501	243.790	0.00027717	9.928e-05	3.628e-05	495.41	1.4204e-06	3.06e-06	503.95	163.78	1.6656e-06	1.7699e-06	186.14	54.33	46.535	12.129	1.3296e-06	18.169	5.9662e-05	4.7644e-05	1.3425e-05	477.98	5.6992e-07	5.3894e-07	485.1	159.38	5.8306e-07	5.0454e-07	179.59	52.34	44.879	11.856	5.3873e-07	17.772	87.368	71.371	104.145	29.533	76.412	186.210	28.692	36.348	161.113	128.893	33.277	38.465	41.103	46.863	166.080	42.826	-8191	255	
2189.358	1	1	0	0	0.11431	0.26888	0.12451	0.20682	0.12068	0.1181	0.20283	0.14419	0.17221	0.046382	0.23742	0.1363	0.027424	0.26722	0.1804	0.31253	-2.7271	-3.3271	-2.6125	-3.2604	-3.1854	-2.725	-3.4458	-2.8958	-3.0563	-3.4333	-2.6354	-3.2708	-3.2896	-2.5896	-3.5458	-2.9854	346.081	87.335	270.691	344.407	331.681	230.572	278.056	58.708	219.342	360.564	351.067	248.125	139.989	317.382	168.194	282.103	0.00021586	0.0002504	6.9929e-05	494.92	1.5754e-06	3.0648e-06	504.8	165.86	2.4236e-06	1.7525e-06	187.38	55.136	46.544	12.214	1.0028e-06	18.67	5.9138e-05	4.8314e-05	1.3269e-05	478.69	5.3417e-07	5.4575e-07	490.61	160.88	5.5948e-07	5.0442e-07	182.85	53.588	45.551	11.998	5.561e-07	18.3	87.710	113.667	124.319	30.042	134.947	97.906	28.551	36.477	141.200	177.518	34.097	38.562	41.202	47.383	195.093	42.704	-8191	255	
2189.454	1	1	0	0	0.22266	0.17998	0.16581	0.096593	0.049653	0.033014	0.17649	0.063667	0.11688	0.13164	0.15067	0.26275	0.17959	0.17044	0.17207	0.15427	-2.5229	-3.4021	-2.7021	-3.2812	-3.1917	-2.7708	-3.3833	-2.9792	-2.8917	-3.4729	-2.8917	-3.0938	-3.2854	-2.6375	-3.375	-3.0521	269.361	308.310	73.772	49.151	300.076	340.819	329.191	114.214	335.356	329.605	20.568	357.759	261.110	20.708	141.804	238.273	0.00021129	0.00017931	7.2002e-05	499.08	3.1681e-06	8.4883e-07	517.68	166.67	3.3922e-06	2.1428e-06	192.67	56.605	47.118	12.342	3.119e-06	18.754	6.1161e-05	4.8243e-05	1.358e-05	484.89	5.4794e-07	5.1056e-07	500.71	163.04	5.4604e-07	5.0403e-07	186.62	54.684	45.784	12.138	5.2279e-07	18.382	88.153	131.397	110.937	30.178	100.243	107.972	28.522	36.633	154.966	172.236	33.899	38.713	41.143	47.625	166.064	43.062	-8191	255	
2189.551	1	1	0	0	0.048612	0.1088	0.12382	0.27122	0.11958	0.16041	0.27349	0.062605	0.018943	0.16208	0.19486	0.089923	0.094308	0.16378	0.036357	0.31922	-2.4646	-3.25	-2.9458	-3.1333	-3.2062	-2.5042	-3.3312	-3.0667	-2.7708	-3.4146	-3.0021	-3.1125	-3.4188	-2.7417	-3.2333	-3.1875	164.328	377.447	19.738	318.606	343.177	97.348	269.683	122.662	124.190	161.103	59.204	185.269	22.052	203.061	78.773	21.245	0.00020651	0.00026476	5.7058e-05	495.4	1.6384e-06	9.9232e-07	507.96	165	2.8818e-06	1.6256e-06	186.41	53.521	45.978	12.016	3.8263e-07	18.049	5.8139e-05	4.5245e-05	1.3222e-05	480.82	5.0961e-07	4.9121e-07	490.73	160.75	5.4786e-07	5.0916e-07	180.76	52.305	44.89	11.884	5.1715e-07	17.661	75.221	99.313	83.759	30.029	127.108	231.150	28.623	36.773	172.914	209.821	33.462	38.656	41.334	47.880	306.815	43.344	-8191	255	
2189.647	1	1	0	0	0.22738	0.10717	0.1104	0.29873	0.11273	0.21818	0.23792	0.23025	0.16993	0.10797	0.098475	0.14123	0.13777	0.14631	0.10948	0.13471	-2.2562	-3.3021	-2.8646	-2.8167	-3.3729	-2.7833	-3.3479	-3.1958	-2.7833	-3.4208	-2.8167	-2.8812	-3.3333	-2.9875	-3.0396	-3.2062	175.202	208.928	374.322	265.858	371.588	89.964	299.296	324.436	367.705	58.992	335.620	266.676	321.951	298.132	352.969	275.729	0.0001992	0.00025003	9.8745e-05	493.01	1.7798e-06	2.2401e-06	500.71	164.83	2.1197e-06	1.3109e-06	186.87	54.313	46.496	12.262	3.1569e-06	18.37	5.8058e-05	4.53e-05	1.3242e-05	477.8	5.2304e-07	5.1341e-07	485.39	160.39	5.3893e-07	5.1167e-07	180.46	52.865	45.268	11.996	5.2871e-07	17.979	99.414	149.288	130.196	30.022	142.785	226.417	28.684	36.924	200.300	225.016	33.340	38.547	41.433	47.403	159.396	42.989	-8191	255	
2189.766	1	1	0	0	0.1619	0.027181	0.20884	0.058208	0.17716	0.22851	0.077844	0.18875	0.32841	0.20081	0.076157	0.084153	0.1777	0.15282	0.14112	0.18775	-2.3708	-3.3375	-2.9333	-2.7271	-3.4938	-3.0021	-3.0833	-3.2625	-2.8771	-3.375	-3.1333	-2.8563	-3.2979	-2.9938	-3.1083	-3.5875	51.385	185.534	150.460	82.508	174.292	190.351	118.566	120.455	274.845	274.628	28.503	218.834	317.207	321.161	118.935	51.385	0.00022376	0.00018826	3.0727e-05	495.49	2.4516e-06	2.683e-06	505.8	165.31	3.5348e-06	2.067e-06	188.13	54.835	47.236	12.193	1.1342e-06	18.578	5.8686e-05	4.7203e-05	1.3776e-05	480.08	5.3533e-07	5.192e-07	489.45	161.23	5.5193e-07	5.0025e-07	182.55	53.297	45.571	12.035	5.3729e-07	18.144	89.216	184.686	73.291	30.523	125.437	162.676	28.532	36.753	239.578	168.457	33.522	39.092	40.916	47.623	209.889	43.098	-8191	255	
2189.862	1	1	0	0	0.12029	0.25404	0.12631	0.15597	0.22578	0.12263	0.2557	0.15815	0.12461	0.18224	0.17882	0.2156	0.0738	0.021333	0.1062	0.15658	-2.4562	-3.2958	-3.1854	-2.85	-3.5187	-2.8917	-3.1854	-3.7146	-2.8021	-3.4146	-3.2479	-3.0875	-3.3063	-2.8854	-2.7042	-3.4167	329.829	310.400	104.506	308.998	158.157	233.107	265.843	289.584	260.360	206.609	245.063	59.553	53.092	109.443	239.901	268.987	0.00026173	9.9321e-05	4.4413e-05	501.36	2.9716e-06	1.6928e-06	516.32	167.81	2.7144e-06	2.5037e-06	191.13	55.711	46.554	12.143	2.7158e-06	18.402	5.7667e-05	4.5295e-05	1.3027e-05	484.23	5.3604e-07	5.3432e-07	498.37	162.59	5.7044e-07	5.1713e-07	185.39	54.01	45.576	12.036	5.2971e-07	17.997	81.974	157.309	157.863	29.700	140.551	149.028	28.442	36.308	182.319	171.814	33.633	38.267	41.191	47.064	182.221	43.185	-8191	255	
2189.958	1	1	0	0	0.085017	0.11205	0.2596	0.097531	0.25776	0.1311	0.10288	0.25111	0.18263	0.11077	0.02417	0.24195	0.063386	0.13631	0.28312	0.11133	-2.3729	-3.1271	-3.2854	-2.6729	-3.3979	-3.0979	-2.875	-3.3708	-2.6708	-3.1271	-3.4208	-2.8896	-3.2833	-3.0458	-2.8604	-3.4	118.039	52.412	361.151	289.648	86.920	92.970	58.224	108.148	292.060	211.233	31.925	368.589	179.321	376.774	137.726	81.781	0.00025374	0.00017242	6.4717e-05	490.83	2.7135e-06	1.3815e-06	497.63	162.18	1.4195e-06	1.5788e-06	183.51	53.074	45.824	12.059	2.5392e-06	18.112	5.9438e-05	4.565e-05	1.3273e-05	478.04	5.2789e-07	5.0995e-07	484.36	159.49	5.2417e-07	4.8046e-07	178.45	51.769	44.601	11.898	5.4459e-07	17.657	86.841	126.190	135.293	30.325	124.248	200.589	28.431	36.683	198.283	226.625	34.113	38.693	41.234	48.341	161.187	43.160	-8191	255	
2190.054	1	1	0	0	0.16142	0.17682	0.17873	0.13318	0.086892	0.1983	0.14939	0.10587	0.27727	0.15283	0.16077	0.208	0.041005	0.015252	0.10853	0.08576	-2.5375	-3.1188	-3.3729	-2.6125	-3.3729	-3.1958	-2.7521	-3.5938	-2.8271	-2.9458	-3.325	-2.8667	-3.3833	-2.9896	-2.9229	-3.4417	125.318	246.983	207.034	144.911	187.343	344.933	159.935	136.522	161.242	353.533	373.884	296.759	129.252	131.667	105.120	312.069	0.0002549	0.00015019	4.6909e-05	491.53	6.9151e-07	1.6769e-06	505.62	165.35	1.809e-06	2.9946e-06	185.44	53.885	46.467	12.258	8.5437e-07	18.196	5.562e-05	4.5229e-05	1.2494e-05	475.3	5.3582e-07	5.0192e-07	486.07	160.32	5.299e-07	5.0771e-07	180.24	52.381	45.026	12.003	5.3972e-07	17.818	94.577	143.598	103.442	29.762	151.579	191.405	28.229	36.379	132.050	160.548	33.786	38.456	41.195	48.426	250.176	42.794	-8191	255	
2190.150	1	1	0	0	0.19515	0.070518	0.20864	0.35532	0.23061	0.045224	0.11485	0.091543	0.13869	0.1575	0.12284	0.21092	0.23021	0.050457	0.14042	0.11225	-2.5687	-2.9708	-3.4396	-2.8021	-3.3354	-3.3312	-2.8937	-3.4354	-2.9792	-3.0417	-3.4021	-2.7271	-3.2708	-3.2313	-2.7083	-3.5062	56.178	306.492	164.191	301.535	50.371	68.249	313.224	261.247	280.384	60.446	338.287	369.096	290.633	298.571	226.187	366.229	0.00023698	0.00019408	4.6394e-05	492.58	3.169e-06	7.3874e-07	504.65	165.94	1.3649e-06	1.0781e-06	187.82	54.445	46.86	12.248	2.0531e-06	18.589	5.7339e-05	5.1419e-05	1.2442e-05	478.79	5.2707e-07	4.7521e-07	488.95	160.87	5.3546e-07	5.1501e-07	182.88	53.295	45.684	12.061	4.8595e-07	18.185	89.055	110.468	245.662	30.092	118.849	151.883	28.609	36.921	170.860	194.740	33.682	38.755	41.313	47.855	174.469	42.840	-8191	255	
2190.271	1	1	0	0	0.20182	0.11032	0.19488	0.09508	0.17093	0.17321	0.16058	0.092513	0.16975	0.14187	0.24804	0.077541	0.16178	0.059579	0.131	0.34764	-2.5542	-3.0438	-3.2375	-2.9354	-3.2104	-3.2979	-2.8958	-3.525	-3.1333	-2.7313	-3.5896	-2.8542	-3.0208	-3.4396	-2.675	-3.4417	246.010	74.814	97.525	81.499	272.764	363.592	39.909	43.721	150.220	162.715	358.932	127.847	78.997	325.949	97.470	43.000	0.00024852	0.0002656	8.1313e-05	494.82	1.0497e-06	1.4964e-06	509	166.08	2.1281e-06	2.6525e-06	191	55.39	46.885	12.327	1.8036e-06	18.303	5.8776e-05	4.7847e-05	1.2526e-05	481.38	5.4882e-07	4.863e-07	497.17	162.54	5.24e-07	5.0905e-07	185.39	53.856	45.662	12.121	5.655e-07	17.994	87.661	112.093	101.274	30.479	170.001	214.885	28.527	36.798	172.683	160.083	34.145	38.805	40.851	47.937	162.831	43.035	-8191	255	
2190.365	1	1	0	0	0.1523	0.076509	0.12544	0.19788	0.13119	0.22758	0.12002	0.19375	0.14064	0.14609	0.075048	0.21486	0.22925	0.1826	0.086109	0.12195	-2.7417	-2.8	-3.3458	-2.9667	-3.0271	-3.2938	-2.75	-3.4167	-3.2479	-2.8708	-3.5625	-3.1167	-3.0333	-3.2812	-2.7229	-3.3083	278.647	194.014	223.388	31.656	266.775	103.622	294.291	315.583	253.172	119.648	325.113	267.909	233.469	33.837	53.912	273.970	0.00026901	6.0517e-05	4.948e-05	491.38	2.8308e-06	2.0808e-06	499.58	164.91	2.3808e-06	1.892e-06	186.95	53.943	46.354	12.102	7.9347e-07	18.005	5.5858e-05	4.6417e-05	1.2414e-05	478.56	5.2663e-07	4.8201e-07	483.79	160.73	5.0478e-07	5.0693e-07	179.9	52.237	45.025	11.934	5.0808e-07	17.622	79.252	120.251	131.139	30.284	151.262	190.052	28.936	36.852	177.156	165.744	33.381	38.186	40.255	47.493	211.952	42.880	-8191	255	
2190.461	1	1	0	0	0.19486	0.12367	0.22596	0.094526	0.17612	0.023741	0.43044	0.17621	0.19909	0.050039	0.16621	0.074993	0.063416	0.18403	0.10733	0.10303	-2.6333	-2.6979	-3.3521	-2.9771	-2.8063	-3.5062	-2.6792	-3.2792	-3.2833	-2.6458	-3.4938	-3.0417	-2.9	-3.3208	-2.6292	-3.075	318.711	24.074	249.250	318.487	111.819	78.871	23.496	28.166	60.318	91.229	281.857	250.410	283.212	375.330	207.816	208.732	0.000308	0.00017341	2.5891e-05	490.98	2.751e-06	2.7119e-06	500.16	165.1	2.2815e-06	1.7552e-06	186.91	53.951	46.201	12.232	2.1123e-06	18.174	5.6929e-05	4.5158e-05	1.1504e-05	475.66	5.2106e-07	4.8045e-07	484.59	160.74	4.9789e-07	5.1735e-07	180.84	52.588	45.246	12.066	5.1787e-07	17.822	86.198	119.297	124.941	30.228	104.797	214.492	28.805	36.431	156.684	133.665	33.459	38.408	40.622	48.056	175.550	42.806	-8191	255	
2190.558	1	1	0	0	0.17175	0.31459	0.12522	0.28248	0.25303	0.20286	0.15222	0.01757	0.18665	0.099737	0.21497	0.14257	0.25449	0.12812	0.15125	0.18157	-2.8583	-2.7542	-3.4167	-2.9604	-2.8979	-3.3729	-2.8167	-3.1958	-3.2833	-2.7229	-3.3104	-3.1292	-2.75	-3.5125	-2.8708	-3.0417	120.418	247.450	232.070	319.727	60.327	312.465	239.636	281.585	238.125	365.375	312.451	285.359	325.099	172.486	338.171	300.354	0.00025714	0.00017825	7.2627e-05	494.6	2.2726e-06	2.4708e-06	503.94	164.88	1.1313e-06	9.2946e-07	190.74	55.307	47.055	12.271	5.043e-07	18.51	5.4773e-05	4.7294e-05	1.2613e-05	480.2	5.2855e-07	4.9065e-07	489.94	161.15	5.0092e-07	4.7829e-07	183.94	53.74	45.746	12.114	4.8501e-07	18.157	76.743	112.619	77.733	30.108	122.730	147.861	28.933	36.500	170.409	129.605	33.180	38.782	41.139	47.930	277.416	42.880	-8191	255	
2190.654	1	1	0	0	0.14216	0.049767	0.22114	0.19174	0.27216	0.16447	0.11651	0.15651	0.1472	0.15217	0.10462	0.16635	0.23273	0.1935	0.0248	0.17069	-2.9958	-2.5875	-3.0854	-3.0604	-2.9021	-3.5125	-2.925	-2.9625	-3.4208	-2.7771	-3.35	-3.1021	-2.7062	-3.3688	-2.9646	-2.9313	151.072	102.024	371.433	70.465	332.091	176.823	148.825	87.193	97.882	373.399	305.095	224.082	336.404	220.162	315.619	40.713	0.00023863	0.00027278	4.5073e-05	497.95	9.9582e-07	2.7285e-06	513.65	166.38	2.4758e-06	2.0843e-06	191.08	55.34	46.956	12.244	2.5022e-06	18.235	5.4749e-05	4.7259e-05	1.2465e-05	482.41	5.4469e-07	4.809e-07	497.58	162.5	5.1921e-07	5.0325e-07	185.22	53.978	45.648	12.126	5.047e-07	17.872	96.707	136.468	171.889	30.601	121.642	154.497	28.761	36.654	126.697	211.291	34.031	38.907	41.031	47.936	216.482	42.819	-8191	255	
2190.750	1	1	0	0	0.13114	0.22541	0.042114	0.1601	0.092411	0.096814	0.041722	0.05846	0.16228	0.24104	0.26358	0.17063	0.064787	0.10904	0.20883	0.012159	-2.9021	-2.7125	-3.075	-3.2792	-2.9167	-3.4104	-3.1188	-2.9333	-3.3583	-2.8625	-3.2104	-3.3208	-2.7979	-3.3375	-2.9417	-2.8	67.975	131.246	69.803	374.505	226.143	166.308	269.708	210.596	106.597	246.873	377.956	320.412	119.816	375.897	269.126	291.472	0.00020813	0.00018401	7.1287e-05	494.17	3.2412e-06	3.596e-06	496.78	164.1	1.9866e-06	1.958e-06	185.63	53.693	46.49	12.206	1.9183e-06	17.997	5.3331e-05	4.6173e-05	1.2514e-05	479.28	4.9225e-07	4.6801e-07	482.52	160.31	4.926e-07	4.9757e-07	179.89	52.115	45.205	12.029	4.8556e-07	17.61	86.635	139.686	113.021	30.114	141.880	138.005	28.634	36.484	176.770	158.060	33.720	38.959	41.739	47.443	156.734	42.842	-8191	255	
2190.846	1	1	0	0	0.17959	0.22725	0.11324	0.1213	0.083806	0.19997	0.10671	0.10613	0.0725	0.20948	0.11905	0.12639	0.27468	0.10357	0.071778	0.17478	-3.1083	-2.7583	-3.0479	-3.2104	-2.5667	-3.4042	-3.0979	-2.9458	-3.5021	-3.0125	-2.9938	-3.4104	-2.6854	-3.1229	-3.0625	-2.5438	142.521	62.149	108.828	207.902	33.531	351.965	303.443	313.513	244.125	126.648	313.071	365.219	289.679	190.384	245.125	318.141	0.00025014	8.3148e-05	7.7796e-05	491.43	9.6756e-07	2.2191e-06	500.74	165.7	2.7721e-06	2.1321e-06	188.38	54.152	46.337	12.281	1.1005e-06	18.29	5.5283e-05	4.2738e-05	1.2181e-05	477.13	5.2503e-07	4.6595e-07	484.65	160.51	5.1998e-07	4.779e-07	181.52	52.626	45.241	12.085	4.6869e-07	17.916	80.123	136.842	85.349	30.238	93.572	167.513	28.918	36.107	140.300	138.166	33.469	38.796	41.213	47.433	165.991	42.765	-8191	255	
2190.942	1	1	0	0	0.1988	0.058304	0.065603	0.052449	0.062023	0.076962	0.067009	0.1414	0.13588	0.20369	0.36939	0.080718	0.039823	0.023691	0.060689	0.17632	-3.0146	-2.7729	-2.9333	-3.4083	-2.7792	-3.2083	-3.2208	-2.7708	-3.2062	-3	-3.0438	-3.4062	-2.6667	-3.25	-3.2458	-2.7438	171.703	107.303	44.942	137.623	107.015	210.024	259.168	66.674	75.816	165.114	295.048	351.919	300.792	122.767	41.500	278.430	0.00021938	0.00019361	6.9705e-05	495.54	5.0958e-06	1.3262e-06	505.28	166.05	2.6203e-06	1.6157e-06	190.94	55.679	47.186	12.477	1.6495e-06	18.68	5.4273e-05	4.5757e-05	1.2476e-05	478.66	5.2002e-07	5.0303e-07	490.92	162	5.2422e-07	4.8364e-07	184.58	54.131	45.999	12.24	4.6791e-07	18.386	82.762	125.169	121.988	30.158	130.708	135.636	28.645	36.491	151.152	199.431	33.783	38.545	40.844	47.487	235.507	43.062	-8191	255	
2191.063	1	1	0	0	0.19943	0.15025	0.30382	0.16202	0.25123	0.2135	0.096516	0.10185	0.064372	0.13421	0.26499	0.11979	0.06269	0.18384	0.11482	0.081788	-3.2292	-3.0396	-2.8521	-3.5333	-2.8292	-3.0396	-3.3937	-2.7771	-3.4	-3.1896	-2.9562	-3.2625	-3.0104	-3.125	-3.3667	-2.8563	139.525	41.028	101.904	313.465	289.868	281.354	317.607	139.516	314.511	185.447	301.396	129.849	203.084	368.111	265.573	279.197	0.00024957	0.00019011	6.1813e-05	499.56	1.8209e-06	1.5226e-06	516.62	168.95	2.7742e-06	9.8759e-07	193.34	56.009	47.899	12.523	1.7252e-06	18.669	5.5311e-05	4.6883e-05	1.2557e-05	483.15	5.1016e-07	4.9712e-07	500.24	164.14	5.1359e-07	5.1501e-07	187.26	54.249	46.232	12.262	4.984e-07	18.229	85.754	59.996	148.347	30.195	109.540	170.971	29.110	36.276	151.514	204.601	33.325	38.396	41.098	47.123	227.440	43.152	-8191	255	
2191.157	1	1	0	0	0.11594	0.30492	0.069775	0.23091	0.1225	0.17147	0.046552	0.19252	0.1969	0.14385	0.18059	0.1535	0.12981	0.14427	0.14601	0.31592	-2.7604	-3.1229	-2.8083	-3.5479	-2.8312	-3.0062	-3.3896	-2.7021	-3.1063	-3.1271	-2.8146	-3.4125	-2.9313	-2.9208	-3.3583	-2.8375	128.197	249.585	235.998	366.322	175.297	220.195	21.474	303.511	256.149	172.090	323.352	256.750	129.117	135.165	117.949	38.701	0.00023122	9.3009e-05	4.5386e-05	492.93	3.4013e-06	8.0887e-07	502.08	166.15	2.0387e-06	6.4215e-07	188.19	54.882	47.152	12.345	3.4642e-06	18.587	5.5516e-05	4.357e-05	1.3249e-05	478.87	5.1473e-07	4.9411e-07	485.43	161.7	5.1811e-07	4.6235e-07	181.48	52.784	45.664	12.096	5.0404e-07	17.93	77.629	169.784	160.774	30.239	136.970	218.247	28.467	36.159	110.247	130.273	33.277	38.276	40.369	47.218	169.290	42.683	-8191	255	
2191.253	1	1	0	0	0.16494	0.1526	0.16286	0.24751	0.14776	0.22523	0.058412	0.19902	0.10122	0.17651	0.31987	0.24753	0.21695	0.089877	0.20613	0.037634	-2.8688	-3.2708	-2.6125	-3.4125	-2.8917	-3.025	-3.2396	-2.825	-3.2208	-3.1979	-2.8063	-3.5563	-3.0146	-2.6583	-3.4167	-2.8729	225.314	255.625	122.977	25.593	285.942	205.787	153.546	311.879	307.220	182.981	268.888	338.674	326.046	114.913	269.339	80.264	0.00021329	0.00027894	5.9822e-05	495.68	2.4273e-06	1.1755e-06	504.06	166.42	3.1346e-06	1.9911e-06	189.22	54.799	47.17	12.441	2.6491e-06	18.729	5.6254e-05	4.3022e-05	1.3463e-05	478.86	5.1941e-07	4.9551e-07	486.34	161.72	5.3926e-07	5.037e-07	182.68	53.257	45.698	12.206	5.0266e-07	18.191	80.952	91.325	159.843	29.968	85.969	97.788	28.349	36.367	182.263	168.374	33.150	38.091	41.023	47.009	175.408	42.373	-8191	255	
2191.351	1	1	0	0	0.0047459	0.17239	0.22293	0.17235	0.30377	0.102	0.17152	0.097922	0.23667	0.10262	0.15382	0.13161	0.21896	0.27213	0.067267	0.14711	-2.6229	-3.3146	-2.7292	-3.2208	-3.0604	-2.6875	-3.3792	-2.7208	-2.8937	-3.3542	-2.7292	-3.2396	-3.1979	-2.7667	-3.4021	-2.9458	146.295	274.020	113.618	147.609	110.128	241.740	29.590	124.354	294.578	127.500	234.926	305.021	115.691	313.662	60.865	317.786	0.00022531	0.00022381	5.2023e-05	498.11	2.5999e-06	2.4763e-06	507.85	166.81	4.4057e-07	2.0806e-06	191.24	56.306	47.468	12.549	2.7221e-06	18.821	5.6511e-05	4.3489e-05	1.2629e-05	480.62	4.8989e-07	5.1157e-07	490.13	162.54	5.408e-07	4.7422e-07	184.09	54.214	46.139	12.312	4.9148e-07	18.351	79.861	118.486	125.403	29.924	178.464	185.284	28.785	36.056	211.354	133.774	33.261	38.294	41.022	48.046	123.850	42.927	-8191	255	
2191.446	1	1	0	0	0.18124	0.25569	0.24423	0.12513	0.22549	0.25988	0.23239	0.090947	0.19859	0.025818	0.10172	0.2136	0.073535	0.10252	0.27943	0.073667	-2.6167	-3.1833	-2.6063	-3.1771	-3.2896	-2.6979	-3.5792	-2.8729	-2.9813	-3.3875	-2.8146	-3.1896	-3.3021	-2.7375	-3.2833	-2.925	115.648	309.084	127.675	252.804	76.315	139.706	244.764	23.261	127.382	303.254	60.369	80.491	289.029	213.093	58.148	78.817	0.00022516	0.00014363	6.9817e-05	504.8	1.8756e-06	8.7079e-07	513.5	166.99	2.6062e-06	2.5513e-06	191.77	55.578	47.871	12.536	1.2997e-06	18.649	5.83e-05	4.6335e-05	1.2709e-05	484.51	5.1412e-07	4.964e-07	495.55	162.78	5.2367e-07	4.8916e-07	184.48	53.862	46.071	12.258	4.9148e-07	18.003	90.429	99.417	99.054	29.710	132.758	237.867	28.558	36.221	196.535	189.735	33.702	38.603	41.030	47.903	188.235	42.308	-8191	255	
2191.542	1	1	0	0	0.2414	0.098101	0.08125	0.11635	0.18584	0.27419	0.1834	0.19526	0.21649	0.19713	0.091503	0.33545	0.058799	0.070731	0.18984	0.075789	-2.3833	-3.4771	-2.625	-3.1937	-3.0292	-2.8063	-3.25	-3.0563	-2.8625	-3.2417	-2.85	-2.9813	-3.3312	-2.7021	-3.35	-3.0979	63.854	22.873	122.940	236.423	103.865	347.024	239.700	41.979	125.089	135.775	323.452	223.350	289.211	69.954	196.999	147.107	0.00023423	0.00028049	5.8541e-05	493.36	3.7318e-06	3.5043e-06	499.3	166.09	2.3751e-06	2.8175e-06	186.06	54.157	47.049	12.251	1.6593e-06	18.199	5.6468e-05	4.5828e-05	1.2971e-05	477.23	5.0426e-07	5.0616e-07	481.28	160.66	5.3954e-07	5.1089e-07	178.87	52.334	45.261	12.022	5.036e-07	17.711	82.197	94.498	138.975	29.555	128.151	169.513	28.147	35.876	166.895	176.120	32.758	38.269	40.473	47.682	220.878	42.588	-8191	255	
2191.638	1	1	0	0	0.28952	0.19458	0.08635	0.19512	0.068111	0.11595	0.14462	0.14685	0.2083	0.28028	0.27182	0.039279	0.058312	0.17454	0.10205	0.16323	-2.4688	-3.3146	-2.8958	-2.9458	-3.3063	-2.6708	-3.2875	-3.1167	-2.9021	-3.6	-2.7771	-2.9854	-3.3271	-2.8438	-3.2333	-3.225	323.572	331.836	103.387	104.254	160.183	52.713	123.250	28.961	260.233	231.790	24.629	286.995	137.470	333.299	124.842	196.018	0.00023139	0.0002914	4.8797e-05	497.69	2.5139e-06	2.6115e-06	503.6	167.35	1.8788e-06	1.3519e-06	187.67	54.105	47.113	12.207	2.0391e-06	18.38	5.6201e-05	4.4803e-05	1.2688e-05	477.52	4.9793e-07	5.3359e-07	481.85	160.7	5.3028e-07	4.9646e-07	180.37	52.629	45.508	12.081	5.0194e-07	17.857	79.032	136.028	192.226	29.222	121.452	148.748	28.252	35.954	185.049	216.840	33.019	38.043	40.916	47.494	232.999	42.265	-8191	255	
2191.759	1	1	0	0	0.11602	0.21134	0.11118	0.1789	0.14836	0.11837	0.23485	0.17541	0.20857	0.13629	0.16796	0.07335	0.17677	0.070243	0.12776	0.21765	-2.3958	-3.4333	-2.8208	-2.8792	-3.4646	-2.8417	-3.1833	-3.275	-2.8438	-3.3896	-2.9979	-2.8354	-3.6792	-2.7917	-3.025	-3.5083	319.495	303.094	87.162	53.496	305.414	25.301	329.199	295.459	336.000	245.677	131.554	241.521	134.207	267.836	329.068	261.067	0.00020877	0.00016529	7.08e-05	497.49	3.9422e-06	2.3409e-06	501.38	166.03	2.7654e-06	1.1179e-06	189.36	55.15	47.298	12.401	2.5622e-06	18.7	5.6244e-05	4.4955e-05	1.2257e-05	479.88	4.9093e-07	4.9495e-07	485.28	161.42	5.4885e-07	4.7918e-07	182.88	53.451	45.909	12.144	5.0426e-07	18.203	85.542	107.208	79.745	29.850	129.183	138.380	28.503	36.310	157.997	168.366	33.653	38.487	41.191	47.407	245.286	43.464	-8191	255	
2191.855	1	1	0	0	0.14424	0.13169	0.15277	0.10054	0.073172	0.11727	0.18343	0.12245	0.10461	0.16282	0.13392	0.054689	0.038417	0.0962	0.15993	0.24043	-2.3542	-3.2979	-3.1688	-2.9729	-3.2958	-2.8	-3.1937	-3.2938	-2.9042	-3.2438	-3.125	-2.6771	-3.4021	-2.6979	-3.1271	-3.2354	201.257	20.590	154.022	377.495	221.644	280.885	293.016	295.865	211.152	222.778	194.460	307.660	326.327	276.322	159.490	314.002	0.00021414	0.00024198	7.4325e-05	498.37	1.4227e-06	3.2899e-06	510.2	167.83	2.4728e-06	2.7896e-06	191.14	55.696	47.044	12.419	2.8804e-06	18.443	5.6929e-05	4.456e-05	1.2232e-05	482.55	5.0602e-07	5.056e-07	493.73	163.16	5.4477e-07	4.8955e-07	184.61	54.042	45.933	12.176	5.0802e-07	18.029	86.297	127.794	114.620	29.831	131.008	163.445	28.609	36.822	164.826	169.668	33.199	38.559	40.941	47.404	188.355	43.057	-8191	255	
2191.951	1	1	0	0	0.036034	0.18611	0.12014	0.11209	0.19956	0.21788	0.10549	0.16384	0.19151	0.10284	0.11005	0.14814	0.12673	0.11816	0.16276	0.11454	-2.45	-3.1771	-3.0312	-2.9417	-3.4354	-3.0438	-3.1021	-3.4521	-2.7062	-3.3104	-3.3479	-2.8354	-3.1896	-2.9667	-2.9542	-3.3583	167.657	171.229	151.313	22.924	198.056	306.313	86.710	32.250	109.886	99.129	153.530	35.589	75.285	297.846	53.496	351.555	0.00025373	0.0001111	8.0238e-05	495.54	1.058e-06	1.8014e-06	494.64	164.12	2.9944e-06	9.525e-07	186.38	53.901	46.1	12.343	2.0454e-06	18.172	6.0085e-05	4.6706e-05	1.2478e-05	477.93	5.1484e-07	5.0248e-07	480.49	160.83	5.5072e-07	5.066e-07	180.19	52.363	45.267	12.101	5.234e-07	17.778	80.072	147.182	58.412	29.961	200.103	162.018	28.328	36.604	168.762	192.661	33.254	38.330	41.433	48.368	230.316	43.686	-8191	255	
2192.047	1	1	0	0	0.29311	0.1403	0.073388	0.24809	0.31069	0.17484	0.17023	0.12961	0.057698	0.10561	0.22691	0.069361	0.13953	0.24094	0.13065	0.16268	-2.1917	-3.0271	-3.2104	-2.5708	-3.3708	-3.1146	-2.8917	-3.4271	-2.9021	-3.1708	-3.3292	-2.6521	-3.3729	-3.1146	-2.8063	-3.4583	42.713	257.703	166.479	364.797	144.943	116.041	276.545	343.738	113.206	89.263	127.685	368.259	150.426	366.436	83.071	104.299	0.00021973	0.00028867	4.1849e-05	492.55	1.655e-06	7.6771e-07	494.3	165.47	2.3238e-06	1.8311e-06	186.9	54.326	46.925	12.339	2.0068e-06	18.387	5.6496e-05	4.4783e-05	1.2127e-05	477.66	5.1621e-07	4.7443e-07	481.33	161.07	5.0918e-07	4.949e-07	180.87	52.757	45.687	12.134	5.1416e-07	18.007	77.078	111.527	93.452	30.039	149.046	121.930	28.638	36.360	143.055	126.790	33.997	38.486	41.592	47.671	147.051	43.694	-8191	255	
2192.143	1	1	0	0	0.11108	0.32928	0.16984	0.11967	0.12683	0.062219	0.20999	0.072182	0.054724	0.06599	0.17585	0.31875	0.13047	0.33546	0.13135	0.19683	-2.3917	-2.975	-3.3354	-2.65	-3.2167	-3.1396	-2.8208	-3.4896	-2.8625	-3.2771	-3.225	-2.7854	-3.2479	-3.1833	-2.6417	-3.5938	281.724	109.053	111.801	53.505	171.709	192.408	288.714	317.526	338.782	53.221	39.374	157.412	314.088	87.010	260.344	154.333	0.00022212	5.7429e-05	9.3793e-05	496.76	1.4676e-06	2.1662e-06	506.83	168.12	1.9057e-06	1.4176e-06	193.64	55.292	47.533	12.374	2.2129e-06	18.52	5.7767e-05	4.7411e-05	1.2646e-05	479.8	5.0338e-07	4.6417e-07	487.29	162.17	5.1243e-07	4.7077e-07	183.85	53.396	45.927	12.157	5.2147e-07	18.117	86.239	133.724	138.644	29.883	177.680	226.410	28.349	36.374	208.233	164.264	32.933	38.568	41.095	48.114	190.303	43.170	-8191	255	
2192.239	1	1	0	0	0.27334	0.096266	0.23258	0.23489	0.13592	0.096335	0.1336	0.36816	0.029373	0.14707	0.174	0.024221	0.068209	0.1813	0.1001	0.14981	-2.4792	-2.9271	-3.3854	-2.6604	-3.2604	-3.1396	-2.7812	-3.5	-2.9521	-2.9604	-3.4521	-2.7521	-3.2667	-3.2146	-2.7792	-3.5146	278.894	262.630	290.027	331.452	178.064	172.521	232.858	277.727	107.530	78.600	373.943	72.434	296.766	122.765	91.934	334.140	0.00022062	0.00033339	5.236e-05	496.29	3.3304e-06	4.3226e-06	502.88	166.8	2.6809e-06	2.9307e-06	189.82	55.098	46.86	12.199	2.0666e-06	18.191	5.3893e-05	4.4818e-05	1.2301e-05	481.53	4.8212e-07	4.94e-07	490.6	162.64	5.05e-07	5.0621e-07	184.39	53.647	45.645	12.06	4.8412e-07	17.878	88.178	132.201	137.847	30.410	141.501	166.920	28.575	36.339	174.093	182.756	33.872	38.913	41.327	47.943	220.350	43.204	-8191	255	
2192.358	1	1	0	0	0.19719	0.20538	0.081091	0.11268	0.13391	0.092325	0.11116	0.23859	0.13792	0.18655	0.11774	0.18412	0.13576	0.13721	0.10319	0.25754	-2.7271	-2.75	-3.4729	-2.8083	-3.2271	-3.3667	-2.9146	-3.4271	-3.0979	-2.7271	-3.4188	-2.7979	-3.175	-3.2625	-2.6542	-3.3646	219.815	211.305	22.592	269.070	73.625	100.792	329.953	52.656	73.459	55.450	185.342	45.633	345.206	88.300	209.559	74.577	0.0002219	0.00019705	4.3021e-05	489.54	2.0775e-06	3.0738e-06	494.61	164.46	1.4856e-06	2.3317e-06	184.72	53.556	46.292	12.246	4.0841e-06	17.849	5.4583e-05	4.7112e-05	1.2359e-05	476.71	5.1038e-07	4.6997e-07	479.88	160.84	5.2152e-07	4.9991e-07	178.78	51.943	45.042	11.976	5.0448e-07	17.542	79.089	130.868	152.904	30.239	173.848	141.895	28.785	36.844	162.878	136.970	33.366	38.706	41.103	48.421	134.792	43.001	-8191	255	
2192.454	1	1	0	0	0.082995	0.10511	0.30408	0.296	0.097189	0.22341	0.18583	0.17805	0.22639	0.19131	0.10564	0.10901	0.075797	0.21313	0.42213	0.23568	-2.7375	-2.7333	-3.4729	-3.0208	-3.0292	-3.3	-2.9146	-3.2146	-3.1854	-2.5563	-3.3063	-2.8187	-2.6688	-3.4062	-2.8063	-3.325	368.460	200.628	85.808	29.291	251.463	186.274	31.211	229.997	159.197	209.769	253.234	169.141	229.287	318.515	327.796	288.566	0.00024147	0.00019488	5.4692e-05	494.47	2.2277e-06	2.3989e-06	503.31	167.53	1.4816e-06	1.7609e-06	189.18	54.414	47.273	12.348	2.0914e-06	18.4	5.3131e-05	4.6325e-05	1.2728e-05	477	5.0938e-07	5.0733e-07	481.47	161.33	5.0434e-07	4.9484e-07	181.31	52.507	45.458	12.029	5.1333e-07	17.816	82.283	63.492	122.971	29.791	135.488	168.102	27.814	35.945	180.017	170.017	33.075	38.202	40.491	47.327	209.391	42.140	-8191	255	
2192.526	1	1	0	0	0.12998	0.22283	0.055522	0.16804	0.096732	0.087014	0.036664	0.33246	0.19967	0.031399	0.073635	0.15094	0.20027	0.14229	0.16384	0.16703	-2.6042	-2.675	-3.4708	-2.8708	-2.8563	-3.3438	-2.8812	-3.0354	-3.3917	-2.8021	-3.4146	-3.1188	-2.8896	-3.5104	-2.8771	-3.3333	93.611	22.290	270.167	341.656	350.952	273.535	112.251	21.064	23.258	96.767	275.186	47.374	270.276	90.768	195.540	178.518	0.0002203	0.00018174	8.2944e-05	502.2	2.2167e-06	1.7133e-06	506.98	168.95	2.2844e-06	1.4137e-06	192.95	55.527	48.054	12.394	3.4383e-06	18.798	5.2465e-05	4.6482e-05	1.1916e-05	481.05	4.9011e-07	4.7549e-07	486.53	162.99	4.8698e-07	4.8565e-07	183.62	53.271	45.815	12.125	4.839e-07	18.139	90.311	103.362	111.489	29.674	172.932	54.210	28.180	35.698	169.335	191.890	32.553	37.954	40.061	46.949	144.930	42.380	-8191	255	
2192.622	1	1	0	0	0.111	0.091148	0.05122	0.16955	0.048783	0.12578	0.028516	0.16754	0.086903	0.13189	0.13362	0.090235	0.1418	0.14358	0.13039	0.13024	-2.9417	-2.4896	-3.4792	-2.925	-2.7958	-3.4167	-2.9875	-3.0563	-3.2625	-2.7583	-3.2042	-3.3479	-2.7687	-3.3417	-2.8208	-3.0208	93.069	163.615	220.238	262.432	299.485	268.131	271.402	374.107	82.895	357.693	308.854	46.708	247.877	49.903	26.630	226.904	0.00024554	0.00014823	8.7262e-05	506.5	2.0612e-06	2.7436e-06	517.33	170.02	1.581e-06	2.2563e-06	195.66	55.939	47.39	12.36	1.6778e-06	18.739	5.3521e-05	4.424e-05	1.1801e-05	484.27	5.0228e-07	4.6991e-07	494.12	164.25	5.0235e-07	4.7673e-07	185.82	53.668	45.757	12.144	4.9641e-07	17.997	78.651	118.585	95.008	29.120	153.945	137.029	27.499	35.712	172.716	147.891	32.945	37.556	40.015	46.919	225.820	42.518	-8191	255	
2192.743	1	1	0	0	0.10107	0.16238	0.27243	0.048045	0.18375	0.18553	0.12409	0.14475	0.21894	0.245	0.35774	0.15443	0.11371	0.16125	0.19117	0.19189	-3.0938	-2.6458	-3.1104	-3.2292	-2.8771	-3.425	-3.2104	-2.9646	-3.2062	-2.8396	-3.1937	-3.2229	-2.8312	-3.3708	-2.825	-2.7646	30.398	217.746	224.538	353.376	290.003	174.688	88.282	282.626	113.202	220.197	259.627	371.488	189.377	168.467	42.975	371.632	0.00021846	0.00014264	4.2601e-05	505.47	3.6963e-06	2.083e-06	503.91	168.02	3.0996e-06	2.4402e-06	189.77	54.282	46.721	12.503	1.1634e-06	18.227	5.1137e-05	4.4428e-05	1.2267e-05	481.13	5.334e-07	4.684e-07	482.28	162.15	5.1348e-07	4.9718e-07	181.02	52.104	45.127	12.045	4.5453e-07	17.624	82.020	138.225	76.039	29.165	129.392	168.184	27.852	35.536	167.851	145.251	32.892	38.471	40.044	47.611	163.847	42.425	-8191	255	
2192.839	1	1	0	0	0.17647	0.12803	0.099392	0.094893	0.20165	0.092606	0.081343	0.15691	0.10931	0.18285	0.13415	0.17347	0.0012487	0.088509	0.061821	0.057112	-2.9896	-2.6625	-3.0979	-3.3	-2.6479	-3.4771	-2.9813	-2.9417	-3.2812	-2.7229	-3.0875	-3.3333	-2.7208	-3.1	-3.1458	-2.75	238.002	151.009	182.915	330.309	249.797	19.620	263.664	260.944	161.376	283.053	269.001	299.852	180.000	341.356	115.078	291.032	0.00022554	0.00031389	5.6824e-05	502.42	3.2771e-06	2.4779e-06	503.98	168.08	1.1267e-06	1.625e-06	188.62	55.11	47.169	12.34	2.4506e-06	18.266	5.3797e-05	4.4068e-05	1.2079e-05	479.93	5.0399e-07	4.5569e-07	482.31	161.84	4.9993e-07	4.7194e-07	181.29	52.523	45.351	12	4.615e-07	17.787	90.027	120.403	71.592	29.262	161.298	201.269	27.834	35.292	123.931	217.030	32.623	38.072	40.416	47.410	151.947	42.404	-8191	255	
2192.935	1	1	0	0	0.087737	0.10971	0.052765	0.26833	0.042188	0.22592	0.094645	0.19598	0.090482	0.25616	0.17558	0.34913	0.13145	0.2067	0.090492	0.11284	-3.0062	-2.7167	-3.1	-3.2687	-2.6417	-3.1521	-3.2042	-2.7292	-3.5083	-2.9062	-3.0687	-3.4042	-2.5792	-3.4167	-3.2562	-2.8146	227.409	194.984	32.462	362.604	372.877	245.855	320.160	302.471	251.333	77.570	222.188	26.704	209.515	309.883	297.595	112.816	0.0002059	0.00024288	6.8124e-05	500.66	3.0423e-06	9.7599e-07	506.96	167.98	2.7736e-06	1.9553e-06	191.83	55.247	47.103	12.502	4.902e-06	18.768	5.1432e-05	4.2606e-05	1.1847e-05	481.05	4.9231e-07	4.737e-07	487.18	162.23	4.8687e-07	4.6302e-07	183.53	53.12	45.494	12.083	4.8534e-07	18.043	87.625	77.524	137.890	29.814	166.787	176.794	28.228	35.547	134.318	184.937	32.487	37.958	40.276	46.688	172.357	42.197	-8191	255	
2193.031	1	1	0	0	0.19288	0.091736	0.26724	0.12343	0.16983	0.18198	0.032291	0.11963	0.21738	0.056859	0.18855	0.14499	0.23379	0.32289	0.28394	0.068885	-2.9583	-3.0396	-3.0146	-3.3083	-2.7542	-3.2104	-3.2229	-2.8583	-3.3958	-3.0312	-2.9604	-3.6042	-2.6271	-3.2271	-3.1562	-2.7438	88.827	344.156	180.293	346.433	255.980	194.145	81.010	81.419	93.982	31.036	366.163	79.563	263.139	374.526	221.454	204.376	0.00024343	0.00034421	3.0233e-05	506.05	3.269e-06	2.5415e-06	516.77	169.65	2.7839e-06	1.1485e-06	193.96	55.81	47.57	12.43	1.4909e-06	18.778	5.3531e-05	4.3728e-05	1.2472e-05	484.45	5.0542e-07	4.6038e-07	495.14	163.97	4.9883e-07	4.6458e-07	186.32	53.786	45.847	12.121	4.714e-07	18.103	82.826	120.567	89.382	29.543	131.715	148.311	27.900	36.002	149.152	169.217	32.665	38.676	41.231	47.303	169.255	42.252	-8191	255	
2193.150	1	1	0	0	0.1781	0.097004	0.044028	0.069122	0.3024	0.058474	0.25664	0.03622	0.19474	0.16665	0.11376	0.29926	0.11238	0.12731	0.15015	0.21929	-2.9292	-2.9083	-2.9354	-3.4437	-2.8438	-2.9979	-3.3312	-2.675	-3.325	-3.1583	-2.6354	-3.475	-2.7271	-3.0354	-3.3812	-2.7146	22.107	90.383	160.389	370.242	44.139	131.455	348.554	372.971	45.801	118.531	29.049	333.174	145.993	92.021	261.596	90.308	0.00027291	0.00015785	0.00011328	500.5	1.5768e-06	2.0503e-06	501.85	165.75	1.8616e-06	1.5444e-06	187.87	54.008	46.705	12.205	2.3915e-06	18.117	5.2745e-05	4.3352e-05	1.3531e-05	480.23	4.7826e-07	4.7309e-07	483.36	161.31	5.0219e-07	4.4965e-07	180.39	52.052	45.112	11.998	4.7096e-07	17.598	80.105	114.385	138.643	29.480	134.236	194.739	28.416	36.331	181.619	111.453	32.674	38.295	40.505	46.851	240.038	42.760	-8191	255	
2193.224	1	1	0	0	0.11692	0.1343	0.28363	0.17786	0.15501	0.11363	0.11696	0.18389	0.067355	0.046973	0.12031	0.090957	0.11253	0.19094	0.19859	0.071929	-2.8167	-3.0021	-2.6958	-3.5104	-2.8146	-2.9125	-3.3854	-2.8063	-3.2271	-3.2313	-2.7417	-3.4437	-3.0021	-2.9833	-3.4458	-2.7979	308.261	54.163	91.576	332.900	220.008	327.379	296.982	347.187	238.235	221.201	26.692	235.180	340.548	305.018	199.913	255.988	0.00025953	0.00015398	4.2089e-05	503.78	2.8377e-06	2.049e-06	509.22	171.31	2.7931e-06	2.8313e-06	191.17	54.92	47.448	12.414	2.8539e-06	18.539	5.3221e-05	4.0846e-05	1.2904e-05	480	5.0553e-07	4.8954e-07	483.72	163.05	5.3491e-07	4.7623e-07	182.17	52.608	45.601	12.08	4.9901e-07	17.895	81.159	83.642	128.741	29.023	159.052	192.162	27.627	35.343	176.296	159.836	32.292	37.651	40.512	47.079	155.598	42.286	-8191	255	
2193.320	1	1	0	0	0.27789	0.069434	0.18286	0.077031	0.1277	0.10685	0.081044	0.3225	0.12917	0.20876	0.31927	0.13263	0.13687	0.22365	0.14096	0.23937	-2.8896	-3.2125	-2.6688	-3.325	-2.9375	-2.8563	-3.625	-2.8333	-3.0958	-3.2938	-2.7062	-3.3229	-3.0896	-2.8521	-3.275	-3.0667	32.634	120.385	73.505	50.553	279.344	120.712	219.636	32.116	154.749	104.666	106.615	73.268	36.678	367.331	36.646	319.638	0.0002163	0.00024364	2.3968e-05	497.97	2.6356e-06	1.1347e-06	503.94	167	2.2645e-06	1.5429e-06	187.6	55.392	47.545	12.38	2.7297e-06	18.455	5.4335e-05	4.3459e-05	1.3309e-05	479.74	5.0575e-07	5.056e-07	485.04	162.55	5.1673e-07	4.4792e-07	182.96	53.332	45.836	12.11	5.1339e-07	18.04	91.185	147.752	101.043	29.373	148.005	212.142	27.798	35.903	120.369	194.826	32.905	38.723	40.889	47.547	174.344	43.256	-8191	255	
2193.439	1	1	0	0	0.11224	0.15818	0.31188	0.24911	0.1552	0.16234	0.19748	0.17889	0.22438	0.085082	0.23971	0.02939	0.12687	0.14619	0.23687	0.28514	-2.7771	-3.3042	-2.7958	-3.45	-3.0021	-2.7687	-3.4458	-2.7521	-2.9021	-3.5375	-2.7104	-3.1042	-3.1229	-2.7521	-3.4229	-2.7188	166.212	284.645	364.762	352.897	322.663	179.707	348.837	217.546	154.657	74.785	50.234	98.512	349.156	63.397	244.344	23.851	0.00023851	6.585e-05	4.1684e-05	501.16	2.6877e-06	1.4314e-06	510.18	168.7	2.9654e-06	2.5658e-06	194.22	55.815	47.432	12.421	4.5175e-06	18.496	5.8505e-05	4.2114e-05	1.2653e-05	481.68	5.123e-07	4.9199e-07	490.76	163.34	5.3932e-07	4.7082e-07	186.17	53.872	46.013	12.186	4.9878e-07	18.081	83.585	174.020	147.565	30.045	142.336	173.111	28.404	36.418	186.704	169.616	33.147	38.675	40.825	47.595	178.260	43.002	-8191	255	
2193.535	1	1	0	0	0.074312	0.068082	0.20288	0.068751	0.10982	0.21063	0.26281	0.22252	0.22151	0.17412	0.23723	0.13003	0.14928	0.24361	0.36005	0.22964	-2.6542	-3.2375	-2.55	-3.2667	-3.2375	-2.6646	-3.2792	-2.9667	-2.7667	-3.4292	-2.7708	-3.1917	-3.2313	-2.6833	-3.3792	-2.8604	279.278	146.274	205.846	246.152	285.796	27.678	301.789	294.565	299.908	32.642	285.718	42.460	277.479	293.671	82.438	48.496	0.00022387	0.00021247	5.9654e-05	499.86	1.8446e-06	2.7669e-06	500.46	166.95	1.6997e-06	1.0297e-06	188.55	53.521	46.633	12.225	1.0569e-06	18.037	5.7248e-05	4.3849e-05	1.281e-05	479.4	4.8757e-07	5.2439e-07	482.5	161.6	5.3441e-07	4.7578e-07	180.86	51.891	45.175	12.015	4.7051e-07	17.548	85.337	144.697	370.596	29.474	96.731	205.401	28.412	36.441	166.674	109.762	33.048	38.199	40.793	47.586	175.418	43.128	-8191	255	
2193.631	1	1	0	0	0.16044	0.11686	0.18127	0.10118	0.11314	0.16669	0.066707	0.14585	0.22046	0.26494	0.10217	0.027779	0.10048	0.20089	0.15455	0.15286	-2.7083	-3.4854	-2.6583	-3.0229	-3.3438	-2.7333	-3.3292	-3.0042	-2.7396	-3.4938	-2.7625	-2.8583	-3.4458	-2.6271	-3.3458	-3.0208	32.242	241.771	268.398	365.510	117.338	303.010	51.743	179.497	253.497	157.728	167.141	146.446	265.139	196.685	179.419	339.467	0.00021493	7.5084e-05	2.6862e-05	498.07	1.9797e-06	1.6039e-06	502.84	167.91	1.7015e-06	2.1574e-06	189.39	54.732	47.059	12.363	1.0406e-06	18.163	5.8243e-05	4.2358e-05	1.2372e-05	477.21	4.7628e-07	5.008e-07	479.62	161.14	5.3381e-07	4.7706e-07	180.63	52.433	45.134	11.99	4.808e-07	17.631	82.920	140.936	147.836	29.450	177.928	154.808	28.066	35.912	146.687	151.103	32.648	38.084	40.240	47.053	84.046	42.821	-8191	255	
2193.752	1	1	0	0	0.20961	0.17114	0.13509	0.21549	0.10699	0.25099	0.13663	0.14354	0.11598	0.11608	0.24353	0.16243	0.085001	0.11016	0.064847	0.15135	-2.4292	-3.3708	-2.925	-2.9813	-3.1958	-2.9021	-3.4042	-3.1063	-2.7396	-3.475	-3.0625	-2.9521	-3.3146	-2.9562	-3.4062	-3.4062	290.889	311.075	96.851	20.408	28.973	208.855	265.008	103.556	157.675	205.487	44.449	320.383	208.867	369.435	375.982	129.979	0.00022421	0.00029141	7.9309e-05	497.42	2.9261e-06	1.7493e-06	501.97	166.44	8.8188e-07	1.6231e-06	190.75	55.3	46.872	12.379	1.0623e-06	18.44	5.4083e-05	4.5158e-05	1.2811e-05	477.5	5.1638e-07	4.8636e-07	482.76	161.59	5.3408e-07	4.8882e-07	182.51	52.988	45.301	12.064	4.6509e-07	17.923	78.833	64.734	151.382	29.793	156.092	107.135	28.042	36.375	104.814	198.653	32.882	38.196	40.948	47.217	169.900	43.148	-8191	255	
2193.823	1	1	0	0	0.035074	0.11654	0.10213	0.056178	0.21315	0.2223	0.11976	0.16473	0.082539	0.2041	0.11973	0.14865	0.27836	0.1543	0.42272	0.11221	-2.3187	-3.4708	-3.0062	-2.8667	-3.4458	-3.0042	-3.3812	-3.4667	-2.6917	-3.4604	-2.9208	-2.8542	-3.5479	-2.9167	-3.025	-3.4375	30.113	46.694	142.293	183.675	61.549	217.267	20.624	190.147	341.370	324.544	75.749	42.436	187.746	89.003	170.911	252.217	0.0002082	0.00012513	4.4872e-05	498.05	2.338e-06	2.0162e-06	505.8	168.97	2.4148e-06	9.9619e-07	192.44	55.86	47.373	12.319	1.6545e-06	18.736	5.6825e-05	4.3038e-05	1.1678e-05	479.45	4.8421e-07	4.8324e-07	487.54	162.77	5.3689e-07	4.7963e-07	184.39	53.675	45.815	12.09	4.86e-07	18.126	81.075	72.778	131.353	29.261	156.741	144.887	28.287	36.155	186.616	239.962	32.818	38.417	40.798	47.164	176.373	42.892	-8191	255	
2193.919	1	1	0	0	0.092849	0.14195	0.31548	0.089892	0.29715	0.19819	0.2206	0.13757	0.064753	0.19528	0.083777	0.20864	0.025315	0.23758	0.1084	0.080489	-2.4479	-3.3229	-2.8396	-2.9417	-3.3625	-2.9042	-3.2229	-3.3167	-2.7125	-3.3438	-3.1021	-2.9208	-3.3479	-2.8167	-2.9688	-3.4021	94.216	369.753	174.793	161.391	286.559	110.711	63.267	323.051	78.526	218.991	129.222	191.868	220.563	35.782	213.700	337.299	0.00025195	0.00015362	8.386e-05	498.92	2.8848e-06	1.8644e-06	499.68	168.99	2.0382e-06	1.49e-06	187.83	54.437	47.086	12.258	2.0415e-06	18.279	5.7201e-05	4.5163e-05	1.1967e-05	478.95	4.8432e-07	4.688e-07	481.48	162.36	5.2086e-07	4.5026e-07	180.55	52.133	45.259	11.953	4.8811e-07	17.656	88.313	130.224	135.294	28.969	148.648	159.930	27.594	35.846	169.265	200.782	32.873	38.317	40.515	47.143	168.207	42.480	-8191	255	
2194.015	1	1	0	0	0.32587	0.20504	0.16382	0.32359	0.18568	0.096802	0.10654	0.15956	0.13403	0.11133	0.03615	0.15303	0.1141	0.20704	0.1094	0.15774	-2.3625	-3.1396	-3.1354	-2.8688	-3.6479	-3.1	-3.025	-3.4083	-2.8375	-3.1917	-3.1604	-2.7625	-3.4146	-3.0125	-2.9625	-3.4667	246.375	357.357	106.821	280.260	273.805	320.761	255.392	326.615	48.326	197.325	305.711	371.171	232.590	158.015	160.885	345.860	0.00019082	0.0001472	5.156e-05	497.54	3.1147e-06	1.505e-06	498.7	166.56	2.3703e-06	1.6329e-06	189.28	53.751	46.927	12.334	2.3925e-06	18.228	5.6063e-05	4.3312e-05	1.1775e-05	477.29	4.7501e-07	4.6422e-07	479.87	161.25	5.4036e-07	4.5834e-07	181.4	52.359	45.272	12.046	5.0797e-07	17.789	79.951	110.562	107.970	29.053	149.034	122.369	28.078	36.294	156.201	124.079	33.015	38.007	40.623	47.533	197.254	42.663	-8191	255	
2194.136	1	1	0	0	0.063894	0.23749	0.12702	0.16929	0.30343	0.19681	0.20183	0.3748	0.18201	0.11665	0.092851	0.16862	0.17117	0.10235	0.059313	0.0090259	-2.3104	-3.0083	-3.4083	-2.7625	-3.3125	-2.9521	-2.9479	-3.3396	-2.8	-3.3125	-3.0479	-2.8958	-3.3354	-3.1542	-2.7188	-3.4688	310.646	142.949	127.402	318.882	220.246	100.974	222.535	375.633	268.611	274.449	140.298	24.486	196.285	217.616	153.207	198.756	0.00024689	0.00052294	5.4509e-05	499.06	3.5948e-06	1.394e-06	504.84	168.83	2.6765e-06	1.7622e-06	190.4	55.056	47.539	12.295	2.9543e-06	18.547	5.5106e-05	4.6919e-05	1.2186e-05	478.79	5.0894e-07	4.8474e-07	484.01	161.93	4.9585e-07	4.9211e-07	182.74	53.141	45.587	12	4.953e-07	18.004	93.880	113.188	145.262	29.432	144.789	140.892	28.170	36.037	168.868	164.363	32.767	38.529	40.573	47.306	149.237	43.007	-8191	255	
2194.231	1	1	0	0	0.11364	0.27998	0.065119	0.18114	0.068372	0.033045	0.062718	0.32332	0.15002	0.1891	0.12137	0.02501	0.36136	0.07148	0.079845	0.21323	-2.3729	-2.9375	-3.3625	-2.6562	-3.4396	-3.0917	-2.6979	-3.35	-2.8896	-2.9313	-3.4979	-2.8021	-3.3063	-3.0563	-2.725	-3.5354	151.868	240.227	141.394	117.742	337.277	65.514	219.026	260.869	173.809	348.985	308.766	155.069	147.605	170.405	161.618	307.179	0.00025558	0.00029905	7.0471e-05	503.39	2.8344e-06	3.0054e-06	509.67	168.99	2.0449e-06	1.0014e-06	194.51	55.828	47.651	12.3	2.4741e-06	18.855	5.3707e-05	4.2764e-05	1.2151e-05	481.65	4.8746e-07	4.534e-07	488.85	163.16	4.9883e-07	4.8748e-07	185.68	53.957	45.747	12.092	5.1206e-07	18.251	84.929	90.018	110.125	29.439	160.643	160.641	28.003	35.802	184.266	171.677	32.985	38.276	40.426	47.298	197.058	42.497	-8191	255	
2194.327	1	1	0	0	0.26438	0.27899	0.072788	0.20285	0.061294	0.1852	0.25575	0.31325	0.17672	0.095185	0.23513	0.1072	0.03794	0.15433	0.1537	0.15118	-2.4229	-2.9917	-3.2354	-2.5271	-3.2583	-3.1354	-2.6813	-3.5917	-2.8688	-2.7875	-3.5083	-2.6562	-3.0917	-3.3354	-2.6458	-3.5229	365.782	293.515	165.264	279.764	44.526	50.617	319.928	312.717	177.733	127.812	297.454	304.575	53.146	94.743	223.295	270.092	0.00022837	0.00024433	2.9657e-05	499.41	2.5169e-06	2.0971e-06	508.27	167.5	1.4106e-06	2.9378e-07	189.48	53.798	46.648	12.279	2.3925e-06	18.381	5.3412e-05	4.5595e-05	1.2061e-05	479.95	5.1225e-07	4.5714e-07	486.37	161.91	5.0472e-07	4.7963e-07	182.2	52.351	45.229	11.976	4.8197e-07	17.726	79.661	101.358	129.165	29.167	146.827	178.961	27.850	35.790	174.603	171.944	32.782	37.738	40.770	46.915	187.763	42.241	-8191	255	
2194.423	1	1	0	0	0.49133	0.10422	0.11544	0.089041	0.089098	0.22264	0.11531	0.042432	0.11199	0.056268	0.15613	0.21564	0.088256	0.17718	0.036986	0.21939	-2.6854	-2.7729	-3.35	-2.8583	-3.0021	-3.2458	-2.8021	-3.4896	-3.1667	-2.9479	-3.5458	-2.975	-2.9271	-3.1167	-2.8521	-3.4062	193.572	188.279	243.916	226.387	360.858	321.369	326.757	291.976	318.706	221.790	344.176	185.387	344.175	272.737	372.768	285.952	0.00022143	0.00016374	0.00011134	500.03	3.4339e-06	2.7425e-06	497.75	167.04	7.4223e-07	2.0488e-06	188.98	54.084	46.74	12.217	3.875e-06	18.184	5.553e-05	4.3925e-05	1.1514e-05	477.68	4.9358e-07	4.6824e-07	478.77	161.08	5.0737e-07	4.9657e-07	181.11	52.203	44.935	11.925	4.974e-07	17.705	87.610	143.604	116.803	29.275	136.601	169.115	28.044	35.832	187.543	210.259	32.720	38.315	40.496	47.935	198.040	43.254	-8191	255	
2194.519	1	1	0	0	0.33526	0.083297	0.35179	0.17557	0.24347	0.068621	0.17359	0.30869	0.051334	0.09256	0.15514	0.21394	0.14007	0.12537	0.18195	0.27063	-2.6771	-2.8167	-3.4	-2.8688	-2.9271	-3.4792	-2.775	-3.4375	-3.1708	-2.9292	-3.3937	-3.0021	-2.9875	-3.3771	-2.7625	-3.2438	304.002	263.102	252.227	214.258	125.474	220.242	334.313	298.222	182.485	335.186	347.727	372.774	122.734	255.328	252.498	246.378	0.00024669	0.00026741	6.8439e-05	498.43	1.7503e-06	1.2982e-06	502.86	165.91	2.8352e-06	7.6949e-07	189.9	55.16	46.478	12.147	2.6755e-06	18.6	5.5482e-05	4.5615e-05	1.2244e-05	478.11	5.112e-07	4.7041e-07	482.64	161.16	4.8533e-07	5.0504e-07	182.63	52.677	45.104	11.897	4.9303e-07	17.942	91.300	83.197	132.005	29.497	170.123	219.334	28.086	35.935	186.181	177.481	32.977	37.859	40.293	47.283	162.380	43.039	-8191	255	
2194.615	1	1	0	0	0.02805	0.30854	0.18078	0.20181	0.21197	0.1013	0.21673	0.14136	0.12826	0.082417	0.1375	0.12741	0.31386	0.039089	0.32467	0.31941	-3.0354	-2.4771	-3.35	-2.975	-2.95	-3.2958	-2.8229	-3.0604	-3.2667	-2.6104	-3.2958	-3.1104	-2.6875	-3.3208	-2.6875	-3.1437	361.197	125.888	277.508	377.652	187.549	355.349	298.595	316.905	41.282	281.894	317.111	94.990	33.263	122.142	102.156	322.640	0.00023468	0.00023803	7.0396e-05	499.48	2.522e-06	1.2759e-06	506.12	167.83	2.3711e-06	3.1749e-06	192.6	55.423	46.583	12.162	1.6282e-06	18.654	5.483e-05	4.5899e-05	1.2093e-05	480.38	5.0437e-07	4.6071e-07	487.55	161.86	5.0577e-07	4.8821e-07	184.51	53.507	45.232	11.947	4.9757e-07	18.072	84.122	115.403	128.490	29.557	115.824	111.200	28.433	35.993	165.830	160.924	33.139	38.713	40.724	47.516	129.848	42.931	-8191	255	
2194.711	1	1	0	0	0.2299	0.086975	0.25747	0.10064	0.27823	0.16459	0.069662	0.193	0.34662	0.095135	0.23462	0.086727	0.32718	0.053789	0.19098	0.20161	-2.8083	-2.875	-3.2562	-3.0479	-2.6917	-3.3917	-2.7521	-3	-3.4146	-2.7146	-3.2667	-3.2792	-2.8896	-3.5979	-2.6875	-3.1083	56.763	126.813	146.575	272.751	194.237	42.240	242.391	240.563	170.327	310.556	308.105	224.067	81.093	359.622	199.760	39.120	0.00024739	0.00029987	0.00011153	503.02	4.4248e-06	1.8822e-06	515.06	169.13	8.1e-07	1.8829e-06	191.61	55.049	47.359	12.392	3.9295e-06	18.459	5.2236e-05	4.421e-05	1.2372e-05	481.99	5.1159e-07	4.437e-07	489.69	161.98	4.9409e-07	4.7099e-07	182.4	52.512	45	11.996	4.7981e-07	17.775	81.748	133.850	115.043	29.276	140.313	148.351	28.077	35.340	137.356	191.775	32.533	37.580	39.672	46.434	179.545	41.753	-8191	255	
2194.832	1	1	0	0	0.1901	0.064239	0.12333	0.19335	0.28177	0.19511	0.22684	0.27773	0.072441	0.17469	0.12858	0.46052	0.097323	0.15989	0.21998	0.23028	-2.8125	-2.6146	-3.1667	-3.2458	-2.5146	-3.4729	-2.8667	-2.8708	-3.5229	-2.7083	-3.2854	-3.3625	-2.75	-3.5312	-2.8792	-3.1271	57.525	283.251	52.991	353.236	107.387	200.380	345.709	185.288	142.807	109.669	337.260	362.928	341.409	328.704	144.099	146.119	0.00025026	5.3641e-05	3.8486e-05	498.89	1.6621e-06	2.492e-06	499.91	167.1	2.5778e-06	3.555e-06	191.42	54.562	47.015	12.106	2.254e-06	18.343	5.4364e-05	4.2982e-05	1.1406e-05	476.6	5.356e-07	4.7554e-07	478.23	160.95	5.0632e-07	4.4274e-07	181.51	52.159	44.975	11.867	5.0011e-07	17.771	79.168	337.971	165.391	29.331	132.657	125.205	27.729	35.460	157.851	202.751	32.631	37.901	40.107	47.642	159.277	42.540	-8191	255	
2194.928	1	1	0	0	0.30025	0.20014	0.23182	0.059725	0.1302	0.088602	0.090699	0.13824	0.17358	0.12705	0.091838	0.10991	0.17998	0.059188	0.1723	0.094703	-3.1875	-2.7646	-2.9313	-3.0312	-2.6271	-3.3812	-3.1833	-2.6813	-3.4688	-2.6458	-3.1167	-3.4021	-2.6792	-3.2958	-3.2229	-2.6667	163.934	231.455	354.273	25.863	28.350	259.750	159.223	137.606	266.970	258.515	320.724	169.525	101.947	250.704	169.271	121.083	0.00022935	0.00032414	7.233e-05	498.17	2.492e-06	3.3228e-06	505.27	167.85	3.0649e-06	2.4973e-06	193.03	55.773	47.312	12.357	3.1015e-06	18.612	5.5373e-05	4.3717e-05	1.2663e-05	476.03	5.0894e-07	4.7448e-07	482.97	161.35	5.2251e-07	4.5622e-07	183.23	53.039	45.265	11.917	5.0194e-07	18.042	77.397	94.928	119.374	28.994	132.511	134.530	27.996	35.426	171.817	150.987	32.128	37.640	40.358	46.901	216.019	42.493	-8191	255	
2195.024	1	1	0	0	0.22294	0.21535	0.076755	0.21164	0.18351	0.11105	0.2063	0.3139	0.091582	0.1156	0.062579	0.25047	0.14906	0.024784	0.26056	0.067114	-3.1875	-2.8521	-2.9375	-3.4792	-2.6583	-3.4229	-3.0875	-2.9896	-3.3458	-2.8292	-3.025	-3.3583	-2.8229	-3.2938	-3.2	-2.9875	163.108	218.037	81.205	234.497	93.400	209.647	270.928	48.747	224.795	307.582	212.283	222.539	310.036	314.206	325.889	33.428	0.0002745	0.00031002	2.4659e-05	506.53	3.0296e-06	2.0247e-06	512.47	169.17	2.292e-06	3.3892e-06	195.2	55.99	47.628	12.289	1.4163e-06	18.955	5.344e-05	4.6e-05	1.2707e-05	480.86	5.0514e-07	4.4409e-07	489.84	162.5	5.034e-07	4.5076e-07	186.32	53.625	45.65	12.021	5.0365e-07	18.265	88.523	119.168	193.927	28.889	75.959	141.626	27.449	35.263	158.057	174.268	32.409	37.539	40.528	47.087	173.458	42.551	-8191	255	
2195.120	1	1	0	0	0.082994	0.10062	0.30322	0.35449	0.18102	0.14427	0.21025	0.11176	0.10912	0.061166	0.3025	0.04944	0.23579	0.019361	0.17465	0.13446	-2.9271	-2.8875	-2.8937	-3.4313	-2.9021	-3.0646	-3.1542	-2.6375	-3.5208	-2.975	-2.8667	-3.4208	-2.7375	-2.9833	-3.1583	-2.7583	135.652	50.713	265.859	309.046	261.495	127.209	318.040	68.560	100.358	64.114	193.169	358.799	74.993	219.999	327.730	289.278	0.00023055	0.00024303	5.6161e-05	507.75	1.837e-06	1.4735e-06	513.9	170.19	3.0374e-06	2.8969e-06	192.4	55.68	47.359	12.341	1.7001e-06	18.56	5.424e-05	4.2977e-05	1.2526e-05	484.26	5.1776e-07	4.9032e-07	491.51	163.36	5.0125e-07	4.7194e-07	183.82	53.149	45.158	11.975	4.4678e-07	17.915	72.121	124.072	90.736	29.500	97.075	86.462	27.910	35.498	194.708	174.451	32.234	37.996	40.216	46.569	197.212	42.319	-8191	255	
2195.216	1	1	0	0	0.090173	0.16787	0.18386	0.022235	0.18569	0.087414	0.18173	0.0987	0.083608	0.20456	0.13516	0.069897	0.22236	0.2204	0.094672	0.1104	-2.775	-3.025	-2.9625	-3.4458	-2.8021	-3.1167	-3.5125	-2.6771	-3.2562	-3.0333	-2.7854	-3.5583	-2.6312	-3.0604	-3.3937	-2.6771	130.260	192.756	170.831	73.853	92.924	334.065	330.865	39.289	152.189	64.441	28.971	139.878	337.352	188.034	208.970	360.583	0.00025329	0.00025786	4.3761e-05	501.11	3.3228e-06	1.0333e-06	500.7	166.99	1.2615e-06	4.1262e-07	190.04	54.185	46.481	12.101	2.272e-06	18.353	5.2636e-05	4.2972e-05	1.2965e-05	479.11	4.7661e-07	4.9612e-07	480.87	160.76	5.002e-07	4.4636e-07	181.36	52.101	44.757	11.864	4.5796e-07	17.786	88.097	89.705	129.551	29.106	158.641	176.644	28.186	35.728	202.463	176.158	33.174	38.524	40.557	47.583	229.752	42.428	-8191	255	
2195.311	1	1	0	0	0.16645	0.24649	0.23723	0.10945	0.17154	0.14452	0.10877	0.1893	0.19654	0.10947	0.21051	0.061604	0.18037	0.16171	0.10672	0.062963	-3.0604	-3.0312	-2.7083	-3.4542	-2.8771	-2.9292	-3.35	-2.9042	-3.0792	-3.3396	-2.7458	-3.4417	-2.9938	-2.8979	-3.5667	-2.8229	93.288	97.172	98.738	377.910	34.283	97.224	244.965	323.759	67.552	335.611	156.738	55.664	326.413	281.642	274.847	341.576	0.00028059	0.0002274	8.1198e-05	499.26	2.7805e-06	3.2085e-06	498.73	167.11	9.8608e-07	1.2385e-06	189.49	54.841	46.714	12.177	2.8867e-06	18.682	5.5382e-05	4.0734e-05	1.2658e-05	479.14	4.8757e-07	5.0091e-07	482.81	161.46	4.8406e-07	4.3711e-07	183.01	52.814	45.074	11.915	4.761e-07	18.036	71.129	92.313	141.688	29.918	128.379	224.475	28.356	36.003	120.158	201.438	32.880	39.080	40.398	47.422	176.688	43.168	-8191	255	
2195.432	1	1	0	0	0.23834	0.088171	0.032925	0.070503	0.25378	0.33049	0.15439	0.12015	0.17747	0.095501	0.22026	0.1689	0.13457	0.10977	0.1439	0.10254	-2.7896	-3.4083	-2.6937	-3.4167	-3.1063	-2.9167	-3.5792	-2.8125	-3.0104	-3.4833	-2.8271	-3.6771	-3.0563	-2.9042	-3.55	-2.9208	96.836	358.035	97.228	358.955	93.547	124.017	370.275	258.636	323.001	142.203	20.663	256.853	301.032	106.005	162.872	194.654	0.00024299	0.00019211	5.4857e-05	500.78	1.6112e-06	2.3682e-06	502.95	166.87	1.1909e-06	2.2456e-06	190.27	55.331	46.457	12.029	1.3453e-06	18.672	5.4283e-05	4.2048e-05	1.2404e-05	479.38	4.9104e-07	4.7543e-07	485.12	161.74	4.915e-07	4.5745e-07	183.97	53.285	45.062	11.89	4.7997e-07	18.139	77.650	72.095	123.819	29.546	118.147	113.662	28.191	36.034	239.402	161.159	33.522	38.290	40.358	47.577	192.009	43.657	-8191	255	
2195.528	1	1	0	0	0.27066	0.056378	0.19276	0.25959	0.1856	0.25085	0.28201	0.1401	0.13443	0.12794	0.37196	0.084626	0.14652	0.13703	0.071118	0.22471	-2.6458	-3.2521	-2.7604	-3.4583	-3.1688	-2.9229	-3.3875	-2.9062	-3	-3.3083	-2.875	-3.2396	-3.1646	-2.85	-3.4542	-2.8875	25.938	349.249	50.400	290.844	274.423	265.575	47.039	32.243	250.513	211.963	377.482	115.027	83.898	228.471	111.623	315.163	0.00027255	0.00028878	6.5015e-05	500.75	3.5071e-07	2.867e-06	506.71	165.8	1.8204e-06	2.4878e-06	191	54.996	46.674	11.992	2.0119e-06	18.202	5.6934e-05	4.5645e-05	1.2612e-05	479.47	4.8873e-07	4.8597e-07	490.25	161.23	5.2301e-07	4.7088e-07	183.72	53.105	45.044	11.826	4.6371e-07	17.707	78.667	102.283	132.603	29.612	29.715	141.664	28.870	36.414	165.093	196.460	33.602	38.802	40.880	47.575	192.022	42.793	-8191	255	
2195.624	1	1	0	0	0.039272	0.062602	0.081881	0.039338	0.10469	0.11427	0.1567	0.1068	0.061595	0.11739	0.141	0.12765	0.15187	0.092652	0.17106	0.2405	-2.6229	-3.2875	-2.6937	-3.1437	-3.2479	-2.7896	-3.5563	-3.0062	-3.0771	-3.4979	-2.7875	-3.2021	-3.3312	-2.8021	-3.3021	-3.1	207.739	82.865	181.374	180.415	157.240	301.426	321.992	289.553	220.612	130.930	77.768	145.969	131.150	338.967	138.786	249.097	0.0002079	0.00014468	8.5467e-05	492.83	1.6966e-06	2.3869e-06	500.09	164.61	1.2025e-06	1.7324e-06	187.47	53.815	45.845	11.999	2.0227e-06	17.944	5.306e-05	4.2114e-05	1.185e-05	474.85	4.7083e-07	4.3601e-07	478.99	159.48	4.9481e-07	4.6815e-07	180.52	51.841	44.467	11.688	4.8938e-07	17.576	84.576	141.233	127.952	29.782	155.919	162.048	28.237	35.943	130.112	208.400	32.807	38.684	40.675	47.489	189.784	42.914	-8191	255	
2195.696	1	1	0	0	0.055193	0.1284	0.10457	0.14825	0.21555	0.2017	0.17599	0.35561	0.099892	0.2771	0.28735	0.098311	0.023047	0.053649	0.054192	0.083969	-2.3333	-3.4167	-2.7354	-3.2333	-3.2333	-2.7354	-3.3792	-3.1875	-2.7375	-3.5125	-2.8438	-3.1729	-3.3792	-2.8042	-3.225	-3.1583	263.551	291.951	131.336	38.934	153.998	316.994	287.297	323.130	296.681	267.349	235.867	291.565	258.957	57.364	184.308	88.113	0.00021539	0.00018434	8.5442e-05	491	2.6858e-06	2.6648e-06	494.6	164.77	1.9981e-06	2.1826e-06	187.9	54.289	46.055	12.02	2.3524e-06	18.046	5.4507e-05	4.1744e-05	1.1878e-05	473.71	4.7364e-07	4.5352e-07	478.61	159.97	5.094e-07	4.5527e-07	181.16	52.188	44.554	11.733	4.6559e-07	17.676	80.805	119.722	109.816	29.989	134.713	171.712	28.345	36.058	163.671	152.448	33.673	38.830	41.089	47.953	235.627	42.640	-8191	255	
2195.816	1	1	0	0	0.11629	0.096259	0.17374	0.090341	0.19392	0.19715	0.28959	0.13167	0.19226	0.24728	0.20403	0.30261	0.17868	0.20888	0.18045	0.27399	-2.3417	-3.3833	-2.8833	-2.9833	-3.2979	-2.7062	-3.3125	-3.3563	-2.8021	-3.6188	-2.9958	-3.0646	-3.3833	-2.9625	-3.2479	-3.1667	312.485	57.481	111.140	322.640	191.588	156.336	307.034	291.865	228.565	203.969	343.331	307.220	260.038	114.566	34.210	36.930	0.00026773	0.00010408	7.0826e-05	492.51	3.3478e-06	2.1168e-06	499.32	164.71	2.4234e-06	1.3422e-06	190.16	54.737	46.285	11.988	2.4386e-06	18.332	5.4778e-05	4.183e-05	1.202e-05	476.09	4.9281e-07	4.4158e-07	482.08	160.16	5.0147e-07	4.6129e-07	182.06	52.916	44.597	11.755	4.8899e-07	17.938	87.825	117.389	147.882	29.830	153.945	176.230	28.298	36.118	179.910	105.328	33.332	38.554	40.928	47.679	197.973	43.851	-8191	255	
2195.912	1	1	0	0	0.13443	0.060178	0.14523	0.043912	0.068127	0.079615	0.12089	0.22848	0.096791	0.14543	0.058327	0.19282	0.068742	0.11634	0.13912	0.17164	-2.2938	-3.4521	-2.8458	-2.8438	-3.3771	-2.9313	-3.2438	-3.2938	-2.6729	-3.6063	-3.0354	-2.7854	-3.3	-2.7479	-3.1146	-3.3438	157.650	355.333	315.453	113.596	320.256	314.107	251.160	274.164	212.858	262.939	80.057	140.278	123.797	167.067	120.061	214.820	0.00022183	6.0347e-05	7.9625e-05	493.32	2.6282e-06	1.309e-06	501.34	165.36	2.2252e-06	1.0162e-06	191.44	54.991	46.122	12.138	2.3997e-06	18.201	5.6582e-05	3.9765e-05	1.2325e-05	475.01	4.8818e-07	4.8502e-07	486.06	160.94	5.115e-07	4.5093e-07	183.73	53.225	44.722	11.825	4.7245e-07	17.787	79.746	85.425	125.654	29.572	136.528	217.803	28.353	36.328	187.431	311.330	33.677	38.644	41.024	48.083	147.273	43.576	-8191	255	
2196.008	1	1	0	0	0.1617	0.085805	0.23099	0.21209	0.22205	0.071135	0.082814	0.18576	0.19465	0.11416	0.15578	0.16258	0.18165	0.18077	0.070887	0.074913	-2.3792	-3.2896	-3.0396	-2.7458	-3.4104	-2.7896	-2.9646	-3.4813	-2.5729	-3.3375	-3.175	-2.6646	-3.2979	-2.8896	-2.9146	-3.3583	51.729	176.952	354.168	37.973	372.248	70.674	171.023	30.745	340.578	152.711	20.328	336.082	209.705	123.682	232.662	308.042	0.00024018	0.0001228	5.1061e-05	492.63	3.1625e-06	1.6672e-06	489.44	164.97	2.5482e-06	1.8643e-06	186.21	53.794	45.739	11.931	2.559e-06	17.996	5.4045e-05	4.3068e-05	1.1791e-05	473.7	4.884e-07	4.9919e-07	476.55	159.43	5.1772e-07	4.823e-07	179.38	51.638	44.23	11.696	5.1333e-07	17.58	87.956	60.547	133.373	29.443	164.559	107.244	28.214	36.262	205.440	207.865	33.383	38.100	40.646	47.742	201.497	43.046	-8191	255	
2196.105	1	1	0	0	0.23075	0.1156	0.19196	0.41814	0.13217	0.2626	0.23871	0.2175	0.1953	0.051404	0.050656	0.3415	0.047003	0.14525	0.028476	0.13352	-2.3083	-3.2687	-3.275	-2.7458	-3.3812	-3.1958	-2.7812	-3.3438	-2.9542	-3.2313	-3.2708	-2.8354	-3.3729	-3.0604	-2.9146	-3.4625	93.699	316.055	264.293	73.573	103.660	135.888	357.504	305.699	328.218	93.533	159.324	354.139	292.485	62.530	147.671	32.708	0.00020834	0.00030831	4.954e-05	490.81	1.4576e-06	1.6482e-06	490.82	164.47	3.4227e-06	2.3401e-06	188.24	53.744	45.863	11.912	9.7481e-07	18.282	5.3055e-05	4.4199e-05	1.1802e-05	472.26	4.8895e-07	4.5971e-07	475.13	159.43	5.0852e-07	4.959e-07	181.07	52.061	44.549	11.723	5.1057e-07	17.741	89.286	140.363	61.877	29.579	139.778	177.371	28.310	36.751	163.990	180.417	33.111	38.678	41.167	47.612	225.498	42.996	-8191	255	
2196.223	1	1	0	0	0.17894	0.10057	0.04553	0.52821	0.21962	0.12102	0.036087	0.22458	0.14895	0.19179	0.16729	0.14877	0.17445	0.27369	0.1034	0.1514	-2.3479	-3.0896	-3.375	-2.9021	-3.2708	-3.0708	-2.9583	-3.4146	-2.9104	-3.0417	-3.3396	-2.6167	-3.1854	-3.1229	-2.8812	-3.3646	77.672	347.281	30.715	321.777	232.678	99.324	153.832	319.365	322.148	172.515	166.241	352.762	288.752	215.973	81.849	378.215	0.0002414	0.00028719	6.6418e-05	490.9	1.79e-06	1.9428e-06	496.15	164.5	2.2091e-06	9.6261e-07	189.29	54.679	45.863	12.064	2.7575e-06	18.505	5.5363e-05	4.5473e-05	1.1894e-05	472.95	4.7369e-07	4.509e-07	478.74	159.76	4.9833e-07	4.7422e-07	182.26	52.879	44.582	11.807	5.125e-07	17.977	81.181	132.511	129.395	29.804	185.555	173.097	28.403	36.259	177.717	218.038	33.568	38.265	40.908	47.342	218.734	43.439	-8191	255	
2196.320	1	1	0	0	0.20686	0.054336	0.032778	0.065551	0.25109	0.23362	0.16095	0.43116	0.1841	0.27533	0.14015	0.23795	0.17056	0.14265	0.10041	0.16266	-2.6042	-2.95	-3.3583	-2.8312	-3.2604	-3.1771	-2.8917	-3.6854	-3.0229	-3.0979	-3.4479	-2.7333	-3.2521	-3.2167	-2.825	-3.3563	148.264	257.198	74.218	57.739	248.603	291.340	46.055	315.807	248.172	136.805	29.254	303.810	111.856	313.931	167.930	296.577	0.0001966	0.00021227	2.7883e-05	493.18	2.374e-06	2.0669e-06	502.37	165.89	3.1854e-06	2.7033e-06	192	55.585	46.512	12.078	2.2665e-06	18.418	5.3764e-05	4.4636e-05	1.1936e-05	473.89	5.161e-07	4.6684e-07	484	160.5	4.9293e-07	5.1652e-07	184.35	53.392	44.809	11.815	4.9309e-07	17.886	81.456	151.497	115.289	29.711	126.608	232.115	28.427	36.095	141.579	174.365	33.255	38.402	40.634	47.109	187.299	42.879	-8191	255	
2196.393	1	1	0	0	0.2351	0.20288	0.067334	0.14446	0.089306	0.10706	0.12779	0.16309	0.20041	0.16433	0.18206	0.083173	0.25343	0.10389	0.30084	0.11947	-2.5	-2.8646	-3.275	-2.8417	-3.0938	-3.1792	-2.6333	-3.3646	-2.9354	-2.9458	-3.5062	-2.8333	-3.0604	-3.3271	-2.5667	-3.3208	19.241	206.220	231.034	311.913	163.205	59.830	91.629	48.944	202.770	274.080	79.793	329.693	214.787	323.237	70.295	282.469	0.00021895	0.00029595	5.8275e-05	489.96	6.901e-07	2.6241e-06	496.43	164.04	2.0906e-06	1.4136e-06	187.37	53.785	45.806	11.971	1.9054e-06	18.129	5.404e-05	4.805e-05	1.2379e-05	472.12	5.0448e-07	4.6746e-07	476.42	159.13	4.9343e-07	5.1936e-07	178.9	51.699	44.216	11.645	4.8943e-07	17.52	84.647	100.534	111.198	29.796	157.220	165.443	28.137	35.544	182.570	214.104	33.490	38.206	40.413	47.522	186.712	42.791	-8191	255	
2196.512	1	1	0	0	0.11255	0.070982	0.17341	0.02545	0.19968	0.26004	0.052001	0.15292	0.11044	0.13913	0.26273	0.13947	0.082887	0.16251	0.18208	0.15941	-2.7375	-2.8438	-3.4	-2.8521	-2.95	-3.2438	-2.5646	-3.3167	-3.1292	-2.9354	-3.3563	-2.9667	-3.0104	-3.4604	-2.7875	-3.3063	163.466	55.063	230.439	332.876	64.856	100.221	122.601	228.159	82.964	202.414	325.803	63.206	316.483	361.857	171.194	292.769	0.00024929	0.0001716	1.5256e-05	490.83	1.3695e-06	1.4743e-06	498.23	165.54	1.6597e-06	3.3006e-06	187.7	54.348	46.515	12.027	2.3888e-06	18.292	5.3093e-05	4.6538e-05	1.1126e-05	470.68	5.1748e-07	4.6785e-07	475.22	159.39	5.2323e-07	5.1395e-07	179.95	51.907	44.383	11.655	5.1488e-07	17.627	92.180	106.098	172.160	29.445	171.653	195.004	27.805	35.823	124.402	176.367	32.940	37.801	40.378	47.138	180.606	42.826	-8191	255	
2196.608	1	1	0	0	0.079136	0.15394	0.10507	0.047388	0.11023	0.24082	0.24983	0.34761	0.10779	0.16752	0.064381	0.24437	0.32995	0.093628	0.083937	0.2173	-2.9062	-2.7208	-3.275	-2.9521	-2.8563	-3.3688	-2.8812	-3.2354	-3.2438	-2.7604	-3.2729	-2.9688	-2.8479	-3.2833	-2.8417	-3.1667	180.061	330.502	44.784	125.994	307.951	43.151	340.969	305.689	236.194	188.975	76.787	141.711	98.081	287.402	278.510	349.267	0.00022462	0.00025573	7.8973e-05	493.24	2.1027e-06	3.3692e-06	493.88	164.6	1.691e-06	1.6695e-06	188.86	54.341	45.728	11.864	1.6122e-06	18.401	5.6282e-05	4.6782e-05	1.2767e-05	472.12	5.1346e-07	4.6857e-07	476	158.8	4.8775e-07	4.8208e-07	181.2	52.273	44.182	11.601	5.145e-07	17.776	70.064	128.001	155.484	29.447	142.296	159.626	28.646	35.979	128.273	183.122	33.442	38.306	40.836	47.694	158.848	43.318	-8191	255	
2196.704	1	1	0	0	0.16655	0.32012	0.25146	0.036116	0.014183	0.26604	0.27438	0.098337	0.18187	0.22869	0.16671	0.27976	0.28412	0.095916	0.14451	0.18375	-2.9417	-2.7771	-3.4	-3.0792	-2.7604	-3.5146	-2.8417	-2.9896	-3.4854	-2.8917	-3.2125	-3.0083	-2.8208	-3.2667	-3.0146	-3.1146	132.356	256.643	265.348	354.730	314.106	264.622	361.236	135.663	194.583	251.110	293.088	106.818	249.182	151.222	162.203	63.751	0.00021301	0.00017576	7.6056e-05	488.77	2.6783e-06	1.4109e-06	499.14	164.22	1.638e-06	1.0416e-06	190.49	54.745	46.3	11.814	4.0663e-06	18.387	5.4445e-05	4.4367e-05	1.207e-05	472.56	5.0658e-07	4.5859e-07	481.23	159.14	4.9409e-07	4.7589e-07	183.31	52.905	44.411	11.636	5.0127e-07	17.748	83.880	121.453	167.260	29.736	142.402	175.535	28.484	36.443	125.217	146.376	33.299	38.532	40.617	47.757	155.149	42.829	-8191	255	
2196.800	1	1	0	0	0.084859	0.14226	0.17595	0.14507	0.3245	0.19791	0.17464	0.113	0.18228	0.032689	0.14821	0.17358	0.15849	0.25605	0.09522	0.072357	-2.9583	-2.8521	-3.3708	-3.1875	-2.5563	-3.275	-3.0542	-2.7375	-3.2313	-2.7896	-3.2417	-3.1562	-2.8625	-3.3479	-3.0583	-3.0062	97.262	318.303	253.081	204.365	53.849	319.509	350.367	325.892	37.478	97.251	317.057	269.325	223.732	289.706	60.366	306.404	0.0002453	0.00015235	4.0729e-05	489.71	3.6097e-06	1.9829e-06	490.91	163.3	3.5045e-07	2.1136e-06	185.89	53.187	45.256	11.735	1.4816e-06	17.827	5.4711e-05	4.5945e-05	1.2465e-05	470.76	4.7981e-07	4.4515e-07	474.68	158.41	5.0307e-07	4.7394e-07	179.01	51.409	43.741	11.521	4.9032e-07	17.365	80.893	179.861	84.679	29.740	116.153	142.671	28.440	36.037	204.875	178.089	33.189	38.579	41.324	47.626	218.636	42.623	-8191	255	
2196.921	1	1	0	0	0.088709	0.12107	0.068915	0.15813	0.077058	0.088869	0.23095	0.22732	0.30868	0.097263	0.084771	0.20235	0.088058	0.083664	0.060727	0.25747	-3.1896	-2.5667	-3.3083	-3.3167	-2.6312	-3.4771	-2.9979	-2.8958	-3.4562	-2.7458	-3.1813	-3.2167	-2.8438	-3.4042	-3.0354	-2.8167	27.662	55.320	333.987	240.651	243.492	281.056	274.331	343.144	248.146	343.719	18.719	326.670	239.391	221.006	223.058	331.599	0.00022212	0.00012129	4.228e-05	484.43	3.7683e-06	2.3329e-06	495.77	163.37	2.6811e-06	3.1598e-06	185	53.102	45.46	11.829	1.4355e-06	17.959	5.3883e-05	4.4184e-05	1.196e-05	467.63	4.8785e-07	4.5932e-07	474.13	157.8	4.5817e-07	4.6235e-07	179.15	51.46	43.733	11.529	4.7278e-07	17.471	80.487	70.418	106.141	29.474	142.493	176.972	28.126	35.587	175.146	148.344	33.670	38.506	40.516	47.632	183.668	43.342	-8191	255	
2196.993	1	1	0	0	0.11513	0.045951	0.16139	0.077855	0.091572	0.14276	0.081423	0.31283	0.28749	0.08561	0.067351	0.12388	0.16218	0.35166	0.063889	0.28271	-3.0708	-2.7313	-3.0563	-3.3646	-2.6792	-3.3417	-3.2417	-2.7958	-3.3521	-2.9021	-2.9813	-3.4708	-2.7313	-3.2896	-3.2042	-2.8104	55.607	105.763	202.034	323.354	322.408	278.105	58.676	347.685	163.012	240.784	357.767	115.605	195.262	186.619	154.360	270.072	0.00022941	0.00031443	5.5911e-05	489.29	2.1966e-06	1.7937e-06	491.62	163.13	1.9759e-06	2.0969e-06	187.19	54.611	45.261	11.857	3.4106e-07	18.298	5.2379e-05	4.389e-05	1.2229e-05	470.51	4.6846e-07	4.5413e-07	474.88	157.84	4.9464e-07	4.8197e-07	180.04	52.317	44.051	11.5	4.6515e-07	17.737	75.255	88.075	100.834	29.702	142.020	177.423	28.439	35.884	154.613	147.821	33.496	38.878	40.770	47.526	29.929	42.846	-8191	255	
2197.113	1	1	0	0	0.16049	0.33886	0.21236	0.037854	0.083549	0.22107	0.10488	0.18326	0.26332	0.092648	0.14082	0.26406	0.042046	0.13847	0.128	0.23738	-3.0875	-2.7812	-2.9271	-3.4333	-2.7604	-3.2854	-3.2917	-2.6583	-3.3271	-2.9729	-2.9417	-3.4375	-2.7438	-3.1583	-3.2271	-2.8396	239.105	90.949	115.567	221.706	219.692	77.213	327.739	330.945	305.580	337.977	368.832	297.525	124.277	193.325	125.894	36.998	0.00023922	0.00030184	5.0024e-05	489.57	1.7232e-06	2.3723e-06	496.73	164.38	2.0799e-06	3.8278e-06	189.77	54.444	46.389	11.838	4.6037e-06	18.316	5.2736e-05	4.494e-05	1.1877e-05	470.96	5.0669e-07	4.5759e-07	480.68	158.67	4.9508e-07	4.5539e-07	182.75	52.868	44.467	11.6	4.6111e-07	17.903	86.154	119.616	141.906	29.729	145.871	167.844	28.620	36.092	188.829	182.613	33.715	38.927	40.920	47.479	151.151	42.974	-8191	255	
2197.209	1	1	0	0	0.28696	0.038477	0.17428	0.02856	0.19971	0.04359	0.16686	0.068127	0.22499	0.36488	0.20896	0.23582	0.20328	0.15157	0.0834	0.17491	-3.0479	-2.8854	-2.8167	-3.5042	-2.7458	-3.1604	-3.3708	-2.6479	-3.3812	-2.9708	-2.9396	-3.5104	-2.9708	-3.1083	-3.5875	-2.8021	23.917	108.398	271.945	31.653	166.602	93.841	327.802	21.695	301.676	107.195	28.128	316.374	31.990	244.487	124.476	290.212	0.00025085	0.00015508	2.7569e-05	486.98	1.3769e-06	1.6185e-06	495.78	162.75	1.7114e-06	2.6625e-06	185.97	52.918	45.203	11.798	4.7151e-07	17.86	5.147e-05	4.2119e-05	1.1885e-05	470.86	4.8653e-07	4.5151e-07	475.84	157.75	4.9315e-07	4.5973e-07	179.15	51.333	43.704	11.507	4.6526e-07	17.404	81.234	78.937	101.753	29.682	164.582	141.848	28.323	35.795	136.415	124.274	33.186	38.735	40.286	48.124	195.738	43.088	-8191	255	
#DATA ENDS
