BOXY.EXE: ISS Imagent and Oximeter Data Acquisition Program Version 0.80
Ascii Record File

#ACQ INFORMATION
2  Detector Channels 
16  External MUX Channels 
1  Auxiliary Channels 
5000  Waveform (CCF) Frequency (Hz)
1  Waveforms Skipped 
30  Waveforms Averaged 
1  Cycles Averaged 
16  Acquisitions per Waveform 
10.0806  Updata Rate (Hz) 

#FILE INFORMATION
TRUE -- External MUX Channel results are PARSED.
FALSE -- AC DC and Phase are NOT grouped.
TRUE -- Companion Program Settings File CREATED.
FALSE -- AC data not excluded
FALSE -- DC data not excluded
FALSE -- Phase data not excluded
FALSE -- Auxillary Chn. data not excluded
Tab delimiters

#CALIBRATION STATE
TRUE -- Waveform Calibration Values APPLIED.


#AUX CALIBRATION VALUES
Val Type	aux-1	

Term	1.0000e+00	
Factor	0.0000e+00	


#WF CALIBRATION VALUES
A = Detector Channel
Val Type	A-AC1	A-AC2	A-AC3	A-AC4	A-AC5	A-AC6	A-AC7	A-AC8	A-AC9	A-AC10	A-AC11	A-AC12	A-AC13	A-AC14	A-AC15	A-AC16	A-DC1	A-DC2	A-DC3	A-DC4	A-DC5	A-DC6	A-DC7	A-DC8	A-DC9	A-DC10	A-DC11	A-DC12	A-DC13	A-DC14	A-DC15	A-DC16	A-Ph1	A-Ph2	A-Ph3	A-Ph4	A-Ph5	A-Ph6	A-Ph7	A-Ph8	A-Ph9	A-Ph10	A-Ph11	A-Ph12	A-Ph13	A-Ph14	A-Ph15	A-Ph16	

Term	0.00000e+00	0.00000e+00	0.00000e+00	0.00000e+00	0.00000e+00	0.00000e+00	0.00000e+00	0.00000e+00	0.00000e+00	0.00000e+00	0.00000e+00	0.00000e+00	0.00000e+00	0.00000e+00	0.00000e+00	0.00000e+00	0.00000e+00	0.00000e+00	0.00000e+00	0.00000e+00	0.00000e+00	0.00000e+00	0.00000e+00	0.00000e+00	0.00000e+00	0.00000e+00	0.00000e+00	0.00000e+00	0.00000e+00	0.00000e+00	0.00000e+00	0.00000e+00	0.00000e+00	0.00000e+00	0.00000e+00	0.00000e+00	0.00000e+00	0.00000e+00	0.00000e+00	0.00000e+00	0.00000e+00	0.00000e+00	0.00000e+00	0.00000e+00	0.00000e+00	0.00000e+00	0.00000e+00	0.00000e+00	
Factor	1.00000e+00	1.00000e+00	1.00000e+00	1.00000e+00	1.00000e+00	1.00000e+00	1.00000e+00	1.00000e+00	1.00000e+00	1.00000e+00	1.00000e+00	1.00000e+00	1.00000e+00	1.00000e+00	1.00000e+00	1.00000e+00	1.00000e+00	1.00000e+00	1.00000e+00	1.00000e+00	1.00000e+00	1.00000e+00	1.00000e+00	1.00000e+00	1.00000e+00	1.00000e+00	1.00000e+00	1.00000e+00	1.00000e+00	1.00000e+00	1.00000e+00	1.00000e+00	X	X	X	X	X	X	X	X	X	X	X	X	X	X	X	X	

B = Detector Channel
Val Type	B-AC1	B-AC2	B-AC3	B-AC4	B-AC5	B-AC6	B-AC7	B-AC8	B-AC9	B-AC10	B-AC11	B-AC12	B-AC13	B-AC14	B-AC15	B-AC16	B-DC1	B-DC2	B-DC3	B-DC4	B-DC5	B-DC6	B-DC7	B-DC8	B-DC9	B-DC10	B-DC11	B-DC12	B-DC13	B-DC14	B-DC15	B-DC16	B-Ph1	B-Ph2	B-Ph3	B-Ph4	B-Ph5	B-Ph6	B-Ph7	B-Ph8	B-Ph9	B-Ph10	B-Ph11	B-Ph12	B-Ph13	B-Ph14	B-Ph15	B-Ph16	

Term	0.00000e+00	0.00000e+00	0.00000e+00	0.00000e+00	0.00000e+00	0.00000e+00	0.00000e+00	0.00000e+00	0.00000e+00	0.00000e+00	0.00000e+00	0.00000e+00	0.00000e+00	0.00000e+00	0.00000e+00	0.00000e+00	0.00000e+00	0.00000e+00	0.00000e+00	0.00000e+00	0.00000e+00	0.00000e+00	0.00000e+00	0.00000e+00	0.00000e+00	0.00000e+00	0.00000e+00	0.00000e+00	0.00000e+00	0.00000e+00	0.00000e+00	0.00000e+00	-1.85345e+02	-1.23737e+02	-1.11857e+02	-1.80493e+02	-1.02631e+02	-7.18909e+01	-1.55190e+02	-1.62015e+02	-8.30239e+01	-6.30682e+01	-1.71086e+02	-1.70392e+02	-1.81065e+02	-1.76742e+02	-5.60175e+01	-1.49283e+02	
Factor	3.45794e-05	1.28973e-04	3.64895e-05	1.78598e-01	1.50782e-06	1.48164e-06	1.55936e-01	4.98493e-02	1.25560e-06	1.27048e-06	8.53734e-02	2.92799e-02	2.65120e-02	9.74353e-03	1.48999e-06	1.28900e-02	2.28479e-06	2.43523e-06	6.78434e-07	9.15091e-02	2.64387e-08	2.67660e-08	7.53430e-02	2.56481e-02	2.64425e-08	2.67481e-08	4.24034e-02	1.45225e-02	1.36176e-02	5.01221e-03	2.65546e-08	6.42646e-03	X	X	X	X	X	X	X	X	X	X	X	X	X	X	X	X	



#DISTANCE SETTINGS
A = Detector Channel
A-1	A-2	A-3	A-4	A-5	A-6	A-7	A-8	A-9	A-10	A-11	A-12	A-13	A-14	A-15	A-16	

2.5000e+00	3.0000e+00	2.5000e+00	3.0000e+00	2.0000e+00	3.0000e+00	1.5000e+00	3.0000e+00	3.0000e+00	3.0000e+00	3.0000e+00	3.0000e+00	3.0000e+00	3.0000e+00	1.5000e+00	3.0000e+00	

B = Detector Channel
B-1	B-2	B-3	B-4	B-5	B-6	B-7	B-8	B-9	B-10	B-11	B-12	B-13	B-14	B-15	B-16	

1.0000e+01	1.0000e+01	1.0000e+01	1.4400e+00	1.0000e+01	1.0000e+01	1.5100e+00	1.9400e+00	1.0000e+01	1.0000e+01	1.9900e+00	2.4900e+00	2.4100e+00	2.9000e+00	1.0000e+01	2.9800e+00	




#DATA BEGINS
time	group	step	mark	flag	A-AC1	A-AC2	A-AC3	A-AC4	A-AC5	A-AC6	A-AC7	A-AC8	A-AC9	A-AC10	A-AC11	A-AC12	A-AC13	A-AC14	A-AC15	A-AC16	A-DC1	A-DC2	A-DC3	A-DC4	A-DC5	A-DC6	A-DC7	A-DC8	A-DC9	A-DC10	A-DC11	A-DC12	A-DC13	A-DC14	A-DC15	A-DC16	A-Ph1	A-Ph2	A-Ph3	A-Ph4	A-Ph5	A-Ph6	A-Ph7	A-Ph8	A-Ph9	A-Ph10	A-Ph11	A-Ph12	A-Ph13	A-Ph14	A-Ph15	A-Ph16	B-AC1	B-AC2	B-AC3	B-AC4	B-AC5	B-AC6	B-AC7	B-AC8	B-AC9	B-AC10	B-AC11	B-AC12	B-AC13	B-AC14	B-AC15	B-AC16	B-DC1	B-DC2	B-DC3	B-DC4	B-DC5	B-DC6	B-DC7	B-DC8	B-DC9	B-DC10	B-DC11	B-DC12	B-DC13	B-DC14	B-DC15	B-DC16	B-Ph1	B-Ph2	B-Ph3	B-Ph4	B-Ph5	B-Ph6	B-Ph7	B-Ph8	B-Ph9	B-Ph10	B-Ph11	B-Ph12	B-Ph13	B-Ph14	B-Ph15	B-Ph16	aux-1	digaux	

2154.234	1	1	0	512	0.21117	0.13677	0.29622	0.26768	0.09277	0.2691	0.023481	0.11474	0.15474	0.054418	0.17945	0.25515	0.22834	0.1511	0.16162	0.083099	-2.8	-3.5896	-2.875	-3.2646	-3.2833	-3.0458	-3.3458	-3.1333	-3.0125	-3.5854	-3.2167	-3.1708	-3.5854	-2.7854	-3.4917	-3.225	228.051	341.435	349.225	188.033	222.575	95.906	351.908	232.646	374.130	32.808	346.337	343.572	282.098	337.181	367.320	190.521	0.00023944	0.00027751	6.1538e-05	569.92	3.0879e-06	3.5547e-06	530.9	190.91	2.0086e-06	1.1364e-06	189.5	55.996	52.277	13.365	2.8116e-06	20.131	5.5725e-05	4.2571e-05	1.1873e-05	546.34	4.8961e-07	4.8954e-07	510.67	183.93	5.2158e-07	4.5087e-07	182.65	53.754	50.497	13.251	4.8905e-07	19.553	85.298	101.257	115.736	29.939	104.050	144.532	28.126	36.798	163.976	152.429	32.972	38.042	40.832	47.776	155.160	43.394	-8191	255	
2154.354	1	1	0	0	0.20741	0.12696	0.37127	0.10091	0.2229	0.34583	0.10063	0.15301	0.50686	0.081613	0.15027	0.12279	0.11685	0.28718	0.15631	0.031153	-2.375	-3.4625	-3.1458	-3.1646	-3.5312	-2.8042	-3.3	-3.4229	-2.925	-3.6375	-2.8583	-2.9021	-3.6479	-2.9062	-3.3063	-3.5458	279.272	56.497	108.924	45.377	309.126	241.516	34.382	283.251	260.988	173.480	308.686	27.435	45.806	308.986	272.709	256.000	0.00023226	0.00028987	9.7705e-05	566.01	1.6171e-06	2.1442e-06	537.52	192.4	1.4715e-06	2.153e-06	193.6	58.045	53.534	13.958	2.1783e-06	20.425	6.1133e-05	4.5143e-05	1.2186e-05	547.06	5.0068e-07	4.8564e-07	516.74	185.45	5.3149e-07	4.7478e-07	186.99	55.767	51.564	13.541	4.7455e-07	19.815	81.582	99.924	107.728	30.129	166.938	50.437	28.129	36.488	162.021	158.260	33.736	38.211	40.595	46.978	170.676	42.244	-8191	255	
2154.426	1	1	0	0	0.11371	0.13683	0.068716	0.052241	0.10611	0.069611	0.27282	0.12173	0.18701	0.26124	0.22627	0.051556	0.38443	0.25427	0.13472	0.24557	-2.1729	-3.5167	-3.15	-2.9875	-3.5354	-2.9896	-3.2146	-3.5083	-2.9208	-3.3417	-3.2875	-2.7521	-3.5438	-3.0312	-3.0125	-3.4875	291.434	199.472	29.724	156.903	299.736	375.315	313.168	163.366	37.663	315.030	356.096	313.771	58.983	313.918	291.545	126.112	0.00027537	0.00023558	0.00010001	574.76	3.0306e-06	1.9827e-06	539.07	189.56	2.4221e-06	5.175e-07	192.02	56.08	51.973	13.666	6.9101e-07	19.845	5.5406e-05	4.3459e-05	1.2185e-05	550.39	4.7683e-07	4.4086e-07	518.04	184.35	5.0103e-07	4.5466e-07	183.3	53.998	50.26	13.277	5.0598e-07	19.106	89.682	134.291	115.175	29.833	162.745	135.660	27.996	36.513	184.608	155.418	32.628	37.730	40.362	47.185	147.564	42.859	-8191	255	
2154.522	1	1	0	0	0.21502	0.117	0.10363	0.16393	0.049828	0.16907	0.15267	0.14318	0.19651	0.14785	0.1683	0.080271	0.16643	0.021886	0.21567	0.24803	-2.5667	-3.3917	-3.0479	-3.1125	-3.3875	-3.0583	-3.0542	-3.5896	-2.8187	-3.425	-3.4708	-3.0938	-3.5854	-3.2125	-3.0042	-3.4667	334.615	324.410	72.884	347.423	236.868	280.000	360.320	334.378	258.916	22.731	271.234	323.517	88.121	301.680	106.518	296.300	0.00024603	6.8993e-05	4.7501e-05	567.41	1.8198e-06	2.205e-06	521.66	188.2	3.8274e-06	1.5451e-06	184.93	54.298	51.49	13.436	2.1509e-06	19.213	5.564e-05	4.4139e-05	1.2087e-05	543.09	4.9787e-07	4.9422e-07	503.05	181.43	5.2026e-07	4.6748e-07	177.33	52.276	49.781	13.065	4.9093e-07	18.609	84.447	128.303	138.252	29.409	98.457	159.486	27.931	36.812	178.663	124.885	32.746	38.082	40.588	47.816	138.751	42.711	-8191	255	
2154.618	1	1	0	0	0.21398	0.31256	0.31725	0.22867	0.090885	0.09369	0.12308	0.061539	0.093068	0.039248	0.047604	0.31085	0.30377	0.11393	0.13399	0.21462	-2.5438	-3.2229	-3.3896	-2.7896	-3.4604	-2.925	-3.1188	-3.6354	-3.075	-3.4	-3.4125	-2.9125	-3.4667	-2.9167	-2.7771	-3.5417	64.483	306.046	328.185	361.421	57.043	368.723	271.938	314.219	214.349	267.545	175.002	310.863	53.910	193.702	376.799	117.556	0.00025608	0.00028289	5.1511e-05	568.32	3.6386e-06	2.6335e-06	527.61	190.25	3.1707e-06	1.1567e-06	189.62	55.753	52.356	13.731	2.5044e-06	19.907	5.3526e-05	4.3301e-05	1.2058e-05	541.56	4.8884e-07	4.8915e-07	506.06	181.95	5.1398e-07	4.8353e-07	180.57	53.362	50.293	13.255	5.2147e-07	19.13	89.648	131.005	102.077	29.387	109.783	146.898	27.638	35.876	181.287	92.203	32.768	37.643	40.332	47.074	182.809	42.278	-8191	255	
2154.737	1	1	0	0	0.16642	0.17679	0.1048	0.11248	0.11574	0.11793	0.14326	0.32756	0.042978	0.23968	0.23136	0.1711	0.19926	0.23301	0.15184	0.15088	-2.4521	-3.3583	-3.3708	-2.8271	-3.3771	-3.2479	-2.8979	-3.4208	-3.1229	-3.2292	-3.55	-2.8125	-3.5187	-3.2083	-2.7375	-3.6146	123.480	58.069	258.382	349.830	188.805	354.175	181.263	193.601	221.954	114.277	314.891	373.045	352.808	118.535	238.322	294.753	0.00024129	0.00019544	3.8699e-05	571.1	9.5722e-07	2.5134e-06	532.47	190.39	2.2248e-06	2.5521e-06	190.21	55.92	51.793	13.61	3.6231e-06	19.962	5.8557e-05	4.528e-05	1.1926e-05	544.55	5.1644e-07	4.7487e-07	509.4	182.5	4.9271e-07	5.0069e-07	182.01	53.873	50.376	13.27	5.1322e-07	19.433	78.857	119.994	135.734	29.636	168.958	162.013	27.817	36.041	153.941	165.670	33.071	38.270	40.142	47.433	163.483	42.854	-8191	255	
2154.833	1	1	0	0	0.21463	0.034245	0.28467	0.13517	0.11331	0.081694	0.055333	0.049361	0.07463	0.26203	0.45575	0.23069	0.3073	0.1321	0.068193	0.12159	-2.5938	-3.2229	-3.4583	-2.9229	-3.2958	-3.5583	-2.975	-3.5875	-3.2354	-2.9729	-3.6333	-2.8646	-3.2542	-3.4479	-2.8917	-3.4042	252.981	119.217	145.402	227.004	196.698	67.733	76.887	365.857	66.442	156.834	36.584	346.231	84.825	128.284	46.046	357.952	0.00026425	0.00023627	1.2293e-05	560.89	2.5619e-06	1.3948e-06	537.36	189.31	1.1275e-06	1.6621e-06	189.59	56.414	52.297	13.485	1.9108e-06	19.77	5.7553e-05	4.5985e-05	1.1955e-05	543.53	5.2442e-07	4.713e-07	516.31	183.18	5.2362e-07	5.0275e-07	182.65	54.131	50.335	13.221	5.0266e-07	19.039	83.013	77.209	259.245	30.271	163.141	172.071	28.188	36.531	214.524	154.689	33.007	37.719	40.442	47.974	161.911	42.871	-8191	255	
2154.930	1	1	0	0	0.12431	0.11293	0.10642	0.063613	0.095656	0.13466	0.12152	0.11794	0.078194	0.10867	0.038686	0.11067	0.23525	0.19381	0.24219	0.27167	-2.8167	-2.9271	-3.4354	-2.9146	-3.2021	-3.5354	-2.7542	-3.6625	-3.3167	-2.8937	-3.6542	-2.7917	-3.1854	-3.3625	-2.8896	-3.375	73.006	63.730	312.949	165.788	49.079	79.157	266.267	365.927	335.943	265.773	280.031	152.493	35.799	151.140	220.649	45.375	0.00025062	0.00024979	5.9658e-05	561.59	1.5698e-06	2.2781e-06	524.39	187.47	2.8212e-06	2.0235e-06	185.72	54.227	52.004	13.548	7.7829e-07	19.333	5.6734e-05	4.7249e-05	1.2673e-05	541.27	5.0536e-07	4.5736e-07	504.28	181.44	5.1006e-07	5.1111e-07	179.22	52.56	50.067	13.219	4.8905e-07	18.781	84.777	135.042	130.327	29.403	107.844	194.936	28.304	36.540	167.826	165.066	33.169	38.080	40.590	47.343	175.845	42.258	-8191	255	
2155.026	1	1	0	0	0.16502	0.16598	0.17425	0.16343	0.094727	0.16594	0.25678	0.07039	0.3385	0.016181	0.16533	0.20446	0.20109	0.23843	0.12638	0.1352	-3.0312	-2.7375	-3.5208	-2.9562	-3.2979	-3.4271	-3.1	-3.4604	-3.3083	-3.0167	-3.5896	-3.1875	-3.0458	-3.4146	-2.9188	-3.3458	291.612	290.771	271.069	300.442	100.812	351.012	353.203	46.869	128.518	349.964	253.329	362.659	358.196	296.574	174.932	76.069	0.00023005	0.00031102	3.3265e-05	571.85	1.9233e-06	2.3062e-06	530.64	188.41	2.5424e-06	2.1613e-06	189.34	55.863	52.625	13.631	1.3244e-06	19.709	5.643e-05	4.6198e-05	1.2473e-05	544.34	5.1423e-07	4.7259e-07	505.54	181.7	5.104e-07	5.1674e-07	180.21	53.208	50.38	13.249	5.1876e-07	18.958	85.854	118.647	44.658	29.737	137.260	196.342	27.843	35.990	201.754	184.313	32.888	38.267	40.462	47.575	132.172	42.459	-8191	255	
2155.122	1	1	0	0	0.22326	0.23864	0.26647	0.31891	0.13431	0.1877	0.043421	0.09895	0.24461	0.16503	0.044248	0.12741	0.025227	0.097294	0.15277	0.21124	-3.0083	-2.9354	-3.5312	-3.0812	-2.9958	-3.5062	-2.7417	-3.3458	-3.4062	-3.0104	-3.4667	-3.1625	-2.8646	-3.5875	-2.7958	-3.2	107.334	18.756	121.796	271.423	206.737	280.214	174.373	345.718	363.045	281.540	48.829	323.410	75.793	157.733	69.926	366.660	0.00021694	0.00016738	2.8019e-05	568.05	4.099e-06	1.3732e-06	527.62	189.28	2.1326e-06	2.551e-06	189.71	56.385	53.008	13.704	3.8209e-06	19.961	5.7491e-05	4.6513e-05	1.2299e-05	542.58	5.3538e-07	4.7448e-07	507.35	181.89	5.2543e-07	5.1919e-07	180.96	53.784	50.487	13.348	4.9751e-07	19.222	92.869	106.813	170.867	29.741	149.665	205.226	27.688	35.912	154.693	196.688	32.905	37.776	40.919	46.807	173.868	42.109	-8191	255	
2155.216	1	1	0	0	0.25337	0.16309	0.21747	0.19344	0.2382	0.13801	0.059051	0.081811	0.14091	0.10986	0.14817	0.25671	0.13276	0.090744	0.2598	0.090751	-2.9542	-2.8083	-3.4125	-3.1771	-2.9146	-3.2854	-3.0333	-3.2188	-3.325	-2.8792	-3.5104	-3.3729	-3.0021	-3.5542	-2.9583	-3.0563	367.604	283.827	164.015	264.782	154.908	233.086	305.329	362.038	271.064	98.139	48.063	65.070	174.693	39.789	325.351	347.059	0.00024611	6.6164e-05	3.0959e-05	574.75	2.4279e-06	1.043e-06	538.98	189.69	2.006e-06	1.7255e-06	188.75	56.448	52.654	13.621	3.3642e-06	19.656	5.5811e-05	4.4296e-05	1.2685e-05	544.4	5.2503e-07	5.0978e-07	512.28	182.41	5.2108e-07	5.0186e-07	180.98	53.669	50.414	13.309	5.0797e-07	18.884	90.104	106.440	110.628	29.718	163.653	196.414	27.448	35.875	127.871	151.273	32.519	37.950	40.270	47.186	169.392	42.177	-8191	255	
2155.314	1	1	0	0	0.21488	0.062387	0.15219	0.15437	0.20175	0.062225	0.25032	0.093912	0.13274	0.074467	0.13834	0.18775	0.098371	0.27042	0.11166	0.26603	-2.9833	-2.8438	-3.4354	-3.1917	-2.8521	-3.3958	-2.9583	-3.3208	-3.4875	-2.9375	-3.1188	-3.3479	-2.5229	-3.625	-3.1604	-3.0625	352.989	112.912	217.046	233.608	164.947	294.786	291.605	358.560	345.266	44.886	196.668	260.575	319.171	115.161	78.493	283.451	0.00028238	0.0003002	4.6048e-05	563.44	1.8613e-06	1.4595e-06	522.05	186.15	2.4814e-06	4.8739e-07	185.39	55.283	52.418	13.643	2.7575e-06	19.509	5.8229e-05	4.6782e-05	1.1986e-05	538.14	5.1902e-07	4.6885e-07	500.54	179.93	5.1403e-07	5.1317e-07	176.87	52.535	50.215	13.189	5.1477e-07	18.666	90.073	126.763	128.153	29.515	138.660	177.923	27.676	36.100	114.555	48.743	32.448	37.521	40.378	46.822	163.184	42.372	-8191	255	
2155.433	1	1	0	0	0.083182	0.17128	0.12796	0.13222	0.086528	0.062348	0.14617	0.24826	0.042222	0.15097	0.29791	0.11155	0.25596	0.34962	0.2258	0.19855	-3.2812	-2.7833	-3.2729	-3.4958	-2.6354	-3.5625	-2.8833	-2.9333	-3.2687	-2.8771	-3.3979	-3.3833	-2.7333	-3.5	-3.2479	-2.8896	305.603	255.935	99.691	287.661	352.269	222.695	354.618	311.392	216.034	259.801	262.413	300.446	338.122	222.554	158.447	262.963	0.00023581	0.00021929	5.412e-05	566.78	2.7229e-06	2.2421e-06	525.86	187.2	3.0093e-06	2.5498e-06	187.42	54.993	52.544	13.718	1.4057e-06	19.3	5.6239e-05	4.5057e-05	1.2855e-05	540.78	5.1732e-07	5.0526e-07	502.42	180.47	4.8781e-07	5.1535e-07	178.27	52.982	50.171	13.23	5.1344e-07	18.733	78.697	96.108	94.825	29.926	101.459	97.682	28.185	35.988	166.682	162.362	32.557	38.177	40.302	47.066	196.724	42.660	-8191	255	
2155.529	1	1	0	0	0.15002	0.15269	0.10478	0.05794	0.15425	0.25945	0.38383	0.2103	0.068835	0.081585	0.12489	0.15255	0.04023	0.12794	0.041435	0.2338	-3.1312	-2.8937	-3.1583	-3.5521	-2.6167	-3.3792	-2.9875	-2.8021	-3.4062	-3.0417	-3.0042	-3.4125	-2.8792	-3.3521	-3.2	-2.7771	248.424	324.665	71.798	199.629	347.865	185.808	42.450	331.481	276.254	279.504	344.244	291.896	99.424	170.788	129.479	24.962	0.00025603	0.00018874	7.9688e-05	566.6	1.077e-06	1.9298e-06	526.37	188.86	2.4562e-06	1.3215e-06	188.56	55.364	52.203	13.596	3.6755e-06	19.762	5.7377e-05	4.4712e-05	1.2793e-05	541.54	5.5907e-07	5.1268e-07	504.77	181.19	5.2935e-07	4.9512e-07	179.99	53.45	50.316	13.277	5.1981e-07	19.071	83.250	140.730	168.823	29.756	42.970	159.367	28.084	36.198	207.717	182.288	32.796	38.217	40.819	47.590	184.091	42.301	-8191	255	
2155.625	1	1	0	0	0.20563	0.16528	0.12118	0.23541	0.17243	0.13441	0.34245	0.22717	0.20952	0.068673	0.15246	0.24562	0.082446	0.15024	0.15156	0.068798	-3.0146	-2.9292	-2.8979	-3.4917	-2.7083	-3.3875	-3.4292	-2.8521	-3.3333	-2.9917	-3.025	-3.4167	-2.6354	-3.2313	-3.1312	-2.8812	128.701	244.999	123.323	191.423	117.069	145.856	256.735	263.308	92.970	161.204	351.377	335.184	318.787	46.045	161.345	56.747	0.00021872	0.00023406	3.9558e-05	570.61	2.4097e-06	2.8076e-06	540.4	190.41	1.8091e-06	1.4871e-06	190.26	56.411	53.199	13.614	2.2378e-06	19.485	5.8305e-05	4.6503e-05	1.3367e-05	542.96	5.518e-07	4.722e-07	511.32	182.45	5.5579e-07	5.0381e-07	181.12	53.799	50.626	13.304	4.9109e-07	18.765	81.101	131.429	74.424	29.277	155.878	144.685	27.870	35.730	184.980	190.566	32.568	37.556	40.033	46.872	179.695	42.719	-8191	255	
2155.721	1	1	0	0	0.053824	0.20167	0.17427	0.10927	0.052229	0.1166	0.052705	0.068745	0.17876	0.1371	0.16151	0.077427	0.19722	0.18218	0.11742	0.33039	-3.0792	-3.0125	-2.725	-3.6021	-2.8729	-3.1813	-3.3875	-2.7313	-3.3875	-3.1854	-2.7229	-3.6021	-2.9938	-3.1937	-3.4917	-2.7313	236.033	177.783	90.182	329.070	321.368	72.654	130.713	70.431	214.015	127.788	235.630	301.214	237.411	190.089	46.979	259.510	0.00028023	0.00022618	6.735e-05	568.44	1.7994e-06	1.0849e-06	527.29	186.95	3.0477e-06	1.6459e-06	185.88	55.033	51.998	13.357	2.2707e-06	19.306	5.8729e-05	4.6244e-05	1.3412e-05	540.16	5.2756e-07	5.2707e-07	501.82	180.32	5.5419e-07	5.0693e-07	177.36	52.419	49.993	13.132	5.187e-07	18.584	80.673	143.362	97.919	29.724	152.770	178.615	27.593	35.877	167.755	131.942	32.306	38.206	40.644	46.979	144.215	42.695	-8191	255	
2155.818	1	1	0	0	0.026365	0.20166	0.25556	0.24803	0.27416	0.05326	0.12082	0.15904	0.20046	0.030453	0.16363	0.37103	0.32086	0.079063	0.20489	0.25179	-3.025	-3.2583	-2.6729	-3.4458	-2.8187	-3.2604	-3.3688	-2.7313	-3.4458	-3.3646	-3.2271	-3.4792	-3.1792	-2.9	-3.2812	-2.6979	250.738	110.460	177.560	303.172	270.906	238.502	265.380	80.420	61.632	131.968	308.517	377.264	31.020	64.983	185.484	291.315	0.0002466	0.00011742	7.9519e-05	563.75	2.1187e-06	8.1749e-07	520.18	186.87	2.4236e-06	2.7182e-06	186.34	55.842	52.539	13.625	2.4022e-06	19.566	5.8986e-05	4.6802e-05	1.3032e-05	538.96	5.3114e-07	4.9958e-07	500.84	180.23	5.2797e-07	4.8297e-07	179.22	53.359	50.47	13.3	5.125e-07	18.966	85.254	82.033	143.692	29.908	130.851	273.359	28.268	36.338	193.476	156.693	32.964	37.978	40.331	47.178	157.789	42.428	-8191	255	
2155.914	1	1	0	0	0.16381	0.32345	0.20593	0.060554	0.032199	0.038982	0.17239	0.29659	0.11809	0.16956	0.053024	0.1276	0.20033	0.028519	0.27715	0.12547	-2.8271	-3.1875	-2.7875	-3.5	-3.2021	-3.0583	-3.675	-2.8292	-3.3083	-3.3792	-2.9708	-3.4958	-3.1063	-2.925	-3.5021	-3.0042	202.897	166.014	129.330	320.561	23.764	44.443	287.416	239.624	163.903	141.620	343.762	154.649	287.269	159.723	321.247	332.004	0.00020686	0.0002028	5.2359e-05	565.69	1.5135e-06	1.9741e-06	532.37	189.38	1.1746e-06	4.2726e-07	189.21	56.464	52.986	13.543	3.5058e-06	19.797	5.731e-05	4.3743e-05	1.319e-05	541.31	5.394e-07	5.2701e-07	507.21	182.21	5.6025e-07	5.095e-07	181.59	54.118	50.918	13.388	5.151e-07	19.251	83.750	70.734	100.281	29.636	141.291	202.953	28.064	36.222	228.633	195.222	32.779	37.737	40.439	47.264	200.401	43.326	-8191	255	
2156.034	1	1	0	0	0.067409	0.24277	0.17893	0.40101	0.067186	0.28174	0.16261	0.27133	0.20824	0.10413	0.051232	0.31967	0.14461	0.22483	0.12112	0.16326	-2.7417	-3.5	-2.6792	-3.3958	-3.1042	-2.7292	-3.5354	-2.9271	-2.9646	-3.4521	-2.9167	-3.3937	-3.3604	-2.7646	-3.5396	-3.0458	274.396	115.309	100.904	78.129	358.076	190.060	158.906	269.115	233.189	71.101	80.699	278.401	332.556	315.759	55.712	93.252	0.00029047	0.00019977	4.6685e-05	566.49	2.2767e-06	1.2215e-06	537.6	189.09	1.5364e-06	2.2126e-06	192.26	56.707	53.327	13.956	3.4383e-06	19.644	6.0309e-05	4.7172e-05	1.2396e-05	544	5.182e-07	5.5054e-07	513.38	182.68	5.5711e-07	5.0649e-07	183.62	54.535	51.151	13.488	5.2506e-07	19.061	82.687	105.313	37.688	30.203	192.454	121.260	27.901	36.779	163.618	189.077	32.633	38.189	40.618	46.926	132.278	43.219	-8191	255	
2156.129	1	1	0	0	0.26294	0.15665	0.16108	0.30834	0.25606	0.15452	0.062685	0.088118	0.19829	0.11268	0.034233	0.093827	0.12537	0.24629	0.076063	0.090798	-2.6937	-3.6688	-2.9667	-3.3667	-3.1396	-2.6125	-3.5917	-3.2583	-2.9458	-3.4062	-2.8312	-3.4771	-3.5125	-2.6042	-3.4562	-2.975	226.242	95.841	183.593	334.478	311.679	177.700	237.924	283.055	176.550	153.952	362.103	31.917	138.811	343.456	140.642	377.278	0.00026193	9.497e-05	7.0247e-05	561.36	2.3728e-06	2.0194e-06	529.55	189.68	2.3858e-06	2.1108e-06	187.35	55.608	52.84	13.817	1.7389e-06	19.548	5.8615e-05	4.4742e-05	1.3416e-05	538.65	5.1836e-07	5.1095e-07	505.99	181.6	5.6609e-07	4.8213e-07	180.25	53.345	50.852	13.377	4.9723e-07	18.855	89.792	132.592	138.314	29.814	168.905	184.987	27.747	36.182	148.912	159.755	32.877	38.013	40.794	46.916	188.467	42.348	-8191	255	
2156.225	1	1	0	0	0.24064	0.12896	0.18229	0.20648	0.052207	0.31014	0.058295	0.18183	0.18987	0.10069	0.2575	0.13899	0.23623	0.13289	0.15626	0.074092	-2.6646	-3.4938	-2.6771	-3.2229	-3.1979	-2.9313	-3.5042	-3.2979	-3.0875	-3.6792	-2.9917	-3.3021	-3.475	-2.7271	-3.3875	-3.2021	352.740	36.196	349.278	300.513	201.753	171.301	42.670	305.280	256.103	90.918	18.759	169.929	77.357	232.619	236.801	77.512	0.00025256	0.00023984	2.9788e-05	566.48	3.2024e-06	3.266e-06	530.15	190.92	2.444e-06	2.584e-06	192.94	56.525	53.112	13.753	3.9266e-06	19.883	5.8457e-05	4.6234e-05	1.2788e-05	541.3	5.4243e-07	4.9835e-07	505.99	182.9	5.6025e-07	4.7712e-07	182.56	54.014	51.13	13.472	5.4127e-07	19.148	95.794	52.471	152.472	29.376	124.891	167.414	27.934	35.975	196.610	182.926	32.201	37.839	40.282	47.278	207.114	42.783	-8191	255	
2156.321	1	1	0	0	0.079981	0.061732	0.096263	0.18531	0.12385	0.065389	0.38384	0.20656	0.062521	0.066181	0.10629	0.06281	0.056081	0.12966	0.1276	0.08095	-2.4208	-3.6458	-2.8583	-3.1583	-3.5083	-2.8479	-3.4042	-3.2438	-2.8771	-3.65	-2.8479	-3.1312	-3.4562	-2.8396	-3.3229	-3.2562	311.313	130.763	191.319	262.771	176.641	283.228	193.118	42.807	243.063	372.272	60.605	134.020	324.664	218.097	118.954	368.965	0.00024691	0.00027075	7.4665e-05	568.95	2.1064e-06	4.3618e-07	535.61	190.67	2.414e-06	1.7208e-06	194.99	57.836	54.117	14.11	3.7287e-06	20.396	5.8886e-05	4.6604e-05	1.2854e-05	542.54	5.269e-07	5.2288e-07	511.35	183.61	5.6537e-07	5.2922e-07	185	55.146	51.628	13.577	5.301e-07	19.492	92.386	140.404	132.041	29.629	170.340	167.328	27.818	35.975	169.819	177.608	32.498	37.823	40.072	47.014	190.517	41.934	-8191	255	
2156.417	1	1	0	0	0.22637	0.20532	0.14873	0.13844	0.24421	0.28604	0.25639	0.14791	0.029197	0.21894	0.29873	0.12925	0.21495	0.11436	0.092809	0.2119	-2.3396	-3.6333	-2.9271	-3.1104	-3.425	-2.7229	-3.4229	-3.3667	-2.8979	-3.4813	-3.1417	-2.9188	-3.6958	-2.8583	-3.35	-3.2687	355.150	355.603	50.614	370.887	278.403	197.101	255.398	291.899	65.130	190.510	225.290	93.833	359.586	289.626	66.121	235.326	0.000238	0.00025039	8.0309e-05	571.33	1.6594e-06	1.3528e-06	545.23	191.99	3.2916e-06	1.4266e-06	197.85	58.36	53.847	14.039	3.853e-06	20.242	6.039e-05	4.8887e-05	1.2714e-05	544.92	5.2448e-07	5.3292e-07	517.67	184.04	5.5276e-07	5.2621e-07	187.4	55.617	51.699	13.596	5.1278e-07	19.364	79.836	149.221	140.924	29.433	159.550	177.301	27.530	36.096	168.512	129.447	33.192	37.743	40.602	46.612	191.217	42.225	-8191	255	
2156.513	1	1	0	0	0.033136	0.064739	0.20643	0.11448	0.16465	0.15925	0.098639	0.20098	0.21829	0.060301	0.095693	0.41313	0.077708	0.28235	0.057015	0.12431	-2.3604	-3.6292	-2.8187	-3.1	-3.65	-2.6521	-3.3708	-3.375	-2.8021	-3.5354	-3.1479	-2.9229	-3.5	-2.7521	-2.8917	-3.3812	222.491	169.360	34.424	250.415	250.100	173.662	204.226	274.446	82.268	80.262	41.827	283.091	172.696	45.908	140.201	143.639	0.00024933	0.00017042	4.8964e-05	570.29	2.2634e-06	2.6335e-06	532.22	190.92	2.6532e-06	1.2106e-06	192.09	56.826	53.854	13.865	2.3793e-06	19.723	6.0223e-05	4.6097e-05	1.3047e-05	542.2	5.2354e-07	5.3526e-07	508.72	182.98	5.7904e-07	5.1172e-07	182.93	54.249	51.314	13.482	5.2799e-07	18.979	87.310	110.183	138.594	29.383	96.106	158.395	27.788	36.022	145.880	148.549	32.991	37.480	40.172	46.718	184.995	42.018	-8191	255	
2156.610	1	1	0	0	0.17988	0.041971	0.19568	0.16717	0.13265	0.16432	0.1445	0.14043	0.070153	0.061612	0.26531	0.11713	0.058328	0.25369	0.14462	0.050476	-2.4083	-3.4104	-3.0792	-2.7792	-3.6167	-2.9375	-3.0979	-3.4	-2.75	-3.4792	-3.2792	-2.9146	-3.5583	-2.9271	-3.1292	-3.325	136.515	20.366	152.279	362.535	197.486	170.668	305.073	152.741	295.678	357.127	68.546	147.973	296.982	349.587	69.409	148.397	0.00025619	0.00016384	0.00014317	569.69	1.3423e-06	1.1896e-06	536.3	191.77	2.0098e-06	3.265e-06	194.6	57.37	54.227	13.878	2.4488e-06	19.949	5.5873e-05	4.7132e-05	1.3669e-05	541.76	5.3109e-07	5.0248e-07	509.46	183.41	5.7287e-07	5.3953e-07	184.49	54.862	51.601	13.557	5.2965e-07	19.224	87.541	122.216	108.194	29.069	165.035	209.324	27.706	36.259	145.774	146.321	32.416	37.456	40.205	47.166	164.320	42.745	-8191	255	
2156.706	1	1	0	0	0.18071	0.12551	0.27232	0.3217	0.12284	0.17619	0.20174	0.18705	0.1606	0.043587	0.11661	0.19605	0.14969	0.26908	0.23106	0.054658	-2.4854	-3.2604	-2.8979	-2.7958	-3.5396	-3.1896	-3.0208	-3.525	-2.8604	-3.4229	-3.5333	-2.675	-3.5312	-3.1375	-3.0104	-3.4229	203.252	20.065	49.586	25.657	256.546	98.759	232.433	322.570	288.838	119.322	372.371	197.626	20.644	63.939	225.862	288.863	0.00025225	0.0002951	7.834e-05	567.69	2.6955e-06	2.0531e-06	535.07	190.52	2.5777e-06	2.8831e-06	193.16	57.365	53.933	13.964	3.53e-06	20.162	6.0866e-05	4.8669e-05	1.2779e-05	541.67	5.4992e-07	5.1463e-07	511.68	183.68	5.5975e-07	5.3513e-07	185.35	55.25	51.751	13.615	5.4586e-07	19.482	83.191	124.221	132.387	29.831	126.318	96.125	27.986	36.158	179.218	108.962	33.077	37.746	40.407	47.123	200.608	42.307	-8191	255	
2156.826	1	1	0	0	0.075424	0.30159	0.12068	0.25044	0.18414	0.22365	0.097033	0.0712	0.10863	0.21729	0.32381	0.17914	0.014542	0.22783	0.13411	0.075092	-2.6312	-3.0604	-3.3604	-2.6833	-3.4292	-3.1333	-2.9437	-3.45	-2.9313	-3.2687	-3.4521	-2.8583	-3.6063	-3.2812	-2.7104	-3.5229	295.311	229.737	49.660	310.647	311.544	255.921	276.880	52.334	324.735	145.270	44.979	333.162	300.758	88.452	313.353	46.345	0.00027425	0.00026309	8.0265e-05	574.8	2.7378e-06	1.932e-06	541.85	193.52	1.3143e-06	2.7104e-06	197	58.93	54.822	14.01	3.0135e-06	20.304	6.0609e-05	4.875e-05	1.3172e-05	545.52	5.5422e-07	5.2567e-07	518.01	184.63	5.5232e-07	5.3401e-07	187.38	56.165	52.215	13.682	5.3889e-07	19.477	72.377	138.195	103.804	29.818	154.658	128.427	27.575	36.122	187.975	217.265	32.360	37.355	40.575	47.221	200.967	42.590	-8191	255	
2156.922	1	1	0	0	0.044985	0.10626	0.15027	0.070681	0.1031	0.094171	0.082413	0.27849	0.076843	0.16591	0.086498	0.11933	0.10475	0.1779	0.17806	0.048361	-2.6375	-3.0104	-3.5312	-2.7062	-3.3104	-3.2771	-3.0229	-3.4479	-2.9396	-3.0292	-3.5833	-2.6854	-3.3354	-3.3	-3.0292	-3.4938	93.443	167.593	374.787	66.877	254.268	376.381	293.637	49.295	311.090	334.425	242.650	29.787	196.099	190.008	217.448	370.496	0.00028003	0.00041292	6.3839e-05	567.49	1.9318e-06	1.5057e-06	529.29	190.55	2.1158e-06	1.5925e-06	192.98	56.602	53.546	13.724	4.2283e-06	19.657	6.1999e-05	4.8588e-05	1.3087e-05	542.59	5.5014e-07	5.0147e-07	507.17	183.05	5.565e-07	5.373e-07	183.25	54.462	51.526	13.473	5.53e-07	18.931	79.911	116.047	93.195	29.624	119.620	168.283	27.815	36.198	155.452	175.614	32.618	38.365	40.438	47.412	185.654	42.438	-8191	255	
2156.994	1	1	0	0	0.1165	0.081585	0.13117	0.11596	0.1094	0.26661	0.2187	0.19755	0.095866	0.17633	0.015201	0.17974	0.09629	0.040405	0.11755	0.1437	-2.8104	-3.1271	-3.2292	-2.8479	-3.1917	-3.3271	-2.8958	-3.4062	-3.1979	-3.0104	-3.5812	-2.925	-3.2771	-3.2792	-2.8479	-3.6604	351.658	191.530	337.844	218.627	375.138	335.270	69.821	364.323	285.739	132.813	250.082	91.677	254.036	224.395	66.746	238.082	0.00025132	0.00033697	4.9808e-05	565.86	2.8807e-06	1.7609e-06	531.78	189.96	2.0484e-06	5.16e-07	192.16	56.71	54.133	13.928	2.9801e-06	19.889	5.9643e-05	4.8902e-05	1.2945e-05	541.61	5.5885e-07	5.0493e-07	507.14	182.66	5.7044e-07	5.3775e-07	182.99	54.573	51.721	13.566	5.4714e-07	19.14	84.742	133.660	153.924	29.866	153.696	209.682	27.636	36.104	170.651	44.649	32.684	37.447	40.251	47.166	198.847	42.540	-8191	255	
2157.115	1	1	0	0	0.052479	0.25508	0.080434	0.32508	0.096315	0.1294	0.17207	0.27318	0.17528	0.17272	0.077987	0.25081	0.15586	0.070793	0.41446	0.16858	-2.8417	-2.9667	-3.4333	-3.0458	-3.1271	-3.4479	-2.7708	-3.3208	-3.0646	-2.9375	-3.3458	-3.0229	-3.0021	-3.3833	-2.9938	-3.3208	188.486	61.036	130.583	257.554	245.958	86.836	54.159	295.169	104.217	119.757	85.369	333.846	50.898	337.671	81.356	299.776	0.0002901	0.0001651	9.75e-05	564.19	2.6904e-06	2.1219e-06	529.03	189.7	1.9167e-06	2.0815e-06	191.81	58.25	54.793	14.023	3.2914e-06	20.134	5.9985e-05	5.2109e-05	1.3581e-05	541.07	5.3786e-07	5.1675e-07	509.78	182.69	5.478e-07	5.5185e-07	184.15	55.528	52.003	13.609	5.7635e-07	19.394	77.502	56.871	119.343	29.973	146.206	181.418	28.036	36.383	128.260	174.872	33.272	37.448	40.148	47.051	181.678	42.038	-8191	255	
2157.211	1	1	0	0	0.12762	0.2201	0.30397	0.12943	0.08311	0.22203	0.3154	0.20186	0.12712	0.19412	0.024381	0.0047696	0.088374	0.025758	0.23689	0.16232	-2.7354	-2.8979	-3.5438	-2.9188	-3.1729	-3.3854	-2.85	-3.3479	-3.2792	-2.7875	-3.5833	-2.9021	-3.0354	-3.5958	-2.5521	-3.3458	140.974	183.982	363.861	28.147	20.143	291.757	241.078	340.489	253.321	201.466	285.122	215.251	105.124	191.837	240.586	192.822	0.0002352	0.00017652	6.1993e-05	565.99	1.8249e-06	1.333e-06	535.81	191.05	2.2362e-06	5.5871e-07	194.61	58.405	54.253	14.12	3.5848e-06	20.247	5.8072e-05	4.875e-05	1.3604e-05	543.02	5.497e-07	5.114e-07	514.65	183.79	5.5953e-07	5.5068e-07	186.14	56.124	52.11	13.638	5.3491e-07	19.462	89.043	113.379	92.806	29.419	117.325	130.791	27.964	35.914	136.492	177.332	33.404	37.896	40.072	47.495	153.465	42.800	-8191	255	
2157.307	1	1	0	0	0.05926	0.12529	0.14655	0.049406	0.12006	0.034408	0.23096	0.23957	0.096915	0.15906	0.13113	0.097487	0.2949	0.090263	0.19881	0.22088	-2.8271	-2.5542	-3.525	-3.0167	-2.9729	-3.5396	-2.9125	-3.1646	-3.3792	-2.8375	-3.5333	-3.1083	-2.8896	-3.4062	-2.7917	-3.2625	59.467	248.180	155.796	164.311	285.104	145.131	289.534	284.223	317.256	330.707	301.298	192.803	80.546	285.533	332.387	212.167	0.00030116	0.00014601	8.8557e-05	567.13	3.4823e-06	3.0648e-06	530.37	189.32	2.9607e-06	3.0413e-06	191.86	56.922	53.366	13.778	2.3577e-06	19.58	5.8805e-05	5.1845e-05	1.3697e-05	541.04	5.4089e-07	5.3209e-07	507.91	182.09	5.4361e-07	5.7219e-07	182.26	54.692	51.501	13.506	5.218e-07	18.945	83.792	55.526	141.600	29.673	181.745	159.127	28.062	36.080	189.841	164.512	32.607	37.687	40.449	47.630	139.415	42.550	-8191	255	
2157.426	1	1	0	0	0.19843	0.18868	0.13446	0.18346	0.20952	0.014679	0.18619	0.14366	0.17656	0.15453	0.19969	0.091671	0.22007	0.10429	0.032777	0.25433	-2.9896	-2.6729	-3.3021	-3.1896	-2.9229	-3.3812	-3.075	-3.0687	-3.3354	-2.9271	-3.2542	-3.2208	-2.6271	-3.5563	-2.9188	-2.9604	106.622	347.531	118.813	134.504	39.387	47.520	311.703	56.363	164.767	61.288	190.659	341.855	17.963	167.895	248.347	308.646	0.00024056	0.0002182	2.6701e-05	565.92	1.4784e-06	1.464e-06	529.53	190.46	2.3353e-06	2.2441e-06	190.99	57.654	53.572	13.958	3.0293e-06	19.685	6.1475e-05	5.1287e-05	1.3471e-05	540.49	5.6122e-07	5.2026e-07	507.16	182.68	5.4956e-07	5.2242e-07	183.43	54.871	51.606	13.584	5.6877e-07	19.15	84.637	101.827	135.487	30.013	138.090	171.944	28.128	35.881	156.329	166.789	32.961	38.184	40.414	47.684	142.639	42.498	-8191	255	
2157.522	1	1	0	0	0.1246	0.16767	0.16947	0.099207	0.15354	0.29482	0.18631	0.065103	0.35645	0.25792	0.19533	0.010232	0.18854	0.22374	0.1681	0.11249	-3.1979	-2.7542	-3.3208	-3.4917	-3.0375	-3.6021	-3.1813	-3.0625	-3.5833	-2.825	-3.1542	-3.425	-2.7542	-3.4604	-3.1542	-2.8708	220.939	205.631	141.655	312.187	303.177	212.321	259.041	354.091	64.697	344.109	98.087	127.636	367.491	272.422	66.549	260.114	0.00020596	9.7001e-05	9.3143e-05	568.88	3.7117e-06	4.3437e-06	531.32	188.52	2.9008e-06	1.5756e-06	191.51	58.16	54.253	13.847	3.6689e-06	19.991	5.741e-05	5.0886e-05	1.3994e-05	542.41	5.6876e-07	5.4413e-07	510.52	182.17	5.7815e-07	5.475e-07	183.99	55.453	52.011	13.529	5.3845e-07	19.342	93.887	127.319	117.334	29.823	137.373	150.499	27.885	36.414	154.771	174.274	33.036	38.443	40.681	47.205	178.005	42.479	-8191	255	
2157.594	1	1	0	0	0.06642	0.18635	0.028699	0.094415	0.28946	0.24592	0.15963	0.18399	0.081942	0.089804	0.053472	0.094752	0.28114	0.15965	0.17909	0.1065	-3.2833	-2.9083	-3.0604	-3.3812	-2.7958	-3.3271	-3.1417	-2.8854	-3.6	-2.9229	-3.2188	-3.3812	-2.8854	-3.2354	-3.2792	-2.9042	31.589	119.043	162.276	314.020	147.014	209.624	156.056	354.088	31.718	135.240	121.414	79.253	364.642	259.440	210.085	19.994	0.00022622	0.00014786	1.3087e-05	570.08	1.2856e-06	3.8115e-06	534.36	189.39	1.7057e-06	2.0368e-06	195.12	58.494	54.463	14.071	3.0489e-06	20.227	6.1109e-05	5.2205e-05	1.3819e-05	544.17	5.6122e-07	5.4898e-07	511.69	183.19	5.9793e-07	5.5664e-07	186.63	56.265	52.308	13.674	5.4481e-07	19.486	83.181	113.797	144.076	29.037	142.103	168.675	27.782	35.731	147.177	195.569	32.727	38.652	40.393	47.069	214.627	41.878	-8191	255	
2157.714	1	1	0	0	0.12762	0.11629	0.23458	0.11185	0.14887	0.13908	0.12123	0.21361	0.20366	0.25438	0.1622	0.32565	0.055326	0.27757	0.24858	0.27492	-3.0333	-2.975	-3.1437	-3.4125	-2.85	-3.4125	-3.4396	-2.85	-3.4458	-3.1042	-2.8479	-3.4604	-2.8	-3.2104	-3.2292	-2.7792	309.934	158.808	134.995	205.987	260.132	148.028	51.727	80.880	268.182	39.109	261.079	314.013	342.024	32.315	315.972	89.514	0.00018573	0.00039799	7.8444e-05	565.7	3.4811e-06	1.7036e-06	529.03	188.49	3.0163e-06	1.4529e-06	191.24	57.313	53.247	13.887	2.4367e-06	19.407	6.1456e-05	5.1272e-05	1.4124e-05	540.8	5.9002e-07	5.6521e-07	507.93	181.86	5.5281e-07	5.2471e-07	182.6	54.9	51.497	13.487	5.3839e-07	18.841	91.728	122.979	129.096	29.767	175.405	180.062	27.693	36.366	147.918	209.805	32.440	38.407	40.736	47.842	207.257	42.446	-8191	255	
2157.811	1	1	0	0	0.12604	0.090534	0.12345	0.16678	0.25994	0.26851	0.21191	0.14358	0.12976	0.084503	0.18943	0.16257	0.060382	0.12434	0.23979	0.21685	-3.2083	-2.9646	-2.7729	-3.3417	-2.7542	-3.2292	-3.1896	-2.9875	-3.4208	-3.0958	-2.9542	-3.5104	-2.7771	-3.1792	-3.3604	-2.7188	50.139	102.339	374.785	309.772	60.228	315.189	29.195	25.680	31.032	320.114	313.082	149.508	83.891	33.636	25.528	247.866	0.00023462	0.00017571	6.482e-05	563.19	1.0033e-06	3.0121e-06	529.19	189.16	1.826e-06	2.9803e-06	190.81	57.679	53.926	13.897	2.7384e-06	19.616	6.3251e-05	5.0871e-05	1.468e-05	539.24	5.5797e-07	5.4246e-07	505.78	182.01	6.035e-07	5.3886e-07	182.88	55.151	51.765	13.537	5.525e-07	19.103	92.465	110.214	91.147	29.862	109.615	183.516	27.406	35.926	184.100	200.483	33.073	38.193	40.975	47.438	193.613	42.804	-8191	255	
2157.907	1	1	0	0	0.25628	0.25171	0.21706	0.15349	0.097213	0.16528	0.12791	0.097024	0.081131	0.19038	0.21917	0.12573	0.15843	0.19391	0.22857	0.087448	-3.275	-3.0354	-2.8646	-3.3896	-2.8604	-3.1667	-3.4813	-2.9021	-3.1542	-3.3583	-2.7917	-3.4729	-3.0354	-2.9521	-3.275	-2.7542	65.799	127.790	201.186	312.109	104.628	348.235	281.201	373.539	23.137	112.655	90.164	296.623	45.939	22.269	316.919	213.847	0.00025752	0.00018132	7.9395e-05	564.33	3.0125e-06	2.3324e-06	530.47	189.74	3.1386e-06	1.6911e-06	193.19	58.563	54.08	14.049	5.1621e-06	20.209	6.3046e-05	4.9557e-05	1.4124e-05	541.59	5.7003e-07	5.68e-07	508.93	182.3	6.0366e-07	5.2783e-07	184.79	55.925	52.151	13.646	5.6191e-07	19.429	81.272	197.655	141.917	30.140	152.257	147.929	27.947	36.137	182.592	119.089	32.773	38.002	40.674	47.037	186.768	42.723	-8191	255	
2158.003	1	1	0	0	0.061331	0.32195	0.10965	0.11642	0.098387	0.17033	0.23564	0.12793	0.30467	0.09673	0.33615	0.16588	0.16475	0.050043	0.12052	0.21462	-2.8458	-3.2708	-2.7333	-3.5104	-2.8812	-3.0417	-3.575	-2.8042	-3.3563	-3.1417	-2.8042	-3.5042	-2.9062	-3.0521	-3.4583	-2.7229	138.977	76.993	227.651	38.400	145.489	275.834	298.697	367.350	241.734	44.335	310.715	257.142	239.564	196.833	257.733	130.470	0.00023145	0.00018532	7.5961e-05	563.5	1.8346e-06	2.1409e-06	534.41	190.76	1.2064e-06	2.8832e-06	193.14	58.536	54.311	14.117	2.447e-06	20.115	6.326e-05	4.8948e-05	1.4093e-05	541.14	5.6617e-07	5.6666e-07	513.16	183.48	5.9793e-07	5.7486e-07	186.09	56.484	52.349	13.695	5.6622e-07	19.459	83.424	129.107	108.355	29.515	196.376	63.588	27.803	36.129	195.660	162.661	32.596	38.529	41.149	46.503	194.323	42.924	-8191	255	
2158.123	1	1	0	0	0.27892	0.054577	0.21538	0.095488	0.2949	0.19033	0.22374	0.12533	0.23555	0.14428	0.13506	0.20606	0.14259	0.15286	0.16368	0.064702	-2.9583	-3.3354	-2.7208	-3.3354	-3.1792	-2.9062	-3.6417	-2.9146	-3.2521	-3.3312	-2.8	-3.4271	-3.0833	-2.8438	-3.6521	-2.6646	229.161	122.848	129.191	142.819	199.147	331.682	46.779	350.627	331.424	56.740	324.920	79.114	304.292	287.446	86.670	253.890	0.00022046	0.00016002	8.4568e-05	562.8	3.6552e-06	6.089e-07	525.25	190.27	1.254e-06	7.4874e-07	191.39	57.889	53.572	14.14	8.0494e-07	19.793	5.91e-05	5.3129e-05	1.4934e-05	539.56	5.5813e-07	5.6677e-07	506.68	182.22	5.8515e-07	5.3953e-07	182.68	55.363	51.906	13.677	5.4105e-07	19.029	86.707	75.971	112.273	29.707	115.204	172.659	27.755	36.134	214.736	111.232	32.814	38.164	40.425	47.621	215.893	42.255	-8191	255	
2158.218	1	1	0	0	0.28176	0.046381	0.31792	0.15751	0.20938	0.16142	0.24052	0.081245	0.16384	0.23482	0.020485	0.25477	0.10582	0.103	0.10713	0.037945	-2.7646	-3.3854	-2.8	-3.3896	-3.0646	-2.9521	-3.4354	-2.9688	-3.0563	-3.6229	-2.7708	-3.3771	-3.2167	-2.8521	-3.3333	-3.2625	203.700	103.230	52.235	281.661	183.949	147.496	28.250	227.832	88.173	268.642	113.085	311.554	363.015	376.321	31.471	203.511	0.00023516	0.00020685	3.7421e-05	567.65	1.5259e-06	2.4671e-06	534.37	191.32	2.1462e-06	2.1683e-06	193.57	58.299	54.504	14.208	3.7261e-06	19.944	6.296e-05	5.1383e-05	1.4186e-05	538.75	5.7455e-07	5.8361e-07	507.15	182.42	6.2856e-07	5.5235e-07	183.66	55.475	51.989	13.632	5.5831e-07	19.222	82.478	136.385	133.728	28.850	105.527	177.157	27.410	35.873	175.800	215.601	32.730	36.944	40.255	46.508	187.305	42.118	-8191	255	
2158.291	1	1	0	0	0.21422	0.034763	0.11568	0.15257	0.18291	0.3754	0.11751	0.28172	0.23284	0.27079	0.32869	0.16086	0.29174	0.056312	0.14787	0.0076894	-2.4688	-3.4	-2.7958	-3.1188	-3.3229	-2.8521	-3.4625	-3.0396	-3.0271	-3.4562	-2.8271	-3.2208	-3.375	-2.6688	-3.3771	-3.2188	119.867	21.679	134.681	75.938	113.908	65.594	368.252	354.903	144.526	151.801	300.987	334.844	49.949	283.339	32.634	80.924	0.00028843	0.00028616	8.315e-05	570.35	2.9695e-06	3.9584e-06	538.79	191.85	1.1253e-06	1.7372e-06	195.4	59.334	54.666	14.238	3.3029e-06	20.313	6.2851e-05	5.2109e-05	1.5132e-05	541.88	5.6226e-07	5.7608e-07	510.12	182.66	5.9573e-07	5.5625e-07	184.92	56.241	52.343	13.756	5.7784e-07	19.497	87.111	124.721	135.405	29.109	75.603	159.221	27.461	35.718	145.787	174.463	32.493	37.022	40.350	47.044	209.823	41.965	-8191	255	
2158.387	1	1	0	0	0.13446	0.24207	0.16261	0.20399	0.038224	0.057949	0.29854	0.41118	0.14144	0.25835	0.21429	0.079635	0.18698	0.03663	0.32641	0.22402	-2.5479	-3.3667	-2.6479	-3.2292	-3.4437	-2.6562	-3.4688	-3.1167	-2.9792	-3.5167	-2.9292	-3.025	-3.3625	-2.85	-3.3375	-3.2021	120.592	144.507	268.658	268.061	177.193	332.886	364.739	317.698	173.388	98.068	32.017	349.965	268.947	23.099	217.827	246.703	0.00029766	0.00029501	4.0499e-05	574.23	1.5254e-06	1.8794e-06	536.89	192.89	2.6214e-06	1.8132e-06	198.26	59.883	55.307	14.354	3.3764e-06	20.584	6.7416e-05	5.046e-05	1.4069e-05	543.94	5.6017e-07	5.9549e-07	514.66	183.87	6.2702e-07	5.285e-07	187.76	57.337	52.881	13.874	5.7778e-07	19.85	82.374	137.677	112.359	29.250	133.680	84.112	27.794	35.917	179.328	166.298	32.788	37.426	40.092	46.808	219.713	42.167	-8191	255	
2158.506	1	1	0	0	0.15526	0.12965	0.22	0.098465	0.25657	0.094626	0.18681	0.045719	0.014072	0.011533	0.29688	0.17995	0.10426	0.092924	0.14535	0.13886	-2.3979	-3.4813	-2.9833	-3.2125	-3.4333	-3.0042	-3.2854	-3.3104	-2.8063	-3.5167	-2.9625	-3.0667	-3.4729	-2.9146	-3.2417	-3.4938	288.026	174.096	289.219	98.262	309.009	206.006	50.897	38.063	169.575	204.026	82.804	118.644	244.587	29.300	44.591	313.225	0.00024828	0.00031365	2.2165e-05	565.3	2.469e-06	2.0899e-06	530.73	189.77	1.3176e-06	3.0713e-06	194.08	58.631	54.505	14.068	1.7036e-06	19.84	6.5969e-05	5.1434e-05	1.422e-05	542.49	5.9118e-07	5.7848e-07	509.89	182.72	6.2729e-07	5.5291e-07	184.54	55.961	52.324	13.725	5.6229e-07	19.189	76.097	106.710	131.181	29.817	138.855	169.134	28.286	36.690	146.045	162.235	32.360	37.560	40.320	46.817	201.636	42.621	-8191	255	
2158.602	1	1	0	0	0.23946	0.11425	0.074395	0.32096	0.10533	0.076024	0.063033	0.15148	0.095467	0.15509	0.18812	0.11347	0.093803	0.17964	0.1237	0.22421	-2.3937	-3.2562	-2.9583	-2.9792	-3.5292	-2.9396	-3.3	-3.3812	-2.7938	-3.3271	-3.1437	-2.8583	-3.5208	-2.9333	-3.2333	-3.3708	269.237	312.103	42.289	269.002	97.591	115.330	160.281	296.985	143.226	198.553	319.817	294.831	79.459	118.758	351.705	75.607	0.00024387	0.00033031	5.9204e-05	566.91	4.2056e-06	1.6625e-06	531.17	190.98	1.8906e-06	2.793e-06	192.38	58.191	54.557	14.084	2.251e-06	19.918	6.208e-05	5.2403e-05	1.3444e-05	540.46	5.7256e-07	5.4396e-07	507.15	183.08	6.0989e-07	5.8099e-07	184.69	56.133	52.633	13.763	5.7856e-07	19.321	80.015	99.882	109.600	29.800	122.808	143.477	27.784	36.374	177.806	185.582	32.883	38.099	40.925	47.648	156.186	42.835	-8191	255	
2158.699	1	1	0	0	0.10409	0.21884	0.25211	0.18886	0.27781	0.10656	0.18167	0.19018	0.28134	0.16098	0.11656	0.24139	0.16541	0.21399	0.35152	0.10391	-2.5479	-3.4125	-2.9979	-2.8438	-3.5146	-2.8521	-3.0354	-3.3	-2.8833	-3.3563	-3.2542	-2.8667	-3.5312	-2.85	-3.1146	-3.4458	295.778	304.119	50.475	87.653	305.064	156.602	216.392	164.326	41.453	44.135	61.094	336.426	332.699	269.121	270.152	355.227	0.00030819	0.00015205	9.1272e-05	565.55	4.1437e-06	1.02e-06	531.62	188.56	8.1489e-07	1.9367e-06	193.2	59.253	54.456	14.083	1.5694e-06	20.154	6.4926e-05	5.0972e-05	1.359e-05	540.92	5.8688e-07	5.6526e-07	510.57	182.28	6.284e-07	5.6868e-07	186.33	56.666	52.596	13.756	6.0528e-07	19.537	85.119	81.403	142.038	29.808	141.084	189.486	28.315	36.437	150.339	177.647	32.984	38.050	40.393	47.471	207.481	42.300	-8191	255	
2158.795	1	1	0	0	0.21382	0.2785	0.069522	0.088355	0.28518	0.064803	0.29262	0.18436	0.014754	0.24411	0.064309	0.068231	0.30626	0.12754	0.20957	0.21909	-2.3312	-3.2271	-3.2438	-2.8292	-3.3021	-3.1375	-3.1063	-3.4229	-2.9125	-3.1813	-3.4896	-2.7917	-3.55	-3.0083	-3.1354	-3.5917	213.603	323.912	197.397	337.175	178.556	284.325	273.501	42.098	64.050	361.488	329.578	205.776	47.660	38.450	225.242	144.748	0.00028226	0.00013939	8.7946e-05	561.51	4.3135e-06	3.4012e-06	537.16	188.95	3.3444e-06	2.1441e-06	196.32	60.015	55.148	14.249	7.8076e-07	20.49	6.7825e-05	5.1175e-05	1.4352e-05	541.24	6.066e-07	5.4212e-07	513.97	183.4	6.2845e-07	5.684e-07	188.04	57.469	52.993	13.831	6.1026e-07	19.76	91.535	124.178	101.207	30.121	133.584	164.935	28.084	36.365	123.794	197.256	33.120	38.398	40.459	47.501	165.667	42.448	-8191	255	
2158.891	1	1	0	0	0.10585	0.09736	0.29581	0.067469	0.26258	0.11205	0.21795	0.35126	0.088493	0.13714	0.11865	0.21109	0.10958	0.05889	0.33665	0.11507	-2.45	-3.1125	-3.3042	-2.7938	-3.4167	-3.2958	-2.9604	-3.525	-2.7271	-3.225	-3.4708	-2.7542	-3.2583	-3.0479	-2.5979	-3.4875	145.121	264.611	128.699	266.805	33.756	98.266	251.481	26.150	72.434	31.538	330.100	358.707	331.709	55.248	174.995	323.432	0.00027778	0.00027071	5.8514e-05	564.48	4.23e-06	2.2387e-06	529.28	188.95	2.0193e-06	3.1503e-06	191.31	57.426	54.7	14.099	3.9759e-06	19.584	6.3831e-05	5.5894e-05	1.4403e-05	541.43	6.0732e-07	5.3749e-07	509.32	182.43	6.0553e-07	5.7486e-07	183.89	55.678	52.432	13.652	6.0367e-07	18.991	84.298	91.203	103.209	29.525	145.585	141.355	27.990	36.819	199.691	218.790	33.015	38.233	40.426	46.849	194.691	42.766	-8191	255	
2158.987	1	1	0	0	0.2028	0.15832	0.19289	0.18418	0.10799	0.0071188	0.26364	0.24702	0.19843	0.099376	0.29285	0.20126	0.24153	0.24821	0.14106	0.13922	-2.5563	-3.0333	-3.2125	-2.6562	-3.2771	-3.2375	-2.7542	-3.5208	-2.7938	-3.1604	-3.2812	-2.6583	-3.1458	-3.4458	-2.7812	-3.4208	260.215	292.098	76.306	198.310	289.296	256.271	188.865	376.250	239.148	352.228	216.156	311.481	76.409	23.034	129.484	116.230	0.00023992	0.00036937	3.8794e-05	556.34	1.933e-06	2.2031e-06	527.79	188.84	1.3538e-06	1.4007e-06	193.67	57.854	54.292	14.064	1.3667e-06	19.799	6.3903e-05	5.4022e-05	1.3374e-05	535.31	6.1641e-07	5.4569e-07	504.55	181.83	5.9121e-07	5.563e-07	184.1	55.755	52.267	13.736	5.9007e-07	19.128	94.745	117.358	126.386	29.936	119.371	227.270	28.115	36.062	176.759	132.488	33.317	38.048	40.810	47.970	263.405	42.357	-8191	255	
2159.108	1	1	0	0	0.12042	0.13754	0.32933	0.14952	0.16953	0.075499	0.067645	0.14934	0.24839	0.061102	0.037753	0.14888	0.29459	0.23956	0.11492	0.11896	-2.4729	-2.8646	-3.4042	-2.7854	-3.1063	-3.3333	-2.8021	-3.2938	-3.1292	-2.675	-3.4167	-2.8958	-3.1063	-3.4479	-2.8042	-3.4437	149.840	150.808	318.905	281.040	86.782	141.189	142.915	347.976	155.476	103.240	281.808	174.034	248.634	144.677	37.340	123.024	0.00025027	0.0002506	1.9697e-05	564.18	3.3448e-06	3.1814e-06	528.53	188.05	2.4986e-06	1.8374e-06	192.78	58.824	54.142	13.978	1.8238e-06	19.795	6.3708e-05	5.4864e-05	1.4347e-05	539.54	6.0032e-07	5.7168e-07	506.9	181.52	5.8085e-07	5.6026e-07	185.07	56.343	52.375	13.668	5.9704e-07	19.293	83.672	108.152	201.207	29.908	140.882	191.852	27.640	36.483	170.188	112.793	33.120	38.134	40.786	47.317	222.364	42.978	-8191	255	
2159.204	1	1	0	0	0.10271	0.29721	0.32863	0.024195	0.1687	0.12885	0.17848	0.24983	0.12129	0.24451	0.11943	0.13941	0.048922	0.065584	0.24277	0.22563	-2.7812	-2.8104	-3.4437	-2.7062	-3.0833	-3.4479	-2.8208	-3.3	-3.1396	-2.8708	-3.5146	-2.9104	-3.0708	-3.2687	-2.75	-3.2375	260.028	187.170	53.956	64.941	155.386	133.955	229.549	287.839	109.606	313.775	180.222	52.103	175.682	138.833	167.630	53.264	0.00027828	0.00013038	8.2371e-05	563.84	2.2304e-06	2.6142e-06	535.15	190.6	2.8945e-06	1.669e-06	194.21	59.408	54.44	14.252	2.1032e-06	20.184	6.3822e-05	5.461e-05	1.3962e-05	540.08	5.7895e-07	5.4664e-07	511.56	183.18	6.1936e-07	5.7715e-07	187.32	57.143	52.671	13.851	6.1977e-07	19.562	83.628	102.160	116.150	29.630	165.606	180.952	27.795	36.186	171.454	220.713	33.151	38.109	40.776	46.749	115.163	43.005	-8191	255	
2159.298	1	1	0	0	0.087923	0.26774	0.15002	0.038852	0.10437	0.16047	0.17191	0.15712	0.18881	0.23362	0.11872	0.25553	0.27601	0.056543	0.12545	0.23994	-2.8583	-2.7771	-3.4604	-3.0208	-3.1021	-3.4292	-2.7562	-3.4375	-3.2021	-2.8688	-3.4021	-3.1167	-2.8146	-3.3771	-2.8583	-3.2042	87.341	189.007	170.694	88.870	241.815	90.049	202.991	364.584	215.320	246.732	287.445	374.056	344.029	327.307	78.528	265.970	0.00025223	0.00018979	3.9014e-05	561.92	1.5687e-06	3.4051e-06	528.73	189.36	1.7387e-06	2.6353e-06	193.09	58.457	54.455	13.735	2.9174e-06	19.678	6.2637e-05	5.5026e-05	1.4339e-05	540.6	6.3712e-07	5.5523e-07	508.26	182.36	6.1727e-07	5.9999e-07	184.58	56.104	52.412	13.566	5.6987e-07	19.021	78.667	113.854	147.558	29.756	218.063	151.808	28.308	36.342	156.132	159.131	33.356	37.623	40.501	47.644	218.501	42.336	-8191	255	
2159.396	1	1	0	0	0.47253	0.14122	0.065934	0.2355	0.032378	0.19354	0.23167	0.21615	0.18617	0.16061	0.051679	0.026366	0.1851	0.08177	0.016912	0.065013	-2.7729	-2.6063	-3.5187	-2.9854	-2.9375	-3.6104	-2.7562	-3.2354	-3.3271	-2.8292	-3.5167	-3.1437	-2.8854	-3.4208	-2.9271	-3.0854	19.022	20.586	287.426	96.043	317.730	259.995	291.497	47.481	318.253	189.145	371.711	21.889	294.620	234.668	165.378	172.982	0.00023487	0.00018165	4.7703e-05	561.9	2.8596e-06	4.1306e-06	522.74	188.71	2.253e-06	1.1215e-06	193.09	58.066	54.273	13.854	2.7853e-06	19.79	6.277e-05	5.2682e-05	1.4828e-05	538.91	6.266e-07	5.5305e-07	502.65	181.43	5.8151e-07	5.7559e-07	183.86	55.943	52.112	13.57	5.6904e-07	19.135	83.566	85.958	121.616	30.040	156.159	170.986	28.176	36.244	140.636	208.298	33.162	38.037	40.581	47.082	246.441	42.177	-8191	255	
2159.515	1	1	0	0	0.072511	0.31146	0.28007	0.20941	0.078747	0.079803	0.0708	0.15268	0.08179	0.26522	0.22054	0.096144	0.17505	0.18033	0.18813	0.081175	-2.9604	-2.9667	-3.3521	-3.0479	-2.8021	-3.4833	-2.8417	-3.1813	-3.3771	-2.7021	-3.3979	-3.1854	-3.0021	-3.4562	-3.1375	-2.7958	40.341	104.197	337.471	352.887	51.367	69.472	40.900	175.123	118.845	143.560	341.223	66.387	135.951	283.422	205.124	245.101	0.00021267	0.00023703	8.9846e-05	560.09	1.6033e-06	2.789e-06	523.32	186.59	1.2617e-06	1.8914e-06	192.06	58.284	54.341	13.929	5.6238e-07	19.688	6.2361e-05	5.1992e-05	1.4534e-05	537.58	6.2269e-07	5.714e-07	504.64	181.49	5.9936e-07	6.0027e-07	184.17	56.209	52.209	13.635	5.6655e-07	19.214	85.839	91.411	100.587	29.848	164.673	218.879	28.075	36.247	134.729	151.068	33.071	38.290	40.602	47.037	149.525	42.578	-8191	255	
2159.587	1	1	0	0	0.13772	0.19152	0.17017	0.10224	0.20125	0.10193	0.13384	0.23432	0.19221	0.12632	0.19891	0.33632	0.17267	0.15401	0.14017	0.084149	-3.1	-2.6375	-3.3792	-3.1833	-2.8208	-3.4708	-3.0312	-3.0208	-3.4729	-2.95	-3.3042	-3.2958	-2.7729	-3.3042	-3.0062	-3.0312	38.480	55.595	19.416	37.718	313.951	187.545	57.530	50.701	92.238	259.827	118.033	44.265	70.204	374.464	261.125	338.037	0.00029507	0.00029777	0.00012415	561.87	2.6169e-06	2.5348e-06	534.65	188.86	4.3167e-06	2.0511e-06	197.1	59.766	54.708	14.164	3.4195e-06	20.258	6.4655e-05	5.152e-05	1.442e-05	539.81	6.2406e-07	5.7196e-07	511.28	182.08	6.1539e-07	5.6071e-07	187.68	57.205	52.532	13.729	5.8658e-07	19.527	84.080	124.003	114.939	30.023	87.888	144.967	28.222	36.117	176.710	155.525	32.850	37.785	40.539	47.393	196.457	42.022	-8191	255	
2159.683	1	1	0	0	0.099631	0.1674	0.19854	0.25183	0.18015	0.16473	0.087829	0.19336	0.088458	0.20317	0.19776	0.023501	0.021853	0.2093	0.25856	0.22816	-3.1958	-2.5833	-3.15	-3.4604	-2.9333	-3.3125	-3.0583	-2.8646	-3.3792	-2.9521	-3.1479	-3.3542	-2.6875	-3.4958	-3.1333	-2.825	303.159	203.654	188.834	102.578	211.295	356.050	195.717	371.940	48.913	90.746	362.600	312.130	342.206	127.340	314.030	201.083	0.00020105	0.0001609	5.5612e-05	566.06	1.0178e-06	2.624e-06	531.18	188.6	3.0954e-06	1.514e-06	192.86	58.38	54.257	14.092	2.3818e-06	19.648	6.4441e-05	5.1023e-05	1.5302e-05	540.81	6.082e-07	5.5411e-07	509.13	181.2	6.0058e-07	5.636e-07	184.56	56.092	52.174	13.626	6.0622e-07	18.887	78.583	43.410	118.478	29.619	226.035	147.806	27.944	36.202	166.456	202.084	32.865	37.939	40.716	46.919	155.878	42.061	-8191	255	
2159.779	1	1	0	0	0.04979	0.067088	0.028435	0.030857	0.1437	0.091271	0.095632	0.16392	0.16372	0.18364	0.12569	0.074232	0.10766	0.18379	0.078367	0.26431	-3.0729	-2.7646	-2.925	-3.3438	-2.8417	-3.0771	-3.3208	-2.7833	-3.625	-2.8958	-2.9896	-3.3854	-2.8396	-3.2396	-3.3271	-2.7979	288.836	224.501	80.483	282.673	321.513	77.847	323.422	362.234	278.744	170.225	62.439	104.178	375.970	27.333	317.275	88.376	0.00025663	0.00024539	4.7043e-05	564.71	1.9581e-06	1.5126e-06	526.91	189.38	2.1524e-06	1.9383e-07	192.84	58.436	55.002	13.986	2.4093e-06	19.694	6.2008e-05	5.2139e-05	1.4976e-05	536.69	6.1949e-07	5.5785e-07	503.44	181.12	5.9237e-07	5.6271e-07	183.78	55.963	52.278	13.588	5.8951e-07	19.02	87.489	95.573	118.664	29.238	148.082	102.386	27.883	35.744	157.097	181.604	32.760	37.769	40.188	46.661	184.336	42.425	-8191	255	
2159.900	1	1	0	0	0.051029	0.10005	0.14463	0.30397	0.37438	0.058655	0.23657	0.1859	0.086631	0.19754	0.28057	0.0091097	0.14665	0.050328	0.18034	0.092584	-2.9875	-2.9437	-2.9167	-3.4208	-2.7417	-3.1771	-3.3458	-2.9083	-3.4583	-3.1083	-2.9354	-3.4542	-2.8312	-3.0979	-3.3125	-2.9167	125.439	233.271	308.749	23.392	244.644	58.740	249.041	192.892	168.230	107.711	260.087	181.182	239.197	178.409	157.684	362.738	0.00025545	0.00032696	4.3995e-05	566.59	3.7126e-06	3.3813e-07	530.11	189.01	3.1829e-06	6.0597e-07	193.56	58.633	54.387	14.156	2.5738e-06	20.014	6.178e-05	5.527e-05	1.4902e-05	538.94	5.6623e-07	5.8484e-07	508.12	181.63	5.9303e-07	5.8617e-07	185.27	56.54	52.325	13.691	5.9161e-07	19.272	81.200	113.842	169.708	29.855	145.982	146.193	28.064	36.026	167.724	125.913	32.593	38.034	40.197	47.008	174.215	42.075	-8191	255	
2159.996	1	1	0	0	0.28468	0.11875	0.12085	0.1828	0.12232	0.25545	0.24073	0.11447	0.073153	0.050971	0.16048	0.077323	0.06269	0.10766	0.12559	0.049046	-2.975	-3.0521	-2.7562	-3.3917	-2.9917	-3.2521	-3.5104	-2.9458	-3.2542	-2.9833	-2.9958	-3.4562	-2.8542	-2.9313	-3.5479	-2.8833	149.217	76.431	127.467	338.996	239.516	315.818	313.232	89.036	150.228	134.432	52.192	332.422	323.940	331.074	127.863	319.075	0.00025274	0.00035585	7.5767e-05	566.24	3.2026e-06	2.8876e-06	535.18	189.62	1.9784e-06	2.8915e-06	196.68	60.141	55.09	14.284	3.1701e-06	20.373	6.475e-05	5.2631e-05	1.5262e-05	540.75	6.0677e-07	5.8774e-07	514.39	182.43	5.9942e-07	5.8445e-07	188.43	57.656	52.883	13.862	5.5814e-07	19.65	84.943	115.331	92.881	30.200	135.869	156.242	27.992	36.231	149.450	168.443	32.557	37.556	40.416	46.805	222.089	42.303	-8191	255	
2160.092	1	1	0	0	0.20639	0.094325	0.018676	0.047738	0.027755	0.056388	0.10391	0.27307	0.2568	0.14148	0.085644	0.36471	0.058202	0.034863	0.15045	0.18803	-2.8812	-3.1896	-2.7729	-3.3833	-2.9375	-3.2313	-3.5208	-2.9333	-3.2521	-3.425	-2.8063	-3.4	-2.8812	-2.9896	-3.525	-2.7958	116.523	345.737	207.000	299.998	291.222	328.127	241.066	132.751	300.286	77.648	25.845	279.596	348.441	31.128	42.183	166.166	0.00026675	0.00042148	0.00010658	566.96	2.022e-06	2.7443e-06	532.76	189.29	2.2916e-06	2.2351e-06	193.93	59.119	54.421	14.043	1.9833e-06	19.907	6.5864e-05	5.2987e-05	1.4803e-05	541.57	5.9911e-07	6.1367e-07	512.19	182.1	6.1391e-07	5.9269e-07	185.68	56.633	52.42	13.691	5.9427e-07	19.038	88.982	77.868	144.195	29.238	163.828	176.038	27.698	36.256	121.058	126.100	32.543	38.030	40.471	46.758	198.660	42.283	-8191	255	
2160.188	1	1	0	0	0.067378	0.35486	0.17431	0.28712	0.40824	0.24463	0.083979	0.15718	0.19205	0.15089	0.12688	0.19489	0.15212	0.2209	0.11557	0.36487	-2.8708	-3.1708	-2.6208	-3.4208	-2.8979	-2.9833	-3.4875	-2.8958	-3.0292	-3.3542	-2.6833	-3.5833	-3.1708	-2.8646	-3.5125	-2.7854	351.156	307.115	100.778	192.345	173.047	125.332	332.080	73.734	66.652	202.673	22.749	341.831	27.148	311.881	258.957	26.644	0.00028398	0.00020704	9.2225e-05	565.28	3.4082e-06	1.7032e-06	531.65	188.48	2.953e-06	2.0096e-06	192.51	58.991	54.924	14.137	4.1179e-06	20.004	6.4879e-05	5.3423e-05	1.521e-05	537.09	5.9724e-07	6.0982e-07	504.36	180.44	6.3258e-07	5.6656e-07	183.57	56.388	52.331	13.652	5.8686e-07	19.056	88.958	149.416	149.722	29.585	165.730	73.956	27.686	35.783	137.488	185.231	32.623	37.802	40.480	46.356	178.524	42.138	-8191	255	
2160.282	1	1	0	0	0.19727	0.15113	0.18691	0.21285	0.095905	0.026196	0.11073	0.21845	0.11343	0.2285	0.15604	0.13979	0.21738	0.19536	0.033264	0.052686	-2.9521	-3.1542	-2.6708	-3.4	-3.1188	-2.9917	-3.5438	-2.9396	-3.0521	-3.525	-2.9521	-3.3667	-3.2188	-2.9167	-3.4479	-3.2417	175.252	309.752	242.079	264.169	254.033	175.712	320.399	65.291	74.244	336.212	81.219	74.976	360.925	43.036	26.802	79.829	0.00026218	0.00017676	6.92e-05	563.17	1.0947e-06	2.4893e-06	528.3	187.57	1.6492e-06	3.2045e-06	192.81	59.36	54.427	14.065	3.7264e-06	19.85	6.752e-05	5.5894e-05	1.5594e-05	537.91	6.1453e-07	5.917e-07	507.04	181.33	6.4938e-07	5.5814e-07	184.89	56.677	52.371	13.695	5.9814e-07	19.221	89.816	91.672	108.676	29.455	164.620	136.125	28.121	36.166	236.771	206.102	32.848	37.672	40.471	47.231	164.493	42.797	-8191	255	
2160.379	1	1	0	0	0.092683	0.19034	0.14792	0.2044	0.078718	0.11136	0.031728	0.11671	0.08437	0.11463	0.13807	0.010555	0.25644	0.035205	0.29033	0.24636	-2.6562	-3.4188	-2.7875	-3.2125	-3.0792	-2.9146	-3.4229	-3.0417	-2.925	-3.6729	-2.9375	-3.2562	-3.3542	-2.6813	-3.4521	-2.9833	331.290	122.141	232.423	226.938	142.482	174.625	185.527	282.157	94.069	353.971	335.230	84.011	251.670	110.630	378.225	162.534	0.00030556	0.00023486	9.9074e-05	562.07	4.2192e-06	1.6917e-06	532.56	187.01	1.9875e-06	1.9257e-06	193.72	58.717	54.088	14.058	2.6427e-06	19.835	6.4793e-05	5.3534e-05	1.5056e-05	538.81	5.8887e-07	5.8551e-07	510.08	180.97	6.1132e-07	5.8506e-07	185.9	56.787	52.267	13.719	6.18e-07	19.328	91.993	60.700	106.818	29.757	162.064	173.558	28.395	36.462	156.507	167.849	33.093	38.687	41.352	47.563	171.290	43.153	-8191	255	
2160.477	1	1	0	0	0.14162	0.10591	0.058614	0.31057	0.065053	0.12692	0.20341	0.21736	0.13624	0.24709	0.27502	0.21739	0.02086	0.13651	0.19776	0.1325	-2.5792	-3.2542	-2.9604	-3.2938	-3.3042	-2.7125	-3.5333	-3.0938	-2.9875	-3.4042	-3.0854	-2.9146	-3.4917	-2.6208	-3.3688	-3.2271	271.337	79.975	120.960	219.049	165.749	119.493	248.682	219.831	299.265	27.692	286.471	289.604	82.793	269.409	362.726	329.754	0.0002794	0.00028876	5.5075e-05	559.53	4.5933e-06	2.3521e-06	533.85	188.24	3.5613e-06	1.5204e-06	190.64	58.736	54.079	13.821	4.0776e-06	19.361	6.574e-05	5.3002e-05	1.5051e-05	538.78	5.9851e-07	5.8205e-07	510.83	181.4	6.2316e-07	5.5736e-07	183.92	56.298	52.052	13.567	5.9477e-07	18.845	84.387	100.490	103.256	30.120	132.818	148.068	28.231	36.275	140.324	266.044	33.093	38.132	40.504	47.311	208.316	43.037	-8191	255	
2160.595	1	1	0	0	0.12394	0.14701	0.29971	0.35071	0.33877	0.13626	0.19102	0.17622	0.2484	0.046084	0.19057	0.21958	0.10487	0.1009	0.10116	0.21517	-2.3937	-3.3063	-2.8688	-3	-3.4604	-2.7229	-3.3625	-3.2083	-2.8125	-3.7208	-2.9521	-3.0646	-3.4583	-2.9292	-3.2687	-3.2958	260.982	181.583	336.279	297.522	107.724	92.297	323.756	147.304	21.363	120.734	354.002	297.159	274.136	35.078	346.276	90.393	0.00023376	0.00016764	8.7518e-05	555.19	1.8272e-06	1.7028e-06	520.57	185.26	2.8475e-06	3.2716e-06	190.61	57.899	53.912	13.909	1.7233e-06	19.528	6.5317e-05	5.5351e-05	1.6051e-05	533.14	5.9851e-07	5.811e-07	500.58	179.11	6.23e-07	5.7241e-07	182.21	55.439	51.8	13.574	5.8492e-07	18.79	86.293	113.003	102.589	29.694	136.314	144.942	27.997	36.402	163.127	124.711	33.292	37.476	40.563	47.321	298.931	43.118	-8191	255	
2160.692	1	1	0	0	0.20988	0.133	0.31489	0.017274	0.096652	0.058811	0.272	0.19853	0.14352	0.31901	0.049399	0.10652	0.22812	0.1378	0.22831	0.12852	-2.3187	-3.3917	-3.0438	-3.0521	-3.2271	-2.7021	-3.0646	-3.2396	-2.8063	-3.5333	-3.1583	-2.8292	-3.5062	-2.9875	-3.2188	-3.2812	34.267	267.515	123.384	191.764	86.015	158.501	259.707	281.949	317.429	102.106	340.981	280.064	308.947	318.155	293.024	330.757	0.00025511	0.00019915	5.9308e-05	554.52	3.0046e-06	4.1648e-06	522.65	185.57	1.1613e-06	2.3955e-06	191.06	57.84	53.991	13.862	3.047e-06	19.513	6.7206e-05	5.4509e-05	1.4097e-05	535.5	6.0385e-07	5.9008e-07	504.09	179.52	5.976e-07	5.6957e-07	183.14	56.025	52.017	13.584	6.1203e-07	19.016	77.618	93.482	130.660	29.752	164.118	151.970	28.198	36.521	188.644	119.665	33.437	38.160	41.224	47.562	159.938	42.923	-8191	255	
2160.788	1	1	0	0	0.082167	0.054629	0.021655	0.19333	0.12973	0.033302	0.13192	0.15591	0.065446	0.1363	0.19243	0.096706	0.08135	0.10615	0.18345	0.15619	-2.2938	-3.2542	-2.9125	-2.9437	-3.4375	-3.0438	-3.2333	-3.5458	-2.8083	-3.5271	-3.2979	-2.8438	-3.5167	-2.9604	-3.1333	-3.3667	209.553	42.665	203.262	46.472	54.639	50.154	305.808	116.809	19.553	259.558	63.363	71.019	88.929	202.054	191.026	368.768	0.00024644	0.00011206	5.7298e-05	559.63	1.5402e-06	2.5394e-06	529.29	186.64	3.3371e-06	1.1052e-06	193.38	59.251	54.256	13.982	2.5248e-06	19.913	6.752e-05	5.36e-05	1.5123e-05	536.84	5.9008e-07	6.019e-07	509.84	180.84	6.3154e-07	5.8272e-07	186	57.042	52.548	13.727	6.0639e-07	19.418	78.583	229.990	130.083	29.750	128.414	139.144	28.492	36.830	153.027	183.595	33.599	38.246	40.862	48.159	156.339	42.999	-8191	255	
2160.884	1	1	0	0	0.20373	0.32934	0.2208	0.11105	0.14285	0.088395	0.28351	0.090202	0.2086	0.25361	0.14217	0.27922	0.26849	0.22858	0.085341	0.16361	-2.225	-3.2313	-3.1375	-2.7208	-3.3271	-2.9562	-2.9667	-3.5167	-2.8396	-3.1167	-3.4521	-2.8729	-3.5167	-2.8771	-2.9938	-3.4458	376.579	203.603	20.743	323.853	277.950	211.491	278.219	63.321	239.927	111.253	101.657	66.738	352.081	108.803	245.192	260.540	0.00027404	0.00028606	5.4025e-05	566.58	3.8219e-06	1.9565e-06	533.38	186.8	2.4637e-06	3.0556e-06	190.7	58.203	54.284	13.945	2.1241e-06	19.525	6.3479e-05	5.635e-05	1.5775e-05	540.64	6.1068e-07	6.0776e-07	513.03	181.07	6.4156e-07	6.0975e-07	184.71	56.385	52.372	13.628	6.4284e-07	18.921	91.512	106.693	144.176	29.848	123.952	151.002	28.089	36.679	156.572	174.896	33.695	38.416	41.001	47.254	102.305	42.925	-8191	255	
2160.980	1	1	0	0	0.2578	0.10398	0.1882	0.20081	0.13405	0.073172	0.145	0.071667	0.16544	0.20572	0.1001	0.029667	0.034092	0.11822	0.1764	0.20461	-2.2354	-3.1771	-3.1521	-2.8125	-3.2812	-3.1271	-2.8104	-3.5083	-2.6083	-3.3875	-3.4104	-2.8521	-3.4104	-3.2104	-2.9354	-3.4333	180.353	164.950	292.838	251.834	201.051	351.413	262.139	224.446	320.258	278.705	199.669	335.705	241.122	213.149	205.405	209.791	0.00026076	0.00022676	6.292e-05	556.34	2.8193e-06	1.3727e-06	520.93	186	1.9035e-06	1.2167e-06	190.58	57.729	53.874	14.029	3.6853e-06	19.368	6.5126e-05	5.8095e-05	1.4328e-05	534	6.1674e-07	5.8021e-07	501.61	180.01	6.1567e-07	5.8929e-07	182.58	55.553	52.039	13.571	6.1258e-07	18.829	70.727	112.943	129.410	29.844	118.526	206.038	28.090	36.345	76.484	178.584	33.403	38.132	40.843	46.788	150.796	42.676	-8191	255	
2161.076	1	1	0	0	0.029152	0.11264	0.030318	0.073027	0.19972	0.27544	0.16378	0.26873	0.11867	0.12378	0.1804	0.11466	0.21448	0.16987	0.1614	0.10463	-2.6625	-3.1458	-3.4	-2.8333	-3.4104	-3.1979	-2.85	-3.5146	-3.0167	-3.0958	-3.4083	-2.8375	-3.2062	-3.4417	-2.7917	-3.3729	51.477	331.624	31.260	44.387	119.515	374.348	309.802	34.254	67.662	353.790	192.732	229.705	331.394	244.379	369.827	355.028	0.00026883	0.00039677	7.2444e-05	554.39	2.6637e-06	3.8277e-06	520.06	185.35	2.4351e-06	1.6983e-06	191.17	58.266	53.707	13.794	1.7143e-06	19.424	6.5436e-05	5.7588e-05	1.4629e-05	534.47	6.033e-07	5.7458e-07	502.41	180.24	6.3925e-07	6.2897e-07	183.27	55.903	51.972	13.539	6.1811e-07	18.905	86.010	83.993	108.519	30.063	124.320	109.959	28.678	36.432	154.097	205.865	33.315	38.173	40.920	47.695	147.577	42.771	-8191	255	
2161.197	1	1	0	0	0.18923	0.14932	0.028697	0.11209	0.065933	0.14173	0.17239	0.3263	0.16584	0.08138	0.12265	0.048134	0.040266	0.13144	0.10564	0.07806	-2.6667	-2.9104	-3.3375	-2.8646	-3.2625	-3.3542	-2.7708	-3.3958	-2.9667	-3.0875	-3.3563	-2.9792	-3.1375	-3.4271	-2.8396	-3.425	240.524	89.166	79.489	172.937	46.726	299.062	302.866	307.038	232.728	274.857	252.192	239.624	102.351	127.150	71.460	117.134	0.00028861	0.00012011	9.1927e-05	558.61	4.2201e-06	2.8516e-06	529.46	186.62	1.7379e-06	2.5879e-06	191.95	58.89	54.159	14.003	1.6596e-06	19.931	6.217e-05	5.7446e-05	1.5266e-05	537.54	6.4593e-07	5.8071e-07	507.4	180.57	6.1639e-07	5.9804e-07	184.21	56.707	52.328	13.631	6.2409e-07	19.308	88.525	159.142	104.959	29.885	184.224	138.400	27.797	36.549	145.610	187.917	33.440	38.177	40.645	47.140	183.099	42.807	-8191	255	
2161.291	1	1	0	0	0.22382	0.11211	0.11613	0.1135	0.12025	0.12732	0.10478	0.13457	0.09267	0.20871	0.23473	0.32583	0.28457	0.11044	0.1392	0.20973	-2.7667	-3.0104	-3.6417	-2.9667	-3.2104	-3.3688	-2.8917	-3.5312	-3.2417	-2.9792	-3.4292	-2.9604	-3.1896	-3.3688	-2.9042	-3.2938	130.972	20.438	127.226	22.215	318.749	100.226	57.714	214.181	330.804	366.289	331.073	111.823	62.095	155.213	182.760	229.927	0.00021225	0.00028455	4.885e-05	560.53	3.0756e-06	4.762e-06	532.07	189.02	3.4324e-06	1.7563e-06	192.4	57.301	53.732	13.667	1.6766e-06	19.028	6.3627e-05	5.7466e-05	1.3994e-05	538.39	6.5023e-07	5.9231e-07	509.46	181.54	6.1413e-07	5.9476e-07	184.04	55.51	51.871	13.501	6.1076e-07	18.642	85.891	103.526	148.098	29.734	158.906	192.828	28.275	36.522	167.769	150.082	33.356	38.317	40.705	47.489	161.446	42.217	-8191	255	
2161.387	1	1	0	0	0.13518	0.20941	0.086427	0.059708	0.18557	0.15647	0.28357	0.08353	0.14004	0.18683	0.12196	0.33419	0.090128	0.16375	0.12802	0.23305	-2.9667	-2.7896	-3.4521	-3.1271	-3.1229	-3.3208	-2.8917	-3.2458	-3.4021	-2.9	-3.4125	-2.8563	-2.7542	-3.6354	-2.9437	-3.4333	112.245	290.092	236.460	342.809	186.223	22.778	361.338	324.169	107.304	62.727	105.297	112.352	257.221	43.557	53.164	237.161	0.00024141	0.00018201	2.3408e-05	557.46	2.3714e-06	1.7731e-06	520.07	186.5	3.2573e-06	9.7435e-07	188.7	57.046	53.715	13.813	1.4311e-06	19.162	6.2303e-05	5.6e-05	1.4725e-05	534.95	6.2362e-07	5.6002e-07	499.69	179.78	6.0807e-07	6.015e-07	180.66	54.929	51.675	13.386	5.9095e-07	18.621	91.411	107.847	52.444	29.376	201.367	146.944	27.889	36.072	153.086	134.747	33.173	37.664	40.902	46.958	158.155	42.476	-8191	255	
2161.459	1	1	0	0	0.09779	0.13255	0.021386	0.12543	0.20565	0.11732	0.11211	0.26084	0.096706	0.2454	0.13466	0.079107	0.23695	0.10304	0.1298	0.094352	-2.9458	-2.7875	-3.4062	-3.1292	-3.0896	-3.5833	-2.7313	-3.2167	-3.2667	-2.9813	-3.4958	-3.3521	-2.8333	-3.3771	-2.825	-3.3125	81.605	364.016	148.430	94.596	344.043	308.287	351.125	301.020	109.780	134.318	344.493	208.319	311.865	43.971	185.207	353.754	0.00021635	0.00023691	6.8433e-05	561.26	3.2892e-06	2.7472e-06	523.2	185.98	1.653e-06	2.4094e-06	189.38	57.741	53.864	13.941	3.9918e-06	19.598	6.306e-05	5.4848e-05	1.501e-05	536.33	6.2963e-07	5.6571e-07	500.77	179.71	6.3385e-07	6.001e-07	182.24	55.386	51.737	13.532	5.967e-07	18.864	83.978	99.956	75.021	29.626	131.082	207.628	28.101	36.197	216.221	187.655	32.870	37.962	40.803	47.081	227.447	42.151	-8191	255	
2161.580	1	1	0	0	0.050056	0.14964	0.18491	0.21753	0.22707	0.045999	0.12713	0.21174	0.20519	0.20666	0.042001	0.15209	0.33344	0.14484	0.26645	0.13507	-3.0771	-2.8917	-3.4854	-3.1437	-2.7646	-3.4813	-3.0708	-3.0646	-3.3167	-2.8146	-3.4417	-3.05	-2.9833	-3.4896	-2.9833	-3.0167	43.453	336.884	164.526	25.231	93.555	82.273	321.956	57.829	99.951	186.356	200.843	161.246	27.859	80.994	363.725	296.938	0.00025323	0.00013637	9.1649e-05	559.92	1.6994e-06	4.0787e-06	528.37	186.66	3.6991e-06	2.8159e-06	193.07	58.003	54.427	13.878	1.3758e-06	19.776	6.3955e-05	5.4235e-05	1.5147e-05	536.53	5.919e-07	5.9688e-07	505.95	180.36	6.284e-07	5.9102e-07	184.07	56.232	52.343	13.592	5.8857e-07	19.179	84.066	120.674	159.227	29.572	155.928	161.933	28.283	36.150	160.592	216.217	32.573	38.095	40.416	46.800	186.085	42.849	-8191	255	
2161.676	1	1	0	0	0.16215	0.13955	0.074353	0.10063	0.26901	0.056944	0.040077	0.14453	0.18395	0.073118	0.015272	0.13176	0.33223	0.079986	0.3528	0.31321	-3.225	-2.7	-3.1854	-3.3208	-2.7958	-3.6146	-3.1667	-3.1271	-3.4833	-2.7896	-3.2646	-3.1979	-2.8021	-3.5563	-2.9333	-3.025	143.658	211.686	112.259	198.327	274.646	234.126	270.686	348.688	343.434	298.206	300.352	57.271	324.989	192.794	186.498	368.086	0.00028232	0.00040541	9.5768e-05	565.33	2.688e-06	1.0752e-06	532.63	188.78	2.1822e-06	9.2448e-07	192.23	58.054	54.006	13.863	1.3347e-06	19.296	6.4279e-05	5.4509e-05	1.4991e-05	540.09	6.1261e-07	5.9816e-07	512.12	181.94	6.1258e-07	5.5759e-07	184.05	55.931	51.876	13.535	5.8072e-07	18.708	84.562	97.261	90.963	29.475	170.723	174.918	28.184	36.011	184.581	231.735	32.709	38.118	40.545	46.806	198.165	42.524	-8191	255	
2161.772	1	1	0	0	0.16974	0.12984	0.058671	0.16252	0.021449	0.25498	0.17395	0.33282	0.10383	0.11011	0.12674	0.1975	0.14774	0.22883	0.18506	0.21431	-3.2042	-2.7687	-3.2854	-3.3771	-2.8125	-3.4958	-3.0708	-3.0208	-3.3958	-3.1188	-3.3167	-3.2875	-2.7042	-3.3937	-3.2938	-2.9792	233.543	181.684	175.949	193.345	95.482	257.924	291.924	294.903	142.569	321.111	354.138	138.688	134.618	298.398	27.679	76.768	0.00028611	0.00025577	2.0406e-05	558.95	4.6589e-06	1.3582e-06	523.92	186.62	3.0767e-06	1.0954e-06	189.57	57.22	53.401	13.903	3.5912e-06	19.277	6.317e-05	5.2763e-05	1.5191e-05	534.97	6.0963e-07	5.8679e-07	499.57	180.26	6.0482e-07	6.0573e-07	180.73	54.737	51.436	13.444	5.7889e-07	18.548	87.024	55.358	108.573	29.676	147.347	103.453	28.110	36.115	199.137	225.676	33.112	38.140	39.966	47.290	149.545	42.449	-8191	255	
2161.868	1	1	0	0	0.27021	0.2737	0.22271	0.075273	0.19174	0.18713	0.19669	0.19826	0.20445	0.12762	0.38692	0.186	0.2528	0.22483	0.10532	0.19558	-3.0979	-2.6417	-3.2979	-3.3833	-2.8	-3.2771	-3.3833	-2.8167	-3.6396	-2.8958	-3.0542	-3.4125	-2.6854	-3.4042	-3.2021	-2.8542	181.374	319.117	214.671	23.009	271.444	353.311	264.792	316.129	266.926	255.810	284.578	281.617	353.398	352.665	106.644	171.185	0.00023511	0.00032478	7.0884e-05	557.95	2.9173e-06	1.7478e-06	519.13	186.31	2.1066e-06	2.4723e-06	189.73	56.769	53.468	13.834	3.5596e-06	19.248	6.038e-05	5.394e-05	1.5391e-05	535.62	6.1514e-07	5.5935e-07	499.95	179.89	6.1077e-07	5.6522e-07	181.63	54.996	51.466	13.404	6.0666e-07	18.636	82.983	110.445	105.725	30.251	185.291	109.781	28.257	36.138	169.927	171.957	33.138	37.741	40.577	47.435	195.764	42.884	-8191	255	
2161.989	1	1	0	0	0.1191	0.11004	0.11087	0.13015	0.13951	0.05247	0.081476	0.13937	0.15767	0.24364	0.18716	0.29689	0.22113	0.14329	0.21868	0.14839	-3.05	-2.8771	-3.0396	-3.4542	-2.9333	-3.1979	-3.4333	-2.9062	-3.5042	-2.9167	-2.9396	-3.5958	-2.8688	-3.0771	-3.3417	-2.8125	196.023	149.322	203.028	262.882	344.112	30.302	89.133	356.871	311.062	186.304	96.692	32.854	243.932	29.825	260.375	222.290	0.00025412	0.00026653	1.5053e-05	559.77	2.6569e-06	1.7456e-06	524.38	186.63	2.3604e-06	1.9123e-06	191.13	57.563	53.522	13.799	2.3536e-06	19.384	6.4374e-05	5.4402e-05	1.4531e-05	536.51	6.3365e-07	5.8289e-07	503.78	179.8	6.1281e-07	5.66e-07	182.94	55.618	51.448	13.436	5.9167e-07	18.912	87.268	103.765	261.158	29.773	121.433	200.121	28.142	35.979	185.349	186.202	32.804	38.455	41.057	47.038	169.816	42.517	-8191	255	
2162.060	1	1	0	0	0.10557	0.19322	0.18917	0.16681	0.1967	0.11484	0.24556	0.19368	0.20078	0.037582	0.33848	0.065496	0.298	0.23115	0.26122	0.23384	-3.1271	-3.2479	-2.8667	-3.6312	-2.6042	-3.2583	-3.2875	-2.8854	-3.3792	-3.2146	-3.0646	-3.4542	-2.9604	-3.1083	-3.4875	-2.7417	340.229	360.922	50.059	345.155	223.924	109.616	289.177	357.718	329.057	348.912	86.721	180.610	352.150	272.890	29.204	36.159	0.00026187	9.9795e-05	8.2043e-05	563.39	5.6499e-07	1.5518e-06	522.92	186.33	1.6507e-06	1.9879e-06	188.33	57.193	53.245	13.541	2.1078e-06	18.93	6.3736e-05	4.9917e-05	1.5352e-05	539.21	6.087e-07	5.6632e-07	508.2	180.34	6.0829e-07	5.6951e-07	182.39	55.221	51.273	13.312	5.5643e-07	18.431	84.132	46.555	138.607	30.125	42.932	193.662	28.649	36.808	190.065	208.660	33.246	38.393	40.697	47.366	187.564	42.044	-8191	255	
2162.157	1	1	0	0	0.28908	0.13272	0.54108	0.29164	0.24836	0.11233	0.037383	0.080058	0.069943	0.19127	0.34431	0.035708	0.13551	0.13741	0.12362	0.050125	-2.9917	-3.2708	-2.7854	-3.6375	-3.1042	-3.025	-3.3438	-2.8312	-3.3854	-3.2146	-2.9229	-3.4021	-3.0792	-2.9583	-3.4146	-2.7083	21.652	65.878	278.623	35.181	315.548	20.269	202.625	37.551	320.290	111.084	340.699	243.959	23.619	197.148	340.309	187.410	0.0002634	0.00021075	7.8285e-05	556.2	3.2224e-06	3.0122e-06	517.96	185.16	2.1023e-06	5.7222e-07	189.36	56.047	53.135	13.483	1.8699e-06	18.604	6.2913e-05	5.1784e-05	1.4329e-05	533.83	6.0715e-07	5.9142e-07	497.83	178.88	5.7314e-07	5.7798e-07	180.21	54.312	51	13.239	5.4293e-07	18.275	77.182	67.575	86.640	29.788	112.423	157.283	28.155	36.385	241.881	124.002	32.443	37.730	40.509	47.417	191.282	42.552	-8191	255	
2162.277	1	1	0	0	0.1961	0.2259	0.036637	0.20953	0.073002	0.19088	0.12039	0.3139	0.10937	0.081696	0.15284	0.17875	0.1143	0.15515	0.095715	0.047207	-2.9813	-3.0729	-3.0021	-3.2313	-3.2208	-2.9	-3.7188	-2.9208	-3.3958	-3.3792	-3.0729	-3.4667	-3.225	-2.9188	-3.5354	-2.8479	276.476	163.636	22.765	286.469	210.909	82.513	247.870	373.402	264.282	87.996	357.711	269.795	246.056	278.202	75.533	260.428	0.00021699	0.00022548	7.0684e-05	556.36	1.7126e-06	2.9389e-06	517.92	185.18	2.11e-06	2.5899e-06	187.24	56.498	52.425	13.56	1.667e-06	19.07	6.4336e-05	5.1657e-05	1.4824e-05	533.58	5.8077e-07	5.6052e-07	498.68	179.19	6.3892e-07	5.5491e-07	180.3	54.626	50.897	13.294	5.9438e-07	18.512	71.659	108.715	127.774	29.978	145.873	204.024	28.649	36.531	105.338	147.210	33.756	38.679	40.955	48.136	234.429	43.074	-8191	255	
2162.372	1	1	0	0	0.19068	0.16231	0.051623	0.086061	0.1913	0.087691	0.18051	0.35337	0.16972	0.058786	0.11768	0.13445	0.09333	0.08076	0.29458	0.14863	-2.6875	-3.3896	-2.8896	-3.575	-3.0896	-2.8792	-3.5271	-2.9333	-3.05	-3.3292	-2.9708	-3.2667	-3.3063	-2.7417	-3.6208	-2.8875	69.515	88.638	235.191	365.517	178.318	362.076	325.817	334.383	339.893	195.852	363.862	176.674	365.899	127.557	366.789	367.989	0.00020944	0.00018583	5.4223e-05	555.46	2.875e-06	3.5731e-06	518.62	185.08	2.5017e-06	1.8862e-06	188.47	56.501	53.171	13.59	2.9665e-06	19.296	6.3841e-05	5.1667e-05	1.5275e-05	537.44	6.1861e-07	6.1032e-07	501.88	179.37	6.5875e-07	5.6477e-07	181.78	55.093	51.296	13.382	6.0002e-07	18.781	82.348	90.901	150.004	30.212	148.238	171.102	29.022	37.133	148.908	154.974	33.068	38.223	40.854	47.044	208.803	42.856	-8191	255	
2162.468	1	1	0	0	0.27095	0.066459	0.053431	0.28866	0.33058	0.092158	0.24712	0.3613	0.14692	0.098025	0.3073	0.14068	0.17748	0.21265	0.099321	0.048832	-2.875	-3.3438	-2.8667	-3.325	-3.3125	-3.0375	-3.6	-3.1542	-3.1521	-3.5375	-2.8229	-3.3021	-3.2771	-2.7896	-3.3708	-3.0771	215.001	205.328	292.159	55.605	376.423	338.421	272.055	24.060	291.633	334.119	358.947	173.829	35.276	259.673	136.662	237.077	0.00022626	0.00013791	5.3246e-05	555.2	3.8135e-06	3.2846e-06	524.23	186.05	2.0034e-06	7.6814e-07	189.36	57.547	52.818	13.72	3.0871e-06	19.209	6.5307e-05	5.1744e-05	1.5436e-05	535.77	5.708e-07	5.8712e-07	506.84	180.45	6.2156e-07	6.0657e-07	182.53	55.676	51.366	13.408	6.0816e-07	18.582	81.049	118.446	87.500	30.189	159.001	144.732	29.111	36.511	221.499	223.448	33.553	38.865	40.928	47.497	155.134	42.596	-8191	255	
2162.588	1	1	0	0	0.20621	0.18379	0.29163	0.012116	0.10949	0.13207	0.12663	0.085658	0.11973	0.11061	0.1491	0.069585	0.18476	0.23352	0.22477	0.31823	-2.5812	-3.3688	-2.8438	-3.1854	-3.3187	-3.0396	-3.5708	-3.3042	-2.9625	-3.5792	-2.9417	-3.1708	-3.3854	-2.8417	-3.4792	-3.1667	188.873	131.117	57.073	106.470	131.672	225.765	62.612	312.348	154.903	235.746	207.994	331.762	326.623	282.265	21.791	344.343	0.00022526	0.00031521	3.3192e-05	552.08	2.4455e-06	3.5268e-06	513.45	184.17	1.7771e-06	3.1221e-06	187.57	55.865	52.702	13.484	3.2636e-06	18.602	6.4122e-05	5.2733e-05	1.5474e-05	533.02	6.1272e-07	5.7987e-07	496.95	178.69	6.4773e-07	5.5675e-07	179.74	54.098	50.954	13.269	6.1264e-07	18.148	85.241	100.247	166.205	29.831	123.023	197.265	28.561	36.987	176.093	187.807	33.291	38.022	41.038	48.181	170.845	43.500	-8191	255	
2162.685	1	1	0	0	0.027078	0.17035	0.19044	0.098053	0.3184	0.081096	0.29454	0.17834	0.080716	0.15403	0.18236	0.1025	0.20192	0.074613	0.17974	0.11188	-2.5312	-3.6146	-2.9375	-3.2958	-3.5667	-2.7687	-3.5417	-3.3688	-2.925	-3.65	-2.9896	-3.1583	-3.4167	-2.7521	-3.1437	-3.4854	245.415	347.627	124.465	329.390	68.394	339.351	91.105	268.025	358.246	23.374	279.320	19.992	337.969	354.099	330.603	241.760	0.00022793	0.00015063	5.2888e-05	551.23	1.4307e-06	1.185e-06	513	183.34	3.8461e-06	1.8829e-06	185.69	56.179	52.67	13.548	2.8262e-06	18.754	6.3117e-05	5.4904e-05	1.5002e-05	532.63	5.6606e-07	5.9577e-07	496.36	178.12	6.3302e-07	5.7514e-07	179.67	54.435	51.155	13.315	6.3217e-07	18.435	93.078	123.790	123.139	30.386	99.825	198.076	28.386	36.983	178.487	131.912	33.789	38.682	41.067	47.248	196.507	43.284	-8191	255	
2162.756	1	1	0	0	0.25313	0.083211	0.12391	0.16472	0.25212	0.25828	0.10738	0.21612	0.10135	0.25895	0.029107	0.29078	0.18842	0.11882	0.11643	0.31707	-2.3167	-3.5958	-3.1271	-2.9188	-3.4979	-2.9125	-3.4896	-3.4667	-2.7646	-3.4646	-3.1271	-2.9979	-3.6021	-2.9396	-3.2292	-3.4104	182.684	198.527	355.080	245.216	59.422	141.561	63.723	300.480	105.263	214.054	265.741	266.619	53.308	319.275	325.163	47.536	0.00021918	0.0002005	7.3825e-05	553.46	1.8267e-06	1.3357e-06	515.93	183.56	2.2548e-06	5.6263e-07	188.78	56.922	52.147	13.542	2.7267e-06	19.063	6.5264e-05	5.4387e-05	1.532e-05	533.97	5.849e-07	5.6064e-07	500.31	178.45	6.3341e-07	5.7497e-07	181.57	55.001	50.962	13.316	6.0893e-07	18.575	86.386	100.761	122.930	30.050	210.119	138.493	28.546	37.016	151.298	305.157	33.410	38.513	41.642	48.202	171.420	43.168	-8191	255	
2162.877	1	1	0	0	0.14438	0.12932	0.048397	0.15835	0.27058	0.19408	0.19908	0.13085	0.20983	0.089759	0.069043	0.15978	0.15988	0.09388	0.21483	0.1993	-2.3083	-3.3625	-3.0083	-2.8292	-3.4938	-2.9542	-3.3333	-3.4708	-2.8375	-3.5417	-3.2	-2.9417	-3.4333	-2.9062	-3.0167	-3.6292	38.787	165.676	105.509	243.552	37.876	310.090	24.252	275.576	144.805	305.968	263.200	262.521	82.205	291.150	28.284	220.230	0.00022384	0.00021431	3.7996e-05	556.38	3.4489e-06	1.7601e-06	521.63	183.19	2.0793e-06	2.6832e-06	185.89	56.952	52.693	13.488	2.8129e-06	19.015	6.4726e-05	5.6076e-05	1.4931e-05	535.65	6.2147e-07	6.1333e-07	504.35	178.74	6.6519e-07	6.1136e-07	181.85	55.365	51.242	13.368	5.8979e-07	18.567	82.958	144.103	191.989	30.122	148.894	147.761	29.041	37.066	213.260	151.143	34.029	38.714	40.995	48.018	218.996	42.808	-8191	255	
2162.973	1	1	0	0	0.34949	0.14536	0.14216	0.12538	0.045968	0.17167	0.17262	0.2163	0.28454	0.25017	0.053038	0.1378	0.096648	0.057737	0.12534	0.06405	-2.4208	-3.2562	-3.1437	-3.0583	-3.4917	-2.9875	-3.2458	-3.5021	-2.7396	-3.3125	-3.3063	-2.8521	-3.5438	-2.9375	-3.0812	-3.6333	338.458	88.344	79.255	292.792	84.308	174.478	201.651	335.744	200.213	357.444	308.572	258.907	60.986	185.101	163.399	311.068	0.0001931	0.0002457	4.1617e-05	544.5	2.929e-06	1.5966e-06	504	180.1	1.9218e-06	2.1407e-06	181.81	55.435	52.416	13.39	3.2056e-06	18.413	6.5221e-05	5.3966e-05	1.4979e-05	530.76	6.0065e-07	5.898e-07	492.2	177.04	6.1319e-07	6.0378e-07	177.46	53.747	50.711	13.18	5.967e-07	18.037	87.882	93.769	146.059	30.617	157.705	179.728	29.267	37.478	133.904	160.572	33.772	38.689	41.357	47.967	207.849	43.844	-8191	255	
2163.069	1	1	0	0	0.18102	0.13174	0.19609	0.31246	0.23633	0.17203	0.077651	0.19795	0.08304	0.22103	0.16461	0.081106	0.14264	0.18718	0.19001	0.22329	-2.4917	-3.1771	-3.2667	-2.9521	-3.4208	-3.0271	-3.0333	-3.7083	-2.8583	-3.2479	-3.4562	-2.7458	-3.5229	-3.1646	-2.8375	-3.6562	19.536	218.357	266.414	351.567	200.922	86.470	289.595	331.339	125.465	23.352	68.308	356.060	139.394	354.882	66.305	360.867	0.00023851	0.00016397	2.7219e-05	542.65	9.4521e-07	1.854e-06	504.51	180.49	1.3994e-06	2.1506e-06	185.09	55.401	52.435	13.438	2.3311e-06	18.891	6.3751e-05	5.4098e-05	1.5054e-05	528.78	6.0556e-07	5.7374e-07	493.13	176.77	6.2856e-07	5.7798e-07	178.43	53.927	50.871	13.251	6.019e-07	18.319	81.928	122.524	150.568	30.287	44.911	128.412	29.128	37.306	179.414	174.082	33.833	38.775	40.769	47.473	180.480	42.658	-8191	255	
2163.165	1	1	0	0	0.12021	0.27526	0.080761	0.28639	0.052375	0.04166	0.30823	0.05054	0.12889	0.25284	0.15727	0.13694	0.097776	0.10694	0.11885	0.16886	-2.475	-3.1542	-3.3125	-2.9562	-3.5438	-3.4292	-3.0021	-3.5125	-3.0354	-3.2188	-3.6083	-2.8917	-3.4458	-3.3583	-2.9688	-3.4979	58.324	273.674	207.122	293.849	222.204	46.287	316.615	21.611	225.007	86.766	319.061	262.913	367.211	336.556	244.348	161.023	0.00021798	0.00014694	6.4771e-05	551.5	3.8379e-06	2.447e-06	513.27	182.3	3.3205e-06	3.1546e-06	184.46	56.433	52.619	13.281	7.9337e-07	18.745	6.4883e-05	5.427e-05	1.4603e-05	533.39	6.0456e-07	5.5891e-07	496.64	177.91	6.4035e-07	6.0339e-07	178.87	54.754	50.916	13.223	6.065e-07	18.468	77.786	143.669	76.143	29.963	121.810	173.102	28.793	36.905	168.002	181.185	33.521	38.356	41.535	47.841	201.307	43.428	-8191	255	
2163.284	1	1	0	0	0.14111	0.093634	0.054597	0.1095	0.12288	0.13685	0.16901	0.18078	0.20222	0.12819	0.1976	0.14985	0.083545	0.12823	0.084312	0.085967	-2.775	-3.0667	-3.4896	-2.8667	-3.3896	-3.2958	-2.9729	-3.5708	-2.9188	-3.1437	-3.7021	-2.8917	-3.4708	-3.325	-2.8729	-3.4604	161.221	179.575	216.796	324.510	127.718	203.815	362.574	68.357	240.253	163.531	39.278	295.456	278.149	18.606	249.729	228.222	0.00020502	0.00017835	8.6654e-05	551.47	2.6896e-06	1.7997e-06	515.52	183.87	3.2051e-06	3.1987e-06	189.67	57.212	52.94	13.511	2.8424e-06	18.763	6.5521e-05	5.5168e-05	1.5497e-05	533.3	6.2825e-07	5.9108e-07	501.19	178.74	6.3324e-07	6.137e-07	181.67	55.374	51.218	13.378	6.1502e-07	18.445	88.155	23.523	110.419	30.587	90.932	148.876	28.623	36.509	182.743	158.942	33.612	38.559	41.303	47.910	215.630	43.031	-8191	255	
2163.356	1	1	0	0	0.12081	0.03239	0.1065	0.041908	0.12356	0.23227	0.040167	0.11795	0.18283	0.14561	0.29534	0.40352	0.21824	0.3885	0.24304	0.34666	-2.7771	-2.8896	-3.4354	-3.0312	-3.2979	-3.4729	-2.8667	-3.525	-3.0854	-2.9313	-3.4625	-2.8333	-3.1312	-3.3104	-2.8187	-3.2521	142.490	34.038	366.042	87.489	49.965	88.684	246.127	264.576	208.853	35.430	93.546	322.032	278.473	44.276	150.479	358.676	0.00022443	0.00030254	0.00012312	548.51	1.5781e-06	1.021e-06	507.59	183.5	3.2057e-06	2.3118e-06	186.25	56.5	53.554	13.71	1.4603e-06	18.791	6.6573e-05	5.7238e-05	1.4572e-05	531.35	6.256e-07	5.7714e-07	493.62	177.6	6.339e-07	6.3454e-07	178.03	54.01	51.166	13.346	6.4207e-07	18.167	90.104	113.051	116.728	30.328	140.288	53.541	28.574	36.519	157.207	191.783	33.426	37.917	40.213	47.149	189.747	42.617	-8191	255	
2163.452	1	1	0	0	0.024737	0.18116	0.1363	0.23252	0.11424	0.15161	0.18919	0.18324	0.12414	0.088841	0.13752	0.1372	0.090433	0.11569	0.074636	0.29301	-2.725	-2.7812	-3.6021	-3.1271	-3.0271	-3.4375	-2.9375	-3.4417	-3.1792	-2.7	-3.5375	-3.0021	-2.8583	-3.6312	-2.8958	-3.3521	291.913	279.175	336.684	23.833	191.450	296.228	306.383	269.113	113.412	248.781	24.708	164.269	56.549	144.657	57.697	236.977	0.00023729	0.00018326	7.9431e-05	550.94	2.2933e-06	4.5069e-06	517.17	184.99	2.4121e-06	1.3664e-06	186.99	56.58	53.474	13.76	1.0592e-06	18.92	6.306e-05	5.6751e-05	1.5328e-05	530.35	6.4626e-07	5.7536e-07	494.22	177.81	6.6161e-07	6.1225e-07	178.9	54.428	51.221	13.349	6.2237e-07	18.256	83.146	101.581	111.331	29.735	133.044	131.021	28.189	36.203	124.752	162.164	32.781	37.956	40.419	47.245	190.661	42.533	-8191	255	
2163.550	1	1	0	0	0.2879	0.18581	0.081169	0.23765	0.079419	0.23916	0.25085	0.12837	0.15029	0.13371	0.11581	0.092394	0.12158	0.096698	0.098265	0.2105	-2.8	-2.9396	-3.7062	-3.1604	-2.7938	-3.6208	-2.8187	-3.475	-3.4292	-2.8937	-3.5438	-2.925	-2.8021	-3.3688	-2.9333	-3.2104	103.432	90.312	213.365	281.022	89.672	203.501	274.152	339.383	134.699	129.383	370.212	180.817	301.908	98.971	167.854	56.631	0.00019665	0.00010818	2.302e-05	558.67	2.5401e-06	2.2014e-06	518.57	185.58	1.1483e-06	1.7248e-06	189.7	57.363	53.833	13.861	1.6134e-06	19.195	6.5164e-05	5.6482e-05	1.561e-05	531.78	6.1949e-07	6.1116e-07	495.8	177.71	6.106e-07	6.453e-07	180.18	54.833	51.363	13.403	5.9073e-07	18.538	85.237	61.568	224.969	29.872	150.297	146.574	27.796	35.720	138.389	153.836	32.495	37.594	40.186	46.806	246.373	41.977	-8191	255	
2163.669	1	1	0	0	0.34235	0.19717	0.043297	0.097199	0.15922	0.25342	0.2353	0.19983	0.52728	0.21577	0.074379	0.19371	0.15697	0.19257	0.11051	0.36724	-2.9875	-2.7875	-3.3792	-3.1813	-2.975	-3.4208	-2.9021	-3.2313	-3.425	-2.9021	-3.2042	-3.2125	-2.8937	-3.5938	-2.9188	-2.9771	221.750	123.217	144.435	48.148	283.003	172.407	279.819	210.592	88.727	329.881	369.556	153.159	303.137	358.018	176.598	322.703	0.00026324	0.00028674	8.9581e-05	558.02	3.0406e-06	2.7266e-06	528.07	184.46	2.6567e-06	2.8689e-06	189.28	58.204	54.147	14.04	2.0486e-06	19.39	6.6473e-05	5.602e-05	1.5423e-05	534.04	6.3601e-07	6.261e-07	500.32	178.47	6.3412e-07	6.2072e-07	181.15	55.466	51.549	13.446	5.8747e-07	18.67	83.768	83.585	159.394	29.696	130.866	170.767	27.693	35.849	155.361	182.597	32.768	37.558	40.126	47.265	164.705	42.187	-8191	255	
2163.765	1	1	0	0	0.10639	0.18469	0.083861	0.1352	0.1039	0.11638	0.37675	0.15878	0.20555	0.14617	0.28597	0.15934	0.29252	0.12129	0.21248	0.18953	-3.0312	-2.8083	-3.3021	-3.2854	-2.7938	-3.5271	-3.0146	-3.0854	-3.5979	-2.8167	-3.4208	-3.3542	-2.9354	-3.4167	-3.0333	-3.2208	286.869	133.059	277.469	332.704	66.094	358.201	348.494	351.965	306.753	195.085	261.842	212.611	351.852	92.910	222.631	211.230	0.00024546	8.8902e-05	2.9846e-05	561.63	3.0439e-06	3.9372e-06	520.9	186.31	6.5143e-07	2.1255e-06	185.38	56.505	53.579	13.758	2.9068e-06	19.024	6.5088e-05	5.6797e-05	1.5514e-05	532.69	6.5067e-07	6.1238e-07	494.62	177.91	5.9881e-07	6.2446e-07	177.06	54.061	51.073	13.345	6.0849e-07	18.2	90.242	24.532	135.075	29.359	100.500	188.647	27.879	35.820	176.121	188.793	33.037	37.575	40.191	46.529	131.996	42.029	-8191	255	
2163.861	1	1	0	0	0.15486	0.13968	0.13561	0.057149	0.098228	0.16394	0.18121	0.35733	0.40084	0.070678	0.41254	0.1936	0.064495	0.14338	0.10222	0.22016	-3.0417	-2.8167	-3.2229	-3.3229	-2.7875	-3.4625	-2.9792	-2.8875	-3.4792	-2.9083	-3.1292	-3.3771	-2.8708	-3.5187	-3.2917	-2.9792	45.779	24.700	325.985	376.038	262.283	307.458	186.665	305.083	330.944	277.109	279.160	312.997	73.021	181.723	317.895	35.461	0.00025313	0.00025383	4.3121e-05	556.06	4.9678e-06	1.9659e-06	515.84	184.06	2.9663e-06	3.0122e-06	186.64	57.098	53.684	13.846	3.1919e-06	19.115	6.653e-05	5.6913e-05	1.5898e-05	531.5	6.7446e-07	6.0151e-07	493.94	177.06	6.2603e-07	6.4234e-07	178.64	54.907	51.389	13.426	6.2298e-07	18.403	85.491	127.142	98.705	29.446	136.976	205.828	27.890	35.762	197.445	177.303	32.747	37.866	40.077	46.555	174.731	42.842	-8191	255	
2163.957	1	1	0	0	0.19542	0.050123	0.16928	0.14016	0.15737	0.14849	0.23147	0.21973	0.23226	0.29068	0.15782	0.026176	0.24983	0.13562	0.033561	0.048171	-3.0667	-2.9583	-3.1729	-3.4708	-2.7646	-3.4354	-3.2667	-3	-3.4021	-2.9313	-3.3417	-3.5396	-2.725	-3.425	-3.3479	-2.95	184.254	255.261	278.159	33.046	110.967	155.395	323.888	75.594	165.760	74.845	58.071	141.410	347.294	33.005	73.741	297.417	0.00025838	0.00027847	7.9387e-05	554.28	1.8762e-06	3.6176e-06	524.22	185.63	2.2053e-06	3.7691e-06	188.51	58.174	54.013	13.999	1.8808e-06	19.367	6.5921e-05	5.6396e-05	1.5396e-05	531.32	6.2269e-07	6.3541e-07	499.19	178.52	6.1281e-07	6.4106e-07	180.35	55.657	51.79	13.541	5.8868e-07	18.791	83.771	76.525	98.136	29.567	160.238	144.474	27.772	35.712	199.736	167.912	32.619	37.657	40.156	46.877	175.780	42.180	-8191	255	
2164.053	1	1	0	0	0.22164	0.31804	0.25583	0.099724	0.065737	0.24071	0.058321	0.091301	0.25707	0.11278	0.13862	0.11027	0.03924	0.11199	0.2275	0.14769	-3.2021	-2.925	-3.0542	-3.7083	-2.8979	-3.2812	-3.4896	-2.9896	-3.2875	-3.2167	-3.0812	-3.3438	-2.9437	-3.3771	-3.3854	-2.9125	20.795	295.688	114.554	312.959	169.936	197.161	82.524	326.061	112.269	339.050	303.405	328.372	373.983	28.338	325.164	285.453	0.00026686	8.478e-05	0.00010338	564.73	1.34e-06	2.0189e-06	528.03	187.1	2.5323e-06	1.5453e-06	190.34	59.445	53.626	13.86	3.5817e-07	19.355	6.6326e-05	5.6812e-05	1.5943e-05	537.78	6.5904e-07	5.9309e-07	506.02	179.93	6.2145e-07	5.9732e-07	183.39	56.957	52.042	13.66	5.9914e-07	18.959	70.164	128.194	130.307	29.623	161.262	125.799	28.018	36.176	144.464	209.769	33.210	38.371	40.693	47.104	118.062	43.299	-8191	255	
#DATA ENDS
