BOXY.EXE: ISS Imagent and Oximeter Data Acquisition Program Version 0.80
Ascii Record File

#ACQ INFORMATION
2  Detector Channels 
16  External MUX Channels 
1  Auxiliary Channels 
5000  Waveform (CCF) Frequency (Hz)
1  Waveforms Skipped 
30  Waveforms Averaged 
1  Cycles Averaged 
16  Acquisitions per Waveform 
10.0806  Updata Rate (Hz) 

#FILE INFORMATION
TRUE -- External MUX Channel results are PARSED.
FALSE -- AC DC and Phase are NOT grouped.
TRUE -- Companion Program Settings File CREATED.
FALSE -- AC data not excluded
FALSE -- DC data not excluded
FALSE -- Phase data not excluded
FALSE -- Auxillary Chn. data not excluded
Tab delimiters

#CALIBRATION STATE
TRUE -- Waveform Calibration Values APPLIED.


#AUX CALIBRATION VALUES
Val Type	aux-1	

Term	1.0000e+00	
Factor	0.0000e+00	


#WF CALIBRATION VALUES
A = Detector Channel
Val Type	A-AC1	A-AC2	A-AC3	A-AC4	A-AC5	A-AC6	A-AC7	A-AC8	A-AC9	A-AC10	A-AC11	A-AC12	A-AC13	A-AC14	A-AC15	A-AC16	A-DC1	A-DC2	A-DC3	A-DC4	A-DC5	A-DC6	A-DC7	A-DC8	A-DC9	A-DC10	A-DC11	A-DC12	A-DC13	A-DC14	A-DC15	A-DC16	A-Ph1	A-Ph2	A-Ph3	A-Ph4	A-Ph5	A-Ph6	A-Ph7	A-Ph8	A-Ph9	A-Ph10	A-Ph11	A-Ph12	A-Ph13	A-Ph14	A-Ph15	A-Ph16	

Term	0.00000e+00	0.00000e+00	0.00000e+00	0.00000e+00	0.00000e+00	0.00000e+00	0.00000e+00	0.00000e+00	0.00000e+00	0.00000e+00	0.00000e+00	0.00000e+00	0.00000e+00	0.00000e+00	0.00000e+00	0.00000e+00	0.00000e+00	0.00000e+00	0.00000e+00	0.00000e+00	0.00000e+00	0.00000e+00	0.00000e+00	0.00000e+00	0.00000e+00	0.00000e+00	0.00000e+00	0.00000e+00	0.00000e+00	0.00000e+00	0.00000e+00	0.00000e+00	0.00000e+00	0.00000e+00	0.00000e+00	0.00000e+00	0.00000e+00	0.00000e+00	0.00000e+00	0.00000e+00	0.00000e+00	0.00000e+00	0.00000e+00	0.00000e+00	0.00000e+00	0.00000e+00	0.00000e+00	0.00000e+00	
Factor	1.00000e+00	1.00000e+00	1.00000e+00	1.00000e+00	1.00000e+00	1.00000e+00	1.00000e+00	1.00000e+00	1.00000e+00	1.00000e+00	1.00000e+00	1.00000e+00	1.00000e+00	1.00000e+00	1.00000e+00	1.00000e+00	1.00000e+00	1.00000e+00	1.00000e+00	1.00000e+00	1.00000e+00	1.00000e+00	1.00000e+00	1.00000e+00	1.00000e+00	1.00000e+00	1.00000e+00	1.00000e+00	1.00000e+00	1.00000e+00	1.00000e+00	1.00000e+00	X	X	X	X	X	X	X	X	X	X	X	X	X	X	X	X	

B = Detector Channel
Val Type	B-AC1	B-AC2	B-AC3	B-AC4	B-AC5	B-AC6	B-AC7	B-AC8	B-AC9	B-AC10	B-AC11	B-AC12	B-AC13	B-AC14	B-AC15	B-AC16	B-DC1	B-DC2	B-DC3	B-DC4	B-DC5	B-DC6	B-DC7	B-DC8	B-DC9	B-DC10	B-DC11	B-DC12	B-DC13	B-DC14	B-DC15	B-DC16	B-Ph1	B-Ph2	B-Ph3	B-Ph4	B-Ph5	B-Ph6	B-Ph7	B-Ph8	B-Ph9	B-Ph10	B-Ph11	B-Ph12	B-Ph13	B-Ph14	B-Ph15	B-Ph16	

Term	0.00000e+00	0.00000e+00	0.00000e+00	0.00000e+00	0.00000e+00	0.00000e+00	0.00000e+00	0.00000e+00	0.00000e+00	0.00000e+00	0.00000e+00	0.00000e+00	0.00000e+00	0.00000e+00	0.00000e+00	0.00000e+00	0.00000e+00	0.00000e+00	0.00000e+00	0.00000e+00	0.00000e+00	0.00000e+00	0.00000e+00	0.00000e+00	0.00000e+00	0.00000e+00	0.00000e+00	0.00000e+00	0.00000e+00	0.00000e+00	0.00000e+00	0.00000e+00	-1.85345e+02	-1.23737e+02	-1.11857e+02	-1.80493e+02	-1.02631e+02	-7.18909e+01	-1.55190e+02	-1.62015e+02	-8.30239e+01	-6.30682e+01	-1.71086e+02	-1.70392e+02	-1.81065e+02	-1.76742e+02	-5.60175e+01	-1.49283e+02	
Factor	3.45794e-05	1.28973e-04	3.64895e-05	1.78598e-01	1.50782e-06	1.48164e-06	1.55936e-01	4.98493e-02	1.25560e-06	1.27048e-06	8.53734e-02	2.92799e-02	2.65120e-02	9.74353e-03	1.48999e-06	1.28900e-02	2.28479e-06	2.43523e-06	6.78434e-07	9.15091e-02	2.64387e-08	2.67660e-08	7.53430e-02	2.56481e-02	2.64425e-08	2.67481e-08	4.24034e-02	1.45225e-02	1.36176e-02	5.01221e-03	2.65546e-08	6.42646e-03	X	X	X	X	X	X	X	X	X	X	X	X	X	X	X	X	



#DISTANCE SETTINGS
A = Detector Channel
A-1	A-2	A-3	A-4	A-5	A-6	A-7	A-8	A-9	A-10	A-11	A-12	A-13	A-14	A-15	A-16	

2.5000e+00	3.0000e+00	2.5000e+00	3.0000e+00	2.0000e+00	3.0000e+00	1.5000e+00	3.0000e+00	3.0000e+00	3.0000e+00	3.0000e+00	3.0000e+00	3.0000e+00	3.0000e+00	1.5000e+00	3.0000e+00	

B = Detector Channel
B-1	B-2	B-3	B-4	B-5	B-6	B-7	B-8	B-9	B-10	B-11	B-12	B-13	B-14	B-15	B-16	

1.0000e+01	1.0000e+01	1.0000e+01	1.4400e+00	1.0000e+01	1.0000e+01	1.5100e+00	1.9400e+00	1.0000e+01	1.0000e+01	1.9900e+00	2.4900e+00	2.4100e+00	2.9000e+00	1.0000e+01	2.9800e+00	




#DATA BEGINS
time	group	step	mark	flag	A-AC1	A-AC2	A-AC3	A-AC4	A-AC5	A-AC6	A-AC7	A-AC8	A-AC9	A-AC10	A-AC11	A-AC12	A-AC13	A-AC14	A-AC15	A-AC16	A-DC1	A-DC2	A-DC3	A-DC4	A-DC5	A-DC6	A-DC7	A-DC8	A-DC9	A-DC10	A-DC11	A-DC12	A-DC13	A-DC14	A-DC15	A-DC16	A-Ph1	A-Ph2	A-Ph3	A-Ph4	A-Ph5	A-Ph6	A-Ph7	A-Ph8	A-Ph9	A-Ph10	A-Ph11	A-Ph12	A-Ph13	A-Ph14	A-Ph15	A-Ph16	B-AC1	B-AC2	B-AC3	B-AC4	B-AC5	B-AC6	B-AC7	B-AC8	B-AC9	B-AC10	B-AC11	B-AC12	B-AC13	B-AC14	B-AC15	B-AC16	B-DC1	B-DC2	B-DC3	B-DC4	B-DC5	B-DC6	B-DC7	B-DC8	B-DC9	B-DC10	B-DC11	B-DC12	B-DC13	B-DC14	B-DC15	B-DC16	B-Ph1	B-Ph2	B-Ph3	B-Ph4	B-Ph5	B-Ph6	B-Ph7	B-Ph8	B-Ph9	B-Ph10	B-Ph11	B-Ph12	B-Ph13	B-Ph14	B-Ph15	B-Ph16	aux-1	digaux	

1313.820	1	1	0	512	0.14434	0.18608	0.092801	0.25742	0.16064	0.1542	0.069948	0.12353	0.092241	0.013726	0.28587	0.031554	0.14851	0.16662	0.083202	0.066714	-2.8667	-2.7604	-3.0896	-3.4021	-2.8625	-3.3604	-3.2083	-2.8292	-3.4229	-3.0833	-2.9	-3.6063	-2.7542	-3.2958	-3.1917	-2.7188	1.938	265.490	122.411	73.640	258.401	34.788	-24.239	108.122	-54.991	233.042	211.059	220.458	208.403	267.466	262.772	85.003	0.00011409	0.000257	6.6821e-05	262.85	3.9223e-06	2.8009e-06	356.15	79.97	1.7613e-06	2.9085e-06	120.43	60.162	34.733	13.86	8.5537e-07	22.62	0.00016696	0.00016359	4.7972e-05	263.26	1.8009e-06	1.8163e-06	357.32	80.337	1.7411e-06	1.8258e-06	121.42	60.403	35.256	14.017	1.7979e-06	22.809	115.968	-45.403	8.757	-74.772	6.173	59.476	-75.051	-68.302	6.706	100.899	-70.103	-66.638	-64.671	-60.135	211.582	-61.766	-8191	255	
1313.916	1	1	0	0	0.29665	0.17004	0.22176	0.10985	0.03751	0.11571	0.18413	0.14341	0.15698	0.26109	0.13727	0.39282	0.22113	0.34121	0.091406	0.16	-3.1646	-3.0792	-2.8187	-3.3375	-2.7521	-3.3167	-3.2479	-2.6771	-3.3521	-3.1833	-2.8958	-3.4396	-2.875	-3.1312	-3.35	-2.7562	-43.194	-75.912	35.872	162.227	113.372	247.468	-4.079	-68.774	183.190	-42.754	266.966	183.506	-34.805	267.244	-25.942	22.559	0.00016363	0.0003599	3.2408e-05	259.52	1.2543e-06	1.8045e-06	354.96	79.894	3.2924e-06	3.5992e-06	123.16	61.211	34.71	13.673	2.6224e-06	22.616	0.00016855	0.00016512	4.8429e-05	260.95	1.8292e-06	1.9091e-06	354.82	80.745	1.8871e-06	1.8073e-06	122.64	60.947	35.131	13.858	1.8365e-06	22.812	127.484	34.716	219.279	-74.665	14.118	126.649	-75.237	-68.564	3.192	93.673	-70.156	-66.746	-64.302	-59.608	83.810	-62.547	-8191	255	
1314.012	1	1	0	0	0.356	0.17742	0.064977	0.19093	0.05297	0.22717	0.23738	0.11175	0.12486	0.14959	0.16437	0.15519	0.13253	0.10579	0.32678	0.30342	-2.8312	-2.9313	-2.6479	-3.4521	-2.7604	-3.1333	-3.2708	-2.6583	-3.4062	-2.8354	-2.8896	-3.5187	-3.0229	-3.1146	-3.1125	-2.9021	147.805	73.869	-27.633	223.002	255.327	68.633	192.406	90.477	58.798	264.726	223.293	89.692	115.008	38.372	15.494	-80.572	0.00021011	0.00015781	4.611e-05	258.3	4.8414e-06	1.2022e-06	350	80.908	2.7706e-06	1.1511e-06	117.91	59.565	34.118	13.25	2.1872e-06	21.979	0.00017056	0.00016366	4.9749e-05	258.94	1.8044e-06	1.8793e-06	350.67	81.57	1.8703e-06	1.8432e-06	119.12	59.839	34.634	13.566	1.8e-06	22.239	139.833	233.276	21.180	-74.595	9.215	137.516	-74.924	-68.298	89.365	137.867	-69.583	-67.082	-64.647	-60.258	64.588	-62.376	-8191	255	
1314.085	1	1	0	0	0.042639	0.15185	0.07912	0.2088	0.11778	0.086235	0.16082	0.10536	0.099315	0.061679	0.1887	0.13532	0.32531	0.078973	0.029074	0.22809	-3.1583	-3.1708	-2.6833	-3.3667	-3.1333	-3.0479	-3.3979	-2.7292	-3.3479	-3.2625	-2.7271	-3.4042	-2.9958	-3.0979	-3.4229	-2.7417	93.115	163.421	222.257	184.798	45.335	240.826	148.624	166.383	-16.900	124.812	210.419	-37.721	-45.630	171.527	-38.274	132.744	0.00014831	0.00011789	0.00012535	255.09	2.5768e-06	1.6707e-06	348.03	79.869	2.2777e-06	1.3489e-06	115.52	59.169	33.994	13.454	2.0255e-06	21.87	0.00017412	0.00016606	4.8873e-05	254.77	1.802e-06	1.9414e-06	347.29	80.746	1.8835e-06	1.8577e-06	116.89	59.276	34.487	13.591	1.8479e-06	22.088	110.461	-13.357	50.605	-74.749	-5.598	154.871	-75.635	-68.472	111.272	70.488	-70.517	-67.188	-64.572	-60.061	27.349	-62.343	-8191	255	
1314.204	1	1	0	0	0.2145	0.22549	0.18914	0.10105	0.023381	0.15224	0.34828	0.089504	0.19422	0.085106	0.11819	0.1505	0.098825	0.059544	0.24574	0.18445	-2.55	-3.2438	-2.8979	-3.5083	-3.1083	-2.6833	-3.5604	-2.9062	-3.2229	-3.3458	-2.7396	-3.5208	-3.1354	-2.7396	-3.4083	-2.9708	177.242	228.138	-13.115	40.505	8.033	216.304	135.059	-19.971	-66.432	-20.822	198.781	270.867	173.360	22.413	-7.163	126.114	0.00016033	0.00016563	5.0931e-05	256.56	5.0636e-06	4.6713e-06	345.52	80.551	1.0552e-06	1.8079e-06	117.68	59.841	34.346	13.449	3.8903e-06	22.176	0.00017862	0.00016818	4.8958e-05	254.7	1.8005e-06	1.9654e-06	346.13	81.086	1.9083e-06	1.7959e-06	117.9	59.798	34.712	13.564	1.8209e-06	22.288	112.354	39.221	-25.266	-75.224	24.800	119.393	-75.153	-68.498	87.149	89.627	-70.708	-66.894	-65.124	-60.242	96.594	-62.419	-8191	255	
1314.300	1	1	0	0	0.035726	0.14214	0.095585	0.047805	0.084745	0.29593	0.24038	0.24174	0.26759	0.069394	0.14024	0.13182	0.15368	0.099079	0.13338	0.096819	-2.6104	-3.2625	-2.6083	-3.4	-3.2667	-2.9604	-3.2562	-2.9437	-3.1354	-3.4292	-2.5396	-3.1188	-3.4062	-2.9792	-3.4083	-2.9792	-15.192	174.204	42.060	201.219	-41.815	80.438	-3.685	221.068	186.857	241.207	87.886	-37.638	57.517	-42.742	-2.892	28.597	0.00013871	0.00025485	5.0654e-05	257.44	3.8386e-06	1.982e-06	351.38	82.125	1.6965e-06	3.4909e-06	118.25	60.833	34.725	13.588	1.0964e-06	22.47	0.00018348	0.00017127	4.8589e-05	256.25	1.8473e-06	1.9352e-06	349.09	81.984	1.9572e-06	1.855e-06	119.27	60.716	35.151	13.636	1.912e-06	22.525	151.983	10.173	-8.557	-75.058	74.036	59.087	-76.003	-68.785	75.208	-35.484	-70.425	-67.262	-64.725	-60.364	137.277	-62.340	-8191	255	
1314.396	1	1	0	0	0.022884	0.16486	0.25415	0.099972	0.19278	0.096726	0.092233	0.19614	0.045865	0.13575	0.15148	0.077542	0.36428	0.13269	0.033391	0.045625	-2.6188	-3.2938	-2.7458	-3.25	-3.3312	-3.0458	-3.5458	-2.9542	-2.9167	-3.5708	-3.1104	-3.5187	-3.2875	-2.9271	-3.4729	-3.0438	155.126	71.269	-82.074	190.444	23.454	252.397	31.719	65.630	105.601	64.937	241.364	86.834	222.259	21.164	233.378	212.911	8.1454e-05	0.00028723	4.5205e-05	258.75	3.047e-06	2.2333e-06	353.57	82.345	1.9012e-06	2.4766e-06	118.04	60.205	34.718	13.393	2.1339e-06	21.962	0.00018153	0.00016979	4.9117e-05	258.12	1.8782e-06	1.9118e-06	352.27	82.397	1.9744e-06	1.8309e-06	118.84	59.987	34.992	13.527	1.9325e-06	22.123	131.133	-2.463	-50.035	-75.333	-42.011	18.395	-75.682	-69.021	272.662	207.232	-70.779	-67.300	-64.870	-60.318	123.976	-62.369	-8191	255	
1314.517	1	1	0	0	0.14151	0.089251	0.11867	0.21527	0.1673	0.066503	0.13713	0.14659	0.22282	0.021514	0.11987	0.17813	0.17348	0.19913	0.097442	0.23918	-2.4958	-3.4333	-2.8708	-3.1229	-3.5604	-2.6521	-3.4292	-3.1688	-3.0021	-3.4979	-2.8521	-3.1	-3.2333	-2.7771	-3.5229	-3.225	25.261	1.775	66.478	129.247	239.687	44.842	198.591	199.739	63.782	156.741	50.414	-13.599	173.552	118.668	202.963	93.721	0.00012352	0.0001312	0.00014168	259.37	1.971e-06	6.7235e-07	352.15	81.883	1.7015e-06	2.5697e-06	117.92	60.152	34.393	13.608	1.7396e-06	22.092	0.00018601	0.00016877	4.9311e-05	258.08	1.8646e-06	1.9061e-06	349.19	82.058	1.9807e-06	1.8569e-06	118.17	59.956	34.952	13.65	1.976e-06	22.162	124.673	15.740	33.108	-75.336	96.987	194.910	-76.182	-68.757	106.592	86.894	-70.478	-67.658	-65.334	-60.366	63.644	-62.326	-8191	255	
1314.613	1	1	0	0	0.12456	0.12122	0.054307	0.13313	0.16349	0.026671	0.04146	0.15203	0.061586	0.26772	0.14159	0.23103	0.19019	0.09371	0.071769	0.20757	-2.6125	-3.3333	-2.9562	-3.0438	-3.3063	-2.8646	-3.35	-3.2396	-2.8917	-3.3458	-2.9771	-3.0271	-3.5583	-2.9792	-3.3167	-3.0938	104.329	106.617	-48.646	-39.525	-72.843	-27.452	-81.912	67.187	58.133	121.057	123.120	237.522	258.803	211.148	157.189	245.643	0.00010357	0.00012796	4.3572e-05	258.24	1.8623e-06	3.229e-06	351.58	81.586	7.9818e-07	1.9398e-06	118.01	60.116	34.932	13.668	2.6157e-06	22.33	0.00017724	0.00017334	4.8186e-05	256.8	1.8329e-06	1.9141e-06	349.38	82.013	1.9631e-06	1.9206e-06	118.88	60.238	35.277	13.658	2.0056e-06	22.375	160.377	-53.044	-32.729	-74.790	263.953	77.954	-75.772	-68.700	23.907	14.000	-71.084	-67.666	-64.922	-60.080	189.856	-62.798	-8191	255	
1314.685	1	1	0	0	0.2344	0.089641	0.3164	0.31633	0.24652	0.082421	0.075961	0.048249	0.033379	0.13963	0.092977	0.072115	0.15063	0.060994	0.32636	0.24603	-2.4979	-3.2604	-3.0167	-2.9583	-3.4146	-2.7062	-3.2188	-3.4396	-2.8375	-3.4708	-3.1021	-2.9125	-3.3937	-2.75	-3.2458	-3.4583	-78.593	128.470	219.665	239.793	143.950	222.283	238.176	5.043	1.433	2.484	-76.541	240.001	252.500	-7.701	-48.194	146.055	0.00014292	0.00039405	0.00011758	256.13	8.428e-07	4.3213e-06	355.98	81.874	8.0088e-07	3.5114e-06	119.82	61.384	35.444	13.513	5.7383e-06	22.238	0.00018164	0.00017318	4.8798e-05	257.83	1.8142e-06	1.9066e-06	354.65	82.761	1.9599e-06	1.9708e-06	120.47	61.027	35.522	13.625	2.0167e-06	22.308	148.241	-11.881	0.745	-75.323	27.953	130.433	-75.775	-69.042	29.950	80.705	-70.606	-68.043	-65.414	-60.357	131.315	-62.768	-8191	255	
1314.806	1	1	0	0	0.075554	0.16417	0.13408	0.094689	0.15476	0.3746	0.23487	0.084328	0.14291	0.033953	0.13517	0.22656	0.10323	0.07384	0.11375	0.20586	-2.5604	-3.4104	-2.9479	-2.8792	-3.3688	-2.9646	-3.1771	-3.5	-2.875	-3.3021	-3.1125	-2.6229	-3.4021	-2.8708	-3.1396	-3.2417	-22.105	186.107	30.467	102.735	58.748	192.682	-22.948	62.795	116.579	44.545	-1.047	168.464	31.090	38.826	-25.805	-39.382	0.00013477	0.00034381	7.8987e-05	259.04	2.5218e-06	1.8398e-06	357.04	82.348	2.8112e-06	2.8843e-06	120.31	60.093	35.132	13.345	3.7753e-07	22.026	0.00018193	0.00018094	4.7866e-05	258.78	1.8758e-06	1.8993e-06	354.76	82.842	1.9155e-06	1.9763e-06	119.55	59.899	35.233	13.483	1.9479e-06	22.025	148.929	-2.448	-50.446	-75.338	40.935	122.546	-76.155	-69.008	34.246	3.324	-70.465	-67.912	-65.385	-60.519	189.749	-62.769	-8191	255	
1314.900	1	1	0	0	0.040551	0.13719	0.039428	0.094042	0.18537	0.024224	0.10396	0.12976	0.2416	0.24874	0.024326	0.1494	0.19067	0.18846	0.26127	0.029436	-2.3312	-3.2354	-3.3187	-2.9833	-3.5417	-3.2021	-3.1917	-3.2667	-2.6229	-3.1875	-3.3688	-2.8521	-3.4562	-3.0312	-2.8979	-3.3896	43.752	-60.902	219.545	137.462	52.392	189.195	0.059	45.618	-27.555	208.342	156.481	244.344	225.505	229.151	204.280	-46.029	8.7288e-05	0.00037887	9.1404e-05	261.25	9.5786e-07	3.5188e-06	352.7	81.951	2.2889e-06	1.4504e-06	119.01	59.973	34.46	13.191	4.1773e-06	22.026	0.00017856	0.0001813	4.7831e-05	259.75	1.8934e-06	1.8514e-06	352.02	82.18	1.8968e-06	1.9675e-06	118.4	59.558	34.712	13.34	1.944e-06	22.026	141.591	-15.511	-36.095	-74.980	47.103	83.089	-76.206	-69.114	47.982	-32.505	-70.908	-67.812	-65.751	-60.622	68.434	-63.397	-8191	255	
1314.996	1	1	0	0	0.18883	0.23838	0.0745	0.32052	0.12221	0.25297	0.036826	0.11855	0.31801	0.19613	0.040123	0.069158	0.2054	0.2351	0.1389	0.27881	-2.4042	-3.1542	-3.0687	-2.5979	-3.4062	-3.2792	-2.9271	-3.4229	-2.7833	-3.3	-3.4958	-2.8917	-3.2333	-3.0875	-2.8458	-3.4583	21.111	112.284	-62.834	272.237	2.328	26.979	230.967	-82.599	129.449	8.926	-25.610	85.426	254.126	-78.461	-24.137	69.807	0.00010505	1.4223e-05	3.8325e-05	257.88	1.3326e-06	1.3635e-06	352.92	81.972	1.2214e-06	2.3956e-07	119.05	60.284	34.732	13.26	1.1927e-06	22.324	0.00017254	0.00017499	4.57e-05	256.68	1.8858e-06	1.8165e-06	349.86	81.807	1.8702e-06	1.9114e-06	118.57	60.011	34.833	13.354	1.8683e-06	22.227	104.833	10.771	-55.849	-75.761	-57.274	4.507	-76.138	-68.817	-68.397	155.480	-70.820	-67.769	-65.251	-60.454	109.036	-62.808	-8191	255	
1315.117	1	1	0	0	0.098897	0.060359	0.14319	0.10403	0.16152	0.19371	0.17253	0.12014	0.22166	0.15193	0.1479	0.017362	0.12915	0.21591	0.25424	0.31377	-2.5042	-3.0917	-3.3854	-2.7896	-3.0979	-3.0667	-2.7833	-3.4688	-2.8375	-3.1729	-3.4917	-2.7021	-3.0396	-3.2354	-2.7479	-3.3833	257.911	168.464	34.364	-32.751	-64.546	72.248	104.176	111.132	50.744	-22.355	115.948	26.515	147.013	-17.701	72.324	13.480	7.8749e-05	0.00035412	5.4811e-05	260.04	4.0565e-06	1.597e-06	359.52	82.394	1.4457e-06	1.2468e-06	121.23	60.238	34.795	13.299	1.4486e-06	22.157	0.00016745	0.00017545	4.5427e-05	258.11	1.8521e-06	1.7865e-06	354.19	82.339	1.8342e-06	1.9121e-06	119.3	59.933	34.949	13.342	1.8465e-06	22.034	80.814	23.510	-16.060	-76.121	31.318	40.160	-76.450	-68.999	132.331	-4.333	-71.628	-68.100	-65.713	-61.145	65.847	-63.385	-8191	255	
1315.213	1	1	0	0	0.18098	0.16918	0.17633	0.09484	0.059971	0.14753	0.1144	0.068241	0.23763	0.28948	0.19037	0.24651	0.11519	0.18645	0.11511	0.17557	-2.5812	-3.0521	-3.4625	-2.7208	-3.1604	-3.2479	-2.8167	-3.4583	-2.9729	-2.7438	-3.4896	-2.6146	-3.2979	-3.4792	-2.7375	-3.3875	68.937	209.564	-70.787	-52.880	153.660	-55.545	121.663	232.659	145.949	66.032	183.395	-57.982	208.722	199.423	30.895	120.718	8.9197e-05	0.00010353	7.3108e-05	257.51	2.9088e-06	3.748e-06	353.13	82.335	1.7754e-06	2.3713e-06	117.79	59.115	34.167	13.228	5.9157e-07	21.754	0.00016422	0.00017678	4.43e-05	257.14	1.8664e-06	1.7877e-06	349.77	81.594	1.8032e-06	1.9142e-06	116.96	58.641	34.392	13.249	1.8413e-06	21.67	139.466	22.475	36.195	-75.448	-20.113	-13.624	-76.715	-69.118	159.223	2.386	-71.086	-68.222	-66.497	-60.481	119.957	-62.964	-8191	255	
1315.309	1	1	0	0	0.24474	0.11103	0.080004	0.073569	0.13086	0.19745	0.12013	0.31535	0.29076	0.18005	0.11964	0.029832	0.16106	0.065059	0.008467	0.11119	-2.7375	-2.7917	-3.3021	-2.825	-3.0625	-3.3667	-2.7792	-3.225	-3.0854	-3.2417	-3.5458	-2.7521	-3.0187	-3.3354	-2.8583	-3.3479	250.481	-18.191	89.224	-59.399	-45.195	-57.168	-24.849	261.751	-50.065	56.501	220.614	-47.403	56.096	-12.231	119.510	247.091	0.0001501	8.4558e-05	2.5025e-05	257.46	4.1493e-07	2.6086e-06	351.59	81.821	2.3894e-06	1.9009e-06	116.88	59.873	34.303	13.365	4.2939e-06	21.706	0.00016443	0.00017484	4.7062e-05	255.58	1.9234e-06	1.7821e-06	347.41	81.422	1.812e-06	1.8759e-06	116.77	58.979	34.624	13.331	1.8763e-06	21.818	122.334	-20.799	194.152	-75.385	-23.601	51.188	-76.975	-69.266	-29.947	47.865	-71.351	-67.866	-65.294	-60.674	103.666	-63.347	-8191	255	
1315.381	1	1	0	0	0.069604	0.19321	0.018865	0.074641	0.16466	0.048065	0.19924	0.27358	0.07787	0.095867	0.20977	0.13668	0.15541	0.12881	0.17313	0.18222	-2.7938	-2.9396	-3.3521	-2.8625	-2.7604	-3.3625	-2.8396	-3.4104	-3.1854	-2.8979	-3.5312	-3.1562	-3.0333	-3.4271	-2.7917	-3.1521	-26.238	100.895	211.543	167.479	68.584	-32.616	-53.080	208.115	-18.500	87.755	-54.472	175.766	139.342	7.785	124.847	270.905	7.6774e-05	0.0001902	4.4965e-05	260.27	3.9651e-06	2.6269e-06	351.51	82.063	6.5483e-07	2.4279e-06	119.12	60.114	35.068	13.368	1.0554e-06	22.312	0.00016714	0.00017062	4.6285e-05	256.05	1.8795e-06	1.789e-06	348.34	81.659	1.7585e-06	1.8801e-06	118.3	59.452	34.902	13.392	1.871e-06	22.072	141.483	-37.623	-67.680	-75.430	88.037	127.223	-76.166	-69.645	267.888	96.722	-71.399	-67.888	-65.505	-61.283	-8.390	-63.878	-8191	255	
1315.501	1	1	0	0	0.13629	0.15085	0.24383	0.13388	0.27813	0.1635	0.094263	0.12481	0.34558	0.020435	0.11816	0.12016	0.27301	0.19162	0.25369	0.14143	-2.7167	-2.6875	-3.6042	-2.9708	-3.05	-3.5729	-2.8583	-3.1542	-3.2521	-2.6833	-3.1562	-3.0958	-2.8458	-3.275	-2.9417	-3.0938	204.901	89.769	127.740	70.337	-86.834	203.792	-61.872	-46.044	180.857	152.208	188.923	198.546	24.229	16.143	-82.859	163.663	0.00014219	0.00012264	4.9432e-05	260.61	1.7719e-06	1.0738e-06	350.86	81.778	1.1594e-06	9.3042e-07	117.46	59.575	34.865	13.294	1.429e-06	21.648	0.00016357	0.00017148	4.6606e-05	256.08	1.8596e-06	1.7837e-06	348.35	82.056	1.765e-06	1.8628e-06	117.55	58.928	34.759	13.301	1.7947e-06	21.638	130.505	-22.208	-24.800	-75.327	-22.965	268.170	-76.565	-69.498	99.595	47.593	-70.889	-68.134	-65.729	-60.412	6.976	-63.127	-8191	255	
1315.597	1	1	0	0	0.16016	0.17288	0.22807	0.12241	0.047399	0.10478	0.14416	0.091665	0.036535	0.19256	0.13002	0.25898	0.20963	0.21626	0.079398	0.053106	-3.0854	-2.8667	-3.3625	-2.9896	-2.6771	-3.325	-2.9021	-3.0729	-3.4125	-2.8042	-3.3625	-3.2625	-2.8875	-3.4437	-2.9792	-3.0792	0.484	-30.162	272.517	117.600	-1.123	119.564	99.841	103.518	154.868	133.368	14.693	-83.717	81.069	-74.031	67.164	207.776	0.00016635	0.00012887	0.00010851	254.79	3.6644e-06	2.8462e-06	348.53	81.036	1.4826e-06	2.7382e-06	116.52	58.304	34.254	13.062	2.617e-06	21.501	0.00016566	0.00017045	4.8124e-05	254.92	1.8242e-06	1.8463e-06	344.57	81.128	1.7644e-06	1.8412e-06	115.89	58.094	34.547	13.256	1.8392e-06	21.445	110.402	21.013	-12.860	-75.552	28.236	82.302	-76.744	-69.443	-66.843	75.306	-70.728	-68.026	-65.172	-60.483	122.939	-62.579	-8191	255	
1315.694	1	1	0	0	0.1019	0.07239	0.12506	0.16055	0.10495	0.21826	0.069874	0.23462	0.090206	0.19804	0.14281	0.25808	0.064178	0.12401	0.23957	0.14902	-3.1063	-2.725	-2.9146	-3.0896	-2.7875	-3.5938	-2.8646	-2.7875	-3.3917	-2.8792	-3.3271	-3.3771	-2.7271	-3.6521	-3.2125	-3.05	0.028	48.107	251.493	3.544	178.769	-19.937	56.889	189.719	-25.871	-18.515	80.798	252.591	108.727	-40.787	106.797	228.025	0.00012526	0.00028341	5.3419e-06	252.11	3.4618e-06	2.6528e-06	342.74	80.618	3.1329e-06	2.3327e-06	115.26	58.624	34.013	13.155	1.9154e-06	21.357	0.00016258	0.00016649	4.6553e-05	252.27	1.8435e-06	1.8228e-06	341.24	81.022	1.7676e-06	1.8129e-06	115.87	58.253	34.587	13.235	1.7767e-06	21.493	128.869	140.651	26.264	-74.551	47.583	59.840	-76.086	-68.841	-9.582	126.149	-70.501	-67.106	-65.062	-60.481	114.646	-62.254	-8191	255	
1315.790	1	1	0	0	0.21763	0.21691	0.30916	0.040079	0.095307	0.12656	0.093355	0.087041	0.22031	0.23695	0.19283	0.10178	0.096541	0.20541	0.063128	0.1708	-3.0042	-3.1083	-3.3312	-3.5417	-2.9896	-3.3354	-3.0646	-2.9938	-3.5187	-2.8688	-2.9375	-3.2104	-2.825	-3.2229	-3.0417	-2.8208	196.784	183.009	168.400	244.850	255.085	253.521	74.062	-82.747	204.501	89.757	252.775	-58.718	224.715	245.229	90.630	126.839	0.00023833	0.00014918	4.5512e-05	251.52	2.73e-06	1.7658e-06	344.29	80.913	6.9781e-07	2.9535e-06	115.65	59.111	34.705	13.036	3.2346e-06	21.74	0.0001657	0.00016605	4.7553e-05	251.79	1.8462e-06	1.8413e-06	341.92	81.139	1.7936e-06	1.793e-06	116.17	58.886	34.761	13.229	1.7627e-06	21.672	121.954	85.352	234.711	-74.721	19.330	-4.292	-75.651	-68.584	104.225	63.698	-70.782	-67.213	-65.143	-60.071	89.000	-63.240	-8191	255	
1315.886	1	1	0	0	0.05496	0.11161	0.23686	0.14268	0.20326	0.25521	0.14048	0.068099	0.13888	0.16025	0.11372	0.16468	0.087744	0.096153	0.12476	0.17266	-2.8083	-2.7521	-2.7646	-3.3	-2.5563	-3.1937	-3.1958	-2.7292	-3.3187	-2.9062	-2.9437	-3.6021	-2.9229	-3.3792	-3.1458	-2.7125	118.652	189.004	-7.534	-51.791	258.005	130.282	200.071	155.090	234.463	89.796	36.425	-85.577	256.813	207.324	79.912	168.166	0.0001645	0.00028695	7.9322e-05	253.67	2.4245e-06	2.9461e-06	340.55	79.94	1.2283e-06	1.6547e-06	114.28	58.026	33.942	13.024	3.8748e-06	21.155	0.00017388	0.00016297	4.7595e-05	251.72	1.8575e-06	1.8602e-06	339.58	80.552	1.8333e-06	1.7834e-06	114.91	57.89	34.294	13.116	1.722e-06	21.225	126.557	30.887	37.053	-74.788	47.609	86.814	-75.358	-68.827	-4.348	31.651	-70.748	-67.618	-65.256	-60.278	-38.852	-62.988	-8191	255	
1315.980	1	1	0	0	0.24601	0.097507	0.20861	0.16964	0.14493	0.24354	0.081324	0.31502	0.0037938	0.1137	0.29004	0.031726	0.1109	0.056718	0.035662	0.023173	-2.9396	-2.8833	-2.8125	-3.35	-2.6833	-3.3021	-3.4938	-2.9583	-3.3521	-3.1167	-3.1521	-3.5354	-2.8542	-3.3083	-3.5583	-2.9896	-21.908	29.841	216.598	-27.617	238.284	41.195	234.653	263.291	255.712	97.146	174.106	28.550	48.614	75.443	-49.955	149.599	0.00012868	0.00016539	6.7844e-05	250.74	5.9105e-07	3.4135e-06	338.66	80.062	2.4802e-06	1.2585e-06	113.14	57.404	33.92	12.915	1.409e-06	21.064	0.0001683	0.00016023	4.6562e-05	250.95	1.8047e-06	1.8706e-06	337.35	80.433	1.8034e-06	1.779e-06	114.27	57.477	34.224	13.094	1.7318e-06	21.124	130.027	11.525	67.958	-74.670	61.093	24.956	-76.180	-68.653	262.182	49.044	-71.283	-67.279	-64.588	-60.640	21.879	-62.480	-8191	255	
1316.078	1	1	0	0	0.1729	0.088295	0.16974	0.033845	0.12907	0.079464	0.31208	0.11923	0.0548	0.078265	0.25457	0.10063	0.25974	0.21871	0.16581	0.20341	-2.925	-3.0438	-2.8396	-3.4875	-2.875	-3.0354	-3.2375	-2.7042	-3.3021	-3.2188	-2.8688	-3.4729	-2.9896	-3.1562	-3.4792	-2.8979	262.703	199.319	144.686	-80.827	86.230	70.086	176.929	82.818	263.923	50.199	171.343	183.565	-32.994	200.413	3.030	79.361	0.00017503	0.00022433	5.634e-05	249.71	3.2893e-06	2.9942e-06	339.29	80.039	1.8174e-06	3.0321e-06	113.87	57.525	34.103	13.029	6.2926e-07	20.905	0.00016896	0.00016185	4.687e-05	250.6	1.8137e-06	1.8643e-06	338.81	80.505	1.8168e-06	1.7296e-06	114.88	57.779	34.443	13.188	1.7426e-06	21.246	127.027	50.232	-22.961	-75.073	21.920	6.892	-75.505	-68.373	180.390	-13.223	-70.140	-67.552	-64.986	-60.131	17.266	-62.048	-8191	255	
1316.197	1	1	0	0	0.20414	0.25361	0.042552	0.21525	0.14329	0.14225	0.11448	0.25045	0.28301	0.079573	0.12136	0.03394	0.075121	0.16811	0.21436	0.18708	-3.0625	-3.3333	-2.7458	-3.3979	-2.9375	-3.0667	-3.4146	-2.8833	-3.2604	-3.2313	-2.7354	-3.4458	-2.8896	-2.8958	-3.4958	-2.8458	256.266	26.698	60.315	-76.114	25.783	-10.676	260.755	119.795	21.143	217.785	196.298	-7.513	272.965	138.288	94.267	-70.277	0.00013469	0.00021209	9.8943e-05	252.63	3.8064e-06	1.9625e-06	344.35	81.101	1.8068e-06	1.424e-06	116.09	58.763	34.507	13.133	2.9786e-06	21.106	0.0001689	0.00015817	4.6457e-05	251.57	1.737e-06	1.8138e-06	341.19	81.291	1.8515e-06	1.7534e-06	116.18	58.45	34.765	13.253	1.8234e-06	21.362	90.841	44.701	28.722	-74.802	-35.798	51.573	-76.347	-68.862	87.826	23.512	-70.750	-66.931	-64.901	-60.168	126.176	-62.435	-8191	255	
1316.293	1	1	0	0	0.025495	0.083461	0.29268	0.19358	0.154	0.11706	0.10659	0.034485	0.060875	0.083726	0.19991	0.10574	0.12873	0.14763	0.26303	0.026461	-2.8937	-3.1375	-2.7042	-3.3542	-2.9708	-2.8667	-3.5271	-2.9729	-3.2458	-3.5521	-2.7875	-3.2562	-2.9625	-2.9417	-3.4333	-3	68.429	239.650	8.547	65.113	181.029	112.332	114.862	-41.120	-51.966	170.386	248.579	182.592	148.435	-41.936	49.625	178.268	0.00014971	0.00028584	4.6279e-05	250.36	2.8308e-06	1.2012e-06	340.94	80.473	2.1355e-06	3.1917e-06	114.8	57.193	33.969	12.734	1.7538e-06	20.842	0.00017072	0.00015191	4.8641e-05	250.67	1.737e-06	1.8032e-06	339.74	80.842	1.8178e-06	1.6801e-06	114.68	57.385	34.327	13.064	1.822e-06	20.948	135.459	-8.307	262.833	-74.876	46.569	-40.775	-75.721	-68.342	-17.121	50.029	-70.078	-67.331	-64.722	-60.305	57.210	-62.358	-8191	255	
1316.389	1	1	0	0	0.19818	0.28142	0.10423	0.26179	0.11035	0.19934	0.11915	0.15046	0.095662	0.04364	0.11836	0.145	0.13477	0.22284	0.23181	0.10994	-2.8729	-3.55	-2.8563	-3.3375	-3.1937	-2.9479	-3.3937	-3.1104	-3.1896	-3.4208	-2.9042	-3.4562	-3.2292	-2.7562	-3.2646	-2.8896	179.699	30.786	41.707	189.986	157.594	208.859	190.468	213.497	258.331	166.070	-50.232	46.002	157.509	199.011	-63.116	222.320	0.0001709	0.00016338	1.0455e-05	251.15	2.5339e-06	5.6257e-06	338.46	79.989	2.7115e-06	1.4204e-07	114.39	58.027	34.196	12.994	2.0521e-06	21.058	0.00016927	0.00015742	4.5879e-05	250.65	1.6723e-06	1.8389e-06	338.17	80.711	1.7728e-06	1.7191e-06	114.98	57.784	34.465	13.167	1.7428e-06	21.185	123.484	-9.967	-37.838	-74.648	4.246	18.824	-75.410	-68.813	165.548	171.871	-70.517	-67.536	-65.061	-60.311	37.510	-62.563	-8191	255	
1316.486	1	1	0	0	0.17091	0.071941	0.34295	0.037458	0.1527	0.127	0.15523	0.10631	0.023373	0.093467	0.057076	0.16311	0.29528	0.20877	0.1923	0.28847	-2.4875	-3.3396	-2.7938	-3.1396	-3.1646	-2.6417	-3.3604	-2.6896	-2.7604	-3.3563	-2.8646	-3.1437	-3.2771	-2.5604	-3.2333	-3.0729	-85.034	15.575	189.273	-60.994	101.669	-21.527	88.539	145.833	129.514	152.406	-21.660	16.139	239.451	246.003	133.832	148.701	0.00014726	0.00024869	4.0802e-05	251.6	1.0052e-06	4.0726e-06	340.84	80.914	5.3642e-07	2.2412e-06	116.39	58.525	34.581	13.187	6.3159e-07	21.259	0.00016593	0.00015863	4.6676e-05	251.69	1.6235e-06	1.837e-06	340.22	81.156	1.7946e-06	1.7981e-06	115.95	58.401	34.761	13.332	1.798e-06	21.412	132.161	22.317	22.150	-74.997	102.703	50.810	-76.305	-68.775	162.422	252.766	-71.520	-67.678	-65.353	-60.559	180.526	-62.641	-8191	255	
1316.606	1	1	0	0	0.076	0.070779	0.04921	0.088587	0.11026	0.2114	0.29216	0.21922	0.033378	0.09605	0.2266	0.075712	0.16529	0.066927	0.087059	0.073761	-2.3396	-3.4896	-2.7313	-3.15	-3.2542	-2.7229	-3.5583	-3.1312	-2.8854	-3.5479	-3.1208	-3.0271	-3.4604	-2.8208	-3.3271	-3.3688	147.677	190.570	65.508	-51.624	104.502	205.400	39.754	236.547	260.808	171.040	-66.439	116.708	-10.063	1.630	235.064	1.574	0.00013457	0.00015326	7.9157e-05	250.59	3.0868e-06	1.3621e-06	340.44	80.426	1.8802e-06	3.2852e-06	115.23	58.771	34.493	13.114	3.0077e-06	21.101	0.00016808	0.0001609	4.4765e-05	251.31	1.688e-06	1.858e-06	341.73	81.292	1.8272e-06	1.7585e-06	115.64	58.381	34.792	13.291	1.8405e-06	21.244	156.728	-56.031	31.874	-74.740	3.431	-9.000	-75.183	-68.709	61.725	88.724	-70.121	-67.311	-64.330	-59.872	97.537	-62.315	-8191	255	
1316.678	1	1	0	0	0.1026	0.15586	0.23706	0.076055	0.23961	0.30912	0.11049	0.16461	0.075505	0.13947	0.040015	0.11729	0.16492	0.098504	0.07287	0.3271	-2.5104	-3.3875	-2.875	-2.8021	-3.4437	-2.8708	-3.4104	-3.075	-2.7354	-3.2708	-2.9	-2.8729	-3.3271	-2.7854	-2.9896	-3.3312	72.020	133.756	43.105	-6.795	89.385	40.664	220.968	-66.655	182.034	182.295	12.639	269.066	58.834	239.416	139.770	-82.178	0.00010729	0.00043676	8.5918e-05	249.24	1.3271e-06	4.2765e-06	342.48	81.035	4.585e-06	1.1071e-06	113.57	57.283	34.539	13.021	2.2927e-06	20.962	0.00016935	0.00016338	4.5228e-05	251.39	1.7631e-06	1.7967e-06	341.09	81.09	1.8944e-06	1.8032e-06	114.3	57.405	34.683	13.203	1.8213e-06	20.971	125.888	51.546	265.614	-74.543	123.828	63.178	-76.306	-68.586	37.714	123.252	-70.273	-67.699	-65.233	-60.299	43.166	-62.599	-8191	255	
1316.774	1	1	0	0	0.25974	0.12699	0.1636	0.13486	0.17733	0.19584	0.20685	0.16217	0.086782	0.017459	0.16704	0.13223	0.23699	0.21858	0.092855	0.05323	-2.4958	-3.3271	-3.0854	-2.7979	-3.4917	-2.7708	-3.2646	-3.2917	-2.875	-3.5229	-2.9896	-2.8438	-3.4875	-2.8042	-3.1708	-3.3	25.415	4.975	-39.334	190.731	65.612	30.732	62.631	32.557	130.898	168.034	206.177	68.738	-72.835	-1.122	-10.664	250.110	0.00011405	0.00024992	0.00013886	251.93	2.0315e-06	3.8444e-06	341.27	80.644	1.687e-06	1.4678e-06	115.21	57.747	34.807	13.153	2.517e-06	21.095	0.00017528	0.00016817	4.405e-05	251.74	1.7763e-06	1.779e-06	340.08	81.14	1.8216e-06	1.8595e-06	114.89	57.754	34.867	13.196	1.8091e-06	21.129	120.640	-0.612	26.727	-75.070	61.637	68.642	-75.832	-69.010	53.379	22.922	-70.820	-66.919	-65.062	-60.269	92.133	-62.931	-8191	255	
1316.893	1	1	0	0	0.28443	0.20754	0.2215	0.15324	0.03768	0.1264	0.21635	0.18275	0.049521	0.10993	0.11734	0.11013	0.063064	0.25589	0.15968	0.082513	-2.2062	-3.3937	-2.9979	-2.65	-3.2896	-2.9771	-3.1021	-3.4583	-2.8458	-3.3042	-3.2042	-2.9854	-3.4875	-3.1312	-3.0062	-3.5396	-80.882	190.705	25.198	190.756	-40.214	106.839	113.220	135.570	-26.072	71.699	32.346	138.941	201.885	-2.626	-10.190	71.889	0.00017684	0.00011487	4.0043e-05	248.96	3.0161e-06	3.4958e-06	343.23	80.943	8.5665e-07	1.5201e-06	115.48	58.212	34.554	13.281	1.0804e-06	21.215	0.00016634	0.00016518	4.3985e-05	250.08	1.7516e-06	1.755e-06	340.45	81.367	1.7829e-06	1.828e-06	115.54	58.207	34.892	13.308	1.8096e-06	21.357	135.407	23.346	-31.771	-74.434	33.525	32.382	-75.917	-68.733	123.050	41.452	-70.576	-68.042	-64.987	-60.133	41.250	-62.647	-8191	255	
1316.989	1	1	0	0	0.093893	0.15073	0.24975	0.09682	0.091898	0.17686	0.079264	0.29947	0.13636	0.12478	0.13279	0.28329	0.037959	0.082386	0.1133	0.18923	-2.2687	-3.2479	-3.1896	-2.8958	-3.5438	-3.0021	-2.9875	-3.4458	-2.6937	-3.0667	-3.25	-2.8854	-3.4979	-3.1896	-3.0708	-3.5896	113.071	144.996	-86.396	103.492	-73.692	219.659	255.885	252.879	-14.832	53.257	194.037	-85.326	154.513	130.405	197.212	43.306	0.00015961	0.00025807	7.6496e-05	252.57	7.77e-07	1.9508e-06	345.67	81.417	7.5109e-07	7.5352e-07	116.91	58.215	34.395	13.233	1.9186e-06	21.083	0.000166	0.00016684	4.2216e-05	251.94	1.7888e-06	1.6982e-06	343.07	81.804	1.8114e-06	1.8052e-06	116.01	58.146	34.772	13.291	1.8343e-06	21.123	130.499	46.617	30.262	-75.527	16.104	60.097	-76.399	-69.205	-36.119	120.655	-70.226	-67.829	-64.703	-60.680	82.588	-62.629	-8191	255	
1317.085	1	1	0	0	0.081137	0.025067	0.10301	0.10464	0.11775	0.13274	0.23352	0.1809	0.18174	0.022742	0.29468	0.28571	0.24467	0.21477	0.076611	0.26485	-2.6333	-3.1437	-3.3604	-2.6521	-3.3438	-3.1146	-2.7313	-3.2958	-2.7792	-2.9458	-3.35	-2.7771	-3.3792	-3.1063	-2.8833	-3.5542	97.148	88.883	-40.490	-76.463	0.246	66.763	233.268	220.982	141.202	39.627	97.878	266.340	175.098	18.483	-49.590	155.129	0.00012055	0.00013607	1.0205e-05	251.7	1.3749e-06	1.0553e-06	338.69	81.163	1.4534e-06	1.5012e-06	115.42	57.819	34.417	13.109	1.745e-06	20.964	0.00016219	0.00016125	4.4057e-05	252.34	1.7431e-06	1.6931e-06	340.45	81.516	1.764e-06	1.7898e-06	114.72	57.429	34.717	13.182	1.8588e-06	21.055	136.968	10.213	-64.312	-74.430	-75.623	156.787	-75.235	-68.334	39.003	107.815	-70.688	-68.042	-64.970	-59.858	50.229	-62.514	-8191	255	
1317.206	1	1	0	0	0.25626	0.12772	0.089816	0.18468	0.026436	0.15641	0.19793	0.11278	0.035795	0.17861	0.21228	0.27412	0.059403	0.014399	0.14773	0.071178	-2.525	-3.0833	-3.3542	-2.5812	-3.2771	-3.1104	-2.8021	-3.4083	-2.9292	-2.8771	-3.3917	-2.6188	-2.9625	-3.3104	-2.7792	-3.5021	116.988	35.712	272.555	169.673	-18.189	-13.180	12.221	138.056	34.474	249.528	196.163	8.703	210.725	6.161	103.958	267.341	7.0328e-05	0.00032499	4.6778e-05	253.19	5.9295e-06	2.0532e-06	345.08	81.799	2.6682e-06	3.1799e-06	115.69	58.265	34.328	13.248	2.3203e-06	21.276	0.00015877	0.00016357	4.5335e-05	252.95	1.7676e-06	1.6539e-06	342.96	81.965	1.6966e-06	1.7344e-06	115.35	57.86	34.769	13.273	1.8443e-06	21.243	143.868	9.273	61.375	-75.399	26.652	49.167	-76.226	-68.752	37.066	95.024	-70.848	-67.958	-65.242	-60.053	117.575	-62.830	-8191	255	
1317.277	1	1	0	0	0.14051	0.052716	0.27045	0.075597	0.17783	0.042269	0.19856	0.080303	0.057946	0.071712	0.19476	0.17812	0.41949	0.24055	0.097231	0.18015	-2.6417	-2.9062	-3.2417	-2.5687	-3.0417	-3.2917	-2.8021	-3.3375	-2.8833	-2.7833	-3.2646	-2.8167	-3.0667	-3.2458	-2.6063	-3.3187	116.884	235.304	-84.353	205.882	12.710	139.349	-21.256	16.861	188.072	131.474	50.165	-27.150	153.901	195.468	-71.416	112.172	6.9779e-05	0.00030561	4.5481e-05	255.4	4.4045e-06	1.9256e-06	342.87	82.319	2.9557e-06	3.3585e-06	117.37	59.167	35.121	13.352	1.5322e-06	21.455	0.00016023	0.0001678	4.5093e-05	253.58	1.7737e-06	1.6953e-06	342.21	82.29	1.6842e-06	1.822e-06	116.28	58.552	35.165	13.381	1.7844e-06	21.467	137.446	270.452	-27.557	-75.190	2.577	10.981	-76.155	-68.812	-57.427	97.582	-71.204	-67.920	-65.891	-60.676	118.538	-63.031	-8191	255	
1317.374	1	1	0	0	0.080509	0.033393	0.093916	0.045731	0.13883	0.15202	0.17144	0.10667	0.16056	0.24512	0.23951	0.054692	0.11298	0.055103	0.1538	0.13622	-2.55	-2.7875	-3.3187	-2.8083	-2.9542	-3.3979	-2.7625	-3.3479	-3.1562	-2.9146	-3.3479	-3.0646	-3.0563	-3.3333	-2.7646	-3.4417	41.047	147.276	-28.712	239.051	126.998	56.883	121.923	-5.184	-36.262	-60.166	186.649	229.745	65.734	167.251	-30.797	113.648	0.0001366	0.00012493	0.00015326	255.52	8.9314e-07	6.6602e-07	347.14	82.486	8.1179e-07	2.3844e-06	116.39	57.78	34.462	13.074	3.5484e-06	21.215	0.00015425	0.00016494	4.5307e-05	254.56	1.7434e-06	1.7266e-06	344.37	82.344	1.6606e-06	1.8436e-06	116.18	57.852	34.764	13.203	1.7915e-06	21.257	109.824	-27.170	18.198	-75.083	-27.652	-20.737	-75.903	-68.866	0.918	79.683	-71.107	-67.650	-65.110	-60.426	87.392	-62.805	-8191	255	
1317.470	1	1	0	0	0.12856	0.050791	0.032079	0.20251	0.034668	0.12008	0.11752	0.27488	0.017599	0.10443	0.18972	0.12824	0.029861	0.14736	0.087616	0.1141	-2.8229	-2.5896	-3.6688	-2.9813	-3.0042	-3.3646	-2.5333	-3.0667	-3.0958	-2.6979	-3.4354	-3.0604	-2.9229	-3.4521	-2.8354	-3.2104	169.977	41.481	237.697	-84.369	-67.337	-68.871	114.280	106.215	91.041	208.484	22.758	192.195	249.486	209.362	23.420	112.616	9.6263e-05	0.00032345	6.9129e-05	253.71	2.538e-06	2.4734e-06	344.44	81.432	1.2386e-06	2.8876e-06	114.93	57.824	34.661	13.245	3.2024e-06	21.398	0.00015772	0.00017046	4.5503e-05	254.11	1.7499e-06	1.7725e-06	343.26	81.861	1.6792e-06	1.8286e-06	114.89	57.658	34.846	13.271	1.7509e-06	21.29	145.370	50.348	-32.382	-74.584	-54.925	59.560	-76.157	-68.702	51.382	48.033	-70.779	-67.243	-64.905	-60.275	93.004	-62.983	-8191	255	
1317.566	1	1	0	0	0.078965	0.28187	0.15665	0.043067	0.26052	0.1532	0.11453	0.13928	0.21487	0.19755	0.053214	0.10813	0.30993	0.1813	0.19626	0.20344	-2.8958	-2.6958	-3.2396	-3.0479	-2.6521	-3.2313	-2.7562	-2.9708	-3.3729	-2.8583	-3.3021	-2.9146	-2.7687	-3.1771	-2.8396	-2.9417	145.862	182.247	-3.015	213.056	-21.724	-31.143	246.095	-34.431	89.805	137.180	74.834	110.896	-6.180	-6.568	-58.374	-56.421	0.00016054	0.00023782	8.4464e-05	255.41	4.2285e-06	1.3205e-06	344.56	82.727	7.2273e-07	1.6086e-06	115.35	58.278	34.885	13.199	4.1804e-06	21.457	0.0001621	0.00016374	4.4525e-05	254.18	1.8043e-06	1.7764e-06	342.71	82.496	1.7271e-06	1.8254e-06	115.76	58.257	35.159	13.356	1.7291e-06	21.433	118.538	14.886	-22.847	-75.252	2.918	59.932	-76.453	-68.961	51.800	34.231	-70.740	-67.314	-65.428	-60.773	78.010	-63.172	-8191	255	
1317.685	1	1	0	0	0.2117	0.20938	0.1535	0.25916	0.17929	0.080629	0.27404	0.19031	0.26872	0.29426	0.11399	0.28217	0.065395	0.066737	0.10686	0.14792	-3.0104	-2.6333	-3.2917	-3.1562	-2.8	-3.4833	-2.8354	-2.8271	-3.3583	-2.6958	-3.3042	-3.2542	-2.9271	-3.4042	-2.9917	-2.8875	-28.035	179.236	90.299	106.078	141.471	-68.563	152.328	56.980	25.476	71.981	212.020	62.281	-14.240	215.458	13.084	229.070	0.00010638	0.00040374	4.2636e-05	255.66	2.7694e-06	3.2612e-06	347.86	82.473	1.2957e-06	2.8806e-06	116.25	58.753	35.434	13.467	2.5224e-06	21.483	0.00016126	0.00016768	4.5195e-05	254.75	1.8399e-06	1.7911e-06	345.18	82.867	1.7834e-06	1.7284e-06	116.91	58.748	35.488	13.509	1.7155e-06	21.655	116.642	-21.843	40.427	-74.661	131.735	89.569	-76.288	-68.521	90.953	52.436	-70.426	-67.302	-64.894	-60.244	234.294	-63.063	-8191	255	
1317.781	1	1	0	0	0.11051	0.10598	0.1043	0.13609	0.2036	0.016002	0.034793	0.31403	0.1454	0.22384	0.18864	0.12724	0.20594	0.028516	0.087695	0.23142	-3.0062	-2.6896	-3.1521	-3.2188	-2.7792	-3.3021	-3.0708	-2.9667	-3.425	-2.8604	-3.4083	-3.3187	-2.8708	-3.4229	-2.95	-2.8854	28.260	228.526	5.566	260.401	22.850	26.587	232.326	103.468	194.592	6.767	38.651	38.101	-30.608	237.508	201.512	234.195	0.00016893	0.00012043	7.8557e-05	255.84	1.985e-06	1.2711e-06	348.49	81.6	4.3272e-07	7.6635e-07	116.72	59.061	35.113	13.443	8.2429e-07	21.416	0.00015998	0.0001598	4.4647e-05	255.68	1.8055e-06	1.7711e-06	346.37	82.554	1.7595e-06	1.757e-06	116.31	58.333	35.226	13.44	1.656e-06	21.392	124.577	22.126	74.417	-74.447	122.194	218.230	-75.652	-68.645	128.569	-74.193	-70.643	-67.719	-65.907	-60.165	1.454	-63.578	-8191	255	
1317.879	1	1	0	0	0.21124	0.30479	0.194	0.16545	0.057405	0.097764	0.14572	0.1256	0.16724	0.1895	0.14793	0.11218	0.056074	0.28945	0.031659	0.12956	-3.0521	-2.5958	-2.9083	-3.3688	-2.8563	-3.3479	-3.0542	-2.7917	-3.3083	-3.0396	-3.2229	-3.5667	-2.8875	-3.1479	-3.1125	-2.8104	71.245	171.662	89.805	256.260	68.710	234.331	18.892	-63.951	90.181	254.832	63.502	186.660	214.254	-41.296	60.990	192.648	8.257e-05	0.00011357	8.6996e-05	257.05	2.3934e-06	1.6678e-06	345.61	83.066	1.1693e-06	1.4018e-06	117.43	58.555	34.961	13.373	1.8629e-06	21.371	0.00016333	0.00015985	4.5512e-05	256.39	1.783e-06	1.7643e-06	344.9	83.042	1.7504e-06	1.6976e-06	116.2	58.329	35.264	13.465	1.6993e-06	21.456	139.759	-2.806	29.372	-74.903	201.197	107.781	-75.876	-68.751	32.191	74.443	-70.676	-67.317	-65.203	-60.298	15.067	-63.030	-8191	255	
1317.975	1	1	0	0	0.12712	0.29267	0.19039	0.074063	0.19293	0.18903	0.095414	0.32551	0.19345	0.14009	0.19465	0.14939	0.26386	0.077989	0.093842	0.11931	-2.9062	-2.8167	-2.8917	-3.3479	-2.5854	-3.1	-3.2729	-2.8854	-3.4437	-3.0146	-2.8187	-3.3854	-2.6021	-2.7625	-3.0146	-2.7625	-80.832	44.444	254.494	-57.921	60.407	228.195	5.187	44.826	154.083	129.320	1.542	192.405	-3.236	106.163	225.433	-1.268	0.00013717	7.4241e-05	2.389e-05	255.86	1.3103e-06	4.06e-06	345.89	82.743	1.4876e-06	2.2572e-06	116.34	58.404	35.307	13.284	4.0833e-06	21.507	0.00016395	0.00015644	4.5239e-05	255.99	1.7774e-06	1.7885e-06	344.73	83.277	1.7872e-06	1.6879e-06	116.8	58.74	35.47	13.49	1.7083e-06	21.605	118.651	9.812	100.941	-74.370	228.900	84.165	-75.613	-68.519	-10.031	81.771	-70.411	-67.326	-64.863	-60.081	74.641	-62.173	-8191	255	
1318.069	1	1	0	0	0.091128	0.31816	0.25335	0.13454	0.045797	0.13561	0.064797	0.083214	0.15117	0.058824	0.3325	0.089867	0.24326	0.075188	0.049861	0.10119	-3.0521	-3.0292	-2.8354	-3.5479	-2.8479	-3.1354	-3.3688	-2.7333	-3.15	-3.2208	-2.6792	-3.4188	-2.8375	-2.9333	-3.2917	-2.5729	-5.308	31.538	267.673	33.413	-20.037	160.806	-3.477	-18.406	6.854	135.404	198.790	-15.667	166.409	-79.982	47.766	-2.935	0.00013557	0.00020451	9.1807e-05	256.99	1.0268e-06	8.7213e-07	350.56	83.78	1.7946e-06	2.607e-06	116.73	59.908	35.649	13.554	7.5403e-07	21.675	0.0001658	0.00015303	4.6464e-05	256.01	1.7473e-06	1.7882e-06	347.99	83.57	1.7395e-06	1.6831e-06	117.82	59.397	35.626	13.61	1.765e-06	21.656	125.334	85.130	-5.835	-75.002	14.720	52.612	-76.422	-68.827	-15.807	25.852	-70.448	-67.640	-65.400	-60.729	3.967	-63.149	-8191	255	
1318.166	1	1	0	0	0.31739	0.13046	0.17364	0.095144	0.16564	0.19913	0.088235	0.074664	0.17461	0.33346	0.13819	0.059515	0.19787	0.17912	0.03607	0.2978	-2.8417	-2.9083	-2.6958	-3.3833	-2.8417	-2.8604	-3.2812	-2.6854	-3.2292	-3.0875	-2.7708	-3.2646	-2.8229	-2.9083	-3.3083	-2.6833	264.554	153.944	259.023	10.226	166.791	-11.399	81.848	85.516	143.181	87.272	170.807	-59.850	258.641	126.208	124.275	187.694	0.00014723	0.00015426	6.7156e-05	258.99	5.5609e-07	3.6109e-06	352.81	84.465	1.0845e-06	1.3129e-06	117.19	59.224	35.753	13.552	1.7179e-06	21.592	0.00016318	0.0001581	4.808e-05	257.39	1.6661e-06	1.8337e-06	348.67	83.733	1.7794e-06	1.6995e-06	116.39	58.331	35.429	13.483	1.7795e-06	21.409	127.323	-32.209	96.145	-74.616	63.432	-24.779	-76.275	-69.181	-28.008	91.995	-71.262	-68.418	-65.825	-60.881	68.491	-63.792	-8191	255	
1318.286	1	1	0	0	0.078163	0.14867	0.082887	0.22282	0.1316	0.27866	0.051832	0.14336	0.12176	0.13846	0.23633	0.097396	0.23894	0.16221	0.15382	0.12133	-2.8042	-2.9896	-2.5875	-3.2083	-2.8937	-2.9021	-3.5917	-2.9292	-3.2375	-3.4333	-2.6271	-3.2438	-2.8292	-2.7687	-3.2687	-2.7958	-82.392	-17.782	268.571	242.619	-63.959	112.187	199.891	155.629	184.653	-58.612	14.909	-84.293	95.527	130.314	110.963	223.219	0.00011714	0.00015344	2.262e-05	261.02	4.5799e-06	3.3062e-06	354.48	83.616	2.4692e-06	2.3671e-06	117.92	59.4	35.825	13.596	2.247e-06	21.841	0.00016342	0.00015971	4.7211e-05	257.27	1.6179e-06	1.8185e-06	346.58	83.255	1.7386e-06	1.7583e-06	116.69	58.66	35.534	13.537	1.7414e-06	21.483	123.714	13.722	-52.938	-75.460	51.235	62.652	-77.059	-69.584	5.269	43.392	-71.616	-68.648	-66.326	-61.475	27.784	-63.379	-8191	255	
1318.382	1	1	0	0	0.044588	0.1692	0.2385	0.046953	0.20017	0.098905	0.1029	0.13099	0.39634	0.069643	0.055337	0.12447	0.12757	0.033355	0.127	0.27792	-2.8812	-3.2333	-2.8229	-3.3688	-3.2104	-2.8563	-3.3354	-2.8833	-2.9042	-3.4167	-2.6021	-3.3417	-3.1979	-2.8604	-3.4625	-2.9917	39.336	216.690	268.010	134.870	263.750	218.791	-84.675	80.589	248.771	-66.276	-85.679	257.217	-86.525	54.504	244.418	153.070	8.1424e-05	0.00013801	0.00011957	260.3	2.8766e-07	4.7169e-06	353.96	83.93	2.4438e-06	1.4642e-06	119.05	60.213	35.829	13.73	8.168e-07	21.935	0.00016499	0.0001585	4.6671e-05	256.6	1.6548e-06	1.8548e-06	347.14	83.372	1.7831e-06	1.7573e-06	117.41	59.022	35.702	13.597	1.7847e-06	21.727	142.586	-18.569	65.882	-75.939	121.894	93.097	-76.958	-69.239	-17.096	36.690	-71.859	-68.727	-65.943	-60.900	-40.925	-63.675	-8191	255	
1318.478	1	1	0	0	0.036758	0.090163	0.11732	0.13114	0.1295	0.097838	0.069209	0.015968	0.17479	0.22426	0.02542	0.063608	0.16721	0.088305	0.059555	0.052932	-2.6771	-3.4562	-2.6229	-3.1375	-3.2521	-2.8521	-3.5458	-3.2188	-3.0708	-3.4208	-2.6729	-3.1646	-3.1771	-2.4646	-3.2188	-3.0375	53.107	132.687	249.232	29.524	186.129	-17.598	145.463	19.211	161.772	75.013	-48.162	62.964	169.745	231.452	41.808	245.991	0.00012456	0.00031737	4.9053e-05	264.32	2.0312e-06	1.0727e-06	356.23	83.76	7.4208e-07	2.6185e-06	119.27	59.904	35.935	13.419	3.1756e-06	21.66	0.00017119	0.00016354	4.6023e-05	258.97	1.711e-06	1.8568e-06	349.98	83.502	1.8628e-06	1.7794e-06	117.68	59.298	35.815	13.555	1.8079e-06	21.542	113.139	94.487	-40.908	-75.522	46.312	0.928	-76.564	-69.249	193.221	-8.574	-71.306	-68.071	-65.729	-60.149	113.456	-63.134	-8191	255	
1318.575	1	1	0	0	0.1091	0.066648	0.22358	0.21328	0.27246	0.036395	0.17996	0.26244	0.12793	0.15063	0.12103	0.18361	0.19139	0.1849	0.079431	0.24787	-2.5771	-3.35	-2.6875	-3.2375	-3.3229	-2.8333	-3.3792	-2.8729	-2.8229	-3.2604	-2.5979	-3.0396	-3.0792	-2.5896	-3.1083	-2.975	-75.441	53.924	166.381	137.162	-61.639	251.785	99.283	-64.223	41.546	122.630	-18.123	248.327	213.405	224.378	103.229	-11.025	0.00013951	0.00012891	0.00013774	255.63	1.8799e-06	5.3218e-06	347.44	82.493	2.3078e-06	2.0618e-06	116.48	58.593	35.275	13.412	2.4088e-06	21.106	0.00017009	0.00015942	4.3204e-05	257.01	1.7531e-06	1.8078e-06	346.7	82.765	1.8317e-06	1.7947e-06	115.7	58.118	35.338	13.511	1.7527e-06	21.247	151.314	-1.118	21.939	-74.861	-30.250	80.148	-75.608	-68.409	83.167	68.301	-70.780	-67.759	-65.008	-60.212	108.603	-62.467	-8191	255	
1318.671	1	1	0	0	0.10626	0.074948	0.28807	0.26687	0.14387	0.086748	0.052093	0.17863	0.13855	0.23151	0.067995	0.19983	0.17637	0.18912	0.22896	0.22474	-2.3875	-3.3167	-2.7771	-2.9708	-3.3958	-2.6354	-3.2833	-3.0938	-2.7521	-3.3771	-2.8021	-2.8271	-3.3458	-2.6833	-3.2062	-3.1583	209.327	150.439	178.728	-57.782	-13.234	232.761	93.188	256.365	-82.372	-5.766	191.969	230.491	-57.384	67.840	-16.496	-74.542	0.00016487	0.0002773	0.0001068	256.56	2.7327e-06	1.5185e-06	347.62	83.605	3.846e-06	1.2644e-06	117.2	58.765	34.874	13.327	7.8311e-07	21.52	0.00017139	0.0001588	4.2651e-05	256.77	1.7473e-06	1.7812e-06	346.39	83.001	1.8462e-06	1.7834e-06	115.88	58.328	35.299	13.438	1.7121e-06	21.403	137.552	118.902	140.106	-74.730	73.202	-34.821	-76.208	-68.869	112.764	-73.017	-70.842	-67.602	-64.754	-60.535	-80.104	-62.804	-8191	255	
1318.767	1	1	0	0	0.12186	0.035229	0.096714	0.045258	0.031364	0.011291	0.18541	0.29886	0.2604	0.22474	0.22401	0.21806	0.31673	0.017212	0.11932	0.2077	-2.4437	-3.4437	-2.9646	-3.0875	-3.2771	-2.4979	-3.0583	-3.2271	-2.8	-3.2104	-3.0542	-2.8	-3.3271	-2.8792	-3.1542	-3.275	-29.967	263.063	94.038	-8.496	214.932	241.569	213.316	-68.144	-45.786	-74.345	149.156	167.526	1.659	46.027	41.163	202.201	0.00014864	0.00010781	2.9803e-05	259.89	1.7805e-06	2.6387e-06	348.96	84.078	7.6299e-07	7.2971e-07	118.23	59.996	35.712	13.475	3.1381e-07	21.788	0.00016894	0.00016452	4.272e-05	257.86	1.6964e-06	1.8238e-06	345.79	83.499	1.8161e-06	1.7376e-06	116.61	59.003	35.706	13.579	1.7762e-06	21.645	135.639	34.198	78.212	-75.912	10.488	121.427	-76.713	-69.541	165.631	167.529	-71.818	-68.487	-65.743	-60.736	105.937	-63.111	-8191	255	
1318.861	1	1	0	0	0.19297	0.15349	0.31153	0.20867	0.15407	0.29044	0.052345	0.22522	0.14979	0.18013	0.082333	0.22541	0.20689	0.1268	0.16198	0.14406	-2.4333	-3.3604	-3.1	-2.9771	-3.5875	-2.6854	-3.0125	-3.3104	-2.7104	-3.3417	-3.1958	-2.9208	-3.5792	-2.9	-2.925	-3.5104	-59.519	161.729	-52.326	249.828	56.467	84.923	-21.888	251.432	230.701	-78.067	41.118	28.195	215.986	-24.733	12.208	257.134	0.00016074	0.00034052	7.1749e-05	257.49	2.4532e-06	2.0646e-06	349.07	83.776	2.7629e-06	1.8806e-06	117.97	59.165	35.187	13.415	3.1788e-06	21.077	0.00016567	0.00015978	4.2927e-05	257.62	1.786e-06	1.7087e-06	346.62	83.745	1.7833e-06	1.7237e-06	117.52	58.974	35.654	13.491	1.8246e-06	21.328	140.057	18.846	-29.765	-75.019	21.957	114.758	-76.407	-69.014	30.792	108.344	-70.809	-67.967	-64.628	-59.858	78.204	-62.555	-8191	255	
1318.982	1	1	0	0	0.078319	0.02633	0.22458	0.098522	0.15922	0.12606	0.11642	0.10531	0.04425	0.050442	0.11555	0.036672	0.17299	0.1913	0.30974	0.098105	-2.2854	-3.2146	-3.225	-2.8396	-3.6021	-2.7375	-3.075	-3.4917	-2.5771	-3.3167	-3.1917	-2.7125	-3.4354	-2.9979	-2.9313	-3.4021	-35.936	122.487	184.497	-0.553	-69.812	209.942	8.005	109.085	124.591	117.611	67.673	82.965	144.383	17.203	263.133	-56.703	0.00018695	0.00021088	8.8927e-05	258.27	1.7282e-07	1.2661e-06	343.25	82.509	9.8064e-07	2.2295e-06	114.32	58.303	34.994	13.25	1.5648e-06	20.986	0.00016729	0.00015444	4.3472e-05	257.11	1.7338e-06	1.6785e-06	345	82.677	1.7694e-06	1.7465e-06	115.41	57.742	35.224	13.436	1.8465e-06	21.126	127.039	16.477	17.582	-74.827	139.530	29.212	-75.023	-68.548	78.530	95.349	-70.426	-67.781	-64.882	-59.494	87.894	-62.411	-8191	255	
1319.078	1	1	0	0	0.21201	0.09559	0.1785	0.28354	0.17826	0.12824	0.0845	0.030282	0.17054	0.11797	0.1689	0.31361	0.16615	0.14071	0.06773	0.042854	-2.4521	-3.1542	-3.3	-2.8312	-3.5271	-3.15	-2.9646	-3.4583	-2.7667	-3.2104	-3.1958	-2.7646	-3.3729	-3.0146	-2.8521	-3.7042	-70.094	165.229	153.733	245.576	-47.726	40.507	53.130	8.450	103.119	223.120	154.887	195.985	84.357	-11.853	103.050	115.801	0.000164	0.00036639	5.4558e-05	255.85	2.8174e-06	1.7966e-06	345.22	82.536	2.9106e-06	1.6302e-06	115.92	58.418	35.157	13.398	2.1413e-06	21.169	0.00016227	0.00015858	4.314e-05	256.52	1.7578e-06	1.7079e-06	344.04	82.936	1.749e-06	1.7709e-06	115.56	58.124	35.387	13.478	1.8282e-06	21.315	135.594	-41.309	-1.566	-74.959	56.798	9.117	-75.876	-68.699	92.751	68.383	-69.646	-67.969	-65.360	-60.533	-13.599	-63.660	-8191	255	
1319.150	1	1	0	0	0.14647	0.032856	0.084733	0.040113	0.25783	0.12192	0.21797	0.089028	0.28951	0.095478	0.14178	0.16332	0.07026	0.20946	0.066162	0.066902	-2.5208	-3.2188	-3.3083	-2.975	-3.3937	-3.05	-2.8375	-3.3812	-2.9104	-2.9229	-3.3333	-2.5896	-3.1354	-2.8937	-2.5208	-3.4125	79.813	29.968	-33.926	-58.714	-59.234	18.824	60.141	198.779	-25.208	110.801	204.708	-12.156	263.026	154.243	-36.160	81.695	0.00015032	0.00013526	5.931e-05	256.1	1.008e-06	5.8813e-07	348.17	83.083	2.1769e-06	1.5096e-06	117.16	58.863	35.157	13.418	3.5009e-06	21.768	0.00016024	0.0001658	4.3725e-05	255.77	1.7418e-06	1.6812e-06	344.7	83.152	1.6612e-06	1.8386e-06	116.73	58.507	35.479	13.551	1.8408e-06	21.594	138.126	19.090	34.781	-74.905	-46.298	83.080	-75.843	-68.428	35.392	90.618	-70.685	-67.842	-65.167	-60.549	141.304	-63.351	-8191	255	
1319.246	1	1	0	0	0.15073	0.18953	0.10341	0.13262	0.10945	0.14774	0.22121	0.065952	0.11051	0.11646	0.30386	0.27852	0.2235	0.19211	0.31504	0.23556	-2.5187	-2.8375	-3.2562	-2.6854	-3.1479	-3.1229	-2.6437	-3.3667	-2.7917	-3.0354	-3.4125	-2.8146	-3.325	-3.1833	-2.8354	-3.3917	92.007	69.360	-34.547	99.725	-37.471	103.132	14.977	-52.766	270.338	151.487	76.718	178.007	268.495	-33.024	152.083	229.888	0.00011708	0.00015892	7.0075e-05	258.1	1.3543e-07	1.8017e-06	349.09	83.919	1.8797e-06	1.886e-06	117.98	58.353	35.311	13.352	3.0066e-06	21.485	0.00015722	0.00016985	4.4532e-05	257.22	1.7564e-06	1.7594e-06	346.2	83.659	1.6695e-06	1.8423e-06	116.78	58.191	35.499	13.5	1.8497e-06	21.273	151.143	-22.821	31.775	-75.358	260.079	89.945	-76.419	-68.764	-55.825	129.981	-70.833	-67.591	-65.159	-60.424	83.160	-63.673	-8191	255	
1319.367	1	1	0	0	0.071735	0.080368	0.054887	0.23294	0.14559	0.093098	0.12834	0.07268	0.063726	0.11151	0.045388	0.23666	0.22686	0.084208	0.18887	0.06293	-2.7125	-2.8063	-3.3812	-2.8688	-3.1583	-3.5125	-2.9958	-3.5438	-3.1896	-2.9688	-3.3625	-3.0229	-3.0312	-3.2271	-2.6667	-3.1896	133.783	261.775	105.449	247.508	11.289	176.628	228.939	256.385	85.397	272.042	264.205	147.015	-33.589	135.434	20.573	90.288	0.00013682	0.00036997	4.3639e-05	258.62	5.9781e-06	2.0192e-06	348.77	83.585	1.0623e-06	4.5393e-07	115.53	57.752	35.18	13.423	1.4664e-06	21.105	0.0001593	0.00016837	4.4705e-05	256.93	1.8199e-06	1.7235e-06	345.09	82.943	1.6887e-06	1.835e-06	115.24	57.592	35.342	13.494	1.8079e-06	21.151	145.286	87.768	-61.391	-74.872	53.346	82.735	-76.297	-69.101	-76.640	-60.907	-71.054	-67.585	-65.217	-59.885	14.814	-63.057	-8191	255	
1319.463	1	1	0	0	0.17342	0.20438	0.10751	0.12231	0.17668	0.20117	0.18131	0.17408	0.24735	0.050946	0.17007	0.1448	0.19629	0.22492	0.19255	0.17322	-2.7687	-2.8688	-3.4896	-2.9333	-3.1937	-3.4167	-2.8063	-3.3187	-3.2333	-2.725	-3.4188	-3.0146	-2.9875	-3.3521	-2.7	-3.1396	174.024	-20.887	-29.721	52.263	37.929	270.222	240.207	222.504	60.071	201.548	208.495	19.729	51.088	-20.010	101.745	248.527	0.00015545	0.00020597	7.1645e-05	256.46	1.641e-06	1.1835e-06	347.65	83.584	1.3125e-06	7.3386e-07	116.39	58.566	35.532	13.457	2.0186e-06	21.53	0.00016015	0.00016854	4.4681e-05	255.75	1.8146e-06	1.7366e-06	342.62	82.965	1.708e-06	1.8981e-06	115.75	57.827	35.517	13.493	1.7391e-06	21.365	119.888	4.602	-31.425	-75.164	95.372	84.922	-76.291	-69.046	10.718	15.087	-71.101	-68.288	-65.613	-60.308	66.637	-63.138	-8191	255	
1319.559	1	1	0	0	0.12643	0.2293	0.14501	0.103	0.11017	0.13404	0.42585	0.10525	0.13918	0.037857	0.13532	0.1584	0.28303	0.18126	0.25222	0.1649	-2.775	-2.6562	-3.3396	-2.8208	-2.9688	-3.4542	-2.5708	-3.1229	-3.1729	-2.7292	-3.2021	-3.0417	-2.6667	-3.4396	-2.7146	-2.975	17.227	267.318	-46.408	208.120	223.684	161.651	229.372	81.914	32.602	73.870	145.892	-37.892	-9.378	-19.819	94.726	269.702	0.00012341	7.6817e-05	5.9576e-05	259.82	5.2458e-06	2.3502e-06	346.47	83.973	2.5257e-06	1.7397e-06	116.47	58.965	35.91	13.717	4.5212e-06	21.655	0.00016308	0.00016699	4.3654e-05	256.8	1.8108e-06	1.7294e-06	342.81	83.181	1.7054e-06	1.8319e-06	116.56	58.518	35.718	13.656	1.7004e-06	21.607	113.524	-18.358	23.320	-74.990	-25.526	57.611	-76.492	-69.075	37.409	76.398	-70.808	-67.882	-65.478	-60.807	97.088	-63.277	-8191	255	
1319.679	1	1	0	0	0.15713	0.1949	0.17919	0.12735	0.17498	0.084678	0.0091222	0.19885	0.091407	0.16142	0.17647	0.35028	0.20745	0.1319	0.10973	0.081986	-2.7479	-2.7125	-3.2938	-2.8417	-2.8396	-3.4417	-2.9083	-2.9188	-3.3542	-2.6813	-3.4792	-3.2083	-2.7917	-3.3646	-2.875	-3.1708	147.969	25.043	252.845	76.329	197.702	-14.728	-17.538	-38.805	19.958	22.911	-38.640	209.369	-14.599	241.781	220.062	-62.386	9.7698e-05	0.00027287	6.9442e-05	259	3.9259e-06	4.2298e-06	345.79	84.382	2.0239e-06	1.4238e-06	116.2	58.449	35.561	13.4	1.3782e-06	21.172	0.00015965	0.00016668	4.4586e-05	256.98	1.8464e-06	1.7542e-06	344.95	83.78	1.7319e-06	1.7722e-06	116.81	58.21	35.676	13.521	1.6961e-06	21.26	124.978	-7.301	23.081	-75.040	31.131	93.648	-76.148	-68.328	2.498	-2.086	-70.606	-67.974	-65.273	-59.710	120.268	-62.429	-8191	255	
1319.774	1	1	0	0	0.13785	0.14582	0.11849	0.12178	0.16267	0.20075	0.12942	0.18664	0.1433	0.17384	0.072607	0.15431	0.13178	0.35038	0.15592	0.26322	-3.0542	-2.7583	-3.425	-3.1896	-2.7958	-3.2375	-2.9042	-2.9542	-3.2562	-2.7625	-3.1	-3.1042	-2.6208	-3.3833	-2.9771	-2.8958	-2.385	94.643	118.560	-15.218	237.131	41.362	152.225	259.773	23.811	4.928	-32.668	98.127	233.010	-56.900	196.550	12.723	0.00015421	0.00035597	3.3529e-05	259.06	2.371e-06	8.3223e-07	345.13	82.064	1.5456e-06	1.5392e-06	115.32	58.049	34.774	13.457	3.2228e-06	21.059	0.0001644	0.0001599	4.4791e-05	257.26	1.8605e-06	1.7199e-06	342.28	82.549	1.7257e-06	1.7475e-06	115.4	57.549	35.3	13.492	1.7421e-06	21.154	138.579	-34.498	170.739	-74.800	60.067	48.845	-76.113	-68.605	-43.588	83.570	-71.011	-68.265	-65.072	-60.419	54.850	-63.018	-8191	255	
1319.847	1	1	0	0	0.19524	0.052076	0.066771	0.17841	0.20601	0.10504	0.081872	0.2159	0.18736	0.22657	0.30136	0.1287	0.19995	0.15396	0.18677	0.072715	-2.9375	-2.775	-2.9854	-3.2146	-2.8979	-3.3	-2.9313	-3.1333	-3.5021	-2.9917	-3.0833	-3.1312	-2.5438	-3.2438	-3.0687	-2.9667	66.803	214.555	-49.982	-82.568	-71.903	99.182	-31.141	90.426	9.361	82.796	171.020	135.338	-1.562	190.011	262.111	245.951	0.00021363	0.00020101	5.2721e-05	256.97	1.0593e-06	3.6901e-06	342.43	82.989	4.828e-07	1.7492e-06	116.08	58.147	35.244	13.432	2.2779e-06	21.131	0.00016259	0.00015431	4.5209e-05	256.51	1.8221e-06	1.7343e-06	341.97	83.094	1.7535e-06	1.7123e-06	115.98	57.912	35.635	13.559	1.7594e-06	21.322	129.984	-49.334	95.471	-75.021	-47.131	28.722	-76.029	-69.139	-5.033	11.544	-70.720	-67.605	-64.540	-60.354	-55.837	-63.083	-8191	255	
1319.966	1	1	0	0	0.17373	0.17078	0.18622	0.05986	0.18145	0.17972	0.04158	0.12826	0.26957	0.27587	0.25933	0.27708	0.31077	0.13419	0.17574	0.13304	-3.0792	-2.6583	-2.9375	-3.4229	-2.8354	-3.3417	-3.1063	-2.7729	-3.2167	-2.8792	-3.0687	-3.4271	-2.6417	-3.2604	-3.075	-2.6146	41.681	-25.023	63.906	190.276	-81.971	-13.919	-19.545	108.046	-84.320	67.076	-17.571	231.169	46.058	42.979	240.415	18.342	0.00010639	3.7766e-05	4.7549e-05	255.3	1.6234e-06	1.532e-06	346.41	83.309	1.504e-06	3.1239e-06	117.15	59.058	36.074	13.686	6.148e-07	21.684	0.00016138	0.00015293	4.6511e-05	256.16	1.7432e-06	1.7294e-06	343.43	83.599	1.7579e-06	1.7096e-06	117.26	58.787	35.989	13.719	1.7326e-06	21.565	132.784	222.742	-21.192	-74.117	40.753	78.093	-76.348	-69.023	207.329	114.641	-71.627	-68.113	-65.711	-61.009	-59.533	-63.323	-8191	255	
1320.062	1	1	0	0	0.20264	0.021363	0.12288	0.14562	0.1245	0.16097	0.20525	0.18234	0.2348	0.12613	0.19395	0.24637	0.23126	0.15172	0.20707	0.11482	-2.9771	-2.6396	-2.6625	-3.3458	-2.5229	-3.1542	-3.1771	-2.8229	-3.4208	-2.8792	-2.6667	-3.3812	-2.7708	-3.1667	-3.2062	-2.9583	30.737	-17.433	109.045	30.115	5.729	188.893	44.728	231.688	-47.838	154.219	38.997	265.015	127.268	268.265	235.211	-58.363	0.00015948	0.00020323	6.5781e-05	260.31	3.1214e-06	1.7241e-06	353.16	84.445	5.9086e-07	3.1198e-06	117.68	58.872	35.628	13.573	7.0922e-07	21.43	0.00015846	0.00015452	4.67e-05	258.39	1.7479e-06	1.7515e-06	347.65	83.948	1.6765e-06	1.7375e-06	117.23	58.327	35.592	13.573	1.7637e-06	21.358	124.656	31.252	14.634	-75.582	11.906	32.400	-76.557	-69.392	120.403	-3.993	-70.947	-68.378	-65.481	-61.164	228.141	-63.616	-8191	255	
1320.158	1	1	0	0	0.15092	0.11664	0.062256	0.077925	0.23001	0.26866	0.26728	0.051851	0.23898	0.23291	0.045478	0.088593	0.1657	0.12196	0.15514	0.17438	-2.9979	-2.8729	-2.9417	-3.3563	-2.7625	-3.0479	-3.4146	-2.9146	-3.3542	-3.0938	-2.7458	-3.4125	-2.8229	-2.9896	-3.1562	-2.7313	24.499	43.388	-26.397	187.052	-72.564	206.235	5.488	249.176	126.327	18.395	11.585	101.025	240.533	108.144	12.190	193.483	0.00010755	0.00044779	3.6319e-05	261.17	2.0059e-06	4.4759e-06	349.65	83.556	1.5896e-06	1.0316e-06	115.55	58.088	35.681	13.583	2.8377e-06	21.383	0.00016142	0.00015812	4.6526e-05	257.85	1.7095e-06	1.8228e-06	345.47	82.947	1.7317e-06	1.7132e-06	115.73	57.428	35.49	13.589	1.767e-06	21.205	139.127	47.894	-66.999	-75.536	3.813	26.095	-76.664	-69.684	-23.764	179.017	-71.753	-68.178	-65.882	-61.329	60.589	-63.856	-8191	255	
1320.279	1	1	0	0	0.032025	0.18712	0.19943	0.11632	0.031191	0.19351	0.080506	0.11107	0.097361	0.13039	0.1907	0.1109	0.21606	0.15072	0.21381	0.3033	-3.0354	-2.9125	-2.6	-3.3563	-2.7438	-2.9062	-3.3187	-2.7771	-3.25	-3.2271	-2.8	-3.6917	-2.9979	-2.8812	-3.425	-2.7083	-36.299	193.861	-40.632	-9.932	-73.448	143.475	121.733	260.671	123.935	268.116	-36.743	120.035	170.579	-5.071	173.311	231.802	0.00021146	0.00021575	8.2741e-05	260.43	1.7829e-06	2.7773e-06	351.17	83.151	2.1537e-06	4.308e-06	117.96	58.866	36.136	13.682	4.5084e-06	21.396	0.00016544	0.00015922	4.7211e-05	256.93	1.6993e-06	1.8493e-06	344.72	83.045	1.7431e-06	1.7055e-06	116.63	58.172	35.717	13.64	1.7135e-06	21.307	106.289	30.221	265.013	-75.968	29.197	27.783	-76.764	-69.427	5.508	56.314	-71.756	-68.126	-65.772	-61.341	13.075	-63.756	-8191	255	
1320.375	1	1	0	0	0.15681	0.14874	0.17022	0.064431	0.13146	0.28935	0.30498	0.23897	0.25076	0.08667	0.10715	0.095402	0.13101	0.21269	0.10919	0.14867	-2.8229	-3.2417	-2.8521	-3.4729	-3.1333	-3.0292	-3.4833	-2.8271	-3.2271	-3.4562	-2.8708	-3.4542	-3.2167	-2.9229	-3.3854	-2.7896	46.380	-32.137	237.467	196.523	162.676	266.607	177.512	74.037	-61.436	148.871	-33.838	-23.779	83.685	152.182	51.327	123.628	0.00019611	1.7683e-05	1.6733e-05	259.52	5.5172e-07	1.5456e-06	351.96	84.116	2.0665e-06	8.8257e-07	118.42	59.971	35.845	13.736	1.2039e-06	21.637	0.00016682	0.00015641	4.5553e-05	256.32	1.6883e-06	1.85e-06	345.22	83.522	1.8574e-06	1.6836e-06	116.97	58.689	35.806	13.737	1.7513e-06	21.527	128.642	3.867	146.727	-75.554	-42.828	-19.365	-76.636	-69.441	-5.407	93.155	-72.227	-68.425	-66.437	-61.071	159.390	-63.399	-8191	255	
1320.447	1	1	0	0	0.021168	0.14223	0.16103	0.0991	0.20823	0.18868	0.099367	0.12124	0.079686	0.13533	0.15246	0.10983	0.12179	0.12848	0.043623	0.21166	-2.6542	-3.1667	-2.5396	-3.1896	-2.9229	-2.9521	-3.3146	-2.7104	-3.0375	-3.3104	-2.7521	-3.5125	-3.1396	-2.9	-3.6104	-3.0646	40.910	28.809	106.767	256.284	-67.825	36.760	235.098	-74.050	-64.696	242.705	138.388	14.907	155.130	228.328	229.964	187.379	0.0001762	2.2865e-05	0.00011597	263.72	2.4451e-06	3.4355e-06	352.97	83.979	3.6008e-06	2.1458e-06	118.42	59.312	35.871	13.732	3.3478e-06	21.272	0.0001685	0.00015679	4.4992e-05	258.57	1.711e-06	1.8068e-06	345.64	83.528	1.869e-06	1.7344e-06	116.87	58.306	35.655	13.665	1.6817e-06	21.205	135.860	58.181	47.298	-75.928	78.455	13.053	-76.661	-69.008	237.825	220.193	-71.911	-67.749	-66.026	-60.907	1.730	-63.505	-8191	255	
1320.543	1	1	0	0	0.066788	0.16669	0.14091	0.25342	0.089234	0.13888	0.22295	0.054182	0.12079	0.06183	0.38333	0.047426	0.22062	0.20428	0.18583	0.11843	-2.7708	-3.2771	-2.8896	-3.3896	-3.3771	-2.7271	-3.475	-3.1542	-3.1271	-3.4292	-2.8979	-3.3354	-3.2188	-2.8812	-3.2917	-3.0583	-9.955	205.603	263.943	-84.393	-2.295	99.070	268.002	215.613	183.527	61.687	5.081	-0.135	-23.304	242.915	-6.159	266.169	0.00019672	3.5826e-05	4.8953e-05	260.47	1.2428e-06	3.674e-06	350.33	83.305	3.1657e-06	1.803e-06	116.93	58.541	35.782	13.683	3.9082e-06	21.382	0.00016969	0.00015595	4.3992e-05	257.92	1.6985e-06	1.7808e-06	344.25	82.922	1.7815e-06	1.6368e-06	115.46	57.709	35.643	13.583	1.7031e-06	21.097	126.193	-35.767	33.546	-76.261	74.699	51.629	-76.805	-69.567	-67.159	-34.329	-71.621	-68.180	-65.932	-60.944	56.928	-63.567	-8191	255	
1320.664	1	1	0	0	0.27031	0.16686	0.2535	0.31805	0.1264	0.14139	0.19307	0.18071	0.30263	0.23617	0.19292	0.24787	0.20777	0.25694	0.12877	0.1417	-2.3667	-3.4458	-2.9542	-3.1833	-3.2146	-2.7104	-3.1521	-3.0771	-2.6958	-3.3646	-2.7875	-2.9958	-3.3854	-2.7208	-3.3271	-3.2417	95.024	102.836	103.848	249.837	238.435	214.551	209.817	154.764	50.232	135.184	-7.809	-71.622	165.804	150.103	111.807	11.551	8.5787e-05	0.000198	2.7696e-05	260.31	2.8847e-06	4.0101e-06	347.8	83.832	4.8149e-07	2.0136e-06	116.74	58.51	35.701	13.537	3.3857e-06	21.391	0.00017085	0.00015572	4.3247e-05	257.37	1.7112e-06	1.7857e-06	342.78	83.095	1.8227e-06	1.7446e-06	115.88	57.836	35.647	13.616	1.774e-06	21.301	132.418	1.837	-46.840	-75.797	70.575	102.271	-76.516	-69.378	206.291	68.965	-71.793	-68.565	-65.505	-60.841	49.255	-62.856	-8191	255	
1320.758	1	1	0	0	0.38155	0.29701	0.1696	0.11342	0.076117	0.084344	0.17847	0.12016	0.1173	0.10954	0.18868	0.11604	0.13737	0.29233	0.13086	0.11549	-2.3312	-3.4896	-2.95	-3.1354	-3.4292	-2.9313	-3.2833	-3.0833	-2.6042	-3.5271	-2.9292	-2.8958	-3.3208	-2.6125	-3.2292	-3.2062	-38.841	96.069	268.834	-33.027	30.617	117.677	40.035	211.755	166.442	94.006	237.948	-8.441	159.392	-32.080	-20.270	237.285	0.00014137	0.00048924	9.931e-05	258.6	1.0636e-06	4.1289e-06	350.34	83.984	3.4932e-06	9.962e-07	118.29	59.154	35.98	13.715	1.0738e-06	21.578	0.00016923	0.00015507	4.3604e-05	257.25	1.7256e-06	1.7344e-06	344.94	83.494	1.8685e-06	1.6486e-06	117.19	58.657	36.049	13.735	1.8053e-06	21.504	128.129	20.541	37.705	-75.474	178.406	52.434	-76.306	-69.261	100.244	4.460	-71.440	-68.012	-65.186	-60.882	143.657	-63.067	-8191	255	
1320.854	1	1	0	0	0.17134	0.10456	0.27703	0.043673	0.13974	0.059395	0.27109	0.17232	0.18696	0.047037	0.28537	0.12591	0.33102	0.13867	0.16209	0.089323	-2.2104	-3.35	-3.0375	-2.7687	-3.3458	-2.8458	-3.2812	-3.5333	-2.8604	-3.5542	-3	-2.9938	-3.5458	-2.85	-3.1333	-3.4271	268.081	208.075	-7.924	-41.404	-41.920	-76.879	-26.645	117.315	125.538	254.375	-64.234	-31.019	20.175	65.377	-11.213	173.291	0.00016389	0.00012372	3.0737e-05	259.41	4.4764e-06	8.073e-07	349.36	84.364	6.1302e-07	2.893e-06	117.17	58.431	35.692	13.619	2.7384e-06	21.191	0.00016762	0.00015655	4.406e-05	257.34	1.6786e-06	1.7223e-06	347.17	83.996	1.7629e-06	1.7414e-06	116.14	57.965	35.726	13.637	1.7855e-06	21.12	153.909	-24.457	-45.016	-75.560	89.639	25.195	-76.575	-69.307	-21.952	65.521	-71.290	-68.109	-65.134	-60.684	114.760	-63.462	-8191	255	
1320.950	1	1	0	0	0.074028	0.11117	0.076384	0.13385	0.10891	0.21741	0.20493	0.10035	0.19896	0.024074	0.19725	0.072356	0.19723	0.079519	0.18804	0.18344	-2.4604	-3.3104	-3.0104	-2.9333	-3.5146	-3.0438	-3.0438	-3.0771	-2.7021	-3.3292	-2.9938	-2.7271	-3.4104	-2.7958	-3.1208	-3.4042	150.576	225.957	205.615	107.042	-66.567	-4.168	261.119	232.671	265.623	54.045	-79.868	129.555	236.742	4.013	158.202	158.497	9.6771e-05	0.000172	2.2525e-05	258.93	1.9575e-06	9.3533e-07	345.33	83.455	1.6386e-06	2.6264e-06	116.36	57.823	35.263	13.449	1.0796e-06	20.997	0.00016289	0.00015942	4.318e-05	258.17	1.6497e-06	1.7252e-06	343.69	83.09	1.7133e-06	1.7506e-06	115.29	57.551	35.429	13.553	1.8466e-06	21.022	117.321	56.858	-64.844	-75.158	16.183	-5.009	-76.212	-69.190	58.975	116.735	-70.804	-67.872	-65.167	-60.733	73.503	-63.009	-8191	255	
1321.047	1	1	0	0	0.1552	0.18944	0.013066	0.17187	0.1764	0.14774	0.10322	0.053256	0.23601	0.27654	0.33583	0.17748	0.20457	0.17331	0.10273	0.093982	-2.4188	-3.2042	-3.2917	-2.8688	-3.3417	-2.9833	-2.9667	-3.2208	-2.6729	-3.2271	-3.0729	-2.6479	-3.3563	-2.8646	-2.8771	-3.5021	1.292	79.348	213.258	111.374	140.385	189.456	-47.356	193.857	208.671	-43.298	162.720	86.459	160.736	249.914	155.225	56.314	0.00018725	0.00012494	9.6839e-05	259.4	1.123e-06	2.3042e-06	344.6	83.468	3.911e-06	2.0584e-06	115.83	58.595	35.422	13.573	1.4677e-06	21.251	0.00015819	0.00016073	4.3813e-05	257.44	1.6909e-06	1.7022e-06	341.49	83.158	1.7266e-06	1.7694e-06	115.81	57.878	35.673	13.649	1.8474e-06	21.341	134.583	-67.251	5.034	-74.957	4.875	21.521	-76.620	-69.018	-7.758	62.014	-71.036	-68.388	-65.975	-60.736	84.704	-63.632	-8191	255	
1321.143	1	1	0	0	0.14279	0.13379	0.064558	0.19591	0.20177	0.064869	0.20889	0.18535	0.030537	0.14037	0.3477	0.054985	0.093132	0.1281	0.13451	0.16676	-2.5062	-3.2771	-3.3229	-2.9271	-3.6	-3.025	-2.8688	-3.4542	-2.6542	-3.1042	-3.2625	-2.7333	-3.2854	-2.9354	-2.9458	-3.4625	230.030	36.211	135.165	5.724	77.210	-46.618	270.608	-75.247	89.407	47.081	172.514	213.254	5.496	-50.379	50.063	258.128	9.3232e-05	0.00015501	0.00010087	255.88	1.1829e-06	1.9698e-06	346.42	84.266	2.3038e-06	5.7555e-07	117.17	58.882	35.753	13.775	3.2282e-06	21.664	0.00016143	0.00015844	4.4391e-05	256.76	1.747e-06	1.702e-06	342.87	83.705	1.7168e-06	1.8197e-06	116.84	58.27	35.926	13.747	1.8539e-06	21.469	76.699	16.363	-19.753	-75.263	45.639	37.405	-76.428	-69.102	139.648	-0.712	-71.292	-68.265	-65.784	-59.791	19.775	-63.794	-8191	255	
1321.239	1	1	0	0	0.20636	0.24303	0.14896	0.3026	0.20953	0.22256	0.29995	0.097926	0.11387	0.33081	0.12384	0.14641	0.28082	0.12259	0.046948	0.18014	-2.6958	-3.1708	-3.3542	-2.7104	-3.2125	-3.0208	-2.7125	-3.4083	-3.0292	-3.2583	-3.4146	-2.7396	-3.3063	-3.0667	-2.725	-3.4958	-51.491	266.299	-80.849	210.552	254.796	105.695	260.376	88.830	218.185	-66.370	39.570	168.898	221.330	270.918	-17.505	254.552	0.00012963	0.0002817	2.3134e-05	260.99	2.6277e-06	3.081e-06	349.12	84.604	3.4843e-06	2.1683e-06	117.85	58.55	35.273	13.468	3.6343e-06	21.278	0.00016086	0.00016171	4.3879e-05	258.75	1.7461e-06	1.6942e-06	344.07	83.723	1.7258e-06	1.8046e-06	116.57	57.72	35.64	13.584	1.7777e-06	21.143	132.928	27.936	-9.452	-75.815	96.271	41.441	-76.350	-69.338	9.709	210.455	-71.137	-68.138	-65.224	-59.953	78.330	-63.205	-8191	255	
1321.359	1	1	0	0	0.070243	0.10008	0.085033	0.19598	0.1216	0.27945	0.24437	0.085887	0.13436	0.22851	0.10541	0.093892	0.21166	0.22039	0.22894	0.17384	-2.7271	-2.8625	-3.3063	-2.8125	-3.3417	-3.2708	-2.8438	-3.3417	-2.7833	-2.825	-3.3729	-2.6708	-3.0646	-3.0542	-2.6646	-3.2792	143.229	-4.816	100.940	253.516	240.364	114.369	123.182	-12.287	48.738	197.232	208.539	174.010	180.101	46.386	210.393	193.752	0.00015499	0.00036958	0.00011339	257.79	2.6237e-06	1.9788e-06	342.87	82.67	1.1658e-06	2.673e-06	115.12	57.411	35.572	13.473	2.5219e-06	20.901	0.0001584	0.00016593	4.3041e-05	257.77	1.767e-06	1.7252e-06	341.3	82.892	1.705e-06	1.8223e-06	114.68	57.185	35.698	13.588	1.7215e-06	21.047	134.721	26.102	-26.137	-75.279	26.611	25.831	-76.223	-68.790	257.388	34.262	-70.243	-67.876	-65.450	-59.812	83.566	-62.528	-8191	255	
1321.454	1	1	0	0	0.20908	0.21979	0.012833	0.14368	0.02106	0.20827	0.2073	0.29659	0.20275	0.057809	0.15656	0.037848	0.1989	0.10817	0.13294	0.1318	-2.6792	-2.7938	-3.4104	-3	-3.1604	-3.4167	-2.8417	-3.2833	-3.1229	-2.8396	-3.3583	-2.7542	-3.0875	-3.3729	-2.675	-3.1188	102.632	174.025	231.899	-17.972	-15.319	162.210	154.319	26.057	196.326	-33.945	69.914	207.704	-27.709	175.630	70.763	204.507	0.0001552	0.00022239	7.5758e-05	260.92	3.5099e-06	3.0794e-06	342.13	83.304	2.1737e-06	3.3299e-06	116.54	58.286	35.854	13.565	5.7518e-06	21.354	0.00015754	0.00016531	4.2966e-05	257.59	1.8147e-06	1.6712e-06	339.6	83.27	1.7198e-06	1.8423e-06	115.99	57.618	35.74	13.651	1.7137e-06	21.261	110.983	-6.172	60.538	-75.138	56.970	36.784	-76.507	-69.077	69.003	106.533	-71.442	-68.301	-65.683	-60.812	70.191	-62.777	-8191	255	
1321.550	1	1	0	0	0.21679	0.0030742	0.27151	0.22993	0.046481	0.15957	0.23272	0.16323	0.11912	0.15134	0.13799	0.23366	0.11089	0.17892	0.27647	0.13341	-2.6771	-2.8333	-3.2229	-2.9458	-3.0208	-3.4729	-2.75	-3.325	-3.3042	-2.7062	-3.3875	-3.1354	-2.9938	-3.2875	-2.6562	-3.1604	18.332	143.912	101.404	261.802	122.973	21.731	-86.058	9.131	47.894	138.743	179.635	107.914	-66.198	93.625	119.639	167.317	9.8558e-05	6.4849e-05	5.8383e-05	256.95	1.0448e-06	1.5241e-06	343.42	83.639	4.5305e-06	4.668e-06	116.4	58.009	35.552	13.542	3.3453e-06	21.456	0.00016025	0.00016027	4.4225e-05	257.86	1.7764e-06	1.6799e-06	342.66	83.944	1.6551e-06	1.7579e-06	116.43	58.093	35.941	13.718	1.7187e-06	21.473	146.794	7.247	40.568	-74.827	25.646	53.030	-75.723	-68.415	36.948	54.829	-70.366	-67.055	-64.759	-59.818	100.028	-62.463	-8191	255	
1321.646	1	1	0	0	0.16973	0.03275	0.15194	0.10593	0.098728	0.32099	0.34991	0.14807	0.29847	0.14399	0.13951	0.069014	0.13616	0.10179	0.32092	0.074879	-2.7646	-2.4125	-3.4313	-2.7271	-2.75	-3.2667	-2.8688	-3.0187	-3.1937	-2.8125	-3.3187	-3.1583	-3.1125	-3.6188	-2.9313	-3.2354	88.696	-72.570	108.220	156.529	47.148	-45.869	190.728	-17.344	167.947	219.915	162.439	95.591	38.885	2.705	-55.728	51.528	0.00013081	0.00020093	7.0477e-05	257.54	2.2681e-06	2.272e-06	345.54	82.977	3.1728e-06	1.13e-06	115.01	57.782	35.575	13.482	2.7968e-06	21.132	0.00015594	0.00015784	4.442e-05	257.65	1.7923e-06	1.666e-06	343.35	83.623	1.7239e-06	1.6871e-06	115.77	57.476	35.755	13.637	1.7309e-06	21.1	122.300	-53.852	94.108	-75.035	-18.330	-65.794	-75.591	-68.675	22.636	190.783	-70.934	-67.297	-64.923	-59.670	118.891	-63.366	-8191	255	
1321.742	1	1	0	0	0.25187	0.11162	0.23452	0.094695	0.16869	0.10785	0.13736	0.30589	0.098507	0.20537	0.20286	0.20551	0.27395	0.10517	0.27148	0.24218	-2.9979	-2.7667	-3.2167	-3.0375	-2.6667	-3.4458	-2.6771	-2.925	-3.2875	-2.6417	-3.1854	-3.1208	-2.6792	-3.4729	-2.85	-2.9625	93.520	193.914	-4.105	142.490	63.710	63.326	114.414	244.354	129.752	-30.092	-77.578	187.462	228.165	179.189	108.781	178.885	0.00011934	8.1027e-05	8.8143e-05	259.75	1.3534e-06	1.4862e-06	343.61	82.709	3.4513e-06	5.9101e-07	115.96	57.404	35.654	13.601	3.5896e-06	21.161	0.00015901	0.00015957	4.3834e-05	258.21	1.8151e-06	1.6389e-06	341.7	83.251	1.6995e-06	1.7565e-06	115.04	56.983	35.634	13.67	1.745e-06	21.129	86.436	43.653	32.990	-75.058	127.494	-24.911	-76.220	-68.713	47.431	107.421	-70.800	-67.470	-65.425	-59.988	125.181	-62.779	-8191	255	
1321.838	1	1	0	0	0.33459	0.18509	0.27178	0.17921	0.095952	0.18658	0.18993	0.13502	0.10547	0.076193	0.047556	0.30044	0.20268	0.068533	0.38122	0.27925	-3.0812	-2.9333	-3.1521	-3.175	-2.7854	-3.4083	-2.7812	-3.0396	-3.425	-2.8042	-3.1833	-3.1646	-2.8396	-3.5563	-3.1271	-3.0333	115.373	78.750	-16.325	-46.480	108.050	160.697	-84.804	-21.199	-32.563	44.658	226.843	-54.639	189.682	7.659	-18.661	77.033	0.00011764	0.00024645	5.7859e-05	259.97	2.6325e-06	6.571e-06	340.52	83.548	8.4893e-07	2.274e-06	115.41	57.768	35.61	13.689	5.6529e-06	21.246	0.00015629	0.00015729	4.5473e-05	258.83	1.7791e-06	1.7037e-06	340.04	83.406	1.6432e-06	1.7143e-06	115.97	57.537	35.766	13.766	1.6378e-06	21.357	121.872	-51.901	89.673	-74.322	-18.698	79.930	-75.880	-68.660	-0.311	101.560	-71.206	-67.328	-64.984	-59.975	96.286	-62.834	-8191	255	
1321.959	1	1	0	0	0.14258	0.39869	0.077129	0.27996	0.26328	0.081193	0.47474	0.078673	0.2271	0.047849	0.1355	0.071018	0.099016	0.21461	0.18134	0.025826	-2.95	-2.7271	-3.0146	-3.225	-2.8167	-3.3563	-3.0938	-2.9417	-3.2833	-2.8771	-3.0792	-3.2333	-2.8167	-3.3271	-3.2396	-2.8333	-8.527	27.819	-4.147	214.549	149.387	103.797	216.924	130.202	-50.171	82.750	-67.322	251.262	196.514	209.891	45.516	-27.479	0.00012795	0.00014103	5.0929e-05	259.07	4.3386e-06	2.021e-06	343.29	83.313	2.3656e-06	2.1636e-06	117.51	58.603	35.741	13.571	2.8113e-06	21.339	0.00015504	0.00015775	4.4969e-05	258.01	1.6789e-06	1.7247e-06	341.8	83.534	1.6771e-06	1.6984e-06	116.87	58.248	36.079	13.773	1.6774e-06	21.47	126.368	-33.239	34.304	-74.538	81.275	44.122	-75.986	-69.178	23.074	-20.381	-70.727	-67.412	-64.839	-59.859	3.202	-62.487	-8191	255	
1322.055	1	1	0	0	0.29401	0.3173	0.22295	0.078831	0.094506	0.41727	0.050874	0.16937	0.26511	0.26625	0.068791	0.12416	0.26805	0.040368	0.068547	0.14617	-3.2146	-2.7667	-3.0667	-3.3854	-2.7854	-3.2188	-3.2229	-2.6604	-3.2083	-2.9188	-3.1	-3.3125	-2.8417	-3.225	-3.1437	-2.6083	120.085	164.403	114.390	266.681	-0.300	245.395	170.666	-74.040	-28.715	118.352	34.420	69.807	96.481	222.505	13.085	148.799	8.7538e-05	0.00010401	7.3893e-05	258.46	3.135e-06	1.0989e-06	345.65	83.821	1.0232e-06	1.3783e-06	115.77	57.867	35.446	13.605	1.4328e-06	20.995	0.00015619	0.00015659	4.5414e-05	258.01	1.7214e-06	1.7535e-06	341.53	83.588	1.7306e-06	1.6978e-06	115.51	57.388	35.727	13.717	1.653e-06	21.054	108.447	151.577	21.705	-74.730	40.180	48.222	-76.040	-68.705	209.032	53.549	-71.028	-67.069	-64.765	-60.346	111.146	-62.799	-8191	255	
1322.150	1	1	0	0	0.046252	0.16167	0.2249	0.31548	0.13098	0.20369	0.21342	0.05838	0.19669	0.17674	0.3337	0.16831	0.20479	0.070368	0.17522	0.37582	-2.8771	-2.9	-2.7812	-3.2938	-2.7167	-3.2917	-3.2396	-2.7667	-3.3375	-2.9333	-2.8521	-3.5146	-2.5708	-3.1292	-3.3292	-2.8833	-14.122	72.538	-42.543	243.316	157.547	150.934	219.612	110.875	63.893	140.123	49.981	209.589	-61.767	162.373	238.478	238.834	0.00017304	0.00018722	2.54e-05	257.01	2.0914e-06	3.7701e-06	341.32	82.548	7.3936e-07	1.6652e-06	115.67	57.343	35.621	13.599	1.6924e-06	20.853	0.00016092	0.00015426	4.5924e-05	257.35	1.7208e-06	1.7685e-06	339.96	83.011	1.7194e-06	1.6619e-06	115.07	57.007	35.79	13.733	1.6459e-06	21.074	129.483	81.937	238.966	-74.527	44.496	90.450	-75.496	-68.863	202.363	22.769	-70.630	-67.383	-65.091	-60.201	-9.123	-63.273	-8191	255	
1322.246	1	1	0	0	0.094336	0.092976	0.10033	0.1824	0.053812	0.12905	0.086207	0.29273	0.14188	0.19252	0.095838	0.084251	0.057612	0.13501	0.13953	0.25717	-3.1229	-2.9417	-2.8354	-3.2354	-2.725	-3.125	-3.2833	-2.6312	-3.2438	-3.025	-2.7396	-3.3708	-2.875	-3.0583	-3.5021	-2.7583	-63.692	125.096	170.899	135.722	123.173	72.487	114.027	60.654	118.783	168.116	255.105	33.523	104.001	73.441	-9.009	146.744	0.00014571	0.0002684	2.5846e-05	257.59	2.4903e-06	1.5271e-06	343.13	83.231	1.0345e-06	2.239e-06	115.76	57.884	35.61	13.503	2.7177e-06	21.294	0.00015954	0.00015182	4.4698e-05	257.69	1.7181e-06	1.729e-06	341.05	83.597	1.7585e-06	1.7163e-06	116.49	57.809	36.069	13.813	1.6714e-06	21.417	115.447	68.139	242.702	-74.621	-49.589	81.832	-75.765	-68.319	101.482	57.216	-70.558	-67.114	-64.783	-59.513	-53.563	-62.149	-8191	255	
1322.319	1	1	0	0	0.11971	0.23402	0.18154	0.082244	0.12869	0.16076	0.19895	0.23124	0.12282	0.12211	0.10578	0.18168	0.25349	0.16033	0.01231	0.11398	-3.0146	-3.0062	-2.8104	-3.3812	-3.0125	-3.0396	-3.4021	-2.7479	-3.3937	-3.1813	-2.9021	-3.5479	-2.8021	-3.0167	-3.3854	-2.9208	108.603	201.575	64.723	191.867	182.053	-37.553	87.611	109.880	198.575	-64.578	84.212	136.440	205.862	-55.151	-86.222	-30.327	0.00014956	0.00018547	5.3138e-05	258.44	5.9474e-06	8.7738e-07	345.81	84.235	3.2244e-06	1.5874e-06	116.8	58.542	36.155	13.847	9.1305e-07	21.76	0.00016203	0.00015149	4.4476e-05	258.84	1.6852e-06	1.7807e-06	343.63	84.152	1.7705e-06	1.636e-06	117.16	58.533	36.278	13.927	1.6751e-06	21.662	121.399	-38.353	-45.596	-74.958	52.522	130.436	-76.319	-68.760	88.688	80.144	-70.549	-67.269	-64.748	-60.561	17.952	-63.413	-8191	255	
1322.438	1	1	0	0	0.12715	0.031265	0.25559	0.20176	0.10205	0.17293	0.1573	0.19572	0.18859	0.16411	0.053428	0.13381	0.26019	0.16374	0.084049	0.16831	-2.8833	-3.3	-2.8625	-3.4167	-2.9396	-3.0896	-3.6042	-2.5917	-3.0604	-3.3729	-2.7042	-3.4417	-3.1542	-2.8667	-3.4125	-2.9938	93.540	161.530	-45.525	235.177	17.910	0.242	169.803	229.694	-18.400	190.478	127.097	241.184	239.621	251.570	-36.883	230.399	0.00017655	0.00020487	3.1662e-05	263.31	4.1977e-06	2.2107e-06	349.14	84.8	2.2574e-06	1.846e-06	116.24	58.46	35.728	13.581	3.1878e-06	21.211	0.00016425	0.00015519	4.5616e-05	260.08	1.7111e-06	1.7809e-06	345	84.598	1.8115e-06	1.6496e-06	116.77	58.023	36.093	13.818	1.7007e-06	21.27	101.870	55.923	56.891	-75.809	27.807	-64.428	-76.289	-68.735	251.345	12.854	-70.730	-67.331	-64.471	-59.826	24.118	-62.159	-8191	255	
1322.534	1	1	0	0	0.15547	0.098462	0.09606	0.037445	0.15882	0.1342	0.23514	0.2574	0.32775	0.16399	0.21048	0.052212	0.12108	0.23502	0.098134	0.10442	-2.8812	-3.4521	-2.8729	-3.3604	-2.9979	-2.8604	-3.5521	-2.7313	-2.9146	-3.5146	-2.6042	-3.1979	-3.0125	-2.7146	-3.25	-2.8229	53.753	192.030	147.479	71.978	-55.276	10.433	185.838	-17.447	67.592	39.625	112.018	-42.828	-51.306	-56.302	8.961	26.023	9.428e-05	0.00019742	7.4146e-05	257.92	2.5632e-06	7.7501e-07	346.23	83.154	1.7173e-06	3.6346e-07	115.9	57.626	35.867	13.63	3.275e-06	21.298	0.00016464	0.00015368	4.4289e-05	259.15	1.6851e-06	1.7376e-06	343.44	83.467	1.7512e-06	1.6288e-06	115.99	57.568	36.149	13.801	1.795e-06	21.271	150.221	-5.709	12.157	-74.910	20.359	90.141	-76.213	-68.998	122.459	156.707	-70.376	-67.443	-65.140	-59.884	94.434	-63.053	-8191	255	
1322.630	1	1	0	0	0.080515	0.23992	0.23104	0.15168	0.15505	0.20425	0.1041	0.10796	0.081263	0.11689	0.17391	0.32369	0.10115	0.18744	0.20716	0.39366	-2.4208	-3.2375	-2.6146	-3.2604	-3.2479	-2.9646	-3.4083	-3.0146	-2.9333	-3.4938	-2.7625	-3.2562	-3.4021	-2.6646	-3.5771	-3.2354	238.452	16.845	42.627	61.072	122.919	225.134	182.364	227.226	222.713	264.484	160.181	208.082	59.581	58.029	4.585	20.464	0.00013301	2.8152e-05	5.4649e-05	260.83	2.8048e-06	4.5165e-06	347.24	84.558	1.7096e-06	1.6561e-06	117.68	58.534	36.047	13.84	2.8044e-06	21.263	0.00016513	0.00015094	4.4454e-05	260.6	1.6368e-06	1.7732e-06	344.87	84.215	1.7613e-06	1.6851e-06	116.92	58.346	36.268	13.938	1.761e-06	21.47	117.384	-64.372	46.114	-74.574	-31.855	-0.503	-76.387	-69.323	264.805	78.279	-70.966	-68.147	-65.052	-59.824	225.395	-62.229	-8191	255	
1322.727	1	1	0	0	0.17679	0.22728	0.098668	0.18664	0.14468	0.19313	0.3341	0.12337	0.16498	0.16075	0.047889	0.18502	0.21973	0.26854	0.28152	0.10965	-2.5604	-3.4042	-2.7521	-3.2896	-3.3958	-2.9583	-3.5083	-3.05	-3.0563	-3.3812	-2.8083	-3.2354	-3.3125	-2.5833	-3.2062	-3.2771	131.502	239.759	31.181	114.750	43.155	236.598	-51.940	94.608	-44.596	76.014	98.354	-51.143	-81.414	261.037	-65.164	242.842	6.9926e-05	0.00024076	9.0549e-05	259.17	1.1807e-06	2.0095e-06	344.87	84.066	1.1891e-06	9.4272e-07	116.09	58.667	36.104	13.717	1.9798e-06	21.573	0.00016239	0.00015767	4.4165e-05	259.66	1.6453e-06	1.7316e-06	344	84.217	1.7563e-06	1.6952e-06	117.25	58.684	36.441	13.934	1.757e-06	21.689	115.609	52.018	-23.753	-74.097	-2.766	60.012	-75.799	-68.491	15.284	27.327	-70.350	-67.592	-64.565	-59.550	104.059	-62.383	-8191	255	
1322.847	1	1	0	0	0.21524	0.075603	0.16846	0.061452	0.2025	0.09199	0.35884	0.28041	0.14353	0.023153	0.033201	0.23157	0.10792	0.10026	0.10861	0.37506	-2.4688	-3.375	-2.9958	-2.9583	-3.5917	-2.9396	-3.4292	-3.1083	-2.8375	-3.4938	-2.9042	-2.9646	-3.4625	-2.6646	-3.2687	-3.4062	30.057	82.497	199.733	13.547	-3.571	-46.606	151.328	128.264	-7.931	129.137	169.475	204.530	40.773	261.736	246.000	-56.611	0.00016752	0.0002804	2.8666e-05	262.64	2.1866e-06	4.8966e-06	345.63	83.991	2.4718e-06	2.8339e-06	118.43	58.273	36.47	13.875	8.8426e-07	21.438	0.00016187	0.00015874	4.3968e-05	259.75	1.6511e-06	1.794e-06	345.46	84.422	1.7301e-06	1.8023e-06	117.6	58.243	36.323	13.932	1.7904e-06	21.391	120.792	-37.640	174.809	-74.497	39.238	69.467	-76.066	-68.481	72.933	36.695	-71.187	-67.871	-65.174	-60.182	37.939	-62.841	-8191	255	
1322.943	1	1	0	0	0.1833	0.19815	0.070055	0.24128	0.10036	0.13018	0.075777	0.12754	0.115	0.13577	0.28321	0.082818	0.3698	0.087184	0.1856	0.21627	-2.375	-3.4333	-3.0833	-3.0187	-3.4062	-2.7667	-3.1479	-3.1688	-2.7771	-3.2771	-2.95	-2.9458	-3.5021	-2.7417	-3.125	-3.2083	233.993	-61.508	194.832	-72.510	194.664	52.499	66.979	134.344	145.753	85.641	-74.900	-59.061	249.864	12.389	7.986	130.748	0.00016912	0.00022628	5.5803e-05	260.69	6.5271e-06	1.415e-06	349.06	84.308	4.2195e-06	1.5362e-06	117.35	58.315	36.185	13.948	1.3554e-06	21.242	0.00016508	0.00016183	4.3972e-05	259.46	1.7085e-06	1.758e-06	344.3	83.768	1.8151e-06	1.7434e-06	116.19	57.688	36.119	13.901	1.8095e-06	21.321	113.618	0.042	84.953	-75.181	5.591	67.385	-76.377	-68.943	108.017	25.776	-71.053	-68.091	-65.486	-60.438	54.538	-62.998	-8191	255	
1323.039	1	1	0	0	0.20273	0.18661	0.12703	0.2015	0.21699	0.10036	0.16863	0.22509	0.13118	0.20126	0.085371	0.060095	0.10225	0.22854	0.10979	0.058858	-2.3521	-3.35	-3.1333	-2.8396	-3.2229	-2.6271	-3.0833	-3.4104	-2.8208	-3.2833	-3.2167	-2.8563	-3.2875	-2.8271	-3	-3.4521	209.958	233.839	260.462	-30.556	210.055	89.266	252.504	158.054	89.064	134.504	-38.362	206.074	126.164	266.325	231.952	-31.619	0.00014939	0.00020783	0.00010109	262.89	3.2809e-06	2.2595e-06	346.8	85.146	3.2699e-06	2.8431e-06	118.01	59.033	36.442	14.037	2.2102e-06	21.852	0.00016586	0.00015593	4.2583e-05	259.64	1.7115e-06	1.735e-06	344.23	84.41	1.8053e-06	1.7699e-06	117.05	58.477	36.447	14.007	1.7896e-06	21.607	100.275	248.972	1.061	-75.849	10.562	-3.638	-76.237	-69.299	-59.054	15.749	-71.146	-68.504	-65.912	-60.791	144.920	-63.256	-8191	255	
1323.136	1	1	0	0	0.12117	0.050731	0.13947	0.10393	0.11876	0.2806	0.20894	0.17171	0.21133	0.16616	0.055033	0.29208	0.12081	0.22143	0.1977	0.25875	-2.4	-3.0979	-3.0312	-2.8771	-3.3146	-3.0792	-3.0333	-3.3729	-2.675	-3.1562	-3.3625	-2.9104	-3.5958	-2.9292	-2.8875	-3.3812	184.520	45.777	-1.865	16.990	3.617	-38.226	-53.332	96.748	66.332	-29.883	202.090	257.542	-27.186	203.239	48.412	48.483	5.5512e-05	5.4468e-05	3.8517e-05	259.83	9.4174e-07	1.8599e-06	349.66	85.727	1.3206e-06	1.2529e-06	119.52	60.122	36.655	14.048	1.0843e-06	21.936	0.00016321	0.00016351	4.152e-05	260.19	1.7355e-06	1.6856e-06	345.9	84.912	1.8051e-06	1.7819e-06	118.56	59.286	36.598	14.092	1.7833e-06	21.868	142.970	49.847	-12.061	-75.428	54.442	-7.005	-76.115	-69.282	-53.942	-74.283	-71.753	-67.937	-65.774	-60.590	48.241	-63.210	-8191	255	
1323.232	1	1	0	0	0.18952	0.082549	0.15213	0.12433	0.067442	0.16813	0.15011	0.080747	0.24267	0.063592	0.079023	0.11096	0.12571	0.24949	0.13085	0.033292	-2.4521	-3.1292	-3.3375	-2.7896	-3.4083	-3.1063	-3.0521	-3.5417	-2.8125	-3.1521	-3.5125	-2.7896	-3.3958	-2.9896	-2.9688	-3.4646	-71.236	95.539	68.749	269.748	116.633	248.329	235.941	-5.000	75.267	95.716	184.996	-36.793	-67.931	162.599	123.641	9.198	0.00015509	0.00015709	5.5663e-05	263.06	5.2951e-07	3.2433e-06	351.7	84.953	2.7581e-06	1.6453e-06	118.25	58.607	36.426	13.86	2.6493e-06	21.399	0.00016373	0.00016213	4.1998e-05	261.74	1.7331e-06	1.6781e-06	347.67	85.05	1.7106e-06	1.7767e-06	118.49	58.578	36.542	13.979	1.7487e-06	21.538	121.838	251.888	-42.658	-75.657	45.857	34.372	-76.427	-68.243	-21.048	-37.063	-70.703	-67.960	-65.103	-59.910	103.683	-62.406	-8191	255	
1323.328	1	1	0	0	0.22065	0.22302	0.19223	0.20045	0.15459	0.19726	0.018167	0.090205	0.18053	0.33435	0.21108	0.30148	0.17287	0.15007	0.066267	0.1685	-2.2604	-2.9542	-3.3229	-2.7625	-3.4313	-3.35	-3.1063	-3.5375	-3.075	-3.0208	-3.5458	-2.8229	-3.3646	-3.2271	-2.8521	-3.6083	30.145	-4.156	-63.893	167.514	74.756	50.288	-22.900	76.383	218.486	111.804	206.938	-55.092	28.057	162.955	250.986	117.754	9.8169e-05	7.649e-05	7.421e-05	258.34	2.7361e-06	1.7551e-06	343.84	83.562	3.202e-06	1.4297e-06	116.62	57.629	36.109	13.776	8.8457e-07	21.551	0.00015599	0.00015995	4.2542e-05	260.39	1.7492e-06	1.6578e-06	344.81	84.444	1.7423e-06	1.7519e-06	116.8	57.951	36.317	13.902	1.8114e-06	21.545	70.348	76.681	67.053	-74.459	42.905	108.205	-75.651	-67.945	50.302	-51.545	-70.032	-67.323	-65.066	-60.017	81.681	-62.801	-8191	255	
1323.447	1	1	0	0	0.10755	0.20316	0.092686	0.029732	0.16482	0.10895	0.18744	0.25931	0.051979	0.062018	0.12456	0.2583	0.20524	0.10261	0.10018	0.05409	-2.575	-2.9562	-3.4854	-2.6354	-3.2979	-3.2292	-3.0021	-3.4562	-2.9667	-2.95	-3.5208	-2.85	-3.15	-3.2958	-2.7146	-3.5104	62.665	172.819	-72.994	251.080	-61.061	231.098	98.278	-24.927	64.126	45.990	155.457	6.442	-81.839	57.911	-45.882	22.873	0.00011557	5.4702e-05	9.0614e-05	261.19	3.7287e-06	1.6516e-06	341.84	83.363	2.136e-06	6.0445e-07	116.65	58.887	36.458	13.983	3.1414e-06	21.715	0.00015909	0.00015973	4.2536e-05	260.62	1.7619e-06	1.6421e-06	343.82	84.315	1.7452e-06	1.7786e-06	117.45	58.536	36.555	14.028	1.7878e-06	21.656	90.039	103.990	16.847	-74.520	53.480	87.096	-74.998	-67.716	11.731	113.418	-70.468	-67.597	-65.146	-60.916	99.191	-63.320	-8191	255	
1323.543	1	1	0	0	0.18753	0.20163	0.061065	0.13489	0.17787	0.20813	0.17261	0.090926	0.16741	0.088764	0.19435	0.20938	0.17664	0.035545	0.18612	0.209	-2.6854	-2.9437	-3.4396	-2.6896	-3.0542	-3.2479	-2.9417	-3.2708	-3.1833	-2.7646	-3.4833	-3.0708	-3.1396	-3.325	-2.6958	-3.5729	-78.077	119.826	-21.209	-11.252	207.595	212.583	127.323	255.464	33.793	38.378	75.581	261.573	75.860	-14.810	23.211	6.993	0.00011775	0.00023923	2.9981e-05	261.44	2.4647e-06	2.0026e-06	348.41	84.77	8.0818e-07	3.9746e-06	117.68	59.837	36.982	13.985	2.4749e-06	21.776	0.00015851	0.00016074	4.4757e-05	259.05	1.8233e-06	1.6727e-06	345.34	85	1.6622e-06	1.7464e-06	118.42	59.203	36.9	14.145	1.7917e-06	21.902	141.276	-55.502	26.702	-75.035	85.522	27.503	-76.521	-69.082	43.100	48.815	-70.940	-68.036	-65.720	-60.709	78.277	-62.698	-8191	255	
1323.615	1	1	0	0	0.03136	0.33389	0.063352	0.072216	0.23591	0.089525	0.22002	0.044957	0.11114	0.083173	0.162	0.086485	0.15653	0.068604	0.17394	0.20812	-2.6292	-2.7583	-3.3417	-2.6	-2.9167	-3.2021	-2.5979	-2.9479	-3.0479	-2.7646	-3.5021	-2.8375	-2.9521	-3.4313	-2.75	-3.1375	72.363	2.808	-27.012	219.616	266.849	121.924	234.885	112.431	244.595	262.150	221.541	112.910	-13.745	38.767	-22.922	99.840	4.2801e-05	0.00012825	3.2646e-05	261.33	6.8292e-07	2.1982e-06	352.04	86.095	2.0444e-06	1.8479e-06	121.37	59.504	36.72	14.079	3.4502e-06	21.795	0.00015373	0.00016288	4.4011e-05	260.41	1.7797e-06	1.7466e-06	346.7	85.475	1.6624e-06	1.8003e-06	119.43	58.88	36.703	14.073	1.7762e-06	21.698	181.913	46.543	15.908	-75.421	36.364	-64.665	-76.542	-69.352	41.429	-61.553	-71.564	-68.553	-65.707	-60.185	56.079	-63.145	-8191	255	
#DATA ENDS
