BOXY.EXE: ISS Imagent and Oximeter Data Acquisition Program Version 0.80
Ascii Record File

#ACQ INFORMATION
2  Detector Channels 
16  External MUX Channels 
1  Auxiliary Channels 
5000  Waveform (CCF) Frequency (Hz)
1  Waveforms Skipped 
30  Waveforms Averaged 
1  Cycles Averaged 
16  Acquisitions per Waveform 
10.0806  Updata Rate (Hz) 

#FILE INFORMATION
TRUE -- External MUX Channel results are PARSED.
FALSE -- AC DC and Phase are NOT grouped.
TRUE -- Companion Program Settings File CREATED.
FALSE -- AC data not excluded
FALSE -- DC data not excluded
FALSE -- Phase data not excluded
FALSE -- Auxillary Chn. data not excluded
Tab delimiters

#CALIBRATION STATE
TRUE -- Waveform Calibration Values APPLIED.


#AUX CALIBRATION VALUES
Val Type	aux-1	

Term	1.0000e+00	
Factor	0.0000e+00	


#WF CALIBRATION VALUES
A = Detector Channel
Val Type	A-AC1	A-AC2	A-AC3	A-AC4	A-AC5	A-AC6	A-AC7	A-AC8	A-AC9	A-AC10	A-AC11	A-AC12	A-AC13	A-AC14	A-AC15	A-AC16	A-DC1	A-DC2	A-DC3	A-DC4	A-DC5	A-DC6	A-DC7	A-DC8	A-DC9	A-DC10	A-DC11	A-DC12	A-DC13	A-DC14	A-DC15	A-DC16	A-Ph1	A-Ph2	A-Ph3	A-Ph4	A-Ph5	A-Ph6	A-Ph7	A-Ph8	A-Ph9	A-Ph10	A-Ph11	A-Ph12	A-Ph13	A-Ph14	A-Ph15	A-Ph16	

Term	0.00000e+00	0.00000e+00	0.00000e+00	0.00000e+00	0.00000e+00	0.00000e+00	0.00000e+00	0.00000e+00	0.00000e+00	0.00000e+00	0.00000e+00	0.00000e+00	0.00000e+00	0.00000e+00	0.00000e+00	0.00000e+00	0.00000e+00	0.00000e+00	0.00000e+00	0.00000e+00	0.00000e+00	0.00000e+00	0.00000e+00	0.00000e+00	0.00000e+00	0.00000e+00	0.00000e+00	0.00000e+00	0.00000e+00	0.00000e+00	0.00000e+00	0.00000e+00	0.00000e+00	0.00000e+00	0.00000e+00	0.00000e+00	0.00000e+00	0.00000e+00	0.00000e+00	0.00000e+00	0.00000e+00	0.00000e+00	0.00000e+00	0.00000e+00	0.00000e+00	0.00000e+00	0.00000e+00	0.00000e+00	
Factor	1.00000e+00	1.00000e+00	1.00000e+00	1.00000e+00	1.00000e+00	1.00000e+00	1.00000e+00	1.00000e+00	1.00000e+00	1.00000e+00	1.00000e+00	1.00000e+00	1.00000e+00	1.00000e+00	1.00000e+00	1.00000e+00	1.00000e+00	1.00000e+00	1.00000e+00	1.00000e+00	1.00000e+00	1.00000e+00	1.00000e+00	1.00000e+00	1.00000e+00	1.00000e+00	1.00000e+00	1.00000e+00	1.00000e+00	1.00000e+00	1.00000e+00	1.00000e+00	X	X	X	X	X	X	X	X	X	X	X	X	X	X	X	X	

B = Detector Channel
Val Type	B-AC1	B-AC2	B-AC3	B-AC4	B-AC5	B-AC6	B-AC7	B-AC8	B-AC9	B-AC10	B-AC11	B-AC12	B-AC13	B-AC14	B-AC15	B-AC16	B-DC1	B-DC2	B-DC3	B-DC4	B-DC5	B-DC6	B-DC7	B-DC8	B-DC9	B-DC10	B-DC11	B-DC12	B-DC13	B-DC14	B-DC15	B-DC16	B-Ph1	B-Ph2	B-Ph3	B-Ph4	B-Ph5	B-Ph6	B-Ph7	B-Ph8	B-Ph9	B-Ph10	B-Ph11	B-Ph12	B-Ph13	B-Ph14	B-Ph15	B-Ph16	

Term	0.00000e+00	0.00000e+00	0.00000e+00	0.00000e+00	0.00000e+00	0.00000e+00	0.00000e+00	0.00000e+00	0.00000e+00	0.00000e+00	0.00000e+00	0.00000e+00	0.00000e+00	0.00000e+00	0.00000e+00	0.00000e+00	0.00000e+00	0.00000e+00	0.00000e+00	0.00000e+00	0.00000e+00	0.00000e+00	0.00000e+00	0.00000e+00	0.00000e+00	0.00000e+00	0.00000e+00	0.00000e+00	0.00000e+00	0.00000e+00	0.00000e+00	0.00000e+00	-1.85345e+02	-1.23737e+02	-1.11857e+02	-1.80493e+02	-1.02631e+02	-7.18909e+01	-1.55190e+02	-1.62015e+02	-8.30239e+01	-6.30682e+01	-1.71086e+02	-1.70392e+02	-1.81065e+02	-1.76742e+02	-5.60175e+01	-1.49283e+02	
Factor	3.45794e-05	1.28973e-04	3.64895e-05	1.78598e-01	1.50782e-06	1.48164e-06	1.55936e-01	4.98493e-02	1.25560e-06	1.27048e-06	8.53734e-02	2.92799e-02	2.65120e-02	9.74353e-03	1.48999e-06	1.28900e-02	2.28479e-06	2.43523e-06	6.78434e-07	9.15091e-02	2.64387e-08	2.67660e-08	7.53430e-02	2.56481e-02	2.64425e-08	2.67481e-08	4.24034e-02	1.45225e-02	1.36176e-02	5.01221e-03	2.65546e-08	6.42646e-03	X	X	X	X	X	X	X	X	X	X	X	X	X	X	X	X	



#DISTANCE SETTINGS
A = Detector Channel
A-1	A-2	A-3	A-4	A-5	A-6	A-7	A-8	A-9	A-10	A-11	A-12	A-13	A-14	A-15	A-16	

2.5000e+00	3.0000e+00	2.5000e+00	3.0000e+00	2.0000e+00	3.0000e+00	1.5000e+00	3.0000e+00	3.0000e+00	3.0000e+00	3.0000e+00	3.0000e+00	3.0000e+00	3.0000e+00	1.5000e+00	3.0000e+00	

B = Detector Channel
B-1	B-2	B-3	B-4	B-5	B-6	B-7	B-8	B-9	B-10	B-11	B-12	B-13	B-14	B-15	B-16	

1.0000e+01	1.0000e+01	1.0000e+01	1.4400e+00	1.0000e+01	1.0000e+01	1.5100e+00	1.9400e+00	1.0000e+01	1.0000e+01	1.9900e+00	2.4900e+00	2.4100e+00	2.9000e+00	1.0000e+01	2.9800e+00	




#DATA BEGINS
time	group	step	mark	flag	A-AC1	A-AC2	A-AC3	A-AC4	A-AC5	A-AC6	A-AC7	A-AC8	A-AC9	A-AC10	A-AC11	A-AC12	A-AC13	A-AC14	A-AC15	A-AC16	A-DC1	A-DC2	A-DC3	A-DC4	A-DC5	A-DC6	A-DC7	A-DC8	A-DC9	A-DC10	A-DC11	A-DC12	A-DC13	A-DC14	A-DC15	A-DC16	A-Ph1	A-Ph2	A-Ph3	A-Ph4	A-Ph5	A-Ph6	A-Ph7	A-Ph8	A-Ph9	A-Ph10	A-Ph11	A-Ph12	A-Ph13	A-Ph14	A-Ph15	A-Ph16	B-AC1	B-AC2	B-AC3	B-AC4	B-AC5	B-AC6	B-AC7	B-AC8	B-AC9	B-AC10	B-AC11	B-AC12	B-AC13	B-AC14	B-AC15	B-AC16	B-DC1	B-DC2	B-DC3	B-DC4	B-DC5	B-DC6	B-DC7	B-DC8	B-DC9	B-DC10	B-DC11	B-DC12	B-DC13	B-DC14	B-DC15	B-DC16	B-Ph1	B-Ph2	B-Ph3	B-Ph4	B-Ph5	B-Ph6	B-Ph7	B-Ph8	B-Ph9	B-Ph10	B-Ph11	B-Ph12	B-Ph13	B-Ph14	B-Ph15	B-Ph16	aux-1	digaux	

1657.190	1	1	0	256	0.17195	0.025818	0.25907	0.095775	0.21148	0.34468	0.15298	0.50347	0.16125	0.2715	0.080511	0.044899	0.29735	0.2846	0.23282	0.16898	-2.7188	-3.5292	-2.6896	-3.2458	-3.2375	-2.8792	-3.575	-3.0479	-3.2354	-3.4583	-2.9688	-3.6562	-3.1396	-3.0625	-3.5667	-3.0708	79.713	-5.767	149.195	52.108	111.990	104.768	149.966	164.641	31.423	61.230	-110.402	-14.883	-134.811	-130.137	156.767	-131.032	0.0010164	0.0006348	7.0733e-05	595.84	6.6793e-06	7.2614e-06	702.67	245.31	7.0515e-06	8.6904e-06	342.08	161.24	109.37	59.304	3.5527e-06	85.718	0.00041971	0.00036626	0.00010337	582.89	4.0074e-06	4.1908e-06	686.75	240.11	4.1686e-06	4.0692e-06	332.69	156.45	107.06	57.996	4.1526e-06	82.933	143.030	-59.734	-71.017	-131.618	-31.152	-23.218	-132.902	-126.132	-19.296	13.188	-128.993	-124.175	-121.621	-115.142	-10.637	-119.200	-8191	255	
1657.286	1	1	0	0	0.15842	0.24229	0.22568	0.17563	0.1274	0.3296	0.13318	0.15972	0.28834	0.087666	0.033576	0.14034	0.075753	0.23299	0.14505	0.19763	-2.6479	-3.4396	-3.0375	-3.5125	-3.3208	-2.7667	-3.6146	-3.0938	-2.8896	-3.4979	-3.0021	-3.275	-3.3688	-2.9167	-3.4833	-3.2	177.289	-139.028	190.852	97.277	213.944	140.764	131.445	-136.345	-26.669	15.403	179.041	124.784	192.260	175.975	91.293	195.188	0.0011856	0.00010558	0.00013764	606.84	4.255e-06	1.0417e-05	710.26	246.69	2.8187e-06	4.545e-06	335.66	158.62	108.13	58.81	6.6533e-06	83.613	0.00042183	0.00036616	0.00010427	590.39	4.0456e-06	4.1469e-06	688.65	240.62	4.2875e-06	4.0378e-06	326.89	154.72	106.29	57.73	4.1041e-06	81.59	149.553	-51.796	-45.275	-131.677	29.564	13.216	-133.190	-125.952	-33.973	-16.341	-128.504	-124.258	-121.454	-114.786	16.900	-118.877	-8191	255	
1657.382	1	1	0	0	0.10029	0.28619	0.18849	0.23644	0.14552	0.19116	0.25472	0.094592	0.031603	0.078919	0.22469	0.098996	0.10874	0.093894	0.043474	0.14816	-2.8521	-3.3208	-2.575	-3.2854	-3.4667	-2.9229	-3.6458	-3.1875	-2.9542	-3.4771	-3.1021	-3.3104	-3.425	-2.8792	-3.4625	-3.3979	0.405	-3.918	-16.107	-131.528	22.051	-115.315	120.540	71.085	139.889	-136.179	129.729	-132.228	59.300	-103.762	172.584	140.287	0.0011688	0.00056638	0.00018882	603.27	3.4508e-06	2.6344e-06	687.07	244.46	6.1486e-06	6.3577e-06	333.17	158.4	108.13	59.028	8.8287e-06	84.127	0.00041349	0.00036822	0.00010463	586	3.9202e-06	4.0204e-06	671.53	239.18	4.1509e-06	4.0213e-06	325.23	154.49	106.8	57.952	4.1198e-06	82.14	148.614	-26.210	-8.365	-132.251	-91.898	-59.994	-133.200	-125.850	-44.125	-2.035	-128.572	-124.271	-121.265	-114.605	16.489	-118.854	-8191	255	
1657.502	1	1	0	0	0.15604	0.26277	0.20122	0.079716	0.16923	0.22888	0.036887	0.29469	0.24052	0.14194	0.081119	0.07266	0.15004	0.27239	0.247	0.26351	-2.3333	-3.525	-2.8708	-3.0604	-3.3604	-2.9979	-3.3271	-3.1333	-2.75	-3.4771	-3.1104	-3.0687	-3.4562	-2.7938	-3.4167	-3.325	107.515	206.776	119.418	60.530	-32.682	-72.728	-83.542	156.641	83.583	-124.275	196.391	203.167	44.246	204.060	84.715	132.490	0.0011391	0.00047965	7.2099e-05	608.82	8.4536e-06	6.1407e-06	705.98	248.59	2.6078e-06	2.5002e-06	339.23	161.11	110.18	59.615	6.301e-06	84.954	0.00041193	0.00036963	0.0001027	594.57	3.9259e-06	4.0901e-06	687.67	242.65	4.0192e-06	3.9835e-06	331.61	156.39	107.71	58.331	4.0845e-06	83.061	143.232	-15.118	-86.933	-131.737	-60.419	-12.638	-133.148	-125.572	-21.738	24.767	-128.333	-124.296	-121.332	-114.955	5.853	-119.051	-8191	255	
1657.599	1	1	0	0	0.1139	0.13544	0.14578	0.23716	0.22997	0.21276	0.17314	0.27381	0.14975	0.10833	0.13928	0.22175	0.21689	0.032314	0.025972	0.058666	-2.2479	-3.325	-3.0458	-3.0458	-3.2438	-3.0438	-3.4604	-3.4458	-2.6333	-3.2958	-3.2875	-3.0125	-3.4208	-2.9667	-3.3	-3.3583	12.305	192.666	-130.103	92.435	-31.048	75.623	-43.550	145.919	-42.445	7.659	79.557	202.246	-140.784	193.923	66.631	-63.986	0.0011886	0.00065793	0.00010212	615.29	4.4069e-06	5.6688e-06	724.82	251.28	5.1117e-06	6.7313e-06	349.16	164.04	110.37	59.981	5.5105e-06	86.206	0.0004028	0.00036762	0.00010151	601.98	3.9054e-06	4.0901e-06	707.6	245.9	4.0129e-06	4.0359e-06	340.09	158.94	108.63	58.692	4.0858e-06	84.195	147.357	-50.426	-57.298	-131.938	-17.740	-7.158	-133.021	-125.810	-56.741	30.873	-128.476	-124.116	-121.136	-114.618	3.971	-118.566	-8191	255	
1657.670	1	1	0	0	0.22919	0.057077	0.13497	0.12151	0.25235	0.12993	0.20536	0.12094	0.15679	0.22954	0.19549	0.11721	0.11016	0.051104	0.22854	0.34148	-2.4188	-3.3063	-2.9917	-2.8792	-3.5271	-2.875	-3.1833	-3.5375	-2.8354	-3.3583	-3.3625	-2.9813	-3.4	-2.9646	-3.2542	-3.6333	3.315	-96.749	-113.451	180.018	22.020	157.652	123.957	-136.142	35.108	143.350	-33.713	-130.910	-69.388	115.145	127.639	176.346	0.0011696	0.00050661	0.0001004	615.45	5.7577e-06	4.1777e-06	710.29	247.76	9.1559e-06	2.4461e-06	337.63	160.86	110.94	60.038	8.9499e-06	85.506	0.00041035	0.00036653	0.00010005	603.88	3.8562e-06	3.9807e-06	695.65	244.2	4.0012e-06	3.954e-06	331.67	157.01	108.61	58.771	4.0253e-06	83.313	143.261	-5.613	-31.197	-131.767	-40.573	0.044	-132.680	-125.806	-37.374	-19.316	-128.451	-123.748	-121.523	-114.838	-16.558	-118.848	-8191	255	
1657.791	1	1	0	0	0.027455	0.19844	0.11561	0.20346	0.24568	0.30231	0.34368	0.18258	0.20207	0.28817	0.35404	0.15903	0.17894	0.16194	0.249	0.27216	-2.3167	-3.3125	-3.1042	-2.8667	-3.4396	-2.9313	-3.0187	-3.6146	-2.7375	-3.1604	-3.2604	-2.9479	-3.65	-3.1813	-2.8917	-3.4188	160.138	102.805	-18.429	-123.115	53.806	207.878	-136.182	199.934	22.344	98.527	181.197	-124.281	-75.536	123.371	174.034	156.369	0.0010356	0.00039174	0.00014167	617.68	9.0958e-06	5.3504e-06	710	250.47	7.4427e-06	6.7867e-06	344.44	162.35	111.29	60.398	9.7468e-06	86.047	0.00039809	0.00036837	9.9646e-05	601.92	4.0463e-06	3.988e-06	693.93	245.37	4.0315e-06	4.001e-06	334.76	157.89	108.92	58.994	4.0609e-06	83.835	144.031	-95.561	-62.308	-131.998	-68.467	42.138	-133.036	-125.679	-64.276	21.273	-128.562	-124.114	-121.662	-114.913	1.249	-119.138	-8191	255	
1657.885	1	1	0	0	0.18367	0.1437	0.16311	0.19566	0.24426	0.2848	0.11428	0.20733	0.308	0.077959	0.3062	0.24702	0.20437	0.34864	0.14687	0.14445	-2.3854	-3.2167	-3.3833	-2.9458	-3.4479	-3.2875	-3.025	-3.5354	-3.0958	-3.1583	-3.3438	-2.9021	-3.5729	-3.3854	-2.9375	-3.4188	-13.109	94.711	43.416	157.981	-124.656	108.578	132.170	181.446	144.010	93.251	185.148	-122.712	206.542	184.800	-81.047	106.644	0.0011684	0.00041354	0.00015049	618.97	6.1971e-06	8.8318e-06	730.15	253.69	6.9133e-06	4.8755e-06	348.31	163.99	111.4	60.46	6.2762e-06	87.113	0.00040353	0.00036616	0.00010103	605.73	3.961e-06	4.0572e-06	708.73	247.16	3.9615e-06	4.0934e-06	339.6	159.41	109.79	59.195	4.0359e-06	84.881	142.356	-63.491	-8.669	-131.956	-49.563	-25.720	-133.360	-125.820	-50.037	25.399	-128.548	-124.245	-121.702	-114.847	-13.082	-119.100	-8191	255	
1657.981	1	1	0	0	0.082087	0.2032	0.066873	0.2382	0.074519	0.22575	0.11908	0.23457	0.32685	0.07686	0.33219	0.23008	0.16322	0.11612	0.10933	0.24595	-2.475	-3.1583	-3.3583	-2.6708	-3.4167	-3.275	-3.1	-3.5646	-2.8104	-3.0083	-3.5292	-3.1146	-3.3812	-3.3229	-2.7854	-3.8167	98.704	-18.683	-0.670	205.351	211.785	41.698	-129.354	-105.783	-121.970	50.260	-49.362	86.134	-107.853	-102.082	134.224	197.209	0.0011891	0.0007043	0.00015152	624.74	5.7817e-06	8.1992e-06	741.32	255.5	5.3778e-06	5.5302e-06	354.37	165.52	112.15	60.519	3.976e-06	86.115	0.00040863	0.00037254	9.995e-05	611.96	4.0344e-06	4.0453e-06	723.88	250.27	4.0041e-06	4.0932e-06	344.2	160.64	110.04	59.324	4.1367e-06	84.448	143.307	-2.457	-126.707	-131.677	0.166	10.298	-133.462	-125.885	-31.955	23.582	-128.352	-123.944	-121.358	-114.588	-5.627	-119.006	-8191	255	
1658.078	1	1	0	0	0.27092	0.065213	0.1535	0.022175	0.33612	0.12367	0.28187	0.14806	0.1194	0.18278	0.24941	0.09425	0.10171	0.274	0.19823	0.08846	-2.7313	-3.0438	-3.2542	-2.9062	-3.4521	-3.1396	-2.8917	-3.6646	-3.0417	-2.975	-3.5729	-2.7562	-3.1708	-3.45	-2.8146	-3.6375	-7.673	-112.124	214.410	183.911	20.302	-83.596	214.814	215.634	80.144	-3.957	166.251	165.915	-138.130	170.305	29.981	-48.219	0.0011515	0.00046466	0.00018006	614.22	7.5224e-06	7.754e-06	703.77	251.85	5.5886e-06	1.0387e-05	343.6	163.31	112.33	60.333	8.5846e-06	86.065	0.00041698	0.00038071	0.00010087	603.16	4.0591e-06	3.9481e-06	687.84	246.13	4.0245e-06	4.1757e-06	332.64	158.6	109.75	59.109	4.1257e-06	83.937	146.382	-56.202	-48.679	-131.429	-36.608	-2.194	-133.334	-125.854	-44.767	1.652	-128.430	-123.973	-121.874	-114.942	0.990	-119.171	-8191	255	
1658.198	1	1	0	0	0.19489	0.15953	0.048632	0.19341	0.229	0.24805	0.2611	0.068415	0.15442	0.099269	0.093628	0.16883	0.087973	0.39652	0.13401	0.24976	-2.7938	-2.6875	-3.4062	-2.6437	-3.2271	-3.3958	-3.0229	-3.5771	-3.0938	-2.7979	-3.6229	-3.0333	-3.3125	-3.5438	-2.8479	-3.5	-33.014	1.913	82.259	143.350	108.577	-104.464	-89.696	113.565	-87.172	-7.075	152.030	157.412	-72.251	-115.651	-13.365	148.041	0.001126	0.00050632	0.00015997	615.22	1.1272e-05	3.5571e-06	713.36	254.56	3.5003e-06	5.8667e-06	345.61	165.34	113.33	60.928	3.1634e-06	87.322	0.00041114	0.00037288	0.00010174	602.2	4.1598e-06	4.0044e-06	696.7	248.02	4.0853e-06	4.0542e-06	337.31	160.36	111.05	59.705	4.0809e-06	85.185	143.147	5.200	-72.785	-132.158	-10.548	22.314	-133.552	-125.799	15.362	26.969	-128.572	-124.093	-121.511	-114.844	50.304	-119.032	-8191	255	
1658.294	1	1	0	0	0.17741	0.17163	0.033302	0.26689	0.032981	0.16853	0.087965	0.13661	0.056073	0.041502	0.1919	0.34504	0.18565	0.11946	0.14322	0.14158	-2.7854	-2.8375	-3.4208	-2.7521	-3.225	-3.475	-3.0646	-3.3604	-3.2333	-2.9188	-3.4813	-3.0271	-3.075	-3.7125	-2.8563	-3.4792	193.945	37.699	-48.355	195.833	-72.328	129.529	201.940	140.187	198.315	-0.018	114.477	201.983	147.526	-80.148	51.681	-140.537	0.0012512	0.00058653	6.9837e-05	621.05	1.8639e-06	6.9859e-06	724.7	255.68	4.2558e-06	5.1703e-06	354.27	168.53	114.41	61.67	2.0169e-06	88.891	0.00041013	0.00037864	0.00010392	607.57	4.0453e-06	3.9799e-06	707.8	250.66	4.0096e-06	4.1423e-06	344.19	163.49	112.21	60.413	4.1028e-06	86.537	147.545	-60.193	-47.820	-132.076	-5.903	-17.419	-132.989	-125.921	-56.186	68.285	-128.439	-123.878	-121.549	-114.885	-98.752	-118.970	-8191	255	
1658.391	1	1	0	0	0.11388	0.29821	0.17893	0.13867	0.17404	0.12659	0.068579	0.13554	0.15843	0.21845	0.17412	0.14991	0.22735	0.14988	0.16453	0.26852	-2.7771	-2.9396	-3.475	-2.9854	-2.9354	-3.4917	-2.9875	-3.5021	-3.3	-2.8542	-3.75	-3.3187	-3.0062	-3.4917	-3.0729	-3.2396	86.186	-94.690	-95.996	-64.100	-4.520	162.902	177.822	166.931	58.608	200.346	167.995	125.238	73.318	-109.392	37.524	73.147	0.0013094	0.00074129	4.5415e-05	629.71	7.9534e-06	4.9975e-06	732.62	258.24	1.034e-05	3.1149e-06	352.21	167.42	114.14	61.713	4.9555e-06	87.997	0.00041079	0.00037897	0.00010574	613.26	4.1153e-06	4.0771e-06	714.89	252.34	4.0461e-06	4.1517e-06	342.1	162.94	112.1	60.395	4.132e-06	85.748	140.153	-30.500	-113.430	-131.648	-39.930	-17.499	-133.127	-126.070	-62.040	74.805	-128.647	-123.919	-121.385	-114.669	-37.180	-119.127	-8191	255	
1658.487	1	1	0	0	0.0685	0.15437	0.143	0.024894	0.19975	0.12616	0.074126	0.12849	0.06441	0.19447	0.13511	0.18218	0.10446	0.19558	0.17227	0.32729	-2.9083	-2.7604	-3.5333	-3.2521	-2.7521	-3.4833	-3.1188	-3.0542	-3.4375	-2.8688	-3.3521	-3.2062	-2.8208	-3.6583	-2.8667	-2.9792	81.356	-105.575	70.651	118.063	82.998	155.588	91.781	152.310	159.426	-101.763	93.584	191.870	153.617	162.824	-139.271	157.523	0.0012198	0.00056744	0.00022105	618.2	4.2167e-06	4.3818e-06	705.69	255.97	2.3313e-06	3.7649e-06	348.41	166.35	114.84	61.447	4.9222e-06	87.968	0.00041224	0.00038389	0.00010511	603.07	4.1064e-06	4.1347e-06	687.61	249.58	4.1171e-06	4.1899e-06	338.17	162.27	112.09	60.233	4.1525e-06	85.659	147.298	-65.753	-1.607	-131.234	-10.811	-48.536	-133.171	-125.890	12.022	5.346	-128.580	-123.906	-121.578	-115.085	44.210	-119.216	-8191	255	
1658.583	1	1	0	0	0.23489	0.16363	0.15807	0.098454	0.057018	0.2387	0.035888	0.068659	0.055894	0.099096	0.1549	0.14398	0.27439	0.075288	0.31987	0.10957	-3.0125	-2.7375	-3.3042	-3.2479	-2.6396	-3.4313	-3.1813	-3.0146	-3.3958	-2.6646	-3.2479	-3.2812	-2.8104	-3.7625	-2.9292	-3.0583	-67.397	42.536	61.302	-10.841	-50.302	28.085	107.974	-124.750	-43.523	122.400	169.667	105.304	-33.479	-55.110	182.974	3.802	0.0012133	0.00092981	0.00019306	619.3	9.5409e-06	4.4273e-06	718.48	256.85	6.1011e-06	2.9709e-06	353.99	168.55	114.67	61.905	3.7933e-06	88.491	0.00041594	0.00037959	0.00010803	604.96	4.2449e-06	4.2304e-06	701.88	251.51	4.1096e-06	4.1945e-06	343.82	163.75	112.74	60.64	4.2015e-06	86.437	150.885	-41.811	-62.168	-131.609	-24.767	40.424	-133.498	-126.019	-68.867	-32.313	-128.457	-124.198	-121.460	-114.851	59.823	-119.122	-8191	255	
1658.679	1	1	0	0	0.11669	0.15884	0.0883	0.046638	0.15227	0.18137	0.21039	0.35536	0.19927	0.1588	0.28447	0.13295	0.3287	0.14344	0.29239	0.19922	-3.125	-2.8354	-2.8521	-3.2104	-2.6708	-3.4958	-3.0479	-2.8833	-3.6021	-2.8458	-3.0854	-3.5479	-2.7125	-3.425	-3.075	-3.1063	190.032	98.714	74.086	63.813	204.483	122.389	99.632	150.527	-51.190	75.138	188.590	164.483	202.688	-134.502	14.361	185.075	0.001106	0.00051657	0.00027171	629.3	7.1179e-06	2.544e-06	742.74	261.21	7.0433e-06	5.6075e-06	361.18	170.85	115.59	61.992	8.1589e-06	89.423	0.00041634	0.00038353	0.00010857	613.03	4.3178e-06	4.2669e-06	721.93	254.73	4.2635e-06	4.2361e-06	352.06	165.93	113.53	60.774	4.206e-06	87.207	143.374	-79.323	-18.112	-132.165	-66.418	155.644	-133.243	-126.003	-19.740	-1.303	-128.393	-124.168	-121.336	-114.839	-3.788	-119.156	-8191	255	
1658.800	1	1	0	0	0.41926	0.11584	0.092895	0.22421	0.15109	0.24485	0.054321	0.17674	0.15984	0.17787	0.0992	0.20611	0.12315	0.067106	0.17034	0.10681	-3.0167	-2.6292	-3.1063	-3.4625	-2.7167	-3.3604	-3.3958	-2.9167	-3.3083	-3.0125	-3.1479	-3.5438	-2.7646	-3.5625	-3.3	-3.0521	119.007	104.648	-67.059	45.069	85.441	-91.830	157.875	180.736	-121.453	176.445	79.408	179.791	-134.579	-101.531	88.936	158.534	0.0012592	0.00046783	0.0001771	632.65	5.3309e-06	9.9316e-06	736.42	258.53	7.4909e-06	6.7142e-06	352.43	169.64	114.78	61.66	2.229e-06	88.232	0.00043506	0.00038837	0.00011109	616.57	4.2422e-06	4.3533e-06	715.96	252.84	4.2461e-06	4.2275e-06	343.62	164.15	112.72	60.381	4.2516e-06	85.856	147.809	-47.036	-44.036	-131.677	-66.935	-0.032	-133.206	-125.994	-34.575	60.234	-128.679	-124.103	-121.595	-115.076	-27.813	-119.301	-8191	255	
1658.894	1	1	0	0	0.16054	0.10174	0.032749	0.070635	0.27986	0.035663	0.20638	0.20491	0.059636	0.30581	0.11488	0.3013	0.22071	0.14758	0.19235	0.1704	-3.1312	-2.8354	-2.9417	-3.4792	-2.6229	-3.3312	-3.4667	-2.8708	-3.4	-3.1437	-3.1354	-3.6604	-2.8271	-3.3396	-3.2083	-3.0062	143.629	-22.929	-127.919	-106.700	38.373	187.961	186.592	193.797	36.967	103.702	-8.181	212.054	80.507	142.084	106.606	190.904	0.0010781	0.00022214	0.00028754	618.05	5.6703e-06	3.7434e-06	718.64	257.4	2.4417e-06	3.7695e-06	353.65	169.66	115.58	62.137	4.7865e-06	88.976	0.00042091	0.00038357	0.00010922	605.59	4.1722e-06	4.1977e-06	699.75	251.28	4.1002e-06	4.1707e-06	343.44	164.28	113.07	60.696	4.0671e-06	86.544	148.186	-92.222	-14.615	-131.535	-45.286	17.498	-133.343	-126.116	-90.296	89.722	-128.430	-124.088	-121.725	-115.147	83.835	-119.112	-8191	255	
1658.966	1	1	0	0	0.16468	0.080539	0.060083	0.29188	0.059912	0.15277	0.15324	0.16821	0.067526	0.068669	0.13318	0.042412	0.072031	0.054276	0.24286	0.21064	-2.875	-2.9875	-3.1312	-3.5521	-2.5312	-3.3646	-3.4354	-2.9437	-3.4458	-3.2229	-3.0792	-3.6167	-2.875	-3.3542	-3.2625	-3.0396	-18.229	53.877	-81.478	-109.460	87.671	155.126	-111.159	116.950	183.645	-65.285	79.093	-1.673	-82.264	-86.973	-68.865	156.832	0.0011288	0.00050934	0.00014301	626.28	8.3684e-06	3.4701e-06	729.06	260.2	8.9105e-06	7.2034e-06	360.02	170.79	116.88	62.427	2.2619e-06	89.521	0.0004167	0.00037287	0.00010674	612.77	4.1171e-06	4.2769e-06	710.43	254.45	4.1993e-06	4.1049e-06	350.38	166.19	114.16	61.017	4.277e-06	87.544	149.282	-32.734	-22.085	-131.638	0.848	28.859	-132.957	-126.231	-40.119	12.766	-128.452	-124.166	-121.555	-115.121	101.436	-119.048	-8191	255	
1659.062	1	1	0	0	0.20753	0.22722	0.09513	0.065258	0.26316	0.12188	0.39923	0.1588	0.068178	0.061402	0.033325	0.21664	0.29171	0.10098	0.13217	0.28404	-3.1771	-3.1917	-2.7479	-3.5833	-3.1208	-3.1292	-3.3271	-2.8083	-3.4354	-3.1958	-2.7438	-3.6083	-2.95	-3.2583	-3.3083	-2.9375	194.797	-93.668	-89.214	132.535	3.861	184.548	157.772	161.049	133.373	161.562	157.549	130.648	170.228	-127.646	33.859	86.311	0.0012631	0.00069303	0.00016513	630.8	7.8645e-06	6.1377e-06	750.28	262.91	3.6593e-06	8.0193e-06	368.18	173.36	117.93	62.739	5.5404e-06	90.292	0.00042781	0.00037518	0.00010821	618.44	4.2123e-06	4.1848e-06	729.21	257.18	4.2354e-06	4.1027e-06	356.14	168.49	114.84	61.41	4.1786e-06	87.878	143.184	-76.365	-65.768	-131.723	-37.601	-30.996	-133.268	-126.164	55.150	29.246	-128.970	-124.113	-121.578	-115.177	15.912	-119.229	-8191	255	
1659.182	1	1	0	0	0.14397	0.029751	0.15607	0.21161	0.13897	0.12121	0.33047	0.26954	0.20258	0.16529	0.24732	0.066337	0.20026	0.16897	0.029694	0.40856	-2.8625	-3.2979	-2.8417	-3.5042	-3.0187	-2.875	-3.35	-2.7438	-3.2771	-3.2479	-2.7583	-3.5167	-3.2396	-3.0875	-3.6167	-2.7083	-16.293	166.802	206.672	143.646	-100.226	24.123	156.825	-117.838	98.727	-45.544	177.685	130.491	154.873	-133.480	49.710	152.506	0.0013476	0.00025627	6.6247e-05	625.77	2.9741e-06	6.9403e-06	719.95	259.17	6.4055e-06	5.294e-06	354.51	169.81	117.03	62.081	4.1065e-06	88.701	0.00042669	0.00037818	0.00010924	611.6	4.1021e-06	4.1937e-06	701.73	253.52	4.1722e-06	4.0359e-06	344.87	165.24	114.22	60.867	4.2385e-06	86.296	146.005	-11.211	-99.354	-131.499	60.537	35.271	-133.217	-126.386	-51.924	32.893	-128.494	-124.267	-121.453	-115.415	-40.761	-119.090	-8191	255	
1659.279	1	1	0	0	0.11589	0.1114	0.080184	0.1503	0.13301	0.16752	0.13867	0.16028	0.070555	0.1033	0.3146	0.21414	0.20025	0.30899	0.18471	0.30007	-2.8729	-3.2375	-2.8521	-3.5104	-3.2062	-2.7583	-3.8187	-2.9854	-3.1	-3.3104	-2.8583	-3.4396	-3.2417	-2.9146	-3.3125	-3.1854	-38.697	-6.939	-103.537	-101.851	-130.573	-30.059	162.264	107.935	45.832	-110.879	142.525	107.764	156.430	204.595	3.899	-104.946	0.0010639	0.00078596	0.00012583	626.78	6.1405e-06	6.8342e-06	723.67	258.7	9.1994e-06	7.4534e-06	357.81	172.36	117.72	62.706	7.2451e-06	89.9	0.00042286	0.00037674	0.00010966	610.66	4.1209e-06	4.2747e-06	704.21	254.32	4.2137e-06	4.0625e-06	347.9	166.91	114.83	61.419	4.1617e-06	87.608	144.999	-87.112	-22.926	-131.618	-79.933	-6.631	-132.987	-125.697	-49.262	-17.851	-128.608	-124.161	-121.934	-114.787	-21.065	-119.174	-8191	255	
1659.375	1	1	0	0	0.20651	0.20346	0.086431	0.1933	0.13757	0.17179	0.1481	0.23922	0.22612	0.091539	0.09783	0.35321	0.19664	0.29355	0.15613	0.12364	-2.6417	-3.2812	-2.8229	-3.4396	-3.2687	-2.8521	-3.4979	-3.1729	-3.075	-3.2708	-2.875	-3.375	-3.4625	-2.9417	-3.3875	-2.9583	156.804	-74.913	-82.639	145.051	-13.152	-15.665	-39.826	145.280	51.960	28.772	14.282	206.315	181.854	140.091	84.944	131.115	0.0011603	0.00072163	0.00025318	627.82	6.1775e-06	6.9685e-06	733.58	262.53	3.1665e-06	4.7036e-06	363.16	173.81	117.88	63.073	2.2576e-06	90.786	0.00042348	0.00038517	0.00010858	614.35	4.0762e-06	4.2411e-06	715.39	256.91	4.1505e-06	4.1563e-06	353.39	168.74	115.24	61.728	4.2235e-06	88.585	147.624	-38.832	-64.783	-131.552	-24.018	17.129	-133.272	-126.078	-4.594	-39.891	-128.538	-124.103	-121.786	-115.136	-0.302	-118.984	-8191	255	
1659.471	1	1	0	0	0.066473	0.12518	0.078799	0.098346	0.080223	0.27408	0.14347	0.076838	0.034035	0.11298	0.15522	0.095161	0.12736	0.10635	0.22568	0.063076	-2.3708	-3.3167	-2.775	-3.2604	-3.3937	-2.7646	-3.7021	-3.0625	-2.8833	-3.4708	-2.9188	-3.3312	-3.3812	-3.0042	-3.3167	-3.2562	75.558	134.339	86.066	-107.742	48.694	112.329	123.796	161.383	60.199	30.743	107.723	203.754	71.465	151.943	166.899	116.901	0.0011721	0.00074401	0.00022942	632.14	1.189e-05	5.9461e-06	749.02	265.21	4.3499e-06	7.7003e-06	363	173.61	117.73	62.659	8.7112e-06	90.162	0.00043139	0.00037872	0.00010672	619.37	4.0582e-06	4.3006e-06	729.93	258.6	4.3337e-06	4.3209e-06	353.35	168.71	115.23	61.491	4.2906e-06	87.757	150.565	-16.128	-40.667	-131.774	14.800	-54.005	-133.305	-125.995	-58.266	37.953	-128.382	-124.028	-121.552	-115.060	43.033	-119.045	-8191	255	
1659.567	1	1	0	0	0.073432	0.34284	0.22739	0.20591	0.15791	0.40859	0.040681	0.25428	0.032581	0.27591	0.42782	0.18694	0.069424	0.13697	0.18092	0.29774	-2.5792	-3.5062	-2.7167	-3.0563	-3.1688	-2.9521	-3.5604	-3.3187	-2.9229	-3.6042	-3.0812	-3.1271	-3.5229	-2.8646	-3.2604	-3.3833	41.014	-139.786	70.940	-106.481	96.431	196.908	96.617	63.455	175.868	-3.508	213.084	174.503	185.032	-99.422	-66.558	185.299	0.0011158	0.00093329	4.4567e-05	621.71	9.2535e-06	1.0106e-05	720.08	260.01	8.1303e-06	6.9796e-06	355.35	171.5	117.6	62.557	6.0353e-06	89.723	0.00043083	0.00038635	0.00010747	608.4	4.1364e-06	4.2749e-06	700.16	254.77	4.2641e-06	4.1484e-06	345.87	166.44	114.79	61.251	4.2376e-06	87.184	145.507	-92.755	-47.957	-131.762	-50.760	29.601	-133.009	-125.750	8.198	-13.741	-128.110	-124.050	-121.511	-115.146	-8.892	-119.075	-8191	255	
1659.663	1	1	0	0	0.11012	0.20899	0.022326	0.23118	0.20543	0.073214	0.26438	0.20443	0.078897	0.23407	0.17747	0.066793	0.20222	0.31869	0.10712	0.2002	-2.45	-3.3042	-2.925	-3.1396	-3.4604	-2.6979	-3.2667	-3.35	-2.8875	-3.4646	-3.1688	-3.3542	-3.5687	-2.8375	-3.1458	-3.6771	-100.341	-45.322	107.220	60.243	-99.624	201.442	131.616	143.743	128.898	54.050	-111.251	209.381	181.876	186.519	177.095	157.157	0.0012167	0.00058741	0.00012685	624.65	8.578e-06	3.1268e-06	727.03	262.65	4.7623e-06	8.1396e-06	361.64	172.95	118.41	63.31	3.4196e-06	90.947	0.00043094	0.00038787	0.00010559	611.57	4.1224e-06	4.2407e-06	709.64	256.89	4.2915e-06	4.2103e-06	350.84	168.22	115.78	61.771	4.1786e-06	88.602	144.685	-29.670	49.096	-131.791	-24.628	-73.778	-133.096	-126.004	-26.062	27.148	-128.271	-124.258	-121.555	-115.056	15.190	-119.164	-8191	255	
1659.759	1	1	0	0	0.16537	0.040051	0.2722	0.098526	0.35394	0.37805	0.26349	0.33514	0.30254	0.22263	0.19248	0.2123	0.12508	0.14071	0.023404	0.21517	-2.6896	-3.3854	-2.875	-3.0417	-3.5292	-2.8354	-3.2458	-3.2167	-2.8292	-3.4917	-3.1792	-2.9771	-3.5312	-2.7292	-3.2938	-3.4792	28.757	39.754	83.973	31.208	124.143	67.503	213.220	139.807	163.896	-70.390	95.896	136.926	203.932	201.137	-53.901	197.196	0.0012969	0.00035169	7.6563e-05	634.45	1.7421e-06	5.0015e-06	741.27	265.74	5.1753e-06	8.4895e-06	367.91	175.9	119.35	63.35	6.6348e-06	92.014	0.00042565	0.00038048	0.00010256	617.04	4.2498e-06	4.1776e-06	723.27	259.35	4.3008e-06	4.23e-06	357.45	170.59	116.4	61.945	4.216e-06	89.499	143.125	-13.295	-46.352	-131.574	-28.994	-31.354	-133.272	-126.015	-22.841	-36.929	-128.801	-124.133	-121.874	-115.105	-25.655	-119.213	-8191	255	
1659.880	1	1	0	0	0.052875	0.24101	0.050791	0.17927	0.073686	0.14545	0.14219	0.12616	0.38975	0.14826	0.33775	0.28798	0.081863	0.09424	0.1443	0.075243	-2.3646	-3.3	-3.2062	-2.75	-3.4854	-3.0083	-3.2396	-3.5917	-2.5458	-3.1813	-3.4167	-3.0646	-3.5146	-3.0354	-3.0146	-3.9271	61.087	0.410	-107.446	-111.249	76.560	-50.905	92.511	118.670	104.453	-21.161	195.783	186.342	176.759	153.378	145.489	185.479	0.0012478	0.0003717	0.00023001	634.04	6.8569e-06	1.0442e-05	739.55	263.06	7.6557e-06	7.0753e-06	361.45	174.03	118.84	63.159	1.1401e-05	89.49	0.00043342	0.00038723	0.00010344	617.98	4.13e-06	4.1356e-06	719.83	258.05	4.1954e-06	4.2026e-06	350.61	169.26	115.75	61.602	4.243e-06	87.254	139.523	-46.203	-29.597	-131.743	-46.509	34.641	-133.439	-125.924	10.164	56.105	-128.591	-124.348	-121.317	-115.104	-14.868	-119.301	-8191	255	
1659.974	1	1	0	0	0.13527	0.047503	0.20451	0.24454	0.17583	0.065877	0.07912	0.041117	0.026927	0.21879	0.097899	0.12519	0.11068	0.11882	0.20227	0.22161	-2.3833	-3.1229	-2.9688	-2.8854	-3.7438	-2.8667	-2.9688	-3.4062	-3.0021	-3.0646	-3.2417	-2.8604	-3.5312	-3.0917	-2.9437	-3.6833	172.418	62.256	20.453	-89.223	-7.177	190.494	39.552	110.199	115.836	-38.071	207.368	165.118	206.458	203.618	-85.559	153.356	0.0011763	0.00060354	0.00019776	621.66	7.2646e-06	2.3694e-06	720.62	263.51	4.9548e-06	3.692e-06	361.09	173.92	118.86	63.391	1.2972e-05	91.182	0.00042184	0.00036719	0.00010087	608.06	4.1445e-06	4.0839e-06	704.32	256.61	4.1693e-06	4.1562e-06	350.43	169.2	116.02	61.905	4.2508e-06	88.634	149.382	-23.038	-19.800	-131.986	-12.117	-25.190	-133.299	-126.002	-37.852	31.390	-128.640	-124.207	-121.782	-115.172	3.396	-119.070	-8191	255	
1660.071	1	1	0	0	0.13152	0.042296	0.097963	0.09304	0.14492	0.086538	0.18233	0.12772	0.17321	0.040878	0.22052	0.34056	0.25102	0.30818	0.068925	0.14091	-2.4479	-3.1417	-3.3917	-2.9583	-3.3542	-2.9292	-3.0208	-3.6813	-2.8208	-3.1562	-3.4771	-2.9646	-3.3583	-3.4167	-2.9854	-3.6479	160.479	34.089	-114.231	47.957	-26.516	160.923	-40.947	189.668	-98.329	-135.987	215.352	212.590	184.791	122.232	59.497	-72.435	0.0013406	0.00088855	0.00017786	630.56	5.5667e-06	5.04e-06	736.24	267.46	1.1207e-05	3.491e-06	369.84	177.15	120.13	63.864	5.259e-06	92.396	0.00041848	0.00037564	0.00010357	612.39	4.0895e-06	4.014e-06	714.95	259.72	4.051e-06	4.0195e-06	356.35	171.62	117.21	62.548	4.1077e-06	89.888	146.975	-55.393	-38.543	-132.036	-0.649	-49.268	-133.335	-126.116	-60.784	-25.332	-128.552	-124.390	-121.962	-115.050	19.163	-119.144	-8191	255	
1660.191	1	1	0	0	0.30333	0.043374	0.32121	0.083006	0.063631	0.075523	0.23148	0.1418	0.19013	0.1033	0.137	0.13384	0.28894	0.10551	0.097726	0.21195	-2.5604	-2.9938	-3.3604	-2.8479	-3.3271	-3.0167	-2.7208	-3.5021	-2.85	-2.8167	-3.4417	-2.9625	-3.4437	-3.3583	-2.7438	-3.7021	106.872	-15.748	-35.424	156.615	-41.179	79.704	116.764	186.760	109.179	96.780	178.554	58.312	187.350	157.719	62.488	138.821	0.001265	0.00086575	5.6692e-05	636.77	6.3278e-06	6.4693e-06	747.52	269.94	5.8422e-06	4.1204e-06	376.22	180.24	121.42	64.539	3.8519e-06	93.457	0.00040697	0.00037263	0.00010439	615.7	4.0178e-06	4.0346e-06	730.17	262.1	3.9749e-06	4.0936e-06	363.84	174.02	118.46	62.961	4.1551e-06	90.916	143.630	-62.698	-51.434	-131.898	-52.223	-17.825	-133.218	-126.019	-9.249	24.295	-128.694	-124.267	-121.987	-115.091	2.134	-119.523	-8191	255	
1660.263	1	1	0	0	0.22256	0.23522	0.021587	0.082814	0.17104	0.11937	0.06452	0.12095	0.10012	0.16959	0.087889	0.26958	0.23862	0.041222	0.17456	0.27759	-2.7542	-2.7771	-3.4167	-3.0563	-3.1813	-3.3312	-3.1167	-3.5229	-2.95	-3.0229	-3.5208	-3.0104	-3.0271	-3.4354	-2.875	-3.5646	89.732	-97.487	24.176	145.127	184.540	88.810	156.093	-111.245	106.011	20.002	197.066	89.314	214.218	211.038	-70.923	133.229	0.0012462	0.00044961	0.00024581	623.2	1.616e-06	4.5922e-06	729.85	266.02	6.5279e-06	1.6739e-06	364.22	177.98	121.29	64.305	5.138e-06	92.766	0.00040811	0.00038008	0.00010156	606.98	4.0063e-06	4.0102e-06	709.49	258.78	3.9299e-06	4.0052e-06	353.43	171.85	117.9	62.745	4.1191e-06	89.693	145.299	-20.288	-10.541	-131.883	127.632	37.391	-133.389	-126.163	-32.275	90.026	-128.540	-124.425	-121.920	-115.315	54.456	-119.367	-8191	255	
1660.359	1	1	0	0	0.14988	0.18834	0.1731	0.11484	0.059529	0.22977	0.35908	0.10958	0.11816	0.11112	0.10707	0.037289	0.17086	0.043261	0.13944	0.21393	-2.6042	-2.75	-3.4542	-2.9125	-2.8688	-3.3271	-2.9437	-3.4521	-3.0708	-2.9708	-3.6667	-3.0438	-3.0583	-3.4979	-2.7479	-3.5771	13.304	110.547	157.032	125.252	-129.395	29.945	162.176	-33.429	-126.210	-45.116	159.920	-52.263	-42.678	157.910	134.696	132.091	0.0011796	0.00052784	0.00019733	612.53	3.4308e-06	4.2615e-06	724.68	266.63	6.2556e-06	7.8421e-06	369.24	178.83	121.06	64.629	3.5377e-06	92.644	0.00040414	0.00037425	0.00010254	598.97	3.9419e-06	3.904e-06	705.57	259.11	3.903e-06	4.0083e-06	357.82	173.12	118.44	63.09	4.021e-06	90.384	143.854	-53.462	-26.339	-131.622	-57.754	-46.069	-133.293	-125.980	-55.244	15.900	-128.366	-124.076	-121.736	-114.873	-1.215	-118.989	-8191	255	
1660.480	1	1	0	0	0.18348	0.18733	0.15438	0.23611	0.051043	0.15957	0.25321	0.087549	0.27507	0.061688	0.13087	0.11934	0.097862	0.036419	0.16257	0.24705	-2.8646	-2.9583	-3.4104	-3.0604	-2.9896	-3.4562	-3.0958	-3.1708	-3.3187	-2.8917	-3.4542	-3.2896	-2.8854	-3.4458	-2.8312	-3.3146	175.389	-17.127	133.456	93.712	-1.780	186.678	-141.868	155.533	-17.039	124.788	-137.477	116.191	-69.048	52.775	-58.565	93.127	0.001351	0.00084325	0.0001114	620.03	5.9982e-06	4.0988e-06	737.23	266.71	7.2761e-06	3.5933e-06	376.73	179.82	121.29	64.444	8.5568e-06	93.236	0.00040903	0.00037243	0.00010007	601.71	3.9798e-06	4.0021e-06	717.94	260.38	3.9582e-06	4.0148e-06	363.29	174.24	118.7	63.064	4.0045e-06	90.786	146.044	-83.018	-41.937	-131.965	-8.116	46.769	-133.147	-125.907	-55.533	-6.999	-128.531	-123.942	-121.913	-115.003	10.311	-118.889	-8191	255	
1660.576	1	1	0	0	0.11463	0.14212	0.19738	0.20313	0.075763	0.15307	0.039128	0.2123	0.16473	0.25598	0.15067	0.13028	0.11284	0.17212	0.12429	0.33048	-3.0938	-2.7021	-3.4021	-3.0521	-2.925	-3.4729	-2.9292	-3.3	-3.425	-2.7292	-3.3937	-3.3896	-2.9479	-3.5125	-2.6521	-3.1542	55.574	-2.745	134.405	176.639	172.676	70.851	129.392	-137.661	-6.966	169.815	-76.766	166.718	-97.143	193.946	-48.756	-99.667	0.0013172	0.001017	0.00024975	618.94	9.0128e-06	1.1274e-05	750.1	268.44	7.1668e-06	6.0072e-06	374.63	180.21	121.44	63.934	4.2683e-06	92.844	0.00040885	0.00036813	0.00010038	605.54	3.9817e-06	3.9531e-06	730.27	261.65	3.9518e-06	3.9913e-06	363.6	174.31	118	62.551	3.9151e-06	90.028	143.538	-35.011	-82.388	-131.286	-31.207	-10.228	-133.051	-126.050	-87.421	-12.166	-128.631	-123.980	-121.792	-115.304	33.335	-119.366	-8191	255	
1660.672	1	1	0	0	0.078476	0.10265	0.088793	0.090281	0.078156	0.19601	0.1061	0.057473	0.18217	0.1264	0.16902	0.18521	0.047662	0.13081	0.11669	0.17566	-3.0687	-2.7167	-3.3667	-3.0021	-2.8104	-3.4917	-3.0812	-3.2646	-3.3833	-2.7188	-3.325	-3.1917	-2.8354	-3.6562	-2.9604	-3.1396	-97.632	133.650	-18.889	9.501	45.508	-107.456	-37.385	-134.679	-74.189	162.274	208.242	137.318	-118.714	-90.525	-134.889	-142.544	0.0012893	0.0005686	0.00023022	615.17	1.0568e-05	3.6036e-06	723.57	261.12	7.8119e-06	6.2658e-06	360.06	174.22	118.01	62.253	9.4697e-06	90.049	0.00040762	0.00036671	0.00010157	599.45	4.1183e-06	4.1086e-06	701.12	254.5	4.0553e-06	4.1599e-06	350.27	169.55	115.35	60.9	4.1693e-06	87.741	146.670	-72.909	-23.960	-131.603	-24.379	64.027	-133.300	-126.039	-57.506	41.970	-128.431	-124.093	-121.671	-115.249	22.839	-119.309	-8191	255	
1660.768	1	1	0	0	0.42732	0.28167	0.18036	0.17062	0.15771	0.13823	0.25331	0.18144	0.3604	0.10518	0.44909	0.091419	0.26535	0.04923	0.26334	0.17799	-2.9229	-2.8125	-3.2583	-3.3104	-2.9	-3.6667	-3.025	-3.1625	-3.4854	-2.7792	-3.4	-3.4271	-2.9792	-3.3958	-3.0917	-3.0146	76.139	43.636	112.477	-140.238	-109.401	114.445	133.487	83.214	-93.468	-37.179	87.594	126.230	-140.552	126.190	211.008	204.040	0.0011352	0.00048135	0.00010452	614.56	3.0718e-06	3.4359e-06	717.92	261.23	4.495e-06	3.2797e-06	359.33	173.2	116.86	61.495	1.0702e-05	89.281	0.0004266	0.00039215	0.00010866	599.31	4.3884e-06	4.2379e-06	700.95	254.45	4.2805e-06	4.2302e-06	349.75	168.8	114.44	60.241	4.1526e-06	87.422	142.046	-117.508	-45.513	-131.725	-11.575	17.878	-133.292	-125.970	-13.422	-22.037	-128.732	-124.186	-121.459	-115.190	-12.017	-119.205	-8191	255	
1660.840	1	1	0	0	0.097139	0.2034	0.15243	0.23917	0.16938	0.18951	0.20252	0.30435	0.15511	0.085689	0.15181	0.071843	0.13387	0.1416	0.19222	0.1815	-3.2604	-2.7292	-3.0833	-3.7396	-2.8208	-3.3688	-3.0604	-2.9417	-3.5208	-3.0042	-2.9792	-3.5042	-2.9146	-3.5312	-3.1979	-3.0625	-0.046	155.578	167.589	146.608	174.637	-103.044	169.196	182.761	78.593	21.475	-109.930	-119.011	34.720	174.651	71.582	201.875	0.0012019	0.00083324	0.00021188	617.24	1.6716e-06	6.8396e-06	722.24	259.66	2.2116e-06	5.1573e-06	360.31	174.57	116.63	61.727	9.0184e-06	90.186	0.00042183	0.00038196	0.00010679	604.23	4.1493e-06	4.127e-06	706.24	253.95	4.1206e-06	4.1213e-06	350.93	169.27	114.38	60.379	4.169e-06	87.988	147.664	-84.474	-66.188	-131.859	-22.953	11.416	-133.111	-126.074	-19.398	-4.757	-128.779	-124.066	-121.672	-115.131	-22.456	-119.309	-8191	255	
1660.959	1	1	0	0	0.10863	0.072596	0.12314	0.24816	0.09991	0.15902	0.27241	0.16998	0.13747	0.13798	0.1977	0.33098	0.097245	0.19433	0.11668	0.18529	-3.2958	-2.8625	-2.9625	-3.3187	-2.6271	-3.5687	-3.4021	-2.9313	-3.4521	-3.0021	-3.1479	-3.6417	-3.075	-3.4625	-3.0354	-2.9313	213.118	142.337	-43.279	142.351	148.117	44.511	162.602	-127.036	191.690	22.390	178.601	185.695	-34.500	164.766	173.829	139.007	0.0012716	0.00062578	0.00014022	619.79	6.9902e-06	8.924e-06	716.74	259.71	7.6082e-06	4.4247e-06	359.59	173.71	117.49	61.277	5.667e-06	86.438	0.0004213	0.0003739	0.00010727	605.68	4.1999e-06	4.1682e-06	701.35	253.67	4.1146e-06	4.0571e-06	349.07	168.3	114.46	59.983	4.2006e-06	84.675	141.486	-53.231	-1.329	-132.023	-37.596	27.859	-133.244	-126.209	-0.021	-4.451	-128.814	-124.129	-121.749	-115.316	15.069	-119.360	-8191	255	
1661.055	1	1	0	0	0.14815	0.28473	0.1248	0.17538	0.072058	0.059815	0.19099	0.31182	0.19936	0.32231	0.40079	0.25993	0.22925	0.095928	0.18845	0.069494	-3.2021	-3.2833	-2.9271	-3.4854	-2.9271	-3.3021	-3.3271	-2.8208	-3.2667	-2.9688	-3.0479	-3.4729	-2.7958	-3.2708	-3.3875	-2.9958	-142.720	93.443	0.048	201.240	172.457	157.077	172.662	197.436	17.126	-1.231	-133.749	-142.559	179.832	-66.537	17.609	-81.131	0.0012116	0.00068281	0.00021041	605.14	7.5892e-06	8.9856e-06	704.72	258.18	6.911e-06	4.3354e-06	354.14	173.33	117.18	61.222	5.265e-06	87.124	0.00041966	0.00037413	0.00010647	593.1	4.0082e-06	4.1062e-06	685.91	252.11	4.1058e-06	4.0647e-06	345.14	167.99	114.57	59.994	4.0834e-06	85.079	142.306	-62.241	-53.747	-131.722	-28.411	9.977	-132.958	-126.343	-9.003	49.385	-128.809	-124.002	-121.315	-115.230	-19.324	-119.234	-8191	255	
1661.151	1	1	0	0	0.034646	0.17786	0.24561	0.1332	0.15189	0.046505	0.21508	0.14814	0.19412	0.10078	0.19563	0.11633	0.25565	0.25693	0.14998	0.33195	-3.1979	-2.8875	-3.0083	-3.3667	-2.7667	-3.0875	-3.3792	-2.9229	-3.3625	-3.05	-2.8812	-3.6625	-2.8917	-3.1875	-3.4021	-2.7729	165.703	120.239	-121.967	144.532	87.879	183.969	157.218	53.264	109.592	-73.516	197.773	-65.443	131.384	-134.206	70.467	-141.603	0.0011027	0.00056421	0.00010232	610.31	4.2202e-06	4.784e-06	708.32	259.64	1.015e-05	5.9627e-06	358.16	174.78	117.9	62.221	5.6857e-06	90.237	0.00040993	0.00037911	0.00010699	595.05	4.0712e-06	4.1424e-06	692.18	253.64	4.0059e-06	4.1724e-06	349.15	169.9	115.51	60.929	4.119e-06	87.591	143.133	-74.683	-38.098	-131.699	-0.379	2.227	-132.776	-126.166	-35.185	25.564	-128.591	-123.925	-121.821	-115.256	151.940	-119.171	-8191	255	
1661.272	1	1	0	0	0.15084	0.12845	0.10187	0.30674	0.15696	0.074951	0.096314	0.050405	0.13751	0.20805	0.10926	0.28741	0.15882	0.092483	0.18216	0.11445	-2.9833	-3.3042	-2.8354	-3.3833	-2.8979	-3.2333	-3.6646	-2.6917	-3.3792	-3.4521	-3.0062	-3.4813	-3.1437	-3.0458	-3.3063	-2.95	-18.129	14.880	214.145	-140.210	127.074	58.635	72.812	-86.515	-10.739	49.411	-53.662	-143.376	164.185	145.815	179.591	-101.957	0.0011747	0.00081389	0.0001389	614.84	7.1631e-06	7.7165e-06	721.83	262.08	2.5952e-06	5.1363e-07	365.82	177.18	119.18	62.639	6.4113e-06	90.973	0.00041424	0.0003631	0.00010563	599.68	4.0062e-06	4.1196e-06	703.88	256.26	4.0797e-06	3.9723e-06	354.14	171.58	116.45	61.448	4.0882e-06	88.724	147.262	-31.582	-27.237	-131.824	-36.543	5.253	-132.988	-126.319	-56.602	-73.577	-128.623	-124.473	-122.034	-115.534	-11.989	-119.113	-8191	255	
1661.368	1	1	0	0	0.2748	0.060207	0.18968	0.20554	0.27969	0.12878	0.31456	0.24573	0.13103	0.06992	0.3179	0.27317	0.15888	0.20895	0.13854	0.049526	-2.9167	-3.2854	-2.55	-3.4938	-3.2167	-2.9729	-3.6188	-3.0062	-3.1042	-3.3292	-2.725	-3.5292	-3.2917	-3.0438	-3.3729	-2.9167	-48.089	-23.927	70.706	-98.729	104.374	-57.456	162.666	144.879	56.036	-75.703	199.079	200.429	-68.318	-131.818	-121.668	151.564	0.0012744	0.00035943	0.00013329	616.31	1.3583e-05	2.5483e-06	714.39	260.1	3.4141e-06	5.482e-06	357.74	173.17	117.65	61.211	9.3598e-06	83.765	0.00040783	0.00035985	0.00010385	602.95	3.9164e-06	4.0227e-06	695.33	254.36	3.9526e-06	3.9354e-06	347.07	168.05	114.99	59.854	3.8842e-06	81.614	144.205	-26.052	-59.263	-131.801	-36.106	50.952	-133.460	-125.905	-41.798	13.105	-128.682	-124.263	-121.924	-115.644	-9.554	-119.243	-8191	255	
1661.464	1	1	0	0	0.087536	0.22768	0.04043	0.26472	0.23457	0.03562	0.10185	0.10218	0.12894	0.20296	0.30846	0.1806	0.26672	0.19254	0.16257	0.21154	-2.7229	-3.3625	-2.7313	-3.4646	-3.1771	-2.8625	-3.525	-3.2188	-3.0438	-3.5	-2.8312	-3.525	-3.4771	-2.8167	-3.6542	-3.1229	2.121	137.260	-112.258	149.611	-29.802	-139.662	54.368	-25.284	-120.959	181.771	99.419	-130.386	199.831	-140.225	130.203	154.677	0.0010996	0.00097124	0.00017516	623.15	4.0519e-06	1.1109e-05	712.23	261.75	8.384e-06	5.0912e-06	358.22	173.74	117.87	61.276	3.3994e-06	84.975	0.00038929	0.00034121	9.7061e-05	605.38	3.7213e-06	3.8646e-06	694.02	255.1	3.8722e-06	3.7707e-06	346.1	167.69	115.08	59.861	3.7621e-06	82.816	150.688	-4.942	-17.427	-132.087	32.197	46.338	-133.445	-126.156	-21.528	-47.536	-128.888	-124.128	-121.413	-115.494	38.699	-119.516	-8191	255	
1661.560	1	1	0	0	0.011044	0.032029	0.12759	0.19424	0.25019	0.31756	0.24222	0.44242	0.20945	0.24477	0.15452	0.16586	0.20654	0.03327	0.25573	0.18027	-2.5917	-3.4708	-2.9271	-3.0979	-3.1792	-2.8771	-3.5687	-3.2562	-3.125	-3.2667	-2.9021	-3.3354	-3.1771	-2.8688	-3.3146	-3.3	40.113	213.331	-123.781	197.745	-21.259	-93.810	67.074	161.376	-72.954	98.222	145.899	115.278	-137.076	-96.524	29.315	101.793	0.0011332	0.00045479	0.00017831	628.43	7.0485e-06	6.6425e-06	723.33	263.21	4.6206e-06	2.6371e-06	358.05	173.01	118.74	62.176	5.2661e-06	88.14	0.00038942	0.00034048	9.482e-05	611.87	3.6789e-06	3.7353e-06	703.54	256.18	3.8117e-06	3.7255e-06	347.83	167.7	115.14	60.513	3.6316e-06	85.861	139.069	-45.175	-30.989	-131.746	-83.301	18.060	-133.313	-126.171	9.489	47.811	-128.870	-124.439	-121.663	-115.507	40.145	-119.376	-8191	255	
1661.656	1	1	0	0	0.16689	0.24819	0.14415	0.3293	0.030939	0.045863	0.074196	0.20454	0.12837	0.082111	0.049775	0.18521	0.070877	0.28259	0.058027	0.080787	-2.5125	-3.3083	-2.7958	-3.3292	-3.2833	-2.9042	-3.6354	-3.2396	-2.9042	-3.6417	-3.0396	-3.2104	-3.5583	-2.7417	-3.3625	-3.4146	-2.504	-114.560	140.139	172.729	31.162	-66.213	10.503	22.821	146.345	-21.834	-24.654	84.770	142.000	-102.146	84.019	195.644	0.0012287	0.00055787	0.00012072	644.52	5.8385e-06	6.7861e-06	741.63	265.18	4.2703e-06	1.9946e-06	360.74	173.22	118.32	61.913	7.8728e-06	87.442	0.00038226	0.00033234	9.1409e-05	624.36	3.5879e-06	3.6476e-06	719.1	257.24	3.6871e-06	3.5681e-06	348.84	167.52	114.51	60.169	3.4993e-06	84.646	145.617	-36.893	-64.488	-132.227	4.234	-2.316	-133.583	-125.968	-22.798	-25.030	-128.969	-124.506	-122.012	-115.628	-4.615	-119.295	-8191	255	
1661.752	1	1	0	0	0.15333	0.11623	0.054595	0.11209	0.059645	0.086584	0.16607	0.33139	0.14757	0.14936	0.11608	0.24298	0.2787	0.20547	0.22916	0.17141	-2.3979	-3.3167	-3.0458	-3.1688	-3.2896	-2.9375	-3.3896	-3.2812	-2.725	-3.4396	-3.1771	-3.1104	-3.5833	-3.0458	-3.1479	-3.3354	-68.716	25.860	16.890	-112.734	135.773	-1.784	181.985	177.632	22.271	165.592	-129.234	117.209	-39.945	-132.313	-56.626	175.386	0.0011177	0.0004206	0.0001769	639.61	6.5913e-06	3.7312e-06	721.94	261.28	1.5087e-06	7.0522e-06	354.26	170.88	116.3	60.691	7.6931e-06	83.89	0.00037244	0.00031903	8.7987e-05	620.51	3.4609e-06	3.4405e-06	702.91	254.54	3.5377e-06	3.4145e-06	342.43	164.92	113.36	59.08	3.4723e-06	81.442	140.046	-11.303	-19.118	-132.391	-33.331	58.854	-133.543	-126.136	-24.322	41.512	-128.849	-124.453	-121.824	-115.450	-69.005	-119.327	-8191	255	
1661.873	1	1	0	0	0.033737	0.045919	0.15493	0.22082	0.10253	0.085957	0.16697	0.12024	0.20935	0.17173	0.16943	0.20633	0.13109	0.14493	0.21613	0.29566	-2.3354	-3.425	-2.925	-2.9604	-3.5646	-2.8542	-3.2521	-3.3521	-2.7896	-3.4646	-3.2271	-3.0729	-3.4042	-3.0417	-3.2208	-3.4875	44.191	54.330	-62.805	212.634	25.292	-129.147	208.137	204.566	39.416	2.297	200.053	202.011	140.275	-110.682	-64.143	168.001	0.0011624	0.00033761	0.00020848	640.08	8.9434e-06	1.0104e-05	726.9	261.57	4.198e-06	5.7433e-06	355.11	170.86	116.51	60.964	6.3662e-06	86.581	0.0003566	0.00031041	8.683e-05	623.04	3.3515e-06	3.3463e-06	707.31	254.74	3.4169e-06	3.3699e-06	343.96	165.28	113.48	59.501	3.494e-06	84.023	142.247	-48.753	-19.034	-131.860	-14.755	-29.292	-133.660	-126.004	14.829	13.026	-128.888	-124.588	-121.997	-115.706	1.960	-119.404	-8191	255	
1661.967	1	1	0	0	0.22082	0.045331	0.32841	0.21636	0.14041	0.16352	0.30346	0.5122	0.14739	0.099976	0.11361	0.18309	0.16408	0.31603	0.10128	0.059132	-2.3583	-3.4083	-3.1375	-2.8937	-3.6292	-2.8729	-3.1063	-3.3125	-2.9437	-3.5583	-3.1771	-3.0667	-3.5563	-2.9562	-3.0687	-3.5812	141.259	36.140	19.994	98.341	-26.690	9.905	-134.076	170.688	90.730	-139.712	122.635	206.717	130.806	149.465	10.172	173.522	0.0011424	0.00040201	0.00013308	643.9	4.5668e-06	2.8562e-06	737.54	263.71	6.2517e-06	3.0687e-06	358.11	172.38	116.42	61.546	2.2628e-06	88.91	0.00035656	0.00030215	8.4322e-05	627.31	3.2941e-06	3.3136e-06	715.84	255.4	3.325e-06	3.4735e-06	346.76	166.35	113.26	59.928	3.4372e-06	86.199	149.081	3.189	-74.145	-132.068	0.048	50.262	-133.496	-126.661	-29.587	54.856	-128.609	-124.413	-122.033	-115.624	27.585	-119.546	-8191	255	
1662.063	1	1	0	0	0.038528	0.1195	0.10046	0.047536	0.28813	0.13178	0.24161	0.081359	0.12202	0.20793	0.22879	0.20075	0.17022	0.23444	0.078536	0.09307	-2.275	-3.125	-3.25	-2.9292	-3.525	-2.9271	-3.1604	-3.3479	-2.7438	-3.4208	-3.2625	-2.6917	-3.4833	-3.15	-2.7812	-3.5354	109.333	76.865	-64.980	143.221	22.787	123.589	63.052	-133.808	-103.109	81.402	140.701	180.723	211.402	107.400	97.802	-103.513	0.0011404	0.00069058	0.00018124	649.86	4.2461e-06	4.9536e-06	740.08	261.94	1.6258e-06	8.0245e-06	353.25	169.99	116.54	60.486	6.5202e-06	83.738	0.00035011	0.0003094	8.3077e-05	630.15	3.2593e-06	3.2538e-06	717.49	254.52	3.3545e-06	3.3285e-06	342.92	164.32	112.95	59.057	3.4229e-06	81.37	150.927	-39.585	-58.867	-132.290	-23.969	28.468	-133.683	-125.970	61.687	-13.579	-128.926	-124.614	-122.181	-115.484	6.461	-119.411	-8191	255	
1662.135	1	1	0	0	0.047638	0.024945	0.057938	0.11988	0.287	0.17398	0.23168	0.17755	0.088381	0.092682	0.14533	0.13863	0.25361	0.084705	0.19648	0.084849	-2.5125	-2.9813	-3.2479	-2.8333	-3.4521	-3.1917	-3.1542	-3.5292	-2.825	-3.2021	-3.4792	-2.7188	-3.5312	-3.45	-2.7208	-3.7292	-126.693	26.970	50.839	18.106	-15.398	124.006	-140.641	167.285	169.299	-27.451	132.657	125.415	170.505	214.425	157.003	120.371	0.0011892	0.00042547	0.00016283	634.43	7.2082e-06	4.8785e-06	724.7	261.88	4.5167e-06	4.06e-06	355.79	171.03	117.18	61.424	9.935e-06	86.146	0.00034283	0.0003085	8.6202e-05	619.48	3.3194e-06	3.2856e-06	705.19	253.98	3.3764e-06	3.4576e-06	343.73	165.91	113.99	59.909	3.5505e-06	83.595	144.319	-19.155	-55.963	-132.210	-14.275	21.867	-133.814	-126.449	-74.561	29.082	-128.710	-124.522	-122.053	-115.324	17.836	-119.129	-8191	255	
1662.256	1	1	0	0	0.11494	0.023948	0.20061	0.16868	0.21474	0.048273	0.20801	0.12962	0.044369	0.24577	0.20938	0.13696	0.38927	0.20203	0.11175	0.14333	-2.4979	-2.9479	-3.3542	-2.9083	-3.2354	-3.1583	-3.0812	-3.4833	-3.0417	-2.95	-3.6917	-2.8417	-3.3458	-3.3542	-2.8354	-3.5458	126.624	194.450	206.221	205.986	133.492	-29.940	82.380	142.639	173.335	157.421	-38.787	-122.967	187.552	171.166	212.785	57.038	0.0011883	0.00058437	0.00020496	633.52	9.8745e-06	6.3289e-06	731.2	265.58	7.6805e-06	3.2633e-06	361	175.4	119.11	63.245	5.1927e-06	91.241	0.00034916	0.0003262	8.8045e-05	616.81	3.4743e-06	3.3928e-06	711.91	257.07	3.456e-06	3.5244e-06	350.23	169.53	115.76	61.318	3.63e-06	88.196	147.833	-45.927	-62.746	-131.992	-37.747	19.392	-133.628	-126.679	-55.521	3.654	-128.815	-124.410	-122.108	-115.503	19.517	-119.647	-8191	255	
1662.352	1	1	0	0	0.13799	0.078944	0.09069	0.18751	0.10102	0.21902	0.097674	0.33975	0.30796	0.19063	0.22621	0.13827	0.20824	0.18606	0.153	0.087462	-2.5979	-2.9375	-3.5146	-3.0083	-3.0062	-3.2938	-2.9333	-3.4604	-3	-2.9792	-3.4458	-3.1042	-3.3187	-3.45	-2.7042	-3.4313	-75.008	-61.388	115.917	205.954	211.439	188.666	68.907	207.212	43.504	200.551	7.741	189.330	-114.880	174.924	10.851	104.331	0.0012904	0.00054877	0.00025737	629.84	4.666e-06	7.3947e-06	746.06	265.96	3.4649e-06	3.0444e-06	368.3	177.34	120.07	63.851	8.236e-06	92.517	0.00036365	0.0003264	8.8885e-05	615.78	3.5666e-06	3.5087e-06	720.86	258.85	3.4782e-06	3.5708e-06	356.1	171.64	116.81	62.295	3.5187e-06	89.713	146.772	-43.732	-68.263	-132.114	-16.021	7.695	-133.734	-126.460	-72.416	11.948	-128.701	-124.578	-122.098	-115.539	-1.509	-119.856	-8191	255	
1662.448	1	1	0	0	0.10458	0.23493	0.10956	0.29733	0.03371	0.1137	0.20852	0.18224	0.17414	0.1247	0.18246	0.15257	0.14535	0.28055	0.19864	0.19395	-2.6875	-3.0875	-3.4458	-2.9771	-3.1917	-3.3563	-2.7917	-3.6667	-3.2479	-2.7833	-3.4083	-3.1063	-3.1917	-3.5229	-2.5958	-3.3042	-93.778	195.755	206.877	115.084	191.020	124.222	109.025	129.306	87.908	51.309	92.287	126.330	180.850	151.633	188.295	-142.665	0.0012816	0.00065898	7.0601e-05	630.84	3.0338e-06	7.0899e-06	731.7	264.37	7.6268e-06	3.178e-06	361.18	176.68	120.71	63.08	8.9874e-06	89.441	0.00035984	0.00032446	8.7739e-05	613.05	3.5325e-06	3.4236e-06	707.14	257.67	3.3639e-06	3.5623e-06	349.57	170.14	116.76	61.522	3.5241e-06	86.378	145.080	-66.488	8.517	-132.073	-58.263	-28.921	-133.701	-126.563	-20.834	62.851	-129.166	-124.189	-122.198	-115.551	19.336	-119.442	-8191	255	
1662.544	1	1	0	0	0.096948	0.10849	0.043412	0.097986	0.034678	0.18419	0.31212	0.14622	0.22751	0.18536	0.14898	0.28942	0.28133	0.29551	0.01932	0.10533	-2.7438	-2.8063	-3.3667	-2.9062	-3.0938	-3.6667	-2.9292	-3.2104	-3.1813	-2.8104	-3.5	-2.9771	-2.7458	-3.6521	-2.7833	-3.4354	-106.368	-30.137	87.524	-126.295	123.715	116.513	135.514	-41.876	16.932	-1.883	-5.006	205.147	186.153	163.594	-24.566	150.602	0.0011363	0.000848	4.4736e-05	620.76	9.979e-06	4.1686e-06	720.78	264.84	6.8146e-06	2.6407e-06	364.05	177.92	121.28	64.157	5.3778e-06	92.378	0.000367	0.00032555	8.705e-05	605.84	3.6626e-06	3.5144e-06	702.32	257.82	3.5995e-06	3.7085e-06	353.06	172.43	117.91	62.639	3.6307e-06	89.955	144.254	-40.334	2.601	-131.656	-23.738	-13.452	-133.410	-126.420	-14.480	16.379	-128.846	-124.287	-122.282	-115.199	-7.792	-119.382	-8191	255	
1662.665	1	1	0	0	0.11831	0.054989	0.15395	0.15851	0.12002	0.23837	0.14341	0.32126	0.12741	0.38068	0.048372	0.099109	0.24755	0.13023	0.19726	0.14691	-2.9854	-2.5771	-3.0938	-3.2125	-2.9625	-3.4437	-2.8583	-3.3604	-3.2958	-3.0167	-3.4604	-3.1292	-2.85	-3.6042	-2.8854	-3.1875	-4.233	33.049	101.547	84.609	83.024	117.146	-51.068	165.467	92.669	53.711	38.665	-144.341	109.951	140.293	158.347	148.382	0.0013834	0.00065829	9.8162e-05	625.2	2.4404e-06	6.1644e-06	728.41	268.27	5.7449e-06	3.1792e-06	369.49	179.79	122.02	64.881	7.398e-06	94.64	0.00038334	0.00034166	9.2092e-05	606.32	3.7322e-06	3.6643e-06	709.78	260.85	3.6907e-06	3.6899e-06	358.02	174.5	118.99	63.398	3.7196e-06	91.954	146.968	-56.445	-70.736	-131.982	-28.846	3.977	-133.942	-126.459	-53.866	42.163	-128.802	-124.321	-121.987	-115.325	-7.115	-119.576	-8191	255	
1662.736	1	1	0	0	0.064421	0.15944	0.33731	0.17767	0.22724	0.39181	0.069923	0.25053	0.25879	0.10025	0.31959	0.24778	0.070573	0.33893	0.10772	0.043368	-2.9375	-2.7708	-3.4188	-3.2208	-2.725	-3.3063	-3.0646	-3.3042	-3.45	-2.7854	-3.3583	-3.2396	-2.8167	-3.5896	-2.9333	-2.9729	134.310	31.814	161.253	166.437	-113.154	136.028	101.391	-127.360	55.090	20.985	-82.875	-117.423	8.165	162.386	126.702	9.840	0.0013204	0.00082788	0.00020028	631.1	1.9387e-06	6.644e-06	744.65	268.23	4.8834e-06	7.9957e-06	371.26	179.34	121.25	64.334	6.5278e-06	91.315	0.00038258	0.00033142	9.3084e-05	614.16	3.6999e-06	3.5567e-06	724.34	262.32	3.6172e-06	3.6058e-06	358.89	174.21	118.47	62.861	3.6291e-06	88.86	139.967	-48.138	-44.828	-131.816	-5.391	-4.121	-133.212	-126.295	-21.301	-23.527	-128.643	-124.096	-121.943	-115.260	36.444	-119.490	-8191	255	
1662.833	1	1	0	0	0.18391	0.14255	0.068589	0.30442	0.23261	0.058202	0.18898	0.073461	0.21003	0.12106	0.29777	0.19473	0.088013	0.11203	0.031111	0.16008	-3.1854	-2.7208	-3.2083	-3.3375	-2.7708	-3.5271	-3.1875	-3.0563	-3.2979	-2.9	-3.3771	-3.4688	-2.7167	-3.5333	-3.0771	-3.1	-39.012	-126.768	-100.517	180.669	177.526	-77.429	98.320	-99.036	53.098	-88.639	-118.089	191.368	83.073	121.818	-11.491	115.024	0.0012226	0.00049758	0.00027122	629.82	2.0675e-06	2.8514e-06	723.32	265.22	7.1698e-06	1.023e-06	362.85	177.22	120.42	63.724	6.352e-06	90.022	0.0003761	0.00032795	9.2883e-05	610.39	3.6254e-06	3.5996e-06	704.93	259.36	3.6032e-06	3.6285e-06	353.06	172.5	117.74	62.323	3.6363e-06	87.995	147.860	-50.865	-36.224	-131.568	-49.179	-21.979	-133.063	-126.269	-43.823	-57.740	-128.430	-124.342	-121.547	-115.043	-52.177	-119.280	-8191	255	
1662.952	1	1	0	0	0.24369	0.096775	0.29533	0.14304	0.080992	0.041081	0.24629	0.066231	0.11861	0.21596	0.2313	0.15915	0.18016	0.20241	0.076207	0.20938	-3.1646	-2.8208	-3.0958	-3.4583	-2.8937	-3.5979	-3.4333	-2.9958	-3.3708	-2.8917	-3.1771	-3.5229	-2.7062	-3.5667	-2.9437	-3.075	53.262	123.769	176.467	99.647	20.309	-66.106	35.115	130.283	120.846	-62.825	215.089	-138.305	-142.862	-126.875	-33.192	158.444	0.0012905	0.00097903	9.4592e-05	629.85	3.538e-06	5.5991e-06	731.07	265.5	1.2195e-06	4.3345e-06	364.25	178.07	120.92	64.314	6.6712e-06	92.768	0.00036981	0.00032657	9.25e-05	612.72	3.5904e-06	3.6475e-06	711.8	259.31	3.5796e-06	3.5178e-06	355.15	172.9	117.79	62.761	3.6502e-06	90.47	144.836	-54.959	-80.600	-131.577	-6.694	7.125	-133.401	-126.075	-114.852	-19.026	-128.538	-123.895	-121.621	-115.220	-7.243	-119.494	-8191	255	
1663.048	1	1	0	0	0.13281	0.16052	0.049242	0.2165	0.15192	0.16898	0.19447	0.052012	0.086512	0.10643	0.089042	0.25409	0.19213	0.16933	0.055106	0.15153	-3.2708	-2.9396	-3.0792	-3.4396	-2.975	-3.1063	-3.3312	-3.0354	-3.4771	-2.8812	-2.9146	-3.4437	-2.9854	-3.4708	-3.3187	-2.9938	12.045	84.925	-72.124	121.093	68.948	-63.994	74.693	170.431	68.714	-102.490	98.795	-92.007	179.212	132.954	52.804	144.334	0.0013173	0.00051995	0.00023925	634.37	5.2831e-06	6.8699e-06	744.97	266.65	3.3075e-06	4.9455e-06	371.04	179.62	121.1	63.873	5.696e-06	93.895	0.00036959	0.00032874	9.3894e-05	618.69	3.5558e-06	3.6522e-06	725.55	260.51	3.5929e-06	3.5872e-06	360.22	174.24	117.75	62.787	3.6266e-06	91.598	145.761	-28.332	-32.332	-131.703	4.241	13.841	-132.737	-126.205	-13.363	-0.376	-128.767	-124.057	-122.293	-114.889	27.928	-119.399	-8191	255	
1663.144	1	1	0	0	0.24381	0.055137	0.021373	0.30913	0.27215	0.18627	0.29719	0.2541	0.18106	0.14796	0.14133	0.25752	0.087662	0.077995	0.044898	0.25073	-3.0875	-3.1063	-3.0771	-3.4813	-2.7875	-3.2167	-3.5229	-2.8375	-3.3438	-3.0083	-2.9083	-3.4271	-3.1312	-3.2188	-3.3333	-2.8438	3.266	-106.764	99.594	-75.598	-141.314	95.408	167.493	128.513	77.760	114.642	44.943	-136.144	51.727	-92.566	-37.305	146.573	0.0012475	0.00069618	0.00016966	641.38	6.2329e-06	6.8505e-06	739.72	265.93	2.2193e-06	5.4556e-06	366.13	177.03	119.46	63.166	6.23e-06	89.958	0.00038181	0.00032531	9.3001e-05	621.77	3.5087e-06	3.5967e-06	719.32	258.43	3.5871e-06	3.4543e-06	353.87	171.73	116.37	61.688	3.5111e-06	87.46	143.854	-41.778	-26.156	-132.119	-21.181	-65.420	-133.229	-126.451	-20.823	66.174	-128.535	-124.353	-121.990	-115.519	-71.759	-119.079	-8191	255	
1663.240	1	1	0	0	0.20675	0.10327	0.25178	0.23415	0.13895	0.099292	0.17202	0.3153	0.19228	0.099181	0.025017	0.24311	0.069842	0.21245	0.033603	0.1961	-3.0667	-3.3083	-2.8479	-3.3688	-2.8354	-3.2479	-3.4604	-2.7687	-3.3792	-3.275	-2.8979	-3.6875	-2.7687	-3.075	-3.4792	-3.0083	62.257	151.846	-2.880	95.104	-115.856	-33.847	-119.506	92.470	24.320	17.539	-135.728	-61.952	165.422	-130.925	-86.206	115.523	0.0012092	0.0004903	6.8128e-05	635.34	9.8566e-06	3.3014e-06	733.31	264.23	4.9833e-06	3.7863e-06	362.18	177.74	118.85	63.068	5.5101e-06	91.068	0.00036692	0.00031353	9.0181e-05	616.91	3.4599e-06	3.4706e-06	714.87	257.9	3.4975e-06	3.3138e-06	353.07	171.96	116.33	61.744	3.4454e-06	88.673	141.180	-42.122	-29.999	-131.694	-17.678	-22.608	-133.085	-125.893	-23.514	-51.104	-128.784	-123.874	-121.606	-115.457	-7.483	-119.173	-8191	255	
1663.361	1	1	0	0	0.11278	0.20778	0.21699	0.17155	0.069669	0.21164	0.089001	0.1906	0.11901	0.1141	0.10451	0.22946	0.17027	0.17069	0.097065	0.25746	-3.1729	-3.1312	-2.9042	-3.6708	-2.8292	-3.0042	-3.6792	-2.8792	-3.2875	-3.1875	-2.7875	-3.4896	-2.9583	-3.2125	-3.3375	-2.8646	42.417	-66.824	-97.544	197.999	-73.588	-137.053	68.764	-101.629	29.468	-44.483	144.853	162.876	-115.643	210.526	150.480	-107.889	0.0012493	0.00084713	3.3384e-05	638.24	7.2531e-06	8.316e-06	742.17	266	4.4622e-06	3.0961e-06	366.49	178.52	119.84	63.841	4.7964e-06	92.992	0.00036932	0.00031387	8.9716e-05	620.24	3.4e-06	3.6211e-06	721.42	258.8	3.595e-06	3.4338e-06	355.99	173.11	117	62.354	3.493e-06	90.592	143.434	-68.671	54.632	-131.894	-72.000	4.995	-133.513	-126.407	-53.195	-21.009	-128.769	-124.327	-121.830	-115.565	-15.119	-119.474	-8191	255	
1663.432	1	1	0	0	0.15284	0.10474	0.14156	0.13327	0.38888	0.31844	0.085152	0.23521	0.078617	0.16439	0.10532	0.27199	0.17738	0.051231	0.19216	0.2035	-2.9729	-3.3438	-2.8021	-3.5208	-3	-2.9875	-3.6083	-2.9604	-3.1417	-3.5104	-2.6896	-3.5271	-3.2333	-2.8083	-3.4146	-3.1083	197.552	160.357	82.772	210.677	211.319	116.676	134.914	-106.356	-14.913	-69.541	-33.280	191.527	164.225	186.768	182.291	168.099	0.0013123	0.00068274	0.00014053	640.67	3.6479e-06	4.7554e-06	748.94	266.84	8.9012e-06	8.1421e-06	371.09	179.41	120.44	63.905	3.4648e-06	92.84	0.00037738	0.00031071	9.1042e-05	623.05	3.4833e-06	3.5515e-06	732.95	260.65	3.567e-06	3.4287e-06	360.57	174.28	117.64	62.646	3.5003e-06	90.582	146.912	-58.268	-19.107	-131.532	-91.823	-5.058	-133.060	-125.948	-11.144	31.953	-128.645	-124.250	-121.549	-115.031	24.316	-119.116	-8191	255	
1663.553	1	1	0	0	0.274	0.18658	0.13856	0.22246	0.17718	0.33085	0.13636	0.19216	0.30458	0.15016	0.18578	0.048834	0.1835	0.17208	0.33036	0.22782	-2.6604	-3.3625	-2.8708	-3.6208	-3.0583	-2.925	-3.7021	-3.0062	-3.0438	-3.5604	-2.8667	-3.4	-3.4167	-2.8458	-3.3646	-3.2417	-19.810	-60.453	-71.854	-99.750	-21.882	-121.709	152.861	201.956	-99.445	159.453	-126.690	91.746	-128.095	170.949	163.936	207.506	0.0011784	0.00045899	0.00015764	637.31	4.3636e-06	6.7293e-06	736.44	263.24	5.4684e-06	5.8028e-06	361.23	176.17	118.21	62.624	7.4942e-06	89.777	0.0003715	0.00031589	8.8114e-05	620.35	3.4455e-06	3.514e-06	718.15	257.24	3.6136e-06	3.4064e-06	352.46	171.59	116.03	61.55	3.465e-06	87.884	140.893	-80.998	-86.672	-131.536	-44.573	19.149	-132.909	-125.981	-10.364	-23.512	-128.540	-123.937	-121.422	-115.242	-14.385	-119.065	-8191	255	
1663.649	1	1	0	0	0.26994	0.21602	0.071285	0.15928	0.15009	0.055689	0.18255	0.20292	0.17036	0.12029	0.04902	0.21591	0.21747	0.096977	0.09236	0.22853	-2.4542	-3.1437	-2.8083	-3.2792	-3.2521	-2.9583	-3.5375	-3.275	-2.9688	-3.3917	-3.1021	-3.3125	-3.5812	-2.8604	-3.2562	-3.3542	133.939	-52.156	80.305	-63.617	34.703	-47.727	134.913	181.677	110.495	-63.327	-113.329	155.564	131.924	-41.125	5.270	192.889	0.0012385	0.00073016	0.0001403	637.9	5.5303e-06	7.9904e-06	747.23	266.52	7.0056e-06	7.3737e-06	367.08	176.16	119.32	63.617	2.05e-06	93.809	0.00036718	0.00030408	8.7674e-05	625.42	3.3771e-06	3.4665e-06	731.45	260.28	3.4723e-06	3.3921e-06	357.99	172.48	116.78	62.24	3.472e-06	91.41	144.016	-30.715	-44.797	-131.419	-20.624	-0.459	-132.709	-125.727	-36.882	7.692	-128.191	-124.079	-121.846	-115.056	65.137	-118.954	-8191	255	
1663.745	1	1	0	0	0.029157	0.058109	0.17128	0.21044	0.072794	0.11594	0.27759	0.18859	0.13564	0.13442	0.26001	0.096871	0.31467	0.20251	0.044954	0.28301	-2.3583	-3.4021	-2.9042	-3.1333	-3.4396	-2.7542	-3.3354	-3.3396	-2.7458	-3.4083	-2.95	-3.1979	-3.5229	-3.0062	-3.4708	-3.4292	138.398	30.170	3.187	-4.270	182.869	122.419	-139.453	98.323	179.958	109.395	189.605	166.868	-110.635	-81.802	152.904	160.536	0.0012126	0.00023863	7.7715e-05	655.24	2.3862e-06	3.9962e-06	777.13	269.97	6.0179e-06	6.5165e-06	376.85	180	119.31	63.556	2.6023e-06	94.573	0.00036484	0.00031012	8.6916e-05	640	3.38e-06	3.3836e-06	757.07	264.19	3.4671e-06	3.3277e-06	365.66	174.56	117.04	62.445	3.4509e-06	92.483	141.232	-65.895	-27.198	-131.478	-63.571	27.737	-133.124	-125.906	-42.385	42.640	-128.636	-124.247	-121.546	-114.895	88.729	-118.847	-8191	255	
1663.841	1	1	0	0	0.068451	0.19273	0.15115	0.095274	0.052664	0.10284	0.085695	0.15449	0.021202	0.075085	0.038328	0.29672	0.25459	0.19967	0.24521	0.23417	-2.725	-3.3917	-2.8542	-3.0292	-3.425	-2.7396	-3.3479	-3.3333	-2.7208	-3.4979	-3.0917	-3.225	-3.4896	-2.9896	-3.2771	-3.275	-123.666	-108.297	48.333	-114.541	162.073	-0.409	-126.332	191.464	-103.372	-98.366	-101.198	-135.240	211.571	13.566	-44.734	146.368	0.0013796	0.0009749	0.00013601	671.43	6.5533e-06	6.7833e-06	795.74	273.4	7.4772e-06	6.5334e-06	376.3	178.81	119.19	63.558	5.0255e-06	93.516	0.00036591	0.00031053	8.4881e-05	656.27	3.3075e-06	3.3735e-06	777.53	266.47	3.3714e-06	3.3219e-06	364.44	173.2	116.62	62.004	3.4438e-06	91.25	146.033	-51.179	-33.587	-131.967	-50.968	32.852	-133.168	-125.916	20.255	7.236	-128.453	-124.197	-121.751	-115.371	32.291	-119.294	-8191	255	
1663.960	1	1	0	0	0.16129	0.12263	0.045323	0.24018	0.10866	0.31652	0.10385	0.1328	0.12129	0.099904	0.07466	0.16956	0.18034	0.29375	0.15163	0.38219	-2.5563	-3.4396	-3.15	-2.7354	-3.4458	-2.7646	-3.3417	-3.3229	-2.7875	-3.4104	-3.2917	-2.9667	-3.5396	-2.9542	-3.0146	-3.4833	-54.493	33.144	-45.200	-89.982	182.554	211.224	102.416	63.088	20.348	65.939	54.603	25.128	122.189	213.788	-7.707	119.138	0.0013637	0.00028293	0.00013829	673.2	3.8792e-06	3.8681e-06	780.44	270.31	6.2239e-06	3.275e-06	367.16	177.26	118.95	63.076	3.9707e-06	93.621	0.00035439	0.00030147	8.3248e-05	656.83	3.2462e-06	3.2618e-06	756.15	262.97	3.2633e-06	3.2055e-06	357.17	171.5	116.05	61.506	3.3419e-06	90.962	146.793	-15.056	-29.659	-131.754	-15.892	-5.408	-133.624	-126.276	-36.559	6.999	-128.873	-124.325	-122.166	-115.131	12.979	-119.500	-8191	255	
1664.032	1	1	0	0	0.22004	0.15529	0.18841	0.14459	0.0749	0.27803	0.25827	0.058249	0.14779	0.13515	0.2419	0.2053	0.1854	0.097458	0.21937	0.17338	-2.4125	-3.4062	-3.0625	-3.0792	-3.3083	-3.0083	-3.1729	-3.5729	-2.8917	-3.2333	-3.3979	-2.8333	-3.5625	-3.1271	-3.0354	-3.6688	37.213	124.694	22.305	31.263	-88.294	146.769	-142.841	55.564	25.160	-34.495	207.134	151.981	134.685	-135.033	-28.612	120.840	0.0012732	0.00059174	0.00017722	683.65	4.5828e-06	6.0642e-06	784.02	270.11	5.9909e-06	5.7854e-06	366.52	176.21	118.69	62.514	6.3348e-06	93.384	0.00034772	0.00029853	8.1684e-05	662.53	3.2672e-06	3.2573e-06	762.49	263.51	3.281e-06	3.2677e-06	357.85	170.8	115.41	60.921	3.3515e-06	90.658	147.154	-43.635	-63.576	-132.131	-18.578	3.705	-133.435	-126.196	-8.070	52.199	-128.682	-124.378	-121.918	-115.602	-19.038	-119.291	-8191	255	
1664.128	1	1	0	0	0.28949	0.2731	0.16408	0.15891	0.16288	0.066897	0.22015	0.10422	0.11871	0.068235	0.073687	0.22808	0.18142	0.22484	0.24947	0.1403	-2.1917	-3.2625	-3.1125	-2.8812	-3.4167	-2.925	-3.0479	-3.6125	-2.8	-3.4146	-3.3167	-2.8812	-3.6125	-3.1188	-3.0125	-3.6021	170.275	-52.542	-74.734	78.122	-85.418	117.501	129.998	192.485	-17.195	-141.236	169.109	186.626	108.885	177.954	124.671	212.850	0.0013633	0.00082006	9.9921e-05	686.71	3.3911e-06	4.2466e-06	792.63	271.27	6.5524e-06	4.77e-06	372.16	178.02	118.71	62.248	2.4461e-06	93.18	0.00035037	0.00030826	8.3293e-05	664.67	3.2458e-06	3.2236e-06	769.52	262.9	3.2977e-06	3.3263e-06	359.74	171.26	114.9	60.423	3.4075e-06	89.979	143.607	-46.275	-26.580	-131.901	-19.340	-38.138	-133.518	-126.782	10.210	-12.613	-129.067	-124.786	-122.198	-115.753	12.778	-119.860	-8191	255	
1664.224	1	1	0	0	0.15895	0.11067	0.15322	0.034366	0.17678	0.18003	0.036226	0.17046	0.15194	0.13422	0.29371	0.21055	0.23707	0.093254	0.16501	0.22531	-2.4667	-3.4938	-3.3187	-2.9625	-3.4729	-3.2062	-3.025	-3.5229	-2.9375	-3.2625	-3.4354	-2.8312	-3.5104	-3.2479	-2.8229	-3.6146	-84.259	-17.047	124.917	41.566	46.871	-136.429	-104.155	190.839	134.782	99.693	128.890	179.129	154.237	-132.082	117.495	186.098	0.0012176	0.00032918	0.00018968	688.88	5.0416e-06	6.5341e-06	778.78	266.06	8.034e-06	3.7093e-06	362.1	172.1	115.25	59.588	9.3793e-06	83.736	0.00035483	0.00030929	8.3713e-05	660.76	3.334e-06	3.2758e-06	751.22	258.51	3.3967e-06	3.3923e-06	348.97	166.12	112.16	57.857	3.4449e-06	80.745	144.798	-70.006	-52.472	-132.469	-86.670	14.453	-133.775	-126.366	14.446	40.301	-129.049	-124.548	-122.366	-115.540	16.968	-119.479	-8191	255	
1664.345	1	1	0	0	0.18958	0.12688	0.20725	0.065137	0.12353	0.13839	0.027872	0.10825	0.075431	0.21555	0.13952	0.26126	0.15771	0.17109	0.086442	0.15039	-2.7167	-3.1104	-3.3063	-2.75	-3.2583	-3.225	-3.0854	-3.525	-3.0417	-2.9875	-3.5563	-2.9667	-3.2542	-3.3146	-2.6042	-3.5812	164.377	1.893	193.171	147.529	-96.324	-98.512	177.184	212.412	170.964	-22.673	209.584	-111.702	-128.434	201.410	-40.178	33.608	0.0011164	0.00028855	0.00013319	670.68	8.2563e-06	5.31e-06	761	263.18	5.2487e-06	9.1679e-06	356.78	170	114.69	58.419	3.7434e-06	81.56	0.00034868	0.0003132	8.6061e-05	646.65	3.4858e-06	3.4526e-06	733.79	254.34	3.4681e-06	3.4799e-06	344.42	163.78	110.96	56.696	3.5994e-06	79.084	149.232	-102.778	-49.849	-132.790	-62.348	-24.110	-134.223	-126.740	-21.018	11.601	-129.492	-125.006	-122.543	-116.051	-19.870	-119.990	-8191	255	
1664.441	1	1	0	0	0.15876	0.11231	0.2399	0.20479	0.29545	0.18616	0.15519	0.13463	0.11328	0.10411	0.21318	0.11066	0.14361	0.28404	0.11181	0.2444	-2.8625	-2.8187	-3.5167	-2.8479	-3.1167	-3.3438	-2.7771	-3.5812	-3.1188	-2.7396	-3.775	-3.1063	-3.1	-3.5104	-2.8	-3.5438	193.840	62.785	-118.055	134.004	-1.017	-4.309	176.217	191.340	114.162	177.845	180.515	182.210	-139.443	-112.221	-98.905	174.051	0.0010635	0.00041774	0.00020001	666.18	4.8939e-06	7.1506e-06	754.9	260.75	5.649e-06	3.6761e-06	358.19	170.42	113.67	57.516	6.5077e-06	82.091	0.00036457	0.00033496	8.9508e-05	640.38	3.5865e-06	3.614e-06	729.12	253.51	3.531e-06	3.6916e-06	346.07	164.46	110.59	56.224	3.8099e-06	79.545	144.524	-11.593	-44.668	-132.197	-25.604	-15.555	-133.989	-126.413	-54.873	33.894	-129.082	-124.400	-122.045	-115.606	-31.719	-119.501	-8191	255	
1664.537	1	1	0	0	0.18306	0.10517	0.24372	0.09449	0.25954	0.15809	0.044748	0.28556	0.16665	0.076315	0.20039	0.05793	0.14764	0.15208	0.060665	0.41049	-2.6542	-2.9521	-3.3333	-2.8875	-3.225	-3.3479	-2.825	-3.4229	-3.0875	-2.9188	-3.55	-3.0708	-3.3333	-3.4646	-2.6437	-3.5292	84.167	49.157	86.263	65.496	-114.666	44.801	54.999	170.525	60.636	-69.505	160.740	106.756	-31.898	-113.244	110.457	167.837	0.0011069	0.00037218	9.9147e-05	650.46	7.7369e-06	2.9855e-06	743.57	258.81	3.1193e-06	3.9621e-06	357.9	170.13	112.93	56.557	4.3258e-06	78.269	0.00038286	0.0003444	9.6875e-05	630.64	3.8451e-06	3.8239e-06	724.04	251.95	3.8352e-06	3.9418e-06	347.37	164.68	109.96	55.315	4.0698e-06	76.161	148.278	-28.440	-1.970	-132.023	-24.452	7.204	-133.617	-126.277	-34.168	-10.020	-128.718	-124.469	-121.915	-115.487	-11.811	-119.415	-8191	255	
1664.633	1	1	0	0	0.25673	0.042568	0.12215	0.1787	0.20881	0.13759	0.3019	0.11401	0.024815	0.13441	0.087093	0.29767	0.12785	0.056909	0.064442	0.25593	-2.7375	-2.6979	-3.6292	-2.9646	-3.0833	-3.5458	-2.8625	-3.2708	-3.075	-2.8458	-3.375	-3.1042	-2.9896	-3.525	-2.8625	-3.4271	34.665	-61.950	131.292	182.152	165.651	49.007	149.868	149.275	111.801	-34.315	-62.423	129.050	-55.360	172.087	81.914	71.528	0.0010735	0.00069811	0.0001859	626.22	7.0245e-06	8.1959e-06	718.72	253.94	4.4208e-06	3.6054e-06	350.67	167.78	111.94	55.03	4.5708e-06	73.953	0.00039228	0.00037299	0.00010377	611.27	4.1508e-06	4.0441e-06	700.67	247.09	4.0426e-06	4.2205e-06	340.09	161.92	108.79	53.413	4.2875e-06	71.995	147.023	-16.746	9.508	-132.464	-24.070	19.547	-133.905	-126.429	-32.616	-32.731	-128.536	-124.591	-122.440	-115.792	56.565	-119.867	-8191	255	
1664.728	1	1	0	0	0.11702	0.083955	0.18947	0.2457	0.18822	0.15575	0.16616	0.25209	0.072152	0.085586	0.066966	0.13011	0.14321	0.40174	0.22999	0.1771	-2.9479	-2.7875	-3.5479	-3.0042	-2.9208	-3.5812	-3.0312	-3.1792	-3.45	-2.85	-3.5021	-3.2375	-2.95	-3.5	-2.675	-3.3187	31.714	200.635	47.832	123.363	2.590	-26.955	210.083	204.824	-55.403	212.023	-3.571	147.812	-14.324	-142.775	-7.911	159.447	0.00092838	0.00048938	9.6039e-05	620.34	6.1245e-06	5.1715e-06	715.73	252.21	5.4948e-06	4.0503e-06	349.82	168.24	112.16	55.013	8.9787e-06	74.961	0.00041682	0.00039028	0.00011019	602.32	4.374e-06	4.3034e-06	693.39	245.4	4.2525e-06	4.3836e-06	339.97	162.53	109.2	53.727	4.3302e-06	72.947	143.037	-29.616	-35.867	-132.322	-56.248	-32.932	-134.282	-126.591	-50.987	60.470	-128.923	-124.522	-121.965	-115.691	-12.183	-119.212	-8191	255	
1664.824	1	1	0	0	0.050179	0.14151	0.19914	0.37174	0.1214	0.15382	0.29372	0.14782	0.1628	0.16489	0.18112	0.20339	0.056401	0.19822	0.21865	0.084914	-2.9583	-2.5583	-3.5208	-3.2896	-2.8229	-3.5563	-3.125	-3.2625	-3.4042	-2.8333	-3.4354	-3.4958	-2.8958	-3.5833	-3.0104	-3.2854	46.856	92.512	77.029	-127.093	-126.197	72.611	120.700	176.649	199.440	25.051	95.831	157.990	115.413	202.372	-32.871	203.683	0.0010354	0.00032166	0.00014716	620.96	4.2629e-06	5.0962e-06	717.39	253.84	6.136e-06	6.7713e-06	355.15	170.24	113.51	56.448	8.0388e-06	77.67	0.0004132	0.00039406	0.00010864	602.82	4.2377e-06	4.1657e-06	699.31	247.75	4.0239e-06	4.1491e-06	344.23	164.67	110.46	55.183	3.9935e-06	75.431	139.339	-33.566	-44.851	-131.990	-8.618	17.133	-133.307	-126.246	-35.278	15.375	-129.098	-124.659	-122.135	-115.758	-37.471	-119.780	-8191	255	
1664.944	1	1	0	0	0.23004	0.0039532	0.15311	0.12523	0.30589	0.26193	0.076826	0.10904	0.086126	0.30095	0.081757	0.10544	0.302	0.2313	0.18493	0.097846	-2.9229	-2.9542	-3.3208	-3.2646	-2.9	-3.4208	-3.1042	-3.225	-3.35	-2.9437	-3.2771	-3.3396	-2.8625	-3.3563	-3.1604	-3.2292	-127.267	-15.807	54.798	146.519	-108.206	168.252	-60.000	47.084	-121.250	-16.311	-17.342	-116.187	212.280	204.983	77.960	191.371	0.0010381	0.00024507	0.00014743	623.33	6.0016e-06	5.015e-06	728.81	256.38	4.0129e-06	2.1786e-07	356.6	170.27	113.52	56.86	7.2892e-06	76.44	0.00039657	0.00037495	0.00010179	607.92	3.9339e-06	3.9575e-06	707.75	249.51	3.9408e-06	3.8668e-06	344.34	164.55	110.67	55.328	3.8886e-06	74.134	144.112	-24.189	-97.388	-132.268	-47.476	-30.626	-133.791	-126.480	-112.238	214.035	-129.335	-124.672	-122.400	-115.949	5.952	-119.970	-8191	255	
1665.041	1	1	0	0	0.26323	0.16686	0.26912	0.10916	0.30458	0.18167	0.17857	0.21579	0.25197	0.14935	0.2651	0.084956	0.16892	0.027738	0.10974	0.2372	-3.0479	-2.7938	-3.2625	-3.3063	-2.7687	-3.6042	-3.3042	-2.8958	-3.3792	-3.1333	-3.0667	-3.5312	-2.9125	-3.5146	-3.2104	-3.2167	130.637	-120.337	-119.835	-63.595	41.304	46.414	-106.401	105.745	113.694	82.032	195.603	207.061	138.801	-8.611	180.995	95.994	0.0011036	0.00081054	6.2584e-05	627.68	6.3786e-06	5.7935e-06	713.18	251.99	3.5763e-06	4.5752e-06	347.09	167.9	113.06	56.641	8.783e-06	77.305	0.0003859	0.0003487	9.9262e-05	610.9	3.8147e-06	3.6794e-06	699.28	248.52	3.692e-06	3.6643e-06	340.71	163.91	110.65	55.504	3.6894e-06	75.091	142.631	-54.553	-12.884	-132.882	-90.604	13.843	-134.380	-127.390	-5.937	16.016	-129.846	-125.087	-122.718	-116.119	-22.482	-119.952	-8191	255	
1665.137	1	1	0	0	0.28337	0.20597	0.16389	0.072937	0.20947	0.12674	0.11629	0.32797	0.09822	0.27317	0.24946	0.12398	0.22593	0.16364	0.086848	0.16511	-3.0687	-2.9083	-3.0938	-3.3417	-2.6583	-3.3063	-3.2188	-2.9896	-3.4437	-2.9333	-2.8792	-3.6063	-2.8167	-3.4979	-3.4146	-3.0979	46.130	10.555	177.438	144.061	39.986	164.129	132.875	125.085	111.798	156.604	-135.535	114.904	-136.370	200.323	129.312	148.303	0.0010139	0.00049544	0.00016818	633.14	3.3995e-06	1.0005e-05	723.07	254.44	4.1994e-06	4.1417e-06	351.23	171.64	114.24	58.071	3.9039e-06	80.344	0.00037389	0.0003348	9.3235e-05	615.28	3.6756e-06	3.628e-06	705.5	250.07	3.6237e-06	3.6079e-06	344.26	166.5	111.79	57.044	3.5728e-06	78.357	145.192	-56.873	-76.406	-132.746	-96.072	-15.717	-133.981	-127.391	-21.427	1.132	-129.228	-125.252	-122.799	-116.254	25.747	-119.991	-8191	255	
1665.233	1	1	0	0	0.18388	0.12047	0.09473	0.21159	0.29646	0.14399	0.3232	0.061436	0.14429	0.068251	0.1059	0.14231	0.29387	0.26919	0.1696	0.1681	-3.0708	-3.0583	-2.8812	-3.4625	-2.8812	-3.3375	-3.3917	-2.6479	-3.5563	-3.1167	-2.9875	-3.65	-2.9542	-3.1542	-3.5021	-3.0021	16.443	67.200	20.986	-135.039	74.908	-35.512	179.526	133.087	142.639	130.075	-25.242	137.301	-141.263	-41.771	92.578	147.697	0.0010554	0.00051662	0.00011793	627.76	8.3578e-06	8.5149e-06	731.15	260.3	4.1549e-06	5.2726e-06	366.86	177.03	118.74	61.385	4.2541e-06	85.453	0.00037217	0.00033007	9.2791e-05	613.16	3.5836e-06	3.6253e-06	713.74	253.84	3.6503e-06	3.6187e-06	353.21	171.02	114.73	59.45	3.5267e-06	82.733	142.651	-48.428	-30.271	-132.774	-40.562	-1.100	-134.218	-126.882	-95.874	42.056	-129.680	-124.917	-122.238	-116.367	28.370	-120.354	-8191	255	
1665.327	1	1	0	0	0.073317	0.18403	0.08945	0.15044	0.17296	0.15631	0.035322	0.16364	0.29945	0.22966	0.24305	0.16765	0.24724	0.0749	0.15706	0.13077	-2.8604	-3.0354	-2.7979	-3.4271	-2.7812	-2.9729	-3.4625	-2.85	-3.2146	-3.2333	-2.9417	-3.4875	-2.9813	-3.175	-3.375	-2.9313	40.267	18.083	-115.149	74.075	-49.929	-27.144	88.026	-59.305	-73.975	137.694	-129.814	-76.180	97.743	149.896	-73.705	-100.402	0.0011136	0.0006483	0.00010427	635.3	7.8387e-06	1.0632e-05	738.34	265.41	8.7744e-06	5.0414e-06	361.13	175.29	119.1	61.225	6.063e-06	82.803	0.0003784	0.00032657	9.0881e-05	612.6	3.5637e-06	3.6488e-06	711.59	255.97	3.6788e-06	3.4052e-06	350.74	170.17	115.34	59.262	3.4931e-06	80.29	145.434	-14.195	-42.758	-132.541	-61.904	19.054	-133.541	-126.776	-20.935	17.176	-129.514	-125.002	-122.482	-115.864	42.649	-119.773	-8191	255	
1665.423	1	1	0	0	0.25601	0.046199	0.19743	0.23379	0.12953	0.069593	0.11854	0.2712	0.029657	0.1229	0.50183	0.28782	0.17626	0.092969	0.26952	0.059043	-2.8292	-3.2458	-2.8396	-3.6333	-3.0667	-3.2812	-3.4688	-3.0229	-3.2792	-3.3583	-2.8563	-3.6542	-3.0729	-3.2438	-3.5229	-3.025	-27.024	-71.633	-12.189	9.294	-84.199	209.638	191.779	191.199	-67.584	89.185	165.802	-143.975	152.728	112.215	68.085	30.333	0.0012515	0.00048489	0.00020745	637.29	8.0891e-06	4.2539e-06	736.28	265.99	5.8375e-06	9.2712e-06	368.38	177.6	119.11	61.211	5.171e-06	84.216	0.00036556	0.00031724	9.2065e-05	614.86	3.5353e-06	3.5353e-06	712.05	257.12	3.6324e-06	3.4687e-06	353.11	171.02	115.46	59.504	3.5002e-06	81.627	146.535	-34.382	-34.794	-132.329	-6.914	-31.059	-133.741	-126.735	11.678	-16.700	-129.272	-124.675	-122.395	-115.936	-35.227	-119.998	-8191	255	
1665.520	1	1	0	0	0.069547	0.23362	0.037636	0.19939	0.13901	0.1495	0.13389	0.075354	0.3296	0.2046	0.26125	0.18012	0.064912	0.20281	0.24845	0.14829	-2.8771	-3.3542	-2.6937	-3.3708	-3.1312	-2.8604	-3.5479	-2.8688	-3.3042	-3.35	-2.9188	-3.4771	-3.2396	-3.0854	-3.2542	-3.0396	-70.657	91.683	9.208	197.842	81.385	153.369	174.461	-142.576	89.300	106.764	138.099	31.270	-26.556	183.934	95.042	214.485	0.0012256	0.00048603	0.00017474	641.03	6.5427e-06	1.2612e-06	746.98	266.43	3.0626e-06	1.2547e-06	366.79	178.12	119.06	61.701	1.1039e-05	87.548	0.00037031	0.00031034	9.1471e-05	618.53	3.491e-06	3.5645e-06	720.06	257.95	3.5501e-06	3.5224e-06	354.56	172.13	115.45	60.057	3.548e-06	84.564	141.455	-103.053	4.461	-132.579	-70.246	-20.353	-133.854	-126.425	-70.671	-39.921	-129.399	-124.672	-122.156	-116.101	-41.606	-119.891	-8191	255	
1665.640	1	1	0	0	0.14647	0.28087	0.031107	0.10632	0.10477	0.042477	0.091809	0.12345	0.15997	0.034699	0.093444	0.14766	0.24371	0.10514	0.071049	0.080683	-2.7979	-3.3563	-2.7125	-3.4104	-2.9917	-3.0729	-3.4875	-3.1167	-3.225	-3.4625	-2.7167	-3.4021	-3.2229	-3.0729	-3.4104	-3.1708	-59.898	74.234	96.640	143.827	-34.682	155.706	-114.485	173.711	-44.322	-27.931	110.214	-134.329	181.051	212.883	-64.547	198.539	0.0012148	0.00089138	0.00014744	639.83	5.3121e-06	5.636e-06	757.82	267.61	2.4627e-06	4.0554e-06	371.95	180.57	120.43	62.665	3.1211e-06	88.033	0.00036239	0.00031532	8.9375e-05	619.84	3.4014e-06	3.5834e-06	729.23	258.81	3.5243e-06	3.4951e-06	357.98	173.68	116.51	60.659	3.5436e-06	84.872	145.746	-73.169	-60.454	-132.185	-33.320	-19.278	-133.869	-126.988	-31.532	9.637	-129.166	-124.972	-122.734	-116.283	45.731	-120.150	-8191	255	
1665.736	1	1	0	0	0.13018	0.14679	0.27287	0.074957	0.19375	0.16068	0.29726	0.23	0.19197	0.23136	0.13293	0.044814	0.17802	0.078235	0.10014	0.1481	-2.5187	-3.3688	-2.7875	-3.3729	-3.3375	-2.8875	-3.5021	-3.1458	-3.0854	-3.5417	-2.775	-3.3833	-3.4479	-2.9917	-3.3521	-3.2667	22.523	47.658	-66.609	-75.922	-118.772	21.396	95.689	-122.681	149.985	102.102	-49.163	76.245	-144.302	38.138	120.725	155.182	0.001187	0.00077271	0.00022735	632.56	4.0611e-06	4.2734e-06	740.04	266.98	4.9611e-06	9.0629e-06	367.85	181.07	120.6	62.725	4.3536e-06	87.565	0.00036506	0.00031892	8.8351e-05	608.92	3.4228e-06	3.4734e-06	711.68	257.95	3.4893e-06	3.4647e-06	353.8	173.37	116.96	60.628	3.5739e-06	84.27	145.782	-45.855	2.063	-132.752	6.694	31.179	-133.643	-127.095	-40.930	-32.409	-129.431	-125.077	-122.396	-116.118	16.901	-120.000	-8191	255	
1665.833	1	1	0	0	0.20458	0.04003	0.134	0.074816	0.039622	0.22464	0.17023	0.15651	0.068248	0.11639	0.2302	0.087608	0.079243	0.43694	0.16401	0.1189	-2.6688	-3.3479	-2.7208	-3.2667	-3.3354	-2.8646	-3.5771	-3.2604	-3.0042	-3.7729	-3.15	-3.2542	-3.5792	-2.8958	-3.2229	-3.3896	84.425	-60.987	143.806	102.706	148.085	-32.930	111.673	-136.935	83.213	9.786	206.755	126.472	82.307	160.980	120.842	132.304	0.001119	0.00043576	0.00015249	622.68	8.0475e-06	3.5462e-06	742.27	269.74	6.8899e-06	3.6975e-06	373.99	182.1	122.28	63.868	2.9435e-06	90.504	0.00036375	0.00031709	8.7638e-05	604.83	3.3942e-06	3.5047e-06	713.68	259.12	3.5481e-06	3.4441e-06	358.71	175.58	117.96	61.731	3.4359e-06	87.293	147.242	-81.480	-27.669	-131.885	6.123	-21.641	-133.968	-127.024	-65.036	12.136	-129.176	-124.882	-122.278	-116.067	9.226	-119.871	-8191	255	
1665.904	1	1	0	0	0.22678	0.15779	0.18888	0.26952	0.24942	0.19734	0.2747	0.32487	0.23736	0.22837	0.059297	0.26283	0.13766	0.26732	0.21925	0.12933	-2.6417	-3.4875	-2.975	-3.2708	-3.2792	-3.0833	-3.2917	-3.3208	-2.7396	-3.4938	-3.15	-3.1646	-3.6208	-3.0354	-3.1771	-3.4021	113.930	-42.728	-117.305	209.897	-36.229	143.545	119.178	133.529	186.845	142.986	32.470	102.247	141.400	101.072	-5.391	140.847	0.0011899	0.00058723	0.00021832	635.14	4.5964e-06	4.463e-06	751.55	268.67	9.4929e-06	4.8174e-06	373.82	182.48	121.81	63.724	5.8686e-06	91.354	0.00037167	0.00031832	8.682e-05	613.03	3.4033e-06	3.4532e-06	726.56	260.21	3.5194e-06	3.4725e-06	361.36	175.86	117.68	61.787	3.4617e-06	88.464	145.222	-22.929	-31.927	-132.620	-44.893	24.368	-133.962	-126.498	-30.878	4.457	-129.052	-124.519	-122.215	-115.967	2.539	-119.927	-8191	255	
1666.025	1	1	0	0	0.21292	0.16379	0.20256	0.18507	0.21779	0.13587	0.1886	0.13309	0.11752	0.17764	0.11738	0.21887	0.21485	0.20929	0.23517	0.10245	-2.4417	-3.4521	-2.8708	-3.1063	-3.6542	-2.6688	-3.3417	-3.45	-2.7438	-3.5021	-3.3375	-3.0333	-3.4604	-3.1146	-3.2396	-3.5438	41.754	-59.498	152.103	128.238	-110.458	215.233	150.519	100.373	189.230	-80.397	162.581	142.381	142.137	205.054	41.257	53.023	0.0013088	0.00066534	7.3746e-05	635.78	4.5441e-06	5.2985e-06	751.97	266.37	3.5473e-06	1.7094e-06	367.93	178.69	119.63	62.357	7.7034e-06	86.382	0.00036599	0.00030459	8.6349e-05	617.1	3.3711e-06	3.3791e-06	725.4	258.53	3.4674e-06	3.3251e-06	355.6	173.24	116.06	60.532	3.3691e-06	83.739	144.623	-61.009	-59.603	-132.317	-11.020	51.192	-133.612	-126.465	-25.724	-72.059	-128.883	-124.778	-122.278	-115.692	0.225	-119.664	-8191	255	
1666.121	1	1	0	0	0.22285	0.10474	0.17509	0.20783	0.13284	0.092516	0.18602	0.14447	0.06194	0.16443	0.2117	0.15667	0.27594	0.14238	0.22173	0.042281	-2.2833	-3.4813	-3.3208	-3.125	-3.6604	-3.0479	-3.275	-3.2542	-2.9375	-3.4875	-3.3875	-3.0396	-3.6833	-3.1646	-3.1292	-3.3937	-4.562	-133.427	35.305	54.277	121.883	-75.389	192.378	-49.239	-140.294	-88.883	195.844	109.334	-73.377	166.862	-38.265	-68.003	0.0012475	0.000468	0.00015954	615.38	4.2043e-06	5.6648e-06	722.41	263.25	5.9426e-06	2.1263e-06	366.26	180.69	119.55	62.725	4.5612e-06	87.387	0.00035762	0.0003133	8.4688e-05	598.47	3.3685e-06	3.3412e-06	702.02	255.48	3.5261e-06	3.3691e-06	354.76	174.16	116.8	60.913	3.4334e-06	84.869	148.968	-79.779	-35.224	-132.063	-45.034	-8.372	-133.261	-126.062	-4.628	50.298	-128.811	-124.709	-122.144	-115.463	-36.905	-119.378	-8191	255	
1666.217	1	1	0	0	0.18525	0.13987	0.22164	0.20762	0.11319	0.18876	0.24495	0.1646	0.21004	0.21414	0.3307	0.12012	0.12518	0.045318	0.33729	0.25974	-2.5083	-3.2333	-3.2021	-2.8875	-3.3312	-2.9333	-3.075	-3.5792	-2.9979	-3.2042	-3.4271	-2.9771	-3.5083	-3.0438	-3.0979	-3.7021	-91.985	-104.504	157.667	-103.212	64.473	-135.467	177.058	195.025	49.693	5.845	180.434	-86.929	5.984	-56.290	-29.153	155.454	0.0011976	0.00027911	0.00017494	608.32	6.1242e-06	5.2574e-06	725.87	263.39	5.642e-06	1.0184e-05	371.08	184.03	121.06	63.825	6.2232e-06	91.047	0.00035689	0.00030731	8.3611e-05	591.38	3.3182e-06	3.2709e-06	708.69	256.65	3.4673e-06	3.2855e-06	359.18	176.93	117.8	62.191	3.4003e-06	88.607	148.065	-39.460	-3.497	-131.769	-49.274	-41.341	-133.239	-125.980	-61.709	25.256	-128.794	-124.559	-121.973	-115.471	-1.478	-119.217	-8191	255	
1666.313	1	1	0	0	0.12191	0.14249	0.1353	0.091775	0.029278	0.26147	0.14083	0.076189	0.093366	0.13412	0.20161	0.2855	0.10732	0.11452	0.10224	0.35257	-2.4688	-3.1167	-3.3604	-2.7979	-3.325	-2.8979	-3.15	-3.7062	-2.8792	-3.2646	-3.5833	-2.9938	-3.3792	-3.3708	-2.7917	-3.4979	196.445	-135.202	147.665	-82.877	56.997	-62.942	38.010	112.365	-61.100	210.737	114.599	162.112	-28.403	112.841	6.378	200.299	0.0013127	0.0010072	0.00021247	618.72	6.8775e-06	4.2131e-06	745.51	268.11	5.4097e-06	6.5099e-06	378.07	184.91	121.19	64.695	8.5425e-06	92.276	0.00035778	0.00030913	8.2622e-05	598.71	3.3635e-06	3.3118e-06	724.56	260.19	3.3297e-06	3.3576e-06	366.41	178.6	118.24	62.783	3.3953e-06	89.532	142.714	-49.529	-11.088	-131.835	-102.171	7.851	-132.990	-126.088	-56.964	29.928	-129.044	-124.474	-121.400	-115.144	6.049	-119.325	-8191	255	
1666.432	1	1	0	0	0.10077	0.20182	0.23627	0.075929	0.072791	0.25585	0.20528	0.093512	0.16912	0.1984	0.20125	0.21567	0.094206	0.19809	0.060267	0.15425	-2.6479	-2.9917	-3.4	-2.8812	-3.3604	-3.2896	-3.0792	-3.7229	-3.1	-3.1417	-3.4771	-3.0104	-3.5208	-3.3229	-2.9667	-3.7771	-40.349	215.754	191.721	-119.463	-58.980	95.671	-78.875	178.199	109.804	29.405	204.406	176.264	-7.831	-93.763	-14.499	-135.087	0.0012338	0.00074141	0.00021527	615.07	3.5375e-06	1.0487e-05	736.17	265.26	4.7264e-06	2.3002e-06	366.43	181.6	120.45	63.306	1.968e-06	87.909	0.00034781	0.00029896	8.5353e-05	600.31	3.2906e-06	3.2205e-06	713.68	258.2	3.1501e-06	3.2399e-06	356.27	175.29	117.44	61.473	3.2898e-06	84.966	141.408	-23.840	-16.281	-131.749	-46.348	-9.915	-133.030	-126.151	-55.390	46.712	-128.660	-124.577	-122.149	-115.675	109.821	-119.542	-8191	255	
1666.528	1	1	0	0	0.22198	0.076684	0.24118	0.22084	0.22816	0.23646	0.31903	0.29634	0.24248	0.0064348	0.19344	0.33488	0.083634	0.25781	0.12607	0.10199	-2.5438	-2.8479	-3.6104	-2.8021	-3.2979	-3.4688	-2.9458	-3.625	-2.975	-2.9521	-3.4313	-2.9125	-3.3271	-3.375	-2.8375	-3.7083	119.513	-62.433	-39.843	205.309	-42.454	166.012	102.785	153.959	90.985	114.924	158.245	149.380	152.795	142.979	-31.541	-140.875	0.0011964	0.00051952	0.00013985	622.31	8.6203e-06	8.1829e-06	738.73	266.06	4.6886e-06	5.1404e-06	371.2	183.4	121.63	63.983	6.6394e-06	91.701	0.00033101	0.00029359	8.1399e-05	602.45	3.1461e-06	3.1232e-06	713.77	257.7	3.1361e-06	3.2249e-06	358.3	176.36	117.87	62.117	3.3056e-06	88.41	141.693	-39.892	-61.466	-132.065	-29.167	14.631	-133.744	-126.959	-41.247	-13.266	-129.357	-124.664	-122.637	-115.894	12.166	-120.102	-8191	255	
1666.624	1	1	0	0	0.081562	0.15752	0.087263	0.048316	0.21523	0.20725	0.16454	0.10008	0.12355	0.15757	0.18108	0.26892	0.055004	0.13796	0.021637	0.23829	-2.675	-2.7292	-3.3458	-2.9292	-3.3396	-3.3729	-2.7687	-3.5167	-3.2479	-2.7812	-3.6917	-3.1771	-3.1021	-3.5187	-2.8854	-3.7271	75.165	-115.480	193.659	187.193	-75.959	162.458	-143.577	-80.500	25.489	-61.798	-107.494	195.592	82.802	-133.785	178.440	200.956	0.0011871	0.00049833	0.00010319	609.36	6.3175e-06	7.6481e-06	737.44	265.26	2.111e-06	5.533e-06	376.62	184.41	121.9	64.319	8.6348e-06	92.836	0.00033116	0.00030367	8.2427e-05	591.62	3.1896e-06	3.2483e-06	712.21	257.73	3.1597e-06	3.2831e-06	362.7	177.94	118.68	62.789	3.2794e-06	90.014	140.392	-55.942	-43.193	-131.854	-62.316	-13.140	-133.168	-126.215	-32.158	-20.249	-129.067	-124.375	-122.027	-115.563	13.268	-119.521	-8191	255	
1666.721	1	1	0	0	0.058808	0.076337	0.35642	0.1455	0.22744	0.30938	0.14881	0.13529	0.090853	0.18938	0.16301	0.14957	0.13726	0.091956	0.051174	0.21893	-2.775	-2.6896	-3.3542	-3.0479	-2.9792	-3.475	-2.7771	-3.3792	-3.2646	-2.7229	-3.5208	-3.2271	-2.9417	-3.4979	-2.9562	-3.4	75.778	114.976	-4.453	96.264	-116.792	43.701	127.921	168.590	-75.485	-137.010	184.936	86.675	-137.911	107.107	193.200	194.367	0.0012573	0.00065874	0.00021493	604.29	4.4579e-06	7.0931e-06	741.62	265.62	1.88e-06	6.8295e-06	376.07	183.43	121.75	63.445	5.0888e-06	89.118	0.00033833	0.00030262	8.2197e-05	587.71	3.29e-06	3.1951e-06	717.1	258.13	3.1859e-06	3.2897e-06	362.09	177.79	118.43	62.137	3.2165e-06	86.784	149.773	-78.293	-63.059	-131.585	-17.299	30.098	-133.284	-126.213	-43.775	-5.448	-128.859	-124.354	-122.167	-115.451	13.882	-119.389	-8191	255	
1666.817	1	1	0	0	0.15043	0.11163	0.25632	0.021912	0.31819	0.26237	0.2931	0.39877	0.17416	0.15795	0.22435	0.18376	0.20605	0.24708	0.13445	0.24302	-2.9021	-2.7958	-3.5125	-3.3146	-2.7542	-3.3771	-3.0187	-3.2167	-3.2458	-2.8917	-3.6125	-3.2812	-2.9271	-3.6104	-3.05	-3.1813	136.376	-61.404	56.032	178.309	120.718	-62.996	166.011	214.287	143.552	-144.389	202.257	162.684	181.292	200.962	88.907	180.618	0.0012274	0.00048611	0.00017911	607.42	5.1135e-06	5.1645e-06	728.92	264.6	4.2969e-06	5.7908e-06	370.18	182.71	121.87	63.84	6.2386e-06	89.075	0.00033469	0.00029521	7.8643e-05	588.78	3.1893e-06	3.1562e-06	705.92	257.19	3.1025e-06	3.2113e-06	357.78	176.4	118.12	61.943	3.1313e-06	86.153	144.421	-25.476	-40.025	-131.680	-22.198	-8.672	-133.522	-126.508	-9.127	34.081	-129.217	-124.510	-122.399	-115.838	-21.487	-119.876	-8191	255	
1666.913	1	1	0	0	0.23249	0.086572	0.10827	0.10686	0.19334	0.18683	0.13067	0.10744	0.19496	0.20207	0.060756	0.14492	0.10527	0.044784	0.090952	0.30305	-3.0604	-2.7521	-3.3042	-3.1854	-2.7938	-3.5792	-3.0042	-3.0292	-3.2958	-2.6521	-3.425	-3.4125	-2.7958	-3.3625	-3.0875	-3.025	12.073	-117.806	-62.191	11.451	67.870	136.968	111.472	175.775	-16.255	-63.627	-4.078	-134.457	-122.519	205.326	-2.451	190.444	0.0011759	0.00053514	6.9002e-05	619	5.921e-06	8.7474e-06	735.75	264.26	2.2714e-06	5.2562e-06	373.5	182.94	121.57	63.933	7.8065e-06	90.846	0.00033318	0.00028848	7.7411e-05	596.18	3.1339e-06	3.0871e-06	712.73	256.82	3.0775e-06	3.1607e-06	360.21	176.42	117.92	62.103	3.0461e-06	88.303	149.137	-50.636	-111.304	-132.211	-40.151	-0.083	-133.518	-126.585	-83.312	1.081	-128.778	-124.611	-122.028	-115.637	22.645	-119.651	-8191	255	
1667.034	1	1	0	0	0.18356	0.064423	0.15686	0.041325	0.06985	0.27826	0.088475	0.50838	0.14249	0.20484	0.077363	0.16959	0.28525	0.06498	0.18257	0.16159	-2.8958	-2.7458	-3.3896	-3.1917	-2.9042	-3.4292	-3.0938	-3.15	-3.5062	-2.8958	-3.4208	-3.3833	-2.8958	-3.6979	-3.1688	-2.9938	205.007	-143.499	208.894	67.885	-68.502	-39.003	-85.714	181.620	129.026	87.874	-126.814	162.411	25.496	-99.181	-129.007	122.494	0.0012112	0.00039237	0.00018251	619.67	5.24e-06	4.8559e-06	741.45	263.28	8.2256e-06	6.6521e-06	375.51	184.43	120.97	63.955	6.1013e-06	93.727	0.00032607	0.00028123	7.8e-05	599.56	3.1417e-06	3.1117e-06	719.7	257.22	3.1266e-06	3.0956e-06	363.08	178.03	117.83	62.718	3.1175e-06	91.082	145.488	-50.722	-46.558	-132.006	39.481	-27.361	-133.230	-126.610	-11.261	27.776	-128.874	-124.517	-121.978	-115.133	12.422	-119.455	-8191	255	
#DATA ENDS
