BOXY.EXE: ISS Imagent and Oximeter Data Acquisition Program Version 0.80
Ascii Record File

#ACQ INFORMATION
2  Detector Channels 
16  External MUX Channels 
1  Auxiliary Channels 
5000  Waveform (CCF) Frequency (Hz)
1  Waveforms Skipped 
30  Waveforms Averaged 
1  Cycles Averaged 
16  Acquisitions per Waveform 
10.0806  Updata Rate (Hz) 

#FILE INFORMATION
TRUE -- External MUX Channel results are PARSED.
FALSE -- AC DC and Phase are NOT grouped.
TRUE -- Companion Program Settings File CREATED.
FALSE -- AC data not excluded
FALSE -- DC data not excluded
FALSE -- Phase data not excluded
FALSE -- Auxillary Chn. data not excluded
Tab delimiters

#CALIBRATION STATE
TRUE -- Waveform Calibration Values APPLIED.


#AUX CALIBRATION VALUES
Val Type	aux-1	

Term	1.0000e+00	
Factor	0.0000e+00	


#WF CALIBRATION VALUES
A = Detector Channel
Val Type	A-AC1	A-AC2	A-AC3	A-AC4	A-AC5	A-AC6	A-AC7	A-AC8	A-AC9	A-AC10	A-AC11	A-AC12	A-AC13	A-AC14	A-AC15	A-AC16	A-DC1	A-DC2	A-DC3	A-DC4	A-DC5	A-DC6	A-DC7	A-DC8	A-DC9	A-DC10	A-DC11	A-DC12	A-DC13	A-DC14	A-DC15	A-DC16	A-Ph1	A-Ph2	A-Ph3	A-Ph4	A-Ph5	A-Ph6	A-Ph7	A-Ph8	A-Ph9	A-Ph10	A-Ph11	A-Ph12	A-Ph13	A-Ph14	A-Ph15	A-Ph16	

Term	0.00000e+00	0.00000e+00	0.00000e+00	0.00000e+00	0.00000e+00	0.00000e+00	0.00000e+00	0.00000e+00	0.00000e+00	0.00000e+00	0.00000e+00	0.00000e+00	0.00000e+00	0.00000e+00	0.00000e+00	0.00000e+00	0.00000e+00	0.00000e+00	0.00000e+00	0.00000e+00	0.00000e+00	0.00000e+00	0.00000e+00	0.00000e+00	0.00000e+00	0.00000e+00	0.00000e+00	0.00000e+00	0.00000e+00	0.00000e+00	0.00000e+00	0.00000e+00	0.00000e+00	0.00000e+00	0.00000e+00	0.00000e+00	0.00000e+00	0.00000e+00	0.00000e+00	0.00000e+00	0.00000e+00	0.00000e+00	0.00000e+00	0.00000e+00	0.00000e+00	0.00000e+00	0.00000e+00	0.00000e+00	
Factor	1.00000e+00	1.00000e+00	1.00000e+00	1.00000e+00	1.00000e+00	1.00000e+00	1.00000e+00	1.00000e+00	1.00000e+00	1.00000e+00	1.00000e+00	1.00000e+00	1.00000e+00	1.00000e+00	1.00000e+00	1.00000e+00	1.00000e+00	1.00000e+00	1.00000e+00	1.00000e+00	1.00000e+00	1.00000e+00	1.00000e+00	1.00000e+00	1.00000e+00	1.00000e+00	1.00000e+00	1.00000e+00	1.00000e+00	1.00000e+00	1.00000e+00	1.00000e+00	X	X	X	X	X	X	X	X	X	X	X	X	X	X	X	X	

B = Detector Channel
Val Type	B-AC1	B-AC2	B-AC3	B-AC4	B-AC5	B-AC6	B-AC7	B-AC8	B-AC9	B-AC10	B-AC11	B-AC12	B-AC13	B-AC14	B-AC15	B-AC16	B-DC1	B-DC2	B-DC3	B-DC4	B-DC5	B-DC6	B-DC7	B-DC8	B-DC9	B-DC10	B-DC11	B-DC12	B-DC13	B-DC14	B-DC15	B-DC16	B-Ph1	B-Ph2	B-Ph3	B-Ph4	B-Ph5	B-Ph6	B-Ph7	B-Ph8	B-Ph9	B-Ph10	B-Ph11	B-Ph12	B-Ph13	B-Ph14	B-Ph15	B-Ph16	

Term	0.00000e+00	0.00000e+00	0.00000e+00	0.00000e+00	0.00000e+00	0.00000e+00	0.00000e+00	0.00000e+00	0.00000e+00	0.00000e+00	0.00000e+00	0.00000e+00	0.00000e+00	0.00000e+00	0.00000e+00	0.00000e+00	0.00000e+00	0.00000e+00	0.00000e+00	0.00000e+00	0.00000e+00	0.00000e+00	0.00000e+00	0.00000e+00	0.00000e+00	0.00000e+00	0.00000e+00	0.00000e+00	0.00000e+00	0.00000e+00	0.00000e+00	0.00000e+00	-1.85345e+02	-1.23737e+02	-1.11857e+02	-1.80493e+02	-1.02631e+02	-7.18909e+01	-1.55190e+02	-1.62015e+02	-8.30239e+01	-6.30682e+01	-1.71086e+02	-1.70392e+02	-1.81065e+02	-1.76742e+02	-5.60175e+01	-1.49283e+02	
Factor	3.45794e-05	1.28973e-04	3.64895e-05	1.78598e-01	1.50782e-06	1.48164e-06	1.55936e-01	4.98493e-02	1.25560e-06	1.27048e-06	8.53734e-02	2.92799e-02	2.65120e-02	9.74353e-03	1.48999e-06	1.28900e-02	2.28479e-06	2.43523e-06	6.78434e-07	9.15091e-02	2.64387e-08	2.67660e-08	7.53430e-02	2.56481e-02	2.64425e-08	2.67481e-08	4.24034e-02	1.45225e-02	1.36176e-02	5.01221e-03	2.65546e-08	6.42646e-03	X	X	X	X	X	X	X	X	X	X	X	X	X	X	X	X	



#DISTANCE SETTINGS
A = Detector Channel
A-1	A-2	A-3	A-4	A-5	A-6	A-7	A-8	A-9	A-10	A-11	A-12	A-13	A-14	A-15	A-16	

2.5000e+00	3.0000e+00	2.5000e+00	3.0000e+00	2.0000e+00	3.0000e+00	1.5000e+00	3.0000e+00	3.0000e+00	3.0000e+00	3.0000e+00	3.0000e+00	3.0000e+00	3.0000e+00	1.5000e+00	3.0000e+00	

B = Detector Channel
B-1	B-2	B-3	B-4	B-5	B-6	B-7	B-8	B-9	B-10	B-11	B-12	B-13	B-14	B-15	B-16	

1.0000e+01	1.0000e+01	1.0000e+01	1.4400e+00	1.0000e+01	1.0000e+01	1.5100e+00	1.9400e+00	1.0000e+01	1.0000e+01	1.9900e+00	2.4900e+00	2.4100e+00	2.9000e+00	1.0000e+01	2.9800e+00	




#DATA BEGINS
time	group	step	mark	flag	A-AC1	A-AC2	A-AC3	A-AC4	A-AC5	A-AC6	A-AC7	A-AC8	A-AC9	A-AC10	A-AC11	A-AC12	A-AC13	A-AC14	A-AC15	A-AC16	A-DC1	A-DC2	A-DC3	A-DC4	A-DC5	A-DC6	A-DC7	A-DC8	A-DC9	A-DC10	A-DC11	A-DC12	A-DC13	A-DC14	A-DC15	A-DC16	A-Ph1	A-Ph2	A-Ph3	A-Ph4	A-Ph5	A-Ph6	A-Ph7	A-Ph8	A-Ph9	A-Ph10	A-Ph11	A-Ph12	A-Ph13	A-Ph14	A-Ph15	A-Ph16	B-AC1	B-AC2	B-AC3	B-AC4	B-AC5	B-AC6	B-AC7	B-AC8	B-AC9	B-AC10	B-AC11	B-AC12	B-AC13	B-AC14	B-AC15	B-AC16	B-DC1	B-DC2	B-DC3	B-DC4	B-DC5	B-DC6	B-DC7	B-DC8	B-DC9	B-DC10	B-DC11	B-DC12	B-DC13	B-DC14	B-DC15	B-DC16	B-Ph1	B-Ph2	B-Ph3	B-Ph4	B-Ph5	B-Ph6	B-Ph7	B-Ph8	B-Ph9	B-Ph10	B-Ph11	B-Ph12	B-Ph13	B-Ph14	B-Ph15	B-Ph16	aux-1	digaux	

2115.333	1	1	0	768	0.15165	0.15549	0.09977	0.070653	0.094655	0.034252	0.17832	0.33064	0.15658	0.33821	0.21879	0.16144	0.23323	0.14353	0.18748	0.067423	-2.7167	-2.8854	-2.8167	-3.6083	-2.9313	-2.9646	-3.3812	-2.7125	-3.1854	-3.075	-2.7917	-3.5312	-3.125	-2.8937	-3.3312	-2.8042	85.167	-103.867	182.619	217.303	156.835	15.081	215.370	109.066	116.297	-24.576	85.764	-112.977	67.119	-15.875	86.469	205.151	0.00069924	0.00037752	0.00029846	702.88	3.9237e-06	1.0451e-05	760.61	273.25	6.8576e-06	6.2496e-06	300.88	116.59	95.343	29.968	3.7766e-06	40.467	0.0015814	0.0015275	0.00047395	722.51	1.6673e-05	1.895e-05	769.91	275.33	1.8265e-05	1.6894e-05	310.5	119.58	98.616	32.089	1.7219e-05	42.583	152.808	-16.435	-16.713	-125.131	98.998	33.539	-127.715	-119.810	11.800	4.356	-122.665	-118.549	-115.831	-108.872	48.352	-112.928	-8191	255	
2115.429	1	1	0	0	0.22698	0.17137	0.16848	0.016841	0.21291	0.050232	0.12964	0.22423	0.048126	0.040239	0.32103	0.044413	0.13569	0.078121	0.11548	0.19396	-2.9396	-3.2042	-2.6396	-3.3125	-3.0542	-2.8354	-3.6188	-2.8771	-3.225	-3.3625	-2.65	-3.3229	-3.3125	-2.9604	-3.4958	-2.8854	-75.605	22.716	-123.726	-65.537	216.845	41.146	-93.791	-16.102	-118.905	103.674	-124.145	-95.049	133.287	4.216	109.453	212.548	0.00071649	0.0013531	0.00015279	705.5	9.3968e-06	1.167e-05	768.31	270.99	5.4123e-06	1.2362e-05	300.73	116.62	95.62	29.788	5.3328e-06	39.374	0.001612	0.0015592	0.00046308	724.69	1.6772e-05	1.8868e-05	774.28	275.08	1.8485e-05	1.7132e-05	310.76	119.41	98.362	31.978	1.7456e-05	41.823	150.882	-19.518	-43.937	-125.629	-85.874	42.224	-126.986	-118.933	36.029	3.836	-123.035	-118.920	-116.662	-109.816	-69.649	-113.600	-8191	255	
2115.525	1	1	0	0	0.20509	0.10336	0.24748	0.042793	0.36334	0.15685	0.14987	0.011241	0.37209	0.0699	0.068114	0.20708	0.22634	0.15936	0.19885	0.26707	-2.4958	-3.5083	-2.8479	-3.45	-3.1292	-2.7854	-3.5	-3.0667	-3.0833	-3.5271	-2.7771	-3.2812	-3.3312	-2.675	-3.4583	-3.0333	209.844	7.987	-110.673	-20.235	-96.308	138.263	169.763	-97.219	159.943	78.268	84.141	177.516	-110.163	-86.862	143.949	145.898	0.00036528	0.00055548	0.00020196	700.04	4.5649e-06	6.2377e-06	758.4	272.17	6.241e-06	3.4363e-06	298.87	116.09	94.794	29.708	8.1415e-06	39.41	0.0016207	0.0015554	0.00045622	721.73	1.6551e-05	1.8758e-05	767.6	273.89	1.8615e-05	1.7027e-05	307.87	118.8	98.063	31.726	1.7558e-05	41.603	157.065	-125.590	-112.954	-126.124	-16.090	-46.509	-128.405	-119.817	127.955	181.164	-122.910	-118.795	-116.495	-109.740	54.617	-113.791	-8191	255	
2115.622	1	1	0	0	0.14563	0.2535	0.10606	0.051769	0.10632	0.18576	0.27721	0.29106	0.1768	0.067014	0.33683	0.15826	0.20874	0.17191	0.20775	0.22147	-2.5854	-3.2708	-2.5854	-3.2833	-3.2146	-2.8583	-3.4979	-2.9188	-2.775	-3.3896	-2.6917	-3.2938	-3.3187	-2.6875	-3.2083	-3.0979	-108.493	4.769	69.460	164.145	155.815	86.507	131.927	124.497	-87.262	113.192	-108.159	-43.587	137.934	100.030	-33.656	76.653	0.00049382	0.0009579	0.00010694	701.94	1.0389e-05	6.9063e-06	758.72	271.66	8.1871e-06	9.7779e-07	300.32	116.76	94.773	29.666	1.5516e-05	39.615	0.0016343	0.0015665	0.00044873	722.22	1.6614e-05	1.8356e-05	768.68	274.12	1.8611e-05	1.7179e-05	309.14	119.55	98.135	31.75	1.7699e-05	41.834	152.486	33.688	-53.819	-126.202	77.835	-2.043	-128.186	-120.079	-56.188	155.939	-122.989	-119.704	-116.571	-109.702	177.594	-113.650	-8191	255	
2115.718	1	1	0	0	0.085498	0.1807	0.12195	0.020671	0.3732	0.18877	0.16604	0.40272	0.15529	0.1087	0.24551	0.094494	0.13815	0.15453	0.078142	0.12797	-2.4625	-3.3563	-2.8042	-3.0938	-3.3292	-2.9437	-3.2646	-3.0708	-2.8854	-3.5854	-2.925	-2.9396	-3.1167	-2.7396	-3.2417	-3.0438	-85.771	-65.638	40.363	34.051	-63.574	73.170	6.554	154.010	-123.155	118.188	173.800	73.195	155.918	-106.248	-4.978	-81.357	0.00055964	0.00066849	0.00011995	699.02	1.0872e-05	1.5515e-06	768.12	271.77	1.6467e-05	4.111e-06	300.11	117.02	94.666	29.732	7.4545e-06	40.151	0.00162	0.0015771	0.00043765	722.03	1.6811e-05	1.7947e-05	771.61	273.7	1.8471e-05	1.7369e-05	307.88	120.14	98.192	31.669	1.7783e-05	42.339	128.303	3.724	-1.901	-126.207	-34.231	50.187	-128.201	-120.025	-90.580	-15.694	-123.039	-119.189	-116.461	-109.592	21.447	-113.663	-8191	255	
2115.814	1	1	0	0	0.20033	0.051396	0.16596	0.22689	0.34711	0.29854	0.070806	0.12378	0.069513	0.34676	0.24248	0.30371	0.018776	0.068026	0.11502	0.020255	-2.425	-3.2062	-2.9188	-3.2208	-3.3292	-2.625	-3.2854	-3.2979	-2.7062	-3.5187	-3.1521	-3.0312	-3.4542	-2.8167	-3.1937	-3.2438	81.107	144.332	13.030	202.864	116.341	-52.353	-74.858	161.224	182.057	-63.278	-113.290	205.340	90.614	-73.976	31.922	-111.402	0.00051133	0.00053567	0.00027204	700.07	5.5291e-06	1.0688e-05	767.78	270.62	1.0624e-05	4.5558e-06	298.08	116.76	94.699	29.532	7.6354e-06	39.705	0.0015947	0.0015893	0.00042748	721.51	1.6812e-05	1.7572e-05	773.87	273.52	1.8063e-05	1.7413e-05	306.84	119.54	97.898	31.45	1.7889e-05	41.681	140.244	218.152	201.426	-126.301	83.852	50.089	-128.210	-119.618	18.176	83.693	-123.028	-119.249	-116.502	-109.119	-93.079	-113.406	-8191	255	
2115.933	1	1	0	0	0.085338	0.16795	0.5072	0.17314	0.053324	0.040227	0.067565	0.11655	0.21068	0.16268	0.099572	0.23495	0.14467	0.069729	0.12966	0.13175	-2.2812	-3.275	-3.1229	-3.0396	-3.4	-2.7208	-3.2771	-3.3812	-2.6229	-3.2458	-3.0229	-3.0646	-3.3396	-2.8375	-3.0354	-3.3979	68.555	-103.258	90.520	-110.473	-55.783	-48.997	72.852	164.603	171.016	-26.237	24.243	174.738	185.704	203.374	164.659	151.070	0.00062361	0.0012196	0.00014665	696.77	4.7281e-06	2.2346e-06	759.42	270.05	1.1447e-05	4.356e-06	297.41	115.2	93.927	29.37	1.9853e-05	39.347	0.0015657	0.0015916	0.0004209	717.58	1.6715e-05	1.699e-05	767.17	272.09	1.7646e-05	1.7397e-05	305.28	118.39	97.417	31.244	1.7949e-05	41.305	158.818	-57.255	-62.894	-125.918	210.005	97.273	-128.094	-119.868	28.607	164.685	-122.744	-119.223	-116.305	-109.654	-131.116	-113.694	-8191	255	
2116.029	1	1	0	0	0.11678	0.07218	0.15477	0.14256	0.24993	0.1516	0.13754	0.22407	0.15365	0.19377	0.19145	0.10823	0.07749	0.015142	0.0648	0.1427	-2.2833	-3.6167	-3.0083	-2.7771	-3.2708	-2.6312	-3.1667	-3.4292	-2.7771	-3.3917	-3.2333	-2.8875	-3.5208	-2.9104	-2.7708	-3.3937	50.747	-23.144	-4.320	193.118	-14.728	145.237	203.221	194.030	-80.015	183.661	116.871	218.982	-38.597	-121.623	-25.348	205.675	0.00053716	0.00069386	1.0208e-05	690.42	7.6592e-06	1.2251e-05	757.12	269.71	8.836e-06	8.2232e-06	298.23	115.2	93.418	29.206	7.6538e-06	39.57	0.0015319	0.0016064	0.00041585	713.87	1.6904e-05	1.658e-05	765.82	271.56	1.7254e-05	1.7606e-05	305.72	118.38	97.148	31.035	1.8089e-05	41.54	149.592	-131.432	-6.600	-126.194	197.824	-42.418	-128.585	-120.096	-5.283	-24.391	-122.824	-119.227	-116.283	-109.622	-110.458	-113.522	-8191	255	
2116.125	1	1	0	0	0.1733	0.17636	0.077236	0.2271	0.22819	0.26958	0.12107	0.071131	0.24436	0.1849	0.07376	0.31528	0.11363	0.13445	0.15455	0.080813	-2.3792	-3.2667	-3.2229	-2.8208	-3.3604	-3.1083	-2.9188	-3.4333	-2.6271	-3.2083	-3.5	-2.8021	-3.5229	-2.8688	-2.8563	-3.5187	50.981	203.970	1.310	-103.341	-31.527	127.148	80.051	124.469	-117.836	217.711	210.230	143.044	168.438	139.688	127.743	173.621	0.00060002	0.00085507	0.00027749	691.14	4.0434e-06	8.9966e-07	757.74	270.65	1.5467e-05	9.1586e-06	299.07	115.06	94.461	29.43	3.4179e-06	39.864	0.0014937	0.0016156	0.00041426	712.3	1.7068e-05	1.6556e-05	768.62	271.48	1.6819e-05	1.8007e-05	306.59	118.72	97.759	31.137	1.8052e-05	41.86	161.165	-41.004	-42.545	-126.268	-114.202	-130.232	-128.210	-119.721	29.100	10.468	-122.745	-118.971	-116.405	-109.629	18.819	-113.180	-8191	255	
2116.221	1	1	0	0	0.094355	0.097212	0.098006	0.011531	0.19399	0.32852	0.019654	0.088167	0.072209	0.19249	0.37075	0.15483	0.28654	0.19898	0.15731	0.027803	-2.2354	-3.2646	-3.3729	-2.6521	-3.1521	-2.9625	-2.9437	-3.5604	-2.9958	-3.1	-3.1875	-2.7792	-3.2812	-3.1583	-2.9021	-3.5417	-126.625	-35.990	186.828	-73.836	-19.244	97.320	8.504	140.425	-103.205	183.485	113.138	-103.893	52.577	-124.579	-96.978	101.831	0.0005063	0.00081302	0.00036678	688.89	3.0878e-06	5.3857e-06	759.55	269.55	6.9278e-06	6.8423e-06	296.59	115.06	93.812	29.091	6.2027e-06	39.053	0.0014573	0.0016398	0.00041729	709.86	1.7181e-05	1.6399e-05	768.59	270.73	1.6483e-05	1.7942e-05	306.09	118.16	97.177	30.756	1.797e-05	41.319	165.921	-56.196	-104.950	-126.076	187.992	50.052	-127.865	-120.189	75.301	48.936	-122.700	-118.951	-116.666	-109.866	216.740	-113.823	-8191	255	
2116.317	1	1	0	0	0.30607	0.091848	0.21174	0.11894	0.075153	0.12869	0.080373	0.15213	0.067548	0.28414	0.10209	0.23769	0.14433	0.10755	0.0231	0.033704	-2.1688	-2.9958	-3.4042	-2.9146	-3.1479	-3.2938	-3.0187	-3.5438	-2.8375	-2.9458	-3.5812	-2.5021	-2.9688	-3.0563	-2.9562	-3.5312	-89.705	-134.720	-5.715	91.172	146.202	58.023	209.766	91.630	206.184	149.008	-81.275	82.351	-90.006	-117.721	125.866	198.725	0.00051336	0.00012516	0.00037955	689.87	8.2921e-06	3.6119e-06	758.44	268.96	2.4219e-06	2.3274e-06	296.03	114.47	93.761	28.944	8.1667e-06	39.017	0.0014465	0.0016611	0.00042119	708.55	1.7395e-05	1.6374e-05	765.61	270.37	1.6367e-05	1.8123e-05	304.71	117.31	97.254	30.623	1.7669e-05	41.165	131.766	-49.240	-23.141	-125.847	-85.130	-77.197	-127.753	-119.684	203.542	-104.800	-123.349	-119.034	-116.496	-109.636	26.810	-113.512	-8191	255	
2116.414	1	1	0	0	0.25633	0.24481	0.067357	0.14093	0.10803	0.099012	0.45905	0.21701	0.1724	0.19314	0.12866	0.031554	0.087384	0.15123	0.15496	0.35059	-2.6562	-2.7625	-3.3146	-2.7479	-3.3312	-3.0729	-2.8229	-3.5167	-3.15	-2.8708	-3.4083	-2.9479	-3.1813	-3.1833	-2.5938	-3.3854	-9.266	-102.430	-63.895	217.200	47.759	166.214	160.598	-92.429	70.940	218.539	-106.203	193.702	164.014	-122.131	37.026	214.883	0.00039412	0.00033555	0.000245	689.72	5.0299e-06	9.1956e-06	757.01	268.59	1.1125e-05	3.2751e-06	298.58	115.43	93.153	29.357	1.4586e-05	39.711	0.0014331	0.0016572	0.00042939	709.5	1.7738e-05	1.6511e-05	767.31	271.89	1.6211e-05	1.827e-05	307.36	118.08	97.747	31.078	1.7744e-05	41.928	159.907	-88.824	188.263	-125.540	-130.712	174.869	-127.972	-120.044	47.695	46.672	-122.698	-119.188	-116.535	-109.884	0.402	-113.399	-8191	255	
2116.510	1	1	0	0	0.12944	0.18729	0.09071	0.2245	0.15017	0.16187	0.22661	0.12925	0.044486	0.12456	0.058459	0.16308	0.050381	0.04009	0.14716	0.049517	-2.6875	-2.725	-3.2062	-2.8771	-3.0896	-3.375	-2.7458	-3.2396	-3.0021	-3.0062	-3.5792	-2.5729	-2.9354	-3.4729	-2.5812	-3.2458	-17.354	-69.979	115.892	161.123	-61.368	103.157	170.669	-95.949	-11.633	62.371	51.215	-118.087	144.822	5.745	162.627	159.839	0.00038552	0.00047151	0.00011799	691.47	3.7021e-06	8.5647e-06	759.05	267.96	7.5868e-06	1.1492e-05	298.39	115.68	93.085	29.106	1.1916e-05	39.945	0.0014338	0.0016577	0.00043966	707.65	1.8095e-05	1.6777e-05	767.24	272.21	1.645e-05	1.8377e-05	307.84	118.45	97.771	30.968	1.7508e-05	42.274	153.516	-76.267	51.134	-125.969	208.550	203.460	-127.998	-119.391	165.133	51.526	-122.160	-118.356	-116.089	-109.449	39.865	-112.868	-8191	255	
2116.629	1	1	0	0	0.1688	0.054274	0.25447	0.30606	0.082875	0.14887	0.15891	0.26355	0.11517	0.14243	0.30805	0.1426	0.05417	0.086441	0.12521	0.018027	-2.6521	-2.6146	-3.6	-2.8333	-2.9375	-3.3917	-2.8583	-3.3479	-2.9542	-2.8667	-3.6375	-2.9667	-2.9125	-3.2812	-2.6562	-3.0583	61.020	-125.960	-85.656	194.585	80.059	-85.929	115.103	190.406	38.710	3.691	218.996	-66.217	136.830	70.132	134.480	0.794	0.00043367	0.00018103	3.7246e-05	689.79	1.2829e-05	1.3089e-06	759.78	265.5	6.8912e-06	6.0399e-07	296.9	114.81	92.332	28.278	4.9693e-06	38.537	0.0014497	0.0016803	0.00044696	708.5	1.8384e-05	1.7072e-05	767.08	270.02	1.6618e-05	1.819e-05	306.94	117.61	96.507	30.399	1.7107e-05	41.371	161.051	100.093	119.868	-125.125	-93.221	112.168	-126.651	-118.917	220.861	-31.987	-121.793	-117.781	-115.538	-108.415	-21.494	-112.536	-8191	255	
2116.725	1	1	0	0	0.12292	0.27319	0.20173	0.26222	0.086652	0.25367	0.05581	0.097389	0.21927	0.16749	0.19012	0.092835	0.13193	0.19284	0.26771	0.20451	-3.1083	-2.7792	-3.3	-2.9062	-2.925	-3.4396	-2.9792	-2.8979	-3.2833	-2.7521	-3.2896	-3.0104	-2.6688	-3.4667	-2.975	-2.9229	85.562	104.937	3.007	143.411	-82.969	106.700	189.073	-131.999	32.606	-46.184	145.839	17.307	149.696	-116.635	-109.004	-16.548	0.0006233	0.0004962	0.00041859	689.84	1.443e-05	1.078e-05	755.8	263.23	9.1512e-06	1.601e-05	293.88	112.51	91.289	28.139	7.6808e-06	38.538	0.0014382	0.0016455	0.00045463	702.52	1.8551e-05	1.7284e-05	761.38	267.56	1.6471e-05	1.799e-05	304.45	115.68	95.704	30.125	1.7106e-05	41.095	158.224	94.193	-45.020	-125.419	-26.153	-99.257	-127.919	-120.102	-36.358	77.315	-122.878	-119.155	-116.475	-109.910	-115.406	-113.595	-8191	255	
2116.821	1	1	0	0	0.091374	0.043959	0.21854	0.36938	0.28799	0.14105	0.14584	0.047486	0.099097	0.059998	0.096617	0.065393	0.23521	0.16875	0.18292	0.21255	-2.9292	-2.7896	-3.1542	-3.0333	-2.7667	-3.5854	-2.8937	-3.0646	-3.4271	-2.7438	-3.1229	-3.3021	-2.5896	-3.4104	-2.9208	-2.8833	146.772	184.310	192.305	167.096	188.943	207.866	159.766	-115.168	19.857	-112.204	21.346	92.531	195.130	163.778	-103.660	-118.620	0.00041301	0.00046406	0.00028815	687.78	3.8016e-06	1.0536e-05	751.26	264.75	8.0791e-06	6.077e-06	295.64	114.34	91.821	28.157	5.7773e-06	39.164	0.0014691	0.001646	0.00045877	702.33	1.8463e-05	1.7758e-05	761.14	268.7	1.6955e-05	1.7998e-05	307.02	116.96	96.069	30.326	1.6971e-05	41.554	131.314	195.502	-58.576	-126.031	-67.078	21.321	-127.689	-119.867	-113.149	-95.910	-123.213	-118.880	-116.737	-109.709	-89.526	-113.976	-8191	255	
2116.894	1	1	0	0	0.22608	0.21939	0.18208	0.14221	0.14745	0.10275	0.076484	0.2499	0.16194	0.24165	0.2616	0.098546	0.079311	0.17996	0.045407	0.24256	-2.9083	-2.6583	-3.2542	-3.2792	-2.6146	-3.4875	-3.075	-2.9354	-3.2458	-2.7125	-3.1	-3.4354	-2.7792	-3.2646	-2.8042	-2.8292	163.513	158.646	172.632	-135.697	60.071	165.333	-108.883	174.863	-101.356	140.098	5.205	183.897	-124.724	132.370	80.605	189.299	0.00067889	0.00085526	0.00012378	684.07	4.8436e-06	5.9095e-06	759.41	265.35	3.9967e-06	7.6602e-06	294.45	114.78	92.005	28.649	5.607e-06	39.484	0.0015274	0.0016104	0.00046964	703.42	1.8426e-05	1.8213e-05	765.95	269.41	1.7314e-05	1.772e-05	308.28	117.64	96.265	30.665	1.691e-05	42.141	145.543	95.052	180.853	-125.930	-128.252	145.212	-128.061	-120.011	-83.075	19.000	-123.219	-119.024	-116.324	-110.092	-96.642	-113.577	-8191	255	
2117.013	1	1	0	0	0.20096	0.22221	0.41494	0.15975	0.083225	0.099879	0.10833	0.19367	0.17748	0.22522	0.22352	0.059005	0.09693	0.17837	0.35965	0.091856	-3.0979	-2.7208	-2.9792	-3.4688	-2.6396	-3.3125	-3.2479	-2.8125	-3.3563	-2.8312	-3.3208	-3.3208	-2.65	-3.2	-3.2354	-2.8167	-119.711	31.898	182.372	41.836	-83.125	-108.960	145.889	175.237	-112.538	-64.262	221.596	12.549	164.751	104.051	168.015	-81.580	0.00062393	0.00032036	0.0001962	690.85	1.1436e-05	1.0008e-05	770.43	265.03	8.1465e-06	5.5637e-06	297.88	115.45	91.872	28.657	1.1337e-05	39.156	0.0015438	0.0015867	0.00047909	707.79	1.7943e-05	1.8444e-05	772.35	270.21	1.7575e-05	1.7386e-05	309.83	118.33	96.227	30.742	1.6942e-05	41.737	157.195	-60.562	30.996	-126.099	-26.841	52.166	-128.059	-120.051	194.375	-11.713	-122.989	-119.240	-116.727	-110.110	-28.968	-113.815	-8191	255	
2117.109	1	1	0	0	0.09126	0.10606	0.14524	0.17314	0.097467	0.15344	0.1418	0.26261	0.2797	0.11651	0.048996	0.24155	0.074434	0.31045	0.20165	0.10098	-2.9604	-2.9	-2.9167	-3.3167	-2.7042	-3.3021	-3.4417	-2.9208	-3.1771	-3.0479	-2.9771	-3.375	-2.6271	-3.1125	-3.3042	-2.4708	170.690	42.626	30.528	-122.024	172.842	-41.096	171.715	-115.579	-36.672	87.453	-9.853	-127.254	-118.342	179.188	47.032	-17.519	0.00048036	0.00061451	2.9453e-05	692.14	7.3984e-07	3.1246e-06	767.09	265.94	6.8362e-06	1.0705e-05	295.95	114.27	92.739	28.489	9.6216e-06	38.946	0.0015644	0.0015964	0.00048436	708.71	1.7837e-05	1.8545e-05	769.09	269.5	1.8029e-05	1.7066e-05	308.28	117.47	96.198	30.61	1.6841e-05	41.461	109.885	-0.867	56.144	-126.376	-134.286	-17.161	-128.231	-119.724	-37.753	11.132	-123.161	-118.696	-117.064	-109.810	44.593	-113.901	-8191	255	
2117.205	1	1	0	0	0.090354	0.16792	0.16031	0.17352	0.041059	0.24432	0.064937	0.27752	0.073355	0.15478	0.10933	0.17145	0.21975	0.061085	0.15651	0.15035	-3.0896	-3.0979	-2.6542	-3.2854	-2.7771	-3.1063	-3.3729	-2.7833	-3.3479	-2.9583	-2.9521	-3.5	-2.7896	-3.1583	-3.5021	-2.95	-89.741	186.716	-21.034	212.490	149.486	-114.125	145.963	-104.280	37.104	145.102	-90.706	55.953	193.165	171.412	176.773	97.945	0.00054959	0.0013577	0.00015731	688.27	8.7992e-06	7.3617e-06	756.39	267.39	9.3272e-06	1.2972e-05	298.28	115.21	92.681	28.734	1.21e-06	39.588	0.0015766	0.0015528	0.00048278	710.45	1.7534e-05	1.9083e-05	767.16	271.24	1.8194e-05	1.7174e-05	310.1	118.23	96.469	30.94	1.7227e-05	41.948	156.677	-17.635	77.603	-126.206	179.749	-131.842	-127.801	-119.922	-97.931	1.268	-123.294	-119.078	-116.334	-109.872	54.828	-113.673	-8191	255	
2117.302	1	1	0	0	0.32222	0.14791	0.25791	0.22072	0.082124	0.31311	0.2045	0.19677	0.12426	0.1906	0.020072	0.096776	0.11099	0.19822	0.09199	0.096493	-2.9188	-2.9437	-2.7146	-3.3479	-2.6667	-3.1208	-3.4479	-2.5354	-3.2521	-3.1917	-3.025	-3.2875	-3.0542	-2.9958	-3.2875	-2.6458	4.259	39.127	160.945	100.015	173.287	191.480	155.715	218.508	29.521	-39.750	210.052	-77.105	190.881	141.284	52.912	29.386	0.00075731	0.00026012	0.00017612	691.48	6.2704e-06	4.5198e-06	759.26	266.76	4.1059e-06	2.5303e-06	299.46	116.59	92.952	29.056	7.4633e-06	39.79	0.0016107	0.0015614	0.00048499	712.98	1.72e-05	1.9114e-05	770.9	271.13	1.8515e-05	1.7095e-05	311.32	119.78	96.536	31.139	1.7493e-05	42.238	160.769	28.967	75.149	-125.924	-46.901	61.321	-128.147	-120.115	-26.225	-88.309	-123.008	-119.047	-116.604	-109.577	-14.202	-113.380	-8191	255	
2117.422	1	1	0	0	0.10337	0.073749	0.1483	0.2038	0.042375	0.32814	0.035921	0.099341	0.11448	0.14654	0.24251	0.072786	0.16933	0.059425	0.094966	0.071345	-2.8937	-3.4271	-2.7396	-3.3625	-2.7792	-3	-3.5771	-2.7646	-3.1021	-3.1792	-2.8167	-3.5687	-2.8104	-2.9917	-3.4229	-2.7229	184.896	173.072	-65.489	202.976	-89.522	15.909	66.049	211.033	-97.979	191.938	-112.150	102.051	196.070	180.795	138.541	-116.087	0.0006309	0.0011121	0.00021896	693.16	2.7583e-06	3.4009e-06	766.34	268.44	1.2314e-05	7.4862e-06	300.79	117.13	92.703	29.012	3.0082e-06	39.452	0.0016301	0.0015682	0.00047879	712.86	1.7013e-05	1.9253e-05	774.3	271.15	1.8781e-05	1.7181e-05	311.34	119.79	96.317	31.148	1.7757e-05	41.765	118.324	-32.463	-105.340	-126.020	104.824	1.867	-128.097	-119.880	-42.709	75.959	-122.921	-119.147	-116.875	-109.570	26.818	-113.513	-8191	255	
2117.494	1	1	0	0	0.23803	0.13217	0.10574	0.41809	0.2278	0.18937	0.33083	0.19294	0.23734	0.31256	0.26257	0.18586	0.068151	0.078736	0.25716	0.2064	-2.7208	-3.1708	-2.6167	-3.3396	-3.1833	-2.8125	-3.5917	-2.9437	-3.125	-3.1	-2.8042	-3.3187	-3.1917	-2.7938	-3.6083	-2.8979	-35.708	-31.540	-51.871	141.354	160.264	207.832	-136.832	136.446	-111.428	65.681	100.764	88.200	50.850	166.090	205.463	209.724	0.00036462	0.0010919	3.4969e-05	690.26	5.7496e-06	1.6769e-06	763.83	265.18	3.2813e-06	9.621e-06	299.35	115.47	92.731	28.559	9.3299e-06	39.421	0.0016468	0.0015611	0.000471	713.03	1.6849e-05	1.8994e-05	770.85	269.11	1.879e-05	1.7312e-05	308.75	118.42	96.082	30.728	1.7683e-05	41.275	143.113	-25.338	-73.282	-125.752	209.767	197.360	-128.005	-119.738	-33.819	-14.409	-122.878	-118.936	-116.729	-110.177	41.631	-113.304	-8191	255	
2117.615	1	1	0	0	0.11954	0.09686	0.14042	0.11911	0.23725	0.2375	0.075406	0.15213	0.35031	0.19272	0.018809	0.11773	0.16299	0.17561	0.14166	0.052082	-2.3667	-3.3729	-2.7146	-3.025	-3.2833	-2.7583	-3.3542	-2.9188	-2.9	-3.2646	-2.9938	-3.3333	-3.2896	-2.6708	-3.3833	-2.925	-61.395	-12.021	167.479	137.405	98.490	6.951	181.379	118.246	125.265	52.299	83.224	93.511	219.251	147.919	-35.683	-81.377	0.00044806	0.00092156	0.0002347	688.46	4.968e-06	1.7578e-06	759.47	265.87	6.3857e-06	2.8849e-06	298.46	115.79	92.561	28.933	4.1257e-06	39.66	0.0016506	0.0015816	0.00045881	713.24	1.6753e-05	1.8822e-05	770.12	269.74	1.8741e-05	1.7559e-05	308.43	118.87	96.255	30.906	1.7991e-05	41.65	151.710	-60.676	143.550	-125.876	182.928	-100.538	-127.873	-119.580	-29.286	14.702	-122.348	-118.762	-116.416	-109.368	23.224	-113.437	-8191	255	
2117.709	1	1	0	0	0.10572	0.19306	0.42282	0.19628	0.14574	0.11349	0.18508	0.34884	0.24899	0.25331	0.27429	0.038145	0.14485	0.22199	0.36964	0.12105	-2.6312	-3.1667	-2.4521	-3.2375	-3.2625	-2.7687	-3.1771	-2.9667	-2.6729	-3.4333	-2.7854	-3.0875	-3.1833	-2.6063	-3.3521	-3.1583	132.834	73.442	124.858	154.258	-59.235	-120.158	161.204	189.789	25.112	189.634	88.789	36.038	203.128	72.121	46.404	171.739	0.00037129	0.00050724	0.00028087	689.79	5.2166e-06	1.0404e-05	759.62	266.73	5.5016e-06	5.0644e-06	300.11	115.49	92.738	28.965	2.6669e-06	39.71	0.0016426	0.0016105	0.00044749	714.82	1.6913e-05	1.8669e-05	772.7	269.45	1.8803e-05	1.7779e-05	308.85	119.38	96.442	31.048	1.8296e-05	41.921	170.589	31.843	-44.680	-125.825	58.577	29.160	-128.186	-119.623	22.029	-116.288	-122.701	-118.860	-115.795	-109.500	176.344	-113.482	-8191	255	
2117.805	1	1	0	0	0.078509	0.16226	0.21598	0.31782	0.03693	0.049043	0.28897	0.044614	0.19779	0.17811	0.18925	0.10754	0.087493	0.20525	0.27949	0.14056	-2.3229	-3.1833	-2.575	-3.0021	-3.3479	-2.6312	-3.0854	-3.1833	-2.7417	-3.4292	-2.6417	-2.8688	-3.3458	-2.9458	-3.1833	-3.0812	58.615	48.936	-100.297	203.269	-109.054	15.161	119.669	-43.557	-96.767	189.458	202.411	178.111	-106.524	148.537	-136.505	136.056	0.00061196	8.7325e-05	0.00038257	691.44	6.8401e-06	1.051e-05	764.13	268.24	7.9347e-06	3.0915e-06	300.6	116.56	92.749	28.953	7.0549e-06	39.388	0.0016579	0.0016142	0.00044169	716.81	1.7175e-05	1.8432e-05	774.54	270.06	1.8774e-05	1.8027e-05	310.32	120.07	96.709	30.979	1.8495e-05	41.624	133.640	94.074	-52.071	-125.868	75.676	-27.819	-127.862	-119.556	93.099	-83.375	-122.526	-118.667	-116.032	-109.547	12.994	-113.179	-8191	255	
2117.903	1	1	0	0	0.29904	0.22911	0.099881	0.28278	0.16806	0.029462	0.091599	0.31989	0.19824	0.22393	0.077021	0.074508	0.077663	0.18368	0.11502	0.20335	-2.1229	-3.3021	-2.7562	-3.0292	-3.2146	-2.7062	-3.4042	-3.4542	-2.7708	-3.1479	-3.0167	-2.9917	-3.5979	-2.7812	-3.1875	-3.1333	137.200	13.519	-98.517	163.145	30.012	-11.911	176.432	-128.099	196.835	121.730	-22.094	212.853	-65.658	-48.911	-66.387	161.843	0.00045919	0.00077379	0.00031375	692.02	7.4548e-06	6.2541e-06	762.49	267.42	8.6043e-06	9.3902e-06	298.23	115.1	92.588	28.725	1.7657e-05	39.506	0.0016511	0.0016416	0.0004401	718.69	1.7644e-05	1.825e-05	773.99	269.92	1.8809e-05	1.8499e-05	307.42	118.74	96.483	30.744	1.8839e-05	41.507	156.034	-37.507	-35.281	-125.901	-28.227	98.587	-127.540	-119.623	3.802	31.463	-122.531	-118.103	-115.927	-109.056	104.341	-112.706	-8191	255	
2118.022	1	1	0	0	0.21991	0.20895	0.14444	0.13874	0.1925	0.04783	0.24239	0.32966	0.30441	0.22393	0.014012	0.097617	0.098773	0.11515	0.13867	0.099621	-2.1792	-3.2458	-3.175	-2.6833	-3.1146	-2.75	-3.0875	-3.4021	-3.0458	-3.4958	-3.0312	-2.6292	-3.4625	-2.6583	-3.0333	-3.3958	91.255	213.155	163.367	-62.286	160.182	203.315	168.693	207.576	143.334	-21.817	47.725	185.720	-73.396	-94.823	216.665	187.083	0.0006356	0.00025988	0.00015258	690.37	1.1882e-05	1.5213e-05	762.79	266.85	8.6554e-06	3.5099e-06	297.69	114.94	93.148	28.846	7.579e-06	39.476	0.0016433	0.0016712	0.00043604	716.51	1.7875e-05	1.7566e-05	773.21	269.7	1.828e-05	1.8519e-05	306.94	118.71	96.874	30.651	1.9038e-05	41.598	136.837	167.994	108.485	-125.230	-7.855	98.387	-127.215	-119.106	-14.298	-130.042	-122.929	-118.895	-116.462	-109.319	137.048	-113.379	-8191	255	
2118.118	1	1	0	0	0.082813	0.17041	0.21843	0.23675	0.14615	0.15219	0.30352	0.024488	0.0611	0.083559	0.32485	0.33428	0.24225	0.17561	0.13112	0.084606	-2.2042	-3.1854	-3.125	-2.7417	-3.225	-2.85	-3.0792	-3.5375	-2.5375	-3.3417	-3.2292	-2.5604	-3.4375	-2.8667	-2.9062	-3.5479	-128.117	136.969	85.320	-70.050	-4.311	48.549	163.468	192.960	162.310	-2.606	132.562	141.221	141.007	171.242	34.655	62.680	0.00035826	0.00014161	0.00012237	689.29	1.0348e-05	7.5556e-06	758.49	267.34	8.5264e-06	1.1611e-05	296.65	114.92	91.92	28.651	5.324e-06	39.626	0.0015961	0.0016922	0.00043092	714.93	1.7938e-05	1.7189e-05	772.99	269.76	1.7958e-05	1.8663e-05	306.72	118.67	96.314	30.47	1.8879e-05	42.008	163.734	167.334	65.677	-125.545	22.673	-16.428	-127.732	-119.357	18.771	108.207	-122.819	-118.913	-116.405	-109.596	-52.223	-113.121	-8191	255	
2118.190	1	1	0	0	0.24788	0.14837	0.24001	0.22812	0.2703	0.13793	0.32357	0.25396	0.29876	0.1195	0.16409	0.2285	0.10624	0.24332	0.14712	0.13387	-2.2375	-3.0146	-3.2188	-2.5333	-3.2812	-2.8917	-2.9333	-3.2604	-2.8625	-3.1417	-3.2771	-2.7562	-3.2479	-2.8854	-2.8729	-3.4083	-77.070	3.822	97.361	208.210	-0.716	17.459	171.244	216.739	-33.547	17.758	64.898	-124.734	69.361	-78.385	125.400	175.147	0.00018039	0.00061182	2.3068e-05	684.51	1.5803e-05	8.7247e-06	763.64	266.08	8.6415e-06	1.347e-05	299.06	116.01	91.666	28.368	9.0519e-06	39.122	0.0015522	0.0017064	0.00043454	711.97	1.8007e-05	1.721e-05	775.69	269.48	1.7515e-05	1.8772e-05	307.88	118.76	95.996	30.244	1.9036e-05	41.456	128.723	-95.679	77.547	-126.132	-10.348	-87.135	-127.260	-119.328	-92.025	26.842	-121.969	-118.262	-115.992	-108.699	83.033	-112.605	-8191	255	
2118.310	1	1	0	0	0.19359	0.047478	0.10399	0.085748	0.010032	0.19828	0.09385	0.10303	0.21246	0.31954	0.043363	0.2114	0.26793	0.18358	0.20728	0.094211	-2.3458	-3.0792	-3.2292	-2.8646	-3.0146	-3.1604	-2.8292	-3.3625	-2.7562	-3.0375	-3.3646	-2.6813	-3.0979	-3.0896	-2.7729	-3.3542	162.925	-61.801	58.762	-119.602	29.495	84.435	-26.792	187.602	13.001	201.396	-106.299	-133.626	120.658	109.015	-76.925	103.548	0.00040449	0.00096291	0.00010541	687.1	6.1162e-06	7.5926e-06	752.98	261.74	2.927e-06	5.5269e-06	293.44	112.82	91.043	27.889	3.878e-06	38.406	0.0015251	0.0017326	0.00044074	710.41	1.8282e-05	1.7015e-05	768.81	267.38	1.7081e-05	1.8954e-05	304.29	116.43	95.292	29.88	1.886e-05	40.817	156.596	10.138	113.188	-125.591	-26.720	83.628	-127.547	-119.485	75.375	17.522	-122.482	-118.345	-115.799	-109.623	41.162	-112.835	-8191	255	
2118.406	1	1	0	0	0.088909	0.047129	0.17252	0.041048	0.26001	0.22068	0.25965	0.27823	0.11641	0.069155	0.10193	0.14593	0.065966	0.14043	0.089671	0.28765	-2.4188	-2.7271	-3.3917	-2.7687	-3.125	-3.0938	-2.8958	-3.5708	-2.9333	-2.9292	-3.3792	-2.6792	-3.1333	-3.2271	-2.6333	-3.325	167.557	49.282	73.948	-79.011	-12.847	47.748	146.672	101.486	131.029	115.873	-124.317	42.560	-127.817	210.228	180.512	-134.233	0.0003278	0.0013727	0.00039294	684.77	6.5328e-06	5.3184e-06	752.63	263.36	7.5396e-06	6.8597e-06	294.25	111.74	90.981	28.05	1.0748e-05	38.872	0.0015021	0.0017255	0.00044734	708.37	1.8507e-05	1.7215e-05	767.81	267.46	1.7055e-05	1.9018e-05	305.66	116.33	95.374	29.983	1.8728e-05	41.203	159.395	59.828	-94.927	-125.995	195.799	-113.148	-128.035	-119.299	96.772	55.775	-122.528	-118.485	-115.957	-109.351	39.402	-113.599	-8191	255	
2118.503	1	1	0	0	0.022416	0.18758	0.083624	0.16597	0.13815	0.13462	0.2888	0.099745	0.17466	0.21494	0.048346	0.22532	0.083185	0.057851	0.22522	0.20446	-2.5271	-2.9208	-3.3833	-2.6229	-3.1208	-3.3542	-2.8354	-3.3104	-3.0125	-2.7771	-3.2104	-2.5896	-3.0125	-3.4938	-2.6292	-3.1813	-84.157	-123.530	74.606	116.933	-90.165	-82.557	-48.838	116.729	26.712	-59.884	113.505	-107.677	150.447	103.036	75.769	99.829	0.00029664	0.00054319	7.1838e-05	682.27	8.8245e-06	7.3616e-06	755.79	261.78	1.227e-05	6.2119e-06	294.77	113.83	90.26	27.964	1.2717e-05	39.517	0.0014833	0.0017583	0.00045291	706.33	1.8737e-05	1.7328e-05	768.85	267.27	1.6646e-05	1.9297e-05	306.14	117.12	95.375	30.084	1.8326e-05	41.803	143.713	68.098	-86.469	-125.905	-34.053	9.892	-128.299	-119.888	-2.317	-60.995	-122.915	-119.071	-116.717	-109.822	73.286	-114.009	-8191	255	
2118.599	1	1	0	0	0.085624	0.10673	0.19388	0.14379	0.11118	0.287	0.30753	0.31391	0.091256	0.11556	0.10285	0.19119	0.27824	0.099348	0.11991	0.1084	-2.8292	-2.7333	-3.2854	-2.8729	-3.0521	-3.2313	-2.7333	-3.3229	-3.1583	-2.8375	-3.2417	-2.9146	-3.0604	-3.4583	-2.7229	-3.1188	-11.373	128.947	10.577	185.246	143.389	-59.122	156.888	93.479	65.509	116.055	-87.315	-70.504	160.754	176.526	-93.460	107.111	0.00050881	0.00084032	0.00023872	682.29	9.08e-06	1.5823e-05	759.5	263.23	4.891e-06	1.1704e-05	295.98	114.79	90.434	28.302	5.3445e-06	39.243	0.001477	0.0017607	0.00045836	704.52	1.876e-05	1.7571e-05	771.19	267.64	1.7033e-05	1.9033e-05	308.06	117.7	95.656	30.271	1.7946e-05	41.687	141.507	-52.462	130.421	-126.263	15.290	21.780	-127.624	-119.938	-52.717	-8.996	-123.350	-118.698	-117.074	-109.777	13.331	-113.596	-8191	255	
2118.718	1	1	0	0	0.15403	0.10266	0.18837	0.14866	0.10722	0.073467	0.20394	0.1511	0.11662	0.11109	0.069163	0.32809	0.12464	0.17841	0.068729	0.11003	-2.7583	-2.65	-3.125	-2.9729	-2.8104	-3.3229	-2.65	-3.2458	-3.3875	-2.6521	-3.25	-2.8438	-2.975	-3.3896	-2.8396	-2.9313	-98.378	-26.026	106.943	146.649	-96.012	179.172	200.141	161.795	185.190	-119.405	-120.621	-129.032	-131.045	136.326	87.760	-56.959	0.00089399	0.00060565	0.00018436	686.17	1.3369e-05	1.0849e-05	759.04	263.03	4.5101e-06	1.2925e-05	291.32	112.09	90.246	27.977	3.0418e-06	38.524	0.0014897	0.0017158	0.0004684	705.71	1.8933e-05	1.7909e-05	768.9	267.48	1.7285e-05	1.8824e-05	304.86	115.57	95.307	29.993	1.7513e-05	40.961	150.539	-107.790	-10.372	-126.131	-35.498	-68.794	-128.402	-120.257	154.971	48.102	-123.054	-119.244	-116.672	-109.596	117.596	-113.784	-8191	255	
2118.791	1	1	0	0	0.29929	0.26883	0.1302	0.11761	0.20933	0.087429	0.1192	0.27656	0.22085	0.05885	0.12357	0.066331	0.08343	0.046888	0.32424	0.1797	-2.8563	-2.6083	-3.2229	-3.1354	-2.8104	-3.3625	-2.9646	-2.9417	-3.0667	-2.7875	-3.1625	-3.325	-2.5979	-3.4021	-2.8646	-3.0021	40.089	52.065	193.566	-119.755	24.530	66.857	-129.026	163.227	129.465	181.228	167.580	-104.448	113.374	5.916	-50.244	192.417	0.00063871	0.00092618	0.00013281	687.04	4.8866e-06	4.274e-06	758.06	264.21	3.8121e-06	6.1181e-06	293.83	113.24	91.548	28.121	1.0984e-05	38.799	0.0015177	0.0016911	0.00046536	706.89	1.8887e-05	1.7961e-05	766.27	268.35	1.7336e-05	1.8325e-05	306.65	116.33	96.151	30.371	1.709e-05	41.567	127.238	-18.842	119.859	-125.820	-38.881	-70.041	-128.233	-120.200	-123.664	30.572	-123.295	-118.853	-116.782	-109.259	-91.308	-113.840	-8191	255	
2118.885	1	1	0	0	0.025543	0.11216	0.34981	0.14973	0.3558	0.20407	0.070696	0.22752	0.23548	0.16724	0.060688	0.14883	0.38577	0.062496	0.15586	0.15853	-2.7833	-2.6125	-3.1292	-3.1125	-2.5896	-3.3937	-3.0687	-2.8604	-3.3563	-2.8521	-3.2812	-3.2188	-2.8146	-3.4938	-2.9	-2.8125	-2.892	0.369	57.355	54.880	213.379	177.791	113.128	213.139	215.930	-35.634	180.213	43.743	-77.889	-11.789	71.009	127.693	0.00076323	0.00014333	0.00010645	688.81	3.3203e-06	1.054e-05	762.43	261.38	1.5049e-05	8.1697e-06	297.93	114.48	91.552	28.463	5.4727e-06	39.631	0.0015483	0.0016638	0.00046992	708.08	1.8797e-05	1.8152e-05	768.88	268.87	1.7707e-05	1.8011e-05	308.67	117.64	96.348	30.779	1.7195e-05	42.23	164.580	-16.960	-131.275	-126.008	179.411	-28.855	-128.271	-120.125	-34.999	-25.702	-123.160	-118.723	-116.164	-109.490	55.330	-113.475	-8191	255	
2118.983	1	1	0	0	0.22793	0.13613	0.10553	0.24851	0.16334	0.21421	0.172	0.19207	0.11571	0.16883	0.14309	0.16968	0.044614	0.12366	0.34004	0.19692	-3	-2.6542	-3.2292	-3.2229	-2.55	-3.3771	-3.05	-2.6167	-3.2333	-2.7833	-3.0104	-3.4188	-2.6979	-3.2333	-3.1542	-2.8396	197.557	157.426	111.184	147.388	209.164	42.073	184.886	178.808	131.098	145.780	-137.558	92.391	-10.692	-68.407	36.316	217.624	0.00052962	0.0010999	0.00013423	690.03	1.5387e-05	4.3464e-06	766.72	266.77	1.4434e-05	3.3599e-06	300.02	115.82	92.87	28.885	2.7786e-06	40.119	0.0015753	0.0016386	0.0004799	713.07	1.869e-05	1.8709e-05	771.99	271.72	1.8138e-05	1.792e-05	311.3	118.71	97.139	31.09	1.731e-05	42.609	147.328	-41.143	-48.174	-126.105	-0.750	-67.468	-128.236	-119.980	14.410	-18.479	-122.721	-118.828	-116.520	-109.513	-47.494	-113.853	-8191	255	
2119.102	1	1	0	0	0.1665	0.20279	0.063691	0.024082	0.17198	0.14708	0.22579	0.17439	0.087334	0.022157	0.13091	0.32487	0.19767	0.13229	0.039208	0.16302	-2.9521	-2.8375	-2.9771	-3.3563	-2.6646	-3.1708	-3.1604	-2.6896	-3.1792	-2.9458	-3.0229	-3.2875	-2.6771	-3.0417	-3.0021	-2.6229	142.934	25.746	-47.107	-3.768	-126.512	108.633	73.561	181.085	31.782	64.679	174.861	205.868	-118.957	210.127	-34.507	195.773	0.00046406	0.0005282	0.00016292	693.76	2.4486e-06	2.7397e-06	761.03	266.07	1.3663e-05	1.0931e-05	293.2	113.08	92.328	28.402	7.9693e-06	38.388	0.0016073	0.0016221	0.00049263	716.34	1.8559e-05	1.892e-05	768.26	271.66	1.8371e-05	1.7769e-05	309.2	117.09	96.675	30.862	1.7771e-05	41.466	157.972	-65.628	39.170	-125.996	-54.564	-17.554	-127.692	-119.968	-65.610	32.596	-122.981	-118.535	-116.285	-109.872	153.626	-113.942	-8191	255	
2119.198	1	1	0	0	0.028477	0.081402	0.13464	0.22067	0.18547	0.13286	0.059155	0.19094	0.14104	0.20137	0.25745	0.21376	0.37947	0.25644	0.097209	0.1261	-2.9375	-2.9604	-2.9083	-3.4542	-2.6479	-3.2	-3.0958	-2.9042	-3.2229	-2.8104	-2.8792	-3.4354	-2.5146	-3.05	-3.25	-2.4813	89.634	98.701	157.173	114.542	-42.182	188.166	101.643	162.537	-50.607	102.801	208.107	207.080	-58.525	-131.896	-35.224	-116.928	0.00058018	0.00041078	0.00011105	702.37	3.7201e-06	1.0307e-05	760.99	267.19	6.2285e-06	3.7734e-06	295.22	114.98	92.781	28.7	1.6315e-05	38.947	0.0016322	0.0016346	0.00050956	721.49	1.8529e-05	1.9339e-05	768.85	272.08	1.8806e-05	1.7898e-05	310.11	117.84	96.999	31.071	1.8157e-05	41.738	157.100	18.118	189.058	-125.854	0.494	-71.672	-128.444	-119.750	-49.844	-78.782	-123.071	-118.941	-116.513	-109.402	74.389	-113.962	-8191	255	
2119.295	1	1	0	0	0.13787	0.21935	0.12059	0.186	0.1917	0.067609	0.045866	0.12097	0.24214	0.28786	0.23535	0.22491	0.17887	0.10339	0.21227	0.011323	-2.85	-3.0104	-2.775	-3.2542	-2.7333	-3.0167	-3.4396	-2.8833	-3.2292	-3.0271	-2.8021	-3.5187	-3.0042	-2.9875	-3.2042	-2.5875	48.894	164.632	-24.925	99.894	-65.417	213.388	81.859	-86.497	-75.092	195.723	193.582	49.403	148.455	-108.747	119.570	134.144	0.00051289	0.00090876	9.5769e-05	702.69	2.005e-05	1.0397e-05	762.68	268.54	1.1367e-05	6.2967e-06	297.41	114.39	93.113	29.001	3.7797e-06	39.242	0.0016491	0.0016129	0.00050657	724.34	1.8296e-05	1.9733e-05	772.34	273.07	1.9093e-05	1.7922e-05	311.45	118.25	97.271	31.349	1.8388e-05	42.14	130.385	45.782	109.140	-125.959	-34.454	25.209	-128.098	-119.801	26.101	210.124	-122.946	-118.858	-116.514	-109.815	98.310	-113.941	-8191	255	
2119.391	1	1	0	0	0.050918	0.24127	0.10819	0.14135	0.22085	0.20068	0.28678	0.2627	0.22018	0.064017	0.15077	0.26976	0.11272	0.34453	0.18182	0.093034	-2.925	-3.0333	-2.7521	-3.4333	-2.625	-2.8333	-3.4083	-2.9354	-3.175	-3.0812	-2.625	-3.2958	-2.9458	-2.9958	-3.325	-2.7375	-78.473	7.823	211.269	187.021	6.047	-81.449	151.786	165.916	-0.046	-66.565	182.718	-35.568	109.903	191.310	-37.518	180.413	0.00056594	0.00059083	0.00035908	702.14	1.1777e-05	1.4273e-05	760.99	270.94	8.8449e-06	4.5843e-06	298.25	114.82	92.715	29.129	2.7477e-06	39.588	0.0016908	0.0016747	0.00051542	728.59	1.8304e-05	2.0184e-05	772.45	275.18	1.979e-05	1.8676e-05	313.83	119.14	97.434	31.487	1.9e-05	42.212	137.818	-81.377	-38.408	-126.153	-105.173	8.306	-128.449	-119.595	-45.655	104.812	-122.958	-119.060	-116.411	-109.405	194.137	-113.832	-8191	255	
2119.487	1	1	0	0	0.053612	0.29507	0.20516	0.31164	0.16542	0.29498	0.22336	0.2703	0.065795	0.20911	0.3272	0.19031	0.22607	0.20494	0.11691	0.32285	-2.6271	-3.1312	-2.6604	-3.3146	-2.9875	-2.5792	-3.2938	-2.6562	-3.0875	-3.2979	-2.7938	-3.1813	-2.9729	-2.7812	-3.2812	-2.9208	37.581	-52.274	-100.591	-133.665	207.637	29.143	129.138	182.486	-103.131	203.833	209.564	-27.772	-116.835	-89.887	-91.030	142.298	0.00060948	0.00064048	0.00019516	699.83	5.7053e-06	1.0183e-05	752.02	269.62	1.2943e-05	2.3731e-06	296.71	113.12	91.929	28.415	6.4426e-06	38.142	0.0017391	0.0017031	0.00051278	727.44	1.8179e-05	2.0668e-05	766.46	274.48	2.0009e-05	1.885e-05	311.39	117.28	96.506	30.948	1.9287e-05	40.703	160.713	170.983	147.171	-126.072	-13.384	96.017	-128.265	-119.818	-69.222	-9.100	-123.396	-119.564	-116.412	-109.609	112.628	-113.662	-8191	255	
2119.583	1	1	0	0	0.14924	0.14643	0.24654	0.083091	0.17208	0.1896	0.19748	0.19143	0.36312	0.088155	0.23677	0.11966	0.26915	0.21115	0.069769	0.14096	-2.8	-3.0729	-2.4875	-3.2479	-3.0833	-2.8187	-3.3333	-2.7333	-2.8187	-3.1875	-2.7771	-3.3875	-3.0938	-2.6	-3.1937	-2.7625	111.554	-98.237	50.464	207.118	112.574	137.599	191.124	-100.261	-59.161	153.096	-123.624	-114.900	163.145	176.437	25.932	148.607	0.00071064	0.00082253	0.0003472	705.45	3.3017e-06	3.3727e-06	746.37	272.41	5.2866e-06	8.4121e-06	299.41	112.75	92.294	28.709	1.7362e-05	38.472	0.0017491	0.0017059	0.00050282	730.55	1.8078e-05	2.0593e-05	761.25	275.84	1.9982e-05	1.8795e-05	311.7	117.4	96.705	31.221	1.9312e-05	41.034	130.072	217.351	-45.799	-126.415	54.836	-82.171	-128.413	-120.068	-85.037	65.412	-123.497	-119.357	-116.385	-109.811	76.241	-113.812	-8191	255	
2119.704	1	1	0	0	0.087228	0.13202	0.045049	0.14935	0.30495	0.11757	0.22543	0.26819	0.19482	0.16024	0.14525	0.13605	0.030097	0.077414	0.14304	0.15226	-2.2687	-3.3479	-2.8292	-3.0604	-2.9417	-2.5917	-3.4917	-2.9875	-2.7521	-3.225	-2.6542	-3.2	-3.1604	-2.5563	-3.3937	-3.0563	17.921	38.010	-72.786	157.908	-87.652	218.080	-133.298	-131.354	46.189	-58.239	181.256	-136.377	216.148	2.359	88.713	-102.898	0.00046855	0.00050076	0.00029024	708.62	9.325e-06	1.4098e-05	745.23	275.39	6.4795e-06	8.0305e-06	302.01	114.41	93.838	28.863	1.0932e-05	38.902	0.0017788	0.0017493	0.00049514	737.16	1.8558e-05	2.0294e-05	763.4	279.11	2.0381e-05	1.9154e-05	315.19	119.02	98.131	31.46	1.9714e-05	41.555	154.264	154.561	-4.507	-126.835	-8.913	22.154	-128.206	-119.911	10.067	-10.695	-123.517	-118.971	-116.316	-109.544	-39.477	-113.605	-8191	255	
2119.798	1	1	0	0	0.12756	0.082303	0.19071	0.2726	0.14896	0.24657	0.19196	0.18852	0.086582	0.11504	0.093119	0.14157	0.025763	0.11375	0.16906	0.044075	-2.4958	-3.3083	-2.6375	-3.0042	-3.2208	-2.7729	-3.5271	-2.9792	-2.5521	-3.4	-2.8417	-3.025	-3.3792	-2.5542	-3.0771	-3.0375	156.720	-63.513	-108.836	-71.232	172.521	166.634	5.804	25.587	-94.587	-89.685	187.371	-15.310	30.381	66.956	156.694	-120.470	0.0005328	0.0013371	0.00027458	713.66	1.3103e-06	6.1736e-06	749.05	278.19	4.5375e-06	9.6083e-06	304.14	115.31	95.223	29.544	9.5043e-06	39.191	0.001799	0.0017773	0.00049247	742.42	1.9044e-05	2.057e-05	765.89	281.69	2.1155e-05	2.0068e-05	316.31	120.38	99.802	32.108	2.0435e-05	41.936	153.863	-2.586	1.064	-126.464	66.404	2.614	-127.726	-119.681	32.235	-107.006	-122.936	-118.865	-116.137	-109.658	2.441	-113.065	-8191	255	
2119.894	1	1	0	0	0.081252	0.10921	0.21011	0.14115	0.07305	0.15012	0.16384	0.091604	0.15284	0.033091	0.20539	0.086763	0.18739	0.11241	0.12774	0.27072	-2.3167	-3.4333	-3.0062	-2.9333	-3.2896	-2.7792	-3.1771	-3.0792	-2.7792	-3.4062	-2.9771	-3.0771	-3.3229	-2.6396	-3.1729	-3.1813	75.269	-91.699	199.757	-49.851	45.654	145.455	139.356	184.799	-99.403	160.705	171.919	62.513	84.255	-79.677	39.250	158.357	0.00034551	0.00039769	0.00017244	708.34	3.649e-06	1.0704e-05	733.52	277.11	2.3858e-06	9.2477e-06	295.29	110.79	93.774	28.936	2.4022e-06	37.117	0.0018647	0.0018485	0.00050186	743.74	1.9975e-05	2.0894e-05	755.47	281.38	2.1912e-05	2.1194e-05	309.98	117	99.285	31.724	2.159e-05	40.452	150.931	-38.057	-38.062	-126.342	-76.751	52.314	-127.766	-119.880	63.151	115.967	-122.826	-118.805	-116.292	-109.400	159.161	-113.417	-8191	255	
2120.015	1	1	0	0	0.04388	0.25888	0.1024	0.027471	0.28152	0.43374	0.067525	0.28987	0.16212	0.19292	0.20275	0.084922	0.32219	0.069245	0.29504	0.21312	-2.275	-3.1729	-2.8396	-2.9854	-3.4208	-2.6875	-3.0542	-3.3333	-2.6292	-3.1667	-3.0667	-2.9083	-3.3229	-2.9146	-2.8917	-3.075	68.136	123.145	96.014	-124.750	-104.934	111.145	-108.712	29.799	210.365	183.622	-18.096	126.518	-66.080	-133.230	-88.029	206.177	0.00049686	0.0014011	9.0822e-05	704.74	3.1937e-06	5.9581e-06	714.59	273.62	2.3076e-05	7.6173e-06	289.55	108.04	92.551	28.838	9.5901e-06	36.507	0.0019339	0.0019516	0.00052088	740.79	2.1041e-05	2.1469e-05	738.13	279.86	2.2267e-05	2.223e-05	305.7	114.75	98.66	31.516	2.3351e-05	39.954	114.873	34.943	57.749	-126.253	203.279	2.500	-127.739	-119.371	-90.944	-70.085	-123.188	-118.859	-115.975	-109.080	48.540	-113.419	-8191	255	
2120.086	1	1	0	0	0.27864	0.10039	0.031466	0.087394	0.097671	0.3065	0.20909	0.020131	0.077309	0.12574	0.18448	0.0074233	0.17744	0.024888	0.28939	0.097706	-2.0604	-3.3729	-2.9354	-2.6708	-3.4167	-2.7854	-2.9542	-3.3625	-2.8	-3.2042	-2.9771	-2.6208	-3.1708	-2.7854	-2.9646	-3.2875	-128.589	60.012	123.359	219.925	83.760	168.117	-128.180	-59.972	87.234	37.168	207.504	47.096	-113.126	-121.008	-91.297	136.707	0.00037973	0.00013692	0.0002205	693.92	1.1166e-05	7.69e-06	695.27	270.56	1.0309e-05	4.044e-06	282.69	105.78	90.709	28.246	1.5339e-05	35.362	0.0020222	0.0021017	0.00055476	736.28	2.2875e-05	2.2689e-05	729.14	278.53	2.4371e-05	2.4774e-05	304.07	113.9	98.526	31.518	2.688e-05	39.792	134.383	173.377	-28.176	-125.772	48.609	-3.587	-127.995	-119.596	-131.845	198.695	-122.425	-118.673	-116.204	-108.625	45.703	-112.381	-8191	255	
2120.183	1	1	0	0	0.11709	0.23763	0.034762	0.092005	0.098105	0.049845	0.072473	0.0024646	0.19527	0.095302	0.22627	0.13358	0.18264	0.12744	0.19818	0.46653	-2.0917	-2.9167	-3.2667	-2.5771	-3.2208	-2.8292	-2.95	-3.2354	-2.7396	-3.3063	-3.3979	-2.7771	-3.3063	-2.9042	-2.8937	-3.3417	-0.354	-76.964	13.463	180.401	-79.614	165.321	21.610	180.000	21.747	-1.900	166.256	79.482	117.844	-113.899	-31.042	177.104	0.00029895	0.0006782	0.00010691	684.73	4.0277e-06	1.009e-05	683.22	263.19	1.8712e-06	6.7603e-06	275.55	103.21	89.844	27.88	1.7664e-05	35.209	0.0022658	0.0024172	0.00064701	739.35	2.6394e-05	2.5792e-05	723.92	276.41	2.7124e-05	2.8571e-05	302.33	113.43	99.061	31.713	2.9527e-05	40.01	166.527	131.985	220.237	-126.169	-72.428	-81.722	-127.766	-119.380	81.583	-66.990	-122.205	-118.367	-115.827	-108.570	2.907	-112.879	-8191	255	
2120.279	1	1	0	0	0.24301	0.1116	0.12397	0.20967	0.076328	0.10111	0.056709	0.13046	0.23452	0.098214	0.1961	0.13866	0.17686	0.29337	0.022283	0.030203	-2.1312	-2.8375	-3.2687	-2.7458	-3.1667	-3.0312	-2.6937	-3.5187	-2.8146	-2.9062	-3.3458	-2.8312	-3.075	-2.8875	-2.725	-3.1063	16.922	-0.404	-19.546	79.896	215.392	17.219	43.092	168.761	115.537	-28.878	-84.052	178.512	-86.295	193.112	-93.607	-75.839	0.00028325	0.00011673	0.00011425	679.25	1.5477e-05	1.7524e-06	662.11	261.97	7.694e-06	1.5149e-05	269.86	99.762	88.488	27.63	7.7808e-06	33.715	0.002369	0.0026159	0.00068562	737.99	2.7555e-05	2.6379e-05	707.38	274.61	2.6364e-05	2.8346e-05	295.41	109.45	97.582	31.324	2.8182e-05	38.595	210.053	180.640	-23.676	-125.749	21.317	166.607	-127.087	-119.206	-30.080	-95.555	-121.907	-118.076	-115.313	-108.297	75.434	-112.725	-8191	255	
2120.399	1	1	0	0	0.2461	0.135	0.16888	0.074247	0.14724	0.10279	0.17358	0.22932	0.18644	0.30773	0.17306	0.22837	0.059698	0.046958	0.20009	0.15978	-2.3625	-2.7542	-3.2021	-2.7375	-3.0667	-2.8229	-2.725	-3.4313	-2.7687	-2.8292	-3.3375	-2.6583	-3.25	-3	-2.6542	-3.2917	161.371	219.696	89.578	195.101	-66.924	-58.842	91.561	109.029	-12.064	-61.096	194.577	167.698	176.453	70.027	-106.451	220.347	0.00014354	0.00020975	0.00021029	673.94	8.0627e-06	1.1032e-05	644.68	260.54	7.314e-06	7.6138e-06	266.57	99.121	88.963	27.839	1.4298e-05	33.381	0.0022379	0.0025588	0.00065899	728.92	2.6948e-05	2.5862e-05	691.2	273.09	2.5689e-05	2.8516e-05	293.21	108.65	98.401	31.611	2.8919e-05	38.559	94.346	172.284	-80.628	-124.920	106.291	27.731	-127.212	-118.818	26.442	-130.857	-122.370	-117.782	-115.924	-108.660	-10.620	-112.342	-8191	255	
2120.496	1	1	0	0	0.12834	0.24889	0.12201	0.18378	0.18683	0.14249	0.20184	0.29891	0.19403	0.10877	0.32481	0.24141	0.1217	0.17633	0.083767	0.11871	-2.5687	-2.7375	-3.3667	-2.65	-3.0479	-3.2833	-2.9083	-3.2771	-2.7021	-2.6979	-3.2562	-2.8104	-3.1146	-3.3458	-2.7687	-3.5375	124.762	13.008	-89.636	-136.211	83.072	-71.426	-89.092	118.062	-97.403	-28.898	166.577	170.309	191.615	135.226	175.016	-105.143	0.00053129	6.8885e-05	0.00020132	667.11	6.1517e-06	2.5927e-06	641.1	257.34	4.261e-06	5.4305e-06	260.66	97.741	88.455	27.935	1.3984e-05	33.19	0.0023194	0.0027178	0.00071331	727.8	2.9567e-05	2.8157e-05	692.72	272.9	2.8479e-05	3.172e-05	293.91	108.94	99.274	32.116	3.1718e-05	39.167	156.501	185.786	-28.570	-125.386	130.696	94.467	-127.034	-119.244	153.486	65.833	-122.160	-118.246	-115.866	-109.585	-96.713	-112.660	-8191	255	
2120.592	1	1	0	0	0.45321	0.28139	0.22477	0.22483	0.20426	0.14604	0.2221	0.16987	0.32182	0.060408	0.11342	0.067879	0.1362	0.16833	0.081985	0.15398	-2.5792	-2.8167	-3.4146	-2.7583	-2.8937	-3.2667	-2.6771	-3.2396	-3.0292	-2.6292	-3.4417	-2.85	-3.0646	-3.3333	-2.5417	-3.1229	118.506	22.321	20.809	181.377	-16.393	67.413	102.634	197.113	57.423	-80.587	166.073	144.286	159.731	83.530	85.074	-72.949	0.00041123	0.00052283	0.00034187	666.65	2.6747e-06	7.5352e-06	638.22	258.18	9.7469e-06	2.9699e-06	263.91	99.467	89.252	27.974	1.8175e-05	33.74	0.0025776	0.0029766	0.00078225	731.79	3.1939e-05	3.0439e-05	693.9	274.79	2.9247e-05	3.2046e-05	296.81	109.86	100.02	32.442	3.0458e-05	39.738	149.164	75.153	-75.174	-126.329	7.548	179.007	-128.034	-119.489	43.314	66.568	-122.305	-118.772	-116.099	-109.130	24.373	-112.666	-8191	255	
2120.663	1	1	0	0	0.31506	0.22304	0.036859	0.19073	0.11979	0.12463	0.044537	0.35087	0.15762	0.10167	0.037056	0.12552	0.16744	0.09658	0.25638	0.16247	-2.6208	-2.5896	-3.2542	-3.0167	-2.8646	-3.2083	-2.7229	-3.075	-3.2771	-2.6292	-3.475	-2.8854	-2.8083	-3.3333	-2.7521	-3.1833	-86.229	-14.218	-115.965	-83.486	5.705	-11.885	98.985	-128.500	106.988	-70.429	161.577	141.902	-79.560	-17.126	134.782	-74.582	0.00038922	0.00085156	0.00037519	666.4	1.1583e-05	1.4067e-05	639.04	257.96	5.4428e-06	8.0561e-06	258.91	98.46	87.41	27.515	1.6007e-05	32.921	0.0025547	0.0029208	0.00077884	727.56	3.184e-05	3.0322e-05	689.05	273.72	2.9326e-05	3.1792e-05	292.66	108.08	98.876	31.956	2.9953e-05	38.797	149.570	19.594	20.089	-125.908	35.119	57.513	-127.367	-118.915	184.436	18.102	-122.100	-118.170	-115.237	-108.856	105.201	-112.297	-8191	255	
2120.782	1	1	0	0	0.10399	0.16692	0.1141	0.1481	0.056315	0.15709	0.085621	0.23999	0.15097	0.35571	0.21652	0.16557	0.078548	0.13527	0.11358	0.08713	-2.7167	-2.5479	-3.2979	-3.0104	-2.7521	-3.4875	-2.9042	-3.1125	-3.0646	-2.6604	-3.3625	-3.0271	-2.8021	-3.4437	-2.8521	-2.8708	-131.785	-77.213	8.456	-135.491	-19.065	101.188	186.671	70.112	66.869	122.245	180.706	-109.541	-119.975	131.803	151.864	20.031	0.00071023	0.0011964	0.00033711	659.1	1.3398e-05	1.3057e-05	639.55	256.1	9.0517e-06	5.6288e-06	261.24	98.118	87.832	27.601	1.7456e-06	33.245	0.0025137	0.0028203	0.00076165	721.7	3.0725e-05	2.9273e-05	683.21	272.1	2.7698e-05	2.946e-05	292.05	107.45	98.235	31.766	2.7627e-05	38.756	135.935	-23.413	3.750	-126.072	-27.305	-107.341	-127.897	-119.380	-27.092	55.118	-122.359	-118.330	-115.653	-109.290	30.519	-113.316	-8191	255	
2120.878	1	1	0	0	0.22212	0.21394	0.14528	0.16647	0.12537	0.17495	0.31523	0.22647	0.11057	0.028313	0.32429	0.067315	0.26279	0.20161	0.34803	0.21253	-2.7229	-2.5979	-3.2313	-2.9854	-2.8312	-3.4437	-2.5625	-3.0646	-3.3979	-2.7792	-3.4188	-3.3479	-2.6792	-3.3187	-2.8333	-2.9083	151.443	222.223	160.559	-42.330	67.171	63.096	177.574	166.766	-92.060	43.431	192.169	-128.475	189.355	182.419	99.164	52.073	0.00047531	0.00085691	0.00027997	670.35	1.1217e-05	7.8606e-06	646.06	260.05	8.173e-06	1.1592e-05	266.98	100.58	88.373	28.04	7.7374e-06	34.148	0.0024027	0.0026283	0.00072241	723.52	2.8822e-05	2.7681e-05	689.58	272.68	2.6378e-05	2.7173e-05	294.39	109.01	97.789	31.747	2.5322e-05	39.379	131.927	26.501	145.865	-125.647	35.827	123.032	-127.187	-119.391	196.164	-20.327	-121.592	-117.334	-115.318	-108.091	44.714	-111.580	-8191	255	
2120.976	1	1	0	0	0.060688	0.15888	0.13636	0.092636	0.16504	0.18629	0.10959	0.18556	0.044256	0.13435	0.19345	0.12989	0.2187	0.12958	0.099652	0.1061	-2.8896	-2.675	-3.0312	-3.0771	-2.7167	-3.2146	-3.0187	-3.0417	-3.2104	-2.7104	-3.2458	-2.9229	-2.7854	-3.2562	-2.775	-2.9708	-117.119	6.803	134.117	201.700	16.578	202.837	112.212	126.289	139.935	-40.479	111.385	-94.856	166.636	-89.802	92.018	203.953	0.00024612	0.00063065	0.00054495	670.14	1.3588e-05	8.4749e-06	670.58	259.91	7.6584e-06	1.4645e-05	272.27	103.83	89.522	28.443	6.1112e-06	35.613	0.0022483	0.00238	0.00068401	722.93	2.7053e-05	2.5803e-05	704.4	272.67	2.5123e-05	2.507e-05	298.82	111.3	97.663	31.921	2.3881e-05	40.255	138.636	-26.101	208.620	-124.938	28.370	68.896	-127.990	-119.549	-82.057	-14.258	-122.678	-118.566	-116.194	-109.323	108.150	-113.230	-8191	255	
2121.095	1	1	0	0	0.10595	0.030142	0.20511	0.16747	0.16038	0.28388	0.14128	0.279	0.10432	0.18354	0.13962	0.21357	0.25826	0.10297	0.030308	0.23964	-3.0417	-2.6521	-2.9396	-3.3354	-2.3625	-3.4542	-3.0021	-2.7167	-3.3479	-2.7417	-2.8854	-3.3208	-2.6667	-3.3063	-2.8146	-2.8292	-84.038	-103.983	-1.232	13.789	-51.926	183.952	-129.093	130.502	-29.650	183.354	116.627	116.758	207.112	-129.443	146.361	15.670	0.00044596	0.00079888	0.00025265	681.85	1.683e-05	8.2278e-06	680.29	258.89	3.1793e-06	5.7973e-06	274.64	102.23	88.228	28.23	3.9214e-06	34.866	0.0021481	0.0022441	0.00066485	724.26	2.5233e-05	2.52e-05	711.35	270.76	2.4212e-05	2.4057e-05	297.99	109.93	96.216	31.467	2.335e-05	39.217	149.852	-98.050	4.999	-126.018	83.641	-8.172	-128.131	-120.017	76.430	152.101	-123.028	-118.558	-116.484	-109.458	152.326	-113.341	-8191	255	
2121.191	1	1	0	0	0.38106	0.11996	0.27841	0.056531	0.1067	0.065483	0.32599	0.084414	0.15352	0.34306	0.22169	0.085073	0.067027	0.12487	0.2089	0.38199	-2.9583	-2.7583	-2.8021	-3.5187	-2.7875	-3.1583	-3.1521	-3.0146	-3.3625	-2.7062	-2.825	-3.3708	-2.7792	-3.1979	-3.0958	-2.7458	197.515	93.114	209.523	94.004	23.215	-120.688	183.959	181.507	102.487	-71.026	81.123	-99.504	153.393	10.035	152.754	-100.862	0.00042566	0.0011048	0.00027305	677.14	6.8572e-07	7.3938e-06	674.52	258.12	1.035e-05	1.4182e-05	272.69	103.35	88.844	28.158	1.1765e-05	35.165	0.0020888	0.0021143	0.00064527	720.31	2.3871e-05	2.4657e-05	705.66	268.8	2.3447e-05	2.295e-05	296.28	110.23	95.615	31.458	2.2592e-05	39.367	168.852	-65.064	195.304	-125.911	203.401	-91.648	-127.406	-119.927	51.422	36.343	-123.043	-118.512	-116.340	-109.317	-56.404	-113.104	-8191	255	
2121.287	1	1	0	0	0.22285	0.17845	0.086194	0.18163	0.090549	0.1174	0.08521	0.038063	0.11055	0.17817	0.12047	0.14698	0.31327	0.13378	0.099799	0.075432	-3.0708	-2.8417	-2.8417	-3.5062	-2.7208	-2.9875	-3.2917	-2.8708	-3.5042	-2.8479	-2.5625	-3.2708	-2.875	-3.1333	-3.2604	-2.7604	-30.427	97.409	219.494	190.489	127.356	142.243	-68.862	-127.734	-56.888	139.101	80.575	-108.244	168.730	-76.647	-86.181	-93.333	0.00070493	0.00066585	0.0001573	685.16	1.6228e-05	7.4293e-06	685.4	260.15	9.1643e-06	6.1108e-06	277.17	105.87	88.896	28.286	1.6247e-05	36.006	0.002031	0.002049	0.00062302	723.46	2.2566e-05	2.4437e-05	714.01	269.27	2.2764e-05	2.2012e-05	298.77	111.71	95.672	31.53	2.1882e-05	39.765	160.328	-129.284	-48.043	-126.131	7.062	-64.636	-127.754	-119.607	215.399	-21.993	-123.061	-118.864	-116.249	-109.636	-9.408	-113.402	-8191	255	
2121.384	1	1	0	0	0.1634	0.12239	0.24023	0.061311	0.17453	0.25655	0.30979	0.0315	0.27422	0.09441	0.2248	0.10587	0.28941	0.25363	0.058425	0.19127	-2.9354	-2.9313	-2.6771	-3.2083	-2.8021	-2.9	-3.2938	-2.6875	-3.2562	-3.0042	-2.7062	-3.4688	-3.0021	-2.9313	-3.3583	-2.7958	79.677	-126.617	-14.451	170.487	80.348	48.536	157.196	38.537	0.454	-95.344	151.132	109.547	162.709	111.117	-6.540	187.655	0.00026625	0.0011066	7.3764e-05	692	1.3036e-05	1.167e-05	703.79	260.68	3.2102e-06	1.1034e-05	281.52	107.17	89.884	28.79	6.1747e-06	36.832	0.0019911	0.0019908	0.00060964	726.74	2.1558e-05	2.3723e-05	724.56	268.93	2.2551e-05	2.1143e-05	301.22	113.36	95.896	31.795	2.1631e-05	40.426	200.867	-77.418	-67.064	-126.098	-18.464	-36.862	-128.109	-119.381	-122.979	-116.009	-123.127	-118.437	-116.051	-109.383	-21.368	-113.212	-8191	255	
2121.480	1	1	0	0	0.23418	0.097525	0.090331	0.19105	0.086628	0.20314	0.19345	0.15987	0.21601	0.23693	0.10291	0.18343	0.080488	0.12816	0.13027	0.095796	-2.8729	-3.1042	-2.7521	-3.5062	-2.6479	-3.0625	-3.6979	-2.7354	-3.0917	-3.3396	-2.5521	-3.3625	-2.9479	-2.8604	-3.4208	-2.9375	180.122	-8.696	36.656	181.288	219.620	78.417	163.706	195.995	220.287	201.249	-18.443	213.178	130.027	174.282	199.387	185.599	0.00041	0.00045103	0.00030268	692.18	9.5575e-06	1.2829e-05	706.01	261.88	1.8202e-05	1.3721e-06	280.23	107.5	90.611	28.835	7.4598e-06	36.274	0.0019618	0.0019299	0.00059076	727.43	2.1032e-05	2.3367e-05	728.52	269.76	2.2448e-05	2.1231e-05	299.94	112.67	96.042	31.836	2.1184e-05	39.544	145.850	-67.844	-44.464	-126.083	5.206	29.436	-128.291	-119.674	-91.160	-81.775	-122.995	-118.822	-115.983	-109.315	103.486	-113.292	-8191	255	
2121.576	1	1	0	0	0.043912	0.1634	0.46221	0.20621	0.16812	0.12423	0.055992	0.16403	0.14137	0.14704	0.24742	0.084627	0.11866	0.12071	0.14927	0.20017	-2.6792	-3.4521	-2.5667	-3.2354	-3.025	-2.9813	-3.4729	-3.0083	-3.1562	-3.3187	-2.4958	-3.4688	-3.2417	-2.9188	-3.4104	-2.8917	216.898	129.317	5.665	207.719	-62.158	-11.366	115.478	91.200	193.806	147.739	212.905	98.637	215.576	200.817	-22.753	169.671	0.00026531	0.00055907	0.00023438	697.21	1.1671e-05	8.5254e-06	702.89	265.68	4.5511e-07	1.0065e-05	282.19	106.07	91.124	29.379	6.6714e-06	37.11	0.0019613	0.0019112	0.00056343	729.75	2.0418e-05	2.2806e-05	726.08	270.01	2.2147e-05	2.087e-05	299.05	112.36	96.73	32.147	2.0553e-05	40.051	111.938	-2.932	-35.075	-126.259	62.831	118.057	-128.178	-119.669	-133.082	-7.553	-122.936	-118.860	-115.958	-109.099	56.020	-112.971	-8191	255	
2121.697	1	1	0	0	0.19471	0.26077	0.086267	0.14052	0.052444	0.25645	0.29643	0.14845	0.20711	0.056281	0.11838	0.13536	0.19056	0.1765	0.22429	0.12088	-2.6417	-3.3083	-2.55	-3.4208	-3.1667	-2.7896	-3.4292	-2.8917	-2.8375	-3.3812	-2.825	-3.0438	-3.1083	-2.9188	-3.4604	-2.7729	115.161	-85.240	85.843	145.110	206.180	-77.153	-128.686	86.548	94.621	-68.074	138.928	-109.196	-126.554	40.384	176.210	200.707	0.00050935	0.00030115	0.00026668	705.9	1.504e-05	9.8793e-06	720.19	266.64	2.625e-06	6.5571e-06	285.84	108.95	92.711	30.217	9.6718e-06	38.176	0.0019027	0.0018512	0.00052435	736.25	1.9373e-05	2.1477e-05	736.27	270.84	2.1195e-05	1.972e-05	299.52	114.04	97.717	32.527	1.9575e-05	40.602	145.831	87.146	49.727	-125.953	-104.702	57.559	-128.153	-119.564	45.290	41.621	-122.781	-118.716	-116.125	-109.640	194.575	-113.249	-8191	255	
2121.791	1	1	0	0	0.12648	0.18133	0.15741	0.21136	0.17084	0.25964	0.21326	0.29806	0.3158	0.092777	0.49753	0.22069	0.14017	0.44428	0.16017	0.29248	-2.5021	-3.3229	-2.7167	-3.1125	-3.3917	-2.7208	-3.5687	-3.0042	-2.7396	-3.3771	-3.0354	-3.0667	-3.2708	-2.8104	-3.2042	-3.225	199.238	121.557	-32.228	168.800	88.670	91.325	174.977	161.460	-66.464	-91.488	193.225	-91.343	-24.266	-115.727	23.380	107.662	0.00028647	0.0010303	0.00026363	713.48	8.0331e-06	1.243e-05	730.66	268.36	6.8886e-06	1.1272e-05	289.27	111.32	94.067	30.529	1.3508e-05	38.524	0.0018087	0.0017344	0.00048573	740.78	1.8455e-05	2.0137e-05	746.62	272.92	2.0412e-05	1.9009e-05	301.61	115.66	98.308	32.629	1.9325e-05	41.078	175.848	15.078	-18.802	-126.119	117.110	46.198	-128.096	-119.763	-32.362	180.129	-123.237	-118.534	-116.002	-109.216	-21.388	-112.842	-8191	255	
2121.887	1	1	0	0	0.12317	0.097484	0.13742	0.18692	0.086808	0.10315	0.23613	0.043481	0.082238	0.031615	0.23069	0.16883	0.25046	0.038312	0.26132	0.28909	-2.2542	-3.2292	-2.8688	-3.225	-3.1354	-2.5625	-3.3917	-3.1521	-2.525	-3.5458	-2.7188	-2.95	-3.3187	-2.7292	-3.0604	-3.2771	162.916	136.467	-61.914	-65.466	135.097	129.990	151.643	216.724	-68.945	191.791	152.327	197.635	221.392	171.083	207.634	31.345	0.00061586	0.00070443	0.00023502	717.4	9.1271e-06	1.1168e-05	737.91	269.49	4.8917e-06	2.7622e-06	288.55	110.19	93.46	30.01	3.4225e-06	38.101	0.0017548	0.0017451	0.00047449	744.94	1.8626e-05	1.9492e-05	752.44	272.85	2.0129e-05	1.9134e-05	300.97	114.81	97.825	32.122	1.9639e-05	40.518	159.418	-25.929	10.062	-126.105	67.486	-29.257	-127.704	-119.290	-31.403	23.191	-122.810	-118.918	-115.244	-109.040	62.648	-113.032	-8191	255	
2121.959	1	1	0	0	0.10986	0.16137	0.16359	0.10295	0.28136	0.35906	0.10482	0.21183	0.18865	0.17761	0.16343	0.29901	0.17577	0.12161	0.071728	0.2836	-2.4083	-3.4875	-3.0229	-2.8833	-3.1604	-2.6188	-3.3104	-3.2354	-2.7375	-3.5542	-3.0187	-2.8667	-3.2896	-3.0042	-3.1021	-3.175	31.837	143.673	139.081	52.693	161.188	113.453	99.060	204.727	164.057	-10.754	-117.399	-22.200	218.142	-61.135	83.850	173.940	0.00060198	0.00041813	0.00033133	713.06	3.8153e-06	4.709e-06	738.46	266.88	2.9764e-06	3.5917e-06	287.59	108.76	92.599	29.573	6.3103e-06	37.85	0.0017558	0.001746	0.00046691	742.25	1.8592e-05	1.9057e-05	752.61	271.31	1.9903e-05	1.9167e-05	298.66	113.85	97.068	31.98	1.9924e-05	40.445	164.668	-9.957	-33.882	-126.075	96.870	51.219	-127.799	-119.186	36.195	50.983	-122.512	-118.299	-115.881	-109.281	3.107	-112.879	-8191	255	
2122.057	1	1	0	0	0.12748	0.10588	0.15302	0.078428	0.082636	0.096284	0.14078	0.063848	0.04063	0.11743	0.2554	0.30328	0.17019	0.23425	0.28191	0.13875	-2.3708	-3.4313	-2.7854	-2.8042	-3.3292	-2.8958	-3.1458	-3.2188	-2.6042	-3.4604	-3.1229	-2.925	-3.2792	-2.825	-2.9917	-3.3667	126.142	-19.267	15.936	153.676	-116.009	73.702	151.219	71.154	122.861	-64.124	134.182	-117.387	92.494	122.324	92.148	201.608	0.00045221	0.00060221	0.0002019	713.52	2.936e-06	1.1027e-05	736.92	266.8	2.2307e-05	4.8966e-06	285.84	109.63	93.155	30.195	7.632e-06	38.238	0.0017287	0.0017686	0.00046726	741.43	1.8712e-05	1.9054e-05	753.74	270.88	1.9372e-05	1.9404e-05	298.31	114.26	97.501	32.134	1.9899e-05	40.802	149.703	113.826	100.754	-125.689	140.583	25.752	-127.785	-119.222	-14.882	-17.573	-122.605	-118.376	-115.450	-108.884	-82.876	-112.791	-8191	255	
2122.176	1	1	0	0	0.26171	0.15052	0.17773	0.14336	0.075664	0.074644	0.23797	0.13442	0.063984	0.17617	0.13086	0.08112	0.14294	0.082521	0.14201	0.038759	-2.3312	-3.2292	-3.0729	-2.8021	-3.2333	-2.8063	-3.2375	-3.3042	-2.775	-3.15	-3.1312	-2.8187	-3.5312	-3.0083	-2.7208	-3.3604	-119.496	-134.701	3.795	-113.450	-35.572	-31.713	108.932	122.266	145.545	-136.539	222.727	167.386	195.711	46.051	127.743	105.626	0.00054475	0.00068067	0.00023443	711.37	9.3859e-06	1.0241e-05	736.86	267.26	9.6858e-06	1.3879e-05	285.99	109.53	93.679	30.226	3.7887e-06	38.492	0.0016527	0.0017524	0.00045973	739.75	1.872e-05	1.8354e-05	753.4	271.22	1.8595e-05	1.9266e-05	297.52	114.49	97.7	32.179	1.9825e-05	41.165	168.483	-52.317	-50.732	-125.561	14.788	-120.339	-127.847	-118.884	-4.303	14.969	-122.403	-118.120	-115.337	-108.961	-132.454	-113.176	-8191	255	
2122.272	1	1	0	0	0.38596	0.15678	0.06423	0.10654	0.12757	0.25587	0.23765	0.083732	0.18623	0.19161	0.16714	0.18523	0.020202	0.071986	0.088643	0.2782	-2.1875	-3.2021	-3.0333	-2.7646	-3.4083	-2.975	-2.9167	-3.4062	-2.6667	-3.0271	-3.1417	-2.7917	-3.2938	-2.7875	-2.8063	-3.2542	14.943	31.387	-135.684	145.418	32.401	150.452	138.249	-109.579	197.728	-80.723	-11.806	53.033	111.808	128.819	74.952	174.642	0.00042201	0.00078923	0.00020878	715.33	4.4639e-06	9.9801e-06	740.12	266.75	7.2186e-07	4.496e-06	285.91	109.48	92.918	30.119	1.6611e-05	37.896	0.0016043	0.0017619	0.00045822	739.31	1.8531e-05	1.792e-05	755.58	270.86	1.8072e-05	1.9559e-05	297.65	113.79	97.073	31.942	1.9794e-05	40.566	144.481	13.190	-108.458	-125.843	-41.754	-100.573	-127.798	-119.640	77.067	-32.803	-122.508	-118.254	-115.685	-108.676	-3.872	-112.270	-8191	255	
2122.368	1	1	0	0	0.32979	0.091858	0.13781	0.27235	0.01017	0.21155	0.090575	0.24269	0.26335	0.20791	0.22227	0.35437	0.30465	0.18533	0.074302	0.16648	-2.4604	-3.1562	-2.9792	-2.7417	-3.2396	-3.0333	-2.8083	-3.5854	-2.8187	-2.9083	-3.3917	-2.7833	-3.3	-3.2604	-2.6833	-3.3771	117.329	212.864	10.957	119.538	-97.409	161.440	-70.849	132.499	-64.907	20.387	-10.154	124.890	148.974	212.172	-106.497	63.834	0.00040449	0.00039744	0.00018855	709.27	2.6221e-06	3.5655e-06	735.57	266.93	5.5738e-06	7.2168e-06	282.42	108.72	92.982	29.877	8.6006e-06	37.918	0.0015749	0.0017845	0.00045981	734.82	1.8668e-05	1.7786e-05	749.86	270.42	1.7755e-05	1.9746e-05	295.72	112.88	97.214	31.759	1.9601e-05	40.399	100.138	189.293	-5.228	-125.480	-112.688	-49.348	-127.802	-119.085	-78.555	82.744	-122.990	-118.934	-116.278	-109.207	-28.383	-113.395	-8191	255	
2122.464	1	1	0	0	0.2725	0.10343	0.084042	0.13304	0.17917	0.2439	0.40203	0.15314	0.11963	0.18961	0.22652	0.052528	0.2158	0.1673	0.32496	0.11362	-2.3312	-2.8167	-3.2417	-2.8333	-3.0583	-3.3187	-2.9062	-3.2771	-3.0687	-2.9938	-3.45	-2.6312	-3.1229	-3.2854	-2.5938	-3.3812	54.373	-115.982	-19.584	200.740	-117.941	70.611	139.975	210.439	73.705	-35.119	190.857	192.980	192.400	-44.312	99.825	-48.772	0.00034801	0.00080362	0.00039353	711.54	7.4216e-06	7.4103e-06	733.62	266.67	6.4279e-06	8.4335e-06	286.3	109.88	92.572	30.119	5.2051e-06	38.196	0.0015688	0.0018087	0.00046454	733.16	1.906e-05	1.7896e-05	749.43	270.43	1.7779e-05	1.987e-05	297.03	113.55	97.414	31.934	1.9198e-05	40.913	172.124	29.634	-43.362	-126.077	-17.961	-108.337	-127.989	-119.534	-77.974	-7.741	-122.510	-118.742	-116.068	-108.973	184.317	-113.026	-8191	255	
2122.560	1	1	0	0	0.13337	0.22744	0.17409	0.084786	0.061997	0.17394	0.19245	0.19591	0.15839	0.10821	0.1213	0.066733	0.2385	0.33147	0.098272	0.10768	-2.7396	-2.7708	-3.3438	-2.5417	-3.1333	-3.2083	-2.6771	-3.3979	-2.8771	-2.6917	-3.5354	-2.7625	-2.9583	-3.2583	-2.5375	-3.5604	83.881	11.493	-4.121	-109.844	165.279	47.165	101.406	-133.035	7.906	-53.263	34.303	-69.938	88.154	154.862	107.123	90.991	0.00039005	0.0008845	0.00015323	711.48	1.2449e-05	5.1306e-06	736.7	267.4	4.7373e-06	5.2981e-06	286.48	111.06	92.641	30.338	7.8719e-06	38.645	0.0015573	0.0018023	0.00046373	734.72	1.923e-05	1.8178e-05	749.89	271.44	1.7711e-05	1.9885e-05	298.01	114.52	97.59	32.224	1.8762e-05	41.28	118.265	-13.166	31.772	-126.028	-4.757	80.094	-128.272	-119.599	-126.612	44.671	-122.828	-118.336	-116.183	-109.422	32.177	-113.313	-8191	255	
2122.656	1	1	0	0	0.051095	0.24747	0.33167	0.18056	0.12135	0.057708	0.22924	0.079854	0.083909	0.29155	0.1799	0.056729	0.067039	0.15558	0.082395	0.33121	-2.5021	-2.6958	-3.25	-3.0104	-2.9625	-3.1688	-2.9479	-3.2146	-3.1854	-2.5125	-3.3708	-2.8917	-2.8771	-3.4375	-2.8063	-3.1	-17.093	187.766	185.256	207.589	103.232	196.651	-119.741	-56.362	11.180	191.506	209.456	-79.228	197.828	-62.201	-71.287	174.587	0.00052269	0.0011364	4.1776e-05	712.43	8.5858e-06	9.3835e-06	742.12	266.62	2.9879e-06	3.6305e-06	286.17	109.52	92.999	29.95	4.8409e-06	37.992	0.0015652	0.0018109	0.00047071	732.93	1.9514e-05	1.826e-05	753.06	271.51	1.7727e-05	1.9748e-05	297.99	113.51	97.612	32.042	1.871e-05	40.762	157.792	-76.228	-87.955	-125.937	-90.840	-96.412	-128.379	-119.776	-86.287	-126.121	-122.674	-118.819	-116.215	-109.231	68.303	-113.530	-8191	255	
2122.777	1	1	0	0	0.13007	0.082903	0.076072	0.089609	0.093372	0.24536	0.18192	0.20225	0.16496	0.30836	0.22991	0.27596	0.34147	0.17498	0.1698	0.068738	-2.5646	-2.7812	-3.2646	-2.8083	-2.8	-3.3	-2.7917	-3.2375	-3.1063	-2.7604	-3.525	-2.9833	-2.7	-3.5708	-2.7458	-3.0187	87.983	-124.721	-31.858	111.586	120.811	68.898	-56.187	163.522	-24.512	-116.001	-132.717	132.667	150.685	-125.842	62.772	149.343	0.00026018	0.00067831	0.00016777	712.82	6.6531e-06	1.5824e-05	734.66	265.86	7.8833e-06	7.9987e-06	282.85	109.4	92.321	29.828	1.3961e-05	38.253	0.0015479	0.0017738	0.00047645	732.47	1.952e-05	1.8451e-05	745.86	270.9	1.7875e-05	1.9365e-05	296.91	112.85	97.118	31.985	1.8318e-05	40.962	142.828	44.893	17.537	-125.696	133.307	10.648	-128.096	-119.677	206.226	-0.430	-123.168	-118.849	-116.328	-109.644	-100.568	-113.466	-8191	255	
2122.871	1	1	0	0	0.061304	0.38724	0.068123	0.27957	0.29804	0.19355	0.088588	0.26732	0.17695	0.12376	0.14458	0.19803	0.24725	0.3046	0.25383	0.226	-2.8896	-2.5229	-3.15	-3.0146	-2.75	-3.3979	-3.0271	-3.2125	-3.0917	-2.7333	-3.2313	-3.0187	-2.8792	-3.2667	-2.8229	-3.2333	98.597	163.314	-8.987	148.645	182.458	3.560	126.274	-58.282	-115.041	184.449	-136.224	-85.131	156.859	-114.114	203.565	20.560	0.00018841	0.0011892	0.00017343	713.62	1.059e-05	3.8335e-06	735.46	265.53	8.2405e-06	4.1946e-06	282.82	109.71	92.149	30.02	1.1165e-05	38.362	0.0015775	0.0017414	0.00048226	732.27	1.9627e-05	1.8571e-05	746.27	271	1.7912e-05	1.9078e-05	297.13	113.21	97.264	32.116	1.8048e-05	41.015	156.731	-72.119	-22.897	-125.737	-11.439	72.561	-128.007	-119.382	-29.634	101.563	-122.902	-118.276	-115.975	-109.324	34.430	-113.163	-8191	255	
2122.967	1	1	0	0	0.12464	0.034825	0.25723	0.17438	0.078371	0.25417	0.17418	0.18306	0.22076	0.082667	0.27302	0.29493	0.14615	0.04275	0.13532	0.080278	-2.9396	-2.6042	-3.2708	-3.2292	-2.6354	-3.3563	-2.9792	-3.2125	-3.2604	-2.6625	-3.325	-3.3458	-2.8438	-3.3792	-2.9521	-3.0062	-28.504	195.673	195.905	-110.222	134.635	138.809	137.059	-76.812	207.863	-15.769	222.391	-62.386	218.237	124.720	191.483	161.095	0.00082336	0.00033334	8.7533e-05	708.63	5.9712e-06	5.7642e-06	739.87	265.05	2.489e-06	3.9636e-06	283.89	110.13	92.302	30.017	5.5752e-06	38.705	0.0015998	0.0017123	0.00048397	730.88	1.9638e-05	1.881e-05	748.23	271.41	1.809e-05	1.8793e-05	298.55	114.07	97.311	32.179	1.7996e-05	41.56	155.694	181.174	-66.249	-125.624	-13.163	-59.358	-128.149	-119.559	-14.512	50.315	-122.216	-118.233	-115.318	-109.259	73.586	-112.800	-8191	255	
2123.064	1	1	0	0	0.26347	0.065502	0.15193	0.17764	0.09567	0.1154	0.015682	0.16696	0.15182	0.12971	0.26625	0.34685	0.13699	0.2654	0.18244	0.16853	-2.9938	-2.7875	-3.0958	-3.1708	-2.6417	-3.3125	-3.0417	-2.7771	-3.3958	-2.7979	-2.9813	-3.1708	-2.7833	-3.2583	-3.0104	-2.7792	165.304	11.824	222.088	125.633	-1.424	-36.940	-99.066	207.891	156.489	133.822	-130.762	217.058	-101.037	-101.464	-120.991	139.186	0.00054587	0.000588	0.00026198	710.72	1.4813e-05	5.7098e-06	741	265.14	4.8351e-06	3.6813e-07	283.87	110.37	92.612	29.8	1.2649e-05	37.607	0.0016067	0.0016999	0.00049757	733.16	1.9267e-05	1.9037e-05	748.73	271.03	1.8246e-05	1.8542e-05	298.01	113.38	96.906	32.036	1.8032e-05	40.8	156.139	-31.727	8.637	-125.800	50.316	186.300	-127.824	-119.563	-122.551	84.622	-122.672	-118.613	-116.096	-109.205	23.766	-112.909	-8191	255	
2123.184	1	1	0	0	0.13327	0.084974	0.30926	0.47026	0.063482	0.17001	0.27962	0.10414	0.081808	0.28377	0.21525	0.010443	0.27919	0.1832	0.10007	0.26841	-2.7938	-2.8854	-3.1688	-3.2167	-2.8438	-3.3208	-3.2146	-2.6063	-3.3833	-2.8625	-3.2687	-3.2708	-2.7458	-3.2271	-3.0583	-2.9125	67.635	29.833	-59.209	87.153	-74.586	-68.197	62.015	220.100	214.744	38.712	171.996	-95.905	190.821	158.083	-59.124	133.342	0.00055279	0.00088109	0.00027539	710.98	9.6459e-06	2.0827e-06	732.69	263.37	5.6718e-06	8.2458e-06	281.25	108.67	92.28	29.755	1.0589e-05	37.556	0.0016292	0.0016988	0.00050325	731.61	1.896e-05	1.9357e-05	743.96	269.49	1.8578e-05	1.8155e-05	296.55	112.61	96.476	31.865	1.8036e-05	40.606	128.775	29.451	-27.998	-125.602	63.173	53.459	-127.742	-119.829	-53.000	14.096	-122.336	-118.835	-115.718	-108.639	76.649	-113.113	-8191	255	
2123.256	1	1	0	0	0.17867	0.18616	0.17178	0.031701	0.09917	0.089385	0.1619	0.1793	0.15705	0.12813	0.19164	0.010497	0.081909	0.036639	0.14921	0.03546	-3.0854	-2.9146	-2.5792	-3.4062	-2.7833	-3.1521	-3.3375	-2.8375	-3.2896	-3.0312	-2.8146	-3.5146	-2.6	-3.1875	-3.4083	-2.8479	-13.774	-53.218	135.658	-136.057	-95.696	216.728	157.966	152.665	168.375	-64.307	48.878	210.187	-82.276	103.860	24.202	-71.057	0.00050401	0.0010348	0.00037961	712.69	4.1123e-06	1.0774e-05	735.83	262.6	8.3668e-06	5.6263e-06	283.53	109.14	91.762	29.52	1.9788e-06	37.697	0.0016377	0.0016465	0.00050805	733.77	1.8554e-05	1.9531e-05	744.68	269.29	1.8884e-05	1.8202e-05	298.04	113.43	95.997	31.914	1.7956e-05	40.663	133.851	-64.234	19.307	-125.567	60.483	-99.633	-127.409	-118.810	-19.017	-67.874	-122.326	-117.972	-115.540	-108.777	85.709	-112.717	-8191	255	
2123.377	1	1	0	0	0.22031	0.15962	0.015668	0.28305	0.23104	0.35428	0.25028	0.2125	0.094142	0.11873	0.20134	0.14432	0.15862	0.30781	0.094648	0.16895	-2.9896	-2.9708	-2.9125	-3.2979	-2.7458	-3.1813	-3.3271	-2.6771	-3.3167	-3.0458	-2.9146	-3.375	-2.7417	-3.2438	-3.1458	-2.7229	192.005	15.848	196.359	185.077	71.320	48.963	181.358	193.651	-58.336	198.568	-48.250	173.270	-135.120	-69.249	72.963	191.906	0.00067164	0.00098453	0.00012477	715.41	1.0728e-05	7.7546e-06	740.09	264.74	5.4075e-06	5.6431e-06	284.28	111.14	91.216	29.549	1.8942e-06	38.783	0.0016622	0.0016556	0.00051062	734.74	1.8385e-05	1.9716e-05	749.96	269.22	1.9064e-05	1.82e-05	299.49	114.82	96.014	32.015	1.8187e-05	41.32	148.792	-49.409	-59.906	-125.042	40.969	-99.730	-127.160	-118.860	157.568	57.189	-121.897	-117.640	-114.814	-108.165	-45.295	-112.211	-8191	255	
2123.473	1	1	0	0	0.07833	0.20007	0.11985	0.17121	0.19432	0.091123	0.24605	0.11555	0.076496	0.19798	0.17738	0.15697	0.32676	0.11469	0.14759	0.026254	-2.9646	-2.9917	-2.7917	-3.4958	-2.8688	-2.9813	-3.5687	-2.6437	-3.1125	-3.1708	-2.5708	-3.4021	-3.1312	-2.8937	-3.3125	-2.6375	102.642	-133.671	-34.885	197.645	-133.960	141.241	190.717	168.562	-127.651	27.811	-105.590	-109.734	-109.587	53.796	-116.638	2.207	0.00047075	0.00070834	0.00010111	714.71	2.798e-06	9.7192e-06	743.37	262.8	8.6467e-06	1.1844e-05	286.33	110.77	91.148	29.085	7.9749e-06	37.83	0.0016861	0.0016521	0.00050292	738.48	1.8005e-05	2.012e-05	754.42	268.99	1.9311e-05	1.8271e-05	300.83	115.14	95.514	31.739	1.8413e-05	40.503	126.131	-23.228	19.641	-124.925	157.308	44.568	-127.241	-119.210	-3.368	52.074	-122.377	-118.143	-115.415	-109.140	10.979	-112.901	-8191	255	
2123.569	1	1	0	0	0.048633	0.056188	0.41687	0.034077	0.10328	0.20217	0.1334	0.13874	0.166	0.23746	0.2793	0.3198	0.13153	0.18815	0.21481	0.093908	-2.7229	-3.2438	-2.6375	-3.5438	-2.8958	-2.8187	-3.4437	-2.7896	-3.1979	-3.4	-2.7979	-3.6333	-3.0687	-2.8521	-3.3542	-2.9458	126.344	67.510	189.771	-54.422	-113.946	-109.511	-134.196	165.815	137.850	4.747	159.052	169.568	170.212	213.077	-107.139	221.510	0.00028406	0.00040587	0.00013714	707.78	1.0201e-05	1.9867e-06	739.96	263.53	7.285e-06	6.7106e-06	283.67	109.41	91.007	29.263	2.8896e-06	37.504	0.0017033	0.0016589	0.0004971	735.32	1.7991e-05	2.0075e-05	750.9	267.58	1.9664e-05	1.8341e-05	298	113.54	95.167	31.614	1.8703e-05	40.31	158.519	101.451	-23.481	-125.745	33.092	145.582	-128.058	-118.974	-70.462	-12.305	-122.387	-117.995	-115.441	-108.326	-97.635	-112.662	-8191	255	
2123.665	1	1	0	0	0.096531	0.084729	0.17557	0.22062	0.081556	0.082062	0.056155	0.1431	0.34268	0.25048	0.19994	0.15134	0.25829	0.20708	0.079462	0.07448	-2.8104	-3.2792	-2.7396	-3.3542	-3.1188	-2.85	-3.2833	-2.8292	-3.0958	-3.2438	-2.5979	-3.3542	-3.3458	-2.9292	-3.3625	-2.9208	-133.652	75.863	138.917	-123.101	21.858	-106.043	49.952	198.568	62.210	47.774	33.399	85.409	146.821	215.670	214.623	-84.190	0.00048825	0.00076257	0.0002751	709.53	4.0428e-06	2.5699e-06	741.83	264.61	2.6865e-06	1.3918e-05	281.96	110.86	91.535	29.414	5.6565e-06	37.733	0.0017488	0.0016796	0.00049339	736.7	1.7962e-05	2.017e-05	754.27	267.66	1.9965e-05	1.8547e-05	298.71	114.97	95.343	31.68	1.9095e-05	40.495	152.758	-79.739	6.993	-125.664	27.382	108.195	-127.380	-118.955	55.169	-29.639	-121.769	-117.980	-115.052	-108.661	-111.479	-112.518	-8191	255	
2123.759	1	1	0	0	0.11838	0.17225	0.06776	0.15794	0.15452	0.15176	0.18497	0.28273	0.11237	0.012384	0.17998	0.23135	0.1766	0.18354	0.22624	0.23864	-2.6125	-3.1417	-2.6354	-3.2375	-3.1708	-2.6729	-3.5292	-2.7812	-3.025	-3.4375	-2.8438	-3.1813	-3.1104	-2.8333	-3.3438	-2.8688	117.720	26.537	-25.028	-124.722	46.665	-98.732	111.284	141.996	-35.395	-85.641	150.204	180.955	-13.428	183.046	170.101	48.273	0.00051793	0.00034564	0.0002039	714.28	3.1499e-06	2.0135e-05	746.34	263.96	6.3725e-06	6.2801e-06	286.62	111.52	91.131	29.099	1.5837e-06	38.395	0.0017633	0.0017076	0.00048289	740.99	1.8075e-05	1.983e-05	758.93	267.77	1.9919e-05	1.8664e-05	300.81	116.15	95.541	31.641	1.8877e-05	40.964	127.241	32.184	-9.960	-124.997	-68.834	29.917	-127.070	-118.434	-23.934	-28.707	-121.256	-117.644	-115.252	-108.511	-40.351	-111.857	-8191	255	
2123.856	1	1	0	0	0.038933	0.12844	0.11149	0.13345	0.091507	0.24466	0.10662	0.19331	0.2379	0.29188	0.16996	0.078285	0.10649	0.18787	0.21517	0.11534	-2.2104	-3.3667	-2.7979	-3.0083	-3.1479	-2.7917	-3.3958	-3.1458	-2.7792	-3.4292	-2.9729	-3.0729	-3.2625	-2.6312	-3.2687	-3.1208	43.174	35.420	-22.446	208.312	-99.006	-14.890	-71.585	189.124	36.146	61.585	33.718	209.355	141.715	-108.917	37.719	165.786	0.00069961	0.00038607	0.00019766	710.81	5.8826e-06	1.4406e-05	749.18	263.61	5.2739e-06	7.8946e-06	288.35	111.52	90.905	29.038	1.0085e-05	37.95	0.0017684	0.0017188	0.00048112	740.77	1.8394e-05	1.9937e-05	762.54	267.94	2.0001e-05	1.882e-05	299.98	115.97	95.289	31.439	1.9483e-05	40.406	152.992	200.489	-102.342	-125.165	210.658	-74.359	-127.149	-118.527	-15.945	208.841	-121.988	-117.400	-115.126	-108.056	-43.342	-112.560	-8191	255	
2123.952	1	1	0	0	0.026435	0.070679	0.065493	0.22663	0.05526	0.18822	0.13746	0.075913	0.13204	0.19023	0.21135	0.046756	0.22768	0.40857	0.17148	0.079284	-2.325	-3.2208	-2.7646	-3.1896	-3.3708	-2.6958	-3.2417	-3.2729	-2.7417	-3.2812	-2.6521	-2.975	-3.4188	-2.3563	-3.0979	-3.2083	23.022	-116.278	-37.797	193.260	-69.477	-1.309	-108.561	51.911	-27.056	192.023	120.900	155.505	210.215	157.352	35.664	119.091	0.00061533	0.00050555	0.00017495	716.91	1.3582e-05	4.2887e-06	741.87	261.5	1.6332e-05	6.2171e-06	284.65	110.02	90.297	28.733	9.6599e-06	37.406	0.001744	0.0017252	0.00047069	740.29	1.828e-05	1.9433e-05	756.88	266.4	1.9756e-05	1.9203e-05	298.22	114.74	94.729	31.078	1.9551e-05	40.103	145.423	-116.684	20.416	-125.072	-27.359	170.601	-126.884	-118.648	-22.995	203.785	-122.390	-118.354	-115.404	-108.420	8.742	-112.305	-8191	255	
2124.048	1	1	0	0	0.18211	0.23186	0.026316	0.23199	0.17641	0.1349	0.16146	0.22985	0.11754	0.059245	0.16137	0.26549	0.061708	0.12799	0.23991	0.010356	-2.1333	-3.2167	-3.0333	-2.8333	-3.2771	-2.7938	-3.1792	-3.3	-2.8708	-3.3917	-2.9562	-2.9813	-3.5687	-2.7958	-3.0958	-3.6083	-134.493	96.101	203.215	74.013	125.345	163.950	139.809	-130.270	167.220	-107.526	165.713	221.042	187.777	-93.254	25.853	127.914	0.00041691	0.00046084	1.5312e-05	704.21	2.4353e-06	6.8463e-06	742.99	263.62	5.4897e-06	8.1738e-06	287.33	110.02	90.061	28.772	9.6278e-06	38.113	0.0017342	0.0017607	0.00046934	737.44	1.8525e-05	1.9032e-05	758.98	267.54	1.9706e-05	1.9334e-05	299.84	115.51	94.743	30.997	1.9831e-05	40.629	92.571	138.518	148.537	-124.903	20.656	20.741	-127.378	-118.704	120.319	137.356	-121.704	-117.585	-114.742	-108.011	-12.103	-111.809	-8191	255	
2124.144	1	1	0	0	0.15777	0.2898	0.15662	0.065797	0.23533	0.14317	0.16306	0.17833	0.20835	0.080963	0.30806	0.18356	0.10565	0.23964	0.18213	0.11528	-2.3271	-3.2604	-2.8854	-2.9229	-3.3104	-2.8521	-3.1312	-3.4813	-2.4917	-3.1792	-3.2083	-2.9104	-3.2979	-3.0958	-2.95	-3.2938	89.785	137.342	78.617	147.460	-40.306	65.662	192.502	-35.619	-26.874	-21.768	159.667	-129.465	87.386	222.237	50.596	70.269	0.00031487	0.0009552	9.8509e-05	714.98	1.1553e-05	8.3657e-06	748.13	264.56	4.9392e-06	1.3019e-05	290.87	111.71	91.298	28.903	1.78e-05	38.693	0.0017171	0.0017841	0.00046763	740.87	1.9123e-05	1.8892e-05	765.85	268.09	1.932e-05	1.9787e-05	302.74	116.88	95.504	31.008	2.0241e-05	41.072	148.554	38.902	-42.436	-125.918	-89.871	-87.939	-128.042	-119.461	67.543	78.772	-122.467	-118.502	-115.745	-108.729	-6.354	-112.894	-8191	255	
2124.265	1	1	0	0	0.059502	0.10078	0.2575	0.021671	0.11755	0.19839	0.20617	0.062171	0.099735	0.2212	0.35441	0.11439	0.087534	0.23042	0.12426	0.32849	-2.3729	-3.0354	-2.9833	-2.9583	-3.4208	-2.7458	-2.9688	-3.4792	-2.8375	-3.2333	-3.1396	-2.9813	-3.2479	-2.6667	-2.7792	-3.425	69.703	120.258	8.037	174.558	-22.871	15.898	108.594	-77.136	26.500	195.738	129.978	-80.099	88.830	-14.551	140.890	83.523	0.00054079	0.00085516	0.00028217	712.09	8.2232e-07	1.4355e-05	752.26	263.98	1.7276e-06	6.1863e-06	292.63	112.89	89.879	28.853	4.5834e-06	38.078	0.001713	0.0018145	0.00047237	741.41	1.9132e-05	1.8711e-05	770.9	268.76	1.9221e-05	1.9867e-05	303.68	116.78	94.969	30.914	2.0276e-05	40.836	168.278	-92.839	-40.172	-126.360	153.762	-35.171	-127.931	-119.371	147.984	95.482	-122.493	-118.583	-116.013	-108.879	11.560	-112.990	-8191	255	
2124.361	1	1	0	0	0.02572	0.10615	0.10207	0.13891	0.20376	0.13114	0.18844	0.25544	0.11561	0.065506	0.15061	0.14157	0.076945	0.11798	0.36349	0.14775	-2.2771	-2.9562	-3.2396	-2.3521	-3.4229	-2.9146	-2.9458	-3.45	-2.6354	-3.1667	-3.2042	-2.6562	-3.375	-3.1063	-2.7687	-3.4062	122.819	-67.278	206.531	140.016	56.274	15.385	-126.506	154.592	60.127	165.761	-57.038	13.411	102.793	88.763	-48.149	-134.937	0.0002274	0.00058631	0.00013032	713.4	1.0903e-05	4.4784e-06	744.42	262.55	7.8984e-06	9.8328e-06	290.82	110.49	89.192	28.568	5.0225e-06	37.768	0.0016686	0.0018368	0.00047049	739.41	1.9271e-05	1.8426e-05	763.82	267.57	1.8793e-05	2.0081e-05	302.28	114.86	94.382	30.609	2.0195e-05	40.341	165.142	182.325	206.219	-126.022	-47.688	7.996	-128.266	-119.155	-25.383	40.696	-122.506	-118.488	-116.064	-109.061	-116.740	-112.891	-8191	255	
2124.457	1	1	0	0	0.099564	0.062175	0.078987	0.14787	0.13935	0.24681	0.30806	0.33828	0.060628	0.098813	0.14263	0.15901	0.1742	0.15437	0.14804	0.22045	-2.3	-3.1083	-3.2604	-2.4417	-3.4479	-3.0042	-2.7562	-3.5292	-2.6604	-2.9958	-3.4688	-2.4979	-3.3917	-3.0396	-2.6875	-3.4021	-1.964	-34.423	-58.489	151.319	148.195	-97.342	174.979	208.799	138.225	221.690	116.016	173.981	193.644	-128.016	166.227	-114.538	0.00022229	0.00011867	8.4547e-05	702.57	7.2371e-06	6.0083e-06	749.15	262.89	7.526e-06	9.5846e-06	289.06	111.23	89.077	28.589	3.2488e-06	38.262	0.0016348	0.001851	0.00047499	735.74	1.9663e-05	1.8462e-05	766.47	268.01	1.8568e-05	2.0526e-05	302.67	115.72	94.444	30.634	2.0194e-05	40.809	150.384	-7.006	-10.217	-125.687	-50.307	-74.752	-127.903	-119.493	-53.505	125.076	-122.561	-117.986	-115.868	-108.698	17.073	-112.878	-8191	255	
2124.553	1	1	0	0	0.069952	0.10161	0.064445	0.24178	0.19415	0.24673	0.23667	0.1898	0.12161	0.25038	0.14045	0.11954	0.20277	0.078882	0.21574	0.22747	-2.4042	-2.8125	-3.4313	-2.7687	-3.1208	-3.025	-2.6292	-3.5729	-2.9313	-2.8292	-3.3021	-2.6125	-3.2229	-3.1813	-2.725	-3.5375	87.147	-109.755	130.241	209.265	32.138	-72.024	183.732	144.212	213.329	-90.159	114.025	202.997	-83.195	77.389	86.762	-130.141	0.00059178	0.00090943	5.6121e-05	712.38	1.1528e-05	1.3801e-05	751.57	262.35	1.0542e-06	2.7129e-06	291.78	112.79	89.162	28.545	1.0307e-05	38.175	0.0016163	0.0018685	0.00047807	736.34	1.9882e-05	1.8714e-05	768.82	268.15	1.8445e-05	2.0519e-05	305.91	116.71	94.523	30.741	2.0146e-05	41.314	132.225	193.919	190.497	-125.700	-116.825	-0.703	-128.182	-119.622	70.048	-61.486	-122.294	-117.908	-115.883	-108.800	-51.819	-112.311	-8191	255	
2124.649	1	1	0	0	0.15606	0.1439	0.081058	0.23591	0.15749	0.011705	0.098436	0.070687	0.22184	0.24305	0.19373	0.12577	0.19377	0.23092	0.17968	0.31618	-2.3708	-2.825	-3.2896	-2.7646	-2.9521	-3.1562	-2.8521	-3.3667	-2.9229	-2.8542	-3.2521	-2.8479	-3.0354	-3.2667	-2.6896	-3.3229	-113.131	-3.943	118.733	134.883	-131.587	-88.344	32.914	-59.844	-28.729	73.806	172.231	-20.118	-115.361	173.937	50.018	116.246	0.00066459	0.0017107	0.00020247	713.25	1.4316e-06	1.6977e-05	760.94	262.73	1.2641e-05	1.0109e-05	294.14	112.42	88.182	28.607	3.2733e-06	38.242	0.0016275	0.0018848	0.00049297	736.96	2.0246e-05	1.8801e-05	775.65	269.17	1.8543e-05	2.0528e-05	306.8	116.15	94.234	30.646	1.9706e-05	41.114	156.511	-66.742	105.739	-125.754	116.660	47.883	-127.987	-119.593	-37.049	2.846	-122.359	-118.136	-115.734	-108.439	107.963	-112.796	-8191	255	
2124.745	1	1	0	0	0.023255	0.20626	0.20412	0.18906	0.078506	0.077708	0.15227	0.065258	0.19751	0.15298	0.17515	0.24351	0.10279	0.13686	0.18913	0.23703	-2.7313	-2.6042	-3.3917	-3.2167	-2.8583	-3.3917	-2.8833	-3.1604	-3.1396	-2.7604	-3.1542	-3.0396	-2.9125	-3.3604	-2.8208	-3.1729	-80.573	187.025	-94.938	-112.017	-1.276	124.809	98.269	-133.302	-117.801	207.859	158.551	201.210	-136.774	-102.085	188.649	-4.815	0.0005743	0.00069773	9.098e-05	708.83	9.9801e-06	3.674e-06	751.17	261.34	9.4602e-06	5.2284e-06	289.92	110.03	88.037	28.249	6.4659e-06	37.405	0.0016196	0.0018579	0.00049175	733.64	2.0335e-05	1.9058e-05	763.95	267.76	1.8424e-05	2.0438e-05	304.52	113.78	93.793	30.386	1.9294e-05	40.579	172.744	154.602	-90.865	-125.608	-25.253	-71.940	-127.687	-119.295	-45.084	-74.898	-122.703	-118.173	-115.722	-108.671	12.346	-112.902	-8191	255	
2124.864	1	1	0	0	0.086096	0.29328	0.13599	0.24039	0.19502	0.20221	0.20656	0.09624	0.080202	0.1114	0.22418	0.14674	0.18343	0.34654	0.29781	0.18591	-2.7521	-2.5958	-3.3271	-2.8375	-2.7229	-3.3667	-2.8271	-3.0021	-3.3229	-2.4958	-3.3833	-3.1063	-2.5687	-3.3833	-2.6521	-3.0875	107.537	54.382	-87.356	215.044	182.813	172.489	-116.354	-105.876	-88.129	28.488	209.627	-114.142	178.125	157.562	-134.648	-124.726	0.00061937	0.00044579	0.00037199	708.25	4.0006e-06	4.386e-06	751.48	262.49	6.9915e-06	9.0005e-06	294.39	110.85	88.174	28.202	1.0231e-05	38.069	0.0016183	0.0018483	0.0004964	731.49	2.0424e-05	1.9409e-05	764.83	268.12	1.8542e-05	2.0296e-05	306.92	114.67	93.735	30.467	1.9035e-05	41.067	135.653	3.417	-132.115	-125.833	-75.779	52.551	-127.580	-119.311	135.903	-79.497	-122.345	-118.138	-115.887	-109.029	47.351	-112.730	-8191	255	
2124.960	1	1	0	0	0.064572	0.15669	0.011916	0.18737	0.040368	0.064505	0.2575	0.41593	0.15258	0.049795	0.16137	0.12014	0.19286	0.1185	0.17705	0.21682	-2.9875	-2.5875	-3.2583	-2.9604	-2.6625	-3.25	-2.6417	-3.1104	-3.2438	-2.6333	-3.2333	-3.0812	-2.7104	-3.3896	-2.6208	-3.1042	189.187	215.970	99.058	-64.768	-52.637	40.787	130.149	158.879	204.704	173.552	-12.788	-78.888	-54.373	-134.285	-55.830	175.177	0.0005343	0.0008277	0.00017792	713.04	1.2141e-05	1.2303e-05	754.32	262.59	1.7662e-06	1.4309e-05	293.97	112.27	88.039	28.294	7.1354e-06	38.355	0.0016205	0.0018283	0.00050242	735.09	2.0443e-05	1.9504e-05	768.74	269.47	1.8651e-05	1.9964e-05	309.05	115.9	93.689	30.616	1.8724e-05	41.461	154.762	-3.543	30.110	-125.726	195.808	-59.799	-127.816	-119.664	-11.611	17.909	-122.231	-118.191	-116.120	-108.943	-45.150	-112.707	-8191	255	
2125.057	1	1	0	0	0.04046	0.18339	0.34869	0.054773	0.20092	0.076235	0.10345	0.33798	0.068372	0.34015	0.10783	0.13537	0.24432	0.14061	0.22041	0.33533	-2.8354	-2.5271	-3.0417	-3.2021	-2.6271	-3.4229	-2.9875	-2.9083	-3.4271	-2.6958	-3.2583	-3.3333	-2.7292	-3.2979	-2.9	-2.775	-34.030	204.326	48.189	-113.282	-90.604	-26.271	110.359	152.009	154.585	-51.644	176.015	3.697	-31.414	-29.803	-132.358	105.330	0.00059191	0.00029344	0.00030446	714.84	8.3823e-06	5.8913e-07	763.94	263.04	5.6647e-06	9.4387e-06	295.31	110.73	87.876	28.069	1.2311e-05	37.969	0.0016745	0.0018071	0.00051386	734.89	2.0393e-05	1.9838e-05	774.91	270.13	1.9098e-05	1.957e-05	309.8	115.45	93.629	30.575	1.848e-05	40.987	121.253	-96.273	-36.360	-125.770	218.129	-32.206	-127.981	-119.343	-72.239	148.343	-122.514	-118.415	-115.570	-108.772	-51.060	-112.703	-8191	255	
2125.153	1	1	0	0	0.16396	0.067244	0.02933	0.20683	0.17767	0.14659	0.14242	0.20188	0.1312	0.23242	0.076657	0.18573	0.054772	0.15527	0.15069	0.12999	-3.0104	-2.7833	-3.1333	-3.2479	-2.6625	-3.2833	-3.2708	-2.8625	-3.4479	-2.9042	-2.9479	-3.3333	-2.5583	-3.3542	-2.9604	-2.7438	129.278	-24.049	-40.844	216.241	32.206	-108.032	141.279	130.712	87.897	144.116	194.239	151.502	-80.763	166.010	163.084	166.930	0.00061532	0.00028735	0.0001494	707.78	1.1707e-05	6.5755e-06	750.72	261.98	9.2533e-06	8.4153e-06	290.66	110.28	86.731	27.946	7.9848e-06	37.29	0.0016728	0.0017588	0.00051508	730.2	2.0125e-05	1.9856e-05	762.72	267.88	1.9204e-05	1.9223e-05	306.15	113.68	92.544	30.405	1.8641e-05	40.548	167.260	-72.863	-126.372	-125.488	-24.344	16.490	-127.887	-119.463	2.248	85.643	-122.874	-118.386	-115.909	-108.876	-44.174	-112.355	-8191	255	
#DATA ENDS
