BOXY.EXE: ISS Imagent and Oximeter Data Acquisition Program Version 0.80
Ascii Record File

#ACQ INFORMATION
2  Detector Channels 
16  External MUX Channels 
1  Auxiliary Channels 
5000  Waveform (CCF) Frequency (Hz)
1  Waveforms Skipped 
30  Waveforms Averaged 
1  Cycles Averaged 
16  Acquisitions per Waveform 
10.0806  Updata Rate (Hz) 

#FILE INFORMATION
TRUE -- External MUX Channel results are PARSED.
FALSE -- AC DC and Phase are NOT grouped.
TRUE -- Companion Program Settings File CREATED.
FALSE -- AC data not excluded
FALSE -- DC data not excluded
FALSE -- Phase data not excluded
FALSE -- Auxillary Chn. data not excluded
Tab delimiters

#CALIBRATION STATE
TRUE -- Waveform Calibration Values APPLIED.


#AUX CALIBRATION VALUES
Val Type	aux-1	

Term	1.0000e+00	
Factor	0.0000e+00	


#WF CALIBRATION VALUES
A = Detector Channel
Val Type	A-AC1	A-AC2	A-AC3	A-AC4	A-AC5	A-AC6	A-AC7	A-AC8	A-AC9	A-AC10	A-AC11	A-AC12	A-AC13	A-AC14	A-AC15	A-AC16	A-DC1	A-DC2	A-DC3	A-DC4	A-DC5	A-DC6	A-DC7	A-DC8	A-DC9	A-DC10	A-DC11	A-DC12	A-DC13	A-DC14	A-DC15	A-DC16	A-Ph1	A-Ph2	A-Ph3	A-Ph4	A-Ph5	A-Ph6	A-Ph7	A-Ph8	A-Ph9	A-Ph10	A-Ph11	A-Ph12	A-Ph13	A-Ph14	A-Ph15	A-Ph16	

Term	0.00000e+00	0.00000e+00	0.00000e+00	0.00000e+00	0.00000e+00	0.00000e+00	0.00000e+00	0.00000e+00	0.00000e+00	0.00000e+00	0.00000e+00	0.00000e+00	0.00000e+00	0.00000e+00	0.00000e+00	0.00000e+00	0.00000e+00	0.00000e+00	0.00000e+00	0.00000e+00	0.00000e+00	0.00000e+00	0.00000e+00	0.00000e+00	0.00000e+00	0.00000e+00	0.00000e+00	0.00000e+00	0.00000e+00	0.00000e+00	0.00000e+00	0.00000e+00	0.00000e+00	0.00000e+00	0.00000e+00	0.00000e+00	0.00000e+00	0.00000e+00	0.00000e+00	0.00000e+00	0.00000e+00	0.00000e+00	0.00000e+00	0.00000e+00	0.00000e+00	0.00000e+00	0.00000e+00	0.00000e+00	
Factor	1.00000e+00	1.00000e+00	1.00000e+00	1.00000e+00	1.00000e+00	1.00000e+00	1.00000e+00	1.00000e+00	1.00000e+00	1.00000e+00	1.00000e+00	1.00000e+00	1.00000e+00	1.00000e+00	1.00000e+00	1.00000e+00	1.00000e+00	1.00000e+00	1.00000e+00	1.00000e+00	1.00000e+00	1.00000e+00	1.00000e+00	1.00000e+00	1.00000e+00	1.00000e+00	1.00000e+00	1.00000e+00	1.00000e+00	1.00000e+00	1.00000e+00	1.00000e+00	X	X	X	X	X	X	X	X	X	X	X	X	X	X	X	X	

B = Detector Channel
Val Type	B-AC1	B-AC2	B-AC3	B-AC4	B-AC5	B-AC6	B-AC7	B-AC8	B-AC9	B-AC10	B-AC11	B-AC12	B-AC13	B-AC14	B-AC15	B-AC16	B-DC1	B-DC2	B-DC3	B-DC4	B-DC5	B-DC6	B-DC7	B-DC8	B-DC9	B-DC10	B-DC11	B-DC12	B-DC13	B-DC14	B-DC15	B-DC16	B-Ph1	B-Ph2	B-Ph3	B-Ph4	B-Ph5	B-Ph6	B-Ph7	B-Ph8	B-Ph9	B-Ph10	B-Ph11	B-Ph12	B-Ph13	B-Ph14	B-Ph15	B-Ph16	

Term	0.00000e+00	0.00000e+00	0.00000e+00	0.00000e+00	0.00000e+00	0.00000e+00	0.00000e+00	0.00000e+00	0.00000e+00	0.00000e+00	0.00000e+00	0.00000e+00	0.00000e+00	0.00000e+00	0.00000e+00	0.00000e+00	0.00000e+00	0.00000e+00	0.00000e+00	0.00000e+00	0.00000e+00	0.00000e+00	0.00000e+00	0.00000e+00	0.00000e+00	0.00000e+00	0.00000e+00	0.00000e+00	0.00000e+00	0.00000e+00	0.00000e+00	0.00000e+00	-1.85345e+02	-1.23737e+02	-1.11857e+02	-1.80493e+02	-1.02631e+02	-7.18909e+01	-1.55190e+02	-1.62015e+02	-8.30239e+01	-6.30682e+01	-1.71086e+02	-1.70392e+02	-1.81065e+02	-1.76742e+02	-5.60175e+01	-1.49283e+02	
Factor	3.45794e-05	1.28973e-04	3.64895e-05	1.78598e-01	1.50782e-06	1.48164e-06	1.55936e-01	4.98493e-02	1.25560e-06	1.27048e-06	8.53734e-02	2.92799e-02	2.65120e-02	9.74353e-03	1.48999e-06	1.28900e-02	2.28479e-06	2.43523e-06	6.78434e-07	9.15091e-02	2.64387e-08	2.67660e-08	7.53430e-02	2.56481e-02	2.64425e-08	2.67481e-08	4.24034e-02	1.45225e-02	1.36176e-02	5.01221e-03	2.65546e-08	6.42646e-03	X	X	X	X	X	X	X	X	X	X	X	X	X	X	X	X	



#DISTANCE SETTINGS
A = Detector Channel
A-1	A-2	A-3	A-4	A-5	A-6	A-7	A-8	A-9	A-10	A-11	A-12	A-13	A-14	A-15	A-16	

2.5000e+00	3.0000e+00	2.5000e+00	3.0000e+00	2.0000e+00	3.0000e+00	1.5000e+00	3.0000e+00	3.0000e+00	3.0000e+00	3.0000e+00	3.0000e+00	3.0000e+00	3.0000e+00	1.5000e+00	3.0000e+00	

B = Detector Channel
B-1	B-2	B-3	B-4	B-5	B-6	B-7	B-8	B-9	B-10	B-11	B-12	B-13	B-14	B-15	B-16	

1.0000e+01	1.0000e+01	1.0000e+01	1.4400e+00	1.0000e+01	1.0000e+01	1.5100e+00	1.9400e+00	1.0000e+01	1.0000e+01	1.9900e+00	2.4900e+00	2.4100e+00	2.9000e+00	1.0000e+01	2.9800e+00	




#DATA BEGINS
time	group	step	mark	flag	A-AC1	A-AC2	A-AC3	A-AC4	A-AC5	A-AC6	A-AC7	A-AC8	A-AC9	A-AC10	A-AC11	A-AC12	A-AC13	A-AC14	A-AC15	A-AC16	A-DC1	A-DC2	A-DC3	A-DC4	A-DC5	A-DC6	A-DC7	A-DC8	A-DC9	A-DC10	A-DC11	A-DC12	A-DC13	A-DC14	A-DC15	A-DC16	A-Ph1	A-Ph2	A-Ph3	A-Ph4	A-Ph5	A-Ph6	A-Ph7	A-Ph8	A-Ph9	A-Ph10	A-Ph11	A-Ph12	A-Ph13	A-Ph14	A-Ph15	A-Ph16	B-AC1	B-AC2	B-AC3	B-AC4	B-AC5	B-AC6	B-AC7	B-AC8	B-AC9	B-AC10	B-AC11	B-AC12	B-AC13	B-AC14	B-AC15	B-AC16	B-DC1	B-DC2	B-DC3	B-DC4	B-DC5	B-DC6	B-DC7	B-DC8	B-DC9	B-DC10	B-DC11	B-DC12	B-DC13	B-DC14	B-DC15	B-DC16	B-Ph1	B-Ph2	B-Ph3	B-Ph4	B-Ph5	B-Ph6	B-Ph7	B-Ph8	B-Ph9	B-Ph10	B-Ph11	B-Ph12	B-Ph13	B-Ph14	B-Ph15	B-Ph16	aux-1	digaux	

1191.665	1	1	0	256	0.22129	0.27899	0.069649	0.33808	0.21666	0.11111	0.055484	0.28486	0.40422	0.15856	0.11269	0.154	0.13887	0.0845	0.2282	0.093332	-2.8833	-2.75	-3.3354	-2.9688	-2.9104	-3.3688	-2.9667	-3.3021	-3.4146	-2.8	-3.6083	-3.1833	-3.2167	-3.4542	-2.7146	-3.1208	264.251	303.548	32.116	323.696	30.980	166.429	127.467	324.716	-1.198	182.664	326.080	167.314	220.548	-1.809	209.045	241.810	0.00060521	0.00046383	0.0001272	831.4	5.2149e-06	5.7628e-06	912.04	283.24	4.6018e-06	4.044e-06	361.86	138.54	106.65	53.646	5.1898e-06	72.821	7.8749e-05	3.6407e-05	9.9631e-06	816.4	4.1244e-07	3.8309e-07	901.26	280.27	4.3575e-07	3.9754e-07	355.23	136.16	104.09	52.652	4.4601e-07	71.362	77.381	75.129	89.716	-2.770	110.895	131.964	-3.503	2.323	127.120	138.447	1.207	4.854	6.864	12.553	153.704	8.834	-8191	255	
1191.786	1	1	0	0	0.18148	0.098075	0.17677	0.15943	0.19618	0.052134	0.2036	0.16857	0.12792	0.071049	0.087832	0.076895	0.25663	0.084227	0.11068	0.1458	-2.7333	-2.8	-3.4521	-3.1125	-2.7771	-3.4313	-2.8208	-3.1292	-3.0875	-2.8417	-3.3146	-3.1875	-2.8583	-3.5292	-2.9688	-3.2	-3.535	8.414	57.044	262.173	26.869	165.843	278.671	295.566	10.535	250.587	-7.372	10.492	209.536	-3.844	253.036	217.284	0.00062819	0.00035079	0.00015341	834.65	5.6301e-06	5.5923e-06	920.66	285.98	4.6896e-06	4.1102e-06	362.32	139.34	105.86	53.592	3.3854e-06	72.994	7.695e-05	3.5311e-05	9.3398e-06	814.16	4.2462e-07	3.5482e-07	899.3	281.22	4.3426e-07	3.7899e-07	355.96	137.06	104.23	52.969	4.059e-07	71.701	77.808	66.609	102.282	-3.786	107.177	136.612	-4.190	1.713	149.080	139.357	0.475	4.917	7.344	12.522	141.712	9.349	-8191	255	
1191.857	1	1	0	0	0.24532	0.15466	0.076517	0.18612	0.13378	0.28121	0.098722	0.25738	0.052532	0.15356	0.16231	0.22576	0.070808	0.13974	0.24058	0.4113	-2.9458	-2.6437	-3.2542	-3.2062	-2.6354	-3.2375	-2.9979	-2.9729	-3.4083	-2.6979	-3.4417	-3.2562	-2.8958	-3.6396	-3.0229	-3.1417	137.661	163.252	229.704	211.608	303.413	61.489	-7.216	333.067	322.590	202.564	248.005	33.783	31.782	273.697	123.506	215.217	0.00063667	0.00045304	0.00015722	841.84	4.7593e-06	4.5642e-06	926.21	279.59	3.9265e-06	4.2263e-06	356.36	136.24	103.29	52.496	5.2683e-06	71.757	7.9287e-05	3.6493e-05	1.0158e-05	820.67	4.0308e-07	3.7054e-07	908.4	277.05	4.2066e-07	3.6801e-07	351.36	134.35	102.05	52.102	4.1729e-07	70.981	83.941	72.097	101.067	-3.495	115.209	121.604	-3.914	2.273	134.173	136.449	0.816	5.690	7.040	13.097	152.742	9.741	-8191	255	
1191.953	1	1	0	0	0.17748	0.073188	0.1152	0.36023	0.071268	0.016453	0.1285	0.26996	0.13577	0.074611	0.24303	0.17279	0.24709	0.35378	0.053724	0.047269	-3.2104	-2.8812	-3.1958	-3.3125	-2.4979	-3.3708	-3.0896	-2.8646	-3.475	-2.9396	-3.1188	-3.3208	-2.85	-3.5771	-3.2083	-2.9354	165.548	304.097	-4.648	19.205	141.120	33.000	261.461	296.483	-13.565	234.376	35.186	275.730	282.091	33.455	183.648	330.952	0.00061438	0.00041176	9.7549e-05	833.06	5.168e-06	6.3286e-06	916.61	279.43	3.7104e-06	3.525e-06	358.08	135.62	102.53	51.987	4.624e-06	71.693	7.5422e-05	3.4996e-05	9.2606e-06	819.23	3.9058e-07	3.4868e-07	905.92	275.9	3.8639e-07	3.6483e-07	352.47	133.89	101.85	52.018	4.0994e-07	70.951	80.506	71.846	93.259	-3.179	120.385	123.722	-3.283	2.543	124.524	136.649	0.874	5.667	7.439	13.519	159.034	10.114	-8191	255	
1192.050	1	1	0	0	0.14868	0.16701	0.161	0.22779	0.089178	0.07738	0.19537	0.13028	0.23946	0.050962	0.19616	0.097045	0.17203	0.077831	0.14865	0.1754	-2.9458	-2.7646	-3.0687	-3.5167	-2.5812	-3.2583	-3.175	-2.9708	-3.4146	-2.8833	-3.1688	-3.4542	-2.9042	-3.4021	-3.2396	-2.925	138.120	324.922	-13.452	257.186	70.325	53.690	265.565	217.657	209.026	57.037	53.762	280.840	41.574	59.323	85.414	305.711	0.00063005	0.00044759	0.00010267	837.55	3.6416e-06	3.7137e-06	923.08	278.4	3.759e-06	3.1527e-06	355.65	133.92	102.25	51.907	4.5032e-06	70.306	7.7731e-05	3.4362e-05	9.4302e-06	818.76	4.1724e-07	3.5905e-07	905.89	275.06	4.1069e-07	3.5937e-07	348.43	132.22	100.82	51.596	4.0983e-07	69.906	81.198	73.800	74.820	-3.412	106.930	119.953	-4.068	1.890	133.740	134.137	0.694	5.708	7.822	13.371	157.699	10.038	-8191	255	
1192.146	1	1	0	0	0.16359	0.18732	0.16923	0.17391	0.033093	0.061028	0.35201	0.26354	0.22069	0.060222	0.039899	0.17088	0.16894	0.13086	0.33236	0.31541	-3.0479	-2.7833	-2.8021	-3.2958	-2.7792	-3.2979	-3.2771	-2.7146	-3.2333	-2.95	-3.1583	-3.4396	-2.6229	-3.2125	-3.2188	-2.9354	284.130	109.213	51.339	254.692	23.548	113.511	261.223	52.978	141.959	288.450	19.707	336.427	267.371	74.743	234.921	-7.059	0.00063865	0.00044416	0.00015088	834.27	4.5564e-06	3.9549e-06	909.87	275.82	3.5394e-06	3.7741e-06	350.52	133.04	101.56	51.775	5.1271e-06	70.753	7.5203e-05	3.3966e-05	9.4755e-06	817.9	4.0137e-07	3.5409e-07	902.23	273.34	3.9124e-07	3.4098e-07	346.64	131.35	100.09	51.319	4.1077e-07	69.828	82.672	80.943	81.152	-3.119	112.892	133.224	-3.457	2.569	139.195	136.013	1.115	6.119	7.485	13.112	141.322	9.648	-8191	255	
1192.265	1	1	0	0	0.097212	0.081498	0.11423	0.15983	0.26088	0.13801	0.2368	0.039684	0.19065	0.34286	0.23618	0.22084	0.10937	0.2708	0.16363	0.25409	-3.0062	-3.0021	-3.0792	-3.5	-2.8312	-3.2188	-3.3563	-2.8521	-3.2771	-3.0938	-2.775	-3.4479	-3.1583	-3.2104	-3.2854	-2.8167	22.029	312.974	83.223	-3.314	18.932	155.297	285.647	153.628	53.915	274.441	318.652	-6.297	315.739	6.099	333.216	339.902	0.00060409	0.0004234	9.5097e-05	829.85	4.8042e-06	5.0698e-06	913.93	274.26	3.8081e-06	3.9409e-06	354.42	133.91	101.8	51.794	4.0537e-06	71.445	7.5708e-05	3.2206e-05	9.5362e-06	816.81	3.9283e-07	3.6971e-07	902.66	272.03	4.2875e-07	3.4477e-07	346.49	131.32	99.904	51.165	4.1763e-07	70.013	80.828	77.158	83.542	-2.837	91.023	125.677	-3.589	2.636	148.190	134.512	0.408	5.163	7.052	12.595	152.221	9.463	-8191	255	
1192.361	1	1	0	0	0.014699	0.1474	0.35088	0.13402	0.26076	0.13778	0.051944	0.10619	0.092773	0.20596	0.35134	0.11672	0.21766	0.12986	0.068159	0.19321	-2.7604	-2.7875	-2.675	-3.4583	-2.6896	-3.1271	-3.3479	-2.9417	-3.4333	-3.3083	-2.8354	-3.4813	-3.0312	-3.1	-3.3292	-2.7896	67.771	87.954	224.054	162.799	281.797	287.098	274.188	296.108	178.121	81.549	-3.274	227.912	312.867	289.195	21.557	59.265	0.00062356	0.00039569	0.00015212	834.82	5.9155e-06	5.7254e-06	925.9	276.11	4.0721e-06	2.8242e-06	353.13	132.18	99.482	50.647	4.0158e-06	69.439	7.7388e-05	3.4261e-05	9.7059e-06	817.29	3.8777e-07	3.58e-07	906.37	271.87	4.1058e-07	3.4717e-07	345.89	129.93	98.173	50.001	3.8034e-07	68.482	78.384	79.024	87.567	-3.585	108.958	134.821	-4.050	1.740	122.608	130.839	0.355	4.882	7.010	12.624	139.214	9.675	-8191	255	
1192.432	1	1	0	0	0.13252	0.26937	0.096478	0.11822	0.25839	0.30942	0.20917	0.086677	0.24302	0.033163	0.23333	0.31328	0.21386	0.2219	0.35819	0.28526	-2.6271	-3.075	-2.6354	-3.3875	-2.7771	-2.775	-3.5292	-2.8438	-3.1354	-3.3833	-2.9625	-3.4562	-3.0979	-2.9125	-3.3708	-2.8604	279.857	47.132	-6.941	195.762	240.316	135.482	213.380	190.695	27.049	209.383	75.207	-4.065	34.965	324.202	314.876	250.525	0.00053428	0.00039514	0.00011736	832.97	4.622e-06	5.2112e-06	912.63	273.63	3.811e-06	3.7683e-06	349.13	130.58	98.668	49.98	3.7527e-06	68.817	7.2352e-05	3.4692e-05	9.238e-06	818.62	3.7135e-07	3.5911e-07	901.76	270.22	4.1757e-07	3.3073e-07	343.26	128.21	97.36	49.535	3.7353e-07	67.609	84.399	90.596	68.509	-3.330	96.575	118.853	-3.885	2.241	138.206	133.638	0.867	5.104	7.512	13.004	147.172	9.506	-8191	255	
1192.553	1	1	0	0	0.2256	0.11184	0.15179	0.1428	0.23674	0.062683	0.15657	0.26176	0.30986	0.18595	0.079402	0.34529	0.09189	0.20939	0.084726	0.11243	-2.6208	-3.0687	-2.6083	-3.3604	-3.1813	-2.9229	-3.5854	-2.8458	-3.1229	-3.3479	-2.6646	-3.4354	-3.0062	-2.7583	-3.2667	-2.9229	-2.717	274.474	312.912	249.470	343.835	250.781	196.724	246.305	335.398	325.478	343.340	304.933	97.508	308.530	286.791	328.467	0.00061681	0.00038407	9.0701e-05	839.92	3.2292e-06	4.2109e-06	924.24	274.36	3.6596e-06	4.1085e-06	350.6	129.82	98.709	49.032	4.633e-06	67.941	7.2214e-05	3.1414e-05	9.4147e-06	818.05	3.6441e-07	3.3686e-07	905.51	269.73	3.9493e-07	3.3145e-07	342.64	127.14	96.762	48.543	3.6352e-07	66.728	81.231	87.471	98.286	-3.796	97.903	117.357	-4.211	2.054	145.651	132.300	0.631	5.211	7.239	12.931	154.918	9.205	-8191	255	
1192.649	1	1	0	0	0.30898	0.14889	0.11422	0.12779	0.15513	0.35369	0.24017	0.34286	0.078306	0.099287	0.26718	0.034255	0.089876	0.26992	0.22905	0.3085	-2.6396	-3.2042	-2.5854	-3.3625	-2.9813	-2.925	-3.6604	-3.2271	-2.7958	-3.3521	-2.8521	-3.325	-3.2188	-2.9958	-3.4729	-3.2333	140.851	47.904	157.705	338.390	68.858	232.543	5.265	297.968	78.448	66.071	269.396	183.268	277.431	228.893	93.001	264.089	0.00057102	0.00046707	8.8848e-05	840.54	5.2066e-06	4.6258e-06	943.71	279.18	3.0166e-06	2.8443e-06	361.67	128.37	98.707	48.568	5.3039e-06	67.14	7.3656e-05	3.1597e-05	8.7589e-06	821.72	3.6485e-07	3.4528e-07	922.99	275.07	4.1702e-07	3.3246e-07	354.18	126.02	96.572	48.019	3.8897e-07	66.245	78.887	74.986	94.977	-3.785	105.367	136.039	-4.475	1.798	136.891	159.258	0.347	5.025	7.037	12.610	159.557	9.158	-8191	255	
1192.745	1	1	0	0	0.1591	0.10912	0.084525	0.18521	0.21775	0.18075	0.34541	0.37741	0.087687	0.031254	0.076608	0.082186	0.28273	0.15854	0.14839	0.045039	-2.6104	-3.4583	-2.6208	-3.2417	-3.0646	-2.6042	-3.6229	-3.1937	-3.0708	-3.4729	-2.9271	-3.0458	-3.2542	-3.0208	-3.4188	-3.0896	189.801	-11.260	305.504	51.585	206.957	158.879	239.747	242.417	-15.590	337.730	195.573	8.849	331.394	-2.426	166.420	301.816	0.00060048	0.00031251	8.2006e-05	884.78	3.6953e-06	4.9303e-06	996.45	298.76	3.0659e-06	4.8019e-06	389.4	131.69	101.7	48.637	3.4501e-06	66.832	7.2276e-05	3.1562e-05	9.0401e-06	862.61	3.6943e-07	3.4612e-07	974.82	293.98	4.1151e-07	3.314e-07	380.2	128.58	100.11	48.094	3.8764e-07	65.854	78.379	85.207	109.280	-3.999	97.758	139.251	-4.368	1.588	136.777	135.848	0.165	4.945	7.224	12.960	147.740	9.589	-8191	255	
1192.866	1	1	0	0	0.13046	0.10061	0.21661	0.12302	0.0057923	0.15417	0.15777	0.12885	0.15407	0.11902	0.18856	0.22547	0.094343	0.15935	0.20903	0.12292	-2.325	-3.1271	-2.6792	-3.0563	-3.4521	-2.9208	-3.425	-3.1	-2.7479	-3.4521	-3.1188	-3.0062	-3.4125	-2.5979	-3.3042	-3.3958	64.894	303.959	108.468	313.803	59.675	77.683	236.320	138.746	-5.055	8.234	320.984	297.388	45.009	36.958	234.404	148.438	0.00050824	0.0003747	0.00012623	974.89	4.3715e-06	3.9045e-06	1090.4	319.97	3.5238e-06	3.8552e-06	394.97	130.01	100.52	48.759	4.8489e-06	67.127	7.2418e-05	3.2186e-05	8.9101e-06	956.49	3.7284e-07	3.4037e-07	1072.7	315.4	4.2848e-07	3.4104e-07	389.21	128.16	99.914	48.366	3.9566e-07	65.892	80.537	75.325	93.531	-3.790	106.813	127.301	-4.055	1.750	118.197	150.255	0.566	5.290	7.882	12.995	130.097	9.369	-8191	255	
1192.960	1	1	0	0	0.066711	0.038818	0.17017	0.0417	0.12032	0.20872	0.20037	0.14725	0.22631	0.24708	0.11498	0.16134	0.15077	0.13425	0.14447	0.27461	-2.3688	-3.3292	-2.7625	-3.1042	-3.5271	-2.9313	-3.5104	-3.4458	-2.7208	-3.3979	-3.075	-3.0208	-3.5563	-2.8583	-3.0708	-3.4125	233.242	18.220	48.231	-14.884	190.984	90.290	326.543	324.991	-2.195	186.173	126.529	301.478	314.715	335.471	29.133	204.302	0.00063008	0.00037296	0.00011064	958.43	4.6209e-06	4.1544e-06	1058	303.88	3.5522e-06	4.5017e-06	382.54	130.48	101.64	49.207	4.8838e-06	67.31	7.3056e-05	3.0334e-05	8.5596e-06	939.01	3.6865e-07	3.2788e-07	1039.2	298.98	4.2462e-07	3.2772e-07	373.97	128.9	99.778	48.687	3.9218e-07	66.49	80.869	72.863	91.725	-3.858	101.398	121.500	-4.148	1.895	118.268	140.564	0.280	4.988	7.170	12.770	145.031	9.777	-8191	255	
1193.057	1	1	0	0	0.10162	0.075009	0.17863	0.13724	0.094161	0.22469	0.17536	0.082338	0.054366	0.26943	0.12874	0.18935	0.12571	0.32448	0.18737	0.15342	-2.5104	-3.4854	-2.9583	-2.8646	-3.4083	-2.825	-3.3063	-3.3354	-2.9208	-3.2292	-3.0396	-2.975	-3.4729	-3.075	-2.8396	-3.4479	148.760	15.889	219.804	280.891	340.125	62.553	235.963	306.468	219.980	282.092	2.774	343.050	317.582	-1.840	156.959	273.075	0.00058497	0.00039474	0.00014746	911.47	4.1485e-06	4.0916e-06	1007	290.51	3.1477e-06	3.9074e-06	369.23	130.35	99.564	48.736	4.0528e-06	67.416	7.2956e-05	3.0075e-05	8.6868e-06	899.09	3.6904e-07	3.3379e-07	1000.1	289.68	3.9901e-07	3.4321e-07	366.1	128.94	98.95	48.551	3.8891e-07	66.826	81.615	68.156	82.074	-2.720	117.045	143.504	-3.505	2.663	124.468	142.206	1.338	5.766	8.099	13.485	162.020	10.093	-8191	255	
1193.154	1	1	0	0	0.1434	0.072088	0.067504	0.12191	0.068277	0.058126	0.37158	0.037372	0.17276	0.19604	0.20418	0.035894	0.3254	0.17475	0.046874	0.10951	-2.3354	-3.4188	-3.0792	-2.8312	-3.5042	-3.0687	-3.1646	-3.4229	-2.7542	-3.5229	-3.3875	-2.9375	-3.4271	-2.9292	-2.8833	-3.3958	206.968	79.493	50.825	300.623	251.562	191.618	202.251	255.723	241.534	258.596	262.496	278.601	313.797	250.657	85.353	173.537	0.00060295	0.00046552	0.00011643	907.76	3.466e-06	4.71e-06	1005.4	289.81	2.3863e-06	3.622e-06	369.25	131.1	99.416	48.958	4.6699e-06	67.835	7.3485e-05	3.2957e-05	8.8479e-06	888.8	3.6507e-07	3.3084e-07	990.04	285.46	4.0688e-07	3.3106e-07	363.3	129.02	98.666	48.625	3.8952e-07	66.773	77.680	84.940	72.652	-3.299	124.255	126.422	-4.226	2.069	131.950	133.926	0.726	5.351	7.749	13.062	149.206	9.961	-8191	255	
1193.249	1	1	0	0	0.55654	0.14864	0.12133	0.10496	0.20356	0.18535	0.60229	0.11083	0.14034	0.16944	0.11232	0.061689	0.23227	0.19579	0.23369	0.062962	-2.4979	-3.3021	-3.1417	-2.6333	-3.25	-3.1937	-3.1521	-3.5333	-2.8271	-3.0583	-3.1854	-2.6583	-3.4813	-3.2229	-2.9229	-3.5729	267.225	91.963	61.804	-5.958	103.935	-3.920	313.654	42.728	102.339	163.178	290.147	4.645	295.846	281.758	113.417	282.053	0.00058278	0.00044104	0.00010614	889.19	5.6865e-06	5.3724e-06	987.58	285.1	3.9458e-06	3.6234e-06	365.98	129.47	99.204	48.896	5.3125e-06	66.912	7.2747e-05	3.2013e-05	8.7179e-06	877.79	3.6276e-07	3.4121e-07	974.69	282.45	3.9603e-07	3.2739e-07	358.43	127.48	98.115	48.309	3.8775e-07	66.171	80.140	77.382	76.199	-3.711	111.274	126.374	-3.904	2.271	138.823	147.645	0.511	5.072	7.064	12.681	153.273	9.625	-8191	255	
1193.345	1	1	0	0	0.25277	0.090102	0.24456	0.14763	0.10125	0.1251	0.20456	0.1156	0.25235	0.21277	0.20164	0.25726	0.11798	0.2216	0.28514	0.16621	-2.4958	-3.1688	-3.2687	-2.6708	-3.3	-3.0812	-2.8438	-3.4667	-2.7458	-3.2604	-3.6375	-2.8417	-3.4271	-3.0375	-2.8583	-3.5146	171.897	113.398	68.855	-3.261	330.873	239.918	300.943	249.827	114.564	80.893	332.755	328.111	6.360	316.009	40.193	321.997	0.00057925	0.00030958	0.00012957	889.58	5.4045e-06	4.8539e-06	989.78	287.45	3.4492e-06	4.7323e-06	365.47	129.69	99.323	49.266	3.4622e-06	68.169	7.1281e-05	3.0765e-05	8.3716e-06	875.86	3.8303e-07	3.5002e-07	972.47	281.95	3.979e-07	3.4193e-07	358.1	127.7	97.693	48.459	3.8194e-07	66.889	82.687	78.227	79.683	-3.519	108.874	130.539	-4.273	1.496	126.603	144.274	0.319	4.941	6.979	12.312	144.459	9.063	-8191	255	
1193.466	1	1	0	0	0.096149	0.073984	0.27743	0.085412	0.10228	0.26145	0.32956	0.10742	0.29921	0.11668	0.11497	0.12571	0.18438	0.28193	0.17438	0.44566	-2.4	-3.0708	-3.2396	-2.8812	-3.1417	-3.0687	-2.9	-3.4375	-2.8937	-2.9854	-3.6583	-3.0062	-3.3229	-3.15	-2.5771	-3.5917	145.857	188.992	316.273	330.373	48.617	269.852	252.256	171.841	126.411	324.196	200.311	291.893	242.882	299.025	285.651	248.482	0.00061872	0.00047119	0.00011881	888.75	5.5959e-06	3.3293e-06	987.86	285.13	3.3726e-06	3.8205e-06	364.9	130.67	100.08	49.147	4.4452e-06	68.151	7.3704e-05	3.4215e-05	8.4055e-06	869.46	3.6607e-07	3.3257e-07	967.97	281.14	3.7113e-07	3.3084e-07	359.14	128.46	98.134	48.672	3.8808e-07	67.252	81.299	61.968	94.339	-3.722	109.364	144.562	-4.353	2.022	126.698	139.285	0.430	5.039	7.273	12.830	154.917	9.747	-8191	255	
1193.562	1	1	0	0	0.19383	0.24583	0.12088	0.087282	0.10641	0.13604	0.17121	0.12932	0.19604	0.095006	0.24761	0.1612	0.17417	0.26331	0.1995	0.14169	-2.7333	-2.8917	-3.3792	-2.9146	-3.1917	-3.3542	-3.0708	-3.5687	-3.1146	-2.8688	-3.3604	-2.9271	-3.4458	-3.4062	-2.8167	-3.4688	243.661	23.185	223.238	296.145	228.812	275.355	295.662	-9.693	85.454	150.567	266.192	233.571	37.128	-1.111	287.755	297.314	0.00058201	0.00032803	0.00012414	888.86	4.658e-06	3.8776e-06	979.63	283.97	3.0312e-06	3.6958e-06	368.31	130.52	99.563	49.208	5.6356e-06	68.143	7.2457e-05	3.145e-05	8.5596e-06	868.22	3.7284e-07	3.1863e-07	963.42	279.88	3.9295e-07	3.4427e-07	357.8	127.79	97.518	48.373	3.794e-07	66.583	77.977	91.749	95.753	-3.984	98.640	124.820	-4.686	1.713	120.294	131.415	0.187	4.777	6.732	12.409	146.386	8.850	-8191	255	
1193.658	1	1	0	0	0.24336	0.18874	0.22926	0.22508	0.1938	0.14827	0.27693	0.088241	0.20882	0.10809	0.47713	0.30317	0.25446	0.043723	0.041071	0.25216	-2.6083	-2.7917	-3.4375	-2.9062	-3.1646	-3.3042	-2.7146	-3.3521	-3.2042	-2.925	-3.3479	-2.7979	-3.0208	-3.5312	-2.7687	-3.3708	142.377	326.222	256.192	-14.718	254.244	149.069	304.784	289.988	282.458	311.328	314.484	287.305	173.034	308.106	248.120	47.790	0.00060679	0.00031063	0.00013852	885.52	5.6683e-06	4.6307e-06	978.19	283.86	4.2139e-06	4.1227e-06	362.93	129.71	99.357	48.987	5.0062e-06	67.655	7.0891e-05	3.0801e-05	8.2147e-06	864.99	3.9608e-07	3.1562e-07	959.08	279.05	4.0319e-07	3.5475e-07	354.82	126.83	97.26	48.322	3.6573e-07	66.368	80.781	62.376	73.764	-3.956	113.247	121.085	-4.456	1.179	117.187	135.100	0.126	4.918	6.741	12.613	165.263	9.134	-8191	255	
1193.730	1	1	0	0	0.054404	0.28641	0.10219	0.2382	0.17791	0.087651	0.020497	0.27133	0.18284	0.15728	0.23377	0.35031	0.088675	0.13536	0.14426	0.2425	-2.6729	-2.6063	-3.3604	-3.1229	-3.0438	-3.525	-2.65	-3.2687	-3.1188	-2.8167	-3.5146	-2.8937	-2.9188	-3.4167	-2.6125	-3.2	260.342	51.711	9.161	274.707	219.791	193.279	180.618	343.196	14.505	283.426	296.616	327.824	248.851	313.043	294.591	243.447	0.0005855	0.00054403	0.00010892	878.61	3.8701e-06	3.9326e-06	976.63	281.98	3.5735e-06	5.3283e-06	364.69	129.5	98.754	48.955	4.3624e-06	67.908	6.9962e-05	3.2936e-05	7.8882e-06	859.36	3.8694e-07	3.1523e-07	955.48	277.98	3.8837e-07	3.309e-07	354.92	127.08	97.033	48.271	3.9328e-07	66.558	78.718	81.461	77.019	-3.718	118.060	122.019	-4.592	1.356	131.162	129.962	0.066	4.955	6.910	12.510	163.043	9.219	-8191	255	
1193.826	1	1	0	0	0.35464	0.077704	0.14171	0.10193	0.080515	0.077104	0.075388	0.11619	0.11782	0.062632	0.20946	0.22905	0.14353	0.13391	0.072413	0.23788	-3.1521	-2.775	-3.5354	-3.1917	-2.8854	-3.4167	-3.0896	-3.2417	-3.3958	-2.7812	-3.4979	-2.9813	-2.9813	-3.6083	-2.9062	-3.2313	322.902	103.387	241.420	266.735	288.201	270.593	142.008	343.201	147.223	96.253	273.792	13.624	202.042	254.457	23.565	255.948	0.00057508	0.00049861	0.00011873	874.26	5.1907e-06	4.2698e-06	969.32	282.04	3.9858e-06	3.8326e-06	363.25	128.68	98.825	48.718	4.7881e-06	67.559	6.9348e-05	3.1531e-05	8.4027e-06	856.53	3.8231e-07	3.3179e-07	952.81	277.2	3.7576e-07	3.3831e-07	354.48	126.5	96.761	48.008	3.8748e-07	66.438	82.715	79.227	92.887	-3.584	118.667	126.699	-4.180	1.478	117.694	132.184	0.230	4.828	6.783	12.730	146.795	9.183	-8191	255	
1193.946	1	1	0	0	0.13488	0.19605	0.072802	0.11594	0.066233	0.25632	0.089614	0.31593	0.1027	0.098476	0.10846	0.18615	0.10329	0.036623	0.13324	0.19643	-2.8104	-2.6042	-3.4021	-3.1375	-2.8438	-3.4271	-3.0792	-3.0854	-3.1083	-2.6333	-3.5521	-3.3896	-2.8083	-3.3375	-2.8896	-3.3354	212.568	187.958	278.734	314.607	321.110	42.211	45.147	308.169	167.407	92.683	104.339	78.731	333.465	251.039	138.342	285.608	0.00058098	0.00034448	0.000135	871.86	5.0014e-06	5.0758e-06	965.09	279.58	3.281e-06	3.752e-06	360.52	127.79	98.176	48.267	3.9861e-06	66.846	7.0319e-05	3.0522e-05	8.9454e-06	851.69	3.9179e-07	3.0201e-07	947.16	275.43	3.8386e-07	3.3591e-07	351.62	125.73	96.33	47.6	3.6773e-07	65.606	75.673	83.159	91.450	-3.588	97.207	128.215	-4.420	1.720	146.877	142.098	0.334	5.268	6.453	12.793	152.855	9.216	-8191	255	
1194.041	1	1	0	0	0.23142	0.1516	0.13342	0.10279	0.13927	0.24902	0.31821	0.11781	0.19011	0.21152	0.19445	0.24582	0.39919	0.1121	0.33363	0.17311	-3.0958	-2.6146	-3.2896	-3.5104	-2.6958	-3.3729	-3.2396	-3.0625	-3.3208	-2.7917	-3.4	-3.2188	-2.7229	-3.4917	-2.9104	-3.1688	313.620	138.452	187.505	236.012	27.338	90.121	244.118	202.456	226.750	106.781	273.733	333.886	332.471	215.415	194.723	244.243	0.0005961	0.00049358	0.00013823	867.3	3.9913e-06	4.2272e-06	961.32	279.21	3.6407e-06	4.2959e-06	358.71	128.44	98.027	48.757	4.8497e-06	67.225	6.9562e-05	3.0308e-05	8.4295e-06	847.7	3.8358e-07	2.9337e-07	941.42	274.76	3.702e-07	3.2911e-07	351.12	126.16	96.349	48.019	3.8222e-07	66.104	83.652	72.842	99.912	-3.843	111.632	135.275	-4.304	1.480	137.125	136.857	0.545	5.212	7.394	12.510	156.083	9.201	-8191	255	
1194.137	1	1	0	0	0.16955	0.17366	0.28896	0.11935	0.10681	0.099052	0.16776	0.32656	0.23998	0.14281	0.19489	0.18682	0.22435	0.2449	0.17797	0.052534	-3.1021	-2.6792	-3.1167	-3.3563	-2.8563	-3.575	-3.2021	-2.7562	-3.4188	-2.9375	-3.3125	-3.4375	-2.7896	-3.4813	-3.0792	-2.9583	35.029	33.360	293.474	336.488	250.077	196.987	239.809	341.095	243.935	267.139	315.236	216.913	174.933	321.070	342.518	242.925	0.00060235	0.00038828	0.00013192	864.21	4.4634e-06	4.6335e-06	957.48	277.53	3.5296e-06	4.1933e-06	361.03	127.31	97.827	48.257	4.9837e-06	66.883	6.9186e-05	3.1643e-05	9.0147e-06	847.82	3.6243e-07	3.2142e-07	940.98	274.37	3.7003e-07	3.4483e-07	351.55	125.84	96.054	47.766	3.7846e-07	65.825	80.559	76.824	79.706	-3.429	106.105	125.849	-4.216	1.853	132.085	122.204	0.318	5.493	7.580	12.621	169.351	9.055	-8191	255	
1194.235	1	1	0	0	0.31079	0.090397	0.10798	0.22741	0.11134	0.25865	0.16247	0.22536	0.14334	0.21507	0.12758	0.17577	0.25368	0.2203	0.28939	0.30827	-3.2021	-2.8104	-3.0062	-3.4417	-2.5792	-3.1354	-3.4333	-3.0833	-3.4979	-2.9021	-3.0104	-3.5938	-2.7917	-3.2625	-3.1542	-3.0458	53.901	239.324	190.615	283.564	27.165	203.116	271.323	-11.387	310.918	342.388	230.406	311.993	213.067	49.305	-6.496	292.656	0.00058257	0.00044872	0.00011097	864.38	5.7874e-06	4.9917e-06	956.53	277.21	3.7682e-06	4.902e-06	357.78	128.21	97.719	47.964	4.7204e-06	67.203	7.0381e-05	3.0735e-05	8.831e-06	848.2	3.7378e-07	3.3128e-07	943.73	273.43	3.5907e-07	3.3959e-07	351.01	126.2	95.918	47.424	3.5362e-07	65.856	81.156	88.812	110.109	-3.658	92.377	116.739	-4.179	1.793	131.802	154.162	0.345	4.897	7.162	12.479	151.580	9.149	-8191	255	
1194.354	1	1	0	0	0.32261	0.14269	0.17535	0.14589	0.3309	0.17014	0.05801	0.14095	0.049755	0.10277	0.19134	0.0045771	0.12729	0.2515	0.39683	0.26764	-3.1521	-2.8958	-2.8229	-3.4917	-2.9562	-3.2604	-3.375	-2.7042	-3.15	-2.7708	-3.0292	-3.5062	-2.9792	-3.0646	-3.1896	-2.5979	206.434	67.959	20.138	284.348	111.420	15.319	177.110	158.939	236.351	-1.913	11.735	107.677	189.622	298.207	174.136	286.853	0.00058088	0.00044694	0.00010197	868.41	5.8999e-06	4.7345e-06	955.27	278.36	3.8084e-06	4.2709e-06	357.07	128.63	97.99	48.446	5.0616e-06	66.624	6.9767e-05	3.1582e-05	8.7772e-06	846.69	3.7626e-07	3.0173e-07	940.37	273.74	3.8926e-07	3.1228e-07	349.67	125.75	96.276	47.912	3.5937e-07	65.745	81.566	91.355	93.507	-3.860	103.518	138.934	-4.437	1.728	130.556	146.914	0.180	5.209	7.427	12.794	144.817	9.394	-8191	255	
1194.425	1	1	0	0	0.17252	0.15507	0.25352	0.14792	0.15279	0.22786	0.071733	0.11985	0.10087	0.046606	0.10371	0.10212	0.25289	0.11551	0.19038	0.16432	-2.9208	-3.0771	-2.7792	-3.6521	-2.9708	-3.2583	-3.4125	-2.6063	-3.3208	-3.0917	-2.975	-3.575	-2.9104	-3.0083	-3.4354	-2.8708	215.685	312.120	5.985	38.923	108.386	91.978	181.701	303.204	21.832	263.303	195.505	158.568	333.369	20.341	111.622	201.779	0.00059086	0.00043164	0.00011007	866.11	5.2117e-06	5.0132e-06	955.3	278.23	3.2635e-06	3.1203e-06	356.71	127.14	96.814	48.182	3.7884e-06	66.677	7.0296e-05	2.9618e-05	8.6345e-06	844.9	3.4602e-07	3.2058e-07	937.92	273.27	3.8353e-07	3.0565e-07	349.32	125.22	95.619	47.667	3.5561e-07	65.628	77.718	67.709	99.069	-4.078	114.366	138.625	-4.270	1.943	122.474	126.242	0.513	5.009	7.546	12.805	129.643	9.429	-8191	255	
1194.546	1	1	0	0	0.25527	0.28274	0.12123	0.40941	0.21215	0.14562	0.03822	0.17607	0.25007	0.17999	0.25664	0.19847	0.040826	0.13296	0.10048	0.29871	-2.9521	-3.1562	-2.7833	-3.3167	-2.8146	-2.9229	-3.4292	-2.8438	-3.1083	-3.2667	-2.8812	-3.5042	-2.975	-2.7104	-3.25	-2.8937	106.212	282.613	119.001	289.019	131.120	33.180	270.943	284.173	149.841	147.017	276.291	252.970	46.303	39.916	135.573	234.486	0.00056584	0.00048457	0.00013313	854.12	4.4533e-06	4.2503e-06	952.12	277.48	3.4153e-06	4.9887e-06	358.15	127.47	97.177	47.697	4.0051e-06	66.846	6.8734e-05	3.1359e-05	8.1398e-06	839.74	3.5808e-07	3.3168e-07	936.82	273.28	3.8656e-07	3.1931e-07	350.66	125.38	95.677	47.458	3.5937e-07	65.709	80.987	84.056	80.854	-3.438	102.224	111.762	-4.099	1.856	128.090	125.253	0.303	5.429	7.010	12.733	155.933	9.502	-8191	255	
1194.642	1	1	0	0	0.38182	0.014122	0.039293	0.27238	0.086978	0.15867	0.35996	0.31626	0.20087	0.08481	0.052498	0.11702	0.24409	0.24391	0.054524	0.14092	-2.525	-3.1083	-2.7583	-3.6229	-2.9938	-2.8625	-3.6479	-2.7833	-3.0083	-3.1292	-2.85	-3.1854	-3.1042	-2.7	-3.2896	-2.7021	200.939	58.852	115.263	320.392	208.595	74.199	332.898	276.756	34.439	200.388	219.612	332.890	-9.933	11.161	174.396	149.572	0.00057629	0.00046546	9.6203e-05	860.47	4.4555e-06	6.0634e-06	952.34	277.28	2.4634e-06	3.6091e-06	357.74	126.89	97.303	47.598	4.6293e-06	66.298	7.17e-05	3.044e-05	8.5356e-06	839.67	3.5643e-07	3.4322e-07	938.43	272.77	3.8579e-07	3.0175e-07	351.1	125.15	95.583	47.245	3.649e-07	65.239	76.575	79.633	84.806	-3.571	112.911	127.891	-4.388	1.676	115.843	131.987	0.639	5.178	7.100	12.608	166.255	9.612	-8191	255	
1194.738	1	1	0	0	0.2382	0.24507	0.099119	0.10262	0.075001	0.14033	0.22046	0.20208	0.096586	0.059623	0.11685	0.0857	0.21072	0.1769	0.15357	0.25135	-2.7812	-3.2313	-2.6958	-3.3271	-3.0667	-2.8	-3.3146	-2.8854	-2.8208	-3.3958	-2.7333	-3.3271	-3.0542	-2.8812	-3.3729	-2.8688	237.700	243.193	296.847	272.164	6.871	68.981	342.032	252.137	77.548	126.616	246.345	288.013	8.246	263.255	231.461	338.162	0.00060109	0.00033997	0.00012142	858.51	4.7428e-06	5.019e-06	951.24	275.63	3.2819e-06	3.5211e-06	358.49	126.95	97.427	47.819	4.1124e-06	66.225	7.2871e-05	3.0131e-05	8.1539e-06	837.92	3.567e-07	3.3285e-07	935.02	271.67	3.8237e-07	3.0504e-07	347.97	124.22	95.202	47.139	3.5926e-07	64.935	81.163	75.417	100.043	-3.708	107.126	132.016	-4.423	1.594	122.249	127.093	-0.098	5.096	7.017	12.575	148.242	9.195	-8191	255	
1194.834	1	1	0	0	0.11211	0.092189	0.072677	0.16816	0.098258	0.13246	0.15841	0.10832	0.11701	0.099433	0.16322	0.16046	0.17414	0.23468	0.33418	0.099912	-2.3604	-3.2229	-2.7812	-3.3	-3.1917	-2.8271	-3.5771	-3.1042	-2.7375	-3.3312	-2.8521	-3.4188	-3.3583	-2.9292	-3.4688	-3.1271	307.507	98.432	230.398	342.199	197.388	129.043	181.825	169.693	59.093	152.666	286.710	210.378	159.104	5.625	131.792	277.474	0.0005906	0.00045568	0.00012454	859.35	4.1087e-06	4.2725e-06	949.55	276.44	3.1971e-06	4.7826e-06	356.13	127.56	97.089	48.008	5.9754e-06	66.63	6.9305e-05	2.9086e-05	8.4847e-06	838.32	3.3875e-07	3.3329e-07	932.06	271.84	3.7873e-07	3.0192e-07	348.86	124.95	95.445	47.427	3.7542e-07	65.459	83.122	67.256	96.239	-3.733	125.057	127.365	-4.119	1.817	123.454	129.906	-0.115	4.749	7.199	12.186	150.155	9.091	-8191	255	
1194.955	1	1	0	0	0.1819	0.14379	0.12303	0.18814	0.18152	0.07092	0.10919	0.19083	0.11076	0.086946	0.15469	0.14517	0.16508	0.13228	0.025249	0.076026	-2.5208	-3.3292	-2.8708	-3.1813	-3.3563	-2.7479	-3.5146	-2.9792	-2.7854	-3.3583	-2.9313	-3.2396	-3.3271	-2.6458	-3.2292	-3.1229	141.144	156.778	134.943	232.456	94.061	273.427	177.406	330.776	239.826	4.919	251.109	314.161	145.227	304.303	36.322	49.673	0.0005767	0.00045413	0.00014032	852.37	4.7338e-06	4.1588e-06	956.15	277.07	4.4482e-06	4.2146e-06	356.69	127.22	96.394	47.523	5.9096e-06	66.124	7.0729e-05	2.936e-05	8.8536e-06	835.62	3.507e-07	3.1684e-07	933.49	271.97	3.9713e-07	3.1763e-07	349.31	124.87	95.015	47.022	3.7995e-07	64.988	80.349	76.959	82.574	-3.825	117.647	131.330	-4.405	1.526	114.481	142.583	0.575	5.253	7.243	12.630	151.769	9.597	-8191	255	
1195.027	1	1	0	0	0.16497	0.26819	0.13602	0.070431	0.15109	0.21649	0.15672	0.48393	0.20663	0.25016	0.10232	0.21688	0.003705	0.26106	0.067772	0.18946	-2.4229	-3.4583	-2.6667	-3.1604	-3.375	-2.8229	-3.3479	-3.1792	-2.9583	-3.3771	-2.9688	-3.0646	-3.4083	-2.9313	-3.1771	-3.3375	148.822	290.760	250.976	321.248	273.546	126.509	184.882	283.239	35.593	167.453	243.623	-0.726	15.834	286.909	334.189	298.829	0.00061399	0.00048236	0.00014996	854.16	4.0082e-06	3.9518e-06	948.71	273.92	4.423e-06	4.4854e-06	355.03	126.05	95.813	47.151	4.1436e-06	65.5	7.2047e-05	3.006e-05	8.496e-06	835.84	3.5042e-07	3.2827e-07	932.41	271.03	4.0843e-07	3.2036e-07	348.16	124.07	94.808	46.944	3.8012e-07	64.648	77.556	93.016	80.450	-3.707	106.148	142.676	-4.253	1.872	131.899	154.916	0.275	5.024	7.483	12.980	171.603	9.513	-8191	255	
1195.123	1	1	0	0	0.22448	0.31283	0.11114	0.32344	0.15724	0.2744	0.27804	0.2738	0.20387	0.1284	0.18327	0.081783	0.20979	0.27456	0.11091	0.25199	-2.5208	-3.45	-2.9979	-2.8208	-3.4313	-2.8646	-3.2625	-3.2188	-2.6917	-3.2583	-3.1688	-2.9375	-3.5	-2.9542	-3.225	-3.4104	302.391	199.495	99.911	9.056	334.062	38.229	40.625	293.525	318.334	66.975	234.214	12.633	300.156	209.058	191.408	312.052	0.00057554	0.00048176	0.00013802	849.21	5.014e-06	5.8014e-06	932.92	273.77	2.8277e-06	3.4004e-06	350.77	124.64	95.872	47.203	4.3213e-06	65.663	6.8991e-05	2.8898e-05	8.4493e-06	832.02	3.5582e-07	3.2292e-07	923.35	269.97	3.9074e-07	3.1535e-07	344.05	123.15	94.679	46.836	3.8034e-07	64.413	79.372	74.448	88.912	-3.431	92.591	130.939	-3.802	2.235	156.447	128.632	0.661	5.338	7.345	13.184	167.571	9.494	-8191	255	
1195.242	1	1	0	0	0.22831	0.074678	0.13618	0.11101	0.02932	0.146	0.26611	0.23754	0.14522	0.019843	0.22893	0.11277	0.14236	0.22842	0.096787	0.1677	-2.3896	-3.4688	-2.9292	-3.0333	-3.6125	-2.9938	-3.2854	-3.4208	-2.5792	-3.3167	-3.3937	-2.8417	-3.3146	-3.0333	-3.0687	-3.4542	285.715	278.281	294.573	133.045	103.038	294.888	218.999	218.078	61.587	342.212	328.318	267.848	334.481	28.840	193.473	321.658	0.00052536	0.00045503	0.00011634	846.42	3.9225e-06	5.0264e-06	935.41	271.86	3.7454e-06	4.2939e-06	351.92	125.4	95.772	47.414	3.5156e-06	65.848	6.7639e-05	3.0948e-05	8.373e-06	831.26	3.5588e-07	3.198e-07	924.19	269.74	3.9493e-07	3.2265e-07	345.87	123.52	94.525	46.925	3.7215e-07	64.679	81.775	69.608	78.638	-3.447	98.292	139.865	-3.567	2.485	147.234	125.867	0.526	5.117	7.110	12.765	148.080	9.571	-8191	255	
1195.338	1	1	0	0	0.26515	0.040645	0.098493	0.26755	0.2268	0.21648	0.05759	0.27955	0.20132	0.15984	0.07439	0.18494	0.21223	0.30829	0.28815	0.3494	-2.425	-3.3292	-3.1562	-2.8521	-3.5146	-3.1479	-3.1646	-3.2979	-2.7562	-3.2979	-3.3708	-2.6562	-3.4021	-3.1229	-2.9625	-3.4979	173.790	30.024	91.899	246.255	201.868	289.005	179.195	275.503	293.729	291.479	342.257	26.760	318.211	288.542	316.832	218.284	0.00056661	0.00050675	8.6435e-05	848.78	3.6919e-06	3.9477e-06	938.13	273.51	4.02e-06	5.5447e-06	355.37	125.74	95.672	47.221	2.9209e-06	65.675	6.8896e-05	3.0171e-05	8.5172e-06	832.11	3.4954e-07	3.3273e-07	926.72	269.96	3.7135e-07	3.3864e-07	347.61	123.82	94.462	46.652	3.5268e-07	64.555	79.744	77.483	85.865	-3.429	121.804	146.984	-4.260	2.386	148.449	145.055	0.502	4.789	7.236	12.684	165.460	9.593	-8191	255	
1195.434	1	1	0	0	0.099309	0.1381	0.079064	0.17271	0.13489	0.21122	0.30281	0.26551	0.18491	0.081875	0.087089	0.2772	0.0481	0.13974	0.055532	0.18815	-2.4813	-3.3187	-3.1521	-2.7375	-3.5083	-3.0125	-3.0958	-3.5333	-2.9042	-3.2333	-3.3604	-3.0563	-3.5292	-2.9917	-2.9771	-3.525	330.541	42.932	35.406	63.993	118.643	81.779	288.652	65.885	172.636	312.744	258.801	30.924	260.450	23.873	156.364	282.947	0.00058972	0.00038501	6.858e-05	848.93	3.3503e-06	4.1483e-06	941.1	272.22	3.2699e-06	4.3697e-06	352.86	124.32	95.586	47.105	4.0591e-06	64.671	7.2761e-05	3.0496e-05	8.1963e-06	829.37	3.4976e-07	3.145e-07	924.48	269.12	3.8722e-07	3.0727e-07	344.84	122.44	94.147	46.53	3.6762e-07	63.582	79.965	77.973	101.255	-3.672	119.736	147.849	-3.663	2.184	133.228	149.704	0.447	5.291	6.932	13.054	150.860	9.557	-8191	255	
1195.530	1	1	0	0	0.27782	0.31408	0.12774	0.18045	0.2479	0.037406	0.3106	0.096908	0.1351	0.1431	0.22011	0.015428	0.25283	0.13282	0.09819	0.16544	-2.4979	-3.175	-3.1854	-2.9542	-3.4771	-3.1021	-2.9042	-3.6437	-2.9625	-3.2167	-3.4167	-2.8042	-3.35	-3.0896	-2.7875	-3.5333	-12.539	122.230	273.479	338.784	251.232	37.679	262.986	64.208	337.440	161.677	17.297	289.449	10.511	14.932	224.245	265.603	0.00058347	0.00052023	0.00013165	838.26	4.4457e-06	5.7942e-06	930.27	272.1	3.4629e-06	3.195e-06	346.3	121.89	94.721	46.664	3.88e-06	64.234	7.0895e-05	3.1551e-05	7.9306e-06	826.35	3.5125e-07	3.034e-07	918.69	268.7	3.7372e-07	3.2805e-07	342.64	121.53	93.78	46.331	3.7503e-07	63.421	78.242	77.236	80.633	-3.461	113.343	127.929	-3.876	1.761	133.926	139.042	0.761	5.815	7.581	13.043	140.874	9.744	-8191	255	
1195.626	1	1	0	0	0.11559	0.058601	0.19954	0.15447	0.096671	0.17849	0.074558	0.33498	0.21566	0.23872	0.10773	0.18147	0.18725	0.18635	0.17948	0.22849	-2.6875	-2.9625	-3.0083	-2.8146	-3.1458	-3.2083	-2.8812	-3.5792	-2.9333	-2.9562	-3.3708	-3.0354	-3.2042	-3.4729	-2.7854	-3.5583	317.572	205.034	115.170	273.121	54.066	22.571	28.448	315.435	315.085	281.756	342.500	326.537	164.420	22.044	118.991	277.321	0.00060033	0.00031331	0.00015119	839.55	3.5967e-06	4.8343e-06	925.87	272.1	2.9275e-06	3.4279e-06	350.31	124.53	96.032	47.124	4.3773e-06	64.926	7.0367e-05	2.9395e-05	8.0479e-06	826.27	3.5296e-07	3.1528e-07	918.54	268.56	3.7378e-07	3.217e-07	343.94	122.02	93.818	46.382	3.6728e-07	63.609	82.970	73.524	81.541	-3.377	120.510	135.971	-3.677	1.871	116.793	127.867	0.539	4.976	6.834	12.635	147.322	9.155	-8191	255	
1195.723	1	1	0	0	0.1876	0.11543	0.085849	0.017997	0.14667	0.1658	0.08338	0.11718	0.14303	0.069949	0.18127	0.38918	0.17959	0.26894	0.0085705	0.23676	-2.8021	-3.1396	-3.2396	-2.9271	-3.3792	-3.3854	-2.9271	-3.4167	-3.2896	-2.7958	-3.4458	-2.8896	-2.9354	-3.5708	-2.6979	-3.4	318.737	69.405	171.867	171.272	-10.443	17.230	34.616	183.369	170.896	35.171	255.116	301.900	119.732	282.998	324.444	305.894	0.00055032	0.00047062	0.00010929	847.01	4.6619e-06	5.4501e-06	942.34	273.17	2.5255e-06	5.0044e-06	353.8	125.59	95.774	47.224	3.9561e-06	65.339	6.7301e-05	3.0425e-05	8.1935e-06	828.23	3.5901e-07	3.0597e-07	923.22	268.95	3.7389e-07	3.3435e-07	345.61	123.11	94.172	46.536	3.6789e-07	64.066	83.945	75.258	90.371	-3.653	87.188	125.127	-4.266	1.701	91.302	142.908	0.489	4.935	6.673	12.740	153.887	9.128	-8191	255	
1195.819	1	1	0	0	0.022856	0.14487	0.11378	0.26923	0.27592	0.097245	0.12493	0.29586	0.099595	0.15636	0.029924	0.19003	0.13215	0.080187	0.032682	0.047828	-2.6583	-2.8271	-3.2438	-2.8729	-3.0104	-3.4833	-2.9938	-3.2562	-3.2188	-2.7062	-3.5167	-2.8812	-2.9354	-3.4	-2.8	-3.1354	213.349	180.406	155.851	31.030	171.576	108.906	282.280	307.149	249.371	204.132	100.813	337.846	250.786	316.972	66.946	294.458	0.00057526	0.00030873	0.00012521	846.66	4.4403e-06	4.4567e-06	937.73	272.06	4.7766e-06	3.8793e-06	349.72	124.16	94.545	46.395	4.4079e-06	63.583	6.783e-05	2.935e-05	8.4211e-06	826.49	3.4976e-07	3.1288e-07	920.91	268.16	3.7482e-07	3.1618e-07	341.96	121.36	93.235	46.001	3.6225e-07	62.601	80.134	79.358	91.004	-3.897	104.884	122.562	-4.487	1.543	131.844	148.825	0.094	4.856	6.819	12.539	153.904	9.180	-8191	255	
1195.915	1	1	0	0	0.10636	0.12898	0.31863	0.1976	0.023782	0.093906	0.11839	0.22486	0.12141	0.17133	0.044892	0.073332	0.085281	0.055067	0.14096	0.17683	-2.8125	-2.7417	-3.2229	-3.1771	-3.1104	-3.4458	-2.9813	-3.3042	-3.2687	-2.8125	-3.5521	-3.1146	-3.0479	-3.7042	-2.9229	-3.2104	126.318	160.300	-11.447	88.780	70.737	141.200	281.987	207.893	215.701	337.108	228.873	27.257	155.395	293.840	29.040	284.236	0.00053495	0.00052918	8.161e-05	843.67	5.5439e-06	4.2293e-06	932.09	271.04	2.1245e-06	3.2412e-06	349.38	124.16	94.991	46.774	3.4807e-06	64.174	6.6568e-05	3.144e-05	7.631e-06	823.96	3.6419e-07	2.9844e-07	916.06	267.17	3.4585e-07	3.2655e-07	340.93	121.06	93.108	46.044	3.5622e-07	62.861	79.772	65.241	92.637	-3.647	97.904	127.229	-4.465	1.747	119.022	140.980	-0.204	4.269	6.174	12.106	144.167	8.592	-8191	255	
1196.034	1	1	0	0	0.32463	0.02101	0.039575	0.12098	0.069961	0.13893	0.28355	0.17139	0.076604	0.12283	0.025734	0.14635	0.09448	0.081819	0.24499	0.18251	-3.1021	-2.5708	-3.3417	-3.3917	-2.8521	-3.4771	-2.8312	-3.0563	-3.4479	-2.7604	-3.3396	-3.1833	-2.8396	-3.6667	-2.8875	-3.2458	175.784	81.750	80.274	139.725	68.404	10.586	47.202	302.977	158.227	36.245	335.068	318.639	291.481	271.981	19.508	-5.260	0.00055749	0.00048041	0.00012676	843.68	4.468e-06	3.3486e-06	941.13	273.14	2.7414e-06	4.9785e-06	348.61	123.3	94.749	46.263	4.539e-06	63.968	6.7263e-05	3.1891e-05	8.0465e-06	823.26	3.6832e-07	2.9543e-07	920.04	267.64	3.5014e-07	3.1368e-07	341.29	120.91	93.023	45.67	3.5561e-07	62.408	78.445	76.969	96.027	-4.242	102.498	134.995	-4.574	1.410	137.801	136.098	-0.012	4.967	6.491	12.606	156.446	9.041	-8191	255	
1196.130	1	1	0	0	0.079011	0.0804	0.13817	0.20263	0.10286	0.10061	0.29641	0.079561	0.1801	0.052354	0.13531	0.042129	0.042241	0.31712	0.18329	0.39181	-2.8667	-2.6646	-3.1271	-3.225	-2.9146	-3.375	-3.0896	-3.0104	-3.2583	-2.8583	-3.2812	-3.2604	-2.7938	-3.4292	-2.7333	-3.0875	215.268	258.276	197.404	300.367	140.862	232.065	292.880	270.229	101.146	131.912	65.642	167.968	1.372	19.677	38.996	318.574	0.0005283	0.0003732	0.00013555	844.48	3.4524e-06	5.0475e-06	941.97	272.72	3.2725e-06	3.497e-06	350.66	122.4	94.178	45.969	3.7237e-06	63.447	6.7092e-05	3.113e-05	8.3264e-06	825.99	3.5064e-07	3.0374e-07	923.42	267.54	3.7135e-07	2.8816e-07	342.49	120.37	92.471	45.35	3.3885e-07	62.027	75.867	88.317	85.794	-3.771	121.086	138.902	-4.450	1.264	157.985	144.962	0.519	4.890	6.634	12.292	155.183	9.274	-8191	255	
1196.226	1	1	0	0	0.16758	0.16984	0.1766	0.07593	0.27006	0.15049	0.33247	0.23544	0.23317	0.2481	0.060464	0.11596	0.10847	0.21032	0.22388	0.085599	-3.0875	-2.5354	-3.2458	-3.4396	-2.8	-3.6521	-3.0583	-3.0458	-3.4437	-2.9375	-3.3021	-3.5167	-2.7375	-3.4583	-3.1479	-3.0375	292.913	7.887	340.742	314.157	-11.290	244.005	-10.552	248.256	103.062	258.938	200.213	6.512	342.469	291.132	343.638	6.163	0.00054211	0.00044018	9.734e-05	845.61	5.7728e-06	4.0033e-06	933.2	270.93	3.3977e-06	3.7567e-06	346.91	121.24	93.674	45.955	3.8316e-06	62.719	6.6768e-05	3.0248e-05	7.737e-06	829.09	3.4811e-07	2.8729e-07	920.22	267.69	3.4463e-07	3.1474e-07	340.27	118.8	91.921	45.415	3.4543e-07	61.507	72.229	66.959	102.483	-3.798	92.597	125.720	-4.047	1.940	127.127	129.022	0.352	4.985	7.227	12.574	154.143	9.198	-8191	255	
1196.322	1	1	0	0	0.3165	0.34906	0.14446	0.091346	0.083582	0.24552	0.35883	0.1911	0.093662	0.31004	0.077916	0.30328	0.13686	0.22432	0.2858	0.22564	-3.0812	-3.0563	-3.025	-3.5021	-2.9979	-3.3083	-3.2146	-3.05	-3.6146	-2.8083	-3.1354	-3.4125	-2.8063	-3.5292	-3.1833	-2.9188	35.134	-3.498	98.265	6.851	207.469	257.756	290.620	295.619	253.766	177.636	112.162	214.146	244.095	111.609	194.034	10.776	0.00057226	0.00040823	0.00011576	847.63	4.2648e-06	2.9468e-06	928.1	272.3	3.7057e-06	3.7483e-06	346.19	121.8	93.444	45.692	3.3485e-06	62.446	6.6935e-05	2.8766e-05	8.2218e-06	829.77	3.3434e-07	2.7714e-07	919	270.36	3.6199e-07	3.173e-07	342.31	119.82	92.359	45.696	3.2917e-07	62.116	78.058	90.969	86.631	-3.904	112.510	124.218	-3.887	2.513	147.188	146.536	1.023	5.358	7.754	13.249	173.593	9.937	-8191	255	
1196.418	1	1	0	0	0.088125	0.22495	0.1739	0.22156	0.22234	0.084475	0.31375	0.094312	0.16889	0.10684	0.24538	0.29315	0.19588	0.018279	0.089083	0.1701	-3.0271	-2.9833	-2.9938	-3.5312	-2.8708	-3.1729	-3.3604	-2.9896	-3.65	-3.1688	-2.9021	-3.5708	-2.7938	-3.3208	-3.3646	-2.8021	286.743	244.334	150.550	25.285	155.179	144.188	314.354	241.963	-10.487	247.779	249.233	262.981	314.984	224.169	15.998	7.205	0.00058204	0.00040046	7.1744e-05	839.09	4.7271e-06	3.7007e-06	930.97	271.46	3.2044e-06	4.0613e-06	348.94	123.23	94.757	46.492	3.701e-06	64.312	6.6892e-05	2.832e-05	8.4479e-06	826.85	3.5329e-07	3.1088e-07	918.88	268.31	3.5736e-07	3.139e-07	341.67	120.48	92.779	45.877	3.425e-07	62.846	79.064	89.221	78.838	-2.934	103.292	137.802	-3.544	2.192	111.102	133.715	0.112	4.533	6.611	12.451	162.062	8.746	-8191	255	
1196.537	1	1	0	0	0.24102	0.11898	0.28369	0.31752	0.078592	0.072317	0.047257	0.25158	0.4058	0.21346	0.13415	0.2777	0.20901	0.11188	0.01565	0.1458	-3.0646	-2.7458	-3.0875	-3.4562	-2.7521	-3.0333	-3.4375	-2.9125	-3.3625	-3.2042	-2.875	-3.4729	-2.9771	-2.9625	-3.4208	-3.0104	219.427	288.315	277.686	7.513	87.197	147.470	4.829	298.604	325.592	77.695	302.084	24.821	256.968	207.694	231.409	261.428	0.00057611	0.00042114	0.00011083	848.49	4.1026e-06	4.7123e-06	942.4	271.79	3.1835e-06	3.2438e-06	349.3	122.03	93.283	45.585	3.5719e-06	62.511	6.7454e-05	2.8786e-05	8.0437e-06	826.98	3.4453e-07	3.0435e-07	920.9	266.82	3.5874e-07	2.9334e-07	339.32	119.3	91.599	44.969	3.3924e-07	61.129	78.812	83.978	75.834	-3.982	117.980	128.366	-4.666	1.004	147.559	135.705	-0.124	4.796	6.583	12.169	160.867	8.872	-8191	255	
1196.633	1	1	0	0	0.28194	0.16718	0.24266	0.1669	0.099658	0.36435	0.28194	0.15394	0.034151	0.087769	0.11533	0.072493	0.27203	0.16839	0.039946	0.1434	-3.0396	-3.125	-2.8187	-3.5646	-2.975	-3.125	-3.7417	-2.8063	-3.2313	-3.3771	-3.0146	-3.6063	-3.0146	-3.1104	-3.3625	-2.8771	-3.301	203.961	73.443	-1.583	286.490	154.018	257.960	236.007	36.444	205.794	309.322	343.274	6.266	218.164	34.384	292.184	0.00055124	0.00039201	8.2969e-05	843.36	5.1118e-06	4.5421e-06	930.95	270.08	3.0831e-06	4.123e-06	343.84	119.96	93.168	45.519	5.2584e-06	61.751	6.5726e-05	2.7472e-05	7.7342e-06	822.17	3.4596e-07	3.2225e-07	908.83	264.63	3.7289e-07	2.9874e-07	334.87	117.72	91.456	44.931	3.3498e-07	60.733	78.977	68.841	75.819	-4.077	98.382	130.028	-4.659	1.330	153.521	134.677	-0.254	4.792	6.820	12.656	159.639	9.197	-8191	255	
1196.730	1	1	0	0	0.14391	0.095286	0.060268	0.052617	0.094441	0.071596	0.096035	0.068229	0.13809	0.058375	0.13008	0.087986	0.043835	0.06135	0.03823	0.11679	-2.9146	-3.2188	-2.9646	-3.5938	-3.0125	-3.2417	-3.6437	-2.6958	-3.3625	-3.45	-2.8187	-3.5938	-3.1063	-2.8083	-3.4813	-3.0542	4.905	291.429	52.167	153.804	-13.803	18.064	229.792	4.485	-7.744	107.081	31.341	64.134	128.524	266.269	209.795	317.441	0.00056573	0.00036838	0.00013255	837.69	5.368e-06	3.7027e-06	918.17	268.4	3.174e-06	3.5236e-06	341.42	119.8	93.391	45.334	5.3102e-06	61.959	6.653e-05	2.767e-05	8.1327e-06	819.74	3.431e-07	3.1054e-07	903.83	264.25	3.5708e-07	2.8386e-07	335.02	118.16	91.815	45.003	3.4045e-07	61.118	80.980	94.202	85.421	-3.589	90.050	115.755	-4.038	1.829	138.304	121.727	0.264	5.070	7.223	12.809	156.948	9.699	-8191	255	
1196.826	1	1	0	0	0.12755	0.22445	0.14681	0.11671	0.31685	0.029099	0.21273	0.23764	0.19163	0.12541	0.15012	0.21295	0.13123	0.10593	0.3351	0.2163	-2.6979	-3.2812	-2.8375	-3.4333	-3.1312	-3.1292	-3.4875	-2.9708	-3.1875	-3.4396	-2.8167	-3.4688	-3.2417	-2.9562	-3.3438	-2.9875	159.488	55.362	335.110	106.947	183.215	314.137	275.164	186.610	225.978	273.238	252.322	279.735	63.632	341.302	-10.177	35.730	0.00059485	0.00038865	7.5107e-05	835.23	4.4465e-06	4.5009e-06	922.9	267.84	4.3162e-06	2.7266e-06	339.85	119.41	91.215	44.531	4.1726e-06	61.412	6.7311e-05	2.6828e-05	7.8501e-06	818.37	3.3886e-07	3.0764e-07	908.72	264.39	3.692e-07	2.8665e-07	335.45	117.86	90.589	44.429	3.3271e-07	60.474	80.349	98.417	107.283	-3.352	100.480	132.095	-4.062	2.149	134.149	140.077	0.882	5.702	7.973	13.480	144.067	9.994	-8191	255	
1196.922	1	1	0	0	0.25653	0.19653	0.13335	0.13953	0.12296	0.13813	0.15786	0.08044	0.17588	0.24316	0.21328	0.18618	0.15991	0.19202	0.06142	0.089453	-2.675	-3.1854	-2.6708	-3.4188	-3.0146	-2.8688	-3.6375	-2.9104	-3.2062	-3.4938	-2.8583	-3.3688	-3.3021	-2.8292	-3.3646	-2.975	288.224	229.182	211.848	277.265	130.071	255.981	290.997	278.484	249.846	231.534	45.079	284.259	-5.251	59.283	256.521	287.017	0.00055196	0.00043912	0.00011183	830.53	4.3986e-06	4.6825e-06	919.98	268.63	2.0847e-06	4.2047e-06	340.32	119.36	92.932	45.194	4.3703e-06	61.396	6.4645e-05	2.9081e-05	8.0861e-06	818.68	3.2464e-07	3.0669e-07	906.57	264.17	3.5389e-07	2.7606e-07	332.8	116.95	91.149	44.548	3.316e-07	60.151	83.849	67.777	83.204	-2.933	123.857	130.480	-4.070	1.702	148.846	161.956	-0.085	4.740	6.915	12.203	156.575	8.831	-8191	255	
1197.018	1	1	0	0	0.057703	0.13289	0.063397	0.042728	0.21986	0.17968	0.089209	0.18024	0.20953	0.19766	0.12211	0.13123	0.18526	0.042585	0.051843	0.089294	-2.5708	-3.4625	-2.6417	-3.2833	-3.2021	-2.725	-3.4104	-3.2417	-2.95	-3.4167	-3.0833	-3.2083	-3.3812	-3.0333	-3.425	-3.1396	34.545	314.381	161.298	143.518	162.241	-1.007	327.649	315.880	-10.561	285.134	25.708	245.765	331.768	27.963	291.583	81.191	0.00054896	0.00052857	8.8382e-05	836.63	4.7007e-06	3.993e-06	916.98	269.79	3.7985e-06	3.719e-06	342.66	120.78	93.716	45.874	4.0527e-06	62.17	6.6821e-05	2.8091e-05	7.8402e-06	815.43	3.3511e-07	3.0608e-07	898.47	264.32	3.8033e-07	2.7417e-07	333.84	117.71	91.837	45.21	3.5644e-07	60.818	78.571	88.302	91.367	-3.997	107.892	113.053	-4.650	1.453	135.880	132.812	0.033	4.442	6.600	12.410	152.149	8.749	-8191	255	
1197.114	1	1	0	0	0.19309	0.20665	0.11352	0.26011	0.12356	0.089637	0.31541	0.15043	0.29757	0.10949	0.19568	0.095751	0.25195	0.13642	0.2836	0.29428	-2.4521	-3.4771	-2.7229	-2.9917	-3.2208	-2.6479	-3.3354	-3.2417	-2.9313	-3.5938	-3.0208	-3.1604	-3.5396	-3.0646	-3.4854	-3.4688	235.820	77.240	44.550	3.448	303.772	120.106	308.102	238.873	18.777	340.891	335.698	66.658	196.879	4.487	-6.806	53.922	0.00052578	0.00050617	0.00010547	835.1	3.7644e-06	3.5938e-06	915.57	266.4	3.0903e-06	3.7368e-06	337.28	117.9	91.995	44.944	4.7547e-06	60.795	6.6687e-05	2.7665e-05	8.1045e-06	817.19	3.3682e-07	3.0904e-07	900.15	263.14	3.6204e-07	2.9289e-07	333.35	117.23	91.232	44.901	3.3254e-07	60.531	81.197	68.080	92.730	-3.976	101.883	134.909	-4.236	2.355	145.250	119.975	0.982	5.946	8.064	13.925	151.951	9.944	-8191	255	
1197.210	1	1	0	0	0.04108	0.18296	0.11199	0.28771	0.12974	0.17409	0.14371	0.22287	0.22724	0.14029	0.08983	0.18499	0.058152	0.14488	0.16394	0.18638	-2.3083	-3.3708	-3.0729	-3.1083	-3.4229	-2.8396	-3.475	-3.2833	-2.6375	-3.5458	-3.2438	-2.9104	-3.4646	-2.9104	-3.1354	-3.4562	13.876	304.561	237.374	251.506	56.371	63.165	243.313	342.229	177.290	234.590	235.974	247.909	159.102	-3.706	88.941	163.682	0.00052527	0.0003849	0.00010005	818.89	4.5197e-06	4.5773e-06	907.85	266.4	2.6128e-06	2.6389e-06	339.52	120.27	92.602	45.626	5.4987e-06	61.867	6.5017e-05	2.9289e-05	8.1299e-06	809.77	3.4414e-07	3.0909e-07	899.77	264.02	3.827e-07	2.8626e-07	335.44	118.74	91.782	45.251	3.5495e-07	60.978	81.765	82.507	89.362	-2.852	107.036	122.953	-3.560	2.289	152.769	145.976	0.868	5.272	7.479	13.058	155.508	9.569	-8191	255	
1197.329	1	1	0	0	0.21364	0.13828	0.043035	0.09665	0.16108	0.092463	0.26174	0.16486	0.1094	0.15004	0.080204	0.3566	0.25446	0.14543	0.039733	0.27142	-2.4729	-3.4729	-3.1396	-2.9917	-3.2729	-2.9021	-3.4167	-3.6167	-2.8229	-3.4146	-3.1479	-3.0104	-3.4437	-3.0125	-3.2	-3.3208	166.661	318.059	151.405	344.052	231.483	198.747	241.483	335.675	238.055	128.788	35.682	309.546	48.725	-3.621	223.876	271.416	0.0005482	0.00051473	0.00011725	829.94	3.8546e-06	4.5463e-06	909.12	267.07	2.3151e-06	4.0971e-06	336.57	117.84	91.529	44.826	5.8e-06	60.755	6.872e-05	2.939e-05	7.4515e-06	811.87	3.5406e-07	3.0904e-07	895.74	263.04	3.6854e-07	3.042e-07	331.37	116.63	90.958	44.847	3.5738e-07	60.011	78.442	77.867	84.747	-3.773	102.965	139.643	-4.378	2.150	132.472	128.042	1.001	5.600	7.828	13.502	160.518	9.772	-8191	255	
1197.425	1	1	0	0	0.13821	0.10596	0.20779	0.11567	0.16993	0.2012	0.33009	0.23763	0.17857	0.062088	0.21576	0.26569	0.13487	0.42165	0.14195	0.17955	-2.1396	-3.4021	-3.2792	-2.9854	-3.4021	-2.8	-3.1604	-3.4042	-2.9	-3.4792	-3.2417	-2.6896	-3.4229	-2.8271	-3.1479	-3.4208	239.364	274.166	301.759	109.573	129.996	256.879	283.035	274.882	69.824	119.970	284.224	1.153	1.731	20.486	311.842	291.711	0.00053586	0.00038461	0.00012903	817.81	5.2301e-06	4.2204e-06	889.46	263.97	3.2235e-06	3.5481e-06	336.64	118.19	92.656	45.475	3.4077e-06	60.987	6.4912e-05	2.8675e-05	8.0069e-06	805.97	3.399e-07	2.9811e-07	885.18	262.3	3.61e-07	2.9456e-07	331.64	116.64	91.411	45.117	3.4289e-07	60.309	77.542	89.412	97.457	-3.028	107.676	135.399	-3.628	2.424	136.396	125.584	1.084	5.638	7.735	13.267	150.567	9.869	-8191	255	
1197.521	1	1	0	0	0.17291	0.3099	0.20261	0.14389	0.08949	0.24617	0.26373	0.20132	0.14723	0.22621	0.23298	0.11857	0.246	0.056831	0.056713	0.19789	-2.2771	-3.2438	-3.2917	-2.9958	-3.5083	-2.8833	-3.0833	-3.4	-2.5396	-3.1979	-3.3875	-3.0458	-3.4167	-3.3146	-2.9333	-3.4229	124.730	147.221	40.156	285.415	177.746	111.441	291.451	252.657	160.042	132.783	-1.540	255.300	341.777	240.267	114.304	239.554	0.00051527	0.00047755	9.4251e-05	819.78	5.4708e-06	5.2452e-06	900.23	266.93	3.6771e-06	3.2897e-06	339.73	118.46	93.085	45.217	3.7211e-06	60.595	6.654e-05	2.9497e-05	7.0062e-06	807.65	3.3087e-07	2.9649e-07	888.85	263.52	3.6287e-07	2.803e-07	332.77	117.01	91.515	44.949	3.5428e-07	60.139	80.818	68.670	87.911	-3.077	104.439	144.707	-3.677	2.344	140.124	135.127	0.549	5.011	7.349	13.477	167.958	9.417	-8191	255	
1197.618	1	1	0	0	0.28019	0.070789	0.35954	0.5631	0.1761	0.19726	0.0122	0.20365	0.13437	0.10519	0.043641	0.22294	0.17311	0.16637	0.36311	0.3509	-2.5187	-3.0542	-3.3	-2.9458	-3.2208	-3.1937	-3.0083	-3.5583	-2.8917	-3.2604	-3.475	-2.9875	-3.3167	-3.1146	-2.6562	-3.4583	23.014	97.276	323.240	260.818	120.063	203.924	0.897	228.373	329.494	278.623	237.404	318.431	323.903	58.731	336.348	14.592	0.00056462	0.00046014	0.00012768	819.97	4.5404e-06	4.4716e-06	905.32	264.32	2.149e-06	3.9069e-06	338.66	118.49	92.57	44.957	4.0757e-06	60.433	6.8539e-05	3.0029e-05	7.8317e-06	805.72	3.5599e-07	2.9883e-07	894.07	262.75	3.5119e-07	3.2254e-07	332.82	116.85	91.07	44.539	3.6607e-07	59.292	78.622	85.551	117.478	-3.352	115.361	135.985	-3.816	2.667	117.425	130.213	0.362	5.022	7.132	12.908	144.457	8.959	-8191	255	
1197.714	1	1	0	0	0.19939	0.16773	0.19242	0.25942	0.15332	0.11911	0.32393	0.14332	0.18176	0.060812	0.086774	0.1901	0.085407	0.077416	0.081135	0.29062	-2.7833	-3.1896	-3.4771	-2.9229	-3.3792	-3.0146	-2.9688	-3.5729	-3.0938	-2.9458	-3.4333	-2.9625	-3.3063	-3.2729	-2.7083	-3.4062	153.148	172.729	285.483	279.864	143.888	95.511	306.882	276.488	34.877	72.735	21.535	223.680	315.047	118.739	5.418	1.696	0.00052471	0.00033176	0.00011133	830.44	4.4248e-06	3.5357e-06	903.3	266.12	3.7562e-06	4.1071e-06	334.93	116.71	91.281	44.6	4.7503e-06	59.42	6.3908e-05	2.8269e-05	7.6578e-06	808.37	3.3489e-07	2.9861e-07	886.97	261.31	3.5372e-07	3.2739e-07	328.56	114.43	90.287	44.161	3.6568e-07	58.617	81.197	80.034	86.020	-3.802	106.657	146.684	-4.431	1.828	128.887	145.096	0.325	5.047	7.374	13.129	159.794	9.275	-8191	255	
1197.810	1	1	0	0	0.2529	0.1689	0.034412	0.1567	0.27481	0.36357	0.25979	0.078988	0.20443	0.22005	0.21861	0.14615	0.16818	0.27645	0.068079	0.22951	-2.5333	-3.025	-3.6854	-2.8833	-3.1271	-3.2208	-2.8583	-3.7062	-3.0708	-3.025	-3.4625	-2.875	-2.9875	-3.3563	-2.8854	-3.6229	117.641	312.443	241.073	232.093	162.252	56.142	-14.154	121.986	148.572	154.715	290.224	263.457	317.887	326.759	340.224	25.454	0.00052123	0.00036889	8.1368e-05	819.39	4.3316e-06	2.6549e-06	900.1	266.24	3.2e-06	3.9094e-06	336.61	117.64	93.033	45.344	4.6964e-06	60.473	6.3455e-05	2.8137e-05	7.2253e-06	801.38	3.4277e-07	3.0123e-07	884.19	261.22	3.5874e-07	3.1273e-07	329.46	115.99	91.052	44.696	3.4875e-07	59.433	78.209	84.044	87.784	-3.984	106.732	121.496	-4.551	1.617	114.770	153.227	0.397	4.975	6.745	12.751	136.392	9.071	-8191	255	
1197.906	1	1	0	0	0.14378	0.24322	0.14065	0.23677	0.18642	0.13028	0.17361	0.24581	0.00418	0.14837	0.16799	0.025746	0.18722	0.10013	0.26577	0.29441	-2.775	-2.775	-3.3688	-2.8458	-3.0604	-3.4333	-3.0917	-3.2917	-3.0708	-2.9208	-3.5375	-3.0875	-2.8896	-3.4021	-2.9313	-3.425	183.971	242.472	50.722	3.713	55.600	277.774	308.672	313.071	48.927	188.265	18.314	298.822	330.533	49.660	-14.722	312.317	0.00051978	0.00035969	0.00010325	819.59	4.3904e-06	5.0277e-06	904.06	266.48	3.9413e-06	4.4115e-06	337.84	119.35	92.528	45.5	5.7198e-06	61.225	6.6792e-05	2.8634e-05	7.7766e-06	804.31	3.4271e-07	2.9772e-07	887.46	261.99	3.5703e-07	3.0432e-07	331.76	117.12	91.346	44.918	3.7735e-07	60.261	74.234	68.165	80.737	-3.517	97.949	114.672	-4.267	1.708	142.289	155.113	0.558	5.145	7.078	12.960	154.982	9.359	-8191	255	
1198.027	1	1	0	0	0.27345	0.30964	0.12591	0.056325	0.1473	0.19517	0.31496	0.27629	0.3907	0.046566	0.26213	0.32441	0.23281	0.141	0.14156	0.30862	-2.8937	-2.5875	-3.3396	-3.1625	-3.1229	-3.5229	-3.0271	-3.4833	-3.2792	-2.7438	-3.3542	-3.0208	-3.0667	-3.3333	-2.8875	-3.2833	213.161	224.237	312.911	42.045	51.110	141.721	247.342	296.811	254.398	116.908	297.890	307.128	219.230	245.330	27.383	270.737	0.0005413	0.00043167	0.00013436	817.2	3.2226e-06	4.5812e-06	906.11	266.02	3.5518e-06	3.3263e-06	340.86	118.97	93.173	45.222	3.6017e-06	60.466	6.466e-05	2.974e-05	7.7554e-06	801.99	3.5813e-07	2.976e-07	892.63	262.73	3.5962e-07	3.3396e-07	332.98	117.06	91.584	44.915	3.6031e-07	59.696	83.970	79.244	93.190	-3.525	110.492	135.252	-4.379	1.559	142.192	144.934	0.225	5.142	7.093	13.254	150.272	9.593	-8191	255	
1198.123	1	1	0	0	0.086049	0.13927	0.16172	0.2617	0.13166	0.084168	0.25713	0.086258	0.17606	0.18035	0.043341	0.22461	0.23358	0.1368	0.11764	0.078353	-2.9729	-2.8312	-3.3667	-2.9646	-2.9208	-3.4917	-3.2229	-3.0208	-3.4042	-2.825	-3.4958	-3.325	-2.9938	-3.4771	-2.8187	-3.3104	300.803	142.252	178.103	27.799	208.826	252.430	276.750	-0.777	90.404	147.575	329.964	302.894	298.547	268.211	259.369	303.637	0.00051129	0.00047812	9.6117e-05	809.22	4.5086e-06	2.8164e-06	889.13	264.99	3.0654e-06	3.2777e-06	332.03	116.73	92.678	45.483	4.3311e-06	60.598	6.4979e-05	3.0552e-05	7.8147e-06	799.09	3.6144e-07	2.9933e-07	880.79	261.45	3.6628e-07	2.9596e-07	328.08	115.92	91.282	45.039	3.3354e-07	59.672	72.794	85.227	95.555	-2.818	96.009	123.915	-3.774	2.240	125.105	144.050	0.773	5.786	7.459	12.922	157.544	9.645	-8191	255	
1198.219	1	1	0	0	0.222	0.12626	0.20665	0.068849	0.17693	0.18354	0.18894	0.22205	0.15638	0.35144	0.2659	0.11494	0.21412	0.054109	0.11755	0.32256	-3.1688	-2.7667	-3.2	-3.1312	-3.0479	-3.6208	-3.0542	-3.0625	-3.3688	-2.7687	-3.4271	-3.3458	-2.9083	-3.5479	-2.9542	-3.2	86.954	191.235	218.878	164.448	338.392	113.557	48.559	291.008	129.270	338.862	299.293	178.388	343.779	314.321	301.294	275.623	0.00054467	0.00034743	0.00013206	814.68	4.9527e-06	4.7818e-06	892.55	264.91	3.4372e-06	4.131e-06	340.61	119.56	93.253	45.738	4.1342e-06	60.725	6.3722e-05	3.009e-05	7.8727e-06	798.31	3.6618e-07	3.063e-07	882.27	262.36	3.762e-07	3.1262e-07	332.17	117.35	91.976	45.273	3.5793e-07	60.099	76.932	91.428	88.236	-3.484	109.497	131.941	-3.745	2.285	130.519	134.057	0.165	5.137	7.135	12.967	172.352	9.100	-8191	255	
1198.315	1	1	0	0	0.093576	0.13671	0.20785	0.14745	0.066718	0.18183	0.045685	0.058889	0.060946	0.015148	0.25632	0.046572	0.33002	0.25991	0.039127	0.19528	-3.0021	-2.6833	-3.2188	-3.3312	-2.7604	-3.5563	-3.1458	-3.1625	-3.35	-2.8646	-3.4771	-3.3667	-2.6167	-3.4813	-3.0583	-3.1	49.668	312.641	184.092	324.541	152.218	293.324	162.853	122.929	338.938	22.600	298.086	157.018	-15.525	281.327	29.144	134.820	0.00053743	0.00046369	0.00010817	815.29	4.1503e-06	3.737e-06	893.01	264.76	3.7236e-06	2.9665e-06	341.34	120.38	93.507	45.552	5.2149e-06	61.135	6.5074e-05	3.0095e-05	7.7695e-06	797.17	3.6507e-07	2.9208e-07	884.3	263.16	3.5642e-07	2.9897e-07	334.36	118.58	92.159	45.246	3.5041e-07	60.222	77.163	82.765	100.957	-3.467	99.949	118.609	-3.699	1.780	144.632	139.134	0.780	5.264	6.924	13.188	152.871	9.555	-8191	255	
1198.411	1	1	0	0	0.3499	0.073281	0.19666	0.10291	0.10501	0.018628	0.077796	0.38655	0.17155	0.10079	0.27277	0.20118	0.028734	0.20255	0.18145	0.27598	-3.0625	-2.9083	-3.1708	-3.4167	-2.8708	-3.3854	-3.125	-2.8146	-3.55	-2.8396	-2.9396	-3.3271	-2.85	-3.4021	-3.1729	-2.8604	136.189	273.405	139.325	256.704	13.195	-15.779	327.775	-15.607	121.152	117.197	210.149	247.546	81.176	-12.818	43.261	232.910	0.00057014	0.0002421	0.00011357	810.89	4.862e-06	5.0715e-06	899.72	266.84	2.2914e-06	4.7691e-06	340.5	119.62	93.07	45.379	5.2542e-06	60.927	6.6964e-05	2.9471e-05	7.99e-06	798.42	3.6111e-07	2.869e-07	889.39	263.19	3.6794e-07	3.1479e-07	334.54	118.41	92.004	45.171	3.716e-07	59.804	76.107	93.520	86.225	-3.026	110.661	112.714	-3.491	1.975	127.136	139.840	0.053	5.351	7.509	13.179	157.870	9.214	-8191	255	
1198.506	1	1	0	0	0.21843	0.25522	0.10204	0.24594	0.13126	0.072273	0.23338	0.10713	0.15139	0.043406	0.15153	0.052719	0.24104	0.37649	0.11588	0.13648	-3.0104	-2.7042	-2.9646	-3.5833	-2.7229	-3.1813	-3.2979	-2.9417	-3.4271	-3.0958	-2.9771	-3.4688	-3.0042	-3.2938	-3.1021	-2.8292	176.597	189.784	139.446	218.045	280.763	34.137	248.326	3.134	317.723	271.535	220.106	141.187	195.656	332.500	270.847	67.969	0.00053809	0.00028388	0.00013236	814.96	4.0618e-06	4.2545e-06	904	267.86	3.3205e-06	3.3942e-06	339.43	119.8	93.732	45.662	3.69e-06	60.321	6.4669e-05	2.8436e-05	7.7271e-06	796.66	3.4767e-07	2.9443e-07	884.29	263	3.47e-07	3.017e-07	332.13	117.37	91.986	45.145	3.3708e-07	59.466	83.128	84.975	82.892	-4.003	107.221	126.105	-4.674	1.319	143.247	136.229	-0.054	4.812	7.151	12.674	143.613	9.111	-8191	255	
1198.626	1	1	0	0	0.41539	0.13391	0.15367	0.21724	0.31652	0.13894	0.30614	0.21856	0.12717	0.21265	0.13517	0.13301	0.14793	0.27584	0.061173	0.13137	-3.0333	-2.9688	-3.0458	-3.4271	-2.8604	-3.1604	-3.4813	-3.0146	-3.4896	-3.2104	-3.05	-3.5938	-2.8375	-3.2938	-3.2083	-2.7646	135.219	220.065	178.955	229.034	275.468	261.045	324.627	175.798	83.838	138.542	-13.603	27.708	85.780	293.154	128.338	341.285	0.00053674	0.00040159	0.00012236	809.74	5.1382e-06	4.4454e-06	902.65	267.01	2.2151e-06	3.1323e-06	340.83	120.23	93.495	45.257	4.9634e-06	60.942	6.3632e-05	2.8051e-05	8.6175e-06	794.63	3.5879e-07	3.0474e-07	882.6	262.75	3.5036e-07	3.0415e-07	332.75	117.94	92.128	45.074	3.5307e-07	59.849	80.186	74.324	100.474	-3.381	128.764	116.385	-4.295	1.567	124.925	120.776	-0.005	5.351	6.918	12.745	151.490	9.347	-8191	255	
1198.722	1	1	0	0	0.17314	0.041491	0.063645	0.17685	0.1651	0.2656	0.16719	0.13987	0.14995	0.16853	0.19445	0.07047	0.19584	0.097847	0.11377	0.16954	-3.0729	-3.2833	-2.8896	-3.6688	-2.875	-3.1104	-3.3708	-2.9	-3.5354	-2.9646	-2.9833	-3.5792	-3.0625	-3.2354	-3.2938	-2.8521	168.049	80.726	332.107	177.521	139.693	250.772	2.080	-4.953	110.689	88.724	302.923	325.542	343.036	72.612	-13.706	288.980	0.00052965	0.00055427	0.00012684	807.66	4.6631e-06	3.8611e-06	893.54	264.92	2.4087e-06	3.4581e-06	342.78	120.85	93.46	45.756	3.4239e-06	61.13	6.3455e-05	2.8822e-05	8.6331e-06	795.18	3.6865e-07	3.0513e-07	884.43	262.84	3.5719e-07	2.9373e-07	335.04	118.99	92.346	45.411	3.5683e-07	60.384	82.679	77.126	93.072	-3.423	94.369	132.290	-3.871	2.141	138.700	142.141	0.145	5.194	7.157	13.062	151.659	9.493	-8191	255	
1198.794	1	1	0	0	0.066669	0.13753	0.15427	0.32181	0.1689	0.045217	0.073874	0.17522	0.10953	0.17092	0.32967	0.33263	0.16872	0.19531	0.18759	0.22713	-2.9	-3.3187	-2.8583	-3.4833	-2.7333	-2.9354	-3.5208	-2.9062	-3.275	-3.1979	-2.8021	-3.4542	-3.1312	-3.0979	-3.2521	-2.6875	335.750	328.773	27.549	243.646	267.687	325.089	-14.000	262.584	19.352	274.259	-10.786	298.377	32.192	332.626	2.129	339.167	0.00054883	0.00047201	9.2879e-05	813.12	4.6912e-06	4.1513e-06	906.05	268.4	2.6755e-06	3.271e-06	341.31	120.63	93.93	45.775	3.372e-06	60.404	6.6449e-05	2.9761e-05	8.2091e-06	796.88	3.6469e-07	3.2275e-07	891.34	263.73	3.5863e-07	2.9863e-07	334.18	118.37	92.086	45.234	3.5323e-07	59.594	82.122	80.838	74.186	-3.328	105.413	135.816	-4.288	1.688	93.377	123.301	0.087	4.907	6.898	12.438	160.110	9.368	-8191	255	
1198.890	1	1	0	0	0.069278	0.16932	0.094153	0.099163	0.13124	0.061399	0.04	0.1069	0.11961	0.15514	0.31221	0.27084	0.15999	0.19213	0.21771	0.2893	-2.7917	-2.9396	-2.5667	-3.5646	-3.225	-3.1417	-3.4833	-2.875	-3.0667	-3.2146	-2.9375	-3.5625	-3.3896	-2.9667	-3.3792	-3.0604	71.783	159.134	224.158	108.145	185.321	125.369	103.792	2.462	317.980	109.731	200.195	128.642	287.305	325.687	117.792	301.856	0.00051614	0.00040575	0.00014618	810.43	3.6627e-06	4.717e-06	895.47	264.76	3.5633e-06	3.1703e-06	336.83	119.22	92.944	45.646	3.0144e-06	60.524	6.5873e-05	2.768e-05	8.5158e-06	795.44	3.3065e-07	3.3608e-07	880.69	261.82	3.5868e-07	3.0231e-07	331.19	117.08	91.761	45.175	3.3719e-07	59.509	75.855	77.306	95.928	-3.691	107.672	135.789	-4.226	2.119	121.531	146.814	-0.162	5.044	7.030	12.774	144.293	9.550	-8191	255	
1198.986	1	1	0	0	0.23837	0.20171	0.18301	0.24713	0.075192	0.11358	0.36128	0.10968	0.20485	0.037365	0.28353	0.11053	0.22689	0.125	0.049056	0.048607	-2.7625	-3.3292	-2.7229	-3.4021	-3.1917	-2.6896	-3.4313	-2.9854	-2.95	-3.3	-2.9292	-3.1354	-3.2458	-2.6521	-3.5167	-3.0146	75.990	39.248	9.660	329.073	89.168	112.833	4.511	27.461	188.304	158.864	288.716	335.871	327.653	6.834	247.847	37.689	0.00054086	0.00042008	8.4844e-05	814.83	4.1538e-06	3.3983e-06	902.17	265.34	3.5567e-06	4.4999e-06	339.97	120.14	94.052	45.988	4.5294e-06	60.664	6.5664e-05	2.7711e-05	7.8755e-06	796.71	3.3489e-07	3.2632e-07	885.1	261.85	3.8347e-07	3.0281e-07	332.24	117.6	92.025	45.251	3.3558e-07	59.679	81.437	71.797	97.951	-3.643	102.355	131.468	-4.384	2.095	121.844	133.984	-0.011	4.597	7.016	12.742	142.406	9.307	-8191	255	
1199.107	1	1	0	0	0.15599	0.18761	0.1657	0.26556	0.10782	0.071468	0.095836	0.055784	0.12501	0.12598	0.20272	0.12754	0.15364	0.038971	0.065193	0.15198	-2.5979	-3.5792	-2.6833	-3.4313	-3.3563	-2.7146	-3.4437	-3.0333	-2.9792	-3.3104	-2.7438	-3.0854	-3.2979	-2.7896	-3.3396	-3.2271	87.943	217.009	174.663	161.605	186.951	-6.486	327.058	121.258	136.006	104.842	190.140	339.197	302.743	285.850	152.005	329.751	0.0005268	0.00028449	8.524e-05	812.65	4.3052e-06	4.5206e-06	904.01	265.79	3.8041e-06	2.2309e-06	341.54	120.05	92.7	45.484	4.1099e-06	61.071	6.4807e-05	2.798e-05	8.1356e-06	796.08	3.5566e-07	3.227e-07	887.71	261.82	3.6276e-07	2.8687e-07	333.44	118.07	91.649	45.131	3.5616e-07	60.006	77.421	94.207	99.838	-3.777	106.275	124.120	-4.251	1.959	137.074	131.835	-0.066	4.838	7.139	12.818	151.705	9.284	-8191	255	
1199.203	1	1	0	0	0.31558	0.20205	0.08636	0.2652	0.030122	0.074844	0.16186	0.053626	0.14985	0.092485	0.21392	0.15277	0.038298	0.1461	0.090238	0.17772	-2.4854	-3.5125	-2.9521	-3.2979	-3.1771	-2.6833	-3.4104	-3.2812	-2.8875	-3.6229	-2.9646	-3.1188	-3.4875	-2.9813	-3.3167	-3.1188	148.040	85.918	244.970	265.511	18.893	232.756	48.368	153.856	36.367	275.013	-10.771	1.442	170.586	243.889	240.576	240.427	0.00053437	0.00045626	0.00010263	819.89	3.6158e-06	4.1415e-06	911.17	266.24	2.0197e-06	3.1256e-06	339.03	119.42	93.358	45.641	4.5799e-06	60.56	6.8334e-05	2.939e-05	8.0465e-06	797.52	3.5731e-07	3.1327e-07	892.01	262.24	3.7565e-07	2.842e-07	332.52	117.39	91.654	44.98	3.4432e-07	59.359	72.675	77.751	86.350	-3.575	100.528	131.664	-4.396	1.796	131.319	132.651	0.182	5.360	6.852	12.572	159.449	9.082	-8191	255	
1199.299	1	1	0	0	0.18994	0.093788	0.25192	0.16755	0.30197	0.033972	0.018429	0.20463	0.088441	0.1381	0.14744	0.08591	0.070485	0.28478	0.17532	0.26982	-2.3542	-3.4	-2.8312	-3.0917	-3.4646	-2.7958	-3.0875	-3.225	-2.7896	-3.4417	-3.0646	-3.0458	-3.4625	-2.9167	-3.1937	-3.4437	25.741	12.174	275.459	-9.119	297.649	319.641	99.231	330.653	228.596	161.995	275.306	54.804	30.744	326.281	323.009	284.236	0.00049638	0.00033076	0.00013083	811.51	2.0502e-06	1.7674e-06	900.23	264.97	2.75e-06	3.8181e-06	338.53	119.49	93.332	45.646	4.6733e-06	60.445	6.6031e-05	2.5986e-05	8.1568e-06	794.56	3.301e-07	2.7524e-07	882.77	260.48	3.632e-07	2.9278e-07	329.64	116.75	91.505	45.065	3.493e-07	59.428	80.074	85.623	104.267	-3.789	125.230	131.696	-4.613	1.756	110.800	138.032	-0.180	4.501	6.746	12.547	170.570	9.117	-8191	255	
1199.420	1	1	0	0	0.11147	0.094818	0.12085	0.13102	0.078989	0.095708	0.19733	0.29097	0.19647	0.12429	0.033927	0.17218	0.13071	0.15808	0.23221	0.1618	-2.5333	-3.1917	-2.8917	-3.0854	-3.5312	-3	-3.2417	-3.3479	-2.675	-3.5	-3.3208	-2.9688	-3.575	-3.0646	-3.0396	-3.2833	161.986	73.190	173.500	313.913	-7.088	288.793	147.027	218.245	74.248	226.945	25.937	277.975	262.670	320.338	46.506	28.702	0.00053275	0.00041876	0.00012092	814.33	4.0256e-06	4.1066e-06	896.57	264.56	3.4469e-06	3.0745e-06	337.62	120.36	93.777	46.222	4.0948e-06	61.525	6.7797e-05	2.9263e-05	8.1652e-06	796.7	3.2591e-07	3.0619e-07	882.06	261.45	3.6612e-07	2.8637e-07	330.84	117.76	92.277	45.751	3.6513e-07	60.401	78.641	81.450	80.694	-3.604	112.342	116.606	-4.269	1.824	153.297	124.989	0.239	4.879	7.066	12.703	154.711	9.589	-8191	255	
1199.492	1	1	0	0	0.13392	0.14531	0.060035	0.24488	0.20121	0.13533	0.41086	0.26744	0.18391	0.18025	0.12168	0.045019	0.026458	0.18045	0.23349	0.22431	-2.0542	-3.2854	-3.1292	-2.9417	-3.5417	-3.0958	-3.1646	-3.3354	-2.6854	-3.35	-3.2583	-2.9333	-3.5625	-3.15	-3.0542	-3.45	238.400	115.599	138.615	-11.743	13.333	194.030	251.080	227.469	283.492	141.949	328.091	232.417	63.535	312.074	199.028	270.592	0.00056185	0.00042136	0.00013254	811.26	5.2993e-06	5.0996e-06	901.67	266.12	3.7685e-06	4.0697e-06	339.06	121.38	93.178	45.92	4.0514e-06	61.305	6.8544e-05	2.8264e-05	7.8105e-06	796.71	3.3357e-07	3.0034e-07	887.2	262.32	3.7179e-07	2.9713e-07	333.3	118.45	91.897	45.434	3.6573e-07	60.302	79.680	73.457	79.456	-3.832	102.022	124.168	-4.325	2.069	135.561	136.153	0.683	4.489	6.976	12.842	159.807	9.310	-8191	255	
1199.588	1	1	0	0	0.22427	0.12128	0.10145	0.18454	0.21755	0.20219	0.20344	0.32386	0.15513	0.17751	0.39022	0.34886	0.1381	0.32665	0.32478	0.075522	-2.3833	-3.1458	-2.9521	-2.7812	-3.4604	-2.8375	-3.1729	-3.6063	-2.7729	-3.2021	-3.2479	-2.725	-3.5708	-3.0312	-3.0875	-3.4792	49.876	-0.865	268.661	250.368	94.377	237.659	288.699	318.055	115.785	11.130	315.371	277.118	110.009	337.523	224.754	285.577	0.00054499	0.00049529	0.00012719	822.8	3.9534e-06	5.1255e-06	912.67	267.91	3.2915e-06	4.6105e-06	342.64	119.23	93.234	45.115	3.9206e-06	59.658	6.6726e-05	3.0161e-05	7.9405e-06	800.88	3.5235e-07	3.2381e-07	894.13	262.63	3.7157e-07	3.0493e-07	334.06	116.81	91.116	44.384	3.6269e-07	58.397	81.685	91.642	96.189	-4.327	115.070	122.374	-4.765	1.390	137.440	145.168	-0.183	4.376	6.824	12.479	165.235	8.812	-8191	255	
1199.707	1	1	0	0	0.054547	0.31044	0.12482	0.066713	0.12744	0.15261	0.10424	0.10929	0.23438	0.301	0.32554	0.3015	0.1516	0.15305	0.053357	0.13853	-2.4875	-3.1396	-3.1708	-2.8146	-3.3292	-3.0083	-2.8979	-3.6104	-2.8625	-3.2271	-3.25	-2.6396	-3.3417	-2.9833	-2.75	-3.5125	-7.121	157.655	55.898	-2.010	98.751	14.221	232.226	230.238	15.854	51.181	280.498	17.531	313.348	272.597	229.017	16.946	0.00049651	0.00041858	0.00010942	819.78	5.0175e-06	3.1847e-06	906.47	264.68	2.7365e-06	3.7844e-06	335.3	117.68	92.264	44.72	3.1857e-06	59.176	6.3484e-05	2.9182e-05	7.8656e-06	798.68	3.4414e-07	2.9615e-07	884.33	259.82	3.5929e-07	3.1095e-07	327.94	114.86	90.241	44.093	3.5777e-07	57.917	79.581	74.031	100.500	-4.115	100.832	138.686	-4.581	1.526	126.937	133.454	0.104	4.423	6.650	12.977	152.412	9.012	-8191	255	
1199.803	1	1	0	0	0.21756	0.089266	0.23962	0.30737	0.12889	0.088104	0.27817	0.22598	0.14919	0.12744	0.18015	0.19211	0.20072	0.11188	0.058334	0.082235	-2.5375	-2.9125	-3.2417	-2.7021	-3.45	-3.225	-2.9875	-3.3646	-2.8104	-2.9708	-3.5062	-3.1396	-3.3604	-3.2333	-2.7854	-3.5771	192.324	311.954	0.646	288.449	290.083	129.761	285.763	106.415	152.164	216.843	7.470	-10.624	35.855	104.818	180.665	260.319	0.0005087	0.00045682	0.00010853	819.4	4.7468e-06	3.4163e-06	899.05	264.67	2.9614e-06	3.9335e-06	337.18	118.39	91.634	44.614	3.2718e-06	59.523	6.4388e-05	3.0648e-05	8.0084e-06	798.09	3.4883e-07	2.8606e-07	882.3	260.08	3.5097e-07	3.183e-07	329.8	115.68	90.378	44.219	3.3929e-07	58.388	78.354	80.494	83.003	-4.157	102.563	124.757	-4.643	1.639	131.116	123.726	-0.206	4.484	6.967	12.616	164.766	9.046	-8191	255	
1199.899	1	1	0	0	0.21126	0.080537	0.1196	0.078913	0.22504	0.095835	0.32657	0.18975	0.077623	0.23619	0.15569	0.17551	0.08545	0.1065	0.25766	0.14366	-2.7271	-2.9104	-3.1208	-2.7062	-3.0375	-3.1604	-2.8625	-3.3771	-2.8854	-3.025	-3.5312	-3.0396	-3.1917	-3.4313	-2.7938	-3.4062	253.914	103.345	120.842	87.119	28.324	262.421	293.919	264.879	101.874	107.338	280.280	320.870	17.642	-1.059	159.170	278.221	0.0005326	0.00047834	0.00011193	814.91	4.3248e-06	4.6794e-06	901.85	264.65	2.565e-06	3.7805e-06	338.25	118.38	91.686	44.984	3.0602e-06	59.928	6.4745e-05	2.9827e-05	7.9589e-06	796.91	3.3555e-07	3.0474e-07	884.84	259.95	3.4507e-07	3.1145e-07	331.29	116.27	90.602	44.39	3.6524e-07	58.842	78.101	73.674	94.939	-3.807	123.405	124.088	-4.449	1.744	138.239	141.489	-0.036	4.698	7.045	13.167	146.643	9.119	-8191	255	
1200.020	1	1	0	0	0.15392	0.013807	0.057905	0.14049	0.16262	0.1542	0.23791	0.246	0.14176	0.028207	0.16679	0.20544	0.20881	0.22445	0.026486	0.043265	-2.7021	-2.9729	-3.3292	-3.0417	-3.0187	-3.3417	-2.9125	-3.2458	-2.9708	-2.9104	-3.6417	-2.8667	-3.2188	-3.4021	-2.7188	-3.5542	260.106	114.802	196.806	97.245	303.396	158.925	226.563	0.336	102.962	50.969	36.519	277.499	269.209	131.466	180.750	170.708	0.00055491	0.00040386	0.00012561	814.93	4.591e-06	4.4277e-06	910.45	266.83	2.3263e-06	3.8906e-06	341.57	119.61	91.827	44.835	4.6318e-06	59.662	6.3294e-05	2.8467e-05	8.1426e-06	798.28	3.6199e-07	2.9041e-07	893.01	261.17	3.7356e-07	3.0119e-07	334.11	117.14	90.668	44.484	3.6596e-07	58.856	79.939	73.577	89.638	-3.880	119.629	129.172	-4.670	1.619	151.001	135.729	-0.237	4.598	7.167	13.059	151.905	9.224	-8191	255	
1200.091	1	1	0	0	0.29125	0.21454	0.1641	0.11876	0.16483	0.12244	0.33908	0.25239	0.22231	0.11463	0.16656	0.067838	0.2732	0.08	0.10583	0.14909	-2.9313	-2.8792	-3.4146	-2.8583	-2.9896	-3.3333	-2.7438	-3.45	-3.1354	-2.8875	-3.6312	-3.1312	-3	-3.3792	-2.7438	-3.3542	287.988	158.557	9.909	271.077	185.505	201.264	337.339	276.789	292.224	180.751	330.996	266.515	168.377	332.367	238.075	228.177	0.00054494	0.00035532	0.00010841	818.05	4.5191e-06	3.6506e-06	904.46	264.77	4.0085e-06	3.414e-06	337.74	118.34	91.83	45.427	5.0367e-06	60.303	6.3455e-05	2.9806e-05	7.7907e-06	798.62	3.4453e-07	2.8902e-07	887.03	259.84	3.4799e-07	3.1033e-07	329.56	115.78	90.617	44.792	3.6441e-07	59.058	79.115	61.818	88.325	-3.748	96.147	140.151	-4.710	1.381	142.341	111.131	-0.049	4.809	6.854	12.848	151.142	9.231	-8191	255	
1200.187	1	1	0	0	0.10275	0.20435	0.10275	0.067704	0.095952	0.070653	0.18248	0.089987	0.059293	0.067908	0.16727	0.16175	0.15018	0.22333	0.27616	0.061425	-2.9208	-2.7958	-3.4313	-3.1312	-2.8167	-3.5208	-2.8667	-3.2292	-3.3292	-2.8917	-3.5917	-3.0625	-3.0646	-3.6167	-2.6854	-3.0854	341.124	280.506	214.128	323.584	320.646	95.146	323.056	189.945	142.168	149.245	168.108	292.887	-4.743	11.745	198.142	332.235	0.00054059	0.00038672	0.00011379	813.86	4.0602e-06	3.2167e-06	897.29	264.6	2.4389e-06	3.7152e-06	337.47	119.64	92.87	45.633	3.3887e-06	60.379	6.4041e-05	3.1313e-05	7.8628e-06	794.46	3.5472e-07	2.7775e-07	882.8	260.79	3.5505e-07	2.9011e-07	330.63	117.03	91.31	45.085	3.5318e-07	59.4	85.737	77.835	83.947	-3.964	120.199	114.550	-4.479	1.648	134.405	131.241	0.217	4.559	6.881	12.725	162.012	8.998	-8191	255	
1200.284	1	1	0	0	0.053575	0.12786	0.086099	0.15727	0.17249	0.17766	0.23148	0.18489	0.079921	0.064329	0.049954	0.14694	0.28098	0.10911	0.10389	0.051875	-2.8708	-2.6958	-3.3646	-3.2125	-2.8979	-3.3833	-2.9083	-3.2292	-3.1021	-2.5521	-3.3729	-3.3354	-3.0438	-3.5271	-3.0125	-3.0771	222.358	187.751	30.967	7.422	52.017	291.971	-15.290	328.809	196.689	138.946	186.536	265.562	338.694	167.060	239.546	96.362	0.00053491	0.0004645	0.0001185	811.75	5.2005e-06	5.5544e-06	906.08	265.95	2.212e-06	4.0926e-06	341.15	118.22	91.923	44.722	4.152e-06	59.711	6.3617e-05	2.8954e-05	7.7257e-06	796.26	3.3682e-07	2.845e-07	889.05	261.28	3.426e-07	2.9445e-07	332.91	116.37	90.574	44.416	3.347e-07	58.8	79.077	78.738	91.032	-3.678	95.833	132.995	-4.595	1.496	125.610	129.156	0.295	4.905	6.968	12.821	167.624	9.135	-8191	255	
1200.402	1	1	0	0	0.06596	0.14292	0.096108	0.31626	0.054436	0.27267	0.014426	0.14902	0.29692	0.078524	0.15571	0.11606	0.19523	0.18055	0.14783	0.17326	-2.7042	-2.8167	-3.1979	-3.3417	-2.8854	-3.2917	-2.9125	-3.0104	-3.4	-2.7	-3.2292	-3.2687	-2.7771	-3.4479	-3.1667	-3.2625	100.720	159.689	196.676	30.944	69.092	17.074	268.867	-0.017	116.920	40.748	315.079	-3.726	338.759	-1.510	165.626	252.943	0.00050601	0.00048727	7.6641e-05	814.21	4.5088e-06	3.7327e-06	908.53	263.65	2.7424e-06	4.0805e-06	340.43	118.81	92.895	45.001	3.624e-06	60.004	6.6202e-05	3.0045e-05	7.7893e-06	796.83	3.8298e-07	2.9019e-07	892.29	260.8	3.4766e-07	3.1028e-07	333.23	116.88	90.992	44.512	3.378e-07	59.121	77.090	77.511	102.406	-3.610	111.548	127.316	-4.129	1.648	119.113	143.476	0.018	5.064	7.140	12.849	152.108	8.925	-8191	255	
1200.499	1	1	0	0	0.22113	0.11513	0.049599	0.15065	0.12854	0.19695	0.26892	0.096549	0.39466	0.21398	0.14418	0.083341	0.19423	0.13754	0.1635	0.23649	-3.1646	-2.7292	-3.0458	-3.375	-2.7021	-3.2542	-3.2104	-3.0167	-3.5667	-2.7604	-3.2646	-3.35	-2.7604	-3.4021	-3.2083	-3.0146	153.494	309.245	296.180	320.130	256.311	28.928	256.449	-2.989	-3.448	112.035	190.185	309.192	320.972	325.997	202.075	229.050	0.00053337	0.0004372	0.00011077	816.95	5.0644e-06	5.2143e-06	900.91	264.93	2.9974e-06	4.6694e-06	336.76	117.15	91.609	44.765	4.4105e-06	59.529	6.4341e-05	2.904e-05	7.4557e-06	798.01	3.6893e-07	3.0168e-07	887.05	260.32	3.4805e-07	3.2209e-07	329.99	115.61	90.368	44.513	3.1949e-07	58.478	81.581	87.502	94.794	-3.527	122.080	141.072	-4.483	1.597	139.612	137.097	0.209	4.927	6.824	12.946	150.591	8.989	-8191	255	
1200.595	1	1	0	0	0.11042	0.21232	0.31012	0.09846	0.071262	0.14582	0.20647	0.099555	0.035209	0.029606	0.29644	0.25344	0.14669	0.10899	0.19458	0.19477	-3.1271	-2.8021	-3.2083	-3.5146	-2.4792	-3.3187	-3.1646	-2.9292	-3.4083	-2.9271	-3.0917	-3.5312	-2.6896	-3.2271	-3.1188	-2.8896	216.742	30.279	145.698	203.956	72.724	171.417	7.463	222.413	163.875	59.413	330.724	16.744	197.745	17.366	155.501	282.667	0.00052138	0.0004275	8.4156e-05	814.19	3.3354e-06	2.7123e-06	892.32	263.41	3.8188e-06	4.3193e-06	334.81	118.04	92.568	45.563	5.4854e-06	60.396	6.2799e-05	2.9476e-05	7.8755e-06	795.14	3.4326e-07	3.0251e-07	878.67	259.97	3.4585e-07	2.9885e-07	329.55	116.47	91.124	45.046	3.4798e-07	59.412	78.967	84.869	83.850	-3.635	87.145	139.668	-4.171	1.864	138.247	120.654	0.190	5.060	7.276	12.757	158.700	9.411	-8191	255	
1200.691	1	1	0	0	0.21642	0.12679	0.18064	0.18359	0.090459	0.16136	0.18452	0.29522	0.25406	0.11438	0.21326	0.055725	0.23548	0.32705	0.17849	0.12243	-3.0521	-3.1375	-3.1125	-3.3187	-2.5917	-3	-3.4271	-2.9396	-3.5771	-2.8833	-2.9375	-3.4292	-2.7417	-3.3	-3.3604	-2.8771	35.623	286.755	22.716	110.572	195.546	128.099	312.339	306.122	312.390	112.247	28.908	245.676	318.008	317.348	291.549	286.622	0.00052794	0.00037556	0.00010523	814.07	5.6449e-06	3.3684e-06	901.41	263.71	3.4935e-06	4.708e-06	341.64	120.8	93.272	46.164	3.4134e-06	61.378	6.545e-05	2.7503e-05	7.884e-06	795.18	3.5505e-07	2.9822e-07	884.38	260.96	3.5213e-07	3.1206e-07	332.86	118.12	91.827	45.657	3.2767e-07	60.431	76.980	85.058	98.197	-3.728	92.576	135.263	-4.261	1.684	145.633	151.535	-0.181	5.010	7.129	12.906	155.691	9.198	-8191	255	
1200.787	1	1	0	0	0.19342	0.09997	0.25342	0.068821	0.19584	0.17035	0.1671	0.18095	0.11803	0.23537	0.40146	0.234	0.20975	0.27144	0.10394	0.12877	-3.1667	-2.9979	-2.8146	-3.3708	-2.6333	-3.0104	-3.5104	-2.7021	-3.3187	-3.0875	-2.8438	-3.35	-2.8479	-3.15	-3.3021	-2.8146	207.298	310.202	16.265	37.399	-13.372	229.392	286.395	297.627	-10.583	257.007	331.988	224.925	35.650	308.282	228.579	292.914	0.00048077	0.00038355	0.00011756	816.27	4.0612e-06	4.1451e-06	909.72	266.95	2.8627e-06	3.6094e-06	345.39	121.36	94.702	46.438	2.6262e-06	62.403	6.2503e-05	2.9943e-05	8.3928e-06	795.05	3.54e-07	3.2192e-07	887.71	262.23	3.4006e-07	2.9345e-07	335.68	118.96	92.615	45.873	3.5179e-07	61.236	79.410	65.883	99.909	-4.043	115.311	142.500	-4.568	1.480	116.195	152.138	-0.405	4.540	6.873	12.686	154.877	9.021	-8191	255	
1200.883	1	1	0	0	0.17093	0.26065	0.17124	0.28443	0.22299	0.095083	0.21672	0.048776	0.1398	0.2117	0.042487	0.084331	0.071826	0.097028	0.13892	0.22771	-3.0312	-3.0708	-2.8146	-3.4458	-2.8646	-3.0771	-3.5	-2.7917	-3.1188	-3.2208	-3.1396	-3.5854	-3.0646	-2.925	-3.3646	-2.9188	222.659	5.266	140.640	222.196	113.171	10.355	232.124	328.511	229.132	128.446	246.528	299.619	224.972	243.930	236.819	281.813	0.00051502	0.00041629	0.00010376	810.55	5.1358e-06	3.9853e-06	909.52	265.8	2.6981e-06	4.6749e-06	340.86	120.77	93.421	46.528	5.2678e-06	61.623	6.6164e-05	2.9142e-05	8.0861e-06	793.26	3.7262e-07	3.3056e-07	888.22	261.79	3.8044e-07	3.0966e-07	333.64	118.35	92.088	46.062	3.2977e-07	60.62	77.855	89.753	94.980	-3.991	99.586	140.323	-4.242	1.859	134.817	141.571	-0.004	4.990	7.159	12.786	162.466	9.487	-8191	255	
1200.979	1	1	0	0	0.25246	0.14494	0.24409	0.14145	0.24937	0.10379	0.060075	0.11701	0.15458	0.16147	0.30458	0.41454	0.12447	0.42229	0.066566	0.30625	-2.75	-3.2521	-2.8583	-3.4458	-2.9229	-2.8792	-3.675	-2.9083	-3.0292	-3.2417	-2.8792	-3.4104	-3.0208	-2.8812	-3.4104	-2.9375	185.941	85.509	28.287	-2.592	169.960	114.615	293.579	235.563	169.217	252.395	241.740	294.864	185.011	340.510	212.446	314.383	0.00054563	0.00049331	0.00013397	806.51	3.8656e-06	4.0764e-06	894.75	265.11	3.1907e-06	3.5524e-06	338.84	119.92	93.428	46.169	3.4342e-06	61.656	6.6687e-05	2.9121e-05	8.6387e-06	791.19	3.4602e-07	2.9928e-07	880.16	261.31	3.6849e-07	2.8297e-07	332.27	117.9	92.036	45.936	3.2872e-07	60.616	83.339	81.171	88.207	-3.563	97.201	149.283	-3.711	1.489	141.956	140.329	0.737	4.998	7.203	13.180	155.606	9.239	-8191	255	
1201.100	1	1	0	0	0.42175	0.13782	0.015349	0.13493	0.17372	0.06447	0.0090483	0.32383	0.11347	0.20396	0.077319	0.1323	0.21505	0.18421	0.11466	0.29112	-2.8271	-3.3167	-2.725	-3.2125	-3.1625	-2.8833	-3.6333	-2.8125	-2.8396	-3.3875	-2.7958	-3.3875	-3.2042	-2.85	-3.4125	-2.9292	224.588	6.358	195.841	327.516	298.712	176.704	219.446	292.447	121.719	34.374	37.026	319.571	22.111	304.908	53.780	301.181	0.00050788	0.00038088	0.00010354	813.71	3.9584e-06	5.0257e-06	905.06	267.73	3.4857e-06	3.661e-06	344.13	121.5	95.148	47.175	4.928e-06	63.096	6.5417e-05	2.7838e-05	8.6811e-06	792.24	3.2867e-07	3.0904e-07	884.91	262.04	3.659e-07	3.1602e-07	334.71	118.98	92.726	46.25	3.378e-07	61.288	82.726	82.723	91.223	-3.647	86.866	107.090	-4.436	1.502	134.256	123.326	-0.536	4.232	6.591	12.095	150.430	8.503	-8191	255	
1201.196	1	1	0	0	0.060989	0.17767	0.26836	0.15308	0.24999	0.13438	0.30479	0.18312	0.22512	0.14662	0.15005	0.24007	0.1282	0.039435	0.062416	0.31513	-2.5021	-3.3812	-2.8875	-3.3792	-3.3396	-2.6	-3.4625	-2.9792	-2.975	-3.3146	-2.7687	-3.3479	-3.35	-2.9562	-3.5646	-3.1146	92.490	166.409	314.361	277.868	71.818	293.158	-10.884	307.509	239.694	273.993	175.644	297.220	273.313	253.770	248.250	338.844	0.00054061	0.00046314	7.3991e-05	818.41	4.4184e-06	3.2058e-06	916.22	267.94	2.902e-06	3.0738e-06	345.32	122.47	94.147	46.664	3.3789e-06	62.756	6.6873e-05	2.8842e-05	8.4253e-06	796.03	3.3296e-07	3.1244e-07	892.77	262.64	3.7455e-07	2.9908e-07	336.04	119.56	92.227	46.048	3.6363e-07	61.514	77.219	72.007	82.032	-4.448	99.270	124.955	-4.928	1.503	136.082	128.981	-0.038	4.481	6.806	12.367	144.932	9.051	-8191	255	
1201.292	1	1	0	0	0.16134	0.18897	0.44978	0.0029481	0.059703	0.33005	0.11569	0.26684	0.14606	0.23661	0.16013	0.36221	0.22752	0.053571	0.14908	0.22812	-2.6271	-3.4271	-2.9125	-3.475	-3.3125	-2.8312	-3.3375	-3.0062	-2.9042	-3.5312	-2.95	-3.1354	-3.3	-3.0417	-3.4917	-3.0729	105.321	167.120	273.771	35.591	259.587	20.484	288.957	243.374	299.888	218.100	310.927	321.973	217.949	97.597	130.256	267.753	0.0005085	0.00039312	0.00011734	812.14	4.6632e-06	4.3246e-06	907.82	267.15	3.8185e-06	2.6713e-06	344.76	122.49	94.207	46.779	4.8708e-06	62.588	6.7868e-05	2.6975e-05	8.1455e-06	794.58	3.3103e-07	3.2627e-07	892.29	262.21	3.8788e-07	2.7846e-07	335.23	119.1	92.335	46.125	3.591e-07	61.086	75.871	74.403	95.021	-3.857	109.251	148.011	-4.389	1.376	121.811	156.436	-0.227	4.538	6.914	12.531	160.531	8.618	-8191	255	
1201.388	1	1	0	0	0.058107	0.040487	0.24128	0.037077	0.12506	0.039529	0.16575	0.065403	0.09809	0.14481	0.049472	0.12618	0.093357	0.17234	0.19593	0.14128	-2.2333	-3.3563	-2.8979	-3.0917	-3.3042	-2.8896	-3.4833	-3.3937	-2.85	-3.4375	-2.8312	-3.1917	-3.4958	-2.8979	-3.075	-3.3458	67.540	121.285	129.368	283.273	90.381	124.544	287.145	94.352	283.642	229.005	292.492	306.371	236.028	307.616	57.221	281.036	0.00057046	0.00029329	0.00010612	816.62	5.2378e-06	4.7303e-06	902.99	266.02	3.2511e-06	2.6309e-06	339.88	120.24	93.493	46.802	5.0667e-06	62.008	6.6716e-05	2.8279e-05	7.9447e-06	795.11	3.3511e-07	3.2443e-07	883.43	261.62	3.8028e-07	3.0426e-07	333.04	118.15	92.373	46.385	3.773e-07	61.252	80.190	73.539	89.428	-3.905	124.526	126.292	-4.710	1.854	126.676	144.882	-0.037	4.644	7.172	12.992	166.429	9.370	-8191	255	
1201.483	1	1	0	0	0.092538	0.073385	0.2128	0.21831	0.15242	0.17189	0.25387	0.25374	0.28036	0.25751	0.16577	0.179	0.35508	0.27789	0.19083	0.21229	-2.5167	-3.2854	-2.9417	-3.0062	-3.3979	-2.8271	-3.2917	-3.4354	-2.7687	-3.4	-3.0208	-2.9979	-3.4458	-2.7896	-3.1146	-3.4146	184.872	107.960	116.036	265.861	147.288	19.409	308.795	-11.460	231.959	17.793	243.859	314.223	321.564	291.426	209.407	194.842	0.00053803	0.00033599	0.00012214	811	3.9198e-06	4.9561e-06	903.55	265.26	2.7553e-06	4.0436e-06	343.31	122.17	94.52	47.309	5.2331e-06	63.183	6.7963e-05	2.8426e-05	8.3419e-06	792.73	3.3296e-07	3.3391e-07	886.97	261.55	3.6237e-07	3.1045e-07	335.21	119.58	92.957	46.738	3.7188e-07	62.041	79.775	90.169	89.546	-3.738	108.039	129.244	-4.488	2.173	141.629	144.889	0.062	4.696	7.038	12.636	170.797	9.193	-8191	255	
#DATA ENDS
