BOXY.EXE: ISS Imagent and Oximeter Data Acquisition Program Version 0.80
Ascii Record File

#ACQ INFORMATION
2  Detector Channels 
16  External MUX Channels 
1  Auxiliary Channels 
5000  Waveform (CCF) Frequency (Hz)
1  Waveforms Skipped 
30  Waveforms Averaged 
1  Cycles Averaged 
16  Acquisitions per Waveform 
10.0806  Updata Rate (Hz) 

#FILE INFORMATION
TRUE -- External MUX Channel results are PARSED.
FALSE -- AC DC and Phase are NOT grouped.
TRUE -- Companion Program Settings File CREATED.
FALSE -- AC data not excluded
FALSE -- DC data not excluded
FALSE -- Phase data not excluded
FALSE -- Auxillary Chn. data not excluded
Tab delimiters

#CALIBRATION STATE
TRUE -- Waveform Calibration Values APPLIED.


#AUX CALIBRATION VALUES
Val Type	aux-1	

Term	1.0000e+00	
Factor	0.0000e+00	


#WF CALIBRATION VALUES
A = Detector Channel
Val Type	A-AC1	A-AC2	A-AC3	A-AC4	A-AC5	A-AC6	A-AC7	A-AC8	A-AC9	A-AC10	A-AC11	A-AC12	A-AC13	A-AC14	A-AC15	A-AC16	A-DC1	A-DC2	A-DC3	A-DC4	A-DC5	A-DC6	A-DC7	A-DC8	A-DC9	A-DC10	A-DC11	A-DC12	A-DC13	A-DC14	A-DC15	A-DC16	A-Ph1	A-Ph2	A-Ph3	A-Ph4	A-Ph5	A-Ph6	A-Ph7	A-Ph8	A-Ph9	A-Ph10	A-Ph11	A-Ph12	A-Ph13	A-Ph14	A-Ph15	A-Ph16	

Term	0.00000e+00	0.00000e+00	0.00000e+00	0.00000e+00	0.00000e+00	0.00000e+00	0.00000e+00	0.00000e+00	0.00000e+00	0.00000e+00	0.00000e+00	0.00000e+00	0.00000e+00	0.00000e+00	0.00000e+00	0.00000e+00	0.00000e+00	0.00000e+00	0.00000e+00	0.00000e+00	0.00000e+00	0.00000e+00	0.00000e+00	0.00000e+00	0.00000e+00	0.00000e+00	0.00000e+00	0.00000e+00	0.00000e+00	0.00000e+00	0.00000e+00	0.00000e+00	0.00000e+00	0.00000e+00	0.00000e+00	0.00000e+00	0.00000e+00	0.00000e+00	0.00000e+00	0.00000e+00	0.00000e+00	0.00000e+00	0.00000e+00	0.00000e+00	0.00000e+00	0.00000e+00	0.00000e+00	0.00000e+00	
Factor	1.00000e+00	1.00000e+00	1.00000e+00	1.00000e+00	1.00000e+00	1.00000e+00	1.00000e+00	1.00000e+00	1.00000e+00	1.00000e+00	1.00000e+00	1.00000e+00	1.00000e+00	1.00000e+00	1.00000e+00	1.00000e+00	1.00000e+00	1.00000e+00	1.00000e+00	1.00000e+00	1.00000e+00	1.00000e+00	1.00000e+00	1.00000e+00	1.00000e+00	1.00000e+00	1.00000e+00	1.00000e+00	1.00000e+00	1.00000e+00	1.00000e+00	1.00000e+00	X	X	X	X	X	X	X	X	X	X	X	X	X	X	X	X	

B = Detector Channel
Val Type	B-AC1	B-AC2	B-AC3	B-AC4	B-AC5	B-AC6	B-AC7	B-AC8	B-AC9	B-AC10	B-AC11	B-AC12	B-AC13	B-AC14	B-AC15	B-AC16	B-DC1	B-DC2	B-DC3	B-DC4	B-DC5	B-DC6	B-DC7	B-DC8	B-DC9	B-DC10	B-DC11	B-DC12	B-DC13	B-DC14	B-DC15	B-DC16	B-Ph1	B-Ph2	B-Ph3	B-Ph4	B-Ph5	B-Ph6	B-Ph7	B-Ph8	B-Ph9	B-Ph10	B-Ph11	B-Ph12	B-Ph13	B-Ph14	B-Ph15	B-Ph16	

Term	0.00000e+00	0.00000e+00	0.00000e+00	0.00000e+00	0.00000e+00	0.00000e+00	0.00000e+00	0.00000e+00	0.00000e+00	0.00000e+00	0.00000e+00	0.00000e+00	0.00000e+00	0.00000e+00	0.00000e+00	0.00000e+00	0.00000e+00	0.00000e+00	0.00000e+00	0.00000e+00	0.00000e+00	0.00000e+00	0.00000e+00	0.00000e+00	0.00000e+00	0.00000e+00	0.00000e+00	0.00000e+00	0.00000e+00	0.00000e+00	0.00000e+00	0.00000e+00	-1.85345e+02	-1.23737e+02	-1.11857e+02	-1.80493e+02	-1.02631e+02	-7.18909e+01	-1.55190e+02	-1.62015e+02	-8.30239e+01	-6.30682e+01	-1.71086e+02	-1.70392e+02	-1.81065e+02	-1.76742e+02	-5.60175e+01	-1.49283e+02	
Factor	3.45794e-05	1.28973e-04	3.64895e-05	1.78598e-01	1.50782e-06	1.48164e-06	1.55936e-01	4.98493e-02	1.25560e-06	1.27048e-06	8.53734e-02	2.92799e-02	2.65120e-02	9.74353e-03	1.48999e-06	1.28900e-02	2.28479e-06	2.43523e-06	6.78434e-07	9.15091e-02	2.64387e-08	2.67660e-08	7.53430e-02	2.56481e-02	2.64425e-08	2.67481e-08	4.24034e-02	1.45225e-02	1.36176e-02	5.01221e-03	2.65546e-08	6.42646e-03	X	X	X	X	X	X	X	X	X	X	X	X	X	X	X	X	



#DISTANCE SETTINGS
A = Detector Channel
A-1	A-2	A-3	A-4	A-5	A-6	A-7	A-8	A-9	A-10	A-11	A-12	A-13	A-14	A-15	A-16	

2.5000e+00	3.0000e+00	2.5000e+00	3.0000e+00	2.0000e+00	3.0000e+00	1.5000e+00	3.0000e+00	3.0000e+00	3.0000e+00	3.0000e+00	3.0000e+00	3.0000e+00	3.0000e+00	1.5000e+00	3.0000e+00	

B = Detector Channel
B-1	B-2	B-3	B-4	B-5	B-6	B-7	B-8	B-9	B-10	B-11	B-12	B-13	B-14	B-15	B-16	

1.0000e+01	1.0000e+01	1.0000e+01	1.4400e+00	1.0000e+01	1.0000e+01	1.5100e+00	1.9400e+00	1.0000e+01	1.0000e+01	1.9900e+00	2.4900e+00	2.4100e+00	2.9000e+00	1.0000e+01	2.9800e+00	




#DATA BEGINS
time	group	step	mark	flag	A-AC1	A-AC2	A-AC3	A-AC4	A-AC5	A-AC6	A-AC7	A-AC8	A-AC9	A-AC10	A-AC11	A-AC12	A-AC13	A-AC14	A-AC15	A-AC16	A-DC1	A-DC2	A-DC3	A-DC4	A-DC5	A-DC6	A-DC7	A-DC8	A-DC9	A-DC10	A-DC11	A-DC12	A-DC13	A-DC14	A-DC15	A-DC16	A-Ph1	A-Ph2	A-Ph3	A-Ph4	A-Ph5	A-Ph6	A-Ph7	A-Ph8	A-Ph9	A-Ph10	A-Ph11	A-Ph12	A-Ph13	A-Ph14	A-Ph15	A-Ph16	B-AC1	B-AC2	B-AC3	B-AC4	B-AC5	B-AC6	B-AC7	B-AC8	B-AC9	B-AC10	B-AC11	B-AC12	B-AC13	B-AC14	B-AC15	B-AC16	B-DC1	B-DC2	B-DC3	B-DC4	B-DC5	B-DC6	B-DC7	B-DC8	B-DC9	B-DC10	B-DC11	B-DC12	B-DC13	B-DC14	B-DC15	B-DC16	B-Ph1	B-Ph2	B-Ph3	B-Ph4	B-Ph5	B-Ph6	B-Ph7	B-Ph8	B-Ph9	B-Ph10	B-Ph11	B-Ph12	B-Ph13	B-Ph14	B-Ph15	B-Ph16	aux-1	digaux	

791.325	1	1	0	256	0.080844	0.20994	0.24358	0.052164	0.085706	0.069619	0.0078326	0.13156	0.20782	0.11707	0.15631	0.0412	0.20355	0.11143	0.18968	0.075844	-2.5187	-3.3958	-3.4083	-3.1917	-3.4021	-3.1042	-3.3479	-3.6042	-3.0479	-3.5125	-3.5812	-2.8917	-3.7167	-3.2646	-3.0521	-3.5958	-101.361	46.051	-23.366	207.563	-131.718	192.810	-128.338	98.373	-92.256	-149.897	39.469	24.089	130.514	-77.694	50.993	12.368	0.00038681	0.00025563	9.8753e-05	1097.9	4.9304e-06	4.1162e-06	1191.5	227.23	1.5411e-06	1.7033e-06	288.17	81.559	64.016	19.151	2.2756e-06	26.604	0.00012484	0.00011651	3.1987e-05	1078.3	1.2828e-06	1.2706e-06	1176.4	224.83	1.2557e-06	1.2698e-06	285.24	81.225	63.571	19.152	1.2548e-06	26.68	144.303	-23.042	-23.589	-140.786	-40.620	-63.291	-140.783	-133.605	-44.587	30.640	-133.797	-127.691	-127.002	-119.293	-36.677	-119.630	-8191	255	
791.421	1	1	0	0	0.14686	0.12615	0.1164	0.17187	0.09242	0.10658	0.40692	0.22856	0.21343	0.15693	0.15581	0.21862	0.33425	0.06729	0.14055	0.17717	-2.5375	-3.2729	-3.5	-3.0375	-3.6167	-3.2583	-3.0729	-3.7375	-3.05	-3.275	-3.5708	-3.0354	-3.5771	-3.1708	-3.0396	-3.6979	-6.127	-62.992	152.912	119.285	104.689	158.619	129.350	63.536	-123.421	118.842	179.610	53.763	207.892	23.846	-37.866	-6.670	0.00036944	0.00030837	7.2364e-05	1102.8	2.044e-06	4.5538e-06	1189.9	226.52	1.9812e-06	2.5709e-06	287.67	81.847	63.667	19.151	3.1438e-06	26.406	0.00012895	0.00011524	3.1424e-05	1077.3	1.2718e-06	1.1865e-06	1175.4	224.13	1.241e-06	1.2101e-06	284.29	81.24	63.241	19.122	1.2232e-06	26.541	140.859	-25.445	-75.687	-140.949	18.418	17.514	-141.081	-133.496	-83.936	18.300	-133.301	-127.861	-126.825	-118.966	-23.209	-119.884	-8191	255	
791.517	1	1	0	0	0.074551	0.090775	0.13432	0.081334	0.012769	0.074659	0.14014	0.28024	0.15592	0.099228	0.11168	0.35947	0.19982	0.052613	0.059401	0.3112	-2.7479	-3.075	-3.5917	-3.1167	-3.4833	-3.5062	-3.2188	-3.7521	-2.9708	-3.2479	-3.6312	-2.9417	-3.3729	-3.4604	-2.9313	-3.6562	78.308	-4.137	31.780	64.025	-137.628	41.145	112.354	140.314	-34.349	-50.417	37.920	126.800	-123.782	179.554	-143.782	71.709	0.00038453	0.00013123	0.00014607	1087.5	2.6486e-06	5.0734e-07	1187.4	227.48	3.5648e-06	2.6078e-06	287.97	82.278	64.077	19.203	3.4932e-06	26.414	0.0001236	0.00011437	3.0296e-05	1074.3	1.2374e-06	1.2113e-06	1174.2	224.66	1.2193e-06	1.1812e-06	284.65	81.411	63.258	19.127	1.2066e-06	26.527	148.470	-92.615	-45.757	-140.772	-20.686	-83.756	-141.079	-133.701	-41.289	19.321	-133.526	-127.566	-127.353	-119.385	39.125	-119.901	-8191	255	
791.589	1	1	0	0	0.21467	0.084078	0.065648	0.1512	0.045758	0.09315	0.017341	0.14248	0.18715	0.097996	0.20817	0.19764	0.090363	0.21426	0.078326	0.11053	-2.8187	-3.1646	-3.4729	-2.9938	-3.5479	-3.5292	-3.1125	-3.5938	-3.1896	-3.1312	-3.8187	-2.9271	-3.1271	-3.5146	-2.8583	-3.5438	146.355	108.913	78.992	135.433	-6.841	77.795	185.753	-143.159	-22.422	174.828	205.550	175.648	-124.179	-60.305	80.743	206.313	0.0004106	0.00046481	0.00010478	1100	1.6442e-06	2.4513e-06	1193.6	227.84	2.1975e-06	2.4064e-06	288.47	81.709	63.83	19.139	2.1125e-06	26.311	0.00012361	0.00011254	3.0203e-05	1076.9	1.2033e-06	1.1966e-06	1174.7	224.85	1.2139e-06	1.2033e-06	285.06	80.942	63.235	19.117	1.1797e-06	26.569	148.212	-26.646	-70.264	-140.952	-36.201	-48.044	-141.371	-133.746	-49.962	20.711	-133.583	-127.533	-127.168	-119.595	17.958	-120.401	-8191	255	
791.710	1	1	0	0	0.040697	0.11107	0.28406	0.034847	0.11272	0.12296	0.1272	0.16666	0.032635	0.11231	0.14263	0.18966	0.078273	0.069379	0.0593	0.19783	-2.8042	-2.9646	-3.6229	-3.2521	-3.1458	-3.5354	-3.1396	-3.6562	-3.4521	-3.0792	-3.6833	-3.0104	-3.2313	-3.5917	-2.9167	-3.5	22.456	-26.703	179.376	-78.256	110.898	-87.947	105.096	181.058	-15.115	170.981	-85.159	72.281	-4.562	-120.571	62.264	163.549	0.00030018	0.00031884	7.2956e-05	1098.6	8.4787e-07	1.0099e-06	1191.9	226.23	3.0318e-06	2.468e-06	287.23	81.115	63.641	18.959	2.5036e-06	26.417	0.00012517	0.00010849	2.9827e-05	1076	1.2521e-06	1.179e-06	1174	223.77	1.2318e-06	1.2059e-06	284.28	81.089	63.24	19.092	1.1913e-06	26.59	152.862	-65.912	-28.399	-140.697	48.265	-77.562	-141.043	-133.559	-74.329	-2.933	-133.568	-127.674	-127.335	-119.156	1.861	-119.870	-8191	255	
791.806	1	1	0	0	0.10324	0.1656	0.062272	0.23228	0.11368	0.27806	0.19706	0.26581	0.10597	0.050871	0.0077209	0.1029	0.17619	0.059617	0.059911	0.069336	-3.1146	-2.9771	-3.7042	-3.2021	-3.2667	-3.7375	-3.0229	-3.4938	-3.5292	-3.0438	-3.6583	-3.3312	-3.1542	-3.7708	-2.9396	-3.3958	196.580	150.743	-120.992	157.821	156.419	12.781	137.522	132.900	192.118	71.599	151.421	168.211	-126.309	190.809	91.825	123.378	0.00038968	0.0002276	0.00014135	1097.3	2.2012e-06	5.5221e-06	1189.1	227.35	1.774e-06	2.2863e-06	286.8	81.083	63.921	19.07	3.0275e-06	26.44	0.0001237	0.00011223	3.0954e-05	1075.5	1.2633e-06	1.1953e-06	1172.7	224.41	1.2318e-06	1.207e-06	284.45	80.995	63.114	19.085	1.2391e-06	26.615	143.551	-48.425	-50.581	-140.844	-80.676	-1.408	-141.195	-133.448	-78.194	33.536	-133.617	-127.306	-127.218	-119.433	-19.289	-120.190	-8191	255	
791.902	1	1	0	0	0.13514	0.071798	0.22019	0.11577	0.065157	0.10854	0.18897	0.26922	0.1539	0.32291	0.37449	0.0034789	0.21685	0.24786	0.057159	0.089478	-3.1146	-2.9229	-3.4396	-3.375	-3.0812	-3.7292	-3.2188	-3.4104	-3.6125	-2.9708	-3.675	-3.3208	-3.25	-3.6271	-3.0792	-3.3521	26.176	25.041	-53.076	130.715	21.469	182.859	143.469	116.536	-65.706	193.277	147.416	152.800	98.344	24.722	118.464	-51.126	0.00035972	0.00023944	5.1131e-05	1089	3.8118e-06	3.7372e-06	1183.4	227.31	2.9393e-06	1.4984e-06	288.15	81.602	63.541	18.968	6.6995e-07	26.361	0.00012617	0.00011135	3.0483e-05	1074.5	1.2639e-06	1.1556e-06	1171.7	224.08	1.2588e-06	1.1642e-06	284.62	81.082	63.232	19.102	1.1947e-06	26.531	159.301	-71.725	-53.064	-140.561	-59.847	16.275	-140.824	-133.191	-48.363	50.882	-133.980	-127.620	-126.666	-118.604	76.289	-119.967	-8191	255	
791.998	1	1	0	0	0.23181	0.2351	0.16662	0.089998	0.13511	0.29795	0.28542	0.06314	0.33878	0.15779	0.18897	0.2731	0.35006	0.3131	0.15458	0.14212	-3.1229	-3.0229	-3.5729	-3.4521	-3.0646	-3.6271	-3.3271	-3.3937	-3.5938	-3.0062	-3.4208	-3.375	-2.9583	-3.6188	-3.0917	-3.1958	48.602	51.166	109.579	146.336	-145.036	148.949	87.240	198.637	-31.492	-19.879	-137.056	183.972	-141.559	-21.481	171.407	149.086	0.00041903	0.00033809	3.7983e-05	1093.3	2.968e-06	3.3807e-06	1188.1	226.15	1.2258e-06	4.0071e-06	286.16	81.251	63.552	18.954	3.1876e-06	26.347	0.0001205	0.00011015	3.0156e-05	1073.8	1.258e-06	1.18e-06	1172.6	223.4	1.2144e-06	1.1566e-06	283.24	81.121	62.982	19.041	1.2031e-06	26.545	137.593	-48.045	-31.279	-140.474	-61.544	-55.526	-140.827	-133.567	-42.007	-28.831	-133.682	-127.229	-127.186	-119.339	3.227	-120.437	-8191	255	
792.117	1	1	0	0	0.13813	0.21589	0.10308	0.12247	0.058807	0.099148	0.087309	0.27819	0.035112	0.23306	0.17505	0.137	0.29929	0.17185	0.28375	0.16679	-3.3312	-3.0417	-3.3083	-3.5563	-2.8958	-3.6479	-3.3854	-3.1625	-3.5938	-3.0417	-3.475	-3.675	-3.0083	-3.4167	-3.2646	-3.1208	110.680	39.720	169.559	82.120	-110.173	145.522	-110.495	155.745	-23.827	175.818	87.001	-103.076	-42.884	156.132	-66.881	-147.926	0.00041547	0.00024629	8.1893e-05	1094	1.7007e-06	2.7281e-06	1182.1	226.44	2.7732e-06	3.4557e-06	286.59	81.15	63.562	19.051	2.9548e-06	26.276	0.00012385	0.00010654	2.9778e-05	1074.3	1.2195e-06	1.1385e-06	1171.6	223.73	1.1943e-06	1.1756e-06	283.31	80.898	63.095	19.062	1.2004e-06	26.505	142.916	-7.106	-31.697	-140.447	-82.942	0.991	-140.520	-133.345	-60.223	4.175	-133.422	-127.332	-126.892	-119.409	-53.718	-119.177	-8191	255	
792.191	1	1	0	0	0.12095	0.054995	0.13187	0.3065	0.17425	0.0206	0.18862	0.15694	0.16604	0.11632	0.082971	0.10341	0.24476	0.19453	0.17249	0.1197	-3.0312	-3.0458	-3.1292	-3.675	-2.9792	-3.4542	-3.3563	-3.1229	-3.6417	-3.1333	-3.0833	-3.65	-3.1479	-3.5042	-3.275	-3.1188	94.681	-56.156	40.963	136.571	-25.308	-56.886	189.362	13.000	-15.237	-49.516	157.269	-127.221	204.670	158.509	127.490	-98.545	0.00041097	0.00010694	5.1639e-05	1096.9	1.8898e-06	2.2806e-06	1183.5	226.85	2.1481e-06	2.0234e-06	286.53	81.168	64.109	18.946	2.8826e-06	26.551	0.00012016	0.00010615	3.0033e-05	1074.4	1.1717e-06	1.1169e-06	1170.5	223.74	1.1556e-06	1.1171e-06	283.48	80.755	63.149	19.024	1.1145e-06	26.459	142.552	-32.820	-35.808	-140.814	-131.168	7.784	-140.911	-133.700	-61.570	-12.485	-134.081	-127.772	-127.148	-119.617	23.015	-119.907	-8191	255	
792.287	1	1	0	0	0.092433	0.024741	0.27325	0.21653	0.10566	0.13226	0.21816	0.19079	0.094863	0.16682	0.31002	0.045037	0.1101	0.23786	0.12507	0.085631	-3.1729	-2.9562	-3.0521	-3.4979	-2.9062	-3.375	-3.5958	-2.9792	-3.5667	-3.1208	-3.2021	-3.4938	-2.8542	-3.3375	-3.5979	-2.9667	174.912	3.460	36.937	178.838	87.852	-16.434	203.886	160.171	-100.894	-137.486	148.342	172.279	-50.133	14.433	40.405	130.798	0.00037623	0.00028671	6.5341e-05	1099.9	2.0054e-06	1.9178e-06	1188	226.79	3.2651e-06	2.2309e-06	288.11	81.684	63.562	18.935	4.367e-06	26.308	0.0001135	9.9844e-05	2.8575e-05	1073	1.1727e-06	1.0909e-06	1169.3	223.33	1.1534e-06	1.0951e-06	283.7	80.9	62.895	18.956	1.1244e-06	26.384	135.571	-41.875	-26.592	-140.924	-66.536	97.423	-141.189	-133.663	-53.242	66.786	-133.640	-127.752	-127.072	-119.234	-22.287	-119.822	-8191	255	
792.406	1	1	0	0	0.12063	0.20166	0.2694	0.11544	0.1301	0.08027	0.30083	0.16924	0.11619	0.059415	0.12207	0.10784	0.19072	0.087135	0.23109	0.34224	-3.2167	-3.0875	-2.9625	-3.6688	-3.0917	-3.2021	-3.4458	-2.9875	-3.5729	-3.1437	-3.0667	-3.5312	-3.2021	-3.3896	-3.4729	-2.9875	10.462	173.754	-13.737	145.271	111.009	13.299	146.175	127.923	169.340	-95.916	-108.003	-130.615	161.991	115.069	-124.470	162.861	0.00042763	0.00036463	5.1781e-05	1095.3	1.9974e-06	3.6282e-06	1177.3	224.7	2.5553e-06	8.1644e-07	286.46	81.332	63.77	19.03	1.1664e-06	26.571	0.00012202	0.00010168	2.8934e-05	1071.6	1.1456e-06	1.0883e-06	1167.3	222.54	1.1633e-06	1.1224e-06	282.41	80.829	62.9	18.969	1.103e-06	26.465	153.002	-52.729	-62.034	-140.679	-83.598	3.505	-140.983	-133.582	3.319	12.871	-133.684	-127.529	-127.192	-119.523	24.508	-120.552	-8191	255	
792.502	1	1	0	0	0.18945	0.016155	0.20102	0.022976	0.23078	0.14924	0.21017	0.047953	0.061084	0.12509	0.044578	0.080351	0.068781	0.034258	0.088686	0.31582	-3.2083	-3.2292	-2.8937	-3.6896	-3.1312	-3.2521	-3.7458	-2.9917	-3.3292	-3.5646	-3.15	-3.65	-3.0146	-3.1375	-3.5187	-3.0104	139.089	45.514	38.430	-144.525	-86.015	-49.893	137.309	168.831	181.804	-64.456	149.295	-111.676	-49.535	-20.037	-62.914	177.211	0.00036324	0.00020822	1.9915e-05	1097.2	3.3119e-06	2.5756e-06	1193.5	227.42	2.9844e-06	3.7069e-06	288.62	81.804	64.073	19.009	1.7426e-06	26.317	0.00011854	0.00010187	2.7831e-05	1073.4	1.1692e-06	1.13e-06	1170.9	223.1	1.1416e-06	1.0979e-06	283.15	80.774	62.942	18.955	1.0682e-06	26.373	145.709	-30.022	-78.882	-141.299	-54.965	-36.377	-141.240	-134.100	-39.019	18.277	-134.329	-128.133	-127.193	-120.231	53.445	-120.496	-8191	255	
792.598	1	1	0	0	0.164	0.12448	0.064186	0.30678	0.1455	0.10591	0.11502	0.24426	0.14248	0.41608	0.24478	0.16063	0.12372	0.24071	0.097148	0.20342	-3.0458	-3.4271	-2.9271	-3.5604	-3.3083	-3.2646	-3.7562	-3.0167	-3.3625	-3.3396	-2.8625	-3.4604	-3.2667	-2.9854	-3.6125	-2.9354	193.774	80.768	132.407	-17.537	118.979	194.189	-149.421	190.196	147.970	85.406	58.873	202.153	-105.052	174.296	9.760	154.091	0.00037829	0.00026789	6.7069e-05	1093.8	3.2574e-06	4.2292e-06	1186.1	225.07	2.387e-06	3.6148e-06	285.09	81.441	63.339	18.932	3.3895e-06	26.127	0.00011458	9.5928e-05	2.6662e-05	1069	1.0661e-06	1.0081e-06	1166.8	222.19	1.067e-06	9.5931e-07	280.7	80.204	62.375	18.865	9.8385e-07	26.177	147.420	-38.605	-59.152	-141.098	-16.738	-5.129	-141.254	-133.827	-48.938	2.618	-133.713	-128.026	-127.281	-119.602	-24.231	-120.851	-8191	255	
792.718	1	1	0	0	0.081832	0.26448	0.13105	0.16213	0.10146	0.12278	0.11269	0.31757	0.24717	0.18012	0.15717	0.013101	0.089571	0.14582	0.26251	0.06191	-2.9729	-3.5812	-2.8354	-3.5146	-3.3167	-2.9792	-3.7375	-2.8229	-3.1604	-3.6104	-2.9854	-3.5167	-3.4875	-3.0792	-3.6125	-3.2583	64.700	37.699	93.327	153.104	190.482	28.392	20.226	-18.355	77.761	17.005	159.371	-27.933	-137.018	-110.888	186.568	83.122	0.00039068	0.00043501	8.7668e-05	1089.3	2.8125e-06	3.4193e-06	1176.6	224.91	2.9001e-06	3.678e-06	284.88	80.387	63.332	18.832	2.1573e-06	26.089	0.00010579	8.8855e-05	2.5044e-05	1065.4	1.0168e-06	9.6642e-07	1158.7	220.88	1.0018e-06	9.5073e-07	280.37	79.682	62.234	18.74	9.2017e-07	26.117	145.879	-53.603	-30.642	-140.946	-78.303	-1.506	-141.282	-133.764	-50.238	16.947	-133.960	-127.863	-127.072	-119.582	-0.640	-120.213	-8191	255	
792.815	1	1	0	0	0.12535	0.13738	0.014664	0.10016	0.21057	0.39173	0.10492	0.27889	0.17268	0.1426	0.22407	0.033672	0.15279	0.11194	0.022934	0.18764	-2.8646	-3.4938	-3.0604	-3.6979	-3.3104	-3.1875	-3.7271	-3.325	-3.0812	-3.7188	-2.8667	-3.4896	-3.5396	-2.9917	-3.6708	-3.2062	119.140	191.248	80.284	86.315	99.272	143.612	173.339	60.808	9.128	-10.900	-75.006	153.562	196.350	-27.604	-70.382	55.661	0.00035963	0.00020345	8.1402e-05	1087.2	2.3825e-06	3.147e-06	1169.5	222.03	3.4466e-06	2.6329e-06	281.71	80.075	62.17	18.567	7.5008e-07	26.014	0.00010136	7.9734e-05	2.32e-05	1057	9.2243e-07	8.8908e-07	1152.5	218.97	9.6003e-07	8.4886e-07	277.85	79.237	61.739	18.58	9.033e-07	25.959	151.923	-73.956	-34.921	-141.103	-65.979	-0.987	-140.945	-133.429	-86.209	-18.764	-133.873	-127.932	-126.688	-119.500	30.858	-120.013	-8191	255	
792.886	1	1	0	0	0.16231	0.15333	0.17941	0.25478	0.13367	0.07504	0.24537	0.21418	0.15413	0.39833	0.17758	0.19707	0.13511	0.1157	0.12456	0.20622	-2.8375	-3.55	-3.0458	-3.5292	-3.6896	-3.0333	-3.8438	-3.3542	-2.9813	-3.6958	-3.0625	-3.2958	-3.5229	-3.0333	-3.475	-3.2854	-143.233	113.290	-58.307	147.133	63.539	-115.045	155.828	78.554	-116.990	-44.056	145.685	37.864	-122.759	35.280	36.391	121.838	0.00036355	0.00016046	2.3233e-05	1074.3	1.888e-06	2.0046e-06	1159.8	221.56	3.9872e-06	1.4345e-06	280.92	80.253	62.871	18.707	2.0228e-06	26.061	9.8927e-05	7.8435e-05	2.3816e-05	1052.8	9.1649e-07	8.8038e-07	1146.6	218.6	9.1695e-07	8.5661e-07	276.65	79.163	61.76	18.613	8.8731e-07	25.996	140.864	-34.904	-8.524	-140.728	-45.692	85.696	-140.958	-133.627	-54.519	10.650	-133.851	-127.961	-127.375	-119.765	14.979	-119.988	-8191	255	
793.007	1	1	0	0	0.2308	0.10258	0.25379	0.15509	0.18047	0.086045	0.29518	0.12359	0.25108	0.058629	0.13738	0.31717	0.12563	0.12095	0.036798	0.26126	-2.7854	-3.7021	-3.0417	-3.4188	-3.5271	-2.9979	-3.7375	-3.3833	-3.0979	-3.6188	-3.1083	-3.1333	-3.4958	-3.0042	-3.4417	-3.3063	-65.669	193.389	-66.764	9.608	-14.775	-6.836	158.674	106.336	33.791	78.518	160.139	148.751	194.991	-1.166	158.295	-68.002	0.00038022	0.00039755	0.00011482	1070.7	1.6842e-06	4.8795e-06	1162.1	221.31	1.9897e-06	1.8363e-06	280.57	80.112	62.582	18.633	2.8412e-06	25.915	9.7837e-05	7.9241e-05	2.2452e-05	1048.6	8.6532e-07	8.4687e-07	1145.5	217.94	9.1689e-07	8.6402e-07	276.8	79.135	61.643	18.602	8.8726e-07	25.9	139.623	-79.014	-48.854	-141.085	8.235	7.084	-141.087	-133.645	-55.359	-30.343	-133.581	-127.953	-126.993	-119.141	-13.823	-119.408	-8191	255	
793.101	1	1	0	0	0.073783	0.12851	0.1142	0.097029	0.18428	0.1896	0.32228	0.17734	0.18356	0.10452	0.17654	0.17726	0.064688	0.053231	0.041174	0.43041	-2.575	-3.7062	-3.1667	-3.1917	-3.5979	-3.075	-3.6833	-3.5271	-2.9688	-3.6063	-3.2771	-2.9708	-3.6875	-3.0812	-3.2438	-3.4854	60.510	8.210	-97.804	190.605	-31.821	-91.207	0.358	45.735	-76.649	-71.324	-87.876	-142.893	156.467	173.224	119.696	90.820	0.0003198	0.00025908	7.7031e-05	1070.4	3.1336e-06	1.7744e-06	1160.4	220.79	2.1443e-06	3.4216e-06	280.69	79.793	62.255	18.571	2.7579e-06	25.704	9.2177e-05	7.6649e-05	2.182e-05	1048.6	8.6223e-07	8.5244e-07	1143.7	217.56	9.207e-07	8.424e-07	276.24	78.933	61.352	18.507	8.5356e-07	25.85	149.260	-56.328	-66.802	-140.850	-48.583	-1.876	-141.218	-133.259	-14.320	44.124	-133.976	-127.965	-126.918	-119.373	-32.121	-119.922	-8191	255	
793.197	1	1	0	0	0.21974	0.18647	0.16489	0.27167	0.26298	0.12676	0.046316	0.4187	0.12461	0.31919	0.22033	0.22915	0.10378	0.082188	0.081343	0.20506	-2.6021	-3.4917	-3.3083	-3.2146	-3.6125	-3.1125	-3.5729	-3.6146	-2.9979	-3.5292	-3.2979	-3.1083	-3.7208	-3.1458	-3.2104	-3.5396	-90.234	-17.165	-61.541	-111.970	169.260	38.773	205.107	126.097	-36.612	-26.810	73.782	-130.158	190.695	185.452	135.281	-144.661	0.0003672	0.00027729	5.2417e-05	1069.1	1.8994e-06	5.4482e-06	1156.4	220.61	4.1014e-06	2.3489e-06	280.15	79.301	62.497	18.467	2.4996e-06	25.739	9.4248e-05	7.8252e-05	2.1872e-05	1046.5	8.9726e-07	8.3889e-07	1142.9	217.15	9.1293e-07	8.4635e-07	275.35	78.865	61.423	18.485	8.3437e-07	25.82	143.669	-73.824	-52.849	-141.031	-38.157	25.957	-140.919	-133.288	-58.767	-40.503	-133.411	-127.693	-126.945	-119.666	-3.110	-119.849	-8191	255	
793.294	1	1	0	0	0.07379	0.057418	0.023348	0.084287	0.032854	0.1736	0.34939	0.32253	0.37952	0.0098099	0.10556	0.068959	0.20975	0.14767	0.094978	0.0355	-2.4979	-3.3542	-3.3125	-3.0958	-3.6396	-3.1854	-3.3854	-3.6708	-3.0333	-3.4938	-3.4583	-3.0146	-3.675	-3.0917	-3.2083	-3.6354	-22.334	-77.932	-67.559	126.808	-49.057	123.681	202.421	88.807	-37.986	-129.494	-47.231	174.010	-100.731	-131.167	194.174	12.369	0.00034583	0.00033943	5.7808e-05	1068.4	3.1303e-06	1.424e-06	1165.6	221.39	5.2063e-06	1.8004e-06	279.95	79.05	62.086	18.469	4.358e-06	25.673	9.5857e-05	7.6279e-05	2.1292e-05	1045.5	8.8211e-07	8.2177e-07	1141.2	217.43	8.8125e-07	8.3839e-07	275.78	78.639	61.318	18.49	8.3188e-07	25.823	152.175	-48.016	-21.117	-141.117	-29.546	15.155	-141.360	-133.709	-67.359	76.450	-133.834	-127.741	-127.020	-119.293	8.303	-119.769	-8191	255	
793.414	1	1	0	0	0.21302	0.36853	0.16755	0.13444	0.19918	0.038265	0.035522	0.079987	0.032015	0.14772	0.3061	0.096161	0.062772	0.11257	0.29291	0.277	-2.5417	-3.5125	-3.5375	-3.1229	-3.5521	-3.2625	-3.2458	-3.8458	-2.9208	-3.3229	-3.4917	-3.0833	-3.75	-3.2125	-3.1271	-3.6917	-110.707	25.561	194.755	-143.518	69.038	20.666	101.344	-146.375	149.268	-37.534	-149.892	123.902	204.622	-86.447	154.952	-69.142	0.0003209	0.00028915	1.8319e-05	1067.1	4.5786e-06	3.7196e-06	1154.7	219.89	2.9246e-06	3.0018e-06	277.46	78.818	61.971	18.342	1.7674e-06	25.844	9.2763e-05	7.4016e-05	1.9721e-05	1042.6	8.3601e-07	8.0555e-07	1138.7	216.19	8.5564e-07	7.8428e-07	274.22	78.41	61.004	18.43	8.0671e-07	25.744	146.332	-32.311	-10.480	-140.568	-25.413	19.797	-140.866	-133.143	-72.964	-34.898	-133.547	-127.538	-127.038	-119.291	47.075	-119.991	-8191	255	
793.486	1	1	0	0	0.23235	0.15219	0.2653	0.11797	0.057936	0.19375	0.081715	0.22039	0.15267	0.045687	0.13178	0.14776	0.11512	0.11271	0.21409	0.12303	-2.4271	-3.3083	-3.5708	-3.0292	-3.6458	-3.3271	-3.2062	-3.5458	-2.9375	-3.3229	-3.6146	-2.8958	-3.3542	-3.3937	-2.9417	-3.5458	-76.175	13.490	61.141	168.510	43.513	62.650	-116.403	183.521	-57.533	52.100	21.000	-41.807	-120.975	108.977	44.158	97.950	0.00033563	0.00010944	0.00012817	1059.7	2.0151e-06	9.2957e-07	1158.8	219.97	2.3346e-06	3.1809e-06	278.62	79.012	61.997	18.381	3.749e-06	25.439	8.8779e-05	7.3189e-05	2.0549e-05	1037.8	8.386e-07	7.848e-07	1136.2	216.18	8.4181e-07	7.9921e-07	274.05	78.327	61.061	18.436	8.0029e-07	25.626	156.363	-56.344	-65.716	-140.638	-52.310	-62.924	-141.500	-133.669	-91.506	12.141	-133.738	-127.550	-126.938	-118.686	11.108	-119.525	-8191	255	
793.582	1	1	0	0	0.12029	0.013754	0.086488	0.37363	0.075039	0.062621	0.24175	0.24588	0.23675	0.20352	0.12059	0.15909	0.2586	0.25913	0.23172	0.20296	-2.7167	-3.1375	-3.4396	-3.0708	-3.475	-3.4542	-3.1937	-3.7104	-3.1937	-3.1292	-3.7313	-2.9437	-3.4646	-3.4583	-3.0521	-3.6396	51.172	34.526	-97.008	152.592	44.635	-148.599	148.490	87.355	87.852	26.405	147.239	180.209	149.002	-85.068	-91.309	126.038	0.00036462	0.00030266	6.5547e-05	1054	4.3969e-06	2.7273e-06	1151.5	217.5	9.7972e-07	1.9304e-06	276.8	78.398	61.494	18.406	2.3024e-06	25.487	8.7988e-05	7.255e-05	1.9465e-05	1037.3	8.1426e-07	7.64e-07	1133.5	215.02	8.2875e-07	7.6204e-07	273.38	78.121	60.896	18.355	7.9205e-07	25.601	152.507	-22.215	-41.688	-140.927	-80.748	-49.132	-140.853	-133.251	-56.959	33.113	-133.448	-126.995	-126.721	-118.791	4.338	-119.364	-8191	255	
793.678	1	1	0	0	0.20312	0.12263	0.11695	0.20962	0.1057	0.020477	0.27096	0.12068	0.18319	0.10092	0.039839	0.15038	0.21717	0.17837	0.12503	0.17112	-2.8521	-3.0167	-3.55	-3.0896	-3.2708	-3.4875	-3.0896	-3.6646	-3.1979	-3.1021	-3.7313	-3.1729	-3.2521	-3.7229	-3	-3.6396	67.420	-25.452	-122.900	165.493	-77.926	107.122	111.661	58.407	123.629	23.446	-143.045	23.826	-85.711	23.256	-31.893	10.801	0.00032105	0.0002689	8.4691e-05	1056.7	1.2593e-06	2.8546e-06	1145.1	217.74	4.1305e-06	1.8419e-06	276	77.814	61.867	18.311	1.3781e-06	25.469	8.3514e-05	6.8648e-05	1.9399e-05	1033.8	7.9173e-07	7.3501e-07	1130.1	215.07	7.7515e-07	7.5207e-07	272.46	77.813	60.907	18.323	7.6555e-07	25.647	152.410	-36.529	-59.642	-140.810	-27.164	-5.609	-140.754	-133.318	-36.508	23.647	-133.436	-127.060	-126.230	-119.034	-23.915	-119.947	-8191	255	
793.799	1	1	0	0	0.22837	0.06445	0.07505	0.1596	0.24879	0.11434	0.13108	0.20677	0.21021	0.21612	0.080067	0.13852	0.14375	0.16165	0.16171	0.25095	-3.0146	-3.25	-3.5125	-3.2229	-3.1271	-3.5521	-3.0021	-3.6646	-3.2875	-3.1667	-3.6625	-3.2292	-3.2208	-3.5938	-2.9167	-3.6229	-135.194	-88.941	48.306	168.835	202.346	38.419	-97.334	-132.810	187.543	115.872	-44.889	85.902	-17.095	193.287	84.013	133.820	0.0003493	0.00032171	6.2422e-05	1051.4	1.9514e-06	4.0352e-06	1143.5	217.29	2.7021e-06	1.2072e-06	276.3	78.393	61.524	18.314	2.6483e-06	25.33	8.5946e-05	6.6319e-05	1.8643e-05	1031.8	7.9195e-07	6.9246e-07	1127.5	214.83	7.7058e-07	7.0977e-07	272.21	77.91	60.553	18.349	7.4452e-07	25.575	150.673	-63.836	-20.194	-140.617	-39.199	-8.837	-141.084	-133.478	-46.328	10.242	-133.494	-126.969	-126.523	-118.652	-13.091	-119.504	-8191	255	
793.895	1	1	0	0	0.15041	0.037631	0.065878	0.27329	0.18393	0.1634	0.058189	0.19941	0.28124	0.047225	0.22773	0.08724	0.28907	0.25688	0.042266	0.22612	-3.1479	-2.8875	-3.6646	-3.1813	-3.1188	-3.6479	-3.0333	-3.4104	-3.5167	-2.9604	-3.6396	-3.3937	-3.1021	-3.7083	-3.0375	-3.4208	-51.863	110.874	9.941	177.519	121.142	53.005	183.913	-35.959	133.478	156.443	51.338	35.235	178.143	23.351	-46.901	115.596	0.00040514	0.00021801	8.3362e-05	1051	2.7705e-06	1.5295e-06	1148.1	217.53	3.0242e-06	2.5086e-06	275.65	78.114	61.005	18.218	2.1003e-06	25.591	8.2981e-05	6.8821e-05	1.8408e-05	1030.8	7.9823e-07	7.0328e-07	1127.1	214.71	7.5284e-07	7.3775e-07	272.41	77.842	60.436	18.312	6.9894e-07	25.587	147.915	-73.181	-36.795	-140.790	-20.589	-49.852	-141.095	-133.687	-75.360	13.735	-133.629	-127.503	-126.786	-119.173	3.159	-119.639	-8191	255	
793.991	1	1	0	0	0.18167	0.20962	0.062258	0.21417	0.047459	0.13516	0.25584	0.052421	0.053122	0.081618	0.049833	0.16511	0.081671	0.31294	0.17956	0.21488	-3.2438	-2.875	-3.5958	-3.2125	-3.0542	-3.7438	-3.2646	-3.3271	-3.7438	-3.0146	-3.5062	-3.3604	-2.9104	-3.5292	-3.1333	-3.3521	85.470	-12.619	198.449	144.615	-26.273	112.292	193.313	72.042	186.457	200.082	77.242	144.942	196.589	126.453	-0.967	58.964	0.00039842	0.00023696	6.5336e-05	1053.7	1.4255e-06	3.351e-06	1139.7	217.02	3.1177e-06	3.2248e-06	275.61	78.449	61.453	18.32	3.6337e-06	25.427	7.6488e-05	6.5619e-05	1.7251e-05	1030.4	7.6254e-07	6.7796e-07	1126.1	214.08	7.4353e-07	6.8219e-07	272.1	77.9	60.578	18.278	7.1205e-07	25.522	150.710	-52.327	-37.368	-140.537	-42.231	-32.761	-140.766	-133.558	-55.947	38.772	-133.638	-127.225	-127.064	-119.392	11.405	-119.806	-8191	255	
794.087	1	1	0	0	0.18269	0.17662	0.34229	0.1609	0.17857	0.10281	0.23258	0.086802	0.12312	0.11381	0.07102	0.035051	0.048626	0.11863	0.13208	0.16887	-3.1688	-3.1021	-3.6792	-3.4021	-3.0042	-3.6417	-3.2833	-3.2208	-3.6958	-2.8583	-3.5417	-3.7229	-3.125	-3.6958	-3.2542	-3.1917	31.872	124.091	-103.646	153.977	-59.557	36.434	52.491	205.932	-51.191	31.209	38.564	12.509	-12.723	-20.592	-142.141	49.280	0.00037924	0.00027185	9.4891e-05	1051.8	3.5546e-06	3.9945e-06	1142.2	216.74	3.7488e-06	8.7892e-07	272.91	78.663	60.986	18.311	4.3953e-06	25.611	7.6836e-05	6.4402e-05	1.7516e-05	1029.1	7.2266e-07	6.7155e-07	1124.7	214.32	7.1252e-07	6.9796e-07	271.14	77.956	60.401	18.238	6.8207e-07	25.495	142.756	-78.765	-68.364	-140.859	-68.077	-5.532	-140.972	-133.324	-58.096	18.919	-133.597	-127.189	-126.930	-119.037	0.578	-119.532	-8191	255	
794.183	1	1	0	0	0.23341	0.30938	0.25244	0.2817	0.036972	0.20754	0.14654	0.22595	0.11669	0.11422	0.18038	0.26454	0.30343	0.097509	0.25984	0.15171	-3.1729	-2.7792	-3.3292	-3.5896	-3.025	-3.5187	-3.4833	-3.1708	-3.7	-2.9854	-3.5	-3.4396	-3.0833	-3.5938	-3.2479	-3.0125	-86.969	-26.666	61.905	-139.045	20.315	58.891	116.670	157.726	-19.712	-14.118	-137.175	-146.314	-94.630	-108.892	-87.059	156.297	0.00029347	0.00024535	8.5354e-05	1049.7	3.3416e-06	3.061e-06	1137.9	218.04	3.5122e-06	2.1143e-06	275.36	78.759	60.982	18.329	4.2584e-06	25.461	7.6412e-05	6.3453e-05	1.7464e-05	1030.1	7.1247e-07	6.4155e-07	1123.3	214.24	7.237e-07	6.6073e-07	271.24	77.726	60.336	18.265	6.4456e-07	25.555	141.473	-64.556	-32.769	-140.732	-52.983	-0.851	-140.781	-133.438	-57.388	31.328	-134.096	-127.261	-126.981	-119.569	38.357	-120.126	-8191	255	
794.280	1	1	0	0	0.20684	0.128	0.071429	0.075722	0.14582	0.075851	0.36762	0.11478	0.065725	0.08168	0.049182	0.0026103	0.13845	0.35413	0.089711	0.21145	-3.2313	-2.9708	-3.2083	-3.6375	-3.0708	-3.5375	-3.4667	-3.0312	-3.7271	-3.1229	-3.1542	-3.5375	-3.0938	-3.5354	-3.4437	-3.1229	-69.974	-78.377	89.225	173.700	197.492	49.011	181.481	41.418	-7.251	172.006	-59.749	-20.760	207.999	103.283	124.534	-8.656	0.00037454	0.00022348	8.2868e-05	1054.3	2.1778e-06	4.4223e-06	1144.9	218	1.5273e-06	2.1907e-06	276.58	78.524	61.336	18.324	3.6366e-06	25.406	7.5988e-05	5.9409e-05	1.6845e-05	1029.2	7.215e-07	6.5956e-07	1124.8	214.14	7.0117e-07	6.4195e-07	271.48	77.793	60.473	18.25	6.9402e-07	25.517	148.502	-81.191	-12.232	-140.601	-49.146	-1.490	-141.333	-133.872	-39.989	-29.415	-134.286	-127.462	-126.846	-119.397	-11.753	-119.775	-8191	255	
794.398	1	1	0	0	0.22542	0.31691	0.063124	0.12861	0.11819	0.35596	0.068888	0.1566	0.15293	0.18435	0.21734	0.24184	0.14304	0.052291	0.081405	0.049286	-3.4042	-3.0854	-3.1583	-3.6083	-2.9437	-3.2438	-3.475	-2.8875	-3.4479	-3.1646	-3.1917	-3.8333	-3.0146	-3.2729	-3.5208	-3.0438	-52.828	-114.526	12.535	136.426	30.977	132.934	-147.147	202.899	-11.514	98.426	115.713	-65.218	30.233	192.724	-87.176	130.801	0.00039398	0.00021397	4.4979e-05	1055.8	2.6996e-06	2.9077e-06	1144.6	216.42	1.8196e-06	2.804e-06	275.46	78.504	61.65	18.262	2.486e-06	25.535	7.883e-05	6.4249e-05	1.754e-05	1029.8	7.41e-07	7.2497e-07	1124.5	213.66	7.4662e-07	7.3557e-07	271.06	77.811	60.668	18.263	7.2726e-07	25.492	143.947	-86.712	-6.354	-140.976	-47.317	-51.943	-140.908	-133.489	-7.729	-7.615	-133.681	-127.712	-127.138	-119.543	-13.256	-120.166	-8191	255	
794.495	1	1	0	0	0.37462	0.18629	0.091412	0.20592	0.091803	0.084882	0.24718	0.10058	0.14224	0.15109	0.15128	0.15268	0.047928	0.17391	0.11885	0.24949	-3.375	-3.2979	-3.1625	-3.5438	-3.1208	-3.3104	-3.5208	-3.0458	-3.5583	-3.2354	-3.0938	-3.5812	-3.1146	-3.1	-3.4583	-3.0292	-6.819	-47.715	10.061	66.762	-18.524	154.853	155.908	115.706	183.814	54.261	152.666	128.882	29.961	200.573	-25.714	175.101	0.00043665	0.00029881	3.5097e-05	1052.5	2.7806e-06	1.5599e-06	1138.3	215.84	3.9708e-06	1.5548e-06	274.78	77.927	61.034	18.347	3.2127e-06	25.408	8.1905e-05	6.9018e-05	1.8791e-05	1029.1	8.0016e-07	7.5374e-07	1122.8	213.6	7.9036e-07	7.4806e-07	271.31	77.594	60.49	18.324	7.6145e-07	25.529	142.694	-25.172	-75.666	-140.683	-66.614	24.597	-140.603	-133.236	-51.959	1.782	-133.808	-127.277	-126.686	-119.635	5.591	-119.402	-8191	255	
794.591	1	1	0	0	0.1524	0.12011	0.031104	0.16968	0.10089	0.056428	0.14461	0.14668	0.2311	0.21472	0.2096	0.1693	0.11144	0.20088	0.13924	0.22517	-3.1271	-3.4146	-2.8208	-3.7229	-3.2	-3.175	-3.6833	-3.2417	-3.3875	-3.5312	-3.2167	-3.6167	-3.275	-3.2354	-3.5458	-3.0354	-52.281	157.364	163.727	-94.329	34.318	187.016	90.571	153.253	-73.584	-80.893	91.737	-23.248	1.537	-81.295	-5.863	15.953	0.00034354	0.00016104	7.1076e-05	1048	3.2803e-06	4.0192e-06	1140.8	216.66	3.3799e-06	2.2327e-06	275.99	78.416	60.81	18.356	8.9303e-07	25.416	8.5642e-05	6.7918e-05	1.9591e-05	1029.4	8.2467e-07	7.6361e-07	1126.3	213.74	8.4688e-07	7.8378e-07	271.5	77.748	60.432	18.3	8.0328e-07	25.494	140.229	-124.796	-30.798	-140.515	-53.801	-27.719	-140.808	-133.383	-37.123	-1.718	-133.967	-127.517	-126.569	-119.322	19.404	-119.986	-8191	255	
794.687	1	1	0	0	0.09917	0.24544	0.41782	0.05709	0.1554	0.20562	0.23217	0.20614	0.061219	0.11365	0.18705	0.21811	0.10321	0.25006	0.091433	0.18009	-3.1083	-3.55	-2.8542	-3.6729	-3.2833	-3.0167	-3.7167	-3.0729	-3.3063	-3.5167	-2.8438	-3.4917	-3.3667	-3.0667	-3.5875	-3.1354	139.596	115.409	-72.512	158.025	-104.316	187.077	113.021	140.783	33.250	-76.172	149.348	101.617	49.257	14.424	-130.277	-70.870	0.00037309	0.00029129	3.0038e-05	1055.2	2.2484e-06	2.5248e-06	1147.1	217.87	2.1736e-06	3.0117e-06	273.88	78.103	61.001	18.396	2.603e-06	25.338	8.9616e-05	7.1844e-05	2.0695e-05	1032.9	8.3122e-07	7.9796e-07	1127.2	214.32	8.926e-07	7.8901e-07	271.1	77.669	60.5	18.334	8.2236e-07	25.528	142.569	-39.201	-7.151	-140.606	-31.466	-12.149	-141.065	-133.524	-90.115	-14.247	-133.281	-127.349	-126.760	-119.324	7.013	-119.929	-8191	255	
794.783	1	1	0	0	0.018904	0.14672	0.12014	0.22697	0.26823	0.24357	0.18058	0.20923	0.077764	0.18882	0.10975	0.17886	0.080144	0.12794	0.13487	0.27055	-2.7938	-3.4208	-2.8979	-3.5958	-3.2021	-3.1792	-3.7146	-3.1125	-3.1813	-3.55	-3.0542	-3.4854	-3.3854	-2.9292	-3.7708	-3.1583	-126.824	56.865	156.453	130.250	98.839	-72.835	151.013	-130.138	10.550	-123.562	155.203	193.658	-63.077	-44.900	-75.877	-117.719	0.0003861	0.00035089	0.00010052	1050.8	2.4201e-06	3.214e-06	1147.1	216.71	4.0644e-06	3.3174e-06	275.68	78.539	61.047	18.381	1.6401e-06	25.452	9.2525e-05	7.153e-05	2.1176e-05	1032.2	8.31e-07	8.0398e-07	1128.3	214.15	8.3927e-07	7.9514e-07	271.86	78.025	60.602	18.301	7.8602e-07	25.559	150.552	-34.827	-37.628	-140.567	-85.304	28.601	-140.911	-133.453	-80.208	-2.898	-133.720	-127.221	-126.778	-119.261	20.664	-119.703	-8191	255	
794.879	1	1	0	0	0.073568	0.17469	0.11117	0.24305	0.11875	0.07863	0.21951	0.11636	0.13332	0.074884	0.057237	0.13268	0.041299	0.014824	0.13667	0.13346	-2.9646	-3.5687	-2.9875	-3.4688	-3.3896	-2.95	-3.6479	-3.1479	-3.3063	-3.6292	-3.0729	-3.3125	-3.6	-3.0042	-3.5687	-3.4354	12.217	-130.245	42.499	-139.682	-150.332	152.078	78.167	149.803	-20.189	130.856	185.830	-114.929	-99.301	132.957	-102.346	24.665	0.00036594	0.0003266	4.8378e-05	1053.4	1.5922e-06	2.7708e-06	1136.2	216.7	2.8031e-06	2.1358e-06	274.55	78.356	61.304	18.391	2.3994e-06	25.623	9.2101e-05	7.1352e-05	2.061e-05	1030.9	8.4047e-07	8.4291e-07	1125.5	214.02	8.585e-07	8.2953e-07	271.39	77.777	60.592	18.308	8.2026e-07	25.598	146.339	-59.811	-44.463	-140.523	-87.774	-34.370	-140.871	-133.107	-55.654	45.834	-133.588	-127.962	-126.867	-119.307	-5.367	-119.927	-8191	255	
794.975	1	1	0	0	0.0035268	0.13163	0.17522	0.11822	0.19432	0.22015	0.34439	0.34915	0.10011	0.28528	0.065101	0.12547	0.0048711	0.3464	0.12242	0.058519	-2.6917	-3.6583	-3.0229	-3.4333	-3.4375	-2.9042	-3.5917	-3.3688	-3.1083	-3.6521	-3.0833	-3.3729	-3.6562	-2.9792	-3.5417	-3.3521	28.331	-38.582	83.649	-95.673	147.007	59.131	162.265	151.086	183.418	14.797	-116.978	126.558	-22.147	39.067	-55.524	196.637	0.00034412	0.00019435	3.7944e-05	1054.8	2.8191e-06	3.005e-06	1143.7	217.05	2.2662e-06	2.8144e-06	276.99	78.752	61.475	18.232	3.0727e-06	25.677	9.1263e-05	7.3747e-05	2.1366e-05	1033.3	8.6603e-07	8.1374e-07	1128	214.06	8.6219e-07	8.4162e-07	272.06	77.943	60.639	18.261	8.4499e-07	25.605	149.278	-46.157	-6.740	-141.083	-26.083	3.699	-140.978	-133.332	-48.664	-10.446	-133.769	-127.604	-127.036	-119.453	-49.325	-119.900	-8191	255	
795.072	1	1	0	0	0.076525	0.088321	0.13768	0.24598	0.10626	0.20928	0.057402	0.23841	0.18542	0.094186	0.13315	0.068874	0.059161	0.090181	0.068422	0.15545	-2.5521	-3.5875	-3.0375	-3.2812	-3.5729	-2.8958	-3.6146	-3.375	-2.9708	-3.7	-3.3187	-3.0375	-3.6729	-3.0083	-3.5396	-3.3979	74.319	4.344	4.423	-110.434	196.875	18.446	-107.980	177.367	29.719	-121.127	96.145	-135.950	182.681	-138.090	-17.097	141.286	0.00040343	0.00025895	3.4229e-05	1053	4.6391e-06	2.0652e-06	1144.4	216.44	2.123e-06	1.5894e-06	275.15	78.305	61.655	18.421	3.8632e-06	25.382	9.4091e-05	7.5269e-05	2.121e-05	1032.7	8.5116e-07	8.4614e-07	1127	214.08	9.0108e-07	8.3276e-07	271.95	77.839	60.737	18.353	8.4875e-07	25.502	148.715	-68.021	-106.835	-140.699	-33.811	-34.544	-141.281	-133.361	-48.305	24.290	-133.499	-127.447	-127.044	-119.526	-17.581	-119.603	-8191	255	
795.190	1	1	0	0	0.2813	0.10872	0.085635	0.20293	0.029227	0.15246	0.11809	0.28485	0.070194	0.2467	0.039651	0.14668	0.23413	0.097284	0.16196	0.13167	-2.5646	-3.5958	-3.3021	-3.1125	-3.5687	-2.9625	-3.5958	-3.5292	-3	-3.6292	-3.2667	-3.0812	-3.7229	-2.9813	-3.3187	-3.5187	185.489	178.046	-44.243	153.490	-47.088	-83.792	149.367	113.399	-45.917	-3.397	-113.626	129.697	-113.219	146.019	167.807	143.978	0.0003772	0.00026849	9.8639e-05	1056.6	9.1766e-07	3.068e-06	1145.4	217.84	1.3669e-06	2.8835e-06	275.76	78.232	61.035	18.5	2.1866e-06	25.532	9.112e-05	7.7547e-05	2.159e-05	1032.3	8.5727e-07	8.4765e-07	1128.5	214.57	8.8412e-07	8.3493e-07	272.16	77.885	60.617	18.338	8.29e-07	25.591	158.188	-48.367	-36.358	-140.876	-100.167	-39.993	-140.752	-133.375	-77.007	-22.233	-133.771	-127.504	-126.568	-118.669	-35.595	-119.647	-8191	255	
795.287	1	1	0	0	0.26851	0.25151	0.14462	0.31021	0.0668	0.12844	0.46407	0.28923	0.33571	0.1648	0.17824	0.10758	0.21859	0.28135	0.27241	0.072879	-2.6521	-3.4562	-3.2083	-3.225	-3.6729	-3.0375	-3.3917	-3.55	-2.9125	-3.5479	-3.4979	-2.9396	-3.5938	-3.1688	-3.1917	-3.6083	23.741	199.956	207.735	86.191	-133.535	63.739	156.589	142.079	207.213	70.362	141.038	167.281	-94.502	-147.152	-148.117	23.371	0.00036848	0.00026704	8.6685e-05	1053.3	3.2556e-06	1.936e-06	1142.4	217.16	2.768e-06	2.2965e-06	276.29	78.734	61.316	18.251	3.3816e-06	25.48	9.1677e-05	7.9226e-05	2.1e-05	1032.7	8.7793e-07	8.2874e-07	1127.2	214.44	8.9805e-07	8.4279e-07	272.2	77.961	60.776	18.324	8.321e-07	25.525	149.390	-52.250	-50.074	-140.660	-71.345	-25.981	-140.580	-132.987	-15.779	-34.787	-133.421	-127.449	-127.019	-119.103	-30.022	-119.855	-8191	255	
795.360	1	1	0	0	0.31938	0.14741	0.18671	0.14492	0.1431	0.17782	0.11407	0.087891	0.071175	0.1474	0.066179	0.085572	0.24569	0.083843	0.1719	0.15994	-2.5187	-3.4	-3.275	-3.1021	-3.5208	-3.2188	-3.3625	-3.5521	-2.9042	-3.3646	-3.5417	-3.1583	-3.5792	-3.1667	-3.1479	-3.4958	47.334	201.510	193.457	205.677	-39.886	89.261	165.256	108.227	-95.007	158.740	-80.312	201.643	-88.997	-80.198	18.806	-123.055	0.00036091	0.00021802	8.3231e-05	1054.7	2.7139e-06	1.3384e-06	1140.8	216.57	2.8548e-06	1.6125e-06	274.28	77.988	61.245	18.41	3.8511e-06	25.526	9.1863e-05	8.0388e-05	2.0639e-05	1033.2	8.6218e-07	8.1497e-07	1126.8	214.11	8.894e-07	8.3471e-07	271.84	77.718	60.661	18.326	8.2817e-07	25.633	147.915	-70.598	-41.189	-140.792	-73.028	-19.712	-140.872	-133.381	-72.314	1.574	-133.160	-127.721	-127.006	-119.350	44.232	-119.551	-8191	255	
795.479	1	1	0	0	0.2751	0.071495	0.25545	0.1886	0.157	0.25016	0.26292	0.18017	0.17708	0.20121	0.069105	0.042953	0.11768	0.089939	0.21563	0.23668	-2.7354	-3.4375	-3.3646	-3.0875	-3.4167	-3.3312	-3.3104	-3.7208	-2.8937	-3.1375	-3.3979	-2.9542	-3.5792	-3.2458	-2.8479	-3.7417	149.577	97.771	96.020	155.992	11.688	60.718	141.601	-72.665	-13.190	-128.325	73.027	-128.741	-149.712	105.499	-40.548	122.795	0.00033838	0.00033861	3.4581e-05	1053.1	1.6349e-06	2.4888e-06	1143	218.01	4.8691e-06	1.767e-06	275.08	78.037	61.781	18.3	2.362e-06	25.536	9.3005e-05	7.883e-05	2.0523e-05	1032.2	8.5215e-07	8.2094e-07	1128	214.42	8.6103e-07	8.2094e-07	272.02	77.789	60.703	18.313	8.0411e-07	25.573	143.825	-61.530	-52.871	-140.854	-106.848	12.495	-141.174	-133.254	-69.489	18.784	-133.719	-127.613	-126.972	-119.044	-5.695	-119.829	-8191	255	
795.575	1	1	0	0	0.2768	0.23692	0.17834	0.13761	0.062314	0.15448	0.24929	0.16795	0.12824	0.22375	0.13651	0.15445	0.1247	0.16093	0.03689	0.070072	-2.7229	-3.3375	-3.5958	-2.8708	-3.4458	-3.3563	-3.0729	-3.7604	-2.9417	-3.3896	-3.6771	-2.9333	-3.425	-3.4354	-3.1208	-3.6146	-64.973	-47.827	-67.871	162.745	187.182	-43.379	90.460	135.062	202.330	107.794	-44.450	98.325	-61.999	49.137	-78.527	-63.677	0.00036228	0.00031853	3.0634e-05	1054.7	2.3155e-06	5.0297e-06	1146	218.21	2.916e-06	1.0887e-06	276.8	78.862	61.566	18.473	4.4218e-06	25.639	9.3624e-05	7.4305e-05	2.0863e-05	1032.5	8.7418e-07	8.4263e-07	1127.1	214.61	8.8224e-07	8.2228e-07	272.63	78.019	60.682	18.327	8.7768e-07	25.615	143.872	-17.272	15.130	-140.819	-81.926	2.495	-141.128	-133.522	-42.856	0.779	-133.676	-127.336	-127.582	-119.503	15.994	-120.129	-8191	255	
795.671	1	1	0	0	0.24264	0.19203	0.098062	0.32202	0.12082	0.082495	0.13584	0.16197	0.14028	0.14517	0.2535	0.04851	0.12911	0.12587	0.086574	0.09955	-2.8937	-3.0333	-3.5708	-3.0396	-3.3104	-3.4375	-3.0896	-3.6646	-3.1813	-3.1354	-3.5771	-2.9437	-3.4479	-3.4125	-3.0646	-3.6562	-126.283	165.251	-76.796	150.609	-104.560	36.238	120.479	202.254	187.415	-63.969	175.240	-144.694	57.461	57.319	85.656	34.985	0.00034018	0.00031819	7.7788e-05	1052.5	2.1519e-06	3.5012e-06	1143.4	217.47	2.9377e-06	1.671e-06	275.93	78.591	61.416	18.312	3.9785e-06	25.456	8.9597e-05	7.4868e-05	2.1437e-05	1031.7	8.5006e-07	7.8553e-07	1126.7	214.44	8.2633e-07	8.2986e-07	272.19	77.986	60.571	18.278	8.3453e-07	25.573	148.730	-78.059	-35.667	-141.012	-53.501	30.136	-140.998	-133.240	-42.439	9.480	-133.641	-127.898	-126.894	-119.075	7.601	-120.289	-8191	255	
795.767	1	1	0	0	0.22715	0.025429	0.21483	0.23074	0.23269	0.36765	0.24024	0.15863	0.088437	0.17061	0.0766	0.1976	0.2077	0.1165	0.28709	0.15068	-2.8083	-3.025	-3.7375	-3.1583	-3.1708	-3.6271	-3.0812	-3.5438	-3.2188	-2.8937	-3.75	-3.0292	-3.2083	-3.5604	-3.0729	-3.4667	80.413	160.576	-33.485	109.129	187.465	75.139	173.399	-126.932	8.585	-117.458	169.698	-27.229	-96.782	152.796	-16.948	-124.950	0.00039873	0.00023179	4.4274e-05	1054.9	3.4587e-06	4.2436e-06	1146.2	217.04	2.9944e-06	2.409e-06	276.83	78.766	61.713	18.324	3.8664e-06	25.578	8.8379e-05	7.8151e-05	2.0547e-05	1033.6	8.5821e-07	8.2523e-07	1128.1	213.99	8.3404e-07	8.1348e-07	272.05	77.9	60.817	18.298	8.2773e-07	25.581	145.222	-12.245	-62.287	-140.882	-38.959	11.187	-140.863	-133.467	-40.990	37.834	-133.592	-127.386	-126.758	-119.312	-10.000	-119.753	-8191	255	
795.888	1	1	0	0	0.12692	0.22025	0.060756	0.37653	0.24609	0.057446	0.090508	0.32027	0.30512	0.27752	0.28083	0.068327	0.09475	0.2733	0.086299	0.077835	-2.8917	-3.0958	-3.7083	-3.2083	-3.0354	-3.5938	-3.0125	-3.4875	-3.4021	-2.7458	-3.6604	-3.3042	-3.1979	-3.5958	-2.9354	-3.3417	-133.016	109.862	-83.875	-135.766	198.190	116.071	141.703	139.077	-52.208	-120.173	129.243	29.913	181.845	-104.376	-140.631	-16.140	0.00036154	0.00015429	5.1589e-05	1054.9	2.0496e-06	1.8334e-06	1144.4	217.94	4.6888e-06	3.7263e-06	275.4	78.244	61.457	18.296	1.5349e-06	25.594	8.8145e-05	7.3762e-05	2.0114e-05	1032.7	8.4411e-07	7.9328e-07	1128.2	214.52	8.7084e-07	8.0707e-07	271.99	77.922	60.745	18.313	8.248e-07	25.557	147.756	-44.981	-27.958	-140.831	-65.736	-29.536	-141.005	-133.585	-67.810	-2.865	-133.818	-127.781	-126.888	-119.556	-22.394	-119.970	-8191	255	
795.984	1	1	0	0	0.12905	0.079858	0.17476	0.07746	0.24567	0.24492	0.059944	0.25331	0.037913	0.16254	0.095897	0.075968	0.31711	0.053961	0.21946	0.10096	-3.0021	-2.9062	-3.5417	-3.3083	-3.2896	-3.6354	-3.0812	-3.3646	-3.5021	-2.9625	-3.6437	-3.4313	-3.0396	-3.6646	-3.0979	-3.25	-63.533	119.616	-59.131	89.521	-55.207	76.061	172.629	187.800	78.562	-99.755	66.961	-132.281	-126.557	-7.668	105.101	138.067	0.00032038	0.00040446	3.5813e-05	1053.6	1.9438e-06	3.578e-06	1148.1	217.78	1.6096e-06	4.0557e-06	275.76	78.445	61.318	18.284	3.4983e-06	25.512	8.9826e-05	7.7714e-05	2.094e-05	1033.1	8.5446e-07	8.3315e-07	1129.1	214.17	8.7481e-07	8.2685e-07	272.95	78.071	60.665	18.321	8.3785e-07	25.581	155.682	-16.066	-17.266	-140.944	-33.565	27.338	-141.165	-133.667	-61.143	0.565	-133.752	-127.406	-126.520	-119.394	27.699	-119.845	-8191	255	
796.080	1	1	0	0	0.030812	0.16751	0.080247	0.17329	0.22486	0.11875	0.16304	0.22553	0.26308	0.31523	0.13703	0.24177	0.1828	0.4412	0.13231	0.13869	-3.1396	-3.0083	-3.3646	-3.3396	-3.0354	-3.5875	-3.3375	-3.2167	-3.575	-2.8333	-3.5229	-3.2958	-2.9292	-3.6646	-3.1104	-3.3354	-106.012	40.571	-24.552	-116.039	25.773	-114.334	118.705	-133.545	206.340	-112.657	134.684	187.800	90.293	14.060	184.365	-32.304	0.00034403	0.00022189	2.3712e-05	1058.7	1.0199e-06	5.5795e-06	1138.9	217.51	2.3639e-06	3.8706e-06	275.69	78.601	61.522	18.33	3.0804e-06	25.666	8.9197e-05	7.6745e-05	2.1529e-05	1033	8.3766e-07	7.9049e-07	1126	214.34	8.3288e-07	7.9414e-07	272.46	78.029	60.573	18.325	7.7373e-07	25.649	150.569	-30.591	-72.729	-140.628	-59.218	5.936	-140.897	-133.572	-32.671	18.819	-133.620	-127.388	-127.400	-119.608	-8.474	-120.001	-8191	255	
796.175	1	1	0	0	0.078438	0.14499	0.11568	0.17231	0.21087	0.084785	0.10007	0.20638	0.1706	0.17927	0.2372	0.19963	0.13677	0.11507	0.056082	0.13309	-3.2687	-2.9917	-3.2	-3.4458	-2.9646	-3.5583	-3.2729	-3.075	-3.4917	-3.0292	-3.4271	-3.5583	-2.9542	-3.4833	-3.2771	-2.9229	9.752	-87.754	-53.298	100.083	20.855	201.240	83.367	144.379	73.564	112.042	-126.010	-70.696	-106.709	3.192	164.533	37.729	0.00035914	0.00019459	0.00011479	1053.2	2.2019e-06	3.0234e-06	1134.3	216.84	2.0267e-06	1.7776e-06	276.42	79.187	61.584	18.388	2.176e-06	25.34	8.9345e-05	7.325e-05	2.0141e-05	1033.2	8.6614e-07	7.833e-07	1123.9	214.4	8.5272e-07	8.2139e-07	272.4	78.128	60.771	18.333	8.0377e-07	25.548	150.373	-58.380	-27.229	-140.686	-90.722	-19.791	-140.622	-133.551	-61.511	27.081	-133.645	-127.188	-126.780	-119.025	34.681	-120.118	-8191	255	
796.271	1	1	0	0	0.10245	0.1845	0.13746	0.15424	0.10968	0.27802	0.14823	0.094101	0.042379	0.1309	0.15374	0.15508	0.085574	0.11888	0.014372	0.075345	-3.3063	-2.9375	-3.1396	-3.5938	-2.8833	-3.5312	-3.3542	-3.0208	-3.5458	-3.0896	-3.4646	-3.5542	-2.8917	-3.5146	-3.2938	-3.0875	106.691	95.317	83.875	-95.854	62.997	-52.947	-88.844	-129.252	-125.885	108.293	190.264	-124.408	187.542	187.675	-42.296	122.553	0.00035806	0.00028978	5.0611e-05	1055.9	2.2552e-06	3.0217e-06	1137	217.51	4.0795e-06	3.4318e-06	276.68	78.793	61.189	18.392	2.6589e-06	25.512	8.9412e-05	7.6065e-05	1.9976e-05	1034.2	8.6311e-07	7.862e-07	1126.1	214.27	8.3971e-07	7.9843e-07	272.61	78.042	60.623	18.321	8.2751e-07	25.571	143.392	-62.308	-38.801	-140.605	-8.460	-1.458	-140.474	-133.209	-45.307	26.990	-133.637	-127.231	-126.730	-119.098	31.094	-120.001	-8191	255	
796.367	1	1	0	0	0.17187	0.22341	0.28658	0.1865	0.16853	0.25529	0.11001	0.35903	0.06489	0.05469	0.20151	0.12255	0.2325	0.14023	0.073506	0.22947	-3.1188	-2.9646	-3.1875	-3.5167	-3.1083	-3.5208	-3.5896	-3.1146	-3.525	-3.1021	-3.1271	-3.6271	-3.0083	-3.5312	-3.475	-3.0292	-58.157	-87.016	151.013	78.616	-63.791	-145.813	3.244	191.226	44.879	-79.499	134.671	149.302	-19.015	172.168	111.001	-149.409	0.00039385	0.00038546	6.331e-05	1057.8	2.0684e-06	3.7199e-06	1145.7	217.74	2.6708e-06	1.6538e-06	276.16	78.655	61.532	18.52	2.0442e-06	25.666	8.7784e-05	6.9942e-05	1.9823e-05	1033.3	8.2329e-07	7.8564e-07	1127.7	214.22	8.2446e-07	7.6918e-07	272.99	77.933	60.819	18.347	8.2906e-07	25.665	150.767	-81.079	-51.352	-140.564	-68.308	-16.083	-140.851	-133.555	-69.490	-5.723	-133.796	-127.241	-127.151	-119.313	4.470	-120.074	-8191	255	
796.488	1	1	0	0	0.13313	0.064692	0.039611	0.23543	0.23179	0.043251	0.15301	0.10421	0.12182	0.081126	0.35214	0.34058	0.16038	0.12299	0.096451	0.12175	-3.3917	-3.1479	-3.2354	-3.6688	-2.9396	-3.4562	-3.6896	-2.9313	-3.6625	-3.2667	-3.0104	-3.6146	-3.0333	-3.3667	-3.5854	-2.9167	74.120	39.421	-101.894	185.600	74.896	168.119	183.263	136.031	-80.060	10.802	-143.545	-133.004	-75.354	-101.218	91.879	-57.250	0.00036609	0.00016011	3.2107e-05	1056.4	2.3038e-06	3.0102e-06	1147.3	216.82	2.3447e-06	3.0045e-06	275.95	78.606	61.145	18.346	3.8982e-06	25.499	9.0202e-05	6.9998e-05	2.0391e-05	1033.3	8.1756e-07	7.5787e-07	1127.6	214.23	8.2947e-07	7.6165e-07	271.89	78.177	60.591	18.324	7.9935e-07	25.597	143.247	-88.767	-42.229	-140.971	-58.320	-2.260	-141.033	-133.605	-80.947	-3.860	-133.873	-127.547	-126.948	-119.003	18.024	-120.395	-8191	255	
796.584	1	1	0	0	0.14355	0.14971	0.14069	0.14711	0.2189	0.089809	0.16045	0.14667	0.25033	0.16105	0.1997	0.11159	0.18834	0.1742	0.092576	0.17999	-3.2938	-3.1771	-2.8917	-3.7188	-2.9417	-3.225	-3.7938	-3.1292	-3.4521	-3.1917	-3.075	-3.7229	-3.1688	-3.2438	-3.6521	-2.9375	56.798	6.341	34.027	124.320	55.071	106.456	-106.826	130.272	89.637	-129.343	94.720	205.364	-48.686	-127.623	184.131	0.933	0.00035592	0.00032728	0.00010113	1059.2	2.7657e-06	3.7901e-06	1143.2	218.88	1.6667e-06	1.4439e-06	276.72	78.776	61.519	18.476	1.3332e-06	25.856	8.8907e-05	7.0028e-05	2.0827e-05	1033.3	8.0858e-07	8.0493e-07	1126.9	214.57	8.3046e-07	7.7787e-07	272.85	78.159	60.718	18.346	8.1766e-07	25.624	149.668	-57.949	-58.796	-140.679	-77.160	-32.163	-141.064	-133.487	-86.861	1.810	-133.859	-127.631	-127.199	-119.475	35.211	-120.156	-8191	255	
796.655	1	1	0	0	0.1012	0.11412	0.19235	0.25587	0.10586	0.15127	0.21377	0.31605	0.12504	0.099818	0.17773	0.1237	0.22687	0.13344	0.091307	0.24048	-3.1937	-3.4583	-3.1333	-3.8688	-3.2104	-3.1146	-3.7542	-3.1792	-3.4	-3.5333	-2.975	-3.5021	-3.3375	-3.0938	-3.5042	-3.1792	192.427	133.010	139.602	154.042	-56.103	-68.466	175.441	100.160	-128.633	41.487	23.740	20.800	-19.080	-72.786	-148.086	166.783	0.00038697	0.00028208	0.00010955	1056.7	3.9405e-06	2.5252e-06	1148.2	217.65	3.0239e-06	1.4532e-06	275.5	78.255	61.557	18.515	2.3257e-06	25.462	8.4952e-05	7.2971e-05	1.9974e-05	1032.4	7.9889e-07	7.7521e-07	1127.6	214.28	8.1862e-07	7.801e-07	272.37	78.038	60.785	18.336	8.2336e-07	25.572	147.685	-30.497	-85.729	-141.028	-28.267	7.101	-141.235	-133.470	-41.484	6.325	-134.299	-127.747	-127.023	-119.488	-3.738	-119.749	-8191	255	
796.752	1	1	0	0	0.086716	0.11927	0.13765	0.16194	0.16214	0.082254	0.33466	0.26452	0.062156	0.18795	0.029011	0.10541	0.24485	0.13368	0.24502	0.085771	-3.0271	-3.4042	-2.9458	-3.6417	-3.2229	-3.0854	-3.6292	-2.9958	-3.4	-3.6917	-3.0625	-3.6021	-3.4646	-3.1208	-3.6667	-3.1021	116.711	130.411	-139.884	201.447	93.386	88.072	156.618	105.856	12.688	86.198	19.954	23.833	167.628	-134.576	166.153	130.546	0.0003497	0.00020006	6.2814e-05	1055	2.9901e-06	2.3498e-06	1146.5	217.65	2.6542e-06	3.3537e-06	276.44	78.91	61.605	18.353	2.0869e-06	25.833	8.6241e-05	7.0606e-05	1.9912e-05	1033.8	7.9949e-07	7.9038e-07	1127.3	214.38	8.3713e-07	7.7085e-07	272.46	78.092	60.706	18.306	7.6743e-07	25.65	151.815	-51.053	-31.315	-141.028	-63.493	-8.968	-141.215	-133.557	-48.407	6.165	-133.945	-127.596	-127.117	-119.729	-29.043	-119.959	-8191	255	
796.872	1	1	0	0	0.12966	0.16504	0.054225	0.091823	0.1419	0.19097	0.13962	0.11447	0.080721	0.20719	0.16754	0.22766	0.21996	0.029208	0.096884	0.10329	-2.7854	-3.5625	-2.9688	-3.6167	-3.3417	-2.7938	-4.0479	-3.2771	-3.2271	-3.7708	-2.9542	-3.7604	-3.4521	-3.0229	-3.6542	-3.4771	29.053	118.832	10.552	-71.063	73.179	55.322	71.478	107.707	-0.768	-150.176	151.071	-105.033	168.174	92.800	-105.501	181.830	0.00038511	0.00016726	5.2673e-05	1061.4	1.6631e-06	4.641e-06	1144.3	218.97	2.655e-06	2.5672e-06	279.8	79.509	61.56	18.482	2.4285e-06	25.69	8.6556e-05	7.1712e-05	2.0118e-05	1033.8	8.4125e-07	8.0515e-07	1127.9	214.6	8.2914e-07	7.6154e-07	273.1	78.289	60.803	18.304	8.072e-07	25.56	148.523	-62.924	-30.534	-141.307	-106.504	10.773	-141.529	-133.869	-88.942	11.885	-134.324	-127.668	-127.099	-119.644	51.450	-120.656	-8191	255	
796.968	1	1	0	0	0.1652	0.17385	0.10805	0.31522	0.17989	0.093943	0.22463	0.1132	0.16855	0.12728	0.34934	0.16673	0.09	0.2942	0.065884	0.12662	-2.7479	-3.4562	-3.2104	-3.5917	-3.5375	-2.9208	-3.8375	-3.3646	-3.1375	-3.7	-3.0708	-3.3812	-3.45	-3.0708	-3.6063	-3.4313	-9.978	-129.088	102.943	123.507	4.095	-74.415	130.679	-100.473	78.213	56.517	180.609	180.296	167.831	107.693	151.041	162.507	0.00036982	0.00033007	8.4035e-05	1061.2	1.6142e-06	3.379e-06	1150.1	218.85	2.6168e-06	3.1196e-06	276.05	79.612	61.66	18.423	2.9353e-06	25.713	9.0073e-05	7.1327e-05	2.0106e-05	1033	8.5342e-07	7.8302e-07	1126.9	214.74	8.4897e-07	7.9174e-07	272.15	78.3	60.806	18.364	7.6876e-07	25.638	147.203	-33.715	-63.657	-141.088	-50.793	-7.644	-141.464	-133.462	-65.411	15.559	-134.170	-127.937	-127.278	-119.382	8.254	-120.033	-8191	255	
797.064	1	1	0	0	0.1457	0.043461	0.32534	0.29949	0.071277	0.23513	0.0064606	0.11418	0.1274	0.030086	0.24587	0.19542	0.23319	0.25128	0.17943	0.27093	-2.7313	-3.5812	-3.0333	-3.4583	-3.4729	-2.9354	-3.7375	-3.3125	-3.125	-3.7875	-3.1271	-3.3125	-3.5146	-2.9313	-3.4938	-3.3854	53.721	150.903	-101.941	-132.302	70.241	105.588	-130.732	-26.659	-21.691	178.806	139.538	115.860	-83.698	168.208	-130.327	95.016	0.00037989	0.00036481	6.2066e-05	1058.5	1.9834e-06	2.5533e-06	1147.3	218.81	2.363e-06	3.451e-06	276.9	78.742	61.565	18.567	3.8704e-06	25.582	8.7812e-05	7.1033e-05	2.0012e-05	1033.8	8.7016e-07	7.9556e-07	1126.2	214.67	8.5211e-07	7.5797e-07	272.69	78.028	60.9	18.377	7.9891e-07	25.591	147.845	-71.340	-28.574	-141.105	-17.623	17.795	-141.235	-133.658	-49.995	-13.548	-134.160	-127.608	-126.987	-119.753	-0.246	-119.659	-8191	255	
797.161	1	1	0	0	0.25964	0.16486	0.092193	0.12769	0.34129	0.11066	0.077447	0.19086	0.27141	0.13858	0.02355	0.079625	0.43078	0.13183	0.016246	0.087769	-2.7333	-3.6708	-3.2125	-3.3438	-3.5542	-3.0812	-3.4958	-3.5938	-2.8812	-3.6708	-3.0583	-3.2104	-3.6375	-2.8396	-3.2458	-3.5375	153.924	20.976	-135.469	-116.676	-85.512	128.089	168.755	166.259	164.262	15.975	175.642	122.470	199.899	-114.279	59.635	-75.136	0.00039227	0.00026959	6.4722e-05	1056.2	2.0224e-06	9.2646e-07	1147.8	218.39	2.4827e-06	1.838e-06	277.25	78.494	61.681	18.378	3.8687e-06	25.813	9.0725e-05	6.9536e-05	1.986e-05	1031.8	8.2555e-07	7.882e-07	1127.6	214.33	8.6103e-07	7.5775e-07	272.14	77.832	60.688	18.322	7.7833e-07	25.61	144.606	-54.992	-38.119	-141.154	-54.630	-31.855	-141.175	-133.670	-30.572	-13.732	-134.050	-128.227	-127.120	-119.579	-12.720	-120.219	-8191	255	
797.257	1	1	0	0	0.17392	0.11235	0.22061	0.21984	0.28931	0.18829	0.31545	0.26344	0.1766	0.066869	0.13309	0.13934	0.21857	0.087448	0.2329	0.18596	-2.5687	-3.8104	-3.2396	-3.3063	-3.5729	-2.9479	-3.4417	-3.6042	-2.8667	-3.5438	-3.3896	-3.1021	-3.8167	-3.025	-3.3771	-3.6396	-71.106	-45.011	-125.052	188.810	-96.390	-1.467	176.738	59.064	-115.439	-20.160	-149.357	197.834	-130.276	-112.230	-147.888	70.061	0.00041125	0.00029101	8.5357e-05	1061.4	3.689e-06	1.2925e-06	1149.3	217.63	2.5832e-06	3.2762e-06	276.39	79.435	61.838	18.427	4.03e-06	25.56	8.9045e-05	6.7633e-05	1.9865e-05	1033.6	8.1701e-07	7.9467e-07	1128.2	214.41	8.8726e-07	7.7597e-07	273.22	78.123	60.94	18.344	8.035e-07	25.528	142.462	-65.627	-53.009	-141.130	-44.458	30.601	-141.150	-133.538	-39.019	4.263	-133.920	-127.978	-127.220	-119.639	28.355	-120.218	-8191	255	
797.351	1	1	0	0	0.13814	0.052538	0.2134	0.18765	0.061687	0.16435	0.27041	0.10212	0.19452	0.16796	0.097039	0.068521	0.14334	0.26731	0.11073	0.096959	-2.6792	-3.4771	-3.2167	-3.075	-3.6833	-3.0187	-3.25	-3.6417	-3.0417	-3.4646	-3.4104	-3.0646	-3.5958	-3.2292	-3.1333	-3.6083	41.299	157.019	193.637	168.510	-62.737	159.683	115.471	-50.161	-49.162	-48.529	162.160	95.613	4.728	94.640	201.151	-125.398	0.00034604	0.00027946	9.4385e-05	1061.8	4.0751e-06	1.987e-06	1148.7	218.91	3.3532e-06	3.7711e-06	278.95	78.913	61.829	18.405	2.0052e-06	25.384	9.1501e-05	7.2869e-05	2.0342e-05	1032.9	8.2703e-07	7.9807e-07	1129.2	214.53	8.9216e-07	7.962e-07	272.8	77.954	60.848	18.346	7.9061e-07	25.534	153.269	-67.134	-9.456	-141.290	-23.565	-1.221	-141.329	-134.103	-37.468	8.513	-134.255	-128.262	-127.141	-119.310	14.522	-120.179	-8191	255	
797.449	1	1	0	0	0.04599	0.23681	0.24832	0.14646	0.21228	0.086384	0.1824	0.014035	0.16674	0.3976	0.080985	0.099937	0.12372	0.2496	0.11781	0.13593	-2.6667	-3.2938	-3.3729	-3.1167	-3.6542	-3.1625	-3.3063	-3.6958	-3.1083	-3.4167	-3.6125	-2.9437	-3.6813	-3.3604	-3.1292	-3.5083	177.525	30.281	107.692	-61.475	-113.889	96.926	9.874	29.166	115.914	105.647	-102.522	124.544	56.230	-103.699	76.055	203.325	0.00039552	0.00031204	5.4841e-05	1059.6	2.4527e-06	6.1132e-07	1146.7	217.81	2.5522e-06	2.2152e-06	277.24	78.557	61.819	18.402	3.0781e-06	25.697	9.162e-05	7.2646e-05	2.0417e-05	1034.5	8.1486e-07	7.7566e-07	1127.4	214.41	8.0842e-07	8.045e-07	272.37	77.898	60.939	18.368	7.7578e-07	25.555	151.528	-64.238	-35.630	-141.476	-76.561	4.500	-141.594	-133.679	-33.612	-13.357	-133.938	-127.900	-127.321	-119.624	7.083	-120.767	-8191	255	
797.568	1	1	0	0	0.22051	0.22489	0.10126	0.2108	0.1059	0.1284	0.34394	0.13499	0.11739	0.12857	0.14344	0.17746	0.038821	0.07512	0.066891	0.1409	-2.4542	-3.3917	-3.3979	-2.9458	-3.6354	-3.3521	-3.1312	-3.7729	-2.9708	-3.3229	-3.5354	-3.0458	-3.4896	-3.2771	-3.0062	-3.6354	-85.205	-53.593	131.038	-118.158	-142.103	157.893	76.247	27.515	-101.329	61.426	-132.722	-150.280	80.713	-60.591	0.101	147.298	0.00032667	0.0001571	7.0038e-05	1058	3.2366e-06	1.9983e-06	1149.6	218.66	4.2776e-06	2.2839e-06	277.31	78.862	61.659	18.329	2.2202e-06	25.674	8.5423e-05	6.9399e-05	1.9109e-05	1032.7	8.077e-07	7.3824e-07	1127.4	214.17	8.1581e-07	8.1364e-07	273.07	78.112	60.744	18.362	8.1462e-07	25.652	151.226	-45.675	-81.376	-141.094	-89.960	46.003	-141.557	-133.963	-53.884	-31.377	-134.046	-127.873	-127.026	-119.071	62.899	-120.001	-8191	255	
797.664	1	1	0	0	0.098177	0.191	0.2251	0.090455	0.063387	0.096861	0.26822	0.09295	0.15145	0.24837	0.058655	0.11135	0.17058	0.1085	0.12057	0.08665	-2.7875	-3.1958	-3.5896	-3.0312	-3.5	-3.475	-3.2896	-3.8021	-3.0979	-3.125	-3.7583	-3.0646	-3.425	-3.3333	-3.05	-3.6125	-60.691	-8.815	62.486	-87.124	141.853	50.947	151.626	-96.349	113.801	-104.204	23.096	-140.007	-109.637	116.229	-127.586	94.236	0.00036683	0.00034557	0.00014249	1058.6	2.9394e-06	3.1227e-06	1149.2	217.71	3.5559e-06	1.7935e-06	277.97	79.179	62.162	18.538	3.1535e-06	25.591	8.9474e-05	7.4376e-05	2.0183e-05	1035.2	8.4874e-07	7.674e-07	1125.9	214.61	8.2886e-07	7.9681e-07	272.93	77.969	60.93	18.366	8.5428e-07	25.622	147.530	-43.309	-46.021	-141.151	-18.179	-10.461	-141.415	-133.914	-30.841	-5.094	-133.992	-128.158	-127.456	-119.518	16.933	-120.342	-8191	255	
797.760	1	1	0	0	0.137	0.072496	0.35166	0.20225	0.14182	0.09278	0.19261	0.088437	0.18753	0.10241	0.20651	0.15206	0.14096	0.23184	0.26879	0.1698	-2.8521	-3.0583	-3.6188	-3.0208	-3.2979	-3.5521	-3.2896	-3.6021	-3.0979	-3.2792	-3.7	-3.0958	-3.2833	-3.4938	-2.8688	-3.6604	-144.983	170.018	33.561	108.676	184.798	28.461	163.542	-132.926	-110.292	118.054	185.941	-119.970	165.105	179.974	-91.274	38.821	0.00034743	0.00023455	0.0001108	1056.8	6.2848e-06	1.2131e-06	1155.4	217.34	3.0693e-06	2.371e-06	277.06	78.552	61.821	18.601	4.9788e-06	25.785	8.8855e-05	7.7308e-05	2.0337e-05	1030.7	8.7683e-07	8.0945e-07	1129.5	214.58	8.5018e-07	8.1682e-07	272.71	77.945	60.862	18.423	8.4516e-07	25.579	151.786	-60.443	-24.771	-141.509	-51.737	130.917	-141.275	-133.675	-38.664	-18.470	-134.223	-127.972	-127.389	-119.027	11.521	-120.461	-8191	255	
797.881	1	1	0	0	0.11283	0.025718	0.28215	0.2487	0.066946	0.02868	0.16526	0.13199	0.16469	0.16401	0.12071	0.052503	0.050488	0.31624	0.19732	0.040049	-2.8333	-3.0479	-3.4875	-3.0229	-3.1979	-3.525	-3.0125	-3.6229	-3.2958	-3.0729	-3.5708	-3.1562	-3.2375	-3.5187	-2.9792	-3.6104	-137.052	76.035	-94.715	164.874	28.057	118.866	179.472	150.537	40.251	96.867	193.689	-113.830	-56.751	108.609	-76.338	160.559	0.00034816	0.00014712	3.3164e-05	1065	1.5806e-06	1.2739e-06	1147.1	218.49	2.3752e-06	1.0591e-06	277.77	79.171	61.931	18.494	4.3106e-06	25.67	9.1325e-05	7.7359e-05	2.0771e-05	1034.5	9.0183e-07	8.4369e-07	1127.5	214.73	8.3371e-07	8.5711e-07	273.14	78.115	60.913	18.366	8.6872e-07	25.644	149.503	-65.822	-76.267	-141.083	-13.195	0.229	-141.485	-133.986	-101.503	-4.570	-134.206	-127.504	-127.664	-119.900	30.489	-120.167	-8191	255	
797.953	1	1	0	0	0.11553	0.091521	0.16688	0.048112	0.38218	0.14444	0.25262	0.1515	0.23643	0.18115	0.14307	0.175	0.02123	0.14813	0.18596	0.074689	-3.1521	-2.9146	-3.5958	-3.2583	-3.2062	-3.6833	-3.1604	-3.3146	-3.4146	-2.9229	-3.5771	-3.2	-3.1792	-3.6771	-2.9542	-3.4188	52.792	39.917	-143.034	207.822	22.875	-29.983	180.075	-117.531	-92.595	86.750	-23.113	145.852	-20.935	146.283	-125.210	46.857	0.00034676	0.0003662	9.3987e-05	1061.1	4.4524e-06	2.4026e-06	1153	219.28	3.7932e-06	2.5617e-06	277.5	79.232	61.866	18.562	3.1807e-06	25.764	9.2758e-05	7.7237e-05	2.1074e-05	1035.7	9.0211e-07	8.4129e-07	1129.7	215.1	9.067e-07	8.551e-07	273.04	78.325	60.757	18.381	8.5605e-07	25.596	149.829	-38.375	-18.023	-141.156	-32.712	6.341	-141.609	-133.865	-59.761	-16.268	-134.072	-127.663	-127.196	-119.183	5.965	-120.710	-8191	255	
798.049	1	1	0	0	0.10212	0.17796	0.1276	0.19245	0.17343	0.029801	0.18299	0.10374	0.015251	0.11075	0.28395	0.39849	0.18601	0.2325	0.055699	0.11459	-3.2333	-3.0583	-3.6188	-3.2375	-2.8979	-3.6271	-3.3375	-3.3271	-3.5354	-3.1042	-3.6688	-3.2792	-3.0042	-3.7292	-3.1	-3.3521	-10.555	83.841	78.251	-83.765	167.571	78.494	164.059	143.464	170.834	185.142	-141.819	186.010	0.121	-44.754	179.825	-25.581	0.00039146	0.00022844	7.21e-05	1063.5	3.635e-06	2.7442e-06	1152.1	219.14	2.8872e-06	2.5276e-06	278.57	78.974	62.252	18.437	2.2738e-06	25.541	9.1392e-05	7.8303e-05	2.087e-05	1035.6	9.2634e-07	8.4291e-07	1130.2	214.98	8.9927e-07	8.395e-07	273.29	78.277	61.064	18.399	8.7354e-07	25.599	151.210	-46.619	-16.914	-141.205	-36.336	20.580	-141.369	-134.020	-46.131	19.374	-134.016	-128.245	-127.189	-119.359	-28.843	-120.383	-8191	255	
798.169	1	1	0	0	0.086482	0.10071	0.075248	0.2576	0.072684	0.2763	0.26059	0.14949	0.11019	0.079632	0.29619	0.097456	0.14487	0.15958	0.13064	0.099087	-3.4604	-3.0812	-3.5125	-3.5	-3.1542	-3.5312	-3.2167	-3.1896	-3.6958	-3.0312	-3.3833	-3.4729	-3.0417	-3.6583	-3.175	-3.15	150.639	-9.728	183.539	193.687	66.061	59.460	177.264	-46.699	103.019	66.506	206.728	69.070	0.157	-92.764	-87.966	127.918	0.00039457	0.00021085	2.9696e-05	1063	6.0724e-06	2.9301e-06	1155.1	218.41	2.4498e-06	2.1395e-06	278.7	79.431	62.364	18.603	2.7593e-06	25.771	9.4367e-05	8.015e-05	2.2002e-05	1037.4	9.1257e-07	8.5757e-07	1130.5	214.64	8.6737e-07	8.4752e-07	273.78	78.463	61.077	18.373	8.6811e-07	25.678	151.827	-49.379	-35.643	-141.345	-42.603	30.484	-141.418	-134.180	-71.716	37.950	-134.100	-127.741	-127.377	-119.812	36.395	-120.606	-8191	255	
798.264	1	1	0	0	0.066535	0.062135	0.22309	0.44136	0.10885	0.23229	0.23979	0.056663	0.068218	0.062902	0.090402	0.1077	0.1441	0.076767	0.16536	0.16009	-3.25	-2.9208	-3.3312	-3.4375	-2.8896	-3.6312	-3.4042	-3.1583	-3.5646	-3.1104	-3.4167	-3.6375	-3.1688	-3.5583	-3.2833	-3.0604	89.928	-92.306	-28.976	99.381	195.831	-109.871	112.250	33.286	142.292	96.943	187.473	193.906	-96.043	-53.374	-2.621	-47.860	0.00038214	0.0002876	8.0034e-05	1066	3.0612e-06	2.817e-06	1155.6	218.89	3.1386e-06	2.2402e-06	279.61	79.313	61.67	18.489	2.4516e-06	25.626	9.3058e-05	7.9713e-05	2.1383e-05	1038.1	9.0729e-07	8.5467e-07	1130.7	215.18	8.8472e-07	8.7193e-07	273.46	78.168	60.956	18.395	8.5467e-07	25.604	150.342	-73.669	-51.093	-140.954	-4.143	-14.108	-141.342	-133.816	-64.063	-1.095	-134.178	-127.760	-127.291	-119.551	60.574	-119.915	-8191	255	
798.360	1	1	0	0	0.0035148	0.25144	0.196	0.1148	0.27348	0.27642	0.10681	0.25598	0.22473	0.17879	0.12809	0.16617	0.16681	0.1093	0.22277	0.29382	-3.2229	-3.0875	-3.3021	-3.5354	-2.9729	-3.4396	-3.6917	-3.0187	-3.6708	-3.2687	-3.2792	-3.5229	-2.8542	-3.4562	-3.425	-2.9208	-105.143	30.891	138.127	53.597	-71.960	-84.312	-140.998	176.501	192.415	-90.377	194.182	171.318	-120.431	159.494	148.383	99.013	0.00036122	0.00030102	3.9246e-05	1069.8	1.7959e-06	3.6412e-06	1155.2	219.96	5.141e-06	4.3651e-06	277.02	79.118	62.132	18.484	3.2929e-06	25.582	9.0421e-05	7.8795e-05	2.143e-05	1039.3	8.7776e-07	8.4659e-07	1129.8	215.19	8.8147e-07	8.1604e-07	272.75	78.358	61.056	18.421	8.4836e-07	25.613	145.285	-47.565	-61.406	-141.142	-7.066	5.679	-141.290	-133.878	-42.177	14.412	-133.907	-128.064	-127.606	-119.721	-7.602	-120.480	-8191	255	
798.456	1	1	0	0	0.19813	0.21207	0.12647	0.084083	0.047677	0.095335	0.11526	0.089029	0.094317	0.053808	0.139	0.28626	0.17381	0.21997	0.058027	0.22564	-3.0292	-2.9938	-3.0792	-3.6937	-2.8896	-3.325	-3.5812	-3.075	-3.5146	-3.2479	-3.2229	-3.7146	-3.0917	-3.4042	-3.5042	-3.0146	-36.315	-35.731	178.288	22.527	41.471	138.550	75.030	154.642	74.380	113.105	-145.386	125.679	155.390	204.433	-6.662	-85.182	0.00037535	0.00026007	9.6366e-05	1065.6	4.0372e-06	2.0479e-06	1155.6	219.86	3.1236e-06	5.1032e-07	278.42	78.956	62.275	18.53	5.2525e-08	25.732	8.8455e-05	7.7334e-05	2.1063e-05	1035.7	8.7132e-07	8.1926e-07	1131.5	214.85	8.7161e-07	8.088e-07	273.08	78.044	61.084	18.393	8.357e-07	25.664	152.499	-80.159	-31.012	-141.334	-56.523	23.764	-141.597	-134.381	-44.108	-63.147	-134.408	-128.050	-127.878	-119.920	170.128	-120.584	-8191	255	
798.552	1	1	0	0	0.079125	0.13597	0.21463	0.25874	0.057483	0.18228	0.33016	0.070789	0.27893	0.10468	0.08511	0.28804	0.15847	0.10194	0.069546	0.19809	-3.4062	-3.2604	-3.1292	-3.7375	-3.0375	-3.2958	-3.6458	-2.8604	-3.5187	-3.3646	-3.1958	-3.6813	-3.1021	-3.275	-3.6125	-2.9583	84.800	-56.453	-139.942	132.377	3.169	40.368	109.099	-16.359	131.473	-121.035	-117.143	126.682	-83.500	56.141	-59.046	170.598	0.00033087	0.00028792	3.4708e-05	1063	1.7556e-06	4.0158e-06	1154.5	219.72	2.5655e-06	2.0701e-06	279.15	79.267	62.187	18.518	1.8336e-06	25.515	9.1692e-05	7.5446e-05	2.1266e-05	1036.4	8.6609e-07	7.9344e-07	1131.9	214.97	8.7475e-07	8.1827e-07	273.54	78.184	60.961	18.401	8.0875e-07	25.624	140.022	-59.270	-21.571	-141.414	-31.187	1.674	-141.469	-133.574	-46.851	7.327	-134.339	-127.830	-127.721	-120.358	-9.435	-120.249	-8191	255	
798.648	1	1	0	0	0.30972	0.26036	0.13643	0.28298	0.093267	0.088747	0.28276	0.11758	0.10702	0.10405	0.26399	0.23487	0.15078	0.045312	0.13094	0.18941	-3.3208	-3.2625	-2.9604	-3.7333	-3.1625	-3.2792	-3.75	-3.1979	-3.3688	-3.3125	-3.0771	-3.675	-3.2604	-3.25	-3.6958	-2.8292	-41.202	137.155	-24.064	142.627	123.885	-109.854	126.533	29.947	26.136	49.579	-149.614	73.494	-130.352	-4.139	45.025	129.988	0.00035387	0.00029636	8.3786e-05	1059.3	3.287e-06	2.4478e-06	1152.1	219.49	1.9826e-06	3.1144e-06	277.67	79.427	61.775	18.451	3.7409e-06	25.611	8.6989e-05	7.4112e-05	2.1019e-05	1035.7	8.5099e-07	8.0616e-07	1130.2	214.99	8.6467e-07	8.0985e-07	273.26	78.335	60.718	18.381	8.3542e-07	25.586	151.992	-58.347	-33.053	-141.036	-50.592	-16.932	-141.234	-133.528	-12.812	-8.497	-134.090	-127.694	-127.041	-119.654	-24.974	-120.234	-8191	255	
798.744	1	1	0	0	0.17188	0.042941	0.14306	0.15864	0.11642	0.087818	0.10613	0.16196	0.012432	0.12058	0.048801	0.13692	0.10005	0.26303	0.33823	0.17008	-2.8979	-3.4083	-2.9688	-3.6271	-3.1354	-3.0979	-3.8812	-2.9771	-3.3583	-3.4688	-2.9333	-3.4604	-3.2083	-3.0333	-3.6188	-3.0354	-110.402	-44.368	47.892	151.243	-34.179	-85.550	-119.353	164.076	47.891	90.109	10.947	142.128	-126.997	-118.681	16.716	167.909	0.00035997	0.00021487	3.4269e-05	1060.8	4.667e-07	2.863e-06	1150.7	217.42	3.7457e-06	3.6541e-06	275.57	79.697	61.867	18.493	3.4982e-06	25.581	9.0216e-05	7.5345e-05	2.0455e-05	1036	8.4113e-07	8.2869e-07	1128.7	214.22	8.4429e-07	8.3003e-07	272.78	78.419	60.818	18.34	8.0593e-07	25.643	139.472	-55.139	55.121	-140.986	-119.813	-47.658	-140.882	-133.772	-20.814	84.274	-133.772	-127.642	-127.266	-119.388	42.029	-120.219	-8191	255	
798.841	1	1	0	0	0.19156	0.10096	0.22987	0.049427	0.098204	0.15447	0.15145	0.23734	0.022754	0.042002	0.29803	0.069882	0.068658	0.12873	0.13796	0.1307	-2.9604	-3.3479	-2.9417	-3.6896	-3.1604	-3.1042	-3.8021	-3.0771	-3.2021	-3.5979	-2.8479	-3.7333	-3.2896	-3.1	-3.7292	-3.1188	40.135	-142.975	22.008	153.452	9.551	-119.681	-136.458	113.541	156.619	-22.698	117.750	-14.443	-18.339	173.678	45.197	174.728	0.00036521	0.00023745	5.748e-05	1055.3	3.1754e-06	1.5659e-06	1153.6	218.48	3.4002e-06	3.3511e-06	277.8	79.103	61.965	18.351	4.0298e-06	25.699	8.9916e-05	7.3661e-05	2.1106e-05	1033.8	8.5986e-07	8.0008e-07	1130.2	214.73	8.5294e-07	8.3543e-07	273.23	78.185	60.949	18.385	8.0931e-07	25.656	148.830	-73.520	-14.536	-140.967	-93.730	-19.093	-141.050	-133.518	-49.843	37.619	-133.598	-127.338	-126.815	-119.455	-36.530	-120.086	-8191	255	
798.961	1	1	0	0	0.052339	0.06046	0.068333	0.079551	0.25739	0.22672	0.034696	0.1868	0.031152	0.083855	0.14219	0.070685	0.24847	0.13956	0.40884	0.13641	-2.85	-3.4938	-2.8583	-3.5479	-3.3271	-3.0729	-3.7792	-3.1208	-3.1292	-3.6042	-3.1813	-3.375	-3.4271	-3.1229	-3.6625	-3.2958	119.972	194.488	-52.349	70.815	-6.811	69.436	-106.054	87.330	-94.728	-137.560	127.965	-148.366	-25.670	103.674	65.150	-107.734	0.00038334	0.00024922	6.8592e-05	1060	5.5752e-06	3.4674e-07	1148.7	219.31	2.0631e-06	3.168e-06	277.93	79.257	61.409	18.405	2.5145e-06	25.449	9.0778e-05	7.3838e-05	2.0517e-05	1035.5	8.4097e-07	8.5947e-07	1129	215.37	8.7629e-07	8.0066e-07	273.45	78.418	60.786	18.402	8.3061e-07	25.661	154.525	-79.437	-43.267	-141.190	-53.348	74.034	-140.930	-133.609	-25.114	32.474	-133.807	-127.684	-126.575	-119.192	-43.679	-119.819	-8191	255	
799.057	1	1	0	0	0.25107	0.11264	0.11588	0.052084	0.04788	0.19541	0.19542	0.14684	0.19207	0.1668	0.020069	0.12124	0.18513	0.10313	0.04922	0.15162	-2.6833	-3.55	-2.975	-3.3563	-3.5062	-2.9896	-3.6583	-3.1833	-3.075	-3.6729	-3.1646	-3.3667	-3.6521	-2.9646	-3.6458	-3.3667	10.920	-98.058	23.859	39.475	122.749	26.312	36.172	161.356	-50.482	-135.700	89.048	207.993	14.499	185.597	160.768	75.503	0.0003621	0.00033271	7.9715e-05	1057.1	2.7755e-06	2.5254e-06	1149	218.56	3.7929e-06	2.4836e-06	276.43	79.191	61.568	18.352	2.6252e-06	25.409	9.2277e-05	7.7527e-05	2.173e-05	1034.6	8.4819e-07	8.1447e-07	1130.2	214.88	8.8323e-07	7.9091e-07	273.14	78.214	60.732	18.341	8.1683e-07	25.635	147.071	-54.077	-59.607	-140.867	-79.335	-34.396	-141.011	-133.517	-53.669	-5.638	-133.624	-128.098	-126.821	-119.260	6.648	-120.015	-8191	255	
799.152	1	1	0	0	0.061925	0.15251	0.084363	0.15229	0.20436	0.073344	0.36741	0.21262	0.15565	0.15602	0.15621	0.22332	0.16876	0.055245	0.11847	0.063178	-2.6708	-3.625	-3.0208	-3.4125	-3.6625	-2.8667	-3.5979	-3.3708	-3.0312	-3.75	-2.9833	-3.2667	-3.5438	-3.0583	-3.325	-3.3708	-12.839	-52.607	7.000	149.689	-79.764	-108.799	144.454	118.095	63.719	4.457	110.855	-82.310	37.214	135.113	98.455	92.460	0.00032594	0.00027632	8.9478e-05	1056.9	3.2276e-06	3.1168e-06	1145.9	219.28	2.639e-06	2.2525e-06	278.47	79.155	61.916	18.358	3.8623e-06	25.579	9.0506e-05	7.4315e-05	2.1102e-05	1033.9	8.4824e-07	8.1603e-07	1128.3	214.81	8.5679e-07	8.0105e-07	273.41	78.153	60.959	18.337	8.3398e-07	25.604	148.417	-52.124	-50.580	-140.863	-58.870	3.792	-141.139	-133.663	-46.046	-34.785	-133.789	-128.131	-126.798	-119.497	-9.635	-120.182	-8191	255	
799.250	1	1	0	0	0.18082	0.19796	0.22937	0.35652	0.15959	0.057824	0.13781	0.23106	0.34802	0.062141	0.14304	0.24882	0.14064	0.14545	0.17367	0.15334	-2.6833	-3.4375	-3.1625	-3.2896	-3.6688	-2.9792	-3.5417	-3.4583	-2.9521	-3.6667	-3.2438	-3.2583	-3.8187	-3.0458	-3.2833	-3.6083	-54.240	-109.330	139.950	-142.458	132.275	-82.184	185.812	70.387	-135.175	-12.185	146.818	125.071	36.619	208.009	-96.954	67.595	0.00034165	0.00020516	4.4837e-05	1058.8	3.2248e-06	5.8702e-07	1148.2	218.45	2.8153e-06	2.3876e-06	278.48	79.236	61.734	18.398	2.1612e-06	25.668	9.2958e-05	7.2514e-05	2.0484e-05	1033.5	8.3618e-07	8.2489e-07	1129.7	214.72	8.5398e-07	7.7335e-07	273.53	78.189	60.808	18.338	8.0682e-07	25.607	146.200	-121.380	-58.251	-141.101	-129.650	-27.047	-141.331	-133.486	-87.434	-3.442	-133.381	-127.354	-126.920	-119.678	3.853	-120.063	-8191	255	
799.344	1	1	0	0	0.19886	0.19201	0.22881	0.2433	0.274	0.17907	0.063012	0.13864	0.068321	0.097015	0.12879	0.16667	0.050389	0.10985	0.065598	0.015276	-2.6229	-3.4437	-3.2729	-3.0521	-3.5417	-2.9875	-3.4688	-3.6375	-2.8896	-3.6208	-3.3917	-3.1854	-3.5167	-3.1333	-3.2771	-3.5958	115.735	4.550	98.949	148.738	25.113	-81.875	112.491	-52.215	-62.618	207.347	-52.946	171.252	-9.971	14.919	-89.063	-31.688	0.00033948	0.00019947	2.9943e-05	1058.3	3.2541e-06	2.018e-06	1140.5	218.81	2.3716e-06	1.3312e-06	278.5	79.073	61.411	18.534	3.5143e-06	25.525	8.7489e-05	7.191e-05	2.0212e-05	1034.1	8.2456e-07	8.2294e-07	1127.2	215.06	8.3547e-07	8.0345e-07	272.95	78.106	60.885	18.375	8.1711e-07	25.609	148.436	-9.415	-42.304	-140.989	-68.074	-32.943	-141.163	-133.423	-97.298	20.026	-133.497	-127.679	-126.926	-119.551	36.800	-120.327	-8191	255	
799.442	1	1	0	0	0.119	0.26719	0.11558	0.24125	0.13019	0.1392	0.11648	0.13382	0.13581	0.091469	0.20939	0.1922	0.11726	0.088891	0.14047	0.087922	-2.6917	-3.4229	-3.3292	-3.125	-3.5333	-3.1937	-3.4062	-3.5917	-2.9083	-3.4042	-3.4583	-3.2021	-3.7896	-3.1813	-3.0917	-3.6375	76.133	157.939	-132.284	69.838	93.024	5.467	50.471	124.441	-21.693	-147.186	137.942	-105.671	-119.627	152.009	197.700	-51.541	0.00037515	0.00027747	8.5519e-05	1056.3	1.3018e-06	2.3605e-06	1149.7	218.74	1.5844e-06	1.8962e-06	278.08	79.135	61.585	18.502	3.8419e-06	25.656	8.6879e-05	7.5878e-05	2.0521e-05	1033	8.3789e-07	8.0616e-07	1129.1	214.95	8.5894e-07	7.8238e-07	273.23	78.21	60.869	18.398	8.1821e-07	25.579	150.743	-49.513	-47.076	-141.049	-29.037	-4.509	-141.361	-133.758	-97.388	15.018	-133.533	-127.833	-127.050	-119.481	-36.896	-120.288	-8191	255	
799.561	1	1	0	0	0.14053	0.056935	0.30803	0.21467	0.063345	0.16419	0.063028	0.19343	0.13146	0.17729	0.26788	0.11133	0.1387	0.076199	0.13467	0.21857	-2.5312	-3.525	-3.4917	-3.1333	-3.45	-3.1667	-3.3229	-3.7	-3.0563	-3.2604	-3.5583	-2.9083	-3.5938	-3.2542	-3.1354	-3.6604	25.048	-149.808	68.973	122.516	166.987	176.853	172.101	163.802	-42.911	105.812	200.810	152.725	-127.535	-85.834	-24.966	119.753	0.00036068	0.00029101	3.201e-05	1063.2	3.9491e-06	4.5974e-06	1146.7	218.71	2.8051e-06	2.674e-06	278.24	79.1	61.709	18.562	3.2873e-06	25.519	8.9074e-05	7.5507e-05	2.0883e-05	1035.6	8.5755e-07	8.293e-07	1125.6	215.07	8.5938e-07	7.9264e-07	273.54	78.052	60.954	18.376	8.3094e-07	25.621	142.917	-29.849	-58.424	-141.051	-42.061	28.388	-141.453	-133.503	-39.199	9.743	-133.963	-127.993	-127.087	-119.447	-9.793	-120.196	-8191	255	
799.657	1	1	0	0	0.22163	0.15732	0.067268	0.24379	0.2692	0.15712	0.15712	0.048246	0.095368	0.14617	0.085613	0.32236	0.15661	0.27597	0.084547	0.076454	-2.5667	-3.3667	-3.5312	-3	-3.5625	-3.2208	-3.1479	-3.6979	-3.1875	-3.2125	-3.6292	-2.8438	-3.4625	-3.3583	-3.0604	-3.6833	-123.366	-0.771	164.131	164.759	8.652	-42.780	119.430	-89.181	-3.136	-95.071	156.297	127.305	-117.148	-137.551	-41.320	-21.193	0.00039553	0.00027837	0.00011774	1060.3	3.2866e-06	2.9435e-06	1141.7	218.73	8.7922e-07	1.6442e-06	277.69	79.278	62.016	18.329	4.0972e-06	25.413	9.0678e-05	7.22e-05	2.0209e-05	1035.5	8.3711e-07	8.2802e-07	1124.9	214.71	8.7073e-07	8.0161e-07	273.18	78.255	60.862	18.316	8.383e-07	25.614	151.929	-63.105	-45.684	-141.228	-65.283	-4.773	-141.325	-134.029	-54.123	-29.183	-134.157	-127.907	-127.298	-119.685	-3.927	-120.425	-8191	255	
799.753	1	1	0	0	0.2714	0.15691	0.21953	0.1828	0.053503	0.050732	0.46281	0.30264	0.087024	0.16345	0.23472	0.272	0.13748	0.1867	0.16015	0.02922	-2.75	-3.1583	-3.6479	-3.125	-3.35	-3.4083	-3.1021	-3.6667	-3.2417	-3.0917	-3.7375	-2.8563	-3.3208	-3.4667	-3.1063	-3.5396	38.950	161.969	200.946	-120.940	-92.293	25.629	204.643	-142.124	98.876	111.740	100.731	-142.449	145.595	75.121	72.904	-48.681	0.00035918	0.00012445	0.00015819	1062.9	1.5491e-06	3.1124e-07	1148.2	218.09	9.1731e-07	2.3464e-06	278.59	79.357	61.602	18.512	3.2102e-06	25.816	8.7993e-05	7.5492e-05	2.0174e-05	1035.5	8.8531e-07	8.1781e-07	1127.9	214.58	8.5503e-07	8.3766e-07	273.8	78.22	60.803	18.345	8.5827e-07	25.654	144.055	-11.272	-40.353	-141.278	-90.179	-55.039	-141.355	-133.789	-46.701	14.004	-134.306	-128.241	-127.911	-119.639	25.724	-120.538	-8191	255	
799.849	1	1	0	0	0.14426	0.18083	0.21157	0.076351	0.10317	0.16143	0.13462	0.13361	0.16847	0.14467	0.11956	0.047076	0.19872	0.15206	0.12541	0.25372	-2.7875	-3.1104	-3.525	-3.1792	-3.4313	-3.425	-3.0104	-3.5542	-3.1688	-3.0229	-3.6229	-3.0729	-3.1958	-3.5521	-3.0979	-3.4562	-43.440	-10.995	132.474	65.625	-25.671	11.614	-150.635	74.885	150.930	-123.601	115.895	185.762	56.918	22.604	8.566	147.743	0.00040408	0.000319	5.7984e-05	1062.6	3.9516e-06	1.7495e-06	1152.2	217.14	3.0907e-06	1.68e-06	279.5	78.975	61.475	18.487	2.1154e-06	25.673	9.1378e-05	7.5614e-05	2.0598e-05	1035.7	8.7551e-07	8.1313e-07	1128.2	214.7	8.3321e-07	8.2178e-07	273.42	78.164	60.828	18.411	8.259e-07	25.66	150.683	-84.466	-66.142	-141.192	-13.658	-41.456	-141.217	-133.703	-85.623	-16.131	-134.093	-127.861	-127.230	-119.614	35.545	-120.505	-8191	255	
799.945	1	1	0	0	0.20631	0.083109	0.17179	0.29413	0.12705	0.062255	0.29706	0.12683	0.22027	0.17558	0.10066	0.10011	0.10561	0.10015	0.10981	0.046187	-3.0042	-3.0521	-3.4313	-3.1854	-3.1458	-3.4354	-3.0229	-3.5375	-3.3979	-3.0938	-3.9437	-3.1458	-3.4083	-3.5458	-2.9271	-3.4167	-66.581	17.097	156.525	-141.343	73.964	108.867	-37.532	-122.312	-104.214	-63.867	-58.473	32.421	-151.218	197.179	-46.077	4.539	0.0003791	0.00031691	3.2102e-05	1059.9	3.9563e-06	2.4003e-06	1149.9	218.83	1.347e-06	2.0833e-06	277.6	79.228	61.815	18.571	2.8995e-06	25.541	8.8955e-05	7.4767e-05	2.0215e-05	1034	8.5551e-07	8.187e-07	1127.9	215.15	8.7877e-07	7.8534e-07	272.77	78.223	60.862	18.377	8.7597e-07	25.636	141.165	-37.931	-49.313	-140.959	-77.376	24.097	-141.365	-133.831	-37.276	2.899	-133.839	-127.246	-127.340	-119.583	-7.703	-120.583	-8191	255	
800.042	1	1	0	0	0.060289	0.12914	0.14044	0.1587	0.034688	0.1176	0.21515	0.22241	0.026056	0.18871	0.037804	0.38208	0.14862	0.38174	0.10618	0.17693	-3.1396	-2.9417	-3.5708	-3.15	-2.9854	-3.5479	-3.2562	-3.4104	-3.3771	-2.8375	-3.4938	-3.1958	-3.0396	-3.5958	-3.1	-3.2625	-99.350	128.873	119.940	84.508	157.119	66.499	121.187	176.644	-123.996	146.189	114.690	90.736	175.738	-138.240	-147.635	-124.916	0.00035118	0.00028408	9.3711e-05	1064.5	1.1691e-06	1.7479e-06	1152.2	219.82	3.0524e-06	1.6895e-06	278.64	78.876	62.049	18.545	2.2012e-06	25.572	8.9969e-05	7.5969e-05	2.0449e-05	1035.8	8.7077e-07	8.2885e-07	1129.3	214.87	8.688e-07	7.8656e-07	272.93	78.086	61.004	18.375	8.3946e-07	25.565	149.956	-68.981	-28.100	-141.037	4.337	78.967	-141.478	-133.783	-46.289	-31.180	-134.190	-127.577	-127.642	-119.502	28.343	-120.326	-8191	255	
800.138	1	1	0	0	0.14097	0.3579	0.12109	0.23375	0.14214	0.015399	0.025943	0.23266	0.1242	0.11905	0.21697	0.17964	0.19063	0.19169	0.085704	0.067492	-3.1625	-2.7375	-3.6125	-3.3	-3.0854	-3.5	-3.125	-3.3167	-3.5875	-2.9562	-3.4396	-3.4292	-2.8729	-3.4813	-2.9896	-3.1271	-119.023	-47.400	159.482	119.112	71.160	2.743	204.116	32.332	126.521	6.788	201.972	95.079	-30.976	48.400	52.525	-144.461	0.00034716	0.00034191	7.4034e-05	1060	2.2097e-06	2.5011e-06	1145.2	217.87	4.3502e-06	2.6156e-06	277.33	79.26	61.323	18.368	3.3596e-06	25.742	9.0468e-05	7.3803e-05	2.1157e-05	1033.5	8.2858e-07	7.9802e-07	1129.8	214.31	8.542e-07	8.2691e-07	272.93	78.203	60.727	18.312	8.347e-07	25.619	146.329	-48.383	-50.052	-140.991	-46.789	-35.858	-141.316	-133.475	-65.423	-23.203	-133.780	-127.898	-127.285	-119.627	33.582	-120.159	-8191	255	
800.257	1	1	0	0	0.040311	0.18911	0.11928	0.10719	0.078646	0.15206	0.17268	0.12782	0.20012	0.021647	0.15431	0.22304	0.14111	0.15994	0.21023	0.20382	-3.3333	-3.0625	-3.55	-3.4667	-3.0792	-3.6	-3.5062	-3.3042	-3.5938	-3.1625	-3.4271	-3.5812	-2.9729	-3.4167	-3.2812	-3.1354	-61.131	1.796	-112.669	-116.693	-19.716	14.410	157.292	-34.971	-14.575	113.301	2.080	199.567	49.382	198.001	33.371	37.536	0.00037576	0.00032336	8.692e-05	1058.6	1.5396e-06	1.8234e-06	1145	218.47	3.6935e-06	2.0477e-06	275.88	79.098	61.933	18.537	3.6942e-06	25.613	8.9645e-05	7.6436e-05	2.0352e-05	1033.9	8.7143e-07	8.2216e-07	1127.5	214.5	8.1278e-07	8.278e-07	272.33	78.134	60.804	18.409	8.5063e-07	25.597	149.589	-63.928	-54.230	-141.027	-51.212	21.892	-141.204	-133.756	-46.786	-4.469	-133.892	-128.197	-127.130	-119.243	-11.502	-120.104	-8191	255	
800.353	1	1	0	0	0.23665	0.12549	0.0079932	0.17054	0.14169	0.17787	0.10538	0.15305	0.059644	0.17105	0.15665	0.15131	0.20542	0.17415	0.099437	0.11501	-3.4813	-2.8771	-3.3187	-3.6958	-3.1	-3.6125	-3.3187	-3.1729	-3.5875	-3.0229	-3.325	-3.5854	-3.0667	-3.4875	-3.2771	-3.0021	-55.389	31.718	55.729	133.963	76.148	135.304	129.063	-60.089	129.085	-141.536	96.431	86.100	160.497	-131.199	-21.110	114.021	0.00036231	0.00021123	8.4686e-05	1059.1	1.7636e-06	1.3153e-06	1144.1	219.06	3.2521e-06	2.4383e-06	279.36	79.31	61.623	18.494	2.9608e-06	25.707	8.9707e-05	7.5969e-05	2.0336e-05	1033.1	8.6978e-07	8.2517e-07	1126.9	215.09	8.4682e-07	8.2685e-07	273.38	78.255	60.833	18.422	8.3448e-07	25.64	147.246	-26.160	-46.028	-141.087	-149.056	-0.299	-141.137	-133.544	-64.220	-16.760	-133.905	-128.098	-127.200	-119.498	-18.633	-120.639	-8191	255	
800.424	1	1	0	0	0.28666	0.10201	0.15692	0.14961	0.18678	0.11211	0.22372	0.24106	0.15005	0.094679	0.13218	0.050657	0.069251	0.11401	0.21516	0.14884	-3.2292	-3.0292	-3.2625	-3.6229	-2.8771	-3.3271	-3.2646	-3.0271	-3.6688	-3.2062	-3.2292	-3.5604	-3.1	-3.4375	-3.4854	-3.0333	23.776	-85.416	53.451	-101.613	-49.006	16.272	178.033	175.372	187.482	-136.409	25.226	-141.402	120.803	52.541	147.944	70.762	0.00036937	0.0002174	9.5636e-05	1061.6	1.8933e-06	4.154e-06	1146.3	218.71	2.5972e-06	1.8088e-06	276.94	78.729	62.085	18.589	3.6824e-06	25.529	9.0359e-05	7.6273e-05	2.1864e-05	1034.6	8.7374e-07	8.2473e-07	1128.8	214.88	8.336e-07	8.0746e-07	273.19	78.142	60.972	18.41	8.3835e-07	25.585	151.222	-38.011	-10.676	-141.090	-44.438	9.219	-141.282	-133.490	-13.996	33.993	-133.700	-127.838	-127.137	-119.535	15.185	-120.460	-8191	255	
800.522	1	1	0	0	0.21309	0.20257	0.081464	0.15198	0.15722	0.056735	0.094449	0.37244	0.16012	0.1054	0.085107	0.032214	0.11392	0.14205	0.10557	0.38961	-3.3187	-3.1792	-3.0542	-3.6312	-3.0354	-3.3625	-3.8063	-3.0104	-3.4958	-3.1521	-3.3563	-3.8625	-3.0667	-3.4688	-3.7375	-3.0375	-42.360	-49.293	-100.696	164.407	-97.992	-137.462	205.797	-74.186	11.232	118.050	-29.880	101.834	96.677	131.108	-83.048	153.740	0.00040831	0.0001623	1.7721e-05	1059	3.4645e-06	2.2205e-06	1149.9	218.31	2.9489e-06	2.8808e-06	278.16	79.299	62.096	18.603	2.4642e-06	25.402	8.885e-05	7.5685e-05	2.0972e-05	1034	8.8944e-07	8.1073e-07	1130.6	214.7	8.4583e-07	8.0172e-07	272.77	78.157	61	18.385	8.155e-07	25.565	149.700	-75.330	-49.768	-140.989	-89.795	-3.691	-141.247	-133.716	-35.768	-15.230	-134.000	-127.602	-127.187	-119.586	-29.149	-120.212	-8191	255	
800.641	1	1	0	0	0.16079	0.13189	0.27064	0.28511	0.042968	0.12723	0.15363	0.31175	0.17458	0.11991	0.22311	0.18042	0.090516	0.15716	0.18582	0.3096	-3.3375	-3.1771	-2.775	-3.5938	-2.9271	-3.3	-3.7604	-2.9792	-3.4458	-3.4542	-3.1604	-3.575	-3.2062	-3.2938	-3.4771	-3.0167	-110.484	-0.969	118.998	204.634	182.923	73.720	104.438	119.051	81.394	18.027	-100.637	96.007	58.418	-120.899	-60.976	158.027	0.00036332	0.00024677	8.988e-05	1056.4	3.2433e-06	1.8908e-06	1147.6	217.2	1.35e-06	1.5334e-06	277.24	79.336	61.209	18.444	3.0042e-06	25.696	8.9454e-05	7.503e-05	2.0709e-05	1033.7	8.9451e-07	8.3393e-07	1128.6	214.42	8.634e-07	8.2646e-07	273.24	78.295	60.6	18.374	8.1866e-07	25.593	151.598	-61.444	-63.986	-140.757	-52.375	6.148	-141.096	-133.430	-64.462	-26.217	-134.008	-127.876	-127.337	-119.304	6.100	-119.796	-8191	255	
800.737	1	1	0	0	0.31479	0.087277	0.10936	0.2076	0.16262	0.12166	0.14797	0.17029	0.10455	0.047836	0.16846	0.21235	0.16648	0.1059	0.12538	0.17346	-3.0104	-3.3063	-2.9354	-3.7313	-2.9979	-3.2646	-3.6521	-3.0271	-3.5521	-3.3146	-3.1333	-3.6375	-3.0521	-3.1208	-3.6271	-2.9688	-71.721	131.002	78.158	186.705	-96.293	91.268	158.773	156.203	155.934	52.657	153.333	158.938	-116.020	-15.245	-67.453	177.936	0.0003719	0.00041739	4.8136e-05	1060.9	3.615e-06	4.0802e-06	1152.9	218.16	2.5533e-06	2.345e-06	277.63	78.664	62.003	18.506	9.8065e-07	25.579	9.1639e-05	7.6547e-05	2.1202e-05	1035.1	8.6642e-07	8.4536e-07	1131.4	214.59	8.5784e-07	7.7926e-07	272.4	78.064	60.824	18.375	7.9841e-07	25.525	153.716	-42.319	-5.488	-141.122	-76.308	31.378	-141.074	-133.633	-37.457	17.776	-134.046	-127.521	-126.961	-119.480	24.359	-120.357	-8191	255	
800.834	1	1	0	0	0.033088	0.077122	0.34413	0.13199	0.023681	0.33579	0.1161	0.31784	0.21137	0.15739	0.18981	0.12476	0.16172	0.10989	0.14256	0.17868	-2.8854	-3.4729	-3.0479	-3.5854	-3.1958	-3.1271	-3.8146	-2.9667	-3.2083	-3.6583	-3.0729	-3.5667	-3.3708	-3.0667	-3.5542	-2.9667	6.383	200.130	89.875	141.701	26.724	-68.378	177.598	134.840	17.686	50.891	116.917	117.401	59.227	87.259	117.692	102.236	0.00032876	0.0002068	4.5254e-05	1062.1	2.9248e-06	2.9951e-06	1148.2	218.02	2.2275e-06	2.3703e-06	276.3	78.586	61.676	18.316	1.0447e-06	25.543	8.9878e-05	7.0221e-05	1.9371e-05	1035.6	8.012e-07	7.5876e-07	1128.9	214.51	7.7333e-07	7.2097e-07	273.1	77.908	60.71	18.235	7.4226e-07	25.59	152.210	-83.219	-23.687	-141.230	-15.941	25.472	-141.309	-133.817	-68.620	13.792	-133.843	-127.635	-126.702	-119.454	18.887	-119.914	-8191	255	
800.930	1	1	0	0	0.22218	0.37169	0.081965	0.08985	0.11858	0.16618	0.081355	0.33627	0.22778	0.15445	0.16724	0.28882	0.079337	0.058565	0.21471	0.13578	-3.0354	-3.4708	-2.9604	-3.5542	-3.225	-3.0271	-3.7604	-2.9896	-3.4208	-3.3792	-3.0354	-3.6083	-3.5312	-3.1875	-3.5	-3.2562	-130.169	-30.366	70.651	125.078	113.017	-3.756	159.392	109.137	183.220	117.760	184.838	-121.938	-130.609	70.990	-30.458	111.797	0.00035697	0.00015135	3.5393e-05	1055.2	2.6537e-06	2.824e-06	1147.7	217.79	2.1973e-06	1.2665e-06	276.97	78.935	61.308	18.445	1.3223e-06	25.49	8.339e-05	6.6406e-05	1.8955e-05	1034.9	7.6909e-07	7.2692e-07	1128.7	214.44	7.941e-07	7.2298e-07	272.35	78.162	60.707	18.401	7.4314e-07	25.591	155.447	-12.757	-61.803	-140.967	-15.624	-0.411	-141.107	-133.808	-57.226	14.923	-133.589	-127.527	-127.126	-119.204	-10.122	-120.106	-8191	255	
801.050	1	1	0	0	0.053185	0.2233	0.14123	0.059332	0.10121	0.1212	0.048054	0.25535	0.13337	0.21736	0.20656	0.1737	0.15023	0.23023	0.25485	0.10867	-3.0062	-3.5729	-2.9354	-3.525	-3.4542	-3.0375	-3.8604	-3.3146	-3.1208	-3.6833	-3.1771	-3.4062	-3.4208	-2.9521	-3.5958	-3.425	174.425	20.833	-26.813	169.771	45.146	24.775	78.800	143.680	176.557	109.000	-128.805	-33.903	140.385	-104.863	-71.193	-145.476	0.00033892	0.00027761	5.4209e-05	1058.3	3.0225e-06	2.7208e-06	1142.3	217.13	2.7973e-06	3.3823e-06	278.41	78.683	61.772	18.256	3.7718e-06	25.552	8.3614e-05	6.4701e-05	2.0137e-05	1033.9	7.8468e-07	7.3673e-07	1128.8	214.42	7.7124e-07	7.3256e-07	273.17	77.964	60.945	18.288	7.9083e-07	25.642	148.748	-57.338	-87.440	-141.127	-48.140	-28.656	-140.928	-133.372	-30.115	-22.083	-133.412	-127.657	-127.383	-119.645	-31.401	-120.364	-8191	255	
801.122	1	1	0	0	0.21659	0.29309	0.13041	0.2698	0.12596	0.11341	0.16736	0.036267	0.11031	0.21639	0.16816	0.25084	0.19774	0.047577	0.094708	0.031946	-2.7417	-3.6688	-3.0583	-3.4771	-3.3146	-3.025	-3.825	-3.5708	-3.1188	-3.7625	-3.0875	-3.2646	-3.6104	-2.9062	-3.6104	-3.1937	-59.764	70.506	177.121	205.716	112.446	100.476	154.364	91.594	75.806	-123.362	95.740	184.056	139.194	-85.481	65.750	16.049	0.0003848	0.00035169	9.8265e-05	1067.3	2.0148e-06	2.8843e-07	1150.2	218.31	1.5331e-06	2.1252e-06	279.72	79.19	61.693	18.397	3.2857e-06	25.365	8.9026e-05	7.1246e-05	2.033e-05	1037.7	8.1034e-07	8.138e-07	1128.9	214.85	8.5839e-07	8.0395e-07	273.55	78.289	60.841	18.357	8.0129e-07	25.522	144.620	-44.912	-52.805	-141.132	-95.160	-16.345	-141.626	-133.677	-60.784	37.186	-133.860	-128.339	-127.245	-119.389	-1.760	-120.322	-8191	255	
#DATA ENDS
