BOXY.EXE: ISS Imagent and Oximeter Data Acquisition Program Version 0.80
Ascii Record File

#ACQ INFORMATION
2  Detector Channels 
16  External MUX Channels 
1  Auxiliary Channels 
5000  Waveform (CCF) Frequency (Hz)
1  Waveforms Skipped 
30  Waveforms Averaged 
1  Cycles Averaged 
16  Acquisitions per Waveform 
10.0806  Updata Rate (Hz) 

#FILE INFORMATION
TRUE -- External MUX Channel results are PARSED.
FALSE -- AC DC and Phase are NOT grouped.
TRUE -- Companion Program Settings File CREATED.
FALSE -- AC data not excluded
FALSE -- DC data not excluded
FALSE -- Phase data not excluded
FALSE -- Auxillary Chn. data not excluded
Tab delimiters

#CALIBRATION STATE
TRUE -- Waveform Calibration Values APPLIED.


#AUX CALIBRATION VALUES
Val Type	aux-1	

Term	1.0000e+00	
Factor	0.0000e+00	


#WF CALIBRATION VALUES
A = Detector Channel
Val Type	A-AC1	A-AC2	A-AC3	A-AC4	A-AC5	A-AC6	A-AC7	A-AC8	A-AC9	A-AC10	A-AC11	A-AC12	A-AC13	A-AC14	A-AC15	A-AC16	A-DC1	A-DC2	A-DC3	A-DC4	A-DC5	A-DC6	A-DC7	A-DC8	A-DC9	A-DC10	A-DC11	A-DC12	A-DC13	A-DC14	A-DC15	A-DC16	A-Ph1	A-Ph2	A-Ph3	A-Ph4	A-Ph5	A-Ph6	A-Ph7	A-Ph8	A-Ph9	A-Ph10	A-Ph11	A-Ph12	A-Ph13	A-Ph14	A-Ph15	A-Ph16	

Term	0.00000e+00	0.00000e+00	0.00000e+00	0.00000e+00	0.00000e+00	0.00000e+00	0.00000e+00	0.00000e+00	0.00000e+00	0.00000e+00	0.00000e+00	0.00000e+00	0.00000e+00	0.00000e+00	0.00000e+00	0.00000e+00	0.00000e+00	0.00000e+00	0.00000e+00	0.00000e+00	0.00000e+00	0.00000e+00	0.00000e+00	0.00000e+00	0.00000e+00	0.00000e+00	0.00000e+00	0.00000e+00	0.00000e+00	0.00000e+00	0.00000e+00	0.00000e+00	0.00000e+00	0.00000e+00	0.00000e+00	0.00000e+00	0.00000e+00	0.00000e+00	0.00000e+00	0.00000e+00	0.00000e+00	0.00000e+00	0.00000e+00	0.00000e+00	0.00000e+00	0.00000e+00	0.00000e+00	0.00000e+00	
Factor	1.00000e+00	1.00000e+00	1.00000e+00	1.00000e+00	1.00000e+00	1.00000e+00	1.00000e+00	1.00000e+00	1.00000e+00	1.00000e+00	1.00000e+00	1.00000e+00	1.00000e+00	1.00000e+00	1.00000e+00	1.00000e+00	1.00000e+00	1.00000e+00	1.00000e+00	1.00000e+00	1.00000e+00	1.00000e+00	1.00000e+00	1.00000e+00	1.00000e+00	1.00000e+00	1.00000e+00	1.00000e+00	1.00000e+00	1.00000e+00	1.00000e+00	1.00000e+00	X	X	X	X	X	X	X	X	X	X	X	X	X	X	X	X	

B = Detector Channel
Val Type	B-AC1	B-AC2	B-AC3	B-AC4	B-AC5	B-AC6	B-AC7	B-AC8	B-AC9	B-AC10	B-AC11	B-AC12	B-AC13	B-AC14	B-AC15	B-AC16	B-DC1	B-DC2	B-DC3	B-DC4	B-DC5	B-DC6	B-DC7	B-DC8	B-DC9	B-DC10	B-DC11	B-DC12	B-DC13	B-DC14	B-DC15	B-DC16	B-Ph1	B-Ph2	B-Ph3	B-Ph4	B-Ph5	B-Ph6	B-Ph7	B-Ph8	B-Ph9	B-Ph10	B-Ph11	B-Ph12	B-Ph13	B-Ph14	B-Ph15	B-Ph16	

Term	0.00000e+00	0.00000e+00	0.00000e+00	0.00000e+00	0.00000e+00	0.00000e+00	0.00000e+00	0.00000e+00	0.00000e+00	0.00000e+00	0.00000e+00	0.00000e+00	0.00000e+00	0.00000e+00	0.00000e+00	0.00000e+00	0.00000e+00	0.00000e+00	0.00000e+00	0.00000e+00	0.00000e+00	0.00000e+00	0.00000e+00	0.00000e+00	0.00000e+00	0.00000e+00	0.00000e+00	0.00000e+00	0.00000e+00	0.00000e+00	0.00000e+00	0.00000e+00	-1.85345e+02	-1.23737e+02	-1.11857e+02	-1.80493e+02	-1.02631e+02	-7.18909e+01	-1.55190e+02	-1.62015e+02	-8.30239e+01	-6.30682e+01	-1.71086e+02	-1.70392e+02	-1.81065e+02	-1.76742e+02	-5.60175e+01	-1.49283e+02	
Factor	3.45794e-05	1.28973e-04	3.64895e-05	1.78598e-01	1.50782e-06	1.48164e-06	1.55936e-01	4.98493e-02	1.25560e-06	1.27048e-06	8.53734e-02	2.92799e-02	2.65120e-02	9.74353e-03	1.48999e-06	1.28900e-02	2.28479e-06	2.43523e-06	6.78434e-07	9.15091e-02	2.64387e-08	2.67660e-08	7.53430e-02	2.56481e-02	2.64425e-08	2.67481e-08	4.24034e-02	1.45225e-02	1.36176e-02	5.01221e-03	2.65546e-08	6.42646e-03	X	X	X	X	X	X	X	X	X	X	X	X	X	X	X	X	



#DISTANCE SETTINGS
A = Detector Channel
A-1	A-2	A-3	A-4	A-5	A-6	A-7	A-8	A-9	A-10	A-11	A-12	A-13	A-14	A-15	A-16	

2.5000e+00	3.0000e+00	2.5000e+00	3.0000e+00	2.0000e+00	3.0000e+00	1.5000e+00	3.0000e+00	3.0000e+00	3.0000e+00	3.0000e+00	3.0000e+00	3.0000e+00	3.0000e+00	1.5000e+00	3.0000e+00	

B = Detector Channel
B-1	B-2	B-3	B-4	B-5	B-6	B-7	B-8	B-9	B-10	B-11	B-12	B-13	B-14	B-15	B-16	

1.0000e+01	1.0000e+01	1.0000e+01	1.4400e+00	1.0000e+01	1.0000e+01	1.5100e+00	1.9400e+00	1.0000e+01	1.0000e+01	1.9900e+00	2.4900e+00	2.4100e+00	2.9000e+00	1.0000e+01	2.9800e+00	




#DATA BEGINS
time	group	step	mark	flag	A-AC1	A-AC2	A-AC3	A-AC4	A-AC5	A-AC6	A-AC7	A-AC8	A-AC9	A-AC10	A-AC11	A-AC12	A-AC13	A-AC14	A-AC15	A-AC16	A-DC1	A-DC2	A-DC3	A-DC4	A-DC5	A-DC6	A-DC7	A-DC8	A-DC9	A-DC10	A-DC11	A-DC12	A-DC13	A-DC14	A-DC15	A-DC16	A-Ph1	A-Ph2	A-Ph3	A-Ph4	A-Ph5	A-Ph6	A-Ph7	A-Ph8	A-Ph9	A-Ph10	A-Ph11	A-Ph12	A-Ph13	A-Ph14	A-Ph15	A-Ph16	B-AC1	B-AC2	B-AC3	B-AC4	B-AC5	B-AC6	B-AC7	B-AC8	B-AC9	B-AC10	B-AC11	B-AC12	B-AC13	B-AC14	B-AC15	B-AC16	B-DC1	B-DC2	B-DC3	B-DC4	B-DC5	B-DC6	B-DC7	B-DC8	B-DC9	B-DC10	B-DC11	B-DC12	B-DC13	B-DC14	B-DC15	B-DC16	B-Ph1	B-Ph2	B-Ph3	B-Ph4	B-Ph5	B-Ph6	B-Ph7	B-Ph8	B-Ph9	B-Ph10	B-Ph11	B-Ph12	B-Ph13	B-Ph14	B-Ph15	B-Ph16	aux-1	digaux	

767.796	1	1	0	768	0.11928	0.37115	0.19796	0.091969	0.24924	0.20642	0.27989	0.072547	0.21706	0.19811	0.19714	0.27986	0.12396	0.28186	0.19924	0.24646	-3.0021	-3.5833	-3.1104	-3.8396	-3.3917	-3.2667	-3.8625	-3.4271	-3.3042	-3.6417	-3.2458	-3.5729	-3.5062	-2.9896	-3.6063	-3.2062	-64.437	86.712	27.866	-113.714	187.694	-96.590	119.431	158.197	-26.193	68.289	120.094	199.362	-104.336	-88.812	122.204	130.998	0.00087648	0.00042228	0.00020692	1364.1	4.3923e-06	2.6764e-06	1355.4	367.05	6.3134e-06	1.207e-06	417.21	140.27	121.9	41.795	2.0733e-06	51.61	0.00052595	0.00051537	0.00014572	1378.4	5.617e-06	5.7128e-06	1377.1	373.42	5.6361e-06	5.6306e-06	425.48	143.07	124.33	42.961	5.7155e-06	53.067	146.482	-69.985	-46.269	-144.576	-139.266	-34.846	-145.194	-140.564	-41.041	64.037	-140.636	-136.929	-136.098	-130.880	-43.930	-131.608	-8191	255	
767.892	1	1	0	0	0.11705	0.080491	0.1999	0.10337	0.13162	0.31901	0.21814	0.13083	0.17817	0.23633	0.20106	0.31561	0.18528	0.10562	0.34239	0.21288	-3.0208	-3.4542	-3.0354	-3.8896	-3.3167	-3.0938	-3.8083	-3.4167	-3.2875	-3.4958	-3.125	-3.5625	-3.4917	-3.0458	-3.6729	-3.3104	169.111	-86.014	164.153	145.181	17.253	28.710	138.287	149.943	-112.411	154.687	129.025	-148.231	126.106	-103.010	-21.694	100.706	0.00089168	0.00029266	0.00013075	1359	4.3026e-06	4.8386e-06	1360.7	367.38	9.2924e-06	1.9347e-06	416.71	139.91	122.01	41.799	2.8871e-06	51.567	0.00052786	0.00052218	0.00014818	1379.4	5.6737e-06	5.801e-06	1378.9	373.62	5.809e-06	5.825e-06	426.1	142.99	124.55	42.99	5.8695e-06	53.166	147.980	-97.410	-81.644	-144.414	-97.688	-55.242	-144.877	-140.075	-82.357	-13.773	-140.582	-136.557	-135.826	-130.660	-49.624	-131.539	-8191	255	
767.989	1	1	0	0	0.21676	0.084138	0.1104	0.16046	0.17941	0.22712	0.28423	0.23826	0.21232	0.076967	0.13172	0.29075	0.17412	0.22864	0.1143	0.091546	-2.9708	-3.5479	-2.9188	-3.7021	-3.6437	-3.2167	-3.9417	-3.5729	-3.2896	-3.6854	-3.2771	-3.6521	-3.7313	-3.0479	-3.4562	-3.5208	185.673	-30.471	-54.479	176.272	-47.141	-33.677	174.975	113.229	-62.866	174.205	-65.827	82.437	-156.160	-62.799	-40.877	85.361	0.00081468	0.00084013	0.00014692	1359.1	1.3796e-06	5.7433e-07	1356.3	367.23	7.7265e-06	2.8922e-06	416.15	140.48	121.85	41.762	5.7288e-06	51.469	0.00055033	0.00053823	0.00015148	1378	5.9122e-06	5.9598e-06	1377.3	374.76	5.9674e-06	6.0096e-06	426.51	143.3	124.47	42.975	5.9228e-06	53.142	142.991	-32.932	-112.783	-144.325	80.520	47.691	-144.606	-139.792	-53.893	11.676	-140.660	-136.759	-135.660	-130.941	-12.212	-131.509	-8191	255	
768.085	1	1	0	0	0.15807	0.17345	0.11423	0.099964	0.095098	0.081169	0.2038	0.077595	0.19487	0.061966	0.039903	0.10076	0.13481	0.16385	0.064707	0.13286	-2.8958	-3.75	-3.1625	-3.625	-3.6667	-3.1063	-3.7417	-3.6	-3.1937	-3.7771	-3.2313	-3.4583	-3.725	-3.1312	-3.5271	-3.4854	191.560	7.930	-51.888	111.792	37.936	-73.090	145.102	62.486	-84.755	59.342	2.274	175.601	-2.411	-63.657	-29.919	45.839	0.00085921	0.00036901	6.9724e-05	1363.4	9.6736e-06	7.7533e-06	1356.7	367.85	5.6328e-06	5.2298e-06	417.27	139.71	121.7	42.014	4.138e-06	51.524	0.0005554	0.00054555	0.00015056	1378.4	6.0012e-06	6.008e-06	1378.4	374.79	5.9716e-06	5.9348e-06	426.64	142.86	124.3	43.051	5.9008e-06	53.104	143.825	-40.854	-87.886	-144.070	-92.544	-4.394	-144.649	-139.809	-42.066	37.689	-139.856	-136.386	-135.608	-130.513	6.263	-131.666	-8191	255	
768.181	1	1	0	0	0.097996	0.16697	0.29047	0.18085	0.2112	0.1922	0.33085	0.30423	0.16264	0.31904	0.26451	0.1698	0.070248	0.2132	0.10101	0.25713	-2.7104	-3.7083	-3.1458	-3.4188	-3.4396	-3.1188	-3.8229	-3.7	-3.0292	-3.7542	-3.3667	-3.3792	-3.7438	-3.0333	-3.6146	-3.6562	-21.884	-134.084	-17.632	105.276	110.227	163.326	89.561	180.682	-157.054	-31.734	-82.247	99.706	165.616	158.445	-63.096	42.777	0.00083639	0.0004297	0.00010473	1359.8	1.6914e-06	4.0523e-06	1358.9	369.03	3.835e-06	5.1308e-06	417.82	140.54	121.99	41.787	6.792e-06	51.241	0.00055003	0.00054001	0.00015008	1378.6	5.9742e-06	5.8753e-06	1377	374.31	6.0139e-06	5.9034e-06	426.84	143.14	124.46	42.903	5.8643e-06	53.063	139.456	-76.581	-25.383	-144.501	-69.247	-36.144	-144.486	-139.750	-55.152	34.360	-139.973	-136.495	-135.567	-130.573	-7.542	-131.275	-8191	255	
768.277	1	1	0	0	0.16543	0.1399	0.10195	0.16828	0.30122	0.13368	0.20798	0.15869	0.23287	0.048843	0.38157	0.11873	0.096134	0.18548	0.11196	0.21516	-2.7333	-3.7604	-3.2396	-3.4333	-3.7188	-3.1562	-3.6625	-3.8083	-3.0625	-3.7021	-3.5667	-3.3083	-3.8563	-3.0729	-3.3583	-3.6146	126.991	-129.190	54.688	165.819	39.195	146.501	119.250	154.305	33.977	-84.555	137.183	175.627	121.268	158.800	115.706	-144.265	0.00096401	0.00056102	0.00017794	1359.6	7.901e-06	5.5585e-06	1355.3	368.1	4.4436e-06	5.097e-06	418.37	140.43	122.01	41.652	9.3908e-06	51.442	0.00056258	0.00053684	0.0001491	1377.5	5.9554e-06	5.924e-06	1378.2	374.47	5.9966e-06	5.9674e-06	426.51	143.08	124.69	42.947	5.9699e-06	53.134	148.111	-92.097	-67.944	-143.994	-40.852	-29.576	-144.561	-139.747	-67.977	8.069	-140.502	-137.169	-136.843	-131.816	-11.430	-132.458	-8191	255	
768.398	1	1	0	0	0.19067	0.2234	0.036773	0.04489	0.05274	0.21818	0.24176	0.23429	0.1394	0.14957	0.20952	0.082202	0.25075	0.19959	0.015774	0.08551	-2.525	-3.4708	-3.3146	-3.2062	-3.7208	-3.1271	-3.5083	-3.7583	-2.8354	-3.7	-3.6	-3.175	-3.6646	-3.3021	-3.2354	-3.6771	-85.990	-57.016	156.935	102.832	-48.400	-61.941	181.241	176.246	-93.936	135.862	162.546	-88.656	179.992	-86.673	-111.151	118.683	0.00072515	0.00052189	0.00011252	1360.9	7.4635e-06	4.5677e-06	1354.8	367.93	5.4346e-06	5.2111e-06	418.76	140.6	122.05	41.919	5.0454e-06	51.651	0.00056403	0.00054566	0.00015208	1379.3	6.0866e-06	6.0563e-06	1377.5	374.95	6.1802e-06	6.1108e-06	427.58	143.37	124.82	43.02	6.2217e-06	53.256	147.370	-45.523	-18.048	-145.475	-63.610	-17.517	-145.688	-140.996	-56.485	21.532	-141.321	-137.586	-136.791	-131.674	-35.127	-132.527	-8191	255	
768.494	1	1	0	0	0.17145	0.28782	0.20054	0.32205	0.10348	0.021771	0.085414	0.11481	0.15082	0.048767	0.092815	0.11211	0.13338	0.15951	0.23449	0.051475	-2.6896	-3.6229	-3.5521	-3.2375	-3.6896	-3.2708	-3.4333	-3.6854	-3.0333	-3.6	-3.5625	-3.1542	-3.6417	-3.3625	-3.1562	-3.8187	95.804	-120.327	63.255	174.240	75.939	-76.522	86.354	198.114	-58.436	37.928	-75.291	-19.954	-44.257	89.018	192.135	147.677	0.00073856	0.00050332	0.00015278	1359.3	5.9316e-06	6.1339e-06	1355.3	367.73	6.39e-06	1.8574e-06	419.58	140.24	122.23	42.066	1.0298e-05	51.576	0.00057313	0.00056917	0.00015698	1381.5	6.3315e-06	6.2391e-06	1379.8	375.25	6.3538e-06	6.3414e-06	427.74	143.58	124.91	43.112	6.3994e-06	53.294	139.303	-64.362	-88.961	-145.452	-22.524	-30.983	-145.986	-140.983	-68.154	-1.397	-141.342	-137.629	-136.696	-131.832	-8.731	-132.681	-8191	255	
768.590	1	1	0	0	0.095106	0.20917	0.065028	0.10008	0.18845	0.10472	0.33049	0.10637	0.18633	0.30231	0.12577	0.099988	0.065227	0.30356	0.10458	0.029242	-2.575	-3.3542	-3.4313	-3.1542	-3.7438	-3.2208	-3.3396	-3.9062	-3.0604	-3.4042	-3.7729	-3.175	-3.6833	-3.3792	-3.2208	-3.7854	118.656	-143.604	82.702	-149.510	34.018	160.776	136.370	64.977	67.948	-16.947	-141.381	141.124	186.861	158.604	12.198	92.407	0.00090689	0.00080858	0.00013326	1358.1	8.4643e-06	1.0159e-05	1354.5	368.21	2.7733e-06	7.1355e-06	417.71	140.44	122.37	42.087	9.9909e-06	51.704	0.00058986	0.00058025	0.00016424	1382.8	6.3849e-06	6.4762e-06	1382.1	375.7	6.4627e-06	6.4226e-06	427.9	143.61	125.01	43.092	6.6076e-06	53.36	143.059	-11.692	-91.657	-145.564	-65.267	-16.481	-145.633	-140.832	-100.857	19.842	-141.284	-137.766	-136.924	-131.904	0.779	-132.579	-8191	255	
768.686	1	1	0	0	0.30233	0.13482	0.14243	0.1564	0.10148	0.090525	0.19412	0.22876	0.16599	0.17188	0.29537	0.19342	0.09292	0.31228	0.15126	0.027922	-2.7292	-3.075	-3.3792	-3.1646	-3.6125	-3.3438	-3.2896	-3.8771	-3.1792	-3.3458	-3.55	-3.1833	-3.7458	-3.6333	-3.1229	-3.8583	-32.514	-81.934	199.034	149.203	55.852	184.812	107.382	-155.551	-65.889	-10.735	-60.439	128.191	-68.392	180.774	193.642	46.726	0.00094332	0.00015375	0.00020377	1361	3.2128e-06	6.1436e-06	1359	368.61	8.2358e-06	3.4495e-06	416.68	139.45	122.49	41.742	8.4392e-06	51.77	0.00060411	0.0006017	0.00017033	1383.2	6.6011e-06	6.6909e-06	1382.2	376.13	6.6234e-06	6.6517e-06	427.68	143.31	125.04	43.11	6.7131e-06	53.399	143.369	-146.649	-33.425	-145.307	-74.846	-9.779	-145.777	-140.896	-60.813	4.270	-141.407	-137.500	-137.091	-132.018	-14.296	-132.547	-8191	255	
768.781	1	1	0	0	0.10927	0.04069	0.14994	0.23193	0.18058	0.27039	0.25816	0.036749	0.30377	0.08374	0.047534	0.055482	0.079159	0.12107	0.1088	0.14254	-2.7229	-3.2313	-3.5438	-3.1063	-3.4771	-3.5312	-3.3917	-3.8438	-3.2646	-3.0667	-3.8417	-2.9979	-3.4646	-3.6292	-3.225	-3.6937	123.952	-10.106	-101.941	152.658	-94.473	-55.186	143.893	187.571	148.186	-69.366	-134.952	-146.552	111.791	-130.640	18.906	197.480	0.00081746	0.00065231	0.00021825	1357.7	6.9625e-06	7.6656e-06	1357.7	368.78	6.9728e-06	6.5772e-06	417.77	140.7	122.02	41.963	2.1881e-06	51.214	0.00061598	0.00061469	0.00017083	1382.4	6.5948e-06	6.8037e-06	1382.4	376.19	6.6858e-06	6.7108e-06	427.88	143.75	124.93	43.232	6.7045e-06	53.33	153.372	-34.608	-76.076	-145.392	-60.079	-26.315	-145.788	-140.884	-84.734	26.189	-141.509	-137.413	-137.063	-131.830	-21.336	-132.560	-8191	255	
768.877	1	1	0	0	0.089147	0.18624	0.29755	0.11266	0.041428	0.19305	0.17194	0.22545	0.15581	0.10396	0.26378	0.12707	0.14767	0.070859	0.21051	0.19306	-2.95	-3.1437	-3.6771	-3.1979	-3.4062	-3.6	-3.2146	-3.6958	-3.3688	-3.1667	-3.8312	-3.0771	-3.3521	-3.5229	-3.0563	-3.5354	-158.352	-109.543	134.099	163.548	29.796	41.252	121.282	195.539	142.683	-154.942	-140.723	-157.091	184.377	93.273	-54.735	60.253	0.00079718	0.00032623	0.00019744	1359.8	7.3339e-06	2.1541e-06	1359.9	369.29	5.728e-06	1.4311e-06	418.84	140.22	121.92	41.839	7.087e-06	51.503	0.00060783	0.00060884	0.00016815	1382.5	6.5592e-06	6.6299e-06	1381.8	375.9	6.4978e-06	6.6105e-06	428.41	143.68	124.94	43.061	6.5478e-06	53.277	148.143	-36.643	-43.255	-145.366	-56.504	-42.306	-145.679	-140.959	-60.790	80.618	-141.467	-137.551	-137.026	-131.890	14.323	-132.434	-8191	255	
768.997	1	1	0	0	0.15435	0.22364	0.23169	0.23789	0.12776	0.11642	0.13912	0.21307	0.09119	0.20282	0.077503	0.059659	0.1507	0.10469	0.21226	0.12688	-3.1063	-2.9375	-3.6562	-3.4271	-3.2708	-3.7083	-3.1146	-3.5917	-3.4625	-3.0896	-3.8646	-3.3958	-3.1417	-3.925	-3.0292	-3.4979	128.014	142.158	169.305	116.419	-82.849	21.495	174.189	106.612	101.427	25.125	-10.169	53.033	-49.422	158.452	-144.083	-146.845	0.00092907	0.00063547	0.00019239	1363.6	7.8607e-06	3.6475e-06	1357.8	369	3.0435e-06	2.6909e-06	419.12	140.44	122.2	41.972	3.0297e-06	51.505	0.00060088	0.00060481	0.00016703	1383.8	6.5989e-06	6.6112e-06	1382.1	375.96	6.6157e-06	6.6373e-06	428.52	143.48	124.92	43.182	6.5559e-06	53.39	147.708	-22.232	-32.042	-145.304	-133.415	-27.571	-145.735	-140.947	-104.430	-77.015	-141.225	-137.346	-136.874	-131.754	-58.366	-132.603	-8191	255	
769.093	1	1	0	0	0.35722	0.13661	0.1259	0.33844	0.021207	0.27611	0.09657	0.308	0.13771	0.25746	0.068832	0.075389	0.082882	0.12644	0.010769	0.030956	-3.1833	-3.05	-3.7375	-3.5333	-3.1292	-3.6	-3.2042	-3.3146	-3.5375	-2.9604	-3.6021	-3.2625	-3.275	-3.8187	-3.0521	-3.5271	17.104	-157.691	-34.594	193.139	96.807	-23.111	-120.980	108.802	28.904	95.288	50.126	-76.518	106.367	38.843	191.387	-107.439	0.00079987	0.00010988	0.00012597	1362	8.5684e-06	6.0787e-06	1355.4	370.09	5.0489e-06	2.5067e-06	418.93	139.49	122.13	41.981	9.2412e-06	51.49	0.0006041	0.00060328	0.00016618	1385.2	6.5082e-06	6.5679e-06	1380.7	376.23	6.5185e-06	6.5265e-06	428.69	143.17	124.75	43.129	6.4469e-06	53.235	146.373	-111.129	-82.996	-145.192	-47.511	-4.117	-145.591	-140.893	-101.983	14.073	-141.389	-137.575	-137.107	-131.694	-5.101	-132.610	-8191	255	
769.190	1	1	0	0	0.18682	0.097638	0.19261	0.29001	0.25201	0.013118	0.12151	0.17971	0.097433	0.16378	0.20607	0.24199	0.24806	0.27325	0.16081	0.12981	-3.2792	-3.0812	-3.5208	-3.5146	-3.0646	-3.725	-3.2417	-3.4417	-3.6604	-3.0375	-3.7042	-3.6417	-3.1375	-3.7375	-3.0833	-3.2792	162.604	-119.475	87.038	180.288	-133.370	-147.397	109.220	124.567	-106.541	-3.085	-131.964	26.928	141.635	173.152	42.151	149.320	0.00087928	0.00065141	0.00020354	1359	6.2283e-06	5.596e-06	1350.3	369.02	6.1719e-06	4.9623e-06	419.6	140.81	122	41.848	3.5767e-06	51.664	0.00060459	0.00060804	0.00016612	1383.2	6.4907e-06	6.5657e-06	1379.9	375.75	6.5251e-06	6.5405e-06	429.28	143.6	124.87	43.12	6.5218e-06	53.335	144.878	-24.499	-59.112	-145.229	-78.561	-23.528	-145.631	-140.969	-52.311	-7.821	-141.319	-137.404	-136.693	-131.570	24.370	-132.618	-8191	255	
769.286	1	1	0	0	0.06347	0.26888	0.21338	0.32221	0.1322	0.31895	0.16072	0.11068	0.17384	0.22273	0.17107	0.23367	0.31065	0.11224	0.17914	0.0064578	-3.4479	-3.0396	-3.4646	-3.8146	-2.9917	-3.7396	-3.3917	-3.4417	-3.6125	-2.8896	-3.6104	-3.7167	-3.0875	-3.8458	-3.2521	-3.15	-42.210	-77.594	32.766	164.755	-28.014	96.723	111.752	167.996	-91.708	43.940	152.306	-102.359	-135.278	187.508	140.631	154.610	0.00084306	0.00037289	0.00018851	1365.4	6.0141e-06	7.671e-06	1353.5	367.73	6.6919e-06	4.9395e-06	416.87	140.65	121.89	41.698	6.413e-06	51.721	0.00060601	0.00059993	0.00016618	1386	6.5693e-06	6.5027e-06	1380	375.6	6.5875e-06	6.5181e-06	428.13	143.77	124.8	43.048	6.4592e-06	53.385	148.775	-132.007	-72.293	-145.193	-78.468	2.968	-145.685	-140.869	-64.570	-2.246	-141.317	-137.274	-136.693	-131.487	10.501	-132.325	-8191	255	
769.357	1	1	0	0	0.066059	0.14444	0.3013	0.18459	0.028778	0.096867	0.12044	0.047689	0.063414	0.011493	0.19892	0.32233	0.1521	0.15197	0.20586	0.21783	-3.35	-2.9792	-3.2729	-3.7271	-3.1271	-3.5792	-3.5083	-3.2104	-3.7812	-3.0438	-3.3042	-3.5271	-3.0792	-3.5958	-3.1667	-3.0729	-80.453	-71.343	157.390	-155.022	-36.925	-36.681	-121.939	-105.008	87.257	-15.473	171.393	-151.714	95.262	180.511	103.292	165.359	0.00088777	0.0010369	0.00017964	1359.4	4.9823e-06	4.1866e-06	1355.6	368.53	4.8681e-06	3.0847e-06	420.66	140.19	122.43	41.899	5.6966e-06	51.788	0.00060351	0.00059099	0.00016409	1381.9	6.5868e-06	6.4041e-06	1381.1	375.28	6.5731e-06	6.432e-06	428.73	143.32	124.84	43.097	6.4603e-06	53.401	147.354	-60.159	-94.098	-145.474	-84.695	-93.782	-145.765	-141.081	-91.529	27.782	-141.415	-137.304	-137.010	-132.034	2.155	-132.930	-8191	255	
769.478	1	1	0	0	0.11528	0.022651	0.072307	0.22251	0.13647	0.038488	0.34597	0.21605	0.14785	0.13626	0.18837	0.035065	0.17514	0.11352	0.16295	0.17643	-3.3937	-3.0146	-3.3792	-3.675	-2.9813	-3.6708	-3.6375	-3.1354	-3.6917	-3.1729	-3.275	-3.8187	-3.0625	-3.5875	-3.4188	-3.0812	167.422	5.305	-109.273	167.178	-19.866	-82.718	137.882	177.720	-13.736	141.875	-143.458	21.895	129.988	-112.393	181.547	165.061	0.00090389	0.00046372	0.00027693	1360.7	5.3431e-06	6.1398e-06	1356.1	368.31	4.9788e-06	6.9644e-06	417.61	139.47	122.3	41.775	2.7508e-06	51.407	0.00059579	0.00058551	0.00016584	1384.1	6.4828e-06	6.4426e-06	1380.8	375.43	6.4683e-06	6.4173e-06	427.56	143.22	124.96	43.071	6.419e-06	53.236	142.629	-61.903	-65.700	-145.147	-42.394	-24.386	-145.671	-141.007	-73.663	60.604	-141.355	-137.501	-136.895	-131.802	49.389	-132.708	-8191	255	
769.574	1	1	0	0	0.16453	0.20292	0.13708	0.31826	0.19945	0.22002	0.16817	0.36092	0.058521	0.15565	0.10228	0.10613	0.33859	0.19443	0.15078	0.13026	-3.3417	-3.1083	-3.1604	-3.8292	-3.0396	-3.4938	-3.7333	-3.2188	-3.7417	-3.2604	-3.3375	-3.7521	-3.2833	-3.4396	-3.6521	-3.2521	-136.708	-69.300	-46.056	158.562	77.643	83.637	173.270	158.308	-58.582	11.650	-105.733	157.582	149.057	-138.765	172.861	-147.244	0.00076413	0.0004566	9.858e-05	1364.4	4.673e-06	4.4153e-06	1357	368.07	7.1025e-06	5.1084e-06	417.59	140.08	121.95	41.711	8.8068e-06	51.467	0.00058565	0.00057802	0.00016239	1381.5	6.36e-06	6.3655e-06	1381.1	375.65	6.347e-06	6.3399e-06	428.02	143.41	124.69	43.013	6.444e-06	53.252	150.496	-65.766	-63.555	-145.499	-72.200	25.963	-145.653	-140.958	-55.098	51.464	-141.627	-137.504	-136.984	-131.970	9.053	-132.924	-8191	255	
769.670	1	1	0	0	0.19852	0.057688	0.12414	0.033298	0.088528	0.15621	0.2667	0.18013	0.15313	0.17861	0.11215	0.09163	0.22666	0.090103	0.18429	0.20922	-3.2708	-3.3167	-2.9667	-3.7542	-3.125	-3.4125	-3.9188	-3.2625	-3.4875	-3.3208	-3.1646	-3.75	-3.0854	-3.3479	-3.6667	-3.1917	45.933	3.379	7.481	72.026	-2.086	11.333	132.725	155.531	-96.905	-66.492	111.761	141.954	99.894	88.522	121.572	33.799	0.0008638	0.00039768	0.00017228	1365.7	7.8808e-06	4.0659e-06	1351.7	369.29	5.5836e-06	6.9154e-06	417.55	140.95	122.03	41.958	8.6835e-06	51.35	0.00059384	0.00057883	0.0001628	1384.1	6.3933e-06	6.4252e-06	1380.9	375.84	6.3225e-06	6.4089e-06	428.26	143.65	124.86	43.125	6.4252e-06	53.238	141.944	-55.026	-30.394	-145.577	-23.347	-50.571	-145.709	-141.187	-64.137	-41.711	-141.489	-137.472	-136.760	-131.719	-14.359	-132.670	-8191	255	
769.789	1	1	0	0	0.13191	0.38233	0.18256	0.19497	0.095593	0.21595	0.16199	0.13632	0.20764	0.18621	0.10847	0.18742	0.16848	0.20995	0.14685	0.12131	-3.1604	-3.3771	-2.8812	-3.7646	-3.2521	-3.3021	-3.7604	-3.0021	-3.3521	-3.4583	-3.0646	-3.5938	-3.4146	-3.1896	-3.7042	-3.1063	-2.454	85.223	176.580	-99.713	137.617	180.674	86.845	145.545	-52.559	73.731	-106.275	95.934	173.995	167.657	-33.044	119.925	0.00086652	0.00016506	0.00020144	1359.1	5.9009e-06	7.4838e-06	1356.6	369.72	4.4739e-06	2.8921e-06	419.13	139.9	121.99	41.912	4.5905e-06	51.597	0.00058779	0.00057905	0.00016498	1381.2	6.3888e-06	6.4034e-06	1381.7	375.76	6.3791e-06	6.4374e-06	428.04	143.51	124.76	43.07	6.4375e-06	53.273	143.520	-22.743	-59.300	-145.075	6.018	2.018	-145.715	-141.186	-46.028	-58.243	-141.759	-137.634	-137.237	-131.888	-9.543	-132.913	-8191	255	
769.885	1	1	0	0	0.10452	0.1969	0.17392	0.071347	0.1992	0.13905	0.32736	0.065573	0.045214	0.20014	0.093294	0.30705	0.1621	0.17012	0.054741	0.065842	-2.9229	-3.5083	-2.8479	-3.5583	-3.1917	-3.3438	-3.7583	-3.2729	-3.325	-3.6625	-3.0042	-3.75	-3.5104	-3.1396	-3.6604	-3.0563	36.315	64.855	-145.483	104.649	19.579	75.367	123.560	120.959	51.029	55.823	191.615	169.214	188.616	183.475	91.371	-108.763	0.0008097	0.00062186	0.00017172	1364.5	7.5579e-06	2.5376e-06	1356	367.78	4.8434e-06	4.7207e-06	417.83	140.14	121.96	41.859	7.1285e-06	51.705	0.00059372	0.00059366	0.00016427	1383.5	6.3931e-06	6.5113e-06	1381.5	375.36	6.4375e-06	6.5738e-06	428.3	143.47	124.86	43.087	6.4043e-06	53.221	142.523	-122.026	-71.451	-145.592	-66.809	-5.404	-145.778	-140.919	-97.596	-19.586	-141.530	-137.706	-136.912	-132.089	-5.233	-132.371	-8191	255	
769.959	1	1	0	0	0.096921	0.081882	0.13507	0.1268	0.16013	0.071504	0.35891	0.15578	0.12693	0.12291	0.11299	0.10165	0.14429	0.053578	0.13474	0.30776	-2.7208	-3.4771	-2.8792	-3.7854	-3.375	-3.0625	-3.7292	-3.2104	-3.1271	-3.6688	-3.2021	-3.5979	-3.5896	-3.0771	-3.8937	-3.1667	-14.339	-0.773	108.664	151.047	-0.995	-6.593	132.040	102.062	-45.078	59.707	123.318	67.102	110.792	146.117	-38.812	98.877	0.0008875	0.00030829	0.0001062	1365	6.9507e-06	6.344e-06	1354.6	367.99	8.55e-06	6.0781e-06	418.58	140.09	122.2	41.896	2.6193e-06	51.561	0.00060182	0.0005962	0.00016359	1382.6	6.4833e-06	6.5053e-06	1382.3	375.61	6.5319e-06	6.5054e-06	428.68	143.51	124.85	43.122	6.474e-06	53.318	143.545	-51.256	-59.601	-145.400	12.722	-20.869	-145.620	-141.104	-56.366	58.330	-141.531	-137.568	-136.912	-131.984	28.263	-132.835	-8191	255	
770.078	1	1	0	0	0.096463	0.19507	0.13661	0.14389	0.13227	0.069064	0.23129	0.10284	0.14648	0.074555	0.04503	0.19102	0.03004	0.10973	0.078183	0.19218	-2.8542	-3.625	-3.1458	-3.6396	-3.5125	-3.0979	-3.8937	-3.3667	-3.0542	-3.7062	-3.1771	-3.3292	-3.5667	-3.1521	-3.6646	-3.2667	64.092	80.582	187.667	141.748	96.849	147.714	163.990	147.631	-89.782	-128.687	-99.096	145.210	74.243	84.508	114.623	173.816	0.00071438	0.00061479	0.00016501	1360.1	3.656e-06	7.6206e-06	1354.6	369.11	4.4414e-06	2.801e-06	417.71	139.8	121.87	41.81	1.2819e-06	51.749	0.00060352	0.00059068	0.00016364	1382.7	6.4806e-06	6.4925e-06	1381.3	375.84	6.5186e-06	6.5044e-06	427.69	143.46	124.82	43.088	6.4991e-06	53.357	151.220	-49.174	-46.842	-145.653	-149.853	-16.875	-145.761	-141.141	-79.410	36.262	-141.578	-137.654	-137.168	-132.180	29.069	-132.501	-8191	255	
770.174	1	1	0	0	0.08526	0.040734	0.1332	0.10569	0.18711	0.10017	0.076567	0.21332	0.24468	0.16144	0.089421	0.022672	0.19965	0.14103	0.026261	0.13655	-2.8583	-3.5979	-2.9938	-3.5625	-3.5271	-3.0854	-3.8708	-3.4104	-3.1562	-3.7188	-3.0625	-3.1833	-3.6792	-3.0833	-3.5312	-3.4604	77.292	54.188	121.406	9.351	9.067	46.927	154.614	131.173	173.317	65.067	55.585	2.252	158.120	91.497	148.777	181.821	0.00094999	0.0001956	0.00023714	1363.6	8.7002e-06	3.7006e-06	1355.1	368.73	6.522e-06	3.6108e-06	419.57	140.4	121.96	41.706	6.271e-06	51.347	0.00059963	0.00059458	0.00016559	1384.3	6.5105e-06	6.4727e-06	1380.9	375.26	6.5237e-06	6.4495e-06	428.58	143.7	125	43.068	6.4514e-06	53.218	141.878	-65.730	-46.503	-145.242	-73.513	-1.819	-145.686	-140.891	-73.424	51.908	-141.286	-137.808	-136.716	-131.962	7.338	-132.393	-8191	255	
770.270	1	1	0	0	0.17214	0.072455	0.13392	0.17145	0.067122	0.19014	0.16755	0.20557	0.16626	0.1874	0.049975	0.10771	0.12349	0.21095	0.052597	0.22648	-2.6542	-3.5938	-3.0604	-3.4792	-3.4813	-3.0083	-3.625	-3.6333	-2.9	-3.7292	-3.2417	-3.3083	-3.8333	-3.1729	-3.475	-3.7208	1.015	91.886	-28.061	102.266	-89.268	28.810	142.155	143.541	-142.893	187.779	-155.675	52.663	130.106	133.282	7.671	155.572	0.00091272	0.00025017	8.7124e-05	1358.7	5.7425e-06	4.6731e-06	1353.7	369.31	4.4032e-06	1.5086e-06	418.93	139.89	122.24	41.702	5.0698e-06	51.654	0.00059827	0.00059038	0.00016435	1381.1	6.4861e-06	6.469e-06	1380.9	375.67	6.4872e-06	6.3806e-06	427.99	143.38	124.97	43.096	6.4061e-06	53.325	142.406	8.321	43.035	-145.619	-90.798	2.668	-145.763	-140.947	-67.105	177.739	-141.283	-137.694	-136.850	-131.854	-34.644	-132.420	-8191	255	
770.391	1	1	0	0	0.19388	0.088378	0.10545	0.24157	0.30679	0.13191	0.35322	0.14811	0.27359	0.028773	0.15964	0.26812	0.38307	0.076923	0.44443	0.049816	-2.6396	-3.5521	-3.1625	-3.1813	-3.6708	-3.1104	-3.7021	-3.75	-3.2521	-3.6083	-3.3771	-3.1396	-3.8646	-3.1875	-3.4521	-3.6042	60.125	182.036	-156.365	181.273	-4.195	-129.754	154.580	156.438	-53.328	-82.223	-132.480	152.702	-149.447	143.621	128.912	-102.993	0.00079836	0.00059644	0.00017998	1363.7	6.1751e-06	5.3771e-06	1356.5	367.75	7.346e-06	1.5213e-06	417.99	139.95	122.11	41.656	6.1617e-06	51.523	0.00059697	0.00059226	0.0001627	1383.7	6.4202e-06	6.3571e-06	1381.1	375.77	6.4998e-06	6.4754e-06	428.08	143.26	124.81	43.055	6.4849e-06	53.377	142.528	-54.079	-35.928	-145.209	-44.390	-29.695	-145.635	-141.001	-55.415	30.123	-141.267	-137.704	-136.702	-131.624	-64.818	-132.427	-8191	255	
770.487	1	1	0	0	0.081165	0.10781	0.1761	0.071268	0.080241	0.14107	0.16871	0.11297	0.17005	0.20902	0.12912	0.19667	0.032489	0.23538	0.21151	0.29379	-2.5208	-3.6688	-3.4875	-3.15	-3.7479	-3.1125	-3.6437	-3.5896	-3.075	-3.5958	-3.5417	-3.0771	-3.725	-3.2542	-3.0542	-3.6688	134.670	-125.130	-82.581	103.842	86.857	37.349	148.165	133.408	-6.803	43.191	81.900	-106.098	-34.674	170.022	-85.899	51.324	0.00089229	0.00046849	0.00017589	1364.8	3.8637e-06	5.2402e-06	1351.4	369.28	5.4032e-06	3.753e-06	417.15	140.33	122.08	41.716	4.2307e-06	51.346	0.000593	0.00058206	0.00016234	1384.7	6.4837e-06	6.4565e-06	1380.3	375.6	6.4162e-06	6.3995e-06	427.78	143.54	124.76	43.003	6.435e-06	53.313	143.587	-61.431	-61.484	-145.090	-10.886	11.590	-145.624	-140.668	-95.838	-11.174	-141.175	-137.562	-136.971	-131.717	7.602	-132.836	-8191	255	
770.581	1	1	0	0	0.1869	0.19184	0.13672	0.18881	0.061029	0.071753	0.079788	0.19863	0.067012	0.017202	0.12418	0.096907	0.17716	0.03468	0.065619	0.10995	-2.6542	-3.4437	-3.3458	-3.0229	-3.5958	-3.1479	-3.4708	-3.7917	-3.0146	-3.4583	-3.5687	-3.3042	-3.6521	-3.1937	-3.0708	-3.7021	-104.376	4.498	-114.362	133.226	174.340	-96.896	158.349	101.962	-28.384	56.703	-33.734	-46.227	135.744	89.930	41.949	117.209	0.00079025	0.00055431	9.7768e-05	1363.2	6.8183e-06	3.1933e-06	1358.7	368.18	6.4547e-06	5.5053e-06	417.93	140.32	121.69	41.556	6.7002e-06	51.553	0.00058341	0.0005804	0.0001615	1383.2	6.3654e-06	6.3965e-06	1381.9	376.04	6.4334e-06	6.3434e-06	428.08	143.41	124.79	42.974	6.3318e-06	53.231	147.786	-25.293	-58.947	-145.179	-38.499	-49.916	-145.878	-141.174	-72.036	-19.674	-141.511	-137.726	-137.098	-132.230	-31.008	-132.999	-8191	255	
770.655	1	1	0	0	0.12327	0.38163	0.18564	0.24338	0.27826	0.049451	0.28802	0.12873	0.097787	0.25775	0.11356	0.091385	0.039367	0.094193	0.12028	0.086469	-2.6	-3.2271	-3.5896	-3.0125	-3.6708	-3.3438	-3.2687	-3.6771	-3.2521	-3.3292	-3.4958	-3.3021	-3.6229	-3.625	-3.1	-3.75	12.470	-89.574	129.467	185.234	116.169	191.339	116.225	84.801	122.988	44.341	163.171	-52.312	-152.109	-76.069	-108.978	-71.810	0.00081706	0.00036534	5.0062e-05	1362.7	2.6478e-06	2.0796e-06	1356.2	368.25	5.1854e-06	7.584e-06	418.56	139.61	121.37	41.829	1.186e-06	51.649	0.00059375	0.00057627	0.0001626	1382.7	6.3514e-06	6.4007e-06	1380.6	375.48	6.3331e-06	6.43e-06	428.46	143.37	124.58	43.082	6.3978e-06	53.289	145.507	-35.228	20.443	-145.904	-66.175	-39.576	-145.899	-141.264	-108.816	-49.672	-141.594	-137.808	-137.280	-132.171	-69.662	-132.806	-8191	255	
770.773	1	1	0	0	0.25975	0.03095	0.027419	0.13929	0.1477	0.17304	0.12417	0.1144	0.066421	0.2227	0.083522	0.18293	0.053131	0.23422	0.16625	0.12551	-2.8646	-3.2812	-3.6625	-3.2917	-3.5958	-3.5229	-3.3312	-3.7229	-3.1146	-3.1875	-3.8125	-2.9188	-3.5854	-3.3625	-3.0062	-3.6063	-140.802	176.886	158.050	25.340	-40.148	-121.668	-86.841	140.763	45.622	191.756	47.315	96.626	133.297	191.752	52.385	113.159	0.00085395	0.00046528	0.00012731	1361.7	8.2144e-06	5.7579e-06	1354.8	368.53	4.7286e-06	1.0715e-06	417	139.79	121.83	41.818	9.9579e-06	51.451	0.00058942	0.00058352	0.00016234	1382.4	6.3426e-06	6.3534e-06	1381.2	375.3	6.4619e-06	6.4513e-06	427.95	143.34	124.94	43.08	6.4482e-06	53.208	136.253	-44.648	-81.738	-145.435	-59.803	-34.451	-145.973	-141.224	-37.739	141.724	-141.397	-137.714	-137.058	-131.971	60.870	-132.814	-8191	255	
770.870	1	1	0	0	0.13385	0.072797	0.21445	0.16645	0.09473	0.15312	0.21185	0.1193	0.18494	0.023038	0.066009	0.12683	0.15419	0.081419	0.14304	0.079934	-2.8187	-3.1667	-3.6729	-3.1479	-3.4188	-3.4938	-3.1583	-3.9083	-3.3583	-3.2958	-3.7583	-3	-3.4354	-3.4813	-2.9313	-3.6917	-112.228	179.503	-29.516	-140.370	-120.709	-7.682	159.271	-25.260	125.922	-154.009	110.040	196.450	-152.580	169.652	6.680	110.131	0.00088501	0.00042647	0.00014072	1360.4	1.0106e-05	5.6722e-06	1352.1	368.68	3.3144e-06	2.6428e-06	417.57	140.01	122.04	41.884	8.7945e-06	51.593	0.00059502	0.00059549	0.00016429	1383.1	6.4914e-06	6.4324e-06	1380.9	375.79	6.4369e-06	6.4917e-06	428.26	143.32	124.8	43.098	6.4496e-06	53.262	137.753	-120.851	-36.464	-145.302	-44.439	20.001	-145.791	-140.935	-13.938	1.691	-141.213	-137.640	-137.033	-131.628	4.534	-132.640	-8191	255	
770.966	1	1	0	0	0.097981	0.045305	0.14029	0.028085	0.033372	0.13047	0.27503	0.27343	0.099038	0.21638	0.08322	0.25263	0.014823	0.15014	0.078661	0.13495	-2.9042	-2.8875	-3.6917	-3.2896	-3.3604	-3.575	-3.275	-3.7687	-3.3667	-3.0521	-3.8917	-3.3729	-3.4292	-3.6125	-2.8292	-3.6042	101.674	188.890	5.243	124.258	87.415	-4.403	190.888	190.224	-58.571	0.687	55.025	137.464	126.530	199.751	113.663	53.814	0.00092041	0.00033178	4.2402e-05	1360.4	3.4717e-06	5.4014e-06	1356.7	367.44	7.3809e-06	9.0296e-06	419.81	139.88	121.89	42.02	5.126e-06	51.193	0.00059729	0.0005929	0.00016294	1380.9	6.3699e-06	6.4603e-06	1379.1	375.66	6.4679e-06	6.5231e-06	428.74	143.35	124.65	43.16	6.4215e-06	53.156	152.533	-2.264	-126.669	-145.206	14.079	-81.428	-145.598	-140.958	-147.896	-10.099	-141.326	-137.484	-136.930	-131.726	-5.571	-132.801	-8191	255	
771.062	1	1	0	0	0.27483	0.07075	0.075386	0.15786	0.22382	0.10339	0.42241	0.22166	0.16251	0.16582	0.2066	0.22228	0.10859	0.31593	0.13332	0.16774	-2.8438	-2.9729	-3.5854	-3.2958	-3.2562	-3.5583	-3.1813	-3.6854	-3.4437	-3.1042	-3.6229	-3.2458	-3.2271	-3.6125	-2.9354	-3.5083	-90.165	-57.653	177.876	159.601	-82.832	52.805	183.366	96.455	24.280	200.821	-137.640	134.624	107.840	197.002	56.858	-26.452	0.0008342	0.000687	0.00018795	1362.4	7.256e-06	5.1175e-06	1354.9	369.15	5.6347e-06	5.0247e-06	420.69	140.23	121.91	41.818	6.9751e-06	51.296	0.00059379	0.00058129	0.00016333	1382.1	6.4678e-06	6.4445e-06	1379.8	376.13	6.452e-06	6.4518e-06	428.82	143.7	124.9	43.022	6.5071e-06	53.278	149.605	-58.504	-109.227	-145.195	-92.082	-31.278	-145.487	-140.933	-53.833	49.293	-141.012	-137.659	-137.127	-131.796	21.306	-132.754	-8191	255	
771.183	1	1	0	0	0.20255	0.14394	0.20034	0.15665	0.23142	0.21728	0.19655	0.20296	0.22268	0.22653	0.16215	0.25005	0.23548	0.13584	0.12316	0.092676	-3.0938	-2.9042	-3.6542	-3.4562	-2.9833	-3.7333	-3.4125	-3.4792	-3.675	-2.8312	-3.7479	-3.2854	-3.0938	-3.7458	-3.0708	-3.3771	48.475	14.553	18.369	185.717	-64.244	15.682	120.499	136.678	-1.891	15.429	55.093	159.273	-73.553	50.468	32.006	105.777	0.00079112	0.00075426	0.00016391	1363.7	3.6306e-06	4.197e-06	1357.9	368.73	5.4466e-06	6.0301e-06	418.11	140.01	122.31	41.851	8.0562e-06	51.788	0.00059517	0.00059151	0.00016455	1381.7	6.4423e-06	6.4716e-06	1380.9	375.38	6.5061e-06	6.4515e-06	428.4	143.42	124.77	43.091	6.4625e-06	53.311	152.984	-67.165	-8.325	-145.384	-45.549	-16.175	-145.885	-141.097	-45.171	-12.117	-141.431	-137.811	-137.036	-131.857	-27.714	-132.619	-8191	255	
771.254	1	1	0	0	0.31736	0.12684	0.14964	0.17948	0.097095	0.40698	0.20843	0.29931	0.20038	0.26185	0.072886	0.025117	0.08108	0.25525	0.19879	0.094306	-3.1333	-3.0083	-3.5312	-3.4271	-3.1312	-3.725	-3.3854	-3.3792	-3.6229	-3.0292	-3.675	-3.6271	-3.1562	-3.8479	-3.2438	-3.2104	46.724	-6.592	23.156	130.719	-47.934	41.027	128.685	170.087	196.530	-47.242	22.470	-94.364	158.024	195.417	57.328	-137.398	0.00090601	0.00019856	0.0002023	1362.4	6.9324e-06	5.9443e-06	1356.2	367.4	4.4904e-06	3.4087e-06	417.08	141.07	121.94	41.86	5.387e-06	51.637	0.00059427	0.00058261	0.00016485	1384.6	6.4644e-06	6.3732e-06	1380.9	375.36	6.4825e-06	6.5402e-06	427.98	143.53	124.84	43.065	6.4293e-06	53.305	137.299	-137.750	-44.605	-145.486	-2.475	-4.033	-145.765	-141.049	-62.778	-91.790	-141.508	-137.152	-136.519	-131.251	-7.567	-131.647	-8191	255	
771.350	1	1	0	0	0.092769	0.038097	0.040713	0.10119	0.11933	0.20777	0.43215	0.22342	0.1772	0.1993	0.15895	0.085299	0.30587	0.098616	0.3169	0.33786	-3.2687	-3.1104	-3.3438	-3.6854	-2.8917	-3.7021	-3.5271	-3.1792	-3.6646	-3.0333	-3.6312	-3.5854	-3.3625	-3.6896	-3.3354	-3.1875	37.156	61.667	-113.723	183.797	145.277	36.230	77.474	152.097	-35.015	121.050	64.684	122.889	-142.021	146.908	57.659	101.681	0.00085674	0.00068231	9.9308e-05	1362.8	4.468e-06	4.3954e-06	1352.9	368.53	5.1347e-06	5.3719e-06	417	139.93	121.67	41.994	7.1331e-06	51.611	0.00060227	0.00058968	0.00016535	1383.6	6.4205e-06	6.4232e-06	1379.8	376.08	6.4027e-06	6.4443e-06	427.86	143.29	124.72	43.129	6.4446e-06	53.376	150.754	-69.626	-76.865	-144.539	-28.620	-19.107	-143.856	-139.482	-34.331	33.937	-139.939	-136.041	-135.514	-130.386	-31.326	-130.851	-8191	255	
771.471	1	1	0	0	0.29087	0.15682	0.18916	0.16814	0.19013	0.44493	0.28191	0.12656	0.030369	0.19763	0.39529	0.14191	0.19301	0.061815	0.081628	0.15288	-3.2854	-3.0167	-3.1	-3.6417	-2.8854	-3.7	-3.5104	-3.2229	-3.5875	-3.0542	-3.4479	-3.5479	-2.9958	-3.7687	-3.4188	-3.2	-98.305	-50.763	-28.688	170.464	81.918	-125.740	138.083	-143.436	43.801	95.184	37.431	138.153	156.593	-14.224	51.699	-120.807	0.00077313	0.00031646	0.00012087	1350.7	5.0552e-06	2.177e-06	1351.3	367.58	2.097e-06	1.4724e-06	417.95	139.57	121.88	41.762	2.7277e-06	51.583	0.00059749	0.00059381	0.00016587	1381.1	6.4305e-06	6.4682e-06	1380.2	375.08	6.5033e-06	6.4889e-06	428.52	143.29	124.77	43.104	6.4959e-06	53.327	143.908	-73.348	-63.520	-143.141	-40.717	-42.932	-143.746	-139.103	-95.118	120.351	-139.668	-135.650	-135.226	-130.149	34.997	-131.077	-8191	255	
771.567	1	1	0	0	0.4503	0.29195	0.18091	0.089902	0.045752	0.21536	0.3248	0.12218	0.2559	0.051234	0.20961	0.23875	0.082939	0.15457	0.30362	0.27093	-3.3458	-3.15	-3.3563	-3.65	-3.1146	-3.5625	-3.65	-3.15	-3.8563	-3.2562	-3.2812	-3.6521	-3.2604	-3.4021	-3.6167	-3.1146	89.121	31.584	185.511	155.855	107.679	-118.552	126.079	139.205	99.269	-68.806	94.477	147.348	98.219	-113.960	140.186	115.967	0.00080214	0.00079817	0.00019872	1360.9	6.2014e-06	8.7853e-06	1351.9	368.83	5.2417e-06	4.791e-06	419.22	139.98	121.83	41.964	8.4249e-06	51.34	0.00059499	0.00057937	0.00016493	1381.2	6.3892e-06	6.4248e-06	1380.2	375.12	6.3554e-06	6.3458e-06	428.87	143.47	124.62	43.098	6.3696e-06	53.223	148.933	-43.998	-29.642	-143.554	-92.447	-2.957	-144.289	-139.575	5.300	42.050	-140.155	-136.261	-135.564	-130.595	-0.927	-131.375	-8191	255	
771.662	1	1	0	0	0.25722	0.059438	0.18517	0.028545	0.3364	0.2612	0.14732	0.16856	0.10522	0.17636	0.12816	0.30225	0.13629	0.25129	0.094898	0.33945	-3.2292	-3.2396	-3.1729	-3.8208	-3.1375	-3.4854	-3.7125	-3.1042	-3.5646	-3.3729	-3.4625	-3.7938	-3.2313	-3.4958	-3.5375	-3.1167	21.198	145.584	-18.041	171.504	-43.888	-60.539	54.126	149.643	157.600	153.541	132.471	150.956	-15.427	-109.325	141.194	50.164	0.00086268	0.00035946	0.00015708	1363	3.4095e-06	6.3782e-06	1353.4	367	7.8357e-06	5.5893e-06	417.25	140.47	121.98	41.873	5.6331e-06	51.396	0.0005877	0.00057963	0.00016207	1382.7	6.2275e-06	6.3114e-06	1379.5	374.67	6.3641e-06	6.3006e-06	427.56	143.51	124.73	43.039	6.2508e-06	53.104	148.161	-97.234	-51.916	-143.882	-78.769	-15.014	-143.813	-139.171	-52.442	28.365	-139.615	-135.773	-135.118	-130.541	2.019	-131.323	-8191	255	
771.759	1	1	0	0	0.013244	0.2011	0.18664	0.38062	0.23091	0.097236	0.16972	0.14311	0.19601	0.10014	0.030646	0.28846	0.14618	0.23075	0.085221	0.090661	-3.2521	-3.2021	-2.9292	-3.7896	-3.1875	-3.2854	-3.9021	-3.1167	-3.2958	-3.4042	-3.4188	-3.6792	-3.2521	-3.375	-3.5958	-3.0625	39.640	-31.295	114.934	176.117	47.217	110.896	26.719	199.479	-157.380	96.744	154.554	186.823	168.423	184.604	166.031	-49.684	0.00081743	0.00084624	8.2634e-05	1359.6	5.2852e-06	5.9726e-06	1356.5	368.28	2.6723e-06	2.2162e-06	418.16	139.67	122.16	41.936	2.4495e-06	51.561	0.00058187	0.00056951	0.00016194	1382	6.285e-06	6.2899e-06	1379.3	375.01	6.2556e-06	6.1945e-06	427.74	142.99	124.6	43.128	6.2323e-06	53.254	142.160	-62.233	-74.652	-143.843	-13.373	10.776	-144.155	-139.673	-52.942	40.492	-139.895	-136.060	-135.100	-130.084	33.324	-130.728	-8191	255	
771.854	1	1	0	0	0.33781	0.12917	0.21722	0.10132	0.095062	0.1583	0.31376	0.21009	0.08329	0.32706	0.44293	0.1357	0.13819	0.07113	0.099968	0.1463	-3.0438	-3.3271	-3.1917	-4	-3.2938	-3.2146	-3.9521	-3.3479	-3.6896	-3.4667	-3.1458	-3.6833	-3.3292	-3.2542	-3.6813	-3.0958	77.467	-36.563	142.396	142.328	-71.083	10.723	108.489	122.550	-57.963	58.361	194.983	-122.186	-137.447	146.508	87.258	63.370	0.00075528	0.00063983	0.00026521	1358.4	5.0334e-06	2.4357e-06	1350.4	368.61	4.6649e-06	4.3845e-06	417.19	140.01	121.86	41.749	9.7828e-06	51.65	0.00057667	0.00056873	0.00015907	1381.7	6.2022e-06	6.2351e-06	1379.8	374.6	6.2496e-06	6.2641e-06	426.97	143.16	124.61	43.015	6.171e-06	53.172	143.019	-55.864	-81.963	-143.314	0.200	26.746	-143.754	-138.929	-54.868	-17.517	-139.596	-135.733	-135.203	-130.279	0.401	-130.611	-8191	255	
771.950	1	1	0	0	0.10405	0.29528	0.022397	0.30015	0.22864	0.15816	0.19541	0.27526	0.055874	0.070454	0.20667	0.094503	0.039325	0.38622	0.067858	0.22974	-3.0771	-3.4813	-3.0354	-3.8875	-3.4271	-3.25	-3.9708	-3.3146	-3.5396	-3.8271	-3.0375	-3.7271	-3.5604	-3.3042	-3.7479	-3.2083	19.074	-91.824	-134.423	-129.562	-41.660	50.706	78.200	94.522	-151.312	-76.454	-141.967	185.294	64.010	-155.469	-71.922	119.437	0.00080066	0.00032242	0.00028503	1357.4	4.1482e-06	5.6795e-06	1354.9	366.89	6.0547e-06	4.9179e-06	417.03	140.04	120.94	41.683	4.5265e-06	51.522	0.00056957	0.00056244	0.00015729	1382.1	6.1585e-06	6.2436e-06	1379.5	374.3	6.1717e-06	6.1806e-06	427.8	143.16	124.46	42.957	6.0999e-06	53.209	150.414	-125.051	-81.538	-143.411	-92.546	-74.797	-143.744	-138.946	-63.727	16.209	-139.564	-135.511	-134.710	-129.648	-90.046	-130.526	-8191	255	
772.071	1	1	0	0	0.14361	0.15578	0.253	0.056973	0.25786	0.16411	0.24226	0.25217	0.14937	0.038039	0.089688	0.11149	0.096634	0.098532	0.15706	0.14925	-2.9167	-3.4958	-2.95	-3.7479	-3.3458	-3.0604	-3.9125	-3.3042	-3.3958	-3.6375	-3.1125	-3.5104	-3.4458	-3.2188	-3.7062	-3.5187	4.227	-75.242	10.396	153.649	151.394	117.168	133.952	117.290	-52.601	-156.054	-49.259	94.799	177.734	-25.625	-44.381	-23.445	0.00081529	0.00063048	0.00020596	1356.5	2.5744e-06	7.3171e-06	1344.1	366.43	7.8136e-06	4.4993e-06	413.66	139.11	121.26	41.343	3.8567e-06	51.208	0.00057339	0.00056082	0.00015643	1382	6.1114e-06	6.1246e-06	1377.6	374.65	6.0942e-06	6.1219e-06	426.61	142.96	124.39	42.872	6.0775e-06	53.102	146.878	-30.646	-63.696	-143.302	-31.560	35.316	-143.518	-138.815	-82.686	-25.757	-139.409	-135.973	-134.521	-129.591	28.737	-130.371	-8191	255	
772.167	1	1	0	0	0.25303	0.082565	0.098929	0.15258	0.05389	0.074077	0.026699	0.035334	0.20116	0.19659	0.25091	0.16998	0.25994	0.054499	0.29812	0.18791	-2.6375	-3.5771	-2.9417	-3.7833	-3.4292	-3.1896	-3.8979	-3.3125	-3.2313	-3.6833	-3.1125	-3.525	-3.6063	-3.2292	-3.6229	-3.4021	-80.060	161.673	26.796	124.346	-53.060	-101.551	-125.499	200.552	126.731	-90.358	173.472	141.563	155.872	91.337	-145.528	137.425	0.00084452	0.00072932	3.39e-05	1355.9	5.4201e-06	3.1208e-06	1346.5	367.01	5.1942e-06	4.0409e-06	417.44	139.36	121.12	41.585	4.666e-06	51.22	0.00056909	0.00055556	0.00015778	1381.1	6.0774e-06	6.0772e-06	1378.9	374.59	6.1159e-06	6.0855e-06	427.55	142.89	124.34	42.906	6.0796e-06	53.144	144.130	-68.729	97.958	-143.212	-91.164	-26.651	-143.763	-138.716	-66.494	-21.827	-139.347	-135.755	-134.824	-129.913	-1.686	-130.423	-8191	255	
772.263	1	1	0	0	0.052306	0.088845	0.26968	0.17487	0.062486	0.16457	0.12145	0.25618	0.35873	0.092164	0.092467	0.12188	0.093652	0.093002	0.20094	0.085915	-2.7687	-3.6688	-3.125	-3.6396	-3.4813	-3.025	-3.6625	-3.6271	-3.2479	-3.5667	-3.2667	-3.4125	-3.7604	-3.0312	-3.4188	-3.4167	-111.887	32.941	135.921	117.405	146.560	72.654	162.574	156.470	160.490	145.827	96.393	133.785	187.614	36.675	199.370	195.503	0.00073688	0.0006718	0.00011103	1352.9	6.6306e-06	7.6035e-06	1352.4	366.9	6.013e-06	6.991e-06	414.1	138.95	121.3	41.398	3.5842e-06	51.057	0.00056337	0.00054527	0.00015312	1380.2	5.9877e-06	6.0265e-06	1381	374.61	6.0719e-06	6.0817e-06	426.83	143.14	124.42	42.851	5.972e-06	53.02	146.586	-105.140	-43.622	-143.308	-108.067	31.228	-143.613	-138.796	-34.791	12.746	-138.921	-135.369	-134.602	-129.632	5.987	-130.823	-8191	255	
772.359	1	1	0	0	0.38712	0.19127	0.13071	0.17498	0.049836	0.22154	0.037101	0.28624	0.22682	0.13763	0.13799	0.18927	0.18325	0.013729	0.1469	0.13006	-2.6646	-3.6354	-3.1875	-3.4396	-3.7687	-3.0958	-3.6896	-3.625	-3.2812	-3.8104	-3.2729	-3.0979	-3.7313	-3.2313	-3.475	-3.4625	34.612	-53.334	6.358	168.084	123.640	202.479	-101.062	134.216	109.104	-102.648	164.392	-150.983	-85.272	99.919	185.737	201.046	0.0009013	0.00067885	0.00016108	1349.8	3.7868e-06	5.9174e-06	1344	365	6.1915e-06	3.1987e-06	419.34	140.15	121.45	41.934	2.0133e-06	51.172	0.00055372	0.00054854	0.00015154	1378.6	5.9118e-06	6.0157e-06	1379.2	374.28	5.9375e-06	5.902e-06	427.13	143.27	124.36	42.974	5.939e-06	52.979	148.693	-73.443	-66.631	-142.963	-111.817	29.038	-143.373	-138.545	-67.959	0.567	-139.811	-135.897	-134.999	-130.240	-12.900	-130.513	-8191	255	
772.480	1	1	0	0	0.032356	0.32743	0.12594	0.14473	0.24184	0.19747	0.14885	0.16841	0.24093	0.16071	0.21929	0.30898	0.088809	0.12265	0.055848	0.11357	-2.7188	-3.6562	-3.1333	-3.2521	-3.6021	-3.0812	-3.6229	-3.825	-2.95	-3.6771	-3.4542	-3.0979	-3.7667	-3.1958	-3.2917	-3.7313	58.495	161.092	59.821	-34.686	51.621	32.160	173.617	181.678	-113.638	-38.931	-144.731	190.690	-145.776	133.503	-137.343	88.846	0.00081488	0.00066528	0.00015385	1352	5.1463e-06	2.81e-06	1346.5	366.01	2.2073e-06	3.7777e-06	411.65	138.12	120.41	41.427	6.1103e-06	51.266	0.00054221	0.00053948	0.00014866	1380.4	5.7679e-06	5.7561e-06	1378.2	374.59	5.8321e-06	5.7422e-06	425.9	142.58	124.12	42.886	5.8078e-06	53.111	151.090	-56.580	-66.246	-143.138	-79.979	66.083	-143.478	-138.707	-152.102	-6.648	-138.538	-135.196	-134.373	-129.236	-29.590	-130.120	-8191	255	
772.551	1	1	0	0	0.11723	0.045543	0.14428	0.21199	0.14105	0.34342	0.14306	0.35838	0.1496	0.16538	0.41061	0.42408	0.11045	0.1984	0.1735	0.20272	-2.7292	-3.5792	-3.2062	-3.0833	-3.6937	-3.0687	-3.4354	-3.6125	-3.1792	-3.8521	-3.5854	-3.125	-3.7042	-3.175	-3.1958	-3.525	45.632	129.332	-4.977	175.956	83.823	54.149	115.094	133.037	118.927	66.086	198.598	172.102	67.015	-124.454	-60.178	115.778	0.00082918	0.00061679	0.00013	1347.1	9.6899e-06	2.0153e-06	1348.6	366.03	4.4213e-06	1.9871e-06	415.4	138.9	121.27	41.631	4.1329e-06	51.142	0.00053916	0.00052765	0.00014706	1377.2	5.7748e-06	5.7552e-06	1379.3	374.24	5.7481e-06	5.7952e-06	426.21	142.77	124.23	42.921	5.7085e-06	52.948	141.989	-23.326	-33.497	-143.136	-75.024	21.908	-143.653	-138.609	-17.425	0.710	-138.889	-135.394	-134.660	-129.779	11.536	-130.244	-8191	255	
772.646	1	1	0	0	0.14348	0.10211	0.19643	0.26924	0.18627	0.14277	0.18867	0.26311	0.18781	0.21658	0.13519	0.21537	0.07939	0.089157	0.033871	0.20794	-2.6521	-3.4771	-3.4708	-3.2687	-3.4292	-3.2146	-3.4667	-3.5479	-2.9146	-3.3875	-3.6208	-2.9958	-3.7229	-3.4125	-3.1354	-3.6833	153.851	-91.739	11.456	186.659	34.209	83.239	95.799	-116.993	153.865	-65.574	142.937	30.968	169.017	-125.806	196.981	72.817	0.00084136	0.00056928	9.4332e-05	1352.5	8.591e-06	6.0269e-06	1354.2	365.47	5.2236e-06	1.7595e-06	415.94	139.37	121.4	41.371	5.2474e-06	51.301	0.00052697	0.00051744	0.00014225	1378.1	5.5444e-06	5.5633e-06	1377.3	374.26	5.6686e-06	5.5706e-06	425.71	142.84	124.19	42.756	5.5538e-06	52.987	145.512	-96.760	28.791	-142.888	-43.557	-50.345	-143.566	-138.939	-90.878	64.990	-139.223	-135.391	-134.636	-129.648	-6.128	-130.242	-8191	255	
772.742	1	1	0	0	0.1274	0.22685	0.0084848	0.26213	0.23357	0.25684	0.19886	0.21334	0.10297	0.21582	0.10718	0.14897	0.035152	0.1756	0.26341	0.23093	-2.7562	-3.3271	-3.6396	-3.0687	-3.7208	-3.4188	-3.4792	-3.9167	-3.0771	-3.3563	-3.7229	-3.2021	-3.6	-3.3625	-3.1333	-3.7917	0.529	66.868	128.404	182.904	53.792	-56.414	178.770	126.157	53.546	113.201	-61.928	175.214	136.175	-141.946	-40.549	-134.391	0.00076458	0.00053065	7.3753e-05	1351.2	5.6731e-06	6.4147e-06	1343	364.92	3.3772e-06	7.434e-06	415.2	138.25	120.78	41.264	3.7471e-06	51.233	0.00052159	0.00051176	0.00014045	1377	5.5203e-06	5.5765e-06	1375.7	374.51	5.5847e-06	5.5574e-06	426.17	142.48	124.24	42.756	5.5454e-06	52.964	148.123	-67.630	-75.175	-142.827	-100.408	-36.713	-143.133	-138.630	-46.632	-35.704	-139.128	-135.073	-134.342	-129.470	-39.593	-130.298	-8191	255	
772.863	1	1	0	0	0.010287	0.17757	0.052442	0.34499	0.025502	0.24945	0.30998	0.21422	0.23524	0.17322	0.089532	0.08149	0.26169	0.19262	0.11192	0.24146	-2.7667	-3.2646	-3.6937	-3.1646	-3.5812	-3.4229	-3.3292	-3.725	-3.4562	-3.3625	-3.75	-3.1188	-3.3646	-3.5021	-3.0208	-3.8937	37.431	-105.732	-149.131	170.292	-2.163	137.653	138.198	171.719	-144.895	105.795	51.348	-31.707	-68.985	181.312	-74.708	199.250	0.00076867	0.00042289	0.00013215	1349.1	3.6097e-06	6.5459e-06	1344.4	365.76	5.9669e-06	5.6051e-06	413.26	139.22	120.08	41.314	5.9243e-06	50.94	0.00051385	0.0005074	0.00014028	1377.1	5.5297e-06	5.4933e-06	1375.9	374.02	5.5323e-06	5.4974e-06	425.51	142.8	124.09	42.75	5.5136e-06	52.882	146.579	-71.834	-68.237	-142.867	-27.984	-11.086	-143.498	-138.373	-57.529	-39.520	-138.933	-135.313	-134.441	-129.511	38.722	-130.211	-8191	255	
772.959	1	1	0	0	0.099827	0.10428	0.10992	0.17517	0.36434	0.10633	0.079744	0.027273	0.065554	0.0511	0.26607	0.14018	0.19681	0.223	0.098256	0.22974	-2.825	-3.15	-3.5958	-3.2625	-3.5479	-3.5021	-3.2583	-3.8083	-3.2333	-3.0625	-3.8167	-3.1	-3.5521	-3.75	-3.0292	-3.7333	28.688	-80.125	-25.355	176.330	-112.684	-85.489	-143.623	89.440	109.005	106.465	171.774	-18.869	46.285	131.977	57.623	176.601	0.00073443	0.00069947	0.00010383	1349.1	4.2308e-06	4.0274e-06	1343.8	364.62	2.0285e-06	3.0157e-06	414	139.25	120.72	41.646	3.8747e-06	51.098	0.00051003	0.00049683	0.0001387	1377.6	5.442e-06	5.4063e-06	1375.1	373.82	5.458e-06	5.394e-06	425.9	142.78	123.97	42.788	5.425e-06	52.91	140.974	-17.772	-21.507	-142.731	-106.104	-40.982	-143.114	-138.509	17.984	8.584	-138.706	-135.616	-134.600	-129.596	41.979	-130.457	-8191	255	
773.055	1	1	0	0	0.12574	0.25723	0.18715	0.23317	0.21187	0.16505	0.37714	0.11455	0.12885	0.17402	0.1988	0.13297	0.21195	0.20234	0.25948	0.25773	-2.9104	-3.2542	-3.7833	-3.2667	-3.2292	-3.6521	-3.0687	-3.8229	-3.4	-3.1667	-3.7	-3.1312	-3.3896	-3.7125	-3.2042	-3.6042	-82.109	170.908	-65.296	-110.463	50.479	-149.554	172.071	-40.182	143.223	-44.622	149.343	-81.960	-119.243	-102.314	114.963	112.833	0.00075706	0.00079732	4.9282e-05	1349.1	4.6886e-06	6.3205e-06	1347	366.18	2.3366e-06	2.5214e-06	414.92	139.47	120.98	41.625	5.6459e-06	51.361	0.00050244	0.00049426	0.00013651	1377.2	5.3276e-06	5.3186e-06	1376.5	374.25	5.3436e-06	5.3131e-06	425.68	142.74	123.85	42.768	5.3832e-06	52.956	140.816	-78.486	-39.569	-142.827	23.931	-10.937	-143.286	-138.852	122.353	2.264	-138.631	-135.214	-134.657	-129.610	-17.716	-130.586	-8191	255	
773.151	1	1	0	0	0.12415	0.21472	0.093925	0.17758	0.316	0.25247	0.23051	0.30186	0.1143	0.20102	0.084228	0.1727	0.24516	0.38457	0.32306	0.1987	-3.0021	-2.9188	-3.7854	-3.3479	-3.2896	-3.625	-3.1521	-3.6354	-3.4104	-2.9875	-3.7333	-3.2146	-3.1833	-3.6229	-3.0604	-3.325	63.720	172.914	-127.525	-125.864	-103.915	115.096	-143.863	173.000	128.124	-28.827	175.344	-122.750	149.593	145.580	-95.714	91.286	0.0007134	0.00066038	0.00019924	1353	5.6181e-06	4.3673e-06	1351.3	366.13	4.6853e-06	5.2695e-06	416.91	139.5	121.36	41.47	6.8986e-06	51.176	0.00049539	0.00048486	0.00013515	1377.7	5.2346e-06	5.2528e-06	1377.8	374.32	5.2307e-06	5.2703e-06	425.62	142.56	123.96	42.73	5.1621e-06	52.909	146.728	-43.320	-23.295	-143.127	-82.072	-61.690	-143.275	-138.620	-93.952	23.886	-139.310	-135.277	-134.816	-129.662	13.736	-130.496	-8191	255	
773.247	1	1	0	0	0.15605	0.14435	0.24618	0.1478	0.14398	0.165	0.1404	0.15587	0.086938	0.21771	0.28688	0.08067	0.11621	0.34397	0.018674	0.09542	-2.9958	-2.9458	-3.5646	-3.4708	-3.2375	-3.6333	-3.4708	-3.7458	-3.5979	-3.1688	-3.6562	-3.6958	-3.1937	-3.6896	-2.9708	-3.4042	21.426	22.012	124.774	-77.321	74.176	-122.877	136.009	-110.734	-42.824	48.711	-106.725	125.044	188.179	185.397	-140.523	-124.141	0.00077107	0.00039381	0.00013617	1350.9	1.0726e-05	2.633e-06	1348.4	366.95	6.2882e-06	4.5594e-06	414.69	139.17	121.35	41.508	5.0107e-06	50.968	0.00048659	0.0004756	0.00013193	1376.2	5.1421e-06	5.1133e-06	1373.8	373.84	5.11e-06	5.1054e-06	425.69	142.28	123.85	42.683	5.1068e-06	52.76	156.537	-36.436	-60.522	-143.103	-30.782	-35.594	-143.418	-138.860	-39.055	6.158	-139.067	-135.137	-134.689	-129.518	-17.514	-130.471	-8191	255	
773.343	1	1	0	0	0.045652	0.30599	0.064671	0.2828	0.062921	0.14998	0.37751	0.17007	0.2046	0.18861	0.19174	0.16218	0.16157	0.019729	0.058334	0.26982	-3.3625	-2.85	-3.4229	-3.4896	-3.1208	-3.7167	-3.4375	-3.4229	-3.7625	-3.1708	-3.6542	-3.5375	-3.2354	-3.6125	-3.1937	-3.25	122.246	-21.880	-130.625	154.929	-135.927	-68.270	147.614	100.949	-3.025	192.114	-8.663	88.154	182.019	95.067	-124.203	87.048	0.00073391	0.00059957	5.022e-05	1356.9	2.2991e-06	4.7245e-06	1356.6	366.95	5.0597e-06	5.1501e-06	417.47	139.35	121.82	41.678	2.4373e-06	51.367	0.00047271	0.00046365	0.00012831	1375.6	5.0204e-06	5.0051e-06	1376.5	373.62	5.0166e-06	5.0544e-06	425.76	142.39	123.87	42.71	4.9385e-06	52.861	145.510	-39.623	-89.992	-143.399	-140.278	32.989	-143.757	-139.154	-71.012	-39.956	-139.525	-135.783	-134.887	-130.032	59.994	-130.901	-8191	255	
773.439	1	1	0	0	0.19553	0.13935	0.07927	0.17274	0.038512	0.053656	0.08424	0.20347	0.18946	0.16836	0.17397	0.21069	0.09899	0.10719	0.12939	0.16787	-3.2333	-2.825	-3.2521	-3.4854	-3.05	-3.6208	-3.4771	-3.2354	-3.5771	-2.9021	-3.3167	-3.5417	-3.0458	-3.5958	-3.3	-3.2438	189.927	-16.077	-10.632	161.611	12.478	-54.042	158.331	-153.873	-137.713	-104.689	-135.846	198.270	-46.332	114.871	-133.679	-129.484	0.00087125	0.0003859	2.3287e-05	1359.4	6.5244e-06	8.2422e-06	1345.1	366.24	6.9691e-06	5.8959e-06	415.98	139.34	121.32	41.466	5.2269e-06	51.283	0.00046963	0.00045743	0.00012425	1376.3	4.9945e-06	4.9339e-06	1373.5	373.56	4.9422e-06	4.9039e-06	425.59	142.4	123.83	42.689	4.8449e-06	52.849	145.460	-103.582	-22.479	-143.560	-51.280	-5.452	-143.759	-138.929	-61.264	33.232	-139.477	-135.318	-134.696	-129.689	40.115	-130.748	-8191	255	
773.560	1	1	0	0	0.1629	0.12734	0.068291	0.24702	0.11712	0.044072	0.14128	0.15532	0.16279	0.18816	0.079635	0.19567	0.20832	0.1154	0.19289	0.19767	-3.3958	-3.0625	-3.4021	-3.6375	-2.9625	-3.6396	-3.4375	-3.2687	-3.7083	-2.9708	-3.4	-3.7396	-3.1437	-3.5875	-3.4417	-3.2167	188.589	-92.538	-36.941	177.315	139.173	150.966	76.221	140.330	-81.083	-46.307	-51.793	-63.731	125.614	140.354	-6.284	190.386	0.000858	0.00056959	0.00011096	1355.3	4.1095e-06	1.1376e-06	1349.4	366.42	6.7024e-06	7.0898e-06	418.61	139.98	121.35	41.889	6.3338e-06	51.467	0.0004486	0.0004385	0.00012077	1375.6	4.8037e-06	4.8315e-06	1374.5	372.95	4.772e-06	4.7701e-06	425.41	142.39	123.61	42.771	4.7081e-06	52.797	142.948	-61.691	-3.523	-143.302	-90.071	-11.553	-143.629	-139.072	-73.200	-34.924	-139.712	-135.765	-135.284	-130.326	-103.641	-130.921	-8191	255	
773.655	1	1	0	0	0.0988	0.12431	0.1578	0.2759	0.27011	0.16384	0.18897	0.12406	0.051166	0.17886	0.12395	0.22534	0.038535	0.19099	0.12342	0.038567	-3.2938	-3.1667	-3.2938	-3.7646	-2.8354	-3.5208	-3.5938	-3.2771	-3.5896	-3.0375	-3.4562	-3.7062	-3.1354	-3.5271	-3.5083	-3.1396	127.789	18.289	70.934	195.626	-28.494	-51.331	-136.565	-143.149	133.939	90.183	-51.765	-150.817	-33.113	-148.855	154.240	90.255	0.00082071	0.00019872	0.00017953	1356.7	5.7693e-06	4.1447e-06	1350.2	368.03	5.145e-06	3.9867e-06	416.01	139.75	121.53	41.692	4.5224e-06	51.342	0.00044662	0.00043086	0.00011937	1374.8	4.7064e-06	4.6273e-06	1373.7	373.12	4.7169e-06	4.6938e-06	424.76	142.22	123.9	42.666	4.6239e-06	52.702	150.103	-146.899	-40.542	-143.401	-40.860	-65.671	-143.683	-139.286	-77.004	22.139	-139.278	-135.543	-134.863	-129.909	-67.518	-130.619	-8191	255	
773.752	1	1	0	0	0.06873	0.25495	0.20169	0.046222	0.35209	0.21955	0.32971	0.2067	0.24964	0.218	0.11181	0.08306	0.24486	0.062228	0.39507	0.20744	-3.2917	-3.2458	-3.0479	-3.8146	-2.9521	-3.4917	-3.775	-3.2396	-3.5792	-3.3479	-3.25	-3.6979	-3.025	-3.4083	-3.6625	-3.1875	59.736	-144.542	-9.213	97.155	53.909	108.786	195.489	-91.498	-37.494	104.271	84.110	131.242	-117.779	12.922	-54.662	-48.483	0.0007714	0.00032622	8.5283e-05	1357.9	8.5381e-06	3.0355e-06	1350	366.42	3.7851e-06	5.1702e-06	417.79	139.75	122.25	41.811	3.8002e-06	51.507	0.00043676	0.00042274	0.00011586	1375.3	4.5525e-06	4.5442e-06	1373.7	372.91	4.616e-06	4.532e-06	424.75	142.26	123.66	42.703	4.493e-06	52.761	146.269	-45.289	-28.197	-143.485	-59.312	69.848	-143.831	-139.297	-62.475	4.736	-139.212	-135.866	-135.310	-129.929	15.250	-130.968	-8191	255	
773.847	1	1	0	0	0.15637	0.19062	0.2572	0.36129	0.19554	0.11697	0.22987	0.053513	0.12881	0.24828	0.12383	0.19749	0.1293	0.12349	0.30111	0.0618	-3.2354	-3.2708	-3.2062	-3.7583	-3.1167	-3.3833	-3.8104	-3.1979	-3.4979	-3.4229	-3.1979	-3.8854	-3.2687	-3.3104	-3.7104	-3.1792	177.099	-131.634	-150.672	164.077	-68.679	-80.260	144.775	-82.314	125.278	-8.202	-132.991	154.601	61.716	175.609	129.873	27.128	0.00084777	0.00044882	9.7355e-05	1363.1	6.0064e-06	2.0507e-06	1346.1	365.42	4.6534e-06	7.6872e-06	415.83	139.12	120.99	41.548	3.264e-06	51.066	0.00042254	0.00040422	0.00011358	1375.1	4.4654e-06	4.4218e-06	1370.9	372.83	4.4887e-06	4.3655e-06	423.84	142.03	123.34	42.555	4.3493e-06	52.6	148.157	-82.385	-109.577	-143.476	-61.985	11.076	-143.577	-138.742	-62.141	3.075	-139.207	-135.327	-134.600	-129.355	23.500	-130.232	-8191	255	
773.943	1	1	0	0	0.13536	0.16196	0.052234	0.15651	0.2637	0.08599	0.40728	0.18802	0.15327	0.071357	0.11453	0.082301	0.20197	0.10914	0.27434	0.11946	-3.175	-3.4542	-3.2896	-3.8583	-3.1792	-3.2896	-3.9062	-3.2042	-3.5375	-3.675	-3.1521	-3.6271	-3.2938	-3.2042	-3.75	-3.2083	-81.229	79.407	190.063	193.827	-107.927	103.057	171.040	122.654	-60.820	35.223	-86.513	-147.205	130.597	112.277	55.557	-26.413	0.00083633	0.00013364	6.117e-05	1351.5	5.2467e-06	4.9886e-06	1340.7	364.41	3.8852e-06	2.8595e-06	415.38	138.96	121.32	41.36	2.5452e-06	51.094	0.00041492	0.00039858	0.000112	1373	4.3605e-06	4.3704e-06	1371	372.59	4.4141e-06	4.3189e-06	423.63	142.17	123.58	42.61	4.334e-06	52.666	144.395	-21.166	-69.400	-142.936	-44.207	-13.448	-143.204	-138.504	-85.900	24.417	-139.245	-135.548	-134.615	-129.499	21.147	-130.448	-8191	255	
774.039	1	1	0	0	0.09478	0.074211	0.10633	0.1832	0.24759	0.29425	0.17882	0.13178	0.25796	0.26448	0.1487	0.26395	0.0274	0.25447	0.059128	0.23919	-2.9437	-3.6146	-2.9562	-3.9104	-3.2938	-2.9062	-3.7979	-3.3229	-3.4313	-3.6333	-3.2104	-3.7313	-3.3438	-2.9917	-3.8125	-3.1979	-1.724	40.336	-36.273	-145.372	0.598	172.412	103.730	189.034	-23.096	7.395	96.671	198.619	133.664	201.507	-43.452	18.584	0.00080006	0.00066656	0.00019326	1353.5	3.4629e-06	1.6302e-06	1349.9	366.91	5.472e-06	4.81e-06	414.76	139.05	120.86	41.368	6.1982e-06	51.341	0.0004072	0.00039517	0.00011121	1373.4	4.2922e-06	4.3286e-06	1373.5	372.7	4.2513e-06	4.265e-06	424.09	142.14	123.32	42.499	4.2724e-06	52.628	143.265	-109.035	-34.065	-142.968	-29.228	-48.566	-143.695	-139.234	-57.076	-22.364	-139.080	-135.420	-134.680	-129.744	3.057	-130.466	-8191	255	
774.160	1	1	0	0	0.029421	0.071284	0.10763	0.4544	0.11539	0.0893	0.23633	0.25527	0.13076	0.25106	0.17637	0.092584	0.12895	0.24412	0.21119	0.049138	-2.8375	-3.6104	-3	-3.65	-3.5333	-3.0229	-3.9271	-3.2354	-3.2229	-3.6083	-3.0583	-3.5833	-3.5125	-3.2208	-3.625	-3.4208	142.078	1.912	-75.906	188.399	31.408	157.286	181.964	165.330	-5.868	108.800	176.123	-41.549	117.378	-64.102	-111.087	83.399	0.00077888	0.00042702	8.7296e-05	1350.3	4.5027e-06	2.7741e-06	1348.7	367	6.7831e-06	3.113e-06	414.76	139.12	121.01	41.303	4.2683e-06	51.324	0.00040557	0.0003876	0.00010925	1372.9	4.2341e-06	4.3073e-06	1372.4	372.42	4.2689e-06	4.2225e-06	423.77	142.01	123.21	42.578	4.2061e-06	52.796	145.009	-45.933	11.149	-143.266	-59.288	52.660	-143.630	-139.039	-68.641	-28.383	-139.067	-135.478	-134.469	-129.292	32.850	-130.245	-8191	255	
774.256	1	1	0	0	0.078967	0.05789	0.231	0.060668	0.079216	0.090617	0.19479	0.2426	0.20775	0.17565	0.083036	0.1832	0.17667	0.10896	0.039713	0.25791	-3.0479	-3.6229	-2.9896	-3.5417	-3.6792	-3.1125	-3.9167	-3.4437	-3.2958	-3.8563	-3.2188	-3.5958	-3.55	-3.2646	-3.5458	-3.3375	124.278	-81.663	-6.778	57.707	-118.963	3.410	114.946	167.996	39.900	-64.282	-89.013	164.075	131.787	83.538	47.979	162.838	0.00080749	0.00048003	0.00014453	1348.9	6.0001e-06	8.3701e-06	1345.6	365.65	5.1316e-06	3.9174e-06	418.36	139.9	121.7	41.913	7.2474e-06	51.715	0.00040469	0.00038102	0.00010788	1371.4	4.226e-06	4.2315e-06	1371.6	372.41	4.2528e-06	4.2729e-06	424.67	142.07	123.56	42.642	4.2322e-06	52.677	139.695	-111.830	-26.690	-143.041	-62.210	-12.904	-143.306	-138.595	-53.018	2.269	-139.667	-136.143	-135.278	-130.250	26.137	-131.191	-8191	255	
774.352	1	1	0	0	0.11634	0.14508	0.18109	0.30337	0.19373	0.15592	0.15309	0.19229	0.18865	0.086567	0.18542	0.14991	0.14654	0.13532	0.21195	0.0932	-2.6458	-3.525	-3.0125	-3.6312	-3.6167	-3.0583	-3.7375	-3.4292	-2.8625	-3.5979	-3.1333	-3.375	-3.6312	-3.0125	-3.5708	-3.5938	22.194	107.792	145.177	-156.999	151.444	-66.861	169.787	136.088	65.732	-44.894	115.737	-66.389	-130.994	-57.734	71.514	-84.566	0.00083152	0.00031769	0.00020068	1362.7	8.5442e-06	1.9823e-06	1355.4	369.88	5.8185e-06	8.4284e-06	417.26	140.06	122.13	41.843	3.4418e-06	51.551	0.00040708	0.00038345	0.00010685	1375.8	4.2253e-06	4.2425e-06	1373.9	373.32	4.2845e-06	4.2629e-06	424.42	142.03	123.63	42.622	4.254e-06	52.633	142.267	-55.577	-39.436	-144.021	-33.580	-143.945	-144.270	-139.487	-70.825	-2.110	-140.136	-136.452	-135.694	-130.765	-23.525	-131.895	-8191	255	
774.424	1	1	0	0	0.054632	0.17731	0.17487	0.36131	0.098668	0.10415	0.18438	0.21931	0.064808	0.046977	0.19575	0.31759	0.18848	0.035806	0.1386	0.23431	-2.7542	-3.6042	-3.1688	-3.3312	-3.5417	-3.0542	-3.7375	-3.5396	-3.1188	-3.5354	-3.2646	-3.2104	-3.5938	-2.9146	-3.3583	-3.4938	-42.256	-153.852	141.170	177.513	-62.698	201.372	147.841	90.039	-28.665	95.451	162.437	133.676	106.921	-112.176	38.493	118.648	0.00077286	0.00038813	4.7537e-05	1361.2	3.6831e-06	4.4968e-07	1353.8	368.17	6.7285e-06	1.3272e-06	416.64	140.18	122.45	41.913	4.2822e-06	51.349	0.00040616	0.00038921	0.00010652	1374.4	4.2814e-06	4.2954e-06	1373.6	372.8	4.3225e-06	4.2514e-06	423.83	142.19	123.71	42.638	4.2361e-06	52.701	141.955	-31.857	-18.307	-144.359	1.275	71.571	-144.952	-139.985	-75.163	-78.900	-140.431	-136.809	-135.969	-131.129	3.989	-131.905	-8191	255	
774.520	1	1	0	0	0.15709	0.50679	0.13241	0.11273	0.27901	0.35091	0.16303	0.32318	0.047269	0.12148	0.59531	0.16961	0.083187	0.26309	0.12721	0.21038	-2.7062	-3.5833	-3.2271	-3.3729	-3.6813	-3.0458	-3.5521	-3.6333	-3.0729	-3.6146	-3.2438	-3.2521	-3.7896	-3.0167	-3.1604	-3.5417	-1.309	-21.538	-21.804	153.149	34.045	160.899	154.229	117.289	185.654	148.447	147.904	147.686	123.310	195.766	-83.583	69.231	0.00081336	0.00021435	6.156e-05	1363.9	1.2702e-06	7.2897e-06	1353.7	367.48	5.3355e-06	5.4283e-06	418.57	139.81	122.27	41.614	4.2562e-06	51.603	0.00041246	0.00039865	0.0001084	1374.2	4.2964e-06	4.2985e-06	1373.3	373.11	4.4241e-06	4.3056e-06	424.06	142.06	123.63	42.602	4.2798e-06	52.775	151.814	-123.397	31.514	-144.385	12.406	-16.569	-144.693	-140.062	-49.439	-34.107	-140.349	-136.551	-136.082	-130.900	6.921	-131.736	-8191	255	
774.639	1	1	0	0	0.085166	0.016372	0.16322	0.1529	0.078817	0.063723	0.173	0.12274	0.18694	0.1293	0.16339	0.21024	0.16634	0.13954	0.027813	0.23492	-2.55	-3.5542	-3.3229	-3.2792	-3.6167	-3.1375	-3.4708	-3.8979	-3.0771	-3.3729	-3.5187	-3.0833	-3.6542	-3.2229	-3.3042	-3.6771	115.957	12.454	34.590	-97.917	180.230	21.981	150.866	-143.134	95.906	-46.492	84.494	120.798	-86.074	147.381	-57.160	135.694	0.00095662	0.00065401	0.00014914	1362.1	3.6956e-06	5.9602e-06	1354.4	366.57	5.149e-06	4.8739e-06	419.73	139.74	122.04	41.92	3.9203e-06	51.337	0.00041027	0.00039123	0.00010899	1373.1	4.3459e-06	4.3534e-06	1373.7	373.05	4.3866e-06	4.4129e-06	424.67	142.19	123.77	42.671	4.44e-06	52.669	144.589	-33.895	-72.714	-144.439	-42.484	-39.313	-144.826	-139.886	-62.807	-31.683	-140.427	-136.626	-135.811	-130.776	22.024	-131.492	-8191	255	
774.735	1	1	0	0	0.20694	0.175	0.20266	0.35548	0.084141	0.12634	0.26348	0.26344	0.31414	0.075972	0.18986	0.13035	0.243	0.050892	0.032551	0.22705	-2.4813	-3.3167	-3.4062	-3.1104	-3.7167	-3.3542	-3.1729	-3.7062	-2.9938	-3.4417	-3.6104	-3.1688	-3.7396	-3.3708	-3.0625	-3.6667	-41.349	-27.884	-16.871	-139.403	-16.419	-74.884	173.271	83.138	171.863	-103.989	76.430	-47.521	-108.491	110.229	46.854	148.332	0.00077927	0.0005172	0.00013441	1360.2	1.0351e-06	4.831e-06	1353.8	368.33	6.9847e-06	1.0988e-06	419.39	140.29	121.97	42.042	3.5842e-06	51.511	0.00042573	0.00040426	0.00011248	1374.8	4.4875e-06	4.4424e-06	1374.8	373.27	4.5757e-06	4.4669e-06	425.19	142.24	123.79	42.734	4.5299e-06	52.8	146.679	-87.583	-59.974	-144.425	-51.639	-47.516	-144.603	-139.778	-61.853	-90.010	-140.343	-136.580	-135.486	-130.386	-30.732	-131.217	-8191	255	
774.833	1	1	0	0	0.27162	0.2323	0.092881	0.11334	0.21841	0.29131	0.3896	0.21384	0.080841	0.20686	0.050859	0.22174	0.061507	0.1456	0.24549	0.24849	-2.6729	-3.3792	-3.6104	-3.2	-3.5042	-3.2979	-3.4229	-3.7812	-3.1667	-3.1375	-3.6604	-2.8396	-3.8042	-3.5396	-3.2687	-3.8312	89.239	99.116	64.522	99.497	-120.979	-72.347	108.895	78.612	-20.317	9.387	143.122	112.341	150.175	-141.720	62.422	184.683	0.00079192	0.00040957	0.00010782	1353.8	3.6325e-06	4.0082e-06	1356.4	367.92	5.0102e-06	7.0544e-06	418.37	140.14	122.02	41.723	2.3549e-06	51.23	0.00043494	0.00041296	0.00011499	1374.7	4.5386e-06	4.5509e-06	1374.9	373.51	4.6219e-06	4.6605e-06	425.28	142.34	123.96	42.661	4.6362e-06	52.788	150.558	-71.082	-30.793	-143.591	-23.637	-41.395	-144.150	-139.235	-92.215	-16.112	-139.633	-135.979	-135.373	-130.046	20.773	-130.708	-8191	255	
774.952	1	1	0	0	0.18793	0.25538	0.21334	0.12124	0.090787	0.11603	0.26386	0.10162	0.027294	0.29793	0.042342	0.30466	0.0538	0.16934	0.2066	0.15824	-2.6125	-3.2417	-3.5604	-3.1417	-3.6042	-3.4396	-3.2854	-3.6833	-3.1125	-3.1896	-3.8083	-3.0958	-3.3937	-3.5125	-3.1542	-3.6188	-14.108	19.999	-118.045	-104.750	133.048	-68.159	154.907	-57.681	-5.957	-124.453	49.683	175.870	-132.213	17.771	161.220	192.272	0.00078789	0.00074271	0.00010619	1359.4	4.8872e-06	4.6619e-06	1352.5	368.75	2.9446e-06	3.9255e-06	419.46	139.96	121.7	41.753	2.7767e-06	51.231	0.0004388	0.00042266	0.00011885	1375.3	4.656e-06	4.6537e-06	1374.8	374.13	4.6928e-06	4.7612e-06	425.27	142.27	123.81	42.639	4.82e-06	52.818	147.772	-60.826	-49.849	-143.622	-30.119	-0.246	-143.895	-139.365	-62.005	-8.875	-139.357	-135.790	-135.131	-129.745	53.049	-130.486	-8191	255	
775.023	1	1	0	0	0.24795	0.16197	0.069091	0.021971	0.097898	0.29478	0.18169	0.30048	0.089394	0.24987	0.18597	0.007972	0.06284	0.38154	0.11915	0.17419	-2.925	-3.1771	-3.5896	-3.2104	-3.2917	-3.3979	-3.2896	-3.625	-3.1312	-3.2333	-3.8292	-3.2167	-3.2313	-3.4667	-2.9167	-3.6146	-76.130	-132.820	-105.191	-48.120	27.758	-79.572	109.512	165.674	124.598	104.793	-65.311	-144.894	34.089	-137.482	59.929	113.400	0.00084385	0.00026231	0.00012075	1364.4	5.8127e-06	5.0225e-06	1350.1	367.83	6.8142e-06	3.512e-06	417.04	139.13	121.71	41.586	6.1979e-06	51.132	0.00044623	0.00043463	0.00012187	1376.8	4.7408e-06	4.7981e-06	1374.1	373.34	4.8024e-06	4.845e-06	424.8	142.11	123.67	42.729	4.8879e-06	52.788	144.173	-51.751	-51.652	-143.801	-68.269	27.568	-144.094	-139.349	-73.971	-13.050	-139.298	-135.455	-135.139	-130.048	-17.973	-130.706	-8191	255	
775.119	1	1	0	0	0.26475	0.2022	0.31808	0.19056	0.25286	0.13773	0.34069	0.31526	0.16529	0.23114	0.21809	0.24825	0.11794	0.27119	0.26989	0.022653	-3.1	-2.9729	-3.5375	-3.1854	-3.3187	-3.6333	-3.1	-3.5708	-3.5021	-3.0833	-3.825	-3.2188	-3.3083	-3.6479	-2.8229	-3.6979	-108.456	99.757	100.815	143.879	108.119	0.598	175.774	145.028	-58.614	-150.200	-21.398	117.538	-139.788	132.973	151.016	-13.401	0.00082946	0.00032015	8.0188e-05	1355.9	8.6989e-06	4.1007e-06	1347.8	365.38	7.9147e-06	4.2436e-06	415.95	139.02	121.15	41.246	4.7096e-06	51.29	0.0004542	0.00044873	0.00012344	1377.2	4.8424e-06	4.853e-06	1375.9	373.23	4.9416e-06	4.9576e-06	424.98	142.39	123.74	42.687	4.8245e-06	52.767	152.459	-74.750	-33.157	-143.333	-53.809	-39.478	-143.625	-138.934	-56.214	8.134	-139.228	-135.432	-134.600	-129.703	-34.603	-130.904	-8191	255	
775.240	1	1	0	0	0.17119	0.16261	0.057434	0.12998	0.30721	0.10655	0.29786	0.18253	0.1565	0.24315	0.11864	0.31393	0.03722	0.066587	0.2652	0.2498	-2.9646	-3.0042	-3.6063	-3.2146	-3.3021	-3.6729	-3.2667	-3.7438	-3.525	-3	-3.7479	-3.1583	-3.3375	-3.8208	-2.8396	-3.7354	70.542	-10.012	97.536	109.370	-33.954	13.046	95.794	196.668	-134.390	-50.320	179.473	116.670	114.370	148.904	-42.012	99.535	0.00084154	0.00036571	0.00013737	1351.1	5.5893e-06	2.9316e-06	1348.1	365.71	8.6874e-06	1.7036e-06	416.42	139.71	121.85	41.6	7.6823e-06	51.166	0.00046792	0.00046027	0.0001259	1374.6	4.9645e-06	4.992e-06	1374.8	373.13	4.9624e-06	4.9921e-06	424.98	142.25	123.86	42.718	4.9752e-06	52.788	147.021	-34.651	-50.636	-143.160	-47.907	-14.350	-143.543	-139.048	-36.669	-139.454	-139.335	-135.588	-135.068	-130.124	-21.732	-130.871	-8191	255	
775.336	1	1	0	0	0.16114	0.12487	0.070841	0.22569	0.048663	0.15161	0.12139	0.030305	0.14902	0.20604	0.11966	0.17858	0.089015	0.21649	0.2548	0.15317	-3.1188	-2.9437	-3.6396	-3.4271	-3.1437	-3.7208	-3.2729	-3.5604	-3.6521	-3.1292	-3.4792	-3.3063	-3.2417	-3.5792	-3.1437	-3.3667	-63.840	150.846	191.757	79.384	-23.260	20.042	120.513	113.689	31.795	87.452	-122.112	185.651	127.667	173.280	-25.202	187.328	0.00086033	0.00073712	0.00013866	1353.3	4.5241e-06	5.9459e-06	1347.4	366.24	3.3017e-06	3.0899e-06	415.03	139.24	120.56	41.609	4.3382e-06	51.058	0.00047204	0.00046364	0.0001265	1375.9	5.0741e-06	5.0337e-06	1375.1	373.46	5.1056e-06	5.0066e-06	425.05	142.39	123.86	42.7	5.0233e-06	52.861	142.894	-86.811	0.122	-143.100	-89.892	-23.153	-143.587	-138.793	-50.963	61.076	-139.019	-135.178	-134.866	-129.815	-11.348	-130.349	-8191	255	
775.432	1	1	0	0	0.17863	0.39234	0.22007	0.12895	0.0067811	0.20808	0.25716	0.27187	0.16896	0.19101	0.2743	0.19361	0.17943	0.15479	0.14609	0.28004	-3.0458	-2.7833	-3.4979	-3.4604	-3.1042	-3.7625	-3.5125	-3.3396	-3.4917	-3.0208	-3.6917	-3.475	-3.0458	-3.8417	-3.0979	-3.275	21.927	6.436	142.680	168.113	-142.849	-13.767	130.902	150.871	104.448	-59.330	-140.079	147.741	-81.380	68.737	104.821	-152.263	0.00090003	0.00062475	5.5989e-05	1353.3	7.7439e-06	3.532e-06	1346.6	365.01	4.0786e-06	1.8212e-06	415.96	138.75	120.69	41.469	5.1221e-06	51.224	0.00047814	0.00046423	0.00012692	1374	5.1152e-06	5.1381e-06	1374.7	372.97	5.076e-06	5.0442e-06	425.12	142.26	123.72	42.738	5.0367e-06	52.78	139.408	-66.107	-65.577	-143.055	-51.019	-10.895	-143.377	-138.881	-77.112	-14.466	-139.319	-135.470	-134.744	-129.490	-27.539	-130.394	-8191	255	
775.553	1	1	0	0	0.13786	0.20422	0.014299	0.12504	0.20847	0.038381	0.23677	0.13577	0.21924	0.041647	0.040795	0.12563	0.076105	0.045505	0.092608	0.066863	-3.0917	-3.0771	-3.4896	-3.5833	-3.1125	-3.7146	-3.1813	-3.25	-3.7104	-3.025	-3.4625	-3.4146	-2.9854	-3.4875	-3.2125	-3.1979	-148.758	140.913	134.502	127.397	-13.431	160.010	123.571	162.224	191.755	-53.056	109.200	110.627	-139.275	172.742	-63.618	148.429	0.00074908	0.00061423	0.00013383	1357.1	3.5433e-06	4.3032e-06	1358.6	366.51	2.8606e-06	3.5768e-06	417.62	139.74	121.45	41.805	4.6792e-06	51.75	0.00048072	0.00046511	0.00012959	1377.4	5.1727e-06	5.0872e-06	1377.4	373.34	5.1627e-06	5.0377e-06	425.64	142.54	123.87	42.829	5.1069e-06	52.934	137.197	-71.096	-93.735	-143.159	-83.660	-36.950	-144.390	-139.809	5.159	-36.061	-140.510	-136.718	-136.087	-130.891	-31.917	-131.546	-8191	255	
775.649	1	1	0	0	0.15549	0.097778	0.074118	0.31825	0.27863	0.23862	0.48941	0.29477	0.1978	0.26034	0.063298	0.083946	0.018184	0.10511	0.15983	0.07343	-3.3583	-3.0229	-3.3604	-3.5083	-3.0583	-3.5583	-3.6521	-3.0187	-3.6688	-3.1521	-3.4667	-3.6458	-2.9917	-3.4625	-3.3125	-3.1646	-135.586	101.768	134.468	167.521	1.805	155.871	121.206	126.147	172.603	140.839	3.557	170.695	143.377	104.218	145.470	148.947	0.00089536	0.00033791	0.00019612	1361.4	5.3291e-06	3.9679e-06	1348.4	368.19	4.1046e-06	3.1043e-06	418.54	140.12	122.33	41.598	5.3575e-06	51.492	0.00048769	0.00046617	0.00013111	1377.5	5.2254e-06	5.165e-06	1375.6	373.84	5.2226e-06	5.1983e-06	425.61	142.67	124.32	42.726	5.2193e-06	52.893	147.668	-47.684	-57.391	-144.418	-134.614	-72.392	-144.961	-140.153	-80.334	8.268	-140.556	-136.470	-135.939	-130.873	0.515	-131.786	-8191	255	
775.721	1	1	0	0	0.18158	0.31528	0.12911	0.28251	0.114	0.052612	0.31785	0.43479	0.11028	0.32794	0.051572	0.41933	0.19944	0.14959	0.25093	0.07254	-3.1708	-3.1437	-3.0917	-3.8312	-3.1083	-3.4104	-3.6917	-3.0563	-3.65	-3.1833	-3.3292	-3.6792	-2.9333	-3.4417	-3.1771	-3.2854	62.098	-83.987	-73.623	197.486	-14.542	25.235	97.216	175.575	-104.017	188.512	10.231	154.556	155.291	-86.003	-8.987	117.070	0.00080036	0.00042599	0.0001329	1366.4	7.1508e-06	2.5687e-06	1354.5	367.09	5.0553e-06	6.5333e-06	419.4	139.65	121.26	41.642	9.4638e-06	51.491	0.00048916	0.00047341	0.00013483	1379.5	5.3124e-06	5.219e-06	1376.6	373.49	5.2255e-06	5.2576e-06	425.89	142.49	123.96	42.764	5.2908e-06	52.892	137.408	-84.269	-133.075	-144.398	-49.218	-27.333	-144.804	-140.172	-82.771	-6.069	-140.437	-136.268	-135.816	-130.913	-18.672	-131.827	-8191	255	
775.840	1	1	0	0	0.10133	0.26356	0.20258	0.1549	0.083495	0.16546	0.01655	0.27422	0.038216	0.043445	0.21866	0.35856	0.24311	0.12948	0.14922	0.049161	-3.1937	-3.1125	-2.975	-3.75	-3	-3.4396	-3.7146	-3.0854	-3.5396	-3.1167	-3.2125	-3.7375	-3.0292	-3.4333	-3.6104	-3.0104	-76.822	-56.460	-11.574	107.664	86.660	94.180	-8.744	149.942	18.336	-99.033	82.659	160.761	149.309	-30.417	49.767	-115.813	0.00093644	0.00052071	0.00012287	1363.4	5.0348e-06	9.6059e-06	1357	367.34	4.1351e-06	4.4467e-06	415.16	139.35	120.79	41.64	4.9922e-06	51.473	0.00049082	0.00048071	0.00013581	1378.9	5.31e-06	5.247e-06	1378.1	373.71	5.2713e-06	5.2379e-06	425.76	142.59	123.77	42.767	5.3027e-06	53.026	141.408	-64.697	-35.130	-144.079	-66.024	-12.488	-144.377	-139.598	-51.111	30.064	-139.440	-135.980	-135.092	-130.010	5.187	-130.977	-8191	255	
775.936	1	1	0	0	0.11913	0.13625	0.15456	0.033638	0.083155	0.080018	0.28508	0.23131	0.21541	0.12655	0.3079	0.20121	0.23136	0.22893	0.35108	0.1357	-3.2812	-3.2771	-2.925	-3.925	-3.1042	-3.3708	-3.7604	-3.3104	-3.5146	-3.3958	-3.2771	-3.775	-3.1625	-3.2812	-3.7313	-3.15	-68.120	151.611	79.252	45.293	-5.346	135.514	115.372	127.550	109.169	128.608	176.530	193.149	-123.062	-151.186	-69.383	39.157	0.00083265	0.00070629	8.017e-05	1364.2	4.3535e-06	5.0858e-06	1351.6	367.2	2.8838e-06	1.6101e-06	418.57	140.05	121.29	41.814	5.6376e-06	51.324	0.00050192	0.00048131	0.00013733	1380	5.2404e-06	5.3541e-06	1376.6	373.71	5.2648e-06	5.3308e-06	426.46	142.71	123.81	42.919	5.3262e-06	52.91	138.989	-23.300	-146.777	-143.460	-93.861	-22.520	-143.778	-139.056	-20.499	-91.248	-139.867	-135.796	-135.385	-130.630	13.297	-130.597	-8191	255	
776.032	1	1	0	0	0.12807	0.21707	0.30404	0.2642	0.10321	0.25998	0.30607	0.23874	0.041334	0.24211	0.32206	0.16059	0.27137	0.21515	0.19684	0.15476	-2.9667	-3.4688	-3.0167	-3.8187	-3.225	-3.4	-3.7125	-3.2188	-3.4521	-3.5104	-3.1229	-3.7188	-3.0938	-3.2021	-3.5542	-3.1208	79.214	193.454	-156.441	101.483	-115.074	85.305	135.737	-100.090	-75.379	-89.658	191.517	-18.626	108.668	162.425	-139.049	122.449	0.00074447	0.00054394	7.5625e-05	1349.2	6.9345e-06	2.1723e-06	1345.3	365.49	8.3752e-06	5.4479e-06	415.11	139.05	121.34	41.638	6.2387e-06	51.267	0.00050134	0.00048834	0.00013723	1376.8	5.3125e-06	5.3438e-06	1376.1	373.17	5.4121e-06	5.3053e-06	425.53	142.41	123.87	42.804	5.3832e-06	52.932	146.843	-77.900	-12.280	-143.025	-65.537	-10.293	-143.326	-138.749	-55.861	42.986	-139.194	-135.675	-135.017	-130.235	45.574	-130.830	-8191	255	
776.128	1	1	0	0	0.12322	0.025444	0.15769	0.14863	0.24935	0.066993	0.10891	0.22385	0.21856	0.18239	0.049767	0.17766	0.11879	0.049883	0.096469	0.24979	-3.1125	-3.5229	-3.0563	-3.5833	-3.3208	-3.1583	-3.7771	-3.1458	-3.2083	-3.4917	-2.9833	-3.8042	-3.3875	-3.1792	-3.6229	-3.2188	62.543	156.419	-22.559	-121.286	51.945	78.412	154.778	145.800	-23.978	-30.062	126.932	179.021	-157.298	185.712	143.896	-152.133	0.0007672	0.00030382	0.00015077	1353.7	6.419e-06	2.709e-06	1355.8	367.76	3.1647e-06	4.2448e-06	416.43	140.83	121.39	41.707	7.5744e-07	51.266	0.00049786	0.00048865	0.00013744	1377.5	5.3719e-06	5.4059e-06	1377.9	373.91	5.4744e-06	5.3676e-06	425.92	143	123.92	42.784	5.3744e-06	52.839	151.925	-97.507	-48.541	-143.180	-51.835	8.911	-144.017	-139.462	-57.130	-9.064	-140.462	-136.756	-135.667	-130.831	52.324	-131.420	-8191	255	
776.224	1	1	0	0	0.3227	0.21101	0.17874	0.14391	0.16065	0.46283	0.19063	0.33683	0.14319	0.02015	0.17164	0.14348	0.12829	0.21587	0.046246	0.13492	-2.8312	-3.4938	-2.8438	-3.5542	-3.4104	-3.1542	-3.8958	-3.2812	-3.3542	-3.7729	-2.9875	-3.4958	-3.6083	-3.0375	-3.6958	-3.1104	97.840	-92.490	-48.798	185.741	169.032	155.511	164.820	131.478	134.924	-1.422	158.989	-114.147	-143.712	158.491	85.666	144.675	0.00067848	0.00077022	7.2167e-05	1355.7	3.0303e-06	4.839e-06	1349.8	365.76	3.4149e-06	5.7605e-06	413.85	138.56	120.94	41.559	6.5045e-06	51.556	0.00050171	0.00049337	0.00013614	1377.6	5.2924e-06	5.3575e-06	1377.1	373.63	5.3982e-06	5.3187e-06	425.37	142.27	123.9	42.766	5.348e-06	52.929	146.604	-68.068	-98.250	-143.475	-85.373	35.018	-143.608	-138.949	-47.481	-20.137	-139.069	-135.223	-134.276	-129.411	3.367	-130.332	-8191	255	
776.320	1	1	0	0	0.11397	0.087241	0.098101	0.31905	0.15174	0.15173	0.31042	0.41108	0.20552	0.18069	0.15307	0.12748	0.11586	0.10869	0.078049	0.3349	-2.9104	-3.6854	-3.1042	-3.4771	-3.5062	-3.0271	-3.8333	-3.3833	-3.3	-3.5667	-3.2792	-3.6292	-3.525	-3.0062	-3.7667	-3.4188	17.743	-33.765	-68.004	132.175	-110.601	29.311	167.341	147.935	116.561	58.109	178.536	-70.635	-53.836	81.508	61.379	-35.834	0.00078836	0.00062168	9.3642e-05	1356.5	4.398e-06	6.9515e-06	1354.8	366.52	4.5728e-06	1.8559e-06	417.1	139.49	120.92	41.455	1.5805e-06	51.364	0.00050986	0.00049529	0.00013861	1378.9	5.3762e-06	5.4834e-06	1378.1	373.5	5.5167e-06	5.4224e-06	425.79	142.64	123.91	42.741	5.3834e-06	52.931	146.908	-11.413	-18.650	-143.520	-89.255	-34.030	-143.657	-138.927	-25.141	30.180	-139.341	-135.712	-134.636	-129.651	33.003	-130.603	-8191	255	
776.417	1	1	0	0	0.24852	0.10032	0.08273	0.10297	0.18273	0.22664	0.2172	0.090824	0.12534	0.21914	0.10463	0.15283	0.16588	0.22005	0.078117	0.21387	-2.6958	-3.6813	-2.8167	-3.4833	-3.5625	-3.0271	-3.7938	-3.4667	-3.1437	-3.5646	-3.25	-3.3104	-3.8	-3.1229	-3.6562	-3.6312	39.621	23.670	-89.035	-134.277	-110.056	57.233	88.700	116.141	-115.490	66.230	110.277	-113.141	-46.217	-97.263	-13.962	180.474	0.0008614	0.00038125	0.00015333	1352.1	3.5821e-06	8.4604e-06	1351	365.09	5.9521e-06	5.2196e-06	416.28	138.83	121.83	41.352	5.247e-06	51.382	0.00051692	0.0005048	0.00013914	1375.9	5.5048e-06	5.5767e-06	1376.6	373.51	5.6228e-06	5.5759e-06	425.58	142.48	124.19	42.771	5.63e-06	52.98	143.998	-49.268	-71.048	-143.067	-76.330	12.496	-143.570	-138.778	-57.913	-11.007	-139.176	-135.342	-134.556	-129.891	-6.191	-130.719	-8191	255	
776.513	1	1	0	0	0.28795	0.1364	0.31917	0.24255	0.10234	0.21205	0.22879	0.067792	0.27492	0.072337	0.0777	0.067662	0.16965	0.08837	0.19049	0.25357	-2.7625	-3.6521	-3.2604	-3.4042	-3.75	-3.1375	-3.7646	-3.6208	-3.0896	-3.6896	-3.3375	-3.3396	-3.7021	-3.1229	-3.3958	-3.6208	-0.089	-105.003	-93.581	-90.084	76.241	-31.565	122.065	42.226	-33.754	151.828	2.846	163.320	-142.993	124.763	-156.473	98.901	0.00075381	0.0003268	0.00011115	1349.7	7.9982e-06	7.8416e-06	1347.5	364.99	7.3039e-06	6.1973e-06	415.48	139.24	120.93	41.655	4.0688e-06	51.504	0.00052726	0.00050932	0.00014431	1378.1	5.7727e-06	5.7136e-06	1378	374.12	5.8474e-06	5.8024e-06	426.1	142.84	124.01	42.867	5.825e-06	53.094	145.328	-50.767	-73.455	-143.141	-66.111	-22.826	-143.416	-138.796	-53.124	2.696	-139.094	-135.683	-135.046	-129.848	-47.589	-130.628	-8191	255	
776.633	1	1	0	0	0.025322	0.055359	0.21486	0.17607	0.12255	0.22874	0.21598	0.16205	0.090094	0.065967	0.14143	0.12896	0.12568	0.14968	0.069739	0.076379	-2.6875	-3.5208	-3.1479	-3.175	-3.6208	-2.9104	-3.5375	-3.7562	-2.9375	-3.6188	-3.3292	-3.1	-3.7167	-3.3083	-3.3542	-3.6896	23.722	187.090	170.536	199.229	-146.613	20.051	146.871	174.013	-15.308	144.257	166.185	192.346	-57.061	-150.589	26.294	44.932	0.00079582	0.00018641	0.0002401	1350.8	4.1159e-06	4.8871e-06	1341	363.46	9.5071e-06	6.7908e-06	412.68	138.74	120.97	41.2	8.8632e-06	51.045	0.00055111	0.00053249	0.00015014	1378.1	5.8834e-06	5.8498e-06	1375	373.82	5.9809e-06	5.8819e-06	425.58	142.7	124.2	42.805	5.9234e-06	53.059	152.303	-7.272	-20.644	-143.100	-68.904	-61.710	-143.327	-138.238	-47.657	-44.741	-138.632	-135.334	-134.424	-129.317	-5.662	-130.095	-8191	255	
776.728	1	1	0	0	0.12554	0.27969	0.22526	0.26502	0.20793	0.073737	0.098335	0.15352	0.15052	0.21831	0.032123	0.17172	0.080894	0.17842	0.059882	0.11116	-2.4979	-3.4333	-3.3896	-3.3375	-3.6979	-3.125	-3.5125	-3.8187	-3.1437	-3.4104	-3.3917	-3.1917	-3.6708	-3.2458	-3.2104	-3.7604	173.212	-77.760	26.727	179.757	137.033	106.774	101.790	-141.398	118.642	-143.361	197.795	-97.390	187.067	30.006	-101.126	152.134	0.00081426	0.00094129	0.00010298	1346.9	2.2868e-06	6.2044e-06	1344.5	366.17	4.7382e-06	4.5647e-06	413.86	138.64	120.68	41.453	2.7247e-06	51.34	0.00055795	0.00055052	0.00015228	1376.7	6.0152e-06	5.949e-06	1377	374.59	6.0321e-06	6.0414e-06	426.5	142.86	124.29	42.878	6.0916e-06	53.078	139.106	-55.675	-71.140	-142.863	-87.053	11.199	-143.524	-138.357	-36.227	35.376	-138.641	-135.015	-134.345	-129.928	-1.438	-130.455	-8191	255	
776.824	1	1	0	0	0.11499	0.1582	0.21251	0.16185	0.053467	0.25377	0.3733	0.127	0.35329	0.073556	0.10644	0.12807	0.20784	0.18325	0.15148	0.35369	-2.4667	-3.5958	-3.5687	-3.175	-3.6562	-3.0979	-3.4333	-3.7229	-3.0521	-3.5021	-3.6729	-3.125	-3.7729	-3.3396	-3.1604	-3.7167	-81.731	-84.025	159.454	138.263	13.963	52.348	180.999	106.057	-75.710	-36.661	-7.365	171.958	-145.114	58.242	33.331	-103.538	0.00084683	0.00022623	0.00013246	1350	8.6598e-06	4.8764e-06	1344.2	364.66	5.9407e-06	1.2623e-06	414.33	138.69	121.01	41.53	3.3865e-06	51.053	0.00055943	0.00055186	0.00015459	1378	6.1375e-06	6.123e-06	1376.9	374.3	6.072e-06	6.0722e-06	427.03	142.82	124.34	42.921	6.0766e-06	53.042	140.338	-37.069	-37.737	-142.870	-39.269	89.394	-143.349	-138.718	-40.727	59.183	-138.857	-135.217	-134.424	-129.736	0.306	-130.406	-8191	255	
776.920	1	1	0	0	0.056991	0.10772	0.10132	0.27666	0.074258	0.23959	0.30316	0.10951	0.098648	0.14561	0.13991	0.33534	0.19738	0.20332	0.06294	0.13914	-2.7938	-3.4208	-3.4042	-3.0125	-3.5542	-3.4188	-3.2479	-3.8375	-3.1646	-3.3479	-3.55	-3.0833	-3.6729	-3.525	-3.0625	-3.7479	-7.747	-64.384	24.901	198.010	-6.225	-19.589	130.799	172.611	85.355	119.067	92.133	143.540	108.566	157.539	-48.249	-112.472	0.00093879	0.00049147	0.00015618	1352.8	6.0899e-06	6.7693e-06	1345	365.32	1.0144e-05	1.1352e-06	416.77	139.44	121.84	41.659	7.1494e-06	51.518	0.00055715	0.0005526	0.00015603	1378.9	6.0301e-06	6.1095e-06	1377.1	374.32	6.0423e-06	6.0826e-06	426.94	142.96	124.47	42.895	6.0049e-06	53.155	141.232	-29.100	-62.550	-143.039	-84.371	-23.209	-143.593	-138.461	-50.727	-22.463	-139.481	-135.543	-134.850	-130.046	9.310	-130.959	-8191	255	
777.016	1	1	0	0	0.26189	0.0085682	0.12419	0.13315	0.079388	0.19085	0.21001	0.092835	0.23918	0.073015	0.18189	0.077249	0.024842	0.20045	0.11739	0.099783	-2.6854	-3.0583	-3.5208	-2.9771	-3.7083	-3.45	-3.2833	-3.7958	-3.2	-3.1333	-3.7	-3.2625	-3.3958	-3.4708	-3.0375	-3.8083	101.960	139.421	-117.657	-92.884	-76.411	62.360	195.212	10.757	70.546	131.465	108.472	62.253	183.634	-80.627	-5.433	-125.365	0.00093265	0.00073851	0.00016293	1363.9	1.1224e-05	2.4213e-06	1354.9	368.99	5.496e-06	1.2797e-06	419.04	140.3	122.29	41.794	9.2356e-06	51.51	0.00056299	0.00055583	0.00015641	1379.6	6.1209e-06	6.0723e-06	1378.1	375.13	6.0407e-06	6.1011e-06	427.8	143.14	124.85	42.97	6.1644e-06	53.134	146.783	-68.419	-54.170	-144.281	-55.005	-42.835	-144.491	-139.736	-68.938	27.450	-140.210	-136.516	-135.710	-130.603	-5.192	-131.579	-8191	255	
777.112	1	1	0	0	0.21299	0.11946	0.30198	0.42086	0.13003	0.22209	0.18708	0.068691	0.20155	0.34246	0.087251	0.11522	0.1071	0.17799	0.07764	0.074839	-2.6583	-3.0062	-3.6625	-3.1604	-3.3688	-3.4854	-3.1521	-3.6854	-3.2271	-3.3104	-3.6813	-3.0271	-3.4167	-3.6854	-2.8958	-3.6562	-96.145	37.162	-99.944	164.811	-87.307	-121.875	131.225	133.179	-112.393	49.855	-25.605	196.983	179.343	197.023	42.996	-51.021	0.00079615	0.0005145	0.00020338	1358.8	3.3209e-06	1.0891e-05	1358.4	368.25	7.7388e-06	6.3411e-06	419.97	139.45	121.64	41.719	4.0449e-06	51.341	0.00056287	0.00056524	0.00015441	1378.9	6.1048e-06	6.1613e-06	1379.8	374.94	6.1399e-06	6.2036e-06	428	143.07	124.55	42.983	6.1289e-06	53.168	147.191	-64.975	-105.949	-144.177	176.655	-11.811	-144.686	-139.691	-66.852	34.281	-139.888	-136.385	-135.892	-130.676	-78.246	-131.567	-8191	255	
777.233	1	1	0	0	0.10595	0.14426	0.15734	0.28453	0.025167	0.19938	0.24405	0.12491	0.051455	0.41251	0.27203	0.065431	0.20208	0.14138	0.033072	0.22772	-2.9854	-3.0062	-3.6542	-3.25	-3.3375	-3.5479	-3.1688	-3.5896	-3.4167	-3.0458	-3.8125	-3.0458	-3.2687	-3.6083	-2.8417	-3.4417	55.560	200.412	60.023	163.722	-5.646	-34.901	81.989	110.987	6.006	-90.291	196.924	182.529	129.985	183.124	-49.567	186.203	0.00077098	0.00061716	5.9935e-05	1361.5	1.737e-06	1.0659e-05	1356.2	367.94	5.0952e-06	3.9494e-06	417.56	140.63	121.91	41.832	6.8607e-06	51.5	0.00056276	0.00056101	0.00015534	1381	6.123e-06	6.136e-06	1379.8	374.46	6.1153e-06	6.1566e-06	426.68	143.3	124.46	43.024	6.0792e-06	53.178	149.452	-69.917	-36.518	-144.209	-11.025	-58.705	-144.467	-139.932	-51.026	11.885	-140.010	-136.557	-135.849	-131.041	-6.808	-131.573	-8191	255	
777.329	1	1	0	0	0.22345	0.11199	0.26358	0.22072	0.14776	0.23242	0.4169	0.26078	0.14641	0.12977	0.27597	0.29911	0.2774	0.062619	0.058433	0.27536	-3.0417	-2.975	-3.6813	-3.3979	-3.1521	-3.6063	-3.2917	-3.5417	-3.4896	-3.0438	-3.8458	-3.3479	-3.225	-3.7146	-2.9229	-3.5938	43.805	-130.413	-83.321	179.034	53.116	25.557	115.024	136.220	24.742	115.334	113.504	-155.188	-100.291	171.885	-28.294	156.483	0.00075932	0.00030863	8.4763e-05	1359.8	5.6372e-06	3.236e-06	1357	368.34	1.7367e-06	6.6464e-06	418.79	140.25	121.97	41.922	1.0101e-05	51.631	0.00057197	0.000567	0.00015604	1379.9	6.2153e-06	6.2089e-06	1379.5	374.7	6.1815e-06	6.29e-06	426.82	143.16	124.47	43.01	6.133e-06	53.141	143.692	-61.401	-81.430	-144.171	-54.552	-20.693	-144.722	-140.018	-64.006	-14.143	-140.368	-136.642	-135.972	-130.771	23.285	-131.535	-8191	255	
777.425	1	1	0	0	0.35895	0.053813	0.17564	0.49241	0.048124	0.092197	0.16356	0.22065	0.08899	0.1106	0.22396	0.25575	0.080972	0.22962	0.064069	0.2469	-3.1208	-2.9542	-3.5458	-3.4979	-3.1833	-3.9062	-3.3021	-3.55	-3.4667	-2.9021	-3.7208	-3.3438	-3.0729	-3.5979	-2.9417	-3.3958	180.186	41.847	40.279	165.820	-10.919	24.716	140.998	117.378	-75.935	-25.700	4.121	153.699	37.832	130.338	83.441	-106.981	0.0008019	0.0001149	0.00014025	1361.7	6.1954e-06	5.0015e-06	1353.7	369.42	3.2835e-06	5.6007e-06	416.67	139.89	121.81	41.91	5.3474e-06	51.307	0.00056764	0.00056544	0.00015583	1378.3	6.2701e-06	6.1934e-06	1377.3	375.03	6.2194e-06	6.1664e-06	427.15	143.06	124.49	43.037	6.2379e-06	53.106	148.228	-139.306	-59.403	-144.124	-89.263	10.385	-144.726	-140.042	-79.478	-23.449	-140.177	-136.597	-135.870	-130.956	-5.790	-131.642	-8191	255	
777.521	1	1	0	0	0.24688	0.10113	0.37356	0.4606	0.21045	0.29619	0.2131	0.14743	0.34134	0.21761	0.16099	0.17877	0.18852	0.1101	0.08775	0.10834	-3.1021	-2.8958	-3.4458	-3.4083	-3.0875	-3.6646	-3.1125	-3.3104	-3.4896	-2.9562	-3.6583	-3.35	-3.0938	-3.6771	-3.2021	-3.2438	28.315	140.853	84.267	135.978	-23.363	56.226	158.253	153.892	-66.500	-66.404	-150.172	27.569	139.931	16.541	104.788	179.910	0.00081593	0.00078566	0.00010269	1364.7	7.5636e-06	4.5356e-06	1354.9	368.24	5.4337e-06	4.1586e-06	417.65	140.88	121.87	41.814	7.4089e-06	51.538	0.00057363	0.00055613	0.00015898	1381.1	6.1718e-06	6.2032e-06	1377.9	374.94	6.1917e-06	6.1942e-06	427.23	143.45	124.37	43.08	6.1734e-06	53.217	149.071	-78.458	-30.576	-144.512	-15.053	-21.864	-144.778	-140.310	-26.669	28.680	-140.526	-136.650	-136.224	-130.819	-42.935	-131.676	-8191	255	
777.618	1	1	0	0	0.090618	0.050527	0.07252	0.36399	0.25408	0.19116	0.089933	0.25527	0.26222	0.19401	0.1987	0.18786	0.29302	0.21885	0.18533	0.16618	-3.2625	-2.9271	-3.4146	-3.5729	-3.1333	-3.6604	-3.4479	-3.1688	-3.4375	-3.1167	-3.4375	-3.5438	-3.0458	-3.6979	-3.2167	-3.1437	23.300	-15.790	37.764	134.504	72.843	-49.337	99.257	-142.986	149.591	78.223	182.808	24.002	149.434	164.023	-91.072	196.308	0.0008223	6.4716e-05	0.00022385	1360.1	3.5628e-06	4.3549e-06	1354	368.28	5.0729e-06	4.9393e-06	418.3	140.23	122.26	42.007	3.8453e-06	51.641	0.00057058	0.00055715	0.000158	1379.5	6.1019e-06	6.1664e-06	1377.9	374.73	6.1246e-06	6.1115e-06	427.79	143.37	124.56	43.009	6.1118e-06	53.232	149.299	193.587	-71.303	-144.353	-107.197	7.719	-144.850	-140.157	-67.780	4.601	-140.546	-136.649	-136.170	-130.945	-49.588	-131.924	-8191	255	
#DATA ENDS
