BOXY.EXE: ISS Imagent and Oximeter Data Acquisition Program Version 0.80
Ascii Record File

#ACQ INFORMATION
2  Detector Channels 
16  External MUX Channels 
1  Auxiliary Channels 
5000  Waveform (CCF) Frequency (Hz)
1  Waveforms Skipped 
30  Waveforms Averaged 
1  Cycles Averaged 
16  Acquisitions per Waveform 
10.0806  Updata Rate (Hz) 

#FILE INFORMATION
TRUE -- External MUX Channel results are PARSED.
FALSE -- AC DC and Phase are NOT grouped.
TRUE -- Companion Program Settings File CREATED.
FALSE -- AC data not excluded
FALSE -- DC data not excluded
FALSE -- Phase data not excluded
FALSE -- Auxillary Chn. data not excluded
Tab delimiters

#CALIBRATION STATE
TRUE -- Waveform Calibration Values APPLIED.


#AUX CALIBRATION VALUES
Val Type	aux-1	

Term	1.0000e+00	
Factor	0.0000e+00	


#WF CALIBRATION VALUES
A = Detector Channel
Val Type	A-AC1	A-AC2	A-AC3	A-AC4	A-AC5	A-AC6	A-AC7	A-AC8	A-AC9	A-AC10	A-AC11	A-AC12	A-AC13	A-AC14	A-AC15	A-AC16	A-DC1	A-DC2	A-DC3	A-DC4	A-DC5	A-DC6	A-DC7	A-DC8	A-DC9	A-DC10	A-DC11	A-DC12	A-DC13	A-DC14	A-DC15	A-DC16	A-Ph1	A-Ph2	A-Ph3	A-Ph4	A-Ph5	A-Ph6	A-Ph7	A-Ph8	A-Ph9	A-Ph10	A-Ph11	A-Ph12	A-Ph13	A-Ph14	A-Ph15	A-Ph16	

Term	0.00000e+00	0.00000e+00	0.00000e+00	0.00000e+00	0.00000e+00	0.00000e+00	0.00000e+00	0.00000e+00	0.00000e+00	0.00000e+00	0.00000e+00	0.00000e+00	0.00000e+00	0.00000e+00	0.00000e+00	0.00000e+00	0.00000e+00	0.00000e+00	0.00000e+00	0.00000e+00	0.00000e+00	0.00000e+00	0.00000e+00	0.00000e+00	0.00000e+00	0.00000e+00	0.00000e+00	0.00000e+00	0.00000e+00	0.00000e+00	0.00000e+00	0.00000e+00	0.00000e+00	0.00000e+00	0.00000e+00	0.00000e+00	0.00000e+00	0.00000e+00	0.00000e+00	0.00000e+00	0.00000e+00	0.00000e+00	0.00000e+00	0.00000e+00	0.00000e+00	0.00000e+00	0.00000e+00	0.00000e+00	
Factor	1.00000e+00	1.00000e+00	1.00000e+00	1.00000e+00	1.00000e+00	1.00000e+00	1.00000e+00	1.00000e+00	1.00000e+00	1.00000e+00	1.00000e+00	1.00000e+00	1.00000e+00	1.00000e+00	1.00000e+00	1.00000e+00	1.00000e+00	1.00000e+00	1.00000e+00	1.00000e+00	1.00000e+00	1.00000e+00	1.00000e+00	1.00000e+00	1.00000e+00	1.00000e+00	1.00000e+00	1.00000e+00	1.00000e+00	1.00000e+00	1.00000e+00	1.00000e+00	X	X	X	X	X	X	X	X	X	X	X	X	X	X	X	X	

B = Detector Channel
Val Type	B-AC1	B-AC2	B-AC3	B-AC4	B-AC5	B-AC6	B-AC7	B-AC8	B-AC9	B-AC10	B-AC11	B-AC12	B-AC13	B-AC14	B-AC15	B-AC16	B-DC1	B-DC2	B-DC3	B-DC4	B-DC5	B-DC6	B-DC7	B-DC8	B-DC9	B-DC10	B-DC11	B-DC12	B-DC13	B-DC14	B-DC15	B-DC16	B-Ph1	B-Ph2	B-Ph3	B-Ph4	B-Ph5	B-Ph6	B-Ph7	B-Ph8	B-Ph9	B-Ph10	B-Ph11	B-Ph12	B-Ph13	B-Ph14	B-Ph15	B-Ph16	

Term	0.00000e+00	0.00000e+00	0.00000e+00	0.00000e+00	0.00000e+00	0.00000e+00	0.00000e+00	0.00000e+00	0.00000e+00	0.00000e+00	0.00000e+00	0.00000e+00	0.00000e+00	0.00000e+00	0.00000e+00	0.00000e+00	0.00000e+00	0.00000e+00	0.00000e+00	0.00000e+00	0.00000e+00	0.00000e+00	0.00000e+00	0.00000e+00	0.00000e+00	0.00000e+00	0.00000e+00	0.00000e+00	0.00000e+00	0.00000e+00	0.00000e+00	0.00000e+00	-1.85345e+02	-1.23737e+02	-1.11857e+02	-1.80493e+02	-1.02631e+02	-7.18909e+01	-1.55190e+02	-1.62015e+02	-8.30239e+01	-6.30682e+01	-1.71086e+02	-1.70392e+02	-1.81065e+02	-1.76742e+02	-5.60175e+01	-1.49283e+02	
Factor	3.45794e-05	1.28973e-04	3.64895e-05	1.78598e-01	1.50782e-06	1.48164e-06	1.55936e-01	4.98493e-02	1.25560e-06	1.27048e-06	8.53734e-02	2.92799e-02	2.65120e-02	9.74353e-03	1.48999e-06	1.28900e-02	2.28479e-06	2.43523e-06	6.78434e-07	9.15091e-02	2.64387e-08	2.67660e-08	7.53430e-02	2.56481e-02	2.64425e-08	2.67481e-08	4.24034e-02	1.45225e-02	1.36176e-02	5.01221e-03	2.65546e-08	6.42646e-03	X	X	X	X	X	X	X	X	X	X	X	X	X	X	X	X	



#DISTANCE SETTINGS
A = Detector Channel
A-1	A-2	A-3	A-4	A-5	A-6	A-7	A-8	A-9	A-10	A-11	A-12	A-13	A-14	A-15	A-16	

2.5000e+00	3.0000e+00	2.5000e+00	3.0000e+00	2.0000e+00	3.0000e+00	1.5000e+00	3.0000e+00	3.0000e+00	3.0000e+00	3.0000e+00	3.0000e+00	3.0000e+00	3.0000e+00	1.5000e+00	3.0000e+00	

B = Detector Channel
B-1	B-2	B-3	B-4	B-5	B-6	B-7	B-8	B-9	B-10	B-11	B-12	B-13	B-14	B-15	B-16	

1.0000e+01	1.0000e+01	1.0000e+01	1.4400e+00	1.0000e+01	1.0000e+01	1.5100e+00	1.9400e+00	1.0000e+01	1.0000e+01	1.9900e+00	2.4900e+00	2.4100e+00	2.9000e+00	1.0000e+01	2.9800e+00	




#DATA BEGINS
time	group	step	mark	flag	A-AC1	A-AC2	A-AC3	A-AC4	A-AC5	A-AC6	A-AC7	A-AC8	A-AC9	A-AC10	A-AC11	A-AC12	A-AC13	A-AC14	A-AC15	A-AC16	A-DC1	A-DC2	A-DC3	A-DC4	A-DC5	A-DC6	A-DC7	A-DC8	A-DC9	A-DC10	A-DC11	A-DC12	A-DC13	A-DC14	A-DC15	A-DC16	A-Ph1	A-Ph2	A-Ph3	A-Ph4	A-Ph5	A-Ph6	A-Ph7	A-Ph8	A-Ph9	A-Ph10	A-Ph11	A-Ph12	A-Ph13	A-Ph14	A-Ph15	A-Ph16	B-AC1	B-AC2	B-AC3	B-AC4	B-AC5	B-AC6	B-AC7	B-AC8	B-AC9	B-AC10	B-AC11	B-AC12	B-AC13	B-AC14	B-AC15	B-AC16	B-DC1	B-DC2	B-DC3	B-DC4	B-DC5	B-DC6	B-DC7	B-DC8	B-DC9	B-DC10	B-DC11	B-DC12	B-DC13	B-DC14	B-DC15	B-DC16	B-Ph1	B-Ph2	B-Ph3	B-Ph4	B-Ph5	B-Ph6	B-Ph7	B-Ph8	B-Ph9	B-Ph10	B-Ph11	B-Ph12	B-Ph13	B-Ph14	B-Ph15	B-Ph16	aux-1	digaux	

1330.866	1	1	0	256	0.085212	0.097457	0.19764	0.19409	0.089791	0.044592	0.29446	0.11087	0.11018	0.29194	0.19151	0.3605	0.087233	0.17889	0.031518	0.24213	-2.9708	-3.3792	-2.8333	-3.5062	-3.1083	-2.9562	-3.5271	-2.9771	-3.2583	-3.4771	-2.8354	-3.4333	-3.3812	-2.9708	-3.5396	-3.0042	35.530	-45.080	149.016	-68.538	248.406	-36.857	156.789	-74.031	243.002	-53.142	-84.947	-41.255	15.301	-55.052	126.448	216.560	0.00013431	0.00034762	9.3477e-05	209.65	3.3313e-06	1.4509e-06	319.36	69.583	1.7276e-06	2.7746e-06	129.1	59.47	34.141	12.834	3.2694e-06	23.541	0.00015348	0.00014179	4.2647e-05	211.04	1.5348e-06	1.7327e-06	317.96	70.142	1.6646e-06	1.6194e-06	129.17	59.243	34.325	13.012	1.6473e-06	23.647	138.860	34.148	90.893	-73.520	5.816	74.211	-75.726	-67.680	25.712	47.966	-71.658	-67.107	-64.315	-59.093	-16.361	-62.285	-8191	255	
1330.987	1	1	0	0	0.12624	0.032256	0.064478	0.13569	0.18661	0.18194	0.055767	0.031267	0.046411	0.20481	0.070152	0.10016	0.15749	0.1652	0.07173	0.23969	-2.6583	-3.4437	-2.9021	-3.4208	-3.2313	-2.8688	-3.6208	-3.0417	-2.9708	-3.6396	-2.9562	-3.2854	-3.3563	-2.8792	-3.6958	-3.2042	138.507	26.710	1.444	27.211	175.988	110.801	61.975	179.081	269.331	-13.220	178.668	150.965	45.493	274.679	-15.492	133.638	0.00013766	0.00033517	3.187e-05	210.1	4.5169e-06	2.0457e-06	317.6	68.953	4.1141e-06	1.2783e-06	129.12	59.411	34.231	12.981	3.6704e-06	23.611	0.00015562	0.00014748	4.2196e-05	211.3	1.5605e-06	1.746e-06	317.19	69.943	1.6898e-06	1.656e-06	129.01	59.373	34.464	13.027	1.6322e-06	23.71	103.134	-3.803	41.016	-73.936	78.329	56.749	-76.117	-67.192	18.589	28.254	-71.010	-66.981	-64.654	-59.252	126.831	-62.367	-8191	255	
1331.083	1	1	0	0	0.041756	0.21418	0.030733	0.17432	0.16946	0.15376	0.059663	0.088465	0.094396	0.16056	0.29062	0.23747	0.26864	0.038888	0.16108	0.17589	-2.6688	-3.425	-2.8708	-3.1771	-3.3667	-2.7542	-3.4167	-3.0396	-2.9333	-3.5667	-2.825	-3.0938	-3.1458	-2.8917	-3.3833	-3.2646	203.975	183.393	267.983	-11.534	160.258	262.666	132.610	147.096	249.136	126.947	222.170	207.187	-40.525	119.779	69.922	61.914	0.00014829	0.00022958	3.2653e-05	211.18	3.3795e-06	1.131e-06	315.57	68.41	2.947e-06	2.9153e-06	128.55	59.657	34.15	12.837	2.1578e-06	23.868	0.00015653	0.00015399	4.0842e-05	211.03	1.6004e-06	1.705e-06	316.37	69.567	1.6956e-06	1.6005e-06	129.1	59.603	34.519	13.025	1.688e-06	23.811	103.944	-2.176	185.295	-73.649	13.670	76.641	-75.048	-66.307	-21.614	102.660	-70.027	-67.442	-65.184	-59.243	23.933	-62.323	-8191	255	
1331.179	1	1	0	0	0.18019	0.11199	0.1086	0.063906	0.060602	0.10957	0.19279	0.20918	0.22618	0.083341	0.16502	0.38441	0.018475	0.087139	0.083756	0.13894	-2.7146	-3.6188	-2.9688	-3.1646	-3.35	-2.8479	-3.4292	-3.35	-2.9292	-3.4396	-2.9104	-2.9542	-3.4562	-2.825	-3.0938	-3.1958	-50.995	225.850	69.486	252.628	233.803	-73.854	219.689	120.915	134.383	-40.353	120.877	-63.075	-35.916	155.850	76.308	191.051	0.00014786	0.00020805	2.7122e-05	211.21	3.1744e-06	3.0048e-06	318.48	69.484	6.5686e-07	1.6697e-06	130.17	60.013	34.256	13.077	1.1954e-06	23.889	0.00016084	0.00014835	3.9992e-05	211.23	1.6057e-06	1.7119e-06	317.71	69.96	1.7505e-06	1.6664e-06	129.86	60.181	34.483	13.104	1.668e-06	23.997	111.032	75.023	58.509	-74.408	43.226	104.127	-75.435	-67.178	235.167	84.659	-71.306	-67.134	-65.063	-59.005	68.870	-62.667	-8191	255	
1331.251	1	1	0	0	0.28141	0.079222	0.42087	0.15569	0.098931	0.082869	0.18142	0.10868	0.2213	0.14177	0.091586	0.27098	0.12917	0.1163	0.19915	0.15912	-2.5167	-3.4521	-3.0917	-3.1104	-3.5458	-2.7438	-3.3375	-3.3417	-3.0708	-3.4979	-3.2729	-3	-3.2729	-2.8979	-3.1104	-3.2687	16.754	62.943	142.660	-17.181	190.375	-17.600	193.094	156.255	82.289	194.679	-38.957	143.949	-7.797	269.098	248.414	132.438	0.00014106	0.0001699	3.323e-05	210.62	4.0239e-06	4.3905e-06	320.95	69.491	1.4515e-06	6.7584e-07	128.61	58.691	33.61	12.782	2.0235e-06	23.69	0.00015964	0.00015163	3.9491e-05	211.48	1.6126e-06	1.6918e-06	318.12	70.082	1.7033e-06	1.6412e-06	128.02	58.939	34.143	12.989	1.6586e-06	23.604	136.526	51.273	-32.314	-74.663	24.827	58.368	-75.592	-67.224	139.326	173.398	-70.966	-66.799	-64.621	-59.104	86.157	-62.350	-8191	255	
1331.370	1	1	0	0	0.060312	0.24495	0.25851	0.11323	0.20315	0.064966	0.28142	0.11375	0.18241	0.15254	0.22148	0.22742	0.17143	0.1252	0.12957	0.17549	-2.3875	-3.3417	-3.0875	-2.8771	-3.575	-3.025	-3.0625	-3.2667	-2.8479	-3.2938	-3.3458	-2.9771	-3.525	-2.8771	-3.1063	-3.4271	25.063	35.523	225.409	143.318	272.551	148.724	174.020	201.621	141.290	11.782	88.180	-49.404	152.322	205.659	16.863	-18.489	0.0001412	0.00026209	3.0918e-05	212.35	1.4485e-06	1.2458e-06	316.58	69.585	1.9202e-06	3.8479e-06	127.39	59.551	34.001	12.853	3.6625e-06	23.498	0.0001638	0.00015842	4.0392e-05	212.04	1.6923e-06	1.6564e-06	317.76	69.828	1.7227e-06	1.6618e-06	127.46	59.182	34.334	12.96	1.6999e-06	23.493	127.852	14.594	51.639	-74.463	-2.911	5.436	-75.464	-67.341	6.255	107.776	-71.054	-67.240	-64.680	-58.950	44.753	-62.590	-8191	255	
1331.466	1	1	0	0	0.082076	0.096871	0.31013	0.18839	0.1367	0.035873	0.2665	0.10688	0.19431	0.073779	0.29268	0.2093	0.111	0.18267	0.16813	0.26257	-2.5583	-3.4958	-3.2021	-3.0104	-3.525	-3.1292	-3.0521	-3.4771	-2.8312	-3.375	-3.3333	-2.8208	-3.3542	-2.9479	-2.9062	-3.5604	-59.465	113.097	141.524	236.564	190.905	-7.797	248.163	263.010	257.358	-60.043	161.147	244.902	102.654	171.408	62.243	83.975	0.00017743	0.00023924	3.3805e-05	208.7	1.1396e-06	2.3058e-06	315.89	69.011	5.8228e-07	2.642e-06	128.4	59.592	34.235	12.868	3.8351e-06	23.828	0.00016015	0.0001553	4.1034e-05	211.86	1.6636e-06	1.6081e-06	317.59	69.85	1.673e-06	1.6745e-06	127.89	59.405	34.438	13	1.723e-06	23.726	131.151	23.471	64.018	-74.223	3.181	51.721	-75.132	-67.144	21.450	82.303	-71.018	-67.850	-65.697	-59.551	97.380	-62.935	-8191	255	
1331.562	1	1	0	0	0.078012	0.076221	0.13736	0.14392	0.13648	0.080888	0.18382	0.11926	0.30033	0.023627	0.1536	0.15969	0.022964	0.16003	0.22576	0.2104	-2.5062	-3.1396	-3.2604	-2.6937	-3.2896	-3.1042	-3.0187	-3.5771	-2.8417	-3.1792	-3.2583	-2.7375	-3.3979	-3.0958	-3.0375	-3.3479	274.296	27.818	79.125	76.533	120.306	255.119	-51.156	130.186	30.178	210.156	71.797	224.139	243.320	98.634	42.728	117.408	0.00017454	0.00014298	7.4599e-05	210.16	1.3784e-06	2.1479e-06	319.82	70.272	1.1081e-06	1.5252e-06	129.87	60.563	34.411	12.987	3.1191e-06	23.969	0.00016108	0.0001526	4.1485e-05	210.28	1.6451e-06	1.5637e-06	318.4	70.064	1.6766e-06	1.6908e-06	128.55	59.853	34.591	13.012	1.7294e-06	23.875	127.714	-7.474	32.759	-73.977	254.007	-8.195	-76.353	-67.477	12.084	136.289	-71.036	-67.578	-65.344	-59.292	30.189	-63.032	-8191	255	
1331.682	1	1	0	0	0.066744	0.28297	0.14101	0.20515	0.081486	0.45673	0.18796	0.20758	0.13327	0.21437	0.24153	0.0084413	0.22876	0.29537	0.32254	0.15602	-2.3063	-2.9	-3.4125	-2.6583	-3.3812	-3.075	-2.7938	-3.4104	-2.8083	-3.1458	-3.6229	-2.65	-3.3208	-3.1146	-2.9771	-3.5042	-80.289	-53.308	135.192	216.613	268.649	40.746	173.538	10.215	58.098	-82.210	-43.922	41.521	84.982	247.316	194.242	-75.270	0.00017445	0.00018228	0.00012317	209.32	1.2352e-06	4.6265e-06	322.95	70.369	1.8702e-06	2.8854e-06	127.88	58.64	33.973	12.728	7.2435e-07	23.649	0.00015737	0.00015567	4.141e-05	210.23	1.6657e-06	1.591e-06	319.83	70.091	1.6545e-06	1.7164e-06	127.18	58.741	34.084	12.934	1.7221e-06	23.513	114.883	-41.218	-1.706	-74.308	81.412	81.897	-76.287	-67.729	134.833	84.240	-71.170	-67.282	-64.800	-59.565	-26.505	-62.970	-8191	255	
1331.779	1	1	0	0	0.18076	0.12151	0.1787	0.13011	0.11549	0.15945	0.027223	0.15403	0.077031	0.28262	0.035818	0.064237	0.2113	0.13732	0.20162	0.27699	-2.6437	-3.2333	-3.3312	-2.6188	-3.0896	-3.1417	-2.7146	-3.4375	-2.8979	-3	-3.3187	-2.6146	-3.0167	-3.2438	-2.7125	-3.2292	267.174	153.809	-15.583	76.968	-11.455	258.197	271.332	-38.709	229.867	101.111	41.976	246.695	-85.640	-3.947	247.751	222.277	0.00013076	0.00030667	1.773e-05	212.08	9.6423e-07	3.9389e-06	320.72	69.543	1.9427e-06	2.6262e-06	127.54	59.447	34.124	12.874	1.7445e-06	23.662	0.0001532	0.00015623	4.2594e-05	211.05	1.6362e-06	1.6268e-06	318.72	69.781	1.5846e-06	1.7459e-06	127.59	58.855	34.171	12.941	1.7392e-06	23.589	146.636	8.442	12.107	-74.451	89.413	115.191	-76.192	-67.737	80.712	135.395	-70.696	-67.113	-65.586	-59.265	75.460	-62.584	-8191	255	
1331.850	1	1	0	0	0.13537	0.25237	0.33032	0.083821	0.094732	0.059322	0.16638	0.085269	0.024892	0.1421	0.31224	0.15279	0.18522	0.17814	0.18914	0.044547	-2.5938	-2.6771	-3.3667	-2.7125	-3.0396	-3.1667	-2.6521	-3.2792	-3.0833	-2.9833	-3.2417	-2.7292	-3.0208	-3.2771	-2.6937	-3.5604	215.296	114.954	-32.264	220.572	89.869	239.970	37.764	67.288	-44.878	117.242	108.797	233.505	-33.450	-75.104	-40.719	-59.390	0.00017131	0.00019167	8.0369e-05	206.77	1.6207e-06	9.603e-07	318.48	69.012	1.6288e-06	1.6571e-06	125.88	59.126	33.675	12.794	2.3303e-06	23.459	0.00015015	0.00016128	4.2898e-05	209.1	1.6973e-06	1.635e-06	317.48	69.613	1.5742e-06	1.7507e-06	126.92	59.159	34.249	12.96	1.6989e-06	23.577	113.628	44.097	16.975	-73.935	-43.756	76.880	-75.601	-66.883	65.594	165.953	-70.136	-66.654	-64.468	-58.586	142.859	-62.052	-8191	255	
1331.971	1	1	0	0	0.19262	0.068217	0.36459	0.070309	0.16124	0.26563	0.037176	0.13679	0.063484	0.19572	0.082223	0.22757	0.11311	0.20929	0.12381	0.17057	-2.9333	-2.8417	-3.45	-2.8604	-3.0729	-3.3125	-2.8083	-3.3125	-3.1896	-2.8979	-3.2979	-2.9167	-2.8438	-3.5042	-2.85	-3.3979	24.633	82.706	220.767	262.414	-42.118	3.386	145.867	123.623	3.680	99.013	-74.963	225.931	248.911	190.319	20.033	262.297	0.00016094	0.00027093	8.1046e-05	207.95	2.6153e-07	5.9187e-07	320.59	68.695	1.2097e-06	9.9861e-07	128.09	59.074	33.992	12.737	2.0208e-06	23.716	0.00015245	0.00016203	4.2551e-05	209.3	1.6888e-06	1.6598e-06	320.09	69.53	1.597e-06	1.7712e-06	128.53	59.47	34.37	13.006	1.6917e-06	23.761	106.979	143.956	-16.961	-73.819	162.816	61.914	-75.210	-66.744	262.453	190.874	-70.592	-66.982	-64.490	-58.413	36.538	-61.806	-8191	255	
1332.067	1	1	0	0	0.070689	0.0855	0.13065	0.13626	0.22716	0.054333	0.16414	0.047178	0.16826	0.1259	0.33316	0.18848	0.124	0.23041	0.27631	0.16695	-2.9333	-2.9375	-3.5687	-2.9875	-3	-3.3583	-2.7812	-3.0333	-3.1542	-2.7542	-3.4729	-3.0083	-2.8833	-3.2854	-2.7417	-3.1542	114.992	-21.477	269.058	-38.931	17.292	-48.567	115.611	136.945	144.083	10.133	222.951	-68.181	-41.983	-48.094	201.146	125.450	9.1056e-05	0.00032426	7.2327e-05	207.01	2.8636e-06	3.542e-06	319.12	69.721	1.2188e-06	3.0402e-06	126.4	58.73	33.597	12.844	3.8723e-06	23.302	0.00015462	0.00016343	4.2312e-05	210.07	1.7446e-06	1.6491e-06	319.57	69.97	1.6483e-06	1.7407e-06	126.81	58.614	34.036	12.951	1.6503e-06	23.341	125.829	-19.395	-29.810	-73.690	59.173	28.876	-75.148	-67.109	256.829	100.638	-70.918	-67.206	-64.470	-59.476	91.221	-62.667	-8191	255	
1332.163	1	1	0	0	0.096035	0.2282	0.29461	0.20566	0.14235	0.16483	0.16115	0.12353	0.23382	0.14991	0.090263	0.063942	0.22756	0.21241	0.06738	0.011509	-2.9167	-2.6979	-3.4042	-3.0833	-3.0917	-3.5104	-2.8667	-3.0354	-3.2583	-2.5667	-3.3083	-3.2812	-2.85	-3.3229	-2.9542	-2.9229	69.612	68.032	-40.974	127.333	196.147	-7.447	149.813	8.304	213.906	220.463	57.847	30.925	129.914	142.609	159.724	86.273	9.4369e-05	0.00027231	1.8308e-05	208.94	1.9518e-06	2.2414e-06	319.11	69.887	9.1674e-07	2.3722e-06	126.08	59.335	34.234	12.895	4.0187e-06	23.426	0.00015918	0.00015895	4.2018e-05	209.77	1.7492e-06	1.6806e-06	318.42	69.848	1.6405e-06	1.7208e-06	126.28	58.884	34.137	12.866	1.621e-06	23.475	105.455	59.285	26.795	-73.992	-30.131	35.908	-75.691	-67.929	-15.819	94.141	-70.930	-67.417	-65.538	-59.409	112.215	-63.198	-8191	255	
1332.282	1	1	0	0	0.25618	0.040989	0.10052	0.27069	0.20371	0.099084	0.17707	0.050321	0.12478	0.093635	0.2511	0.049797	0.036638	0.16923	0.23291	0.058168	-3.1063	-2.7917	-3.2812	-3.2083	-2.925	-3.5438	-2.9188	-2.9104	-3.3604	-2.7354	-3.2354	-3.1958	-2.675	-3.3312	-2.9375	-3.0062	275.126	209.924	52.157	148.179	198.268	81.197	-40.124	-62.106	186.128	87.338	261.196	235.242	103.899	262.874	124.038	140.197	0.00021926	0.00034884	6.9276e-05	207.85	1.1757e-06	2.3292e-06	318.03	68.555	1.2199e-06	7.3785e-07	126.79	59.306	33.581	12.733	1.4403e-06	23.455	0.00015601	0.00015109	4.2272e-05	208.58	1.7381e-06	1.6704e-06	318.22	69.44	1.6157e-06	1.6838e-06	126.33	59.054	33.977	12.912	1.5995e-06	23.541	135.254	-12.036	48.988	-74.518	142.586	41.000	-75.662	-66.784	58.360	239.644	-70.499	-66.599	-64.833	-59.191	169.815	-62.422	-8191	255	
1332.378	1	1	0	0	0.036193	0.32943	0.1787	0.050789	0.10433	0.036075	0.11638	0.26759	0.2694	0.23352	0.33394	0.052699	0.13693	0.060998	0.15616	0.15394	-3.1958	-2.8833	-3.2708	-3.3	-2.7104	-3.425	-3.1979	-2.9708	-3.5604	-3.1146	-3.3812	-3.2938	-2.8792	-3.4437	-3.0292	-2.8104	-70.337	228.064	108.300	72.576	124.724	-34.067	98.511	174.845	100.787	40.676	-70.381	208.154	177.967	22.282	240.350	237.431	0.00015531	0.00012478	2.3264e-05	206.55	2.182e-06	2.6777e-06	320.81	69.353	8.0537e-07	1.6703e-06	128.1	59.732	33.716	12.847	1.9057e-06	23.546	0.00015607	0.00015166	4.3216e-05	208.31	1.7605e-06	1.635e-06	319.67	69.869	1.6906e-06	1.6522e-06	127.81	59.401	34.098	12.923	1.6373e-06	23.697	124.947	0.594	135.558	-73.880	4.244	51.454	-75.639	-67.737	221.462	129.465	-70.958	-67.051	-65.018	-59.449	83.844	-62.594	-8191	255	
1332.474	1	1	0	0	0.13368	0.20375	0.021224	0.1251	0.11357	0.15776	0.16378	0.26773	0.22475	0.19553	0.2446	0.19841	0.074166	0.1154	0.21374	0.12285	-2.9854	-2.8812	-3.1792	-3.225	-2.7104	-3.3417	-3.0854	-2.7333	-3.4354	-2.7812	-2.9771	-3.1958	-2.6729	-3.275	-3.3521	-2.5042	141.577	104.173	68.974	112.537	217.925	195.745	132.888	-78.578	-83.990	65.962	197.267	119.708	129.305	-8.759	89.997	-22.375	0.00014478	0.00025213	4.8814e-05	209.12	1.0719e-06	3.2765e-06	322.52	69.595	4.0192e-06	2.1794e-06	127.23	59.486	33.687	12.827	3.4399e-06	23.401	0.00015716	0.00014807	4.4158e-05	210.03	1.7133e-06	1.6436e-06	320.8	69.776	1.6835e-06	1.5978e-06	126.45	58.452	33.876	12.857	1.6716e-06	23.326	117.878	18.676	28.707	-74.056	31.737	-5.691	-75.562	-68.030	134.080	35.044	-71.142	-67.664	-65.248	-59.444	83.021	-63.131	-8191	255	
1332.546	1	1	0	0	0.31234	0.11691	0.033576	0.096113	0.10064	0.065966	0.16014	0.082972	0.069794	0.15306	0.33216	0.21575	0.16099	0.16595	0.16566	0.17377	-2.8646	-2.8187	-2.8542	-3.5	-2.8	-3.2562	-3.2583	-2.7	-3.3063	-2.8625	-3.05	-3.5021	-2.8729	-3.1396	-3.3125	-2.7167	-34.165	224.017	0.071	19.148	171.704	-9.173	241.835	112.333	81.770	56.905	244.577	71.305	21.499	152.567	61.839	40.688	0.00012314	0.00031336	2.6848e-05	209.29	4.4662e-06	1.7406e-06	321.87	69.271	1.1997e-06	8.2189e-07	125.49	58.891	33.299	12.683	2.3382e-06	23.393	0.00015753	0.00014724	4.4897e-05	209.83	1.6734e-06	1.6768e-06	319.64	69.428	1.6484e-06	1.6145e-06	125.09	58.579	33.546	12.844	1.6401e-06	23.355	165.666	-6.298	29.854	-74.608	-20.578	42.524	-75.929	-67.405	81.428	22.773	-71.160	-67.595	-64.588	-59.853	-16.460	-62.437	-8191	255	
1332.667	1	1	0	0	0.11805	0.13427	0.12753	0.22881	0.096576	0.26051	0.034488	0.092719	0.19961	0.19557	0.026975	0.18123	0.13553	0.10566	0.078677	0.12655	-3.1896	-3.0792	-2.7375	-3.525	-2.6708	-3.0833	-3.3187	-2.9083	-3.2938	-2.9104	-2.7562	-3.2479	-2.7771	-2.9604	-3.4292	-2.7625	99.799	-28.753	181.806	70.355	-55.284	129.509	68.699	25.216	221.614	-38.069	48.594	-10.438	26.499	-0.956	50.786	42.620	0.00013177	0.00010201	0.00016732	204.53	3.5846e-06	1.6931e-06	318.13	68.521	1.6561e-06	9.2932e-07	125.88	59.246	33.706	12.782	3.1149e-06	23.434	0.00015726	0.00014623	4.4189e-05	208.39	1.6114e-06	1.7362e-06	318.79	69.151	1.6201e-06	1.6758e-06	126.07	58.919	33.811	12.871	1.6471e-06	23.463	120.946	-35.546	29.244	-74.155	65.062	132.384	-75.301	-67.796	38.757	75.571	-70.858	-67.486	-64.597	-59.352	75.280	-62.760	-8191	255	
1332.763	1	1	0	0	0.11335	0.15424	0.098812	0.30422	0.15281	0.090628	0.16416	0.077153	0.12806	0.013228	0.13458	0.14289	0.22313	0.11868	0.19948	0.18006	-3.0354	-3.0479	-2.8792	-3.4875	-2.9437	-3.0396	-3.3937	-2.8063	-3.35	-3.2313	-2.6396	-3.4313	-3.0479	-3.225	-3.4292	-2.8271	-16.560	-3.952	24.524	47.903	25.176	236.991	231.366	55.262	250.486	-74.391	132.176	12.274	259.943	105.164	-37.523	120.752	0.00012592	0.00014203	6.7045e-05	208.89	3.4524e-06	2.0539e-06	320.61	69.515	8.3094e-07	2.4459e-06	125.62	58.728	33.39	12.708	7.6531e-07	23.392	0.00015024	0.00015088	4.4812e-05	208.53	1.6057e-06	1.7375e-06	320.3	69.817	1.7103e-06	1.665e-06	126.54	58.903	33.729	12.886	1.6458e-06	23.422	126.333	-41.892	-7.349	-74.424	-43.832	7.313	-75.461	-67.241	221.941	59.146	-70.671	-66.802	-64.494	-59.039	117.839	-62.237	-8191	255	
1332.859	1	1	0	0	0.041811	0.12489	0.27921	0.019246	0.064005	0.057254	0.049053	0.21929	0.13246	0.068726	0.15758	0.36509	0.14183	0.10685	0.10538	0.27034	-2.6667	-3.3063	-2.7479	-3.4021	-2.8896	-2.9354	-3.5625	-3.0604	-3.2396	-3.4583	-2.6729	-3.2583	-2.9396	-2.8625	-3.2125	-2.7833	35.051	224.695	22.346	-21.489	184.040	187.046	118.846	10.283	-81.027	263.777	19.370	252.472	181.259	119.610	153.879	145.871	0.00020053	0.00021735	8.7396e-05	208.53	3.1102e-06	8.83e-07	322.67	68.805	4.9666e-07	9.0509e-07	125.03	58.275	33.147	12.52	1.7097e-06	22.855	0.00016161	0.0001511	4.5089e-05	209.06	1.5945e-06	1.7801e-06	320.09	69.114	1.7227e-06	1.6399e-06	124.46	57.861	33.381	12.728	1.6454e-06	23.011	103.809	61.142	84.799	-73.948	-17.165	-3.781	-75.619	-67.941	123.553	64.958	-71.024	-67.750	-65.014	-59.813	25.598	-62.736	-8191	255	
1332.955	1	1	0	0	0.21438	0.20279	0.14985	0.25175	0.10861	0.27581	0.28341	0.21733	0.24298	0.05833	0.068425	0.26495	0.14714	0.039884	0.018137	0.14687	-2.8021	-3.3208	-2.6688	-3.15	-3.2042	-2.9104	-3.4208	-2.9292	-3.2167	-3.5292	-2.65	-3.3021	-3.1021	-2.8187	-3.5083	-3.0396	-52.597	17.723	79.687	89.054	193.159	22.451	236.953	127.431	253.141	234.231	255.400	174.354	-75.912	225.715	-21.921	-61.656	0.00022588	0.00013614	0.00010473	204.88	4.7774e-06	3.2469e-06	317.84	68.606	1.5391e-06	1.1207e-06	123.28	58.048	33.072	12.511	1.4843e-06	23.034	0.00015906	0.00015003	4.2638e-05	206.39	1.6568e-06	1.7673e-06	317.37	68.897	1.695e-06	1.6422e-06	123.59	57.674	33.252	12.699	1.6327e-06	23.083	127.793	-13.118	21.920	-74.117	-4.113	18.573	-75.988	-67.416	67.752	107.362	-70.465	-67.512	-64.827	-58.983	70.220	-62.420	-8191	255	
1333.076	1	1	0	0	0.20923	0.25319	0.17133	0.28956	0.031857	0.088309	0.31353	0.21363	0.17409	0.28414	0.076351	0.22309	0.20702	0.08964	0.17588	0.11647	-2.5917	-3.4167	-2.8063	-3.4458	-3.2542	-2.8979	-3.4583	-2.9896	-3.1271	-3.475	-2.6458	-3.0417	-3.1583	-2.6688	-3.425	-3.0958	70.258	111.219	-35.610	119.052	177.578	225.620	164.237	209.540	139.887	35.793	-69.621	-79.087	238.804	-60.953	44.877	206.505	0.00013809	0.00035171	8.4523e-05	204.27	9.8522e-07	3.5497e-06	319.86	69.031	2.3469e-06	2.6363e-06	125.16	58.893	33.353	12.689	2.3169e-06	23.321	0.00016691	0.00014978	4.2631e-05	206.48	1.653e-06	1.7456e-06	317.34	68.869	1.7584e-06	1.6339e-06	124.1	58.318	33.535	12.753	1.6271e-06	23.34	120.495	-9.919	-10.632	-74.038	38.207	46.888	-76.181	-67.623	34.600	102.449	-71.260	-67.772	-64.931	-59.072	90.126	-62.285	-8191	255	
1333.147	1	1	0	0	0.11519	0.17679	0.045857	0.24319	0.2373	0.29845	0.177	0.20903	0.068908	0.058999	0.2032	0.22234	0.090684	0.05325	0.049576	0.25534	-2.6729	-3.3854	-2.8979	-3.0479	-3.0208	-2.7667	-3.5042	-2.8833	-2.7896	-3.5146	-2.8667	-3.2083	-3.4458	-2.7625	-3.3667	-3.0187	198.230	121.642	55.408	226.594	211.351	129.090	222.052	213.952	169.000	-78.277	268.276	-16.018	-43.089	62.444	161.879	227.431	0.00014072	0.00019848	5.8197e-05	206.59	3.186e-06	7.3009e-07	319.16	69.615	1.3118e-06	3.4899e-06	125.73	58.856	33.25	12.668	6.2794e-07	23.404	0.00016271	0.00015062	4.1831e-05	207.67	1.633e-06	1.748e-06	319.11	69.441	1.7964e-06	1.6557e-06	124.66	58.595	33.558	12.803	1.6198e-06	23.325	135.254	-27.469	-32.854	-74.261	101.583	-84.548	-76.168	-67.360	-52.569	85.214	-71.232	-67.509	-64.733	-59.490	168.552	-62.717	-8191	255	
1333.244	1	1	0	0	0.23048	0.26641	0.096583	0.15821	0.13191	0.11271	0.20489	0.017169	0.26618	0.17895	0.061368	0.28063	0.08801	0.20612	0.17695	0.20587	-2.2896	-3.3667	-2.5875	-3.0521	-3.3438	-2.6375	-3.2812	-3.2	-2.875	-3.4437	-2.8771	-2.8917	-3.3979	-2.7417	-3.3312	-3.3688	23.940	-41.400	-16.407	271.303	63.679	-66.059	121.441	138.263	-17.957	203.442	-63.747	164.082	256.315	227.052	13.724	68.272	0.00016865	0.00013698	7.401e-05	209.04	5.608e-07	9.1913e-07	320.42	68.831	2.9746e-07	2.8424e-06	123.12	57.901	32.705	12.466	1.7062e-06	23.16	0.00016288	0.00014761	4.1163e-05	208.9	1.6546e-06	1.6753e-06	319.19	69.189	1.7665e-06	1.6094e-06	122.75	57.284	33.006	12.6	1.6626e-06	22.891	123.118	-22.909	10.694	-74.544	89.047	107.781	-76.111	-67.395	0.261	65.513	-70.925	-67.283	-65.311	-59.060	247.591	-63.098	-8191	255	
1333.364	1	1	0	0	0.2897	0.06378	0.27871	0.1257	0.077058	0.15057	0.044318	0.20006	0.19721	0.178	0.28911	0.25085	0.14263	0.13274	0.27596	0.096882	-2.3042	-3.4708	-2.7812	-2.8896	-3.35	-2.5542	-3.1271	-3.3625	-2.8	-3.15	-3.0375	-2.9917	-3.5771	-3.0687	-3.1896	-3.2854	177.116	-57.754	182.949	259.552	175.770	92.775	261.797	243.418	208.843	4.422	-10.716	86.423	26.515	-74.110	-23.156	77.510	0.00016741	0.0001229	7.2372e-05	207.04	2.9876e-06	1.5674e-06	320.37	68.805	1.0167e-06	7.566e-07	123.64	58.015	33.287	12.624	1.8433e-06	23.166	0.00016223	0.00015088	4.0081e-05	208.3	1.6401e-06	1.6394e-06	317.36	69.031	1.7333e-06	1.6301e-06	122.84	57.651	33.308	12.685	1.6898e-06	23.069	118.089	261.023	37.476	-74.008	38.667	-28.931	-75.857	-67.976	-23.743	92.467	-70.973	-67.793	-65.598	-59.732	5.026	-62.896	-8191	255	
1333.459	1	1	0	0	0.24486	0.20789	0.053837	0.18544	0.21312	0.13365	0.31566	0.064602	0.033232	0.16212	0.16888	0.10119	0.088621	0.024305	0.10932	0.098126	-2.2938	-3.4896	-3.0625	-2.6542	-3.2958	-3.0146	-3.2687	-3.3438	-2.6792	-3.2667	-2.9708	-2.7417	-3.5438	-2.7521	-3.1958	-3.3604	-35.377	-84.188	-60.684	-26.503	-78.479	-82.565	194.787	173.538	117.707	202.170	156.746	148.769	-38.775	224.935	22.352	-41.404	0.00013269	0.00024001	6.3482e-05	209.47	4.5419e-06	1.6375e-06	320.26	68.594	1.1029e-06	1.1993e-06	124.38	58.416	33.586	12.623	2.5075e-06	23.311	0.00016281	0.0001506	4.1006e-05	208.08	1.635e-06	1.6051e-06	318.18	69.28	1.669e-06	1.6104e-06	123.62	58.067	33.495	12.721	1.7568e-06	23.227	106.365	-31.015	22.920	-74.442	-18.671	193.938	-76.455	-67.468	88.361	25.972	-71.535	-67.710	-65.281	-59.429	70.331	-62.524	-8191	255	
1333.555	1	1	0	0	0.15371	0.25294	0.10216	0.081478	0.18757	0.2105	0.16224	0.22727	0.11788	0.1205	0.086971	0.152	0.015134	0.1497	0.14775	0.2781	-2.5521	-3.3021	-3.1854	-2.6646	-3.4437	-2.8187	-2.7646	-3.1875	-2.5896	-3.4042	-3.2646	-2.8063	-3.3937	-2.7792	-2.9958	-3.3521	115.414	62.218	155.810	-72.389	100.817	105.022	232.704	-33.813	18.610	31.328	0.136	181.798	92.859	133.988	76.125	226.171	0.00011836	0.00025296	8.9591e-05	206.28	1.2218e-06	1.7446e-06	320.76	69.276	1.651e-06	1.4977e-06	124.23	58.553	33.217	12.568	2.9123e-06	23.084	0.00015474	0.00015116	4.2103e-05	207.35	1.62e-06	1.6449e-06	318.42	69.346	1.6769e-06	1.6864e-06	123.92	58.183	33.429	12.694	1.7642e-06	23.091	117.588	-16.710	-26.450	-74.795	129.285	58.959	-76.085	-67.413	178.468	150.707	-70.858	-67.466	-65.378	-59.440	107.047	-62.588	-8191	255	
1333.651	1	1	0	0	0.21112	0.097624	0.038993	0.098086	0.051956	0.099484	0.067944	0.073128	0.1646	0.21833	0.065338	0.23124	0.12176	0.21279	0.24274	0.19918	-2.3646	-3.2521	-3.3688	-2.775	-3.3542	-2.9917	-2.8104	-3.3563	-2.7917	-3.1104	-3.5458	-2.825	-3.4896	-3.2604	-2.7708	-3.5646	87.977	107.252	211.480	235.986	182.527	147.246	-22.772	-45.315	29.147	-60.204	235.522	191.990	-69.447	218.091	6.407	139.040	0.00012243	0.00010593	0.00011739	205.55	3.0817e-06	1.8705e-06	314.46	68.811	1.4778e-06	4.0232e-07	121.29	57.029	32.653	12.524	2.9697e-06	22.822	0.00015349	0.00015609	4.2231e-05	207.69	1.6303e-06	1.6144e-06	315.99	68.946	1.6011e-06	1.7176e-06	121.71	57	32.973	12.61	1.7891e-06	22.757	106.949	98.387	-9.785	-73.642	34.204	123.970	-75.621	-66.894	-60.910	227.454	-71.078	-67.479	-64.826	-59.366	56.706	-62.829	-8191	255	
1333.747	1	1	0	0	0.10938	0.18475	0.21923	0.17246	0.15229	0.066637	0.07294	0.091296	0.21532	0.037555	0.090377	0.1996	0.10498	0.17912	0.18555	0.24641	-2.5438	-3.0812	-3.2625	-2.8979	-3.4896	-3.1667	-2.8396	-3.4542	-3.0375	-3.0458	-3.2458	-2.7438	-3.1312	-3.1063	-2.675	-3.3521	215.791	-42.019	81.333	193.719	-10.495	-49.288	65.134	-33.017	162.936	68.242	44.878	13.682	267.592	-73.225	147.808	-16.399	0.00013066	0.00029483	5.2584e-05	206.48	1.5923e-06	3.1244e-06	314.72	68.183	1.4057e-07	3.056e-06	122.18	57.689	32.94	12.294	1.1458e-06	22.841	0.00015057	0.0001591	4.1509e-05	207.64	1.645e-06	1.6186e-06	315.21	68.756	1.6205e-06	1.7401e-06	122.08	57.417	33.243	12.548	1.7465e-06	22.834	138.493	-12.730	35.114	-74.213	50.977	32.571	-75.538	-67.218	16.573	32.619	-71.070	-67.499	-65.515	-58.514	74.718	-62.694	-8191	255	
1333.843	1	1	0	0	0.30939	0.20017	0.15844	0.1455	0.098907	0.1258	0.1788	0.095458	0.12656	0.33279	0.13703	0.20245	0.11683	0.16679	0.15498	0.0083358	-2.5625	-2.8646	-3.3875	-2.8792	-3.3375	-3.2521	-2.9062	-3.4833	-3.0708	-2.9938	-3.3583	-2.7271	-3.1833	-3.2208	-2.5646	-3.1688	164.512	-13.794	153.352	118.335	-62.241	118.038	62.970	187.329	60.628	227.792	203.945	10.203	240.092	217.226	266.266	53.255	0.00015818	0.00016855	3.5799e-05	203.93	1.6335e-07	9.1717e-07	317.32	68.624	2.362e-06	1.8565e-06	123	58.14	33.062	12.475	2.5933e-06	22.986	0.00015354	0.00015614	4.2556e-05	206.56	1.7197e-06	1.6464e-06	316.11	69.048	1.6388e-06	1.7595e-06	123.13	57.614	33.446	12.624	1.7274e-06	23.073	143.117	35.208	4.098	-73.874	201.983	34.301	-75.764	-67.751	9.200	46.359	-70.080	-66.801	-64.812	-59.563	75.107	-62.743	-8191	255	
1333.964	1	1	0	0	0.11706	0.088571	0.19167	0.0086213	0.14057	0.084434	0.16481	0.1757	0.12546	0.13796	0.33565	0.30055	0.13744	0.061916	0.10916	0.32918	-2.4562	-2.8688	-3.3187	-2.8417	-3.1958	-3.4292	-2.6396	-3.5167	-2.9396	-2.9083	-3.2792	-2.7687	-3.0417	-3.3146	-2.8729	-3.4104	58.842	199.885	-9.088	-71.405	255.525	125.068	181.776	248.483	182.439	-23.554	-59.576	190.308	-39.049	154.094	62.854	201.143	0.00012159	0.00017511	0.00010518	206.48	2.8755e-06	2.6751e-06	318.28	68.244	2.9921e-06	6.4749e-07	123.6	57.806	33.075	12.51	6.3119e-07	22.828	0.00015363	0.00015917	4.074e-05	207.13	1.7218e-06	1.6032e-06	317.64	68.879	1.6253e-06	1.7468e-06	123.51	57.667	33.388	12.667	1.7127e-06	22.874	121.346	52.567	-26.321	-73.710	25.949	8.909	-76.111	-67.443	26.101	165.666	-70.813	-67.787	-65.112	-58.910	33.865	-62.549	-8191	255	
1334.060	1	1	0	0	0.082125	0.19909	0.081674	0.32541	0.26975	0.12989	0.10347	0.091506	0.11855	0.21737	0.13743	0.14147	0.38771	0.062005	0.1329	0.13678	-2.775	-2.8812	-3.3375	-2.6667	-2.9771	-3.4333	-2.6271	-3.2875	-3.2729	-2.9521	-3.4875	-2.7729	-2.8208	-3.2313	-2.5792	-3.1333	-51.162	257.038	179.768	260.606	143.107	-0.085	248.050	-69.569	163.894	67.451	-4.109	225.204	212.506	124.259	222.260	229.791	0.00017159	0.0002501	7.5386e-05	205.25	4.0273e-06	3.3615e-06	319.18	67.84	1.3432e-06	1.1842e-06	121.04	56.738	32.61	12.572	4.932e-07	22.678	0.00015415	0.0001625	4.0617e-05	207.4	1.7542e-06	1.6682e-06	315.56	68.35	1.6293e-06	1.7417e-06	120.67	56.509	32.998	12.609	1.65e-06	22.637	128.233	-17.175	30.109	-74.093	19.715	61.358	-75.889	-67.389	81.794	-26.588	-70.755	-67.098	-65.097	-59.318	67.735	-62.435	-8191	255	
1334.156	1	1	0	0	0.074704	0.30136	0.12672	0.05144	0.32025	0.19575	0.37717	0.15499	0.16583	0.19154	0.047268	0.29521	0.037673	0.058617	0.19585	0.14345	-2.8479	-2.8667	-3.5687	-2.9562	-2.9313	-3.3271	-2.8479	-3.3104	-3.3375	-2.9104	-3.3792	-3.0583	-2.8729	-3.4792	-2.7833	-3.1979	-68.109	15.825	270.162	155.455	105.505	86.551	132.098	-39.612	267.992	130.886	60.850	220.527	234.862	-35.851	11.033	25.028	0.0001388	0.00010992	6.6624e-05	205.51	2.9446e-06	1.8835e-06	313.1	67.411	2.8966e-06	1.9005e-06	119.41	57.001	32.772	12.328	1.2051e-06	22.778	0.00015582	0.00015974	4.0057e-05	207.07	1.7004e-06	1.6655e-06	314.14	68.347	1.6497e-06	1.6943e-06	120.78	56.632	33.11	12.566	1.6341e-06	22.796	125.164	3.054	60.318	-74.480	-36.770	158.309	-75.614	-67.163	-15.286	14.986	-69.972	-66.931	-64.990	-59.168	42.752	-62.833	-8191	255	
1334.251	1	1	0	0	0.2047	0.1007	0.11883	0.094131	0.023135	0.25558	0.12828	0.23821	0.10573	0.24024	0.1376	0.20315	0.11474	0.10505	0.095509	0.136	-2.8458	-2.8979	-3.5083	-3.0583	-2.7979	-3.3937	-2.8583	-3.1417	-3.2917	-2.8312	-3.4688	-3.1583	-2.6708	-3.4188	-2.7771	-2.9646	54.972	17.840	49.167	91.196	155.539	42.550	148.997	128.271	45.904	54.849	55.313	77.019	170.572	236.767	-64.006	71.575	0.00015117	0.00017695	0.00010368	207.64	1.2772e-06	2.7777e-06	315.54	67.652	2.292e-06	3.2724e-06	124.3	58.096	33.375	12.592	1.907e-06	22.912	0.00015167	0.00015403	4.2477e-05	208.2	1.7177e-06	1.6222e-06	315.39	68.418	1.6478e-06	1.642e-06	122.14	57.441	33.375	12.613	1.632e-06	22.933	102.052	-27.716	84.031	-73.579	203.267	-84.921	-76.082	-67.602	-66.463	87.729	-71.221	-67.522	-65.927	-59.827	85.284	-62.477	-8191	255	
1334.371	1	1	0	0	0.066271	0.28517	0.39224	0.18386	0.12176	0.12369	0.20157	0.084944	0.21398	0.044446	0.1193	0.14317	0.072551	0.087573	0.13555	0.16146	-3.1146	-2.7792	-3.1437	-3.0479	-2.825	-3.4354	-3	-3.0771	-3.3958	-2.6146	-3.1333	-3.1458	-2.8625	-3.4292	-2.9062	-3.2146	-71.481	181.091	244.238	-60.225	167.840	100.181	186.743	-68.210	77.192	76.245	221.878	182.094	123.001	66.172	-77.021	29.546	0.00012572	0.00030102	0.00011343	208.45	1.3923e-06	1.5232e-06	321.32	68.024	5.6148e-07	1.602e-06	122.15	57.106	32.937	12.454	2.415e-06	22.59	0.00015231	0.00015047	4.2895e-05	208.93	1.7048e-06	1.6289e-06	318.17	68.867	1.5886e-06	1.6557e-06	122.52	57.06	33.265	12.597	1.6381e-06	22.732	149.287	6.942	67.362	-74.915	-83.722	4.876	-76.329	-67.721	165.757	13.719	-71.033	-67.364	-64.560	-59.189	-0.390	-62.688	-8191	255	
1334.443	1	1	0	0	0.12192	0.070409	0.16164	0.13727	0.17497	0.17096	0.11835	0.26851	0.11912	0.17628	0.16613	0.11962	0.21497	0.12293	0.095815	0.098568	-2.9646	-2.8396	-3.2896	-3.1188	-2.5187	-3.2854	-2.9104	-2.8917	-3.3792	-2.9938	-3.2438	-3.3917	-2.7833	-3.4813	-3.1583	-2.7854	94.047	219.275	51.754	145.055	61.065	229.748	85.076	28.457	33.603	-48.118	-71.578	-84.180	-8.507	148.796	252.691	174.096	0.00022373	0.0003449	7.952e-05	208.22	2.8725e-06	1.7414e-06	315.95	67.273	2.6447e-06	2.5194e-06	121.11	56.685	32.767	12.291	2.7514e-06	22.352	0.00015169	0.00015185	4.393e-05	208.57	1.6668e-06	1.6739e-06	315.94	68.308	1.6362e-06	1.6381e-06	120.34	56.266	32.968	12.454	1.5848e-06	22.386	124.540	-43.872	12.899	-73.978	-7.352	14.222	-76.046	-67.264	43.493	70.105	-71.042	-67.589	-65.123	-59.559	-14.869	-63.177	-8191	255	
1334.539	1	1	0	0	0.15598	0.12157	0.11636	0.18664	0.23423	0.16293	0.24625	0.14841	0.051067	0.10782	0.11585	0.042308	0.11848	0.16088	0.12781	0.22148	-2.8833	-2.8729	-3.0542	-3.1417	-2.675	-3.2146	-2.9667	-2.9583	-3.4542	-3.0625	-3.0187	-3.5563	-2.7687	-3.2833	-3.1604	-2.7333	-35.554	165.699	117.129	-28.863	79.045	61.005	45.831	90.897	143.337	149.969	226.471	-69.993	257.278	240.734	70.562	132.284	0.00016785	7.639e-05	9.7066e-05	207.69	6.8076e-07	4.0256e-06	315.7	67.469	1.4211e-06	4.8112e-07	121.78	57.023	33.038	12.359	1.6563e-06	22.577	0.00015415	0.00015209	4.2959e-05	208.19	1.6294e-06	1.6798e-06	313.47	67.893	1.6565e-06	1.6115e-06	121.06	56.717	33.19	12.523	1.622e-06	22.555	130.491	10.075	29.864	-74.168	-11.790	62.700	-75.777	-67.450	241.303	104.532	-71.121	-67.635	-64.650	-58.832	124.202	-62.633	-8191	255	
1334.635	1	1	0	0	0.074011	0.097572	0.097915	0.26211	0.12008	0.11576	0.35452	0.1265	0.093991	0.40104	0.252	0.17523	0.14193	0.28858	0.087126	0.078775	-2.9604	-3.0833	-3.0062	-3.4104	-2.7958	-3.3125	-3.4208	-2.8125	-3.55	-2.9396	-3.0729	-3.45	-2.7854	-3.2188	-3.1708	-2.7375	207.118	43.863	15.217	-45.803	201.665	42.644	226.498	-63.826	-73.530	210.582	208.984	255.872	100.540	21.565	193.553	-11.021	0.00013383	0.00044996	3.9572e-05	208.1	3.2483e-06	3.5616e-06	313.07	66.931	1.7103e-06	1.4546e-06	122.42	57.097	32.841	12.354	1.4816e-06	22.796	0.00015474	0.00015005	4.4429e-05	208.18	1.6195e-06	1.7373e-06	313.14	68.124	1.6608e-06	1.6291e-06	121.96	56.985	33.138	12.502	1.6336e-06	22.647	126.296	42.371	149.707	-74.631	51.963	49.042	-75.276	-67.184	-65.141	133.787	-71.564	-67.249	-63.977	-59.202	-75.457	-62.742	-8191	255	
1334.731	1	1	0	0	0.13273	0.18193	0.18582	0.09433	0.15442	0.12754	0.090703	0.10749	0.089914	0.18614	0.070128	0.19938	0.18881	0.080234	0.1178	0.11436	-3.0854	-3.0792	-3.0292	-3.5646	-3.0646	-3.0958	-3.5375	-2.8563	-3.2625	-2.9667	-2.6458	-3.475	-3.05	-3.1542	-3.4854	-2.7729	268.443	53.083	259.829	132.365	-81.111	38.667	22.258	2.261	152.463	163.657	68.189	159.738	171.717	126.911	270.551	-46.350	0.00013774	0.00023994	5.9922e-05	207.99	1.7164e-06	6.9423e-07	316.23	67.293	3.2665e-06	8.0806e-07	122.01	56.512	32.454	12.294	4.6002e-06	22.275	0.00016051	0.00014759	4.4104e-05	208.54	1.6341e-06	1.7158e-06	315.87	67.869	1.6559e-06	1.5858e-06	121.97	56.412	32.803	12.474	1.6437e-06	22.386	134.883	-49.886	205.606	-73.946	50.901	141.628	-75.324	-67.281	32.879	154.275	-71.082	-67.011	-64.801	-58.577	71.767	-62.364	-8191	255	
1334.852	1	1	0	0	0.30465	0.27487	0.27896	0.12541	0.29681	0.25366	0.29954	0.085236	0.090008	0.22717	0.074562	0.10852	0.12782	0.048891	0.096705	0.066745	-2.8875	-2.95	-2.8542	-3.4875	-2.675	-3.1396	-3.5896	-2.6917	-3.3396	-3.3104	-2.6896	-3.4354	-2.85	-2.9313	-3.2125	-2.6083	151.069	18.118	-37.519	1.113	-32.339	194.896	161.444	210.721	-70.945	65.718	-81.737	15.313	207.950	82.685	186.476	-58.666	0.00012207	0.00012437	2.5655e-05	207.03	2.6501e-06	3.2878e-06	315.95	66.513	1.0728e-06	1.6576e-06	119.8	55.824	32.204	12.273	1.9748e-06	22.233	0.00016003	0.00015261	4.4531e-05	208.38	1.6359e-06	1.7408e-06	314.08	67.675	1.686e-06	1.6188e-06	120.1	55.851	32.692	12.431	1.5989e-06	22.271	113.784	20.547	210.307	-74.329	45.434	93.105	-75.506	-66.638	2.131	-50.589	-70.433	-66.954	-64.667	-59.371	73.228	-62.426	-8191	255	
1334.948	1	1	0	0	0.19052	0.041505	0.12765	0.23502	0.11029	0.17839	0.21288	0.16707	0.22019	0.036452	0.098649	0.10218	0.2432	0.062519	0.10284	0.23555	-2.7833	-3.1854	-2.8667	-3.5521	-3.3083	-3.0604	-3.3792	-2.9958	-3.2292	-3.35	-2.7583	-3.3354	-2.9958	-3.0938	-3.4771	-2.9021	65.757	84.252	63.223	-56.869	102.090	57.942	166.383	163.499	59.751	61.416	105.847	164.191	245.630	221.425	175.140	222.898	0.00010706	0.00012399	0.00012709	205.64	2.5197e-06	3.7962e-06	313.52	67.034	3.9729e-06	1.6045e-07	120.35	56.365	32.587	12.278	2.6485e-06	22.296	0.00015707	0.00014633	4.3539e-05	207.66	1.6152e-06	1.7088e-06	313.07	67.649	1.7223e-06	1.6307e-06	120.48	56.448	32.92	12.417	1.6056e-06	22.355	110.350	-6.631	-12.270	-73.864	81.899	13.711	-75.851	-67.222	37.702	61.832	-70.488	-67.394	-64.948	-59.381	264.703	-62.692	-8191	255	
1335.044	1	1	0	0	0.17827	0.18308	0.24858	0.090531	0.040097	0.087903	0.15142	0.31366	0.099704	0.20064	0.20346	0.11649	0.11542	0.31996	0.1135	0.21279	-2.6792	-3.3104	-2.9042	-3.3604	-3.175	-2.9625	-3.4396	-3.0021	-2.9792	-3.3583	-2.5979	-3.3146	-3.1813	-2.7208	-3.6063	-2.9333	235.418	56.900	177.084	-82.871	-80.891	198.490	-39.185	192.333	109.156	-61.344	164.581	251.944	252.555	157.140	-27.307	3.040	0.00011717	0.00010223	6.4738e-05	206.74	5.3754e-07	2.9734e-06	315.51	67.087	3.2375e-06	1.1016e-06	122.29	57.11	32.868	12.405	2.0353e-06	22.64	0.00016382	0.00014678	4.1418e-05	207.79	1.605e-06	1.7223e-06	314.12	68.003	1.7585e-06	1.6401e-06	121.59	56.751	33.14	12.514	1.6468e-06	22.545	142.079	198.434	46.018	-73.471	94.616	-19.247	-75.997	-66.994	89.595	3.764	-71.449	-67.189	-65.320	-59.566	-37.480	-62.340	-8191	255	
1335.140	1	1	0	0	0.25898	0.041875	0.45617	0.093013	0.13324	0.14813	0.07911	0.18863	0.25879	0.054543	0.19636	0.22839	0.29518	0.11392	0.23454	0.15828	-2.5229	-3.3917	-2.8208	-3.425	-3.1583	-2.8563	-3.5292	-2.7521	-2.9375	-3.3646	-2.5771	-3.0771	-3.1521	-2.6021	-3.3833	-2.9562	96.928	60.878	44.972	41.610	164.432	185.026	198.923	49.891	182.927	-19.964	26.114	-57.898	-40.813	-53.783	130.988	67.818	0.0001387	6.9833e-05	7.2749e-05	206.15	4.2068e-08	1.6102e-06	316.77	67.915	1.4962e-06	3.984e-06	120.9	56.632	32.821	12.348	3.1451e-06	22.348	0.00016298	0.00014691	4.3489e-05	209.1	1.6473e-06	1.7014e-06	316.21	68.301	1.765e-06	1.5385e-06	121.31	56.357	33	12.452	1.7151e-06	22.332	114.425	109.866	58.596	-74.009	203.292	-9.245	-75.694	-67.577	45.337	99.026	-71.072	-67.875	-65.060	-59.807	22.904	-62.625	-8191	255	
1335.237	1	1	0	0	0.12919	0.16522	0.024868	0.087301	0.088465	0.073443	0.13839	0.14136	0.22572	0.080385	0.048945	0.072243	0.28592	0.25871	0.087182	0.29051	-2.5646	-3.2313	-2.7896	-3.1979	-3.1354	-2.7542	-3.3521	-2.9	-2.8896	-3.3563	-2.6688	-3.1896	-3.2292	-2.7792	-3.4833	-2.9854	205.720	42.209	136.891	197.161	149.914	168.701	209.950	203.112	194.922	248.631	68.447	-59.025	117.302	159.797	218.596	218.217	0.00015965	0.00025203	7.7522e-05	209.47	1.9659e-06	2.6945e-06	315.4	68.46	4.4437e-06	1.6332e-07	121.02	56.129	32.744	12.415	1.5209e-06	22.286	0.00016041	0.00014737	4.2713e-05	209.03	1.6084e-06	1.6821e-06	313.57	68.046	1.7413e-06	1.6192e-06	120.03	55.72	32.948	12.4	1.6675e-06	22.146	110.739	33.609	-28.227	-74.647	47.389	39.157	-76.082	-68.164	8.076	-28.790	-71.104	-67.787	-65.201	-59.409	44.554	-63.308	-8191	255	
1335.333	1	1	0	0	0.11678	0.079358	0.16274	0.17224	0.056545	0.08124	0.088581	0.085969	0.1254	0.22642	0.090495	0.13154	0.063541	0.082372	0.13992	0.19674	-2.4125	-3.3937	-2.6646	-3.0875	-3.4417	-2.925	-3.3688	-3.2458	-3.0021	-3.2625	-2.8688	-2.9542	-3.2792	-2.5687	-3.2604	-3.1333	125.585	106.385	199.875	44.812	21.083	77.301	21.938	204.667	51.441	101.515	107.201	93.108	215.104	-44.806	116.285	262.719	9.2683e-05	0.00017049	0.00014001	207.11	1.4076e-06	3.2356e-06	312.75	68.227	2.6195e-06	3.5718e-06	121.02	56.323	32.909	12.23	2.705e-06	22.394	0.00015956	0.00014736	4.1751e-05	208.68	1.608e-06	1.657e-06	312.91	67.855	1.6705e-06	1.6526e-06	120.22	55.945	32.969	12.391	1.7099e-06	22.324	120.470	12.821	-4.606	-74.732	110.841	68.847	-76.171	-67.419	5.464	32.648	-71.557	-68.085	-65.479	-60.055	45.199	-63.335	-8191	255	
1335.452	1	1	0	0	0.15513	0.11804	0.083114	0.14289	0.14213	0.12564	0.14175	0.1015	0.29474	0.25341	0.22407	0.10566	0.21528	0.28102	0.11242	0.30518	-2.4833	-3.4208	-3.0917	-2.8854	-3.3479	-3.0208	-3.3146	-3.0625	-2.7167	-3.2313	-2.9458	-2.8792	-3.3625	-2.7521	-3.125	-3.4542	-42.083	26.887	78.416	187.828	56.574	175.930	-54.699	-32.734	95.171	162.938	205.429	151.104	-37.076	-38.149	227.786	-83.005	0.00017704	0.00015206	9.6042e-05	207.03	2.8331e-06	3.3e-06	315.74	67.703	2.8875e-06	2.8328e-06	121.49	57.283	32.728	12.299	3.9722e-06	22.671	0.00015864	0.00015301	4.0985e-05	208.14	1.6059e-06	1.6571e-06	314.33	68.037	1.6964e-06	1.6812e-06	121.13	56.737	33.102	12.424	1.6819e-06	22.518	136.465	178.916	22.490	-74.306	-59.325	84.498	-76.348	-67.334	11.193	82.751	-71.152	-67.803	-65.437	-59.166	69.287	-62.884	-8191	255	
1335.548	1	1	0	0	0.18759	0.2704	0.18728	0.35455	0.049598	0.043626	0.23959	0.15714	0.17475	0.23745	0.20966	0.18997	0.1208	0.2046	0.15708	0.14386	-2.2687	-3.3729	-2.9042	-2.7354	-3.3312	-2.8417	-3.2104	-3.4458	-2.8042	-3.1354	-2.9417	-2.8792	-3.5021	-2.8688	-3.0958	-3.4167	131.663	217.726	-63.647	244.115	214.068	244.621	211.255	192.952	183.530	236.398	180.623	38.554	-26.596	-57.351	-80.821	193.782	0.00016233	0.0002746	4.557e-05	208.6	5.2902e-07	3.751e-06	318.42	67.084	1.2859e-06	3.3081e-06	119.01	55.516	32.623	12.15	1.1756e-06	22.127	0.00015519	0.00015547	4.1295e-05	209.58	1.6263e-06	1.6817e-06	315.26	67.687	1.683e-06	1.6494e-06	120.15	55.874	32.876	12.352	1.7382e-06	22.124	104.328	-32.444	114.358	-73.745	31.394	45.241	-75.801	-66.606	-77.087	97.944	-70.577	-66.872	-65.306	-59.172	21.909	-62.601	-8191	255	
1335.644	1	1	0	0	0.20409	0.040935	0.058791	0.22297	0.27051	0.31237	0.20474	0.091062	0.13138	0.14819	0.15893	0.32921	0.084966	0.28422	0.26953	0.097717	-2.6125	-3.2375	-3.0021	-2.6354	-3.3104	-3.1562	-3.1354	-3.2771	-2.7333	-3.4042	-3.2687	-2.9604	-3.3896	-2.8021	-2.7042	-3.2354	97.649	202.476	-6.101	78.932	58.530	71.149	231.273	209.467	12.777	-73.972	-49.692	61.758	15.879	238.388	136.225	164.647	7.9273e-05	0.00016081	3.9854e-05	206.39	2.6009e-06	3.8357e-06	311.52	66.574	2.8278e-06	1.0507e-06	120.08	55.812	32.185	12.069	1.7063e-06	21.817	0.0001588	0.00015099	4.0751e-05	208.13	1.6218e-06	1.6483e-06	313.24	67.501	1.7074e-06	1.7176e-06	119.49	55.51	32.758	12.328	1.6889e-06	21.947	146.556	133.698	33.299	-73.527	-3.201	25.975	-75.700	-67.081	43.250	157.763	-70.724	-66.550	-65.458	-58.833	-9.469	-62.584	-8191	255	
1335.740	1	1	0	0	0.059602	0.095524	0.068927	0.17802	0.092894	0.14111	0.10892	0.04604	0.19902	0.314	0.15557	0.30022	0.30833	0.08855	0.15702	0.14562	-2.3604	-3.1417	-3.1562	-2.9146	-3.4854	-2.9979	-3.0812	-3.4021	-2.8521	-3.3542	-3.3708	-2.7542	-3.4062	-2.8958	-2.8542	-3.4271	71.691	226.447	140.935	115.169	142.677	89.950	-41.845	173.588	-9.993	139.141	-0.056	238.363	166.310	263.359	-22.847	-35.075	0.00010432	0.00013123	0.00011066	207.46	3.1367e-06	9.6357e-07	311.04	66.815	1.4834e-06	1.1354e-06	120.68	55.961	32.571	12.231	3.0208e-06	22.138	0.00015592	0.00015292	4.0429e-05	208.25	1.6716e-06	1.645e-06	311.39	67.422	1.6352e-06	1.7023e-06	119.56	55.802	32.833	12.358	1.67e-06	22.152	113.093	76.540	28.513	-74.033	35.899	133.246	-76.156	-67.258	39.736	72.260	-71.008	-67.793	-65.213	-58.923	91.612	-62.061	-8191	255	
1335.836	1	1	0	0	0.071098	0.30807	0.17655	0.094979	0.13622	0.21479	0.30828	0.087309	0.13082	0.084323	0.13171	0.10118	0.18561	0.23648	0.049594	0.10577	-2.4042	-3.0875	-3.1625	-2.7292	-3.4292	-2.95	-2.8208	-3.3667	-2.8167	-3.1937	-3.4104	-2.6333	-3.3458	-3.1125	-2.5729	-3.2875	-73.291	175.025	-13.912	130.788	61.716	21.168	158.328	-61.626	252.294	229.173	59.234	255.886	134.194	48.168	-20.647	185.922	0.00010766	0.00028145	8.753e-05	206.13	1.9355e-06	1.6702e-06	313.68	67.122	1.5224e-06	2.3586e-07	120.51	56.38	32.831	12.325	6.3943e-07	22.428	0.00015533	0.00015184	3.9835e-05	207.12	1.7165e-06	1.6077e-06	312.85	67.477	1.6427e-06	1.689e-06	120.21	56.243	33.076	12.428	1.6683e-06	22.344	131.357	-81.411	48.241	-73.854	85.529	61.674	-76.068	-67.336	75.376	-11.430	-70.994	-67.259	-65.651	-59.949	-27.044	-62.394	-8191	255	
1335.932	1	1	0	0	0.061005	0.29358	0.15224	0.098286	0.20579	0.14546	0.105	0.20867	0.30645	0.12824	0.107	0.087437	0.08496	0.31676	0.17794	0.24898	-2.3521	-2.9396	-3.3312	-2.7562	-3.4396	-3.2729	-3.0333	-3.3438	-2.8854	-3.0646	-3.2083	-2.7479	-3.0917	-3.2896	-2.8812	-3.4271	147.359	20.347	1.972	102.636	134.706	28.544	99.507	109.600	-25.044	-32.466	-72.076	216.522	72.898	-65.680	-16.466	271.199	0.00010961	0.0002946	2.3234e-05	207.82	5.3974e-07	2.8205e-06	313.08	67.212	9.9179e-07	2.5572e-06	118.46	55.68	32.52	12.29	1.9596e-06	21.995	0.00015302	0.00015665	4.059e-05	207.73	1.6966e-06	1.6095e-06	312.22	67.815	1.6468e-06	1.696e-06	118.42	55.392	32.754	12.32	1.6907e-06	21.913	146.358	76.794	59.450	-73.879	44.780	33.683	-75.907	-66.972	-83.917	140.044	-71.006	-67.951	-65.527	-59.221	124.510	-63.102	-8191	255	
1336.053	1	1	0	0	0.21214	0.221	0.18025	0.18964	0.1137	0.1459	0.31775	0.10378	0.16347	0.21679	0.22733	0.1978	0.29752	0.11646	0.27322	0.37385	-2.4854	-2.6042	-3.0687	-2.8333	-3.2438	-3.4708	-2.9771	-3.5104	-3.1854	-3.0396	-3.6437	-2.8854	-3.0292	-3.1479	-2.6229	-3.2708	-16.369	173.806	181.995	182.684	-36.399	201.870	196.687	215.999	-45.709	-18.232	9.444	-53.291	-61.245	53.790	103.788	236.456	0.00011051	5.0626e-06	6.9706e-05	204.91	3.8085e-06	5.7209e-06	311.71	67.052	1.5222e-06	2.6976e-06	118.4	55.237	31.846	12.038	1.2704e-06	21.879	0.00015281	0.00015848	4.1613e-05	206.53	1.709e-06	1.5617e-06	309.03	67.288	1.6007e-06	1.7029e-06	117.93	54.948	32.405	12.246	1.6904e-06	21.839	141.882	111.570	-33.218	-74.045	32.962	22.337	-76.042	-67.700	-46.029	74.580	-70.712	-67.477	-65.223	-59.521	64.135	-62.898	-8191	255	
1336.149	1	1	0	0	0.25014	0.19692	0.034375	0.32717	0.041006	0.15535	0.13947	0.15718	0.10473	0.10484	0.063535	0.24171	0.096487	0.048987	0.1556	0.2648	-2.5479	-2.9479	-3.4479	-2.6333	-2.9333	-3.1042	-2.825	-3.2167	-3.125	-2.8604	-3.6375	-2.9292	-2.975	-3.3729	-2.8208	-3.4021	-15.963	136.808	64.442	-70.763	4.283	40.092	83.060	44.273	97.398	25.471	-53.940	-31.375	240.974	245.388	25.753	145.422	0.00013971	0.00029	4.5241e-05	205.63	3.4511e-06	2.0637e-06	309.07	67.733	9.7183e-07	1.8594e-06	119.21	55.501	31.898	12.163	2.7962e-06	22.186	0.00014981	0.00015318	4.1035e-05	205.84	1.7096e-06	1.6031e-06	308.09	67.385	1.5768e-06	1.721e-06	118.69	55.223	32.499	12.293	1.6907e-06	22.041	117.898	0.394	2.521	-74.276	23.740	-56.266	-75.788	-67.414	264.955	14.418	-71.289	-67.093	-65.951	-58.818	58.667	-62.929	-8191	255	
1336.244	1	1	0	0	0.24205	0.26794	0.1324	0.17463	0.12758	0.0352	0.2467	0.13	0.089887	0.086619	0.18177	0.058415	0.38494	0.16305	0.2247	0.19878	-2.8646	-2.5792	-3.35	-2.8771	-2.9271	-3.5	-2.9667	-3.3292	-3.4979	-2.7896	-3.4167	-3.0229	-2.8208	-3.3771	-2.5458	-3.0917	-78.356	194.967	59.229	172.624	13.428	46.604	193.692	152.076	-63.220	-78.252	-30.279	-4.611	204.722	-68.631	72.802	20.842	0.0001337	0.000173	7.0382e-05	203.48	4.3034e-06	1.4465e-06	312.06	67.31	1.6804e-06	2.0134e-06	119.61	56.09	32.433	12.157	1.7899e-06	22.136	0.00014925	0.00016027	4.2333e-05	206.15	1.6656e-06	1.6375e-06	309.98	67.751	1.5525e-06	1.6943e-06	119.42	55.758	32.611	12.333	1.6754e-06	22.138	130.451	261.554	-9.451	-73.518	-7.857	5.280	-75.764	-67.142	71.534	145.076	-70.737	-67.573	-64.984	-58.639	22.643	-62.829	-8191	255	
1336.317	1	1	0	0	0.084961	0.15807	0.033753	0.075748	0.1335	0.18832	0.22336	0.13645	0.23883	0.19602	0.17378	0.33483	0.15613	0.077994	0.20125	0.17072	-2.8979	-2.65	-3.2854	-2.9625	-2.9	-3.5438	-2.8688	-3.3083	-3.3792	-2.5667	-3.05	-2.9104	-2.7729	-3.1979	-3.0083	-2.8896	265.554	201.541	-56.022	148.517	71.899	261.693	200.334	138.295	12.044	271.647	159.998	-37.422	200.402	-55.027	86.036	-82.650	0.00014397	0.00019069	8.1885e-05	205.56	2.3232e-06	2.7395e-06	309.97	66.428	4.3803e-07	1.4323e-06	117.6	54.999	31.658	12.084	1.2261e-06	21.595	0.00014886	0.00015517	4.2279e-05	206.83	1.6846e-06	1.6879e-06	309.93	67.258	1.5176e-06	1.7086e-06	117.59	54.743	32.146	12.256	1.6036e-06	21.706	146.894	4.784	-7.774	-74.716	-2.848	70.454	-75.709	-67.256	14.694	254.842	-70.612	-66.382	-64.869	-59.411	-3.436	-62.649	-8191	255	
1336.413	1	1	0	0	0.1443	0.20297	0.10934	0.14418	0.09454	0.1124	0.29257	0.18205	0.14774	0.074661	0.31589	0.066482	0.15415	0.11753	0.16274	0.096374	-2.9375	-2.7	-3.3104	-2.95	-2.7146	-3.5667	-3.0167	-3.0146	-3.2146	-2.6958	-3.2833	-3.2354	-2.8771	-3.6271	-2.8375	-2.7229	106.114	9.174	54.080	225.696	112.529	166.687	24.372	-3.233	223.713	34.774	265.814	28.911	90.676	20.379	217.593	144.349	0.00016349	0.00016155	1.7301e-05	204.56	2.781e-06	3.2317e-06	310.51	68.007	2.9234e-06	2.1752e-06	118.37	55.401	32.433	12.22	3.1095e-06	22.131	0.0001473	0.00015442	4.2214e-05	207.08	1.6851e-06	1.636e-06	310.16	67.526	1.5865e-06	1.6628e-06	117.43	54.878	32.381	12.272	1.6141e-06	21.861	120.505	61.867	29.843	-73.876	35.279	-4.924	-75.994	-68.215	29.880	115.069	-71.698	-68.238	-65.613	-59.694	58.846	-63.268	-8191	255	
1336.532	1	1	0	0	0.24038	0.11578	0.10067	0.20692	0.23938	0.1508	0.10263	0.2069	0.12581	0.12675	0.05715	0.20947	0.10613	0.17068	0.15538	0.09224	-3.0062	-2.6771	-3.1104	-3.0563	-2.8	-3.4229	-3.0021	-3.1188	-3.3708	-2.7292	-3.1729	-3.3063	-2.7125	-3.3958	-3.0208	-2.8042	176.756	176.285	144.726	267.116	270.444	-2.524	252.023	240.412	129.694	53.366	253.230	135.598	246.733	207.906	-20.450	198.335	0.00011669	0.00032318	3.0568e-05	207.78	2.0549e-06	9.1159e-07	314.68	67.854	3.7268e-07	2.7688e-06	119.91	56.026	32.462	12.243	1.302e-06	22.267	0.00015326	0.00015155	4.2618e-05	206.79	1.7138e-06	1.668e-06	310.12	67.52	1.6103e-06	1.6849e-06	118.69	55.249	32.583	12.329	1.6366e-06	22.097	139.079	47.067	89.731	-74.825	98.104	150.854	-76.451	-68.137	158.531	31.258	-71.409	-67.953	-65.640	-59.861	-37.980	-63.816	-8191	255	
1336.628	1	1	0	0	0.11553	0.13777	0.32507	0.13565	0.048741	0.12662	0.20266	0.19488	0.12039	0.20555	0.35222	0.074704	0.063292	0.083654	0.1965	0.064918	-3.0062	-2.6729	-2.8979	-3.2562	-2.8271	-3.3271	-3.0021	-2.8042	-3.5292	-2.9562	-2.9354	-3.2958	-2.8875	-3.2687	-3.0417	-2.7125	122.284	5.913	95.400	152.133	-67.166	116.438	-44.256	128.698	92.810	243.872	-71.412	-48.056	-86.049	214.419	58.850	222.250	0.00013658	0.00039934	1.0568e-05	207.36	7.8106e-07	9.1941e-07	318.12	68.437	7.5112e-07	1.6904e-06	121.17	56.826	32.677	12.351	2.2754e-06	22.243	0.00015237	0.00015071	4.2339e-05	207.44	1.6573e-06	1.6785e-06	312.75	68.125	1.6753e-06	1.6158e-06	119.8	55.936	32.668	12.396	1.5772e-06	22.071	144.254	44.681	76.298	-74.145	232.734	172.795	-76.214	-68.108	76.919	44.290	-71.726	-68.036	-65.628	-60.100	93.807	-63.491	-8191	255	
1336.724	1	1	0	0	0.080847	0.095389	0.075131	0.083497	0.20348	0.052726	0.25944	0.12597	0.22406	0.049482	0.2639	0.12466	0.26571	0.083134	0.091272	0.19923	-3.0604	-2.9354	-2.8417	-3.1854	-2.5917	-3.4521	-2.8792	-2.7687	-3.3458	-2.9104	-2.7979	-3.1875	-2.7271	-3.2646	-3.1229	-2.7896	-40.514	21.493	251.143	240.600	-71.989	44.692	196.206	-83.145	147.865	-31.124	-85.348	261.358	262.809	176.217	96.313	253.284	9.8987e-05	0.00021926	5.9301e-05	209.88	1.9827e-06	2.3846e-06	316.93	67.96	1.1691e-06	1.7369e-06	118.48	55.591	32.417	12.316	1.4052e-06	21.903	0.00015312	0.00014569	4.3081e-05	208.27	1.6825e-06	1.671e-06	312.4	67.675	1.6457e-06	1.6364e-06	117.92	54.749	32.295	12.351	1.5851e-06	21.749	117.011	19.316	-32.125	-74.518	11.494	4.794	-76.522	-68.151	198.284	83.559	-71.585	-67.997	-65.510	-60.138	32.682	-63.387	-8191	255	
1336.845	1	1	0	0	0.14044	0.079401	0.070661	0.2521	0.44649	0.33275	0.11642	0.20126	0.074228	0.20291	0.19667	0.089886	0.28598	0.13927	0.33579	0.32564	-3.1583	-2.7917	-2.8771	-3.2438	-2.7125	-2.8708	-3.2687	-2.4979	-3.2167	-3.0083	-2.8917	-3.4062	-2.825	-3.3125	-3.2167	-2.7271	-80.296	229.308	211.982	221.581	99.882	-8.670	254.567	103.087	6.519	80.348	-29.030	-12.838	-53.369	64.115	-80.759	225.981	0.00013988	0.00035823	7.8938e-05	209.48	3.864e-06	7.5953e-07	316.77	67.75	1.8221e-06	1.0235e-06	119.64	55.429	32.568	12.184	2.5521e-06	22.01	0.0001564	0.00014508	4.2635e-05	208.58	1.647e-06	1.6255e-06	311.43	67.63	1.6352e-06	1.5702e-06	117.74	54.804	32.518	12.254	1.5917e-06	21.857	105.780	24.873	0.140	-74.282	89.486	-24.616	-76.758	-68.227	6.162	55.503	-72.142	-67.970	-65.829	-60.214	28.707	-63.434	-8191	255	
1336.917	1	1	0	0	0.12822	0.15004	0.087036	0.32405	0.057612	0.11273	0.15193	0.33118	0.1486	0.2345	0.16363	0.17536	0.19622	0.16634	0.06585	0.17378	-3.0042	-3.2167	-2.6083	-3.3812	-2.9146	-3.1104	-3.2021	-2.6688	-3.1958	-3.1521	-2.9292	-3.4542	-2.8958	-2.9375	-3.3833	-2.7021	-23.090	-52.694	-48.653	9.967	203.698	-56.790	-47.215	44.765	49.543	208.638	172.544	142.248	24.754	-72.100	-9.941	254.570	0.0001582	0.00023923	2.2395e-05	208.42	3.7501e-06	2.034e-06	316.95	68.177	1.6925e-06	2.4455e-06	120.68	56.465	32.789	12.353	1.5476e-06	22.145	0.00015924	0.00014256	4.303e-05	207.58	1.6155e-06	1.6429e-06	310.66	67.963	1.7185e-06	1.5417e-06	118.81	55.638	32.605	12.315	1.636e-06	22.032	110.589	-8.124	49.857	-75.368	49.469	-21.441	-76.537	-68.157	79.720	59.224	-71.738	-68.306	-65.704	-60.177	154.668	-63.878	-8191	255	
1337.013	1	1	0	0	0.12671	0.11936	0.13056	0.30442	0.08239	0.074715	0.11451	0.02594	0.076296	0.14791	0.15778	0.033064	0.029489	0.036787	0.26559	0.21306	-2.4833	-2.8729	-2.6562	-3.4583	-2.8792	-3.1104	-3.5667	-2.6604	-3.2021	-3.2333	-2.5542	-3.2375	-2.8583	-2.8208	-3.1312	-2.6792	138.398	3.629	33.740	178.641	101.081	24.801	55.978	-53.458	27.180	263.886	95.995	105.738	22.681	122.659	62.517	13.863	0.0001058	0.00029455	8.9568e-05	210.4	1.7292e-06	6.1347e-07	316.08	69.155	2.9215e-06	1.1111e-06	120.8	56.301	33.201	12.375	2.0131e-06	22.041	0.00015677	0.00013965	4.407e-05	208.38	1.5708e-06	1.7001e-06	312.62	68.261	1.6701e-06	1.572e-06	119.26	55.457	32.811	12.415	1.6186e-06	22.001	119.321	-45.117	-15.818	-75.187	19.431	240.280	-76.354	-67.854	70.757	110.982	-71.476	-67.720	-65.478	-60.104	270.400	-63.370	-8191	255	
1337.133	1	1	0	0	0.30069	0.14899	0.27262	0.21123	0.10537	0.24039	0.10711	0.20166	0.051849	0.17219	0.078828	0.073838	0.1341	0.093352	0.08355	0.068414	-2.775	-3.3083	-2.7333	-3.4479	-2.9208	-2.8521	-3.3896	-2.8042	-3.275	-3.5729	-2.8479	-3.3438	-2.95	-2.9062	-3.4167	-3.0083	-78.925	54.912	223.604	207.209	56.857	68.519	181.927	147.964	-48.362	190.729	254.800	67.889	168.383	78.610	265.531	78.009	0.0001845	0.00013912	5.1012e-05	211.07	2.2246e-06	2.9385e-06	312.91	67.461	2.1182e-06	3.1612e-06	117.56	54.791	32.067	12.137	2.6561e-06	21.742	0.00015634	0.00014734	4.339e-05	208.62	1.5307e-06	1.7011e-06	310.15	67.667	1.6496e-06	1.5477e-06	116.97	54.485	32.286	12.287	1.5902e-06	21.689	112.602	88.221	-13.877	-74.908	36.011	51.146	-76.515	-67.717	-56.937	184.241	-70.950	-67.466	-65.372	-59.286	74.935	-63.127	-8191	255	
1337.229	1	1	0	0	0.032715	0.12492	0.024391	0.2035	0.044343	0.3035	0.21179	0.097382	0.16232	0.051747	0.21375	0.10572	0.29135	0.23124	0.15055	0.083943	-2.7854	-3.1875	-2.5958	-3.3208	-3.2375	-2.8438	-3.3875	-2.875	-3.025	-3.4729	-2.575	-3.2042	-3.2042	-2.7854	-3.2313	-3.0104	-45.079	-82.742	269.604	195.081	-31.247	17.177	189.592	187.659	-27.229	100.263	251.368	129.749	35.704	150.393	183.465	216.626	0.00018367	0.00025477	4.5128e-05	206.89	1.5931e-06	2.0239e-06	312	66.747	2.6302e-06	2.2828e-07	117.35	55.005	31.839	12.089	2.0451e-06	21.943	0.00015198	0.00014458	4.1946e-05	206.85	1.584e-06	1.6948e-06	309.53	67.449	1.6467e-06	1.621e-06	116.8	54.706	32.34	12.291	1.6721e-06	21.776	120.383	-1.607	27.511	-74.133	28.052	-73.181	-75.825	-67.336	143.698	138.035	-71.478	-67.360	-65.180	-59.463	63.387	-62.429	-8191	255	
1337.326	1	1	0	0	0.13857	0.080602	0.058801	0.099441	0.10069	0.21767	0.27945	0.3142	0.11267	0.19498	0.060873	0.15634	0.13795	0.19643	0.13307	0.15096	-2.7	-3.2479	-2.8417	-3.2438	-3.1562	-2.7792	-3.55	-3.0042	-2.8625	-3.4437	-2.9083	-3.1937	-3.25	-2.475	-3.1708	-3.1708	-65.164	67.283	6.975	72.980	172.192	44.542	244.579	39.019	134.355	120.855	264.981	164.120	50.291	29.565	-37.601	190.405	0.00015202	0.00022761	3.5248e-05	207.93	1.0788e-06	3.0057e-06	307.9	67.362	1.3873e-06	1.5191e-06	117.95	55.264	32.627	12.234	1.7179e-06	21.868	0.00015658	0.00014982	4.2693e-05	207.55	1.559e-06	1.7012e-06	309.14	67.65	1.6849e-06	1.6297e-06	117.6	55.031	32.738	12.353	1.6441e-06	21.932	99.483	-52.595	215.455	-74.698	59.916	26.294	-75.695	-67.098	-18.326	-6.085	-70.987	-67.241	-65.597	-59.326	192.720	-62.756	-8191	255	
1337.445	1	1	0	0	0.16781	0.12791	0.15127	0.2134	0.18296	0.16305	0.056108	0.14854	0.16305	0.36665	0.1324	0.10619	0.069232	0.12266	0.10218	0.12124	-2.6375	-3.2646	-2.7625	-3.1146	-3.3458	-2.7938	-3.4833	-3.2438	-2.8083	-3.3542	-2.9542	-3.2146	-3.3708	-2.6458	-3.325	-3.15	85.951	220.805	149.742	257.000	-28.068	13.677	-76.616	40.342	265.424	66.313	6.683	-61.971	241.059	248.286	-67.935	269.111	0.00015684	0.00015189	0.00013736	205.46	1.2147e-06	3.112e-06	310.82	67.896	1.3946e-06	1.3036e-06	118.33	55.343	32.157	12.14	2.3068e-06	21.73	0.00015816	0.00014846	4.0733e-05	207.36	1.5945e-06	1.6922e-06	309.1	67.961	1.7033e-06	1.6864e-06	118.21	55.139	32.594	12.32	1.6676e-06	21.804	119.856	256.145	37.544	-74.189	-36.288	106.020	-76.016	-66.697	121.103	80.175	-71.048	-67.030	-64.879	-59.485	190.887	-62.663	-8191	255	
1337.541	1	1	0	0	0.084247	0.13115	0.1176	0.052285	0.21271	0.14786	0.199	0.06271	0.16497	0.14031	0.16423	0.014499	0.26445	0.20489	0.30322	0.31307	-2.4521	-3.4104	-2.8417	-3.1229	-3.4958	-2.6854	-3.2729	-3.3333	-2.8167	-3.5417	-2.8208	-2.9042	-3.4417	-2.6188	-3.0563	-3.0271	58.505	275.184	43.841	236.955	-63.071	130.520	-31.660	239.828	253.767	170.860	78.982	191.047	256.945	233.577	-47.631	137.155	0.00017129	0.00031783	6.0057e-05	207.48	2.612e-06	2.4789e-06	304.56	66.768	2.2946e-06	2.2976e-06	116.53	54.424	32.235	12.202	1.5717e-06	21.676	0.00015733	0.00015045	3.9597e-05	207.59	1.6376e-06	1.7221e-06	308.08	67.059	1.6974e-06	1.629e-06	116.28	54.294	32.357	12.314	1.6376e-06	21.651	155.632	-4.244	5.998	-74.083	80.079	76.121	-75.717	-66.702	64.088	61.134	-70.869	-67.657	-65.508	-59.760	54.125	-63.065	-8191	255	
1337.612	1	1	0	0	0.30402	0.050906	0.26543	0.21314	0.072608	0.15204	0.088485	0.20862	0.089425	0.16535	0.15817	0.15009	0.38391	0.14088	0.11757	0.23035	-2.3812	-3.3792	-3.1167	-3.0167	-3.4104	-2.8917	-2.9792	-3.3208	-2.8229	-3.5208	-3.075	-3.0542	-3.325	-2.8208	-3.225	-3.3958	-81.238	191.039	71.415	55.568	10.037	-29.786	156.424	72.512	237.586	-46.331	29.022	30.711	212.387	78.686	183.663	90.176	0.00016213	0.00033157	8.2035e-06	207.33	4.0936e-06	2.7638e-06	309.92	67.063	2.596e-06	2.58e-06	117.58	55.249	32.388	12.211	1.0642e-06	21.978	0.000161	0.00015334	3.9934e-05	206.97	1.6391e-06	1.6304e-06	307.9	67.106	1.7094e-06	1.6412e-06	116.38	54.778	32.597	12.302	1.6624e-06	21.852	128.932	-19.799	202.889	-74.259	-13.405	113.299	-76.488	-67.538	100.328	91.802	-71.457	-67.907	-65.441	-59.245	-31.629	-63.295	-8191	255	
1337.708	1	1	0	0	0.26978	0.092235	0.041259	0.07207	0.049633	0.14649	0.33624	0.14696	0.15726	0.19554	0.19215	0.087313	0.067134	0.16794	0.035827	0.083965	-2.1958	-3.35	-3.0687	-2.9396	-3.5125	-3.2	-3.25	-3.4271	-2.7229	-3.2292	-3.1125	-2.8604	-3.3063	-3.0854	-3.0458	-3.3521	238.759	104.863	-45.266	-79.643	270.498	15.036	211.581	124.924	217.404	82.116	216.636	141.312	-16.247	40.339	253.972	6.401	8.0987e-05	0.00012311	7.1518e-05	208.15	2.1923e-06	4.6758e-07	314.65	67.477	5.1406e-06	1.3174e-06	118.05	55.711	32.219	12.251	7.8715e-07	22.049	0.00015677	0.00014934	3.9876e-05	208.2	1.6876e-06	1.6151e-06	310.09	67.482	1.7091e-06	1.6891e-06	117.63	55.158	32.565	12.339	1.6475e-06	21.956	138.009	258.113	-24.918	-73.970	-38.948	3.266	-76.166	-67.360	11.181	65.504	-71.020	-67.691	-65.664	-59.086	-53.983	-63.038	-8191	255	
1337.829	1	1	0	0	0.22643	0.03141	0.073061	0.15043	0.1934	0.069113	0.033503	0.1216	0.073889	0.13973	0.19203	0.039656	0.10178	0.35344	0.15083	0.22112	-2.4042	-3.1188	-3.1604	-2.7875	-3.525	-3.0979	-2.9896	-3.5042	-2.8771	-2.9375	-3.1708	-2.7292	-3.3812	-3	-2.7896	-3.5875	76.453	269.016	102.458	-23.133	26.056	269.860	112.866	123.020	95.999	244.452	164.885	262.391	113.721	-35.994	105.050	61.548	0.00011828	0.00016185	9.0691e-05	208.26	1.7572e-06	3.6729e-06	313.69	68.108	3.9727e-06	3.4534e-07	119.6	54.75	32.291	12.144	1.5256e-06	21.658	0.00015677	0.00014852	4.0162e-05	208.73	1.6228e-06	1.5688e-06	310.96	67.881	1.6425e-06	1.6948e-06	118.29	54.627	32.406	12.306	1.743e-06	21.726	124.301	-12.876	-63.738	-74.002	17.326	-32.172	-75.938	-67.681	-11.549	146.515	-71.396	-67.786	-65.901	-59.057	123.221	-62.651	-8191	255	
1337.925	1	1	0	0	0.22372	0.073445	0.069429	0.37947	0.17547	0.18948	0.053758	0.11962	0.048821	0.047654	0.13565	0.017242	0.24281	0.20626	0.16287	0.15327	-2.5104	-3.0187	-3.1333	-2.6437	-3.3042	-3.0542	-3	-3.4208	-2.8125	-3.0417	-3.3583	-2.7646	-3.1979	-3.1771	-3.0083	-3.4375	196.895	72.839	-27.446	-52.363	199.651	55.402	48.570	235.956	154.850	213.664	215.362	142.092	107.931	54.911	240.428	267.235	0.00016393	0.00024076	3.7872e-05	208.49	9.2194e-07	2.1452e-06	312.91	67.877	1.1792e-06	2.8885e-07	117.79	55.007	32.072	12.12	2.5146e-06	21.806	0.0001473	0.00014951	4.0429e-05	208.53	1.6347e-06	1.5482e-06	310.41	67.597	1.6062e-06	1.6514e-06	116.48	54.298	32.4	12.248	1.7114e-06	21.72	118.627	44.303	47.720	-74.281	97.092	39.561	-76.424	-67.868	270.583	104.828	-70.770	-67.396	-65.694	-60.078	55.672	-62.689	-8191	255	
1338.021	1	1	0	0	0.2412	0.11912	0.18527	0.034366	0.14427	0.11736	0.1331	0.10718	0.15107	0.07227	0.21033	0.19304	0.32696	0.13919	0.26879	0.20878	-2.5729	-3.0271	-3.2604	-2.9125	-3.3063	-3.1125	-2.7521	-3.4208	-3.0417	-3.1604	-3.5312	-2.8771	-3.2854	-3.1729	-2.8979	-3.6583	-36.351	67.944	92.889	180.247	0.288	-33.436	-82.451	136.586	6.800	-76.591	27.618	245.096	193.226	230.263	171.315	96.432	0.00014738	0.00012885	8.6006e-06	208.48	3.2939e-06	3.8664e-06	313.39	66.939	3.2339e-06	3.0316e-06	117.88	55.046	32.744	12.201	1.1624e-06	21.756	0.00014958	0.0001553	4.2098e-05	208.44	1.6482e-06	1.5798e-06	309.83	67.529	1.5608e-06	1.693e-06	117.58	54.718	32.708	12.321	1.7103e-06	21.803	140.286	-14.198	113.524	-74.242	70.494	81.535	-75.893	-67.395	46.277	50.046	-71.303	-67.564	-65.120	-59.564	1.059	-63.068	-8191	255	
1338.118	1	1	0	0	0.28121	0.12533	0.062679	0.082024	0.13051	0.11579	0.19983	0.051542	0.16496	0.037579	0.031919	0.27281	0.26033	0.087113	0.2353	0.20767	-2.6625	-2.9229	-3.3521	-2.7583	-3.3354	-3.4	-2.8792	-3.3104	-2.9479	-2.7646	-3.2938	-2.7604	-3.0917	-3.3229	-2.9021	-3.3271	-13.580	69.000	18.027	232.321	199.375	61.056	-17.858	-32.529	72.619	136.756	-49.486	138.405	28.456	233.707	246.029	173.687	0.0001584	7.2091e-05	8.4999e-05	209.27	3.1555e-06	2.9108e-06	312.88	67.585	3.0579e-07	3.8665e-06	118.72	55.253	32.494	12.327	2.7761e-06	22.039	0.00014503	0.00015505	4.2005e-05	208.41	1.6337e-06	1.6348e-06	311.18	67.868	1.5035e-06	1.7066e-06	118.15	55.116	32.809	12.368	1.7343e-06	22.017	112.731	-8.759	13.869	-74.293	8.979	118.208	-76.094	-67.484	158.049	142.598	-71.942	-67.444	-65.821	-59.138	-18.253	-62.841	-8191	255	
1338.214	1	1	0	0	0.17781	0.2682	0.21365	0.24293	0.14891	0.099936	0.27913	0.24284	0.18533	0.13053	0.042967	0.13906	0.036317	0.25017	0.27604	0.16197	-2.5	-2.9146	-3.3542	-2.8771	-3.2	-3.3625	-2.7938	-3.3396	-3.1875	-2.7687	-3.4	-2.7313	-2.9021	-3.4667	-2.7729	-3.2562	-39.028	71.982	23.784	-60.415	166.076	150.974	163.631	76.477	-78.729	-1.009	-72.028	4.871	197.489	-67.137	-41.432	213.701	0.00012662	0.00025676	9.8864e-05	209.68	3.4537e-06	2.9271e-06	314.09	67.339	9.0666e-07	2.6386e-06	119.1	55.56	32.328	12.267	1.3727e-06	21.787	0.00014927	0.0001557	4.1433e-05	208.1	1.6618e-06	1.6403e-06	310.45	67.673	1.5677e-06	1.7032e-06	117.66	54.662	32.463	12.333	1.675e-06	21.765	149.564	236.332	-39.844	-74.606	82.932	26.359	-76.120	-67.590	211.158	46.056	-71.526	-68.007	-65.422	-60.127	-52.479	-63.360	-8191	255	
1338.310	1	1	0	0	0.1835	0.28307	0.079214	0.21281	0.095501	0.058232	0.20759	0.11357	0.16887	0.16354	0.15286	0.2641	0.33842	0.14772	0.31993	0.12038	-2.8937	-2.8646	-3.425	-3.0271	-2.9313	-3.4083	-2.8083	-3.3333	-3.2167	-2.9833	-3.5375	-3.0292	-2.8354	-3.3563	-2.7875	-3.2646	114.338	137.636	149.445	-85.279	103.450	3.844	57.591	196.436	180.484	237.545	263.745	-14.935	128.386	123.507	15.469	116.864	0.00016622	0.00014473	6.9869e-05	210.74	2.1435e-06	4.1293e-06	311.66	66.799	2.2317e-06	3.9898e-07	117.12	55.225	32.364	12.226	1.2989e-06	21.821	0.00015201	0.00015716	4.1262e-05	208.02	1.6358e-06	1.6389e-06	309.37	67.306	1.5725e-06	1.7298e-06	116.4	54.548	32.452	12.298	1.6392e-06	21.7	108.373	98.923	-8.800	-74.648	76.048	93.255	-76.289	-68.373	-49.263	-8.106	-71.310	-68.061	-65.429	-59.917	39.724	-63.134	-8191	255	
1338.406	1	1	0	0	0.077888	0.047146	0.14463	0.11332	0.10199	0.17297	0.14723	0.049443	0.14609	0.15459	0.22473	0.15375	0.06133	0.24878	0.27023	0.14988	-2.9813	-2.7917	-3.5958	-3.0271	-2.8396	-3.1188	-2.7292	-3.1	-3.2458	-2.5792	-3.4271	-3.0979	-3.0062	-3.5438	-2.9375	-3.0792	-25.088	0.751	137.444	243.722	267.893	92.453	-51.741	-38.267	265.104	116.720	-8.795	33.926	112.538	227.101	147.215	33.512	0.00016275	0.00033547	5.5204e-05	207.78	1.3292e-06	1.3727e-06	313.11	66.585	4.6058e-06	1.4486e-06	116.87	55.154	32.157	12.208	3.0003e-07	21.804	0.00015594	0.00015774	4.1093e-05	207.56	1.7122e-06	1.6076e-06	308.91	67.199	1.6337e-06	1.7513e-06	116.74	54.682	32.491	12.325	1.5989e-06	21.791	130.350	-0.852	-31.948	-74.215	-12.783	109.568	-76.492	-67.315	14.827	69.667	-71.442	-68.091	-65.665	-59.581	147.510	-63.180	-8191	255	
1338.525	1	1	0	0	0.21619	0.23724	0.12749	0.16936	0.076422	0.114	0.074096	0.23901	0.16819	0.040664	0.10715	0.17438	0.06859	0.21383	0.11873	0.1162	-3.0396	-2.6167	-3.25	-3.1104	-2.6771	-3.4021	-2.7812	-2.8958	-3.3063	-2.6146	-3.2	-2.9979	-2.7792	-3.4146	-3.0729	-2.925	16.246	114.590	-84.942	-18.610	207.653	-1.455	161.628	-62.385	27.014	230.074	-74.596	203.645	180.568	264.497	134.554	249.050	0.00014245	0.0002498	3.2345e-05	206.25	1.3958e-07	1.7491e-06	312.72	66.711	2.6064e-06	2.4549e-06	117.97	55.591	32.389	12.234	2.1622e-06	22.106	0.00015106	0.00015299	4.0233e-05	206.64	1.6894e-06	1.6627e-06	309.9	67.484	1.6394e-06	1.6933e-06	117.73	55.075	32.707	12.342	1.5562e-06	22.005	136.873	-80.191	-49.045	-74.049	147.037	77.691	-76.039	-67.923	125.515	69.493	-71.488	-67.713	-65.742	-59.819	143.754	-62.897	-8191	255	
1338.621	1	1	0	0	0.24377	0.081132	0.075901	0.11863	0.16917	0.18014	0.32851	0.034764	0.039971	0.019534	0.087094	0.12458	0.079483	0.034814	0.18341	0.086567	-3.0146	-2.6375	-3.2625	-3.1562	-2.9813	-3.5687	-2.9625	-2.8937	-3.5333	-2.7875	-3.2687	-3.2833	-2.7604	-3.3187	-3.1021	-2.8812	72.591	172.073	-19.846	197.998	-0.624	145.263	132.735	-11.812	201.835	-37.113	-14.222	-73.126	126.264	235.426	115.760	-25.770	0.0001305	8.6975e-05	6.6579e-05	207.68	3.1144e-07	9.6776e-07	308.23	67.102	2.8806e-06	1.6324e-06	116.45	54.548	31.946	12.134	2.3456e-06	21.444	0.00015462	0.00014992	4.1919e-05	207.84	1.6752e-06	1.6654e-06	308.5	67.512	1.6179e-06	1.618e-06	116.1	54.105	32.224	12.228	1.5746e-06	21.608	133.231	65.917	105.000	-74.038	-33.674	-15.165	-76.208	-67.352	43.284	88.752	-70.744	-67.328	-64.818	-58.991	117.682	-63.346	-8191	255	
1338.717	1	1	0	0	0.22504	0.15534	0.25591	0.11738	0.19266	0.079976	0.16228	0.054661	0.036824	0.13693	0.19263	0.1323	0.055454	0.2915	0.11658	0.16273	-2.9792	-2.6583	-3.3375	-3.3854	-2.9104	-3.7042	-3.2396	-2.9167	-3.5021	-2.8479	-3.025	-3.2417	-2.6542	-3.3104	-2.8333	-2.9896	191.560	130.639	265.669	-38.342	-73.975	-64.872	60.091	38.435	23.621	-4.907	189.490	206.561	73.112	149.679	-35.243	242.716	0.00013155	0.00039105	7.3889e-05	206.23	3.6176e-06	2.5344e-06	308.28	65.905	3.5011e-07	2.0135e-06	115.36	54.202	31.772	12.05	2.8843e-06	21.69	0.00014938	0.00014634	4.1744e-05	206.91	1.6729e-06	1.6756e-06	306.55	66.693	1.6277e-06	1.546e-06	115.58	53.966	32.155	12.24	1.5906e-06	21.592	136.298	26.581	73.875	-74.431	3.251	13.757	-76.499	-67.091	226.509	-11.772	-71.262	-67.326	-65.096	-58.938	115.367	-63.052	-8191	255	
1338.813	1	1	0	0	0.13828	0.20893	0.077809	0.23589	0.014551	0.24707	0.10696	0.18142	0.18156	0.21159	0.19393	0.1332	0.073975	0.1628	0.17383	0.29397	-3.0667	-2.7521	-3.0854	-3.175	-2.6625	-3.4021	-3.2833	-2.7188	-3.6021	-2.9562	-2.9437	-3.4896	-2.6375	-3.2021	-3.125	-2.4437	270.916	-5.537	77.926	138.940	137.130	-48.160	184.969	184.721	234.630	80.420	11.995	0.590	50.510	-67.582	243.400	251.410	8.4461e-05	0.00023512	3.5438e-05	205.79	1.8774e-06	1.1114e-06	309.23	66.505	1.9663e-06	9.5085e-07	115.84	54.375	31.85	12.094	2.954e-06	21.553	0.00015689	0.00014055	4.2963e-05	206.99	1.6379e-06	1.6464e-06	307.04	67.01	1.6178e-06	1.5269e-06	116.27	54.255	32.316	12.274	1.5991e-06	21.596	103.000	1.061	-24.841	-73.977	-39.203	57.700	-75.864	-67.015	224.582	107.304	-70.370	-66.987	-64.768	-59.447	63.030	-62.575	-8191	255	
1338.908	1	1	0	0	0.14678	0.18132	0.2303	0.19103	0.058081	0.18132	0.27171	0.039012	0.0572	0.14479	0.14235	0.1043	0.08684	0.11624	0.26043	0.27739	-3.0021	-2.9979	-2.7438	-3.2938	-2.8333	-3.0833	-3.0729	-2.5958	-3.2521	-3.0062	-2.9188	-3.2646	-2.8292	-3.1688	-3.1771	-2.5687	177.157	136.118	138.512	58.780	136.111	112.736	262.085	178.220	-8.654	223.400	225.694	129.424	160.138	262.658	-53.506	-32.303	0.00012912	0.00016977	5.5276e-05	208.8	1.9908e-06	2.5002e-06	314.22	67.61	9.9186e-07	2.4802e-06	118.55	55.329	32.454	12.185	3.6123e-07	21.903	0.00015208	0.00014511	4.4005e-05	208.18	1.6444e-06	1.6427e-06	310.42	67.629	1.6107e-06	1.5514e-06	117.81	55.062	32.591	12.38	1.5989e-06	21.898	135.036	101.513	-51.598	-75.121	-30.928	142.938	-76.623	-67.712	47.714	24.022	-71.438	-67.477	-64.804	-59.791	3.740	-62.988	-8191	255	
1339.004	1	1	0	0	0.086201	0.27578	0.10741	0.053042	0.15699	0.016586	0.12759	0.07249	0.21877	0.13524	0.22523	0.096474	0.026777	0.30927	0.072114	0.22036	-2.8854	-2.95	-2.7771	-3.5	-2.9646	-3.2125	-3.4604	-2.6708	-3.4083	-3.1188	-2.7229	-3.4583	-2.7875	-3.1271	-3.3063	-2.7771	230.130	112.028	269.777	240.472	79.288	11.967	205.105	159.424	-57.362	25.842	112.351	-4.144	235.333	249.316	99.999	145.723	0.00019435	0.00019784	5.6331e-05	205.62	3.7558e-06	1.339e-06	311.04	67.28	1.9164e-06	1.3318e-06	115.91	54.17	32.088	12.113	3.3041e-06	21.515	0.00015351	0.00014736	4.3379e-05	207.92	1.5501e-06	1.695e-06	310.11	67.441	1.6302e-06	1.6061e-06	116.23	53.978	32.242	12.23	1.5974e-06	21.483	135.317	-66.503	36.664	-73.601	44.779	92.725	-76.199	-66.970	-49.193	137.341	-71.205	-67.299	-64.945	-59.104	31.686	-62.805	-8191	255	
1339.125	1	1	0	0	0.15747	0.2461	0.072857	0.212	0.15631	0.19277	0.23354	0.21691	0.19554	0.19048	0.21269	0.089108	0.02273	0.12551	0.15085	0.23848	-3.0417	-3.1333	-2.8229	-3.5104	-2.9792	-3.1646	-3.2229	-2.6167	-3.2333	-3.1417	-2.4854	-3.3458	-3.0104	-2.85	-3.2458	-2.7021	175.038	152.071	100.632	127.255	-36.104	181.015	254.832	202.656	191.212	80.612	257.900	-52.876	241.072	75.716	55.557	-37.857	0.00017326	0.00010461	5.9233e-05	208.92	1.9583e-06	2.1344e-06	312.25	66.905	1.7647e-06	2.7296e-06	116.94	54.369	32.435	12.177	2.01e-06	21.75	0.00015157	0.00014572	4.3547e-05	208.25	1.5638e-06	1.6823e-06	308.7	67.075	1.6375e-06	1.5524e-06	116.13	54.054	32.545	12.296	1.627e-06	21.635	107.225	-70.982	26.773	-75.060	-50.687	58.553	-76.842	-67.787	76.186	120.335	-71.052	-67.437	-65.293	-60.197	169.716	-62.986	-8191	255	
1339.221	1	1	0	0	0.072665	0.21299	0.16285	0.19236	0.2679	0.22464	0.21155	0.19362	0.15086	0.12281	0.26845	0.070601	0.24806	0.13594	0.15199	0.33691	-2.6542	-3.2313	-2.8708	-3.4958	-3.1042	-2.9062	-3.5708	-2.7562	-3.3354	-3.4125	-2.6271	-3.3458	-3.0417	-2.55	-3.2625	-2.6688	6.012	87.282	227.386	-77.959	108.298	57.190	45.960	-31.943	-66.847	-85.294	116.775	243.096	184.115	-82.741	27.225	69.749	0.00017985	0.00017495	5.978e-05	209.12	1.6037e-06	2.3743e-06	311.61	67.034	1.2149e-06	3.7424e-06	117.65	54.894	32.42	12.161	2.0342e-06	21.55	0.00015539	0.00014526	4.3683e-05	207.76	1.5386e-06	1.7198e-06	308.66	67.168	1.6377e-06	1.6648e-06	116.93	54.644	32.579	12.314	1.6229e-06	21.716	122.535	84.756	-18.289	-74.246	8.165	50.268	-75.829	-67.335	162.136	69.216	-71.224	-67.423	-65.028	-58.888	91.356	-62.428	-8191	255	
1339.317	1	1	0	0	0.16321	0.14448	0.048664	0.17852	0.081055	0.1207	0.055568	0.21323	0.11497	0.21826	0.20728	0.17212	0.24894	0.18091	0.22984	0.068517	-2.7812	-3.2313	-2.8438	-3.5375	-3.1083	-2.625	-3.2771	-2.9188	-3	-3.4458	-2.9583	-3.2333	-3.1188	-2.5979	-3.2417	-2.8208	-66.971	-56.819	75.264	142.766	126.058	133.425	71.623	-64.610	18.043	-24.393	176.266	72.631	165.603	-64.630	245.815	225.378	0.00013214	0.00016458	0.00011921	205.35	3.1006e-06	1.5811e-06	309.75	66.456	9.3225e-07	2.8269e-06	118.31	55.227	32.475	12.182	4.058e-06	21.696	0.000162	0.00014974	4.2004e-05	205.95	1.6137e-06	1.743e-06	308.46	67.01	1.7004e-06	1.6244e-06	117.55	54.882	32.69	12.377	1.6229e-06	21.825	130.118	2.306	29.228	-73.910	10.064	53.287	-76.112	-67.591	129.992	91.801	-70.822	-67.465	-64.779	-58.662	118.157	-63.024	-8191	255	
1339.413	1	1	0	0	0.12842	0.22536	0.030372	0.2692	0.19986	0.14729	0.20771	0.15639	0.34339	0.24188	0.029288	0.10405	0.046516	0.29044	0.19627	0.25445	-2.4896	-3.1833	-2.5812	-2.9833	-2.9104	-2.7479	-3.4271	-2.9688	-2.9458	-3.4604	-2.9417	-3.2	-3.2667	-2.5542	-3.4042	-2.8583	-17.682	175.666	65.575	-82.587	44.093	35.723	-38.920	89.442	249.149	103.123	217.525	134.737	158.826	-18.304	193.530	-58.818	9.9431e-05	0.00018906	6.2349e-05	206.22	1.596e-06	8.9747e-07	305.36	65.296	1.1539e-06	3.3262e-06	114.58	53.61	31.728	12.165	7.1651e-07	21.679	0.00016031	0.0001486	4.0628e-05	205.2	1.5751e-06	1.72e-06	305.69	66.319	1.68e-06	1.667e-06	114.89	53.877	32.306	12.376	1.5923e-06	21.72	87.271	-1.798	-15.491	-73.889	5.787	240.659	-75.333	-66.417	33.694	31.870	-70.602	-67.202	-64.765	-59.317	56.162	-62.850	-8191	255	
1339.509	1	1	0	0	0.029254	0.076066	0.18312	0.13996	0.23138	0.28723	0.3348	0.1391	0.065831	0.11389	0.13296	0.40793	0.12908	0.22174	0.18068	0.14393	-2.4854	-3.4125	-2.9437	-3.2208	-3.2479	-2.775	-3.3667	-2.9729	-2.7	-3.4625	-2.8646	-3.1104	-3.4375	-2.8125	-3.4521	-3.1604	-4.241	258.048	241.061	-30.503	113.508	249.310	247.527	113.899	178.744	167.555	103.474	265.713	-66.251	195.003	162.736	182.348	0.00021484	0.00027237	6.0737e-05	203.45	2.6401e-06	2.3487e-06	305.24	66.25	2.6525e-06	1.2184e-06	116.16	54.099	32.506	12.37	3.8461e-06	22.164	0.00015978	0.00014834	3.954e-05	203.65	1.6357e-06	1.705e-06	304.7	66.527	1.716e-06	1.6166e-06	115.52	54.323	32.852	12.493	1.6292e-06	22.02	118.730	-44.690	-26.091	-73.810	78.214	-37.510	-75.760	-66.928	14.714	12.172	-71.288	-67.558	-64.663	-59.573	84.613	-63.114	-8191	255	
1339.605	1	1	0	0	0.028874	0.1433	0.019581	0.081363	0.10785	0.055846	0.23854	0.18514	0.1633	0.25342	0.20853	0.19936	0.083345	0.022942	0.1132	0.0044717	-2.4292	-3.3708	-2.9646	-3.1813	-3.3667	-2.7313	-3.1417	-3.025	-2.7812	-3.2812	-3.0583	-3.0542	-3.4521	-2.8583	-3.35	-3.3063	64.641	32.377	-25.315	6.644	64.896	76.058	-35.575	102.328	150.981	124.979	163.192	201.132	-3.402	129.617	-9.311	105.627	0.00016678	0.00018756	4.86e-05	203.21	3.059e-06	1.5501e-06	309.56	67.326	1.6095e-06	1.7372e-06	116.57	55.475	32.825	12.444	1.796e-06	22.271	0.00016094	0.00014844	4.0942e-05	204.13	1.646e-06	1.6405e-06	306.68	66.747	1.7142e-06	1.6206e-06	116.33	55.133	32.868	12.51	1.6541e-06	22.326	133.610	-22.139	17.908	-73.924	-3.930	140.641	-76.216	-67.525	113.677	135.892	-71.200	-67.578	-65.201	-59.419	234.009	-63.200	-8191	255	
1339.701	1	1	0	0	0.18432	0.076677	0.12555	0.1347	0.14528	0.21303	0.1323	0.15517	0.075718	0.075303	0.026346	0.075331	0.26518	0.40095	0.44361	0.12904	-2.3646	-3.5458	-2.8229	-2.7583	-3.3875	-2.7042	-3.2104	-3.375	-2.6708	-3.1833	-2.8042	-2.7833	-3.2542	-2.7188	-2.9813	-3.2958	-3.849	57.125	41.376	162.478	-53.479	99.270	240.626	180.294	58.830	53.865	66.909	126.660	-15.898	149.213	191.916	187.501	0.00015531	0.00055442	6.3482e-05	204.44	1.0561e-06	3.208e-07	310.69	66.925	1.3803e-06	1.338e-06	119.41	55.2	32.77	12.449	1.8292e-06	22.285	0.0001578	0.00014518	4.104e-05	204.97	1.6305e-06	1.57e-06	309.11	66.729	1.6945e-06	1.5893e-06	117.57	54.976	32.852	12.502	1.6966e-06	22.175	120.037	-30.373	-64.812	-74.420	59.520	180.931	-76.687	-67.355	216.229	-80.243	-71.163	-67.756	-64.916	-59.196	58.173	-62.844	-8191	255	
1339.798	1	1	0	0	0.061291	0.13795	0.10649	0.11832	0.023345	0.16075	0.086347	0.17479	0.22323	0.18529	0.13057	0.28995	0.0618	0.094367	0.084551	0.21146	-2.4125	-3.3583	-3.0938	-2.7396	-3.5583	-2.9104	-3.0062	-3.3812	-2.6604	-3.2354	-3.1063	-2.6604	-3.5187	-2.8667	-3.0187	-3.5333	-77.595	-73.817	83.719	144.481	65.346	133.865	219.728	266.441	57.537	-27.012	198.017	209.139	221.724	104.032	120.717	219.713	0.00012985	0.00036107	3.1535e-05	203.89	1.1771e-06	1.3111e-06	310.54	66.594	1.2433e-06	2.9462e-06	117.33	54.741	32.544	12.408	2.7971e-06	21.954	0.00015572	0.0001503	4.0505e-05	205.02	1.6012e-06	1.5891e-06	308.65	66.472	1.6213e-06	1.6333e-06	116.51	54.487	32.728	12.408	1.6967e-06	21.991	128.759	38.476	266.987	-73.736	-73.423	0.203	-76.004	-67.468	-11.738	22.138	-71.009	-67.745	-65.135	-59.369	139.870	-62.473	-8191	255	
1339.916	1	1	0	0	0.11883	0.17742	0.34777	0.24037	0.021636	0.041313	0.032987	0.065725	0.27685	0.2135	0.049236	0.091848	0.1494	0.30275	0.084796	0.27616	-2.4729	-3.3583	-3.2479	-2.9292	-3.5104	-3.0083	-3.0146	-3.55	-3.0417	-3.0896	-3.1833	-2.75	-3.4667	-2.8167	-3.0021	-3.4667	94.696	1.773	190.383	167.372	59.507	-29.776	-45.155	-44.089	-43.799	16.037	242.715	187.741	-14.303	-70.920	149.580	190.002	0.00016586	0.00017867	0.00010957	202.89	1.2549e-06	1.5356e-06	310.67	66.487	1.3595e-06	3.6102e-06	117.1	55.013	32.78	12.317	4.6724e-06	22.068	0.00015152	0.00015074	4.0158e-05	205.38	1.6106e-06	1.5823e-06	309.51	66.67	1.6011e-06	1.7025e-06	116.85	54.523	32.776	12.454	1.7354e-06	21.985	121.098	178.366	61.125	-73.883	19.498	7.704	-75.628	-67.240	-0.068	71.772	-71.358	-67.970	-65.424	-59.332	82.168	-62.586	-8191	255	
1340.013	1	1	0	0	0.3141	0.1531	0.1633	0.089284	0.14242	0.046214	0.24246	0.20196	0.046616	0.19294	0.24248	0.053164	0.065882	0.14957	0.11612	0.25724	-2.2938	-3.1208	-3.4125	-2.7438	-3.5708	-3.1	-2.8812	-3.5042	-3.0333	-3.1208	-3.3646	-2.8542	-3.4104	-3.1458	-2.7458	-3.4437	151.240	66.694	171.679	248.955	113.108	-51.619	106.205	-23.648	142.670	27.405	252.184	10.734	-5.963	209.622	159.296	-38.626	9.8611e-05	0.00039741	0.00016235	206.25	2.3334e-06	2.4072e-06	312.93	66.659	2.3493e-06	4.0107e-06	118.17	55.184	32.939	12.439	2.5885e-06	22.299	0.0001473	0.00015375	4.114e-05	205.9	1.6209e-06	1.5596e-06	309.69	66.834	1.5647e-06	1.7158e-06	117.48	54.991	32.977	12.458	1.7045e-06	22.222	128.573	38.409	4.538	-74.468	-71.498	15.091	-75.904	-67.112	6.916	27.873	-70.559	-67.816	-65.492	-59.579	104.533	-63.091	-8191	255	
1340.086	1	1	0	0	0.1552	0.26647	0.11614	0.10236	0.072272	0.060951	0.14808	0.10948	0.047118	0.16844	0.21086	0.061716	0.075424	0.04472	0.37684	0.12051	-2.3542	-2.9896	-3.2792	-2.8083	-3.1979	-3.175	-2.8187	-3.3396	-2.8417	-3.0875	-3.4188	-2.7896	-3.2625	-3.3104	-2.8021	-3.5583	84.412	217.980	18.863	102.441	244.752	76.315	100.204	118.309	257.292	112.560	-69.268	250.330	220.296	47.345	-11.498	262.223	0.0001309	0.00024576	5.7235e-05	208.01	8.9669e-07	1.1391e-06	312.6	67.3	2.2697e-06	3.8631e-06	117.66	55.483	32.385	12.308	3.5844e-06	22.065	0.00014946	0.00015841	4.1526e-05	207.3	1.6963e-06	1.5863e-06	311.46	67.182	1.6e-06	1.7485e-06	117.1	54.653	32.642	12.426	1.7506e-06	21.977	108.070	40.722	31.050	-74.239	245.984	94.262	-75.915	-67.801	-16.048	147.396	-71.385	-68.118	-65.560	-59.629	47.365	-63.267	-8191	255	
1340.205	1	1	0	0	0.068898	0.10749	0.037103	0.22869	0.11851	0.33781	0.085427	0.10109	0.044059	0.050754	0.14155	0.17325	0.15721	0.199	0.18666	0.040792	-2.6354	-3.0312	-3.3187	-2.7458	-2.9625	-3.3479	-2.9104	-3.4979	-3.1229	-3.1417	-3.4604	-2.8354	-2.95	-3.1667	-2.6688	-3.4333	33.248	-55.099	3.029	-1.553	-22.243	80.445	-10.582	57.506	21.149	234.582	-0.554	-82.054	245.207	106.186	239.930	173.975	0.00010469	0.00015728	0.00013834	205.95	5.063e-06	1.2021e-06	309.5	66.333	2.5188e-06	2.6531e-06	115.69	54.706	32.537	12.337	3.0454e-06	21.931	0.00014643	0.00015692	4.0538e-05	206.15	1.7051e-06	1.5672e-06	310.46	66.691	1.5883e-06	1.7238e-06	115.72	54.117	32.617	12.365	1.6485e-06	21.878	128.859	-74.675	9.613	-74.338	36.464	-1.749	-76.140	-66.861	72.208	32.227	-71.094	-68.172	-65.275	-59.603	25.233	-63.681	-8191	255	
1340.301	1	1	0	0	0.19865	0.13917	0.25024	0.056881	0.17852	0.11998	0.010166	0.12404	0.23615	0.11244	0.1584	0.30393	0.18842	0.12602	0.02929	0.037508	-2.7708	-2.8063	-3.4396	-2.6792	-3.0646	-3.2687	-2.9146	-3.4417	-3.1729	-2.8354	-3.3167	-2.7083	-3.2438	-3.4833	-2.8167	-3.2896	105.516	207.778	126.181	-42.850	-51.599	265.227	270.818	-17.730	-71.505	246.481	20.796	163.256	199.649	83.830	-30.847	21.638	0.00013361	0.00032421	7.262e-05	207.24	1.2874e-06	3.9433e-06	313.55	67.514	1.2789e-06	1.5353e-06	117.52	55.115	32.547	12.365	4.0013e-06	22.209	0.00014861	0.00015664	4.1591e-05	205.72	1.6969e-06	1.6273e-06	310.2	66.967	1.615e-06	1.6874e-06	116.01	54.44	32.625	12.424	1.6342e-06	21.997	143.040	21.548	-5.099	-74.806	86.074	74.794	-76.591	-67.780	114.704	121.929	-71.850	-67.986	-65.688	-59.744	53.054	-63.726	-8191	255	
1340.397	1	1	0	0	0.034079	0.07333	0.11142	0.081972	0.12346	0.11407	0.41906	0.37369	0.24064	0.18413	0.034823	0.12489	0.30666	0.24191	0.090385	0.27843	-2.6833	-2.6958	-3.2229	-2.9354	-3.0333	-3.4083	-2.9917	-3.0958	-3.1479	-2.7792	-3.4396	-3.0917	-3.0563	-3.2167	-2.75	-3.3896	204.762	34.190	176.711	-16.529	26.653	-38.884	-39.172	257.868	254.532	97.593	-22.722	196.714	24.817	34.817	32.910	269.230	0.00018494	0.00019003	2.2872e-05	207.07	4.2932e-06	1.1787e-06	313.3	67.847	1.4422e-06	2.5669e-06	118.89	55.94	32.729	12.363	1.3296e-06	22.273	0.00014897	0.00015365	3.9981e-05	206.18	1.6935e-06	1.6122e-06	310.49	67.497	1.6047e-06	1.6691e-06	117.49	54.965	32.787	12.421	1.5948e-06	22.173	108.577	-41.569	140.109	-75.136	56.051	-39.378	-77.009	-68.135	113.277	-16.556	-72.570	-68.154	-65.973	-59.912	44.714	-63.637	-8191	255	
1340.518	1	1	0	0	0.21452	0.1755	0.060817	0.19123	0.074018	0.091868	0.20387	0.27064	0.15353	0.15231	0.16976	0.031382	0.040924	0.055989	0.18545	0.20889	-2.9313	-2.7354	-3.35	-3.1479	-2.9562	-3.5167	-2.7708	-2.9542	-3.3063	-2.8354	-3.3646	-3.0583	-3.0646	-3.6146	-2.8729	-3.0667	149.418	254.628	105.146	246.392	160.687	90.082	-25.708	140.606	202.702	-5.575	27.236	30.191	75.102	1.602	158.132	18.548	0.00011362	0.00026163	5.9121e-05	209.38	1.2863e-06	2.0301e-06	316.67	67.462	1.3973e-06	1.5802e-06	118.46	55.325	32.698	12.504	1.7583e-06	22.211	0.00015016	0.00015327	4.0086e-05	207.86	1.75e-06	1.5837e-06	311.79	67.441	1.6435e-06	1.6528e-06	117.14	54.429	32.681	12.444	1.6352e-06	21.831	122.891	29.999	26.773	-74.629	146.347	39.211	-76.886	-68.265	-79.167	179.559	-71.384	-68.137	-65.917	-60.080	60.524	-63.410	-8191	255	
1340.614	1	1	0	0	0.076745	0.087521	0.14386	0.1319	0.17078	0.1678	0.28736	0.10436	0.20309	0.21327	0.06361	0.11035	0.18579	0.083443	0.17733	0.15331	-2.8167	-2.625	-3.1833	-3.0938	-2.8375	-3.4583	-2.8187	-2.9604	-3.45	-2.7	-3.4271	-3.075	-2.9938	-3.2917	-2.7875	-2.9167	173.580	20.256	40.939	26.139	-51.743	137.741	192.899	152.137	164.603	-4.519	52.876	12.843	90.937	129.093	155.156	265.436	0.0001348	0.000316	0.00011218	210.41	4.3486e-06	3.1376e-06	318.27	68.022	8.9421e-07	8.585e-07	118.71	55.325	32.605	12.322	3.0105e-06	21.971	0.00015224	0.00014882	4.1454e-05	208.16	1.6777e-06	1.5777e-06	312.21	67.371	1.6074e-06	1.5691e-06	117.2	54.355	32.609	12.339	1.6066e-06	21.814	124.453	6.192	9.052	-74.719	5.363	77.378	-77.033	-68.495	6.404	182.316	-72.090	-68.383	-65.890	-60.322	65.236	-63.871	-8191	255	
1340.708	1	1	0	0	0.06684	0.11698	0.23906	0.19712	0.15179	0.02962	0.25994	0.22086	0.15763	0.04982	0.043833	0.12262	0.16097	0.19293	0.081157	0.029499	-3.0646	-2.8708	-3.5021	-3.3458	-2.875	-3.3187	-2.875	-2.8979	-3.4604	-2.7833	-3.2875	-3.2	-2.8312	-3.2708	-2.8792	-2.7417	53.716	104.248	76.175	-58.017	58.706	131.140	128.557	189.898	22.077	170.450	171.904	-2.282	168.010	192.806	-5.776	258.067	0.00013374	0.00012114	2.3865e-05	211.45	1.3774e-06	1.0704e-06	316.26	67.649	7.869e-07	2.9882e-06	118.54	55.842	33.055	12.434	2.9128e-06	22.152	0.00015223	0.00014911	4.2248e-05	209	1.7283e-06	1.6144e-06	310.8	67.444	1.5847e-06	1.5839e-06	117.32	54.753	32.929	12.412	1.5796e-06	21.957	142.521	162.994	20.961	-74.651	189.845	156.293	-76.830	-68.561	177.888	47.223	-72.218	-68.370	-66.042	-60.385	111.488	-64.052	-8191	255	
#DATA ENDS
