BOXY.EXE: ISS Imagent and Oximeter Data Acquisition Program Version 0.80
Ascii Record File

#ACQ INFORMATION
2  Detector Channels 
16  External MUX Channels 
1  Auxiliary Channels 
5000  Waveform (CCF) Frequency (Hz)
1  Waveforms Skipped 
30  Waveforms Averaged 
1  Cycles Averaged 
16  Acquisitions per Waveform 
10.0806  Updata Rate (Hz) 

#FILE INFORMATION
TRUE -- External MUX Channel results are PARSED.
FALSE -- AC DC and Phase are NOT grouped.
TRUE -- Companion Program Settings File CREATED.
FALSE -- AC data not excluded
FALSE -- DC data not excluded
FALSE -- Phase data not excluded
FALSE -- Auxillary Chn. data not excluded
Tab delimiters

#CALIBRATION STATE
TRUE -- Waveform Calibration Values APPLIED.


#AUX CALIBRATION VALUES
Val Type	aux-1	

Term	1.0000e+00	
Factor	0.0000e+00	


#WF CALIBRATION VALUES
A = Detector Channel
Val Type	A-AC1	A-AC2	A-AC3	A-AC4	A-AC5	A-AC6	A-AC7	A-AC8	A-AC9	A-AC10	A-AC11	A-AC12	A-AC13	A-AC14	A-AC15	A-AC16	A-DC1	A-DC2	A-DC3	A-DC4	A-DC5	A-DC6	A-DC7	A-DC8	A-DC9	A-DC10	A-DC11	A-DC12	A-DC13	A-DC14	A-DC15	A-DC16	A-Ph1	A-Ph2	A-Ph3	A-Ph4	A-Ph5	A-Ph6	A-Ph7	A-Ph8	A-Ph9	A-Ph10	A-Ph11	A-Ph12	A-Ph13	A-Ph14	A-Ph15	A-Ph16	

Term	0.00000e+00	0.00000e+00	0.00000e+00	0.00000e+00	0.00000e+00	0.00000e+00	0.00000e+00	0.00000e+00	0.00000e+00	0.00000e+00	0.00000e+00	0.00000e+00	0.00000e+00	0.00000e+00	0.00000e+00	0.00000e+00	0.00000e+00	0.00000e+00	0.00000e+00	0.00000e+00	0.00000e+00	0.00000e+00	0.00000e+00	0.00000e+00	0.00000e+00	0.00000e+00	0.00000e+00	0.00000e+00	0.00000e+00	0.00000e+00	0.00000e+00	0.00000e+00	0.00000e+00	0.00000e+00	0.00000e+00	0.00000e+00	0.00000e+00	0.00000e+00	0.00000e+00	0.00000e+00	0.00000e+00	0.00000e+00	0.00000e+00	0.00000e+00	0.00000e+00	0.00000e+00	0.00000e+00	0.00000e+00	
Factor	1.00000e+00	1.00000e+00	1.00000e+00	1.00000e+00	1.00000e+00	1.00000e+00	1.00000e+00	1.00000e+00	1.00000e+00	1.00000e+00	1.00000e+00	1.00000e+00	1.00000e+00	1.00000e+00	1.00000e+00	1.00000e+00	1.00000e+00	1.00000e+00	1.00000e+00	1.00000e+00	1.00000e+00	1.00000e+00	1.00000e+00	1.00000e+00	1.00000e+00	1.00000e+00	1.00000e+00	1.00000e+00	1.00000e+00	1.00000e+00	1.00000e+00	1.00000e+00	X	X	X	X	X	X	X	X	X	X	X	X	X	X	X	X	

B = Detector Channel
Val Type	B-AC1	B-AC2	B-AC3	B-AC4	B-AC5	B-AC6	B-AC7	B-AC8	B-AC9	B-AC10	B-AC11	B-AC12	B-AC13	B-AC14	B-AC15	B-AC16	B-DC1	B-DC2	B-DC3	B-DC4	B-DC5	B-DC6	B-DC7	B-DC8	B-DC9	B-DC10	B-DC11	B-DC12	B-DC13	B-DC14	B-DC15	B-DC16	B-Ph1	B-Ph2	B-Ph3	B-Ph4	B-Ph5	B-Ph6	B-Ph7	B-Ph8	B-Ph9	B-Ph10	B-Ph11	B-Ph12	B-Ph13	B-Ph14	B-Ph15	B-Ph16	

Term	0.00000e+00	0.00000e+00	0.00000e+00	0.00000e+00	0.00000e+00	0.00000e+00	0.00000e+00	0.00000e+00	0.00000e+00	0.00000e+00	0.00000e+00	0.00000e+00	0.00000e+00	0.00000e+00	0.00000e+00	0.00000e+00	0.00000e+00	0.00000e+00	0.00000e+00	0.00000e+00	0.00000e+00	0.00000e+00	0.00000e+00	0.00000e+00	0.00000e+00	0.00000e+00	0.00000e+00	0.00000e+00	0.00000e+00	0.00000e+00	0.00000e+00	0.00000e+00	-1.99800e+02	-1.32036e+02	-1.16888e+02	-1.84163e+02	-8.14992e+01	-6.94175e+01	-1.57306e+02	-1.62015e+02	-8.64931e+01	-6.67769e+01	-1.77797e+02	-1.71882e+02	-1.81595e+02	-1.77192e+02	-7.35172e+01	-1.50103e+02	
Factor	3.79814e-05	1.92844e-04	5.09745e-05	1.70467e-01	1.91118e-06	1.87975e-06	1.61549e-01	5.09297e-02	1.97878e-06	1.84182e-06	9.46997e-01	2.66704e-02	2.93344e-02	8.92146e-03	1.95588e-06	1.25256e-02	7.13065e-06	8.70306e-06	2.43209e-06	8.69350e-02	9.20906e-08	9.60395e-08	7.77383e-02	2.60149e-02	9.20560e-08	9.54915e-08	4.40650e-01	1.32784e-02	1.50708e-02	4.60272e-03	9.35434e-08	6.26721e-03	X	X	X	X	X	X	X	X	X	X	X	X	X	X	X	X	



#DISTANCE SETTINGS
A = Detector Channel
A-1	A-2	A-3	A-4	A-5	A-6	A-7	A-8	A-9	A-10	A-11	A-12	A-13	A-14	A-15	A-16	

2.5000e+00	3.0000e+00	2.5000e+00	3.0000e+00	2.0000e+00	3.0000e+00	1.5000e+00	3.0000e+00	3.0000e+00	3.0000e+00	3.0000e+00	3.0000e+00	3.0000e+00	3.0000e+00	1.5000e+00	3.0000e+00	

B = Detector Channel
B-1	B-2	B-3	B-4	B-5	B-6	B-7	B-8	B-9	B-10	B-11	B-12	B-13	B-14	B-15	B-16	

1.0000e+01	1.0000e+01	1.0000e+01	1.4400e+00	1.0000e+01	1.0000e+01	1.5100e+00	1.9400e+00	1.0000e+01	1.0000e+01	1.9900e+00	2.4900e+00	2.4100e+00	2.9000e+00	1.0000e+01	2.9800e+00	




#DATA BEGINS
time	group	step	mark	flag	A-AC1	A-AC2	A-AC3	A-AC4	A-AC5	A-AC6	A-AC7	A-AC8	A-AC9	A-AC10	A-AC11	A-AC12	A-AC13	A-AC14	A-AC15	A-AC16	A-DC1	A-DC2	A-DC3	A-DC4	A-DC5	A-DC6	A-DC7	A-DC8	A-DC9	A-DC10	A-DC11	A-DC12	A-DC13	A-DC14	A-DC15	A-DC16	A-Ph1	A-Ph2	A-Ph3	A-Ph4	A-Ph5	A-Ph6	A-Ph7	A-Ph8	A-Ph9	A-Ph10	A-Ph11	A-Ph12	A-Ph13	A-Ph14	A-Ph15	A-Ph16	B-AC1	B-AC2	B-AC3	B-AC4	B-AC5	B-AC6	B-AC7	B-AC8	B-AC9	B-AC10	B-AC11	B-AC12	B-AC13	B-AC14	B-AC15	B-AC16	B-DC1	B-DC2	B-DC3	B-DC4	B-DC5	B-DC6	B-DC7	B-DC8	B-DC9	B-DC10	B-DC11	B-DC12	B-DC13	B-DC14	B-DC15	B-DC16	B-Ph1	B-Ph2	B-Ph3	B-Ph4	B-Ph5	B-Ph6	B-Ph7	B-Ph8	B-Ph9	B-Ph10	B-Ph11	B-Ph12	B-Ph13	B-Ph14	B-Ph15	B-Ph16	aux-1	digaux	

2255.372	1	1	0	256	0.044249	0.32989	0.12098	0.073635	0.13324	0.12643	0.056995	0.17609	0.22073	0.21617	0.10518	0.23373	0.2437	0.18998	0.1341	0.25038	-2.2396	-2.8187	-3.0625	-2.5979	-3.0438	-2.7062	-2.7292	-3.0042	-2.9021	-2.8729	-2.6917	-2.7875	-2.9938	-2.7292	-2.7313	-2.8958	47.535	194.594	228.495	42.371	80.583	133.591	208.662	143.082	116.601	22.476	76.990	275.570	-22.238	260.026	118.919	255.109	0.0001482	0.00010461	3.194e-05	496.22	1.0154e-06	1.6392e-06	732.57	94.83	1.8044e-06	1.4077e-06	202.91	64.058	25.87	7.4916	9.6109e-07	25.449	9.9532e-05	5.0496e-05	1.5981e-05	464.04	6.2622e-07	6.5747e-07	691.52	89.236	6.536e-07	5.4291e-07	180.69	60.569	24.364	7.1022	5.9361e-07	24.208	101.543	4.705	-27.439	-66.100	56.069	69.730	-66.381	-60.388	27.137	39.522	-61.815	-55.902	-56.221	-51.394	60.232	-50.988	-8191	255	
2255.468	1	1	0	0	0.24372	0.079868	0.094427	0.12283	0.21683	0.31895	0.30581	0.13234	0.30595	0.15389	0.10425	0.10887	0.11372	0.21644	0.2109	0.079819	-2.3771	-2.8083	-2.8937	-2.7458	-2.9313	-2.8	-2.7146	-3.0687	-2.9146	-2.8583	-2.9604	-2.6292	-2.85	-2.8667	-2.6917	-2.9042	-70.759	-11.752	251.304	-52.359	181.540	224.672	216.449	144.705	257.618	248.007	117.265	-28.556	169.504	60.760	273.369	20.763	0.00016838	0.00025753	7.6663e-05	504.19	1.8286e-06	2.548e-06	735.72	96.571	1.03e-06	1.5748e-06	208.33	64.319	25.995	7.7622	2.7282e-06	25.977	8.949e-05	4.9481e-05	1.4491e-05	471.33	5.347e-07	5.0541e-07	692.67	90.665	6.4631e-07	5.5584e-07	183.21	60.889	24.754	7.2095	5.8698e-07	24.698	103.198	4.690	25.511	-66.310	96.153	71.909	-66.123	-60.478	63.137	83.316	-61.908	-55.904	-56.373	-50.782	90.379	-51.025	-8191	255	
2255.564	1	1	0	0	0.12183	0.14971	0.046169	0.16593	0.13832	0.18151	0.17941	0.063157	0.073299	0.043163	0.047925	0.1724	0.12911	0.035535	0.10922	0.21105	-2.2958	-2.7583	-2.8417	-2.8646	-3.0208	-2.925	-2.7875	-2.9375	-2.8812	-2.8167	-2.8979	-2.6375	-2.85	-3.0208	-2.6708	-2.8375	5.827	18.252	136.202	202.239	204.801	18.859	202.466	157.111	245.532	39.308	124.196	196.441	112.205	210.900	264.965	-61.291	0.00014211	0.00017519	8.2228e-05	518.14	1.2846e-06	2.9348e-06	751.11	99.705	5.322e-07	1.1134e-06	209.54	65.884	27.151	7.9254	1.3748e-06	26.625	8.8732e-05	5.1167e-05	1.4461e-05	487.32	6.1835e-07	6.5527e-07	707.83	93.659	7.3702e-07	5.7176e-07	186.63	62.519	25.538	7.441	6.0901e-07	25.258	106.985	22.726	14.159	-66.029	59.635	76.394	-65.851	-60.563	134.037	66.138	-60.402	-55.886	-56.908	-51.654	71.251	-51.352	-8191	255	
2255.660	1	1	0	0	0.25049	0.18494	0.23711	0.26924	0.10659	0.15298	0.12082	0.077379	0.10699	0.074798	0.016743	0.088768	0.017734	0.18829	0.093344	0.10367	-2.4417	-2.6063	-2.9979	-2.6396	-2.6917	-2.9917	-2.7479	-2.9479	-2.7542	-2.7	-3.1063	-2.8479	-2.7687	-3.1354	-2.7292	-2.8417	-22.512	231.894	-62.341	88.617	150.396	31.782	251.358	8.895	-0.745	146.863	70.810	161.750	216.945	139.793	12.712	267.013	0.00018257	0.00023118	4.5747e-05	524.93	1.9425e-06	2.3592e-06	762.9	102.39	1.296e-06	1.6222e-06	216.37	67.782	27.544	8.1035	2.0894e-06	27.24	9.1926e-05	5.6806e-05	1.4339e-05	493.67	6.2602e-07	5.7344e-07	719.88	95.908	6.4708e-07	6.6207e-07	191.7	64.097	26.096	7.6531	6.9164e-07	25.801	101.006	17.260	35.579	-66.151	93.341	50.604	-65.673	-60.423	90.269	68.406	-61.534	-55.613	-55.723	-51.180	62.013	-51.683	-8191	255	
2255.781	1	1	0	0	0.21309	0.18052	0.28299	0.27911	0.063325	0.091189	0.20066	0.1092	0.057959	0.27339	0.14993	0.11461	0.081964	0.27799	0.19516	0.18198	-2.4625	-2.7208	-2.9146	-2.7313	-2.9375	-2.9625	-2.7229	-2.8312	-2.875	-2.6458	-3.1792	-2.8958	-2.8042	-2.9271	-2.7125	-2.9146	154.816	158.159	15.730	273.633	-61.976	278.685	242.862	217.870	-59.687	10.641	182.502	189.978	260.867	-42.699	3.896	-16.184	0.00015896	0.00022203	4.625e-05	542.45	6.0343e-07	2.4171e-06	780.87	104.7	1.211e-06	9.4074e-07	215.68	68.007	27.808	8.0779	3.4108e-06	27.096	9.3813e-05	6.1774e-05	1.4851e-05	507.69	6.4137e-07	5.9865e-07	732.96	98.65	6.9732e-07	6.569e-07	194.9	64.466	26.302	7.6628	7.4289e-07	25.769	99.730	24.279	17.755	-66.089	83.585	54.788	-65.877	-60.569	36.458	56.518	-60.363	-55.543	-56.083	-51.075	50.758	-51.352	-8191	255	
2255.877	1	1	0	0	0.26651	0.084254	0.2179	0.16216	0.045968	0.15893	0.073461	0.1737	0.24646	0.1393	0.056097	0.24509	0.18137	0.2306	0.063033	0.27027	-2.5042	-2.5708	-2.7729	-2.8646	-2.825	-2.9	-2.9458	-2.9313	-3.0146	-2.7104	-2.8521	-2.9271	-2.6937	-2.9396	-2.6354	-2.7979	61.556	139.230	-39.975	-49.865	47.569	38.706	144.904	197.814	104.169	264.855	277.421	197.097	-10.683	-40.012	121.481	162.010	0.00015415	0.00025589	4.9407e-05	538.46	2.5652e-06	2.0503e-06	770.54	103.25	1.6558e-06	2.6455e-06	206.65	67.288	27.339	7.9962	1.8723e-06	26.874	9.0188e-05	5.5283e-05	1.3833e-05	505.75	6.7591e-07	5.5743e-07	722.77	97.095	6.4899e-07	6.2507e-07	189.88	63.497	25.961	7.5596	6.932e-07	25.417	102.806	17.021	27.209	-66.167	64.625	90.939	-65.963	-60.754	54.808	58.257	-60.205	-55.702	-56.724	-51.740	59.079	-51.339	-8191	255	
2255.971	1	1	0	0	0.19	0.30493	0.25212	0.2178	0.17649	0.15384	0.070347	0.050724	0.1714	0.11157	0.14884	0.2971	0.096795	0.14673	0.32431	0.10852	-2.5292	-2.5229	-2.9188	-2.7896	-2.5312	-3.0146	-2.8792	-2.65	-2.7896	-2.7208	-2.8958	-2.75	-2.6896	-2.8292	-2.8729	-2.65	219.665	190.571	255.740	250.316	-28.377	200.180	123.860	268.435	205.187	126.519	4.635	192.443	153.692	97.589	189.556	167.322	0.00017907	0.0002157	5.3574e-05	539.94	1.471e-06	2.3164e-06	773.45	101.72	2.6193e-06	3.2454e-06	200.83	66.732	27.093	7.9761	2.8115e-06	26.201	9.099e-05	5.8057e-05	1.3959e-05	505.44	6.9432e-07	5.4242e-07	725.1	95.996	5.6519e-07	5.8568e-07	186.17	62.655	25.732	7.4993	5.9614e-07	24.923	104.066	14.809	2.242	-66.234	92.876	69.795	-66.029	-60.451	40.309	50.648	-61.342	-55.536	-56.335	-51.449	82.666	-51.105	-8191	255	
2256.067	1	1	0	0	0.056488	0.044717	0.093538	0.32018	0.11194	0.049912	0.31116	0.15048	0.062499	0.16563	0.057255	0.31105	0.16678	0.11831	0.10713	0.13583	-2.525	-2.6104	-2.75	-2.8104	-2.6063	-2.9646	-2.8187	-2.6937	-2.8729	-2.7229	-2.7354	-2.8167	-2.5438	-2.7146	-2.7458	-2.7167	-48.538	159.940	275.131	-55.378	277.582	-3.121	261.578	-52.902	14.369	169.738	138.840	249.467	143.741	-51.230	-52.491	158.005	0.00015321	0.00021472	4.027e-05	542.16	2.4799e-06	2.038e-06	773.58	101.25	1.3843e-06	2.4645e-06	208.92	65.347	26.907	7.7626	2.6051e-06	26.315	7.9269e-05	4.8175e-05	1.174e-05	507.36	5.5676e-07	5.0381e-07	726.48	95.008	5.414e-07	5.2839e-07	186.08	61.983	25.492	7.3525	5.2287e-07	24.995	115.137	14.129	28.743	-66.392	43.886	59.443	-66.028	-60.588	26.098	80.148	-60.747	-56.158	-56.456	-51.335	55.878	-51.118	-8191	255	
2256.188	1	1	0	0	0.29661	0.23369	0.24482	0.27492	0.079893	0.14695	0.11202	0.37584	0.2032	0.13922	0.117	0.37954	0.0057517	0.19046	0.16018	0.31503	-2.4437	-2.6625	-2.5917	-2.7375	-2.6937	-2.8229	-2.7542	-2.4938	-3.1458	-2.6958	-2.7583	-3.0083	-2.7208	-2.9125	-2.9042	-2.7354	136.698	267.788	232.206	213.635	143.857	-65.544	24.194	256.005	-20.437	-7.611	14.961	277.064	31.293	215.402	64.180	173.870	0.0001758	0.00029948	3.4728e-05	537.37	1.4545e-06	2.4636e-06	774.52	100.52	1.2593e-06	3.7193e-06	207.21	65.413	26.77	7.9356	3.3688e-06	26.146	7.9804e-05	5.414e-05	1.2211e-05	503.78	6.5691e-07	4.93e-07	727.35	94.723	5.0746e-07	5.2859e-07	187.06	61.888	25.385	7.4375	6.2284e-07	24.834	101.277	37.074	41.061	-66.287	33.449	54.340	-66.038	-60.805	79.287	65.036	-58.783	-55.762	-55.988	-52.130	77.806	-51.326	-8191	255	
2256.260	1	1	0	0	0.18083	0.090473	0.0041687	0.067024	0.26255	0.14827	0.13327	0.27718	0.22214	0.22921	0.14092	0.21335	0.042535	0.050902	0.057287	0.16967	-2.2958	-2.6458	-2.8021	-2.9958	-2.7438	-2.9167	-2.9688	-2.7354	-2.6646	-2.7188	-2.7146	-2.8604	-2.7479	-2.7875	-2.9542	-2.7604	222.194	157.830	279.220	93.618	-23.807	-38.883	-43.900	28.880	149.573	211.776	193.179	275.372	-39.501	49.096	172.387	201.430	0.00015674	0.00028826	3.519e-05	534.36	2.1168e-06	1.4423e-06	759.03	98.588	2.78e-06	1.4579e-06	203.21	63.781	26.258	7.6138	2.35e-06	25.722	7.8289e-05	5.3361e-05	1.3843e-05	497.9	6.6113e-07	4.2998e-07	713.65	92.702	5.3469e-07	4.9934e-07	182.71	60.306	24.723	7.2047	5.5522e-07	24.23	103.286	20.866	31.251	-66.120	48.227	127.718	-66.085	-60.477	6.993	15.232	-60.921	-56.035	-55.993	-51.516	65.703	-51.671	-8191	255	
2256.356	1	1	0	0	0.10103	0.059789	0.092493	0.095533	0.2589	0.23837	0.11445	0.13005	0.10373	0.10088	0.20037	0.036265	0.35145	0.28469	0.1356	0.058961	-2.525	-2.9542	-2.7583	-2.8	-2.8	-2.7229	-3.0583	-2.6667	-2.8979	-2.8667	-2.6729	-3.0542	-2.5687	-2.7125	-2.9979	-2.7062	-33.475	170.114	-74.353	243.365	76.919	260.062	-2.911	99.598	26.115	-0.619	27.011	251.145	139.358	154.630	143.604	221.452	0.0001226	0.00020339	2.4446e-05	528.96	1.4814e-07	1.5596e-06	758.17	98.226	1.8458e-06	1.319e-06	202.07	64.469	26.431	7.6493	1.2428e-06	25.776	7.6343e-05	4.5927e-05	1.3047e-05	495.83	5.5926e-07	4.5639e-07	713.85	92.299	5.2645e-07	5.2122e-07	181.44	60.764	25.061	7.254	5.5502e-07	24.531	101.949	0.520	23.738	-65.895	252.005	66.997	-66.034	-60.614	84.531	79.702	-60.387	-55.912	-56.839	-50.482	103.214	-51.887	-8191	255	
2256.452	1	1	0	0	0.047157	0.28332	0.17947	0.3285	0.16503	0.064641	0.026584	0.15951	0.19887	0.11592	0.12657	0.16943	0.26572	0.073845	0.2678	0.29148	-2.4062	-2.7438	-2.6125	-3.1083	-2.6917	-2.7604	-3.0229	-2.6354	-2.8458	-3.1292	-2.6146	-2.8833	-2.7208	-2.5979	-2.9	-2.5792	26.847	57.153	148.764	223.075	189.307	121.180	1.716	-33.183	186.768	-12.146	-2.816	6.241	-11.911	-19.956	81.104	69.814	0.00019303	0.0002244	5.1944e-05	532.62	1.0146e-06	1.5336e-06	763.77	97.985	1.5793e-06	1.1638e-06	199.3	64.362	26.449	7.7216	1.102e-06	25.724	8.8509e-05	5.1946e-05	1.3812e-05	499.65	6.7226e-07	5.3022e-07	717.88	92.923	6.0009e-07	5.8429e-07	181.84	61.028	25.02	7.3291	5.5405e-07	24.425	95.838	10.295	-1.050	-65.821	60.661	91.672	-65.743	-60.776	29.659	98.812	-60.583	-56.260	-56.330	-51.606	64.995	-51.275	-8191	255	
2256.573	1	1	0	0	0.20411	0.25782	0.4342	0.11548	0.082526	0.07331	0.21787	0.16852	0.095996	0.30779	0.13557	0.25012	0.12483	0.1708	0.030505	0.24457	-2.2062	-2.5354	-2.525	-2.925	-2.7479	-2.5917	-2.9938	-2.7667	-2.7125	-2.8958	-2.6229	-2.8604	-2.7396	-2.4708	-2.9167	-2.7604	129.285	-6.040	223.682	279.395	122.565	253.021	-58.176	95.432	243.770	122.644	110.556	165.674	106.133	81.580	26.491	225.535	0.00016155	0.00025954	8.6603e-05	529.95	2.5872e-06	1.7653e-06	763.6	98.804	2.0997e-06	2.2532e-06	205.54	63.444	26.156	7.5998	8.4905e-07	25.239	8.5167e-05	5.0895e-05	1.593e-05	495.85	6.5768e-07	5.4803e-07	717.04	92.297	5.834e-07	5.4132e-07	182.98	60.236	24.734	7.218	4.835e-07	24.029	109.845	0.771	4.540	-66.032	51.882	85.847	-65.905	-61.038	38.683	54.135	-60.975	-55.755	-56.372	-52.229	214.566	-51.176	-8191	255	
2256.669	1	1	0	0	0.079475	0.24275	0.11194	0.3686	0.12844	0.24728	0.020726	0.10295	0.20576	0.10485	0.12589	0.21638	0.15779	0.25553	0.20381	0.10752	-2.2333	-2.7604	-2.7021	-2.8042	-2.7917	-2.8083	-2.9562	-2.8542	-2.7875	-2.8854	-2.4979	-3.0604	-2.9979	-2.5708	-2.9729	-2.7229	114.356	132.738	-72.120	175.987	127.070	-13.502	14.379	270.947	274.346	70.686	179.199	-71.201	8.013	112.544	85.753	117.941	0.00015946	0.00030673	6.2621e-05	518.75	1.5261e-06	9.3753e-07	746.84	95.194	1.0403e-06	1.3923e-06	201.72	62.33	25.306	7.4181	1.8964e-06	25.164	7.9596e-05	5.5101e-05	1.4192e-05	486.55	6.6497e-07	6.0405e-07	700.88	89.675	5.8513e-07	4.882e-07	176.81	58.928	23.951	7.0218	4.5232e-07	23.747	104.292	28.216	31.633	-66.456	60.613	159.780	-66.117	-60.485	47.514	57.968	-60.820	-55.860	-56.266	-50.855	56.470	-51.307	-8191	255	
2256.765	1	1	0	0	0.11538	0.022653	0.14424	0.36171	0.29694	0.18213	0.3685	0.10113	0.3529	0.14238	0.21147	0.033604	0.12574	0.13666	0.21445	0.28143	-2.2146	-2.9604	-2.6375	-2.85	-2.9292	-2.6104	-2.9729	-2.7125	-2.85	-3.0021	-2.6813	-2.9042	-2.9188	-2.6646	-2.7417	-2.8063	70.831	219.922	186.298	92.329	162.467	139.178	266.883	-65.431	241.265	22.818	116.114	269.179	266.816	49.961	211.219	186.742	0.00017758	0.00018058	7.9211e-05	509.28	8.2749e-07	1.3573e-06	735.01	94.671	1.8588e-06	1.9294e-06	196.61	62.933	25.322	7.4146	7.1144e-07	25.519	8.38e-05	4.7196e-05	1.4714e-05	480.16	6.0761e-07	5.6323e-07	694.89	89.041	5.9242e-07	4.8323e-07	177.6	59.415	24.094	7.077	5.4859e-07	24.139	99.873	-22.592	39.284	-66.256	10.639	16.125	-65.752	-60.683	14.464	66.134	-60.771	-55.563	-55.756	-51.418	51.376	-51.101	-8191	255	
2256.861	1	1	0	0	0.095574	0.20661	0.067503	0.16951	0.14213	0.057681	0.18242	0.23003	0.078093	0.23888	0.046307	0.30778	0.25425	0.059121	0.15713	0.15149	-2.3167	-2.8417	-2.5417	-2.6833	-3.0187	-2.8021	-2.8771	-2.5771	-2.6042	-2.8292	-2.5312	-2.7812	-2.8146	-2.6417	-2.8667	-2.8708	223.500	246.632	149.306	151.981	244.525	50.106	272.258	-0.985	-63.558	239.994	5.403	-75.765	-8.763	-41.424	-10.130	40.384	0.00016104	0.00013681	3.8752e-05	512.39	1.553e-06	2.0709e-06	737.97	96.72	1.5094e-06	1.3675e-06	203.82	64.334	26.221	7.6799	3.2866e-06	26.242	8.6132e-05	4.9952e-05	1.5454e-05	478.75	6.5634e-07	6.3746e-07	696.4	90.874	6.8371e-07	5.067e-07	182.19	60.762	24.732	7.2308	6.2148e-07	24.893	108.349	67.622	11.106	-66.113	64.793	34.372	-66.031	-60.606	39.075	90.670	-60.780	-55.844	-56.178	-50.773	91.418	-51.083	-8191	255	
2256.955	1	1	0	0	0.37064	0.15446	0.13774	0.090478	0.11373	0.23432	0.17338	0.047421	0.20516	0.31008	0.18758	0.2947	0.14142	0.1732	0.12233	0.031403	-2.2917	-2.8146	-2.6875	-2.7104	-2.8729	-2.6104	-3.0729	-2.8042	-2.6479	-2.9354	-2.8021	-2.6521	-3.0042	-2.4896	-2.8375	-2.8729	147.416	248.772	271.443	16.939	142.036	-2.365	246.421	121.881	42.643	99.954	117.463	251.853	222.760	40.732	120.856	101.398	0.00014858	0.00034517	6.8939e-05	521.2	1.8224e-06	1.309e-06	756.05	101.53	9.5789e-07	2.3754e-06	211.2	67.192	26.757	8.0417	2.3018e-06	27.136	9.8893e-05	6.4366e-05	2.1605e-05	487.87	9.9132e-07	1.036e-06	711.35	95.624	1.1683e-06	1.018e-06	194.56	63.686	25.623	7.5829	1.3646e-06	25.844	108.163	-2.356	51.178	-65.696	5.174	66.928	-65.965	-61.134	48.933	61.637	-60.632	-55.846	-56.322	-51.480	73.569	-51.568	-8191	255	
2257.052	1	1	0	0	0.16853	0.13613	0.062428	0.079751	0.14327	0.17125	0.17622	0.054908	0.22989	0.14866	0.11375	0.14327	0.066027	0.085403	0.064073	0.034236	-2.0438	-2.9562	-2.7333	-2.6875	-2.9896	-2.8375	-2.9104	-2.975	-2.6	-2.9021	-2.7646	-2.6958	-2.8417	-2.5375	-2.5271	-3.2375	-18.185	-13.898	-2.478	266.355	220.959	177.086	239.351	206.482	68.913	26.287	171.273	20.197	243.950	113.757	32.946	54.230	0.00017244	0.00020298	8.2313e-05	510.96	3.302e-06	1.6201e-06	737.8	100.99	5.3501e-07	1.6284e-06	210.54	66.198	27.031	7.9456	1.2774e-06	27.417	0.00014694	0.00012358	3.977e-05	479.55	1.4792e-06	1.6659e-06	695.66	95.288	1.633e-06	1.4356e-06	193.9	62.929	25.538	7.5717	1.4655e-06	25.932	100.561	-15.054	50.787	-66.044	66.289	71.808	-65.963	-60.605	264.486	66.145	-62.165	-55.836	-56.284	-51.309	73.132	-51.147	-8191	255	
2257.148	1	1	0	0	0.33277	0.25101	0.15893	0.083903	0.15228	0.27412	0.1475	0.16584	0.09081	0.16206	0.086079	0.14995	0.10503	0.16159	0.025401	0.01327	-2.2333	-2.6521	-2.6104	-2.5875	-2.9771	-2.7167	-2.8354	-2.9562	-2.6042	-2.7896	-2.8208	-2.6771	-2.8896	-2.7417	-2.65	-3.0042	-42.517	91.722	-47.051	-10.703	13.444	146.042	175.258	80.041	-13.436	234.927	94.253	-22.772	-56.674	140.628	260.479	147.278	0.0001457	9.1412e-05	5.4616e-05	509.32	1.726e-06	7.1499e-07	734.66	101.8	1.09e-06	2.2102e-06	211.52	66.191	26.671	7.9214	1.1944e-06	27.045	0.00016089	0.00013774	4.0864e-05	476.73	1.3992e-06	1.523e-06	693.55	95.496	1.4376e-06	1.2316e-06	193	62.58	25.333	7.5482	1.2784e-06	25.678	99.510	-12.290	-35.199	-66.069	38.693	145.530	-66.152	-60.721	83.177	60.812	-61.934	-55.513	-56.245	-51.360	-5.041	-51.334	-8191	255	
2257.268	1	1	0	0	0.14749	0.063943	0.064747	0.11158	0.21748	0.025245	0.12901	0.28252	0.26621	0.11897	0.17957	0.25074	0.19118	0.11279	0.15823	0.088218	-2.0687	-2.7562	-2.8604	-2.5333	-2.9	-2.8812	-2.6833	-2.9625	-2.8146	-2.6583	-2.8625	-2.7521	-2.8917	-2.7687	-2.7229	-2.8375	281.354	255.255	81.064	-35.206	245.853	104.245	258.469	243.161	59.552	202.448	174.206	169.074	68.614	-17.979	220.622	134.518	0.00016981	0.00010742	1.2206e-05	511.09	1.3827e-06	1.6352e-06	733.89	101.21	1.6262e-06	1.7903e-06	206.69	66.445	26.697	8.087	2.764e-06	27.25	0.00014928	0.00011397	3.333e-05	478.63	1.2877e-06	1.2913e-06	695.24	95.26	1.3396e-06	1.1407e-06	192.02	62.925	25.4	7.5965	1.2161e-06	25.887	105.480	-6.157	-27.616	-65.876	40.166	92.157	-65.500	-60.530	4.687	88.790	-61.575	-55.505	-56.088	-51.513	106.343	-51.588	-8191	255	
2257.365	1	1	0	0	0.21591	0.22627	0.091308	0.11135	0.047121	0.17575	0.27035	0.10631	0.19495	0.11514	0.084637	0.13558	0.24386	0.18559	0.17865	0.15375	-2.2521	-2.8937	-2.7562	-2.775	-2.9604	-2.8187	-2.5917	-2.8771	-2.9229	-2.775	-2.9146	-2.6	-2.9542	-2.5625	-2.6083	-3.0125	-41.651	168.239	159.144	197.659	68.191	117.401	190.819	-41.973	-21.699	95.373	271.193	256.337	67.512	116.608	61.923	141.124	0.00015503	0.00025884	9.2416e-05	506.99	1.9227e-06	6.4385e-07	740.41	100.98	1.4586e-06	2.6412e-06	214.91	67.487	27.15	8.0966	5.7821e-07	27.575	0.00014249	0.00011604	3.446e-05	476.31	1.2925e-06	1.3676e-06	697.62	95.095	1.5515e-06	1.4409e-06	196.42	64.275	25.926	7.725	1.6544e-06	26.345	111.971	38.214	8.815	-65.974	38.111	75.127	-65.847	-60.368	44.532	81.800	-60.995	-55.673	-56.057	-51.392	-58.784	-51.590	-8191	255	
2257.461	1	1	0	0	0.30394	0.1196	0.063379	0.206	0.12814	0.23937	0.18164	0.19828	0.26945	0.10611	0.22521	0.31506	0.070816	0.11515	0.21207	0.061168	-2.1792	-2.6729	-2.9688	-2.6146	-2.8125	-2.7938	-2.8208	-2.8063	-2.7938	-2.5583	-2.8042	-2.6208	-2.9542	-2.7229	-2.6229	-2.8896	204.221	225.289	133.748	-55.938	280.812	252.973	249.889	-28.764	70.825	135.367	188.833	20.892	60.713	97.423	-45.117	201.024	0.00016809	0.0002666	8.0072e-05	493.21	1.4859e-06	1.4823e-06	721.25	97.959	2.9306e-06	3.4097e-06	212.06	66.414	26.751	8.0013	9.5353e-07	27.307	0.00018449	0.00016536	4.9007e-05	461.41	1.818e-06	1.9366e-06	679.12	92.934	1.9713e-06	1.7421e-06	193.32	63.307	25.362	7.6364	1.6399e-06	26.01	111.391	-35.426	63.110	-66.160	23.270	90.977	-65.986	-60.839	48.106	95.370	-60.940	-55.643	-56.671	-51.610	-70.344	-50.973	-8191	255	
2257.557	1	1	0	0	0.18217	0.37923	0.17919	0.11308	0.12546	0.095623	0.24945	0.09025	0.07245	0.16327	0.09239	0.018565	0.27426	0.21882	0.353	0.26533	-2.2292	-2.5125	-2.8833	-2.8	-2.7979	-2.7917	-2.7562	-2.7938	-2.8312	-2.6958	-2.9583	-2.7854	-2.8021	-2.7896	-2.6021	-2.9125	8.635	19.971	130.527	225.478	141.444	92.639	245.931	203.733	-15.025	101.720	177.906	105.114	272.017	11.346	77.824	217.449	0.00016774	0.00014224	8.6673e-05	489.03	2.2694e-06	2.5319e-06	717.37	98.705	1.9514e-06	2.3833e-06	212.61	66.976	26.621	8.0586	1.6029e-06	27.384	0.00017437	0.00014545	3.8498e-05	456.36	1.4207e-06	1.4564e-06	674.71	93.181	1.5195e-06	1.3327e-06	193.44	63.616	25.422	7.6516	1.278e-06	26.087	116.630	-7.663	42.210	-65.545	94.786	66.053	-65.976	-60.736	88.028	12.070	-60.015	-55.427	-56.430	-51.003	28.407	-51.474	-8191	255	
2257.653	1	1	0	0	0.085689	0.33974	0.22581	0.16392	0.084874	0.19283	0.21813	0.090624	0.37767	0.18117	0.12921	0.070785	0.11482	0.23949	0.035445	0.11475	-2.4458	-2.3396	-2.8917	-2.6	-2.475	-2.9333	-2.55	-2.9854	-2.8542	-2.6854	-2.8937	-2.7021	-2.8833	-2.8896	-2.8208	-2.8479	78.372	234.844	197.194	231.580	230.551	148.907	173.744	101.853	230.713	78.940	228.398	269.391	172.217	127.054	172.197	-50.106	0.00017076	0.00014522	4.6592e-05	487.41	5.0639e-07	2.4432e-06	723.77	99.159	1.518e-06	3.4812e-06	211.57	67.49	26.826	8.0686	1.7967e-06	27.609	0.0001467	0.00011642	3.0193e-05	457.63	1.178e-06	1.2223e-06	679.47	93.6	1.2082e-06	1.2346e-06	193.11	63.92	25.552	7.6689	1.1699e-06	26.158	99.957	62.743	15.006	-66.122	138.211	50.505	-65.993	-60.086	124.978	102.512	-59.931	-55.377	-56.289	-51.244	117.887	-51.252	-8191	255	
2257.749	1	1	0	0	0.16493	0.14538	0.17036	0.10326	0.17536	0.25434	0.025551	0.12742	0.12261	0.11174	0.064244	0.3274	0.23287	0.15453	0.28052	0.10353	-2.45	-2.7229	-2.9062	-2.6729	-2.7562	-2.9188	-2.6542	-2.9917	-3.0125	-2.6542	-2.9437	-2.9688	-2.7521	-2.8563	-2.6396	-2.6792	159.144	246.579	106.815	107.324	144.211	51.135	272.446	219.591	202.047	218.584	-50.560	-46.454	226.796	71.703	70.454	-48.148	0.00018941	0.00013682	0.00010127	493.06	2.0047e-06	1.337e-06	727.5	100.84	1.27e-06	1.8219e-06	214.68	67.208	26.768	7.9385	1.6283e-06	26.85	0.00012967	9.3993e-05	2.5552e-05	460.52	1.0086e-06	9.9681e-07	685.77	94.617	9.9574e-07	9.9013e-07	192.42	63.643	25.299	7.5494	9.9974e-07	25.601	109.513	5.410	14.301	-66.013	54.746	114.897	-65.613	-60.104	13.942	55.900	-61.375	-55.614	-56.215	-50.878	77.091	-51.676	-8191	255	
2257.870	1	1	0	0	0.2941	0.37	0.03938	0.21924	0.047309	0.17827	0.19376	0.10197	0.26538	0.14161	0.039821	0.26628	0.41393	0.30907	0.054795	0.25104	-2.3729	-2.6125	-2.9083	-2.7708	-2.6771	-2.9146	-2.8083	-2.6437	-2.9667	-2.6958	-2.8812	-2.8083	-2.6167	-2.7229	-2.8646	-2.7292	279.383	-70.054	157.386	221.575	93.277	-1.820	265.943	151.845	-12.900	222.773	239.960	257.920	208.676	267.590	212.307	209.681	0.00013063	0.00025954	6.2438e-05	489.97	1.4476e-06	1.2863e-06	718.6	99.073	2.4551e-07	2.3295e-06	207.14	66.294	26.456	7.8291	2.7674e-06	26.627	0.00011317	8.5036e-05	2.0916e-05	460.24	9.5007e-07	8.7996e-07	677.58	93.264	8.8949e-07	9.2826e-07	188.49	62.42	25.101	7.4271	9.4498e-07	25.211	115.477	-11.591	9.596	-65.979	93.524	67.236	-65.937	-60.429	-69.733	90.608	-61.711	-55.745	-56.760	-51.058	33.469	-52.002	-8191	255	
2257.964	1	1	0	0	0.13914	0.24492	0.11019	0.20467	0.10155	0.068661	0.11105	0.22859	0.052751	0.04882	0.16424	0.23334	0.26804	0.10346	0.10107	0.34836	-2.4437	-2.5792	-2.8792	-2.8583	-2.6354	-2.8271	-2.6896	-2.4854	-2.975	-2.4917	-2.7229	-2.975	-2.6562	-2.7979	-2.7479	-2.7062	258.665	141.528	39.427	211.465	-37.848	136.764	-32.684	183.162	116.451	157.750	193.964	-73.114	0.191	12.199	-52.949	-0.826	0.00014448	0.00013176	4.5723e-05	496.19	2.2985e-06	2.6848e-06	722.59	98.387	1.9649e-06	1.3003e-06	210.02	65.207	26.666	7.7535	5.1257e-07	26.304	0.00011253	8.2643e-05	2.2309e-05	463.21	9.8748e-07	9.0017e-07	680.01	92.559	9.1864e-07	9.3721e-07	187.9	62.195	24.987	7.3503	9.1263e-07	25.092	106.062	18.446	7.625	-66.030	61.019	72.832	-65.915	-60.300	70.990	78.931	-61.715	-55.991	-55.878	-51.571	94.144	-51.384	-8191	255	
2258.060	1	1	0	0	0.0097227	0.23307	0.049704	0.123	0.047437	0.057015	0.033625	0.31163	0.043614	0.073973	0.2192	0.10808	0.10151	0.051127	0.10437	0.06148	-2.4562	-2.6271	-2.6188	-3.0104	-2.7104	-2.7958	-2.7583	-2.6771	-3.1188	-2.6688	-2.8229	-2.8812	-2.7125	-2.9	-2.825	-2.6542	-10.474	90.408	226.561	279.541	53.673	-39.957	22.201	281.190	185.380	161.002	-40.135	-27.002	269.951	119.892	72.209	139.767	0.00018717	0.00029203	4.292e-05	493.25	1.0793e-06	2.7549e-06	721.91	98.259	1.9695e-06	2.1265e-06	212.34	66.08	26.392	7.7997	1.4285e-06	26.584	0.000101	8.4238e-05	2.0734e-05	460.28	1.0151e-06	8.4515e-07	678.97	92.386	8.4922e-07	8.7295e-07	189.74	62.388	25.042	7.3646	9.292e-07	25.234	104.612	27.172	12.072	-65.989	63.076	60.613	-65.817	-60.739	16.089	63.010	-61.679	-55.755	-56.499	-51.253	16.830	-51.660	-8191	255	
2258.132	1	1	0	0	0.30804	0.16911	0.23429	0.22613	0.33804	0.18098	0.17216	0.10096	0.08046	0.11295	0.17998	0.13509	0.31845	0.25672	0.050006	0.11737	-2.4875	-2.7	-2.7479	-2.7104	-2.7167	-2.9667	-2.8375	-2.6125	-2.9271	-2.7625	-2.6667	-3.0771	-2.6354	-2.8187	-2.8	-2.8667	173.128	59.747	9.634	265.290	-27.215	5.004	169.806	82.140	-46.257	171.381	-15.938	271.124	15.994	-22.028	-40.863	281.060	0.00017003	0.00018198	1.9786e-05	494.48	1.9711e-06	6.6711e-07	725.61	97.412	2.8892e-06	2.5542e-06	210.26	66.906	26.353	7.7727	2.5251e-06	26.556	0.00010467	8.0358e-05	2.2497e-05	462.41	9.7808e-07	7.8332e-07	683.21	92.677	9.7292e-07	9.8734e-07	188.47	63.085	25.095	7.4044	9.4245e-07	25.277	94.771	-15.707	60.110	-66.233	145.358	189.847	-65.712	-60.465	49.500	48.501	-61.468	-55.640	-56.481	-51.509	49.097	-51.452	-8191	255	
2258.253	1	1	0	0	0.18613	0.26579	0.10096	0.14073	0.092576	0.05483	0.19605	0.056364	0.10228	0.036804	0.052353	0.20029	0.11453	0.14098	0.17915	0.065731	-2.4771	-2.8583	-2.5833	-2.9188	-2.7917	-2.7708	-3.1937	-2.7396	-3.0229	-2.8187	-2.6208	-3.0187	-2.7562	-2.65	-2.8021	-2.5458	140.100	188.721	-32.257	-13.149	172.490	142.528	152.219	187.555	21.342	169.737	-39.022	130.368	41.687	-37.017	152.210	151.330	0.00013432	0.00027533	5.4224e-05	493.34	2.4498e-06	2.9596e-06	721.94	96.54	1.9378e-06	3.698e-07	201.11	64.757	25.885	7.5084	1.9259e-06	25.653	0.00010894	8.9714e-05	2.2091e-05	460.41	9.681e-07	8.2874e-07	679.33	90.854	7.8382e-07	8.1088e-07	181.94	61.132	24.35	7.1338	7.7329e-07	24.373	100.718	-11.840	-9.064	-65.895	73.245	53.827	-65.604	-60.785	60.741	-73.612	-60.971	-55.786	-56.422	-51.132	98.789	-51.446	-8191	255	
2258.349	1	1	0	0	0.18418	0.045758	0.035141	0.082838	0.18475	0.13352	0.11803	0.20545	0.28554	0.21298	0.26913	0.3003	0.24851	0.057793	0.10285	0.22313	-2.4083	-2.7583	-2.6604	-3.0042	-2.7	-2.7979	-2.9542	-2.7292	-2.7188	-2.8083	-2.6604	-3.0021	-2.725	-2.7104	-2.9458	-2.6646	122.275	88.487	38.084	213.764	280.470	64.684	-64.534	194.695	156.731	220.758	96.702	-64.461	42.994	206.657	107.752	271.877	0.00014609	0.00029987	5.9719e-05	492.03	1.4585e-06	1.7965e-06	717.1	95.732	3.2204e-06	1.9316e-06	202.6	64.048	25.404	7.5089	1.9449e-06	25.679	0.00010166	7.9851e-05	2.1924e-05	457.88	9.3587e-07	7.9533e-07	673.49	89.699	9.6198e-07	9.5153e-07	184.95	60.654	24.251	7.1185	1.0286e-06	24.451	108.247	1.859	44.938	-66.067	94.684	56.666	-66.178	-60.732	59.978	93.840	-60.781	-56.096	-55.792	-51.509	168.471	-51.671	-8191	255	
2258.445	1	1	0	0	0.10272	0.16973	0.27791	0.13724	0.16954	0.23338	0.14597	0.10039	0.13235	0.22749	0.071613	0.097349	0.068482	0.11174	0.13364	0.20866	-2.4042	-2.7979	-2.5187	-3.0312	-2.7917	-2.6708	-3.0771	-2.5167	-2.8646	-2.9708	-2.5229	-2.9521	-2.7604	-2.6146	-2.9104	-2.7125	44.565	-59.381	-19.853	-74.829	-8.953	160.018	232.030	156.456	10.061	-13.227	186.404	269.270	129.366	68.300	35.632	95.046	0.00016024	0.00017936	7.0067e-05	489.4	2.72e-06	1.6077e-06	722.15	96.142	4.6072e-07	2.7411e-06	205.93	64.552	25.675	7.4131	8.3305e-07	25.559	0.0001144	9.4138e-05	2.5334e-05	459.41	1.0675e-06	9.812e-07	680.4	90.538	9.4434e-07	9.8913e-07	185.43	61.043	24.359	7.0668	8.8321e-07	24.246	106.305	-35.624	22.311	-65.823	89.216	44.947	-65.948	-60.488	146.023	69.473	-60.485	-55.738	-56.864	-52.087	30.983	-51.317	-8191	255	
2258.541	1	1	0	0	0.37624	0.15798	0.017536	0.070033	0.047272	0.033193	0.28679	0.22739	0.18034	0.26522	0.12418	0.026747	0.2146	0.18026	0.21072	0.20806	-2.2521	-2.9479	-2.5125	-2.9188	-2.7771	-2.7271	-2.9562	-2.6208	-2.6646	-2.7729	-2.5583	-2.8438	-2.6813	-2.5938	-3.0167	-2.6729	185.688	-53.384	202.842	21.725	4.377	95.420	140.322	-62.133	37.623	202.144	208.714	29.334	-67.797	206.990	-58.905	-43.834	0.00014579	0.00020311	0.00011483	488.09	2.6075e-06	1.7975e-06	721.9	95.833	1.0543e-06	2.5287e-06	204.67	63.988	25.021	7.3633	2.7272e-06	25.064	0.00010298	8.3132e-05	2.2902e-05	459.63	9.7789e-07	8.6255e-07	679.61	89.87	8.8067e-07	7.6493e-07	183.39	60.392	23.887	6.9657	7.5809e-07	23.878	111.090	76.492	24.613	-66.037	38.290	73.072	-65.892	-60.378	59.144	67.943	-60.151	-55.833	-56.492	-51.492	62.198	-51.118	-8191	255	
2258.662	1	1	0	0	0.21153	0.30262	0.10078	0.1608	0.32187	0.31267	0.17013	0.15054	0.085812	0.28863	0.16264	0.099548	0.17805	0.11204	0.12802	0.15657	-2.1542	-2.9333	-2.5687	-2.7542	-2.7833	-2.7333	-3.0271	-2.8208	-2.7438	-2.9792	-2.5604	-2.7896	-2.6979	-2.6125	-2.8104	-2.9667	-23.881	71.146	-33.088	208.144	9.191	173.608	245.088	207.257	198.389	75.775	-78.230	-61.696	132.261	76.528	152.984	184.203	0.00014784	0.00011756	6.0062e-05	484.7	2.398e-06	2.6822e-06	714.04	92.702	1.6567e-06	2.0626e-06	204.02	61.185	24.752	7.1733	1.5756e-06	24.618	9.8804e-05	7.1782e-05	2.2132e-05	452.9	8.8733e-07	7.8232e-07	668.7	87.247	7.9993e-07	6.9609e-07	178.07	58.627	23.44	6.8128	7.0918e-07	23.348	105.725	-20.563	14.289	-66.373	89.098	105.509	-65.784	-60.592	-15.128	52.713	-62.706	-55.937	-57.452	-51.221	90.070	-51.298	-8191	255	
2258.733	1	1	0	0	0.23914	0.1285	0.22598	0.11479	0.14696	0.087822	0.067767	0.2967	0.28238	0.2326	0.08511	0.23283	0.11836	0.1224	0.26815	0.15747	-2.2938	-2.8604	-2.6375	-2.7896	-2.9667	-2.6125	-2.8104	-2.8271	-2.5271	-2.8063	-2.6208	-2.7083	-2.8271	-2.4896	-3.1896	-2.7417	151.468	129.645	-35.609	152.983	194.099	159.672	256.947	90.322	63.458	69.124	-1.423	-16.868	-28.051	152.202	239.658	-74.105	0.0001656	0.0002018	5.9998e-05	483.33	2.7761e-06	6.0682e-07	712.64	92.713	8.4595e-07	1.8389e-06	201.03	61.841	24.284	7.1216	2.6573e-06	24.258	9.4496e-05	6.3079e-05	1.9735e-05	453.09	7.7682e-07	6.9288e-07	668.97	86.967	6.931e-07	5.5743e-07	178.21	58.333	23.181	6.7281	6.1427e-07	22.999	103.904	-14.678	34.897	-66.559	39.589	-23.946	-65.918	-61.086	77.158	64.281	-61.526	-56.338	-57.133	-51.413	53.883	-51.555	-8191	255	
2258.829	1	1	0	0	0.11828	0.065245	0.17175	0.27286	0.19924	0.14919	0.19472	0.17735	0.13942	0.10578	0.049397	0.23461	0.027589	0.093448	0.11374	0.32814	-2.1583	-2.8708	-2.7375	-2.7375	-3.0708	-2.5812	-2.9896	-2.7021	-2.5583	-3.0354	-2.7771	-2.6396	-2.9896	-2.4958	-2.7396	-2.9542	101.896	194.012	-6.891	-15.719	117.283	185.642	-49.333	259.623	184.924	200.551	241.107	215.195	257.888	259.369	222.861	121.843	0.00012372	0.00023179	4.2445e-05	482.57	1.8369e-06	1.3807e-06	705.02	91.458	6.7343e-07	2.588e-06	202.39	61.783	24.565	7.1287	1.1118e-06	24.109	8.3726e-05	5.0605e-05	1.6366e-05	450.98	6.997e-07	6.3166e-07	665.39	86.301	6.6434e-07	5.4569e-07	177.25	58.063	23.189	6.6981	5.33e-07	22.915	109.877	33.496	7.645	-66.075	60.292	86.581	-65.858	-60.536	36.650	60.697	-60.699	-55.959	-56.247	-50.779	41.185	-51.339	-8191	255	
2258.950	1	1	0	0	0.052954	0.22841	0.31009	0.19249	0.22526	0.086808	0.15522	0.14924	0.096175	0.23958	0.097007	0.020243	0.26607	0.41508	0.22111	0.21996	-2.2104	-2.8583	-2.55	-2.7104	-2.9125	-2.6604	-2.8812	-2.8604	-2.6813	-2.9833	-2.8104	-2.7	-2.9	-2.6625	-2.9458	-2.8646	100.304	70.859	63.666	178.875	280.724	-12.023	81.009	252.341	93.343	248.169	280.337	202.801	183.438	146.170	82.524	117.093	0.00012563	0.00027043	4.7246e-05	483.02	2.0492e-07	2.2044e-06	714.41	92.34	2.3695e-06	1.7504e-06	190.1	61.244	24.173	7.0577	1.8215e-06	24.008	8.2582e-05	4.9644e-05	1.5408e-05	452.49	6.5404e-07	6.2626e-07	670.57	87.045	7.0269e-07	5.9344e-07	174.01	58.039	23.077	6.6615	6.205e-07	22.779	100.121	28.436	25.206	-66.333	116.267	79.257	-65.918	-60.771	9.619	74.149	-61.114	-55.772	-56.015	-50.947	66.263	-51.362	-8191	255	
2259.045	1	1	0	0	0.13115	0.20944	0.053255	0.3165	0.15056	0.22671	0.17169	0.31129	0.22578	0.14519	0.14876	0.21303	0.14676	0.23677	0.22346	0.04357	-2.075	-2.7146	-2.8208	-2.7771	-2.8812	-2.6333	-2.7896	-2.8958	-2.6708	-2.9708	-2.8479	-2.8458	-2.9958	-2.9021	-2.7625	-2.9188	-45.227	113.080	-59.345	-51.789	248.638	226.048	229.024	-68.956	-46.830	204.478	203.391	269.679	-22.088	116.329	198.051	38.606	0.00015277	0.00011668	5.3013e-05	476.47	1.526e-06	5.5665e-07	702.15	90.305	1.9782e-06	2.2706e-06	186.17	60.06	23.785	6.8735	2.6144e-06	23.526	8.8613e-05	5.3723e-05	1.8301e-05	446.78	6.4483e-07	6.8008e-07	658.69	85.088	6.7297e-07	5.443e-07	171.42	56.763	22.601	6.499	5.9108e-07	22.29	102.975	40.546	40.143	-65.760	92.865	49.981	-65.853	-60.816	22.937	49.936	-61.112	-55.713	-56.422	-51.526	46.075	-51.395	-8191	255	
2259.141	1	1	0	0	0.13054	0.22376	0.13175	0.16546	0.18684	0.058718	0.17454	0.17902	0.21037	0.21824	0.16099	0.032414	0.033803	0.19353	0.16826	0.2272	-2.2458	-2.775	-2.775	-2.5667	-2.9792	-2.7646	-2.8479	-3.1188	-2.7271	-2.9417	-2.9646	-2.775	-2.9979	-2.7375	-2.6396	-2.9208	-76.954	214.235	-63.696	75.168	170.317	164.278	232.149	170.946	68.147	248.283	194.856	-69.599	99.873	84.333	-57.193	99.391	0.00016254	0.00036393	3.5852e-05	478.71	1.2573e-06	2.7762e-06	701.24	89.659	1.7756e-06	2.6245e-06	193.18	60.04	23.884	6.8659	1.0947e-06	23.421	8.8153e-05	5.2273e-05	1.4674e-05	448.28	5.4832e-07	5.8764e-07	660.98	84.691	5.8647e-07	5.445e-07	171.58	56.683	22.648	6.4801	6.0296e-07	22.201	84.894	-11.315	54.637	-66.084	50.849	70.711	-65.989	-60.552	31.436	69.213	-61.587	-56.017	-56.782	-51.809	86.903	-51.396	-8191	255	
2259.261	1	1	0	0	0.1943	0.01958	0.12105	0.28778	0.046095	0.24488	0.081501	0.16481	0.22049	0.050582	0.09152	0.11555	0.13988	0.21357	0.1697	0.031704	-2.1688	-2.8833	-2.8833	-2.7542	-3.0271	-2.6958	-2.8979	-2.9583	-2.5563	-2.9313	-2.9042	-2.6146	-2.8271	-2.9396	-2.8688	-2.8833	-58.323	-7.679	246.503	76.421	-47.954	34.519	32.214	201.517	182.508	265.473	-17.529	123.785	110.440	179.831	119.357	175.889	0.00016763	0.0002212	5.488e-05	477.24	2.083e-06	2.0382e-06	706.44	90.15	3.5137e-07	2.2095e-06	191.37	59.496	23.918	6.8172	1.2302e-06	23.192	8.6489e-05	5.2563e-05	1.6406e-05	448.22	6.4425e-07	6.2046e-07	664.11	84.803	6.4516e-07	6.1154e-07	172.18	56.408	22.578	6.4288	5.7217e-07	21.969	105.534	29.001	31.798	-66.206	61.232	102.776	-65.905	-60.515	218.300	113.481	-60.998	-55.800	-56.928	-51.580	25.268	-51.446	-8191	255	
2259.357	1	1	0	0	0.10549	0.24201	0.13171	0.20204	0.05488	0.24497	0.12327	0.23451	0.11948	0.16229	0.095849	0.16829	0.12027	0.16815	0.047867	0.10038	-2.2771	-2.6562	-2.8333	-2.6521	-2.6604	-2.7583	-2.5687	-2.8604	-2.6146	-2.8333	-2.8333	-2.7771	-2.7708	-2.9333	-2.6188	-2.8792	147.834	20.640	141.259	259.082	262.275	125.815	146.600	197.352	190.300	247.692	-46.027	-12.941	31.456	91.195	35.860	64.037	0.00013946	9.5712e-05	3.5628e-05	481.05	1.5454e-06	1.5777e-06	707.13	90.345	7.5477e-07	1.8063e-06	187.06	57.903	23.303	6.4659	2.2575e-06	22.208	8.3533e-05	5.0496e-05	1.2834e-05	450.28	5.6118e-07	5.9865e-07	666.31	84.752	6.0469e-07	5.0292e-07	169.89	54.929	22.156	6.1756	5.291e-07	20.931	102.368	13.625	3.613	-66.149	79.544	131.706	-65.862	-60.332	22.491	75.429	-61.089	-56.048	-57.119	-51.272	71.716	-51.045	-8191	255	
2259.429	1	1	0	0	0.11321	0.1176	0.21349	0.10648	0.17468	0.096642	0.24611	0.17024	0.055779	0.14935	0.065823	0.088397	0.09875	0.22311	0.035482	0.13342	-2.15	-2.6604	-3.0104	-2.6146	-2.8125	-2.9	-2.875	-2.8021	-2.7542	-2.6146	-2.8604	-2.7292	-2.8583	-2.8604	-2.5563	-2.7146	50.023	11.254	152.614	-35.619	126.639	246.618	163.620	247.955	177.085	37.191	48.292	118.251	132.754	240.722	184.596	249.677	0.00011017	0.00023611	5.8802e-05	478.81	6.3359e-07	1.3088e-06	693.19	88.183	1.701e-06	1.2684e-06	185.46	57.714	23.243	6.5726	1.3388e-06	21.969	7.5095e-05	4.7812e-05	1.1811e-05	446.47	5.372e-07	4.6999e-07	652.4	82.933	5.5023e-07	4.7646e-07	166.37	54.066	21.911	6.1912	5.56e-07	20.867	103.666	36.833	0.703	-66.166	17.685	68.717	-65.996	-60.887	44.912	62.517	-59.940	-55.758	-56.348	-52.193	103.326	-51.238	-8191	255	
2259.550	1	1	0	0	0.13756	0.24134	0.16057	0.2463	0.14171	0.12855	0.17599	0.17245	0.068925	0.012244	0.088836	0.32095	0.16152	0.11048	0.20729	0.058372	-2.2875	-2.4208	-2.9667	-2.6667	-2.625	-2.8875	-2.5979	-2.8583	-2.8125	-2.6229	-2.9625	-2.8479	-2.6917	-3.0146	-2.5646	-2.925	-22.611	-46.754	-66.105	238.103	78.988	79.187	184.239	180.079	277.582	229.341	90.985	147.776	-45.295	89.610	155.220	241.370	0.00013941	0.00022026	4.7806e-05	476.7	1.1307e-06	1.6589e-06	694.42	88.722	1.2281e-06	2.4e-06	182.62	57.444	23.32	6.6758	1.8322e-06	22.34	7.4545e-05	4.8139e-05	1.2561e-05	445.97	5.8055e-07	5.3122e-07	653.93	83.231	6.0335e-07	5.0571e-07	166.78	54.608	22.053	6.2917	6.1758e-07	21.178	117.779	-21.381	14.239	-66.033	83.681	90.873	-66.042	-60.736	87.417	108.045	-61.312	-55.556	-56.455	-51.126	110.383	-51.130	-8191	255	
2259.646	1	1	0	0	0.22043	0.26019	0.037762	0.25834	0.31864	0.21716	0.26252	0.13402	0.30807	0.21839	0.27789	0.26643	0.23064	0.09679	0.049647	0.29556	-2.3417	-2.7125	-2.9333	-2.4479	-2.625	-2.9938	-2.6646	-2.7604	-2.8667	-2.7188	-2.7812	-2.775	-2.7417	-2.9479	-2.6771	-2.9083	231.825	253.510	-21.216	271.673	144.740	253.959	223.732	-42.994	146.332	144.838	-21.926	142.303	211.864	0.755	158.782	281.119	0.00017215	0.0003098	7.5053e-05	480.57	2.4652e-06	1.1723e-06	699.22	89.526	8.9615e-07	8.7783e-09	187.36	58.491	23.727	6.6158	2.2437e-06	22.667	7.918e-05	5.0949e-05	1.2459e-05	446.85	6.218e-07	5.3502e-07	658.43	83.981	6.2521e-07	5.9046e-07	167.27	55.122	22.351	6.2916	6.0803e-07	21.431	104.466	-3.066	37.119	-66.095	59.616	166.141	-65.863	-60.872	-16.215	88.796	-61.417	-56.144	-56.411	-51.051	58.423	-51.403	-8191	255	
2259.742	1	1	0	0	0.25576	0.14986	0.10489	0.025283	0.17324	0.16484	0.17564	0.34	0.089109	0.17614	0.2292	0.055907	0.16239	0.13178	0.26184	0.35221	-2.3833	-2.6188	-2.8375	-2.8458	-2.5563	-2.8375	-2.7042	-2.8146	-2.9938	-2.8354	-2.9792	-2.8	-2.5708	-2.8187	-2.7313	-2.8646	244.406	127.423	212.981	173.570	124.842	195.208	242.976	150.072	32.213	266.641	26.415	-26.721	-54.042	71.870	243.005	277.540	0.00011838	0.00016723	6.567e-05	479.22	8.455e-07	1.7813e-06	703.82	89.156	1.3449e-06	9.303e-07	187.48	57.856	23.272	6.6396	7.399e-07	22.344	7.6952e-05	5.4721e-05	1.4045e-05	448.11	5.7307e-07	5.1541e-07	661.71	84.001	5.7343e-07	4.874e-07	168.17	54.696	22.113	6.2573	5.4781e-07	21.086	107.956	7.548	57.696	-65.981	15.559	40.977	-65.808	-60.426	32.135	45.310	-61.300	-55.826	-56.137	-51.856	13.660	-51.108	-8191	255	
2259.838	1	1	0	0	0.056831	0.16682	0.36659	0.18365	0.3176	0.18676	0.23916	0.37683	0.1278	0.055679	0.1242	0.088817	0.22605	0.31405	0.10039	0.22215	-2.4542	-2.5854	-2.7812	-2.6708	-2.7875	-2.8312	-2.7062	-2.6437	-2.8833	-2.7271	-2.8771	-2.8479	-2.7771	-2.9896	-2.8063	-2.7667	267.141	119.495	-23.507	8.470	272.571	23.436	254.215	257.336	195.614	27.521	73.099	3.374	183.129	-66.943	266.615	13.101	0.00015717	0.00025887	4.9777e-05	472.82	2.6236e-06	2.3348e-06	690.89	87.254	2.2732e-07	2.1755e-06	189.16	56.883	23.072	6.5281	1.5186e-06	22.237	6.9821e-05	4.7613e-05	1.175e-05	443.29	5.7653e-07	4.3998e-07	651.44	82.505	5.0688e-07	5.4928e-07	165.22	54.004	21.904	6.1778	5.4002e-07	21.126	106.905	14.728	54.324	-66.229	96.880	54.726	-65.766	-61.109	8.916	41.597	-60.781	-55.902	-57.192	-50.685	50.769	-51.082	-8191	255	
2259.957	1	1	0	0	0.20113	0.096582	0.071827	0.19096	0.25548	0.080088	0.17631	0.36436	0.14472	0.11893	0.12136	0.19543	0.24738	0.26991	0.17985	0.063838	-2.4354	-2.5938	-2.7583	-2.8854	-2.6167	-2.8542	-2.9437	-2.7667	-3.0187	-2.7521	-2.7875	-2.95	-2.5938	-3.0187	-3.0417	-2.8042	-70.685	268.901	256.205	257.996	75.827	190.338	206.916	-23.472	265.267	-9.925	262.984	255.271	69.576	26.852	50.126	112.809	0.00018495	0.00022744	6.6262e-05	470.51	2.9132e-06	3.491e-06	695.71	88.445	8.7799e-07	1.2919e-06	191.08	57.971	23.64	6.6817	2.8642e-06	22.694	7.3074e-05	4.7939e-05	1.2703e-05	442.55	5.8593e-07	4.824e-07	654.04	83.161	5.3277e-07	5.5982e-07	167.58	54.945	22.112	6.2825	5.7783e-07	21.476	104.131	16.622	27.060	-65.899	84.242	54.093	-66.243	-60.799	72.536	43.870	-60.455	-55.941	-56.268	-51.101	78.026	-51.176	-8191	255	
2260.029	1	1	0	0	0.13885	0.066408	0.33704	0.11744	0.22098	0.15582	0.25182	0.10677	0.25544	0.19555	0.07927	0.23918	0.051901	0.072626	0.16482	0.24087	-2.4917	-2.5354	-2.7417	-2.9667	-2.6979	-2.9604	-2.9917	-2.6688	-2.8563	-2.6583	-2.6917	-3.0062	-2.6479	-2.9354	-2.7438	-2.7375	-23.169	-73.560	114.910	246.738	26.630	120.582	203.559	205.118	112.878	-38.860	14.657	2.621	136.782	-7.138	149.555	221.542	0.00014089	0.00017092	5.5196e-05	475.14	1.5593e-06	2.9899e-06	692.88	89.363	1.4852e-06	2.0823e-06	188.56	59.294	23.836	6.8362	2.5991e-06	23.409	6.9539e-05	5.3361e-05	1.4501e-05	444.75	5.7787e-07	5.0741e-07	654.79	83.94	6.1217e-07	5.7534e-07	169.58	55.97	22.514	6.4654	6.6513e-07	22.22	114.973	35.502	38.289	-65.833	108.994	60.598	-66.312	-60.624	52.901	49.654	-60.598	-55.958	-56.380	-50.970	41.072	-50.940	-8191	255	
2260.125	1	1	0	0	0.022902	0.19702	0.057472	0.058599	0.16613	0.24436	0.29196	0.084799	0.33297	0.1796	0.25394	0.14061	0.082779	0.026485	0.23339	0.18109	-2.6125	-2.6375	-2.5521	-2.9354	-2.7812	-2.775	-2.9271	-2.7938	-2.9271	-2.6708	-2.7083	-2.7083	-2.6729	-2.7042	-3.0312	-2.5479	121.687	61.821	246.142	131.066	-49.289	2.957	234.642	-56.327	-3.431	171.685	192.264	152.470	33.886	13.986	111.926	59.934	0.00014858	0.0001708	5.8898e-05	473.61	2.0037e-06	5.4625e-07	702.96	90.394	2.1348e-06	2.2115e-06	191.19	60.243	24.097	6.9322	2.397e-06	23.546	8.4795e-05	6.0704e-05	1.6462e-05	443.21	6.9701e-07	5.6923e-07	659.93	84.645	6.3001e-07	7.0127e-07	171.96	57.022	22.813	6.5547	6.6026e-07	22.33	109.113	-5.925	26.222	-66.341	86.696	102.625	-65.961	-61.001	28.976	92.003	-60.730	-56.087	-57.151	-50.900	56.148	-51.418	-8191	255	
2260.221	1	1	0	0	0.0459	0.038137	0.16885	0.2577	0.22559	0.18846	0.17216	0.076964	0.19178	0.098043	0.1816	0.20721	0.24065	0.1055	0.16557	0.26668	-2.2875	-2.7354	-2.6312	-3.125	-2.7062	-2.8125	-2.9396	-2.5646	-2.9333	-2.8312	-2.6479	-3.1042	-2.7625	-2.7625	-2.8833	-2.7146	143.283	90.274	145.488	272.293	278.846	145.206	248.160	-75.931	-41.136	227.142	96.980	-51.844	249.424	198.495	236.739	215.959	0.00012299	0.00018817	1.0996e-05	473.48	7.3144e-07	2.5702e-06	693.27	89.452	1.0826e-06	2.5757e-06	187.12	59.844	23.881	6.7909	1.8478e-06	23.463	8.9222e-05	6.986e-05	1.7222e-05	442.22	7.396e-07	6.7628e-07	651.75	84.291	7.3184e-07	7.7308e-07	169.46	56.406	22.652	6.4803	7.2847e-07	22.216	117.122	-35.482	74.171	-66.185	-21.865	76.610	-65.904	-61.464	-2.195	31.812	-61.125	-55.561	-55.684	-50.947	83.838	-51.273	-8191	255	
2260.342	1	1	0	0	0.19801	0.079254	0.058582	0.10387	0.23012	0.31569	0.13862	0.34524	0.1386	0.32479	0.19215	0.26701	0.2151	0.17875	0.15931	0.13799	-2.4229	-2.7458	-2.5146	-2.9188	-2.6688	-2.7146	-3.0521	-2.7396	-2.8438	-2.95	-2.7021	-2.9979	-2.6521	-2.6562	-2.8021	-2.8187	193.680	-59.070	242.227	273.339	118.759	98.658	-56.990	266.690	175.953	128.965	-65.359	279.222	194.571	-47.994	-51.343	133.989	0.00014769	0.00017008	4.6041e-05	471.08	1.732e-06	8.027e-07	694.25	89.748	1.0025e-06	1.8053e-06	190.59	59.346	23.96	6.8564	1.4011e-06	23.24	8.9193e-05	6.9044e-05	1.6959e-05	441.34	8.0809e-07	6.7408e-07	653.64	84.414	6.8371e-07	6.5113e-07	170.68	56.206	22.624	6.4697	6.5422e-07	22.006	93.552	-25.127	5.046	-66.207	32.648	54.711	-66.166	-60.770	24.712	87.702	-60.393	-55.664	-56.885	-50.836	62.180	-51.559	-8191	255	
2260.438	1	1	0	0	0.1739	0.16779	0.22787	0.10168	0.14682	0.12908	0.086601	0.19127	0.24254	0.087964	0.17266	0.13617	0.18584	0.011315	0.050928	0.19409	-2.3667	-2.7271	-2.6333	-2.9979	-2.8333	-2.675	-3.0938	-2.5042	-2.7708	-2.9667	-2.4958	-2.6375	-2.8187	-2.6167	-2.8583	-2.7292	-21.411	14.370	216.987	157.588	74.424	236.944	-29.838	-21.930	149.437	195.561	77.040	50.167	22.774	143.686	-64.449	269.211	0.00013179	0.0003032	2.4253e-05	470.82	1.851e-06	2.5616e-06	700.98	89.153	7.3918e-07	1.5733e-06	189.17	59.349	23.68	6.8158	1.7413e-06	23.118	8.1705e-05	6.4058e-05	1.5165e-05	441.61	7.1428e-07	5.8944e-07	655.28	83.997	6.4688e-07	5.5723e-07	168.54	55.867	22.439	6.4509	6.2713e-07	21.893	106.392	-25.186	17.168	-66.017	86.506	45.271	-66.315	-60.609	80.306	80.599	-60.264	-55.863	-56.469	-51.594	55.783	-50.886	-8191	255	
2260.534	1	1	0	0	0.066912	0.17137	0.24235	0.11924	0.090026	0.17268	0.29636	0.27766	0.057104	0.19754	0.17935	0.17009	0.044143	0.15993	0.26045	0.058864	-2.3812	-2.8229	-2.7979	-3.0604	-2.7562	-2.6958	-2.8854	-2.5354	-2.8042	-2.9833	-2.6375	-3.0187	-2.7833	-2.5125	-2.7958	-2.7208	-46.436	-67.873	-66.124	-74.526	211.214	-77.542	176.922	-19.083	15.919	272.699	81.523	-73.407	38.666	153.247	273.221	143.678	0.00013224	0.00018544	4.8634e-05	476.11	9.4414e-07	9.451e-07	700.93	88.935	1.1786e-06	2.158e-06	185.67	58.652	23.645	6.7566	1.3298e-06	22.491	8.3488e-05	5.1384e-05	1.6493e-05	444.18	6.3331e-07	5.7764e-07	659.05	83.974	5.9645e-07	5.2978e-07	167.67	55.559	22.406	6.3875	5.7295e-07	21.512	101.854	-58.019	36.810	-66.100	16.330	48.318	-65.696	-60.817	26.102	50.515	-59.215	-55.848	-56.691	-51.539	-12.621	-51.372	-8191	255	
2260.630	1	1	0	0	0.20627	0.23314	0.29724	0.15126	0.07675	0.19963	0.078717	0.21966	0.31223	0.11203	0.067666	0.067097	0.11875	0.22681	0.035364	0.052203	-2.2812	-3.0938	-2.7062	-2.9042	-2.8521	-2.7458	-2.9229	-2.5792	-2.6562	-3.0208	-2.7125	-2.8958	-2.8917	-2.8208	-3.0187	-2.7042	180.919	-13.885	144.408	-10.342	264.134	27.416	-68.998	223.531	274.406	50.994	183.107	128.890	174.611	-25.341	35.521	68.147	0.0001271	0.00021888	6.6538e-05	468.94	7.9372e-07	2.0376e-06	685.47	88.093	6.8241e-07	2.8563e-06	185.44	57.468	23.329	6.6989	3.0259e-06	22.683	7.7798e-05	4.7831e-05	1.7308e-05	439.54	6.5404e-07	6.0645e-07	647.34	82.875	6.6031e-07	6.2149e-07	166.35	54.718	22.111	6.3559	5.9225e-07	21.526	126.090	-16.092	30.897	-66.151	79.997	60.024	-66.119	-60.731	58.223	64.889	-61.119	-55.718	-56.799	-51.448	54.670	-51.116	-8191	255	
2260.726	1	1	0	0	0.16198	0.065487	0.10414	0.25968	0.074192	0.22106	0.36521	0.29281	0.14775	0.10476	0.1468	0.16428	0.1967	0.15432	0.1608	0.051212	-2.4167	-3.0187	-2.65	-2.8187	-3.0208	-2.6458	-2.9896	-2.8917	-2.8167	-2.9708	-2.7854	-2.8646	-2.9625	-2.625	-2.8125	-2.7667	161.770	253.450	7.934	171.803	262.460	7.975	238.811	194.717	105.516	53.924	54.027	242.662	137.047	72.686	37.630	162.733	0.00016493	0.0002317	9.5849e-06	473.05	2.3323e-06	1.0512e-06	690.86	87.569	1.7848e-06	8.5534e-07	187.32	57.738	23.62	6.6822	8.7575e-07	22.556	8.1884e-05	5.3089e-05	1.5991e-05	439.74	6.3044e-07	6.0905e-07	647.56	82.722	6.2061e-07	5.5186e-07	167.04	54.798	22.199	6.3291	5.4236e-07	21.481	112.477	5.713	132.253	-66.057	88.264	78.242	-66.057	-61.093	49.686	-1.770	-62.113	-55.785	-57.166	-51.520	44.938	-51.000	-8191	255	
2260.822	1	1	0	0	0.10019	0.12438	0.024195	0.15591	0.12753	0.30697	0.16674	0.21879	0.010545	0.30345	0.10189	0.048246	0.16671	0.10689	0.14424	0.094946	-2.1792	-2.9083	-2.7708	-2.7333	-2.8854	-2.6667	-2.7812	-2.7667	-2.5854	-2.9896	-2.8521	-2.8167	-2.7708	-2.7271	-2.6917	-3.0062	131.994	26.259	7.204	8.138	268.513	274.622	-77.212	-69.279	-12.086	6.156	279.746	83.341	-41.667	214.819	235.920	197.697	0.00015254	0.00017718	3.4137e-05	469.6	1.5816e-06	2.3325e-06	690.66	88.126	1.8384e-06	2.5011e-06	188.45	58.363	23.352	6.6785	2.1447e-06	22.643	8.016e-05	5.0877e-05	1.4532e-05	440.17	6.5768e-07	5.8124e-07	651.94	83.115	6.6089e-07	5.3734e-07	167.72	55.169	22.181	6.3261	5.1624e-07	21.537	108.082	-3.490	47.897	-65.983	56.004	108.100	-66.239	-60.733	33.441	75.429	-60.376	-55.687	-56.579	-51.177	41.827	-51.728	-8191	255	
2260.941	1	1	0	0	0.2601	0.20713	0.23591	0.12554	0.14071	0.052345	0.19234	0.32246	0.13135	0.176	0.22878	0.21361	0.28269	0.19739	0.14095	0.09895	-2.1208	-2.7938	-2.6729	-2.7375	-2.8167	-2.5	-2.8292	-2.8292	-2.6042	-3.0083	-2.7771	-2.825	-2.9313	-2.7021	-2.7687	-3.0542	77.195	123.603	31.901	269.430	46.824	170.878	257.709	278.400	36.413	249.514	-3.003	124.373	126.809	274.200	-77.561	10.885	0.00013863	0.0001278	6.2256e-05	474.45	1.3299e-06	2.3694e-06	691.79	88.345	1.4125e-06	1.7817e-06	183.23	58.073	23.249	6.6342	2.1079e-06	22.543	8.0532e-05	4.9082e-05	1.5591e-05	440.7	6.3581e-07	5.9264e-07	652.27	83.022	6.0604e-07	4.9954e-07	168.26	54.888	22.011	6.2651	6.0277e-07	21.271	106.322	149.222	37.595	-66.080	19.432	51.401	-65.808	-60.871	62.135	52.730	-60.987	-55.503	-56.538	-51.161	26.091	-51.126	-8191	255	
2261.037	1	1	0	0	0.24605	0.15566	0.22373	0.18848	0.25526	0.11732	0.15692	0.23263	0.12004	0.047362	0.013052	0.22713	0.13449	0.18968	0.31013	0.18146	-2.0333	-2.8729	-2.7958	-2.7979	-2.8979	-2.5083	-2.6729	-2.75	-2.6167	-3.0854	-2.7458	-2.4875	-2.8604	-2.6646	-2.7604	-3.0354	241.401	103.743	159.380	148.846	39.952	193.349	206.199	275.807	100.292	-71.999	-26.293	156.763	47.905	198.724	224.436	91.455	0.00014853	0.00029183	4.0156e-05	467.6	1.0732e-06	1.3016e-06	683.96	87.15	1.4445e-06	2.255e-06	184.3	57.417	23.083	6.5504	1.5806e-06	22.287	8.0131e-05	4.9644e-05	1.6548e-05	436.74	6.2008e-07	6.1645e-07	642.72	81.76	6.4152e-07	5.5664e-07	164.37	54.144	21.811	6.2061	5.7744e-07	21.222	117.976	15.496	14.238	-66.204	91.561	53.058	-66.031	-60.716	68.899	80.800	-59.938	-56.157	-56.506	-51.193	165.929	-51.387	-8191	255	
2261.134	1	1	0	0	0.030505	0.16685	0.17655	0.054035	0.04715	0.12116	0.021278	0.067022	0.2174	0.04528	0.093462	0.13716	0.13315	0.29887	0.25831	0.24668	-2.1104	-2.8812	-2.8625	-2.6104	-2.9667	-2.8021	-2.8521	-3.0396	-2.6562	-2.8146	-2.9479	-2.6354	-2.9146	-2.6417	-2.6854	-3.0062	27.763	219.150	64.607	111.908	213.878	151.919	26.855	181.138	21.877	181.285	108.967	246.340	-51.377	153.087	-12.240	264.014	0.00015193	0.00018985	1.0695e-05	466.38	1.5315e-06	2.3434e-06	680.64	87.345	2.5389e-06	1.7085e-06	187.29	57.509	22.809	6.576	2.3489e-06	22.571	8.5776e-05	5.2019e-05	1.5099e-05	434.63	6.6113e-07	5.8524e-07	641.16	82.02	6.8236e-07	5.626e-07	166.07	54.554	21.794	6.2482	6.1797e-07	21.452	100.373	2.134	111.952	-66.067	39.890	36.354	-65.931	-61.433	47.035	87.761	-59.799	-55.431	-56.282	-50.939	75.460	-51.148	-8191	255	
2261.230	1	1	0	0	0.25256	0.13302	0.19169	0.094129	0.093663	0.16473	0.39482	0.16985	0.095173	0.32428	0.21941	0.075489	0.33434	0.12144	0.17824	0.1565	-2.3083	-2.7188	-2.7958	-2.6917	-2.9542	-2.7979	-2.6083	-2.925	-2.6875	-2.7958	-3.0146	-2.5062	-2.8917	-2.8125	-2.6667	-3.0187	260.036	218.263	28.788	65.154	262.293	-44.406	189.022	172.277	167.296	51.664	202.697	198.764	210.366	205.253	46.444	212.251	0.00013958	0.00019201	3.9419e-05	460.06	1.6439e-06	2.5422e-06	681.72	86.819	1.8143e-06	1.7944e-06	184.37	57.753	23.273	6.5628	3.012e-06	22.723	9.3857e-05	5.2944e-05	1.6761e-05	431.71	6.7015e-07	6.1865e-07	640.72	82.134	7.867e-07	6.2388e-07	167.42	54.884	21.992	6.2604	6.018e-07	21.514	103.576	-4.394	37.573	-66.545	98.470	24.065	-66.178	-60.800	20.674	87.166	-60.997	-55.198	-56.868	-51.691	74.312	-51.410	-8191	255	
2261.326	1	1	0	0	0.2367	0.14471	0.35343	0.27313	0.20283	0.09171	0.23308	0.24416	0.13554	0.23779	0.36928	0.17692	0.052571	0.35409	0.20255	0.113	-2.3063	-2.6417	-2.7896	-2.5833	-2.8771	-2.7458	-2.5917	-2.9083	-2.6729	-2.7125	-2.9062	-2.7854	-2.9604	-2.925	-2.6667	-3.1063	-2.964	54.299	91.994	168.901	1.690	109.721	182.150	150.439	181.226	217.717	208.498	165.414	232.063	229.396	13.228	-38.805	0.00016569	0.00018187	2.3509e-05	465.26	2.1062e-06	2.4117e-06	690.85	88.916	4.8769e-07	1.6729e-06	188.13	57.961	23.147	6.5842	1.2194e-06	22.559	8.3547e-05	5.8691e-05	1.5611e-05	436.49	6.6056e-07	5.6703e-07	647.5	83.522	6.6146e-07	5.6619e-07	168.18	54.845	21.958	6.2303	5.7627e-07	21.303	100.613	46.741	67.204	-66.124	57.726	36.396	-66.049	-60.763	67.041	53.761	-61.728	-56.199	-56.536	-51.396	37.685	-51.387	-8191	255	
2261.422	1	1	0	0	0.16287	0.061595	0.15601	0.24879	0.081482	0.023227	0.19062	0.22084	0.099704	0.052526	0.14674	0.12404	0.060721	0.1663	0.267	0.14113	-2.3937	-2.6937	-2.8875	-2.7062	-2.6729	-2.8979	-2.8	-2.9917	-2.7562	-2.6542	-2.8271	-2.6146	-2.6917	-2.8875	-2.5854	-2.9062	125.227	234.885	28.571	175.361	124.025	242.326	206.935	214.559	-53.523	254.105	129.634	169.243	181.625	234.923	244.416	232.129	0.00014697	0.00016822	3.2795e-05	462.53	2.9641e-06	9.6752e-07	681.84	88.014	1.8433e-06	2.2839e-06	185.16	57.633	22.9	6.5185	1.0711e-06	22.493	8.1349e-05	5.3397e-05	1.404e-05	433.05	6.2852e-07	6.0045e-07	639.18	82.371	6.8083e-07	5.7812e-07	166.22	54.389	21.922	6.235	6.398e-07	21.398	110.901	-15.732	23.075	-66.317	105.306	38.236	-66.245	-60.307	24.432	65.848	-62.570	-55.917	-56.327	-51.904	-52.326	-51.402	-8191	255	
2261.518	1	1	0	0	0.13251	0.35492	0.12256	0.18324	0.10346	0.13473	0.075567	0.083269	0.13279	0.097261	0.10256	0.1228	0.25423	0.24625	0.17384	0.19122	-2.4	-2.6104	-2.9521	-2.6917	-2.6688	-2.9146	-2.7792	-2.8271	-2.9458	-2.65	-2.8833	-2.5979	-2.5667	-2.9813	-2.6625	-2.8542	166.531	161.877	267.099	261.496	155.208	206.912	112.523	50.898	-4.700	233.173	-59.009	18.486	276.567	94.970	207.001	238.670	0.00010009	0.00020664	4.0013e-05	462.28	6.08e-07	2.4007e-06	684.54	88.968	8.1249e-07	1.0583e-06	191.46	58.406	23.419	6.8484	4.6214e-07	22.961	8.8925e-05	6.0396e-05	1.7111e-05	436.03	6.5058e-07	5.8724e-07	644.43	84.042	7.2705e-07	6.7859e-07	170.27	55.54	22.407	6.4259	6.5032e-07	21.878	105.977	24.275	25.324	-66.312	-33.453	69.924	-66.134	-60.628	19.474	41.855	-60.287	-55.613	-56.505	-51.332	251.605	-51.723	-8191	255	
2261.639	1	1	0	0	0.17583	0.27378	0.24819	0.17498	0.061021	0.11961	0.17427	0.11537	0.096696	0.46338	0.10326	0.28452	0.32361	0.14527	0.1982	0.11262	-2.3375	-2.6854	-2.7833	-2.8271	-2.5958	-2.9833	-2.7646	-2.9104	-2.9188	-2.6854	-2.9104	-2.9771	-2.6188	-2.8771	-2.6167	-2.8063	-22.077	-61.563	-42.860	274.122	241.656	221.558	-69.949	239.065	98.187	74.180	25.378	121.899	134.531	11.941	85.176	-74.551	0.00011143	0.0002389	7.6345e-05	471.81	2.7949e-06	1.4715e-06	692.41	91.675	1.3208e-06	1.7415e-06	185.08	59.56	24.184	6.8191	2.1628e-06	23.581	8.7885e-05	5.8039e-05	1.5981e-05	442.8	7.068e-07	6.1665e-07	652.85	85.609	7.048e-07	6.7361e-07	169.91	56.408	22.818	6.484	6.9008e-07	22.325	105.818	-40.858	-11.895	-66.232	61.017	80.190	-65.879	-60.633	79.156	87.667	-58.935	-55.958	-56.583	-52.122	73.957	-51.377	-8191	255	
2261.735	1	1	0	0	0.017622	0.17359	0.20199	0.029829	0.12007	0.2268	0.11527	0.15897	0.13767	0.013271	0.33031	0.19173	0.23185	0.15564	0.43198	0.23715	-2.5167	-2.5896	-2.9271	-2.8042	-2.55	-2.8146	-2.8563	-2.8521	-3.05	-2.5833	-2.9104	-2.9542	-2.7917	-2.7792	-2.75	-2.7125	140.982	245.434	9.723	166.185	-74.854	-0.568	-71.847	203.178	81.070	233.028	189.341	-32.945	164.369	10.079	-0.328	249.401	0.00011219	0.00025809	3.1027e-05	473.77	1.2775e-06	8.1835e-07	699.03	91.45	9.8344e-07	1.4946e-06	194.4	59.828	24.132	6.846	1.713e-06	23.443	8.7247e-05	6.2173e-05	1.5753e-05	444.75	7.1658e-07	6.2206e-07	657.72	85.994	6.5532e-07	6.4815e-07	173	56.783	22.794	6.5292	6.7449e-07	22.253	109.264	-7.572	10.603	-66.103	46.458	-0.848	-65.894	-60.607	147.290	70.413	-61.203	-55.711	-56.354	-52.202	12.162	-51.715	-8191	255	
2261.829	1	1	0	0	0.10676	0.06033	0.019042	0.24518	0.15804	0.062179	0.20758	0.27862	0.14019	0.26504	0.14646	0.15225	0.22314	0.25942	0.23114	0.16872	-2.4125	-2.6188	-2.6292	-2.7667	-2.6271	-2.9729	-2.8042	-2.6813	-2.7771	-2.6333	-2.7854	-2.8	-2.7562	-2.7062	-2.7729	-2.6708	-32.943	60.522	-42.157	208.998	215.598	187.110	160.290	11.468	-46.332	-69.778	254.418	123.748	86.787	176.383	232.197	-62.390	0.00013248	0.00010844	5.3351e-05	467.03	1.0214e-06	1.9915e-06	687.21	90.572	6.2907e-07	8.9356e-07	190.69	59.85	23.899	6.9486	1.8043e-06	23.796	8.9698e-05	5.9562e-05	1.4785e-05	438.54	7.3001e-07	5.9464e-07	647.9	85.223	6.8639e-07	7.7885e-07	171.92	56.676	22.793	6.5657	6.9651e-07	22.583	102.336	-43.718	-5.685	-65.759	70.756	63.692	-66.203	-60.477	19.705	64.962	-60.382	-56.239	-56.764	-51.593	36.509	-51.517	-8191	255	
2261.903	1	1	0	0	0.088414	0.23878	0.089545	0.079407	0.033738	0.14278	0.18132	0.21707	0.26649	0.14399	0.13301	0.17479	0.14062	0.16208	0.17831	0.24411	-2.5312	-2.7104	-2.9229	-2.7729	-2.7667	-2.7812	-2.9146	-2.7083	-2.8417	-2.6729	-2.6813	-2.9667	-2.6875	-2.8667	-2.7604	-2.6417	65.612	224.671	130.740	260.362	243.824	76.976	186.618	167.738	260.555	149.596	227.938	101.027	201.751	100.543	190.697	272.215	0.00017593	0.00022985	3.4675e-05	474.31	2.0277e-06	1.755e-06	694.15	91.627	1.0871e-06	1.0794e-06	196.22	60.914	24.365	7.078	6.6586e-07	23.841	8.9311e-05	6.9697e-05	1.6092e-05	442.76	7.891e-07	6.2406e-07	652.62	86.289	7.2858e-07	7.0087e-07	174.53	57.684	23.043	6.6856	6.2986e-07	22.777	103.321	-13.655	23.918	-66.361	56.256	36.447	-65.855	-60.995	50.217	236.694	-60.751	-56.299	-56.716	-52.029	117.154	-51.484	-8191	255	
2262.023	1	1	0	0	0.19939	0.14694	0.15348	0.063655	0.15014	0.13165	0.14609	0.19811	0.020699	0.069224	0.10928	0.21252	0.15045	0.20414	0.27758	0.16128	-2.4562	-2.7083	-2.7542	-2.9333	-2.6167	-2.9646	-2.9208	-2.6042	-2.9667	-2.7271	-2.7188	-3.0375	-2.6146	-2.9479	-2.7854	-2.6271	218.281	42.084	159.001	251.801	200.498	-32.671	200.738	2.741	58.264	90.099	151.156	239.568	-77.278	-77.697	37.726	-24.280	0.00016586	0.00025239	2.4194e-05	479.4	1.5625e-06	2.2596e-06	698.38	92.665	1.7011e-06	2.3983e-06	199.68	61.145	24.647	7.0417	3.1314e-06	24.37	8.9505e-05	6.2191e-05	1.5788e-05	446.99	7.6531e-07	5.6843e-07	655.72	86.978	6.7009e-07	6.5113e-07	176.11	57.746	23.288	6.7205	7.1892e-07	23.034	101.481	26.753	49.140	-65.951	67.330	65.852	-65.931	-60.254	75.153	73.246	-59.616	-55.582	-56.238	-51.886	113.982	-51.499	-8191	255	
2262.118	1	1	0	0	0.13708	0.11611	0.012235	0.22218	0.12871	0.12538	0.1125	0.083431	0.2956	0.081427	0.31751	0.41497	0.097	0.24639	0.061341	0.14547	-2.4229	-2.6604	-2.5938	-2.9208	-2.6292	-2.8958	-2.9146	-2.7687	-2.7479	-2.6562	-2.4021	-2.9229	-2.5229	-2.7104	-3.0104	-2.5229	147.481	-57.595	69.959	213.963	21.912	87.972	226.513	129.605	53.682	-38.023	126.888	265.385	-52.027	8.360	123.153	127.868	0.00017359	0.00018078	5.1093e-05	478.97	8.9172e-07	2.4123e-06	706.66	93.283	1.6036e-06	2.4214e-06	196.45	62.269	24.818	7.1751	1.4514e-06	24.653	8.3072e-05	5.8365e-05	1.7496e-05	449.31	7.6934e-07	6.4867e-07	663.75	87.956	6.2061e-07	7.319e-07	177.06	58.689	23.605	6.858	6.6474e-07	23.398	112.060	61.031	42.270	-66.208	92.928	42.718	-66.230	-60.566	37.394	84.142	-60.484	-56.084	-56.839	-51.113	73.402	-51.020	-8191	255	
2262.214	1	1	0	0	0.069722	0.30413	0.23026	0.23788	0.013802	0.0074761	0.22636	0.066312	0.085487	0.37549	0.058317	0.16848	0.28054	0.1158	0.11104	0.1642	-2.3521	-2.6479	-2.425	-2.8875	-2.7896	-2.6167	-2.9729	-2.6271	-2.7604	-2.8396	-2.55	-2.9042	-2.6792	-2.9188	-2.85	-2.6417	122.020	144.429	-3.403	171.047	-42.566	24.206	179.509	49.832	102.222	148.222	175.577	255.255	27.880	128.968	246.345	203.266	0.00016358	0.00012131	8.1317e-05	483.15	1.4026e-06	2.4425e-06	705.59	95.032	1.1833e-06	2.2044e-06	202.79	62.407	25.208	7.4352	1.7331e-06	25.019	8.9638e-05	7.6224e-05	2.0196e-05	451.9	8.5491e-07	7.405e-07	663.3	89.585	8.4615e-07	7.7428e-07	179.52	59.348	24.024	7.0105	7.8576e-07	23.892	107.947	-42.559	54.568	-66.226	69.424	87.369	-66.147	-60.548	165.349	38.806	-60.523	-55.628	-56.276	-51.363	56.063	-51.405	-8191	255	
2262.310	1	1	0	0	0.099921	0.22626	0.12034	0.025431	0.049537	0.068171	0.14352	0.22288	0.11248	0.061612	0.15393	0.15997	0.18113	0.082995	0.13767	0.083377	-2.2771	-2.6917	-2.5958	-2.9625	-2.6729	-2.8063	-3.0542	-2.4792	-2.8375	-2.8979	-2.5167	-2.8438	-2.7333	-2.6396	-2.9417	-2.6562	119.111	-53.708	113.818	247.608	168.240	60.779	180.672	-78.843	111.167	2.065	-27.424	145.508	-6.302	107.583	1.483	218.293	0.00015484	0.00033112	3.7579e-05	488.44	2.7547e-06	2.5328e-06	709.39	95.415	1.3302e-06	6.6768e-07	196.8	62.202	25.026	7.2428	2.4673e-06	24.579	9.457e-05	8.2915e-05	2.1261e-05	457.55	9.6407e-07	7.363e-07	667.18	90.063	8.0798e-07	6.9868e-07	179.11	58.957	23.872	6.8688	6.2713e-07	23.329	105.005	3.061	29.205	-66.151	74.218	75.336	-65.954	-60.995	49.373	265.203	-61.154	-55.508	-56.599	-51.168	61.386	-51.572	-8191	255	
2262.431	1	1	0	0	0.28381	0.22284	0.18056	0.33525	0.051701	0.1906	0.23822	0.11755	0.17454	0.15726	0.15328	0.099015	0.082758	0.13475	0.11863	0.32221	-2.2708	-2.8479	-2.55	-2.9813	-2.7167	-2.6854	-3.1042	-2.525	-2.7417	-2.8438	-2.5417	-2.9688	-2.7146	-2.6667	-2.8917	-2.7417	158.139	43.532	-62.369	271.216	-13.515	276.668	219.746	229.992	-40.397	179.489	82.863	56.189	33.794	197.514	-66.039	-67.129	0.00013837	0.00011003	7.8318e-05	491.13	1.7666e-06	1.7678e-06	712.71	93.934	6.7522e-07	1.4405e-06	196.32	61.546	24.843	7.1219	1.6396e-06	24.307	8.8316e-05	6.1484e-05	1.7921e-05	458.6	7.4939e-07	6.0745e-07	667.92	88.748	6.4899e-07	6.384e-07	178.1	58.366	23.569	6.7306	6.4116e-07	22.976	100.287	-8.419	52.741	-65.871	9.260	55.042	-66.120	-60.813	66.994	113.181	-60.586	-55.968	-56.423	-51.524	45.073	-50.838	-8191	255	
2262.527	1	1	0	0	0.10883	0.10415	0.0062875	0.13401	0.052431	0.063306	0.041129	0.14294	0.055494	0.36123	0.22	0.10919	0.14318	0.13795	0.26058	0.28658	-2.1583	-2.8979	-2.6063	-2.9521	-2.825	-2.8187	-2.8229	-2.7083	-2.5771	-2.9083	-2.5167	-2.8438	-2.8125	-2.7146	-2.9917	-2.6813	91.235	-73.035	202.895	168.709	213.123	184.012	174.900	211.643	17.547	91.008	-4.342	29.640	-35.300	-52.070	163.157	9.622	0.00013486	0.00028887	5.3112e-05	492.9	5.5569e-07	1.3453e-06	712.68	95.149	1.1703e-06	1.5833e-06	198.19	61.891	25.165	7.2162	3.1229e-06	24.243	8.9505e-05	6.3859e-05	1.6893e-05	459.56	7.3615e-07	6.9489e-07	671.13	89.431	7.6426e-07	6.9351e-07	178.77	58.806	23.724	6.8301	6.9924e-07	22.953	97.476	9.928	17.152	-65.924	-52.182	113.460	-65.860	-60.969	73.621	81.638	-60.840	-55.842	-56.634	-51.862	36.670	-51.602	-8191	255	
2262.623	1	1	0	0	0.14215	0.27117	0.17691	0.07383	0.39093	0.20058	0.13552	0.18392	0.07672	0.3315	0.22118	0.2165	0.083297	0.05439	0.0883	0.12712	-2.3375	-2.9542	-2.5917	-2.8042	-2.7896	-2.5625	-2.975	-2.8937	-2.6667	-3.1688	-2.7229	-2.8917	-2.7375	-2.4896	-2.8875	-2.9104	162.289	215.738	-16.433	-73.197	84.177	130.728	234.938	154.172	147.955	-71.733	32.468	226.598	259.808	38.684	10.250	213.112	0.00014593	0.00026202	3.6635e-05	487.93	2.8592e-06	1.9242e-06	702.63	94.037	1.3574e-06	1.0616e-06	192.13	60.931	24.972	7.1695	1.2477e-06	23.912	9.1881e-05	6.6959e-05	1.9138e-05	455.45	8.457e-07	7.7212e-07	661.09	88.498	7.8037e-07	7.0524e-07	176.22	57.999	23.618	6.767	6.7566e-07	22.88	106.675	18.061	19.243	-66.186	49.436	51.120	-66.323	-60.663	32.787	62.187	-59.953	-55.841	-56.370	-50.637	130.013	-51.517	-8191	255	
2262.719	1	1	0	0	0.054427	0.19312	0.052577	0.21132	0.22348	0.13307	0.13016	0.13598	0.096968	0.085935	0.13688	0.084944	0.38107	0.043703	0.059361	0.040516	-2.3563	-2.8812	-2.6458	-2.8271	-2.8375	-2.4729	-2.8438	-2.775	-2.6958	-3.0062	-2.6375	-2.7646	-2.8229	-2.6792	-2.8	-2.6521	-24.284	28.840	168.300	41.346	219.035	52.268	245.759	-60.643	158.887	-12.974	123.552	66.731	244.299	247.810	59.948	185.735	0.00012928	0.00015918	6.3674e-05	485.55	4.7036e-07	2.3456e-06	704.05	93.446	1.0896e-06	2.7681e-06	190.03	61.021	24.61	7.0566	1.6433e-06	23.609	9.6308e-05	6.3822e-05	1.9629e-05	453.72	7.6243e-07	7.353e-07	662.25	88.019	7.9513e-07	6.4437e-07	174.52	57.405	23.371	6.6979	6.205e-07	22.501	106.259	-15.192	78.784	-66.245	148.015	86.635	-66.378	-60.838	85.473	61.394	-60.891	-55.826	-56.190	-51.178	55.235	-51.628	-8191	255	
2262.815	1	1	0	0	0.1433	0.23124	0.20429	0.26022	0.1981	0.20212	0.037561	0.14523	0.22524	0.11445	0.11524	0.083857	0.18157	0.39795	0.17342	0.21526	-2.1688	-2.8958	-2.5417	-2.7521	-2.7771	-2.8146	-3.0396	-2.8229	-2.6688	-3.0771	-2.8979	-2.6	-2.8833	-2.6896	-2.8208	-2.8333	231.706	120.351	-32.481	214.401	257.138	140.383	-5.147	224.794	266.937	-37.340	151.299	-28.231	267.013	235.140	99.629	244.004	0.00016505	0.00022933	2.2918e-05	485.01	2.1305e-06	2.4353e-06	709	93.196	1.8204e-06	6.9038e-07	199.06	60.233	24.758	6.894	1.0405e-06	23.556	8.8881e-05	5.9689e-05	1.742e-05	453.78	6.6766e-07	6.5987e-07	663.72	87.534	6.7258e-07	5.447e-07	174.74	57.01	23.171	6.5793	5.9868e-07	22.168	118.488	15.956	-3.504	-66.217	74.279	46.965	-66.177	-61.191	51.835	150.508	-60.339	-56.223	-56.922	-51.246	76.304	-51.610	-8191	255	
2262.912	1	1	0	0	0.20864	0.19741	0.032145	0.30658	0.11145	0.27396	0.10755	0.096527	0.10125	0.19373	0.12844	0.16223	0.16481	0.13509	0.2275	0.095033	-2.0187	-2.8708	-2.5875	-2.7417	-2.6792	-2.5625	-2.8583	-2.8583	-2.6208	-2.925	-2.7958	-2.5729	-2.8542	-2.6042	-2.7854	-2.9625	271.276	281.043	118.107	208.193	184.997	130.980	138.096	230.930	-50.117	-66.619	234.179	228.133	248.305	33.914	35.828	196.210	0.0001478	0.00034473	5.1317e-05	487.62	4.5923e-07	2.1378e-06	705.87	92.434	2.7467e-06	2.4406e-06	193.62	59.528	23.888	6.8348	1.3488e-06	22.917	8.6578e-05	4.9789e-05	1.4912e-05	455.85	6.1048e-07	6.6387e-07	663.22	87.02	7.1305e-07	5.5723e-07	172.75	56.237	22.753	6.4816	6.0647e-07	21.763	116.272	13.577	31.733	-65.687	138.623	95.369	-66.372	-60.859	69.605	39.675	-60.842	-55.650	-56.623	-51.198	66.794	-51.845	-8191	255	
2263.030	1	1	0	0	0.079397	0.020629	0.089146	0.30213	0.16878	0.14208	0.15521	0.19265	0.36866	0.047101	0.01002	0.23876	0.31288	0.20051	0.11681	0.073995	-2.2458	-2.6646	-2.7562	-2.6271	-2.8271	-2.9146	-2.7208	-2.8563	-2.6188	-2.9688	-2.8271	-2.7	-3.1437	-2.5875	-2.6	-3.0229	-78.173	240.372	186.334	211.733	166.068	85.781	257.389	110.130	104.172	-73.480	-30.179	256.264	233.174	232.020	228.568	30.703	0.00014851	0.00020471	1.5117e-05	477.46	1.8459e-06	1.8419e-06	695.36	90.568	2.6591e-06	2.7998e-06	189.42	59.127	23.796	6.9344	1.5002e-06	23.041	8.5583e-05	4.7196e-05	1.5434e-05	449.21	6.5231e-07	6.7728e-07	653.49	85.832	7.0058e-07	5.4768e-07	170.91	55.809	22.683	6.4894	6.4331e-07	21.906	112.453	-9.033	9.024	-66.573	25.125	77.474	-66.012	-60.663	21.118	82.904	-60.733	-55.653	-56.838	-51.415	107.801	-51.231	-8191	255	
2263.127	1	1	0	0	0.16702	0.21739	0.28386	0.18194	0.18549	0.30789	0.10011	0.36777	0.068216	0.070805	0.17832	0.088043	0.10824	0.15437	0.22164	0.075997	-2.2104	-2.7812	-2.8292	-2.8083	-2.9625	-2.55	-2.6771	-2.9437	-2.5458	-2.7687	-2.8458	-2.5458	-2.9021	-2.7542	-2.7708	-2.9313	-13.514	148.732	109.043	198.224	-18.673	221.601	254.556	209.553	22.658	28.249	12.095	-53.215	149.448	-52.855	154.855	247.948	0.00013817	0.00029706	4.6358e-05	484.17	2.6892e-06	2.2782e-06	696.85	91.539	2.0571e-06	1.6556e-06	190.54	59.47	24.286	6.9784	1.69e-06	23.222	8.8702e-05	5.5373e-05	1.7202e-05	451.24	6.1624e-07	6.3306e-07	654.29	86.388	7.1267e-07	6.5113e-07	172.08	56.398	22.958	6.5915	5.8601e-07	22.073	103.276	18.061	18.168	-66.533	29.932	59.856	-66.078	-60.669	71.664	88.195	-61.411	-55.838	-57.086	-51.361	92.745	-51.184	-8191	255	
2263.198	1	1	0	0	0.16885	0.039846	0.15291	0.1249	0.12012	0.15964	0.30075	0.2565	0.12406	0.13328	0.23651	0.16827	0.13377	0.27444	0.14922	0.13374	-2.1833	-2.7354	-2.8896	-2.5812	-2.9229	-2.7646	-2.5604	-2.8729	-2.9042	-2.7896	-2.9333	-2.6896	-2.7333	-2.8625	-2.7333	-2.7146	246.682	174.820	106.326	159.304	257.642	88.245	256.433	-41.600	-72.676	197.698	17.987	56.307	-65.277	-34.076	146.715	47.183	0.00014338	0.00015672	6.2148e-05	482.86	2.9149e-06	1.4465e-06	700.28	91.92	1.4097e-06	1.6182e-06	190.66	59.928	24.369	7.0374	7.8933e-07	23.393	9.151e-05	5.4503e-05	1.6295e-05	451.86	6.4713e-07	7.0089e-07	659.08	86.87	7.7327e-07	5.4868e-07	172.11	56.695	23.09	6.672	5.9595e-07	22.137	101.405	-14.155	54.259	-66.248	79.164	75.262	-65.917	-60.260	33.490	82.940	-61.325	-55.610	-56.757	-50.864	24.628	-51.422	-8191	255	
2263.294	1	1	0	0	0.19079	0.22233	0.27282	0.21357	0.079342	0.24578	0.083372	0.184	0.2561	0.35484	0.14322	0.21979	0.12901	0.10287	0.092772	0.023742	-2.3771	-2.5875	-2.9604	-2.5583	-2.9313	-3.0021	-2.7854	-2.9354	-2.7812	-2.6229	-2.9771	-2.5958	-2.7896	-2.8479	-2.6917	-2.9479	184.548	17.743	122.785	-73.841	-9.440	32.763	228.076	223.655	244.310	-39.702	237.310	123.190	155.132	-45.190	193.680	102.366	0.00013941	0.00012302	7.8913e-05	485.55	1.5353e-06	1.6118e-06	699.09	92.223	1.1628e-06	1.5653e-06	193.37	59.359	24.255	7.0736	2.6811e-06	23.273	8.7915e-05	5.6352e-05	1.557e-05	454.53	6.1451e-07	6.0005e-07	658.76	86.847	6.6549e-07	5.8608e-07	171.67	56.287	22.94	6.611	6.665e-07	21.949	110.314	53.286	9.689	-65.934	21.466	78.863	-65.960	-60.834	92.953	75.352	-61.057	-56.287	-56.934	-51.891	94.425	-51.589	-8191	255	
2263.415	1	1	0	0	0.34466	0.083535	0.26797	0.10153	0.044775	0.23524	0.4241	0.0738	0.24648	0.20018	0.17863	0.19821	0.091041	0.27199	0.21133	0.14761	-2.3354	-2.725	-2.8229	-2.6458	-2.6708	-2.9146	-2.6583	-2.9188	-2.9354	-2.7	-3.1292	-2.7375	-2.8354	-2.8	-2.6646	-2.9917	107.346	169.474	146.242	265.349	251.111	117.712	173.417	133.659	94.376	34.872	119.405	-12.144	-16.145	-43.790	95.636	234.768	0.00013246	0.00035559	4.8227e-05	478.44	6.5318e-07	2.6728e-06	687.84	91.248	2.5603e-06	1.6316e-06	189.97	58.686	24.01	6.9894	2.3609e-06	23.304	8.5375e-05	5.1203e-05	1.4425e-05	447.88	6.3485e-07	6.1665e-07	648.95	85.63	6.6856e-07	6.006e-07	169.27	55.715	22.823	6.5712	7.3159e-07	22.054	91.087	-8.374	33.411	-66.447	86.725	64.471	-65.988	-60.819	36.951	80.367	-61.657	-55.730	-56.481	-51.224	45.129	-51.023	-8191	255	
2263.511	1	1	0	0	0.16908	0.09329	0.22599	0.31779	0.254	0.111	0.11134	0.022375	0.10374	0.084479	0.31303	0.14132	0.10268	0.10377	0.24363	0.25588	-2.1562	-2.7042	-2.9437	-2.8375	-2.6229	-2.8458	-2.7188	-2.8833	-2.8729	-2.6917	-2.8583	-2.8708	-2.7812	-2.85	-2.6604	-2.8042	251.021	-39.503	-20.296	243.884	-63.095	24.026	200.774	255.831	-54.899	135.081	274.505	183.656	12.558	-9.133	210.379	143.295	0.00013071	0.00015711	3.1256e-05	477.73	1.9312e-06	2.4339e-06	692.52	92.076	1.7483e-06	1.2389e-06	189.44	59.237	24.273	7.0304	2.5384e-06	23.014	9.0024e-05	5.9253e-05	1.6325e-05	448.47	7.4306e-07	6.0165e-07	651.66	86.163	7.3031e-07	6.4198e-07	170.53	56.161	22.861	6.6232	7.0158e-07	22.024	116.146	12.180	-29.857	-66.003	61.652	81.531	-66.150	-60.705	61.459	16.465	-59.210	-55.788	-56.658	-51.416	85.616	-51.101	-8191	255	
2263.607	1	1	0	0	0.062443	0.26483	0.18997	0.026212	0.15164	0.34176	0.1514	0.077654	0.29392	0.10752	0.13904	0.03349	0.075785	0.095751	0.20701	0.3573	-2.4333	-2.55	-2.8542	-2.775	-2.7313	-2.9729	-2.5875	-2.8417	-2.7667	-2.5979	-2.8875	-2.8333	-2.5292	-2.8042	-2.775	-2.7167	-60.917	45.443	-39.711	112.859	79.982	41.776	97.284	201.556	-77.169	277.918	55.542	161.903	-36.654	-19.124	85.461	104.366	0.00012227	0.00019145	4.8153e-05	478.9	1.7497e-06	1.2058e-06	695.97	91.957	1.1061e-06	2.8483e-06	198.75	60.04	24.717	7.0139	1.4243e-06	23.433	9.359e-05	6.6578e-05	1.5555e-05	448.7	6.9912e-07	6.2126e-07	654.12	86.619	7.4815e-07	7.2653e-07	173.14	56.582	23.247	6.6429	7.4893e-07	22.265	94.241	35.346	21.201	-66.090	76.958	36.892	-66.116	-60.745	-24.512	34.379	-62.084	-55.935	-56.518	-51.886	45.125	-51.375	-8191	255	
2263.703	1	1	0	0	0.10913	0.16156	0.14988	0.18642	0.028676	0.14011	0.49323	0.20349	0.081832	0.081439	0.18587	0.10917	0.33151	0.20555	0.21085	0.17437	-2.5646	-2.6979	-2.9396	-2.9917	-2.6292	-2.9313	-2.8375	-2.6583	-2.9562	-2.6479	-2.8229	-2.85	-2.6625	-2.8937	-2.8438	-2.8	-24.903	-49.567	-68.172	-53.339	33.200	258.177	227.634	247.861	109.911	9.547	261.070	-41.015	-36.079	147.288	-14.761	177.299	0.00013955	0.00035753	5.9694e-05	481.47	5.0262e-07	2.7931e-06	697.93	92.459	1.3744e-06	1.4386e-06	195.74	59.455	23.953	7.0486	2.4008e-06	23.166	8.9133e-05	6.9062e-05	1.631e-05	451.01	7.8354e-07	6.4767e-07	657.91	87.24	7.9341e-07	7.701e-07	174.07	56.657	22.945	6.6314	7.8732e-07	22.053	110.954	-12.518	6.651	-65.871	16.704	49.408	-66.276	-60.723	219.854	70.363	-60.903	-56.253	-56.929	-51.390	87.189	-51.479	-8191	255	
2263.800	1	1	0	0	0.18063	0.10674	0.26472	0.19181	0.12738	0.15219	0.11279	0.047306	0.032648	0.024218	0.14902	0.25287	0.19312	0.32811	0.082238	0.02204	-2.5042	-2.65	-2.7208	-2.7896	-2.6042	-2.9458	-2.7958	-2.6583	-2.95	-2.6479	-2.9792	-2.8167	-2.5	-2.8667	-2.8208	-2.5271	256.707	-31.931	13.691	195.455	-59.062	252.650	17.688	168.773	46.827	156.050	241.986	-70.450	-10.464	159.961	-0.484	31.081	0.00015648	0.00043835	4.9581e-05	475.82	1.4779e-06	3.2708e-06	685.09	90.35	3.3814e-06	1.9181e-06	192.05	58.734	24.084	6.8581	2.8231e-06	23.031	8.5954e-05	7.3777e-05	1.8712e-05	445.55	7.9697e-07	6.9088e-07	647.52	85.704	7.9494e-07	7.6015e-07	171.33	55.731	22.784	6.523	7.7719e-07	21.934	118.158	8.123	23.394	-66.291	141.862	75.621	-65.769	-60.878	44.731	106.582	-59.790	-56.540	-56.786	-51.179	60.501	-51.526	-8191	255	
2263.896	1	1	0	0	0.029396	0.3466	0.18768	0.021678	0.051073	0.25793	0.25933	0.026377	0.099043	0.089122	0.18404	0.10692	0.10517	0.084903	0.082927	0.14724	-2.5521	-2.7708	-2.7083	-3.0563	-2.6063	-2.8187	-2.7667	-2.8042	-2.825	-2.6479	-2.6562	-2.9062	-2.625	-2.8937	-2.7375	-2.6396	84.711	254.475	231.770	10.181	175.893	235.892	211.473	265.551	119.064	174.729	25.596	203.187	-8.427	236.968	240.864	189.958	0.00016598	7.7874e-05	2.097e-05	475.27	3.1913e-06	3.3633e-06	691.95	91.927	1.2911e-06	1.2585e-06	195.83	59.631	24.52	6.8971	2.8244e-06	23.046	9.3218e-05	6.734e-05	1.7714e-05	446.5	8.6143e-07	7.7272e-07	649.63	85.914	7.5543e-07	8.2103e-07	171.36	56.01	22.926	6.5292	7.8323e-07	21.98	107.174	37.300	23.196	-66.456	84.667	76.019	-65.853	-60.899	88.949	46.495	-61.970	-55.983	-56.692	-50.922	117.575	-51.297	-8191	255	
2263.992	1	1	0	0	0.077165	0.17326	0.067349	0.3342	0.12697	0.11781	0.055064	0.048599	0.14978	0.20982	0.191	0.22651	0.12267	0.27897	0.28845	0.097304	-2.5312	-2.5438	-2.7562	-2.9646	-2.725	-2.9917	-2.9875	-2.6354	-2.8917	-2.7083	-2.6521	-2.9167	-2.6792	-2.9375	-2.8167	-2.7146	215.653	-3.251	55.130	182.764	54.547	257.651	105.186	-70.561	162.856	-13.539	180.460	-4.213	145.010	272.676	-43.710	207.534	0.00013759	0.00013583	4.8058e-05	477.89	1.7765e-06	3.0389e-06	693.62	90.922	1.8128e-06	2.4304e-06	184.36	59.087	24.216	6.9086	1.462e-06	23.284	9.2505e-05	8.0177e-05	1.9588e-05	447.06	8.858e-07	7.8232e-07	652.25	85.636	7.8305e-07	8.2182e-07	170.99	56.019	22.818	6.4977	8.3215e-07	22.087	111.259	19.993	16.163	-66.298	88.470	87.656	-66.020	-60.515	67.997	76.671	-60.961	-55.802	-56.059	-51.316	59.897	-51.740	-8191	255	
2264.111	1	1	0	0	0.16548	0.06167	0.14443	0.12592	0.18152	0.11022	0.2524	0.27185	0.29738	0.1697	0.28729	0.22176	0.21515	0.14863	0.27398	0.39771	-2.5125	-2.7646	-2.4688	-2.875	-2.625	-2.8458	-2.9458	-2.5104	-2.9229	-2.7771	-2.5458	-2.8688	-2.6375	-2.7208	-2.9083	-2.5229	-64.609	4.975	169.200	197.353	19.054	150.758	68.313	225.019	90.846	-1.182	43.690	93.439	250.478	208.595	89.705	-69.945	0.00015548	0.00015877	3.024e-05	478.42	9.1336e-07	2.3638e-06	694.69	91.345	1.7096e-06	8.4551e-07	188.88	58.823	23.596	6.7874	1.9286e-06	22.698	9.6219e-05	7.7058e-05	1.971e-05	448.92	8.4915e-07	7.6812e-07	655.22	85.881	7.4086e-07	8.4192e-07	170.38	55.397	22.486	6.4105	8.1461e-07	21.46	107.237	40.092	63.176	-66.154	189.970	87.445	-66.004	-60.788	53.852	67.375	-60.670	-55.419	-56.487	-51.597	90.660	-51.618	-8191	255	
2264.207	1	1	0	0	0.079696	0.067972	0.24114	0.11787	0.11205	0.32029	0.10088	0.34793	0.10225	0.17292	0.16435	0.29837	0.3224	0.10491	0.071487	0.25926	-2.3812	-2.8625	-2.6375	-2.9854	-2.6937	-2.6979	-2.9313	-2.7062	-2.8438	-3.0083	-2.7771	-3.0563	-2.8021	-2.8354	-2.9104	-2.8271	-12.585	213.474	169.122	174.514	46.480	-49.585	184.445	-59.811	141.740	-51.230	-54.031	230.025	-4.850	155.550	243.597	118.574	0.00012486	0.00021549	7.3283e-05	473.54	1.369e-06	9.3477e-07	684.81	89.78	8.5031e-07	2.2947e-06	184.27	57.968	23.357	6.7676	3.3016e-06	22.731	8.9193e-05	8.0884e-05	2.0288e-05	444.22	9.8038e-07	8.0453e-07	645.8	84.475	8.7146e-07	8.1884e-07	169.75	54.828	22.325	6.4	8.5417e-07	21.574	100.013	4.153	30.886	-65.900	39.679	59.355	-65.707	-60.700	29.889	96.785	-60.734	-55.761	-57.048	-51.621	70.076	-51.697	-8191	255	
2264.303	1	1	0	0	0.2629	0.093498	0.047042	0.15512	0.2436	0.17611	0.2106	0.31834	0.20541	0.051895	0.18559	0.20591	0.14463	0.29696	0.17217	0.11767	-2.5625	-2.6937	-2.7104	-3.0771	-2.8167	-2.8271	-2.9938	-2.5979	-2.7333	-2.9292	-2.5417	-3.0271	-2.7375	-2.7208	-2.9729	-2.8458	111.675	190.559	170.969	-73.287	47.712	174.714	273.324	229.748	157.264	273.649	-41.077	-20.659	77.619	75.258	80.883	124.571	0.00014841	0.0001826	4.0558e-05	474.34	5.3926e-07	2.2507e-06	691.34	89.909	1.3932e-06	6.3488e-07	183.85	57.04	23.382	6.5331	1.3878e-06	22.085	9.9844e-05	7.9017e-05	2.2325e-05	444.56	9.775e-07	8.3514e-07	649.27	84.438	8.2505e-07	8.1208e-07	166.29	54.088	22.133	6.2389	7.3139e-07	20.913	105.593	-2.012	-8.565	-66.284	187.096	57.379	-66.336	-60.379	65.481	-59.535	-61.741	-55.812	-56.613	-51.749	117.822	-51.898	-8191	255	
2264.424	1	1	0	0	0.0086497	0.18594	0.06441	0.14558	0.19561	0.0090638	0.25849	0.11984	0.18555	0.1106	0.11687	0.10471	0.11753	0.087931	0.21503	0.15719	-2.2958	-3.1521	-2.5875	-2.9396	-2.9292	-2.7458	-3.0354	-2.7021	-2.6437	-3.0979	-2.5563	-2.8187	-2.9146	-2.6542	-2.9542	-2.875	193.945	163.994	198.021	-29.432	102.829	-44.494	236.647	4.703	-74.839	117.427	248.047	-12.181	95.103	186.353	178.185	127.718	0.00012574	0.00030246	5.6753e-05	474.06	1.7473e-06	6.8351e-07	685.57	89.329	1.8545e-06	1.8922e-06	185.06	55.902	23.132	6.408	1.4178e-06	21.433	8.845e-05	7.0042e-05	1.9254e-05	446.14	8.1539e-07	6.8068e-07	647.28	83.984	6.9905e-07	7.142e-07	164.67	53.21	21.883	6.063	6.5461e-07	20.305	97.972	-19.900	13.240	-66.257	82.533	44.297	-66.157	-60.768	13.364	86.641	-61.733	-56.128	-56.057	-52.015	48.885	-51.634	-8191	255	
2264.495	1	1	0	0	0.18465	0.11176	0.078988	0.017915	0.2508	0.093649	0.13767	0.13586	0.17268	0.17353	0.18753	0.20762	0.072479	0.15986	0.099237	0.1314	-2.1833	-2.7812	-2.6646	-2.9771	-2.7583	-2.7708	-2.8833	-2.8396	-2.7771	-2.9042	-2.7479	-2.9604	-2.8708	-2.6937	-2.8292	-2.7646	266.670	41.214	115.483	159.505	120.264	76.025	253.200	-14.728	77.133	26.672	140.957	197.207	133.973	209.393	-49.346	219.609	0.00014402	4.3489e-05	3.0664e-05	476.99	2.0625e-06	2.7925e-06	691.45	88.452	3.0943e-06	1.7348e-06	181.52	55.51	22.852	6.2908	2.4171e-06	21.042	8.2879e-05	5.8202e-05	1.6974e-05	446.92	7.7375e-07	6.8408e-07	649.68	83.592	7.4297e-07	6.9709e-07	163	52.592	21.588	5.9631	6.5656e-07	19.83	120.113	47.175	-9.366	-66.292	74.407	72.192	-65.923	-60.771	54.432	81.695	-62.655	-55.764	-57.131	-51.465	59.455	-51.539	-8191	255	
2264.592	1	1	0	0	0.084182	0.10548	0.34987	0.35346	0.044592	0.12465	0.30756	0.21802	0.24836	0.079853	0.16674	0.1451	0.059071	0.12794	0.26161	0.21022	-2.25	-2.9479	-2.5604	-2.8604	-3.0208	-2.6271	-2.7917	-2.9938	-2.6063	-3.0979	-2.7458	-2.7125	-2.9	-2.65	-2.9125	-2.8917	134.756	27.500	17.470	-21.256	-8.783	94.893	250.921	278.190	191.077	90.513	-44.340	30.961	275.917	-34.567	14.815	226.045	0.00014149	0.00028878	3.1024e-05	472.47	1.1583e-06	9.3508e-07	684.99	87.159	2.0843e-06	2.3622e-06	184.08	55.211	22.776	6.4062	4.3382e-07	21.296	9.0277e-05	6.0668e-05	2.0181e-05	442	7.2636e-07	7.5911e-07	640.3	82.416	8.2678e-07	7.7249e-07	163.06	52.273	21.626	6.0049	6.9807e-07	20.174	97.772	7.782	-13.357	-66.577	96.117	25.859	-66.173	-60.833	42.000	47.080	-61.610	-55.630	-56.919	-51.264	-5.266	-50.861	-8191	255	
2264.712	1	1	0	0	0.13549	0.23402	0.25227	0.17814	0.078646	0.19902	0.24824	0.12808	0.076896	0.16127	0.2384	0.11699	0.0911	0.027708	0.2714	0.034364	-2.25	-2.8958	-2.6479	-2.7167	-2.8979	-2.7917	-2.8937	-3.075	-2.6167	-2.9021	-2.9708	-2.7812	-2.8812	-2.7875	-2.8042	-2.7521	215.795	37.970	40.414	167.525	168.441	145.721	-67.212	228.542	29.159	58.358	9.033	196.876	209.079	127.876	188.970	-31.868	0.00012997	0.00019385	2.8422e-05	477.17	6.1611e-07	7.8134e-07	684.21	88.468	1.1658e-06	1.6831e-06	186.1	56.356	23.149	6.489	1.1904e-06	21.712	0.00010085	7.2489e-05	2.3343e-05	444.88	8.5491e-07	8.9277e-07	645.3	83.82	8.6897e-07	8.3217e-07	168.03	53.491	22.035	6.1569	7.8576e-07	20.556	116.215	-31.937	51.770	-66.006	188.254	84.894	-65.984	-61.190	85.331	66.264	-61.010	-55.829	-56.921	-50.957	32.601	-51.334	-8191	255	
2264.807	1	1	0	0	0.21192	0.10043	0.22773	0.23047	0.057925	0.06091	0.15046	0.23413	0.11075	0.10301	0.10177	0.079663	0.069814	0.28226	0.31609	0.069138	-2.2188	-3.0292	-2.7438	-2.8542	-2.9	-2.6021	-2.9458	-2.9208	-2.65	-3.0479	-2.8271	-2.7083	-3.2125	-2.6854	-2.8104	-2.7833	252.966	122.951	163.406	-72.227	50.374	246.834	247.144	182.976	148.464	14.061	209.723	279.913	229.236	126.076	126.253	50.019	0.00015025	0.00023505	2.5334e-05	479.21	8.6379e-07	2.6525e-06	695.03	90.098	2.2393e-06	2.1384e-06	187.17	56.69	23.555	6.5231	1.7593e-06	21.81	0.00010546	7.6007e-05	2.2051e-05	448.37	8.9501e-07	9.5299e-07	652.31	85.127	8.8335e-07	7.3688e-07	169.73	53.89	22.249	6.2008	7.6745e-07	20.636	109.067	33.666	83.041	-66.230	35.297	134.259	-66.239	-60.900	45.497	20.482	-59.546	-55.841	-56.792	-50.774	30.170	-50.568	-8191	255	
2264.903	1	1	0	0	0.21863	0.15308	0.19574	0.29925	0.11854	0.046221	0.26366	0.025828	0.19448	0.26233	0.13466	0.11025	0.092633	0.057995	0.23615	0.032016	-2.1583	-2.75	-2.6208	-2.7458	-3.0812	-2.7646	-2.8646	-3.0583	-2.6125	-2.8583	-2.7896	-2.7333	-2.9333	-2.6479	-2.8292	-2.875	87.136	40.851	146.900	228.134	280.034	262.263	162.342	226.423	200.104	265.530	-24.968	275.393	238.083	13.364	35.152	159.758	0.00014913	0.00032729	5.8759e-05	478.62	2.1097e-06	1.7438e-06	696.2	90.142	1.8372e-06	1.5746e-06	187.87	56.46	23.402	6.3025	3.4651e-07	21.167	9.6011e-05	7.4339e-05	2.1326e-05	449.16	8.3649e-07	8.3214e-07	654.19	85.182	8.2985e-07	7.6393e-07	167.45	53.362	22.06	6.0699	7.3237e-07	20.101	101.511	43.368	27.749	-66.052	75.696	62.314	-65.821	-61.431	32.184	89.144	-61.588	-55.758	-57.066	-52.224	97.519	-51.788	-8191	255	
2264.999	1	1	0	0	0.022297	0.14387	0.18413	0.20009	0.1327	0.037025	0.11041	0.22267	0.13621	0.11579	0.087881	0.10697	0.049286	0.19771	0.080811	0.023959	-2.0667	-2.8271	-2.8417	-2.6667	-2.9167	-2.7833	-2.8292	-2.8083	-2.7021	-2.6188	-2.8271	-2.3229	-2.7083	-2.6188	-2.7625	-3.0396	269.863	-77.094	132.552	-2.353	-77.187	56.424	147.074	138.442	239.791	261.211	42.907	74.478	-17.409	-8.365	51.210	153.436	0.00014259	0.00028504	3.551e-05	477.14	2.278e-06	1.7181e-06	683.57	89.423	7.393e-07	1.5215e-06	181.58	56.044	23.332	6.4677	1.2386e-06	21.477	8.9846e-05	6.763e-05	1.9386e-05	446.38	8.0618e-07	8.5575e-07	643.08	83.838	8.4212e-07	7.4563e-07	165.31	52.931	21.995	6.1081	8.0194e-07	20.36	101.582	35.175	10.727	-66.136	32.486	130.951	-66.121	-60.246	83.841	94.816	-60.904	-56.112	-56.153	-51.458	83.093	-51.749	-8191	255	
2265.095	1	1	0	0	0.084101	0.35481	0.21602	0.089901	0.12037	0.4133	0.19227	0.11902	0.1153	0.32045	0.19165	0.10687	0.24956	0.16754	0.093142	0.060107	-2.2333	-2.8312	-2.7208	-2.6979	-2.9292	-2.875	-2.6354	-2.8333	-2.6458	-2.7562	-2.8208	-2.55	-2.8146	-2.7229	-2.65	-2.8833	195.912	-12.125	102.212	-67.216	37.913	57.682	231.993	121.624	116.602	146.681	59.236	257.020	21.108	166.332	-11.152	102.425	0.00013863	0.00017062	3.4341e-05	477.14	1.6818e-06	1.3991e-06	690.42	89.53	2.9017e-06	1.0259e-06	182.99	56.413	23.258	6.546	8.622e-07	21.725	9.463e-05	6.6506e-05	2.1443e-05	445.85	7.6493e-07	8.4395e-07	647.29	84.262	9.1845e-07	7.3807e-07	166.85	53.592	22.027	6.1928	8.261e-07	20.589	118.144	14.581	8.799	-66.271	83.591	68.324	-66.206	-60.687	40.375	117.612	-61.831	-56.199	-56.891	-51.214	-5.462	-51.456	-8191	255	
2265.191	1	1	0	0	0.1852	0.072948	0.070758	0.12584	0.073575	0.21074	0.25922	0.066762	0.038408	0.24866	0.032769	0.16985	0.10897	0.067684	0.068309	0.037518	-2.3167	-2.6042	-2.7083	-2.6917	-2.8979	-2.9583	-2.7396	-2.9271	-2.6562	-2.6396	-2.9354	-2.5875	-2.7375	-2.8417	-2.5812	-2.8583	91.066	275.574	150.366	250.610	229.815	18.559	275.099	243.032	277.363	258.604	-38.358	30.338	56.308	269.613	-74.035	32.796	0.00012399	0.0003612	5.2872e-05	477.45	9.4503e-07	8.0472e-07	693.42	90.51	1.9436e-06	2.3059e-06	184.91	57.5	23.612	6.6	1.0751e-06	22.038	9.9324e-05	7.7874e-05	2.0612e-05	445.97	8.787e-07	9.0417e-07	650.79	85.223	8.8086e-07	8.4709e-07	167.6	54.343	22.363	6.2498	9.2803e-07	20.939	100.573	0.389	78.377	-66.124	84.017	54.753	-66.015	-60.606	-21.538	77.782	-61.768	-56.167	-56.466	-50.654	91.491	-51.112	-8191	255	
#DATA ENDS
