BOXY.EXE: ISS Imagent and Oximeter Data Acquisition Program Version 0.80
Ascii Record File

#ACQ INFORMATION
2  Detector Channels 
16  External MUX Channels 
1  Auxiliary Channels 
5000  Waveform (CCF) Frequency (Hz)
1  Waveforms Skipped 
30  Waveforms Averaged 
1  Cycles Averaged 
16  Acquisitions per Waveform 
10.0806  Updata Rate (Hz) 

#FILE INFORMATION
TRUE -- External MUX Channel results are PARSED.
FALSE -- AC DC and Phase are NOT grouped.
TRUE -- Companion Program Settings File CREATED.
FALSE -- AC data not excluded
FALSE -- DC data not excluded
FALSE -- Phase data not excluded
FALSE -- Auxillary Chn. data not excluded
Tab delimiters

#CALIBRATION STATE
TRUE -- Waveform Calibration Values APPLIED.


#AUX CALIBRATION VALUES
Val Type	aux-1	

Term	1.0000e+00	
Factor	0.0000e+00	


#WF CALIBRATION VALUES
A = Detector Channel
Val Type	A-AC1	A-AC2	A-AC3	A-AC4	A-AC5	A-AC6	A-AC7	A-AC8	A-AC9	A-AC10	A-AC11	A-AC12	A-AC13	A-AC14	A-AC15	A-AC16	A-DC1	A-DC2	A-DC3	A-DC4	A-DC5	A-DC6	A-DC7	A-DC8	A-DC9	A-DC10	A-DC11	A-DC12	A-DC13	A-DC14	A-DC15	A-DC16	A-Ph1	A-Ph2	A-Ph3	A-Ph4	A-Ph5	A-Ph6	A-Ph7	A-Ph8	A-Ph9	A-Ph10	A-Ph11	A-Ph12	A-Ph13	A-Ph14	A-Ph15	A-Ph16	

Term	0.00000e+00	0.00000e+00	0.00000e+00	0.00000e+00	0.00000e+00	0.00000e+00	0.00000e+00	0.00000e+00	0.00000e+00	0.00000e+00	0.00000e+00	0.00000e+00	0.00000e+00	0.00000e+00	0.00000e+00	0.00000e+00	0.00000e+00	0.00000e+00	0.00000e+00	0.00000e+00	0.00000e+00	0.00000e+00	0.00000e+00	0.00000e+00	0.00000e+00	0.00000e+00	0.00000e+00	0.00000e+00	0.00000e+00	0.00000e+00	0.00000e+00	0.00000e+00	0.00000e+00	0.00000e+00	0.00000e+00	0.00000e+00	0.00000e+00	0.00000e+00	0.00000e+00	0.00000e+00	0.00000e+00	0.00000e+00	0.00000e+00	0.00000e+00	0.00000e+00	0.00000e+00	0.00000e+00	0.00000e+00	
Factor	1.00000e+00	1.00000e+00	1.00000e+00	1.00000e+00	1.00000e+00	1.00000e+00	1.00000e+00	1.00000e+00	1.00000e+00	1.00000e+00	1.00000e+00	1.00000e+00	1.00000e+00	1.00000e+00	1.00000e+00	1.00000e+00	1.00000e+00	1.00000e+00	1.00000e+00	1.00000e+00	1.00000e+00	1.00000e+00	1.00000e+00	1.00000e+00	1.00000e+00	1.00000e+00	1.00000e+00	1.00000e+00	1.00000e+00	1.00000e+00	1.00000e+00	1.00000e+00	X	X	X	X	X	X	X	X	X	X	X	X	X	X	X	X	

B = Detector Channel
Val Type	B-AC1	B-AC2	B-AC3	B-AC4	B-AC5	B-AC6	B-AC7	B-AC8	B-AC9	B-AC10	B-AC11	B-AC12	B-AC13	B-AC14	B-AC15	B-AC16	B-DC1	B-DC2	B-DC3	B-DC4	B-DC5	B-DC6	B-DC7	B-DC8	B-DC9	B-DC10	B-DC11	B-DC12	B-DC13	B-DC14	B-DC15	B-DC16	B-Ph1	B-Ph2	B-Ph3	B-Ph4	B-Ph5	B-Ph6	B-Ph7	B-Ph8	B-Ph9	B-Ph10	B-Ph11	B-Ph12	B-Ph13	B-Ph14	B-Ph15	B-Ph16	

Term	0.00000e+00	0.00000e+00	0.00000e+00	0.00000e+00	0.00000e+00	0.00000e+00	0.00000e+00	0.00000e+00	0.00000e+00	0.00000e+00	0.00000e+00	0.00000e+00	0.00000e+00	0.00000e+00	0.00000e+00	0.00000e+00	0.00000e+00	0.00000e+00	0.00000e+00	0.00000e+00	0.00000e+00	0.00000e+00	0.00000e+00	0.00000e+00	0.00000e+00	0.00000e+00	0.00000e+00	0.00000e+00	0.00000e+00	0.00000e+00	0.00000e+00	0.00000e+00	-2.12444e+02	-1.41062e+02	-1.70892e+02	-1.83732e+02	-1.12109e+02	-1.05118e+02	-1.55012e+02	-1.62015e+02	-9.09407e+01	-9.85453e+01	-1.70533e+02	-1.70350e+02	-1.84933e+02	-1.77024e+02	-9.26801e+01	-1.49740e+02	
Factor	3.86930e-05	3.87587e-05	1.11420e-05	1.84525e-01	4.76322e-07	4.00243e-07	1.77227e-01	5.92448e-02	4.03067e-07	4.33660e-07	9.47737e-02	3.35258e-02	3.39684e-02	1.07113e-02	3.85728e-07	1.51601e-02	1.41076e-07	1.41361e-07	3.93248e-08	7.31989e-02	1.55024e-09	1.55026e-09	6.73368e-02	2.26348e-02	1.55356e-09	1.55040e-09	3.24457e-02	1.12648e-02	1.11019e-02	3.63347e-03	1.55221e-09	4.80811e-03	X	X	X	X	X	X	X	X	X	X	X	X	X	X	X	X	



#DISTANCE SETTINGS
A = Detector Channel
A-1	A-2	A-3	A-4	A-5	A-6	A-7	A-8	A-9	A-10	A-11	A-12	A-13	A-14	A-15	A-16	

2.5000e+00	3.0000e+00	2.5000e+00	3.0000e+00	2.0000e+00	3.0000e+00	1.5000e+00	3.0000e+00	3.0000e+00	3.0000e+00	3.0000e+00	3.0000e+00	3.0000e+00	3.0000e+00	1.5000e+00	3.0000e+00	

B = Detector Channel
B-1	B-2	B-3	B-4	B-5	B-6	B-7	B-8	B-9	B-10	B-11	B-12	B-13	B-14	B-15	B-16	

1.0000e+01	1.0000e+01	1.0000e+01	1.4400e+00	1.0000e+01	1.0000e+01	1.5100e+00	1.9400e+00	1.0000e+01	1.0000e+01	1.9900e+00	2.4900e+00	2.4100e+00	2.9000e+00	1.0000e+01	2.9800e+00	




#DATA BEGINS
time	group	step	mark	flag	A-AC1	A-AC2	A-AC3	A-AC4	A-AC5	A-AC6	A-AC7	A-AC8	A-AC9	A-AC10	A-AC11	A-AC12	A-AC13	A-AC14	A-AC15	A-AC16	A-DC1	A-DC2	A-DC3	A-DC4	A-DC5	A-DC6	A-DC7	A-DC8	A-DC9	A-DC10	A-DC11	A-DC12	A-DC13	A-DC14	A-DC15	A-DC16	A-Ph1	A-Ph2	A-Ph3	A-Ph4	A-Ph5	A-Ph6	A-Ph7	A-Ph8	A-Ph9	A-Ph10	A-Ph11	A-Ph12	A-Ph13	A-Ph14	A-Ph15	A-Ph16	B-AC1	B-AC2	B-AC3	B-AC4	B-AC5	B-AC6	B-AC7	B-AC8	B-AC9	B-AC10	B-AC11	B-AC12	B-AC13	B-AC14	B-AC15	B-AC16	B-DC1	B-DC2	B-DC3	B-DC4	B-DC5	B-DC6	B-DC7	B-DC8	B-DC9	B-DC10	B-DC11	B-DC12	B-DC13	B-DC14	B-DC15	B-DC16	B-Ph1	B-Ph2	B-Ph3	B-Ph4	B-Ph5	B-Ph6	B-Ph7	B-Ph8	B-Ph9	B-Ph10	B-Ph11	B-Ph12	B-Ph13	B-Ph14	B-Ph15	B-Ph16	aux-1	digaux	

4153.975	1	1	0	256	0.12833	0.11575	0.20123	0.10345	0.12203	0.060956	0.17097	0.18006	0.1255	0.039835	0.1482	0.082896	0.34389	0.27591	0.24019	0.36593	-3.5812	-3.3771	-3.9083	-3.6813	-3.5062	-3.9583	-3.5354	-3.6625	-4.0979	-3.5333	-4.0042	-3.6167	-3.4833	-4.1062	-3.5208	-3.6417	90.926	-1.813	60.143	199.421	225.754	91.391	295.952	294.433	202.102	91.021	213.042	244.140	316.918	288.792	49.118	268.781	0.00037934	6.857e-05	2.7e-05	586.51	4.8253e-07	9.8643e-07	756.78	194.49	9.5038e-07	3.2825e-07	289.09	132.39	86.574	38.328	1.3328e-06	62.431	9.6049e-06	7.6356e-06	2.2737e-06	448.4	8.8186e-08	7.978e-08	584.8	143.94	8.8789e-08	8.1668e-08	196.12	88.544	54.799	25.135	9.3592e-08	39.154	63.274	43.086	36.214	-14.155	68.537	71.308	-15.252	-9.077	94.961	109.878	-11.131	-6.608	-5.244	-1.588	102.804	-4.242	-8191	255	
4154.071	1	1	0	0	0.20663	0.11031	0.3326	0.33689	0.16313	0.07916	0.14867	0.14173	0.032906	0.11762	0.25429	0.049661	0.052876	0.23666	0.10999	0.10037	-3.6333	-3.3146	-3.8792	-4.0292	-3.3646	-3.9208	-3.7771	-3.5167	-3.9042	-3.3667	-4.0125	-3.8917	-3.4938	-3.925	-3.5938	-3.6875	207.378	267.326	108.473	313.698	318.143	9.722	286.513	-21.312	13.424	63.851	309.407	46.411	332.321	35.947	45.655	238.153	0.00050382	2.9356e-05	2.5474e-05	594.94	9.0506e-07	8.5105e-07	768.04	198.72	5.0914e-07	1.1915e-06	296.6	134.92	88.719	39.537	1.035e-06	63.992	9.3572e-06	7.5216e-06	2.3276e-06	453.74	8.4856e-08	8.1246e-08	595.34	147.12	8.4604e-08	8.212e-08	200.42	90.372	55.889	25.854	9.7657e-08	40.188	58.687	62.367	-10.818	-14.275	74.907	74.140	-15.001	-9.022	95.973	83.165	-10.485	-6.761	-5.748	-1.450	84.837	-3.901	-8191	255	
4154.190	1	1	0	0	0.26658	0.34996	0.24759	0.32609	0.093111	0.17633	0.21975	0.093448	0.11849	0.1046	0.20297	0.30363	0.040681	0.23684	0.062332	0.12084	-3.5812	-3.4	-3.7146	-3.9437	-3.4625	-4.0125	-3.7042	-3.4896	-3.9354	-3.5208	-3.7833	-3.9271	-3.3833	-4.0875	-3.8083	-3.5792	174.771	182.242	271.903	-14.980	85.979	279.063	263.161	1.449	126.193	84.874	11.897	300.649	271.631	185.944	48.959	191.098	0.00043572	6.1307e-05	4.0571e-05	601.76	1.5397e-06	9.7461e-07	772.41	201.96	6.4228e-07	1.2454e-06	296.66	135.78	88.396	39.778	1.4633e-06	63.786	9.1347e-06	7.6686e-06	2.3538e-06	457.83	8.5279e-08	8.3898e-08	598.65	148.5	8.1051e-08	8.4087e-08	201.61	90.912	56.078	25.953	9.1749e-08	40.042	64.230	64.934	15.758	-14.550	97.913	79.615	-15.196	-9.089	113.827	69.219	-10.846	-6.914	-5.309	-1.335	117.844	-4.021	-8191	255	
4154.286	1	1	0	0	0.04233	0.16426	0.23338	0.21072	0.12593	0.21064	0.18002	0.24676	0.095481	0.17588	0.097542	0.19546	0.23365	0.41141	0.03974	0.068577	-3.6312	-3.4208	-3.6958	-4.0792	-3.2833	-4.0229	-3.9729	-3.5354	-4.1479	-3.5104	-3.6562	-4.0896	-3.4208	-3.7812	-3.725	-3.4917	135.707	84.482	43.668	254.765	263.740	109.955	287.398	291.726	5.007	164.244	313.231	258.934	318.102	322.275	144.523	291.744	0.00044196	5.7041e-05	3.6601e-05	599.73	1.7408e-06	1.7041e-06	770.58	199.09	1.3662e-06	1.3035e-06	292.92	133.9	87.956	39.447	1.5408e-06	63.088	8.9416e-06	7.8662e-06	2.2956e-06	457.2	8.2557e-08	8.7089e-08	595.24	146.53	8.0487e-08	8.9035e-08	199.04	89.511	55.458	25.589	9.0986e-08	39.571	68.804	86.193	3.957	-14.317	92.469	84.413	-15.168	-9.089	79.317	109.255	-10.834	-7.053	-5.617	-1.643	117.075	-3.803	-8191	255	
4154.382	1	1	0	0	0.14096	0.10488	0.27112	0.17619	0.24095	0.19096	0.23364	0.091785	0.12003	0.051749	0.089767	0.15873	0.15391	0.30835	0.047569	0.17463	-3.5896	-3.6229	-3.6958	-3.9917	-3.5312	-3.9792	-3.85	-3.3875	-3.95	-3.7146	-3.7375	-3.9521	-3.5083	-3.9437	-3.9688	-3.5896	162.754	116.115	-25.280	41.139	113.294	224.076	195.596	273.177	305.483	53.826	278.317	309.018	320.271	328.023	62.270	173.825	0.00043741	0.00011366	2.6807e-05	596.25	8.5392e-07	1.2599e-06	764.08	196.76	9.1253e-07	1.1871e-06	292.34	133.13	86.684	38.85	9.5768e-07	63.116	8.8308e-06	8.2517e-06	2.2511e-06	454.35	8.3096e-08	9.1484e-08	590.96	145.33	8.2151e-08	9.4119e-08	197.84	89.061	55.064	25.403	8.9223e-08	39.516	65.181	34.522	12.084	-14.306	104.149	53.366	-15.089	-9.105	112.246	79.519	-10.658	-6.930	-5.566	-1.302	136.193	-3.865	-8191	255	
4154.503	1	1	0	0	0.1755	0.15435	0.20486	0.115	0.1218	0.19053	0.32286	0.17511	0.11931	0.13763	0.33934	0.25468	0.24912	0.080229	0.055218	0.095412	-3.6833	-3.4688	-3.5333	-4.0875	-3.5208	-3.9354	-3.9813	-3.4021	-3.9188	-3.975	-3.6	-3.975	-3.6562	-3.8	-4.0083	-3.5042	220.255	271.604	332.614	186.698	174.233	91.399	267.968	295.942	179.599	40.960	-0.204	15.855	162.548	261.537	126.378	268.165	0.00044542	0.00011004	3.093e-05	595.06	1.6209e-06	1.1092e-06	757.1	196.38	4.2458e-07	7.1048e-07	290.49	132.5	86.337	38.393	8.1057e-07	62.344	9.3254e-06	8.6649e-06	2.2246e-06	452.85	8.7214e-08	9.3978e-08	587.29	144.94	8.9634e-08	9.7727e-08	196.57	88.66	54.791	25.191	9.1015e-08	39.136	63.801	49.072	35.459	-14.406	104.918	31.280	-14.839	-9.111	66.972	132.490	-10.665	-6.917	-5.904	-1.379	176.593	-3.843	-8191	255	
4154.575	1	1	0	0	0.11143	0.10483	0.36679	0.14323	0.066327	0.14157	0.11637	0.18692	0.16166	0.11991	0.21578	0.21299	0.18003	0.15248	0.083545	0.23126	-3.775	-3.7354	-3.4604	-4.0604	-3.5583	-3.5583	-4.1438	-3.4917	-3.7917	-3.9188	-3.55	-3.9979	-3.5958	-3.7208	-4.0938	-3.4521	279.212	7.514	55.504	17.268	320.197	-2.379	313.229	312.630	168.321	139.852	312.767	250.113	316.119	91.838	38.411	256.573	0.00043517	0.00013568	1.9589e-05	591.61	1.5861e-06	1.1266e-06	755.1	196.1	5.3179e-07	2.5678e-07	290.85	133.75	87.223	38.808	8.4711e-07	62.722	1.022e-05	8.8516e-06	2.2835e-06	451.2	9.8298e-08	9.7579e-08	587.46	144.86	9.5767e-08	9.5289e-08	197.31	89.403	55.345	25.413	9.0724e-08	39.551	66.465	51.085	17.615	-14.543	73.132	90.309	-14.758	-8.917	169.062	88.346	-10.567	-6.874	-5.800	-1.538	89.160	-4.250	-8191	255	
4154.671	1	1	0	0	0.24813	0.18048	0.031567	0.10112	0.32262	0.30066	0.10778	0.10626	0.095283	0.12131	0.18224	0.16573	0.23644	0.12142	0.12451	0.078305	-3.4625	-3.8583	-3.6333	-3.9938	-3.6562	-3.5042	-4.0417	-3.5687	-3.7	-3.7854	-3.7333	-4.0021	-3.7708	-3.6312	-4.0625	-3.7417	33.619	92.861	-15.651	175.225	-15.909	314.939	239.899	299.378	114.439	262.411	305.701	321.228	128.592	5.674	263.150	95.967	0.00044802	0.00011601	2.5009e-05	587.42	1.5865e-06	1.121e-06	758.8	195.69	8.8928e-07	8.793e-07	291.5	134.14	87.355	39.078	1.0436e-06	62.996	1.0451e-05	8.4487e-06	2.2465e-06	449.41	1.004e-07	9.2205e-08	587.76	144.76	9.9755e-08	8.8845e-08	197.86	89.796	55.564	25.559	8.2604e-08	39.661	65.585	27.592	13.474	-14.369	60.861	72.955	-14.992	-9.029	136.744	84.983	-10.741	-6.699	-5.624	-1.169	92.206	-4.114	-8191	255	
4154.791	1	1	0	0	0.11301	0.20159	0.1011	0.19743	0.21396	0.32481	0.13982	0.47839	0.1466	0.15837	0.091313	0.32041	0.12373	0.1355	0.15597	0.14284	-3.4313	-3.8292	-3.3625	-4.1188	-3.8083	-3.6771	-4.1771	-3.6771	-3.6	-3.7917	-3.5542	-4.0563	-3.9729	-3.5938	-3.9313	-3.7021	40.235	-12.868	234.145	330.592	147.059	71.579	310.316	313.807	288.143	24.291	-2.288	257.933	231.152	298.286	17.625	23.046	0.00046114	5.1003e-05	2.4524e-05	592.96	1.4235e-06	9.7725e-07	761.7	195.49	3.2315e-07	1.4389e-06	290.44	132.28	86.672	38.682	1.6872e-06	62.894	1.0416e-05	8.2113e-06	2.0695e-06	452.2	9.4881e-08	8.8394e-08	588.71	144.97	9.3136e-08	8.5566e-08	196.83	88.846	54.995	25.302	8.1912e-08	39.367	56.143	63.551	37.426	-14.429	49.088	45.725	-15.373	-9.076	97.134	107.526	-10.844	-6.904	-5.562	-1.196	122.506	-4.089	-8191	255	
4154.886	1	1	0	0	0.19672	0.055627	0.065094	0.071912	0.095868	0.30355	0.062418	0.15116	0.26928	0.13304	0.17767	0.12467	0.18782	0.083784	0.13831	0.20129	-3.3208	-3.9542	-3.6292	-3.9271	-3.6021	-3.4042	-4.1167	-3.7604	-3.6437	-3.9271	-3.5229	-3.9375	-3.8042	-3.6479	-4.0354	-3.9604	-2.276	-12.168	165.211	162.096	182.219	291.354	300.265	268.813	270.045	304.188	19.277	83.953	292.051	73.978	107.504	243.304	0.00038236	3.0479e-05	2.5605e-05	592.56	1.7281e-06	7.1645e-07	759.76	196.41	1.1343e-06	9.8238e-07	290.34	133.08	86.507	38.857	1.2215e-06	62.654	1.014e-05	7.6859e-06	2.0688e-06	452.24	9.3295e-08	8.5584e-08	589.18	145.33	9.2469e-08	8.5059e-08	197.13	89.12	54.991	25.297	8.3299e-08	39.37	58.422	34.432	54.857	-14.575	60.032	68.324	-14.918	-9.141	96.490	70.224	-10.957	-6.994	-5.662	-1.495	109.738	-4.085	-8191	255	
4154.982	1	1	0	0	0.10506	0.23933	0.014631	0.20696	0.14424	0.28278	0.034323	0.017198	0.055964	0.18842	0.12478	0.12178	0.17292	0.15825	0.070515	0.11777	-3.2708	-3.9437	-3.5479	-3.8875	-3.7875	-3.5646	-4.1042	-3.6771	-3.6875	-4.0896	-3.7229	-3.6917	-3.8812	-3.6229	-3.9167	-3.9208	118.536	63.827	-8.248	163.751	200.233	104.727	-4.344	23.009	3.773	147.512	288.103	301.929	-23.019	304.113	73.908	285.882	0.00044293	7.3601e-05	2.6128e-05	586.35	1.0467e-06	1.114e-06	757.98	195.92	2.9011e-07	1.0405e-06	289.82	133.58	87.062	38.595	9.4753e-07	63.045	9.9958e-06	7.7375e-06	2.1524e-06	449.36	9.1041e-08	8.4001e-08	587.59	144.89	9.4198e-08	8.3221e-08	196.96	89.41	55.124	25.243	8.7134e-08	39.538	60.499	65.259	37.481	-14.235	100.808	44.518	-15.014	-8.442	97.595	94.762	-10.890	-7.019	-5.742	-1.284	87.811	-4.183	-8191	255	
4155.078	1	1	0	0	0.094993	0.10536	0.068347	0.20474	0.29541	0.12621	0.16247	0.050475	0.24339	0.39446	0.17172	0.17833	0.10349	0.18164	0.080117	0.072128	-3.1437	-3.975	-3.5396	-3.6896	-3.975	-3.4146	-3.9458	-3.8125	-3.6188	-3.9792	-3.7354	-3.8729	-3.9896	-3.6104	-3.8875	-3.8812	93.140	303.421	69.167	308.660	254.763	42.080	257.679	67.684	248.260	187.071	47.926	-21.039	231.489	185.789	165.730	166.599	0.00040368	9.0716e-05	3.9824e-05	591.71	1.2404e-06	4.7437e-07	762.57	197.63	6.6655e-07	7.9084e-07	294.41	135.37	87.594	39.145	9.9925e-07	63.28	9.5979e-06	7.2398e-06	2.2624e-06	451.3	8.8851e-08	7.9825e-08	592.08	146.23	8.7398e-08	7.9045e-08	200.3	90.427	55.683	25.528	8.9307e-08	39.782	64.295	46.556	20.375	-14.212	81.227	107.868	-14.992	-9.129	102.954	118.188	-10.680	-6.981	-5.751	-1.386	130.104	-4.024	-8191	255	
4155.174	1	1	0	0	0.063196	0.15275	0.17817	0.042433	0.25782	0.19381	0.11114	0.089487	0.13259	0.11061	0.11273	0.28309	0.14771	0.22873	0.19424	0.37267	-3.2125	-3.8604	-3.6375	-3.6396	-3.8771	-3.5854	-4.0042	-3.7667	-3.375	-3.9875	-3.6437	-3.7438	-3.9313	-3.6917	-3.7229	-3.9896	280.316	209.495	182.317	27.077	262.476	258.009	271.216	198.694	151.357	284.551	108.391	203.132	291.156	279.216	-9.689	3.803	0.00038672	6.3028e-05	3.933e-05	593.93	8.6953e-07	1.1014e-06	769.27	197.56	9.2844e-07	1.291e-06	292.22	133.78	86.946	38.455	1.244e-06	62.687	9.132e-06	7.081e-06	2.2178e-06	453.69	7.9405e-08	7.8039e-08	593.66	145.62	8.1853e-08	7.6512e-08	198.55	89.208	54.803	25.163	8.6617e-08	39.259	63.008	55.915	35.458	-14.322	82.812	115.963	-15.153	-9.118	72.808	93.466	-10.711	-6.894	-5.742	-1.562	127.798	-4.155	-8191	255	
4155.271	1	1	0	0	0.17853	0.096811	0.16529	0.31908	0.22751	0.086978	0.25224	0.27099	0.32222	0.07574	0.26291	0.13821	0.13709	0.24803	0.11405	0.15046	-3.1083	-3.9917	-3.6562	-3.7875	-4.1438	-3.6042	-3.9792	-4.0667	-3.4875	-4.0729	-3.8604	-3.5292	-4.0062	-3.5521	-3.4708	-3.9125	252.073	193.142	8.507	266.407	91.619	21.566	213.247	241.908	312.024	252.471	-21.880	70.488	207.214	270.965	154.062	291.976	0.00039252	0.00010931	2.3894e-05	591.63	1.4105e-06	8.939e-07	769.65	197.69	1.0191e-06	5.1304e-07	293.95	134.38	87.371	39.048	5.6869e-07	63.548	8.6336e-06	6.9556e-06	2.1996e-06	453.41	7.6104e-08	7.9612e-08	595.42	146.45	7.6662e-08	7.7966e-08	200.01	89.556	55.104	25.463	8.707e-08	39.793	67.572	46.702	22.638	-14.370	67.581	63.092	-15.223	-9.055	78.077	60.789	-10.932	-6.680	-5.540	-1.426	103.523	-4.240	-8191	255	
4155.367	1	1	0	0	0.15464	0.082618	0.35459	0.24539	0.030998	0.19546	0.16219	0.19189	0.25597	0.086605	0.18857	0.15171	0.18067	0.15284	0.099909	0.21575	-3.2146	-3.9313	-3.6292	-3.6604	-4.0167	-3.6896	-3.9354	-3.875	-3.5333	-3.7521	-3.7438	-3.6063	-4.0542	-3.5604	-3.5938	-4.0667	164.673	143.335	-9.841	316.596	248.544	83.581	316.800	277.164	72.136	215.816	322.138	-13.284	214.947	317.395	130.328	297.351	0.00040569	2.1325e-05	1.1098e-05	601.28	6.3345e-07	9.7505e-07	780.26	202.23	1.0371e-06	8.7261e-07	299.57	135.67	88.882	39.914	7.7392e-07	65.197	8.3902e-06	7.251e-06	2.0774e-06	458.52	7.3869e-08	8.06e-08	605.69	149.36	7.4383e-08	8.0443e-08	203.51	90.952	56.131	26.072	8.3878e-08	40.706	59.540	34.398	7.709	-14.410	78.595	81.155	-15.225	-9.004	90.492	120.378	-10.605	-6.949	-5.954	-1.338	36.577	-3.937	-8191	255	
4155.463	1	1	0	0	0.18377	0.095581	0.085099	0.071	0.14044	0.090957	0.17575	0.11447	0.082062	0.32328	0.11329	0.25091	0.18724	0.10281	0.098058	0.27065	-3.1021	-3.8792	-3.8771	-3.3958	-4.0875	-3.7271	-3.6542	-3.9104	-3.5854	-3.7583	-4.0563	-3.575	-4.1417	-3.6208	-3.6667	-4.2958	225.458	137.165	45.071	274.776	35.091	-15.646	274.176	244.057	204.696	205.961	180.898	230.486	283.602	284.550	98.212	-16.932	0.00041335	7.2627e-05	3.3982e-05	610.99	1.2376e-06	5.823e-07	798.27	207.62	9.3561e-07	1.0793e-06	308.33	139.31	90.364	40.704	4.3953e-07	66.076	8.6347e-06	7.4497e-06	2.0392e-06	465.97	7.468e-08	8.1143e-08	618.18	153.21	7.5063e-08	8.1719e-08	208.92	93.158	57.302	26.731	8.0211e-08	41.5	66.111	40.705	9.243	-14.327	74.110	49.925	-15.127	-9.277	107.026	86.191	-10.932	-6.876	-5.476	-1.361	88.334	-4.043	-8191	255	
4155.583	1	1	0	0	0.20095	0.18488	0.24384	0.15394	0.20471	0.28566	0.26687	0.15011	0.19493	0.089941	0.20036	0.18268	0.20996	0.11569	0.10562	0.097037	-3.1625	-3.8542	-3.8792	-3.4521	-3.9583	-3.7958	-3.8187	-4.0021	-3.5896	-3.7188	-3.8229	-3.4938	-4.0396	-3.7062	-3.6312	-4.0042	111.045	236.456	262.646	297.868	19.213	-21.668	248.656	207.306	164.640	96.059	209.999	253.493	205.746	46.425	90.497	266.094	0.00042939	6.0754e-05	4.1878e-05	614.49	1.2931e-06	7.2401e-07	796.13	207.01	6.935e-07	8.1084e-07	306.42	138.86	90.161	40.652	5.7599e-07	65.685	8.6818e-06	7.6665e-06	2.0433e-06	468.36	7.8032e-08	8.4689e-08	615.99	152.52	8.0885e-08	8.4197e-08	207.42	92.882	56.98	26.407	8.0098e-08	41.093	55.978	74.729	24.960	-14.391	110.876	98.522	-15.176	-8.890	107.771	83.028	-10.956	-6.838	-5.660	-1.335	116.569	-4.037	-8191	255	
4155.680	1	1	0	0	0.095694	0.29317	0.15886	0.22896	0.16658	0.12072	0.11743	0.21282	0.18322	0.20624	0.076441	0.17857	0.11421	0.0558	0.054953	0.069447	-3.1396	-3.5042	-3.875	-3.5	-4.125	-3.9833	-3.6063	-4.15	-3.4375	-3.7917	-3.9979	-3.6375	-3.7604	-3.9604	-3.4417	-4.025	178.213	76.956	118.056	225.029	6.415	242.662	180.123	71.179	227.369	119.893	277.249	255.368	266.100	58.287	87.417	62.933	0.00038363	5.1053e-05	4.0413e-05	613.2	4.7679e-07	1.435e-06	794.58	207.46	7.7132e-07	1.1382e-06	305.8	138.76	89.955	40.436	1.1526e-06	65.872	9.0894e-06	7.5661e-06	1.9518e-06	467.11	8.2831e-08	8.4227e-08	616.45	152.81	8.4475e-08	8.0346e-08	207.41	92.851	57.136	26.404	7.6928e-08	41.106	63.350	75.069	15.138	-14.135	94.084	91.442	-15.163	-9.161	134.346	95.197	-10.814	-6.920	-5.597	-1.552	97.279	-4.020	-8191	255	
4155.776	1	1	0	0	0.12575	0.1719	0.21792	0.12609	0.17491	0.058894	0.18236	0.14386	0.30879	0.13599	0.29122	0.20341	0.14128	0.29887	0.26478	0.076429	-3.375	-3.6375	-3.825	-3.4125	-3.6437	-3.7792	-3.5417	-4.0042	-3.7104	-3.5062	-4.0104	-3.4875	-3.8646	-3.9292	-3.2708	-4.0687	-12.884	96.406	149.691	247.779	188.804	54.166	311.945	312.136	166.219	136.442	282.398	-23.966	25.566	301.561	305.445	267.438	0.00042091	0.000156	2.7937e-05	615.07	8.9919e-07	7.6056e-07	797.35	206.33	9.6035e-07	1.3329e-06	306.79	138.71	90.296	40.488	1.0132e-06	65.38	9.3621e-06	7.524e-06	1.8257e-06	468.47	8.2854e-08	7.9357e-08	618.25	152.85	8.3737e-08	7.7165e-08	208.18	92.817	57.139	26.406	7.3999e-08	41.048	55.380	42.261	45.905	-14.490	90.555	92.991	-15.054	-9.194	122.599	102.868	-11.067	-6.806	-5.718	-1.626	94.936	-3.936	-8191	255	
4155.872	1	1	0	0	0.16801	0.023761	0.10024	0.17411	0.07772	0.30607	0.32789	0.15278	0.19672	0.23265	0.20675	0.09434	0.10118	0.26548	0.051403	0.25786	-3.2313	-3.6	-3.9104	-3.3854	-3.6896	-3.9104	-3.7292	-4.0229	-3.8542	-3.5563	-4.1062	-3.5	-3.5938	-3.9542	-3.5021	-4.0312	79.457	257.335	53.307	265.713	48.058	48.793	238.740	273.807	157.135	167.783	-27.033	114.245	301.297	321.841	273.071	271.196	0.00040992	0.00015484	2.6474e-05	613.34	9.807e-07	1.3423e-06	803.54	208.28	8.0558e-07	1.509e-06	307.79	138.79	89.981	40.533	5.5347e-07	65.918	9.0815e-06	6.8755e-06	1.7919e-06	468.64	8.3816e-08	7.2784e-08	620.1	153.33	8.3679e-08	7.4736e-08	208.55	92.73	57.092	26.437	7.3245e-08	41.248	71.398	58.948	15.458	-14.558	76.990	103.391	-15.050	-9.382	92.457	69.827	-10.857	-6.745	-5.630	-1.532	103.448	-4.155	-8191	255	
4155.966	1	1	0	0	0.11647	0.15932	0.083471	0.32445	0.1483	0.1687	0.11855	0.17485	0.27275	0.13221	0.12271	0.23356	0.26117	0.15705	0.18501	0.055966	-3.525	-3.4208	-3.9167	-3.6854	-3.6729	-3.925	-3.5979	-3.8333	-3.75	-3.3583	-4.0104	-3.6625	-3.7042	-4.15	-3.4771	-4.0625	-2.684	15.535	255.012	332.114	121.407	217.495	288.642	314.289	8.337	274.489	266.843	-6.101	276.727	315.829	217.546	309.727	0.00043394	7.2701e-05	1.6154e-05	620.31	8.0229e-07	9.3214e-07	807.56	211.18	7.7526e-07	1.2525e-06	313.5	140.91	91.932	41.296	9.9033e-07	67.217	8.9292e-06	6.8705e-06	1.7826e-06	472.13	8.2147e-08	7.2629e-08	626.52	155.56	8.2145e-08	7.4022e-08	212.11	94.305	57.975	26.994	7.3879e-08	42.128	56.805	34.394	328.212	-14.280	96.970	103.760	-15.008	-8.932	88.829	103.570	-10.568	-6.873	-5.504	-1.546	126.770	-3.781	-8191	255	
4156.064	1	1	0	0	0.081701	0.18071	0.10729	0.24015	0.37526	0.20307	0.19646	0.15397	0.14427	0.17811	0.13402	0.092971	0.22158	0.31919	0.077845	0.14689	-3.4625	-3.3604	-3.9458	-3.6437	-3.6021	-3.9396	-3.7083	-3.7938	-3.8458	-3.4729	-3.9938	-3.8271	-3.7208	-3.9979	-3.7062	-3.9896	298.196	17.318	189.508	-21.586	240.186	17.431	286.024	298.708	224.120	167.551	288.161	-21.283	320.121	317.255	0.479	8.783	0.00044553	8.1098e-05	2.5772e-05	626.48	8.4337e-07	1.1559e-06	818.1	212.82	1.192e-06	1.4989e-06	313.84	141.66	91.9	41.186	8.6014e-07	67.177	9.0024e-06	6.7418e-06	1.8345e-06	477.99	7.8943e-08	7.418e-08	632.23	157.11	7.7879e-08	7.3428e-08	213.2	94.926	58.265	26.963	7.7889e-08	42.052	65.697	57.780	9.100	-14.066	88.080	86.460	-15.013	-9.200	139.228	80.742	-10.628	-6.948	-5.325	-1.546	91.236	-4.290	-8191	255	
4156.183	1	1	0	0	0.1916	0.17722	0.058953	0.44204	0.13491	0.14269	0.095621	0.12505	0.15361	0.13146	0.17781	0.19433	0.14973	0.098961	0.078435	0.072127	-3.5812	-3.45	-3.9125	-3.8125	-3.4938	-4.0437	-3.6875	-3.8125	-3.7708	-3.4979	-3.8667	-3.7271	-3.2917	-4.0646	-3.4521	-3.7396	325.650	287.277	98.064	297.827	57.266	-15.038	-22.361	222.680	75.240	204.722	265.874	25.972	60.676	268.676	222.355	198.625	0.00043452	0.00016855	2.4133e-05	626.51	8.4095e-07	1.0723e-06	813.65	211.07	1.2071e-06	9.5038e-07	312.74	140.81	91.205	41.207	1.4485e-06	67.004	8.6574e-06	6.528e-06	1.8904e-06	476.93	7.7645e-08	6.6961e-08	630.06	156.1	7.727e-08	7.0983e-08	212.69	94.228	57.943	26.901	8.0857e-08	42.036	61.069	36.612	16.783	-14.304	94.930	108.866	-15.413	-8.719	91.808	86.957	-10.899	-6.987	-5.562	-1.419	82.276	-4.029	-8191	255	
4156.279	1	1	0	0	0.1048	0.24967	0.15119	0.23441	0.31107	0.15281	0.13704	0.071332	0.028688	0.090859	0.29678	0.32584	0.12499	0.19173	0.15813	0.18209	-3.675	-3.3542	-3.7271	-3.9167	-3.4729	-3.8604	-3.8083	-3.6063	-3.9333	-3.3896	-3.9354	-4.0104	-3.3896	-3.9188	-3.4521	-3.6625	141.730	282.804	330.067	303.963	151.002	18.181	-10.837	187.572	33.590	-19.481	331.930	240.562	261.891	53.544	41.712	332.737	0.00048088	8.1628e-05	3.0091e-05	632.97	1.8012e-06	8.6282e-07	823.09	213.52	3.672e-07	1.0767e-06	316.4	142.22	91.83	41.587	6.2185e-07	67.373	8.4566e-06	6.3957e-06	1.9901e-06	481.4	7.5348e-08	6.9154e-08	637.07	157.94	7.4765e-08	7.1393e-08	214.41	94.675	58.22	27.097	8.3745e-08	42.239	59.539	47.302	56.029	-14.305	85.502	59.469	-14.972	-9.027	65.936	100.027	-10.811	-6.784	-5.872	-1.740	118.300	-4.311	-8191	255	
4156.375	1	1	0	0	0.14071	0.24869	0.024386	0.18808	0.15716	0.070113	0.047213	0.10451	0.12841	0.075713	0.16707	0.19391	0.062628	0.10419	0.2523	0.26149	-3.4854	-3.4104	-3.7604	-3.8042	-3.4	-3.9	-3.8021	-3.4167	-4.0167	-3.6521	-3.8833	-3.9562	-3.5938	-3.9521	-3.7229	-3.5458	275.368	56.313	5.583	310.425	263.373	194.830	320.068	136.798	182.088	115.907	259.208	231.677	9.587	264.598	184.578	315.927	0.00043059	7.1826e-05	2.4439e-05	638.68	1.3846e-06	1.167e-06	829.43	215.5	1.5124e-06	8.2813e-07	317.85	143.19	92.288	41.61	7.6953e-07	67.689	8.3214e-06	6.7809e-06	2.0809e-06	484.78	7.3055e-08	7.3715e-08	642.33	159.18	7.3558e-08	7.5602e-08	216.12	95.604	58.534	27.24	8.5407e-08	42.462	66.470	16.286	-6.722	-14.423	104.957	103.616	-14.785	-9.020	91.074	100.819	-10.683	-6.890	-5.278	-1.331	120.214	-3.864	-8191	255	
4156.472	1	1	0	0	0.050585	0.14499	0.055122	0.34366	0.10995	0.087767	0.20693	0.14916	0.12507	0.1811	0.075537	0.10163	0.14333	0.097324	0.30191	0.088876	-3.7167	-3.4083	-3.5646	-3.8729	-3.525	-3.7417	-3.7958	-3.5854	-3.8875	-3.6188	-3.7208	-4.0375	-3.5187	-3.9208	-3.7646	-3.7062	-24.330	160.725	216.005	294.105	11.267	12.265	182.674	234.257	6.915	-10.890	202.972	3.021	11.398	-26.943	37.825	188.973	0.00042441	0.00010424	3.0387e-05	635.98	1.1954e-06	1.0906e-06	835.79	217.64	6.5213e-07	1.2115e-06	324.01	143.93	93.575	42.132	1.0288e-06	68.665	8.2691e-06	7.2277e-06	2.0986e-06	484.85	7.2661e-08	7.8624e-08	646.07	160.85	7.1574e-08	8.0527e-08	218.8	96.26	59.132	27.619	8.3393e-08	43.098	54.178	74.693	-8.999	-14.361	100.511	100.958	-15.070	-9.248	114.292	81.736	-10.805	-6.739	-5.513	-1.456	69.413	-3.985	-8191	255	
4156.568	1	1	0	0	0.22166	0.090709	0.21106	0.15229	0.12274	0.030252	0.10761	0.033002	0.32751	0.10161	0.061102	0.049355	0.085866	0.15261	0.19712	0.13355	-3.6458	-3.5271	-3.5625	-3.9208	-3.5104	-3.8625	-3.8833	-3.5	-3.8896	-3.6437	-3.6917	-4.0687	-3.3792	-4.0542	-3.8229	-3.6063	249.005	90.385	297.783	187.562	235.179	228.089	182.666	107.849	263.616	168.749	28.056	-9.852	312.604	-7.897	88.938	68.640	0.00046557	0.00012144	1.2408e-05	640.43	1.3095e-06	1.0481e-06	837.38	218.17	1.1484e-06	9.3911e-07	323.51	143.03	93.272	42.314	9.4011e-07	67.808	8.4137e-06	7.6742e-06	2.0523e-06	486.83	7.4302e-08	8.0229e-08	648.09	161.11	7.3781e-08	8.2368e-08	218.9	96.034	59.042	27.543	7.9865e-08	42.572	60.627	24.139	-14.939	-14.675	96.624	42.263	-15.149	-8.906	116.655	71.089	-10.906	-6.956	-5.617	-1.318	86.538	-4.204	-8191	255	
4156.664	1	1	0	0	0.44626	0.11984	0.041513	0.22384	0.22674	0.12583	0.088323	0.21454	0.13512	0.31711	0.24232	0.09526	0.29791	0.058953	0.23349	0.1955	-3.5979	-3.6937	-3.4708	-4.0979	-3.4437	-3.8375	-4.025	-3.3396	-3.9417	-3.7188	-3.6396	-4.1687	-3.5542	-3.8167	-3.8729	-3.5167	30.000	252.600	251.275	282.808	28.484	-20.072	27.055	179.606	39.456	121.010	257.299	32.990	331.817	-18.136	242.579	286.104	0.00048404	9.9597e-05	3.6011e-05	633.86	1.7535e-06	1.4587e-06	828.16	217.49	7.7749e-07	1.5798e-06	317.87	142.22	92.393	41.484	1.0703e-06	67.505	8.6071e-06	7.6315e-06	1.9851e-06	484.9	7.7754e-08	8.3817e-08	642.7	159.83	7.7487e-08	8.3816e-08	215.63	94.933	58.462	27.09	8.0473e-08	42.179	62.701	53.967	13.372	-14.375	77.331	77.032	-15.013	-8.701	96.568	117.048	-10.534	-6.728	-5.337	-1.700	131.696	-4.182	-8191	255	
4156.760	1	1	0	0	0.065957	0.14621	0.043201	0.34249	0.0739	0.26403	0.069008	0.15747	0.16091	0.21196	0.094469	0.12005	0.09262	0.28677	0.13993	0.22619	-3.5958	-3.6813	-3.4729	-4.1479	-3.4896	-3.7667	-3.9729	-3.5062	-3.8208	-3.9583	-3.325	-4.2021	-3.65	-3.7188	-3.8667	-3.5563	291.260	-26.615	140.661	272.360	196.510	242.858	239.890	310.216	167.808	-10.030	134.133	21.224	50.159	-2.475	263.454	277.029	0.0004912	6.5182e-05	3.1279e-05	634.91	6.4852e-07	8.0246e-07	824.37	214.72	9.3229e-07	9.9262e-07	316.47	141.13	91.588	41.023	9.4324e-07	67.115	9.1964e-06	7.5664e-06	1.944e-06	481.8	8.2615e-08	8.3162e-08	637.77	158.2	8.3656e-08	8.3819e-08	214.22	94.454	58.009	26.85	7.8571e-08	41.915	56.770	45.293	18.114	-14.259	88.702	72.975	-15.153	-8.852	148.149	49.496	-10.820	-6.793	-5.496	-1.481	80.709	-4.239	-8191	255	
4156.879	1	1	0	0	0.033187	0.083152	0.087223	0.14759	0.092358	0.21036	0.21957	0.23446	0.18798	0.12824	0.16918	0.37101	0.055394	0.15437	0.078725	0.06105	-3.4833	-3.9292	-3.4688	-3.9292	-3.7604	-3.675	-4.1	-3.6854	-3.8479	-3.9	-3.7042	-3.9042	-3.6083	-3.6042	-4.0458	-3.5583	290.366	124.377	118.443	-10.982	60.537	27.841	303.221	-15.644	55.966	321.173	276.041	257.217	187.048	255.846	222.649	109.435	0.0004741	0.00013173	4.6962e-05	627.78	1.6119e-06	5.1581e-07	819.21	213.53	7.8483e-07	7.9048e-07	314.67	141.68	91.592	40.945	9.5924e-07	66.593	9.5973e-06	7.5614e-06	2.0126e-06	478.01	8.8738e-08	8.1989e-08	633.61	157.35	8.9689e-08	8.1215e-08	213.56	94.554	57.998	26.736	8.011e-08	41.761	59.178	51.037	-0.287	-14.351	87.853	57.184	-15.003	-9.115	71.037	69.750	-10.848	-6.667	-5.450	-1.382	156.402	-4.054	-8191	255	
4156.975	1	1	0	0	0.30269	0.028911	0.10058	0.14348	0.19171	0.27584	0.15354	0.23015	0.036854	0.073655	0.059927	0.058853	0.16137	0.18958	0.21814	0.073041	-3.3875	-3.9229	-3.4542	-4.0792	-3.9125	-3.4583	-4.075	-3.5396	-3.5958	-4.0312	-3.5812	-4.0771	-3.7646	-3.6771	-4.0271	-3.5729	101.342	65.604	245.797	122.595	48.917	-7.103	250.889	327.897	250.624	56.833	329.420	-13.932	287.834	-21.003	111.605	206.718	0.00037002	9.1128e-05	2.362e-05	620.44	1.3117e-06	7.6379e-07	810.38	209.59	1.5173e-06	9.9346e-07	311.25	140.17	90.27	40.427	8.1362e-07	65.596	9.9608e-06	7.5961e-06	1.9381e-06	474.87	9.1945e-08	8.2415e-08	627.08	155.22	8.9906e-08	8.2016e-08	211.15	93.624	57.187	26.302	7.9147e-08	41.085	67.414	29.829	30.703	-14.270	81.113	61.420	-15.001	-8.863	130.883	103.121	-10.811	-6.820	-5.481	-1.345	117.901	-4.038	-8191	255	
4157.048	1	1	0	0	0.19839	0.10841	0.25706	0.083792	0.040283	0.10056	0.13245	0.16306	0.11879	0.059306	0.03837	0.32231	0.18643	0.052182	0.19827	0.27246	-3.3542	-3.8292	-3.4771	-3.8312	-3.8854	-3.7229	-3.9938	-3.5583	-3.625	-3.8917	-3.4354	-4.0042	-3.9	-3.3708	-3.8563	-3.5375	192.470	260.733	187.978	306.267	188.037	156.508	-11.715	322.932	26.750	106.240	124.940	-25.706	238.826	-2.916	313.949	246.078	0.00039134	9.2771e-05	2.7249e-05	612.14	1.3432e-06	1.0838e-06	792.92	205.47	7.702e-07	1.5234e-06	303.36	135.48	87.364	38.654	3.3289e-07	63.185	9.8909e-06	7.5814e-06	1.9779e-06	468.37	9.0405e-08	8.3646e-08	615.29	151.7	8.9372e-08	8.211e-08	205.42	90.682	55.413	25.253	7.9771e-08	39.617	59.782	55.554	10.900	-14.600	25.973	67.021	-15.068	-9.240	116.161	72.034	-10.547	-6.631	-5.277	-1.318	104.451	-3.932	-8191	255	
4157.145	1	1	0	0	0.17379	0.23609	0.27882	0.27972	0.087227	0.16244	0.20047	0.18414	0.11373	0.055246	0.17415	0.086209	0.037798	0.06004	0.098623	0.44603	-3.1312	-3.8583	-3.4938	-3.8312	-3.9688	-3.7104	-4.075	-3.6458	-3.6604	-4.0167	-3.575	-3.7833	-3.8896	-3.3729	-4	-3.8917	78.005	135.593	26.120	168.213	289.990	-14.404	42.653	260.779	69.467	299.115	295.006	260.587	274.284	175.759	56.666	254.872	0.00044897	0.00011453	1.5958e-05	604.23	8.3901e-07	1.1509e-06	779.21	200.91	1.1257e-06	1.0374e-06	297.67	131.3	85.087	37.877	7.2596e-07	62.018	9.4832e-06	7.1576e-06	2.0203e-06	460.38	8.3419e-08	7.883e-08	603.43	147.88	8.7944e-08	7.7837e-08	201.11	88.389	54.066	24.764	8.3551e-08	38.94	62.917	25.914	4.870	-14.737	61.385	72.877	-15.166	-9.105	130.764	76.799	-10.576	-6.737	-5.394	-1.379	122.898	-4.156	-8191	255	
4157.263	1	1	0	0	0.16916	0.10643	0.16146	0.22843	0.14617	0.22693	0.087258	0.21222	0.15901	0.24466	0.13472	0.15441	0.071896	0.20325	0.22043	0.10895	-3.1583	-3.7958	-3.5833	-3.8604	-3.8333	-3.25	-3.9958	-3.7083	-3.4	-3.9292	-3.525	-3.7062	-3.9729	-3.3375	-3.8792	-3.8708	94.148	62.910	107.455	-10.466	294.436	300.594	219.586	282.230	288.028	191.406	88.158	329.536	237.260	328.732	195.882	13.221	0.00043953	7.8376e-05	4.6068e-05	598.86	8.7902e-07	1.1893e-06	780.41	200.78	1.5927e-06	8.2329e-07	298.14	133.54	86.195	38.147	7.2318e-07	62.481	9.5112e-06	7.187e-06	2.1833e-06	457.57	8.4821e-08	7.7403e-08	604.95	148.33	8.8301e-08	7.5992e-08	202.29	89.34	54.536	24.942	9.2554e-08	39.184	60.370	23.192	16.066	-14.568	40.487	73.708	-15.339	-9.077	109.194	82.546	-10.751	-6.557	-5.536	-1.357	145.085	-3.863	-8191	255	
4157.360	1	1	0	0	0.17327	0.15186	0.076558	0.25173	0.24544	0.22057	0.10746	0.14602	0.20892	0.16576	0.28051	0.086457	0.089086	0.20377	0.084687	0.14246	-3.1042	-4.0396	-3.4625	-3.6792	-4.0083	-3.5083	-3.9792	-3.7458	-3.5521	-3.9354	-3.7896	-3.7792	-3.9354	-3.6188	-3.7979	-3.9125	246.051	320.631	235.206	18.238	210.224	186.733	316.436	248.381	235.345	278.004	321.177	321.912	5.102	321.709	82.530	219.168	0.00052621	7.0706e-05	3.8083e-05	602.02	1.668e-06	9.7712e-07	783.45	202.35	8.0097e-07	7.001e-07	301.4	136.53	87.794	39.398	1.2301e-06	64.166	9.4718e-06	7.1673e-06	2.2851e-06	458.79	8.4643e-08	7.9221e-08	606.07	149.17	8.6019e-08	8.0127e-08	204.26	91.052	55.831	25.699	9.0416e-08	40.376	53.378	18.856	13.383	-14.290	96.573	100.189	-15.074	-9.098	106.088	66.408	-10.402	-6.843	-5.583	-1.234	77.042	-4.144	-8191	255	
4157.456	1	1	0	0	0.11045	0.10658	0.021453	0.2171	0.13036	0.32031	0.22262	0.28741	0.20425	0.25288	0.21037	0.25861	0.043671	0.067857	0.15067	0.17259	-3.1021	-3.9292	-3.6417	-3.6417	-3.9125	-3.6333	-3.9021	-4.0417	-3.4271	-3.8521	-3.625	-3.5812	-4.1208	-3.5208	-3.6813	-3.8417	173.389	62.863	155.553	-19.632	113.593	8.175	232.634	202.680	77.529	152.043	209.420	273.493	173.811	322.379	58.666	218.179	0.00039905	5.2801e-05	3.1906e-05	609.46	7.3172e-07	3.8182e-07	793.39	205.97	1.0727e-06	1.059e-06	304.5	137.53	88.621	39.47	5.7823e-07	64.312	8.9245e-06	7.3369e-06	2.3613e-06	464.84	8.2143e-08	8.3268e-08	613.42	151.59	8.0775e-08	8.0647e-08	206.7	91.737	56.135	25.872	9.2787e-08	40.302	64.211	47.996	2.032	-14.378	58.888	80.214	-14.898	-9.147	90.529	123.714	-10.545	-6.861	-5.460	-1.148	89.311	-4.244	-8191	255	
4157.552	1	1	0	0	0.29248	0.20556	0.11432	0.0062307	0.032824	0.099974	0.19262	0.38774	0.21869	0.080879	0.23275	0.13193	0.33759	0.15756	0.12495	0.21642	-2.9542	-3.9333	-3.8271	-3.5	-4.0646	-3.7125	-3.9271	-4.0708	-3.4958	-3.9396	-3.7667	-3.6104	-4.0333	-3.6167	-3.6562	-4.0396	229.308	-10.617	78.462	165.977	271.066	321.106	257.972	312.180	0.564	220.708	234.337	249.995	278.083	314.519	223.234	214.490	0.00046843	6.7788e-05	3.2213e-05	603.04	1.2632e-06	3.3893e-07	772.19	197.36	1.2606e-06	1.0761e-06	286.14	128.24	82.666	36.523	1.7753e-06	59.602	9.0386e-06	7.8818e-06	2.3878e-06	459.6	8.081e-08	8.9262e-08	598.75	145.67	8.4504e-08	9.1538e-08	194.87	85.855	52.432	23.905	9.7699e-08	37.428	63.905	54.884	-5.415	-13.991	67.172	118.229	-14.963	-9.118	141.751	75.485	-10.642	-6.658	-5.377	-1.372	95.267	-4.082	-8191	255	
4157.673	1	1	0	0	0.25334	0.098903	0.17871	0.22967	0.26301	0.2904	0.21977	0.19837	0.043101	0.18477	0.23927	0.069448	0.10532	0.080154	0.17072	0.03837	-3.1083	-3.9062	-3.7854	-3.3208	-3.7958	-3.6646	-3.8396	-3.975	-3.3812	-3.9083	-3.75	-3.6437	-4.0437	-3.5875	-3.5958	-4.1646	246.512	39.797	269.823	256.890	184.239	327.891	36.848	196.979	134.560	195.472	273.435	144.815	-7.440	329.011	21.486	74.574	0.00041931	0.00016995	4.121e-05	575.66	5.0028e-07	3.6974e-07	750.77	191.66	1.0477e-06	1.0463e-06	284.62	129.01	82.864	36.521	1.1889e-06	59.87	9.294e-06	8.8539e-06	2.4016e-06	440.7	8.6374e-08	9.6248e-08	581.08	141.46	8.8546e-08	9.8758e-08	193.11	85.986	52.665	23.972	9.9128e-08	37.664	50.236	40.992	25.629	-14.213	94.319	62.211	-15.180	-8.981	119.625	94.791	-10.568	-6.915	-5.682	-1.274	105.458	-4.217	-8191	255	
4157.744	1	1	0	0	0.19299	0.26196	0.2121	0.15246	0.10516	0.092701	0.090206	0.12399	0.26121	0.065894	0.17253	0.070998	0.28217	0.04636	0.16913	0.46354	-3.0708	-3.6521	-3.6375	-3.5187	-3.8896	-3.6396	-3.6292	-3.8896	-3.5021	-3.7292	-3.9521	-3.3958	-3.6729	-3.9104	-3.4729	-4.1146	-3.254	-17.583	168.484	113.647	170.389	174.843	321.244	323.663	55.685	239.006	-10.334	209.209	319.558	152.885	132.464	311.256	0.00040144	8.4318e-05	3.9196e-05	577.02	1.128e-06	1.6387e-06	744.44	188.84	9.7094e-07	1.272e-06	281.66	128.24	82.727	36.492	1.1082e-06	60.05	9.9009e-06	9.3231e-06	2.4136e-06	440.17	9.5924e-08	1.0459e-07	576.45	140	9.8062e-08	1.0314e-07	191.82	85.77	52.514	23.93	1.0103e-07	37.639	62.935	57.336	-5.163	-14.672	136.388	99.202	-15.098	-9.009	128.704	102.183	-10.705	-6.807	-5.314	-1.293	110.077	-4.042	-8191	255	
4157.865	1	1	0	0	0.15235	0.08357	0.034567	0.22501	0.26863	0.044776	0.20689	0.14176	0.14223	0.096788	0.083983	0.06595	0.0816	0.15546	0.32172	0.25606	-3.1917	-3.7542	-3.9042	-3.5229	-3.9896	-3.6729	-3.5792	-3.7333	-3.6583	-3.65	-3.9354	-3.4333	-3.8625	-3.8396	-3.4604	-4.1	135.279	268.237	312.725	322.260	204.098	-7.299	-11.249	-15.387	26.139	0.844	240.217	232.567	178.973	62.090	41.797	278.181	0.00038479	0.00011144	3.547e-05	574.41	7.9712e-07	1.557e-06	739.19	187.12	9.0289e-07	1.0013e-06	277.64	126.8	82.171	36.021	2.2542e-07	59.353	1.1111e-05	1.0008e-05	2.5598e-06	439.03	1.087e-07	1.0958e-07	572.5	138.62	1.1001e-07	1.1034e-07	189.33	84.96	52.209	23.571	1.0419e-07	37.375	61.769	8.278	34.618	-14.365	80.050	94.388	-14.945	-9.003	129.211	77.805	-10.589	-7.053	-5.318	-0.908	33.174	-3.849	-8191	255	
4157.959	1	1	0	0	0.12557	0.098679	0.073061	0.2837	0.14881	0.15605	0.19703	0.2071	0.10502	0.29894	0.21355	0.23633	0.19059	0.12386	0.13115	0.12316	-3.2625	-3.7104	-3.8125	-3.4604	-3.7729	-3.7833	-3.5396	-3.8125	-3.6083	-3.6437	-4.075	-3.4729	-3.725	-3.9354	-3.3729	-4.0875	-17.104	163.068	28.990	328.332	293.267	4.882	269.652	319.838	7.740	323.151	282.508	296.738	310.492	92.159	24.117	283.943	0.00038952	0.00015186	3.4471e-05	569.99	1.2362e-06	8.5236e-07	729.84	183.87	1.544e-06	1.4451e-06	273.45	125.14	80.706	34.747	3.2459e-07	57.432	1.2153e-05	1.0314e-05	2.6202e-06	435.93	1.1916e-07	1.1332e-07	565.74	136.41	1.2357e-07	1.1439e-07	185.94	83.759	51.28	22.855	1.0974e-07	36.123	69.951	67.312	17.507	-14.538	94.466	75.749	-14.984	-9.145	98.533	74.146	-10.672	-7.063	-5.637	-1.366	125.139	-4.016	-8191	255	
4158.055	1	1	0	0	0.23186	0.022671	0.04322	0.075458	0.30949	0.16215	0.19609	0.36361	0.13309	0.07199	0.092086	0.2083	0.15384	0.24876	0.13694	0.13087	-3.3083	-3.3896	-3.9958	-3.4792	-3.8854	-3.9167	-3.4875	-4.0062	-3.6437	-3.5187	-4.0354	-3.6688	-3.7771	-3.95	-3.4354	-3.9521	308.118	145.101	158.645	322.142	300.190	118.281	272.485	32.882	116.152	86.267	-24.586	270.440	190.618	210.918	227.227	32.986	0.00038424	0.00015374	2.6503e-05	551.96	1.309e-06	4.2966e-07	703.54	175.82	4.7585e-07	1.1619e-06	259.15	119.97	77.014	33.279	6.1727e-07	55.106	1.3108e-05	1.0875e-05	2.722e-06	421.54	1.2546e-07	1.1389e-07	543.34	130.44	1.2688e-07	1.1297e-07	177.08	80.21	49.086	21.84	1.0991e-07	34.722	71.604	26.191	328.237	-14.268	84.776	56.011	-15.316	-9.344	119.163	63.610	-10.437	-7.207	-5.508	-1.395	76.214	-4.051	-8191	255	
4158.152	1	1	0	0	0.11238	0.1181	0.12128	0.24018	0.10647	0.12275	0.15582	0.1903	0.23684	0.1932	0.28247	0.15974	0.22364	0.40608	0.13379	0.28417	-3.3833	-3.4333	-3.9646	-3.5458	-3.7167	-3.9333	-3.4854	-3.8625	-3.8125	-3.4688	-3.9979	-3.7792	-3.675	-3.9396	-3.2917	-3.8333	-5.298	85.217	165.218	29.457	225.264	195.488	276.255	-19.330	255.637	113.099	259.210	282.236	71.690	316.362	157.742	321.843	0.00035833	0.00010269	1.8354e-05	539.08	9.5521e-07	4.5316e-07	688.33	173.71	7.5174e-07	1.0448e-06	257.12	118.36	76.471	33.444	9.2048e-07	55.583	1.2955e-05	1.0586e-05	2.7405e-06	412.68	1.259e-07	1.1373e-07	535.08	128.65	1.2511e-07	1.1365e-07	175.86	79.667	48.849	21.884	1.1555e-07	35.082	66.591	0.472	35.464	-14.283	104.219	105.513	-15.021	-9.124	104.771	57.117	-10.782	-6.847	-5.485	-1.384	60.104	-4.051	-8191	255	
4158.272	1	1	0	0	0.12486	0.14063	0.091673	0.12569	0.066477	0.1223	0.1694	0.12592	0.23722	0.28687	0.21991	0.23373	0.14128	0.12808	0.25476	0.17329	-3.4792	-3.3292	-3.6813	-3.6896	-3.5271	-4.0604	-3.6271	-3.8229	-3.8417	-3.5563	-3.9	-3.7646	-3.5125	-3.9771	-3.6146	-3.8417	-16.121	124.918	294.938	-23.557	269.606	9.259	284.758	260.218	144.647	154.914	318.050	248.145	52.551	323.203	293.942	299.206	0.00043124	0.00014641	2.9192e-05	539.84	9.7593e-07	9.26e-07	693.09	173.68	8.0973e-07	1.0681e-06	260.54	120.4	77.876	33.983	6.5006e-07	56.719	1.2909e-05	1.0535e-05	2.8663e-06	414.45	1.2443e-07	1.1243e-07	538.03	128.97	1.2417e-07	1.0972e-07	177.52	80.902	49.53	22.291	1.1755e-07	35.834	54.976	65.194	25.650	-14.592	109.622	63.915	-14.965	-8.958	99.486	40.632	-10.635	-6.978	-5.420	-1.494	99.939	-4.059	-8191	255	
4158.344	1	1	0	0	0.12448	0.078107	0.27713	0.1164	0.15072	0.14025	0.18016	0.18185	0.098962	0.13486	0.076383	0.26887	0.37732	0.27291	0.049955	0.088001	-3.525	-3.5083	-3.8521	-3.7771	-3.6208	-4.075	-3.5312	-3.6208	-3.9	-3.4688	-3.8354	-3.7375	-3.6396	-3.9271	-3.4458	-3.825	280.990	302.518	39.585	144.739	76.422	267.399	127.077	-20.291	-4.922	-1.133	235.351	136.764	217.635	281.961	179.389	312.696	0.00039208	9.3402e-05	9.5519e-06	544.71	1.0707e-06	9.2416e-07	701.75	175.63	1.0715e-06	7.6804e-07	262.02	121.02	78.088	33.955	9.9037e-07	56.867	1.2001e-05	9.6806e-06	2.9353e-06	418.88	1.1939e-07	1.1075e-07	543.59	130.2	1.2266e-07	1.1391e-07	178.88	81.202	49.661	22.276	1.2937e-07	35.935	61.606	20.993	17.548	-14.113	51.801	49.114	-15.087	-8.985	142.769	95.396	-10.508	-6.863	-5.517	-1.431	89.996	-3.921	-8191	255	
4158.440	1	1	0	0	0.25962	0.32101	0.22901	0.13892	0.26845	0.088352	0.16206	0.16992	0.099797	0.31192	0.0092378	0.26811	0.12797	0.11381	0.12543	0.3328	-3.6854	-3.4354	-3.7375	-3.7062	-3.5271	-4.0417	-3.575	-3.7375	-3.9167	-3.5563	-3.8854	-3.7729	-3.55	-4.0021	-3.6375	-3.5583	268.243	21.354	269.644	46.824	193.715	131.376	260.680	267.080	237.939	279.335	279.888	112.749	212.238	50.386	-6.513	245.312	0.00035404	9.3615e-05	2.0705e-05	546.73	1.5401e-06	4.9801e-07	699.28	176.59	8.9322e-07	5.706e-07	261.4	120.85	77.21	33.875	1.1032e-06	56.32	1.2166e-05	9.9872e-06	3.1793e-06	418.89	1.1358e-07	1.0703e-07	544.27	130.92	1.0983e-07	1.0427e-07	178.62	80.893	49.212	22.156	1.2144e-07	35.298	47.766	74.254	13.595	-14.300	69.374	100.672	-15.121	-9.191	88.391	24.258	-10.493	-6.649	-5.703	-1.784	77.892	-4.055	-8191	255	
4158.536	1	1	0	0	0.069456	0.23799	0.052678	0.26331	0.14256	0.0086547	0.19405	0.036286	0.22956	0.13299	0.068836	0.26804	0.28775	0.063022	0.22928	0.045405	-3.6479	-3.3729	-3.7333	-3.8417	-3.4583	-4.0646	-3.5583	-3.6958	-4.1292	-3.5167	-3.6542	-4.0271	-3.5375	-3.8604	-3.6542	-3.5021	196.156	158.018	21.056	240.013	82.490	70.510	219.740	16.590	129.555	-7.269	319.363	286.911	-19.028	142.336	-9.859	222.418	0.00028607	8.5001e-05	1.1744e-05	534.28	7.4009e-07	1.2126e-06	688.15	173	8.3497e-07	3.9817e-07	258.85	119.12	76.036	33.887	9.8146e-07	55.984	1.0568e-05	9.3734e-06	2.9682e-06	410.05	1.0161e-07	9.8528e-08	533.15	128.18	9.5059e-08	1.0042e-07	176.15	79.904	48.674	22.159	1.1107e-07	35.287	65.070	41.483	16.853	-14.745	79.213	99.763	-15.129	-8.937	83.407	135.558	-10.397	-6.909	-5.851	-1.312	90.128	-3.961	-8191	255	
4158.657	1	1	0	0	0.14331	0.10456	0.21702	0.12177	0.11067	0.16702	0.18301	0.27925	0.11787	0.20603	0.11632	0.34512	0.20129	0.18006	0.097621	0.21986	-3.7104	-3.3	-3.725	-3.9125	-3.4188	-4.0917	-3.8458	-3.425	-4.0333	-3.6229	-3.6083	-3.95	-3.4708	-3.9542	-3.7542	-3.6021	230.018	317.325	62.550	216.990	267.392	-9.722	177.386	324.978	222.316	140.530	184.329	329.531	16.592	306.723	221.987	90.237	0.00037523	5.1933e-05	3.7487e-05	538.04	6.3362e-07	1.068e-06	686.96	174.23	8.0547e-07	5.9313e-07	262.07	120.45	77.941	34.185	8.2813e-07	56.808	9.9794e-06	9.3776e-06	2.7595e-06	411.49	9.358e-08	1.0271e-07	536.82	129.47	9.1938e-08	1.0413e-07	178.33	80.835	49.335	22.414	1.0752e-07	35.69	64.183	70.581	11.711	-14.409	46.122	114.692	-14.786	-8.964	155.416	111.032	-10.754	-7.021	-5.190	-1.526	121.977	-3.952	-8191	255	
4158.753	1	1	0	0	0.095815	0.18585	0.086067	0.1515	0.24083	0.18311	0.11231	0.27961	0.23968	0.30654	0.14914	0.13327	0.036841	0.20659	0.067223	0.14775	-3.6729	-3.5812	-3.6479	-3.9771	-3.3625	-3.6312	-3.9229	-3.4	-3.9125	-3.6333	-3.6833	-4.0208	-3.5771	-3.7958	-3.8021	-3.5167	327.670	36.026	169.135	5.698	130.449	46.367	34.830	275.717	187.107	298.122	243.270	20.037	37.883	275.315	131.561	156.997	0.0004343	6.4797e-05	1.7105e-05	543.42	1.5191e-06	6.9104e-07	692.12	176.52	9.9621e-07	1.4595e-06	261.93	121.92	78.268	34.337	1.1245e-06	57.47	9.9394e-06	9.9527e-06	2.686e-06	414.33	9.6981e-08	1.0918e-07	538.83	130.39	9.9761e-08	1.1099e-07	179.02	81.431	49.661	22.571	1.0592e-07	36.082	63.047	84.095	14.391	-14.258	91.525	133.598	-14.971	-9.044	126.280	95.828	-10.703	-7.004	-5.624	-1.463	100.762	-3.882	-8191	255	
4158.849	1	1	0	0	0.15947	0.094622	0.31726	0.020165	0.21388	0.13863	0.1403	0.12847	0.069304	0.36394	0.087845	0.12095	0.28496	0.03431	0.10438	0.22093	-3.4771	-3.7	-3.5417	-3.9167	-3.5458	-3.7354	-3.9562	-3.3958	-3.875	-3.6479	-3.7958	-4.0062	-3.5687	-3.7417	-4.0583	-3.4854	244.361	125.087	152.992	250.878	-10.873	57.733	16.242	309.591	255.116	159.753	-14.385	330.622	193.313	204.152	211.792	215.004	0.00035885	2.0065e-05	1.3422e-05	543.41	6.9645e-07	8.887e-07	699.24	177.87	9.8454e-07	1.2692e-06	267.39	122.96	79.417	34.959	7.8864e-07	57.515	1.0666e-05	1.0197e-05	2.5844e-06	414.85	1.0194e-07	1.1019e-07	542.94	131.25	1.0574e-07	1.1376e-07	181.39	82.379	50.362	22.805	1.0304e-07	36.228	59.791	146.595	-23.643	-14.781	71.476	28.443	-15.111	-8.794	95.144	107.084	-10.679	-6.940	-5.443	-1.579	122.897	-3.949	-8191	255	
4158.945	1	1	0	0	0.06034	0.11058	0.31919	0.27396	0.17336	0.075316	0.22227	0.062574	0.072106	0.088911	0.19627	0.20292	0.070895	0.07768	0.018852	0.192	-3.5375	-3.775	-3.5229	-3.9792	-3.4729	-3.6896	-3.8917	-3.3708	-3.7833	-3.9125	-3.4625	-4.125	-3.7542	-3.5958	-4.1083	-3.4833	271.811	67.879	120.382	97.912	263.568	65.002	231.348	38.733	98.067	33.400	-17.488	216.757	224.666	64.368	53.781	318.883	0.00037488	0.00013308	3.8183e-05	541.38	8.6714e-07	1.2837e-06	689.8	174.71	4.189e-07	1.0197e-06	260.11	120.15	77.246	33.659	8.7481e-07	56.138	1.1103e-05	1.0076e-05	2.5315e-06	412.46	1.0684e-07	1.0545e-07	537.17	129.32	1.0522e-07	1.0337e-07	176.99	80.419	48.964	22.115	9.5403e-08	35.228	55.951	31.226	44.408	-14.507	40.492	78.736	-15.049	-9.147	127.855	87.080	-10.471	-6.566	-5.536	-0.969	109.708	-4.209	-8191	255	
4159.040	1	1	0	0	0.13797	0.11741	0.22705	0.06013	0.18059	0.25101	0.098548	0.14202	0.053447	0.053346	0.3248	0.10769	0.17523	0.11327	0.034022	0.24091	-3.4646	-3.8937	-3.3958	-3.9208	-3.6083	-3.6375	-4.0563	-3.6479	-3.875	-3.8521	-3.6125	-3.7729	-3.725	-3.5583	-4.0521	-3.5458	146.402	218.461	303.907	287.787	320.259	58.706	221.996	237.954	35.597	281.395	224.162	212.373	283.462	299.385	234.662	16.828	0.00036534	4.1128e-05	3.7935e-05	528.22	1.4988e-06	3.0778e-07	684.11	172.44	4.8103e-07	6.9453e-07	260.81	120.37	77.784	34.07	2.5389e-07	56.871	1.1246e-05	9.0433e-06	2.378e-06	404.3	1.059e-07	9.7178e-08	529.35	127.67	1.037e-07	9.4006e-08	177.22	80.62	49.285	22.385	8.9272e-08	35.747	71.456	75.529	11.955	-14.218	75.170	66.806	-14.996	-9.055	126.657	73.093	-11.074	-6.745	-5.687	-1.543	169.758	-4.019	-8191	255	
4159.136	1	1	0	0	0.2392	0.050991	0.066093	0.072948	0.13467	0.039903	0.1593	0.26552	0.077518	0.07775	0.2047	0.29184	0.17004	0.21345	0.15353	0.26552	-3.5104	-3.8875	-3.4375	-3.9521	-3.6375	-3.5938	-4	-3.4562	-3.7521	-3.9458	-3.5167	-3.925	-3.8563	-3.5854	-4.1083	-3.7146	122.243	169.400	305.122	253.835	182.277	290.003	214.955	169.667	-5.337	102.518	3.234	219.970	302.090	6.256	107.120	310.281	0.00036075	6.9254e-05	1.2922e-05	539.42	1.0708e-06	9.4938e-07	697.87	177.99	9.9814e-07	7.831e-07	268.73	124.98	80.025	35.287	1.9565e-07	59.23	1.0617e-05	8.4334e-06	2.1457e-06	411.86	9.8951e-08	8.8323e-08	542.81	131.98	9.5777e-08	8.4455e-08	182.74	83.42	50.911	23.203	8.1941e-08	37.202	60.875	43.823	82.936	-14.317	40.591	105.472	-15.133	-9.071	100.457	97.968	-10.672	-7.011	-5.662	-1.623	212.808	-3.970	-8191	255	
4159.256	1	1	0	0	0.20862	0.084949	0.06544	0.035901	0.070192	0.30941	0.16374	0.21692	0.15688	0.11568	0.17734	0.082512	0.11132	0.04015	0.21151	0.079552	-3.2542	-3.9021	-3.5146	-3.9229	-3.6271	-3.5521	-4.1542	-3.7146	-3.6813	-3.9729	-3.5917	-4.0083	-3.7729	-3.3958	-4.0146	-3.6917	18.869	-0.975	94.034	-11.534	87.965	20.708	-25.585	249.525	-5.113	95.160	303.488	223.383	296.057	-20.324	61.144	12.595	0.00046802	9.6882e-05	2.4815e-05	557.15	8.4324e-07	2.4517e-07	721.98	184.46	1.0837e-06	8.2154e-07	279.2	128.91	82.206	36.626	7.5103e-07	61.013	1.0016e-05	7.5885e-06	2.0151e-06	424.29	9.0657e-08	8.2044e-08	558.5	136.62	9.0272e-08	8.025e-08	189.22	86.005	52.283	23.919	7.9709e-08	38.235	56.259	30.962	18.265	-14.363	85.258	27.094	-15.033	-9.095	116.309	37.917	-10.505	-6.758	-5.299	-1.385	124.767	-3.871	-8191	255	
4159.353	1	1	0	0	0.15221	0.066626	0.073725	0.16162	0.15182	0.063168	0.25743	0.14028	0.10558	0.25985	0.11631	0.09291	0.12799	0.13752	0.11703	0.25628	-3.1208	-3.9688	-3.5458	-3.8646	-3.9521	-3.5042	-3.9125	-3.8042	-3.5521	-4.1521	-3.55	-3.9437	-3.9125	-3.5312	-3.8688	-3.9083	24.572	133.979	151.085	320.233	223.643	13.833	251.883	18.776	193.573	327.231	107.461	319.489	283.231	260.961	248.135	299.816	0.00044152	0.00015025	3.5937e-05	562.39	1.2343e-06	1.1862e-06	732.3	188.57	6.7934e-07	7.1527e-07	282.06	131.08	83.294	37.222	6.3888e-07	61.565	9.3754e-06	7.2321e-06	1.999e-06	430.29	8.6038e-08	7.7755e-08	567.48	139.05	8.4886e-08	7.8076e-08	191.58	87.429	52.811	24.286	8.2762e-08	38.505	65.009	50.080	26.443	-14.335	94.236	66.837	-15.020	-8.950	100.649	26.687	-10.533	-6.927	-5.410	-1.409	126.506	-3.854	-8191	255	
4159.447	1	1	0	0	0.1991	0.29495	0.10569	0.071438	0.053465	0.1492	0.099487	0.24271	0.064389	0.11322	0.17505	0.13913	0.062216	0.20238	0.22044	0.22408	-3.1833	-4.1104	-3.675	-3.9062	-3.9854	-3.5521	-4.0271	-3.8583	-3.6813	-4.0042	-3.6437	-3.8146	-3.8854	-3.6854	-3.8688	-3.8354	26.184	-11.444	240.841	15.142	230.897	155.636	218.157	319.214	-10.988	123.836	211.284	-11.888	43.743	-10.133	24.739	303.814	0.00039863	9.1814e-05	2.2856e-05	567.45	1.3003e-06	9.1769e-07	737.76	188.23	7.5866e-07	5.1256e-07	282.05	129.78	83.036	36.833	6.345e-07	61.049	8.9895e-06	6.7032e-06	2.1298e-06	432.49	8.1675e-08	7.5685e-08	569.27	139.1	8.3125e-08	7.1887e-08	191.68	86.758	52.554	24.089	8.5572e-08	38.312	61.058	57.327	19.100	-14.101	111.718	110.779	-15.216	-8.943	114.417	158.007	-10.565	-6.901	-5.994	-1.525	79.786	-3.841	-8191	255	
4159.543	1	1	0	0	0.16686	0.11686	0.1137	0.093693	0.19316	0.16545	0.34539	0.14227	0.10691	0.044025	0.13665	0.16907	0.27966	0.20233	0.1462	0.28727	-3.0979	-4.0271	-3.6271	-3.7313	-3.9646	-3.4562	-4.0042	-3.9521	-3.5292	-3.8583	-3.6958	-3.7417	-3.9979	-3.5	-3.6375	-3.9604	274.068	282.530	190.966	312.617	5.923	119.335	-2.132	279.057	212.526	214.646	219.188	33.466	20.544	321.728	53.282	194.508	0.00040585	0.00011496	3.0427e-05	568	9.8834e-07	1.2931e-06	731.73	187.95	9.0306e-07	3.4419e-07	285.04	130.83	84.193	37.213	1.6064e-06	61.626	8.9424e-06	6.6605e-06	2.1603e-06	433.06	7.82e-08	7.3553e-08	569.91	139.46	7.9002e-08	7.1719e-08	192.8	87.419	53.029	24.357	8.6164e-08	38.718	63.208	52.020	24.086	-14.074	58.018	61.202	-15.363	-9.428	43.998	130.210	-10.793	-6.804	-5.753	-1.587	111.514	-3.942	-8191	255	
4159.639	1	1	0	0	0.21744	0.061155	0.0844	0.035722	0.15351	0.20891	0.13652	0.14057	0.27316	0.083618	0.10693	0.34599	0.28188	0.10478	0.068226	0.24818	-3.2438	-3.95	-3.7313	-3.675	-4.1167	-3.4437	-3.8438	-3.9396	-3.4583	-4.0062	-3.8563	-3.5521	-3.9583	-3.5979	-3.6917	-3.9417	142.196	315.355	88.936	118.818	120.695	325.973	-7.379	246.052	286.257	43.162	-11.665	241.775	270.650	4.958	166.584	49.496	0.00036691	0.00010773	2.2201e-05	569.9	1.6749e-06	9.1272e-07	738.63	190.51	1.0804e-06	5.5291e-07	285.59	131.41	83.905	37.48	9.1152e-07	62.019	8.3411e-06	7.0763e-06	2.1829e-06	435.47	7.6136e-08	7.8511e-08	573.17	140.45	7.6302e-08	7.8208e-08	193.98	87.745	53.046	24.481	8.8205e-08	38.88	67.601	84.216	30.066	-14.194	65.428	94.000	-15.169	-8.898	105.399	166.618	-10.857	-6.802	-5.527	-1.355	109.103	-4.337	-8191	255	
4159.735	1	1	0	0	0.049207	0.092807	0.067956	0.032984	0.18101	0.085675	0.33675	0.049836	0.20867	0.1357	0.15573	0.19105	0.19133	0.16395	0.073719	0.23527	-3.1479	-3.8688	-3.7396	-3.6083	-4.0958	-3.6354	-3.7604	-4.1521	-3.3896	-3.9354	-3.8083	-3.5292	-3.9146	-3.5854	-3.5271	-3.8604	118.248	36.215	139.944	180.160	314.251	120.319	270.743	324.680	276.940	13.190	257.497	320.747	-24.380	10.244	167.570	258.698	0.00039334	0.00010393	2.3503e-05	573.8	1.2499e-06	9.062e-07	746.82	191.38	8.125e-07	1.1212e-06	288	133.46	84.92	37.913	7.7548e-07	63.207	8.4546e-06	7.6279e-06	2.2399e-06	437.92	7.3588e-08	8.4224e-08	577.69	141.84	7.5681e-08	8.3024e-08	196.03	89.035	53.879	24.806	8.7137e-08	39.577	71.121	55.354	-11.753	-14.435	101.129	83.837	-15.092	-9.097	105.555	38.924	-10.326	-6.631	-5.690	-1.241	160.526	-3.940	-8191	255	
4159.856	1	1	0	0	0.069597	0.13885	0.098561	0.21798	0.12837	0.069644	0.16575	0.1577	0.32062	0.19471	0.15509	0.14219	0.12169	0.17108	0.28661	0.20812	-3.1396	-3.825	-3.7313	-3.4667	-4.0021	-3.7125	-3.7188	-3.9313	-3.4146	-3.9771	-3.95	-3.4375	-3.8833	-3.7021	-3.6562	-3.9604	294.417	305.613	105.049	328.414	307.175	1.933	176.440	240.082	206.564	91.909	48.877	239.393	330.198	10.776	76.722	220.829	0.00046548	5.3393e-05	3.4318e-05	576.56	1.0289e-06	8.9519e-07	750.85	193.58	5.7353e-07	7.7625e-07	291.23	133.41	85.822	38.147	1.3453e-06	63.366	8.6033e-06	7.9787e-06	2.0943e-06	440.78	7.5245e-08	8.6908e-08	582.19	143.18	7.5655e-08	8.4255e-08	197.63	89.325	54.158	24.915	8.3736e-08	39.589	66.815	67.547	13.042	-14.466	82.594	112.610	-14.858	-9.054	90.833	92.059	-10.784	-6.939	-5.437	-1.483	133.302	-3.990	-8191	255	
4159.952	1	1	0	0	0.30231	0.10664	0.23987	0.13596	0.044168	0.01009	0.10748	0.087304	0.13236	0.084117	0.21951	0.19916	0.19351	0.1029	0.27982	0.25537	-3.0875	-3.6979	-3.7792	-3.5396	-4.0188	-3.6708	-3.6646	-4.1562	-3.6396	-3.8292	-4.0333	-3.4083	-4.0229	-3.7458	-3.6312	-4.1708	289.796	285.446	67.875	282.317	57.161	236.728	310.154	68.391	178.587	-11.264	0.593	287.337	272.806	138.615	118.353	265.884	0.0004558	9.9329e-05	3.0216e-05	583.58	8.3613e-07	1.3873e-06	757.59	193.02	1.7366e-06	6.7734e-07	290.53	133.54	85.069	38.326	1.0253e-06	63.349	8.6635e-06	7.7357e-06	2.0129e-06	442.78	7.6243e-08	8.529e-08	584.35	142.86	7.9847e-08	8.2239e-08	197.11	89.238	54.116	24.97	7.7349e-08	39.648	66.385	52.640	2.238	-14.315	88.749	98.730	-15.117	-9.111	146.833	96.210	-10.591	-7.001	-5.732	-1.501	96.382	-3.895	-8191	255	
4160.048	1	1	0	0	0.11285	0.11064	0.15171	0.19971	0.049797	0.03629	0.18407	0.20058	0.092434	0.11033	0.057899	0.11693	0.17233	0.25344	0.1571	0.23269	-3.2854	-3.7604	-3.8229	-3.5812	-3.8417	-3.7562	-3.5875	-4.0521	-3.4375	-3.6771	-4.0458	-3.4896	-3.8438	-3.7875	-3.4188	-3.8771	316.689	311.705	46.867	30.080	116.343	237.847	184.691	161.208	305.417	-13.608	237.194	325.081	257.541	297.478	-6.049	303.985	0.00043145	0.00010345	3.3127e-05	581.35	1.1158e-06	1.2944e-06	758.86	194.84	7.4883e-07	5.1721e-07	291.9	133.31	85.221	38.502	2.1151e-07	63.148	8.7617e-06	7.42e-06	1.9242e-06	442.86	7.9925e-08	7.9266e-08	587.22	143.95	8.4057e-08	7.9801e-08	197.76	89.339	54.153	25.09	7.4813e-08	39.698	61.990	34.411	24.289	-14.617	94.740	103.212	-15.259	-9.111	105.807	118.915	-11.006	-6.822	-5.605	-1.419	25.782	-3.783	-8191	255	
4160.144	1	1	0	0	0.15153	0.24404	0.066047	0.080246	0.14518	0.26135	0.063633	0.19835	0.24884	0.04715	0.25269	0.10445	0.1725	0.082161	0.26217	0.11522	-3.2104	-3.5771	-3.9896	-3.3937	-3.9667	-3.8604	-3.6417	-3.9396	-3.7812	-3.5646	-4.2125	-3.6854	-3.7562	-3.9708	-3.3854	-4.0354	73.498	75.305	10.398	254.968	161.657	248.594	112.620	309.430	270.219	323.301	-20.286	170.985	247.028	217.648	0.184	327.630	0.00040203	0.00011906	2.9358e-05	583.68	2.6203e-06	6.9935e-07	756.95	195.8	6.2448e-07	8.5724e-07	292.57	133.98	86.16	38.673	1.0449e-06	63.911	9.3445e-06	7.4374e-06	1.8405e-06	443.78	8.7482e-08	7.9128e-08	586.7	144.21	8.7417e-08	8.0214e-08	198.57	89.988	54.622	25.188	7.3934e-08	39.966	66.405	44.393	22.315	-14.150	91.846	118.141	-15.207	-8.996	145.007	88.011	-10.574	-6.980	-5.559	-1.410	67.667	-3.941	-8191	255	
4160.216	1	1	0	0	0.15099	0.30377	0.098153	0.057463	0.1911	0.30394	0.14569	0.15489	0.10568	0.088023	0.24244	0.2685	0.15446	0.087621	0.32553	0.097662	-3.2958	-3.5271	-3.9042	-3.6417	-3.6625	-3.8604	-3.5021	-3.9208	-3.6813	-3.4854	-4.0083	-3.65	-3.7333	-3.9417	-3.5125	-4.0083	7.827	20.111	15.793	240.738	332.822	312.849	199.596	170.308	6.283	19.352	324.659	288.941	16.866	17.419	107.191	137.886	0.00039056	0.00017642	2.7343e-05	582.98	9.2641e-07	6.6445e-07	761.91	196.66	1.1227e-06	6.5938e-07	294.92	136.12	86.754	38.754	7.9021e-07	64.036	9.3463e-06	7.137e-06	1.8309e-06	445.2	8.5738e-08	7.7061e-08	589.02	144.95	8.7362e-08	7.9164e-08	199.7	90.948	54.968	25.398	7.7271e-08	40.29	71.328	38.284	38.475	-14.247	74.558	76.798	-14.962	-9.057	75.596	43.122	-10.555	-7.006	-5.567	-1.135	96.667	-3.888	-8191	255	
4160.335	1	1	0	0	0.13868	0.084106	0.12488	0.22162	0.25102	0.2713	0.099235	0.066562	0.17522	0.12978	0.15568	0.14675	0.38641	0.16182	0.21233	0.18296	-3.2917	-3.4	-3.9354	-3.4958	-3.6792	-3.8583	-3.7104	-3.7	-3.8083	-3.4792	-3.95	-3.6458	-3.6937	-3.8542	-3.3396	-3.8458	116.031	293.799	167.889	11.593	131.919	67.165	104.865	186.419	267.276	292.759	277.796	289.496	293.764	-27.054	184.231	325.997	0.00045246	9.7142e-05	3.8817e-05	581.54	1.0713e-06	1.1309e-06	758.92	194.88	8.9336e-07	7.5241e-07	290.23	133.97	85.622	38.3	7.9796e-07	62.944	9.408e-06	7.0554e-06	1.7774e-06	444.84	8.3988e-08	7.666e-08	587.02	144.04	8.2993e-08	7.5227e-08	197.4	89.538	54.181	24.933	7.3549e-08	39.43	56.789	62.861	29.487	-14.378	41.522	96.349	-14.968	-9.137	113.375	99.472	-10.987	-6.714	-6.053	-1.805	133.102	-4.098	-8191	255	
4160.431	1	1	0	0	0.2462	0.14232	0.086608	0.13366	0.14892	0.12217	0.085591	0.15605	0.15526	0.1421	0.2706	0.068565	0.17189	0.22434	0.16276	0.16275	-3.2938	-3.3708	-3.9604	-3.7208	-3.6458	-3.925	-3.6333	-3.7083	-3.8667	-3.4104	-3.8771	-3.5563	-3.575	-4.1146	-3.5312	-3.7125	44.446	-0.098	303.701	0.858	104.195	95.148	241.162	279.645	312.572	14.046	310.226	31.915	51.898	-26.784	326.340	235.267	0.00037581	0.00011994	2.2974e-05	577.67	1.1979e-06	9.5247e-07	750.96	192.71	1.1796e-06	1.0239e-06	288.09	132.07	84.905	37.632	1.8733e-06	61.863	8.8931e-06	6.869e-06	1.8506e-06	440.44	7.9815e-08	7.2038e-08	580.37	142.34	7.9151e-08	7.2165e-08	194.85	88.32	53.616	24.577	8.0977e-08	38.915	61.252	22.248	31.251	-14.393	104.956	63.601	-15.224	-8.965	92.592	75.860	-10.651	-6.956	-5.823	-1.497	103.309	-4.009	-8191	255	
4160.527	1	1	0	0	0.062256	0.067605	0.1415	0.15804	0.15068	0.12272	0.32697	0.13594	0.087684	0.34641	0.19293	0.13742	0.28152	0.2011	0.24639	0.27553	-3.5187	-3.5	-3.9604	-3.7604	-3.3667	-3.8937	-3.5458	-3.75	-3.8458	-3.4583	-3.8875	-3.7604	-3.5771	-3.9375	-3.4375	-3.8292	146.872	314.581	257.368	314.245	59.353	274.358	214.299	268.436	106.598	25.359	224.935	22.913	299.217	31.104	183.580	300.492	0.00040618	6.2476e-05	1.4775e-05	568.19	9.2678e-07	5.1394e-07	747	191.7	8.6225e-07	8.4991e-07	287.17	132.57	84.819	38	6.7674e-07	62.518	8.6039e-06	6.646e-06	1.9547e-06	436.12	7.9792e-08	6.9451e-08	577.29	141.77	7.6995e-08	7.17e-08	194.74	88.592	53.705	24.759	8.3005e-08	39.294	60.281	87.688	17.488	-14.709	58.604	124.189	-14.884	-9.184	55.752	139.807	-10.642	-6.877	-5.824	-1.311	103.453	-3.713	-8191	255	
4160.625	1	1	0	0	0.1237	0.17691	0.25207	0.09927	0.2802	0.15339	0.11507	0.19719	0.21976	0.12708	0.017833	0.083872	0.28518	0.20664	0.23018	0.19903	-3.4104	-3.5042	-3.7604	-3.7604	-3.3708	-4.0833	-3.7833	-3.6979	-3.8271	-3.4333	-3.7542	-3.9062	-3.3917	-3.9938	-3.65	-3.5396	121.273	170.981	192.243	282.910	33.953	233.951	37.011	308.826	295.840	193.682	-17.420	292.055	37.671	-11.560	37.965	289.560	0.00048296	8.1011e-05	3.1618e-05	575.47	8.4552e-07	1.5903e-06	750.48	193.23	9.8541e-07	1.7376e-06	288.25	133.53	85.345	38.029	1.1869e-06	62.716	8.4422e-06	6.5939e-06	2.1223e-06	439.72	7.7767e-08	7.199e-08	581.32	142.91	7.5675e-08	7.2368e-08	196.45	89.095	54.054	24.853	8.78e-08	39.415	63.230	39.070	36.616	-14.344	109.457	118.943	-14.854	-8.943	102.822	104.523	-10.480	-6.778	-5.735	-1.305	111.990	-3.906	-8191	255	
4160.744	1	1	0	0	0.14723	0.051314	0.11566	0.10212	0.18796	0.077968	0.25847	0.080758	0.17921	0.2428	0.20656	0.19751	0.19941	0.062822	0.15742	0.23938	-3.5375	-3.5	-3.7021	-3.9146	-3.4021	-4.0104	-3.6792	-3.775	-4.1396	-3.5854	-3.8771	-3.9083	-3.4729	-3.8438	-3.8063	-3.5979	-18.038	111.483	-0.498	272.502	89.541	107.324	215.949	252.453	132.492	19.687	263.359	276.312	198.452	272.697	46.894	42.961	0.0004171	0.00014212	1.5332e-05	573.02	1.4535e-06	1.3921e-06	741.3	190.35	6.7307e-07	1.0089e-06	285.31	131.61	84	37.06	1.0705e-06	61.407	8.2835e-06	7.0351e-06	2.2336e-06	436.15	7.6475e-08	7.9234e-08	575.76	140.91	7.6497e-08	7.9639e-08	193.6	87.781	53.047	24.241	9.17e-08	38.466	64.887	34.331	55.821	-14.470	86.021	92.214	-14.970	-9.105	96.340	94.822	-10.456	-6.768	-5.841	-1.195	98.137	-3.901	-8191	255	
4160.840	1	1	0	0	0.10742	0.073228	0.027557	0.099115	0.066717	0.048358	0.24277	0.16325	0.10729	0.18656	0.26366	0.17413	0.13838	0.36784	0.14008	0.223	-3.7146	-3.4604	-3.6625	-3.8375	-3.45	-3.9521	-3.9875	-3.5729	-3.7354	-3.6021	-3.65	-4.0167	-3.4979	-3.9979	-3.7938	-3.5875	44.055	-5.208	100.162	122.326	-12.798	4.820	287.740	49.991	23.443	223.553	269.678	299.700	1.956	311.522	64.049	265.199	0.000442	0.0001059	1.8972e-05	561.77	7.8284e-07	1.1973e-06	723.67	183.92	1.0724e-06	7.3029e-07	275.9	127.26	80.91	35.631	9.6692e-07	59.019	8.2462e-06	7.5767e-06	2.267e-06	428.61	7.6249e-08	8.5212e-08	560.43	136.24	7.6345e-08	8.5537e-08	186.63	84.817	51.312	23.28	8.8861e-08	36.963	70.012	65.261	18.422	-14.310	79.060	117.209	-15.003	-9.125	120.334	151.222	-10.861	-7.159	-5.297	-1.494	69.073	-3.859	-8191	255	
4160.936	1	1	0	0	0.15724	0.16673	0.22135	0.047245	0.13246	0.21904	0.22506	0.26766	0.089399	0.15637	0.19828	0.13107	0.18304	0.091198	0.13079	0.29453	-3.6813	-3.7646	-3.6896	-3.9646	-3.5062	-3.7292	-3.9667	-3.5292	-3.9604	-3.6813	-3.625	-3.8917	-3.7021	-3.8792	-3.8812	-3.3792	172.623	106.884	14.378	62.822	67.936	136.898	274.815	277.236	269.241	137.002	304.483	285.902	190.027	280.720	213.890	256.880	0.00036	5.4134e-05	2.8405e-05	549.43	1.6096e-06	1.3332e-06	714.34	182.73	1.2721e-06	7.8319e-07	274.19	127.61	81.904	35.996	9.2854e-07	59.969	8.3076e-06	7.9728e-06	2.1613e-06	418.9	7.6291e-08	8.818e-08	551.58	134.52	7.6749e-08	8.4878e-08	186.5	85.29	51.74	23.613	8.1789e-08	37.587	67.320	52.224	13.545	-14.463	86.312	80.844	-15.037	-9.115	83.681	27.331	-10.869	-6.791	-5.422	-1.355	72.887	-4.072	-8191	255	
4161.033	1	1	0	0	0.12259	0.097361	0.24117	0.14072	0.23453	0.2152	0.205	0.2491	0.052094	0.075082	0.088336	0.10881	0.12119	0.26769	0.16391	0.21212	-3.475	-3.6667	-3.5104	-3.975	-3.3125	-3.6833	-3.9	-3.4771	-3.95	-3.6896	-3.6667	-4.1	-3.5583	-3.8438	-3.9604	-3.5646	247.475	281.652	81.867	186.421	322.609	79.241	37.408	-21.771	-17.503	206.313	0.938	154.524	192.905	283.582	123.844	217.913	0.00042236	9.6952e-05	2.6438e-05	556.1	1.4882e-06	9.2672e-07	721.19	185.28	8.8925e-07	3.2318e-07	279.41	129.58	82.196	36.881	1.0743e-06	61.202	8.5301e-06	7.9669e-06	2.0055e-06	423.55	7.9421e-08	8.3859e-08	558.1	136.65	7.9717e-08	8.369e-08	189.17	86.304	52.449	24.109	7.6362e-08	38.368	53.459	32.325	33.496	-14.448	89.276	80.712	-14.921	-8.837	161.402	59.253	-10.519	-6.916	-5.550	-1.123	96.450	-4.124	-8191	255	
4161.129	1	1	0	0	0.16858	0.039415	0.11775	0.22419	0.012829	0.18496	0.092745	0.11293	0.13931	0.37651	0.25301	0.2727	0.17913	0.12883	0.080149	0.17362	-3.5417	-3.6583	-3.5375	-4.0813	-3.6646	-3.5292	-4.0479	-3.3771	-3.7979	-3.7771	-3.4896	-3.9188	-3.5687	-3.6583	-3.9938	-3.6271	147.861	195.742	306.600	-11.444	63.575	93.767	280.817	274.212	-5.172	299.734	-20.610	291.919	49.986	-13.270	327.042	306.394	0.00040306	0.00012611	4.2798e-05	563.71	1.7031e-06	6.8859e-07	736.59	191.06	8.9603e-07	1.5235e-06	286.51	132.65	85.096	37.891	1.0356e-06	62.99	8.8728e-06	7.5994e-06	1.9025e-06	430.42	8.0755e-08	7.9015e-08	571.48	140.56	8.2161e-08	7.9755e-08	193.85	88.746	53.732	24.78	7.4044e-08	39.335	65.458	62.112	15.648	-14.422	74.341	35.717	-14.790	-9.003	63.413	99.237	-10.845	-6.733	-5.763	-1.417	71.747	-4.023	-8191	255	
4161.225	1	1	0	0	0.12642	0.14472	0.11564	0.069833	0.27679	0.1107	0.094202	0.10435	0.21966	0.071953	0.085266	0.29024	0.26505	0.211	0.23638	0.12561	-3.4229	-3.8396	-3.3604	-4.0667	-3.6917	-3.5312	-4.05	-3.5792	-3.7771	-3.8688	-3.5167	-3.925	-3.75	-3.6896	-4.0042	-3.6063	87.744	13.917	310.733	16.693	119.682	179.311	298.003	29.486	141.115	237.882	321.064	143.158	282.963	301.641	153.592	262.593	0.00039225	8.0585e-05	9.7792e-06	569.33	1.533e-06	1.3092e-06	738.21	191.43	9.9978e-07	1.2357e-06	286.34	132.04	84.37	37.49	6.0948e-07	61.764	9.0774e-06	7.0242e-06	1.8047e-06	434.3	8.0971e-08	7.5032e-08	573.71	140.84	8.1242e-08	7.379e-08	193.97	88.263	53.593	24.551	7.0031e-08	38.733	59.348	47.014	26.082	-14.232	29.875	70.233	-15.026	-8.876	139.874	93.412	-10.840	-6.754	-5.641	-1.529	84.793	-3.999	-8191	255	
4161.345	1	1	0	0	0.36478	0.015354	0.11235	0.18971	0.089217	0.28404	0.1463	0.28042	0.20166	0.022381	0.15537	0.033701	0.061295	0.17422	0.14084	0.17541	-3.4062	-3.9854	-3.4979	-3.9292	-3.8104	-3.5521	-4.1937	-3.5938	-3.7333	-3.9021	-3.5583	-3.8896	-3.8646	-3.5229	-3.9	-3.5667	-0.783	116.756	108.500	330.035	272.016	138.140	14.263	272.426	129.416	-18.502	288.800	237.838	190.441	190.854	44.636	139.848	0.00042618	0.00010429	2.8582e-05	561.45	1.0237e-07	8.8095e-07	724.26	186.03	5.4517e-07	5.6168e-07	277.5	128.2	82.054	36.614	7.0631e-07	60.498	8.7773e-06	6.6207e-06	1.6579e-06	427.84	8.2279e-08	7.1515e-08	561.14	136.89	8.0196e-08	7.2982e-08	187.7	85.635	52.02	23.801	6.6842e-08	37.914	60.522	55.889	15.787	-14.458	193.073	49.052	-15.031	-9.117	71.594	114.516	-10.800	-7.141	-6.010	-1.496	140.116	-4.275	-8191	255	
4161.440	1	1	0	0	0.2695	0.15661	0.092631	0.24372	0.144	0.13442	0.12803	0.14188	0.21007	0.056694	0.23216	0.16101	0.041168	0.064432	0.10938	0.11045	-3.4354	-3.8417	-3.4396	-3.9	-3.6146	-3.4583	-4.0312	-3.7375	-3.5417	-3.8812	-3.575	-3.8708	-3.8937	-3.475	-3.9292	-3.7104	303.533	79.916	256.056	314.314	217.456	58.871	184.436	224.560	70.318	181.847	201.904	9.837	329.572	141.522	106.804	330.136	0.00043285	6.2644e-05	2.9289e-05	553.55	9.7223e-07	1.1912e-06	727.2	185.38	3.975e-07	1.0624e-06	277.44	129.46	82.615	36.394	5.6759e-07	60.238	8.5774e-06	6.3442e-06	1.687e-06	425.03	7.7063e-08	7.1073e-08	561.32	137.02	7.939e-08	7.0514e-08	188.47	86.191	52.148	23.772	6.8944e-08	37.859	64.544	43.172	23.893	-14.618	120.025	70.045	-15.138	-9.026	160.271	88.824	-10.387	-7.125	-5.655	-1.768	113.921	-4.095	-8191	255	
4161.512	1	1	0	0	0.15203	0.22521	0.21669	0.099312	0.084368	0.22653	0.09778	0.22774	0.19914	0.077784	0.10826	0.084698	0.044785	0.069611	0.048201	0.24348	-3.2833	-4.0062	-3.3896	-3.8312	-3.8625	-3.4188	-4.0958	-3.6146	-3.4021	-3.9896	-3.5917	-3.7646	-3.9729	-3.4896	-3.8688	-3.7271	53.507	23.977	267.053	145.098	143.788	50.658	227.448	219.356	57.670	233.472	-0.315	53.922	78.468	-19.574	-9.228	320.553	0.00047463	0.00010641	2.1532e-05	555.17	1.2295e-06	1.2749e-06	726.22	185.45	1.2227e-06	5.2562e-07	280.06	129.33	82.959	36.73	5.6612e-07	61.031	8.5374e-06	6.29e-06	1.7663e-06	425.67	7.6285e-08	6.8576e-08	561.63	137.26	7.4218e-08	6.6125e-08	189.9	86.451	52.39	23.927	7.1641e-08	38.121	60.421	12.800	5.133	-14.910	74.254	47.707	-15.352	-8.953	99.508	98.775	-10.721	-6.873	-5.492	-1.457	184.101	-4.023	-8191	255	
4161.632	1	1	0	0	0.17988	0.27288	0.41202	0.12278	0.21169	0.074267	0.18035	0.022466	0.10723	0.33187	0.074563	0.2888	0.16933	0.23831	0.076619	0.12542	-3.0771	-3.9208	-3.4958	-3.7396	-3.8708	-3.575	-3.9333	-3.7417	-3.4875	-3.9	-3.6021	-3.7708	-3.9792	-3.4167	-3.9208	-3.875	290.910	286.912	102.787	148.387	270.406	138.266	308.223	54.812	104.043	209.979	284.856	220.858	225.423	20.521	184.266	66.499	0.00041866	1.3849e-05	3.0792e-05	563.38	1.0796e-06	8.3124e-07	743.94	189.51	3.259e-07	5.5049e-07	287.33	131.77	84.6	37.591	1.0514e-06	61.926	8.0475e-06	5.7558e-06	1.7679e-06	429.97	6.9761e-08	6.4113e-08	573.61	140.17	7.0684e-08	6.2349e-08	194.87	88.195	53.451	24.511	7.3843e-08	38.841	57.693	71.821	33.379	-14.470	83.021	106.403	-15.167	-9.309	109.651	25.544	-10.353	-6.736	-5.652	-1.284	133.426	-3.918	-8191	255	
4161.728	1	1	0	0	0.17095	0.13727	0.29822	0.15431	0.1124	0.079381	0.1406	0.015501	0.12862	0.062662	0.18912	0.011163	0.078135	0.20716	0.13868	0.25618	-2.9479	-3.8167	-3.65	-3.7292	-3.9542	-3.6146	-3.8708	-3.9104	-3.4688	-4.0083	-3.5687	-3.7042	-4.1	-3.4813	-3.9625	-3.7604	129.056	99.025	7.567	56.649	97.993	22.961	290.590	139.091	99.494	226.387	32.356	300.331	299.298	327.847	330.003	246.027	0.00039715	0.00013536	2.5479e-05	571.39	1.1754e-06	8.7943e-07	745.1	191.33	1.2764e-06	7.8135e-07	286.74	130.77	83.982	37.424	8.2728e-07	61.837	7.8576e-06	5.6907e-06	1.7758e-06	434.64	6.4639e-08	6.2404e-08	575.84	141.05	6.5709e-08	6.0669e-08	194.86	87.549	53.156	24.448	7.1803e-08	38.738	65.065	43.413	22.032	-14.212	111.728	105.480	-15.072	-9.019	99.208	74.515	-10.680	-6.827	-5.502	-1.303	88.091	-3.905	-8191	255	
4161.824	1	1	0	0	0.25901	0.14602	0.28318	0.2952	0.058606	0.095664	0.27081	0.031023	0.21199	0.14956	0.12926	0.13076	0.046048	0.15902	0.24793	0.22698	-3.0333	-4.0896	-3.5062	-3.6333	-4.0458	-3.6063	-3.9396	-4.1458	-3.5958	-4.0875	-3.7604	-3.6354	-4.1562	-3.6229	-3.7833	-3.9437	95.660	125.059	207.567	298.384	213.383	245.652	240.427	159.471	40.570	309.248	22.091	292.022	28.017	252.017	194.740	300.127	0.00048023	0.00010904	2.2136e-05	575.2	1.0542e-06	2.9932e-07	750.85	192.8	1.0738e-06	2.7187e-07	289.85	132.48	85.451	37.929	9.8202e-07	62.247	7.1661e-06	5.5917e-06	1.7694e-06	437.22	6.0947e-08	6.264e-08	580.88	142.37	6.2414e-08	6.2717e-08	196.73	88.426	53.813	24.772	7.1803e-08	39.001	67.142	35.386	2.579	-14.299	66.307	144.182	-15.080	-8.777	97.634	110.518	-10.710	-7.094	-5.739	-1.389	84.673	-4.191	-8191	255	
4161.921	1	1	0	0	0.28956	0.096771	0.0365	0.34199	0.12145	0.11311	0.25058	0.036205	0.031346	0.046692	0.050344	0.18144	0.15519	0.15373	0.13881	0.10494	-3.1208	-4.0271	-3.9062	-3.6458	-4.0729	-3.6875	-3.7458	-4.0167	-3.3833	-3.9562	-3.9688	-3.625	-3.8917	-3.8375	-3.7	-4.1	55.304	197.617	18.798	240.084	134.118	193.515	279.209	185.841	198.852	111.979	249.733	59.950	5.757	153.449	229.697	179.986	0.00040302	0.00012923	2.7207e-05	576.93	1.1182e-06	1.0332e-06	753.26	192.57	6.0316e-07	9.7473e-07	289.59	132.2	84.521	37.444	8.1223e-07	62.122	7.2983e-06	6.0123e-06	1.7527e-06	438.66	6.1774e-08	6.6674e-08	582.06	142.11	6.3479e-08	7.0479e-08	196.15	88.097	53.535	24.524	7.2045e-08	38.852	62.896	42.752	328.526	-14.091	76.684	89.036	-14.958	-9.414	121.321	91.089	-10.643	-6.749	-5.488	-1.509	88.476	-4.197	-8191	255	
4162.041	1	1	0	0	0.06994	0.053598	0.19539	0.19813	0.23013	0.15871	0.069437	0.095348	0.23821	0.13185	0.1106	0.16632	0.085517	0.30689	0.075057	0.27809	-3.0812	-3.9396	-3.7771	-3.3729	-3.9729	-3.5604	-3.7021	-3.9854	-3.5604	-3.6396	-3.7333	-3.5938	-3.8063	-3.8917	-3.6708	-4.1083	136.978	235.765	49.532	305.909	289.642	299.180	111.825	255.404	199.505	140.642	280.124	313.851	293.629	331.432	19.996	200.619	0.00039902	9.914e-05	2.8568e-05	575.39	8.7641e-07	1.1901e-06	748.08	191.47	1.1214e-06	3.0233e-07	286.1	131.07	83.715	37.059	1.2616e-06	61.284	7.5402e-06	6.6281e-06	1.7283e-06	437.53	6.5201e-08	7.1867e-08	579.37	140.98	6.634e-08	7.3693e-08	194.4	87.771	53.065	24.149	7.2217e-08	38.41	63.472	84.225	-11.110	-14.785	57.289	98.707	-15.030	-8.885	118.830	103.699	-10.791	-6.832	-5.794	-1.330	97.351	-4.042	-8191	255	
4162.137	1	1	0	0	0.249	0.081236	0.065972	0.37947	0.15523	0.30043	0.15483	0.29758	0.1365	0.13488	0.26027	0.059247	0.14552	0.18408	0.080114	0.15479	-3.2208	-3.8854	-3.7646	-3.5396	-3.9125	-3.5625	-3.6146	-3.9646	-3.5875	-3.8896	-3.9417	-3.5333	-3.9229	-3.8604	-3.3854	-4.0896	211.359	243.630	232.516	310.874	322.449	200.860	304.237	296.010	214.325	249.756	20.819	21.742	143.665	57.150	47.109	229.441	0.00040087	6.4107e-05	3.4378e-05	570.72	6.7119e-07	7.9246e-07	747.86	191.08	6.2616e-07	3.7127e-07	286.6	131.02	82.818	36.56	8.2843e-07	60.44	7.8382e-06	7.0277e-06	1.7751e-06	434.21	6.8621e-08	7.4664e-08	578.69	140.93	6.9075e-08	7.2859e-08	194.36	87.221	52.634	23.849	6.8595e-08	37.865	60.466	48.731	2.270	-14.442	78.761	57.762	-14.868	-9.134	126.845	-0.507	-10.401	-6.802	-5.333	-1.435	67.797	-3.935	-8191	255	
4162.209	1	1	0	0	0.2111	0.046852	0.10105	0.082929	0.27057	0.019076	0.16258	0.17029	0.22211	0.081739	0.050283	0.12366	0.23665	0.16873	0.20052	0.05347	-3.0563	-3.65	-3.85	-3.4896	-3.9562	-3.8396	-3.5833	-4.1042	-3.525	-3.7438	-4.1083	-3.5354	-3.8771	-4.0979	-3.4979	-3.9083	121.765	180.233	-5.325	179.642	262.183	104.723	238.693	292.695	63.865	263.503	252.362	305.428	65.414	-5.774	257.242	141.976	0.00044738	0.00014105	3.1884e-05	566.01	1.0921e-06	1.0695e-06	734.3	187.2	5.6656e-07	9.204e-07	282.09	128.37	82.013	36.305	1.1522e-06	60.726	8.1377e-06	6.5745e-06	1.6661e-06	430.2	7.1973e-08	6.9671e-08	568.43	138.1	7.3716e-08	7.0321e-08	191.12	85.908	52.037	23.737	6.5193e-08	37.951	59.361	24.992	6.323	-14.556	81.982	50.967	-15.105	-8.755	94.430	77.857	-10.712	-6.863	-5.865	-1.367	88.329	-3.851	-8191	255	
4162.305	1	1	0	0	0.052343	0.27649	0.18761	0.10397	0.21494	0.13967	0.071528	0.24149	0.16315	0.059004	0.071723	0.24059	0.090811	0.10055	0.18433	0.21235	-3.3042	-3.6771	-3.8854	-3.5021	-3.9521	-3.7979	-3.5833	-4.0708	-3.7104	-3.5458	-4.0521	-3.6312	-3.8688	-3.8958	-3.3292	-4.1292	30.971	71.778	87.321	314.284	63.708	47.448	-10.367	286.205	319.267	171.564	302.945	285.349	230.059	304.005	79.880	272.638	0.00038589	7.9072e-05	3.1537e-05	573.58	7.6613e-07	4.4855e-07	753.06	194.55	7.1692e-07	1.0094e-06	293.82	134.24	86.286	38.894	1.175e-06	63.658	7.9837e-06	5.921e-06	1.5679e-06	437.28	7.1343e-08	6.5624e-08	583.3	143.47	7.2823e-08	6.5298e-08	198.97	89.277	54.415	25.219	6.247e-08	39.978	65.122	50.733	35.837	-14.394	71.871	82.266	-15.028	-9.022	76.254	71.118	-10.303	-6.935	-5.608	-1.302	99.285	-4.115	-8191	255	
4162.426	1	1	0	0	0.15231	0.14264	0.092978	0.24673	0.14792	0.052739	0.14415	0.2529	0.29957	0.28219	0.11719	0.22968	0.16545	0.24842	0.1143	0.074606	-3.3917	-3.3646	-3.9771	-3.4583	-3.8937	-4.0167	-3.425	-3.7938	-3.7229	-3.4688	-3.9896	-3.6729	-3.8729	-4.0083	-3.6312	-3.9583	1.480	303.900	319.266	307.633	-10.758	267.547	193.015	293.029	192.292	331.617	328.827	277.588	180.129	9.051	103.617	9.990	0.00041084	9.7372e-05	3.2187e-05	595.28	1.1909e-06	4.7294e-07	788.45	204.94	1.0336e-06	7.3565e-07	305.36	138.43	89.373	40.232	7.8137e-07	65.993	7.8127e-06	5.928e-06	1.4712e-06	452.81	6.9754e-08	6.3835e-08	607.8	150.36	6.9111e-08	6.136e-08	206.68	92.227	56.29	26.238	5.9518e-08	41.439	67.470	24.211	8.802	-14.260	50.291	145.702	-14.978	-8.841	91.832	118.440	-10.983	-6.548	-5.494	-1.349	111.770	-3.895	-8191	255	
4162.520	1	1	0	0	0.082965	0.12319	0.02825	0.24495	0.11003	0.20474	0.093472	0.22282	0.07508	0.21858	0.16388	0.16375	0.16895	0.19337	0.082949	0.15819	-3.3187	-3.4271	-3.7792	-3.625	-3.65	-3.9729	-3.6229	-3.9708	-3.7271	-3.3521	-4.1333	-3.7521	-3.7479	-4.1021	-3.7208	-3.9104	280.716	299.778	38.287	227.942	318.067	67.420	264.318	217.408	300.080	104.651	268.947	11.641	296.832	-12.337	135.605	86.628	0.00042032	0.0001146	1.9917e-05	607.54	1.4357e-06	6.8173e-07	803.14	208.01	1.0143e-06	9.5807e-07	311.36	139.98	90.623	40.916	8.1724e-07	66.77	7.9961e-06	5.7572e-06	1.4908e-06	463.35	6.9577e-08	6.1923e-08	619.3	153.74	6.834e-08	6.2711e-08	210.78	93.734	57.215	26.666	6.411e-08	41.931	68.047	46.682	-9.360	-14.429	87.115	64.627	-15.247	-8.803	91.199	96.047	-10.641	-6.878	-5.629	-1.579	143.815	-3.873	-8191	255	
4162.616	1	1	0	0	0.16692	0.28104	0.07806	0.085383	0.11437	0.17338	0.18017	0.22896	0.158	0.19451	0.062597	0.16144	0.10044	0.18054	0.25332	0.14998	-3.5563	-3.4854	-3.9479	-3.7771	-3.6104	-4.1062	-3.5729	-3.8688	-3.8396	-3.5062	-3.9833	-3.8333	-3.6854	-4.0563	-3.525	-3.8438	91.585	26.796	101.188	316.761	319.566	118.124	205.033	229.311	332.032	53.248	275.444	-4.251	146.771	330.139	15.632	227.960	0.00040839	0.00014447	2.8559e-05	612.29	1.4866e-06	4.1218e-07	805.61	209.15	6.4195e-07	5.8723e-07	312	139.56	89.752	40.607	1.3742e-06	66.304	7.6972e-06	5.7095e-06	1.5817e-06	466.61	6.7901e-08	5.931e-08	623.05	154.25	6.8878e-08	6.0931e-08	211.1	93.417	56.941	26.458	6.7631e-08	41.483	65.958	41.656	73.048	-14.298	75.897	68.508	-14.847	-9.064	92.982	74.510	-10.682	-6.742	-5.262	-1.474	65.569	-4.062	-8191	255	
4162.737	1	1	0	0	0.13695	0.081654	0.11478	0.095771	0.23573	0.051365	0.077145	0.016609	0.13508	0.16268	0.17912	0.27653	0.083246	0.054969	0.25293	0.12691	-3.6458	-3.6	-4.0854	-3.8812	-3.4625	-3.9875	-3.6813	-3.6542	-3.9146	-3.6125	-4.0167	-3.9021	-3.6333	-4.0042	-3.4729	-3.7812	136.282	-0.653	76.817	119.185	-2.907	148.206	31.048	323.920	322.349	251.844	22.344	227.466	236.308	237.508	139.100	328.831	0.00039386	0.00016376	2.9606e-05	612.05	1.1256e-06	1.1073e-06	801.5	209.75	9.4676e-07	8.3834e-07	311.01	139.77	89.88	40.712	1.0602e-06	66.696	7.4979e-06	5.6768e-06	1.6649e-06	466.06	6.6635e-08	5.8997e-08	623.09	154.29	6.379e-08	6.0669e-08	210.99	93.395	57.123	26.523	7.0703e-08	41.743	62.138	44.701	40.737	-14.035	89.898	75.726	-14.983	-9.098	96.157	78.507	-10.902	-6.981	-5.454	-1.506	120.045	-4.029	-8191	255	
4162.809	1	1	0	0	0.18422	0.13712	0.23655	0.010778	0.23406	0.065315	0.06837	0.16939	0.077338	0.29883	0.25049	0.069566	0.13131	0.20441	0.24906	0.14496	-3.575	-3.5292	-3.8271	-3.9708	-3.3688	-3.9833	-3.7417	-3.6604	-4.0521	-3.5646	-3.9521	-4.0188	-3.5771	-4.1646	-3.5375	-3.6688	67.309	219.449	-26.919	-21.465	252.656	299.169	239.708	310.926	270.560	64.183	287.681	-21.832	201.943	296.504	88.567	288.434	0.00039208	0.00014435	3.2638e-05	615.84	1.053e-06	7.0314e-07	807.19	210.86	6.0027e-07	1.0818e-06	312.88	140.2	90.568	41.05	1.4821e-06	66.809	7.4867e-06	5.448e-06	1.7474e-06	469.03	6.5159e-08	5.8968e-08	626.65	155.39	6.4317e-08	6.1893e-08	212.21	93.72	57.355	26.71	7.4962e-08	41.828	65.227	78.293	13.769	-14.515	116.722	42.431	-15.137	-9.183	126.689	148.790	-10.911	-6.697	-5.475	-1.396	108.222	-3.895	-8191	255	
4162.905	1	1	0	0	0.19992	0.060224	0.17526	0.37326	0.32259	0.20391	0.15222	0.20376	0.17343	0.069581	0.075054	0.37952	0.25904	0.12478	0.25022	0.069819	-3.9604	-3.4542	-3.7021	-3.9021	-3.4729	-4.0375	-3.7771	-3.5458	-4.1125	-3.65	-3.8958	-4.0833	-3.5583	-3.8563	-3.6396	-3.5833	245.640	-23.252	6.182	39.274	131.460	-0.405	15.218	10.992	-10.005	209.486	214.710	267.800	299.288	176.144	-23.554	235.689	0.00043576	5.2575e-05	4.607e-05	618.46	1.3029e-06	1.1002e-06	812.26	211.74	8.6542e-07	8.5428e-07	314.39	141.42	91.28	41.417	7.8637e-07	67.19	7.3724e-06	5.84e-06	1.8639e-06	470.82	6.3663e-08	6.3686e-08	629.62	156.42	6.4052e-08	6.5789e-08	213.32	94.309	57.65	26.908	7.3785e-08	42.209	59.352	23.810	15.441	-14.121	70.182	63.214	-14.935	-9.046	72.722	101.170	-10.635	-7.019	-5.614	-1.332	109.633	-4.235	-8191	255	
4163.025	1	1	0	0	0.29428	0.16608	0.15128	0.23528	0.15362	0.2877	0.018396	0.27365	0.14403	0.17989	0.046899	0.16954	0.17538	0.10783	0.14407	0.095964	-3.6688	-3.6708	-3.5646	-4.0083	-3.5271	-3.9604	-4.0208	-3.5083	-4.0667	-3.6125	-3.7729	-4.0188	-3.5396	-3.95	-3.7854	-3.6542	150.710	61.659	275.582	290.755	312.591	263.147	-19.033	313.374	168.713	269.977	205.597	139.531	196.435	316.756	299.323	62.990	0.00046431	7.931e-05	2.1145e-05	624.18	1.1425e-06	9.9215e-07	818.65	214.55	9.0587e-07	1.2194e-06	318.2	142.73	92.454	41.735	1.4059e-06	67.633	7.3695e-06	6.4425e-06	1.7997e-06	474.28	6.4642e-08	7.0017e-08	636.08	158.55	6.3327e-08	7.1932e-08	216.38	95.443	58.382	27.292	7.1845e-08	42.469	66.676	41.141	31.820	-14.361	103.339	107.935	-14.928	-9.016	134.689	109.866	-10.321	-6.624	-5.416	-1.302	107.582	-3.949	-8191	255	
4163.122	1	1	0	0	0.10546	0.13645	0.060616	0.20768	0.20533	0.13101	0.15119	0.074102	0.23487	0.28719	0.098906	0.13796	0.12739	0.14596	0.22537	0.071942	-3.8458	-3.6729	-3.7292	-3.9313	-3.3458	-3.7354	-4.0437	-3.6	-3.9146	-3.6792	-3.6667	-4.0563	-3.4104	-3.8063	-3.9125	-3.5646	194.096	156.451	306.155	242.846	143.484	222.526	108.890	65.142	-23.482	79.348	263.884	128.076	253.055	253.431	-17.831	294.068	0.0004272	7.4619e-05	3.0107e-05	625.84	1.2131e-06	1.0267e-06	816.9	212.7	1.3993e-06	7.5225e-07	312.91	139.72	90.978	40.72	1.5306e-06	66.159	7.487e-06	6.8584e-06	1.8083e-06	475.68	6.5133e-08	7.208e-08	632.76	157.26	6.647e-08	7.5127e-08	212.79	93.479	57.283	26.661	7.1589e-08	41.502	66.873	-13.089	36.098	-14.470	89.562	109.715	-14.930	-9.154	116.673	77.466	-10.733	-6.905	-5.558	-1.671	107.103	-4.176	-8191	255	
4163.218	1	1	0	0	0.13636	0.10446	0.057707	0.21986	0.17933	0.075906	0.11013	0.12026	0.16042	0.11416	0.16189	0.12831	0.068549	0.079825	0.048729	0.23235	-3.4146	-3.6604	-3.4167	-4.0062	-3.3979	-3.7771	-3.9729	-3.3375	-3.7812	-3.6104	-3.3937	-4.0292	-3.4104	-3.6667	-3.5792	-3.5333	77.309	261.784	195.087	122.832	159.900	186.751	251.314	315.976	201.140	327.442	294.024	-6.355	248.319	118.682	322.558	43.587	0.00045063	8.1481e-05	3.6133e-05	616.24	2.0224e-06	1.3943e-06	803.29	210.08	8.4958e-07	1.5902e-06	312.07	139.9	91.007	40.963	9.1275e-07	66.829	7.8109e-06	6.801e-06	1.7477e-06	469	6.8795e-08	7.3595e-08	623.34	154.89	7.1357e-08	7.5899e-08	211.43	93.47	57.353	26.782	6.983e-08	41.791	61.457	61.335	41.868	-14.436	101.589	86.119	-15.221	-9.220	98.481	82.416	-10.823	-6.634	-5.548	-1.358	88.370	-3.926	-8191	255	
4163.337	1	1	0	0	0.15946	0.1696	0.30629	0.11539	0.060289	0.16594	0.22141	0.27774	0.2151	0.14086	0.07262	0.19766	0.12109	0.082306	0.15736	0.084359	-3.5646	-3.6146	-3.3333	-4.2604	-3.4958	-3.6667	-3.9854	-3.5417	-3.8375	-3.8625	-3.6021	-4.1292	-3.7208	-3.8	-3.8979	-3.5604	101.309	221.647	256.676	276.148	301.334	41.826	171.376	263.044	194.954	69.782	204.023	13.176	260.263	246.143	293.903	8.090	0.00042725	8.0717e-05	4.0983e-05	614.55	1.1034e-06	1.2448e-06	813.55	214.19	9.876e-07	1.0037e-06	314.3	142.64	93.051	41.758	7.8841e-07	68.148	8.1756e-06	6.9941e-06	1.7833e-06	470.44	7.6172e-08	7.5375e-08	628.75	157.32	7.7879e-08	7.2459e-08	214.02	95.122	58.378	27.312	6.9491e-08	42.629	63.057	39.448	12.615	-13.936	115.412	70.640	-14.952	-8.954	114.603	100.361	-10.702	-6.827	-5.544	-1.182	89.772	-4.239	-8191	255	
4163.408	1	1	0	0	0.1177	0.077049	0.24733	0.31572	0.097117	0.076711	0.17453	0.075109	0.10275	0.27143	0.074378	0.20682	0.16701	0.20562	0.15862	0.13838	-3.5146	-3.675	-3.4771	-3.8729	-3.75	-3.6354	-4.1375	-3.6167	-3.7979	-3.7979	-3.6146	-3.8583	-3.7438	-3.6417	-3.9854	-3.6708	-10.759	91.859	116.453	274.567	267.573	292.336	311.886	-4.041	276.763	263.636	194.531	92.559	319.172	103.592	134.950	87.726	0.00048859	0.00010351	3.0449e-05	625.21	1.1377e-06	1.0083e-06	825.6	216.81	1.3503e-06	1.1234e-06	322.24	145.13	93.853	42.902	8.7147e-07	69.53	8.6791e-06	6.5701e-06	1.7201e-06	478.06	7.6575e-08	7.1506e-08	638.98	160.15	7.8018e-08	6.8647e-08	217.83	96.801	59.358	27.942	6.561e-08	43.549	61.808	48.069	32.187	-14.553	58.611	53.095	-15.194	-9.248	111.982	108.687	-10.831	-6.976	-5.438	-1.352	123.182	-4.154	-8191	255	
4163.504	1	1	0	0	0.079515	0.25553	0.083088	0.14623	0.059581	0.1928	0.25119	0.18236	0.21186	0.068168	0.15731	0.14591	0.21609	0.19328	0.16881	0.16956	-3.3271	-3.9062	-3.4083	-4.0083	-3.8104	-3.6188	-4.1792	-3.6458	-3.6771	-4.1312	-3.5	-4.0729	-3.9875	-3.4979	-3.9313	-3.6104	121.395	91.155	-24.432	226.848	309.446	102.718	228.810	81.098	89.320	105.202	307.148	275.252	-8.606	270.139	277.434	245.143	0.00046285	0.00013042	2.8171e-05	639.14	1.8808e-06	6.6809e-07	840.32	221.86	7.3823e-07	1.1781e-06	326.79	145.4	95	43.023	4.4752e-07	69.447	8.6388e-06	6.2879e-06	1.6732e-06	486.6	7.5881e-08	6.7895e-08	650.16	163.42	7.3464e-08	6.4303e-08	220.69	97.249	59.739	28.041	6.5271e-08	43.566	62.023	38.461	27.835	-14.315	84.902	97.342	-15.189	-9.188	71.836	101.990	-10.659	-6.710	-5.807	-1.269	84.469	-3.888	-8191	255	
4163.601	1	1	0	0	0.20701	0.13095	0.14211	0.15674	0.33348	0.046973	0.17846	0.21055	0.078045	0.24418	0.16849	0.1739	0.068554	0.15203	0.1684	0.12028	-3.3708	-3.8479	-3.5375	-3.9396	-3.9313	-3.4792	-4.0563	-3.6688	-3.5812	-4.0625	-3.3354	-3.85	-3.8187	-3.4313	-3.8563	-3.7167	322.618	318.128	124.200	272.238	81.457	314.920	264.679	259.164	116.695	12.890	1.513	290.332	283.323	91.007	2.411	202.223	0.00042909	6.8866e-05	2.2875e-05	642.12	1.4526e-06	1.3947e-06	840.91	221.05	4.0463e-07	1.082e-06	324.28	144.84	93.979	42.552	1.0894e-06	69.282	8.2191e-06	5.8479e-06	1.5814e-06	488.98	7.207e-08	6.3722e-08	650.07	162.92	7.0829e-08	6.3751e-08	219.28	96.478	59.318	27.81	6.3133e-08	43.403	61.450	39.556	-9.119	-14.164	82.646	73.848	-15.022	-9.108	108.702	88.400	-10.609	-6.980	-5.653	-1.485	79.279	-4.100	-8191	255	
4163.721	1	1	0	0	0.15283	0.0644	0.078163	0.31079	0.080551	0.1077	0.29333	0.14714	0.11057	0.15393	0.24021	0.074078	0.34454	0.13714	0.011419	0.16246	-3.0979	-3.8583	-3.3812	-3.8375	-3.7646	-3.5208	-4.0896	-3.8625	-3.5875	-3.9896	-3.6	-3.9417	-3.8875	-3.3417	-3.8646	-3.7521	302.661	203.776	95.185	249.805	33.435	34.428	-22.181	59.967	46.150	73.067	13.345	129.576	329.459	29.003	206.101	300.390	0.00044123	9.5136e-05	7.6196e-06	642.23	1.0419e-06	6.8393e-07	841.68	221.33	5.8688e-07	1.1222e-06	324.65	144.05	93.815	42.627	2.9702e-07	69.066	7.9943e-06	5.5119e-06	1.6058e-06	490.32	6.7038e-08	6.3483e-08	651.71	163.99	6.7745e-08	6.1764e-08	220.08	96.419	59.29	27.833	6.6868e-08	43.217	61.482	28.921	59.673	-14.252	85.536	71.739	-15.249	-9.123	55.041	91.021	-10.886	-6.780	-5.771	-1.403	135.983	-4.231	-8191	255	
4163.817	1	1	0	0	0.12513	0.14833	0.1121	0.15552	0.17334	0.026746	0.25409	0.072903	0.18369	0.16136	0.10832	0.17225	0.11524	0.051177	0.095401	0.22586	-3.0542	-3.8896	-3.6354	-3.8021	-3.7708	-3.5583	-4.0104	-3.7521	-3.5708	-4.0271	-3.6646	-3.7042	-3.8667	-3.6562	-3.6604	-4.0396	243.933	184.197	150.249	326.472	121.698	58.632	300.027	258.902	160.130	178.634	47.554	-19.384	50.790	91.618	279.172	305.882	0.00053067	0.00011724	3.0398e-05	640.07	1.0424e-06	7.9329e-07	842.62	222.6	8.8989e-07	8.6039e-07	326.58	145.71	94.323	43.052	1.1824e-06	69.475	7.8938e-06	5.6492e-06	1.7583e-06	488.27	6.6292e-08	6.1287e-08	651.26	164.28	6.6926e-08	5.9578e-08	220.98	97.098	59.778	28.018	7.2524e-08	43.524	66.298	42.268	21.042	-14.276	63.143	97.034	-14.754	-9.438	104.724	25.024	-10.816	-6.524	-5.597	-1.339	105.100	-4.008	-8191	255	
#DATA ENDS
