BOXY.EXE: ISS Imagent and Oximeter Data Acquisition Program Version 0.80
Ascii Record File

#ACQ INFORMATION
2  Detector Channels 
16  External MUX Channels 
1  Auxiliary Channels 
5000  Waveform (CCF) Frequency (Hz)
1  Waveforms Skipped 
30  Waveforms Averaged 
1  Cycles Averaged 
16  Acquisitions per Waveform 
10.0806  Updata Rate (Hz) 

#FILE INFORMATION
TRUE -- External MUX Channel results are PARSED.
FALSE -- AC DC and Phase are NOT grouped.
TRUE -- Companion Program Settings File CREATED.
FALSE -- AC data not excluded
FALSE -- DC data not excluded
FALSE -- Phase data not excluded
FALSE -- Auxillary Chn. data not excluded
Tab delimiters

#CALIBRATION STATE
TRUE -- Waveform Calibration Values APPLIED.


#AUX CALIBRATION VALUES
Val Type	aux-1	

Term	1.0000e+00	
Factor	0.0000e+00	


#WF CALIBRATION VALUES
A = Detector Channel
Val Type	A-AC1	A-AC2	A-AC3	A-AC4	A-AC5	A-AC6	A-AC7	A-AC8	A-AC9	A-AC10	A-AC11	A-AC12	A-AC13	A-AC14	A-AC15	A-AC16	A-DC1	A-DC2	A-DC3	A-DC4	A-DC5	A-DC6	A-DC7	A-DC8	A-DC9	A-DC10	A-DC11	A-DC12	A-DC13	A-DC14	A-DC15	A-DC16	A-Ph1	A-Ph2	A-Ph3	A-Ph4	A-Ph5	A-Ph6	A-Ph7	A-Ph8	A-Ph9	A-Ph10	A-Ph11	A-Ph12	A-Ph13	A-Ph14	A-Ph15	A-Ph16	

Term	0.00000e+00	0.00000e+00	0.00000e+00	0.00000e+00	0.00000e+00	0.00000e+00	0.00000e+00	0.00000e+00	0.00000e+00	0.00000e+00	0.00000e+00	0.00000e+00	0.00000e+00	0.00000e+00	0.00000e+00	0.00000e+00	0.00000e+00	0.00000e+00	0.00000e+00	0.00000e+00	0.00000e+00	0.00000e+00	0.00000e+00	0.00000e+00	0.00000e+00	0.00000e+00	0.00000e+00	0.00000e+00	0.00000e+00	0.00000e+00	0.00000e+00	0.00000e+00	0.00000e+00	0.00000e+00	0.00000e+00	0.00000e+00	0.00000e+00	0.00000e+00	0.00000e+00	0.00000e+00	0.00000e+00	0.00000e+00	0.00000e+00	0.00000e+00	0.00000e+00	0.00000e+00	0.00000e+00	0.00000e+00	
Factor	1.00000e+00	1.00000e+00	1.00000e+00	1.00000e+00	1.00000e+00	1.00000e+00	1.00000e+00	1.00000e+00	1.00000e+00	1.00000e+00	1.00000e+00	1.00000e+00	1.00000e+00	1.00000e+00	1.00000e+00	1.00000e+00	1.00000e+00	1.00000e+00	1.00000e+00	1.00000e+00	1.00000e+00	1.00000e+00	1.00000e+00	1.00000e+00	1.00000e+00	1.00000e+00	1.00000e+00	1.00000e+00	1.00000e+00	1.00000e+00	1.00000e+00	1.00000e+00	X	X	X	X	X	X	X	X	X	X	X	X	X	X	X	X	

B = Detector Channel
Val Type	B-AC1	B-AC2	B-AC3	B-AC4	B-AC5	B-AC6	B-AC7	B-AC8	B-AC9	B-AC10	B-AC11	B-AC12	B-AC13	B-AC14	B-AC15	B-AC16	B-DC1	B-DC2	B-DC3	B-DC4	B-DC5	B-DC6	B-DC7	B-DC8	B-DC9	B-DC10	B-DC11	B-DC12	B-DC13	B-DC14	B-DC15	B-DC16	B-Ph1	B-Ph2	B-Ph3	B-Ph4	B-Ph5	B-Ph6	B-Ph7	B-Ph8	B-Ph9	B-Ph10	B-Ph11	B-Ph12	B-Ph13	B-Ph14	B-Ph15	B-Ph16	

Term	0.00000e+00	0.00000e+00	0.00000e+00	0.00000e+00	0.00000e+00	0.00000e+00	0.00000e+00	0.00000e+00	0.00000e+00	0.00000e+00	0.00000e+00	0.00000e+00	0.00000e+00	0.00000e+00	0.00000e+00	0.00000e+00	0.00000e+00	0.00000e+00	0.00000e+00	0.00000e+00	0.00000e+00	0.00000e+00	0.00000e+00	0.00000e+00	0.00000e+00	0.00000e+00	0.00000e+00	0.00000e+00	0.00000e+00	0.00000e+00	0.00000e+00	0.00000e+00	-2.12444e+02	-1.41062e+02	-1.70892e+02	-1.83732e+02	-1.12109e+02	-1.05118e+02	-1.55012e+02	-1.62015e+02	-9.09407e+01	-9.85453e+01	-1.70533e+02	-1.70350e+02	-1.84933e+02	-1.77024e+02	-9.26801e+01	-1.49740e+02	
Factor	3.86930e-05	3.87587e-05	1.11420e-05	1.84525e-01	4.76322e-07	4.00243e-07	1.77227e-01	5.92448e-02	4.03067e-07	4.33660e-07	9.47737e-02	3.35258e-02	3.39684e-02	1.07113e-02	3.85728e-07	1.51601e-02	1.41076e-07	1.41361e-07	3.93248e-08	7.31989e-02	1.55024e-09	1.55026e-09	6.73368e-02	2.26348e-02	1.55356e-09	1.55040e-09	3.24457e-02	1.12648e-02	1.11019e-02	3.63347e-03	1.55221e-09	4.80811e-03	X	X	X	X	X	X	X	X	X	X	X	X	X	X	X	X	



#DISTANCE SETTINGS
A = Detector Channel
A-1	A-2	A-3	A-4	A-5	A-6	A-7	A-8	A-9	A-10	A-11	A-12	A-13	A-14	A-15	A-16	

2.5000e+00	3.0000e+00	2.5000e+00	3.0000e+00	2.0000e+00	3.0000e+00	1.5000e+00	3.0000e+00	3.0000e+00	3.0000e+00	3.0000e+00	3.0000e+00	3.0000e+00	3.0000e+00	1.5000e+00	3.0000e+00	

B = Detector Channel
B-1	B-2	B-3	B-4	B-5	B-6	B-7	B-8	B-9	B-10	B-11	B-12	B-13	B-14	B-15	B-16	

1.0000e+01	1.0000e+01	1.0000e+01	1.4400e+00	1.0000e+01	1.0000e+01	1.5100e+00	1.9400e+00	1.0000e+01	1.0000e+01	1.9900e+00	2.4900e+00	2.4100e+00	2.9000e+00	1.0000e+01	2.9800e+00	




#DATA BEGINS
time	group	step	mark	flag	A-AC1	A-AC2	A-AC3	A-AC4	A-AC5	A-AC6	A-AC7	A-AC8	A-AC9	A-AC10	A-AC11	A-AC12	A-AC13	A-AC14	A-AC15	A-AC16	A-DC1	A-DC2	A-DC3	A-DC4	A-DC5	A-DC6	A-DC7	A-DC8	A-DC9	A-DC10	A-DC11	A-DC12	A-DC13	A-DC14	A-DC15	A-DC16	A-Ph1	A-Ph2	A-Ph3	A-Ph4	A-Ph5	A-Ph6	A-Ph7	A-Ph8	A-Ph9	A-Ph10	A-Ph11	A-Ph12	A-Ph13	A-Ph14	A-Ph15	A-Ph16	B-AC1	B-AC2	B-AC3	B-AC4	B-AC5	B-AC6	B-AC7	B-AC8	B-AC9	B-AC10	B-AC11	B-AC12	B-AC13	B-AC14	B-AC15	B-AC16	B-DC1	B-DC2	B-DC3	B-DC4	B-DC5	B-DC6	B-DC7	B-DC8	B-DC9	B-DC10	B-DC11	B-DC12	B-DC13	B-DC14	B-DC15	B-DC16	B-Ph1	B-Ph2	B-Ph3	B-Ph4	B-Ph5	B-Ph6	B-Ph7	B-Ph8	B-Ph9	B-Ph10	B-Ph11	B-Ph12	B-Ph13	B-Ph14	B-Ph15	B-Ph16	aux-1	digaux	

4053.566	1	1	0	256	0.11884	0.16138	0.11848	0.0285	0.12214	0.045173	0.23561	0.22097	0.11044	0.1996	0.2491	0.24209	0.1849	0.076423	0.20399	0.30655	-3.2687	-4.025	-3.9042	-3.5438	-4.1292	-3.6854	-3.9292	-4.2063	-3.5958	-4.0917	-3.9562	-3.5833	-4.1396	-3.7021	-3.575	-4.1896	69.489	-50.512	209.570	32.872	-61.041	-9.172	151.518	155.536	-3.691	81.787	68.990	209.085	-22.600	52.892	-42.622	142.988	0.00061489	8.9339e-05	3.3354e-05	581.91	1.9188e-06	2.0607e-07	644.7	226.53	8.2935e-07	1.356e-06	288.58	117.17	97.699	40.051	1.2207e-06	50.462	2.4501e-05	2.5417e-05	7.2542e-06	469.13	2.5199e-07	2.85e-07	525.88	175.68	2.5444e-07	2.8787e-07	206.97	82.496	65.066	27.506	2.833e-07	33.364	114.914	-105.055	-81.725	-123.616	-42.792	-2.230	-124.669	-117.862	-70.962	-28.183	-120.202	-117.061	-115.101	-109.486	1.881	-113.225	-8191	255	
4053.662	1	1	0	0	0.16806	0.15578	0.29367	0.10493	0.13161	0.22398	0.11569	0.56393	0.20198	0.14057	0.17697	0.24167	0.068639	0.077619	0.13762	0.12082	-3.3042	-3.8688	-4.0354	-3.6104	-4.0938	-3.8187	-3.8375	-4.1083	-3.6771	-3.8146	-4.0292	-3.5875	-4.1646	-3.9792	-3.5875	-4.0938	-4.829	207.232	117.799	-101.251	83.397	134.802	172.893	191.993	-130.183	-54.385	-132.191	47.552	180.230	110.682	104.021	-41.845	0.00063934	8.0631e-05	4.0154e-05	584.49	7.8773e-07	1.1011e-06	644.44	228.17	1.1553e-06	8.2588e-07	287.24	116.07	96.687	39.477	1.1659e-06	49.531	2.542e-05	2.6936e-05	7.1697e-06	470.43	2.5899e-07	2.9453e-07	527.26	175.86	2.6601e-07	2.9374e-07	206.04	81.602	64.476	27.176	2.7551e-07	32.784	118.813	-21.040	-118.362	-123.428	-109.942	-73.945	-124.538	-117.844	-78.678	15.309	-120.061	-116.975	-115.058	-109.787	-51.210	-112.971	-8191	255	
4053.783	1	1	0	0	0.14722	0.15426	0.043813	0.19611	0.074055	0.19575	0.13239	0.13281	0.1654	0.15787	0.2921	0.15899	0.066974	0.29877	0.11922	0.24551	-3.1375	-3.9479	-3.8667	-3.6521	-3.9688	-3.8771	-3.7958	-4.2521	-3.6896	-3.9167	-4.0833	-3.6562	-4.0708	-3.8667	-3.7	-4.1125	-132.742	24.103	-131.525	188.645	1.305	-41.424	-131.810	129.290	107.150	-119.442	161.453	78.957	-25.754	163.255	-102.703	121.750	0.00057436	5.3249e-05	2.19e-05	581.77	1.4769e-06	7.5095e-07	639.72	224.09	1.2244e-06	1.3561e-06	283.49	113.57	94.766	38.531	3.1251e-07	48.544	2.6719e-05	2.7355e-05	6.9154e-06	468.25	2.8288e-07	3.0084e-07	522.81	173.7	2.9745e-07	3.0721e-07	202.49	79.855	63.586	26.641	2.9446e-07	32.101	109.302	-7.927	-69.546	-123.331	-59.326	-50.193	-124.706	-117.832	-45.804	-7.383	-120.067	-117.033	-115.073	-109.378	-130.615	-113.311	-8191	255	
4053.879	1	1	0	0	0.25441	0.090696	0.11853	0.15014	0.082182	0.19069	0.17716	0.17385	0.13494	0.2076	0.18122	0.083359	0.349	0.12853	0.2741	0.037262	-3.3187	-3.8833	-3.9917	-3.625	-3.9667	-4.0437	-3.7521	-4.1542	-3.9104	-3.7292	-4.2125	-3.5604	-4.0417	-4.1625	-3.6625	-4.2583	-97.833	132.185	95.527	160.013	-43.017	-123.438	171.183	174.567	199.750	101.863	-100.244	-48.439	191.569	-76.208	-43.582	91.787	0.00051186	0.00012356	2.9353e-05	588.76	1.1737e-06	1.9522e-06	641.95	224.84	2.0064e-07	1.3177e-07	283.08	114.35	95.262	38.478	1.8238e-06	48.943	3.045e-05	2.9144e-05	7.496e-06	472.61	3.2627e-07	3.2148e-07	524.96	174.3	3.3119e-07	3.2382e-07	203.47	80.448	64.199	26.688	2.9643e-07	32.512	119.572	-59.619	-76.494	-123.507	24.545	-11.207	-124.599	-117.928	-77.304	35.159	-120.051	-117.002	-115.231	-109.501	-31.586	-112.848	-8191	255	
4053.975	1	1	0	0	0.1141	0.057893	0.17671	0.11411	0.042012	0.26565	0.15178	0.21326	0.068362	0.055729	0.07629	0.15912	0.056425	0.056141	0.022833	0.030402	-3.4375	-3.7354	-4.0708	-3.5896	-3.8667	-4.0375	-3.7208	-4.1146	-3.9229	-3.7146	-4.2771	-3.7521	-3.8792	-4.0896	-3.5125	-4.2458	192.347	83.925	126.493	-127.206	-38.118	128.530	148.903	-126.701	194.678	179.761	87.780	179.359	217.935	-120.011	112.277	-54.338	0.00054703	0.00011383	2.609e-05	589.81	8.7984e-07	1.3173e-06	645.3	225.45	2.5463e-07	1.5611e-06	286.07	114.43	95.091	38.739	4.309e-07	49.011	3.224e-05	2.8779e-05	7.4806e-06	474.4	3.3873e-07	3.1514e-07	527.52	175.14	3.4929e-07	3.2063e-07	204.94	80.647	64.128	26.723	3.0424e-07	32.712	122.029	-22.426	211.935	-123.395	-39.326	-65.259	-124.453	-117.979	200.616	-24.542	-120.328	-116.880	-115.062	-109.332	-18.267	-112.991	-8191	255	
4054.072	1	1	0	0	0.23295	0.16808	0.1305	0.32135	0.22516	0.091245	0.098981	0.21005	0.077344	0.23638	0.070069	0.10903	0.10063	0.31836	0.13049	0.029711	-3.5167	-3.5771	-3.9813	-3.6979	-3.7562	-3.8979	-3.7188	-4.0437	-3.9104	-3.7521	-4.3375	-3.6771	-3.8375	-4.1354	-3.5771	-4.0708	47.025	198.982	29.854	161.565	-129.099	207.072	107.794	151.755	-86.273	3.024	43.071	-105.399	200.537	173.989	110.061	184.560	0.00060216	2.2465e-05	3.3852e-05	588.73	1.62e-06	9.1525e-07	645.39	225.9	9.5654e-07	1.3525e-06	288.13	114.45	95.033	38.516	1.4562e-06	48.731	3.3517e-05	2.9344e-05	7.7412e-06	477.6	3.5254e-07	3.2375e-07	528.62	176.03	3.5419e-07	3.2591e-07	206.13	81.034	64.022	26.621	3.1515e-07	32.601	119.776	75.878	-77.655	-123.234	-6.229	63.135	-124.829	-117.807	-20.962	-30.947	-120.343	-116.740	-114.842	-109.076	-10.305	-113.273	-8191	255	
4054.168	1	1	0	0	0.15573	0.11418	0.13578	0.09253	0.059779	0.091772	0.14053	0.2519	0.27983	0.39	0.1324	0.18972	0.21319	0.10415	0.13672	0.065741	-3.5917	-3.5917	-3.9313	-3.7542	-3.6396	-4.0375	-3.6937	-4.0437	-3.8271	-3.6646	-4.1312	-3.6417	-3.7083	-4.0375	-3.6229	-3.9437	-1.931	-93.928	97.948	173.621	122.213	-46.260	-21.296	187.586	61.001	-78.831	160.043	114.522	177.704	197.270	-86.669	201.329	0.0006407	0.00014219	2.7618e-05	590.68	1.1272e-06	3.7036e-07	642.38	223.54	1.8624e-06	2.1267e-07	282.55	111.13	93.313	37.665	9.0914e-07	47.3	3.3788e-05	2.9833e-05	7.9276e-06	478.57	3.4864e-07	3.2274e-07	526.93	174.99	3.5158e-07	3.2723e-07	203.34	79.132	62.739	26.037	3.4006e-07	31.811	127.213	-89.482	-102.051	-123.428	22.443	54.846	-124.646	-117.843	-13.668	16.535	-120.295	-116.901	-114.707	-109.403	34.841	-112.859	-8191	255	
4054.264	1	1	0	0	0.22226	0.18826	0.091194	0.12909	0.14149	0.095239	0.20699	0.11511	0.13966	0.11834	0.12921	0.27964	0.020201	0.31201	0.12194	0.13137	-3.6042	-3.5563	-3.9729	-3.9188	-3.5417	-4.1917	-3.5854	-3.9	-4.0917	-3.6125	-4.0479	-3.7229	-3.6375	-4.1875	-3.7708	-3.925	-97.405	128.286	14.962	-6.057	45.702	9.537	147.343	197.520	20.516	-4.287	213.078	-92.083	-110.705	182.695	-16.438	100.525	0.00061127	8.0231e-05	3.2128e-05	583.82	1.1534e-06	1.3644e-06	636.56	223.72	2.2215e-06	8.4367e-07	283.21	111.99	93.618	38.1	5.7868e-07	48.153	3.4267e-05	3.0391e-05	8.6618e-06	475.54	3.5054e-07	3.2386e-07	524.66	174.59	3.4604e-07	3.2265e-07	204.47	79.601	63.168	26.303	3.5963e-07	32.195	129.846	-84.005	-116.792	-123.317	-48.446	31.997	-124.354	-117.902	-67.809	22.279	-120.228	-116.741	-114.938	-109.224	-66.038	-112.838	-8191	255	
4054.383	1	1	0	0	0.0051999	0.16504	0.23096	0.1169	0.1687	0.27691	0.26408	0.072981	0.089099	0.14837	0.14288	0.1117	0.096313	0.32369	0.24227	0.27402	-3.7208	-3.5396	-4.0396	-4.0542	-3.5729	-4.0979	-3.85	-3.9208	-4.0708	-3.5854	-3.9771	-4.0083	-3.5438	-4.1542	-3.5917	-3.85	208.111	119.644	-60.386	129.786	15.334	-122.400	146.719	149.207	173.841	136.073	154.695	125.762	-1.539	183.234	61.221	142.374	0.00060653	0.00014151	1.912e-05	590.2	1.5496e-06	1.9567e-06	644.46	225.18	1.109e-06	1.2862e-06	285.58	112.44	94.322	38.435	9.5499e-07	48.864	3.3452e-05	2.9732e-05	9.2984e-06	479.46	3.5608e-07	3.3381e-07	530.33	175.9	3.5087e-07	3.3496e-07	206.88	80.153	63.656	26.588	3.8365e-07	32.647	129.252	-61.725	-52.993	-123.445	-23.436	-2.390	-124.616	-117.822	-61.525	-60.504	-120.108	-116.765	-114.888	-109.370	-21.899	-113.141	-8191	255	
4054.479	1	1	0	0	0.07584	0.16806	0.053516	0.1019	0.255	0.090655	0.14545	0.064098	0.10094	0.25987	0.079871	0.27829	0.36875	0.03421	0.16791	0.16457	-3.7125	-3.7167	-3.9854	-3.8625	-3.7562	-3.9813	-3.8542	-3.8083	-4.2438	-3.6125	-4.0375	-4.2042	-3.8646	-4.2167	-3.8021	-3.8333	65.924	130.879	26.126	75.013	-97.517	-6.031	170.758	125.299	-125.938	-83.675	-133.266	128.534	122.235	-134.697	8.143	217.298	0.00047679	0.00016462	3.2921e-05	594.22	2.4494e-06	4.4565e-07	647.84	225.85	1.4047e-06	8.5407e-07	287.56	113.81	94.668	38.73	4.1425e-07	49.192	3.3449e-05	3.1258e-05	9.9837e-06	482.77	3.5243e-07	3.4723e-07	534.71	176.82	3.5373e-07	3.5795e-07	208.86	80.812	63.967	26.842	4.0228e-07	32.93	123.632	-72.014	-41.225	-123.499	-62.769	29.832	-124.544	-117.686	-1.456	-23.345	-119.847	-116.938	-114.879	-109.341	31.240	-112.821	-8191	255	
4054.575	1	1	0	0	0.18216	0.22716	0.22468	0.15225	0.2718	0.07627	0.11229	0.033478	0.27622	0.17175	0.0756	0.21007	0.098487	0.1547	0.012269	0.25167	-3.7979	-3.6771	-3.9646	-4.1333	-3.525	-4.0167	-4.0958	-3.6583	-4.2167	-3.7562	-4.0188	-4.2229	-3.4583	-4.0083	-3.7729	-3.6542	-86.109	62.863	-95.202	23.266	109.714	-105.790	1.248	88.663	-73.829	-132.311	-134.140	59.142	-82.632	191.289	218.193	-107.534	0.00046293	8.4413e-05	2.2923e-05	595.62	2.8097e-07	8.9236e-07	650.99	225.42	6.0688e-07	1.1064e-06	286.36	112.25	94.102	38.242	1.8472e-06	48.03	3.3635e-05	3.3584e-05	1.0331e-05	484.06	3.6074e-07	3.836e-07	537.42	176.7	3.7169e-07	4.0121e-07	208.01	79.993	63.515	26.641	4.3808e-07	32.373	119.040	-135.040	-127.821	-123.507	15.347	-4.174	-124.699	-117.838	-9.619	-122.086	-120.037	-116.778	-114.874	-109.034	-55.784	-113.005	-8191	255	
4054.671	1	1	0	0	0.27293	0.21682	0.086661	0.11949	0.28423	0.071091	0.13284	0.13997	0.266	0.092935	0.21974	0.056362	0.13704	0.13662	0.075273	0.11127	-3.85	-3.4458	-3.8292	-4.0208	-3.625	-4.0167	-4.0083	-3.6979	-4.0375	-3.7833	-3.825	-4.1875	-3.5708	-4.1354	-4.1	-3.575	177.858	-15.015	115.979	198.598	-26.624	46.856	181.208	96.903	-98.502	192.957	104.372	152.658	218.874	-115.774	182.873	220.922	0.00060434	0.00012247	2.3116e-05	588.77	1.7062e-06	7.9415e-07	640.54	224.25	1.0374e-06	6.0808e-07	284.77	111.56	93.984	38.121	6.6972e-07	48.33	3.7419e-05	3.9728e-05	1.1333e-05	481.18	4.1901e-07	4.631e-07	533.64	176.66	4.3803e-07	4.9071e-07	208.14	80.091	64.086	26.742	4.766e-07	32.576	118.138	-105.603	-107.443	-123.666	-98.412	105.204	-124.739	-117.535	24.109	46.060	-120.354	-116.458	-115.036	-109.408	58.375	-112.957	-8191	255	
4054.767	1	1	0	0	0.1213	0.16844	0.14994	0.17573	0.14829	0.15667	0.11128	0.077436	0.21932	0.14345	0.10214	0.12664	0.11107	0.084511	0.15421	0.030501	-3.6979	-3.7292	-3.7188	-4.1458	-3.5812	-3.8688	-3.9813	-3.6667	-4.0021	-3.7833	-3.7687	-4.1625	-3.8771	-3.9208	-3.9417	-3.4833	122.584	-104.202	62.700	222.481	-43.729	196.405	80.603	173.853	33.739	37.159	196.682	201.538	178.785	-91.707	-56.233	-1.249	0.00061417	0.00013357	7.0959e-05	588.95	1.9376e-06	1.3084e-06	646.45	226.29	1.1883e-06	1.4184e-06	288.78	113.27	94.475	38.516	6.4234e-07	48.933	4.0896e-05	4.3262e-05	1.1276e-05	481.38	4.0986e-07	4.3636e-07	533.11	176.49	3.5608e-07	3.8919e-07	207.88	80.245	63.752	26.794	3.5481e-07	32.587	113.554	-40.583	-78.223	-123.430	-78.005	-32.052	-124.595	-117.676	-92.690	-34.631	-120.178	-117.114	-115.024	-109.212	-91.266	-113.001	-8191	255	
4054.863	1	1	0	0	0.13522	0.16275	0.12529	0.21623	0.14899	0.38423	0.13487	0.094593	0.048727	0.12604	0.043671	0.091003	0.07456	0.097102	0.16213	0.2061	-3.7687	-3.825	-3.6458	-4.0938	-3.8146	-4.0604	-4.0229	-3.6333	-4.0958	-4.0167	-3.8063	-4.2104	-3.8146	-3.9708	-4.1333	-3.6562	32.198	-70.391	132.338	-125.869	72.062	151.771	169.132	201.879	156.826	76.820	-67.044	-70.478	-115.900	38.808	-39.653	214.187	0.00062087	7.7706e-05	1.2738e-05	591.05	1.3026e-06	7.842e-07	649.29	227.17	8.9931e-07	1.5363e-06	290.24	114.85	95.812	39.21	1.4172e-06	49.56	3.3665e-05	3.4422e-05	8.9037e-06	477.92	3.5129e-07	3.7142e-07	533.18	176.75	3.5339e-07	3.695e-07	208.83	81.002	64.439	27.129	3.3194e-07	33.017	117.921	4.331	-114.244	-123.410	-44.976	-14.603	-124.668	-117.847	-55.540	-0.291	-120.270	-116.953	-114.748	-109.191	-20.515	-112.777	-8191	255	
4054.960	1	1	0	0	0.19913	0.107	0.36739	0.19883	0.090467	0.054203	0.26469	0.12278	0.09102	0.13787	0.29864	0.20088	0.18041	0.1159	0.025022	0.14074	-3.6708	-3.9437	-3.6	-4.0458	-3.8021	-3.8229	-4.1104	-3.5312	-4.0042	-3.9521	-3.7812	-4.1917	-3.7708	-3.7917	-4.0896	-3.7833	-107.091	115.713	-45.505	130.135	-43.447	-128.099	17.914	-127.222	117.633	-80.223	-68.406	-127.073	-20.603	-55.147	213.816	113.646	0.00056362	0.00017578	3.3259e-05	593.98	9.5911e-07	7.5652e-07	653.54	228.18	8.8966e-07	8.216e-07	291.88	114.62	95.081	39.084	1.6956e-06	49.502	3.399e-05	3.2421e-05	8.3726e-06	480.13	3.6011e-07	3.4968e-07	536.11	177.77	3.629e-07	3.4985e-07	210.24	81.248	64.467	27.002	3.258e-07	32.863	121.448	-72.685	-109.502	-123.235	-94.241	-15.195	-124.447	-117.821	-12.376	-80.131	-120.363	-116.655	-114.973	-109.110	-67.854	-112.998	-8191	255	
4055.056	1	1	0	0	0.16972	0.17228	0.15037	0.20551	0.12488	0.1539	0.20837	0.11904	0.15299	0.081907	0.21878	0.12439	0.10837	0.18115	0.21286	0.21402	-3.7229	-3.9646	-3.5187	-4.0271	-3.7708	-3.5771	-4.1687	-3.7021	-4.1375	-4.1854	-3.6437	-4.1312	-3.9021	-3.7062	-4.1229	-3.9854	-120.724	61.123	96.915	-41.132	7.074	-113.278	58.361	143.957	132.956	-32.743	-78.477	-93.935	6.187	192.716	11.587	121.430	0.00060183	6.3617e-05	5.5726e-05	590.23	1.2944e-06	5.3186e-07	647.34	226.68	5.8824e-07	1.3769e-06	287.66	113.03	94.325	38.461	4.7183e-07	48.315	3.5413e-05	3.15e-05	8.2045e-06	478.55	3.7331e-07	3.4574e-07	530.93	176.54	3.7341e-07	3.4489e-07	206.78	79.76	63.612	26.545	3.1709e-07	32.33	113.942	-112.841	-99.870	-123.625	-69.954	42.567	-124.542	-117.904	-84.886	-32.879	-120.004	-116.905	-114.918	-109.408	20.102	-112.982	-8191	255	
4055.176	1	1	0	0	0.050853	0.078333	0.31418	0.19584	0.082241	0.097042	0.19945	0.22736	0.092033	0.32811	0.13116	0.2737	0.2437	0.13804	0.11455	0.099266	-3.4979	-4.1729	-3.2958	-4.0917	-3.9604	-3.6688	-4.2958	-3.6688	-3.7188	-4.1687	-3.9125	-4.1604	-3.8979	-3.7667	-4.1	-3.8333	-20.811	221.663	-23.582	126.162	56.648	153.091	159.289	-50.189	39.419	174.817	-51.654	159.019	70.943	-41.300	9.079	201.909	0.00064037	0.00011657	3.5183e-05	589.25	6.6984e-07	1.5785e-06	645.79	225.39	7.3698e-07	1.926e-06	288.82	113.32	94.901	38.559	5.5567e-07	48.889	3.4936e-05	3.0489e-05	7.9891e-06	478.58	3.6305e-07	3.3637e-07	530.1	176.63	3.6299e-07	3.2888e-07	207.56	80.478	64.006	26.665	3.1577e-07	32.637	112.976	-19.201	-116.842	-123.430	216.912	-48.360	-124.719	-117.796	-1.441	-8.640	-120.227	-116.813	-114.722	-109.376	-37.599	-112.843	-8191	255	
4055.271	1	1	0	0	0.19746	0.16494	0.17821	0.11924	0.14504	0.048602	0.075212	0.1688	0.14795	0.16776	0.16568	0.12876	0.094659	0.14575	0.13503	0.19201	-3.4042	-4.2979	-3.6958	-4.0938	-3.8333	-3.8417	-4.2917	-4.0042	-3.9167	-4.1375	-3.7292	-3.925	-4.0875	-3.65	-4.0917	-3.9708	147.556	-41.192	46.396	192.553	175.970	102.459	198.883	171.699	-21.232	-73.801	158.327	-27.087	-70.709	40.122	180.005	174.044	0.00061376	0.0002366	1.4218e-05	594.04	2.7621e-07	9.5058e-07	645.17	226.91	8.383e-07	2.2849e-06	289.97	114.73	95.603	39.022	1.6054e-06	49.686	3.4004e-05	2.9775e-05	8.1043e-06	480.51	3.5129e-07	3.2413e-07	530.53	177.46	3.4619e-07	3.1842e-07	208.83	81.296	64.289	26.901	3.191e-07	33.152	119.441	-48.498	13.593	-123.478	199.346	-41.673	-124.671	-117.914	12.905	4.770	-120.255	-116.779	-114.812	-109.474	-69.223	-113.049	-8191	255	
4055.344	1	1	0	0	0.1096	0.1596	0.15399	0.082889	0.10493	0.11046	0.17237	0.16279	0.24524	0.08579	0.067503	0.1763	0.17828	0.21076	0.072242	0.13923	-3.3937	-4	-3.7646	-3.9833	-4.0208	-3.5792	-4.1292	-3.8333	-3.7375	-4.2	-3.7333	-3.8521	-3.9104	-3.7521	-3.9375	-3.9479	20.440	197.426	209.778	-66.725	216.378	77.322	188.411	90.379	5.444	177.887	-15.524	176.351	155.828	-63.767	-86.306	160.231	0.00064384	9.6737e-05	1.3959e-05	594.18	1.7099e-06	9.3144e-07	654.62	230.03	1.1922e-06	6.2068e-07	292.53	116.06	95.691	39.344	7.5296e-07	50.171	3.1982e-05	2.8093e-05	8.095e-06	479.6	3.3053e-07	3.0991e-07	535.29	179.11	3.3545e-07	3.1461e-07	211.16	82.351	64.764	27.207	3.6997e-07	33.557	111.477	-57.711	-93.170	-123.507	-25.415	-40.296	-124.533	-117.779	-1.636	-7.873	-119.926	-116.562	-114.783	-109.318	207.030	-112.909	-8191	255	
4055.463	1	1	0	0	0.1267	0.11337	0.12561	0.20881	0.15838	0.095958	0.11334	0.037369	0.16201	0.058255	0.060623	0.084194	0.16931	0.2916	0.075154	0.15364	-3.3292	-4.0042	-3.7271	-3.8125	-4.2146	-3.6396	-4.0417	-3.975	-3.625	-4.1312	-3.8125	-3.8583	-4.0333	-3.7021	-4.0729	-3.9146	-127.869	120.379	33.032	161.646	-45.696	99.139	95.746	-15.063	196.375	16.499	-109.523	145.894	212.932	195.147	51.504	-105.265	0.00069251	0.00015833	1.6758e-05	590.69	1.3128e-06	1.5144e-06	651.52	227.84	3.5211e-07	8.7941e-07	292.4	114.63	95.386	38.828	1.4302e-06	49.1	3.5256e-05	3.2168e-05	1.0009e-05	482.32	3.9124e-07	3.7738e-07	537.59	179.3	4.0783e-07	3.9632e-07	212.5	81.928	64.807	27.117	4.7704e-07	33.203	121.449	-49.857	33.919	-123.485	-55.180	-35.694	-124.384	-117.787	-52.966	-14.850	-120.359	-116.652	-114.919	-109.016	-1.598	-112.952	-8191	255	
4055.559	1	1	0	0	0.18694	0.18047	0.17142	0.16109	0.056451	0.1774	0.025532	0.4027	0.01209	0.11266	0.25939	0.17365	0.21163	0.097583	0.12249	0.28904	-3.1083	-4.0396	-3.6396	-3.775	-3.9292	-3.5542	-3.9146	-3.9813	-3.4854	-4.0854	-3.8667	-3.725	-4.2854	-3.75	-3.8229	-4.05	-112.757	130.004	1.955	151.030	187.925	10.281	102.817	169.670	102.052	-130.705	-120.259	152.018	112.434	221.258	-92.865	121.821	0.00052123	0.00011235	2.3785e-05	588.6	4.4787e-07	1.0313e-06	643.17	225.62	1.4877e-06	1.5032e-06	288.23	113.64	95.008	38.72	4.6251e-07	48.93	4.3458e-05	4.1633e-05	1.3e-05	484.69	4.874e-07	4.8998e-07	538.97	179.43	4.9795e-07	4.8535e-07	211.97	81.621	64.601	26.989	4.5865e-07	32.944	129.325	-107.837	-130.731	-123.412	-11.527	-133.053	-124.534	-117.846	-36.786	-31.217	-120.249	-116.812	-115.189	-109.521	-50.135	-112.840	-8191	255	
4055.655	1	1	0	0	0.15951	0.08998	0.1068	0.082978	0.23441	0.1969	0.22508	0.20354	0.12133	0.10354	0.095955	0.13477	0.15926	0.10816	0.28682	0.023964	-3.3333	-4.0042	-3.7021	-3.6667	-4.0354	-3.6375	-3.925	-4.0687	-3.4	-3.9375	-4.0229	-3.7083	-4.15	-3.8333	-3.8417	-4.0542	110.813	-37.353	12.317	163.139	177.592	187.795	156.465	192.524	-110.544	151.271	-32.502	110.890	44.512	6.768	44.559	-14.405	0.00049571	0.00011059	1.4269e-05	590.34	1.0719e-06	6.6844e-07	649.59	227.87	8.1813e-07	1.2664e-06	290.63	114.2	95.13	38.67	1.2302e-06	48.941	3.6017e-05	3.4301e-05	1.0124e-05	478.65	3.3248e-07	3.4681e-07	534.58	177.26	3.1629e-07	3.4136e-07	209.67	80.889	63.865	26.866	3.5813e-07	32.805	113.239	-18.943	38.495	-123.352	4.457	75.886	-124.472	-117.751	15.835	-68.507	-120.223	-116.909	-114.895	-109.261	46.721	-112.977	-8191	255	
4055.776	1	1	0	0	0.12078	0.13109	0.081652	0.11452	0.18918	0.085281	0.11231	0.24168	0.32421	0.098201	0.13314	0.092307	0.12098	0.3168	0.21079	0.10777	-3.1083	-3.7521	-3.7646	-3.6437	-4.0292	-3.5604	-3.875	-4.0333	-3.5938	-4.1125	-3.8917	-3.6458	-4.2542	-3.9333	-3.7958	-4.2958	-34.685	-115.986	11.212	63.315	157.758	-114.394	17.664	-122.082	-134.892	5.506	82.338	-114.994	213.260	165.203	205.726	126.677	0.00072186	9.0974e-05	3.0902e-05	594.67	1.3258e-06	6.7675e-07	655.07	228.95	7.2045e-07	1.4458e-06	293.88	115.65	96.521	39.217	8.5101e-07	49.85	2.9829e-05	3.1665e-05	8.8351e-06	479.14	3.0318e-07	3.3835e-07	536.32	178.4	3.0521e-07	3.3976e-07	211.67	81.812	64.538	27.241	3.3656e-07	33.203	119.225	-113.711	-109.762	-123.268	-76.113	-33.836	-124.727	-118.037	14.227	-34.176	-120.069	-116.825	-114.698	-109.146	-47.576	-112.944	-8191	255	
4055.872	1	1	0	0	0.069148	0.10505	0.14993	0.12129	0.14305	0.18346	0.10358	0.14432	0.13739	0.043702	0.062973	0.052652	0.16767	0.047535	0.045642	0.055076	-3.2875	-3.9375	-4.0583	-3.65	-4.1188	-3.8125	-3.9375	-4.2354	-3.5062	-3.9417	-4.1479	-3.6354	-4.1271	-3.7625	-3.8312	-4.0979	-34.815	-104.459	80.982	149.937	-34.743	-36.221	57.687	221.461	178.759	-47.821	213.571	114.100	-102.423	139.215	158.798	15.738	0.00067067	6.0202e-05	5.3537e-05	594.69	9.4146e-07	6.3771e-07	657.23	230.49	1.2615e-06	1.5648e-06	295.47	115.2	95.337	39.064	6.3441e-07	49.7	2.9839e-05	3.2084e-05	8.3609e-06	480.12	3.0912e-07	3.4942e-07	539.09	179.28	3.13e-07	3.4992e-07	211.91	81.257	64.215	27.089	3.1935e-07	32.972	112.499	-123.882	-65.531	-123.414	-6.911	55.701	-124.583	-117.795	-66.636	-53.598	-120.168	-117.025	-114.950	-109.290	17.866	-113.006	-8191	255	
4055.944	1	1	0	0	0.12929	0.084564	0.13858	0.2381	0.31513	0.14513	0.18834	0.14409	0.079081	0.098622	0.28628	0.12507	0.2215	0.1287	0.14188	0.10001	-3.3312	-3.7917	-3.9021	-3.6	-4.1937	-3.8271	-3.6583	-4.2417	-3.6437	-3.7854	-4.1792	-3.6312	-4.0563	-3.9562	-3.6833	-4.1958	-3.097	14.285	33.660	76.527	189.394	163.256	139.842	93.057	1.750	50.298	201.361	47.975	-62.037	-99.161	180.437	90.201	0.0006463	9.5355e-05	1.0146e-05	590.61	7.1297e-07	1.371e-06	650.48	228.51	6.0453e-07	2.1229e-06	292.25	114.85	95.234	39.058	1.1589e-06	49.255	3.0149e-05	3.0545e-05	7.7624e-06	474.77	3.0968e-07	3.292e-07	533.04	177.45	3.168e-07	3.2852e-07	209.67	80.828	64.133	26.99	3.0172e-07	32.705	116.583	-37.839	-94.153	-123.427	33.425	-21.863	-124.751	-117.764	-11.064	-36.249	-120.352	-116.838	-114.928	-109.460	-39.331	-113.117	-8191	255	
4056.064	1	1	0	0	0.077988	0.21764	0.055773	0.11574	0.2165	0.14896	0.24173	0.13201	0.18107	0.031798	0.097002	0.15017	0.14129	0.2878	0.18238	0.05029	-3.3583	-3.75	-4.0458	-3.6604	-4.0188	-4.0104	-3.7	-4.1625	-3.6688	-3.7854	-4.0792	-3.7104	-4.0417	-4.0479	-3.6792	-4.1417	-91.799	29.467	-99.978	160.670	92.108	78.257	147.827	215.964	-62.186	-8.973	190.633	-129.040	188.653	181.928	63.300	194.213	0.00056767	0.00014394	1.5263e-05	589.03	2.8405e-07	1.6462e-06	652.55	229.43	1.0158e-06	1.2088e-06	293.97	115.5	96.267	39.423	8.4149e-07	49.811	3.0833e-05	2.9269e-05	7.4208e-06	474.29	3.1961e-07	3.1497e-07	533.63	177.84	3.2705e-07	3.1492e-07	210.87	81.448	64.67	27.145	2.9653e-07	33.109	101.586	-78.450	-68.683	-123.727	15.808	-4.650	-124.513	-117.630	-61.906	0.138	-119.989	-116.848	-114.975	-109.523	-12.788	-112.983	-8191	255	
4056.161	1	1	0	0	0.11284	0.18187	0.13432	0.2664	0.13282	0.070665	0.20893	0.15887	0.073091	0.20156	0.14969	0.070893	0.21904	0.091502	0.14922	0.30496	-3.5208	-3.7333	-3.9875	-3.55	-3.9646	-3.8875	-3.6604	-4.2667	-3.95	-3.6229	-4.0792	-3.6937	-3.9708	-4.0437	-3.6937	-4.1583	110.358	-83.285	-91.581	-107.475	148.815	0.754	194.354	166.767	20.382	89.190	-21.219	174.751	182.276	-1.788	191.832	-115.578	0.00062744	0.00018565	2.5674e-05	593.07	8.732e-07	1.091e-06	657.63	230.8	1.926e-06	2.0312e-06	296.54	116.15	96.512	39.594	1.6355e-06	50.119	3.2007e-05	2.874e-05	7.4687e-06	478.7	3.3532e-07	3.0945e-07	536.99	179.12	3.3824e-07	3.1194e-07	212.03	82.072	64.933	27.305	2.9244e-07	33.411	115.756	-92.079	-112.608	-123.226	-29.165	-61.843	-124.624	-117.972	-5.992	-8.376	-120.128	-116.871	-115.160	-109.527	-16.567	-112.843	-8191	255	
4056.257	1	1	0	0	0.16489	0.035022	0.18028	0.074491	0.1427	0.24757	0.19859	0.18629	0.23295	0.098856	0.068907	0.074587	0.2021	0.08099	0.10825	0.26686	-3.3917	-3.725	-3.9417	-3.7	-3.7188	-3.9562	-3.6229	-4.025	-3.9167	-3.5604	-4.0563	-3.7771	-3.7146	-4.2	-3.5354	-3.8604	-134.226	2.496	82.755	-50.279	-131.988	145.853	72.710	149.981	179.528	11.705	-84.953	13.949	-38.194	214.471	-93.505	149.095	0.00062943	0.00010377	2.5033e-05	594.26	1.5221e-06	8.5044e-07	660.14	231.06	1.9244e-06	1.0891e-06	299.32	117.55	97.112	39.864	4.9207e-07	50.577	3.233e-05	2.7984e-05	7.2864e-06	479.72	3.2756e-07	3.0009e-07	538.46	180.08	3.2327e-07	2.9398e-07	213.45	82.935	65.289	27.461	2.7484e-07	33.71	124.531	-69.593	-59.006	-123.222	1.563	-7.306	-124.621	-117.615	-1.919	-33.002	-119.998	-116.692	-114.987	-109.514	-117.568	-113.264	-8191	255	
4056.351	1	1	0	0	0.12578	0.26682	0.10929	0.2419	0.065996	0.098583	0.14973	0.19402	0.14028	0.068823	0.18177	0.33519	0.31886	0.23698	0.16555	0.16047	-3.425	-3.6292	-4.0833	-3.7125	-3.7375	-4.0583	-3.6104	-4.1438	-3.8833	-3.5792	-4.0896	-3.8333	-3.7042	-4.3583	-3.5958	-4.0417	192.259	44.680	123.374	122.030	14.301	196.444	88.380	213.145	-39.661	156.002	187.386	208.330	161.365	75.196	8.278	203.704	0.00058254	8.0071e-05	4.0771e-05	590.82	1.502e-06	1.0482e-06	653.86	230.16	1.7898e-06	1.307e-07	293.4	115.03	95.613	39.134	1.2038e-06	49.225	2.9683e-05	2.5938e-05	6.9784e-06	477.37	3.0774e-07	2.8419e-07	533.71	179.11	3.0656e-07	2.8152e-07	210.6	81.334	64.235	26.968	2.8879e-07	32.899	122.447	203.120	-97.806	-123.473	-56.035	32.110	-124.715	-117.657	-31.250	-9.921	-120.311	-116.877	-114.908	-109.347	-116.030	-113.071	-8191	255	
4056.472	1	1	0	0	0.31714	0.096727	0.26316	0.15964	0.1255	0.12873	0.09503	0.11066	0.033465	0.26847	0.34608	0.13961	0.11789	0.22584	0.22145	0.2061	-3.5167	-3.5917	-4.0479	-3.8208	-3.6146	-4.0354	-3.5917	-3.9188	-4.125	-3.6271	-4.0396	-3.7438	-3.7271	-4.2833	-3.7729	-3.9708	-46.020	10.290	139.140	-48.370	56.971	55.507	214.864	92.229	-71.006	-131.914	125.330	-57.896	-90.475	143.191	-100.951	-48.124	0.00054027	5.3738e-05	4.0087e-05	589.98	4.1824e-07	1.1605e-06	649.69	229.91	1.6388e-06	1.6092e-06	292.95	115.44	95.407	39.333	6.0119e-07	49.825	2.9166e-05	2.5836e-05	7.3696e-06	477.1	3.0416e-07	2.8225e-07	532.86	178.66	3.036e-07	2.833e-07	210.92	81.353	64.078	26.949	3.017e-07	33.113	126.835	-75.297	-100.885	-123.445	-54.818	21.679	-124.512	-117.786	-20.317	-7.596	-120.359	-117.003	-114.994	-109.457	4.708	-112.863	-8191	255	
4056.568	1	1	0	0	0.067416	0.25046	0.19035	0.14275	0.16574	0.056366	0.20723	0.12691	0.14418	0.26696	0.21047	0.11096	0.18455	0.3406	0.10042	0.037326	-3.6708	-3.5729	-3.9083	-3.8333	-3.5708	-4.05	-3.8625	-3.875	-4.0687	-3.6063	-4.1604	-3.9833	-3.7229	-4.1208	-3.8104	-3.6604	-101.465	50.194	166.170	-94.023	132.849	-53.081	199.469	203.407	112.219	72.020	50.587	-43.752	61.797	185.143	37.425	86.616	0.00056449	7.2598e-05	2.6032e-05	589.39	2.1173e-06	1.0192e-06	654.65	230.24	7.238e-07	1.4751e-06	296.07	116.38	96.276	39.505	4.0627e-07	50.384	2.8502e-05	2.5095e-05	7.7655e-06	475.65	2.9038e-07	2.7324e-07	534.89	178.92	2.8844e-07	2.6879e-07	212.58	82.071	64.538	27.249	3.1442e-07	33.541	123.322	-80.316	-59.065	-123.177	-21.505	32.830	-124.450	-117.718	3.910	-36.705	-120.246	-116.770	-114.834	-109.337	-14.202	-113.070	-8191	255	
4056.640	1	1	0	0	0.25151	0.1627	0.20876	0.19765	0.12496	0.10952	0.20908	0.12459	0.069991	0.17718	0.21627	0.21612	0.025358	0.11378	0.10283	0.38456	-3.8083	-3.5979	-3.8563	-3.775	-3.5146	-4.0896	-3.7167	-3.7917	-4.1375	-3.6646	-3.9938	-3.9708	-3.6667	-4.1604	-3.9167	-3.8167	150.427	102.413	-35.962	103.595	209.962	153.187	167.184	-132.569	214.991	174.256	-100.250	141.405	-125.661	156.883	-94.340	157.995	0.00062149	0.00011901	7.4941e-06	591.47	6.2923e-07	8.7443e-07	655.87	230.92	1.7203e-06	9.1006e-07	296.67	116.76	96.347	39.634	8.6873e-07	50.484	2.8094e-05	2.6054e-05	8.2305e-06	477.24	2.9758e-07	2.9269e-07	538.7	180.02	3.0772e-07	3.0862e-07	214.2	82.14	64.608	27.355	3.5633e-07	33.625	115.397	-114.396	170.847	-123.253	-92.761	-20.279	-124.660	-117.749	-49.527	37.467	-120.229	-116.810	-115.201	-109.489	-27.235	-112.846	-8191	255	
4056.736	1	1	0	0	0.10595	0.090029	0.29634	0.19124	0.2142	0.18009	0.18624	0.26629	0.1507	0.039296	0.19015	0.16547	0.15046	0.21967	0.021802	0.17676	-3.65	-3.5687	-3.7417	-4.1562	-3.4042	-3.7896	-3.9208	-3.6729	-4.1125	-3.8521	-3.9771	-4.0771	-3.325	-4.025	-3.85	-3.7188	73.351	-84.213	193.796	137.697	209.724	-102.233	24.701	137.727	-71.060	9.200	-31.454	62.609	-95.223	-125.715	-41.290	-18.747	0.00061888	0.00011092	4.9921e-05	591.04	1.6082e-06	2.0334e-07	653.84	230.07	7.4032e-07	1.3478e-06	294.46	114.78	95.151	39.181	2.0582e-06	49.417	3.0335e-05	2.951e-05	8.9587e-06	478.57	3.0561e-07	3.2274e-07	537.3	179.15	3.0573e-07	3.3054e-07	212.49	81.184	63.936	27.076	3.5276e-07	32.947	113.201	-45.830	-78.111	-123.248	-22.666	50.611	-124.710	-117.595	3.232	-55.310	-120.093	-117.050	-114.716	-109.544	-15.430	-113.023	-8191	255	
4056.856	1	1	0	0	0.25179	0.25787	0.14526	0.068517	0.11724	0.093961	0.13591	0.12444	0.25967	0.17639	0.2361	0.053971	0.025301	0.19388	0.17296	0.041752	-3.8063	-3.6833	-3.9521	-3.9	-3.5271	-3.8667	-4.0146	-3.4667	-4.1854	-3.5708	-3.7604	-4.1958	-3.6542	-4.0792	-3.8354	-3.7396	128.708	122.167	209.288	-66.036	-58.552	182.602	-114.993	206.809	-43.678	136.152	137.601	177.984	-83.065	-135.374	-116.531	221.176	0.00054601	4.0451e-05	4.9767e-05	587.04	1.061e-06	1.7012e-06	644.38	227.67	7.729e-07	1.0367e-06	293.13	113.39	94.252	38.88	1.757e-06	49.161	3.0385e-05	3.1862e-05	9.0227e-06	475.61	3.154e-07	3.5432e-07	532.05	177.94	3.1917e-07	3.5929e-07	211.01	80.223	63.548	26.938	3.5072e-07	32.773	124.606	143.242	-87.750	-123.382	-51.450	-9.510	-124.498	-117.976	118.529	-53.918	-119.995	-116.935	-114.938	-109.365	-25.586	-113.009	-8191	255	
4056.953	1	1	0	0	0.11354	0.044558	0.11493	0.064361	0.20833	0.28952	0.089876	0.066405	0.14711	0.21373	0.40349	0.11281	0.066314	0.20522	0.059358	0.20486	-3.9021	-3.7729	-3.6896	-4.1813	-3.7354	-3.9917	-4.1396	-3.65	-3.9562	-3.7562	-3.7438	-4.2604	-3.7396	-3.9125	-4.1271	-3.6875	-28.873	169.878	-12.583	192.702	-104.779	-4.523	78.553	221.602	-58.358	179.927	223.653	182.996	-50.962	-103.886	-36.256	191.759	0.00054475	0.00011145	5.3073e-05	588.91	1.2912e-06	1.1979e-06	649.94	229.27	2.7278e-07	1.117e-06	294.39	114.52	95.045	39.055	1.2822e-06	49.683	3.1133e-05	3.3275e-05	8.7383e-06	475.15	3.2156e-07	3.6028e-07	533.74	178.41	3.207e-07	3.52e-07	211.72	80.815	63.8	27.054	3.2445e-07	33.019	113.000	-45.153	-120.577	-123.563	-77.227	33.681	-124.634	-117.835	94.201	-50.386	-120.402	-116.659	-115.158	-109.395	-11.057	-113.206	-8191	255	
4057.049	1	1	0	0	0.04891	0.23939	0.083351	0.10327	0.29886	0.15403	0.12027	0.18045	0.16557	0.0212	0.1127	0.10386	0.16026	0.080451	0.14525	0.086282	-3.7479	-3.9583	-3.6958	-4.2875	-3.3729	-3.9146	-4.1229	-3.6667	-3.9104	-3.8625	-3.5625	-4.0792	-3.7771	-3.7583	-4.0479	-3.7104	-112.564	105.651	136.388	43.664	116.780	77.844	178.697	98.915	204.398	153.386	199.958	-129.688	-64.950	-99.755	136.472	214.119	0.00060673	8.1917e-05	2.8951e-05	588.06	6.6787e-07	1.6604e-06	656.37	230.51	1.3342e-06	2.2435e-06	295.74	114.83	95.28	39.282	1.3716e-06	49.778	3.0929e-05	3.1828e-05	8.2357e-06	475.62	3.2883e-07	3.4498e-07	535.68	178.86	3.3467e-07	3.4647e-07	212.75	81.174	64.176	27.181	3.2345e-07	33.215	120.727	-98.730	-73.536	-123.509	-92.518	-33.376	-124.664	-117.916	-84.459	-24.346	-120.058	-116.730	-114.976	-109.292	-53.890	-112.937	-8191	255	
4057.145	1	1	0	0	0.26845	0.14216	0.13205	0.13481	0.38081	0.25846	0.085381	0.13221	0.043899	0.19747	0.1286	0.013542	0.19177	0.22834	0.16337	0.25067	-3.6792	-3.7833	-3.6229	-4.1083	-3.6521	-3.6896	-4.1354	-3.7083	-3.8771	-3.7438	-3.5062	-4.0104	-3.7292	-3.8167	-4.0896	-3.6417	-119.411	212.891	46.693	201.916	212.618	23.673	60.255	214.428	-111.938	-41.256	156.937	130.741	-135.503	160.256	153.615	165.876	0.00066924	0.00014938	1.6705e-05	592.27	1.175e-06	1.2886e-06	654.14	229.02	1.0916e-06	9.3823e-07	295.79	114	94.88	38.808	2.8111e-07	49.116	3.3033e-05	3.1777e-05	8.2093e-06	478.03	3.5269e-07	3.4444e-07	537.71	178.83	3.5669e-07	3.3809e-07	212.17	80.498	63.795	26.806	3.1775e-07	32.713	113.799	-18.684	-86.846	-123.542	213.416	22.278	-124.639	-117.593	-90.540	-11.246	-120.109	-116.544	-114.917	-109.657	-3.657	-112.893	-8191	255	
4057.241	1	1	0	0	0.2951	0.16989	0.08354	0.21982	0.2147	0.13238	0.13589	0.15738	0.21359	0.30914	0.20239	0.1592	0.1279	0.063083	0.033442	0.029308	-3.6333	-4.0167	-3.2896	-3.9979	-3.8042	-3.5104	-4.1667	-3.5625	-3.9313	-3.9062	-3.6375	-4.0479	-3.7229	-3.8812	-4.0875	-3.775	-32.873	-36.379	80.730	-101.593	-33.388	-67.438	-47.570	99.930	-98.486	174.167	138.995	-41.791	135.169	-119.559	78.174	-84.367	0.00041427	0.00018169	3.5794e-05	589.74	7.3985e-07	1.1804e-06	649.98	227.94	6.8795e-07	6.4322e-07	291.46	111.98	93.324	38.097	2.8692e-07	47.951	3.4528e-05	3.0878e-05	8.0351e-06	476.2	3.6448e-07	3.3784e-07	531.71	177.75	3.7336e-07	3.4065e-07	209.5	79.301	63.017	26.421	3.2297e-07	32.178	116.034	-97.324	-82.892	-123.420	10.201	6.322	-124.818	-117.837	63.605	-7.669	-120.195	-116.622	-115.093	-109.331	-80.026	-113.107	-8191	255	
4057.337	1	1	0	0	0.14348	0.32348	0.082673	0.21211	0.31611	0.31866	0.097297	0.080987	0.18687	0.10334	0.29689	0.15548	0.21272	0.21037	0.040504	0.12273	-3.5042	-4.2771	-3.5104	-3.9417	-3.7542	-3.6833	-4.1333	-3.6063	-3.7292	-4.0083	-3.6625	-4.1146	-4.0292	-3.7062	-4.0292	-3.7438	29.126	-105.419	101.658	-97.652	183.429	140.435	148.596	166.920	201.556	-27.937	146.160	190.376	143.366	-103.777	-11.324	-87.865	0.00056213	0.00014156	8.2976e-06	587.15	1.9963e-06	1.5867e-07	648.94	228.83	1.9381e-06	1.0862e-06	294.27	112.91	93.925	38.345	5.2235e-07	48.951	3.6004e-05	3.1402e-05	8.1617e-06	477.26	3.7223e-07	3.378e-07	532.22	177.94	3.6733e-07	3.3378e-07	211.05	79.972	63.472	26.618	3.1812e-07	32.691	117.363	-60.077	-83.985	-123.069	-36.892	-48.926	-124.567	-117.834	-8.989	-36.493	-120.100	-116.648	-114.771	-109.508	9.621	-112.963	-8191	255	
4057.456	1	1	0	0	0.22541	0.1778	0.21305	0.14602	0.14137	0.11659	0.11522	0.19354	0.099802	0.09904	0.13041	0.1468	0.094033	0.19635	0.04246	0.16209	-3.425	-4.0417	-3.5042	-3.9437	-3.8396	-3.6833	-4.3313	-3.8917	-3.6125	-4.2438	-3.6875	-4.0292	-3.8688	-3.5146	-4.0167	-3.7896	-56.992	182.782	185.526	96.545	76.787	83.945	86.592	178.967	150.091	148.234	118.793	137.806	-121.469	208.518	-87.653	-84.346	0.00055749	0.00010364	2.3593e-05	592.22	1.6046e-06	1.6056e-06	653.83	228.03	1.1445e-06	1.2965e-06	294.37	113.01	94.306	38.677	5.3141e-07	48.877	3.4747e-05	3.0617e-05	8.2493e-06	481.12	3.6695e-07	3.4165e-07	534.85	178.84	3.7088e-07	3.4442e-07	211.6	80.416	63.736	26.746	3.4928e-07	32.802	126.307	-59.114	-51.526	-123.236	-18.720	13.127	-124.613	-117.747	7.542	-23.282	-119.918	-116.737	-114.849	-109.289	-96.872	-112.945	-8191	255	
4057.552	1	1	0	0	0.2105	0.086629	0.13885	0.13883	0.21465	0.030091	0.11453	0.13197	0.18046	0.19709	0.24018	0.20718	0.33445	0.29288	0.18946	0.24995	-3.3688	-4.2	-3.6312	-4.0354	-4.0646	-3.5687	-4.0687	-3.8792	-3.8229	-4.1375	-3.6562	-3.9417	-4.1458	-3.6646	-4.0208	-3.9562	-113.193	-17.528	-25.644	162.588	195.687	-81.295	111.696	208.671	-120.553	17.240	137.310	135.635	211.380	147.100	-32.757	110.936	0.00059316	0.00016723	3.4066e-05	599.21	1.4334e-06	6.7712e-07	657.71	229.84	1.6506e-06	1.4538e-06	296.04	112.73	94.646	38.579	8.7272e-07	48.552	3.5509e-05	3.1347e-05	9.0903e-06	486.98	3.7174e-07	3.4902e-07	540.54	179.78	3.7768e-07	3.4522e-07	213.26	80.443	63.665	26.678	3.7635e-07	32.575	119.560	-65.792	-122.640	-123.478	-5.544	-25.508	-124.665	-117.882	10.720	-32.290	-120.279	-116.714	-114.885	-109.422	127.333	-112.462	-8191	255	
4057.648	1	1	0	0	0.22507	0.083814	0.1265	0.22076	0.078139	0.07044	0.12214	0.017505	0.10382	0.10128	0.19236	0.14376	0.028893	0.067737	0.13064	0.13564	-3.1646	-4.1917	-3.4729	-3.8354	-4.1021	-3.5062	-3.9313	-3.6417	-3.5875	-4.1396	-3.8563	-3.8646	-4.075	-3.7229	-4.1792	-3.9729	164.059	-51.154	-23.284	208.273	-39.028	91.560	93.350	52.755	89.074	63.395	122.186	-72.245	-29.987	-66.016	68.990	-111.624	0.00064384	0.00012571	4.6774e-06	598.35	1.202e-06	7.2687e-07	657.54	228.98	1.1537e-06	7.0627e-07	291.46	111.07	93.084	37.887	4.7745e-07	47.664	3.5137e-05	3.1087e-05	9.6343e-06	486.8	3.5979e-07	3.3766e-07	540.56	179.15	3.6101e-07	3.3678e-07	211.37	78.986	62.672	26.305	3.939e-07	32.048	119.887	-24.364	43.447	-123.298	-30.690	-76.110	-124.626	-117.851	-57.094	-62.091	-120.034	-116.401	-114.797	-109.373	8.551	-112.834	-8191	255	
4057.744	1	1	0	0	0.29176	0.21698	0.12892	0.21835	0.12842	0.36792	0.073136	0.22764	0.07166	0.19969	0.17371	0.27401	0.29493	0.12672	0.11081	0.21644	-3.2229	-3.9792	-3.7208	-3.7313	-4.3271	-3.6229	-4.075	-4.0208	-3.7354	-4.1	-3.8146	-3.7333	-4.1604	-3.5438	-3.7479	-4.0896	-114.802	6.548	-97.264	-56.196	18.746	-117.028	195.421	204.545	102.117	30.876	-126.350	-100.653	149.204	123.384	-42.965	-28.978	0.00043113	5.6624e-05	6.5011e-06	598.17	1.2139e-06	5.7396e-07	655.08	228.36	1.506e-06	5.7333e-07	295.21	112.08	93.506	38.393	1.544e-06	48.479	3.4025e-05	3.1077e-05	1.0017e-05	485.23	3.5221e-07	3.4275e-07	539.97	178.67	3.5191e-07	3.4242e-07	213.21	79.531	63.065	26.677	3.9084e-07	32.454	115.941	73.376	-40.922	-123.342	-58.954	-19.032	-124.495	-117.653	-42.807	34.926	-120.001	-116.562	-114.721	-109.396	-43.934	-113.030	-8191	255	
4057.865	1	1	0	0	0.26515	0.37091	0.17711	0.087038	0.18881	0.19804	0.21292	0.13469	0.066226	0.065342	0.085136	0.070784	0.019492	0.10806	0.28244	0.20453	-3.2521	-4.0062	-3.925	-3.675	-4.125	-3.7146	-4.1521	-4.0333	-3.4729	-4.0542	-3.7896	-3.7083	-4.2146	-3.8042	-3.7438	-4.0875	64.747	-21.938	27.468	131.830	-62.579	209.625	131.396	159.331	-130.086	112.835	-109.151	126.547	104.238	-121.083	-8.749	124.616	0.00057543	3.8871e-05	4.34e-05	594.16	2.3227e-06	1.5342e-06	660.06	229.37	7.1733e-07	8.1323e-07	297.75	114.35	94.906	39.172	1.6886e-06	49.713	3.2288e-05	3.2007e-05	9.7319e-06	482.5	3.3201e-07	3.4676e-07	541.85	179.77	3.2836e-07	3.4767e-07	214.85	80.964	64.012	27.177	3.6865e-07	33.126	118.543	180.810	-123.245	-123.314	-68.360	-21.449	-124.649	-117.716	-1.122	-3.696	-120.164	-116.536	-114.972	-109.156	15.687	-113.089	-8191	255	
4057.937	1	1	0	0	0.094756	0.20393	0.33984	0.27395	0.14976	0.22848	0.085452	0.22907	0.051352	0.035068	0.16079	0.10478	0.32744	0.072101	0.27655	0.07491	-3.3104	-3.9229	-3.8979	-3.6104	-4.1333	-3.7	-3.8958	-4.1708	-3.4958	-3.9896	-3.9917	-3.5771	-4.1125	-3.7438	-3.6688	-3.9667	-87.724	204.734	-83.811	128.259	171.331	63.527	-91.736	142.687	91.922	-104.969	155.045	-103.751	203.364	-135.636	-21.753	148.174	0.00050994	6.2834e-05	3.4043e-05	594.61	1.054e-06	1.2272e-06	663.83	232.41	1.3945e-06	1.5993e-06	301.41	116.12	96.499	39.855	1.3568e-06	50.342	3.036e-05	3.1764e-05	9.0406e-06	481.32	3.0574e-07	3.4707e-07	543.56	181.1	3.1022e-07	3.4723e-07	216.4	82.271	64.845	27.632	3.3469e-07	33.608	119.479	-59.899	-80.089	-123.391	16.787	-78.220	-124.460	-117.939	-70.404	-17.645	-120.216	-116.687	-114.827	-109.342	-27.820	-113.022	-8191	255	
4058.033	1	1	0	0	0.078586	0.078381	0.09858	0.19621	0.085083	0.25677	0.029014	0.21583	0.18993	0.071044	0.16392	0.039804	0.13285	0.16872	0.054249	0.10191	-3.1729	-3.9708	-4.0083	-3.5292	-3.9583	-3.6021	-3.7687	-4.2625	-3.4875	-3.7583	-3.9688	-3.5083	-3.9479	-3.8688	-3.6083	-4.1104	-133.617	-111.394	-20.674	-116.996	92.549	222.891	-121.372	209.010	-65.762	-39.722	-108.712	40.844	-125.511	-134.170	-69.812	11.172	0.00063231	0.0001154	3.8728e-05	592.35	9.9827e-07	1.5121e-06	657.2	231.46	1.722e-06	1.673e-06	299.18	114.82	95.289	39.158	9.3231e-07	49.414	2.9048e-05	3.0918e-05	8.2442e-06	477.97	3.0026e-07	3.4091e-07	539.5	179.97	3.0486e-07	3.4262e-07	214.03	80.92	64.076	27.14	3.2066e-07	32.865	118.700	-48.241	-103.087	-123.343	-30.250	-30.819	-124.668	-117.495	-21.704	17.434	-120.174	-116.656	-114.987	-109.303	-7.363	-112.943	-8191	255	
4058.129	1	1	0	0	0.055871	0.11385	0.11064	0.10131	0.15736	0.13576	0.013798	0.12449	0.060612	0.23503	0.09158	0.11616	0.14842	0.034915	0.081754	0.060635	-3.2021	-3.8875	-4.0354	-3.6354	-4.0396	-3.8187	-3.7833	-4.0312	-3.6917	-3.6417	-4.0062	-3.7042	-4.0437	-3.9917	-3.7292	-4.0396	-60.082	-46.616	50.355	222.575	186.018	123.683	186.910	163.258	-30.041	84.706	-109.863	-112.698	30.028	-58.322	170.938	-20.233	0.00067213	0.00020288	1.2275e-05	586.78	1.296e-06	1.3922e-06	653.65	230.86	8.1364e-07	9.4062e-07	296.07	114.02	94.895	39.139	9.4382e-07	49.765	3.057e-05	3.1827e-05	8.0262e-06	474.76	3.2012e-07	3.4644e-07	534.98	178.94	3.2947e-07	3.4278e-07	212.59	80.502	63.923	27.117	3.1492e-07	32.911	113.492	-39.371	-97.274	-123.334	-70.187	-8.660	-124.756	-117.904	-97.306	-25.441	-119.965	-116.851	-115.138	-109.282	-20.515	-113.023	-8191	255	
4058.248	1	1	0	0	0.10228	0.25025	0.10415	0.098392	0.081206	0.20468	0.1621	0.13223	0.11102	0.11186	0.15381	0.21356	0.094605	0.16623	0.10674	0.089637	-3.3563	-3.675	-3.8875	-3.5708	-4.0437	-3.8625	-3.6042	-4.2438	-3.6333	-3.6833	-4.2583	-3.5708	-4.0208	-4.0417	-3.6458	-4.1062	-17.602	-94.641	151.764	-81.528	-25.009	-102.003	186.281	188.011	144.615	34.531	198.669	-93.968	143.327	16.098	-70.085	170.435	0.00051465	0.00010432	2.826e-05	588.84	7.8744e-07	9.0806e-07	655.75	231.89	1.146e-06	1.7415e-06	297.79	115.47	96.291	39.497	5.5103e-07	49.976	3.2066e-05	3.0627e-05	7.745e-06	474.9	3.3092e-07	3.235e-07	536.37	179.87	3.3231e-07	3.1856e-07	213.75	81.258	64.735	27.326	3.0527e-07	33.28	121.468	-63.691	-98.732	-123.386	-49.249	43.750	-124.389	-117.687	-43.926	-11.735	-120.272	-116.863	-114.894	-109.418	-80.557	-113.078	-8191	255	
4058.344	1	1	0	0	0.092627	0.25818	0.16851	0.11593	0.14149	0.19659	0.022871	0.15941	0.32713	0.016136	0.11232	0.22617	0.27404	0.18002	0.21353	0.13863	-3.2792	-3.6688	-3.9979	-3.6979	-3.9083	-4.2021	-3.8729	-4.1792	-3.9437	-3.7188	-4.2146	-3.5833	-3.9021	-4.1188	-3.4542	-4.1146	-126.183	-39.905	-40.599	191.497	-30.460	155.401	121.555	208.225	81.241	-15.334	198.961	191.599	186.177	188.855	-102.867	36.274	0.00067548	0.00017406	5.7385e-05	591.97	8.9486e-07	9.0978e-07	659.28	231.84	3.2869e-07	1.5384e-06	300.52	116.71	97.392	40.057	1.4699e-06	51.056	3.2966e-05	2.9039e-05	7.4897e-06	476.78	3.4327e-07	3.1345e-07	538.95	180.56	3.3798e-07	3.1141e-07	215.1	82.533	65.251	27.671	2.9041e-07	33.964	118.268	-41.178	-38.290	-123.348	-101.738	-38.017	-124.645	-117.873	-36.870	5.603	-120.047	-116.962	-114.980	-109.240	-42.035	-112.732	-8191	255	
4058.440	1	1	0	0	0.30121	0.17023	0.15719	0.037272	0.076167	0.29366	0.068124	0.28703	0.36267	0.28373	0.37114	0.056682	0.10498	0.066531	0.29456	0.073549	-3.2938	-3.6125	-4.1062	-3.7021	-3.7583	-3.9854	-3.5146	-3.9792	-3.8937	-3.5021	-4.2	-3.675	-3.7583	-4.0104	-3.6583	-4.0667	-112.112	-7.857	-78.909	-25.018	214.024	10.318	-99.780	213.868	-56.088	-39.310	111.407	191.333	-43.500	24.716	-75.980	196.102	0.00069882	8.9872e-05	3.3389e-05	592.99	7.8022e-07	9.5645e-07	661.18	233.09	8.6422e-07	2.0869e-06	299.82	116.31	96.997	39.842	3.2487e-07	50.401	3.1202e-05	2.7075e-05	7.011e-06	478.07	3.2011e-07	2.8997e-07	539.34	181.11	3.1043e-07	2.8362e-07	214.37	82	64.802	27.439	2.682e-07	33.518	126.921	-43.123	-120.801	-122.996	-74.878	1.474	-124.550	-117.766	-35.926	-26.284	-120.376	-116.975	-115.163	-109.416	-128.161	-112.905	-8191	255	
4058.536	1	1	0	0	0.11012	0.084998	0.11352	0.30367	0.17606	0.12376	0.09505	0.3059	0.10406	0.26015	0.05511	0.18162	0.13643	0.14741	0.087441	0.30159	-3.5438	-3.4104	-4.1521	-3.7708	-3.6604	-4.1771	-3.6917	-3.9396	-3.9458	-3.6396	-4.0729	-3.7771	-3.6208	-4.1667	-3.5	-3.9792	68.812	170.890	-63.893	207.340	-131.933	219.385	221.780	153.987	-16.832	-118.344	210.410	-27.075	193.925	184.543	22.729	177.529	0.00055324	9.3143e-05	1.0218e-05	589.54	1.27e-06	1.4122e-06	657.42	233.13	1.1803e-06	1.0916e-06	297.96	115.19	96.172	39.767	2.4415e-07	50.308	2.8886e-05	2.5051e-05	6.6271e-06	474.95	2.9518e-07	2.7016e-07	535.21	180.2	2.9072e-07	2.71e-07	212.99	81.386	64.261	27.303	2.701e-07	33.423	124.765	-73.805	-78.292	-123.175	-62.760	-12.923	-124.655	-117.898	1.602	38.218	-120.136	-117.024	-115.070	-109.356	-70.090	-113.063	-8191	255	
4058.633	1	1	0	0	0.15612	0.10476	0.094644	0.08579	0.33255	0.20207	0.20906	0.078275	0.28891	0.17529	0.26044	0.20591	0.045206	0.25271	0.24323	0.14954	-3.6042	-3.5292	-4.0125	-3.9313	-3.5333	-3.9792	-3.6333	-3.975	-3.8479	-3.5812	-4.0292	-3.8646	-3.6396	-4.2688	-3.7	-3.7896	202.775	-87.367	90.113	-17.580	-135.665	28.641	183.312	39.801	83.072	-77.780	151.497	184.178	152.030	-129.620	175.381	131.251	0.00056277	0.00014579	2.4882e-05	589.08	6.8714e-07	4.6313e-07	658.56	232.78	1.4444e-06	5.504e-07	298.65	115.95	96.327	39.752	1.1646e-06	50.152	2.7674e-05	2.4103e-05	6.9081e-06	475.51	2.8711e-07	2.6296e-07	537.65	180.82	2.8892e-07	2.6749e-07	214.3	81.643	64.52	27.42	2.9449e-07	33.594	111.831	-82.187	207.633	-123.288	-65.020	129.864	-124.585	-117.703	-64.568	-3.691	-120.091	-116.999	-115.351	-109.365	-16.681	-113.126	-8191	255	
4058.729	1	1	0	0	0.067553	0.16505	0.25861	0.10628	0.15327	0.034484	0.050921	0.13422	0.13473	0.29653	0.066835	0.10568	0.1455	0.2078	0.13103	0.054627	-3.6417	-3.3375	-3.8979	-3.9229	-3.6333	-4.1	-3.8833	-3.8604	-4.0271	-3.6688	-4.0646	-3.9167	-3.6542	-4.0667	-3.825	-3.8042	-67.219	134.938	-42.781	24.852	42.077	-87.361	-108.005	173.812	-90.493	71.943	-11.260	111.042	128.509	208.144	-85.131	133.768	0.00053513	0.000108	3.3198e-05	589.15	1.0441e-06	7.4891e-07	657.92	234	4.2559e-08	1.76e-06	301.25	116.16	96.866	40.3	3.1283e-07	51.292	2.7255e-05	2.3933e-05	7.3389e-06	475.08	2.781e-07	2.6237e-07	539.3	181.46	2.8006e-07	2.626e-07	215.97	82.174	64.687	27.709	3.0532e-07	34.009	116.968	-68.072	218.810	-123.310	-13.547	-6.136	-124.774	-117.941	7.994	-29.458	-119.942	-116.762	-114.746	-109.344	174.312	-113.034	-8191	255	
4058.825	1	1	0	0	0.17267	0.20162	0.23922	0.17358	0.30055	0.27874	0.26377	0.07347	0.12554	0.1059	0.24898	0.13356	0.12543	0.29444	0.11906	0.11516	-3.6729	-3.6833	-3.8875	-4	-3.5563	-4.0583	-3.9188	-3.7229	-4.2	-3.5771	-4.0854	-4.0417	-3.6437	-4.2042	-3.7812	-3.7271	-44.737	210.248	159.023	195.307	-94.737	114.172	102.827	-87.524	209.861	-78.321	208.980	217.152	177.058	-124.117	0.011	-114.601	0.0006104	8.1764e-05	3.3725e-05	592.08	1.6055e-06	2.5131e-07	660.48	234.11	5.0171e-07	1.5727e-06	302.08	116.31	96.318	40.131	1.054e-06	50.668	2.6611e-05	2.4456e-05	7.7275e-06	476.48	2.7595e-07	2.6557e-07	541.78	182.2	2.7494e-07	2.6748e-07	216.8	81.933	64.418	27.643	3.0938e-07	33.608	123.088	-10.021	-57.425	-123.293	7.757	-26.226	-124.583	-117.882	23.987	24.298	-120.174	-116.736	-115.073	-109.490	51.182	-113.311	-8191	255	
4058.945	1	1	0	0	0.11522	0.13454	0.25687	0.057324	0.082746	0.14104	0.046433	0.22844	0.11352	0.22596	0.04224	0.11484	0.20813	0.24888	0.19579	0.21512	-3.7104	-3.625	-3.8771	-4.0708	-3.5229	-4.15	-3.9437	-3.7938	-4.0687	-3.8125	-3.8792	-3.975	-3.4958	-3.9625	-3.7792	-3.7125	222.969	24.375	-74.708	215.607	140.876	-61.077	131.684	203.558	180.790	-81.395	58.722	51.592	173.213	-113.066	163.939	179.986	0.00070315	3.7297e-05	1.1599e-05	592.64	1.412e-06	6.2934e-07	655.11	232.94	1.4461e-06	4.2531e-07	297.49	113.69	94.322	39.275	1.3357e-06	49.578	2.5637e-05	2.4907e-05	7.6982e-06	474.66	2.6673e-07	2.7941e-07	538.59	180.35	2.6859e-07	2.8612e-07	213.48	80.081	63.24	27.073	3.1693e-07	32.92	128.377	-46.624	96.611	-123.585	-34.777	37.800	-124.456	-117.686	-24.578	-114.134	-119.930	-116.661	-115.140	-109.477	45.282	-113.059	-8191	255	
4059.042	1	1	0	0	0.063028	0.13339	0.048149	0.11597	0.076767	0.069737	0.10314	0.17926	0.13306	0.2345	0.14878	0.099875	0.096193	0.13105	0.14592	0.13074	-3.6937	-3.5938	-3.6667	-4.0125	-3.5479	-3.9313	-4.0958	-3.6625	-4.3646	-3.825	-3.8604	-4.1292	-3.6979	-3.9562	-3.8104	-3.6083	10.377	140.985	64.781	116.576	33.004	206.420	102.072	23.324	11.886	76.561	212.922	120.578	85.793	-110.020	144.170	-87.254	0.00063258	8.1374e-05	6.8181e-05	587.46	7.7718e-07	9.9406e-07	655.86	233.13	1.6808e-07	9.5134e-07	298.05	113.95	94.419	39.519	1.4785e-06	49.893	2.6462e-05	2.8039e-05	7.9639e-06	472.66	2.7724e-07	3.1181e-07	537.01	180.31	2.7838e-07	3.1571e-07	213.93	80.101	63.398	27.249	3.1598e-07	33.118	117.032	-47.698	-71.637	-123.233	-92.929	-97.152	-124.504	-117.832	-101.412	-1.555	-120.143	-116.878	-115.165	-109.514	-14.795	-112.974	-8191	255	
4059.138	1	1	0	0	0.18289	0.031177	0.23484	0.21293	0.077446	0.1555	0.12889	0.129	0.12792	0.11196	0.15307	0.048825	0.015782	0.13345	0.12194	0.12141	-3.8729	-3.6958	-3.6667	-4.0771	-3.6104	-3.8542	-4.0062	-3.7104	-4.0062	-3.8292	-3.6896	-4.2833	-3.4875	-3.9104	-3.9646	-3.4604	74.569	170.830	41.632	169.389	-27.974	44.975	-72.910	-131.638	-87.741	173.258	124.477	208.158	19.786	87.154	9.172	204.683	0.00065542	9.5908e-05	2.711e-05	587.99	5.9814e-07	5.4263e-07	655.57	231.56	1.0016e-06	3.7165e-07	298.54	114.66	94.848	39.721	1.1573e-06	50.425	2.7648e-05	2.9922e-05	7.9111e-06	473.4	2.8904e-07	3.3034e-07	538.02	180.32	2.9281e-07	3.3456e-07	214.8	80.574	63.652	27.445	3.0764e-07	33.406	116.682	-69.001	-84.184	-123.269	-104.134	57.282	-124.677	-117.717	-73.485	119.366	-120.220	-116.845	-114.860	-109.408	-28.014	-112.731	-8191	255	
4059.234	1	1	0	0	0.37111	0.18147	0.22615	0.26164	0.11046	0.13326	0.17163	0.26456	0.065767	0.066652	0.15853	0.20181	0.15481	0.19315	0.22991	0.26354	-3.575	-3.8396	-3.5479	-4.2854	-3.7438	-3.85	-3.9938	-3.5771	-3.9375	-3.9	-3.5396	-4.2542	-3.6042	-3.8083	-4.1354	-3.6104	-133.754	-108.362	38.125	-31.284	119.394	-25.256	168.033	206.120	182.575	23.039	152.783	124.057	128.965	111.504	209.296	164.846	0.00062724	0.00013873	4.8688e-05	591.46	8.838e-07	1.4224e-06	660.74	232.93	5.2244e-07	1.1647e-06	300.45	114.47	95.17	39.892	6.7922e-07	50.485	2.9336e-05	3.0216e-05	7.7784e-06	475.36	3.0768e-07	3.2963e-07	541.03	181.25	3.1796e-07	3.3037e-07	215.75	80.896	64.047	27.555	3.0753e-07	33.553	121.845	-65.281	-102.459	-123.246	46.398	-40.710	-124.673	-117.592	-42.318	-10.101	-120.043	-116.601	-114.695	-109.248	0.182	-112.849	-8191	255	
4059.330	1	1	0	0	0.22572	0.055005	0.08785	0.25064	0.2914	0.02363	0.19261	0.37042	0.24078	0.076675	0.21492	0.20489	0.11684	0.13146	0.027693	0.22565	-3.5938	-3.9042	-3.5	-4.1104	-3.6646	-3.7854	-4.1813	-3.7917	-3.7917	-3.9792	-3.7854	-3.9625	-3.8729	-3.6625	-3.9771	-3.6146	-102.742	-86.657	-17.720	-83.828	156.836	138.472	213.128	179.281	-80.172	35.696	-119.780	88.238	142.491	-97.399	170.451	-17.504	0.00066043	9.0686e-05	4.8912e-05	589.1	7.3826e-07	1.5634e-06	653.14	231.77	5.4737e-07	1.7622e-06	296.43	112.78	93.833	38.965	5.6583e-07	49.23	3.1675e-05	3.0046e-05	7.8206e-06	474.6	3.3225e-07	3.265e-07	536.17	179.91	3.3631e-07	3.2346e-07	212.77	79.612	63.218	26.984	3.073e-07	32.726	114.603	-42.505	-70.328	-123.525	164.978	-7.646	-124.585	-117.731	29.653	-41.643	-120.319	-116.848	-114.931	-109.533	-102.175	-112.620	-8191	255	
4059.424	1	1	0	0	0.19717	0.14976	0.21387	0.38313	0.14151	0.042576	0.12202	0.15093	0.1343	0.071146	0.13944	0.094672	0.07261	0.078027	0.20613	0.15676	-3.4667	-3.9062	-3.6625	-3.9958	-3.7562	-3.6333	-4.1667	-3.7229	-3.8583	-4.0312	-3.5708	-4.0396	-3.8208	-3.5896	-4.225	-3.6792	-32.797	55.234	-106.626	202.717	-7.090	-83.802	213.543	81.521	217.681	-31.886	121.083	-110.577	212.995	141.452	78.672	100.599	0.00056197	8.8338e-05	6.123e-05	585.48	8.0194e-07	1.3583e-06	651.72	230.11	9.8195e-07	3.029e-07	294.31	111.87	93.612	38.947	1.3986e-06	49.115	3.3476e-05	3.0124e-05	7.8491e-06	471.31	3.5674e-07	3.3059e-07	532.69	178.87	3.6011e-07	3.244e-07	211.03	78.998	63.063	26.863	3.0216e-07	32.788	124.572	-118.035	-92.639	-123.489	190.499	-54.788	-124.553	-117.980	-77.164	27.282	-120.236	-116.792	-114.977	-109.368	35.332	-113.035	-8191	255	
4059.545	1	1	0	0	0.15669	0.095947	0.1558	0.067062	0.096491	0.034263	0.21526	0.34135	0.18975	0.16755	0.2227	0.067458	0.21666	0.13333	0.20079	0.090052	-3.4667	-4.0792	-3.6229	-3.8583	-3.8875	-3.6146	-4.1708	-3.6937	-3.7729	-4.0229	-3.6292	-3.9646	-3.9583	-3.6042	-4.15	-3.7979	-33.628	56.039	-54.197	-52.326	59.142	160.063	133.987	222.118	-98.416	-88.029	-123.832	80.243	128.135	52.695	45.591	90.895	0.00061868	0.00014745	4.3878e-05	585.13	1.8381e-06	9.6954e-07	653.2	230.36	1.1624e-06	8.3882e-07	294.28	112.28	93	38.909	7.3952e-07	49.644	3.3796e-05	2.9105e-05	7.6564e-06	473.42	3.4885e-07	3.219e-07	533.26	179.6	3.535e-07	3.2282e-07	211.73	79.482	63.063	26.915	3.0896e-07	32.955	123.946	-58.828	-89.135	-123.308	17.081	-70.560	-124.512	-117.716	-20.903	161.266	-120.212	-116.739	-114.917	-109.373	5.735	-113.185	-8191	255	
4059.641	1	1	0	0	0.09473	0.16705	0.080931	0.28631	0.21607	0.18371	0.1531	0.25765	0.086861	0.10686	0.15359	0.1641	0.20847	0.1678	0.16999	0.13859	-3.4667	-3.9458	-3.6979	-4.1417	-3.7917	-3.6292	-4.2396	-3.7896	-3.7958	-3.9896	-3.5833	-3.9292	-4.0021	-3.55	-4	-3.7667	-130.845	179.134	-77.984	124.088	173.111	49.110	124.354	170.806	126.046	122.380	191.977	191.085	16.392	-121.805	-2.513	81.380	0.0006125	0.00013377	2.5095e-05	588.57	1.2446e-06	9.7197e-07	654.52	231.68	1.8653e-07	1.5333e-06	296.86	112.77	93.32	39.248	9.589e-07	49.701	3.3825e-05	2.9798e-05	7.9232e-06	476.82	3.5081e-07	3.2287e-07	536.27	180.33	3.4749e-07	3.2071e-07	213.1	79.924	63.14	27.128	3.1732e-07	33.308	117.496	-57.273	-95.352	-123.350	-56.941	-41.120	-124.459	-117.762	-43.894	-33.102	-120.278	-116.912	-115.099	-109.073	2.665	-112.589	-8191	255	
4059.737	1	1	0	0	0.09719	0.16278	0.15459	0.18455	0.1216	0.12132	0.088771	0.19268	0.27374	0.1612	0.21296	0.32131	0.27874	0.064214	0.095514	0.11857	-3.3729	-4.1292	-3.6312	-3.9167	-3.7687	-3.6208	-4.0896	-3.7562	-3.725	-4.075	-3.8	-3.7479	-4.0125	-3.6146	-3.95	-3.825	-20.136	77.741	110.631	74.122	105.483	-115.373	-10.996	54.689	-81.259	181.568	32.009	201.771	134.276	-95.491	92.641	-120.393	0.00071885	0.00010504	1.4704e-05	587.22	1.2573e-06	9.8859e-07	654.49	230.56	1.3059e-06	1.0827e-06	294.5	112.14	92.637	38.683	2.4377e-07	48.795	3.2492e-05	2.8428e-05	8.1628e-06	476.96	3.361e-07	3.1487e-07	536.85	180.35	3.3809e-07	3.0816e-07	212.38	79.442	62.439	26.735	3.3873e-07	32.738	118.501	-92.469	131.387	-123.407	-54.194	24.974	-124.584	-117.825	-20.707	5.093	-120.119	-116.651	-114.929	-109.302	-56.121	-112.785	-8191	255	
4059.809	1	1	0	0	0.22264	0.21218	0.25387	0.21723	0.12197	0.17302	0.16932	0.090549	0.12324	0.069566	0.18023	0.013994	0.26874	0.32425	0.3122	0.042657	-3.1896	-4.0417	-3.7625	-3.8146	-4.2958	-3.4875	-4.125	-3.9729	-3.4792	-4.0938	-3.7042	-3.8438	-4.0271	-3.6604	-3.9813	-4.0708	-24.600	218.229	-6.139	-88.925	197.966	50.084	173.357	-58.288	7.750	-110.728	-108.890	203.856	195.890	204.802	54.403	-70.944	0.000547	5.5813e-05	1.8473e-05	582.32	7.3467e-07	1.4336e-06	646.7	228.96	8.5441e-07	1.8704e-06	291.49	110.44	92.205	38.416	2.6944e-07	48.658	3.2033e-05	2.7742e-05	8.6326e-06	472.6	3.2558e-07	3.0833e-07	532.1	178.4	3.3203e-07	3.0434e-07	210.78	78.375	62.063	26.53	3.5622e-07	32.537	113.674	-84.094	199.396	-123.466	6.701	-24.018	-124.577	-117.730	-69.577	-40.081	-120.244	-116.744	-114.845	-109.416	-97.054	-112.848	-8191	255	
4059.930	1	1	0	0	0.215	0.1575	0.15195	0.12804	0.069152	0.23313	0.19192	0.29817	0.11272	0.10783	0.12058	0.13372	0.22654	0.23158	0.23862	0.1314	-3.1771	-3.9646	-3.8292	-3.6604	-4.1771	-3.4396	-3.9375	-4.0646	-3.4479	-4.0062	-3.9938	-3.8375	-4.1438	-3.4813	-3.7979	-4.0271	-91.141	154.223	95.392	67.829	-124.005	132.372	217.929	195.178	51.603	117.481	169.854	-112.018	136.651	200.256	222.357	184.787	0.00048053	8.8303e-05	2.4366e-05	579.24	1.7335e-06	1.494e-06	651.02	228.79	1.7929e-06	9.7044e-07	293.82	111.18	92.685	38.633	1.1574e-06	48.962	3.1253e-05	2.842e-05	9.1764e-06	471.21	3.2141e-07	3.1206e-07	534.55	178.65	3.1974e-07	3.1865e-07	212.36	78.911	62.348	26.78	3.7328e-07	32.716	126.938	222.858	-78.366	-123.355	-67.846	-5.485	-124.376	-117.832	-39.370	-24.980	-120.222	-116.799	-114.898	-109.635	32.862	-112.810	-8191	255	
4060.026	1	1	0	0	0.22589	0.074238	0.19877	0.11738	0.10821	0.078605	0.062741	0.25208	0.19978	0.36424	0.084609	0.24524	0.39007	0.29991	0.11731	0.11841	-3.2188	-4.0667	-3.6708	-3.7021	-3.8812	-3.6646	-3.8604	-3.9542	-3.4729	-3.9813	-3.8937	-3.8354	-4.1667	-3.7854	-3.7333	-4.0042	174.335	30.409	6.672	189.088	-47.959	-0.762	143.223	212.581	31.439	47.068	46.114	148.705	-105.551	200.716	-81.894	171.678	0.00057629	9.3136e-06	4.1207e-05	584.36	1.1393e-06	1.0941e-06	654.03	229.18	6.3808e-07	7.6595e-07	295.4	111.57	93.263	39.048	1.9398e-06	49.514	3.1307e-05	3.0378e-05	9.5708e-06	473	3.2053e-07	3.4237e-07	536.51	179.02	3.2448e-07	3.4746e-07	213.53	79.161	62.571	27.006	3.7795e-07	33.029	112.295	-30.966	-89.269	-123.349	-97.466	26.262	-124.631	-117.854	-95.428	-94.915	-120.370	-116.754	-114.888	-109.413	-35.377	-112.895	-8191	255	
4060.122	1	1	0	0	0.18672	0.28243	0.17544	0.098193	0.10384	0.11702	0.077207	0.098787	0.10641	0.2601	0.061209	0.24633	0.18044	0.11348	0.16788	0.045303	-3.2125	-3.9583	-3.7188	-3.5187	-4.0458	-3.5042	-3.8333	-3.9792	-3.5438	-3.9021	-3.9021	-3.4562	-4.1104	-3.6917	-3.5229	-3.9062	186.716	122.753	195.756	120.616	48.822	-33.653	99.949	-5.022	57.198	-131.504	59.417	-119.079	-95.479	119.531	29.440	103.607	0.00062113	0.0001145	7.315e-05	587.88	7.0079e-07	8.1514e-07	651.94	230.18	1.0488e-06	6.8949e-07	297.55	112.32	93.401	38.937	7.5029e-07	49.313	3.0949e-05	3.2998e-05	9.4289e-06	474.45	3.2054e-07	3.6565e-07	538.58	179.79	3.2138e-07	3.6302e-07	214.45	79.597	62.715	26.986	3.6174e-07	32.826	128.366	104.161	-129.766	-123.156	3.412	93.021	-124.450	-117.740	-78.177	-2.999	-120.083	-116.483	-115.061	-109.429	-20.357	-113.074	-8191	255	
4060.218	1	1	0	0	0.12776	0.14282	0.10816	0.1829	0.17582	0.26588	0.11783	0.22668	0.17467	0.053811	0.049611	0.19422	0.17834	0.16635	0.067802	0.1077	-3.2292	-3.9021	-3.8125	-3.7771	-3.9125	-3.7042	-3.6354	-4.1438	-3.65	-3.9354	-4.0437	-3.6188	-3.9854	-3.8458	-3.5625	-4.1438	86.593	41.902	165.961	-13.771	-9.407	145.201	120.342	156.344	-30.329	146.113	-109.681	132.087	137.438	174.730	57.097	203.003	0.0006284	0.0001145	5.0452e-05	582.03	1.8014e-06	2.8708e-07	647.21	228.54	8.6181e-07	2.2807e-06	292.48	110.27	91.755	38.158	4.555e-07	48.156	3.2039e-05	3.4503e-05	9.1938e-06	471.67	3.3478e-07	3.8259e-07	532.85	178.12	3.4045e-07	3.8342e-07	211.2	77.953	61.902	26.581	3.5478e-07	32.205	118.107	-96.507	-87.595	-123.411	-35.036	-81.045	-124.781	-117.979	-55.414	-19.044	-120.202	-116.625	-114.745	-109.362	1.261	-112.637	-8191	255	
4060.337	1	1	0	0	0.1574	0.12288	0.083399	0.1267	0.29697	0.025793	0.17193	0.23611	0.093858	0.2648	0.14744	0.1218	0.094005	0.11242	0.18709	0.10194	-3.1354	-3.8708	-4.0396	-3.525	-3.8333	-3.75	-3.7625	-4.1625	-3.3958	-3.8583	-3.9854	-3.4688	-4.0521	-4.05	-3.4375	-4.1729	-51.347	190.589	-7.209	207.334	-67.272	-17.239	145.779	182.334	95.653	-85.227	-105.069	46.275	-126.816	152.492	187.038	-85.146	0.00058056	6.8805e-05	5.4401e-05	580.67	8.0898e-07	1.6242e-06	641.99	226.18	1.6927e-06	1.2988e-06	291.19	109.1	91.293	38.021	1.8955e-06	48.117	3.3839e-05	3.5154e-05	9.0561e-06	470.7	3.6099e-07	3.9132e-07	530.07	176.94	3.7382e-07	4.0032e-07	210.26	77.583	61.808	26.533	3.671e-07	32.178	119.666	41.450	-73.157	-123.255	-34.045	-129.233	-124.578	-117.847	183.011	-45.240	-120.247	-116.421	-114.976	-109.518	-11.513	-112.938	-8191	255	
4060.410	1	1	0	0	0.18894	0.10331	0.12782	0.19386	0.13431	0.31963	0.18372	0.071812	0.10572	0.062595	0.12732	0.12709	0.3702	0.14863	0.11464	0.21505	-3.4021	-3.7583	-3.9708	-3.6646	-3.9104	-3.7583	-3.7021	-3.8646	-3.5979	-3.7875	-4.1042	-3.7313	-3.9813	-4.0312	-3.5104	-4.1542	147.512	13.196	-52.343	122.725	10.945	110.637	167.763	87.384	-42.038	-74.812	-86.109	205.758	190.551	-53.183	142.837	157.902	0.00053937	6.1657e-05	4.185e-05	581.21	6.4302e-07	2.1438e-06	650.3	228.45	1.3897e-06	1.0861e-06	293.74	110.39	92.074	38.652	1.4194e-06	48.893	3.6716e-05	3.5288e-05	8.9185e-06	470.5	3.8513e-07	3.792e-07	531.94	178.1	3.8688e-07	3.7607e-07	211.49	78.24	62.415	26.793	3.4807e-07	32.671	119.953	-10.550	-86.392	-123.415	-2.125	-56.028	-124.536	-117.798	-2.094	7.899	-120.007	-116.666	-114.984	-109.245	-11.509	-112.559	-8191	255	
4060.507	1	1	0	0	0.093608	0.060305	0.1422	0.14785	0.06718	0.029027	0.07226	0.092194	0.056076	0.22575	0.21694	0.26282	0.2581	0.048195	0.078674	0.18273	-3.3625	-3.5708	-4.1667	-3.7167	-3.8063	-3.9146	-3.6042	-4.0375	-3.7125	-3.6979	-4.0583	-3.8312	-3.9938	-4.0354	-3.4896	-3.9208	158.862	139.756	154.360	-89.068	-100.943	123.770	-128.693	-90.249	33.710	148.001	209.841	-22.722	-29.769	-79.996	161.199	176.799	0.0005345	0.00016009	5.2126e-05	580.68	1.6382e-06	1.256e-06	648.34	229.25	1.5673e-06	2.1814e-07	294.72	111.68	92.553	38.923	2.2069e-06	49.276	3.7175e-05	3.3716e-05	8.6388e-06	471.68	3.9363e-07	3.6402e-07	534.03	179.15	3.9903e-07	3.6522e-07	212.75	79.035	62.75	26.935	3.4218e-07	33.03	123.057	-35.567	-107.951	-123.080	-92.262	0.101	-124.471	-117.698	-93.106	167.837	-120.173	-116.643	-115.051	-109.042	-38.057	-112.808	-8191	255	
4060.625	1	1	0	0	0.041689	0.1751	0.22822	0.064673	0.24425	0.26771	0.1111	0.15661	0.042127	0.084117	0.030714	0.25125	0.061054	0.092033	0.14672	0.039506	-3.2979	-3.6604	-4.0625	-3.7188	-3.8104	-4.0312	-3.5438	-4.2167	-3.8937	-3.5979	-3.9729	-3.6604	-3.9271	-4.0563	-3.4313	-3.9042	179.549	-29.242	-57.850	64.329	71.431	-32.432	-100.845	73.241	102.815	-85.094	186.951	106.998	171.258	0.280	-125.212	158.242	0.00060528	0.00017029	3.0399e-05	582.63	1.0568e-06	1.2579e-06	647.62	228.86	1.6224e-06	1.4429e-06	292.01	110.15	91.366	38.104	8.1293e-07	48.091	3.7268e-05	3.2918e-05	8.5615e-06	472.99	3.9366e-07	3.5881e-07	531.99	178.51	3.9819e-07	3.6199e-07	210.12	78.377	62.058	26.495	3.4976e-07	32.395	116.415	-76.430	-61.995	-123.401	-81.584	-30.671	-124.368	-117.711	7.909	-45.203	-120.154	-116.545	-114.863	-109.251	-39.512	-112.817	-8191	255	
4060.722	1	1	0	0	0.19691	0.21458	0.17851	0.12436	0.12939	0.33684	0.1745	0.16704	0.15381	0.10442	0.13286	0.22452	0.12424	0.17282	0.096545	0.26295	-3.7083	-3.7229	-4.0938	-3.5958	-3.7417	-4.1083	-3.6208	-4.0271	-3.9833	-3.4437	-4.1104	-3.8708	-3.6792	-4.0917	-3.5833	-3.8083	222.582	97.297	202.775	-88.069	32.402	25.199	107.217	219.889	-26.530	-107.111	215.683	-128.539	193.995	-109.689	70.844	191.288	0.00061719	0.00019434	3.9486e-05	579.87	6.0981e-07	1.0229e-06	648.12	226.31	1.0966e-06	4.0294e-07	291.32	109.88	91.376	38.245	1.195e-06	48.51	3.7434e-05	3.3278e-05	8.6742e-06	470.9	3.8897e-07	3.5212e-07	529.29	177.69	3.7971e-07	3.4667e-07	209.56	78.292	61.99	26.513	3.4816e-07	32.573	128.250	-48.941	-56.517	-123.263	-92.770	-30.190	-124.524	-117.807	-83.272	-20.735	-120.145	-116.556	-114.900	-109.500	-109.929	-112.873	-8191	255	
4060.818	1	1	0	0	0.087347	0.1605	0.21008	0.23814	0.055238	0.12861	0.1267	0.30625	0.25873	0.072189	0.13492	0.059448	0.23407	0.052969	0.095409	0.052185	-3.5854	-3.5833	-3.9104	-3.6875	-3.6063	-4.0813	-3.6396	-3.9208	-3.9208	-3.5333	-4.0854	-3.9938	-3.75	-4.0583	-3.5833	-3.8875	-93.003	-23.437	-94.522	-2.844	-105.859	119.941	163.477	157.017	-85.003	33.881	132.032	89.010	130.305	165.858	-99.679	8.304	0.0004857	0.00011925	2.9837e-05	579.89	6.7496e-07	1.0564e-06	647.11	227.83	2.6962e-07	7.7632e-07	291.99	111.5	93.041	38.748	1.1716e-06	49.145	3.5019e-05	3.1425e-05	8.8818e-06	471.82	3.6902e-07	3.3564e-07	531.5	178.31	3.6396e-07	3.3436e-07	210.84	79.255	62.706	26.761	3.6069e-07	33.002	120.474	-24.964	-80.039	-123.476	1.958	-40.312	-124.654	-117.755	67.920	60.744	-119.877	-116.622	-115.112	-109.278	-93.024	-112.892	-8191	255	
4060.938	1	1	0	0	0.1265	0.28561	0.17673	0.10117	0.12236	0.014794	0.15404	0.16096	0.10302	0.20851	0.19096	0.31399	0.24742	0.12318	0.1852	0.12173	-3.5625	-3.4667	-4.025	-4.0354	-3.6375	-4.1771	-3.8167	-3.9188	-4.2417	-3.6188	-4.0167	-3.9208	-3.6792	-4.2708	-3.8083	-3.9208	-80.227	-18.709	48.715	206.531	206.235	-108.601	33.263	185.641	69.257	135.146	-114.547	180.106	-107.296	146.106	23.766	138.661	0.00061747	6.3842e-05	1.8573e-05	578.34	7.2287e-07	1.2505e-06	648.08	228.14	1.5863e-06	1.9935e-06	292.79	112.1	92.9	38.963	2.1579e-06	49.615	3.377e-05	3.0305e-05	9.2749e-06	471.37	3.5525e-07	3.2974e-07	534.17	178.81	3.6264e-07	3.3617e-07	211.86	79.537	62.743	26.96	3.9324e-07	33.224	119.489	-113.256	160.820	-123.511	-11.725	24.734	-124.517	-117.625	-21.033	23.433	-120.213	-116.778	-115.028	-109.272	-1.411	-112.802	-8191	255	
4061.035	1	1	0	0	0.075874	0.11502	0.23701	0.12936	0.19801	0.035385	0.11477	0.38437	0.15411	0.26442	0.26053	0.089874	0.078909	0.19869	0.072484	0.40888	-3.7521	-3.5083	-3.9208	-3.9229	-3.5812	-4.0021	-3.8229	-3.7646	-3.9417	-3.7917	-3.9771	-4.1854	-3.6104	-3.8771	-3.7708	-3.8771	49.694	222.358	-60.598	-54.967	1.518	31.783	145.844	-125.102	-47.443	-89.204	141.995	-79.521	-35.436	125.044	200.751	-110.284	0.00057377	8.8845e-05	1.9305e-05	579.37	8.2452e-07	5.778e-07	653.97	229.05	7.3092e-07	2.1526e-06	294.9	111.42	92.43	38.544	1.6818e-07	48.952	3.3678e-05	3.0612e-05	9.9417e-06	472.68	3.5057e-07	3.3652e-07	538.05	179.31	3.4722e-07	3.4323e-07	213.09	79.324	62.519	26.804	4.0365e-07	32.797	124.621	-48.844	112.924	-123.402	-24.009	202.083	-124.490	-117.737	-0.147	-43.908	-119.923	-116.595	-114.846	-109.407	209.784	-112.803	-8191	255	
4061.106	1	1	0	0	0.14417	0.029592	0.073133	0.25316	0.23897	0.13626	0.31755	0.19017	0.15096	0.069601	0.24592	0.097542	0.13491	0.15087	0.030971	0.22792	-3.7062	-3.6063	-3.7458	-3.8854	-3.6729	-4.0479	-4.0333	-3.825	-3.9771	-3.7417	-3.85	-4.2688	-3.5646	-3.9188	-3.7896	-3.7062	-33.110	16.722	158.564	-104.098	-127.821	126.651	-79.930	43.068	201.228	67.950	204.370	162.220	42.850	-135.427	-113.489	-10.653	0.00058888	6.9347e-05	1.514e-05	576.26	1.2707e-06	8.3488e-07	646.38	226.31	1.3205e-06	1.2271e-06	290.06	110.11	91.984	38.507	1.1963e-06	48.321	3.3158e-05	3.2917e-05	1.0247e-05	469.11	3.4836e-07	3.6341e-07	532.63	177.08	3.4392e-07	3.6157e-07	210.47	78.419	62	26.678	3.9563e-07	32.456	129.085	-121.011	-125.681	-123.160	-35.490	-115.145	-124.607	-117.759	-43.080	55.067	-120.202	-116.811	-114.740	-109.336	-29.928	-112.652	-8191	255	
4061.227	1	1	0	0	0.31844	0.054317	0.079868	0.21058	0.050207	0.072933	0.19123	0.068417	0.14157	0.11303	0.049999	0.090258	0.17812	0.17092	0.082776	0.29382	-3.6208	-3.7333	-3.7917	-4.0771	-3.6229	-4.2167	-3.9375	-3.5833	-4.1125	-3.8146	-3.8708	-4.1979	-3.7083	-3.9917	-3.825	-3.6875	-21.476	156.881	85.436	70.690	-68.194	143.003	140.595	43.618	114.120	-18.879	34.848	-113.509	153.439	-83.026	-11.280	185.655	0.00059204	0.00011577	3.2364e-05	577.52	5.1783e-07	1.2552e-06	646.64	225.75	1.5885e-06	1.6289e-06	290.15	110.49	91.804	38.364	2.2872e-06	48.507	3.2715e-05	3.4667e-05	9.9864e-06	468.61	3.4591e-07	3.9034e-07	532.26	176.75	3.4696e-07	3.9585e-07	210.5	78.292	61.894	26.713	3.9604e-07	32.595	122.289	-106.958	-51.563	-123.099	30.071	-119.917	-124.452	-117.806	-13.208	-61.049	-120.080	-116.578	-115.023	-109.041	-17.858	-112.779	-8191	255	
4061.321	1	1	0	0	0.26303	0.038833	0.19156	0.17421	0.20005	0.07583	0.11166	0.22273	0.10146	0.19958	0.14533	0.17401	0.22159	0.083878	0.14418	0.10085	-3.7583	-3.6937	-3.7833	-4.1458	-3.5354	-4.1375	-4.0062	-3.6125	-4.0437	-3.7646	-3.8333	-4.3021	-3.7146	-3.8833	-4.0146	-3.5083	220.386	46.134	-49.472	113.963	76.378	-49.509	158.093	174.913	81.480	-126.509	168.877	89.274	195.009	6.749	222.910	-72.806	0.00069651	7.611e-05	3.9695e-05	576.61	1.0505e-06	6.7392e-07	644.71	227.08	1.4172e-06	1.6988e-06	291.77	111.17	92.028	38.854	8.5382e-07	49.369	3.3773e-05	3.7555e-05	9.881e-06	469.34	3.6114e-07	4.0816e-07	532.64	177.54	3.6002e-07	4.0901e-07	211.21	78.898	62.529	27.013	3.798e-07	32.979	119.818	-65.637	-45.166	-123.485	-63.433	-87.022	-124.521	-117.719	-81.072	-28.229	-120.104	-116.826	-115.057	-109.426	-46.907	-112.751	-8191	255	
4061.417	1	1	0	0	0.034195	0.17212	0.056654	0.13231	0.28117	0.096305	0.06741	0.11511	0.40034	0.23691	0.15697	0.24198	0.061939	0.18718	0.10235	0.13045	-3.6333	-4.0167	-3.6562	-4.1937	-3.6583	-3.9271	-4.1312	-3.6417	-4.0563	-4.05	-3.6	-4.15	-3.8771	-3.7792	-3.9958	-3.7521	206.743	214.905	-74.268	153.906	130.357	190.938	-12.841	222.168	-78.351	120.236	135.447	4.581	121.008	204.695	-67.048	83.845	0.00074621	0.00013032	4.355e-05	579.86	1.2518e-06	9.9398e-07	643.95	226.67	9.5608e-07	1.5513e-06	292.79	112.04	92.373	38.988	1.4131e-06	49.855	3.5584e-05	3.8132e-05	9.7362e-06	470.33	3.8453e-07	4.1846e-07	533.29	177.73	3.9087e-07	4.158e-07	211.75	79.44	62.833	27.165	3.7299e-07	33.158	117.475	-13.026	-101.765	-123.461	-99.595	2.482	-124.580	-117.488	178.170	5.360	-119.996	-116.474	-115.069	-109.201	-20.867	-112.830	-8191	255	
4061.514	1	1	0	0	0.19103	0.10399	0.13427	0.24222	0.12969	0.13057	0.11186	0.14784	0.26591	0.22451	0.3996	0.051918	0.059273	0.10804	0.074672	0.15984	-3.4938	-3.7896	-3.5708	-4.1188	-3.4708	-3.6583	-4.0896	-3.5458	-3.8917	-3.9083	-3.7292	-4.1208	-3.7229	-3.6958	-3.9479	-3.6312	12.828	32.496	86.838	165.270	-53.467	-31.396	199.609	134.260	-8.715	54.878	-119.297	126.730	4.066	-51.903	-129.372	-106.174	0.00057506	0.00024502	3.0422e-05	580.14	2.3773e-07	1.2179e-06	647.47	226.08	7.0306e-07	4.9832e-07	291.86	110.89	91.656	38.369	1.2088e-06	48.492	3.7741e-05	3.6771e-05	9.3653e-06	469.71	4.0308e-07	4.0082e-07	531.58	176.36	4.0426e-07	3.948e-07	209.68	78.317	62.324	26.656	3.5788e-07	32.426	109.566	-37.799	-35.571	-123.297	-42.802	-3.901	-124.620	-117.891	-81.615	-56.876	-120.028	-116.575	-114.703	-109.173	-12.426	-112.995	-8191	255	
4061.634	1	1	0	0	0.13681	0.24768	0.13695	0.1325	0.15176	0.25597	0.30598	0.19071	0.29247	0.26303	0.11525	0.16401	0.29889	0.15597	0.025777	0.10911	-3.6188	-3.7125	-3.4562	-4.1937	-3.6833	-3.7771	-4.1208	-3.6354	-3.8604	-3.8979	-3.5771	-4.1125	-3.9062	-3.6667	-4.1312	-3.8604	212.256	-11.240	17.852	134.318	90.690	164.911	185.848	142.647	-52.386	-5.226	-56.330	182.281	150.232	205.823	15.433	107.291	0.00045816	0.00020785	4.0579e-05	573.39	1.0849e-06	1.7118e-06	643.65	224.33	1.0954e-06	2.8283e-06	287.67	109.21	91.303	38.01	9.8403e-07	48.339	3.9124e-05	3.5086e-05	9.1338e-06	466.31	4.1445e-07	3.8593e-07	527.79	175.43	4.2174e-07	3.8353e-07	208.1	78.084	62.107	26.497	3.6355e-07	32.437	127.044	-45.315	-43.168	-123.613	33.995	-39.500	-124.609	-117.921	-71.142	-11.519	-120.019	-116.610	-114.856	-109.234	2.429	-112.935	-8191	255	
4061.706	1	1	0	0	0.25295	0.052494	0.10084	0.12364	0.25405	0.20016	0.18742	0.16184	0.12657	0.2031	0.15642	0.036273	0.35912	0.14612	0.12529	0.25	-3.3667	-3.9437	-3.4146	-3.9917	-3.8458	-3.6146	-4.2688	-3.6271	-3.7542	-3.9938	-3.6229	-3.9646	-3.8896	-3.4667	-4.1	-3.6271	104.473	99.381	-16.715	-129.698	49.940	206.103	191.096	28.729	202.677	203.584	182.504	46.809	-129.034	169.696	119.419	126.602	0.00061189	7.7058e-05	1.9306e-05	574.7	2.451e-06	1.0323e-06	643.99	225.47	1.1668e-06	9.0577e-07	289.37	109.43	90.767	38.185	1.8409e-07	48.455	4.0603e-05	3.5226e-05	9.2437e-06	468.78	4.2584e-07	3.9097e-07	529.07	176.61	4.3187e-07	3.9072e-07	209.07	78.279	62.008	26.55	3.6822e-07	32.701	128.370	-78.377	-50.289	-123.527	-69.735	-58.312	-124.484	-117.893	-111.434	-28.333	-120.087	-116.638	-114.744	-109.279	-104.554	-112.952	-8191	255	
4061.802	1	1	0	0	0.2314	0.109	0.19242	0.10116	0.15599	0.0042946	0.19381	0.34246	0.16917	0.145	0.22986	0.24204	0.070244	0.13634	0.10416	0.15165	-3.4125	-3.9604	-3.3063	-3.9875	-3.7292	-3.5375	-4.2646	-3.5938	-3.6875	-4.1042	-3.6583	-3.9396	-3.9271	-3.5604	-4.0208	-3.9021	-14.678	170.330	63.802	-73.957	-16.966	-15.538	123.979	220.071	-85.431	34.725	153.009	131.904	98.953	187.985	71.324	190.442	0.00062209	0.00010262	3.8061e-05	575.48	1.476e-06	6.979e-07	643.64	225.91	8.9531e-07	1.2356e-06	290.07	109.92	90.948	38.264	1.0132e-06	49.075	4.0282e-05	3.5556e-05	9.5023e-06	471.45	4.3164e-07	3.9346e-07	530.77	177.75	4.3407e-07	3.9684e-07	210.49	78.905	62.11	26.652	4.0014e-07	33.054	128.380	-85.776	-12.053	-123.151	-60.707	32.678	-124.837	-117.516	73.695	-44.281	-120.308	-116.727	-114.844	-109.141	4.522	-112.848	-8191	255	
4061.898	1	1	0	0	0.31867	0.016269	0.34752	0.12498	0.015181	0.13587	0.057049	0.19769	0.10703	0.17206	0.15279	0.12895	0.21243	0.26648	0.050865	0.14455	-3.3896	-4.0021	-3.5583	-3.9146	-3.9792	-3.6042	-4.1958	-3.8271	-3.6229	-4.1188	-3.6688	-3.8625	-4.0021	-3.5542	-4.1375	-3.9271	61.558	88.220	-68.662	-99.556	-133.752	185.964	149.297	64.402	154.323	43.341	135.133	138.762	216.457	224.216	219.793	84.289	0.00055632	0.00012056	4.0936e-05	578.03	1.9239e-06	1.5299e-06	649.39	225.78	1.5943e-06	1.932e-06	291.42	109.76	90.409	37.82	6.3085e-07	48.179	4.0672e-05	3.6115e-05	1.0249e-05	475.37	4.3197e-07	4.0489e-07	535.75	178.2	4.3702e-07	4.0525e-07	211.12	78.554	61.619	26.385	4.3335e-07	32.544	120.580	-2.044	172.897	-123.368	-29.869	-35.203	-124.401	-117.714	-0.663	-8.482	-119.966	-116.739	-114.548	-109.239	-102.282	-112.627	-8191	255	
4062.019	1	1	0	0	0.13638	0.16154	0.05207	0.14675	0.054052	0.062201	0.21724	0.10493	0.35375	0.24206	0.035157	0.20657	0.12549	0.27304	0.16026	0.17029	-3.2188	-4	-3.5771	-3.9271	-3.9896	-3.5438	-4.1	-3.7979	-3.6458	-3.9604	-3.9188	-3.8104	-4.075	-3.4562	-3.9	-3.9729	-15.982	154.360	100.946	46.292	-78.877	-8.509	208.175	218.247	223.381	-52.884	-102.473	206.529	-68.282	-127.058	-35.643	188.389	0.00061192	0.00013394	7.7384e-06	573.9	1.4785e-06	5.9255e-07	639.06	223.79	1.7928e-06	1.5979e-06	284.06	107.15	89.546	37.26	6.7682e-07	47.196	4.0372e-05	3.5495e-05	1.1038e-05	470.75	4.1269e-07	3.8728e-07	529.11	176.28	4.1651e-07	3.8845e-07	208.45	77.115	60.942	25.962	4.6133e-07	31.959	126.640	-117.647	-113.001	-123.490	-47.994	-0.899	-124.597	-117.804	26.275	204.109	-120.168	-116.612	-114.787	-109.100	58.559	-112.773	-8191	255	
4062.115	1	1	0	0	0.054811	0.13906	0.14088	0.17968	0.28292	0.15578	0.18885	0.017034	0.10946	0.14416	0.16094	0.11156	0.024395	0.10082	0.12452	0.18785	-3.3521	-4.1458	-3.6063	-3.8417	-3.9958	-3.6375	-4.0687	-4.0542	-3.7125	-4.0771	-3.8229	-3.725	-4.1875	-3.7667	-3.8458	-4.1271	-12.095	40.680	69.712	-38.006	46.957	211.452	91.496	19.311	-55.105	218.726	-87.581	105.048	10.868	89.004	-95.507	140.525	0.0005495	0.00011845	2.3965e-05	570.61	1.8985e-06	1.0723e-06	634.55	224.12	1.4118e-06	1.0767e-06	286.61	107.55	89.468	37.596	2.2018e-06	47.817	3.9404e-05	3.6314e-05	1.1703e-05	466.88	4.1242e-07	4.0242e-07	527.87	175.78	4.0968e-07	4.0128e-07	209.69	77.298	61.04	26.215	4.664e-07	32.205	118.302	-62.739	-103.188	-123.468	-18.815	18.989	-124.313	-117.442	-17.208	1.623	-119.922	-116.632	-115.058	-109.269	18.771	-112.722	-8191	255	
4062.211	1	1	0	0	0.054984	0.27023	0.15507	0.044799	0.032404	0.12345	0.15304	0.16329	0.032362	0.22253	0.1465	0.24935	0.061864	0.20123	0.05726	0.22288	-3.3104	-4.125	-3.9042	-3.7229	-4.2042	-3.6104	-4.0146	-3.9458	-3.4979	-4.0083	-4.0146	-3.6875	-4.0521	-3.6854	-3.9583	-4.1042	55.426	155.093	-32.240	69.704	66.063	18.435	90.044	145.294	-122.542	121.137	187.701	172.904	-81.075	-34.224	86.002	196.469	0.00067812	0.00016134	3.1777e-05	572.25	1.2294e-06	9.3789e-07	639.99	222.87	8.9998e-07	1.2874e-06	287.62	108.59	89.551	37.671	2.1434e-06	47.884	3.8396e-05	3.7575e-05	1.1891e-05	467.93	4.0369e-07	4.2431e-07	530.4	175.79	4.122e-07	4.3308e-07	210.27	77.493	61.042	26.346	4.7095e-07	32.382	124.424	11.021	-98.556	-123.321	-93.718	76.401	-124.339	-117.663	-2.142	-48.449	-119.867	-116.491	-114.863	-109.282	9.012	-112.425	-8191	255	
4062.307	1	1	0	0	0.27473	0.12947	0.14308	0.1517	0.10042	0.22419	0.066065	0.15024	0.045623	0.15594	0.11125	0.12386	0.20696	0.25769	0.098051	0.071374	-3.3333	-4.0938	-3.95	-3.7438	-4.1562	-3.5938	-3.9021	-4.0833	-3.7729	-4.1438	-3.9958	-3.5833	-4.0667	-3.7146	-3.8187	-4.3063	150.165	107.977	184.228	91.865	-13.985	120.654	184.951	138.302	55.166	197.976	-0.300	69.635	172.261	-127.023	-84.495	218.466	0.00059583	0.000134	3.794e-05	571.35	1.5313e-06	1.4305e-06	637.62	223.69	5.2618e-07	7.7872e-07	290.61	109.24	90.507	37.978	1.3027e-06	48.715	3.8318e-05	4.0528e-05	1.1815e-05	467.07	3.9533e-07	4.5317e-07	529.64	176.47	4.0509e-07	4.5887e-07	211.59	77.97	61.358	26.594	4.5356e-07	32.756	122.260	223.024	-68.522	-123.157	-72.707	-69.005	-124.484	-117.339	-95.525	-96.071	-120.263	-116.289	-114.853	-109.007	-43.146	-112.613	-8191	255	
4062.402	1	1	0	0	0.42966	0.065039	0.070179	0.17998	0.18331	0.2775	0.080914	0.050774	0.033042	0.096279	0.11777	0.16303	0.12113	0.11981	0.048144	0.016068	-3.2146	-4.0458	-3.9854	-3.6417	-3.9146	-3.7875	-3.8438	-3.9583	-3.5208	-3.9062	-4.0646	-3.2625	-4.0542	-4.0292	-3.6667	-4.2021	190.866	68.299	-49.232	-121.063	4.839	162.035	118.406	202.953	106.107	35.921	198.531	72.296	45.974	87.897	95.816	179.167	0.00049997	0.00015712	2.4058e-05	570.01	5.4948e-07	1.7941e-06	640.22	224.7	9.4367e-07	3.2368e-07	287.56	106.86	88.213	37.342	2.7384e-06	47.466	3.8228e-05	4.2243e-05	1.1256e-05	466.26	3.9984e-07	4.6254e-07	530.17	175.96	4.1164e-07	4.6678e-07	209.62	76.709	60.424	26.186	4.3953e-07	31.914	129.003	-62.872	-78.572	-123.337	123.582	-0.548	-124.610	-117.538	-43.362	-112.729	-120.149	-116.743	-115.136	-109.157	-23.117	-112.634	-8191	255	
4062.500	1	1	0	0	0.096862	0.14741	0.24748	0.24637	0.25449	0.20913	0.33384	0.18067	0.14397	0.061702	0.21555	0.23758	0.11346	0.14148	0.15218	0.035319	-3.1875	-3.8937	-3.9667	-3.5896	-3.9604	-3.9333	-3.6688	-4.1312	-3.6458	-3.9417	-4.0854	-3.5208	-4.1125	-4	-3.5604	-4.2229	-125.171	-119.360	32.074	-81.288	-125.436	28.421	134.039	-96.700	161.438	17.085	177.470	42.288	173.407	-18.667	21.291	71.376	0.00065782	0.00028088	1.0269e-05	565.27	3.4893e-07	9.4869e-07	631.96	222.13	5.4362e-07	1.7733e-06	285.49	106.6	88.189	36.932	1.5285e-06	47.058	4.0158e-05	4.2903e-05	1.0786e-05	461.78	4.2208e-07	4.6096e-07	522.53	173.79	4.3108e-07	4.5563e-07	207.08	76.055	60.473	25.931	4.1162e-07	31.683	118.518	-78.882	-56.677	-123.580	38.890	-10.856	-124.438	-117.564	-108.583	-33.540	-119.805	-116.755	-114.795	-109.080	0.349	-112.894	-8191	255	
4062.618	1	1	0	0	0.20033	0.11238	0.37285	0.23058	0.076333	0.17847	0.31165	0.1632	0.20548	0.12446	0.03094	0.24585	0.11423	0.049535	0.18233	0.19658	-3.4729	-3.9417	-4.1396	-3.6479	-4.0583	-3.9396	-3.6604	-4.2063	-3.9021	-3.8292	-4.3354	-3.6937	-4.1458	-3.9625	-3.5604	-4.2417	153.946	-94.683	-35.881	-126.309	-11.918	91.212	85.924	-116.008	117.062	197.498	81.057	217.151	-104.676	-36.711	176.659	166.704	0.00063912	7.379e-05	6.6695e-05	565.48	2.3252e-06	6.9773e-07	631.98	221.65	1.6014e-06	1.6166e-06	284.91	106.25	88.699	37.215	2.3069e-06	47.388	4.1772e-05	4.1071e-05	1.0555e-05	460.77	4.5748e-07	4.5672e-07	523.16	174.17	4.7039e-07	4.5148e-07	207.3	76.281	60.839	26.001	4.115e-07	31.898	124.184	15.464	-35.656	-123.447	-46.046	1.479	-124.530	-117.650	-35.276	23.698	-120.262	-116.480	-114.886	-109.218	-40.971	-112.694	-8191	255	
4062.715	1	1	0	0	0.15695	0.28381	0.044437	0.1342	0.23057	0.25847	0.16538	0.16065	0.061118	0.079663	0.16358	0.43971	0.21074	0.15276	0.21019	0.091907	-3.45	-3.6063	-4.0938	-3.625	-3.85	-3.9896	-3.7521	-4.1229	-3.7	-3.7667	-4.1167	-3.6292	-3.9167	-3.8854	-3.4354	-4.0833	-122.869	-9.385	86.714	141.650	185.674	-134.466	62.248	134.457	169.980	31.123	-2.817	164.030	-93.084	-130.810	-73.887	-57.528	0.00063273	0.00012418	5.1127e-05	567.73	1.8271e-06	1.4724e-06	637.58	222.8	1.9176e-06	1.6628e-06	289.18	108.2	89.788	37.731	2.2797e-07	48.086	4.3622e-05	3.9142e-05	1.0069e-05	463.28	4.5672e-07	4.2028e-07	524.95	175.21	4.5647e-07	4.2113e-07	209.11	77.317	61.349	26.283	3.9311e-07	32.412	117.815	-74.833	-104.454	-123.072	-102.551	-10.460	-124.338	-117.924	31.454	13.883	-119.869	-116.536	-114.953	-109.191	-78.689	-112.595	-8191	255	
4062.811	1	1	0	0	0.19828	0.062041	0.069586	0.089631	0.10824	0.18938	0.24344	0.11635	0.036542	0.13302	0.17814	0.28239	0.072139	0.15734	0.098549	0.10956	-3.45	-3.3875	-4.075	-3.575	-3.8458	-4.025	-3.4646	-4.0437	-3.8917	-3.6104	-4.2208	-3.825	-3.9479	-4.0625	-3.5208	-4.0896	115.289	-75.193	-115.068	207.498	28.592	58.387	-117.559	129.348	-131.817	-64.814	190.219	220.732	133.890	155.112	0.495	165.370	0.00048543	7.6855e-05	3.3208e-05	570.23	8.1462e-08	1.7725e-06	637.73	224.49	1.4515e-06	2.8395e-06	289.68	109.42	90.116	38.118	6.2426e-07	48.74	4.3282e-05	3.8047e-05	9.8507e-06	465.55	4.5259e-07	4.0882e-07	527.24	176.38	4.5334e-07	4.1083e-07	210.06	78.203	61.787	26.525	3.831e-07	32.882	126.349	-22.865	-98.297	-123.417	53.308	-23.249	-124.792	-117.686	-51.785	-5.621	-119.846	-116.776	-114.646	-108.939	-29.062	-112.791	-8191	255	
4062.907	1	1	0	0	0.22845	0.21192	0.042708	0.030556	0.17703	0.074261	0.24311	0.077853	0.086588	0.1279	0.12268	0.37981	0.16109	0.16372	0.26835	0.059441	-3.6417	-3.6104	-4.1	-3.6188	-3.6979	-4.1604	-3.5396	-3.9271	-3.9021	-3.7021	-4.025	-3.7021	-3.5458	-4.1687	-3.4979	-3.9646	29.888	-8.367	29.932	104.463	-4.519	-49.863	105.904	-96.444	133.819	115.799	203.526	161.818	34.267	210.672	-65.884	-55.048	0.00053584	0.00015482	3.9601e-05	567.27	8.0245e-07	8.6019e-07	636.02	223.52	3.7228e-07	1.9412e-06	287.84	108.07	89.402	37.503	1.1154e-06	47.494	4.1439e-05	3.6644e-05	9.6699e-06	465.33	4.2699e-07	3.9596e-07	524.11	175.79	4.3563e-07	3.9933e-07	208.39	77.537	60.999	26.096	4.1383e-07	32.261	120.175	-33.935	-90.895	-123.229	22.728	-28.605	-124.453	-117.716	129.897	-4.876	-120.178	-116.575	-114.675	-109.258	-42.239	-112.716	-8191	255	
4063.003	1	1	0	0	0.073655	0.13038	0.18504	0.30491	0.11085	0.17127	0.19055	0.25788	0.082798	0.20681	0.073393	0.15242	0.36445	0.21666	0.15979	0.2798	-3.6208	-3.4917	-4.1542	-3.9708	-3.6729	-4.2604	-3.6583	-4	-4.0104	-3.55	-4.1562	-3.8292	-3.6562	-4.1708	-3.6167	-4.0229	-88.683	85.268	48.899	200.646	25.249	148.925	203.295	220.880	-109.192	195.775	-111.903	-100.760	206.779	2.234	93.573	133.422	0.00060639	9.8401e-05	3.8154e-05	561.31	1.6162e-07	2.1222e-06	629.07	221.45	1.4018e-06	1.6776e-06	283.37	106.97	88.434	37.073	1.6771e-06	47.41	4.2535e-05	3.9038e-05	1.1109e-05	463.16	4.7597e-07	4.5301e-07	524.16	176	5.2458e-07	5.1282e-07	210.03	77.923	61.709	26.304	6.2807e-07	32.735	127.940	23.000	200.562	-123.274	-100.509	18.011	-124.591	-117.710	-34.847	1.456	-120.051	-116.325	-114.815	-109.229	210.553	-112.797	-8191	255	
4063.099	1	1	0	0	0.08396	0.11061	0.071855	0.22526	0.30942	0.18391	0.080166	0.28585	0.1172	0.078574	0.1711	0.21201	0.035005	0.087806	0.18202	0.24467	-3.7125	-3.5104	-4.0208	-3.8708	-3.7062	-3.9979	-3.7979	-3.8125	-4.0604	-3.5708	-4.2021	-3.8896	-3.7042	-4.1396	-3.9479	-3.8625	48.930	-87.682	55.198	178.623	184.829	100.137	207.244	207.367	180.625	37.490	-91.982	166.015	-63.027	-135.553	119.952	98.805	0.00059368	8.078e-05	1.5506e-05	566.19	2.8616e-06	1.6714e-06	632.44	220.71	2.5578e-06	6.9216e-07	286.52	107.28	88.742	37.382	1.2186e-06	47.714	5.954e-05	5.6364e-05	1.6805e-05	474.47	6.5767e-07	6.2821e-07	534.52	177.97	6.5343e-07	6.2444e-07	213.68	78.701	62.178	26.583	6.9484e-07	32.999	117.567	-78.504	-106.186	-123.265	-55.036	-0.554	-124.606	-117.726	-50.063	-97.518	-120.178	-116.724	-114.738	-109.195	-122.834	-112.454	-8191	255	
4063.195	1	1	0	0	0.091692	0.17819	0.11257	0.23622	0.26399	0.30612	0.11941	0.043735	0.19191	0.2276	0.1234	0.025259	0.095256	0.033413	0.087921	0.078216	-3.6521	-3.6937	-4.1104	-3.8833	-3.5521	-4.1375	-3.8688	-3.7896	-4.1729	-3.5771	-4.0417	-4.0042	-3.7667	-4.175	-3.6646	-3.6875	152.171	-71.238	-7.508	-68.704	119.049	114.995	-110.491	-111.230	-91.605	-11.293	-70.056	150.306	142.653	-62.403	-119.431	-49.246	0.00054654	0.00016399	6.6687e-05	568.1	2.2229e-06	3.9364e-07	639.1	223.56	5.9513e-07	3.0712e-06	287.95	107.69	89.095	37.628	2.2052e-06	48.011	6.1661e-05	5.8699e-05	1.7885e-05	477.74	6.6952e-07	6.597e-07	541.4	179.98	6.865e-07	6.772e-07	216.42	79.37	62.68	26.806	7.3659e-07	33.263	133.717	-79.814	217.435	-123.349	-69.856	103.092	-124.501	-117.744	89.698	-0.019	-120.013	-116.754	-114.692	-109.275	-11.873	-112.920	-8191	255	
4063.316	1	1	0	0	0.04443	0.2245	0.10297	0.28021	0.011103	0.18289	0.087394	0.25553	0.15136	0.053376	0.072403	0.25681	0.12386	0.21129	0.1358	0.070621	-3.7979	-3.5917	-4.0771	-4.0292	-3.6458	-4.1979	-3.9521	-3.7083	-4.2312	-3.6396	-4.1125	-4.2229	-3.7375	-4.0896	-3.8083	-3.8937	-56.898	-46.892	183.446	-54.921	-98.399	-73.803	-71.885	-117.701	206.563	-113.551	136.752	170.500	208.999	-129.610	-55.410	216.546	0.00055913	6.8508e-05	2.3279e-05	569.75	2.6355e-06	6.9909e-07	640.49	224.39	1.1339e-06	1.1767e-06	290.47	108.7	89.48	37.686	1.2694e-06	48.055	6.1222e-05	6.0437e-05	1.8048e-05	476.53	6.2579e-07	6.3635e-07	541.47	179.21	5.8979e-07	6.0565e-07	215.91	78.904	61.938	26.729	6.212e-07	32.834	129.038	217.118	85.112	-123.421	-36.569	36.212	-124.518	-117.282	62.060	162.939	-119.775	-116.613	-114.836	-109.184	-5.063	-112.557	-8191	255	
4063.410	1	1	0	0	0.16014	0.02842	0.11436	0.18309	0.17088	0.15853	0.10744	0.033556	0.22886	0.14128	0.023887	0.23107	0.12557	0.082598	0.02829	0.17838	-3.8146	-3.6646	-3.8604	-4.1583	-3.7	-4.1792	-4.1167	-3.6583	-4.1396	-3.7125	-3.8312	-4.1146	-3.7354	-4.2271	-3.8042	-3.6646	22.992	40.874	-54.139	212.209	-37.472	52.319	-110.422	8.223	4.959	127.516	-93.289	168.169	8.641	-82.584	80.311	127.046	0.00062364	0.00010641	3.7497e-05	567.47	1.9346e-06	2.3452e-06	634.34	222.52	1.1903e-06	8.547e-07	287.22	105.01	87.195	36.994	2.209e-06	46.824	5.0833e-05	5.3505e-05	1.5234e-05	470.38	5.239e-07	5.6962e-07	532.27	176.83	5.0913e-07	5.6719e-07	211.55	76.367	60.303	26.174	5.7156e-07	31.954	124.447	-119.586	-113.116	-123.149	-46.627	-24.074	-124.546	-117.357	168.914	-109.659	-119.770	-116.429	-115.095	-109.343	28.294	-112.758	-8191	255	
#DATA ENDS
