BOXY.EXE: ISS Imagent and Oximeter Data Acquisition Program Version 0.80
Ascii Record File

#ACQ INFORMATION
2  Detector Channels 
16  External MUX Channels 
1  Auxiliary Channels 
5000  Waveform (CCF) Frequency (Hz)
1  Waveforms Skipped 
30  Waveforms Averaged 
1  Cycles Averaged 
16  Acquisitions per Waveform 
10.0806  Updata Rate (Hz) 

#FILE INFORMATION
TRUE -- External MUX Channel results are PARSED.
FALSE -- AC DC and Phase are NOT grouped.
TRUE -- Companion Program Settings File CREATED.
FALSE -- AC data not excluded
FALSE -- DC data not excluded
FALSE -- Phase data not excluded
FALSE -- Auxillary Chn. data not excluded
Tab delimiters

#CALIBRATION STATE
TRUE -- Waveform Calibration Values APPLIED.


#AUX CALIBRATION VALUES
Val Type	aux-1	

Term	1.0000e+00	
Factor	0.0000e+00	


#WF CALIBRATION VALUES
A = Detector Channel
Val Type	A-AC1	A-AC2	A-AC3	A-AC4	A-AC5	A-AC6	A-AC7	A-AC8	A-AC9	A-AC10	A-AC11	A-AC12	A-AC13	A-AC14	A-AC15	A-AC16	A-DC1	A-DC2	A-DC3	A-DC4	A-DC5	A-DC6	A-DC7	A-DC8	A-DC9	A-DC10	A-DC11	A-DC12	A-DC13	A-DC14	A-DC15	A-DC16	A-Ph1	A-Ph2	A-Ph3	A-Ph4	A-Ph5	A-Ph6	A-Ph7	A-Ph8	A-Ph9	A-Ph10	A-Ph11	A-Ph12	A-Ph13	A-Ph14	A-Ph15	A-Ph16	

Term	0.00000e+00	0.00000e+00	0.00000e+00	0.00000e+00	0.00000e+00	0.00000e+00	0.00000e+00	0.00000e+00	0.00000e+00	0.00000e+00	0.00000e+00	0.00000e+00	0.00000e+00	0.00000e+00	0.00000e+00	0.00000e+00	0.00000e+00	0.00000e+00	0.00000e+00	0.00000e+00	0.00000e+00	0.00000e+00	0.00000e+00	0.00000e+00	0.00000e+00	0.00000e+00	0.00000e+00	0.00000e+00	0.00000e+00	0.00000e+00	0.00000e+00	0.00000e+00	0.00000e+00	0.00000e+00	0.00000e+00	0.00000e+00	0.00000e+00	0.00000e+00	0.00000e+00	0.00000e+00	0.00000e+00	0.00000e+00	0.00000e+00	0.00000e+00	0.00000e+00	0.00000e+00	0.00000e+00	0.00000e+00	
Factor	1.00000e+00	1.00000e+00	1.00000e+00	1.00000e+00	1.00000e+00	1.00000e+00	1.00000e+00	1.00000e+00	1.00000e+00	1.00000e+00	1.00000e+00	1.00000e+00	1.00000e+00	1.00000e+00	1.00000e+00	1.00000e+00	1.00000e+00	1.00000e+00	1.00000e+00	1.00000e+00	1.00000e+00	1.00000e+00	1.00000e+00	1.00000e+00	1.00000e+00	1.00000e+00	1.00000e+00	1.00000e+00	1.00000e+00	1.00000e+00	1.00000e+00	1.00000e+00	X	X	X	X	X	X	X	X	X	X	X	X	X	X	X	X	

B = Detector Channel
Val Type	B-AC1	B-AC2	B-AC3	B-AC4	B-AC5	B-AC6	B-AC7	B-AC8	B-AC9	B-AC10	B-AC11	B-AC12	B-AC13	B-AC14	B-AC15	B-AC16	B-DC1	B-DC2	B-DC3	B-DC4	B-DC5	B-DC6	B-DC7	B-DC8	B-DC9	B-DC10	B-DC11	B-DC12	B-DC13	B-DC14	B-DC15	B-DC16	B-Ph1	B-Ph2	B-Ph3	B-Ph4	B-Ph5	B-Ph6	B-Ph7	B-Ph8	B-Ph9	B-Ph10	B-Ph11	B-Ph12	B-Ph13	B-Ph14	B-Ph15	B-Ph16	

Term	0.00000e+00	0.00000e+00	0.00000e+00	0.00000e+00	0.00000e+00	0.00000e+00	0.00000e+00	0.00000e+00	0.00000e+00	0.00000e+00	0.00000e+00	0.00000e+00	0.00000e+00	0.00000e+00	0.00000e+00	0.00000e+00	0.00000e+00	0.00000e+00	0.00000e+00	0.00000e+00	0.00000e+00	0.00000e+00	0.00000e+00	0.00000e+00	0.00000e+00	0.00000e+00	0.00000e+00	0.00000e+00	0.00000e+00	0.00000e+00	0.00000e+00	0.00000e+00	-6.39374e+00	-1.30076e+02	-1.26601e+02	-1.84394e+02	-6.08140e+01	-7.06777e+01	-1.57167e+02	-1.62015e+02	-3.31567e+01	-6.16301e+01	-1.77855e+02	-1.71352e+02	-1.80192e+02	-1.76785e+02	-5.94064e+01	-1.49703e+02	
Factor	3.40232e-05	2.11048e-04	5.73687e-05	1.81022e-01	2.72477e-06	1.95530e-06	1.79154e-01	5.79627e-02	2.25856e-06	1.85658e-06	1.08032e+00	3.06876e-02	3.08175e-02	1.00977e-02	2.67119e-06	1.45155e-02	6.65788e-06	7.85998e-06	2.20830e-06	8.86745e-02	8.43392e-08	8.72387e-08	8.25446e-02	2.84046e-02	8.40714e-08	8.72613e-08	4.76702e-01	1.46536e-02	1.52110e-02	4.99653e-03	8.52396e-08	6.96091e-03	X	X	X	X	X	X	X	X	X	X	X	X	X	X	X	X	



#DISTANCE SETTINGS
A = Detector Channel
A-1	A-2	A-3	A-4	A-5	A-6	A-7	A-8	A-9	A-10	A-11	A-12	A-13	A-14	A-15	A-16	

2.5000e+00	3.0000e+00	2.5000e+00	3.0000e+00	2.0000e+00	3.0000e+00	1.5000e+00	3.0000e+00	3.0000e+00	3.0000e+00	3.0000e+00	3.0000e+00	3.0000e+00	3.0000e+00	1.5000e+00	3.0000e+00	

B = Detector Channel
B-1	B-2	B-3	B-4	B-5	B-6	B-7	B-8	B-9	B-10	B-11	B-12	B-13	B-14	B-15	B-16	

1.0000e+01	1.0000e+01	1.0000e+01	1.4400e+00	1.0000e+01	1.0000e+01	1.5100e+00	1.9400e+00	1.0000e+01	1.0000e+01	1.9900e+00	2.4900e+00	2.4100e+00	2.9000e+00	1.0000e+01	2.9800e+00	




#DATA BEGINS
time	group	step	mark	flag	A-AC1	A-AC2	A-AC3	A-AC4	A-AC5	A-AC6	A-AC7	A-AC8	A-AC9	A-AC10	A-AC11	A-AC12	A-AC13	A-AC14	A-AC15	A-AC16	A-DC1	A-DC2	A-DC3	A-DC4	A-DC5	A-DC6	A-DC7	A-DC8	A-DC9	A-DC10	A-DC11	A-DC12	A-DC13	A-DC14	A-DC15	A-DC16	A-Ph1	A-Ph2	A-Ph3	A-Ph4	A-Ph5	A-Ph6	A-Ph7	A-Ph8	A-Ph9	A-Ph10	A-Ph11	A-Ph12	A-Ph13	A-Ph14	A-Ph15	A-Ph16	B-AC1	B-AC2	B-AC3	B-AC4	B-AC5	B-AC6	B-AC7	B-AC8	B-AC9	B-AC10	B-AC11	B-AC12	B-AC13	B-AC14	B-AC15	B-AC16	B-DC1	B-DC2	B-DC3	B-DC4	B-DC5	B-DC6	B-DC7	B-DC8	B-DC9	B-DC10	B-DC11	B-DC12	B-DC13	B-DC14	B-DC15	B-DC16	B-Ph1	B-Ph2	B-Ph3	B-Ph4	B-Ph5	B-Ph6	B-Ph7	B-Ph8	B-Ph9	B-Ph10	B-Ph11	B-Ph12	B-Ph13	B-Ph14	B-Ph15	B-Ph16	aux-1	digaux	

17519.830	1	1	0	256	0.10161	0.0962	0.41257	0.21861	0.18362	0.075057	0.025502	0.40803	0.13277	0.06173	0.21238	0.080411	0.27275	0.29076	0.10861	0.16434	-2.2708	-2.6875	-2.3312	-2.7313	-2.6229	-2.4542	-2.7375	-2.5146	-2.7292	-2.7	-2.5167	-2.7667	-2.6167	-2.6417	-2.775	-2.5542	-65.598	94.116	138.219	237.442	271.188	284.385	67.111	259.564	60.773	288.452	2.239	3.981	-37.031	234.000	106.099	-31.420	0.00036655	0.0010538	0.00010286	381.71	7.6948e-06	2.9605e-06	535.42	112.06	2.1592e-06	1.4587e-06	214.85	85.606	37.061	17.975	7.0096e-07	49.487	0.0021472	0.0025542	0.00072488	394.42	2.7821e-05	2.8951e-05	542.43	117.2	2.8681e-05	2.9612e-05	356.26	87.747	41.44	19.249	2.8532e-05	50.447	279.017	-48.011	-24.882	-55.254	106.775	40.012	-55.328	-49.974	-8.027	285.384	-50.828	-46.666	-45.823	-42.724	43.906	-43.673	-8191	255	
17519.926	1	1	0	0	0.38519	0.11822	0.041161	0.061178	0.28162	0.18177	0.14622	0.11516	0.18371	0.18057	0.040987	0.11043	0.11828	0.16869	0.10882	0.28577	-2.0146	-2.7167	-2.4771	-2.6979	-2.6104	-2.5417	-2.8146	-2.6854	-2.6188	-2.725	-2.4125	-2.6458	-2.7333	-2.4729	-2.6896	-2.7458	180.041	291.205	72.662	110.716	35.104	259.564	261.187	-35.456	74.623	260.531	-15.023	247.213	-14.194	90.119	52.841	242.193	0.00033187	0.00040454	0.00028707	378.97	7.5402e-06	8.2659e-06	536.11	112.32	2.9946e-06	3.87e-06	214.42	85.652	37.483	18.183	6.313e-06	49.534	0.0023528	0.0026732	0.00074873	394.5	2.9614e-05	3.0187e-05	542.77	118.15	2.9845e-05	3.0215e-05	356.7	88.394	41.754	19.363	2.9122e-05	50.542	-56.281	39.872	-41.957	-55.040	281.313	49.119	-55.104	-50.018	232.129	288.068	-50.581	-46.457	-45.704	-42.687	27.457	-43.879	-8191	255	
17520.021	1	1	0	0	0.18924	0.075339	0.12222	0.18155	0.36121	0.079865	0.10486	0.1002	0.19304	0.29066	0.28594	0.071848	0.27175	0.21607	0.14401	0.22775	-1.9958	-2.8104	-2.5667	-2.6833	-2.8	-2.5417	-2.7479	-2.7479	-2.4479	-2.9271	-2.3563	-2.6771	-2.8187	-2.4208	-2.5667	-2.7521	30.203	261.817	184.270	286.028	182.000	153.519	200.172	175.475	209.647	49.156	290.759	-50.593	39.918	-40.223	66.068	-21.018	0.00025946	0.00023252	0.00023764	373.54	5.8899e-06	1.5779e-06	528.69	113.06	2.4062e-06	4.5136e-06	222	86.73	38.084	18.36	5.1824e-06	49.689	0.0024426	0.0027822	0.0007675	392.59	3.0788e-05	3.1762e-05	538.3	119.54	3.1863e-05	3.2089e-05	367.43	89.513	42.579	19.72	3.0814e-05	51.023	289.337	140.737	0.691	-55.355	50.582	38.241	-55.091	-50.231	121.210	63.283	-50.923	-46.792	-46.058	-42.802	107.786	-43.798	-8191	255	
17520.117	1	1	0	0	0.1236	0.033442	0.0090612	0.10177	0.34212	0.11844	0.056909	0.32224	0.1915	0.14211	0.077057	0.23824	0.13205	0.095181	0.18508	0.21334	-1.9958	-2.7188	-2.5125	-2.6375	-2.6958	-2.5375	-2.7479	-2.5729	-2.2875	-2.7625	-2.3917	-2.4271	-2.8063	-2.4792	-2.5979	-2.6542	251.424	148.606	267.040	178.760	104.620	256.922	-52.957	201.682	72.741	191.696	250.034	212.589	0.618	63.274	158.060	219.809	0.00029095	0.00082758	0.00012444	376.6	6.3839e-06	7.5239e-06	530.8	113.64	3.6979e-06	4.3883e-06	214	87.306	37.929	18.421	1.4007e-05	50.116	0.0026182	0.0029322	0.00080719	397.63	3.2581e-05	3.2984e-05	541.53	120.71	3.2775e-05	3.275e-05	373.04	90.217	42.784	19.796	3.2476e-05	51.462	-63.737	-33.712	94.203	-55.283	17.350	80.019	-55.076	-49.982	58.802	80.987	-50.233	-46.693	-46.273	-42.793	204.363	-43.795	-8191	255	
17520.238	1	1	0	0	0.2988	0.15935	0.19925	0.15482	0.21783	0.07301	0.12439	0.06178	0.15318	0.26556	0.20703	0.18218	0.30866	0.43876	0.026493	0.21723	-1.8604	-2.5687	-2.625	-2.5417	-2.8021	-2.5812	-2.5687	-2.6188	-2.2687	-2.6958	-2.4542	-2.5958	-2.7479	-2.5167	-2.4646	-2.6562	-13.099	-24.597	274.475	-6.979	196.679	234.218	100.171	-51.537	48.779	247.627	238.813	82.244	240.398	-47.080	76.245	93.741	0.00025525	0.00066735	0.00022722	377.7	6.2171e-06	1.2098e-06	534.45	114.55	2.3849e-06	2.6234e-06	222.21	87.53	38.37	18.651	3.9394e-06	50.531	0.0026604	0.0029524	0.00084888	398.43	3.2609e-05	3.2972e-05	545.19	121.69	3.3319e-05	3.339e-05	385.31	91.067	43.226	19.929	3.3788e-05	51.91	280.819	6.779	18.778	-55.430	-19.229	123.084	-55.095	-50.299	114.425	63.796	-52.577	-46.446	-45.384	-43.030	243.784	-43.700	-8191	255	
17520.336	1	1	0	0	0.14467	0.18024	0.10545	0.16125	0.2349	0.34168	0.15905	0.23395	0.34868	0.10723	0.083522	0.14755	0.2065	0.05454	0.14272	0.18397	-2.0167	-2.6437	-2.4979	-2.3937	-2.7646	-2.625	-2.4979	-2.6667	-2.3792	-2.7625	-2.6292	-2.5542	-2.6229	-2.3458	-2.4833	-2.9125	-65.082	-39.756	74.972	259.521	62.530	61.261	269.194	101.022	282.240	5.365	17.278	-11.527	250.996	258.830	43.042	-12.270	0.00029738	0.00068925	0.00017922	377.94	4.5907e-06	5.8686e-06	533.97	114.32	8.9228e-06	3.6393e-06	226.24	87.83	38.414	18.481	7.7672e-06	49.879	0.0027429	0.0029617	0.0008906	399.91	3.3423e-05	3.3282e-05	547.83	122.11	3.3644e-05	3.3725e-05	397.47	91.082	43.306	19.974	3.5995e-05	51.705	279.810	2.645	58.147	-55.424	153.891	173.839	-55.403	-49.940	49.070	25.955	-50.391	-46.665	-45.600	-42.313	192.791	-43.839	-8191	255	
17520.432	1	1	0	0	0.10811	0.14273	0.20478	0.19829	0.33338	0.087436	0.28826	0.065851	0.075584	0.11558	0.091142	0.13001	0.047115	0.043804	0.43164	0.085802	-2.0604	-2.6417	-2.4813	-2.4979	-2.5458	-2.6875	-2.5833	-2.6437	-2.3604	-2.5896	-2.8521	-2.4437	-2.7396	-2.4938	-2.4292	-2.7229	93.506	87.498	20.490	185.378	-65.432	282.673	187.135	244.069	74.973	-52.435	89.034	199.225	165.516	287.946	162.316	-44.815	0.0003756	0.0006297	6.7943e-05	379.39	1.6062e-05	6.0316e-06	532.52	113.56	1.5519e-05	8.4924e-06	214.22	86.266	37.703	18.291	1.1469e-05	49.806	0.0027694	0.0031292	0.00093171	402.09	3.385e-05	3.5447e-05	547.05	121.66	3.3754e-05	3.5903e-05	397.8	90.173	42.915	19.881	3.6297e-05	51.191	286.269	9.881	-6.465	-55.265	105.122	112.509	-55.244	-50.455	118.895	176.724	-50.081	-46.767	-46.093	-42.765	32.154	-43.895	-8191	255	
17520.525	1	1	0	0	0.14596	0.036262	0.19435	0.037849	0.21706	0.21473	0.077007	0.34147	0.13205	0.04958	0.18218	0.062737	0.086875	0.22326	0.16037	0.18074	-2.075	-2.5625	-2.5438	-2.4958	-2.7271	-2.7271	-2.5375	-2.65	-2.5396	-2.6437	-2.6604	-2.5625	-2.5938	-2.6937	-2.4104	-2.7667	33.102	201.380	87.192	269.358	-47.673	81.442	248.652	188.348	-2.457	262.305	191.192	41.296	-67.881	-51.964	-30.605	284.887	0.00030149	0.00075948	0.00030133	376.87	8.1001e-06	8.491e-06	528.24	112.9	9.8471e-06	5.19e-06	223.32	87.047	37.866	18.357	5.3055e-06	49.676	0.0027824	0.0032848	0.00094863	400.04	3.4306e-05	3.7348e-05	544.64	121.31	3.4161e-05	3.7261e-05	401.11	90.204	42.853	19.927	3.72e-05	51.186	-55.030	36.723	3.672	-55.417	137.532	168.705	-55.140	-49.951	149.162	126.124	-50.049	-46.356	-46.084	-42.724	186.229	-43.724	-8191	255	
17520.621	1	1	0	0	0.095219	0.18752	0.17764	0.13204	0.23374	0.13122	0.15168	0.26436	0.19096	0.21033	0.026028	0.13812	0.19189	0.18712	0.18196	0.28019	-2.1	-2.5312	-2.6646	-2.4313	-2.525	-2.7188	-2.3875	-2.5896	-2.5125	-2.3958	-2.7521	-2.4625	-2.4792	-2.8208	-2.3854	-2.7104	191.843	-13.716	-38.761	-59.630	-60.568	217.651	223.701	-50.461	40.503	158.611	290.286	224.387	254.626	210.561	150.511	237.918	0.00021417	0.00039784	6.4937e-05	374.92	1.6734e-05	2.5879e-06	525.97	113.44	4.4181e-06	1.2107e-05	226.57	87.019	37.715	18.297	3.0895e-06	50.025	0.0027941	0.0033955	0.00094262	397.84	3.4624e-05	3.7822e-05	543.84	121.12	3.5055e-05	3.8228e-05	402.21	90.446	43.184	19.891	3.6766e-05	51.347	253.791	39.736	281.306	-55.397	32.185	106.724	-55.332	-49.688	162.967	19.559	-51.108	-46.373	-45.501	-43.255	183.325	-43.920	-8191	255	
17520.719	1	1	0	0	0.13065	0.33906	0.19172	0.1025	0.29982	0.053895	0.30626	0.20691	0.12501	0.015978	0.1977	0.19916	0.063125	0.14569	0.13421	0.044418	-2.0083	-2.6125	-2.6	-2.5083	-2.6875	-2.5479	-2.4646	-2.75	-2.6271	-2.4521	-2.5458	-2.4708	-2.3583	-2.6646	-2.5021	-2.6833	158.484	138.171	84.018	161.355	277.014	-21.764	178.205	261.115	247.243	183.437	-35.839	159.558	94.497	-44.695	112.370	188.620	0.00038241	0.00067347	0.00023351	372.25	6.6319e-06	5.1814e-06	525.38	113.39	9.511e-06	6.3541e-06	223.34	87.34	37.856	18.193	2.2415e-06	49.575	0.0029092	0.0034294	0.00095319	394.87	3.6474e-05	3.7982e-05	542.56	121.33	3.6808e-05	3.8549e-05	404.36	90.218	43.317	19.88	3.7114e-05	50.986	-54.770	122.325	29.291	-55.301	154.300	237.359	-54.997	-49.858	282.039	63.152	-50.649	-46.404	-45.996	-43.090	25.872	-44.276	-8191	255	
17520.838	1	1	0	0	0.29473	0.15933	0.07976	0.30322	0.26525	0.21929	0.14091	0.044996	0.25683	0.0070408	0.036432	0.071506	0.02439	0.12896	0.13494	0.13216	-2.1896	-2.1396	-2.6917	-2.5229	-2.4813	-2.8875	-2.3771	-2.7687	-2.4917	-2.5292	-2.7042	-2.5687	-2.5	-2.5042	-2.4917	-2.6875	107.290	192.246	118.301	-38.139	189.724	239.337	207.249	70.012	190.562	-2.906	132.937	119.818	-32.578	123.414	-14.717	100.232	0.00034172	0.0015493	0.00021101	369.79	1.0393e-06	2.9014e-06	525.37	113.94	3.9439e-06	9.9485e-06	220.34	87.215	37.864	18.257	6.393e-06	49.574	0.0030005	0.0034508	0.000941	393.73	3.7794e-05	3.8405e-05	538.64	121.55	3.7457e-05	3.8901e-05	398.61	90.509	43.438	19.904	3.6053e-05	51.131	-57.809	-24.124	11.060	-55.384	263.124	21.999	-55.053	-49.628	188.956	46.880	-49.688	-46.626	-45.442	-42.767	-10.938	-43.687	-8191	255	
17520.936	1	1	0	0	0.070445	0.33054	0.11244	0.22296	0.36071	0.20175	0.10416	0.073878	0.15914	0.20448	0.09434	0.10786	0.16434	0.12916	0.151	0.093312	-2.0417	-2.4313	-2.6208	-2.4125	-2.5604	-2.7938	-2.4146	-2.6604	-2.6021	-2.5354	-2.6375	-2.6813	-2.5521	-2.8229	-2.6333	-2.7396	16.210	266.276	174.789	220.330	-32.558	-67.294	186.911	93.309	144.644	130.999	-53.024	186.022	212.035	290.253	-54.927	1.556	0.00014882	0.00015813	8.1119e-05	372.88	1.1369e-05	1.6377e-06	524.23	113.39	2.9963e-06	5.3954e-06	222.6	87.13	37.742	18.293	1.5991e-05	49.796	0.0030378	0.0034402	0.00092092	395.49	3.7555e-05	3.7602e-05	538.95	121.39	3.6921e-05	3.7981e-05	394.1	90.802	43.548	19.917	3.5475e-05	51.532	-55.229	7.765	141.271	-55.471	55.864	34.238	-54.905	-49.904	-17.901	236.352	-49.306	-46.563	-45.609	-42.725	41.493	-43.679	-8191	255	
17521.031	1	1	0	0	0.32339	0.1547	0.039832	0.23679	0.16425	0.12644	0.10211	0.14196	0.235	0.084261	0.25373	0.15875	0.12055	0.39151	0.050847	0.077823	-2.4313	-2.2938	-2.6854	-2.4979	-2.5354	-2.7875	-2.7438	-2.6729	-2.6208	-2.5187	-2.7729	-2.7083	-2.4146	-2.7188	-2.6	-2.5563	157.253	54.657	287.251	-3.698	114.470	-30.228	99.559	151.303	38.043	-27.883	-28.781	38.858	-28.774	13.912	210.745	-19.376	0.00024269	0.00067859	0.00010037	373.57	4.6209e-07	3.6189e-06	525.2	114.78	3.1994e-06	4.7901e-06	222.73	87.381	38.117	18.299	1.4715e-05	50.09	0.0029947	0.0034037	0.00090856	396.86	3.7299e-05	3.7338e-05	540.17	122.95	3.7109e-05	3.75e-05	399.98	91.4	43.632	19.834	3.5809e-05	51.699	258.629	-40.988	134.709	-55.096	-44.636	-16.068	-55.081	-50.155	-23.024	289.516	-50.101	-46.306	-45.969	-43.331	138.435	-43.806	-8191	255	
17521.127	1	1	0	0	0.019747	0.089065	0.09481	0.31706	0.16929	0.11465	0.12987	0.21618	0.09356	0.072392	0.070793	0.11019	0.13921	0.11561	0.14954	0.26831	-2.2396	-2.3167	-2.7292	-2.6583	-2.4479	-2.6979	-2.5167	-2.5604	-2.8167	-2.5104	-2.6479	-2.6688	-2.3229	-2.65	-2.4896	-2.5021	259.270	-47.921	50.094	20.719	112.155	178.374	203.483	279.140	268.887	122.951	287.868	237.189	132.984	135.657	226.154	50.440	0.0003049	0.00062177	0.00020959	372.87	9.0716e-06	1.4346e-05	525.15	114.19	4.1957e-06	5.1804e-06	223.67	87.66	37.99	18.291	2.2864e-06	49.972	0.0029723	0.0033146	0.00092253	396.26	3.7372e-05	3.6149e-05	542.25	122.68	3.6612e-05	3.6252e-05	402.46	91.397	43.577	19.838	3.6938e-05	51.622	-62.175	-10.502	270.340	-55.310	-58.701	86.103	-55.175	-50.188	132.730	63.737	-50.814	-46.459	-45.685	-42.683	90.788	-43.742	-8191	255	
17521.223	1	1	0	0	0.18098	0.25935	0.14801	0.077643	0.12899	0.31951	0.12664	0.14131	0.19525	0.20834	0.087662	0.14309	0.16036	0.13855	0.061948	0.075629	-2.2542	-2.6479	-2.5062	-2.6271	-2.5479	-2.7188	-2.5542	-2.475	-2.7687	-2.5521	-2.5333	-2.6625	-2.5042	-2.8125	-2.5375	-2.4896	113.084	164.359	112.358	121.712	139.445	223.404	125.440	-37.554	83.942	110.265	185.189	-3.187	74.281	247.141	260.882	35.357	0.00037742	0.00040138	0.00027595	370.65	1.5654e-05	5.766e-06	522.39	113.21	7.1374e-06	6.8274e-06	221.79	87.671	38.223	18.348	1.3779e-05	49.872	0.0029232	0.0032365	0.00094951	395.66	3.6527e-05	3.5433e-05	539.3	122.3	3.5785e-05	3.558e-05	406.8	91.308	43.542	19.821	3.7414e-05	51.677	-67.814	22.467	32.273	-55.687	98.688	64.168	-55.287	-50.075	145.128	1.118	-50.106	-46.578	-45.919	-42.841	77.570	-43.576	-8191	255	
17521.318	1	1	0	0	0.12087	0.023628	0.17204	0.23247	0.35268	0.2176	0.23048	0.12129	0.16481	0.1834	0.11612	0.059627	0.4634	0.1892	0.11749	0.19393	-2.1458	-2.4875	-2.5438	-2.7729	-2.4688	-2.725	-2.7292	-2.4208	-2.725	-2.5812	-2.4437	-2.7542	-2.6042	-2.7479	-2.6792	-2.425	252.783	166.212	261.280	166.946	41.460	-42.323	175.148	134.375	275.130	266.535	287.686	-28.618	154.354	246.902	184.714	239.745	0.00016631	0.00059321	0.00021931	370.89	7.092e-06	8.8507e-06	524.55	114.07	1.1619e-05	4.6774e-06	216.14	87.481	38.584	18.453	4.7143e-06	50.126	0.0028468	0.0032747	0.00095578	395.68	3.5094e-05	3.6323e-05	541.42	122.37	3.4518e-05	3.6561e-05	404.06	91.318	43.37	19.952	3.7181e-05	51.808	-34.762	6.443	84.501	-55.393	79.495	115.766	-55.010	-50.005	39.818	147.392	-50.100	-46.650	-46.193	-42.221	98.693	-43.550	-8191	255	
17521.414	1	1	0	0	0.13689	0.15584	0.077694	0.058957	0.20476	0.077326	0.10528	0.32896	0.16733	0.20294	0.17968	0.23477	0.40047	0.21865	0.1115	0.095792	-2.4437	-2.4417	-2.5375	-2.7354	-2.3125	-2.7021	-2.6958	-2.3833	-2.8917	-2.4688	-2.4146	-2.8979	-2.4229	-2.6125	-2.7521	-2.5958	221.898	-51.638	81.967	287.686	50.860	58.883	-66.806	-29.733	-16.560	-19.260	269.164	223.693	143.524	273.809	282.828	10.890	0.00033146	0.0003775	9.6426e-05	372.08	1.1285e-05	6.1703e-06	524.36	114.71	7.9135e-06	2.1092e-06	225.87	88.666	38.356	18.474	6.8454e-06	50.677	0.0027613	0.0033452	0.00095021	396.29	3.436e-05	3.677e-05	543.33	122.82	3.3814e-05	3.6968e-05	407.62	91.975	43.373	20.127	3.6717e-05	52.017	-47.892	28.403	41.585	-55.301	121.328	179.050	-55.211	-49.690	78.114	38.895	-50.449	-46.317	-45.881	-42.733	132.330	-43.774	-8191	255	
17521.512	1	1	0	0	0.30345	0.19847	0.11211	0.19625	0.046455	0.13228	0.21211	0.1084	0.042015	0.21557	0.21313	0.090792	0.069002	0.23045	0.17714	0.12087	-2.1792	-2.4688	-2.4813	-2.6979	-2.5312	-2.4938	-2.7125	-2.4333	-2.6458	-2.6021	-2.3104	-2.7729	-2.4229	-2.5187	-2.7333	-2.5083	78.508	52.638	200.028	211.487	69.729	-32.655	172.494	256.336	53.687	1.146	4.424	-19.452	148.510	64.534	289.752	192.670	0.00026058	0.0008838	0.00036899	372.24	9.8298e-06	7.7183e-06	526.48	114.32	5.0092e-06	7.847e-06	233.67	88.305	38.234	18.527	1.2784e-05	50.342	0.0027326	0.0033871	0.00094413	395.44	3.4106e-05	3.7677e-05	543.16	122.13	3.4047e-05	3.7567e-05	402.56	91.438	43.42	20.139	3.6333e-05	51.698	-49.063	127.638	17.436	-55.195	141.804	124.600	-54.888	-50.317	144.840	88.235	-51.574	-46.399	-46.098	-42.709	108.163	-43.948	-8191	255	
17521.631	1	1	0	0	0.23202	0.17357	0.036857	0.20412	0.020989	0.31456	0.085211	0.10373	0.24404	0.1436	0.10801	0.37566	0.32221	0.12754	0.090115	0.16441	-2.2792	-2.5979	-2.3812	-2.7062	-2.4854	-2.6396	-2.6521	-2.475	-2.7562	-2.4479	-2.4917	-2.7812	-2.5917	-2.5667	-2.5792	-2.5646	3.776	41.253	227.495	174.939	185.678	135.348	226.567	142.370	-59.023	-18.077	279.604	149.603	-35.452	279.162	260.499	237.900	0.00032894	0.00031822	8.7227e-05	371.43	3.102e-06	7.8947e-06	525.02	114.5	7.1878e-07	3.4602e-06	228.68	88.062	38.477	18.538	2.9884e-06	50.455	0.0028255	0.0033625	0.00093667	392.72	3.4978e-05	3.7376e-05	540.33	121.59	3.4914e-05	3.7546e-05	404.09	91.458	43.915	20.174	3.6009e-05	51.905	289.555	286.312	146.812	-55.481	98.715	63.547	-54.990	-49.823	-8.783	191.260	-51.092	-46.429	-45.990	-42.583	-15.176	-43.876	-8191	255	
17521.701	1	1	0	0	0.24228	0.14725	0.13283	0.066212	0.093106	0.11356	0.19446	0.15159	0.2918	0.17791	0.25279	0.11598	0.28438	0.32081	0.19923	0.121	-2.2875	-2.825	-2.3	-2.6979	-2.5417	-2.5229	-2.8708	-2.3729	-2.6958	-2.6625	-2.3583	-2.8833	-2.4646	-2.4917	-2.8146	-2.5896	232.276	138.204	248.486	-51.622	93.173	100.730	20.085	-58.938	252.636	127.198	99.954	198.622	252.694	164.540	200.996	86.827	0.00024852	0.00052566	7.6797e-05	370.84	1.0505e-06	8.8722e-06	527.87	114.72	4.2082e-06	1.0557e-05	225.46	88.502	38.396	18.522	1.472e-05	50.604	0.0028925	0.0033785	0.00091922	393.27	3.6247e-05	3.8201e-05	542.75	122.14	3.6189e-05	3.756e-05	400.78	92.049	44.136	20.219	3.5628e-05	52.16	-52.768	228.156	99.586	-55.441	274.514	15.160	-54.866	-50.094	136.469	16.101	-52.059	-46.520	-45.944	-42.763	-12.409	-43.570	-8191	255	
17521.799	1	1	0	0	0.23294	0.2817	0.2044	0.20054	0.1911	0.17607	0.13319	0.22239	0.18121	0.19104	0.25448	0.086783	0.17192	0.01206	0.24763	0.12029	-2.0479	-2.75	-2.3979	-2.6167	-2.5979	-2.4292	-2.7	-2.5333	-2.3729	-2.7583	-2.3937	-2.6875	-2.6104	-2.5438	-2.875	-2.5104	156.059	53.143	116.005	14.674	-17.673	165.651	-36.374	152.474	135.921	188.203	289.242	149.705	180.878	89.564	56.144	176.632	0.00029799	0.00066078	0.00023889	370.16	4.7586e-06	4.3381e-06	529.24	115.2	7.3066e-06	7.2175e-06	220.96	88.951	38.896	18.742	6.1327e-06	50.942	0.0029886	0.0034027	0.00091403	395.08	3.7127e-05	3.7948e-05	543.21	123.11	3.6646e-05	3.8055e-05	397.51	92.764	44.288	20.353	3.5078e-05	52.532	-51.291	79.322	81.121	-54.893	225.748	-49.199	-54.975	-49.434	17.048	67.818	-49.397	-46.485	-46.060	-42.785	133.975	-43.715	-8191	255	
17521.920	1	1	0	0	0.20089	0.28185	0.10012	0.0692	0.15787	0.32769	0.025329	0.0539	0.27709	0.080216	0.072582	0.29342	0.17339	0.21679	0.079545	0.25657	-2.075	-2.7333	-2.3063	-2.6604	-2.6583	-2.4854	-2.9021	-2.5938	-2.425	-2.9146	-2.4667	-2.7104	-2.8542	-2.5146	-2.7	-2.7646	-45.486	88.392	25.589	242.920	153.315	112.541	160.133	-11.699	-11.248	136.999	227.777	279.890	162.081	119.246	227.397	-58.446	0.00039528	0.00090081	0.00025597	372.86	4.4149e-06	2.817e-06	530.1	115.31	1.7554e-06	2.0675e-06	226.51	88.619	38.539	18.728	1.0265e-05	50.602	0.0030197	0.0034019	0.00090817	397.18	3.6892e-05	3.8056e-05	542.8	123.43	3.6885e-05	3.7345e-05	396.65	92.528	44.25	20.328	3.5502e-05	52.37	291.238	68.528	-34.240	-55.492	220.668	-27.076	-55.131	-49.926	142.559	238.989	-50.619	-46.470	-45.576	-42.736	145.979	-43.846	-8191	255	
17522.016	1	1	0	0	0.22604	0.27786	0.23091	0.081706	0.14231	0.24183	0.20102	0.01759	0.023574	0.054945	0.012605	0.1212	0.12255	0.1372	0.28918	0.16779	-2.1104	-2.5938	-2.5167	-2.5417	-2.775	-2.5917	-2.6729	-2.5208	-2.3625	-2.6562	-2.5646	-2.6667	-2.5979	-2.4646	-2.7604	-2.6417	94.314	-50.689	126.163	263.926	234.256	170.479	271.446	151.618	100.288	93.323	278.446	48.735	25.838	31.586	74.399	8.493	0.0003684	0.00067137	9.0356e-05	373.07	6.2259e-06	5.4996e-06	523.89	114.68	1.0677e-05	4.7881e-06	225.66	88.401	38.641	18.704	6.172e-06	50.735	0.0030179	0.003319	0.00092188	397.53	3.7164e-05	3.6687e-05	541.81	123.45	3.6743e-05	3.6187e-05	404.35	92.306	44.237	20.232	3.6307e-05	52.295	-54.310	244.981	-4.440	-55.563	-51.057	-50.425	-54.905	-49.950	101.099	107.690	-50.424	-46.822	-45.908	-42.325	55.088	-43.757	-8191	255	
17522.111	1	1	0	0	0.16137	0.053114	0.26125	0.32831	0.13482	0.1929	0.14819	0.19924	0.15364	0.17752	0.22913	0.072977	0.24229	0.059407	0.21375	0.089499	-1.9417	-2.7292	-2.375	-2.3979	-2.6458	-2.2562	-2.6	-2.5438	-2.4229	-2.7333	-2.4854	-2.5187	-2.7375	-2.3917	-2.6458	-2.6667	240.565	65.719	89.732	-0.385	190.759	141.983	228.678	21.997	162.368	73.801	32.680	81.382	-67.263	274.995	54.217	210.909	0.00014616	0.00069185	9.5604e-05	376.26	9.7916e-06	4.0286e-06	526.6	114.77	8.8352e-06	4.9389e-06	220.18	88.764	38.731	18.52	5.7588e-06	51.116	0.0030123	0.0032242	0.00096669	399.23	3.6901e-05	3.5864e-05	545.44	123.46	3.6666e-05	3.5736e-05	407.19	92.551	43.939	20.175	3.707e-05	52.462	-59.414	-22.086	27.223	-55.422	63.264	118.135	-54.997	-50.300	217.603	183.371	-51.007	-46.323	-46.039	-42.810	36.878	-43.669	-8191	255	
17522.232	1	1	0	0	0.14372	0.16627	0.34203	0.1721	0.14637	0.064648	0.24754	0.20951	0.09994	0.18954	0.11624	0.24862	0.23154	0.27532	0.082008	0.095542	-1.9208	-2.7729	-2.4062	-2.4208	-2.6917	-2.4313	-2.6458	-2.6083	-2.4896	-2.6125	-2.5125	-2.4667	-2.6979	-2.4229	-2.6958	-2.8583	30.723	78.404	199.313	274.964	10.292	247.075	122.004	1.996	255.970	108.788	-54.927	-22.204	203.552	263.705	70.830	212.632	0.00025354	0.00054105	0.00021022	374.94	1.3584e-05	1.0505e-05	530.29	115.24	7.6608e-06	1.088e-05	220.28	89.13	38.863	18.585	1.0316e-05	50.799	0.0029758	0.00324	0.00097569	399.36	3.5838e-05	3.6619e-05	547.23	123.67	3.5653e-05	3.6086e-05	408.36	92.876	43.883	20.185	3.7272e-05	52.572	285.238	7.353	64.755	-55.692	102.191	195.703	-54.890	-49.622	193.407	164.297	-51.201	-46.543	-46.266	-42.759	157.919	-43.737	-8191	255	
17522.303	1	1	0	0	0.071295	0.13078	0.20022	0.13098	0.26247	0.26688	0.062167	0.1773	0.024883	0.073857	0.12933	0.26549	0.24487	0.2569	0.24983	0.4494	-1.9688	-2.8229	-2.6333	-2.5521	-2.8708	-2.6583	-2.7042	-2.6792	-2.5021	-2.8146	-2.5417	-2.5354	-2.7625	-2.5208	-2.5958	-2.7354	-20.554	26.845	131.846	-23.240	18.608	274.698	-9.710	244.926	192.396	68.931	23.541	288.332	276.220	230.876	90.510	-49.686	0.00037034	0.0010752	0.00024051	376.27	1.5634e-06	3.632e-06	531.38	115.08	1.0283e-05	4.1924e-07	222.63	88.213	38.681	18.659	2.3297e-06	50.419	0.0028286	0.0033623	0.00098438	399.81	3.4986e-05	3.7628e-05	547.44	123.17	3.468e-05	3.7308e-05	409.98	92.209	43.564	20.212	3.7582e-05	52.043	283.488	79.079	27.590	-55.140	72.573	291.835	-55.254	-49.936	71.014	91.339	-50.017	-46.722	-45.639	-42.782	184.257	-43.711	-8191	255	
17522.400	1	1	0	0	0.24967	0.060556	0.23588	0.21613	0.11479	0.24757	0.18062	0.10635	0.29324	0.31331	0.20117	0.15669	0.10202	0.41289	0.30632	0.095169	-2.0146	-2.6479	-2.4396	-2.4667	-2.6771	-2.5208	-2.6833	-2.7979	-2.4417	-2.7313	-2.6	-2.6667	-2.8708	-2.4688	-2.4062	-2.7833	98.178	148.289	-33.378	240.647	213.994	222.529	205.216	0.305	232.819	222.367	200.847	194.270	234.397	223.258	238.320	183.421	0.00046456	0.00061509	0.00028478	374.89	1.0483e-05	9.3589e-06	527.79	113.53	3.7408e-06	9.4328e-06	227.39	87.984	38.226	18.618	2.9072e-06	50.214	0.0028105	0.0035168	0.00097752	398.05	3.487e-05	3.8799e-05	545.2	122.35	3.535e-05	3.8238e-05	409.81	91.698	43.704	20.239	3.7549e-05	51.958	289.201	178.097	-34.787	-54.952	-47.903	113.437	-55.156	-49.801	-6.263	200.217	-50.344	-46.494	-45.895	-43.051	135.133	-43.956	-8191	255	
17522.520	1	1	0	0	0.21222	0.19949	0.31963	0.091904	0.17632	0.043669	0.071827	0.17908	0.1654	0.10098	0.039631	0.18578	0.27707	0.08322	0.32317	0.10305	-2.0729	-2.4813	-2.8396	-2.4958	-2.8771	-2.4854	-2.3708	-2.8083	-2.3604	-2.5917	-2.825	-2.5563	-2.5271	-2.5354	-2.2896	-2.6042	223.660	203.852	32.683	262.292	61.277	68.815	195.899	208.957	160.991	-15.908	155.942	163.040	259.877	81.667	11.785	-3.933	0.00022447	0.00043431	0.00011518	374.86	1.4195e-05	6.4108e-06	528.21	114.6	1.0488e-05	4.2243e-06	222.4	88.004	38.437	18.418	6.4328e-07	50.486	0.0029004	0.003473	0.00097919	396.69	3.5747e-05	3.8686e-05	546.95	122.33	3.6197e-05	3.834e-05	411.05	91.667	43.875	20.156	3.7412e-05	51.891	-50.180	-55.862	16.876	-54.999	169.655	135.268	-54.928	-50.066	139.519	220.190	-50.126	-46.171	-46.277	-42.982	82.679	-43.754	-8191	255	
17522.615	1	1	0	0	0.14068	0.096076	0.11837	0.13747	0.21826	0.078922	0.08154	0.16116	0.07833	0.11705	0.12688	0.19133	0.29181	0.14127	0.12979	0.37261	-2.2021	-2.4854	-2.6125	-2.5021	-2.6813	-2.6562	-2.4708	-2.7562	-2.35	-2.6208	-2.5604	-2.4125	-2.7042	-2.6937	-2.4771	-2.7646	152.058	69.447	285.710	-14.791	119.803	-37.306	97.498	246.300	66.777	282.184	157.161	280.670	74.647	-59.787	121.093	21.211	0.00044591	0.0003937	0.00014772	375.43	7.6117e-06	2.5612e-06	532.65	113.91	8.7167e-06	7.9992e-06	222.45	88.417	38.349	18.384	7.0044e-06	50.699	0.0029706	0.0035243	0.00096414	397.24	3.6711e-05	3.8556e-05	547.22	122.03	3.7013e-05	3.8349e-05	402.26	91.765	44.02	20.171	3.6164e-05	52.124	286.248	206.438	-64.896	-55.545	-59.558	91.820	-54.914	-50.146	154.083	92.440	-50.901	-46.386	-46.117	-42.848	167.344	-43.682	-8191	255	
17522.711	1	1	0	0	0.29264	0.25848	0.2588	0.13671	0.092756	0.13319	0.17789	0.065276	0.30653	0.38619	0.11002	0.25363	0.052979	0.13234	0.39365	0.2597	-2.0542	-2.5646	-2.7354	-2.2375	-2.6625	-2.6083	-2.5625	-2.5563	-2.6417	-2.5583	-2.7375	-2.5604	-2.7562	-2.6708	-2.3458	-2.8167	-25.122	-34.399	148.221	165.129	216.472	71.413	-43.200	-47.750	268.930	62.853	224.705	250.264	-20.206	243.105	251.624	278.964	0.00025767	0.0012854	0.00031741	375.17	9.1356e-06	5.4055e-06	528.46	113.91	5.454e-06	7.2085e-06	218.08	88.041	37.944	18.356	5.0596e-06	50.075	0.003032	0.0035075	0.00093679	397.91	3.6987e-05	3.851e-05	544.02	122.14	3.7242e-05	3.8394e-05	395.71	91.434	43.723	20.055	3.5479e-05	51.625	279.925	60.180	-30.780	-55.291	-60.780	166.249	-55.076	-50.073	201.173	136.731	-51.758	-46.342	-46.066	-42.760	92.174	-43.861	-8191	255	
17522.830	1	1	0	0	0.23808	0.054086	0.059945	0.4062	0.25199	0.17893	0.1485	0.17731	0.17947	0.0036136	0.18104	0.27877	0.28452	0.25906	0.094971	0.095091	-2.2188	-2.2458	-2.7729	-2.5458	-2.4062	-2.8125	-2.3271	-2.7417	-2.6021	-2.2042	-2.7188	-2.5646	-2.3167	-2.7021	-2.55	-2.7146	157.144	241.142	83.147	231.154	62.678	55.347	-53.853	181.292	115.082	-48.939	270.591	14.972	188.455	160.651	185.492	-23.001	0.00043542	0.00083561	0.00019654	374.82	1.4249e-05	4.7076e-06	526.1	113.49	9.6387e-06	2.5868e-06	225.96	87.965	38.104	18.433	3.5079e-06	50.358	0.0030257	0.0034782	0.00090854	398.46	3.6769e-05	3.797e-05	541.66	122.15	3.7105e-05	3.763e-05	392.87	91.556	43.853	19.991	3.5644e-05	51.806	-61.627	107.781	9.964	-55.365	177.983	111.096	-55.099	-50.075	24.828	24.963	-50.759	-46.505	-46.006	-43.049	79.984	-43.783	-8191	255	
17522.928	1	1	0	0	0.078915	0.25196	0.030224	0.25625	0.27498	0.18576	0.21532	0.20287	0.19781	0.094548	0.25074	0.09705	0.12794	0.26851	0.11219	0.091612	-2.1771	-2.5104	-2.7313	-2.5938	-2.4542	-2.7812	-2.2646	-2.6688	-2.5438	-2.4333	-2.7687	-2.5417	-2.5229	-2.7896	-2.5625	-2.7708	13.586	260.275	-40.897	192.783	225.741	161.078	111.213	200.331	161.679	175.214	258.451	22.388	209.961	222.314	-16.675	169.017	0.00041446	0.0001088	0.00021866	375.38	1.0628e-05	5.329e-06	527.96	114.03	5.6506e-06	3.5055e-06	222	88.141	38.249	18.497	9.6528e-06	50.281	0.0030194	0.0033859	0.00092152	399.55	3.7321e-05	3.6608e-05	543.81	122.82	3.7208e-05	3.6938e-05	398.33	91.874	43.993	20.017	3.6599e-05	51.998	-50.509	15.605	30.858	-55.289	51.984	257.603	-54.881	-50.076	115.157	90.133	-50.038	-46.499	-46.081	-42.840	176.207	-43.683	-8191	255	
17522.998	1	1	0	0	0.19667	0.37474	0.17356	0.3598	0.0322	0.025699	0.1671	0.31265	0.072948	0.10526	0.034433	0.20265	0.28081	0.16134	0.084187	0.11037	-2.1813	-2.3146	-2.4604	-2.4271	-2.4271	-2.5979	-2.6437	-2.6125	-2.6688	-2.3854	-2.5646	-2.5104	-2.375	-2.7042	-2.6229	-2.6042	39.723	121.735	206.549	286.679	18.496	11.443	195.960	-4.763	247.919	194.094	242.969	212.330	236.329	197.131	158.755	145.181	0.00025106	0.00039444	8.9714e-05	376	7.1383e-06	5.1645e-06	529.11	115.23	4.1598e-06	3.9434e-06	225.32	87.937	38.042	18.377	3.5878e-06	50.334	0.0030268	0.0033298	0.00094638	399.89	3.7331e-05	3.6236e-05	547.52	123.14	3.7181e-05	3.6188e-05	405.49	92.048	43.788	19.963	3.7527e-05	52.014	-45.445	233.555	34.242	-55.446	40.154	43.115	-54.934	-50.295	115.703	68.265	-51.443	-46.074	-45.677	-43.031	121.242	-43.583	-8191	255	
17523.096	1	1	0	0	0.34979	0.18469	0.29443	0.077434	0.044093	0.13613	0.26948	0.39461	0.2399	0.29263	0.2062	0.276	0.22258	0.20441	0.21572	0.24238	-2.1854	-2.2958	-2.4875	-2.6146	-2.4125	-2.6667	-2.3958	-2.6125	-2.7958	-2.45	-2.5604	-2.6042	-2.425	-2.6875	-2.3917	-2.3708	102.810	-12.809	124.670	168.112	168.222	112.317	-44.260	211.736	246.647	37.707	38.382	211.940	290.003	17.401	-34.009	-9.477	0.00011413	0.00072472	0.00021024	375.91	8.8645e-06	8.8744e-06	529.11	113.23	1.0599e-05	8.7893e-06	223.41	86.978	38.097	18.338	7.9054e-06	49.739	0.0029343	0.0032708	0.00096247	401.06	3.62e-05	3.5966e-05	545.77	122.02	3.5463e-05	3.6376e-05	403.75	90.891	43.125	19.824	3.7441e-05	51.525	-46.768	51.863	37.714	-55.644	-0.200	127.803	-55.204	-49.978	110.172	33.408	-52.230	-46.374	-45.613	-42.695	120.189	-44.049	-8191	255	
17523.191	1	1	0	0	0.077361	0.094962	0.18005	0.025643	0.041208	0.13493	0.19701	0.31916	0.14717	0.20484	0.18556	0.14725	0.058904	0.062349	0.030698	0.049811	-2.1917	-2.3521	-2.4208	-2.6063	-2.4208	-2.7333	-2.725	-2.4062	-2.7146	-2.4062	-2.4208	-2.6937	-2.4	-2.5729	-2.5021	-2.4292	195.236	74.719	173.705	280.293	90.596	74.030	15.710	204.241	192.123	49.736	-44.970	243.960	49.475	176.708	237.971	-21.475	0.00025321	0.00068146	0.00012744	374.76	1.9794e-06	8.4987e-06	528.28	113.45	1.2055e-05	2.3532e-06	221.77	87.975	37.983	18.326	4.4841e-06	50.13	0.0028428	0.0033299	0.00097897	399.78	3.5166e-05	3.7188e-05	545.4	121.98	3.4609e-05	3.7685e-05	406.84	91.517	43.34	19.996	3.8125e-05	51.699	-41.124	-33.366	83.321	-55.377	81.481	115.521	-55.097	-50.077	65.393	79.871	-50.685	-46.407	-46.327	-42.893	265.841	-43.715	-8191	255	
17523.312	1	1	0	0	0.28139	0.14274	0.22757	0.27286	0.30501	0.089916	0.22635	0.15755	0.15669	0.15445	0.099232	0.15138	0.24364	0.17821	0.1622	0.1878	-2.1979	-2.4229	-2.525	-2.675	-2.5146	-2.7125	-2.5958	-2.4437	-2.8146	-2.6021	-2.5333	-2.7125	-2.3937	-2.8271	-2.5896	-2.4271	129.720	164.890	135.482	-19.729	-45.036	74.098	109.044	232.428	211.624	188.506	-63.112	-62.658	174.017	201.414	199.591	62.384	0.00026409	0.00041109	0.0002805	373.42	6.5899e-06	4.0079e-06	530.77	113.97	2.4204e-06	4.3607e-06	224.71	87.904	38.068	18.493	3.5739e-06	50.305	0.0028048	0.003453	0.0009833	399.48	3.5345e-05	3.8186e-05	545.84	122.1	3.5202e-05	3.877e-05	410.47	91.374	43.376	20.083	3.876e-05	51.797	286.655	42.334	209.482	-55.646	155.319	279.063	-55.217	-49.501	103.587	-62.677	-52.108	-46.491	-45.600	-43.161	151.589	-44.005	-8191	255	
17523.408	1	1	0	0	0.16098	0.050725	0.20612	0.14151	0.14156	0.28804	0.32083	0.27812	0.16669	0.2178	0.16653	0.024966	0.027251	0.23897	0.081009	0.29401	-2.1979	-2.3563	-2.3792	-2.8229	-2.3375	-2.7542	-2.5333	-2.4396	-2.6729	-2.6896	-2.4562	-2.725	-2.4229	-2.7083	-2.6708	-2.5542	231.507	-1.463	122.766	211.576	217.663	27.007	219.629	146.875	24.846	-31.461	52.972	156.956	149.280	211.635	11.074	253.291	0.00036905	0.0010476	4.945e-05	377.12	8.6319e-06	8.1493e-06	532.02	114.41	4.4742e-06	7.9404e-06	222.08	87.933	37.876	18.45	4.4989e-06	50.414	0.0028899	0.0035337	0.00099497	399.42	3.645e-05	3.8348e-05	547.97	122	3.6239e-05	3.9097e-05	411.48	91.391	43.527	20.099	3.8294e-05	51.796	-48.478	64.347	199.453	-55.661	199.169	158.248	-54.973	-50.041	130.262	119.345	-52.845	-46.453	-45.978	-42.847	128.078	-43.971	-8191	255	
17523.504	1	1	0	0	0.30473	0.13852	0.16782	0.15208	0.20555	0.20806	0.26373	0.11507	0.18353	0.063699	0.12654	0.15508	0.10284	0.2045	0.32735	0.033854	-2.2229	-2.4396	-2.5667	-2.6417	-2.6354	-2.6979	-2.6542	-2.4437	-2.6063	-2.6479	-2.45	-2.5958	-2.575	-2.5812	-2.6312	-2.4396	158.943	252.162	147.797	65.419	33.496	220.025	-52.289	221.203	60.252	-7.518	231.516	231.697	-53.708	155.262	288.773	154.103	0.00027337	0.0010636	0.00016574	375.58	9.8385e-06	5.785e-06	530.07	112.75	3.579e-06	4.1822e-06	216.07	86.524	37.984	18.254	2.0396e-05	49.752	0.0029659	0.0035687	0.00098945	399.15	3.7668e-05	3.9372e-05	548.26	121.27	3.7564e-05	3.9556e-05	403.91	90.448	43.547	19.953	3.7287e-05	51.412	290.450	44.129	-28.287	-55.040	131.429	142.332	-55.095	-50.089	115.794	84.125	-51.308	-46.680	-45.812	-42.817	109.963	-43.373	-8191	255	
17523.602	1	1	0	0	0.14845	0.1807	0.077191	0.24711	0.30056	0.30032	0.17061	0.15069	0.15819	0.066942	0.22086	0.26283	0.092426	0.10228	0.076208	0.20338	-2.2833	-2.5458	-2.4333	-2.7167	-2.5875	-2.4938	-2.6771	-2.3708	-2.5687	-2.6	-2.3438	-2.7396	-2.425	-2.4417	-2.8083	-2.5708	34.866	232.226	4.953	-39.447	237.279	196.402	240.744	172.426	118.351	208.573	7.781	212.291	55.973	281.019	85.738	231.002	0.00027301	0.00063456	0.00011939	376.57	5.4392e-06	4.4027e-06	533.33	112.79	4.2763e-06	4.4718e-06	219.88	86.356	37.847	18.031	1.6818e-05	49.624	0.0030279	0.0035682	0.00097786	401.56	3.8172e-05	3.9194e-05	548	120.98	3.7738e-05	3.9491e-05	400.97	90.521	43.522	19.878	3.6068e-05	51.378	-49.808	98.572	11.286	-55.293	221.331	128.930	-55.340	-49.673	55.334	39.798	-50.958	-46.456	-46.000	-42.544	104.145	-43.889	-8191	255	
17523.695	1	1	0	0	0.10685	0.11221	0.22484	0.34023	0.20461	0.32537	0.14861	0.14944	0.10598	0.11037	0.068296	0.087419	0.26683	0.066105	0.097926	0.10258	-2.1646	-2.5833	-2.3354	-2.6979	-2.4146	-2.4583	-2.6042	-2.3271	-2.5146	-2.7854	-2.2979	-2.6521	-2.7146	-2.5062	-2.8063	-2.5229	264.520	-8.370	256.349	250.931	27.774	195.544	-35.221	123.197	173.690	214.204	178.424	167.797	-30.477	267.727	-31.920	203.265	0.00026964	0.00050693	6.3485e-05	380.89	5.0073e-06	1.3108e-05	534.99	112.08	1.2061e-05	4.9346e-06	214.62	86.989	37.554	18.144	1.1586e-05	50.139	0.0030264	0.003546	0.00094092	403.47	3.843e-05	3.9077e-05	549.19	121.42	3.8317e-05	3.944e-05	399.65	90.893	43.309	19.851	3.6036e-05	51.671	289.007	67.728	52.944	-55.400	54.992	55.873	-54.996	-50.138	125.322	230.541	-50.950	-46.398	-45.867	-42.726	40.384	-43.509	-8191	255	
17523.791	1	1	0	0	0.11689	0.32379	0.44505	0.1704	0.19237	0.10298	0.10795	0.36518	0.13927	0.042324	0.16598	0.014494	0.083551	0.23545	0.22894	0.087041	-2.15	-2.6292	-2.2313	-2.8083	-2.4125	-2.4875	-2.9375	-2.5167	-2.5021	-2.6354	-2.5042	-2.525	-2.4875	-2.4521	-2.6729	-2.4979	-17.268	-48.853	208.316	182.201	246.509	202.398	97.736	269.790	259.579	157.110	219.175	112.213	-41.620	285.932	50.204	130.739	0.00033947	0.0011353	0.00022619	378.81	5.7103e-06	7.5875e-06	534.36	112.75	4.0416e-06	3.1818e-06	217.51	87.078	37.613	18.228	6.6812e-06	50.139	0.003063	0.0034725	0.00095489	403.77	3.8567e-05	3.8096e-05	548.76	121.59	3.825e-05	3.8186e-05	404.38	91.158	43.541	19.788	3.6974e-05	51.844	-34.170	-28.907	252.044	-55.515	81.878	36.823	-55.178	-49.737	184.625	120.719	-49.789	-46.768	-45.452	-43.171	251.273	-43.997	-8191	255	
17523.912	1	1	0	0	0.24062	0.13727	0.13975	0.14594	0.21899	0.17142	0.092805	0.25303	0.26217	0.20456	0.14531	0.17982	0.17976	0.13742	0.11179	0.23267	-2.1354	-2.6937	-2.3729	-2.5438	-2.5979	-2.6	-2.6875	-2.3958	-2.4437	-2.6542	-2.4062	-2.4771	-2.6146	-2.3229	-2.6646	-2.6375	-64.579	248.876	164.670	282.263	168.431	234.967	207.589	133.215	98.654	54.638	-40.219	9.699	-18.629	-50.923	-54.864	162.317	0.00032793	0.0012472	0.00016266	373.32	1.2396e-05	3.1649e-06	532	112.2	6.3003e-07	3.8837e-06	224.41	86.485	37.371	18.031	1.2332e-05	49.651	0.0030523	0.0033641	0.00097285	401.22	3.8271e-05	3.7262e-05	546.16	121.15	3.8389e-05	3.7116e-05	407.97	90.738	43.285	19.697	3.8036e-05	51.422	-48.941	48.263	43.552	-55.422	78.844	128.253	-55.063	-50.026	77.455	120.848	-51.064	-46.561	-45.800	-42.639	49.818	-43.884	-8191	255	
17524.008	1	1	0	0	0.26086	0.013723	0.15384	0.1458	0.19041	0.11693	0.13609	0.078655	0.24706	0.12418	0.10042	0.093408	0.045933	0.14472	0.22149	0.29345	-2.0875	-2.7854	-2.4271	-2.475	-2.625	-2.4625	-2.7021	-2.5062	-2.4396	-2.6833	-2.5917	-2.5979	-2.6396	-2.4437	-2.5125	-2.5812	257.820	6.791	69.872	-10.793	55.288	255.169	281.270	-25.160	206.124	162.413	61.083	-49.736	-59.412	173.654	111.334	58.776	0.00032791	0.00069562	0.00024585	371.91	2.8848e-06	7.9913e-06	528.35	112.3	1.0376e-05	9.3794e-06	221.13	86.574	37.653	18.17	7.3078e-06	49.696	0.0030396	0.0033545	0.0009947	399.74	3.7589e-05	3.7255e-05	544.67	121.16	3.7094e-05	3.737e-05	409.86	90.639	43.08	19.755	3.8168e-05	51.563	291.417	56.952	-22.114	-55.456	41.841	51.893	-55.076	-49.881	143.812	85.383	-50.214	-46.481	-45.795	-43.115	184.197	-43.772	-8191	255	
17524.104	1	1	0	0	0.16255	0.11272	0.024628	0.011624	0.12617	0.10098	0.35553	0.10323	0.21499	0.12166	0.12979	0.14229	0.063935	0.18646	0.13565	0.15408	-1.9854	-2.6354	-2.3521	-2.5896	-2.6875	-2.3021	-2.5875	-2.55	-2.3271	-2.5771	-2.5104	-2.4917	-2.6979	-2.3542	-2.7021	-2.625	98.914	254.797	159.396	98.210	-16.874	78.728	137.527	131.044	38.284	130.704	62.415	205.001	-51.407	258.663	250.847	172.167	0.00022959	0.000964	0.00014537	374.74	7.4268e-06	2.4376e-06	527.32	111.32	2.2417e-06	6.6862e-06	224.06	86.79	37.711	18.128	1.1494e-05	50.256	0.0029711	0.0034415	0.00099985	400.71	3.6481e-05	3.8505e-05	545.59	121.26	3.6758e-05	3.794e-05	413.17	91.008	43.052	19.853	3.8426e-05	51.795	-64.141	55.578	-50.337	-55.660	207.884	225.789	-55.126	-50.239	59.183	212.349	-49.194	-46.638	-45.882	-42.566	152.193	-43.753	-8191	255	
17524.199	1	1	0	0	0.4921	0.30454	0.088599	0.05598	0.11407	0.11754	0.157	0.15849	0.21805	0.18754	0.046556	0.14971	0.10191	0.16163	0.090512	0.14548	-2.0333	-2.7979	-2.4854	-2.3833	-2.6813	-2.7146	-2.5812	-2.575	-2.4667	-2.6667	-2.3937	-2.6333	-2.675	-2.3688	-2.4542	-2.7729	195.339	214.217	260.167	285.685	289.125	157.447	78.534	265.900	214.582	-2.896	145.860	263.780	23.289	210.591	131.009	234.788	0.00020639	0.00041874	0.00016891	376.09	6.7292e-06	1.0966e-05	530.67	112.03	6.2783e-06	2.3759e-06	224.35	87.114	37.514	18.178	8.4284e-06	49.947	0.0028738	0.0034373	0.0010003	400.63	3.5528e-05	3.8793e-05	547.31	121.42	3.5876e-05	3.8378e-05	411.17	91.16	42.984	19.887	3.8449e-05	51.795	-45.899	-49.924	275.829	-55.386	96.075	30.505	-55.060	-49.782	197.992	-32.086	-50.140	-46.296	-45.697	-42.749	97.568	-43.955	-8191	255	
17524.297	1	1	0	0	0.050216	0.070568	0.074591	0.090325	0.19578	0.16487	0.35912	0.066216	0.21307	0.023702	0.14558	0.071198	0.068263	0.1787	0.112	0.32105	-1.8167	-2.6229	-2.6229	-2.5604	-2.5792	-2.5104	-2.7167	-2.6896	-2.3312	-2.6208	-2.5354	-2.5104	-2.6375	-2.3563	-2.4271	-2.9396	192.693	218.732	255.226	202.588	148.816	74.700	233.321	15.274	3.939	204.018	221.660	167.415	132.184	-62.158	273.031	191.678	0.0004415	0.00025223	5.3272e-05	374.99	4.2386e-06	3.8057e-06	527.95	112.31	1.24e-05	4.7567e-06	222.62	86.617	37.856	18.035	7.2291e-06	49.821	0.0029361	0.0034932	0.00099908	398.91	3.6336e-05	3.9172e-05	545.12	120.9	3.7133e-05	3.8659e-05	413.63	90.589	43.117	19.838	3.8167e-05	51.4	-58.246	25.418	270.960	-55.566	143.704	86.882	-55.216	-49.827	75.259	139.713	-50.212	-46.795	-46.061	-42.766	127.335	-43.732	-8191	255	
17524.393	1	1	0	0	0.19444	0.17371	0.31518	0.29667	0.080593	0.19179	0.086227	0.038851	0.21868	0.37324	0.067242	0.37218	0.1219	0.12919	0.11574	0.097622	-2.0792	-2.6437	-2.5458	-2.3396	-2.6917	-2.7104	-2.4562	-2.6417	-2.55	-2.5396	-2.6354	-2.3563	-2.5854	-2.6271	-2.4417	-2.8812	-44.360	-2.505	235.672	206.097	-29.127	107.846	137.516	217.872	230.793	47.256	-51.456	222.985	81.316	200.939	4.757	-44.241	0.00028391	0.0004444	0.0001318	374.5	1.32e-05	1.6926e-06	528.55	112.6	6.3175e-06	6.5528e-06	218.15	87.134	37.663	18.346	1.001e-05	50.111	0.0029718	0.0034883	0.00099364	397.72	3.6824e-05	3.9064e-05	544.84	120.55	3.7158e-05	3.9005e-05	406.44	90.812	43.25	19.95	3.7869e-05	51.641	277.230	-23.731	203.506	-55.378	52.834	-33.478	-54.972	-50.071	-10.895	93.129	-51.051	-46.568	-45.757	-42.732	119.708	-43.872	-8191	255	
17524.488	1	1	0	0	0.13704	0.15854	0.21566	0.036869	0.22881	0.12678	0.11224	0.14989	0.27596	0.18627	0.13145	0.15242	0.077653	0.14327	0.071555	0.16935	-1.9771	-2.5146	-2.4437	-2.3688	-2.6896	-2.4542	-2.4375	-2.625	-2.3208	-2.4708	-2.7083	-2.3021	-2.8375	-2.5771	-2.3917	-2.7167	-67.695	234.622	42.450	228.260	208.792	118.356	236.097	11.882	71.497	-12.507	242.692	209.551	-25.735	83.038	161.398	228.330	0.00036584	0.00058692	5.7453e-05	375.68	5.7494e-06	3.3973e-06	528.24	113.4	8.3369e-06	2.7683e-06	214.31	87.52	37.812	18.389	1.9905e-06	49.809	0.0030119	0.003507	0.00096057	398.8	3.7074e-05	3.934e-05	543.73	121.56	3.7493e-05	3.9452e-05	401.3	91.442	43.359	20.042	3.6407e-05	51.658	-60.869	67.282	152.943	-55.251	-29.294	-60.428	-54.831	-50.060	47.122	96.307	-51.514	-46.489	-45.925	-42.762	6.910	-43.579	-8191	255	
17524.607	1	1	0	0	0.36617	0.049421	0.063237	0.21345	0.072628	0.13346	0.10012	0.26237	0.16786	0.082436	0.14872	0.16966	0.030355	0.12693	0.19603	0.16354	-2.0333	-2.35	-2.5583	-2.4958	-2.7542	-2.475	-2.4062	-2.5958	-2.5229	-2.7396	-2.6312	-2.3563	-2.7896	-2.5062	-2.4625	-2.8	245.086	169.125	48.300	204.057	-61.255	149.973	45.618	142.594	3.871	253.483	182.970	-15.890	65.617	-21.422	92.863	120.881	0.000304	4.3665e-05	0.00021569	373.22	1.5786e-05	8.4359e-06	530.7	113.68	1.2703e-06	2.823e-06	215.79	88.077	37.971	18.269	1.5435e-05	50.29	0.0030323	0.00346	0.00092313	398.76	3.7254e-05	3.8785e-05	545.3	121.71	3.7477e-05	3.8747e-05	397.06	91.856	43.64	20.051	3.6565e-05	51.974	-63.394	93.342	286.428	-55.147	205.844	174.402	-54.868	-49.996	288.823	99.013	-49.834	-46.524	-46.279	-42.804	221.137	-43.822	-8191	255	
17524.703	1	1	0	0	0.046787	0.092292	0.15682	0.13134	0.085049	0.22129	0.32095	0.33902	0.25981	0.063446	0.15102	0.049343	0.16469	0.13769	0.16089	0.22361	-2.0792	-2.5542	-2.5146	-2.5417	-2.575	-2.7812	-2.5208	-2.6875	-2.5979	-2.5042	-2.7188	-2.5583	-2.5125	-2.5938	-2.4479	-2.8208	226.113	-40.388	82.277	-54.435	81.715	126.360	248.611	254.793	223.041	269.148	203.789	3.608	45.443	141.193	75.856	-53.087	0.00020124	0.0005341	0.00018618	373.96	9.4948e-06	1.4764e-05	526.38	113.01	8.7582e-06	2.6543e-06	225.61	87.7	37.951	18.365	5.515e-06	50.448	0.0030584	0.0034423	0.00093775	399.51	3.7836e-05	3.8155e-05	543.3	121.76	3.7935e-05	3.8397e-05	401.78	91.372	43.605	19.976	3.6882e-05	51.779	281.154	257.865	31.913	-55.286	124.020	55.643	-55.023	-50.051	181.343	64.434	-49.940	-46.579	-46.165	-42.967	182.467	-44.027	-8191	255	
17524.801	1	1	0	0	0.23439	0.27354	0.093129	0.052407	0.032146	0.19759	0.087041	0.076245	0.42532	0.26535	0.26283	0.23053	0.25829	0.32014	0.20047	0.058311	-1.9688	-2.3771	-2.825	-2.3833	-2.6083	-2.6875	-2.6021	-2.5917	-2.6667	-2.4562	-2.9208	-2.625	-2.5396	-2.5667	-2.2854	-2.7375	190.688	45.206	211.410	141.605	116.698	241.215	217.303	191.595	171.673	54.287	-24.670	291.006	251.156	84.770	206.181	-3.474	0.00035473	0.0007998	8.5478e-05	373.25	8.446e-06	3.1844e-06	529.59	113.51	7.4591e-06	8.393e-06	217.21	87.262	37.848	18.243	1.0978e-05	50.086	0.0030563	0.0033844	0.00096198	400.04	3.8532e-05	3.7119e-05	544.18	121.78	3.8002e-05	3.6996e-05	405.19	91.47	43.592	19.894	3.7909e-05	51.918	-51.970	172.238	50.703	-55.271	140.847	148.977	-54.918	-49.501	42.063	69.701	-51.316	-46.327	-45.907	-43.094	111.535	-43.572	-8191	255	
17524.871	1	1	0	0	0.23062	0.19499	0.16752	0.13167	0.045149	0.21669	0.22121	0.29274	0.12802	0.086817	0.13564	0.23831	0.066957	0.16562	0.096678	0.24062	-2.1979	-2.4771	-2.6542	-2.3979	-2.4688	-2.6625	-2.5792	-2.6667	-2.6292	-2.3604	-2.6229	-2.6188	-2.3167	-2.9479	-2.3417	-2.7146	176.781	86.081	142.568	-67.570	62.628	230.723	291.130	291.159	124.223	-29.377	233.142	150.546	26.646	134.345	109.636	246.425	0.00017898	0.00047733	0.0001378	373.38	3.4296e-06	8.3843e-06	529.63	113.34	5.5232e-06	7.1918e-06	219.16	87.732	38.394	18.44	6.7312e-06	50.57	0.0030379	0.0033255	0.00097687	400.5	3.7239e-05	3.7198e-05	547.12	122.13	3.7263e-05	3.8128e-05	408.78	91.777	43.656	20.028	3.8356e-05	52.244	282.536	68.190	12.520	-55.379	67.726	112.186	-55.215	-50.002	83.879	153.177	-50.473	-46.519	-45.540	-43.044	11.269	-43.884	-8191	255	
17524.992	1	1	0	0	0.20168	0.12276	0.25513	0.12878	0.15932	0.05671	0.24306	0.19181	0.12464	0.023351	0.27385	0.17023	0.080426	0.30188	0.13803	0.084716	-2.1708	-2.4771	-2.7896	-2.5729	-2.3479	-2.8083	-2.4417	-2.6333	-2.7542	-2.2812	-2.6188	-2.5062	-2.4375	-2.6542	-2.4979	-2.6083	-20.982	284.128	141.120	-55.682	200.830	128.574	269.526	215.789	36.382	52.463	34.896	7.303	61.985	112.810	88.951	125.448	0.00023432	0.0005143	0.0002226	379.27	1.2562e-05	4.9115e-06	532.7	113.05	9.8983e-06	5.405e-06	217.67	87.598	37.697	18.402	1.1822e-05	50.201	0.0029946	0.0034368	0.00098541	404.26	3.7234e-05	3.8214e-05	550.5	122.22	3.6598e-05	3.8382e-05	409.68	91.747	43.186	20.022	3.813e-05	51.962	-62.822	61.519	114.141	-55.484	51.259	46.212	-55.068	-50.276	51.382	28.011	-51.477	-46.375	-46.123	-42.582	59.432	-43.669	-8191	255	
17525.088	1	1	0	0	0.20872	0.21301	0.16688	0.014468	0.29901	0.059415	0.091687	0.14096	0.2401	0.066646	0.13385	0.086245	0.036868	0.29358	0.20778	0.086397	-2.0938	-2.4104	-2.6542	-2.5125	-2.3917	-2.6688	-2.5438	-2.5146	-2.6083	-2.5438	-2.4792	-2.6875	-2.4208	-2.6708	-2.4708	-2.4292	10.448	-17.996	243.016	184.709	53.651	219.269	56.085	79.305	17.326	141.889	132.874	138.818	135.462	248.373	185.562	187.943	0.00033876	0.001172	0.00013378	375.02	8.8435e-06	4.2487e-06	529.07	112.52	7.5737e-06	4.488e-06	219.91	86.816	37.467	18.143	1.0979e-05	49.873	0.0028991	0.0034909	0.00097995	402.59	3.5927e-05	3.8759e-05	546.7	120.91	3.5904e-05	3.9165e-05	409.41	90.712	43.013	19.849	3.8409e-05	51.486	-50.165	37.048	10.105	-55.398	-25.051	93.453	-55.051	-49.864	89.068	65.488	-50.843	-46.071	-45.863	-42.860	134.525	-43.798	-8191	255	
17525.184	1	1	0	0	0.16203	0.18543	0.1102	0.29321	0.032413	0.21104	0.075874	0.14485	0.11387	0.09091	0.17726	0.27994	0.092391	0.1551	0.14086	0.3749	-2.1417	-2.35	-2.4771	-2.6167	-2.3917	-2.6562	-2.5896	-2.6	-2.7354	-2.2938	-2.4813	-2.7458	-2.2542	-2.575	-2.4313	-2.4583	210.741	159.662	53.510	77.864	-43.255	249.352	-11.363	212.183	118.827	137.632	-17.643	280.365	109.058	37.693	104.000	286.325	0.0004226	0.0013543	0.0002196	375.46	1.042e-05	9.3213e-06	528.48	112.29	2.3954e-06	1.484e-05	216.88	87.115	37.854	18.299	7.1063e-06	50.122	0.0029168	0.0035228	0.00098108	399.73	3.7057e-05	3.8527e-05	545.94	120.89	3.6774e-05	3.9026e-05	411.04	90.681	43.278	19.934	3.8336e-05	51.66	-62.473	140.965	40.348	-55.416	76.470	83.456	-55.092	-49.904	78.941	4.541	-50.843	-46.629	-45.838	-43.323	117.555	-43.744	-8191	255	
17525.281	1	1	0	0	0.096433	0.091609	0.28982	0.083006	0.025675	0.17425	0.14227	0.0058269	0.20177	0.18091	0.11612	0.43129	0.26478	0.13761	0.1638	0.14794	-2.4667	-2.3646	-2.35	-2.5708	-2.5021	-2.6708	-2.5146	-2.4688	-2.6354	-2.5292	-2.4625	-2.575	-2.475	-2.5708	-2.5	-2.5375	196.612	89.660	248.192	206.518	200.831	173.787	122.669	206.541	-55.976	174.207	34.583	275.714	263.035	11.094	150.207	-48.373	0.00018547	0.00041754	0.00028446	374.2	9.0168e-06	6.7146e-06	531.55	112.39	4.2436e-06	1.3307e-06	223	87.289	37.902	18.184	7.3507e-06	49.943	0.0029571	0.0035505	0.00098369	398.12	3.7438e-05	3.858e-05	546.65	120.8	3.7151e-05	3.8966e-05	409.98	90.792	43.421	19.892	3.742e-05	51.581	-62.261	173.149	279.186	-55.414	-10.107	69.420	-55.095	-50.328	131.613	32.260	-49.994	-46.352	-45.742	-42.830	212.622	-43.767	-8191	255	
17525.398	1	1	0	0	0.035562	0.26564	0.16846	0.13027	0.23156	0.23144	0.2079	0.11471	0.070218	0.23526	0.15454	0.13457	0.061693	0.15798	0.15718	0.24312	-2.2854	-2.3667	-2.3688	-2.6479	-2.3354	-2.6708	-2.6979	-2.4396	-2.7729	-2.4667	-2.4188	-2.6167	-2.3354	-2.6042	-2.625	-2.3563	108.691	269.138	-23.779	216.816	57.617	112.033	178.872	231.420	231.798	185.293	-55.599	11.394	144.739	236.480	273.779	228.082	0.0003855	0.00048685	0.0003124	377.12	8.0996e-06	8.0153e-06	529.87	112.9	7.7784e-06	3.9056e-06	217.67	87.382	37.865	18.293	3.3287e-06	49.82	0.0030066	0.0034972	0.00095304	400.44	3.7317e-05	3.9006e-05	546.43	121.48	3.7039e-05	3.9042e-05	404.92	91.017	43.451	19.954	3.6954e-05	51.63	288.545	23.929	82.964	-55.146	21.519	44.222	-55.202	-49.848	9.822	225.105	-51.924	-46.590	-46.130	-42.839	85.022	-43.634	-8191	255	
17525.473	1	1	0	0	0.14412	0.14986	0.172	0.27582	0.29336	0.073351	0.10342	0.36868	0.07345	0.00092824	0.040933	0.070827	0.055053	0.29979	0.085318	0.29931	-2.1833	-2.3979	-2.2917	-2.7271	-2.3563	-2.6188	-2.6813	-2.3583	-2.8146	-2.6437	-2.1479	-2.6896	-2.4208	-2.5875	-2.8771	-2.5083	-46.977	190.131	276.751	275.076	105.169	224.066	-20.348	282.761	150.836	180.000	154.900	289.221	263.476	202.714	42.212	214.510	0.00033377	0.00027666	0.00035569	376.13	5.8189e-06	4.2548e-06	525.92	112.97	4.3862e-06	9.1796e-06	221.8	87.493	37.75	18.165	7.4262e-06	50.096	0.0029957	0.0035548	0.00094494	400.13	3.7522e-05	3.9095e-05	542.18	121.47	3.7075e-05	3.8727e-05	399.71	90.914	43.379	19.896	3.5784e-05	51.618	-63.903	149.332	45.060	-55.428	-24.484	35.343	-55.005	-50.389	271.083	90.250	-51.021	-46.750	-45.786	-42.855	96.739	-43.929	-8191	255	
17525.594	1	1	0	0	0.15912	0.1546	0.16858	0.2729	0.034702	0.13334	0.20116	0.23159	0.15299	0.090092	0.20661	0.21924	0.36031	0.27112	0.13043	0.19057	-2.0479	-2.5646	-2.3458	-2.5854	-2.4125	-2.6688	-2.8208	-2.5187	-2.7104	-2.6688	-2.2333	-2.7292	-2.2708	-2.75	-2.7021	-2.3063	219.562	-9.907	151.920	251.745	216.348	178.289	206.996	262.930	135.971	-44.773	274.470	102.366	97.673	243.931	189.512	221.918	0.00018121	0.00020966	0.00021291	373.28	7.0983e-06	6.115e-06	524.08	112.72	6.9208e-06	9.141e-06	214.46	86.871	37.461	18.431	7.1904e-06	49.989	0.0029804	0.003433	0.00092809	398.64	3.7025e-05	3.8015e-05	540.94	121.23	3.6333e-05	3.7145e-05	398.82	90.71	43.175	19.795	3.5705e-05	51.55	283.341	28.109	-28.506	-55.531	283.458	-11.256	-54.940	-49.900	180.218	19.202	-50.625	-46.724	-45.812	-43.211	54.976	-43.956	-8191	255	
17525.688	1	1	0	0	0.084947	0.052697	0.055045	0.18196	0.21686	0.14977	0.13351	0.095704	0.095647	0.26857	0.1515	0.044022	0.057558	0.09125	0.18054	0.20271	-2.0812	-2.4271	-2.2979	-2.6063	-2.3479	-2.325	-2.7333	-2.4667	-2.6229	-2.5625	-2.3417	-2.5417	-2.5792	-2.3854	-2.775	-2.5104	191.333	221.880	-8.851	251.060	217.747	213.435	226.483	253.168	31.593	169.057	217.125	118.338	255.353	183.817	-30.547	229.763	0.00027182	0.00082599	0.00032954	376.28	1.76e-05	4.399e-06	528.27	113.26	7.1113e-06	3.6029e-06	219.41	86.906	37.639	18.403	6.2542e-06	50.09	0.0029599	0.0032741	0.0009294	400.28	3.6894e-05	3.6014e-05	543.89	121.37	3.6322e-05	3.5696e-05	402.2	90.807	43.297	19.805	3.5701e-05	51.673	-66.830	12.349	51.931	-55.490	113.132	43.316	-54.951	-49.813	29.328	137.259	-49.769	-46.496	-45.954	-42.746	82.936	-43.904	-8191	255	
17525.783	1	1	0	0	0.35088	0.16253	0.15792	0.076587	0.091555	0.099072	0.081698	0.11825	0.275	0.29628	0.13831	0.26416	0.1603	0.11701	0.27736	0.16748	-2.2125	-2.4396	-2.2708	-2.7292	-2.5083	-2.5208	-2.6396	-2.3125	-2.4938	-2.8937	-2.3792	-2.7792	-2.5563	-2.3354	-2.75	-2.5271	101.903	216.957	-49.265	269.822	235.465	253.957	-53.050	50.328	71.657	241.215	-45.615	261.596	216.997	-66.191	222.150	122.438	0.00015077	0.00057464	0.00014015	375.59	4.542e-06	2.628e-06	528.36	113.62	7.1707e-06	4.8832e-06	216.58	87.658	38.026	18.169	7.0173e-06	50.109	0.0028858	0.0031992	0.00093554	399.4	3.5866e-05	3.5865e-05	544.65	121.38	3.4837e-05	3.5492e-05	400.77	91.436	43.1	19.812	3.5721e-05	51.777	282.385	11.672	268.842	-55.264	100.301	259.534	-54.918	-49.792	104.191	203.908	-50.897	-46.724	-45.572	-42.726	78.776	-43.729	-8191	255	
17525.881	1	1	0	0	0.16198	0.15179	0.35088	0.21499	0.18319	0.19266	0.10913	0.19218	0.34622	0.12485	0.23791	0.092696	0.18213	0.16854	0.22932	0.5012	-2.0458	-2.5479	-2.2208	-2.6729	-2.6354	-2.3896	-2.8146	-2.4667	-2.4062	-2.6542	-2.3333	-2.7042	-2.4979	-2.1875	-2.7062	-2.4917	83.229	41.458	135.491	254.917	130.303	70.738	234.645	37.377	149.916	247.622	135.225	228.042	269.214	-52.914	205.018	282.843	0.00033297	0.00053065	0.00014854	377.35	2.412e-06	6.8385e-06	530.63	113.21	5.0487e-06	1.0454e-05	217.33	86.687	37.642	18.202	6.482e-06	49.914	0.0028298	0.0032629	0.00093853	400.34	3.4573e-05	3.6025e-05	544.39	121.08	3.379e-05	3.5955e-05	395.18	90.406	42.782	19.775	3.5395e-05	51.467	-44.540	-20.292	27.596	-55.617	68.026	108.075	-55.068	-49.968	207.843	-17.646	-50.052	-46.253	-45.924	-42.505	-31.012	-43.894	-8191	255	
17526.002	1	1	0	0	0.32847	0.12325	0.031784	0.032748	0.072153	0.35344	0.10373	0.064798	0.27656	0.15579	0.032787	0.063126	0.15786	0.094723	0.10843	0.25563	-1.8771	-2.5604	-2.3937	-2.6521	-2.6458	-2.5563	-2.6688	-2.6271	-2.3812	-2.6667	-2.2521	-2.7271	-2.6479	-2.4188	-2.8167	-2.6813	199.900	-25.644	-53.659	37.876	249.528	243.119	191.091	147.320	-20.659	56.934	235.981	-53.489	96.134	261.189	164.407	197.290	0.0002522	0.00040433	0.00011239	379.18	4.6661e-06	4.1203e-06	527.82	112.6	5.423e-06	1.0064e-05	218.41	86.874	37.543	18.389	9.8033e-06	50.148	0.0027302	0.0032661	0.00092704	400.93	3.367e-05	3.6844e-05	542.7	120.68	3.3871e-05	3.6504e-05	395.84	90.49	42.601	19.855	3.5402e-05	51.458	-28.878	17.550	135.455	-55.255	266.265	34.144	-55.222	-50.134	169.389	113.026	-49.653	-46.664	-45.968	-42.575	206.015	-44.026	-8191	255	
17526.098	1	1	0	0	0.21805	0.38254	0.19779	0.20088	0.207	0.018823	0.1134	0.16968	0.014014	0.15055	0.16652	0.20189	0.16814	0.3244	0.15483	0.22249	-2.0146	-2.6625	-2.5417	-2.7667	-2.6479	-2.575	-2.6458	-2.5875	-2.4417	-2.8833	-2.4333	-2.3979	-2.6396	-2.5875	-2.525	-2.55	155.629	9.759	111.922	278.225	-32.204	38.235	134.097	246.409	85.382	-62.881	288.815	102.054	111.674	291.672	68.407	242.300	0.00034394	0.00076018	0.00014339	375.67	1.375e-05	5.488e-06	529.95	112.85	5.8366e-06	8.2986e-06	215.87	87.549	37.976	18.354	8.3187e-06	50.318	0.0027973	0.0032408	0.00092579	397.7	3.4207e-05	3.6564e-05	543.13	120.69	3.419e-05	3.6047e-05	397.91	90.809	43.058	19.902	3.5506e-05	51.672	-63.405	199.092	-52.336	-55.292	54.073	-28.659	-54.912	-50.263	4.260	-16.791	-50.996	-46.306	-45.649	-42.720	121.480	-43.681	-8191	255	
17526.170	1	1	0	0	0.15322	0.23598	0.044567	0.21749	0.14718	0.17661	0.17497	0.059699	0.28039	0.17002	0.23493	0.26312	0.11929	0.25517	0.12277	0.36181	-1.8979	-2.6271	-2.275	-2.4	-2.6833	-2.5208	-2.8187	-2.6167	-2.4146	-2.9	-2.5271	-2.6396	-2.6188	-2.5583	-2.4667	-2.6646	167.341	129.821	274.574	41.044	-41.182	143.684	251.252	-0.830	-31.260	76.045	11.751	204.886	263.273	215.820	255.364	212.303	0.00027738	9.1102e-05	0.00032319	378.09	1.293e-05	8.2976e-06	528.06	113.65	1.4111e-05	1.8504e-06	229	88.156	37.895	18.456	6.1963e-06	49.979	0.0028039	0.0032005	0.00091056	398.08	3.4628e-05	3.6159e-05	543.52	120.98	3.4393e-05	3.544e-05	395.57	91.036	42.977	19.873	3.4559e-05	51.383	-65.712	36.712	-56.408	-55.915	138.521	60.638	-54.833	-49.982	208.246	279.494	-50.708	-46.642	-46.285	-42.735	116.183	-43.712	-8191	255	
17526.289	1	1	0	0	0.24415	0.092376	0.24511	0.14181	0.10573	0.34387	0.14187	0.22514	0.082025	0.14331	0.14992	0.13027	0.28194	0.18371	0.074657	0.21996	-1.9271	-2.7479	-2.525	-2.3604	-2.7979	-2.5792	-2.5833	-2.6312	-2.2854	-2.7354	-2.7271	-2.5271	-2.65	-2.5083	-2.6562	-2.7687	5.726	202.190	108.795	-15.571	241.597	52.297	219.798	124.557	124.902	202.405	37.225	101.116	-62.423	246.899	-58.606	183.428	0.00041182	0.00075408	2.1129e-05	376.41	1.3061e-05	4.3116e-06	526.93	113.5	7.848e-06	3.1745e-06	227.5	87.461	37.989	18.353	6.1473e-06	50.11	0.0028346	0.0032089	0.00089522	397.5	3.4416e-05	3.5809e-05	539.56	120.87	3.4115e-05	3.5469e-05	388.52	90.736	43.116	19.844	3.3078e-05	51.495	-50.383	10.079	-1.529	-55.485	120.055	-39.126	-54.987	-49.834	79.136	174.695	-49.638	-46.470	-45.719	-42.791	76.376	-43.947	-8191	255	
17526.385	1	1	0	0	0.23989	0.1401	0.13273	0.27325	0.13504	0.26007	0.19655	0.16371	0.1504	0.27201	0.1158	0.034028	0.10517	0.20901	0.22891	0.038331	-1.9021	-2.5125	-2.6083	-2.3063	-2.6146	-2.425	-2.6	-2.5917	-2.2958	-2.7271	-2.5104	-2.3917	-2.7646	-2.4479	-2.3708	-2.675	-22.944	98.317	-62.000	179.077	119.428	-50.596	166.373	253.353	30.888	236.237	251.270	79.099	53.162	215.632	62.027	288.817	0.00032412	0.00071546	0.00017797	378.2	6.9719e-06	3.3167e-06	526.36	115.56	2.1063e-06	6.3626e-06	224.67	89.314	38.868	18.822	6.9451e-06	51.376	0.0027604	0.0031483	0.00085025	397.88	3.3649e-05	3.529e-05	538.7	122.87	3.3966e-05	3.4901e-05	385.46	92.712	43.822	20.316	3.2912e-05	52.687	-61.243	8.724	-66.656	-55.201	91.202	60.978	-55.093	-49.863	88.989	78.267	-50.174	-46.485	-45.532	-42.897	2.086	-44.223	-8191	255	
17526.480	1	1	0	0	0.16612	0.066323	0.18323	0.13853	0.090231	0.13912	0.19151	0.31351	0.17809	0.31568	0.21176	0.16971	0.10484	0.17888	0.14444	0.10598	-1.9354	-2.6854	-2.5542	-2.2792	-2.7396	-2.5208	-2.5042	-2.5792	-2.5167	-2.575	-2.5875	-2.5979	-2.4604	-2.4104	-2.3521	-2.7875	237.834	-56.161	263.935	-30.509	209.021	14.811	201.107	200.372	111.653	178.776	29.929	-37.186	253.145	127.937	56.237	142.925	0.00031551	2.9052e-05	0.00022354	378.1	7.2331e-06	4.1401e-06	528.25	116.56	7.4791e-06	1.2936e-05	225.07	89.055	38.786	18.653	6.1627e-06	50.985	0.0027712	0.0031406	0.00085437	399.85	3.3627e-05	3.473e-05	540.91	123.26	3.3901e-05	3.4232e-05	388.58	92.649	43.608	20.132	3.3488e-05	52.311	272.551	135.111	-37.282	-55.288	28.018	99.389	-54.878	-49.935	153.074	-8.207	-51.280	-46.541	-45.663	-42.911	28.371	-43.758	-8191	255	
17526.576	1	1	0	0	0.36249	0.11716	0.14911	0.39	0.078843	0.22958	0.14647	0.11449	0.19048	0.10117	0.17549	0.27744	0.092775	0.18542	0.1871	0.0733	-1.9312	-2.5292	-2.5104	-2.3708	-2.6708	-2.6458	-2.4896	-2.8812	-2.525	-2.4667	-2.6083	-2.5542	-2.6854	-2.5958	-2.3688	-2.8458	42.542	195.314	40.398	218.177	264.124	224.182	2.096	232.519	-24.664	123.885	258.613	193.598	213.406	199.487	89.994	214.640	0.00037332	0.00056821	0.00030356	380.17	9.7714e-06	4.7252e-06	527.31	115.07	1.1041e-05	9.6083e-06	221.07	88.773	38.544	18.632	1.0218e-05	50.647	0.0027475	0.0030956	0.00086504	400.12	3.404e-05	3.4095e-05	543.14	122.55	3.4147e-05	3.3663e-05	390.47	92.142	43.601	19.995	3.4603e-05	52.225	-61.360	18.829	169.595	-55.582	168.308	83.927	-54.805	-49.873	188.559	33.558	-49.956	-46.580	-45.775	-42.515	179.008	-43.915	-8191	255	
17526.674	1	1	0	0	0.22497	0.21679	0.21284	0.15375	0.017533	0.088343	0.25571	0.42452	0.20727	0.16944	0.23749	0.25986	0.21016	0.24854	0.029492	0.12339	-2.1083	-2.5396	-2.65	-2.2521	-2.4625	-2.5833	-2.3396	-2.7083	-2.5771	-2.5646	-2.7375	-2.4667	-2.5646	-2.7208	-2.3708	-2.4917	166.924	205.185	78.230	246.784	263.541	202.671	157.162	248.669	275.955	-45.666	-55.951	290.221	197.312	223.757	-53.674	291.508	0.00035031	0.00030929	0.00031552	375.28	5.5109e-06	3.2487e-06	524.31	115.25	7.9217e-06	1.281e-05	226.51	89.343	38.803	18.872	1.3429e-05	51.129	0.0027586	0.003058	0.00089821	398.28	3.3632e-05	3.4116e-05	540.31	122.82	3.3807e-05	3.4072e-05	394.65	92.48	43.741	20.265	3.4585e-05	52.496	-20.040	47.908	79.881	-55.357	-42.044	142.532	-54.707	-49.657	-43.888	138.093	-50.524	-46.538	-46.052	-42.897	131.231	-43.672	-8191	255	
17526.768	1	1	0	0	0.26618	0.07125	0.24347	0.13927	0.10701	0.11231	0.16641	0.1154	0.11246	0.089265	0.034326	0.04817	0.2459	0.058129	0.075918	0.088842	-2.2562	-2.3063	-2.7333	-2.375	-2.5292	-2.6437	-2.3833	-2.4125	-2.4854	-2.4646	-2.5604	-2.4354	-2.6542	-2.575	-2.5792	-2.6979	231.808	154.865	95.200	200.326	23.936	-38.991	177.840	154.087	160.056	-43.065	-23.083	235.123	203.356	-27.503	128.569	172.045	0.00031901	0.0011263	0.0001578	378.05	1.4543e-05	7.3449e-07	527.76	115.71	3.7324e-06	4.1485e-06	227.02	89.096	38.753	18.71	1.1999e-05	50.938	0.0027216	0.0031708	0.00090107	398.16	3.3391e-05	3.5417e-05	540.74	122.92	3.3413e-05	3.5371e-05	395.23	92.596	43.601	20.229	3.4798e-05	52.501	287.246	28.383	289.411	-55.512	114.125	-29.660	-55.089	-49.846	277.238	72.627	-49.551	-46.512	-45.243	-42.741	28.058	-43.805	-8191	255	
17526.863	1	1	0	0	0.087402	0.12574	0.071225	0.18434	0.12678	0.26216	0.12673	0.27117	0.14991	0.2524	0.22033	0.16771	0.051565	0.19635	0.074483	0.20999	-2.0708	-2.2562	-2.575	-2.5062	-2.6375	-2.8479	-2.4896	-2.75	-2.6208	-2.5125	-2.5417	-2.4958	-2.65	-2.7875	-2.2604	-2.4583	93.788	203.418	19.774	-49.941	153.600	209.280	-48.504	273.676	229.820	172.322	198.560	227.484	73.781	154.789	-26.156	-46.785	0.00025352	0.0010158	0.00022861	376.58	4.6709e-06	2.5195e-06	528.14	116.39	2.7739e-06	5.8948e-06	231.64	89.78	38.875	18.855	1.3369e-06	51.563	0.0027171	0.0032739	0.00090697	398.38	3.336e-05	3.5889e-05	542.28	123.5	3.3773e-05	3.6535e-05	401.19	93.331	43.991	20.485	3.5507e-05	53.115	-49.317	56.001	2.408	-55.214	30.068	102.907	-54.762	-49.779	240.113	68.833	-51.495	-46.184	-46.009	-43.079	134.011	-43.999	-8191	255	
17526.961	1	1	0	0	0.071229	0.18757	0.036783	0.24923	0.087981	0.20673	0.24777	0.14382	0.087316	0.05455	0.09284	0.12185	0.13437	0.012224	0.11403	0.16856	-2.1708	-2.3625	-2.7354	-2.5187	-2.5812	-2.7188	-2.5604	-2.7062	-2.6875	-2.4396	-2.8042	-2.7	-2.4417	-2.7604	-2.6354	-2.6104	217.194	67.700	128.100	-30.286	257.442	281.501	-64.764	284.834	194.118	94.809	-63.968	-43.895	262.208	226.255	182.320	229.495	0.00023848	0.00068972	0.00021309	374.98	1.9701e-06	4.4501e-06	527.19	116.1	6.7543e-06	6.0929e-07	227.62	89.853	38.964	18.899	8.2188e-06	51.498	0.0028031	0.0033471	0.00093057	399.69	3.4919e-05	3.7052e-05	543.92	124.19	3.5364e-05	3.691e-05	405.7	93.293	44.191	20.416	3.6183e-05	52.731	-63.917	24.464	-5.602	-55.255	54.028	114.625	-54.970	-50.043	279.056	222.733	-50.209	-46.426	-45.803	-42.762	127.843	-43.728	-8191	255	
17527.080	1	1	0	0	0.19722	0.30636	0.09572	0.11947	0.23248	0.17224	0.047886	0.15491	0.19065	0.30316	0.28155	0.10779	0.11225	0.14002	0.037099	0.32447	-2.2	-2.4125	-2.5438	-2.6896	-2.5271	-2.7083	-2.5875	-2.5667	-2.8292	-2.3229	-2.5729	-2.6833	-2.4313	-2.7375	-2.4667	-2.5104	99.339	69.103	261.113	162.134	-62.624	87.302	227.387	271.957	179.785	111.738	50.997	82.822	128.755	207.385	-20.815	-67.505	0.00027392	0.00090584	0.00019469	375.87	1.0021e-05	6.2628e-06	522.63	115.33	4.454e-06	6.5116e-06	219.97	88.929	38.476	18.722	2.4919e-06	51.26	0.0028674	0.0033845	0.00093612	397.11	3.5614e-05	3.6992e-05	540	122.98	3.5838e-05	3.7028e-05	398.61	92.288	44.029	20.281	3.589e-05	52.355	-51.596	-36.887	74.928	-55.200	-41.008	77.657	-55.133	-49.895	35.370	104.109	-52.376	-46.423	-45.867	-43.091	180.177	-43.992	-8191	255	
17527.178	1	1	0	0	0.077823	0.065939	0.12456	0.14757	0.20365	0.2206	0.080542	0.12762	0.083947	0.14486	0.3058	0.070649	0.36315	0.11051	0.24095	0.13744	-2.2167	-2.3833	-2.7292	-2.8917	-2.4625	-2.5104	-2.6229	-2.4667	-2.7667	-2.2833	-2.6083	-2.8542	-2.5167	-2.6583	-2.4708	-2.6083	272.133	126.397	269.959	246.720	184.603	-28.084	3.013	122.646	214.151	85.498	74.480	173.782	11.848	242.637	104.853	52.570	0.0002501	0.00032416	7.9067e-05	373.93	1.3483e-05	5.8979e-06	525.55	115.45	9.945e-06	5.074e-06	223.02	89.902	38.538	18.681	4.082e-06	51.33	0.0029108	0.0033245	0.00091808	396.9	3.5923e-05	3.6877e-05	539.14	123.08	3.5532e-05	3.6905e-05	397.14	93.004	43.95	20.304	3.5109e-05	52.686	281.348	284.332	148.953	-55.307	97.690	163.011	-54.883	-49.843	121.207	85.702	-49.610	-46.737	-46.031	-42.831	61.083	-43.750	-8191	255	
17527.273	1	1	0	0	0.16627	0.11918	0.21906	0.27705	0.26143	0.14431	0.25051	0.12782	0.28708	0.13424	0.17566	0.2584	0.14605	0.080855	0.2397	0.18522	-2.1312	-2.3417	-2.4521	-2.5771	-2.425	-2.7917	-2.5271	-2.4542	-2.8021	-2.4896	-2.5271	-2.5458	-2.3771	-2.5833	-2.6375	-2.4042	63.297	130.451	-12.517	273.767	42.720	12.021	133.345	-23.527	290.675	286.807	84.618	261.165	204.861	-48.664	237.629	-65.954	0.00034631	0.00038828	0.00028221	375.45	1.4464e-05	5.4609e-06	524.95	115.43	5.0375e-06	7.2647e-06	222.7	89.186	38.535	18.597	2.7005e-06	50.846	0.0029052	0.0033636	0.00090516	398.44	3.6026e-05	3.7017e-05	539.75	123.2	3.5463e-05	3.7086e-05	391.07	92.902	43.914	20.204	3.4456e-05	52.478	-58.448	73.693	9.834	-55.296	162.098	-8.689	-54.954	-49.932	-51.419	78.283	-51.140	-46.675	-46.083	-42.908	78.728	-43.841	-8191	255	
17527.395	1	1	0	0	0.16164	0.18735	0.17816	0.30764	0.18264	0.20314	0.17461	0.07546	0.22025	0.13026	0.24212	0.31873	0.38826	0.08133	0.10089	0.27084	-2.1063	-2.5062	-2.4813	-2.7208	-2.45	-2.6021	-2.6042	-2.3583	-2.9	-2.2917	-2.4042	-2.6437	-2.3	-2.4042	-2.5729	-2.3729	-50.920	183.054	143.542	278.894	209.625	4.998	275.007	52.963	73.422	-2.397	176.578	261.081	3.195	-61.487	-59.390	272.303	0.00013556	0.00036562	0.00014298	379.32	1.9919e-06	1.4056e-06	529.32	115.05	8.2278e-06	1.0097e-05	224.48	88.755	38.097	18.675	2.1274e-06	50.695	0.0028974	0.0033262	0.00089954	401.46	3.5989e-05	3.6363e-05	543.9	123.48	3.5761e-05	3.6887e-05	399.25	92.611	43.869	20.193	3.6218e-05	52.365	274.403	24.352	-44.532	-55.528	14.306	69.680	-54.801	-49.689	115.229	100.193	-50.537	-46.626	-45.701	-42.704	163.856	-43.724	-8191	255	
17527.467	1	1	0	0	0.10373	0.045915	0.17029	0.33644	0.21539	0.043231	0.14769	0.23923	0.1304	0.087447	0.044107	0.25156	0.020559	0.11473	0.19623	0.29581	-2.1771	-2.5896	-2.3688	-2.4938	-2.3521	-2.4625	-2.5667	-2.3125	-2.5354	-2.5563	-2.2521	-2.5854	-2.4792	-2.7229	-2.6417	-2.3792	244.565	265.779	137.132	244.222	218.604	197.449	272.831	7.304	281.375	254.439	266.408	242.903	174.859	-23.852	141.944	1.603	0.00020949	0.0012296	0.00010303	376.65	6.7202e-06	8.6623e-06	523.67	113.75	3.9427e-06	7.0608e-06	227.81	88.356	38.762	18.475	1.0692e-05	50.832	0.0029089	0.0032973	0.00095146	400.18	3.6642e-05	3.6429e-05	541.2	122.77	3.6428e-05	3.6582e-05	406.86	92.22	43.825	20.088	3.6931e-05	52.279	-44.718	-35.435	65.529	-55.245	147.544	26.033	-54.927	-49.859	201.077	131.012	-50.925	-46.810	-46.194	-42.498	51.478	-44.138	-8191	255	
17527.562	1	1	0	0	0.36945	0.093588	0.035218	0.1412	0.13466	0.026583	0.13128	0.20067	0.097447	0.12431	0.23304	0.19951	0.17902	0.17826	0.13762	0.19364	-2.1646	-2.3479	-2.4208	-2.5583	-2.5333	-2.625	-2.6667	-2.5062	-2.5938	-2.4479	-2.35	-2.7812	-2.3625	-2.525	-2.925	-2.5146	290.001	290.750	273.119	-48.932	91.835	65.410	112.696	268.372	160.033	128.990	44.101	0.518	139.077	90.303	257.901	214.987	0.00026234	0.00047028	0.00015832	377.93	8.353e-06	4.178e-06	525.64	113.56	8.7227e-06	3.7829e-06	222.61	87.456	38.211	18.491	7.6355e-06	50.436	0.0029216	0.0032805	0.00095882	399.76	3.634e-05	3.5813e-05	541.91	122.38	3.5636e-05	3.6887e-05	405.48	91.655	43.459	20.05	3.6917e-05	52.037	-57.773	90.764	127.486	-55.370	203.300	290.690	-55.241	-49.714	115.662	173.713	-49.776	-46.761	-45.475	-42.987	150.630	-43.791	-8191	255	
17527.682	1	1	0	0	0.31324	0.1532	0.049534	0.24182	0.12967	0.18675	0.097284	0.22806	0.31787	0.30497	0.19964	0.20648	0.1643	0.019724	0.18944	0.17497	-2.2354	-2.6958	-2.2583	-2.7104	-2.5833	-2.5542	-2.6292	-2.4604	-2.6333	-2.6104	-2.3729	-2.7333	-2.6	-2.425	-2.8083	-2.5542	43.260	56.422	3.816	118.321	50.743	157.277	163.762	56.010	-27.211	69.782	67.223	281.814	114.560	-37.243	55.752	162.592	7.0097e-05	0.00041206	0.00045885	376.94	8.5899e-06	6.0189e-06	527.57	113.81	1.0468e-05	6.9509e-06	217.5	88.23	38.223	18.449	8.3349e-06	50.734	0.0028462	0.0033225	0.00097991	400.01	3.5463e-05	3.7016e-05	544.56	122.38	3.5204e-05	3.7519e-05	406	92.148	43.464	20.186	3.6839e-05	52.368	233.561	-36.732	-3.723	-55.297	133.058	175.734	-54.870	-49.917	12.612	199.735	-49.637	-46.384	-45.843	-43.230	102.726	-43.729	-8191	255	
17527.777	1	1	0	0	0.22563	0.16628	0.19171	0.10331	0.25756	0.026876	0.32916	0.058528	0.05296	0.040464	0.13091	0.021348	0.26983	0.21446	0.16221	0.17385	-2.1542	-2.3917	-2.3688	-2.5187	-2.625	-2.3625	-2.6396	-2.6583	-2.5563	-2.6833	-2.4896	-2.5312	-2.5021	-2.3729	-2.6021	-2.4562	-55.804	92.506	68.828	0.846	-59.171	160.945	232.516	109.160	172.608	142.578	-63.993	271.758	5.185	-7.836	124.753	79.270	0.00045515	0.0016174	8.0232e-05	377.77	3.5439e-06	5.035e-07	525.65	114.8	7.5828e-06	3.3563e-06	223.72	88.42	37.82	18.482	2.9827e-06	50.755	0.002793	0.0034184	0.00095685	400.27	3.4851e-05	3.7505e-05	542.31	122.69	3.5199e-05	3.8205e-05	406.5	91.981	43.507	20.185	3.6452e-05	52.192	285.509	15.307	229.733	-55.555	51.712	100.051	-55.030	-50.079	98.083	138.752	-51.848	-46.304	-45.570	-43.013	-64.138	-43.820	-8191	255	
17527.873	1	1	0	0	0.086386	0.19664	0.26168	0.074274	0.1409	0.26953	0.0188	0.13122	0.049745	0.1579	0.093432	0.25815	0.13764	0.19316	0.11841	0.22318	-1.9062	-2.5521	-2.3458	-2.7167	-2.5292	-2.4562	-2.6833	-2.3833	-2.3875	-2.6729	-2.3375	-2.6729	-2.7542	-2.3292	-2.6625	-2.6083	288.321	172.404	289.155	129.044	146.864	113.886	-31.448	187.744	186.845	139.952	128.705	-58.518	7.733	196.556	-52.245	222.131	0.00038281	0.00043349	0.00025227	375.42	1.0015e-05	6.355e-06	527.11	113.7	6.9616e-06	4.3922e-06	219.23	88.223	38.048	18.599	1.1858e-05	50.311	0.002835	0.0034302	0.00096791	398.11	3.5512e-05	3.7831e-05	540.1	121.55	3.5635e-05	3.7752e-05	399.88	91.689	43.501	20.16	3.6562e-05	51.857	283.047	37.724	-12.104	-55.099	61.597	60.028	-54.611	-50.046	-47.666	111.578	-49.910	-46.823	-46.061	-42.599	103.233	-43.944	-8191	255	
17527.994	1	1	0	0	0.10086	0.10419	0.28617	0.066806	0.29598	0.231	0.15394	0.054363	0.031793	0.1335	0.30714	0.17954	0.11631	0.1883	0.18363	0.20518	-1.9542	-2.5312	-2.4833	-2.7167	-2.7438	-2.325	-2.7875	-2.4646	-2.5667	-2.5729	-2.375	-2.6083	-2.6479	-2.4271	-2.4875	-2.5312	239.872	171.893	155.944	-43.929	37.240	249.837	228.770	194.148	-44.891	230.854	18.952	250.783	-12.945	230.131	-54.290	208.968	0.00032605	0.00049081	0.00010594	371.16	1.009e-05	1.2168e-05	523.52	114.18	5.2199e-06	1.9203e-06	228.16	87.985	38.311	18.594	4.0439e-06	50.371	0.0028863	0.0033803	0.00095699	396.04	3.6621e-05	3.7324e-05	540.83	121.89	3.708e-05	3.7457e-05	402.81	91.686	43.8	20.171	3.5882e-05	51.913	-46.341	40.014	-63.548	-55.341	159.685	100.594	-54.983	-49.873	203.639	32.482	-50.280	-46.656	-45.412	-43.035	165.277	-44.012	-8191	255	
17528.064	1	1	0	0	0.16169	0.10914	0.037491	0.20284	0.35388	0.094095	0.47871	0.20889	0.18198	0.12803	0.35195	0.15536	0.15002	0.18084	0.07137	0.17229	-1.8792	-2.6312	-2.4813	-2.4292	-2.5896	-2.3854	-2.65	-2.4292	-2.225	-2.8354	-2.5229	-2.7438	-2.6312	-2.5104	-2.8312	-2.5708	114.974	148.889	5.513	68.251	23.185	275.154	210.216	-43.131	68.888	274.978	120.338	262.389	222.301	159.395	173.485	141.312	0.00034804	0.00039413	0.00016573	376.1	1.1424e-05	2.1553e-06	526.11	114.18	1.1011e-05	6.4462e-07	227.44	88.914	38.248	18.451	7.1614e-06	50.766	0.0029432	0.0033561	0.00092877	398.73	3.6313e-05	3.7087e-05	541.98	122.45	3.6386e-05	3.6762e-05	395.68	92.157	43.789	20.149	3.4808e-05	52.339	276.543	64.894	-40.569	-55.254	289.547	98.122	-54.741	-49.563	24.288	15.325	-51.421	-46.655	-45.859	-43.000	61.026	-43.921	-8191	255	
17528.162	1	1	0	0	0.16956	0.23223	0.17968	0.097863	0.12686	0.071648	0.079609	0.26883	0.17164	0.12288	0.07558	0.33344	0.22928	0.060132	0.15914	0.33669	-2.0875	-2.5958	-2.5625	-2.5771	-2.6813	-2.3375	-2.7438	-2.6542	-2.4	-2.825	-2.5104	-2.5417	-2.7354	-2.4521	-2.7333	-2.7646	238.632	-54.194	193.027	146.577	250.109	-31.214	62.448	-14.662	8.313	60.406	-35.210	238.826	275.016	258.745	69.077	-43.063	0.00025448	0.00029937	2.369e-05	376.05	1.2808e-05	9.4357e-06	526.01	114.54	8.6921e-06	6.0278e-06	226.99	89.154	38.387	18.656	1.0896e-05	50.722	0.0028991	0.0033086	0.00090139	399.52	3.5765e-05	3.6725e-05	541.45	122.68	3.6321e-05	3.6363e-05	393.71	92.453	43.797	20.211	3.4304e-05	52.264	282.439	116.786	107.893	-55.243	157.948	105.582	-55.075	-50.058	-33.536	172.643	-51.063	-46.747	-46.025	-42.758	-2.196	-43.781	-8191	255	
17528.258	1	1	0	0	0.025817	0.21472	0.18976	0.25585	0.032491	0.21445	0.096824	0.16814	0.20178	0.10805	0.16101	0.13692	0.12495	0.12804	0.01537	0.05954	-1.9688	-2.6167	-2.2687	-2.4125	-2.85	-2.3208	-2.4917	-2.7083	-2.5604	-2.8812	-2.5	-2.4667	-2.7958	-2.4667	-2.5979	-2.775	195.257	99.243	89.155	137.779	-19.031	129.650	45.082	203.922	244.513	246.875	25.918	285.510	-64.539	-62.659	109.624	218.539	0.00030788	4.8038e-05	0.00011279	374.15	8.3437e-06	4.4703e-06	525.66	115.35	7.2692e-06	3.3679e-06	227.34	89.06	38.645	18.656	2.1394e-06	51.078	0.00289	0.0032307	0.00088728	399.51	3.5339e-05	3.6157e-05	539.84	123.13	3.5375e-05	3.5406e-05	393.85	92.259	43.889	20.167	3.5319e-05	52.474	-65.874	94.154	-54.905	-55.395	230.450	36.125	-54.767	-50.182	111.708	-40.085	-49.824	-46.544	-45.675	-42.911	165.512	-43.766	-8191	255	
17528.354	1	1	0	0	0.31731	0.031863	0.28077	0.027198	0.30346	0.32457	0.039405	0.2042	0.05423	0.32779	0.26651	0.20896	0.091499	0.22297	0.11419	0.17753	-2.0208	-2.5271	-2.4562	-2.3521	-2.725	-2.7458	-2.725	-2.8167	-2.5062	-2.8104	-2.5396	-2.5792	-2.6813	-2.5312	-2.5167	-2.7417	150.533	235.819	104.669	227.247	61.846	120.817	115.083	-51.757	124.409	76.258	2.493	202.040	82.502	212.509	259.747	7.801	0.00018757	0.00040306	0.00029602	374.45	8.1449e-06	9.4474e-06	525.02	114.42	7.8923e-06	1.086e-05	222.23	88.55	38.476	18.611	1.1683e-05	50.667	0.0028423	0.0031544	0.0009117	399.04	3.5354e-05	3.5357e-05	541.48	122.88	3.5644e-05	3.4829e-05	400.48	92.053	43.656	20.05	3.6063e-05	52.187	-57.201	100.433	181.285	-55.001	118.682	162.152	-54.676	-49.889	168.983	84.209	-51.139	-46.380	-45.701	-42.981	22.879	-43.819	-8191	255	
17528.473	1	1	0	0	0.20332	0.097785	0.093595	0.14915	0.062664	0.10414	0.25929	0.20106	0.106	0.29016	0.20664	0.19053	0.16166	0.085256	0.18737	0.054412	-1.9729	-2.5479	-2.5458	-2.575	-2.7438	-2.6167	-2.6521	-2.6813	-2.6437	-2.6729	-2.6417	-2.4188	-2.7062	-2.4896	-2.5708	-2.7625	131.302	35.208	66.614	274.157	183.032	111.084	59.985	-5.699	278.355	102.357	82.168	291.278	-28.986	-44.990	272.895	271.898	0.0003043	0.0014481	0.00015665	377.73	8.973e-06	6.1638e-06	525.52	114.94	8.7532e-06	4.0587e-06	226.22	88.589	38.185	18.762	5.156e-06	50.703	0.0028601	0.0031289	0.00092879	400.97	3.4789e-05	3.5018e-05	543.08	122.87	3.508e-05	3.5109e-05	403.49	92.344	43.652	20.204	3.6898e-05	52.402	290.496	-43.471	25.932	-55.418	106.064	113.435	-54.995	-50.164	134.791	14.995	-49.397	-46.749	-45.925	-43.066	142.316	-44.171	-8191	255	
17528.568	1	1	0	0	0.20598	0.23803	0.14037	0.14279	0.051122	0.22355	0.21961	0.094459	0.29018	0.2269	0.14399	0.13017	0.13589	0.12295	0.068943	0.17966	-1.9833	-2.5854	-2.6354	-2.4604	-2.6354	-2.5771	-2.625	-2.6562	-2.425	-2.4729	-2.7812	-2.5583	-2.6583	-2.5167	-2.3896	-2.8104	84.455	-51.183	43.350	194.740	-11.652	135.993	59.771	154.832	146.972	-49.742	67.921	174.553	66.583	-18.753	-58.171	-66.785	0.00026025	0.00056992	0.00017027	376.76	7.5732e-06	6.7293e-06	527.62	115.52	5.4045e-06	7.8195e-06	223.73	89.3	38.291	18.752	7.8337e-06	50.782	0.0027682	0.0032055	0.00094494	400.84	3.4048e-05	3.5772e-05	543.82	123.22	3.4196e-05	3.6691e-05	401.83	92.841	43.498	20.213	3.6181e-05	52.218	-46.489	113.730	59.927	-55.355	264.783	14.103	-55.199	-49.804	232.557	202.443	-49.594	-46.617	-45.966	-43.072	124.282	-44.057	-8191	255	
17528.643	1	1	0	0	0.085372	0.15345	0.16034	0.30476	0.10295	0.016324	0.23669	0.2417	0.029093	0.11563	0.33311	0.24012	0.3158	0.1556	0.11453	0.083536	-2.0125	-2.4354	-2.6	-2.5438	-2.5687	-2.4333	-2.4708	-2.5417	-2.7188	-2.525	-2.6437	-2.5833	-2.7938	-2.5187	-2.5208	-2.7792	136.302	200.130	-11.088	273.006	284.394	243.616	81.293	98.433	97.896	279.804	239.053	-29.410	58.241	284.757	25.568	281.539	0.00021131	8.2982e-05	3.8609e-05	378.07	7.9413e-06	5.6573e-07	528.4	114.32	5.6751e-06	5.1034e-06	224.76	88.654	38.455	18.581	9.24e-06	50.766	0.0027429	0.0032872	0.00093715	400.53	3.3436e-05	3.7183e-05	542.18	122.57	3.3778e-05	3.7239e-05	400.27	91.969	43.48	20.163	3.6215e-05	52.013	-17.417	196.466	236.989	-55.125	165.847	39.384	-55.180	-49.618	141.556	130.620	-49.944	-46.303	-45.797	-42.544	155.051	-43.903	-8191	255	
17528.762	1	1	0	0	0.26518	0.10819	0.067507	0.17418	0.2484	0.034619	0.17565	0.12558	0.22273	0.13251	0.21055	0.19353	0.25122	0.07183	0.055078	0.09047	-2.0792	-2.4792	-2.6188	-2.4437	-2.6958	-2.7479	-2.5146	-2.8187	-2.8187	-2.5042	-2.7979	-2.6042	-2.5333	-2.5729	-2.4792	-2.8271	259.029	260.855	162.590	234.611	212.363	284.896	142.737	283.642	25.578	280.717	57.060	-52.273	220.913	1.394	26.415	61.694	0.00031692	0.00069612	0.00023088	376.16	7.1222e-06	1.3154e-05	525.85	114.85	7.7894e-06	4.0812e-06	225.82	89.144	38.554	18.613	1.4193e-05	50.961	0.0027572	0.0032983	0.0009147	398.41	3.4241e-05	3.697e-05	541.8	122.42	3.4386e-05	3.7101e-05	399.14	92.385	43.728	20.241	3.5775e-05	52.169	-67.198	241.032	7.457	-55.344	214.898	73.592	-55.131	-49.719	150.441	55.469	-50.904	-46.766	-46.072	-43.142	-17.602	-43.928	-8191	255	
17528.857	1	1	0	0	0.1527	0.062123	0.073316	0.15609	0.11952	0.12138	0.13641	0.10159	0.13085	0.14044	0.054637	0.14452	0.055359	0.09421	0.2262	0.079402	-1.9854	-2.5896	-2.55	-2.5875	-2.5021	-2.8667	-2.55	-2.525	-2.575	-2.4313	-2.6771	-2.4833	-2.5062	-2.5708	-2.3354	-2.6458	188.357	-24.206	233.837	103.552	239.189	78.468	190.162	244.834	77.099	216.331	239.724	171.924	261.650	89.366	207.954	95.628	0.00022977	0.0005101	6.4722e-05	378.56	1.2019e-05	2.2845e-06	529.51	116.4	6.4658e-06	1.0077e-05	223.7	89.468	38.901	18.72	1.3781e-05	51.1	0.002813	0.0033132	0.00090822	399.68	3.5576e-05	3.628e-05	543.9	123.1	3.4906e-05	3.6275e-05	395.46	92.424	43.985	20.268	3.5455e-05	52.355	-63.240	163.358	51.563	-55.248	67.960	138.263	-54.797	-49.972	189.091	208.570	-50.397	-46.627	-45.747	-43.041	48.312	-43.834	-8191	255	
17528.953	1	1	0	0	0.076224	0.026333	0.33615	0.058899	0.13402	0.1614	0.13426	0.12682	0.054233	0.43336	0.16649	0.14479	0.17867	0.14847	0.13793	0.27343	-2.225	-2.4437	-2.5271	-2.5792	-2.725	-2.4917	-2.4771	-2.7417	-2.6146	-2.4271	-2.5979	-2.5083	-2.525	-2.8354	-2.2542	-2.6833	266.026	221.378	138.265	126.857	-51.722	286.033	-31.550	-15.963	-2.621	-36.160	193.993	161.004	287.658	-50.499	-26.788	255.680	0.00019413	0.00014296	0.00012525	377.68	5.1166e-06	7.573e-06	533.89	115.7	1.2293e-05	2.2617e-06	226.1	89.616	39.458	18.664	1.228e-05	50.901	0.0028453	0.003253	0.00089012	399.76	3.5668e-05	3.6215e-05	545.54	123.24	3.5089e-05	3.6697e-05	392.18	92.854	44.291	20.243	3.4029e-05	52.209	278.022	-16.441	42.926	-54.879	48.105	9.079	-55.102	-49.966	131.405	207.110	-50.200	-46.440	-45.749	-42.678	92.876	-43.652	-8191	255	
17529.074	1	1	0	0	0.14266	0.30321	0.24606	0.043994	0.13184	0.34207	0.15149	0.07249	0.11717	0.23205	0.27749	0.038207	0.35986	0.16585	0.21977	0.097774	-2.0125	-2.3042	-2.6167	-2.5083	-2.5812	-2.8333	-2.5521	-2.5833	-2.6396	-2.3083	-2.5312	-2.3667	-2.4437	-2.5458	-2.3771	-2.5583	37.191	-36.397	195.243	6.649	78.457	-65.212	248.007	179.585	74.391	284.508	122.399	145.738	40.555	240.618	-19.588	-39.481	0.00034288	0.0014757	7.7531e-05	378.74	5.5246e-06	1.3146e-05	530.55	115.86	6.7814e-06	1.1328e-05	230.39	88.925	38.605	18.756	4.3638e-06	50.657	0.0028505	0.0032627	0.00087097	400.12	3.5498e-05	3.5743e-05	541.83	123.67	3.513e-05	3.6162e-05	384.7	92.449	43.908	20.216	3.351e-05	52.218	292.169	9.060	-14.682	-55.265	23.223	40.214	-55.015	-49.383	147.148	49.702	-50.927	-46.528	-46.257	-42.599	-11.986	-43.887	-8191	255	
17529.170	1	1	0	0	0.030476	0.17115	0.15156	0.21335	0.092428	0.17768	0.044836	0.18252	0.3065	0.064871	0.090754	0.31811	0.10202	0.14733	0.10147	0.29735	-2.2271	-2.4604	-2.6042	-2.5583	-2.3917	-2.7687	-2.4542	-2.3604	-2.6375	-2.2229	-2.5583	-2.5833	-2.3292	-2.825	-2.4292	-2.5458	139.440	265.630	91.355	154.184	-12.915	267.000	116.394	291.410	278.166	207.242	156.644	273.150	-51.930	117.097	209.391	4.305	0.00023165	0.0004554	0.00020724	376.87	3.0899e-06	7.476e-06	528.02	115.89	1.1451e-05	1.95e-06	225	88.965	38.73	18.692	1.9363e-06	50.988	0.0028279	0.0031778	0.00085657	400.83	3.4994e-05	3.4824e-05	541.88	123.59	3.4599e-05	3.5129e-05	387.01	92.824	43.864	20.159	3.3697e-05	52.48	-51.215	51.794	105.478	-55.286	-34.442	93.182	-54.941	-49.759	128.124	29.630	-50.677	-46.707	-45.768	-43.257	156.477	-43.560	-8191	255	
17529.266	1	1	0	0	0.2141	0.080035	0.24438	0.12567	0.1054	0.11649	0.10478	0.16264	0.091736	0.11249	0.024215	0.042627	0.22394	0.078479	0.14022	0.39427	-2.4479	-2.4625	-2.4479	-2.4625	-2.4333	-2.7375	-2.3563	-2.4146	-2.7292	-2.4042	-2.5375	-2.7146	-2.3875	-2.7771	-2.5271	-2.3688	180.294	92.760	110.272	150.131	-3.580	274.034	104.926	179.277	234.185	128.651	122.025	-10.049	57.834	51.669	257.451	259.044	0.00028988	0.00036382	0.00032381	376.04	1.2919e-05	9.3322e-06	533.17	116.75	1.0679e-05	8.0941e-06	227.4	89.593	38.826	18.897	6.2897e-06	51.479	0.0027757	0.0030867	0.00087125	400.65	3.476e-05	3.3738e-05	544.74	124.25	3.4176e-05	3.3805e-05	395.69	93.255	44.017	20.231	3.4694e-05	52.793	269.922	-17.821	163.583	-55.325	64.458	48.929	-54.952	-50.039	149.619	51.473	-51.048	-46.377	-45.953	-43.060	71.824	-44.027	-8191	255	
17529.363	1	1	0	0	0.19051	0.19651	0.13599	0.29453	0.1508	0.14637	0.40193	0.071967	0.17691	0.10937	0.29277	0.15573	0.29294	0.22533	0.062842	0.19942	-2.3187	-2.3646	-2.4333	-2.6792	-2.3458	-2.7229	-2.5708	-2.3854	-2.6646	-2.5646	-2.4417	-2.7979	-2.3896	-2.7292	-2.5625	-2.4708	119.816	158.096	27.484	141.455	266.986	-54.466	239.467	-29.738	97.925	52.470	50.750	-30.796	-66.420	-49.689	-28.066	204.965	0.00036344	0.00074546	7.4711e-05	380.14	5.6501e-06	3.7427e-06	530.05	116.55	2.4281e-06	3.5834e-06	219.08	89.317	39.155	18.727	1.2067e-05	50.85	0.0027476	0.00304	0.00090017	402.89	3.4401e-05	3.3225e-05	546.57	124.28	3.363e-05	3.4078e-05	400.84	92.752	43.822	20.095	3.5087e-05	52.15	-54.454	44.814	138.871	-55.160	152.818	-46.471	-54.924	-50.170	147.669	76.883	-51.362	-46.489	-45.843	-42.608	-25.778	-43.863	-8191	255	
17529.457	1	1	0	0	0.33528	0.18033	0.11735	0.15229	0.06897	0.29334	0.12927	0.12425	0.097445	0.11327	0.24471	0.25644	0.1276	0.10564	0.15072	0.037477	-2.2125	-2.3979	-2.3333	-2.6917	-2.4938	-2.8104	-2.8167	-2.3729	-2.6333	-2.4104	-2.5479	-2.8271	-2.4271	-2.5104	-2.5333	-2.5062	229.363	-48.301	-1.623	291.412	52.265	260.426	151.011	22.625	213.080	-7.369	47.568	260.151	51.017	9.994	231.850	247.655	0.00035022	8.3504e-05	0.00012535	379.1	9.5382e-06	7.6344e-06	528.79	117.03	5.4695e-06	2.1749e-06	226.09	89.633	38.811	18.888	5.6919e-06	51.395	0.0026863	0.0031133	0.00090267	400.92	3.3585e-05	3.4428e-05	543.66	124.14	3.2454e-05	3.4517e-05	398.42	92.835	43.733	20.275	3.462e-05	52.597	-62.317	33.346	81.007	-55.570	71.007	162.152	-54.655	-49.797	199.407	90.058	-51.076	-46.398	-45.835	-42.608	189.997	-43.900	-8191	255	
17529.553	1	1	0	0	0.18264	0.13987	0.16836	0.22313	0.16986	0.05718	0.35022	0.16426	0.29626	0.2344	0.21588	0.070984	0.27095	0.3513	0.15847	0.12576	-2.1396	-2.4271	-2.3937	-2.9625	-2.4354	-2.5896	-2.5896	-2.5354	-2.6417	-2.4354	-2.3625	-2.9062	-2.5042	-2.5708	-2.7021	-2.4896	225.876	209.102	162.917	276.659	185.782	66.826	287.367	231.161	136.487	-62.508	272.102	286.394	226.110	233.223	-6.849	276.491	0.00033151	0.00053986	0.00026346	381.46	1.1935e-05	5.0902e-06	533.67	117.17	8.3077e-06	3.9365e-06	220.37	89.791	39.006	18.959	6.516e-06	51.211	0.0025745	0.0031259	0.00088149	401.91	3.1922e-05	3.4634e-05	545.38	124.29	3.1317e-05	3.5114e-05	396.19	92.77	43.72	20.34	3.4072e-05	52.427	-45.950	-51.001	34.129	-55.068	191.856	117.605	-55.013	-50.147	276.281	140.047	-50.774	-46.259	-45.633	-42.778	54.165	-43.733	-8191	255	
17529.648	1	1	0	0	0.12421	0.16985	0.33564	0.17908	0.23887	0.030532	0.11078	0.2323	0.13591	0.13398	0.047591	0.093238	0.060759	0.27568	0.20407	0.28625	-2.2667	-2.7042	-2.4021	-2.7229	-2.5292	-2.6813	-2.7146	-2.3792	-2.6208	-2.4417	-2.3833	-2.9125	-2.25	-2.4188	-2.6229	-2.4375	65.836	13.791	256.793	159.282	23.957	228.228	193.045	222.941	233.398	212.259	266.709	143.947	99.649	264.391	-49.903	246.241	0.00035536	0.00028197	0.00021666	381.47	1.4934e-05	2.3062e-06	531.58	116.96	7.1236e-06	2.8995e-06	221.88	90.115	38.838	18.944	9.1078e-06	51.432	0.0025708	0.0031763	0.00088347	400.99	3.2496e-05	3.5527e-05	545.87	123.77	3.2648e-05	3.5009e-05	394.64	92.787	43.809	20.301	3.415e-05	52.542	276.870	5.056	-26.602	-55.067	148.965	49.084	-55.164	-49.721	164.311	108.391	-52.153	-46.562	-45.794	-42.914	60.399	-43.742	-8191	255	
#DATA ENDS
