BOXY.EXE: ISS Imagent and Oximeter Data Acquisition Program Version 0.80
Ascii Record File

#ACQ INFORMATION
2  Detector Channels 
16  External MUX Channels 
1  Auxiliary Channels 
5000  Waveform (CCF) Frequency (Hz)
1  Waveforms Skipped 
30  Waveforms Averaged 
1  Cycles Averaged 
16  Acquisitions per Waveform 
10.0806  Updata Rate (Hz) 

#FILE INFORMATION
TRUE -- External MUX Channel results are PARSED.
FALSE -- AC DC and Phase are NOT grouped.
TRUE -- Companion Program Settings File CREATED.
FALSE -- AC data not excluded
FALSE -- DC data not excluded
FALSE -- Phase data not excluded
FALSE -- Auxillary Chn. data not excluded
Tab delimiters

#CALIBRATION STATE
TRUE -- Waveform Calibration Values APPLIED.


#AUX CALIBRATION VALUES
Val Type	aux-1	

Term	1.0000e+00	
Factor	0.0000e+00	


#WF CALIBRATION VALUES
A = Detector Channel
Val Type	A-AC1	A-AC2	A-AC3	A-AC4	A-AC5	A-AC6	A-AC7	A-AC8	A-AC9	A-AC10	A-AC11	A-AC12	A-AC13	A-AC14	A-AC15	A-AC16	A-DC1	A-DC2	A-DC3	A-DC4	A-DC5	A-DC6	A-DC7	A-DC8	A-DC9	A-DC10	A-DC11	A-DC12	A-DC13	A-DC14	A-DC15	A-DC16	A-Ph1	A-Ph2	A-Ph3	A-Ph4	A-Ph5	A-Ph6	A-Ph7	A-Ph8	A-Ph9	A-Ph10	A-Ph11	A-Ph12	A-Ph13	A-Ph14	A-Ph15	A-Ph16	

Term	0.00000e+00	0.00000e+00	0.00000e+00	0.00000e+00	0.00000e+00	0.00000e+00	0.00000e+00	0.00000e+00	0.00000e+00	0.00000e+00	0.00000e+00	0.00000e+00	0.00000e+00	0.00000e+00	0.00000e+00	0.00000e+00	0.00000e+00	0.00000e+00	0.00000e+00	0.00000e+00	0.00000e+00	0.00000e+00	0.00000e+00	0.00000e+00	0.00000e+00	0.00000e+00	0.00000e+00	0.00000e+00	0.00000e+00	0.00000e+00	0.00000e+00	0.00000e+00	0.00000e+00	0.00000e+00	0.00000e+00	0.00000e+00	0.00000e+00	0.00000e+00	0.00000e+00	0.00000e+00	0.00000e+00	0.00000e+00	0.00000e+00	0.00000e+00	0.00000e+00	0.00000e+00	0.00000e+00	0.00000e+00	
Factor	1.00000e+00	1.00000e+00	1.00000e+00	1.00000e+00	1.00000e+00	1.00000e+00	1.00000e+00	1.00000e+00	1.00000e+00	1.00000e+00	1.00000e+00	1.00000e+00	1.00000e+00	1.00000e+00	1.00000e+00	1.00000e+00	1.00000e+00	1.00000e+00	1.00000e+00	1.00000e+00	1.00000e+00	1.00000e+00	1.00000e+00	1.00000e+00	1.00000e+00	1.00000e+00	1.00000e+00	1.00000e+00	1.00000e+00	1.00000e+00	1.00000e+00	1.00000e+00	X	X	X	X	X	X	X	X	X	X	X	X	X	X	X	X	

B = Detector Channel
Val Type	B-AC1	B-AC2	B-AC3	B-AC4	B-AC5	B-AC6	B-AC7	B-AC8	B-AC9	B-AC10	B-AC11	B-AC12	B-AC13	B-AC14	B-AC15	B-AC16	B-DC1	B-DC2	B-DC3	B-DC4	B-DC5	B-DC6	B-DC7	B-DC8	B-DC9	B-DC10	B-DC11	B-DC12	B-DC13	B-DC14	B-DC15	B-DC16	B-Ph1	B-Ph2	B-Ph3	B-Ph4	B-Ph5	B-Ph6	B-Ph7	B-Ph8	B-Ph9	B-Ph10	B-Ph11	B-Ph12	B-Ph13	B-Ph14	B-Ph15	B-Ph16	

Term	0.00000e+00	0.00000e+00	0.00000e+00	0.00000e+00	0.00000e+00	0.00000e+00	0.00000e+00	0.00000e+00	0.00000e+00	0.00000e+00	0.00000e+00	0.00000e+00	0.00000e+00	0.00000e+00	0.00000e+00	0.00000e+00	0.00000e+00	0.00000e+00	0.00000e+00	0.00000e+00	0.00000e+00	0.00000e+00	0.00000e+00	0.00000e+00	0.00000e+00	0.00000e+00	0.00000e+00	0.00000e+00	0.00000e+00	0.00000e+00	0.00000e+00	0.00000e+00	6.18343e+01	-1.31059e+02	-1.28480e+02	-1.84124e+02	-6.87911e+01	-6.82456e+01	-1.56911e+02	-1.62015e+02	-7.40016e+01	-6.54156e+01	-1.77697e+02	-1.71319e+02	-1.80631e+02	-1.77165e+02	-6.37371e+01	-1.49825e+02	
Factor	5.72416e-05	1.94192e-04	5.38199e-05	1.68864e-01	2.83546e-06	2.03816e-06	1.62166e-01	5.20289e-02	3.35572e-06	1.96407e-06	9.52225e-01	2.70685e-02	2.82943e-02	8.99284e-03	2.49629e-06	1.25482e-02	1.20680e-05	1.63461e-05	4.57917e-06	8.64489e-02	1.66670e-07	1.82106e-07	7.82106e-02	2.66752e-02	1.65207e-07	1.81697e-07	4.60311e-01	1.35287e-02	1.46057e-02	4.65260e-03	1.72611e-07	6.31523e-03	X	X	X	X	X	X	X	X	X	X	X	X	X	X	X	X	



#DISTANCE SETTINGS
A = Detector Channel
A-1	A-2	A-3	A-4	A-5	A-6	A-7	A-8	A-9	A-10	A-11	A-12	A-13	A-14	A-15	A-16	

2.5000e+00	3.0000e+00	2.5000e+00	3.0000e+00	2.0000e+00	3.0000e+00	1.5000e+00	3.0000e+00	3.0000e+00	3.0000e+00	3.0000e+00	3.0000e+00	3.0000e+00	3.0000e+00	1.5000e+00	3.0000e+00	

B = Detector Channel
B-1	B-2	B-3	B-4	B-5	B-6	B-7	B-8	B-9	B-10	B-11	B-12	B-13	B-14	B-15	B-16	

1.0000e+01	1.0000e+01	1.0000e+01	1.4400e+00	1.0000e+01	1.0000e+01	1.5100e+00	1.9400e+00	1.0000e+01	1.0000e+01	1.9900e+00	2.4900e+00	2.4100e+00	2.9000e+00	1.0000e+01	2.9800e+00	




#DATA BEGINS
time	group	step	mark	flag	A-AC1	A-AC2	A-AC3	A-AC4	A-AC5	A-AC6	A-AC7	A-AC8	A-AC9	A-AC10	A-AC11	A-AC12	A-AC13	A-AC14	A-AC15	A-AC16	A-DC1	A-DC2	A-DC3	A-DC4	A-DC5	A-DC6	A-DC7	A-DC8	A-DC9	A-DC10	A-DC11	A-DC12	A-DC13	A-DC14	A-DC15	A-DC16	A-Ph1	A-Ph2	A-Ph3	A-Ph4	A-Ph5	A-Ph6	A-Ph7	A-Ph8	A-Ph9	A-Ph10	A-Ph11	A-Ph12	A-Ph13	A-Ph14	A-Ph15	A-Ph16	B-AC1	B-AC2	B-AC3	B-AC4	B-AC5	B-AC6	B-AC7	B-AC8	B-AC9	B-AC10	B-AC11	B-AC12	B-AC13	B-AC14	B-AC15	B-AC16	B-DC1	B-DC2	B-DC3	B-DC4	B-DC5	B-DC6	B-DC7	B-DC8	B-DC9	B-DC10	B-DC11	B-DC12	B-DC13	B-DC14	B-DC15	B-DC16	B-Ph1	B-Ph2	B-Ph3	B-Ph4	B-Ph5	B-Ph6	B-Ph7	B-Ph8	B-Ph9	B-Ph10	B-Ph11	B-Ph12	B-Ph13	B-Ph14	B-Ph15	B-Ph16	aux-1	digaux	

8076.403	1	1	0	256	0.18568	0.37476	0.1541	0.32885	0.24613	0.089261	0.30954	0.24179	0.037167	0.35866	0.073224	0.41696	0.017782	0.067912	0.34295	0.13	-2.1271	-2.5917	-2.5875	-2.8	-2.4271	-2.6417	-2.9437	-2.6104	-2.625	-2.7812	-2.5438	-2.8438	-2.575	-2.5958	-2.8521	-2.6333	184.181	-75.272	-11.636	224.687	260.274	166.740	247.145	189.786	66.212	118.049	24.000	197.980	203.493	204.434	-54.790	59.682	0.00033186	0.00038198	0.00012108	1373.7	4.6435e-06	2.2509e-06	1446.5	282.95	1.7772e-06	4.8245e-06	358.57	98.622	78.3	22.022	5.3364e-06	30.807	0.00042069	0.00047077	0.00012804	1355.3	5.4418e-06	5.0117e-06	1428.3	280.35	5.0109e-06	5.2128e-06	354.52	98.8	78.119	22.313	4.854e-06	31.264	18.651	7.848	20.241	-82.479	71.521	70.342	-82.274	-75.409	40.706	29.000	-76.679	-69.162	-68.617	-61.594	33.667	-62.243	-8191	255	
8076.499	1	1	0	0	0.23671	0.12949	0.078554	0.21249	0.071352	0.12469	0.12377	0.1865	0.061985	0.18596	0.31027	0.23692	0.26227	0.30242	0.39185	0.064041	-2.2604	-2.7958	-2.5042	-2.9313	-2.6854	-2.5125	-3.1375	-2.6312	-2.7771	-2.9396	-2.4437	-2.9792	-2.6979	-2.6583	-2.7896	-2.6104	249.705	138.568	-48.430	224.936	207.605	-17.524	248.955	23.926	-49.178	175.598	158.482	194.500	-6.109	239.203	-14.973	110.694	0.00036031	0.00035791	0.00011222	1384.1	4.3723e-06	4.0293e-06	1444	283.11	6.9449e-06	3.4615e-06	354.3	98.474	78.66	22.111	2.7668e-06	31.009	0.0004212	0.00045544	0.00012721	1359.2	5.206e-06	5.1718e-06	1426.4	280.97	5.0973e-06	5.1757e-06	354.23	98.813	78.307	22.32	5.0964e-06	31.338	13.333	1.686	26.093	-82.381	69.730	82.223	-82.103	-75.622	49.164	57.445	-75.339	-69.267	-68.876	-62.424	18.424	-62.183	-8191	255	
8076.595	1	1	0	0	0.06751	0.038037	0.049948	0.26367	0.084417	0.15168	0.13124	0.15463	0.14295	0.23994	0.46439	0.13053	0.2604	0.37303	0.057455	0.14208	-2.2167	-2.7771	-2.3396	-2.9896	-2.6333	-2.5604	-3.0354	-2.7104	-2.5333	-2.925	-2.5375	-2.9188	-2.7083	-2.5312	-2.9229	-2.5208	-93.101	-76.794	-25.865	-73.846	121.823	198.593	180.645	180.575	144.926	183.072	-83.150	-59.957	-30.474	-93.503	101.749	-31.225	0.00032533	0.00028709	0.00012354	1383.1	6.1952e-06	5.0592e-06	1451.3	282.48	2.4395e-06	2.6773e-06	356.52	98.407	77.821	22.055	6.4523e-06	30.589	0.000421	0.00046896	0.00013026	1365.5	5.323e-06	5.1536e-06	1434.8	280.98	4.9442e-06	5.1045e-06	353.74	99.027	78.166	22.366	5.073e-06	31.221	23.930	-29.569	0.128	-82.138	29.253	49.698	-82.266	-75.556	49.624	107.392	-75.898	-68.903	-68.639	-62.078	25.478	-62.267	-8191	255	
8076.691	1	1	0	0	0.030391	0.15487	0.30773	0.10526	0.074345	0.13806	0.32196	0.26009	0.19873	0.17473	0.098592	0.26848	0.14949	0.20975	0.30613	0.26527	-2.2104	-2.9375	-2.225	-2.7771	-2.6104	-2.3917	-2.925	-2.5542	-2.6625	-2.9854	-2.3375	-2.7708	-2.7729	-2.5458	-2.6958	-2.6437	88.172	-39.916	11.872	-86.750	86.963	86.243	200.777	207.314	236.929	207.240	-22.783	173.463	218.795	-72.719	134.510	259.235	0.00028823	0.00050963	0.00010628	1385.7	1.535e-06	3.6543e-06	1452.7	282.35	3.9036e-06	3.5214e-06	352.8	98.993	77.76	22.157	1.8254e-06	30.874	0.00042997	0.00047199	0.00013161	1364.8	5.2532e-06	5.1251e-06	1435.6	281.3	5.097e-06	4.9686e-06	355.36	99.203	78.226	22.38	4.8094e-06	31.369	35.043	21.741	-20.856	-82.228	57.078	41.683	-82.379	-75.385	9.181	75.593	-76.401	-69.223	-69.002	-62.046	244.692	-62.550	-8191	255	
8076.788	1	1	0	0	0.29852	0.051893	0.28262	0.27659	0.10444	0.085394	0.32373	0.084954	0.30343	0.24695	0.20741	0.38338	0.22555	0.2057	0.19631	0.21708	-2.1813	-2.7583	-2.425	-2.8563	-2.7708	-2.4208	-2.8354	-2.7625	-2.5375	-2.7667	-2.5167	-2.7729	-2.775	-2.6708	-2.7083	-2.7417	-8.366	-84.465	113.344	-86.220	185.074	153.047	197.451	204.957	69.119	210.276	148.435	255.638	231.222	160.471	36.335	114.178	0.00028313	0.00035608	9.4394e-05	1384.9	1.1363e-06	3.7337e-06	1454.1	282.32	5.2682e-06	3.6539e-06	360.96	98.745	78.367	22.129	2.9374e-06	30.753	0.00042401	0.00045762	0.00012923	1363.1	5.1112e-06	5.0899e-06	1435.1	281.12	4.811e-06	4.8759e-06	356.69	98.841	78.287	22.339	5.0672e-06	31.254	21.187	32.665	-18.166	-82.493	58.776	69.362	-82.162	-75.330	66.028	95.953	-75.785	-69.150	-69.191	-62.157	18.099	-62.418	-8191	255	
8076.884	1	1	0	0	0.36655	0.10091	0.057252	0.07877	0.079273	0.19563	0.027909	0.25378	0.077951	0.06341	0.22483	0.25574	0.040571	0.29439	0.1559	0.21833	-2.0812	-2.5896	-2.5208	-2.7875	-2.7062	-2.5417	-3.0354	-2.7083	-2.5979	-2.7833	-2.5396	-2.5667	-2.8833	-2.5083	-2.7542	-2.7917	21.381	244.278	27.793	-2.683	230.605	66.067	-40.763	165.627	42.659	52.161	265.911	164.679	162.708	-54.341	-41.086	-3.151	0.0003116	0.00046462	0.00010614	1383.4	4.9715e-06	3.6062e-06	1457.8	283.84	3.8504e-06	3.7802e-06	355.89	99.042	78.592	22.169	3.6805e-06	30.758	0.00043427	0.00045786	0.00013803	1364.6	5.28e-06	5.4146e-06	1439.5	282.3	5.2512e-06	5.0243e-06	357.79	99.124	78.394	22.413	5.0784e-06	31.316	31.861	-3.635	35.391	-82.344	53.107	8.005	-82.271	-75.844	34.649	51.637	-75.724	-69.263	-68.608	-62.032	72.174	-62.011	-8191	255	
8076.980	1	1	0	0	0.28933	0.12916	0.24069	0.31196	0.23208	0.28107	0.14651	0.15161	0.16416	0.20338	0.11292	0.15726	0.15755	0.16676	0.06039	0.040435	-2.0917	-2.65	-2.6646	-2.6354	-2.6854	-2.425	-2.9313	-2.7583	-2.5167	-2.975	-2.5917	-2.7667	-2.9625	-2.4875	-2.6583	-2.7938	185.490	-76.609	35.918	220.966	135.944	13.197	243.517	-48.491	54.433	-31.457	46.107	-60.440	91.959	138.509	235.991	-40.264	0.00025597	0.00040588	8.6149e-05	1388.7	5.015e-06	1.5538e-06	1456.2	283.23	3.1876e-06	3.2459e-06	356.24	98.421	78.096	22.16	4.7502e-06	30.858	0.00042882	0.00045875	0.00013391	1367.5	5.0195e-06	5.3626e-06	1438.4	282.12	5.0664e-06	5.0262e-06	356.47	99.037	78.453	22.412	5.0403e-06	31.35	13.621	14.491	25.202	-82.406	25.185	94.574	-82.266	-75.572	-25.206	80.287	-75.601	-69.471	-68.897	-61.868	95.547	-62.512	-8191	255	
8077.100	1	1	0	0	0.17455	0.017857	0.16201	0.22318	0.072275	0.16384	0.067991	0.24834	0.14084	0.363	0.26037	0.15877	0.18206	0.079679	0.046943	0.081819	-2.0229	-2.8167	-2.6354	-2.8542	-2.7229	-2.7	-2.7229	-2.9771	-2.5458	-2.9562	-2.7604	-2.4833	-2.6458	-2.6708	-2.7542	-2.8208	240.244	-25.980	187.446	243.519	44.454	-15.726	100.331	216.390	-51.655	56.795	10.225	-72.576	-65.859	235.891	61.355	122.495	0.00032779	0.00037741	0.000143	1392.4	2.6958e-06	3.5498e-06	1460.4	285.41	4.2125e-06	1.1354e-06	356.82	99.269	78.537	22.334	3.1452e-06	31.113	0.00044365	0.00046055	0.00013964	1369.7	5.1588e-06	5.4317e-06	1441.9	282.67	5.2605e-06	5.1458e-06	359.57	99.341	78.605	22.525	5.2215e-06	31.486	16.733	-47.087	-13.909	-82.355	63.890	80.051	-82.199	-75.387	-5.511	-20.953	-75.897	-69.054	-69.323	-62.480	130.717	-62.389	-8191	255	
8077.197	1	1	0	0	0.20659	0.31155	0.066967	0.29315	0.11402	0.17768	0.22493	0.13999	0.13891	0.11079	0.1268	0.10246	0.17587	0.1407	0.05707	0.35625	-2.2833	-2.7146	-2.5062	-2.7021	-2.8792	-2.6229	-2.9333	-3.0292	-2.5333	-2.7479	-2.6604	-2.4938	-2.8833	-2.6208	-2.675	-2.7354	199.219	221.197	156.876	202.513	69.551	158.390	249.822	253.919	-82.716	218.712	237.481	230.697	-65.802	258.766	51.355	-81.451	0.00033741	0.00056093	0.00013989	1401.7	3.5641e-06	3.5858e-06	1466.4	284.71	7.6625e-06	4.7234e-06	356.63	98.836	78.187	22.129	5.1071e-06	30.789	0.00046552	0.00048943	0.00014008	1376	5.2866e-06	5.5129e-06	1445	282.96	5.372e-06	5.0114e-06	357.28	99.416	78.489	22.455	4.9849e-06	31.389	13.651	34.109	5.375	-82.250	71.241	61.391	-82.284	-75.503	38.551	78.648	-75.751	-69.047	-68.877	-62.168	58.963	-62.293	-8191	255	
8077.268	1	1	0	0	0.12962	0.13076	0.034305	0.35643	0.049385	0.083971	0.19972	0.056858	0.071798	0.091077	0.20449	0.26187	0.29003	0.25875	0.31632	0.10287	-2.1792	-2.5979	-2.6979	-2.6562	-2.7438	-2.5958	-2.7438	-2.8542	-2.5042	-2.6833	-2.7979	-2.6083	-2.7146	-2.6354	-2.5583	-3.0521	-65.277	-2.167	249.380	198.813	-39.455	41.730	48.241	237.359	237.589	27.419	246.432	259.376	234.182	220.861	109.416	158.212	0.00035726	0.00026907	7.1851e-05	1398.1	4.8554e-06	5.001e-06	1462.1	284.82	3.0948e-06	4.3685e-06	361.17	98.986	78.245	22.132	5.1049e-06	30.853	0.00046165	0.00047434	0.00013237	1374.9	5.2553e-06	5.6445e-06	1444.8	283.19	5.3668e-06	5.2949e-06	361.05	99.284	78.527	22.449	5.2747e-06	31.33	12.697	30.707	8.366	-82.258	46.485	71.713	-82.374	-75.400	42.635	49.205	-76.527	-69.158	-68.794	-61.912	76.880	-62.726	-8191	255	
8077.389	1	1	0	0	0.23985	0.0043189	0.070225	0.11162	0.2153	0.0052137	0.27482	0.18221	0.015911	0.19107	0.41107	0.11729	0.19497	0.23729	0.1452	0.39081	-2.2146	-2.6208	-2.7604	-2.6375	-2.7313	-2.6042	-2.625	-2.9146	-2.5854	-2.7854	-2.5625	-2.6188	-2.8208	-2.6729	-2.3375	-2.9521	86.442	213.726	-8.053	-22.927	71.447	-69.331	-33.021	-58.718	153.565	220.273	47.438	77.245	134.667	-87.495	-81.900	204.782	0.00040985	0.00050858	0.00011574	1393.5	1.5854e-06	5.4701e-06	1469.2	284.51	5.0246e-06	5.7178e-06	354.92	99.721	78.546	22.171	3.0865e-06	30.97	0.00047422	0.00048024	0.00013873	1372.6	5.4775e-06	5.5823e-06	1447.5	283.18	5.5499e-06	5.3093e-06	358.77	99.432	78.759	22.44	5.2096e-06	31.371	15.192	-7.920	28.204	-82.446	84.056	44.164	-82.291	-75.509	8.831	59.392	-75.663	-69.296	-69.151	-61.847	4.365	-62.547	-8191	255	
8077.483	1	1	0	0	0.21678	0.20855	0.22327	0.44068	0.14045	0.074752	0.47912	0.31427	0.16171	0.092324	0.071861	0.1899	0.059245	0.21527	0.019164	0.25409	-2.1042	-2.7833	-2.7604	-2.6792	-2.7167	-2.5854	-2.6792	-2.8896	-2.5792	-2.7583	-2.7562	-2.6729	-2.7875	-2.7958	-2.4521	-2.9229	116.550	206.756	-76.500	-84.886	145.197	85.039	226.479	214.792	-20.588	47.967	162.409	211.402	252.363	219.001	131.098	231.544	0.00028237	0.00036542	0.00011921	1401.3	4.3195e-06	3.6497e-06	1467	285.4	4.1226e-06	2.4278e-06	355.29	98.551	78.401	22.219	5.0992e-06	31.108	0.00045622	0.00047182	0.00013559	1377.2	5.2338e-06	5.4385e-06	1447.2	283.98	5.3889e-06	5.3021e-06	357.64	99.165	78.648	22.506	5.4822e-06	31.406	19.125	-12.526	11.273	-82.394	68.740	22.535	-82.273	-75.510	-24.265	129.511	-74.680	-69.161	-68.814	-61.918	110.488	-62.476	-8191	255	
8077.579	1	1	0	0	0.21971	0.11516	0.31213	0.30122	0.20286	0.085023	0.11999	0.28205	0.16089	0.085703	0.091898	0.1717	0.1465	0.097544	0.14059	0.1097	-2.2562	-2.75	-3.075	-2.7333	-2.7083	-2.8208	-2.6625	-2.8271	-2.9125	-2.6167	-2.85	-2.5083	-2.6792	-2.8812	-2.4646	-2.75	111.664	256.619	194.354	206.783	153.650	197.764	240.421	179.590	183.659	96.626	-23.443	-42.674	-77.386	6.187	-17.686	201.103	0.00030728	0.00056296	0.00010892	1398	1.6941e-07	2.3359e-06	1466	284.46	3.226e-06	1.0951e-06	364.09	99.545	78.638	22.217	8.9537e-07	30.836	0.00045783	0.00046992	0.00013468	1375.1	5.23e-06	5.1881e-06	1447.2	283.03	5.2863e-06	5.0637e-06	360.03	99.233	78.657	22.504	5.2388e-06	31.354	31.031	-34.772	5.366	-82.349	203.369	70.314	-82.142	-75.212	40.609	79.383	-75.082	-69.091	-69.023	-62.021	145.920	-62.230	-8191	255	
8077.700	1	1	0	0	0.17233	0.12099	0.073788	0.10145	0.18	0.13731	0.20216	0.34649	0.31909	0.13025	0.2872	0.25709	0.17229	0.088043	0.28054	0.045343	-2.1771	-2.5875	-2.6396	-2.5146	-2.6521	-2.8625	-2.7229	-2.7313	-2.6188	-2.5271	-2.6542	-2.6417	-2.6188	-2.8312	-2.7083	-2.6958	72.993	24.910	186.362	225.523	210.190	77.038	229.102	248.793	138.325	240.707	140.228	97.545	-84.781	212.443	152.706	-5.532	0.0003327	0.00047151	0.00016224	1397.1	4.3897e-06	3.9344e-06	1461.3	285.42	3.4572e-06	5.3097e-06	354.9	98.926	78.516	22.13	5.2958e-06	30.813	0.00044644	0.0004756	0.0001361	1373.5	5.0414e-06	5.3175e-06	1445.1	283.23	5.2137e-06	5.3124e-06	358.55	99.352	78.64	22.413	5.2974e-06	31.302	32.650	9.670	-20.674	-82.213	55.217	41.852	-82.218	-75.449	90.488	58.226	-75.072	-69.182	-69.159	-62.001	46.338	-62.662	-8191	255	
8077.796	1	1	0	0	0.20919	0.22103	0.055912	0.16552	0.19745	0.081928	0.13875	0.2326	0.19345	0.025028	0.17392	0.059401	0.23373	0.28391	0.12984	0.047965	-2.2021	-2.3125	-2.85	-2.8583	-2.6042	-3.0375	-2.7562	-2.8417	-2.8438	-2.7396	-2.7021	-2.6958	-2.6562	-2.7562	-2.5625	-2.8042	64.219	153.674	2.260	263.434	16.802	11.294	39.601	197.081	22.835	84.919	111.323	-87.781	209.490	238.024	-81.589	-54.984	0.00030622	0.00041915	7.5207e-05	1388.9	5.3249e-06	2.4064e-06	1456.1	282.42	2.5432e-06	3.1215e-06	358.29	97.942	77.552	21.854	4.7328e-06	30.4	0.00042824	0.00046144	0.00012474	1366.5	4.806e-06	4.8911e-06	1435.4	281.41	4.6626e-06	4.726e-06	355.01	98.433	77.528	22.169	4.6886e-06	30.995	19.533	-22.771	28.525	-82.351	13.453	89.070	-82.189	-75.329	252.337	104.848	-76.301	-69.404	-69.058	-62.055	100.925	-62.453	-8191	255	
8077.868	1	1	0	0	0.24439	0.13347	0.18571	0.35365	0.26426	0.091847	0.4786	0.15278	0.22702	0.21719	0.1972	0.04248	0.17001	0.16906	0.2715	0.084622	-2.2375	-2.4333	-2.725	-2.7896	-2.4771	-2.6917	-2.6875	-2.7604	-2.6208	-2.4813	-2.4958	-2.6917	-2.4021	-2.9542	-2.4146	-2.7896	6.237	46.563	-85.480	211.527	45.530	211.757	240.916	200.345	85.735	51.460	0.899	16.223	207.149	-54.741	-62.591	118.350	0.00034827	0.00035447	0.00010929	1378	2.9945e-06	4.5379e-06	1442.2	280.96	2.7534e-06	1.1512e-06	353.05	97.836	77.623	21.948	4.5239e-06	30.417	0.00040149	0.00042606	0.00011585	1353.8	4.6727e-06	4.6581e-06	1424.7	279.49	4.7828e-06	4.8021e-06	353.61	98.212	77.543	22.197	4.7749e-06	31.029	13.108	28.899	-8.964	-82.254	-55.226	91.404	-82.293	-75.378	104.137	86.320	-75.024	-68.875	-68.739	-61.879	41.146	-62.637	-8191	255	
8077.964	1	1	0	0	0.066153	0.33889	0.16733	0.13841	0.16726	0.10118	0.18451	0.19723	0.185	0.34502	0.076265	0.27781	0.068822	0.15951	0.10509	0.11954	-2.2792	-2.5229	-2.6333	-2.9583	-2.7042	-2.7229	-2.75	-2.8063	-2.9708	-2.4854	-2.6437	-2.7229	-2.6333	-2.7687	-2.6375	-2.5896	191.671	160.046	-14.618	-55.161	242.768	16.728	239.503	160.216	1.390	168.336	174.364	127.793	181.815	-19.682	70.366	3.704	0.00027946	0.00047537	4.1523e-05	1377.4	2.649e-06	3.0515e-06	1437.7	281.31	6.8846e-06	3.6054e-06	353.22	98.177	78.019	21.967	2.4027e-06	30.591	0.00040342	0.0004374	0.00011545	1354.1	4.9077e-06	4.756e-06	1423.5	279.5	4.6286e-06	4.7915e-06	351.13	98.353	77.697	22.209	4.8184e-06	30.987	30.747	-14.118	-11.875	-82.322	70.709	37.979	-82.162	-75.234	46.864	87.807	-75.552	-69.456	-68.567	-62.282	47.705	-61.957	-8191	255	
8078.085	1	1	0	0	0.46417	0.11351	0.081626	0.040578	0.2896	0.12254	0.064341	0.36409	0.1664	0.068991	0.21553	0.078184	0.27072	0.16793	0.13443	0.16548	-2.2583	-2.5042	-2.6167	-2.9396	-2.5792	-2.7729	-2.8396	-2.5875	-2.9125	-2.4896	-2.7417	-2.7208	-2.6437	-2.7313	-2.6562	-2.4958	69.294	20.038	91.387	166.696	18.157	70.872	138.431	138.194	259.191	164.107	236.601	-37.034	10.341	120.342	151.947	5.236	0.00037089	0.0005613	3.0559e-05	1368.5	2.9973e-06	1.8492e-06	1439.1	281.21	4.8053e-06	4.4602e-06	356.15	97.769	77.35	21.855	4.0194e-06	30.39	0.00041672	0.00043222	0.00011417	1351.5	4.8998e-06	4.4521e-06	1421.5	279.15	4.4368e-06	4.6495e-06	351.3	97.857	77.31	22.042	4.2826e-06	30.904	17.962	-17.823	-19.585	-82.334	40.471	26.089	-82.314	-75.553	7.939	69.875	-75.273	-68.953	-68.776	-62.419	103.417	-62.214	-8191	255	
8078.181	1	1	0	0	0.28757	0.13892	0.19718	0.18643	0.21265	0.26868	0.42599	0.37132	0.1085	0.012536	0.17386	0.24752	0.18361	0.074367	0.02428	0.16652	-2.2313	-2.3875	-2.4479	-2.7833	-2.5125	-2.8958	-2.7479	-2.6271	-2.85	-2.4437	-2.7958	-2.7792	-2.6146	-2.8021	-2.7271	-2.6229	69.169	196.961	134.056	255.359	206.513	-82.702	203.549	184.424	-27.432	167.567	-31.967	-24.761	262.004	169.246	106.643	45.888	0.0002706	0.00029217	9.609e-05	1356.8	3.6363e-06	3.6167e-06	1428.5	279.46	4.8654e-06	4.4984e-06	354.14	97.033	76.794	21.776	5.2087e-06	30.39	0.00038919	0.00041175	0.00010706	1337	4.5539e-06	4.119e-06	1406.9	277.25	4.2751e-06	4.3986e-06	347.68	97.352	76.946	21.995	4.3178e-06	30.805	27.212	14.534	16.917	-82.288	86.148	38.787	-82.339	-75.391	21.297	42.677	-75.887	-68.755	-69.015	-61.764	44.893	-62.357	-8191	255	
8078.277	1	1	0	0	0.30192	0.099661	0.10701	0.20123	0.1284	0.083526	0.19214	0.12765	0.17314	0.22921	0.093597	0.13154	0.18123	0.20857	0.086513	0.19783	-2.3792	-2.4375	-2.5354	-2.8896	-2.4896	-2.6417	-2.9083	-2.6104	-2.8625	-2.6063	-2.45	-2.7313	-2.5771	-2.8167	-2.6771	-2.6854	106.822	-56.164	-87.223	166.869	187.178	152.344	124.363	91.771	150.682	109.771	-33.501	-22.447	181.052	258.134	-56.912	-85.574	0.00033156	0.00022348	0.00013025	1351.4	3.8856e-06	1.323e-06	1425.5	277.77	2.6319e-06	4.43e-06	354.12	96.538	76.829	21.822	2.4482e-06	30.399	0.0003681	0.00039364	0.00010831	1329.4	4.4543e-06	4.2799e-06	1401.6	275.82	4.2383e-06	4.4395e-06	349.57	97.068	76.738	21.965	4.2768e-06	30.813	21.771	19.119	-11.719	-82.383	57.089	76.704	-82.319	-75.385	-21.299	55.258	-75.390	-69.231	-68.584	-61.825	83.196	-62.372	-8191	255	
8078.396	1	1	0	0	0.093116	0.218	0.12583	0.342	0.013371	0.26112	0.11567	0.15935	0.18744	0.12486	0.02456	0.07201	0.072211	0.11818	0.087548	0.22306	-2.4188	-2.4896	-2.6458	-2.9646	-2.4667	-2.5563	-2.85	-2.8187	-2.825	-2.7188	-2.4479	-2.65	-2.5062	-2.6063	-2.6875	-2.4604	186.172	95.538	248.487	241.414	152.924	83.481	127.170	212.661	250.436	-86.085	225.453	224.986	-81.703	213.211	-7.330	-52.993	0.00025558	0.0007043	7.1711e-05	1350.4	1.8877e-06	1.8487e-06	1423.7	278.81	2.7096e-06	4.2195e-06	346.38	96.992	76.482	21.943	5.6913e-06	30.481	0.00036832	0.00041628	0.00011218	1330.8	4.6508e-06	4.0761e-06	1401.7	276.31	4.4386e-06	4.4837e-06	347.71	97.287	76.772	22.001	4.5818e-06	30.82	9.277	-3.587	29.205	-82.174	68.343	67.001	-82.135	-75.401	12.130	74.869	-75.077	-69.252	-69.067	-62.081	49.568	-62.270	-8191	255	
8078.492	1	1	0	0	0.18671	0.094353	0.32075	0.12678	0.10384	0.14753	0.11523	0.1467	0.056002	0.072207	0.086097	0.31046	0.27686	0.1095	0.062282	0.20547	-2.425	-2.5958	-2.3521	-2.7625	-2.4813	-2.4437	-3.0729	-2.6354	-2.5812	-2.7083	-2.3729	-2.8146	-2.5438	-2.6813	-2.6771	-2.5125	163.380	-47.771	59.920	235.457	31.826	11.109	186.814	248.275	24.866	-34.312	22.242	178.492	197.693	-76.393	124.257	127.498	0.00029864	0.00040916	0.00010323	1353.3	6.1257e-06	4.0057e-06	1419.5	277.82	7.7434e-06	5.5502e-06	351.99	96.949	76.579	21.798	4.2076e-06	30.255	0.00037408	0.00041162	0.00011441	1332.3	4.6869e-06	4.226e-06	1402.2	276.27	4.1691e-06	4.4538e-06	350.65	97.417	76.836	22.019	4.2685e-06	30.747	21.406	-20.125	-25.615	-82.151	71.538	-3.149	-82.186	-75.212	11.437	40.391	-75.857	-69.144	-68.764	-61.887	61.740	-62.431	-8191	255	
8078.564	1	1	0	0	0.24392	0.23095	0.27904	0.23321	0.18212	0.20612	0.3296	0.22692	0.13273	0.2497	0.19723	0.30298	0.17669	0.028593	0.080262	0.15626	-2.1896	-2.5917	-2.2438	-3.0458	-2.5687	-2.4792	-2.8854	-2.625	-2.6833	-2.5542	-2.4875	-2.825	-2.5729	-2.6375	-2.8208	-2.6229	182.923	19.477	132.771	227.318	143.859	-27.191	226.452	240.573	120.191	65.052	9.856	172.763	220.298	-51.556	223.132	27.076	0.00033459	0.00044377	0.000129	1352.1	5.1691e-06	3.1217e-06	1412.9	278.12	1.5801e-06	2.6382e-06	345.29	97.44	76.795	21.816	3.7353e-06	30.483	0.00038831	0.0003967	0.00011226	1331	4.5268e-06	4.3061e-06	1400.5	276.63	4.208e-06	4.5765e-06	345.77	97.36	76.964	22.012	4.2786e-06	30.883	20.560	-15.791	-4.129	-82.306	124.026	30.851	-82.225	-75.237	2.588	31.296	-75.946	-69.160	-68.994	-61.757	59.646	-62.458	-8191	255	
8078.660	1	1	0	0	0.080673	0.13969	0.46892	0.4282	0.10666	0.061795	0.33649	0.4286	0.19924	0.12841	0.35007	0.14012	0.21544	0.17371	0.20983	0.14397	-2.2958	-2.7188	-2.5042	-2.85	-2.6542	-2.4271	-3.0083	-2.6083	-2.775	-2.7708	-2.6063	-2.6021	-2.6437	-2.4542	-2.8563	-2.6146	2.927	41.501	174.717	244.722	151.863	198.099	201.065	187.422	57.362	171.594	95.742	243.960	263.993	-16.879	25.711	-8.778	0.00028105	0.00041063	0.00010768	1352.7	1.6455e-06	4.1678e-06	1420.2	277.48	4.0172e-06	1.9869e-06	350.24	96.668	77.043	21.809	3.9257e-06	30.274	0.00036656	0.00040174	0.00011643	1331.3	4.4438e-06	4.2791e-06	1403.4	276.05	4.1409e-06	4.508e-06	347.39	97.239	76.956	22.043	4.2067e-06	30.841	15.281	-14.740	27.503	-82.282	49.001	28.402	-82.080	-75.496	3.397	92.365	-74.567	-68.926	-68.532	-62.203	70.645	-62.569	-8191	255	
8078.780	1	1	0	0	0.19072	0.33922	0.12527	0.23724	0.055664	0.12756	0.37565	0.38177	0.21878	0.023941	0.17056	0.083762	0.13896	0.067795	0.1722	0.12323	-2.0438	-2.6188	-2.3729	-2.8896	-2.6917	-2.5667	-2.9229	-2.6479	-2.6125	-2.8604	-2.5146	-2.6229	-2.6875	-2.4646	-2.8812	-2.8438	77.323	249.721	20.686	202.208	102.149	178.179	169.721	234.579	-39.065	230.466	97.533	51.523	243.374	181.360	39.973	-33.524	0.00031974	0.0005032	0.00016837	1349.2	1.691e-06	3.7315e-06	1416.3	277.62	4.5505e-06	2.9613e-06	346.78	96.907	76.483	21.766	5.8192e-06	30.33	0.00037682	0.00039455	0.00011182	1328.8	4.4661e-06	4.2074e-06	1399	276.21	4.1725e-06	4.2551e-06	348.31	97.195	76.607	21.956	4.1794e-06	30.728	22.274	17.640	-34.546	-82.286	-52.179	52.731	-82.152	-75.266	-6.351	39.635	-76.720	-68.979	-68.739	-61.803	59.926	-62.688	-8191	255	
8078.877	1	1	0	0	0.135	0.064611	0.068313	0.1273	0.070786	0.29547	0.17863	0.1898	0.18135	0.07114	0.18604	0.15774	0.17142	0.23968	0.07562	0.091561	-2.0687	-2.7833	-2.4146	-2.9875	-2.9125	-2.5896	-3.0958	-2.5938	-2.6125	-2.75	-2.5083	-2.8104	-2.8333	-2.5708	-2.7646	-2.8521	87.564	96.593	34.651	252.534	249.831	186.292	-89.543	196.453	231.700	154.403	61.614	148.247	182.009	-52.681	93.212	173.203	0.0003088	0.00036129	9.1452e-05	1348	5.0182e-06	3.4463e-06	1417.3	278.17	6.9399e-07	3.8833e-06	351.97	96.741	76.384	21.895	5.1107e-06	30.471	0.00037476	0.00039411	0.00010814	1330.1	4.5313e-06	4.3918e-06	1396.8	275.85	4.3154e-06	4.2366e-06	347.34	97.264	76.645	22.015	4.106e-06	30.836	13.284	19.946	2.541	-82.296	38.151	37.712	-82.082	-75.316	27.958	27.804	-76.152	-69.448	-69.028	-61.810	5.537	-62.117	-8191	255	
8078.973	1	1	0	0	0.15459	0.071637	0.23605	0.12933	0.039679	0.18605	0.22958	0.26164	0.2482	0.11583	0.0020975	0.16446	0.22634	0.11381	0.12887	0.026651	-2.0917	-2.8	-2.5667	-2.8812	-2.6937	-2.4667	-3.0625	-2.7	-2.4292	-2.9771	-2.5875	-2.6417	-3.0375	-2.5875	-2.9062	-2.8125	16.121	208.075	-64.788	6.997	-67.635	218.286	260.923	233.906	185.307	113.773	180.000	200.475	225.271	262.106	-9.031	-73.456	0.00027765	0.00049316	0.00011103	1350.5	3.5248e-06	1.7071e-06	1416.1	278.09	7.4262e-06	4.2393e-06	349.4	97.026	76.908	21.696	3.5085e-06	30.405	0.00037315	0.00038764	0.00010888	1326.8	4.4661e-06	4.3148e-06	1396.6	276.01	4.1106e-06	3.9988e-06	346.08	97.192	76.898	21.996	3.9352e-06	30.838	29.664	-23.732	-16.604	-82.128	108.253	9.107	-82.280	-75.428	38.904	64.234	-75.933	-69.166	-68.585	-62.201	8.726	-62.416	-8191	255	
8079.069	1	1	0	0	0.24531	0.15152	0.10874	0.32398	0.19708	0.072655	0.10293	0.22741	0.12664	0.078183	0.048719	0.22631	0.1652	0.10792	0.23202	0.17383	-2.1083	-2.7062	-2.5187	-2.8083	-2.8625	-2.5458	-2.9125	-2.6917	-2.5062	-2.6792	-2.5792	-2.575	-2.8521	-2.5125	-2.6604	-2.8917	162.374	202.964	-76.650	235.542	37.454	141.064	-89.249	214.657	250.762	102.011	45.510	-49.092	206.162	188.261	-63.100	232.252	0.00029651	0.00042095	7.1584e-05	1350.8	1.5184e-06	3.4826e-06	1420.8	276.77	3.1514e-06	4.9321e-06	349.61	97.132	76.802	21.679	4.0504e-06	30.171	0.00037456	0.00037075	0.00010772	1328.7	4.4102e-06	4.5007e-06	1400.5	275.85	4.304e-06	4.0704e-06	347.74	97.249	76.805	21.955	4.0165e-06	30.818	19.882	24.959	-54.228	-82.187	-47.796	47.221	-82.149	-75.442	99.611	65.946	-75.327	-69.284	-69.055	-62.226	33.854	-62.384	-8191	255	
8079.165	1	1	0	0	0.44499	0.16692	0.26118	0.28695	0.15486	0.12136	0.16313	0.03204	0.085603	0.16314	0.2558	0.19772	0.15278	0.11572	0.068182	0.21351	-1.975	-2.6854	-2.6188	-2.5979	-2.825	-2.525	-2.9458	-2.7875	-2.6896	-2.6896	-2.5875	-2.5542	-2.8042	-2.5625	-2.7812	-2.7625	-61.856	-27.985	-76.603	209.826	11.786	197.244	-82.967	225.025	104.263	109.245	127.675	209.339	-42.482	52.951	239.290	225.347	0.00032765	0.00041171	0.00014399	1346.5	2.3694e-06	3.0633e-06	1414.5	277.67	1.2125e-06	4.9697e-06	346.15	96.694	76.939	21.676	4.1248e-06	30.457	0.00038333	0.00038018	0.00010998	1327.1	4.1692e-06	4.2389e-06	1398.1	275.47	4.2018e-06	4.0613e-06	345.14	97.156	76.772	21.99	4.0341e-06	30.905	12.330	4.285	50.528	-82.259	75.293	46.303	-82.286	-75.410	216.878	34.102	-75.798	-68.915	-68.903	-61.765	51.817	-62.432	-8191	255	
8079.261	1	1	0	0	0.33056	0.31454	0.14615	0.070945	0.082733	0.16862	0.16487	0.14302	0.27546	0.10658	0.23585	0.30565	0.11495	0.049789	0.33102	0.16779	-1.9875	-2.7208	-2.5667	-2.6688	-2.6188	-2.5812	-2.8729	-2.9708	-2.5875	-2.6813	-2.7708	-2.6792	-3.0417	-2.5625	-2.6896	-2.9521	71.660	-32.680	76.824	-73.116	93.913	226.017	206.463	233.574	-73.655	203.108	153.036	43.432	0.536	-73.796	15.838	-74.944	0.00029961	0.00040932	0.00012298	1348	3.1499e-06	3.7537e-06	1416.9	279.19	3.6542e-06	3.2509e-06	357.21	96.774	76.526	21.955	4.1e-06	30.565	0.00037549	0.0003762	0.00010866	1326.7	4.24e-06	4.3315e-06	1398.2	276.33	4.1901e-06	3.8807e-06	349.29	97.173	76.804	22.007	3.9816e-06	31	18.829	-11.101	-18.896	-82.328	19.450	51.831	-82.161	-75.425	29.157	59.688	-75.108	-69.214	-68.805	-61.988	67.438	-62.532	-8191	255	
8079.380	1	1	0	0	0.22009	0.21961	0.0589	0.18518	0.099543	0.30754	0.10214	0.0992	0.31766	0.056379	0.10525	0.17677	0.065828	0.1091	0.27225	0.083687	-2.0771	-2.5917	-2.9167	-2.5875	-2.7979	-2.7292	-2.8854	-2.9437	-2.4958	-2.8937	-2.8542	-2.6437	-2.8375	-2.75	-2.7083	-2.8646	-44.538	36.666	54.879	260.246	66.663	233.099	224.603	166.284	129.155	31.106	101.860	65.219	93.614	200.315	165.316	68.356	0.00036681	0.00041526	0.00012717	1351.6	3.4022e-06	3.9918e-06	1414.8	277.41	5.8866e-06	3.4386e-06	348.69	96.784	76.735	21.794	3.1926e-06	30.382	0.00037934	0.00037099	0.00010889	1327.8	4.1268e-06	4.2601e-06	1399.3	275.93	4.134e-06	3.9969e-06	347.63	97.371	76.815	22.028	4.0111e-06	30.747	19.684	7.274	4.270	-82.358	102.534	26.384	-82.355	-75.148	20.253	22.082	-75.372	-68.840	-68.434	-61.898	51.668	-62.350	-8191	255	
8079.476	1	1	0	0	0.11693	0.11486	0.032219	0.11377	0.019203	0.16018	0.16385	0.29097	0.15338	0.25901	0.029147	0.18697	0.081788	0.088195	0.33607	0.083563	-2.0792	-2.5812	-2.7875	-2.675	-2.8083	-2.7125	-2.7729	-2.8875	-2.4771	-2.7687	-2.9062	-2.6458	-2.8229	-2.7604	-2.5646	-2.7083	10.383	159.484	-41.013	250.163	162.330	235.455	183.487	177.713	72.608	-6.421	161.590	241.482	-54.507	212.199	57.603	82.133	0.00029757	0.00035552	6.5293e-05	1348.4	2.5672e-06	2.4365e-06	1404.7	276.58	7.7736e-06	3.0374e-06	347.98	96.218	76.188	21.698	3.7994e-06	30.43	0.00036563	0.00036697	0.00010394	1321	3.9501e-06	4.1319e-06	1388.1	274.43	4.1199e-06	3.8338e-06	344.94	96.742	76.373	21.914	4.093e-06	30.792	16.576	27.326	-6.243	-82.352	114.634	-12.583	-82.028	-75.511	-0.378	29.073	-75.782	-69.215	-68.557	-61.830	99.249	-62.145	-8191	255	
8079.572	1	1	0	0	0.13727	0.094256	0.059985	0.29945	0.31988	0.20932	0.18982	0.38652	0.10122	0.14167	0.23605	0.040303	0.22099	0.17834	0.090339	0.16138	-2.0729	-2.5833	-2.5833	-2.6979	-2.8792	-2.6604	-2.6917	-2.7812	-2.5438	-2.6375	-2.8625	-2.6229	-2.7917	-2.7396	-2.4292	-2.9208	-50.161	156.384	175.747	-72.245	-21.552	204.631	207.429	251.781	-29.926	13.299	-46.682	193.242	89.180	-88.333	152.821	-38.137	0.00027423	0.00059805	0.00010619	1337.1	2.3614e-06	4.2626e-06	1410.6	276.66	3.0846e-06	5.2116e-06	349.32	95.929	76.377	21.496	3.7836e-06	30.115	0.00036651	0.00035532	0.00010323	1318.1	3.899e-06	4.2051e-06	1390.6	274.56	4.092e-06	3.8985e-06	346.54	96.537	76.288	21.88	4.0197e-06	30.712	20.129	9.891	27.322	-82.122	23.118	31.385	-82.112	-75.459	50.843	69.899	-74.706	-68.981	-68.867	-61.692	74.697	-61.901	-8191	255	
8079.669	1	1	0	0	0.12046	0.33137	0.18432	0.18467	0.043955	0.17769	0.05171	0.11676	0.14346	0.1111	0.1581	0.10766	0.13735	0.097143	0.14336	0.037421	-2.1063	-2.5938	-2.8083	-2.6813	-2.5792	-2.7583	-2.8187	-2.8563	-2.6833	-2.5271	-2.9188	-2.5438	-2.8479	-2.8063	-2.5417	-2.9604	-63.889	-55.125	148.549	264.757	131.208	233.033	201.985	108.850	230.851	126.242	111.303	165.844	242.349	33.588	51.805	221.757	0.00030684	0.00045211	0.00015301	1341.1	3.1619e-06	6.1838e-06	1406.4	277.14	6.357e-06	2.859e-06	345.83	96.432	75.528	21.741	2.6124e-06	30.244	0.00036885	0.00036622	0.00010371	1319.5	3.973e-06	4.1285e-06	1388.1	274.36	3.9426e-06	4.0859e-06	343.55	96.663	76.152	21.9	3.9909e-06	30.764	30.438	-15.588	-1.244	-82.239	23.005	67.123	-82.351	-75.179	5.342	27.495	-75.587	-69.175	-68.772	-61.933	56.029	-62.073	-8191	255	
8079.789	1	1	0	0	0.13932	0.10864	0.10092	0.45307	0.14801	0.039816	0.23932	0.22494	0.22607	0.17684	0.20638	0.12151	0.20958	0.12355	0.24269	0.028973	-2.3208	-2.5292	-2.85	-2.5229	-2.8021	-2.8104	-2.7667	-2.8958	-2.6146	-2.6771	-2.8187	-2.6312	-2.7042	-2.8688	-2.5833	-2.8625	81.397	-66.675	55.958	226.763	103.194	-15.613	204.211	212.686	156.067	-6.890	249.796	157.814	130.192	221.289	-44.878	106.269	0.00029534	0.00050931	6.303e-05	1342.3	2.7148e-07	3.7801e-06	1405.4	275.35	3.1718e-06	3.9775e-06	342.01	96.656	76.682	21.689	4.9843e-06	30.5	0.00037096	0.000359	0.00010327	1318.3	4.0706e-06	3.9544e-06	1388.1	274.06	4.0607e-06	4.0231e-06	340.71	96.9	76.462	21.966	4.1574e-06	30.857	30.328	-17.731	28.427	-82.348	18.136	60.051	-82.313	-75.341	-12.054	84.205	-74.494	-69.051	-68.610	-62.192	57.711	-62.673	-8191	255	
8079.861	1	1	0	0	0.064956	0.051909	0.18434	0.1915	0.091987	0.36431	0.17457	0.18404	0.15584	0.12546	0.20813	0.30433	0.11501	0.091055	0.27334	0.42165	-2.0542	-2.4146	-2.6958	-2.7354	-2.5292	-2.7292	-2.7729	-2.7812	-2.6917	-2.4688	-2.8438	-2.4583	-2.6688	-2.7687	-2.4625	-2.6813	250.381	187.017	206.390	217.315	66.775	-33.145	264.668	228.710	-18.576	119.779	69.690	197.592	-39.452	-57.682	-15.797	257.095	0.00035802	0.00028783	0.00010444	1337.9	3.1548e-06	2.5064e-06	1412.9	275.79	1.2496e-06	3.4231e-06	347.09	96.227	76.016	21.7	5.3561e-06	30.349	0.00035797	0.00036326	9.9902e-05	1318	3.972e-06	4.1171e-06	1390.3	274.26	4.0792e-06	3.9038e-06	343.9	96.56	76.326	21.852	3.9388e-06	30.693	20.014	-8.250	21.477	-82.298	16.739	55.772	-82.137	-75.208	47.373	76.083	-75.150	-69.089	-68.924	-61.978	62.195	-62.474	-8191	255	
8079.957	1	1	0	0	0.10932	0.10397	0.11013	0.10426	0.12951	0.14978	0.14776	0.31051	0.30079	0.047434	0.13112	0.11419	0.20357	0.31807	0.2152	0.22512	-2.3667	-2.3896	-2.6104	-2.8521	-2.4271	-2.9021	-2.75	-2.8646	-2.8958	-2.5958	-2.75	-2.6708	-2.5896	-2.8896	-2.4604	-2.6896	171.155	26.428	75.113	224.637	149.454	158.393	243.952	-90.591	-30.050	72.665	52.756	168.132	-82.703	258.189	12.477	154.706	0.00028062	0.0002909	5.998e-05	1335.1	2.056e-06	2.0189e-06	1400.3	275.24	6.7332e-06	1.8918e-06	345.05	95.794	76.112	21.736	4.2108e-06	30.423	0.0003601	0.00036309	9.5838e-05	1315.5	3.8911e-06	3.7901e-06	1384.4	273.46	3.9932e-06	3.8819e-06	341.47	96.296	76.038	21.888	3.8672e-06	30.734	13.402	-1.148	2.340	-82.459	-11.041	33.569	-82.172	-75.441	35.214	77.711	-76.289	-69.212	-68.773	-62.141	49.231	-62.257	-8191	255	
8080.053	1	1	0	0	0.4068	0.31518	0.27621	0.23305	0.25248	0.13168	0.28539	0.23136	0.10169	0.15317	0.048741	0.063999	0.22665	0.25792	0.083404	0.036943	-2.275	-2.5	-2.7562	-2.7875	-2.4854	-2.875	-2.7604	-2.7292	-2.8688	-2.6083	-2.7625	-2.6937	-2.6521	-2.7854	-2.5625	-2.5938	128.280	27.332	144.947	218.304	-55.496	242.124	181.873	-73.358	-35.558	114.100	-7.516	153.339	189.326	213.143	85.982	71.022	0.00035223	0.0006084	5.3217e-05	1335.7	2.4524e-06	2.85e-06	1405.6	274.02	2.5577e-06	3.8799e-06	343.26	96.255	75.854	21.802	4.3742e-06	30.168	0.00036345	0.00037981	9.5857e-05	1315.3	4.0661e-06	3.8561e-06	1385.1	273.34	4.0758e-06	3.9356e-06	342.19	96.49	76.024	21.874	3.9359e-06	30.689	17.873	-8.335	-0.327	-82.199	77.336	47.086	-82.291	-75.456	90.089	74.341	-76.290	-69.227	-68.828	-61.483	66.037	-62.213	-8191	255	
8080.174	1	1	0	0	0.18213	0.11084	0.14516	0.206	0.18658	0.19378	0.13221	0.11315	0.1148	0.10652	0.20493	0.24803	0.41699	0.19514	0.29961	0.13127	-2.3	-2.35	-2.7729	-2.8979	-2.4688	-2.85	-2.5396	-2.5625	-2.7	-2.5625	-2.6813	-2.8312	-2.5229	-2.6042	-2.6708	-2.6542	213.477	-83.952	31.817	-75.045	213.709	86.326	113.328	173.410	164.628	228.157	174.592	172.681	181.320	-10.506	176.773	212.163	0.00030844	0.00053701	3.4073e-05	1337.4	1.8076e-06	3.6931e-06	1401.8	275.38	3.0033e-06	1.6378e-06	341.64	96.174	75.734	21.56	1.1719e-06	30.254	0.00035724	0.00037307	9.8414e-05	1316.9	4.149e-06	3.8193e-06	1386.2	273.74	4.0128e-06	3.9277e-06	342.89	96.625	76.173	21.889	4.083e-06	30.687	24.831	-13.582	-0.258	-82.206	113.219	53.730	-82.198	-75.114	57.089	62.189	-76.085	-69.067	-68.838	-61.621	98.933	-62.395	-8191	255	
8080.268	1	1	0	0	0.27147	0.18449	0.22	0.35003	0.083988	0.30867	0.2677	0.067415	0.18542	0.36947	0.11827	0.1852	0.29943	0.081428	0.0028846	0.096289	-2.5312	-2.375	-2.8792	-2.9042	-2.5396	-2.8312	-2.7812	-2.6604	-2.825	-2.4333	-2.4875	-2.7958	-2.45	-2.7229	-2.5687	-2.5542	-79.079	135.588	137.805	261.476	34.142	-70.503	218.305	-10.941	-72.556	213.891	211.281	168.840	261.537	197.953	-55.357	257.085	0.00028296	0.00038389	0.00012054	1332	3.168e-06	4.9031e-06	1403.7	275.13	5.06e-06	2.1799e-06	349.87	96.351	75.919	21.613	4.8105e-06	30.203	0.00035854	0.00037811	0.00010298	1313.7	4.1161e-06	3.9005e-06	1384.4	273.17	4.0324e-06	4.1052e-06	343.84	96.572	76.169	21.861	4.3779e-06	30.704	25.068	15.957	10.689	-82.462	121.459	45.657	-82.365	-75.403	-44.157	113.320	-75.077	-69.267	-68.715	-61.939	59.205	-62.820	-8191	255	
8080.364	1	1	0	0	0.19438	0.12321	0.2497	0.25128	0.071381	0.057455	0.33366	0.22611	0.2548	0.14794	0.3072	0.091932	0.032534	0.33666	0.045961	0.13029	-2.3812	-2.3417	-2.6562	-2.9167	-2.5521	-2.7417	-2.8854	-2.6479	-2.8292	-2.7104	-2.475	-2.9896	-2.5917	-2.8021	-2.6646	-2.4604	-48.522	205.475	-37.500	255.218	255.005	-85.308	211.080	224.916	125.000	73.100	251.452	73.933	251.354	115.393	-63.676	266.576	0.00035326	0.00029414	0.00010862	1333.5	1.5391e-06	1.6512e-06	1408.4	275.24	6.9427e-06	4.0953e-06	337.33	96.505	76.373	21.613	2.8773e-06	30.345	0.00036116	0.00039234	0.00010315	1315.1	4.1404e-06	4.0447e-06	1387.8	273.46	3.998e-06	4.4694e-06	342.61	96.665	76.204	21.823	4.2355e-06	30.663	25.643	-34.813	-6.488	-82.469	-6.690	49.331	-81.958	-75.057	15.528	60.694	-75.773	-69.287	-68.978	-61.963	12.636	-62.349	-8191	255	
8080.462	1	1	0	0	0.060089	0.081741	0.21315	0.17344	0.24778	0.18768	0.19752	0.14129	0.35866	0.27298	0.16444	0.26919	0.16633	0.020879	0.14017	0.45302	-2.1833	-2.5667	-2.6667	-2.9396	-2.3771	-2.6458	-3.0542	-2.5563	-2.775	-2.4875	-2.6146	-2.8063	-2.6292	-2.7646	-2.5917	-2.6396	128.888	159.075	18.364	222.056	25.344	250.485	238.236	69.424	35.378	63.309	-38.026	-85.098	264.971	65.343	-2.297	226.583	0.00033242	0.00038744	0.00010609	1342.2	5.0173e-06	4.4485e-06	1407.1	275.88	4.3362e-06	1.5493e-06	347.29	96.752	76.625	21.781	5.4192e-06	30.299	0.00035183	0.00037218	0.00010308	1318.8	4.1174e-06	3.9453e-06	1388.5	273.63	3.9333e-06	4.2774e-06	344.05	96.585	76.31	21.929	4.0725e-06	30.732	24.563	-0.954	-10.696	-82.172	107.732	72.059	-82.218	-75.507	-1.786	38.870	-75.412	-69.172	-68.820	-61.860	80.336	-62.067	-8191	255	
8080.557	1	1	0	0	0.098029	0.049819	0.15114	0.30777	0.033193	0.18731	0.12465	0.24053	0.081775	0.11582	0.24257	0.0687	0.12782	0.11858	0.060343	0.11567	-2.4375	-2.6167	-2.5458	-3.0208	-2.6437	-2.7354	-3.0271	-2.5667	-2.7729	-2.4813	-2.5146	-3	-2.4333	-2.5583	-2.5812	-2.3	-0.584	96.084	207.589	242.241	171.965	2.843	142.234	137.623	-31.425	-69.731	-52.507	116.846	229.472	107.701	70.612	249.957	0.0003233	0.00037002	9.3011e-05	1336.5	5.6481e-06	3.8843e-06	1406.8	275.47	4.2097e-06	3.7653e-06	345.19	96.751	76.472	21.673	4.3695e-06	30.141	0.00034467	0.00038315	0.00010469	1316	4.1463e-06	4.0758e-06	1388.6	274.32	3.9574e-06	4.3346e-06	346.38	96.579	76.446	21.913	4.1502e-06	30.68	16.313	-21.868	11.753	-82.304	30.925	56.048	-82.252	-75.213	36.862	53.490	-76.226	-68.792	-68.388	-61.729	68.540	-62.108	-8191	255	
8080.653	1	1	0	0	0.17515	0.19316	0.23796	0.22054	0.24958	0.25307	0.38595	0.26135	0.10844	0.28843	0.16239	0.21106	0.1459	0.34604	0.2866	0.19105	-2.3063	-2.4792	-2.3667	-2.8771	-2.6833	-2.4354	-3.1688	-2.7083	-2.8604	-2.7271	-2.4729	-2.6854	-2.5625	-2.6	-2.8187	-2.5542	-76.956	114.327	74.302	-78.095	70.075	214.892	200.883	200.794	181.535	75.312	130.962	193.411	27.726	196.061	-86.133	220.951	0.00031089	0.00037429	9.1243e-05	1338.8	2.9339e-06	1.9905e-06	1406.1	275.19	4.8773e-06	4.758e-06	343.31	96.466	76.382	21.794	2.0999e-06	30.222	0.00036762	0.00038369	0.00010628	1317.1	4.3442e-06	4.0606e-06	1388.4	274.09	4.1219e-06	4.218e-06	344.08	96.393	76.196	21.9	4.0999e-06	30.707	16.060	-33.511	40.255	-82.470	115.413	48.325	-82.405	-75.473	-42.470	71.715	-75.093	-69.086	-68.718	-62.174	91.874	-62.401	-8191	255	
8080.749	1	1	0	0	0.17031	0.21249	0.16455	0.32952	0.1838	0.16411	0.35678	0.18236	0.16938	0.18995	0.30375	0.20204	0.155	0.089192	0.16705	0.20592	-2.2375	-2.7104	-2.3667	-2.9938	-2.6083	-2.4854	-2.9958	-2.4708	-2.6542	-2.5833	-2.4542	-2.8063	-2.6771	-2.5583	-2.7292	-2.7708	171.340	230.035	64.193	239.462	196.796	37.195	173.863	-85.311	-56.288	90.616	-87.151	29.680	174.241	-82.902	125.491	229.951	0.00028542	0.00026747	0.00012382	1338.5	2.8193e-06	4.4189e-06	1411.3	276.7	6.3859e-07	2.3635e-06	348.17	96.081	76.348	21.826	2.6599e-06	30.34	0.00036626	0.00038686	0.00010519	1317.2	4.4581e-06	4.289e-06	1389.7	274.3	4.1897e-06	4.5061e-06	346.26	96.537	76.365	21.96	4.1013e-06	30.752	19.975	-16.594	20.093	-82.264	119.184	74.681	-82.231	-75.385	152.309	21.018	-75.862	-69.120	-69.080	-61.752	50.132	-62.201	-8191	255	
8080.870	1	1	0	0	0.20466	0.19957	0.11272	0.2026	0.13283	0.18731	0.13874	0.16446	0.19336	0.12031	0.14958	0.22677	0.28657	0.13846	0.30543	0.25337	-2.1	-2.7188	-2.5604	-2.9688	-2.8729	-2.65	-3.1021	-2.6104	-2.7333	-2.8521	-2.6688	-2.8979	-2.7125	-2.5125	-2.8396	-2.6	258.698	214.430	-6.840	255.028	259.629	182.854	237.281	-85.520	-35.735	227.671	194.004	255.222	-84.836	-82.949	98.525	167.745	0.00028499	0.00019638	0.00010844	1340.3	2.1064e-06	4.4449e-06	1410.5	276.37	3.7174e-06	3.2247e-06	346.07	96.157	76.17	21.765	3.8423e-06	30.105	0.00037612	0.00040103	0.00010843	1318.5	4.6008e-06	4.2571e-06	1390.9	274.58	3.997e-06	4.1491e-06	345.46	96.619	76.194	21.932	3.9431e-06	30.725	35.462	-28.090	-12.136	-82.327	21.094	32.274	-82.253	-75.405	-13.651	91.269	-76.701	-69.003	-68.471	-61.970	50.499	-62.239	-8191	255	
8080.966	1	1	0	0	0.11811	0.016588	0.12016	0.2724	0.097583	0.27208	0.32938	0.32969	0.13239	0.27615	0.044064	0.13569	0.18622	0.24232	0.15747	0.22651	-2.1833	-2.8292	-2.425	-2.9042	-2.6521	-2.3292	-3.0042	-2.6271	-2.5146	-2.9	-2.6083	-2.7083	-2.7188	-2.6208	-2.6896	-2.5625	159.231	-25.369	5.671	253.025	180.708	85.860	184.815	257.263	19.897	230.690	145.935	139.356	52.292	167.866	150.569	217.150	0.00036819	0.00058714	0.00012814	1335.8	2.9284e-06	2.8473e-06	1407.4	275.6	5.9687e-06	3.9931e-06	351.9	96.64	75.972	21.728	5.1468e-06	30.326	0.00036636	0.0003666	0.00010459	1317.9	4.3706e-06	4.0576e-06	1388.1	274.15	3.9195e-06	4.0851e-06	347.04	96.609	76.282	21.937	3.9417e-06	30.725	18.706	-18.252	-22.687	-82.421	69.918	34.371	-82.295	-75.355	20.868	64.640	-75.495	-69.060	-68.423	-61.826	47.102	-62.333	-8191	255	
8081.062	1	1	0	0	0.098179	0.041437	0.3363	0.023676	0.12122	0.17442	0.31676	0.12459	0.051002	0.14434	0.038317	0.24084	0.13619	0.18197	0.21848	0.22789	-2.2229	-2.7687	-2.4583	-2.9125	-2.6688	-2.4604	-2.8833	-2.7917	-2.4437	-2.7458	-2.5104	-2.7104	-2.7521	-2.5479	-2.7812	-2.5729	246.413	34.077	30.006	100.393	-38.441	98.152	218.208	127.105	67.611	195.930	24.697	240.546	24.059	214.902	134.935	-40.385	0.00033719	0.00041917	0.00012225	1335.5	6.8986e-06	1.8848e-06	1404.8	276.21	3.7405e-06	3.3226e-06	344.45	96.212	76.283	21.527	4.5328e-06	30.289	0.00036468	0.00036949	0.00010493	1316	4.3289e-06	3.9711e-06	1388	273.92	4.094e-06	3.9345e-06	344.5	96.609	76.235	21.823	3.8334e-06	30.692	13.394	-33.970	-13.955	-82.225	55.324	62.868	-82.199	-75.341	62.669	43.692	-75.102	-69.082	-68.510	-62.246	18.539	-62.455	-8191	255	
8081.158	1	1	0	0	0.22491	0.23883	0.069504	0.31147	0.049036	0.14666	0.27987	0.23038	0.14991	0.12798	0.083598	0.19022	0.072649	0.2879	0.090474	0.079158	-2.0146	-2.7542	-2.5792	-2.9167	-2.7646	-2.6479	-2.8812	-2.6875	-2.4583	-2.7167	-2.475	-2.7104	-2.9896	-2.4417	-2.8458	-2.7	-71.890	113.926	-49.134	250.176	155.946	-32.241	178.936	252.444	42.685	233.316	73.391	258.914	-72.203	204.647	169.176	102.078	0.00030048	0.00028496	0.00011323	1334.7	2.0787e-06	4.4082e-06	1406.9	275.22	1.0226e-06	2.032e-06	342.36	96.515	75.894	21.593	3.1679e-06	30.274	0.00035626	0.00036002	0.00010531	1314.3	4.1876e-06	3.7779e-06	1387.8	273.9	4.0331e-06	3.8618e-06	343	96.47	76.089	21.838	3.8417e-06	30.687	10.765	-1.406	7.242	-82.223	92.131	71.815	-82.229	-75.360	84.883	24.966	-75.080	-69.327	-69.064	-62.093	78.167	-62.271	-8191	255	
8081.254	1	1	0	0	0.14777	0.29747	0.25266	0.17117	0.30752	0.12156	0.1604	0.18687	0.11567	0.1633	0.16303	0.24541	0.16378	0.23377	0.056785	0.16073	-2.0146	-2.5792	-2.7021	-2.7417	-2.8875	-2.4813	-2.9292	-2.7646	-2.5521	-2.7938	-2.5646	-2.6021	-2.6542	-2.6021	-2.4542	-2.5604	-63.360	48.771	152.562	230.479	178.409	176.579	-61.505	-84.276	-78.062	-67.505	241.557	205.378	-40.079	176.711	224.751	187.114	0.00029242	0.00032864	8.3092e-05	1331.7	1.4319e-06	4.6732e-06	1397.8	275.24	2.182e-06	2.0109e-06	344.35	95.86	76.237	21.608	5.2203e-06	30.178	0.00034464	0.00035597	0.00010318	1312.4	3.9845e-06	3.8455e-06	1382.3	273.72	3.9103e-06	3.7853e-06	342.41	96.361	76.03	21.851	3.7108e-06	30.611	22.382	18.030	6.208	-82.384	60.317	56.318	-82.165	-75.361	-11.116	60.458	-75.456	-69.052	-68.872	-61.722	64.135	-61.684	-8191	255	
8081.350	1	1	0	0	0.18626	0.11495	0.10678	0.19008	0.13078	0.1848	0.19374	0.043627	0.025594	0.14254	0.14876	0.1885	0.08047	0.13543	0.23245	0.28178	-2.1	-2.7083	-2.8958	-2.5917	-2.775	-2.6271	-2.9	-2.7604	-2.4854	-2.7792	-2.675	-2.5687	-2.875	-2.5396	-2.6208	-2.9	-2.259	157.842	-59.406	-69.598	121.460	200.095	173.374	214.194	53.030	239.905	199.097	219.683	-54.748	231.770	-21.550	222.745	0.00035044	0.00033029	5.8189e-05	1330.2	4.249e-06	2.9073e-06	1399.2	275.21	4.5923e-06	3.1638e-06	346.11	95.957	76.292	21.564	3.9576e-06	30.204	0.00035259	0.00034957	0.00010507	1310.7	4.0247e-06	4.13e-06	1382.5	273.55	3.9722e-06	4.0011e-06	344.25	96.471	76.228	21.827	3.9467e-06	30.62	17.747	-14.693	41.436	-82.359	66.804	56.316	-82.163	-75.401	26.614	64.353	-75.396	-69.068	-68.945	-61.631	45.888	-62.578	-8191	255	
8081.469	1	1	0	0	0.33206	0.40284	0.10215	0.2012	0.25898	0.29222	0.22966	0.2349	0.2013	0.11569	0.14208	0.24658	0.095369	0.17011	0.18254	0.17714	-2.1333	-2.6875	-2.45	-2.4271	-2.7062	-2.6063	-2.65	-2.8896	-2.4375	-2.5354	-2.5917	-2.5938	-2.8396	-2.6104	-2.5625	-2.7646	33.401	-17.617	233.736	214.387	33.389	251.577	214.482	241.934	-19.156	-12.668	84.111	-47.788	213.401	146.195	10.742	-24.289	0.00027327	0.00051761	0.00013055	1330.7	2.09e-06	2.8833e-06	1401.1	274.87	2.332e-06	3.3171e-06	346.96	96.302	75.911	21.664	1.1997e-06	30.239	0.00036073	0.00036231	0.00010601	1314.2	4.0765e-06	4.2404e-06	1383.4	273.54	4.0355e-06	3.8573e-06	345.04	96.399	75.965	21.847	3.8338e-06	30.674	12.935	-7.662	-0.824	-82.231	74.618	65.379	-82.246	-75.182	22.055	62.972	-75.646	-69.251	-68.479	-61.742	32.553	-62.262	-8191	255	
8081.565	1	1	0	0	0.087208	0.10007	0.1252	0.065366	0.14157	0.16006	0.23265	0.22508	0.22538	0.18095	0.064907	0.036946	0.24277	0.23597	0.18501	0.4179	-2.1	-2.7687	-2.6583	-2.4	-2.8083	-2.65	-2.6	-2.8042	-2.4	-2.55	-2.7104	-2.6708	-2.9	-2.6688	-2.6083	-2.9125	72.346	20.718	-19.358	21.098	181.379	133.692	204.868	246.707	58.377	232.822	222.734	-33.428	-59.714	28.354	65.480	194.671	0.0003553	0.00034859	5.5796e-05	1332.2	4.1442e-06	2.2258e-06	1397.3	274.09	5.9434e-06	3.2018e-06	347.41	95.721	75.864	21.775	5.1977e-06	30.328	0.00037552	0.00035927	0.0001058	1313.3	4.2438e-06	4.3011e-06	1382.7	273.48	4.4475e-06	4.1987e-06	344.28	96.469	76.204	21.917	4.2606e-06	30.667	19.986	-17.268	-10.289	-82.299	107.519	56.762	-82.281	-75.395	45.121	77.674	-76.564	-69.123	-68.532	-62.081	72.168	-61.966	-8191	255	
8081.661	1	1	0	0	0.058882	0.20323	0.053803	0.21711	0.13289	0.21425	0.39768	0.10789	0.25834	0.26402	0.1665	0.055603	0.16826	0.30182	0.18316	0.098129	-2.0187	-2.5812	-2.7146	-2.6229	-2.6292	-2.6333	-2.7438	-2.9562	-2.525	-2.6	-2.6854	-2.5896	-2.8125	-2.6813	-2.5083	-2.9	226.934	128.354	-8.875	250.823	9.126	165.968	217.035	235.978	-46.161	-76.892	81.069	1.327	226.028	204.426	262.274	161.483	0.00026574	0.00025382	0.00014925	1339.8	8.7595e-07	3.6598e-06	1406.6	275.33	4.0272e-06	3.7092e-06	348.65	96.642	75.951	21.678	4.2736e-06	30.257	0.00038836	0.00038962	0.00011149	1315.6	4.2789e-06	4.4726e-06	1386	274.14	4.3215e-06	4.1325e-06	344.82	96.724	76.099	21.951	4.1146e-06	30.674	13.210	-30.499	-0.959	-82.257	57.894	95.284	-82.178	-75.295	-8.011	40.655	-75.491	-69.147	-68.987	-62.069	32.949	-62.209	-8191	255	
8081.733	1	1	0	0	0.12042	0.09019	0.18345	0.07097	0.17081	0.14777	0.38235	0.29828	0.20875	0.11174	0.10721	0.30923	0.18317	0.13178	0.24626	0.14892	-2.2979	-2.375	-2.5812	-2.5854	-2.8271	-2.6292	-2.7875	-2.8021	-2.5938	-2.6437	-2.6875	-2.5104	-2.7125	-2.7	-2.5042	-2.9708	142.102	175.912	64.522	159.596	78.341	193.916	160.741	222.936	-14.172	202.067	146.264	241.004	239.040	-56.708	42.631	-60.931	0.00032602	0.00033263	9.6991e-05	1337.9	2.1559e-06	4.437e-06	1403.6	274.6	1.5495e-06	4.2191e-06	346.16	95.842	76.296	21.635	6.7978e-06	30.347	0.00038165	0.00036762	0.00010376	1316.2	4.2876e-06	4.273e-06	1388.5	273.52	4.2259e-06	4.1029e-06	343.05	96.378	76.224	21.866	4.0208e-06	30.726	20.699	8.978	43.786	-82.265	84.507	55.731	-82.356	-75.348	19.756	36.584	-76.235	-69.189	-68.991	-61.649	66.956	-61.655	-8191	255	
8081.854	1	1	0	0	0.24743	0.04056	0.086629	0.28609	0.3013	0.17129	0.22137	0.14561	0.17517	0.015957	0.10514	0.085108	0.078242	0.16936	0.10159	0.15764	-2.0917	-2.5312	-2.6729	-2.6813	-2.8	-2.8312	-2.7354	-2.9875	-2.75	-2.5583	-2.8583	-2.6583	-2.6708	-2.7583	-2.7062	-2.8729	110.511	13.453	-24.860	203.610	-56.724	216.178	213.461	46.956	-8.610	-16.804	62.687	96.834	114.887	90.210	21.616	141.953	0.00029505	0.00068947	9.6641e-05	1335.5	3.6558e-06	2.8976e-06	1407.9	274.99	3.2287e-06	5.2158e-06	345.22	96.09	76.292	21.485	4.2429e-06	30.293	0.00037846	0.00039067	0.00010009	1316.7	4.2359e-06	4.1008e-06	1386.1	273.75	4.2847e-06	4.151e-06	343.38	96.478	76.201	21.823	3.983e-06	30.699	14.071	-2.638	27.553	-82.354	25.023	44.984	-82.388	-75.364	-6.970	30.939	-75.905	-68.904	-68.895	-61.695	75.064	-62.223	-8191	255	
8081.950	1	1	0	0	0.18639	0.153	0.21068	0.16137	0.32641	0.14001	0.1115	0.26588	0.16849	0.14795	0.074774	0.23457	0.3613	0.20774	0.30218	0.18463	-2.0625	-2.5854	-2.7083	-2.7271	-2.6271	-2.6542	-2.5792	-2.8875	-2.7354	-2.6188	-2.7979	-2.7208	-2.5521	-2.9854	-2.5875	-2.8937	161.434	-60.026	131.887	187.720	-1.151	-63.657	215.390	-39.307	-0.375	241.104	68.671	120.364	132.710	239.079	144.634	-25.246	0.00030901	0.00026808	0.00010314	1335.2	4.0121e-06	3.1846e-06	1407.5	276.44	4.7905e-06	2.1685e-06	344.68	96.603	76.099	21.621	4.6502e-06	30.292	0.00038062	0.00038992	0.00010343	1315.1	4.2855e-06	4.3554e-06	1388.2	274.19	4.4355e-06	4.3043e-06	344.25	96.7	76.245	21.876	4.1758e-06	30.705	34.753	-2.412	-23.380	-82.245	82.058	77.398	-82.184	-75.592	48.299	43.979	-74.912	-69.017	-68.539	-61.811	82.306	-62.424	-8191	255	
8082.046	1	1	0	0	0.070278	0.047107	0.093448	0.18165	0.21488	0.084043	0.22171	0.32986	0.029809	0.15278	0.13224	0.10564	0.06366	0.11373	0.18848	0.10151	-2.3021	-2.3708	-2.7708	-2.6208	-2.6813	-2.7208	-2.7542	-2.8167	-2.5479	-2.6833	-2.6688	-2.6292	-2.5271	-2.6917	-2.7292	-2.6917	252.574	27.568	8.194	181.240	183.376	-46.653	238.847	217.877	-36.609	-44.557	150.399	172.081	241.439	-51.594	29.043	-29.435	0.0003124	0.00042573	0.00010611	1339.9	2.118e-06	2.0738e-06	1402.7	277.2	7.3455e-06	5.1196e-06	343.82	96.516	76.269	21.651	3.8162e-06	30.177	0.00037914	0.0003843	0.00010876	1319.6	4.2629e-06	4.1103e-06	1388.4	274.29	4.4589e-06	4.3111e-06	344.09	96.573	76.282	21.815	4.3793e-06	30.641	23.429	-19.280	-40.318	-82.273	-20.845	15.248	-82.106	-75.353	38.502	58.419	-75.563	-69.065	-68.855	-62.001	64.295	-62.412	-8191	255	
8082.142	1	1	0	0	0.20347	0.14222	0.15957	0.25825	0.091467	0.19487	0.20121	0.16195	0.17841	0.23087	0.14914	0.11248	0.08654	0.033501	0.068548	0.030362	-2.1937	-2.3312	-2.7292	-2.8	-2.4437	-2.7042	-2.6479	-2.8167	-2.7792	-2.5312	-2.7333	-2.7458	-2.5625	-2.8	-2.4542	-2.5417	117.389	-63.448	6.363	171.858	246.520	151.139	167.298	158.977	-38.072	80.690	133.000	-19.665	206.542	128.032	200.702	233.282	0.00032441	0.00038109	0.00018689	1334.7	4.8346e-06	4.6455e-06	1408.9	276.88	6.4653e-06	3.0437e-06	347.67	96.727	76.011	21.652	5.2137e-06	30.138	0.00038814	0.00039289	0.0001059	1317.3	4.2893e-06	4.2366e-06	1390.2	274.5	4.1935e-06	4.2907e-06	344.74	96.698	75.868	21.825	4.4174e-06	30.645	22.546	8.868	3.102	-82.584	70.915	35.126	-82.166	-75.360	52.139	44.996	-76.640	-69.216	-68.391	-61.990	68.175	-62.105	-8191	255	
8082.261	1	1	0	0	0.064129	0.25771	0.026013	0.19021	0.25688	0.042902	0.15935	0.28334	0.048074	0.19073	0.10152	0.44759	0.15319	0.32957	0.22574	0.065996	-2.3688	-2.4729	-2.8	-2.8042	-2.4208	-2.9375	-2.8104	-2.8021	-2.7229	-2.4375	-2.7292	-2.6521	-2.5896	-2.8125	-2.5146	-2.6917	-15.351	165.566	-24.605	261.924	19.329	33.244	228.942	198.036	-67.338	-52.290	104.928	-58.830	266.226	218.812	186.069	62.558	0.00037782	0.00056541	6.2192e-05	1335.9	3.4186e-06	6.1587e-06	1412.3	276.09	1.0143e-06	2.8971e-06	354.28	96.21	76.483	21.697	2.6698e-06	30.162	0.00037448	0.00039779	0.00010767	1318.8	4.5553e-06	4.5041e-06	1390.2	274.6	4.2782e-06	4.5746e-06	347.58	96.532	76.353	21.904	4.6231e-06	30.595	24.708	9.745	-17.197	-82.266	57.110	55.899	-82.168	-75.255	-36.964	52.113	-76.440	-68.917	-68.968	-61.762	89.878	-62.272	-8191	255	
8082.335	1	1	0	0	0.15542	0.11784	0.20825	0.15283	0.13868	0.10883	0.24613	0.33946	0.098842	0.17364	0.13838	0.362	0.22918	0.22912	0.12771	0.1605	-2.4292	-2.3875	-2.75	-2.8604	-2.3458	-2.7958	-2.825	-2.8417	-2.7812	-2.4938	-2.5042	-2.8333	-2.4646	-2.7313	-2.5417	-2.5729	105.040	105.336	-78.750	240.089	52.484	103.740	188.637	217.381	266.440	-88.089	63.862	-28.066	40.976	-88.577	-7.972	214.094	0.00028075	0.0002803	9.9493e-05	1340.6	4.9013e-06	3.7189e-07	1412.9	276.09	4.6097e-06	4.474e-06	340.53	96.514	76.137	21.736	2.5798e-06	30.307	0.00037981	0.00041764	0.00011308	1322.3	4.5223e-06	4.355e-06	1392.4	274.99	4.357e-06	4.5242e-06	345.66	96.658	76.19	21.885	4.3958e-06	30.686	24.411	17.873	15.935	-82.267	50.756	118.923	-82.309	-75.528	46.911	76.400	-75.616	-69.157	-68.824	-61.916	91.366	-62.349	-8191	255	
8082.431	1	1	0	0	0.14057	0.13474	0.1109	0.24443	0.30195	0.11975	0.24915	0.25987	0.18092	0.14136	0.1556	0.11797	0.17643	0.14148	0.12847	0.21091	-2.3521	-2.4125	-2.5563	-2.9333	-2.5417	-2.8646	-2.8979	-2.5854	-2.7438	-2.6813	-2.5938	-2.8729	-2.4458	-2.9125	-2.4583	-2.4667	264.238	108.829	122.503	224.949	252.750	-87.486	239.593	233.757	163.483	119.769	-72.580	103.276	80.771	-50.978	47.619	-36.010	0.00031183	0.00022628	0.00013209	1341	3.5957e-06	4.6552e-06	1408.2	277.42	3.0893e-06	4.4128e-06	350.78	96.043	76.45	21.593	6.0465e-06	30.474	0.00037559	0.00041301	0.00010884	1319.6	4.3834e-06	4.2328e-06	1392.7	274.91	4.3033e-06	4.606e-06	347.58	96.687	76.404	21.842	4.5731e-06	30.757	6.738	238.157	9.720	-82.351	10.628	33.037	-82.111	-75.237	48.114	74.590	-76.020	-69.147	-68.664	-61.743	43.405	-62.195	-8191	255	
8082.550	1	1	0	0	0.28925	0.074132	0.087445	0.17711	0.1304	0.098469	0.094132	0.37858	0.05385	0.19087	0.18814	0.19662	0.21172	0.40163	0.015227	0.073816	-2.3063	-2.6208	-2.6104	-3.0604	-2.7083	-2.7771	-2.7771	-2.7042	-2.7562	-2.7	-2.8187	-2.7792	-2.4604	-2.8021	-2.8083	-2.4229	168.584	225.330	187.009	172.048	28.971	13.057	93.789	263.422	-69.316	185.861	-14.374	50.821	229.968	260.935	237.523	192.579	0.00032009	9.3216e-05	0.00010565	1340.9	3.5383e-06	1.4452e-06	1420.8	276.5	4.2147e-06	5.2902e-06	350.22	96.353	76.436	21.739	3.897e-06	30.064	0.000381	0.00041625	0.00011436	1323	4.6754e-06	4.3724e-06	1396.3	274.76	4.4864e-06	4.762e-06	346.95	96.877	76.475	21.971	4.4314e-06	30.648	22.152	-61.727	1.606	-82.228	38.309	-30.699	-82.242	-75.224	50.866	36.080	-75.531	-69.067	-69.143	-61.734	63.105	-62.370	-8191	255	
8082.646	1	1	0	0	0.1349	0.17304	0.036995	0.23305	0.057682	0.15278	0.37761	0.092157	0.16315	0.16266	0.12263	0.35385	0.092793	0.1188	0.1066	0.13446	-2.3458	-2.6188	-2.6521	-3.025	-2.5208	-2.7687	-2.9771	-2.5625	-2.7458	-2.5563	-2.5771	-2.8875	-2.5917	-2.6854	-2.7354	-2.5708	-57.942	-31.494	-33.271	226.970	96.276	212.816	-90.143	119.210	-1.359	140.263	-83.457	-67.764	-38.723	110.112	-45.883	221.059	0.00037392	0.00048677	0.00011496	1348.4	2.7651e-06	3.6137e-06	1417.9	278.81	1.6089e-06	2.9895e-06	347.68	96.603	76.769	21.84	4.225e-06	30.37	0.00038942	0.00043181	0.0001166	1328.2	5.0025e-06	4.5879e-06	1399.6	276.26	4.5363e-06	4.8619e-06	346.74	96.878	76.875	22.001	4.8788e-06	30.83	14.704	-12.402	-25.904	-82.417	94.522	43.248	-82.228	-75.535	155.427	43.954	-76.178	-68.858	-68.868	-62.148	64.858	-62.473	-8191	255	
8082.742	1	1	0	0	0.15688	0.1328	0.087233	0.3615	0.19657	0.12959	0.25008	0.094476	0.081789	0.28447	0.31424	0.31875	0.1443	0.18552	0.19933	0.1169	-2.4042	-2.5792	-2.325	-3.0021	-2.5812	-2.6271	-2.8688	-2.5875	-2.9333	-2.7479	-2.4896	-2.8937	-2.5083	-2.4146	-2.7604	-2.4521	125.494	151.392	54.892	225.140	-43.753	14.674	229.048	106.389	22.295	62.032	-67.456	251.415	-91.303	251.216	56.645	-29.250	0.00025432	0.00029929	8.1375e-05	1357.9	2.5316e-06	2.281e-06	1430.9	279.03	6.9457e-06	2.1234e-06	349.26	97.436	76.726	21.737	4.009e-06	30.283	0.00040518	0.00044894	0.00012077	1336.2	5.1737e-06	4.9859e-06	1410	277.45	4.7001e-06	5.0815e-06	350.51	97.452	77.061	22.055	4.9029e-06	30.857	28.114	-22.795	10.888	-82.463	15.608	46.254	-82.311	-75.306	27.742	81.815	-75.676	-69.130	-68.949	-61.711	29.424	-62.403	-8191	255	
8082.862	1	1	0	0	0.052405	0.11637	0.072458	0.24633	0.23109	0.32321	0.39225	0.15932	0.088493	0.13077	0.15311	0.068411	0.28205	0.28001	0.078875	0.13438	-2.2479	-2.675	-2.5375	-2.9292	-2.4813	-2.6792	-3.0563	-2.7062	-2.8563	-2.6104	-2.3729	-2.9604	-2.7042	-2.6562	-2.9708	-2.4938	158.989	-6.535	40.014	-82.111	42.368	62.075	234.050	196.702	-9.386	137.277	211.887	-40.459	117.550	120.585	166.361	20.703	0.00034191	0.00025426	8.431e-05	1367.6	6.2354e-06	2.3284e-06	1433.2	279.64	3.3859e-06	2.0106e-06	351.64	97.893	76.678	21.891	5.7296e-06	30.418	0.0004124	0.00046495	0.00013023	1344.1	5.431e-06	4.8444e-06	1414	277.95	4.7628e-06	4.944e-06	350.86	97.807	77.081	22.12	4.895e-06	30.927	13.136	-68.810	-5.374	-82.223	29.142	69.445	-82.211	-75.427	47.310	76.967	-75.445	-69.157	-68.930	-62.192	66.368	-62.347	-8191	255	
8082.959	1	1	0	0	0.10055	0.10963	0.15716	0.16578	0.059799	0.3284	0.10136	0.26373	0.12312	0.17053	0.21184	0.14574	0.12502	0.40346	0.02367	0.13436	-2.2917	-2.7792	-2.4917	-2.7625	-2.4062	-2.4854	-2.975	-2.7333	-2.5896	-2.6625	-2.5667	-2.85	-2.5667	-2.425	-2.9417	-2.6208	-9.187	105.576	194.280	144.976	253.142	80.403	118.960	-72.772	-51.128	265.908	224.000	-74.519	151.143	-13.365	32.330	118.029	0.00033811	0.00033821	9.3035e-05	1366.8	4.3429e-06	4.2052e-06	1433.9	278.4	2.0788e-06	3.0215e-06	353.98	97.508	77.033	21.849	4.1658e-06	30.496	0.00041129	0.00047373	0.00013006	1346.8	5.0164e-06	4.8964e-06	1418.1	278.5	4.7938e-06	4.8619e-06	353.34	97.757	77.324	22.101	4.7619e-06	30.965	14.645	-9.732	-25.376	-82.390	39.285	97.626	-82.225	-75.448	39.368	41.256	-75.611	-69.215	-68.941	-62.077	16.797	-62.315	-8191	255	
8083.030	1	1	0	0	0.23826	0.029024	0.21521	0.28346	0.19188	0.11585	0.29929	0.22816	0.16047	0.12015	0.2596	0.32227	0.15184	0.12517	0.2588	0.10691	-2.0938	-2.6896	-2.4875	-3.0542	-2.8187	-2.5271	-2.95	-2.8604	-2.6417	-2.6292	-2.475	-2.8125	-2.7667	-2.5604	-2.7667	-2.5854	-19.508	87.777	-38.097	256.540	46.778	70.013	242.536	-88.794	-70.397	180.648	90.486	221.635	226.681	-72.322	-16.221	52.501	0.00028995	0.000336	0.00012048	1369.3	4.3367e-06	4.7276e-06	1438.4	280.07	3.4965e-06	4.5043e-06	352.29	97.266	77.151	21.981	4.2725e-06	30.581	0.00039319	0.000447	0.00012846	1347.5	5.0998e-06	4.7822e-06	1417.7	278.55	4.6933e-06	4.9251e-06	351.63	97.625	77.204	22.14	4.8072e-06	30.986	9.484	-26.496	8.158	-82.414	54.972	45.484	-82.167	-75.328	-1.794	87.318	-76.093	-69.436	-68.616	-62.044	90.018	-61.934	-8191	255	
8083.151	1	1	0	0	0.26644	0.13201	0.22466	0.34104	0.13446	0.17278	0.087376	0.099993	0.11628	0.2264	0.18988	0.090002	0.11613	0.31528	0.097177	0.10342	-2.1063	-2.8937	-2.4604	-2.9354	-2.6979	-2.6917	-2.9354	-2.5771	-2.7729	-3.0833	-2.5708	-2.8979	-2.7458	-2.5062	-2.625	-2.6937	-87.826	-86.210	-58.136	246.965	256.030	171.425	-82.470	135.771	136.564	107.727	75.334	265.229	-60.815	157.183	177.574	221.927	0.00028999	0.00036629	0.00011195	1366.9	2.2338e-06	5.714e-06	1439.3	280.93	4.9403e-06	2.7386e-06	351.26	98.021	76.655	21.935	4.5979e-06	30.313	0.00040915	0.00044141	0.00012148	1347.2	4.9973e-06	4.9256e-06	1419	278.61	4.8664e-06	4.7086e-06	350.57	97.876	77.176	22.13	4.5303e-06	30.854	24.123	-9.325	-26.899	-82.189	124.540	60.606	-82.332	-75.503	6.374	77.731	-75.398	-69.237	-68.576	-62.185	87.084	-62.827	-8191	255	
8083.245	1	1	0	0	0.047084	0.11926	0.15373	0.31068	0.11878	0.18149	0.23462	0.49251	0.14661	0.37682	0.12255	0.073092	0.12745	0.18786	0.22082	0.095757	-2.1083	-2.7417	-2.4167	-2.9583	-2.9708	-2.5625	-2.8771	-2.7	-2.5229	-2.775	-2.5438	-2.8417	-2.95	-2.7521	-2.8542	-2.6833	93.627	217.361	-15.399	-89.684	-52.179	117.510	212.188	235.490	184.326	127.806	-92.896	185.698	-55.876	36.165	63.598	-56.105	0.00030704	0.00027119	7.7341e-05	1368.9	3.9203e-06	2.6684e-06	1433.1	280.05	1.6676e-06	3.322e-06	351.8	97.452	77.071	21.787	2.9291e-06	30.4	0.00040395	0.00043876	0.0001209	1348.4	4.8553e-06	4.9927e-06	1415.2	278.6	4.6523e-06	4.818e-06	352.23	97.752	77.245	22.095	4.6303e-06	30.898	12.137	42.103	-10.190	-82.313	48.953	-0.839	-82.167	-75.765	2.124	33.305	-76.240	-68.958	-68.809	-61.830	121.011	-62.277	-8191	255	
8083.341	1	1	0	0	0.12646	0.22751	0.18601	0.1241	0.14532	0.072763	0.40055	0.40439	0.24307	0.16512	0.037802	0.21152	0.30231	0.32775	0.097731	0.18133	-2.0896	-2.8083	-2.6667	-2.9042	-2.7208	-2.5938	-3.0104	-2.6688	-2.5667	-2.7458	-2.5938	-2.6146	-2.6917	-2.5958	-2.7354	-2.8417	263.394	71.621	24.817	204.496	41.098	-12.956	249.602	209.699	-92.826	-73.137	237.206	253.139	-42.470	74.716	149.012	-70.344	0.00030373	0.0004025	0.00012431	1368.3	4.8879e-06	3.2077e-06	1438.2	280.29	9.2374e-06	3.3145e-06	355.71	97.747	77.575	21.905	3.8075e-06	30.567	0.00041096	0.00043511	0.00012487	1347.1	4.7991e-06	4.8501e-06	1417.4	278.8	4.865e-06	4.5886e-06	351.98	97.932	77.421	22.129	4.6835e-06	31.044	29.615	-5.189	11.423	-82.356	25.777	33.537	-82.161	-75.673	22.189	73.171	-76.120	-69.169	-68.600	-61.737	73.618	-62.383	-8191	255	
8083.438	1	1	0	0	0.22201	0.19425	0.22883	0.096936	0.083471	0.31001	0.23803	0.16321	0.28507	0.1626	0.094615	0.16552	0.25423	0.25842	0.08994	0.17419	-2.0687	-2.6937	-2.5667	-2.7458	-2.8625	-2.5229	-2.9021	-2.7938	-2.5917	-2.9229	-2.5312	-2.5146	-2.7875	-2.5667	-2.5625	-2.6875	229.594	71.585	-65.986	-88.248	241.757	66.216	209.381	166.183	234.367	110.833	155.623	194.350	213.458	159.557	68.433	-60.973	0.00033976	0.00041171	7.4946e-05	1371.2	4.8142e-06	2.6139e-06	1436.5	280.14	1.2656e-06	1.8704e-06	355.11	97.685	77.377	21.823	4.3536e-06	30.515	0.00041416	0.00042367	0.00012596	1347.1	4.8081e-06	4.9119e-06	1416.8	278.95	4.8172e-06	4.7502e-06	352.55	97.747	77.175	22.146	4.4437e-06	30.936	27.309	-28.451	18.407	-82.313	68.823	29.175	-82.279	-75.590	131.796	53.478	-75.574	-69.121	-68.685	-62.082	95.958	-62.132	-8191	255	
8083.534	1	1	0	0	0.20304	0.24121	0.19357	0.080647	0.17138	0.030689	0.27857	0.2524	0.24765	0.25174	0.13979	0.13348	0.021476	0.082194	0.094963	0.15462	-2.0104	-2.4833	-2.5833	-2.5667	-2.7104	-2.4729	-3.0167	-2.8375	-2.5687	-2.6854	-2.5938	-2.3312	-2.6458	-2.5771	-2.6667	-2.7771	49.269	-69.573	115.903	236.166	256.244	35.452	238.376	175.027	204.491	124.678	87.518	204.358	252.169	-89.354	147.914	216.721	0.00033449	0.00031059	0.00010461	1365.8	3.2757e-06	1.4364e-06	1440.9	279.28	3.4687e-06	3.5647e-06	352.23	97.257	76.994	21.807	2.4737e-06	30.376	0.00041064	0.00043198	0.00012511	1345.8	4.8956e-06	4.9339e-06	1418.3	278.41	4.8065e-06	4.5182e-06	351.91	97.788	77.292	22.083	4.5832e-06	30.878	22.406	-42.329	-2.409	-82.195	111.328	44.532	-82.197	-75.570	5.422	35.150	-75.759	-69.269	-69.217	-62.046	73.191	-62.317	-8191	255	
8083.630	1	1	0	0	0.18921	0.033237	0.25747	0.081164	0.07381	0.19842	0.15595	0.15587	0.33901	0.24152	0.1645	0.16016	0.20311	0.35879	0.079005	0.095304	-2.1771	-2.6	-2.7062	-2.6542	-2.5062	-2.4042	-2.65	-2.9813	-2.4021	-2.7313	-2.8479	-2.6146	-2.7896	-2.5375	-2.7583	-2.8542	247.616	109.574	127.377	260.145	216.348	-85.241	195.623	254.914	157.381	21.525	190.092	189.233	239.495	207.210	-51.363	128.495	0.00029277	0.00050939	0.00011119	1365.2	1.3437e-06	4.9727e-06	1436.1	279.77	3.4666e-06	4.0789e-06	349.53	97.102	76.806	21.913	5.2044e-06	30.477	0.00040802	0.00041802	0.0001194	1345.6	4.6247e-06	4.8899e-06	1416.3	278.38	4.7714e-06	4.3808e-06	352.18	97.699	77.128	22.095	4.5282e-06	30.928	22.581	19.777	15.693	-82.444	70.509	45.345	-82.165	-75.427	-16.027	32.578	-75.563	-68.856	-68.892	-62.038	108.991	-62.408	-8191	255	
8083.726	1	1	0	0	0.18767	0.078259	0.24825	0.076904	0.18216	0.13679	0.23442	0.15923	0.25347	0.091214	0.28886	0.29852	0.15435	0.1274	0.1635	0.18813	-1.9792	-2.6167	-2.5354	-2.6813	-2.6771	-2.5292	-2.8542	-2.9562	-2.6208	-2.7958	-2.6813	-2.575	-2.8458	-2.7687	-2.6625	-2.8021	167.054	33.186	264.106	141.340	41.086	-64.748	-35.115	195.512	258.473	212.449	15.738	247.029	151.420	-53.104	105.673	186.420	0.00032909	0.00030836	0.00013122	1365	3.1494e-06	5.7208e-06	1431.7	280.42	2.8611e-06	4.1871e-06	352.66	97.097	77.137	21.876	4.7673e-06	30.557	0.00039266	0.00040058	0.00011564	1344.8	4.6178e-06	4.5974e-06	1413.5	278.21	4.7731e-06	4.4186e-06	349.62	97.481	77.301	22.068	4.5958e-06	30.916	7.181	-45.252	-12.254	-82.157	57.894	16.181	-82.378	-75.747	-19.879	64.147	-75.631	-68.741	-68.902	-61.980	170.664	-62.357	-8191	255	
8083.822	1	1	0	0	0.14538	0.17737	0.084332	0.046005	0.16531	0.045016	0.18196	0.17657	0.2089	0.14124	0.068263	0.14569	0.15081	0.097183	0.075878	0.26974	-2.0938	-2.7521	-2.7646	-2.7708	-2.7729	-2.7958	-2.7229	-2.7729	-2.5646	-2.7458	-2.6833	-2.5708	-2.8063	-2.7479	-2.4958	-2.9062	212.014	-54.232	217.852	-70.922	34.799	115.903	192.471	80.913	213.109	202.172	-22.767	264.899	176.456	70.615	151.805	216.987	0.00030382	0.00041356	0.00011513	1367.4	2.0215e-06	4.0048e-06	1432.8	280.35	3.3201e-06	3.8141e-06	345.65	97.268	76.862	21.74	5.247e-06	30.311	0.00040888	0.00040555	0.00012143	1343.3	4.8116e-06	4.786e-06	1413.7	278.23	4.6619e-06	4.4663e-06	348.53	97.477	77.19	22.058	4.5149e-06	30.813	24.756	-22.568	-12.614	-82.291	29.373	37.361	-82.187	-75.442	20.721	86.467	-76.621	-69.099	-68.744	-61.902	94.633	-62.548	-8191	255	
8083.943	1	1	0	0	0.11687	0.1801	0.054437	0.31532	0.078431	0.24805	0.44874	0.19907	0.1154	0.27766	0.35314	0.21881	0.091355	0.25219	0.15225	0.082692	-2.1396	-2.6229	-2.6104	-2.5521	-2.7229	-2.6625	-2.7604	-2.7562	-2.8375	-2.5646	-2.6771	-2.6542	-2.7875	-2.7583	-2.6104	-2.8312	217.899	196.288	46.395	243.703	16.001	156.638	242.640	210.637	52.445	29.232	56.316	190.508	236.351	184.003	111.167	97.629	0.00030098	0.00042781	0.00013555	1365.2	2.482e-06	3.2514e-06	1432	279.5	3.106e-06	4.3318e-06	353.67	97.607	76.809	22.046	5.8776e-06	30.365	0.00040838	0.00041145	0.00012056	1343.2	4.5862e-06	4.5663e-06	1412.9	278.07	4.7057e-06	4.6045e-06	350.22	97.652	77.05	22.125	4.5832e-06	30.835	12.176	-5.146	-0.316	-82.195	61.442	69.098	-82.549	-75.437	8.210	91.019	-75.724	-68.942	-68.572	-62.116	73.374	-62.449	-8191	255	
8084.039	1	1	0	0	0.26716	0.23828	0.080528	0.08287	0.16474	0.26484	0.23395	0.34214	0.18748	0.19688	0.07186	0.043437	0.26546	0.21546	0.10706	0.30679	-2.0833	-2.5	-2.8292	-2.6437	-2.6229	-3.0354	-2.7417	-2.9396	-2.5396	-2.3563	-2.7625	-2.6667	-2.5104	-2.8479	-2.45	-2.8083	129.788	-3.867	217.062	111.709	176.900	93.461	213.121	210.572	99.937	91.310	263.152	220.413	-80.509	83.053	-49.046	145.234	0.00031011	0.00041013	0.00013394	1364	2.4408e-06	1.6759e-06	1436.4	279.71	1.276e-06	4.2439e-06	349.04	97.287	77.053	21.885	2.8628e-06	30.398	0.00041481	0.00042439	0.00011797	1342.7	4.5602e-06	4.8998e-06	1414	278.21	4.6372e-06	4.6196e-06	349.17	97.593	76.933	22.063	4.5084e-06	30.912	26.875	5.764	-22.290	-82.421	36.289	119.462	-82.218	-75.429	13.690	60.811	-76.376	-69.213	-68.784	-61.997	79.550	-62.231	-8191	255	
8084.135	1	1	0	0	0.19456	0.044988	0.12351	0.22767	0.35738	0.27935	0.031205	0.22021	0.10721	0.22816	0.090122	0.098538	0.33991	0.070371	0.19749	0.14449	-2.0521	-2.5375	-2.8167	-2.6312	-2.6146	-2.8208	-2.7	-2.8833	-2.6937	-2.3729	-2.8396	-2.5125	-2.4417	-2.6771	-2.4792	-2.7562	-10.578	117.932	-22.575	136.295	263.450	92.263	66.476	170.242	-45.976	235.416	-79.672	263.052	-28.138	-92.980	214.635	207.688	0.00028409	0.00018713	0.00012125	1359.1	1.9623e-06	5.0366e-06	1432.4	279.03	1.2939e-06	1.6939e-06	352.09	97.17	76.258	21.738	4.1905e-06	30.299	0.00039394	0.00041662	0.00011444	1340	4.4258e-06	4.6183e-06	1411.9	277.45	4.5435e-06	4.5754e-06	348.01	97.372	76.805	21.97	4.5807e-06	30.783	22.757	-16.653	-12.630	-82.271	115.036	12.995	-82.292	-75.305	86.341	98.658	-76.150	-69.118	-68.661	-61.928	55.544	-62.427	-8191	255	
8084.231	1	1	0	0	0.3265	0.10938	0.22506	0.19441	0.079776	0.14717	0.27645	0.048331	0.22305	0.19782	0.22134	0.090288	0.22336	0.097243	0.13749	0.21015	-2.2062	-2.3854	-2.65	-2.7042	-2.4271	-2.8125	-2.8042	-2.7021	-2.7896	-2.4521	-2.7354	-2.6188	-2.5104	-2.7812	-2.5292	-2.7271	234.357	185.918	57.592	217.352	71.911	139.606	181.859	-63.218	102.076	152.523	-55.973	235.597	263.957	213.504	228.799	231.456	0.00027051	0.00046568	0.00010147	1358.8	2.4201e-06	2.9096e-06	1423.9	279.96	3.2995e-06	2.0873e-06	352.52	97.371	77.023	21.919	2.4366e-06	30.545	0.00040506	0.0004234	0.00011467	1337.9	4.5362e-06	4.5769e-06	1407.8	277.88	4.621e-06	4.5579e-06	347.21	97.396	77.062	22.062	4.6332e-06	30.874	24.807	-6.298	0.787	-82.268	33.606	17.280	-82.338	-75.591	-47.873	60.252	-75.127	-69.115	-69.223	-61.939	113.348	-62.315	-8191	255	
8084.327	1	1	0	0	0.067265	0.11509	0.19773	0.32016	0.22524	0.10744	0.22487	0.20893	0.12511	0.067893	0.23902	0.22608	0.12637	0.16308	0.079592	0.10957	-2.4396	-2.3458	-2.6	-2.7167	-2.5854	-2.875	-2.8125	-2.8167	-2.7125	-2.5	-2.7792	-2.7396	-2.6146	-2.9167	-2.4604	-2.6417	31.507	248.871	196.868	251.346	22.419	-18.289	216.629	226.959	7.909	216.544	-61.075	233.347	171.182	152.545	57.145	-30.356	0.00032041	0.00030875	0.00018228	1361.9	3.3381e-06	3.3219e-06	1427	279.52	2.9595e-06	3.5273e-06	353.61	97.153	76.915	21.963	4.1269e-06	30.3	0.00039525	0.00041512	0.00011087	1339.3	4.5237e-06	4.4574e-06	1409.5	277.19	4.6788e-06	4.6492e-06	350.89	97.343	76.975	22.065	4.6871e-06	30.825	19.045	-30.075	-3.830	-82.260	129.374	64.030	-82.350	-75.252	82.312	63.813	-75.472	-69.139	-68.762	-61.793	61.365	-62.280	-8191	255	
8084.424	1	1	0	0	0.23304	0.15166	0.30506	0.1104	0.10652	0.0098991	0.14967	0.13608	0.23527	0.2045	0.096745	0.28753	0.15404	0.22165	0.22714	0.12593	-2.4104	-2.5958	-2.8021	-2.9021	-2.6417	-2.825	-2.7417	-2.8	-2.6875	-2.4375	-2.6479	-2.6208	-2.4938	-2.7958	-2.6813	-2.4896	92.178	239.116	73.847	206.347	48.817	-58.597	73.078	254.114	-63.230	6.745	101.152	235.539	-34.929	-0.511	65.503	46.041	0.00032285	0.00029763	9.9856e-05	1357	2.8107e-06	3.1926e-06	1429	280.01	3.6106e-06	3.6935e-06	358.1	97.288	76.97	21.882	4.4499e-06	30.152	0.00040372	0.00042718	0.0001102	1338.3	4.7654e-06	4.6866e-06	1411.4	277.68	4.4878e-06	4.6893e-06	349.57	97.551	76.93	22.033	4.617e-06	30.787	15.172	59.058	7.019	-82.222	59.468	109.068	-82.325	-75.550	62.117	84.725	-76.698	-68.984	-68.730	-61.960	60.453	-62.416	-8191	255	
8084.542	1	1	0	0	0.23122	0.11549	0.20212	0.40252	0.24754	0.099717	0.1642	0.14983	0.21782	0.2722	0.18866	0.14552	0.31249	0.10987	0.062356	0.089424	-2.3375	-2.4917	-2.5333	-2.9104	-2.4313	-2.8792	-2.8896	-2.5896	-2.6729	-2.5083	-2.7229	-2.8083	-2.575	-2.7792	-2.7104	-2.5458	164.748	46.058	160.044	233.547	197.903	246.439	140.361	-81.773	-79.794	55.379	21.515	16.316	106.067	212.171	-62.830	-47.058	0.00033792	0.00051591	0.00015378	1360.1	2.2093e-06	4.4966e-06	1425.4	279.43	2.2401e-06	4.0022e-06	350.86	97.305	76.8	21.598	2.2231e-06	30.329	0.00039143	0.0004314	0.00011695	1339.1	4.722e-06	4.3815e-06	1410.1	277.73	4.4981e-06	4.525e-06	349.03	97.511	76.998	21.952	4.5436e-06	30.814	18.394	-8.169	-1.516	-82.414	50.414	54.820	-82.429	-75.486	71.133	38.810	-75.895	-69.094	-68.954	-62.053	79.311	-62.715	-8191	255	
8084.639	1	1	0	0	0.16854	0.19849	0.1199	0.24068	0.30759	0.1215	0.18583	0.32397	0.19873	0.27065	0.082133	0.27923	0.22655	0.17873	0.23021	0.11892	-2.4292	-2.5521	-2.5979	-2.9813	-2.4708	-2.6229	-2.8104	-2.3812	-2.8688	-2.7208	-2.6562	-2.9375	-2.6125	-2.7104	-2.4979	-2.5438	249.112	-21.329	9.364	200.763	192.514	119.798	194.649	249.934	14.333	-36.355	110.866	238.788	187.627	156.775	216.902	179.133	0.00029689	0.00014863	9.7613e-05	1358.3	5.4287e-06	3.3747e-06	1426.5	278.54	6.7511e-06	4.6357e-06	355.22	97.28	77.388	21.818	4.6018e-06	30.449	0.0003858	0.00040286	0.00010738	1336	4.6421e-06	4.3098e-06	1408.4	277.02	4.3573e-06	4.5856e-06	350.28	97.248	77.008	22.048	4.5976e-06	30.76	24.443	-8.297	10.867	-82.144	62.342	39.195	-82.403	-75.453	-42.948	47.601	-75.879	-69.228	-69.022	-61.920	79.127	-62.291	-8191	255	
8084.735	1	1	0	0	0.15201	0.12552	0.060672	0.25999	0.082158	0.29304	0.014185	0.088528	0.25011	0.21657	0.19662	0.13325	0.023995	0.046621	0.072732	0.052864	-2.3583	-2.4896	-2.6333	-2.9125	-2.4813	-2.7333	-2.8646	-2.5563	-2.8792	-2.7125	-2.5208	-2.9625	-2.4792	-2.6771	-2.7729	-2.4646	263.042	-49.108	169.581	155.421	142.125	145.296	8.538	201.518	-21.026	218.870	-64.470	237.444	-78.071	126.811	131.904	-88.296	0.00029035	0.00045853	8.3967e-05	1363.5	1.8718e-06	4.7713e-06	1435.1	278.75	5.9089e-06	2.9881e-06	350.97	96.385	77.083	21.658	4.899e-06	30.359	0.00038685	0.00042302	0.00011424	1339.9	4.6963e-06	4.2233e-06	1411.3	277.31	4.3573e-06	4.3997e-06	350.6	96.983	77.056	21.976	4.5954e-06	30.817	27.414	-22.148	-32.600	-82.450	102.281	52.394	-82.207	-75.325	-9.396	85.159	-75.448	-69.028	-68.847	-61.970	31.830	-62.034	-8191	255	
8084.831	1	1	0	0	0.23483	0.11933	0.093092	0.12977	0.10727	0.075067	0.026305	0.20422	0.082595	0.087315	0.029742	0.10299	0.33817	0.072706	0.16635	0.25311	-2.2958	-2.5771	-2.5833	-3	-2.4562	-2.675	-3.0271	-2.7729	-2.8729	-2.7979	-2.6125	-2.85	-2.5958	-2.5708	-2.725	-2.4188	117.081	-87.787	85.916	227.243	131.414	-77.797	198.033	206.566	-13.358	218.332	-90.937	73.209	230.002	37.550	13.397	-3.656	0.00025564	0.00045209	3.2435e-05	1355.8	4.8735e-06	2.3825e-06	1426.8	278	3.727e-06	3.9211e-06	350.49	96.994	76.524	21.75	3.7294e-06	30.144	0.00038751	0.0004189	0.0001113	1337.8	4.5529e-06	4.4005e-06	1407.5	277.13	4.304e-06	4.7294e-06	348.07	97.343	76.797	22.044	4.508e-06	30.793	24.293	-21.238	75.761	-82.409	83.347	69.380	-82.237	-75.580	1.159	35.472	-75.508	-68.862	-69.000	-61.797	41.213	-62.119	-8191	255	
8084.927	1	1	0	0	0.039094	0.20521	0.20058	0.28699	0.19597	0.17734	0.32599	0.029039	0.18038	0.30912	0.41812	0.23826	0.1062	0.098938	0.13827	0.14075	-2.0979	-2.6104	-2.3688	-3.0062	-2.5771	-2.6729	-3.1688	-2.6437	-2.8812	-2.5646	-2.475	-2.825	-2.5792	-2.5438	-2.6479	-2.5833	23.982	-62.134	210.996	202.304	-47.557	250.144	182.057	209.388	43.305	122.802	33.579	257.842	-22.436	215.150	-53.474	-50.155	0.0002926	0.00040759	9.4721e-05	1354	4.4247e-08	3.7442e-06	1428.6	279.08	4.9892e-07	3.6006e-06	353.85	97.447	77.283	21.804	3.298e-06	30.227	0.00037926	0.00040964	0.0001152	1336.5	4.5966e-06	4.473e-06	1409.3	277	4.2806e-06	4.5848e-06	349.99	97.423	77.061	22.011	4.4825e-06	30.758	14.951	-0.425	-35.257	-82.427	-10.250	62.950	-82.260	-75.497	46.300	42.449	-76.253	-69.280	-68.650	-62.015	91.190	-62.206	-8191	255	
8085.023	1	1	0	0	0.16303	0.31592	0.1377	0.34474	0.04263	0.10774	0.39943	0.095325	0.32176	0.16001	0.1399	0.20315	0.22463	0.32373	0.055751	0.048164	-2.2062	-2.7062	-2.4521	-3.0875	-2.5542	-2.4979	-3.0104	-2.4958	-2.6083	-2.5854	-2.5854	-2.8833	-2.6312	-2.6312	-2.8083	-2.5604	172.733	211.725	-92.165	249.117	28.899	256.160	228.861	263.195	-59.643	92.242	223.000	-88.270	224.219	203.673	212.584	223.777	0.0002726	0.00032366	0.0001299	1360.4	1.5193e-06	6.9715e-06	1421.9	279.36	2.6636e-06	3.5173e-06	350.59	97.151	76.449	21.835	4.079e-06	30.024	0.00037833	0.00041952	0.00011478	1337.8	4.7053e-06	4.583e-06	1406	277.38	4.3284e-06	4.6064e-06	349.98	97.296	76.84	22.02	4.2969e-06	30.727	8.169	55.272	-9.501	-82.348	-27.447	68.403	-82.241	-75.518	34.798	77.094	-75.465	-68.928	-68.889	-61.871	78.517	-61.866	-8191	255	
8085.119	1	1	0	0	0.078462	0.12458	0.13739	0.37162	0.17514	0.042654	0.13413	0.19899	0.284	0.11551	0.1281	0.19277	0.16744	0.018521	0.10483	0.16634	-2.1354	-2.85	-2.5	-3.0208	-2.5542	-2.5729	-2.9896	-2.7542	-2.7125	-2.7875	-2.4917	-2.7271	-2.4521	-2.5208	-2.7458	-2.6354	-92.570	41.491	42.042	257.593	256.462	108.826	31.323	194.432	264.126	123.792	129.238	122.282	-34.480	74.302	14.143	148.844	0.00030943	0.00033049	0.00013562	1358.2	2.0688e-06	2.7151e-06	1424.9	277.94	1.226e-06	4.9249e-06	353.37	97.375	76.487	21.665	4.5423e-06	30.191	0.00038502	0.00041233	0.00011021	1336	4.68e-06	4.3341e-06	1408.6	277	4.5432e-06	4.4667e-06	349.28	97.27	76.708	22.014	4.4857e-06	30.796	11.925	-12.015	-1.910	-82.601	64.206	2.612	-82.269	-75.464	-34.910	77.774	-75.835	-69.073	-68.954	-62.169	79.622	-62.048	-8191	255	
8085.216	1	1	0	0	0.090344	0.096428	0.19765	0.17639	0.22286	0.19128	0.43086	0.23272	0.094335	0.06097	0.23772	0.14025	0.086352	0.15995	0.088227	0.22208	-2.1292	-2.6875	-2.7604	-2.7938	-2.6375	-2.5083	-2.8812	-2.6646	-2.6479	-2.8167	-2.525	-2.7958	-2.7583	-2.5771	-2.9458	-2.5708	85.846	260.810	-90.806	221.774	-86.069	264.716	218.564	226.323	55.249	166.634	-32.273	194.273	87.084	-42.331	127.148	-93.635	0.00033847	0.00038742	8.5432e-05	1361.7	2.8981e-06	2.9306e-06	1426.9	279.17	5.7785e-06	3.2198e-06	347.66	96.763	76.715	21.862	2.5795e-06	30.334	0.00039135	0.00041999	0.00011939	1337.6	4.7543e-06	4.4775e-06	1406.5	277.14	4.3897e-06	4.5629e-06	348.08	97.116	76.792	21.998	4.0693e-06	30.76	29.995	-2.842	-0.157	-82.216	145.289	58.570	-82.303	-75.677	10.891	57.120	-76.451	-68.962	-69.075	-61.917	69.594	-62.677	-8191	255	
8085.334	1	1	0	0	0.15204	0.18476	0.045665	0.12113	0.071448	0.13336	0.13674	0.26085	0.19622	0.17759	0.10852	0.3675	0.13601	0.29603	0.16927	0.23922	-1.9833	-2.8979	-2.5563	-2.8583	-2.8458	-2.55	-3.0583	-2.7354	-2.6875	-2.7979	-2.5687	-2.6729	-2.8479	-2.4146	-2.9125	-2.675	146.894	138.064	-20.342	184.833	163.419	236.333	157.925	183.420	5.742	41.890	-75.677	-41.246	-44.291	40.151	202.334	59.325	0.00034113	0.00023015	1.9055e-05	1353.6	1.1843e-06	1.4898e-06	1422.1	279.27	2.862e-06	4.2199e-06	348.75	96.915	76.907	21.68	3.2578e-06	30.27	0.00038135	0.0004094	0.00011632	1335	4.5432e-06	4.6763e-06	1405.4	277.06	4.187e-06	4.4039e-06	346.99	97.174	76.782	21.936	4.2779e-06	30.722	17.569	10.314	-55.755	-82.392	116.513	42.994	-82.289	-75.471	-4.194	57.473	-75.381	-69.326	-68.846	-61.833	71.974	-62.388	-8191	255	
8085.431	1	1	0	0	0.050057	0.18295	0.081404	0.3008	0.22458	0.17557	0.2357	0.15699	0.24446	0.29683	0.16671	0.13528	0.12217	0.13729	0.092994	0.20795	-2.2625	-2.7583	-2.5042	-2.8958	-2.7292	-2.6667	-2.8563	-2.8438	-2.6104	-2.875	-2.3792	-2.7479	-2.7979	-2.5146	-2.875	-2.8271	194.389	-88.798	-47.112	222.711	202.151	-55.288	216.504	138.358	-9.861	-0.906	18.932	264.446	224.456	204.857	159.575	242.893	0.00030619	0.0003988	0.00013034	1360	3.0664e-06	2.7245e-06	1416.6	278.29	4.3244e-06	4.9562e-06	353.35	96.711	76.386	21.686	3.9162e-06	30.269	0.00038253	0.00039462	0.00011563	1335.4	4.6407e-06	4.5212e-06	1401.1	276.36	4.2272e-06	4.2517e-06	347.76	97.09	76.613	21.928	4.1808e-06	30.747	11.474	-2.477	-5.083	-82.101	93.200	67.482	-82.052	-75.224	76.351	55.717	-76.530	-68.988	-68.971	-61.729	20.462	-62.528	-8191	255	
8085.504	1	1	0	0	0.067178	0.071722	0.070178	0.033184	0.066763	0.13822	0.30892	0.33544	0.14872	0.1484	0.16889	0.30632	0.052406	0.22505	0.20698	0.046376	-2.1271	-2.6021	-2.5979	-2.7687	-2.8438	-2.6937	-3.0229	-2.8417	-2.5708	-2.8875	-2.6688	-2.5062	-2.7708	-2.5146	-2.8563	-2.9333	222.225	65.887	220.306	189.416	-27.619	132.338	196.372	260.145	232.176	60.516	71.927	156.583	260.811	-85.414	221.108	-61.187	0.00030548	0.00041638	0.0001447	1348.5	4.1841e-06	4.6393e-06	1420.3	278.38	7.4781e-06	3.2536e-06	342.93	96.957	76.991	21.628	3.1176e-06	30.327	0.00038711	0.00037521	0.00011568	1329.5	4.5862e-06	4.3963e-06	1401.3	276.5	4.5201e-06	4.1154e-06	347.52	97.222	76.715	21.9	4.2358e-06	30.659	30.885	-15.587	-8.691	-82.239	92.446	44.803	-82.137	-75.383	-0.095	41.579	-75.586	-69.001	-68.951	-61.668	84.883	-62.252	-8191	255	
8085.623	1	1	0	0	0.11118	0.2126	0.25755	0.324	0.078759	0.26404	0.18933	0.094784	0.1201	0.22502	0.082077	0.34263	0.141	0.21057	0.28091	0.19827	-2.1479	-2.8354	-2.725	-2.8583	-2.9188	-2.5938	-2.9188	-2.8542	-2.4896	-2.6646	-2.6437	-2.4917	-2.85	-2.5938	-2.5917	-2.9562	234.752	21.132	159.824	227.082	-46.083	219.173	217.024	142.567	257.802	-93.064	-30.113	235.892	259.725	128.847	43.205	189.169	0.00030516	0.00035807	8.9e-05	1352.2	3.1279e-06	3.403e-06	1424.5	277.62	6.0572e-06	3.6222e-06	349.77	97.005	76.673	21.77	4.1034e-06	30.209	0.00037607	0.00038427	0.00011323	1330.1	4.4942e-06	4.4684e-06	1404.4	276.34	4.2582e-06	4.2392e-06	346.91	97.21	76.622	21.932	4.3545e-06	30.684	21.041	21.279	-24.335	-82.259	34.414	59.523	-82.435	-75.232	88.332	50.575	-76.148	-69.413	-68.784	-61.799	69.191	-62.356	-8191	255	
8085.719	1	1	0	0	0.095648	0.11809	0.092969	0.10944	0.074627	0.2092	0.32793	0.028624	0.084327	0.15887	0.25637	0.29929	0.12807	0.11399	0.16459	0.11388	-2.1083	-2.6562	-2.6167	-2.7625	-2.8708	-2.6979	-2.9229	-2.8896	-2.4396	-2.8479	-2.5792	-2.6708	-2.9208	-2.5812	-2.6771	-2.8604	17.730	-2.297	214.960	165.068	-58.683	109.698	242.893	236.219	117.093	244.945	62.658	192.837	264.458	132.473	113.312	176.029	0.00029117	0.00043655	0.00010263	1348.5	4.506e-06	5.4421e-07	1417.9	277.99	2.7086e-06	3.5109e-06	350.73	96.634	76.93	21.757	1.7987e-06	30.388	0.0003946	0.0003732	0.00011822	1331.4	4.4084e-06	4.4343e-06	1401.1	276.25	4.4916e-06	4.1711e-06	348.94	96.972	76.686	21.928	4.5577e-06	30.787	13.661	-23.951	-9.287	-82.154	97.922	110.243	-82.043	-75.472	31.546	20.035	-75.806	-69.042	-68.823	-61.892	80.933	-62.313	-8191	255	
8085.815	1	1	0	0	0.24086	0.1166	0.22455	0.34164	0.13221	0.10017	0.25667	0.14117	0.15607	0.12702	0.04571	0.18111	0.27366	0.053901	0.077787	0.078603	-2.05	-2.5021	-2.6833	-2.7354	-2.8021	-2.6083	-2.8	-3.0187	-2.525	-2.6896	-2.6896	-2.625	-2.7562	-2.5938	-2.5938	-2.7958	138.207	-42.449	213.196	219.888	106.110	-76.501	173.772	142.363	-64.682	-23.130	254.704	-93.557	253.108	-14.232	188.829	-86.506	0.00028643	0.00041264	0.00013463	1353.7	4.865e-06	1.9306e-06	1425.3	277.35	1.1879e-06	5.0553e-06	349.99	96.911	76.337	21.724	3.5453e-06	30.427	0.00038753	0.00038556	0.00011939	1330.2	4.4796e-06	4.5151e-06	1401.6	275.81	4.5618e-06	4.1874e-06	347.41	97.021	76.501	21.963	4.366e-06	30.813	14.008	1.910	3.715	-82.169	76.425	34.324	-82.036	-75.701	2.688	44.908	-75.405	-69.248	-68.870	-61.945	41.499	-62.531	-8191	255	
8085.911	1	1	0	0	0.077263	0.18725	0.036327	0.23602	0.21352	0.057422	0.17775	0.23865	0.20944	0.069854	0.092878	0.11402	0.20108	0.10225	0.20642	0.19776	-2.1333	-2.6312	-2.675	-2.7917	-2.8375	-2.8146	-2.8792	-2.9729	-2.6375	-2.6771	-2.7625	-2.6083	-2.8458	-2.6312	-2.6979	-2.7792	90.650	151.329	7.658	165.963	258.707	-86.206	201.656	219.613	229.666	84.397	-42.374	250.509	41.933	52.404	30.504	219.078	0.00025538	0.00027425	0.00010423	1352.5	5.0992e-06	3.4562e-06	1424.8	276.8	6.1282e-06	3.6581e-06	355.03	96.634	76.565	21.72	1.3023e-06	30.579	0.00039299	0.00040596	0.00011495	1331.7	4.4178e-06	4.731e-06	1404.8	276.01	4.4654e-06	4.4156e-06	350.03	97.021	76.618	21.968	4.4045e-06	30.81	16.577	-34.262	16.555	-82.307	57.487	61.851	-82.237	-75.347	52.819	13.293	-74.961	-68.725	-68.891	-61.742	69.431	-62.185	-8191	255	
8086.032	1	1	0	0	0.23214	0.13061	0.25724	0.37605	0.33727	0.1496	0.19822	0.16861	0.19898	0.14469	0.23437	0.2245	0.28947	0.078587	0.18463	0.11694	-2.1729	-2.5687	-2.8021	-2.6312	-2.7833	-2.8146	-2.6875	-3.0125	-2.5646	-2.8417	-2.8417	-2.6917	-2.7083	-2.7396	-2.6188	-2.7792	-31.105	71.791	-23.392	237.981	62.143	-37.797	200.254	192.680	-17.801	164.510	133.028	189.672	-36.855	234.728	34.956	167.267	0.0003663	0.00029151	0.00014809	1354.1	4.491e-06	2.1867e-06	1424.3	277.22	6.1423e-06	5.3254e-06	347.39	96.871	76.803	21.781	1.9075e-06	30.27	0.0004036	0.0004158	0.00011582	1333.3	4.4359e-06	4.7879e-06	1404.7	276.27	4.6685e-06	4.3766e-06	348.73	97.228	76.87	22.001	4.5602e-06	30.76	13.043	-15.171	-7.596	-82.457	58.364	27.770	-82.317	-75.341	12.759	69.984	-75.430	-69.184	-68.891	-61.372	74.618	-62.400	-8191	255	
8086.128	1	1	0	0	0.064404	0.11983	0.18984	0.40632	0.23219	0.1885	0.22504	0.20251	0.05084	0.099947	0.052408	0.22221	0.26844	0.21421	0.29237	0.15133	-2.0687	-2.5771	-2.7208	-2.6375	-2.9125	-2.7146	-2.6562	-3.05	-2.7292	-2.7313	-2.6979	-2.6667	-2.8	-2.7667	-2.5792	-2.875	-23.302	19.199	172.729	174.536	162.975	36.874	211.671	214.928	46.379	80.154	181.432	66.764	250.569	201.123	172.531	193.338	0.00033992	0.00024815	6.759e-05	1358.7	3.8272e-06	3.512e-06	1418.2	277.92	5.2151e-06	2.4597e-06	341.55	97.071	76.895	21.802	3.4855e-06	30.402	0.00040946	0.0004142	0.00011909	1334.4	4.8157e-06	4.7791e-06	1402.7	276.28	4.7449e-06	4.5523e-06	346.26	97.112	76.843	21.97	4.5789e-06	30.765	20.587	8.508	5.997	-82.315	134.568	29.384	-82.319	-75.386	82.516	111.128	-76.489	-69.051	-69.178	-61.870	57.628	-62.186	-8191	255	
8086.224	1	1	0	0	0.26476	0.15342	0.27805	0.25442	0.20944	0.17501	0.1317	0.12771	0.10555	0.31295	0.12169	0.16226	0.14972	0.077928	0.055979	0.23443	-2.3021	-2.6208	-2.7646	-2.6646	-2.7979	-2.6333	-2.6521	-2.9958	-2.5021	-2.5271	-2.8896	-2.6604	-2.7354	-2.9437	-2.5917	-2.7771	33.482	129.819	93.926	239.064	208.668	-73.632	256.638	197.348	203.903	193.475	-62.693	-34.086	148.374	52.812	197.018	154.136	0.00029067	0.00039287	0.00010067	1355.6	6.4683e-07	2.8271e-06	1425.2	279.12	3.1671e-06	4.6597e-06	355.15	96.855	76.569	21.825	3.3597e-06	30.504	0.00043058	0.00040031	0.00011861	1335.8	4.5327e-06	4.6854e-06	1406.2	277.27	4.8072e-06	4.7196e-06	351.46	97.004	76.744	21.965	4.6396e-06	30.764	26.670	-45.384	-27.435	-82.355	-12.578	62.435	-82.198	-75.347	-33.830	104.865	-76.536	-69.262	-68.877	-62.023	99.127	-62.423	-8191	255	
#DATA ENDS
