BOXY.EXE: ISS Imagent and Oximeter Data Acquisition Program Version 0.80
Ascii Record File

#ACQ INFORMATION
2  Detector Channels 
16  External MUX Channels 
1  Auxiliary Channels 
5000  Waveform (CCF) Frequency (Hz)
1  Waveforms Skipped 
30  Waveforms Averaged 
1  Cycles Averaged 
16  Acquisitions per Waveform 
10.0806  Updata Rate (Hz) 

#FILE INFORMATION
TRUE -- External MUX Channel results are PARSED.
FALSE -- AC DC and Phase are NOT grouped.
TRUE -- Companion Program Settings File CREATED.
FALSE -- AC data not excluded
FALSE -- DC data not excluded
FALSE -- Phase data not excluded
FALSE -- Auxillary Chn. data not excluded
Tab delimiters

#CALIBRATION STATE
TRUE -- Waveform Calibration Values APPLIED.


#AUX CALIBRATION VALUES
Val Type	aux-1	

Term	1.0000e+00	
Factor	0.0000e+00	


#WF CALIBRATION VALUES
A = Detector Channel
Val Type	A-AC1	A-AC2	A-AC3	A-AC4	A-AC5	A-AC6	A-AC7	A-AC8	A-AC9	A-AC10	A-AC11	A-AC12	A-AC13	A-AC14	A-AC15	A-AC16	A-DC1	A-DC2	A-DC3	A-DC4	A-DC5	A-DC6	A-DC7	A-DC8	A-DC9	A-DC10	A-DC11	A-DC12	A-DC13	A-DC14	A-DC15	A-DC16	A-Ph1	A-Ph2	A-Ph3	A-Ph4	A-Ph5	A-Ph6	A-Ph7	A-Ph8	A-Ph9	A-Ph10	A-Ph11	A-Ph12	A-Ph13	A-Ph14	A-Ph15	A-Ph16	

Term	0.00000e+00	0.00000e+00	0.00000e+00	0.00000e+00	0.00000e+00	0.00000e+00	0.00000e+00	0.00000e+00	0.00000e+00	0.00000e+00	0.00000e+00	0.00000e+00	0.00000e+00	0.00000e+00	0.00000e+00	0.00000e+00	0.00000e+00	0.00000e+00	0.00000e+00	0.00000e+00	0.00000e+00	0.00000e+00	0.00000e+00	0.00000e+00	0.00000e+00	0.00000e+00	0.00000e+00	0.00000e+00	0.00000e+00	0.00000e+00	0.00000e+00	0.00000e+00	0.00000e+00	0.00000e+00	0.00000e+00	0.00000e+00	0.00000e+00	0.00000e+00	0.00000e+00	0.00000e+00	0.00000e+00	0.00000e+00	0.00000e+00	0.00000e+00	0.00000e+00	0.00000e+00	0.00000e+00	0.00000e+00	
Factor	1.00000e+00	1.00000e+00	1.00000e+00	1.00000e+00	1.00000e+00	1.00000e+00	1.00000e+00	1.00000e+00	1.00000e+00	1.00000e+00	1.00000e+00	1.00000e+00	1.00000e+00	1.00000e+00	1.00000e+00	1.00000e+00	1.00000e+00	1.00000e+00	1.00000e+00	1.00000e+00	1.00000e+00	1.00000e+00	1.00000e+00	1.00000e+00	1.00000e+00	1.00000e+00	1.00000e+00	1.00000e+00	1.00000e+00	1.00000e+00	1.00000e+00	1.00000e+00	X	X	X	X	X	X	X	X	X	X	X	X	X	X	X	X	

B = Detector Channel
Val Type	B-AC1	B-AC2	B-AC3	B-AC4	B-AC5	B-AC6	B-AC7	B-AC8	B-AC9	B-AC10	B-AC11	B-AC12	B-AC13	B-AC14	B-AC15	B-AC16	B-DC1	B-DC2	B-DC3	B-DC4	B-DC5	B-DC6	B-DC7	B-DC8	B-DC9	B-DC10	B-DC11	B-DC12	B-DC13	B-DC14	B-DC15	B-DC16	B-Ph1	B-Ph2	B-Ph3	B-Ph4	B-Ph5	B-Ph6	B-Ph7	B-Ph8	B-Ph9	B-Ph10	B-Ph11	B-Ph12	B-Ph13	B-Ph14	B-Ph15	B-Ph16	

Term	0.00000e+00	0.00000e+00	0.00000e+00	0.00000e+00	0.00000e+00	0.00000e+00	0.00000e+00	0.00000e+00	0.00000e+00	0.00000e+00	0.00000e+00	0.00000e+00	0.00000e+00	0.00000e+00	0.00000e+00	0.00000e+00	0.00000e+00	0.00000e+00	0.00000e+00	0.00000e+00	0.00000e+00	0.00000e+00	0.00000e+00	0.00000e+00	0.00000e+00	0.00000e+00	0.00000e+00	0.00000e+00	0.00000e+00	0.00000e+00	0.00000e+00	0.00000e+00	6.09306e+01	-1.28867e+02	-1.24252e+02	-1.83791e+02	-7.10263e+01	-6.44181e+01	-1.55111e+02	-1.62015e+02	-5.97362e+01	-7.09102e+01	-1.70545e+02	-1.70268e+02	-1.83573e+02	-1.76953e+02	-6.30865e+01	-1.49760e+02	
Factor	6.88653e-05	1.99114e-04	5.52351e-05	1.82487e-01	2.78844e-06	2.19230e-06	1.74721e-01	5.94271e-02	3.46584e-06	1.87842e-06	9.44179e-02	3.29784e-02	3.44525e-02	1.09698e-02	2.67653e-06	1.53179e-02	1.06372e-05	1.32956e-05	3.69939e-06	9.20757e-02	1.38416e-07	1.48277e-07	8.30070e-02	2.99589e-02	1.38529e-07	1.47423e-07	4.64028e-02	1.61447e-02	1.73924e-02	5.58577e-03	1.42191e-07	7.57640e-03	X	X	X	X	X	X	X	X	X	X	X	X	X	X	X	X	



#DISTANCE SETTINGS
A = Detector Channel
A-1	A-2	A-3	A-4	A-5	A-6	A-7	A-8	A-9	A-10	A-11	A-12	A-13	A-14	A-15	A-16	

2.5000e+00	3.0000e+00	2.5000e+00	3.0000e+00	2.0000e+00	3.0000e+00	1.5000e+00	3.0000e+00	3.0000e+00	3.0000e+00	3.0000e+00	3.0000e+00	3.0000e+00	3.0000e+00	1.5000e+00	3.0000e+00	

B = Detector Channel
B-1	B-2	B-3	B-4	B-5	B-6	B-7	B-8	B-9	B-10	B-11	B-12	B-13	B-14	B-15	B-16	

1.0000e+01	1.0000e+01	1.0000e+01	1.4400e+00	1.0000e+01	1.0000e+01	1.5100e+00	1.9400e+00	1.0000e+01	1.0000e+01	1.9900e+00	2.4900e+00	2.4100e+00	2.9000e+00	1.0000e+01	2.9800e+00	




#DATA BEGINS
time	group	step	mark	flag	A-AC1	A-AC2	A-AC3	A-AC4	A-AC5	A-AC6	A-AC7	A-AC8	A-AC9	A-AC10	A-AC11	A-AC12	A-AC13	A-AC14	A-AC15	A-AC16	A-DC1	A-DC2	A-DC3	A-DC4	A-DC5	A-DC6	A-DC7	A-DC8	A-DC9	A-DC10	A-DC11	A-DC12	A-DC13	A-DC14	A-DC15	A-DC16	A-Ph1	A-Ph2	A-Ph3	A-Ph4	A-Ph5	A-Ph6	A-Ph7	A-Ph8	A-Ph9	A-Ph10	A-Ph11	A-Ph12	A-Ph13	A-Ph14	A-Ph15	A-Ph16	B-AC1	B-AC2	B-AC3	B-AC4	B-AC5	B-AC6	B-AC7	B-AC8	B-AC9	B-AC10	B-AC11	B-AC12	B-AC13	B-AC14	B-AC15	B-AC16	B-DC1	B-DC2	B-DC3	B-DC4	B-DC5	B-DC6	B-DC7	B-DC8	B-DC9	B-DC10	B-DC11	B-DC12	B-DC13	B-DC14	B-DC15	B-DC16	B-Ph1	B-Ph2	B-Ph3	B-Ph4	B-Ph5	B-Ph6	B-Ph7	B-Ph8	B-Ph9	B-Ph10	B-Ph11	B-Ph12	B-Ph13	B-Ph14	B-Ph15	B-Ph16	aux-1	digaux	

732.210	1	1	0	256	0.17127	0.25174	0.26191	0.30313	0.20502	0.30171	0.23504	0.22345	0.10828	0.3309	0.1044	0.12023	0.18787	0.16408	0.10168	0.13347	-2.9229	-2.8521	-3.1	-2.8875	-2.8646	-3.2667	-3.0375	-2.9125	-3.1271	-2.9042	-3.3083	-3.3083	-2.9604	-3.0417	-3.0021	-3.1021	70.401	256.204	157.836	199.358	212.143	57.507	262.316	283.735	141.296	7.734	122.212	276.562	45.390	301.045	78.464	289.369	0.00089478	0.00069121	0.00016082	510.44	7.7827e-06	4.8144e-06	611.22	195.15	7.5071e-06	5.5621e-06	290.81	121.54	71.52	31.739	5.9891e-06	65.89	0.0010993	0.0011954	0.00033249	508.14	1.2549e-05	1.3034e-05	606.53	194.43	1.2424e-05	1.3189e-05	291.63	122.17	72.032	32.037	1.2797e-05	66.348	-25.039	85.270	97.880	-13.323	126.208	137.246	-13.608	-7.813	167.342	110.593	-9.161	-3.982	-3.406	1.689	123.999	-0.430	-8191	255	
732.306	1	1	0	0	0.19858	0.14199	0.11712	0.32362	0.06379	0.074238	0.23064	0.24629	0.34832	0.15397	0.028108	0.08168	0.33849	0.22057	0.13804	0.050798	-2.7146	-2.9	-3.0583	-3.1104	-2.7687	-3.2146	-2.9375	-3.2188	-3.1479	-2.8792	-2.9875	-3.15	-2.9437	-3.2812	-2.9833	-3.0208	-19.469	80.661	203.173	-23.686	83.512	321.897	244.233	278.998	84.067	256.496	207.650	24.940	-17.006	300.424	112.556	310.963	0.00088852	0.00047266	0.00010939	510.24	7.5392e-06	4.1903e-06	612.57	194.65	5.8552e-06	7.5711e-06	292.54	122.36	71.819	31.896	1.1669e-05	66.225	0.0010784	0.0011954	0.00033908	506.63	1.2529e-05	1.282e-05	607.58	194.31	1.2489e-05	1.3129e-05	291.8	122.27	72.016	32.096	1.2844e-05	66.641	-17.583	84.220	80.124	-13.547	142.640	106.121	-14.237	-7.715	116.694	110.484	-8.916	-4.041	-3.453	1.537	134.278	-0.133	-8191	255	
732.403	1	1	0	0	0.19758	0.20311	0.2088	0.17853	0.2351	0.14017	0.11489	0.10871	0.19107	0.1804	0.10968	0.1986	0.15431	0.21939	0.072431	0.249	-2.7042	-2.8917	-2.9562	-3.1979	-2.825	-3.125	-2.9	-3.0229	-3.0563	-3.1229	-3.0062	-3.1063	-2.8104	-3.0625	-2.8917	-3.1229	232.605	334.290	177.403	319.754	308.418	-24.000	55.128	99.818	314.382	148.170	325.982	16.089	329.882	62.448	322.993	261.218	0.0007692	0.00039138	0.00012372	508.2	5.301e-06	7.3544e-06	612.96	195.81	8.2736e-06	7.4782e-06	292.91	122.3	71.557	31.874	8.6225e-06	66.501	0.0010967	0.0012116	0.00033937	507.25	1.2748e-05	1.328e-05	608.71	194.52	1.2628e-05	1.3117e-05	292.37	122.44	72.217	32.105	1.2729e-05	66.966	-22.821	37.840	122.695	-13.585	63.481	103.438	-13.824	-7.618	179.163	113.495	-8.945	-4.213	-3.046	1.501	126.177	-0.231	-8191	255	
732.497	1	1	0	0	0.34012	0.15693	0.1194	0.31967	0.11271	0.074814	0.089926	0.088952	0.23083	0.1745	0.19662	0.15751	0.18818	0.21346	0.22535	0.11478	-2.8146	-2.7333	-3.0354	-3.2479	-2.9146	-3.0042	-3.025	-2.7854	-2.9938	-2.9813	-2.8271	-3.2208	-2.7646	-3.1458	-2.9354	-2.9688	129.273	110.641	0.109	37.280	196.207	57.311	142.050	286.697	135.135	83.966	280.292	-6.460	21.982	27.512	23.634	208.746	0.00096785	0.00037817	0.0001808	508.58	9.7623e-06	6.4137e-06	612.55	194.85	7.5535e-06	6.5937e-06	290.18	121.23	71.1	31.705	3.5511e-06	65.916	0.0010892	0.0011788	0.00033692	507.06	1.2231e-05	1.2856e-05	605.9	193.98	1.209e-05	1.2793e-05	290.79	121.5	71.474	31.925	1.2732e-05	66.092	328.787	43.421	22.691	-13.276	139.197	119.700	-14.049	-7.684	146.615	105.651	-8.847	-3.893	-3.139	1.579	32.422	-0.288	-8191	255	
732.593	1	1	0	0	0.163	0.054242	0.16677	0.10481	0.11245	0.13466	0.15243	0.21542	0.1558	0.09263	0.07755	0.14973	0.28183	0.078095	0.11144	0.067446	-2.7271	-2.9292	-2.8	-2.9792	-2.9625	-3.2521	-3.0312	-2.8521	-3.2521	-3.0875	-2.7833	-3.1188	-2.8667	-3.0167	-3.125	-3.0646	218.189	319.164	161.996	11.554	218.480	209.568	186.106	317.124	181.388	181.546	189.455	304.986	250.288	42.625	7.095	204.839	0.00086512	0.0004218	0.00013475	505.36	3.1973e-06	2.455e-06	606.8	192.68	3.6758e-06	3.0974e-06	287.83	119.65	70.774	31.426	4.0012e-06	65.048	0.001089	0.0011741	0.00033285	501.51	1.2227e-05	1.3187e-05	600.25	192.07	1.2297e-05	1.2967e-05	286.92	120.1	70.909	31.687	1.2526e-05	65.626	326.611	118.439	110.072	-13.740	135.136	150.106	-14.268	-7.380	94.727	97.015	-8.867	-4.013	-3.171	1.397	101.105	-0.203	-8191	255	
732.689	1	1	0	0	0.06625	0.13594	0.1627	0.133	0.077576	0.11901	0.19738	0.11223	0.1959	0.090518	0.26867	0.22394	0.27224	0.37628	0.24911	0.34132	-2.7208	-3.1896	-2.7708	-3.0812	-2.9375	-2.9	-3.1875	-2.95	-2.9708	-3.0021	-3.0062	-3.1729	-2.9083	-2.9604	-3.2062	-2.9938	5.012	22.396	50.219	-11.771	76.332	-18.332	253.091	10.700	20.281	120.940	51.441	270.960	299.070	313.127	288.073	250.206	0.00090009	0.00036012	0.00012251	506.8	3.9992e-06	4.3164e-06	606.28	192.62	5.2472e-06	1.6078e-06	286.06	120.41	70.384	31.608	1.3752e-06	65.639	0.0010899	0.0011648	0.00033173	502.73	1.223e-05	1.3357e-05	601.39	192.56	1.2183e-05	1.2853e-05	287.19	120.34	71.099	31.786	1.2546e-05	65.987	327.884	62.445	74.857	-13.526	129.907	120.423	-14.020	-7.547	203.407	166.821	-9.229	-3.892	-3.302	1.540	1.820	-0.015	-8191	255	
732.810	1	1	0	0	0.10864	0.0080615	0.18814	0.077867	0.27641	0.085191	0.098203	0.11451	0.068419	0.11587	0.21417	0.25706	0.27433	0.1883	0.076459	0.031904	-2.6312	-3.0479	-2.7875	-3.1979	-3.1083	-3.0271	-3.2646	-3.0333	-3.0979	-2.8396	-2.6979	-3.1646	-2.8896	-2.9792	-3.1896	-2.9417	280.974	88.143	227.589	43.523	259.667	174.959	226.718	75.152	114.114	258.556	259.961	321.229	105.946	323.647	145.260	194.009	0.00093137	0.00027761	4.471e-05	507.82	6.6191e-06	6.8621e-07	611.72	193.73	9.3908e-06	3.6111e-06	290.57	122.6	71.307	31.633	6.6679e-06	66.438	0.0010946	0.0011684	0.00033195	504.25	1.2076e-05	1.3341e-05	606.19	193.25	1.26e-05	1.2939e-05	290.01	122.4	71.817	32.088	1.2617e-05	66.816	-22.513	106.504	53.925	-13.301	128.869	250.590	-14.108	-8.023	135.220	133.779	-8.737	-3.923	-2.969	1.398	132.120	-0.166	-8191	255	
732.906	1	1	0	0	0.094082	0.14171	0.31262	0.059104	0.18732	0.17892	0.20816	0.27754	0.040786	0.25549	0.086242	0.14811	0.14473	0.25896	0.35555	0.2064	-2.7438	-2.9146	-2.8208	-3.1333	-2.9021	-2.8688	-3.1125	-2.9354	-3	-3.1125	-2.95	-3.0958	-3.1521	-2.8458	-3.0458	-2.9062	229.794	29.837	98.370	25.664	84.804	78.501	54.790	304.214	311.944	171.844	223.052	-10.716	247.772	37.027	200.495	13.071	0.00082907	0.00068387	7.9334e-05	512.77	4.4663e-06	7.1822e-06	617.06	195.97	7.2308e-06	6.1894e-06	294.11	123.78	72.266	32.15	5.9917e-06	67.284	0.0011014	0.0011836	0.00033279	508.72	1.2482e-05	1.3564e-05	613.34	195.04	1.2509e-05	1.311e-05	294.88	124.13	72.56	32.491	1.263e-05	67.562	-24.771	97.079	78.453	-13.889	109.046	71.595	-13.878	-7.702	154.134	161.640	-9.112	-3.879	-3.271	1.678	122.135	-0.462	-8191	255	
732.978	1	1	0	0	0.35836	0.18488	0.20226	0.099626	0.16924	0.21483	0.2292	0.15413	0.19201	0.26654	0.2397	0.21897	0.052997	0.14828	0.2258	0.301	-2.6271	-3.1375	-2.7521	-2.9917	-3.2604	-3.0167	-3.2438	-2.9875	-2.8625	-3.0958	-2.8688	-3.2042	-3.1688	-2.8979	-2.9854	-2.8812	-0.598	332.885	220.359	289.393	214.433	104.088	66.871	-8.994	188.150	49.322	316.300	51.724	311.512	320.610	148.763	-15.651	0.00092778	0.00066761	0.0001147	512.21	4.0307e-06	8.0734e-06	621.97	196.28	8.8013e-06	4.5884e-06	295.76	124.67	72.111	32.337	5.1019e-06	67.929	0.0011099	0.0011712	0.00033335	511.75	1.269e-05	1.3338e-05	616.21	195.38	1.2861e-05	1.3455e-05	295.14	124.67	72.81	32.61	1.2856e-05	68.222	327.118	56.961	50.200	-13.567	110.760	150.087	-13.991	-7.595	166.112	71.173	-8.783	-3.867	-2.817	1.403	117.051	-0.283	-8191	255	
733.098	1	1	0	0	0.04576	0.16313	0.17766	0.20134	0.31298	0.11139	0.1299	0.23757	0.29989	0.31597	0.27468	0.19323	0.4098	0.15003	0.067769	0.095741	-2.5042	-3.1813	-2.75	-2.9854	-3.1542	-2.8771	-3.2104	-3.0917	-3.0604	-3.2354	-3.1292	-3.0792	-3.1063	-2.8646	-3.1729	-2.9917	327.743	218.137	324.460	143.117	-0.695	240.124	174.282	246.223	155.655	15.317	300.792	300.214	128.779	143.365	110.852	121.162	0.0007676	0.00055853	0.00017544	512.66	6.5164e-06	4.9885e-06	616.43	194.74	1.6513e-05	4.3891e-06	289.14	121.34	70.76	31.511	4.1566e-06	65.699	0.0011203	0.0012033	0.00033297	512.16	1.2455e-05	1.368e-05	611.19	193.78	1.3126e-05	1.3424e-05	289.14	121.58	71.256	31.931	1.2913e-05	66.357	-24.729	80.965	65.470	-13.392	136.765	102.300	-13.881	-7.622	124.670	87.482	-9.018	-3.769	-3.096	1.802	106.599	-0.202	-8191	255	
733.194	1	1	0	0	0.25188	0.11381	0.16806	0.13621	0.10962	0.23982	0.11652	0.070164	0.16294	0.08671	0.13158	0.15862	0.1109	0.080353	0.16991	0.14241	-2.5062	-3.1021	-2.8854	-3.0208	-2.8917	-2.7604	-3.0646	-3.1375	-3.075	-3.1396	-2.8729	-2.9833	-3.1542	-2.8292	-3.0708	-3.075	39.048	-4.518	330.825	-14.256	254.798	84.522	8.452	156.324	129.241	155.242	-16.382	289.554	93.040	109.607	-25.085	274.963	0.00097328	0.00061103	0.00013024	505.37	7.4064e-06	4.5574e-06	607.07	191.32	9.2054e-06	1.8675e-06	287.43	120.28	70.543	31.645	4.6646e-06	65.797	0.001133	0.0011929	0.00033644	502.73	1.2401e-05	1.3398e-05	599.71	191.41	1.2758e-05	1.3021e-05	286.91	120.38	71.058	31.766	1.2953e-05	66.113	-19.285	45.157	-6.620	-13.601	149.755	136.959	-13.934	-7.848	84.059	180.894	-9.402	-4.053	-2.777	1.713	170.336	-0.396	-8191	255	
733.291	1	1	0	0	0.055302	0.25039	0.16216	0.091073	0.26717	0.078966	0.18028	0.12674	0.29851	0.28559	0.37825	0.4829	0.23354	0.5042	0.11601	0.0548	-2.5687	-3.1167	-2.8625	-2.8333	-3.1917	-2.9979	-3.075	-3.1979	-2.8958	-3.1521	-3.0812	-2.9646	-3.3	-3.0062	-3.1542	-3.1312	284.432	27.398	-24.835	8.889	14.859	217.394	266.028	253.202	88.198	298.157	215.670	254.837	263.560	-10.972	296.760	127.525	0.00086134	0.00011183	0.00019305	508.16	4.7212e-06	6.6533e-06	608.25	193.39	1.0168e-05	1.6065e-06	289.11	121.4	70.889	31.443	4.1864e-06	65.937	0.0010929	0.0011647	0.00033309	503.51	1.2515e-05	1.341e-05	604.16	192.52	1.2885e-05	1.3184e-05	287.97	121.41	71.252	31.778	1.3132e-05	66.22	-22.456	70.654	47.829	-13.439	12.956	131.814	-13.897	-7.523	144.964	77.143	-8.985	-4.029	-2.954	1.174	210.063	-0.309	-8191	255	
733.387	1	1	0	0	0.15906	0.12093	0.16803	0.019644	0.18658	0.064263	0.20407	0.17676	0.2357	0.38128	0.40705	0.36006	0.087548	0.14441	0.13236	0.16102	-2.2583	-3.1708	-2.9688	-3.0125	-2.9771	-2.8229	-3.0646	-3.1188	-2.7792	-3.2083	-3.1562	-2.7917	-3.1292	-2.8417	-2.8792	-3.2438	117.753	329.900	138.299	-6.565	96.303	98.108	285.306	109.099	76.971	65.329	270.729	307.941	49.308	-13.922	316.101	123.906	0.00086829	0.00032464	3.4147e-05	504.14	7.3755e-06	5.8539e-06	608.28	192.57	1.5361e-05	3.445e-06	287.8	120.47	70.112	31.305	9.4806e-07	65.59	0.0011201	0.001217	0.00033931	503.02	1.267e-05	1.3526e-05	603.18	191.8	1.3047e-05	1.3502e-05	287.87	120.62	70.891	31.645	1.3387e-05	65.938	331.725	47.918	169.540	-13.584	88.911	103.210	-14.037	-7.650	117.526	144.585	-9.198	-4.228	-2.941	1.598	223.330	-0.231	-8191	255	
733.507	1	1	0	0	0.075687	0.099912	0.1073	0.25921	0.091882	0.10657	0.14808	0.069713	0.14238	0.16498	0.1569	0.13539	0.035419	0.23282	0.22404	0.1329	-2.4667	-3.0854	-3.0208	-2.9146	-3.1271	-2.9604	-3.0333	-3.1896	-2.9396	-3.1813	-3.2104	-3.1167	-3.0896	-2.9354	-2.9625	-3.3354	72.661	141.772	298.624	300.892	167.146	231.162	228.770	95.783	55.407	282.888	299.539	327.803	214.258	16.592	183.963	284.715	0.00083	0.0001361	0.00014279	504.28	5.2218e-06	3.1289e-06	606.24	192.01	3.687e-06	5.9798e-06	288.24	121.32	70.069	31.23	1.6837e-06	65.285	0.0011429	0.001223	0.00034178	502.58	1.3016e-05	1.3726e-05	602.63	191.43	1.3147e-05	1.384e-05	288.52	121.43	70.858	31.545	1.3589e-05	66.007	333.610	93.039	68.868	-13.334	143.164	116.742	-13.866	-7.665	113.223	120.211	-9.035	-3.716	-3.130	1.744	185.723	-0.146	-8191	255	
733.602	1	1	0	0	0.050315	0.067793	0.18716	0.084761	0.11216	0.16834	0.19217	0.22381	0.077731	0.14607	0.26188	0.18571	0.2084	0.13801	0.14351	0.092377	-2.4417	-2.95	-2.9729	-2.8042	-3.1354	-2.9333	-2.8396	-3.15	-2.8604	-3.2812	-3.0292	-2.9062	-3.0604	-3.1271	-3.0271	-3.1417	169.515	306.408	-16.343	45.758	93.996	187.060	125.145	281.704	238.536	173.952	261.449	321.547	272.665	295.911	89.134	153.357	0.00081835	0.00065186	0.00019188	501.23	5.1962e-06	6.0483e-06	606.14	191.27	7.2858e-06	8.8839e-06	287.65	120.56	70.139	31.02	5.3238e-06	65.251	0.0011546	0.0012686	0.00034926	500.72	1.3189e-05	1.4132e-05	599.86	190.97	1.3397e-05	1.4362e-05	287.9	120.59	70.677	31.352	1.4027e-05	65.814	-17.836	78.322	85.994	-13.533	156.776	106.127	-13.872	-7.337	167.916	113.616	-9.050	-3.854	-2.890	1.690	105.091	0.190	-8191	255	
733.700	1	1	0	0	0.068454	0.3123	0.22047	0.15054	0.21465	0.06878	0.1582	0.10771	0.12841	0.072049	0.14313	0.2321	0.1494	0.13809	0.12314	0.31083	-2.6396	-2.9833	-3.1396	-2.9917	-2.9917	-2.9958	-2.8542	-3.1771	-3.0625	-3.1271	-3.2083	-2.9458	-3.1312	-3.0729	-2.9	-3.1771	227.528	-21.696	73.505	120.994	43.706	19.965	189.248	271.975	254.825	34.206	-11.102	222.305	316.533	209.852	25.011	230.320	0.00091887	0.00043612	6.4811e-05	503.75	6.7958e-06	2.0086e-06	604.51	191.49	8.2422e-06	3.7213e-06	286.78	119.61	69.112	30.778	8.1995e-06	64.456	0.0011784	0.0012927	0.00035607	502.59	1.3494e-05	1.4227e-05	600.67	190.54	1.3602e-05	1.4486e-05	286.31	119.71	69.832	31.005	1.3937e-05	64.803	329.122	52.465	27.328	-13.719	272.901	119.007	-13.827	-7.743	188.425	138.743	-8.943	-3.932	-2.815	1.649	155.658	-0.296	-8191	255	
733.794	1	1	0	0	0.31563	0.14849	0.20322	0.31716	0.048225	0.049047	0.029036	0.05352	0.12635	0.41376	0.18611	0.18289	0.072468	0.091153	0.1108	0.056678	-2.4813	-2.8	-3.2354	-2.8875	-2.85	-3.1688	-2.925	-3.1813	-2.8792	-2.9604	-3.2375	-2.9562	-3.1229	-3.0938	-2.925	-3.3563	262.473	276.280	279.236	28.924	137.677	80.008	302.404	79.681	306.654	59.179	313.288	194.059	323.680	220.574	242.821	163.100	0.00093982	0.00069478	0.00018263	494.86	3.619e-06	4.4312e-06	596.4	188.49	8.8173e-06	5.8004e-06	282.78	117.63	68.407	30.676	2.6803e-06	63.99	0.0011599	0.0012658	0.00034496	493.5	1.3034e-05	1.3693e-05	591.37	188.26	1.2992e-05	1.4201e-05	282.21	118.02	69.181	30.93	1.3858e-05	64.301	331.466	85.688	84.435	-13.210	57.785	133.887	-13.952	-7.729	102.702	113.922	-9.084	-3.765	-3.153	1.628	79.867	-0.488	-8191	255	
733.890	1	1	0	0	0.18791	0.2963	0.026309	0.25292	0.1511	0.21107	0.27559	0.047616	0.35468	0.28627	0.13012	0.012585	0.15855	0.34749	0.23673	0.11882	-2.5729	-2.5042	-3.0042	-3.0458	-2.8875	-3.0771	-2.9979	-3.2438	-3.0958	-2.8958	-3.1208	-3.0687	-3.1437	-3.2646	-2.8729	-3.2229	137.407	253.669	-24.428	55.443	32.537	18.605	149.832	188.549	238.207	307.223	149.508	12.560	-2.764	76.705	177.055	243.274	0.00082555	0.00040698	0.00015784	497.08	9.1786e-06	4.7871e-06	596.27	188.78	1.0623e-05	1.2133e-06	284.46	119.06	69.257	30.742	5.1138e-06	64.805	0.0011513	0.0012538	0.00034548	494.61	1.323e-05	1.3465e-05	590.87	188.57	1.2801e-05	1.3697e-05	283.43	118.75	69.875	31.1	1.3421e-05	64.949	-18.738	28.947	64.475	-13.809	106.929	103.344	-13.927	-7.513	135.343	107.999	-9.149	-3.878	-2.899	1.216	151.589	0.082	-8191	255	
733.986	1	1	0	0	0.14791	0.093126	0.09858	0.11255	0.21535	0.075858	0.028199	0.097818	0.25466	0.15895	0.08846	0.073941	0.22624	0.11354	0.13672	0.37247	-2.6833	-2.9042	-3.0542	-3.0312	-2.9646	-3.2167	-3.0458	-2.9167	-3.2271	-2.7229	-3.075	-3.2062	-2.9708	-3.2229	-2.9229	-3.1417	187.532	316.023	-13.933	190.054	15.773	292.056	254.855	123.596	250.849	278.901	327.347	263.792	46.292	284.308	57.708	0.320	0.00079449	0.00056448	9.5115e-05	498.43	7.6667e-06	8.2266e-06	598.89	188.48	1.0741e-05	1.7829e-06	284.44	118.79	68.968	30.946	1.1537e-05	65.016	0.0011301	0.0012365	0.00034785	496.31	1.3149e-05	1.3759e-05	594.14	188.84	1.3076e-05	1.3993e-05	284.39	119.17	69.862	31.208	1.3244e-05	65.189	334.185	75.623	22.973	-13.389	127.295	118.745	-13.905	-7.588	137.852	71.016	-9.258	-3.414	-2.762	1.704	148.279	-0.193	-8191	255	
734.105	1	1	0	0	0.12926	0.20592	0.23411	0.28957	0.20725	0.17637	0.22096	0.082351	0.20564	0.074974	0.21584	0.24988	0.1277	0.094698	0.099951	0.078802	-2.6437	-2.8729	-3.0792	-3.0042	-3.0104	-3.0938	-2.9646	-3.1667	-3.0229	-2.9104	-3.1208	-3.1813	-2.9917	-3.3146	-2.9125	-3.2125	170.296	266.907	2.642	52.678	237.869	2.270	303.805	281.864	310.669	136.704	12.965	15.024	244.965	323.607	108.506	291.301	0.00076525	0.00014327	5.9442e-05	498.67	3.4374e-06	3.0995e-06	603.08	190.14	5.3238e-06	2.4685e-06	286.61	120.15	69.522	30.959	4.4291e-06	65.145	0.0011255	0.0012608	0.00034247	498.17	1.3363e-05	1.3631e-05	599.33	189.85	1.3288e-05	1.4039e-05	286.76	120.09	70.386	31.332	1.353e-05	65.622	324.330	109.332	49.550	-13.620	168.649	128.482	-13.747	-7.778	201.573	126.844	-9.029	-4.002	-3.017	1.554	96.137	-0.096	-8191	255	
734.201	1	1	0	0	0.087956	0.050613	0.19469	0.22309	0.22203	0.088607	0.094182	0.36459	0.18379	0.48634	0.18072	0.13387	0.093983	0.1947	0.14923	0.064657	-2.7021	-2.7812	-3.0604	-3.0625	-2.9208	-3.1813	-2.9	-3.0583	-3.1354	-2.7208	-3.1417	-3.0354	-2.9979	-3.2708	-2.9854	-3.1354	66.264	-5.922	202.131	10.915	278.619	200.457	229.493	264.193	50.439	181.081	331.959	-15.789	-16.318	170.521	101.173	40.631	0.00083101	0.00018525	0.00011937	504.61	1.0914e-05	2.3679e-06	604.17	191.38	8.3501e-06	4.3222e-06	288.35	121.01	69.861	31.035	5.1857e-06	65.958	0.0011367	0.001275	0.00034678	502.28	1.3215e-05	1.3974e-05	602.38	191.27	1.33e-05	1.4572e-05	289.11	121.29	70.728	31.437	1.375e-05	66.216	328.349	19.956	60.988	-13.492	118.575	179.761	-13.781	-7.524	127.428	132.413	-9.201	-3.654	-2.877	1.667	132.672	-0.086	-8191	255	
734.273	1	1	0	0	0.031817	0.24227	0.20878	0.02891	0.19019	0.1246	0.051349	0.19263	0.044002	0.16678	0.085129	0.11299	0.30914	0.048189	0.18001	0.24937	-2.8	-2.8271	-2.9875	-3.1437	-3.0104	-3.2104	-2.9562	-2.8875	-3.2229	-2.8146	-3.1292	-3.1188	-2.9062	-3.1583	-3.1021	-3.0083	272.469	248.956	151.100	20.204	221.040	84.556	313.974	217.221	180.133	251.384	-22.211	255.527	14.136	180.279	284.156	274.516	0.00098503	0.00019864	0.00019591	504.35	3.3557e-06	4.4323e-06	615.24	192.29	4.7825e-06	2.9422e-06	292.08	122.35	70.63	31.38	5.4271e-06	66.185	0.0011693	0.0012857	0.00036208	504.03	1.3591e-05	1.4111e-05	608.2	192.41	1.3165e-05	1.395e-05	291.45	122.5	71.4	31.729	1.345e-05	66.496	327.429	86.330	75.416	-13.355	168.045	226.202	-13.798	-7.484	176.489	178.855	-8.973	-3.657	-2.717	1.821	171.620	-0.073	-8191	255	
734.369	1	1	0	0	0.21579	0.059263	0.06654	0.052832	0.10701	0.07562	0.31291	0.19092	0.054214	0.31126	0.11765	0.19554	0.32219	0.18171	0.25886	0.089307	-2.7125	-2.9125	-3.0708	-2.9958	-2.7396	-3.0875	-2.9625	-2.7958	-3.1625	-2.8167	-2.9208	-3.1479	-2.8063	-3.0271	-3.1042	-3	283.592	20.557	312.381	184.308	48.040	212.522	281.756	65.329	207.201	192.650	211.893	329.560	86.322	302.021	64.744	313.758	0.0008175	0.00061657	8.1125e-05	501.01	6.7012e-06	1.7794e-06	602.2	190.57	6.609e-06	4.0021e-06	283.69	119.32	68.993	30.953	4.7522e-06	64.695	0.0011519	0.0012775	0.00035305	499.73	1.3517e-05	1.3715e-05	598.5	189.87	1.3112e-05	1.3865e-05	284.59	119.5	69.916	31.178	1.3446e-05	64.993	-21.268	83.083	63.759	-13.552	166.189	86.940	-14.089	-7.458	144.756	114.778	-8.961	-3.878	-3.059	1.890	139.311	-0.290	-8191	255	
734.465	1	1	0	0	0.11871	0.04671	0.083707	0.10221	0.25046	0.011986	0.13982	0.25919	0.09928	0.075735	0.096067	0.079079	0.1543	0.033774	0.16355	0.21863	-2.7771	-2.8021	-3.0292	-3.15	-2.8583	-3.1083	-3.1333	-2.8771	-3.1542	-3.2062	-3.1708	-3.0438	-2.9375	-3.1021	-2.8812	-2.875	8.587	8.800	249.273	46.017	110.207	4.444	209.849	64.066	290.839	311.544	219.828	140.977	243.597	75.635	124.541	-22.021	0.00094628	0.00037814	9.7746e-05	497.99	5.7061e-06	5.7851e-06	597.48	188.88	5.7729e-06	8.0369e-06	280.88	117.55	69.079	30.386	1.0203e-05	63.97	0.0011601	0.0012468	0.00034655	495.34	1.3426e-05	1.3536e-05	591.7	188.22	1.2841e-05	1.3512e-05	280.89	117.69	69.286	30.855	1.3069e-05	64.581	332.519	51.080	89.340	-13.586	131.284	103.283	-13.847	-7.737	135.410	123.913	-8.858	-3.850	-2.914	1.562	122.128	-0.228	-8191	255	
734.586	1	1	0	0	0.12913	0.27113	0.18894	0.1533	0.15953	0.24081	0.18981	0.093251	0.14803	0.16792	0.46674	0.15843	0.14148	0.18489	0.12136	0.1471	-2.7646	-2.975	-2.9542	-3.3667	-2.8625	-3.0563	-3.1333	-2.8833	-3.15	-3.0396	-3.0396	-3.2042	-2.9813	-3.0833	-3.1021	-2.9437	114.958	314.253	151.093	268.911	157.482	181.087	144.464	329.210	275.974	130.775	245.498	321.012	185.932	322.771	195.810	-23.695	0.00088346	0.00040503	7.5363e-05	498.37	9.1712e-06	7.2053e-06	599.59	188.96	3.4656e-06	2.0504e-06	282.18	118.77	68.996	30.998	8.649e-06	64.887	0.0011276	0.0012342	0.0003429	496.11	1.3234e-05	1.3759e-05	595.51	188.61	1.2984e-05	1.3507e-05	283.16	119.05	69.758	31.127	1.3118e-05	65.175	327.826	121.212	22.148	-13.400	119.418	148.244	-13.926	-7.865	88.220	123.448	-8.853	-3.812	-2.643	1.682	170.379	-0.181	-8191	255	
734.682	1	1	0	0	0.25235	0.14253	0.16964	0.091056	0.20862	0.023217	0.073603	0.15807	0.18822	0.068488	0.20303	0.27844	0.097574	0.12299	0.021134	0.041181	-2.6937	-3.0458	-2.9958	-3.2125	-2.9354	-3.0062	-3.2208	-2.7854	-3.1729	-3.0354	-2.9333	-3.1104	-2.9792	-3.1042	-3.0646	-3.0021	140.606	176.125	19.401	136.491	-3.391	107.815	108.466	258.005	94.669	-18.089	275.202	307.605	305.222	-0.025	158.116	-2.864	0.00094139	0.00038821	7.8651e-05	498.7	6.834e-06	4.8167e-06	604.88	189.73	1.0904e-05	4.2733e-06	287.41	120.39	69.556	31.023	7.1982e-06	65.743	0.0011042	0.0011981	0.00034578	497.82	1.3028e-05	1.3795e-05	598.8	189.63	1.3069e-05	1.3544e-05	286.77	120.7	70.213	31.446	1.3211e-05	65.976	-21.461	77.508	50.589	-13.738	120.269	121.602	-13.730	-7.731	146.074	123.740	-8.915	-4.008	-2.906	1.859	154.600	-0.295	-8191	255	
734.778	1	1	0	0	0.17539	0.26218	0.1114	0.20153	0.049509	0.050089	0.17275	0.13991	0.16594	0.097762	0.25946	0.26545	0.22571	0.096035	0.14645	0.078471	-2.6167	-2.9458	-2.9188	-3.3917	-2.9375	-3.0146	-3.1208	-2.7229	-3.1104	-2.9854	-2.9062	-3.1729	-2.8812	-2.8563	-3.0604	-2.9062	-11.906	227.032	225.331	183.415	195.710	262.290	29.283	255.866	145.787	13.398	224.866	24.812	218.145	83.767	234.089	187.716	0.0010226	0.00081412	0.00011519	501.45	6.6268e-06	3.4457e-06	612.17	191.62	1.0925e-05	2.0325e-06	287.75	121.31	70.094	31.163	7.3823e-06	66.078	0.0011317	0.0012104	0.0003472	500.49	1.2735e-05	1.3864e-05	605.18	190.94	1.3124e-05	1.3475e-05	288.12	121.27	70.686	31.525	1.3373e-05	66.44	327.292	72.050	25.556	-13.380	123.078	240.615	-14.075	-7.510	152.114	143.866	-9.102	-3.898	-2.854	1.292	130.869	-0.087	-8191	255	
734.874	1	1	0	0	0.16477	0.12022	0.15655	0.094247	0.18978	0.018617	0.19565	0.084897	0.15532	0.056352	0.19139	0.080717	0.20885	0.088545	0.014847	0.12102	-2.5979	-3.0187	-2.925	-3.1104	-3.0062	-2.9417	-3.1271	-2.8438	-2.95	-3.2021	-2.8229	-3.1854	-3.1417	-2.9229	-3.1083	-3.0271	267.986	162.044	316.386	18.713	140.450	173.530	284.780	277.969	277.250	-4.986	198.411	68.845	172.180	322.429	168.086	233.370	0.00093423	0.00054973	0.00011107	505.03	2.816e-06	7.2248e-06	613.8	193.16	9.8186e-06	3.6076e-06	289.01	120.85	69.824	31.257	1.2529e-05	65.658	0.0011432	0.0012443	0.00034895	504.26	1.2925e-05	1.3746e-05	608.81	192.41	1.3099e-05	1.3577e-05	288.89	121.21	70.693	31.504	1.3528e-05	66.209	328.254	62.448	44.655	-13.477	208.817	153.953	-14.197	-7.846	118.107	113.294	-9.058	-3.691	-3.168	1.821	67.128	-0.108	-8191	255	
734.971	1	1	0	0	0.22191	0.25286	0.24029	0.21173	0.14399	0.054711	0.1941	0.29463	0.13801	0.19425	0.076972	0.27485	0.16781	0.058354	0.21069	0.24346	-2.6458	-3.0896	-2.9125	-3.0896	-2.9021	-2.8042	-3.2125	-2.8229	-2.9292	-3.1417	-2.9646	-3.0521	-3.0417	-2.7917	-3.1479	-3.0042	29.558	78.860	107.161	176.369	124.079	324.566	262.168	240.127	184.041	163.806	157.740	243.328	163.178	-4.192	30.620	310.189	0.00077323	0.00034497	0.00010565	507.92	4.0992e-06	9.3379e-06	618.92	194.82	5.1707e-06	6.1853e-06	293.73	122.5	70.469	31.313	9.7662e-06	65.295	0.001157	0.0012331	0.0003505	506.8	1.2815e-05	1.3895e-05	615.65	194.12	1.284e-05	1.3394e-05	293.31	122.65	71.028	31.57	1.3085e-05	65.823	330.230	70.795	101.050	-13.972	208.095	95.895	-13.722	-7.467	129.152	118.116	-8.844	-3.918	-3.205	1.694	150.285	-0.111	-8191	255	
735.067	1	1	0	0	0.0043033	0.20729	0.2047	0.19759	0.25436	0.15784	0.092888	0.13142	0.038352	0.093867	0.34776	0.026549	0.12299	0.094995	0.17386	0.19723	-2.5625	-3.0625	-2.7	-3.0062	-3.0208	-2.8625	-3.3438	-2.8479	-2.9437	-2.975	-2.9437	-2.9813	-3.0375	-2.8458	-3.2083	-3.1604	239.235	86.665	258.343	11.162	200.117	60.902	224.394	246.067	50.931	-22.519	-21.974	75.212	325.855	161.504	115.349	204.930	0.00083518	0.00063306	9.3551e-05	503.98	4.4974e-06	1.1997e-06	610.45	191.87	4.2362e-06	6.4036e-06	284.06	120.1	69.208	30.683	6.5065e-06	64.266	0.0011222	0.001219	0.00034273	502.05	1.2449e-05	1.3842e-05	604.42	190.66	1.2662e-05	1.3129e-05	284.96	119.66	69.848	31.092	1.2708e-05	64.827	327.188	77.312	35.376	-13.571	136.564	132.778	-13.876	-7.697	86.423	118.368	-9.087	-4.106	-3.241	1.609	112.562	-0.364	-8191	255	
735.186	1	1	0	0	0.16128	0.34518	0.25	0.18346	0.32452	0.099549	0.1295	0.085766	0.1131	0.19092	0.20588	0.11836	0.25486	0.065975	0.014508	0.12798	-2.5167	-3.1333	-2.7729	-3.1063	-3.0896	-2.7146	-3.2	-3.1729	-3.1521	-3.1063	-3.0708	-3.0312	-3.0812	-3.0312	-3.2333	-3.1604	260.173	64.005	230.358	192.096	187.515	285.392	236.282	-23.598	223.440	168.047	77.199	312.282	260.902	148.719	304.393	156.089	0.0007358	0.00046846	0.00017472	497.85	6.0482e-06	3.5302e-06	605.33	189.82	6.8792e-06	1.7803e-06	283.45	118.87	69.295	30.974	4.6757e-06	64.642	0.0011016	0.0011811	0.00033436	498.04	1.2254e-05	1.3428e-05	599.34	189.12	1.2773e-05	1.307e-05	283.66	118.8	69.696	31.164	1.2544e-05	64.859	-25.050	130.100	57.766	-13.569	162.998	111.361	-13.896	-7.581	160.467	101.327	-9.131	-3.795	-2.828	1.478	106.511	-0.453	-8191	255	
735.282	1	1	0	0	0.22902	0.12828	0.19107	0.14141	0.24999	0.24987	0.20358	0.28407	0.09913	0.16369	0.19573	0.21468	0.13714	0.22585	0.096874	0.10558	-2.425	-3.1792	-3.1125	-3.0542	-3.0208	-2.9083	-3.0458	-3.0146	-2.875	-3.3521	-3.0667	-3.0104	-3.1417	-2.8063	-2.9729	-3.1437	-22.782	31.174	146.518	190.623	79.271	223.016	271.164	197.737	79.219	326.441	10.828	9.790	39.843	234.289	180.563	205.735	0.00081663	0.0005905	0.00010525	502.67	6.742e-06	4.1471e-06	608.24	189.98	3.9795e-06	2.8127e-06	284.6	119.41	69.325	30.829	1.8128e-06	64.768	0.0011021	0.001162	0.000325	500.14	1.2165e-05	1.3086e-05	602.19	189.63	1.2535e-05	1.2901e-05	284.57	119.34	69.944	31.145	1.2537e-05	65.057	328.311	90.347	13.569	-13.616	125.551	146.022	-14.071	-7.538	147.388	126.643	-9.328	-3.924	-2.661	1.859	177.195	-0.252	-8191	255	
735.378	1	1	0	0	0.10662	0.090859	0.122	0.096708	0.10006	0.089264	0.14143	0.12139	0.14708	0.11505	0.14379	0.13789	0.077587	0.10001	0.32949	0.18905	-2.45	-2.9188	-2.9042	-2.8771	-3.0708	-2.8792	-3.1042	-3.1104	-2.9542	-3.0563	-2.9583	-2.8563	-3.2729	-2.8229	-2.9729	-3.2104	262.094	-12.051	78.801	195.155	115.775	323.240	299.292	319.459	71.838	56.593	274.726	316.962	155.077	175.754	117.594	304.570	0.00090006	0.0003091	0.00014246	504.45	5.3426e-06	6.4001e-06	611.97	190.92	1.346e-05	5.4819e-06	284.51	119.91	69.964	30.922	7.2739e-06	65.146	0.0010845	0.0011665	0.00031493	501.84	1.2293e-05	1.2972e-05	606.49	190.33	1.243e-05	1.2605e-05	284.97	119.89	70.379	31.299	1.2766e-05	65.331	-22.953	66.689	87.664	-13.500	155.962	118.059	-13.918	-7.604	175.861	120.993	-8.989	-3.932	-3.071	1.458	153.568	-0.298	-8191	255	
735.499	1	1	0	0	0.093819	0.095763	0.054732	0.088985	0.17541	0.11837	0.067739	0.28985	0.35877	0.13538	0.093632	0.11399	0.21818	0.21599	0.32682	0.10811	-2.3063	-2.9771	-2.7479	-2.8146	-3.0625	-2.8979	-3.0208	-3.2646	-2.8812	-3.1667	-3.0083	-2.7396	-3.0625	-2.9542	-3.0187	-3.125	62.532	256.199	145.005	292.266	82.212	139.445	223.999	310.938	114.495	96.950	220.139	196.151	226.259	-13.097	130.785	-25.110	0.00078658	0.00063622	0.00012151	505.9	1.0848e-05	3.6601e-06	615.28	191.7	1.6415e-05	5.2035e-07	287.56	121.12	69.955	31.103	7.697e-06	65.319	0.0010865	0.0011487	0.00031297	504.05	1.2068e-05	1.3119e-05	610.17	191.08	1.2201e-05	1.2587e-05	287.64	120.76	70.393	31.356	1.251e-05	65.501	323.646	34.203	83.195	-13.466	91.609	23.513	-13.873	-7.592	158.556	125.021	-8.907	-3.854	-2.923	1.401	168.837	-0.229	-8191	255	
735.570	1	1	0	0	0.20953	0.25109	0.14687	0.21784	0.034272	0.087671	0.064004	0.2725	0.069974	0.041941	0.038507	0.27603	0.16783	0.1285	0.19685	0.063343	-2.4229	-3.0812	-2.925	-2.7083	-3.0521	-2.9521	-3.0729	-3.2083	-2.9333	-2.9562	-3.1188	-2.9417	-3.0438	-2.8396	-3.0125	-3.1792	45.931	180.890	0.939	288.405	86.522	269.009	272.727	26.327	257.314	172.696	278.767	308.500	-1.784	327.688	176.794	247.841	0.00078553	0.00075864	0.00015077	508.55	4.645e-06	4.158e-06	615.43	192.02	8.4429e-06	9.9628e-07	289.92	121.08	70.439	31.213	5.7675e-06	65.786	0.0011018	0.0011777	0.00032219	504.46	1.2353e-05	1.3027e-05	609.18	191.32	1.2408e-05	1.2922e-05	289.13	121.45	70.752	31.44	1.2655e-05	66.306	332.883	60.579	74.299	-13.537	123.251	92.724	-13.725	-7.435	108.914	258.660	-9.182	-3.676	-3.383	1.585	177.640	-0.339	-8191	255	
735.666	1	1	0	0	0.099946	0.091827	0.11906	0.23566	0.10602	0.19512	0.26076	0.08841	0.20857	0.16421	0.10107	0.17131	0.19272	0.093931	0.10839	0.22466	-2.5271	-3.0854	-3.1	-2.8604	-3.1521	-3.2104	-2.8521	-3.2812	-2.8917	-3.0333	-3.175	-2.9562	-2.9979	-2.9104	-2.9417	-3.3104	147.765	57.177	79.655	296.127	106.050	316.038	285.547	330.236	78.409	275.318	272.792	-1.450	323.930	32.395	-7.231	210.277	0.00081606	0.00053765	4.4191e-05	512.24	7.8063e-06	7.2919e-06	621.51	194.38	8.9702e-06	3.8706e-06	291.1	121.16	69.932	31.07	7.553e-06	65.571	0.0010885	0.0011817	0.00032385	509.26	1.2447e-05	1.2896e-05	616.48	193.38	1.2417e-05	1.306e-05	290.25	121.41	70.651	31.397	1.267e-05	65.861	-25.196	66.279	68.560	-13.405	170.578	118.627	-14.078	-7.921	114.517	125.097	-8.995	-3.990	-2.818	1.504	111.262	-0.213	-8191	255	
735.763	1	1	0	0	0.2131	0.12436	0.38826	0.27246	0.18607	0.29446	0.0068598	0.21391	0.16946	0.06694	0.1058	0.10941	0.18041	0.11984	0.2275	0.089432	-2.6604	-3.0208	-3.0792	-2.9792	-3.0146	-3.1	-2.9604	-3.0083	-3.0542	-3.0604	-3.0646	-2.925	-3.1229	-3	-2.8042	-3.0187	52.176	53.468	329.175	42.520	4.638	81.873	65.727	320.037	6.615	314.357	207.926	306.806	150.326	326.744	67.506	133.493	0.00087275	0.00016882	0.00013874	506.98	6.1895e-06	5.1233e-06	612.52	190.69	4.2138e-06	1.998e-06	284.53	119.48	69.373	30.742	5.7238e-06	64.458	0.0010756	0.0011577	0.00032113	503.51	1.2135e-05	1.2725e-05	606.5	190.27	1.2227e-05	1.2767e-05	284.2	119.17	69.773	30.979	1.2724e-05	64.614	-25.063	90.003	28.883	-13.510	144.710	140.197	-13.906	-7.585	143.374	123.515	-9.059	-3.771	-3.024	1.502	184.550	-0.179	-8191	255	
735.881	1	1	0	0	0.11496	0.16706	0.14013	0.077075	0.10825	0.10839	0.12513	0.16384	0.1918	0.096058	0.21417	0.32801	0.12789	0.050893	0.15974	0.29808	-2.3438	-2.9083	-3.025	-2.9208	-3.0521	-3.0563	-2.9813	-3.0687	-2.7896	-2.8708	-3.2021	-3.0958	-3.1458	-3.0563	-2.825	-3.075	325.857	103.967	236.852	312.436	86.969	222.039	282.278	210.426	191.152	294.714	-3.376	26.629	161.666	221.072	122.079	267.744	0.00089016	0.00038019	0.00015137	503.34	1.0797e-05	6.4606e-06	604.48	189.78	5.2466e-06	6.5739e-06	284.55	118.65	69.301	30.734	3.8725e-06	64.169	0.0010627	0.0011711	0.00032142	500.41	1.1994e-05	1.2639e-05	600.3	188.97	1.1803e-05	1.2724e-05	283.17	118.51	69.567	30.958	1.2755e-05	64.529	-25.401	23.770	35.489	-13.370	129.139	131.551	-13.989	-7.734	183.426	118.049	-9.281	-4.005	-3.108	1.609	166.059	-0.185	-8191	255	
735.978	1	1	0	0	0.16953	0.35409	0.042062	0.047597	0.20658	0.12257	0.052114	0.065961	0.22901	0.057179	0.074685	0.14889	0.14271	0.13035	0.15254	0.17382	-2.5667	-2.6333	-3.0312	-2.7146	-2.9333	-3.2708	-3.1208	-3.0542	-2.8063	-2.7958	-3.1854	-2.8729	-2.8208	-3.0812	-2.7979	-3.2062	331.015	142.269	119.414	258.073	45.875	204.883	183.099	135.993	121.551	-9.849	316.642	205.534	2.391	16.819	32.086	243.011	0.00087516	0.00014402	0.00010054	501.84	5.532e-06	6.2638e-06	610.63	190.87	1.0454e-05	1.5743e-06	284.07	119	69.183	30.789	6.8964e-06	64.481	0.0010236	0.0011464	0.00031248	500.04	1.1738e-05	1.2827e-05	602.36	189.77	1.1968e-05	1.2832e-05	284.38	119.2	69.907	31.093	1.2305e-05	64.84	-24.841	28.480	32.947	-13.411	115.804	137.091	-14.137	-7.799	175.410	114.747	-9.141	-3.916	-2.791	1.442	119.636	-0.569	-8191	255	
736.074	1	1	0	0	0.14737	0.18905	0.14738	0.23297	0.18531	0.097509	0.28624	0.55565	0.1209	0.24435	0.25044	0.23268	0.084668	0.13854	0.10088	0.31452	-2.4271	-2.7146	-3.1375	-2.9938	-2.8292	-3.1208	-2.9313	-2.9208	-2.9792	-2.9083	-3.0646	-2.8771	-2.9396	-3.0958	-2.7708	-3.1208	92.261	276.247	115.607	95.980	255.149	201.620	332.946	231.255	154.732	307.813	319.182	-13.064	199.163	117.501	201.700	274.199	0.0008262	0.00059634	0.00022603	502.61	8.0542e-06	8.5649e-06	611.42	190.9	4.011e-06	5.1685e-06	286.21	120.04	69.539	31.054	4.5926e-06	65.105	0.001045	0.0011799	0.00032172	502.6	1.2309e-05	1.2857e-05	606.49	190.23	1.1775e-05	1.2757e-05	286.15	120.09	70.134	31.333	1.2238e-05	65.437	-18.552	77.373	60.083	-13.404	94.046	77.380	-14.006	-7.510	78.017	66.181	-8.998	-4.109	-2.939	1.663	127.417	-0.289	-8191	255	
736.147	1	1	0	0	0.17541	0.13671	0.0807	0.17043	0.0025451	0.31962	0.18119	0.12882	0.26085	0.1605	0.12301	0.0927	0.077715	0.08847	0.13468	0.091366	-2.5563	-2.8583	-3.1542	-2.9729	-2.8771	-3.1354	-2.9688	-3.2208	-3.0417	-2.8521	-3.1771	-2.9979	-2.7562	-3.1292	-2.975	-3.1125	252.778	120.384	25.498	-12.117	110.900	52.122	141.973	226.337	77.058	82.784	44.593	285.454	334.256	317.407	237.504	173.233	0.0007308	0.00037865	0.00017403	508.25	4.4884e-06	1.0262e-05	614.89	190.82	1.3116e-05	4.3705e-06	286.78	120.08	69.71	31.012	7.4973e-06	65.564	0.0010567	0.0011648	0.00031445	505.69	1.2159e-05	1.2735e-05	609.11	190.68	1.2079e-05	1.2945e-05	286.7	120.14	70.293	31.333	1.2378e-05	65.704	-23.004	13.911	98.442	-13.323	79.880	163.028	-13.859	-7.233	161.914	79.545	-8.852	-4.120	-2.840	1.761	119.838	-0.287	-8191	255	
736.266	1	1	0	0	0.16013	0.10856	0.28058	0.32668	0.22498	0.19771	0.098414	0.050104	0.26327	0.16539	0.21854	0.21271	0.15559	0.21549	0.20983	0.13225	-2.6875	-2.7646	-3.0833	-3.0729	-3.1	-3.0438	-3.0083	-2.9542	-3.2479	-2.8604	-3.1104	-2.9625	-2.8688	-3.2	-2.9333	-3.0583	251.951	260.323	96.093	109.483	26.493	76.320	323.593	301.554	-2.770	125.400	39.449	267.352	-5.418	27.479	220.910	256.309	0.00095843	0.00073436	6.8744e-05	508.86	9.3229e-06	3.5747e-06	616.33	193	5.8723e-06	3.589e-06	290.42	122.11	70.339	31.278	8.3001e-06	65.985	0.0010822	0.0011732	0.00031769	507.11	1.2323e-05	1.2842e-05	614.11	192.56	1.225e-05	1.3005e-05	290.81	121.77	71.169	31.569	1.2321e-05	66.149	330.933	62.359	57.108	-13.610	119.854	130.996	-13.945	-7.731	134.878	137.899	-8.964	-3.863	-2.946	1.483	172.332	-0.169	-8191	255	
736.362	1	1	0	0	0.13808	0.18885	0.16048	0.15613	0.26393	0.050478	0.21469	0.47816	0.21117	0.13054	0.042699	0.2029	0.29596	0.11094	0.39262	0.01927	-2.7438	-2.8146	-2.9813	-3.1208	-2.7917	-3.0833	-2.8479	-2.9125	-3.1521	-2.85	-3.1854	-3.0917	-2.8958	-3.1146	-2.8396	-3.0563	42.146	69.285	160.253	269.597	118.926	-14.951	-13.010	272.401	312.158	-13.838	45.348	184.786	246.827	70.254	54.454	303.881	0.00073095	0.00063341	5.7694e-05	510.73	4.8108e-06	4.277e-06	614.11	192.18	5.1629e-06	2.4738e-06	287.81	120.22	69.138	30.807	6.2248e-06	64.127	0.0010646	0.0011523	0.00031377	507.46	1.2429e-05	1.2848e-05	609.72	191.59	1.1936e-05	1.2751e-05	286.49	119.85	69.925	31.039	1.2147e-05	64.529	333.936	73.690	77.165	-13.813	71.909	102.047	-13.884	-7.664	129.977	107.317	-8.880	-4.019	-3.252	1.832	134.699	-0.363	-8191	255	
736.458	1	1	0	0	0.17718	0.2685	0.081692	0.062754	0.2091	0.30949	0.23096	0.05694	0.12513	0.17201	0.075527	0.057988	0.12601	0.10355	0.046469	0.21061	-2.6167	-2.6562	-3.0083	-3.1875	-2.8396	-3.05	-2.9917	-2.8021	-3.0687	-2.8625	-3.0563	-2.9146	-2.7896	-3.1667	-2.9062	-2.9729	101.102	298.200	193.265	163.214	136.687	206.903	235.509	-8.320	4.258	130.598	219.350	196.423	-18.778	324.304	186.502	-17.236	0.00093711	0.00034069	0.0001737	506.26	5.4819e-06	3.7899e-06	607.72	189.79	9.3615e-06	5.0576e-06	282.38	118.06	68.498	30.311	5.5155e-06	63.536	0.0010585	0.0011557	0.00031378	502.61	1.2261e-05	1.2673e-05	604.42	189.6	1.1864e-05	1.2594e-05	281.97	117.87	69.237	30.693	1.2155e-05	63.695	-24.270	81.151	66.414	-13.741	130.137	76.442	-14.084	-7.323	143.235	80.264	-9.371	-3.923	-3.319	1.650	127.508	-0.285	-8191	255	
736.579	1	1	0	0	0.33797	0.2779	0.11431	0.064646	0.13859	0.10858	0.1853	0.20668	0.23932	0.12897	0.28517	0.18443	0.28044	0.13227	0.13781	0.007725	-2.5667	-2.9688	-2.9	-3.1125	-2.7958	-3.1354	-2.8688	-2.875	-3.1646	-2.8063	-2.9604	-3.1167	-2.725	-3.1521	-3.1208	-2.8583	177.825	231.402	249.987	260.812	102.708	264.144	295.891	329.329	277.602	172.122	-23.270	229.536	-5.687	326.491	265.009	288.392	0.00073991	0.00035577	0.00010707	507.86	1.0258e-05	4.5949e-06	610.6	190.08	1.0569e-05	3.7604e-06	285.03	117.85	68.892	30.441	5.2659e-06	63.582	0.0010544	0.0011173	0.00031427	503.59	1.192e-05	1.2489e-05	605.96	189.54	1.1969e-05	1.2352e-05	283.69	118.25	69.426	30.844	1.2255e-05	63.954	333.911	130.718	51.588	-13.447	117.947	149.326	-14.129	-7.647	144.259	87.539	-9.004	-4.033	-3.023	1.497	121.772	-0.228	-8191	255	
736.675	1	1	0	0	0.14409	0.030359	0.17654	0.21624	0.13214	0.16846	0.23151	0.18674	0.12568	0.15025	0.14455	0.26779	0.13162	0.072055	0.12066	0.33351	-2.7083	-2.9958	-2.9208	-3.0104	-2.9625	-3.0792	-3.1917	-2.8167	-3.2458	-3.0208	-3.0729	-3.2917	-3.0187	-2.9479	-3.2042	-2.9167	251.434	-4.062	65.238	306.822	103.932	119.692	250.684	215.010	273.714	89.061	45.728	256.331	-9.065	212.400	29.597	253.481	0.00086245	0.00039099	0.00015233	508.88	7.4406e-06	1.9484e-06	614.91	190.85	4.0655e-06	1.0343e-06	285.75	118.95	68.802	30.821	2.9921e-06	64.136	0.0010463	0.001118	0.00032536	504.91	1.2028e-05	1.2417e-05	608.97	189.85	1.1868e-05	1.25e-05	284.83	118.76	69.713	31.001	1.2178e-05	64.337	329.066	94.233	92.106	-13.842	117.775	84.912	-14.280	-7.614	163.116	105.531	-9.088	-4.070	-3.457	1.578	332.527	-0.384	-8191	255	
736.771	1	1	0	0	0.12849	0.15925	0.054983	0.06012	0.13324	0.020254	0.08936	0.091694	0.1791	0.23997	0.043317	0.17576	0.1595	0.10527	0.19356	0.25446	-2.7438	-2.9271	-2.7958	-3.1333	-2.9375	-2.9958	-3.125	-3.0125	-3.0687	-2.9104	-3.0042	-3.0104	-2.8625	-2.8917	-3.2333	-2.9792	297.486	278.041	5.875	110.024	184.370	96.048	-18.355	255.403	-7.218	282.411	220.943	43.363	268.812	312.882	94.559	302.208	0.00092694	0.00057221	0.00012186	513.7	3.1909e-06	1.8842e-06	622.68	191.92	1.1025e-05	2.2796e-06	286.73	119.71	69.596	30.62	5.5123e-06	64.244	0.0010322	0.0011186	0.00032689	509.27	1.177e-05	1.2755e-05	615.39	191.65	1.2107e-05	1.2816e-05	286.69	119.58	69.963	31.033	1.2815e-05	64.512	-24.578	86.728	58.005	-13.500	79.837	122.295	-14.050	-8.035	98.418	147.366	-8.762	-3.915	-3.210	1.709	133.094	-0.254	-8191	255	
736.867	1	1	0	0	0.19529	0.17515	0.18567	0.15255	0.16808	0.236	0.12701	0.16268	0.084464	0.048499	0.15655	0.15154	0.1136	0.011097	0.054978	0.23556	-2.6333	-2.9417	-2.9729	-3.3208	-2.9125	-3.0208	-3.2313	-2.8833	-3.1271	-2.9396	-2.9833	-3.1896	-3.1167	-2.8708	-3.1417	-2.8917	283.195	188.753	20.408	225.929	91.150	8.369	312.873	331.319	64.541	136.753	249.911	287.568	37.410	132.270	180.398	303.358	0.00070883	0.00042123	0.00020378	513.04	4.4891e-06	3.4667e-06	620.75	190.45	6.3036e-06	6.4312e-06	282.59	117.45	68.007	30.461	3.2654e-06	62.93	0.0010796	0.0011805	0.00033496	512.08	1.2373e-05	1.367e-05	615.8	189.88	1.2443e-05	1.3656e-05	283.03	117.36	68.949	30.687	1.3101e-05	63.332	324.539	299.999	66.587	-13.636	108.007	144.349	-13.840	-7.809	86.523	128.519	-9.259	-3.965	-2.973	1.886	175.807	-0.166	-8191	255	
736.962	1	1	0	0	0.095058	0.14856	0.29508	0.17647	0.23314	0.19586	0.25292	0.065898	0.15737	0.25625	0.15842	0.20465	0.28176	0.082888	0.16217	0.18976	-2.5125	-3.1562	-2.7021	-3.0312	-2.8417	-2.8917	-3.3146	-3	-3.075	-3.2396	-2.875	-3.2167	-2.9229	-2.6729	-3.1333	-2.9521	40.943	172.219	322.979	-17.233	156.118	320.810	14.504	26.546	-18.200	61.934	32.975	241.093	250.674	120.699	119.722	282.007	0.00083355	0.00029537	8.433e-05	516.96	4.0642e-06	2.0405e-06	623.84	191.49	2.1832e-06	4.4077e-06	283.79	117.35	68.345	30.368	5.4295e-06	62.959	0.0011253	0.0012275	0.00035127	514.23	1.2757e-05	1.4003e-05	618.78	190.69	1.3063e-05	1.3632e-05	283.87	117.93	69.066	30.71	1.3103e-05	63.333	331.793	67.266	42.080	-13.567	115.453	52.700	-14.063	-7.740	189.584	147.109	-8.835	-3.988	-3.366	1.608	124.547	-0.171	-8191	255	
737.058	1	1	0	0	0.14432	0.02984	0.076805	0.13142	0.12461	0.059393	0.12062	0.2187	0.20373	0.20835	0.16382	0.035531	0.069409	0.19539	0.088187	0.070101	-2.6021	-3.1042	-2.9583	-3.1063	-2.9625	-2.8667	-3.1729	-2.9521	-3.1437	-3.0771	-2.9771	-3.2021	-2.9896	-3.1104	-3.2687	-2.7958	146.529	175.293	292.911	156.438	301.691	120.896	192.208	270.496	64.809	140.487	284.513	33.248	101.405	318.712	231.489	-10.037	0.00082242	0.00049878	0.00013311	514.15	8.8761e-06	2.1538e-06	614.85	188.79	7.1207e-06	2.2404e-06	277.89	115.1	67.364	30.227	1.2286e-06	61.87	0.0011161	0.0012456	0.00034875	509.8	1.2796e-05	1.3801e-05	608.73	188.26	1.31e-05	1.348e-05	278.31	115.52	68.114	30.388	1.3213e-05	62.202	328.155	64.198	72.168	-13.484	149.408	195.394	-13.953	-7.569	115.692	151.785	-8.937	-3.674	-3.051	1.613	229.639	-0.125	-8191	255	
737.179	1	1	0	0	0.29186	0.24552	0.11751	0.12374	0.26438	0.099317	0.13186	0.17108	0.18213	0.053343	0.21142	0.12712	0.26412	0.11012	0.28201	0.28861	-2.5292	-3.0792	-2.975	-3.0604	-3.0438	-2.6958	-3.2896	-2.9771	-2.8583	-2.8792	-2.9771	-3.0292	-3.2021	-2.7729	-3.1208	-2.9417	317.331	262.137	105.410	319.439	321.606	236.471	63.541	275.287	201.415	107.641	281.542	-16.587	302.511	254.450	247.750	248.861	0.00083004	0.00014209	7.2901e-05	506.55	1.3697e-06	5.8793e-06	606.56	186.93	8.0454e-06	2.388e-06	277.4	115.47	67.782	30.128	8.2452e-06	61.945	0.0011151	0.0011851	0.00033571	503.77	1.2538e-05	1.3654e-05	601.02	186.62	1.2821e-05	1.3253e-05	277.35	115.58	68.338	30.383	1.3004e-05	62.26	-25.071	77.218	112.855	-13.541	81.064	177.203	-13.992	-7.607	77.785	74.213	-9.123	-3.806	-2.805	1.877	136.742	-0.197	-8191	255	
737.275	1	1	0	0	0.23263	0.086235	0.35938	0.051074	0.11631	0.13212	0.23908	0.097061	0.10094	0.12316	0.045605	0.25169	0.16144	0.2752	0.13472	0.12205	-2.4396	-3	-2.9125	-3.1917	-2.9729	-2.7792	-3.1188	-2.9458	-2.8396	-3.1542	-2.8417	-3.1458	-3.0687	-2.8292	-3.1958	-3.0208	202.454	84.276	325.057	289.993	-1.679	229.033	228.619	281.921	211.881	319.528	217.602	320.828	175.386	325.570	144.278	-24.154	0.00077668	0.00045661	0.00013746	505.94	1.3162e-05	2.6956e-06	605.24	186.92	9.4945e-06	7.7048e-06	277.1	115.02	67.149	29.951	3.4015e-06	61.498	0.0011151	0.0012036	0.00033598	504.5	1.2301e-05	1.3722e-05	601.95	186.43	1.3158e-05	1.3457e-05	277.49	115.23	67.888	30.259	1.2753e-05	61.983	331.172	70.631	98.586	-13.651	126.094	77.471	-14.003	-7.362	134.396	109.158	-8.975	-3.826	-3.125	1.375	145.965	-0.415	-8191	255	
737.371	1	1	0	0	0.10486	0.28574	0.15939	0.32471	0.040227	0.039974	0.12754	0.30702	0.2073	0.077953	0.095383	0.12993	0.11169	0.26783	0.090559	0.12551	-2.7313	-3.0167	-2.9042	-3.1917	-3.0208	-2.8792	-3.1042	-3.1104	-2.7188	-3.1104	-3.0187	-2.9896	-3.0958	-2.9979	-3.1167	-3.1521	174.139	20.812	285.584	324.448	179.750	-20.874	303.742	320.834	83.159	189.570	161.266	184.825	52.240	154.436	296.291	295.940	0.00079046	0.00050616	7.4821e-05	506.67	3.6527e-06	2.3575e-06	604.84	187.55	9.9395e-06	3.9401e-06	278.29	114.96	67.345	30.192	1.0161e-05	62.238	0.001131	0.0012351	0.00033035	503.76	1.2688e-05	1.3693e-05	600.85	186.79	1.3065e-05	1.3434e-05	278	115.29	68.025	30.393	1.2809e-05	62.679	330.562	66.161	39.111	-13.728	157.209	110.451	-14.024	-7.771	115.305	97.431	-9.187	-3.643	-2.983	1.426	134.159	-0.149	-8191	255	
737.443	1	1	0	0	0.15677	0.20962	0.20736	0.29892	0.07977	0.10664	0.18356	0.1642	0.14386	0.15373	0.25352	0.26774	0.27136	0.15505	0.22744	0.36575	-2.3563	-3.0479	-2.8292	-2.8479	-3.0104	-2.8958	-3.1688	-3.0354	-2.7167	-3.0292	-2.9562	-3.0271	-3.2438	-2.9875	-2.9813	-3.1458	33.905	-8.861	33.052	198.600	219.536	132.414	261.936	-6.040	222.260	256.108	300.627	14.612	32.813	267.847	-6.708	267.216	0.00073974	0.00033061	0.00010503	509.68	8.7958e-06	2.4149e-06	615.29	187.82	1.0499e-05	3.0036e-06	281.61	117.17	68.014	30.386	5.1476e-06	62.956	0.0011415	0.0011877	0.00032663	507.9	1.27e-05	1.3345e-05	609.07	188.09	1.3137e-05	1.3482e-05	281.05	116.95	68.708	30.622	1.2909e-05	63.291	-21.249	107.502	79.061	-13.251	132.225	-12.621	-14.263	-7.656	182.026	199.464	-9.151	-3.840	-3.024	1.806	114.167	-0.010	-8191	255	
737.563	1	1	0	0	0.21747	0.073109	0.060899	0.1647	0.028233	0.063269	0.16931	0.04119	0.015189	0.072886	0.29411	0.20233	0.22719	0.08612	0.2972	0.13248	-2.2708	-3.1917	-3.05	-3.0521	-3.1208	-3.0167	-3.1333	-3.0687	-2.9354	-3.1667	-3.1917	-2.9062	-3.1458	-3	-2.85	-3.2167	9.481	35.988	99.346	24.344	195.687	48.622	215.453	248.511	173.858	326.823	236.320	320.669	6.263	226.805	18.151	167.761	0.00084647	0.00095545	0.00010854	514.96	4.0457e-06	1.9052e-06	623.86	191.43	6.3695e-06	4.489e-06	286.02	118.82	68.619	30.714	8.1226e-06	63.918	0.0011292	0.0011916	0.00033145	512.42	1.2543e-05	1.3131e-05	617.63	190.8	1.2925e-05	1.2992e-05	285.88	119.01	69.468	31.031	1.3293e-05	64.302	-25.406	49.334	68.417	-13.332	175.037	128.026	-13.878	-7.713	128.523	86.656	-8.958	-3.893	-2.876	1.645	141.434	-0.202	-8191	255	
737.659	1	1	0	0	0.046226	0.12225	0.080577	0.21197	0.13881	0.21145	0.15287	0.21966	0.33517	0.16657	0.17341	0.33551	0.23022	0.092116	0.20825	0.224	-2.5	-3.0792	-2.9458	-2.8792	-2.9562	-2.9479	-2.8917	-2.9813	-2.7062	-3.0375	-3.0417	-2.6521	-3.0979	-2.975	-2.8375	-3.275	240.316	16.843	256.389	35.789	326.895	269.083	219.288	307.721	255.458	-11.712	66.720	260.456	0.684	236.221	299.308	257.445	0.00078026	0.00038654	0.00013698	515.69	6.8437e-06	3.3709e-06	618.27	190.29	5.8922e-06	4.3689e-06	281.69	117.06	67.553	30.32	3.6798e-06	62.822	0.0011209	0.0012032	0.00033705	513.83	1.2624e-05	1.3327e-05	614.68	189.51	1.2773e-05	1.3291e-05	281.43	117.01	68.568	30.545	1.3074e-05	63.056	330.571	92.525	70.126	-13.493	104.737	118.836	-13.968	-7.255	109.293	99.746	-9.256	-3.920	-2.789	1.450	152.139	-0.219	-8191	255	
737.756	1	1	0	0	0.24506	0.066293	0.22376	0.049596	0.11756	0.16111	0.19163	0.036009	0.10834	0.1058	0.094419	0.1956	0.23125	0.24548	0.01055	0.15263	-2.3625	-3.0563	-2.9604	-3.0354	-3.1104	-2.9833	-2.9042	-3.1958	-2.8604	-2.8896	-3.0792	-2.8667	-3.1667	-3.0396	-2.7083	-3.3021	173.851	212.467	215.761	260.511	208.569	54.238	324.908	240.893	238.834	184.512	6.514	301.246	269.331	21.197	243.652	223.930	0.0008672	0.00063933	0.00021048	512.68	5.6136e-06	4.4826e-06	613.79	188.34	5.0104e-06	5.2658e-06	278.8	115.77	67.837	30.102	1.0399e-05	62.26	0.0010836	0.0011854	0.00033822	508.3	1.2309e-05	1.3104e-05	608.81	188.44	1.2298e-05	1.3159e-05	278.66	115.83	68.361	30.349	1.2964e-05	62.305	-23.657	60.992	94.384	-13.588	97.408	111.205	-13.910	-7.838	68.108	115.377	-9.193	-3.885	-3.263	1.782	126.634	-0.121	-8191	255	
737.852	1	1	0	0	0.13933	0.18377	0.05909	0.082902	0.094399	0.12161	0.14816	0.03117	0.12309	0.12046	0.071758	0.031652	0.24247	0.23749	0.14686	0.14223	-2.2313	-2.9208	-2.9875	-3.0229	-3.1188	-2.9854	-2.8292	-3.1708	-2.8021	-2.9562	-3.1833	-2.9354	-3.0042	-3.1375	-2.8771	-3.2313	9.244	-20.217	23.557	3.260	143.074	7.035	22.195	290.930	171.547	298.130	321.963	159.453	243.814	258.349	208.860	311.037	0.00087254	0.0002899	0.00015057	508.02	7.1363e-06	6.0357e-06	617.25	189.68	1.1762e-05	3.228e-06	278.24	116.13	67.908	30.137	7.486e-06	62.168	0.0010741	0.0011918	0.00033172	507.39	1.217e-05	1.3207e-05	609.88	188.4	1.239e-05	1.3504e-05	279.74	116.46	68.528	30.475	1.2969e-05	62.548	-21.655	88.487	50.489	-13.472	120.549	113.899	-14.033	-7.855	148.362	116.854	-9.131	-4.025	-2.708	1.542	136.065	-0.077	-8191	255	
737.948	1	1	0	0	0.23708	0.01981	0.27546	0.15535	0.16983	0.064834	0.10279	0.14938	0.22133	0.20827	0.25036	0.19841	0.11152	0.087918	0.14101	0.13611	-2.4208	-2.9688	-3.1437	-2.9938	-2.9958	-3.1896	-2.9021	-3.2125	-2.9313	-2.9188	-3.1833	-3.1042	-3.0625	-3.0854	-2.9208	-3.3271	327.495	136.379	204.640	-4.636	214.601	111.518	239.204	326.565	143.762	185.541	250.124	255.981	180.983	218.666	54.345	316.210	0.00072083	0.0006307	0.0001486	514.13	7.4192e-06	6.642e-06	617.2	189.7	6.9696e-06	7.0948e-06	283.16	116.73	67.768	30.391	9.2048e-06	62.535	0.0010804	0.0012199	0.00033167	509.99	1.2303e-05	1.2966e-05	612.13	189.26	1.2374e-05	1.3538e-05	281.89	116.9	68.733	30.67	1.2997e-05	62.911	-16.730	53.449	98.905	-13.377	119.478	173.600	-14.006	-7.768	152.279	107.085	-8.996	-3.897	-2.809	1.219	146.197	-0.229	-8191	255	
738.044	1	1	0	0	0.25852	0.16993	0.074341	0.13825	0.21816	0.18789	0.12559	0.076417	0.36906	0.15033	0.11443	0.22466	0.063191	0.16942	0.19694	0.22277	-2.5354	-2.8021	-3.0729	-2.8604	-2.9125	-2.9667	-3.0292	-3.0792	-2.9979	-2.9979	-3.1604	-2.9229	-2.9604	-3.1917	-2.9313	-3.1958	186.332	237.416	5.090	202.149	102.617	6.337	233.450	314.011	31.597	212.027	229.249	190.685	1.296	312.856	107.785	248.449	0.00083155	0.00058435	0.00018998	517.29	4.1109e-06	7.1711e-06	624.03	190.9	6.1503e-06	5.2795e-06	282.66	117.55	68.815	30.684	3.9077e-06	63.18	0.0010694	0.0011994	0.00032637	513.63	1.2263e-05	1.3228e-05	617.83	190.45	1.2675e-05	1.3454e-05	283.44	117.87	69.531	30.891	1.284e-05	63.571	326.752	39.246	60.345	-13.500	107.214	116.700	-13.733	-7.502	141.230	101.714	-8.866	-3.747	-2.973	1.556	83.532	-0.065	-8191	255	
738.140	1	1	0	0	0.23635	0.0535	0.10556	0.069	0.19667	0.29592	0.076199	0.14014	0.2354	0.14824	0.20765	0.17308	0.14382	0.28935	0.23074	0.097604	-2.6083	-2.8333	-3.1562	-3.0104	-2.8063	-3.0229	-2.8688	-3.2958	-3.1125	-2.9333	-3.125	-2.9917	-2.8375	-3.2333	-2.9583	-3.0583	315.554	252.824	-11.142	248.068	90.088	218.018	200.195	271.812	-14.711	227.279	35.385	-20.695	139.782	257.532	31.734	188.028	0.00098297	0.00037401	0.00010991	521.36	2.394e-06	4.2404e-06	627.14	191.92	9.1009e-06	3.7651e-06	283	118.09	69.391	30.708	8.1761e-06	63.505	0.0010757	0.0012117	0.0003259	517.69	1.2815e-05	1.3264e-05	621.44	191.36	1.2599e-05	1.3516e-05	284.57	118.42	69.708	30.941	1.2832e-05	63.878	333.642	89.002	34.876	-13.371	103.028	162.630	-13.799	-7.661	131.664	120.591	-9.099	-4.143	-2.826	1.899	150.355	-0.486	-8191	255	
738.259	1	1	0	0	0.15215	0.16351	0.38643	0.055981	0.056333	0.17951	0.10811	0.098819	0.13246	0.10885	0.017713	0.15326	0.20713	0.31668	0.070593	0.12712	-2.6375	-2.775	-3.0062	-3.1771	-3.0521	-3.0625	-2.9667	-3.0604	-3.05	-2.7479	-3.1854	-3.1917	-2.9792	-3.1437	-2.8479	-3.1125	48.485	333.988	61.555	303.274	-12.410	17.122	331.970	-20.408	61.507	10.236	326.972	268.766	88.043	38.053	164.531	97.255	0.00076283	0.00047728	3.8076e-05	520.52	2.1568e-06	5.6803e-06	631.61	192.37	1.2664e-05	5.4891e-06	287.41	119.06	69.31	30.807	9.5545e-07	63.998	0.0011022	0.0012275	0.00032834	518.61	1.2954e-05	1.3442e-05	624.97	191.75	1.2771e-05	1.3711e-05	285.86	118.87	69.948	31.119	1.3018e-05	64.285	-23.667	48.549	290.529	-13.393	147.174	111.997	-14.130	-7.697	135.812	103.202	-9.041	-3.986	-3.017	1.736	263.834	-0.224	-8191	255	
738.355	1	1	0	0	0.091316	0.057671	0.051553	0.28025	0.10576	0.19884	0.19275	0.046025	0.22443	0.12878	0.098074	0.093479	0.055358	0.3042	0.15389	0.37576	-2.6667	-2.7687	-3.0042	-2.9188	-2.8063	-3.1604	-3.0208	-2.975	-3.0146	-2.9958	-3.0792	-3.1312	-3.0146	-3.1625	-2.8021	-3.0625	89.308	274.884	136.121	264.145	311.583	147.929	207.300	6.970	86.235	23.557	25.344	183.216	70.622	24.190	204.153	151.099	0.00078358	0.00076599	0.00013857	517.15	9.2517e-06	6.3184e-06	624.76	190.74	3.667e-06	6.5736e-06	282.35	117.38	68.552	30.33	6.111e-06	62.499	0.0011206	0.0012273	0.00033821	515.77	1.2983e-05	1.3265e-05	619.8	190.93	1.2744e-05	1.3483e-05	282.05	117.14	68.973	30.71	1.2928e-05	62.823	334.194	83.907	69.494	-13.726	88.608	125.886	-13.757	-7.594	47.321	112.101	-9.072	-3.913	-3.086	1.546	137.378	-0.625	-8191	255	
738.451	1	1	0	0	0.018383	0.17685	0.0079972	0.21057	0.12686	0.078858	0.12119	0.059861	0.010049	0.28891	0.093996	0.24412	0.08969	0.14504	0.065468	0.1867	-2.6333	-2.9875	-3.15	-3.1021	-2.9896	-3.1021	-2.9042	-2.8833	-3.0875	-2.9313	-3.1188	-3.1167	-2.8375	-3.175	-3.1521	-3.1021	-25.612	223.145	21.915	320.014	233.001	280.172	-22.702	226.967	71.272	266.843	275.565	246.424	163.510	320.324	91.205	224.532	0.00069036	0.00062198	0.00020102	513.61	6.8409e-06	8.0358e-06	614.63	189.08	9.9388e-06	2.0784e-06	277.03	115.09	67.118	30.099	8.5653e-06	61.288	0.0011202	0.0012304	0.00033981	511.04	1.3224e-05	1.3138e-05	610.53	188.8	1.262e-05	1.316e-05	277.23	115.17	68.037	30.339	1.2595e-05	61.7	332.516	42.366	35.884	-13.470	164.034	107.654	-14.115	-7.771	148.728	91.656	-8.973	-3.711	-2.715	1.768	151.598	-0.258	-8191	255	
738.547	1	1	0	0	0.031745	0.1662	0.051158	0.25416	0.081017	0.2358	0.39009	0.13788	0.21511	0.30084	0.20674	0.36412	0.12566	0.082032	0.24062	0.1898	-2.7396	-2.85	-2.9833	-2.9979	-2.8312	-3.1646	-3.2083	-3.0146	-3.2167	-3	-3.0417	-3.2375	-2.8875	-2.9583	-3.0167	-3.0625	80.640	20.666	13.517	268.712	62.088	-13.263	306.445	224.806	248.355	239.864	296.568	313.669	240.201	53.382	46.928	279.250	0.00067518	0.00068395	5.711e-05	510.47	5.7744e-06	8.6667e-06	614.57	188.58	6.86e-06	4.7596e-06	277.69	114.76	67.034	29.912	5.4991e-06	61.562	0.0010916	0.0012067	0.00033519	507.58	1.3034e-05	1.3486e-05	608.41	187.83	1.2676e-05	1.3219e-05	276.66	114.6	67.804	30.186	1.3052e-05	61.697	324.664	103.169	131.348	-13.391	152.331	123.084	-13.989	-7.484	144.351	139.928	-9.126	-3.986	-3.047	1.614	121.961	-0.323	-8191	255	
738.668	1	1	0	0	0.28371	0.083035	0.31269	0.04903	0.14807	0.073804	0.10016	0.115	0.12355	0.20407	0.03353	0.011179	0.19667	0.16802	0.21599	0.3119	-2.6729	-2.7979	-2.7958	-3.3667	-2.8708	-2.9813	-3.1458	-2.8125	-3.0167	-3	-3.0438	-2.9854	-2.9417	-3.0896	-2.8625	-2.7042	54.345	106.239	86.451	12.198	108.900	77.647	23.993	183.449	-0.135	47.515	230.110	170.422	297.425	148.675	-14.304	277.571	0.00079238	0.00045851	0.00017196	510.79	7.2474e-06	4.2002e-06	616.28	188.65	4.8508e-06	4.0443e-06	278.54	115.33	67.642	30.125	7.1897e-06	62.181	0.0010978	0.0011887	0.00033886	507.99	1.2654e-05	1.3259e-05	610.59	188.54	1.2685e-05	1.3378e-05	279.45	115.74	68.449	30.469	1.2721e-05	62.431	-14.215	42.958	70.023	-13.819	152.023	77.733	-14.033	-7.623	128.149	114.916	-8.973	-4.197	-2.557	1.588	124.560	-0.062	-8191	255	
738.740	1	1	0	0	0.065392	0.22684	0.12506	0.16182	0.18865	0.12264	0.13066	0.044043	0.17542	0.14583	0.14016	0.2844	0.35712	0.21209	0.21331	0.056566	-2.7771	-2.8417	-2.8396	-3.2375	-2.9021	-3.1104	-2.9479	-2.6646	-3.0312	-3.0104	-2.9667	-3.1396	-2.9417	-3.0083	-3.1833	-2.9708	171.049	261.796	6.983	-13.207	43.349	200.329	266.973	5.956	160.644	93.041	76.664	334.172	97.333	299.283	129.960	249.101	0.00074483	0.00055425	6.0809e-05	513.11	7.3057e-06	1.5782e-06	615.07	189.6	4.528e-06	2.9666e-06	279.68	115.3	67.196	30.098	6.675e-06	62.115	0.0010887	0.0011822	0.00033668	510.44	1.2407e-05	1.3383e-05	611.38	188.67	1.2822e-05	1.3548e-05	279.18	115.42	68.138	30.421	1.3176e-05	62.237	331.270	42.983	87.613	-13.456	137.938	180.287	-13.756	-7.511	62.236	137.915	-9.271	-3.438	-3.042	2.081	158.505	-0.082	-8191	255	
738.860	1	1	0	0	0.19292	0.17002	0.19137	0.20004	0.12524	0.10886	0.094189	0.19579	0.42156	0.13561	0.32457	0.07546	0.17818	0.26859	0.19532	0.17979	-2.6063	-2.9896	-2.8917	-3.2042	-3.0271	-2.9604	-3.25	-2.9625	-3.0896	-2.9771	-2.8979	-3.0271	-2.9688	-2.9542	-3.2625	-3.025	324.237	34.887	49.549	237.812	189.279	222.098	213.442	103.925	81.612	266.518	270.308	321.429	-1.234	304.822	-10.825	189.828	0.00077792	0.00049196	0.00010087	515.36	4.4986e-06	4.7043e-06	619.75	189.83	5.6388e-06	4.732e-06	280.2	115.48	67.642	30.027	5.7058e-06	62.009	0.001102	0.0012251	0.00034653	512.84	1.266e-05	1.36e-05	614.78	189.46	1.2822e-05	1.3584e-05	280.33	115.69	68.385	30.445	1.3177e-05	62.328	324.672	74.269	81.991	-13.355	91.106	131.467	-14.208	-7.546	129.390	98.391	-9.134	-3.787	-2.726	1.838	110.677	-0.251	-8191	255	
738.957	1	1	0	0	0.23127	0.14667	0.27726	0.042528	0.064508	0.34266	0.10771	0.069796	0.22725	0.15142	0.022433	0.17666	0.24476	0.072913	0.11055	0.38926	-2.7167	-2.9813	-2.7792	-3.2396	-2.9583	-3.1188	-3.0292	-2.9562	-3.0042	-2.9854	-2.9333	-3.1312	-2.9854	-2.9271	-3.3146	-2.8563	219.484	281.065	102.864	137.613	226.031	38.989	123.682	-9.057	-16.426	152.176	231.304	323.997	320.339	89.150	136.741	237.244	0.00083106	0.00054117	0.00010526	514.94	1.0063e-05	8.1166e-06	625.17	190.88	1.3816e-06	2.9884e-06	283.83	116.49	67.696	30.01	6.258e-06	61.909	0.0011261	0.001235	0.0003488	512.43	1.2649e-05	1.393e-05	619.47	190.47	1.2881e-05	1.3322e-05	282.75	116.33	68.291	30.297	1.3109e-05	61.933	325.880	62.105	102.338	-13.784	84.031	115.815	-14.016	-7.318	70.478	15.416	-9.022	-3.703	-3.010	1.752	178.740	-0.083	-8191	255	
739.051	1	1	0	0	0.12514	0.17529	0.096542	0.06621	0.09008	0.25221	0.15167	0.14199	0.22437	0.27646	0.2367	0.3092	0.13683	0.13343	0.097499	0.0089558	-2.5104	-2.9875	-2.8521	-3.1125	-2.9729	-3.0062	-3.1667	-2.8292	-2.9437	-3.0187	-2.7958	-3.0687	-3.1458	-2.9729	-3.0292	-3.0104	133.938	38.762	72.645	200.269	180.467	295.346	206.307	24.438	328.252	44.353	290.928	214.903	298.101	26.399	55.230	226.145	0.00084843	0.00053753	0.00012455	508.83	3.6717e-06	3.8571e-06	613.42	187.68	9.7616e-06	2.3413e-06	275.36	112.29	66.419	29.433	5.5112e-06	60.031	0.0011195	0.0012391	0.00034193	507.44	1.2643e-05	1.407e-05	607.27	187.05	1.2886e-05	1.3705e-05	275	112.87	66.98	29.71	1.2899e-05	60.32	-18.779	47.183	69.732	-13.453	100.270	122.428	-13.926	-7.697	167.472	107.315	-9.074	-3.926	-3.105	1.604	219.185	-0.171	-8191	255	
739.147	1	1	0	0	0.075997	0.078389	0.1557	0.20897	0.07244	0.20686	0.2723	0.031431	0.14617	0.15772	0.050706	0.1129	0.26177	0.11054	0.16859	0.20786	-2.6104	-3.0875	-2.8229	-2.9625	-2.9521	-2.7938	-3.1354	-2.95	-2.8312	-3.1	-2.975	-3.1042	-3.0229	-2.8958	-3.1792	-3.075	180.030	138.651	294.905	294.818	71.186	304.302	265.066	231.458	233.381	129.575	133.367	262.096	65.773	201.731	-3.142	291.541	0.00082798	0.00010247	7.3028e-05	508.16	6.8096e-06	1.329e-06	606.01	187.28	1.2162e-05	4.2023e-06	275.32	111.98	66.403	29.452	4.9633e-06	60.08	0.0011077	0.0012135	0.00033988	503.84	1.2531e-05	1.3866e-05	601.31	186.28	1.2994e-05	1.3112e-05	274.12	112.35	66.908	29.714	1.2649e-05	60.325	327.236	-0.173	86.840	-13.653	132.222	153.091	-13.920	-7.508	121.114	80.464	-8.914	-3.786	-3.003	1.550	167.807	0.122	-8191	255	
739.268	1	1	0	0	0.2239	0.087975	0.2435	0.10175	0.3458	0.101	0.073685	0.16774	0.031895	0.15657	0.25988	0.13051	0.11063	0.26644	0.15157	0.12084	-2.5438	-3.1729	-2.8083	-3.2354	-2.9229	-2.7104	-3.3333	-2.9979	-2.9188	-3.2083	-2.9125	-3.1083	-3.1333	-2.8917	-3.0625	-3.0208	116.081	44.990	281.587	34.047	129.999	91.671	29.928	163.372	15.351	161.409	302.149	95.202	41.194	317.006	37.992	79.104	0.00086402	0.00040182	0.00018265	508.75	6.3001e-06	6.6212e-06	604.57	186.53	8.1843e-06	5.9613e-06	274.27	112.99	66.308	29.565	4.5561e-06	60.613	0.0011239	0.0011934	0.00033664	505.26	1.2799e-05	1.3686e-05	601.8	186.08	1.3179e-05	1.3491e-05	274.23	112.6	66.947	29.801	1.2892e-05	60.758	328.843	72.356	64.755	-13.486	114.261	87.691	-13.949	-7.533	132.479	119.844	-8.848	-3.883	-3.054	1.615	131.910	-0.121	-8191	255	
739.339	1	1	0	0	0.19818	0.16212	0.19868	0.33805	0.16604	0.031523	0.058132	0.099259	0.10007	0.16809	0.33043	0.25996	0.10046	0.42443	0.35018	0.1382	-2.2167	-2.9604	-2.8854	-2.8021	-3.1188	-2.8146	-3.1188	-3.0958	-2.6417	-3.0125	-2.7479	-3.0104	-3.1437	-2.7417	-3.0979	-3.1146	45.696	9.280	63.511	-15.097	333.999	0.573	188.912	299.339	168.094	100.654	265.757	59.559	-5.221	273.545	170.777	60.742	0.0007764	9.1927e-05	0.0001528	507.77	4.1998e-06	4.5664e-06	612.45	187.15	9.3933e-06	3.7765e-06	275.28	113.07	67.017	29.775	1.9537e-06	60.617	0.001115	0.0011936	0.00033103	505.98	1.2746e-05	1.337e-05	605.15	186.51	1.3241e-05	1.3012e-05	275.64	113.43	67.452	29.915	1.2886e-05	61.022	326.958	43.238	51.457	-13.562	112.582	107.218	-14.105	-7.728	160.916	72.284	-9.411	-4.038	-3.109	1.788	158.147	0.033	-8191	255	
739.436	1	1	0	0	0.1768	0.14613	0.15328	0.044804	0.20939	0.26784	0.13767	0.26528	0.031821	0.16772	0.25428	0.14349	0.068842	0.23618	0.10292	0.22099	-2.3667	-3.2	-2.9417	-2.7167	-3.0521	-2.9125	-3.1333	-3.0583	-2.8604	-2.9688	-3	-3.0208	-3.0396	-2.7479	-3.1229	-3.1667	47.927	5.731	315.289	161.691	268.079	243.306	16.888	-20.827	236.677	146.628	275.927	211.523	331.493	213.366	285.517	144.633	0.00076389	0.00072767	0.00011845	508.86	6.4489e-06	6.5061e-06	613.51	188.1	8.2925e-06	5.6481e-06	277.73	113.95	66.928	29.832	2.9188e-06	61.034	0.0011234	0.0011897	0.00033056	507.81	1.2418e-05	1.3389e-05	609.29	187.32	1.2745e-05	1.2876e-05	277.84	114.14	67.724	30.128	1.2811e-05	61.255	332.976	20.600	88.503	-13.337	138.579	81.307	-14.155	-7.282	155.920	107.766	-9.276	-3.799	-3.130	1.736	143.287	-0.056	-8191	255	
739.532	1	1	0	0	0.10811	0.18128	0.1181	0.31487	0.18176	0.11124	0.24105	0.031093	0.18892	0.074067	0.1467	0.19758	0.071464	0.055902	0.12018	0.28741	-2.4458	-3.1167	-2.9	-3.1333	-3.2854	-3.175	-3.0854	-3.1146	-2.8708	-3.2062	-3.0958	-2.9667	-3.1688	-2.85	-3.1188	-3.1771	201.103	-2.978	76.514	268.208	69.061	281.670	309.022	282.689	70.129	39.653	238.668	326.990	-9.986	248.358	120.483	244.108	0.00071515	0.0002449	0.00017237	509.52	6.0666e-06	3.3086e-06	612.35	186.61	6.1784e-07	6.5152e-06	275.17	112.87	66.015	29.607	6.9026e-06	60.384	0.0010946	0.0011885	0.00033217	509.12	1.2356e-05	1.3343e-05	607.53	186.28	1.2929e-05	1.3168e-05	273.99	112.89	66.822	29.779	1.298e-05	60.665	322.760	100.428	68.482	-13.446	164.998	191.476	-13.883	-7.538	8.100	112.567	-9.174	-3.528	-3.071	1.915	145.024	-0.162	-8191	255	
739.628	1	1	0	0	0.18396	0.068434	0.093575	0.27661	0.26902	0.1573	0.036324	0.052238	0.44067	0.23244	0.17033	0.10341	0.27029	0.31774	0.070252	0.36832	-2.4542	-3.1271	-2.9125	-2.9167	-3.1604	-2.9708	-2.9396	-3.2313	-2.7875	-3.1375	-3.0458	-2.95	-3.2521	-2.7792	-2.9458	-3.0958	63.494	58.954	200.667	250.040	275.850	262.759	-14.437	74.313	42.766	175.981	318.504	291.247	159.245	-3.287	24.005	324.272	0.00066372	0.0003581	0.00020127	509.99	5.2997e-06	3.0041e-06	613.84	185.58	6.602e-06	1.1426e-06	269.44	110.74	65.274	29.076	5.1433e-06	58.748	0.0010925	0.0012091	0.00033591	509.39	1.2531e-05	1.3211e-05	606.23	185.2	1.2913e-05	1.3334e-05	270.55	111.03	65.9	29.393	1.3492e-05	59.297	-24.885	91.280	66.867	-13.123	131.559	98.999	-13.810	-7.548	98.810	115.535	-8.804	-3.908	-3.102	1.844	79.157	-0.292	-8191	255	
739.748	1	1	0	0	0.31549	0.22587	0.15905	0.14696	0.096974	0.29247	0.094071	0.26171	0.29397	0.14002	0.064034	0.12798	0.11416	0.28412	0.20393	0.2403	-2.5083	-2.9896	-2.9583	-2.8	-2.9208	-2.7958	-2.9104	-3.1958	-2.8646	-3.1188	-2.9667	-2.9354	-3.0875	-3.0125	-2.6771	-3.0396	169.565	111.434	211.061	2.532	289.929	235.786	31.059	298.351	237.883	39.723	204.565	304.910	223.506	33.102	38.004	34.530	0.00082724	0.00048433	0.00013594	505.71	9.5889e-06	9.317e-06	602.83	183.12	4.6801e-06	2.9778e-06	264.98	108.42	64.092	28.571	9.7897e-06	57.546	0.0011117	0.0012205	0.0003414	504.46	1.2847e-05	1.3505e-05	597.11	182.46	1.3e-05	1.3855e-05	265.09	108.52	64.721	28.911	1.3785e-05	58.009	329.902	66.768	65.689	-13.491	68.492	103.628	-13.968	-7.839	138.907	85.305	-9.188	-3.974	-2.880	1.906	125.276	-0.086	-8191	255	
739.845	1	1	0	0	0.231	0.33534	0.20236	0.19292	0.077839	0.20797	0.11857	0.01494	0.13225	0.17583	0.10947	0.043628	0.061059	0.22182	0.09329	0.12295	-2.375	-2.9229	-2.9188	-2.8646	-3.025	-2.9938	-2.8583	-3.1417	-2.9542	-3.0875	-3.1583	-2.9729	-3.1792	-3.1646	-2.9333	-3.3312	285.723	325.017	82.395	185.746	181.284	171.784	66.347	196.683	63.178	203.515	23.451	17.071	253.964	-3.527	18.616	52.292	0.00085303	0.00055176	7.0429e-05	500.85	6.4045e-06	4.0546e-06	598.58	181.72	9.7724e-06	1.8292e-06	264.74	108.1	63.958	28.562	6.8716e-06	57.893	0.0011155	0.0012364	0.00034309	499.45	1.2917e-05	1.3926e-05	591.35	181.49	1.3161e-05	1.3791e-05	264.95	108.02	64.798	28.911	1.3866e-05	58.12	332.333	100.313	-8.686	-13.401	133.489	110.306	-14.063	-7.444	137.820	138.191	-9.089	-3.744	-2.786	2.007	154.756	-0.086	-8191	255	
739.941	1	1	0	0	0.044128	0.27011	0.15401	0.027345	0.18668	0.28335	0.17709	0.079976	0.026433	0.10683	0.19143	0.23333	0.14876	0.16665	0.082976	0.2769	-2.4437	-2.9938	-3.1437	-3.0021	-3.0708	-2.9667	-2.8104	-3.0833	-2.9167	-2.9104	-3.2604	-2.9854	-2.9562	-3.1729	-2.9396	-3.1792	98.476	143.239	290.822	238.120	159.646	291.242	192.061	111.673	106.232	70.432	325.569	296.259	180.376	311.820	1.352	314.496	0.00068693	0.00036347	8.7092e-05	501.92	6.2554e-06	4.2484e-06	597.26	181.46	5.7574e-06	3.2366e-06	266.41	108.3	64.495	28.641	8.583e-06	58.394	0.0011242	0.0012634	0.00034732	500.25	1.327e-05	1.3726e-05	591.51	181.58	1.2987e-05	1.422e-05	265.59	108.74	65.213	29.082	1.3462e-05	58.566	324.289	134.833	114.383	-13.470	106.821	111.917	-13.871	-7.517	157.412	49.642	-9.069	-3.736	-2.920	1.936	164.168	-0.024	-8191	255	
740.037	1	1	0	0	0.18196	0.25152	0.096632	0.17611	0.18584	0.20812	0.18324	0.043978	0.23199	0.19336	0.15195	0.17788	0.15303	0.17147	0.26304	0.17518	-2.5542	-2.9479	-3.1833	-2.7792	-3.1479	-3.2542	-2.8333	-3.225	-3.0292	-2.8833	-3.5042	-3.0458	-2.8917	-3.2771	-3.0021	-3.15	154.417	163.644	207.744	264.068	150.533	219.553	93.394	246.838	102.250	113.906	63.360	250.311	305.810	240.541	192.512	94.372	0.000661	0.00038247	6.3668e-05	505.7	9.588e-06	4.5506e-06	599.13	182.67	1.237e-05	4.4499e-06	265.25	109.42	64.357	28.864	7.9729e-06	58.3	0.0011199	0.0012901	0.00035135	502.45	1.3365e-05	1.4008e-05	592.9	182.1	1.3261e-05	1.4306e-05	265.64	109.36	65.427	29.239	1.3859e-05	58.921	-24.002	91.352	85.577	-13.773	181.321	213.324	-14.079	-7.639	141.412	112.549	-9.268	-4.054	-2.700	1.985	169.125	0.078	-8191	255	
740.131	1	1	0	0	0.15982	0.26465	0.07005	0.12994	0.12604	0.11858	0.29756	0.072101	0.21247	0.36431	0.052373	0.22825	0.15158	0.14354	0.22078	0.17208	-2.5292	-2.9583	-3.1229	-3.0062	-2.8396	-3.1688	-3.0042	-3.2562	-3.0896	-2.8167	-3.0604	-3.0604	-2.8937	-3.2083	-2.6917	-3.1458	79.187	163.139	55.966	246.774	81.351	52.470	321.199	143.532	322.273	169.549	166.009	18.159	126.737	327.744	2.293	252.162	0.00069478	0.00034623	0.00014522	503.08	6.2288e-06	2.9963e-06	598.48	182.11	9.5834e-06	2.71e-06	266.03	108.71	64.594	29.02	5.4429e-06	59.094	0.0011216	0.0012951	0.00034692	502.72	1.3324e-05	1.4118e-05	593.98	181.83	1.3291e-05	1.4216e-05	266.05	109.21	65.457	29.337	1.3963e-05	59.353	-23.418	25.914	86.153	-13.457	100.810	144.935	-14.075	-7.520	162.957	68.227	-9.383	-3.843	-2.976	1.619	97.524	0.394	-8191	255	
740.229	1	1	0	0	0.10903	0.066867	0.16961	0.03263	0.16664	0.015394	0.063512	0.12351	0.21851	0.13258	0.063805	0.26887	0.18279	0.34653	0.15393	0.37488	-2.4354	-2.7562	-3.2979	-2.9813	-3.1021	-3.0292	-2.8479	-2.9708	-3.1521	-2.9396	-3.1542	-2.9521	-2.8833	-3.1375	-3.0208	-3.0917	101.761	322.862	80.542	265.475	136.176	263.570	63.473	273.757	265.123	118.961	303.842	264.219	73.549	271.239	285.828	329.703	0.00069118	0.00024827	0.00022121	506.3	8.2167e-06	4.0892e-06	602.64	183.12	4.8362e-06	4.5813e-06	267.14	109.75	64.469	29.11	5.2517e-06	59.425	0.001145	0.0012679	0.0003515	505.3	1.3619e-05	1.4012e-05	598.66	182.69	1.3276e-05	1.4332e-05	268.13	110.31	65.777	29.497	1.368e-05	59.752	-17.179	91.957	50.643	-13.545	118.277	111.504	-14.165	-7.613	148.163	190.004	-8.553	-3.633	-2.856	1.954	176.516	-0.007	-8191	255	
740.348	1	1	0	0	0.046214	0.15999	0.14188	0.23672	0.092566	0.13837	0.1788	0.1492	0.09312	0.1753	0.29215	0.10012	0.1811	0.25585	0.1158	0.20307	-2.6417	-2.7646	-2.9958	-2.9979	-2.8521	-3.175	-3.0375	-2.9854	-3.025	-2.8146	-3.0333	-3.0062	-2.8625	-3.0958	-2.8438	-3.0208	6.619	-0.991	209.535	231.242	282.854	94.675	165.931	155.127	37.507	297.271	251.257	298.358	311.329	311.591	200.407	167.377	0.00076179	0.00059967	0.00020402	506.15	8.4232e-06	4.6912e-06	598.47	182.43	3.5101e-06	3.8103e-06	266.17	108.88	64.447	28.86	9.7209e-06	57.979	0.0011401	0.0012595	0.00034797	504.92	1.3442e-05	1.3716e-05	593.95	182.51	1.3317e-05	1.4165e-05	265.74	108.97	65.234	29.212	1.3403e-05	58.495	321.852	52.092	69.383	-13.792	131.131	113.234	-14.074	-7.411	142.360	114.608	-9.125	-3.794	-2.650	1.971	148.286	-0.253	-8191	255	
740.444	1	1	0	0	0.092678	0.12375	0.10118	0.12906	0.051958	0.12705	0.19539	0.29803	0.18457	0.0669	0.15266	0.16692	0.32292	0.19356	0.12055	0.1674	-2.5792	-2.7458	-3.1583	-3.2354	-3.0375	-3.2458	-3.0625	-3.0417	-2.9875	-2.875	-3.0229	-3.1688	-2.95	-3.15	-2.9313	-3.1312	294.345	152.194	30.455	-20.995	166.970	48.218	212.345	75.328	196.894	-13.615	149.119	45.285	306.553	327.839	143.419	28.243	0.00065682	0.00065836	8.7701e-05	498.89	5.8061e-06	2.5285e-06	590.12	180.01	6.5552e-06	1.5365e-06	261.65	106.74	63.602	28.473	5.299e-06	57.302	0.0011163	0.001242	0.00033906	499.2	1.3179e-05	1.375e-05	585.99	180.35	1.3186e-05	1.3934e-05	261.23	107.21	64.506	28.865	1.3513e-05	57.735	331.535	29.796	60.975	-13.590	162.766	24.663	-13.789	-7.519	124.098	85.529	-8.852	-3.911	-3.033	1.822	168.647	-0.115	-8191	255	
740.540	1	1	0	0	0.040203	0.24312	0.031773	0.079512	0.086471	0.18259	0.17173	0.14302	0.16751	0.24374	0.15259	0.35056	0.16508	0.10943	0.27094	0.091287	-2.7208	-2.7917	-2.9271	-3.0792	-3.0312	-3.0563	-2.8	-2.7875	-3.0479	-2.9375	-3.0938	-3.1417	-2.7583	-3.1604	-2.9833	-2.8667	106.231	279.964	129.803	210.131	226.739	272.633	282.083	106.573	-0.335	256.221	-20.380	-0.189	180.523	31.740	172.234	238.133	0.00074499	0.00062331	0.00011492	500.56	9.7086e-06	3.9084e-06	592.51	181.18	8.5837e-07	4.6524e-06	262.17	107.32	63.796	28.585	7.7495e-06	57.386	0.0011219	0.0012681	0.00035375	499.04	1.3156e-05	1.3864e-05	587.78	181.09	1.2744e-05	1.3706e-05	262.15	107.38	64.66	28.973	1.3083e-05	57.882	-22.749	36.600	26.799	-13.464	125.286	105.998	-14.113	-7.601	115.367	161.376	-9.180	-3.818	-2.923	1.903	172.035	-0.251	-8191	255	
740.637	1	1	0	0	0.11418	0.10833	0.17791	0.20562	0.12735	0.33806	0.24379	0.22372	0.17189	0.33646	0.14866	0.1471	0.3308	0.15241	0.15048	0.15816	-2.7875	-2.9938	-3.1063	-2.9688	-2.8917	-3.1146	-2.9917	-2.8063	-3.1	-3.0062	-3.0021	-3.2812	-2.8417	-3.1937	-3.1021	-3.025	257.155	271.629	208.851	-9.215	171.561	260.969	253.360	217.267	184.625	47.322	-23.766	242.644	205.610	241.644	184.900	264.337	0.00075072	0.00034924	0.00010276	503.31	9.3494e-06	5.147e-06	594.97	183.43	7.4273e-06	2.6248e-06	265.73	109.34	64.84	29.075	5.2069e-06	58.455	0.0010895	0.0012219	0.00034579	501.3	1.2927e-05	1.3711e-05	591.53	182.98	1.2704e-05	1.3515e-05	266.4	109.42	65.636	29.36	1.3025e-05	58.73	334.399	56.903	59.583	-13.480	92.203	174.981	-13.911	-7.585	131.874	74.157	-9.040	-3.962	-2.751	1.722	59.132	-0.007	-8191	255	
740.733	1	1	0	0	0.12884	0.17634	0.03113	0.15249	0.12937	0.098366	0.038917	0.21698	0.11743	0.20543	0.234	0.24082	0.16125	0.17421	0.19383	0.27556	-2.7167	-2.8229	-2.9917	-3.1917	-2.925	-3.0042	-3.0875	-2.775	-3.0333	-2.9417	-2.8625	-3.1271	-2.9062	-3.1521	-3.0312	-2.9833	188.698	5.175	193.380	24.136	283.897	196.335	-9.484	192.417	16.930	73.351	240.557	299.926	-24.162	-3.026	125.576	10.178	0.00065006	0.0005142	0.00014498	505.77	6.1472e-06	6.0024e-06	602.95	183.21	5.7873e-06	2.999e-06	269.94	110.95	66.249	29.527	6.5758e-06	59.427	0.0011012	0.0012436	0.00034797	503.57	1.2872e-05	1.3857e-05	597.17	183.5	1.2809e-05	1.333e-05	269.89	111.02	66.615	29.793	1.2963e-05	59.688	-21.388	99.825	85.116	-13.506	104.232	110.346	-14.146	-7.502	151.351	171.706	-9.113	-3.904	-3.198	1.764	101.896	-0.295	-8191	255	
740.829	1	1	0	0	0.12773	0.26493	0.27493	0.11979	0.19725	0.1033	0.19929	0.16216	0.16683	0.3679	0.10067	0.142	0.14451	0.22427	0.17148	0.20214	-2.6771	-2.8937	-2.825	-3.2771	-2.8979	-3.0771	-3.2458	-2.7958	-3.1625	-3.2104	-2.9458	-3.3604	-3.0062	-3.0125	-3.1604	-2.9333	59.618	23.606	132.693	255.995	142.664	298.093	-5.395	40.553	9.718	107.230	152.552	236.873	124.260	9.994	28.724	294.509	0.00091408	0.00058281	0.00017113	508.09	1.3795e-05	2.6041e-06	602.22	183.53	9.3413e-06	2.7432e-06	268.9	111.32	65.726	29.613	1.1051e-06	60.154	0.0010914	0.0012168	0.00034179	505.63	1.2698e-05	1.3686e-05	597.31	183.62	1.2692e-05	1.3249e-05	270.24	111.44	66.549	29.937	1.2878e-05	60.427	331.709	81.228	96.079	-13.635	110.249	56.391	-14.013	-7.570	87.474	120.863	-9.024	-3.812	-2.828	1.746	79.271	-0.065	-8191	255	
740.925	1	1	0	0	0.14765	0.021587	0.15796	0.1741	0.040715	0.11412	0.178	0.083244	0.029456	0.26013	0.060836	0.1217	0.18854	0.22956	0.20504	0.18414	-2.6604	-3.0104	-2.9333	-3.15	-2.9938	-3.1021	-3.2812	-2.9229	-3.0917	-3.0938	-2.9479	-3.2604	-2.9562	-2.9646	-3.1188	-3.1833	260.009	303.554	192.125	-15.574	167.211	39.536	308.147	310.670	288.341	31.429	5.838	208.135	208.909	196.174	13.487	158.654	0.00072825	0.00046675	0.00018731	507.9	4.5495e-06	2.6662e-06	598.6	182.43	1.1696e-05	4.3524e-06	267.75	108.88	64.897	29.075	6.1492e-06	58.454	0.0011035	0.0012195	0.00034834	504.78	1.285e-05	1.3861e-05	595.65	183.04	1.2951e-05	1.3701e-05	267.15	109.65	65.417	29.376	1.3374e-05	58.886	-25.150	24.460	77.045	-13.450	165.189	106.070	-13.928	-7.524	168.595	82.071	-8.920	-3.963	-2.619	1.878	145.001	0.021	-8191	255	
741.044	1	1	0	0	0.039791	0.26132	0.03832	0.10419	0.098693	0.17096	0.23007	0.029897	0.25898	0.19028	0.048419	0.074749	0.074456	0.32612	0.07467	0.079646	-2.4521	-3.0167	-2.7812	-3.2562	-2.9729	-2.9521	-3.2375	-2.8187	-3.0687	-3.0875	-2.9188	-3.1813	-2.9771	-3.0854	-3.0667	-2.9292	33.202	-13.165	265.339	84.513	144.425	172.014	-24.178	3.443	130.776	305.429	49.543	0.903	35.000	277.406	70.448	249.251	0.00075846	0.00040051	0.00021246	501.32	5.3729e-06	7.8348e-06	586.72	180.4	9.2057e-06	4.0933e-06	259.61	106.06	63.57	28.428	4.3264e-06	57.019	0.0011383	0.0012541	0.00034915	499.51	1.3224e-05	1.4177e-05	581.3	180.26	1.3397e-05	1.367e-05	260.87	106.78	64.219	28.793	1.3676e-05	57.451	-16.348	75.161	66.528	-13.658	130.319	135.760	-13.970	-7.416	122.340	149.917	-9.368	-3.901	-2.753	2.081	108.646	-0.249	-8191	255	
741.140	1	1	0	0	0.10828	0.2109	0.067529	0.17649	0.24364	0.23455	0.081523	0.058761	0.18187	0.12599	0.10356	0.1458	0.23981	0.22459	0.27617	0.12377	-2.5396	-3.0354	-2.8063	-3.1146	-2.8375	-2.9562	-3.2938	-2.9417	-3.0604	-3.2188	-2.8229	-3.1562	-2.9979	-2.8	-2.9271	-3.0417	4.791	320.782	158.055	333.189	304.188	128.703	288.151	259.868	110.748	-14.006	257.502	214.806	163.822	195.478	124.582	123.727	0.00081643	0.00049192	0.00024961	498.04	6.0692e-06	5.6578e-06	582.34	180.24	3.4684e-06	2.6488e-06	261.19	106.74	64.358	28.812	2.5094e-06	58.156	0.0011681	0.0012772	0.00035753	496.94	1.332e-05	1.4327e-05	577.4	179.81	1.3261e-05	1.3316e-05	261.95	107.36	64.895	29.123	1.3356e-05	58.35	-21.061	47.903	43.160	-13.659	179.216	92.799	-13.884	-7.854	220.259	202.974	-8.970	-4.004	-2.731	1.636	69.127	-0.357	-8191	255	
741.212	1	1	0	0	0.18866	0.077043	0.046124	0.043542	0.22077	0.085501	0.24925	0.15579	0.13243	0.092317	0.23873	0.19708	0.11647	0.2964	0.13558	0.1334	-2.5292	-3.0521	-2.7833	-3.0875	-3.0854	-2.7833	-3.3167	-3	-3.0667	-3.0333	-2.7854	-3.0146	-3.0542	-2.9167	-3.0979	-3.0875	9.594	193.503	285.413	287.962	127.888	213.541	245.691	154.570	27.708	266.843	202.915	315.993	333.302	300.927	220.464	206.093	0.00070331	0.00073585	8.3887e-05	495.06	6.0283e-06	3.738e-06	580.54	179.76	6.5955e-06	3.8353e-06	263.53	107.77	64.822	29.231	7.6377e-06	58.694	0.0011094	0.001215	0.0003471	495.43	1.2953e-05	1.4019e-05	576.21	180.3	1.3289e-05	1.3517e-05	263.16	108.12	65.563	29.439	1.3225e-05	59.074	332.219	23.209	83.716	-13.722	95.130	205.349	-14.171	-7.356	8.444	155.567	-9.445	-3.991	-2.868	1.519	152.333	-0.112	-8191	255	
741.310	1	1	0	0	0.21473	0.12321	0.30376	0.11977	0.34156	0.10543	0.17315	0.24725	0.17909	0.089226	0.14484	0.079858	0.027884	0.3424	0.029345	0.18062	-2.4833	-3.0771	-2.8604	-2.9208	-3.0208	-2.9958	-3.0667	-2.9625	-2.7375	-3.0542	-2.9854	-2.9958	-2.9771	-2.8396	-3.1583	-3.0396	204.351	322.806	64.788	55.279	116.148	59.043	246.657	327.082	62.471	238.495	215.293	190.593	283.082	94.010	-8.649	279.415	0.00065355	0.00069692	8.0448e-05	500.5	5.9887e-06	4.25e-06	588.26	183.57	7.5354e-06	3.8327e-06	267.6	111.08	66.328	30.016	6.9367e-06	60.962	0.0011265	0.001214	0.00034011	497.41	1.2484e-05	1.3943e-05	584.76	183.37	1.3006e-05	1.3251e-05	268.31	111.31	66.985	30.207	1.247e-05	61.324	-18.118	93.831	38.524	-13.487	149.585	127.108	-14.142	-7.459	96.188	118.737	-9.040	-3.809	-2.527	1.637	136.507	-0.393	-8191	255	
741.428	1	1	0	0	0.062166	0.25737	0.22123	0.274	0.15844	0.072665	0.1086	0.15366	0.15891	0.18021	0.077384	0.18567	0.042727	0.13355	0.082426	0.21335	-2.4021	-3.1063	-2.8312	-3.0563	-2.9688	-2.7958	-3.1167	-3.05	-2.8083	-3.1854	-3.0167	-2.9833	-3.1792	-2.8021	-3.0083	-3.1458	214.373	61.905	43.953	323.545	112.897	253.155	168.892	-1.348	155.070	207.425	293.537	183.191	307.506	267.680	57.532	-21.218	0.0007967	0.00064836	0.0002042	502.27	5.7841e-06	4.1144e-06	602.72	185.75	8.2294e-07	1.8096e-06	272.49	111.9	66.135	29.705	9.9112e-06	60.136	0.001062	0.0011461	0.00031877	501.9	1.2057e-05	1.3081e-05	596.09	185.84	1.2586e-05	1.2963e-05	271.97	111.9	66.85	30.094	1.3045e-05	60.536	324.492	84.628	69.000	-13.248	185.227	147.302	-14.081	-7.830	79.623	151.060	-9.257	-3.699	-3.098	1.614	154.824	-0.214	-8191	255	
741.525	1	1	0	0	0.084244	0.064381	0.10118	0.16025	0.13689	0.038396	0.15566	0.22503	0.10404	0.18932	0.15745	0.28353	0.071629	0.015742	0.18784	0.1431	-2.4042	-3.2271	-2.8958	-3.1292	-3.2146	-2.9396	-3.1292	-2.9896	-2.875	-3.1667	-3.0271	-3.0083	-3.1396	-2.8125	-2.9792	-3.0583	285.762	50.087	32.531	221.794	156.776	56.969	13.762	294.130	214.442	100.924	0.892	-1.186	318.406	67.695	282.579	211.802	0.00082543	0.0007188	0.00017286	504.3	4.5201e-06	6.2544e-06	594.7	183.88	3.2269e-06	3.9422e-06	268.82	110.88	65.671	29.514	5.1799e-06	59.786	0.0010962	0.0011852	0.00032561	501.41	1.2531e-05	1.3548e-05	589.29	183.82	1.2888e-05	1.3364e-05	268.66	110.74	66.389	29.743	1.3151e-05	60.023	333.612	16.993	39.101	-13.554	179.228	121.635	-13.912	-7.508	192.284	150.712	-9.041	-3.794	-2.655	1.823	132.744	-0.233	-8191	255	
741.621	1	1	0	0	0.30203	0.12735	0.27998	0.18505	0.1467	0.10344	0.35215	0.11428	0.11932	0.25363	0.13966	0.090998	0.15107	0.024139	0.072039	0.12007	-2.5042	-3.1167	-2.975	-2.8021	-3.1188	-2.9333	-3.1375	-3.2188	-2.9	-3.1208	-3.0312	-2.9896	-3.1146	-2.9354	-2.9229	-3.2146	151.743	7.094	205.038	262.724	182.963	79.907	284.794	286.308	195.588	98.258	39.805	151.528	8.447	291.669	188.263	333.186	0.00070422	0.00031556	0.00012261	506.24	1.0197e-05	2.7704e-06	590.96	182.07	9.276e-06	5.9817e-06	264.81	108.79	64.528	29.327	6.8757e-06	59.335	0.0011258	0.0011986	0.00033587	503.09	1.2626e-05	1.3311e-05	585.95	181.85	1.2698e-05	1.3177e-05	265.14	109.14	65.557	29.473	1.3237e-05	59.442	331.498	80.412	50.156	-13.627	108.483	111.930	-14.289	-7.550	156.522	54.990	-8.952	-3.800	-2.458	1.875	138.099	-0.034	-8191	255	
741.741	1	1	0	0	0.10699	0.069012	0.26691	0.095917	0.071832	0.27323	0.19664	0.17694	0.1311	0.27868	0.085019	0.2328	0.21735	0.09697	0.14171	0.30176	-2.4292	-3.2438	-3.0458	-2.8937	-3.025	-3.1854	-3.0292	-3.2062	-2.8521	-3.1167	-3.0333	-2.8187	-3.1312	-2.8604	-2.8896	-3.0896	12.924	210.666	271.480	93.933	140.351	190.232	152.443	220.424	204.752	75.851	32.601	301.782	-6.543	323.337	156.815	268.409	0.00084002	0.00025514	0.00012478	500.98	6.7538e-06	2.7001e-06	587.95	179.94	9.4055e-06	3.4624e-06	263.86	108.43	64.853	29.192	2.4059e-06	59.545	0.0011027	0.0012039	0.00032518	497.56	1.2337e-05	1.3113e-05	581.13	180.41	1.2136e-05	1.2497e-05	264.11	108.92	65.682	29.584	1.2072e-05	59.716	331.286	-12.828	42.183	-13.572	128.455	125.931	-13.917	-7.743	146.128	142.800	-9.283	-3.752	-2.950	1.747	117.700	-0.417	-8191	255	
741.838	1	1	0	0	0.20739	0.050986	0.21667	0.18633	0.22961	0.14406	0.10812	0.19765	0.19342	0.10849	0.11728	0.01772	0.14055	0.15004	0.054088	0.19849	-2.475	-2.7958	-3.0083	-3.0604	-3.0854	-2.8271	-2.8625	-3.1458	-2.9271	-2.9813	-3.0542	-2.7979	-2.9167	-3.0333	-2.8958	-3.0292	292.861	96.030	21.326	166.773	74.702	10.627	220.399	322.289	159.878	113.403	32.273	59.083	120.110	252.430	172.535	324.782	0.00080459	0.00020489	0.00012415	500.08	3.9328e-06	5.4262e-06	589.58	182.86	8.8788e-06	2.164e-06	265.92	109.31	65.567	29.482	4.6099e-06	59.419	0.001034	0.0011231	0.00031671	496.43	1.1964e-05	1.2686e-05	582.96	182.58	1.1878e-05	1.2447e-05	265.84	109.59	66.207	29.641	1.1889e-05	59.598	-22.236	127.064	99.127	-13.663	101.556	133.184	-14.027	-7.730	137.665	178.290	-9.472	-4.146	-3.084	1.451	149.427	-0.651	-8191	255	
741.909	1	1	0	0	0.12572	0.17226	0.26526	0.08033	0.076227	0.18482	0.077924	0.21311	0.20562	0.095122	0.18034	0.17118	0.16437	0.18056	0.22323	0.088327	-2.4146	-3.0187	-3.0104	-2.8521	-3.1042	-3.1542	-2.9437	-3.1729	-3.0146	-2.9229	-3.2458	-2.9729	-3.0896	-3.0292	-2.8146	-3.1479	266.837	59.125	17.383	241.476	87.796	191.701	-0.541	295.101	259.492	296.769	16.490	322.414	195.819	-23.852	91.445	175.510	0.00060018	0.00045437	0.00010349	499.85	4.0335e-06	5.6679e-06	589.32	182	8.07e-06	4.6617e-06	266.64	109.78	66.016	29.596	6.6843e-06	59.722	0.0010257	0.001112	0.00030498	497.2	1.1588e-05	1.2309e-05	586.19	182.06	1.1896e-05	1.269e-05	266.57	109.79	66.433	29.841	1.1866e-05	59.901	330.886	92.129	87.292	-13.780	141.598	30.284	-14.192	-7.520	131.035	117.704	-8.901	-3.739	-3.163	2.016	108.541	-0.211	-8191	255	
742.030	1	1	0	0	0.13485	0.10792	0.091211	0.047229	0.21376	0.14724	0.07938	0.2134	0.15188	0.094301	0.26788	0.28385	0.30337	0.16543	0.11574	0.25369	-2.2646	-2.7167	-3.0729	-2.9021	-3.0604	-3.0021	-2.9292	-3.1729	-2.9854	-2.95	-3.2708	-2.8396	-2.9	-3.2479	-3.0104	-3.1813	257.119	61.162	-24.370	295.798	78.675	19.698	240.399	324.738	216.494	24.609	326.781	66.475	244.801	-7.566	56.066	273.067	0.00081759	0.00061719	6.038e-05	499.15	9.506e-06	3.0725e-06	589.35	181.01	6.3496e-06	4.6907e-06	262.38	108.21	65.152	29.276	6.3912e-06	59.441	0.0010137	0.001113	0.00030152	496.88	1.1217e-05	1.1996e-05	584.03	180.35	1.1416e-05	1.2056e-05	262.15	108.33	65.594	29.514	1.1919e-05	59.834	-20.537	62.340	57.946	-13.678	118.987	104.902	-14.215	-7.628	153.011	154.688	-9.191	-4.045	-3.262	1.899	134.550	-0.174	-8191	255	
#DATA ENDS
