BOXY.EXE: ISS Imagent and Oximeter Data Acquisition Program Version 0.80
Ascii Record File

#ACQ INFORMATION
2  Detector Channels 
16  External MUX Channels 
1  Auxiliary Channels 
5000  Waveform (CCF) Frequency (Hz)
1  Waveforms Skipped 
30  Waveforms Averaged 
1  Cycles Averaged 
16  Acquisitions per Waveform 
10.0806  Updata Rate (Hz) 

#FILE INFORMATION
TRUE -- External MUX Channel results are PARSED.
FALSE -- AC DC and Phase are NOT grouped.
TRUE -- Companion Program Settings File CREATED.
FALSE -- AC data not excluded
FALSE -- DC data not excluded
FALSE -- Phase data not excluded
FALSE -- Auxillary Chn. data not excluded
Tab delimiters

#CALIBRATION STATE
TRUE -- Waveform Calibration Values APPLIED.


#AUX CALIBRATION VALUES
Val Type	aux-1	

Term	1.0000e+00	
Factor	0.0000e+00	


#WF CALIBRATION VALUES
A = Detector Channel
Val Type	A-AC1	A-AC2	A-AC3	A-AC4	A-AC5	A-AC6	A-AC7	A-AC8	A-AC9	A-AC10	A-AC11	A-AC12	A-AC13	A-AC14	A-AC15	A-AC16	A-DC1	A-DC2	A-DC3	A-DC4	A-DC5	A-DC6	A-DC7	A-DC8	A-DC9	A-DC10	A-DC11	A-DC12	A-DC13	A-DC14	A-DC15	A-DC16	A-Ph1	A-Ph2	A-Ph3	A-Ph4	A-Ph5	A-Ph6	A-Ph7	A-Ph8	A-Ph9	A-Ph10	A-Ph11	A-Ph12	A-Ph13	A-Ph14	A-Ph15	A-Ph16	

Term	0.00000e+00	0.00000e+00	0.00000e+00	0.00000e+00	0.00000e+00	0.00000e+00	0.00000e+00	0.00000e+00	0.00000e+00	0.00000e+00	0.00000e+00	0.00000e+00	0.00000e+00	0.00000e+00	0.00000e+00	0.00000e+00	0.00000e+00	0.00000e+00	0.00000e+00	0.00000e+00	0.00000e+00	0.00000e+00	0.00000e+00	0.00000e+00	0.00000e+00	0.00000e+00	0.00000e+00	0.00000e+00	0.00000e+00	0.00000e+00	0.00000e+00	0.00000e+00	0.00000e+00	0.00000e+00	0.00000e+00	0.00000e+00	0.00000e+00	0.00000e+00	0.00000e+00	0.00000e+00	0.00000e+00	0.00000e+00	0.00000e+00	0.00000e+00	0.00000e+00	0.00000e+00	0.00000e+00	0.00000e+00	
Factor	1.00000e+00	1.00000e+00	1.00000e+00	1.00000e+00	1.00000e+00	1.00000e+00	1.00000e+00	1.00000e+00	1.00000e+00	1.00000e+00	1.00000e+00	1.00000e+00	1.00000e+00	1.00000e+00	1.00000e+00	1.00000e+00	1.00000e+00	1.00000e+00	1.00000e+00	1.00000e+00	1.00000e+00	1.00000e+00	1.00000e+00	1.00000e+00	1.00000e+00	1.00000e+00	1.00000e+00	1.00000e+00	1.00000e+00	1.00000e+00	1.00000e+00	1.00000e+00	X	X	X	X	X	X	X	X	X	X	X	X	X	X	X	X	

B = Detector Channel
Val Type	B-AC1	B-AC2	B-AC3	B-AC4	B-AC5	B-AC6	B-AC7	B-AC8	B-AC9	B-AC10	B-AC11	B-AC12	B-AC13	B-AC14	B-AC15	B-AC16	B-DC1	B-DC2	B-DC3	B-DC4	B-DC5	B-DC6	B-DC7	B-DC8	B-DC9	B-DC10	B-DC11	B-DC12	B-DC13	B-DC14	B-DC15	B-DC16	B-Ph1	B-Ph2	B-Ph3	B-Ph4	B-Ph5	B-Ph6	B-Ph7	B-Ph8	B-Ph9	B-Ph10	B-Ph11	B-Ph12	B-Ph13	B-Ph14	B-Ph15	B-Ph16	

Term	0.00000e+00	0.00000e+00	0.00000e+00	0.00000e+00	0.00000e+00	0.00000e+00	0.00000e+00	0.00000e+00	0.00000e+00	0.00000e+00	0.00000e+00	0.00000e+00	0.00000e+00	0.00000e+00	0.00000e+00	0.00000e+00	0.00000e+00	0.00000e+00	0.00000e+00	0.00000e+00	0.00000e+00	0.00000e+00	0.00000e+00	0.00000e+00	0.00000e+00	0.00000e+00	0.00000e+00	0.00000e+00	0.00000e+00	0.00000e+00	0.00000e+00	0.00000e+00	-1.99800e+02	-1.32036e+02	-1.16888e+02	-1.84163e+02	-8.14992e+01	-6.94175e+01	-1.57306e+02	-1.62015e+02	-8.64931e+01	-6.67769e+01	-1.77797e+02	-1.71882e+02	-1.81595e+02	-1.77192e+02	-7.35172e+01	-1.50103e+02	
Factor	3.79814e-05	1.92844e-04	5.09745e-05	1.70467e-01	1.91118e-06	1.87975e-06	1.61549e-01	5.09297e-02	1.97878e-06	1.84182e-06	9.46997e-01	2.66704e-02	2.93344e-02	8.92146e-03	1.95588e-06	1.25256e-02	7.13065e-06	8.70306e-06	2.43209e-06	8.69350e-02	9.20906e-08	9.60395e-08	7.77383e-02	2.60149e-02	9.20560e-08	9.54915e-08	4.40650e-01	1.32784e-02	1.50708e-02	4.60272e-03	9.35434e-08	6.26721e-03	X	X	X	X	X	X	X	X	X	X	X	X	X	X	X	X	



#DISTANCE SETTINGS
A = Detector Channel
A-1	A-2	A-3	A-4	A-5	A-6	A-7	A-8	A-9	A-10	A-11	A-12	A-13	A-14	A-15	A-16	

2.5000e+00	3.0000e+00	2.5000e+00	3.0000e+00	2.0000e+00	3.0000e+00	1.5000e+00	3.0000e+00	3.0000e+00	3.0000e+00	3.0000e+00	3.0000e+00	3.0000e+00	3.0000e+00	1.5000e+00	3.0000e+00	

B = Detector Channel
B-1	B-2	B-3	B-4	B-5	B-6	B-7	B-8	B-9	B-10	B-11	B-12	B-13	B-14	B-15	B-16	

1.0000e+01	1.0000e+01	1.0000e+01	1.4400e+00	1.0000e+01	1.0000e+01	1.5100e+00	1.9400e+00	1.0000e+01	1.0000e+01	1.9900e+00	2.4900e+00	2.4100e+00	2.9000e+00	1.0000e+01	2.9800e+00	




#DATA BEGINS
time	group	step	mark	flag	A-AC1	A-AC2	A-AC3	A-AC4	A-AC5	A-AC6	A-AC7	A-AC8	A-AC9	A-AC10	A-AC11	A-AC12	A-AC13	A-AC14	A-AC15	A-AC16	A-DC1	A-DC2	A-DC3	A-DC4	A-DC5	A-DC6	A-DC7	A-DC8	A-DC9	A-DC10	A-DC11	A-DC12	A-DC13	A-DC14	A-DC15	A-DC16	A-Ph1	A-Ph2	A-Ph3	A-Ph4	A-Ph5	A-Ph6	A-Ph7	A-Ph8	A-Ph9	A-Ph10	A-Ph11	A-Ph12	A-Ph13	A-Ph14	A-Ph15	A-Ph16	B-AC1	B-AC2	B-AC3	B-AC4	B-AC5	B-AC6	B-AC7	B-AC8	B-AC9	B-AC10	B-AC11	B-AC12	B-AC13	B-AC14	B-AC15	B-AC16	B-DC1	B-DC2	B-DC3	B-DC4	B-DC5	B-DC6	B-DC7	B-DC8	B-DC9	B-DC10	B-DC11	B-DC12	B-DC13	B-DC14	B-DC15	B-DC16	B-Ph1	B-Ph2	B-Ph3	B-Ph4	B-Ph5	B-Ph6	B-Ph7	B-Ph8	B-Ph9	B-Ph10	B-Ph11	B-Ph12	B-Ph13	B-Ph14	B-Ph15	B-Ph16	aux-1	digaux	

2191.238	1	1	0	768	0.061602	0.06183	0.32612	0.24462	0.14652	0.071219	0.17875	0.16789	0.042381	0.093648	0.21663	0.085123	0.21224	0.17176	0.16089	0.24415	-2.2938	-2.9125	-2.9958	-2.7854	-2.9396	-3.0729	-2.8354	-3.0438	-2.8063	-2.8042	-2.8688	-2.7938	-2.8958	-2.85	-2.8083	-3.0792	266.920	-32.666	-40.346	238.421	152.813	179.484	179.958	211.000	238.466	7.753	248.384	56.840	256.450	-38.096	-42.608	80.427	0.00015105	0.00020278	2.6107e-05	404.3	9.3033e-07	2.36e-06	682.75	77.363	1.7301e-06	1.2471e-06	172.45	50.838	18.356	5.0532	1.5662e-06	19.851	0.00011724	9.4011e-05	2.6175e-05	380.41	1.0088e-06	9.8801e-07	643.2	72.227	9.9862e-07	8.9086e-07	159.26	48.156	17.453	4.7614	8.5534e-07	18.936	107.501	10.010	-36.218	-75.763	185.042	44.554	-75.325	-71.421	21.039	81.567	-70.687	-65.543	-66.806	-61.360	109.555	-60.391	-8191	255	
2191.334	1	1	0	0	0.23171	0.17557	0.15558	0.095518	0.14835	0.10455	0.19472	0.074485	0.15625	0.15404	0.16249	0.10062	0.12337	0.080438	0.29728	0.053965	-2.3354	-2.6771	-3.0438	-2.7479	-2.8937	-2.8708	-2.7542	-2.9042	-2.8208	-2.6917	-3.0917	-2.8021	-2.9292	-2.9	-2.6021	-3.0646	186.215	166.153	227.756	56.289	15.357	69.079	-51.800	202.099	88.209	-37.909	189.410	229.844	205.726	246.636	238.008	208.065	0.00016001	8.2432e-05	3.1552e-05	402.36	2.121e-07	1.7464e-06	680.84	75.832	2.5284e-07	1.9666e-06	175.16	51.095	18.22	4.9627	2.0675e-06	20.199	0.00010351	7.753e-05	2.1924e-05	378.01	8.574e-07	8.6836e-07	640.84	71.724	9.4242e-07	8.1048e-07	158.42	48.504	17.545	4.7249	8.3994e-07	19.087	116.807	-18.163	33.208	-75.667	-4.472	86.485	-75.335	-71.705	-17.664	88.204	-71.468	-65.334	-67.019	-60.549	60.101	-60.456	-8191	255	
2191.430	1	1	0	0	0.099507	0.34661	0.065898	0.11752	0.089659	0.13673	0.10333	0.1574	0.21779	0.16163	0.18826	0.10267	0.10736	0.1478	0.37506	0.080514	-2.6208	-2.85	-2.9208	-2.6583	-2.7729	-3.2229	-2.7854	-3.1333	-2.9437	-2.8	-2.7729	-2.8875	-2.9208	-2.9854	-2.6479	-3	266.781	140.049	116.945	41.746	220.293	216.276	154.764	-16.351	252.053	-63.123	189.440	252.704	209.059	5.726	-53.839	209.278	7.5837e-05	0.00015885	5.6676e-05	408.3	2.6806e-06	2.0012e-06	683.81	76.915	1.2575e-06	2.7415e-06	175	50.445	18.336	5.0089	1.2477e-06	19.536	9.8462e-05	7.811e-05	2.0642e-05	381.48	8.3323e-07	8.5115e-07	641.27	72.623	8.87e-07	8.6022e-07	157.68	47.786	17.477	4.7167	8.6937e-07	18.647	115.747	-15.910	36.587	-75.904	52.196	36.445	-75.487	-71.739	56.674	46.067	-72.324	-65.577	-67.105	-61.833	122.600	-60.488	-8191	255	
2191.526	1	1	0	0	0.18386	0.22804	0.16793	0.070296	0.30163	0.20993	0.25802	0.12521	0.21503	0.17156	0.010992	0.094761	0.13767	0.074856	0.20653	0.18127	-2.5667	-2.6437	-3.0458	-2.8958	-2.9167	-3.0667	-2.875	-2.9604	-3.1104	-2.8354	-2.8438	-2.7104	-2.6562	-3.0354	-2.7292	-2.9021	178.731	234.444	74.878	241.245	39.950	155.967	213.173	-21.117	123.704	159.879	268.262	76.877	237.768	104.729	-71.615	103.649	0.00010195	0.00015011	4.6645e-05	406.88	8.7297e-07	1.281e-06	675.58	77.161	1.1868e-06	2.7992e-06	172.68	50.608	18.441	4.8983	2.4685e-06	19.703	9.4912e-05	8.1501e-05	2.0191e-05	379.91	8.6757e-07	8.1153e-07	637.91	72.626	8.7319e-07	8.4948e-07	158.7	47.742	17.667	4.6757	8.2338e-07	18.576	121.354	-17.788	-17.764	-76.068	5.665	113.410	-75.427	-71.559	11.301	56.390	-70.756	-65.476	-67.678	-61.898	76.535	-60.704	-8191	255	
2191.620	1	1	0	0	0.20849	0.16525	0.2556	0.040012	0.14354	0.10357	0.21833	0.18894	0.34529	0.062724	0.22859	0.16299	0.17758	0.18117	0.29981	0.13605	-2.6146	-2.7042	-2.9208	-2.8833	-2.7271	-3.2208	-2.9354	-2.8771	-3.0521	-2.9708	-2.9062	-3.0854	-2.6437	-3.0687	-3.075	-2.8979	130.802	-80.467	34.084	222.156	-58.801	264.718	175.484	175.790	195.960	264.934	-50.837	133.896	106.781	171.403	164.107	-67.844	0.00011559	0.00012532	1.3975e-05	414.93	1.3135e-06	8.2023e-07	691.75	80.252	1.8649e-06	1.4461e-06	179.89	51.048	19.281	5.0401	2.9931e-06	19.458	9.2357e-05	7.4665e-05	1.6822e-05	386.01	7.9889e-07	7.4671e-07	649.98	75.185	7.6522e-07	7.2076e-07	160.24	48.315	18.201	4.7335	7.6355e-07	18.523	107.003	40.456	220.369	-76.118	44.744	56.513	-75.467	-71.886	49.156	5.220	-71.935	-65.578	-67.923	-60.949	81.404	-60.803	-8191	255	
2191.718	1	1	0	0	0.043436	0.11624	0.23151	0.14183	0.041073	0.16538	0.20641	0.081605	0.28266	0.071575	0.24529	0.24362	0.21296	0.1462	0.2769	0.14271	-2.7125	-2.7729	-2.9729	-2.9542	-2.7396	-3.1146	-2.9271	-2.7542	-3.1208	-2.6021	-2.9979	-3.0771	-2.7271	-2.9313	-2.8833	-2.95	195.271	-1.520	-26.364	191.850	-45.349	243.161	-76.489	105.700	212.103	44.964	21.928	-82.537	148.004	254.112	198.421	219.225	0.00015263	0.00015098	3.6019e-05	419.66	7.8441e-07	1.6988e-06	698.43	81.941	2.08e-06	1.7435e-06	181.85	51.276	19.403	5.0476	1.2461e-06	19.504	8.53e-05	6.7956e-05	1.5424e-05	394.48	7.632e-07	6.4426e-07	660.1	77.756	7.3913e-07	7.1957e-07	164.06	48.755	18.608	4.7488	7.1054e-07	18.535	106.815	-48.992	37.619	-76.016	92.194	21.836	-75.589	-72.270	33.716	90.404	-71.378	-66.364	-67.286	-61.720	36.712	-60.546	-8191	255	
2191.837	1	1	0	0	0.061322	0.10778	0.23844	0.093576	0.21462	0.13178	0.23166	0.15633	0.32699	0.14281	0.15179	0.1922	0.18674	0.18746	0.10902	0.28709	-2.6583	-2.6813	-2.9	-3.0667	-2.9313	-3.0417	-2.975	-2.7833	-3.1	-2.8542	-2.7458	-3.1167	-2.8708	-3.0938	-2.7458	-2.9021	238.623	46.301	210.595	53.817	142.392	44.194	227.464	226.045	-66.564	62.266	248.249	103.870	208.738	204.058	154.448	199.083	0.00010079	0.00026135	4.0693e-05	420.93	1.3942e-06	1.4589e-06	698.63	81.354	8.9235e-07	2.0489e-06	177.97	50.714	19.229	4.9266	1.5005e-06	18.902	8.5449e-05	6.5636e-05	1.7014e-05	394.22	7.2195e-07	6.0365e-07	657.09	76.94	6.6415e-07	6.3303e-07	161.79	48.003	18.308	4.6714	7.0041e-07	18.052	114.779	14.455	43.674	-75.830	48.256	56.449	-75.664	-72.511	21.180	82.991	-73.276	-66.553	-68.096	-62.547	129.677	-60.786	-8191	255	
2191.933	1	1	0	0	0.15292	0.25263	0.040461	0.19796	0.10337	0.084069	0.15454	0.080754	0.22382	0.23796	0.073757	0.1024	0.27928	0.28436	0.089447	0.18553	-2.6458	-2.8688	-2.7354	-3.0083	-2.85	-2.875	-3.075	-2.7667	-2.9875	-2.8521	-2.7896	-3.1437	-2.9104	-2.8104	-2.9313	-2.8792	-30.002	-62.414	-24.190	180.616	135.818	-85.284	90.289	67.977	-45.288	231.476	215.413	82.762	91.165	235.593	209.460	-69.623	0.00014698	0.00017035	1.2798e-05	421.49	3.6388e-06	1.0341e-06	695.89	81.867	9.0716e-07	1.9022e-06	176.13	50.904	19.332	4.9138	1.4315e-06	18.814	7.8571e-05	6.6923e-05	1.7526e-05	393.28	7.7471e-07	5.7904e-07	655.27	77.168	6.1236e-07	6.7719e-07	159.75	48.095	18.348	4.6638	6.815e-07	18.014	109.676	45.196	-43.327	-75.979	64.483	107.953	-75.702	-72.224	20.337	96.387	-72.283	-66.299	-68.810	-61.989	4.445	-60.722	-8191	255	
2192.030	1	1	0	0	0.21531	0.14958	0.28091	0.20925	0.18721	0.10048	0.11344	0.1296	0.33584	0.22758	0.081955	0.062499	0.09051	0.096679	0.17159	0.12519	-2.6167	-2.7	-2.9521	-3.1625	-2.9083	-3	-3.1896	-2.7896	-3.0729	-2.9146	-2.9458	-3.125	-2.875	-2.8583	-3.0146	-2.8583	1.882	207.461	118.610	267.833	124.844	168.803	175.344	0.636	268.428	-14.968	-82.143	225.956	95.934	118.238	60.594	-83.463	0.00012854	0.00026655	3.8468e-05	420.18	7.8886e-07	1.8619e-06	695.9	82.14	7.9387e-07	6.1312e-07	179.8	50.956	19.578	4.8871	9.9114e-07	18.873	7.8407e-05	6.1755e-05	1.6199e-05	392.39	7.1025e-07	6.4026e-07	654.37	77.207	6.1179e-07	6.7481e-07	163.39	48.196	18.525	4.6477	5.8835e-07	17.936	100.891	-26.420	-3.178	-75.953	111.943	101.671	-75.683	-72.427	192.371	10.741	-71.626	-66.211	-67.682	-63.322	157.557	-60.987	-8191	255	
2192.126	1	1	0	0	0.19912	0.13896	0.16679	0.094375	0.12708	0.13022	0.18084	0.1183	0.1579	0.021005	0.069993	0.40564	0.1535	0.11478	0.15738	0.14914	-2.5292	-2.7938	-2.6958	-3.1688	-2.8625	-2.7854	-3.1063	-2.5938	-3.0438	-2.9437	-2.7188	-3.0521	-2.75	-2.7188	-3.1188	-2.7646	134.419	139.091	31.792	110.941	34.609	39.036	60.460	-88.895	178.049	-51.506	186.705	-71.647	184.102	-45.558	-10.727	168.950	0.00014589	0.0001726	6.8408e-07	423.24	3.7247e-07	2.4126e-06	700.64	83.543	2.1802e-06	2.8878e-06	176.8	51.4	19.667	4.9458	1.9502e-06	18.996	7.8348e-05	5.7603e-05	1.5434e-05	394.68	6.8281e-07	6.3686e-07	658.03	78.493	6.6376e-07	6.3323e-07	162.01	48.642	18.713	4.7167	5.8835e-07	18.077	107.787	-7.411	252.839	-75.529	-43.655	95.865	-75.635	-72.314	8.854	55.238	-71.785	-66.293	-68.317	-62.353	69.929	-61.276	-8191	255	
2192.222	1	1	0	0	0.07278	0.090956	0.13479	0.079324	0.16175	0.16769	0.21863	0.076021	0.26355	0.14549	0.22192	0.20273	0.036386	0.22325	0.10622	0.063445	-2.4729	-2.8312	-2.7958	-3.1375	-3.0062	-2.8354	-3.1562	-2.8479	-2.9396	-2.9562	-2.8396	-3.1958	-2.8521	-2.7687	-3.1271	-2.9437	-0.084	-15.185	27.504	98.677	165.849	203.846	211.521	-30.536	64.165	174.618	264.676	189.227	263.189	228.433	184.568	-22.268	0.00011645	0.0001864	6.6424e-05	421.56	1.4354e-06	1.6935e-06	700.4	82.833	1.5783e-06	1.1649e-06	183.81	50.889	19.267	4.8722	1.5848e-06	18.64	7.5823e-05	5.9453e-05	1.6032e-05	395.71	6.2756e-07	6.1745e-07	655.9	78.063	5.8532e-07	5.7693e-07	161.97	48.017	18.416	4.6575	5.7412e-07	17.729	114.326	35.505	-6.353	-75.836	46.146	77.161	-75.414	-72.060	-18.217	-0.586	-71.995	-66.214	-68.081	-61.634	105.783	-60.675	-8191	255	
2192.318	1	1	0	0	0.11613	0.19988	0.20905	0.086917	0.095455	0.1744	0.19682	0.019411	0.2056	0.18026	0.2065	0.077875	0.12252	0.12577	0.10177	0.24451	-2.5083	-2.8375	-2.6208	-3.2771	-3.0167	-2.9667	-3.0812	-2.8354	-2.8792	-2.9854	-2.7938	-2.9938	-3.0521	-2.6917	-3.1167	-2.7875	227.624	-37.998	214.244	-29.980	188.630	101.065	56.192	209.049	253.398	-73.670	-28.257	67.522	166.016	97.288	224.217	208.266	0.00011814	0.00016484	7.4715e-05	420.08	1.4306e-06	9.9979e-07	698.95	82.567	2.2387e-06	5.0473e-07	178.25	51.279	19.703	4.9132	7.2061e-07	18.898	7.4798e-05	5.9326e-05	1.6721e-05	394.63	7.0775e-07	6.3206e-07	656.05	78.093	6.5053e-07	5.9981e-07	161.82	48.337	18.662	4.6902	6.2577e-07	17.898	104.477	44.454	-1.462	-75.571	180.666	30.421	-75.480	-72.093	-6.870	83.092	-71.034	-66.420	-69.265	-62.478	35.958	-61.088	-8191	255	
2192.439	1	1	0	0	0.32321	0.15242	0.096052	0.24423	0.12518	0.21004	0.28825	0.19381	0.046323	0.069842	0.18463	0.11143	0.26822	0.017754	0.19137	0.10586	-2.5938	-2.9042	-2.7729	-3.025	-2.9417	-2.8458	-3.0312	-2.8292	-2.8458	-2.9458	-2.7625	-2.9417	-2.9542	-2.7229	-3.0229	-3.0167	86.142	151.474	85.022	146.380	45.442	-81.994	210.705	202.762	23.102	149.411	-19.287	181.726	60.683	129.513	177.019	114.583	0.0001409	0.00029684	7.9129e-05	426.83	1.034e-06	1.3327e-06	702.92	84.917	1.9244e-06	4.5017e-07	181.77	51.31	19.992	4.9644	2.9748e-07	18.853	7.9566e-05	5.3034e-05	1.6026e-05	398.46	6.5845e-07	6.2366e-07	660.13	79.482	6.9771e-07	5.8071e-07	163.92	48.761	18.993	4.7151	5.2365e-07	17.958	99.945	-21.367	36.999	-75.730	52.425	111.939	-75.520	-72.731	61.477	24.124	-71.122	-66.464	-67.801	-62.293	56.753	-61.093	-8191	255	
2192.533	1	1	0	0	0.2016	0.17623	0.15469	0.17868	0.37259	0.080105	0.37536	0.34033	0.17246	0.14055	0.21391	0.29574	0.26067	0.053093	0.079989	0.27676	-2.2958	-3.0187	-2.775	-3.1	-3.0229	-2.7812	-3.0792	-2.8917	-2.8208	-3.0896	-2.8229	-3.0646	-2.9729	-2.7854	-3.075	-2.9479	146.679	-64.278	-54.718	192.919	-58.126	142.288	159.370	-88.933	262.305	-73.631	132.863	211.986	233.903	-77.535	-29.052	42.200	0.00010705	0.00014994	3.6924e-05	430.37	2.4815e-06	1.6627e-06	706.25	84.701	8.9988e-07	1.5986e-06	182.11	51.847	20.063	5.0399	2.0214e-06	19.042	7.3015e-05	5.1638e-05	1.5216e-05	401.43	6.4003e-07	5.9204e-07	664.8	80.013	6.1006e-07	5.64e-07	164.28	49.102	19.194	4.7862	5.4119e-07	18.112	114.169	35.797	12.188	-75.882	64.094	54.169	-75.699	-72.406	5.523	52.256	-71.480	-66.860	-68.398	-62.160	52.901	-61.043	-8191	255	
2192.629	1	1	0	0	0.14485	0.13021	0.33025	0.34279	0.10666	0.29007	0.15742	0.13886	0.060277	0.28286	0.17462	0.16354	0.22124	0.066066	0.15399	0.073056	-2.3208	-3.1396	-2.7583	-3.0187	-3.1771	-2.9958	-2.975	-2.9542	-2.8083	-3.15	-2.9208	-2.9167	-2.9396	-2.6813	-2.9792	-2.9875	181.821	169.192	72.379	-68.432	47.904	-45.636	218.312	262.370	117.854	116.875	-33.059	243.140	263.520	-6.918	262.274	148.887	0.00016765	0.00020647	4.0814e-05	430.36	1.2087e-06	1.9094e-06	705.77	84.782	1.3362e-06	2.4921e-06	183.54	51.372	20.02	5.0163	2.1961e-06	18.635	7.8541e-05	5.6443e-05	1.554e-05	403.5	6.2583e-07	6.4106e-07	665.46	80.213	6.3461e-07	5.4072e-07	163.05	48.6	19.144	4.7726	5.7627e-07	17.713	120.525	1.066	19.631	-76.131	-12.209	51.881	-75.733	-72.181	40.631	64.051	-71.629	-66.924	-68.491	-62.431	58.953	-61.174	-8191	255	
2192.725	1	1	0	0	0.21029	0.21266	0.16347	0.051023	0.16519	0.15939	0.42376	0.12721	0.13158	0.23315	0.28423	0.040881	0.059091	0.19879	0.029689	0.32724	-2.2542	-2.9854	-2.6875	-3.0646	-3.1167	-2.7812	-3.1375	-3.0271	-2.725	-3.0354	-2.8042	-2.7979	-3.1125	-2.9313	-2.9292	-3.1104	40.360	-49.025	193.580	188.653	113.570	-18.610	206.540	-13.044	237.457	182.415	60.697	-30.266	244.986	28.673	194.462	230.541	0.00013815	0.00031897	5.0247e-05	432.63	1.533e-06	1.6946e-06	706.83	85.319	2.4891e-06	1.5666e-06	185.14	51.389	19.845	4.9889	2.0053e-06	18.731	7.6536e-05	4.8338e-05	1.4841e-05	404.73	6.1969e-07	5.2161e-07	664.1	80.669	6.1275e-07	5.5146e-07	165.46	48.771	19.135	4.7584	5.6048e-07	17.77	120.729	34.192	66.864	-76.123	46.799	90.269	-75.704	-72.372	2.245	73.780	-70.817	-66.594	-68.039	-62.484	28.273	-61.751	-8191	255	
2192.799	1	1	0	0	0.14635	0.15193	0.025872	0.21545	0.087517	0.20329	0.2151	0.10057	0.040935	0.078824	0.1213	0.20345	0.27291	0.11763	0.11686	0.37157	-2.3146	-3.0812	-3.0458	-2.7646	-3.0812	-2.8833	-2.8688	-3.0958	-2.8104	-3.0604	-2.9333	-2.6521	-2.9854	-2.8896	-2.6833	-2.9917	10.949	127.214	52.442	38.699	167.914	222.601	200.863	37.768	15.306	86.628	183.873	152.950	71.942	-8.556	126.380	-5.367	0.00012609	0.00017064	3.8587e-05	431.56	1.0496e-06	1.6067e-06	707.53	86.258	5.8383e-07	1.1961e-06	181.41	51.967	20.537	5.0546	1.5684e-06	18.91	7.2376e-05	5.1529e-05	1.5241e-05	406.32	5.5082e-07	6.1165e-07	666.71	81.555	5.953e-07	5.0014e-07	163.72	48.975	19.366	4.8083	5.7899e-07	17.921	111.559	-37.102	26.407	-76.042	1.204	34.119	-75.551	-72.458	-56.719	30.568	-71.193	-66.110	-68.031	-61.862	17.476	-61.388	-8191	255	
2192.918	1	1	0	0	0.17495	0.13665	0.21702	0.11013	0.20826	0.23165	0.026948	0.23217	0.15708	0.09354	0.12031	0.13268	0.2574	0.14286	0.062793	0.1045	-2.2958	-2.9062	-2.8604	-2.7396	-2.9292	-2.8167	-3.0187	-2.9646	-2.8083	-3.0542	-3.1208	-2.5646	-3.0792	-3.0333	-2.8958	-3.2042	-2.950	-47.233	-82.154	242.270	194.876	86.644	-2.124	245.813	190.967	-15.659	235.653	259.563	1.128	141.566	-33.247	209.750	0.00015054	0.00020776	7.8364e-05	435.53	6.4941e-07	1.4464e-06	714.7	86.435	2.198e-07	1.8048e-06	185.73	51.408	20.419	5.1097	1.8706e-06	18.992	7.7694e-05	5.3397e-05	1.5155e-05	407.4	6.0262e-07	5.5203e-07	669	81.49	5.7286e-07	5.2839e-07	165.69	49.085	19.444	4.844	5.825e-07	18.001	105.626	2.745	-32.043	-75.700	16.583	63.947	-75.655	-72.147	35.644	44.042	-72.816	-66.334	-68.426	-62.248	44.221	-61.244	-8191	255	
2193.014	1	1	0	0	0.080598	0.22064	0.13369	0.037245	0.17399	0.11994	0.13614	0.20025	0.2125	0.13427	0.11387	0.14093	0.16749	0.050588	0.13524	0.12844	-2.3729	-2.6958	-2.9354	-2.6979	-3.0812	-2.8896	-2.8896	-3.1479	-2.8771	-2.9021	-2.8708	-2.6333	-3.0208	-2.8312	-2.8229	-3.0687	146.002	44.846	14.022	105.618	75.412	95.148	227.695	-50.258	6.221	-25.371	-6.793	162.457	255.424	-14.744	41.880	126.982	0.00011919	0.00012873	3.6231e-05	435.4	1.937e-06	2.4021e-06	716.34	86.595	8.5377e-07	1.9022e-06	183.61	51.73	20.755	4.9896	1.0543e-06	18.399	7.4545e-05	4.5474e-05	1.2991e-05	408.21	5.7864e-07	6.1325e-07	672.84	82.056	6.2771e-07	5.9125e-07	164.58	48.907	19.627	4.7688	5.8776e-07	17.521	114.789	45.443	44.018	-75.490	57.511	102.158	-75.580	-71.770	69.526	70.292	-72.256	-66.489	-68.997	-62.804	13.458	-61.253	-8191	255	
2193.110	1	1	0	0	0.071529	0.22711	0.15884	0.037189	0.076176	0.15721	0.21963	0.26937	0.20293	0.17198	0.1802	0.17221	0.076776	0.15631	0.15442	0.070118	-2.3688	-3.0438	-3.0187	-2.7146	-2.9146	-2.9917	-2.9646	-2.8979	-2.9646	-2.9146	-3.0729	-2.7562	-3.0021	-2.9729	-2.9875	-3.0125	160.564	174.137	219.800	-71.851	217.874	74.076	-18.651	-90.135	77.912	-68.485	251.638	129.947	96.055	3.960	134.513	58.832	0.00010152	6.3576e-05	6.1085e-05	438.84	8.0535e-07	1.68e-06	710.78	86.346	2.3242e-07	1.0665e-06	184.59	50.754	20.327	4.9245	1.7986e-06	18.667	7.8853e-05	4.6199e-05	1.44e-05	409.91	5.1897e-07	5.9444e-07	668.66	81.295	5.9856e-07	5.0591e-07	164.18	48.391	19.318	4.7399	5.4236e-07	17.556	125.035	15.413	26.716	-76.021	126.868	67.206	-75.760	-72.466	236.259	81.227	-72.255	-66.929	-68.632	-62.006	12.278	-60.926	-8191	255	
2193.231	1	1	0	0	0.076507	0.15117	0.010168	0.063789	0.14752	0.12347	0.21602	0.093471	0.12496	0.17965	0.18882	0.25556	0.07363	0.11713	0.34684	0.031078	-2.4792	-2.8104	-3.0938	-2.8208	-2.8333	-2.925	-2.9146	-3.1375	-2.7271	-2.7438	-3.0083	-2.8646	-2.8229	-2.9958	-2.7708	-2.9354	16.261	-44.552	-87.492	205.012	-89.162	112.283	269.493	157.227	255.762	-55.864	61.097	133.513	191.851	200.673	103.379	117.508	0.00014468	0.00016122	5.0142e-05	432.55	2.5367e-06	1.7521e-06	712.15	85.54	8.0221e-07	1.4974e-06	177.96	50.976	20.553	5.0471	3.0669e-07	18.525	7.1054e-05	4.8429e-05	1.2247e-05	408.27	5.8593e-07	5.2382e-07	668.24	81.158	5.9549e-07	4.7646e-07	162.84	48.385	19.419	4.7737	5.1683e-07	17.589	106.533	7.737	-2.843	-75.818	63.935	32.402	-75.635	-72.480	-13.994	62.534	-73.334	-66.757	-68.042	-62.681	253.467	-61.382	-8191	255	
2193.327	1	1	0	0	0.22205	0.091214	0.16104	0.09778	0.071384	0.10659	0.17835	0.082693	0.041291	0.1073	0.24548	0.13221	0.2553	0.1566	0.26994	0.19306	-2.3458	-2.7833	-2.8021	-2.7792	-2.8771	-3.1604	-2.8083	-2.9896	-2.9146	-2.7042	-3	-2.7875	-2.8833	-2.9646	-2.7042	-3.0708	264.271	-33.057	-30.610	-81.665	53.291	-68.272	-12.873	245.369	95.697	-43.047	181.137	-79.461	58.794	246.011	227.639	-85.999	0.00014717	0.00016961	3.6606e-05	439.16	1.5434e-06	1.5733e-06	717.07	86.753	2.5957e-06	1.791e-06	180.16	51.697	20.962	5.0404	7.2694e-07	18.789	7.456e-05	4.7087e-05	1.1912e-05	412.59	5.629e-07	5.1421e-07	674.13	82.242	5.5962e-07	5.2242e-07	163.61	49.073	19.741	4.8542	5.4392e-07	17.663	126.737	-39.256	15.744	-75.884	47.072	85.068	-75.618	-72.520	52.438	69.260	-72.209	-66.647	-68.422	-62.603	19.889	-61.657	-8191	255	
2193.398	1	1	0	0	0.15194	0.12773	0.1349	0.30781	0.14537	0.18707	0.36627	0.1388	0.20256	0.27642	0.079622	0.066002	0.24953	0.11612	0.15744	0.23099	-2.5875	-2.7438	-3.1521	-3.0667	-2.9333	-3.1	-2.7646	-3.0708	-3.075	-2.7479	-3.025	-2.7729	-2.9021	-3.1104	-2.7708	-2.9729	-82.154	110.829	-18.304	216.988	164.811	-41.803	91.716	224.799	139.121	185.004	116.702	-27.025	-50.867	238.083	114.213	163.001	0.00010929	0.00017508	2.693e-05	449.45	1.1521e-06	1.6645e-06	717.96	88.57	1.5654e-06	2.5627e-06	188.38	50.702	20.691	4.993	2.0573e-06	18.264	7.0742e-05	5.046e-05	1.2383e-05	418.81	5.5868e-07	5.2902e-07	676.51	83.61	5.6864e-07	5.2401e-07	166.26	48.355	19.623	4.7706	5.1878e-07	17.323	113.579	-19.212	27.327	-75.831	45.117	19.261	-75.642	-72.145	43.618	82.615	-70.461	-66.601	-68.274	-62.874	30.255	-61.481	-8191	255	
2193.519	1	1	0	0	0.21327	0.11023	0.083347	0.088603	0.23618	0.16685	0.11999	0.22208	0.17183	0.22589	0.21439	0.090963	0.10504	0.34751	0.21985	0.11409	-2.5479	-2.6188	-3.0229	-3.0417	-2.7979	-3.0271	-2.9938	-2.9021	-2.9958	-2.7604	-3.0667	-2.9833	-2.7875	-2.9062	-2.7896	-2.9354	112.204	189.503	96.837	74.891	263.756	27.319	215.941	-69.292	147.769	229.952	206.394	144.059	165.444	51.348	-59.457	128.532	0.0001485	0.00019066	3.7092e-05	441.08	1.2412e-06	1.8033e-06	712.01	87.032	1.9251e-06	2.0252e-06	182.61	50.44	20.398	4.9926	2.4285e-06	18.182	6.9346e-05	4.7468e-05	1.327e-05	413.36	5.3681e-07	4.2217e-07	667.95	81.963	5.5982e-07	4.8561e-07	162.45	47.961	19.326	4.7476	5.5834e-07	17.378	125.120	9.387	57.343	-75.906	-38.919	29.384	-75.799	-72.223	-4.862	65.566	-71.945	-66.672	-68.078	-61.991	47.509	-61.372	-8191	255	
2193.613	1	1	0	0	0.16802	0.18474	0.038593	0.15209	0.23845	0.087232	0.045782	0.16035	0.047906	0.069121	0.32314	0.14515	0.066436	0.23497	0.30236	0.24246	-2.4875	-2.7146	-3.0187	-3.0146	-2.7792	-3.0583	-2.9229	-2.8417	-2.9833	-2.7958	-2.9917	-2.9729	-2.6771	-3.0312	-2.7458	-2.8104	-64.062	-9.821	151.977	-45.685	206.931	-80.297	-74.089	239.550	232.079	217.325	-81.637	209.813	-59.691	81.394	201.512	82.474	0.00012806	0.00017844	6.4189e-05	438.8	1.9519e-06	3.1556e-06	704.39	86.282	5.686e-07	1.3211e-06	186.47	50.888	20.267	5.0709	2.177e-06	18.408	6.8395e-05	4.8465e-05	1.1264e-05	409.62	5.5926e-07	4.776e-07	663.61	81.033	5.625e-07	5.3396e-07	164.24	48.11	19.283	4.7864	5.2228e-07	17.469	107.190	-21.081	24.101	-75.997	101.385	44.619	-75.540	-72.365	44.187	38.883	-71.084	-66.511	-68.605	-62.725	66.144	-61.345	-8191	255	
2193.710	1	1	0	0	0.11056	0.12119	0.10866	0.11276	0.057454	0.10264	0.17733	0.19897	0.22357	0.10575	0.078525	0.16563	0.11558	0.16382	0.047894	0.20953	-2.6771	-2.675	-2.8958	-2.9708	-2.7812	-3.0146	-2.9396	-2.8583	-3.075	-2.8729	-2.9437	-3.0771	-2.6042	-2.8937	-2.9229	-2.8104	158.893	-48.004	23.498	77.863	94.460	195.672	186.701	182.966	84.679	31.568	153.015	171.216	161.120	251.707	167.595	218.415	0.00012019	0.00016966	1.1559e-05	435.82	1.4539e-06	3.2867e-06	705.24	85.626	1.8983e-06	1.4708e-06	179.27	51.261	20.451	5.0277	2.3411e-07	18.578	6.7711e-05	4.8846e-05	1.1826e-05	409.25	5.9015e-07	4.6339e-07	663.71	80.48	4.9557e-07	5.0352e-07	159.75	48.403	19.338	4.7948	5.3086e-07	17.718	108.545	17.276	37.617	-76.084	-22.153	77.263	-75.664	-71.758	42.114	89.299	-70.603	-66.210	-68.695	-62.295	134.335	-60.944	-8191	255	
2193.830	1	1	0	0	0.11851	0.37339	0.22118	0.144	0.1388	0.13368	0.18278	0.033094	0.18209	0.088676	0.11006	0.033	0.090853	0.12968	0.10613	0.18576	-2.5458	-2.8354	-2.7938	-3.1208	-2.8208	-3.0438	-2.8625	-2.8042	-2.925	-2.7687	-2.9146	-3.0563	-2.7917	-2.8854	-2.9208	-2.7292	142.850	130.533	240.484	161.691	91.864	242.521	171.174	71.637	247.500	179.462	-53.871	134.950	-50.860	203.017	142.779	184.018	0.00012381	0.00024651	5.2638e-05	439.14	1.1723e-06	3.4186e-06	702.88	85.715	1.0126e-06	1.4579e-06	178.41	50.179	19.965	4.966	1.273e-06	18.207	6.6137e-05	4.9535e-05	1.2637e-05	410	6.1279e-07	4.912e-07	663.07	80.595	5.6749e-07	5.7653e-07	160.96	47.398	18.978	4.7049	5.5035e-07	17.334	108.588	-2.873	4.795	-75.873	138.290	74.969	-75.223	-72.302	-0.462	42.229	-71.941	-66.616	-67.890	-62.163	107.041	-60.872	-8191	255	
2193.926	1	1	0	0	0.063681	0.25663	0.11931	0.045491	0.058926	0.18613	0.23789	0.21152	0.010094	0.2793	0.26128	0.042412	0.13292	0.051386	0.023472	0.039086	-2.575	-2.75	-2.7062	-3.2	-2.6896	-2.8021	-2.9271	-2.8542	-3.15	-2.7896	-2.7375	-3.2562	-2.775	-2.9146	-3.0229	-2.7	107.970	241.605	127.651	250.183	35.863	228.299	210.794	233.885	-86.348	13.004	151.833	-43.347	51.542	208.067	143.241	-85.273	0.00010079	0.00013525	5.9461e-05	439.58	1.0992e-06	1.7175e-06	698.46	84.979	7.3375e-07	2.239e-06	179.2	50.11	19.765	4.9999	6.2033e-07	18.185	6.685e-05	5.4739e-05	1.4324e-05	409.09	5.5868e-07	4.896e-07	658.47	80.032	5.508e-07	5.5584e-07	159.39	47.453	18.919	4.7669	5.3632e-07	17.38	100.588	-10.021	-5.532	-75.785	92.202	68.274	-75.931	-71.724	32.245	83.352	-70.938	-66.660	-68.059	-62.634	52.350	-61.198	-8191	255	
2194.022	1	1	0	0	0.23866	0.15208	0.16778	0.09523	0.38933	0.40023	0.18619	0.077077	0.15584	0.23471	0.20733	0.073312	0.17756	0.10679	0.05421	0.28856	-2.4729	-2.8542	-2.8542	-3.0312	-2.6333	-2.8375	-3.0563	-2.7792	-2.9979	-2.7271	-2.7687	-2.9458	-2.6646	-2.7667	-2.8979	-2.7792	160.793	77.836	184.208	227.209	103.606	123.723	166.910	224.481	83.363	-53.563	-88.746	159.993	-33.928	-41.854	-59.659	239.344	0.00012733	0.00012766	4.7142e-05	436.39	1.5034e-06	1.3967e-06	703.37	85.161	1.0173e-06	1.8192e-06	180.75	50.673	20.042	5.0616	1.0256e-06	18.571	6.7162e-05	4.6978e-05	1.2591e-05	409.54	5.9226e-07	5.3102e-07	661.94	80.288	5.5464e-07	5.8668e-07	160.83	47.889	19.2	4.809	5.8309e-07	17.656	106.047	-60.979	-7.664	-75.847	176.846	45.393	-75.697	-71.831	2.338	31.070	-70.173	-66.009	-67.847	-62.030	15.900	-60.802	-8191	255	
2194.094	1	1	0	0	0.11197	0.10788	0.16042	0.13448	0.098872	0.063054	0.2053	0.16477	0.30711	0.12202	0.20093	0.076278	0.33218	0.2465	0.18297	0.10729	-2.4833	-2.8146	-2.65	-3.0062	-2.8438	-2.9188	-2.9542	-2.8354	-2.8333	-2.8979	-2.8042	-3.0229	-2.7979	-2.7687	-2.9562	-2.6771	226.775	265.718	34.485	193.957	-5.251	-6.650	268.664	-45.864	-78.918	212.795	-42.514	130.983	243.279	264.738	212.412	211.731	0.00013288	0.00010989	3.5094e-05	442.82	8.0296e-07	1.1217e-06	719.5	88.233	7.5506e-07	8.5393e-07	185.36	51.893	20.861	5.1245	1.4046e-06	18.836	7.2005e-05	5.4757e-05	1.6493e-05	415.43	6.4137e-07	5.4142e-07	675.09	83.447	5.8398e-07	5.6638e-07	165.14	48.982	19.865	4.8916	5.5639e-07	17.914	116.590	2.966	-7.447	-76.232	-10.384	71.267	-75.740	-72.415	-25.954	65.576	-70.772	-66.460	-68.142	-61.602	72.446	-61.136	-8191	255	
2194.215	1	1	0	0	0.088592	0.17659	0.25335	0.26902	0.15073	0.17071	0.28791	0.12196	0.32355	0.29389	0.24505	0.13787	0.23515	0.12924	0.081385	0.35479	-2.3333	-2.9125	-2.7104	-2.9646	-2.7896	-2.775	-3.0646	-2.7938	-2.8229	-3.0062	-2.6292	-3.0854	-2.7938	-2.6562	-3.1083	-2.8021	22.238	262.931	98.916	193.315	-49.914	-64.144	180.344	-69.437	1.781	237.375	-89.065	214.769	246.608	106.729	-70.443	64.924	0.0001002	0.00016162	5.9058e-05	450.58	1.3991e-06	1.923e-06	713.18	88.561	2.1313e-07	2.9136e-06	183.06	50.74	20.812	5.1765	1.4693e-06	18.605	7.2272e-05	5.3306e-05	1.4704e-05	418.77	6.4962e-07	5.8264e-07	675.06	83.472	5.9721e-07	5.7136e-07	165.61	48.388	19.733	4.8842	5.9575e-07	17.765	112.618	-11.439	13.426	-75.583	38.628	58.520	-75.663	-72.543	175.569	99.443	-72.618	-66.695	-68.245	-61.847	83.309	-60.749	-8191	255	
2194.311	1	1	0	0	0.12618	0.12875	0.18159	0.12219	0.09542	0.24597	0.17389	0.27317	0.1579	0.01437	0.31292	0.16984	0.15702	0.14873	0.31036	0.092183	-2.45	-2.7104	-2.7271	-3.0083	-2.8125	-2.7021	-3.0146	-2.725	-2.7812	-3.1604	-2.8563	-2.9396	-2.7604	-2.6417	-2.9604	-2.8167	162.673	121.051	15.759	252.608	31.596	173.907	-38.034	-63.696	-61.403	238.615	-19.544	247.368	142.617	84.044	45.067	56.001	0.00013212	0.00023237	1.8619e-05	439.7	2.7526e-06	1.5397e-06	710.16	87.239	2.0632e-06	1.4982e-06	178.25	50.828	20.223	5.0494	2.4096e-06	18.715	7.7932e-05	5.5573e-05	1.6391e-05	414.84	7.1428e-07	6.7648e-07	665.73	82.114	6.8313e-07	6.1134e-07	161.47	48.003	19.344	4.8066	5.7763e-07	17.745	108.221	-19.758	-16.692	-75.768	66.872	61.451	-75.632	-72.275	55.624	54.389	-71.217	-66.939	-68.412	-62.213	94.346	-60.726	-8191	255	
2194.407	1	1	0	0	0.15161	0.078298	0.19602	0.10927	0.11452	0.057619	0.23573	0.18656	0.11346	0.061329	0.20916	0.3384	0.017744	0.15632	0.2155	0.11554	-2.4604	-3.05	-2.7521	-3.0333	-2.9271	-2.8646	-2.9958	-2.7646	-2.8646	-3.0583	-2.8563	-3.0125	-2.8396	-2.7938	-3.0833	-2.85	249.356	150.412	207.696	37.362	-17.960	162.456	191.114	-60.702	179.932	2.846	48.540	250.952	245.652	132.793	81.545	219.751	0.00012461	0.00019933	6.5166e-05	440.26	1.0536e-06	1.6875e-06	708.62	87.137	1.9828e-06	1.3141e-06	183.56	51.136	20.262	5.2026	1.3414e-06	18.658	7.6209e-05	5.5301e-05	1.5733e-05	412.26	6.8262e-07	6.6107e-07	665.7	82.177	6.8121e-07	5.8827e-07	164.13	48.296	19.468	4.8898	5.825e-07	17.721	110.884	51.866	41.737	-76.066	50.512	59.429	-75.727	-72.412	71.577	57.624	-71.231	-66.509	-68.563	-62.827	38.375	-61.380	-8191	255	
2194.501	1	1	0	0	0.13758	0.088595	0.22377	0.26493	0.19219	0.29057	0.12736	0.12517	0.16427	0.12288	0.21094	0.16278	0.20023	0.10092	0.1026	0.10419	-2.0667	-2.8667	-2.6417	-2.9396	-3.0021	-2.7771	-3.2583	-2.9083	-2.6125	-2.9292	-2.4729	-2.9208	-3.1229	-2.6937	-2.9771	-2.9104	230.403	200.499	224.996	255.373	201.766	26.167	117.259	256.220	116.690	36.702	21.316	190.502	38.809	190.270	50.636	109.897	0.0001353	0.00019708	4.7044e-05	444.53	1.4179e-06	1.1255e-06	703.07	87.882	1.1193e-06	5.9785e-07	184.6	50.935	20.721	5.1628	1.3335e-06	18.713	7.7917e-05	5.7114e-05	1.5864e-05	414.76	6.8243e-07	6.0885e-07	665.11	82.237	7.1804e-07	5.9264e-07	164.42	48.348	19.578	4.9138	5.5054e-07	17.855	98.537	28.925	-18.874	-75.881	35.603	58.621	-75.808	-72.514	-19.059	81.265	-70.995	-66.181	-69.122	-63.140	40.754	-61.379	-8191	255	
2194.622	1	1	0	0	0.1599	0.16484	0.17602	0.32301	0.057455	0.087393	0.11079	0.2711	0.078357	0.15795	0.16333	0.21883	0.045752	0.13497	0.094586	0.21702	-2.2125	-2.8958	-2.5792	-2.8583	-2.9458	-2.7125	-2.9	-3.0438	-2.9042	-3.1146	-2.7792	-2.7771	-3.0542	-2.6875	-3.0438	-2.875	0.856	219.914	105.891	198.330	9.391	77.884	172.678	208.289	95.258	-66.354	123.730	136.104	-29.315	76.606	75.965	90.106	0.0001199	3.8237e-05	3.0191e-05	446.23	7.0654e-07	1.774e-06	708.24	86.938	6.6208e-07	8.2161e-07	175.9	50.602	20.372	5.0321	7.0997e-07	18.589	8.279e-05	5.7386e-05	1.5986e-05	415.17	6.7994e-07	6.0985e-07	668.44	82.046	6.4267e-07	5.4748e-07	162.34	47.774	19.346	4.8062	6.3259e-07	17.526	112.969	163.063	-67.617	-76.126	44.525	89.147	-76.098	-72.424	76.006	54.973	-70.637	-66.727	-67.589	-62.350	178.126	-60.862	-8191	255	
2194.694	1	1	0	0	0.14777	0.24701	0.10121	0.084533	0.12472	0.22081	0.075416	0.027952	0.036368	0.074745	0.21358	0.003422	0.16327	0.096283	0.053073	0.11608	-2.2083	-2.7979	-2.7104	-2.7375	-2.9562	-2.8021	-2.8667	-2.8875	-2.6521	-2.9625	-2.7167	-2.8063	-3.0042	-2.8271	-2.8021	-2.8979	37.279	100.584	87.073	250.931	124.679	46.480	32.089	5.151	17.669	-71.828	257.361	-53.132	268.089	160.738	-31.072	-48.726	0.00011807	3.4155e-05	5.5027e-05	439.79	2.8191e-06	1.862e-06	703.14	85.868	9.0663e-07	2.2662e-06	184.93	49.555	20.247	5.0662	1.7121e-06	18.524	8.1096e-05	5.3216e-05	1.6097e-05	412.77	6.7399e-07	6.1965e-07	661.45	81.069	6.511e-07	5.4748e-07	162.72	47.338	19.262	4.812	6.2089e-07	17.528	114.936	30.201	-1.008	-75.530	98.633	75.763	-75.562	-72.364	109.443	61.283	-70.794	-66.150	-68.375	-62.421	63.179	-61.183	-8191	255	
2194.792	1	1	0	0	0.099994	0.14348	0.17154	0.16251	0.18384	0.097927	0.13511	0.25754	0.10133	0.045505	0.16389	0.31245	0.04354	0.15065	0.1011	0.26761	-2.1854	-2.9458	-2.7646	-2.7458	-2.8937	-2.7167	-3.0125	-2.9896	-2.8312	-3.0333	-2.9938	-2.8542	-3.0604	-2.8646	-2.6521	-3.1354	92.146	181.038	265.340	-50.170	217.625	191.867	252.142	216.769	205.432	243.820	-41.376	162.903	103.857	188.998	-75.985	169.418	0.00012528	6.7097e-05	8.0213e-05	441.14	3.5905e-07	1.367e-06	702.33	85.989	1.7895e-06	1.0733e-06	177.77	50.101	20.321	5.1633	1.1453e-06	18.574	8.2374e-05	5.6352e-05	1.8383e-05	412.49	6.3696e-07	6.7928e-07	662.21	80.984	6.8773e-07	5.7315e-07	160.67	47.592	19.08	4.8674	6.3902e-07	17.684	123.500	70.433	12.850	-75.815	129.768	72.086	-75.374	-71.915	2.742	6.519	-70.348	-66.600	-67.974	-62.307	54.868	-60.675	-8191	255	
2194.911	1	1	0	0	0.23932	0.24273	0.23968	0.053054	0.16258	0.097687	0.24347	0.184	0.036524	0.059322	0.21215	0.16588	0.1608	0.11497	0.088205	0.060847	-2.4396	-3.0354	-2.8479	-2.7417	-3.0667	-2.875	-2.9917	-3.1042	-2.8917	-2.9833	-2.8937	-2.6458	-2.9854	-2.6813	-2.8063	-2.9354	-45.207	210.498	258.373	217.174	86.093	-23.393	266.838	-89.380	263.384	127.542	16.233	-15.230	194.186	-46.662	-38.735	246.618	0.00012429	6.5407e-05	5.2039e-05	440.04	2.136e-06	1.3683e-06	704.13	84.857	1.19e-06	1.8916e-06	178.57	50.018	19.841	5.0487	1.5685e-06	18.638	8.4379e-05	5.2273e-05	1.7379e-05	411.47	6.6766e-07	6.7528e-07	660.87	80.385	7.1056e-07	5.4768e-07	158.98	47.443	18.87	4.8051	6.2869e-07	17.716	129.065	203.121	-8.082	-75.603	59.545	124.358	-75.257	-72.363	43.966	85.787	-72.678	-66.278	-67.236	-62.115	42.463	-61.039	-8191	255	
2195.007	1	1	0	0	0.14391	0.32976	0.23373	0.23403	0.14185	0.13657	0.33943	0.1288	0.11271	0.15259	0.022669	0.05815	0.10183	0.30425	0.15563	0.29217	-2.4479	-2.8896	-3.0083	-2.6458	-3.0083	-3.0354	-2.8333	-3.0396	-2.7896	-3.0417	-3.0917	-2.6896	-2.9417	-2.5542	-2.7958	-3.1021	61.122	-0.850	83.961	218.045	5.043	212.579	147.793	214.057	-68.259	-58.529	239.784	175.834	268.688	143.351	198.630	-14.065	0.00012109	0.00016312	4.989e-05	434.46	2.0037e-06	2.7388e-06	694.11	82.455	1.0717e-06	1.9759e-06	176.54	49.669	19.691	4.9549	1.3421e-06	18.384	8.64e-05	6.0994e-05	1.8109e-05	405.23	6.8684e-07	7.1709e-07	652.96	77.911	7.0768e-07	6.9629e-07	157.4	47.185	18.566	4.7646	7.4952e-07	17.613	121.040	-54.760	29.286	-75.663	161.454	58.329	-75.593	-71.383	87.033	103.785	-69.831	-65.633	-67.933	-61.385	64.987	-61.407	-8191	255	
2195.103	1	1	0	0	0.33739	0.25205	0.095707	0.026534	0.02541	0.035883	0.089523	0.095925	0.17866	0.11665	0.16215	0.22926	0.16678	0.26474	0.17322	0.18665	-2.325	-2.9354	-3.1437	-2.7062	-3.0375	-2.9958	-2.9521	-3.2188	-2.8604	-2.8688	-2.9646	-2.6021	-2.8979	-2.8583	-2.8375	-2.9208	32.970	202.272	191.963	82.819	118.844	258.143	243.914	-16.907	-30.422	184.074	-36.410	119.493	30.315	-88.008	142.253	252.712	0.00011677	0.00014197	3.9858e-05	430.34	1.2489e-06	1.7268e-06	692.41	82.696	1.5463e-06	1.0429e-06	179.19	49.812	19.539	5.0368	1.6012e-07	18.514	9.0663e-05	6.0885e-05	1.7121e-05	403.83	6.9126e-07	6.9869e-07	650.06	77.747	7.7615e-07	6.7242e-07	158.12	47.146	18.654	4.7757	6.741e-07	17.682	118.825	-28.074	-28.614	-75.601	259.252	12.145	-75.617	-71.933	39.863	34.204	-72.309	-66.495	-67.082	-61.971	178.171	-61.046	-8191	255	
2195.199	1	1	0	0	0.047733	0.12139	0.13624	0.12606	0.064564	0.15776	0.30699	0.16678	0.069104	0.10989	0.080058	0.36508	0.14677	0.053036	0.12363	0.3616	-2.2958	-2.5042	-3.0917	-2.6979	-2.8729	-3.0563	-2.7854	-3.0667	-2.8812	-2.8479	-3.0521	-2.7	-2.9813	-2.9042	-2.6771	-2.975	45.935	25.692	20.428	-7.923	-12.688	3.054	236.269	128.272	220.157	49.537	24.200	133.756	209.435	-68.571	224.451	144.392	0.00011606	0.00015646	8.4177e-05	431.6	1.3442e-06	3.145e-06	685.97	81.681	1.3507e-06	2.0311e-06	174.89	49.263	19.438	5.005	1.1682e-06	18.529	8.6013e-05	6.3913e-05	1.703e-05	404.84	7.3174e-07	6.8668e-07	648.07	77.107	6.7738e-07	6.2587e-07	156.14	46.945	18.512	4.7529	6.8988e-07	17.658	110.455	15.185	19.992	-75.680	85.159	52.654	-75.552	-72.299	62.157	70.992	-73.141	-66.272	-67.419	-62.530	23.951	-60.634	-8191	255	
2195.295	1	1	0	0	0.057208	0.23576	0.084521	0.12206	0.22106	0.13494	0.089777	0.26095	0.25422	0.062676	0.13141	0.1369	0.15094	0.24469	0.072997	0.134	-2.5521	-2.8021	-2.8667	-2.8042	-2.8917	-3.0083	-2.8771	-2.8937	-2.8417	-2.6354	-2.9938	-2.7729	-2.8812	-3	-2.8625	-2.7833	-76.708	111.579	-46.689	247.536	-49.647	154.723	-60.120	264.736	16.402	35.166	-52.585	-45.396	131.143	-48.078	238.033	257.703	9.9419e-05	4.454e-05	2.3711e-05	433.4	3.0658e-06	2.6745e-06	691.05	82.562	1.2336e-06	1.8547e-06	173.03	50.152	19.679	5.0848	1.0638e-06	18.951	8.0576e-05	6.181e-05	1.6513e-05	405.8	6.7687e-07	7.187e-07	652	77.767	8.3713e-07	7.1539e-07	157.84	47.509	18.85	4.8319	7.6803e-07	18.061	121.651	11.092	-12.654	-75.892	37.845	46.820	-75.127	-71.609	69.163	94.038	-71.372	-65.567	-67.980	-61.889	45.559	-60.964	-8191	255	
2195.391	1	1	0	0	0.34645	0.046598	0.17051	0.086748	0.30736	0.16336	0.06073	0.13324	0.15757	0.19402	0.25282	0.1524	0.23345	0.037351	0.20149	0.24122	-2.5521	-2.7	-2.875	-2.925	-2.7104	-3.0333	-2.8271	-3.0062	-3.0417	-2.7875	-3.025	-2.7438	-2.6458	-3.0771	-2.7417	-2.8771	50.196	83.068	88.584	94.557	168.237	208.322	-13.686	-37.391	41.296	94.159	223.968	-47.373	-0.068	139.452	72.846	57.249	0.00013276	0.00018727	6.492e-05	432.32	8.6298e-07	1.13e-06	692.29	83.051	4.7003e-07	1.3808e-07	179.74	50.464	19.903	5.1748	1.1284e-06	18.617	8.839e-05	6.4675e-05	1.8109e-05	404.6	7.6032e-07	7.1349e-07	653.29	78.242	7.8094e-07	7.1181e-07	158.91	47.77	18.852	4.8959	7.1814e-07	17.84	130.934	-54.844	18.324	-75.755	91.081	73.322	-75.671	-72.149	44.314	-88.477	-71.169	-66.272	-68.356	-62.255	-12.880	-61.148	-8191	255	
2195.512	1	1	0	0	0.16301	0.20213	0.16371	0.19434	0.070295	0.111	0.23256	0.17324	0.15926	0.084554	0.1696	0.057307	0.25374	0.12063	0.24344	0.094437	-2.4646	-2.6354	-2.9146	-2.8187	-2.6833	-3.1396	-2.8604	-2.8854	-2.9562	-2.6167	-3.0021	-3	-2.6521	-2.9229	-2.8979	-2.8917	138.105	135.958	-40.698	-38.317	212.525	-43.286	224.959	158.235	68.396	12.229	-60.845	20.815	-50.398	-58.720	34.716	123.452	0.00011409	0.00023442	5.3074e-05	433.37	1.4172e-06	7.127e-07	693.92	83.892	1.905e-06	1.5798e-06	176.57	50.168	19.932	5.1673	2.1428e-06	18.817	8.8494e-05	6.6306e-05	1.6437e-05	407.68	7.9217e-07	6.4386e-07	652.71	78.736	7.2341e-07	8.0054e-07	159.28	47.433	18.921	4.8707	8.4286e-07	17.879	107.400	27.588	41.653	-75.836	40.719	45.766	-75.670	-71.758	30.123	32.709	-71.722	-65.854	-67.768	-62.125	78.420	-60.649	-8191	255	
2195.606	1	1	0	0	0.087626	0.16003	0.14117	0.12692	0.16004	0.28812	0.28026	0.15843	0.079476	0.040438	0.25379	0.0841	0.062784	0.028393	0.20797	0.11348	-2.5292	-2.7396	-2.9958	-2.9271	-2.9479	-2.9833	-2.7875	-2.7354	-3.1875	-2.8292	-3.0812	-2.9208	-2.7771	-2.9146	-3.0563	-2.9708	247.577	236.568	95.851	-3.128	188.518	143.838	143.844	64.112	97.226	263.230	-81.789	137.690	10.877	-19.899	-32.166	160.406	0.00015907	3.5622e-05	4.8854e-05	434.52	2.0165e-06	1.244e-06	695.56	84.106	9.0844e-07	1.9401e-06	175.37	50.229	20.191	5.0989	3.477e-06	18.625	8.8346e-05	6.6379e-05	1.8094e-05	407.21	7.7644e-07	6.6227e-07	653.52	79.461	7.2858e-07	6.8694e-07	158.36	47.593	18.92	4.8511	7.4484e-07	17.897	117.198	2.192	-18.307	-75.664	16.722	30.542	-75.623	-71.856	-23.819	54.793	-71.719	-66.046	-67.557	-61.779	29.984	-61.530	-8191	255	
2195.702	1	1	0	0	0.16108	0.05219	0.027261	0.073808	0.044394	0.017859	0.13213	0.073322	0.36374	0.15412	0.11898	0.14259	0.15325	0.27062	0.16934	0.085278	-2.6083	-2.8167	-2.7979	-2.9875	-2.7438	-2.9938	-2.9417	-2.7562	-3.0354	-2.8167	-2.7062	-3.0104	-2.6792	-2.8271	-2.8042	-2.75	105.388	31.044	-10.973	-76.584	96.200	-66.523	247.854	75.042	236.124	38.516	-25.166	231.422	221.738	250.748	237.325	-49.546	0.00013064	0.00017758	6.1234e-05	435.18	6.6915e-08	1.5417e-06	696	83.894	1.8567e-06	7.2391e-07	178.54	50.254	19.848	5.0284	2.3416e-06	18.93	8.3443e-05	6.4747e-05	1.7506e-05	407.64	7.515e-07	6.4206e-07	654	78.903	7.1228e-07	6.8117e-07	159.4	47.57	19.054	4.8372	6.4623e-07	17.996	91.077	34.691	43.005	-76.021	222.491	67.377	-75.905	-71.764	43.954	92.754	-71.626	-66.353	-68.141	-62.534	30.862	-60.720	-8191	255	
2195.799	1	1	0	0	0.069961	0.2955	0.12748	0.21459	0.21163	0.078208	0.21644	0.1713	0.11123	0.27927	0.11008	0.15249	0.048897	0.11955	0.28582	0.19284	-2.7896	-2.6104	-2.9188	-2.9375	-2.7792	-3.0187	-3.0771	-2.6688	-3.0083	-2.8958	-2.7208	-3.0604	-2.8312	-2.9979	-2.8792	-2.775	50.378	51.723	127.671	256.000	235.994	140.313	233.752	176.269	8.745	201.789	186.084	191.286	129.497	243.450	-14.184	254.992	0.00010426	0.00010779	5.9937e-05	436.47	1.927e-06	2.0207e-06	697.27	84.24	2.5834e-06	1.4392e-06	177.24	50.068	19.754	5.0797	1.6837e-06	18.607	7.8066e-05	6.4312e-05	1.7896e-05	410.2	7.538e-07	6.5707e-07	656.51	79.333	7.0001e-07	7.0922e-07	158.22	47.297	18.793	4.8654	7.6861e-07	17.707	114.647	5.016	25.595	-75.715	36.157	27.226	-75.648	-72.377	-9.102	63.557	-70.462	-66.288	-68.046	-62.146	106.534	-60.443	-8191	255	
2195.919	1	1	0	0	0.072581	0.20629	0.075156	0.08129	0.11098	0.23536	0.18266	0.18851	0.25492	0.22757	0.32591	0.16344	0.043261	0.040568	0.25827	0.23501	-2.6042	-2.8854	-2.8479	-3.1	-2.8771	-3.0646	-3.0979	-2.6354	-3.0438	-2.7729	-2.8187	-3.0792	-2.7604	-2.8229	-3.0604	-2.8	192.869	154.723	196.574	134.376	-22.375	170.582	115.856	193.177	-42.917	254.991	102.253	75.875	-11.776	206.585	230.796	110.370	9.5593e-05	0.00012622	2.6768e-05	436.51	1.9134e-06	5.6277e-07	692.76	82.735	1.4127e-06	7.1736e-07	178.19	49.942	19.543	5.0999	1.625e-06	18.8	8.1824e-05	6.841e-05	1.6746e-05	406.84	8.292e-07	6.4687e-07	651.55	78.096	6.5552e-07	7.6135e-07	158.21	47.278	18.747	4.8631	7.7699e-07	17.879	119.946	36.275	95.596	-75.635	64.849	3.691	-75.473	-72.278	72.490	163.192	-71.278	-66.401	-67.316	-61.215	46.582	-60.430	-8191	255	
2195.991	1	1	0	0	0.18182	0.35775	0.16134	0.05771	0.24142	0.42246	0.092651	0.14151	0.074614	0.10754	0.17314	0.13008	0.13786	0.14926	0.027541	0.064505	-2.5667	-2.8708	-2.6417	-3.0125	-2.7646	-2.8396	-3.1229	-2.7333	-3.05	-2.8792	-2.7917	-3.0292	-2.7917	-2.8563	-3.0208	-2.675	82.872	4.561	185.726	193.125	21.685	93.383	144.465	178.471	11.310	144.322	6.306	98.635	249.509	41.777	86.725	262.892	0.00011357	0.00019523	2.8625e-05	432.92	2.0246e-06	2.6816e-06	690.51	83.326	5.3347e-07	2.1422e-06	174.37	50.528	20.313	5.1585	1.986e-06	18.862	8.6415e-05	6.85e-05	1.7805e-05	405.33	8.6949e-07	7.5571e-07	650.65	78.862	7.5448e-07	7.6692e-07	159.05	47.822	19.276	4.9267	7.2028e-07	17.916	122.442	34.443	12.277	-75.624	72.552	114.697	-75.626	-71.894	34.925	60.888	-71.723	-66.047	-67.824	-62.168	51.085	-60.853	-8191	255	
2196.087	1	1	0	0	0.3158	0.15287	0.10421	0.21893	0.17282	0.21635	0.35239	0.15468	0.086983	0.17863	0.047149	0.14611	0.12314	0.10673	0.17996	0.31852	-2.5958	-2.75	-2.8	-3.0979	-2.775	-2.7438	-2.9875	-2.8104	-2.8521	-2.9188	-2.5854	-2.9896	-2.7958	-2.95	-3.2604	-2.8604	-20.523	104.885	14.627	-50.390	97.271	175.470	197.079	212.943	211.276	226.239	-28.509	87.158	31.821	98.532	257.492	174.950	0.00012099	0.00020034	5.95e-05	445	1.6954e-06	1.6928e-06	702.79	86.273	1.4938e-06	8.9072e-07	179.74	51.019	20.452	5.2153	7.3631e-07	18.914	8.071e-05	6.3043e-05	1.7435e-05	415.4	8.1404e-07	7.0289e-07	663.06	81.52	6.9004e-07	7.3489e-07	160.35	48.152	19.431	4.9808	6.9261e-07	17.965	107.601	-23.851	6.749	-75.824	81.508	31.498	-75.458	-72.066	50.965	-17.638	-71.645	-66.197	-68.446	-62.573	45.665	-61.322	-8191	255	
2196.183	1	1	0	0	0.25604	0.11008	0.026455	0.25773	0.23414	0.06464	0.15225	0.16799	0.10916	0.25733	0.14523	0.17325	0.10568	0.11006	0.099759	0.12407	-2.5583	-2.7896	-2.7562	-3.1188	-2.7896	-2.8042	-3.2042	-2.8187	-3.0458	-3.0146	-2.6354	-2.9854	-2.8812	-2.6271	-2.9771	-2.6729	64.745	51.324	15.410	173.239	33.224	87.734	-6.405	169.622	95.214	-20.897	-71.247	132.737	92.201	15.179	94.844	35.782	0.00013689	9.3889e-05	3.5124e-05	445.81	8.4034e-07	8.2097e-07	699.06	85.956	1.4453e-06	1.5267e-06	180.71	49.967	19.805	5.177	3.5421e-06	19.077	7.4396e-05	6.3333e-05	1.7526e-05	418.02	8.1519e-07	7.331e-07	661.02	81.222	7.5601e-07	7.2991e-07	159.75	47.42	19.059	4.9245	6.8092e-07	17.994	113.519	-31.163	66.704	-75.740	115.381	39.963	-75.518	-71.917	85.670	13.796	-70.895	-66.392	-67.979	-61.677	41.064	-61.248	-8191	255	
2196.279	1	1	0	0	0.21869	0.031907	0.10776	0.26496	0.14846	0.091114	0.06701	0.23305	0.21095	0.1602	0.17615	0.25003	0.035244	0.20857	0.21653	0.053865	-2.4417	-2.9542	-2.6312	-2.9167	-2.9479	-2.8292	-3.2167	-2.7125	-2.8958	-2.9688	-2.7083	-2.8375	-2.9896	-2.7271	-2.9313	-2.7708	248.531	125.706	68.722	125.743	-54.182	52.618	263.900	135.508	161.049	-82.557	213.096	-61.119	76.698	182.134	-64.773	250.508	0.0001319	0.00022605	5.8895e-05	437.04	1.45e-06	1.3589e-06	693.79	84.96	1.5403e-06	2.1826e-06	178.3	50.416	20.281	5.2431	1.9835e-06	19.095	8.7098e-05	7.5118e-05	2.0257e-05	409.66	8.5452e-07	8.1994e-07	652.9	79.705	8.8067e-07	9.1831e-07	159.55	47.831	19.166	5.0027	8.0408e-07	18.067	121.976	4.532	29.558	-76.055	51.753	35.899	-75.647	-72.235	-3.053	42.400	-71.670	-66.202	-67.514	-61.851	-41.392	-60.697	-8191	255	
2196.400	1	1	0	0	0.21799	0.14288	0.24966	0.17516	0.2208	0.082525	0.32038	0.10653	0.099949	0.19529	0.13267	0.015235	0.28702	0.22009	0.26132	0.24345	-2.2313	-3.1396	-2.7729	-2.9854	-3.0271	-2.6333	-2.9229	-2.7354	-2.7896	-3.15	-2.7292	-2.9437	-2.9042	-2.8583	-3.1312	-2.8833	209.667	85.173	85.197	229.190	7.960	4.760	263.125	-24.463	147.390	74.159	48.355	-2.368	187.694	-52.545	-79.981	-40.763	0.00011332	0.00034985	4.7534e-05	433.39	2.4661e-07	1.325e-06	693.07	84.027	9.8909e-07	6.5075e-07	177.17	50.268	20.038	5.1368	3.1519e-06	18.814	8.8598e-05	7.0876e-05	2.2431e-05	405.89	9.0153e-07	8.3834e-07	651.36	79.094	8.2486e-07	8.0432e-07	160.53	47.724	19.088	4.9516	7.653e-07	18.073	105.875	11.684	2.095	-75.824	35.319	35.025	-75.326	-71.874	118.735	83.220	-71.703	-66.193	-67.095	-62.687	67.871	-60.901	-8191	255	
2196.494	1	1	0	0	0.20501	0.15011	0.29143	0.031819	0.16275	0.27382	0.21535	0.13	0.20854	0.083424	0.20328	0.033263	0.12187	0.21953	0.12195	0.16013	-2.2854	-2.9271	-2.6854	-2.8937	-2.9188	-2.7854	-3.0792	-2.8792	-2.7771	-3.2292	-2.6688	-2.8729	-2.9375	-2.7771	-3.0542	-2.8583	160.921	-60.093	187.069	259.628	-23.472	-65.305	181.250	58.808	30.549	126.922	177.536	-78.012	78.667	-51.019	112.034	188.317	0.00012628	0.00016106	3.5499e-05	431.59	1.0635e-06	1.0887e-06	690.49	83.334	7.7569e-07	8.4109e-07	173.1	50.234	19.86	5.2703	1.0267e-06	18.984	9.2832e-05	6.8664e-05	2.0997e-05	406.03	8.0426e-07	7.8512e-07	649.36	78.139	8.1585e-07	7.329e-07	157.67	47.455	18.839	4.9357	7.5614e-07	18.169	114.171	-32.304	-14.131	-75.899	2.424	35.036	-75.572	-71.749	128.276	86.159	-71.173	-66.023	-66.810	-62.605	59.754	-60.717	-8191	255	
2196.592	1	1	0	0	0.064344	0.08466	0.12069	0.074432	0.11678	0.27434	0.047754	0.09231	0.059238	0.18525	0.082983	0.17152	0.29477	0.17585	0.19705	0.0035547	-2.3146	-3.0729	-2.9208	-2.8979	-3.0062	-2.7313	-2.9167	-3.0896	-2.6292	-3.0708	-2.825	-2.7833	-2.9875	-2.8917	-2.9729	-2.9437	142.663	124.820	-12.800	-26.701	117.407	-74.135	127.780	-40.237	47.496	207.334	71.919	225.108	-0.500	13.681	40.253	263.146	0.00012205	0.00025791	5.6359e-05	436.81	7.3311e-07	1.3741e-06	692.34	82.762	7.1812e-07	1.3501e-06	177.62	49.664	19.564	5.0531	5.9325e-07	18.728	9.0069e-05	6.598e-05	2.1235e-05	407.93	7.5457e-07	8.0853e-07	651.32	78.398	8.1949e-07	6.6227e-07	157.88	46.977	18.628	4.865	7.1424e-07	17.834	115.775	18.369	39.996	-75.770	241.592	57.107	-75.588	-71.850	96.994	37.625	-71.354	-65.657	-67.013	-61.592	34.175	-60.851	-8191	255	
2196.687	1	1	0	0	0.17346	0.043415	0.10317	0.15673	0.19635	0.35283	0.18826	0.30469	0.08369	0.13271	0.10497	0.10935	0.08124	0.040681	0.11851	0.047914	-2.3083	-2.925	-2.7167	-2.6896	-2.9896	-2.7958	-3.1312	-2.9313	-2.825	-3.1063	-2.8854	-2.8417	-2.9542	-2.7021	-2.9375	-3.2979	-55.499	137.035	48.954	58.679	78.271	246.141	251.558	235.902	191.817	83.004	23.711	141.711	-17.491	264.128	-8.173	241.657	0.00016288	0.00018457	4.2336e-05	431.78	1.6128e-06	2.1452e-06	680.96	82.56	1.5433e-06	8.9237e-07	175.57	48.988	19.465	5.1439	5.7309e-07	18.84	8.9074e-05	6.5509e-05	2.0764e-05	403.28	7.5284e-07	8.5215e-07	642.16	77.334	7.9283e-07	7.3966e-07	157.13	46.61	18.484	4.8644	7.1756e-07	17.869	107.189	-29.993	48.553	-75.677	19.151	84.250	-75.718	-71.228	10.952	32.716	-71.583	-65.599	-67.456	-61.797	4.679	-60.929	-8191	255	
2196.783	1	1	0	0	0.18374	0.14232	0.36361	0.11104	0.33207	0.13159	0.39919	0.074887	0.1789	0.14524	0.30103	0.32628	0.12381	0.12376	0.030451	0.23608	-2.2938	-2.8771	-2.8354	-2.9083	-2.9271	-2.8292	-2.8771	-3.0312	-2.6042	-3.1146	-3.0812	-2.7958	-3.2021	-2.8875	-2.7896	-2.9354	152.198	77.051	-49.514	113.023	-52.683	254.674	227.713	101.065	67.324	22.063	80.872	122.159	93.425	-65.146	18.237	-51.689	0.00011458	0.00019143	5.4394e-05	429.82	1.5948e-06	1.1151e-06	684.43	82.05	4.3267e-07	4.753e-07	173.84	48.896	19.235	4.987	1.3353e-06	18.693	8.7796e-05	6.239e-05	1.8616e-05	401.93	7.9006e-07	7.8952e-07	643.49	76.996	8.193e-07	7.0465e-07	155.4	46.56	18.349	4.7991	7.5731e-07	17.834	121.541	-5.896	-6.579	-75.523	92.473	50.853	-75.391	-71.733	92.119	-8.535	-70.545	-65.980	-66.749	-62.042	133.602	-60.518	-8191	255	
2196.879	1	1	0	0	0.22389	0.17454	0.134	0.22316	0.10598	0.22307	0.14761	0.25716	0.0065668	0.063374	0.1847	0.16991	0.1686	0.25296	0.1254	0.20667	-2.4083	-3.0125	-2.8604	-2.7875	-3.1021	-2.8312	-2.9208	-2.9396	-2.6458	-2.8583	-2.8812	-2.7625	-2.9333	-2.8979	-2.8604	-3.1354	231.676	-89.157	79.169	-61.381	-18.707	-59.894	240.194	11.643	-22.713	-72.472	141.946	127.710	-44.748	202.342	107.448	76.433	0.00015405	0.00017422	2.8337e-05	420.62	1.8388e-06	2.2508e-06	669.15	78.716	1.9238e-06	1.5601e-06	171.45	48.987	19.077	5.0694	7.5581e-07	18.787	8.8895e-05	6.0305e-05	1.7881e-05	395.13	6.6881e-07	7.0589e-07	631.18	74.181	7.3491e-07	6.378e-07	151.39	46.367	18.168	4.7632	6.7098e-07	17.873	106.656	15.380	-13.001	-75.614	17.504	62.992	-75.323	-71.548	90.192	88.097	-71.503	-65.787	-66.666	-61.479	79.498	-60.724	-8191	255	
2197.000	1	1	0	0	0.2598	0.36997	0.18682	0.087461	0.18666	0.11758	0.26803	0.33255	0.073134	0.22917	0.11443	0.21452	0.17869	0.22658	0.29564	0.32091	-2.1979	-2.8333	-2.8958	-2.7042	-3.0229	-2.8208	-2.7375	-2.9313	-2.9437	-2.8729	-3.1396	-2.7771	-3.1292	-2.9021	-2.7062	-2.9729	250.287	45.079	180.751	50.399	206.401	221.228	166.886	44.122	176.215	48.656	24.855	212.634	213.216	189.008	224.106	47.816	0.0001417	0.00019343	5.044e-05	418.77	1.6593e-06	2.008e-06	668.87	78.025	5.0689e-07	1.9915e-06	165.78	48.38	18.858	4.9583	9.1861e-07	18.573	8.2805e-05	6.3097e-05	1.6827e-05	392.51	6.642e-07	7.193e-07	628.73	73.609	7.8976e-07	6.5292e-07	150.62	45.915	17.896	4.7343	7.3899e-07	17.625	104.481	5.275	-19.262	-75.660	91.018	70.589	-75.371	-71.410	33.808	71.527	-71.506	-65.601	-66.156	-61.488	67.300	-61.096	-8191	255	
2197.096	1	1	0	0	0.26266	0.10916	0.063348	0.098224	0.23636	0.092425	0.33688	0.17621	0.40794	0.18211	0.22796	0.26335	0.20205	0.22507	0.20298	0.075263	-2.3458	-2.8688	-3.0563	-2.8083	-2.9125	-2.9146	-2.8521	-2.9083	-2.7562	-2.8417	-2.8021	-2.7771	-2.6854	-2.9417	-2.6833	-2.9667	191.987	49.252	257.646	183.704	256.419	-69.934	255.518	150.769	-79.905	-31.119	198.517	120.644	169.182	96.265	119.524	189.352	0.00011566	0.00021988	3.698e-05	419.09	8.2505e-07	1.5258e-06	659.97	76.466	6.289e-07	1.0848e-06	163.59	47.596	18.553	4.953	1.7166e-06	18.631	8.2062e-05	5.8564e-05	1.5829e-05	390.22	6.2775e-07	6.8908e-07	622.6	72.121	6.9713e-07	6.7799e-07	146.63	45.314	17.63	4.7075	6.5013e-07	17.652	100.855	-7.088	8.410	-75.837	107.312	72.777	-75.249	-71.641	118.793	96.385	-72.078	-65.794	-67.927	-60.656	88.756	-60.768	-8191	255	
2197.192	1	1	0	0	0.1199	0.10821	0.37128	0.22575	0.26413	0.175	0.24885	0.078091	0.41582	0.16468	0.11747	0.27754	0.3264	0.17747	0.096166	0.14885	-2.425	-2.7146	-3.0167	-2.8083	-2.7604	-2.8729	-2.7188	-2.9938	-2.9375	-2.7979	-2.9542	-2.8021	-2.9729	-3.1667	-2.6521	-2.9146	251.867	251.494	34.561	236.054	78.613	-25.581	217.195	244.708	-13.833	210.793	81.169	188.948	234.384	259.584	108.943	238.924	0.0001331	0.00021544	2.6175e-05	415	1.1095e-06	2.1222e-06	658.03	75.968	7.4355e-07	3.5863e-07	167.55	48.43	18.504	5.0065	1.2889e-06	18.722	8.2641e-05	5.7132e-05	1.437e-05	387.87	7.0392e-07	6.4667e-07	619.64	71.781	7.3971e-07	5.9523e-07	150.8	45.899	17.736	4.7695	7.2925e-07	17.852	123.214	34.832	-7.059	-75.508	41.877	71.479	-75.280	-71.344	-66.723	117.051	-69.772	-65.512	-66.580	-60.839	56.317	-61.017	-8191	255	
2197.288	1	1	0	0	0.16906	0.082953	0.21054	0.093137	0.13063	0.23838	0.03628	0.19685	0.31118	0.12238	0.17248	0.11464	0.12915	0.05632	0.10728	0.061887	-2.2438	-2.6896	-3.0062	-2.8771	-2.8208	-3.0771	-2.7583	-3.1063	-3.0292	-2.8771	-3.0875	-2.8167	-2.8	-3.1312	-2.7458	-2.8771	202.049	230.055	-79.900	-57.043	91.283	138.036	241.618	155.810	193.209	205.454	34.642	52.837	-74.682	-42.353	223.716	138.778	0.00010641	9.6721e-05	3.2718e-05	411.6	1.0069e-06	1.1334e-06	652.37	74.604	1.3829e-06	3.7219e-07	162.06	48.468	18.43	4.9405	1.7629e-06	19.08	8.328e-05	6.1991e-05	1.6908e-05	383.13	7.2003e-07	6.6407e-07	613.73	70.515	7.0154e-07	7.0365e-07	147.73	45.997	17.606	4.7643	7.31e-07	18.047	111.479	12.740	161.975	-75.543	106.199	64.456	-75.144	-71.072	80.464	115.196	-72.490	-65.238	-66.138	-60.216	95.887	-60.526	-8191	255	
2197.384	1	1	0	0	0.24297	0.15844	0.17537	0.11008	0.19499	0.10313	0.20659	0.096202	0.15867	0.10784	0.038201	0.12677	0.216	0.12389	0.078781	0.12461	-2.4479	-2.5792	-2.9708	-2.8667	-2.8458	-3.0417	-2.8708	-2.9146	-3.0292	-2.7083	-3.0396	-2.7458	-2.8896	-3.0208	-2.9229	-2.7438	269.415	167.292	157.302	-88.303	-61.100	-55.002	178.300	3.679	48.252	179.120	12.969	132.349	241.384	74.389	270.550	166.063	0.00011481	0.00015083	3.3153e-05	411.2	1.8294e-06	2.0899e-06	661.72	75.266	5.7676e-07	1.2194e-06	165.47	47.684	18.722	4.9876	3.009e-06	18.617	8.79e-05	6.3297e-05	1.6432e-05	384.82	7.1696e-07	6.1525e-07	618.44	71.509	7.3357e-07	7.0027e-07	148.21	45.583	17.671	4.7251	6.9242e-07	17.666	100.973	-26.585	29.313	-75.492	60.242	84.468	-75.229	-71.321	74.377	91.474	-70.201	-65.447	-66.325	-61.319	93.122	-60.417	-8191	255	
2197.480	1	1	0	0	0.15296	0.11486	0.07128	0.093197	0.20911	0.27032	0.18551	0.15502	0.15458	0.11324	0.073816	0.069897	0.18044	0.17713	0.065217	0.17452	-2.5479	-2.7458	-3.1146	-3.0187	-2.8958	-3.0833	-2.9542	-2.8083	-3.0354	-2.7604	-3.0771	-2.9938	-2.7292	-2.9708	-2.8396	-2.7604	163.759	176.416	142.633	213.810	-6.908	23.571	184.739	110.514	126.595	140.296	-17.533	177.591	119.568	193.670	51.540	1.916	0.00016049	0.00016085	6.6153e-05	409.33	9.5281e-07	1.0365e-06	655.19	75.754	1.855e-06	1.7282e-06	158.78	48.243	18.602	4.9965	6.8087e-07	18.544	8.0859e-05	6.3025e-05	1.6032e-05	384.53	6.6958e-07	5.9785e-07	615.34	71.639	7.3817e-07	7.5259e-07	146.32	45.56	17.686	4.7526	7.2282e-07	17.658	106.143	43.775	19.751	-75.559	18.087	34.954	-75.292	-71.480	55.231	68.106	-70.581	-65.501	-67.061	-61.166	150.676	-60.481	-8191	255	
2197.599	1	1	0	0	0.20789	0.03907	0.11007	0.14381	0.20588	0.20854	0.28288	0.34737	0.040549	0.063671	0.11594	0.16932	0.05563	0.055202	0.10112	0.13109	-2.6729	-2.65	-2.9042	-3.0958	-3.0563	-2.9813	-2.9521	-2.875	-3.0854	-2.5625	-3.0625	-2.9167	-2.5917	-3.0083	-2.7604	-2.9625	-56.621	-86.964	-27.448	179.550	-22.495	157.112	250.171	104.450	21.675	62.430	-65.195	72.724	193.401	126.461	153.794	-4.188	0.00012519	0.00023045	2.7255e-05	418.13	1.5418e-06	1.1184e-06	665.23	77.037	2.0949e-06	8.5021e-07	167.6	48.62	18.777	4.991	1.3433e-06	18.668	7.8809e-05	6.2263e-05	1.5687e-05	390.97	7.4171e-07	5.7844e-07	622.54	72.737	6.3365e-07	6.9152e-07	149.73	45.786	17.961	4.7585	6.131e-07	17.618	111.074	-40.547	86.222	-75.780	80.439	28.050	-75.318	-71.027	1.120	146.731	-70.417	-66.136	-66.996	-61.847	68.381	-60.635	-8191	255	
2197.695	1	1	0	0	0.1327	0.13426	0.20357	0.016175	0.11515	0.054968	0.20748	0.24361	0.17938	0.21074	0.4006	0.060757	0.068341	0.077009	0.14304	0.2759	-2.5438	-2.5312	-2.6958	-3.0792	-2.6792	-2.9458	-3.0792	-2.9062	-3.0896	-2.7229	-2.9583	-2.9021	-2.7438	-2.9833	-2.8208	-2.6792	-28.641	118.263	88.111	261.780	45.164	261.320	170.214	-51.953	-49.101	-21.129	121.029	190.483	109.905	52.827	67.368	256.965	0.00011576	0.00021124	7.4657e-05	417.35	8.781e-07	2.0913e-06	664.74	78.156	1.9788e-06	1.5224e-06	165.39	48.764	19.237	5.0421	1.3632e-06	18.663	7.7932e-05	6.482e-05	1.704e-05	390.58	7.2042e-07	6.8848e-07	625.35	73.821	6.8563e-07	6.6247e-07	150.15	46.198	18.193	4.7803	6.9027e-07	17.775	106.528	-47.831	22.193	-75.635	44.678	38.126	-75.258	-70.935	24.283	88.779	-70.199	-65.645	-67.134	-61.743	80.964	-60.487	-8191	255	
2197.792	1	1	0	0	0.13665	0.267	0.041993	0.19427	0.25216	0.045831	0.087315	0.21323	0.063774	0.045461	0.071065	0.12291	0.086801	0.1886	0.18063	0.066986	-2.5042	-2.75	-3	-2.9604	-2.4562	-2.9167	-2.9521	-2.6042	-3.0646	-2.7167	-2.7542	-3.0583	-2.8521	-2.9417	-2.8167	-2.5563	238.227	130.789	-79.574	-76.413	35.199	-14.093	44.804	204.482	203.623	214.219	18.401	-13.059	-30.899	14.141	256.191	62.315	0.00014583	0.00018416	4.1222e-05	421.4	1.0759e-06	2.7922e-06	667.29	78.765	9.1065e-07	1.4804e-06	170.55	48.715	18.977	4.985	1.294e-06	18.297	7.8422e-05	6.1393e-05	1.5484e-05	394.4	7.5015e-07	6.0625e-07	629.29	74.561	6.0872e-07	6.392e-07	152	46.053	17.989	4.7525	6.6552e-07	17.473	126.216	-46.886	32.953	-75.335	-72.380	111.299	-75.168	-71.431	-1.179	65.513	-71.396	-65.956	-66.695	-61.283	145.959	-60.438	-8191	255	
2197.863	1	1	0	0	0.16444	0.056988	0.21215	0.044437	0.27768	0.022911	0.02813	0.07586	0.24888	0.145	0.20388	0.048936	0.13335	0.054869	0.15427	0.19298	-2.6604	-2.8167	-2.6333	-2.9771	-2.7083	-2.8979	-2.9896	-2.5667	-3.1417	-2.8125	-2.725	-3.1312	-2.7979	-2.9	-3.0687	-2.8438	201.765	78.708	98.039	-34.108	67.068	-72.299	146.445	176.036	143.715	-46.907	160.006	90.195	27.993	259.793	122.113	248.916	0.0001281	0.00019279	4.6623e-05	424.38	1.3303e-06	8.7628e-07	660.65	78.426	1.2323e-06	2.4439e-06	171.42	48.079	18.753	4.9257	1.8251e-06	18.065	7.6833e-05	5.7259e-05	1.6254e-05	394.51	7.3385e-07	5.5823e-07	622.15	73.646	6.2234e-07	7.0902e-07	150.42	45.294	17.824	4.6787	6.0764e-07	17.29	114.899	-6.563	17.345	-75.557	-20.457	98.508	-75.320	-71.106	46.975	33.612	-70.656	-65.847	-67.449	-61.495	41.206	-60.415	-8191	255	
2197.984	1	1	0	0	0.030815	0.054683	0.085439	0.11358	0.14154	0.2719	0.30187	0.24606	0.020451	0.23402	0.12579	0.20173	0.17366	0.024207	0.14664	0.12069	-2.525	-2.9188	-2.7271	-3.0208	-2.7875	-2.8958	-2.9646	-2.5271	-3.05	-2.7542	-2.7042	-3.0438	-2.7792	-2.8083	-3.0354	-2.7562	230.907	152.368	124.102	154.282	97.472	155.884	253.784	188.910	-77.547	259.422	252.984	180.140	123.888	199.090	269.579	-70.320	0.00011261	4.4133e-05	2.1277e-05	418.65	1.8323e-06	1.4026e-06	661.58	78.32	1.5201e-06	3.1226e-06	166.05	48.309	19.001	4.9419	1.7134e-06	18.417	7.6759e-05	5.9126e-05	1.7101e-05	390.57	7.3653e-07	5.8204e-07	623.58	73.793	6.2349e-07	6.3502e-07	150.55	45.481	17.997	4.679	6.094e-07	17.37	116.340	19.842	-57.513	-75.734	35.224	59.178	-75.670	-71.294	-8.758	87.083	-71.385	-66.221	-67.056	-61.474	16.165	-60.187	-8191	255	
2198.080	1	1	0	0	0.069859	0.14808	0.32387	0.11655	0.23144	0.10609	0.038494	0.1822	0.17737	0.16204	0.057644	0.03204	0.14911	0.045861	0.033821	0.055547	-2.5375	-2.7771	-2.4646	-3.075	-2.825	-2.7417	-2.8438	-2.7354	-2.9542	-2.8083	-2.7625	-2.8812	-2.8208	-2.7521	-3.0083	-2.7104	174.302	168.438	-15.288	209.400	175.233	7.832	270.735	190.624	158.126	83.859	-32.662	62.797	38.839	3.898	125.465	-38.136	9.447e-05	0.00020379	6.02e-05	418.89	4.9524e-07	9.9826e-07	665.17	78.147	2.3286e-06	1.5952e-06	168.27	48.22	18.678	4.8833	2.1312e-06	18.447	7.7709e-05	5.8365e-05	1.7258e-05	390.15	7.2732e-07	5.9504e-07	623.6	73.447	6.5782e-07	6.3999e-07	152.63	45.579	17.85	4.6666	6.1096e-07	17.511	112.685	48.851	-22.056	-75.710	-11.868	24.622	-75.187	-70.700	14.226	59.503	-71.421	-65.564	-67.307	-61.571	54.167	-61.028	-8191	255	
2198.176	1	1	0	0	0.41055	0.0096911	0.10172	0.2217	0.22885	0.25937	0.14124	0.32219	0.12527	0.0721	0.21326	0.23716	0.03779	0.079035	0.1466	0.16106	-2.2042	-2.9646	-2.45	-3.1542	-2.7812	-2.6479	-2.9917	-2.6604	-2.7417	-3.1542	-2.9146	-2.9896	-2.9625	-2.6021	-3.0729	-2.8583	240.574	107.101	187.822	26.255	-22.520	14.565	229.704	15.868	207.385	239.322	58.851	-49.086	-61.818	-57.796	-64.967	60.262	0.00013756	0.00027699	3.663e-05	418.15	2.1592e-06	1.1472e-06	664.32	77.546	1.4128e-06	7.4988e-07	166.39	48.324	18.8	4.9689	1.204e-06	18.259	7.8601e-05	6.1411e-05	1.8367e-05	390.59	6.8531e-07	7.0289e-07	623.7	72.924	6.0949e-07	5.6479e-07	149.27	45.572	17.801	4.6755	5.8621e-07	17.375	108.492	-13.155	2.189	-75.450	4.192	62.737	-75.497	-71.070	83.508	20.403	-70.610	-65.729	-67.717	-61.212	64.003	-60.841	-8191	255	
2198.272	1	1	0	0	0.11848	0.10808	0.17166	0.06986	0.14967	0.09019	0.10412	0.11726	0.24708	0.1337	0.20672	0.11493	0.11588	0.14819	0.16928	0.070117	-2.5062	-2.9833	-2.6583	-3.0021	-2.8917	-2.7958	-3.1583	-2.8417	-2.775	-3.1021	-2.6625	-2.9729	-2.9292	-2.8563	-2.8354	-2.9708	158.147	138.535	-67.465	-77.411	82.530	131.804	69.285	6.120	-84.390	25.051	186.893	82.229	171.913	51.383	-27.803	74.970	0.00013543	0.00021965	7.2793e-06	415.41	4.9122e-07	3.1443e-06	661.18	76.63	1.8386e-06	2.0067e-06	164.41	47.785	18.455	4.9189	9.5449e-07	18.239	7.97e-05	5.6425e-05	1.6751e-05	388.5	7.0756e-07	6.3986e-07	619.68	72.502	6.511e-07	5.9583e-07	149.17	45.121	17.643	4.6351	5.5619e-07	17.382	109.270	5.441	68.689	-75.855	124.056	39.413	-75.211	-71.121	14.942	44.209	-71.873	-66.011	-67.144	-61.850	125.578	-60.657	-8191	255	
2198.391	1	1	0	0	0.083284	0.071598	0.13628	0.23187	0.24186	0.11977	0.043418	0.08006	0.087138	0.27905	0.23922	0.32152	0.049813	0.30515	0.069732	0.11497	-2.4	-3.0812	-2.8458	-3.0479	-2.9042	-2.7167	-3.1729	-2.7458	-2.6021	-3.0229	-2.7604	-2.9375	-2.9833	-2.6	-2.8917	-2.8958	-79.652	147.976	149.650	258.713	-49.716	32.892	267.711	46.024	-67.375	-67.125	172.309	-85.460	252.291	180.604	235.025	94.877	0.00015583	0.00023698	2.809e-05	414.59	5.378e-07	3.0862e-06	659.09	76.692	2.3824e-06	1.9895e-06	165.43	48.232	18.712	4.8683	1.8616e-06	18.613	7.7516e-05	6.123e-05	1.8276e-05	387.3	7.2042e-07	6.8328e-07	617.61	72.153	7.282e-07	5.9722e-07	149.55	45.529	17.773	4.6865	6.4525e-07	17.56	118.776	26.687	-26.720	-75.621	102.578	41.339	-75.227	-71.292	48.979	79.030	-70.770	-66.013	-66.955	-61.282	22.939	-60.760	-8191	255	
2198.465	1	1	0	0	0.18244	0.06957	0.096702	0.14242	0.21306	0.048917	0.13502	0.10707	0.059241	0.12485	0.13781	0.25277	0.124	0.38155	0.21807	0.22127	-2.2854	-3.1	-2.7396	-2.8937	-2.9188	-2.7417	-3.0854	-2.9062	-2.6229	-3.0521	-2.9375	-2.8604	-2.9	-2.575	-2.9104	-2.8479	45.208	-80.099	-30.222	99.746	84.937	43.580	219.294	219.967	96.273	129.719	243.420	-61.109	-77.727	185.765	117.068	181.580	0.00010427	0.00013847	5.0164e-05	413.62	1.1281e-06	1.6441e-06	655.95	77.064	2.0473e-06	1.0556e-06	163.61	48.878	18.714	4.974	1.3971e-06	18.692	7.918e-05	5.8546e-05	1.9087e-05	385.89	6.8588e-07	6.6647e-07	619.1	72.19	7.4067e-07	6.4755e-07	148.93	45.78	17.815	4.7447	6.1076e-07	17.693	101.000	-26.227	-4.120	-74.890	19.137	71.092	-75.297	-70.910	81.726	18.158	-71.236	-65.558	-67.121	-60.603	57.020	-60.577	-8191	255	
2198.561	1	1	0	0	0.095375	0.11253	0.24304	0.26418	0.1969	0.10966	0.11407	0.24557	0.13175	0.1551	0.31353	0.040236	0.16025	0.1219	0.047201	0.20487	-2.2167	-3.0229	-2.7521	-2.7854	-3.1021	-2.7479	-3.0375	-2.9229	-2.7938	-3.0729	-2.7458	-2.7479	-3.0458	-2.7958	-2.9875	-3.0104	166.397	136.380	7.906	217.550	127.443	69.242	-18.114	145.143	-3.710	149.697	172.606	185.788	16.728	18.441	-74.638	197.027	0.0001122	0.00017014	5.5145e-05	412.65	1.1567e-06	7.9295e-07	660.57	76.939	4.7324e-07	2.0618e-06	166.85	48.247	18.6	4.9718	2.0415e-06	18.436	8.1007e-05	5.5029e-05	1.895e-05	388.34	6.9855e-07	6.7268e-07	623.01	72.804	7.0097e-07	6.5292e-07	150.2	45.758	17.77	4.7061	6.4077e-07	17.524	111.563	-46.781	30.434	-75.266	88.950	-51.125	-75.432	-71.184	-77.281	102.415	-72.646	-65.571	-66.443	-60.896	76.168	-60.532	-8191	255	
2198.680	1	1	0	0	0.14318	0.3449	0.2957	0.046505	0.1416	0.12589	0.14305	0.11073	0.18801	0.084544	0.17584	0.23415	0.21696	0.099046	0.17018	0.13431	-2.3396	-2.9479	-2.7	-2.7146	-3.1	-2.6458	-2.8854	-2.8375	-2.8583	-3.0479	-2.9562	-2.6646	-3.0625	-2.7229	-2.9021	-3.0167	84.855	242.088	85.826	14.233	140.176	217.976	268.755	235.771	98.069	263.782	144.304	232.551	178.645	80.037	254.760	44.333	0.00014825	0.00016037	3.8717e-05	411.53	1.2767e-06	1.384e-06	652.81	75.897	1.8611e-06	1.696e-06	165.22	47.588	18.577	4.9841	2.451e-06	18.297	7.7888e-05	5.9906e-05	1.9062e-05	383.31	7.0775e-07	6.8228e-07	614.6	71.439	7.5256e-07	6.5372e-07	147.44	45.443	17.773	4.6999	6.8306e-07	17.443	119.440	-0.238	79.077	-75.444	43.506	95.693	-75.273	-70.753	16.359	112.372	-70.189	-65.672	-66.878	-61.171	91.484	-60.576	-8191	255	
2198.776	1	1	0	0	0.22896	0.034537	0.10237	0.21766	0.10202	0.20072	0.074434	0.20295	0.21814	0.13298	0.39325	0.099771	0.075713	0.11413	0.14386	0.17672	-2.1896	-2.8625	-2.7938	-2.8396	-3.0625	-2.8583	-2.9708	-2.8833	-2.7271	-2.8729	-2.7896	-2.6042	-2.8792	-2.7417	-2.8042	-3.0792	202.850	-18.036	61.502	146.560	23.166	-68.290	101.912	184.754	155.578	-80.012	181.956	200.221	115.862	102.217	-29.081	35.818	0.00011873	0.0001568	1.1008e-05	411.16	7.8033e-07	7.7342e-07	656.7	75.971	6.942e-07	1.5962e-06	164.94	47.951	18.689	4.8739	2.6188e-06	18.73	8.6845e-05	5.4829e-05	1.6685e-05	385.68	6.8301e-07	6.7008e-07	616.98	71.501	7.4757e-07	6.0697e-07	148.82	45.484	17.772	4.6732	6.3239e-07	17.572	113.709	5.193	203.530	-75.340	33.682	13.687	-75.127	-70.991	11.920	44.107	-70.840	-65.396	-67.205	-61.491	36.476	-60.133	-8191	255	
2198.872	1	1	0	0	0.15006	0.22121	0.12169	0.15493	0.16423	0.22137	0.22716	0.011773	0.11866	0.15748	0.18372	0.13352	0.29134	0.18484	0.23595	0.10914	-2.2854	-3.0667	-2.8792	-2.7792	-3.0438	-2.9021	-2.7604	-2.8563	-2.8729	-2.9896	-2.9146	-2.7375	-2.9042	-2.9229	-2.7208	-3.0312	106.483	244.505	251.058	166.975	-71.130	-82.742	148.717	167.657	190.846	79.173	209.599	-64.466	38.401	213.812	212.768	198.503	0.00010662	0.00028298	4.6505e-05	413.54	2.6865e-06	1.1952e-06	658.18	76.035	6.8604e-07	1.1638e-06	162.83	48.19	18.553	4.8829	1.7851e-06	18.555	8.8078e-05	6.0396e-05	1.8215e-05	385.75	6.4444e-07	6.6547e-07	618	71.609	6.7565e-07	5.8349e-07	148.49	45.727	17.745	4.7003	6.6026e-07	17.665	120.830	29.090	14.864	-75.216	24.370	71.205	-74.975	-70.457	-87.215	98.195	-70.295	-65.635	-67.002	-61.097	40.740	-60.577	-8191	255	
2198.993	1	1	0	0	0.16161	0.15759	0.11162	0.20208	0.01361	0.065145	0.042709	0.10816	0.21137	0.16928	0.386	0.23428	0.14894	0.11635	0.098312	0.17106	-2.1146	-2.9313	-2.9604	-2.7167	-2.9125	-2.8729	-2.9104	-3.1229	-2.6646	-2.8063	-3.0229	-2.7396	-2.9958	-3.0396	-2.6833	-2.8958	217.285	76.473	93.034	7.971	-22.502	-13.512	-87.981	179.345	150.608	9.181	26.191	23.485	-41.509	181.021	-5.702	232.127	9.6266e-05	0.00023203	5.9515e-05	414.75	1.5676e-06	1.5922e-06	657.59	75.992	4.4983e-07	2.8221e-06	167.43	47.961	18.523	4.9683	8.5511e-07	18.497	8.0621e-05	5.7005e-05	1.626e-05	387.54	5.9418e-07	6.6107e-07	618	71.668	7.1401e-07	6.6963e-07	147.16	45.504	17.607	4.7048	6.5714e-07	17.532	117.865	-8.374	34.518	-74.957	57.383	80.571	-74.956	-70.981	94.469	62.583	-71.414	-65.523	-66.457	-60.867	69.323	-60.526	-8191	255	
2199.089	1	1	0	0	0.25673	0.19299	0.079828	0.16975	0.18465	0.3139	0.24501	0.26553	0.16591	0.10532	0.21562	0.10258	0.10747	0.25472	0.12001	0.13906	-2.1833	-2.6458	-2.9979	-2.8021	-3.1167	-3.0542	-2.8438	-3.075	-2.8375	-2.8083	-2.9417	-2.9042	-3.0438	-2.925	-2.7021	-3.0563	172.741	34.752	141.867	212.577	147.527	180.696	199.475	244.089	-32.790	116.692	-14.815	114.892	-14.164	210.157	255.003	93.916	9.0194e-05	7.2081e-05	2.6304e-05	408.71	2.3457e-06	2.4539e-06	650.39	74.848	1.8173e-06	1.8843e-06	165.27	47.757	18.363	4.9366	7.2749e-07	18.628	8.7648e-05	5.9997e-05	1.5454e-05	383.65	6.5461e-07	6.8528e-07	612.01	70.461	7.6291e-07	6.7859e-07	147.62	45.134	17.558	4.7189	7.4406e-07	17.675	129.231	32.875	82.906	-75.308	33.664	47.040	-75.416	-71.232	3.056	51.072	-69.862	-65.773	-67.410	-60.912	35.820	-60.023	-8191	255	
2199.160	1	1	0	0	0.10004	0.043761	0.087015	0.1225	0.20487	0.11929	0.28371	0.2154	0.15792	0.2664	0.13289	0.22113	0.038106	0.20866	0.060212	0.23399	-2.2938	-2.7	-3.0708	-2.7208	-2.7667	-3.0312	-2.7687	-3.0312	-2.8521	-2.8583	-3.0354	-2.8271	-2.9688	-3.0521	-2.75	-3.0229	-33.313	19.085	69.367	22.253	74.599	232.712	-16.035	184.673	270.494	-31.646	112.328	198.848	-20.949	219.926	155.721	251.663	0.00013089	0.00020037	6.1738e-05	411.6	1.7523e-06	1.6011e-06	654.67	74.879	1.2945e-06	2.187e-06	163.94	47.893	18.481	4.9907	2.6056e-06	18.972	8.9876e-05	6.569e-05	1.7699e-05	384.11	6.8646e-07	6.6387e-07	613.63	70.914	7.4872e-07	6.5571e-07	146.46	45.391	17.625	4.7713	6.9164e-07	17.826	117.301	24.012	1.926	-75.675	10.600	106.306	-75.506	-70.994	39.289	92.192	-72.738	-65.591	-67.359	-59.695	6.598	-59.975	-8191	255	
2199.257	1	1	0	0	0.23598	0.11435	0.22765	0.10555	0.05705	0.15894	0.24661	0.065843	0.030863	0.16702	0.20747	0.067121	0.16594	0.21873	0.26343	0.058335	-2.5021	-2.625	-2.9771	-2.6813	-2.8958	-3.1229	-2.8354	-2.9271	-3.0104	-2.7812	-2.9875	-2.8333	-2.8812	-3.1063	-2.9375	-2.8271	257.362	135.598	-34.212	22.003	66.397	-55.122	191.755	96.192	-81.744	172.625	142.756	30.884	202.406	-75.741	3.274	-8.542	0.00012818	9.8032e-05	2.2429e-05	412.72	8.3336e-07	1.7356e-06	657.95	75.179	1.6028e-06	1.5008e-06	165.19	48.141	18.35	5.0639	1.8629e-06	18.815	8.6489e-05	6.2118e-05	1.6209e-05	386.89	7.1696e-07	6.6928e-07	617.2	71.262	7.3127e-07	6.8635e-07	147.71	45.79	17.7	4.7577	7.1073e-07	17.983	114.853	72.658	-19.695	-75.468	-29.407	125.614	-75.316	-71.014	38.737	13.867	-69.665	-65.064	-66.812	-60.211	72.862	-61.070	-8191	255	
2199.377	1	1	0	0	0.11437	0.23794	0.22717	0.18815	0.18085	0.15196	0.071316	0.15047	0.17582	0.26032	0.24651	0.22886	0.11448	0.054815	0.10612	0.37906	-2.4542	-2.7958	-2.9854	-2.9	-2.9188	-3.175	-2.6437	-2.9208	-2.9354	-2.8479	-2.9583	-2.9938	-2.8458	-2.9062	-2.7417	-2.7667	246.451	-53.637	2.358	-76.989	204.195	168.245	248.972	203.295	259.644	213.661	206.774	81.513	-87.047	243.867	186.178	52.747	9.9696e-05	0.00027384	2.8134e-05	410.64	1.9844e-06	1.6662e-06	651.95	75.056	1.6248e-06	2.2381e-06	163.2	48.061	18.238	5.0005	7.2846e-07	18.877	8.4974e-05	6.6034e-05	1.7232e-05	384.67	7.6051e-07	6.9609e-07	614.15	70.762	7.8017e-07	7.1698e-07	147.43	45.667	17.555	4.7511	6.9086e-07	17.981	105.161	-22.366	-3.477	-75.301	71.771	49.120	-75.231	-70.701	86.731	70.522	-71.242	-65.305	-66.789	-60.779	-12.751	-60.872	-8191	255	
2199.473	1	1	0	0	0.35199	0.18892	0.23136	0.17628	0.28823	0.1115	0.3123	0.094195	0.11904	0.15579	0.038047	0.2859	0.14464	0.21316	0.28959	0.17927	-2.4146	-2.7167	-2.9333	-2.8937	-2.6333	-3.1604	-2.8646	-2.7708	-3.075	-2.7792	-3.1271	-2.8854	-2.8208	-2.9979	-2.8333	-2.9896	18.169	-20.924	35.288	112.162	115.963	-19.254	248.972	107.817	66.526	-72.676	-7.917	64.115	-85.058	-0.794	-85.110	-26.085	0.00013398	0.00020886	2.3551e-05	408.58	1.5829e-06	2.3501e-06	654.13	74.981	9.9684e-07	2.2661e-06	165.58	47.853	18.808	5.0098	3.4856e-06	18.844	8.585e-05	6.7975e-05	1.7111e-05	384.57	7.515e-07	6.9148e-07	612.82	70.773	7.8305e-07	7.2932e-07	147.73	45.279	17.686	4.786	7.3412e-07	17.935	106.944	19.154	99.980	-75.531	68.069	75.811	-75.011	-71.220	138.190	13.830	-69.730	-65.393	-65.898	-61.935	77.582	-60.377	-8191	255	
2199.568	1	1	0	0	0.21694	0.23138	0.32724	0.25548	0.17255	0.14512	0.040326	0.2727	0.067625	0.11199	0.14854	0.19927	0.20733	0.23649	0.16558	0.070158	-2.65	-2.8229	-2.9833	-3.175	-2.7708	-2.9813	-3.05	-2.7104	-3.0938	-2.8458	-2.9	-3.0458	-2.6854	-3.0875	-2.8333	-2.9771	78.166	60.506	-42.246	269.977	121.354	224.842	176.299	270.617	-81.056	228.881	197.114	233.462	128.810	169.007	23.628	233.601	0.00013544	0.00020949	8.0942e-05	408.66	3.7477e-07	1.6318e-06	652.19	74.737	2.0571e-06	1.5627e-06	160.41	48.041	18.439	5.059	9.476e-07	18.872	8.4632e-05	6.6415e-05	1.8367e-05	383.31	7.6761e-07	7.1129e-07	611.99	70.522	7.3338e-07	6.8296e-07	147.23	45.562	17.621	4.7757	7.5751e-07	17.999	106.918	37.969	-10.755	-75.578	24.646	34.725	-74.887	-70.689	0.188	57.273	-71.535	-65.937	-66.294	-60.701	10.601	-60.957	-8191	255	
2199.664	1	1	0	0	0.07786	0.16468	0.11061	0.028079	0.15278	0.096849	0.051458	0.18285	0.2718	0.15051	0.10399	0.077763	0.12377	0.18624	0.21061	0.19058	-2.6688	-2.6854	-2.9562	-2.9313	-2.7458	-2.9938	-2.9917	-2.6979	-2.9958	-2.7812	-2.8125	-2.9062	-2.725	-3.0625	-2.8312	-2.7562	229.824	185.408	146.326	74.531	66.550	184.340	31.384	108.352	215.245	178.689	14.920	159.892	202.485	241.544	171.279	227.310	0.00014392	0.00014617	4.3006e-05	412.39	2.6029e-06	2.5099e-06	653.7	75.72	8.5612e-08	2.3459e-06	165.05	48.391	18.526	4.9844	2.0889e-06	19.068	8.4008e-05	7.0767e-05	1.7121e-05	385.47	7.5246e-07	6.8728e-07	615.13	71.053	6.7661e-07	7.4523e-07	148.65	45.871	17.693	4.774	6.5714e-07	18.047	117.688	55.161	26.339	-75.800	15.507	62.688	-74.948	-71.594	197.083	60.250	-70.831	-65.506	-66.273	-60.785	94.028	-60.682	-8191	255	
2199.760	1	1	0	0	0.14424	0.3406	0.18293	0.23288	0.26231	0.20656	0.14135	0.1359	0.054965	0.053727	0.13689	0.0051652	0.053382	0.16294	0.24077	0.32542	-2.6937	-2.8042	-2.8292	-3.0708	-2.8333	-2.9917	-3.0083	-2.7958	-3.0292	-2.7896	-2.5771	-3.0708	-2.7917	-2.8896	-2.9521	-2.7646	-83.038	6.396	137.014	110.423	-87.183	182.728	251.543	233.708	42.903	93.554	251.527	-11.750	34.157	30.289	142.907	230.303	0.00010814	4.2004e-05	5.4216e-05	413.69	2.2954e-06	2.3462e-06	652.07	75.708	1.0637e-06	1.488e-06	166.36	48.538	18.764	4.9875	2.1307e-06	18.748	7.9804e-05	6.5581e-05	1.6832e-05	386.96	7.8718e-07	6.5127e-07	615.27	71.848	6.2253e-07	7.703e-07	148.54	45.936	17.802	4.8031	6.7916e-07	17.894	104.817	-42.986	-0.997	-75.557	94.127	32.356	-75.418	-71.391	-67.331	89.655	-71.095	-65.645	-65.869	-61.220	131.400	-60.588	-8191	255	
2199.856	1	1	0	0	0.1416	0.41841	0.16994	0.014465	0.041937	0.10049	0.28399	0.18092	0.13382	0.23069	0.092111	0.32363	0.33215	0.11457	0.083927	0.060318	-2.6708	-2.9125	-2.5708	-2.9917	-2.8563	-3.1271	-3.0458	-2.8667	-3.0979	-3.0062	-2.8854	-3.175	-2.725	-2.8937	-2.9958	-2.8208	132.820	198.745	-63.096	247.654	35.775	164.854	210.663	168.539	-60.330	-81.580	17.751	243.678	161.853	126.042	89.292	150.690	0.00011854	2.718e-05	5.5641e-05	412.86	1.1475e-07	1.8786e-06	653.42	75.88	7.8288e-07	1.1774e-06	164.19	47.993	18.608	5.0495	1.72e-06	18.952	7.7204e-05	6.7993e-05	1.7775e-05	386.52	7.6128e-07	6.2486e-07	614.93	71.497	6.6395e-07	7.2335e-07	146.97	45.317	17.643	4.7777	6.2538e-07	17.863	119.258	25.105	-3.774	-75.599	51.184	36.322	-75.358	-71.607	20.568	98.812	-71.065	-65.565	-66.074	-60.939	39.717	-60.504	-8191	255	
2199.952	1	1	0	0	0.1535	0.10816	0.082203	0.20963	0.081433	0.16248	0.24671	0.30236	0.069211	0.45298	0.17836	0.11568	0.091373	0.064289	0.18447	0.28336	-2.4646	-3.0792	-2.8104	-3.1937	-2.8125	-3.0042	-3.0479	-2.8375	-2.9708	-2.7833	-2.5979	-3.1771	-2.7875	-2.7646	-3.0396	-2.6583	18.847	19.395	82.975	87.524	-46.898	136.801	161.423	109.920	180.225	-87.563	26.362	82.644	209.468	211.668	86.818	55.392	0.0001307	0.00022183	3.0371e-05	413.85	2.4073e-06	1.5811e-06	649.79	75.481	2.574e-06	2.1224e-06	160.31	48.176	18.569	5.0916	1.5048e-06	18.858	7.8719e-05	6.8373e-05	1.6827e-05	387.7	7.2541e-07	7.255e-07	613.4	71.547	6.9234e-07	7.3986e-07	147.27	45.63	17.763	4.8298	7.0021e-07	17.932	112.832	-13.700	-71.744	-75.082	30.733	43.279	-75.342	-70.486	20.259	82.565	-71.267	-65.418	-66.801	-60.543	29.839	-60.817	-8191	255	
2200.073	1	1	0	0	0.11624	0.21145	0.049369	0.19583	0.22363	0.2319	0.11227	0.14041	0.21974	0.19066	0.20325	0.1379	0.20351	0.24713	0.20584	0.10123	-2.4958	-3.0271	-2.7062	-3.1021	-2.7604	-2.9146	-3.2375	-2.7687	-2.9729	-2.9833	-2.8083	-2.9021	-2.8292	-2.8167	-3.125	-2.775	-61.135	257.120	252.021	162.819	-32.828	207.941	232.331	120.772	119.368	-53.413	198.547	248.071	67.499	200.564	122.414	-27.040	0.00011481	0.00016313	2.785e-05	413.62	2.4712e-06	1.9055e-06	657.45	76.181	7.8653e-07	4.1026e-07	163.38	48.848	18.744	5.115	1.1351e-06	18.894	7.9403e-05	6.2499e-05	1.9426e-05	387.25	7.7222e-07	6.7168e-07	617.08	72.101	6.8984e-07	6.5432e-07	149.15	46.042	17.952	4.861	7.2555e-07	18.055	105.673	-19.971	29.378	-75.632	13.883	55.371	-75.328	-70.487	56.326	29.710	-69.623	-65.515	-66.369	-61.618	27.747	-60.926	-8191	255	
2200.169	1	1	0	0	0.43053	0.098688	0.39575	0.034223	0.13589	0.12246	0.20356	0.18965	0.23117	0.082063	0.21277	0.19475	0.18609	0.05023	0.077056	0.098997	-2.25	-3.0812	-2.625	-2.9292	-3.0021	-2.8667	-2.9188	-2.7979	-3.025	-3.0771	-2.7896	-2.95	-2.875	-2.6604	-3.1333	-2.8042	-71.240	194.671	-49.737	-50.184	185.860	50.849	190.057	266.575	-50.963	-13.308	124.414	188.100	137.574	-80.348	-82.080	-69.292	0.00011499	8.3889e-05	5.6722e-05	414.31	6.8518e-07	1.6159e-06	659.99	77.109	6.5682e-07	1.7766e-06	167.67	48.587	19.184	5.1851	1.9951e-06	18.953	8.377e-05	6.9878e-05	1.8864e-05	387.34	6.9528e-07	7.5251e-07	619	72.73	7.6483e-07	7.134e-07	150.63	46.2	18.06	4.8583	6.6903e-07	17.942	115.620	-1.402	-19.772	-75.587	73.963	33.443	-75.144	-71.090	223.348	71.222	-70.832	-65.309	-66.945	-61.407	32.747	-60.905	-8191	255	
2200.265	1	1	0	0	0.11166	0.041614	0.227	0.21056	0.19862	0.20408	0.087305	0.021068	0.13818	0.10947	0.1202	0.16139	0.22073	0.21882	0.033653	0.10178	-2.3812	-3.0354	-2.5729	-2.9146	-2.7792	-2.7542	-3.0146	-2.7125	-2.7313	-2.8792	-2.8812	-2.9521	-2.8875	-2.6125	-3.1375	-2.7854	12.923	253.493	-53.989	-60.836	191.895	148.800	-41.004	-5.013	106.299	13.213	73.390	-19.913	72.623	-8.307	205.200	213.544	0.00011267	2.5691e-05	4.3035e-05	421.04	8.6093e-07	1.4004e-06	657.62	77.318	1.362e-06	1.658e-06	165.65	48.215	18.679	5.0097	1.5663e-06	18.941	8.0354e-05	5.8528e-05	1.8352e-05	392.38	7.6224e-07	7.0809e-07	618.89	73.153	7.4949e-07	6.768e-07	149.26	45.605	17.87	4.7853	6.5383e-07	17.902	118.795	17.483	65.496	-74.943	105.508	29.935	-75.191	-71.021	29.149	84.511	-71.032	-65.291	-67.355	-60.978	77.237	-60.758	-8191	255	
2200.361	1	1	0	0	0.10021	0.074578	0.10407	0.28376	0.22632	0.079206	0.078018	0.1948	0.037254	0.35806	0.16474	0.27142	0.2366	0.058437	0.19981	0.19179	-2.5333	-3.0104	-2.7417	-2.9896	-2.8479	-2.6	-3.15	-2.9313	-2.7812	-3.1667	-2.85	-3.0104	-2.9313	-2.8958	-3.0812	-3.0875	239.056	105.579	38.586	255.529	-77.244	142.551	11.974	85.360	174.555	177.688	4.054	253.645	226.897	-33.573	-40.647	138.540	0.00013732	0.00020362	7.1191e-05	419.16	1.1264e-06	2.2906e-06	656.66	77.813	1.4271e-06	1.0479e-06	165.83	48.661	19.281	5.1403	7.6479e-07	18.972	8.1869e-05	6.2263e-05	1.8271e-05	391.78	7.7068e-07	7.0729e-07	621.59	73.375	7.725e-07	6.2308e-07	151.21	46.167	18.164	4.8615	6.3668e-07	17.956	101.381	-20.760	17.842	-75.462	-16.659	50.328	-75.288	-70.898	73.128	19.278	-69.853	-65.809	-67.588	-61.684	137.383	-60.715	-8191	255	
2200.458	1	1	0	0	0.084201	0.13379	0.044436	0.14267	0.22398	0.29311	0.2435	0.2049	0.20087	0.13144	0.090924	0.059937	0.048882	0.29059	0.027415	0.0621	-2.2292	-3	-2.7625	-2.6875	-3.0542	-2.825	-3.1604	-2.8854	-2.7021	-3.1063	-2.8292	-2.9042	-3.1292	-2.7917	-3.1604	-2.9562	148.211	177.255	17.029	270.511	247.475	200.440	199.432	9.258	41.444	125.469	226.787	15.952	-70.531	67.086	201.812	-49.289	0.00011947	0.00020067	4.6434e-05	420.72	1.1296e-06	6.0782e-07	661.46	77.502	5.782e-07	1.7858e-06	162.27	48.757	19.072	5.1955	2.0701e-06	18.841	9.0158e-05	6.2553e-05	1.7962e-05	392.66	7.5687e-07	6.9869e-07	624.24	73.606	7.2245e-07	6.6128e-07	149.61	46.263	18.274	4.8854	6.9495e-07	17.988	123.171	-2.621	39.428	-75.659	-30.180	11.410	-75.398	-71.000	120.250	68.471	-72.120	-65.805	-66.396	-61.760	119.435	-61.141	-8191	255	
2200.554	1	1	0	0	0.22922	0.12476	0.088646	0.39244	0.2249	0.10997	0.16402	0.22884	0.21354	0.14914	0.10491	0.21228	0.04564	0.076135	0.27338	0.12835	-2.2646	-2.9708	-2.6604	-2.7771	-3.0354	-2.8083	-3.0479	-2.8042	-2.6063	-3.0563	-2.8167	-2.6667	-3.125	-2.5729	-2.8417	-2.9875	219.528	252.783	97.160	169.493	206.244	12.339	179.400	-38.160	192.735	-42.985	198.020	208.175	-80.664	-57.213	134.183	124.550	0.00012046	0.00025161	2.2065e-05	423.23	1.2054e-06	6.3652e-07	668.08	79.364	5.7009e-07	1.6727e-06	164.42	48.789	19.356	5.1109	1.7493e-06	18.743	9.0277e-05	6.3532e-05	1.9391e-05	395.6	7.1198e-07	7.8672e-07	628.26	74.843	8.1872e-07	6.1174e-07	149.02	46.316	18.245	4.8689	7.1892e-07	17.96	125.172	22.219	-3.683	-75.370	-46.020	87.543	-75.392	-71.499	-41.136	69.149	-71.267	-65.453	-66.809	-60.846	55.820	-61.165	-8191	255	
2200.673	1	1	0	0	0.22457	0.1818	0.14946	0.087752	0.18427	0.10741	0.126	0.10567	0.27248	0.30082	0.1933	0.20993	0.19486	0.21699	0.17464	0.12916	-2.1646	-2.9562	-2.8063	-2.6292	-3.0292	-2.7062	-2.8604	-3.0125	-2.5667	-2.9875	-2.8125	-2.5521	-2.9313	-2.6813	-2.8271	-3.0167	41.487	60.974	173.510	-59.411	-52.836	118.198	159.967	250.368	208.687	155.019	81.212	48.541	104.917	127.447	-20.473	11.832	0.00012336	0.00010135	7.8508e-05	417.12	1.5597e-06	2.2507e-06	655.3	75.562	1.3783e-06	1.3553e-06	160.74	48.002	18.769	4.971	6.5449e-07	18.752	9.3159e-05	5.9271e-05	2.0217e-05	390.12	7.3845e-07	7.6652e-07	616.91	71.686	8.3522e-07	6.8058e-07	147.34	45.261	17.724	4.7631	6.9378e-07	17.771	119.851	-66.597	6.276	-75.130	82.738	97.076	-75.345	-71.722	-7.480	38.274	-71.028	-65.675	-66.243	-60.887	-79.992	-60.355	-8191	255	
2200.769	1	1	0	0	0.1949	0.19456	0.093461	0.17845	0.089191	0.16962	0.15033	0.16488	0.086514	0.11176	0.23467	0.078886	0.29799	0.15094	0.083989	0.082381	-2.1208	-2.9313	-2.9104	-2.6667	-2.8708	-3.0187	-2.9771	-2.8208	-2.7667	-2.9458	-3.0563	-2.6146	-2.7292	-3.0021	-2.7938	-2.9104	53.839	12.236	232.864	30.027	-17.570	13.052	135.786	-65.725	-79.046	139.365	264.325	238.842	-70.257	210.070	98.047	149.478	0.00014302	0.00026651	3.7328e-05	414.16	1.7317e-06	8.0878e-08	656.74	77.377	1.0572e-06	1.6741e-06	168.03	48.42	18.809	5.0558	1.9986e-06	18.608	8.8435e-05	6.2698e-05	1.9239e-05	388.93	7.2483e-07	7.5231e-07	617.76	72.818	7.4565e-07	6.6367e-07	149.91	45.586	18.007	4.8003	6.4214e-07	17.653	121.979	19.777	31.211	-75.009	65.976	164.756	-75.534	-72.211	52.319	55.911	-70.958	-65.205	-66.289	-60.702	39.362	-60.915	-8191	255	
2200.865	1	1	0	0	0.19765	0.15511	0.07581	0.079527	0.20067	0.092115	0.07578	0.19269	0.12421	0.11545	0.13703	0.26334	0.18116	0.11913	0.0035141	0.18296	-2.3917	-2.8125	-2.9562	-2.5708	-3.0792	-2.9104	-2.6437	-3.1875	-2.8312	-2.8271	-2.9292	-2.8229	-3.0271	-2.8125	-2.8708	-2.9896	181.503	175.224	-46.362	-11.328	50.270	61.510	-49.681	-58.751	160.488	-79.220	132.227	70.587	270.236	154.116	53.374	134.059	0.00011865	0.00014197	3.6477e-05	419.55	5.7067e-07	2.1785e-06	660.85	77.634	7.3032e-07	9.3323e-07	162.18	48.11	18.887	5.0242	1.1235e-06	18.567	8.5122e-05	6.491e-05	1.8266e-05	391.74	7.0219e-07	6.8868e-07	619.5	73.236	7.3798e-07	6.3382e-07	148.43	45.528	17.954	4.7841	7.3704e-07	17.722	120.355	51.455	-51.091	-75.761	61.241	74.819	-75.418	-70.960	30.240	39.234	-70.804	-65.949	-66.957	-61.631	40.323	-60.749	-8191	255	
2200.961	1	1	0	0	0.28743	0.071895	0.13206	0.13715	0.11196	0.17499	0.20824	0.22331	0.10546	0.20277	0.061991	0.085422	0.19022	0.25096	0.13645	0.16528	-2.4229	-2.7729	-2.9542	-2.725	-3.1813	-2.9646	-2.6458	-2.9021	-2.8854	-2.8625	-2.9958	-2.8979	-2.8771	-2.9688	-2.75	-3.0354	56.591	-81.404	107.385	253.640	255.976	121.944	-66.179	139.540	-75.203	215.804	-14.909	180.618	248.798	88.021	155.060	266.269	9.9586e-05	0.00016753	8.38e-05	415.05	2.1513e-06	2.3225e-06	658.05	77.75	3.8214e-07	1.2467e-06	166.46	47.925	18.913	4.9181	2.0426e-06	18.451	8.7172e-05	6.1592e-05	1.9391e-05	387.97	7.162e-07	7.281e-07	618.16	72.888	7.8267e-07	6.4059e-07	148.92	45.502	17.86	4.7393	7.5166e-07	17.581	115.324	12.202	52.952	-75.269	66.703	29.086	-74.985	-71.222	84.151	117.305	-72.857	-65.291	-66.939	-60.970	32.239	-60.323	-8191	255	
2201.057	1	1	0	0	0.1436	0.20291	0.10048	0.12633	0.083642	0.11891	0.26198	0.14558	0.19988	0.23441	0.051061	0.17719	0.11839	0.22923	0.079523	0.032276	-2.4604	-2.7729	-3.0812	-2.6854	-2.7833	-3.0812	-2.8896	-2.8958	-2.9792	-2.8458	-3.0396	-2.7083	-2.8917	-2.8042	-2.7875	-3.1104	59.487	146.577	132.563	239.926	-66.740	75.537	227.522	195.046	170.078	176.243	-56.000	7.493	199.257	241.453	66.863	161.272	0.00014467	0.00016765	4.4442e-05	409.2	1.0121e-06	2.1675e-06	648.76	75.915	1.7555e-06	1.1446e-06	162.68	47.19	18.374	4.9312	1.7199e-06	18.502	8.2032e-05	6.1338e-05	1.7516e-05	384.41	6.7706e-07	6.9208e-07	609.52	71.288	7.3395e-07	7.0942e-07	146.78	44.681	17.425	4.6941	6.8618e-07	17.512	117.793	16.015	17.581	-75.279	21.017	21.132	-75.156	-70.748	44.263	-9.708	-71.822	-65.346	-66.163	-61.564	92.564	-60.437	-8191	255	
#DATA ENDS
