BOXY.EXE: ISS Imagent and Oximeter Data Acquisition Program Version 0.80
Ascii Record File

#ACQ INFORMATION
2  Detector Channels 
16  External MUX Channels 
1  Auxiliary Channels 
5000  Waveform (CCF) Frequency (Hz)
1  Waveforms Skipped 
30  Waveforms Averaged 
1  Cycles Averaged 
16  Acquisitions per Waveform 
10.0806  Updata Rate (Hz) 

#FILE INFORMATION
TRUE -- External MUX Channel results are PARSED.
FALSE -- AC DC and Phase are NOT grouped.
TRUE -- Companion Program Settings File CREATED.
FALSE -- AC data not excluded
FALSE -- DC data not excluded
FALSE -- Phase data not excluded
FALSE -- Auxillary Chn. data not excluded
Tab delimiters

#CALIBRATION STATE
TRUE -- Waveform Calibration Values APPLIED.


#AUX CALIBRATION VALUES
Val Type	aux-1	

Term	1.0000e+00	
Factor	0.0000e+00	


#WF CALIBRATION VALUES
A = Detector Channel
Val Type	A-AC1	A-AC2	A-AC3	A-AC4	A-AC5	A-AC6	A-AC7	A-AC8	A-AC9	A-AC10	A-AC11	A-AC12	A-AC13	A-AC14	A-AC15	A-AC16	A-DC1	A-DC2	A-DC3	A-DC4	A-DC5	A-DC6	A-DC7	A-DC8	A-DC9	A-DC10	A-DC11	A-DC12	A-DC13	A-DC14	A-DC15	A-DC16	A-Ph1	A-Ph2	A-Ph3	A-Ph4	A-Ph5	A-Ph6	A-Ph7	A-Ph8	A-Ph9	A-Ph10	A-Ph11	A-Ph12	A-Ph13	A-Ph14	A-Ph15	A-Ph16	

Term	0.00000e+00	0.00000e+00	0.00000e+00	0.00000e+00	0.00000e+00	0.00000e+00	0.00000e+00	0.00000e+00	0.00000e+00	0.00000e+00	0.00000e+00	0.00000e+00	0.00000e+00	0.00000e+00	0.00000e+00	0.00000e+00	0.00000e+00	0.00000e+00	0.00000e+00	0.00000e+00	0.00000e+00	0.00000e+00	0.00000e+00	0.00000e+00	0.00000e+00	0.00000e+00	0.00000e+00	0.00000e+00	0.00000e+00	0.00000e+00	0.00000e+00	0.00000e+00	0.00000e+00	0.00000e+00	0.00000e+00	0.00000e+00	0.00000e+00	0.00000e+00	0.00000e+00	0.00000e+00	0.00000e+00	0.00000e+00	0.00000e+00	0.00000e+00	0.00000e+00	0.00000e+00	0.00000e+00	0.00000e+00	
Factor	1.00000e+00	1.00000e+00	1.00000e+00	1.00000e+00	1.00000e+00	1.00000e+00	1.00000e+00	1.00000e+00	1.00000e+00	1.00000e+00	1.00000e+00	1.00000e+00	1.00000e+00	1.00000e+00	1.00000e+00	1.00000e+00	1.00000e+00	1.00000e+00	1.00000e+00	1.00000e+00	1.00000e+00	1.00000e+00	1.00000e+00	1.00000e+00	1.00000e+00	1.00000e+00	1.00000e+00	1.00000e+00	1.00000e+00	1.00000e+00	1.00000e+00	1.00000e+00	X	X	X	X	X	X	X	X	X	X	X	X	X	X	X	X	

B = Detector Channel
Val Type	B-AC1	B-AC2	B-AC3	B-AC4	B-AC5	B-AC6	B-AC7	B-AC8	B-AC9	B-AC10	B-AC11	B-AC12	B-AC13	B-AC14	B-AC15	B-AC16	B-DC1	B-DC2	B-DC3	B-DC4	B-DC5	B-DC6	B-DC7	B-DC8	B-DC9	B-DC10	B-DC11	B-DC12	B-DC13	B-DC14	B-DC15	B-DC16	B-Ph1	B-Ph2	B-Ph3	B-Ph4	B-Ph5	B-Ph6	B-Ph7	B-Ph8	B-Ph9	B-Ph10	B-Ph11	B-Ph12	B-Ph13	B-Ph14	B-Ph15	B-Ph16	

Term	0.00000e+00	0.00000e+00	0.00000e+00	0.00000e+00	0.00000e+00	0.00000e+00	0.00000e+00	0.00000e+00	0.00000e+00	0.00000e+00	0.00000e+00	0.00000e+00	0.00000e+00	0.00000e+00	0.00000e+00	0.00000e+00	0.00000e+00	0.00000e+00	0.00000e+00	0.00000e+00	0.00000e+00	0.00000e+00	0.00000e+00	0.00000e+00	0.00000e+00	0.00000e+00	0.00000e+00	0.00000e+00	0.00000e+00	0.00000e+00	0.00000e+00	0.00000e+00	6.09306e+01	-1.28867e+02	-1.24252e+02	-1.83791e+02	-7.10263e+01	-6.44181e+01	-1.55111e+02	-1.62015e+02	-5.97362e+01	-7.09102e+01	-1.70545e+02	-1.70268e+02	-1.83573e+02	-1.76953e+02	-6.30865e+01	-1.49760e+02	
Factor	6.88653e-05	1.99114e-04	5.52351e-05	1.82487e-01	2.78844e-06	2.19230e-06	1.74721e-01	5.94271e-02	3.46584e-06	1.87842e-06	9.44179e-02	3.29784e-02	3.44525e-02	1.09698e-02	2.67653e-06	1.53179e-02	1.06372e-05	1.32956e-05	3.69939e-06	9.20757e-02	1.38416e-07	1.48277e-07	8.30070e-02	2.99589e-02	1.38529e-07	1.47423e-07	4.64028e-02	1.61447e-02	1.73924e-02	5.58577e-03	1.42191e-07	7.57640e-03	X	X	X	X	X	X	X	X	X	X	X	X	X	X	X	X	



#DISTANCE SETTINGS
A = Detector Channel
A-1	A-2	A-3	A-4	A-5	A-6	A-7	A-8	A-9	A-10	A-11	A-12	A-13	A-14	A-15	A-16	

2.5000e+00	3.0000e+00	2.5000e+00	3.0000e+00	2.0000e+00	3.0000e+00	1.5000e+00	3.0000e+00	3.0000e+00	3.0000e+00	3.0000e+00	3.0000e+00	3.0000e+00	3.0000e+00	1.5000e+00	3.0000e+00	

B = Detector Channel
B-1	B-2	B-3	B-4	B-5	B-6	B-7	B-8	B-9	B-10	B-11	B-12	B-13	B-14	B-15	B-16	

1.0000e+01	1.0000e+01	1.0000e+01	1.4400e+00	1.0000e+01	1.0000e+01	1.5100e+00	1.9400e+00	1.0000e+01	1.0000e+01	1.9900e+00	2.4900e+00	2.4100e+00	2.9000e+00	1.0000e+01	2.9800e+00	




#DATA BEGINS
time	group	step	mark	flag	A-AC1	A-AC2	A-AC3	A-AC4	A-AC5	A-AC6	A-AC7	A-AC8	A-AC9	A-AC10	A-AC11	A-AC12	A-AC13	A-AC14	A-AC15	A-AC16	A-DC1	A-DC2	A-DC3	A-DC4	A-DC5	A-DC6	A-DC7	A-DC8	A-DC9	A-DC10	A-DC11	A-DC12	A-DC13	A-DC14	A-DC15	A-DC16	A-Ph1	A-Ph2	A-Ph3	A-Ph4	A-Ph5	A-Ph6	A-Ph7	A-Ph8	A-Ph9	A-Ph10	A-Ph11	A-Ph12	A-Ph13	A-Ph14	A-Ph15	A-Ph16	B-AC1	B-AC2	B-AC3	B-AC4	B-AC5	B-AC6	B-AC7	B-AC8	B-AC9	B-AC10	B-AC11	B-AC12	B-AC13	B-AC14	B-AC15	B-AC16	B-DC1	B-DC2	B-DC3	B-DC4	B-DC5	B-DC6	B-DC7	B-DC8	B-DC9	B-DC10	B-DC11	B-DC12	B-DC13	B-DC14	B-DC15	B-DC16	B-Ph1	B-Ph2	B-Ph3	B-Ph4	B-Ph5	B-Ph6	B-Ph7	B-Ph8	B-Ph9	B-Ph10	B-Ph11	B-Ph12	B-Ph13	B-Ph14	B-Ph15	B-Ph16	aux-1	digaux	

784.478	1	1	0	256	0.11636	0.074788	0.34133	0.09712	0.23949	0.11414	0.2456	0.1241	0.2236	0.18765	0.26746	0.076815	0.25372	0.1912	0.13534	0.034421	-2.5417	-2.9667	-3.0333	-2.6792	-3.0417	-3.1021	-2.8646	-3.0521	-2.8646	-2.8812	-3.0917	-2.7687	-3.1896	-2.975	-2.8042	-2.9771	62.953	80.957	71.275	53.820	53.769	-0.277	231.514	199.387	195.016	332.365	184.235	21.630	56.177	59.012	211.613	262.807	0.00053338	0.00037855	7.6508e-05	368.59	1.6844e-06	3.3051e-06	510.51	114.04	9.2982e-06	1.2495e-06	196.06	75.253	38.102	16.689	5.3326e-06	38.943	0.00051444	0.00055736	0.00014853	364.73	5.6647e-06	6.0333e-06	500.65	112.76	5.6981e-06	6.0714e-06	194.73	75.045	38.433	16.663	6.0532e-06	38.849	-20.378	68.604	43.139	-15.488	87.023	138.909	-15.296	-9.468	146.213	0.907	-10.689	-5.372	-4.020	0.995	107.494	-0.815	-8191	255	
784.596	1	1	0	0	0.11084	0.056021	0.079984	0.067073	0.30486	0.26948	0.23953	0.088575	0.17209	0.087282	0.19273	0.12298	0.24538	0.072737	0.051016	0.090053	-2.5896	-2.7417	-2.9354	-2.7375	-3.2229	-3.0687	-2.9437	-2.9917	-2.8854	-2.8375	-3.1604	-2.8083	-3.0042	-3.0021	-2.8167	-3.025	250.903	51.699	15.236	87.143	182.884	235.671	280.122	265.115	134.001	243.231	324.403	313.288	285.840	282.228	107.739	283.707	0.00050284	0.00044588	9.508e-05	371.26	3.5384e-06	2.7593e-06	509.35	114.09	3.7789e-06	2.2036e-06	198.37	76.129	38.485	16.607	2.7335e-06	38.969	0.00051958	0.00056063	0.00015105	365.34	5.6658e-06	5.7967e-06	502.12	113.1	5.7322e-06	6.1331e-06	196.01	75.662	38.528	16.688	5.924e-06	39.051	-23.423	96.569	67.547	-15.662	135.476	138.623	-15.433	-9.828	169.769	124.553	-10.600	-5.399	-4.270	0.908	154.986	-0.717	-8191	255	
784.693	1	1	0	0	0.29401	0.088224	0.069892	0.34797	0.23016	0.073063	0.15966	0.20064	0.15423	0.37479	0.054156	0.26325	0.16937	0.1047	0.14163	0.17167	-2.4271	-2.8083	-3.0292	-2.8771	-2.9417	-3.0042	-2.8417	-3.1646	-3.1271	-2.925	-3.3583	-2.8104	-2.9271	-3.0521	-3.0125	-3.0708	258.631	-4.681	46.460	275.054	30.591	150.330	3.129	298.005	228.206	67.741	216.838	-15.627	157.430	-23.791	218.632	-3.339	0.00051716	0.00032104	4.6091e-05	372.83	1.7512e-06	1.6846e-06	512.41	114.28	7.6946e-06	2.975e-06	197.96	76.185	38.454	16.579	3.818e-06	39.048	0.00051138	0.00055132	0.00014749	366.82	5.6851e-06	5.8353e-06	505.43	113.4	5.5813e-06	5.9881e-06	196.66	75.679	38.584	16.741	5.8275e-06	39.162	-18.624	153.562	109.404	-15.390	143.878	150.802	-15.571	-9.534	179.156	128.023	-10.697	-5.083	-3.900	0.693	136.295	-0.669	-8191	255	
784.789	1	1	0	0	0.060961	0.074079	0.073742	0.071669	0.12655	0.22946	0.1322	0.21415	0.090247	0.13742	0.11192	0.099816	0.058243	0.11104	0.094751	0.2954	-2.6479	-2.9125	-2.9354	-2.9854	-2.9229	-3.0938	-2.9833	-3.0708	-3.1125	-2.9396	-3.1104	-2.9333	-2.9271	-2.9437	-2.9021	-3.175	-7.550	-21.842	189.198	172.654	238.770	69.305	239.880	232.696	118.927	129.169	18.843	61.014	295.790	84.505	23.146	231.644	0.00045683	0.00034757	0.00011033	370.47	2.8706e-06	1.8692e-06	510.31	113.78	6.5131e-06	5.2869e-06	197.18	75.354	37.956	16.436	5.6174e-06	38.454	0.00051043	0.00054083	0.00015029	366.09	5.6704e-06	5.9165e-06	502.24	113.22	5.7492e-06	5.955e-06	195.15	74.701	38.261	16.492	5.8692e-06	38.593	-21.952	48.647	52.745	-15.630	85.901	108.990	-15.863	-9.377	154.443	111.400	-10.474	-4.951	-3.942	0.538	107.110	-0.727	-8191	255	
784.909	1	1	0	0	0.20712	0.073816	0.05944	0.20401	0.086067	0.13859	0.025863	0.08669	0.10611	0.13879	0.043602	0.20537	0.21741	0.18489	0.11088	0.15135	-2.5167	-2.8042	-3.0146	-2.8479	-2.9104	-3.1625	-2.9896	-3.0687	-2.9562	-2.8063	-3.2708	-2.9625	-2.8271	-3.2333	-2.8458	-3.0979	16.278	159.410	313.246	67.478	188.166	173.806	278.091	76.845	300.797	324.308	108.480	322.795	311.223	228.947	210.945	-15.441	0.00043602	5.2132e-05	4.0653e-05	370.23	1.0917e-05	3.0341e-06	507.88	113.61	1.7678e-06	3.6624e-06	195.91	74.923	38.051	16.455	3.6924e-06	38.638	0.00049472	0.00054678	0.00014898	364.76	5.7422e-06	5.9477e-06	500.33	112.5	5.4295e-06	6.0747e-06	194.47	74.853	38.28	16.554	5.9024e-06	38.701	330.157	252.461	71.424	-15.791	123.651	186.354	-15.377	-9.635	177.872	126.106	-10.537	-5.285	-4.368	1.065	172.851	-0.750	-8191	255	
785.005	1	1	0	0	0.15869	0.049522	0.3128	0.13845	0.33915	0.10969	0.21713	0.32318	0.094465	0.13643	0.1772	0.068136	0.22188	0.27368	0.11202	0.1262	-2.5542	-2.8146	-3.0312	-2.9313	-2.8833	-3.2542	-2.9229	-2.9938	-3.175	-3.0479	-3	-2.9375	-2.9188	-3.1375	-2.9958	-2.8667	308.525	42.109	80.172	262.374	146.409	198.008	319.742	152.552	278.672	140.489	21.635	217.757	-16.933	110.887	61.647	331.749	0.00052174	0.00032042	5.9061e-05	369.94	3.8827e-06	3.2551e-06	509.52	112.75	5.2596e-06	2.3923e-06	196.52	75.305	38.079	16.527	2.4859e-07	38.619	0.00050115	0.0005454	0.00014835	364.84	5.573e-06	5.8965e-06	500.65	112.38	5.4762e-06	5.9061e-06	194.64	74.771	38.364	16.58	5.677e-06	38.697	-23.493	8.419	74.041	-15.608	136.465	105.882	-15.382	-9.255	127.977	104.912	-10.745	-5.161	-4.388	1.077	160.804	-1.024	-8191	255	
785.077	1	1	0	0	0.061132	0.1263	0.3468	0.34082	0.1322	0.21204	0.26285	0.074415	0.39644	0.20211	0.066848	0.25611	0.33027	0.021408	0.22579	0.13395	-2.5979	-2.9062	-3.0542	-2.8917	-2.75	-3.0604	-3.0208	-2.7458	-3.1688	-2.9938	-3.0729	-2.9458	-2.8187	-3.1583	-2.9479	-2.9313	80.236	13.058	310.207	209.014	113.944	-9.367	192.111	218.522	39.288	-8.474	56.533	253.595	272.309	285.729	237.737	148.889	0.00051752	0.00040616	9.7135e-05	372.65	3.5627e-06	1.886e-06	511.68	113.8	6.9151e-06	1.9419e-06	196.74	75.128	38.162	16.483	3.4787e-06	38.956	0.00051493	0.00054789	0.00014907	367.03	5.729e-06	5.885e-06	502.1	112.95	5.6338e-06	5.9964e-06	195.13	74.83	38.153	16.571	5.5615e-06	38.964	-21.129	134.487	90.677	-15.484	122.435	106.666	-15.584	-9.512	132.352	115.989	-10.550	-4.910	-3.886	1.241	194.459	-0.950	-8191	255	
785.198	1	1	0	0	0.30887	0.14385	0.26784	0.12094	0.12299	0.027491	0.37034	0.26047	0.2458	0.25612	0.19563	0.071938	0.2491	0.19243	0.3118	0.15692	-2.575	-2.7021	-2.925	-3.0542	-2.9333	-2.9479	-2.95	-2.8833	-3.1167	-3.0062	-2.9417	-3.15	-2.7396	-2.8646	-2.9292	-2.6958	308.669	78.110	-26.094	301.601	179.926	196.177	274.952	1.607	90.746	26.063	309.098	4.295	132.833	247.545	251.915	47.642	0.00049163	0.00035826	0.00014283	373.8	3.8715e-06	2.9107e-06	513.17	115.43	4.3504e-06	4.5054e-06	198.94	75.933	38.187	16.716	3.8744e-06	39.374	0.00050775	0.00053559	0.00015546	367.98	5.8876e-06	5.966e-06	506.39	113.65	5.7308e-06	5.8644e-06	196.85	75.7	38.582	16.77	5.7282e-06	39.432	-23.920	58.566	11.490	-15.714	120.923	147.761	-15.534	-9.811	181.024	150.900	-10.478	-5.093	-4.427	1.016	136.180	-0.617	-8191	255	
785.292	1	1	0	0	0.21278	0.11497	0.21568	0.1878	0.1798	0.18399	0.19035	0.4071	0.15619	0.097253	0.12873	0.14876	0.095416	0.30883	0.13708	0.097205	-2.6458	-2.7	-2.9167	-3.1958	-2.8146	-3.0333	-3.0354	-2.8583	-3.1021	-2.7458	-2.95	-3.1583	-2.6917	-3.0104	-3.0271	-2.775	192.765	-2.341	328.968	37.871	252.588	165.442	313.005	57.901	-3.824	325.155	15.717	241.283	95.405	286.866	98.097	125.172	0.000454	0.00030243	9.6189e-05	374.64	3.7941e-06	3.5992e-06	515.3	114.4	6.8428e-06	1.6325e-06	199.33	76.026	38.217	16.766	7.1107e-06	39.274	0.00050923	0.0005331	0.00014873	367.16	5.6618e-06	5.6589e-06	506.42	113.46	5.5512e-06	5.7455e-06	197.41	75.873	38.541	16.816	5.44e-06	39.358	324.222	65.766	26.198	-15.659	118.026	138.523	-15.494	-9.564	144.824	142.930	-10.279	-5.438	-4.213	0.930	170.124	-0.733	-8191	255	
785.388	1	1	0	0	0.028048	0.16167	0.17135	0.19691	0.15546	0.2108	0.06059	0.040149	0.058073	0.14234	0.16703	0.10231	0.27453	0.24833	0.15194	0.10027	-2.6396	-2.8375	-2.7208	-3.1021	-2.7979	-2.8563	-2.9938	-2.8792	-2.9958	-3.0167	-2.8125	-3.2083	-2.9854	-2.8625	-3.0833	-3.0333	152.834	221.135	263.489	234.382	-13.339	252.867	214.150	79.265	272.806	-8.754	77.075	296.774	257.568	182.736	226.876	104.171	0.00057243	0.00039046	0.00012211	370.43	1.977e-06	2.513e-06	508.9	113.83	4.0911e-06	3.7938e-06	196.98	75.33	37.787	16.618	4.7551e-06	38.86	0.00050815	0.0005331	0.00014822	365.23	5.6179e-06	5.6518e-06	500.92	112.74	5.6612e-06	5.6583e-06	194.94	74.991	38.19	16.62	5.6349e-06	38.832	-24.948	56.909	39.276	-15.544	131.786	22.132	-15.588	-9.734	149.587	107.343	-10.578	-5.552	-4.415	1.437	97.995	-0.745	-8191	255	
785.509	1	1	0	0	0.15347	0.19777	0.23868	0.096097	0.011071	0.22681	0.12087	0.31499	0.17468	0.18633	0.18611	0.075467	0.17689	0.10077	0.16474	0.17669	-2.5021	-3.0312	-2.8688	-3.2417	-2.9188	-3.0042	-3.0792	-2.7917	-3.1417	-3.0604	-2.9458	-3.1771	-2.8812	-2.6604	-3.1792	-2.9875	245.682	230.998	205.455	79.618	71.402	243.346	90.901	297.212	258.357	282.462	18.882	213.374	6.759	252.164	121.637	315.269	0.00057196	0.00043578	0.00014551	370.89	1.8171e-07	3.0956e-06	509.05	113.54	6.2953e-06	2.4647e-06	194.75	74.996	37.985	16.532	5.4937e-06	38.465	0.00051216	0.00052999	0.00015225	365.91	5.3878e-06	5.7902e-06	501.59	112.55	5.7357e-06	6.0677e-06	194.22	74.528	37.991	16.573	5.7445e-06	38.615	-27.772	65.471	74.466	-15.590	77.423	121.538	-15.344	-9.876	152.727	84.306	-10.804	-4.984	-3.843	1.403	118.092	-0.886	-8191	255	
785.605	1	1	0	0	0.11208	0.074498	0.17432	0.1575	0.14071	0.0086032	0.054033	0.21244	0.26632	0.086519	0.32187	0.1592	0.14506	0.29746	0.10667	0.023028	-2.7062	-2.9333	-2.9104	-2.9896	-3.0604	-2.9208	-3.25	-2.8917	-3.1	-3.1875	-2.9917	-3.1979	-2.8563	-2.7354	-3.2667	-2.8229	132.674	81.397	191.300	20.390	152.554	7.217	246.025	270.901	100.789	31.616	49.842	185.145	80.580	18.353	229.166	15.813	0.00052005	0.00027929	0.00011268	369.3	1.3026e-06	2.5043e-06	508.79	113.06	7.1258e-06	2.6057e-06	196.03	75.09	38.068	16.396	3.5451e-06	38.573	0.00052964	0.00053886	0.00015779	365.01	5.7445e-06	6.21e-06	501.1	112.11	6.1005e-06	6.236e-06	194.69	74.641	38.141	16.484	5.9217e-06	38.603	321.672	67.227	25.260	-15.436	135.946	99.486	-15.554	-9.679	104.459	89.443	-10.457	-4.947	-4.255	0.780	164.445	-0.950	-8191	255	
785.677	1	1	0	0	0.091225	0.088554	0.061233	0.25673	0.42588	0.14404	0.15842	0.06774	0.084899	0.22436	0.24439	0.13341	0.022293	0.12215	0.052165	0.2263	-2.5354	-2.9792	-2.6729	-2.8792	-2.9792	-2.85	-3.1958	-2.9667	-3.0146	-3.05	-2.925	-3.0979	-2.9229	-2.7833	-3.0583	-3.0563	163.648	168.865	210.323	29.342	139.461	-25.198	238.293	35.940	86.140	284.693	300.791	199.855	-16.158	122.240	29.840	195.556	0.00057725	0.00037697	0.00012211	372.4	3.2322e-06	2.9916e-06	512.22	113.09	2.1122e-06	3.286e-06	196.18	75.203	37.79	16.483	7.6634e-06	38.973	0.00054352	0.00055168	0.00015479	367.99	5.6226e-06	6.3907e-06	504	112.32	5.8678e-06	6.0265e-06	195.48	75.006	38.247	16.558	5.8675e-06	38.97	-22.189	71.207	76.489	-15.528	125.507	69.174	-15.718	-9.808	108.974	110.095	-10.601	-5.215	-4.269	1.067	132.794	-0.849	-8191	255	
785.773	1	1	0	0	0.22936	0.043026	0.041012	0.3225	0.21254	0.091772	0.064304	0.33817	0.33484	0.17773	0.052434	0.13298	0.088698	0.098824	0.033209	0.070056	-2.6375	-3.2146	-2.6646	-3.1854	-3.0354	-3.0125	-3.275	-3.0479	-2.8875	-3.1188	-3	-2.9729	-2.9917	-2.9479	-3.1813	-3.1125	83.928	119.388	44.314	252.488	151.571	135.939	64.858	9.896	259.281	234.934	213.229	77.759	94.313	210.275	188.763	-10.758	0.00059925	6.1429e-05	6.375e-05	372.77	2.6301e-06	3.3007e-06	511.24	113.14	3.4099e-06	2.8496e-06	197.03	74.96	37.707	16.542	5.3604e-06	38.853	0.00052987	0.00055833	0.00015494	367.33	5.7613e-06	6.2876e-06	504.08	112.7	6.0038e-06	6.0689e-06	195.48	74.915	38.094	16.651	5.8446e-06	39.155	-21.523	29.017	62.572	-15.352	115.364	71.631	-15.413	-9.727	119.361	109.792	-10.415	-5.440	-4.564	1.464	111.057	-0.622	-8191	255	
785.869	1	1	0	0	0.42061	0.14721	0.22605	0.11926	0.11832	0.49309	0.11747	0.034218	0.30501	0.16612	0.21936	0.097559	0.11037	0.13791	0.12282	0.30455	-2.375	-3.1021	-2.775	-3.0563	-2.9979	-2.9479	-3.1792	-2.7646	-2.775	-3.1333	-2.8229	-2.8271	-3.1229	-2.9417	-3.05	-2.9271	72.893	244.126	174.042	325.846	54.204	308.907	253.800	-21.437	64.752	153.409	176.604	271.366	276.774	314.131	159.109	6.337	0.0004407	0.00020247	4.1097e-05	371.15	4.231e-06	3.1315e-06	517.98	113.79	4.5085e-06	3.7228e-06	197.81	75.287	38.147	16.736	2.0069e-06	39.53	0.00053177	0.00055969	0.00015431	367.43	5.7535e-06	6.1396e-06	507.73	112.93	5.8116e-06	6.0474e-06	197.16	75.177	38.225	16.816	5.6583e-06	39.569	-24.073	82.298	47.611	-15.461	103.853	99.921	-15.511	-9.332	166.560	106.234	-10.614	-5.334	-4.459	1.145	131.869	-0.676	-8191	255	
785.990	1	1	0	0	0.20416	0.20352	0.10623	0.24675	0.27402	0.10958	0.17397	0.14008	0.029188	0.31214	0.21331	0.23221	0.28657	0.0033369	0.023448	0.16911	-2.5229	-3.0312	-2.8688	-2.9229	-3.15	-2.9938	-3.0646	-3.1146	-2.8438	-3.2646	-3.0208	-3.0417	-3.0208	-2.8729	-3.1854	-3	152.400	58.400	273.955	-8.590	-13.464	49.835	317.902	96.027	156.969	127.955	257.779	-20.520	119.833	217.202	164.169	-13.805	0.00047296	0.00042755	0.00010447	371.84	5.8108e-06	2.8341e-06	513.11	114.03	4.2529e-06	1.1733e-06	196.93	75.365	37.722	16.527	4.2898e-06	39.028	0.00052603	0.00052351	0.00014727	367.31	5.6058e-06	5.9413e-06	503.95	112.66	5.8139e-06	5.8576e-06	195.36	74.981	37.93	16.715	5.6927e-06	39.233	328.966	43.637	69.630	-15.773	88.477	84.424	-15.652	-9.257	172.078	87.635	-10.805	-5.234	-4.244	0.964	173.615	-0.627	-8191	255	
786.086	1	1	0	0	0.12465	0.16358	0.077022	0.23032	0.19824	0.28747	0.25298	0.43136	0.13768	0.067888	0.080828	0.40929	0.045561	0.17149	0.33042	0.13946	-2.4146	-2.9542	-2.8542	-2.9604	-3.0125	-2.7896	-3.2562	-2.9813	-2.9479	-2.9792	-2.8958	-2.9646	-3.1937	-2.8729	-3.1146	-3.125	144.581	198.472	28.599	286.352	84.460	259.756	134.154	0.867	317.175	84.138	132.342	249.546	42.083	299.404	297.283	273.010	0.00041391	0.00055763	7.055e-05	367.98	5.8749e-06	3.4763e-06	504.21	112.16	8.2718e-06	1.5531e-06	194.51	73.799	37.616	16.395	4.9673e-06	38.59	0.00052639	0.00053252	0.00014662	362.95	5.6283e-06	6.0089e-06	497.21	110.95	5.7847e-06	5.9473e-06	192.48	73.704	37.69	16.503	5.7824e-06	38.686	-22.247	56.085	45.257	-15.415	160.780	71.230	-15.658	-9.478	112.349	207.461	-10.697	-5.489	-4.005	0.712	141.721	-0.997	-8191	255	
786.180	1	1	0	0	0.10583	0.23527	0.13784	0.18956	0.068146	0.064497	0.092813	0.1502	0.20565	0.12516	0.20471	0.21444	0.02553	0.09876	0.22182	0.2347	-2.5583	-3.1646	-2.925	-2.8729	-3.2313	-2.8958	-2.975	-3.2229	-2.7979	-2.9813	-3.1604	-2.9104	-3.1	-2.9104	-2.8937	-3.1792	195.987	96.652	147.272	-20.265	-21.506	119.676	235.922	237.003	19.375	220.374	141.866	184.420	132.395	89.403	50.129	160.307	0.00043595	0.00027244	7.296e-05	370.61	4.5538e-06	1.7069e-06	507.3	112.7	2.5031e-06	2.1323e-06	196.08	74.552	37.494	16.412	2.6171e-06	38.709	0.00052614	0.00053166	0.00014622	364.83	5.6151e-06	5.8254e-06	501.07	111.84	5.8577e-06	5.9571e-06	193.59	74.131	37.764	16.539	5.7996e-06	38.786	-25.703	61.614	87.405	-15.457	156.371	55.199	-15.150	-9.646	73.890	128.183	-10.720	-4.914	-4.084	0.900	186.240	-0.674	-8191	255	
786.301	1	1	0	0	0.15751	0.30684	0.33713	0.16406	0.09463	0.22087	0.14301	0.19334	0.27368	0.18278	0.19038	0.26595	0.15319	0.103	0.25835	0.10143	-2.2313	-2.9896	-3.0083	-2.8604	-2.9896	-2.7625	-2.8354	-3.0979	-2.8	-3.15	-3.2146	-2.7521	-3	-3.0167	-2.9188	-3.1688	268.722	-2.450	251.431	-25.212	322.029	257.366	46.360	272.296	256.639	76.819	50.792	229.679	295.974	284.057	278.955	291.106	0.00050298	0.00023726	5.1699e-05	371.29	2.2709e-06	2.1723e-06	510.22	112.38	3.1242e-06	1.966e-06	196.79	74.879	37.767	16.445	4.8245e-06	39.087	0.00052998	0.0005254	0.00014743	364.62	5.7065e-06	5.9839e-06	501.74	111.72	5.8499e-06	6.0579e-06	194.7	74.481	37.862	16.591	5.954e-06	39.072	326.751	91.740	323.161	-15.626	210.240	109.687	-15.677	-9.447	115.682	117.902	-10.694	-5.407	-4.074	1.062	129.196	-0.937	-8191	255	
786.373	1	1	0	0	0.1119	0.29907	0.22683	0.23129	0.076039	0.14054	0.067253	0.04345	0.17893	0.17134	0.1506	0.10372	0.12957	0.21469	0.17784	0.21862	-2.6854	-2.9396	-2.9896	-2.7896	-3.1937	-3.0792	-2.9417	-2.9854	-2.8021	-3.0146	-2.9958	-2.925	-3.0812	-3.0917	-2.8521	-3.3125	224.123	87.660	103.655	323.634	22.902	10.756	-4.247	81.242	19.781	119.749	-15.075	86.532	285.458	55.047	292.989	234.487	0.00048565	0.00027496	6.3045e-05	369.75	3.2062e-06	7.373e-07	509.57	111.35	4.0594e-06	1.7968e-06	196.55	75.297	37.901	16.689	1.0958e-06	39.148	0.0005253	0.00055033	0.00014834	364.83	5.7284e-06	5.8628e-06	500.62	111.2	5.8266e-06	6.0665e-06	194.97	74.816	38.068	16.718	6.0867e-06	39.366	327.894	83.215	124.878	-15.277	95.509	175.458	-15.588	-9.086	136.861	78.655	-10.753	-5.130	-4.384	1.021	54.467	-0.535	-8191	255	
786.469	1	1	0	0	0.11534	0.2828	0.030995	0.14365	0.10452	0.10738	0.10466	0.24153	0.32292	0.11823	0.28775	0.28159	0.12003	0.1995	0.1776	0.088083	-2.4625	-2.9479	-3.0958	-2.8417	-3.3187	-2.9437	-2.9	-3.1188	-2.9646	-2.9813	-3.2229	-2.8646	-3.0792	-3.175	-2.8375	-3.2167	240.808	103.958	225.651	38.743	162.844	324.198	47.719	6.472	241.726	4.460	276.686	175.598	321.323	32.600	208.374	109.511	0.00053329	0.00027762	4.7604e-05	370.11	1.5828e-06	3.7661e-06	510.67	112.66	4.0439e-06	2.9379e-06	196.8	75.336	37.885	16.589	5.1296e-06	39.339	0.00052763	0.00055354	0.00015581	365.51	5.7569e-06	5.911e-06	502.97	112.26	5.7937e-06	6.1746e-06	196.01	75.28	38.212	16.709	6.2816e-06	39.408	330.102	41.188	32.289	-15.575	112.742	125.167	-15.302	-9.521	97.943	45.068	-10.761	-4.947	-4.194	0.987	114.476	-0.903	-8191	255	
786.589	1	1	0	0	0.16221	0.11107	0.37752	0.15052	0.17655	0.11924	0.13291	0.20302	0.20915	0.081491	0.11352	0.25301	0.20132	0.01556	0.066538	0.048489	-2.2875	-2.9833	-3.1	-3.0458	-3.2188	-3.0583	-2.8042	-3.0792	-2.95	-2.9562	-3.1937	-2.9979	-2.8688	-2.9938	-2.7792	-3.0708	87.684	317.131	231.762	262.734	32.527	218.818	278.757	214.592	175.425	155.835	-21.305	280.359	260.854	19.791	107.322	274.007	0.00047527	0.0004154	1.1665e-05	371.66	6.7789e-06	3.1551e-06	518.5	113.91	6.7107e-06	3.2436e-06	199.5	75.964	38.071	16.61	3.3044e-06	39.318	0.00052933	0.00056512	0.00015245	367.49	5.8778e-06	6.1065e-06	508.61	112.98	5.9691e-06	6.1902e-06	197.87	75.63	38.231	16.767	6.2392e-06	39.529	331.284	57.072	104.814	-15.578	110.772	120.190	-15.402	-9.385	161.128	116.222	-10.515	-5.195	-4.218	1.420	112.084	-0.504	-8191	255	
786.684	1	1	0	0	0.089863	0.068976	0.11866	0.12139	0.2035	0.25076	0.14514	0.18478	0.077714	0.093417	0.085749	0.11281	0.086636	0.081511	0.35585	0.3394	-2.6	-2.9	-3.0521	-2.8	-2.9021	-3.075	-2.8854	-3.0458	-3.0021	-3.0208	-3.1813	-2.9708	-2.8583	-3.1792	-2.775	-2.9896	30.439	332.140	262.066	145.022	208.762	159.503	254.643	182.926	63.771	-0.383	273.167	210.978	-14.137	163.792	43.970	278.136	0.0005596	4.1697e-05	9.1342e-05	371.41	5.1978e-06	4.1062e-06	508.78	112.7	1.8841e-06	3.9185e-06	195.63	75.053	37.849	16.434	3.0193e-06	38.921	0.00052807	0.00056002	0.00015083	365.28	5.735e-06	5.8177e-06	501.26	111.98	5.5273e-06	6.1435e-06	195	74.866	37.898	16.6	6.0049e-06	39.049	-22.529	78.853	79.267	-15.493	158.443	107.484	-15.479	-9.485	201.733	74.764	-10.582	-5.057	-4.798	0.920	117.495	-0.865	-8191	255	
786.780	1	1	0	0	0.1302	0.2017	0.063044	0.075318	0.11455	0.056067	0.25622	0.059207	0.025549	0.068654	0.19597	0.11602	0.059854	0.18554	0.1457	0.15548	-2.5271	-2.9271	-3.1229	-2.7479	-3.0062	-3.1813	-2.8167	-3.0896	-2.9979	-2.8563	-3.125	-2.8667	-2.7562	-3.1646	-2.8521	-3.0729	-11.146	256.165	145.696	12.394	-16.217	79.128	165.835	170.521	44.399	217.143	9.096	329.138	228.652	-17.521	163.981	252.932	0.00047984	0.00024914	7.6787e-05	367.63	6.4573e-06	3.1318e-06	508.24	111.59	1.8348e-06	3.5341e-06	194.81	74.855	37.574	16.339	5.7807e-06	38.724	0.00052335	0.00056199	0.00015507	362.43	5.8391e-06	6.0732e-06	498.71	110.97	5.8303e-06	6.2044e-06	193.82	74.168	37.697	16.449	6.0929e-06	38.77	-18.855	149.034	57.103	-15.267	113.923	163.471	-15.435	-9.700	189.974	156.021	-10.851	-5.121	-4.015	1.379	114.038	-0.781	-8191	255	
786.901	1	1	0	0	0.053116	0.061761	0.032336	0.19721	0.19441	0.20175	0.14251	0.23228	0.14439	0.078109	0.12426	0.26652	0.12969	0.048294	0.065717	0.17378	-2.4479	-2.7208	-3.1813	-2.9375	-2.85	-3.1063	-2.9292	-3.0521	-2.8896	-2.8688	-2.9042	-2.9583	-2.8229	-3.1708	-2.8292	-2.9938	248.781	293.387	79.157	66.227	134.950	282.724	109.367	247.161	202.723	110.776	167.821	-1.892	308.114	248.986	-12.541	216.633	0.00046978	0.00047555	8.0269e-05	368.18	4.4371e-06	3.2183e-06	509.1	111.43	6.8637e-06	3.4667e-06	195.22	74.458	37.329	16.55	3.1712e-06	38.839	0.00051941	0.00057063	0.00015258	362.73	5.8351e-06	6.118e-06	500.02	110.96	5.7484e-06	6.1844e-06	193.72	74.136	37.663	16.61	5.8103e-06	38.955	331.994	60.870	100.946	-15.493	139.896	96.933	-15.656	-9.639	138.416	98.175	-10.344	-5.205	-4.265	1.007	135.111	-0.773	-8191	255	
786.972	1	1	0	0	0.1302	0.10681	0.13004	0.26547	0.24154	0.055	0.10713	0.11314	0.06791	0.28601	0.1206	0.26524	0.091696	0.11379	0.31247	0.1983	-2.525	-2.6396	-3.0083	-2.8542	-2.7625	-3.0354	-2.9771	-3.0125	-3.0354	-2.7958	-3.1813	-2.9958	-2.7542	-3.1021	-2.8812	-3.0667	47.074	284.492	-10.862	3.199	227.015	141.126	147.976	251.983	181.900	235.254	30.060	160.719	242.568	122.972	10.906	54.058	0.00044313	0.00017841	9.9046e-05	367.41	5.1052e-06	3.249e-06	506.7	112.35	4.5684e-06	2.4549e-06	195.3	74.901	37.129	16.482	3.7711e-06	39.008	0.0005261	0.00056002	0.00015426	361.22	5.8994e-06	6.0305e-06	499.16	111.3	5.5521e-06	6.2498e-06	193.96	74.467	37.66	16.552	5.8989e-06	39.121	-19.076	119.025	94.127	-15.598	138.931	107.340	-15.578	-9.325	223.836	130.747	-10.530	-5.176	-4.160	1.122	141.100	-0.588	-8191	255	
787.068	1	1	0	0	0.11887	0.17457	0.03729	0.082089	0.14546	0.10784	0.15833	0.36604	0.31534	0.030893	0.093272	0.21722	0.26797	0.2472	0.092533	0.17387	-2.775	-2.8479	-3.0854	-2.9396	-2.8021	-3.0833	-3.0792	-2.7479	-3.0979	-2.8438	-3.1896	-3.1042	-2.6896	-3.2854	-3.0083	-2.975	-0.338	129.887	228.958	273.959	304.021	245.854	139.138	-26.299	132.298	278.490	281.239	-13.335	21.445	286.750	135.552	19.449	0.00048733	0.0005293	5.0006e-05	367.35	2.9251e-06	5.3094e-06	510.81	112.81	5.2578e-06	4.5739e-06	197.54	75.613	38.023	16.431	2.4924e-06	39.062	0.0005179	0.00055725	0.00014827	362.9	5.8374e-06	6.0954e-06	502.53	111.76	5.7694e-06	6.0228e-06	195.66	75.15	38.022	16.566	5.7499e-06	39.284	327.017	41.979	56.515	-15.479	125.392	139.070	-15.579	-9.448	146.248	99.493	-10.785	-5.385	-3.812	0.968	120.094	-0.743	-8191	255	
787.189	1	1	0	0	0.21902	0.10187	0.15127	0.23625	0.088373	0.061759	0.036	0.18967	0.079424	0.17293	0.037041	0.1222	0.19748	0.18535	0.13506	0.089546	-2.6833	-2.6396	-3.0625	-3.0938	-2.9333	-2.9417	-2.9813	-2.8229	-3.1708	-2.9938	-3.2354	-3.0604	-2.8021	-2.9667	-2.9375	-2.9062	110.377	84.675	9.602	118.246	317.181	70.146	330.744	289.469	83.973	67.639	140.430	-22.653	223.019	286.121	-15.075	-25.941	0.00048754	0.00046194	6.1272e-05	371.4	6.7209e-06	4.0757e-06	514.9	112.55	6.1267e-06	2.1259e-06	198.14	75.636	37.794	16.683	1.3404e-06	39.471	0.00052535	0.00055434	0.00014957	365.24	5.8212e-06	6.0349e-06	505.17	111.75	5.6476e-06	5.9473e-06	196.54	75.498	38.077	16.753	5.6272e-06	39.652	-24.203	76.222	111.779	-15.587	102.707	65.800	-15.434	-9.571	198.513	140.327	-10.539	-4.892	-4.043	1.506	42.443	-0.555	-8191	255	
787.285	1	1	0	0	0.046538	0.15448	0.057582	0.14121	0.20214	0.15839	0.18968	0.23867	0.091816	0.14409	0.12797	0.069052	0.30825	0.13103	0.11721	0.22294	-2.6437	-2.7479	-2.7479	-3.3667	-2.825	-3.0354	-3.0646	-2.8812	-2.9729	-2.9938	-2.8896	-3.0979	-2.8312	-2.9646	-2.8688	-2.8563	58.386	76.375	328.270	110.080	81.604	32.878	-22.523	326.920	274.219	293.744	13.183	241.327	277.419	30.098	155.838	255.678	0.00050397	0.00043471	0.00013995	368.46	3.2009e-07	1.8853e-07	512.78	112.73	7.5591e-06	2.7149e-06	196.41	74.856	37.326	16.355	5.9335e-06	39.059	0.00052554	0.0005416	0.00014838	363.29	5.9213e-06	5.987e-06	504.7	111.68	5.7862e-06	5.9528e-06	195.71	74.675	37.568	16.509	5.8817e-06	39.023	-23.591	55.815	52.648	-15.477	147.070	24.182	-15.373	-9.832	99.527	92.236	-10.237	-4.946	-4.229	1.345	151.149	-0.633	-8191	255	
787.381	1	1	0	0	0.1089	0.24023	0.027441	0.045604	0.13085	0.33887	0.084018	0.25705	0.32397	0.14443	0.10208	0.17179	0.063024	0.10862	0.13086	0.025692	-2.6625	-2.9021	-2.8792	-3.2313	-2.7521	-3.0333	-3.1	-2.9583	-3.0438	-3.0125	-2.9458	-3.0167	-3	-3.0125	-2.9688	-2.9458	52.810	301.215	329.839	152.845	151.691	4.410	-11.826	-3.293	165.804	242.758	325.515	307.415	67.264	90.077	32.841	-15.148	0.00054791	0.00053049	9.9133e-05	367.62	5.8958e-06	2.6965e-06	510.66	111.94	6.3667e-06	1.8537e-06	196.14	74.997	37.549	16.194	3.2168e-06	38.531	0.00053909	0.0005539	0.00016072	362.69	6.2601e-06	6.4639e-06	502.53	111.59	6.1178e-06	6.279e-06	194.51	74.489	37.631	16.354	6.1563e-06	38.679	-24.446	55.741	73.567	-15.580	165.010	72.970	-15.409	-9.709	92.383	74.019	-10.664	-4.855	-4.874	0.910	153.566	-0.478	-8191	255	
787.477	1	1	0	0	0.17182	0.0041373	0.091286	0.18258	0.13153	0.16381	0.26573	0.1237	0.20098	0.28703	0.23358	0.15226	0.088101	0.06644	0.24754	0.21981	-2.6521	-2.9917	-2.6437	-3.0521	-3.0312	-2.85	-3.05	-2.7896	-3.0021	-2.9896	-2.7896	-3.0542	-2.7458	-2.7438	-2.9417	-2.8354	304.468	161.271	39.188	226.899	276.449	126.272	-27.424	30.063	95.431	142.286	297.249	256.118	192.937	153.811	152.689	266.629	0.00059725	0.00029074	7.4585e-05	366.37	3.6223e-06	2.567e-06	505.06	111.76	4.8032e-06	3.2769e-06	195.02	74.86	37.471	16.343	4.3557e-06	38.997	0.00053933	0.00055041	0.00016284	362.52	5.8518e-06	6.2165e-06	499.29	111	5.9019e-06	6.1039e-06	193.82	74.285	37.696	16.459	6.129e-06	39.001	-20.133	113.353	40.172	-15.723	122.840	129.505	-15.653	-9.479	155.777	115.204	-10.774	-5.222	-3.765	0.945	137.295	-0.579	-8191	255	
787.572	1	1	0	0	0.13072	0.22445	0.20658	0.21584	0.19826	0.27772	0.060787	0.14747	0.073844	0.18078	0.08928	0.22367	0.16022	0.10273	0.26577	0.090875	-2.6437	-2.8229	-2.7854	-3.0396	-3.1354	-2.8896	-3.1896	-2.8125	-3.05	-2.9313	-2.6479	-3.0062	-2.9854	-2.9167	-3.1604	-2.8667	227.674	177.070	124.838	122.030	91.317	92.534	16.655	71.444	264.053	185.132	239.232	-20.744	160.640	307.054	314.952	171.960	0.00053078	0.00017321	7.4291e-06	369.97	6.7399e-06	1.4711e-06	508.95	111.96	5.0466e-06	1.7139e-06	196.94	74.856	37.6	16.445	4.061e-06	39.024	0.00054281	0.00056531	0.0001594	362.39	5.7826e-06	6.2857e-06	501.37	111.07	5.9054e-06	6.1196e-06	194.84	74.649	37.657	16.545	5.9782e-06	39.183	-18.788	90.487	90.310	-15.786	128.775	147.846	-15.562	-9.389	90.932	158.268	-10.442	-4.908	-4.174	1.035	94.448	-0.772	-8191	255	
787.668	1	1	0	0	0.15962	0.22058	0.1091	0.13344	0.16741	0.077197	0.15116	0.19088	0.079307	0.11153	0.016623	0.15592	0.36715	0.26019	0.057764	0.22585	-2.4729	-3.1146	-2.6958	-3.0729	-2.9729	-3.0812	-3.0938	-2.9896	-2.8	-3.1354	-2.9458	-2.8271	-2.8187	-2.7875	-2.9771	-2.7542	134.750	138.841	17.173	234.708	260.410	-14.058	82.612	72.310	211.948	78.522	135.446	245.971	34.819	156.945	277.937	22.935	0.00051501	0.00020989	5.0063e-05	369.22	4.2988e-06	1.7103e-06	514.32	112.23	3.8937e-06	4.2403e-06	196.95	75.962	38.099	16.548	3.5405e-06	39.315	0.00052009	0.0005395	0.00015614	364.27	5.7569e-06	6.1714e-06	504.68	111.78	5.7908e-06	6.1528e-06	196.15	75.508	38.113	16.635	5.8435e-06	39.411	-21.914	111.028	65.936	-15.382	85.049	130.738	-15.405	-9.612	157.092	136.427	-10.568	-5.000	-4.287	1.334	170.878	-0.429	-8191	255	
787.764	1	1	0	0	0.15842	0.21152	0.13277	0.20763	0.093401	0.10064	0.27512	0.053679	0.081684	0.14821	0.10249	0.085732	0.21906	0.077565	0.056119	0.13613	-2.3396	-3.1	-2.8979	-3.0312	-3.1	-2.7833	-3.1562	-2.9396	-2.9292	-3.2188	-2.9062	-3.1729	-3.0375	-2.9021	-2.9313	-2.8417	286.487	325.025	93.601	238.504	304.472	83.572	329.372	301.200	95.684	244.334	28.083	122.789	10.688	147.452	321.454	268.881	0.00053913	0.00018019	8.9031e-05	371.29	7.0188e-06	2.4383e-06	516.26	113.55	1.3514e-06	1.452e-06	200.07	76.59	38.513	16.384	5.1206e-06	39.66	0.00051792	0.00054257	0.00015695	364.86	5.5807e-06	6.4043e-06	507.51	112.56	5.8583e-06	6.0321e-06	198.43	76.72	38.669	16.57	6.0973e-06	39.635	-19.221	8.070	91.747	-15.685	139.860	109.128	-15.457	-9.247	137.841	94.543	-10.589	-5.074	-4.520	0.718	157.916	-0.827	-8191	255	
787.860	1	1	0	0	0.071858	0.32123	0.078838	0.17677	0.096535	0.043909	0.34309	0.09794	0.26707	0.13275	0.11817	0.17358	0.12193	0.049888	0.23356	0.24621	-2.6625	-3.1083	-2.825	-3.0375	-2.8771	-2.9583	-3.025	-2.9229	-2.875	-3.0542	-2.7625	-3.1771	-3.0729	-2.7104	-3.1646	-3.0042	189.198	84.505	232.311	154.135	182.631	195.092	316.035	325.514	35.350	-13.297	171.592	288.566	53.288	-13.485	2.359	-10.093	0.00054383	0.00031954	6.72e-05	371.53	3.858e-06	4.9986e-06	521.12	114.44	6.1044e-06	1.4984e-06	201.11	77.526	38.516	16.496	6.2004e-06	39.473	0.00054006	0.00056487	0.00015984	367.74	5.8991e-06	6.488e-06	512.92	113.57	6.1714e-06	6.2919e-06	200.12	76.971	38.866	16.575	6.2831e-06	39.48	326.034	156.800	77.957	-15.435	121.730	124.902	-15.664	-9.789	176.500	127.758	-10.437	-5.316	-4.179	1.242	96.912	-0.917	-8191	255	
787.981	1	1	0	0	0.047655	0.03418	0.17075	0.12336	0.15534	0.30842	0.08138	0.14153	0.042897	0.035325	0.059178	0.08831	0.24944	0.046843	0.26857	0.1885	-2.4979	-3.0979	-2.8854	-3.0208	-3.1729	-2.8792	-2.9958	-2.9917	-2.9229	-3.0667	-2.9875	-2.8854	-3.0438	-2.9521	-3.0333	-3.1042	154.485	274.742	39.350	287.497	249.632	317.993	240.063	234.077	305.209	50.102	274.515	258.030	16.546	295.901	213.797	130.715	0.00051733	0.0003024	0.00014199	375.9	2.8246e-06	1.8176e-06	523.49	115.29	3.2466e-06	2.4517e-06	201.43	76.885	38.482	16.43	2.6554e-06	39.179	0.00057115	0.00058124	0.00016786	371.2	6.1667e-06	6.5776e-06	514.95	113.76	6.2909e-06	6.4436e-06	199.53	76.48	38.631	16.518	6.3527e-06	39.231	-24.161	83.131	81.759	-15.555	200.151	39.676	-15.716	-9.173	158.608	148.803	-10.577	-5.322	-4.136	1.074	84.350	-0.534	-8191	255	
788.077	1	1	0	0	0.074045	0.17463	0.077905	0.15487	0.18795	0.266	0.13602	0.10118	0.30098	0.059153	0.25195	0.24948	0.070049	0.11652	0.25113	0.082653	-2.3875	-3.1063	-2.9458	-2.9125	-2.9667	-2.8354	-3.1208	-3.2188	-2.7875	-3.1125	-2.8583	-3.0438	-3.3083	-2.8375	-2.9146	-3.1021	98.311	156.867	283.784	185.005	70.950	187.981	4.838	12.532	317.033	59.615	314.036	327.474	280.001	327.517	157.067	269.469	0.0006571	0.00050372	6.6809e-05	369.93	8.4494e-06	1.9885e-06	515.63	113.43	4.8599e-06	2.5539e-06	199.01	75.674	37.849	16.315	2.2408e-06	38.949	0.00056876	0.00058079	0.00016132	366.24	6.203e-06	6.4287e-06	507.14	112.42	6.1048e-06	6.2302e-06	197.34	75.256	37.995	16.421	5.9963e-06	39.049	-16.886	35.832	83.451	-15.434	136.637	118.090	-15.730	-9.634	120.567	129.975	-10.729	-5.443	-4.585	0.653	152.448	-0.695	-8191	255	
788.173	1	1	0	0	0.095849	0.12964	0.21548	0.081499	0.14016	0.12743	0.15001	0.28909	0.3158	0.14338	0.05745	0.07082	0.19961	0.16919	0.18049	0.072653	-2.3896	-2.9	-2.9542	-2.8833	-3.275	-2.8604	-2.7375	-3.1562	-2.8063	-2.9729	-3.0667	-2.8563	-3.1833	-2.975	-2.8167	-3.0687	109.524	269.034	90.438	113.334	141.681	11.222	223.591	125.287	185.484	243.360	47.573	318.130	31.888	118.304	-14.739	321.623	0.00056978	0.0003326	8.6547e-05	369.24	3.9463e-06	4.3381e-06	515.18	112.56	5.0328e-06	3.3447e-06	197.54	75.664	37.756	16.559	2.6194e-06	39.351	0.00055216	0.00054808	0.00015216	365.21	5.8593e-06	6.16e-06	505.9	111.83	6.0491e-06	5.9931e-06	196.46	75.377	37.948	16.599	5.8648e-06	39.426	-27.379	109.111	4.590	-15.525	201.549	143.845	-15.604	-9.519	125.093	98.210	-10.702	-5.085	-4.606	0.791	172.656	-0.703	-8191	255	
788.269	1	1	0	0	0.21335	0.31391	0.34184	0.036087	0.095552	0.36345	0.15839	0.013843	0.055055	0.14356	0.19812	0.26018	0.13669	0.0040527	0.1943	0.20871	-2.4583	-3.0771	-3.0146	-2.8625	-3.1083	-2.8458	-2.8417	-3.1208	-2.6875	-3.0417	-2.9917	-2.7354	-3.1417	-3.0417	-2.8521	-3.0875	145.518	-14.385	216.666	125.993	322.159	331.462	-10.184	215.267	29.419	317.848	60.723	267.415	328.248	215.852	290.399	213.660	0.00053632	0.00020463	4.906e-05	365.55	5.9945e-06	2.3337e-06	508.06	112.53	7.56e-06	5.2809e-06	198.31	75.72	37.897	16.567	3.7749e-06	39.756	0.00052481	0.0005326	0.00014553	361.77	5.5761e-06	5.8007e-06	502.97	111.26	5.6768e-06	5.9611e-06	196.48	75.797	37.974	16.687	5.6705e-06	39.768	-26.848	36.694	61.554	-15.505	142.978	134.709	-15.811	-10.048	169.204	76.667	-10.676	-4.826	-4.092	1.092	121.066	-0.741	-8191	255	
788.365	1	1	0	0	0.20137	0.14903	0.10757	0.17513	0.20894	0.16253	0.28903	0.23257	0.16632	0.029501	0.060634	0.29207	0.10721	0.06934	0.20214	0.13098	-2.4062	-3.0396	-2.9208	-2.7354	-3.1771	-2.9854	-2.9	-3.1708	-3	-2.9042	-3.1646	-2.8979	-3.1708	-2.9854	-2.9292	-3.2667	316.427	220.879	300.907	318.114	46.067	103.588	300.468	324.793	241.701	324.798	34.306	250.652	122.225	3.301	261.232	239.908	0.00057119	0.00060187	0.00011678	367.08	7.04e-06	3.543e-06	512.66	112.12	1.48e-06	2.823e-06	198.12	75.581	37.569	16.485	4.8206e-06	39.555	0.00051659	0.00051739	0.00014543	361.87	5.6182e-06	5.8328e-06	503.02	111.01	5.6124e-06	5.7996e-06	196.11	75.406	37.754	16.604	5.9809e-06	39.654	329.366	95.303	71.898	-15.475	107.473	132.646	-15.474	-9.324	138.186	131.334	-10.644	-4.973	-3.763	0.631	122.167	-0.602	-8191	255	
788.462	1	1	0	0	0.14497	0.10367	0.29709	0.037134	0.025922	0.16301	0.12566	0.16754	0.24143	0.12838	0.33494	0.19764	0.35116	0.16282	0.41305	0.087265	-2.4583	-3	-3.0417	-2.6125	-2.9708	-2.9854	-3.0021	-3.2375	-2.8542	-2.9437	-3.1063	-2.7521	-3.0687	-3.0667	-2.8792	-2.9958	101.894	236.527	204.966	116.419	273.664	305.442	31.758	214.094	189.969	298.109	181.830	-25.160	266.275	201.845	145.400	-14.515	0.00047676	0.00024794	5.696e-05	372.17	1.9867e-06	3.9615e-06	515.43	113.03	5.4994e-06	3.1327e-06	198.68	76.749	37.63	16.644	3.5321e-06	40.248	0.00051947	0.00053697	0.00014914	364.65	5.7448e-06	5.8755e-06	507.08	111.65	5.5339e-06	5.9513e-06	197.86	76.236	37.92	16.749	5.8538e-06	40.233	330.316	16.560	92.329	-15.087	142.241	82.056	-15.371	-9.648	159.271	102.075	-10.379	-4.729	-4.066	1.189	104.083	-0.698	-8191	255	
788.581	1	1	0	0	0.29101	0.18014	0.022494	0.27318	0.06617	0.14502	0.15496	0.16304	0.11354	0.11097	0.13305	0.1803	0.14809	0.055703	0.26014	0.24797	-2.3979	-2.8646	-3.0396	-2.7979	-2.775	-3.0083	-2.9271	-2.9583	-2.9604	-2.8146	-2.9333	-2.7417	-2.9646	-2.9375	-2.8229	-3.0333	224.145	42.257	191.745	278.325	275.535	202.602	152.387	212.167	133.073	-24.216	260.470	232.125	163.746	31.136	294.246	264.067	0.00046206	0.00051679	0.00012905	367.24	6.145e-06	4.128e-06	514.54	112.63	1.8861e-06	2.2647e-06	199.34	77.215	38.349	16.661	3.3378e-06	39.902	0.00050813	0.00053966	0.00014827	363.26	5.4968e-06	5.6849e-06	507.65	111.82	5.501e-06	6.1509e-06	198.34	76.724	38.38	16.769	5.8636e-06	39.999	-19.896	76.715	39.955	-15.310	125.743	109.796	-15.276	-9.569	124.055	134.847	-10.569	-4.942	-4.410	1.005	145.958	-0.570	-8191	255	
788.677	1	1	0	0	0.12738	0.2087	0.15451	0.17078	0.18068	0.066489	0.14217	0.11766	0.061022	0.090602	0.082739	0.3054	0.13049	0.1525	0.37143	0.10341	-2.4562	-2.9146	-3.0396	-2.7354	-2.9854	-3.1083	-2.8937	-3.0354	-2.8146	-2.925	-3.0333	-2.8187	-2.9917	-3.0146	-2.6625	-3.0542	33.707	227.410	246.245	212.409	92.461	213.894	118.323	68.337	39.882	14.936	272.662	40.594	240.349	-20.254	189.077	57.654	0.00049665	0.00035317	8.3475e-05	366.64	2.6672e-06	6.1098e-07	512.69	111.95	4.9967e-06	6.9214e-07	197.16	75.656	37.673	16.445	1.5986e-06	39.164	0.00050567	0.00054382	0.00014889	361.02	5.7091e-06	5.7945e-06	502.18	111.27	5.5394e-06	6.1095e-06	195.87	75.416	37.822	16.485	6.0215e-06	39.19	-26.138	104.110	41.545	-15.584	91.668	75.985	-15.403	-9.875	125.950	78.854	-10.661	-5.197	-4.009	1.059	220.988	-0.883	-8191	255	
788.773	1	1	0	0	0.16478	0.33235	0.1211	0.059079	0.10807	0.24475	0.13344	0.10146	0.12047	0.06705	0.17934	0.15122	0.13955	0.087571	0.15082	0.069374	-2.6312	-2.9146	-3.0229	-2.85	-2.9521	-3.1271	-2.9021	-3.2167	-2.9292	-2.8104	-3.0854	-2.8771	-2.95	-3.0583	-2.8812	-3.2125	145.283	129.205	319.550	11.472	-11.161	306.064	203.496	248.825	287.713	117.214	277.654	-20.780	76.703	-4.138	1.186	256.769	0.00044895	0.00029521	5.2096e-05	366.97	5.9933e-06	3.9987e-06	508.09	111.13	6.9885e-07	2.2718e-06	196.71	75.955	37.785	16.26	4.126e-06	38.938	0.00052291	0.00056985	0.00015233	362.66	5.87e-06	6.1893e-06	502.04	110.95	5.8043e-06	6.4332e-06	195.75	75.291	37.903	16.385	5.9969e-06	38.949	-23.033	76.390	84.636	-15.388	121.494	94.064	-15.970	-9.630	240.969	137.657	-10.652	-4.964	-4.337	1.118	148.081	-0.589	-8191	255	
788.844	1	1	0	0	0.065541	0.25999	0.14483	0.28631	0.28023	0.16264	0.17253	0.13202	0.12832	0.17018	0.09264	0.17363	0.093633	0.2442	0.15152	0.17766	-2.4104	-2.7458	-3.0854	-2.8354	-2.8417	-2.9688	-2.8271	-3.0417	-3.0042	-2.9125	-3.2167	-3.0354	-2.8917	-3.0625	-2.8708	-2.9333	91.079	320.210	223.568	330.035	60.487	287.835	280.058	24.337	66.455	32.404	63.984	67.560	274.904	2.023	191.530	-6.566	0.00047464	0.00031412	8.8852e-05	366.21	3.0663e-06	3.3167e-06	512.04	111.94	4.2261e-06	1.5086e-06	197.53	76.032	38.002	16.299	4.3766e-06	39.142	0.00055107	0.00058237	0.00015833	363.24	6.1289e-06	6.3339e-06	505.71	111.84	5.9426e-06	6.5548e-06	196.38	75.491	38.052	16.389	6.2478e-06	39.171	-27.072	36.243	64.953	-15.604	123.779	126.491	-15.451	-9.944	174.206	172.993	-10.679	-5.275	-3.952	0.993	140.098	-0.907	-8191	255	
788.965	1	1	0	0	0.18619	0.18067	0.31422	0.072027	0.13398	0.078778	0.18803	0.11038	0.1832	0.12868	0.14503	0.17649	0.29447	0.077431	0.29107	0.15111	-2.5771	-2.9813	-3.0083	-2.8688	-2.8958	-3.2	-2.8896	-2.9021	-3.0938	-3.0125	-3.05	-2.9729	-2.8333	-3.2062	-3.1146	-3.0083	172.918	50.582	147.364	73.952	-20.032	128.779	189.231	-2.013	206.896	23.036	53.663	60.365	107.472	38.223	312.811	17.063	0.00048362	0.00041849	9.3001e-05	369.88	4.4514e-06	3.0733e-06	512.98	112.69	2.0134e-06	3.3463e-06	197.84	76.158	37.739	16.373	6.3297e-06	39.361	0.00053784	0.00057678	0.00015116	365.71	5.9888e-06	6.0895e-06	506.65	111.57	5.8254e-06	6.165e-06	196.98	75.592	38.03	16.42	5.8488e-06	39.344	-20.044	69.564	88.986	-15.575	130.678	128.027	-15.324	-9.646	130.307	109.507	-10.764	-4.926	-4.359	0.874	138.558	-0.789	-8191	255	
789.061	1	1	0	0	0.060134	0.12739	0.06986	0.12132	0.064234	0.17746	0.25656	0.18314	0.33615	0.084025	0.34263	0.32909	0.17688	0.31942	0.17829	0.41794	-2.5792	-2.7125	-2.8521	-3.0479	-2.7229	-3.0792	-2.8771	-2.7938	-3.0271	-2.9292	-2.9229	-2.9938	-2.8812	-3.075	-2.8271	-2.8333	215.231	320.869	3.227	264.509	11.436	104.721	5.273	-3.507	134.454	-18.520	130.529	266.784	247.906	299.530	-14.191	152.566	0.00055662	0.00028452	0.00012714	368.38	3.3387e-06	1.0484e-06	518.58	112.26	4.8992e-06	5.154e-07	198.77	76.256	37.478	16.433	2.256e-06	39.277	0.00053058	0.00056573	0.00015223	364.84	5.9046e-06	6.0139e-06	508.59	111.53	5.9567e-06	6.0815e-06	197.12	75.753	37.915	16.474	5.8686e-06	39.302	-12.912	70.899	85.324	-15.282	110.039	177.781	-15.909	-9.814	127.760	237.764	-10.498	-5.177	-4.689	0.935	145.333	-0.649	-8191	255	
789.157	1	1	0	0	0.37075	0.060557	0.07763	0.3109	0.20439	0.24961	0.10212	0.2463	0.12605	0.14605	0.15904	0.23826	0.17997	0.099281	0.042179	0.20932	-2.8187	-2.7604	-2.8021	-3.2792	-2.8958	-2.9688	-2.975	-2.9167	-3.1458	-2.9833	-2.9542	-3.0958	-2.7917	-3.15	-3.0125	-2.8875	330.468	131.196	95.856	74.957	172.709	120.565	206.242	149.903	313.514	222.209	145.847	53.071	260.239	51.258	290.200	301.581	0.00055159	0.00010427	6.0642e-05	372.21	6.0573e-06	3.4202e-06	519.04	112.38	8.5371e-06	3.2387e-06	199.9	76.358	37.834	16.441	2.8152e-06	39.512	0.00052993	0.00056863	0.00015354	366.9	6.079e-06	6.2338e-06	509.11	112.04	5.8237e-06	6.2016e-06	197.83	76.203	38.192	16.565	5.7087e-06	39.582	329.187	313.095	163.570	-15.618	122.090	130.566	-15.523	-9.797	156.581	89.388	-10.531	-5.166	-4.510	1.090	126.299	-0.855	-8191	255	
789.254	1	1	0	0	0.19217	0.22502	0.18092	0.10678	0.16602	0.050942	0.12825	0.25657	0.1032	0.037289	0.11087	0.09339	0.19623	0.1324	0.28385	0.17665	-2.7333	-2.8875	-2.7417	-2.9625	-2.9042	-3.0104	-3.15	-2.9479	-3.1542	-2.8917	-2.9896	-3.0938	-2.7021	-3.0625	-3.1771	-2.8604	-18.858	269.727	79.966	75.258	100.130	10.553	204.135	197.529	291.675	204.537	264.425	260.061	111.118	328.710	179.574	176.793	0.00049405	0.00055343	5.6786e-05	371.8	3.9479e-06	4.3653e-06	520.16	112.5	4.0521e-06	3.7441e-06	202.49	76.867	38.385	16.422	4.3165e-06	39.479	0.00051382	0.00053348	0.00014765	365.97	5.8717e-06	5.9857e-06	510.86	112.5	5.7207e-06	5.8459e-06	200.19	76.916	38.669	16.491	5.8849e-06	39.588	327.398	73.595	94.187	-15.457	104.490	155.303	-15.420	-9.422	169.065	91.485	-10.647	-5.129	-3.868	0.830	132.414	-0.491	-8191	255	
789.374	1	1	0	0	0.14212	0.16399	0.18111	0.084322	0.050706	0.25476	0.14198	0.28806	0.038797	0.13207	0.12388	0.11296	0.13862	0.13359	0.15221	0.1448	-2.7896	-3.1312	-2.9708	-3.125	-2.9188	-3.1833	-3.0854	-2.975	-3.0875	-2.9958	-2.9604	-3.3333	-2.9521	-2.9562	-3.1854	-2.9375	26.544	57.307	98.528	221.599	31.815	113.046	217.398	238.905	190.089	306.564	195.873	89.454	88.046	7.904	39.496	200.871	0.0004547	0.00031871	8.1115e-05	373.19	3.8024e-06	3.6942e-06	524.73	114.35	5.5496e-06	6.0387e-06	203.67	77.842	38.826	16.373	3.0339e-06	39.59	0.00052605	0.00053362	0.0001558	368.6	5.7512e-06	6.0614e-06	515.68	113.61	5.7974e-06	6.1153e-06	201.85	77.724	38.959	16.518	5.9024e-06	39.676	325.423	52.330	112.113	-15.366	127.732	143.409	-15.785	-9.826	133.378	134.873	-10.524	-5.371	-3.880	0.962	153.993	-0.507	-8191	255	
789.469	1	1	0	0	0.21921	0.078307	0.082269	0.093887	0.21457	0.13121	0.29557	0.12266	0.23673	0.18045	0.061156	0.14016	0.13336	0.075066	0.053032	0.10382	-2.6833	-2.8792	-2.7458	-3.0687	-3.0604	-2.9938	-3.2375	-2.9583	-3.2833	-3.2188	-3.0104	-3.1979	-2.8458	-3.0979	-3.0333	-2.9958	-0.110	271.145	-21.130	227.469	244.362	80.525	317.504	154.702	302.929	16.640	128.136	57.993	221.796	46.049	246.977	205.691	0.00051795	6.2904e-05	0.00010063	375.53	4.7295e-06	2.5533e-06	525.76	114.58	7.4487e-06	2.7358e-06	203.92	78.342	38.866	16.474	4.8763e-06	39.961	0.0005323	0.0005544	0.00015726	370.07	5.7812e-06	5.983e-06	517.88	113.81	5.6875e-06	6.0228e-06	202.88	77.943	38.944	16.577	5.9833e-06	39.93	327.020	148.870	75.903	-15.155	123.776	122.426	-15.552	-9.730	174.468	161.169	-10.649	-5.067	-4.285	1.048	160.888	-0.614	-8191	255	
789.542	1	1	0	0	0.070108	0.1556	0.07195	0.21008	0.068888	0.11758	0.19004	0.034016	0.10936	0.17406	0.21269	0.13393	0.096762	0.11044	0.13972	0.1453	-2.6271	-2.95	-2.9583	-3.0854	-2.9375	-2.8438	-3.0312	-2.9771	-3.0667	-3.1063	-2.7271	-3.2104	-2.9604	-2.875	-3.0771	-3.0104	-12.555	23.698	177.797	3.548	258.821	173.153	31.483	161.796	135.339	11.535	33.894	173.412	74.866	182.875	253.642	310.865	0.00062152	0.00024803	0.00012125	375.26	4.7454e-06	3.3401e-06	528.69	114.77	3.7222e-06	2.1126e-06	205.7	78.301	39.087	16.492	4.0316e-06	40.017	0.00052535	0.00055271	0.00015557	371.65	5.7907e-06	6.2943e-06	521.41	113.96	5.8349e-06	6.1208e-06	203.22	78.016	39.127	16.577	6.1181e-06	40.093	325.699	117.973	56.300	-15.844	20.237	68.493	-15.597	-9.732	138.002	116.627	-10.561	-5.192	-4.452	1.373	171.939	-0.534	-8191	255	
789.663	1	1	0	0	0.46919	0.06307	0.066407	0.15024	0.191	0.066163	0.079864	0.2762	0.39913	0.13928	0.088259	0.28291	0.16644	0.038748	0.13728	0.1304	-2.7521	-3.1229	-2.9396	-3.3875	-3.2	-3.0021	-3.2146	-3.0167	-3.0083	-3.1167	-3.0021	-3.0187	-2.9729	-2.8479	-3.1396	-3.0146	-19.666	254.510	305.875	224.859	183.090	90.246	203.297	283.079	257.717	199.064	151.613	40.553	283.910	326.338	94.792	209.300	0.00045963	0.0003669	4.7504e-05	377.08	3.9242e-06	3.306e-06	533.37	114.81	1.7305e-06	1.3039e-06	205.5	78.78	38.931	16.519	4.8994e-06	40.195	0.00054132	0.00054916	0.00015951	372.52	5.7633e-06	6.2767e-06	523.57	114.08	5.9062e-06	6.1475e-06	204.19	78.554	39.009	16.609	6.1829e-06	40.316	328.243	54.670	97.721	-15.188	140.653	179.414	-15.562	-9.335	296.199	175.577	-10.370	-5.024	-4.388	1.135	130.599	-0.546	-8191	255	
789.757	1	1	0	0	0.20636	0.06329	0.28129	0.13222	0.19383	0.13482	0.043514	0.085357	0.171	0.15603	0.094241	0.17736	0.23767	0.12682	0.15456	0.21323	-2.3187	-3.0438	-2.8979	-3.1521	-2.9875	-3.0438	-3.0958	-3.1333	-3.0563	-3.1104	-3.0417	-3.0542	-2.9396	-2.9062	-3.1167	-2.9437	-6.939	124.815	33.504	232.921	103.472	95.337	180.948	276.023	274.499	142.597	218.218	300.460	276.266	161.282	258.224	329.198	0.00052158	0.00019555	9.6649e-05	378.37	2.9991e-06	4.3003e-06	532.75	115.67	7.2388e-06	3.2724e-06	206.05	79.035	38.974	16.523	6.7538e-06	40.42	0.00054024	0.00055913	0.00016057	373.11	5.9072e-06	6.434e-06	525.22	114.42	6.0497e-06	6.0465e-06	204.7	78.734	39.178	16.642	6.1039e-06	40.498	329.185	77.795	90.296	-15.678	129.812	96.330	-15.429	-9.827	143.385	130.389	-10.365	-4.825	-4.179	1.040	89.518	-0.351	-8191	255	
789.853	1	1	0	0	0.12381	0.29472	0.18955	0.050392	0.004879	0.15804	0.13855	0.10759	0.14371	0.19979	0.1167	0.17802	0.040393	0.16075	0.14351	0.0079492	-2.4625	-3.175	-2.8125	-3.0271	-3.0687	-2.9042	-2.9833	-3.0604	-2.9083	-3.2292	-2.875	-3.0333	-3.0208	-2.8708	-3.1542	-3.1667	197.359	160.776	-26.935	151.415	98.164	148.520	0.335	-7.940	3.950	145.387	218.385	3.430	265.799	14.322	294.309	128.124	0.00057226	0.00036974	0.0001092	380.34	6.3675e-06	2.531e-06	538.85	115.06	2.9708e-06	1.9442e-06	206.95	80.104	39.18	16.644	2.8368e-06	40.31	0.00055985	0.00057016	0.00016415	375.31	6.1953e-06	6.4883e-06	530.54	114.81	6.2482e-06	6.5035e-06	206.63	79.519	39.2	16.667	6.201e-06	40.58	-21.978	57.479	76.916	-15.535	139.759	139.299	-15.274	-9.559	144.409	102.130	-10.293	-4.913	-3.661	1.244	131.148	-0.277	-8191	255	
789.949	1	1	0	0	0.23605	0.24335	0.163	0.05009	0.1036	0.16136	0.17933	0.069577	0.052861	0.15589	0.049983	0.23389	0.09601	0.22801	0.19071	0.13591	-2.3125	-3.0458	-2.8208	-3.1063	-3.1979	-2.8896	-3.0187	-2.9688	-2.8896	-3.2021	-2.875	-2.9708	-3.1688	-2.825	-3.0396	-3.1729	-19.547	145.853	215.611	180.302	327.663	11.062	-14.467	286.451	273.971	-26.395	168.725	239.796	97.580	301.606	93.017	163.561	0.0004172	0.00036118	5.482e-05	381.38	7.3273e-06	6.7243e-07	536.64	115.34	6.4698e-06	2.2654e-06	206.01	78.89	38.761	16.411	2.9271e-06	39.969	0.00056054	0.00057334	0.00015662	375.71	6.0966e-06	6.5118e-06	526.38	114.54	6.3463e-06	6.4448e-06	205.03	78.525	39.003	16.493	6.4223e-06	39.901	-25.607	131.949	53.367	-15.486	99.243	51.590	-15.780	-9.887	210.595	184.955	-10.530	-4.830	-5.246	1.546	132.248	-0.782	-8191	255	
790.070	1	1	0	0	0.24427	0.023753	0.072204	0.19018	0.062322	0.050855	0.24008	0.22381	0.26033	0.38633	0.33012	0.043663	0.02768	0.16791	0.09649	0.12574	-2.45	-3.1688	-2.7687	-3.0125	-3.0875	-2.8375	-2.9625	-3.0438	-2.9833	-3.125	-3.0583	-2.9542	-3.0125	-2.8312	-3.1437	-3.0833	262.062	280.297	264.918	65.881	299.602	198.665	268.115	25.626	290.484	28.081	8.504	127.791	234.266	47.990	313.127	-20.299	0.00058434	0.00038361	6.2836e-05	379.59	3.7488e-06	2.3394e-06	531.26	114.03	8.635e-07	1.5457e-06	203.59	77.944	38.465	16.146	4.0507e-06	39.152	0.00057264	0.0005891	0.00016031	374	6.2059e-06	6.5819e-06	522.78	113.5	6.5195e-06	6.3604e-06	203.03	77.583	38.789	16.255	6.4727e-06	39.24	-24.552	124.730	29.120	-15.561	161.102	124.622	-15.576	-9.460	17.741	55.994	-10.471	-5.289	-4.472	0.957	159.883	-0.435	-8191	255	
790.142	1	1	0	0	0.1026	0.29543	0.14301	0.12015	0.26247	0.15938	0.16397	0.10789	0.21722	0.062125	0.23194	0.16512	0.17327	0.18414	0.13081	0.20641	-2.4375	-3.0417	-2.9771	-2.9333	-3.2792	-2.8333	-3.0875	-2.9521	-2.825	-3.1292	-2.9146	-3.0083	-3.0521	-2.9229	-2.8146	-3.2833	329.966	19.256	105.868	159.721	-24.558	29.933	7.594	-12.396	120.114	279.523	128.354	13.819	26.998	293.325	313.726	263.924	0.0004781	0.00011027	2.0637e-05	380.85	3.11e-06	4.4563e-06	532.25	114.26	6.9945e-06	2.8723e-06	204.49	77.87	38.563	16.112	2.4988e-06	39.261	0.00059249	0.00059525	0.00016522	374.81	6.2221e-06	6.6227e-06	523.4	113.85	6.4064e-06	6.4599e-06	202.81	77.519	38.953	16.25	6.5201e-06	39.238	320.589	156.919	108.506	-15.754	64.350	125.464	-15.737	-9.541	131.254	161.250	-10.481	-5.100	-4.544	1.245	150.862	-0.629	-8191	255	
790.262	1	1	0	0	0.12073	0.30321	0.087696	0.055064	0.018955	0.03204	0.052484	0.2466	0.069827	0.10876	0.24174	0.14736	0.0053318	0.086503	0.29004	0.24289	-2.4271	-3.1896	-2.9667	-2.8979	-3.1479	-3.0083	-3.0375	-3.2708	-2.7708	-3.1458	-3.0771	-2.875	-3.25	-2.9479	-2.9396	-3.0563	72.522	101.147	86.479	21.644	321.175	327.392	88.991	214.131	81.862	118.900	25.556	265.959	309.198	88.880	302.160	319.236	0.0005329	0.00045541	6.1626e-05	381.87	6.2618e-06	1.9667e-06	538.33	114.28	7.6079e-06	3.4974e-06	206.43	77.855	38.562	16.053	2.3344e-06	39.303	0.00058292	0.00060484	0.00017226	376.52	6.353e-06	6.7111e-06	528.22	113.98	6.3553e-06	6.505e-06	204.26	77.836	38.882	16.22	6.5873e-06	39.336	331.106	74.591	75.109	-15.543	111.746	165.662	-15.750	-9.409	150.211	90.077	-10.729	-5.423	-4.107	0.563	173.358	-0.604	-8191	255	
790.358	1	1	0	0	0.34492	0.044431	0.17093	0.037689	0.11441	0.21549	0.24721	0.16121	0.10603	0.050155	0.16835	0.13056	0.11781	0.095014	0.073583	0.11388	-2.3104	-2.9583	-2.925	-2.6979	-3.1375	-2.8812	-3.0458	-3.0729	-2.8042	-3.125	-3.0333	-2.85	-3.05	-3.1146	-2.9271	-3.2812	200.163	130.102	301.333	212.787	184.261	-0.300	308.408	294.114	190.438	236.022	276.993	181.741	243.165	83.401	313.313	92.669	0.00061102	0.00034475	0.00012365	379.88	3.7122e-06	3.6287e-06	536.03	114.44	6.6782e-06	1.6433e-06	206.6	78.931	39.308	15.927	1.4937e-06	39.098	0.00057705	0.00059938	0.00016593	376.24	6.4216e-06	6.6931e-06	527.72	114.3	6.5784e-06	6.9531e-06	205.88	78.687	39.461	16.129	7.0755e-06	39.213	330.775	44.473	122.649	-15.622	149.699	132.471	-15.546	-9.911	119.214	150.493	-10.679	-5.229	-4.606	1.189	146.693	-0.540	-8191	255	
790.455	1	1	0	0	0.26045	0.14728	0.18967	0.08681	0.13635	0.17137	0.15934	0.076643	0.034996	0.28487	0.098376	0.085167	0.24549	0.30608	0.21766	0.16135	-2.4562	-2.8438	-3.1021	-2.8063	-3.125	-2.9792	-2.8875	-3.2354	-3.0354	-3.0583	-3.1437	-2.9271	-3.1125	-3.0292	-2.8792	-3.2583	38.794	132.542	290.210	93.165	211.624	278.898	243.423	274.007	104.141	104.981	189.564	19.316	327.965	275.219	304.795	221.769	0.00054411	0.00032004	1.8259e-05	385.99	1.9114e-06	1.8321e-06	539.87	115.44	6.4702e-06	2.1638e-06	209.14	79.107	39.327	16.182	4.2033e-06	39.496	0.00058795	0.000627	0.0001786	380.54	6.7659e-06	6.9081e-06	531.71	114.69	6.5492e-06	6.9977e-06	206.89	78.971	39.576	16.262	7.0681e-06	39.567	-24.227	59.479	135.817	-15.811	30.692	157.475	-15.695	-9.780	157.700	99.294	-10.746	-5.345	-4.573	1.023	89.191	-0.293	-8191	255	
790.549	1	1	0	0	0.14952	0.2104	0.035467	0.12081	0.12355	0.16021	0.21185	0.13848	0.045416	0.17853	0.060798	0.26115	0.085033	0.15154	0.12439	0.28007	-2.5771	-2.8833	-3.0854	-2.7208	-3.15	-3.0458	-3.0167	-3.1521	-2.9875	-2.8417	-3.0729	-2.9792	-2.9271	-3.0042	-2.9979	-3.1792	261.828	278.039	136.998	77.333	315.771	9.765	285.815	255.192	287.349	91.916	31.562	174.894	190.493	-24.590	75.267	20.394	0.00053447	0.0005304	7.5826e-05	387.65	3.4894e-06	1.7424e-06	544.99	116.44	6.7411e-07	2.0451e-06	208.55	79.182	38.846	16.171	5.1668e-06	39.305	0.00059316	0.0006504	0.00017804	382.15	6.5776e-06	6.8939e-06	536.07	115.24	6.4355e-06	6.9667e-06	207.14	78.993	39.355	16.269	6.9872e-06	39.546	-24.965	43.360	-10.809	-15.704	172.872	93.051	-15.388	-9.464	191.808	59.908	-10.609	-5.734	-4.415	0.901	117.365	-0.724	-8191	255	
790.670	1	1	0	0	0.30434	0.042206	0.13411	0.1087	0.03327	0.13925	0.26381	0.17557	0.25154	0.16782	0.012734	0.15199	0.20879	0.051984	0.15888	0.13273	-2.5583	-2.9083	-3.1125	-2.9104	-2.9604	-3.2687	-2.9938	-3.0354	-3.1625	-3.0479	-3.0479	-2.9104	-3.0979	-3.1542	-2.9229	-3.1208	129.571	51.954	133.479	282.419	32.921	-18.391	249.353	310.587	234.727	21.778	171.317	143.667	323.637	0.136	55.565	175.895	0.00045384	0.00037321	8.2458e-05	383.04	2.6903e-06	1.9917e-06	537.75	114.63	2.5562e-06	2.9243e-06	204.31	77.788	38.766	16.06	4.3226e-06	38.996	0.00057397	0.00062647	0.00017161	378.9	6.5096e-06	6.7206e-06	528.86	113.8	6.3668e-06	6.763e-06	203.96	77.685	38.807	16.17	6.6936e-06	39.065	-26.311	36.375	65.138	-15.190	33.110	126.728	-15.442	-9.873	92.960	131.304	-10.793	-5.518	-4.841	0.768	142.781	-0.777	-8191	255	
790.766	1	1	0	0	0.17714	0.3156	0.25449	0.21346	0.15226	0.19558	0.17304	0.09331	0.31064	0.15597	0.16532	0.18148	0.16602	0.1155	0.08199	0.010772	-2.6854	-2.8396	-2.9354	-2.8917	-3.0708	-3.0875	-2.8354	-2.9708	-2.9437	-3.0125	-3.1458	-2.875	-2.825	-3.0812	-2.9875	-3.1083	244.793	195.152	293.013	266.816	305.287	-3.084	182.644	121.733	153.233	56.633	313.663	292.633	-18.293	35.099	279.697	200.796	0.00045929	0.00035933	7.928e-05	380.58	1.3783e-06	1.4701e-06	534.27	113.39	9.0796e-06	2.6233e-06	203.91	77.489	38.364	15.938	9.7075e-07	38.693	0.00056189	0.00061885	0.00016438	374.46	6.3717e-06	6.8025e-06	525.09	113.06	6.3639e-06	6.7965e-06	202.85	77.172	38.611	16.102	6.4741e-06	38.923	-16.848	51.890	47.202	-15.356	155.965	105.918	-15.704	-9.602	134.586	75.473	-10.738	-5.029	-4.492	1.041	204.692	-0.812	-8191	255	
790.837	1	1	0	0	0.11893	0.085451	0.17794	0.028372	0.06438	0.16948	0.02578	0.25167	0.29906	0.21069	0.075456	0.12021	0.25583	0.17864	0.2503	0.13983	-2.4583	-2.8937	-2.95	-2.8688	-2.9396	-3.1896	-2.9792	-2.9792	-3.0583	-2.9271	-3.2188	-2.9875	-2.8312	-3.0917	-2.9271	-3.1271	58.556	328.736	77.493	171.345	328.452	86.779	57.832	151.087	125.089	167.256	90.051	309.305	322.604	329.796	187.145	280.898	0.00049649	0.00022639	7.4619e-05	378.92	3.5778e-06	3.9581e-06	533.62	113.33	5.3443e-06	4.3935e-06	203.29	77.471	38.419	15.934	2.9859e-06	39.127	0.00056145	0.00061157	0.00016129	374.22	6.4516e-06	6.5013e-06	523.2	112.51	6.2468e-06	6.6055e-06	202.32	77.074	38.532	16.136	6.3281e-06	39.159	-22.530	45.340	59.074	-15.394	187.197	113.168	-15.261	-9.754	144.368	125.850	-10.710	-5.411	-4.543	1.041	96.511	-0.475	-8191	255	
790.934	1	1	0	0	0.32008	0.18996	0.07579	0.2933	0.13901	0.20117	0.17456	0.12973	0.12543	0.027444	0.3731	0.16378	0.10399	0.11806	0.20622	0.034924	-2.7521	-2.7938	-3.2062	-2.9125	-2.8375	-3.1771	-2.9813	-3.1271	-3.2375	-2.7854	-3.1437	-3.0854	-2.8021	-3.1479	-2.8979	-2.9771	298.355	179.415	198.600	328.423	44.382	65.784	318.207	193.037	247.618	47.079	318.412	132.978	269.040	178.159	63.143	75.898	0.00058354	0.00022324	7.6281e-05	378.46	1.3431e-06	2.6229e-07	532.87	112.78	3.1446e-06	4.2894e-06	203.1	77.51	38.369	16	2.9396e-06	38.909	0.00055048	0.0005973	0.00016613	372.48	6.4003e-06	6.3172e-06	522.29	112.32	6.1893e-06	6.5904e-06	202.53	77.226	38.572	16.173	6.2721e-06	39.156	-25.298	49.203	64.278	-15.904	198.952	140.512	-15.726	-9.662	153.019	89.561	-10.550	-5.333	-4.644	1.080	98.443	-0.653	-8191	255	
791.054	1	1	0	0	0.11089	0.16425	0.16764	0.28356	0.21707	0.19712	0.24207	0.13698	0.20142	0.18155	0.25507	0.2893	0.041209	0.10361	0.092994	0.15911	-2.7604	-2.6437	-3.0667	-3.0083	-2.6417	-3.0583	-3.0062	-2.95	-3.0875	-2.9083	-2.9521	-2.8229	-2.8563	-3.1667	-2.8771	-2.8979	129.530	89.692	177.645	320.135	295.344	13.297	263.329	112.585	245.065	167.294	199.662	264.243	68.496	104.999	187.060	230.054	0.0005385	0.00047504	0.00015117	379.27	1.8228e-06	3.2966e-06	536.51	113.14	4.4233e-06	1.6691e-06	205.48	77.99	38.453	16.034	3.6714e-06	39.054	0.0005628	0.0005919	0.00016781	374.02	6.5511e-06	6.6511e-06	526.28	112.9	6.258e-06	6.4111e-06	203.68	77.605	38.733	16.139	6.4075e-06	39.294	330.892	57.050	21.608	-15.597	203.757	95.056	-15.691	-9.554	119.796	103.840	-10.779	-5.295	-4.183	1.024	149.090	-0.562	-8191	255	
791.150	1	1	0	0	0.15107	0.14163	0.23638	0.16578	0.17743	0.28466	0.047266	0.081952	0.21504	0.19719	0.27071	0.16819	0.049987	0.28286	0.16526	0.1627	-2.7542	-2.8271	-3.0375	-2.8396	-2.8521	-3.1292	-3.0271	-2.8	-3.0312	-2.8125	-3.0104	-2.9562	-2.7792	-2.9708	-3.1292	-3.025	69.021	145.724	-8.290	240.826	52.974	113.243	289.368	67.412	5.814	182.932	268.744	194.790	277.507	220.036	77.613	276.063	0.00049595	0.00016294	5.5351e-05	382.44	4.8831e-06	2.96e-06	539.38	114.11	3.47e-06	5.3099e-07	207.24	78.385	38.716	16.139	3.6021e-06	39.32	0.00057377	0.00059423	0.00016727	376.54	6.4499e-06	6.5251e-06	529.53	113.59	6.2771e-06	6.5867e-06	205.5	78.153	38.892	16.207	6.3648e-06	39.52	-20.842	24.802	106.918	-15.931	118.868	181.972	-15.565	-9.515	170.840	292.143	-10.824	-5.407	-4.373	1.174	159.969	-0.543	-8191	255	
791.247	1	1	0	0	0.19453	0.14603	0.20292	0.26734	0.065706	0.073931	0.095005	0.1277	0.12032	0.050957	0.2595	0.28375	0.23433	0.13315	0.26744	0.082372	-2.6146	-2.8563	-2.8979	-3.2313	-2.8875	-2.9917	-3.0625	-2.7646	-3.1458	-2.7521	-2.8458	-3.0646	-2.8833	-2.9396	-2.9604	-2.9562	143.929	210.862	240.089	-11.811	265.021	151.322	162.463	210.215	307.154	168.826	294.901	-23.860	136.669	308.631	21.528	243.524	0.00052776	0.00048093	7.0416e-05	381.47	5.7022e-06	2.7352e-06	537.82	114.84	5.2552e-06	1.2587e-06	206.18	77.693	38.565	15.888	4.863e-07	38.865	0.00057434	0.00061063	0.00017164	377.31	6.3813e-06	6.6885e-06	528.83	113.8	6.2528e-06	6.521e-06	204.76	77.692	38.702	16.061	6.3527e-06	39.036	-21.532	49.791	60.319	-15.820	168.933	85.178	-15.846	-9.520	150.845	72.327	-10.755	-5.446	-4.325	0.893	212.808	-0.530	-8191	255	
791.343	1	1	0	0	0.088246	0.20466	0.12869	0.18534	0.1016	0.08019	0.11762	0.020103	0.3045	0.20472	0.0613	0.23431	0.17683	0.15602	0.028888	0.17609	-2.6063	-2.8354	-2.8917	-3.1729	-2.8917	-3.0271	-3.0646	-2.9667	-3.1854	-2.9417	-2.825	-3.0687	-2.8583	-2.9875	-2.9688	-2.8979	121.914	107.115	228.740	194.745	64.308	188.437	244.116	134.758	188.665	284.381	205.040	63.888	232.428	90.428	245.369	18.907	0.00037607	0.00029901	5.5518e-05	378.55	5.9394e-06	4.4319e-06	533.03	112.83	3.8324e-06	4.3908e-06	203.58	76.676	38.543	15.756	5.0792e-06	38.497	0.0005427	0.00060246	0.00017114	373.82	6.5707e-06	6.6718e-06	524.65	112.83	6.2035e-06	6.6104e-06	202.92	76.938	38.774	15.922	6.2146e-06	38.547	331.293	39.635	78.800	-15.691	139.987	142.023	-15.705	-9.417	113.545	129.253	-10.518	-5.085	-4.421	0.944	151.119	-0.526	-8191	255	
791.439	1	1	0	0	0.12929	0.12682	0.17583	0.21096	0.29308	0.08404	0.13028	0.28977	0.17545	0.16654	0.27543	0.061739	0.34992	0.16816	0.20871	0.10184	-2.7562	-2.8521	-2.8063	-3.0458	-2.8958	-2.9604	-3.1937	-2.675	-2.9813	-3.0167	-2.8396	-3.1042	-2.8792	-3.0375	-3.0083	-2.7812	148.557	228.370	159.257	105.695	137.981	79.730	247.973	246.857	99.569	44.391	13.129	323.292	268.733	103.505	-24.032	286.186	0.00050264	0.00030589	0.00017124	379.44	2.6648e-06	2.311e-06	529.99	112.52	6.0848e-06	4.0116e-06	203.6	77.53	38.352	15.81	4.838e-06	38.572	0.00054314	0.00059991	0.00016628	373.85	6.197e-06	6.7694e-06	522.06	112.15	6.5212e-06	6.5864e-06	201.91	77.022	38.473	15.94	6.3444e-06	38.556	-21.968	55.218	48.605	-15.835	80.408	87.515	-15.790	-9.583	155.803	74.618	-10.731	-4.997	-4.454	1.103	137.702	-0.795	-8191	255	
791.535	1	1	0	0	0.15723	0.23243	0.17654	0.042494	0.42936	0.01628	0.12077	0.16757	0.22009	0.22365	0.053716	0.024075	0.23656	0.21163	0.20427	0.030039	-2.6625	-2.9104	-2.7938	-3.3104	-3.0604	-2.9792	-3.0104	-2.9271	-3.1042	-2.9708	-2.9042	-3.075	-2.8146	-3.0333	-3.0417	-2.9583	-3.670	132.797	-23.092	205.902	141.087	90.178	227.884	31.967	230.971	100.107	10.605	142.818	273.001	87.518	105.879	108.051	0.00048458	0.00042092	6.6704e-05	379	4.3969e-06	5.7015e-06	531.99	113.07	2.8499e-06	5.355e-06	203.86	76.929	38.291	15.814	8.5241e-07	38.46	0.00056701	0.00060949	0.00016792	374.51	6.2434e-06	6.8841e-06	523.77	112.42	6.3062e-06	6.6399e-06	202.58	76.769	38.456	15.938	6.5432e-06	38.584	-27.710	75.707	49.402	-15.994	135.482	147.554	-15.540	-9.762	190.615	115.766	-10.541	-5.034	-4.207	1.096	97.293	-0.666	-8191	255	
791.631	1	1	0	0	0.12912	0.33371	0.083788	0.099159	0.049249	0.20765	0.074795	0.26494	0.1235	0.088202	0.31676	0.34083	0.11225	0.16443	0.18017	0.15167	-2.7062	-3.0979	-2.7229	-3.0563	-3.0292	-2.9396	-3.1458	-2.9437	-3.0687	-2.9854	-2.7479	-3.2021	-3.1021	-2.7562	-3.1813	-3.0771	306.559	117.788	95.409	179.742	314.232	161.985	257.828	243.088	244.162	70.662	9.863	66.481	55.262	266.423	78.404	280.834	0.0004643	0.00020257	7.0329e-05	381.05	4.3749e-06	4.9016e-06	535.72	114.39	6.5747e-06	2.8196e-06	205.08	77.209	38.159	15.848	1.5344e-06	38.812	0.00058343	0.00060877	0.0001769	376.12	6.3934e-06	6.8291e-06	527.2	113.04	6.5547e-06	6.7081e-06	203.88	76.947	38.45	15.974	6.2955e-06	38.809	324.018	102.707	67.016	-15.522	135.277	145.455	-15.630	-9.550	120.462	134.579	-10.545	-5.058	-4.586	1.034	104.188	-0.391	-8191	255	
791.750	1	1	0	0	0.21518	0.24951	0.1345	0.35736	0.18883	0.29717	0.19638	0.16961	0.08135	0.30857	0.13205	0.37142	0.23468	0.13041	0.14679	0.025394	-2.5458	-2.9042	-2.9167	-3.1833	-2.9896	-2.7417	-3.3021	-2.9083	-3.0208	-3.1188	-3.0104	-2.9375	-2.8396	-2.8083	-3.0208	-2.7896	-9.916	37.704	26.295	257.608	119.899	17.155	300.038	16.825	98.208	184.544	62.447	4.152	35.450	52.475	20.776	137.399	0.00056617	0.00010471	8.2598e-05	381.5	4.8491e-06	3.5176e-06	537.6	113.28	4.0763e-06	2.8812e-06	205.93	77.465	38.199	15.829	3.5058e-06	38.844	0.00057647	0.00061215	0.00017178	376.91	6.4271e-06	6.94e-06	528.68	112.83	6.7394e-06	6.5944e-06	204.38	77.103	38.317	16.063	6.5115e-06	39.118	-6.747	89.833	133.153	-15.812	140.033	81.497	-15.410	-9.660	105.027	97.232	-10.708	-5.201	-4.635	1.010	15.712	-0.504	-8191	255	
791.846	1	1	0	0	0.022146	0.044121	0.18432	0.29709	0.13436	0.086988	0.23959	0.31198	0.19562	0.14717	0.32962	0.14802	0.13563	0.018482	0.039512	0.19633	-2.5625	-2.975	-2.8646	-2.8625	-3.0417	-2.6833	-3.1333	-2.9292	-2.8875	-3.0542	-2.7146	-3.0729	-2.8854	-2.725	-3.0604	-2.9833	29.501	196.019	197.237	81.304	50.928	32.032	-12.438	233.084	-18.924	183.856	11.934	271.461	261.989	288.005	191.057	212.550	0.00044964	0.00022249	5.838e-05	379.72	2.8083e-06	3.519e-06	538.98	113.49	1.0928e-05	3.1229e-06	205.74	77.696	38.513	15.941	3.5261e-06	38.971	0.00058943	0.00059548	0.00017245	375.51	6.436e-06	6.9007e-06	529.49	112.79	6.7512e-06	6.8374e-06	204.32	77.348	38.537	16.117	6.6729e-06	39.162	330.516	95.723	96.049	-15.548	119.105	129.369	-15.478	-9.615	194.066	122.153	-10.511	-5.533	-4.303	0.944	135.497	-0.340	-8191	255	
791.942	1	1	0	0	0.10061	0.065834	0.10136	0.11078	0.06905	0.13447	0.1641	0.17468	0.093947	0.24831	0.13359	0.14027	0.075636	0.06356	0.21768	0.16697	-2.4083	-3.0812	-2.7771	-2.9771	-2.9583	-2.9229	-3.125	-2.875	-2.95	-3.1708	-3.0208	-2.8021	-3.1708	-2.8771	-2.9646	-3	325.520	282.273	221.243	210.546	61.668	208.726	145.701	50.178	264.446	227.672	263.209	280.350	240.422	135.010	226.602	217.239	0.00044213	0.00064429	0.00011783	377.18	4.3322e-06	4.8742e-06	530.24	112.49	3.0749e-06	2.9755e-06	202.45	76.354	37.82	15.847	5.8911e-06	38.43	0.0005922	0.00061758	0.0001712	372.46	6.3674e-06	6.9251e-06	523.59	111.79	6.7137e-06	6.7996e-06	201.78	76.188	38.113	16.009	6.6797e-06	38.462	-24.382	37.281	83.566	-15.653	128.814	118.203	-15.676	-9.921	98.230	131.362	-10.520	-5.184	-4.613	0.501	161.234	-0.692	-8191	255	
792.038	1	1	0	0	0.032201	0.18647	0.15706	0.21303	0.05391	0.057537	0.30653	0.054957	0.33166	0.15392	0.10716	0.10928	0.1604	0.12032	0.037639	0.1611	-2.4854	-3.0458	-2.9167	-2.7396	-3.0521	-3.0229	-3.0771	-2.8979	-2.7854	-3.1479	-2.9729	-2.9333	-3.0604	-2.9562	-3.1521	-3.0708	-0.849	94.302	56.079	241.733	229.331	215.798	276.453	55.515	314.340	38.683	50.848	216.685	282.816	107.401	327.020	39.247	0.00060586	0.00042808	8.3004e-05	375.97	4.997e-06	4.7862e-06	525.72	112.08	6.6218e-06	1.592e-06	201.2	75.498	37.168	15.568	2.3891e-06	37.866	0.00060056	0.00061606	0.00017195	370.94	6.4931e-06	7.0153e-06	517.69	111.28	6.85e-06	6.8426e-06	199.72	75.299	37.629	15.811	6.4697e-06	38.097	-21.390	53.815	55.411	-15.541	85.290	106.159	-15.540	-9.854	153.799	253.929	-10.551	-4.906	-4.078	1.029	98.068	-0.645	-8191	255	
792.135	1	1	0	0	0.04516	0.21005	0.13279	0.22016	0.29348	0.31958	0.11741	0.061948	0.094012	0.12343	0.41173	0.10706	0.10891	0.15732	0.06611	0.2406	-2.3396	-2.8271	-2.8896	-2.8917	-3.075	-2.9542	-3.0896	-3.0229	-2.7646	-2.9875	-2.9646	-2.7646	-3.1292	-2.8729	-2.8396	-3.1167	170.060	214.018	70.069	64.047	288.582	83.915	272.885	219.248	31.902	287.302	284.613	124.856	234.214	0.451	-24.108	249.427	0.00051658	0.00015077	0.00013495	374.41	6.0754e-06	1.5408e-06	526.48	111.79	2.3517e-06	3.1207e-06	200.34	75.587	37.788	15.732	2.0959e-06	38.104	0.00059196	0.00062101	0.00017259	371.01	6.6168e-06	6.9112e-06	517.91	111.12	6.8364e-06	7.0066e-06	199.79	75.413	37.841	15.856	6.8231e-06	38.192	330.125	24.330	49.137	-15.571	140.859	13.875	-15.576	-9.802	206.983	154.799	-10.583	-5.026	-4.340	0.717	235.554	-0.464	-8191	255	
792.231	1	1	0	0	0.18839	0.086877	0.13012	0.097064	0.12544	0.029774	0.026003	0.024733	0.075182	0.10519	0.090554	0.34595	0.10654	0.12124	0.30674	0.065852	-2.4271	-3.1542	-2.9542	-2.7104	-2.9542	-2.975	-2.8937	-3.1646	-2.8312	-3.1354	-2.7667	-2.7062	-3.0771	-2.8542	-2.8563	-2.9958	276.244	82.842	18.328	61.099	144.547	288.643	-18.269	97.252	124.245	78.095	32.704	50.723	59.861	18.604	68.611	26.921	0.00047756	0.00044547	9.1034e-05	374.79	3.2756e-06	2.3523e-06	527.97	111.65	2.4154e-06	3.6238e-06	201.16	75.541	37.258	15.504	5.4311e-06	38.126	0.00061614	0.00064849	0.00017172	371.34	6.5003e-06	6.9928e-06	518.65	111.18	6.7426e-06	7.002e-06	200.04	75.445	37.769	15.784	7.0814e-06	38.172	-19.486	25.689	42.552	-15.609	98.211	177.595	-15.369	-10.104	276.085	181.322	-11.199	-5.216	-4.185	1.013	78.108	-0.598	-8191	255	
792.351	1	1	0	0	0.24799	0.19936	0.24402	0.17737	0.11752	0.086575	0.41753	0.12653	0.30697	0.34683	0.13483	0.14187	0.053191	0.17328	0.24225	0.075665	-2.3563	-3.0792	-2.9542	-2.8688	-3.3167	-2.9854	-3.0417	-3.0563	-2.8375	-2.9771	-3.1083	-2.8271	-2.9917	-2.8229	-2.8896	-3.1875	276.221	133.600	109.574	271.312	68.570	309.405	311.565	331.169	198.760	199.521	313.811	48.044	133.985	267.003	180.800	150.931	0.00039094	0.0002276	5.7269e-05	378.35	5.7575e-06	4.1343e-06	530.42	111.89	8.1483e-06	3.9919e-06	200.81	75.115	37.193	15.598	6.1926e-06	38.204	0.00060597	0.00065697	0.00017656	372.92	6.691e-06	7.1392e-06	521.44	111.34	6.5414e-06	6.9105e-06	200.11	75.249	37.628	15.808	6.8874e-06	38.455	329.702	71.826	88.397	-15.367	163.999	116.776	-15.517	-9.663	148.705	146.978	-10.814	-5.266	-4.450	1.033	119.300	-0.939	-8191	255	
792.448	1	1	0	0	0.010704	0.18763	0.093194	0.02798	0.20992	0.16206	0.18098	0.25368	0.13948	0.062226	0.25738	0.19693	0.22841	0.13668	0.19558	0.071991	-2.4333	-2.9271	-3.15	-2.9188	-3.0708	-3.0812	-2.9479	-3.1042	-2.9979	-3.0187	-3.1708	-2.8542	-3.0646	-3.0062	-2.7708	-3.1604	58.957	53.541	105.400	97.581	244.908	23.468	248.094	17.760	292.340	252.587	234.574	-14.181	186.405	92.037	50.297	243.672	0.00044054	0.00038384	0.00012591	376.64	2.6531e-06	3.3214e-06	530.38	112.37	3.9494e-06	4.216e-06	201.75	76.204	37.572	15.834	4.1113e-06	38.813	0.00059028	0.00063251	0.00017563	371.71	6.5612e-06	6.8331e-06	522.62	111.63	6.7764e-06	7.0143e-06	201.18	76.014	37.81	15.984	6.5106e-06	38.99	331.571	86.313	91.290	-15.621	127.559	102.731	-15.534	-9.869	172.433	145.844	-10.660	-4.924	-4.547	0.821	81.153	-0.765	-8191	255	
792.542	1	1	0	0	0.21202	0.28318	0.11569	0.13221	0.096114	0.13302	0.045771	0.1324	0.16142	0.061279	0.060155	0.19229	0.14871	0.16483	0.38535	0.24286	-2.4521	-2.7208	-3.0167	-2.8812	-3.0354	-2.975	-2.8667	-3.1521	-2.9437	-2.9813	-3.0583	-3.0062	-3.0375	-2.9667	-2.7188	-2.9313	303.211	101.332	259.796	6.074	202.630	203.333	310.036	92.754	242.815	282.659	235.439	213.076	291.329	322.915	99.544	-0.148	0.0005016	0.00045948	0.00014198	373.48	4.0905e-06	3.8205e-06	529.09	111.45	6.2869e-06	3.2843e-06	201.64	76.259	37.339	15.749	3.0144e-06	38.605	0.00057361	0.00060354	0.00016328	369.52	6.2446e-06	6.6029e-06	521.25	111.21	6.3562e-06	6.7772e-06	201.18	75.92	37.722	15.973	6.7019e-06	38.759	321.295	54.848	55.838	-15.613	134.588	94.577	-15.569	-9.284	102.392	114.222	-11.094	-5.101	-4.409	0.975	197.855	-0.438	-8191	255	
792.638	1	1	0	0	0.10681	0.14678	0.22797	0.34818	0.11403	0.35249	0.078874	0.096734	0.012123	0.14238	0.29098	0.23495	0.2381	0.20276	0.13719	0.032146	-2.55	-2.8542	-3.125	-2.8646	-2.9979	-3.0729	-2.8271	-2.9646	-2.8688	-2.9667	-3.1646	-2.8479	-2.9062	-3.1	-2.7083	-3.2479	207.020	147.332	-15.662	-2.820	-3.146	285.719	87.939	109.379	8.109	322.474	276.190	223.676	265.641	257.311	191.571	-17.376	0.00048935	0.00025967	0.00013262	369.82	6.2129e-06	5.2247e-06	521.68	110.98	4.8999e-06	3.2701e-06	200.75	75.353	37.206	15.703	7.5351e-07	38.185	0.00057855	0.00061223	0.00016459	366.92	6.2976e-06	6.53e-06	514.61	110.42	6.3761e-06	6.9372e-06	199.06	75.105	37.535	15.806	6.6836e-06	38.148	-15.120	84.143	73.595	-15.455	126.915	189.129	-15.842	-9.819	223.750	174.063	-10.538	-5.183	-4.437	0.840	136.765	-0.775	-8191	255	
792.734	1	1	0	0	0.21951	0.077236	0.10886	0.17076	0.29759	0.14421	0.06418	0.019214	0.0052643	0.045251	0.0765	0.2467	0.052212	0.080029	0.17777	0.14995	-2.4958	-2.8042	-2.8708	-3.0917	-2.7729	-3.1917	-2.9833	-3.0646	-2.9437	-2.8583	-3.2354	-2.8708	-2.9938	-3.1312	-2.8667	-3.2229	114.375	274.696	-7.015	-2.142	165.586	91.855	94.909	63.786	1.412	-26.215	218.635	213.499	141.921	21.404	25.075	-6.066	0.00054121	0.00038126	9.4721e-05	371.34	2.0101e-06	3.0359e-06	520.86	110.55	7.9797e-06	3.5893e-06	200.28	75.152	37.15	15.607	5.7489e-06	38.234	0.00056907	0.00061581	0.00016549	367.83	6.3291e-06	6.6224e-06	513.81	110.08	6.2748e-06	6.7993e-06	198.51	74.681	37.505	15.772	6.6178e-06	38.061	-23.387	42.660	23.154	-15.441	76.006	182.414	-15.620	-9.395	136.809	133.970	-10.620	-4.902	-4.400	1.055	196.245	-0.492	-8191	255	
792.830	1	1	0	0	0.12248	0.20948	0.20975	0.18631	0.076737	0.26327	0.072848	0.21237	0.24719	0.14733	0.31257	0.18408	0.15209	0.024575	0.11281	0.26939	-2.6417	-2.8708	-3.0167	-2.9146	-2.8375	-3.2021	-2.9	-2.9104	-2.9938	-2.9062	-3.0687	-2.8542	-2.7417	-3.0312	-2.8167	-3.1125	14.013	185.650	-19.571	30.411	57.195	195.349	127.199	312.361	105.438	87.143	244.872	70.663	205.097	106.938	127.274	60.902	0.00047109	0.0002712	0.00011082	375.45	2.4685e-06	4.0621e-06	526.82	111.35	5.8438e-06	4.0078e-06	201.27	75.222	36.915	15.512	5.5761e-06	37.926	0.00057259	0.00062453	0.00016789	368.91	6.4825e-06	6.5461e-06	517.07	110.92	6.5235e-06	6.8954e-06	199.77	75.063	37.474	15.734	6.7372e-06	37.97	-23.652	-10.588	85.796	-15.675	107.425	95.440	-15.520	-9.512	154.824	110.282	-10.655	-5.167	-4.757	0.829	166.182	-0.678	-8191	255	
792.927	1	1	0	0	0.03432	0.22895	0.10893	0.14949	0.079957	0.040864	0.033811	0.19707	0.22442	0.13766	0.41064	0.13386	0.20995	0.083473	0.13336	0.077093	-2.7146	-2.625	-2.7979	-3.0187	-2.6063	-3.1104	-2.8542	-2.7958	-3.2396	-2.8083	-2.9021	-2.9854	-2.8063	-2.9125	-2.9229	-2.9292	167.447	183.213	279.050	274.557	273.380	220.403	170.829	284.575	80.492	279.876	271.299	255.647	-19.838	306.203	44.226	299.445	0.00043379	0.00047099	3.5978e-05	373.27	7.3162e-06	4.7819e-06	526.7	111.58	2.9637e-06	2.4616e-06	200.57	76.143	37.578	15.698	4.1486e-06	38.182	0.00058099	0.00064013	0.00017394	370.33	6.6768e-06	6.901e-06	518.39	111.04	6.4006e-06	6.8776e-06	199.7	75.46	37.729	15.791	6.547e-06	38.276	323.512	46.591	73.917	-15.182	121.779	117.208	-15.415	-9.988	142.461	57.646	-10.683	-5.254	-4.722	1.285	85.006	-0.792	-8191	255	
793.023	1	1	0	0	0.29055	0.15277	0.14125	0.078564	0.16555	0.36086	0.23333	0.097474	0.14568	0.25075	0.1682	0.16487	0.22527	0.12579	0.098394	0.12641	-2.6417	-2.6104	-3.0833	-3.0021	-2.8479	-3.2375	-2.9729	-2.7729	-3.0146	-2.825	-2.9146	-2.9083	-2.8542	-3.0917	-3.0812	-3.1042	243.443	130.242	267.146	197.099	104.938	181.138	125.305	13.347	189.202	310.239	242.922	167.459	231.640	308.097	121.368	193.814	0.00050741	0.00036391	0.00011022	374.44	3.2817e-06	1.8923e-06	527.64	111.16	6.064e-06	3.0904e-06	204.47	75.669	37.735	15.756	1.6428e-06	38.389	0.00055644	0.00062076	0.00017129	369.57	6.7351e-06	6.8006e-06	519.01	110.73	6.428e-06	6.8671e-06	201.43	75.63	37.76	15.835	6.6394e-06	38.392	328.814	66.410	55.270	-15.483	109.015	145.544	-15.995	-9.640	107.484	130.145	-10.739	-5.120	-4.539	0.756	278.599	-0.421	-8191	255	
793.143	1	1	0	0	0.072629	0.19697	0.077387	0.37534	0.13432	0.049092	0.2264	0.020343	0.1409	0.024591	0.078742	0.12128	0.21934	0.11021	0.21222	0.22911	-2.6167	-2.725	-2.9458	-2.825	-2.8812	-3.1396	-2.9042	-2.7542	-2.9771	-2.8	-2.9313	-2.9375	-2.8063	-2.9313	-2.9479	-2.9208	162.220	168.583	103.061	272.199	163.110	38.980	279.471	241.698	254.272	317.994	247.231	40.181	225.820	96.984	53.224	286.248	0.0004851	0.00034645	4.7441e-05	375.15	4.1722e-06	5.0938e-06	532.63	111.98	5.8942e-07	3.2613e-06	202.92	76.315	37.277	15.836	3.4841e-06	38.423	0.00057151	0.00063902	0.00017461	370.96	6.7457e-06	6.9573e-06	522.56	111.43	6.6208e-06	7.0084e-06	201.54	76.066	37.735	15.935	6.8145e-06	38.604	331.937	59.456	65.005	-15.658	145.150	106.713	-15.878	-9.386	151.728	64.489	-10.875	-5.584	-4.285	0.711	114.186	-0.514	-8191	255	
793.239	1	1	0	0	0.11593	0.24783	0.086281	0.11801	0.2291	0.25814	0.11937	0.12376	0.027001	0.071777	0.15226	0.049213	0.072248	0.20597	0.28066	0.34656	-2.6521	-2.6542	-2.8063	-3.0979	-2.8854	-3.1833	-2.9625	-2.8438	-3.1667	-2.9875	-2.8896	-3.25	-2.9125	-3.1625	-3.0167	-2.9375	265.969	167.314	7.821	187.414	182.841	-19.146	100.221	271.670	176.111	186.986	321.001	35.450	142.676	284.583	106.540	217.429	0.00049478	0.0003676	8.127e-05	375.38	3.3673e-06	2.3505e-06	529.57	111.69	5.9353e-06	3.3436e-06	202.49	75.956	37.556	15.622	5.2478e-06	38.106	0.00057742	0.00063858	0.00017739	371.31	6.8827e-06	7.0138e-06	521.25	111.55	6.7487e-06	6.931e-06	201.48	75.693	37.755	15.856	6.7576e-06	38.318	328.371	90.550	49.396	-15.133	145.322	130.705	-15.492	-9.694	156.687	155.214	-10.609	-5.055	-4.161	1.516	104.934	-0.281	-8191	255	
793.311	1	1	0	0	0.35163	0.1005	0.037205	0.083662	0.12259	0.17458	0.20699	0.11422	0.1874	0.06327	0.13806	0.27064	0.086921	0.28663	0.27708	0.033006	-2.7708	-2.8563	-2.7833	-3.2333	-3.0542	-2.9896	-3.0854	-2.7146	-3.1312	-2.9875	-2.9458	-3.0104	-2.5938	-3.1083	-3.0771	-2.9938	141.354	250.602	264.908	60.415	33.788	299.304	114.186	210.034	34.339	122.115	175.273	112.506	38.970	255.895	22.401	-1.085	0.00045044	0.00043318	0.00015847	371.42	3.2689e-06	3.2138e-06	520.72	111.1	7.5151e-07	3.1405e-06	200.14	75.059	37.034	15.542	3.7564e-06	37.618	0.00058155	0.00060625	0.00017484	366.96	6.3977e-06	6.9112e-06	513.84	110.22	6.5423e-06	6.8797e-06	199.01	74.878	37.444	15.686	6.6916e-06	37.811	-23.991	106.685	78.288	-15.694	172.808	116.633	-15.672	-9.679	188.360	91.980	-10.810	-5.319	-4.212	0.754	80.012	-0.786	-8191	255	
793.432	1	1	0	0	0.16736	0.11311	0.021696	0.015863	0.17069	0.22782	0.22149	0.33559	0.21523	0.22519	0.24071	0.1106	0.04846	0.2364	0.11765	0.07739	-2.5521	-2.9104	-2.975	-3.1604	-2.8479	-2.9604	-3.2229	-2.8271	-3.1896	-3.0542	-2.9792	-3.2938	-2.8937	-2.9167	-3.0229	-2.8937	106.462	295.049	6.124	236.660	145.409	22.466	203.328	113.372	6.977	116.351	-15.921	90.513	296.333	289.172	86.815	102.100	0.00042913	0.00050043	0.00014981	374.02	5.582e-06	2.6985e-06	522.92	111.63	7.0199e-06	2.7809e-06	201.12	75.065	37.46	15.473	1.3067e-06	37.403	0.00058955	0.00064467	0.0001815	368.83	6.8101e-06	7.2081e-06	515.75	110.91	6.7634e-06	7.0376e-06	199.71	75.016	37.75	15.671	7.0402e-06	37.76	-26.685	42.264	104.970	-15.557	90.181	49.434	-15.845	-9.769	157.817	118.514	-10.725	-5.322	-4.688	1.014	260.429	-0.586	-8191	255	
793.528	1	1	0	0	0.13601	0.25071	0.13353	0.071762	0.21116	0.22905	0.13265	0.31739	0.037691	0.062457	0.31272	0.16642	0.087284	0.15472	0.089552	0.040126	-2.4646	-2.9688	-2.8458	-3.1229	-2.7229	-2.9	-3.175	-2.8083	-2.9229	-2.9833	-2.8646	-2.9792	-2.8688	-2.8875	-3.0646	-2.9667	82.274	152.811	299.592	282.773	208.566	-21.739	10.049	-18.678	150.223	295.334	254.570	181.710	280.032	40.608	284.679	104.756	0.00035899	0.00037652	0.00010101	374.29	3.2292e-06	3.8834e-06	526.67	111.62	4.8113e-06	3.5791e-06	200.7	75.547	37.626	15.544	4.5131e-06	37.846	0.00059994	0.00064259	0.00018566	370.47	6.6878e-06	7.2878e-06	519.04	111.3	6.7472e-06	7.0867e-06	199.6	75.333	37.776	15.703	6.8598e-06	37.926	-19.728	106.180	66.285	-15.720	92.413	143.064	-15.616	-9.590	68.468	84.249	-10.591	-5.098	-4.532	1.012	118.739	-0.412	-8191	255	
793.624	1	1	0	0	0.10059	0.11577	0.29073	0.13179	0.20654	0.13404	0.131	0.15468	0.14717	0.23065	0.20345	0.19535	0.020714	0.11992	0.12131	0.17416	-2.4188	-2.8979	-2.65	-3.0104	-2.9229	-2.8729	-3.1479	-2.7938	-3.0958	-3.0042	-2.8729	-2.9562	-2.8229	-2.9688	-3.0875	-2.8021	167.119	281.436	3.723	-26.910	198.158	325.941	183.919	26.542	256.117	24.133	329.836	3.583	-21.858	261.039	157.827	237.438	0.00047359	0.00021026	3.9623e-05	373.38	6.0206e-06	9.976e-07	529.63	111.65	4.0662e-06	5.0923e-06	202.12	76.764	37.541	15.585	4.9061e-06	37.933	0.0005987	0.00063464	0.00018689	370.45	6.8781e-06	7.1957e-06	521.79	111.47	6.8182e-06	7.2114e-06	201.82	76.146	37.953	15.728	6.7864e-06	38.105	-22.221	60.411	69.641	-16.058	109.537	263.045	-15.592	-9.498	178.416	139.223	-10.399	-5.164	-4.862	1.034	156.382	-0.702	-8191	255	
793.743	1	1	0	0	0.1028	0.11584	0.1992	0.065326	0.15301	0.11477	0.14017	0.16726	0.11274	0.24547	0.12437	0.29432	0.37509	0.037492	0.2447	0.16534	-2.4896	-2.9375	-2.8708	-3.0354	-2.9708	-2.8521	-3.1458	-2.8125	-2.8917	-3.05	-2.7938	-3.0125	-2.9875	-2.9021	-3.0917	-2.725	313.651	34.176	155.764	169.294	6.608	116.560	3.113	257.307	6.928	90.290	149.582	244.836	-25.856	64.594	203.293	324.374	0.00053507	0.00024067	0.00014935	374.95	3.9404e-06	2.5784e-06	530.55	112.32	7.4768e-06	4.2061e-06	202.51	76.928	37.618	15.709	9.1035e-07	38.281	0.00061669	0.00063738	0.00017991	371.48	6.6546e-06	7.4043e-06	522.81	111.76	6.8817e-06	7.1534e-06	202.18	76.505	38.153	15.813	6.9529e-06	38.309	-20.136	92.909	51.448	-15.678	160.071	113.423	-15.557	-9.446	179.949	98.469	-10.663	-5.397	-4.814	0.983	26.602	-0.292	-8191	255	
793.839	1	1	0	0	0.1345	0.25472	0.083847	0.10849	0.18779	0.22769	0.13757	0.12234	0.086363	0.1738	0.18208	0.17261	0.20356	0.078762	0.049883	0.27666	-2.4562	-2.9333	-2.8417	-2.9125	-2.9083	-2.8021	-3.2021	-2.7729	-2.8458	-2.9646	-2.95	-2.9125	-2.8708	-2.7917	-2.9417	-2.8708	284.546	11.252	44.681	300.811	21.647	159.848	84.400	200.763	92.755	103.997	205.591	209.051	191.452	191.432	58.534	127.234	0.00038699	0.00037077	1.501e-05	379.21	3.5307e-06	3.6255e-06	534.1	113.05	8.1904e-06	2.5206e-06	205.04	76.82	37.469	15.745	4.4769e-06	38.185	0.00062853	0.00064608	0.00018663	373.07	6.8452e-06	7.3783e-06	525.58	112.23	6.9207e-06	7.0738e-06	203.17	76.628	37.964	15.844	6.8936e-06	38.437	328.931	94.926	-25.241	-15.353	115.434	112.015	-15.405	-9.724	123.402	161.508	-10.379	-5.366	-4.633	1.382	95.280	-0.691	-8191	255	
793.935	1	1	0	0	0.3131	0.037297	0.27751	0.2506	0.22958	0.066345	0.23514	0.19589	0.18966	0.084881	0.17709	0.1408	0.14177	0.15866	0.33474	0.1935	-2.2375	-3.0521	-2.7812	-2.9354	-3.0375	-2.8083	-3.0646	-2.9521	-2.7146	-3.1833	-2.9646	-3.0729	-3.225	-2.6896	-2.8479	-2.9708	314.460	-22.216	109.903	256.565	60.968	275.363	263.682	45.117	296.789	-16.761	-1.861	-24.505	35.739	60.852	133.883	285.087	0.00052148	0.00044145	4.1701e-05	373.92	2.6877e-06	4.5861e-06	527.97	111.9	3.3908e-06	1.4765e-06	200.92	75.251	37.09	15.636	1.7944e-06	38.323	0.00060849	0.00063561	0.00018078	369.94	6.6042e-06	7.1605e-06	519.49	111.14	6.8906e-06	6.7833e-06	200.09	75.339	37.524	15.789	6.441e-06	38.161	-20.069	63.467	79.094	-15.851	87.937	125.916	-15.552	-9.234	248.502	183.804	-10.746	-5.181	-4.370	1.416	40.689	-0.662	-8191	255	
794.031	1	1	0	0	0.12639	0.26164	0.088306	0.11015	0.17373	0.12936	0.29753	0.11389	0.24695	0.39951	0.16035	0.15282	0.23824	0.15508	0.11752	0.1137	-2.3792	-3.0354	-2.9375	-2.8917	-3.1437	-2.7687	-3.1521	-3.1021	-2.8646	-3.1458	-2.8521	-2.8271	-2.9958	-2.8208	-3.0542	-2.9229	11.240	211.364	176.384	10.606	320.615	158.649	322.004	6.307	-1.373	82.802	32.232	299.558	286.415	249.040	254.051	250.382	0.00045803	0.00050342	8.1833e-05	371.36	1.1186e-06	9.1295e-07	524.31	110.99	5.2741e-06	4.2029e-06	200.46	75.629	37.237	15.632	3.5613e-06	37.911	0.00059433	0.00061628	0.00017014	366.81	6.5531e-06	7.0367e-06	515	110.48	6.7951e-06	6.7326e-06	199.24	75.021	37.404	15.758	6.5586e-06	37.929	327.956	64.010	25.520	-15.740	35.812	92.857	-15.739	-9.757	139.660	119.314	-10.773	-5.365	-4.320	1.202	154.568	-0.900	-8191	255	
794.128	1	1	0	0	0.11021	0.026335	0.081883	0.26548	0.25838	0.15669	0.049577	0.20314	0.078669	0.12676	0.0051245	0.099136	0.14359	0.047035	0.098234	0.18259	-2.1646	-3.0354	-2.9458	-2.9458	-3.1875	-2.8438	-3.0021	-3.0125	-2.8688	-3.0187	-2.975	-2.9667	-3.1479	-2.9	-2.7625	-3.0854	193.087	140.948	106.417	9.588	17.639	186.281	174.593	246.046	16.488	169.907	-7.289	92.225	143.404	279.921	-7.528	254.674	0.00057496	0.00025048	4.9423e-05	373.04	4.5735e-06	3.5854e-06	523.03	111.58	7.4723e-06	2.8828e-06	201.89	75.219	37.483	15.582	3.1695e-06	37.735	0.00059116	0.00062431	0.00016922	367.24	6.5701e-06	7.0113e-06	515.13	110.67	6.6566e-06	6.9267e-06	200.1	75.348	37.703	15.705	6.9828e-06	37.977	331.500	-21.487	96.212	-15.534	108.148	94.222	-16.074	-9.523	120.911	111.546	-10.615	-5.218	-4.163	1.034	151.892	-0.840	-8191	255	
794.224	1	1	0	0	0.0823	0.15742	0.08589	0.25912	0.44391	0.4213	0.23296	0.042764	0.09855	0.10237	0.14592	0.23353	0.14924	0.081408	0.20724	0.12678	-2.1312	-3.0667	-2.9938	-2.8458	-3.0083	-2.9062	-2.8521	-3.0771	-2.8187	-3.0792	-3.1063	-2.95	-3.0875	-2.8146	-2.9521	-3.0583	141.494	89.499	-0.043	1.134	281.641	-7.889	40.877	44.707	178.177	229.564	308.707	0.134	93.517	328.261	55.565	179.331	0.00046047	0.00012363	7.828e-05	371.88	5.7105e-06	4.2854e-06	525	110.87	6.1385e-06	2.4022e-06	201.02	75.328	37.421	15.631	5.4388e-06	38.228	0.00059761	0.00062312	0.00017023	368.29	6.6869e-06	6.8491e-06	516.18	110.63	6.7715e-06	6.8886e-06	199.88	75.089	37.649	15.761	6.9925e-06	38.174	-21.398	153.051	75.817	-15.691	92.244	98.505	-15.639	-9.772	143.601	127.428	-10.582	-5.207	-4.303	0.754	51.314	-0.646	-8191	255	
794.320	1	1	0	0	0.27652	0.17393	0.53913	0.13775	0.063088	0.16369	0.032692	0.19236	0.085423	0.22875	0.018142	0.086025	0.10076	0.12105	0.24468	0.23496	-2.3646	-3.0146	-2.95	-2.8625	-3.0292	-2.8792	-2.9771	-3.0583	-2.7479	-2.8063	-2.9292	-2.8542	-2.9562	-2.9104	-3.0125	-3.0271	298.356	-23.855	328.495	313.250	228.789	51.056	-10.281	155.140	60.490	148.089	-16.225	228.287	281.411	173.589	-10.962	13.393	0.00054905	0.00022134	3.7886e-05	373.97	4.5997e-06	2.9071e-06	527.58	112.15	5.0559e-06	1.8581e-06	202.47	75.982	37.292	15.665	5.1486e-06	38.11	0.00060442	0.00063672	0.00018088	369.71	6.7149e-06	6.944e-06	519.46	111.31	6.6849e-06	7.0462e-06	201	75.686	37.622	15.81	6.9899e-06	38.309	-19.266	-24.464	317.919	-15.684	107.848	63.384	-15.834	-10.068	98.154	70.124	-10.634	-5.173	-4.306	1.018	69.182	-0.497	-8191	255	
#DATA ENDS
