BOXY.EXE: ISS Imagent and Oximeter Data Acquisition Program Version 0.80
Ascii Record File

#ACQ INFORMATION
2  Detector Channels 
16  External MUX Channels 
1  Auxiliary Channels 
5000  Waveform (CCF) Frequency (Hz)
1  Waveforms Skipped 
30  Waveforms Averaged 
1  Cycles Averaged 
16  Acquisitions per Waveform 
10.0806  Updata Rate (Hz) 

#FILE INFORMATION
TRUE -- External MUX Channel results are PARSED.
FALSE -- AC DC and Phase are NOT grouped.
TRUE -- Companion Program Settings File CREATED.
FALSE -- AC data not excluded
FALSE -- DC data not excluded
FALSE -- Phase data not excluded
FALSE -- Auxillary Chn. data not excluded
Tab delimiters

#CALIBRATION STATE
TRUE -- Waveform Calibration Values APPLIED.


#AUX CALIBRATION VALUES
Val Type	aux-1	

Term	1.0000e+00	
Factor	0.0000e+00	


#WF CALIBRATION VALUES
A = Detector Channel
Val Type	A-AC1	A-AC2	A-AC3	A-AC4	A-AC5	A-AC6	A-AC7	A-AC8	A-AC9	A-AC10	A-AC11	A-AC12	A-AC13	A-AC14	A-AC15	A-AC16	A-DC1	A-DC2	A-DC3	A-DC4	A-DC5	A-DC6	A-DC7	A-DC8	A-DC9	A-DC10	A-DC11	A-DC12	A-DC13	A-DC14	A-DC15	A-DC16	A-Ph1	A-Ph2	A-Ph3	A-Ph4	A-Ph5	A-Ph6	A-Ph7	A-Ph8	A-Ph9	A-Ph10	A-Ph11	A-Ph12	A-Ph13	A-Ph14	A-Ph15	A-Ph16	

Term	0.00000e+00	0.00000e+00	0.00000e+00	0.00000e+00	0.00000e+00	0.00000e+00	0.00000e+00	0.00000e+00	0.00000e+00	0.00000e+00	0.00000e+00	0.00000e+00	0.00000e+00	0.00000e+00	0.00000e+00	0.00000e+00	0.00000e+00	0.00000e+00	0.00000e+00	0.00000e+00	0.00000e+00	0.00000e+00	0.00000e+00	0.00000e+00	0.00000e+00	0.00000e+00	0.00000e+00	0.00000e+00	0.00000e+00	0.00000e+00	0.00000e+00	0.00000e+00	0.00000e+00	0.00000e+00	0.00000e+00	0.00000e+00	0.00000e+00	0.00000e+00	0.00000e+00	0.00000e+00	0.00000e+00	0.00000e+00	0.00000e+00	0.00000e+00	0.00000e+00	0.00000e+00	0.00000e+00	0.00000e+00	
Factor	1.00000e+00	1.00000e+00	1.00000e+00	1.00000e+00	1.00000e+00	1.00000e+00	1.00000e+00	1.00000e+00	1.00000e+00	1.00000e+00	1.00000e+00	1.00000e+00	1.00000e+00	1.00000e+00	1.00000e+00	1.00000e+00	1.00000e+00	1.00000e+00	1.00000e+00	1.00000e+00	1.00000e+00	1.00000e+00	1.00000e+00	1.00000e+00	1.00000e+00	1.00000e+00	1.00000e+00	1.00000e+00	1.00000e+00	1.00000e+00	1.00000e+00	1.00000e+00	X	X	X	X	X	X	X	X	X	X	X	X	X	X	X	X	

B = Detector Channel
Val Type	B-AC1	B-AC2	B-AC3	B-AC4	B-AC5	B-AC6	B-AC7	B-AC8	B-AC9	B-AC10	B-AC11	B-AC12	B-AC13	B-AC14	B-AC15	B-AC16	B-DC1	B-DC2	B-DC3	B-DC4	B-DC5	B-DC6	B-DC7	B-DC8	B-DC9	B-DC10	B-DC11	B-DC12	B-DC13	B-DC14	B-DC15	B-DC16	B-Ph1	B-Ph2	B-Ph3	B-Ph4	B-Ph5	B-Ph6	B-Ph7	B-Ph8	B-Ph9	B-Ph10	B-Ph11	B-Ph12	B-Ph13	B-Ph14	B-Ph15	B-Ph16	

Term	0.00000e+00	0.00000e+00	0.00000e+00	0.00000e+00	0.00000e+00	0.00000e+00	0.00000e+00	0.00000e+00	0.00000e+00	0.00000e+00	0.00000e+00	0.00000e+00	0.00000e+00	0.00000e+00	0.00000e+00	0.00000e+00	0.00000e+00	0.00000e+00	0.00000e+00	0.00000e+00	0.00000e+00	0.00000e+00	0.00000e+00	0.00000e+00	0.00000e+00	0.00000e+00	0.00000e+00	0.00000e+00	0.00000e+00	0.00000e+00	0.00000e+00	0.00000e+00	-6.39374e+00	-1.30076e+02	-1.26601e+02	-1.84394e+02	-6.08140e+01	-7.06777e+01	-1.57167e+02	-1.62015e+02	-3.31567e+01	-6.16301e+01	-1.77855e+02	-1.71352e+02	-1.80192e+02	-1.76785e+02	-5.94064e+01	-1.49703e+02	
Factor	3.40232e-05	2.11048e-04	5.73687e-05	1.81022e-01	2.72477e-06	1.95530e-06	1.79154e-01	5.79627e-02	2.25856e-06	1.85658e-06	1.08032e+00	3.06876e-02	3.08175e-02	1.00977e-02	2.67119e-06	1.45155e-02	6.65788e-06	7.85998e-06	2.20830e-06	8.86745e-02	8.43392e-08	8.72387e-08	8.25446e-02	2.84046e-02	8.40714e-08	8.72613e-08	4.76702e-01	1.46536e-02	1.52110e-02	4.99653e-03	8.52396e-08	6.96091e-03	X	X	X	X	X	X	X	X	X	X	X	X	X	X	X	X	



#DISTANCE SETTINGS
A = Detector Channel
A-1	A-2	A-3	A-4	A-5	A-6	A-7	A-8	A-9	A-10	A-11	A-12	A-13	A-14	A-15	A-16	

2.5000e+00	3.0000e+00	2.5000e+00	3.0000e+00	2.0000e+00	3.0000e+00	1.5000e+00	3.0000e+00	3.0000e+00	3.0000e+00	3.0000e+00	3.0000e+00	3.0000e+00	3.0000e+00	1.5000e+00	3.0000e+00	

B = Detector Channel
B-1	B-2	B-3	B-4	B-5	B-6	B-7	B-8	B-9	B-10	B-11	B-12	B-13	B-14	B-15	B-16	

1.0000e+01	1.0000e+01	1.0000e+01	1.4400e+00	1.0000e+01	1.0000e+01	1.5100e+00	1.9400e+00	1.0000e+01	1.0000e+01	1.9900e+00	2.4900e+00	2.4100e+00	2.9000e+00	1.0000e+01	2.9800e+00	




#DATA BEGINS
time	group	step	mark	flag	A-AC1	A-AC2	A-AC3	A-AC4	A-AC5	A-AC6	A-AC7	A-AC8	A-AC9	A-AC10	A-AC11	A-AC12	A-AC13	A-AC14	A-AC15	A-AC16	A-DC1	A-DC2	A-DC3	A-DC4	A-DC5	A-DC6	A-DC7	A-DC8	A-DC9	A-DC10	A-DC11	A-DC12	A-DC13	A-DC14	A-DC15	A-DC16	A-Ph1	A-Ph2	A-Ph3	A-Ph4	A-Ph5	A-Ph6	A-Ph7	A-Ph8	A-Ph9	A-Ph10	A-Ph11	A-Ph12	A-Ph13	A-Ph14	A-Ph15	A-Ph16	B-AC1	B-AC2	B-AC3	B-AC4	B-AC5	B-AC6	B-AC7	B-AC8	B-AC9	B-AC10	B-AC11	B-AC12	B-AC13	B-AC14	B-AC15	B-AC16	B-DC1	B-DC2	B-DC3	B-DC4	B-DC5	B-DC6	B-DC7	B-DC8	B-DC9	B-DC10	B-DC11	B-DC12	B-DC13	B-DC14	B-DC15	B-DC16	B-Ph1	B-Ph2	B-Ph3	B-Ph4	B-Ph5	B-Ph6	B-Ph7	B-Ph8	B-Ph9	B-Ph10	B-Ph11	B-Ph12	B-Ph13	B-Ph14	B-Ph15	B-Ph16	aux-1	digaux	

16866.824	1	1	0	256	0.1853	0.044658	0.11207	0.16486	0.20142	0.24557	0.29087	0.096629	0.049987	0.054216	0.15361	0.22204	0.11049	0.090094	0.061032	0.12239	-2.1854	-2.3167	-2.65	-2.525	-2.7521	-2.7708	-2.6771	-2.5479	-2.7104	-2.3104	-2.5167	-2.7042	-2.5417	-2.7854	-2.5896	-2.4396	306.737	206.048	51.197	242.331	174.777	180.202	264.522	250.355	-12.943	240.632	251.627	75.160	-8.285	166.216	5.394	222.605	0.00034063	0.00037614	0.00011235	1300.1	4.6772e-06	3.4602e-06	1302.7	351.89	3.69e-06	4.5091e-06	401.64	134.2	116.3	40.16	5.9305e-06	50.267	0.00034744	0.0003376	9.452e-05	1315.8	3.8121e-06	3.6308e-06	1315.6	357.44	3.7324e-06	3.7528e-06	400.72	137.09	118.22	41.215	3.9647e-06	51.566	269.397	40.455	44.163	-32.225	134.872	96.197	-32.145	-27.076	138.596	98.023	-28.123	-23.445	-22.354	-18.050	94.038	-18.881	-8191	255	
16866.922	1	1	0	0	0.231	0.26953	0.051019	0.16932	0.072558	0.12207	0.18279	0.16482	0.1357	0.18217	0.20968	0.21094	0.1562	0.18087	0.24111	0.16782	-2.3104	-2.3729	-2.5792	-2.7479	-2.4292	-2.8104	-2.7062	-2.5604	-2.6625	-2.2938	-2.4333	-2.8042	-2.4208	-2.6167	-2.6	-2.5667	303.221	262.546	22.604	236.676	304.781	25.547	264.774	235.159	284.754	34.766	124.075	218.529	-38.613	300.840	-44.394	136.799	0.00030048	0.0002448	0.00014018	1301.1	5.2846e-06	4.5027e-06	1299	350.53	2.9654e-06	4.8216e-06	405.06	133.8	115.67	40.042	5.8964e-06	50.255	0.00035905	0.00035756	9.9198e-05	1315.9	3.8583e-06	3.8051e-06	1312.3	356.46	3.706e-06	3.8326e-06	399.62	136.71	117.92	41.164	3.766e-06	51.499	271.197	54.388	26.803	-32.152	126.452	101.743	-32.069	-27.226	200.472	63.656	-27.900	-23.283	-22.545	-18.135	131.905	-18.805	-8191	255	
16867.018	1	1	0	0	0.13972	0.029347	0.046001	0.24294	0.23387	0.19674	0.23866	0.31988	0.14588	0.047527	0.12876	0.14954	0.085166	0.15842	0.2133	0.17351	-2.2771	-2.5062	-2.5958	-2.8604	-2.4521	-2.6292	-2.7062	-2.3708	-2.7333	-2.4792	-2.5708	-2.7438	-2.4625	-2.6083	-2.6375	-2.4042	105.106	184.451	110.432	269.951	128.099	276.048	173.609	227.382	12.001	154.018	26.538	-14.067	281.682	251.812	70.324	215.472	0.00029202	0.00029474	0.00017464	1299	2.3035e-06	2.7796e-06	1299.9	351.32	4.6031e-06	2.8178e-06	409.41	133.68	115.11	39.889	7.5536e-06	50.07	0.00035202	0.00033361	9.2859e-05	1315.2	3.5637e-06	3.5895e-06	1313	356.43	3.4597e-06	3.5239e-06	396.88	136.21	117.37	40.909	3.4087e-06	51.234	280.656	22.559	40.140	-32.088	138.148	82.569	-31.816	-27.138	175.006	106.128	-27.535	-23.160	-22.175	-17.920	101.258	-19.100	-8191	255	
16867.113	1	1	0	0	0.16968	0.051624	0.14114	0.37389	0.14613	0.22829	0.28328	0.39	0.20543	0.20125	0.18734	0.12623	0.054835	0.22859	0.034062	0.17952	-2.3583	-2.6417	-2.5563	-2.8208	-2.4938	-2.6312	-2.7667	-2.5667	-2.6063	-2.5125	-2.5833	-2.6688	-2.3104	-2.7042	-2.5354	-2.5583	115.871	-2.439	191.959	-23.164	173.529	120.167	223.867	300.010	150.968	282.235	45.340	300.206	143.826	-21.220	176.543	-22.287	0.00030699	0.0005412	8.1554e-05	1294.6	5.1082e-06	5.2893e-06	1292.6	348.61	2.2615e-06	3.6654e-06	401.86	133.85	114.87	39.928	6.3771e-06	50.14	0.00032049	0.00029755	8.3455e-05	1308.7	3.2903e-06	3.2366e-06	1305.2	354.27	3.2627e-06	3.2852e-06	394.9	136.13	117.19	40.93	3.3684e-06	51.255	266.653	47.872	63.004	-32.022	142.215	103.778	-32.075	-26.928	129.123	106.617	-28.262	-23.179	-22.386	-17.778	112.814	-18.967	-8191	255	
16867.186	1	1	0	0	0.13818	0.059885	0.043926	0.33943	0.14034	0.33864	0.14486	0.081122	0.3315	0.17454	0.33704	0.14353	0.22254	0.10349	0.18075	0.17437	-2.3271	-2.5062	-2.5396	-2.9521	-2.6188	-2.7479	-2.6	-2.5938	-2.725	-2.5833	-2.5292	-2.9188	-2.5292	-2.6354	-2.8292	-2.6229	305.866	-9.602	296.010	-39.876	89.033	188.501	226.754	214.408	38.285	223.053	208.820	244.160	-38.588	248.910	8.421	265.388	0.00029662	0.00050655	0.00012518	1296.9	5.7908e-06	4.6592e-06	1298	351.24	1.6876e-06	4.2239e-06	405.5	134.39	115.28	40.057	5.9853e-06	50.093	0.00032769	0.00030865	8.617e-05	1314.3	3.6102e-06	3.4405e-06	1312.6	356.85	3.582e-06	3.4499e-06	398.27	136.89	117.92	41.13	3.4536e-06	51.434	271.389	56.012	29.942	-31.924	115.109	89.457	-31.969	-27.183	126.229	131.735	-28.332	-23.349	-22.410	-17.995	100.282	-19.069	-8191	255	
16867.305	1	1	0	0	0.23015	0.25425	0.15771	0.11291	0.29987	0.24576	0.031131	0.11633	0.13674	0.13438	0.15923	0.050179	0.13185	0.29576	0.15706	0.15499	-2.2917	-2.5625	-2.5271	-2.9958	-2.4833	-2.5458	-3.0021	-2.4125	-2.6417	-2.7646	-2.325	-2.8271	-2.6479	-2.6604	-2.7354	-2.5125	298.893	275.006	143.651	314.794	156.632	203.945	-7.864	226.302	263.805	272.309	75.068	7.261	197.352	-29.202	259.772	-43.945	0.00029203	0.00052788	9.3319e-05	1302.9	4.3906e-06	3.2294e-06	1307	350.47	2.6591e-06	2.7857e-06	402.53	134.14	115.86	40.008	4.8617e-06	50.152	0.00033871	0.00032413	8.5558e-05	1318.7	3.6118e-06	3.5593e-06	1315.7	356.43	3.5191e-06	3.445e-06	397.28	136.83	117.85	41.021	3.3105e-06	51.39	274.442	55.463	59.427	-32.123	149.845	88.877	-32.147	-26.996	141.193	125.330	-27.143	-23.412	-22.230	-18.096	100.272	-18.887	-8191	255	
16867.400	1	1	0	0	0.21257	0.13018	0.13692	0.24275	0.28673	0.042764	0.18866	0.264	0.17946	0.04808	0.12666	0.21894	0.13539	0.071853	0.1733	0.18368	-2.2479	-2.7792	-2.2979	-2.775	-2.4646	-2.7687	-3.0104	-2.5833	-2.5083	-2.6771	-2.4313	-2.8958	-2.6146	-2.5187	-2.6875	-2.5646	151.333	238.833	285.789	205.222	152.579	-42.161	186.994	258.916	76.237	231.159	278.083	-9.931	248.082	306.633	-26.368	163.704	0.00029615	0.00045128	0.00017103	1299.7	6.0788e-06	3.7276e-06	1300.7	350.84	2.9469e-06	5.2696e-06	402.87	134.34	115.41	40.072	5.7038e-06	50.464	0.0003328	0.00030369	8.2374e-05	1315.3	3.428e-06	3.2546e-06	1312.6	355.78	3.3751e-06	3.2718e-06	395.65	136.9	117.82	41.059	3.3597e-06	51.489	271.538	56.916	58.843	-32.034	114.320	126.840	-31.973	-27.041	136.083	111.732	-27.678	-23.326	-22.348	-17.883	115.117	-18.820	-8191	255	
16867.498	1	1	0	0	0.10834	0.14068	0.093018	0.31053	0.065365	0.21138	0.16564	0.46357	0.016147	0.20678	0.1843	0.15012	0.065814	0.13238	0.14891	0.24531	-2.3063	-2.5938	-2.4583	-2.7771	-2.6125	-2.4771	-2.9375	-2.4583	-2.5729	-2.6188	-2.4875	-2.75	-2.575	-2.3896	-2.9271	-2.5438	-28.441	182.168	296.285	233.085	80.766	56.586	278.187	270.920	-10.326	94.189	26.785	233.413	-29.807	40.547	245.043	183.319	0.00029813	0.00044583	0.000133	1304.1	5.0408e-06	3.6329e-06	1298.7	352.37	3.1585e-06	6.7019e-06	407.11	134.81	116.34	40.542	1.1849e-06	50.677	0.00033805	0.0003113	8.9169e-05	1320	3.7584e-06	3.493e-06	1315.4	357.7	3.8477e-06	3.6204e-06	400.82	137.38	118.69	41.376	3.8194e-06	51.839	272.656	44.652	36.984	-32.038	103.390	94.728	-32.117	-27.219	174.872	113.930	-27.976	-23.458	-22.439	-18.084	184.520	-19.057	-8191	255	
16867.615	1	1	0	0	0.19149	0.12713	0.032805	0.25283	0.30406	0.29964	0.31644	0.14471	0.084875	0.22027	0.27112	0.18987	0.16004	0.17196	0.11999	0.11465	-1.8521	-2.6875	-2.3833	-2.6667	-2.4771	-2.5062	-2.9542	-2.5875	-2.6021	-2.7042	-2.4562	-2.8229	-2.5979	-2.5021	-2.7188	-2.5625	139.706	138.472	150.460	171.660	91.714	305.389	282.673	-6.912	-2.520	162.445	234.805	231.391	100.809	12.580	228.130	252.791	0.00029726	0.00038455	0.00014699	1311.4	1.2039e-06	3.1553e-06	1315.8	353.98	4.1904e-06	2.4848e-06	411.56	135.15	116.93	40.446	3.986e-06	51.062	0.00036944	0.00034019	9.884e-05	1329.9	4.0418e-06	3.6713e-06	1326.8	360.41	3.9291e-06	3.7126e-06	404.7	137.93	119.27	41.561	3.8493e-06	52.057	278.733	68.054	-9.315	-32.049	164.208	65.301	-31.906	-27.030	161.663	97.918	-28.175	-23.419	-22.526	-17.823	151.583	-18.955	-8191	255	
16867.713	1	1	0	0	0.21418	0.2617	0.19851	0.073868	0.18188	0.14811	0.20001	0.34872	0.11741	0.12442	0.34325	0.16056	0.030073	0.068841	0.035401	0.10732	-2.0271	-2.6708	-2.4896	-2.7938	-2.55	-2.5104	-2.9729	-2.6042	-2.4208	-2.7833	-2.4583	-2.7271	-2.725	-2.5083	-2.9	-2.6792	-6.794	241.664	40.774	38.104	77.075	173.366	222.518	260.118	37.532	42.443	248.110	195.217	260.117	261.637	260.203	219.476	0.00026977	0.00061075	0.00013472	1316.5	4.3946e-06	5.5386e-06	1314.7	354.71	6.3928e-07	2.6307e-06	408.2	135.46	116.75	40.705	7.1392e-06	51.113	0.0003617	0.0003395	9.7436e-05	1333	3.8778e-06	3.7547e-06	1329.3	361.03	3.8365e-06	3.7953e-06	406.85	138.39	119.57	41.749	3.9999e-06	52.177	278.037	52.301	52.550	-32.010	122.979	109.768	-31.908	-27.081	119.084	101.324	-27.937	-23.570	-22.359	-18.056	163.236	-19.022	-8191	255	
16867.809	1	1	0	0	0.19815	0.30619	0.49973	0.13097	0.16909	0.28279	0.17723	0.30042	0.12904	0.01486	0.31385	0.11945	0.1211	0.17193	0.33082	0.26186	-2.0354	-2.7313	-2.3208	-2.7083	-2.5438	-2.3646	-2.8896	-2.4521	-2.3063	-2.8646	-2.4625	-2.8021	-2.7229	-2.6292	-2.65	-2.6625	270.058	289.368	201.844	312.686	42.830	170.495	246.313	265.735	191.377	255.250	156.734	87.352	-34.073	226.922	176.817	284.370	0.00032799	0.00063877	0.0001653	1327.8	4.8961e-06	2.0825e-06	1332.8	359.77	5.0924e-06	6.0171e-06	410.67	137.65	119.1	41.347	6.3827e-06	51.729	0.00037043	0.00036501	0.00010439	1345.1	4.088e-06	4.1446e-06	1346.4	365.28	4.0974e-06	4.2247e-06	413.01	140.37	121.51	42.444	4.3845e-06	52.953	276.086	50.012	79.423	-31.947	162.358	73.245	-31.964	-27.173	188.466	120.980	-28.212	-23.395	-22.491	-18.159	121.473	-19.418	-8191	255	
16867.904	1	1	0	0	0.099178	0.017015	0.21955	0.19381	0.19849	0.15647	0.1142	0.16248	0.23675	0.12052	0.30007	0.11169	0.18952	0.17963	0.12813	0.11344	-1.9979	-2.6104	-2.3708	-2.6708	-2.7125	-2.4042	-2.825	-2.5854	-2.4354	-2.8125	-2.5167	-2.6083	-2.7708	-2.5042	-2.5729	-2.5938	207.166	231.052	83.594	264.237	155.313	142.670	307.231	179.448	254.923	133.367	172.924	-13.639	183.759	145.117	301.012	176.310	0.00032139	0.00069391	0.00024509	1355.7	3.6809e-06	3.1348e-06	1354.6	366.54	3.3569e-06	5.8777e-06	420.85	139.21	120.6	41.934	3.5787e-06	52.011	0.0004116	0.00041021	0.00011559	1370.9	4.5664e-06	4.7073e-06	1368.9	372.37	4.6094e-06	4.6152e-06	419.98	142.06	123.22	42.966	4.6489e-06	53.379	273.559	29.898	31.023	-32.015	100.090	71.646	-31.922	-27.293	177.367	116.435	-27.500	-23.559	-22.415	-18.329	107.798	-19.208	-8191	255	
16868.002	1	1	0	0	0.28657	0.16502	0.022642	0.25033	0.19721	0.31923	0.10543	0.043976	0.055048	0.086685	0.16902	0.29502	0.027742	0.18395	0.089241	0.096442	-1.7938	-2.5458	-2.4792	-2.6479	-2.9833	-2.4938	-2.8833	-2.8271	-2.3375	-2.6125	-2.5292	-2.6437	-2.8438	-2.6125	-2.7083	-2.6833	-7.566	25.044	149.780	304.352	89.807	282.477	267.657	194.437	189.237	285.990	166.008	-22.099	259.890	33.143	243.812	259.079	0.00033436	0.00054961	0.00013863	1359.2	4.1952e-06	2.7564e-06	1359.2	366.87	1.6729e-06	3.8659e-06	422.38	140.26	120.2	42.075	4.1353e-06	52.091	0.00044569	0.00042812	0.00012417	1377.5	4.7541e-06	4.7511e-06	1372.5	372.63	4.7199e-06	4.6978e-06	420.87	142.58	123.31	43.1	4.6212e-06	53.462	268.651	24.036	23.693	-31.959	130.561	120.717	-32.004	-27.266	206.907	168.610	-28.123	-23.347	-22.405	-18.425	98.224	-19.219	-8191	255	
16868.098	1	1	0	0	0.16923	0.15522	0.16638	0.092621	0.25562	0.039557	0.26609	0.12048	0.13482	0.11602	0.15383	0.32811	0.18321	0.19206	0.16941	0.027149	-1.8687	-2.6458	-2.3542	-2.5771	-2.8396	-2.6542	-2.8771	-2.8208	-2.5229	-2.7708	-2.4417	-2.5229	-2.8583	-2.5167	-2.6104	-2.8292	142.474	79.011	63.132	-17.434	55.005	-25.899	245.325	-24.909	128.355	156.448	127.492	279.685	163.419	276.484	154.615	264.527	0.00028259	0.00075989	0.00013883	1360.6	7.0091e-06	4.1797e-06	1357.5	366.18	4.1783e-06	5.1875e-06	416.44	138.4	120.33	41.468	5.6182e-06	51.881	0.00044067	0.00042329	0.00011836	1377.9	4.7587e-06	4.7959e-06	1370.6	372.24	4.6421e-06	4.5914e-06	417.37	141.4	122.52	42.661	4.3758e-06	53.145	279.112	26.652	59.683	-32.112	127.533	79.442	-32.024	-27.164	180.027	137.202	-28.459	-23.505	-22.519	-18.091	127.053	-19.092	-8191	255	
16868.219	1	1	0	0	0.19203	0.093404	0.20606	0.30084	0.22214	0.25107	0.22266	0.15898	0.1671	0.21777	0.026423	0.20732	0.212	0.37888	0.16148	0.2056	-2.1271	-2.7375	-2.7083	-2.375	-2.6688	-2.4771	-2.7792	-2.9146	-2.4042	-2.6417	-2.4708	-2.7125	-2.8563	-2.4521	-2.5354	-2.7646	34.781	14.617	14.979	287.726	190.550	312.458	221.312	23.704	157.037	208.836	196.114	252.587	302.963	222.270	277.299	-21.426	0.00030578	0.00034821	0.00010035	1350.5	3.4456e-06	4.8139e-06	1351.7	364.34	2.9587e-06	4.1188e-06	420.4	138.47	119.8	41.464	4.0205e-06	51.778	0.00042007	0.00039832	0.00010711	1369.5	4.483e-06	4.4226e-06	1365.3	370.22	4.4722e-06	4.3611e-06	416.31	141.13	122.21	42.587	4.1886e-06	53.028	272.329	23.611	25.362	-31.924	177.875	86.770	-31.998	-27.192	145.186	127.852	-27.658	-23.556	-22.347	-18.169	131.283	-19.182	-8191	255	
16868.314	1	1	0	0	0.096272	0.10952	0.031571	0.29206	0.13955	0.090382	0.37297	0.26289	0.25529	0.058206	0.35199	0.12624	0.22793	0.18945	0.16681	0.063746	-2.2104	-2.625	-2.5396	-2.5104	-2.8	-2.6292	-2.7417	-2.8917	-2.6271	-2.5042	-2.6437	-2.6458	-2.9333	-2.6562	-2.4917	-3.0125	108.842	-20.262	87.106	263.487	107.991	252.947	296.105	299.201	28.333	114.789	223.207	255.543	206.429	290.177	78.855	-27.809	0.00030053	0.00048075	0.0001949	1349.3	3.8721e-06	4.2938e-06	1347.4	363.66	3.2922e-06	5.342e-06	415.37	137.58	119.03	41.206	4.899e-06	51.653	0.00040817	0.00039329	0.00010553	1366.3	4.3067e-06	4.2454e-06	1361.7	368.95	4.3335e-06	4.016e-06	412	140.5	121.37	42.277	3.9629e-06	52.669	267.610	48.117	34.949	-31.878	142.286	94.685	-32.090	-27.303	143.828	96.237	-28.069	-23.480	-22.398	-18.289	107.231	-19.166	-8191	255	
16868.408	1	1	0	0	0.10771	0.13155	0.33059	0.11866	0.13993	0.183	0.39036	0.22812	0.095312	0.18823	0.1663	0.23677	0.27565	0.054959	0.16136	0.15783	-1.95	-2.7229	-2.6125	-2.7396	-2.7271	-2.6042	-2.7188	-2.6979	-2.5625	-2.5333	-2.6688	-2.3875	-2.5312	-2.6625	-2.4521	-2.8438	17.797	-12.217	285.499	274.658	142.293	213.670	312.311	174.951	123.634	186.331	-9.296	205.571	-35.379	131.235	295.032	242.950	0.00029128	0.00052515	9.6877e-05	1339.5	2.8115e-06	4.4908e-06	1337	359.59	2.9965e-06	5.928e-06	413.9	137.7	118.05	40.903	6.5149e-06	51.229	0.00038449	0.00035015	9.8016e-05	1356.6	4.0456e-06	3.8371e-06	1350.2	365.72	4.0442e-06	3.7588e-06	408.46	139.66	120.53	42.014	3.98e-06	52.332	270.420	47.982	92.248	-31.985	190.256	88.759	-31.909	-27.158	189.579	112.793	-28.240	-23.570	-22.631	-18.127	144.312	-19.109	-8191	255	
16868.506	1	1	0	0	0.17466	0.092967	0.13493	0.23576	0.079278	0.23236	0.12177	0.19945	0.12102	0.1226	0.09879	0.35344	0.21229	0.12532	0.031105	0.050546	-2.2854	-2.6437	-2.7479	-2.7042	-2.6937	-2.5	-2.5604	-2.9104	-2.4792	-2.6521	-2.6813	-2.7458	-2.8542	-2.7729	-2.1979	-2.8896	178.619	-5.837	-36.593	267.272	184.060	30.797	200.430	267.359	299.949	2.450	-17.387	283.306	279.848	285.280	-8.423	52.669	0.00030826	0.00047406	8.7008e-05	1334.3	3.0194e-06	4.8701e-06	1328.5	358.35	5.1402e-06	3.1847e-06	410.62	136.79	116.91	40.832	8.1913e-06	51.085	0.00037111	0.00033981	9.9608e-05	1351.3	3.9509e-06	3.7853e-06	1344.2	364.35	3.8957e-06	3.6064e-06	407.21	139.16	119.87	41.804	3.8395e-06	52.145	279.174	59.882	33.644	-32.116	103.386	95.290	-31.832	-27.174	123.063	97.461	-28.317	-23.464	-22.229	-18.010	106.582	-18.987	-8191	255	
16868.602	1	1	0	0	0.3015	0.084617	0.18895	0.070547	0.10764	0.20231	0.19532	0.12185	0.13303	0.28404	0.031682	0.11293	0.17484	0.044062	0.053903	0.27056	-2.1625	-2.425	-2.8187	-2.8063	-2.5875	-2.6771	-2.6	-2.8979	-2.6562	-2.4771	-2.7896	-2.7125	-2.675	-2.6958	-2.4854	-2.9188	46.392	39.249	-12.934	278.586	302.341	-2.348	251.315	309.090	46.143	76.614	45.696	33.763	-13.445	232.303	34.693	281.886	0.00030046	0.00054339	0.00015725	1327.9	3.3981e-06	2.1703e-06	1329.9	359.22	2.28e-06	3.8702e-06	415.91	136.62	117.74	40.687	3.2508e-06	51.044	0.00035251	0.00032928	9.2914e-05	1344.9	3.6433e-06	3.6586e-06	1340.2	363.56	3.7676e-06	3.7261e-06	406.88	138.95	119.83	41.714	3.7852e-06	52.132	281.229	59.806	25.805	-31.830	111.814	131.649	-31.919	-27.091	162.700	128.556	-27.554	-23.205	-22.354	-18.197	146.936	-19.381	-8191	255	
16868.697	1	1	0	0	0.070807	0.27819	0.18381	0.27987	0.3177	0.078711	0.30304	0.21276	0.13579	0.13044	0.23731	0.37527	0.24964	0.06976	0.047646	0.25231	-2.1312	-2.5833	-2.7479	-2.7417	-2.7562	-2.95	-2.6458	-2.7292	-2.5438	-2.5062	-2.7042	-2.5208	-2.6979	-2.9208	-2.4458	-2.8083	8.248	53.288	14.100	-35.214	57.281	93.490	197.933	309.932	225.830	79.114	313.578	157.894	18.827	63.153	-4.893	-38.405	0.0003145	0.00035598	0.00013312	1329.1	6.2274e-06	3.4492e-06	1328.4	357.63	3.1053e-06	4.3752e-06	419.51	136.32	117.23	40.828	1.252e-06	50.873	0.00035495	0.00032601	9.3093e-05	1344.8	3.6463e-06	3.6348e-06	1339.8	363.48	3.637e-06	3.7271e-06	406.94	138.88	119.84	41.784	3.6591e-06	52.059	270.513	14.872	62.966	-32.084	108.677	81.527	-32.044	-27.159	139.037	125.013	-28.248	-23.369	-22.567	-17.913	69.743	-18.848	-8191	255	
16868.793	1	1	0	0	0.2534	0.085134	0.2466	0.22251	0.070846	0.088045	0.052001	0.18275	0.207	0.11428	0.31278	0.043894	0.14603	0.14682	0.15989	0.091909	-2.2917	-2.3563	-2.7833	-2.5667	-2.4375	-2.8875	-2.4979	-2.6229	-2.6271	-2.5271	-2.7583	-2.8292	-2.6396	-2.7875	-2.4917	-2.7583	301.027	259.419	161.995	286.138	9.690	71.614	-31.646	288.359	238.638	265.446	302.958	244.526	152.914	11.822	131.417	258.672	0.00032872	0.00046285	8.2779e-05	1326.1	3.7692e-06	4.311e-06	1326.7	356.02	3.6976e-06	4.2408e-06	411.82	136.01	117.54	40.564	6.1971e-06	50.677	0.00033951	0.00033023	9.1801e-05	1341.9	3.5487e-06	3.6159e-06	1337.8	361.85	3.5527e-06	3.5643e-06	405.26	138.5	119.68	41.671	3.6697e-06	52.017	274.202	39.777	28.670	-32.045	110.804	87.629	-31.943	-27.256	163.150	127.397	-28.331	-23.408	-22.326	-18.094	131.121	-19.091	-8191	255	
16868.889	1	1	0	0	0.12022	0.13967	0.19937	0.23105	0.1861	0.032142	0.03156	0.37973	0.1577	0.22776	0.0931	0.11429	0.043318	0.288	0.086723	0.21773	-2.2396	-2.3396	-2.5687	-2.8125	-2.5417	-2.6396	-2.7146	-2.65	-2.5458	-2.5333	-2.6562	-2.7583	-2.75	-2.8688	-2.5187	-2.8063	163.949	214.553	55.535	251.107	150.020	270.638	7.718	253.851	-4.569	193.332	309.042	249.407	-38.702	293.943	-25.926	228.060	0.0002754	0.00058713	0.00014043	1326.7	4.8237e-06	3.8351e-06	1324.1	355.01	4.7205e-06	4.6653e-06	411.05	135.64	116.88	40.484	4.8711e-06	50.919	0.00034552	0.0003267	8.8622e-05	1342.5	3.5876e-06	3.5377e-06	1336.6	362.01	3.5594e-06	3.5879e-06	403.77	138.45	119.48	41.569	3.5275e-06	52.023	264.053	47.030	34.426	-31.956	120.395	80.166	-32.023	-27.159	163.193	89.887	-27.503	-23.467	-22.237	-18.102	111.098	-19.084	-8191	255	
16869.010	1	1	0	0	0.201	0.2819	0.055682	0.096779	0.10715	0.039483	0.3922	0.30717	0.092403	0.14744	0.11667	0.21478	0.030136	0.53837	0.13917	0.24176	-2.3604	-2.3688	-2.7208	-2.5667	-2.5687	-2.775	-2.6354	-2.8	-2.8125	-2.3896	-2.6583	-2.7125	-2.4042	-2.8479	-2.5396	-2.6792	8.307	308.084	81.148	181.954	138.109	305.428	303.585	303.512	37.287	204.768	135.462	264.714	52.566	292.703	-42.332	-18.180	0.00027355	0.00060315	0.00014865	1324	5.5775e-06	2.726e-06	1319.6	355.55	3.8471e-06	3.9556e-06	413.88	135.82	116.94	40.535	6.1855e-06	50.751	0.00034689	0.00032499	8.7476e-05	1340.9	3.6684e-06	3.427e-06	1335.4	361.6	3.5751e-06	3.4028e-06	403.49	138.22	119.13	41.502	3.3964e-06	51.85	272.569	42.922	44.042	-32.065	127.556	139.716	-32.199	-27.113	141.701	101.347	-27.215	-23.186	-22.404	-18.176	117.401	-19.101	-8191	255	
16869.080	1	1	0	0	0.049862	0.1361	0.15559	0.15666	0.092661	0.05616	0.18542	0.28246	0.17538	0.17582	0.13481	0.10882	0.20014	0.18206	0.17128	0.16075	-2.2562	-2.2646	-2.575	-2.6833	-2.4938	-2.7104	-2.7625	-2.4792	-2.8354	-2.4917	-2.6125	-2.6667	-2.6292	-2.8792	-2.6667	-2.5667	142.558	195.858	190.265	300.561	259.181	48.808	281.633	284.318	222.758	201.825	53.949	157.527	82.391	309.317	-35.547	232.832	0.00030652	0.00032157	6.92e-05	1324.7	7.7061e-06	3.6861e-06	1319.5	354.66	4.5239e-06	3.3126e-06	406.97	135.28	116.81	40.205	9.2163e-06	50.699	0.00033183	0.00031073	8.0814e-05	1336	3.4321e-06	3.2304e-06	1329.4	359.97	3.3848e-06	3.2768e-06	398.96	137.8	118.8	41.292	3.2549e-06	51.701	266.361	40.650	39.970	-32.046	117.590	121.504	-32.003	-26.898	170.089	127.019	-27.872	-23.310	-22.571	-18.151	123.056	-19.071	-8191	255	
16869.178	1	1	0	0	0.032017	0.02059	0.25672	0.35619	0.17039	0.1243	0.10072	0.0051846	0.17593	0.22707	0.23435	0.31675	0.1627	0.28913	0.072577	0.1824	-2.3583	-2.6167	-2.8667	-2.8417	-2.6729	-2.7271	-2.9896	-2.4875	-2.7917	-2.5896	-2.5563	-3.0104	-2.7417	-2.6854	-2.7917	-2.7229	146.135	236.993	69.520	-29.288	81.174	225.171	216.517	151.884	205.949	312.422	57.810	264.854	243.945	269.567	178.384	269.412	0.00032621	0.00031056	0.00014245	1316.2	6.458e-06	3.4143e-06	1311.3	354.07	4.068e-06	4.1002e-06	410.74	134.63	116.4	40.407	3.7321e-06	50.613	0.00032389	0.00030207	7.8325e-05	1331.7	3.3766e-06	3.1602e-06	1326.1	359.78	3.3627e-06	3.289e-06	400.82	137.76	118.64	41.374	3.2947e-06	51.656	267.600	45.790	41.292	-32.028	123.804	68.097	-32.007	-27.053	159.276	110.154	-27.763	-23.261	-22.407	-18.112	94.559	-19.194	-8191	255	
16869.299	1	1	0	0	0.19064	0.29099	0.16221	0.2661	0.24758	0.12246	0.16956	0.18609	0.39504	0.099112	0.10297	0.051973	0.09667	0.38069	0.09381	0.12559	-2.1625	-2.3583	-2.6958	-2.9292	-2.6813	-2.8458	-2.8125	-2.5792	-2.8187	-2.5646	-2.5708	-2.9354	-2.5229	-2.8271	-2.7375	-2.5187	231.224	198.917	259.221	7.837	45.661	76.016	262.435	201.347	112.864	95.354	93.859	288.159	214.579	-21.356	206.199	-36.838	0.00029236	0.00046424	7.0956e-05	1316.1	5.3215e-06	3.226e-06	1313	354.04	1.4899e-06	3.3664e-06	409.63	134.98	116.49	40.373	5.5401e-06	50.465	0.00032431	0.00029685	8.1454e-05	1330.6	3.3832e-06	3.0992e-06	1325.5	359.33	3.3135e-06	3.1323e-06	399.13	137.56	118.61	41.346	3.2586e-06	51.612	270.155	36.519	59.901	-31.851	89.606	100.454	-32.011	-27.110	175.308	107.089	-27.798	-23.281	-22.301	-18.159	124.322	-19.018	-8191	255	
16869.395	1	1	0	0	0.11092	0.13678	0.04823	0.14355	0.15086	0.15997	0.11758	0.34466	0.16926	0.24246	0.12168	0.30069	0.036779	0.040696	0.27981	0.35531	-2.3354	-2.5563	-2.7188	-2.7979	-2.4083	-2.6333	-2.8958	-2.7146	-2.8312	-2.625	-2.5708	-2.7229	-2.6417	-2.6583	-2.6917	-2.5958	191.548	46.440	64.820	34.099	281.127	134.830	239.912	273.061	305.950	198.428	64.935	310.837	247.949	117.957	12.803	252.206	0.00031098	0.00056005	0.00013926	1316.1	5.7488e-06	3.7212e-06	1315.6	354.25	2.3259e-06	4.1371e-06	410.33	134.91	116.3	40.329	2.0113e-06	50.507	0.00031893	0.00028427	8.444e-05	1330.7	3.3901e-06	3.0912e-06	1327.7	359.73	3.2947e-06	3.239e-06	401.88	137.65	118.67	41.389	3.4037e-06	51.713	268.234	40.330	21.453	-32.132	114.639	131.210	-31.988	-27.169	150.360	114.989	-28.077	-23.383	-22.378	-18.077	131.252	-19.022	-8191	255	
16869.488	1	1	0	0	0.10471	0.056386	0.19563	0.26959	0.2248	0.092839	0.16597	0.32677	0.14803	0.17071	0.049806	0.18776	0.1063	0.29074	0.09713	0.08919	-2.3083	-2.5563	-2.6375	-2.8542	-2.5104	-2.5479	-2.8542	-2.5146	-2.6708	-2.7292	-2.575	-2.8521	-2.6833	-2.6688	-2.5583	-2.6625	268.512	-8.460	83.988	304.548	23.436	-29.591	263.219	256.545	71.107	268.489	29.690	302.244	192.585	-31.681	-3.391	210.343	0.00025403	0.0003904	0.00014354	1312	3.5219e-06	6.7025e-06	1315.4	353.42	4.6944e-06	6.2872e-06	404.88	134.88	116.52	40.269	4.544e-06	50.539	0.00031682	0.00029581	8.3469e-05	1329.6	3.3045e-06	3.1924e-06	1327.5	359.46	3.2373e-06	3.1876e-06	399.24	137.58	118.61	41.333	3.3165e-06	51.601	276.105	41.778	26.231	-32.084	82.970	86.945	-31.951	-27.185	169.108	99.921	-28.447	-23.089	-22.371	-18.021	100.713	-19.006	-8191	255	
16869.588	1	1	0	0	0.15319	0.15343	0.29315	0.24426	0.28889	0.13641	0.1989	0.22455	0.19141	0.085706	0.20729	0.12779	0.070544	0.060907	0.20152	0.13968	-2.2188	-2.5854	-2.6292	-2.9625	-2.4021	-2.6292	-2.8917	-2.5667	-2.6688	-2.5229	-2.5479	-2.8292	-2.6833	-2.6583	-2.7812	-2.5896	190.846	54.858	290.869	231.621	64.917	14.140	220.403	300.643	-33.241	291.943	28.023	248.891	87.841	-22.718	63.190	57.671	0.0002824	0.0004463	0.00013792	1312.8	5.6758e-06	5.444e-06	1313.1	354	3.5618e-06	3.4145e-06	404.34	134.89	116.21	40.345	5.5755e-06	50.262	0.00031414	0.0002959	8.3616e-05	1329.3	3.2319e-06	3.23e-06	1325.3	359.21	3.1234e-06	3.2283e-06	398.38	137.46	118.61	41.282	3.3091e-06	51.506	271.239	57.670	36.709	-31.872	127.805	107.247	-32.010	-27.120	159.532	101.541	-27.691	-23.272	-22.535	-18.061	90.246	-18.994	-8191	255	
16869.705	1	1	0	0	0.11777	0.28192	0.1601	0.21928	0.26293	0.10673	0.32472	0.33403	0.21846	0.10856	0.22722	0.17323	0.085288	0.28842	0.090983	0.066754	-2.2	-2.3854	-2.3292	-3.0208	-2.4458	-2.5417	-2.8396	-2.4958	-2.6646	-2.8187	-2.4604	-2.9437	-2.5938	-2.5687	-2.7521	-2.5354	279.550	54.325	301.722	218.952	189.192	102.450	288.272	274.860	132.532	90.050	43.272	220.825	173.118	297.531	264.448	228.949	0.00028819	0.00055774	0.00010941	1312.7	5.7647e-06	4.1261e-06	1309.4	352.64	1.7697e-06	3.2741e-06	405.13	134.69	116.31	40.279	4.8615e-06	50.323	0.00031811	0.00029778	8.2857e-05	1327.4	3.2796e-06	3.1602e-06	1321.5	357.99	3.1571e-06	3.2096e-06	398.83	137.02	118.3	41.213	3.1469e-06	51.514	276.841	51.745	56.421	-32.051	128.498	103.514	-32.017	-27.221	174.987	113.158	-27.946	-23.292	-22.561	-18.158	114.455	-19.174	-8191	255	
16869.777	1	1	0	0	0.058151	0.083503	0.1177	0.10316	0.21026	0.081316	0.21337	0.20905	0.20284	0.18155	0.084319	0.20046	0.34828	0.22856	0.29318	0.1577	-2.0938	-2.6375	-2.3083	-2.9396	-2.5229	-2.6333	-2.8625	-2.5271	-2.575	-2.75	-2.4458	-2.6521	-2.7542	-2.5542	-2.8167	-2.5583	-18.772	211.459	182.355	-35.941	176.273	201.830	227.996	309.588	23.324	44.980	234.728	180.764	270.946	155.366	42.959	309.247	0.00025557	0.00064242	0.00016038	1312.7	5.0103e-06	2.9352e-06	1309.6	352.47	2.005e-06	3.4845e-06	405.43	135.01	116.18	40.284	3.259e-06	50.392	0.0003061	0.00029021	8.0037e-05	1326.6	3.2478e-06	3.1124e-06	1322.1	358.06	3.1628e-06	3.1465e-06	397.96	137.32	118.26	41.216	3.1128e-06	51.527	276.240	64.690	46.283	-32.002	91.917	87.374	-32.041	-27.174	179.960	87.616	-27.986	-23.189	-22.582	-17.936	105.172	-19.112	-8191	255	
16869.898	1	1	0	0	0.05159	0.2064	0.057668	0.084246	0.25819	0.28135	0.27446	0.25833	0.14361	0.23191	0.0633	0.12375	0.23245	0.13966	0.15186	0.26446	-2.1188	-2.5625	-2.4562	-2.8563	-2.7667	-2.3792	-2.8646	-2.6208	-2.3146	-2.9333	-2.5396	-2.7375	-2.7687	-2.3646	-2.8271	-2.8229	249.151	124.528	8.853	269.171	277.772	204.476	209.548	251.965	189.403	-5.431	-37.219	-37.388	272.996	286.625	280.478	15.818	0.00029501	0.00054763	0.00016904	1313.2	4.4363e-06	4.7582e-06	1309.9	352.95	2.832e-06	3.3629e-06	406.67	134.72	115.87	40.218	4.3251e-06	50.505	0.00031397	0.00028512	7.7819e-05	1328	3.3122e-06	3.1291e-06	1323	358.34	3.173e-06	3.0871e-06	395.95	137.13	118.16	41.208	3.0683e-06	51.447	275.167	53.615	47.923	-31.947	143.285	91.736	-31.908	-27.193	142.338	99.210	-28.191	-23.393	-22.636	-18.067	135.036	-19.053	-8191	255	
16869.994	1	1	0	0	0.13554	0.35504	0.10649	0.19299	0.37502	0.37888	0.18753	0.19567	0.11948	0.19206	0.23441	0.11883	0.16357	0.22575	0.074098	0.21028	-2.1208	-2.7604	-2.3896	-2.6813	-2.7333	-2.425	-2.9208	-2.8375	-2.3875	-2.7562	-2.3396	-2.6937	-2.8167	-2.3521	-2.8312	-2.8438	88.600	66.012	73.335	221.023	29.212	259.331	251.409	218.694	66.111	79.644	197.538	191.127	26.386	-23.718	266.907	249.287	0.0002827	0.0003946	0.00019402	1311	4.9925e-06	5.623e-06	1309.6	352.55	1.8822e-06	4.6873e-06	410.23	134.63	115.93	40.288	4.0043e-06	50.553	0.00031615	0.0002825	7.5763e-05	1324.8	3.1694e-06	3.1642e-06	1320.5	358.01	3.2021e-06	3.1103e-06	398.44	137.15	118.27	41.177	2.953e-06	51.504	269.260	48.357	40.820	-31.915	128.561	90.664	-32.180	-27.123	183.963	87.071	-28.361	-23.586	-22.404	-18.111	115.321	-19.057	-8191	255	
16870.090	1	1	0	0	0.094569	0.14665	0.098091	0.19156	0.37574	0.27457	0.17477	0.13678	0.098627	0.082405	0.22116	0.22087	0.10566	0.11609	0.32644	0.28348	-1.9896	-2.6833	-2.5563	-2.7104	-2.7583	-2.4688	-3.0083	-2.7917	-2.4167	-2.7104	-2.4104	-2.5208	-2.7917	-2.4396	-2.6208	-2.6562	178.883	201.967	51.793	-29.033	-6.943	69.638	272.914	213.038	89.158	237.362	100.328	293.807	209.814	295.026	300.027	185.660	0.00032049	0.00054037	0.00018286	1312.6	6.9958e-06	3.9646e-06	1307.3	352.42	4.0662e-06	4.0184e-06	403.33	134.84	115.95	40.086	2.7487e-06	50.091	0.00031445	0.0002741	7.4778e-05	1324.7	3.1856e-06	3.0515e-06	1320.3	357.72	3.1774e-06	2.9453e-06	398.84	137.09	118.21	41.066	2.891e-06	51.325	271.829	42.826	50.473	-32.112	125.298	103.189	-31.992	-27.180	179.736	97.681	-28.354	-23.340	-22.612	-17.870	135.681	-19.074	-8191	255	
16870.186	1	1	0	0	0.09626	0.21528	0.17742	0.21661	0.22309	0.084273	0.28668	0.27149	0.072842	0.090218	0.068543	0.41288	0.097965	0.23152	0.10677	0.013665	-1.9146	-2.7479	-2.5938	-2.8	-2.6271	-2.5854	-2.8479	-2.6917	-2.4521	-2.7208	-2.4979	-2.6729	-2.8688	-2.5146	-2.6333	-2.6729	-43.685	205.348	102.494	309.955	213.133	143.910	286.365	314.277	81.267	208.807	312.952	273.263	80.257	274.960	311.114	158.380	0.00029691	0.00042329	0.00012112	1305.9	6.7916e-06	3.5427e-06	1307.6	351.03	3.4573e-06	4.7284e-06	408.56	134.49	115.74	40.161	5.6928e-06	50.383	0.00030433	0.00026301	7.3522e-05	1322.4	3.0958e-06	2.8934e-06	1319	357.12	3.0928e-06	2.8244e-06	396.51	137	118.09	41.097	2.9795e-06	51.362	276.441	60.209	23.326	-32.045	129.092	104.244	-31.936	-27.251	179.861	113.655	-27.819	-23.484	-22.502	-18.094	141.683	-18.943	-8191	255	
16870.307	1	1	0	0	0.17928	0.15091	0.34252	0.28238	0.23744	0.13214	0.095715	0.13046	0.2412	0.087333	0.026693	0.1929	0.35762	0.0968	0.33467	0.077529	-2.0479	-2.7125	-2.6417	-2.5917	-2.8896	-2.4979	-2.9354	-2.9042	-2.2438	-2.8208	-2.6375	-2.5062	-2.8104	-2.4896	-2.6625	-2.9271	-31.522	228.420	75.913	296.576	293.964	68.260	123.876	267.476	150.089	5.163	226.482	-17.088	-4.052	165.066	167.255	257.484	0.00027217	0.00042137	0.00015586	1305.8	5.2857e-06	4.1984e-06	1306.3	352.05	5.3957e-06	4.5033e-06	409.06	134.76	116.29	40.098	7.181e-06	50.049	0.00029639	0.00024923	7.5556e-05	1323.7	3.1476e-06	2.8952e-06	1320.6	357.95	3.0625e-06	2.8325e-06	397.69	137.17	118.27	41.106	2.9369e-06	51.343	265.175	47.079	52.552	-31.973	116.100	116.844	-31.889	-27.144	138.193	102.311	-28.261	-23.247	-22.401	-17.986	109.256	-19.097	-8191	255	
16870.379	1	1	0	0	0.066321	0.17844	0.078037	0.087339	0.14667	0.012523	0.22307	0.024239	0.074318	0.10554	0.10446	0.29097	0.19659	0.26962	0.13845	0.21569	-2.0396	-2.7	-2.4125	-2.7542	-2.8583	-2.5792	-2.7188	-2.8979	-2.4771	-2.775	-2.5854	-2.3646	-2.7812	-2.6688	-2.5917	-2.7188	100.396	-0.318	65.139	-6.402	314.632	174.792	208.547	-26.415	275.380	18.586	-28.497	-28.619	303.562	249.397	196.814	312.373	0.0002755	0.00051021	0.00011174	1309.1	3.7568e-06	4.58e-06	1304.8	352.52	2.8418e-06	3.685e-06	409.7	134.46	115.69	40.115	5.9311e-06	50.223	0.00029352	0.00025493	7.6674e-05	1321.3	2.9376e-06	2.9029e-06	1316.9	357.09	2.9458e-06	2.7649e-06	394.79	136.88	117.74	40.972	2.8696e-06	51.268	273.013	77.145	47.035	-32.092	109.830	116.167	-31.769	-27.193	184.463	118.389	-28.115	-23.342	-22.453	-18.077	143.401	-19.028	-8191	255	
16870.475	1	1	0	0	0.19045	0.26171	0.31286	0.22022	0.13076	0.15516	0.15933	0.24585	0.013144	0.13822	0.047843	0.20595	0.31372	0.28945	0.30863	0.15886	-2.1375	-2.6771	-2.6708	-2.6021	-2.6604	-2.6063	-2.7896	-2.8375	-2.5167	-2.7646	-2.6875	-2.6917	-2.7208	-2.4813	-2.4875	-2.6042	155.509	41.514	195.920	-32.989	207.801	135.995	278.566	243.510	83.556	283.251	242.301	188.520	-41.271	149.144	262.907	204.508	0.00025765	0.00030547	0.00011568	1300.3	4.9618e-06	3.6161e-06	1299.9	351.19	4.1173e-06	3.4218e-06	408.4	134.38	115.2	40.038	7.2813e-06	50.156	0.00028394	0.00025923	7.5537e-05	1317.1	2.8345e-06	2.9178e-06	1314.6	356.37	2.9033e-06	2.788e-06	396.36	136.85	117.73	40.981	2.9901e-06	51.254	280.353	65.898	61.445	-31.926	137.833	86.499	-31.923	-26.956	178.065	93.419	-28.072	-23.301	-22.231	-18.255	116.185	-19.153	-8191	255	
16870.570	1	1	0	0	0.26195	0.10273	0.10819	0.39543	0.16066	0.13271	0.27928	0.13562	0.20152	0.18787	0.22304	0.07059	0.10489	0.059518	0.048493	0.10668	-2.075	-2.5583	-2.4958	-2.6813	-2.6896	-2.6333	-2.6854	-2.9229	-2.4771	-2.5938	-2.6542	-2.5333	-2.7167	-2.7625	-2.5729	-2.7583	249.319	313.757	135.985	-37.470	-37.792	116.200	236.029	182.379	293.059	-14.809	175.678	245.890	131.801	9.247	-20.573	287.269	0.00029968	0.0006096	0.00015739	1303.3	5.3495e-06	4.4656e-06	1305.6	351.58	3.8884e-07	3.3213e-06	410	134.14	115.64	40.059	5.229e-06	50.003	0.00029143	0.00026315	7.3016e-05	1318.4	2.8935e-06	2.8972e-06	1317.2	356.65	2.8779e-06	2.9051e-06	397.36	136.88	117.78	41.019	2.917e-06	51.208	279.712	69.688	36.216	-32.166	127.382	87.218	-31.868	-27.195	-41.377	112.656	-27.987	-23.316	-22.430	-17.990	90.542	-19.151	-8191	255	
16870.689	1	1	0	0	0.22967	0.19495	0.20602	0.11109	0.15072	0.073974	0.29285	0.23049	0.044183	0.17738	0.16417	0.16921	0.14875	0.10735	0.2321	0.12704	-1.9333	-2.6542	-2.8875	-2.6729	-2.8	-2.5104	-2.825	-2.9542	-2.55	-2.5958	-2.5646	-2.5292	-2.7062	-2.5083	-2.5021	-2.7729	310.896	158.298	168.342	184.933	198.009	-28.806	306.825	236.587	287.082	6.987	150.077	276.174	197.521	168.203	270.937	210.753	0.0002817	0.00036623	0.00010423	1304.7	3.5809e-06	4.1515e-06	1302	350.96	1.3815e-06	2.564e-06	409.66	134.39	115.81	40.062	6.0888e-06	50.024	0.00028951	0.0002565	7.0228e-05	1320.5	2.8712e-06	2.7624e-06	1316.9	356.27	2.8493e-06	2.7216e-06	396	136.71	117.81	40.947	2.7806e-06	51.093	277.146	47.027	30.248	-31.980	110.071	100.587	-31.899	-27.107	158.409	115.599	-28.190	-23.331	-22.438	-18.230	97.801	-18.966	-8191	255	
16870.785	1	1	0	0	0.21904	0.14926	0.10433	0.043962	0.22407	0.2312	0.33863	0.2282	0.045888	0.055678	0.057776	0.33726	0.34519	0.16558	0.095313	0.076415	-2.1167	-2.5979	-2.7333	-2.5229	-2.7375	-2.7438	-2.7104	-2.6479	-2.3854	-2.5812	-2.7687	-2.4375	-2.7083	-2.9396	-2.6917	-2.7229	215.347	199.059	201.278	-43.922	275.165	280.425	274.857	285.446	100.554	277.159	-33.380	267.125	215.107	10.309	218.854	-24.776	0.00028227	0.00054285	0.00010598	1300.7	3.6429e-06	3.9435e-06	1297.8	349.17	3.5025e-06	3.6176e-06	405.14	133.56	115.11	39.955	4.699e-06	49.999	0.00028003	0.00024038	6.6562e-05	1314.9	2.7672e-06	2.6902e-06	1309.2	354.51	2.8083e-06	2.6238e-06	393.19	136.11	117.26	40.797	2.5748e-06	51.057	269.636	32.846	60.760	-31.898	103.486	122.732	-32.085	-27.038	180.785	92.932	-27.710	-23.352	-22.362	-17.787	89.993	-19.067	-8191	255	
16870.883	1	1	0	0	0.087888	0.074864	0.21228	0.46028	0.057968	0.17143	0.15921	0.22326	0.016458	0.11652	0.13093	0.25163	0.18178	0.10237	0.14469	0.11591	-2.0771	-2.5104	-2.7292	-2.5625	-2.6042	-2.6333	-2.4896	-2.5938	-2.5312	-2.5833	-2.5208	-2.5625	-2.7438	-2.6688	-2.4667	-2.8583	258.567	-17.883	-41.712	290.756	127.496	-2.034	280.533	261.993	189.260	-15.806	312.732	311.957	207.093	133.240	30.518	251.634	0.00030508	0.00040738	0.00012051	1299	4.8251e-06	3.9514e-06	1301	349.97	2.5332e-06	3.23e-06	408.24	133.69	115.04	40.001	6.6836e-06	50.122	0.00027688	0.00024143	6.4574e-05	1313.9	2.7605e-06	2.7022e-06	1313.7	355.29	2.8223e-06	2.6858e-06	393.74	136.17	117.13	40.832	2.6229e-06	51.099	277.903	34.201	62.371	-32.067	134.054	109.222	-31.894	-27.116	130.229	106.984	-27.420	-23.216	-22.534	-18.134	110.629	-18.900	-8191	255	
16870.979	1	1	0	0	0.2389	0.22487	0.1604	0.054024	0.14818	0.22348	0.084844	0.12377	0.15998	0.022593	0.17885	0.25659	0.17685	0.17753	0.11245	0.3192	-2.0604	-2.45	-2.6396	-2.5292	-2.5417	-2.4938	-2.5146	-2.7667	-2.7771	-2.5187	-2.7833	-2.4917	-2.5771	-2.9583	-2.6146	-2.7521	197.690	74.377	244.114	285.043	-34.418	176.956	183.214	286.457	161.529	-3.669	-2.817	14.834	226.408	295.096	1.620	258.895	0.00031056	0.00039272	0.00016765	1300.5	7.2367e-06	5.479e-06	1298.3	349.45	1.7984e-06	4.0821e-06	400.79	133.52	115.07	39.771	7.0912e-06	49.896	0.00027414	0.00023442	6.3585e-05	1315	2.7282e-06	2.6066e-06	1310.6	354.35	2.7644e-06	2.596e-06	389.99	135.96	117.06	40.739	2.6893e-06	51.002	271.775	56.483	37.658	-32.043	116.567	95.674	-31.911	-27.129	143.161	90.931	-26.950	-23.441	-22.325	-18.136	118.216	-19.029	-8191	255	
16871.074	1	1	0	0	0.1379	0.34392	0.26289	0.37494	0.081673	0.043314	0.27016	0.046299	0.40697	0.19255	0.30319	0.41615	0.077357	0.04312	0.14253	0.10471	-2.1667	-2.2021	-2.5729	-2.6333	-2.4333	-2.6792	-2.5896	-2.8187	-2.5396	-2.4271	-2.6417	-2.4813	-2.5146	-2.8354	-2.5687	-2.6292	260.666	171.784	-16.054	265.592	201.868	68.514	254.511	101.743	174.210	91.527	18.075	291.510	61.066	253.033	208.027	-4.012	0.000286	0.00065476	0.00012305	1301.9	3.9292e-06	4.1718e-06	1300.5	350.23	4.181e-06	3.0772e-06	403.29	133.93	115.19	39.966	7.8673e-06	50.303	0.00028174	0.00024214	6.6971e-05	1314.5	2.8746e-06	2.6871e-06	1311.8	355.48	3.0443e-06	2.8022e-06	393.58	136.42	117.44	40.939	3.0846e-06	51.288	272.411	50.648	34.623	-32.124	122.804	88.826	-31.979	-27.148	169.456	93.959	-28.535	-23.424	-22.403	-18.129	112.813	-18.964	-8191	255	
16871.172	1	1	0	0	0.030175	0.1183	0.17455	0.26541	0.33285	0.16493	0.42253	0.23843	0.077624	0.21901	0.24468	0.11834	0.30521	0.14787	0.21061	0.47007	-2.2812	-2.2812	-2.6813	-2.7125	-2.5146	-2.6125	-2.7333	-2.7083	-2.7167	-2.3458	-2.7167	-2.6167	-2.4021	-2.8896	-2.4708	-2.5792	202.656	234.499	243.804	286.398	45.045	216.524	209.346	252.327	-21.696	14.176	284.444	238.919	199.360	14.635	104.462	239.828	0.00027433	0.00042314	0.00010632	1305	5.7289e-06	3.3764e-06	1298.4	351.09	3.2087e-06	3.7873e-06	403.46	133.94	115.03	39.821	3.5618e-06	49.644	0.0003023	0.00026835	7.3315e-05	1318.1	3.0705e-06	2.7698e-06	1312.1	355.93	2.9343e-06	2.6551e-06	393.63	136.24	116.98	40.743	2.7833e-06	50.951	272.095	19.238	43.407	-32.115	130.254	104.664	-32.025	-27.006	149.909	104.579	-27.540	-23.337	-22.436	-17.925	114.733	-18.949	-8191	255	
16871.268	1	1	0	0	0.22793	0.24987	0.078164	0.093529	0.10728	0.10578	0.37801	0.045381	0.017124	0.15792	0.12673	0.074258	0.25023	0.13648	0.11551	0.19748	-2.2396	-2.3812	-2.725	-2.4896	-2.525	-2.7896	-2.8729	-2.7188	-2.75	-2.4083	-2.6708	-2.5042	-2.4083	-2.6271	-2.4333	-2.5229	263.965	242.200	46.796	280.271	140.514	177.290	307.788	39.465	242.561	236.900	-10.315	314.401	264.587	88.227	-37.051	257.724	0.0002872	0.00033327	0.00013792	1283.4	6.1595e-06	2.9387e-06	1281.4	346.51	1.2623e-06	4.5319e-06	403.3	131.98	113.91	39.517	5.8663e-06	49.727	0.0002692	0.00022555	6.387e-05	1298.8	2.5622e-06	2.3665e-06	1295.3	351.71	2.5141e-06	2.4709e-06	387.92	134.99	116.23	40.499	2.5797e-06	50.84	273.415	53.341	47.747	-32.083	121.493	93.205	-32.042	-27.006	199.407	85.998	-28.162	-23.448	-22.307	-17.996	126.597	-18.924	-8191	255	
16871.387	1	1	0	0	0.26031	0.10091	0.028275	0.21261	0.2985	0.062609	0.068863	0.05914	0.34529	0.34674	0.32577	0.23241	0.23773	0.1968	0.15173	0.24812	-2.1583	-2.4958	-2.5	-2.7104	-2.5271	-2.7667	-2.6083	-2.5	-2.6458	-2.5583	-2.7104	-2.9292	-2.4958	-2.6521	-2.5896	-2.5438	222.795	107.497	180.617	308.523	63.673	294.382	112.808	211.902	304.635	16.495	208.622	278.565	286.333	155.121	167.502	251.638	0.00027355	0.00054161	0.00011699	1282.4	4.0311e-06	3.5504e-06	1282	347.24	4.4058e-06	4.414e-06	403.48	132.57	114.14	39.686	8.0778e-06	49.931	0.00024852	0.00022473	6.1105e-05	1298.2	2.5168e-06	2.3155e-06	1295.3	351.84	2.3643e-06	2.3273e-06	388.44	135.18	116.21	40.604	2.4032e-06	50.842	278.971	31.158	61.769	-31.994	135.929	104.273	-31.906	-26.892	175.297	90.753	-27.581	-23.326	-22.563	-18.061	121.239	-19.145	-8191	255	
16871.482	1	1	0	0	0.13001	0.16295	0.14792	0.29733	0.14007	0.19447	0.031988	0.26393	0.26626	0.19356	0.26776	0.17417	0.06017	0.30433	0.047222	0.064313	-2.2625	-2.3875	-2.6479	-2.8104	-2.5312	-2.8146	-2.7542	-2.4792	-2.6396	-2.3896	-2.4688	-2.6521	-2.3979	-2.6979	-2.6104	-2.5062	41.140	121.395	37.102	280.849	74.579	17.007	23.665	255.517	104.282	18.538	-7.602	207.519	216.237	299.094	156.835	244.272	0.00027791	0.00051384	0.0001545	1276.1	7.4704e-06	5.3807e-06	1279.2	345.87	2.764e-06	3.7195e-06	405.87	132.87	114.19	39.775	2.0154e-06	49.772	0.00024229	0.00021086	5.6045e-05	1291.7	2.3441e-06	2.2199e-06	1291.3	350.67	2.2811e-06	2.2159e-06	388.78	135.56	116.32	40.691	2.2711e-06	50.893	280.844	47.034	47.072	-32.146	112.749	110.444	-31.950	-27.126	116.804	112.448	-27.507	-23.428	-22.429	-18.111	119.022	-18.972	-8191	255	
16871.580	1	1	0	0	0.1325	0.25504	0.16458	0.21816	0.27605	0.28407	0.29349	0.29563	0.093	0.09931	0.22447	0.088865	0.18999	0.12928	0.1626	0.051799	-2.2687	-2.3625	-2.5875	-2.9646	-2.5354	-2.5396	-2.8	-2.5792	-2.5396	-2.5125	-2.4854	-2.8542	-2.5708	-2.6833	-2.7917	-2.4417	-43.650	101.012	138.821	-6.791	149.367	-5.616	222.865	213.792	226.143	199.584	222.020	291.660	-13.163	270.995	114.303	50.660	0.00030717	0.00049398	0.00011251	1278	1.7381e-06	2.5581e-06	1277.7	344.13	4.5025e-06	4.9605e-06	400.2	133.21	113.74	39.582	5.8331e-06	50.042	0.00023454	0.00020297	5.5529e-05	1289.5	2.2677e-06	2.1352e-06	1287.9	349.58	2.2633e-06	2.2519e-06	386.67	135.39	116.12	40.546	2.3594e-06	50.875	268.568	33.432	40.494	-32.042	145.188	97.615	-32.023	-27.154	164.787	108.442	-27.441	-23.272	-22.440	-18.037	114.890	-19.242	-8191	255	
16871.674	1	1	0	0	0.14919	0.043408	0.15231	0.14421	0.2044	0.064577	0.56084	0.36109	0.1542	0.4609	0.051413	0.21119	0.12172	0.13762	0.23109	0.30048	-2.1937	-2.5104	-2.4833	-2.8979	-2.4313	-2.5854	-2.9042	-2.4875	-2.6146	-2.4208	-2.4542	-2.7938	-2.5167	-2.6125	-2.6125	-2.4604	-26.038	244.865	50.920	288.218	180.393	214.834	283.100	206.997	43.601	310.664	-36.266	-41.764	12.956	177.213	167.402	86.329	0.00026725	0.00058812	0.00012577	1274.1	6.9628e-06	3.8683e-06	1279.3	345.28	2.9212e-06	3.1672e-06	399.43	132.65	113.99	39.903	5.0269e-06	49.618	0.00024457	0.000214	5.6201e-05	1290.3	2.4256e-06	2.2259e-06	1288.1	350.13	2.3999e-06	2.2237e-06	387.04	135.32	116.18	40.709	2.1745e-06	50.917	264.321	50.984	53.597	-32.127	141.644	74.321	-32.114	-26.905	173.445	113.437	-27.742	-23.125	-22.453	-18.042	129.039	-19.324	-8191	255	
16871.770	1	1	0	0	0.15577	0.23511	0.3519	0.18079	0.35092	0.14151	0.14499	0.1432	0.023365	0.17892	0.13115	0.075232	0.32345	0.11778	0.17755	0.28147	-2.4479	-2.4854	-2.425	-2.8417	-2.4458	-2.5521	-2.875	-2.6271	-2.5812	-2.6625	-2.4146	-2.8292	-2.525	-2.5833	-2.7958	-2.6083	112.563	145.213	231.802	268.749	15.197	192.813	188.345	184.109	18.883	288.652	-29.396	-2.409	300.980	237.980	54.289	294.757	0.00028025	0.00044347	8.827e-05	1275.1	4.3309e-06	3.6337e-06	1277	343.95	3.6386e-06	3.9966e-06	396.57	133.08	114.16	39.721	4.954e-06	49.744	0.00023781	0.00019997	5.2728e-05	1287.9	2.3163e-06	2.1023e-06	1286.7	349.07	2.2344e-06	2.1043e-06	383.31	135.32	116.2	40.68	2.0246e-06	50.912	277.980	37.482	48.819	-31.943	115.667	88.405	-31.920	-27.096	171.580	101.411	-27.733	-23.283	-22.252	-18.011	94.334	-19.141	-8191	255	
16871.865	1	1	0	0	0.054065	0.10664	0.1113	0.17848	0.16196	0.11224	0.30829	0.2208	0.12501	0.27699	0.14187	0.1064	0.25402	0.103	0.18597	0.30596	-2.2938	-2.6	-2.3063	-2.8771	-2.7812	-2.5583	-2.9042	-2.6063	-2.5854	-2.6833	-2.55	-2.7625	-2.6021	-2.4958	-2.6937	-2.4813	145.722	-13.441	59.901	300.487	83.843	93.509	261.067	228.538	59.641	257.851	38.147	-9.018	-10.618	309.041	170.708	25.712	0.00029493	0.00030296	0.00015284	1270.4	6.472e-06	4.6197e-06	1274.1	343.16	2.1542e-06	2.5801e-06	401.69	132.66	114.25	40.004	5.7798e-06	50.08	0.00023482	0.00019383	5.1081e-05	1283.1	2.2425e-06	2.0903e-06	1286.6	348.62	2.3235e-06	2.205e-06	386.86	135.35	116.46	40.932	2.2963e-06	51.17	269.541	54.105	41.276	-32.020	126.228	112.903	-31.989	-26.987	180.862	96.421	-28.128	-23.140	-22.480	-18.139	128.593	-18.852	-8191	255	
16871.986	1	1	0	0	0.16609	0.13175	0.27039	0.40056	0.049096	0.18046	0.074441	0.18821	0.25077	0.24969	0.16843	0.20989	0.16363	0.061722	0.24517	0.11191	-2.1896	-2.6917	-2.3771	-2.9938	-2.5938	-2.5729	-2.7542	-2.6042	-2.5375	-2.8146	-2.3292	-2.7646	-2.5187	-2.4938	-2.6604	-2.5729	10.680	72.728	182.125	229.389	302.920	219.520	153.009	196.675	53.749	178.724	153.330	256.510	-42.721	270.259	-19.057	309.781	0.00027795	0.0005633	0.00013573	1284.9	6.6294e-06	2.6866e-06	1297.7	348.57	5.3863e-06	2.1629e-06	410.34	135.05	116.43	40.737	3.3184e-06	50.981	0.00025975	0.00021792	6.0383e-05	1301.3	2.7407e-06	2.4745e-06	1308.6	353.93	2.822e-06	2.6964e-06	394.88	137.84	118.65	41.77	2.7653e-06	52.02	275.376	57.015	35.359	-32.067	117.952	108.810	-31.983	-27.175	142.795	119.751	-27.969	-23.438	-22.461	-18.237	118.980	-19.198	-8191	255	
16872.082	1	1	0	0	0.05606	0.20198	0.2367	0.22343	0.26575	0.18673	0.040367	0.16308	0.10985	0.090221	0.30511	0.27648	0.10052	0.32444	0.04075	0.22371	-2.2438	-2.7938	-2.5125	-2.75	-2.7125	-2.4792	-3.05	-2.55	-2.625	-2.6917	-2.3958	-2.7979	-2.5687	-2.3563	-2.7771	-2.4792	208.446	119.240	250.849	291.779	150.650	282.938	-6.411	222.349	-24.202	282.442	223.727	253.881	265.645	-13.348	-30.854	3.905	0.0002971	0.00052162	0.00011753	1308.3	6.6587e-06	5.393e-06	1308.4	352.38	2.5483e-06	4.9513e-06	404.84	136.51	117.54	41.087	7.1054e-06	51.133	0.00029726	0.00025062	7.4277e-05	1321.7	3.0352e-06	2.7951e-06	1321.7	357.47	2.9532e-06	2.7095e-06	394.7	139.01	119.62	42.075	2.8669e-06	52.309	274.183	53.600	33.413	-31.974	133.832	89.974	-31.842	-27.166	153.479	100.730	-27.478	-23.473	-22.423	-18.074	142.167	-19.075	-8191	255	
16872.180	1	1	0	0	0.28854	0.090572	0.10272	0.30417	0.15683	0.10527	0.13492	0.33247	0.07067	0.21492	0.2258	0.075794	0.091471	0.03738	0.17064	0.0089867	-2.1042	-2.625	-2.3375	-2.8458	-2.4688	-2.4271	-3.0167	-2.6562	-2.4729	-2.8812	-2.4313	-2.8688	-2.65	-2.475	-2.6854	-2.7271	179.799	302.506	-38.029	-6.445	297.465	-32.139	164.990	276.649	120.548	161.828	-18.274	212.722	188.490	260.040	32.283	178.898	0.00029193	0.00055341	0.00015267	1310.3	4.8103e-06	3.7506e-06	1319.5	354.16	2.476e-06	5.5028e-06	406.68	137.31	118.12	41.253	2.8614e-06	51.375	0.00029399	0.00025118	7.5519e-05	1328.5	3.0701e-06	2.9252e-06	1331.3	359.41	3.1259e-06	2.9627e-06	398.24	139.66	120.4	42.298	3.2155e-06	52.572	272.464	24.684	17.430	-31.940	133.422	113.667	-31.838	-27.278	137.060	134.240	-27.559	-23.554	-22.391	-18.316	174.826	-19.146	-8191	255	
16872.252	1	1	0	0	0.15928	0.081836	0.11683	0.15863	0.39928	0.20337	0.35286	0.092808	0.10177	0.36707	0.074831	0.28009	0.037519	0.15851	0.18901	0.33177	-1.8917	-2.7479	-2.3667	-2.8042	-2.7	-2.5146	-2.8229	-2.6625	-2.3417	-2.6667	-2.3979	-2.7396	-2.7417	-2.4021	-2.6667	-2.6875	258.520	-42.000	291.394	254.406	59.270	86.158	255.849	-20.683	155.780	220.693	243.712	-26.496	102.094	161.502	278.149	238.331	0.00031487	0.00043051	0.00010234	1316.8	3.188e-06	5.3948e-06	1316	354.17	2.2831e-06	3.1105e-06	411.97	136.65	117.68	41.3	5.8434e-06	51.65	0.00030669	0.00028181	7.9232e-05	1333.2	3.1777e-06	3.1168e-06	1332.8	360.17	3.0394e-06	3.1229e-06	401.04	139.62	120.28	42.341	3.1437e-06	52.61	280.531	53.336	44.704	-32.060	121.346	78.194	-31.993	-27.221	113.345	134.961	-27.499	-23.171	-22.445	-18.254	100.686	-19.312	-8191	255	
16872.348	1	1	0	0	0.20859	0.18419	0.18222	0.17483	0.07712	0.13618	0.3273	0.12473	0.18002	0.15544	0.10842	0.14971	0.21866	0.31229	0.071254	0.15167	-1.9542	-2.5771	-2.4375	-2.7333	-2.6813	-2.4125	-2.8396	-2.675	-2.3396	-2.6792	-2.5375	-2.6354	-2.8063	-2.4292	-2.8333	-2.7625	90.384	145.029	85.460	314.767	237.808	70.736	245.214	165.078	99.648	18.703	55.776	191.705	107.235	274.817	306.502	249.050	0.00026723	0.00066061	0.00012542	1317.5	5.1395e-06	3.9106e-06	1318.3	355.09	3.1887e-06	3.4718e-06	403.85	137.46	118.7	41.579	5.224e-06	51.765	0.00029776	0.00027913	7.7654e-05	1334.1	3.0383e-06	3.0299e-06	1335	361.07	3.022e-06	2.8833e-06	398.87	140.28	120.83	42.561	2.9234e-06	52.92	277.731	47.838	58.418	-31.949	125.982	78.911	-32.024	-27.161	158.151	91.886	-27.994	-23.373	-22.416	-18.128	117.064	-19.416	-8191	255	
16872.469	1	1	0	0	0.24569	0.15325	0.11881	0.26735	0.093246	0.32048	0.26268	0.24133	0.1042	0.068167	0.23828	0.21218	0.23333	0.11259	0.078857	0.13681	-1.9479	-2.6562	-2.4625	-2.5896	-2.8479	-2.5396	-2.9396	-2.5896	-2.3271	-2.7125	-2.5667	-2.4271	-2.9667	-2.4562	-2.6063	-2.7062	245.708	35.883	74.757	-43.113	300.570	262.124	248.865	229.025	80.949	71.615	184.236	-6.007	257.210	-42.267	96.077	239.503	0.0003203	0.00045767	0.00017068	1319.1	4.0112e-06	3.2025e-06	1326.7	357.42	2.6953e-06	3.857e-06	411.63	138.72	119.79	42.008	4.8032e-06	52.258	0.00028953	0.00025285	7.2722e-05	1335.4	2.8131e-06	2.7927e-06	1336.2	362.66	2.6943e-06	2.6158e-06	399.79	141.29	121.81	42.996	2.5581e-06	53.414	275.882	45.127	45.554	-32.171	135.929	85.304	-32.046	-27.200	192.164	100.114	-27.501	-23.415	-22.650	-18.570	148.611	-19.285	-8191	255	
16872.562	1	1	0	0	0.23951	0.10717	0.043023	0.12045	0.23305	0.12708	0.024301	0.12707	0.11699	0.15386	0.20206	0.092847	0.13905	0.16601	0.13591	0.37633	-2.0438	-2.8104	-2.5229	-2.6042	-2.6542	-2.3417	-2.675	-2.8063	-2.3812	-2.8146	-2.7271	-2.5187	-2.9792	-2.5333	-2.55	-2.9021	212.142	254.354	148.089	281.668	157.642	49.668	82.347	256.082	189.206	44.799	82.130	234.888	34.074	-44.208	55.982	-17.209	0.00028308	0.00039716	9.7694e-05	1320.5	5.6074e-06	2.6309e-06	1325.1	359.16	3.2349e-06	5.1029e-06	416.15	140.11	120.92	42.774	7.0124e-06	52.904	0.00026767	0.0002197	6.1662e-05	1336.2	2.5224e-06	2.3971e-06	1338	364.07	2.4843e-06	2.2439e-06	399.36	142.93	122.97	43.734	2.3107e-06	54.039	281.402	42.932	46.832	-32.037	125.028	108.470	-31.911	-27.297	151.976	75.091	-28.062	-23.557	-22.793	-18.235	121.505	-19.230	-8191	255	
16872.660	1	1	0	0	0.21956	0.037639	0.1274	0.22653	0.39028	0.16884	0.14004	0.22092	0.1879	0.022415	0.1609	0.11933	0.20999	0.14262	0.39423	0.32044	-2.0812	-2.5438	-2.575	-2.6646	-2.725	-2.5833	-2.7	-2.9167	-2.5542	-2.8083	-2.5979	-2.4583	-2.9271	-2.6396	-2.5417	-2.6854	-4.776	11.065	2.009	298.334	-11.014	213.153	137.098	196.892	182.965	158.472	-0.694	22.208	223.573	115.238	228.474	256.975	0.00032113	0.00063526	0.00012237	1324.6	5.9996e-06	4.8623e-06	1330	360.63	2.6173e-06	4.4409e-06	416.42	141.51	121.73	43.071	6.3948e-06	53.48	0.00025805	0.00020686	5.6716e-05	1338.6	2.417e-06	2.378e-06	1343	366.16	2.5437e-06	2.313e-06	402.18	144.02	124.1	44.037	2.3059e-06	54.505	270.769	52.366	32.192	-32.016	118.306	80.139	-32.080	-27.348	136.214	111.791	-27.685	-23.417	-22.605	-18.488	93.033	-19.406	-8191	255	
16872.779	1	1	0	0	0.10854	0.28059	0.25627	0.16867	0.3156	0.23839	0.3999	0.18071	0.2335	0.11104	0.27339	0.14941	0.059402	0.21872	0.083816	0.18629	-1.95	-2.4604	-2.5333	-2.4708	-2.7958	-2.4875	-2.5396	-2.8479	-2.5583	-2.6354	-2.7188	-2.5187	-2.7271	-2.6542	-2.5292	-2.875	162.544	-10.592	-37.986	262.136	105.502	14.403	273.092	221.695	161.687	136.898	205.869	57.878	166.992	290.721	-4.038	251.754	0.00028824	0.00051673	0.00013433	1331.3	4.0401e-06	3.8635e-06	1338.3	364.82	3.4582e-06	4.0853e-06	420.07	142.1	122.51	43.358	6.1506e-06	53.565	0.00026429	0.00021343	5.8552e-05	1348.7	2.4938e-06	2.3729e-06	1350.9	369.03	2.5146e-06	2.3661e-06	402.6	144.97	124.83	44.418	2.3787e-06	54.82	268.400	47.634	46.983	-32.132	89.695	72.480	-32.019	-27.244	160.437	92.311	-27.734	-23.471	-22.623	-18.579	103.969	-19.242	-8191	255	
16872.875	1	1	0	0	0.108	0.026614	0.075311	0.27798	0.18329	0.18367	0.096041	0.27629	0.24764	0.12952	0.11801	0.10877	0.22142	0.16929	0.091557	0.14998	-1.9208	-2.6063	-2.5375	-2.7	-2.8167	-2.6146	-2.5521	-2.9583	-2.5021	-2.5875	-2.5083	-2.4042	-2.6063	-2.6667	-2.5396	-2.7854	166.136	236.201	8.677	310.265	21.322	82.850	-6.881	265.987	194.345	-13.817	267.440	8.478	-44.276	223.131	252.095	222.360	0.00029131	0.00052909	0.00013216	1337.5	6.3275e-06	4.2508e-06	1343.9	363.97	3.4347e-06	4.4947e-06	417.76	144.1	124.1	43.765	4.4689e-06	54.436	0.00026215	0.00020736	5.7609e-05	1350.5	2.4404e-06	2.2406e-06	1354.5	369.81	2.4111e-06	2.2559e-06	404.04	146.15	126.19	44.862	2.3205e-06	55.427	274.316	39.400	50.501	-31.998	125.808	97.698	-31.973	-27.197	190.087	115.158	-27.517	-23.542	-22.625	-18.511	113.735	-19.373	-8191	255	
16872.947	1	1	0	0	0.19681	0.259	0.14415	0.29696	0.17775	0.064388	0.26736	0.2878	0.31035	0.17695	0.14781	0.053187	0.12748	0.13015	0.090046	0.15538	-2.0812	-2.3208	-2.5458	-2.5104	-2.6104	-2.5687	-2.5187	-2.9188	-2.5687	-2.55	-2.7938	-2.5792	-2.6125	-2.7313	-2.525	-2.8542	-17.031	125.876	76.412	-34.966	78.765	44.061	302.766	260.442	228.689	75.329	207.735	123.376	24.652	223.834	-0.619	197.173	0.00032108	0.00061215	0.00013849	1338.5	1.8811e-06	3.9814e-06	1345.5	366.87	3.4516e-06	2.1635e-06	422.22	144.64	124.61	44.473	4.5125e-06	54.742	0.00025303	0.00019971	5.4476e-05	1355	2.3367e-06	2.1583e-06	1357.3	372.36	2.371e-06	2.0723e-06	407.08	147.2	126.96	45.406	2.3052e-06	55.851	276.744	49.058	41.592	-31.948	125.463	94.671	-32.148	-27.210	136.498	105.501	-28.201	-23.552	-22.645	-18.656	126.639	-19.591	-8191	255	
16873.066	1	1	0	0	0.19221	0.11844	0.1387	0.18846	0.26452	0.089275	0.074999	0.17179	0.10765	0.14262	0.10996	0.38209	0.22947	0.12086	0.15565	0.22723	-2.1813	-2.3583	-2.8375	-2.6063	-2.7604	-2.6688	-2.5375	-2.7667	-2.4562	-2.5292	-2.7167	-2.4813	-2.5729	-2.8479	-2.2875	-2.6271	-34.624	39.008	146.455	261.164	79.600	-2.511	101.579	257.388	15.135	-39.599	186.475	238.443	256.336	38.406	86.654	169.741	0.00031319	0.0004405	0.00020426	1340.8	5.2232e-06	4.6236e-06	1351.5	368.21	3.8819e-06	3.8832e-06	431.08	144.98	125.42	44.426	4.1759e-06	54.865	0.00024708	0.00019476	5.4927e-05	1356.4	2.3348e-06	2.1375e-06	1363.5	373.71	2.305e-06	2.1523e-06	409.36	147.66	127.48	45.499	2.2864e-06	55.968	274.232	63.604	48.677	-32.212	121.535	101.154	-32.060	-27.224	148.537	91.001	-27.879	-23.656	-22.738	-18.698	133.074	-19.349	-8191	255	
16873.162	1	1	0	0	0.34905	0.23753	0.049104	0.19364	0.24455	0.28465	0.22607	0.13621	0.071621	0.32381	0.22664	0.29898	0.13426	0.21658	0.13001	0.059855	-1.9146	-2.4917	-2.3917	-2.5771	-2.6333	-2.8167	-2.6333	-2.9958	-2.5979	-2.3438	-2.625	-2.4938	-2.4958	-2.7667	-2.1479	-2.6896	114.930	42.950	-27.544	266.917	38.967	-43.904	202.380	236.138	78.257	-0.797	207.418	169.844	-30.395	-6.684	136.516	200.813	0.00030055	0.00045943	0.00012952	1343.6	2.537e-06	4.4485e-06	1347.4	368.44	4.3843e-06	4.4749e-06	426.34	144.8	125.29	44.443	5.7708e-06	54.84	0.0002478	0.00019617	5.4683e-05	1359.5	2.1988e-06	2.1579e-06	1362.8	373.95	2.3635e-06	2.1697e-06	409.61	147.35	127.3	45.432	2.3448e-06	55.83	272.189	52.449	70.358	-32.053	126.022	102.582	-32.019	-27.230	140.961	128.082	-27.567	-23.509	-22.395	-18.906	109.532	-19.633	-8191	255	
16873.260	1	1	0	0	0.1843	0.14491	0.17561	0.3097	0.052041	0.023823	0.28839	0.38	0.15649	0.13612	0.28801	0.34678	0.083918	0.18105	0.20349	0.21708	-2.1562	-2.2833	-2.7479	-2.5646	-2.5563	-2.6688	-2.6104	-2.8063	-2.7646	-2.4271	-2.7104	-2.5604	-2.7042	-2.8937	-2.4562	-2.6667	203.986	239.960	115.073	238.608	214.191	276.841	312.214	274.782	222.528	32.453	10.318	301.735	244.801	69.115	159.121	223.140	0.00033835	0.00046533	0.00011271	1344.8	5.7995e-06	4.132e-06	1349.1	367.46	3.0624e-06	3.3555e-06	422.73	144.46	125.49	44.292	6.2363e-06	54.622	0.00023476	0.00020675	5.5575e-05	1358.3	2.2828e-06	2.2082e-06	1363.6	373.3	2.2973e-06	2.1877e-06	409.22	147.54	127.46	45.415	2.3324e-06	55.778	279.961	59.176	72.811	-32.081	119.098	97.735	-32.126	-27.453	143.922	121.336	-27.874	-23.369	-22.667	-18.729	107.188	-19.388	-8191	255	
16873.381	1	1	0	0	0.21	0.083031	0.088059	0.24668	0.070145	0.033256	0.1914	0.39144	0.25172	0.062723	0.1341	0.26887	0.24159	0.19028	0.10341	0.41474	-2.25	-2.1833	-2.7479	-2.7562	-2.5667	-2.7583	-2.6354	-2.6646	-2.6646	-2.3771	-2.6604	-2.7708	-2.4458	-2.7271	-2.5125	-2.7896	279.462	35.068	129.456	-32.881	266.779	238.601	274.993	281.684	283.405	40.154	77.867	1.601	230.349	301.998	6.132	275.670	0.00033482	0.00057729	0.00012346	1344.8	5.2069e-06	3.2176e-06	1352.7	367.33	3.5678e-06	5.0446e-06	422.82	144.75	124.69	44.152	6.3748e-06	54.386	0.00024068	0.00020251	5.5511e-05	1359.3	2.3942e-06	2.1775e-06	1362.4	372.75	2.3365e-06	2.2108e-06	408.55	147.16	126.87	45.222	2.3061e-06	55.513	270.650	39.942	44.988	-32.133	118.520	116.851	-32.079	-27.299	159.456	129.992	-27.280	-23.502	-22.661	-18.662	101.391	-19.284	-8191	255	
16873.475	1	1	0	0	0.054801	0.12186	0.313	0.25662	0.087333	0.084888	0.17372	0.21529	0.098608	0.1762	0.11296	0.14404	0.057315	0.10684	0.061111	0.25528	-2.2542	-2.4562	-2.5708	-2.5604	-2.4833	-2.8625	-2.6458	-2.6354	-2.6833	-2.3104	-2.8042	-2.8	-2.5833	-2.7396	-2.4083	-2.3688	247.837	-12.719	196.451	278.405	48.169	-40.443	167.191	272.255	-42.768	183.630	178.493	146.941	123.018	289.749	271.458	303.155	0.00030143	0.00048614	0.0001585	1340.7	6.2196e-06	4.6409e-06	1349.3	367.2	2.5252e-06	4.5658e-06	423.59	144.22	124.38	43.987	4.6813e-06	54.493	0.00024874	0.00021304	5.6035e-05	1357.8	2.4251e-06	2.1804e-06	1361.1	372.46	2.4284e-06	2.295e-06	406.34	146.95	126.54	45.082	2.2965e-06	55.438	278.877	29.804	47.232	-32.011	116.431	86.939	-32.056	-27.308	134.701	109.925	-27.479	-23.628	-22.636	-18.658	115.762	-19.480	-8191	255	
16873.549	1	1	0	0	0.14841	0.17974	0.19372	0.31466	0.16406	0.16064	0.25398	0.37199	0.15707	0.14116	0.22157	0.10028	0.17752	0.21151	0.21083	0.094385	-2.3958	-2.4333	-2.5458	-2.7792	-2.3625	-2.7438	-2.6437	-2.65	-2.6833	-2.3021	-2.5896	-2.5896	-2.3542	-2.8042	-2.5417	-2.5375	128.463	209.975	279.670	247.521	-12.861	80.159	265.091	262.862	76.289	-36.816	207.150	179.890	14.383	282.280	48.707	280.789	0.00032645	0.00039588	0.00014837	1346.5	5.8628e-06	4.0332e-06	1347.4	367.49	3.5745e-06	4.0349e-06	425.05	144.39	124.64	44.203	4.7519e-06	54.291	0.00025254	0.00021247	5.5194e-05	1357.8	2.4662e-06	2.2333e-06	1361.5	372.25	2.4272e-06	2.2261e-06	409.09	146.99	127.07	45.181	2.2676e-06	55.431	273.616	36.668	50.175	-32.154	111.567	96.652	-32.146	-27.284	150.156	118.322	-27.415	-23.553	-22.729	-18.471	128.074	-19.620	-8191	255	
16873.645	1	1	0	0	0.15643	0.14481	0.1044	0.10998	0.15867	0.31943	0.28289	0.38999	0.14393	0.34215	0.19291	0.11929	0.13041	0.14705	0.16298	0.21897	-2.2354	-2.4521	-2.6521	-2.7313	-2.4833	-2.6917	-2.7	-2.7271	-2.7542	-2.3979	-2.5687	-2.7333	-2.5708	-2.7042	-2.55	-2.5875	31.713	155.610	-27.884	257.810	227.022	4.752	298.823	291.676	291.321	62.589	271.388	-28.216	-30.632	260.945	280.097	201.802	0.000282	0.0005211	0.00011312	1340.6	4.3419e-06	6.701e-06	1349.3	367.6	4.9394e-06	4.0342e-06	423.01	144.26	125.37	44.18	5.0682e-06	54.388	0.00024806	0.00020025	5.5051e-05	1357	2.3951e-06	2.1928e-06	1361.9	372.67	2.293e-06	2.2308e-06	408.47	147.12	126.94	45.203	2.193e-06	55.584	276.382	41.318	46.352	-32.103	128.325	98.498	-31.980	-27.165	158.470	103.459	-27.610	-23.514	-22.425	-18.718	91.345	-19.227	-8191	255	
16873.764	1	1	0	0	0.1737	0.23309	0.25587	0.020422	0.16127	0.12209	0.42789	0.12292	0.20694	0.11367	0.049868	0.2458	0.07562	0.12734	0.031035	0.11157	-2.1021	-2.4396	-2.6479	-2.8271	-2.4667	-2.8063	-2.8063	-2.7354	-2.7188	-2.4958	-2.4938	-2.8167	-2.6021	-2.6604	-2.6667	-2.6646	150.521	206.715	272.831	267.441	239.479	144.505	249.246	307.541	197.523	248.458	225.394	284.315	105.174	-18.375	91.938	308.253	0.00026126	0.00044919	9.6388e-05	1341.1	5.1881e-06	5.6148e-06	1347.8	368.47	3.9462e-06	3.7805e-06	424.1	144.78	124.65	44.429	4.5008e-06	54.472	0.00024143	0.00019706	5.3611e-05	1357.9	2.3511e-06	2.1334e-06	1361.4	373.09	2.2561e-06	2.1454e-06	407.63	147.44	127.09	45.307	2.2569e-06	55.635	276.324	51.148	52.519	-32.099	128.734	108.727	-31.927	-27.336	144.940	95.285	-27.461	-23.637	-22.595	-18.693	131.988	-19.313	-8191	255	
16873.859	1	1	0	0	0.1451	0.22442	0.12621	0.21681	0.13453	0.056829	0.25975	0.17118	0.10325	0.095551	0.17004	0.093664	0.32735	0.25629	0.061047	0.10777	-2.2729	-2.6417	-2.3854	-2.7458	-2.3958	-2.5375	-2.5729	-2.4833	-2.7396	-2.4479	-2.7125	-2.9479	-2.2958	-2.8021	-2.6125	-2.5958	254.815	267.583	227.594	222.426	48.531	17.918	212.287	211.842	-14.032	244.843	241.298	-43.143	-39.237	261.079	167.338	217.467	0.0003316	0.00041955	0.00017536	1342.7	3.4386e-06	4.377e-06	1349.8	367.6	2.7933e-06	3.7308e-06	423.99	144.79	124.53	44.118	3.2547e-06	54.015	0.00024421	0.00019095	5.3409e-05	1357.1	2.3531e-06	2.0706e-06	1361.4	372.34	2.2834e-06	2.1121e-06	407.3	146.99	126.55	45.184	2.3027e-06	55.363	276.908	62.498	45.382	-31.988	123.440	87.678	-32.080	-27.148	126.615	108.532	-28.318	-23.281	-22.582	-18.783	120.509	-19.457	-8191	255	
16873.955	1	1	0	0	0.089402	0.0071692	0.057251	0.17565	0.10129	0.22322	0.31082	0.4465	0.28349	0.1334	0.15153	0.26758	0.26986	0.047046	0.11702	0.069037	-2.2938	-2.5938	-2.6021	-2.8438	-2.4542	-2.5479	-2.9729	-2.65	-2.7604	-2.6042	-2.5667	-2.7958	-2.5187	-2.7104	-2.7792	-2.5667	95.483	26.299	189.353	217.774	141.464	40.906	232.223	285.108	122.041	287.620	-13.558	271.841	298.067	313.304	291.031	159.097	0.00029142	0.00056067	0.00012484	1341.6	2.8319e-06	4.608e-06	1346.7	367.2	4.5304e-06	2.6371e-06	422.07	143.73	124.9	44.167	4.0962e-06	54.342	0.00024688	0.0001947	5.7061e-05	1355.1	2.3237e-06	2.1473e-06	1358.8	372	2.2773e-06	2.1561e-06	407.45	146.66	126.76	45.115	2.2993e-06	55.358	281.146	37.670	18.869	-31.934	127.926	101.849	-32.052	-27.243	176.649	130.291	-27.536	-23.436	-22.709	-18.728	125.608	-19.491	-8191	255	
16874.053	1	1	0	0	0.13672	0.32002	0.18094	0.15007	0.135	0.1183	0.15489	0.22671	0.070358	0.23258	0.031914	0.12658	0.20201	0.12662	0.070263	0.1384	-2.0271	-2.3042	-2.4625	-2.9917	-2.65	-2.6208	-2.975	-2.3979	-2.5146	-2.7229	-2.4875	-2.6333	-2.5667	-2.6729	-2.7583	-2.4854	-27.739	174.234	69.391	267.874	-28.717	289.828	31.264	309.729	265.959	108.478	96.499	139.463	280.724	-33.706	162.542	150.404	0.00033996	0.00059333	0.00013295	1342.5	5.5e-06	4.3319e-06	1346.3	367.79	2.6095e-06	2.3611e-06	426.37	144.12	124.66	43.898	4.4069e-06	54.397	0.00024257	0.00020059	5.6275e-05	1355.4	2.2754e-06	2.1639e-06	1359.7	372.47	2.1995e-06	2.1601e-06	407.85	146.78	126.55	45.13	2.2498e-06	55.456	271.903	54.400	36.175	-32.144	124.267	92.306	-31.949	-27.438	116.363	91.112	-27.493	-23.627	-22.689	-18.683	113.929	-19.449	-8191	255	
16874.172	1	1	0	0	0.17987	0.18329	0.067989	0.055014	0.13518	0.045881	0.25028	0.30431	0.094452	0.085205	0.10799	0.17017	0.14638	0.040604	0.13335	0.19516	-2.1875	-2.5396	-2.3896	-2.9188	-2.4458	-2.4646	-2.9042	-2.4271	-2.6792	-2.6271	-2.5208	-2.8104	-2.5896	-2.625	-2.7396	-2.4083	45.651	305.923	245.515	215.796	258.841	91.177	246.275	231.939	69.784	204.036	204.912	272.775	304.305	295.202	205.265	-37.824	0.00033476	0.00047818	0.00013244	1342.5	4.995e-06	4.0841e-06	1345.2	366.46	2.8689e-06	4.6022e-06	418.74	144.56	124.76	44.023	4.3855e-06	54.476	0.00023845	0.00020251	5.5907e-05	1357.4	2.3151e-06	2.201e-06	1359.1	372.21	2.2757e-06	2.2161e-06	406.85	146.83	126.57	45.083	2.2233e-06	55.506	271.268	46.059	39.799	-32.032	110.523	91.778	-32.036	-27.118	168.082	117.485	-27.391	-23.545	-22.832	-18.756	133.329	-19.182	-8191	255	
16874.244	1	1	0	0	0.084266	0.086497	0.10963	0.30438	0.10576	0.093464	0.44867	0.078244	0.27642	0.29428	0.082763	0.11952	0.10474	0.026541	0.20083	0.23363	-2.0938	-2.5542	-2.3104	-2.7771	-2.6083	-2.5604	-3.0667	-2.6917	-2.5854	-2.5542	-2.4896	-2.8458	-2.6333	-2.6125	-2.95	-2.7271	295.807	284.367	119.468	264.520	128.696	121.394	301.821	213.225	-8.008	-25.539	147.891	258.440	251.774	263.959	133.733	212.654	0.00029944	0.00051738	0.00012379	1341.3	7.8939e-06	3.3038e-06	1347.5	367.46	4.7847e-06	3.9246e-06	428.82	144.33	124.5	44.154	7.0704e-06	54.267	0.00023974	0.00020138	5.6615e-05	1357	2.3051e-06	2.1662e-06	1360	372.49	2.3335e-06	2.1472e-06	410.16	146.98	126.67	45.176	2.2283e-06	55.504	280.845	49.145	43.989	-32.117	131.243	95.586	-32.020	-27.139	158.869	128.075	-28.070	-23.437	-22.488	-18.591	103.012	-19.545	-8191	255	
16874.340	1	1	0	0	0.11615	0.054653	0.082458	0.4288	0.27121	0.058382	0.32755	0.4525	0.12322	0.12746	0.042838	0.13214	0.17118	0.1298	0.19095	0.24089	-2.1708	-2.7146	-2.5375	-2.9458	-2.6667	-2.5042	-3.0042	-2.6479	-2.5833	-2.7792	-2.4979	-2.7042	-2.8229	-2.5229	-2.575	-2.6271	309.766	304.862	143.676	313.472	280.285	104.960	-36.755	277.335	25.055	246.984	226.841	162.576	302.813	105.642	255.432	243.104	0.00034	0.00039545	0.00013287	1344.6	8.313e-06	4.5434e-06	1350.6	368.05	5.0182e-06	2.9666e-06	419.91	144.33	124.48	44.229	6.7881e-06	54.477	0.00024303	0.0001935	5.448e-05	1356.7	2.2761e-06	2.1326e-06	1360.6	372.79	2.2934e-06	2.1297e-06	405.83	146.93	126.83	45.186	2.1209e-06	55.552	275.727	37.835	64.281	-32.092	134.228	102.271	-31.968	-27.249	147.896	94.847	-27.640	-23.585	-22.486	-18.432	108.976	-19.331	-8191	255	
16874.461	1	1	0	0	0.24145	0.094442	0.17826	0.33317	0.29282	0.046999	0.14819	0.25564	0.056806	0.20784	0.052365	0.28853	0.13528	0.16505	0.12543	0.18135	-2.0167	-2.875	-2.2917	-2.8146	-2.7188	-2.4458	-2.7771	-2.7021	-2.7	-2.7938	-2.5958	-2.7354	-2.6458	-2.4417	-2.6375	-2.5604	62.739	194.341	124.447	-41.017	142.228	118.176	168.419	276.185	260.149	244.277	146.666	268.452	232.130	262.974	3.258	150.492	0.00032529	0.0004473	0.00011127	1341.3	5.6354e-06	3.5414e-06	1345.2	366.09	4.1244e-06	5.1509e-06	419.42	144.55	124.51	44.223	6.8898e-06	54.465	0.00024495	0.00019201	5.4099e-05	1355.4	2.3032e-06	2.0448e-06	1358.8	371.75	2.2867e-06	2.0975e-06	406.79	147.24	126.8	45.189	2.0854e-06	55.601	280.238	19.862	36.878	-31.918	157.302	94.460	-32.046	-27.205	123.002	113.874	-27.951	-23.472	-22.742	-18.642	130.244	-19.386	-8191	255	
16874.555	1	1	0	0	0.24375	0.041454	0.076245	0.38419	0.19209	0.1682	0.31266	0.38778	0.14369	0.11624	0.19814	0.11933	0.37836	0.34299	0.13577	0.17909	-2.0687	-2.5521	-2.325	-2.6833	-2.7958	-2.4396	-2.8104	-2.8021	-2.4188	-2.7104	-2.4479	-2.6771	-2.7854	-2.3708	-2.5708	-2.5438	256.416	131.798	177.447	236.463	304.746	126.796	247.591	280.978	306.076	61.285	56.928	174.789	271.605	310.783	10.288	263.216	0.00029912	0.00064494	0.00013259	1340.2	8.9822e-06	4.1254e-06	1346.8	368.28	4.2321e-06	5.1858e-06	425.65	144.71	125.25	44.162	3.6775e-06	54.579	0.00024167	0.00019426	5.1591e-05	1355.9	2.2373e-06	2.0414e-06	1358.3	372.52	2.2522e-06	2.0156e-06	405.48	147.19	127.07	45.269	2.0671e-06	55.697	262.040	53.908	42.175	-32.220	107.419	96.967	-31.963	-27.277	186.252	101.307	-28.776	-23.561	-22.501	-18.617	113.147	-19.657	-8191	255	
16874.650	1	1	0	0	0.2211	0.39051	0.19729	0.119	0.078016	0.24256	0.39825	0.13078	0.056621	0.096293	0.055443	0.36313	0.32626	0.10001	0.094152	0.33991	-1.9708	-2.7479	-2.5854	-2.5208	-2.6042	-2.5479	-2.9229	-2.5708	-2.4708	-2.7521	-2.5375	-2.65	-2.8646	-2.5104	-2.6208	-2.6458	65.809	312.594	38.277	208.499	191.319	291.036	288.103	295.848	163.447	210.688	309.620	293.793	305.709	130.105	254.377	258.634	0.00032097	0.00049602	0.00012729	1339.9	3.7792e-06	2.8209e-06	1348.2	367.46	3.8822e-06	4.6409e-06	420.29	144.56	125.02	44.405	5.976e-06	54.641	0.00023945	0.0001846	5.0961e-05	1354.5	2.1821e-06	2.0318e-06	1360.1	372.63	2.1972e-06	1.9188e-06	407.11	147.32	127.17	45.432	2.1022e-06	55.72	272.676	49.714	56.199	-31.993	108.474	98.653	-32.055	-27.202	169.501	122.855	-28.470	-23.494	-22.845	-18.708	103.745	-19.633	-8191	255	
16874.746	1	1	0	0	0.2321	0.1464	0.22474	0.26733	0.059787	0.13895	0.22192	0.16516	0.38736	0.35777	0.17929	0.30714	0.051294	0.10887	0.083971	0.124	-1.8542	-2.6875	-2.5271	-2.5438	-2.7812	-2.4292	-3.0146	-2.7542	-2.4208	-2.8812	-2.525	-2.625	-2.7562	-2.6104	-2.5	-2.7375	105.070	278.612	300.192	260.589	312.822	-39.987	255.029	256.841	151.043	131.549	150.265	177.535	-27.728	139.440	71.304	-41.724	0.000297	0.00064994	0.00014557	1340.1	7.4347e-06	5.7978e-06	1344.7	367.2	3.4305e-06	4.5101e-06	423.94	144.78	125.38	44.395	7.4999e-06	54.609	0.00023936	0.00018017	5.1315e-05	1354.9	2.1345e-06	1.9478e-06	1359.4	372.45	2.2228e-06	1.8967e-06	408.14	147.26	127.28	45.414	2.0923e-06	55.704	274.064	45.867	51.209	-32.156	133.043	101.868	-31.975	-27.370	185.951	125.055	-28.222	-23.476	-22.865	-18.655	143.911	-19.619	-8191	255	
16874.844	1	1	0	0	0.18943	0.12494	0.14116	0.16117	0.11015	0.10967	0.33516	0.29648	0.13474	0.073901	0.1099	0.1763	0.19509	0.094537	0.090037	0.28166	-1.8646	-2.6562	-2.6833	-2.6229	-2.7417	-2.4271	-2.8875	-2.8708	-2.4917	-2.6792	-2.5771	-2.4375	-2.6833	-2.6562	-2.5042	-2.7729	51.451	247.224	233.264	177.552	232.992	267.795	275.204	302.703	-18.075	67.047	230.133	209.071	240.007	-35.297	15.959	170.744	0.00032904	0.00067714	0.00015091	1340.1	4.9755e-06	5.1126e-06	1351.1	366.54	3.3746e-06	4.0222e-06	424.46	144.47	124.64	44.277	6.0646e-06	54.593	0.00023024	0.00017785	5.2829e-05	1354.6	2.1245e-06	1.954e-06	1359.3	372.07	2.1943e-06	1.9376e-06	406.76	147.21	126.98	45.283	2.1606e-06	55.674	269.364	42.053	47.553	-31.968	112.264	100.113	-31.925	-27.074	139.587	121.116	-28.505	-23.530	-22.379	-18.863	110.633	-19.432	-8191	255	
16874.939	1	1	0	0	0.14591	0.055537	0.16852	0.14882	0.14513	0.13878	0.42526	0.11452	0.13325	0.10522	0.40315	0.10153	0.13488	0.11712	0.056095	0.050166	-1.8833	-2.6375	-2.675	-2.4854	-2.55	-2.4313	-2.5208	-2.6875	-2.5646	-2.5708	-2.7104	-2.6354	-2.8292	-2.775	-2.5438	-2.7313	105.696	191.979	289.144	-12.973	29.680	232.608	251.187	152.041	-7.671	75.659	149.396	202.927	141.605	92.834	59.407	-18.211	0.00033527	0.00054938	0.00015194	1334.2	4.8014e-06	4.6298e-06	1344.3	366.4	3.6273e-06	3.5876e-06	421.08	144.11	124.66	44.289	5.5436e-06	54.359	0.00023164	0.00018034	5.1711e-05	1351.3	2.1188e-06	2.0279e-06	1357	371.86	2.1112e-06	1.9587e-06	405.54	147.1	126.91	45.28	2.0983e-06	55.639	279.819	59.327	27.814	-32.098	119.214	98.603	-31.906	-27.224	161.025	96.619	-28.358	-23.534	-22.715	-18.797	142.322	-19.429	-8191	255	
16875.061	1	1	0	0	0.1098	0.17393	0.35889	0.083791	0.17255	0.175	0.14256	0.20748	0.14888	0.22974	0.3138	0.089933	0.26498	0.13601	0.27335	0.32614	-1.8021	-2.7104	-2.6937	-2.6125	-2.7521	-2.475	-2.7646	-2.75	-2.3563	-2.6708	-2.6833	-2.5938	-2.8083	-2.4958	-2.3875	-2.9313	36.051	67.623	93.901	71.259	266.654	202.784	25.587	264.324	253.289	29.319	17.139	271.718	266.424	-43.769	246.191	244.690	0.00033533	0.00058824	0.00013707	1335.3	7.1493e-06	4.0777e-06	1342.4	366.56	2.9266e-06	4.8647e-06	422.42	144.88	125.25	44.435	6.4324e-06	54.62	0.00023226	0.00018212	5.2686e-05	1350.7	2.0577e-06	2.0534e-06	1357.5	371.79	2.0739e-06	2.0065e-06	405.39	147.39	127.12	45.449	2.1095e-06	55.756	273.142	30.902	20.188	-31.951	132.200	105.726	-32.005	-27.264	181.871	109.606	-27.552	-23.524	-22.755	-18.699	123.566	-19.226	-8191	255	
16875.156	1	1	0	0	0.26163	0.097213	0.14138	0.11145	0.21562	0.055721	0.2751	0.22501	0.11728	0.10524	0.15119	0.3793	0.30022	0.027321	0.29455	0.28703	-2.0583	-2.4896	-2.7333	-2.6167	-2.4979	-2.5687	-2.6688	-2.5229	-2.4833	-2.6396	-2.8854	-2.4604	-2.6979	-2.7146	-2.4688	-2.6896	135.523	123.815	156.736	242.812	11.242	74.340	267.024	270.190	206.528	226.810	189.082	23.573	28.542	219.383	106.976	304.874	0.00031696	0.00057105	0.00010696	1336.5	5.3337e-06	4.17e-06	1344.5	367.18	4.0129e-06	4.3295e-06	423.1	145.22	125.11	44.775	5.8348e-06	54.997	0.00022838	0.00018034	5.0998e-05	1351.5	2.1259e-06	1.9847e-06	1357.9	372.09	2.106e-06	2.0052e-06	407.41	148.01	127.39	45.673	2.0401e-06	56.059	268.551	51.324	30.553	-32.025	132.138	99.214	-32.030	-27.165	184.563	116.184	-27.896	-23.784	-22.657	-18.763	143.401	-19.372	-8191	255	
16875.254	1	1	0	0	0.060495	0.20879	0.08587	0.14909	0.21488	0.053579	0.3421	0.29194	0.14326	0.119	0.30951	0.096811	0.25002	0.14141	0.077422	0.15552	-2.1104	-2.6458	-2.6937	-2.6979	-2.5604	-2.4729	-2.6833	-2.8563	-2.5312	-2.5333	-2.6875	-2.4958	-2.75	-2.7771	-2.4292	-2.7271	152.298	243.223	70.312	162.236	72.457	277.235	305.993	253.350	62.932	-1.406	55.073	-17.165	276.329	313.313	310.681	269.630	0.00031491	0.00035232	0.00016393	1336	7.0807e-06	3.6045e-06	1345.7	367.11	4.6259e-06	3.6391e-06	422.7	145.23	125.48	44.582	5.3712e-06	54.588	0.00022705	0.00017823	4.8375e-05	1351.6	2.0969e-06	1.8956e-06	1356.4	372.48	2.1387e-06	1.9857e-06	406.11	147.9	127.64	45.609	2.0475e-06	55.922	272.005	34.225	50.532	-32.115	115.524	128.245	-32.023	-27.532	170.912	107.025	-27.570	-23.311	-22.713	-18.777	108.438	-19.568	-8191	255	
16875.350	1	1	0	0	0.2898	0.24338	0.041756	0.059707	0.086241	0.20394	0.068844	0.22175	0.12713	0.26313	0.19671	0.1666	0.2576	0.061925	0.11815	0.16623	-2.1083	-2.3458	-2.8146	-2.5271	-2.4896	-2.6375	-2.6042	-2.7396	-2.6562	-2.5875	-2.7188	-2.6625	-2.8354	-2.6729	-2.2875	-2.6833	257.458	295.959	-19.977	148.588	80.629	207.667	158.838	-24.069	300.926	225.096	278.238	275.956	268.467	235.416	184.750	278.376	0.00029947	0.00036298	0.00014611	1336.2	5.6607e-06	5.9259e-06	1347.4	367.78	3.0228e-06	4.6657e-06	425.31	145.4	125.08	44.576	5.657e-06	54.607	0.00023068	0.00017628	4.7791e-05	1352.1	2.0909e-06	1.9258e-06	1357.5	372.15	2.1624e-06	1.9745e-06	406.35	147.81	127.34	45.614	1.9222e-06	55.83	275.994	37.153	58.354	-32.079	128.019	102.354	-32.066	-27.143	183.685	94.454	-28.079	-23.662	-22.677	-18.716	112.274	-19.485	-8191	255	
16875.445	1	1	0	0	0.32722	0.22355	0.12878	0.31388	0.15556	0.17356	0.22245	0.22512	0.16812	0.15463	0.15827	0.26823	0.20452	0.12926	0.34549	0.060743	-2.1437	-2.4458	-2.4958	-2.6708	-2.6042	-2.6083	-2.4813	-2.8854	-2.5854	-2.4688	-2.7083	-2.625	-2.6292	-2.9771	-2.4813	-2.6875	148.483	51.907	115.053	275.972	137.046	310.205	239.804	246.745	24.694	11.336	39.823	217.492	2.836	36.836	249.966	183.548	0.00033592	0.00076165	0.00016426	1339.1	6.3618e-06	5.7432e-06	1341.9	365.33	2.8436e-06	4.4716e-06	423.7	145.08	124.8	44.447	5.3246e-06	54.681	0.00023085	0.00018222	4.6503e-05	1352.7	2.1036e-06	1.9583e-06	1355.7	371.57	2.1654e-06	1.9234e-06	406.44	147.55	127.11	45.469	2.0308e-06	55.781	270.219	31.818	47.465	-32.238	134.365	100.599	-31.902	-27.250	161.661	110.548	-27.954	-23.776	-22.611	-18.751	123.107	-19.468	-8191	255	
16875.541	1	1	0	0	0.31569	0.21988	0.24308	0.078746	0.12763	0.27256	0.25751	0.15681	0.33451	0.13682	0.12002	0.092762	0.15823	0.32261	0.29879	0.15025	-2.2521	-2.4146	-2.6813	-2.7562	-2.4604	-2.8604	-2.675	-2.7542	-2.7979	-2.5854	-2.7313	-2.6875	-2.8625	-2.8854	-2.5458	-2.8646	222.214	-44.950	122.751	3.753	7.446	65.910	226.020	-43.456	149.225	2.034	108.753	-21.772	265.063	216.888	9.514	-9.224	0.00031188	0.00048539	0.00014184	1336.1	4.8448e-06	5.1986e-06	1344.2	366.52	3.6036e-06	3.965e-06	422.33	144.85	125.15	44.374	5.4184e-06	54.583	0.0002314	0.00018163	4.8638e-05	1352.2	2.2063e-06	1.896e-06	1356.2	372.08	2.1289e-06	1.9543e-06	404.9	147.56	127.38	45.533	1.9863e-06	55.881	270.895	28.640	53.487	-32.028	136.210	108.712	-31.920	-27.164	121.474	91.547	-27.031	-23.545	-22.750	-18.815	109.113	-19.524	-8191	255	
16875.635	1	1	0	0	0.18033	0.1811	0.23518	0.20779	0.04226	0.21026	0.36447	0.20609	0.087384	0.073954	0.13594	0.3161	0.17756	0.077243	0.18628	0.14634	-2.3	-2.4333	-2.7354	-2.8187	-2.4104	-2.7562	-2.5708	-2.6688	-2.6875	-2.4875	-2.7313	-2.7646	-2.6688	-2.8083	-2.5208	-2.6667	223.671	163.133	139.176	301.942	271.576	291.124	293.222	253.028	68.628	-15.047	18.176	204.185	6.794	248.520	203.257	183.317	0.00028883	0.00056119	0.00015116	1334.9	6.3842e-06	4.0476e-06	1344.7	366.41	2.2725e-06	3.6586e-06	417.4	145.04	125.01	44.329	6.1128e-06	54.615	0.00023018	0.00017772	4.9654e-05	1351.2	2.1334e-06	1.8769e-06	1356.3	371.49	2.109e-06	1.8959e-06	404.13	147.66	127.19	45.476	2.1289e-06	55.783	276.640	35.123	40.566	-32.181	144.254	112.987	-32.140	-27.213	165.159	102.976	-28.197	-23.467	-22.749	-18.828	110.934	-19.449	-8191	255	
16875.732	1	1	0	0	0.16189	0.065625	0.18189	0.096693	0.14511	0.093548	0.080746	0.15716	0.10421	0.22554	0.087275	0.24769	0.12219	0.16338	0.15479	0.18766	-2.3479	-2.4979	-2.7208	-2.7938	-2.4938	-2.8688	-2.6312	-2.6729	-2.7938	-2.5479	-2.7042	-2.875	-2.6063	-2.8375	-2.6792	-2.8063	239.520	200.057	109.480	129.996	237.215	182.624	-37.244	210.808	187.134	175.898	114.110	-40.654	150.455	-6.004	241.522	140.668	0.00032364	0.00038869	0.00017361	1337.3	6.4392e-06	5.1178e-06	1347	367.49	3.1588e-06	4.6786e-06	422.78	145.18	125.49	44.582	6.6503e-06	55.027	0.00023067	0.00017238	5.0717e-05	1352.2	2.1443e-06	1.8669e-06	1358.3	372.26	2.1387e-06	1.9492e-06	406.27	147.73	127.5	45.606	2.1063e-06	55.995	274.248	57.944	48.852	-32.144	116.000	110.461	-32.126	-27.157	163.940	108.319	-28.123	-23.542	-22.612	-18.683	125.295	-19.391	-8191	255	
16875.852	1	1	0	0	0.092429	0.14168	0.22814	0.17454	0.13431	0.16435	0.41082	0.38002	0.059765	0.25218	0.20627	0.10613	0.35418	0.21164	0.20672	0.15097	-2.3625	-2.4604	-2.7625	-2.825	-2.5458	-2.775	-2.7375	-2.4792	-2.7104	-2.3771	-2.6667	-2.8208	-2.4396	-2.7104	-2.8563	-2.7521	226.117	8.494	199.686	280.184	261.878	198.117	283.109	255.142	57.591	195.652	226.666	245.835	-33.327	-3.101	92.816	289.918	0.00035517	0.00049681	0.00013738	1336.6	9.257e-06	4.5837e-06	1344	368.31	5.7094e-06	5.2461e-06	425.87	146.09	125.9	44.877	6.1405e-06	55.188	0.00022479	0.00017972	5.0216e-05	1353.5	2.1169e-06	1.9394e-06	1358.6	372.7	2.0606e-06	1.9532e-06	408.83	148.62	127.98	45.867	2.06e-06	56.221	273.747	62.063	52.631	-32.049	147.024	90.957	-31.910	-27.254	159.062	95.032	-27.838	-23.674	-22.741	-18.538	127.043	-19.636	-8191	255	
16875.947	1	1	0	0	0.1489	0.12344	0.29237	0.32225	0.24157	0.23177	0.21739	0.10855	0.05548	0.19826	0.0826	0.24481	0.15175	0.037445	0.17312	0.051678	-2.1417	-2.5083	-2.6896	-2.8187	-2.4042	-2.7979	-3.0687	-2.5333	-2.8688	-2.6042	-2.6583	-2.8312	-2.4917	-2.8229	-2.5833	-2.6188	125.566	298.829	125.327	308.849	133.317	294.423	253.774	247.704	266.344	51.553	82.522	281.119	193.709	284.312	267.971	168.324	0.00031004	0.00045567	0.00014092	1338.2	6.3278e-06	6.0605e-06	1349.3	367.49	3.5458e-06	4.9675e-06	422.4	145.94	125.78	44.801	6.946e-06	55.014	0.00022271	0.00017736	5.046e-05	1354.7	2.0329e-06	1.9356e-06	1360.9	373.47	2.0375e-06	1.9888e-06	406.03	148.49	127.98	45.928	2.0449e-06	56.196	277.182	44.228	50.709	-31.984	121.701	98.930	-32.120	-27.259	145.469	126.735	-27.804	-23.381	-22.576	-18.817	119.390	-19.335	-8191	255	
16876.043	1	1	0	0	0.12643	0.23831	0.12679	0.065563	0.15595	0.19878	0.018847	0.16504	0.077014	0.15347	0.10503	0.037267	0.30918	0.10491	0.15204	0.2243	-2.2313	-2.4229	-2.4188	-2.9042	-2.35	-2.6917	-2.8333	-2.3917	-2.8729	-2.55	-2.5667	-2.6646	-2.5833	-2.8542	-2.6833	-2.6292	103.832	160.851	300.120	250.892	55.949	54.000	123.636	196.133	85.779	115.472	11.212	301.740	-43.404	-12.704	157.168	269.785	0.00031323	0.00055864	0.00015059	1340.5	6.4418e-06	3.931e-06	1346.7	368.91	2.961e-06	5.6003e-06	421.72	146.35	125.83	44.762	5.3492e-06	55.099	0.00022585	0.00018879	5.2093e-05	1356.6	2.1e-06	1.9556e-06	1359.7	373.63	2.1223e-06	2.0532e-06	407.29	148.53	128.17	45.833	2.117e-06	56.211	273.192	33.569	48.621	-32.083	139.755	98.342	-32.095	-27.162	160.303	102.165	-28.132	-23.604	-22.628	-18.902	117.181	-19.466	-8191	255	
16876.139	1	1	0	0	0.18007	0.21719	0.098696	0.19026	0.058841	0.22516	0.26927	0.25202	0.081609	0.16971	0.094652	0.21933	0.26875	0.064779	0.20181	0.18345	-2.3875	-2.5417	-2.5583	-2.9354	-2.6542	-2.8	-2.8438	-2.5292	-2.6854	-2.6729	-2.5271	-2.9688	-2.5438	-2.8063	-2.7313	-2.5312	21.336	296.788	282.145	281.075	46.086	-15.210	256.138	250.487	218.208	204.960	-31.068	281.419	-39.095	0.756	162.457	-22.082	0.00029024	0.0006336	0.00014514	1341.3	4.653e-06	5.1471e-06	1351.7	367.9	5.1866e-06	3.9836e-06	422.16	145.42	125.81	44.712	4.7777e-06	55.096	0.00023301	0.0001874	5.1223e-05	1356.4	2.1879e-06	1.9896e-06	1363.2	373.58	2.1643e-06	2.0228e-06	407.49	148.35	128.07	45.824	2.0468e-06	56.141	281.502	38.701	55.067	-31.961	137.815	104.471	-31.911	-27.302	150.335	94.129	-27.786	-23.797	-22.623	-18.649	105.508	-19.609	-8191	255	
16876.234	1	1	0	0	0.10514	0.1568	0.12455	0.12235	0.14289	0.51889	0.38176	0.14652	0.060496	0.13949	0.064616	0.29558	0.067047	0.13668	0.14702	0.21075	-2.2917	-2.6125	-2.3854	-3.0563	-2.375	-2.5417	-2.8125	-2.5438	-2.7333	-2.5917	-2.5563	-2.925	-2.5167	-2.7938	-2.5812	-2.4792	141.090	-5.001	-38.867	232.596	288.300	186.855	200.177	275.153	121.944	-3.105	253.128	1.781	70.196	-42.913	118.784	254.408	0.00031124	0.00057007	0.0001416	1340	5.6476e-06	3.8713e-06	1352.5	368.55	4.6747e-06	3.5947e-06	425.99	145.75	125.62	44.809	7.5869e-06	54.822	0.00022852	0.00018387	5.1522e-05	1355.6	2.1956e-06	2.0112e-06	1361.5	373.44	2.248e-06	2.0694e-06	408.29	148.35	127.77	45.755	2.107e-06	55.93	276.156	28.566	56.173	-32.013	135.814	84.255	-31.981	-27.148	156.806	129.706	-28.160	-23.399	-22.675	-18.360	125.679	-19.475	-8191	255	
16876.330	1	1	0	0	0.29404	0.19544	0.15139	0.21665	0.047742	0.16826	0.26982	0.078143	0.028884	0.32097	0.10978	0.33461	0.12329	0.057362	0.30501	0.10262	-2.1875	-2.6417	-2.375	-2.875	-2.5292	-2.6063	-2.8292	-2.5042	-2.8083	-2.7062	-2.3271	-2.9938	-2.7542	-2.5896	-2.7271	-2.4917	136.576	306.570	192.907	302.960	239.832	16.609	252.790	234.400	110.929	293.264	81.411	243.194	291.977	153.258	41.696	287.533	0.00030332	0.00052335	0.00014625	1342.7	6.9028e-06	4.5834e-06	1349.9	366.59	4.1356e-06	4.0017e-06	424.56	145.53	125.08	44.454	4.6274e-06	54.611	0.00023957	0.00019272	5.1959e-05	1357.1	2.2803e-06	2.0979e-06	1361.3	372.67	2.3029e-06	2.1105e-06	407.55	147.87	127.35	45.466	2.1709e-06	55.728	273.843	23.914	48.232	-32.018	106.247	108.368	-31.924	-27.358	170.777	102.485	-28.327	-23.560	-22.722	-18.486	130.785	-19.385	-8191	255	
16876.428	1	1	0	0	0.25066	0.026814	0.066341	0.23153	0.21701	0.14974	0.079812	0.18352	0.098851	0.091125	0.44594	0.50285	0.10015	0.15272	0.14882	0.15422	-2.1521	-2.5938	-2.6021	-2.9813	-2.4271	-2.3896	-2.9875	-2.5375	-2.4979	-2.6917	-2.5896	-2.7229	-2.4813	-2.5083	-2.6729	-2.6604	24.472	-30.956	240.431	267.427	152.927	294.741	237.363	302.809	279.151	-36.909	308.740	247.529	-18.331	185.580	119.383	209.490	0.0003051	0.00055812	0.00013757	1348.9	5.8217e-06	2.2867e-06	1346.8	366.94	1.5606e-06	3.6938e-06	423.07	144.25	124.46	43.993	4.0457e-06	54.353	0.00024742	0.00019724	5.1969e-05	1359.3	2.33e-06	2.0986e-06	1360.5	372.19	2.3668e-06	2.0686e-06	406.45	146.65	126.68	45.117	2.1843e-06	55.442	269.187	26.670	55.527	-32.029	114.887	88.803	-31.941	-27.175	213.862	109.418	-28.237	-23.720	-22.630	-18.682	110.207	-19.541	-8191	255	
16876.549	1	1	0	0	0.17487	0.22514	0.090446	0.2713	0.22258	0.052641	0.19025	0.1726	0.057728	0.012157	0.0758	0.30264	0.066041	0.27725	0.20866	0.31284	-2.125	-2.7292	-2.4229	-2.85	-2.5146	-2.4417	-2.8417	-2.5646	-2.5	-2.7125	-2.4562	-2.6437	-2.6604	-2.4917	-2.6896	-2.4437	-39.466	161.671	177.147	278.381	229.312	-12.197	252.249	294.303	146.264	239.459	34.106	269.016	-21.939	-41.407	84.400	306.430	0.00029636	0.00069598	0.00013998	1336	4.3545e-06	4.3927e-06	1346.3	366.53	4.7208e-06	3.3205e-06	422.93	144.4	125.02	44.182	6.6629e-06	54.486	0.00024221	0.00018965	5.4062e-05	1353.6	2.3098e-06	2.0497e-06	1358.5	371.49	2.3013e-06	2.063e-06	407.06	146.86	126.99	45.171	2.1447e-06	55.51	278.573	31.233	39.222	-32.139	115.898	92.371	-31.878	-27.310	151.251	109.246	-28.401	-23.431	-22.938	-18.623	107.000	-19.101	-8191	255	
16876.645	1	1	0	0	0.1467	0.1522	0.056111	0.16867	0.2012	0.12131	0.13002	0.117	0.18634	0.031983	0.1572	0.19009	0.20207	0.10889	0.19695	0.525	-2.0187	-2.7604	-2.4771	-2.7958	-2.8208	-2.6396	-3.0146	-2.5667	-2.6292	-2.7104	-2.4896	-2.8583	-2.8583	-2.7021	-2.6896	-2.7208	227.286	-20.174	35.623	275.688	-16.903	52.436	232.578	292.516	6.322	88.632	44.745	249.408	253.254	158.930	65.382	178.632	0.00030393	0.00055852	0.00015607	1340.5	6.797e-06	5.0843e-06	1345	365.95	3.6253e-06	5.2026e-06	422.02	144.27	124.47	44.127	5.2379e-06	54.618	0.00023397	0.00018461	5.4572e-05	1354.5	2.2847e-06	2.0403e-06	1357.2	371.02	2.2365e-06	1.9905e-06	406.69	146.87	126.78	45.221	2.1503e-06	55.597	274.819	57.093	28.286	-31.960	138.110	96.183	-32.094	-27.162	152.068	105.260	-28.063	-23.377	-22.613	-18.799	87.580	-19.401	-8191	255	
#DATA ENDS
