BOXY.EXE: ISS Imagent and Oximeter Data Acquisition Program Version 0.80
Ascii Record File

#ACQ INFORMATION
2  Detector Channels 
16  External MUX Channels 
1  Auxiliary Channels 
5000  Waveform (CCF) Frequency (Hz)
1  Waveforms Skipped 
30  Waveforms Averaged 
1  Cycles Averaged 
16  Acquisitions per Waveform 
10.0806  Updata Rate (Hz) 

#FILE INFORMATION
TRUE -- External MUX Channel results are PARSED.
FALSE -- AC DC and Phase are NOT grouped.
TRUE -- Companion Program Settings File CREATED.
FALSE -- AC data not excluded
FALSE -- DC data not excluded
FALSE -- Phase data not excluded
FALSE -- Auxillary Chn. data not excluded
Tab delimiters

#CALIBRATION STATE
TRUE -- Waveform Calibration Values APPLIED.


#AUX CALIBRATION VALUES
Val Type	aux-1	

Term	1.0000e+00	
Factor	0.0000e+00	


#WF CALIBRATION VALUES
A = Detector Channel
Val Type	A-AC1	A-AC2	A-AC3	A-AC4	A-AC5	A-AC6	A-AC7	A-AC8	A-AC9	A-AC10	A-AC11	A-AC12	A-AC13	A-AC14	A-AC15	A-AC16	A-DC1	A-DC2	A-DC3	A-DC4	A-DC5	A-DC6	A-DC7	A-DC8	A-DC9	A-DC10	A-DC11	A-DC12	A-DC13	A-DC14	A-DC15	A-DC16	A-Ph1	A-Ph2	A-Ph3	A-Ph4	A-Ph5	A-Ph6	A-Ph7	A-Ph8	A-Ph9	A-Ph10	A-Ph11	A-Ph12	A-Ph13	A-Ph14	A-Ph15	A-Ph16	

Term	0.00000e+00	0.00000e+00	0.00000e+00	0.00000e+00	0.00000e+00	0.00000e+00	0.00000e+00	0.00000e+00	0.00000e+00	0.00000e+00	0.00000e+00	0.00000e+00	0.00000e+00	0.00000e+00	0.00000e+00	0.00000e+00	0.00000e+00	0.00000e+00	0.00000e+00	0.00000e+00	0.00000e+00	0.00000e+00	0.00000e+00	0.00000e+00	0.00000e+00	0.00000e+00	0.00000e+00	0.00000e+00	0.00000e+00	0.00000e+00	0.00000e+00	0.00000e+00	0.00000e+00	0.00000e+00	0.00000e+00	0.00000e+00	0.00000e+00	0.00000e+00	0.00000e+00	0.00000e+00	0.00000e+00	0.00000e+00	0.00000e+00	0.00000e+00	0.00000e+00	0.00000e+00	0.00000e+00	0.00000e+00	
Factor	1.00000e+00	1.00000e+00	1.00000e+00	1.00000e+00	1.00000e+00	1.00000e+00	1.00000e+00	1.00000e+00	1.00000e+00	1.00000e+00	1.00000e+00	1.00000e+00	1.00000e+00	1.00000e+00	1.00000e+00	1.00000e+00	1.00000e+00	1.00000e+00	1.00000e+00	1.00000e+00	1.00000e+00	1.00000e+00	1.00000e+00	1.00000e+00	1.00000e+00	1.00000e+00	1.00000e+00	1.00000e+00	1.00000e+00	1.00000e+00	1.00000e+00	1.00000e+00	X	X	X	X	X	X	X	X	X	X	X	X	X	X	X	X	

B = Detector Channel
Val Type	B-AC1	B-AC2	B-AC3	B-AC4	B-AC5	B-AC6	B-AC7	B-AC8	B-AC9	B-AC10	B-AC11	B-AC12	B-AC13	B-AC14	B-AC15	B-AC16	B-DC1	B-DC2	B-DC3	B-DC4	B-DC5	B-DC6	B-DC7	B-DC8	B-DC9	B-DC10	B-DC11	B-DC12	B-DC13	B-DC14	B-DC15	B-DC16	B-Ph1	B-Ph2	B-Ph3	B-Ph4	B-Ph5	B-Ph6	B-Ph7	B-Ph8	B-Ph9	B-Ph10	B-Ph11	B-Ph12	B-Ph13	B-Ph14	B-Ph15	B-Ph16	

Term	0.00000e+00	0.00000e+00	0.00000e+00	0.00000e+00	0.00000e+00	0.00000e+00	0.00000e+00	0.00000e+00	0.00000e+00	0.00000e+00	0.00000e+00	0.00000e+00	0.00000e+00	0.00000e+00	0.00000e+00	0.00000e+00	0.00000e+00	0.00000e+00	0.00000e+00	0.00000e+00	0.00000e+00	0.00000e+00	0.00000e+00	0.00000e+00	0.00000e+00	0.00000e+00	0.00000e+00	0.00000e+00	0.00000e+00	0.00000e+00	0.00000e+00	0.00000e+00	-6.39374e+00	-1.30076e+02	-1.26601e+02	-1.84394e+02	-6.08140e+01	-7.06777e+01	-1.57167e+02	-1.62015e+02	-3.31567e+01	-6.16301e+01	-1.77855e+02	-1.71352e+02	-1.80192e+02	-1.76785e+02	-5.94064e+01	-1.49703e+02	
Factor	3.40232e-05	2.11048e-04	5.73687e-05	1.81022e-01	2.72477e-06	1.95530e-06	1.79154e-01	5.79627e-02	2.25856e-06	1.85658e-06	1.08032e+00	3.06876e-02	3.08175e-02	1.00977e-02	2.67119e-06	1.45155e-02	6.65788e-06	7.85998e-06	2.20830e-06	8.86745e-02	8.43392e-08	8.72387e-08	8.25446e-02	2.84046e-02	8.40714e-08	8.72613e-08	4.76702e-01	1.46536e-02	1.52110e-02	4.99653e-03	8.52396e-08	6.96091e-03	X	X	X	X	X	X	X	X	X	X	X	X	X	X	X	X	



#DISTANCE SETTINGS
A = Detector Channel
A-1	A-2	A-3	A-4	A-5	A-6	A-7	A-8	A-9	A-10	A-11	A-12	A-13	A-14	A-15	A-16	

2.5000e+00	3.0000e+00	2.5000e+00	3.0000e+00	2.0000e+00	3.0000e+00	1.5000e+00	3.0000e+00	3.0000e+00	3.0000e+00	3.0000e+00	3.0000e+00	3.0000e+00	3.0000e+00	1.5000e+00	3.0000e+00	

B = Detector Channel
B-1	B-2	B-3	B-4	B-5	B-6	B-7	B-8	B-9	B-10	B-11	B-12	B-13	B-14	B-15	B-16	

1.0000e+01	1.0000e+01	1.0000e+01	1.4400e+00	1.0000e+01	1.0000e+01	1.5100e+00	1.9400e+00	1.0000e+01	1.0000e+01	1.9900e+00	2.4900e+00	2.4100e+00	2.9000e+00	1.0000e+01	2.9800e+00	




#DATA BEGINS
time	group	step	mark	flag	A-AC1	A-AC2	A-AC3	A-AC4	A-AC5	A-AC6	A-AC7	A-AC8	A-AC9	A-AC10	A-AC11	A-AC12	A-AC13	A-AC14	A-AC15	A-AC16	A-DC1	A-DC2	A-DC3	A-DC4	A-DC5	A-DC6	A-DC7	A-DC8	A-DC9	A-DC10	A-DC11	A-DC12	A-DC13	A-DC14	A-DC15	A-DC16	A-Ph1	A-Ph2	A-Ph3	A-Ph4	A-Ph5	A-Ph6	A-Ph7	A-Ph8	A-Ph9	A-Ph10	A-Ph11	A-Ph12	A-Ph13	A-Ph14	A-Ph15	A-Ph16	B-AC1	B-AC2	B-AC3	B-AC4	B-AC5	B-AC6	B-AC7	B-AC8	B-AC9	B-AC10	B-AC11	B-AC12	B-AC13	B-AC14	B-AC15	B-AC16	B-DC1	B-DC2	B-DC3	B-DC4	B-DC5	B-DC6	B-DC7	B-DC8	B-DC9	B-DC10	B-DC11	B-DC12	B-DC13	B-DC14	B-DC15	B-DC16	B-Ph1	B-Ph2	B-Ph3	B-Ph4	B-Ph5	B-Ph6	B-Ph7	B-Ph8	B-Ph9	B-Ph10	B-Ph11	B-Ph12	B-Ph13	B-Ph14	B-Ph15	B-Ph16	aux-1	digaux	

17443.240	1	1	0	768	0.26377	0.14701	0.11594	0.31524	0.030281	0.16939	0.18843	0.14115	0.15405	0.1617	0.18981	0.14161	0.26435	0.14469	0.02386	0.20059	-2.3625	-2.6667	-2.5333	-2.7792	-2.5167	-2.875	-2.7708	-2.6354	-2.775	-2.5625	-2.6562	-2.8688	-2.5875	-2.7667	-2.6188	-2.6146	329.648	228.831	376.838	200.287	179.367	280.674	493.400	506.132	161.706	505.978	319.528	355.421	166.576	399.617	236.372	430.820	0.0010542	0.00036289	9.7848e-05	370.81	2.4618e-06	3.88e-06	528.6	122.98	7.1864e-06	8.2662e-06	246.23	105.34	45.794	23.37	7.3299e-06	57.266	0.001754	0.0018405	0.00053427	380.05	2.1331e-05	2.0224e-05	531	126.04	2.0106e-05	2.0956e-05	339.23	106.67	47.848	24.073	2.2053e-05	57.966	319.036	205.330	313.842	167.928	381.079	177.191	168.163	173.292	331.599	264.272	171.271	176.017	176.374	179.644	220.711	178.642	-8191	255	
17443.336	1	1	0	0	0.22565	0.10496	0.16999	0.041473	0.28457	0.24363	0.054913	0.18134	0.085581	0.1587	0.23907	0.2022	0.093234	0.19272	0.14623	0.19631	-2.3438	-2.6542	-2.4833	-2.8896	-2.4938	-2.7729	-2.7167	-2.2979	-2.8375	-2.725	-2.65	-3.1375	-2.3833	-2.9229	-2.7583	-2.4854	210.777	337.968	206.229	439.312	431.515	199.816	478.018	447.715	467.217	421.565	196.474	167.981	489.000	266.291	473.947	419.724	0.0010418	0.00043937	0.0002149	367.81	2.082e-06	3.4757e-06	527.28	123.03	7.3782e-06	5.8289e-06	246.79	105.68	46.098	23.304	1.0108e-05	57.672	0.0017448	0.0019017	0.00055326	379.48	2.0843e-05	2.1047e-05	531.72	126.08	2.0199e-05	2.2133e-05	342.09	106.72	47.819	24.133	2.1704e-05	58.348	311.717	181.905	228.656	167.712	380.300	334.456	167.707	172.914	328.509	305.949	172.330	175.795	176.129	179.769	356.646	178.665	-8191	255	
17443.432	1	1	0	0	0.30493	0.033251	0.16092	0.028138	0.14407	0.039767	0.18196	0.11958	0.19453	0.090902	0.29706	0.061481	0.03769	0.1129	0.095191	0.15041	-2.3937	-2.6312	-2.5521	-2.9708	-2.7125	-2.6625	-2.9521	-2.6208	-2.9354	-2.8375	-2.5187	-2.9333	-2.5729	-2.7604	-2.8583	-2.6	325.728	491.739	284.997	285.014	492.195	280.043	444.081	305.785	359.801	310.027	177.704	461.082	477.390	172.118	426.335	462.044	0.0009303	0.00064479	8.1161e-05	367.78	1.2891e-05	1.4349e-05	527.64	122.78	6.6437e-06	4.7421e-06	249.63	106.28	46.255	23.538	1.2008e-05	58.268	0.0017331	0.001949	0.00055481	379.65	2.1125e-05	2.1648e-05	533.25	126.21	1.9899e-05	2.2019e-05	341.77	107.41	47.981	24.222	2.0983e-05	58.718	315.775	185.129	472.828	167.953	331.791	303.377	167.779	173.126	371.283	238.965	173.077	176.023	176.028	179.629	263.194	178.361	-8191	255	
17443.527	1	1	0	0	0.23355	0.14954	0.18946	0.064362	0.054973	0.15713	0.31156	0.22989	0.16226	0.11053	0.14368	0.21299	0.1593	0.21042	0.22016	0.25003	-2.2167	-2.8458	-2.7521	-2.9396	-2.6312	-2.7292	-2.8979	-2.7	-2.6646	-2.7854	-2.4833	-3.0062	-2.825	-2.6937	-2.7792	-2.7479	379.142	352.517	448.090	354.223	507.052	401.870	415.946	318.285	453.093	326.229	234.931	469.496	246.402	400.890	236.955	473.468	0.00099001	0.00059197	0.00013723	372.33	1.0701e-05	1.5562e-06	528.3	123.04	4.3065e-06	2.3024e-06	246.12	106.19	46.278	23.536	3.2364e-06	57.933	0.0017108	0.0019678	0.00054875	380.1	2.0735e-05	2.1896e-05	534.72	126.52	2.0356e-05	2.3049e-05	340.4	107.34	48.114	24.294	2.1403e-05	58.48	311.825	289.122	389.854	167.893	346.775	291.207	167.847	173.046	388.077	343.324	172.342	175.882	176.296	179.436	290.791	178.493	-8191	255	
17443.625	1	1	0	0	0.14722	0.040471	0.052924	0.098302	0.17456	0.075418	0.20316	0.093226	0.15702	0.18371	0.1447	0.12458	0.15812	0.29794	0.0095003	0.1852	-2.2958	-2.7667	-2.4729	-2.6958	-2.7583	-2.6521	-2.7729	-2.6625	-2.5542	-2.7271	-2.5146	-2.8625	-2.5312	-2.5229	-2.8083	-2.6396	256.375	356.563	250.579	378.909	202.497	252.282	471.193	257.956	500.648	228.012	161.345	373.976	469.444	498.777	216.337	433.912	0.0010128	0.00017396	4.8348e-05	368.96	7.2001e-06	8.1525e-06	527.69	122.94	8.8914e-07	3.5666e-06	249.02	105.34	46.081	23.51	1.1515e-05	57.661	0.0017637	0.0019938	0.00054983	378.83	2.1723e-05	2.212e-05	531.51	125.98	2.064e-05	2.2047e-05	340.3	106.62	48.065	24.159	2.1057e-05	58.157	313.440	443.962	402.220	167.825	238.975	300.463	167.648	173.117	224.043	270.844	172.554	175.824	176.102	179.790	344.864	178.399	-8191	255	
17443.721	1	1	0	0	0.14779	0.18385	0.27514	0.059661	0.051561	0.11557	0.28823	0.15454	0.22651	0.15691	0.24637	0.061956	0.20538	0.11546	0.26988	0.065027	-2.3312	-2.7729	-2.5104	-2.7729	-2.8333	-2.6	-2.9208	-2.825	-2.7417	-2.7042	-2.4729	-2.8146	-2.6583	-2.6292	-2.9229	-2.5271	462.772	398.296	344.674	491.051	320.282	281.988	474.913	425.547	413.320	491.339	219.180	204.246	458.309	387.507	299.311	238.048	0.0010432	0.0004916	0.00025638	368.63	7.2178e-06	6.1376e-06	527.9	122.7	3.8235e-06	3.7825e-06	245.74	106.09	46.177	23.46	4.548e-06	57.641	0.0017952	0.0019594	0.00054538	379.2	2.1548e-05	2.1567e-05	531.91	126.1	2.0901e-05	2.1486e-05	340.71	107.13	48.305	24.203	1.9982e-05	58.337	319.328	188.515	215.023	167.587	309.278	417.153	167.875	173.130	212.682	387.947	172.297	175.994	176.001	179.644	267.259	178.550	-8191	255	
17443.842	1	1	0	0	0.29858	0.083789	0.070966	0.28785	0.16849	0.17314	0.11011	0.28228	0.28313	0.25341	0.093904	0.25609	0.069653	0.26299	0.24485	0.11508	-2.2396	-2.8812	-2.425	-2.7458	-2.5896	-2.5646	-2.75	-2.6333	-2.5604	-2.9646	-2.5667	-2.8833	-2.8479	-2.6146	-2.7271	-2.7292	310.991	479.286	330.607	421.729	301.907	323.655	418.173	287.033	390.938	316.995	364.770	502.961	354.889	494.517	444.587	357.400	0.0010571	0.00064049	8.2047e-05	370.77	1.6651e-05	6.3816e-06	528.49	122.4	1.9802e-06	3.8742e-06	250.35	106.29	46.197	23.365	1.9498e-06	57.492	0.0017744	0.0019232	0.00052407	380.34	2.193e-05	2.1598e-05	532.4	126.32	2.124e-05	2.2012e-05	339.01	107.22	48.171	24.18	2.0688e-05	58.376	316.502	281.982	215.542	167.599	307.292	190.197	167.725	173.004	327.443	291.509	171.247	176.318	176.026	179.537	232.497	178.399	-8191	255	
17443.938	1	1	0	0	0.14995	0.039593	0.12363	0.044427	0.10596	0.21394	0.31306	0.23626	0.21972	0.16691	0.13934	0.18721	0.099063	0.23791	0.18588	0.14788	-2.2958	-2.9938	-2.5458	-2.775	-2.7583	-2.625	-2.7833	-2.8479	-2.6208	-3.025	-2.5979	-2.7188	-2.9229	-2.7604	-2.7583	-2.5771	353.977	481.092	315.841	232.772	478.672	179.535	421.575	399.918	432.280	407.615	484.668	251.655	239.728	423.405	239.001	265.846	0.00090177	0.00094329	0.00012138	368.01	1.517e-06	2.4108e-06	526.42	122.68	1.1037e-05	7.6186e-07	242.62	105.03	45.936	23.244	1.0329e-05	57.341	0.0018437	0.0020068	0.0005461	379.32	2.2334e-05	2.2547e-05	531.49	126.16	2.2008e-05	2.2085e-05	343.76	106.65	48.052	24.094	2.1313e-05	57.967	317.101	223.951	268.792	168.100	200.424	264.625	167.943	173.048	309.259	165.199	171.845	176.022	176.420	179.375	339.102	178.510	-8191	255	
17444.033	1	1	0	0	0.17481	0.064981	0.094787	0.28248	0.17367	0.22169	0.22186	0.12275	0.40537	0.14359	0.054917	0.060605	0.30136	0.090754	0.22494	0.29869	-2.0104	-2.7875	-2.5917	-2.7208	-2.8229	-2.6542	-2.9188	-2.7188	-2.4729	-2.9271	-2.4896	-2.7604	-2.7625	-2.5292	-2.7438	-2.8875	505.003	431.450	216.681	155.319	222.069	446.457	158.569	481.362	481.253	499.010	405.945	396.373	192.617	465.809	233.006	496.354	0.00090735	0.00020321	0.00018532	364.12	1.3023e-05	8.4081e-06	521.08	121.69	2.1803e-06	6.6507e-07	247.45	104.22	45.585	23.15	6.5483e-06	56.867	0.0018821	0.0019904	0.00055731	377.01	2.2172e-05	2.296e-05	527.45	125.62	2.2093e-05	2.1843e-05	345.22	106.01	47.856	23.932	2.2266e-05	57.52	316.548	182.553	264.885	167.858	325.507	306.173	167.741	173.109	403.529	324.555	172.685	176.072	176.087	179.882	201.455	178.643	-8191	255	
17444.131	1	1	0	0	0.09525	0.045586	0.089687	0.26048	0.20699	0.49133	0.17965	0.17519	0.081933	0.28482	0.14273	0.13491	0.19665	0.26201	0.13931	0.030604	-2.0167	-2.7521	-2.6771	-2.7083	-2.9125	-2.7562	-2.7354	-2.6292	-2.4958	-3.0062	-2.8042	-2.8583	-2.7396	-2.7417	-2.8625	-2.8792	445.844	209.254	475.581	463.324	483.164	457.088	419.330	436.323	232.543	288.782	459.991	174.850	469.315	170.010	490.901	510.828	0.0010097	0.00061847	0.00010487	366.4	2.7555e-06	4.2045e-06	522.14	121.43	9.9415e-07	3.5526e-06	244.7	103.58	45.23	23.015	9.1719e-06	56.062	0.0019215	0.0019976	0.00059658	378.19	2.2516e-05	2.2923e-05	527.57	125.31	2.3259e-05	2.2966e-05	358.64	105.3	47.701	23.763	2.4656e-05	57.052	314.049	283.164	234.215	168.094	378.784	477.120	167.506	173.125	269.155	256.248	172.348	176.281	176.151	179.477	299.957	178.620	-8191	255	
17444.225	1	1	0	0	0.24806	0.12688	0.11464	0.20595	0.14478	0.18369	0.12444	0.083068	0.010393	0.13922	0.21674	0.37525	0.1398	0.36361	0.17464	0.12994	-1.8896	-2.7875	-2.8146	-2.7354	-2.9938	-2.6312	-2.9125	-2.8646	-2.5729	-3.0687	-2.5854	-2.4354	-2.8146	-2.6354	-2.7354	-3.0979	246.081	218.331	372.186	164.983	415.195	353.741	192.033	483.900	408.538	261.939	411.869	477.960	330.602	496.821	215.759	490.575	0.00099739	0.00018258	6.1837e-05	365.51	2.6477e-06	3.5068e-06	520.5	120.42	8.411e-06	9.1334e-06	232.85	103.21	44.865	22.583	2.6705e-06	56.045	0.0020407	0.0021942	0.00065411	379.21	2.3993e-05	2.5687e-05	528.43	125.34	2.4169e-05	2.5059e-05	362.01	105.25	47.454	23.661	2.5679e-05	57	319.152	508.731	350.965	167.946	354.348	193.235	167.721	173.156	347.700	255.293	172.435	175.798	176.089	179.896	282.456	178.688	-8191	255	
17444.320	1	1	0	0	0.43343	0.094118	0.034541	0.067689	0.15813	0.12364	0.071586	0.065062	0.20007	0.10758	0.084101	0.2557	0.17861	0.05289	0.12507	0.044702	-2.1542	-2.8375	-2.7854	-2.6917	-2.8187	-2.7271	-2.7062	-2.8771	-2.5438	-2.7875	-2.6354	-2.7125	-2.8604	-2.5542	-2.6937	-2.9875	342.173	317.429	191.444	514.304	413.173	460.576	398.860	276.304	305.448	371.602	469.898	431.022	410.913	390.128	468.592	384.211	0.00092066	0.00052054	0.00013747	363.46	6.349e-06	6.2581e-06	521.56	120.49	4.1527e-06	2.9983e-06	242.45	103.05	45.111	22.78	2.1032e-06	55.565	0.0021246	0.0022996	0.00067243	379.47	2.3958e-05	2.6422e-05	531.45	125.42	2.3706e-05	2.5394e-05	363.26	105.25	47.591	23.758	2.5239e-05	56.623	319.326	209.695	243.949	167.297	255.856	289.852	167.969	173.160	347.227	336.007	172.200	176.053	176.083	179.537	398.448	178.543	-8191	255	
17444.416	1	1	0	0	0.024235	0.082168	0.12146	0.30619	0.18627	0.11917	0.069383	0.043166	0.24183	0.40372	0.20655	0.037384	0.16785	0.29782	0.1876	0.22819	-1.9854	-2.6896	-2.6833	-2.6896	-2.9042	-2.6479	-2.5687	-3.05	-2.5896	-2.6396	-2.7	-2.5625	-2.9646	-2.6188	-2.4229	-2.6979	308.534	470.394	374.320	447.106	185.153	346.853	308.125	408.520	390.718	331.497	378.590	389.610	440.934	399.529	443.328	394.349	0.00093924	6.0901e-05	0.00032585	363.12	3.9985e-06	6.4489e-06	519.24	120.52	5.9605e-06	7.4584e-06	237.32	103.02	44.773	22.685	1.668e-05	55.514	0.0020277	0.0022906	0.00065199	377.17	2.3549e-05	2.6717e-05	528.71	125.28	2.3946e-05	2.5656e-05	356.12	105	47.529	23.697	2.5065e-05	56.419	314.651	377.555	290.137	167.539	380.379	314.753	168.024	173.268	265.965	409.888	172.022	176.136	175.820	179.672	291.310	178.626	-8191	255	
17444.537	1	1	0	0	0.1059	0.14331	0.20546	0.25679	0.11121	0.061538	0.054586	0.14022	0.087131	0.077824	0.11338	0.1549	0.22818	0.035351	0.25028	0.30667	-2.2729	-2.5417	-2.7	-2.6771	-2.8896	-2.6479	-2.5833	-2.9188	-2.6896	-2.6083	-2.6479	-2.6271	-2.7562	-2.8312	-2.4771	-2.7417	300.521	401.688	480.638	332.093	288.177	176.953	246.370	198.379	497.934	436.856	441.961	415.827	391.714	399.336	225.657	441.816	0.0010271	0.00013669	0.00013936	365.43	6.3283e-06	6.3607e-06	518.29	120.93	1.3304e-05	5.3994e-06	240.07	103.55	44.687	22.692	1.0594e-05	55.561	0.0021017	0.0023116	0.00064724	378.92	2.3844e-05	2.5901e-05	529.06	125.06	2.3915e-05	2.5454e-05	354.17	105.4	47.689	23.704	2.4688e-05	56.355	315.438	311.705	247.488	167.774	357.413	293.412	167.789	173.148	312.446	301.355	172.110	176.164	175.970	179.830	281.988	178.663	-8191	255	
17444.633	1	1	0	0	0.12727	0.087425	0.11772	0.29706	0.20983	0.072264	0.038751	0.089825	0.16011	0.24142	0.098788	0.15841	0.017188	0.12112	0.12874	0.352	-2.0563	-2.6	-2.8146	-2.5438	-2.6083	-2.7625	-2.6167	-2.8958	-2.7438	-2.6667	-2.7521	-2.7875	-2.8083	-2.7125	-2.6188	-2.8125	173.463	406.242	344.481	514.399	383.061	378.630	438.166	172.909	506.553	441.252	349.298	155.547	240.158	504.170	442.659	512.597	0.0010306	0.00012991	0.00017909	366.53	3.4373e-06	7.8375e-06	524.21	121.19	4.6404e-06	8.6948e-06	239.72	104.01	45.384	22.855	1.6898e-06	55.631	0.0020926	0.0023062	0.00063986	379.61	2.4546e-05	2.6294e-05	531.94	125.35	2.4791e-05	2.5685e-05	355.35	105.94	48.18	23.786	2.4243e-05	56.694	314.546	400.047	291.281	167.441	400.458	318.088	167.748	173.045	351.974	261.769	172.235	176.111	176.027	179.951	357.530	178.554	-8191	255	
17444.729	1	1	0	0	0.34711	0.18799	0.095097	0.05294	0.092811	0.44566	0.25105	0.033644	0.17122	0.081733	0.094461	0.13373	0.19875	0.27373	0.21501	0.23622	-2.2313	-2.5521	-2.7854	-2.5583	-2.6021	-2.9271	-2.6542	-2.8417	-2.7812	-2.5833	-2.7125	-2.7333	-2.625	-2.8521	-2.65	-2.8	186.647	187.680	326.052	456.995	182.421	364.373	177.623	324.166	222.882	339.145	483.932	491.896	250.641	403.945	201.348	437.341	0.0010275	0.00020191	0.00024996	368.44	6.0291e-06	2.5723e-06	523.54	121.66	4.3003e-06	3.4214e-06	241.03	103.54	45.205	22.57	5.1202e-06	55.532	0.0021824	0.0023403	0.00062877	381.44	2.5015e-05	2.6381e-05	532.45	126.09	2.5369e-05	2.622e-05	354.58	105.67	48.099	23.678	2.4664e-05	56.547	309.718	219.630	286.040	167.532	263.830	350.655	167.799	173.309	243.960	398.939	170.823	176.024	176.113	179.906	245.376	178.565	-8191	255	
17444.801	1	1	0	0	0.22587	0.098984	0.10547	0.28483	0.11729	0.066312	0.20247	0.15128	0.22665	0.060312	0.12656	0.16207	0.36314	0.17456	0.11025	0.3405	-2.2542	-2.675	-2.8646	-2.7188	-2.7042	-2.8854	-2.5479	-2.7271	-2.5604	-2.5833	-2.8833	-2.6188	-2.6312	-2.7917	-2.6688	-2.9229	174.681	220.240	452.103	504.373	157.970	335.401	511.146	432.268	513.262	430.053	310.904	159.322	481.329	478.784	296.870	426.162	0.00094062	0.00011733	0.00022024	365.62	9.4968e-06	3.4694e-06	517.66	120.53	1.0496e-05	6.1251e-06	240.05	102.76	45.019	22.577	1.3339e-05	55.233	0.0021889	0.0023821	0.0006329	381.51	2.5679e-05	2.611e-05	528.24	125.39	2.5472e-05	2.5691e-05	353.3	105.33	47.997	23.615	2.4824e-05	56.407	312.838	228.010	318.619	167.873	314.179	368.883	167.767	173.210	302.628	326.890	173.213	176.055	176.340	179.503	195.131	178.944	-8191	255	
17444.922	1	1	0	0	0.13615	0.11955	0.080315	0.30142	0.17924	0.17267	0.055041	0.26549	0.078699	0.23915	0.23228	0.16691	0.25505	0.27843	0.19282	0.27713	-2.3187	-2.4979	-2.7812	-2.5563	-2.7083	-2.7896	-2.7146	-2.7146	-2.8542	-2.6312	-2.8021	-2.6458	-2.5167	-2.8208	-2.6208	-2.8646	216.762	176.332	315.320	438.078	199.751	181.394	453.444	512.896	308.840	258.218	303.246	339.356	336.174	448.970	407.740	343.999	0.00093206	0.00066556	0.00015152	367.09	5.1093e-06	8.2177e-07	519.54	120.31	7.1228e-06	2.7227e-06	243.8	103.15	44.823	22.564	1.073e-05	55.08	0.0022222	0.002338	0.0006468	381.58	2.6205e-05	2.5992e-05	528.76	125.37	2.6177e-05	2.5933e-05	358.32	105.52	47.901	23.592	2.6101e-05	56.4	314.214	182.872	284.063	167.709	321.655	306.331	167.788	172.954	414.773	510.714	172.568	176.163	175.622	179.765	331.554	178.670	-8191	255	
17445.018	1	1	0	0	0.017225	0.089923	0.23043	0.14248	0.15343	0.2591	0.1043	0.11131	0.32097	0.22255	0.18107	0.076975	0.090853	0.18396	0.14915	0.19899	-2.2979	-2.6229	-2.7625	-2.7146	-2.7271	-2.7458	-2.6396	-2.6271	-2.9708	-2.6479	-2.8083	-2.6375	-2.4146	-2.7646	-2.4562	-2.5708	347.069	305.058	375.416	255.202	480.302	338.155	240.726	196.082	332.617	247.684	430.423	460.035	207.464	472.010	194.465	155.470	0.0008956	0.00053089	9.4556e-05	363.31	4.7519e-06	3.433e-06	518.35	119.3	1.8219e-05	6.7731e-06	243.91	103.36	44.482	22.582	2.7547e-06	55.41	0.0022351	0.0023681	0.00068184	381.27	2.6577e-05	2.5759e-05	531.29	125.35	2.6622e-05	2.6069e-05	367.09	105.6	47.876	23.566	2.711e-05	56.673	307.024	268.321	458.531	167.720	355.588	317.878	168.008	173.083	371.009	278.242	172.816	175.840	176.352	179.346	200.137	178.430	-8191	255	
17445.113	1	1	0	0	0.26516	0.14992	0.028067	0.067275	0.034647	0.25248	0.18198	0.14805	0.15688	0.25939	0.22718	0.055991	0.20721	0.31702	0.23749	0.12218	-2.3729	-2.3812	-2.7083	-2.7313	-2.5146	-2.75	-2.825	-2.4875	-2.6937	-2.4854	-2.55	-2.8521	-2.4958	-2.725	-2.6813	-2.6854	473.313	335.878	316.352	385.554	399.381	386.947	473.710	367.574	293.134	380.260	241.191	413.819	467.144	195.897	484.060	389.109	0.00099643	0.00054871	0.00023852	362.68	9.226e-06	3.5568e-06	518.61	119.95	1.5831e-06	4.1113e-06	235.42	102.12	44.574	22.485	1.0622e-05	55.07	0.0022221	0.0024717	0.00070296	380.94	2.6529e-05	2.692e-05	531.22	125.29	2.6544e-05	2.7142e-05	368.03	105.08	47.742	23.585	2.7709e-05	56.357	310.743	182.714	264.503	167.491	306.923	309.324	167.703	173.093	297.300	444.532	172.957	176.286	176.293	179.772	257.650	178.570	-8191	255	
17445.232	1	1	0	0	0.30385	0.23785	0.10164	0.13941	0.15798	0.16278	0.31555	0.1858	0.1054	0.13089	0.21739	0.10031	0.093921	0.33386	0.14417	0.11627	-2.4417	-2.4917	-2.6688	-2.7771	-2.5812	-2.8167	-2.6771	-2.4479	-2.6333	-2.8125	-2.6063	-2.6979	-2.4313	-2.6604	-2.5292	-2.5375	286.936	379.377	401.907	254.320	384.423	500.294	468.697	287.506	177.672	421.255	261.026	422.474	460.216	215.805	499.054	294.014	0.00086204	0.00040486	0.00025251	361.03	2.0875e-05	2.9744e-06	512.64	118.91	3.2588e-06	1.1819e-06	235.94	101.85	44.538	22.308	2.5294e-06	55.024	0.0022045	0.00252	0.00071508	378.57	2.6376e-05	2.7493e-05	527.28	124.64	2.6266e-05	2.8108e-05	371.92	104.46	47.664	23.502	2.8178e-05	56.142	319.053	376.173	225.300	167.525	267.232	211.875	167.763	173.384	280.491	344.916	171.372	175.960	176.276	179.566	333.015	178.965	-8191	255	
17445.328	1	1	0	0	0.143	0.20709	0.14298	0.13152	0.042878	0.080024	0.34101	0.20741	0.24893	0.056906	0.078728	0.089674	0.30992	0.15978	0.025836	0.093085	-2.2167	-2.5604	-2.4958	-2.7542	-2.525	-2.7667	-2.8208	-2.5062	-2.6437	-2.5771	-2.65	-2.7792	-2.5625	-2.7083	-2.7458	-2.6229	201.595	384.661	252.231	400.860	306.682	302.520	481.803	488.670	310.766	216.714	492.897	380.843	494.325	194.388	199.960	304.355	0.001023	0.00083283	0.00012633	360.43	3.4367e-06	8.2725e-06	516.07	120.28	3.5599e-06	3.6659e-06	234.32	102.48	44.743	22.517	8.5627e-06	54.906	0.0021717	0.0026166	0.00071912	377.29	2.6172e-05	2.815e-05	528.07	124.73	2.601e-05	2.8461e-05	368.48	104.59	47.875	23.578	2.7921e-05	56.072	314.947	189.141	255.985	167.829	362.234	268.992	168.137	173.071	281.882	254.217	171.570	176.084	176.114	180.024	492.868	178.755	-8191	255	
17445.400	1	1	0	0	0.088077	0.25785	0.30392	0.16686	0.14873	0.20524	0.23757	0.066356	0.030085	0.27059	0.20257	0.14863	0.15559	0.19894	0.089924	0.30189	-2.3292	-2.6875	-2.5	-2.8438	-2.5333	-2.7229	-2.825	-2.5083	-2.7521	-2.6437	-2.5208	-2.9292	-2.6604	-2.6875	-2.7729	-2.5187	475.150	412.618	259.426	159.197	485.525	239.835	441.868	159.186	175.172	376.658	505.425	293.953	409.624	441.632	422.900	435.999	0.0010321	0.00056777	2.4468e-05	360.92	4.668e-06	9.0534e-07	516.87	119.54	7.0384e-06	1.6162e-06	236.22	102.49	44.474	22.359	1.26e-05	55.259	0.0021795	0.0025571	0.00071169	377.17	2.6241e-05	2.7878e-05	528.35	124.43	2.6195e-05	2.8031e-05	366.81	104.94	47.72	23.543	2.7686e-05	56.247	308.790	273.712	355.739	167.052	391.023	420.704	167.734	173.035	334.100	428.252	171.311	176.095	175.978	179.497	375.370	178.688	-8191	255	
17445.521	1	1	0	0	0.059254	0.043549	0.14695	0.173	0.098743	0.20525	0.29174	0.24739	0.21029	0.046545	0.16362	0.38718	0.10664	0.31634	0.23174	0.14959	-2.2521	-2.5938	-2.5458	-2.7354	-2.5563	-2.7104	-2.8625	-2.6875	-2.8417	-2.6375	-2.6354	-2.8479	-2.65	-2.5771	-2.8438	-2.5604	305.849	324.281	408.700	304.769	226.810	354.278	453.031	180.148	200.670	209.116	391.958	466.454	154.970	498.220	371.961	491.193	0.00094602	0.00093976	0.00024177	361.09	1.0303e-05	7.7154e-06	517.41	118.05	7.0956e-06	5.8658e-07	239.77	102.62	44.412	22.34	1.5438e-05	54.576	0.0022438	0.0026479	0.00071153	376.39	2.727e-05	2.8242e-05	527.78	123.72	2.6988e-05	2.8418e-05	366.63	104.77	47.874	23.412	2.7357e-05	55.788	315.041	323.345	276.407	167.385	299.332	266.258	167.680	172.889	296.052	359.207	172.523	176.149	175.953	179.574	292.004	178.517	-8191	255	
17445.617	1	1	0	0	0.13339	0.14905	0.15093	0.14466	0.14379	0.16253	0.015313	0.092529	0.064647	0.1213	0.15918	0.35636	0.36071	0.11644	0.053433	0.1707	-2.425	-2.6292	-2.5604	-2.9854	-2.7417	-2.6875	-2.8875	-2.5583	-2.7854	-2.6	-2.4958	-2.8354	-2.4146	-2.4479	-2.725	-2.6813	219.271	446.887	384.339	439.571	324.738	435.722	202.767	420.888	340.702	207.736	458.320	469.910	268.699	500.010	257.647	252.304	0.00090156	0.00041061	0.0003359	358.51	4.9274e-06	6.7184e-06	513.1	118.21	1.0493e-05	3.6512e-06	233.56	101.76	44.398	22.224	4.4906e-06	54.726	0.0022981	0.0026095	0.00069427	375.13	2.761e-05	2.8169e-05	523.85	123.78	2.6979e-05	2.8187e-05	361.69	104.16	47.637	23.38	2.6067e-05	55.808	311.765	278.760	280.047	167.840	451.492	350.938	167.762	173.197	297.780	276.566	173.312	175.968	175.794	179.755	268.283	178.419	-8191	255	
17445.715	1	1	0	0	0.071341	0.21587	0.26092	0.099881	0.16325	0.14086	0.40532	0.27142	0.2496	0.11393	0.28655	0.11257	0.23918	0.1083	0.10684	0.2969	-2.1583	-2.6063	-2.4542	-2.6646	-2.575	-2.5125	-2.6771	-2.5708	-2.4771	-2.8375	-2.5312	-2.75	-2.7479	-2.4938	-2.8646	-2.6417	388.743	345.408	231.607	195.234	234.741	364.789	495.379	160.941	194.294	428.594	477.481	493.016	489.608	503.369	308.498	407.664	0.00097005	0.00029318	0.00020783	359.53	2.0748e-05	4.0384e-06	515.2	117.98	9.9851e-06	5.7422e-06	242.66	102.02	44.414	22.119	2.6669e-06	54.77	0.002247	0.0025805	0.00067814	375.9	2.7465e-05	2.7867e-05	525.32	123.7	2.7111e-05	2.7762e-05	361.48	104.62	47.78	23.298	2.6025e-05	55.917	312.724	156.057	244.586	167.618	299.963	237.021	167.758	173.280	363.531	379.155	172.683	176.161	176.255	179.680	265.119	178.666	-8191	255	
17445.834	1	1	0	0	0.098279	0.033512	0.13482	0.19487	0.093582	0.19122	0.14339	0.1064	0.10383	0.14026	0.13045	0.25037	0.12664	0.21404	0.23479	0.15388	-2.0021	-2.7375	-2.4292	-2.7417	-2.7604	-2.6688	-2.9021	-2.6375	-2.5917	-2.8917	-2.65	-2.7792	-2.6875	-2.5521	-2.8812	-2.7708	230.323	439.989	432.824	480.049	354.750	215.778	485.904	332.103	194.553	362.894	268.729	159.877	184.186	174.959	434.038	476.265	0.00085575	0.00044317	7.6178e-05	359.37	1.9863e-05	8.0368e-07	518.33	118.7	8.1278e-07	8.7824e-06	241.28	102.5	44.258	22.324	1.1902e-05	55.009	0.0022642	0.0024784	0.00068753	375.81	2.7236e-05	2.6979e-05	526.25	124.3	2.7184e-05	2.7104e-05	363.97	105.14	47.787	23.351	2.6827e-05	56.15	310.777	196.706	184.864	168.015	321.490	395.684	167.722	173.290	249.138	386.284	171.946	176.376	175.877	179.410	273.167	178.811	-8191	255	
17445.930	1	1	0	0	0.14104	0.17366	0.052019	0.31253	0.14085	0.15383	0.053135	0.13343	0.1786	0.10139	0.072507	0.050639	0.25558	0.11787	0.051731	0.18489	-2.1771	-2.6479	-2.475	-2.6333	-2.7021	-2.625	-2.9875	-2.6896	-2.6854	-2.9771	-2.6688	-2.7208	-2.5521	-2.6562	-2.7208	-2.6396	462.342	418.599	402.573	445.805	459.049	199.271	469.576	365.196	455.380	369.338	426.297	221.160	157.368	371.175	488.936	350.513	0.0010353	0.00049285	0.00014796	360.14	9.422e-06	4.8439e-06	517.4	117.98	7.5844e-06	5.0785e-06	242.04	102.53	44.263	22.146	1.5974e-06	54.631	0.0022887	0.0024394	0.00072426	378.61	2.7624e-05	2.7017e-05	529.33	124.35	2.732e-05	2.6829e-05	368.54	105.01	47.83	23.295	2.739e-05	55.973	314.488	286.086	280.145	167.536	375.584	295.366	167.881	172.832	312.996	304.632	171.509	176.267	175.956	179.493	371.646	178.784	-8191	255	
17446.025	1	1	0	0	0.30134	0.2061	0.036153	0.30764	0.1855	0.36862	0.30193	0.060129	0.069486	0.090622	0.37896	0.1055	0.25471	0.32798	0.11412	0.37225	-2.1437	-2.6583	-2.5729	-2.5396	-2.7958	-2.4792	-2.8438	-2.6208	-2.5187	-3.0479	-2.4688	-2.6979	-2.6625	-2.4979	-2.6875	-2.7313	351.067	307.574	265.041	499.433	222.375	461.207	418.339	158.980	383.851	360.997	302.756	391.638	333.047	429.036	236.736	386.494	0.0008942	0.00019359	0.00025673	359.9	2.7107e-06	6.6783e-06	514.8	117.47	7.0281e-06	3.357e-06	241.04	102.5	44.212	22.157	4.7335e-06	54.655	0.0022668	0.0024427	0.00072312	377.78	2.6912e-05	2.6961e-05	526.72	124.1	2.6727e-05	2.6855e-05	367.59	105.09	47.416	23.373	2.7519e-05	56.121	318.464	288.583	204.035	167.751	360.381	191.815	168.049	173.112	430.845	270.845	171.886	176.060	176.009	179.737	367.400	178.523	-8191	255	
17446.098	1	1	0	0	0.16266	0.16398	0.1153	0.19509	0.29408	0.25303	0.16222	0.12538	0.19996	0.16488	0.1325	0.258	0.31777	0.060833	0.086574	0.15216	-2.0146	-2.8104	-2.5938	-2.5875	-2.8042	-2.5833	-2.8396	-2.6229	-2.5479	-2.7833	-2.4792	-2.7562	-2.7021	-2.4667	-2.6625	-2.6771	281.836	198.238	413.078	255.748	162.027	342.912	328.694	461.311	467.150	325.603	175.232	340.886	336.184	429.701	473.841	489.243	0.00096273	0.00063675	0.00018247	360.49	6.1398e-06	7.2413e-06	516.92	118.06	6.5381e-06	5.0672e-06	237.83	101.86	44.525	22.4	6.6393e-06	55.142	0.0022434	0.0024979	0.00074611	377.49	2.6717e-05	2.8065e-05	526.35	123.86	2.6359e-05	2.7986e-05	372.43	104.9	47.6	23.528	2.8125e-05	56.404	314.890	177.408	187.597	167.738	324.195	217.448	168.068	173.221	330.535	456.054	170.900	176.058	176.205	179.678	250.419	178.596	-8191	255	
17446.217	1	1	0	0	0.11063	0.10375	0.094526	0.11086	0.31014	0.039497	0.026981	0.20017	0.35398	0.19835	0.068197	0.17943	0.18294	0.20456	0.15971	0.26822	-2.3792	-2.7	-2.5167	-2.5625	-2.8354	-2.6167	-2.7271	-2.6354	-2.6896	-2.8208	-2.6813	-2.5729	-2.9729	-2.5833	-2.7167	-2.8583	199.336	338.204	259.316	451.236	315.573	155.877	299.080	256.626	284.658	183.537	232.487	262.956	265.143	477.822	464.567	391.120	0.00093369	0.00042449	0.0002569	357.52	3.177e-06	5.3745e-06	515.07	117.54	7.7786e-06	4.1117e-06	240.2	103.16	44.414	22.404	1.6006e-05	55.485	0.0022281	0.0025599	0.00074409	375.55	2.6715e-05	2.8606e-05	527.13	124.03	2.6801e-05	2.8604e-05	374.83	105.58	47.631	23.61	2.8459e-05	56.81	312.034	460.572	205.734	167.740	186.528	213.634	167.901	173.509	353.665	421.206	173.290	176.083	176.338	179.772	309.187	178.455	-8191	255	
17446.312	1	1	0	0	0.28952	0.26149	0.19129	0.24954	0.22026	0.19706	0.2156	0.19087	0.179	0.17447	0.12428	0.068527	0.13165	0.10583	0.13739	0.12907	-2.0646	-2.8021	-2.7083	-2.5417	-2.7083	-2.5479	-2.8271	-2.9771	-2.4083	-2.7396	-2.6396	-2.6083	-2.9375	-2.7125	-2.7	-2.9292	305.327	178.719	484.733	418.952	420.459	491.812	462.934	185.980	179.085	406.055	427.567	496.433	480.123	360.801	248.208	408.056	0.0010402	0.00026731	0.00024108	357.83	1.6253e-05	4.9318e-06	517.17	118.58	3.5336e-06	4.1478e-06	239.96	103.16	44.717	22.37	4.9748e-06	55.466	0.0022634	0.0025971	0.00075719	376.87	2.7232e-05	2.9144e-05	528.79	124	2.7755e-05	2.8857e-05	375.72	105.37	47.786	23.652	2.8625e-05	56.533	317.160	213.872	243.025	167.725	286.353	395.974	167.850	172.848	322.480	294.523	172.724	176.219	176.217	179.748	308.690	178.646	-8191	255	
17446.408	1	1	0	0	0.10847	0.17757	0.16044	0.14349	0.18401	0.35251	0.35771	0.30155	0.10871	0.076077	0.21885	0.23843	0.14154	0.13804	0.16683	0.20372	-1.9917	-2.6479	-2.625	-2.4292	-2.7104	-2.5687	-2.4729	-3.0312	-2.4646	-2.7958	-2.8292	-2.6188	-2.9458	-2.5667	-2.6583	-2.9313	304.157	419.716	288.320	161.519	513.749	339.425	167.235	492.820	509.501	397.211	250.967	487.166	435.312	498.482	249.211	443.249	0.000964	0.00080982	0.00011396	360.64	1.4456e-05	2.2183e-06	514.58	117.69	3.2274e-06	9.1583e-06	233.87	101.91	44.502	22.529	3.7378e-06	55.056	0.0023196	0.002623	0.00075224	377.37	2.803e-05	2.969e-05	527.36	123.5	2.9032e-05	2.9353e-05	372.07	104.69	47.821	23.667	2.8032e-05	56.469	312.298	314.507	206.085	167.765	323.750	297.797	167.923	173.067	320.967	356.951	173.533	175.885	175.925	179.874	249.925	178.445	-8191	255	
17446.506	1	1	0	0	0.088244	0.038859	0.32993	0.18991	0.23133	0.35011	0.070537	0.063121	0.2853	0.1164	0.15749	0.062812	0.166	0.11424	0.050367	0.36567	-2.1229	-2.6063	-2.7604	-2.5646	-2.7125	-2.5625	-2.6396	-2.8417	-2.6458	-2.6292	-2.8688	-2.4688	-2.7375	-2.7062	-2.5271	-2.9271	191.792	247.408	202.626	499.406	230.419	199.851	204.061	259.896	379.667	261.251	224.618	336.474	259.782	283.660	212.964	417.683	0.00094341	0.00049673	0.00033309	359.79	1.1181e-05	4.3959e-06	514.08	118.31	6.4908e-06	3.729e-06	234.28	102.53	44.425	22.635	5.7795e-06	55.899	0.0023033	0.0025827	0.00071819	375.7	2.7486e-05	2.8642e-05	524.29	123.31	2.7676e-05	2.8187e-05	365.44	105.4	47.857	23.759	2.6512e-05	56.825	312.668	514.894	296.121	167.772	290.478	466.438	167.807	172.906	303.267	319.219	172.795	176.093	176.110	179.787	358.534	178.746	-8191	255	
17446.627	1	1	0	0	0.093419	0.21253	0.089227	0.29025	0.27102	0.1385	0.28269	0.044943	0.20893	0.020404	0.12915	0.21003	0.24317	0.14212	0.096632	0.017047	-1.9229	-2.525	-2.7167	-2.5125	-2.6979	-2.6896	-2.4708	-2.7333	-2.6604	-2.6396	-2.8729	-2.6042	-2.5271	-2.9125	-2.5563	-2.7208	203.072	368.315	374.773	427.207	217.175	204.967	458.357	326.694	276.001	299.040	395.393	379.927	275.907	230.711	307.700	455.807	0.0010959	0.00079016	0.00017376	361.1	1.1042e-05	7.2516e-07	522.23	118.99	1.8927e-06	1.1252e-05	239.92	103.7	44.888	22.687	5.3064e-06	56.062	0.0022886	0.0025423	0.00068171	377.06	2.6906e-05	2.8233e-05	528.76	124.5	2.7826e-05	2.7845e-05	362.85	106.2	48.204	23.827	2.6495e-05	57.132	312.189	311.404	173.568	167.799	330.430	230.335	167.586	173.304	270.933	375.092	173.820	175.825	176.134	179.943	322.567	178.738	-8191	255	
17446.697	1	1	0	0	0.11172	0.11709	0.1391	0.13017	0.31744	0.19924	0.026555	0.24526	0.030713	0.19024	0.26183	0.18174	0.14074	0.20996	0.18107	0.093886	-1.8875	-2.6667	-2.6854	-2.5979	-2.5146	-2.7458	-2.5958	-2.9604	-2.6437	-2.5729	-2.8563	-2.5917	-2.7146	-2.6792	-2.5229	-2.8208	271.580	483.820	162.906	177.779	195.153	231.711	385.755	374.148	321.571	363.138	510.215	456.187	476.364	158.864	347.799	219.763	0.00094426	0.00055254	0.00023298	360.91	3.5518e-06	3.1538e-06	520.02	119.01	5.7102e-06	2.2167e-06	240.23	102.77	44.756	22.524	6.8941e-06	55.54	0.0022882	0.0025155	0.0006822	379.24	2.744e-05	2.7816e-05	528.4	124.63	2.7926e-05	2.7951e-05	366.87	105.62	48.037	23.684	2.7386e-05	56.688	308.598	280.327	190.567	167.626	336.952	421.840	168.110	173.146	308.601	344.619	171.465	176.125	176.190	179.474	286.992	178.880	-8191	255	
17446.795	1	1	0	0	0.15167	0.19112	0.20908	0.17199	0.105	0.060177	0.20594	0.20726	0.14412	0.088969	0.071536	0.011523	0.20267	0.18552	0.068692	0.17638	-2.1875	-2.4083	-2.5979	-2.6854	-2.7979	-2.7938	-2.575	-2.7208	-2.7854	-2.4958	-2.6396	-2.5458	-2.4917	-2.7375	-2.5792	-2.5938	436.248	471.314	170.571	423.893	272.922	499.287	381.041	500.880	203.146	415.773	382.174	347.785	478.099	408.758	413.580	449.022	0.00098796	0.00011094	0.00017921	357.53	1.3238e-05	1.1212e-05	515.9	118.47	1.9002e-06	2.4819e-06	243.01	102.56	44.884	22.441	7.4209e-06	55.394	0.0023172	0.0024627	0.00069703	377.83	2.7599e-05	2.7394e-05	526.68	124.22	2.8658e-05	2.7423e-05	368.76	105.25	48.109	23.561	2.8265e-05	56.527	314.291	212.932	262.627	167.113	403.551	317.089	167.803	172.894	415.068	222.322	171.793	175.888	176.288	179.775	274.155	178.896	-8191	255	
17446.914	1	1	0	0	0.12344	0.092939	0.11384	0.15705	0.2328	0.062752	0.1196	0.11393	0.045585	0.044051	0.17019	0.10298	0.39006	0.28362	0.20221	0.12762	-2.1917	-2.4313	-2.7521	-2.5979	-2.6688	-2.9458	-2.5958	-2.7729	-2.6792	-2.3563	-2.6813	-2.7583	-2.4021	-2.8521	-2.7229	-2.7771	349.717	361.807	473.159	222.038	389.088	205.042	502.259	470.406	284.285	242.190	399.946	201.211	473.589	398.229	472.270	381.670	0.00092605	0.00082218	0.00024532	358.13	9.1139e-06	2.5571e-06	514.14	119.19	5.5334e-06	6.3223e-06	239.71	102.33	44.772	22.44	8.3767e-06	55.325	0.0023307	0.0025006	0.00072303	378.1	2.7629e-05	2.7836e-05	526.59	124.35	2.7972e-05	2.8105e-05	372.94	105.31	47.93	23.588	2.9302e-05	56.722	306.479	251.715	328.215	167.747	423.825	373.037	167.674	173.060	329.021	308.508	173.117	176.048	176.597	179.840	216.570	178.609	-8191	255	
17447.010	1	1	0	0	0.11459	0.15382	0.25373	0.15154	0.11579	0.18851	0.12336	0.43691	0.15366	0.13116	0.17549	0.1733	0.25017	0.32786	0.17122	0.13957	-2.4375	-2.4167	-2.6312	-2.5917	-2.4792	-2.8375	-2.5771	-2.7167	-2.775	-2.4188	-3.0146	-2.6104	-2.5896	-2.7854	-2.4479	-2.6333	188.330	332.134	453.186	281.914	298.798	401.499	203.960	464.151	373.788	351.847	397.394	213.554	442.278	171.595	391.025	185.558	0.00088411	0.0009458	0.00020351	359.17	2.0459e-06	1.0893e-05	516.51	118.37	5.9022e-06	7.0052e-06	230.35	103.28	44.339	22.542	3.1496e-06	55.555	0.0023029	0.0025648	0.00073061	379.87	2.7653e-05	2.8467e-05	529.37	124.6	2.772e-05	2.9078e-05	373.85	106.02	47.804	23.669	2.946e-05	56.862	315.518	255.575	312.363	167.606	360.524	306.898	167.718	172.909	483.704	235.243	172.709	176.263	176.278	179.611	426.759	178.704	-8191	255	
17447.105	1	1	0	0	0.19061	0.19088	0.22477	0.070232	0.10167	0.082967	0.1307	0.042564	0.13795	0.070972	0.074108	0.27586	0.22707	0.12496	0.36541	0.085476	-2.3229	-2.4354	-2.7542	-2.6208	-2.4875	-2.7625	-2.6708	-2.7354	-2.8667	-2.5333	-2.7208	-2.6854	-2.5458	-2.7729	-2.6208	-2.5771	451.418	481.353	513.718	460.553	258.303	305.930	449.827	454.461	293.419	177.370	380.549	450.172	469.226	296.674	169.704	486.865	0.00096537	0.00029194	0.0002811	359.54	1.534e-06	7.0671e-06	516.3	117.73	4.6487e-06	1.9506e-06	244.74	101.88	44.322	22.253	1.5403e-05	54.864	0.002294	0.0026235	0.00074812	379.82	2.778e-05	2.9269e-05	527.75	124.23	2.763e-05	3.0301e-05	378.76	104.75	47.628	23.496	3.0208e-05	56.252	310.529	317.556	244.479	167.797	405.883	344.781	167.948	173.116	365.024	483.392	171.805	176.010	176.090	179.638	254.408	178.596	-8191	255	
17447.203	1	1	0	0	0.12276	0.10529	0.095792	0.13554	0.29294	0.16453	0.11655	0.30661	0.052765	0.061099	0.089962	0.30519	0.030544	0.19136	0.1803	0.2146	-2.4146	-2.4667	-2.5979	-2.6083	-2.5792	-2.7625	-2.6667	-2.5917	-2.7417	-2.5708	-2.7271	-2.7271	-2.3875	-2.7354	-2.7313	-2.6542	354.834	507.543	452.064	211.871	379.739	467.796	408.623	366.663	207.525	433.754	156.767	453.377	316.443	463.746	230.773	429.632	0.00091298	0.00048133	8.946e-05	356.65	4.792e-06	6.1519e-06	512.3	116.88	6.0202e-06	6.2899e-06	236.52	102.04	44.385	22.28	1.1293e-05	55.041	0.0023429	0.0026842	0.00076309	376.4	2.803e-05	2.9457e-05	524.14	123.21	2.7757e-05	3.001e-05	372.92	104.51	47.713	23.474	2.8561e-05	56.175	315.429	266.090	256.866	167.893	303.839	312.963	167.701	173.347	267.306	273.276	171.517	176.330	176.064	179.843	348.460	178.718	-8191	255	
17447.297	1	1	0	0	0.37368	0.35836	0.14251	0.25122	0.27835	0.2087	0.13075	0.31278	0.15406	0.12383	0.30786	0.12361	0.20233	0.21645	0.23178	0.13498	-2.5375	-2.5396	-2.8167	-2.8	-2.5354	-2.7417	-2.6167	-2.5021	-2.7542	-2.2292	-2.5062	-2.8563	-2.425	-2.7292	-2.5417	-2.6917	386.836	345.595	404.758	502.032	488.866	486.689	324.569	449.473	211.079	199.647	467.357	489.834	362.609	343.914	244.703	270.066	0.00093447	0.00055182	0.00022124	360.34	6.8884e-06	3.5737e-06	516.42	118.84	3.3463e-06	7.3444e-06	236.3	103.68	44.976	22.583	7.5221e-06	55.626	0.0022781	0.0025599	0.00071453	376.83	2.6915e-05	2.6934e-05	527.23	123.76	2.4856e-05	2.6455e-05	355.93	105.49	47.834	23.619	2.5071e-05	56.674	318.280	220.659	279.041	167.041	296.198	324.235	167.479	173.161	421.903	454.126	172.736	175.939	176.330	179.474	261.115	178.547	-8191	255	
17447.395	1	1	0	0	0.21784	0.21003	0.11693	0.14167	0.091871	0.12897	0.28153	0.058532	0.26337	0.13723	0.1511	0.22736	0.29135	0.21932	0.18504	0.099209	-2.375	-2.5729	-2.5563	-2.7833	-2.5125	-2.8271	-2.3625	-2.5083	-2.9417	-2.6354	-2.5687	-2.8958	-2.5229	-2.7021	-2.6771	-2.5333	437.253	444.214	407.444	377.572	310.657	205.831	488.078	500.813	232.479	224.665	494.210	509.219	191.781	428.669	178.848	374.291	0.00089845	0.00042301	7.5908e-05	365.22	5.7999e-06	8.0393e-06	526.87	121.21	8.9397e-06	5.7915e-06	239.16	104.86	45.291	22.831	8.1346e-06	56.211	0.0020261	0.0022316	0.0006253	379.6	2.445e-05	2.5135e-05	532.36	125.03	2.3959e-05	2.6041e-05	351.95	106.45	48.118	23.753	2.3927e-05	57.162	317.109	334.751	199.711	167.448	339.764	184.710	167.884	173.137	306.919	204.438	172.764	176.268	176.146	179.453	238.124	178.867	-8191	255	
17447.514	1	1	0	0	0.09686	0.13886	0.18036	0.17169	0.054507	0.024889	0.10946	0.16933	0.08219	0.13991	0.15328	0.26444	0.23281	0.15991	0.11764	0.070874	-2.2521	-2.5354	-2.4875	-2.6562	-2.6417	-2.7313	-2.8167	-2.5167	-2.7646	-2.5187	-2.5042	-2.875	-2.5438	-2.75	-2.6583	-2.4833	494.622	283.516	386.340	485.996	417.770	273.210	208.781	487.332	181.166	214.576	416.243	446.882	368.440	412.688	398.200	287.285	0.0010745	0.00032571	0.00023087	369.47	7.7417e-06	4.6231e-06	524.79	121.21	5.3452e-06	7.3824e-06	241.72	104.37	45.414	22.778	1.372e-05	55.983	0.0019829	0.0022268	0.0005926	381.87	2.4023e-05	2.3909e-05	531.36	125.63	2.2918e-05	2.4174e-05	344.75	106	47.86	23.614	2.2519e-05	56.796	315.121	503.912	382.122	167.988	393.557	365.584	167.997	173.092	499.437	298.574	172.125	175.982	175.908	180.080	330.016	178.774	-8191	255	
17447.609	1	1	0	0	0.10665	0.14444	0.17331	0.16625	0.22665	0.099245	0.21014	0.22601	0.13365	0.070119	0.2411	0.2768	0.073231	0.24179	0.23528	0.078511	-2.3958	-2.5229	-2.4042	-2.775	-2.5604	-2.6188	-2.8208	-2.3875	-2.7333	-2.6437	-2.4271	-2.8917	-2.6375	-2.7375	-2.7229	-2.7396	339.937	181.918	172.946	260.547	175.109	457.606	183.223	451.795	324.384	352.540	305.276	466.771	225.712	468.301	302.560	364.210	0.00089876	0.0010118	0.00028939	369.45	6.007e-06	4.4592e-06	523.88	121.76	8.807e-06	7.9732e-07	240.86	104.24	45.257	22.776	6.3412e-06	55.897	0.0019045	0.002107	0.0005774	381.7	2.3131e-05	2.2986e-05	529.8	125.37	2.2187e-05	2.3591e-05	341.09	105.74	47.774	23.624	2.1928e-05	56.776	307.568	225.237	197.361	167.648	304.810	272.062	167.706	173.023	294.713	329.859	172.067	176.149	176.279	179.679	319.734	178.565	-8191	255	
17447.707	1	1	0	0	0.21065	0.2304	0.27393	0.17416	0.10265	0.019737	0.040234	0.13275	0.049863	0.13334	0.25811	0.22775	0.15752	0.12076	0.31272	0.099496	-2.3854	-2.7271	-2.6437	-2.7208	-2.6604	-2.5708	-2.7604	-2.2938	-2.6875	-2.625	-2.3958	-2.9292	-2.5208	-2.6188	-2.6646	-2.5938	500.014	303.910	215.289	420.225	467.476	208.117	276.979	451.454	182.092	382.539	414.785	467.066	486.537	455.098	415.301	257.113	0.00095833	0.00044686	0.00017825	370.04	1.043e-05	2.426e-06	526.46	121.83	4.1931e-06	1.0635e-06	243.37	104.76	45.73	23.015	6.7204e-06	56.395	0.0018795	0.0019912	0.00056467	381.27	2.2808e-05	2.1766e-05	531.4	125.13	2.1955e-05	2.2268e-05	342.95	106.2	47.933	23.716	2.1984e-05	57.159	320.215	284.336	344.339	167.926	314.872	335.983	168.157	173.336	312.631	317.192	172.127	176.242	176.160	179.824	301.452	178.595	-8191	255	
17447.803	1	1	0	0	0.10392	0.28442	0.39533	0.19891	0.092689	0.19146	0.1069	0.21728	0.12017	0.13971	0.22863	0.21476	0.19942	0.14994	0.22626	0.075901	-2.2354	-2.6875	-2.5229	-2.7313	-2.4313	-2.5958	-2.5979	-2.4854	-2.5875	-2.6979	-2.5312	-2.8438	-2.6896	-2.5104	-2.7896	-2.625	408.443	478.206	337.855	330.853	163.879	169.982	361.109	209.851	377.079	451.087	385.255	453.659	171.086	499.920	212.790	400.106	0.00086976	0.00059446	0.00033174	371.74	9.469e-06	1.6503e-06	531.77	122.42	5.0023e-06	1.1108e-06	247.77	105.92	46.094	23.106	8.6411e-07	56.279	0.001868	0.0019785	0.00057193	383.02	2.2095e-05	2.1663e-05	536.03	125.85	2.1503e-05	2.2108e-05	345.71	107.13	48.033	23.77	2.2156e-05	57.278	312.385	239.231	231.020	167.568	287.542	315.181	168.027	172.750	328.230	186.249	171.376	175.946	176.169	179.801	240.299	178.703	-8191	255	
17447.924	1	1	0	0	0.19085	0.38272	0.37702	0.33521	0.22959	0.25216	0.15413	0.099737	0.037378	0.093696	0.18167	0.15668	0.14077	0.14063	0.11898	0.21314	-2.1625	-2.7646	-2.3708	-2.7958	-2.6604	-2.4104	-2.8312	-2.6146	-2.6813	-2.8458	-2.5396	-2.6125	-2.7521	-2.3917	-2.8104	-2.5438	175.731	404.748	284.335	211.496	458.133	270.536	495.117	297.817	421.799	393.375	188.461	195.935	396.952	161.218	340.647	461.624	0.0009457	0.00021567	0.00021608	370.43	2.3319e-06	1.6326e-06	525.72	121.41	9.8219e-06	4.2537e-06	248.09	104.52	45.599	22.976	5.7145e-06	56.036	0.0018432	0.0020082	0.00057962	382.08	2.2436e-05	2.2666e-05	531.95	125.6	2.1159e-05	2.2129e-05	347.85	106.19	47.668	23.673	2.1789e-05	56.8	314.732	376.616	232.217	167.854	260.160	354.535	167.899	173.040	370.869	295.120	172.286	176.092	175.801	179.550	315.508	178.459	-8191	255	
17447.994	1	1	0	0	0.10702	0.086335	0.2665	0.16461	0.11184	0.09502	0.16261	0.18446	0.10722	0.29873	0.11102	0.15848	0.23735	0.30968	0.070718	0.040936	-2.0854	-2.6937	-2.4813	-2.6104	-2.7687	-2.6292	-2.8312	-2.5458	-2.5542	-2.7542	-2.5875	-2.6937	-2.7792	-2.4229	-2.7271	-2.6813	479.522	341.640	448.588	273.275	428.489	347.720	467.294	487.549	313.755	388.287	268.026	165.264	465.422	513.926	469.496	494.757	0.00092672	0.00052631	0.00010676	370.01	9.0577e-06	4.156e-06	522.9	121.46	4.4692e-06	3.6623e-06	246.04	104.42	45.482	22.929	2.02e-06	56.035	0.001777	0.0020014	0.00056665	379.51	2.0987e-05	2.2383e-05	529.3	124.67	2.0822e-05	2.21e-05	345.12	105.85	47.563	23.621	2.1559e-05	56.799	317.764	240.285	333.973	167.580	328.696	406.544	167.992	173.258	335.987	250.610	172.616	176.154	176.189	179.910	262.479	178.809	-8191	255	
17448.092	1	1	0	0	0.20054	0.26702	0.27903	0.22249	0.19874	0.12504	0.1804	0.20375	0.15969	0.12531	0.13965	0.17552	0.1404	0.052095	0.11481	0.14299	-1.9583	-2.5812	-2.5271	-2.4854	-2.775	-2.6833	-2.7708	-2.5229	-2.5021	-2.8646	-2.6229	-2.5854	-2.7062	-2.6083	-2.6583	-2.8458	360.628	260.408	317.620	165.405	503.234	357.759	342.672	382.928	406.414	345.419	410.920	484.276	492.387	423.749	459.099	274.674	0.00095521	0.000162	9.6972e-05	367.39	2.7148e-06	3.4066e-06	528.2	121.77	8.1136e-06	3.7244e-06	243.26	104.45	45.766	22.996	4.9138e-06	55.941	0.0017714	0.001976	0.0005629	379.24	2.12e-05	2.2588e-05	531.11	124.76	2.1028e-05	2.1987e-05	340.81	105.93	47.681	23.67	2.1666e-05	56.735	312.341	239.544	234.395	167.954	235.546	416.314	167.845	172.738	328.956	306.412	171.175	176.157	176.215	179.870	295.884	179.031	-8191	255	
17448.186	1	1	0	0	0.14138	0.13065	0.12846	0.1521	0.18142	0.21181	0.11317	0.16798	0.022435	0.15006	0.33828	0.16814	0.15672	0.13117	0.17883	0.14196	-2.0396	-2.7125	-2.5729	-2.5896	-2.7979	-2.5146	-2.7562	-2.8167	-2.6875	-2.8271	-2.7542	-2.6729	-2.8125	-2.5625	-2.5146	-2.8833	159.027	462.509	213.026	391.912	194.030	232.742	207.346	177.565	339.710	241.405	441.970	170.467	189.680	356.725	447.238	395.948	0.0010067	0.00020696	0.00018084	368.69	6.8966e-06	3.4353e-06	526.42	120.08	1.1194e-05	5.2575e-06	240.59	104.53	45.062	22.622	8.0664e-06	55.912	0.0018013	0.0019713	0.00056567	378.37	2.1301e-05	2.271e-05	530.29	123.83	2.1806e-05	2.2428e-05	347.06	105.88	47.383	23.483	2.2062e-05	56.592	315.125	279.484	327.738	167.642	295.730	391.543	168.118	172.950	316.158	277.833	171.051	176.055	175.887	179.621	250.225	178.710	-8191	255	
17448.307	1	1	0	0	0.10777	0.18294	0.14098	0.20142	0.059569	0.17829	0.099005	0.19929	0.18097	0.25184	0.048269	0.25362	0.14792	0.23608	0.16113	0.28049	-2.1063	-2.8396	-2.6833	-2.6083	-2.7687	-2.6188	-2.4396	-2.7292	-2.5833	-2.8208	-2.65	-2.6437	-2.8042	-2.4313	-2.7062	-2.6854	221.409	224.639	495.390	496.282	424.918	470.639	192.211	505.573	496.797	397.969	445.563	401.391	498.994	173.617	407.956	428.343	0.00093913	0.00024931	2.6747e-05	363.85	3.2929e-06	4.7817e-06	519.39	119.24	1.4643e-05	3.7555e-06	240.88	103.02	44.634	22.394	8.5224e-06	55.069	0.0018524	0.0020193	0.00056635	374.39	2.1501e-05	2.366e-05	524.37	122.65	2.1835e-05	2.2524e-05	338.73	104.57	46.895	23.228	2.133e-05	55.737	316.067	232.584	294.885	167.764	175.991	348.657	167.869	172.926	313.405	309.549	172.617	176.331	175.892	179.976	294.257	178.681	-8191	255	
17448.402	1	1	0	0	0.16152	0.38689	0.11617	0.18626	0.15756	0.18476	0.23389	0.31559	0.039996	0.21225	0.16699	0.14211	0.067011	0.30262	0.16241	0.20136	-1.9937	-2.5833	-2.6708	-2.4833	-2.7313	-2.7	-2.4771	-2.6312	-2.4958	-2.7083	-2.7333	-2.5938	-2.7208	-2.5229	-2.4229	-2.6729	397.708	466.721	234.031	253.436	330.785	501.500	188.444	478.387	375.739	184.538	363.179	194.766	397.381	286.686	235.823	368.156	0.00090829	0.0003478	0.00013189	363.93	3.37e-06	3.6752e-06	515.4	118.51	5.3967e-06	5.3116e-06	244.07	102.94	44.479	22.352	1.0924e-05	54.555	0.0018904	0.0020302	0.00055353	373.49	2.1673e-05	2.3179e-05	521.05	122.58	2.2125e-05	2.2806e-05	342.75	104.46	46.855	23.168	2.2158e-05	55.521	314.265	172.944	251.341	167.366	296.543	493.508	167.905	173.308	267.673	185.002	171.355	175.951	175.725	179.799	366.916	178.600	-8191	255	
17448.498	1	1	0	0	0.10864	0.19359	0.20815	0.039401	0.19244	0.13573	0.14633	0.21137	0.1704	0.15649	0.12829	0.074446	0.26134	0.13887	0.068904	0.11596	-1.9917	-2.6	-2.4104	-2.5271	-2.75	-2.5687	-2.4896	-2.7229	-2.4938	-2.5896	-2.8187	-2.5292	-2.7062	-2.7021	-2.425	-2.8646	483.373	364.412	349.663	320.001	285.874	241.328	466.013	400.856	196.674	210.249	250.919	399.054	373.335	433.848	163.222	492.404	0.0009998	0.00037045	0.00042907	358.74	9.2816e-06	5.8872e-06	516.41	117.84	6.0004e-06	1.1793e-06	238.65	102.38	44.75	22.106	6.7051e-06	54.568	0.0019634	0.0021022	0.00059932	372.79	2.3e-05	2.47e-05	524	122.12	2.3332e-05	2.3614e-05	347.85	104.54	47.06	23.079	2.3647e-05	55.442	322.920	228.245	192.336	167.688	329.458	260.275	168.025	173.173	291.397	242.562	172.401	175.902	176.372	179.496	182.173	178.716	-8191	255	
17448.596	1	1	0	0	0.16074	0.10837	0.20437	0.19425	0.1567	0.11409	0.093474	0.041901	0.018868	0.2911	0.071965	0.20069	0.13626	0.22398	0.1069	0.20525	-1.9438	-2.4625	-2.7042	-2.4333	-2.8063	-2.8521	-2.4521	-2.8458	-2.3958	-2.5646	-2.6146	-2.6125	-2.5812	-2.8083	-2.3688	-2.9042	498.655	176.830	323.334	378.129	305.716	232.906	478.724	341.451	359.272	365.039	456.697	423.897	435.871	175.959	208.028	404.146	0.0010124	0.00049297	9.5438e-05	360.43	1.728e-06	3.2307e-06	515.36	116.17	6.4329e-06	3.8321e-06	239.13	102.64	44.107	21.982	8.0213e-06	54.47	0.0020782	0.002182	0.00062151	373.68	2.4081e-05	2.4928e-05	523.87	122.05	2.4364e-05	2.4545e-05	352.99	104.65	46.79	23.002	2.486e-05	55.472	307.499	272.699	290.028	167.819	287.258	253.623	167.929	173.335	305.147	329.410	171.596	176.093	176.422	179.465	286.894	178.865	-8191	255	
17448.691	1	1	0	0	0.13427	0.12831	0.16881	0.10438	0.23773	0.047827	0.009773	0.24382	0.18588	0.27358	0.17797	0.27001	0.020351	0.12706	0.19643	0.089888	-2.1521	-2.4938	-2.725	-2.4625	-2.6125	-2.6021	-2.4	-2.7792	-2.7438	-2.5958	-2.7875	-2.6208	-2.7167	-2.75	-2.5	-2.8354	232.447	441.781	375.044	262.799	238.744	411.946	365.795	416.455	421.499	330.321	430.330	434.409	201.524	441.034	294.414	503.325	0.0010356	0.0011522	0.00023578	357.04	1.0614e-05	2.6283e-06	513.09	116.54	1.2509e-05	4.5778e-06	241.75	101.56	43.929	21.981	7.1684e-06	53.825	0.0021058	0.0022276	0.00065137	372.96	2.4513e-05	2.5518e-05	520.8	121.48	2.4358e-05	2.4935e-05	353.8	103.7	46.571	22.886	2.4802e-05	54.917	322.838	261.957	216.728	167.563	238.452	330.702	168.026	173.018	347.220	379.907	170.614	176.183	176.236	179.490	200.635	178.747	-8191	255	
17448.787	1	1	0	0	0.17091	0.27663	0.13975	0.10522	0.075084	0.34114	0.082142	0.24698	0.17785	0.25072	0.0056609	0.1638	0.11676	0.069533	0.21497	0.19998	-2.1063	-2.6167	-2.5729	-2.4688	-2.5062	-2.7562	-2.3708	-2.6833	-2.6042	-2.3646	-2.7542	-2.6813	-2.5521	-2.7104	-2.5396	-2.8292	402.401	479.135	415.890	472.666	494.380	179.736	467.912	196.738	156.503	448.079	430.387	163.710	172.864	217.819	190.317	397.930	0.0009041	0.00050018	7.9494e-05	356.08	8.728e-06	2.4757e-06	509.7	116.62	7.8093e-06	4.9372e-06	239.91	102.1	44.027	21.88	2.5338e-06	54.164	0.0020734	0.0022221	0.00063296	370.37	2.3721e-05	2.4813e-05	519.85	121.29	2.3326e-05	2.4331e-05	347.78	103.96	46.545	22.85	2.4053e-05	54.951	316.258	270.206	284.593	167.687	291.489	251.835	167.740	172.780	217.866	334.281	171.655	175.927	175.953	179.765	269.926	178.582	-8191	255	
17448.883	1	1	0	0	0.20928	0.18146	0.028459	0.21962	0.18845	0.12978	0.10327	0.34534	0.13543	0.22208	0.10366	0.1522	0.10244	0.16971	0.064022	0.12729	-2.1937	-2.4625	-2.8438	-2.6146	-2.5062	-2.8187	-2.4625	-2.7812	-2.6604	-2.4708	-2.6437	-2.7458	-2.4604	-2.8063	-2.475	-2.6604	342.795	362.801	181.789	483.895	496.393	277.172	455.077	417.227	219.780	219.821	480.823	514.017	476.188	204.913	175.596	350.068	0.00086302	0.00089134	0.00016296	356.92	2.5353e-06	3.3284e-06	513.54	117	8.7062e-06	2.7836e-06	239.99	102.61	44.111	22.071	9.0656e-07	54.197	0.0019665	0.0022151	0.00062096	371.51	2.3019e-05	2.4631e-05	523.08	121.49	2.3304e-05	2.4768e-05	348.96	104.66	46.782	22.943	2.4009e-05	55.165	317.810	276.279	216.596	167.678	193.097	357.988	167.699	173.409	329.902	247.827	171.842	176.005	176.289	179.678	235.175	178.484	-8191	255	
17449.004	1	1	0	0	0.44028	0.080203	0.30751	0.14448	0.057167	0.2715	0.21622	0.10237	0.049126	0.20147	0.13651	0.2164	0.18563	0.13517	0.14673	0.13176	-2.0458	-2.4083	-2.6729	-2.6917	-2.4229	-2.7188	-2.6396	-2.6417	-2.6708	-2.5938	-2.6646	-2.6208	-2.5542	-2.7729	-2.5583	-2.6813	511.504	309.719	206.860	193.086	499.617	172.488	432.674	205.462	287.157	183.689	384.761	448.054	202.747	486.680	266.837	159.309	0.00092867	0.00018004	0.00012147	359.23	3.5065e-06	3.7803e-06	518.78	118.41	6.0638e-06	5.7042e-06	243.87	102.98	44.167	22.105	1.1117e-05	54.294	0.0020367	0.0022209	0.0006187	374.43	2.3282e-05	2.4736e-05	526.7	122.11	2.371e-05	2.4653e-05	351.25	104.89	46.955	22.983	2.4195e-05	55.239	324.284	253.350	216.723	167.749	369.471	329.802	167.737	173.250	464.833	257.968	171.795	175.954	176.116	179.844	363.574	178.795	-8191	255	
17449.098	1	1	0	0	0.22207	0.22745	0.19093	0.21156	0.20092	0.17766	0.056542	0.091338	0.23264	0.17607	0.14794	0.15002	0.15781	0.10454	0.079035	0.36827	-2.2708	-2.4333	-2.7	-2.6375	-2.4854	-2.7125	-2.5208	-2.575	-2.7292	-2.7521	-2.6375	-2.8229	-2.4542	-2.8312	-2.5125	-2.6542	452.341	471.555	259.134	490.637	494.720	245.769	311.028	337.389	174.982	394.318	162.058	434.454	417.640	394.813	488.001	471.266	0.00094276	0.00042538	0.00024694	361.45	6.2397e-06	6.8132e-06	512.71	117.69	1.5993e-05	8.9464e-06	242.59	102.51	44.213	21.979	7.8035e-06	53.772	0.0020403	0.002259	0.0006325	374.1	2.4487e-05	2.4804e-05	523.7	122.03	2.4474e-05	2.503e-05	352.32	104.22	46.904	22.912	2.4436e-05	54.766	311.546	502.821	222.650	167.398	275.878	298.510	167.437	173.016	274.504	298.449	171.631	176.021	176.373	179.836	328.862	178.730	-8191	255	
17449.193	1	1	0	0	0.14953	0.23483	0.14884	0.10876	0.08843	0.15388	0.070703	0.081388	0.34855	0.11998	0.11189	0.18839	0.47509	0.28037	0.09971	0.022858	-2.2646	-2.3937	-2.5854	-2.7167	-2.5125	-2.7771	-2.4854	-2.5396	-2.8417	-2.5646	-2.675	-2.8479	-2.4458	-2.6833	-2.5979	-2.4917	343.027	337.246	288.801	489.064	424.322	274.681	299.477	400.812	492.989	314.304	168.406	402.167	494.113	446.789	438.292	505.161	0.00091521	0.00028337	0.00022882	359.34	4.5541e-06	3.1624e-06	515.45	118.06	1.1264e-05	3.9358e-06	237.32	102.52	44.246	21.922	6.0321e-06	53.987	0.0020514	0.002339	0.00062589	374.39	2.4552e-05	2.4978e-05	524.13	122.21	2.4309e-05	2.5448e-05	348.79	104.51	46.951	22.888	2.4191e-05	55.024	305.352	194.850	261.338	167.595	365.291	388.423	168.104	173.192	339.709	371.424	173.070	176.254	176.037	179.294	279.353	178.672	-8191	255	
17449.289	1	1	0	0	0.095239	0.26849	0.20406	0.18116	0.18762	0.1214	0.25536	0.31365	0.020394	0.37684	0.20797	0.14129	0.19041	0.24672	0.016908	0.17776	-2.3438	-2.3063	-2.5687	-2.7687	-2.4458	-2.8229	-2.7292	-2.4188	-2.7062	-2.5938	-2.5354	-2.6771	-2.5021	-2.6792	-2.5208	-2.7188	445.734	394.531	477.439	503.896	355.957	304.324	361.008	399.998	361.101	197.457	234.583	480.681	339.563	289.564	349.499	442.838	0.0011845	0.0007355	0.00014253	361.77	8.2985e-06	5.6104e-06	517.89	117.52	5.7753e-06	4.5941e-06	241.44	103.29	44.513	21.985	5.4838e-06	54.276	0.0020629	0.0022914	0.00062152	376.17	2.4453e-05	2.5203e-05	526.91	122.41	2.449e-05	2.5177e-05	349.98	104.94	47.036	22.921	2.4019e-05	55.218	309.225	289.656	248.483	168.020	256.247	301.513	167.660	173.206	444.416	320.369	172.548	176.088	176.168	179.840	379.782	179.014	-8191	255	
17449.387	1	1	0	0	0.25298	0.16689	0.13363	0.21109	0.017706	0.17143	0.25509	0.04355	0.11894	0.22979	0.10983	0.21764	0.045786	0.073789	0.091582	0.35293	-2.3771	-2.3667	-2.4833	-2.725	-2.2417	-2.8688	-2.6479	-2.4875	-2.7917	-2.6	-2.7062	-2.9729	-2.5	-2.65	-2.6979	-2.5833	366.498	401.123	206.623	471.473	318.739	369.266	197.668	454.501	505.911	340.851	289.593	448.670	278.479	437.374	458.380	213.826	0.0010154	0.00052842	0.00017634	361.81	1.2951e-05	8.5335e-06	519.71	117.63	4.2099e-06	9.9978e-06	241.96	102.17	44.061	21.92	5.6749e-06	53.901	0.0020712	0.0023386	0.00062372	376.34	2.4579e-05	2.4876e-05	528.93	122.67	2.429e-05	2.5305e-05	352.89	104.38	47.083	22.866	2.4563e-05	54.959	315.207	316.616	201.936	167.677	315.443	326.327	167.812	173.065	341.942	308.220	172.083	176.296	175.970	180.132	420.912	178.783	-8191	255	
17449.482	1	1	0	0	0.090324	0.35939	0.061232	0.25588	0.049609	0.15931	0.093788	0.28643	0.04898	0.094565	0.31549	0.032009	0.16093	0.11704	0.13478	0.1198	-2.1729	-2.5458	-2.5125	-2.6771	-2.4833	-2.5708	-2.7104	-2.5125	-2.9333	-2.6646	-2.5208	-2.9375	-2.4146	-2.5458	-2.8458	-2.5292	456.963	504.073	506.814	248.877	395.444	325.509	191.240	494.618	498.827	492.930	217.078	313.259	261.404	178.259	400.842	514.282	0.00090961	0.00020062	0.00015934	360.58	7.9717e-06	1.6679e-06	518.26	117.9	7.0767e-06	4.2376e-06	238.48	101.7	44.147	21.784	2.2936e-06	53.71	0.0020272	0.0022118	0.00061388	374.39	2.3123e-05	2.2901e-05	524.51	121.83	2.2493e-05	2.2651e-05	342.11	103.31	46.432	22.613	2.2736e-05	54.383	313.767	435.156	507.605	167.587	349.508	371.802	167.411	172.919	272.089	261.950	172.629	176.046	176.282	179.538	453.715	178.763	-8191	255	
17449.604	1	1	0	0	0.11256	0.093051	0.2322	0.069022	0.15635	0.18339	0.11051	0.10115	0.051	0.18522	0.11343	0.23849	0.18585	0.10337	0.22167	0.13968	-2.2208	-2.6583	-2.2896	-2.9125	-2.3625	-2.6813	-2.7354	-2.5521	-2.7938	-2.5458	-2.3812	-2.9271	-2.5479	-2.6979	-2.8771	-2.6208	503.730	357.715	349.929	350.096	361.646	207.662	408.981	484.212	221.384	357.858	308.919	199.061	222.120	278.358	513.700	400.580	0.00095106	0.00092135	0.00012685	363.2	4.5128e-06	4.1181e-06	516.64	116.77	5.3496e-06	5.666e-06	246.51	100.75	43.471	21.51	1.0441e-05	52.852	0.001889	0.0021501	0.00060393	374.82	2.307e-05	2.3636e-05	524.38	121.72	2.3544e-05	2.5013e-05	356.18	103.03	46.637	22.551	2.6303e-05	54.023	314.016	181.562	239.871	167.328	267.907	365.772	167.948	172.602	406.320	206.269	172.315	176.316	176.400	179.714	302.683	178.646	-8191	255	
17449.699	1	1	0	0	0.25387	0.042482	0.063941	0.12765	0.23882	0.081013	0.18767	0.14002	0.1504	0.23925	0.1772	0.32964	0.11923	0.26693	0.085565	0.3211	-2.3292	-2.6271	-2.4167	-2.7375	-2.575	-2.5438	-2.8958	-2.4854	-2.6104	-2.8479	-2.4917	-2.7521	-2.7167	-2.4729	-2.7188	-2.6354	315.759	367.058	244.053	181.321	466.596	303.262	428.013	241.255	413.691	167.801	285.545	505.628	459.344	506.372	488.709	442.849	0.00082491	0.00033561	0.00013723	360.81	1.1901e-05	4.8084e-06	514.22	116.94	8.7398e-06	5.6125e-06	235.64	99.693	42.99	21.043	1.0333e-05	51.796	0.0021411	0.0024817	0.00071552	378.36	2.7627e-05	2.933e-05	527.52	123.05	2.9297e-05	3.1835e-05	389.43	102.91	47.175	22.547	3.5181e-05	53.853	316.664	418.304	256.169	167.449	315.630	315.949	167.785	172.948	349.857	306.501	173.177	176.039	176.064	179.953	316.094	178.936	-8191	255	
17449.797	1	1	0	0	0.20866	0.10627	0.080659	0.30262	0.10913	0.016462	0.089833	0.17138	0.13358	0.095851	0.18852	0.046554	0.1076	0.29439	0.22079	0.018777	-2.3375	-2.6229	-2.3979	-2.675	-2.4688	-2.5979	-2.7833	-2.5583	-2.5875	-2.7062	-2.4562	-2.7354	-2.4833	-2.5292	-2.6521	-2.7083	229.670	202.121	279.623	437.745	277.404	205.648	441.825	435.995	170.422	329.388	433.491	334.888	233.587	409.588	299.332	265.854	0.00096202	0.00074133	8.575e-05	352.62	9.0551e-06	6.1534e-06	508.62	114.26	1.0065e-05	8.4618e-06	235.45	98.279	42.145	20.692	1.2206e-05	51.211	0.0029092	0.003595	0.0010049	383.16	3.8354e-05	4.1173e-05	532.25	124.38	3.9602e-05	4.3284e-05	443.87	103.28	48.222	22.735	4.3907e-05	53.827	318.683	497.887	307.077	167.729	277.834	268.947	168.064	172.988	342.368	227.454	171.563	176.000	176.088	179.617	245.901	178.725	-8191	255	
17449.867	1	1	0	0	0.079749	0.10374	0.043236	0.34586	0.28958	0.11744	0.32317	0.14524	0.18765	0.15098	0.091357	0.13221	0.15918	0.16766	0.28572	0.26871	-2.1292	-2.8542	-2.3604	-2.8563	-2.6583	-2.4792	-2.8396	-2.5375	-2.6458	-2.7667	-2.5375	-2.8354	-2.7208	-2.5083	-2.8083	-2.6979	455.748	470.150	300.231	446.830	231.053	160.819	211.898	274.248	442.895	416.842	464.911	179.095	452.147	488.780	298.289	418.260	0.00083281	0.00051428	0.00027495	349.5	6.4569e-06	5.6246e-06	501.53	112.91	5.3639e-06	1.0153e-05	228.82	96.999	41.574	20.251	1.6648e-05	50.057	0.0035474	0.004222	0.0011664	384.38	4.4391e-05	4.6531e-05	530.16	124.48	4.4198e-05	4.6087e-05	458.93	102.46	48.17	22.555	4.5048e-05	52.962	314.958	225.455	299.045	167.259	247.380	424.328	167.583	172.506	298.298	368.211	170.854	176.286	176.421	179.967	225.515	178.711	-8191	255	
17449.963	1	1	0	0	0.21425	0.051219	0.37256	0.15748	0.05093	0.15403	0.32647	0.37669	0.1896	0.27561	0.04523	0.15591	0.23158	0.19193	0.15502	0.20211	-1.9604	-2.8104	-2.5292	-2.7542	-2.6417	-2.6021	-2.8063	-2.5646	-2.6188	-2.7438	-2.7292	-2.8292	-2.6708	-2.4292	-2.7646	-2.8917	374.965	169.897	473.890	415.645	444.030	245.880	334.628	164.700	408.965	192.997	297.652	481.179	182.966	173.871	440.067	452.521	0.00087754	0.00086108	4.6463e-05	347.87	7.8262e-06	1.2763e-05	502.2	112.53	1.2317e-05	4.3947e-06	228.73	96.255	41.473	20.24	5.437e-06	50.315	0.0036637	0.004171	0.0011813	382.32	4.491e-05	4.6603e-05	528.33	123.51	4.4446e-05	4.562e-05	453.62	101.72	48.11	22.455	4.3813e-05	52.959	320.069	352.698	510.713	167.483	281.170	304.093	167.914	173.025	235.339	302.219	172.348	175.869	176.540	179.958	278.842	178.846	-8191	255	
17450.082	1	1	0	0	0.057731	0.11383	0.16487	0.12357	0.17139	0.086539	0.19864	0.070287	0.11896	0.20345	0.086258	0.21342	0.34348	0.28547	0.12224	0.16096	-2.0292	-2.7646	-2.5354	-2.8042	-2.7042	-2.5458	-2.8	-2.6729	-2.4521	-2.7458	-2.4792	-2.4917	-2.9146	-2.425	-2.7562	-2.6625	488.551	241.926	264.863	180.862	199.263	313.949	465.031	228.993	460.438	341.582	449.713	355.650	402.738	363.849	244.482	450.651	0.0010651	0.00039244	0.00014686	347.82	1.8207e-05	6.3026e-06	499.46	111.75	4.8523e-06	1.1779e-05	229.84	96.883	41.558	20.246	2.6585e-06	50.371	0.0036083	0.0040582	0.0011394	381.51	4.3955e-05	4.5368e-05	526.07	123.02	4.3855e-05	4.5002e-05	447.18	101.75	47.787	22.355	4.2999e-05	52.912	319.519	273.456	238.674	167.641	162.582	246.993	167.838	173.254	359.910	216.676	172.745	176.131	176.277	179.647	463.331	178.604	-8191	255	
17450.178	1	1	0	0	0.22786	0.32916	0.14475	0.16682	0.20777	0.087095	0.16568	0.19183	0.20573	0.34044	0.2478	0.15552	0.15066	0.32514	0.05362	0.08307	-2.0354	-2.6479	-2.5896	-2.7104	-2.7729	-2.3542	-2.7708	-2.6646	-2.5417	-2.7583	-2.7521	-2.5417	-2.6854	-2.4417	-2.6292	-2.6625	213.595	417.144	334.016	395.459	358.902	267.899	385.202	462.864	270.447	429.663	259.828	506.442	417.970	445.789	388.922	407.526	0.00092091	0.00020163	0.0003347	347.22	1.4938e-05	8.8373e-06	500.17	112.21	3.184e-06	7.6281e-06	223.47	96.313	41.071	20.257	1.0843e-05	50.114	0.0035762	0.0040304	0.0011308	381.06	4.3891e-05	4.4609e-05	526.04	123.18	4.3531e-05	4.4831e-05	446.9	101.88	47.594	22.394	4.2998e-05	52.9	314.536	495.134	161.023	167.558	314.994	278.741	168.055	173.069	479.970	331.814	171.431	176.541	175.969	179.898	369.429	179.013	-8191	255	
17450.275	1	1	0	0	0.22018	0.17696	0.15481	0.18326	0.17075	0.10414	0.11759	0.25814	0.18654	0.21215	0.12839	0.10204	0.074598	0.10805	0.02861	0.19479	-2.0625	-2.7333	-2.5854	-2.6937	-2.6896	-2.4688	-2.6833	-3.0042	-2.4667	-2.9813	-2.6625	-2.6813	-2.6042	-2.6083	-2.7917	-2.9396	324.029	486.915	344.672	176.994	475.029	480.091	364.967	482.696	390.609	297.251	325.278	172.208	197.399	268.651	422.681	193.173	0.0010046	0.00030083	0.00020185	341.95	1.0409e-05	1.5217e-05	493.73	110.87	4.7271e-06	1.0885e-05	224.14	96.031	41.341	20.209	3.6401e-06	49.933	0.0035682	0.003968	0.0011219	378.96	4.3387e-05	4.4443e-05	522.88	122.86	4.394e-05	4.4915e-05	453.14	101.7	47.567	22.358	4.5531e-05	52.755	310.890	191.026	472.183	167.506	373.926	309.017	167.548	173.154	347.355	388.116	172.809	176.308	176.281	179.707	465.752	178.864	-8191	255	
17450.395	1	1	0	0	0.064747	0.096083	0.025166	0.065875	0.10764	0.17463	0.056952	0.23877	0.23439	0.13565	0.22186	0.20202	0.076593	0.16994	0.23663	0.14035	-2.1396	-2.7229	-2.6646	-2.4729	-2.8083	-2.5938	-2.5563	-2.6292	-2.4188	-2.5687	-2.525	-2.5146	-2.775	-2.5875	-2.4021	-2.8729	411.839	180.148	156.591	443.426	470.661	348.938	320.330	424.323	254.374	289.942	362.145	175.799	387.171	171.801	259.765	408.300	0.00087673	0.0013614	0.00011518	340.43	5.7315e-06	6.9211e-06	495.91	110.7	7.9329e-06	6.9133e-06	231.17	95.912	40.95	20.089	7.4401e-06	49.725	0.0036943	0.0041321	0.0012053	379.32	4.5103e-05	4.5459e-05	523.27	122.56	4.5356e-05	4.4616e-05	458.26	101.39	47.457	22.26	4.5672e-05	52.616	313.256	342.724	481.491	167.653	382.802	322.890	167.428	173.090	348.787	358.920	172.952	176.574	176.057	179.684	384.620	178.795	-8191	255	
17450.467	1	1	0	0	0.24085	0.24541	0.028218	0.1401	0.26018	0.176	0.23186	0.16894	0.17052	0.1732	0.11025	0.090333	0.1825	0.18369	0.086175	0.26414	-2.0271	-2.6208	-2.5312	-2.2729	-2.6792	-2.6021	-2.6542	-2.7604	-2.5417	-2.7562	-2.6417	-2.5604	-2.8396	-2.525	-2.4354	-3.0229	458.682	288.869	479.666	497.811	288.229	431.401	426.033	261.845	188.571	303.406	340.810	278.156	435.276	347.067	161.358	436.914	0.00070862	0.00083549	9.2243e-05	341.81	8.9425e-06	4.5392e-06	494.6	110.72	6.5315e-06	1.1073e-05	220.58	96.411	40.866	20.11	8.7701e-06	50.07	0.0036478	0.004048	0.0012029	378.92	4.4528e-05	4.5582e-05	525.6	122.58	4.5038e-05	4.5108e-05	460.19	101.84	47.201	22.292	4.5442e-05	52.852	324.624	157.738	180.916	167.746	381.473	268.470	168.026	173.076	425.445	225.579	173.405	176.146	175.916	179.560	271.885	178.844	-8191	255	
17450.562	1	1	0	0	0.18467	0.16579	0.13155	0.18866	0.12872	0.26969	0.021578	0.011791	0.086215	0.18899	0.14894	0.16745	0.13676	0.21646	0.19811	0.10772	-2.1688	-2.4479	-2.65	-2.6125	-2.75	-2.7125	-2.4813	-2.7833	-2.3563	-2.6854	-2.6417	-2.6625	-2.7604	-2.6167	-2.4833	-2.8021	422.939	304.455	389.238	302.734	166.601	452.138	343.236	461.048	341.291	399.716	438.792	372.724	377.456	393.809	418.409	366.124	0.00076411	0.0015405	0.00030691	342.96	1.2512e-05	8.2684e-07	498.02	111.13	5.2686e-06	4.1539e-06	236.96	96.518	40.907	20.164	7.6591e-06	50.112	0.0035525	0.00405	0.001188	379.28	4.263e-05	4.5183e-05	526	122.18	4.2978e-05	4.4765e-05	456.43	101.77	47.081	22.365	4.3756e-05	52.803	313.457	255.484	371.237	167.513	336.037	415.294	167.772	172.890	349.493	512.869	172.728	175.962	176.055	179.641	210.624	178.805	-8191	255	
17450.684	1	1	0	0	0.10939	0.10583	0.19152	0.080548	0.23361	0.24055	0.077853	0.24798	0.34662	0.17484	0.17146	0.15508	0.084814	0.16334	0.27652	0.037574	-2.0354	-2.5625	-2.6312	-2.5583	-2.6417	-2.6854	-2.6354	-2.6958	-2.6396	-2.4813	-2.675	-2.4104	-2.5292	-2.7417	-2.4458	-2.7979	279.201	497.656	324.719	513.149	415.552	311.045	280.464	176.275	407.104	503.749	278.926	456.086	440.665	386.311	214.989	444.735	0.0008888	0.0010576	0.00026992	342.5	1.1637e-05	6.9589e-06	490.61	110.31	6.1751e-06	6.8861e-06	226.46	96.18	41.059	20.116	1.4388e-05	50.232	0.0033843	0.0039937	0.0011326	375.17	4.0877e-05	4.4243e-05	520.28	121.03	4.177e-05	4.4412e-05	445.97	101.02	46.903	22.307	4.3512e-05	52.813	316.181	257.591	281.924	167.318	389.883	289.630	167.694	172.947	324.011	268.949	170.840	176.392	176.019	179.720	371.069	178.686	-8191	255	
17450.779	1	1	0	0	0.11681	0.13055	0.061575	0.21001	0.14991	0.075929	0.0069652	0.11365	0.23207	0.075984	0.09047	0.15102	0.26958	0.12811	0.08734	0.20422	-2.1188	-2.4208	-2.7542	-2.3729	-2.6646	-2.7938	-2.35	-2.7146	-2.5187	-2.5438	-2.6729	-2.5312	-2.5438	-2.8979	-2.5354	-2.7917	335.485	465.415	293.002	465.126	481.923	442.089	392.548	485.127	419.520	212.397	386.330	500.175	449.542	168.606	160.832	387.615	0.00099097	0.00094246	0.00020152	340.27	5.267e-06	2.0154e-06	494.67	110.67	1.0989e-05	9.7351e-06	229.3	95.868	41.32	20.204	9.0365e-06	50.525	0.0034059	0.0040244	0.0011162	375.34	4.1624e-05	4.4538e-05	520.44	120.91	4.249e-05	4.475e-05	446.38	101.15	47.298	22.416	4.3462e-05	53.012	315.140	156.021	261.104	167.832	309.136	472.888	167.695	173.252	335.183	292.828	171.948	176.259	175.718	180.028	473.754	178.789	-8191	255	
17450.877	1	1	0	0	0.14128	0.14914	0.34329	0.094125	0.047578	0.43954	0.094751	0.055474	0.2467	0.26861	0.20332	0.25343	0.096923	0.019431	0.12846	0.29915	-2.2667	-2.4667	-2.9333	-2.3563	-2.6208	-2.7104	-2.4688	-2.6688	-2.6604	-2.4417	-2.8396	-2.5833	-2.6375	-2.7083	-2.3979	-2.8146	289.869	235.604	431.511	214.149	440.812	436.512	499.686	514.277	267.304	258.394	331.611	359.166	353.318	209.010	438.568	187.882	0.00089975	0.0011566	0.00015061	340.39	6.9305e-06	6.5884e-06	497.02	110.6	3.5182e-06	3.4464e-06	229.93	96.992	41.607	20.321	5.2038e-06	50.865	0.0035106	0.0040656	0.0011221	375.39	4.3228e-05	4.4945e-05	523.47	121.31	4.4328e-05	4.469e-05	445.95	102.01	47.64	22.498	4.293e-05	53.387	314.721	173.800	323.356	167.593	237.731	305.944	168.059	173.379	342.949	221.410	173.004	175.986	175.724	179.760	370.207	178.850	-8191	255	
17450.996	1	1	0	0	0.24733	0.32597	0.19521	0.094701	0.067106	0.25994	0.085431	0.22719	0.13374	0.20779	0.14375	0.25659	0.099759	0.20451	0.15581	0.21932	-2.3333	-2.4458	-2.4771	-2.3208	-2.5229	-2.7333	-2.4958	-2.6333	-2.7667	-2.5167	-2.725	-2.5979	-2.5146	-2.9	-2.5812	-2.7792	308.708	433.380	183.692	432.398	488.947	342.856	295.406	339.583	322.047	228.233	456.643	454.200	456.817	447.587	168.215	362.058	0.0009147	0.00070049	0.00017515	345.67	7.7068e-06	5.4258e-06	497.18	111.73	9.5188e-06	6.9067e-06	226.08	97.185	41.6	20.337	1.2025e-05	50.888	0.0034981	0.003982	0.0010883	377.7	4.2904e-05	4.3967e-05	523.8	122.18	4.292e-05	4.3961e-05	437.68	102.26	47.775	22.506	4.2504e-05	53.339	306.037	263.423	483.287	167.990	329.930	214.219	167.785	173.134	514.143	303.389	171.942	175.790	175.826	179.815	345.866	178.947	-8191	255	
17451.092	1	1	0	0	0.11252	0.11005	0.071417	0.22366	0.064256	0.097259	0.26116	0.069221	0.23334	0.092619	0.1585	0.32638	0.1467	0.040408	0.081682	0.056429	-2.3312	-2.5646	-2.7354	-2.5708	-2.5167	-2.6229	-2.4167	-2.675	-2.9771	-2.5563	-2.6917	-2.6854	-2.5292	-2.7687	-2.6208	-2.6021	373.166	218.172	417.293	466.955	170.387	179.137	388.332	370.126	242.788	435.940	455.481	441.482	335.358	296.937	476.626	334.029	0.00089322	0.00077704	0.00012308	342.45	3.7655e-06	1.3176e-06	494.19	110.94	4.8057e-06	8.6321e-07	232.22	96.358	41.318	20.352	1.2154e-05	50.551	0.0035221	0.0039647	0.0010721	377.58	4.2904e-05	4.3736e-05	521.27	122.05	4.3889e-05	4.422e-05	439.88	101.71	47.672	22.417	4.2129e-05	53.159	316.276	242.074	319.529	167.578	260.123	281.211	167.845	172.949	324.130	265.837	172.599	176.357	175.502	179.963	291.761	178.872	-8191	255	
17451.162	1	1	0	0	0.19241	0.032552	0.16324	0.044831	0.054078	0.13386	0.080561	0.098947	0.19938	0.25381	0.18761	0.18036	0.14512	0.018814	0.18547	0.14384	-2.1646	-2.5375	-2.6667	-2.6417	-2.4813	-2.8958	-2.5833	-2.6646	-2.7208	-2.5667	-2.8042	-2.5708	-2.8104	-2.8583	-2.4583	-2.675	371.599	401.204	504.833	466.008	236.337	178.425	166.575	435.265	201.877	319.747	324.305	454.111	428.841	284.369	256.615	296.334	0.00094065	0.00040397	0.00027407	344.23	1.1214e-05	8.778e-06	493.98	111.06	1.0836e-05	8.2658e-06	237.71	96.615	41.283	20.34	8.3023e-06	50.557	0.0035451	0.0039607	0.0010822	378.56	4.2928e-05	4.2792e-05	521.9	122.22	4.2865e-05	4.3125e-05	438.51	101.96	47.514	22.423	4.2954e-05	53.271	314.052	210.839	256.649	167.944	376.216	307.042	167.873	173.292	349.944	324.247	173.807	176.135	176.293	179.899	453.160	178.901	-8191	255	
17451.283	1	1	0	0	0.1	0.23199	0.12038	0.15193	0.20792	0.15128	0.083587	0.095986	0.14746	0.17986	0.29324	0.059392	0.20764	0.08011	0.21112	0.030712	-2.2354	-2.4542	-2.6562	-2.6292	-2.3417	-2.7	-2.7833	-2.475	-2.7396	-2.5146	-2.5125	-2.6708	-2.3917	-2.7292	-2.4646	-2.4896	399.690	375.690	320.037	229.753	224.850	411.449	492.084	475.345	379.972	440.780	278.721	336.907	486.811	390.923	311.562	391.669	0.00090486	0.0012353	0.00029463	345.45	8.759e-06	6.9449e-06	496.95	111.35	4.8166e-06	2.921e-06	225.98	98.052	41.538	20.512	8.3564e-06	51.054	0.0034855	0.0038211	0.0010853	379.82	4.2345e-05	4.2144e-05	524.43	122.45	4.2322e-05	4.3591e-05	445.99	102.78	47.68	22.483	4.3597e-05	53.57	319.114	284.120	427.997	167.646	326.052	268.814	167.735	173.050	406.676	347.467	171.115	176.330	175.894	179.628	187.297	178.564	-8191	255	
17451.379	1	1	0	0	0.25355	0.1405	0.045472	0.067514	0.20617	0.099454	0.11101	0.087791	0.083551	0.27141	0.23822	0.19246	0.2106	0.16372	0.13266	0.31438	-2.2354	-2.525	-2.5771	-2.7604	-2.4896	-2.6604	-2.5708	-2.5396	-2.8542	-2.6542	-2.4562	-2.7646	-2.3708	-2.6521	-2.5396	-2.4167	479.510	193.920	306.909	169.763	429.761	173.565	445.382	424.937	230.036	375.261	372.883	384.916	306.427	238.684	199.021	422.568	0.00096416	0.0002857	1.9313e-05	346.25	9.8969e-06	5.7382e-06	501.67	111.14	6.6502e-06	3.2592e-06	227.19	97.803	41.729	20.548	9.3464e-06	50.562	0.0034425	0.0037965	0.0011088	381.13	4.1476e-05	4.1797e-05	529.37	122.87	4.1193e-05	4.2277e-05	447.48	102.67	47.645	22.511	4.3958e-05	53.287	314.430	180.041	238.373	167.722	383.239	190.854	167.935	173.068	400.389	334.213	173.507	176.110	176.256	179.572	351.265	178.750	-8191	255	
17451.477	1	1	0	0	0.10845	0.25317	0.2131	0.31834	0.12802	0.21741	0.29273	0.2235	0.1309	0.26518	0.34919	0.12464	0.23305	0.37119	0.088385	0.14741	-2.2896	-2.375	-2.5479	-2.75	-2.4583	-2.7146	-2.7188	-2.5021	-2.6667	-2.6729	-2.5667	-2.7167	-2.5771	-2.625	-2.4708	-2.4104	475.187	193.591	278.491	182.186	327.902	269.308	157.925	480.686	241.152	507.768	378.596	505.261	247.946	408.886	383.126	214.451	0.00075613	0.00081806	9.8376e-05	345.24	5.5757e-06	1.03e-05	497.93	111.31	3.5638e-06	6.4052e-06	233.68	97.18	41.897	20.517	9.6774e-06	50.565	0.0033353	0.003812	0.0011055	379.52	4.0576e-05	4.2036e-05	524.7	122.49	3.9738e-05	4.3347e-05	444.46	102.18	47.492	22.529	4.3138e-05	53.151	326.722	300.236	323.618	167.695	296.974	255.546	167.541	173.330	368.182	294.332	171.774	176.349	175.979	179.519	166.407	178.560	-8191	255	
17451.572	1	1	0	0	0.17739	0.25127	0.28956	0.10254	0.14137	0.1962	0.13341	0.078	0.072936	0.21167	0.15629	0.35776	0.3592	0.30637	0.064403	0.21656	-2.2062	-2.2687	-2.5354	-2.6229	-2.475	-2.6312	-2.7458	-2.6125	-2.6729	-2.4854	-2.5917	-2.9354	-2.4854	-2.5896	-2.8104	-2.5687	234.475	447.015	175.930	181.739	322.283	322.542	157.249	222.030	210.750	491.647	159.663	212.311	471.500	449.768	217.322	436.089	0.00088456	0.00040924	2.6071e-05	347.3	5.0922e-06	6.3998e-06	498.16	111.74	1.2466e-05	7.8023e-06	231.71	96.954	42.172	20.382	1.1541e-05	50.72	0.0032471	0.0038626	0.0010942	380.22	4.0508e-05	4.2956e-05	524.34	122.36	3.9404e-05	4.3612e-05	442.06	102.4	47.585	22.545	4.2951e-05	53.176	317.112	514.123	432.306	167.846	479.941	229.260	167.933	172.749	258.952	271.901	171.202	176.184	176.228	179.911	421.459	178.780	-8191	255	
17451.668	1	1	0	0	0.18513	0.18252	0.22769	0.040731	0.19373	0.11736	0.11438	0.11956	0.38664	0.082555	0.2078	0.24211	0.3589	0.27446	0.12887	0.091497	-2.1688	-2.7375	-2.4917	-2.6646	-2.5917	-2.7083	-2.8812	-2.4313	-2.7375	-2.6417	-2.4188	-2.7521	-2.4938	-2.4354	-2.7417	-2.5979	437.434	351.601	414.140	262.506	268.680	439.904	321.852	252.095	479.726	182.869	263.848	429.567	503.988	190.774	485.257	186.982	0.00094979	0.00080378	0.00011661	345.09	4.8226e-06	9.34e-06	498.96	112.18	1.6369e-06	6.85e-06	230.97	97.643	41.724	20.552	3.9248e-06	51.019	0.0032789	0.0039295	0.0010928	378.22	4.1034e-05	4.3443e-05	526.21	122.44	4.078e-05	4.4728e-05	442.85	102.29	47.578	22.617	4.231e-05	53.288	312.531	213.687	181.649	167.585	260.362	498.175	167.649	173.193	263.452	291.791	172.105	176.459	175.760	179.308	169.465	178.848	-8191	255	
17451.764	1	1	0	0	0.13729	0.050805	0.13381	0.13771	0.2236	0.38158	0.10957	0.2653	0.12215	0.077409	0.15798	0.35893	0.24382	0.070575	0.15395	0.31016	-2.2229	-2.5563	-2.4896	-2.6708	-2.5687	-2.6708	-2.7812	-2.6063	-2.8542	-2.5354	-2.3729	-2.7729	-2.6208	-2.5083	-2.8229	-2.4917	454.507	379.842	172.418	317.888	324.543	495.932	222.163	191.010	205.041	367.710	285.577	485.389	401.349	442.148	166.544	477.793	0.0009171	0.00098641	9.6082e-05	345.63	1.3006e-05	5.023e-06	498.91	112.39	6.0554e-06	5.4019e-06	226.5	97.343	41.702	20.43	6.5957e-06	50.709	0.0033456	0.0039078	0.001089	378.02	4.2163e-05	4.3256e-05	524.82	122.08	4.1029e-05	4.3308e-05	438.4	101.89	47.657	22.43	4.041e-05	53.044	307.294	293.994	255.111	167.460	250.687	269.777	168.085	173.368	289.495	255.140	173.305	176.027	176.353	179.763	344.328	178.810	-8191	255	
17451.859	1	1	0	0	0.17232	0.10436	0.14766	0.13191	0.24921	0.17574	0.16719	0.18368	0.078251	0.073693	0.1786	0.47081	0.21349	0.23668	0.16214	0.22314	-2.1396	-2.7896	-2.45	-2.7417	-2.7375	-2.3958	-2.7792	-2.5563	-2.7854	-2.8417	-2.3438	-2.7812	-2.3771	-2.6437	-2.6729	-2.6708	392.347	238.878	305.012	363.604	159.278	458.698	436.261	481.629	402.174	375.899	194.965	422.816	172.716	492.448	292.214	492.293	0.00088319	0.00035104	0.00021	347.49	1.2799e-05	3.0599e-06	499.08	112.71	1.0839e-06	8.8909e-06	228.32	96.962	41.877	20.54	3.1586e-06	50.498	0.0032611	0.0037051	0.0010029	374.1	3.8808e-05	3.9222e-05	519.2	120.7	3.7172e-05	3.9044e-05	407.15	100.69	46.812	22.262	3.4916e-05	52.634	307.283	310.155	245.454	167.571	211.633	340.356	167.537	173.039	329.951	320.971	171.180	175.986	176.188	179.491	250.044	178.737	-8191	255	
17451.955	1	1	0	0	0.14545	0.1977	0.1466	0.19259	0.16265	0.22135	0.35334	0.17529	0.2352	0.083335	0.10855	0.056313	0.25561	0.3266	0.18203	0.21739	-2.1333	-2.7771	-2.4208	-2.75	-2.7917	-2.4729	-2.8125	-2.5792	-2.575	-2.7083	-2.4958	-2.7146	-2.9875	-2.4708	-2.8625	-2.6375	157.495	378.562	197.082	481.295	311.118	226.431	446.019	485.826	288.838	439.256	442.974	438.974	168.123	405.861	324.136	489.173	0.00073946	0.00053366	3.8918e-05	346.06	3.6876e-06	4.4289e-06	498.93	112.21	5.8967e-06	7.1473e-06	229.67	96.954	41.714	20.537	7.6668e-06	51.013	0.0029669	0.0033181	0.00089388	373.07	3.6128e-05	3.6061e-05	516.79	120.6	3.4717e-05	3.581e-05	394.81	100.9	46.628	22.151	3.2784e-05	52.868	308.640	237.733	298.910	167.585	294.812	287.615	167.678	172.830	355.580	333.316	172.788	176.275	176.339	179.571	435.018	179.015	-8191	255	
17452.076	1	1	0	0	0.11375	0.16998	0.1893	0.23318	0.27438	0.071461	0.10342	0.1786	0.18306	0.14537	0.24611	0.21177	0.17399	0.082282	0.16277	0.10723	-1.9562	-2.7271	-2.4333	-2.7542	-2.7375	-2.6604	-2.9708	-2.7771	-2.4562	-2.7375	-2.6604	-2.7042	-2.7938	-2.4521	-2.8229	-2.7583	510.600	260.255	479.598	160.712	222.024	393.872	219.244	156.563	168.296	467.443	275.794	178.056	360.480	321.826	217.298	446.281	0.00079911	0.00053268	0.00028969	348.19	1.1158e-05	6.2666e-06	503.4	113.51	7.6876e-06	1.7546e-06	232.54	97.446	41.972	20.52	1.539e-05	51.365	0.0028444	0.0031589	0.00085301	373.64	3.4847e-05	3.4915e-05	519.12	121.04	3.43e-05	3.4429e-05	397.89	101.34	46.56	22.162	3.3022e-05	53.094	310.790	265.617	211.105	167.408	306.251	330.896	167.931	173.276	178.787	452.306	172.131	176.162	175.728	180.022	287.263	178.658	-8191	255	
17452.172	1	1	0	0	0.18249	0.099635	0.33047	0.15802	0.086051	0.080565	0.083664	0.33045	0.23842	0.17281	0.20331	0.12076	0.12274	0.16088	0.18099	0.23941	-2.05	-2.5792	-2.4979	-2.5021	-2.65	-2.6437	-2.8292	-2.6188	-2.4437	-2.55	-2.5479	-2.6125	-2.8396	-2.3854	-2.6396	-2.7875	352.201	320.474	381.794	300.655	269.841	448.506	264.766	157.012	185.919	259.986	354.841	163.317	383.960	168.305	275.584	401.693	0.00096203	0.0018878	0.0001631	351.28	1.8745e-05	3.132e-06	502.3	113.49	1.0905e-06	4.8444e-06	232.25	97.51	41.749	20.413	5.9786e-06	50.649	0.002797	0.0030887	0.00087036	375.5	3.465e-05	3.4085e-05	520.97	121.08	3.4003e-05	3.3893e-05	400.54	101.32	46.476	22.058	3.4304e-05	52.694	320.060	278.350	342.212	167.668	434.291	436.114	167.669	173.204	486.902	367.189	171.577	176.244	176.340	179.971	187.367	178.716	-8191	255	
17452.268	1	1	0	0	0.12758	0.11203	0.21462	0.17258	0.15401	0.1767	0.18838	0.054459	0.055615	0.22956	0.073595	0.14655	0.17781	0.37745	0.25427	0.23082	-1.9979	-2.7687	-2.5958	-2.5104	-2.9708	-2.4458	-2.6854	-2.6688	-2.6604	-2.8604	-2.6917	-2.5854	-2.8542	-2.5646	-2.6875	-2.7208	167.616	365.496	227.384	430.611	464.786	232.270	199.590	185.870	377.552	339.991	172.399	167.833	158.302	498.961	287.757	496.614	0.0007385	0.0011454	0.00023646	349.68	6.6897e-06	5.8143e-06	503.19	112.88	3.1985e-06	7.5992e-06	225.38	97.061	41.866	20.471	6.3065e-06	50.502	0.0028138	0.003016	0.00089438	374.48	3.3575e-05	3.3929e-05	519.27	120.7	3.3228e-05	3.3778e-05	404.1	100.94	46.254	22.03	3.4643e-05	52.474	311.754	260.660	243.236	167.480	330.741	306.505	167.838	173.128	339.747	241.728	174.158	176.432	176.144	180.020	337.416	178.848	-8191	255	
17452.363	1	1	0	0	0.20113	0.14753	0.11156	0.28029	0.055044	0.18237	0.060111	0.25471	0.080589	0.076487	0.20394	0.24843	0.080196	0.24638	0.16279	0.17678	-2.0375	-2.7125	-2.7125	-2.5333	-2.8083	-2.4958	-2.7958	-2.8125	-2.6792	-2.6792	-2.6646	-2.5563	-2.7854	-2.4792	-2.7562	-2.7979	420.380	475.217	174.992	180.134	492.465	226.455	229.591	451.810	503.929	210.579	240.929	419.265	372.720	237.364	257.595	176.932	0.0009056	0.00053328	0.0001998	348.18	9.3943e-06	9.0441e-06	500.63	112.68	4.5042e-06	6.7908e-06	232.48	97.382	41.78	20.481	7.9013e-06	50.636	0.0027573	0.0030679	0.00090824	373.79	3.3069e-05	3.5202e-05	520.61	120.7	3.2825e-05	3.4285e-05	404.69	101.13	46.083	22.059	3.5145e-05	52.669	307.450	252.806	156.462	167.541	263.678	203.140	168.072	173.313	431.056	324.163	173.452	176.415	176.182	179.847	411.566	178.745	-8191	255	
17452.461	1	1	0	0	0.058414	0.1678	0.19681	0.10451	0.21267	0.088858	0.1148	0.21952	0.12961	0.018496	0.096038	0.33869	0.19216	0.12291	0.27048	0.21535	-2	-2.6063	-2.6458	-2.5187	-2.7292	-2.4625	-2.6063	-2.8688	-2.5479	-2.9208	-2.7167	-2.5542	-2.7438	-2.6458	-2.5875	-2.8771	265.259	391.139	414.002	280.995	233.288	168.694	187.221	373.465	441.824	491.810	202.133	481.397	389.506	406.107	165.881	406.536	0.00083184	0.0004646	0.0001873	352.85	3.5166e-07	6.7851e-06	506.07	112.83	6.453e-06	8.0321e-06	232.92	97.918	42.463	20.669	1.0417e-05	50.917	0.0027448	0.0031616	0.00090536	375.64	3.256e-05	3.573e-05	523.36	120.92	3.2589e-05	3.5096e-05	407.84	101.49	46.489	22.189	3.4821e-05	52.84	315.120	493.844	270.096	167.680	298.647	292.191	167.736	172.871	295.264	257.318	173.335	176.178	176.178	179.715	344.022	178.869	-8191	255	
17452.557	1	1	0	0	0.18495	0.17955	0.03409	0.099748	0.098188	0.085968	0.19368	0.15815	0.18092	0.20428	0.024625	0.20117	0.068019	0.13342	0.096151	0.25254	-1.8875	-2.6542	-2.6937	-2.5438	-2.8917	-2.5792	-2.5958	-2.7479	-2.4979	-2.6813	-2.7188	-2.5687	-2.8208	-2.6896	-2.6271	-2.8271	203.609	164.781	451.243	203.320	320.669	213.578	365.150	446.774	371.144	380.338	266.322	450.357	468.008	421.447	392.748	466.368	0.00099074	0.00065838	0.00035816	348.95	5.8046e-06	7.281e-06	505	112.96	9.5608e-06	4.6791e-06	226.16	97.731	41.645	20.483	1.0939e-05	50.532	0.0027485	0.003202	0.00091213	375.65	3.2678e-05	3.6661e-05	523.69	120.72	3.3448e-05	3.5741e-05	405.43	101.22	46.268	22.133	3.4666e-05	52.337	315.820	172.123	229.181	167.816	257.595	286.986	167.752	173.078	298.031	251.002	171.818	176.070	176.452	179.951	273.748	178.684	-8191	255	
17452.678	1	1	0	0	0.21015	0.10608	0.099103	0.18616	0.19648	0.19606	0.1803	0.079491	0.18954	0.082861	0.12232	0.26594	0.047651	0.21518	0.062278	0.12554	-1.9438	-2.4813	-2.6917	-2.5812	-2.75	-2.6854	-2.5354	-2.9167	-2.5646	-2.5854	-2.6583	-2.5979	-2.7833	-2.6479	-2.4208	-2.7812	231.420	327.235	401.524	379.954	363.514	369.104	166.640	441.195	497.897	392.687	157.521	165.978	169.255	276.705	407.607	197.633	0.00075333	0.0010358	0.00011692	348.42	1.0693e-05	9.9025e-06	501.55	113.03	6.2482e-06	5.0165e-06	231.36	96.72	41.93	20.515	7.685e-06	50.807	0.0028532	0.0032052	0.00090566	372.31	3.3721e-05	3.636e-05	519.35	120.16	3.3485e-05	3.5538e-05	400.75	100.38	46.382	22.088	3.3672e-05	52.339	314.335	179.891	208.138	167.980	245.653	234.116	167.933	173.074	357.656	298.641	172.710	176.103	176.639	179.836	315.581	178.694	-8191	255	
17452.773	1	1	0	0	0.24136	0.32944	0.18797	0.3148	0.085936	0.036444	0.12511	0.11877	0.17859	0.40208	0.031336	0.16926	0.15321	0.30376	0.21274	0.10491	-2.0062	-2.5458	-2.7438	-2.5542	-2.7458	-2.8312	-2.4354	-2.8167	-2.6833	-2.625	-3.0271	-2.4479	-2.6271	-2.7583	-2.6854	-2.8854	455.101	364.318	466.332	494.803	319.801	402.543	338.713	189.429	347.379	245.903	225.899	274.327	279.824	433.275	356.604	463.671	0.00093197	0.00029113	0.00012585	348.58	1.203e-05	5.0788e-06	502.75	112.83	5.8111e-06	2.9556e-06	223.44	97.219	42.019	20.564	1.6217e-05	50.781	0.0028041	0.0031559	0.00087205	371.38	3.3553e-05	3.5821e-05	518.99	119.97	3.3719e-05	3.4842e-05	390.86	100.57	46.42	22.105	3.3138e-05	52.516	304.466	347.975	254.358	167.915	284.318	260.785	167.987	173.060	215.757	295.196	173.174	176.135	176.094	180.007	338.626	178.934	-8191	255	
17452.869	1	1	0	0	0.044896	0.12779	0.15112	0.04058	0.14515	0.26116	0.081184	0.15266	0.080385	0.084877	0.25729	0.34509	0.10653	0.11756	0.088788	0.1505	-2.1646	-2.5	-2.7438	-2.6625	-2.6083	-2.7625	-2.5292	-2.7562	-2.6146	-2.6125	-2.8229	-2.8438	-2.5979	-2.8229	-2.5083	-2.8667	476.391	422.811	444.043	390.761	294.634	281.449	379.915	341.231	198.788	458.407	507.188	468.155	446.834	321.715	514.672	483.309	0.00076838	0.00082059	0.00015679	349.3	2.1456e-06	3.9268e-06	504.33	113.19	1.159e-05	3.5016e-06	230.52	97.207	42.204	20.796	2.9788e-06	51.242	0.0028413	0.003127	0.0008408	372.4	3.3767e-05	3.5397e-05	519.31	120.34	3.3855e-05	3.4953e-05	388.04	101.22	46.57	22.243	3.2453e-05	52.938	314.234	241.281	188.226	167.628	271.800	491.508	167.753	173.189	294.248	420.119	172.304	176.249	176.017	179.844	406.577	178.749	-8191	255	
17452.965	1	1	0	0	0.15922	0.15357	0.17092	0.091575	0.018674	0.15902	0.22634	0.13443	0.22885	0.16029	0.14531	0.29894	0.11546	0.18904	0.28181	0.21448	-2.2333	-2.5167	-2.7229	-2.5667	-2.4854	-2.8958	-2.4396	-2.7438	-2.5854	-2.5083	-2.7854	-2.5417	-2.5146	-2.75	-2.5833	-2.75	270.908	218.333	421.541	404.939	202.351	494.956	297.026	433.401	477.427	267.756	235.162	447.539	257.559	393.669	506.510	479.403	0.00085449	0.00065708	0.00011614	348.11	1.093e-05	8.2991e-06	502.24	112.74	4.1575e-06	6.8631e-06	230.07	97.361	41.567	20.687	5.3029e-06	50.962	0.0028104	0.0031166	0.00083211	373.32	3.3822e-05	3.4933e-05	518.5	120.7	3.4071e-05	3.4288e-05	388.86	101.07	46.408	22.141	3.3129e-05	52.65	323.150	220.801	183.711	167.870	325.224	363.078	167.949	172.816	242.062	297.791	171.958	175.978	176.358	179.587	215.246	178.903	-8191	255	
17453.061	1	1	0	0	0.084334	0.17331	0.20114	0.14174	0.057835	0.16641	0.33466	0.092841	0.11846	0.12195	0.18291	0.32422	0.084417	0.011645	0.12659	0.041932	-2.3563	-2.3979	-2.7458	-2.55	-2.6208	-2.8146	-2.5312	-2.7458	-2.75	-2.4167	-2.6667	-2.5521	-2.3958	-2.8333	-2.6979	-2.5563	388.116	501.202	163.214	213.253	264.010	369.676	419.159	483.359	250.016	273.065	170.257	477.617	296.518	463.184	392.261	501.367	0.00090103	0.00015725	0.00016221	348.13	5.028e-06	7.5833e-06	501.5	112.68	1.1282e-05	5.8317e-06	222.27	96.791	41.724	20.75	6.3405e-06	50.583	0.0028786	0.0030703	0.00085669	373.38	3.4221e-05	3.3777e-05	516.86	120.4	3.391e-05	3.3752e-05	391.25	100.74	46.321	22.096	3.3264e-05	52.508	308.710	370.255	452.756	167.496	312.819	398.079	167.577	173.213	321.537	298.907	172.487	175.829	176.074	179.782	293.484	178.855	-8191	255	
#DATA ENDS
