BOXY.EXE: ISS Imagent and Oximeter Data Acquisition Program Version 0.80
Ascii Record File

#ACQ INFORMATION
2  Detector Channels 
16  External MUX Channels 
1  Auxiliary Channels 
5000  Waveform (CCF) Frequency (Hz)
1  Waveforms Skipped 
30  Waveforms Averaged 
1  Cycles Averaged 
16  Acquisitions per Waveform 
10.0806  Updata Rate (Hz) 

#FILE INFORMATION
TRUE -- External MUX Channel results are PARSED.
FALSE -- AC DC and Phase are NOT grouped.
TRUE -- Companion Program Settings File CREATED.
FALSE -- AC data not excluded
FALSE -- DC data not excluded
FALSE -- Phase data not excluded
FALSE -- Auxillary Chn. data not excluded
Tab delimiters

#CALIBRATION STATE
TRUE -- Waveform Calibration Values APPLIED.


#AUX CALIBRATION VALUES
Val Type	aux-1	

Term	1.0000e+00	
Factor	0.0000e+00	


#WF CALIBRATION VALUES
A = Detector Channel
Val Type	A-AC1	A-AC2	A-AC3	A-AC4	A-AC5	A-AC6	A-AC7	A-AC8	A-AC9	A-AC10	A-AC11	A-AC12	A-AC13	A-AC14	A-AC15	A-AC16	A-DC1	A-DC2	A-DC3	A-DC4	A-DC5	A-DC6	A-DC7	A-DC8	A-DC9	A-DC10	A-DC11	A-DC12	A-DC13	A-DC14	A-DC15	A-DC16	A-Ph1	A-Ph2	A-Ph3	A-Ph4	A-Ph5	A-Ph6	A-Ph7	A-Ph8	A-Ph9	A-Ph10	A-Ph11	A-Ph12	A-Ph13	A-Ph14	A-Ph15	A-Ph16	

Term	0.00000e+00	0.00000e+00	0.00000e+00	0.00000e+00	0.00000e+00	0.00000e+00	0.00000e+00	0.00000e+00	0.00000e+00	0.00000e+00	0.00000e+00	0.00000e+00	0.00000e+00	0.00000e+00	0.00000e+00	0.00000e+00	0.00000e+00	0.00000e+00	0.00000e+00	0.00000e+00	0.00000e+00	0.00000e+00	0.00000e+00	0.00000e+00	0.00000e+00	0.00000e+00	0.00000e+00	0.00000e+00	0.00000e+00	0.00000e+00	0.00000e+00	0.00000e+00	0.00000e+00	0.00000e+00	0.00000e+00	0.00000e+00	0.00000e+00	0.00000e+00	0.00000e+00	0.00000e+00	0.00000e+00	0.00000e+00	0.00000e+00	0.00000e+00	0.00000e+00	0.00000e+00	0.00000e+00	0.00000e+00	
Factor	1.00000e+00	1.00000e+00	1.00000e+00	1.00000e+00	1.00000e+00	1.00000e+00	1.00000e+00	1.00000e+00	1.00000e+00	1.00000e+00	1.00000e+00	1.00000e+00	1.00000e+00	1.00000e+00	1.00000e+00	1.00000e+00	1.00000e+00	1.00000e+00	1.00000e+00	1.00000e+00	1.00000e+00	1.00000e+00	1.00000e+00	1.00000e+00	1.00000e+00	1.00000e+00	1.00000e+00	1.00000e+00	1.00000e+00	1.00000e+00	1.00000e+00	1.00000e+00	X	X	X	X	X	X	X	X	X	X	X	X	X	X	X	X	

B = Detector Channel
Val Type	B-AC1	B-AC2	B-AC3	B-AC4	B-AC5	B-AC6	B-AC7	B-AC8	B-AC9	B-AC10	B-AC11	B-AC12	B-AC13	B-AC14	B-AC15	B-AC16	B-DC1	B-DC2	B-DC3	B-DC4	B-DC5	B-DC6	B-DC7	B-DC8	B-DC9	B-DC10	B-DC11	B-DC12	B-DC13	B-DC14	B-DC15	B-DC16	B-Ph1	B-Ph2	B-Ph3	B-Ph4	B-Ph5	B-Ph6	B-Ph7	B-Ph8	B-Ph9	B-Ph10	B-Ph11	B-Ph12	B-Ph13	B-Ph14	B-Ph15	B-Ph16	

Term	0.00000e+00	0.00000e+00	0.00000e+00	0.00000e+00	0.00000e+00	0.00000e+00	0.00000e+00	0.00000e+00	0.00000e+00	0.00000e+00	0.00000e+00	0.00000e+00	0.00000e+00	0.00000e+00	0.00000e+00	0.00000e+00	0.00000e+00	0.00000e+00	0.00000e+00	0.00000e+00	0.00000e+00	0.00000e+00	0.00000e+00	0.00000e+00	0.00000e+00	0.00000e+00	0.00000e+00	0.00000e+00	0.00000e+00	0.00000e+00	0.00000e+00	0.00000e+00	6.18343e+01	-1.31059e+02	-1.28480e+02	-1.84124e+02	-6.87911e+01	-6.82456e+01	-1.56911e+02	-1.62015e+02	-7.40016e+01	-6.54156e+01	-1.77697e+02	-1.71319e+02	-1.80631e+02	-1.77165e+02	-6.37371e+01	-1.49825e+02	
Factor	5.72416e-05	1.94192e-04	5.38199e-05	1.68864e-01	2.83546e-06	2.03816e-06	1.62166e-01	5.20289e-02	3.35572e-06	1.96407e-06	9.52225e-01	2.70685e-02	2.82943e-02	8.99284e-03	2.49629e-06	1.25482e-02	1.20680e-05	1.63461e-05	4.57917e-06	8.64489e-02	1.66670e-07	1.82106e-07	7.82106e-02	2.66752e-02	1.65207e-07	1.81697e-07	4.60311e-01	1.35287e-02	1.46057e-02	4.65260e-03	1.72611e-07	6.31523e-03	X	X	X	X	X	X	X	X	X	X	X	X	X	X	X	X	



#DISTANCE SETTINGS
A = Detector Channel
A-1	A-2	A-3	A-4	A-5	A-6	A-7	A-8	A-9	A-10	A-11	A-12	A-13	A-14	A-15	A-16	

2.5000e+00	3.0000e+00	2.5000e+00	3.0000e+00	2.0000e+00	3.0000e+00	1.5000e+00	3.0000e+00	3.0000e+00	3.0000e+00	3.0000e+00	3.0000e+00	3.0000e+00	3.0000e+00	1.5000e+00	3.0000e+00	

B = Detector Channel
B-1	B-2	B-3	B-4	B-5	B-6	B-7	B-8	B-9	B-10	B-11	B-12	B-13	B-14	B-15	B-16	

1.0000e+01	1.0000e+01	1.0000e+01	1.4400e+00	1.0000e+01	1.0000e+01	1.5100e+00	1.9400e+00	1.0000e+01	1.0000e+01	1.9900e+00	2.4900e+00	2.4100e+00	2.9000e+00	1.0000e+01	2.9800e+00	




#DATA BEGINS
time	group	step	mark	flag	A-AC1	A-AC2	A-AC3	A-AC4	A-AC5	A-AC6	A-AC7	A-AC8	A-AC9	A-AC10	A-AC11	A-AC12	A-AC13	A-AC14	A-AC15	A-AC16	A-DC1	A-DC2	A-DC3	A-DC4	A-DC5	A-DC6	A-DC7	A-DC8	A-DC9	A-DC10	A-DC11	A-DC12	A-DC13	A-DC14	A-DC15	A-DC16	A-Ph1	A-Ph2	A-Ph3	A-Ph4	A-Ph5	A-Ph6	A-Ph7	A-Ph8	A-Ph9	A-Ph10	A-Ph11	A-Ph12	A-Ph13	A-Ph14	A-Ph15	A-Ph16	B-AC1	B-AC2	B-AC3	B-AC4	B-AC5	B-AC6	B-AC7	B-AC8	B-AC9	B-AC10	B-AC11	B-AC12	B-AC13	B-AC14	B-AC15	B-AC16	B-DC1	B-DC2	B-DC3	B-DC4	B-DC5	B-DC6	B-DC7	B-DC8	B-DC9	B-DC10	B-DC11	B-DC12	B-DC13	B-DC14	B-DC15	B-DC16	B-Ph1	B-Ph2	B-Ph3	B-Ph4	B-Ph5	B-Ph6	B-Ph7	B-Ph8	B-Ph9	B-Ph10	B-Ph11	B-Ph12	B-Ph13	B-Ph14	B-Ph15	B-Ph16	aux-1	digaux	

8093.353	1	1	0	256	0.15983	0.076002	0.15246	0.23111	0.082433	0.34327	0.14087	0.31403	0.17374	0.20141	0.12126	0.36784	0.054389	0.024528	0.16036	0.24371	-2.3438	-2.5167	-2.5521	-3.0958	-2.5687	-2.7458	-2.825	-2.5833	-2.7917	-2.6792	-2.6437	-3.0833	-2.7188	-2.8187	-2.9562	-2.5187	258.834	71.001	-94.634	230.834	260.551	221.488	216.653	234.859	133.863	31.196	79.228	205.195	152.654	163.659	7.883	-66.330	0.00063716	0.00081677	0.00021031	1571.3	2.6972e-06	5.8477e-06	1555.8	419.81	6.9419e-06	5.1175e-06	481.62	159.08	137.72	46.715	8.2159e-06	57.594	0.000577	0.00056602	0.0001548	1588.8	6.2911e-06	6.0869e-06	1575.6	426.74	6.1054e-06	6.144e-06	487.45	162.18	141.06	47.983	6.2654e-06	59.189	21.541	-23.987	-23.136	-84.117	49.019	55.687	-84.148	-79.653	46.044	66.012	-80.053	-75.656	-75.203	-70.454	47.286	-71.484	-8191	255	
8093.474	1	1	0	0	0.27542	0.24379	0.029899	0.24333	0.12908	0.24744	0.18992	0.15722	0.19775	0.23494	0.19313	0.03705	0.08262	0.38398	0.097733	0.21191	-2.3229	-2.4729	-2.5938	-2.9792	-2.7021	-2.7042	-2.9646	-2.7646	-2.9979	-2.5083	-2.5417	-2.9792	-2.6583	-2.8063	-2.8396	-2.6562	103.862	-90.224	226.795	-87.736	-45.049	206.477	235.175	151.448	28.342	208.384	132.226	202.786	201.570	-66.287	-19.686	230.687	0.00068576	0.00058699	0.00013927	1575	6.2457e-06	6.1089e-06	1567.8	421.64	8.0513e-06	3.8741e-06	484.07	158.68	138.59	46.939	3.7522e-06	57.636	0.00059802	0.00056782	0.00016205	1593.4	6.6001e-06	6.3733e-06	1585.6	428.5	6.3884e-06	6.6493e-06	487.28	162.41	141.45	48.062	6.4384e-06	59.251	22.720	-15.745	-0.221	-84.098	88.890	61.659	-84.222	-79.588	31.454	61.285	-80.645	-75.748	-75.189	-70.789	67.009	-71.210	-8191	255	
8093.570	1	1	0	0	0.15815	0.26511	0.099354	0.14801	0.076227	0.21368	0.31823	0.12036	0.27488	0.11005	0.12734	0.30142	0.11218	0.24543	0.23183	0.24403	-2.4042	-2.6875	-2.5812	-3.1646	-2.5979	-2.6729	-3.1312	-2.6813	-2.7083	-2.6417	-2.425	-2.9292	-2.6562	-2.85	-2.7729	-2.7625	76.835	1.509	213.276	-63.084	237.741	193.715	206.870	172.614	-69.437	245.341	15.367	216.553	-55.146	-19.489	111.591	-27.919	0.0007739	0.00072191	0.00016141	1574.2	6.2917e-06	5.6657e-06	1557.8	420.43	7.6473e-06	7.5302e-06	475.95	158.69	137.77	46.987	4.8566e-06	57.549	0.00060735	0.0005967	0.00016106	1595.3	6.4033e-06	6.2622e-06	1581.7	427.96	6.1887e-06	6.2152e-06	485.56	162.08	141.12	48.009	6.059e-06	59.13	28.001	-12.625	-14.511	-84.017	51.283	43.251	-84.298	-79.624	27.899	59.316	-79.813	-75.550	-75.236	-70.711	69.037	-71.433	-8191	255	
8093.666	1	1	0	0	0.17963	0.14369	0.25166	0.15634	0.10803	0.052746	0.31609	0.2783	0.13615	0.28743	0.027004	0.15555	0.16837	0.19284	0.093199	0.27231	-2.3187	-2.5563	-2.5104	-3.0146	-2.5021	-2.6688	-3.0458	-2.5958	-2.5917	-2.6437	-2.6125	-2.9604	-2.7854	-2.75	-2.8146	-2.6729	160.906	59.252	242.625	-50.029	174.635	73.149	198.869	-68.285	-93.796	-46.321	173.501	196.254	225.751	-57.582	131.128	198.642	0.00066543	0.00051136	0.0001894	1563.9	4.3627e-06	5.7258e-06	1556.6	420.64	8.5874e-06	4.3709e-06	481.49	158.75	138.31	46.796	4.2512e-06	57.606	0.00057941	0.00056125	0.00015633	1587.9	6.2664e-06	6.0338e-06	1578.2	427.9	6.1557e-06	6.0808e-06	486.58	162.11	141.27	47.945	6.1475e-06	59.154	21.511	-7.999	-25.593	-84.187	62.537	59.208	-84.238	-79.673	35.932	57.659	-79.808	-75.560	-75.253	-70.871	51.643	-71.406	-8191	255	
8093.738	1	1	0	0	0.14447	0.1464	0.075625	0.40735	0.054617	0.14203	0.15603	0.14215	0.13902	0.14988	0.20408	0.26322	0.14886	0.2302	0.16866	0.022396	-2.3208	-2.6875	-2.5167	-2.8375	-2.7646	-2.6688	-3.0521	-2.8937	-2.6688	-2.7229	-2.5875	-3.0021	-2.7479	-2.4771	-2.8458	-2.5458	236.072	133.186	241.909	177.194	83.061	160.682	252.747	244.597	-43.411	130.486	-12.342	95.812	213.856	-62.941	-16.066	138.769	0.00068212	0.00049558	0.00017965	1567.8	1.0437e-05	6.8762e-06	1554.6	420.35	7.1641e-06	5.2385e-06	481.64	158.36	137.65	46.8	5.8449e-06	57.369	0.00057411	0.00055894	0.00015893	1588.6	6.2394e-06	5.9135e-06	1576.7	427.05	5.9884e-06	6.1675e-06	486.49	162.21	140.85	47.948	6.0673e-06	59.146	22.954	-3.747	-12.405	-84.082	24.757	34.962	-84.334	-79.607	-18.794	58.326	-79.830	-75.418	-75.223	-70.684	37.726	-71.435	-8191	255	
8093.857	1	1	0	0	0.15951	0.25122	0.1401	0.22257	0.15732	0.093866	0.32102	0.36368	0.10206	0.16332	0.51404	0.16125	0.29817	0.059934	0.092805	0.31514	-2.2188	-2.7042	-2.575	-2.8708	-2.7479	-2.4562	-3.1063	-2.6042	-2.6312	-2.7604	-2.3937	-2.7833	-2.7208	-2.6125	-2.7354	-2.5896	-95.708	23.950	-41.493	194.876	155.631	16.537	204.147	195.302	108.633	142.348	74.422	167.521	262.161	240.056	-90.856	251.255	0.00071935	0.00063764	0.00016544	1570.8	7.1361e-06	6.5395e-06	1556	418.64	2.6668e-06	6.0355e-06	476.17	158.58	137.89	46.731	7.1769e-06	57.472	0.0005812	0.00054971	0.00015689	1587.8	6.1772e-06	6.0751e-06	1576.6	427.24	6.069e-06	5.9782e-06	485.31	161.99	140.99	47.914	6.2737e-06	59.093	30.505	-21.516	-1.620	-84.121	29.051	46.587	-84.248	-79.570	61.689	53.790	-80.031	-75.708	-75.298	-70.865	43.255	-71.341	-8191	255	
8093.953	1	1	0	0	0.046833	0.20076	0.047284	0.27044	0.17511	0.18913	0.14375	0.31356	0.18095	0.22095	0.22139	0.12879	0.22924	0.12282	0.14342	0.16912	-2.2208	-2.8042	-2.3229	-2.85	-2.5812	-2.5146	-2.9313	-2.85	-2.6292	-2.7167	-2.6208	-2.7687	-2.6583	-2.4083	-2.8438	-2.7771	-36.676	135.273	90.605	239.263	-31.442	-53.961	-77.471	181.556	-70.306	244.449	-20.204	224.470	223.935	59.762	-52.917	252.974	0.00061814	0.00040696	0.00017273	1569.7	5.7478e-06	6.3483e-06	1558.1	419.99	9.2723e-06	5.1448e-06	475.82	158.6	138.5	46.616	5.7853e-06	57.206	0.00057964	0.00054143	0.00015509	1588.5	5.9897e-06	6.1036e-06	1576.5	427.36	6.1295e-06	6.0444e-06	486.74	162.03	141.38	47.897	5.9403e-06	59.028	24.701	-36.668	-14.891	-84.028	23.226	30.403	-84.315	-79.751	4.058	49.954	-80.258	-75.780	-75.359	-70.766	82.945	-71.463	-8191	255	
8094.049	1	1	0	0	0.17893	0.22272	0.22998	0.080412	0.13538	0.081334	0.13452	0.26137	0.42212	0.072068	0.22054	0.055215	0.32251	0.20893	0.071588	0.20776	-1.9375	-2.6958	-2.4396	-2.8792	-2.7125	-2.4708	-3.0521	-2.7792	-2.5271	-2.8812	-2.6521	-2.7854	-2.9396	-2.7125	-2.8229	-2.8521	108.119	5.360	239.531	61.629	120.919	3.325	-80.897	176.016	211.671	209.281	-18.776	-7.746	241.107	225.648	-23.864	-75.249	0.00071692	0.00038209	0.00018456	1567.2	7.3475e-06	5.6709e-06	1554.3	418.53	6.5725e-06	5.4076e-06	475.98	157.84	138.23	46.779	6.0393e-06	57.504	0.00057748	0.00054954	0.00015666	1586.6	6.0039e-06	6.1248e-06	1575.7	427.01	6.0576e-06	5.9967e-06	484.81	161.65	140.97	47.912	5.8756e-06	59.004	23.483	-15.898	-9.807	-84.158	39.518	52.414	-84.091	-79.593	40.894	31.954	-79.846	-75.642	-75.468	-70.725	38.325	-71.366	-8191	255	
8094.145	1	1	0	0	0.11344	0.19846	0.21449	0.29661	0.11022	0.13656	0.45827	0.42078	0.12291	0.2903	0.10788	0.21604	0.30038	0.30138	0.15359	0.20936	-2.0271	-2.9125	-2.5354	-2.9708	-2.6917	-2.6104	-3.1333	-2.7333	-2.5292	-2.9604	-2.5167	-2.8021	-2.8958	-2.7333	-2.7062	-2.7771	100.613	49.518	241.578	226.104	61.213	71.333	235.672	228.865	46.423	236.203	0.152	165.234	190.893	201.136	-59.479	258.506	0.00068236	0.00039986	0.00012191	1564.3	5.5303e-06	6.768e-06	1543.9	419.67	7.0524e-06	5.613e-06	472.36	157.95	137.38	46.602	2.9884e-06	57.012	0.000564	0.00054	0.00015477	1584.8	5.7723e-06	5.9222e-06	1569	425.85	5.6718e-06	5.5141e-06	483.27	161.18	140.42	47.838	5.7095e-06	58.884	17.018	-26.798	-19.017	-83.957	46.178	64.464	-84.274	-79.603	14.636	38.410	-80.567	-75.593	-75.122	-70.685	22.979	-71.409	-8191	255	
8094.266	1	1	0	0	0.17328	0.009447	0.038278	0.045009	0.105	0.088943	0.14375	0.22244	0.04098	0.099103	0.18013	0.14603	0.21595	0.13953	0.079888	0.22496	-1.9708	-2.7562	-2.4667	-2.775	-2.7604	-2.4458	-2.9396	-2.9562	-2.5021	-2.7812	-2.5833	-2.8042	-2.9979	-2.5104	-2.7271	-2.9125	-12.290	-88.085	186.437	251.582	105.403	-80.670	214.553	220.997	211.099	-38.877	191.389	166.114	227.582	220.300	119.297	214.129	0.00066322	0.00061165	0.00013151	1558.5	7.0649e-06	6.1218e-06	1542.3	418.45	6.9099e-06	4.5096e-06	478.46	157.9	137.4	46.438	5.6935e-06	57.312	0.00055746	0.00050925	0.00015121	1577.4	5.7605e-06	5.86e-06	1566.9	425.56	5.9275e-06	5.7253e-06	482.44	161.17	140.38	47.727	5.6649e-06	58.825	26.191	-12.031	4.051	-83.958	52.065	50.222	-84.167	-79.475	14.899	33.263	-79.945	-75.454	-75.353	-70.576	48.899	-71.456	-8191	255	
8094.362	1	1	0	0	0.099465	0.10596	0.22718	0.16756	0.13933	0.0865	0.098225	0.32997	0.10024	0.067943	0.18947	0.31671	0.057564	0.093865	0.20428	0.33827	-1.9583	-2.6708	-2.7646	-2.7687	-2.7062	-2.775	-2.8042	-2.8167	-2.6646	-2.8396	-2.6458	-2.6458	-2.8438	-2.6625	-2.6208	-2.9792	254.804	-87.132	-85.499	260.877	147.245	1.255	107.382	189.965	-40.179	98.278	68.065	243.219	167.498	249.641	179.718	232.564	0.00070075	0.00064978	0.00018666	1555.9	7.2945e-06	6.6512e-06	1542.1	419.3	5.73e-06	5.9763e-06	473.23	158.64	137.84	46.598	4.7083e-06	57.287	0.00056762	0.00051364	0.00014559	1576.8	5.8005e-06	5.8316e-06	1565.4	425.85	5.8831e-06	5.4884e-06	484.71	161.44	140.51	47.814	5.849e-06	58.866	26.561	-6.117	-23.066	-84.071	11.877	15.975	-84.130	-79.600	-27.599	56.213	-80.166	-75.473	-75.259	-70.580	64.943	-71.317	-8191	255	
8094.458	1	1	0	0	0.51212	0.089901	0.12233	0.26353	0.16345	0.19668	0.099202	0.028505	0.18503	0.027795	0.10437	0.44172	0.18253	0.28069	0.1266	0.23773	-1.9	-2.6375	-2.6708	-2.8604	-2.8187	-2.5979	-2.8563	-3.0021	-2.6396	-2.7708	-2.6604	-2.8667	-2.8771	-2.7917	-2.6167	-2.8812	138.781	250.646	124.649	252.572	-1.258	47.296	218.370	198.570	173.224	184.561	-68.628	-82.618	-38.125	252.438	118.515	178.097	0.00072209	0.0005143	0.0001215	1554.8	4.7686e-06	5.8172e-06	1545.6	417.89	3.5428e-06	3.1971e-06	473.4	158.11	137.81	46.517	4.486e-06	57.079	0.00056078	0.0005257	0.00014676	1577.9	5.9519e-06	5.8661e-06	1566.4	425.33	5.8845e-06	5.5213e-06	480.16	161.18	140.59	47.777	5.675e-06	58.779	24.522	-5.904	-16.071	-84.256	-6.306	63.231	-84.201	-79.583	9.842	51.067	-79.773	-75.605	-75.194	-70.731	30.563	-71.427	-8191	255	
8094.554	1	1	0	0	0.10812	0.067761	0.10923	0.11303	0.11644	0.0893	0.2866	0.10145	0.12169	0.23745	0.24467	0.15763	0.14699	0.10981	0.13873	0.12519	-2.0167	-2.7833	-2.6583	-2.6292	-2.7	-2.6458	-2.8792	-2.8208	-2.5833	-2.7062	-2.5875	-2.6792	-2.8333	-2.8271	-2.5062	-2.8792	155.341	-31.464	155.894	236.156	-31.875	251.069	214.876	-52.330	38.407	228.153	211.574	251.954	194.053	175.426	87.494	167.316	0.00076096	0.00051604	0.00014725	1553.6	6.1579e-06	4.8292e-06	1540.5	417.1	5.5103e-06	6.1731e-06	472.9	157.76	137.44	46.551	4.5596e-06	57.247	0.0005589	0.00050353	0.00014641	1578.3	5.6841e-06	5.6517e-06	1564.6	425.02	5.881e-06	5.5535e-06	482.65	161.14	140.41	47.811	5.8418e-06	58.785	22.887	-13.517	-18.387	-84.039	54.756	36.385	-84.102	-79.570	1.322	64.328	-79.942	-75.539	-75.308	-70.487	62.002	-71.266	-8191	255	
8094.651	1	1	0	0	0.24222	0.3363	0.17216	0.13952	0.11072	0.31119	0.37061	0.10126	0.15285	0.28039	0.13904	0.27884	0.13969	0.17531	0.1728	0.12047	-2.0667	-2.575	-2.9146	-2.6708	-2.8083	-2.625	-2.6937	-2.8708	-2.65	-2.6375	-2.7396	-2.7771	-2.8063	-2.6729	-2.6312	-2.8812	243.589	74.582	222.593	242.119	82.026	38.179	203.975	195.036	70.665	248.587	0.011	260.226	-4.118	-27.682	167.891	256.271	0.00073425	0.00047883	0.00014427	1556.7	7.7063e-06	7.7926e-06	1547.3	417.33	3.1937e-06	4.8823e-06	484.64	158.42	137.89	46.622	5.5159e-06	57.079	0.00055417	0.00050554	0.00014257	1577.3	5.6786e-06	5.6961e-06	1565.1	425.27	5.8132e-06	5.4168e-06	483.71	161.54	140.55	47.783	5.8864e-06	58.79	24.066	-16.437	8.429	-84.155	28.979	35.667	-84.322	-79.599	-7.024	54.616	-80.199	-75.579	-75.298	-70.689	29.238	-71.359	-8191	255	
8094.747	1	1	0	0	0.12877	0.26756	0.143	0.28017	0.13553	0.19292	0.1398	0.26222	0.21415	0.11082	0.14806	0.165	0.14402	0.16464	0.10105	0.14081	-2.4771	-2.6833	-2.925	-2.7146	-2.8354	-2.5458	-2.6437	-3.075	-2.6396	-2.6437	-2.8937	-2.6542	-2.8354	-2.7833	-2.5479	-2.7812	61.644	41.149	96.301	-91.037	96.814	148.557	247.498	186.102	139.102	154.937	39.456	188.815	255.285	-71.690	137.905	-42.559	0.00072577	0.00057819	0.00016294	1563.2	5.6837e-06	6.7061e-06	1542.7	417.86	7.0696e-06	4.4653e-06	475.17	157.23	137.73	46.757	5.5611e-06	57.208	0.00056327	0.00050077	0.00014539	1579.4	5.6053e-06	5.7049e-06	1565.6	425.01	5.7231e-06	5.6474e-06	482.73	160.86	140.33	47.82	5.8677e-06	58.796	25.374	-9.607	-4.414	-84.138	77.657	51.801	-84.186	-79.615	4.634	76.225	-80.494	-75.459	-75.242	-70.708	73.609	-71.384	-8191	255	
8094.866	1	1	0	0	0.33071	0.27105	0.20234	0.23378	0.11672	0.36575	0.28598	0.075535	0.12075	0.29827	0.23472	0.23706	0.30491	0.3717	0.21124	0.06097	-2.1042	-2.5458	-2.6646	-2.8708	-2.6542	-2.7729	-2.7979	-3.1458	-2.6667	-2.6813	-2.7979	-2.5417	-2.8021	-2.8646	-2.6917	-2.8125	106.356	248.199	178.935	-96.775	197.466	125.825	209.253	255.657	92.090	-38.858	88.234	226.843	231.560	241.852	232.990	176.893	0.00064793	0.00045563	0.00012852	1552.7	5.8815e-06	6.7599e-06	1537.2	417.21	8.6945e-06	5.1385e-06	478.18	157.64	137.74	46.57	8.4334e-06	57.098	0.00055483	0.000502	0.00014185	1574.8	5.4119e-06	5.5341e-06	1561.9	424.75	5.5338e-06	5.5206e-06	482.23	161.08	140.42	47.75	5.68e-06	58.735	27.278	-1.064	-12.012	-84.115	61.434	36.573	-84.164	-79.566	-3.117	61.641	-79.322	-75.476	-75.311	-70.627	52.479	-71.184	-8191	255	
8094.962	1	1	0	0	0.16749	0.10703	0.17314	0.25555	0.17705	0.23411	0.2355	0.11486	0.2722	0.085077	0.23982	0.17555	0.063054	0.12091	0.18849	0.20686	-2.1771	-2.5708	-2.7521	-2.7083	-2.85	-2.8646	-2.7771	-2.8625	-2.7854	-2.6167	-2.8063	-2.675	-2.7229	-2.9083	-2.5917	-2.7729	177.517	-71.413	178.767	-80.427	199.510	26.167	168.000	34.269	33.981	-90.374	84.928	137.187	-76.618	234.576	-0.402	6.591	0.00071173	0.00072339	0.00017523	1554.6	5.5731e-06	6.4042e-06	1540.9	416.81	4.5351e-06	5.464e-06	476.95	157.8	137.66	46.55	5.5921e-06	57.172	0.00054872	0.00050489	0.00013893	1572.7	5.522e-06	5.6047e-06	1562.9	424.08	5.657e-06	5.6299e-06	481.58	161	140.47	47.818	5.7577e-06	58.75	29.075	-7.127	-1.350	-84.058	39.811	46.892	-84.189	-79.616	14.542	38.243	-79.925	-75.558	-75.224	-70.646	54.480	-71.434	-8191	255	
8095.033	1	1	0	0	0.27375	0.085418	0.075644	0.17918	0.1372	0.27363	0.35128	0.097644	0.2256	0.15719	0.25557	0.14361	0.19052	0.12962	0.19362	0.31641	-2.0854	-2.4896	-2.8083	-2.6625	-2.4042	-2.9042	-2.8812	-2.8812	-2.5646	-2.6521	-2.7208	-2.7208	-2.6521	-2.8771	-2.6625	-2.8292	-64.483	167.475	169.277	215.245	-10.636	225.718	184.287	197.165	-85.528	64.501	-87.470	-93.646	218.483	169.126	66.331	123.656	0.00069559	0.00049307	0.00016281	1554.1	7.7906e-06	6.2438e-06	1547.5	417.94	5.995e-06	5.8733e-06	471.61	157.42	136.79	46.743	5.0774e-06	57.403	0.0005542	0.0005084	0.00013945	1574.6	5.7494e-06	5.7189e-06	1566.5	425.24	5.616e-06	5.5179e-06	481.23	161.05	140.19	47.804	5.6811e-06	58.801	27.993	10.868	-13.311	-84.083	39.769	38.187	-84.202	-79.609	42.033	69.544	-79.807	-75.595	-75.127	-70.617	47.781	-71.327	-8191	255	
8095.154	1	1	0	0	0.23979	0.024488	0.12981	0.18263	0.24259	0.083941	0.20114	0.086444	0.12723	0.18567	0.21373	0.26366	0.42343	0.3738	0.21081	0.30475	-2.2438	-2.5687	-2.7833	-2.7542	-2.6208	-2.7229	-2.8854	-2.8771	-2.5583	-2.6063	-2.8854	-2.5771	-2.6437	-2.7292	-2.5896	-2.7542	218.223	-49.781	231.826	261.463	-15.723	236.014	225.305	4.210	-83.068	190.751	149.892	-39.678	-91.796	-92.850	130.258	192.855	0.00067007	0.00056426	0.00017085	1553.4	5.2176e-06	5.5787e-06	1540.9	417.48	7.0661e-06	5.1497e-06	475.15	157.98	137.5	46.682	6.2101e-06	57.149	0.00053265	0.00049989	0.00013884	1573.7	5.53e-06	5.3406e-06	1561.9	424.24	5.7131e-06	5.5156e-06	481.04	160.98	140.37	47.756	5.5721e-06	58.685	23.837	-13.785	1.711	-84.111	78.066	43.362	-84.170	-79.573	12.492	55.826	-80.871	-75.662	-75.089	-70.590	34.998	-71.408	-8191	255	
8095.250	1	1	0	0	0.30484	0.050528	0.10682	0.27624	0.075187	0.18592	0.25987	0.23144	0.17954	0.08996	0.049837	0.14808	0.17143	0.11317	0.24584	0.27365	-2.3438	-2.4292	-2.5542	-2.7458	-2.5854	-2.8792	-2.8792	-2.6375	-2.7729	-2.7	-2.8479	-2.8583	-2.4813	-2.8667	-2.6021	-2.7104	142.410	-48.498	134.409	215.871	123.818	-74.224	194.615	-92.365	-11.576	51.041	203.976	193.294	-42.280	188.142	108.635	155.512	0.00066039	0.00054285	0.00019568	1555.6	4.5204e-06	3.1319e-06	1543.4	416.22	3.843e-06	5.8628e-06	472.23	157.45	136.98	46.675	8.1481e-06	57.055	0.00054962	0.00051432	0.0001374	1573.8	5.7932e-06	5.5262e-06	1562.6	424.53	5.4869e-06	5.5796e-06	481.48	160.97	140.26	47.805	5.5958e-06	58.696	26.667	-17.471	-8.448	-83.920	76.064	48.748	-84.371	-79.686	10.937	66.952	-80.402	-75.549	-75.173	-70.712	67.832	-71.460	-8191	255	
8095.346	1	1	0	0	0.098971	0.17712	0.23178	0.26726	0.11029	0.066706	0.16291	0.10913	0.22924	0.11576	0.065664	0.17284	0.19501	0.22422	0.23253	0.35538	-2.2854	-2.4979	-2.7208	-2.8792	-2.5375	-2.8917	-2.8646	-2.9229	-2.9437	-2.5792	-2.7313	-2.6562	-2.6521	-2.9208	-2.6542	-2.7708	-8.378	-26.686	24.251	259.957	-19.512	64.913	209.780	228.745	107.040	16.367	168.150	123.494	219.364	-66.490	169.645	200.247	0.00067532	0.00065931	0.00020613	1557.1	8.0406e-06	4.4662e-06	1541.2	416.43	5.0037e-06	6.6935e-06	479.66	157.68	137.38	46.817	5.1067e-06	56.996	0.00054799	0.0004991	0.0001394	1575.5	5.7814e-06	5.596e-06	1563.8	424.82	5.7427e-06	5.6246e-06	482.7	161.07	140.18	47.863	5.5703e-06	58.675	22.431	-8.126	-13.100	-84.070	27.905	53.433	-84.111	-79.604	-2.478	65.129	-79.817	-75.614	-75.082	-70.762	40.326	-71.515	-8191	255	
8095.442	1	1	0	0	0.099938	0.11837	0.13479	0.35968	0.082657	0.10683	0.15169	0.30631	0.11561	0.077123	0.15873	0.2018	0.19779	0.099941	0.1204	0.11185	-2.4271	-2.4125	-2.6708	-2.7521	-2.4646	-2.6958	-3.0979	-2.7021	-2.7438	-2.6063	-2.5792	-2.9167	-2.6292	-2.8187	-2.6083	-2.4417	233.155	-34.201	252.178	219.816	-23.695	27.743	-39.892	-72.061	-32.272	-73.498	117.278	228.220	-67.515	116.644	174.884	177.634	0.0006629	0.0004433	0.0001591	1552.5	5.5483e-06	7.0142e-06	1535.6	417.08	2.7615e-06	5.721e-06	473.68	157.54	137.49	46.754	4.8598e-06	56.933	0.00053695	0.0005163	0.00014136	1572.9	5.4696e-06	5.3137e-06	1562.1	424.1	5.5561e-06	5.4236e-06	480.82	161.14	140.32	47.874	5.603e-06	58.651	26.201	-0.177	1.198	-84.074	38.425	35.459	-84.252	-79.599	-29.253	45.676	-79.542	-75.749	-75.452	-70.694	35.944	-71.649	-8191	255	
8095.563	1	1	0	0	0.071902	0.06538	0.14947	0.20702	0.12409	0.19824	0.19186	0.087968	0.18105	0.12091	0.23793	0.31083	0.084101	0.11959	0.29332	0.30926	-2.2583	-2.425	-2.7333	-3.0354	-2.3479	-2.8271	-2.8812	-2.6792	-2.6625	-2.7271	-2.4771	-2.9042	-2.4979	-2.7792	-2.5292	-2.6146	-70.971	193.498	13.564	238.635	168.918	119.550	210.654	165.973	173.760	-16.439	55.506	222.638	244.960	238.538	254.765	183.792	0.00070045	0.00065084	0.00019251	1554.5	6.0527e-06	4.2746e-06	1539.1	415.62	8.7161e-06	5.1589e-06	476.68	156.3	137.01	46.699	7.0086e-06	57.179	0.00053428	0.0004975	0.00013626	1572.1	5.6612e-06	5.1574e-06	1561.5	424.36	5.5637e-06	5.4876e-06	480.4	160.62	140.31	47.795	5.6857e-06	58.722	24.502	-6.215	-8.071	-84.032	43.979	52.939	-84.223	-79.523	10.858	47.934	-80.283	-75.610	-75.387	-70.843	65.283	-71.370	-8191	255	
8095.657	1	1	0	0	0.18387	0.19653	0.077496	0.16305	0.066459	0.2056	0.089708	0.28823	0.25589	0.21535	0.079319	0.19473	0.09111	0.17675	0.13218	0.22966	-2.3667	-2.5646	-2.4708	-2.9688	-2.5896	-2.7021	-2.9437	-2.4729	-2.7625	-2.5354	-2.7375	-2.9062	-2.5312	-2.6583	-2.8	-2.7042	152.682	91.928	155.068	192.747	78.566	260.109	168.433	200.056	98.654	151.147	-50.365	243.446	-59.709	186.752	-62.493	208.120	0.0006763	0.00064239	0.00021546	1555.1	4.5496e-06	6.2014e-06	1543.8	417.92	5.2339e-06	6.0636e-06	479.29	157.31	137.94	46.717	4.5848e-06	57.09	0.00053356	0.00050404	0.00013965	1573.5	5.5602e-06	5.2477e-06	1563.4	424.7	5.3441e-06	5.3748e-06	482.9	160.85	140.56	47.842	5.4768e-06	58.648	20.236	-9.830	-7.840	-84.168	70.988	39.853	-84.165	-79.579	-25.844	60.489	-80.143	-75.734	-75.359	-70.753	47.075	-71.191	-8191	255	
8095.731	1	1	0	0	0.23612	0.15626	0.12633	0.35746	0.050251	0.23927	0.28351	0.12525	0.16487	0.34367	0.03121	0.19322	0.21654	0.27073	0.18389	0.15465	-2.4167	-2.5208	-2.5062	-2.8438	-2.5083	-2.5042	-2.7542	-2.6521	-2.6979	-2.6271	-2.5187	-2.9354	-2.5979	-2.8854	-2.7583	-2.5229	190.301	171.252	5.102	206.717	-10.114	29.945	214.479	230.756	171.851	78.599	117.220	260.493	-48.725	254.318	132.451	204.331	0.00068077	0.00062153	0.00019932	1555.1	8.1629e-06	5.8449e-06	1539.9	415.45	4.7331e-06	4.986e-06	474.65	157.24	137.31	46.46	3.9746e-06	57.165	0.00051548	0.00049478	0.00013602	1571	5.3956e-06	5.1923e-06	1557.1	423.04	5.2233e-06	5.3313e-06	480.62	160.79	139.98	47.651	5.3948e-06	58.726	28.315	11.147	0.319	-84.037	49.191	67.899	-84.128	-79.567	-26.239	64.168	-80.599	-75.681	-75.179	-70.616	70.347	-71.308	-8191	255	
8095.827	1	1	0	0	0.3019	0.17554	0.084692	0.47334	0.13599	0.18235	0.35518	0.16849	0.082737	0.20853	0.19908	0.25462	0.36451	0.1485	0.23981	0.10655	-2.1437	-2.6146	-2.525	-2.9562	-2.7583	-2.6813	-2.9875	-2.8125	-2.9083	-2.7854	-2.4333	-2.9042	-2.7354	-2.5625	-2.8604	-2.6437	184.420	-72.631	-8.760	251.491	164.418	110.250	206.561	162.330	114.110	-0.721	89.378	-52.706	-89.625	223.658	251.468	-79.926	0.00069127	0.00056692	0.00016907	1545.3	5.7205e-06	7.7412e-06	1539.8	416.87	7.5445e-06	4.1095e-06	474	157.35	136.82	46.514	5.8434e-06	57.18	0.00052672	0.0004942	0.00013435	1567.3	5.4209e-06	5.3137e-06	1556.5	423.45	5.2309e-06	5.262e-06	480.73	160.83	139.96	47.648	5.1474e-06	58.635	21.466	-20.235	-13.964	-84.173	28.311	57.177	-84.258	-79.557	9.221	74.619	-80.200	-75.526	-75.281	-70.683	65.580	-71.618	-8191	255	
8095.946	1	1	0	0	0.10016	0.22243	0.066686	0.28269	0.17772	0.17913	0.063481	0.25159	0.096677	0.22709	0.18754	0.14076	0.11958	0.1051	0.21807	0.14153	-2.1333	-2.7812	-2.4458	-3.0208	-2.5729	-2.4771	-3.1958	-2.7812	-2.7208	-2.6792	-2.4708	-3.0146	-2.6708	-2.6021	-2.95	-2.6771	75.975	207.891	-42.810	157.975	244.654	5.370	-52.471	256.095	176.347	90.766	36.423	218.125	175.765	191.351	251.724	-73.935	0.00068548	0.00053302	0.0001409	1547.4	9.0172e-06	3.7044e-06	1537.7	415.24	5.8826e-06	3.5473e-06	477.54	156.97	137.32	46.321	6.4163e-06	56.795	0.00051724	0.00050738	0.00013213	1565.1	5.3446e-06	5.1843e-06	1555.3	422.84	5.3004e-06	5.2306e-06	479.41	160.38	140.02	47.586	5.1453e-06	58.459	21.498	-13.847	-8.810	-84.128	46.684	56.240	-84.025	-79.571	42.015	34.337	-80.035	-75.590	-75.356	-70.384	40.364	-71.502	-8191	255	
8096.042	1	1	0	0	0.15922	0.35418	0.16537	0.31354	0.39309	0.15355	0.49633	0.22633	0.22676	0.14901	0.10355	0.23434	0.28505	0.37844	0.24691	0.16469	-2.2125	-2.5333	-2.4479	-2.6417	-2.7438	-2.6146	-2.7854	-2.7854	-2.6875	-2.7687	-2.3458	-2.7979	-2.7938	-2.3937	-2.7521	-2.7313	96.188	-73.137	-45.865	222.146	-40.016	16.102	195.459	183.368	117.228	115.119	94.319	240.136	-77.631	224.452	-83.258	-76.539	0.00070374	0.00059146	0.00022358	1546.2	3.8329e-06	6.0489e-06	1532.9	416.5	7.1812e-06	6.0924e-06	481.58	157.58	137.55	46.433	3.4236e-06	56.917	0.00053074	0.00048483	0.00013717	1565.3	5.3966e-06	5.1528e-06	1553.2	422.52	5.1727e-06	5.2139e-06	480.07	160.62	139.97	47.626	5.27e-06	58.539	23.403	-10.040	-9.620	-84.073	54.073	38.690	-84.117	-79.729	13.668	51.720	-80.430	-75.706	-75.184	-70.817	54.775	-71.333	-8191	255	
8096.138	1	1	0	0	0.25914	0.12075	0.16803	0.16385	0.038998	0.31429	0.30096	0.23724	0.35393	0.14719	0.082559	0.33846	0.23093	0.12151	0.26118	0.20463	-2.2146	-2.8563	-2.3542	-3.0792	-2.6937	-2.4562	-2.9313	-2.6292	-2.5854	-3.0083	-2.4562	-2.9562	-2.6042	-2.6042	-2.8271	-2.7417	-6.737	-62.385	107.602	183.163	-38.952	101.333	206.675	188.228	251.100	247.888	-41.698	249.030	207.255	-71.694	-46.242	168.383	0.00065924	0.00063058	0.00011681	1544.5	7.9858e-06	6.4492e-06	1533.2	415.26	6.3195e-06	3.9243e-06	475.02	157.28	136.63	46.406	3.7209e-06	56.813	0.00052458	0.00047131	0.00013605	1566.5	5.4946e-06	5.2507e-06	1554.2	422.8	5.2601e-06	5.1791e-06	479.59	160.49	139.9	47.636	5.0859e-06	58.478	25.979	-13.223	-9.971	-84.061	71.895	55.072	-84.140	-79.672	15.231	43.433	-80.189	-75.701	-75.254	-70.661	86.664	-71.454	-8191	255	
8096.259	1	1	0	0	0.34128	0.22381	0.18942	0.25821	0.097891	0.20548	0.37042	0.24655	0.35035	0.073773	0.12328	0.14382	0.17753	0.2122	0.18999	0.36961	-1.9792	-2.8083	-2.525	-2.8521	-2.65	-2.3896	-2.8354	-2.8396	-2.5375	-2.8229	-2.5583	-2.8042	-2.7521	-2.5708	-2.8625	-2.7021	117.635	261.769	197.753	214.758	-43.015	-29.580	165.462	214.332	179.858	58.014	70.175	184.309	235.104	254.098	218.719	235.124	0.00067269	0.00065265	0.00018533	1547.7	7.1278e-06	5.9887e-06	1530.8	415	6.337e-06	2.9573e-06	474.98	156.59	136.63	46.445	4.6501e-06	56.85	0.00053288	0.00045742	0.00012941	1564.8	5.3459e-06	5.1953e-06	1552.7	422.16	5.3747e-06	5.2094e-06	478.26	160.11	139.58	47.556	5.142e-06	58.425	27.684	-7.446	-16.324	-84.105	49.102	43.688	-84.110	-79.595	-18.593	48.662	-80.218	-75.401	-75.150	-70.816	67.381	-71.303	-8191	255	
8096.331	1	1	0	0	0.015101	0.18659	0.1414	0.24746	0.19594	0.092834	0.11857	0.41625	0.061626	0.15703	0.050458	0.2199	0.0697	0.25584	0.17553	0.29252	-2.1396	-2.75	-2.6271	-2.8417	-2.8542	-2.5812	-3.1063	-2.6833	-2.575	-2.7625	-2.6917	-2.8146	-2.9521	-2.4562	-2.8792	-2.8104	-37.650	186.052	-15.202	-95.621	222.660	12.065	193.583	244.794	123.151	229.494	132.579	38.198	-85.111	245.087	229.338	131.448	0.00073663	0.00038722	0.00011698	1543.2	6.6947e-06	4.4239e-06	1532.7	414.57	9.2611e-06	4.2778e-06	470.35	156.97	137.39	46.514	5.8058e-06	56.893	0.00052365	0.00046586	0.00013223	1560.2	5.347e-06	5.2416e-06	1551.9	422.24	5.4704e-06	5.0788e-06	478.67	160.35	139.8	47.642	5.3409e-06	58.5	23.549	-4.527	9.608	-84.090	46.508	49.439	-84.152	-79.622	40.847	63.568	-80.152	-75.647	-75.268	-70.665	25.478	-71.166	-8191	255	
8096.427	1	1	0	0	0.071464	0.12779	0.030626	0.24838	0.39064	0.19402	0.31161	0.13832	0.33996	0.21019	0.1514	0.24216	0.4846	0.050891	0.059111	0.23007	-2.1604	-2.7917	-2.6792	-2.65	-2.7729	-2.4375	-3.0083	-2.7062	-2.5208	-2.8083	-2.7	-2.675	-2.95	-2.7479	-2.8021	-2.8146	-37.653	-16.120	-21.957	256.026	180.631	106.923	210.254	-16.376	-17.111	-47.827	221.335	83.043	259.390	228.094	175.173	191.553	0.00063835	0.00036359	0.00016223	1539.8	4.626e-06	5.2818e-06	1527	414.41	1.0596e-05	4.0549e-06	472.98	156.9	136.42	46.496	4.5058e-06	56.975	0.00053318	0.00047009	0.00013945	1561.3	5.1942e-06	5.239e-06	1551.1	422.63	5.4253e-06	5.0879e-06	477.96	160.55	139.82	47.641	5.3348e-06	58.524	24.323	22.219	-17.374	-84.004	39.513	59.301	-84.224	-79.573	12.875	41.571	-79.422	-75.576	-75.146	-70.883	47.574	-71.503	-8191	255	
8096.547	1	1	0	0	0.17946	0.13898	0.13385	0.29605	0.11235	0.22374	0.38927	0.13596	0.27343	0.19644	0.20545	0.036609	0.25353	0.097388	0.14171	0.23378	-2.0563	-2.7771	-2.5896	-2.7667	-2.8875	-2.6896	-2.6583	-2.8271	-2.4854	-2.7479	-2.6896	-2.725	-2.8146	-2.7083	-2.6958	-2.8583	-39.926	7.050	-94.919	224.059	63.551	242.216	176.222	152.348	249.423	118.985	108.233	-51.329	236.747	126.772	221.793	180.085	0.00074204	0.00060663	0.0001867	1542.4	5.5844e-06	5.4345e-06	1533.6	415.4	4.6303e-06	3.8858e-06	479.89	156.9	137.11	46.387	4.1385e-06	56.878	0.00051988	0.00046583	0.00013465	1561.2	5.2491e-06	5.3148e-06	1552.8	422.55	5.2409e-06	5.1049e-06	480.95	160.41	139.96	47.619	5.3804e-06	58.47	21.206	-9.139	-3.486	-84.023	41.475	45.299	-84.129	-79.642	40.092	50.068	-79.946	-75.743	-75.149	-70.670	45.810	-71.216	-8191	255	
8096.643	1	1	0	0	0.11661	0.13789	0.17937	0.3228	0.13508	0.028854	0.17342	0.31012	0.11548	0.066275	0.41052	0.19298	0.084097	0.056505	0.1122	0.38867	-2.1646	-2.8312	-2.4021	-2.8	-2.9396	-2.8083	-2.7229	-2.9688	-2.5687	-3.0583	-2.8688	-2.6417	-3.0167	-2.6375	-2.6521	-3.0187	-86.937	234.149	-11.065	216.875	253.026	227.321	238.542	202.874	203.448	-71.095	-62.451	59.148	-91.884	239.164	214.475	176.128	0.00072258	0.00063553	0.00019702	1542.8	7.1089e-06	6.8412e-06	1527.9	416.12	8.0892e-06	5.9951e-06	473.54	156.96	136.85	46.506	6.43e-06	57.121	0.00052194	0.00047765	0.00013604	1562.8	5.1935e-06	5.2192e-06	1549.2	422.48	5.2784e-06	5.2677e-06	480.04	160.43	139.68	47.645	5.3804e-06	58.607	26.192	-11.326	-6.897	-84.071	44.952	36.791	-84.050	-79.495	4.267	50.887	-80.061	-75.630	-75.372	-70.788	69.037	-71.425	-8191	255	
8096.738	1	1	0	0	0.12062	0.070724	0.027314	0.35878	0.03316	0.13579	0.15285	0.10674	0.16779	0.16471	0.1911	0.13659	0.37233	0.16376	0.34448	0.073633	-2.2146	-2.7938	-2.7708	-2.6188	-2.9833	-2.7875	-2.9417	-2.9479	-2.6979	-2.8937	-2.7333	-2.6604	-2.8167	-2.7438	-2.55	-2.9708	201.128	94.016	-7.779	212.275	196.002	50.121	-50.993	213.624	228.059	236.615	102.394	128.346	189.446	156.275	175.397	207.298	0.00070653	0.00050912	0.00020345	1541.4	5.6859e-06	4.2841e-06	1531.6	414.06	9.2329e-06	5.1171e-06	476.33	156.64	136.34	46.555	4.6078e-06	57.056	0.00053391	0.00049297	0.00013648	1560.5	5.072e-06	5.3846e-06	1550.3	422.11	5.4759e-06	5.17e-06	481.47	160.28	139.72	47.679	5.4977e-06	58.596	21.801	-9.844	9.110	-83.959	27.462	45.887	-84.182	-79.788	11.499	81.437	-80.305	-75.469	-75.367	-70.916	57.933	-71.404	-8191	255	
8096.858	1	1	0	0	0.18014	0.20784	0.14629	0.28277	0.25799	0.19154	0.19393	0.15598	0.080114	0.15258	0.052056	0.29261	0.1251	0.1808	0.40663	0.16587	-1.9854	-2.6	-2.7396	-2.6604	-2.6917	-2.5021	-2.7875	-2.9437	-2.6063	-2.7167	-2.7625	-2.6625	-2.8083	-2.7125	-2.625	-2.875	81.557	-0.146	126.160	230.959	15.140	130.819	214.907	199.204	254.982	-76.452	186.396	183.198	-88.084	200.030	-8.422	185.006	0.00073325	0.00034878	0.00013432	1541.7	5.6021e-06	5.6887e-06	1528	415.83	6.866e-06	4.8803e-06	476.44	156.95	136.46	46.532	3.7989e-06	56.933	0.00053843	0.00047087	0.00013586	1560.6	5.247e-06	5.2143e-06	1550.2	422.84	5.4006e-06	5.3532e-06	479.8	160.36	139.83	47.689	5.3369e-06	58.566	24.678	5.403	-12.569	-84.128	36.153	43.525	-84.233	-79.567	8.567	61.172	-80.668	-75.719	-75.058	-70.636	61.359	-71.377	-8191	255	
8096.930	1	1	0	0	0.07673	0.096668	0.030894	0.23246	0.14634	0.11452	0.21681	0.18941	0.2627	0.11697	0.10008	0.29628	0.1463	0.18475	0.1107	0.19913	-2.0354	-2.7646	-2.5792	-2.7583	-2.7604	-2.7	-2.6021	-3.0021	-2.6375	-2.6271	-2.9229	-2.6146	-2.8708	-2.8458	-2.4813	-2.9562	108.727	240.375	-47.957	242.049	36.460	-43.339	198.198	215.876	245.097	-78.354	176.123	180.269	-64.128	-44.424	-69.641	17.334	0.00066391	0.00068146	0.00014457	1539.5	4.1147e-06	6.1504e-06	1533	414.91	3.6139e-06	6.0691e-06	476.68	156.98	137.07	46.382	4.4555e-06	57.047	0.00052629	0.00048572	0.00013316	1562.6	5.2289e-06	5.3664e-06	1551	422.55	5.3513e-06	5.301e-06	479.55	160.48	139.93	47.608	5.2197e-06	58.556	21.102	6.747	11.161	-84.133	30.659	56.063	-84.020	-79.541	60.884	34.996	-79.876	-75.675	-75.193	-70.974	37.984	-71.306	-8191	255	
8097.026	1	1	0	0	0.28036	0.31763	0.057006	0.24959	0.18384	0.15667	0.25634	0.24954	0.13701	0.048365	0.1514	0.17815	0.10861	0.19777	0.22177	0.094069	-2.2458	-2.5729	-2.7625	-2.7354	-2.5854	-2.7062	-2.7938	-3.0521	-2.4437	-2.3958	-2.7875	-2.6542	-2.6792	-2.8208	-2.6333	-3.0187	208.589	113.305	253.082	234.119	61.858	35.683	211.088	155.406	97.327	94.708	100.896	134.258	7.814	169.930	157.674	103.812	0.00068325	0.00065586	0.00016791	1541.5	5.3684e-06	5.8855e-06	1534	416.21	8.5856e-06	5.3214e-06	473.37	156.7	137.08	46.355	3.1369e-06	57.155	0.00053516	0.0004724	0.00013169	1562	5.3338e-06	5.3456e-06	1551.8	422.93	5.2925e-06	5.284e-06	478.57	160.44	139.88	47.607	5.2697e-06	58.675	22.789	15.181	-23.220	-84.038	42.762	59.695	-83.903	-79.816	23.337	60.995	-79.534	-75.704	-75.245	-70.749	75.618	-71.231	-8191	255	
8097.122	1	1	0	0	0.17604	0.15997	0.19671	0.23582	0.18012	0.093632	0.24268	0.4803	0.17492	0.042895	0.23185	0.34154	0.2237	0.007828	0.1185	0.16171	-2.1562	-2.3292	-2.9042	-2.7542	-2.7062	-2.9646	-2.675	-2.7896	-2.8375	-2.5896	-2.6937	-2.6604	-2.6958	-2.9646	-2.5	-2.7896	193.543	230.971	126.095	212.562	96.264	50.328	227.279	181.307	140.030	47.637	238.132	-74.721	250.373	-68.081	144.042	147.098	0.00070948	0.00073458	0.00012189	1544.3	3.435e-06	6.3767e-06	1528.6	415.31	5.7807e-06	5.1874e-06	470.33	156.51	137.07	46.653	1.9948e-06	57.085	0.00052961	0.00047993	0.00012815	1560.8	5.3352e-06	5.0383e-06	1551.2	422.76	5.2729e-06	5.234e-06	476.83	160.38	139.84	47.639	5.3053e-06	58.585	28.226	-23.879	-8.439	-84.134	47.359	44.908	-84.140	-79.515	-8.428	43.253	-80.497	-75.461	-75.001	-70.907	68.288	-71.526	-8191	255	
8097.243	1	1	0	0	0.21426	0.10883	0.2117	0.30771	0.22937	0.020429	0.3067	0.14297	0.034268	0.12069	0.18661	0.2186	0.016459	0.13646	0.23485	0.18802	-2.2896	-2.4667	-2.95	-2.8	-2.5292	-2.9062	-2.7917	-2.8667	-2.6688	-2.5917	-2.8229	-2.7292	-2.7625	-3.0667	-2.4979	-2.85	-96.150	151.653	45.919	186.486	-36.159	58.502	215.275	201.290	95.143	175.574	-97.202	196.071	243.967	-71.238	146.360	242.753	0.00065866	0.00061652	0.00014417	1545.9	5.8733e-06	6.2303e-06	1534.2	415.5	6.6464e-06	3.1527e-06	474.85	156.92	136.99	46.434	4.4365e-06	56.929	0.0005239	0.00049777	0.00013161	1560.9	5.3272e-06	5.1957e-06	1552.7	422.7	5.361e-06	5.0803e-06	478.83	160.18	140.01	47.631	5.3808e-06	58.51	18.997	-5.346	-1.543	-83.956	85.951	58.403	-83.995	-79.615	-0.434	29.486	-80.091	-75.510	-75.246	-70.768	52.940	-71.209	-8191	255	
8097.339	1	1	0	0	0.21119	0.19761	0.24475	0.53266	0.11265	0.15182	0.036689	0.34809	0.22621	0.26813	0.22568	0.097549	0.19774	0.082685	0.11004	0.23295	-2.2458	-2.4396	-2.9625	-3.0083	-2.5	-2.8375	-2.9604	-2.8	-2.8104	-2.45	-2.95	-2.8333	-2.5938	-2.7896	-2.7	-2.7042	-82.069	-24.103	-44.102	229.331	68.236	14.507	-34.409	190.862	230.153	131.963	47.778	198.353	7.710	167.162	75.619	149.297	0.0006985	0.00066208	0.00015894	1542.1	8.0482e-06	6.51e-06	1534.7	415.56	4.0542e-06	5.5371e-06	475.01	157.62	136.68	46.444	5.7115e-06	57.095	0.00053268	0.00048228	0.00013311	1561.4	5.3869e-06	5.1585e-06	1553.7	422.62	5.3655e-06	5.3676e-06	480.75	160.55	139.71	47.614	5.5419e-06	58.574	26.919	-7.857	-21.188	-84.128	19.600	44.389	-84.169	-79.612	-28.495	45.178	-80.020	-75.628	-75.272	-70.497	50.953	-71.497	-8191	255	
8097.435	1	1	0	0	0.28178	0.19929	0.16191	0.19357	0.027623	0.073259	0.26029	0.16901	0.08405	0.1694	0.31003	0.21906	0.17911	0.18358	0.35827	0.096606	-2.2458	-2.4062	-2.6958	-2.7917	-2.6458	-2.8458	-2.6937	-2.7958	-2.75	-2.675	-2.7188	-2.6625	-2.5812	-2.8854	-2.5292	-2.7812	-61.840	-81.830	81.521	227.517	-35.925	-23.510	137.265	-75.926	122.305	-90.851	11.151	162.031	169.399	-87.234	87.594	183.639	0.00068709	0.00043667	0.00010949	1542.9	2.742e-06	3.5009e-06	1533.1	415.51	7.5179e-06	6.4517e-06	478.13	157.69	137.27	46.361	3.716e-06	56.702	0.00053803	0.00049747	0.00013832	1563.7	5.3796e-06	5.2264e-06	1552.2	422.63	5.3266e-06	5.279e-06	480.7	160.42	139.78	47.566	5.3866e-06	58.484	22.281	-12.446	-6.348	-84.132	-10.384	69.049	-84.176	-79.618	17.682	56.477	-80.317	-75.446	-75.058	-70.795	33.864	-71.517	-8191	255	
8097.532	1	1	0	0	0.15615	0.064771	0.13819	0.13724	0.12719	0.13357	0.037799	0.48625	0.31652	0.20157	0.24447	0.1325	0.39303	0.18921	0.11061	0.1098	-2.1542	-2.6396	-2.7708	-2.8167	-2.6042	-2.7146	-2.8958	-2.7917	-2.7875	-2.6854	-2.6729	-2.725	-2.7042	-2.8312	-2.5812	-2.6146	179.847	-42.823	254.466	5.495	203.270	-41.396	36.118	194.153	246.963	166.841	-41.533	253.989	-87.642	230.496	173.768	-51.034	0.00072448	0.00055974	0.00021263	1540.2	5.1978e-06	4.0652e-06	1534.1	415.13	2.6143e-06	4.2344e-06	474.37	157.04	137.04	46.449	4.6715e-06	57.025	0.00052548	0.0004816	0.00013355	1562.2	5.2425e-06	5.0125e-06	1553.4	422.96	5.2171e-06	5.2737e-06	480.68	160.4	139.91	47.581	5.351e-06	58.534	25.902	-23.479	-3.798	-84.050	16.043	47.317	-84.208	-79.474	-13.530	95.391	-80.762	-75.561	-75.355	-70.616	72.736	-71.184	-8191	255	
8097.628	1	1	0	0	0.10669	0.13913	0.028111	0.1307	0.078717	0.15686	0.31104	0.17831	0.19473	0.31789	0.10377	0.21644	0.27159	0.03343	0.26609	0.23143	-2.25	-2.4583	-2.5917	-2.9437	-2.6833	-2.8354	-2.9375	-2.7479	-2.9896	-2.6667	-2.675	-2.8417	-2.4229	-2.8458	-2.5	-2.6042	218.083	64.930	-89.821	150.791	246.236	-38.733	203.735	245.620	158.785	216.541	13.211	78.698	215.998	-86.577	-52.367	208.598	0.00065432	0.00056181	0.00017957	1543.3	5.0431e-06	4.4036e-06	1529.4	415.48	8.2878e-06	6.3097e-06	473.21	156.88	136.81	46.519	4.2122e-06	57.284	0.00050585	0.00048071	0.00013002	1561.7	5.1595e-06	4.9726e-06	1549.6	422.44	5.1307e-06	5.1507e-06	475.89	160.35	139.57	47.594	5.2632e-06	58.526	27.249	5.034	7.013	-84.147	95.864	36.554	-84.208	-79.733	1.143	59.676	-80.689	-75.629	-75.455	-70.572	23.767	-71.032	-8191	255	
8097.724	1	1	0	0	0.21035	0.14238	0.16443	0.096745	0.13325	0.099789	0.11051	0.031976	0.098785	0.032909	0.10096	0.19956	0.24334	0.42578	0.25426	0.29195	-2.3875	-2.6458	-2.6417	-2.9917	-2.6688	-2.8833	-3.0708	-2.7771	-2.5479	-2.7625	-2.6146	-2.9375	-2.6458	-2.8333	-2.6667	-2.5812	-63.108	-43.410	-6.068	189.878	168.361	60.647	226.688	261.363	46.547	-77.027	1.403	257.458	179.673	233.454	37.512	203.663	0.00068069	0.00076335	0.00013943	1540.2	4.6935e-06	3.5034e-06	1529.3	413.96	1.002e-05	4.8033e-06	466.52	157.23	136.62	46.509	3.4528e-06	56.674	0.00050308	0.00046655	0.00013354	1559.6	5.3196e-06	5.0413e-06	1549	422.04	5.0963e-06	5.2488e-06	475.42	160.47	139.69	47.607	5.4459e-06	58.491	21.970	-11.587	-7.561	-84.027	57.212	50.704	-84.317	-79.625	11.441	54.857	-79.452	-75.617	-75.019	-70.613	45.896	-71.320	-8191	255	
8097.820	1	1	0	0	0.09879	0.17649	0.095514	0.033831	0.080499	0.078707	0.11919	0.16307	0.15269	0.28904	0.1467	0.24136	0.19648	0.29755	0.1584	0.074963	-2.4625	-2.3833	-2.5417	-3.0687	-2.6104	-2.6833	-2.9771	-2.7583	-2.7021	-2.5458	-2.5812	-2.8771	-2.6896	-2.7896	-2.7979	-2.6667	30.566	92.809	157.411	-77.022	99.156	-38.419	238.936	243.562	69.364	221.667	100.937	246.380	255.109	220.790	225.347	183.743	0.00067652	0.0007361	0.00013203	1541.5	5.9108e-06	5.6731e-06	1528.3	415.64	6.3072e-06	6.3945e-06	469.14	156.81	136.85	46.572	7.0933e-06	56.695	0.00050321	0.00047465	0.00013166	1558.9	5.364e-06	5.0967e-06	1550.4	422.23	5.1004e-06	5.2578e-06	475.48	160.28	139.66	47.664	5.2459e-06	58.429	20.427	-8.447	-25.788	-83.847	17.115	67.388	-84.119	-79.822	33.957	62.097	-79.629	-75.403	-75.195	-70.410	73.923	-71.245	-8191	255	
8097.939	1	1	0	0	0.14236	0.28806	0.048861	0.21482	0.2702	0.26923	0.25335	0.34927	0.056169	0.096694	0.19297	0.25466	0.0077311	0.076733	0.094779	0.059072	-2.4271	-2.5792	-2.5083	-2.9604	-2.5729	-2.6437	-3.0187	-2.6771	-2.7167	-2.6542	-2.3208	-2.8479	-2.6813	-2.6688	-2.6396	-2.5	10.771	-35.797	92.192	171.201	150.428	106.146	122.192	169.408	87.381	228.720	60.113	178.955	126.938	117.396	94.954	-88.829	0.00069943	0.00071784	0.00019321	1542.8	6.4995e-06	7.7343e-06	1534	414.51	8.09e-06	6.0696e-06	475.51	157.27	136.8	46.545	5.8752e-06	57.136	0.00051472	0.00047768	0.00012991	1559.6	5.3498e-06	4.9897e-06	1551.8	422.55	5.1166e-06	5.189e-06	478.99	160.44	139.67	47.622	5.0115e-06	58.575	25.497	4.829	-12.413	-84.046	26.796	56.062	-84.155	-79.513	-21.208	52.948	-79.749	-75.537	-75.492	-70.616	56.664	-71.198	-8191	255	
8098.035	1	1	0	0	0.17023	0.21127	0.27071	0.14384	0.064867	0.11911	0.048503	0.32894	0.19794	0.2019	0.09642	0.39541	0.26124	0.19984	0.28636	0.15383	-2.3167	-2.6667	-2.3333	-2.95	-2.4354	-2.5812	-2.9667	-2.7562	-2.6	-2.6792	-2.4896	-2.8167	-2.825	-2.8521	-2.8063	-2.5354	252.706	164.224	-78.341	234.218	22.129	57.850	227.690	247.522	34.229	106.344	148.989	205.692	20.414	-28.791	145.747	219.775	0.00073537	0.00067419	0.00017483	1542.5	5.4559e-06	5.2588e-06	1530.1	413.79	1.7625e-06	3.311e-06	472.51	157.6	136.43	46.535	6.8078e-06	57.032	0.00051374	0.00047325	0.00012912	1561.6	5.1765e-06	4.9078e-06	1549.2	422.11	5.1366e-06	5.0273e-06	477.61	160.51	139.52	47.672	5.0406e-06	58.624	23.631	-18.359	-1.727	-83.969	20.872	42.427	-83.952	-79.451	54.417	61.032	-79.718	-75.796	-75.330	-70.852	30.324	-71.615	-8191	255	
8098.131	1	1	0	0	0.16988	0.16054	0.23112	0.19359	0.28649	0.26683	0.047975	0.15097	0.11614	0.11413	0.15184	0.28073	0.087694	0.084729	0.1092	0.17056	-2.3229	-2.725	-2.5917	-3.0083	-2.6625	-2.5417	-3.1354	-2.7104	-2.6312	-2.7896	-2.5646	-3.0083	-2.8917	-2.7562	-2.7958	-2.6146	120.821	198.453	-2.494	-69.779	209.781	224.705	189.920	255.073	250.716	-53.177	229.393	230.341	-87.081	252.887	-16.379	164.026	0.00072629	0.00057674	0.00013418	1536.8	4.0896e-06	3.9811e-06	1529.8	416.4	6.6518e-06	6.4554e-06	474.39	156.81	136.97	46.386	4.6979e-06	56.921	0.00049999	0.00047193	0.00012506	1558.5	5.2942e-06	4.8156e-06	1548.1	422.41	5.0282e-06	4.9876e-06	479.01	160.28	139.69	47.603	4.8594e-06	58.455	27.865	-12.296	6.889	-83.973	94.693	37.438	-84.168	-79.652	41.393	56.881	-79.796	-75.464	-75.155	-70.552	40.550	-71.223	-8191	255	
8098.227	1	1	0	0	0.20989	0.089831	0.17343	0.19862	0.16109	0.16546	0.37066	0.44154	0.14242	0.21991	0.21715	0.114	0.18264	0.19967	0.24943	0.30018	-2.1417	-2.7646	-2.4021	-2.9542	-2.6125	-2.5917	-3.1083	-2.8458	-2.65	-2.7458	-2.525	-2.9229	-2.6417	-2.6771	-2.7104	-2.65	243.333	152.232	139.795	234.120	5.935	67.264	208.778	235.830	103.702	255.575	28.113	236.083	65.486	-85.401	-1.961	253.210	0.00068244	0.00064727	0.00014153	1541.1	5.5486e-06	5.2657e-06	1526.2	414.73	7.4731e-06	6.6875e-06	475.4	157.57	137.07	46.548	5.7255e-06	57.138	0.00050256	0.00044301	0.00012932	1558.7	5.1918e-06	5.1384e-06	1549.3	422.5	4.9955e-06	4.9845e-06	479.91	160.42	139.85	47.68	4.8989e-06	58.548	24.826	-6.785	-4.262	-84.114	67.129	55.142	-84.174	-79.486	-1.999	55.734	-80.689	-75.676	-75.126	-70.756	75.667	-71.497	-8191	255	
8098.323	1	1	0	0	0.13451	0.23828	0.31596	0.21841	0.17437	0.15588	0.37623	0.28622	0.096197	0.057282	0.24042	0.26748	0.33701	0.36203	0.13659	0.22151	-2.2562	-2.7271	-2.5521	-2.9479	-2.8042	-2.6604	-2.9813	-2.9125	-2.6167	-2.8688	-2.4188	-2.7458	-2.7542	-2.7271	-2.9562	-2.7687	103.624	179.681	248.185	257.364	-32.513	191.245	218.672	227.335	116.422	95.818	202.367	198.124	208.261	200.370	-78.050	177.238	0.0006986	0.00064066	0.00021571	1538.4	5.2302e-06	5.4597e-06	1531.3	415.84	5.4461e-06	2.5591e-06	473.84	156.89	137.14	46.496	1.971e-06	56.8	0.00049474	0.00044339	0.0001297	1557.9	5.0098e-06	4.9757e-06	1548.7	422.41	5.0581e-06	4.8577e-06	478.75	160.39	139.82	47.702	4.9824e-06	58.583	28.622	-12.571	10.770	-84.165	19.874	39.692	-84.165	-79.542	20.650	40.715	-80.374	-75.404	-75.270	-70.562	41.205	-71.397	-8191	255	
8098.420	1	1	0	0	0.087422	0.12098	0.18692	0.25211	0.069307	0.27386	0.18679	0.14725	0.093087	0.13601	0.21863	0.24734	0.31833	0.19123	0.1537	0.21937	-2.2438	-2.7562	-2.5292	-2.8625	-2.6917	-2.7583	-2.8958	-2.8875	-2.4979	-2.7146	-2.5979	-2.775	-2.8271	-2.6854	-2.6937	-2.6437	62.145	16.994	261.316	179.476	163.107	-3.879	232.705	256.971	2.619	212.953	215.724	223.867	202.490	247.967	80.947	105.206	0.00063041	0.00069599	0.00015319	1533.8	5.6491e-06	4.2349e-06	1526.2	414.63	4.7866e-06	5.5597e-06	474.1	157.17	136.68	46.399	6.2456e-06	57.178	0.000502	0.00044257	0.00013223	1557.8	4.9553e-06	5.0015e-06	1548.5	421.79	5.1028e-06	4.8608e-06	477.09	160.74	139.62	47.643	4.9651e-06	58.58	26.614	-17.280	-4.934	-84.106	27.719	29.712	-84.182	-79.541	3.096	45.832	-79.776	-75.574	-75.130	-70.467	60.375	-71.225	-8191	255	
8098.540	1	1	0	0	0.30924	0.057828	0.32289	0.46585	0.1792	0.056172	0.28519	0.24672	0.32266	0.13646	0.17068	0.3247	0.11716	0.37352	0.14651	0.10101	-2.2104	-2.7146	-2.4167	-2.75	-2.7333	-2.6146	-3.1229	-2.8771	-2.6375	-2.8625	-2.5292	-2.5854	-2.8583	-2.4854	-2.8063	-2.8396	154.922	60.813	-16.913	223.262	74.599	-23.512	-95.104	227.817	82.522	-6.220	254.702	-64.125	237.362	159.219	252.797	185.874	0.00072064	0.00070223	0.00016101	1539.7	7.2784e-06	5.4888e-06	1525	414.86	7.1372e-06	5.7439e-06	474.85	157.15	136.54	46.481	6.9186e-06	56.823	0.00050867	0.00046399	0.00013321	1559.4	5.1765e-06	5.0633e-06	1548.7	422.14	4.992e-06	4.9808e-06	478.32	160.33	139.67	47.651	4.9536e-06	58.477	23.056	-16.094	11.076	-84.203	46.406	49.023	-84.206	-79.479	46.903	61.711	-80.050	-75.520	-75.269	-70.610	35.661	-71.482	-8191	255	
8098.636	1	1	0	0	0.18968	0.18046	0.26638	0.13621	0.10002	0.17013	0.50403	0.12043	0.21284	0.11742	0.13596	0.10334	0.11907	0.1726	0.24815	0.25269	-2.1146	-2.8354	-2.6125	-2.7375	-2.7667	-2.375	-2.8667	-2.7167	-2.4583	-2.8792	-2.6646	-2.6312	-3.0271	-2.7458	-2.8937	-2.9479	-91.005	179.107	-22.388	132.626	43.267	-60.092	224.340	-93.808	206.870	206.809	56.146	187.538	-5.734	-23.646	156.204	125.112	0.00069533	0.00040559	0.00019788	1541	5.4456e-06	6.1389e-06	1524.7	415.29	6.0716e-06	5.8112e-06	470.42	156.55	136.99	46.59	2.3723e-06	57.188	0.0005148	0.00044335	0.00012624	1556.8	5.022e-06	5.0508e-06	1546.6	422.41	5.1163e-06	5.011e-06	477.26	160.19	139.72	47.697	4.9924e-06	58.604	23.857	0.279	-13.231	-84.159	17.023	39.253	-84.222	-79.531	9.020	47.497	-80.374	-75.475	-75.230	-70.717	27.212	-71.393	-8191	255	
8098.731	1	1	0	0	0.10578	0.10094	0.17286	0.38263	0.14686	0.12837	0.11869	0.32687	0.02292	0.14551	0.11583	0.19066	0.10191	0.066055	0.15181	0.17577	-2.1188	-2.8208	-2.6063	-2.7167	-2.8479	-2.5375	-2.9313	-2.9667	-2.4875	-2.9854	-2.7083	-2.6063	-2.7125	-2.7542	-2.6854	-2.7542	49.089	28.485	6.094	236.591	199.315	-68.716	163.523	229.683	74.444	162.301	11.957	-59.795	260.452	173.655	131.645	-52.751	0.00067938	0.00057161	0.00018969	1538.8	6.8105e-06	7.455e-06	1529.8	414.23	6.1851e-06	5.6555e-06	471.32	157.31	137.33	46.536	4.913e-06	57.08	0.00050389	0.00044843	0.00012618	1559.3	5.0921e-06	5.1031e-06	1549.2	421.94	5.2828e-06	4.9895e-06	477.87	160.36	139.7	47.61	5.019e-06	58.563	16.830	-12.854	-19.656	-84.248	51.648	47.828	-84.127	-79.534	39.237	71.845	-80.467	-75.526	-75.200	-70.656	61.211	-71.448	-8191	255	
8098.827	1	1	0	0	0.10952	0.1571	0.20259	0.49648	0.039244	0.088899	0.19971	0.297	0.10224	0.24292	0.078834	0.2736	0.36204	0.069353	0.32177	0.35178	-1.9646	-2.8646	-2.6792	-2.6937	-2.9042	-2.6042	-2.8312	-2.9458	-2.5854	-2.7687	-2.6625	-2.6	-2.8063	-2.8125	-2.4792	-2.7521	85.775	169.010	65.591	238.281	-14.368	209.558	236.827	188.979	85.207	-59.105	-2.267	-92.923	-80.048	215.047	-36.242	143.264	0.00076124	0.00049955	0.0001836	1539.5	6.9007e-06	6.8099e-06	1527.7	415.26	6.1907e-06	6.3193e-06	469.69	156.58	137.55	46.406	7.7965e-06	57.011	0.00051568	0.00046467	0.00013135	1558.9	5.1196e-06	5.1657e-06	1548.2	422.62	5.2908e-06	5.0182e-06	477.55	160.26	139.85	47.558	5.0388e-06	58.523	21.274	-10.329	5.363	-84.100	69.786	40.421	-84.013	-79.696	15.210	58.389	-80.341	-75.514	-75.132	-70.489	75.532	-71.523	-8191	255	
8098.900	1	1	0	0	0.22104	0.058426	0.15519	0.1788	0.10817	0.25524	0.32985	0.30396	0.060856	0.1346	0.37012	0.24124	0.1876	0.2511	0.086427	0.10117	-2.0833	-2.675	-2.6854	-2.5396	-2.7938	-2.6792	-2.7333	-3.0021	-2.5854	-2.7583	-2.7812	-2.6646	-2.8438	-2.7875	-2.5687	-2.8792	-1.552	216.607	-57.375	209.918	-15.189	262.034	210.689	215.714	144.099	120.953	221.266	207.181	-82.757	208.099	74.148	259.579	0.00068749	0.00061908	0.00013038	1543.1	7.925e-06	6.2595e-06	1527.8	416.02	5.4488e-06	4.8865e-06	469.86	157.58	136.47	46.445	6.9893e-06	56.953	0.00050454	0.00044642	0.00012929	1559.6	5.0723e-06	5.0637e-06	1547.8	422.73	5.2209e-06	4.9459e-06	477.53	160.57	139.58	47.609	5.009e-06	58.529	18.846	3.222	-12.099	-84.085	43.003	61.501	-84.257	-79.756	8.640	46.211	-80.303	-75.517	-75.299	-70.680	26.753	-71.395	-8191	255	
8099.019	1	1	0	0	0.20013	0.15443	0.032468	0.37155	0.27545	0.11636	0.27583	0.32643	0.2803	0.19311	0.1315	0.10703	0.24766	0.30742	0.20942	0.21002	-2.1917	-2.7833	-2.6521	-2.7396	-2.8708	-2.6688	-2.8042	-2.9333	-2.7562	-2.775	-2.8979	-2.8063	-2.6854	-2.8937	-2.5583	-2.8708	21.774	89.475	83.479	213.625	-26.589	-70.386	188.262	241.454	60.022	2.892	7.315	210.048	163.470	90.162	-22.528	178.318	0.00066219	0.00054859	0.0002115	1540.9	4.1218e-06	5.8876e-06	1527.2	415.09	5.9266e-06	6.0093e-06	471.4	157.42	136.72	46.571	3.8681e-06	56.944	0.00049479	0.00045034	0.00012705	1559.2	5.081e-06	4.9787e-06	1548	421.98	5.097e-06	4.9145e-06	478.1	160.42	139.65	47.616	5.1632e-06	58.472	22.732	-2.204	-9.614	-84.116	59.061	66.539	-84.066	-79.660	16.235	47.487	-80.539	-75.601	-75.177	-70.726	64.071	-71.432	-8191	255	
8099.115	1	1	0	0	0.05901	0.16664	0.20424	0.24602	0.17499	0.25329	0.20023	0.19578	0.090334	0.1769	0.014613	0.28315	0.19629	0.22749	0.13619	0.39427	-2.1542	-2.5604	-2.7687	-2.8187	-2.6229	-2.8104	-2.7146	-3.0833	-2.6104	-2.5312	-2.8042	-2.8229	-2.8063	-2.9562	-2.4125	-2.7708	5.072	217.267	-22.386	215.876	238.664	161.097	187.093	205.590	-64.217	80.876	249.896	189.717	260.130	-81.770	2.474	182.526	0.00077683	0.00057483	0.00015894	1541.6	6.0309e-06	4.4157e-06	1527.5	415.82	6.3967e-06	4.8555e-06	482.66	156.58	136.68	46.437	5.5529e-06	57.026	0.00051493	0.00044731	0.00012594	1558.6	5.0803e-06	5.0956e-06	1548.3	423.09	5.2312e-06	4.9584e-06	480.68	160.18	139.68	47.571	5.2085e-06	58.598	23.396	1.412	-18.133	-84.049	71.415	56.061	-84.082	-79.623	23.053	65.611	-80.715	-75.750	-75.191	-70.602	58.937	-71.550	-8191	255	
8099.212	1	1	0	0	0.1213	0.13838	0.17362	0.077911	0.19366	0.12789	0.25732	0.089705	0.19306	0.11683	0.23653	0.098422	0.17852	0.15874	0.10869	0.14103	-2.1604	-2.4958	-2.7042	-2.8167	-2.5687	-2.6646	-2.775	-2.8271	-2.7062	-2.6083	-2.8063	-2.7687	-2.7938	-2.9375	-2.5833	-2.9729	21.404	120.556	105.959	-93.249	47.015	-43.944	182.866	-80.836	237.652	162.613	159.340	137.857	-49.161	104.640	-64.967	210.866	0.00067777	0.00040773	0.00019876	1537.8	5.7821e-06	7.345e-06	1525.7	415.71	4.8694e-06	5.9149e-06	478.56	157.09	136.96	46.551	5.7051e-06	56.814	0.00050831	0.00044785	0.00013303	1556.6	5.1859e-06	5.1472e-06	1548.3	422.5	5.2333e-06	5.0796e-06	479.77	160.53	139.59	47.664	5.137e-06	58.5	24.988	4.585	-12.089	-84.166	51.569	54.134	-84.270	-79.486	27.418	56.451	-79.034	-75.458	-75.243	-70.667	38.476	-71.534	-8191	255	
8099.308	1	1	0	0	0.39331	0.22775	0.12715	0.19088	0.12476	0.076189	0.10077	0.21664	0.10807	0.25141	0.11118	0.099088	0.47183	0.3561	0.37804	0.20827	-2.2292	-2.3688	-2.7938	-2.7687	-2.625	-2.8563	-2.7833	-2.8438	-2.7812	-2.4708	-2.8937	-2.675	-2.7042	-2.9688	-2.5896	-2.8438	-83.456	-33.386	259.556	230.652	-23.784	-93.336	144.342	236.209	156.998	65.453	178.639	-28.807	229.580	245.722	174.411	210.132	0.00078322	0.00078703	0.00015518	1536.5	6.374e-06	6.4873e-06	1519	415.14	4.5273e-06	5.2088e-06	474.91	156.68	137.31	46.498	4.9249e-06	56.863	0.00050489	0.00046062	0.00012815	1556.3	4.8518e-06	4.8748e-06	1545.3	422.07	5.182e-06	4.9732e-06	477.55	160.08	139.8	47.581	5.1568e-06	58.431	24.783	-4.777	-13.077	-83.937	26.339	40.248	-84.161	-79.363	43.568	54.868	-80.248	-75.481	-75.230	-70.947	61.527	-71.378	-8191	255	
8099.428	1	1	0	0	0.14518	0.077698	0.18732	0.22468	0.079726	0.15679	0.032218	0.31208	0.27806	0.1032	0.10825	0.065735	0.21691	0.18803	0.16187	0.2619	-2.3125	-2.4813	-2.7479	-2.7188	-2.6354	-2.8542	-2.6167	-2.9042	-2.7458	-2.4688	-2.9354	-2.95	-2.9229	-3.3333	-2.8271	-2.8229	38.421	-18.555	47.474	240.551	230.900	198.877	169.133	195.800	216.726	-49.690	232.228	212.348	-88.877	-68.794	235.092	165.794	0.00065633	0.00077281	0.00014831	1539.3	4.4017e-06	7.0301e-06	1528.1	415.66	6.2506e-06	5.3871e-06	472.49	156.92	137.15	46.42	6.8386e-06	56.781	0.00050163	0.00046334	0.00012469	1556	5.015e-06	4.9533e-06	1544.4	421.97	4.9927e-06	4.9917e-06	475.82	160.07	139.73	47.561	4.9903e-06	58.53	25.810	2.166	-14.332	-84.024	34.455	63.524	-84.312	-79.667	0.909	43.249	-80.335	-75.347	-75.414	-70.702	36.393	-71.344	-8191	255	
8099.500	1	1	0	0	0.19309	0.21832	0.3434	0.14021	0.17129	0.10455	0.24882	0.17425	0.15469	0.1903	0.16989	0.14511	0.20584	0.065073	0.068945	0.1586	-2.2875	-2.4896	-2.7812	-2.7833	-2.4938	-2.8104	-2.7479	-2.7958	-2.8333	-2.6208	-2.7625	-2.9708	-2.5521	-2.9354	-2.6771	-2.6625	-52.171	227.468	2.897	163.547	102.706	66.769	-83.825	66.888	-18.452	202.914	34.991	158.957	251.714	233.592	-16.313	172.297	0.00062684	0.00074106	0.00013956	1533.4	5.0785e-06	6.131e-06	1514.8	415.69	7.3559e-06	3.871e-06	469.13	156.77	136.35	46.395	5.2142e-06	57.114	0.0004973	0.00045289	0.00012489	1552.4	4.9463e-06	4.8133e-06	1541.1	421.58	5.0192e-06	4.9732e-06	476.64	160.16	139.56	47.56	5.1791e-06	58.466	22.431	-16.468	-4.843	-84.010	74.349	52.359	-84.133	-79.647	29.567	48.119	-80.277	-75.690	-75.070	-70.668	41.763	-71.416	-8191	255	
8099.621	1	1	0	0	0.11273	0.23775	0.064753	0.18727	0.1884	0.19132	0.17876	0.14301	0.2139	0.11109	0.25565	0.21912	0.08414	0.16015	0.15197	0.15684	-2.3104	-2.3354	-2.8854	-3.0354	-2.6104	-2.8208	-2.9333	-2.7729	-2.6708	-2.6042	-2.8292	-2.9167	-2.7042	-2.9021	-2.5687	-2.6854	-25.025	219.463	117.108	234.224	-89.455	250.805	258.851	203.656	-85.833	204.151	-36.853	209.822	252.371	-73.131	-93.911	228.519	0.00072926	0.00082638	0.00016825	1538.9	5.4716e-06	3.9658e-06	1524.6	414.29	4.2197e-06	3.981e-06	472.15	156.95	136.92	46.358	4.948e-06	56.897	0.00049853	0.00046621	0.00012942	1555.3	5.215e-06	4.9226e-06	1544.4	421.41	5.1318e-06	5.1083e-06	479.88	160.43	139.46	47.56	5.0021e-06	58.464	26.757	-5.213	-2.535	-84.003	17.313	39.918	-84.113	-79.715	12.774	75.503	-80.583	-75.612	-75.154	-70.669	54.556	-71.248	-8191	255	
8099.717	1	1	0	0	0.1266	0.22479	0.20294	0.44456	0.0058854	0.14203	0.097166	0.0798	0.098624	0.20736	0.05305	0.29061	0.27926	0.079592	0.24741	0.18512	-2.6896	-2.6375	-2.6375	-2.8146	-2.6979	-2.8875	-2.9333	-2.7313	-2.6937	-2.675	-2.6437	-2.8417	-2.5917	-2.9021	-2.675	-2.7229	112.677	-74.734	62.259	219.989	-64.211	213.340	80.007	194.894	25.259	123.729	101.027	-49.374	208.547	-74.665	-45.445	255.225	0.0007517	0.00066626	0.00014522	1536.6	7.1259e-06	3.6597e-06	1522.1	414.15	6.1992e-06	7.7689e-06	470.23	156.99	137.48	46.58	7.8631e-06	57.004	0.00049202	0.00045381	0.00012677	1553.5	5.1258e-06	4.8326e-06	1542.7	421.92	4.9142e-06	5.0035e-06	476.16	160.34	139.85	47.56	5.233e-06	58.551	26.293	11.415	-7.742	-83.983	85.790	24.283	-84.184	-79.671	13.277	67.552	-80.397	-75.771	-75.417	-70.613	43.033	-71.293	-8191	255	
8099.813	1	1	0	0	0.12449	0.15828	0.1633	0.37272	0.26104	0.041539	0.12796	0.13112	0.050062	0.26419	0.14154	0.14265	0.29615	0.13888	0.16211	0.25033	-2.4792	-2.6354	-2.7708	-3.1125	-2.4521	-2.7271	-2.85	-2.8438	-2.7896	-2.7062	-2.8208	-2.9479	-2.3979	-2.875	-2.6521	-2.6104	12.804	15.038	40.964	249.395	235.882	262.041	-77.389	210.278	175.725	128.803	-75.818	-78.361	182.090	-1.204	-63.384	225.397	0.00074669	0.00075836	0.00015284	1535.5	4.7109e-06	6.9985e-06	1524.3	414.27	8.431e-06	4.6224e-06	470	156.9	136.59	46.585	8.3955e-06	57.061	0.00050288	0.00046195	0.00012353	1555	5.1348e-06	4.8205e-06	1544	421.47	5.0313e-06	4.9823e-06	475.77	160.19	139.48	47.627	5.0169e-06	58.491	28.712	-18.096	-15.621	-84.100	59.593	38.174	-84.089	-79.702	24.989	34.516	-80.556	-75.473	-75.212	-70.682	36.821	-71.202	-8191	255	
8099.909	1	1	0	0	0.15067	0.096917	0.3197	0.20176	0.1389	0.012733	0.065937	0.12108	0.10828	0.15049	0.18772	0.17327	0.30463	0.27638	0.19034	0.15013	-2.5271	-2.6146	-2.5333	-3.0771	-2.5062	-2.7896	-2.9854	-2.6417	-2.8021	-2.5729	-2.8292	-3.2792	-2.7458	-2.9917	-2.7896	-2.7583	43.915	203.017	185.801	-74.222	109.323	59.719	204.472	178.958	-62.003	238.733	180.979	181.209	222.233	241.303	115.081	175.270	0.00072364	0.00080346	0.0001815	1531.5	8.7295e-06	5.1018e-06	1525.9	413.93	7.9622e-06	6.5909e-06	476.16	157.18	136.81	46.39	7.0102e-06	57.068	0.00050386	0.00045241	0.00012593	1553.4	5.1689e-06	4.8201e-06	1544.7	421.31	5.0595e-06	4.9694e-06	477.69	160.41	139.55	47.627	5.0032e-06	58.543	20.145	-32.360	-4.611	-84.111	41.069	43.149	-83.972	-79.596	5.201	47.514	-79.745	-75.696	-75.326	-70.707	42.320	-71.514	-8191	255	
8100.028	1	1	0	0	0.13814	0.21022	0.2952	0.13602	0.041531	0.20597	0.43878	0.38547	0.13767	0.4321	0.19686	0.092537	0.061443	0.12668	0.18296	0.23051	-2.3896	-2.55	-2.6271	-3.2083	-2.8146	-2.7979	-2.9708	-2.6312	-2.7167	-2.675	-2.5438	-3.0979	-2.7021	-2.7083	-2.7146	-2.6833	-47.787	241.430	125.789	218.094	15.371	163.957	197.626	212.290	73.628	-69.117	163.672	13.282	12.640	173.941	122.653	-45.781	0.00062508	0.00063079	0.00017264	1537.6	4.4446e-06	6.9409e-06	1530.2	415.02	4.4076e-06	6.9615e-06	479.4	156.36	137.38	46.494	6.8113e-06	57.257	0.00050703	0.00044707	0.00012864	1556.3	5.2925e-06	4.885e-06	1548.8	422.35	5.0461e-06	5.0648e-06	481.9	160.17	139.9	47.63	5.1424e-06	58.736	21.868	-3.874	-21.461	-84.130	39.230	49.396	-84.106	-79.503	11.931	59.533	-79.621	-75.394	-75.141	-70.790	44.178	-71.393	-8191	255	
8100.100	1	1	0	0	0.11292	0.10887	0.11899	0.26167	0.14223	0.10742	0.13715	0.38723	0.16842	0.037055	0.14489	0.14612	0.10107	0.1223	0.20098	0.24263	-2.2687	-2.6063	-2.6729	-2.9667	-2.6646	-2.7229	-3.0125	-2.6292	-2.7792	-2.6688	-2.5604	-2.9646	-2.7292	-2.9396	-2.8354	-2.6625	105.971	59.081	253.401	239.244	36.620	49.974	212.569	169.107	67.003	215.002	218.057	224.966	-16.733	-36.979	41.841	-90.811	0.00070306	0.00066777	0.00015981	1536.9	6.954e-06	6.2126e-06	1525.6	416.06	1.3892e-06	6.3763e-06	469.9	157.52	137.13	46.401	4.3716e-06	57.302	0.00050711	0.00044788	0.000123	1554.8	5.0949e-06	4.7826e-06	1546	422.31	4.6795e-06	4.9251e-06	477.15	160.75	140.03	47.614	5.0575e-06	58.73	26.602	2.845	-12.583	-84.122	42.857	55.108	-84.147	-79.564	20.917	47.569	-80.703	-75.426	-75.074	-70.757	67.619	-71.189	-8191	255	
8100.220	1	1	0	0	0.21733	0.22188	0.11466	0.30893	0.26483	0.15643	0.28912	0.30632	0.12805	0.023618	0.17121	0.050794	0.34447	0.2787	0.0909	0.32397	-2.3854	-2.5958	-2.4229	-2.9292	-2.5479	-2.8	-3.0958	-2.7375	-2.6604	-2.9562	-2.6042	-2.9062	-2.7667	-2.6188	-2.875	-2.7396	-32.869	-79.536	85.975	227.688	-58.664	-84.561	241.711	-95.227	220.579	-95.714	-47.406	52.597	255.866	-40.249	-39.803	229.150	0.00068528	0.00051914	0.00011229	1541.6	5.3224e-06	4.3352e-06	1526.1	415.24	3.1301e-06	4.8038e-06	480.49	157.3	137.42	46.52	5.6792e-06	57.015	0.00048734	0.00045756	0.00012556	1556.6	5.0216e-06	4.7852e-06	1546.7	422.48	4.959e-06	4.7779e-06	479.96	160.76	140.05	47.722	5.0021e-06	58.687	21.978	-9.943	-13.002	-84.217	37.476	38.007	-84.207	-79.639	32.095	77.089	-80.273	-75.535	-75.130	-70.691	48.033	-71.192	-8191	255	
8100.316	1	1	0	0	0.11482	0.095961	0.075156	0.15861	0.11523	0.087633	0.39963	0.18885	0.096711	0.31755	0.33662	0.35981	0.31456	0.26629	0.28341	0.10413	-2.2833	-2.6437	-2.5896	-3.1104	-2.7188	-2.7062	-3.1063	-2.7375	-2.8583	-2.7021	-2.5875	-2.7917	-2.7917	-2.7708	-2.7958	-2.5396	-88.835	-65.126	229.612	-95.072	-52.956	-58.034	217.764	4.628	198.471	115.341	-81.513	227.523	220.441	216.037	27.582	33.935	0.00072552	0.00070235	0.00015564	1539.1	6.0218e-06	5.8842e-06	1527.9	414.35	7.316e-06	7.799e-06	475.2	157.38	137.36	46.43	4.6839e-06	56.993	0.00048347	0.00045057	0.00012757	1556.4	5.03e-06	4.8243e-06	1547.7	422.36	4.9115e-06	5.0122e-06	478.3	160.63	140.16	47.659	5.0302e-06	58.681	22.249	-3.796	-11.840	-83.939	43.977	49.483	-84.213	-79.531	-11.956	44.914	-80.194	-75.655	-75.126	-70.703	58.552	-71.154	-8191	255	
8100.413	1	1	0	0	0.10034	0.2369	0.23537	0.22564	0.044767	0.11996	0.16623	0.088663	0.080646	0.13702	0.24581	0.16259	0.32706	0.090889	0.05392	0.12564	-2.3958	-2.875	-2.6104	-2.95	-2.8146	-2.5146	-3.0375	-2.6958	-2.5646	-2.8146	-2.5	-2.8708	-2.8646	-2.7708	-2.8146	-2.5729	131.288	134.655	-22.768	201.412	80.291	171.216	196.614	-38.980	-91.764	59.644	120.136	256.062	-80.943	-90.672	182.864	116.416	0.00065812	0.0006166	0.00014473	1537.2	4.9439e-06	5.0658e-06	1525.5	415.69	5.0474e-06	4.64e-06	471.7	157.56	137.63	46.609	6.0356e-06	57.069	0.00048493	0.00044887	0.00012661	1554.4	5.1077e-06	5.0011e-06	1547.4	422.69	5.001e-06	5.0201e-06	477.85	160.75	140.29	47.662	4.9561e-06	58.592	27.246	-11.658	-8.326	-84.002	77.096	60.171	-84.039	-79.525	14.425	64.639	-80.272	-75.544	-75.173	-70.620	44.558	-71.307	-8191	255	
8100.509	1	1	0	0	0.23206	0.1187	0.23064	0.31785	0.33195	0.2365	0.4439	0.38913	0.17827	0.23831	0.14661	0.26573	0.21679	0.25102	0.085576	0.19198	-2.3438	-2.7021	-2.5854	-2.7167	-2.5875	-2.3979	-3.0187	-2.6708	-2.7062	-2.8604	-2.4667	-3.0687	-2.8083	-2.5771	-2.6896	-2.7687	189.896	3.175	107.967	230.532	204.828	74.156	202.125	197.335	50.948	154.166	134.151	242.483	171.806	-41.874	-50.302	158.354	0.00066432	0.00050088	0.00021741	1536.9	8.4593e-06	5.3644e-06	1525.3	414.59	3.7355e-06	5.9116e-06	472.55	157.27	137.12	46.57	2.6805e-06	57.218	0.0005111	0.00045173	0.00012611	1556.2	5.1696e-06	4.9897e-06	1546.5	421.99	5.0237e-06	4.8248e-06	476.25	160.73	139.95	47.723	4.8256e-06	58.664	28.039	8.283	-8.190	-84.040	59.079	59.938	-84.287	-79.667	2.060	43.139	-80.000	-75.760	-75.255	-70.820	62.880	-71.339	-8191	255	
8100.605	1	1	0	0	0.20394	0.14956	0.26411	0.25487	0.11386	0.057801	0.25478	0.37318	0.21328	0.089041	0.07328	0.184	0.14064	0.10553	0.099288	0.45996	-2.1792	-2.8292	-2.5042	-3	-2.8583	-2.6542	-3.0146	-2.8833	-2.5229	-2.8729	-2.4813	-2.7354	-2.8625	-2.6542	-2.7646	-2.7458	1.619	44.524	193.003	259.489	-87.151	225.403	164.099	182.506	-72.592	-89.607	225.796	107.207	229.670	-75.384	99.311	243.344	0.00070857	0.00051125	0.00021413	1535.8	4.5303e-06	6.6746e-06	1522.4	415	7.1229e-06	3.8618e-06	460.41	157.3	137.02	46.524	5.8551e-06	57.282	0.00050115	0.00044421	0.0001247	1555	5.0772e-06	5.0773e-06	1545.1	422.1	5.1311e-06	4.698e-06	474.23	160.75	139.84	47.712	4.7601e-06	58.729	21.756	-2.156	-7.960	-84.165	35.380	55.830	-84.109	-79.616	27.516	21.322	-80.372	-75.662	-75.256	-70.734	38.629	-71.298	-8191	255	
8100.724	1	1	0	0	0.21393	0.039716	0.13792	0.36914	0.12149	0.061735	0.13188	0.36192	0.2147	0.14216	0.069535	0.15916	0.26186	0.2775	0.21151	0.098763	-2.1104	-2.575	-2.4021	-2.8833	-2.9833	-2.5208	-2.7188	-2.8354	-2.6375	-2.7875	-2.4625	-2.725	-2.8688	-2.6229	-2.7292	-2.7646	-18.383	14.176	-67.772	189.750	-16.995	-95.075	-63.105	221.792	214.419	-24.826	179.809	107.002	-75.935	231.831	72.444	183.552	0.00069739	0.00053292	0.00018459	1535.5	5.9942e-06	4.7848e-06	1522.8	414.38	8.3765e-06	4.2421e-06	474.62	157.29	137.45	46.471	8.0786e-06	57.089	0.00050972	0.00045388	0.00012514	1553.3	4.9998e-06	4.9066e-06	1545.6	422.54	5.1221e-06	4.7192e-06	476.68	160.83	140.01	47.63	5.0679e-06	58.615	27.463	-14.122	-19.680	-83.996	60.001	37.451	-84.112	-79.695	6.493	47.591	-80.159	-75.622	-75.264	-70.546	40.894	-71.328	-8191	255	
8100.797	1	1	0	0	0.15546	0.082134	0.13014	0.3291	0.039895	0.20084	0.21131	0.55538	0.12004	0.073355	0.084987	0.11332	0.32368	0.090748	0.14467	0.35047	-2.025	-3.0062	-2.6958	-2.7042	-2.8563	-2.5292	-2.9229	-2.8604	-2.5625	-2.9042	-2.575	-2.7604	-2.7833	-2.6729	-2.6437	-2.7604	-36.113	101.640	257.061	259.666	46.254	213.027	166.321	222.697	242.973	47.967	-17.832	204.665	192.034	144.598	110.154	165.026	0.00065697	0.0005362	0.00013595	1537.1	5.9536e-06	3.7149e-06	1530.3	415.45	6.0103e-06	5.5484e-06	472.37	157.09	137.81	46.501	7.1262e-06	57.164	0.00051487	0.00044707	0.00012509	1555.3	5.1522e-06	5.1259e-06	1547.8	422.29	5.2612e-06	4.9823e-06	478.26	160.6	140.41	47.642	5.3218e-06	58.66	23.744	6.285	-20.574	-84.158	88.008	21.244	-84.067	-79.661	7.303	47.644	-80.295	-75.501	-75.471	-70.616	46.971	-71.308	-8191	255	
8100.893	1	1	0	0	0.2257	0.15861	0.29286	0.20409	0.10884	0.099308	0.16451	0.2014	0.31835	0.24312	0.083306	0.30902	0.16883	0.032522	0.086001	0.1643	-2.0021	-2.8917	-2.65	-2.8312	-2.725	-2.6521	-2.9771	-2.9083	-2.4875	-2.8292	-2.6375	-2.6021	-2.8667	-2.5896	-2.5729	-2.9562	79.919	63.494	-75.792	217.425	9.578	-78.492	181.620	-57.759	-96.987	68.193	121.888	203.622	-69.762	189.992	-24.054	-31.545	0.00074149	0.00039146	0.0001425	1546.9	8.445e-06	4.9512e-06	1534.9	416.3	7.6536e-06	4.6289e-06	473.02	158.14	137.88	46.444	6.4776e-06	57.018	0.00053006	0.00047097	0.00013911	1565.4	5.3414e-06	5.4165e-06	1555.7	424.18	5.6174e-06	5.181e-06	480.81	161.07	140.58	47.684	5.3042e-06	58.711	22.045	-13.909	-4.965	-84.134	39.765	65.957	-84.197	-79.603	18.568	60.440	-80.579	-75.486	-75.345	-70.899	53.246	-71.277	-8191	255	
8100.989	1	1	0	0	0.27271	0.11645	0.17504	0.20952	0.1096	0.048137	0.56032	0.23845	0.32977	0.063462	0.068139	0.42279	0.20624	0.14953	0.28956	0.33393	-2.1437	-2.6083	-2.6271	-2.5896	-2.6229	-2.6396	-2.8104	-3.0042	-2.5417	-2.6937	-2.7583	-2.6188	-2.9083	-2.6958	-2.6667	-2.7875	229.130	220.828	131.949	-63.352	-20.542	226.219	207.196	-52.844	187.028	214.597	161.257	196.211	-0.606	189.776	51.555	208.131	0.00069633	0.00048914	0.00016878	1543.3	7.9864e-06	5.3686e-06	1539.9	417.11	6.4849e-06	5.5631e-06	472.06	157.82	137.62	46.5	9.9119e-06	57.118	0.00053381	0.00045582	0.00013814	1562.5	5.3237e-06	5.1012e-06	1556.1	424.26	5.3235e-06	5.1356e-06	479.33	161.06	140.34	47.765	5.4049e-06	58.723	20.897	6.525	-15.600	-84.105	47.798	76.826	-84.185	-79.688	36.944	48.775	-80.036	-75.579	-75.157	-70.572	49.998	-71.389	-8191	255	
8101.108	1	1	0	0	0.12829	0.14373	0.25565	0.29324	0.12872	0.2619	0.5098	0.25979	0.045605	0.18308	0.1282	0.2642	0.319	0.17132	0.072896	0.06819	-2.0229	-2.5729	-2.6	-2.7021	-2.8292	-2.5875	-2.725	-2.9167	-2.6125	-2.85	-2.5146	-2.6604	-2.7333	-2.7792	-2.5479	-2.75	-51.821	-65.432	-89.967	228.044	-10.825	226.925	186.377	244.390	33.607	-82.900	26.282	199.410	202.950	245.555	138.174	-17.204	0.00067074	0.00051367	0.00016711	1543	3.5613e-06	7.4822e-06	1537.2	418.14	6.3269e-06	4.4169e-06	479.76	157.37	137.43	46.481	8.992e-06	57.148	0.00052051	0.0004799	0.00013631	1563.8	5.3439e-06	5.3357e-06	1556.1	424.3	5.552e-06	5.1924e-06	483.81	160.98	140.47	47.677	5.5531e-06	58.719	23.935	8.561	-19.696	-84.115	60.703	81.044	-84.304	-79.691	20.757	44.730	-80.143	-75.679	-75.465	-70.631	52.481	-71.222	-8191	255	
8101.204	1	1	0	0	0.17588	0.055751	0.072767	0.27467	0.057182	0.1704	0.35658	0.19576	0.086338	0.08373	0.22499	0.26969	0.1748	0.21143	0.26685	0.23651	-1.9854	-2.55	-2.6063	-2.5583	-2.5958	-2.6208	-2.5167	-2.9125	-2.4188	-2.5042	-2.7542	-2.6979	-2.675	-2.8667	-2.4896	-2.975	257.059	33.590	140.462	192.865	-41.783	-88.208	216.880	204.051	-91.365	210.317	95.744	214.548	-39.688	216.281	135.008	-46.167	0.00074117	0.00049683	0.00018103	1551	7.7394e-06	4.1393e-06	1539.9	416.62	5.8721e-06	5.0133e-06	477.83	157.72	137.23	46.625	6.1979e-06	57.315	0.00053702	0.00049049	0.000133	1566.6	5.3105e-06	5.635e-06	1556.4	424.18	5.4388e-06	5.4191e-06	482.07	161.21	140.35	47.797	5.6066e-06	58.826	28.839	1.722	-10.855	-84.006	48.591	63.805	-84.133	-79.621	39.632	60.208	-80.061	-75.560	-75.412	-70.853	62.625	-71.616	-8191	255	
8101.301	1	1	0	0	0.31503	0.25791	0.33065	0.43944	0.099689	0.02873	0.27182	0.2424	0.087422	0.17099	0.082512	0.13268	0.24831	0.12326	0.16132	0.16102	-1.9854	-2.4875	-2.6271	-2.5708	-2.5812	-2.6833	-2.7917	-2.8937	-2.7792	-2.5792	-2.6854	-2.7833	-2.775	-2.7938	-2.4271	-2.9	-53.376	-37.497	261.397	-89.003	-63.843	-75.854	201.360	192.099	-44.497	1.083	211.883	-85.473	-73.898	-62.377	7.088	205.409	0.0007359	0.00053999	0.00014053	1552.8	6.5968e-06	6.9503e-06	1537.4	417.09	4.4654e-06	6.5815e-06	472.19	157.86	137.76	46.509	6.8905e-06	57.034	0.00054336	0.00049583	0.00013472	1569.1	5.4536e-06	5.5341e-06	1558.2	424.65	5.5747e-06	5.5296e-06	480.7	161.12	140.57	47.704	5.5779e-06	58.812	25.324	-10.907	-24.916	-84.133	46.240	60.358	-84.233	-79.728	16.745	47.560	-80.035	-75.422	-75.169	-70.774	37.614	-71.484	-8191	255	
8101.397	1	1	0	0	0.28187	0.13872	0.16411	0.22087	0.2115	0.054294	0.27669	0.17788	0.2182	0.35322	0.13575	0.22323	0.29543	0.080292	0.40468	0.14478	-2.2417	-2.5646	-2.6708	-2.7104	-2.5667	-2.7833	-2.5917	-2.8917	-2.5312	-2.4021	-2.5854	-2.525	-2.6688	-2.8937	-2.4437	-2.7917	105.058	71.246	-96.041	225.551	-42.640	95.082	216.859	188.327	-35.981	224.802	152.998	191.169	246.868	90.240	226.474	179.148	0.0006848	0.00057585	0.00016333	1547.9	5.9083e-06	5.0484e-06	1542.8	417.42	6.1528e-06	6.0188e-06	481.42	157.36	137.69	46.54	4.4562e-06	57.157	0.00053891	0.00048446	0.00013745	1569.4	5.4654e-06	5.1961e-06	1560.4	424.99	5.4095e-06	5.3695e-06	482.21	161.15	140.41	47.791	5.4347e-06	58.852	29.393	-10.339	-7.666	-84.050	33.683	45.804	-84.219	-79.562	25.731	56.058	-80.113	-75.720	-75.401	-70.656	25.980	-71.182	-8191	255	
8101.493	1	1	0	0	0.092447	0.25936	0.070288	0.37284	0.19759	0.13177	0.32793	0.1283	0.1255	0.2129	0.080166	0.070992	0.050059	0.15394	0.33779	0.15588	-2.2125	-2.5917	-2.7625	-2.8042	-2.5229	-2.7833	-2.7375	-2.9688	-2.55	-2.6	-2.7354	-2.7792	-2.775	-2.9979	-2.5625	-2.7104	8.293	226.568	178.138	208.951	215.748	42.739	152.945	191.297	-96.499	147.933	257.885	174.087	-58.233	210.225	13.174	102.206	0.00072201	0.00058244	0.00012147	1545.5	2.6189e-06	7.4064e-06	1537.4	417.71	5.2757e-06	4.9911e-06	480	158.15	137.49	46.656	4.0622e-06	57.248	0.00052403	0.00047319	0.00013095	1567.1	5.4234e-06	5.2621e-06	1558.5	424.87	5.4505e-06	5.2522e-06	480.81	161.38	140.29	47.734	5.3326e-06	58.812	22.627	-23.560	-7.767	-84.108	98.631	50.617	-84.159	-79.538	49.974	73.579	-80.185	-75.711	-75.211	-70.798	41.560	-71.595	-8191	255	
8101.589	1	1	0	0	0.0091088	0.05434	0.22844	0.39901	0.14509	0.17843	0.23366	0.24964	0.10342	0.084508	0.18878	0.12556	0.22677	0.30143	0.098231	0.10314	-2.15	-2.3729	-2.6792	-2.7292	-2.6625	-2.7188	-2.8417	-2.6917	-2.8	-2.5104	-2.8312	-2.7896	-2.65	-2.8563	-2.4583	-2.7771	-59.656	137.432	190.226	200.429	79.657	194.930	234.917	199.587	99.867	8.652	242.597	261.572	239.536	241.163	183.107	72.445	0.00068552	0.00051426	0.0001808	1545.5	5.2433e-06	3.5588e-06	1535.7	416.28	5.7733e-06	3.7091e-06	474.6	157.86	138.07	46.647	7.8878e-06	57.319	0.00051656	0.00046767	0.00012768	1564.2	5.2796e-06	4.9605e-06	1557.7	424.01	5.2632e-06	5.3158e-06	477.9	161.26	140.57	47.812	5.2506e-06	58.807	17.978	-1.610	-7.680	-84.043	41.685	77.909	-84.244	-79.594	42.512	53.747	-80.144	-75.722	-75.207	-70.674	61.906	-71.445	-8191	255	
8101.710	1	1	0	0	0.047221	0.1037	0.1437	0.30146	0.18307	0.10702	0.19677	0.22237	0.18421	0.11953	0.16674	0.35163	0.36446	0.35491	0.22671	0.19899	-2.2687	-2.4271	-2.7042	-2.8083	-2.6063	-2.9896	-2.6917	-3.0125	-2.8833	-2.5604	-2.7083	-2.6604	-2.6188	-2.8708	-2.5229	-2.6	224.741	215.022	-4.869	249.329	120.601	109.480	160.213	236.270	-53.727	-35.854	197.936	252.570	182.788	192.549	189.644	259.297	0.00071007	0.00040127	0.00013409	1550.1	4.3023e-06	5.2147e-06	1533.5	416.68	6.0585e-06	5.2139e-06	476.83	157.93	137.7	46.621	7.2029e-06	57.276	0.00051648	0.00048378	0.00013303	1568.3	5.463e-06	5.3331e-06	1557.2	424.15	5.341e-06	5.3343e-06	482.36	161.41	140.62	47.729	5.5095e-06	58.747	21.711	-16.614	-8.121	-83.915	74.878	44.114	-84.208	-79.634	-9.644	64.390	-80.421	-75.652	-75.226	-70.786	31.088	-71.332	-8191	255	
8101.804	1	1	0	0	0.21116	0.11144	0.098605	0.2832	0.16255	0.081696	0.23899	0.29841	0.13354	0.16184	0.16201	0.15657	0.11957	0.31307	0.15089	0.25685	-2.375	-2.4062	-2.5646	-2.8833	-2.5875	-2.8854	-2.8	-2.8625	-2.8167	-2.4292	-2.7958	-2.9104	-2.4042	-2.9042	-2.8646	-2.7313	226.428	19.275	-44.239	246.028	182.195	-23.906	210.438	146.842	163.395	206.143	-54.368	224.099	164.743	174.362	45.143	218.275	0.0007756	0.00049014	0.00013469	1550.2	6.3784e-06	5.8056e-06	1539.1	416.64	8.0199e-06	5.8232e-06	480.16	157.54	137.54	46.596	4.4403e-06	57.011	0.00053579	0.00049212	0.00013096	1570.1	5.5119e-06	5.4108e-06	1560.9	424.58	5.5699e-06	5.4456e-06	480.43	161.3	140.29	47.784	5.6056e-06	58.781	27.664	-34.554	-18.688	-84.131	49.648	55.613	-84.209	-79.582	43.479	63.329	-80.249	-75.522	-75.105	-70.781	54.743	-71.455	-8191	255	
8101.900	1	1	0	0	0.20764	0.20393	0.24886	0.26838	0.25873	0.17179	0.084085	0.22016	0.14128	0.18223	0.20252	0.13253	0.22136	0.29807	0.086138	0.21185	-2.4167	-2.5187	-2.5021	-2.8396	-2.5667	-2.7812	-2.9	-2.7938	-2.6312	-2.5792	-2.6583	-3.0125	-2.6063	-2.9583	-2.6813	-2.6542	60.677	153.451	191.353	212.182	-46.293	18.207	-96.224	240.545	86.493	112.662	205.240	-89.806	240.438	185.754	-80.372	168.132	0.00068752	0.0005787	0.00018078	1553.6	7.1167e-06	3.4272e-06	1540.8	418.27	6.2624e-06	3.7222e-06	475.02	158.29	137.53	46.611	6.2465e-06	57.236	0.00053793	0.00049042	0.00013544	1573.5	5.6328e-06	5.2147e-06	1563.2	425.21	5.5988e-06	5.4501e-06	481.7	161.35	140.57	47.822	5.7548e-06	58.821	22.477	-1.304	-2.354	-84.085	63.426	64.536	-84.147	-79.562	14.960	23.633	-79.672	-75.634	-75.333	-70.703	45.142	-71.330	-8191	255	
8102.021	1	1	0	0	0.28545	0.20529	0.12151	0.20413	0.004822	0.17402	0.21772	0.14567	0.10345	0.10451	0.025049	0.15964	0.10723	0.10606	0.11511	0.29177	-2.4042	-2.4271	-2.5667	-3.0771	-2.4083	-2.8917	-2.9354	-2.8583	-2.7458	-2.5354	-2.5812	-3.0604	-2.7271	-2.8937	-2.7292	-2.5979	-5.823	150.735	71.731	13.874	103.191	189.437	201.454	252.868	-50.681	165.056	254.168	57.675	176.006	238.583	-61.200	192.102	0.00072662	0.00040654	0.00015165	1552.8	6.8961e-06	6.4101e-06	1547.8	418.37	6.5202e-06	5.9291e-06	479.57	158.06	137.76	46.532	6.2534e-06	57.101	0.00053863	0.00050234	0.00013851	1572.9	5.7689e-06	5.289e-06	1564.4	425.47	5.4374e-06	5.5501e-06	485.38	161.28	140.62	47.79	5.3405e-06	58.829	24.546	-26.818	16.896	-84.021	53.516	60.270	-84.191	-79.600	-24.289	58.411	-80.166	-75.722	-75.325	-70.691	25.955	-71.361	-8191	255	
8102.093	1	1	0	0	0.28436	0.25489	0.20937	0.51928	0.14111	0.099689	0.27136	0.06601	0.2315	0.18285	0.32538	0.23275	0.076994	0.060181	0.10428	0.12906	-2.3521	-2.4521	-2.6375	-2.9833	-2.7146	-2.8875	-2.8688	-2.6312	-2.8146	-2.7583	-2.5563	-3.1312	-2.7583	-2.9917	-2.7771	-2.6625	113.240	-84.501	196.202	259.627	124.120	-66.621	216.642	171.299	189.434	79.542	218.238	193.873	89.165	243.085	127.454	228.083	0.0007088	0.00059158	0.00020511	1552.6	3.9798e-06	5.6343e-06	1542.6	418.32	5.8227e-06	4.8341e-06	476.82	157.59	137.65	46.834	5.5482e-06	57.041	0.00053883	0.00049961	0.00013577	1572.2	5.4848e-06	5.4298e-06	1562.4	425.34	5.3455e-06	5.6398e-06	481.47	161.34	140.62	47.861	5.416e-06	58.725	25.908	-10.759	-0.225	-84.172	63.007	49.080	-84.335	-79.674	-2.640	50.383	-80.077	-75.596	-75.479	-70.766	78.739	-71.288	-8191	255	
8102.189	1	1	0	0	0.20777	0.051445	0.15702	0.34049	0.35989	0.12235	0.30204	0.26505	0.321	0.05235	0.078624	0.25954	0.34214	0.28677	0.16015	0.40755	-2.4854	-2.6813	-2.4958	-3.1125	-2.5458	-2.7417	-3.025	-2.6479	-2.7958	-2.7083	-2.5812	-2.9062	-2.8104	-2.8146	-2.7188	-2.4708	186.740	35.928	55.378	258.464	121.521	255.119	218.077	190.007	-90.360	-36.161	175.125	235.029	-15.094	252.819	60.571	172.547	0.00068697	0.0006337	0.00016941	1555.8	5.3535e-06	4.7525e-06	1542.7	417.64	8.8058e-06	4.9524e-06	480.44	158.08	137.46	46.672	7.1665e-06	57.158	0.00052752	0.00051061	0.00013622	1572.8	5.4869e-06	5.2238e-06	1560.5	424.98	5.4078e-06	5.4865e-06	481.53	161.3	140.52	47.815	5.4556e-06	58.759	23.030	-24.770	-6.108	-84.180	47.226	22.934	-84.367	-79.541	11.359	59.754	-79.834	-75.557	-75.385	-70.666	41.853	-71.538	-8191	255	
8102.285	1	1	0	0	0.38563	0.2721	0.3109	0.28442	0.21317	0.10782	0.22723	0.2636	0.075905	0.11885	0.12647	0.30984	0.040507	0.22192	0.11452	0.13663	-2.4583	-2.6479	-2.4708	-3.1583	-2.5312	-2.7938	-2.9125	-2.6729	-2.7396	-2.8063	-2.475	-2.9229	-2.6	-2.7458	-2.7979	-2.8063	-48.599	-89.195	108.237	-90.384	214.816	9.518	206.038	211.680	258.031	121.426	-77.661	-71.587	-6.610	171.188	138.596	-86.071	0.00075381	0.00074953	0.0001633	1558.6	6.2622e-06	5.0829e-06	1540.7	418.4	8.3118e-06	5.8235e-06	476.28	157.32	137.63	46.711	5.7504e-06	57.331	0.00053202	0.00050332	0.0001371	1573.3	5.6098e-06	5.4723e-06	1561.9	424.79	5.4887e-06	5.5611e-06	481.32	161.25	140.7	47.806	5.2913e-06	58.806	24.486	-15.622	16.863	-84.019	29.952	49.765	-84.353	-79.636	17.154	69.272	-80.265	-75.731	-75.407	-70.843	49.603	-71.414	-8191	255	
8102.405	1	1	0	0	0.10159	0.16128	0.10576	0.10063	0.1682	0.20819	0.27333	0.17161	0.11837	0.13386	0.058133	0.19408	0.1618	0.15216	0.078135	0.19825	-2.2875	-2.4708	-2.4	-3.1229	-2.7229	-2.7604	-2.9958	-2.6333	-2.7375	-2.8688	-2.4583	-2.8812	-2.8	-2.6688	-2.8021	-2.4521	58.882	135.753	-20.784	-26.752	234.736	181.687	191.374	157.063	142.923	183.190	52.801	180.524	191.926	239.660	-8.332	258.552	0.00074202	0.00062113	0.000193	1551.4	5.1545e-06	4.7492e-06	1542.6	418.57	9.0568e-06	5.25e-06	476.09	158.15	137.86	46.735	3.379e-06	57.011	0.00053783	0.00050067	0.00013984	1573	5.6605e-06	5.5698e-06	1562.8	425.28	5.5837e-06	5.4551e-06	481.83	161.37	140.77	47.791	5.3323e-06	58.795	27.265	-11.338	-25.548	-84.147	54.752	62.559	-84.157	-79.488	14.547	44.870	-80.118	-75.693	-75.443	-70.961	41.094	-71.494	-8191	255	
8102.502	1	1	0	0	0.1592	0.26872	0.071436	0.34782	0.11097	0.11851	0.18773	0.43482	0.064855	0.13593	0.14638	0.32687	0.31047	0.35125	0.32784	0.21111	-2.175	-2.5917	-2.4979	-2.9292	-2.5458	-2.5854	-3.0771	-2.7229	-2.7646	-2.6104	-2.5438	-2.9417	-2.8875	-2.6437	-2.6917	-2.575	10.681	-74.401	38.735	181.642	-22.435	91.299	229.818	188.383	-12.204	-19.362	46.004	229.405	-66.280	262.079	69.240	188.126	0.00061222	0.00055309	0.00018955	1554.5	5.942e-06	7.0682e-06	1541.9	418.14	8.436e-06	4.7106e-06	475.48	158.39	137.91	46.798	3.6354e-06	57.132	0.00054361	0.00050952	0.00013951	1572.2	5.5265e-06	5.558e-06	1562.4	424.96	5.3954e-06	5.4604e-06	482.76	161.5	140.81	47.824	5.4574e-06	58.794	27.799	-8.898	-17.335	-84.198	52.483	66.879	-84.144	-79.693	41.799	69.196	-79.721	-75.631	-75.172	-70.878	41.064	-71.262	-8191	255	
8102.598	1	1	0	0	0.064198	0.16137	0.26753	0.35431	0.13045	0.26516	0.052104	0.37403	0.16122	0.099891	0.19269	0.21652	0.18673	0.19425	0.10734	0.18283	-2.2167	-2.7125	-2.4437	-2.9583	-2.6583	-2.4542	-3.175	-2.7354	-2.5938	-2.8021	-2.4854	-2.8604	-2.8792	-2.225	-2.7625	-2.7479	193.898	-1.080	203.782	215.743	55.795	14.617	202.246	207.922	233.073	157.124	28.234	-86.763	116.444	227.536	194.429	-88.452	0.00060953	0.00065613	0.00020714	1552.7	3.4241e-06	4.7028e-06	1543.5	417.37	5.9145e-06	8.5372e-06	476.38	158	137.31	46.676	3.9631e-06	57.281	0.00054547	0.00047819	0.00013956	1573.4	5.5088e-06	5.4131e-06	1562.7	424.61	5.4463e-06	5.3635e-06	482.45	161.43	140.49	47.822	5.31e-06	58.839	29.427	-21.567	-24.912	-84.086	55.502	54.454	-84.354	-79.635	11.723	46.907	-79.786	-75.544	-75.455	-70.659	24.290	-71.347	-8191	255	
8102.669	1	1	0	0	0.22791	0.12893	0.032636	0.18993	0.080509	0.2302	0.11099	0.17282	0.083533	0.056079	0.29074	0.27922	0.20615	0.31634	0.078256	0.034729	-2.0687	-2.6375	-2.4042	-2.9271	-2.7812	-2.6813	-3	-2.7625	-2.6708	-2.7979	-2.6292	-2.7562	-2.8	-2.4021	-2.775	-2.7583	-58.009	-57.620	185.915	-62.989	-40.945	-87.785	246.194	183.434	212.048	133.923	201.436	-78.953	177.385	255.857	197.099	-77.169	0.00063682	0.00067281	0.00013184	1555.8	6.7972e-06	5.8273e-06	1546.6	417.98	5.8803e-06	4.9995e-06	481.86	158.2	138	46.795	6.8476e-06	57.143	0.00053438	0.00048899	0.00013936	1572.9	5.4598e-06	5.4328e-06	1563.4	425.37	5.4931e-06	5.2128e-06	482.76	161.59	140.58	47.794	5.3679e-06	58.716	24.658	-7.338	-24.021	-84.160	34.863	50.239	-84.217	-79.521	26.224	50.542	-80.124	-75.758	-75.175	-70.671	57.491	-71.472	-8191	255	
8102.790	1	1	0	0	0.15383	0.13583	0.051822	0.25248	0.23633	0.14323	0.3703	0.12777	0.17488	0.15066	0.11206	0.20102	0.085103	0.149	0.27991	0.28886	-2.1063	-2.8271	-2.3854	-2.8187	-2.9562	-2.5125	-3.05	-2.8896	-2.5312	-2.6979	-2.5625	-2.8104	-2.7271	-2.6937	-2.7458	-2.5917	235.358	57.921	196.445	151.979	216.470	37.867	168.105	178.472	89.464	-19.482	234.247	256.047	-61.647	246.487	252.143	233.150	0.00068872	0.00070547	0.00012472	1561	8.1546e-06	4.7039e-06	1536	416.7	5.254e-06	3.78e-06	477.18	157.49	138.35	46.756	5.3347e-06	57.271	0.00053408	0.00048851	0.00013487	1575	5.5005e-06	5.3695e-06	1561.3	424.83	5.5135e-06	5.3188e-06	483.69	161.1	140.85	47.772	5.5987e-06	58.782	22.777	-17.434	-8.849	-84.084	45.023	33.923	-84.071	-79.535	34.841	48.333	-79.013	-75.831	-75.255	-70.632	70.003	-71.416	-8191	255	
8102.884	1	1	0	0	0.24662	0.088094	0.17732	0.056089	0.049404	0.27972	0.15225	0.071208	0.33297	0.066554	0.12939	0.34431	0.35108	0.092336	0.15147	0.31658	-1.8958	-2.7396	-2.4604	-2.8833	-2.9229	-2.5708	-2.9271	-2.8292	-2.7687	-2.75	-2.3688	-2.6813	-2.7854	-2.5625	-2.6771	-2.7708	-46.723	261.859	178.197	241.294	106.652	144.509	132.211	215.980	2.786	231.472	201.421	218.697	216.055	-27.352	119.795	253.255	0.00072755	0.00072718	0.000201	1552.1	7.615e-06	8.0523e-06	1540	416.61	5.4143e-06	4.7764e-06	472.44	157.73	138.04	46.687	6.1696e-06	57.171	0.00054253	0.00048436	0.00013996	1572.4	5.3977e-06	5.3793e-06	1562.2	424.69	5.4284e-06	5.0235e-06	481.18	161.17	140.58	47.802	5.2711e-06	58.766	23.023	4.087	-15.214	-83.915	51.361	61.273	-84.144	-79.640	-12.859	58.592	-80.627	-75.573	-75.319	-70.689	63.054	-71.194	-8191	255	
8102.982	1	1	0	0	0.07443	0.096906	0.2343	0.2152	0.14045	0.26833	0.19889	0.2206	0.30678	0.30035	0.073242	0.4201	0.2649	0.097282	0.26843	0.23312	-2.1354	-2.5375	-2.4229	-2.5833	-2.7417	-2.4562	-2.9	-2.6542	-2.4542	-2.8083	-2.5	-2.6583	-2.8208	-2.7708	-2.7146	-2.6896	127.124	-82.330	137.718	230.936	-45.105	234.608	239.337	176.132	-42.323	3.581	238.723	254.000	196.284	236.071	46.601	222.952	0.00067267	0.00070993	0.00017522	1550.8	7.7916e-06	6.756e-06	1540.6	417.23	2.9053e-06	4.6743e-06	464.81	157.78	137.87	46.788	5.1338e-06	57.107	0.00053645	0.00048439	0.00014111	1571.4	5.2581e-06	5.6039e-06	1561.8	424.75	5.4229e-06	5.2272e-06	480.53	161.28	140.54	47.827	5.2542e-06	58.724	20.489	-33.243	0.045	-84.050	55.297	54.783	-84.102	-79.679	-11.625	63.458	-81.323	-75.644	-75.319	-70.699	41.290	-71.340	-8191	255	
8103.101	1	1	0	0	0.18132	0.083342	0.12515	0.29669	0.26077	0.27715	0.088213	0.22826	0.07201	0.12193	0.14667	0.15831	0.14711	0.17981	0.18008	0.038275	-2.0208	-2.7375	-2.3875	-2.6813	-2.8187	-2.7	-2.8917	-2.8375	-2.4313	-2.6688	-2.6875	-2.7125	-2.8812	-2.6167	-2.5542	-2.8812	207.272	183.453	-76.528	215.466	28.148	174.359	185.284	208.809	84.315	-53.719	214.672	256.304	248.117	243.825	242.792	162.226	0.00068443	0.00077366	0.00015253	1550.7	3.6416e-06	5.5035e-06	1542.7	417.68	9.0614e-06	5.5184e-06	479.9	157.96	137.68	46.752	9.1143e-06	57.192	0.00053426	0.00047952	0.00013849	1570.5	5.3897e-06	5.5425e-06	1562.9	424.73	5.3716e-06	5.3271e-06	484.8	161.32	140.55	47.872	5.3599e-06	58.775	29.403	-12.653	-7.814	-84.105	55.828	67.050	-84.190	-79.530	-10.162	58.128	-79.773	-75.699	-75.201	-70.810	62.408	-71.502	-8191	255	
8103.197	1	1	0	0	0.32031	0.27458	0.044956	0.21487	0.30059	0.088514	0.2485	0.34201	0.14426	0.16816	0.23399	0.22588	0.11525	0.19064	0.16033	0.21398	-2.1521	-2.5375	-2.6271	-2.6875	-2.7208	-2.5917	-2.8104	-3.0687	-2.5062	-2.5708	-2.7396	-2.3667	-2.6937	-2.6771	-2.5958	-2.9458	143.896	-9.227	163.319	216.201	-62.262	236.416	258.668	170.460	-51.526	248.038	-48.545	-59.790	208.292	199.266	-31.035	131.319	0.0006606	0.00070276	0.00014189	1551.2	6.5875e-06	3.8806e-06	1543.7	416.81	5.3226e-06	5.3574e-06	477.76	157.7	137.45	46.757	3.5873e-06	57.055	0.000533	0.00048316	0.00013553	1570.3	5.2817e-06	5.4017e-06	1560.7	424.59	5.4869e-06	5.3139e-06	482.27	161.26	140.4	47.793	5.3107e-06	58.722	28.393	-8.865	-39.265	-84.099	74.235	58.105	-84.182	-79.568	42.972	31.716	-80.189	-75.603	-75.292	-70.831	64.811	-71.272	-8191	255	
#DATA ENDS
