BOXY.EXE: ISS Imagent and Oximeter Data Acquisition Program Version 0.80
Ascii Record File

#ACQ INFORMATION
2  Detector Channels 
16  External MUX Channels 
1  Auxiliary Channels 
5000  Waveform (CCF) Frequency (Hz)
1  Waveforms Skipped 
30  Waveforms Averaged 
1  Cycles Averaged 
16  Acquisitions per Waveform 
10.0806  Updata Rate (Hz) 

#FILE INFORMATION
TRUE -- External MUX Channel results are PARSED.
FALSE -- AC DC and Phase are NOT grouped.
TRUE -- Companion Program Settings File CREATED.
FALSE -- AC data not excluded
FALSE -- DC data not excluded
FALSE -- Phase data not excluded
FALSE -- Auxillary Chn. data not excluded
Tab delimiters

#CALIBRATION STATE
TRUE -- Waveform Calibration Values APPLIED.


#AUX CALIBRATION VALUES
Val Type	aux-1	

Term	1.0000e+00	
Factor	0.0000e+00	


#WF CALIBRATION VALUES
A = Detector Channel
Val Type	A-AC1	A-AC2	A-AC3	A-AC4	A-AC5	A-AC6	A-AC7	A-AC8	A-AC9	A-AC10	A-AC11	A-AC12	A-AC13	A-AC14	A-AC15	A-AC16	A-DC1	A-DC2	A-DC3	A-DC4	A-DC5	A-DC6	A-DC7	A-DC8	A-DC9	A-DC10	A-DC11	A-DC12	A-DC13	A-DC14	A-DC15	A-DC16	A-Ph1	A-Ph2	A-Ph3	A-Ph4	A-Ph5	A-Ph6	A-Ph7	A-Ph8	A-Ph9	A-Ph10	A-Ph11	A-Ph12	A-Ph13	A-Ph14	A-Ph15	A-Ph16	

Term	0.00000e+00	0.00000e+00	0.00000e+00	0.00000e+00	0.00000e+00	0.00000e+00	0.00000e+00	0.00000e+00	0.00000e+00	0.00000e+00	0.00000e+00	0.00000e+00	0.00000e+00	0.00000e+00	0.00000e+00	0.00000e+00	0.00000e+00	0.00000e+00	0.00000e+00	0.00000e+00	0.00000e+00	0.00000e+00	0.00000e+00	0.00000e+00	0.00000e+00	0.00000e+00	0.00000e+00	0.00000e+00	0.00000e+00	0.00000e+00	0.00000e+00	0.00000e+00	0.00000e+00	0.00000e+00	0.00000e+00	0.00000e+00	0.00000e+00	0.00000e+00	0.00000e+00	0.00000e+00	0.00000e+00	0.00000e+00	0.00000e+00	0.00000e+00	0.00000e+00	0.00000e+00	0.00000e+00	0.00000e+00	
Factor	1.00000e+00	1.00000e+00	1.00000e+00	1.00000e+00	1.00000e+00	1.00000e+00	1.00000e+00	1.00000e+00	1.00000e+00	1.00000e+00	1.00000e+00	1.00000e+00	1.00000e+00	1.00000e+00	1.00000e+00	1.00000e+00	1.00000e+00	1.00000e+00	1.00000e+00	1.00000e+00	1.00000e+00	1.00000e+00	1.00000e+00	1.00000e+00	1.00000e+00	1.00000e+00	1.00000e+00	1.00000e+00	1.00000e+00	1.00000e+00	1.00000e+00	1.00000e+00	X	X	X	X	X	X	X	X	X	X	X	X	X	X	X	X	

B = Detector Channel
Val Type	B-AC1	B-AC2	B-AC3	B-AC4	B-AC5	B-AC6	B-AC7	B-AC8	B-AC9	B-AC10	B-AC11	B-AC12	B-AC13	B-AC14	B-AC15	B-AC16	B-DC1	B-DC2	B-DC3	B-DC4	B-DC5	B-DC6	B-DC7	B-DC8	B-DC9	B-DC10	B-DC11	B-DC12	B-DC13	B-DC14	B-DC15	B-DC16	B-Ph1	B-Ph2	B-Ph3	B-Ph4	B-Ph5	B-Ph6	B-Ph7	B-Ph8	B-Ph9	B-Ph10	B-Ph11	B-Ph12	B-Ph13	B-Ph14	B-Ph15	B-Ph16	

Term	0.00000e+00	0.00000e+00	0.00000e+00	0.00000e+00	0.00000e+00	0.00000e+00	0.00000e+00	0.00000e+00	0.00000e+00	0.00000e+00	0.00000e+00	0.00000e+00	0.00000e+00	0.00000e+00	0.00000e+00	0.00000e+00	0.00000e+00	0.00000e+00	0.00000e+00	0.00000e+00	0.00000e+00	0.00000e+00	0.00000e+00	0.00000e+00	0.00000e+00	0.00000e+00	0.00000e+00	0.00000e+00	0.00000e+00	0.00000e+00	0.00000e+00	0.00000e+00	-1.87321e+01	-2.01382e+02	-2.04078e+02	-1.83917e+02	-1.28168e+02	-1.16194e+02	-1.55153e+02	-1.62015e+02	-8.71299e+01	-1.10166e+02	-1.70746e+02	-1.70338e+02	-1.84751e+02	-1.77127e+02	-1.27571e+02	-1.49891e+02	
Factor	3.21959e-05	5.86218e-05	1.70957e-05	1.85218e-01	6.38908e-07	6.61217e-07	1.79242e-01	5.85498e-02	6.28257e-07	6.32059e-07	9.41592e-02	3.29196e-02	3.35767e-02	1.04145e-02	6.48013e-07	1.48882e-02	2.48085e-07	2.48645e-07	6.85922e-08	8.06149e-02	2.73403e-09	2.72330e-09	7.40105e-02	2.49478e-02	2.74050e-09	2.72179e-09	3.69338e-02	1.28081e-02	1.29845e-02	4.14818e-03	2.70430e-09	5.58471e-03	X	X	X	X	X	X	X	X	X	X	X	X	X	X	X	X	



#DISTANCE SETTINGS
A = Detector Channel
A-1	A-2	A-3	A-4	A-5	A-6	A-7	A-8	A-9	A-10	A-11	A-12	A-13	A-14	A-15	A-16	

2.5000e+00	3.0000e+00	2.5000e+00	3.0000e+00	2.0000e+00	3.0000e+00	1.5000e+00	3.0000e+00	3.0000e+00	3.0000e+00	3.0000e+00	3.0000e+00	3.0000e+00	3.0000e+00	1.5000e+00	3.0000e+00	

B = Detector Channel
B-1	B-2	B-3	B-4	B-5	B-6	B-7	B-8	B-9	B-10	B-11	B-12	B-13	B-14	B-15	B-16	

1.0000e+01	1.0000e+01	1.0000e+01	1.4400e+00	1.0000e+01	1.0000e+01	1.5100e+00	1.9400e+00	1.0000e+01	1.0000e+01	1.9900e+00	2.4900e+00	2.4100e+00	2.9000e+00	1.0000e+01	2.9800e+00	




#DATA BEGINS
time	group	step	mark	flag	A-AC1	A-AC2	A-AC3	A-AC4	A-AC5	A-AC6	A-AC7	A-AC8	A-AC9	A-AC10	A-AC11	A-AC12	A-AC13	A-AC14	A-AC15	A-AC16	A-DC1	A-DC2	A-DC3	A-DC4	A-DC5	A-DC6	A-DC7	A-DC8	A-DC9	A-DC10	A-DC11	A-DC12	A-DC13	A-DC14	A-DC15	A-DC16	A-Ph1	A-Ph2	A-Ph3	A-Ph4	A-Ph5	A-Ph6	A-Ph7	A-Ph8	A-Ph9	A-Ph10	A-Ph11	A-Ph12	A-Ph13	A-Ph14	A-Ph15	A-Ph16	B-AC1	B-AC2	B-AC3	B-AC4	B-AC5	B-AC6	B-AC7	B-AC8	B-AC9	B-AC10	B-AC11	B-AC12	B-AC13	B-AC14	B-AC15	B-AC16	B-DC1	B-DC2	B-DC3	B-DC4	B-DC5	B-DC6	B-DC7	B-DC8	B-DC9	B-DC10	B-DC11	B-DC12	B-DC13	B-DC14	B-DC15	B-DC16	B-Ph1	B-Ph2	B-Ph3	B-Ph4	B-Ph5	B-Ph6	B-Ph7	B-Ph8	B-Ph9	B-Ph10	B-Ph11	B-Ph12	B-Ph13	B-Ph14	B-Ph15	B-Ph16	aux-1	digaux	

1242.202	1	1	0	256	0.011239	0.18665	0.12671	0.31644	0.14896	0.16799	0.33454	0.2057	0.20211	0.11439	0.04837	0.20351	0.13131	0.14635	0.10488	0.2028	-3.7417	-3.7562	-4.2646	-4.025	-3.8312	-4.4167	-3.9271	-4.0354	-4.0479	-3.9146	-4.3896	-4.0875	-3.9437	-4.3021	-3.7396	-4.0687	221.046	133.229	-48.747	200.000	226.646	-73.186	194.598	206.051	122.376	17.423	120.609	-73.105	203.589	78.101	10.921	135.686	4.9372e-05	0.00037097	5.2209e-05	1233.4	1.2696e-06	3.0768e-06	1302.3	248.62	2.8148e-06	1.8222e-06	312.4	87.736	68.898	20.027	1.4328e-06	28.435	0.00014885	0.00013789	3.9533e-05	1099.8	1.6401e-06	1.5286e-06	1164	225.82	1.6613e-06	1.5434e-06	271.87	78.319	60.968	18.144	1.675e-06	25.396	246.602	257.655	138.870	-64.617	54.382	116.070	-64.490	-57.219	79.959	-49.728	-57.950	-50.970	-50.643	-44.279	162.517	-44.143	-8191	255	
1242.273	1	1	0	0	0.18812	0.20667	0.14543	0.20344	0.1236	0.077148	0.25602	0.26126	0.10695	0.18315	0.10491	0.16993	0.060766	0.4113	0.13255	0.22546	-3.9813	-3.7188	-4.0896	-3.9313	-3.8333	-4.3208	-3.9813	-4.3104	-4.2458	-3.6208	-4.4021	-4.3271	-3.6146	-4.2708	-3.8812	-3.9229	194.503	-31.966	178.125	253.258	-57.949	272.704	-62.608	194.516	214.637	217.177	41.404	237.293	-33.376	260.535	-34.088	229.875	9.9718e-05	0.00031607	5.3865e-05	1228.1	1.5487e-06	3.2695e-06	1302.5	249.39	1.0962e-06	3.1236e-06	312.77	87.211	68.199	19.907	8.0344e-07	28.17	0.00014729	0.00013637	4.1908e-05	1094.4	1.5568e-06	1.44e-06	1163.5	223.81	1.4907e-06	1.3829e-06	270.24	76.894	59.423	17.726	1.5195e-06	24.638	256.984	-55.462	210.630	-64.801	59.393	39.466	-64.501	-57.223	98.125	81.104	-57.707	-51.148	-50.277	-43.627	-16.477	-44.140	-8191	255	
1242.369	1	1	0	0	0.11724	0.25887	0.26995	0.10592	0.073636	0.049268	0.092349	0.008184	0.05172	0.16684	0.18722	0.097942	0.019794	0.10882	0.15303	0.13253	-4.1396	-3.9229	-3.9979	-4.2104	-3.7542	-4.2188	-4.1271	-4.1396	-4.225	-3.8229	-4.1687	-4.3021	-3.7875	-4.3042	-4.1208	-3.7729	220.440	230.852	43.262	239.941	30.083	227.377	224.944	-10.158	215.972	129.097	189.930	250.175	272.315	-0.982	-40.754	47.403	0.00016204	0.00018167	3.1091e-05	1218.7	3.3624e-06	1.0671e-06	1283.4	246.32	9.4038e-07	2.5146e-06	310.39	86.953	68.733	19.747	2.4316e-06	28.017	0.00012356	0.00011834	3.7632e-05	1074.2	1.3184e-06	1.2864e-06	1148	219.34	1.2933e-06	1.3093e-06	266.68	75.745	58.539	17.578	1.468e-06	24.314	262.456	241.944	78.477	-64.398	10.549	-67.362	-64.229	-57.129	57.132	171.382	-57.587	-50.487	-50.475	-43.927	7.727	-44.367	-8191	255	
1242.490	1	1	0	0	0.089554	0.068224	0.16689	0.18743	0.32135	0.32264	0.24719	0.056182	0.28148	0.23552	0.077581	0.32311	0.050716	0.13204	0.19214	0.25419	-3.8479	-3.7354	-3.9896	-4.4104	-3.8125	-4.0542	-4.0708	-4.1354	-4.5167	-3.7125	-4.1646	-4.3792	-3.9354	-4.1979	-4.0292	-4.0042	237.211	177.792	69.370	283.911	91.715	71.056	209.847	232.288	131.845	161.273	-38.484	261.483	59.096	-67.185	86.355	59.201	0.00018049	3.1746e-05	4.9783e-05	1211.5	9.3103e-07	1.8782e-06	1285.1	245.71	2.9946e-06	2.5652e-06	311.41	87.27	68.497	19.894	1.7076e-06	28.159	0.00011631	0.00012205	3.7603e-05	1071.4	1.2822e-06	1.374e-06	1147.3	218.67	1.2951e-06	1.4278e-06	266.92	75.998	58.709	17.919	1.5427e-06	24.532	-39.260	66.051	53.456	-64.503	71.663	99.976	-64.548	-57.202	-5.192	248.945	-57.214	-50.849	-50.497	-43.969	203.340	-44.404	-8191	255	
1242.584	1	1	0	0	0.21316	0.27625	0.17588	0.21245	0.19226	0.039536	0.3922	0.19985	0.12839	0.32401	0.014136	0.20128	0.079466	0.10615	0.08189	0.18552	-3.9854	-3.9042	-3.9958	-4.5333	-3.8833	-4.0375	-4.2104	-3.9854	-4.1896	-3.8104	-4.0521	-4.4583	-3.7333	-4.2542	-4.1396	-3.8542	142.044	256.297	62.200	187.892	156.140	116.692	264.268	-52.573	274.809	-38.695	42.081	28.667	-60.269	-61.659	213.186	167.291	4.8108e-05	0.00015236	3.7158e-05	1216.6	1.2033e-06	8.3593e-07	1281.8	246.04	1.2313e-06	1.4161e-06	309.55	87.151	68.616	19.901	1.8737e-06	28.132	0.00012297	0.00014079	3.9487e-05	1075.6	1.3657e-06	1.5748e-06	1148.3	219.62	1.3801e-06	1.5925e-06	267.49	76.206	59.198	18.143	1.5551e-06	24.54	-35.708	74.695	11.167	-64.582	64.835	242.986	-64.484	-57.095	282.809	74.126	-57.707	-50.680	-50.274	-44.301	12.985	-44.284	-8191	255	
1242.681	1	1	0	0	0.24881	0.28507	0.11667	0.19251	0.12838	0.12589	0.091338	0.14341	0.13109	0.26622	0.39344	0.10123	0.14539	0.19778	0.051201	0.071206	-3.9542	-4	-3.9167	-4.4062	-3.7479	-4.0604	-4.1479	-4.0563	-4.4229	-4.1229	-3.8417	-4.2083	-3.8167	-4.1333	-4.2292	-3.4979	207.972	114.291	25.791	179.660	138.340	137.299	190.489	-15.648	128.077	-6.282	262.615	33.482	185.669	182.415	75.807	257.121	0.00015574	0.00034069	0.00011162	1218.3	2.3436e-06	9.6006e-07	1285	246	3.5311e-06	6.4439e-07	308.36	86.885	68.229	19.971	1.8951e-06	28.017	0.00013152	0.00015096	3.9077e-05	1076.1	1.4443e-06	1.6568e-06	1146.4	219.7	1.4879e-06	1.6756e-06	267.29	76.239	59.984	18.355	1.608e-06	24.745	251.383	-42.998	-71.393	-64.521	152.079	31.308	-64.325	-57.075	176.828	85.362	-57.560	-50.760	-50.262	-43.678	-5.330	-44.277	-8191	255	
1242.801	1	1	0	0	0.118	0.14736	0.17387	0.11357	0.208	0.19334	0.25944	0.079083	0.16583	0.14999	0.2506	0.012297	0.14783	0.20665	0.1173	0.088956	-3.9146	-4.0792	-3.8146	-4.3708	-3.7042	-4.1396	-4.4292	-3.8563	-4.1917	-4.1167	-3.925	-4.3979	-3.9917	-4.0104	-4.1542	-3.7083	134.066	65.760	14.102	265.428	102.682	170.689	221.564	19.954	218.054	-50.730	-34.054	219.663	4.094	264.496	113.513	-17.537	0.00019339	0.00019025	7.4921e-05	1221.7	3.0889e-06	7.1222e-06	1294.9	247.3	2.3771e-06	8.9547e-07	311.54	87.378	68.767	20.026	1.7413e-06	28.1	0.00015198	0.00016466	4.2408e-05	1082.1	1.7347e-06	1.8391e-06	1156.9	221.71	1.7564e-06	1.8262e-06	270.35	76.9	61.196	18.476	1.6213e-06	24.81	248.761	128.993	276.421	-64.577	87.910	1.372	-64.378	-57.559	145.175	-52.645	-57.451	-50.798	-50.163	-44.185	91.802	-44.515	-8191	255	
1242.873	1	1	0	0	0.20819	0.064963	0.12126	0.068783	0.16223	0.11757	0.094201	0.30443	0.1935	0.07042	0.08556	0.22603	0.072569	0.22602	0.11787	0.094196	-3.9104	-4.0833	-3.9979	-4.3021	-3.875	-3.9646	-4.3021	-3.975	-4.2229	-3.9521	-3.925	-4.3708	-4.1417	-4.0667	-4.3667	-4	85.861	-6.977	21.751	141.134	275.292	25.821	111.927	264.625	-32.557	158.127	148.466	30.477	-60.970	206.459	79.138	191.068	0.00013652	0.00017782	5.2485e-05	1223	3.9325e-06	4.1034e-06	1292.4	246.85	4.0759e-06	2.674e-06	311.27	87.018	68.938	19.892	5.303e-07	28.187	0.00016218	0.00015917	4.0554e-05	1084	1.7752e-06	1.7068e-06	1154.2	221.54	1.7653e-06	1.6961e-06	268.92	76.81	61.268	18.271	1.5369e-06	24.818	253.886	-62.998	46.241	-64.621	30.094	31.026	-64.205	-57.245	265.597	-28.530	-57.929	-50.999	-50.469	-44.164	-50.344	-44.510	-8191	255	
1242.969	1	1	0	0	0.048923	0.076644	0.43487	0.16703	0.020138	0.077962	0.029514	0.25613	0.087087	0.2511	0.19907	0.16374	0.04599	0.16979	0.231	0.1499	-3.7396	-4.3083	-3.8625	-4.5813	-3.8854	-3.7458	-4.5667	-4.0563	-4.1792	-4.2271	-3.6937	-4.2812	-4.1854	-4.0729	-4.3604	-3.8417	226.755	75.633	42.141	174.402	46.481	193.578	-63.048	209.443	222.688	-32.506	272.108	-74.423	176.593	189.116	61.498	88.287	0.00011506	0.00031401	9.6801e-05	1222.2	1.9007e-06	5.2965e-06	1295.2	247.33	3.4708e-06	4.6705e-06	310.08	87.275	69.083	20.097	4.4478e-07	28.103	0.00016229	0.00014999	3.9004e-05	1085.9	1.773e-06	1.6223e-06	1155.2	222.16	1.7728e-06	1.6112e-06	268.18	77.351	61.266	18.249	1.5034e-06	25.096	257.496	-35.988	281.372	-64.603	-58.237	-12.608	-64.247	-57.074	78.680	-30.927	-57.514	-50.848	-50.470	-44.107	135.317	-44.809	-8191	255	
1243.090	1	1	0	0	0.22194	0.18301	0.12074	0.095406	0.27179	0.32844	0.12986	0.21586	0.14054	0.14631	0.15789	0.1495	0.1423	0.26969	0.1155	0.11121	-3.625	-4.1625	-3.7667	-4.4646	-4.2312	-3.8438	-4.3333	-3.8396	-4.0563	-4.3125	-4.0583	-4.2896	-4.0292	-3.8812	-4.1542	-4.0938	222.093	254.797	-13.802	245.730	31.867	137.222	110.807	243.638	-19.046	112.309	229.593	137.552	253.850	5.901	196.403	188.426	0.00025703	0.00016946	5.103e-05	1227.2	7.1892e-07	3.1885e-06	1298.4	248.17	2.7114e-06	2.4553e-06	312.74	87.027	69.467	20.084	4.7644e-06	28.322	0.00016349	0.00014773	3.863e-05	1093.4	1.804e-06	1.6672e-06	1159.2	224.67	1.8632e-06	1.7012e-06	270.75	78.615	61.893	18.438	1.6255e-06	25.695	270.098	52.167	257.645	-64.584	164.426	20.805	-64.512	-57.190	106.191	31.092	-57.755	-50.891	-50.749	-43.786	114.770	-44.752	-8191	255	
1243.186	1	1	0	0	0.11078	0.25238	0.19053	0.081368	0.23825	0.087646	0.28724	0.12681	0.11284	0.0554	0.17722	0.21288	0.1953	0.2228	0.24376	0.12716	-3.6312	-4.0104	-3.9229	-4.1	-4.0083	-3.6667	-4.4833	-3.9792	-3.9083	-4.3979	-3.9625	-4.025	-4.1354	-3.7479	-4.1125	-4.0062	20.259	-72.430	281.744	254.235	247.280	15.077	181.085	177.608	-49.233	78.757	189.890	-10.991	-63.397	178.683	184.734	218.325	0.000204	0.00034069	7.2205e-05	1229.3	2.8364e-06	4.4221e-06	1300.6	249.8	3.7234e-06	1.9023e-06	314.08	87.936	69.175	20.047	3.2233e-06	28.494	0.00017265	0.00015856	4.1733e-05	1104	1.8734e-06	1.7405e-06	1165.8	227.14	1.8666e-06	1.7219e-06	272.67	79.227	61.745	18.393	1.7209e-06	25.817	281.917	-54.891	43.415	-64.523	158.282	48.170	-64.479	-57.517	46.263	44.594	-57.744	-50.795	-50.375	-43.905	132.317	-44.455	-8191	255	
1243.282	1	1	0	0	0.18387	0.14001	0.27847	0.19585	0.1676	0.36824	0.46315	0.20615	0.29021	0.13716	0.14255	0.18615	0.31574	0.2882	0.087532	0.088177	-3.6958	-4.2833	-3.7167	-4.1875	-4.1896	-3.775	-4.6562	-4.1333	-3.7333	-4.2438	-3.8875	-4.2646	-4.1542	-3.85	-4.0458	-4.075	178.097	90.910	21.015	244.079	129.828	12.148	177.447	243.582	64.842	-53.218	-42.958	-56.161	163.091	255.009	244.012	240.468	0.00021647	0.0003694	3.502e-05	1230.5	2.5744e-06	4.647e-06	1301	249.02	4.7737e-07	3.042e-06	312.07	86.648	69.377	20.172	4.9433e-06	28.114	0.00016587	0.00015262	4.3396e-05	1104	1.7859e-06	1.6593e-06	1170	226.92	1.7558e-06	1.6115e-06	272.49	78.718	61.269	18.219	1.735e-06	25.473	-24.959	268.403	10.235	-64.420	241.905	18.269	-64.218	-57.219	216.278	31.405	-57.644	-50.598	-50.763	-44.333	125.075	-44.879	-8191	255	
1243.378	1	1	0	0	0.30224	0.088124	0.12185	0.42702	0.079959	0.096787	0.19205	0.087529	0.098003	0.11666	0.18693	0.078389	0.1276	0.17112	0.046037	0.098076	-3.5417	-4.4146	-4.0167	-4.0563	-4.2146	-3.8292	-4.3167	-4.1833	-3.6875	-4.0229	-4.1208	-4.1958	-4.2188	-3.9396	-4.0979	-4.1875	99.128	215.152	9.626	225.198	150.370	-63.763	-58.137	170.135	129.537	10.468	220.006	244.891	-53.832	98.340	121.278	266.986	8.1534e-05	0.00016449	8.7269e-05	1231.2	2.1601e-06	1.9054e-06	1293.7	248.11	2.4541e-06	1.1794e-06	311.4	87.515	69.087	19.913	2.258e-06	28.348	0.00015474	0.00014283	4.4135e-05	1098.4	1.6634e-06	1.5552e-06	1163.7	224.59	1.6446e-06	1.5296e-06	272.19	78.017	60.462	18.076	1.7634e-06	25.22	-29.090	195.375	104.190	-64.472	53.446	11.526	-64.282	-57.372	8.185	155.958	-57.704	-50.610	-50.283	-44.078	143.373	-44.696	-8191	255	
1243.497	1	1	0	0	0.15486	0.07945	0.22819	0.27494	0.080937	0.17682	0.26179	0.09157	0.078177	0.12244	0.20252	0.087439	0.20525	0.14239	0.15493	0.072755	-3.6917	-4.2458	-3.8563	-4.0563	-4.3646	-3.8021	-4.1958	-4.2312	-3.6604	-4.3313	-3.9708	-4.1167	-4.075	-3.6	-3.9833	-4.3938	221.280	104.663	219.846	259.949	277.386	275.461	262.870	209.479	219.441	141.554	139.210	-55.177	220.932	234.018	139.984	211.954	0.00013418	6.4101e-05	9.1032e-05	1231.5	4.4065e-06	3.503e-06	1295.6	249.06	3.9595e-06	2.6607e-06	313.22	86.93	68.547	19.879	1.9151e-06	28.575	0.00014655	0.00014118	4.4922e-05	1093.8	1.5863e-06	1.5667e-06	1164.3	223.97	1.5816e-06	1.5641e-06	272.84	77.396	60.038	18.112	1.7724e-06	25.053	-47.161	206.430	22.633	-64.629	47.384	129.936	-64.258	-57.246	9.901	-22.456	-57.585	-50.865	-50.423	-44.122	177.215	-43.969	-8191	255	
1243.569	1	1	0	0	0.13377	0.14181	0.11645	0.19618	0.1278	0.28593	0.17634	0.10527	0.059497	0.12494	0.07703	0.1324	0.16595	0.1484	0.094673	0.14924	-3.5187	-4.2979	-3.8083	-3.9938	-4.4208	-3.9208	-4.0792	-4.0292	-3.7167	-4.3021	-4.1667	-3.8604	-4.2521	-3.85	-3.9104	-4.1771	253.896	214.348	21.889	230.547	35.041	174.938	207.097	162.689	19.860	-39.116	157.568	-31.830	230.172	181.281	274.756	14.769	0.00010278	0.00013678	1.8349e-05	1222.4	1.0583e-06	1.1077e-06	1291.2	247.16	1.3023e-06	2.157e-06	311.39	87.527	68.579	19.901	3.0191e-06	28.241	0.00014067	0.00014549	4.4562e-05	1087.7	1.5059e-06	1.5961e-06	1159.5	222.56	1.4916e-06	1.6228e-06	271.22	76.987	59.63	18.175	1.7081e-06	24.829	264.829	146.908	59.276	-64.410	107.967	-64.820	-64.218	-57.567	282.764	132.099	-57.439	-50.595	-50.622	-44.131	-29.507	-44.336	-8191	255	
1243.665	1	1	0	0	0.057608	0.17524	0.071269	0.23322	0.26636	0.10561	0.14281	0.13869	0.045263	0.27156	0.11815	0.24086	0.14777	0.26898	0.3288	0.19393	-3.5833	-4.1958	-3.9854	-3.9729	-4.0125	-3.65	-4.2396	-4.2333	-3.7104	-4.3021	-4.0479	-3.875	-4.3875	-3.8896	-3.9667	-4.2063	117.810	-70.625	281.457	278.238	161.615	207.661	143.785	204.648	198.196	21.633	263.677	227.731	269.463	13.415	53.267	281.076	0.00022944	0.00014288	3.8508e-05	1219.8	3.4696e-06	1.9545e-06	1294.5	247.06	3.3105e-06	2.2468e-06	312.1	87.544	68.829	19.971	3.4884e-07	28.169	0.00013509	0.00015057	4.2364e-05	1084	1.4654e-06	1.6782e-06	1159.6	221.91	1.4813e-06	1.6841e-06	270.42	76.84	59.833	18.295	1.6248e-06	24.742	266.337	37.829	236.871	-64.452	136.923	153.696	-64.292	-57.485	-60.701	62.452	-57.714	-50.633	-50.442	-44.032	-58.166	-44.599	-8191	255	
1243.761	1	1	0	0	0.12463	0.21864	0.087996	0.17679	0.12899	0.0078325	0.27654	0.16016	0.24663	0.24393	0.085336	0.054344	0.17629	0.10605	0.12481	0.15664	-3.4229	-4.2792	-4.3042	-3.8812	-4.1458	-3.9271	-4.0813	-4.4313	-3.6604	-4.075	-4.1917	-3.8625	-4.1792	-3.9208	-3.8125	-4.2375	158.532	-48.328	-63.564	192.181	5.339	168.848	176.700	230.844	240.278	137.509	-20.132	272.561	14.571	154.203	-24.491	281.342	0.00015067	0.0001572	0.00012228	1219.8	1.8884e-06	1.8864e-06	1292.7	247.64	3.5118e-06	1.8777e-06	311.93	87.013	68.716	19.987	2.708e-06	28.349	0.00013644	0.00015812	4.0933e-05	1084.1	1.5238e-06	1.7428e-06	1156.1	221.32	1.5521e-06	1.7296e-06	269.54	76.698	60.15	18.346	1.5951e-06	24.658	258.576	-69.069	281.534	-64.313	209.528	26.355	-64.229	-57.235	209.829	9.872	-57.490	-50.548	-50.426	-44.039	-10.812	-44.323	-8191	255	
1243.882	1	1	0	0	0.15789	0.11398	0.23023	0.20114	0.20995	0.082001	0.1471	0.12704	0.1635	0.17076	0.12259	0.13881	0.13048	0.11681	0.15577	0.22071	-3.3812	-3.9979	-4.2729	-3.775	-4.1458	-3.9479	-4.1813	-4.45	-3.575	-4.075	-4.3521	-3.8625	-4.1312	-4.0417	-3.8521	-4.4104	256.968	243.068	-40.588	-58.990	267.394	187.089	202.471	105.209	92.706	35.208	177.241	235.984	-52.546	-38.349	-19.991	-6.526	0.00021871	7.4369e-05	0.00014381	1222.8	3.3273e-06	2.7146e-06	1296.8	247.85	1.4901e-06	4.0352e-07	311.61	86.63	68.581	19.97	1.7849e-06	28.108	0.00014765	0.00016144	4.0411e-05	1082.2	1.6547e-06	1.7578e-06	1158.3	221.86	1.686e-06	1.7541e-06	269.41	76.59	60.833	18.363	1.5849e-06	24.669	256.846	227.612	248.819	-64.594	83.105	69.271	-64.194	-57.083	133.610	-40.738	-57.435	-50.451	-50.378	-44.375	13.465	-44.384	-8191	255	
1243.978	1	1	0	0	0.03637	0.21774	0.23014	0.28226	0.29118	0.27266	0.14158	0.047244	0.084305	0.027341	0.27749	0.20981	0.059001	0.10396	0.10638	0.15225	-3.6396	-4.1188	-3.9229	-3.8646	-4.2063	-4.1833	-4.1875	-4.2208	-3.7812	-4.0979	-4.3896	-3.9729	-4.0604	-3.9604	-3.7896	-4.2937	246.491	202.584	154.746	263.113	32.878	-35.170	251.464	6.014	237.928	207.995	260.157	199.102	-65.990	194.836	132.199	270.985	0.00024169	0.00032129	6.1749e-05	1217.3	1.8822e-06	3.3068e-06	1291	247.31	1.576e-06	1.0099e-06	311.13	86.796	68.073	19.958	6.1969e-06	28.131	0.00015594	0.00015442	3.9271e-05	1081	1.7162e-06	1.6523e-06	1153.5	221.01	1.7219e-06	1.6514e-06	268.03	76.453	60.728	18.179	1.5136e-06	24.678	279.011	-64.954	221.064	-64.446	55.648	30.589	-64.322	-57.269	-54.267	20.993	-57.891	-50.600	-50.550	-44.128	19.934	-44.577	-8191	255	
1244.074	1	1	0	0	0.090794	0.076268	0.1006	0.091332	0.24934	0.063663	0.25815	0.072144	0.12489	0.18796	0.13366	0.039965	0.14068	0.12707	0.23917	0.054465	-3.5771	-3.8479	-4.1375	-3.9479	-4.1104	-4.25	-3.8833	-4.3146	-3.9833	-4.0188	-4.5583	-3.8354	-4.1354	-4.0708	-3.7	-4.3438	283.923	0.348	26.869	248.826	260.036	65.859	244.787	246.766	-31.502	151.390	11.655	-25.743	-7.739	173.853	90.518	117.249	0.00014305	0.00020224	4.5584e-05	1220.5	2.8081e-06	2.119e-06	1296.2	247.2	3.4383e-06	2.4709e-06	311.5	87.122	68.841	19.928	9.3712e-07	27.923	0.00015949	0.00014793	3.775e-05	1082.4	1.7409e-06	1.5925e-06	1152.5	221.83	1.7499e-06	1.6027e-06	267.82	77.121	61.026	18.104	1.488e-06	24.893	271.509	53.569	270.354	-64.499	54.908	18.287	-64.314	-57.075	-43.843	43.177	-57.426	-50.760	-50.529	-43.896	2.527	-44.269	-8191	255	
1244.170	1	1	0	0	0.032707	0.16195	0.085604	0.16888	0.034551	0.1003	0.28889	0.18233	0.11075	0.093753	0.14215	0.15764	0.14665	0.25361	0.17998	0.23783	-3.6271	-3.8917	-4.2729	-3.9208	-3.9917	-4.0938	-4.0021	-4.4292	-4.0312	-3.7542	-4.4521	-4.0792	-4.1583	-4.2083	-3.7062	-4.3438	-65.169	45.718	44.795	250.915	36.189	95.069	212.880	-32.421	250.569	-19.603	278.533	213.288	261.363	-43.724	154.688	88.013	0.00023382	0.00012666	1.9747e-05	1220.8	3.6574e-06	1.7533e-06	1294.8	246.97	2.8917e-06	4.6197e-06	310.35	86.551	68.938	20.071	2.3934e-06	28.065	0.00015852	0.00014475	3.737e-05	1086.2	1.736e-06	1.574e-06	1152.4	223.36	1.741e-06	1.5882e-06	267.65	77.474	60.931	18.143	1.4915e-06	25.133	-69.495	149.978	188.575	-64.263	-33.014	32.059	-64.337	-57.126	78.028	7.961	-57.760	-50.949	-50.057	-44.107	-54.668	-44.040	-8191	255	
1244.266	1	1	0	0	0.12603	0.1574	0.10372	0.064149	0.2078	0.15327	0.26232	0.24774	0.029663	0.1404	0.25108	0.28732	0.086766	0.26143	0.15936	0.18044	-3.8292	-3.675	-4.4271	-3.9917	-3.8937	-4.1896	-3.9542	-4.1333	-4.075	-3.8667	-4.1396	-4.0208	-4.0896	-4.1833	-3.7292	-4.2562	57.080	272.953	201.448	122.333	97.206	-37.800	171.152	258.269	137.602	-54.945	219.824	134.450	72.132	253.449	232.298	-24.374	0.00011421	0.00024443	3.5722e-05	1222.1	1.6794e-06	8.3622e-07	1293.1	247.76	2.4186e-06	3.6065e-06	309.49	87.248	69.094	19.899	1.6848e-06	27.932	0.00015588	0.00014273	3.7519e-05	1089.4	1.6764e-06	1.5306e-06	1152.5	224.01	1.6516e-06	1.5244e-06	267.67	77.741	60.396	17.956	1.4865e-06	25.1	209.980	-50.722	162.155	-64.521	26.328	139.295	-64.420	-56.920	61.744	12.092	-57.867	-50.843	-50.411	-43.923	72.418	-44.709	-8191	255	
1244.362	1	1	0	0	0.13292	0.1601	0.18515	0.33067	0.18636	0.071392	0.076805	0.30609	0.006271	0.089619	0.053109	0.18721	0.11634	0.24059	0.095479	0.20657	-3.7854	-3.8104	-4.3167	-4.0958	-3.75	-4.1625	-4.2104	-4.1062	-3.9042	-3.8646	-4.6125	-4.0542	-3.8729	-4.2688	-3.9667	-4.1625	-3.736	175.759	59.212	229.575	36.903	22.809	-60.376	-56.630	107.179	-13.280	-42.294	30.311	-68.659	195.109	85.182	-52.395	0.00016425	0.00020216	6.9895e-05	1216.8	2.3028e-06	3.1971e-06	1286.8	247.23	2.1685e-06	3.2064e-06	309.56	86.614	68.625	19.917	5.113e-06	27.96	0.00014522	0.00013512	3.7943e-05	1084.4	1.5702e-06	1.4413e-06	1149.8	222.34	1.5303e-06	1.4238e-06	267.62	77.169	59.686	17.778	1.5262e-06	24.917	-65.996	252.257	88.062	-64.566	11.259	69.487	-64.029	-57.120	178.201	-15.569	-57.662	-50.919	-50.522	-44.156	206.065	-44.617	-8191	255	
1244.483	1	1	0	0	0.040303	0.071756	0.32111	0.081815	0.11592	0.087536	0.30864	0.10866	0.126	0.2042	0.27788	0.084469	0.085572	0.14235	0.019729	0.086097	-3.7729	-3.7583	-4.0958	-4.0625	-4.0146	-4.3229	-3.8979	-3.9083	-4.1146	-3.7833	-4.3438	-4.2125	-3.8563	-4.2438	-3.9188	-4.0479	61.757	-26.711	44.603	84.994	284.758	-25.881	178.645	-61.205	105.998	184.882	230.205	-31.575	-7.491	-16.972	18.044	222.048	8.1639e-05	0.00018533	5.4826e-05	1216.3	1.1437e-06	3.2064e-06	1281.7	245.81	8.1227e-07	2.3757e-06	307.92	86.298	68.299	19.832	3.4929e-06	27.941	0.0001363	0.00012677	3.8859e-05	1079.1	1.4522e-06	1.3492e-06	1145.4	220.86	1.4132e-06	1.3364e-06	266.51	76.221	59.097	17.613	1.5347e-06	24.51	-3.112	249.115	47.804	-64.614	244.135	-73.985	-64.232	-56.885	-3.872	99.320	-57.410	-50.796	-50.557	-43.787	54.095	-44.355	-8191	255	
1244.577	1	1	0	0	0.0698	0.19134	0.092995	0.085429	0.12492	0.18554	0.16247	0.12552	0.13014	0.14983	0.26939	0.18837	0.24952	0.2182	0.36791	0.077634	-4.0104	-3.7792	-4	-4.3	-3.9667	-4.1937	-4.0729	-3.9458	-4.1542	-3.8479	-4.2562	-4.2958	-4.0062	-4.1917	-3.8542	-4.2021	65.195	152.363	277.622	79.467	-29.686	237.146	211.398	72.457	-59.165	128.577	239.743	-37.475	271.575	244.403	78.963	-63.453	0.00013977	7.486e-05	9.3643e-06	1208.7	1.955e-06	3.1834e-06	1283.2	245.87	2.1995e-06	3.586e-06	309.71	86.694	68.285	19.681	1.9159e-06	28.004	0.00012806	0.00012316	3.905e-05	1069.5	1.3957e-06	1.3595e-06	1143.7	219.77	1.3993e-06	1.3852e-06	267.21	76.052	58.739	17.661	1.5735e-06	24.501	279.325	279.545	180.864	-64.374	68.152	74.990	-64.126	-57.253	-21.925	152.941	-57.482	-50.737	-50.065	-43.887	-57.257	-44.292	-8191	255	
1244.674	1	1	0	0	0.13473	0.24716	0.15665	0.33604	0.21115	0.063893	0.35931	0.063255	0.14	0.28324	0.072124	0.1831	0.094343	0.059025	0.16948	0.21666	-3.8729	-3.6937	-4.0958	-4.2729	-3.7667	-4.2229	-4.2542	-4.0896	-4.2833	-3.9833	-4.2771	-4.3083	-3.8583	-4.1604	-3.8896	-3.8646	6.827	66.846	136.746	154.990	32.463	-11.928	231.618	215.813	265.477	135.799	-53.088	277.668	67.918	271.685	102.136	248.102	0.0001848	0.00016017	8.9859e-05	1210.5	2.2328e-06	3.9855e-06	1275.7	245.13	4.4046e-07	1.7576e-06	308.38	86.337	68.687	19.698	3.2278e-06	27.992	0.00012594	0.00012995	4.02e-05	1071	1.3602e-06	1.4559e-06	1143.6	219.36	1.3674e-06	1.4908e-06	267.58	75.695	58.939	17.837	1.5847e-06	24.458	14.517	52.612	-56.716	-64.536	-30.619	45.091	-64.478	-57.338	142.453	137.733	-57.553	-50.643	-50.231	-43.900	-50.275	-44.487	-8191	255	
1244.770	1	1	0	0	0.1364	0.1678	0.21938	0.28135	0.050033	0.22844	0.15358	0.11068	0.12871	0.27619	0.14807	0.27608	0.1749	0.25259	0.12679	0.12715	-4.1188	-4.05	-4.0958	-4.2208	-3.6583	-3.9562	-4.3187	-3.9938	-4.2917	-3.7271	-3.975	-4.1208	-3.7521	-4.3521	-4.1687	-3.7854	211.942	-64.460	279.443	-65.772	44.909	36.212	186.743	208.174	141.828	53.289	-9.308	283.387	216.485	243.187	111.674	182.197	0.00016618	0.00019783	4.2997e-05	1204.7	2.4294e-06	2.716e-06	1275.2	244.76	2.5985e-06	1.963e-06	307.96	86.457	68.562	19.791	3.6407e-06	28.077	0.00012638	0.00013994	4.0058e-05	1067.6	1.3839e-06	1.5851e-06	1141.3	219.26	1.3971e-06	1.5964e-06	266.57	75.765	58.961	18.011	1.5128e-06	24.431	-63.073	244.900	251.049	-64.531	13.264	149.623	-64.275	-57.110	58.266	133.582	-57.679	-50.647	-50.238	-43.848	10.287	-44.317	-8191	255	
1244.866	1	1	0	0	0.14765	0.03018	0.26137	0.080871	0.17726	0.13734	0.12769	0.18373	0.11204	0.059397	0.095182	0.11016	0.12333	0.20126	0.19788	0.22678	-3.9875	-3.8479	-3.9562	-4.2667	-3.7479	-4.1896	-4.2292	-3.7687	-4.0333	-3.9938	-4.0646	-4.2875	-3.9833	-4.0958	-4.2312	-3.6896	131.033	-53.597	269.296	-69.852	260.333	95.051	-70.918	28.134	174.861	-0.780	1.148	162.726	-66.829	252.287	-69.618	102.018	7.6078e-05	5.6468e-05	5.453e-05	1206.7	1.3115e-06	4.7391e-06	1278.8	245.44	1.7679e-06	1.4306e-06	308.28	85.772	68.608	19.625	1.1895e-06	27.96	0.00012639	0.0001441	3.7389e-05	1065.3	1.3792e-06	1.5916e-06	1139.5	217.87	1.4012e-06	1.5723e-06	265.07	75.249	59.001	17.978	1.4487e-06	24.256	227.299	172.386	237.152	-64.649	-74.240	22.199	-64.226	-57.152	162.865	-40.121	-57.491	-50.835	-50.208	-43.619	273.657	-44.163	-8191	255	
1244.962	1	1	0	0	0.086863	0.10541	0.15587	0.044667	0.10809	0.30894	0.18177	0.095726	0.073265	0.26561	0.17902	0.12819	0.21035	0.16485	0.24467	0.17711	-3.8604	-3.8792	-3.8354	-4.5917	-3.8625	-3.9417	-4.3583	-3.8292	-4.4333	-4.0563	-4.0188	-4.2063	-3.85	-4.0437	-4.4437	-3.9688	37.527	172.858	233.537	-28.789	-18.328	191.765	214.491	68.149	72.590	-28.355	25.429	146.864	4.208	158.205	-20.134	182.969	0.00022733	0.00014282	8.3484e-05	1211	1.0259e-06	2.895e-06	1276.3	245.26	2.7914e-06	4.1406e-06	309.7	86.261	68.275	19.839	2.9458e-06	27.971	0.00013467	0.00014724	3.6932e-05	1067.3	1.4888e-06	1.6002e-06	1139.2	218.33	1.5175e-06	1.5915e-06	265.2	75.352	59.613	18.017	1.4555e-06	24.337	278.716	36.723	246.557	-64.334	189.429	106.590	-64.206	-57.240	174.892	32.505	-57.560	-50.895	-50.091	-43.928	32.212	-44.577	-8191	255	
1245.058	1	1	0	0	0.10244	0.28477	0.19117	0.22079	0.13497	0.16323	0.22955	0.2791	0.077025	0.092982	0.059644	0.10316	0.043596	0.2138	0.1727	0.084388	-4.0604	-4.0708	-3.8792	-4.6042	-4	-4.1771	-4.2958	-3.8229	-4.0521	-4	-3.8271	-4.375	-4.15	-4.1083	-4.1917	-3.8229	119.421	-64.146	-2.056	183.427	124.752	212.288	202.458	277.795	191.990	160.981	-57.659	218.245	119.696	280.611	229.668	79.558	0.00014265	0.00015833	9.4515e-05	1211.2	4.3855e-06	1.8796e-06	1284.3	246.18	1.8335e-06	1.4924e-06	307.74	86.288	68.574	19.82	2.1491e-06	28.066	0.00014658	0.00014806	3.7901e-05	1071	1.6575e-06	1.6236e-06	1145.7	219.74	1.6903e-06	1.6114e-06	265.45	75.985	60.431	18.028	1.4416e-06	24.429	-71.438	213.758	-27.900	-64.491	131.902	-12.748	-64.205	-57.054	60.338	63.163	-57.598	-50.844	-50.006	-44.397	-41.740	-44.225	-8191	255	
1245.179	1	1	0	0	0.16092	0.0082629	0.21198	0.26029	0.19544	0.24163	0.26481	0.1896	0.33276	0.12183	0.13822	0.072306	0.055749	0.37182	0.080776	0.064509	-3.7646	-4.1813	-3.8	-4.5	-3.9708	-3.9583	-4.4771	-3.925	-3.8542	-4.1188	-3.9	-4.2833	-4.0208	-4.1208	-4.3583	-3.9458	-24.971	202.367	179.576	180.164	142.864	75.464	170.516	176.873	10.934	115.846	103.489	144.091	133.237	-74.700	204.977	145.016	0.00025702	0.0004224	6.1161e-05	1211.5	3.6334e-06	2.1951e-06	1287.9	245.73	2.0888e-06	2.6972e-06	309.5	86.489	68.444	19.695	6.8457e-07	27.957	0.00015148	0.0001404	3.5733e-05	1072.7	1.6318e-06	1.5072e-06	1142.4	219.38	1.6422e-06	1.4882e-06	264.74	76.245	60.322	17.874	1.398e-06	24.634	248.386	249.741	134.120	-64.600	54.374	27.772	-64.235	-57.320	-35.104	-26.865	-57.465	-50.907	-50.473	-43.874	141.156	-44.323	-8191	255	
1245.275	1	1	0	0	0.30232	0.16889	0.073694	0.22096	0.06528	0.088058	0.053739	0.22686	0.21877	0.15816	0.16147	0.12255	0.10638	0.17915	0.058591	0.13348	-3.9042	-4.2958	-3.6896	-4.4875	-4.0521	-3.7521	-4.5042	-3.8688	-4.1292	-4.3208	-3.8458	-4.3417	-4.0625	-3.8583	-4.2292	-4.0917	-73.024	176.793	198.003	278.915	255.189	174.870	-65.795	221.269	45.497	-3.692	-64.803	-74.430	-62.840	248.734	129.965	-20.642	7.863e-05	0.00037121	6.9771e-05	1211.8	3.1576e-06	1.4402e-06	1279.5	245.84	2.9967e-06	1.5384e-06	307.67	86.921	68.726	19.741	3.3856e-06	27.938	0.00015234	0.00013755	3.5458e-05	1075.3	1.6403e-06	1.5035e-06	1139.8	220.77	1.6455e-06	1.5047e-06	265.01	76.82	60.17	17.895	1.4187e-06	24.843	228.860	231.463	156.685	-64.436	40.680	68.048	-64.250	-57.260	84.088	33.821	-57.606	-50.596	-50.579	-43.630	100.417	-44.520	-8191	255	
1245.369	1	1	0	0	0.26381	0.19367	0.10966	0.21903	0.10643	0.194	0.31846	0.17622	0.21568	0.17059	0.23926	0.091771	0.10069	0.21368	0.27004	0.25881	-3.7708	-4.3708	-3.6312	-4.3354	-4.0687	-4.0354	-4.4	-3.9188	-3.8896	-4.3146	-3.9375	-4.1729	-4.2729	-3.7583	-4.3625	-3.8646	269.516	88.033	132.793	234.666	191.799	38.629	216.231	223.535	212.410	-6.967	236.798	-29.680	69.505	31.223	46.963	21.768	0.00011628	0.00019711	7.0097e-05	1216.4	2.4842e-06	2.4141e-06	1288.7	246.15	4.682e-06	1.3533e-06	308.53	86.898	68.513	19.854	2.2925e-06	28.134	0.00015005	0.00013636	3.6196e-05	1080.3	1.6226e-06	1.4828e-06	1144.1	221.61	1.5925e-06	1.4501e-06	265.79	77.117	59.883	17.794	1.4491e-06	24.973	-58.975	-17.264	11.261	-64.537	-5.928	32.938	-64.571	-57.419	44.098	240.537	-57.447	-50.955	-50.776	-44.039	170.636	-44.407	-8191	255	
1245.443	1	1	0	0	0.28234	0.099417	0.21191	0.39957	0.015795	0.16651	0.12216	0.16394	0.11883	0.104	0.16058	0.05142	0.17803	0.20085	0.079158	0.26383	-3.7229	-4.2312	-3.7125	-4.3187	-4.1875	-3.7792	-4.5479	-4.15	-4.1167	-4.3479	-3.9229	-4.275	-4.375	-3.925	-4.1833	-3.9896	-44.278	135.870	191.424	251.440	10.786	94.904	148.871	258.059	162.088	57.217	1.934	-14.871	31.942	109.699	60.344	115.434	9.4606e-05	0.0002471	7.9809e-05	1213.6	5.1079e-07	2.0584e-06	1285.8	245.78	2.9455e-06	2.6503e-06	307.78	86.607	68.691	20.02	2.6907e-06	28.062	0.00014217	0.00013199	3.7522e-05	1081	1.5566e-06	1.4604e-06	1147.7	222.01	1.5592e-06	1.4375e-06	267.18	77.3	59.987	17.851	1.5457e-06	24.966	273.230	27.190	78.930	-64.336	190.807	183.217	-64.343	-56.823	-43.267	40.954	-57.743	-50.456	-50.617	-43.958	87.345	-44.111	-8191	255	
1245.562	1	1	0	0	0.33379	0.245	0.27543	0.12889	0.16014	0.12592	0.049181	0.23195	0.18792	0.26659	0.15479	0.12179	0.11702	0.11515	0.098534	0.086786	-3.5146	-4.3208	-3.9646	-4.2188	-4.0979	-3.7438	-4.5625	-4.225	-3.95	-4.3396	-3.9688	-3.9375	-4.1333	-3.7354	-4.1229	-4.2271	-49.739	238.349	267.728	199.904	61.590	-3.878	113.262	207.291	235.633	268.626	196.695	142.813	275.024	-28.271	153.402	103.662	0.00015883	9.2551e-05	6.4798e-05	1211.9	3.4477e-06	1.344e-06	1281.4	246.14	3.4435e-06	2.6455e-06	307.94	86.758	69.187	19.909	2.005e-06	28.322	0.0001385	0.00012877	3.9776e-05	1077.5	1.5239e-06	1.4215e-06	1149.5	221.73	1.5424e-06	1.4227e-06	268.72	77.097	59.975	17.865	1.6631e-06	24.996	244.454	239.444	154.134	-64.547	-15.169	54.026	-64.376	-57.134	19.406	100.615	-57.927	-50.734	-50.374	-43.702	159.506	-44.234	-8191	255	
1245.658	1	1	0	0	0.034045	0.22903	0.23037	0.25491	0.10623	0.16315	0.099763	0.093209	0.12443	0.060708	0.17291	0.41825	0.18708	0.17094	0.18734	0.11991	-3.7021	-4.2917	-3.9375	-4.0083	-4.175	-3.9521	-4.4458	-4.35	-3.9354	-4.4271	-3.9396	-3.9896	-4.1708	-4.0437	-4.2271	-4.1479	-7.433	22.393	110.295	279.486	15.150	64.733	262.291	11.477	32.341	65.033	234.922	5.338	234.987	277.037	238.349	-25.725	0.00012582	9.0811e-05	3.9723e-05	1216	3.4579e-06	3.1699e-06	1284	246.7	2.0268e-06	1.2331e-06	310.73	86.762	68.107	19.891	2.3131e-06	28.137	0.00013934	0.0001331	4.25e-05	1080.9	1.5044e-06	1.4715e-06	1153	221.48	1.4885e-06	1.4749e-06	269.93	76.74	59.41	17.952	1.6573e-06	24.74	-73.116	204.575	-41.067	-64.452	-14.599	119.696	-64.347	-57.282	-12.239	113.372	-57.505	-50.996	-50.688	-43.775	247.313	-44.283	-8191	255	
1245.754	1	1	0	0	0.10116	0.15896	0.14249	0.15691	0.123	0.14041	0.14551	0.18705	0.083548	0.061677	0.18139	0.049598	0.083465	0.12761	0.1434	0.1558	-3.2125	-4.3854	-4.0896	-4.2	-4.3417	-3.8146	-4.2604	-4.3313	-3.7562	-4.4229	-4.1729	-3.9688	-4.3	-3.8708	-4.0667	-4.3542	33.166	117.492	237.551	-69.083	223.290	-8.524	148.481	242.928	234.220	196.559	249.700	10.141	-59.706	13.612	223.547	-18.201	0.000109	0.00019761	0.00010047	1208.9	2.22e-06	9.5182e-07	1285.4	246.72	3.0419e-06	1.8502e-06	310.04	86.721	68.043	19.903	1.9411e-06	28.122	0.00013121	0.00013658	4.2049e-05	1074.3	1.4209e-06	1.5126e-06	1148.6	220.58	1.4201e-06	1.5456e-06	269.05	76.335	59.074	17.995	1.5847e-06	24.59	279.749	-0.327	-37.129	-64.555	35.808	179.879	-64.441	-57.217	2.843	41.370	-57.483	-50.713	-50.393	-43.900	144.338	-44.465	-8191	255	
1245.850	1	1	0	0	0.18046	0.42935	0.13746	0.11428	0.20799	0.14261	0.17311	0.13101	0.13234	0.063268	0.11603	0.1584	0.18704	0.079496	0.12273	0.10825	-3.4354	-4.1062	-3.9813	-4.1146	-4.5167	-3.9729	-4.1708	-4.2667	-3.9	-4.1979	-4.2833	-4.0479	-4.5167	-4.0375	-3.9188	-4.225	31.131	100.034	-17.487	227.152	121.894	-17.028	238.211	214.285	278.329	149.676	156.481	13.661	55.334	242.633	-49.453	-52.806	0.0001239	0.00018093	0.00013078	1213.2	1.406e-06	9.415e-07	1283.9	245.27	2.4481e-06	1.8035e-06	308.42	87.245	68.117	19.659	1.7205e-06	27.634	0.00012472	0.00013912	3.8527e-05	1069.7	1.3194e-06	1.4868e-06	1143.3	218.82	1.3122e-06	1.4944e-06	265.09	75.542	58.419	17.837	1.4406e-06	24.186	-40.281	89.425	268.269	-64.535	-24.260	205.946	-64.263	-57.001	124.108	-39.971	-57.395	-50.729	-50.152	-43.939	-2.190	-44.025	-8191	255	
1245.971	1	1	0	0	0.1036	0.17027	0.10413	0.29704	0.10312	0.26321	0.094091	0.17828	0.022425	0.10248	0.1195	0.1173	0.24616	0.10575	0.25544	0.12345	-3.5771	-4.0208	-3.9813	-3.7771	-4.2042	-3.9979	-4.1042	-4.1229	-3.6667	-4.2292	-4.2604	-3.9062	-4.2896	-4.0417	-3.9688	-4.4667	-70.641	73.319	-20.063	272.710	69.998	238.443	240.679	-69.575	169.116	44.351	-35.077	166.454	228.876	46.121	51.514	-20.162	0.0001279	0.00036282	6.2344e-05	1199.6	2.0729e-06	2.2137e-06	1275.8	244.78	2.2308e-06	2.2288e-06	307.74	86.458	68.049	19.654	5.9846e-06	28.124	0.00012125	0.00013931	3.6341e-05	1058.9	1.3412e-06	1.5337e-06	1133.7	217.71	1.3529e-06	1.5283e-06	264.71	75.259	58.799	17.901	1.3862e-06	24.204	-60.156	14.295	-54.902	-64.442	148.543	197.248	-64.413	-57.083	177.071	50.845	-57.423	-50.342	-50.488	-43.991	-36.845	-44.556	-8191	255	
1246.042	1	1	0	0	0.12263	0.12008	0.066129	0.25774	0.049313	0.19471	0.30326	0.35109	0.291	0.048031	0.27064	0.14856	0.13935	0.077726	0.13498	0.088138	-3.5479	-4.2042	-4.0333	-3.8542	-4.1542	-3.9292	-3.825	-4.2833	-3.7896	-4.0458	-4.3875	-3.7417	-4.0958	-4.0229	-3.7938	-4.5271	168.739	-63.479	115.475	226.254	-44.122	130.895	189.513	-59.950	271.538	261.367	-34.140	222.605	261.130	273.489	-30.970	-64.533	0.00020887	0.00031959	6.5843e-05	1205.2	5.004e-06	3.3756e-06	1274.7	244.92	3.7091e-06	2.2302e-06	308.8	87.152	68.373	19.972	1.6964e-06	28.162	0.00012634	0.00013662	3.4147e-05	1061.3	1.3774e-06	1.4643e-06	1134	217.04	1.3842e-06	1.4476e-06	263.57	75.11	58.912	17.875	1.3111e-06	24.183	-72.042	-73.091	168.262	-64.444	103.138	33.432	-64.388	-57.228	208.846	137.788	-57.724	-50.564	-50.348	-43.797	-43.792	-44.290	-8191	255	
1246.163	1	1	0	0	0.1791	0.073209	0.094716	0.058162	0.21903	0.22317	0.33076	0.12197	0.09271	0.14216	0.104	0.24348	0.18774	0.28576	0.18134	0.21165	-3.6979	-4.1479	-4.2125	-3.8104	-4.0583	-4.1708	-3.9271	-4.3896	-4.125	-4.0312	-4.2708	-3.7333	-4.1729	-4.1312	-4	-4.5229	196.081	235.608	162.756	232.173	208.816	-23.732	218.999	70.119	210.708	-59.212	264.591	32.908	73.593	54.045	131.976	178.037	0.00026181	0.00021414	8.177e-05	1203.6	2.7971e-06	2.1168e-06	1272.6	245.72	2.0121e-06	2.2048e-06	310.2	86.932	69	19.99	2.9789e-06	28.297	0.00013255	0.00013186	3.3832e-05	1061.6	1.4944e-06	1.448e-06	1134.4	217.8	1.5032e-06	1.445e-06	264.15	75.406	59.777	17.895	1.3333e-06	24.366	276.815	225.150	-25.098	-64.325	167.898	-50.906	-64.209	-57.125	21.054	90.927	-57.395	-50.989	-50.603	-43.634	-7.285	-44.495	-8191	255	
1246.259	1	1	0	0	0.1753	0.094902	0.011808	0.18904	0.11181	0.25574	0.098524	0.32189	0.14635	0.25635	0.25516	0.089761	0.16846	0.015958	0.11909	0.25123	-3.5979	-3.8937	-4.3313	-4.1396	-4.0458	-4.1708	-3.875	-4.3958	-4.0458	-4.0521	-4.5687	-3.9708	-4.1562	-4.2667	-3.7292	-4.2896	147.866	204.393	284.002	200.918	-10.176	66.725	-52.066	211.954	-31.226	147.954	-44.948	240.236	9.789	134.628	267.792	60.567	0.00012391	0.00037683	9.4988e-05	1206.9	1.7417e-06	2.3032e-06	1284.1	245.62	3.3174e-06	8.3629e-07	311.73	86.756	68.799	20.015	1.6955e-06	28.159	0.00013957	0.00012907	3.2923e-05	1066.9	1.4978e-06	1.3609e-06	1138.9	218.53	1.4634e-06	1.3277e-06	264.06	75.85	59.627	17.784	1.2212e-06	24.422	-32.026	256.071	-41.830	-64.526	74.234	0.644	-64.454	-57.072	15.989	106.419	-57.674	-50.913	-50.584	-43.813	7.109	-44.547	-8191	255	
1246.355	1	1	0	0	0.30671	0.28739	0.13355	0.19099	0.12259	0.035872	0.33304	0.19529	0.10376	0.16905	0.11315	0.23233	0.13906	0.17435	0.14857	0.088987	-3.4562	-3.9458	-4.2792	-4.075	-4.2417	-3.9688	-4.0521	-4.2292	-3.8771	-3.7604	-4.2271	-3.8292	-4.1104	-4.3438	-3.8958	-4.3688	54.694	32.813	209.234	260.615	235.000	131.456	218.148	170.993	179.839	49.907	46.196	249.949	-41.490	253.858	203.539	42.782	0.00024225	0.000315	5.8315e-05	1217.8	1.9701e-06	2.5698e-06	1287	247.1	2.0173e-06	2.0719e-06	311.27	87.453	68.831	20.208	1.0566e-06	28.519	0.00012921	0.00011727	2.9966e-05	1070.9	1.3775e-06	1.247e-06	1138.6	219.92	1.3383e-06	1.2318e-06	263.27	76.071	59.181	17.7	1.1572e-06	24.657	282.516	-65.745	-50.938	-64.395	-67.287	38.130	-64.451	-57.022	31.355	19.997	-57.670	-50.720	-50.477	-43.888	221.953	-44.298	-8191	255	
1246.451	1	1	0	0	0.23205	0.27152	0.097001	0.14687	0.05594	0.091832	0.38544	0.10704	0.30919	0.30822	0.11315	0.03605	0.1788	0.1334	0.10495	0.086031	-3.75	-3.7229	-4.3667	-4.175	-4.0917	-4.4104	-4.0958	-4.2958	-3.9875	-3.8167	-4.6125	-4.1083	-4.0583	-4.2542	-3.7875	-4.0938	250.336	263.067	34.275	236.716	248.338	-49.079	251.876	265.822	139.860	247.472	255.297	175.579	21.377	241.522	127.931	225.907	0.00014551	0.00016026	4.9724e-05	1209.4	3.0304e-06	2.0488e-06	1291.7	248.62	2.7653e-06	1.2338e-06	312.84	88.089	69.311	20.266	3.9257e-06	28.642	0.00012281	0.00011382	2.9915e-05	1071.3	1.3599e-06	1.2488e-06	1142.4	221.57	1.3401e-06	1.2453e-06	265.63	76.858	59.395	17.81	1.2367e-06	24.881	236.652	-68.027	-23.119	-64.412	35.634	242.126	-64.469	-57.275	39.565	-35.027	-57.381	-50.780	-50.646	-43.453	57.523	-44.411	-8191	255	
1246.570	1	1	0	0	0.086865	0.22228	0.26914	0.21089	0.20166	0.18454	0.20518	0.076093	0.1375	0.17961	0.053628	0.11642	0.21726	0.15237	0.20651	0.26415	-3.8688	-3.8187	-4.4167	-4.2958	-4.05	-4.4563	-3.8	-4.0896	-4.2271	-3.9313	-4.5125	-4.2021	-3.9271	-4.2292	-3.925	-4.2917	42.158	19.773	-64.621	250.921	-31.195	228.369	203.520	116.694	75.870	-43.939	2.390	113.884	116.192	-4.018	172.538	199.071	0.00015708	0.00012033	5.4261e-05	1224.6	3.2025e-06	3.3055e-06	1293.7	251.11	7.8784e-07	2.0675e-06	316.02	88.589	69.548	20.399	9.6658e-08	28.742	0.00011961	0.00011087	3.1304e-05	1078.9	1.2973e-06	1.191e-06	1145.8	223.33	1.2608e-06	1.1712e-06	268.34	76.907	59.248	17.789	1.2484e-06	24.807	261.618	-61.978	212.387	-64.322	4.482	-45.534	-64.229	-57.001	-38.339	83.258	-57.601	-51.102	-50.573	-43.931	155.251	-44.580	-8191	255	
1246.666	1	1	0	0	0.1689	0.052921	0.095144	0.066694	0.25844	0.094725	0.27015	0.11772	0.37001	0.068186	0.14993	0.0052169	0.20297	0.22967	0.14326	0.17059	-3.9854	-3.8625	-4.2167	-3.9792	-3.7917	-4.1917	-4.075	-4.2438	-4.2896	-3.8812	-4.35	-4.0563	-4.0062	-4.1479	-3.9896	-4.0417	-61.185	220.634	-43.825	-50.988	211.121	-26.550	159.173	5.642	242.700	137.623	-15.617	42.848	50.804	7.310	179.103	-29.227	0.00012328	0.00010268	8.2786e-05	1223.8	2.5626e-06	1.8997e-06	1287.7	251.95	1.9756e-06	2.4826e-06	314.99	87.922	69.825	20.333	4.9171e-06	28.791	0.00011275	0.00010447	3.1927e-05	1077.5	1.2216e-06	1.1401e-06	1148.1	223.27	1.221e-06	1.1499e-06	269.31	76.69	59.226	17.775	1.3381e-06	24.756	-70.759	272.036	-37.591	-64.661	33.476	206.839	-64.353	-57.233	116.649	93.029	-57.520	-51.167	-50.594	-44.045	79.929	-44.777	-8191	255	
1246.738	1	1	0	0	0.25324	0.10807	0.10614	0.11597	0.10519	0.18154	0.14078	0.12623	0.16814	0.11234	0.13951	0.1614	0.057754	0.10412	0.16694	0.30678	-4.1	-4.0771	-4.2875	-4.2688	-3.7979	-4.1792	-3.9604	-3.9896	-4.3417	-3.8021	-4.2417	-4.0271	-3.8792	-4.3542	-4.0396	-3.9917	172.696	265.633	72.381	229.403	-68.505	262.532	-62.043	183.390	255.069	183.587	32.841	-32.710	107.308	218.144	-72.661	231.163	7.8871e-05	0.00019275	2.4525e-05	1218.3	7.4336e-07	3.0985e-06	1294.1	251.29	3.8247e-06	1.3167e-06	314.34	87.671	69.521	20.222	3.7317e-06	28.524	0.00011268	0.00010823	3.4543e-05	1073.5	1.2237e-06	1.1904e-06	1149.9	223.4	1.214e-06	1.2057e-06	269.38	76.161	58.844	17.839	1.361e-06	24.526	-32.804	283.679	237.036	-64.602	-39.433	81.967	-64.417	-57.293	27.430	22.554	-57.475	-50.851	-50.227	-44.035	47.052	-44.484	-8191	255	
1246.859	1	1	0	0	0.11526	0.14683	0.20243	0.08981	0.087062	0.10832	0.09379	0.25646	0.063455	0.16519	0.19805	0.29665	0.10293	0.2025	0.17193	0.06133	-4.1458	-3.8542	-4.0708	-4.1146	-3.8521	-4.5563	-4.1729	-4.1125	-4.2771	-3.7958	-4.1458	-4.3	-3.8771	-4.3688	-4.3208	-4.15	45.816	54.548	-35.641	192.412	272.603	238.073	240.099	252.641	-40.292	30.672	203.161	214.975	-62.501	262.596	155.959	-4.834	0.00011266	5.6384e-05	0.00010778	1216.2	3.706e-06	1.2696e-06	1288.1	250.82	1.6213e-06	3.4709e-06	314.64	87.703	69.258	20.229	3.7021e-06	28.567	0.00010821	0.00011219	3.436e-05	1069.5	1.1668e-06	1.2361e-06	1145.2	221.92	1.1574e-06	1.2588e-06	268.74	76.033	58.568	17.886	1.327e-06	24.435	101.384	248.554	261.860	-64.570	38.696	247.534	-64.244	-56.843	-49.908	142.775	-57.502	-50.786	-50.669	-43.741	-1.620	-44.727	-8191	255	
1246.955	1	1	0	0	0.14568	0.087527	0.070679	0.099975	0.13237	0.2915	0.13712	0.20431	0.15288	0.034501	0.11937	0.13751	0.0060659	0.071473	0.35403	0.02938	-3.9688	-3.7521	-4.0875	-4.5208	-3.9604	-4.4375	-4.2667	-3.8604	-4.3771	-4.1667	-4.2521	-4.4229	-3.9313	-4.2063	-3.9896	-3.6771	47.791	195.280	141.184	68.051	109.090	-58.315	179.942	168.114	194.591	-24.544	245.587	270.312	115.542	-14.330	39.589	73.621	0.00018888	5.2566e-05	7.6022e-05	1211.6	9.3754e-07	1.4973e-06	1289.3	250.4	1.9794e-06	2.9785e-06	314.89	87.634	68.88	20.072	1.8418e-06	28.609	0.00010705	0.00011898	3.3727e-05	1066.2	1.1772e-06	1.3284e-06	1144.3	221.86	1.1754e-06	1.3553e-06	268.11	75.786	58.566	17.978	1.3063e-06	24.44	200.669	-24.634	17.329	-64.429	181.473	63.298	-64.332	-57.189	271.380	93.244	-57.612	-50.938	-50.438	-44.065	68.649	-44.593	-8191	255	
1247.051	1	1	0	0	0.035755	0.0237	0.047335	0.037083	0.20676	0.23652	0.2537	0.02146	0.079423	0.08293	0.21218	0.15297	0.10538	0.26624	0.13422	0.29748	-4.0833	-4.0042	-3.9375	-4.2729	-3.8625	-4.2292	-4.4396	-3.8688	-4.1167	-4	-3.925	-4.4667	-3.9354	-4.1438	-4.2583	-3.7979	24.036	268.233	-17.227	129.595	4.202	144.545	251.471	125.174	69.921	192.073	268.142	282.338	-71.245	-12.584	208.606	242.902	0.00020942	7.1508e-05	8.7546e-05	1215.9	2.08e-06	5.2115e-07	1286.9	250.95	5.735e-06	4.5025e-06	315.98	87.783	69.061	20.245	2.3339e-06	28.551	0.00011149	0.00012691	3.3097e-05	1067.7	1.2294e-06	1.3951e-06	1142.5	221.49	1.2376e-06	1.3804e-06	268.18	75.712	58.866	18.017	1.2552e-06	24.339	267.348	157.589	278.660	-64.638	154.975	34.995	-64.383	-57.262	174.598	57.185	-57.703	-50.729	-50.598	-43.806	29.625	-44.123	-8191	255	
1247.147	1	1	0	0	0.31009	0.090317	0.13097	0.18881	0.3258	0.1349	0.13104	0.11453	0.25997	0.16005	0.11412	0.24478	0.21008	0.097755	0.20222	0.14676	-3.9979	-4.1083	-3.8667	-4.475	-3.9313	-4.1	-4.425	-3.8833	-4.1583	-3.9208	-4.0437	-4.4313	-4.0792	-4.2312	-4.1333	-3.8417	268.606	-37.303	169.808	256.568	132.606	57.731	284.172	242.572	226.270	53.216	284.525	208.648	217.333	8.051	160.273	202.939	0.00023904	8.6952e-05	0.00012848	1208.3	1.7645e-06	1.263e-06	1284.4	250.28	3.042e-06	3.5567e-06	315.84	87.899	69.043	20.249	1.8718e-06	28.714	0.00011572	0.00012533	3.1628e-05	1063.8	1.283e-06	1.3632e-06	1140	220.99	1.2941e-06	1.3404e-06	267.32	75.469	59.232	17.936	1.2161e-06	24.28	256.857	-10.661	-56.575	-64.643	42.653	238.255	-64.385	-57.169	121.821	-32.632	-57.748	-50.763	-50.416	-44.164	24.819	-44.482	-8191	255	
1247.266	1	1	0	0	0.21385	0.073544	0.25029	0.26242	0.065705	0.18544	0.11966	0.16433	0.096427	0.094529	0.13259	0.042675	0.24074	0.14374	0.28941	0.25215	-3.8979	-4.1833	-3.9646	-4.6146	-3.9813	-4.1479	-4.3354	-3.9458	-4.3021	-4.2438	-3.9833	-4.4062	-3.8375	-3.8479	-4.3854	-3.9917	252.601	242.312	112.580	228.698	68.628	-53.595	72.640	241.171	5.438	154.633	204.334	258.441	256.611	-39.909	283.533	248.786	0.00025901	0.00029058	0.00012873	1210.1	1.0576e-06	2.7735e-06	1285.4	249.18	3.7715e-07	2.1893e-06	313.84	87.463	68.915	20.155	1.2353e-06	28.437	0.00012059	0.00012027	3.0513e-05	1062.3	1.3235e-06	1.3093e-06	1138.4	220.44	1.3568e-06	1.2885e-06	266.07	75.506	59.397	17.814	1.1778e-06	24.339	265.179	-74.946	247.386	-64.357	139.415	-12.511	-64.400	-57.041	-50.264	-17.730	-57.552	-51.013	-50.347	-44.044	-41.387	-44.293	-8191	255	
1247.340	1	1	0	0	0.23267	0.097672	0.071421	0.10163	0.031868	0.1597	0.17226	0.064006	0.16287	0.033248	0.11797	0.19319	0.11346	0.10113	0.41206	0.28751	-3.8646	-4.0104	-4.0188	-4.6229	-4.0167	-3.9792	-4.3729	-3.875	-4.075	-4.3104	-3.9958	-4.2542	-4.0896	-4.0354	-4.3625	-3.9437	128.320	130.320	-68.024	-13.163	271.664	-15.763	262.570	120.785	97.073	179.972	250.271	-69.540	130.717	75.384	21.875	258.415	0.00019887	0.0002335	2.8188e-05	1208.7	9.4241e-07	1.7169e-06	1283.9	251.24	8.0911e-07	3.3671e-06	314.47	87.92	68.888	20.121	2.0494e-06	28.626	0.00012481	0.00011552	2.9645e-05	1062.3	1.3494e-06	1.2453e-06	1136.2	221.22	1.3548e-06	1.2263e-06	265.79	75.677	59.148	17.761	1.1359e-06	24.46	271.005	281.580	-65.334	-64.469	225.382	-39.865	-63.994	-57.135	230.075	-32.706	-57.801	-50.772	-50.219	-43.808	65.541	-44.354	-8191	255	
1247.436	1	1	0	0	0.12566	0.020731	0.091575	0.27764	0.1085	0.084164	0.48204	0.13883	0.02748	0.28077	0.2803	0.18204	0.13548	0.28834	0.084408	0.17149	-3.7625	-4.2771	-3.8458	-4.3979	-4.0854	-3.9167	-4.5729	-3.8563	-4.0625	-4.1375	-3.8083	-4.1625	-4.1479	-3.9062	-4.4708	-3.9917	153.755	58.635	260.345	207.254	86.047	214.471	241.957	249.499	58.416	148.812	282.036	266.932	214.189	177.823	225.423	276.481	0.00017761	0.00036996	4.8489e-05	1213.1	2.3503e-06	6.4566e-07	1287	249.97	1.4695e-06	1.5782e-06	314.87	87.471	69.428	20.075	1.1599e-06	28.41	0.00012432	0.00011296	2.8996e-05	1066.7	1.3447e-06	1.2274e-06	1136	221.96	1.3334e-06	1.2343e-06	265.54	76.135	59.345	17.759	1.1605e-06	24.651	273.965	258.512	25.984	-64.547	-14.538	-14.225	-64.321	-57.064	99.375	1.027	-57.934	-50.723	-50.307	-43.838	97.413	-44.484	-8191	255	
1247.532	1	1	0	0	0.17054	0.15947	0.20588	0.18894	0.17905	0.13372	0.30608	0.28947	0.34295	0.15883	0.19235	0.22736	0.25236	0.017815	0.28928	0.35217	-3.65	-4.1312	-3.7875	-4.3438	-4.1562	-3.7542	-4.3667	-3.9229	-3.9979	-4.3688	-3.8438	-4.1583	-4.0646	-3.9938	-4.3083	-3.8771	271.843	205.574	237.788	279.066	198.857	9.436	192.899	-64.423	193.838	88.241	200.554	217.907	238.194	256.600	198.662	42.545	9.0509e-05	0.00016166	8.0201e-05	1213.9	2.8099e-06	3.2959e-06	1287.2	249.46	2.9137e-06	1.1944e-06	313.31	87.462	70.056	20.184	1.7287e-06	28.471	0.00012224	0.00011117	2.9419e-05	1071.1	1.3152e-06	1.2146e-06	1139.5	222.57	1.3125e-06	1.2213e-06	266.57	76.618	59.371	17.736	1.2131e-06	24.79	205.155	273.783	279.440	-64.344	-52.266	218.199	-64.227	-57.343	21.651	50.177	-57.974	-51.154	-50.483	-43.656	258.488	-44.599	-8191	255	
1247.651	1	1	0	0	0.073866	0.076253	0.25208	0.091149	0.12337	0.14956	0.20435	0.17987	0.13762	0.083264	0.22065	0.17008	0.0011415	0.082261	0.25465	0.18722	-3.5896	-4.4104	-3.9583	-4.2042	-4.1729	-3.9188	-4.3063	-3.8854	-3.9271	-4.4729	-4.0417	-4.1375	-4.2729	-4.0125	-4.4146	-4.1125	-27.549	-46.121	165.051	20.918	169.539	72.574	219.188	264.746	-55.219	227.938	215.079	283.650	180.000	275.255	235.354	-16.814	0.00014599	0.00012073	2.0916e-05	1212.8	2.5228e-06	2.9352e-06	1284.7	251.39	1.7001e-06	3.0271e-06	314.64	88.016	69.405	20.216	1.4011e-06	28.714	0.000118	0.00010988	3.1258e-05	1072.4	1.2887e-06	1.2002e-06	1140.9	223.03	1.2805e-06	1.1896e-06	267.39	76.567	59.045	17.667	1.2848e-06	24.707	-32.743	176.416	231.969	-64.507	-28.713	17.450	-64.166	-57.484	236.128	-25.043	-57.280	-50.755	-50.486	-43.640	173.986	-44.332	-8191	255	
1247.747	1	1	0	0	0.077692	0.074541	0.060832	0.072047	0.090312	0.12467	0.19901	0.28096	0.072817	0.15352	0.11716	0.10973	0.095677	0.10284	0.037586	0.19018	-3.5146	-4.3063	-4.0583	-4.4229	-4.3042	-3.8146	-4.3771	-4.1229	-3.9271	-4.2438	-4.0771	-4.1188	-4.0687	-3.9542	-4.2771	-4.3917	196.902	134.911	38.040	82.223	-34.060	-65.537	221.127	263.941	177.161	135.312	87.074	268.237	32.251	148.798	61.944	275.861	0.00017636	6.2574e-05	8.6779e-05	1215.3	9.2941e-07	4.9422e-07	1289.5	250.26	1.3402e-06	1.2297e-06	314.94	87.429	69.389	20.032	4.7852e-07	28.385	0.00011466	0.00010646	3.2422e-05	1069.4	1.2487e-06	1.1552e-06	1142.5	222.34	1.2304e-06	1.1557e-06	268.19	76.097	58.787	17.648	1.3298e-06	24.552	-56.252	236.073	55.227	-64.614	11.727	84.733	-64.330	-57.380	284.449	122.295	-57.632	-50.504	-50.715	-43.690	137.496	-44.211	-8191	255	
1247.843	1	1	0	0	0.11611	0.069067	0.013698	0.21716	0.11839	0.12523	0.21507	0.12384	0.28845	0.13465	0.099183	0.091093	0.071575	0.15287	0.26605	0.14952	-3.6063	-4.25	-3.8104	-4.2854	-4.4458	-3.8083	-4.1542	-4.0563	-3.7479	-4.3	-4.2167	-4.0542	-4.2583	-3.8229	-4.1312	-4.2917	234.942	177.444	235.004	266.629	6.745	3.344	263.530	283.733	180.543	159.430	143.931	276.234	-15.110	-25.902	181.315	-69.626	0.00019446	9.3272e-05	2.3391e-05	1212.8	2.1236e-06	3.1455e-06	1283.7	250.34	1.9425e-06	2.4848e-06	315.09	87.97	69.765	20.093	8.4617e-07	28.532	0.00011061	0.00010654	3.3797e-05	1066.5	1.2047e-06	1.1756e-06	1142.4	222.16	1.1965e-06	1.1841e-06	268.58	75.909	58.623	17.665	1.3287e-06	24.385	-59.377	-14.029	56.425	-64.467	228.781	133.828	-64.388	-57.270	41.195	170.523	-57.580	-50.745	-50.876	-43.665	140.411	-44.524	-8191	255	
1247.939	1	1	0	0	0.21284	0.074992	0.1826	0.16637	0.19448	0.056612	0.16203	0.087619	0.13251	0.22388	0.14398	0.25095	0.28331	0.27208	0.098054	0.23521	-3.5521	-4.3667	-4.2479	-4.1333	-4.3688	-3.8333	-4.2833	-4.4688	-3.9146	-4.3375	-4.2188	-3.8937	-4.4062	-4	-4.2333	-4.4625	-34.202	190.204	231.713	222.137	9.087	61.542	169.359	152.312	-35.380	-27.916	206.669	224.877	206.528	270.396	181.246	190.607	0.00012845	0.00030718	2.0122e-05	1213.3	2.0274e-06	5.6438e-07	1282.7	250.95	1.2791e-06	1.6312e-06	314.8	87.346	69.084	20.086	7.2338e-06	28.364	0.00010644	0.00010971	3.3815e-05	1065.8	1.1602e-06	1.2327e-06	1141	221.37	1.1626e-06	1.2605e-06	268.67	75.745	58.477	17.84	1.3193e-06	24.343	272.993	12.146	-67.655	-64.415	30.565	67.202	-64.258	-57.402	235.205	127.287	-57.431	-51.008	-50.418	-43.867	2.002	-44.499	-8191	255	
1248.035	1	1	0	0	0.037042	0.06042	0.14247	0.3835	0.13781	0.059743	0.20765	0.072882	0.09798	0.11971	0.14164	0.13919	0.23021	0.23233	0.19065	0.037768	-3.6979	-4.1604	-4.0437	-4.1354	-4.5604	-4.1792	-4.2604	-4.3583	-3.8646	-4.2875	-4.0646	-3.9104	-4.3313	-4.0188	-3.8354	-4.3979	118.581	-33.326	-23.863	246.246	90.444	-25.206	237.010	255.181	275.913	-0.375	181.683	219.413	-29.354	207.247	119.747	243.747	0.00022472	0.00021596	3.1675e-05	1212.8	2.5499e-06	2.0673e-06	1283.1	250.5	1.4396e-06	1.8716e-06	314.04	87.598	68.947	20.15	3.2818e-06	28.434	0.00010551	0.0001186	3.3161e-05	1065.2	1.1585e-06	1.3243e-06	1141.2	221.34	1.1929e-06	1.3635e-06	268.57	75.949	58.655	17.999	1.3394e-06	24.443	-74.930	-1.238	-72.833	-64.451	-0.924	20.290	-64.548	-57.033	-16.324	159.020	-57.583	-50.771	-50.496	-44.174	35.626	-44.633	-8191	255	
1248.131	1	1	0	0	0.20913	0.22574	0.051447	0.11099	0.19675	0.1553	0.17705	0.056471	0.22807	0.033759	0.11808	0.16429	0.23874	0.11177	0.19726	0.21075	-3.5438	-4.1604	-4.025	-4.0104	-4.5104	-3.9958	-4.2375	-4.3313	-3.7938	-4.3	-4.4479	-3.8708	-4.3562	-4.0938	-4.0333	-4.5417	-65.368	12.312	96.461	221.435	278.716	192.994	150.318	61.551	122.605	-63.231	279.527	-72.118	211.937	-27.019	-45.725	-70.503	0.00014331	0.00013377	3.7439e-05	1214.4	3.9739e-06	3.4749e-06	1281.3	251.34	4.06e-06	3.4544e-06	316.11	87.593	69.148	20.063	2.765e-06	28.44	0.00011287	0.00012837	3.3493e-05	1066.3	1.2493e-06	1.4084e-06	1141.5	221.8	1.2645e-06	1.4136e-06	268.17	75.656	59.117	17.99	1.294e-06	24.295	253.772	231.871	-40.853	-64.576	79.246	90.714	-64.450	-57.054	-47.873	88.308	-57.816	-50.491	-50.263	-43.738	76.852	-44.475	-8191	255	
1248.252	1	1	0	0	0.041241	0.21895	0.1603	0.10477	0.10236	0.092308	0.10739	0.26113	0.26878	0.13131	0.11241	0.13033	0.15785	0.020428	0.1441	0.25411	-3.5896	-4.3083	-4.1229	-3.9667	-4.2854	-4.1396	-4.1042	-4.5542	-4.0042	-4.3	-4.3729	-4.025	-4.3208	-4.1604	-3.8896	-4.3396	216.196	21.690	147.855	-74.669	147.383	167.821	205.697	234.568	88.447	153.073	279.852	166.140	266.085	109.482	86.163	203.622	0.00012599	0.0001465	7.618e-05	1212	7.5638e-07	2.4834e-06	1285	250.52	2.1512e-06	2.3757e-06	313.98	87.414	68.819	20.079	2.0018e-06	28.386	0.00011865	0.00012784	3.2393e-05	1064.6	1.3189e-06	1.3823e-06	1139.4	220.74	1.3206e-06	1.3675e-06	266.83	75.411	59.11	17.872	1.2231e-06	24.213	232.425	-17.870	-2.510	-64.551	43.524	26.615	-64.103	-57.385	190.282	-52.720	-57.453	-50.709	-50.148	-44.290	0.339	-44.253	-8191	255	
1248.346	1	1	0	0	0.17146	0.15476	0.025084	0.19971	0.31947	0.15073	0.28512	0.1077	0.25294	0.11468	0.21869	0.064228	0.3719	0.10085	0.03439	0.23796	-3.7	-4.125	-4.4062	-4.1604	-4.1625	-4.1208	-3.8354	-4.2854	-3.8708	-4.2063	-4.5583	-3.9333	-4.3792	-4.3396	-3.8625	-4.3458	151.612	165.601	257.229	276.910	210.312	243.472	217.694	213.625	165.454	267.780	269.415	-7.422	139.314	263.434	32.874	-52.205	0.00020456	0.00030017	3.678e-05	1208.4	1.2053e-06	1.3928e-06	1284.9	250.3	1.5807e-06	2.661e-06	312.66	87.84	68.856	20.08	2.8677e-06	28.278	0.00012067	0.00011911	3.0072e-05	1061.9	1.3333e-06	1.2979e-06	1138.5	220.75	1.3475e-06	1.295e-06	265.88	75.522	59.366	17.749	1.187e-06	24.252	247.989	258.103	-30.894	-64.462	40.924	6.894	-64.465	-57.280	-22.988	31.936	-57.453	-50.699	-50.309	-44.254	29.601	-44.522	-8191	255	
1248.443	1	1	0	0	0.2758	0.27253	0.023544	0.11261	0.044639	0.098586	0.156	0.34669	0.37117	0.041807	0.1837	0.18822	0.090943	0.10595	0.016657	0.083478	-3.6063	-3.8792	-4.2292	-4.1396	-4.275	-4.2083	-4.0521	-4.3125	-3.9458	-4.0417	-4.3625	-3.8688	-4.0271	-3.9729	-3.5417	-4.4146	-55.245	84.943	-22.514	-30.678	-52.690	102.552	201.699	-55.049	209.941	208.066	-47.915	283.121	217.418	-70.629	7.597	98.390	9.9473e-05	0.00027935	8.4827e-05	1211.1	1.5171e-06	3.5741e-07	1285.2	249.93	2.5096e-06	3.494e-06	311.77	87.047	69.026	19.987	9.7836e-07	28.164	0.00012723	0.00011688	2.9797e-05	1063.2	1.3719e-06	1.2688e-06	1137.8	220.62	1.3909e-06	1.2732e-06	264.88	75.575	59.593	17.742	1.2115e-06	24.44	255.928	-56.408	38.732	-64.640	132.139	67.157	-64.570	-57.178	228.782	21.158	-57.786	-50.838	-50.506	-43.821	45.515	-44.725	-8191	255	
1248.563	1	1	0	0	0.068996	0.022484	0.014607	0.092263	0.29998	0.14469	0.029704	0.14958	0.022403	0.17858	0.080118	0.14081	0.24226	0.3082	0.14225	0.14159	-3.8333	-4.0708	-4.4604	-4.1854	-4.2375	-4.2208	-4.0479	-4.3125	-4.0312	-3.9167	-4.4583	-4.0667	-4.2438	-4.1375	-3.7562	-4.2208	-50.615	171.279	270.089	-42.922	81.449	263.515	202.534	-52.395	142.614	275.854	23.254	67.389	-65.810	-67.269	110.998	213.965	3.4632e-05	0.00023184	5.6525e-05	1206.8	8.499e-07	2.6181e-06	1282.5	248.5	1.2602e-06	1.6854e-06	313.52	86.916	69.163	20.009	3.819e-06	28.381	0.00013148	0.00012185	3.1386e-05	1069	1.495e-06	1.3748e-06	1140.3	222.08	1.5135e-06	1.4063e-06	266.66	76.877	60.163	17.96	1.3899e-06	25.063	58.271	83.945	17.483	-64.509	80.392	73.372	-64.292	-57.206	-4.578	159.604	-57.713	-50.761	-50.727	-43.597	21.914	-44.705	-8191	255	
1248.635	1	1	0	0	0.096005	0.14555	0.23667	0.055898	0.12337	0.076073	0.035788	0.052256	0.13372	0.24342	0.24804	0.013468	0.21856	0.26405	0.095171	0.12183	-3.9229	-3.9125	-4.3979	-3.9958	-3.9313	-4.3896	-4.0542	-4.4313	-4.0854	-3.7958	-4.3979	-3.8875	-4.0167	-4.275	-3.8021	-4.4208	115.433	9.931	188.465	8.421	176.916	235.768	-46.712	195.219	-11.380	102.025	216.430	82.659	211.399	202.495	-49.171	210.460	0.00020388	0.00025888	6.025e-05	1214.8	2.2373e-06	3.809e-06	1289	250.42	8.2872e-07	2.5326e-06	314.25	86.984	69.389	20.033	1.1668e-06	28.096	0.00015034	0.00014024	3.7104e-05	1084.7	1.6937e-06	1.5799e-06	1152.1	226.48	1.7076e-06	1.5891e-06	270.85	78.065	61.061	18.13	1.5639e-06	25.305	263.048	238.345	11.201	-64.425	-71.598	76.230	-64.372	-57.301	11.781	-6.163	-57.648	-50.863	-50.956	-43.938	-67.933	-44.357	-8191	255	
1248.731	1	1	0	0	0.30406	0.19647	0.17682	0.0219	0.1084	0.16799	0.18502	0.015128	0.034643	0.15496	0.13744	0.28382	0.12226	0.15613	0.17169	0.2143	-3.9083	-3.8729	-4.4292	-4.2542	-3.8854	-4.4542	-4.2271	-4.1104	-4.1646	-4.0792	-4.4854	-4.2063	-4.1417	-4.4729	-3.775	-4.1979	50.088	-7.672	82.719	266.688	122.577	232.387	239.907	-58.425	266.823	-61.157	-73.931	281.384	245.550	254.464	179.268	138.623	6.7993e-05	0.0002991	5.3071e-05	1220.7	1.9149e-06	1.4631e-06	1290.2	250.04	7.1596e-07	4.0045e-06	312.58	86.931	69.135	19.855	1.3284e-06	28.185	0.00015186	0.00013933	3.9418e-05	1087.5	1.6303e-06	1.5065e-06	1156	225.42	1.6008e-06	1.4818e-06	270.37	77.786	60.32	17.917	1.5826e-06	25.066	106.888	-12.248	-31.873	-64.647	58.666	-22.484	-64.273	-57.264	33.425	44.182	-57.836	-50.679	-50.344	-43.812	95.403	-44.599	-8191	255	
1248.827	1	1	0	0	0.12314	0.15607	0.11557	0.11543	0.1793	0.28483	0.27985	0.15165	0.33194	0.21215	0.18595	0.1155	0.15017	0.25546	0.22695	0.090146	-4.1292	-3.9708	-4.3917	-4.3875	-3.8167	-4.3167	-4.0833	-4.2562	-4.2625	-3.9125	-4.5917	-4.0375	-4.1229	-4.4896	-4.1604	-4.0792	-43.441	18.456	241.422	189.570	42.779	243.993	203.299	132.528	-30.312	60.338	258.115	142.119	253.697	155.723	51.003	-34.989	0.00019955	0.00015122	8.4168e-05	1219.9	1.8915e-06	2.4166e-06	1288.7	248.55	2.1558e-06	1.4646e-06	312.67	87.387	68.542	19.807	2.2589e-06	27.914	0.00014247	0.00013276	4.1189e-05	1084.6	1.5498e-06	1.4494e-06	1154.4	223.96	1.55e-06	1.4708e-06	271.18	77.334	59.965	17.877	1.6613e-06	24.895	-7.379	-41.297	29.402	-64.434	113.420	-19.745	-64.210	-57.170	182.384	238.994	-57.738	-50.864	-50.566	-44.063	133.593	-44.126	-8191	255	
1248.923	1	1	0	0	0.15666	0.093976	0.25677	0.13657	0.15423	0.035505	0.43352	0.15578	0.050876	0.13389	0.29959	0.31037	0.20362	0.16067	0.22092	0.12101	-3.7771	-3.8104	-4.3917	-4.3063	-3.7583	-4.2438	-4.35	-4.1854	-4.3812	-3.7771	-4.4187	-4.4292	-4.0813	-4.3229	-3.9542	-3.9167	7.338	61.665	95.022	188.454	25.035	280.976	232.933	-32.952	55.304	29.326	221.982	-39.580	255.489	-19.577	125.294	90.351	2.7667e-05	9.96e-05	1.7756e-05	1215.2	4.1867e-06	1.8705e-06	1288.2	248.07	4.0589e-06	1.7697e-06	311.74	86.596	68.677	19.822	3.7136e-06	28.092	0.0001382	0.00013215	4.2141e-05	1080.9	1.4815e-06	1.4474e-06	1154.7	222.25	1.4458e-06	1.4396e-06	270.15	76.363	59.275	17.81	1.5815e-06	24.526	201.697	31.232	110.782	-64.582	4.539	141.054	-64.441	-57.105	152.034	232.962	-57.406	-50.670	-50.489	-43.964	70.525	-44.270	-8191	255	
1249.042	1	1	0	0	0.091048	0.16175	0.12003	0.13522	0.12325	0.21178	0.059038	0.096331	0.034506	0.24111	0.16487	0.10807	0.077533	0.090838	0.021847	0.33121	-4.125	-3.95	-4.2917	-4.35	-3.6833	-4.4062	-4.1542	-3.9313	-4.2	-3.9292	-4.3167	-4.35	-3.9437	-4.1708	-3.9979	-4.0625	139.410	8.972	109.263	8.538	81.440	124.185	199.994	-23.811	221.349	261.600	266.130	239.377	222.572	5.019	218.112	138.555	9.598e-05	0.00024863	2.7811e-05	1210.4	2.1078e-06	1.4949e-07	1279.8	245.58	1.0041e-06	1.5528e-06	308.26	85.722	68.58	19.722	1.9122e-06	27.727	0.00012413	0.00012954	3.9293e-05	1070.5	1.3289e-06	1.395e-06	1143.4	219.12	1.2697e-06	1.3699e-06	266.01	75.034	58.197	17.607	1.381e-06	24.004	-72.577	17.113	15.241	-64.291	-47.665	19.686	-64.292	-57.056	9.845	137.939	-57.218	-50.950	-50.544	-43.941	-18.660	-44.294	-8191	255	
1249.138	1	1	0	0	0.076621	0.08544	0.051413	0.13029	0.11348	0.1128	0.21618	0.11245	0.14242	0.33671	0.1835	0.18222	0.031424	0.20028	0.13649	0.1915	-4.0208	-3.8521	-4.2917	-4.3688	-3.7896	-4.4792	-4.4729	-3.9771	-4.2688	-3.8604	-4.1646	-4.4375	-3.8417	-4.275	-3.9583	-3.9354	-66.164	259.875	228.597	223.732	-31.934	160.784	92.619	-14.067	-46.841	222.228	-55.338	-13.914	16.953	-39.693	138.501	273.877	0.00017898	0.00026251	7.7885e-05	1199.8	1.5589e-06	1.7818e-06	1270.6	244.39	3.2446e-06	2.9098e-06	307.32	85.229	67.494	19.445	3.1663e-06	27.636	0.00010921	0.00012151	3.4081e-05	1057.3	1.1611e-06	1.3083e-06	1130.1	215.99	1.1301e-06	1.2874e-06	261.67	73.875	57.126	17.362	1.196e-06	23.588	-45.294	125.963	152.769	-64.623	72.193	256.541	-64.366	-57.439	-8.463	153.302	-57.450	-50.745	-50.418	-44.265	274.565	-44.214	-8191	255	
1249.212	1	1	0	0	0.1156	0.15015	0.30504	0.29762	0.081191	0.08813	0.13921	0.33052	0.15107	0.037551	0.052311	0.14787	0.2034	0.13754	0.17209	0.12646	-4.025	-3.9313	-4.0271	-4.4333	-3.8792	-4.3708	-4.3042	-3.9458	-4.1438	-3.9875	-4.1479	-4.3604	-3.9	-4.2792	-4.1667	-3.8937	160.496	162.991	199.561	214.840	252.468	-46.684	228.332	230.565	89.871	10.008	240.802	-6.612	255.673	259.146	254.390	-15.043	0.0002438	0.00020573	0.00011836	1194	4.2439e-06	6.7235e-07	1261.6	242.46	3.4698e-06	2.7496e-06	304.38	85.351	66.897	19.4	2.2938e-06	27.605	0.00010117	0.00011525	3.0057e-05	1046	1.12e-06	1.2592e-06	1118.2	213.36	1.1398e-06	1.2644e-06	258.43	73.365	57.082	17.286	1.1758e-06	23.483	-60.134	-1.797	278.386	-64.525	115.134	-38.736	-64.165	-57.100	168.025	278.437	-57.540	-50.751	-49.947	-43.787	45.678	-44.058	-8191	255	
1249.331	1	1	0	0	0.069157	0.14896	0.2374	0.2365	0.15514	0.27644	0.20635	0.19754	0.23545	0.13008	0.0067933	0.21353	0.092303	0.086157	0.14171	0.25987	-4.1625	-4.0354	-3.9188	-4.4333	-3.9458	-4.0479	-4.3792	-3.7125	-4.2375	-3.9417	-3.9667	-4.4229	-4.1229	-4.1521	-4.3375	-3.8792	176.140	171.484	270.578	-33.525	235.248	-30.962	191.420	108.817	95.272	145.145	-14.045	-25.760	-27.054	-17.993	132.049	-69.995	0.00024297	0.00019991	7.0752e-05	1184.7	3.5604e-06	1.756e-07	1254.6	240.32	6.1089e-06	3.467e-06	305.79	84.946	67.055	19.576	2.2132e-06	27.466	0.00010996	0.00011864	3.0211e-05	1039.9	1.2335e-06	1.3066e-06	1113.9	212.37	1.2618e-06	1.2875e-06	258.01	73.113	57.452	17.265	1.1756e-06	23.494	272.033	-5.296	-23.597	-64.463	121.195	82.816	-64.274	-57.059	180.014	-28.831	-57.841	-50.641	-50.238	-43.686	-4.127	-44.233	-8191	255	
1249.427	1	1	0	0	0.23008	0.086266	0.19265	0.21618	0.21894	0.15067	0.4857	0.24089	0.19513	0.17156	0.22983	0.034527	0.043916	0.10007	0.041661	0.10339	-4.0188	-4.225	-4.0646	-4.4812	-4.0021	-3.9875	-4.2583	-3.7708	-4.2875	-4.1729	-3.7938	-4.3875	-4.05	-3.9104	-4.3083	-3.9667	-13.907	-50.012	-43.599	175.710	220.222	-0.602	202.277	268.267	49.705	265.956	130.668	159.270	167.704	-57.232	-9.047	123.058	0.00021173	0.00033461	9.0709e-05	1185.7	4.2064e-06	3.1191e-06	1258	240.7	1.4662e-06	2.9133e-06	304.44	84.943	67.421	19.427	1.3346e-06	27.544	0.00011777	0.00011624	2.9774e-05	1041.2	1.2969e-06	1.2623e-06	1113	212.22	1.31e-06	1.2465e-06	256.86	73.328	57.737	17.194	1.1447e-06	23.547	252.607	283.567	-64.127	-64.284	262.571	38.656	-64.023	-57.327	197.053	12.262	-57.370	-50.391	-50.154	-44.155	78.928	-44.489	-8191	255	
1249.523	1	1	0	0	0.099022	0.17054	0.18297	0.22324	0.17445	0.12904	0.10051	0.058012	0.10044	0.017852	0.36349	0.26807	0.045965	0.1513	0.096044	0.052947	-3.8208	-4.1667	-3.8937	-4.5167	-3.9854	-3.8688	-4.4313	-3.9646	-4.1937	-4.075	-3.9542	-4.4104	-4.1604	-3.8833	-4.3208	-3.8667	156.153	89.803	1.706	-51.089	97.110	64.286	252.738	132.557	83.673	210.563	223.611	-30.377	0.786	-35.821	121.039	228.450	0.00012591	0.00016707	4.1326e-05	1181.1	2.8586e-06	8.715e-07	1256.3	240.45	1.7279e-06	2.5369e-06	300.7	84.764	67.084	19.463	1.9809e-06	27.322	0.00012097	0.00011083	2.868e-05	1038.5	1.3153e-06	1.2046e-06	1109.2	212.16	1.3156e-06	1.1947e-06	255.28	73.461	57.385	17.078	1.0978e-06	23.6	-62.245	-37.038	247.660	-64.469	-63.706	210.197	-64.191	-57.189	195.906	237.479	-57.644	-50.681	-50.266	-43.786	17.127	-44.306	-8191	255	
1249.644	1	1	0	0	0.080879	0.19006	0.20436	0.30228	0.18288	0.088007	0.14277	0.27169	0.13423	0.13915	0.23955	0.15718	0.19383	0.10552	0.16944	0.3094	-3.9229	-4.2958	-3.6083	-4.4167	-4.1875	-3.7167	-4.4792	-4.1146	-4.0542	-4.1771	-3.9188	-4.3125	-4.1021	-3.7792	-4.3375	-4.0271	215.423	136.649	-68.843	-67.904	119.036	176.777	256.397	242.637	-65.674	214.625	278.524	216.819	273.880	167.376	137.329	198.893	9.0967e-05	0.00027868	5.085e-05	1180	4.793e-07	2.0677e-06	1252.5	238.67	1.5154e-06	3.5081e-06	301.23	84.501	66.864	19.392	8.4733e-07	27.586	0.0001176	0.00010659	2.7613e-05	1037.2	1.2743e-06	1.1774e-06	1104.6	212.38	1.2787e-06	1.1591e-06	255.14	73.667	57.163	17.021	1.0891e-06	23.684	248.871	-58.698	248.964	-64.386	14.603	241.160	-64.141	-57.095	145.252	54.250	-57.365	-50.923	-50.849	-43.609	15.172	-44.509	-8191	255	
1249.740	1	1	0	0	0.22246	0.20585	0.10877	0.040255	0.15201	0.055197	0.3791	0.26083	0.24437	0.13372	0.081234	0.29719	0.035409	0.22506	0.10338	0.094284	-3.8625	-4.2937	-3.8229	-4.3792	-4.1312	-3.8375	-4.5771	-4.0396	-3.9437	-4.2521	-4.0021	-4.4083	-4.2042	-3.8312	-4.3667	-4.0813	281.491	131.531	129.563	219.077	-35.813	-8.250	277.633	-47.255	59.819	-28.722	221.800	242.203	138.806	277.722	140.158	-56.361	9.2896e-05	0.00039479	8.6273e-05	1177.6	3.2738e-06	4.4842e-06	1250.1	240.16	3.32e-06	5.1706e-07	301.95	84.868	66.541	19.335	2.9173e-06	27.238	0.00011394	0.00010444	2.7702e-05	1038	1.2324e-06	1.142e-06	1105.1	212.91	1.2314e-06	1.124e-06	255.18	73.734	56.979	16.984	1.1417e-06	23.743	167.949	-54.510	-10.106	-64.651	15.509	14.255	-64.102	-57.271	57.069	-44.060	-57.451	-50.641	-50.377	-43.640	18.989	-44.165	-8191	255	
1249.834	1	1	0	0	0.12329	0.04876	0.16457	0.1311	0.061856	0.34558	0.31589	0.16202	0.13631	0.099908	0.12927	0.20975	0.12963	0.088826	0.15453	0.24892	-3.7771	-4.1021	-3.9792	-4.3812	-4.2333	-3.9021	-4.3604	-3.9604	-3.9875	-4.3854	-3.9792	-4.1333	-4.1417	-3.8312	-4.2625	-3.9354	60.312	-54.348	265.548	234.591	14.228	94.239	273.016	62.534	279.974	98.476	163.445	0.066	-39.604	-1.351	230.491	3.000	9.4074e-05	0.00033098	4.868e-05	1177.5	2.6104e-06	3.0291e-06	1249.5	239.76	2.7501e-06	3.2932e-07	302.04	84.868	67.158	19.39	2.1154e-06	27.396	0.00011269	0.00010366	2.9454e-05	1039.4	1.2217e-06	1.131e-06	1107.8	213.3	1.2118e-06	1.1245e-06	256.7	73.828	56.875	17.028	1.2335e-06	23.747	-63.306	-3.971	280.552	-64.183	74.569	-16.296	-64.164	-56.977	-13.149	254.077	-57.540	-50.780	-50.361	-43.566	82.494	-44.156	-8191	255	
1249.932	1	1	0	0	0.074818	0.26015	0.17503	0.028087	0.09624	0.33295	0.29828	0.042524	0.14133	0.087381	0.13709	0.23021	0.28506	0.11347	0.30768	0.12684	-3.675	-4.3833	-3.9188	-4.1562	-4.1687	-3.8104	-4.5417	-4.1542	-3.75	-4.1271	-4.0646	-4.0583	-4.2833	-3.8958	-4.1292	-4.1167	246.623	166.098	81.880	215.919	-58.298	88.080	185.801	142.290	204.453	68.326	-24.168	1.885	82.082	188.715	206.872	280.601	0.00019767	0.00039295	3.4936e-05	1175.8	3.9979e-06	1.5384e-06	1250.6	239.19	6.4252e-07	7.7714e-07	302.23	84.575	67.045	19.282	2.1836e-06	27.39	0.00011115	0.00010385	3.235e-05	1039.4	1.2282e-06	1.1408e-06	1112.2	212.73	1.2119e-06	1.1403e-06	258.03	73.6	56.874	16.953	1.3207e-06	23.681	256.672	262.322	-25.388	-64.361	100.086	38.078	-64.074	-57.195	-49.887	225.398	-57.285	-50.790	-50.619	-43.934	-31.138	-43.869	-8191	255	
1250.026	1	1	0	0	0.21122	0.040957	0.25627	0.1248	0.13664	0.21637	0.03497	0.13986	0.052956	0.15128	0.052686	0.22741	0.076762	0.29578	0.11027	0.18738	-3.6437	-4.5542	-3.9667	-4.0958	-4.3	-3.7167	-4.3708	-4.2521	-3.8521	-4.3292	-3.925	-3.9229	-4.2958	-3.9938	-4.1458	-4.1292	114.330	188.594	248.655	263.359	110.322	195.064	218.261	20.337	234.585	83.369	-46.452	-35.050	95.282	157.326	282.856	260.298	0.00015359	7.5202e-06	7.6548e-05	1179	1.398e-06	7.6191e-07	1247.5	239.38	2.4504e-06	1.8311e-06	301.95	84.724	66.961	19.419	1.351e-06	27.579	0.00010952	0.00010523	3.3548e-05	1040.4	1.1882e-06	1.1694e-06	1111.4	212.61	1.1874e-06	1.1917e-06	258.88	73.626	56.807	17.091	1.3495e-06	23.697	263.839	145.558	68.700	-64.380	94.295	92.206	-64.145	-57.021	7.363	226.493	-57.580	-50.588	-50.312	-43.924	50.983	-44.535	-8191	255	
1250.123	1	1	0	0	0.13693	0.037699	0.088976	0.083882	0.073051	0.09257	0.2442	0.1845	0.05495	0.08986	0.1626	0.17996	0.2177	0.076004	0.065316	0.10581	-3.3271	-4.1833	-3.975	-4.1292	-4.2208	-3.5938	-4.1562	-4.1208	-3.8604	-4.1813	-4.0813	-3.875	-4.0771	-3.8208	-4.3021	-4.2604	55.594	79.838	-57.312	188.266	-52.702	-27.636	257.154	165.376	180.142	-61.252	280.582	25.641	89.069	-59.716	166.860	85.176	0.00016664	0.00033013	4.0675e-05	1180.4	7.4269e-07	2.8495e-06	1248.7	239.03	1.8592e-06	2.0699e-06	302.14	84.823	67.039	19.43	2.0208e-06	27.387	0.00010754	0.00011179	3.3875e-05	1037.7	1.1572e-06	1.2316e-06	1112.4	212.28	1.1489e-06	1.2524e-06	258.6	73.536	56.589	17.254	1.3129e-06	23.573	252.289	37.215	-52.618	-64.420	69.161	121.241	-64.079	-57.028	73.571	175.581	-57.694	-50.470	-50.708	-43.930	5.357	-44.059	-8191	255	
1250.219	1	1	0	0	0.099655	0.12496	0.10494	0.32892	0.089148	0.16683	0.096974	0.1256	0.26385	0.12141	0.090377	0.35979	0.055332	0.26358	0.1335	0.2089	-3.4417	-4.0938	-3.975	-3.9104	-4.325	-3.7229	-4.2375	-4.1708	-3.7271	-4.2271	-3.9875	-4.1604	-4.3917	-3.925	-3.8729	-4.2875	-32.966	29.548	21.213	233.469	198.104	171.979	263.256	228.207	277.265	90.868	-3.136	88.623	132.904	231.819	263.573	156.233	0.00010758	0.00020402	2.31e-05	1180.4	3.2183e-06	2.1431e-06	1250.1	239.94	6.5744e-07	8.8874e-07	300.95	84.657	66.747	19.328	2.6052e-06	27.51	0.00010472	0.00011834	3.3221e-05	1037.7	1.1559e-06	1.3167e-06	1110	211.93	1.1484e-06	1.3174e-06	257.73	73.278	56.658	17.312	1.2691e-06	23.546	236.875	-48.832	60.739	-64.224	56.049	78.005	-64.028	-57.054	179.984	96.755	-57.225	-50.666	-50.405	-43.529	-16.167	-44.321	-8191	255	
1250.339	1	1	0	0	0.057821	0.090453	0.050464	0.17569	0.035091	0.11112	0.3564	0.31656	0.12944	0.14583	0.049719	0.067461	0.30668	0.17413	0.073145	0.14501	-3.4688	-4.2396	-4.0917	-3.8354	-4.325	-3.9125	-4.1417	-4.2583	-3.6542	-4.1062	-4.2417	-3.8479	-4.3125	-4.0687	-4.0208	-4.2604	42.866	109.897	244.408	222.800	223.906	-6.922	218.423	-66.667	-32.428	208.026	139.901	255.467	195.596	6.564	233.213	55.866	0.00020242	6.5278e-05	8.4898e-05	1181.9	1.2747e-06	1.473e-06	1251	239.39	2.2074e-06	4.3958e-06	302.41	84.519	67.162	19.52	2.1471e-06	27.535	0.0001077	0.00012155	3.1813e-05	1036.9	1.1734e-06	1.3416e-06	1110.1	212.03	1.2014e-06	1.3347e-06	257.03	73.049	57.114	17.352	1.224e-06	23.465	-72.539	55.493	278.326	-64.535	119.632	261.253	-64.148	-57.100	261.973	38.404	-57.675	-50.736	-50.257	-43.621	56.046	-44.155	-8191	255	
1250.436	1	1	0	0	0.14407	0.11371	0.19936	0.14	0.062091	0.27959	0.27613	0.087569	0.17903	0.20199	0.10511	0.16088	0.047523	0.29462	0.05106	0.038148	-3.4938	-4.1375	-4.0104	-3.8542	-4.4688	-4.1167	-4.1042	-4.2354	-3.8833	-4.1917	-4.3146	-3.8875	-4.2729	-4.0521	-3.8312	-4.3688	92.275	111.989	-8.388	198.468	186.337	155.234	274.458	199.464	275.348	21.870	274.834	18.258	207.708	-64.951	194.184	-10.499	0.0003442	0.0001253	6.231e-05	1181.5	2.6418e-06	4.3214e-06	1249.7	239.59	1.3714e-06	1.777e-07	302.07	84.631	67.173	19.427	2.358e-06	27.46	0.00011293	0.00012381	3.0896e-05	1037	1.2611e-06	1.3249e-06	1109.4	211.53	1.2794e-06	1.3187e-06	256.71	73.032	57.455	17.249	1.1896e-06	23.429	248.745	210.510	54.854	-64.331	218.085	15.020	-64.476	-56.905	77.303	260.836	-57.495	-50.686	-50.227	-43.648	-44.679	-44.235	-8191	255	
1250.507	1	1	0	0	0.2076	0.073634	0.086854	0.11935	0.20061	0.046958	0.14668	0.21387	0.20015	0.040944	0.17715	0.26276	0.083958	0.37407	0.079627	0.17871	-3.7854	-4.0188	-4.3354	-4.125	-4.0521	-4.1646	-4.0563	-4.2312	-3.9271	-4.1625	-4.3063	-3.9021	-4.2688	-4.1417	-3.9333	-4.3146	-5.417	201.229	-41.745	228.762	103.482	-48.211	237.535	258.604	105.731	-47.074	173.515	232.425	-55.075	-55.854	219.214	17.930	0.00015921	0.00024807	2.9641e-05	1180.1	1.77e-06	7.0643e-07	1250.2	238.93	2.609e-06	2.4904e-06	302.3	84.81	67.18	19.469	1.3069e-06	27.459	0.00011798	0.00011741	2.9888e-05	1036.5	1.311e-06	1.2712e-06	1107.9	211.42	1.3263e-06	1.2672e-06	256.28	73.172	57.538	17.228	1.1774e-06	23.545	258.715	-30.820	226.354	-64.355	51.018	8.903	-64.076	-57.181	-61.633	-26.069	-57.349	-50.782	-50.442	-43.894	191.639	-44.419	-8191	255	
1250.603	1	1	0	0	0.12174	0.088079	0.12848	0.29358	0.2421	0.11572	0.1031	0.17632	0.13501	0.1158	0.13283	0.16581	0.2199	0.22896	0.11898	0.023645	-3.5021	-4.1521	-4.1979	-3.9708	-4.2021	-4.0813	-4.1167	-4.2125	-4.0104	-4.0042	-4.4833	-4.0229	-4.1375	-4.2688	-3.9417	-4.4354	260.212	-0.222	153.412	231.258	95.329	-67.184	211.013	177.324	198.351	33.115	-48.518	-67.683	222.206	-33.046	50.317	-46.347	0.00016168	0.00035282	0.00012595	1181	2.8324e-06	2.9015e-06	1255.5	239.5	3.5122e-07	2.7131e-06	302.68	84.897	66.515	19.441	2.1946e-06	27.373	0.00012445	0.0001142	2.9248e-05	1037.3	1.3419e-06	1.2288e-06	1109.7	212.32	1.3456e-06	1.2233e-06	256.32	73.662	57.626	17.152	1.1363e-06	23.682	278.263	-18.034	274.279	-64.231	101.141	72.821	-64.275	-56.959	-38.174	-14.187	-57.393	-50.828	-50.686	-43.727	-6.971	-44.116	-8191	255	
1250.724	1	1	0	0	0.090847	0.069406	0.17397	0.16025	0.26426	0.17278	0.14497	0.035627	0.13715	0.074684	0.044075	0.051872	0.025323	0.25739	0.28898	0.23694	-3.7583	-4.0042	-4.3708	-3.9542	-3.9458	-4.2875	-4.0896	-4.3833	-3.9042	-3.9813	-4.3167	-3.7417	-4.0563	-4.2958	-3.7313	-4.4021	-27.020	242.119	198.609	219.917	37.140	72.857	169.566	-26.145	-17.805	240.397	247.568	60.594	273.404	3.444	280.438	67.540	7.309e-05	0.00022423	6.7075e-05	1173.7	2.9581e-06	1.011e-06	1251.5	240.24	7.7727e-07	1.74e-06	301.31	85.17	67.374	19.319	8.2353e-07	27.431	0.00012278	0.00011145	2.8761e-05	1038.2	1.3304e-06	1.2066e-06	1107.5	212.96	1.3129e-06	1.2051e-06	255.62	73.979	57.533	17.066	1.1182e-06	23.809	-11.775	-49.069	272.303	-64.271	-5.521	168.908	-64.054	-57.184	44.315	39.294	-57.395	-50.404	-50.218	-43.921	52.733	-44.145	-8191	255	
1250.820	1	1	0	0	0.084913	0.089348	0.14556	0.24172	0.12386	0.080571	0.06626	0.23148	0.015901	0.17032	0.29788	0.11975	0.1875	0.16741	0.099417	0.28236	-3.8833	-3.8229	-4.3833	-4.2083	-3.8812	-4.275	-4.0979	-4.2854	-3.9375	-3.8875	-4.4	-4.0188	-3.9167	-4.5146	-3.7229	-4.1813	-37.925	65.761	-12.552	224.082	252.364	98.667	266.652	241.479	59.057	19.629	199.801	-49.630	226.666	115.342	204.000	171.530	5.1219e-05	0.00020757	4.92e-05	1175.7	1.8946e-06	2.6025e-06	1252.3	240.34	1.395e-06	7.8066e-07	303.4	84.404	67.348	19.488	2.321e-06	27.407	0.00011608	0.00010756	2.8791e-05	1038.7	1.2657e-06	1.1642e-06	1107.9	213.62	1.2541e-06	1.1679e-06	256.55	73.94	57.212	17.073	1.154e-06	23.872	-31.629	14.799	-73.050	-64.292	-45.846	-48.617	-64.286	-56.819	-71.500	-32.845	-57.330	-50.877	-50.436	-43.753	136.097	-44.080	-8191	255	
1250.916	1	1	0	0	0.090838	0.20802	0.26994	0.23221	0.036849	0.17998	0.11367	0.078915	0.1732	0.25016	0.17552	0.25277	0.16848	0.022652	0.1296	0.10725	-3.7188	-3.6792	-4.1729	-4.2063	-3.925	-4.2708	-3.9021	-4.4042	-4.0021	-3.8417	-4.2812	-4.1312	-3.8563	-4.4521	-3.7812	-4.0771	-26.121	7.644	57.248	234.652	237.662	72.678	-33.678	237.639	274.547	213.438	2.094	230.073	-69.385	-8.163	69.536	55.477	0.00014422	0.00039715	5.653e-05	1182.3	1.5359e-06	3.671e-06	1252.1	240.83	3.8668e-06	1.2312e-06	301.75	84.714	67.07	19.421	4.0931e-07	27.41	0.00011182	0.00010348	2.9536e-05	1041.5	1.21e-06	1.1226e-06	1109.6	213.79	1.2135e-06	1.1215e-06	257.34	73.927	57.052	16.975	1.2275e-06	23.81	261.000	284.138	58.287	-64.437	-58.883	14.245	-64.289	-56.985	65.806	12.109	-57.304	-50.753	-50.198	-43.642	123.882	-44.193	-8191	255	
1251.012	1	1	0	0	0.045239	0.23187	0.098176	0.2495	0.095199	0.22349	0.17734	0.1436	0.11656	0.10225	0.10171	0.058882	0.15129	0.086054	0.10971	0.19341	-3.9854	-3.7229	-4.2063	-4.2833	-3.725	-4.3438	-4.1125	-3.9792	-4.3354	-3.8104	-4.5396	-4.2708	-3.95	-4.4542	-3.975	-3.8729	280.484	96.060	107.067	264.849	213.002	-20.386	-48.170	204.038	69.168	229.133	-0.798	92.258	25.534	238.764	175.968	-13.936	7.0015e-05	8.291e-05	3.4734e-05	1176.6	2.2679e-06	1.3388e-06	1248.8	239.74	1.5869e-06	2.7379e-06	302.42	84.725	67.436	19.422	2.899e-06	27.497	0.00011051	0.00010255	3.1781e-05	1039.9	1.2009e-06	1.1079e-06	1111.8	213.07	1.1777e-06	1.0965e-06	258.66	73.776	56.924	16.994	1.2648e-06	23.744	204.875	-4.100	48.504	-64.422	43.370	62.224	-64.326	-57.179	275.894	33.062	-57.433	-50.977	-49.957	-44.210	256.039	-44.203	-8191	255	
1251.107	1	1	0	0	0.15562	0.097348	0.043034	0.21166	0.27393	0.18641	0.37874	0.097755	0.15372	0.12735	0.20761	0.11535	0.16749	0.17337	0.14367	0.18461	-4.0479	-3.9104	-4.0354	-4.2979	-3.6625	-4.2812	-4.1312	-4	-4.2312	-3.7438	-4.2167	-4.3792	-3.9667	-4.2771	-4.0188	-3.9458	163.483	-33.729	27.224	241.318	28.275	-25.886	228.692	234.882	-60.389	220.696	-34.712	-51.872	260.238	248.847	-65.895	120.887	0.00015106	0.00015784	1.7054e-05	1180.5	1.329e-06	1.6312e-06	1249.3	239.78	1.4983e-06	1.5453e-06	303.24	84.609	67.137	19.451	1.4948e-06	27.468	0.00010538	0.00010365	3.2581e-05	1038.3	1.152e-06	1.1382e-06	1111.2	212.6	1.1544e-06	1.1359e-06	258.61	73.508	56.762	17.085	1.2995e-06	23.604	-63.759	154.685	123.396	-64.529	54.762	100.178	-64.096	-57.052	4.511	186.285	-57.559	-50.875	-50.358	-43.452	257.589	-44.224	-8191	255	
1251.205	1	1	0	0	0.23162	0.19944	0.13141	0.070255	0.023533	0.13855	0.058962	0.22197	0.082826	0.31132	0.18978	0.21092	0.14842	0.1854	0.16627	0.19385	-4.1625	-4.0271	-4.2292	-4.2688	-3.9104	-4.3938	-4.1625	-3.9792	-4.4792	-3.9604	-4.2937	-4.3	-3.8104	-4.3042	-4.0437	-4.0687	136.104	-35.042	-37.254	-61.664	43.988	180.858	231.526	269.858	117.854	162.333	117.544	168.689	28.640	-7.652	210.670	230.352	7.7399e-05	0.00043182	8.9365e-05	1176.7	2.7734e-06	2.1487e-06	1249.8	238.58	4.3474e-07	1.8152e-06	304.02	85.13	67.119	19.446	4.4045e-06	27.609	0.00010224	0.00010717	3.2565e-05	1036.4	1.118e-06	1.1834e-06	1112.6	212.08	1.1001e-06	1.2065e-06	257.91	73.43	56.553	17.181	1.2464e-06	23.545	21.056	-9.878	-60.967	-64.361	33.015	121.139	-64.195	-56.914	100.967	151.515	-57.105	-50.478	-50.285	-43.565	137.959	-44.045	-8191	255	
1251.324	1	1	0	0	0.19462	0.091347	0.20123	0.10455	0.1485	0.16912	0.20408	0.010129	0.18564	0.094456	0.1117	0.22897	0.12746	0.067211	0.087908	0.10376	-3.9854	-3.9917	-3.9729	-4.4604	-3.825	-4.2958	-4.2229	-3.8271	-4.3979	-4.05	-4.1917	-4.2958	-3.8042	-4.4062	-4.2583	-4.0292	-28.902	221.564	46.532	-48.703	232.364	240.026	181.509	36.156	-1.539	134.955	222.750	124.726	-33.171	148.453	270.655	24.376	6.571e-05	0.00027929	2.1656e-05	1173.5	7.0723e-07	2.5103e-07	1253.9	239.63	1.4449e-06	3.0725e-06	303.43	84.715	67.387	19.421	2.5694e-06	27.546	0.00010091	0.00011297	3.1667e-05	1032.3	1.1086e-06	1.2507e-06	1108.9	211.81	1.1067e-06	1.2458e-06	257.49	73.029	56.613	17.25	1.2018e-06	23.445	-66.385	105.006	-25.650	-64.506	-50.971	121.765	-64.061	-57.146	116.670	183.380	-57.345	-50.748	-50.012	-43.561	-1.256	-44.158	-8191	255	
1251.420	1	1	0	0	0.16329	0.15196	0.20335	0.06203	0.046103	0.20928	0.091135	0.33445	0.10214	0.15653	0.19704	0.061926	0.22797	0.18261	0.25738	0.095258	-4.2104	-3.8667	-3.9875	-4.5625	-3.9521	-4.2854	-4.4042	-3.8729	-4.2708	-4.1271	-4.1438	-4.4187	-3.8042	-4.3396	-4.3938	-3.7396	0.409	97.222	191.017	225.642	231.379	283.875	93.536	227.004	150.405	-2.740	-48.938	10.374	267.043	167.119	62.825	-37.364	0.00017503	6.2557e-05	1.8563e-05	1175.4	1.4203e-06	4.9854e-07	1251	239.45	1.1974e-06	1.9404e-06	302.62	84.932	66.973	19.357	7.2936e-07	27.543	0.00010238	0.00011588	3.0046e-05	1033.7	1.126e-06	1.2706e-06	1106.5	211.09	1.1455e-06	1.2778e-06	257.29	73.127	56.845	17.293	1.1642e-06	23.475	247.308	212.856	-44.525	-64.264	144.200	48.948	-64.090	-56.962	197.866	76.153	-57.385	-50.712	-50.566	-43.629	189.200	-44.557	-8191	255	
1251.516	1	1	0	0	0.24631	0.035539	0.2515	0.19615	0.020906	0.14664	0.1826	0.10884	0.19884	0.30305	0.17507	0.071449	0.047292	0.23261	0.13577	0.039645	-3.9417	-3.9875	-3.8979	-4.5083	-3.7875	-4.2771	-4.5792	-3.8104	-4.1083	-3.9458	-4.0312	-4.4708	-3.9437	-4.1396	-4.3604	-3.8208	194.339	179.999	-14.430	26.405	218.979	159.481	206.865	93.842	246.272	242.787	-36.289	10.963	-5.792	-33.939	127.635	278.387	0.00019663	0.00015176	4.6801e-05	1176.6	1.6957e-06	4.2843e-06	1251.8	239.18	2.1837e-06	3.6788e-06	302.11	84.515	67.149	19.45	2.8514e-06	27.617	0.00010887	0.00011635	2.9506e-05	1032.2	1.2085e-06	1.272e-06	1106.7	211.1	1.2077e-06	1.2281e-06	256.14	72.839	57.264	17.193	1.1327e-06	23.387	268.756	257.858	64.065	-64.200	173.333	-1.120	-64.210	-57.109	257.316	-4.711	-57.325	-50.829	-50.484	-43.813	27.774	-44.822	-8191	255	
1251.612	1	1	0	0	0.069035	0.11003	0.10259	0.072153	0.14366	0.076817	0.0048739	0.15968	0.14855	0.27383	0.14542	0.12593	0.10952	0.11199	0.097373	0.11822	-3.9229	-4.1083	-3.8458	-4.4083	-3.9146	-4.1771	-4.5292	-3.925	-4.2396	-4.2188	-3.7625	-4.3458	-4.025	-3.7458	-4.2958	-3.9729	270.988	-63.327	140.458	-64.052	61.989	37.900	227.018	104.968	243.628	163.604	233.189	100.232	75.549	-55.864	-46.037	209.157	0.00028619	9.3546e-05	4.1813e-05	1174.8	2.029e-06	3.8494e-06	1244.5	239.96	2.544e-06	1.7144e-06	301.87	85.235	67.276	19.449	2.5783e-06	27.63	0.00011414	0.00011173	2.8308e-05	1030.4	1.2447e-06	1.2123e-06	1103.9	211.11	1.2468e-06	1.1872e-06	255.69	72.965	57.143	17.086	1.0805e-06	23.399	260.816	31.971	195.948	-64.341	157.071	24.750	-64.118	-56.957	61.878	14.384	-57.352	-50.622	-50.394	-44.041	15.089	-44.291	-8191	255	
1251.733	1	1	0	0	0.14576	0.053733	0.15821	0.14062	0.15679	0.17436	0.1475	0.11616	0.14525	0.18731	0.10006	0.24714	0.082662	0.14627	0.14374	0.097987	-3.8417	-4.0563	-3.8667	-4.3729	-4.0646	-3.9062	-4.4313	-3.8187	-4.3	-4.1542	-3.8792	-4.2562	-3.9646	-4.0667	-4.4187	-3.7208	108.539	33.931	202.524	164.038	122.648	177.433	282.557	-71.406	57.625	26.132	21.053	282.030	199.707	49.461	186.792	202.341	0.00012046	0.00030859	8.33e-05	1173.3	1.985e-06	2.249e-07	1246.6	239.95	2.7024e-06	2.0386e-06	299.95	84.083	66.574	19.415	8.2641e-07	27.495	0.00011368	0.00010428	2.6976e-05	1028.3	1.2338e-06	1.1295e-06	1099.5	210.88	1.2261e-06	1.1053e-06	253.48	72.803	56.855	16.91	1.0056e-06	23.403	228.163	231.230	-4.617	-64.211	94.628	59.310	-64.272	-57.055	134.812	-41.461	-57.486	-50.352	-50.506	-43.706	101.698	-44.402	-8191	255	
1251.804	1	1	0	0	0.12501	0.13102	0.21551	0.086436	0.13674	0.15672	0.16991	0.10881	0.098157	0.10144	0.10327	0.10884	0.24341	0.19334	0.1902	0.3032	-3.7479	-4.2521	-3.9021	-4.3875	-4.1188	-4.0604	-4.5083	-3.9333	-4.1042	-4.3	-3.8542	-4.0958	-4.1104	-4.0104	-4.2167	-4.0083	66.011	40.765	253.164	74.197	-37.589	-18.415	274.756	237.122	9.209	8.513	-56.956	-67.235	243.632	-43.644	251.440	-17.002	0.00010721	0.00021641	5.4584e-05	1165.9	2.4979e-06	2.6033e-06	1240.4	238.39	7.5787e-07	1.7581e-06	300.96	84.613	67.075	19.432	2.1502e-07	27.19	0.00010964	9.9169e-05	2.5633e-05	1025.4	1.1758e-06	1.0831e-06	1094.1	210.4	1.1866e-06	1.076e-06	253.45	73.042	56.806	16.907	1.0127e-06	23.526	-62.185	-45.353	-36.650	-64.129	57.115	-26.394	-64.180	-57.403	155.169	-34.502	-57.266	-50.548	-50.336	-43.586	15.886	-44.363	-8191	255	
1251.901	1	1	0	0	0.12347	0.038579	0.13983	0.087027	0.16085	0.095157	0.085053	0.093039	0.16102	0.026007	0.18343	0.040054	0.17243	0.1264	0.090577	0.2226	-3.5563	-4.3146	-3.6958	-4.3354	-4.1729	-4.0208	-4.3479	-4.0292	-3.8896	-4.075	-3.9042	-4.2125	-4.0854	-3.6333	-4.3271	-4.1229	170.248	282.004	37.552	-30.158	161.064	256.030	239.301	176.555	226.589	173.000	139.343	-9.812	205.151	-55.184	114.469	1.089	0.00020748	0.00019289	3.2611e-05	1171.1	3.7653e-06	3.2376e-06	1239	238.99	3.33e-06	1.0574e-06	302.29	84.184	66.968	19.343	3.2181e-06	27.552	0.0001068	9.6492e-05	2.5912e-05	1028.6	1.1536e-06	1.0596e-06	1096.2	211.3	1.1431e-06	1.0512e-06	254.22	73.236	56.393	16.855	1.0476e-06	23.559	227.332	243.409	-69.344	-64.366	77.831	12.737	-64.317	-56.968	9.419	-38.318	-57.405	-50.510	-50.004	-43.728	-44.763	-44.346	-8191	255	
1252.019	1	1	0	0	0.085206	0.23489	0.1541	0.23523	0.044315	0.02978	0.079026	0.090655	0.098774	0.16549	0.35301	0.16734	0.28911	0.18975	0.12552	0.080317	-3.5146	-4.15	-3.9813	-4.4396	-4.4708	-3.8292	-4.4833	-4.2979	-3.9083	-4.2312	-3.8396	-4.2625	-3.9979	-3.8375	-4.2292	-3.9896	-19.537	15.460	228.984	-41.868	68.265	190.694	256.360	266.323	16.761	121.942	-65.019	214.002	261.335	16.877	130.726	-41.593	0.00013596	0.00024047	4.191e-05	1163.6	2.2988e-06	2.9505e-06	1239	238.82	2.0991e-06	2.1507e-06	301.03	84.289	66.257	19.423	1.3936e-06	27.358	0.00010295	9.4323e-05	2.7153e-05	1026.2	1.1134e-06	1.0232e-06	1095.9	211.1	1.0964e-06	1.0175e-06	254.08	72.992	56.134	16.795	1.1108e-06	23.519	242.133	-56.012	26.894	-64.247	1.969	18.639	-64.181	-57.074	104.743	14.073	-57.472	-50.826	-50.317	-43.749	14.899	-44.325	-8191	255	
#DATA ENDS
