BOXY.EXE: ISS Imagent and Oximeter Data Acquisition Program Version 0.80
Ascii Record File

#ACQ INFORMATION
2  Detector Channels 
16  External MUX Channels 
1  Auxiliary Channels 
5000  Waveform (CCF) Frequency (Hz)
1  Waveforms Skipped 
30  Waveforms Averaged 
1  Cycles Averaged 
16  Acquisitions per Waveform 
10.0806  Updata Rate (Hz) 

#FILE INFORMATION
TRUE -- External MUX Channel results are PARSED.
FALSE -- AC DC and Phase are NOT grouped.
TRUE -- Companion Program Settings File CREATED.
FALSE -- AC data not excluded
FALSE -- DC data not excluded
FALSE -- Phase data not excluded
FALSE -- Auxillary Chn. data not excluded
Tab delimiters

#CALIBRATION STATE
TRUE -- Waveform Calibration Values APPLIED.


#AUX CALIBRATION VALUES
Val Type	aux-1	

Term	1.0000e+00	
Factor	0.0000e+00	


#WF CALIBRATION VALUES
A = Detector Channel
Val Type	A-AC1	A-AC2	A-AC3	A-AC4	A-AC5	A-AC6	A-AC7	A-AC8	A-AC9	A-AC10	A-AC11	A-AC12	A-AC13	A-AC14	A-AC15	A-AC16	A-DC1	A-DC2	A-DC3	A-DC4	A-DC5	A-DC6	A-DC7	A-DC8	A-DC9	A-DC10	A-DC11	A-DC12	A-DC13	A-DC14	A-DC15	A-DC16	A-Ph1	A-Ph2	A-Ph3	A-Ph4	A-Ph5	A-Ph6	A-Ph7	A-Ph8	A-Ph9	A-Ph10	A-Ph11	A-Ph12	A-Ph13	A-Ph14	A-Ph15	A-Ph16	

Term	0.00000e+00	0.00000e+00	0.00000e+00	0.00000e+00	0.00000e+00	0.00000e+00	0.00000e+00	0.00000e+00	0.00000e+00	0.00000e+00	0.00000e+00	0.00000e+00	0.00000e+00	0.00000e+00	0.00000e+00	0.00000e+00	0.00000e+00	0.00000e+00	0.00000e+00	0.00000e+00	0.00000e+00	0.00000e+00	0.00000e+00	0.00000e+00	0.00000e+00	0.00000e+00	0.00000e+00	0.00000e+00	0.00000e+00	0.00000e+00	0.00000e+00	0.00000e+00	0.00000e+00	0.00000e+00	0.00000e+00	0.00000e+00	0.00000e+00	0.00000e+00	0.00000e+00	0.00000e+00	0.00000e+00	0.00000e+00	0.00000e+00	0.00000e+00	0.00000e+00	0.00000e+00	0.00000e+00	0.00000e+00	
Factor	1.00000e+00	1.00000e+00	1.00000e+00	1.00000e+00	1.00000e+00	1.00000e+00	1.00000e+00	1.00000e+00	1.00000e+00	1.00000e+00	1.00000e+00	1.00000e+00	1.00000e+00	1.00000e+00	1.00000e+00	1.00000e+00	1.00000e+00	1.00000e+00	1.00000e+00	1.00000e+00	1.00000e+00	1.00000e+00	1.00000e+00	1.00000e+00	1.00000e+00	1.00000e+00	1.00000e+00	1.00000e+00	1.00000e+00	1.00000e+00	1.00000e+00	1.00000e+00	X	X	X	X	X	X	X	X	X	X	X	X	X	X	X	X	

B = Detector Channel
Val Type	B-AC1	B-AC2	B-AC3	B-AC4	B-AC5	B-AC6	B-AC7	B-AC8	B-AC9	B-AC10	B-AC11	B-AC12	B-AC13	B-AC14	B-AC15	B-AC16	B-DC1	B-DC2	B-DC3	B-DC4	B-DC5	B-DC6	B-DC7	B-DC8	B-DC9	B-DC10	B-DC11	B-DC12	B-DC13	B-DC14	B-DC15	B-DC16	B-Ph1	B-Ph2	B-Ph3	B-Ph4	B-Ph5	B-Ph6	B-Ph7	B-Ph8	B-Ph9	B-Ph10	B-Ph11	B-Ph12	B-Ph13	B-Ph14	B-Ph15	B-Ph16	

Term	0.00000e+00	0.00000e+00	0.00000e+00	0.00000e+00	0.00000e+00	0.00000e+00	0.00000e+00	0.00000e+00	0.00000e+00	0.00000e+00	0.00000e+00	0.00000e+00	0.00000e+00	0.00000e+00	0.00000e+00	0.00000e+00	0.00000e+00	0.00000e+00	0.00000e+00	0.00000e+00	0.00000e+00	0.00000e+00	0.00000e+00	0.00000e+00	0.00000e+00	0.00000e+00	0.00000e+00	0.00000e+00	0.00000e+00	0.00000e+00	0.00000e+00	0.00000e+00	-2.12444e+02	-1.41062e+02	-1.70892e+02	-1.83732e+02	-1.12109e+02	-1.05118e+02	-1.55012e+02	-1.62015e+02	-9.09407e+01	-9.85453e+01	-1.70533e+02	-1.70350e+02	-1.84933e+02	-1.77024e+02	-9.26801e+01	-1.49740e+02	
Factor	3.86930e-05	3.87587e-05	1.11420e-05	1.84525e-01	4.76322e-07	4.00243e-07	1.77227e-01	5.92448e-02	4.03067e-07	4.33660e-07	9.47737e-02	3.35258e-02	3.39684e-02	1.07113e-02	3.85728e-07	1.51601e-02	1.41076e-07	1.41361e-07	3.93248e-08	7.31989e-02	1.55024e-09	1.55026e-09	6.73368e-02	2.26348e-02	1.55356e-09	1.55040e-09	3.24457e-02	1.12648e-02	1.11019e-02	3.63347e-03	1.55221e-09	4.80811e-03	X	X	X	X	X	X	X	X	X	X	X	X	X	X	X	X	



#DISTANCE SETTINGS
A = Detector Channel
A-1	A-2	A-3	A-4	A-5	A-6	A-7	A-8	A-9	A-10	A-11	A-12	A-13	A-14	A-15	A-16	

2.5000e+00	3.0000e+00	2.5000e+00	3.0000e+00	2.0000e+00	3.0000e+00	1.5000e+00	3.0000e+00	3.0000e+00	3.0000e+00	3.0000e+00	3.0000e+00	3.0000e+00	3.0000e+00	1.5000e+00	3.0000e+00	

B = Detector Channel
B-1	B-2	B-3	B-4	B-5	B-6	B-7	B-8	B-9	B-10	B-11	B-12	B-13	B-14	B-15	B-16	

1.0000e+01	1.0000e+01	1.0000e+01	1.4400e+00	1.0000e+01	1.0000e+01	1.5100e+00	1.9400e+00	1.0000e+01	1.0000e+01	1.9900e+00	2.4900e+00	2.4100e+00	2.9000e+00	1.0000e+01	2.9800e+00	




#DATA BEGINS
time	group	step	mark	flag	A-AC1	A-AC2	A-AC3	A-AC4	A-AC5	A-AC6	A-AC7	A-AC8	A-AC9	A-AC10	A-AC11	A-AC12	A-AC13	A-AC14	A-AC15	A-AC16	A-DC1	A-DC2	A-DC3	A-DC4	A-DC5	A-DC6	A-DC7	A-DC8	A-DC9	A-DC10	A-DC11	A-DC12	A-DC13	A-DC14	A-DC15	A-DC16	A-Ph1	A-Ph2	A-Ph3	A-Ph4	A-Ph5	A-Ph6	A-Ph7	A-Ph8	A-Ph9	A-Ph10	A-Ph11	A-Ph12	A-Ph13	A-Ph14	A-Ph15	A-Ph16	B-AC1	B-AC2	B-AC3	B-AC4	B-AC5	B-AC6	B-AC7	B-AC8	B-AC9	B-AC10	B-AC11	B-AC12	B-AC13	B-AC14	B-AC15	B-AC16	B-DC1	B-DC2	B-DC3	B-DC4	B-DC5	B-DC6	B-DC7	B-DC8	B-DC9	B-DC10	B-DC11	B-DC12	B-DC13	B-DC14	B-DC15	B-DC16	B-Ph1	B-Ph2	B-Ph3	B-Ph4	B-Ph5	B-Ph6	B-Ph7	B-Ph8	B-Ph9	B-Ph10	B-Ph11	B-Ph12	B-Ph13	B-Ph14	B-Ph15	B-Ph16	aux-1	digaux	

4085.523	1	1	0	256	0.46324	0.10046	0.074094	0.23526	0.12905	0.085098	0.2003	0.26094	0.14127	0.06573	0.23349	0.16634	0.21882	0.15174	0.12386	0.07343	-3.7062	-3.9688	-3.5271	-4.2625	-3.6417	-3.8625	-4.3229	-4.0021	-3.8375	-3.7625	-3.6896	-4.0604	-3.9333	-3.8042	-3.9854	-3.7458	97.049	131.143	-135.414	42.068	0.238	80.993	183.299	151.660	192.469	50.241	99.298	196.622	127.714	190.020	89.596	161.176	0.0010747	0.00021567	6.4572e-05	874.77	1.6371e-06	1.8956e-06	1089.1	341.53	1.0036e-06	9.624e-07	477.79	203.04	147.84	63.427	1.4555e-06	85.753	3.4193e-05	3.1203e-05	8.0411e-06	675.05	3.4165e-07	3.2941e-07	856.1	255.1	3.4774e-07	3.2648e-07	327.13	137.14	95.069	41.867	3.131e-07	54.57	121.077	-61.800	-76.068	-126.358	-9.158	-9.275	-127.629	-121.636	-13.851	18.886	-123.379	-120.140	-118.931	-113.274	12.515	-116.216	-8191	255	
4085.644	1	1	0	0	0.10452	0.19671	0.29402	0.028453	0.076113	0.25859	0.19202	0.14235	0.18709	0.17883	0.24387	0.1257	0.20691	0.11901	0.11471	0.22607	-3.7062	-3.9646	-3.4583	-4.1	-3.7375	-3.7687	-4.2458	-3.7562	-3.75	-4.0479	-3.7229	-4.25	-4.0062	-3.7208	-4.0188	-3.85	100.991	150.166	-60.324	21.793	123.787	198.709	-64.569	116.068	-114.219	95.709	184.093	143.437	48.744	102.761	209.649	139.399	0.0010087	0.00023206	5.0615e-05	874.64	1.6748e-06	3.3656e-06	1096.2	343.09	1.2192e-06	1.8841e-06	478.08	203.39	148.21	63.689	1.5093e-06	86.838	3.5117e-05	3.0459e-05	7.8273e-06	676.67	3.5488e-07	3.3165e-07	858.94	255.72	3.5741e-07	3.331e-07	328.06	137.63	95.312	42.055	3.0895e-07	55.211	115.078	-31.732	-63.027	-126.405	-24.787	-25.499	-127.830	-121.641	-50.944	-42.811	-123.238	-120.234	-118.788	-113.398	-24.454	-116.233	-8191	255	
4085.740	1	1	0	0	0.076688	0.22232	0.069264	0.24962	0.24596	0.080253	0.12278	0.024866	0.070068	0.22714	0.083467	0.19072	0.14989	0.039346	0.14893	0.13116	-3.5	-4.0604	-3.6063	-4.1333	-3.8958	-3.6271	-4.2208	-3.775	-3.8125	-4.0542	-3.6833	-4.2729	-4.1562	-3.7938	-3.9958	-3.9562	-9.839	-26.886	106.160	203.985	-37.797	79.935	120.175	-1.564	9.601	114.555	-51.112	176.178	146.209	210.596	-21.130	108.491	0.0010508	0.00010064	3.0876e-05	884.93	2.2659e-06	1.5977e-06	1102.7	341.65	8.1254e-07	2.6812e-06	473.78	203.04	146.54	62.703	9.2559e-07	85.139	3.5609e-05	2.9815e-05	7.9505e-06	684.3	3.6117e-07	3.3187e-07	864.45	255.75	3.6439e-07	3.3568e-07	325.91	136.95	94.361	41.536	3.228e-07	54.293	119.849	-3.430	-105.997	-126.678	-41.387	-23.981	-127.697	-121.652	-4.722	-3.851	-123.485	-120.344	-118.614	-113.287	-139.146	-116.186	-8191	255	
4085.812	1	1	0	0	0.076779	0.090777	0.12545	0.087346	0.14189	0.23747	0.080526	0.12149	0.037434	0.27469	0.19007	0.099692	0.14097	0.29893	0.049186	0.075524	-3.4708	-3.9625	-3.3708	-4.0667	-4.0563	-3.4813	-4.1667	-3.8979	-3.6188	-4.0938	-3.8042	-4.0271	-4.2396	-3.6688	-4.1521	-4.0875	-31.325	-117.840	198.043	214.172	6.489	213.862	-67.288	-43.234	-57.549	-135.867	162.279	156.143	191.188	192.061	129.387	136.916	0.00097774	0.00016355	3.5169e-05	879.58	2.7453e-06	2.2046e-06	1093	338.49	2.0039e-06	1.8569e-06	469.06	200.77	146.12	62.444	1.9679e-06	84.684	3.5416e-05	3.0259e-05	8.1998e-06	681.39	3.589e-07	3.3308e-07	858.39	254.07	3.6398e-07	3.3644e-07	322.77	136	94.028	41.256	3.4137e-07	54.12	116.522	-85.393	-87.877	-126.610	18.552	-14.351	-127.663	-121.655	-22.078	-43.501	-123.322	-120.176	-118.705	-113.443	-80.337	-116.224	-8191	255	
4085.908	1	1	0	0	0.17021	0.23497	0.070221	0.25832	0.13273	0.027539	0.26943	0.19419	0.12874	0.10228	0.10676	0.077031	0.16136	0.12336	0.14521	0.031824	-3.3667	-4.1625	-3.6917	-3.9417	-4.0583	-3.6208	-4.2125	-3.9958	-3.7333	-4.2604	-3.8458	-3.7479	-4.1896	-3.7729	-4.1667	-4.0333	-3.018	161.234	180.750	211.477	39.298	170.519	137.027	138.957	-113.158	78.091	204.498	-134.829	183.342	179.514	-104.480	112.002	0.001032	0.00025856	1.4735e-05	890.87	1.8411e-06	1.9086e-06	1101.9	341.88	1.8006e-06	1.073e-06	471.86	204.18	148.28	62.815	1.301e-06	85.297	3.5596e-05	3.0887e-05	8.8754e-06	689.52	3.5579e-07	3.3218e-07	867.48	256.2	3.5651e-07	3.346e-07	325.12	138.11	95.171	41.4	3.7154e-07	54.376	118.162	-75.627	-117.195	-126.407	-33.765	16.739	-127.809	-121.638	6.236	-20.643	-123.428	-120.168	-118.954	-113.517	7.618	-116.139	-8191	255	
4086.027	1	1	0	0	0.22313	0.17676	0.077661	0.22991	0.10403	0.15079	0.16776	0.12601	0.056573	0.057387	0.060266	0.24785	0.23282	0.14732	0.32086	0.33438	-3.3854	-4.2458	-3.6521	-3.9917	-3.9479	-3.5438	-4.1458	-4.1062	-3.6708	-4.0167	-3.7	-3.8958	-4.2042	-3.7687	-3.9271	-4.1854	180.443	113.563	217.642	148.429	-30.789	91.610	125.095	-133.774	136.934	183.375	-137.702	168.374	110.489	-104.239	-24.387	171.801	0.0010095	0.0001982	3.8801e-05	893.46	1.1693e-06	1.1157e-06	1107.7	341.4	1.501e-06	6.0891e-07	471.13	204.47	148.71	63.102	2.4427e-07	85.636	3.5319e-05	3.0457e-05	9.6008e-06	691.7	3.5604e-07	3.363e-07	873.98	255.62	3.5464e-07	3.3636e-07	326.2	138.44	95.549	41.677	3.9574e-07	54.612	119.596	-75.461	-111.262	-126.474	-58.522	-15.849	-127.706	-121.770	-31.545	-62.878	-123.515	-120.173	-118.789	-113.332	-48.638	-116.427	-8191	255	
4086.123	1	1	0	0	0.25992	0.20447	0.17988	0.28455	0.14968	0.20152	0.13539	0.1092	0.051423	0.16212	0.2293	0.062526	0.26172	0.46444	0.20364	0.065363	-3.2021	-4.0417	-3.6708	-3.7854	-4.0312	-3.5896	-4.15	-4.2562	-3.5708	-4.1312	-3.9062	-3.8479	-4.3604	-3.7208	-3.8833	-4.1354	-108.245	-81.142	-35.721	51.863	-137.964	-12.200	111.037	-53.101	-125.756	21.382	149.782	-119.605	106.596	181.791	-52.241	204.884	0.00094884	0.00011072	3.4286e-05	893.09	3.2734e-06	4.8892e-07	1111.3	340.65	2.4595e-06	1.5423e-06	470.69	202.04	146.61	62.165	1.4757e-06	85.016	3.5737e-05	3.1902e-05	1.0265e-05	692.89	3.5942e-07	3.5704e-07	877.22	254.78	3.6356e-07	3.6247e-07	325.42	136.82	94.331	41.253	4.231e-07	54.036	127.406	68.765	-36.908	-126.658	-63.311	-102.944	-127.650	-121.648	-7.790	-61.693	-123.387	-120.315	-118.635	-113.400	-16.141	-116.098	-8191	255	
4086.219	1	1	0	0	0.10963	0.14938	0.12786	0.16472	0.29548	0.11274	0.26561	0.14647	0.14329	0.12084	0.20328	0.19819	0.085514	0.28708	0.2308	0.20866	-3.2896	-3.9396	-3.6083	-3.7521	-4.2729	-3.5667	-4.0938	-4.1146	-3.6167	-4.1687	-3.9917	-3.8229	-4.1667	-3.9813	-3.9729	-4.2854	69.203	-95.148	165.960	-11.598	-102.197	-93.956	123.613	-114.491	-129.260	63.956	179.766	163.148	-135.262	210.529	68.139	188.243	0.0009401	3.2892e-05	3.8358e-05	887.77	2.8318e-06	1.2215e-06	1099.9	336.67	1.6862e-06	1.9981e-06	466.15	199.04	144.02	61.193	1.8871e-06	83.339	3.6355e-05	3.4521e-05	1.0585e-05	688.13	3.6264e-07	3.8534e-07	867.9	252.13	3.6298e-07	3.9699e-07	321.94	134.68	93.065	40.672	4.2569e-07	53.106	117.280	111.922	-115.179	-126.344	-23.932	-64.400	-127.539	-121.520	-12.172	-45.320	-123.495	-120.185	-118.735	-113.422	-70.298	-116.023	-8191	255	
4086.340	1	1	0	0	0.20879	0.23599	0.040333	0.094767	0.23911	0.25077	0.3649	0.041227	0.21279	0.1326	0.10348	0.28794	0.3793	0.29496	0.20274	0.25955	-3.1042	-4.0188	-3.8583	-3.8542	-4.0771	-3.7708	-3.9875	-4.2042	-3.5938	-3.9354	-4.1479	-3.8979	-4.2667	-3.9146	-3.8583	-4.2188	-5.612	200.692	-45.571	-136.587	30.733	120.348	185.584	147.895	147.140	-81.457	-68.967	194.598	143.404	214.971	-126.992	132.931	0.0010337	0.00012308	3.3392e-05	879.58	4.9326e-07	8.2898e-07	1099.4	336.2	1.5006e-06	2.4437e-06	467.24	200.47	146.28	62.174	2.0148e-06	84.47	3.5926e-05	3.7802e-05	1.0527e-05	683.43	3.6544e-07	4.1157e-07	865.92	251.26	3.692e-07	4.1655e-07	321.37	135.67	94.204	41.128	4.0382e-07	53.912	116.520	-33.387	-77.630	-126.363	-31.431	-135.730	-127.739	-121.671	-81.631	-35.361	-123.321	-120.115	-118.704	-113.274	-50.696	-116.354	-8191	255	
4086.436	1	1	0	0	0.17993	0.020835	0.10995	0.18285	0.10183	0.1128	0.21564	0.20757	0.088984	0.2455	0.25971	0.12117	0.22659	0.14992	0.18601	0.15172	-3.3854	-3.8688	-3.95	-3.5667	-4.0104	-3.8937	-3.7646	-4.3271	-3.8917	-3.8979	-4.0229	-3.7396	-4.0958	-4.0813	-3.8125	-4.3333	-5.357	115.871	216.695	42.327	67.066	36.070	110.826	118.043	-123.281	190.332	-124.289	138.644	-133.499	-103.217	-0.060	158.188	0.00088583	0.00020613	5.3183e-05	897.85	2.8828e-06	1.1557e-06	1127.3	340.41	3.6431e-07	6.4478e-07	474.24	208.46	150.43	63.874	1.68e-06	86.826	3.6261e-05	3.8063e-05	9.8899e-06	696.2	3.707e-07	4.1978e-07	885.58	255.57	3.7351e-07	4.2042e-07	327.17	140.91	97.292	42.385	3.7916e-07	55.204	116.319	-56.979	-103.031	-126.330	-27.480	-3.899	-127.639	-121.556	-79.261	33.383	-123.140	-120.219	-119.028	-113.333	-31.373	-116.578	-8191	255	
4086.507	1	1	0	0	0.045809	0.090323	0.11244	0.24592	0.12332	0.031929	0.11957	0.066276	0.12438	0.11447	0.29222	0.21398	0.14011	0.091948	0.19909	0.13047	-3.3458	-3.8208	-4.0813	-3.7958	-4.1521	-3.7812	-3.7687	-4.3229	-3.6958	-3.8125	-4.1396	-3.8104	-4.0854	-4.1521	-3.7604	-4.4042	-10.135	36.797	160.670	173.913	-96.122	-126.991	133.898	166.812	202.455	-5.123	-127.710	190.000	-6.735	-75.141	58.097	150.162	0.0009357	8.3877e-05	4.207e-05	910.06	2.3171e-06	1.8474e-06	1148	347.87	1.9126e-06	1.6552e-06	484.5	215.27	156.41	65.658	4.5456e-07	89.322	3.7409e-05	3.7359e-05	9.5865e-06	704.46	3.8453e-07	4.0208e-07	899.75	260.03	3.8363e-07	3.9069e-07	333.16	145.27	100.67	43.524	3.6583e-07	56.705	117.892	-62.741	-109.894	-126.498	-37.933	-57.862	-127.583	-121.428	-22.459	-41.628	-123.468	-120.382	-118.814	-113.410	32.926	-116.288	-8191	255	
4086.628	1	1	0	0	0.23198	0.20025	0.19996	0.30496	0.29574	0.23453	0.26873	0.1044	0.20944	0.082345	0.067918	0.34698	0.11769	0.21614	0.004835	0.030184	-3.4208	-3.8812	-4.0521	-3.7542	-3.9479	-4.0938	-3.8667	-4.1958	-3.9292	-3.7979	-4.1562	-3.7958	-4.1687	-4.0687	-3.6521	-4.2896	-84.814	75.817	-47.335	169.470	114.265	167.846	186.429	186.852	-22.974	-124.304	-85.456	171.789	150.707	191.340	-67.236	-77.121	0.0011509	0.00022483	5.9483e-05	923.03	8.3247e-07	1.6727e-06	1140.4	344.1	2.0268e-06	1.281e-06	475.18	208.85	151.31	63.902	2.5964e-06	87.143	3.8937e-05	3.6326e-05	9.2294e-06	713.48	4.0733e-07	3.9797e-07	895.62	257.05	4.2169e-07	4.116e-07	327.25	140.98	97.864	42.393	3.9302e-07	55.552	113.544	-63.415	-109.388	-126.557	-16.587	-1.852	-127.688	-121.753	2.473	10.736	-123.282	-120.258	-118.933	-113.470	-68.829	-116.257	-8191	255	
4086.724	1	1	0	0	0.13802	0.086889	0.22915	0.19685	0.097718	0.17069	0.15307	0.18202	0.17265	0.16365	0.15274	0.25858	0.22685	0.14734	0.22603	0.30702	-3.2542	-3.8042	-4.0938	-3.6979	-3.9313	-4.0188	-3.8042	-4.2208	-3.8563	-3.8063	-4.1438	-3.6479	-3.9083	-4.3646	-3.5979	-4.2854	-54.354	-27.552	115.182	165.718	-33.379	-76.939	157.067	158.126	140.538	-66.901	-104.566	206.809	171.709	151.271	173.862	178.251	0.0011251	0.00022389	2.7048e-05	915.82	3.0406e-06	9.093e-07	1130.3	343.71	2.1004e-06	9.908e-07	473.67	207.59	151.19	63.068	1.6702e-06	84.779	4.2231e-05	3.5858e-05	9.2268e-06	709.63	4.2425e-07	3.9092e-07	889.17	257.3	4.4037e-07	3.9771e-07	326.02	140.87	97.674	41.87	3.9058e-07	54.432	116.855	-67.136	-86.133	-126.754	-71.361	-25.375	-127.599	-121.718	-64.117	-11.632	-123.386	-120.408	-118.840	-113.494	-39.032	-116.385	-8191	255	
4086.820	1	1	0	0	0.12773	0.16806	0.085505	0.17587	0.12363	0.066554	0.3178	0.19672	0.30512	0.19979	0.2534	0.11702	0.19918	0.23898	0.18004	0.32081	-3.5417	-3.575	-4.2375	-3.9188	-3.9292	-4.2021	-3.7562	-4.1333	-3.8104	-3.6521	-4.2604	-3.9625	-3.9188	-4.3417	-3.6146	-4.1708	73.339	44.048	74.580	138.797	116.420	-111.371	90.058	189.918	112.182	-115.254	95.860	-122.360	-104.441	162.951	30.536	153.877	0.0010318	0.00026353	5.491e-05	897.04	1.5767e-06	3.3571e-06	1112.6	334.56	1.7957e-06	4.1399e-06	462.5	202.35	146.92	62.273	5.3102e-07	84.622	4.5009e-05	3.9713e-05	1.0434e-05	699.11	4.8614e-07	4.4634e-07	872.83	251.91	4.8975e-07	4.4356e-07	319.77	137.58	95.819	41.428	4.3571e-07	54.387	124.419	-53.369	-62.731	-126.657	-26.678	-21.049	-127.710	-121.670	-38.263	-29.718	-123.251	-120.234	-118.923	-113.409	123.656	-116.196	-8191	255	
4086.939	1	1	0	0	0.26092	0.37101	0.15346	0.17041	0.10273	0.19666	0.22253	0.082285	0.14241	0.091139	0.05856	0.1584	0.15493	0.3392	0.12969	0.13781	-3.5563	-3.7208	-4.0396	-3.7625	-3.8438	-4.25	-3.7958	-4.1708	-4.075	-3.65	-4.2167	-4	-3.7833	-4.3167	-3.6562	-4.1271	163.182	185.898	-121.826	193.476	-76.657	15.598	151.366	163.764	175.081	-39.228	-72.600	169.655	142.681	141.827	-66.040	-53.836	0.0009576	8.6537e-05	3.0623e-05	894.88	2.4073e-06	3.2049e-06	1104.7	334.16	1.4537e-06	1.8972e-06	461.32	201.05	146.52	62.044	2.348e-06	84.477	4.7983e-05	4.1697e-05	1.1152e-05	700.65	4.9464e-07	4.6614e-07	871.47	252.31	5.1603e-07	4.7626e-07	320.83	137.42	95.347	41.274	4.9456e-07	54.461	129.175	-87.263	-112.530	-126.338	-66.942	-41.290	-127.649	-121.490	0.173	-27.992	-123.373	-120.320	-118.806	-113.429	-37.446	-116.166	-8191	255	
4087.035	1	1	0	0	0.15609	0.19715	0.10089	0.10114	0.14352	0.17493	0.091434	0.15116	0.19746	0.075016	0.23659	0.22267	0.31222	0.1748	0.037994	0.22073	-3.775	-3.5083	-4.1333	-4.0792	-3.7	-4.1417	-3.7792	-4.0875	-4.1562	-3.5625	-4.3729	-4.1083	-3.8021	-4.2438	-3.6875	-4.0813	-121.448	-100.535	78.573	142.645	-129.347	-33.151	131.390	104.096	164.146	8.662	169.087	141.832	195.608	-6.659	149.176	152.949	0.0010108	0.00012546	4.9387e-05	891.03	2.2023e-06	2.6045e-06	1104.9	335.06	1.9752e-06	1.8067e-06	464.37	203.35	147.14	62.146	9.934e-07	85.062	5.0511e-05	4.3944e-05	1.2683e-05	701.41	5.1987e-07	4.7989e-07	875.68	253.45	5.2161e-07	4.8612e-07	324.25	138.8	95.856	41.588	5.5088e-07	54.987	126.367	-80.976	171.846	-126.360	-26.679	-3.281	-127.648	-121.494	-5.789	-60.049	-123.367	-119.855	-118.752	-113.317	150.227	-115.926	-8191	255	
4087.107	1	1	0	0	0.16876	0.065922	0.23263	0.1028	0.027	0.23366	0.19498	0.077922	0.046646	0.10174	0.30379	0.27701	0.15457	0.047758	0.050622	0.38854	-3.7417	-3.6208	-4.0458	-4.0188	-3.675	-4.2208	-3.9771	-3.9125	-4.1	-3.8333	-4.2021	-4.0563	-3.8396	-4.3375	-3.8458	-3.8937	172.732	-26.563	100.883	-118.795	207.668	-103.191	130.311	171.084	52.299	215.248	176.178	191.299	-20.351	151.731	-131.596	178.800	0.0010341	0.00023298	2.7978e-05	898.59	1.6891e-06	1.1424e-06	1109.9	334.89	1.979e-06	2.5024e-06	465.31	202.16	146.89	61.773	1.3275e-06	84.095	5.1253e-05	4.5552e-05	1.4056e-05	704.29	5.261e-07	4.9131e-07	879.25	253.79	5.1772e-07	4.8809e-07	324.32	138.15	95.596	41.203	5.6723e-07	54.266	124.277	-76.700	-129.508	-126.737	-60.824	48.778	-127.747	-121.587	5.422	-57.737	-123.504	-120.076	-119.172	-113.369	-19.868	-116.081	-8191	255	
4087.203	1	1	0	0	0.22812	0.25553	0.10492	0.2844	0.11058	0.10429	0.33722	0.28734	0.083228	0.29887	0.11927	0.12385	0.28239	0.0072279	0.39973	0.15676	-3.7604	-3.6417	-4.0125	-4.0042	-3.7854	-4.0042	-3.9479	-3.9354	-4.2354	-3.6729	-4.0625	-4.0354	-3.8604	-4.1104	-3.8979	-3.8063	36.731	96.878	116.742	154.225	-123.303	132.868	150.646	191.423	79.324	-71.173	200.264	216.041	118.974	-39.673	-85.781	130.370	0.0010338	0.00017324	1.4953e-05	890.95	1.0358e-06	1.0927e-06	1096.3	332.9	2.5777e-06	1.5332e-06	462.75	202.72	147.43	61.846	3.3031e-07	84.135	4.9481e-05	4.5686e-05	1.4737e-05	697.35	5.1204e-07	5.0642e-07	872.95	251.95	5.0632e-07	5.0953e-07	323.57	137.9	95.51	41.341	5.7805e-07	54.245	115.174	-22.001	-47.702	-126.597	-111.020	76.948	-127.649	-121.719	-72.526	-107.171	-123.401	-120.267	-118.950	-113.329	200.846	-116.277	-8191	255	
4087.324	1	1	0	0	0.24763	0.22933	0.12557	0.19751	0.14261	0.061639	0.073024	0.19691	0.1308	0.060166	0.20067	0.20886	0.31717	0.10423	0.23361	0.23767	-3.875	-3.7812	-3.9458	-4.0583	-3.5979	-3.9917	-3.9375	-3.8667	-4.0208	-3.8146	-4.0854	-4.1333	-3.5896	-4.15	-4.0146	-3.8021	-134.196	-92.894	191.506	169.286	173.184	-32.848	140.266	-53.208	-91.516	177.170	107.682	-96.517	-132.942	-136.697	165.020	193.437	0.00087077	0.00013165	4.8477e-05	886.81	4.4414e-07	6.0162e-07	1106.6	337.07	1.7538e-06	1.3739e-06	465.16	204.35	149.64	62.724	1.1914e-06	85.647	4.7352e-05	4.6705e-05	1.4545e-05	696.13	4.9255e-07	5.2072e-07	878.95	253.96	4.914e-07	5.3506e-07	325.72	139.62	96.943	41.896	5.6043e-07	54.935	127.351	-71.042	-62.809	-126.266	190.861	-117.366	-127.553	-121.544	-55.971	36.474	-123.604	-119.907	-118.923	-113.360	-8.660	-115.841	-8191	255	
4087.420	1	1	0	0	0.25911	0.11121	0.21702	0.14372	0.051203	0.15521	0.10376	0.11885	0.078674	0.2888	0.21053	0.22436	0.27908	0.11155	0.10756	0.052739	-3.7792	-3.7771	-3.8521	-4.15	-3.65	-4.0312	-4.05	-3.6146	-3.9979	-3.7667	-3.775	-4.225	-3.8042	-4.0042	-3.9542	-3.8208	32.549	150.373	146.691	220.053	15.050	10.942	153.587	110.602	43.147	-61.333	163.941	185.961	177.352	187.357	-46.227	99.088	0.0010317	0.00024167	5.5989e-05	897.88	2.8347e-06	1.6184e-06	1117	340.07	8.2882e-07	6.6553e-08	471.51	207	150.24	63.017	1.372e-06	86.11	4.6785e-05	4.9833e-05	1.4133e-05	702.35	4.9037e-07	5.583e-07	885.81	256.41	5.0222e-07	5.7998e-07	328.77	140.67	97.646	42.337	5.7734e-07	55.488	127.466	-59.995	-98.326	-126.547	-61.657	-121.634	-127.659	-121.578	-102.116	196.473	-123.416	-120.245	-119.074	-113.353	-87.845	-116.214	-8191	255	
4087.516	1	1	0	0	0.23355	0.16151	0.026679	0.1864	0.14701	0.10391	0.022918	0.14675	0.15279	0.063675	0.28148	0.21426	0.14744	0.18299	0.11599	0.106	-3.7375	-3.6583	-3.7354	-4.2063	-3.6688	-4	-4.1958	-3.7917	-4.1667	-3.8125	-3.7875	-4.15	-3.8125	-4.0021	-3.9208	-3.6958	-3.333	-96.386	-89.983	-130.344	-133.985	189.801	-34.938	137.678	-36.923	21.155	-76.026	206.211	173.183	187.928	197.618	-58.767	0.0010807	0.00012399	8.9017e-05	895.78	9.6622e-07	1.6576e-06	1118.2	339.54	2.4075e-07	1.2901e-06	469.08	206.62	148.51	62.608	2.2869e-06	85.286	5.053e-05	5.5779e-05	1.4663e-05	702.35	5.3981e-07	6.1972e-07	888.09	255.69	5.4636e-07	6.1536e-07	327.91	140.52	97.2	42.142	5.7007e-07	54.924	122.258	-106.569	-64.126	-126.599	-35.498	-40.791	-127.429	-121.633	88.045	-12.552	-123.065	-120.259	-118.734	-113.437	3.960	-115.991	-8191	255	
4087.612	1	1	0	0	0.061982	0.14217	0.099546	0.10353	0.1604	0.12009	0.31779	0.16472	0.082561	0.091387	0.066878	0.15717	0.26448	0.017167	0.29332	0.10691	-3.7417	-4.0979	-3.7625	-4.1125	-3.7125	-3.9208	-4.2562	-3.8104	-4.0979	-3.9729	-3.7833	-4.3875	-3.8646	-3.9396	-4.125	-3.6167	179.885	110.895	181.128	58.032	-134.692	148.466	207.595	-124.517	178.608	-60.315	137.780	126.594	182.111	-3.183	-53.687	-108.987	0.00099189	6.9279e-05	0.00010739	887.54	6.1682e-07	1.1275e-06	1104.9	334.69	8.6488e-07	8.2426e-07	462.25	201.85	146.26	61.679	1.3603e-06	84.074	5.4351e-05	5.6252e-05	1.4515e-05	695	5.9444e-07	6.4078e-07	876.91	253.16	6.2673e-07	6.5285e-07	323.63	137.88	96.52	41.57	5.9118e-07	54.198	114.677	-36.918	-96.661	-126.646	89.031	-16.592	-127.729	-121.535	213.318	26.269	-123.300	-120.055	-118.899	-113.394	0.186	-116.238	-8191	255	
4087.708	1	1	0	0	0.28718	0.26711	0.14547	0.22916	0.24104	0.068293	0.061956	0.1204	0.11344	0.20326	0.19573	0.23582	0.031848	0.082012	0.1794	0.40015	-3.6521	-4.0813	-3.5292	-4.2646	-3.8333	-3.7812	-4.2271	-3.7438	-4	-4.0604	-3.8958	-4.2208	-3.9417	-3.9729	-4.1813	-3.9813	34.918	-99.905	189.759	201.279	4.048	-11.078	213.146	55.613	84.175	103.058	106.901	-129.452	161.149	-137.875	215.975	120.654	0.00093919	0.00021274	7.1989e-05	885.16	1.8426e-06	3.8172e-06	1105.3	334.45	1.7419e-06	9.7829e-07	462.61	203.02	148.19	62.097	1.8074e-06	84.658	6.105e-05	5.8397e-05	1.498e-05	696.38	6.5411e-07	6.3795e-07	878.2	254.18	6.6075e-07	6.3325e-07	324.46	138.89	97.485	41.781	5.8185e-07	54.71	121.587	-16.036	-115.381	-126.500	-73.257	-59.034	-127.823	-121.463	-43.886	17.498	-123.463	-120.153	-118.922	-113.368	-19.744	-116.335	-8191	255	
4087.805	1	1	0	0	0.091459	0.022453	0.23754	0.10861	0.098503	0.065088	0.29378	0.22457	0.05575	0.12686	0.093337	0.22193	0.11574	0.17403	0.11965	0.11606	-3.7125	-4.0312	-3.6104	-4.2792	-3.6813	-3.7375	-4.2333	-3.6354	-3.825	-4.0896	-3.6042	-4.2229	-3.9188	-3.6813	-4.0583	-3.9313	-72.593	137.040	63.857	129.196	-127.786	77.934	194.947	209.818	64.795	191.746	-24.026	-138.328	-138.350	171.199	-70.176	-67.800	0.0011908	0.00038529	2.0985e-05	892.4	2.9375e-06	1.8441e-06	1117.7	338.35	4.8098e-07	2.6091e-06	467.96	206.62	150.74	63.422	2.4622e-06	86.77	6.328e-05	5.6564e-05	1.4506e-05	704.03	6.6318e-07	5.9731e-07	884.75	256.32	6.4343e-07	5.8003e-07	326.56	141.25	98.778	42.402	5.2628e-07	55.873	120.780	-60.946	-92.031	-126.558	-12.576	-49.277	-127.646	-121.683	-52.536	-42.540	-123.312	-120.296	-119.108	-113.412	-38.656	-116.490	-8191	255	
4087.901	1	1	0	0	0.29109	0.13421	0.27169	0.014674	0.2434	0.12538	0.080736	0.058667	0.12916	0.20359	0.30937	0.065429	0.13562	0.13671	0.077375	0.10068	-3.6208	-3.9667	-3.6604	-4.2292	-3.8979	-3.7792	-4.525	-3.9521	-3.6813	-4.2188	-3.8063	-4.1771	-3.9646	-3.9021	-4.1604	-3.9042	-105.791	-106.306	166.276	75.107	-114.549	122.850	161.632	-28.682	156.637	194.449	185.167	138.473	-53.432	-124.866	176.563	154.376	0.00095463	0.0001657	6.2896e-05	903.37	3.4773e-06	1.6439e-06	1127.8	342.12	2.503e-06	1.6267e-06	473.83	210.5	152.47	64.438	8.3645e-07	87.286	5.8366e-05	5.0053e-05	1.3018e-05	709.06	5.9227e-07	5.3665e-07	890.93	258.78	5.8323e-07	5.3383e-07	329.54	143.94	99.658	42.956	4.9601e-07	56.482	121.140	-90.250	-76.730	-126.645	-47.570	-2.163	-127.451	-121.641	-35.794	-53.258	-123.165	-120.177	-119.118	-113.366	-65.157	-116.341	-8191	255	
4088.020	1	1	0	0	0.18916	0.18626	0.042956	0.32692	0.15833	0.061354	0.12169	0.18732	0.20032	0.059683	0.36716	0.057679	0.095625	0.32645	0.11943	0.10814	-3.5458	-4.0521	-3.5875	-4.1312	-3.9938	-3.6479	-4.2333	-3.9333	-3.6	-4.1354	-3.7021	-3.95	-4.0896	-3.8271	-4.05	-3.8833	46.921	-26.636	126.367	-136.003	-32.184	134.963	178.676	148.102	174.312	-96.490	175.765	-102.975	-44.841	220.309	84.518	161.094	0.0011467	0.00021477	5.3534e-05	898.42	4.3807e-06	2.0541e-06	1110.6	336.49	1.8157e-06	1.9163e-06	466.13	203.3	148.51	62.974	6.6862e-07	85.372	5.4448e-05	4.8114e-05	1.3002e-05	709.39	5.8187e-07	5.3812e-07	882.31	255.43	5.904e-07	5.4183e-07	324.45	139.86	97.211	42.008	5.4923e-07	55.304	124.673	-28.123	-95.503	-126.549	-42.310	-9.452	-127.763	-121.634	-32.897	18.717	-123.312	-120.124	-119.092	-113.250	139.440	-116.276	-8191	255	
4088.116	1	1	0	0	0.23237	0.048244	0.20498	0.18084	0.19483	0.11375	0.31325	0.21493	0.35625	0.2128	0.15043	0.066214	0.041528	0.22018	0.20759	0.16523	-3.3833	-4.1292	-3.6792	-3.9292	-3.9458	-3.5792	-4.3021	-4.0062	-3.625	-4.0687	-3.9125	-4.0312	-4.0938	-3.7646	-4.1354	-4.1479	-59.209	-122.479	87.683	146.535	97.461	18.206	144.518	202.081	58.187	86.142	171.104	-91.564	-118.718	-132.056	175.129	66.072	0.00098531	0.00024742	5.2865e-05	892.65	2.498e-06	1.9376e-06	1102.6	335.25	3.9491e-06	1.4492e-06	459.68	202.15	145.96	61.492	2.5968e-06	83.624	5.4801e-05	4.8508e-05	1.4096e-05	705.51	5.8199e-07	5.4567e-07	878.75	254.88	6.095e-07	5.7268e-07	323.57	138.34	96.08	41.305	6.7565e-07	54.535	125.842	-27.849	-123.813	-126.493	-36.283	17.438	-127.696	-121.671	-12.491	68.548	-123.198	-120.318	-119.016	-113.434	-78.578	-116.297	-8191	255	
4088.212	1	1	0	0	0.13674	0.14997	0.074038	0.12413	0.086406	0.18787	0.14228	0.17677	0.36922	0.044164	0.25129	0.39883	0.24989	0.20044	0.075268	0.10866	-3.3937	-4.2417	-3.7354	-3.7729	-4.0396	-3.5812	-4.2771	-3.95	-3.6917	-4.1729	-3.7667	-3.7625	-4.2667	-3.7958	-3.8542	-4.225	-73.311	113.499	32.904	112.958	-120.242	101.043	156.927	-129.780	67.925	-136.112	-26.451	159.625	158.344	-108.597	87.495	181.249	0.00090154	0.00017825	4.9086e-05	886.63	1.3847e-06	3.0196e-06	1100.6	334.51	2.5327e-06	2.0381e-06	462.07	198.64	145.75	60.938	5.1105e-07	83.319	6.3838e-05	5.7585e-05	1.8209e-05	707.27	6.9644e-07	6.5442e-07	882.77	255.82	7.052e-07	6.7106e-07	326.67	137.87	96.225	41.241	8.1418e-07	54.416	124.225	-88.034	-106.356	-126.601	-37.398	-43.237	-127.627	-121.569	-39.159	3.073	-123.268	-120.157	-118.724	-113.399	24.264	-116.156	-8191	255	
4088.308	1	1	0	0	0.24114	0.038597	0.21831	0.21089	0.075846	0.22151	0.068811	0.23037	0.18917	0.32804	0.16273	0.085033	0.077318	0.21457	0.12599	0.18937	-3.25	-3.9521	-3.8	-3.9062	-4.2333	-3.7583	-4.0813	-4.2292	-3.6208	-4.175	-3.925	-3.8917	-4.3271	-3.7812	-3.875	-4.0417	-82.277	-97.244	61.969	154.008	50.595	-26.124	6.713	122.929	-74.155	-1.815	-138.926	191.378	-87.710	-111.490	-116.382	138.739	0.0010528	6.502e-05	3.6563e-05	890.78	1.9387e-06	1.8563e-06	1103.1	334.4	2.2009e-06	2.659e-07	463.63	200.46	144.83	61.198	6.8426e-07	83.659	7.0149e-05	6.5509e-05	2.1287e-05	710.3	7.401e-07	7.2918e-07	890.37	256.88	7.4394e-07	7.4945e-07	330.07	138.63	96.332	41.554	8.8623e-07	54.827	122.894	93.912	-106.278	-126.691	-110.321	-70.159	-127.570	-121.616	-5.749	-87.960	-123.272	-120.132	-118.951	-113.202	-92.579	-116.286	-8191	255	
4088.402	1	1	0	0	0.16102	0.20515	0.16709	0.2151	0.17187	0.038984	0.13646	0.35356	0.1219	0.053849	0.10438	0.20153	0.16475	0.27788	0.14673	0.2324	-3.3688	-4.0208	-3.9354	-3.775	-4.0708	-3.7104	-3.9646	-4.2854	-3.6875	-4.2458	-4.0396	-3.8354	-4.2125	-3.9375	-3.8958	-4.1521	115.030	-69.551	19.384	176.887	-70.795	49.875	165.055	-126.407	171.015	85.698	-26.049	186.562	71.426	184.285	-64.710	125.693	0.00097564	0.00015813	4.592e-05	888.88	1.717e-06	8.7086e-07	1106.8	335	6.1036e-07	1.4398e-06	465.03	200.98	145.02	61.172	3.6466e-06	83.589	7.2134e-05	7.3085e-05	2.2415e-05	710.93	7.4903e-07	8.096e-07	893.02	256.78	7.5362e-07	8.1641e-07	330.52	138.91	96.292	41.631	8.7647e-07	54.69	114.286	41.321	215.718	-126.483	-38.028	-24.274	-127.679	-121.842	133.466	153.699	-123.341	-120.066	-118.727	-113.455	-11.238	-116.017	-8191	255	
4088.499	1	1	0	0	0.12166	0.17229	0.17753	0.19823	0.028465	0.17744	0.097635	0.02954	0.15706	0.11205	0.26787	0.19402	0.071527	0.091473	0.13925	0.11955	-3.3	-4.0271	-3.825	-3.8542	-4.1271	-3.85	-3.9104	-4.1375	-3.7833	-4.2125	-4.1917	-3.8604	-4.2333	-4.0104	-3.9062	-4.2042	128.796	187.484	46.811	-100.907	203.092	-92.351	14.727	185.429	202.110	84.046	-119.543	155.874	113.770	154.998	123.523	176.553	0.00096473	0.0001167	4.9339e-05	883.19	2.0343e-06	9.314e-07	1097.9	332.09	2.4693e-06	2.0932e-06	459.65	197.28	143.77	60.381	2.6412e-06	81.914	7.2021e-05	7.8549e-05	2.2262e-05	706.47	7.6637e-07	8.6955e-07	886.74	254.84	7.6184e-07	8.8495e-07	326.11	136.6	95.597	41.2	8.5837e-07	53.692	124.036	74.676	-117.273	-126.461	11.006	84.584	-127.808	-121.631	-45.627	-59.940	-123.620	-120.096	-118.532	-113.367	-36.107	-116.054	-8191	255	
4088.619	1	1	0	0	0.016845	0.069718	0.12608	0.09873	0.076901	0.11144	0.055134	0.32614	0.32771	0.31402	0.1284	0.050794	0.18249	0.040425	0.14249	0.066547	-3.3625	-3.8458	-4.0188	-3.6729	-4.3229	-3.8646	-3.9042	-4.3625	-3.5771	-4.0104	-4.3854	-3.7292	-4.1438	-3.9583	-3.7042	-4.3333	32.644	89.634	130.827	-101.410	-131.777	-56.605	174.159	185.434	-61.455	-42.865	156.660	66.931	105.014	157.511	142.056	-13.333	0.0011922	0.00015804	1.9824e-05	882.86	1.4617e-06	1.9879e-06	1095	331.47	6.8286e-07	1.5359e-06	456.09	197.14	142.09	59.882	2.7159e-06	81.996	7.4001e-05	8.3412e-05	2.203e-05	705.08	8.0959e-07	9.32e-07	882.95	254.22	8.1738e-07	9.2423e-07	324.69	136.17	95.352	41.126	8.4382e-07	53.646	116.300	-68.309	-79.006	-126.568	-124.004	192.986	-127.576	-121.721	111.612	169.236	-123.660	-120.222	-118.806	-113.201	-17.081	-116.038	-8191	255	
4088.715	1	1	0	0	0.19793	0.2041	0.091459	0.089254	0.30539	0.16764	0.16103	0.17234	0.18299	0.074217	0.182	0.13975	0.19725	0.28406	0.27088	0.37487	-3.3708	-3.7188	-4.0854	-3.7833	-4.1042	-3.9021	-3.8312	-4.4542	-3.7292	-3.9667	-4.2375	-3.6813	-4.1417	-4.2833	-3.6813	-4.3396	-18.210	1.542	34.668	168.343	156.262	-18.436	135.292	130.473	91.603	106.751	98.926	209.521	-19.704	202.225	-137.333	149.028	0.00096726	0.0003158	8.182e-05	886.4	4.0913e-07	2.3917e-06	1100.8	330.01	4.8861e-07	1.3292e-06	457.25	195.55	142.93	60.001	1.9668e-06	82.268	7.9683e-05	8.5065e-05	2.1536e-05	707.21	8.6956e-07	9.2747e-07	886.13	254	8.8655e-07	9.301e-07	324.95	136.12	95.946	41.132	8.5908e-07	54.008	113.142	-98.502	-58.351	-126.696	110.646	18.922	-127.599	-121.551	-117.671	-52.463	-123.254	-120.342	-118.912	-113.268	-105.652	-116.320	-8191	255	
4088.811	1	1	0	0	0.13304	0.054878	0.1649	0.22266	0.15804	0.11698	0.26619	0.053122	0.13683	0.22551	0.10052	0.17064	0.11466	0.14575	0.12534	0.2163	-3.3667	-3.8187	-4.2188	-3.6396	-3.8979	-3.9021	-3.8667	-4.1896	-3.6708	-3.7729	-4.0208	-3.7812	-4.0938	-4.0625	-3.7062	-4.0792	75.199	-100.702	-57.754	74.899	152.925	-113.240	173.657	135.091	-100.191	-24.864	95.837	-44.256	26.967	-111.350	-43.230	149.619	0.0010214	0.00042561	4.0918e-05	887.42	9.5998e-07	1.4396e-06	1107.5	331.25	1.2299e-06	2.6052e-06	457.14	195.93	143.46	60.307	1.8457e-06	82.752	8.8003e-05	8.5961e-05	2.2197e-05	710.84	9.7111e-07	9.6229e-07	891.89	255.02	1.0139e-06	9.8633e-07	326.31	136.99	97.273	41.486	9.4487e-07	54.599	133.751	-72.754	-2.604	-126.644	-68.247	-16.417	-127.559	-121.642	59.407	13.688	-123.423	-120.122	-118.610	-113.028	-40.709	-116.231	-8191	255	
4088.908	1	1	0	0	0.35932	0.11457	0.10104	0.21691	0.09547	0.086739	0.2943	0.25411	0.21934	0.20467	0.23686	0.29995	0.14893	0.067662	0.16532	0.074814	-3.6208	-3.6708	-4.1125	-3.7646	-3.8542	-4.1146	-3.7313	-4.2229	-3.7271	-3.6937	-4.2396	-3.7562	-3.9042	-4.1729	-3.5208	-4.1542	203.408	146.378	36.645	156.177	206.777	83.289	153.494	160.911	-53.913	-96.712	-139.738	201.574	-111.305	-93.112	-13.275	20.058	0.00093841	0.00039984	3.012e-05	897.24	1.5813e-06	1.179e-06	1109.5	332.38	6.8699e-07	1.8859e-06	454.52	195.1	142.05	59.424	9.4036e-07	81.446	0.00010164	9.2326e-05	2.3847e-05	720.47	1.0827e-06	9.9215e-07	896.37	256.84	1.0668e-06	9.707e-07	324.64	136.09	96.246	40.781	9.1056e-07	53.917	112.320	-49.013	0.939	-126.431	-72.405	-33.916	-127.774	-121.776	73.922	-27.470	-123.448	-120.139	-118.803	-113.184	-59.065	-116.042	-8191	255	
4089.004	1	1	0	0	0.016548	0.1346	0.058118	0.16961	0.19628	0.15774	0.21001	0.17534	0.10697	0.19062	0.13788	0.13378	0.041955	0.12961	0.15059	0.16524	-3.6104	-3.5667	-4.0958	-3.7313	-3.9667	-4.075	-3.6312	-4.0729	-3.9104	-3.6854	-4.2354	-3.8896	-3.8896	-4.1208	-3.7125	-4.0708	118.647	-117.445	109.371	204.946	27.804	126.708	159.737	203.412	130.348	-58.888	154.836	104.810	197.376	-42.268	-44.643	173.467	0.00086697	0.00026144	2.0842e-05	887.14	1.4597e-06	3.2688e-06	1090.4	326.97	9.7967e-07	3.1603e-06	446.68	190.98	139.19	58.471	3.0894e-06	80.175	0.00010141	9.051e-05	2.3598e-05	721.39	1.1077e-06	1.0216e-06	886.63	255.43	1.1223e-06	1.0224e-06	321.29	134.86	95.109	40.286	9.7137e-07	53.557	106.391	-49.148	-125.937	-126.665	-58.834	-41.569	-127.427	-121.698	-27.906	1.440	-123.619	-119.952	-118.519	-113.390	-59.139	-116.063	-8191	255	
4089.100	1	1	0	0	0.038989	0.13174	0.069151	0.012916	0.26295	0.057128	0.17428	0.089559	0.19021	0.20114	0.29784	0.25617	0.032057	0.10283	0.097035	0.28246	-3.7146	-3.35	-4.1083	-3.8792	-3.5687	-4.175	-3.8021	-4.0771	-4.0146	-3.5375	-4.2812	-3.9396	-3.8521	-4.1625	-3.5833	-4.15	54.457	201.027	-49.518	177.214	60.213	49.820	171.740	-120.395	17.537	75.001	201.681	89.511	186.134	-38.355	136.103	-102.079	0.00078315	0.00021791	5.0182e-05	885.05	4.0787e-06	2.1631e-06	1098.6	328.11	1.7612e-06	2.8059e-07	447.78	190.73	138.69	58.319	1.0424e-06	80.243	0.00010263	9.1502e-05	2.4637e-05	722.42	1.0887e-06	1.0066e-06	890.15	256.91	1.1112e-06	1.039e-06	323.02	135.35	95.118	40.343	1.1115e-06	53.973	123.861	-65.995	0.674	-126.366	-35.469	17.924	-127.891	-121.659	-44.680	140.768	-123.412	-120.205	-118.429	-113.164	142.126	-116.236	-8191	255	
4089.196	1	1	0	0	0.075385	0.098612	0.058029	0.17305	0.12062	0.15414	0.2298	0.28232	0.15356	0.034802	0.23462	0.12839	0.26681	0.42768	0.17087	0.066939	-3.7104	-3.6771	-4.0062	-4.0188	-3.6625	-4.1167	-3.7604	-3.95	-3.8937	-3.5187	-4.275	-4.0854	-3.7313	-4.2125	-3.6937	-4.0417	-79.391	88.524	177.873	171.247	46.509	-97.540	-130.301	144.597	80.319	-76.113	117.945	178.566	184.128	219.182	181.044	42.454	0.00090631	0.00023442	1.0448e-05	889.38	4.0296e-06	4.5535e-06	1096.9	325.67	3.4155e-06	2.141e-06	447.39	191.31	140.14	58.542	1.6692e-06	80.735	0.0001087	9.933e-05	2.8645e-05	731.88	1.1666e-06	1.0767e-06	896.54	257.08	1.1495e-06	1.0712e-06	325.53	136.14	95.324	40.462	1.175e-06	54.395	132.216	-95.240	202.908	-126.594	-41.950	-44.360	-127.689	-121.551	-25.616	4.199	-123.388	-119.942	-118.449	-113.168	-132.243	-116.321	-8191	255	
4089.292	1	1	0	0	0.087808	0.13634	0.047437	0.11348	0.044592	0.19308	0.19454	0.041296	0.23955	0.33301	0.13522	0.28496	0.21625	0.13461	0.1629	0.29128	-3.8896	-3.5667	-3.8729	-3.8417	-3.5875	-4.225	-3.9729	-3.8688	-4.0521	-3.5208	-4.0833	-4.0375	-3.9229	-4.325	-3.7042	-3.7708	106.008	198.799	190.815	184.628	-107.749	188.907	137.863	69.142	45.524	68.436	-130.133	117.939	-122.944	191.441	166.371	146.813	0.0011047	0.00022681	5.0492e-05	887.95	1.0223e-06	1.149e-06	1104	327.83	2.5813e-06	2.9225e-06	449.24	192.05	138.72	58.505	1.6221e-06	80.633	0.00010515	9.7467e-05	3.024e-05	731.63	1.1497e-06	1.0875e-06	905.51	258.05	1.1629e-06	1.1004e-06	328.69	136.5	95.414	40.61	1.2911e-06	54.504	109.695	-56.877	162.105	-126.455	11.041	-40.096	-127.649	-121.577	-49.436	-16.336	-123.281	-120.008	-118.764	-113.242	138.506	-116.074	-8191	255	
4089.411	1	1	0	0	0.19249	0.044709	0.27462	0.062716	0.294	0.23062	0.048426	0.25793	0.072371	0.017849	0.18735	0.16928	0.16565	0.32048	0.30617	0.13567	-3.8396	-3.7562	-4.0458	-4.175	-3.8708	-3.9813	-3.8646	-3.8396	-4.1396	-3.6625	-4.2042	-3.95	-3.7083	-4.2188	-3.9688	-4.0062	-0.313	165.328	53.624	207.408	60.252	48.646	140.381	127.971	76.870	-26.363	175.041	142.862	122.294	154.575	-33.276	122.368	0.0011318	7.0025e-05	4.6809e-05	886.89	4.4045e-06	3.2114e-06	1093.1	322	3.5084e-06	3.043e-06	441.57	186.87	136.3	57.054	1.2614e-06	78.676	0.00010923	0.00010446	3.3719e-05	730.77	1.1884e-06	1.1814e-06	905.54	255.28	1.2224e-06	1.2438e-06	327.3	133.78	93.942	39.99	1.4432e-06	53.291	127.488	180.430	110.285	-126.312	15.799	27.809	-127.653	-121.740	-58.565	204.128	-123.237	-119.939	-118.663	-113.300	93.931	-116.053	-8191	255	
4089.507	1	1	0	0	0.1429	0.15822	0.073961	0.24765	0.27723	0.1472	0.20115	0.11487	0.05665	0.17783	0.21681	0.22396	0.19553	0.12608	0.099573	0.084236	-3.9292	-3.6521	-3.9021	-4.2125	-3.3625	-4.1896	-4.125	-3.7542	-4.2458	-3.8042	-3.9708	-4.2104	-3.7167	-4.0917	-3.7708	-3.675	143.929	-53.299	-53.861	178.270	6.234	-126.973	173.173	129.685	-103.476	69.875	184.837	123.715	-128.192	-101.238	142.437	-124.915	0.0010175	0.00010823	9.5301e-05	877.06	3.7412e-06	7.0409e-07	1088.2	319.37	4.0411e-07	2.5017e-06	437.43	185.44	134.62	56.616	2.8112e-06	78.627	0.00011446	0.0001179	3.6558e-05	727.67	1.2256e-06	1.3138e-06	902.07	253.29	1.2296e-06	1.3573e-06	326.09	132.81	93.292	40.058	1.4563e-06	53.108	133.305	-126.089	-124.148	-126.549	-47.508	-8.620	-127.676	-121.691	60.734	173.992	-123.275	-119.894	-118.551	-113.362	-20.806	-116.271	-8191	255	
4089.603	1	1	0	0	0.13236	0.077199	0.25771	0.060251	0.026571	0.14435	0.11117	0.17631	0.20656	0.16091	0.23807	0.23866	0.17792	0.15276	0.098805	0.25075	-3.8083	-3.6	-3.7812	-4.1792	-3.6	-4.0417	-4.2125	-3.775	-4.1729	-3.7125	-3.7875	-4.2438	-3.6854	-3.9917	-4.075	-3.7604	83.371	-40.943	195.590	202.557	157.472	149.897	142.330	196.841	161.136	-70.305	183.180	211.721	146.023	164.973	-101.481	172.511	0.00091374	0.00019831	0.00010306	881.78	2.6108e-06	3.3791e-06	1096.7	320.21	5.1244e-07	6.6349e-07	438.96	185.52	134.67	56.512	3.2266e-06	78.053	0.00011578	0.00012891	3.6936e-05	731.47	1.2659e-06	1.4618e-06	907.61	254.53	1.3085e-06	1.5211e-06	327.52	133.14	94.139	40.384	1.5074e-06	53.363	124.458	211.977	-65.334	-126.607	-33.905	209.142	-127.641	-121.566	104.224	130.179	-123.400	-120.227	-118.827	-113.208	-40.663	-116.054	-8191	255	
4089.700	1	1	0	0	0.1862	0.08695	0.17059	0.085581	0.11142	0.10593	0.22029	0.19013	0.22208	0.099013	0.1648	0.29017	0.21992	0.18662	0.22782	0.16058	-3.8104	-3.8542	-3.7958	-4.2667	-3.7833	-4.0854	-4.3333	-3.7479	-4.1104	-4.0208	-3.8833	-4.3479	-3.7792	-3.9125	-4.0021	-3.8583	-14.682	-15.006	14.901	68.568	92.773	65.460	216.495	-16.005	209.204	183.665	130.536	-28.768	-113.599	201.053	152.021	197.740	0.0010678	0.00017168	0.0001029	887.36	2.8651e-06	1.8976e-06	1097.5	319.98	1.4605e-06	2.2105e-06	442.24	187.7	135.51	57.108	1.1835e-06	78.88	0.00012836	0.0001469	3.8318e-05	736.51	1.4039e-06	1.6224e-06	911.98	255.41	1.4175e-06	1.6191e-06	329.02	134.62	95.476	40.834	1.4973e-06	53.785	119.608	2.307	-117.937	-126.552	143.069	139.743	-127.676	-121.498	-112.624	126.303	-123.477	-120.003	-118.771	-113.195	-25.352	-116.202	-8191	255	
4089.796	1	1	0	0	0.14266	0.10577	0.081486	0.14996	0.056148	0.16615	0.17683	0.13702	0.16676	0.1166	0.24753	0.27498	0.22029	0.36831	0.20612	0.091652	-3.7229	-3.9125	-3.6354	-4.3146	-3.6292	-3.9437	-4.3375	-3.6188	-4.1062	-4.0062	-3.7083	-4.2333	-3.875	-3.9688	-4.0708	-3.8896	-43.262	83.664	98.408	190.109	204.767	-89.073	96.345	137.166	64.751	105.243	149.002	180.848	220.061	169.565	196.637	131.689	0.0013865	0.00015601	5.2451e-05	889.8	8.9184e-07	3.2867e-06	1106.7	322.82	2.8607e-06	4.7588e-06	442.39	188.24	135.59	56.848	1.811e-06	78.783	0.00013915	0.00015192	3.8491e-05	739.23	1.5443e-06	1.6543e-06	919.66	256.34	1.558e-06	1.63e-06	328.69	134.62	96.156	40.524	1.4299e-06	53.44	121.325	196.146	214.983	-126.581	-137.427	-91.354	-127.543	-121.525	201.858	-5.938	-123.420	-120.156	-118.851	-113.051	-50.581	-115.860	-8191	255	
4089.892	1	1	0	0	0.078114	0.16459	0.067003	0.052423	0.049449	0.04905	0.27445	0.16195	0.0487	0.15389	0.20057	0.18749	0.27764	0.34933	0.1057	0.12645	-3.4667	-3.9313	-3.6229	-4.25	-3.7313	-3.6771	-4.2375	-3.8833	-4.0542	-3.9979	-3.7062	-4.2167	-3.8438	-3.7792	-4.1083	-3.6479	-116.760	-1.151	192.887	96.767	32.446	22.787	88.296	170.775	136.522	-49.881	184.507	200.216	171.000	192.025	41.124	205.568	0.0011308	0.00036331	0.00010696	882.52	5.3642e-07	4.0411e-06	1097.2	320.55	9.5876e-07	3.8822e-06	439.98	185.47	134.64	55.86	1.6337e-06	77.663	0.00014018	0.00013712	3.47e-05	730.48	1.4859e-06	1.4553e-06	904.79	254.03	1.4759e-06	1.4211e-06	324.07	132.74	95.349	39.721	1.3021e-06	52.702	122.760	-50.610	-72.610	-126.613	-132.921	-12.417	-127.867	-121.433	-108.386	-38.427	-123.280	-120.099	-118.437	-113.190	-6.898	-116.166	-8191	255	
4089.988	1	1	0	0	0.10572	0.22088	0.025034	0.17497	0.075693	0.31771	0.17684	0.16624	0.15238	0.2205	0.24758	0.10215	0.06666	0.28127	0.18412	0.15866	-3.6	-3.8312	-3.4688	-4.15	-3.8875	-3.8187	-4.3708	-3.8	-3.9771	-4.0521	-3.6729	-4.0813	-3.8833	-3.95	-4.0104	-3.8917	122.303	58.800	145.314	216.353	9.524	56.263	155.001	93.915	104.808	75.724	214.103	-108.435	128.645	174.940	33.389	200.701	0.0011284	0.00045007	4.7275e-05	881.16	3.0337e-06	4.5098e-06	1091.8	321.65	3.5067e-06	3.1337e-06	442.7	187.2	135.66	56.276	2.3779e-06	78.03	0.00013641	0.00012477	3.201e-05	728.12	1.4528e-06	1.3247e-06	896.5	254.62	1.4294e-06	1.3108e-06	323.18	133.65	95.304	39.588	1.2178e-06	53.134	116.945	-44.702	211.725	-126.539	-82.443	-12.551	-127.553	-121.609	-109.658	19.705	-123.096	-120.201	-118.614	-112.847	-19.569	-115.927	-8191	255	
4090.109	1	1	0	0	0.19692	0.060261	0.34915	0.56331	0.093874	0.10118	0.048726	0.28117	0.10115	0.19837	0.097661	0.15115	0.027363	0.30296	0.11776	0.13647	-3.5521	-4.0479	-3.7021	-4.1583	-3.9688	-3.5938	-4.2146	-3.9542	-3.8854	-4.0917	-3.7292	-4.0687	-3.9542	-3.8292	-4.1229	-3.8917	116.626	-50.393	-137.067	207.479	61.362	-115.023	101.662	152.036	127.934	60.632	165.622	177.492	-122.552	204.320	-35.463	97.970	0.00074145	0.0002802	7.8623e-05	883.21	2.2654e-06	1.2498e-06	1102.9	322.47	3.6703e-06	2.4788e-06	444.34	188.03	136.62	56.647	5.1758e-07	79.002	0.00013038	0.00011625	3.0056e-05	731.21	1.3932e-06	1.2606e-06	901.02	256.2	1.3655e-06	1.2428e-06	324.25	134.39	95.003	39.517	1.1474e-06	53.469	118.908	43.040	-82.314	-126.699	206.350	-60.892	-127.620	-121.633	28.887	-40.015	-123.523	-120.109	-118.387	-113.028	-75.222	-115.881	-8191	255	
4090.205	1	1	0	0	0.1286	0.08383	0.21573	0.11004	0.28215	0.32956	0.27171	0.28521	0.11735	0.10608	0.095289	0.1454	0.22262	0.30116	0.2227	0.038268	-3.5521	-4.0167	-3.5208	-4.0771	-3.7521	-3.6271	-4.2937	-4.1042	-3.625	-4.075	-3.6792	-4.0229	-4.1188	-3.6979	-4.275	-4.0312	-2.933	-36.020	67.142	175.123	-11.000	-16.253	168.930	158.992	-123.586	126.600	27.569	-129.059	-120.380	183.911	162.549	218.651	0.00080165	0.00033677	5.5892e-05	888.14	3.384e-06	1.7604e-06	1104.4	324.33	1.8969e-06	9.5257e-07	444.26	189.29	136.32	56.725	6.8059e-07	79.376	0.00012099	0.00010986	2.954e-05	737.33	1.3006e-06	1.2037e-06	904.32	257.6	1.3038e-06	1.2142e-06	325.97	135.9	95.192	39.684	1.2476e-06	54.108	128.254	-79.982	-76.027	-126.565	-42.846	-40.629	-127.581	-121.709	15.454	94.456	-123.295	-119.795	-118.372	-112.936	-103.469	-115.714	-8191	255	
4090.301	1	1	0	0	0.099919	0.055062	0.20581	0.23481	0.080137	0.052371	0.16488	0.12354	0.38124	0.23006	0.10191	0.12972	0.13567	0.27122	0.12421	0.1404	-3.1833	-4	-3.5854	-3.975	-4.0083	-3.6729	-4.1583	-4.0437	-3.6167	-4.0062	-3.7021	-4.1729	-4.2188	-3.6083	-4.0104	-4.0083	68.141	211.966	164.052	-108.766	-39.180	50.114	-94.140	-103.491	-12.469	168.831	89.360	46.387	-76.490	-66.710	-41.656	162.103	0.00065903	0.00022111	2.3597e-05	894.4	1.9153e-06	1.983e-06	1104	324.33	1.2543e-06	3.8345e-06	444.82	187.17	135.74	56.084	6.4662e-07	78.074	0.00012194	0.0001117	3.189e-05	740.92	1.289e-06	1.1879e-06	909	258.16	1.2792e-06	1.1853e-06	327.1	134.71	94.151	39.176	1.3213e-06	53.256	125.899	-34.957	-80.970	-126.583	-103.190	-60.934	-127.463	-121.383	-74.413	-11.160	-123.461	-120.066	-118.462	-113.094	154.805	-115.874	-8191	255	
4090.395	1	1	0	0	0.11531	0.17338	0.13393	0.24505	0.097619	0.24853	0.2881	0.30128	0.38442	0.093022	0.085054	0.21658	0.21854	0.26681	0.084422	0.21576	-3.3187	-4.0729	-3.8396	-4.1	-4.0167	-3.7	-4.2354	-4.1229	-3.7792	-4.1396	-3.8604	-3.9313	-4.1438	-3.5563	-3.9417	-4.025	-98.379	-96.856	131.622	193.853	-45.163	87.991	125.097	140.421	107.292	-10.584	108.179	168.107	158.124	110.136	191.197	131.857	0.00087233	0.0001013	3.2091e-05	882.27	2.5627e-06	3.11e-06	1095.9	321.09	1.2561e-06	9.7323e-07	443.48	185.83	135.15	55.722	1.7253e-06	77.785	0.00011933	0.00010947	3.4496e-05	734.1	1.2752e-06	1.2036e-06	903.01	254.93	1.2539e-06	1.1696e-06	326.28	133.24	93.402	38.838	1.3312e-06	52.568	121.718	-9.571	26.184	-126.504	-17.140	-44.604	-127.658	-121.501	-34.154	-109.525	-123.206	-119.819	-118.672	-113.126	204.989	-116.128	-8191	255	
4090.491	1	1	0	0	0.15945	0.20565	0.25899	0.18308	0.19378	0.23587	0.26178	0.1917	0.073317	0.08278	0.11701	0.12683	0.16373	0.072613	0.19847	0.079983	-3.1125	-3.9604	-3.5833	-3.8979	-4.2188	-3.6813	-4.2333	-4.1979	-3.6437	-4.0771	-3.9625	-3.9292	-4.3104	-3.7417	-3.9	-4.1125	-138.926	148.155	-67.939	154.625	-63.674	33.859	119.908	185.494	-115.430	-95.731	-16.035	-97.146	170.810	160.083	186.308	65.747	0.00060854	0.00020174	6.5438e-05	881.42	4.2388e-06	1.4413e-06	1090.8	323.58	2.5166e-07	1.7285e-06	444.76	187.63	135.89	55.883	2.251e-06	78.289	0.00011091	0.00010541	3.3533e-05	726.44	1.152e-06	1.1378e-06	901.3	254.15	1.1303e-06	1.1344e-06	327.28	133.35	93.377	39.014	1.3085e-06	52.553	120.618	-105.701	213.884	-126.473	-42.587	-116.339	-127.717	-121.497	75.683	167.611	-123.121	-119.786	-118.515	-113.203	56.643	-115.892	-8191	255	
4090.588	1	1	0	0	0.2237	0.029611	0.12428	0.22402	0.38847	0.15011	0.16203	0.24266	0.13254	0.21583	0.1883	0.13014	0.13938	0.27269	0.095699	0.06692	-3.325	-4.0354	-3.9625	-3.7208	-4.2208	-3.6375	-3.9688	-4.2063	-3.4688	-3.9104	-3.9271	-3.8396	-4.1271	-3.8063	-3.8271	-4.2688	29.680	93.471	-34.014	152.091	62.710	35.097	25.059	128.219	-84.242	161.995	203.758	199.782	165.429	208.875	59.344	27.763	0.00095414	0.0001049	4.4149e-05	881.32	5.2962e-06	1.9126e-06	1094.8	324.3	2.1991e-06	1.9624e-06	446.7	188.47	137.22	56.3	2.7737e-06	78.655	0.00010502	0.00010786	3.3004e-05	721.83	1.1082e-06	1.1978e-06	902.6	254.39	1.105e-06	1.215e-06	328.91	133.92	93.899	39.488	1.2859e-06	52.908	116.552	-126.161	-69.754	-126.433	18.319	-114.169	-127.485	-121.695	-39.167	159.205	-123.160	-120.014	-118.970	-113.051	18.396	-116.165	-8191	255	
4090.708	1	1	0	0	0.22519	0.14365	0.034954	0.27793	0.10158	0.17063	0.19348	0.22155	0.11676	0.18646	0.30219	0.46072	0.10735	0.16216	0.27576	0.11228	-3.1063	-4.0729	-3.8375	-3.6458	-4.1333	-3.7188	-3.9167	-4.2312	-3.5312	-4.0354	-4.0208	-3.6146	-4.2771	-3.9104	-3.6604	-4.1875	-21.274	7.512	-31.657	-119.617	144.882	-33.521	194.023	142.048	-116.859	55.679	145.858	215.168	199.454	122.642	-73.386	165.311	0.0011355	8.2998e-05	6.953e-05	882.11	3.3668e-06	3.6215e-06	1103.3	325.49	1.8126e-06	2.1382e-06	451.52	191.47	138.72	56.739	2.4353e-06	79.381	0.00010344	0.00011473	3.2169e-05	723.25	1.1093e-06	1.2546e-06	905.91	255.23	1.1017e-06	1.2656e-06	329.55	135.21	94.599	39.795	1.1946e-06	53.101	115.054	212.724	-24.545	-126.378	-91.042	-65.899	-127.457	-121.576	28.288	-101.634	-123.152	-119.645	-118.750	-112.973	18.090	-115.735	-8191	255	
4090.804	1	1	0	0	0.084768	0.16321	0.082367	0.22653	0.10297	0.19298	0.18715	0.10268	0.22932	0.1146	0.19286	0.11309	0.051175	0.27764	0.096195	0.28729	-3.2167	-3.9417	-4.0292	-3.5687	-4.0625	-4.0542	-3.8729	-4.1875	-3.6542	-3.9229	-3.9708	-3.7729	-4.075	-4.0229	-3.7708	-4.2875	-33.233	45.374	14.372	173.067	89.326	136.676	65.212	183.924	56.130	189.085	113.094	182.698	-64.106	171.038	-6.524	187.529	0.0011532	0.00014531	5.5392e-05	885	2.7722e-06	5.1213e-07	1096.3	323.49	1.5628e-06	9.0877e-07	444.17	186.92	136.22	55.661	2.2517e-06	77.682	0.00010219	0.00011531	3.0115e-05	721.53	1.1231e-06	1.2934e-06	898.18	252.8	1.1537e-06	1.3043e-06	324.66	132.16	93.541	39.153	1.1796e-06	51.931	118.153	-68.332	-66.605	-126.573	-94.086	-124.187	-127.458	-121.520	-82.301	181.247	-123.253	-119.973	-118.609	-113.108	0.066	-115.939	-8191	255	
4090.876	1	1	0	0	0.056119	0.071314	0.28836	0.166	0.15498	0.26905	0.13821	0.13936	0.10418	0.17477	0.11002	0.24442	0.029953	0.29667	0.10733	0.19961	-3.1667	-3.975	-3.8083	-3.825	-4.0021	-3.9667	-3.8	-4.1875	-3.5938	-3.8958	-4.0563	-3.7292	-4.2188	-3.9979	-3.5958	-4.3229	-94.304	-94.075	169.845	197.761	-40.895	156.364	54.699	177.792	76.486	177.726	71.693	177.351	109.735	154.910	104.939	142.192	0.0011387	0.00018099	5.1746e-05	880.51	2.1756e-06	2.0302e-06	1090.1	320.38	1.1717e-06	6.1935e-06	443.08	185.74	135.33	55.293	2.8474e-06	77.209	0.00010906	0.00011624	2.9437e-05	716.19	1.1879e-06	1.2689e-06	892.68	251.26	1.2264e-06	1.2783e-06	322.99	131.87	94.008	38.932	1.2039e-06	51.855	110.827	-30.924	-82.207	-126.438	-90.832	-38.293	-127.320	-121.741	205.055	-34.434	-123.337	-119.931	-118.449	-112.900	11.974	-116.095	-8191	255	
4090.972	1	1	0	0	0.095417	0.07728	0.24057	0.21496	0.10802	0.17229	0.15939	0.077888	0.1292	0.077242	0.21555	0.35779	0.21095	0.31557	0.012678	0.026749	-3.3563	-3.7708	-3.975	-3.7583	-3.9021	-3.9708	-3.9375	-4.3833	-3.8375	-3.7854	-4.275	-3.6625	-3.9917	-4.1062	-3.5812	-4.1813	194.293	115.642	-58.150	137.997	-55.658	-14.015	151.376	-90.536	70.028	94.642	-94.640	106.238	174.643	215.210	-52.285	163.091	0.0010072	0.00026134	0.00011195	880.7	2.5521e-06	2.6248e-06	1090	320.78	1.6647e-06	4.0317e-06	448.09	187.94	135.85	55.714	2.0121e-06	77.583	0.00012152	0.00011844	3.0121e-05	718.37	1.2958e-06	1.2736e-06	895.19	252.32	1.3415e-06	1.2841e-06	324.87	133.12	95.054	39.082	1.1967e-06	52.39	114.792	-87.435	-64.700	-126.458	-121.510	-16.794	-127.801	-121.616	-118.082	36.652	-122.967	-120.110	-118.501	-113.213	-66.017	-116.189	-8191	255	
4091.068	1	1	0	0	0.044222	0.029215	0.37034	0.073957	0.19664	0.026678	0.11828	0.083706	0.17685	0.13734	0.21041	0.12078	0.13307	0.041346	0.13063	0.17814	-3.4792	-3.4771	-4.0833	-3.75	-3.7458	-3.9917	-3.7208	-4.3021	-3.5812	-3.7042	-4.2708	-3.6188	-3.8542	-4.1125	-3.4667	-4.0042	96.454	123.838	-26.626	-110.607	-43.109	-55.714	86.032	63.660	38.463	209.729	189.531	198.193	-80.612	7.360	-137.140	-106.247	0.00097388	0.00021603	9.4715e-05	884.66	1.8384e-06	2.824e-06	1098.2	322.9	1.4615e-06	4.129e-07	445.17	188.36	136.69	55.941	2.6283e-06	78.269	0.00012835	0.00011813	3.037e-05	725.43	1.3969e-06	1.2922e-06	900.33	255.39	1.4549e-06	1.3411e-06	326.97	135.14	96.536	39.588	1.3369e-06	53.567	127.994	-23.659	-77.602	-126.407	-61.747	3.805	-127.541	-121.717	-80.234	-9.303	-123.234	-120.091	-118.849	-113.028	-76.920	-116.023	-8191	255	
4091.189	1	1	0	0	0.18418	0.12944	0.06977	0.45086	0.16884	0.21782	0.2247	0.14312	0.1839	0.28861	0.1608	0.26205	0.11775	0.27616	0.32177	0.41624	-3.3833	-3.6792	-4.0229	-3.7979	-3.7792	-4.05	-3.6479	-4.0563	-3.8187	-3.5125	-4.1917	-3.6792	-3.8521	-4.1792	-3.4917	-4.0583	191.103	-35.362	4.721	200.110	15.461	-102.672	135.035	-115.598	-46.920	19.185	167.087	175.598	90.450	211.818	131.779	208.457	0.00088033	0.00017982	3.3118e-05	881.81	5.1558e-06	2.7582e-06	1094.3	324.58	4.3567e-06	1.9263e-06	447.61	188.34	136.05	55.698	2.0411e-06	77.89	0.00014659	0.00013212	3.423e-05	738.26	1.5772e-06	1.4516e-06	908.09	259.79	1.6087e-06	1.4781e-06	330.75	137.03	97.209	39.707	1.4567e-06	53.883	121.677	-35.707	-136.229	-126.735	-51.116	12.322	-127.421	-121.418	-15.516	-14.310	-123.145	-119.915	-118.776	-113.173	13.964	-115.980	-8191	255	
4091.285	1	1	0	0	0.11297	0.18721	0.19812	0.096314	0.17375	0.1699	0.22996	0.24962	0.27336	0.14379	0.050733	0.11794	0.13269	0.121	0.15388	0.26456	-3.5583	-3.5083	-3.9667	-3.9562	-3.5708	-4.0979	-3.6875	-4.0062	-4.025	-3.6146	-4.1583	-3.8229	-3.5812	-4.1312	-3.5854	-3.9938	-120.851	-43.463	-120.220	178.591	33.435	-71.877	126.331	31.378	72.169	145.464	-53.561	186.907	87.641	208.311	180.424	174.748	0.00081519	0.00032216	0.0001123	872.93	2.0787e-06	1.1553e-06	1091	319.47	1.15e-06	3.0139e-06	440.71	185.41	134.9	54.86	1.5695e-06	76.743	0.00015267	0.000138	3.7481e-05	742.34	1.6285e-06	1.5003e-06	903.9	258.85	1.5687e-06	1.4572e-06	327.36	135.32	95.397	38.979	1.4792e-06	53.141	132.593	-49.908	-61.648	-126.529	-68.578	-8.464	-127.621	-121.414	-10.192	-74.316	-123.540	-119.848	-118.476	-113.011	217.726	-115.932	-8191	255	
4091.381	1	1	0	0	0.23411	0.26917	0.11012	0.056289	0.28996	0.098466	0.15997	0.15758	0.25967	0.13826	0.12945	0.18234	0.040683	0.11919	0.1213	0.19085	-3.6208	-3.5604	-4.0542	-3.9479	-3.6979	-4.2271	-3.7771	-3.9708	-4.1604	-3.6437	-4.0875	-3.9708	-3.8063	-4.2438	-3.6208	-4.0271	25.632	103.669	109.995	96.907	-6.628	-34.443	72.175	164.764	79.953	51.909	-136.027	-132.303	-104.801	-38.155	-139.262	155.515	0.00099582	0.00014748	4.6125e-05	871.98	2.0571e-06	2.8399e-06	1085.1	318.34	3.214e-06	8.3481e-07	441.74	184.76	135.12	55.054	7.7792e-07	76.909	0.00014379	0.00013269	3.8347e-05	740.3	1.5492e-06	1.4427e-06	905	257.61	1.5355e-06	1.4416e-06	329.81	135.27	95.485	39.043	1.6279e-06	53.447	130.770	-14.031	-134.906	-126.631	87.926	-47.645	-127.610	-121.637	-36.563	-113.841	-123.325	-119.977	-118.743	-113.026	35.695	-116.084	-8191	255	
4091.500	1	1	0	0	0.3511	0.23294	0.068951	0.21631	0.092248	0.086177	0.18305	0.27921	0.093643	0.32769	0.096634	0.14884	0.078069	0.19661	0.10537	0.31924	-3.6708	-3.4521	-4.05	-4.0375	-3.6125	-3.9021	-3.9125	-3.8375	-4	-3.4917	-4.1271	-4.0521	-3.6208	-4.1667	-3.6292	-3.9437	129.235	67.217	204.191	-38.037	161.897	6.976	-129.214	-121.605	33.936	24.840	190.083	-129.730	183.722	196.633	95.498	112.386	0.00072431	0.00036052	7.7258e-05	873.77	3.9759e-06	5.1795e-07	1088.2	319.6	4.894e-06	1.0578e-06	441.5	187.35	136.07	55.304	1.8162e-06	77.627	0.00014649	0.00013593	4.2429e-05	740.72	1.5658e-06	1.4782e-06	912.32	258.47	1.5195e-06	1.4492e-06	332.01	135.88	95.43	39.315	1.6542e-06	53.506	123.905	-135.509	0.683	-126.711	-49.530	40.052	-127.620	-121.528	-37.511	0.769	-123.371	-119.623	-118.782	-113.109	-71.694	-115.991	-8191	255	
4091.572	1	1	0	0	0.2977	0.10224	0.0088002	0.26409	0.055145	0.089295	0.18568	0.17958	0.24886	0.24179	0.14692	0.13226	0.24395	0.14819	0.09354	0.20651	-3.6542	-3.5563	-3.8625	-4.1562	-3.4688	-4.025	-3.9333	-3.925	-4.0104	-3.5062	-3.8125	-3.9437	-3.6292	-3.9604	-3.7458	-3.7438	70.260	78.900	-71.482	199.226	-106.504	-50.765	86.483	100.016	79.987	-24.808	196.371	205.729	171.773	77.808	-44.506	-47.670	0.0011228	0.00016344	6.5376e-05	877.17	4.2494e-06	3.5577e-06	1093.6	320.59	4.2683e-06	1.7631e-06	443.58	189.03	136.42	55.908	6.9172e-07	78.537	0.00013603	0.0001309	4.189e-05	737.9	1.4621e-06	1.452e-06	918.65	258.47	1.4648e-06	1.491e-06	335.72	136.48	96.068	39.82	1.6977e-06	53.947	126.643	-23.967	-84.807	-126.603	-4.995	-123.915	-127.637	-121.727	-5.556	176.313	-123.267	-119.827	-118.336	-113.204	-109.845	-116.163	-8191	255	
4091.670	1	1	0	0	0.17572	0.21653	0.24542	0.14162	0.29382	0.29781	0.2558	0.17276	0.175	0.13689	0.17931	0.24062	0.10906	0.10812	0.15938	0.21454	-3.7812	-3.7188	-4.125	-4.1542	-3.6	-3.9375	-3.9708	-3.6854	-4.1583	-3.5708	-3.9062	-4.2875	-3.7729	-4.1542	-3.9562	-3.7125	118.652	42.974	-92.260	189.235	51.655	-69.809	-108.863	156.374	188.405	51.247	179.002	216.585	175.635	-136.859	109.335	194.548	0.00094444	0.00030361	7.0335e-05	881.19	3.6706e-06	1.9253e-06	1093.2	322.81	2.2494e-06	1.6014e-06	444.6	187.75	135.68	55.417	1.6392e-06	77.467	0.00013374	0.00013741	4.1826e-05	735.66	1.3929e-06	1.4983e-06	917.53	257.64	1.3697e-06	1.5256e-06	333.09	135.18	94.94	39.629	1.5994e-06	53.088	123.959	53.626	-136.107	-126.491	-66.421	113.560	-127.548	-121.626	-41.748	182.363	-123.351	-120.081	-118.659	-113.305	2.767	-115.815	-8191	255	
4091.789	1	1	0	0	0.085511	0.051408	0.11949	0.18351	0.094617	0.039288	0.24291	0.088173	0.11033	0.26379	0.34236	0.019342	0.26373	0.21975	0.20807	0.1975	-3.6708	-3.5333	-3.7333	-4.1813	-3.7188	-3.9875	-4.0958	-3.7833	-4.0104	-3.9188	-3.8917	-4.1021	-3.6188	-4.0188	-3.85	-3.7354	-118.599	-100.984	86.145	-54.350	173.234	-12.736	212.607	183.621	207.235	192.159	120.329	-63.376	182.948	202.956	143.362	129.268	0.00097357	9.9051e-05	0.0001173	872.78	1.3863e-06	2.476e-06	1089.3	318.88	1.1573e-06	1.6059e-06	439.4	184.84	135.57	54.932	8.4663e-07	76.759	0.00012847	0.00014294	3.9945e-05	728.82	1.3666e-06	1.5639e-06	907.54	254.31	1.3651e-06	1.5694e-06	328.69	133.44	94.402	39.304	1.5085e-06	52.303	115.169	68.000	-54.056	-126.513	160.406	-139.332	-127.601	-121.462	160.697	-17.412	-123.335	-120.125	-118.668	-113.160	-83.615	-116.253	-8191	255	
4091.885	1	1	0	0	0.045337	0.078502	0.10019	0.24491	0.17492	0.16802	0.13918	0.33362	0.11049	0.073443	0.056644	0.082896	0.16935	0.17652	0.19175	0.30828	-3.7313	-3.6729	-3.8229	-4.0583	-3.7375	-3.9917	-4.1292	-3.5625	-4.0646	-3.7438	-3.7896	-4.1813	-3.8667	-4.1062	-4.0437	-3.65	-118.763	203.067	-17.530	186.702	104.927	-97.358	-118.204	130.766	-73.717	-65.701	-40.324	56.963	-118.678	-87.257	-121.147	189.552	0.00097931	0.00022577	0.0001055	869.06	3.8254e-06	1.5595e-06	1084.8	320.01	2.2446e-06	3.4232e-06	439.77	186.75	135.47	55.061	2.6447e-06	77.637	0.00012911	0.00014668	3.8105e-05	722.51	1.4006e-06	1.5933e-06	902.2	253.67	1.3935e-06	1.5548e-06	327.09	133.42	94.83	39.385	1.3834e-06	52.39	128.005	60.454	-63.693	-126.723	213.409	-2.925	-127.599	-121.647	-107.515	-80.645	-123.164	-120.140	-118.913	-113.152	-25.191	-116.067	-8191	255	
4091.981	1	1	0	0	0.18059	0.072464	0.16565	0.1783	0.19018	0.066855	0.24764	0.24546	0.32906	0.14187	0.035556	0.17132	0.2562	0.18495	0.07757	0.01933	-3.5458	-3.8125	-3.6604	-4.2354	-3.5271	-3.7625	-4.1625	-3.6667	-4.0125	-3.7417	-3.6604	-4.1833	-3.8354	-3.8917	-3.8896	-3.7167	125.557	-104.988	146.418	-91.762	104.832	201.323	118.544	181.502	-95.600	-63.713	-9.369	62.241	170.750	110.620	58.464	47.109	0.0013466	0.00040889	4.9496e-05	874.66	9.1266e-07	3.1537e-06	1092.1	322.87	2.5492e-06	3.4193e-06	447.26	188.06	136.45	55.639	8.864e-07	78.071	0.00012866	0.0001356	3.4194e-05	720.06	1.3792e-06	1.4493e-06	901.55	253.71	1.3839e-06	1.4355e-06	327.95	134.04	95.624	39.529	1.3167e-06	52.785	108.194	-39.149	-134.156	-126.405	142.226	6.499	-127.326	-121.662	161.693	13.073	-123.123	-120.069	-118.651	-113.180	-60.497	-116.128	-8191	255	
4092.102	1	1	0	0	0.13101	0.16578	0.28116	0.059182	0.068702	0.23858	0.22568	0.129	0.081084	0.11305	0.017309	0.30437	0.17039	0.19853	0.17243	0.018653	-3.5167	-3.7646	-3.6458	-4.3	-3.5396	-3.6792	-4.2917	-3.7687	-3.9146	-3.9771	-3.7812	-4.1833	-3.8167	-3.7292	-4.1896	-3.7479	-91.472	-75.419	95.191	21.140	-44.699	-122.468	-132.411	85.734	-103.619	26.711	56.276	197.592	-138.091	-124.766	-69.693	208.675	0.0011686	0.00026575	9.7216e-05	876.36	8.5272e-07	3.7567e-06	1096.8	323.85	2.7217e-06	3.691e-06	448.71	189.52	137.31	56.446	8.444e-07	78.764	0.00013552	0.00013112	3.3658e-05	723.77	1.4656e-06	1.4159e-06	904.62	255.18	1.4694e-06	1.3922e-06	329.12	135.23	96.577	39.699	1.2789e-06	53.345	111.682	-15.258	-72.039	-126.342	202.583	10.572	-127.642	-121.476	157.766	-16.241	-123.231	-120.082	-118.494	-113.131	21.210	-115.707	-8191	255	
4092.173	1	1	0	0	0.13557	0.18103	0.15847	0.2715	0.057878	0.050997	0.11719	0.44754	0.16559	0.064764	0.27155	0.11422	0.20366	0.25055	0.15405	0.13146	-3.5896	-3.8833	-3.625	-4.1104	-3.7604	-3.6354	-4.2125	-3.7583	-3.8688	-3.8208	-3.7625	-3.9708	-3.9229	-3.7729	-4.1208	-3.6771	-34.061	28.943	-70.230	198.541	-91.379	73.967	123.330	168.969	174.529	159.973	-136.571	177.795	86.800	131.436	-12.983	0.226	0.0008806	0.00043281	7.5875e-05	878.4	1.8029e-06	4.1675e-06	1097	321.66	3.5136e-06	2.7582e-06	447.93	187.37	135.93	55.531	1.0499e-06	77.231	0.00013548	0.0001227	3.1802e-05	725.29	1.4565e-06	1.3308e-06	900.65	255.53	1.451e-06	1.3327e-06	326.72	134.43	95.63	39.022	1.2355e-06	52.563	113.716	-45.468	-73.597	-126.655	7.448	-26.145	-127.671	-121.554	18.618	-36.909	-123.218	-119.961	-118.773	-113.042	8.481	-116.178	-8191	255	
4092.269	1	1	0	0	0.087358	0.0067815	0.047362	0.14927	0.19983	0.32025	0.27355	0.18704	0.15325	0.028614	0.15474	0.17424	0.13358	0.16858	0.076156	0.23845	-3.4813	-4.0521	-3.5042	-4.0417	-3.6771	-3.6333	-4.2688	-3.7208	-3.6979	-4.1521	-3.6333	-4.0146	-4.025	-3.5604	-4.1271	-3.9083	60.057	71.294	197.680	-80.889	0.908	-50.174	143.900	99.734	-88.784	215.572	218.971	-68.094	170.445	-90.445	-57.774	146.601	0.00078735	0.00017141	8.7024e-05	870.63	4.6097e-06	2.8672e-06	1093.1	320.47	3.9442e-06	2.8331e-06	445.65	185.86	134.7	55.1	8.3445e-07	77.251	0.00013234	0.00011897	3.1045e-05	722.71	1.4126e-06	1.3017e-06	893.54	255.08	1.4376e-06	1.3015e-06	325.02	133.9	94.878	38.799	1.2546e-06	52.747	117.535	-74.239	-109.442	-126.482	-64.694	-20.546	-127.566	-121.619	-38.230	-57.183	-123.363	-119.708	-118.427	-113.108	100.621	-115.904	-8191	255	
4092.366	1	1	0	0	0.2604	0.073706	0.30732	0.39757	0.09783	0.16723	0.30321	0.1849	0.057731	0.20004	0.083869	0.16188	0.19982	0.14386	0.026405	0.17011	-3.2542	-3.9958	-3.5771	-4.0083	-3.8146	-3.5271	-4.0083	-3.7979	-3.7917	-4.0208	-3.6937	-3.8583	-3.975	-3.7375	-4.1146	-3.9979	-4.521	93.931	97.546	136.656	47.740	155.110	142.293	-130.963	-115.138	-17.833	169.220	207.013	-97.530	121.939	82.014	184.622	0.00084605	0.00031733	3.6581e-05	875.99	3.901e-06	8.1955e-07	1091.2	319.86	1.911e-06	2.5558e-06	444.72	188.16	136.31	55.276	2.1732e-06	77.681	0.00013004	0.00011868	3.2331e-05	731.42	1.4034e-06	1.3172e-06	899.02	257.05	1.4262e-06	1.3266e-06	327.79	135.95	95.579	39.01	1.3786e-06	53.401	117.324	27.638	206.516	-126.595	-53.083	121.541	-127.601	-121.468	30.321	-17.871	-123.241	-119.976	-118.648	-113.142	174.373	-115.910	-8191	255	
4092.484	1	1	0	0	0.24421	0.16298	0.10457	0.2546	0.22268	0.14751	0.0095556	0.087097	0.14558	0.11293	0.2592	0.086178	0.072953	0.16302	0.30953	0.173	-3.2896	-4.1667	-3.475	-3.8333	-4.0167	-3.6188	-4.125	-4.0062	-3.6979	-3.9896	-3.7313	-3.8854	-3.9417	-3.7167	-4.0646	-4.0458	21.285	58.334	63.554	199.129	-131.483	177.643	107.836	-86.843	8.947	-43.967	164.942	-107.146	205.254	134.446	-125.398	-7.574	0.00090854	0.00012345	9.2546e-05	876.71	2.421e-06	2.2352e-06	1095.5	322.14	3.7551e-06	3.0315e-06	445.44	188.42	136.08	55.311	8.7184e-07	78.053	0.0001339	0.00012339	3.6395e-05	739.42	1.4677e-06	1.3725e-06	908.79	258.89	1.4812e-06	1.3748e-06	331.89	136.84	95.896	39.259	1.561e-06	53.824	118.561	165.759	187.168	-126.614	177.849	19.356	-127.860	-121.480	-2.646	-67.361	-123.471	-119.968	-118.574	-112.904	-77.331	-116.003	-8191	255	
4092.581	1	1	0	0	0.069387	0.16023	0.17659	0.21735	0.20576	0.1919	0.12405	0.064364	0.27585	0.16524	0.20123	0.23683	0.085218	0.14191	0.14324	0.11473	-3.0833	-4.0021	-3.6667	-3.8396	-3.9771	-3.7083	-4.1125	-4.0917	-3.6708	-4.1521	-3.8937	-3.9417	-4.1646	-3.675	-4.1833	-4.0958	55.114	-16.288	198.547	131.677	66.746	-59.392	147.953	-71.013	-102.444	-105.347	103.937	178.254	126.252	171.988	-105.188	101.896	0.00082556	0.00012545	6.0694e-05	881.85	5.8919e-06	1.1608e-06	1101.1	321.38	2.8885e-06	6.8212e-07	446.41	188.55	136.4	55.167	1.611e-06	77.563	0.00013827	0.00012801	4.067e-05	743.2	1.4975e-06	1.4274e-06	920.69	259.55	1.5253e-06	1.4527e-06	336.18	137.51	96.464	39.457	1.7648e-06	53.871	130.143	-6.597	83.256	-126.380	-50.915	-31.758	-127.584	-121.531	-112.793	64.777	-123.415	-120.015	-118.479	-112.989	73.197	-116.152	-8191	255	
4092.677	1	1	0	0	0.07064	0.27916	0.082547	0.11877	0.11531	0.24691	0.036348	0.11842	0.21232	0.22387	0.26725	0.12746	0.028457	0.17093	0.023234	0.1428	-3.1979	-4.0625	-3.7583	-3.7687	-4.05	-3.7458	-4.1396	-3.9875	-3.5146	-4.1813	-3.9333	-3.6437	-4.0875	-3.6979	-3.8375	-4.1896	-57.069	-117.614	-61.410	146.105	125.018	-18.494	115.004	-136.308	38.660	-58.354	190.226	-118.953	-107.147	144.708	218.025	203.086	0.00078882	0.00012771	0.00010603	875.83	4.4462e-06	1.7647e-06	1089.3	317.99	3.3835e-06	2.7631e-06	439.37	185.23	134.68	54.436	1.5988e-06	76.545	0.00014696	0.00014282	4.6237e-05	743.94	1.6189e-06	1.6236e-06	922.43	258.1	1.6291e-06	1.6581e-06	335.79	135.8	95.516	39.265	1.8893e-06	53.111	128.057	179.989	-127.050	-126.489	-51.041	-84.752	-127.557	-121.522	-7.256	-129.030	-123.261	-119.871	-118.541	-112.821	124.677	-116.038	-8191	255	
4092.773	1	1	0	0	0.22391	0.25598	0.18917	0.14003	0.072527	0.11606	0.12501	0.14299	0.058263	0.28044	0.11623	0.2009	0.14628	0.17679	0.11087	0.34992	-3.0958	-3.9813	-3.8896	-3.7604	-3.9667	-3.5604	-4.0271	-4.2375	-3.5625	-4.0208	-4.0646	-3.7021	-4.2438	-3.85	-3.6979	-4.1458	-6.497	195.027	-87.582	139.826	-33.273	-17.875	74.719	102.518	172.178	-53.489	-82.273	203.418	49.692	-119.545	-61.474	189.141	0.00077905	3.9358e-05	0.00012323	872.64	1.6927e-06	3.0168e-06	1082.5	316.83	2.4117e-06	2.2863e-06	438.34	185.36	134.26	54.16	2.0486e-06	76.401	0.00014897	0.00015799	4.8134e-05	740.84	1.6365e-06	1.7969e-06	920.35	257.13	1.6575e-06	1.84e-06	335.46	135.71	95.738	39.592	1.9016e-06	53.066	130.068	94.939	-66.545	-126.461	-26.365	128.980	-127.517	-121.527	-58.696	114.313	-123.290	-120.137	-118.747	-113.069	-39.524	-115.862	-8191	255	
4092.869	1	1	0	0	0.32653	0.13555	0.083876	0.089022	0.19035	0.083012	0.1434	0.15542	0.11122	0.2076	0.2821	0.16119	0.13461	0.18171	0.17189	0.067506	-3.3438	-3.9021	-3.8667	-3.8083	-4.0854	-3.6562	-3.8604	-4.1937	-3.625	-3.95	-4.0062	-3.6083	-4.1417	-3.8396	-3.6917	-4.0833	-41.873	138.794	181.813	106.122	52.807	170.855	130.674	190.710	160.051	108.391	217.461	152.268	-139.707	212.180	119.039	112.400	0.00091235	7.0326e-05	4.8476e-05	873.63	3.6231e-06	1.5738e-06	1085.9	317.58	1.5444e-06	2.0503e-06	440.47	186.03	134.63	54.802	3.2169e-06	76.595	0.00015218	0.00017147	4.8067e-05	740.45	1.6532e-06	1.928e-06	919.82	258.35	1.6721e-06	1.9358e-06	334.98	135.75	96.397	40.07	1.8132e-06	53.256	115.988	-136.425	-76.774	-126.678	-60.755	190.306	-127.547	-121.940	90.409	201.185	-123.388	-120.088	-118.722	-113.057	14.115	-115.996	-8191	255	
4092.965	1	1	0	0	0.065208	0.022497	0.10284	0.1268	0.10768	0.29903	0.23784	0.11	0.23299	0.24479	0.19985	0.17983	0.037206	0.15565	0.18401	0.12294	-3.4146	-3.9792	-3.9146	-3.6875	-4.0062	-3.8	-3.8708	-4.2708	-3.775	-3.925	-4.2125	-3.6208	-4.0604	-3.9021	-3.5271	-4.2604	-45.491	-103.415	142.436	173.996	214.371	114.463	-135.232	95.107	-81.846	-66.614	128.364	104.876	183.357	126.654	7.880	98.798	0.0010097	0.00010845	2.238e-05	870.47	3.3203e-06	1.3657e-06	1088.4	319.16	1.9029e-06	2.6221e-06	442.8	187.87	135.21	55.118	3.3084e-06	77.484	0.00015628	0.00017501	4.5277e-05	737.01	1.6965e-06	1.9316e-06	919.59	257.8	1.7489e-06	1.9497e-06	335.67	136.78	98.043	40.519	1.841e-06	53.852	120.382	-93.127	41.688	-126.369	107.677	-12.274	-127.705	-121.702	-89.903	39.029	-123.308	-120.283	-119.003	-113.137	4.162	-115.917	-8191	255	
4093.061	1	1	0	0	0.19091	0.078868	0.11325	0.2345	0.15887	0.049702	0.46935	0.098746	0.060191	0.1483	0.15176	0.15247	0.37376	0.19465	0.065869	0.25587	-3.4021	-3.8708	-4.0125	-3.5667	-4.0458	-3.9	-3.7458	-4.1438	-3.5563	-3.7104	-3.9938	-3.7854	-4.1542	-3.8167	-3.5187	-4.3	143.262	-34.464	212.009	216.034	-49.816	-131.204	167.755	108.381	24.761	182.852	159.038	-136.890	166.768	-4.581	132.426	122.579	0.0011545	0.00024638	7.7905e-05	874.87	3.4319e-06	1.6477e-06	1091.2	317.23	1.7145e-06	1.7733e-06	443.98	186.75	134.62	54.856	3.6018e-06	76.77	0.00017452	0.00018599	4.7199e-05	743.33	1.9341e-06	2.0258e-06	923.91	258.22	1.9709e-06	2.0158e-06	336.61	136.74	98.794	40.273	1.85e-06	53.43	102.470	-127.860	-23.321	-126.652	138.786	52.387	-127.774	-121.515	209.047	-72.649	-123.326	-120.010	-118.654	-113.104	-27.405	-115.974	-8191	255	
4093.182	1	1	0	0	0.099941	0.26142	0.35078	0.16161	0.11479	0.27946	0.173	0.20918	0.14957	0.021448	0.045823	0.18047	0.099037	0.10442	0.060623	0.28006	-3.2396	-3.5646	-4.0917	-3.6854	-3.8396	-4	-3.7792	-4.2833	-3.6708	-3.6917	-4.3479	-3.7625	-4.1146	-4.0896	-3.5125	-4.2	130.055	-131.779	-54.197	-97.740	-19.580	187.023	106.813	94.059	-100.344	-3.048	45.336	132.651	-129.194	-113.223	216.535	139.118	0.0008637	0.00034741	8.5331e-05	871.86	1.7987e-06	3.0783e-06	1085.2	315.75	2.0863e-07	6.9083e-06	438.11	184.34	133.55	54.16	2.3294e-06	76.072	0.000187	0.0001823	4.6281e-05	741.73	2.057e-06	1.9605e-06	917.01	257.61	2.0673e-06	1.9495e-06	333.05	135.63	98.674	39.634	1.8042e-06	53.194	117.449	-99.190	-95.836	-126.725	-93.022	-33.237	-127.503	-121.579	55.707	-15.722	-123.481	-120.290	-119.059	-113.005	-4.391	-116.114	-8191	255	
4093.278	1	1	0	0	0.19454	0.18522	0.12076	0.23397	0.088634	0.12927	0.41823	0.18706	0.20071	0.22961	0.28844	0.3899	0.11206	0.43348	0.059295	0.061172	-3.4104	-3.7729	-4.0167	-3.6667	-3.7396	-3.9562	-3.5438	-4.0813	-3.9125	-3.4583	-4.2937	-3.7771	-3.8021	-4.175	-3.45	-4.1604	185.679	18.588	28.866	-115.866	-133.093	121.687	133.789	103.937	-57.835	143.909	189.099	159.115	97.754	165.326	58.005	205.919	0.00092679	0.00037871	9.0175e-05	871.18	8.1683e-07	4.3801e-06	1085.1	316.11	6.3803e-06	4.9007e-06	437.55	184.13	133.4	54.22	1.319e-06	76.327	0.00019331	0.00017636	4.5459e-05	745.7	2.1257e-06	1.9349e-06	915.31	259.55	2.1457e-06	1.9552e-06	333.59	137.57	99.519	39.796	1.8266e-06	54.156	124.377	-29.575	-52.133	-126.710	-77.229	-41.575	-127.628	-121.744	-51.741	-8.699	-123.583	-120.073	-118.485	-113.130	-32.282	-116.256	-8191	255	
4093.372	1	1	0	0	0.16388	0.073573	0.080417	0.097019	0.1691	0.082808	0.28383	0.25621	0.013324	0.2005	0.24405	0.27542	0.10501	0.17491	0.27401	0.14194	-3.4062	-3.5229	-4.1458	-3.9542	-3.7896	-3.8854	-3.7062	-4.1104	-3.8438	-3.675	-4.1146	-3.8	-3.8354	-4.1042	-3.5875	-4.175	-3.189	163.903	70.824	91.157	-108.076	5.165	125.597	179.738	102.632	-82.197	218.630	164.767	193.219	214.687	77.879	50.943	0.0006937	0.00011566	8.227e-06	881.37	1.7969e-06	3.9373e-06	1098.5	318.19	2.8042e-06	2.3856e-06	441.77	188.23	135.83	54.941	1.0215e-06	77.325	0.00019795	0.00017761	4.6021e-05	763.05	2.1342e-06	1.9204e-06	926.51	263.72	2.0727e-06	1.8861e-06	335.32	139.91	99.439	39.972	1.7853e-06	54.919	115.514	-95.490	38.116	-126.885	-59.831	-65.491	-127.666	-121.728	18.684	-27.788	-123.345	-120.146	-118.699	-113.225	-122.089	-116.165	-8191	255	
4093.470	1	1	0	0	0.097865	0.099495	0.22202	0.2274	0.079086	0.18522	0.27329	0.19742	0.37993	0.17589	0.31402	0.20837	0.18722	0.17925	0.18928	0.33035	-3.5417	-3.6479	-3.9646	-3.7208	-3.7938	-4.1271	-3.6167	-3.9792	-4.0917	-3.5458	-4.1729	-4.0312	-3.7854	-4.2854	-3.5333	-4.1125	219.237	81.996	11.103	-133.663	5.640	64.527	152.863	142.200	-111.804	76.000	150.099	193.841	-104.824	-122.609	42.449	183.706	0.00086543	0.00051096	1.9285e-05	885.12	2.8256e-06	2.8468e-06	1106.3	322.06	4.0085e-06	2.9259e-06	447.57	189.34	136.87	55.458	2.1514e-06	78.711	0.00018382	0.00016565	4.508e-05	767.13	1.9487e-06	1.7952e-06	932.3	266.02	1.9242e-06	1.7764e-06	339.42	141.19	99.175	40.06	1.8119e-06	55.6	126.907	-46.275	192.215	-126.806	26.222	4.471	-127.755	-121.723	20.591	34.510	-123.295	-120.030	-118.789	-113.120	167.520	-115.837	-8191	255	
4093.565	1	1	0	0	0.12403	0.2456	0.11747	0.23327	0.1377	0.025795	0.27719	0.26959	0.086782	0.080355	0.27443	0.33725	0.10923	0.10875	0.15303	0.27228	-3.5875	-3.5563	-4.0687	-3.775	-3.6292	-4.0437	-3.9604	-3.7625	-3.9792	-3.6521	-4.1333	-3.8771	-3.6063	-4.1896	-3.6292	-3.7875	-118.217	-12.502	-43.250	168.041	-76.250	-116.076	166.234	-121.412	-123.659	52.824	96.222	186.116	159.370	132.736	-76.282	190.243	0.0010653	0.00034732	4.6433e-05	888.96	1.3111e-07	3.7663e-06	1114.5	322.23	1.4324e-06	2.2513e-06	443.75	189.52	135.53	55.084	7.766e-07	77.426	0.00017062	0.0001566	4.6058e-05	767.62	1.8182e-06	1.6798e-06	938.95	265.36	1.8097e-06	1.6895e-06	339.35	139.96	98.15	39.593	1.8973e-06	54.526	111.891	-58.065	-26.601	-126.489	39.754	3.685	-127.805	-121.510	-49.414	35.639	-123.288	-119.955	-118.407	-112.904	-134.819	-115.957	-8191	255	
4093.661	1	1	0	0	0.23882	0.20727	0.072424	0.26146	0.12642	0.17138	0.1212	0.12938	0.23425	0.19137	0.16349	0.26425	0.14385	0.15959	0.11939	0.046983	-3.7562	-3.4938	-4.1125	-4.0563	-3.6708	-4.1854	-3.7333	-3.6542	-4.2042	-3.5438	-4.0354	-4.0021	-3.5542	-4.1854	-3.7687	-3.8312	92.623	38.612	60.667	-137.487	106.980	-80.018	121.687	118.841	163.330	-87.695	-45.464	166.896	32.781	-36.175	-133.563	69.746	0.00089858	0.00010234	2.9892e-05	885.73	2.8866e-06	1.6273e-06	1104.3	321.09	2.338e-06	2.6515e-06	445.8	187.67	136.62	54.656	3.1634e-06	77.116	0.00016233	0.0001505	4.8031e-05	759.3	1.7324e-06	1.6343e-06	936.65	262.26	1.715e-06	1.6484e-06	339.28	138.04	97.294	39.344	1.9205e-06	53.906	125.011	-98.595	-79.828	-126.697	-12.322	9.358	-127.596	-121.700	-27.879	-91.162	-123.158	-120.092	-118.888	-113.153	-119.767	-115.950	-8191	255	
4093.782	1	1	0	0	0.1539	0.081056	0.12866	0.19797	0.070744	0.24331	0.34451	0.17108	0.066073	0.15664	0.19812	0.21386	0.12033	0.035993	0.30217	0.26875	-3.8833	-3.6917	-3.9188	-3.9458	-3.6646	-3.9437	-3.8958	-3.8688	-3.9979	-3.4958	-3.9771	-4.0667	-3.6917	-4.1333	-3.7687	-3.9292	-135.876	127.738	68.372	-78.187	136.686	-4.686	76.520	-71.741	57.952	214.287	215.077	188.311	138.025	138.465	177.814	202.896	0.00094143	0.00023133	1.8855e-05	886.49	9.4185e-07	2.3562e-06	1110.7	323.54	3.0565e-06	2.3077e-06	449.62	189.18	137.37	55.494	1.9305e-06	77.714	0.00015339	0.0001499	4.8396e-05	754.47	1.6239e-06	1.6199e-06	939.8	261.54	1.5507e-06	1.6061e-06	340.37	138.07	97.02	39.766	1.7904e-06	53.825	133.409	209.748	-125.610	-126.620	-26.653	143.074	-127.591	-121.575	22.442	-118.695	-123.249	-119.900	-118.671	-113.274	-21.370	-115.793	-8191	255	
4093.878	1	1	0	0	0.25295	0.35088	0.051329	0.16135	0.11339	0.14852	0.14887	0.22493	0.12686	0.14197	0.19339	0.089547	0.08546	0.13413	0.081203	0.1071	-3.7	-3.7417	-3.9208	-4.1667	-3.5479	-3.9625	-3.9417	-3.8542	-4.0396	-3.7208	-4.0083	-4.2167	-3.6458	-3.9292	-3.8063	-3.6583	-60.341	-104.214	-54.094	73.590	-123.648	74.089	171.675	146.615	-118.640	-37.500	-139.487	83.080	-68.302	210.540	106.834	205.782	0.00099064	0.00034639	2.5697e-05	887.69	1.1593e-06	3.1167e-06	1119	323.78	1.2394e-06	2.5472e-06	450.08	192.8	138.44	55.737	3.9374e-06	79.326	0.00014014	0.00015083	4.575e-05	750.64	1.5335e-06	1.7037e-06	942.71	261.26	1.5222e-06	1.7095e-06	340.95	138.99	97.497	40.292	1.6972e-06	54.351	126.503	215.129	-45.420	-126.360	146.644	168.076	-127.507	-121.720	-37.371	151.257	-123.193	-120.262	-118.957	-113.259	1.590	-115.952	-8191	255	
4093.974	1	1	0	0	0.1052	0.050907	0.17197	0.35328	0.21684	0.12963	0.16065	0.1136	0.19695	0.022611	0.3852	0.18747	0.23846	0.17781	0.24219	0.26455	-3.725	-3.725	-3.8167	-4.1188	-3.5271	-3.8917	-4.0188	-3.7042	-4.1208	-3.8354	-3.8771	-4.2312	-3.8208	-4.0354	-3.9625	-3.6813	104.849	-91.785	207.336	177.630	104.519	65.194	211.697	197.687	120.554	-123.275	-69.381	201.475	-67.556	155.629	106.382	62.672	0.00097304	9.9299e-05	9.5593e-05	895.11	1.3084e-06	2.3523e-06	1123.7	326.54	5.172e-07	3.3054e-06	456.75	194.44	140.4	56.551	4.5414e-06	80.061	0.00013446	0.00015369	4.2124e-05	750.96	1.4585e-06	1.7047e-06	941.97	261.99	1.499e-06	1.7628e-06	342.18	140.23	98.931	40.827	1.6448e-06	54.745	128.880	180.319	-87.913	-126.718	102.414	-82.766	-127.738	-121.585	-31.150	-79.097	-123.431	-120.020	-118.727	-113.247	-6.395	-115.779	-8191	255	
4094.046	1	1	0	0	0.095346	0.11112	0.049093	0.5042	0.21498	0.14397	0.24514	0.25191	0.19437	0.091729	0.079911	0.1604	0.23841	0.061458	0.15765	0.096328	-3.6625	-3.7562	-3.5687	-4.15	-3.6479	-3.8958	-4.1125	-3.7083	-4.0021	-3.8729	-3.7083	-4.3458	-3.8312	-3.9667	-4.0646	-3.6667	-101.274	51.833	165.658	180.907	-131.198	130.174	163.478	185.866	-43.559	-78.147	165.564	-107.305	145.455	92.524	-82.259	210.750	0.00098515	0.00017377	0.00010412	896.31	2.1721e-06	5.6412e-06	1118.5	326.23	1.6596e-06	4.2332e-06	452.19	193.09	138.43	55.742	3.4481e-06	78.516	0.00014234	0.00016169	4.129e-05	750.46	1.5537e-06	1.7701e-06	937.11	260.57	1.558e-06	1.7404e-06	337.83	138.23	98.099	40.266	1.5502e-06	53.545	113.837	-1.041	-90.567	-126.439	207.648	-18.497	-127.647	-121.591	-55.724	-28.725	-123.119	-120.253	-119.032	-113.119	-47.196	-116.003	-8191	255	
4094.166	1	1	0	0	0.32098	0.29513	0.42905	0.20521	0.16568	0.13379	0.25655	0.25501	0.13747	0.19769	0.10955	0.11293	0.21549	0.18327	0.23246	0.49889	-3.6458	-3.8917	-3.6125	-4.2312	-3.6813	-3.7875	-4.1562	-3.6708	-4.0521	-3.8208	-3.7313	-4.1833	-3.7396	-3.7812	-3.9625	-3.8208	206.453	6.929	-35.418	121.607	-36.936	80.521	74.529	186.225	-4.992	-78.411	36.560	164.817	113.585	134.219	-71.288	199.108	0.0010117	0.00032232	0.00010437	892.32	4.1395e-06	2.2868e-06	1114.5	326.01	5.2323e-06	2.7197e-06	450.17	191.69	138.42	55.716	9.5866e-07	78.401	0.00014894	0.00015719	3.9631e-05	742.96	1.6684e-06	1.7407e-06	931.01	260.14	1.7349e-06	1.7661e-06	337.66	138.31	99.555	40.363	1.6284e-06	53.83	110.130	-8.162	-114.320	-126.639	174.195	104.840	-127.528	-121.851	-101.911	-30.908	-123.183	-120.237	-118.743	-112.943	-66.051	-116.053	-8191	255	
4094.262	1	1	0	0	0.19742	0.17232	0.25526	0.089694	0.090651	0.21074	0.13516	0.13734	0.12471	0.047611	0.19158	0.044852	0.23696	0.17244	0.14132	0.11942	-3.6167	-4.0437	-3.3833	-4.0604	-3.5438	-3.7417	-4.2917	-3.4479	-3.9979	-3.8542	-3.6521	-4.0792	-3.8729	-3.7521	-4.2688	-3.8688	-22.235	-107.072	197.229	219.684	1.312	-85.857	139.124	118.526	-32.335	58.911	-114.746	-130.430	-10.129	68.826	206.167	189.689	0.0012939	0.00021776	7.033e-06	894.92	1.3303e-06	1.8306e-06	1121.1	324.34	1.6585e-06	4.5119e-06	450.51	191.29	138.85	55.716	3.415e-06	78.666	0.00017079	0.00016433	4.2254e-05	752.49	1.9198e-06	1.8295e-06	940.99	262.59	2.0003e-06	1.8782e-06	341.23	140.62	102.1	40.821	1.8277e-06	55.189	125.593	-96.619	-35.900	-126.753	139.710	37.497	-127.622	-121.935	-85.841	7.495	-123.341	-119.998	-118.820	-113.090	-34.637	-116.028	-8191	255	
4094.358	1	1	0	0	0.012151	0.08135	0.061419	0.32057	0.071527	0.12218	0.22129	0.11769	0.088112	0.11825	0.26119	0.20595	0.068506	0.052168	0.16396	0.084481	-3.6437	-4.0521	-3.6688	-4.2521	-3.8708	-3.6542	-4.2312	-3.8021	-3.8563	-4.1021	-3.5521	-4.1208	-4.0375	-3.8792	-4.0833	-3.8146	-30.148	142.465	-79.436	86.934	13.745	77.302	88.768	171.087	200.491	-12.869	198.908	156.245	-114.563	193.852	113.453	-123.023	0.00098593	0.00043408	7.159e-05	899.56	1.4545e-06	6.4226e-06	1127.4	326.05	9.4643e-07	2.5346e-06	450.71	192.67	140.11	55.947	3.4015e-06	79.168	0.00020359	0.0001848	4.8135e-05	775.89	2.2796e-06	2.0827e-06	956.93	269.88	2.3263e-06	2.1066e-06	346.21	144.44	104.59	41.481	2.0495e-06	57.02	117.736	-30.429	215.746	-126.850	17.289	-0.350	-127.666	-121.703	57.800	-39.929	-123.187	-120.157	-118.766	-113.146	10.922	-116.182	-8191	255	
4094.453	1	1	0	0	0.2758	0.19834	0.20387	0.15595	0.080172	0.17946	0.32676	0.10872	0.2137	0.21052	0.23693	0.17545	0.15006	0.21046	0.2109	0.11874	-3.2562	-3.9875	-3.5729	-4.0083	-3.7833	-3.4042	-4.1979	-3.9708	-3.7083	-4.2604	-3.6896	-4.1271	-3.9313	-3.7229	-3.9188	-3.7958	-100.948	-128.947	-125.398	164.092	20.815	-61.152	164.214	119.155	177.454	8.055	141.552	189.209	-70.877	184.845	194.510	81.423	0.00080863	9.7412e-05	3.6263e-05	900.93	4.0962e-06	4.0433e-06	1138.6	327.81	3.752e-06	2.2754e-06	451.49	192.56	139.58	55.523	1.607e-06	78.733	0.00022756	0.00020735	5.4501e-05	802.4	2.5716e-06	2.3863e-06	977.37	278.09	2.6424e-06	2.4075e-06	353.85	147.85	106.02	41.938	2.3272e-06	57.883	146.756	5.772	-36.155	-126.690	-9.016	-15.791	-127.679	-121.762	3.771	65.029	-123.239	-120.032	-118.819	-113.295	-123.381	-116.009	-8191	255	
4094.551	1	1	0	0	0.26122	0.20882	0.19473	0.11784	0.31229	0.44354	0.2387	0.037283	0.27238	0.056312	0.11144	0.14729	0.1635	0.068466	0.0175	0.23229	-3.3917	-4.0417	-3.4562	-4.0813	-3.9021	-3.5563	-4.1188	-3.8479	-3.7562	-4.0583	-3.8521	-4.1292	-4.1979	-3.6625	-4.1083	-4.0854	0.555	103.084	-7.565	164.066	213.125	9.669	53.869	-6.459	-106.615	63.864	124.130	98.193	204.336	-69.660	187.441	52.558	0.00067172	0.00034971	6.8999e-05	905.66	3.4164e-08	4.7851e-06	1132.1	323.84	6.0115e-06	5.3869e-06	446.65	189.99	137.59	55.244	3.3489e-06	77.95	0.0002391	0.00021778	5.9534e-05	816.69	2.5727e-06	2.397e-06	981.81	278.81	2.6169e-06	2.405e-06	353.69	147.32	104.82	41.51	2.5296e-06	57.623	130.885	-91.796	169.890	-126.696	206.544	-38.154	-127.741	-121.646	18.438	-38.571	-123.302	-120.294	-118.810	-113.023	-123.660	-115.976	-8191	255	
4094.670	1	1	0	0	0.10071	0.093443	0.094182	0.077346	0.076085	0.045724	0.20907	0.1437	0.14157	0.19269	0.20947	0.30477	0.2147	0.18421	0.16677	0.01487	-3.2083	-3.9979	-3.7333	-3.7792	-4	-3.6937	-4.1542	-3.8958	-3.525	-4.2375	-3.6896	-4.125	-4.2417	-3.6063	-4.0271	-3.9667	214.995	135.949	117.027	45.513	38.209	-76.069	214.553	-110.699	1.802	-134.843	182.418	202.969	-124.348	162.671	-32.450	-75.441	0.0011678	0.00045567	0.00013197	898.58	5.5719e-06	1.2308e-06	1123.3	321.59	1.2213e-06	5.8127e-06	446.2	190	137.63	55.219	3.3825e-06	77.63	0.00023723	0.00021901	6.5485e-05	816.65	2.5671e-06	2.3797e-06	984.96	277.62	2.5404e-06	2.3371e-06	356.6	146.26	104	41.341	2.6623e-06	57.325	134.973	-8.869	76.811	-126.625	-26.579	99.540	-127.726	-121.640	-42.392	-73.812	-123.354	-120.201	-118.576	-113.407	168.617	-115.890	-8191	255	
4094.743	1	1	0	0	0.087869	0.22064	0.041165	0.27469	0.086438	0.28863	0.16611	0.21017	0.068871	0.1649	0.078746	0.2586	0.19747	0.27819	0.14842	0.12162	-3.1375	-4.15	-3.7646	-3.7958	-4.0958	-3.6146	-4.0979	-3.9104	-3.4667	-4.1042	-3.8625	-3.8021	-4.2792	-3.7167	-3.8542	-3.9313	-63.985	157.826	-78.361	147.485	-89.823	-92.714	-136.207	143.535	149.104	109.847	151.824	183.982	176.835	202.914	151.706	194.405	0.00090681	0.00027208	0.00014181	901.98	4.8691e-06	2.6583e-06	1126.2	321.58	2.7181e-06	3.1237e-06	447.63	190.03	138.07	55.204	1.2479e-06	78.774	0.00023005	0.00021468	6.9299e-05	811.17	2.4894e-06	2.3728e-06	994.35	276.26	2.4937e-06	2.3886e-06	361.17	146.58	104.22	41.678	2.8088e-06	57.484	135.243	-47.235	195.263	-126.612	-36.294	-55.824	-127.807	-121.551	-55.631	-138.635	-123.300	-120.117	-118.944	-113.123	130.705	-115.946	-8191	255	
4094.862	1	1	0	0	0.18875	0.19372	0.12366	0.21316	0.088965	0.18936	0.25121	0.20928	0.10966	0.14753	0.14043	0.11764	0.1866	0.17907	0.23962	0.31129	-3.2354	-4.0292	-3.7042	-3.9688	-4.0813	-3.6354	-4.125	-4.1188	-3.4771	-4.0771	-4.0729	-3.8479	-4.1375	-3.8542	-3.8458	-4.175	-108.997	151.009	-87.575	-121.263	144.548	-100.326	157.358	146.373	-68.745	-54.482	-80.498	161.846	167.786	144.376	122.452	92.631	0.00058488	0.00053591	5.9958e-05	905.11	4.2259e-06	3.2159e-06	1132.3	323.22	1.656e-06	2.1724e-06	451.52	191.9	138.95	55.909	1.8679e-06	79.324	0.00022501	0.00022181	7.1657e-05	807.88	2.4053e-06	2.4585e-06	999.71	274.85	2.3718e-06	2.4505e-06	361.93	146.19	103.45	42.193	2.7157e-06	57.481	115.442	77.136	-47.930	-126.587	-18.331	63.263	-127.857	-121.744	-20.900	146.311	-123.568	-120.056	-118.672	-113.079	-80.592	-116.031	-8191	255	
4094.958	1	1	0	0	0.051828	0.10848	0.10337	0.092851	0.033344	0.075346	0.37682	0.065889	0.15569	0.087687	0.19633	0.092282	0.12337	0.086669	0.056397	0.25139	-3.2167	-3.8458	-3.7542	-3.5938	-4.1333	-3.7104	-3.9833	-4.1229	-3.4125	-3.9646	-3.9667	-3.8729	-4.1604	-3.8854	-3.8187	-4.0854	-135.933	166.164	-69.414	136.757	161.092	145.495	162.085	125.053	-10.650	68.372	157.712	154.487	-11.090	-31.322	165.146	172.645	0.00094569	0.00039138	8.3372e-05	902.15	3.3126e-06	3.1738e-06	1132.7	321.97	1.4492e-06	7.3318e-06	446.74	190.59	137.79	55.001	4.8419e-06	77.803	0.00020912	0.00022532	6.7787e-05	798.14	2.2658e-06	2.538e-06	992.82	272.33	2.3017e-06	2.6066e-06	357.47	144.52	102.46	42.031	2.6855e-06	56.291	124.582	133.248	-118.513	-126.500	-48.829	152.599	-127.607	-121.579	51.201	193.436	-123.329	-119.994	-118.895	-113.298	-30.947	-115.851	-8191	255	
4095.054	1	1	0	0	0.15786	0.23791	0.038607	0.12578	0.32739	0.046364	0.086296	0.067287	0.13148	0.24978	0.18051	0.13525	0.03639	0.16036	0.059268	0.24401	-3.2021	-3.9208	-3.8708	-3.5292	-4.1167	-3.8229	-3.8708	-4.0563	-3.5896	-3.8771	-4.1646	-3.7083	-4.1854	-4.0188	-3.775	-4.1375	-15.725	61.319	169.441	211.059	175.779	102.639	203.166	52.919	-10.835	-17.071	131.344	-109.050	178.094	153.654	153.402	168.513	0.0010928	0.00012386	0.00019934	894.48	6.5948e-07	2.6823e-06	1118.9	317.61	5.1638e-06	1.9709e-06	439.24	186.79	134.79	54.4	1.6673e-06	76.789	0.00021744	0.00025241	6.9437e-05	796.82	2.4473e-06	2.901e-06	987.38	271.31	2.5773e-06	3.0261e-06	356.65	143.82	104.02	42.727	2.9576e-06	56.656	119.438	193.100	-28.878	-126.819	-120.625	126.354	-127.701	-121.761	167.146	203.943	-123.445	-120.075	-118.604	-113.331	-35.164	-116.058	-8191	255	
4095.150	1	1	0	0	0.17848	0.2219	0.10986	0.27654	0.14345	0.1231	0.30228	0.077495	0.037037	0.13375	0.13299	0.20473	0.27445	0.04559	0.20027	0.18455	-3.2188	-3.9771	-3.9979	-3.7083	-3.9917	-3.7354	-3.8583	-4.4042	-3.7208	-3.8	-4.0542	-3.6854	-4.1521	-3.9854	-3.5333	-4.0958	12.476	-25.364	-94.995	170.405	101.833	3.183	180.655	84.764	-68.583	-15.848	-120.621	214.377	166.186	33.809	-68.525	107.492	0.0010519	0.00046926	0.00010934	895.85	4.1978e-06	3.0745e-06	1118	317.87	4.1708e-06	5.2032e-06	440.92	187.3	135.36	54.471	2.0797e-06	76.98	0.00025466	0.0002904	7.3792e-05	804.03	2.8051e-06	3.1644e-06	989.2	271.96	2.8322e-06	3.1198e-06	355.53	143.7	105.36	42.65	2.7975e-06	56.39	94.561	-8.364	-29.037	-126.483	145.958	12.598	-127.585	-121.644	-129.964	20.977	-123.615	-120.085	-118.858	-113.149	46.885	-116.117	-8191	255	
4095.271	1	1	0	0	0.084866	0.14221	0.096328	0.15938	0.23449	0.18187	0.24531	0.13728	0.042788	0.19325	0.3305	0.20092	0.27765	0.17012	0.2741	0.17556	-3.4521	-3.8458	-4.1354	-3.5542	-4.0333	-4.0625	-3.9729	-4.3708	-3.7271	-3.8146	-4.2708	-3.7083	-4.0062	-3.9646	-3.5958	-4.1937	-110.915	-139.021	-136.009	128.724	216.893	-130.776	158.425	156.477	-47.638	145.872	153.391	197.396	204.390	123.849	129.212	-122.822	0.001165	0.0004424	4.8935e-05	885.24	2.4055e-06	8.1479e-06	1114	318.68	2.3253e-06	5.5428e-06	442.6	188.24	136.03	54.994	4.4861e-06	78.125	0.00026557	0.00027948	7.0251e-05	793.74	2.9228e-06	2.998e-06	981.11	270.05	2.9136e-06	2.9058e-06	352.57	143.43	105.72	42.214	2.522e-06	56.317	96.440	-35.146	-12.456	-126.410	-139.321	-50.657	-127.515	-121.564	191.263	-29.368	-123.157	-120.103	-118.626	-113.187	48.556	-116.037	-8191	255	
4095.343	1	1	0	0	0.14394	0.027253	0.098912	0.016123	0.14718	0.17016	0.18677	0.10175	0.21178	0.29773	0.14916	0.27277	0.21986	0.19525	0.040665	0.14098	-3.4375	-3.7229	-4.0917	-3.7854	-3.8667	-4.0292	-3.7792	-4.1312	-3.6875	-3.75	-4.35	-3.8187	-4.1146	-4.1146	-3.5521	-4.3667	-98.501	-34.452	-103.348	120.479	217.029	75.152	99.910	196.508	215.771	-4.841	20.202	-118.186	-125.498	192.951	202.690	92.836	0.0011213	9.5536e-05	6.8821e-05	882.26	4.0317e-06	4.1736e-06	1116.3	319.71	2.1651e-06	5.6061e-06	443.75	190.25	136.86	55.138	2.1108e-06	77.449	0.00025432	0.00024148	6.1146e-05	780.6	2.6997e-06	2.5435e-06	963.79	267.76	2.6709e-06	2.4666e-06	347.17	143.02	104.69	41.349	2.2425e-06	55.849	103.542	181.318	-40.386	-126.333	148.796	3.448	-127.490	-121.625	-105.352	-15.568	-123.209	-120.121	-118.408	-112.966	-11.444	-116.035	-8191	255	
#DATA ENDS
