BOXY.EXE: ISS Imagent and Oximeter Data Acquisition Program Version 0.80
Ascii Record File

#ACQ INFORMATION
2  Detector Channels 
16  External MUX Channels 
1  Auxiliary Channels 
5000  Waveform (CCF) Frequency (Hz)
1  Waveforms Skipped 
30  Waveforms Averaged 
1  Cycles Averaged 
16  Acquisitions per Waveform 
10.0806  Updata Rate (Hz) 

#FILE INFORMATION
TRUE -- External MUX Channel results are PARSED.
FALSE -- AC DC and Phase are NOT grouped.
TRUE -- Companion Program Settings File CREATED.
FALSE -- AC data not excluded
FALSE -- DC data not excluded
FALSE -- Phase data not excluded
FALSE -- Auxillary Chn. data not excluded
Tab delimiters

#CALIBRATION STATE
TRUE -- Waveform Calibration Values APPLIED.


#AUX CALIBRATION VALUES
Val Type	aux-1	

Term	1.0000e+00	
Factor	0.0000e+00	


#WF CALIBRATION VALUES
A = Detector Channel
Val Type	A-AC1	A-AC2	A-AC3	A-AC4	A-AC5	A-AC6	A-AC7	A-AC8	A-AC9	A-AC10	A-AC11	A-AC12	A-AC13	A-AC14	A-AC15	A-AC16	A-DC1	A-DC2	A-DC3	A-DC4	A-DC5	A-DC6	A-DC7	A-DC8	A-DC9	A-DC10	A-DC11	A-DC12	A-DC13	A-DC14	A-DC15	A-DC16	A-Ph1	A-Ph2	A-Ph3	A-Ph4	A-Ph5	A-Ph6	A-Ph7	A-Ph8	A-Ph9	A-Ph10	A-Ph11	A-Ph12	A-Ph13	A-Ph14	A-Ph15	A-Ph16	

Term	0.00000e+00	0.00000e+00	0.00000e+00	0.00000e+00	0.00000e+00	0.00000e+00	0.00000e+00	0.00000e+00	0.00000e+00	0.00000e+00	0.00000e+00	0.00000e+00	0.00000e+00	0.00000e+00	0.00000e+00	0.00000e+00	0.00000e+00	0.00000e+00	0.00000e+00	0.00000e+00	0.00000e+00	0.00000e+00	0.00000e+00	0.00000e+00	0.00000e+00	0.00000e+00	0.00000e+00	0.00000e+00	0.00000e+00	0.00000e+00	0.00000e+00	0.00000e+00	0.00000e+00	0.00000e+00	0.00000e+00	0.00000e+00	0.00000e+00	0.00000e+00	0.00000e+00	0.00000e+00	0.00000e+00	0.00000e+00	0.00000e+00	0.00000e+00	0.00000e+00	0.00000e+00	0.00000e+00	0.00000e+00	
Factor	1.00000e+00	1.00000e+00	1.00000e+00	1.00000e+00	1.00000e+00	1.00000e+00	1.00000e+00	1.00000e+00	1.00000e+00	1.00000e+00	1.00000e+00	1.00000e+00	1.00000e+00	1.00000e+00	1.00000e+00	1.00000e+00	1.00000e+00	1.00000e+00	1.00000e+00	1.00000e+00	1.00000e+00	1.00000e+00	1.00000e+00	1.00000e+00	1.00000e+00	1.00000e+00	1.00000e+00	1.00000e+00	1.00000e+00	1.00000e+00	1.00000e+00	1.00000e+00	X	X	X	X	X	X	X	X	X	X	X	X	X	X	X	X	

B = Detector Channel
Val Type	B-AC1	B-AC2	B-AC3	B-AC4	B-AC5	B-AC6	B-AC7	B-AC8	B-AC9	B-AC10	B-AC11	B-AC12	B-AC13	B-AC14	B-AC15	B-AC16	B-DC1	B-DC2	B-DC3	B-DC4	B-DC5	B-DC6	B-DC7	B-DC8	B-DC9	B-DC10	B-DC11	B-DC12	B-DC13	B-DC14	B-DC15	B-DC16	B-Ph1	B-Ph2	B-Ph3	B-Ph4	B-Ph5	B-Ph6	B-Ph7	B-Ph8	B-Ph9	B-Ph10	B-Ph11	B-Ph12	B-Ph13	B-Ph14	B-Ph15	B-Ph16	

Term	0.00000e+00	0.00000e+00	0.00000e+00	0.00000e+00	0.00000e+00	0.00000e+00	0.00000e+00	0.00000e+00	0.00000e+00	0.00000e+00	0.00000e+00	0.00000e+00	0.00000e+00	0.00000e+00	0.00000e+00	0.00000e+00	0.00000e+00	0.00000e+00	0.00000e+00	0.00000e+00	0.00000e+00	0.00000e+00	0.00000e+00	0.00000e+00	0.00000e+00	0.00000e+00	0.00000e+00	0.00000e+00	0.00000e+00	0.00000e+00	0.00000e+00	0.00000e+00	-2.12444e+02	-1.41062e+02	-1.70892e+02	-1.83732e+02	-1.12109e+02	-1.05118e+02	-1.55012e+02	-1.62015e+02	-9.09407e+01	-9.85453e+01	-1.70533e+02	-1.70350e+02	-1.84933e+02	-1.77024e+02	-9.26801e+01	-1.49740e+02	
Factor	3.86930e-05	3.87587e-05	1.11420e-05	1.84525e-01	4.76322e-07	4.00243e-07	1.77227e-01	5.92448e-02	4.03067e-07	4.33660e-07	9.47737e-02	3.35258e-02	3.39684e-02	1.07113e-02	3.85728e-07	1.51601e-02	1.41076e-07	1.41361e-07	3.93248e-08	7.31989e-02	1.55024e-09	1.55026e-09	6.73368e-02	2.26348e-02	1.55356e-09	1.55040e-09	3.24457e-02	1.12648e-02	1.11019e-02	3.63347e-03	1.55221e-09	4.80811e-03	X	X	X	X	X	X	X	X	X	X	X	X	X	X	X	X	



#DISTANCE SETTINGS
A = Detector Channel
A-1	A-2	A-3	A-4	A-5	A-6	A-7	A-8	A-9	A-10	A-11	A-12	A-13	A-14	A-15	A-16	

2.5000e+00	3.0000e+00	2.5000e+00	3.0000e+00	2.0000e+00	3.0000e+00	1.5000e+00	3.0000e+00	3.0000e+00	3.0000e+00	3.0000e+00	3.0000e+00	3.0000e+00	3.0000e+00	1.5000e+00	3.0000e+00	

B = Detector Channel
B-1	B-2	B-3	B-4	B-5	B-6	B-7	B-8	B-9	B-10	B-11	B-12	B-13	B-14	B-15	B-16	

1.0000e+01	1.0000e+01	1.0000e+01	1.4400e+00	1.0000e+01	1.0000e+01	1.5100e+00	1.9400e+00	1.0000e+01	1.0000e+01	1.9900e+00	2.4900e+00	2.4100e+00	2.9000e+00	1.0000e+01	2.9800e+00	




#DATA BEGINS
time	group	step	mark	flag	A-AC1	A-AC2	A-AC3	A-AC4	A-AC5	A-AC6	A-AC7	A-AC8	A-AC9	A-AC10	A-AC11	A-AC12	A-AC13	A-AC14	A-AC15	A-AC16	A-DC1	A-DC2	A-DC3	A-DC4	A-DC5	A-DC6	A-DC7	A-DC8	A-DC9	A-DC10	A-DC11	A-DC12	A-DC13	A-DC14	A-DC15	A-DC16	A-Ph1	A-Ph2	A-Ph3	A-Ph4	A-Ph5	A-Ph6	A-Ph7	A-Ph8	A-Ph9	A-Ph10	A-Ph11	A-Ph12	A-Ph13	A-Ph14	A-Ph15	A-Ph16	B-AC1	B-AC2	B-AC3	B-AC4	B-AC5	B-AC6	B-AC7	B-AC8	B-AC9	B-AC10	B-AC11	B-AC12	B-AC13	B-AC14	B-AC15	B-AC16	B-DC1	B-DC2	B-DC3	B-DC4	B-DC5	B-DC6	B-DC7	B-DC8	B-DC9	B-DC10	B-DC11	B-DC12	B-DC13	B-DC14	B-DC15	B-DC16	B-Ph1	B-Ph2	B-Ph3	B-Ph4	B-Ph5	B-Ph6	B-Ph7	B-Ph8	B-Ph9	B-Ph10	B-Ph11	B-Ph12	B-Ph13	B-Ph14	B-Ph15	B-Ph16	aux-1	digaux	

2117.721	1	1	0	256	0.1854	0.25649	0.16211	0.33603	0.11376	0.10526	0.11301	0.18226	0.019024	0.061164	0.079208	0.14767	0.087864	0.1473	0.10178	0.1974	-3.3896	-4.1521	-3.9688	-4.0604	-4.1354	-3.9417	-4.0813	-4.2167	-3.7042	-4.0958	-4.1937	-3.7271	-4.3146	-3.8646	-3.9271	-4.3083	40.433	266.510	184.479	257.958	163.624	115.747	257.896	183.202	98.970	195.510	-67.185	-55.046	279.677	80.671	107.026	144.050	0.00017231	0.00021018	6.6867e-05	1208.1	1.1995e-06	7.51e-07	1277.4	246.52	1.5339e-06	1.405e-06	309.59	86.542	67.895	19.634	7.8239e-07	27.331	4.7261e-05	4.935e-05	1.4835e-05	960.1	4.9948e-07	5.4266e-07	1035.8	193.19	4.9485e-07	5.4678e-07	226.59	63.036	47.21	14.394	5.4639e-07	19.296	73.829	64.552	-55.290	-60.191	-46.482	59.317	-60.089	-52.963	40.011	144.867	-53.338	-46.709	-46.459	-39.450	85.558	-40.326	-8191	255	
2117.840	1	1	0	0	0.25707	0.017039	0.064601	0.21191	0.088132	0.108	0.34149	0.10418	0.12367	0.10776	0.24164	0.31847	0.14243	0.084324	0.20045	0.14611	-3.1937	-4.0625	-3.9917	-4.1167	-4.2188	-3.8542	-4.1458	-4.2292	-3.9083	-4.1104	-4.1792	-3.7833	-4.1833	-3.8438	-3.9604	-4.2479	1.820	-62.009	-67.688	37.173	214.023	21.038	231.873	267.096	118.881	18.669	140.587	231.086	185.487	175.286	267.198	248.066	0.00021592	9.5147e-05	2.5025e-05	1211	1.6134e-06	1.3637e-06	1284.9	245.89	9.3125e-07	1.839e-06	309.68	86.36	67.373	19.463	5.3685e-07	27.486	4.3323e-05	4.8399e-05	1.3443e-05	958.33	4.6441e-07	5.3579e-07	1034.1	192.24	4.7681e-07	5.5623e-07	225.34	62.905	47.166	14.41	5.4042e-07	19.339	60.963	67.425	-5.892	-60.173	76.920	81.354	-60.147	-52.808	20.163	188.955	-53.193	-46.865	-46.428	-39.187	87.882	-40.272	-8191	255	
2117.936	1	1	0	0	0.13262	0.24999	0.12081	0.14087	0.22526	0.29281	0.11142	0.24609	0.18159	0.033524	0.21009	0.25096	0.19469	0.19186	0.21012	0.22972	-3.3396	-3.8958	-4.1792	-3.8104	-4.1667	-3.9688	-4.0625	-4.3167	-3.8396	-3.9437	-4.1979	-3.7417	-4.35	-4.175	-3.7958	-4.2521	59.567	242.665	-21.132	275.250	152.368	126.222	241.729	263.912	257.924	166.268	280.065	-52.779	0.574	34.611	179.080	133.477	0.00019588	0.00011163	4.0308e-05	1202.5	1.3296e-07	1.4963e-06	1280.6	246.03	1.7045e-06	2.296e-06	310.04	86.204	68.085	19.692	1.0427e-06	27.447	4.6661e-05	5.3833e-05	1.3765e-05	955.22	5.3098e-07	5.9592e-07	1033.4	192.66	5.4965e-07	6.05e-07	226.08	63.108	47.961	14.612	5.6935e-07	19.44	81.617	108.645	-11.713	-60.202	85.864	48.112	-60.196	-53.351	213.275	46.425	-53.139	-46.638	-46.524	-39.945	-18.854	-40.279	-8191	255	
2118.032	1	1	0	0	0.023723	0.12054	0.0010664	0.032031	0.24422	0.21344	0.25356	0.26226	0.17313	0.14289	0.059502	0.36032	0.24043	0.15111	0.16204	0.25093	-3.5062	-4.1229	-4.2729	-3.7833	-4.1396	-4.0208	-4.0458	-4.4396	-3.8	-3.8896	-4.2229	-3.7729	-4.1562	-3.9896	-3.8312	-4.25	258.664	54.793	180.000	-9.063	-63.368	195.986	256.750	252.889	287.201	-4.978	287.281	260.473	288.240	202.455	171.024	273.352	0.00026744	0.00014075	5.8184e-05	1209.2	1.0298e-06	1.8924e-06	1280.3	247.11	1.5437e-07	1.9344e-06	308.86	86.945	68.086	19.672	5.4672e-07	27.472	5.4054e-05	5.6585e-05	1.4375e-05	961.55	6.0298e-07	6.1452e-07	1036.5	193.7	6.1163e-07	6.02e-07	225.99	63.367	48.403	14.538	5.3925e-07	19.475	68.601	-64.440	-25.285	-59.914	124.921	43.763	-60.137	-53.133	136.514	-2.897	-53.071	-46.736	-46.718	-39.809	-31.060	-39.996	-8191	255	
2118.128	1	1	0	0	0.11772	0.099105	0.16466	0.24737	0.055002	0.028422	0.25375	0.034402	0.25152	0.11898	0.25618	0.070611	0.15874	0.20166	0.24721	0.26057	-3.3604	-3.8979	-4.0604	-3.8271	-4.0125	-4.1729	-3.8292	-4.1792	-3.9708	-3.9729	-4.325	-3.7333	-4.0875	-4.15	-3.9667	-4.2396	285.915	41.506	-9.565	138.240	275.695	-21.583	178.283	269.287	50.124	44.978	213.617	-50.321	243.039	41.182	277.758	-68.402	0.00022156	9.3852e-05	2.7428e-05	1210.6	2.6438e-07	1.4342e-06	1281.1	247.7	8.0017e-07	1.8358e-06	311.56	86.256	67.701	19.59	9.6121e-07	27.513	5.4768e-05	5.0582e-05	1.2941e-05	957.99	5.7247e-07	5.3238e-07	1031.8	193.13	5.6156e-07	5.2411e-07	225.07	63.162	47.988	14.362	4.7532e-07	19.405	31.047	-12.619	-7.594	-60.073	-46.345	7.542	-60.140	-53.216	72.949	79.323	-53.304	-47.188	-46.385	-39.455	68.281	-40.462	-8191	255	
2118.225	1	1	0	0	0.029105	0.18388	0.0198	0.046415	0.18252	0.23965	0.17763	0.18681	0.16127	0.13241	0.014893	0.24451	0.25832	0.051435	0.10098	0.17135	-3.8083	-3.8833	-4.2583	-3.8667	-3.9604	-4.2333	-3.8396	-4.3854	-3.9437	-3.8063	-4.1583	-3.8833	-4.0458	-4.2042	-3.8104	-4.3021	80.504	-51.470	131.131	205.397	178.773	229.446	279.442	274.777	254.795	13.871	12.765	238.024	-25.064	-10.344	130.384	35.009	0.00023011	0.00019219	2.6356e-05	1206	8.2989e-07	1.0642e-06	1273.3	246.42	1.3674e-06	1.3877e-06	309.98	86.473	68.582	19.662	4.9084e-08	27.57	5.0716e-05	4.5741e-05	1.1821e-05	954.44	5.4598e-07	4.8793e-07	1026.5	193.18	5.3728e-07	4.8849e-07	224.18	63.353	47.851	14.342	4.64e-07	19.581	4.730	26.330	-7.848	-60.250	50.716	-68.795	-60.210	-53.098	51.376	-6.931	-53.354	-46.999	-46.636	-39.551	-48.455	-40.115	-8191	255	
2118.321	1	1	0	0	0.12628	0.10703	0.17848	0.085851	0.11729	0.21871	0.2063	0.11957	0.2389	0.24264	0.12096	0.14832	0.21956	0.039273	0.10216	0.20339	-3.5708	-3.7687	-4.1833	-4.1667	-3.9062	-4.3229	-3.8917	-4.3417	-4.3104	-3.8146	-4.3688	-3.8854	-3.9833	-4.2	-3.7292	-4.1021	165.189	280.010	183.552	195.141	-22.400	-48.201	201.503	-14.766	218.794	262.630	249.504	184.508	278.917	275.162	253.286	268.951	0.00018217	0.00020871	2.746e-05	1204.1	8.6301e-07	1.6864e-06	1275.8	247	9.0427e-07	1.1884e-06	310.06	86.738	68.124	19.738	7.0787e-07	27.495	4.9491e-05	4.4608e-05	1.1825e-05	957.79	5.312e-07	4.8434e-07	1026.9	193.72	5.1354e-07	4.7273e-07	224.39	63.604	47.606	14.314	4.6739e-07	19.614	18.051	-28.702	-29.983	-60.249	3.336	28.548	-60.076	-52.788	98.303	29.638	-53.250	-46.735	-46.501	-39.443	90.344	-40.142	-8191	255	
2118.441	1	1	0	0	0.10143	0.18742	0.16964	0.063956	0.11192	0.17248	0.051324	0.096681	0.17136	0.096233	0.077706	0.083726	0.089683	0.12231	0.11786	0.34858	-3.6708	-3.7625	-4.3667	-4.1083	-3.9979	-4.3125	-3.9083	-4.0062	-4.0312	-3.6562	-4.2854	-4.0563	-3.8354	-4.2562	-3.8854	-4.25	-51.439	190.917	255.758	248.727	262.514	194.951	-17.095	238.407	287.846	-64.182	287.958	-18.066	-14.298	-31.967	79.784	254.154	4.8352e-05	0.00010199	2.0419e-05	1202.9	1.5039e-06	1.6991e-06	1275.4	247.13	2.5512e-06	2.3854e-06	311.09	86.881	67.959	19.844	2.2776e-06	27.864	4.6608e-05	4.2321e-05	1.1997e-05	955.6	5.0349e-07	4.6714e-07	1028.7	194.3	5.0357e-07	4.7388e-07	225.99	63.786	47.609	14.372	5.214e-07	19.754	-29.375	46.435	241.149	-59.885	-59.212	56.884	-60.051	-53.086	100.226	-26.639	-53.393	-46.946	-46.919	-39.282	61.821	-40.421	-8191	255	
2118.536	1	1	0	0	0.092536	0.16367	0.14239	0.050717	0.13055	0.14576	0.14205	0.3124	0.077412	0.24054	0.048602	0.10147	0.35155	0.042971	0.13809	0.07605	-3.9042	-3.6167	-4.2729	-4.1917	-3.8396	-4.3771	-4.0396	-4.1562	-4.1479	-3.6479	-4.3667	-4.2229	-3.8375	-4.2042	-3.7854	-4.0292	285.162	219.355	152.084	50.854	-53.673	189.149	-33.810	206.081	0.930	193.511	-39.576	220.373	187.449	-47.193	-56.281	18.277	7.9393e-05	0.00015392	8.0521e-05	1203.9	2.2608e-06	1.3968e-06	1280.8	248.73	1.8606e-06	7.2153e-07	311.82	87.049	67.776	19.672	1.1692e-06	27.882	4.6893e-05	4.2764e-05	1.3231e-05	957.76	5.0562e-07	4.6853e-07	1034.5	194.85	4.8806e-07	4.6505e-07	226.78	63.808	47.635	14.307	5.3636e-07	19.663	80.791	35.773	64.230	-60.136	44.120	64.778	-60.142	-53.114	54.411	-0.644	-53.120	-46.805	-46.420	-39.853	200.805	-39.997	-8191	255	
2118.632	1	1	0	0	0.08145	0.1368	0.22148	0.23594	0.086877	0.21605	0.16407	0.21972	0.11766	0.22868	0.15746	0.17816	0.18718	0.22736	0.15158	0.051673	-3.9813	-3.7417	-4.2729	-4.2083	-3.7292	-4.1729	-4.1438	-4.0563	-4.1708	-3.7917	-4.225	-4.2333	-3.6771	-4.2833	-3.9938	-3.8104	6.444	193.464	99.831	218.540	-48.194	181.416	192.478	-69.157	130.946	137.346	205.655	275.916	236.295	195.382	112.236	137.816	3.9669e-05	5.7527e-05	3.2399e-05	1205.7	9.1663e-07	5.4656e-07	1281.6	248.37	9.369e-07	6.5137e-07	310.67	86.66	68.032	19.903	1.7183e-06	27.884	4.3793e-05	4.1517e-05	1.3563e-05	958.37	4.7338e-07	4.5766e-07	1034.8	194.16	4.6599e-07	4.7047e-07	227.33	63.429	47.353	14.428	5.5085e-07	19.608	2.229	226.364	56.178	-60.157	195.432	130.766	-60.209	-53.071	117.728	72.690	-53.453	-46.856	-46.317	-39.703	103.152	-40.067	-8191	255	
2118.728	1	1	0	0	0.20871	0.1094	0.045195	0.26634	0.2312	0.11443	0.20844	0.30755	0.15525	0.06707	0.21976	0.35986	0.11545	0.13249	0.10493	0.27272	-3.9979	-3.95	-4.1208	-4.4104	-3.7271	-4.1833	-4.2104	-3.9792	-4.3979	-3.7562	-4.2458	-4.3667	-3.8146	-4.0917	-4.1167	-3.8292	-51.652	-29.471	-64.627	-70.532	-62.702	115.350	200.605	208.934	56.397	195.335	238.507	271.168	46.903	239.952	173.070	-32.162	7.4608e-05	0.00013542	3.4871e-05	1214.3	7.168e-07	1.6753e-06	1279.6	247.65	8.1525e-07	2.461e-07	311.3	86.923	68.345	19.871	1.8219e-06	28.007	4.397e-05	4.5611e-05	1.418e-05	961.97	4.7745e-07	5.2075e-07	1036	194.15	4.7488e-07	5.2189e-07	227.57	63.399	47.451	14.554	5.4669e-07	19.604	111.697	46.530	-15.422	-60.236	-18.675	136.593	-60.035	-52.912	159.334	-49.583	-53.455	-46.785	-46.400	-39.706	-4.645	-40.185	-8191	255	
2118.824	1	1	0	0	0.072293	0.060863	0.15814	0.21868	0.25103	0.24824	0.16166	0.07681	0.23841	0.1266	0.15712	0.19553	0.20837	0.18624	0.1355	0.037368	-3.8333	-3.775	-3.8958	-4.3063	-3.7333	-4.0979	-4.2333	-3.7938	-4.3354	-3.8833	-3.7625	-4.4667	-3.8146	-4.0104	-4.0729	-3.9479	-42.937	-40.028	280.824	-32.582	157.202	-37.101	-66.334	215.259	81.361	284.650	40.778	50.807	279.489	30.672	39.171	250.887	7.1807e-05	4.5279e-05	2.7939e-05	1212.4	8.3469e-07	4.1912e-07	1286	249.49	8.6822e-07	7.6293e-07	313.11	87.133	68.481	19.743	7.2578e-07	27.787	4.287e-05	4.819e-05	1.3431e-05	960.02	4.6528e-07	5.3219e-07	1036.9	194.13	4.608e-07	5.3549e-07	227.06	63.326	47.528	14.562	5.1296e-07	19.507	161.768	229.672	-2.930	-60.177	150.677	-41.004	-60.087	-53.137	8.916	59.563	-53.257	-46.702	-46.597	-39.739	93.226	-40.258	-8191	255	
2118.920	1	1	0	0	0.21827	0.1939	0.098283	0.12351	0.13409	0.15194	0.12802	0.43414	0.12794	0.14163	0.10067	0.36857	0.20749	0.2576	0.077927	0.092323	-3.8375	-3.9208	-3.8771	-4.4146	-3.8542	-4.0146	-4.3729	-3.7354	-4.1396	-4.0563	-4.1312	-4.4208	-3.875	-4.0708	-4.1208	-3.8146	206.368	157.673	98.900	-46.545	131.993	278.370	249.314	-41.894	88.362	263.535	184.488	-4.383	271.391	23.407	-41.569	-57.431	0.0001866	0.00012505	2.2437e-05	1210.2	8.9529e-07	7.9778e-07	1285.4	248.69	1.4392e-06	1.2391e-06	312.59	87.443	68.496	19.827	1.9844e-07	27.971	4.4224e-05	5.0091e-05	1.2897e-05	958.82	4.8128e-07	5.4334e-07	1034.3	193.52	4.8554e-07	5.3763e-07	226.28	63.352	47.588	14.556	4.7299e-07	19.493	74.008	-33.092	-14.313	-60.276	45.415	62.470	-60.235	-53.120	160.061	102.166	-53.405	-46.889	-46.873	-39.867	78.863	-40.115	-8191	255	
2119.017	1	1	0	0	0.10345	0.10484	0.21373	0.18238	0.093947	0.11239	0.14867	0.45563	0.13447	0.075775	0.10182	0.23245	0.18685	0.24453	0.12115	0.13967	-3.7667	-4.1792	-3.75	-4.3187	-3.9542	-4.0208	-4.2854	-3.5708	-4.2083	-4.0708	-3.8083	-4.3063	-3.9375	-3.9	-4.2583	-3.8479	-1.692	226.457	225.647	-23.319	269.833	20.491	201.716	260.739	157.190	39.719	189.252	197.750	224.968	233.183	12.551	-3.206	0.0002482	0.00014719	5.4434e-05	1207.1	3.3079e-06	1.1563e-06	1278.5	247.86	2.1149e-07	2.1939e-06	310.48	86.861	67.659	19.795	1.7548e-06	27.731	4.4962e-05	4.6665e-05	1.1856e-05	953.75	4.8821e-07	5.0203e-07	1030.8	192.48	4.877e-07	4.9563e-07	224.57	62.649	47.35	14.384	4.4197e-07	19.355	54.283	-24.824	-45.922	-59.994	136.781	135.075	-60.075	-53.231	223.205	11.043	-53.060	-46.866	-45.935	-39.472	4.459	-39.924	-8191	255	
2119.137	1	1	0	0	0.017531	0.12521	0.077647	0.18718	0.057277	0.10834	0.15664	0.10988	0.11048	0.070445	0.097813	0.077806	0.13489	0.049022	0.13338	0.030298	-3.9104	-4.1625	-3.8167	-4.4417	-3.975	-3.9333	-4.4167	-3.8583	-4.1333	-3.9562	-3.8396	-4.3938	-3.925	-3.9042	-4.2479	-3.8625	284.806	173.319	49.605	253.604	98.171	288.435	239.829	-36.776	121.650	246.831	179.329	262.452	4.690	220.551	112.598	276.361	0.00022696	6.9236e-05	5.1235e-05	1199.1	1.7465e-06	8.9128e-08	1270.3	247.17	6.2439e-07	6.3636e-07	308.97	86.484	67.876	19.631	1.3511e-06	27.66	4.586e-05	4.3444e-05	1.1087e-05	947.31	4.9687e-07	4.6775e-07	1022.5	191.68	4.9828e-07	4.5235e-07	223.24	62.667	47.209	14.208	4.1191e-07	19.269	54.694	-10.073	7.885	-60.088	94.763	-21.277	-60.091	-52.858	-53.668	93.120	-53.304	-46.569	-46.425	-39.622	-35.013	-40.166	-8191	255	
2119.233	1	1	0	0	0.15532	0.060652	0.12537	0.12266	0.13384	0.088533	0.25369	0.074044	0.053049	0.15101	0.15303	0.12566	0.31351	0.057602	0.23204	0.21804	-3.7021	-4.2583	-3.7729	-4.25	-3.9813	-3.8167	-4.3792	-3.9458	-4.1958	-4.1521	-3.7667	-4.0833	-4.1646	-3.7938	-4.2396	-4.0646	22.771	149.984	260.873	208.865	27.824	48.434	208.583	285.579	133.950	-54.606	-43.337	244.780	63.663	134.352	-1.098	68.050	0.00020141	4.9007e-05	2.0516e-05	1193.9	2.0539e-06	6.1217e-07	1266.7	246.97	3.989e-07	1.9759e-06	308.64	85.774	67.691	19.65	1.3146e-06	27.574	4.4204e-05	3.9667e-05	1.0312e-05	944.04	4.8248e-07	4.3904e-07	1018.1	191.78	4.8044e-07	4.347e-07	222.39	62.669	47.162	14.187	4.1186e-07	19.356	26.346	-53.704	287.833	-60.148	52.037	83.565	-60.052	-53.020	-58.283	64.663	-53.322	-46.715	-46.706	-39.541	77.752	-40.172	-8191	255	
2119.305	1	1	0	0	0.24392	0.11762	0.18665	0.27006	0.16201	0.071675	0.16416	0.23536	0.283	0.055154	0.10523	0.079046	0.20698	0.29277	0.055405	0.25135	-3.7458	-4.1958	-3.8104	-4.2312	-4.0896	-3.8125	-4.4771	-3.9396	-3.8375	-4.1979	-3.8438	-4.2792	-4.025	-3.675	-4.275	-4.0792	8.889	127.890	39.013	248.436	146.003	29.476	44.061	192.786	-49.691	51.183	229.977	-55.654	142.302	167.621	209.309	-23.598	0.00016108	0.00017559	1.0224e-05	1202.1	2.4466e-06	7.8006e-07	1267.5	247.32	8.846e-07	9.3248e-07	310.86	86.055	67.947	19.7	5.5406e-07	27.893	4.4501e-05	3.9513e-05	1.0492e-05	948.55	4.795e-07	4.4188e-07	1020	192.33	4.7942e-07	4.3669e-07	223.31	62.877	47.191	14.209	4.3314e-07	19.551	51.270	-3.806	-3.140	-60.107	8.803	126.882	-60.289	-52.956	-36.281	112.963	-53.399	-46.892	-46.524	-39.713	10.438	-40.062	-8191	255	
2119.401	1	1	0	0	0.18585	0.079199	0.10733	0.10849	0.18306	0.14486	0.41425	0.23994	0.263	0.25283	0.24978	0.1457	0.25323	0.23616	0.030062	0.21946	-3.5646	-4.2312	-3.7375	-4.1646	-4.0542	-3.7292	-4.2896	-3.9646	-3.8521	-4.3063	-3.8979	-4.1604	-4.2854	-3.8187	-4.1687	-4.0542	286.288	68.997	12.443	-58.251	77.396	273.800	210.781	-51.860	172.131	57.346	214.995	264.745	271.458	249.142	-32.799	118.124	0.00017938	4.5423e-05	8.9039e-06	1202.5	1.1405e-06	1.7436e-06	1274.3	246.35	1.3283e-06	2.3522e-06	311.42	86.528	67.965	19.884	7.4196e-07	27.594	4.3407e-05	3.9957e-05	1.1333e-05	952.98	4.7303e-07	4.3975e-07	1025.7	192.89	4.7351e-07	4.3914e-07	224.66	63.24	47.225	14.269	4.7463e-07	19.526	119.176	237.615	15.234	-60.198	32.373	43.134	-60.151	-52.935	107.745	-0.450	-53.180	-46.809	-46.484	-39.279	133.469	-39.609	-8191	255	
2119.522	1	1	0	0	0.08988	0.2035	0.10961	0.17834	0.12626	0.083322	0.12552	0.10423	0.099482	0.10415	0.18111	0.093121	0.062626	0.14485	0.13436	0.17646	-3.5438	-4.2271	-3.7396	-4.2438	-4.2729	-3.7229	-4.3729	-4.1979	-3.8625	-4.3083	-4.0167	-3.9875	-4.3313	-3.9313	-4.0917	-4.2604	199.231	36.605	-22.325	288.602	101.634	80.970	287.256	268.708	2.614	34.277	207.201	256.776	26.879	71.353	269.829	275.173	0.00025057	0.0001228	1.4623e-05	1204.5	8.7367e-07	6.0424e-07	1276.5	245.92	1.6818e-06	1.7879e-06	310.46	86.807	67.661	19.696	6.5225e-07	27.86	4.3257e-05	3.9367e-05	1.2252e-05	956.07	4.6562e-07	4.3887e-07	1030.5	192.98	4.6986e-07	4.3368e-07	225.4	63.345	47.127	14.246	5.1158e-07	19.543	92.006	145.114	168.604	-60.241	-1.882	112.047	-60.113	-52.890	78.326	23.007	-53.528	-46.765	-46.579	-39.686	58.748	-40.114	-8191	255	
2119.616	1	1	0	0	0.15954	0.26775	0.27894	0.12373	0.16786	0.16427	0.23502	0.068843	0.073944	0.045752	0.30545	0.060364	0.11738	0.13672	0.11944	0.13376	-3.5	-4.1667	-3.9458	-4.0708	-4.2333	-3.8271	-4.325	-4.1896	-3.5771	-4.1375	-4.1479	-3.9167	-4.3	-3.875	-4.0938	-4.2438	156.747	60.655	24.142	239.467	8.909	-15.880	256.283	-49.401	80.910	98.936	48.898	72.910	199.821	279.197	255.461	267.401	0.00034892	0.00017833	2.8743e-05	1206.7	1.537e-06	6.1908e-07	1277.2	246.96	1.6969e-06	1.0852e-06	310.13	85.949	67.572	19.683	6.4146e-07	27.951	4.2882e-05	4.0087e-05	1.3099e-05	954.78	4.6034e-07	4.475e-07	1031.9	193.03	4.6294e-07	4.531e-07	225.75	63.056	47.088	14.321	5.2379e-07	19.471	60.264	83.260	204.791	-60.131	23.948	133.782	-60.206	-53.033	1.357	178.290	-53.186	-46.624	-47.030	-39.594	253.906	-39.784	-8191	255	
2119.714	1	1	0	0	0.17256	0.11426	0.11362	0.33446	0.0057324	0.1948	0.18448	0.081967	0.060993	0.036925	0.075432	0.090325	0.24854	0.13157	0.11183	0.072899	-3.3125	-4.2979	-3.9375	-4.0229	-4.4167	-3.8375	-4.35	-4.2542	-3.7938	-4.2333	-4.1562	-4.1312	-4.3187	-3.8521	-4.0396	-4.4	167.776	198.124	245.750	259.483	35.595	-20.067	-67.933	220.170	35.383	192.455	49.847	230.154	131.588	-26.248	210.704	274.834	4.0228e-05	0.00011634	3.952e-05	1203.3	5.4603e-07	1.2782e-06	1279.4	248.27	6.2844e-07	7.8168e-07	311.15	86.427	67.906	19.687	9.5777e-07	27.693	4.1198e-05	4.2627e-05	1.3212e-05	953.28	4.4374e-07	4.7353e-07	1031	193.09	4.3395e-07	4.7698e-07	225.76	62.842	46.966	14.353	5.0242e-07	19.407	111.236	40.841	-64.004	-60.122	79.220	176.390	-60.168	-52.732	201.922	120.780	-53.432	-46.673	-47.014	-39.447	-34.294	-39.990	-8191	255	
2119.833	1	1	0	0	0.0075524	0.22891	0.084779	0.25834	0.11438	0.16728	0.25994	0.12971	0.025023	0.19772	0.15075	0.22956	0.045712	0.28959	0.1055	0.36647	-3.4271	-4.1188	-4.0167	-3.7833	-4.2458	-3.6667	-4.0646	-4.2083	-3.775	-4.0125	-4.1021	-3.7896	-4.2458	-3.9771	-3.9896	-4.3229	102.627	27.189	96.011	-65.259	110.694	-12.280	219.669	257.148	-42.243	64.829	187.620	276.931	-60.241	-59.734	90.312	-53.022	0.00014375	2.6324e-05	3.2395e-05	1206.8	1.5166e-06	2.5306e-07	1274.9	247.42	6.1166e-07	1.4054e-06	310.98	86.628	68.141	19.78	1.3897e-06	27.796	3.9655e-05	4.4788e-05	1.2572e-05	953.44	4.264e-07	4.9939e-07	1029.9	192.77	4.3617e-07	5.0425e-07	225.34	62.93	47.009	14.417	4.7398e-07	19.345	64.161	-44.149	11.518	-60.006	-1.769	208.492	-60.237	-53.031	-59.851	90.369	-53.411	-47.104	-46.334	-39.557	74.307	-40.581	-8191	255	
2119.929	1	1	0	0	0.14197	0.15335	0.09191	0.20278	0.12102	0.11315	0.093149	0.13889	0.056729	0.12078	0.060041	0.18355	0.21563	0.14973	0.11734	0.066467	-3.5125	-4.0958	-4.2562	-3.95	-4.4146	-4.0333	-4.1042	-4.575	-3.8604	-4.1146	-4.1958	-3.8104	-4.2646	-4.1188	-3.9479	-4.4812	87.156	17.777	77.374	193.991	92.563	53.001	95.928	65.006	101.361	275.303	255.135	181.521	129.056	-49.419	28.699	173.297	0.00017368	6.1116e-05	1.6301e-05	1200.6	1.5691e-06	8.765e-07	1280.5	247.37	1.7504e-07	5.3442e-07	310.81	86.764	67.665	19.76	3.7347e-07	27.976	4.0547e-05	4.6139e-05	1.1827e-05	950.62	4.4086e-07	5.0512e-07	1028.7	192.17	4.4578e-07	4.9986e-07	224.57	62.852	47.115	14.431	4.5124e-07	19.358	97.409	-0.267	-46.131	-60.089	246.461	5.455	-60.018	-53.171	183.261	234.928	-53.254	-46.924	-46.667	-39.912	-30.380	-40.164	-8191	255	
2120.001	1	1	0	0	0.19836	0.24021	0.099648	0.12887	0.10327	0.033141	0.29706	0.16415	0.083762	0.19714	0.18777	0.18938	0.38198	0.11488	0.36475	0.11892	-3.525	-4.075	-4.1771	-3.8854	-4.3521	-4.0958	-4.0312	-4.3562	-4.0271	-3.85	-4.3125	-3.8063	-4.125	-4.0292	-3.5396	-4.3438	52.028	260.460	-19.172	194.635	-30.655	79.980	182.848	266.082	61.350	232.922	212.185	148.326	285.646	149.147	218.850	267.687	0.0001175	9.2334e-05	5.0326e-05	1205.3	1.0473e-06	1.7975e-06	1275.7	247.07	6.3392e-07	2.106e-06	311.14	87.126	67.568	19.811	1.0185e-06	27.908	4.2395e-05	4.5431e-05	1.1303e-05	950.42	4.6811e-07	4.8779e-07	1028.2	192.2	4.7089e-07	4.8061e-07	224.15	62.732	47.313	14.37	4.3717e-07	19.301	131.073	-62.438	-5.088	-60.019	246.604	-4.929	-60.038	-52.868	208.162	-10.639	-53.453	-46.951	-46.921	-39.664	84.862	-40.121	-8191	255	
2120.121	1	1	0	0	0.1547	0.11805	0.021872	0.2803	0.18025	0.077125	0.27843	0.14211	0.13616	0.071582	0.213	0.14533	0.22859	0.15065	0.079754	0.094456	-3.4229	-3.9188	-4.3125	-4.025	-3.9708	-4.2125	-3.8583	-4.4	-3.9333	-3.8917	-4.5083	-3.9583	-4.1687	-4.1542	-3.8229	-4.1854	1.834	251.197	237.608	256.074	153.968	-55.658	242.736	283.538	189.687	114.474	181.304	191.982	229.372	195.773	-24.084	255.249	0.00024574	0.00021693	2.6292e-05	1199.9	2.2218e-06	2.735e-06	1277	247.75	3.3065e-08	1.7482e-06	311.49	86.605	68.354	19.897	2.1417e-06	27.76	4.4708e-05	4.2896e-05	1.1063e-05	948.78	4.9641e-07	4.7284e-07	1025.8	192.52	5.0531e-07	4.7375e-07	224.19	62.871	47.604	14.377	4.3487e-07	19.429	73.443	-27.994	1.404	-60.051	200.724	17.862	-60.005	-52.898	42.901	7.823	-53.359	-46.931	-46.622	-39.538	28.741	-40.093	-8191	255	
2120.218	1	1	0	0	0.20138	0.30728	0.0744	0.22707	0.13932	0.19734	0.25191	0.11104	0.094239	0.053368	0.039667	0.27119	0.020306	0.11657	0.026589	0.21123	-3.6562	-3.7521	-4.2896	-4.0583	-4.0583	-4.2271	-4.0792	-4.3083	-4.0896	-3.8917	-4.4979	-4.0292	-3.9479	-4.3021	-3.6625	-4.3021	226.426	30.409	173.738	276.946	272.622	169.801	186.732	88.985	210.932	255.395	219.626	-27.680	171.444	167.122	118.907	94.399	0.0001242	8.3649e-05	4.03e-06	1207.1	3.236e-07	1.6712e-06	1277.8	247.55	1.0476e-06	1.5866e-07	311.02	86.723	67.947	19.78	1.1066e-06	27.892	4.6832e-05	4.208e-05	1.0815e-05	952.9	5.1128e-07	4.571e-07	1027.8	193.14	5.0601e-07	4.5461e-07	224.02	63.237	47.604	14.315	4.2144e-07	19.532	65.841	43.991	171.274	-60.229	-15.305	69.042	-60.250	-53.107	118.051	138.007	-53.349	-46.840	-46.505	-39.863	-67.830	-40.359	-8191	255	
2120.314	1	1	0	0	0.1591	0.13115	0.22088	0.21531	0.16648	0.32431	0.12491	0.046205	0.37159	0.053493	0.15229	0.24727	0.10714	0.30014	0.28462	0.15323	-3.6083	-3.8021	-4.3187	-3.9771	-3.9917	-4.1104	-3.8229	-4.1667	-4.025	-3.675	-4.3583	-4.0604	-3.9042	-4.3792	-3.875	-4.2292	-3.546	-35.989	181.542	254.723	-22.679	65.730	202.145	168.488	180.508	149.202	183.071	263.413	281.694	-13.855	-47.617	225.946	0.00015474	0.00013258	4.5763e-05	1197	1.7894e-06	1.0604e-06	1273	246.51	7.3442e-07	2.1445e-06	309.9	86.65	67.909	19.735	1.2244e-06	27.817	4.4815e-05	4.0456e-05	1.054e-05	950.9	4.8056e-07	4.3488e-07	1024.3	192.85	4.7606e-07	4.3018e-07	223.65	63.205	47.271	14.266	4.2278e-07	19.571	125.505	-21.194	-9.095	-60.091	73.840	-27.731	-60.043	-53.016	54.463	-7.768	-53.207	-47.069	-46.572	-39.534	272.816	-40.138	-8191	255	
2120.434	1	1	0	0	0.27071	0.2145	0.21385	0.42969	0.067522	0.081869	0.10551	0.22772	0.08073	0.089168	0.041994	0.063892	0.055064	0.092519	0.16481	0.072937	-3.7792	-3.7313	-4.3187	-4.0729	-3.8604	-4.4708	-4.0042	-4.0625	-4.2312	-3.7146	-4.2354	-3.8979	-3.8208	-4.2521	-3.8375	-4.2	136.598	9.388	147.268	274.985	-47.779	-19.309	222.126	285.725	233.815	52.559	138.111	-11.146	187.167	96.514	209.328	110.010	0.0001524	0.00011086	4.1198e-05	1203.5	7.6795e-07	1.4589e-06	1270.7	247.73	1.3445e-06	1.0813e-06	311.03	86.575	68.188	19.811	6.2639e-07	27.843	4.3158e-05	3.9352e-05	1.0895e-05	952.28	4.6117e-07	4.2011e-07	1022.4	193.27	4.5242e-07	4.1874e-07	224.4	63.219	47.163	14.224	4.5185e-07	19.52	114.953	-41.664	67.690	-60.038	266.616	-6.835	-60.102	-53.155	77.168	-52.327	-53.338	-46.739	-46.419	-39.297	-11.759	-40.291	-8191	255	
2120.529	1	1	0	0	0.28148	0.079046	0.027804	0.25748	0.20646	0.12654	0.08282	0.26961	0.10107	0.15828	0.29757	0.051711	0.23531	0.10852	0.097695	0.19221	-3.7938	-3.7896	-4.1104	-4.2104	-3.7667	-4.2958	-4.1042	-3.9125	-4.2208	-3.6958	-4.2854	-4.1729	-3.9104	-4.25	-4.0458	-4.2146	-68.177	115.317	-49.452	283.424	213.126	80.688	-5.293	221.146	190.648	192.661	235.479	180.372	270.174	273.060	94.532	-26.699	0.00019854	0.00013228	4.1533e-05	1196.4	1.3619e-06	1.3241e-06	1266.1	247.51	3.7046e-07	1.1253e-06	310.57	86.647	67.901	19.725	1.662e-06	27.854	4.0888e-05	3.755e-05	1.1447e-05	948.02	4.4049e-07	4.0597e-07	1021.4	192.8	4.3076e-07	4.049e-07	224.59	62.996	46.864	14.182	4.6292e-07	19.436	67.676	21.593	30.243	-60.229	36.093	31.425	-60.138	-53.162	223.523	150.976	-53.405	-46.685	-46.270	-39.799	124.339	-40.238	-8191	255	
2120.600	1	1	0	0	0.12497	0.2316	0.12029	0.20376	0.26376	0.269	0.13464	0.2585	0.17723	0.20781	0.038729	0.26349	0.083938	0.09294	0.11159	0.346	-3.725	-3.5938	-4.1625	-4.2083	-3.7313	-4.1167	-4.2396	-4.0729	-4.1625	-3.8021	-4.275	-4.1667	-3.7042	-4.1958	-4.0229	-3.6646	198.965	-15.137	239.055	288.884	216.063	258.768	199.107	-35.286	-55.480	269.923	73.801	-50.518	71.007	250.524	140.089	8.063	0.00019841	0.0001695	2.4307e-05	1196.2	1.2233e-06	1.0576e-06	1265.5	246.65	3.5947e-07	2.2098e-06	309.51	87.198	68.141	19.853	1.0012e-06	27.814	3.8461e-05	3.6512e-05	1.1796e-05	945.2	4.1364e-07	3.9449e-07	1020.4	192.11	4.097e-07	4.0512e-07	224.8	62.904	46.804	14.219	4.7523e-07	19.376	53.004	68.583	45.776	-60.202	58.163	-1.608	-60.178	-53.127	9.097	44.168	-53.475	-46.769	-46.585	-39.503	74.644	-40.366	-8191	255	
2120.697	1	1	0	0	0.061516	0.073773	0.1315	0.19403	0.19647	0.10885	0.23739	0.10742	0.10798	0.1874	0.14997	0.014919	0.14914	0.21124	0.10533	0.11055	-3.9792	-3.8229	-3.9792	-4.3	-3.7625	-4.3083	-4.1042	-3.9458	-4.2271	-3.7687	-4.0104	-4.1417	-3.6708	-4.1604	-4.0833	-3.9146	137.172	46.580	-42.656	-62.555	34.517	99.457	202.111	-9.131	117.276	242.864	209.886	141.707	-17.944	-14.116	253.116	-47.269	0.00010058	6.3239e-05	2.358e-05	1199.7	1.4071e-06	2.994e-07	1267.3	246.83	5.3964e-07	1.6415e-06	309.13	86.631	67.946	19.731	7.2469e-07	27.896	3.7588e-05	3.8385e-05	1.2061e-05	945.49	4.025e-07	4.2615e-07	1021.5	191.86	4.0398e-07	4.3505e-07	224.27	62.679	46.776	14.263	4.6375e-07	19.361	78.521	58.195	-18.232	-60.133	-28.044	171.704	-60.051	-52.989	9.749	70.678	-53.426	-46.915	-46.159	-39.541	100.238	-40.569	-8191	255	
2120.817	1	1	0	0	0.058666	0.14304	0.0055827	0.14634	0.23838	0.077502	0.091041	0.11908	0.09665	0.11729	0.20248	0.14582	0.1741	0.13651	0.17603	0.23613	-4.0062	-3.9188	-3.975	-4.5104	-3.6646	-4.1062	-4.2438	-3.9854	-4.1333	-3.8833	-4.0813	-4.3458	-3.5667	-4.1333	-4.1813	-3.7938	188.470	107.588	-59.087	276.146	-54.354	-28.577	270.586	145.493	157.558	252.903	229.464	195.390	36.245	257.797	276.637	80.211	9.548e-05	9.6236e-05	1.3405e-05	1197.6	1.0504e-06	5.5095e-07	1269.2	247.13	8.2365e-08	1.4412e-06	310.66	87.227	67.865	19.665	1.1239e-06	27.715	3.6944e-05	4.074e-05	1.1598e-05	943.94	3.9964e-07	4.5785e-07	1021.4	191.74	3.9687e-07	4.5799e-07	224.32	62.616	46.632	14.262	4.3832e-07	19.178	85.009	63.771	68.571	-60.245	24.772	32.149	-60.009	-52.968	58.536	229.229	-53.470	-46.855	-46.713	-39.515	152.138	-39.844	-8191	255	
2120.913	1	1	0	0	0.21128	0.16591	0.14789	0.11514	0.12884	0.15452	0.1708	0.092618	0.17214	0.28424	0.077067	0.08055	0.17393	0.16126	0.31007	0.13526	-4.0854	-3.8688	-3.8396	-4.3146	-3.7687	-4.0729	-4.2708	-3.75	-4.2708	-4.0604	-4.0437	-4.4021	-3.8333	-4.0292	-4.1646	-4.0021	2.436	228.885	9.900	-67.914	56.900	29.281	160.362	191.394	-49.975	136.944	189.401	46.633	79.250	196.366	251.796	84.791	0.00026585	0.00010257	5.3437e-05	1192.1	2.7354e-06	1.1443e-06	1271.1	247.09	3.7201e-07	1.911e-06	309.85	86.815	68.198	19.818	1.7835e-06	27.573	3.7216e-05	4.2332e-05	1.099e-05	941.45	4.0983e-07	4.686e-07	1018.7	191.36	4.1468e-07	4.7179e-07	223.72	62.512	46.931	14.341	4.3166e-07	19.175	55.050	56.850	-23.819	-60.193	123.125	85.691	-60.017	-52.919	231.147	51.884	-53.291	-46.932	-46.136	-39.791	-53.604	-39.653	-8191	255	
2121.009	1	1	0	0	0.078001	0.32574	0.12516	0.17356	0.16105	0.16003	0.2644	0.096326	0.10487	0.031185	0.12506	0.15001	0.22874	0.13647	0.1587	0.12908	-3.7438	-3.9729	-3.7208	-4.4125	-3.9333	-4.1646	-4.4563	-3.9729	-4.1167	-4.2708	-3.9313	-4.3021	-3.8646	-4.1146	-4.2458	-3.7958	10.756	12.593	138.416	266.918	-28.222	53.131	252.578	181.713	168.710	23.421	24.671	280.738	208.727	234.420	119.203	207.382	0.00017773	9.7879e-05	7.511e-06	1192.1	7.1088e-07	2.4324e-06	1266.5	247.18	1.454e-06	1.0284e-06	309.55	86.208	67.836	19.728	9.4871e-07	27.777	4.0628e-05	4.3215e-05	1.0882e-05	940.04	4.4592e-07	4.6559e-07	1018.5	191.32	4.4826e-07	4.5842e-07	223.55	62.391	47.141	14.307	4.2261e-07	19.229	95.395	56.750	243.581	-59.913	-14.094	9.375	-60.018	-52.695	81.266	84.001	-53.355	-47.041	-46.337	-39.934	165.830	-39.907	-8191	255	
2121.106	1	1	0	0	0.14188	0.3275	0.034306	0.18152	0.18113	0.1445	0.20625	0.24179	0.30221	0.11717	0.22818	0.059243	0.14458	0.17051	0.16159	0.23853	-3.8125	-4.0042	-3.6667	-4.3229	-3.8854	-3.9688	-4.4292	-3.8104	-4.0021	-4.0813	-3.8396	-4.3896	-3.9396	-3.8167	-4.3333	-3.7812	95.308	234.906	180.679	-61.502	271.844	229.156	249.849	249.812	164.882	241.560	274.461	-4.828	83.943	227.673	-57.491	215.397	0.00011506	0.00010547	3.485e-05	1195	1.5764e-06	2.0581e-06	1268.3	247.06	3.6947e-07	1.534e-06	312.23	86.533	68.087	19.727	1.6102e-06	27.696	4.2651e-05	4.1255e-05	1.0653e-05	943.65	4.7389e-07	4.5106e-07	1018.6	191.43	4.782e-07	4.3912e-07	223.52	62.458	47.32	14.248	4.0978e-07	19.268	75.834	-22.762	253.253	-59.888	171.903	11.596	-60.081	-53.154	156.225	20.433	-53.242	-46.787	-46.814	-39.740	59.048	-40.002	-8191	255	
2121.202	1	1	0	0	0.080039	0.19204	0.19462	0.22335	0.13359	0.029832	0.44046	0.11735	0.19516	0.11875	0.13847	0.14479	0.035704	0.047104	0.2013	0.11162	-3.5104	-4.0896	-3.6521	-4.3125	-3.9083	-3.7667	-4.5229	-3.9479	-4.0917	-4.1687	-3.6625	-4.3146	-4.0854	-3.8167	-4.3375	-3.9979	46.765	17.661	200.540	270.417	-31.413	-49.350	228.050	-34.895	182.247	-51.364	185.918	234.122	106.591	269.293	64.342	247.750	8.028e-05	0.00015324	7.8768e-06	1190.8	1.6993e-06	1.1773e-06	1264.6	247.74	1.377e-06	1.3966e-06	310.34	86.108	68.028	19.839	6.2453e-07	27.664	4.411e-05	3.9352e-05	1.0413e-05	942.46	4.7782e-07	4.32e-07	1016.9	191.93	4.8008e-07	4.2869e-07	223.15	62.783	47.172	14.264	4.0105e-07	19.385	94.670	21.922	274.310	-60.138	278.436	63.354	-60.095	-53.060	-32.766	-67.000	-53.518	-46.804	-46.342	-39.881	-35.640	-40.262	-8191	255	
2121.298	1	1	0	0	0.041202	0.13306	0.13259	0.093659	0.11995	0.074639	0.19501	0.18449	0.24234	0.28606	0.29525	0.20903	0.076756	0.029491	0.2229	0.19715	-3.6104	-4.3063	-3.7083	-4.3688	-3.9729	-3.8688	-4.4688	-4.0646	-4.0417	-4.1875	-3.7875	-4.2333	-4.1188	-3.8875	-4.2625	-3.95	179.930	259.857	254.718	249.802	-59.161	143.593	218.678	17.087	214.200	281.484	235.656	-69.223	100.736	77.127	-51.230	285.952	0.00022433	0.00012544	3.1173e-05	1194.6	1.059e-06	9.8615e-07	1263.3	247.63	1.4015e-06	2.4847e-06	311.03	86.588	67.847	19.809	8.1558e-07	27.635	4.338e-05	3.8936e-05	1.0075e-05	943.8	4.6863e-07	4.2117e-07	1016.8	192.75	4.6174e-07	4.1938e-07	223.55	63.074	46.987	14.189	4.0568e-07	19.429	136.670	25.102	-27.185	-60.208	-63.786	21.319	-60.060	-52.988	71.977	83.677	-53.368	-46.661	-46.548	-39.653	73.990	-40.053	-8191	255	
2121.394	1	1	0	0	0.10868	0.012612	0.090161	0.14349	0.13397	0.12297	0.18175	0.11292	0.1469	0.32322	0.17495	0.1442	0.20052	0.1759	0.15039	0.12619	-3.4583	-4.2375	-3.7854	-4.1854	-4.0312	-3.8187	-4.5312	-4.0896	-3.8792	-4.2812	-3.9229	-4.0854	-4.2167	-3.7083	-4.2083	-4.1188	-43.521	31.379	108.690	284.809	88.522	177.504	272.083	145.553	-4.499	253.465	-10.407	232.537	50.739	7.273	194.010	216.942	5.5149e-05	7.7814e-05	2.9996e-05	1200.7	1.6497e-06	9.1211e-07	1265.2	247.05	2.1598e-06	1.9919e-06	310.42	86.639	68.157	19.708	1.6772e-07	27.807	4.1389e-05	3.7333e-05	1.0362e-05	946.91	4.4143e-07	4.0818e-07	1017.7	192.97	4.4348e-07	4.042e-07	223.89	62.99	46.962	14.156	4.2762e-07	19.441	113.407	-50.029	11.101	-60.149	-38.183	-41.203	-59.910	-53.049	-3.268	42.307	-53.236	-47.094	-46.376	-39.080	58.848	-39.929	-8191	255	
2121.515	1	1	0	0	0.086062	0.098217	0.3033	0.11412	0.24451	0.10671	0.086177	0.058433	0.083312	0.078339	0.15851	0.19357	0.057761	0.18209	0.044676	0.13897	-3.4229	-4.2354	-4.0354	-3.9771	-4.1312	-3.6583	-4.3708	-4.1708	-3.6146	-4.4125	-3.8583	-4.1146	-4.2562	-3.8083	-4.0875	-4.15	217.452	-68.408	-42.098	244.865	124.227	19.412	243.790	256.996	-6.116	71.545	54.344	238.688	136.430	128.074	24.854	4.790	0.00017108	0.00011942	2.9193e-05	1194.2	1.0406e-06	1.9349e-06	1262.8	247.05	1.2689e-06	6.4052e-07	310.78	86.26	67.801	19.776	1.049e-06	27.519	3.9452e-05	3.6656e-05	1.1019e-05	945.66	4.2317e-07	3.9032e-07	1018.2	192.14	4.1567e-07	3.8206e-07	223.92	62.729	46.725	14.117	4.3945e-07	19.272	100.701	-23.785	42.037	-60.076	30.830	28.517	-60.103	-53.054	13.559	4.599	-53.633	-46.606	-46.189	-39.405	120.250	-40.201	-8191	255	
2121.611	1	1	0	0	0.18955	0.15792	0.16923	0.10556	0.089407	0.099191	0.25439	0.18048	0.17301	0.12303	0.13949	0.19568	0.043639	0.30191	0.15624	0.22643	-3.3667	-4.2021	-4.0104	-4.0292	-4.175	-3.7125	-4.2917	-4.3042	-3.8854	-4.2458	-4.1562	-3.9167	-4.3875	-3.7771	-3.8792	-4.1854	102.213	181.444	109.666	229.184	144.757	171.291	203.292	80.399	75.028	174.694	49.651	-63.509	197.124	-12.083	238.358	238.600	4.8481e-05	0.00014493	4.4802e-05	1184.2	1.957e-06	1.0023e-06	1261.3	246.94	1.0363e-06	9.7863e-07	309.96	86.195	67.576	19.791	1.1738e-06	27.669	3.7213e-05	3.4884e-05	1.1244e-05	938.67	3.9729e-07	3.8457e-07	1015.2	191.7	4.0169e-07	3.8974e-07	224.11	62.493	46.558	14.134	4.595e-07	19.225	78.433	31.341	32.252	-60.068	49.949	-31.079	-60.203	-52.924	56.221	2.849	-53.500	-46.576	-46.514	-39.556	65.333	-39.929	-8191	255	
2121.705	1	1	0	0	0.2432	0.1411	0.20443	0.15976	0.3021	0.068099	0.15095	0.08611	0.18973	0.075741	0.19794	0.23684	0.16534	0.11617	0.067191	0.19827	-3.3771	-4.3	-3.9437	-4.0875	-4.2979	-4.0396	-4.1667	-4.1	-3.5979	-4.2188	-4.1833	-3.8937	-4.3875	-3.8042	-3.8667	-4.1875	-59.518	245.107	1.103	285.369	187.898	-47.216	206.359	280.325	24.803	2.909	129.882	-26.576	-69.094	96.717	64.214	8.648	0.0001101	0.00011245	2.2063e-05	1180.8	1.9932e-06	5.0784e-07	1258.8	246.58	1.2137e-06	1.1133e-07	310.35	86.113	67.472	19.654	1.4311e-06	27.724	3.7032e-05	3.7134e-05	1.1807e-05	935.73	3.9541e-07	4.1887e-07	1014.6	191.5	4.0301e-07	4.277e-07	224.12	62.415	46.41	14.189	4.6282e-07	19.211	78.131	31.637	-30.454	-60.016	13.982	185.921	-60.021	-53.058	138.345	281.795	-53.443	-47.011	-46.327	-39.526	-41.449	-40.301	-8191	255	
2121.801	1	1	0	0	0.17794	0.13636	0.33096	0.24741	0.14036	0.052473	0.18703	0.16127	0.13117	0.10729	0.23376	0.11426	0.26974	0.17974	0.14891	0.053933	-3.3125	-4.2583	-4.1062	-3.7271	-4.2729	-3.8583	-4.2063	-4.4208	-3.8604	-4.1188	-4.1146	-3.7625	-4.2229	-3.9354	-3.8937	-4.2562	-47.578	-14.251	288.993	-58.995	109.638	151.893	-29.842	226.166	-63.116	223.269	251.593	207.313	202.606	226.629	250.473	-35.228	7.9549e-05	9.2788e-05	2.0217e-05	1187.5	1.26e-06	1.4839e-06	1261	246.54	1.2812e-06	6.1586e-07	308.84	85.878	67.079	19.593	7.1265e-07	27.587	3.6263e-05	3.9971e-05	1.1425e-05	936.43	3.8495e-07	4.3791e-07	1014.8	191.11	3.9206e-07	4.5396e-07	223	62.314	46.378	14.217	4.4406e-07	19.138	103.462	-58.891	28.150	-60.250	72.905	21.063	-60.171	-52.934	72.307	138.980	-53.141	-46.743	-46.411	-39.267	106.517	-40.311	-8191	255	
2121.898	1	1	0	0	0.16832	0.14404	0.40952	0.20318	0.15018	0.21199	0.28228	0.046128	0.095406	0.16016	0.071775	0.23725	0.15504	0.085533	0.15871	0.021616	-3.4604	-3.9458	-3.9771	-3.8375	-4.2042	-3.8583	-4.0542	-4.3854	-3.7583	-4.2063	-4.175	-3.6292	-4.225	-3.9771	-3.7667	-4.3438	243.115	157.553	106.408	154.509	49.834	148.104	220.674	37.522	86.091	63.026	147.791	232.344	284.381	118.540	253.899	178.281	0.00034868	1.8405e-05	2.5744e-05	1189	1.6977e-06	6.049e-07	1256.8	246.01	1.0677e-06	1.4104e-06	310.27	86.31	67.559	19.692	7.3615e-07	27.583	3.6919e-05	4.2139e-05	1.1085e-05	936.47	4.0598e-07	4.6596e-07	1013.1	191.04	4.1741e-07	4.6876e-07	223.43	62.162	46.648	14.26	4.2717e-07	19.152	80.038	240.167	25.589	-60.197	96.593	263.629	-60.056	-53.019	260.601	-5.931	-53.627	-46.860	-46.819	-39.563	45.416	-40.504	-8191	255	
2121.994	1	1	0	0	0.13614	0.064935	0.065114	0.1519	0.16593	0.23863	0.27349	0.012707	0.13879	0.068664	0.098331	0.096577	0.061899	0.10892	0.20279	0.18957	-3.3979	-4.0917	-4.2167	-3.9229	-4.1646	-3.9646	-4.1021	-4.4313	-3.9167	-4.0042	-4.4187	-3.7896	-4.1333	-4.1208	-3.9021	-4.4146	161.195	-4.850	105.620	181.783	287.982	-16.284	207.730	251.095	181.341	254.306	20.670	146.770	-19.187	198.788	42.731	212.672	0.00018117	4.0388e-05	1.9747e-05	1189.6	8.5962e-07	8.2886e-07	1261.3	246.28	1.56e-06	2.3621e-06	310.03	86.09	67.463	19.735	4.5904e-07	27.579	3.9606e-05	4.3533e-05	1.0838e-05	937.42	4.4612e-07	4.7696e-07	1014	190.97	4.5754e-07	4.7648e-07	223.36	62.33	46.916	14.278	4.2375e-07	19.135	92.505	160.382	-39.846	-60.236	64.458	14.924	-60.080	-53.181	157.634	12.255	-53.270	-46.832	-46.405	-39.610	160.595	-39.602	-8191	255	
2122.090	1	1	0	0	0.1295	0.29614	0.099548	0.23216	0.18131	0.12276	0.085927	0.16742	0.14641	0.051628	0.23331	0.068721	0.1791	0.19652	0.11012	0.055656	-3.4	-3.9313	-4.2312	-3.9521	-4.0542	-4.075	-3.975	-4.1333	-3.8625	-3.95	-4.425	-3.8667	-4.1271	-4.1396	-3.7021	-4.25	177.667	238.018	250.878	231.258	79.055	138.966	204.574	120.626	-67.277	141.988	17.297	272.375	256.943	20.200	270.366	84.126	0.00013649	0.00027959	4.9025e-05	1186.5	1.6503e-06	2.6095e-06	1259.6	246.19	1.0639e-06	1.6594e-06	309.1	86.48	67.593	19.677	2.0633e-06	27.643	4.3488e-05	4.2428e-05	1.0767e-05	935.87	4.7445e-07	4.5769e-07	1013	191.31	4.8484e-07	4.5513e-07	223.24	62.444	47.058	14.202	4.2359e-07	19.243	27.650	-30.034	-25.283	-60.035	90.315	14.001	-59.992	-53.113	68.815	13.785	-53.245	-46.814	-46.327	-40.055	100.109	-40.033	-8191	255	
2122.210	1	1	0	0	0.17834	0.1756	0.065588	0.24452	0.14987	0.12516	0.23044	0.16151	0.13958	0.10056	0.18215	0.16648	0.0471	0.10281	0.20913	0.11558	-3.5896	-3.9167	-4.3521	-3.9667	-4.0354	-4.3479	-3.8271	-4.2646	-3.9792	-3.7354	-4.3917	-4.1104	-4.1875	-4.2667	-3.8583	-4.35	282.578	256.379	185.424	185.945	110.613	72.034	277.596	220.180	71.106	0.186	-11.352	75.455	73.496	114.661	220.264	241.481	0.00020526	7.8379e-05	1.8079e-05	1185.7	3.7875e-07	2.477e-06	1260.7	246.79	2.3973e-06	1.5378e-06	307.8	86.446	67.838	19.703	5.7488e-07	27.674	4.5463e-05	4.129e-05	1.0557e-05	938.49	4.9369e-07	4.487e-07	1014.2	191.97	4.9957e-07	4.5479e-07	222.89	62.823	47.321	14.237	4.2376e-07	19.38	70.553	31.000	-14.330	-60.139	236.024	82.572	-60.083	-53.088	55.553	27.027	-53.192	-46.932	-46.434	-39.433	-17.827	-40.626	-8191	255	
2122.307	1	1	0	0	0.38096	0.23348	0.050403	0.10088	0.24061	0.087302	0.33714	0.18815	0.17306	0.22123	0.17751	0.13147	0.099277	0.028205	0.1899	0.21541	-3.7771	-3.8583	-4.4	-4.0833	-4.0687	-4.2375	-4.0042	-4.2271	-4.0708	-3.8167	-4.3938	-3.9396	-3.9146	-4.3562	-3.8729	-4.2604	237.411	-63.585	-14.382	4.396	112.153	42.637	254.974	-61.838	-61.099	84.345	271.810	111.356	278.681	282.083	111.344	280.393	0.00013789	0.0001623	1.7902e-05	1190.5	5.0523e-07	1.7827e-06	1260	247.28	1.0902e-06	1.0637e-06	309.39	87.108	67.543	19.57	9.1908e-07	27.62	4.5834e-05	4.1284e-05	1.0683e-05	941.29	4.9543e-07	4.4596e-07	1014.8	192.55	4.8541e-07	4.4317e-07	223.61	63.287	47.255	14.166	4.3169e-07	19.487	88.582	10.897	-23.416	-60.314	72.773	82.272	-59.947	-53.007	9.404	69.748	-53.196	-46.975	-46.349	-39.584	70.162	-39.637	-8191	255	
2122.403	1	1	0	0	0.094511	0.082202	0.14227	0.037326	0.081211	0.21544	0.19203	0.17714	0.10073	0.076886	0.15116	0.069196	0.049842	0.067951	0.32573	0.29727	-3.8063	-3.7604	-4.1583	-4.2104	-4.1292	-4.3458	-4.0396	-4.125	-4.1708	-3.7812	-4.2146	-4.0271	-3.975	-4.2458	-3.8625	-4.0188	64.298	-40.676	-63.730	276.059	175.500	193.802	199.545	93.969	108.263	70.292	241.631	91.464	180.667	225.195	-40.935	278.508	0.0001301	0.00017109	5.6059e-06	1191.2	9.7747e-07	5.8589e-07	1260.4	247.82	1.9149e-06	1.1864e-06	310.07	87.161	67.705	19.798	1.2409e-06	27.592	4.3847e-05	3.9661e-05	1.0912e-05	944.75	4.7148e-07	4.2693e-07	1015.4	193.05	4.6113e-07	4.2582e-07	223.92	63.242	47.021	14.2	4.4412e-07	19.454	28.462	-44.615	259.020	-60.080	30.580	-18.797	-59.944	-52.944	78.855	84.897	-53.579	-46.554	-46.195	-39.763	214.605	-40.199	-8191	255	
2122.474	1	1	0	0	0.22486	0.06847	0.10605	0.25441	0.14931	0.18526	0.077022	0.13116	0.16573	0.18626	0.22436	0.047224	0.15919	0.13078	0.21329	0.10925	-4.0229	-3.7792	-4.2125	-4.0687	-3.7938	-4.2667	-4.1104	-4.0687	-4.1708	-3.6708	-4.4125	-4.0437	-3.9729	-4.5021	-3.8583	-3.9083	243.958	13.822	63.941	231.394	-9.180	258.011	156.750	238.647	253.952	202.245	76.438	-66.969	245.537	3.432	39.541	40.024	0.00017425	2.3188e-05	2.219e-05	1187.4	9.8254e-07	1.17e-06	1262.3	246.97	3.3662e-07	1.8443e-06	310.78	86.379	67.639	19.694	1.6349e-06	27.916	4.1687e-05	3.8183e-05	1.1477e-05	943.45	4.5469e-07	4.2022e-07	1018	192.99	4.4828e-07	4.1625e-07	225.01	63.052	47.039	14.165	4.8256e-07	19.462	101.263	9.700	-43.450	-60.253	6.062	32.454	-60.224	-53.016	249.515	-8.250	-53.128	-46.933	-46.137	-39.421	31.445	-40.285	-8191	255	
2122.593	1	1	0	0	0.15009	0.18448	0.32034	0.12807	0.21925	0.21	0.2337	0.29713	0.14581	0.14617	0.16198	0.10739	0.10871	0.19433	0.21563	0.061421	-3.9542	-3.8187	-4.2292	-4.2625	-3.7896	-4.2104	-4.0125	-3.9521	-4.2562	-3.9437	-4.2667	-4.1542	-3.7646	-4.2292	-3.9771	-3.975	132.305	208.702	-21.916	221.447	138.193	235.709	-17.928	237.942	156.851	214.683	274.707	114.603	145.297	245.380	-17.920	236.616	0.00018369	9.9748e-05	1.579e-05	1192.5	9.2273e-07	9.7859e-07	1261.3	247.9	6.7218e-07	1.0269e-06	310.05	86.271	67.861	19.778	8.363e-07	27.769	4.0635e-05	3.7896e-05	1.2251e-05	942.69	4.4064e-07	4.1934e-07	1020.1	192.78	4.3654e-07	4.2395e-07	224.98	62.888	46.802	14.199	4.9896e-07	19.384	102.374	165.570	28.768	-59.998	146.484	230.184	-60.154	-52.969	31.308	26.754	-53.398	-47.356	-46.721	-39.732	66.839	-40.509	-8191	255	
2122.690	1	1	0	0	0.15131	0.17089	0.12048	0.26956	0.23432	0.080235	0.15635	0.14062	0.10956	0.25148	0.16893	0.065665	0.22427	0.098119	0.3049	0.17079	-3.8312	-3.8958	-4.0667	-4.3396	-3.5604	-4.1458	-4.3479	-3.9313	-4.3104	-3.8042	-4.1813	-4.2104	-3.6854	-4.3396	-4.0708	-3.825	125.885	88.867	161.284	197.672	144.067	-14.582	254.876	208.901	237.628	284.589	238.560	-22.318	224.770	-57.437	192.521	241.207	6.3571e-05	8.8889e-05	2.9706e-05	1191.6	1.9328e-06	9.6545e-07	1258.3	248.54	1.8817e-07	7.3177e-07	310.03	86.457	67.76	19.669	6.095e-07	27.697	3.9309e-05	3.9561e-05	1.2624e-05	941.5	4.2956e-07	4.3827e-07	1018.4	192.53	4.2084e-07	4.4918e-07	225.26	62.617	46.814	14.243	4.9159e-07	19.307	24.773	181.741	-33.227	-59.935	89.929	173.717	-59.969	-53.155	227.572	-3.922	-53.395	-46.621	-46.761	-39.743	28.123	-40.233	-8191	255	
2122.786	1	1	0	0	0.23169	0.21595	0.11495	0.20915	0.055918	0.052156	0.13454	0.11884	0.078836	0.26662	0.33805	0.055558	0.25599	0.11132	0.31863	0.12631	-3.9896	-3.7854	-3.8833	-4.2896	-3.6708	-4.0979	-4.1292	-3.8208	-4.275	-3.9104	-4.1104	-4.2667	-3.8646	-4.1333	-4.2083	-3.8896	-26.211	58.708	65.324	211.007	72.597	35.819	210.389	255.373	100.224	82.296	121.013	191.843	276.451	79.623	14.267	116.886	0.00014653	8.4465e-05	5.1921e-05	1189.3	2.0014e-06	3.5566e-07	1256.8	247.45	1.8111e-06	1.9966e-06	310.99	86.383	67.603	19.666	1.2898e-06	27.718	3.8834e-05	4.2372e-05	1.2487e-05	940.61	4.2176e-07	4.7401e-07	1017.8	192.09	4.1627e-07	4.8397e-07	224.86	62.64	46.807	14.31	4.742e-07	19.315	117.598	247.896	260.824	-60.078	253.924	51.131	-60.142	-53.039	99.056	71.458	-53.622	-47.153	-46.409	-39.309	72.930	-40.198	-8191	255	
2122.882	1	1	0	0	0.055606	0.095877	0.17395	0.21742	0.17201	0.084454	0.1861	0.16284	0.14275	0.086326	0.19294	0.17228	0.24265	0.13266	0.19092	0.10482	-3.8875	-4.0042	-3.9479	-4.3521	-3.6479	-4.2292	-4.3625	-4	-4.1917	-3.8583	-4.0292	-4.4333	-3.9313	-4.1687	-4.0896	-3.6875	276.713	257.635	138.836	166.098	210.398	213.077	160.176	260.234	-35.069	120.660	222.268	-26.789	207.656	156.569	281.240	239.035	0.00013502	0.00012617	2.1777e-05	1191.1	1.8066e-06	1.0521e-06	1259.1	247.85	7.6587e-07	2.0983e-06	309.72	86.341	67.631	19.585	9.8178e-07	27.591	3.9238e-05	4.5671e-05	1.1828e-05	938.88	4.3223e-07	4.9463e-07	1015.4	192.09	4.3551e-07	5.0249e-07	224.21	62.433	46.865	14.313	4.5782e-07	19.239	46.066	61.994	-7.290	-60.049	112.698	51.891	-60.090	-53.008	-52.976	90.695	-53.123	-46.864	-46.334	-39.841	-56.351	-40.229	-8191	255	
2123.001	1	1	0	0	0.079541	0.11583	0.15817	0.18446	0.20639	0.15909	0.32179	0.14752	0.19088	0.051267	0.18108	0.13831	0.078477	0.16886	0.13958	0.048927	-3.9375	-4.0813	-3.8708	-4.375	-3.8604	-4.1062	-4.3333	-3.8771	-4.3313	-4.0792	-3.7583	-4.2312	-3.9021	-4.0437	-4.2354	-3.8042	68.576	161.901	107.776	234.792	256.401	8.505	244.747	64.282	132.378	90.644	133.449	128.902	122.083	198.306	110.813	118.357	0.00031248	6.8842e-05	5.0027e-05	1185.8	1.5143e-06	1.5406e-06	1261.4	247.78	4.5187e-07	1.3455e-06	310.16	86.134	67.311	19.662	8.355e-07	27.594	4.1785e-05	4.516e-05	1.1512e-05	937.44	4.6531e-07	4.9979e-07	1015.5	191.97	4.7522e-07	4.8993e-07	223.96	62.413	47.077	14.292	4.4246e-07	19.223	128.130	40.326	-20.917	-59.994	150.905	57.175	-60.215	-52.916	168.171	65.345	-53.271	-46.893	-46.329	-39.650	179.968	-39.838	-8191	255	
2123.097	1	1	0	0	0.16114	0.18272	0.10549	0.24968	0.099886	0.10811	0.1797	0.30607	0.018111	0.16642	0.13251	0.055306	0.29997	0.15506	0.17278	0.2745	-3.8167	-4.0396	-3.7896	-4.4187	-3.8917	-3.8354	-4.4042	-3.7562	-4.0646	-4.1188	-3.8042	-4.1625	-3.8917	-3.9979	-4.3458	-3.8625	-19.448	195.033	79.096	259.627	257.906	3.884	244.275	220.405	24.859	-67.909	12.146	203.301	-30.509	246.987	210.294	257.009	0.00022075	6.876e-05	1.7799e-05	1186.7	1.6704e-07	1.1156e-06	1258.8	246.52	8.5909e-07	8.0217e-07	309.71	86.114	67.674	19.559	1.3632e-06	27.528	4.4394e-05	4.3319e-05	1.1199e-05	937.22	4.8579e-07	4.697e-07	1014.2	191.81	4.8805e-07	4.6094e-07	223.6	62.487	47.158	14.174	4.2051e-07	19.254	89.628	-45.923	48.404	-60.001	108.522	2.059	-60.064	-52.800	234.485	55.425	-53.249	-46.870	-46.596	-39.626	49.085	-39.855	-8191	255	
2123.193	1	1	0	0	0.060919	0.20511	0.25149	0.088732	0.016257	0.22241	0.13558	0.15108	0.027368	0.24263	0.17365	0.12844	0.043466	0.18837	0.15335	0.09884	-3.7833	-4.1271	-3.7479	-4.4604	-3.8229	-4.0708	-4.5021	-3.8542	-4.0042	-4.2562	-3.8917	-4.2729	-4.1292	-3.8771	-4.3	-3.9125	-63.847	-33.877	213.434	216.819	118.024	19.328	187.236	275.666	245.167	0.624	269.832	229.503	256.102	205.032	161.411	-29.335	0.00014692	0.00019202	4.414e-05	1190.2	6.684e-07	6.764e-07	1260.1	247.01	3.2333e-06	2.6223e-06	308.74	86.457	67.976	19.555	2.2827e-06	27.675	4.4745e-05	4.0463e-05	1.0384e-05	939.34	4.7875e-07	4.3542e-07	1011.8	191.64	4.7747e-07	4.3252e-07	222.92	62.683	47.188	14.187	4.0315e-07	19.31	101.724	1.574	32.935	-60.097	144.984	180.780	-59.830	-53.004	-5.391	51.535	-53.158	-46.927	-45.877	-39.595	99.648	-39.918	-8191	255	
2123.289	1	1	0	0	0.096296	0.11875	0.094611	0.2903	0.14756	0.13249	0.14072	0.063519	0.21502	0.0741	0.24254	0.19734	0.23631	0.23464	0.054143	0.21661	-3.5938	-4.1646	-3.7958	-4.3271	-4.0167	-3.8167	-4.35	-3.9688	-4.0875	-4.2729	-4	-4.3438	-4.2021	-3.8625	-4.2521	-3.9688	99.308	178.443	195.766	264.390	242.961	146.832	227.659	198.356	123.739	-43.002	143.085	280.233	-20.173	-69.297	272.786	207.849	0.00018298	0.00014012	3.1365e-05	1187.9	1.1435e-06	1.8756e-06	1261.3	247.61	3.2726e-07	1.8383e-06	310.22	85.972	67.969	19.723	5.4492e-07	27.583	4.4057e-05	3.9357e-05	1.0373e-05	940.5	4.7121e-07	4.2663e-07	1013.7	192.56	4.7067e-07	4.2401e-07	222.94	62.826	47.04	14.13	4.0457e-07	19.338	138.954	84.685	36.777	-60.069	96.438	58.332	-60.140	-52.923	107.533	51.971	-53.312	-46.651	-46.232	-39.471	-46.834	-40.095	-8191	255	
2123.385	1	1	0	0	0.20279	0.17498	0.33976	0.21267	0.027861	0.077834	0.17341	0.14489	0.11088	0.17484	0.18111	0.29913	0.081793	0.22425	0.16398	0.1441	-3.6229	-4.3875	-3.9083	-4.2312	-3.9938	-3.9125	-4.55	-4.1625	-3.9625	-4.4042	-3.8563	-4.2146	-4.25	-3.6521	-4.1687	-4.1583	133.262	56.485	88.671	235.961	10.966	237.220	189.158	275.889	103.152	145.139	73.331	262.346	224.534	-23.499	-39.294	249.482	3.4477e-05	0.00010283	8.3521e-05	1190.8	1.8701e-06	1.2726e-06	1261	247.24	6.4011e-07	1.5703e-06	310.63	86.004	67.484	19.625	1.5034e-06	27.674	4.2657e-05	3.7918e-05	1.0283e-05	941.7	4.4576e-07	4.152e-07	1014.4	192.37	4.3984e-07	4.0443e-07	223.65	62.737	46.703	14.102	4.1994e-07	19.372	208.034	44.252	8.686	-60.090	47.663	-19.336	-60.135	-53.075	-60.411	64.342	-53.376	-46.632	-46.436	-39.873	92.568	-40.049	-8191	255	
2123.481	1	1	0	0	0.21838	0.21182	0.11866	0.12417	0.17088	0.15847	0.16012	0.10158	0.031427	0.059326	0.023026	0.28729	0.29765	0.052601	0.3054	0.093238	-3.5958	-4.1146	-3.6792	-4.0667	-4.2042	-3.7708	-4.3438	-4.15	-3.7938	-4.3812	-3.7562	-4.0146	-4.1583	-3.7208	-4.1792	-3.9313	195.391	172.971	103.790	237.958	-41.344	227.570	241.762	87.187	-41.956	168.241	90.594	204.436	233.453	-26.215	211.192	165.103	3.984e-05	0.00017646	5.0385e-05	1187.2	1.3069e-07	1.3041e-06	1260.4	246.63	6.9005e-07	6.4214e-07	309.81	86.55	67.714	19.588	7.8642e-07	27.704	3.9558e-05	3.6292e-05	1.0893e-05	941.31	4.2904e-07	3.9999e-07	1014.7	192.54	4.2935e-07	3.9448e-07	224.06	62.977	46.718	14.099	4.5098e-07	19.341	142.057	50.621	27.448	-59.985	242.170	60.870	-60.183	-53.097	81.518	73.928	-53.311	-46.939	-46.630	-39.779	198.840	-39.898	-8191	255	
2123.602	1	1	0	0	0.28352	0.19432	0.24851	0.68007	0.13971	0.097276	0.075159	0.2005	0.048295	0.076114	0.20585	0.14162	0.16494	0.091711	0.095704	0.17255	-3.5083	-4.2979	-3.8979	-4.0792	-4.2021	-3.7833	-4.2417	-4.0792	-3.7417	-4.2646	-3.8688	-3.8937	-4.4313	-3.9188	-4.0521	-4.2917	46.985	196.703	144.934	284.551	245.257	45.024	268.124	281.594	150.498	280.284	6.373	93.300	144.396	119.526	-19.733	248.122	0.00025763	9.8429e-05	2.5914e-05	1190.5	1.6564e-06	4.9001e-07	1261.4	247.36	8.8238e-07	9.6469e-07	308.08	85.927	67.957	19.712	9.2388e-07	27.523	3.8085e-05	3.5656e-05	1.1436e-05	940.74	4.0996e-07	3.882e-07	1013.7	192.16	4.0456e-07	3.8855e-07	223.67	62.443	46.552	14.055	4.566e-07	19.184	77.977	8.007	158.310	-60.117	82.070	56.712	-59.832	-52.978	41.084	163.323	-53.308	-46.893	-46.463	-39.094	101.134	-40.246	-8191	255	
2123.698	1	1	0	0	0.05772	0.11854	0.11167	0.13649	0.26954	0.21658	0.27999	0.25778	0.10572	0.07652	0.071173	0.083647	0.18273	0.32666	0.13393	0.21523	-3.4	-4.2604	-3.8312	-4.05	-4.4229	-3.9104	-4.3021	-4.2312	-3.7	-4.2354	-3.8771	-3.825	-4.3958	-3.7021	-4.0062	-4.1125	158.123	64.992	88.139	254.162	166.429	71.035	233.777	253.014	163.967	90.337	150.691	-47.606	283.165	-68.919	-63.531	-36.838	0.00016036	0.0001042	1.6244e-05	1185.1	1.563e-06	1.4711e-07	1261.3	246.9	3.3151e-07	2.728e-07	308.31	86.001	67.305	19.581	7.8817e-07	27.615	3.6328e-05	3.5981e-05	1.1484e-05	936.7	3.9131e-07	4.0295e-07	1012.5	191.37	3.9143e-07	4.0917e-07	223.88	62.34	46.348	14.129	4.5466e-07	19.114	65.160	123.521	54.944	-60.073	-1.322	13.692	-60.045	-52.910	40.436	-69.935	-53.055	-47.031	-46.173	-39.800	73.158	-40.094	-8191	255	
2123.770	1	1	0	0	0.14224	0.13592	0.13329	0.23099	0.046495	0.071886	0.13981	0.24934	0.096155	0.13259	0.28175	0.18753	0.15759	0.15871	0.092971	0.11071	-3.4729	-4.2812	-4.1104	-3.9313	-4.2604	-3.8667	-4.1542	-4.2375	-3.7479	-4.2208	-4.0979	-3.8083	-4.35	-4.175	-3.8937	-4.2396	134.812	37.530	47.659	189.679	-63.156	132.496	266.029	282.510	31.749	-4.908	245.263	-22.512	203.356	252.176	153.240	-68.707	0.00018926	1.2082e-05	2.9455e-05	1185.8	1.6379e-06	9.322e-07	1258.8	246.67	6.267e-07	1.7014e-06	309.74	85.921	67.434	19.64	1.6204e-07	27.69	3.5802e-05	3.9235e-05	1.1404e-05	934.9	3.8207e-07	4.2809e-07	1011.4	190.85	3.826e-07	4.4047e-07	223.48	62.173	46.358	14.177	4.4053e-07	19.096	108.117	98.197	-52.650	-60.058	81.640	126.947	-59.947	-53.311	217.605	71.889	-53.035	-46.673	-46.343	-39.689	-8.726	-40.013	-8191	255	
2123.889	1	1	0	0	0.15107	0.13644	0.08266	0.21864	0.1681	0.1486	0.24362	0.099515	0.23846	0.044864	0.17739	0.2109	0.10839	0.1651	0.15992	0.16244	-3.4021	-4.1417	-4.1521	-3.8937	-4.1125	-3.8979	-4.0042	-4.3	-3.7708	-4.0958	-4.025	-3.7917	-4.3104	-3.9188	-3.7833	-4.3667	90.045	56.883	108.846	253.141	217.760	153.119	225.698	222.103	265.502	195.323	264.707	265.423	85.243	113.194	251.348	156.425	3.4138e-05	8.4227e-05	6.2974e-05	1183.6	9.9101e-07	1.0333e-06	1252.5	245.13	1.8524e-06	2.7022e-06	307.5	85.728	67.286	19.48	3.741e-07	27.766	3.6062e-05	4.0822e-05	1.0933e-05	935.15	3.9313e-07	4.5138e-07	1010.2	190.56	3.934e-07	4.5282e-07	222.35	62.028	46.438	14.185	4.1245e-07	19.026	153.185	32.065	241.182	-59.973	156.755	52.203	-60.026	-52.970	236.375	122.204	-53.158	-47.126	-46.199	-39.119	93.764	-40.036	-8191	255	
2123.985	1	1	0	0	0.31908	0.12286	0.24156	0.29024	0.05855	0.15697	0.20227	0.19468	0.058486	0.15826	0.1459	0.40571	0.14487	0.32919	0.16909	0.19912	-3.3958	-4.0875	-4.1542	-3.9375	-4.3042	-3.8625	-3.8896	-4.5	-3.8417	-4.0813	-4.3625	-3.7583	-4.2708	-4.1875	-3.8646	-4.4354	125.148	18.494	7.713	221.394	153.332	115.085	220.749	6.112	199.640	225.838	197.994	267.335	230.366	212.321	186.075	-54.002	0.00012847	7.2001e-05	1.8923e-05	1182.6	4.3692e-07	1.0129e-06	1262.1	246.4	1.7543e-06	3.6111e-07	309.93	85.9	67.314	19.587	1.0079e-06	27.501	3.739e-05	4.1298e-05	1.0226e-05	932.08	4.1517e-07	4.4588e-07	1009.7	190.62	4.2284e-07	4.48e-07	222.7	62.056	46.632	14.139	4.0377e-07	19.053	31.018	157.166	-12.211	-60.080	193.909	96.915	-59.967	-52.949	178.805	83.016	-53.269	-46.688	-46.568	-39.589	102.980	-39.891	-8191	255	
2124.081	1	1	0	0	0.28037	0.15127	0.19528	0.14264	0.12094	0.3065	0.078204	0.32375	0.08041	0.17398	0.22524	0.078967	0.0063625	0.16396	0.13428	0.14312	-3.5646	-3.9354	-4.3063	-3.9229	-4.0771	-4.225	-3.7896	-4.2854	-3.9938	-4.0125	-4.3187	-3.7646	-4.1354	-4.2375	-3.7292	-4.2625	231.500	83.259	113.867	265.787	139.206	113.861	182.345	223.096	25.835	68.013	191.636	225.323	119.964	-61.089	-48.787	110.748	0.00014422	0.00015415	3.9069e-05	1180.4	2.5961e-07	2.009e-06	1254.4	245.74	1.9717e-06	2.5106e-06	309.14	86.564	67.239	19.74	7.7843e-07	27.618	4.0211e-05	3.9725e-05	1.0178e-05	932.16	4.4088e-07	4.3027e-07	1007.2	190.51	4.4822e-07	4.2831e-07	222.01	62.093	46.802	14.11	3.8937e-07	19.071	108.608	17.022	32.981	-59.930	-56.308	-6.651	-60.034	-53.258	71.873	39.300	-53.182	-46.879	-46.399	-39.387	66.501	-39.794	-8191	255	
2124.177	1	1	0	0	0.22742	0.13384	0.092079	0.24771	0.16371	0.10028	0.35201	0.20099	0.21214	0.13053	0.12611	0.08338	0.21808	0.12643	0.17036	0.043503	-3.6021	-3.8917	-4.3854	-3.7375	-4.0646	-4.0938	-3.9958	-4.4	-3.8479	-3.775	-4.5188	-3.9979	-4.0396	-4.4875	-3.6604	-4.3875	145.574	192.871	84.107	277.592	11.844	147.111	283.482	-61.215	14.862	-62.251	112.001	-13.009	279.459	261.089	-34.763	83.901	0.00018104	0.00019505	1.4398e-05	1182.5	1.8486e-06	1.1316e-06	1253.6	245.84	7.1159e-07	1.4943e-06	310.43	86.012	67.185	19.583	9.5273e-07	27.562	4.1396e-05	3.7828e-05	9.8152e-06	932.04	4.4887e-07	4.1118e-07	1008.1	190.63	4.4739e-07	4.0415e-07	221.8	62.1	46.712	14.051	3.8122e-07	19.135	73.914	-8.973	-7.645	-60.044	23.505	20.185	-59.860	-52.911	-39.682	46.242	-53.518	-46.800	-46.552	-39.416	21.547	-40.121	-8191	255	
2124.298	1	1	0	0	0.2151	0.098128	0.17999	0.28743	0.12573	0.045338	0.16834	0.20876	0.27631	0.1056	0.19644	0.22242	0.26857	0.25113	0.16385	0.22939	-3.8354	-3.7542	-4.3604	-4.1354	-4.0687	-4.3542	-3.9375	-4.2833	-4.0437	-3.7021	-4.3812	-3.8	-3.925	-4.3708	-3.8146	-4.1208	251.775	263.037	271.125	268.793	-23.885	-11.645	201.764	222.862	238.593	-11.166	240.107	231.736	271.034	263.739	-5.506	276.574	7.74e-05	0.0001676	1.5664e-05	1184.1	1.1734e-06	9.294e-07	1256.6	246.62	4.2494e-07	3.8987e-07	308.56	86.006	67.316	19.597	8.1311e-07	27.527	4.1047e-05	3.6613e-05	9.5376e-06	934.96	4.4382e-07	3.9972e-07	1007.7	191.22	4.4227e-07	3.998e-07	221.38	62.313	46.706	14.067	3.7996e-07	19.222	70.852	-26.527	279.835	-60.111	-32.770	49.243	-60.210	-52.957	-16.883	214.704	-53.004	-46.783	-46.398	-39.478	-63.590	-40.363	-8191	255	
2124.370	1	1	0	0	0.1221	0.17962	0.061786	0.1112	0.12356	0.048535	0.066895	0.15691	0.026475	0.1453	0.10321	0.16438	0.18451	0.072769	0.17772	0.11005	-3.6979	-3.9562	-4.2583	-4.0958	-3.85	-4.1729	-4.0125	-4.2021	-4.1188	-3.8021	-4.5188	-4.0167	-4.0938	-4.3896	-3.8688	-4.1854	-13.535	101.274	-11.965	96.491	200.181	75.963	184.123	63.129	156.669	263.391	-65.373	163.426	245.446	237.526	81.153	258.064	0.00016111	0.0001859	4.0086e-05	1179.9	4.6446e-07	7.007e-07	1257.1	244.77	8.2563e-07	1.1231e-06	306.72	86.332	67.555	19.788	5.5294e-07	27.353	3.9816e-05	3.6042e-05	9.6284e-06	933.91	4.2754e-07	3.8759e-07	1008.4	191.4	4.1891e-07	3.9077e-07	221.83	62.71	46.68	14.04	3.9978e-07	19.248	62.665	-15.363	86.632	-60.037	86.898	277.583	-60.045	-53.262	254.573	40.271	-53.284	-46.783	-46.263	-39.741	80.441	-39.986	-8191	255	
2124.466	1	1	0	0	0.061833	0.20561	0.031924	0.2646	0.082993	0.15872	0.22248	0.17801	0.11965	0.15826	0.15685	0.1841	0.036327	0.089099	0.029689	0.17457	-3.7833	-3.8417	-4.275	-4.1312	-3.7458	-4.4125	-4.0458	-4.1104	-4.0854	-3.7792	-4.2312	-4.0687	-3.7792	-4.3375	-3.8104	-4.0021	-9.122	-10.136	163.999	212.305	132.004	130.103	276.458	159.997	228.992	132.872	248.986	174.528	166.035	15.584	77.095	-23.713	8.0712e-05	9.8638e-05	4.4714e-05	1185.2	1.3557e-06	8.1874e-07	1251.8	246.18	1.4761e-06	8.5806e-07	309.37	85.835	67.45	19.446	8.0345e-07	27.738	3.7638e-05	3.4796e-05	1.0132e-05	937.75	4.0613e-07	3.7319e-07	1009.7	191.55	4.0145e-07	3.7946e-07	222.93	62.52	46.476	14.015	4.2779e-07	19.224	81.921	19.749	-39.868	-60.116	1.717	30.638	-59.988	-52.828	11.207	99.917	-53.182	-47.021	-47.029	-38.955	42.923	-39.688	-8191	255	
2124.562	1	1	0	0	0.19008	0.16686	0.028225	0.27551	0.19101	0.073095	0.1387	0.091948	0.096996	0.16345	0.25162	0.090961	0.344	0.065198	0.041943	0.06307	-3.8583	-3.8104	-4.2625	-4.2958	-3.7438	-4.3771	-4.1146	-3.9542	-4.1083	-3.8812	-4.1458	-4.2021	-3.8833	-4.2854	-3.9396	-3.9688	89.868	-6.842	224.227	249.264	-32.559	187.172	-51.472	51.459	113.536	98.588	-62.039	176.209	196.950	213.354	21.276	131.732	0.00019516	6.3045e-05	4.8585e-05	1181.5	8.4738e-07	1.0931e-06	1260.4	245.46	1.9061e-06	9.7299e-07	309.74	86.128	67.431	19.521	7.0314e-07	27.819	3.6854e-05	3.4466e-05	1.0863e-05	935.43	3.981e-07	3.7874e-07	1012.3	191.1	3.9403e-07	3.7883e-07	223.19	62.339	46.314	14.004	4.4466e-07	19.172	69.380	-17.473	147.118	-59.968	-6.455	6.199	-59.968	-52.936	101.075	21.080	-53.378	-46.569	-46.582	-39.154	56.528	-40.098	-8191	255	
2124.682	1	1	0	0	0.11827	0.12303	0.144	0.26895	0.015715	0.11183	0.35172	0.1392	0.18342	0.093383	0.23218	0.26581	0.092855	0.060531	0.15296	0.19219	-3.9958	-3.8125	-4.2021	-4.1479	-3.7396	-4.2417	-4.2125	-4.0229	-4.2292	-3.7771	-3.9792	-4.2438	-3.7542	-4.3438	-3.8438	-3.9083	-57.777	182.649	67.886	263.323	-19.718	219.420	222.477	-49.347	145.075	42.795	255.160	-38.772	15.324	142.442	285.191	-22.222	5.8019e-05	0.00014547	5.5888e-05	1187	1.6405e-06	5.1139e-07	1259.2	247.09	5.4708e-07	3.6187e-07	310.03	86.433	67.627	19.445	1.5951e-06	27.627	3.5636e-05	3.5049e-05	1.1301e-05	935.23	3.8757e-07	3.8732e-07	1012.2	190.87	3.7877e-07	3.9753e-07	223.23	62.287	46.307	14.022	4.3945e-07	19.067	74.034	75.511	-14.654	-59.832	72.075	155.410	-60.066	-53.192	86.665	36.514	-53.338	-46.892	-46.602	-39.651	20.854	-40.234	-8191	255	
2124.779	1	1	0	0	0.072191	0.085613	0.26876	0.017936	0.29403	0.059867	0.38702	0.30038	0.12131	0.097279	0.16377	0.30599	0.17658	0.01939	0.11524	0.20813	-3.9062	-3.8771	-3.9333	-4.4167	-3.85	-4.2917	-4.2396	-3.8271	-4.2979	-3.9542	-4.0312	-4.2917	-3.7146	-4.1479	-4.2479	-3.8625	202.900	171.801	119.770	9.989	236.849	184.006	196.817	283.508	3.163	40.686	11.546	184.303	93.237	137.820	56.832	-57.827	1.3233e-05	8.3706e-05	4.0135e-05	1180.3	9.9779e-07	1.6018e-06	1253.9	246.21	1.2716e-06	1.1922e-06	308.81	85.889	67.288	19.664	1.2249e-06	27.609	3.497e-05	3.7817e-05	1.1177e-05	932.69	3.7857e-07	4.2044e-07	1011.3	190.62	3.8091e-07	4.3288e-07	223.17	62.026	46.239	14.158	4.3051e-07	19.083	80.112	87.603	-32.772	-59.959	8.251	181.785	-60.012	-52.803	112.794	111.823	-53.255	-46.790	-46.116	-39.741	57.522	-39.794	-8191	255	
2124.875	1	1	0	0	0.070704	0.094138	0.24144	0.29272	0.069732	0.2788	0.22985	0.024103	0.22323	0.14723	0.47235	0.1208	0.12962	0.076864	0.19761	0.041236	-3.9562	-4.0917	-3.8833	-4.5583	-3.7958	-4.0813	-4.4271	-3.8833	-4.1625	-3.8521	-3.9021	-4.3688	-3.9083	-4.1312	-4.25	-3.8396	175.326	-21.774	133.935	256.614	131.773	129.866	251.325	16.425	134.704	158.445	283.526	224.050	277.095	65.159	-11.220	269.083	0.00018878	4.0257e-05	2.7392e-05	1182.4	8.931e-07	7.6861e-07	1251.2	245.86	9.0907e-07	5.3161e-07	308.15	85.686	67.289	19.616	1.4662e-06	27.79	3.5201e-05	4.0496e-05	1.0807e-05	933.04	3.8215e-07	4.4907e-07	1008.8	190.36	3.8936e-07	4.5173e-07	222.54	61.966	46.469	14.213	4.175e-07	19.091	57.484	232.777	43.321	-60.021	26.157	88.215	-60.023	-52.807	251.883	-9.904	-53.139	-46.787	-46.320	-39.397	-36.433	-40.203	-8191	255	
2124.994	1	1	0	0	0.060074	0.16535	0.25189	0.24473	0.28492	0.1476	0.1625	0.11582	0.037224	0.10347	0.24897	0.14628	0.097452	0.13537	0.22333	0.23121	-3.9333	-3.9333	-3.9208	-4.4125	-3.6521	-4.175	-4.3375	-3.8312	-4.2125	-4.1667	-3.8292	-4.1854	-3.9396	-4.0646	-4.4	-3.8521	-30.747	156.001	74.501	285.079	121.666	2.884	256.735	277.846	30.704	155.494	-10.687	198.882	252.957	-10.687	-23.732	282.261	0.00013292	0.00018838	6.4451e-05	1181.4	1.3033e-06	1.0793e-06	1255.3	246.15	1.1375e-06	1.0068e-06	309.08	86.265	67.44	19.654	1.1057e-06	27.531	3.7749e-05	4.1964e-05	1.0661e-05	932.39	4.2084e-07	4.6144e-07	1009.5	190.54	4.2924e-07	4.5103e-07	222.69	62.082	46.718	14.172	4.1327e-07	19.036	92.452	15.990	-34.806	-60.011	50.593	43.642	-59.980	-52.888	99.792	18.782	-53.099	-46.735	-46.220	-39.621	68.654	-40.243	-8191	255	
2125.065	1	1	0	0	0.14158	0.13468	0.15081	0.23376	0.0687	0.37186	0.06399	0.11552	0.31598	0.17119	0.17631	0.12592	0.11852	0.09219	0.088182	0.036656	-4.0104	-4.0521	-3.9	-4.3083	-3.825	-3.9875	-4.4437	-3.7979	-4.2	-4.2042	-3.9062	-4.4604	-3.9938	-4.0188	-4.3042	-4.1208	149.971	-43.923	105.284	286.191	141.639	105.834	143.841	207.276	64.293	170.869	256.218	194.097	184.731	-37.509	-22.621	56.417	0.00021214	0.00013836	3.2897e-05	1179.7	7.0683e-07	8.9389e-07	1246.8	245.62	3.9553e-07	1.2278e-06	308.31	86.412	67.023	19.621	8.5279e-07	27.588	4.0785e-05	4.0681e-05	1.0433e-05	931.77	4.4433e-07	4.4592e-07	1006.7	190.41	4.6078e-07	4.4447e-07	222.16	62.017	46.746	14.135	4.0285e-07	19.085	69.413	23.859	19.148	-60.101	271.206	22.562	-60.002	-53.050	130.974	66.176	-53.350	-46.935	-46.515	-39.485	12.378	-39.976	-8191	255	
2125.163	1	1	0	0	0.067264	0.11996	0.082009	0.17727	0.077034	0.015497	0.21795	0.11565	0.050712	0.1151	0.19753	0.11295	0.2141	0.2817	0.12921	0.097334	-3.8187	-4.0208	-3.6688	-4.3313	-3.8208	-3.8979	-4.6646	-3.8937	-4.1417	-4.1521	-3.875	-4.1354	-4.0292	-3.8563	-4.2812	-3.8708	117.480	-67.385	105.042	175.589	-23.529	263.845	258.505	192.142	10.924	4.724	235.709	213.678	222.279	-50.320	208.828	-7.090	0.00010256	1.4981e-05	1.4617e-05	1174.2	4.1799e-07	1.8548e-06	1253.7	245.99	6.3555e-07	1.2471e-06	307.87	85.734	66.87	19.659	6.0873e-07	27.492	4.2874e-05	3.9248e-05	1.0319e-05	931.42	4.7074e-07	4.3606e-07	1007.2	190.9	4.7576e-07	4.3099e-07	221.86	62.247	46.756	14.101	3.9677e-07	19.174	40.209	93.607	-66.464	-59.769	-12.078	-3.467	-60.072	-53.084	236.394	-28.516	-53.354	-46.770	-46.723	-39.722	61.236	-40.166	-8191	255	
2125.282	1	1	0	0	0.066226	0.098798	0.16425	0.10455	0.16592	0.1993	0.19208	0.083757	0.13594	0.27947	0.32725	0.17212	0.073879	0.17861	0.18359	0.3467	-3.7917	-4.3438	-3.775	-4.4604	-4.1354	-3.9229	-4.2854	-3.9833	-3.8979	-4.325	-3.8083	-4.3479	-4.0896	-3.7542	-4.3313	-4.1146	176.723	-17.140	-44.315	230.213	35.092	281.811	175.594	149.644	-56.209	258.110	184.022	99.959	-35.994	63.675	119.410	-9.748	0.00019441	0.00013219	3.1754e-06	1179.7	1.678e-06	1.9113e-06	1252.8	245.52	2.2248e-07	1.6936e-06	308.73	86.139	67.069	19.531	1.5525e-06	27.64	4.3278e-05	3.8518e-05	1.0095e-05	933.4	4.68e-07	4.2452e-07	1006.7	191.07	4.5635e-07	4.1857e-07	222.15	62.476	46.722	14.059	3.9303e-07	19.274	36.148	-48.951	186.488	-60.154	28.484	48.259	-59.925	-52.928	280.699	-33.271	-52.981	-46.625	-46.459	-39.508	64.911	-40.123	-8191	255	
2125.378	1	1	0	0	0.15854	0.090564	0.0482	0.17363	0.23026	0.19918	0.20325	0.20903	0.2345	0.17173	0.0795	0.25921	0.029619	0.1381	0.25589	0.22424	-3.5979	-4.3208	-3.6417	-4.2125	-4.1729	-3.7292	-4.4792	-4.1167	-3.7583	-4.1958	-3.9604	-4.1458	-4.2583	-3.7604	-4.2771	-4.0813	-39.355	22.701	237.860	184.768	146.149	272.765	209.465	219.015	277.759	63.125	22.218	110.233	167.529	58.024	155.178	-41.705	0.00011028	0.00014229	2.721e-05	1182.4	1.3167e-06	6.3606e-07	1256.7	246.79	1.4545e-06	1.6564e-06	307.31	86.078	67.253	19.64	1.2974e-06	27.364	4.1608e-05	3.7277e-05	1.0045e-05	935.39	4.4388e-07	4.0879e-07	1007.9	191.58	4.4142e-07	4.034e-07	221.97	62.637	46.495	14.061	4.1408e-07	19.252	111.939	65.955	-40.373	-60.062	163.519	281.881	-59.846	-52.744	-43.716	59.267	-53.271	-46.872	-46.061	-39.374	247.170	-40.196	-8191	255	
2125.474	1	1	0	0	0.2133	0.097221	0.21213	0.055971	0.048872	0.2646	0.29231	0.085133	0.27179	0.073628	0.1725	0.20605	0.14457	0.16483	0.076688	0.12398	-3.525	-4.4708	-3.7375	-4.3375	-4.25	-3.8542	-4.4375	-4.1521	-3.9229	-4.1521	-3.9208	-4.1917	-4.2438	-3.8375	-4.2479	-4.0312	178.988	66.709	-59.956	217.700	55.880	263.393	249.088	-39.855	113.939	134.621	269.836	-23.507	33.508	274.415	23.762	202.524	5.2814e-05	0.00012293	3.4069e-05	1183.4	4.3119e-07	1.8713e-06	1254.9	245.93	4.1157e-07	9.925e-07	308.25	86.14	67.701	19.623	7.5056e-07	27.62	3.9863e-05	3.6473e-05	1.0824e-05	935.41	4.3438e-07	4.0037e-07	1010.4	191.88	4.291e-07	3.9892e-07	222.89	62.524	46.662	14.063	4.527e-07	19.306	50.375	-14.179	75.639	-59.929	22.381	0.371	-59.925	-52.704	42.324	53.873	-52.982	-46.643	-46.612	-39.569	141.016	-39.883	-8191	255	
2125.595	1	1	0	0	0.27854	0.13004	0.22327	0.082511	0.22597	0.13066	0.15363	0.16987	0.027452	0.15603	0.33338	0.13334	0.15875	0.093705	0.0854	0.24615	-3.4938	-4.2083	-3.8583	-4.1188	-4.1375	-3.7292	-4.2917	-4.0854	-3.7812	-4.1896	-4.0583	-3.9667	-4.3688	-3.8375	-4.2729	-4.2833	269.714	90.655	16.958	215.640	95.980	-13.439	236.427	-19.335	218.779	-2.823	-14.271	189.210	125.873	247.694	19.763	178.708	0.0002648	1.3199e-05	2.7414e-05	1177.4	1.3408e-06	1.1155e-06	1252.8	245.94	6.8477e-08	1.6823e-06	308.06	86.024	67.833	19.54	1.7028e-07	27.465	3.9956e-05	3.6776e-05	1.1695e-05	935.37	4.285e-07	4.033e-07	1010.8	191.46	4.2874e-07	4.0305e-07	223.77	62.541	46.652	14.047	4.787e-07	19.241	89.112	271.431	6.093	-60.002	76.158	64.594	-60.089	-52.965	185.559	48.265	-53.461	-46.890	-46.533	-39.169	91.323	-40.370	-8191	255	
2125.667	1	1	0	0	0.14982	0.073153	0.043792	0.35471	0.13586	0.12614	0.20989	0.15895	0.27645	0.055388	0.12425	0.25451	0.082728	0.087948	0.3091	0.13289	-3.3438	-4.1771	-4.0292	-3.875	-4.1	-3.6813	-4.2271	-4.2063	-3.7896	-4.2229	-4.0146	-3.8979	-4.2042	-3.8292	-4.0625	-4.2521	226.264	8.716	87.888	233.700	21.136	273.039	249.952	-51.515	-33.723	-19.655	-16.286	72.948	270.018	162.170	-28.079	178.657	0.00012884	2.8087e-05	7.135e-05	1180.7	9.888e-07	2.0704e-06	1253.1	245.82	5.1537e-07	1.2395e-06	309.45	85.613	67.593	19.553	1.1624e-06	27.498	3.9108e-05	3.7553e-05	1.2248e-05	936.23	4.1162e-07	4.1817e-07	1012.4	191.48	4.1562e-07	4.2603e-07	223.77	62.32	46.419	14.125	4.8053e-07	19.206	105.724	81.842	11.786	-60.057	248.987	164.439	-60.066	-52.997	66.583	38.230	-53.190	-47.053	-46.770	-39.574	36.667	-40.152	-8191	255	
2125.763	1	1	0	0	0.16477	0.13142	0.048877	0.069655	0.12705	0.0321	0.1687	0.061269	0.14182	0.10371	0.2252	0.041257	0.091282	0.14753	0.059747	0.1449	-3.2979	-4.1708	-4.0917	-3.9313	-4.1583	-3.9313	-4.2583	-4.3458	-3.8792	-4.3271	-4.0667	-3.7771	-4.2667	-3.9958	-4.1167	-4.4479	192.730	147.313	278.161	254.663	66.638	153.940	218.815	282.982	264.457	-62.091	272.089	235.737	170.804	-27.400	285.128	238.176	9.3999e-05	0.00014018	7.7981e-05	1185.9	2.5755e-06	1.6973e-06	1255.3	246.65	5.5487e-07	9.1883e-07	308.93	86.318	67.445	19.493	1.7216e-06	27.385	3.7853e-05	4.0301e-05	1.2057e-05	935.69	4.0725e-07	4.5029e-07	1012.3	191.24	4.0775e-07	4.5346e-07	223.7	62.418	46.392	14.171	4.6054e-07	19.095	82.118	33.659	-50.278	-60.097	-19.797	110.174	-60.204	-53.095	152.755	90.091	-53.298	-46.517	-46.363	-39.531	5.402	-39.956	-8191	255	
2125.859	1	1	0	0	0.078154	0.13167	0.056376	0.20104	0.033775	0.065409	0.1063	0.1148	0.31278	0.056183	0.16702	0.040699	0.029375	0.066132	0.093028	0.11752	-3.6833	-4.2146	-3.8792	-4.0104	-4.2312	-3.9437	-4.2375	-4.3688	-3.7188	-4.0917	-4.2167	-3.7667	-4.3542	-3.9458	-3.8187	-4.4187	142.234	-52.353	242.189	-59.794	156.620	125.449	-24.339	160.686	157.173	249.814	141.358	-63.600	17.087	129.788	56.540	142.794	0.0001922	0.00010039	2.3342e-05	1180.4	2.1154e-06	1.4451e-06	1251.1	245.89	1.3134e-06	2.6721e-07	309.76	86.001	67.116	19.39	9.4554e-07	27.53	3.7481e-05	4.2727e-05	1.1538e-05	933.32	4.0681e-07	4.6854e-07	1010.8	190.62	4.1554e-07	4.7502e-07	223.14	62.165	46.425	14.189	4.4212e-07	19.093	35.904	10.107	-23.209	-59.981	91.262	49.901	-59.998	-52.812	45.961	40.009	-53.380	-46.843	-46.522	-39.521	261.800	-40.165	-8191	255	
2125.955	1	1	0	0	0.26124	0.25433	0.11732	0.31939	0.065657	0.082786	0.32422	0.14972	0.11792	0.057203	0.10175	0.30885	0.02452	0.20057	0.11704	0.097222	-3.4333	-4.0125	-4.1417	-3.8542	-4.3812	-4.125	-4.1354	-4.3854	-3.8042	-3.9938	-4.2979	-3.8083	-4.2521	-4.0125	-3.7146	-4.3521	-29.843	214.414	148.513	253.792	225.049	28.791	187.932	277.043	207.204	194.907	275.953	-49.069	42.358	-2.362	251.763	-70.265	0.00020506	9.972e-05	3.5238e-05	1182.1	1.453e-06	4.6417e-07	1260.6	245.58	1.1159e-06	2.4421e-06	308.67	86.519	67.205	19.512	6.3658e-07	27.64	3.9075e-05	4.3459e-05	1.0906e-05	932.13	4.2539e-07	4.7551e-07	1010.2	190.34	4.356e-07	4.7073e-07	222.33	62.178	46.656	14.184	4.2444e-07	19.076	74.553	-12.487	286.724	-59.945	106.220	237.583	-59.817	-52.995	-66.236	26.718	-53.472	-46.839	-46.778	-39.190	133.339	-40.207	-8191	255	
2126.074	1	1	0	0	0.083471	0.17249	0.11107	0.16135	0.14369	0.22235	0.28416	0.35783	0.20295	0.038625	0.099392	0.18372	0.15653	0.0098061	0.23598	0.25424	-3.4667	-3.8958	-4.1604	-3.9188	-4.1188	-4.0437	-3.975	-4.3021	-3.9333	-3.9583	-4.3458	-3.6729	-4.2417	-4.1562	-3.6958	-4.0896	257.066	6.623	9.623	210.467	58.474	216.549	248.366	246.710	-47.229	79.199	278.541	30.832	-24.295	98.257	173.912	-40.099	4.9404e-05	0.0001096	2.8527e-05	1183.1	1.2163e-06	1.479e-06	1252	245.93	1.4114e-06	7.7033e-07	309.82	85.994	67.141	19.504	1.0025e-06	27.614	4.1849e-05	4.2527e-05	1.0646e-05	932.42	4.6217e-07	4.5556e-07	1008.6	190.64	4.5663e-07	4.4932e-07	222.13	62	46.756	14.124	4.0623e-07	19.087	53.975	-15.124	6.362	-60.026	126.165	26.952	-59.994	-53.092	205.911	28.544	-53.278	-46.744	-46.076	-39.661	45.778	-39.821	-8191	255	
2126.170	1	1	0	0	0.21668	0.068823	0.093521	0.27491	0.10645	0.13142	0.26294	0.18834	0.1129	0.069299	0.29852	0.072518	0.11319	0.10003	0.12498	0.043139	-3.5687	-3.8708	-4.2104	-3.9396	-4.0271	-4.1896	-3.8833	-4.3208	-3.9583	-3.8875	-4.5271	-3.9229	-4.1125	-4.2146	-3.5563	-4.125	-40.953	25.362	168.361	197.506	188.146	-29.550	268.976	254.010	177.886	-64.742	85.290	-10.721	-33.521	185.623	230.236	28.154	0.00010774	0.00012179	1.437e-05	1184.6	4.0088e-07	1.4701e-06	1256.5	244.61	1.0977e-06	9.617e-07	307.47	85.844	67.524	19.503	8.2513e-07	27.516	4.3336e-05	4.0502e-05	1.03e-05	933.63	4.7235e-07	4.3843e-07	1008.7	190.59	4.6595e-07	4.2679e-07	221.81	62.133	46.768	14.035	3.9071e-07	19.084	60.559	-54.821	-43.892	-59.959	282.389	-4.185	-59.990	-52.868	102.977	220.807	-52.857	-47.052	-46.430	-39.552	89.304	-39.919	-8191	255	
2126.266	1	1	0	0	0.19982	0.12914	0.087293	0.16375	0.13737	0.15659	0.3175	0.091199	0.081332	0.18073	0.18182	0.13326	0.28961	0.03145	0.10067	0.2225	-3.6854	-3.9417	-4.2083	-3.9292	-4.0667	-4.3021	-3.95	-4.2312	-4.0437	-3.8896	-4.3417	-4.1354	-4.0146	-4.2312	-3.7917	-4.1625	-43.232	-68.177	281.700	-53.946	162.816	206.665	192.867	98.924	-60.805	214.904	242.095	277.278	263.554	267.263	149.243	-20.445	0.00024312	0.00011331	3.9883e-05	1180.6	2.3237e-06	1.1344e-06	1251	246.28	3.5724e-07	6.5534e-07	308.92	86.011	67.169	19.51	4.8043e-07	27.478	4.1862e-05	3.7508e-05	9.6313e-06	933.47	4.4532e-07	4.0518e-07	1005.5	190.85	4.4331e-07	4.06e-07	221.67	62.287	46.593	14.047	3.8357e-07	19.206	115.437	30.307	23.504	-59.802	9.836	92.366	-60.001	-53.080	5.062	237.698	-53.239	-46.679	-46.314	-39.746	-15.957	-39.840	-8191	255	
2126.362	1	1	0	0	0.034266	0.24958	0.25516	0.1197	0.27763	0.13455	0.28244	0.030207	0.09242	0.089976	0.13447	0.10075	0.25644	0.12998	0.070068	0.22254	-3.7062	-3.7917	-4.2333	-4.1104	-3.9646	-4.1979	-3.7729	-4.3646	-4.2021	-3.7896	-4.2458	-3.9562	-3.9646	-4.2688	-3.8458	-4.1479	180.075	226.234	225.343	236.535	176.422	106.144	224.457	288.967	178.807	211.203	158.528	226.104	130.891	-68.624	3.262	274.190	1.6285e-05	0.0001206	3.3927e-05	1177.5	1.6044e-06	1.3789e-06	1255	245.85	8.9928e-07	1.5401e-06	307.66	86.153	67.544	19.546	1.8701e-06	27.597	4.0168e-05	3.663e-05	9.5643e-06	933.63	4.3566e-07	3.9394e-07	1007.9	191.41	4.2457e-07	3.8845e-07	222.1	62.6	46.526	14.012	4.0006e-07	19.276	-44.377	-65.888	-69.680	-60.160	-17.455	44.819	-59.961	-53.005	-54.074	36.061	-53.114	-46.904	-46.403	-39.494	145.755	-40.299	-8191	255	
2126.459	1	1	0	0	0.14735	0.22613	0.2277	0.10374	0.083952	0.23185	0.14104	0.027523	0.073779	0.14363	0.29433	0.23484	0.20024	0.13227	0.19301	0.34045	-3.8187	-3.7812	-4.275	-4.0312	-3.8812	-4.3354	-4.0458	-4.1667	-4.0875	-3.7604	-4.3979	-4.0458	-3.8583	-4.3479	-3.8563	-3.8979	45.621	111.413	275.844	185.765	226.548	237.147	221.807	36.563	18.678	213.713	-62.788	109.652	235.796	279.537	-27.988	153.759	9.1195e-05	0.00014609	4.0857e-05	1182.7	1.1302e-06	1.0181e-06	1254.7	245.81	7.2027e-07	6.1841e-07	308.11	86.451	67.541	19.447	8.7771e-07	27.552	3.8466e-05	3.549e-05	1.0287e-05	936.33	4.1437e-07	3.7938e-07	1009.4	191.31	4.0842e-07	3.7343e-07	222.2	62.593	46.383	13.969	4.1306e-07	19.233	91.915	57.943	91.840	-60.082	-10.877	-38.482	-60.128	-52.968	62.622	219.005	-53.264	-46.819	-46.162	-39.414	55.071	-39.981	-8191	255	
2126.555	1	1	0	0	0.083367	0.16995	0.16673	0.40856	0.11781	0.17988	0.16313	0.35934	0.3687	0.14199	0.25815	0.091633	0.07466	0.22445	0.25703	0.16461	-3.8208	-3.7125	-4.2896	-4.2667	-3.8729	-4.2208	-3.9771	-4.1792	-4.2708	-3.8292	-4.1854	-4.2625	-3.8167	-4.2312	-3.9375	-3.9542	153.863	23.330	16.137	234.897	91.857	201.499	238.419	224.393	166.112	-60.990	257.415	213.339	99.945	220.157	285.257	230.081	0.00021145	0.00021031	3.9788e-05	1182.1	1.6692e-06	1.1317e-06	1256.2	245.39	7.4662e-07	1.4158e-06	307.53	86.208	67.09	19.591	2.7328e-07	27.544	3.6209e-05	3.3702e-05	1.062e-05	934.51	3.9598e-07	3.7124e-07	1008.9	190.89	3.8799e-07	3.6313e-07	222.5	62.284	46.129	13.967	4.2574e-07	19.097	70.743	26.880	1.391	-60.015	52.167	106.331	-60.001	-53.160	56.334	47.178	-53.367	-46.868	-46.262	-39.490	-56.441	-39.996	-8191	255	
2126.675	1	1	0	0	0.18251	0.15517	0.16553	0.11888	0.16073	0.14396	0.099534	0.26915	0.26038	0.093281	0.12442	0.089084	0.41727	0.10665	0.28034	0.09579	-3.9708	-3.7729	-4.1104	-4.3208	-3.7104	-4.1604	-4.1458	-4.0312	-4.2521	-3.9542	-4.1625	-4.2479	-3.8542	-4.3896	-3.8667	-3.8771	77.748	-24.116	159.925	203.360	-70.029	219.387	125.946	203.946	171.108	88.997	215.376	254.311	272.248	-61.957	-43.654	-1.033	0.00019975	6.795e-05	2.5741e-05	1177.2	1.4176e-06	1.2276e-06	1252	245.13	1.0787e-06	1.0554e-06	308.76	86.636	67.135	19.615	8.1678e-07	27.416	3.4532e-05	3.3618e-05	1.0859e-05	930.13	3.6942e-07	3.6828e-07	1007.9	189.81	3.6852e-07	3.73e-07	222.09	62.014	45.981	14.005	4.2645e-07	18.99	124.188	34.116	121.729	-60.100	-38.786	82.738	-59.955	-53.025	113.043	226.311	-53.141	-46.971	-46.729	-39.628	91.803	-39.520	-8191	255	
2126.772	1	1	0	0	0.18963	0.21138	0.15015	0.24542	0.17998	0.05623	0.18715	0.16681	0.26574	0.14159	0.084117	0.14911	0.10373	0.054537	0.091783	0.084729	-3.9333	-3.7417	-3.9875	-4.2479	-3.7083	-4.2458	-4.1396	-3.9062	-4.3792	-3.8771	-4.2958	-4.3083	-3.8167	-4.1312	-4.1604	-3.8812	63.879	-9.233	155.557	214.736	177.804	82.691	211.841	132.143	-54.713	46.451	65.330	233.429	-31.801	-63.832	118.043	179.236	0.00019865	7.7462e-05	3.6906e-05	1181.1	1.1179e-06	1.3247e-06	1250	244.79	3.7923e-07	4.7461e-07	308.2	86.181	67.121	19.602	2.2544e-07	27.421	3.3288e-05	3.5436e-05	1.0704e-05	928.81	3.5679e-07	3.9399e-07	1005.4	189.63	3.5175e-07	3.9575e-07	221.7	61.919	45.948	14.047	4.0255e-07	18.983	85.359	10.074	-7.276	-60.072	48.446	94.577	-60.023	-52.945	-26.409	59.644	-53.281	-46.777	-46.233	-39.416	83.230	-39.757	-8191	255	
2126.868	1	1	0	0	0.32514	0.098375	0.18261	0.31833	0.018851	0.21317	0.11447	0.1925	0.1201	0.2047	0.31933	0.050997	0.1857	0.079387	0.24917	0.28358	-3.9479	-4.0917	-3.9646	-4.2875	-3.6729	-4.1583	-4.1646	-3.8063	-4.2146	-4.0396	-3.9938	-4.4625	-3.8417	-4.0854	-4.1479	-3.7958	121.168	-34.770	268.869	189.213	2.268	-21.103	128.140	-18.424	136.372	-35.512	-27.097	-40.275	174.371	269.404	17.644	16.213	0.00021121	7.2246e-05	3.5647e-05	1176.3	7.5784e-07	1.6123e-07	1251.2	244.09	1.3454e-06	6.4339e-07	307.41	85.611	67.204	19.416	1.0333e-06	27.533	3.263e-05	3.6431e-05	9.9842e-06	927.72	3.5144e-07	4.0555e-07	1004.8	188.86	3.5262e-07	4.0701e-07	221.05	61.615	45.974	14.054	3.854e-07	18.946	71.471	29.260	242.509	-60.165	145.887	243.683	-59.977	-52.804	105.335	49.919	-53.343	-46.970	-46.079	-39.617	81.942	-40.074	-8191	255	
2126.964	1	1	0	0	0.091752	0.22087	0.20358	0.37749	0.17457	0.21996	0.029929	0.18286	0.15982	0.18018	0.13792	0.18352	0.39388	0.17326	0.11193	0.28165	-3.9896	-3.8854	-3.8667	-4.4917	-3.8333	-3.9625	-4.1	-3.7354	-4.1375	-4.0854	-3.8563	-4.2979	-3.7667	-4.0938	-4.2646	-3.8208	147.235	-16.422	173.971	288.245	16.523	83.855	203.061	147.596	-22.742	269.556	183.941	192.172	85.831	-20.176	45.367	254.515	0.00023161	0.00011198	2.8402e-05	1176.4	7.8507e-07	5.8843e-07	1247.6	244.98	1.1307e-06	9.1507e-07	305.84	86.111	67.241	19.572	5.7011e-07	27.478	3.3637e-05	3.7731e-05	9.4461e-06	925.33	3.7159e-07	4.111e-07	1001.8	189.18	3.7741e-07	4.1049e-07	220.19	61.718	46.173	14.044	3.6921e-07	18.897	59.257	8.201	11.869	-60.095	139.406	110.408	-59.842	-53.143	256.964	8.244	-53.379	-46.621	-46.369	-39.365	11.963	-39.925	-8191	255	
2127.058	1	1	0	0	0.18033	0.14991	0.34215	0.13324	0.18691	0.093514	0.1582	0.12403	0.079274	0.20595	0.11792	0.10171	0.10075	0.17901	0.1894	0.13208	-3.95	-4.1312	-3.7625	-4.5167	-3.8563	-4.0125	-4.3271	-3.8458	-4.0792	-4.0771	-3.7979	-4.4333	-4.025	-4.05	-4.3729	-3.8563	266.269	32.560	95.391	180.636	227.220	73.750	271.711	213.680	109.775	176.668	82.857	263.385	87.705	263.023	75.570	239.054	0.00028091	7.9997e-05	3.6329e-05	1174.4	1.9432e-06	1.3499e-06	1247.2	245.54	1.1251e-06	1.179e-06	307.99	85.989	66.877	19.599	7.2778e-07	27.494	3.6531e-05	3.7617e-05	9.4736e-06	926.1	4.0586e-07	4.0859e-07	1001.3	189.18	4.0736e-07	4.0131e-07	220.68	61.724	46.24	14.053	3.6029e-07	18.96	78.994	6.517	-11.545	-60.074	160.778	29.410	-60.096	-52.735	124.601	21.962	-53.189	-46.894	-46.563	-39.402	90.239	-39.835	-8191	255	
2127.154	1	1	0	0	0.079886	0.074582	0.056169	0.22228	0.056699	0.023418	0.24025	0.16691	0.10548	0.068397	0.088193	0.0461	0.26078	0.020077	0.13559	0.35019	-3.7854	-4.2479	-3.7104	-4.2771	-3.8896	-4.1438	-4.4062	-3.8854	-3.9167	-4.1271	-3.8187	-4.2438	-4.1333	-4.0062	-4.15	-3.9125	200.743	100.539	112.564	277.752	206.971	221.764	197.501	275.476	161.468	269.005	-44.161	89.767	228.460	-26.275	124.289	48.430	4.5776e-05	0.00013854	2.9773e-05	1180.4	2.1484e-06	8.7837e-07	1251.5	245.48	6.5235e-07	1.0206e-06	307	85.644	67.162	19.635	4.9916e-07	27.374	3.7978e-05	3.564e-05	9.1587e-06	926.95	4.1545e-07	3.8401e-07	1002	189.44	4.1844e-07	3.8147e-07	220.36	61.793	46.425	13.984	3.5042e-07	18.99	83.401	-19.529	253.565	-60.047	168.548	11.657	-60.103	-52.844	59.376	31.959	-53.253	-46.553	-46.214	-39.636	230.182	-39.558	-8191	255	
2127.251	1	1	0	0	0.048517	0.096989	0.23381	0.15416	0.093581	0.15873	0.10398	0.17852	0.1283	0.20767	0.021429	0.17009	0.17897	0.12394	0.18471	0.072116	-3.8292	-4.1417	-3.6354	-4.3812	-4.0542	-3.9167	-4.4875	-3.9229	-4.125	-4.1375	-3.8063	-4.3458	-4.1479	-3.8729	-4.3125	-4.0167	199.579	-44.534	170.202	204.379	-60.512	10.923	171.600	276.414	-32.118	105.327	250.854	-37.355	230.499	-40.073	-68.115	223.922	0.00014106	0.00020378	3.5032e-05	1176.9	2.064e-06	4.5817e-07	1250.6	245.53	1.3002e-06	2.4635e-06	306.84	86.199	67.069	19.605	7.6547e-07	27.6	3.8269e-05	3.3761e-05	8.9348e-06	927.71	4.054e-07	3.7111e-07	1000.9	189.81	4.0821e-07	3.6633e-07	219.96	62.099	46.241	13.982	3.4664e-07	19.113	44.579	33.028	-36.963	-60.024	12.650	39.901	-59.941	-52.684	131.330	-10.463	-53.297	-46.567	-46.627	-39.376	23.011	-39.829	-8191	255	
2127.371	1	1	0	0	0.2516	0.009591	0.24308	0.15561	0.14298	0.10573	0.063512	0.31779	0.11982	0.11934	0.15049	0.20042	0.04264	0.23896	0.041844	0.11773	-3.6979	-4.2875	-3.7812	-4.2271	-4.2063	-3.8063	-4.4083	-3.9625	-3.9854	-4.3271	-3.8625	-4.2438	-4.1813	-3.8042	-4.1833	-4.1917	-54.562	33.398	258.307	274.960	46.989	-36.906	262.916	-29.019	64.908	176.911	228.311	257.179	81.429	227.754	174.377	131.875	0.00018107	8.2807e-05	1.5418e-06	1175.9	2.0104e-07	5.2436e-07	1250.1	245.59	7.9739e-07	1.457e-06	307.62	86.186	67.34	19.546	9.443e-07	27.631	3.6724e-05	3.3221e-05	8.8092e-06	929.08	3.9851e-07	3.6152e-07	1001.9	190.09	3.899e-07	3.6091e-07	220.56	62.207	46.19	13.924	3.577e-07	19.173	91.961	258.903	248.169	-60.077	101.919	124.690	-59.871	-53.186	38.885	48.138	-53.241	-46.881	-46.510	-39.363	54.999	-40.042	-8191	255	
2127.467	1	1	0	0	0.15586	0.068607	0.18302	0.22619	0.066741	0.22044	0.13227	0.10671	0.12051	0.13221	0.011189	0.15454	0.2852	0.18525	0.18235	0.31353	-3.4479	-4.3187	-3.6437	-4.1292	-4.1625	-3.8979	-4.5104	-4.1937	-3.8458	-4.2812	-3.9083	-4.1	-4.1292	-3.8563	-4.225	-4.2271	132.963	223.737	267.407	267.586	-15.042	61.251	173.881	183.252	-32.456	42.657	228.699	194.988	213.143	263.695	-68.920	288.398	9.0484e-05	0.0001014	2.1489e-05	1176.4	9.8342e-07	6.0976e-07	1250.2	245.92	4.7785e-07	1.4202e-06	307.06	85.837	67.227	19.534	8.4071e-07	27.528	3.5256e-05	3.1763e-05	9.1624e-06	929.77	3.7454e-07	3.5098e-07	1003.5	190.34	3.735e-07	3.4643e-07	221.02	62.174	46.209	13.881	3.7775e-07	19.133	134.057	28.368	83.726	-59.894	19.851	-8.344	-60.052	-52.857	14.354	123.268	-53.411	-46.536	-46.533	-39.238	206.493	-39.414	-8191	255	
2127.539	1	1	0	0	0.086869	0.11479	0.020203	0.060452	0.22331	0.055263	0.11355	0.23399	0.16422	0.16276	0.13165	0.30163	0.049147	0.29064	0.15962	0.27705	-3.5958	-4.3771	-3.8563	-4.0062	-4.3479	-3.8396	-4.2375	-4.1583	-3.8458	-4.4146	-3.9667	-4.0458	-4.1708	-3.8333	-4.2312	-4.1854	-48.859	2.023	118.238	71.213	281.289	222.243	88.182	8.779	90.311	-5.407	155.752	103.659	-11.213	115.800	192.632	95.607	0.00017568	0.00012263	2.2054e-05	1179.9	4.6325e-07	6.2116e-07	1251.8	244.48	1.8063e-06	1.2827e-06	307.89	86.096	67.192	19.508	8.473e-07	27.544	3.403e-05	3.1212e-05	9.8589e-06	929.94	3.6718e-07	3.4562e-07	1004.3	189.85	3.673e-07	3.4186e-07	221.42	62.025	45.984	13.885	4.0733e-07	19.032	134.870	73.065	79.378	-60.014	187.409	73.516	-59.982	-52.738	172.767	-31.147	-52.983	-46.855	-46.238	-39.524	124.955	-39.947	-8191	255	
#DATA ENDS
