BOXY.EXE: ISS Imagent and Oximeter Data Acquisition Program Version 0.80
Ascii Record File

#ACQ INFORMATION
2  Detector Channels 
16  External MUX Channels 
1  Auxiliary Channels 
5000  Waveform (CCF) Frequency (Hz)
1  Waveforms Skipped 
30  Waveforms Averaged 
1  Cycles Averaged 
16  Acquisitions per Waveform 
10.0806  Updata Rate (Hz) 

#FILE INFORMATION
TRUE -- External MUX Channel results are PARSED.
FALSE -- AC DC and Phase are NOT grouped.
TRUE -- Companion Program Settings File CREATED.
FALSE -- AC data not excluded
FALSE -- DC data not excluded
FALSE -- Phase data not excluded
FALSE -- Auxillary Chn. data not excluded
Tab delimiters

#CALIBRATION STATE
TRUE -- Waveform Calibration Values APPLIED.


#AUX CALIBRATION VALUES
Val Type	aux-1	

Term	1.0000e+00	
Factor	0.0000e+00	


#WF CALIBRATION VALUES
A = Detector Channel
Val Type	A-AC1	A-AC2	A-AC3	A-AC4	A-AC5	A-AC6	A-AC7	A-AC8	A-AC9	A-AC10	A-AC11	A-AC12	A-AC13	A-AC14	A-AC15	A-AC16	A-DC1	A-DC2	A-DC3	A-DC4	A-DC5	A-DC6	A-DC7	A-DC8	A-DC9	A-DC10	A-DC11	A-DC12	A-DC13	A-DC14	A-DC15	A-DC16	A-Ph1	A-Ph2	A-Ph3	A-Ph4	A-Ph5	A-Ph6	A-Ph7	A-Ph8	A-Ph9	A-Ph10	A-Ph11	A-Ph12	A-Ph13	A-Ph14	A-Ph15	A-Ph16	

Term	0.00000e+00	0.00000e+00	0.00000e+00	0.00000e+00	0.00000e+00	0.00000e+00	0.00000e+00	0.00000e+00	0.00000e+00	0.00000e+00	0.00000e+00	0.00000e+00	0.00000e+00	0.00000e+00	0.00000e+00	0.00000e+00	0.00000e+00	0.00000e+00	0.00000e+00	0.00000e+00	0.00000e+00	0.00000e+00	0.00000e+00	0.00000e+00	0.00000e+00	0.00000e+00	0.00000e+00	0.00000e+00	0.00000e+00	0.00000e+00	0.00000e+00	0.00000e+00	0.00000e+00	0.00000e+00	0.00000e+00	0.00000e+00	0.00000e+00	0.00000e+00	0.00000e+00	0.00000e+00	0.00000e+00	0.00000e+00	0.00000e+00	0.00000e+00	0.00000e+00	0.00000e+00	0.00000e+00	0.00000e+00	
Factor	1.00000e+00	1.00000e+00	1.00000e+00	1.00000e+00	1.00000e+00	1.00000e+00	1.00000e+00	1.00000e+00	1.00000e+00	1.00000e+00	1.00000e+00	1.00000e+00	1.00000e+00	1.00000e+00	1.00000e+00	1.00000e+00	1.00000e+00	1.00000e+00	1.00000e+00	1.00000e+00	1.00000e+00	1.00000e+00	1.00000e+00	1.00000e+00	1.00000e+00	1.00000e+00	1.00000e+00	1.00000e+00	1.00000e+00	1.00000e+00	1.00000e+00	1.00000e+00	X	X	X	X	X	X	X	X	X	X	X	X	X	X	X	X	

B = Detector Channel
Val Type	B-AC1	B-AC2	B-AC3	B-AC4	B-AC5	B-AC6	B-AC7	B-AC8	B-AC9	B-AC10	B-AC11	B-AC12	B-AC13	B-AC14	B-AC15	B-AC16	B-DC1	B-DC2	B-DC3	B-DC4	B-DC5	B-DC6	B-DC7	B-DC8	B-DC9	B-DC10	B-DC11	B-DC12	B-DC13	B-DC14	B-DC15	B-DC16	B-Ph1	B-Ph2	B-Ph3	B-Ph4	B-Ph5	B-Ph6	B-Ph7	B-Ph8	B-Ph9	B-Ph10	B-Ph11	B-Ph12	B-Ph13	B-Ph14	B-Ph15	B-Ph16	

Term	0.00000e+00	0.00000e+00	0.00000e+00	0.00000e+00	0.00000e+00	0.00000e+00	0.00000e+00	0.00000e+00	0.00000e+00	0.00000e+00	0.00000e+00	0.00000e+00	0.00000e+00	0.00000e+00	0.00000e+00	0.00000e+00	0.00000e+00	0.00000e+00	0.00000e+00	0.00000e+00	0.00000e+00	0.00000e+00	0.00000e+00	0.00000e+00	0.00000e+00	0.00000e+00	0.00000e+00	0.00000e+00	0.00000e+00	0.00000e+00	0.00000e+00	0.00000e+00	6.18343e+01	-1.31059e+02	-1.28480e+02	-1.84124e+02	-6.87911e+01	-6.82456e+01	-1.56911e+02	-1.62015e+02	-7.40016e+01	-6.54156e+01	-1.77697e+02	-1.71319e+02	-1.80631e+02	-1.77165e+02	-6.37371e+01	-1.49825e+02	
Factor	5.72416e-05	1.94192e-04	5.38199e-05	1.68864e-01	2.83546e-06	2.03816e-06	1.62166e-01	5.20289e-02	3.35572e-06	1.96407e-06	9.52225e-01	2.70685e-02	2.82943e-02	8.99284e-03	2.49629e-06	1.25482e-02	1.20680e-05	1.63461e-05	4.57917e-06	8.64489e-02	1.66670e-07	1.82106e-07	7.82106e-02	2.66752e-02	1.65207e-07	1.81697e-07	4.60311e-01	1.35287e-02	1.46057e-02	4.65260e-03	1.72611e-07	6.31523e-03	X	X	X	X	X	X	X	X	X	X	X	X	X	X	X	X	



#DISTANCE SETTINGS
A = Detector Channel
A-1	A-2	A-3	A-4	A-5	A-6	A-7	A-8	A-9	A-10	A-11	A-12	A-13	A-14	A-15	A-16	

2.5000e+00	3.0000e+00	2.5000e+00	3.0000e+00	2.0000e+00	3.0000e+00	1.5000e+00	3.0000e+00	3.0000e+00	3.0000e+00	3.0000e+00	3.0000e+00	3.0000e+00	3.0000e+00	1.5000e+00	3.0000e+00	

B = Detector Channel
B-1	B-2	B-3	B-4	B-5	B-6	B-7	B-8	B-9	B-10	B-11	B-12	B-13	B-14	B-15	B-16	

1.0000e+01	1.0000e+01	1.0000e+01	1.4400e+00	1.0000e+01	1.0000e+01	1.5100e+00	1.9400e+00	1.0000e+01	1.0000e+01	1.9900e+00	2.4900e+00	2.4100e+00	2.9000e+00	1.0000e+01	2.9800e+00	




#DATA BEGINS
time	group	step	mark	flag	A-AC1	A-AC2	A-AC3	A-AC4	A-AC5	A-AC6	A-AC7	A-AC8	A-AC9	A-AC10	A-AC11	A-AC12	A-AC13	A-AC14	A-AC15	A-AC16	A-DC1	A-DC2	A-DC3	A-DC4	A-DC5	A-DC6	A-DC7	A-DC8	A-DC9	A-DC10	A-DC11	A-DC12	A-DC13	A-DC14	A-DC15	A-DC16	A-Ph1	A-Ph2	A-Ph3	A-Ph4	A-Ph5	A-Ph6	A-Ph7	A-Ph8	A-Ph9	A-Ph10	A-Ph11	A-Ph12	A-Ph13	A-Ph14	A-Ph15	A-Ph16	B-AC1	B-AC2	B-AC3	B-AC4	B-AC5	B-AC6	B-AC7	B-AC8	B-AC9	B-AC10	B-AC11	B-AC12	B-AC13	B-AC14	B-AC15	B-AC16	B-DC1	B-DC2	B-DC3	B-DC4	B-DC5	B-DC6	B-DC7	B-DC8	B-DC9	B-DC10	B-DC11	B-DC12	B-DC13	B-DC14	B-DC15	B-DC16	B-Ph1	B-Ph2	B-Ph3	B-Ph4	B-Ph5	B-Ph6	B-Ph7	B-Ph8	B-Ph9	B-Ph10	B-Ph11	B-Ph12	B-Ph13	B-Ph14	B-Ph15	B-Ph16	aux-1	digaux	

8489.910	1	1	0	256	0.30528	0.10895	0.23688	0.091736	0.21824	0.076253	0.3019	0.31928	0.11937	0.1727	0.31109	0.29631	0.35226	0.31568	0.055691	0.26822	-1.9729	-2.4396	-2.2958	-2.6729	-2.5271	-2.2333	-2.8021	-2.4062	-2.6146	-2.5938	-2.3667	-2.5375	-2.4646	-2.3896	-2.5625	-2.5479	446.607	315.706	437.328	156.568	369.023	459.822	386.211	460.340	326.813	484.569	280.270	465.721	432.101	446.633	428.768	418.352	0.0039729	0.000601	0.00021823	953.88	1.1248e-05	8.3191e-06	1214.4	288.5	1.7414e-05	8.1635e-06	479.11	221.62	113.01	51.103	1.0234e-05	123.43	0.00075794	0.00022915	6.614e-05	895.59	2.6452e-06	2.5002e-06	1140.1	269.9	2.6994e-06	2.3957e-06	439.29	209.59	104.69	48.198	2.5942e-06	117.19	379.107	233.386	215.792	151.268	279.795	298.854	151.035	155.406	276.923	282.698	154.342	159.339	158.643	162.676	285.061	161.663	-8191	255	
8490.006	1	1	0	0	0.077571	0.15972	0.11787	0.33949	0.20475	0.19834	0.28163	0.090898	0.18926	0.21671	0.048534	0.30673	0.15234	0.289	0.15396	0.27647	-1.8896	-2.6146	-2.2021	-2.5854	-2.4167	-2.2667	-2.7396	-2.5292	-2.3167	-2.6021	-2.2104	-2.6188	-2.7646	-2.5875	-2.625	-2.6604	483.514	439.366	306.828	394.719	247.967	225.521	342.169	163.277	268.425	176.401	238.107	421.856	190.570	447.373	492.018	424.483	0.0038991	0.00077975	0.0002232	952.03	1.1751e-05	6.4936e-06	1221.2	289.44	1.9692e-05	6.817e-06	481.1	223.15	112.64	51.639	1.3465e-05	124.85	0.00074947	0.00021836	6.5005e-05	891.43	2.4712e-06	2.3006e-06	1141.2	270.44	2.8392e-06	2.2485e-06	443.49	211.05	104.76	48.637	2.8355e-06	118.46	378.510	210.209	229.260	151.415	279.867	280.272	151.102	155.473	274.038	298.122	155.121	159.272	159.195	162.580	286.948	161.730	-8191	255	
8490.127	1	1	0	0	0.16771	0.023768	0.23164	0.29352	0.27107	0.12318	0.4053	0.2432	0.10073	0.20871	0.051535	0.32607	0.16744	0.20152	0.077493	0.50875	-1.8729	-2.5104	-2.2542	-2.5708	-2.4729	-2.425	-2.6479	-2.5021	-2.175	-2.6479	-2.2938	-2.6521	-2.5375	-2.4792	-2.6312	-2.8729	477.666	214.718	433.200	438.786	200.032	370.066	480.580	372.220	338.008	476.982	454.278	492.645	451.490	460.362	152.562	457.602	0.003934	0.00086137	0.00025736	944.68	9.6987e-06	7.4029e-06	1220	286.68	1.8205e-05	8.2099e-06	494.41	224.51	113.32	51.645	1.0036e-05	126.45	0.00075525	0.00022265	6.49e-05	882.58	2.4428e-06	2.4425e-06	1136.7	268.69	2.6767e-06	2.4582e-06	448.92	211.9	104.45	48.681	2.6395e-06	120.2	378.376	222.298	236.129	151.577	277.985	289.715	151.205	155.607	272.108	282.550	154.316	159.042	158.944	162.667	288.443	161.572	-8191	255	
8490.221	1	1	0	0	0.14443	0.10894	0.17017	0.27622	0.21857	0.078673	0.10806	0.16267	0.093305	0.22542	0.22162	0.234	0.066748	0.52546	0.2519	0.26624	-1.8458	-2.525	-2.3708	-2.4062	-2.5438	-2.2938	-2.5646	-2.5812	-2.0396	-2.5708	-2.325	-2.5354	-2.625	-2.5021	-2.4813	-2.8	322.130	309.003	323.410	335.332	232.288	222.127	487.837	457.999	392.962	406.956	156.204	430.739	474.245	348.855	137.330	435.789	0.004054	0.0008492	0.00021701	938.72	1.3107e-05	7.6808e-06	1216.4	285.54	1.6852e-05	6.6724e-06	481.1	225.61	110.43	51.257	1.0756e-05	125.56	0.00075993	0.00022231	6.4605e-05	878.92	2.3108e-06	2.4911e-06	1138.7	266.99	2.4626e-06	2.3715e-06	446.24	213.07	103.04	48.322	2.6499e-06	119.22	378.748	235.052	227.386	151.412	282.905	279.490	150.988	155.292	265.448	274.507	154.787	159.260	159.072	162.778	276.919	161.530	-8191	255	
8490.295	1	1	0	0	0.18459	0.073915	0.24282	0.30552	0.043	0.24222	0.14179	0.12174	0.10039	0.30192	0.048675	0.32689	0.12277	0.20041	0.18384	0.27859	-1.8396	-2.4938	-2.3229	-2.3875	-2.7792	-2.3167	-2.5792	-2.5833	-2.3333	-2.4708	-2.5312	-2.4771	-2.6417	-2.5271	-2.45	-2.8688	290.798	191.278	232.711	179.935	257.583	414.604	376.382	494.728	157.855	494.706	168.129	146.845	483.677	490.528	467.349	484.626	0.0039017	0.00085808	0.00023605	915.23	1.3413e-05	7.0707e-06	1176.5	274.94	1.8313e-05	6.7596e-06	469.08	218.47	106.05	49.293	9.1092e-06	122.16	0.00074346	0.00023855	6.6865e-05	855.16	2.4428e-06	2.5062e-06	1101.5	256.44	2.7576e-06	2.4332e-06	436.03	206.34	98.804	46.54	2.5316e-06	116.04	378.695	204.142	218.084	151.479	277.259	291.629	150.944	155.462	272.101	280.749	157.088	159.178	159.511	162.621	273.222	161.623	-8191	255	
8490.415	1	1	0	0	0.069363	0.10477	0.17939	0.17347	0.13666	0.067556	0.27588	0.13655	0.11014	0.12426	0.14806	0.12915	0.13736	0.10768	0.13599	0.25682	-1.975	-2.4104	-2.4729	-2.3083	-2.4604	-2.4688	-2.5354	-2.5812	-2.2729	-2.4979	-2.4542	-2.4333	-2.6396	-2.4625	-2.4562	-2.7271	307.794	260.277	146.823	172.733	496.616	271.454	445.301	493.644	201.179	415.513	158.444	457.207	385.937	478.136	398.905	407.028	0.0039162	0.00088417	0.00020259	905.91	1.1547e-05	9.7871e-06	1174.1	275.01	1.7812e-05	5.4255e-06	483	220.04	107.81	49.85	1.0498e-05	123.91	0.00074962	0.00024567	6.2019e-05	848.36	2.5886e-06	2.6477e-06	1095.5	256.53	2.6922e-06	2.4071e-06	443.43	207.16	99.959	47.151	2.7553e-06	117.83	379.178	233.356	217.661	151.293	272.799	276.332	151.226	155.498	277.922	266.975	156.122	159.396	159.219	162.561	288.957	161.487	-8191	255	
8490.510	1	1	0	0	0.0077217	0.12749	0.09525	0.22163	0.035381	0.019322	0.22775	0.12819	0.19571	0.088166	0.098546	0.26366	0.19393	0.31367	0.10532	0.44213	-1.6896	-2.3688	-2.4562	-2.2917	-2.6958	-2.3479	-2.5542	-2.7792	-2.3563	-2.3604	-2.4229	-2.4083	-2.6	-2.5021	-2.2542	-2.7229	277.541	321.403	309.677	376.786	433.609	299.508	420.410	388.960	208.918	306.292	400.026	413.993	454.768	158.676	476.662	439.227	0.0039869	0.0008797	0.00016261	930.97	1.3645e-05	7.3068e-06	1206.2	283.62	1.8765e-05	7.3562e-06	485.94	226.3	111.45	51.38	1.3533e-05	126.18	0.00076285	0.00022285	6.1733e-05	872.7	2.5959e-06	2.3704e-06	1128.8	266.52	2.7844e-06	2.3817e-06	449.15	212.76	103.53	48.498	2.6791e-06	119.91	379.953	220.284	222.829	151.131	279.065	289.342	150.868	155.224	273.389	294.980	155.096	159.273	159.106	162.673	285.999	161.612	-8191	255	
8490.606	1	1	0	0	0.092269	0.15141	0.21672	0.19511	0.31552	0.20709	0.12065	0.049107	0.081929	0.22867	0.15012	0.29148	0.1015	0.27943	0.087924	0.35509	-1.9021	-2.4875	-2.5146	-2.3563	-2.4417	-2.3688	-2.2542	-2.6396	-2.3063	-2.275	-2.4854	-2.4146	-2.4667	-2.7583	-2.3375	-2.7625	268.880	397.400	444.250	391.028	431.200	228.639	385.567	423.085	168.116	481.049	445.444	492.041	340.111	413.915	420.819	429.524	0.0040359	0.0009637	0.00024054	948.82	1.508e-05	8.1029e-06	1216.4	286.53	1.6041e-05	8.9667e-06	486.12	222.58	109.59	50.685	9.4058e-06	123.82	0.00077999	0.00022776	6.1017e-05	889.38	2.6775e-06	2.4717e-06	1137.9	267.54	2.8054e-06	2.3458e-06	445.8	210.18	102.08	47.762	2.641e-06	117.83	378.280	230.243	225.877	151.304	278.337	296.992	150.969	155.483	274.299	282.105	155.414	159.232	158.852	162.882	289.929	161.751	-8191	255	
8490.727	1	1	0	0	0.31215	0.10042	0.17402	0.15367	0.076611	0.11098	0.41413	0.24662	0.21475	0.15189	0.25381	0.30039	0.075741	0.070629	0.37331	0.22286	-2.0146	-2.2188	-2.5062	-2.1979	-2.4771	-2.3708	-2.5042	-2.6208	-2.4521	-2.4146	-2.4938	-2.3479	-2.4562	-2.6458	-2.1979	-2.7167	434.467	386.902	424.530	435.278	276.133	283.724	484.048	433.377	279.137	217.349	265.904	460.336	445.588	230.108	240.180	448.011	0.0039257	0.00087681	0.00019009	943.48	1.1669e-05	7.9777e-06	1201.5	283.45	1.3629e-05	8.6877e-06	484.54	219.48	109.3	49.82	1.0246e-05	122.74	0.00077051	0.00022527	5.662e-05	881.25	2.5042e-06	2.4675e-06	1123	265.06	2.7091e-06	2.3401e-06	442.13	207.21	101.12	47.079	2.7143e-06	116.4	378.163	231.267	228.336	151.076	295.554	284.507	151.146	155.501	279.438	298.826	154.654	159.160	159.236	162.511	274.609	161.932	-8191	255	
8490.823	1	1	0	0	0.1689	0.086839	0.14609	0.15601	0.12579	0.082785	0.18508	0.2312	0.25088	0.17636	0.11358	0.34924	0.056204	0.078903	0.18227	0.21376	-2.0417	-2.2854	-2.7021	-2.3438	-2.5	-2.6167	-2.4188	-2.5021	-2.4562	-2.4062	-2.5208	-2.6604	-2.4896	-2.5854	-2.2875	-2.5833	210.985	178.821	373.406	198.525	290.197	177.592	368.497	443.545	341.445	306.183	272.709	451.847	144.627	144.583	280.004	157.047	0.0039303	0.0009052	0.00024601	935.11	1.0085e-05	8.3475e-06	1196.5	283.46	1.2002e-05	6.8622e-06	478.56	220.28	109.92	50.495	1.0249e-05	123.79	0.00075297	0.00023344	6.2096e-05	875.13	2.391e-06	2.3215e-06	1122.9	265.02	2.3883e-06	2.3178e-06	442.04	208.56	101.99	47.619	2.6187e-06	117.61	378.809	223.596	239.657	151.435	279.390	278.448	150.999	155.590	253.968	289.280	155.392	158.941	159.230	162.651	287.714	161.590	-8191	255	
8490.894	1	1	0	0	0.16765	0.07612	0.1226	0.14112	0.10983	0.11036	0.20967	0.17806	0.10568	0.068061	0.30192	0.15739	0.10722	0.30191	0.11959	0.37914	-2.0208	-2.2854	-2.4542	-2.6063	-2.4021	-2.5604	-2.4354	-2.6229	-2.4688	-2.1458	-2.4813	-2.6604	-2.3646	-2.7104	-2.3812	-2.7333	340.925	366.757	338.521	371.975	146.205	488.700	431.272	410.441	278.837	308.804	366.935	467.673	420.986	453.345	302.029	433.049	0.003876	0.0007895	0.00022187	948.85	1.1424e-05	6.8464e-06	1208.8	285.08	1.4074e-05	7.9837e-06	488.82	221.9	109.89	50.507	1.1261e-05	123.9	0.00073034	0.00021546	6.0426e-05	884.84	2.6171e-06	2.2839e-06	1132.7	267.02	2.6805e-06	2.3711e-06	446.53	209.6	102.37	47.542	2.8488e-06	117.82	378.873	218.922	239.434	151.191	280.658	293.165	150.892	155.419	274.976	270.598	155.403	159.541	159.179	162.782	288.381	161.747	-8191	255	
8491.015	1	1	0	0	0.1722	0.2741	0.13675	0.22078	0.26364	0.27467	0.067255	0.24471	0.2302	0.088908	0.17904	0.25834	0.16591	0.12344	0.21392	0.23408	-2.2521	-2.3271	-2.5146	-2.5833	-2.2667	-2.5979	-2.5729	-2.4542	-2.4021	-2.4417	-2.5604	-2.5792	-2.4667	-2.7521	-2.3854	-2.6583	414.430	385.016	217.889	489.109	280.527	283.407	147.042	233.596	288.540	445.100	467.612	368.749	431.177	336.876	494.896	468.041	0.0039287	0.00072656	0.00020628	939.92	9.108e-06	7.0634e-06	1210	284.38	1.3443e-05	9.0002e-06	479.76	219.66	109.13	49.745	1.2355e-05	121.61	0.00074595	0.00021928	6.6675e-05	880.65	2.3698e-06	2.3886e-06	1133.7	265.95	2.4998e-06	2.398e-06	441.33	207.42	101	46.789	2.8161e-06	115.35	378.520	231.750	220.621	151.096	279.718	292.507	151.141	155.269	270.676	278.457	156.048	159.233	159.135	162.814	296.248	161.716	-8191	255	
8491.111	1	1	0	0	0.026676	0.11765	0.26547	0.21339	0.26876	0.19731	0.34338	0.30351	0.16589	0.037141	0.074307	0.14692	0.092197	0.12728	0.12328	0.13024	-2.1604	-2.2833	-2.5812	-2.5104	-2.3646	-2.5083	-2.4625	-2.4958	-2.6042	-2.3271	-2.6479	-2.5375	-2.4521	-2.7125	-2.4375	-2.5646	370.584	338.582	324.322	413.646	466.292	265.387	444.370	443.354	403.714	356.529	375.462	168.841	470.109	236.911	150.692	406.547	0.0041325	0.00073246	0.00019676	931.45	1.3989e-05	5.8829e-06	1193.1	278.68	1.2497e-05	6.2607e-06	477.65	215.04	106.2	48.423	1.3092e-05	119.51	0.00076254	0.00024744	6.2916e-05	870.07	2.6205e-06	2.3507e-06	1114.7	260.57	2.4647e-06	2.61e-06	433.88	203	99.014	45.724	2.8484e-06	113.3	377.405	226.480	234.410	151.380	279.651	276.587	150.974	155.533	281.644	292.253	155.624	159.231	159.255	162.419	282.310	161.668	-8191	255	
8491.207	1	1	0	0	0.1718	0.060895	0.14409	0.084928	0.067781	0.13304	0.22018	0.072626	0.044986	0.034583	0.20511	0.24826	0.18839	0.17117	0.09129	0.34791	-2.0729	-2.3271	-2.4458	-2.3958	-2.2917	-2.6896	-2.6542	-2.4167	-2.5979	-2.3875	-2.3896	-2.5458	-2.3375	-2.6229	-2.5583	-2.5667	439.351	369.380	315.861	495.935	209.166	241.097	394.662	430.485	482.948	154.126	315.963	391.351	222.841	410.181	217.401	402.657	0.0037899	0.00076597	0.00021671	925.24	1.3023e-05	6.8186e-06	1186.5	277.37	1.5755e-05	6.5569e-06	473.05	217.62	107.52	49.084	1.188e-05	122.34	0.0007285	0.00025939	6.1809e-05	864.34	2.5893e-06	2.598e-06	1109.9	260.34	2.5759e-06	2.4983e-06	434.83	205.59	100.12	46.526	2.6363e-06	115.92	378.417	227.260	216.867	151.435	272.368	294.252	151.178	155.359	270.581	293.382	154.852	159.224	159.079	162.772	286.688	161.685	-8191	255	
8491.302	1	1	0	0	0.29296	0.12301	0.21079	0.15074	0.16343	0.28874	0.22362	0.05197	0.23264	0.15614	0.45985	0.16289	0.029166	0.23815	0.099965	0.43459	-2.0354	-2.2625	-2.4333	-2.725	-2.4021	-2.5875	-2.6271	-2.3604	-2.6396	-2.4958	-2.3688	-2.7167	-2.2979	-2.5083	-2.2833	-2.4646	167.999	431.703	147.197	160.614	328.768	210.746	466.848	439.062	142.381	469.189	381.211	141.199	296.028	397.814	158.609	449.205	0.0038156	0.00099652	0.00024909	933.76	1.2574e-05	6.764e-06	1204.4	281.3	1.9164e-05	9.538e-06	476.47	221.6	108.77	49.932	1.0551e-05	124.32	0.00072589	0.00024349	6.3488e-05	875.16	2.5827e-06	2.3002e-06	1128.3	264.06	2.5793e-06	2.5328e-06	439.88	209.26	101.43	47.258	2.5989e-06	117.97	377.201	237.750	228.463	151.345	278.372	281.795	150.763	155.366	280.495	285.319	154.766	159.094	159.108	162.713	269.939	161.473	-8191	255	
8491.422	1	1	0	0	0.28981	0.2942	0.28162	0.14625	0.34618	0.14546	0.21335	0.2156	0.29253	0.26013	0.12783	0.13735	0.084533	0.092242	0.24248	0.19358	-2.0812	-2.3312	-2.4375	-2.6396	-2.4688	-2.7375	-2.7375	-2.3792	-2.5479	-2.3125	-2.3542	-2.5979	-2.2729	-2.7042	-2.6125	-2.4479	202.607	435.774	204.906	469.020	371.941	269.511	479.282	429.569	421.803	215.202	370.522	386.607	488.564	187.993	185.461	410.098	0.0038915	0.00070466	0.00021993	929.8	1.0203e-05	1.0128e-05	1213.3	283.15	1.5616e-05	7.5051e-06	479.52	222.45	109.84	50.217	1.0703e-05	122.37	0.00074369	0.00022149	6.4337e-05	873.8	2.6539e-06	2.4588e-06	1132.7	264.49	2.6815e-06	2.3568e-06	442.54	209.75	102.02	47.374	2.6248e-06	116.55	377.702	229.805	217.364	151.312	278.227	282.702	151.087	155.198	272.078	291.409	155.499	159.346	159.197	162.714	285.558	161.730	-8191	255	
8491.518	1	1	0	0	0.069727	0.088358	0.12038	0.17852	0.17661	0.19359	0.30486	0.20392	0.097361	0.074504	0.17071	0.42788	0.26214	0.28582	0.092763	0.44647	-1.9458	-2.2854	-2.25	-2.7812	-2.2667	-2.6625	-2.65	-2.4375	-2.5854	-2.3563	-2.4646	-2.7854	-2.4208	-2.5542	-2.625	-2.5104	171.044	343.235	255.073	481.821	413.885	356.340	445.271	156.073	363.878	195.154	231.825	441.929	319.249	164.878	245.808	430.843	0.0040483	0.00068048	0.00023953	940.05	9.1265e-06	8.3418e-06	1209.2	283.29	1.7022e-05	7.7516e-06	475.04	221.18	110.19	50.312	1.3255e-05	123.51	0.00076561	0.00021679	5.9901e-05	878.94	2.698e-06	2.4011e-06	1130	264.63	2.5304e-06	2.356e-06	441.18	209.09	102.26	47.547	2.6589e-06	117.37	378.770	219.229	219.797	151.173	300.298	295.807	151.141	155.669	272.171	299.430	155.341	159.074	159.349	162.741	281.397	161.709	-8191	255	
8491.590	1	1	0	0	0.2517	0.14327	0.13204	0.10562	0.1818	0.14163	0.13752	0.050617	0.10782	0.11563	0.23146	0.27265	0.31171	0.15081	0.039933	0.37937	-1.8833	-2.5146	-2.2229	-2.7146	-2.3917	-2.4292	-2.9417	-2.5187	-2.4979	-2.3458	-2.2583	-2.6625	-2.5104	-2.4229	-2.6104	-2.5042	139.985	393.455	301.028	268.811	427.691	174.015	416.566	431.625	428.579	304.253	306.061	488.135	408.328	414.657	347.760	437.816	0.003966	0.00076385	0.00026192	932.22	1.1689e-05	9.2603e-06	1204.3	281.24	1.5237e-05	6.3117e-06	488.26	222.15	108.91	50.537	1.519e-05	124.98	0.00075551	0.0002296	6.3441e-05	871.67	2.4938e-06	2.3746e-06	1125.7	262.72	2.4812e-06	2.392e-06	444.21	209.87	101.69	47.731	2.6841e-06	118.8	378.187	215.950	220.064	151.205	283.476	298.739	150.900	155.560	283.156	281.536	155.680	159.383	159.164	162.983	294.567	161.820	-8191	255	
8491.686	1	1	0	0	0.1218	0.31704	0.1936	0.22685	0.090617	0.16786	0.26051	0.2073	0.12338	0.12657	0.066416	0.3343	0.095757	0.076881	0.15083	0.31626	-2.0583	-2.5854	-2.3583	-2.7604	-2.5479	-2.4917	-2.7604	-2.3354	-2.5458	-2.4125	-2.2333	-2.6437	-2.4896	-2.3396	-2.5521	-2.4229	494.677	328.111	461.660	426.501	426.425	228.664	388.809	155.082	179.371	156.710	182.507	468.327	348.776	465.676	321.108	410.919	0.0040091	0.00079399	0.00025361	932.67	1.3595e-05	7.513e-06	1210.2	283.21	1.5288e-05	6.8765e-06	483.63	226.02	111.07	51.133	8.9805e-06	125.77	0.0007546	0.00022033	5.9825e-05	871.91	2.4716e-06	2.3211e-06	1132.4	265.14	2.4664e-06	2.3537e-06	447.24	212.69	103.05	48.156	2.6413e-06	119.52	378.272	221.061	216.510	151.299	279.843	286.193	151.108	155.592	273.865	282.800	154.523	159.367	159.088	162.957	277.900	161.703	-8191	255	
8491.807	1	1	0	0	0.021888	0.28608	0.43907	0.090115	0.16922	0.25198	0.21413	0.4349	0.17485	0.16238	0.045745	0.22771	0.17525	0.30477	0.17466	0.49111	-1.8563	-2.4146	-2.2083	-2.6042	-2.5542	-2.4292	-2.5854	-2.5521	-2.35	-2.5354	-2.2333	-2.7125	-2.3375	-2.3396	-2.6958	-2.5333	399.483	351.980	190.412	355.096	405.668	446.246	175.691	462.961	168.547	258.392	189.574	355.320	495.549	410.289	328.667	455.888	0.0040384	0.00062531	0.00016576	939.39	1.0377e-05	8.8046e-06	1212.8	283.63	1.7774e-05	9.1334e-06	485.95	221.96	109.56	50.385	1.2744e-05	123.9	0.00075546	0.00021543	6.4433e-05	878.66	2.5455e-06	2.342e-06	1136.6	265.46	2.5848e-06	2.5142e-06	444.65	210.11	102.19	47.544	2.8992e-06	117.6	378.927	221.980	223.687	151.251	273.185	281.960	150.888	155.306	272.856	297.181	155.376	159.060	159.281	162.852	277.463	161.421	-8191	255	
8491.903	1	1	0	0	0.17924	0.043345	0.33222	0.31563	0.19247	0.29795	0.20906	0.25735	0.2814	0.16855	0.033478	0.031462	0.094251	0.21373	0.24147	0.34276	-2.0208	-2.5896	-2.1479	-2.6917	-2.3333	-2.3292	-2.8521	-2.2208	-2.4396	-2.5854	-2.3833	-2.6792	-2.5062	-2.4313	-2.6646	-2.5375	247.725	318.971	349.637	412.178	315.827	206.686	393.501	314.845	315.604	201.937	342.132	370.741	395.172	398.062	339.997	427.317	0.0041168	0.0010764	0.00020839	935.39	1.3548e-05	7.7696e-06	1210	283.11	1.7962e-05	4.6099e-06	475.27	223.03	110.11	50.775	1.1484e-05	124.07	0.00076297	0.00022527	6.3088e-05	876.96	2.6014e-06	2.3366e-06	1131.9	265.72	2.4599e-06	2.1576e-06	441.97	210.25	102.38	47.776	2.6478e-06	117.93	378.244	225.032	222.333	151.575	276.848	275.843	151.170	155.505	271.187	295.108	155.616	159.341	159.204	162.747	283.934	161.569	-8191	255	
8491.999	1	1	0	0	0.22223	0.1504	0.13147	0.14718	0.2928	0.3273	0.34104	0.062925	0.094768	0.22238	0.14109	0.1023	0.18255	0.081886	0.20058	0.27319	-1.8813	-2.7333	-2.3063	-2.6312	-2.5833	-2.2438	-2.9542	-2.5042	-2.4104	-2.7625	-2.5646	-2.75	-2.7	-2.3542	-2.3438	-2.6188	206.831	354.313	159.240	356.902	192.309	405.747	483.710	187.885	205.499	262.416	483.333	462.599	436.530	180.869	179.659	380.238	0.0040063	0.00086246	0.00026577	933.46	1.2308e-05	7.2263e-06	1200.8	282.98	1.4788e-05	7.7829e-06	486.61	223.8	110.3	50.802	9.1159e-06	125.05	0.00076589	0.00023443	6.9766e-05	873.81	2.615e-06	2.4452e-06	1127.3	264.82	2.5631e-06	2.3757e-06	445.1	211.39	102.48	48.005	2.4968e-06	118.68	377.319	229.135	232.542	151.318	273.859	264.163	150.969	155.604	264.676	284.654	156.064	159.285	159.052	162.522	262.685	161.838	-8191	255	
8492.095	1	1	0	0	0.14437	0.23191	0.02951	0.0088687	0.14959	0.2826	0.085342	0.16015	0.1694	0.13983	0.1207	0.19289	0.33156	0.27825	0.23512	0.47007	-1.9625	-2.5708	-2.4875	-2.5479	-2.5958	-2.425	-2.6354	-2.5854	-2.2188	-2.6917	-2.2146	-2.6708	-2.6021	-2.2979	-2.4979	-2.5812	402.314	329.270	153.906	197.830	408.321	322.636	407.837	420.664	180.005	380.552	204.849	457.581	170.931	489.231	247.447	463.851	0.0041355	0.00090169	0.00029968	939.28	9.9906e-06	8.1276e-06	1215	285.13	1.2579e-05	8.6363e-06	488.1	226.03	110.57	51.069	1.2872e-05	125.15	0.00077097	0.00022847	7.1426e-05	878.16	2.3716e-06	2.6485e-06	1135.9	266.52	2.6302e-06	2.515e-06	450.71	212.9	102.92	48.086	2.7006e-06	119.1	378.240	225.146	226.353	151.459	276.592	293.452	151.166	155.478	277.577	298.739	155.621	159.200	159.258	162.819	284.008	161.756	-8191	255	
8492.192	1	1	0	0	0.16119	0.081735	0.16532	0.26281	0.18323	0.11063	0.20919	0.27454	0.1069	0.18774	0.24751	0.22328	0.21196	0.073095	0.15794	0.095791	-1.9792	-2.4854	-2.2042	-2.4604	-2.7313	-2.2812	-2.6312	-2.6312	-2.3042	-2.75	-2.3604	-2.4646	-2.7729	-2.375	-2.4208	-2.6708	277.454	322.928	369.552	497.480	476.169	474.792	400.092	337.576	225.708	202.370	359.572	455.317	422.543	242.856	139.160	402.495	0.0039854	0.00079859	0.00022503	936.38	1.287e-05	8.2754e-06	1212.7	283.77	1.805e-05	5.6018e-06	478.54	222.71	109.41	50.407	9.4435e-06	123.33	0.00075623	0.00021924	6.4662e-05	875.52	2.5466e-06	2.6341e-06	1135.1	265.38	2.7782e-06	2.3571e-06	443.08	210.02	101.84	47.591	2.5665e-06	117.43	378.935	223.555	224.946	151.122	262.271	294.811	151.008	155.740	263.626	291.894	154.388	159.249	159.477	162.527	279.310	161.589	-8191	255	
8492.288	1	1	0	0	0.2944	0.045138	0.21137	0.18856	0.10376	0.17452	0.10165	0.29755	0.053948	0.22576	0.26418	0.49448	0.12138	0.17087	0.12039	0.35243	-1.65	-2.3333	-2.3042	-2.4021	-2.75	-2.3438	-2.5021	-2.6208	-2.4479	-2.4917	-2.5062	-2.3937	-2.7375	-2.4	-2.3917	-2.7	427.063	371.078	178.485	480.011	388.459	270.641	464.187	139.146	200.674	477.830	368.763	476.267	420.005	424.013	155.750	416.021	0.0040999	0.00078598	0.00022585	940.41	1.1394e-05	7.9492e-06	1212.5	284.12	1.8884e-05	8.874e-06	483.49	222.07	111.33	50.513	9.7571e-06	124.86	0.00077766	0.00022653	6.2773e-05	878.1	2.5567e-06	2.4421e-06	1133.9	265.71	2.7221e-06	2.4521e-06	445.01	210.15	102.77	47.758	2.7053e-06	118.28	377.788	225.285	195.806	151.334	266.973	274.630	151.208	155.627	277.787	289.512	154.987	159.116	158.871	162.482	289.970	161.737	-8191	255	
8492.407	1	1	0	0	0.16151	0.24228	0.093641	0.14315	0.22032	0.12478	0.37802	0.20753	0.040032	0.24365	0.22151	0.3953	0.024365	0.16002	0.24996	0.28714	-1.8458	-2.4938	-2.4104	-2.4083	-2.6312	-2.4854	-2.5521	-2.6167	-2.0271	-2.5	-2.4333	-2.3458	-2.55	-2.6146	-2.3479	-2.8937	182.041	292.433	141.258	285.735	330.384	385.145	441.674	442.319	365.750	318.904	488.505	438.075	312.800	439.592	426.147	420.794	0.0038755	0.00086896	0.00023834	947.61	1.2884e-05	7.2734e-06	1215.2	286.22	1.556e-05	7.8611e-06	484.07	223.86	110.3	50.509	1.2675e-05	124.5	0.00074638	0.00023034	6.5091e-05	884.89	2.5004e-06	2.3651e-06	1140.5	267.63	2.7042e-06	2.3484e-06	445.76	211.69	102.86	47.822	2.4389e-06	118.24	378.061	226.329	225.841	151.511	292.169	287.214	151.004	155.435	269.453	283.696	155.221	159.212	159.217	162.833	286.043	161.511	-8191	255	
8492.503	1	1	0	0	0.1859	0.16695	0.11971	0.10444	0.066308	0.11233	0.26246	0.211	0.12556	0.17573	0.21681	0.28932	0.13945	0.25121	0.19453	0.60901	-1.9708	-2.5271	-2.3521	-2.4875	-2.5354	-2.5104	-2.45	-2.5917	-2.3312	-2.6333	-2.4771	-2.4875	-2.7625	-2.5	-2.275	-2.9917	388.690	382.081	359.102	166.882	469.754	221.259	437.828	163.701	321.791	238.561	161.409	459.375	370.960	437.276	242.617	436.330	0.003962	0.00061483	0.00025121	935.83	1.3413e-05	6.9936e-06	1212	283.87	1.6746e-05	6.5676e-06	494.28	221.8	108.69	49.708	1.1991e-05	122.12	0.00077343	0.0002268	6.4108e-05	877.51	2.6021e-06	2.4622e-06	1132.2	265.71	2.8488e-06	2.5033e-06	448.26	209.43	101.06	46.966	2.6129e-06	116.39	378.618	228.946	234.345	151.364	283.518	279.835	151.214	155.308	272.544	281.961	155.462	159.348	159.242	162.735	273.348	161.867	-8191	255	
8492.599	1	1	0	0	0.20548	0.12831	0.074348	0.17449	0.049584	0.10735	0.12613	0.12306	0.18652	0.097593	0.087314	0.37675	0.13734	0.24778	0.12259	0.196	-1.9604	-2.5667	-2.3854	-2.5167	-2.6792	-2.3854	-2.4771	-2.6667	-2.4292	-2.5292	-2.4396	-2.5625	-2.5875	-2.65	-2.3438	-2.6729	221.309	188.338	274.337	456.598	143.662	252.917	330.739	439.393	438.490	491.713	172.267	437.723	282.261	416.565	255.782	417.827	0.0039833	0.00062177	0.00020751	927.02	1.4035e-05	8.6586e-06	1194.8	279.77	1.2789e-05	8.5197e-06	476.84	217.86	106.6	48.683	7.7554e-06	120.25	0.00077011	0.00022428	6.0598e-05	868.17	2.6122e-06	2.5704e-06	1118.7	261.44	2.6464e-06	2.5335e-06	439.55	205.74	98.909	45.948	2.8912e-06	113.99	378.368	224.891	222.081	151.095	271.467	273.703	150.897	155.671	273.501	298.535	155.392	159.117	159.234	162.640	277.112	161.696	-8191	255	
8492.695	1	1	0	0	0.10257	0.12061	0.088415	0.087587	0.46883	0.15826	0.29149	0.28962	0.18948	0.08287	0.15421	0.037932	0.048116	0.26534	0.20825	0.013395	-1.7938	-2.3354	-2.6542	-2.5125	-2.6104	-2.5979	-2.5125	-2.5333	-2.3958	-2.4021	-2.6583	-2.4729	-2.6813	-2.5167	-2.3583	-2.875	359.421	434.055	394.440	239.925	367.410	446.297	454.803	416.990	175.388	159.038	197.579	165.112	322.815	476.325	491.038	382.137	0.0037315	0.00076576	0.00020868	901.98	1.1791e-05	8.2128e-06	1167.6	271.78	1.344e-05	8.587e-06	474.52	214.83	104.52	48.341	1.1709e-05	120.51	0.00073896	0.00022493	6.4853e-05	845.16	2.5382e-06	2.4626e-06	1092.6	254.73	2.825e-06	2.5055e-06	437.36	203.03	97.455	45.573	2.8923e-06	114.3	377.836	226.527	229.539	151.450	287.322	285.124	150.748	155.241	269.284	286.438	156.152	159.280	159.119	162.655	286.026	161.673	-8191	255	
8492.816	1	1	0	0	0.090788	0.024118	0.21183	0.21652	0.19116	0.19472	0.2856	0.40195	0.21206	0.34326	0.1103	0.43213	0.20019	0.1677	0.29464	0.21195	-1.9833	-2.3417	-2.6292	-2.4792	-2.5208	-2.5896	-2.5542	-2.5417	-2.4979	-2.4771	-2.6417	-2.6021	-2.5875	-2.8	-2.2812	-2.8604	273.442	386.770	479.359	414.547	157.584	464.349	420.977	441.980	459.655	373.015	250.389	398.582	407.894	440.117	452.530	417.507	0.0038676	0.00073539	0.00021687	906.99	9.3783e-06	6.9875e-06	1174.7	275.29	1.8045e-05	7.2173e-06	480.06	220.46	107.56	49.811	9.2696e-06	123.35	0.00073941	0.00022541	7.0262e-05	849.58	2.5119e-06	2.5252e-06	1102.3	257.9	2.7008e-06	2.5006e-06	442.9	207.43	100.13	47.087	2.8628e-06	117.24	378.555	217.185	229.253	151.234	279.778	294.203	151.195	155.612	262.192	286.308	156.268	159.342	159.225	162.747	279.314	161.803	-8191	255	
8492.887	1	1	0	0	0.16956	0.3378	0.14129	0.13715	0.4019	0.19565	0.16271	0.13239	0.14882	0.094197	0.088927	0.50493	0.14199	0.30883	0.21345	0.3353	-2.0438	-2.3042	-2.7292	-2.6354	-2.4437	-2.6354	-2.4083	-2.6	-2.5812	-2.3312	-2.6792	-2.5771	-2.4104	-2.6708	-2.3396	-2.7083	460.875	228.330	363.778	460.004	357.439	260.222	478.748	494.089	230.635	429.068	252.121	436.022	474.854	391.015	311.398	445.404	0.0039643	0.0007677	0.00022365	942	1.4966e-05	8.552e-06	1220.6	289.74	1.3466e-05	7.5664e-06	483.09	226.81	112.95	51.72	1.3524e-05	126.16	0.00074904	0.00023596	6.5091e-05	879.61	2.6594e-06	2.6083e-06	1143.6	269.55	2.5084e-06	2.5983e-06	449.28	213.86	104.61	48.717	2.8039e-06	119.65	377.607	228.150	213.153	151.335	266.645	283.017	151.220	155.527	272.893	278.809	156.617	159.493	159.207	162.707	290.803	161.767	-8191	255	
8492.983	1	1	0	0	0.31999	0.074085	0.22121	0.2936	0.03818	0.13665	0.13289	0.22801	0.13845	0.081684	0.087267	0.32029	0.26098	0.17848	0.17107	0.13065	-1.8583	-2.1875	-2.5187	-2.4021	-2.3729	-2.7083	-2.5083	-2.5708	-2.5812	-2.4833	-2.6542	-2.6146	-2.4833	-2.7542	-2.2104	-2.7333	455.595	410.816	478.437	163.236	331.790	158.432	425.114	156.694	310.381	379.978	437.594	488.647	391.082	457.753	214.090	150.769	0.0039552	0.001007	0.0002502	961.59	1.5076e-05	7.2422e-06	1243.1	292.95	1.7723e-05	5.5273e-06	482.09	225.11	112.11	51.097	1.2142e-05	123.05	0.00075269	0.00025313	6.1246e-05	901.66	2.4386e-06	2.3924e-06	1163.6	273.95	2.4798e-06	2.5131e-06	450.74	211.89	104.14	48.011	2.7855e-06	116.83	378.357	227.149	220.997	151.479	269.090	294.933	151.135	155.521	274.562	281.774	154.940	159.291	159.164	162.915	283.809	161.853	-8191	255	
8493.080	1	1	0	0	0.099308	0.17487	0.096481	0.071608	0.24113	0.10841	0.17542	0.28704	0.050455	0.07653	0.17064	0.11662	0.26922	0.12292	0.044766	0.36732	-2.0104	-2.3375	-2.5417	-2.5896	-2.4313	-2.5792	-2.4354	-2.4458	-2.3688	-2.3021	-2.5021	-2.6375	-2.3354	-2.8667	-2.2917	-2.8458	390.818	476.965	465.805	453.571	424.760	461.950	444.327	421.625	407.203	169.300	459.211	318.919	482.999	432.840	366.550	408.287	0.0038812	0.00085427	0.00028122	950.45	1.4866e-05	9.5161e-06	1217.6	283.3	1.7928e-05	9.71e-06	483.4	220.41	109.25	49.797	1.096e-05	122.61	0.00075191	0.0002485	6.531e-05	891.63	2.5688e-06	2.6496e-06	1138.7	265.49	2.6733e-06	2.7024e-06	439.58	207.84	101.12	47.017	2.7906e-06	116.45	378.253	221.745	226.590	151.134	284.867	273.937	150.986	155.595	277.232	293.442	154.750	159.238	159.125	162.584	276.936	161.606	-8191	255	
8493.200	1	1	0	0	0.11341	0.11113	0.15361	0.15669	0.14094	0.072081	0.16547	0.17943	0.1736	0.07483	0.32401	0.27471	0.22639	0.30857	0.3119	0.28775	-2.0354	-2.3292	-2.5479	-2.5458	-2.2792	-2.85	-2.525	-2.5458	-2.6188	-2.4146	-2.4896	-2.775	-2.2333	-2.7229	-2.5583	-2.5604	476.321	155.865	404.789	468.455	433.529	253.148	428.494	437.862	488.338	487.336	464.950	450.543	144.257	419.113	378.063	436.589	0.0039691	0.00072634	0.00020084	923.04	1.2684e-05	6.0245e-06	1193	275.38	1.0722e-05	7.0092e-06	470.63	217.41	105.21	48.465	9.7042e-06	120.84	0.00074889	0.00023399	6.2649e-05	861.27	2.7587e-06	2.5009e-06	1111.8	257.62	2.5734e-06	2.5559e-06	435.46	205.08	97.896	45.835	2.7398e-06	114.93	377.815	230.709	216.196	151.214	281.472	296.805	151.196	155.488	267.509	282.071	155.463	159.151	158.958	162.565	282.207	161.748	-8191	255	
8493.295	1	1	0	0	0.3523	0.2206	0.18231	0.075602	0.27699	0.25422	0.14581	0.19864	0.055887	0.31677	0.15252	0.22696	0.15634	0.071677	0.22386	0.23314	-2.2542	-2.2292	-2.45	-2.5146	-2.2146	-2.6521	-2.6875	-2.4125	-2.6396	-2.2125	-2.375	-2.7979	-2.3292	-2.8812	-2.5333	-2.4604	324.471	342.804	179.005	138.524	432.709	285.806	448.688	140.290	353.663	389.179	226.184	416.216	335.025	221.789	375.351	320.179	0.0040184	0.0006211	0.0002377	899.34	1.2086e-05	6.4957e-06	1169.6	270.23	1.1821e-05	5.6442e-06	479.7	218.62	105.07	48.612	1.0562e-05	122.67	0.00076903	0.00024918	6.2668e-05	839.59	2.7712e-06	2.4364e-06	1096.3	253.39	2.6368e-06	2.4631e-06	438.58	206.26	97.709	45.926	2.7736e-06	116.21	378.490	200.790	223.791	151.303	276.542	281.826	150.921	155.627	277.995	276.369	155.458	159.096	159.134	162.541	270.562	161.758	-8191	255	
8493.391	1	1	0	0	0.13241	0.090861	0.16048	0.12524	0.25772	0.025649	0.14257	0.22334	0.30089	0.079005	0.30969	0.20043	0.22537	0.082158	0.12272	0.10758	-2.2083	-2.2896	-2.4417	-2.7438	-2.4042	-2.5917	-2.7167	-2.4417	-2.7562	-2.7229	-2.4896	-2.7229	-2.4458	-2.6604	-2.4646	-2.525	351.740	297.327	284.786	164.747	234.583	251.963	404.847	402.437	208.118	213.423	386.159	440.354	452.134	155.554	291.198	453.078	0.0037787	0.00070018	0.0002197	902.96	1.3674e-05	7.8332e-06	1174.2	268.66	1.3562e-05	7.1525e-06	462.71	215.51	103.22	47.669	1.1433e-05	119.79	0.00074072	0.0002409	6.1208e-05	841.48	2.6556e-06	2.4133e-06	1099.8	251.62	2.592e-06	2.4964e-06	430.46	203.37	95.822	45.034	2.5255e-06	114.02	377.816	236.371	231.285	151.215	281.302	273.120	151.246	155.298	276.300	301.252	155.595	159.197	159.074	162.623	286.271	161.611	-8191	255	
8493.487	1	1	0	0	0.1604	0.34129	0.050271	0.22448	0.04074	0.16729	0.1693	0.45912	0.23447	0.1168	0.16801	0.21238	0.10035	0.2502	0.20871	0.027673	-2.1958	-2.35	-2.2167	-2.6375	-2.2021	-2.7042	-2.5875	-2.2646	-2.475	-2.4271	-2.4062	-2.7979	-2.3146	-2.6229	-2.625	-2.3833	474.126	179.435	425.382	439.867	237.558	242.211	438.870	461.105	465.874	170.556	487.486	456.423	200.356	470.882	420.656	412.868	0.0037274	0.00077108	0.0002066	894.7	1.044e-05	7.5436e-06	1176	268.64	1.6125e-05	6.9137e-06	472.24	216.99	106.15	48.539	1.2673e-05	120.59	0.00072169	0.00023409	6.1313e-05	833.45	2.5709e-06	2.315e-06	1094.1	251.69	2.5118e-06	2.4052e-06	434.83	204.9	98.137	45.771	2.7693e-06	114.94	379.112	225.039	221.187	151.214	274.896	287.536	151.057	155.485	281.961	274.428	154.642	159.025	159.130	162.584	282.557	161.717	-8191	255	
8493.583	1	1	0	0	0.072408	0.086767	0.153	0.29753	0.25331	0.19606	0.092243	0.3137	0.18808	0.095886	0.040854	0.060781	0.21231	0.35847	0.031707	0.42589	-2.0812	-2.3292	-2.4542	-2.7938	-2.25	-2.5625	-2.6833	-2.4625	-2.5729	-2.4771	-2.4021	-2.6688	-2.2708	-2.5229	-2.6	-2.2458	296.677	312.322	290.130	484.704	324.956	213.687	469.906	428.731	336.404	184.021	418.367	251.212	440.912	166.166	279.035	425.198	0.0037732	0.00064038	0.00018161	910.18	1.2888e-05	7.7495e-06	1187.4	273.66	1.418e-05	7.7259e-06	470.39	217.88	105.22	48.506	8.7893e-06	121.08	0.00072735	0.00021134	6.3899e-05	856.03	2.6035e-06	2.2695e-06	1112.4	256.41	2.5373e-06	2.2924e-06	435.36	205.54	97.844	45.698	2.4806e-06	115.13	377.678	222.661	212.825	151.402	279.685	273.517	151.062	155.467	266.836	281.370	155.509	159.209	159.096	162.713	280.017	161.751	-8191	255	
8493.679	1	1	0	0	0.07006	0.04856	0.21115	0.086906	0.11029	0.11759	0.2198	0.34798	0.1784	0.33531	0.18064	0.15277	0.38435	0.26065	0.24047	0.35628	-1.9937	-2.2729	-2.1	-2.6896	-2.3729	-2.3854	-2.7938	-2.3604	-2.4979	-2.6937	-2.4313	-2.6021	-2.3417	-2.4562	-2.6604	-2.4583	353.870	371.452	166.268	144.013	205.598	215.768	443.420	429.921	412.992	297.614	185.362	138.726	379.069	483.857	494.171	463.946	0.0038636	0.00085593	0.00022764	913.78	1.1247e-05	9.0287e-06	1187.6	274.21	1.4502e-05	6.794e-06	475.14	219.79	105.7	48.718	8.4305e-06	121.97	0.00073273	0.0002233	6.3679e-05	852.95	2.523e-06	2.5078e-06	1111.6	256.63	2.5659e-06	2.2807e-06	439.13	207.23	98.432	45.936	2.7679e-06	116.05	378.393	225.383	216.072	151.339	270.513	279.798	150.913	155.585	265.301	268.749	155.557	159.217	158.979	162.664	278.743	161.651	-8191	255	
8493.775	1	1	0	0	0.05028	0.19967	0.14816	0.21411	0.1503	0.050856	0.29032	0.041364	0.31954	0.22668	0.1308	0.13592	0.36347	0.17928	0.20805	0.25893	-1.9521	-2.4792	-2.2812	-2.6958	-2.3312	-2.275	-2.8208	-2.4104	-2.5583	-2.4938	-2.0875	-2.5458	-2.5208	-2.45	-2.5438	-2.6083	356.923	164.415	303.305	434.178	290.046	252.835	475.971	418.863	187.053	357.767	303.935	148.892	173.603	426.208	471.444	455.696	0.0039274	0.0005638	0.00017804	910.02	1.3402e-05	7.4348e-06	1188.5	271.51	1.4901e-05	5.596e-06	474.23	217.38	105.37	48.374	1.1532e-05	120.74	0.00074826	0.0002206	6.6179e-05	848.83	2.4473e-06	2.6166e-06	1108	254.42	2.3456e-06	2.4824e-06	433.06	205.1	97.474	45.566	2.6431e-06	114.54	378.877	232.103	220.339	151.276	276.729	289.717	151.050	155.592	284.066	287.616	155.500	159.269	158.988	162.778	290.972	161.477	-8191	255	
8493.896	1	1	0	0	0.35697	0.026006	0.1999	0.35263	0.041047	0.20696	0.38085	0.22229	0.25066	0.14451	0.29838	0.24493	0.062829	0.20843	0.10572	0.33847	-1.9458	-2.3354	-2.2021	-2.6167	-2.4667	-2.3125	-2.6542	-2.2625	-2.5563	-2.7354	-2.2333	-2.6625	-2.5771	-2.3083	-2.65	-2.6646	251.837	166.368	400.204	461.558	178.155	407.822	473.390	481.458	286.791	323.855	345.835	450.911	383.168	473.258	458.064	470.139	0.0039328	0.00063221	0.00017294	902.09	1.0071e-05	8.0332e-06	1179.8	272.94	1.5684e-05	6.7698e-06	469	217.57	105.25	48.527	1.1415e-05	121.01	0.00073378	0.00024168	6.5234e-05	843.3	2.4587e-06	2.6144e-06	1102.6	254.52	2.4433e-06	2.5676e-06	435.59	204.95	97.797	45.658	2.6323e-06	114.71	378.892	216.252	214.954	151.071	280.624	267.152	150.983	155.404	273.614	286.718	154.739	159.273	159.334	162.657	281.489	161.665	-8191	255	
8493.992	1	1	0	0	0.084754	0.065984	0.085914	0.19752	0.096706	0.12556	0.29546	0.19482	0.20738	0.095493	0.053632	0.20788	0.14536	0.09875	0.24748	0.36464	-2.075	-2.575	-2.2625	-2.4729	-2.5312	-2.2917	-2.7021	-2.4729	-2.3646	-2.4	-2.2687	-2.5958	-2.4667	-2.3229	-2.6792	-2.7188	470.483	274.266	378.744	221.507	193.921	159.291	416.751	201.755	154.420	367.524	434.912	137.831	410.598	311.128	481.470	141.256	0.0039152	0.00071021	0.00015073	899.4	1.0339e-05	9.2728e-06	1172.3	269.18	1.3265e-05	6.1755e-06	467.26	216.55	103.9	48.041	1.2497e-05	120.53	0.00074434	0.00024128	6.2706e-05	844.6	2.416e-06	2.433e-06	1100	253.48	2.5359e-06	2.5123e-06	433.06	203.88	96.6	45.245	2.5777e-06	114.49	377.491	205.887	221.350	151.132	283.826	283.773	150.911	155.503	272.621	286.139	154.928	159.233	159.372	162.523	287.285	161.791	-8191	255	
8494.088	1	1	0	0	0.28554	0.28367	0.13275	0.27817	0.30439	0.1648	0.16861	0.17979	0.12368	0.075697	0.078924	0.16553	0.20698	0.17474	0.068787	0.33823	-1.9479	-2.3708	-2.45	-2.65	-2.5396	-2.3271	-2.6354	-2.5625	-2.3563	-2.8542	-2.3542	-2.7687	-2.7708	-2.4646	-2.5708	-2.6521	339.397	297.375	359.241	187.918	463.624	141.006	448.306	469.631	290.116	444.335	374.693	479.721	284.098	453.302	281.617	452.019	0.0039816	0.00069035	0.00016994	894.52	1.1068e-05	5.3758e-06	1172.7	270.17	1.3258e-05	5.9593e-06	469.6	217.62	103.87	48.35	1.0579e-05	121.16	0.00075422	0.00022731	6.4757e-05	836.68	2.5914e-06	2.3363e-06	1094.8	253.2	2.7872e-06	2.3435e-06	436.27	205.5	96.694	45.527	2.5554e-06	114.89	378.919	212.695	238.691	151.299	277.192	319.785	151.110	155.689	274.737	282.322	154.806	159.118	159.094	162.708	284.531	161.759	-8191	255	
8494.184	1	1	0	0	0.075852	0.12059	0.079302	0.1754	0.2624	0.092992	0.19947	0.22353	0.20564	0.15445	0.33371	0.29079	0.30107	0.30543	0.19213	0.19092	-1.9958	-2.4667	-2.2854	-2.5792	-2.6292	-2.4375	-2.5917	-2.5333	-2.4958	-2.6625	-2.3146	-2.6875	-2.6292	-2.4854	-2.4167	-2.775	224.880	468.669	198.277	454.066	337.356	321.571	475.149	392.544	207.830	317.527	254.280	456.929	451.389	287.109	330.246	146.074	0.003883	0.00053478	0.00026161	895.18	1.116e-05	6.3965e-06	1158.3	267.03	1.5758e-05	7.5029e-06	466.27	212.75	102.81	47.096	9.7778e-06	117.9	0.00076659	0.00021986	6.3612e-05	836.48	2.7351e-06	2.3845e-06	1088.5	249.9	2.6791e-06	2.3473e-06	432	201.21	95.34	44.451	2.5313e-06	112.16	378.949	219.500	225.550	151.080	289.015	264.258	151.029	155.337	274.065	289.745	155.399	159.183	158.990	162.728	288.743	161.532	-8191	255	
8494.281	1	1	0	0	0.1424	0.20004	0.092156	0.045367	0.19932	0.33717	0.10852	0.1626	0.10358	0.11735	0.13654	0.20593	0.22664	0.20995	0.14204	0.11886	-1.9937	-2.5	-2.3792	-2.4542	-2.5458	-2.5125	-2.6896	-2.6833	-2.4396	-2.5146	-2.1833	-2.4833	-2.6917	-2.5563	-2.4688	-2.9375	251.242	159.246	245.933	429.763	445.632	276.505	481.584	419.051	424.810	356.898	282.552	159.699	495.605	457.108	459.589	421.553	0.0037257	0.00069796	0.00020157	884.7	1.1446e-05	7.0679e-06	1152.1	266.09	1.5068e-05	7.6278e-06	476.56	212.42	101.62	47.2	8.6712e-06	118.58	0.00073846	0.00023246	5.9548e-05	828.3	2.5948e-06	2.3799e-06	1077	249.14	2.6203e-06	2.4949e-06	432.64	200.5	94.652	44.397	2.4158e-06	112.54	377.879	213.062	225.247	151.613	291.350	293.518	150.970	155.594	265.794	285.239	154.522	159.244	159.230	162.886	270.591	161.379	-8191	255	
8494.377	1	1	0	0	0.17169	0.26264	0.17826	0.13586	0.21912	0.18025	0.37775	0.19802	0.12539	0.0243	0.079021	0.21937	0.058779	0.1503	0.13889	0.18862	-1.6542	-2.5563	-2.5187	-2.4146	-2.6146	-2.4437	-2.6021	-2.575	-2.3792	-2.6063	-2.5875	-2.2625	-2.7083	-2.55	-2.4667	-2.7333	431.962	210.522	253.033	407.155	370.933	247.878	442.572	417.737	459.042	225.531	210.566	139.957	300.588	444.437	423.039	439.042	0.0037987	0.00074445	0.00014105	877.27	1.1408e-05	8.8674e-06	1154.2	263.48	1.5954e-05	7.2603e-06	465.31	213.23	101.99	47.183	1.2029e-05	119.04	0.00073806	0.00023525	6.3708e-05	823.69	2.4671e-06	2.5738e-06	1075.1	247.03	2.644e-06	2.3291e-06	429.34	200.64	94.518	44.515	2.7388e-06	113.03	378.099	238.695	235.606	151.369	269.854	288.757	150.993	155.448	264.838	286.144	155.317	159.252	158.907	162.981	275.637	161.677	-8191	255	
8494.496	1	1	0	0	0.025532	0.097172	0.23277	0.052357	0.16607	0.34615	0.3806	0.33615	0.15887	0.15155	0.11663	0.30195	0.2388	0.37224	0.51669	0.57057	-1.8417	-2.5417	-2.3229	-2.2104	-2.4	-2.4458	-2.5104	-2.6521	-2.3458	-2.4354	-2.5771	-2.5625	-2.8042	-2.5875	-2.525	-2.8479	208.979	222.757	301.146	496.773	271.337	376.802	443.353	384.870	376.720	208.275	154.779	475.222	416.020	144.799	439.944	488.818	0.0036807	0.00078312	0.00017918	881.06	8.9288e-06	8.2932e-06	1154.8	265.72	1.6683e-05	7.1584e-06	467.51	211.79	101.7	46.906	1.1627e-05	118.29	0.00072292	0.00022646	6.5511e-05	826.63	2.4553e-06	2.3469e-06	1080.2	248.79	2.8295e-06	2.3723e-06	429.85	200.01	94.471	44.22	2.7995e-06	112.23	378.169	222.438	226.025	151.210	283.946	294.042	151.088	155.396	265.858	284.843	154.889	159.421	159.009	162.850	293.478	161.777	-8191	255	
8494.592	1	1	0	0	0.13833	0.057987	0.17901	0.28102	0.16859	0.28955	0.47309	0.20911	0.23953	0.25368	0.18429	0.39235	0.2533	0.17955	0.099174	0.32442	-1.8958	-2.4333	-2.525	-2.2667	-2.3937	-2.4875	-2.4562	-2.825	-2.2833	-2.5687	-2.5479	-2.3	-2.5854	-2.6188	-2.475	-2.8125	201.312	414.707	372.381	442.528	401.783	232.376	436.203	413.146	176.356	385.575	187.149	432.242	157.094	444.118	235.724	477.157	0.0038029	0.0007626	0.00018248	883.49	1.0296e-05	6.4535e-06	1155.4	265.2	1.6203e-05	5.993e-06	461.73	211.86	101.83	46.768	8.5744e-06	117.97	0.00074004	0.00021281	6.8812e-05	829.26	2.5257e-06	2.3958e-06	1078	249.03	2.6509e-06	2.4582e-06	432.08	199.52	94.477	44.215	2.7107e-06	111.98	378.520	222.737	208.765	151.013	282.972	276.291	151.228	155.583	250.630	278.296	154.988	158.993	158.894	162.886	287.843	161.761	-8191	255	
8494.688	1	1	0	0	0.16186	0.4754	0.058606	0.14614	0.21753	0.1513	0.33566	0.10798	0.18391	0.11964	0.17112	0.18371	0.097519	0.18497	0.16642	0.31787	-1.9	-2.4479	-2.4875	-2.4271	-2.6146	-2.4333	-2.5938	-2.5938	-2.4229	-2.4333	-2.6	-2.7333	-2.5667	-2.4562	-2.4125	-2.7792	450.015	295.574	435.035	247.111	181.113	462.470	424.093	233.567	320.285	241.577	190.192	423.571	152.098	429.215	189.426	423.160	0.0038634	0.00070981	0.00020835	882.33	1.0057e-05	1.0355e-05	1146	264.29	1.6613e-05	4.9164e-06	473.37	211.8	101.01	46.659	1.2332e-05	118.32	0.00075005	0.00023559	6.9813e-05	824.85	2.3573e-06	2.7316e-06	1076	247.95	2.5549e-06	2.3692e-06	432.95	200	94.033	44.066	2.8096e-06	112.19	376.681	222.153	228.755	151.146	286.969	294.630	151.041	155.523	269.257	305.251	155.836	159.169	159.291	162.799	281.124	161.778	-8191	255	
8494.760	1	1	0	0	0.20327	0.32467	0.22123	0.19461	0.16964	0.1769	0.25221	0.24098	0.055704	0.16481	0.18947	0.089133	0.3346	0.08288	0.13186	0.12551	-1.8375	-2.4792	-2.6104	-2.625	-2.4771	-2.5667	-2.4917	-2.6979	-2.4146	-2.4354	-2.4958	-2.5833	-2.4292	-2.5771	-2.2833	-2.7708	350.012	440.778	401.057	494.636	175.651	370.400	384.795	280.799	333.254	216.453	321.485	437.276	414.986	467.453	442.214	445.522	0.0037628	0.00099405	0.00016743	876.57	1.1963e-05	7.3617e-06	1140.8	263.57	1.8997e-05	6.6219e-06	464.62	210.95	101.12	46.306	1.1438e-05	118.54	0.0007274	0.00025272	6.4261e-05	821.81	2.6171e-06	2.8124e-06	1069.9	247.23	2.6103e-06	2.6024e-06	431.29	198.92	93.68	43.822	2.8747e-06	112.29	378.153	219.181	217.982	150.987	287.329	277.214	151.017	155.590	271.429	288.804	155.193	159.387	159.431	162.575	292.740	161.724	-8191	255	
8494.880	1	1	0	0	0.23262	0.14336	0.32143	0.22446	0.1563	0.051774	0.17004	0.30152	0.24097	0.1587	0.11261	0.19868	0.25332	0.1699	0.18526	0.30727	-2.0792	-2.2667	-2.6208	-2.5062	-2.4375	-2.7313	-2.3833	-2.525	-2.3312	-2.4354	-2.7021	-2.5062	-2.7271	-2.7979	-2.375	-2.6542	222.135	305.293	317.155	148.060	142.878	300.627	395.186	432.550	410.076	409.580	435.376	151.992	443.105	179.784	351.733	177.542	0.0037841	0.00079947	0.00020742	878.19	1.1078e-05	5.5022e-06	1149.9	265.82	1.6495e-05	6.3059e-06	483.95	214.3	102.81	46.961	1.1971e-05	118.49	0.0007417	0.00026256	6.3698e-05	823.12	2.6376e-06	2.5912e-06	1076.7	248.77	2.7053e-06	2.6032e-06	440.91	202.09	95.097	44.425	2.7362e-06	112.86	378.163	224.157	220.260	151.283	272.756	286.441	151.016	155.734	273.745	283.401	156.054	159.250	158.925	162.650	290.391	161.743	-8191	255	
8494.976	1	1	0	0	0.085577	0.21543	0.21547	0.17587	0.094878	0.17807	0.15228	0.2104	0.1984	0.044837	0.057166	0.24722	0.14721	0.068373	0.068889	0.13891	-2.0458	-2.2792	-2.6104	-2.5312	-2.4083	-2.6813	-2.4062	-2.6792	-2.4229	-2.4958	-2.5167	-2.5771	-2.5812	-2.7021	-2.2812	-2.8729	174.524	346.524	342.168	161.362	480.450	364.685	451.232	467.583	475.976	474.422	375.644	457.144	396.344	390.128	440.640	490.468	0.0037577	0.00088073	0.00023921	882.96	1.0017e-05	7.2031e-06	1151	264.84	1.6751e-05	6.7719e-06	461	210.29	101.01	46.284	1.3951e-05	116.38	0.00073039	0.00024563	7.0653e-05	827.87	2.5532e-06	2.7122e-06	1075.2	248.29	2.7755e-06	2.2935e-06	427.68	197.94	93.923	43.755	2.8938e-06	110.67	377.570	214.621	222.298	151.313	279.108	295.108	150.951	155.684	263.635	289.072	154.464	159.088	159.126	162.913	282.607	161.505	-8191	255	
8495.073	1	1	0	0	0.028949	0.26053	0.12237	0.39964	0.17944	0.076871	0.40659	0.097405	0.086304	0.21144	0.31633	0.41418	0.19274	0.24899	0.28609	0.55741	-2.1604	-2.2896	-2.4854	-2.4479	-2.3167	-2.5958	-2.4354	-2.6792	-2.6146	-2.3854	-2.5792	-2.7042	-2.4083	-2.625	-2.2354	-2.8354	464.265	436.957	269.261	463.091	446.606	299.178	434.762	185.656	194.085	167.034	281.962	144.687	450.021	485.448	170.170	440.069	0.0037334	0.00062587	0.00018959	884.57	1.2163e-05	8.0995e-06	1143.1	263.97	1.5538e-05	6.6944e-06	468.74	208.85	100.27	46.048	8.3968e-06	116.43	0.00073243	0.00022605	5.8308e-05	825.56	2.6115e-06	2.4137e-06	1071.4	247.57	2.771e-06	2.3571e-06	428.52	197.33	93.354	43.469	2.5733e-06	110.66	377.057	225.255	222.557	151.321	280.042	282.222	151.335	155.273	275.611	294.554	154.854	159.089	159.425	162.686	285.396	161.590	-8191	255	
8495.169	1	1	0	0	0.17378	0.067234	0.078929	0.23318	0.22745	0.30385	0.18213	0.13039	0.15734	0.0054061	0.079968	0.053018	0.099272	0.32051	0.1671	0.30012	-2.0438	-2.2	-2.3917	-2.6083	-2.4375	-2.6417	-2.7313	-2.55	-2.7667	-2.3625	-2.7	-2.625	-2.4021	-2.6396	-2.4479	-2.7458	137.928	414.016	164.131	471.908	231.752	451.637	409.488	392.963	216.741	272.253	248.939	427.393	246.167	158.129	459.914	442.769	0.0037807	0.00084824	0.0001818	866.42	8.1406e-06	5.996e-06	1126.1	261.17	1.592e-05	7.1835e-06	455.94	207.1	98.641	45.098	1.0407e-05	115.65	0.00073225	0.00024328	5.7221e-05	812.8	2.5202e-06	2.3366e-06	1055.2	243.35	2.6643e-06	2.5055e-06	422.26	195.34	91.246	42.502	2.5741e-06	109.62	378.420	217.594	224.726	151.192	277.410	276.204	150.707	155.730	271.689	296.074	155.431	159.057	159.237	162.861	276.186	161.591	-8191	255	
8495.288	1	1	0	0	0.1072	0.05815	0.14758	0.24963	0.16012	0.1516	0.15466	0.11635	0.22352	0.13166	0.41009	0.20392	0.083796	0.065861	0.31015	0.20411	-2.2208	-2.3063	-2.5604	-2.7562	-2.3021	-2.6437	-2.6312	-2.6396	-2.7792	-2.4521	-2.6271	-2.6708	-2.4021	-2.7438	-2.4813	-2.6542	248.139	141.548	335.434	471.458	194.915	380.611	338.254	183.608	375.470	360.786	457.872	451.258	447.379	232.533	461.203	486.860	0.0036395	0.00064366	0.00014543	855.84	6.8045e-06	8.6169e-06	1127.5	257.45	1.4033e-05	7.6628e-06	454.31	207.2	97.618	44.802	9.3949e-06	115.63	0.00070824	0.00022316	5.7602e-05	803.52	2.5115e-06	2.3829e-06	1050.9	240.85	2.4368e-06	2.4665e-06	420.88	195.58	90.786	42.313	2.5367e-06	109.88	376.857	232.297	216.808	151.135	274.073	275.169	150.860	155.438	280.055	284.904	154.527	159.337	158.988	162.819	278.522	161.649	-8191	255	
8495.361	1	1	0	0	0.15051	0.0069203	0.061086	0.23819	0.050944	0.16344	0.089744	0.23991	0.039732	0.17357	0.21918	0.098489	0.32555	0.19242	0.17706	0.18506	-2.175	-2.425	-2.5521	-2.6312	-2.4271	-2.5896	-2.5354	-2.5687	-2.7833	-2.4708	-2.5021	-2.8667	-2.3875	-2.7667	-2.3	-2.4771	300.372	353.139	235.046	465.286	455.103	212.468	140.350	455.733	219.588	266.284	232.376	144.242	446.478	473.540	331.068	460.351	0.0036293	0.00082223	0.00020523	847.08	1.2692e-05	5.5775e-06	1120.3	255.68	1.7472e-05	6.6463e-06	460.63	208.24	98.647	45.669	1.0156e-05	117.25	0.00069876	0.00022374	6.4709e-05	795.73	2.4893e-06	2.0707e-06	1048.5	239.03	2.4785e-06	2.194e-06	424.8	197.15	91.801	43.105	2.5967e-06	111.65	377.718	237.905	229.246	151.176	281.492	287.165	150.963	155.365	275.267	293.882	155.802	159.111	159.201	162.460	283.164	161.386	-8191	255	
8495.457	1	1	0	0	0.11297	0.28067	0.1958	0.1344	0.14484	0.17528	0.16093	0.36889	0.048125	0.04695	0.25075	0.2509	0.1504	0.17778	0.047163	0.32442	-2.1646	-2.3958	-2.4521	-2.7542	-2.4375	-2.6229	-2.7229	-2.5083	-2.6667	-2.4271	-2.4688	-2.8	-2.3875	-2.4875	-2.3667	-2.5438	299.312	474.528	283.531	392.247	436.525	476.875	379.387	488.155	343.707	311.944	152.047	430.642	426.258	477.264	206.676	400.626	0.0037071	0.00058228	0.00024159	863.17	1.1866e-05	7.9754e-06	1133.7	260.83	1.2168e-05	6.2796e-06	460.46	212.26	100.43	46.212	9.1035e-06	118.39	0.00069514	0.00020365	6.4948e-05	807.23	2.4969e-06	2.1352e-06	1061.5	243.23	2.3604e-06	2.25e-06	426.25	199.97	93.175	43.681	2.4626e-06	112.81	378.218	204.286	225.564	151.227	272.481	294.942	150.754	155.413	274.748	301.726	155.172	159.066	159.141	162.407	275.153	161.604	-8191	255	
8495.576	1	1	0	0	0.13573	0.20829	0.21434	0.31884	0.15336	0.063556	0.2573	0.32788	0.22412	0.084247	0.2614	0.22726	0.053273	0.25325	0.23365	0.25512	-2.1521	-2.4875	-2.3833	-2.6104	-2.3667	-2.5062	-2.5542	-2.1646	-2.7104	-2.45	-2.3146	-3.1417	-2.5625	-2.6312	-2.5708	-2.5875	322.226	436.247	151.593	466.979	349.853	184.651	473.779	497.120	408.220	351.653	452.712	474.891	443.741	173.960	439.079	461.054	0.0039228	0.00070277	0.00019449	867.88	1.1522e-05	7.7083e-06	1138.1	261.56	1.627e-05	6.109e-06	475.16	214.13	101.03	46.917	1.1789e-05	120.25	0.00072692	0.00022725	6.1466e-05	812.7	2.4566e-06	2.2008e-06	1069.7	245.06	2.3225e-06	2.2519e-06	434.1	202.15	94.067	44.215	2.4306e-06	114.28	378.342	205.641	233.483	151.083	274.716	281.135	150.793	155.608	274.475	284.669	155.915	159.207	159.090	162.627	306.188	161.448	-8191	255	
8495.672	1	1	0	0	0.13248	0.17432	0.13903	0.28272	0.18822	0.13942	0.27375	0.18384	0.048055	0.21828	0.11134	0.14254	0.15483	0.076941	0.14567	0.21125	-2.1625	-2.3979	-2.0958	-2.8375	-2.475	-2.6125	-2.7687	-2.3396	-2.7229	-2.6021	-2.3312	-2.6542	-2.2958	-2.6813	-2.6708	-2.6667	377.095	162.045	281.738	460.104	307.833	154.411	459.240	399.219	348.987	307.677	172.423	298.401	383.277	181.485	285.744	461.800	0.0038354	0.00065545	0.00022016	872.11	1.3583e-05	6.9225e-06	1146.4	261.94	1.8335e-05	6.3222e-06	471.47	212.68	99.714	46.298	1.0114e-05	118.65	0.00070919	0.00023092	5.9348e-05	817.34	2.4209e-06	2.3655e-06	1074.7	245.15	2.3621e-06	2.4635e-06	429.8	200.9	92.718	43.693	2.4914e-06	112.66	377.432	213.603	227.988	150.845	281.174	279.248	150.902	155.012	275.714	272.083	156.826	159.060	159.267	163.041	289.864	161.520	-8191	255	
8495.768	1	1	0	0	0.092948	0.12225	0.12757	0.15022	0.18575	0.057215	0.066977	0.25778	0.14608	0.09314	0.046291	0.26988	0.31343	0.25222	0.14977	0.28257	-2.4292	-2.4625	-2.1917	-2.7375	-2.3438	-2.5062	-2.8479	-2.4792	-2.5979	-2.6146	-2.4979	-2.8333	-2.5479	-2.475	-2.6333	-2.6833	343.765	455.674	386.318	172.677	151.523	217.246	465.146	472.456	261.804	219.553	205.158	491.520	406.960	392.131	152.622	426.977	0.0038602	0.0006494	0.00022973	853.46	1.1765e-05	7.2522e-06	1129.5	256.99	1.291e-05	6.0512e-06	463.02	209.45	98.179	45.429	9.4596e-06	116.79	0.00072425	0.00021625	5.8795e-05	805.01	2.524e-06	2.1955e-06	1060.2	240.65	2.3742e-06	2.3019e-06	421.65	197.62	91.284	42.892	2.514e-06	111.15	376.837	233.646	229.677	150.994	269.288	285.564	150.763	155.516	270.213	288.319	155.129	158.887	159.013	162.725	271.304	161.613	-8191	255	
8495.889	1	1	0	0	0.15484	0.14791	0.20314	0.23912	0.091937	0.11502	0.26918	0.14948	0.18651	0.17416	0.12694	0.11569	0.29794	0.24033	0.24317	0.56338	-2.1354	-2.4813	-2.4208	-2.7083	-2.5854	-2.3521	-2.8542	-2.5062	-2.6146	-2.6604	-2.2687	-2.8438	-2.4917	-2.4875	-2.6979	-2.5542	163.010	402.968	419.233	471.462	466.688	395.762	449.604	476.286	333.917	299.961	172.444	457.400	438.251	165.923	332.316	449.072	0.0037348	0.00081989	0.00022455	851.69	9.9434e-06	7.7468e-06	1117.4	254.53	1.4716e-05	4.086e-06	464.92	209.52	98.349	45.533	8.9059e-06	118.08	0.00071633	0.00023106	6.1189e-05	794.87	2.5511e-06	2.3568e-06	1048.6	238.5	2.4988e-06	2.211e-06	424.57	197.83	91.569	43.099	2.4665e-06	112.26	379.737	219.898	222.424	150.911	275.233	291.817	150.631	155.502	283.967	289.613	155.769	159.179	159.205	162.665	279.586	161.441	-8191	255	
8495.985	1	1	0	0	0.32302	0.061209	0.26036	0.31932	0.043487	0.19248	0.051529	0.21103	0.15792	0.16434	0.20046	0.28431	0.301	0.083606	0.14352	0.37351	-2.0625	-2.4938	-2.3354	-2.6875	-2.5104	-2.3771	-2.8187	-2.5312	-2.3375	-2.6958	-2.3187	-2.6562	-2.6229	-2.4792	-2.7146	-2.6271	408.992	410.522	156.715	147.189	183.374	460.766	321.667	437.106	315.315	206.081	321.331	486.497	138.091	140.178	358.540	415.717	0.0037952	0.00064449	0.00025862	855.35	1.2384e-05	7.6094e-06	1132.7	257.76	1.4357e-05	8.9333e-06	464.89	211.94	100.61	46.845	1.062e-05	120.41	0.00072114	0.0002143	6.2763e-05	801.54	2.5327e-06	2.3458e-06	1061.7	242.6	2.5284e-06	2.2886e-06	432.24	201.11	93.734	44.169	2.3777e-06	114.78	377.133	227.563	226.305	151.023	274.873	272.892	150.681	155.390	268.950	281.070	155.515	159.045	159.391	162.460	277.528	161.641	-8191	255	
8496.057	1	1	0	0	0.24	0.1581	0.27876	0.27601	0.28252	0.19044	0.40477	0.27186	0.18242	0.1509	0.12954	0.19593	0.11756	0.20281	0.067801	0.13912	-2.0812	-2.5375	-2.1854	-2.5708	-2.4625	-2.3917	-2.7	-2.3688	-2.3333	-2.2792	-2.3042	-2.6396	-2.5646	-2.4854	-2.4479	-2.725	482.843	156.128	150.422	391.159	496.674	490.380	491.381	303.693	359.138	242.135	349.998	473.072	205.389	212.483	451.620	458.660	0.0038574	0.00085553	0.0002334	867.73	1.1829e-05	8.4615e-06	1152.2	260.73	1.7456e-05	7.1581e-06	473.98	215.51	101.32	46.885	1.146e-05	120.06	0.00073642	0.00020732	6.1256e-05	813.31	2.4813e-06	2.4558e-06	1076	245.76	2.5249e-06	2.1629e-06	435.09	204.19	94.591	44.474	2.4446e-06	114.74	377.786	220.337	221.196	150.971	285.006	281.072	150.707	155.380	272.674	285.069	155.203	159.071	158.885	162.492	289.502	161.383	-8191	255	
8496.177	1	1	0	0	0.066225	0.13227	0.1621	0.18838	0.10459	0.051317	0.4059	0.18723	0.31542	0.05922	0.14313	0.10839	0.21135	0.39342	0.27957	0.28205	-1.9646	-2.6292	-2.3354	-2.7479	-2.6146	-2.45	-2.6917	-2.4479	-2.3688	-2.7062	-2.3333	-2.8312	-2.5729	-2.5083	-2.7188	-2.7562	207.524	464.163	360.417	171.410	431.302	417.267	413.627	403.790	388.431	170.040	167.828	420.807	390.347	434.625	255.297	436.162	0.0038086	0.00071033	0.00020945	867.74	1.3078e-05	5.359e-06	1145.6	261.26	1.2213e-05	6.4555e-06	470.98	214.74	101.17	47.051	9.2112e-06	120.84	0.00072403	0.00020719	5.7593e-05	813.2	2.4136e-06	2.2297e-06	1070.9	244.09	2.4158e-06	2.2235e-06	428.98	202.22	93.892	44.555	2.3047e-06	114.9	377.599	228.577	228.528	151.325	273.249	289.728	150.979	155.776	273.686	289.138	155.876	158.856	158.983	162.521	273.908	161.602	-8191	255	
8496.272	1	1	0	0	0.085062	0.057167	0.065346	0.32531	0.089992	0.21439	0.23251	0.2048	0.084109	0.10052	0.16272	0.3094	0.074831	0.023974	0.17703	0.42868	-1.8771	-2.6646	-2.3	-2.5208	-2.6917	-2.3438	-2.8896	-2.5521	-2.2917	-2.6271	-2.5396	-2.6021	-2.9208	-2.3083	-2.6667	-2.7313	362.532	434.808	198.922	469.346	335.350	496.867	408.309	213.498	358.494	329.451	426.534	464.047	379.072	166.289	267.750	426.779	0.0038511	0.00065369	0.00022575	880.02	1.1427e-05	7.1296e-06	1161.4	266.17	1.471e-05	4.4805e-06	477.1	218.58	103.35	48.53	1.0242e-05	122.76	0.00073408	0.00020313	6.1266e-05	822.07	2.2893e-06	2.1257e-06	1084.1	248.98	2.3435e-06	2.0959e-06	439.35	206.52	96.192	45.765	2.468e-06	117.18	377.152	228.889	217.400	151.336	304.226	292.103	150.863	155.376	275.969	287.784	155.152	159.268	158.992	162.623	276.847	161.457	-8191	255	
8496.368	1	1	0	0	0.28715	0.095414	0.10873	0.1835	0.047134	0.12258	0.13338	0.11548	0.13213	0.35359	0.11781	0.10192	0.28723	0.19746	0.11635	0.24044	-1.9396	-2.4979	-2.3688	-2.4292	-2.6604	-2.2854	-2.7104	-2.6771	-2.4042	-2.7417	-2.6292	-2.6292	-2.7042	-2.4021	-2.4729	-2.9813	138.046	467.263	289.097	409.539	158.808	194.858	393.193	489.450	444.245	211.483	497.198	381.457	373.804	145.511	424.117	451.908	0.0039159	0.00093801	0.0002104	881.77	8.7011e-06	6.0448e-06	1161.5	266.91	1.7315e-05	7.1471e-06	482.92	219.67	103.97	48.497	1.0378e-05	123.69	0.00074216	0.0001997	6.5482e-05	824.19	2.3053e-06	2.2896e-06	1090.2	250.38	2.3934e-06	2.0611e-06	440.48	207.99	96.901	45.933	2.5327e-06	117.99	379.011	224.122	245.313	151.077	294.879	277.169	151.140	155.515	281.231	295.021	154.921	159.021	159.332	162.471	276.576	161.495	-8191	255	
8496.464	1	1	0	0	0.076532	0.2751	0.21216	0.18877	0.16787	0.058581	0.070521	0.053039	0.17512	0.23532	0.2125	0.22123	0.1625	0.1306	0.15492	0.18632	-1.9604	-2.5042	-2.4354	-2.3229	-2.5979	-2.45	-2.6521	-2.7458	-2.3417	-2.6292	-2.5062	-2.4896	-2.6083	-2.4333	-2.525	-2.7875	337.334	237.819	168.536	391.039	234.739	421.596	193.515	412.251	492.470	187.748	477.083	169.364	487.012	469.181	445.703	437.075	0.0040023	0.00060566	0.00024518	879.33	1.0574e-05	7.1288e-06	1160.3	266.21	1.5508e-05	7.6254e-06	477.07	219.98	103.58	48.589	1.1366e-05	123.44	0.00073698	0.00019721	6.3708e-05	826.2	2.3226e-06	2.345e-06	1090.4	250.29	2.4199e-06	2.0978e-06	440.16	208.52	96.48	45.779	2.4993e-06	117.23	378.824	216.564	218.335	151.264	272.754	293.430	151.094	155.403	274.117	279.363	154.821	159.238	158.861	162.512	292.524	161.426	-8191	255	
8496.585	1	1	0	0	0.29164	0.0025072	0.19366	0.30294	0.1563	0.085634	0.28954	0.11733	0.33541	0.061802	0.14258	0.23768	0.24972	0.27094	0.17453	0.12215	-1.7458	-2.4583	-2.5417	-2.5375	-2.7458	-2.4083	-2.7729	-2.6979	-2.3375	-2.5938	-2.5438	-2.3729	-2.8021	-2.5104	-2.2271	-2.6688	203.735	260.637	456.940	475.009	264.327	371.860	391.823	405.933	397.311	471.660	183.655	466.508	457.154	456.960	316.914	429.636	0.0040264	0.00086	0.00023535	881.94	9.9879e-06	6.8191e-06	1155.9	265.59	1.5454e-05	6.0326e-06	481.99	217.2	101.84	47.924	1.1828e-05	121.84	0.00074374	0.00021052	6.0521e-05	822.73	2.1952e-06	2.3287e-06	1083	248.54	2.2912e-06	2.3564e-06	435.89	204.94	95.417	45.162	2.5647e-06	115.76	378.133	222.089	228.229	151.032	286.345	275.332	150.977	155.494	276.930	271.868	154.678	159.123	158.995	162.342	282.146	161.548	-8191	255	
8496.656	1	1	0	0	0.27641	0.10084	0.10913	0.20168	0.085055	0.091021	0.069272	0.1771	0.095794	0.2912	0.23058	0.25966	0.21958	0.056325	0.093834	0.26414	-1.9167	-2.4375	-2.525	-2.4125	-2.4542	-2.4271	-2.6562	-2.7833	-2.4	-2.6667	-2.4479	-2.4271	-2.7562	-2.6813	-2.1375	-2.8354	286.887	426.020	386.648	435.850	491.931	226.969	141.608	404.890	235.483	410.056	461.061	438.764	208.850	163.377	445.339	415.588	0.0039174	0.00076656	0.00019796	869.66	1.3558e-05	7.4983e-06	1158.1	268.09	1.3607e-05	7.0944e-06	481.25	220.61	104.35	49.187	1.1036e-05	125.33	0.00072373	0.00021407	5.8051e-05	816.85	2.1879e-06	2.3992e-06	1083.8	250.36	2.1897e-06	2.2519e-06	440.67	208.5	97.366	46.324	2.4083e-06	118.99	378.417	214.402	218.218	151.258	281.444	286.646	150.783	155.449	285.846	274.810	154.598	159.116	158.964	162.436	293.644	161.502	-8191	255	
8496.753	1	1	0	0	0.10786	0.10386	0.094124	0.19378	0.18822	0.20983	0.11078	0.12659	0.051707	0.17119	0.058826	0.18741	0.18607	0.25477	0.10621	0.13475	-1.925	-2.4417	-2.5187	-2.4	-2.5979	-2.6146	-2.5167	-2.6979	-2.4313	-2.4771	-2.6312	-2.5271	-2.6583	-2.5479	-2.2354	-2.9104	238.040	435.226	160.099	188.363	426.342	487.999	436.441	213.502	367.310	271.574	153.208	457.356	154.717	488.935	143.499	436.561	0.0041381	0.000918	0.00020596	887.4	9.737e-06	9.4478e-06	1173.7	271.53	1.7312e-05	6.4352e-06	489.09	224.47	105.85	49.634	1.0027e-05	126.76	0.00076886	0.00021465	5.6829e-05	829.26	2.2212e-06	2.3628e-06	1100.1	254.15	2.3872e-06	2.3428e-06	445.54	211.73	98.517	46.832	2.3371e-06	120.32	377.957	230.163	213.806	151.245	280.075	276.277	151.067	155.520	265.677	285.785	155.668	159.083	158.841	162.523	277.737	161.505	-8191	255	
8496.849	1	1	0	0	0.20116	0.1333	0.11917	0.24979	0.32682	0.2123	0.11983	0.30035	0.086526	0.061388	0.1641	0.37733	0.265	0.15629	0.34379	0.27307	-1.8375	-2.3708	-2.6875	-2.6604	-2.6063	-2.6521	-2.6063	-2.6042	-2.3375	-2.2896	-2.7208	-2.5729	-2.7208	-2.8042	-2.3792	-2.8625	359.253	289.045	229.097	450.509	243.431	268.677	466.737	461.962	316.744	383.999	272.794	445.959	180.273	234.252	255.859	436.626	0.0041954	0.00072851	0.0001813	889.76	9.073e-06	8.1232e-06	1173.5	270.93	1.5169e-05	8.5836e-06	478.3	223.38	105.26	49.392	9.5458e-06	125.78	0.00078012	0.00021253	5.7621e-05	831.35	2.4417e-06	2.2596e-06	1101	253.48	2.4258e-06	2.1327e-06	442.96	211.18	98.226	46.761	2.3497e-06	119.79	377.813	213.438	217.165	151.006	290.159	300.457	150.862	155.348	281.448	299.326	155.461	159.289	158.933	162.702	287.728	161.532	-8191	255	
8496.969	1	1	0	0	0.17242	0.23112	0.21014	0.11271	0.17565	0.32858	0.4052	0.11802	0.28637	0.18214	0.067968	0.28205	0.16495	0.19049	0.16506	0.11417	-2.0604	-2.4521	-2.6	-2.55	-2.7479	-2.625	-2.5292	-2.725	-2.4625	-2.2771	-2.6	-2.6167	-2.5917	-2.7604	-2.175	-2.7271	304.412	236.154	272.537	448.122	189.303	150.737	453.138	384.535	465.583	269.684	495.456	416.799	470.539	183.650	296.041	335.854	0.00402	0.0008025	0.00018321	889.75	1.2228e-05	1.0159e-05	1174	269.95	1.5346e-05	7.466e-06	481.77	220.53	104	48.915	1.0134e-05	124.41	0.00077069	0.0002236	5.1993e-05	830.7	2.3723e-06	2.1671e-06	1093.6	251.95	2.5015e-06	2.32e-06	441.03	208.1	96.804	45.962	2.3076e-06	118.08	378.625	230.065	230.204	151.248	274.365	291.455	150.831	155.343	269.404	285.360	154.778	159.078	159.293	162.509	283.441	161.636	-8191	255	
8497.065	1	1	0	0	0.050599	0.18036	0.047714	0.35952	0.1	0.092842	0.20139	0.19234	0.027285	0.039915	0.14336	0.3352	0.28143	0.16368	0.18782	0.05103	-1.9479	-2.3979	-2.6	-2.5187	-2.2854	-2.6833	-2.3083	-2.8042	-2.4854	-2.3979	-2.6146	-2.5875	-2.5563	-2.7229	-2.3354	-2.8312	223.081	292.447	314.597	145.839	310.517	234.127	452.385	144.320	142.911	160.966	189.499	438.324	150.891	464.526	299.682	320.617	0.0038837	0.00068647	0.00020438	875.91	1.2783e-05	7.0765e-06	1158	266.17	1.5199e-05	7.2616e-06	482.71	220.63	103.43	48.406	9.5328e-06	124.77	0.00073268	0.00019721	5.1067e-05	817.8	2.2247e-06	2.1625e-06	1083.2	248.51	2.3738e-06	2.2587e-06	440.32	208.11	96.385	45.828	2.1807e-06	118.39	377.139	213.585	217.271	151.054	294.195	284.202	150.866	155.299	278.794	285.299	154.838	158.895	158.750	162.458	278.628	161.401	-8191	255	
8497.162	1	1	0	0	0.14932	0.11773	0.38658	0.1819	0.12368	0.17551	0.06218	0.1862	0.18077	0.10225	0.047251	0.1767	0.16525	0.092639	0.21115	0.20409	-2.0979	-2.2458	-2.5583	-2.6708	-2.3729	-2.5438	-2.4896	-2.55	-2.6208	-2.4396	-2.6833	-2.5021	-2.5479	-2.6312	-2.5646	-2.6292	265.499	491.873	354.039	149.897	257.720	171.519	374.791	411.783	182.637	411.959	457.272	492.139	497.320	326.128	204.446	423.743	0.0040365	0.00074679	0.00017595	875.86	1.0984e-05	7.3732e-06	1154.7	267.78	1.5318e-05	8.343e-06	475.32	223.34	104.46	48.847	1.2447e-05	125.48	0.00075422	0.00019431	5.5045e-05	818.35	2.3469e-06	2.0476e-06	1084.3	250.08	2.4337e-06	2.0888e-06	439.77	209.98	97.124	46.15	2.3802e-06	119.47	378.603	218.685	219.165	150.900	283.520	286.375	150.780	155.362	273.614	289.182	154.747	159.087	158.975	162.678	278.345	161.507	-8191	255	
8497.258	1	1	0	0	0.26255	0.17651	0.14393	0.12166	0.12672	0.082679	0.063954	0.2115	0.11204	0.23633	0.22372	0.36129	0.017131	0.10821	0.27198	0.31908	-2.0729	-2.2396	-2.5146	-2.6396	-2.4854	-2.6417	-2.5229	-2.7167	-2.7313	-2.2458	-2.7	-2.7	-2.4917	-2.8292	-2.3917	-2.6479	447.732	239.992	374.957	246.918	221.159	233.131	441.691	143.546	252.334	188.390	269.473	161.550	233.188	456.904	458.518	453.418	0.0039696	0.00091857	0.00016081	875.88	1.2069e-05	6.5123e-06	1170.6	266.65	1.5801e-05	7.8248e-06	487.87	222.66	105.02	48.661	1.0286e-05	125.04	0.00073738	0.00020702	5.5217e-05	821.42	2.3747e-06	2.0108e-06	1093	250.75	2.358e-06	2.1429e-06	445.71	209.75	97.442	46.073	2.505e-06	118.83	378.129	227.915	220.870	151.066	274.768	286.029	151.150	155.455	269.361	292.421	155.244	158.826	159.203	162.622	292.404	161.379	-8191	255	
8497.354	1	1	0	0	0.21171	0.34407	0.45071	0.005901	0.25507	0.20464	0.049875	0.25379	0.088547	0.11719	0.0091494	0.16211	0.3055	0.28466	0.14887	0.44642	-2.2583	-2.5563	-2.6042	-2.55	-2.3729	-2.6625	-2.3958	-2.4542	-2.6562	-2.4104	-2.4938	-2.7667	-2.3521	-2.7229	-2.4396	-2.7375	408.242	284.377	270.511	479.312	380.099	390.526	137.845	155.980	458.906	494.916	365.134	152.257	480.243	407.773	482.963	423.935	0.0040469	0.00072304	0.00020611	886.74	1.0944e-05	6.0217e-06	1165.6	267.53	1.6368e-05	7.1809e-06	475.7	219.93	103.85	48.41	1.2133e-05	123.74	0.00074304	0.0002013	5.2641e-05	825.98	2.3021e-06	2.1014e-06	1091.5	250.45	2.19e-06	2.1785e-06	440.09	207.37	96.557	45.695	2.509e-06	117.56	377.832	227.408	209.552	150.742	287.337	276.033	151.007	155.446	286.621	267.631	154.916	159.068	159.011	162.825	280.648	161.384	-8191	255	
8497.450	1	1	0	0	0.31308	0.10305	0.21104	0.26401	0.10722	0.097569	0.26456	0.10837	0.20368	0.21029	0.16265	0.076611	0.27274	0.15108	0.12571	0.19318	-2.3438	-2.45	-2.6021	-2.7271	-2.5167	-2.6271	-2.6833	-2.4729	-2.6292	-2.4646	-2.6104	-2.8	-2.4	-2.6604	-2.6229	-2.6833	278.722	261.428	218.052	451.727	322.392	315.339	467.256	318.174	429.025	265.671	346.524	496.587	322.876	488.864	437.273	439.373	0.0040175	0.00070316	0.00025238	878.55	1.1819e-05	7.2346e-06	1159.9	265.93	1.4879e-05	7.8035e-06	477.39	219.7	103.73	48.275	1.1243e-05	123.53	0.0007241	0.00020273	5.7974e-05	820.14	2.1021e-06	2.1026e-06	1085.2	248.94	2.1973e-06	2.1682e-06	437.75	207.25	96.4	45.591	2.5248e-06	117.4	377.821	228.679	221.908	151.377	284.395	270.697	150.786	155.467	260.644	266.308	154.268	158.968	158.938	162.409	280.672	161.381	-8191	255	
8497.569	1	1	0	0	0.271	0.26486	0.23961	0.32672	0.1613	0.052565	0.14941	0.1103	0.24534	0.21366	0.058027	0.31932	0.16251	0.29431	0.28308	0.38833	-2.2604	-2.3563	-2.4604	-2.8021	-2.2875	-2.7083	-2.7313	-2.4646	-2.6312	-2.3812	-2.6021	-2.8104	-2.4292	-2.6083	-2.4146	-2.6792	325.545	311.067	316.636	425.132	438.790	209.332	468.962	444.112	448.970	394.624	427.357	470.895	148.409	429.394	369.136	443.071	0.0040775	0.00074003	0.00016568	865.2	1.1979e-05	7.3844e-06	1150.8	263.54	1.5107e-05	6.7176e-06	471.36	219.53	102.42	48.171	1.1439e-05	124.32	0.00074874	0.00022108	5.5494e-05	812.99	2.2164e-06	2.2775e-06	1078.2	247.12	2.1683e-06	2.3166e-06	439.01	207.5	95.603	45.483	2.3705e-06	118.43	378.320	228.634	219.375	150.999	280.443	274.391	150.935	155.552	260.351	282.418	155.568	159.208	158.955	162.171	294.607	161.506	-8191	255	
8497.665	1	1	0	0	0.24632	0.22082	0.15096	0.072728	0.084485	0.09524	0.090751	0.44126	0.14067	0.17294	0.099011	0.24404	0.36675	0.15867	0.23581	0.21765	-2.2083	-2.4646	-2.5229	-2.5667	-2.4542	-2.5521	-2.8063	-2.3896	-2.5958	-2.4479	-2.5208	-2.8917	-2.4542	-2.6646	-2.5979	-2.4167	193.826	399.356	305.069	296.090	439.610	259.590	491.627	441.475	318.028	348.404	317.170	453.406	456.897	197.669	372.873	436.361	0.0039687	0.00065163	0.00022714	874	1.1785e-05	6.4309e-06	1164.8	266.12	1.5015e-05	5.7498e-06	475.88	221.42	103.77	48.499	1.2302e-05	124.99	0.00072938	0.00021764	5.6744e-05	815.95	2.3858e-06	2.1382e-06	1087.2	248.64	2.1133e-06	2.1228e-06	442.88	209.5	96.379	45.972	2.4291e-06	118.75	378.358	215.220	221.627	151.222	275.807	283.800	151.125	155.425	276.860	308.925	155.697	159.012	159.164	162.892	289.120	161.391	-8191	255	
8497.761	1	1	0	0	0.16295	0.34536	0.22503	0.071059	0.202	0.19156	0.14134	0.13667	0.080169	0.22519	0.21495	0.064157	0.10093	0.044761	0.16408	0.37432	-1.8813	-2.4958	-2.1792	-2.7188	-2.125	-2.5583	-2.7729	-2.3021	-2.6417	-2.7583	-2.3271	-2.5854	-2.525	-2.5187	-2.5271	-2.6521	469.598	452.198	249.860	342.202	428.439	304.499	420.752	396.878	404.902	319.137	401.674	224.642	185.448	489.326	397.797	408.866	0.0040414	0.00074937	0.00024356	876.76	1.2884e-05	7.7786e-06	1166.1	268.58	1.3599e-05	8.1448e-06	478.86	220.32	104.29	48.845	1.0734e-05	125.15	0.00075654	0.0002202	5.9949e-05	821.76	2.3955e-06	2.1086e-06	1091.4	250.64	2.168e-06	2.0691e-06	441.36	208.63	96.572	46.061	2.1807e-06	118.93	377.844	233.456	220.479	151.523	274.342	279.807	150.925	155.520	276.794	293.948	155.265	159.319	158.895	162.368	294.693	161.259	-8191	255	
8497.857	1	1	0	0	0.18072	0.15458	0.16128	0.18081	0.15464	0.19941	0.26347	0.20675	0.44419	0.055549	0.29214	0.24171	0.21805	0.097704	0.088999	0.57072	-1.8771	-2.5646	-2.2542	-2.8271	-2.5208	-2.1979	-2.6979	-2.4667	-2.4979	-2.4813	-2.2313	-2.7417	-2.3958	-2.4938	-2.6458	-2.5396	327.758	284.138	224.296	415.790	249.984	448.367	482.795	496.952	163.102	460.368	374.752	485.964	424.831	284.152	409.038	463.184	0.0038812	0.00096655	0.00020786	885.02	8.9986e-06	7.9569e-06	1169.3	266.25	1.8832e-05	8.0802e-06	479.68	223.73	104.97	49.436	1.1454e-05	126.81	0.00072659	0.00021127	5.7392e-05	825.65	2.258e-06	2.3025e-06	1095.5	250.33	2.4196e-06	2.1444e-06	439.98	210.77	97.72	46.569	2.3777e-06	120.21	378.958	221.363	210.386	151.118	279.132	285.206	150.972	155.201	279.322	284.370	154.637	159.166	158.755	162.606	280.419	161.561	-8191	255	
8497.954	1	1	0	0	0.093879	0.1549	0.070032	0.087858	0.11444	0.21337	0.26746	0.22441	0.048142	0.096734	0.3176	0.28524	0.10965	0.056748	0.10675	0.24004	-2.075	-2.4146	-2.3667	-2.5979	-2.5187	-2.4562	-2.7938	-2.3187	-2.5104	-2.5292	-2.1104	-2.8312	-2.4021	-2.4146	-2.7104	-2.7396	494.112	176.620	361.974	139.927	269.873	375.664	405.252	167.391	202.603	175.495	428.514	486.641	412.135	465.853	357.705	494.005	0.0040553	0.00097457	0.00022127	879.48	1.1554e-05	7.7249e-06	1171.1	268.44	1.6033e-05	7.6992e-06	477.37	224.46	104.49	49.254	1.1122e-05	126.89	0.00075646	0.00020201	5.578e-05	821.99	2.3226e-06	2.1864e-06	1096.8	250.25	2.4619e-06	1.9998e-06	441.99	211.42	97.432	46.516	2.2918e-06	120.49	378.394	230.410	229.479	150.912	277.896	289.435	151.038	155.591	276.476	288.132	155.272	158.995	159.048	162.709	265.678	161.564	-8191	255	
8498.050	1	1	0	0	0.11251	0.24976	0.23002	0.36829	0.21657	0.054961	0.13329	0.31309	0.3126	0.10353	0.060901	0.36992	0.057422	0.19757	0.034032	0.25272	-2.0042	-2.5333	-2.2667	-2.5438	-2.3646	-2.1292	-2.6312	-2.5271	-2.3792	-2.6063	-2.5104	-2.7167	-2.4646	-2.4292	-2.6312	-2.5417	353.293	305.405	325.330	449.593	207.798	413.975	474.390	442.717	182.736	323.846	196.468	459.472	330.693	495.045	279.969	144.383	0.0042632	0.00071835	0.00022174	876.32	1.0599e-05	6.9622e-06	1163.9	265.17	1.7816e-05	7.7332e-06	481.13	221.76	104.25	48.968	9.5361e-06	125.65	0.00076979	0.00019346	5.6973e-05	819.34	2.4028e-06	2.0957e-06	1090.3	248.59	2.4544e-06	2.1107e-06	440.51	210.44	96.763	46.199	2.3953e-06	119.52	377.622	227.465	233.520	151.537	277.649	295.420	150.912	155.169	273.132	288.376	155.574	159.047	158.681	162.615	276.973	161.514	-8191	255	
8498.146	1	1	0	0	0.21603	0.1224	0.032446	0.17923	0.22297	0.066948	0.10019	0.23301	0.074656	0.019135	0.18596	0.23098	0.14961	0.12742	0.065434	0.086844	-1.9083	-2.6417	-2.225	-2.5979	-2.6437	-2.4042	-2.6146	-2.6146	-2.4042	-2.5062	-2.4062	-2.4813	-2.5167	-2.4375	-2.5375	-2.5292	385.324	475.027	278.070	470.886	397.314	436.907	191.736	412.257	410.501	174.378	275.681	168.805	471.150	468.073	462.098	467.084	0.0040048	0.00071293	0.00023305	874.6	1.5266e-05	7.4394e-06	1161.8	265.53	1.6532e-05	7.1778e-06	470.08	221.26	103.95	48.863	1.0813e-05	125.63	0.00074688	0.0001796	6.0226e-05	817.36	2.4445e-06	1.9679e-06	1085.8	248.12	2.2417e-06	1.9521e-06	435.04	208.76	96.449	46.071	2.4594e-06	119.35	377.306	215.893	222.023	151.038	276.062	256.872	150.810	155.427	255.835	295.128	154.862	159.007	159.064	162.151	275.993	161.234	-8191	255	
8498.266	1	1	0	0	0.15494	0.15178	0.5368	0.28861	0.14066	0.18597	0.20727	0.42272	0.23036	0.22484	0.070844	0.31822	0.22704	0.19438	0.046142	0.21542	-1.8375	-2.6229	-2.2458	-2.5708	-2.5167	-2.3229	-2.7896	-2.5667	-2.3104	-2.5729	-2.3646	-2.6583	-2.4854	-2.3708	-2.5875	-2.6792	421.997	468.140	255.146	425.176	187.154	326.862	418.433	445.458	371.355	439.862	429.586	141.678	492.534	385.988	404.577	488.638	0.0040942	0.00057159	0.00027199	868.84	1.0331e-05	8.0911e-06	1159.2	265.19	1.7008e-05	7.7837e-06	476.94	221.86	103.67	48.848	1.2398e-05	126.18	0.00075468	0.00019258	6.1199e-05	815.38	2.1511e-06	2.2084e-06	1086.9	248.07	2.2399e-06	2.0872e-06	437.51	209.9	96.654	46.206	2.4425e-06	120	378.882	217.756	233.301	151.008	281.493	285.447	150.877	155.792	280.562	286.329	156.027	158.978	159.222	162.504	283.422	161.370	-8191	255	
8498.361	1	1	0	0	0.1508	0.16223	0.020207	0.098641	0.064978	0.29696	0.030954	0.14831	0.14081	0.1999	0.1911	0.29275	0.26381	0.14623	0.16631	0.48456	-1.8542	-2.5021	-2.3875	-2.4708	-2.5438	-2.3083	-2.7375	-2.5625	-2.2188	-2.7	-2.4271	-2.6167	-2.6104	-2.4208	-2.3937	-2.7625	259.440	404.814	315.897	461.444	330.301	369.889	436.587	370.914	224.658	408.371	432.455	443.278	345.940	183.632	270.258	463.366	0.0040948	0.00079895	0.00017751	866.81	1.2715e-05	7.7014e-06	1163.7	263.81	1.4845e-05	8.4478e-06	479.12	223.28	104.83	49.303	1.1336e-05	127.33	0.00076061	0.00020157	6.2305e-05	811.92	2.1178e-06	2.2551e-06	1086.8	247.14	2.2554e-06	2.2451e-06	442.15	211.23	97.212	46.587	2.4698e-06	121.21	377.084	222.707	216.515	151.034	269.547	285.993	151.082	155.436	261.686	291.325	155.759	158.849	159.013	162.480	276.371	161.426	-8191	255	
8498.457	1	1	0	0	0.07703	0.25835	0.086024	0.057471	0.10946	0.31455	0.10684	0.43116	0.1618	0.095747	0.18099	0.42854	0.12196	0.19514	0.076165	0.22586	-1.8771	-2.8187	-2.4979	-2.4	-2.6021	-2.1833	-2.6667	-2.6771	-2.4604	-2.5104	-2.4167	-2.3937	-2.5333	-2.4417	-2.4229	-2.5958	395.124	267.488	274.135	483.599	195.206	335.661	183.614	470.902	425.513	346.013	475.096	153.654	357.513	487.383	490.764	469.200	0.0040912	0.0006628	0.00019552	873.67	1.3118e-05	9.7979e-06	1166.6	265.99	1.7827e-05	6.9554e-06	482.58	224.12	105.26	49.557	1.0325e-05	127.14	0.00074902	0.00020807	5.93e-05	816.35	2.3098e-06	2.4334e-06	1090.4	249.35	2.3848e-06	2.2292e-06	441.9	212.02	97.753	46.783	2.4432e-06	120.89	378.032	234.599	219.839	150.894	269.237	295.965	151.025	155.363	271.936	291.687	154.471	159.445	158.726	162.478	275.291	161.299	-8191	255	
8498.530	1	1	0	0	0.17125	0.15946	0.12529	0.16807	0.14654	0.10721	0.22401	0.23299	0.12672	0.24253	0.15298	0.2904	0.26275	0.14529	0.13177	0.20071	-1.9042	-2.425	-2.5521	-2.5687	-2.5208	-2.2917	-2.4792	-2.5583	-2.2833	-2.7021	-2.4646	-2.4062	-2.6125	-2.4458	-2.2938	-2.7	356.157	202.400	385.818	439.065	203.834	215.471	449.586	451.973	461.991	304.643	350.231	438.460	141.910	311.746	295.190	467.774	0.0041005	0.00081477	0.00022466	871.48	1.1493e-05	6.3676e-06	1156.9	264.78	1.4916e-05	7.3216e-06	482.29	222.42	103.87	48.947	9.8042e-06	125.73	0.00076348	0.00021611	5.8823e-05	814.47	2.2889e-06	2.227e-06	1085.7	247.28	2.3752e-06	2.1906e-06	439.6	210.05	96.626	46.175	2.45e-06	119.55	378.258	219.598	233.381	151.111	294.763	305.253	151.176	155.188	284.761	277.017	154.906	159.108	158.966	162.254	291.710	161.392	-8191	255	
8498.649	1	1	0	0	0.2588	0.11626	0.0098791	0.036679	0.11799	0.068361	0.21638	0.034064	0.22454	0.27794	0.1763	0.30716	0.30946	0.15119	0.29973	0.25852	-1.8021	-2.4521	-2.4667	-2.3438	-2.4417	-2.2417	-2.6854	-2.6271	-2.3125	-2.4354	-2.4583	-2.4958	-2.5542	-2.5438	-2.3021	-2.9292	343.768	244.825	144.848	182.720	414.962	195.167	497.496	141.575	402.835	347.247	279.276	475.810	476.719	455.071	450.800	416.379	0.0040475	0.0007699	0.00019555	861.95	8.8238e-06	8.0394e-06	1153.8	264.17	1.5369e-05	6.7575e-06	474.3	224.04	104.43	49.175	1.0665e-05	127.05	0.00075822	0.00021158	5.9539e-05	808.8	2.3327e-06	2.2873e-06	1082.2	246.43	2.368e-06	2.0532e-06	437.61	210.81	96.964	46.456	2.4432e-06	120.72	377.928	225.153	220.318	150.745	264.426	280.916	151.007	155.609	282.233	278.687	155.383	159.063	158.686	162.554	290.376	161.382	-8191	255	
8498.745	1	1	0	0	0.13384	0.16033	0.095569	0.26279	0.034437	0.14466	0.18539	0.13478	0.27397	0.19371	0.28691	0.39818	0.17067	0.34296	0.1639	0.27898	-1.7979	-2.2625	-2.5104	-2.1937	-2.4708	-2.5458	-2.35	-2.5062	-2.3333	-2.3104	-2.4437	-2.55	-2.5708	-2.6167	-2.2417	-2.675	244.168	374.316	159.238	304.082	321.829	354.112	453.836	333.341	289.596	243.906	355.385	466.344	437.001	435.617	466.151	420.046	0.0040816	0.00070293	0.00020316	864.16	1.2364e-05	8.0292e-06	1167	261.92	1.5831e-05	7.7751e-06	476.17	221.38	102.69	48.295	1.0736e-05	125.44	0.00077275	0.00020841	5.7679e-05	810.34	2.3504e-06	2.4023e-06	1084.9	246.67	2.5001e-06	2.2599e-06	439.49	209.58	95.193	45.523	2.2623e-06	118.99	377.425	212.031	232.770	151.270	273.620	278.058	150.823	155.631	269.625	287.992	155.063	159.117	159.144	162.515	276.310	161.379	-8191	255	
8498.842	1	1	0	0	0.26715	0.27822	0.087592	0.19587	0.23621	0.11926	0.34687	0.086051	0.1984	0.076245	0.20724	0.39923	0.26325	0.12013	0.21447	0.45059	-1.7833	-2.2479	-2.3854	-2.2729	-2.5	-2.4646	-2.2854	-2.7313	-2.3896	-2.4833	-2.6021	-2.4729	-2.4771	-2.6	-2.0875	-2.7583	283.509	294.126	438.185	453.011	450.932	410.564	423.895	462.851	179.176	447.136	356.898	496.663	144.682	439.119	419.263	446.759	0.0039978	0.00079611	0.00019036	845.49	1.5172e-05	6.2101e-06	1134.6	257.31	1.1771e-05	6.8947e-06	472.39	218	100.24	47.077	9.7291e-06	123.18	0.00075543	0.00022503	5.1687e-05	793.65	2.5001e-06	2.2816e-06	1063.2	240.56	2.4526e-06	2.2311e-06	435.29	205.57	92.862	44.337	2.3612e-06	116.38	378.762	214.900	198.671	151.149	282.164	291.977	151.156	155.594	266.122	295.701	155.341	158.995	158.928	162.382	290.501	161.488	-8191	255	
8498.938	1	1	0	0	0.11593	0.10125	0.15833	0.31533	0.039667	0.27132	0.2303	0.24171	0.15732	0.12726	0.10191	0.23448	0.16745	0.21614	0.09344	0.36655	-1.7146	-2.4229	-2.5062	-2.4	-2.3708	-2.5396	-2.4104	-2.6875	-2.2083	-2.3187	-2.5271	-2.5146	-2.5021	-2.5417	-2.2062	-2.8125	305.705	489.943	491.174	479.429	258.346	273.621	402.407	373.434	315.709	308.384	226.817	474.930	261.311	414.680	263.922	452.124	0.003891	0.00087024	0.00021592	843.11	9.7716e-06	5.168e-06	1127.1	255.06	1.4709e-05	6.398e-06	466.64	215.92	99.541	46.929	8.8397e-06	122.26	0.00072981	0.00022241	5.081e-05	789.01	2.3542e-06	2.1022e-06	1052	238.75	2.3879e-06	2.1459e-06	432.57	203.86	92.724	44.166	2.3594e-06	115.99	377.496	218.527	232.395	151.050	282.494	293.454	151.164	155.640	267.332	285.131	154.667	159.078	159.072	162.623	279.124	161.461	-8191	255	
8499.058	1	1	0	0	0.023293	0.17547	0.036366	0.087273	0.25296	0.16855	0.092631	0.045192	0.25858	0.10578	0.31914	0.33597	0.28069	0.17135	0.15106	0.32709	-1.9875	-2.175	-2.5625	-2.3208	-2.4229	-2.5667	-2.2146	-2.6458	-2.4208	-2.2979	-2.525	-2.4021	-2.4375	-2.5479	-2.2938	-2.5375	335.029	448.815	312.737	183.413	438.897	437.506	405.034	410.029	205.887	256.143	275.126	471.864	167.307	230.857	368.240	472.383	0.003954	0.0007633	0.00019083	847.22	1.2131e-05	5.6999e-06	1130.8	257.48	1.5376e-05	5.1958e-06	478.43	219.29	101.94	47.408	1.1995e-05	124.09	0.00074693	0.00018587	5.516e-05	794.31	2.291e-06	2.018e-06	1060.7	241.44	2.4433e-06	1.9805e-06	435.96	206.32	94.429	44.899	2.527e-06	117.97	378.242	213.768	221.934	151.240	291.307	288.638	151.061	155.197	263.152	275.734	154.778	159.177	158.957	162.269	288.575	161.427	-8191	255	
8499.155	1	1	0	0	0.14345	0.079054	0.12585	0.27012	0.18005	0.11676	0.27891	0.011519	0.30632	0.22122	0.13929	0.29473	0.17172	0.19128	0.18366	0.3549	-1.8354	-2.1708	-2.5458	-2.3417	-2.3354	-2.5417	-2.1417	-2.7062	-2.5687	-2.2667	-2.4354	-2.4625	-2.2521	-2.6667	-2.2938	-2.5542	188.056	453.171	142.836	463.809	192.338	463.649	464.172	408.514	145.394	261.527	170.215	493.932	446.808	492.160	409.654	472.351	0.0040025	0.00071743	0.00018704	853.77	1.0452e-05	7.874e-06	1144.5	260.92	1.2884e-05	9.2216e-06	477.36	219.4	101.39	47.793	1.1824e-05	124.39	0.00073376	0.00020933	5.8823e-05	800.04	2.2407e-06	2.1276e-06	1070.6	243.35	2.2733e-06	2.141e-06	437.73	207.72	94.148	44.97	2.6187e-06	118.31	378.551	217.474	212.636	151.179	283.526	284.207	150.932	155.290	287.878	284.606	154.829	159.084	159.080	162.806	286.383	161.680	-8191	255	
8499.251	1	1	0	0	0.22885	0.07842	0.14436	0.26545	0.087763	0.11854	0.19025	0.063891	0.14003	0.21814	0.12094	0.22544	0.15806	0.26401	0.13553	0.20961	-2.1396	-2.1937	-2.6083	-2.4188	-2.325	-2.4229	-2.3333	-2.4396	-2.2708	-2.3958	-2.5187	-2.5646	-2.3875	-2.6063	-2.3312	-2.6146	197.721	349.722	198.924	461.049	407.707	491.080	439.154	425.764	338.147	358.612	345.104	432.891	381.035	418.080	184.789	459.158	0.0040526	0.00073638	0.00016624	853.03	1.4027e-05	6.7362e-06	1145.7	258.63	1.515e-05	8.4213e-06	476.07	218.65	100.54	47.036	9.403e-06	123.19	0.00074716	0.0002142	5.6486e-05	798.9	2.1476e-06	2.0885e-06	1071.9	242.38	2.1188e-06	2.2568e-06	434.5	206.22	93.368	44.443	2.3454e-06	116.83	379.899	218.108	230.650	151.336	286.937	287.639	150.688	155.486	272.763	270.512	154.655	158.934	159.173	162.354	286.208	161.320	-8191	255	
8499.347	1	1	0	0	0.39942	0.16712	0.10835	0.15247	0.1502	0.12514	0.25442	0.064458	0.21609	0.089948	0.2614	0.22161	0.097029	0.20867	0.2044	0.14103	-2.2396	-2.1271	-2.5187	-2.5854	-2.4521	-2.6583	-2.5563	-2.4542	-2.7313	-2.2104	-2.475	-2.5979	-2.4146	-2.6604	-2.3792	-2.6167	354.003	473.210	312.443	471.162	463.499	159.943	380.258	353.577	455.641	478.849	428.172	495.865	406.708	481.839	355.968	450.303	0.0039524	0.00080675	0.00019895	856.45	1.2457e-05	6.3164e-06	1134.3	257.94	1.557e-05	5.9077e-06	468.25	217.18	100.1	46.739	1.0897e-05	122.44	0.00072622	0.00021788	5.4292e-05	798.38	2.2469e-06	2.0878e-06	1063.5	240.94	2.2833e-06	2.3681e-06	429.05	204.8	93.091	44.14	2.5424e-06	116.48	378.611	215.141	222.824	151.034	265.775	284.347	150.813	155.541	264.962	293.261	154.659	159.086	158.768	162.552	283.700	161.378	-8191	255	
8499.441	1	1	0	0	0.34675	0.2363	0.21617	0.22999	0.064971	0.073005	0.25226	0.28024	0.07388	0.15637	0.30843	0.15644	0.24271	0.2385	0.25829	0.26175	-2.1396	-2.2771	-2.3542	-2.6562	-2.2812	-2.65	-2.7104	-2.45	-2.7	-2.4125	-2.3271	-2.675	-2.3583	-2.7271	-2.4479	-2.675	145.330	333.932	297.921	446.416	364.981	181.298	488.843	307.671	298.842	397.629	283.991	431.609	468.316	270.117	277.268	434.608	0.003851	0.00079918	0.000225	851.37	1.0956e-05	7.6616e-06	1136.9	257.13	1.4573e-05	5.7109e-06	468.31	218.93	100.81	47.184	1.1639e-05	124.14	0.00072669	0.0002095	5.6696e-05	795.21	2.2601e-06	2.1022e-06	1062.5	240.92	2.2028e-06	2.3064e-06	431.88	206.51	93.815	44.598	2.4169e-06	117.91	377.161	227.686	204.029	151.047	275.684	277.203	151.186	155.140	276.343	287.795	154.742	158.983	158.992	162.425	289.004	161.288	-8191	255	
8499.539	1	1	0	0	0.2315	0.12637	0.10522	0.17206	0.20199	0.10688	0.09459	0.10944	0.22557	0.057244	0.16165	0.33043	0.13068	0.26028	0.18014	0.31249	-2.0146	-2.2875	-2.2604	-2.6	-2.3271	-2.5917	-2.6104	-2.4375	-2.5021	-2.2583	-2.4188	-2.6292	-2.4375	-2.6583	-2.4396	-2.6521	187.468	425.480	312.048	443.067	482.777	429.533	490.848	377.835	434.961	430.404	276.826	454.240	325.984	423.651	314.814	444.865	0.0038951	0.00093785	0.00015986	853.6	1.2994e-05	7.2335e-06	1142.5	259.35	1.4325e-05	6.9416e-06	475.95	220.88	101.67	47.854	1.0268e-05	124.95	0.00073595	0.00021185	5.4111e-05	797.75	2.5348e-06	2.1724e-06	1069.9	242.22	2.3501e-06	2.289e-06	435.87	208.18	94.624	45.03	2.4029e-06	119	378.032	226.568	226.537	151.099	272.611	268.744	150.863	155.312	262.156	277.064	154.757	158.761	158.834	162.544	267.343	161.307	-8191	255	
8499.658	1	1	0	0	0.11035	0.13078	0.11483	0.11691	0.026856	0.18158	0.26095	0.13756	0.194	0.16267	0.29068	0.088387	0.04275	0.20319	0.13748	0.32199	-2.0708	-2.4271	-2.1875	-2.5938	-2.2625	-2.4167	-2.5708	-2.3354	-2.6458	-2.4167	-2.3271	-2.65	-2.4625	-2.3708	-2.4646	-2.525	228.726	395.867	256.314	337.612	426.992	360.814	417.714	333.088	172.269	454.816	182.990	261.644	389.643	422.313	419.299	426.795	0.0038223	0.00083708	0.00016989	848.22	1.3405e-05	9.3326e-06	1146	256.3	1.7526e-05	6.4487e-06	471.44	218.81	100.22	47.199	1.1667e-05	123.36	0.00072989	0.0002127	5.1926e-05	795.95	2.4941e-06	2.1894e-06	1069.3	240.51	2.3022e-06	2.3662e-06	432.78	206.75	93.288	44.568	2.277e-06	117.57	378.147	224.505	222.040	151.174	274.759	288.746	151.034	155.335	269.110	271.392	154.541	158.972	158.753	162.512	284.454	161.322	-8191	255	
8499.754	1	1	0	0	0.13858	0.044219	0.065331	0.37568	0.16685	0.31576	0.24735	0.13171	0.16571	0.20876	0.26131	0.21327	0.034333	0.46399	0.16082	0.1427	-2.1854	-2.2958	-2.3146	-2.7708	-2.2	-2.5833	-2.8229	-2.45	-2.5563	-2.375	-2.3458	-2.6667	-2.3438	-2.4229	-2.6396	-2.4104	432.964	200.153	362.408	141.428	154.180	344.856	424.509	475.579	293.022	444.124	213.023	456.535	475.873	447.606	460.293	405.433	0.0040387	0.00071227	0.00020098	842.61	7.9346e-06	6.0238e-06	1131.3	256.08	1.3669e-05	5.7988e-06	460.1	217.93	100.12	47.419	1.0416e-05	123.96	0.00075322	0.00021097	5.1382e-05	790.53	2.2289e-06	2.1397e-06	1059.7	239.29	2.2155e-06	2.1463e-06	428.49	205.36	93.297	44.651	2.3151e-06	117.86	377.579	217.875	230.801	150.975	283.132	278.666	150.851	155.383	266.725	299.975	154.945	158.965	158.713	162.530	273.653	161.330	-8191	255	
#DATA ENDS
