BOXY.EXE: ISS Imagent and Oximeter Data Acquisition Program Version 0.80
Ascii Record File

#ACQ INFORMATION
2  Detector Channels 
16  External MUX Channels 
1  Auxiliary Channels 
5000  Waveform (CCF) Frequency (Hz)
1  Waveforms Skipped 
30  Waveforms Averaged 
1  Cycles Averaged 
16  Acquisitions per Waveform 
10.0806  Updata Rate (Hz) 

#FILE INFORMATION
TRUE -- External MUX Channel results are PARSED.
FALSE -- AC DC and Phase are NOT grouped.
TRUE -- Companion Program Settings File CREATED.
FALSE -- AC data not excluded
FALSE -- DC data not excluded
FALSE -- Phase data not excluded
FALSE -- Auxillary Chn. data not excluded
Tab delimiters

#CALIBRATION STATE
TRUE -- Waveform Calibration Values APPLIED.


#AUX CALIBRATION VALUES
Val Type	aux-1	

Term	1.0000e+00	
Factor	0.0000e+00	


#WF CALIBRATION VALUES
A = Detector Channel
Val Type	A-AC1	A-AC2	A-AC3	A-AC4	A-AC5	A-AC6	A-AC7	A-AC8	A-AC9	A-AC10	A-AC11	A-AC12	A-AC13	A-AC14	A-AC15	A-AC16	A-DC1	A-DC2	A-DC3	A-DC4	A-DC5	A-DC6	A-DC7	A-DC8	A-DC9	A-DC10	A-DC11	A-DC12	A-DC13	A-DC14	A-DC15	A-DC16	A-Ph1	A-Ph2	A-Ph3	A-Ph4	A-Ph5	A-Ph6	A-Ph7	A-Ph8	A-Ph9	A-Ph10	A-Ph11	A-Ph12	A-Ph13	A-Ph14	A-Ph15	A-Ph16	

Term	0.00000e+00	0.00000e+00	0.00000e+00	0.00000e+00	0.00000e+00	0.00000e+00	0.00000e+00	0.00000e+00	0.00000e+00	0.00000e+00	0.00000e+00	0.00000e+00	0.00000e+00	0.00000e+00	0.00000e+00	0.00000e+00	0.00000e+00	0.00000e+00	0.00000e+00	0.00000e+00	0.00000e+00	0.00000e+00	0.00000e+00	0.00000e+00	0.00000e+00	0.00000e+00	0.00000e+00	0.00000e+00	0.00000e+00	0.00000e+00	0.00000e+00	0.00000e+00	0.00000e+00	0.00000e+00	0.00000e+00	0.00000e+00	0.00000e+00	0.00000e+00	0.00000e+00	0.00000e+00	0.00000e+00	0.00000e+00	0.00000e+00	0.00000e+00	0.00000e+00	0.00000e+00	0.00000e+00	0.00000e+00	
Factor	1.00000e+00	1.00000e+00	1.00000e+00	1.00000e+00	1.00000e+00	1.00000e+00	1.00000e+00	1.00000e+00	1.00000e+00	1.00000e+00	1.00000e+00	1.00000e+00	1.00000e+00	1.00000e+00	1.00000e+00	1.00000e+00	1.00000e+00	1.00000e+00	1.00000e+00	1.00000e+00	1.00000e+00	1.00000e+00	1.00000e+00	1.00000e+00	1.00000e+00	1.00000e+00	1.00000e+00	1.00000e+00	1.00000e+00	1.00000e+00	1.00000e+00	1.00000e+00	X	X	X	X	X	X	X	X	X	X	X	X	X	X	X	X	

B = Detector Channel
Val Type	B-AC1	B-AC2	B-AC3	B-AC4	B-AC5	B-AC6	B-AC7	B-AC8	B-AC9	B-AC10	B-AC11	B-AC12	B-AC13	B-AC14	B-AC15	B-AC16	B-DC1	B-DC2	B-DC3	B-DC4	B-DC5	B-DC6	B-DC7	B-DC8	B-DC9	B-DC10	B-DC11	B-DC12	B-DC13	B-DC14	B-DC15	B-DC16	B-Ph1	B-Ph2	B-Ph3	B-Ph4	B-Ph5	B-Ph6	B-Ph7	B-Ph8	B-Ph9	B-Ph10	B-Ph11	B-Ph12	B-Ph13	B-Ph14	B-Ph15	B-Ph16	

Term	0.00000e+00	0.00000e+00	0.00000e+00	0.00000e+00	0.00000e+00	0.00000e+00	0.00000e+00	0.00000e+00	0.00000e+00	0.00000e+00	0.00000e+00	0.00000e+00	0.00000e+00	0.00000e+00	0.00000e+00	0.00000e+00	0.00000e+00	0.00000e+00	0.00000e+00	0.00000e+00	0.00000e+00	0.00000e+00	0.00000e+00	0.00000e+00	0.00000e+00	0.00000e+00	0.00000e+00	0.00000e+00	0.00000e+00	0.00000e+00	0.00000e+00	0.00000e+00	-1.99800e+02	-1.32036e+02	-1.16888e+02	-1.84163e+02	-8.14992e+01	-6.94175e+01	-1.57306e+02	-1.62015e+02	-8.64931e+01	-6.67769e+01	-1.77797e+02	-1.71882e+02	-1.81595e+02	-1.77192e+02	-7.35172e+01	-1.50103e+02	
Factor	3.79814e-05	1.92844e-04	5.09745e-05	1.70467e-01	1.91118e-06	1.87975e-06	1.61549e-01	5.09297e-02	1.97878e-06	1.84182e-06	9.46997e-01	2.66704e-02	2.93344e-02	8.92146e-03	1.95588e-06	1.25256e-02	7.13065e-06	8.70306e-06	2.43209e-06	8.69350e-02	9.20906e-08	9.60395e-08	7.77383e-02	2.60149e-02	9.20560e-08	9.54915e-08	4.40650e-01	1.32784e-02	1.50708e-02	4.60272e-03	9.35434e-08	6.26721e-03	X	X	X	X	X	X	X	X	X	X	X	X	X	X	X	X	



#DISTANCE SETTINGS
A = Detector Channel
A-1	A-2	A-3	A-4	A-5	A-6	A-7	A-8	A-9	A-10	A-11	A-12	A-13	A-14	A-15	A-16	

2.5000e+00	3.0000e+00	2.5000e+00	3.0000e+00	2.0000e+00	3.0000e+00	1.5000e+00	3.0000e+00	3.0000e+00	3.0000e+00	3.0000e+00	3.0000e+00	3.0000e+00	3.0000e+00	1.5000e+00	3.0000e+00	

B = Detector Channel
B-1	B-2	B-3	B-4	B-5	B-6	B-7	B-8	B-9	B-10	B-11	B-12	B-13	B-14	B-15	B-16	

1.0000e+01	1.0000e+01	1.0000e+01	1.4400e+00	1.0000e+01	1.0000e+01	1.5100e+00	1.9400e+00	1.0000e+01	1.0000e+01	1.9900e+00	2.4900e+00	2.4100e+00	2.9000e+00	1.0000e+01	2.9800e+00	




#DATA BEGINS
time	group	step	mark	flag	A-AC1	A-AC2	A-AC3	A-AC4	A-AC5	A-AC6	A-AC7	A-AC8	A-AC9	A-AC10	A-AC11	A-AC12	A-AC13	A-AC14	A-AC15	A-AC16	A-DC1	A-DC2	A-DC3	A-DC4	A-DC5	A-DC6	A-DC7	A-DC8	A-DC9	A-DC10	A-DC11	A-DC12	A-DC13	A-DC14	A-DC15	A-DC16	A-Ph1	A-Ph2	A-Ph3	A-Ph4	A-Ph5	A-Ph6	A-Ph7	A-Ph8	A-Ph9	A-Ph10	A-Ph11	A-Ph12	A-Ph13	A-Ph14	A-Ph15	A-Ph16	B-AC1	B-AC2	B-AC3	B-AC4	B-AC5	B-AC6	B-AC7	B-AC8	B-AC9	B-AC10	B-AC11	B-AC12	B-AC13	B-AC14	B-AC15	B-AC16	B-DC1	B-DC2	B-DC3	B-DC4	B-DC5	B-DC6	B-DC7	B-DC8	B-DC9	B-DC10	B-DC11	B-DC12	B-DC13	B-DC14	B-DC15	B-DC16	B-Ph1	B-Ph2	B-Ph3	B-Ph4	B-Ph5	B-Ph6	B-Ph7	B-Ph8	B-Ph9	B-Ph10	B-Ph11	B-Ph12	B-Ph13	B-Ph14	B-Ph15	B-Ph16	aux-1	digaux	

2066.384	1	1	0	768	0.22314	0.094563	0.096957	0.16728	0.33772	0.16557	0.42845	0.34598	0.090542	0.02343	0.20918	0.13443	0.071416	0.085042	0.13641	0.46006	-2.5479	-2.5625	-2.9229	-3.1312	-2.7979	-3.1125	-2.7375	-3.025	-3.0667	-2.7875	-2.9708	-3.1375	-2.8458	-2.9854	-2.8792	-2.9938	-3.482	64.118	-12.292	-115.153	20.650	-22.909	181.807	152.309	7.104	138.342	99.812	68.750	66.953	145.454	-162.554	47.965	0.0011737	0.0040806	0.00055361	802.18	4.5011e-05	4.5247e-05	1041.7	239.18	2.9767e-05	2.6114e-05	432.54	165.32	87.752	29.653	2.5204e-05	80.5	0.063293	0.0771	0.021307	1547.8	0.00080257	0.00083884	1701.3	458.41	0.00080795	0.00084063	4224.9	278.61	216.08	68.696	0.00080439	133.59	171.708	-93.371	19.818	-150.828	-75.386	-43.085	-150.507	-145.721	14.076	-28.927	-146.606	-141.674	-142.297	-137.550	71.181	-137.896	-8191	255	
2066.480	1	1	0	0	0.19926	0.20931	0.191	0.27363	0.10749	0.17233	0.089223	0.067462	0.29261	0.3017	0.10111	0.13353	0.28003	0.21909	0.32449	0.22022	-2.5854	-2.9188	-3	-2.8833	-2.7854	-3.0312	-2.7396	-2.8063	-3.0396	-2.7	-3.0667	-3.0187	-2.7583	-3.0812	-2.675	-2.7396	136.344	130.193	-48.685	148.524	-32.066	-103.875	150.696	-147.559	44.169	158.809	-73.699	185.590	172.420	-26.684	161.705	85.549	0.0012924	0.0034381	0.00062057	795.21	3.6625e-05	2.1981e-05	1036.4	234.06	7.62e-06	2.1237e-05	435.35	164.25	87.051	30.289	6.4237e-05	81.414	0.061772	0.075003	0.020615	1510	0.0007649	0.00078355	1641.6	431.8	0.00070458	0.00070611	3532.3	255.15	188.28	60.437	0.00061547	120.96	146.479	19.765	-87.963	-150.597	-10.354	-27.371	-150.222	-145.166	-135.140	-153.333	-147.639	-141.368	-142.693	-136.930	-144.122	-137.512	-8191	255	
2066.576	1	1	0	0	0.26859	0.112	0.040327	0.14704	0.42362	0.21476	0.28545	0.050287	0.1045	0.06288	0.014263	0.09736	0.090045	0.080641	0.11934	0.11185	-2.6146	-2.6083	-2.9458	-2.9625	-2.7125	-3.0708	-3.0375	-3.0167	-3.0646	-2.7917	-3.0021	-3.0854	-2.7604	-2.8104	-2.8563	-2.9188	3.065	-121.658	-86.878	-103.388	6.534	-47.369	144.999	-112.547	63.329	15.932	-107.358	90.721	-107.568	35.678	119.909	138.754	0.0015588	0.0035937	0.00059728	759.87	2.4827e-05	3.8421e-05	1012.7	225.3	3.4903e-05	1.4553e-05	414.94	159.52	84.996	29.855	1.8845e-05	81	0.045985	0.055228	0.015123	1279.3	0.00056474	0.00057622	1446.4	372.04	0.00054136	0.00056067	2934.7	234.37	169.34	55.454	0.00053382	115.36	138.138	-20.130	-58.908	-150.502	113.137	-39.691	-150.386	-145.724	-141.460	-117.239	-146.920	-141.269	-142.732	-137.438	-90.311	-137.781	-8191	255	
2066.672	1	1	0	0	0.17176	0.13736	0.10688	0.12858	0.12203	0.067333	0.21791	0.36998	0.14373	0.15235	0.18076	0.33388	0.12626	0.25093	0.054086	0.26884	-2.4458	-2.6979	-2.9792	-3.1646	-2.6562	-2.9354	-3.0208	-2.9458	-2.9521	-2.7646	-2.9437	-3.0729	-2.8417	-2.9208	-2.7583	-2.7833	-140.380	1.234	-78.792	174.152	-127.636	-113.149	87.340	52.778	127.883	-22.911	148.555	-128.815	-132.478	101.345	70.809	-22.595	0.0017326	0.0043032	0.0009269	747.31	3.5526e-05	5.8077e-06	996.46	224.23	5.8648e-05	1.3821e-05	397.51	162.14	83.873	30.532	4.9254e-05	82.454	0.040713	0.049311	0.013614	1216.4	0.000519	0.00053458	1408.9	363.49	0.00051508	0.00053682	2862.7	234.03	168.84	56.371	0.00054668	118.41	134.748	182.846	142.103	-150.001	-121.658	43.052	-150.276	-145.520	45.216	137.715	-146.865	-141.120	-142.739	-137.330	157.686	-137.576	-8191	255	
2066.769	1	1	0	0	0.07735	0.28252	0.078045	0.21291	0.055624	0.035296	0.22381	0.19716	0.050588	0.086849	0.060393	0.12337	0.063213	0.37825	0.3529	0.17742	-2.4313	-2.5687	-2.7792	-2.9833	-2.825	-2.8333	-2.9604	-2.5938	-2.7958	-2.9646	-2.8375	-3.2417	-2.6729	-3.1021	-2.7833	-2.7604	-151.923	177.766	78.698	114.207	134.640	-95.867	140.981	59.912	-100.511	136.858	39.312	-151.344	-41.650	-138.574	-150.350	116.749	0.001918	0.00077864	0.00074942	752.09	3.4647e-05	3.6722e-05	995.52	225.47	2.4689e-05	3.3455e-05	437.17	161.84	84.81	31.011	2.6478e-05	84.256	0.042089	0.051615	0.014374	1245.9	0.00054017	0.00055387	1421.9	366.91	0.00051698	0.00053648	2834.9	232.68	164.76	55.169	0.00050281	116.43	144.090	-149.229	-85.325	-150.235	-13.287	33.926	-150.012	-145.480	21.563	26.515	-144.129	-141.113	-142.278	-137.016	-56.504	-137.787	-8191	255	
2066.865	1	1	0	0	0.092291	0.14956	0.25299	0.15906	0.29348	0.18137	0.1138	0.26157	0.46399	0.092935	0.16923	0.38983	0.16089	0.06873	0.024981	0.27687	-2.3396	-2.8917	-2.6958	-3.1583	-2.6167	-2.9333	-3.0229	-2.7917	-2.7604	-2.7438	-2.7896	-3.0604	-2.7292	-2.975	-2.7708	-2.7542	21.523	-70.928	190.779	192.596	81.534	183.783	25.380	148.138	-91.766	142.535	126.617	160.778	-63.123	175.852	-32.786	66.710	0.0013891	0.0029171	0.00064901	740.41	7.6486e-06	2.1269e-05	995.81	225.69	3.1094e-05	1.8889e-05	412.48	164.65	86.409	32.248	2.8224e-05	86.333	0.037365	0.044917	0.012395	1154.6	0.0004521	0.00045942	1340.7	342.06	0.00042757	0.00044419	2413.2	221.56	150.85	51.637	0.00040965	112.13	131.575	58.059	108.996	-150.454	84.468	77.426	-150.191	-145.237	32.267	-78.592	-146.247	-141.340	-141.903	-137.253	156.302	-137.946	-8191	255	
2066.984	1	1	0	0	0.15057	0.14892	0.22858	0.053167	0.41249	0.070565	0.3156	0.35219	0.19711	0.096392	0.17438	0.16658	0.39178	0.19559	0.25502	0.22916	-2.6083	-2.9104	-2.7021	-3.2458	-2.6729	-2.65	-3.0208	-2.6771	-3.0812	-2.8833	-2.6729	-3.1625	-2.6437	-2.6479	-2.9958	-2.9667	-56.864	-156.855	177.640	138.020	187.668	-157.052	185.294	166.082	-107.826	-56.491	-36.198	179.437	-137.138	161.748	98.429	119.867	0.0016336	0.0032994	0.00041913	731.05	3.362e-05	2.6227e-05	981.07	223.61	8.2562e-06	4.509e-05	421.09	163.58	85.4	32.682	1.6481e-05	87.187	0.030184	0.036622	0.010118	1063.4	0.00036732	0.00037393	1255.8	315.41	0.00033443	0.00034457	1940.5	205.55	132.94	46.915	0.00030365	105.35	134.620	107.618	147.078	-150.122	80.265	1.731	-150.277	-145.304	128.960	-60.512	-145.167	-141.019	-142.233	-137.803	49.020	-137.567	-8191	255	
2067.080	1	1	0	0	0.11721	0.14675	0.262	0.17686	0.11999	0.068816	0.14651	0.11619	0.057506	0.19398	0.14212	0.19011	0.2418	0.17993	0.15063	0.2377	-2.4208	-2.7979	-2.7313	-3.0542	-2.8958	-2.8333	-2.9021	-2.6771	-2.6458	-2.7375	-2.4646	-2.9792	-2.875	-2.7687	-2.8521	-2.8479	146.848	137.632	-120.190	-109.896	60.123	-111.940	176.826	177.846	60.915	-45.876	-144.299	-157.836	126.777	-105.118	-95.341	135.071	0.0022561	0.0023703	0.00029424	724.13	2.2552e-05	2.108e-05	984.4	229.44	2.3971e-06	1.5515e-05	425.9	170.09	87.74	34.831	1.712e-05	92.293	0.02178	0.025735	0.0069358	934.26	0.0002402	0.00023955	1143.3	281.95	0.00020345	0.00020795	1328.8	192.83	114.9	42.691	0.00017838	102.22	115.605	16.412	-103.375	-149.883	-5.841	188.445	-149.923	-144.829	-160.401	16.912	-144.496	-141.148	-142.381	-137.564	-121.359	-137.935	-8191	255	
2067.176	1	1	0	0	0.08583	0.21266	0.080582	0.15315	0.13122	0.18312	0.22522	0.096202	0.24134	0.22516	0.17375	0.076267	0.14383	0.30962	0.23467	0.14697	-2.2292	-2.6292	-2.5812	-2.8417	-2.5104	-2.6417	-3.0646	-2.7083	-2.6542	-2.8	-2.7333	-3.15	-2.8958	-2.725	-2.8438	-2.9396	5.421	54.163	-92.400	135.846	80.933	-153.432	125.879	-92.501	-85.687	-84.758	-55.954	189.879	112.963	145.923	181.741	111.165	0.0016845	0.002187	0.00047912	727.74	7.3753e-06	6.0315e-06	992.52	234.95	3.4047e-05	4.9779e-06	451.61	173.59	89.294	36.04	8.3073e-06	94.681	0.013362	0.016384	0.0046084	863.27	0.00017436	0.00018378	1113.5	277.43	0.00017459	0.00018429	1257.9	194.35	115.27	43.827	0.00017943	104.5	129.684	-86.514	-127.397	-150.055	138.002	-13.544	-149.848	-145.138	-96.469	40.762	-145.001	-141.146	-142.167	-137.168	-99.803	-137.908	-8191	255	
2067.272	1	1	0	0	0.13075	0.092548	0.23624	0.15906	0.11981	0.18606	0.17326	0.41454	0.19808	0.19325	0.073225	0.13954	0.12653	0.21839	0.16862	0.19648	-2.2646	-2.6625	-2.6625	-2.8875	-2.8417	-2.5458	-3.1854	-2.7562	-2.7938	-2.8333	-2.5521	-3.1604	-2.8479	-2.7125	-2.8854	-2.9313	110.756	-22.956	90.468	-53.346	50.300	148.532	55.716	133.917	55.133	24.335	118.258	190.728	122.687	70.049	-141.498	124.864	0.0018508	0.0035206	0.00016503	727.73	5.2283e-06	2.7274e-05	997.67	237.41	3.3955e-06	1.6289e-05	459.27	175.99	90.452	36.646	2.9531e-05	95.928	0.013751	0.016806	0.0046971	869.31	0.00017838	0.00018633	1118	279.44	0.00017938	0.00018902	1281.9	197.37	117.48	44.861	0.00018743	106.5	138.413	-123.104	-106.172	-149.824	-151.158	-3.096	-149.705	-144.879	95.106	-12.298	-145.618	-141.126	-142.283	-137.466	-34.396	-137.812	-8191	255	
2067.368	1	1	0	0	0.066328	0.19929	0.28927	0.36752	0.090311	0.046436	0.072203	0.11873	0.14269	0.18863	0.057618	0.083387	0.20596	0.2914	0.21369	0.25194	-2.3917	-2.9375	-2.6917	-2.7146	-2.8563	-2.7188	-3.1729	-2.875	-2.9688	-2.7542	-2.4917	-2.95	-2.9125	-2.7958	-3	-2.8875	-159.607	111.229	128.113	125.497	180.135	33.422	-14.738	-123.386	-129.943	185.755	101.449	-117.008	124.207	149.426	21.685	111.256	0.0014549	0.0031913	0.00031267	721.79	1.0373e-05	1.2304e-05	978.34	234.24	1.5136e-05	5.598e-06	439.53	171.26	87.853	35.904	8.4217e-06	94.023	0.014707	0.017933	0.0050405	873.46	0.00019202	0.00020105	1109.7	280.3	0.00019415	0.00020297	1338.3	194.62	116.58	44.541	0.00018807	104.64	145.366	-69.146	-86.679	-150.207	16.507	-42.778	-149.768	-145.101	-20.656	-124.652	-146.699	-141.156	-142.519	-137.113	-14.258	-137.936	-8191	255	
2067.464	1	1	0	0	0.025458	0.3008	0.1459	0.048112	0.07499	0.24933	0.34996	0.34236	0.081336	0.14314	0.071393	0.2298	0.10798	0.094007	0.15397	0.41866	-2.3146	-2.9729	-2.7104	-2.8292	-2.8229	-2.7104	-3.1521	-2.8896	-2.6021	-3.0271	-2.725	-2.8688	-2.8583	-2.7438	-2.9292	-2.9208	-103.429	159.187	-81.323	-81.559	68.770	-2.625	159.931	137.080	84.576	66.002	109.516	-127.501	160.047	-71.357	-4.886	100.911	0.001536	0.0022181	0.00017835	713.68	6.2095e-06	2.8573e-05	975.17	232.06	1.2917e-05	7.0355e-06	429.37	174.14	89.362	37.135	3.1144e-05	95.555	0.014273	0.017017	0.0046896	847.72	0.00017214	0.00017592	1087.9	272.59	0.00016372	0.00016881	1178.8	193.01	112.83	44.009	0.00016218	104.97	132.485	-95.780	-136.400	-149.957	100.913	-43.679	-149.720	-144.880	76.083	-57.880	-145.275	-141.081	-142.195	-137.190	2.480	-137.838	-8191	255	
2067.585	1	1	0	0	0.21265	0.26222	0.22361	0.14921	0.27159	0.026626	0.14099	0.34971	0.15339	0.10395	0.18592	0.23578	0.10222	0.15164	0.18524	0.18561	-2.1437	-2.975	-2.575	-2.8625	-3.0854	-2.7708	-2.9688	-2.8417	-2.6562	-2.9604	-2.7083	-2.8375	-3.0271	-2.7021	-2.8896	-2.9917	183.636	192.247	100.941	136.157	67.553	-85.364	-123.201	157.904	-128.386	108.243	124.159	135.951	-149.154	86.173	-146.037	157.743	0.001849	0.001596	0.00037321	717.28	5.2215e-06	2.5332e-05	988.44	235.68	9.2274e-06	2.2283e-05	441.01	176.12	91.036	37.45	7.2767e-06	97.196	0.01279	0.015264	0.0043162	847.07	0.00016487	0.00017102	1091.8	274.47	0.00016318	0.00016672	1187.4	195.11	114.4	44.646	0.00016493	106.53	127.418	2.857	-67.360	-150.042	86.790	10.918	-149.914	-144.860	-115.569	-31.155	-144.591	-141.112	-142.389	-137.325	62.982	-137.830	-8191	255	
2067.679	1	1	0	0	0.16434	0.20897	0.095341	0.15273	0.12573	0.19911	0.1047	0.1364	0.21547	0.12165	0.073604	0.15455	0.21998	0.049412	0.076377	0.375	-2.1479	-2.8604	-2.6833	-2.875	-2.9604	-2.6604	-3.1354	-2.8854	-2.6729	-3.0229	-2.7833	-2.9396	-3.0125	-2.8729	-2.7979	-3.1667	-144.547	157.004	117.835	157.838	181.969	32.891	193.720	-89.104	142.161	-129.328	-33.007	-154.689	63.683	177.828	36.140	131.782	0.0015815	0.0029464	0.00068334	721.02	1.4026e-05	9.0137e-06	990.06	236.52	4.9846e-06	2.1088e-05	446.03	176.76	91.062	37.713	2.2575e-05	97.583	0.012997	0.015532	0.0043982	853.06	0.00016804	0.00017707	1102.2	277.95	0.00017384	0.00017916	1257.6	198.78	117.56	45.799	0.00018487	108.18	119.476	-38.695	2.093	-150.174	29.789	96.325	-149.715	-144.936	-97.066	117.652	-144.858	-141.153	-142.188	-137.181	-106.145	-137.616	-8191	255	
2067.775	1	1	0	0	0.18164	0.074722	0.11637	0.10663	0.1791	0.11183	0.17191	0.20087	0.091329	0.20451	0.1797	0.11676	0.11523	0.16687	0.17258	0.32716	-2.175	-2.8396	-2.6604	-2.7062	-2.8583	-2.7083	-2.8521	-3.0042	-2.8333	-2.8563	-2.7479	-2.8333	-2.825	-2.7833	-2.5646	-3.1437	141.921	-4.032	85.372	-146.539	-44.883	-76.655	35.302	168.617	-158.565	32.385	34.606	-106.520	-143.525	-26.596	38.848	118.425	0.0019045	0.002149	0.00045806	714.59	1.323e-05	4.6089e-06	970.72	232.66	3.7629e-06	1.4631e-05	425.58	171.37	88.818	36.617	8.0948e-06	95.166	0.01477	0.017654	0.0050329	868.35	0.00019299	0.0002016	1102.7	279.42	0.0001945	0.0001997	1334	195.7	117.33	45.671	0.00020084	106.99	124.194	-44.671	-30.931	-150.254	-76.351	159.288	-149.782	-144.873	-62.087	26.370	-146.743	-141.130	-142.394	-137.423	138.803	-137.958	-8191	255	
2067.872	1	1	0	0	0.2878	0.072978	0.18342	0.30439	0.101	0.21203	0.31519	0.38619	0.266	0.19835	0.30148	0.27338	0.06278	0.12894	0.11031	0.27766	-2.1708	-2.8167	-2.8187	-2.7313	-3.0458	-2.6792	-2.7979	-2.9021	-2.7042	-2.9396	-2.875	-2.6729	-2.9938	-2.8896	-2.7896	-2.9667	-159.427	-96.391	36.317	106.207	-111.389	60.748	66.620	175.572	99.546	-48.598	80.109	142.328	-149.033	-150.369	80.184	65.400	0.0014453	0.0017652	0.00055824	701.6	2.1954e-05	1.032e-05	958.26	230.49	2.2124e-05	1.4264e-05	438.39	172.04	88.206	36.75	1.1637e-05	95.411	0.015941	0.019149	0.0054941	874.49	0.00020892	0.0002197	1109.2	282.5	0.00021017	0.00021527	1404.6	198.16	119.41	46.453	0.00021386	108.23	120.784	-26.463	-109.507	-150.173	46.758	119.548	-149.782	-145.116	-119.082	-66.443	-143.898	-140.944	-142.257	-137.289	32.910	-137.826	-8191	255	
2067.945	1	1	0	0	0.20942	0.19473	0.13534	0.11121	0.28038	0.16632	0.27449	0.16269	0.065359	0.21801	0.086272	0.14412	0.094239	0.26604	0.19551	0.057443	-2.1708	-2.7979	-2.8208	-2.5146	-2.8979	-2.8104	-2.7458	-2.9167	-2.8167	-2.7875	-2.9104	-2.775	-2.9583	-2.775	-2.6729	-3.1104	94.770	-107.990	-112.279	-123.394	-71.785	-124.072	160.979	159.295	124.683	-6.708	-95.660	160.693	-142.024	176.308	4.331	116.857	0.0016713	0.0011152	0.00016425	699.46	3.2406e-05	2.9773e-05	960.42	230.12	2.6976e-05	5.9001e-06	451.63	172.03	88.1	37.101	8.7645e-06	96.308	0.016618	0.019788	0.0056455	876.44	0.0002098	0.00022083	1111.5	282.44	0.00021256	0.00021909	1422.8	198.84	119.52	46.846	0.00021565	108.65	127.464	154.917	102.575	-150.079	-33.462	-37.566	-149.990	-144.911	-153.204	139.071	-145.274	-141.223	-141.977	-137.369	-159.747	-137.679	-8191	255	
2068.064	1	1	0	0	0.055187	0.16555	0.25184	0.21465	0.039296	0.20334	0.20333	0.28169	0.10921	0.1024	0.29737	0.12298	0.15862	0.22435	0.094397	0.2303	-2.2458	-2.7604	-2.9521	-2.6688	-2.75	-2.9188	-2.6896	-3.1875	-2.6833	-2.6292	-2.9188	-2.875	-2.775	-2.925	-2.7438	-3.0208	33.912	-88.221	-104.713	139.570	-88.902	36.894	107.738	129.316	11.977	60.734	55.567	104.595	190.797	-124.240	121.879	145.071	0.0016733	0.0029245	0.00011478	697.52	1.8155e-05	7.6926e-06	960.99	229.29	1.951e-05	1.0492e-05	445.04	172.54	88.268	37.357	3.8878e-05	96.573	0.016703	0.020117	0.0057728	883.34	0.00021879	0.00023401	1125.9	286.35	0.00022727	0.0002365	1506	202.37	123.1	48.259	0.00023943	110.81	117.434	-51.687	-83.643	-150.099	-20.857	-28.684	-149.866	-144.812	-162.078	24.704	-144.176	-140.908	-142.180	-137.234	-11.822	-137.811	-8191	255	
2068.160	1	1	0	0	0.19314	0.23268	0.18319	0.15908	0.04657	0.11248	0.28787	0.11428	0.2587	0.23062	0.26985	0.22943	0.067811	0.068801	0.16895	0.32539	-2.3271	-2.7417	-2.8312	-2.7521	-2.7021	-3.0458	-2.7542	-2.9771	-2.8979	-2.7771	-3.0146	-2.9125	-2.7188	-2.7896	-2.7229	-3.0687	-68.716	125.426	-155.736	142.967	116.954	162.794	154.485	-150.240	-100.015	-81.233	60.746	-34.926	27.518	103.204	145.925	135.245	0.0014612	0.00071669	0.00029453	703.23	1.5379e-05	4.5789e-06	950.22	229.19	8.5159e-06	1.6232e-05	431.9	168.98	87.436	36.829	1.3228e-05	95.208	0.018529	0.022256	0.0062699	899.18	0.000235	0.00024771	1125.5	286.32	0.00023127	0.00023761	1483.3	197.95	120.38	46.872	0.00021986	107.35	138.081	-78.260	14.803	-150.108	-67.505	-87.209	-149.930	-144.700	-29.541	20.161	-146.548	-141.058	-142.558	-137.252	-142.482	-137.719	-8191	255	
2068.256	1	1	0	0	0.41901	0.26452	0.26428	0.11399	0.22921	0.17724	0.31448	0.031478	0.10829	0.02016	0.29818	0.1472	0.1633	0.089907	0.20179	0.38635	-2.3396	-2.5208	-2.9875	-2.9292	-2.8979	-3.0938	-2.8583	-2.8625	-2.8417	-2.7333	-2.8833	-2.9938	-2.7271	-3.0208	-2.7042	-3.1063	182.319	-84.591	-31.523	147.936	-96.291	-62.422	108.190	119.545	152.991	-71.401	47.406	-126.217	-139.503	22.998	66.513	92.764	0.0018732	0.0036807	0.0010804	689.7	2.2077e-05	8.0537e-06	951.57	230.25	9.0046e-06	1.0072e-05	432.47	172.87	88.853	37.488	5.6575e-06	96.195	0.016433	0.019693	0.0053999	858.41	0.00019976	0.00021018	1093.8	277.76	0.00019668	0.00020424	1332.9	196.48	117.52	46.235	0.00019899	107.19	118.746	-127.757	-70.239	-150.007	-52.588	-35.706	-149.826	-145.111	-96.639	-32.552	-145.683	-140.847	-142.263	-137.458	-105.392	-137.941	-8191	255	
2068.377	1	1	0	0	0.020134	0.12851	0.061713	0.16669	0.18231	0.31037	0.39799	0.12677	0.072327	0.25484	0.26614	0.15544	0.18432	0.16577	0.042443	0.38068	-2.5083	-2.6229	-3.0208	-2.8396	-2.7188	-2.8417	-2.6625	-2.7625	-2.8917	-2.8729	-2.9896	-2.8812	-2.4875	-3.0521	-2.4375	-2.9854	-134.848	86.961	-162.755	124.206	-130.706	86.446	131.924	104.195	-137.754	146.362	63.104	-150.949	122.313	-158.314	-49.416	127.730	0.0018066	0.0014785	0.00011383	702.37	2.8707e-05	2.6752e-05	966.12	231.88	2.5947e-05	1.0131e-05	436.65	174.23	89.743	38.026	2.631e-05	96.561	0.015353	0.018468	0.0051246	859.31	0.00019522	0.00020349	1099.3	278.68	0.00019226	0.00019885	1305.7	196.89	117.32	46.298	0.00019022	107.61	139.724	-35.378	97.224	-150.023	-88.339	20.807	-149.984	-145.154	112.853	-48.111	-143.996	-141.019	-142.409	-137.273	-69.409	-137.808	-8191	255	
2068.473	1	1	0	0	0.24142	0.20821	0.046736	0.17767	0.063768	0.10171	0.15093	0.091148	0.19695	0.34217	0.055166	0.13674	0.084586	0.28955	0.042884	0.21268	-2.5292	-2.6729	-2.8625	-2.8354	-2.8646	-2.8667	-2.6896	-2.8271	-2.9021	-2.8167	-2.7375	-2.9188	-2.5896	-3.2083	-2.6792	-2.95	120.737	27.845	-113.948	178.448	-57.386	-61.016	161.373	194.610	79.915	-117.841	67.189	167.029	119.427	-123.210	99.092	135.868	0.0017709	0.0019401	0.000241	706.2	1.8116e-05	2.034e-05	970.83	233.9	1.6427e-05	1.4565e-05	447.45	175.3	90.206	38.128	1.7723e-05	96.95	0.014747	0.017694	0.0049562	859.99	0.0001925	0.00020236	1106	280.9	0.00019997	0.00020992	1376.4	201.01	121.94	47.855	0.00022268	110.01	128.462	-7.129	167.817	-150.272	81.051	-53.612	-149.822	-144.720	-134.353	29.618	-145.195	-141.041	-142.312	-137.380	-47.614	-137.951	-8191	255	
2068.545	1	1	0	0	0.25161	0.13936	0.16407	0.30113	0.098305	0.16341	0.10468	0.11867	0.11684	0.033201	0.052732	0.15087	0.25114	0.11935	0.12812	0.12663	-2.2667	-2.5854	-2.8792	-2.9958	-2.625	-2.8229	-2.9542	-2.7562	-2.9042	-2.7167	-2.9125	-2.975	-2.6875	-3.2188	-2.8042	-2.9542	31.216	-42.341	48.502	160.159	12.458	110.210	104.008	112.250	35.400	-71.296	145.532	129.857	-137.452	109.987	146.890	149.742	0.0012521	0.0014625	0.00063866	704.37	1.9747e-05	1.8485e-05	956.61	228.29	4.3488e-05	4.6003e-05	425.53	169.53	87.232	37.004	3.3365e-05	94.151	0.017586	0.021325	0.0059785	897.42	0.00023506	0.00024779	1134.2	289.5	0.00024358	0.00025487	1570.5	201.79	126.66	48.696	0.00026275	110.08	123.320	-141.866	-51.649	-150.070	-117.642	106.472	-149.649	-144.842	8.692	53.024	-144.578	-140.979	-141.655	-137.267	13.654	-137.783	-8191	255	
2068.665	1	1	0	0	0.16703	0.19862	0.12377	0.15032	0.19376	0.10502	0.19602	0.25281	0.18057	0.26245	0.13792	0.13088	0.32364	0.11704	0.23619	0.27021	-2.6604	-2.6	-2.7542	-2.9229	-2.5542	-2.8646	-2.9042	-2.8625	-2.8312	-2.8146	-2.8208	-3.0604	-2.6312	-3.0375	-2.8146	-2.8042	-114.295	-39.276	185.892	148.411	-75.861	-133.765	104.848	128.316	12.185	45.252	161.809	189.885	196.907	164.130	87.535	157.800	0.0015508	0.0026861	0.00061711	694.42	3.6617e-05	3.2017e-05	945.75	223.28	7.6687e-06	1.8486e-05	429.54	167.26	86.005	36.735	3.2189e-05	93.624	0.020899	0.025677	0.0071741	931.9	0.00027931	0.00029104	1156.8	295.64	0.00028023	0.00029012	1715.8	204.27	129.46	49.704	0.0002923	111.99	118.575	-83.102	-97.700	-150.142	-53.131	-120.091	-150.103	-144.927	166.712	34.734	-144.578	-141.023	-141.905	-137.429	-36.493	-137.746	-8191	255	
2068.760	1	1	0	0	0.24261	0.10504	0.10781	0.12528	0.056912	0.19887	0.18728	0.25605	0.12682	0.10908	0.1508	0.27397	0.0344	0.17264	0.11899	0.044398	-2.3646	-2.5896	-2.9083	-2.9667	-2.7771	-2.7271	-3.1583	-2.6146	-2.9375	-2.7042	-2.7125	-2.9771	-2.5833	-2.7646	-2.7188	-2.7417	-145.340	95.438	-91.345	187.587	-90.650	131.670	94.612	109.165	124.774	155.935	-58.210	157.901	147.760	-157.375	-3.800	174.337	0.0018219	0.0019589	0.00046408	689.96	7.1486e-06	8.937e-06	945.68	220.86	3.5527e-05	2.3271e-05	412.95	167.49	85.636	36.635	1.817e-05	94.225	0.023031	0.028363	0.0079578	954.61	0.00031001	0.00032121	1179.6	302.54	0.0003097	0.00032019	1846.6	207.83	132.68	50.619	0.00030422	112.67	129.779	-38.523	-140.266	-150.181	119.197	-71.780	-149.963	-145.031	-63.945	99.943	-144.987	-140.844	-142.430	-137.362	-67.934	-137.778	-8191	255	
2068.856	1	1	0	0	0.26671	0.18254	0.10136	0.17886	0.058896	0.10232	0.12483	0.21319	0.12698	0.18438	0.18713	0.43367	0.22962	0.092823	0.16221	0.18162	-2.6125	-2.7229	-2.675	-2.9333	-2.75	-2.8104	-2.9979	-2.8458	-3.1	-2.9271	-2.7438	-3.0542	-2.7583	-3.0646	-2.8042	-2.8542	142.832	-90.674	-36.426	153.437	139.180	-55.467	106.104	129.272	44.765	-129.812	186.839	127.711	89.909	67.257	-69.352	187.764	0.0015807	0.00068044	0.00035205	689.84	7.1329e-06	6.884e-06	942.58	223.15	3.3399e-05	1.4749e-05	413.21	168.48	86.872	36.913	9.8358e-06	94.571	0.022754	0.027457	0.0076895	940.03	0.00029464	0.00030544	1168	299.66	0.00029547	0.00030952	1805.8	207.64	132.68	50.717	0.00030187	113.18	131.244	120.016	-149.531	-149.749	-2.169	40.124	-149.751	-145.482	76.664	97.587	-145.332	-141.013	-142.107	-137.332	32.801	-137.710	-8191	255	
2068.976	1	1	0	0	0.069316	0.35078	0.031312	0.097706	0.19634	0.26537	0.066098	0.14275	0.13961	0.34217	0.06449	0.088576	0.13524	0.13177	0.1616	0.21733	-2.5167	-2.7021	-2.7542	-3.1229	-2.6937	-2.8229	-3.0167	-2.7042	-2.9958	-2.9042	-2.7687	-3.2271	-2.7417	-2.8604	-2.9896	-2.8771	153.836	37.692	-2.290	-162.840	23.935	91.066	-92.098	72.541	97.237	-135.805	-100.142	-158.533	119.102	106.874	84.459	73.279	0.0012997	0.0025626	0.00024334	692.43	1.8437e-05	9.7794e-06	935.53	222.49	1.1389e-05	1.7438e-05	419.93	165.33	86.318	36.176	1.5179e-05	92.988	0.022662	0.027571	0.0076514	938.7	0.00028643	0.00029568	1156.6	294.88	0.00027597	0.00029011	1708.3	201.26	127.7	48.772	0.00027342	109.32	137.328	-89.392	147.852	-150.266	-36.568	-76.119	-150.047	-145.345	-4.107	-105.567	-145.258	-140.852	-142.110	-137.547	-39.841	-137.786	-8191	255	
2069.073	1	1	0	0	0.15094	0.10378	0.14592	0.26635	0.29157	0.33972	0.17535	0.093544	0.11169	0.071563	0.16302	0.12459	0.086274	0.23599	0.050924	0.2987	-2.5375	-2.7687	-2.625	-2.8312	-2.6396	-2.6729	-3.0708	-2.6813	-2.8583	-2.8354	-2.5667	-3.0667	-2.7229	-2.6667	-2.8521	-2.7771	-96.706	90.796	-9.982	177.026	144.420	-92.680	164.983	128.866	119.896	-111.490	-53.638	70.738	-95.723	160.001	110.152	146.437	0.001724	0.001389	0.00032128	679.77	1.2871e-05	1.0447e-05	937.22	224.21	3.0677e-05	3.4482e-05	421.31	167.08	86.154	36.567	1.2578e-05	93.706	0.020203	0.024738	0.0068376	901.27	0.00025875	0.0002702	1131.5	290.45	0.00025807	0.00027307	1639.8	200.71	126.23	48.614	0.00026548	109.51	124.242	-117.446	135.404	-150.259	-24.593	-4.789	-149.931	-144.923	73.752	-119.094	-145.307	-141.102	-141.992	-137.234	91.755	-137.766	-8191	255	
2069.169	1	1	0	0	0.30135	0.13161	0.099756	0.19471	0.21087	0.14992	0.36246	0.10405	0.047353	0.16733	0.1495	0.2353	0.19613	0.27165	0.38689	0.13307	-2.5312	-2.8771	-2.55	-2.9437	-2.7021	-2.6896	-3.0125	-2.6854	-2.7146	-2.8625	-2.6083	-3.1604	-2.9208	-2.6458	-2.8521	-2.9583	32.488	-153.569	-162.735	-60.619	166.399	139.170	81.688	62.728	50.574	117.061	19.493	122.332	-137.748	185.607	135.618	54.473	0.0017535	0.0017524	0.00062122	690.63	4.3666e-06	1.9657e-05	939.75	222.37	5.7081e-06	1.7919e-05	429.99	167.43	86.503	36.624	3.9261e-05	93.544	0.019955	0.024465	0.0068445	903.26	0.00026	0.00027119	1135.2	290.48	0.0002634	0.00027998	1680.9	202.24	128.53	49.507	0.00028094	111.1	126.864	50.786	10.515	-150.078	-153.298	125.009	-149.927	-144.770	22.714	-40.736	-143.757	-141.167	-141.963	-137.206	-31.692	-137.993	-8191	255	
2069.240	1	1	0	0	0.28977	0.24451	0.20431	0.030362	0.28079	0.23412	0.35134	0.23196	0.32085	0.12301	0.2731	0.082346	0.31791	0.22496	0.064318	0.58468	-2.45	-2.7604	-2.5958	-2.9271	-2.5812	-2.6708	-2.9271	-2.7	-2.6354	-3.0583	-2.6104	-3.1458	-2.8854	-2.8208	-3.0208	-2.8167	-49.098	52.801	-150.626	-127.776	5.875	1.332	146.769	161.315	-61.407	-7.806	135.359	-58.047	104.193	143.847	39.641	130.591	0.0017163	0.0022171	0.00067354	682.33	2.7037e-05	1.0906e-05	939.05	222.6	2.4806e-05	2.6715e-05	411.33	167.35	86.041	36.443	2.7126e-05	93.808	0.021685	0.026506	0.0074497	925.18	0.00028261	0.00029715	1153	295.41	0.0002805	0.00029385	1738.7	203.96	129.61	50.012	0.00028939	111.88	138.710	117.094	22.641	-150.141	15.350	183.410	-149.699	-144.980	26.762	-68.036	-145.574	-141.086	-142.326	-137.297	-59.315	-137.651	-8191	255	
2069.361	1	1	0	0	0.098632	0.059491	0.056655	0.32169	0.075332	0.094075	0.20684	0.24323	0.098278	0.093649	0.04464	0.098362	0.29744	0.09619	0.088728	0.14944	-2.1875	-2.9521	-2.4729	-2.9229	-2.825	-2.6125	-3.0104	-2.725	-2.75	-3.0083	-2.7167	-3.0792	-2.7979	-2.7458	-2.9979	-2.8833	4.588	46.149	-129.803	-144.770	123.779	196.551	104.132	149.551	-96.331	65.645	-39.565	-27.469	139.630	158.732	-79.449	171.730	0.0017909	0.0013511	0.00022462	687.16	8.0604e-06	1.0696e-05	929.55	220.01	2.3393e-05	8.1362e-06	405.4	163.46	84.752	35.857	3.6276e-05	92.007	0.022576	0.027653	0.007787	938.26	0.00030165	0.00031806	1164.5	298.91	0.00030496	0.00031799	1843.5	203.21	131.51	50.174	0.00030483	110.54	130.015	103.767	30.427	-150.315	-55.881	-3.899	-149.800	-144.937	-104.902	108.869	-147.196	-141.245	-142.610	-137.664	-157.874	-137.915	-8191	255	
2069.457	1	1	0	0	0.23554	0.11298	0.1462	0.22415	0.13638	0.24766	0.24394	0.25155	0.041456	0.20645	0.13024	0.10455	0.19263	0.13669	0.078614	0.13267	-2.3208	-2.8937	-2.6271	-2.8896	-2.8792	-2.5729	-3.2417	-3.1125	-2.7604	-3.1792	-2.7917	-3.0062	-2.8583	-2.7313	-3	-3.1104	-71.818	-152.995	172.213	181.969	-123.802	-16.875	120.832	157.832	139.979	-63.219	112.431	-66.026	98.467	176.753	-10.707	90.689	0.0020264	0.0010408	0.00023112	667.2	1.4495e-05	1.0524e-05	917.58	216.02	1.9128e-05	5.9574e-06	429.64	163.85	83.808	35.925	1.793e-05	91.968	0.023226	0.028035	0.007828	923.14	0.00029232	0.00030361	1135.8	290.51	0.00028456	0.00029607	1750.3	200.71	128.46	49.458	0.00029089	109.93	131.756	104.579	176.658	-150.020	-50.712	65.245	-149.711	-144.689	124.467	-98.517	-144.281	-141.191	-141.967	-137.503	55.045	-137.971	-8191	255	
2069.553	1	1	0	0	0.21176	0.035528	0.18495	0.16257	0.1712	0.066466	0.027508	0.28336	0.1487	0.23373	0.27303	0.27166	0.069973	0.12781	0.040975	0.26896	-2.2896	-3	-2.7042	-2.7271	-3.0125	-2.5292	-3.0667	-2.875	-2.625	-3.0729	-2.7042	-2.9417	-3.0708	-2.5417	-2.7208	-2.9958	23.478	73.698	132.499	150.305	-58.925	-103.473	-11.081	134.068	52.089	159.424	-159.676	-161.635	-152.684	128.154	95.021	64.180	0.0020755	0.0020219	0.00042536	671.41	1.0373e-05	1.0997e-05	925.94	217.58	1.5306e-05	1.8138e-05	409.43	165.58	84.771	36.358	1.3737e-05	93.44	0.022417	0.026784	0.0074232	909.02	0.00027408	0.00028329	1120.7	285.24	0.00025933	0.00026506	1592.3	197.05	122.08	47.628	0.00024517	108.12	115.718	-35.916	-112.766	-150.636	-70.979	-7.429	-149.887	-144.987	-145.512	99.134	-145.732	-141.167	-142.598	-136.974	17.002	-137.689	-8191	255	
2069.650	1	1	0	0	0.25027	0.25018	0.041299	0.040741	0.25722	0.12538	0.21317	0.039146	0.075532	0.085814	0.21385	0.27076	0.017248	0.18201	0.11528	0.14489	-2.175	-2.8063	-2.625	-2.6917	-2.9813	-2.7354	-2.9896	-3.0687	-2.6583	-2.9708	-2.825	-2.6646	-3.0208	-2.7917	-2.6833	-3.1104	-32.594	-126.460	-95.256	49.537	-74.743	-2.320	141.447	19.100	104.396	37.730	123.197	162.386	-60.810	-139.449	-155.494	132.662	0.0011155	0.0017143	0.00060996	677.37	1.1735e-05	1.5193e-05	943.08	222.27	2.7822e-05	2.3714e-05	413.22	167.39	85.81	36.819	2.0041e-05	93.808	0.018921	0.022505	0.0063163	875.31	0.00023838	0.00024894	1111.4	281.8	0.00024133	0.0002498	1558.7	198.71	123.38	48.033	0.00025051	108.97	119.418	56.119	-34.678	-149.850	137.036	105.119	-149.789	-145.197	-52.392	45.116	-144.367	-140.805	-142.127	-137.475	-75.566	-137.808	-8191	255	
2069.768	1	1	0	0	0.31757	0.049183	0.10144	0.37852	0.18567	0.046641	0.12673	0.24125	0.098702	0.14447	0.21161	0.28247	0.18281	0.23949	0.14601	0.14834	-2.2583	-2.8063	-2.7625	-2.7812	-3.075	-2.6542	-2.875	-2.9021	-2.7188	-2.9708	-2.9021	-2.7625	-2.975	-2.7271	-2.7271	-3.0396	7.786	142.354	10.719	-135.048	-21.531	-95.466	122.869	142.625	137.015	22.276	137.062	131.405	173.767	168.677	-79.992	191.938	0.0014375	0.0018176	0.00057754	682.5	2.3667e-05	6.1454e-06	938.98	221.07	3.0243e-05	2.6794e-05	419.01	163.83	84.302	35.973	8.0765e-06	91.33	0.019376	0.022939	0.006457	888.04	0.00024229	0.00025444	1116	282.64	0.00024759	0.00025618	1584.4	196.65	122.89	47.799	0.00026118	108.05	113.593	-41.426	-140.866	-150.093	6.133	136.773	-150.051	-145.015	-101.773	18.764	-144.768	-141.224	-142.275	-137.193	0.770	-137.655	-8191	255	
2069.842	1	1	0	0	0.11647	0.19071	0.11887	0.31447	0.32457	0.10962	0.30791	0.13542	0.16102	0.19092	0.1208	0.44434	0.066746	0.12707	0.11315	0.099447	-2.1646	-2.8042	-2.7396	-2.6792	-3.0604	-2.8625	-2.6833	-2.9729	-2.7542	-2.9375	-3.0563	-2.8333	-3.0187	-2.8688	-2.7542	-2.9625	195.333	46.533	80.038	-136.963	143.131	25.024	123.013	119.106	74.313	176.865	68.058	170.908	-144.799	185.980	-13.792	159.770	0.0016924	0.0015289	0.00046649	670.6	2.4284e-05	1.3647e-05	924.65	217.29	2.5934e-05	2.7292e-05	415.9	164.36	83.932	35.779	2.0681e-05	92.278	0.020631	0.024919	0.0071571	908.66	0.00027331	0.00028786	1131	287.57	0.00027197	0.00027721	1674.5	198.78	125.22	48.462	0.0002749	109.15	133.858	-116.961	-120.093	-150.086	-71.996	20.313	-150.040	-144.968	-37.637	-36.458	-144.788	-141.126	-142.019	-137.299	79.862	-137.757	-8191	255	
2069.938	1	1	0	0	0.20891	0.28374	0.075075	0.23759	0.065461	0.075638	0.099527	0.12841	0.074565	0.0048287	0.15935	0.060493	0.1095	0.15791	0.16654	0.18344	-2.3375	-2.7771	-2.7792	-2.5812	-3.0687	-2.7188	-2.8646	-2.8583	-2.4542	-2.7521	-2.8896	-2.7917	-2.7021	-3.0583	-2.7604	-3.1875	-111.472	-101.719	39.579	-108.613	45.580	-82.428	-97.533	93.978	97.102	-146.652	-102.797	54.475	149.112	141.274	139.093	137.827	0.0018615	0.0022455	0.00079697	675.64	1.015e-05	2.0655e-05	926.51	217.25	7.8059e-06	1.5968e-05	418.42	163.36	84.239	35.411	3.8145e-05	92.243	0.02132	0.025826	0.0074017	916.85	0.00028247	0.00030172	1146.1	292.33	0.00029335	0.00030107	1783.1	202.38	128.51	49.369	0.00029524	110.19	124.687	-25.358	156.659	-150.022	58.934	2.258	-150.232	-144.792	-3.575	-57.530	-142.836	-140.881	-142.547	-137.543	-71.065	-137.848	-8191	255	
2070.057	1	1	0	0	0.019915	0.087142	0.23935	0.20475	0.08733	0.082986	0.16994	0.25872	0.28418	0.029899	0.13073	0.51047	0.10897	0.14435	0.33805	0.31816	-2.3833	-2.5125	-2.7833	-2.5375	-2.8083	-2.9437	-2.8604	-3.175	-2.8375	-2.7896	-2.8187	-2.6625	-2.9125	-2.7542	-2.6229	-3.1042	68.136	-105.636	-6.744	167.077	-7.694	103.079	173.452	135.169	-74.933	-138.031	192.673	186.195	54.948	-130.794	-78.236	185.491	0.001672	0.0010368	0.00043169	671.22	1.5005e-05	2.373e-05	926.36	217.59	1.2357e-05	2.1833e-05	407.64	165.72	85.478	36.119	2.0994e-05	93.146	0.022489	0.027009	0.0075832	920.54	0.00028084	0.0002958	1143	289.16	0.00027827	0.00028484	1697.8	201.41	126.37	48.928	0.00027613	109.89	124.281	-157.815	-78.707	-150.107	-94.799	111.781	-149.937	-144.820	153.579	-31.431	-144.164	-141.092	-142.280	-137.189	92.028	-137.722	-8191	255	
2070.153	1	1	0	0	0.28052	0.21968	0.25573	0.11274	0.24693	0.15095	0.081144	0.11234	0.12233	0.11777	0.19234	0.39006	0.23779	0.18414	0.22857	0.28443	-2.25	-2.6063	-2.8563	-2.7083	-2.9188	-2.8667	-2.8542	-3.1125	-2.8083	-2.7396	-3.0208	-2.8583	-2.9833	-2.7875	-2.5625	-3.1521	86.610	105.005	50.778	121.369	56.078	96.262	129.577	184.281	161.080	62.537	10.377	63.502	150.687	-148.094	132.635	139.492	0.0015974	0.00023376	0.00052782	676	2.6402e-05	1.4924e-05	934.42	217.83	1.5643e-05	1.1622e-05	413.79	164.21	84.382	36.045	1.0315e-05	92.436	0.020937	0.025001	0.0069963	900.31	0.0002568	0.00026963	1119.8	282.66	0.00025156	0.000257	1558	195.31	120.67	47.192	0.00024678	106.74	123.584	-69.885	154.593	-150.227	-16.228	46.024	-149.905	-144.913	-130.962	50.515	-143.819	-140.972	-142.496	-137.387	71.879	-137.746	-8191	255	
2070.249	1	1	0	0	0.14906	0.26818	0.189	0.31117	0.082246	0.10486	0.22593	0.1169	0.27057	0.059033	0.1238	0.13514	0.16264	0.16881	0.36632	0.1415	-2.3167	-2.5104	-2.875	-2.6979	-2.9708	-2.9562	-2.7687	-3.0687	-2.9833	-2.7271	-2.8396	-2.8896	-2.8187	-3.1667	-2.8292	-3.0396	-39.523	-65.857	98.321	81.461	-17.509	-81.206	142.241	159.124	-141.122	118.994	107.282	124.046	165.050	156.218	58.691	145.943	0.0015103	0.00053205	0.00029821	670.62	1.7065e-05	2.8207e-05	926.63	218.47	1.6115e-05	1.1197e-05	418.7	165.12	84.858	36.113	8.6281e-06	92.567	0.018731	0.022613	0.0062934	873	0.00023774	0.00025126	1104.3	278.96	0.00024272	0.00025244	1545.3	196.07	121.43	47.508	0.00024915	107.47	137.399	139.535	135.665	-150.007	-145.684	-11.470	-150.110	-145.008	-7.920	143.121	-147.310	-141.053	-142.263	-136.899	-88.298	-137.714	-8191	255	
2070.345	1	1	0	0	0.20416	0.16112	0.19795	0.0087804	0.14938	0.17869	0.13938	0.21641	0.061268	0.045902	0.080576	0.12091	0.17802	0.12273	0.037477	0.39994	-2.2875	-2.5167	-2.925	-2.8021	-2.6667	-2.9229	-2.9396	-3.0208	-2.8625	-2.6	-2.8688	-2.9479	-2.7917	-2.8271	-2.6937	-2.9313	52.306	56.983	114.053	16.454	-12.382	133.621	61.379	157.224	113.060	156.655	48.305	-104.482	190.502	51.376	96.040	169.244	0.0020656	0.0015439	0.00024129	674.3	1.5121e-05	1.805e-05	933.6	219.16	1.3316e-05	9.3965e-06	408.52	166.28	85.461	36.33	1.1287e-05	93.137	0.019111	0.023034	0.0064699	881.35	0.00024692	0.00025909	1113	281.99	0.00025094	0.00026151	1579	198.16	123.69	48.16	0.00025922	108.68	134.168	128.891	-128.653	-150.220	87.106	91.983	-149.956	-144.957	-125.862	34.784	-144.073	-140.948	-142.204	-137.318	-108.874	-137.779	-8191	255	
2070.441	1	1	0	0	0.28443	0.2493	0.17287	0.35601	0.041251	0.106	0.31174	0.016265	0.10505	0.07863	0.045671	0.018473	0.041832	0.23368	0.2052	0.26007	-2.425	-2.5771	-3	-2.8625	-2.5646	-2.9	-2.7438	-2.8729	-2.8688	-2.7167	-2.9104	-2.9792	-2.4729	-3.0542	-2.6521	-2.9	-66.562	131.644	195.806	-160.412	127.797	-119.448	136.236	57.456	-42.145	103.273	-60.204	-107.045	78.571	122.317	75.205	118.328	0.0014276	0.0015558	0.00061337	677.38	3.3382e-05	7.73e-06	932.98	218.46	6.9079e-06	2.1948e-05	421.14	166.97	85.167	36.652	4.2313e-05	93.901	0.020007	0.024181	0.0066374	890.34	0.00025067	0.00026033	1117.6	281.58	0.00024994	0.00026048	1571.8	199.35	123.98	48.302	0.00025609	109.24	113.665	-148.981	-99.804	-150.238	32.534	-40.400	-149.953	-144.820	-111.729	167.269	-146.698	-140.830	-141.614	-136.934	23.786	-137.844	-8191	255	
2070.538	1	1	0	0	0.047974	0.11009	0.12517	0.22702	0.10268	0.12144	0.057082	0.19011	0.36985	0.11026	0.24767	0.15404	0.064262	0.14252	0.053215	0.104	-2.5042	-2.6708	-2.8125	-2.8792	-2.6354	-3.0292	-2.9208	-2.775	-2.9146	-2.6167	-2.6	-2.6875	-2.6021	-2.9208	-2.6917	-2.9104	-68.044	-124.892	-29.361	159.770	196.290	51.915	184.270	150.989	65.840	-125.799	124.571	-150.705	184.565	156.830	134.276	18.928	0.0018543	0.0020575	0.00075008	677.29	2.0306e-05	1.4597e-05	938.46	219.7	1.506e-05	2.4814e-06	422.09	164.93	84.26	36.24	2.1616e-05	92.205	0.01953	0.023514	0.0064583	885.37	0.00024418	0.00025045	1110.8	280.37	0.00024268	0.00024983	1525.9	195.66	121.5	47.279	0.00024265	106.86	127.610	102.302	-101.978	-150.244	-6.548	-35.569	-149.991	-145.109	-89.115	-18.221	-145.124	-141.367	-141.979	-137.182	-5.694	-138.048	-8191	255	
2070.658	1	1	0	0	0.11637	0.1721	0.046286	0.13656	0.098349	0.22137	0.15532	0.075279	0.26689	0.15795	0.15994	0.10805	0.17204	0.16798	0.022305	0.41608	-2.3479	-2.65	-2.7729	-2.8583	-2.55	-2.9625	-2.8521	-2.8229	-2.8917	-2.7979	-2.8812	-3.0396	-2.7042	-2.9396	-2.6292	-2.8396	-35.890	126.470	104.002	139.454	102.526	-17.930	111.472	195.106	-6.312	-18.142	-143.044	-158.190	-75.166	142.336	-13.520	127.568	0.0013559	0.0015746	0.00021952	674.04	2.4954e-05	8.0101e-06	928.21	219.22	1.7545e-05	2.8082e-05	415.23	165.13	85.653	36.593	1.5283e-05	93.507	0.018427	0.02211	0.0060592	865.68	0.0002308	0.00023576	1091.8	276.36	0.00022773	0.00023523	1456.8	194.21	119.75	46.943	0.00022978	107.38	129.182	130.146	173.583	-150.346	-105.732	98.507	-149.797	-144.888	-89.284	-30.254	-145.544	-141.125	-142.161	-137.533	-14.039	-137.873	-8191	255	
2070.754	1	1	0	0	0.017727	0.27663	0.094982	0.14198	0.19273	0.25655	0.36118	0.17227	0.1607	0.34865	0.14211	0.23166	0.19864	0.087171	0.18126	0.49461	-2.5958	-2.5167	-2.7417	-2.8583	-2.4813	-2.8688	-2.8187	-2.7396	-2.7208	-2.6917	-2.8021	-3.0938	-2.6833	-2.8896	-2.7917	-2.7208	3.774	-159.685	-116.134	65.470	-95.752	-87.987	163.059	76.816	-19.729	74.183	-64.407	161.557	137.052	13.548	-99.739	183.240	0.0013704	0.00090729	0.00085008	678.94	1.1173e-05	1.0716e-05	933.28	220.89	8.324e-06	1.5047e-05	426.16	166.05	85.943	36.752	8.2709e-06	94.16	0.017723	0.021567	0.0060107	871.1	0.0002317	0.00024005	1104	280.32	0.00023458	0.00024477	1516.6	196.87	122.09	47.552	0.0002434	108.8	117.770	-41.216	79.917	-150.173	-140.214	-76.857	-150.079	-144.922	-63.515	87.300	-144.497	-141.084	-142.273	-136.853	-6.696	-137.685	-8191	255	
2070.849	1	1	0	0	0.28316	0.11226	0.18347	0.25161	0.17141	0.050108	0.38232	0.36143	0.031937	0.029895	0.18681	0.04233	0.067687	0.046329	0.11603	0.28003	-2.2958	-2.5875	-2.6458	-2.7896	-2.6583	-2.7313	-2.8333	-2.7917	-2.9104	-2.7708	-2.5854	-2.9417	-2.6292	-2.8438	-2.8563	-2.8646	-58.732	59.488	-31.343	-122.394	149.587	48.707	121.820	-122.547	-153.748	43.437	90.636	170.372	-119.178	-32.729	135.310	151.630	0.0019107	0.00099427	0.00064042	676.07	3.8964e-05	4.3797e-06	935.51	220.53	2.4171e-05	2.2068e-05	428.65	166.09	86.042	36.88	1.7739e-05	94.374	0.018519	0.022616	0.0063097	884.08	0.00024308	0.00025294	1119.5	284.94	0.00024942	0.000262	1592.8	199.86	124.62	48.638	0.0002594	110.19	125.562	-153.332	105.144	-150.146	-40.701	162.623	-149.844	-145.033	166.577	-10.231	-143.537	-141.029	-142.171	-137.239	-19.346	-137.648	-8191	255	
2070.945	1	1	0	0	0.15267	0.25381	0.10104	0.29806	0.22356	0.1129	0.16816	0.22192	0.22935	0.065036	0.080099	0.24603	0.069969	0.080946	0.058241	0.078124	-2.425	-2.8146	-2.5521	-2.9708	-2.5167	-2.8104	-3.2583	-2.65	-2.7333	-2.8646	-2.5	-3.0062	-2.7562	-2.7438	-2.8729	-2.7333	90.988	-20.317	146.099	70.252	-34.018	-114.907	185.639	135.747	177.523	102.081	67.354	157.292	-127.027	-29.520	-132.215	168.939	0.0015835	0.00093033	0.00035865	682.13	1.7615e-05	1.5363e-05	932.39	219.06	1.0258e-05	2.1234e-05	428.81	163.13	84.457	36.475	2.0145e-05	92.605	0.019755	0.023955	0.0066702	894.39	0.00025377	0.00026441	1121.4	285	0.00025491	0.00026823	1608.5	196.86	123.64	48.1	0.0002591	108.62	118.875	-34.526	-30.628	-149.632	53.145	46.323	-149.726	-144.806	-81.040	-69.230	-143.272	-140.845	-142.231	-136.874	-60.838	-137.727	-8191	255	
2071.066	1	1	0	0	0.14495	0.25179	0.26139	0.076172	0.081602	0.045064	0.071848	0.26295	0.043347	0.15407	0.059782	0.079822	0.25059	0.19943	0.1008	0.076626	-2.4958	-2.8187	-2.6958	-2.9479	-2.5833	-2.7521	-3.0479	-2.6083	-2.8375	-2.8375	-2.5375	-2.875	-2.8583	-2.7229	-3.0229	-2.9188	-159.602	-73.325	149.165	77.923	193.013	-97.134	135.602	93.934	106.106	12.993	24.288	122.544	161.305	193.083	-115.421	107.683	0.0017337	0.00076737	0.00037091	667.19	2.6699e-05	1.1005e-05	925.48	217.78	1.8822e-06	2.4244e-05	411.68	164.38	85.842	36.714	1.4495e-05	93.334	0.019482	0.024027	0.0067186	883.38	0.00025319	0.00026332	1111.9	282.97	0.00025181	0.00026351	1589	196.26	123.21	48.222	0.0002532	108.63	116.860	39.361	171.649	-150.124	48.167	-82.245	-150.060	-144.877	-28.128	-18.439	-146.404	-140.928	-141.798	-137.202	48.537	-137.746	-8191	255	
2071.137	1	1	0	0	0.33215	0.11485	0.33016	0.080497	0.1603	0.11678	0.2611	0.058069	0.082068	0.030649	0.18946	0.12031	0.43081	0.22482	0.35593	0.38793	-2.3708	-2.8604	-2.4271	-2.9229	-2.8021	-2.7625	-2.9854	-2.7604	-2.7708	-2.8812	-2.8208	-3.0896	-2.9917	-2.85	-2.8875	-2.8937	-115.934	144.066	118.136	191.130	-35.008	7.462	155.962	-137.848	-6.540	-128.970	158.798	-58.250	117.646	86.989	102.236	191.041	0.0017959	0.0013911	0.00037715	675.02	1.7424e-05	1.3062e-05	928.04	220.72	3.1402e-05	1.6193e-05	412.44	166.3	86.472	37.05	2.4971e-05	94.272	0.019156	0.023324	0.0065285	879.46	0.00024417	0.00025272	1106.7	280.81	0.00023517	0.00024687	1521.8	195.83	121.63	47.73	0.00023726	108.46	133.230	146.282	164.761	-149.989	-143.423	96.123	-149.896	-144.930	-48.784	-21.316	-146.033	-140.837	-141.948	-137.249	67.701	-137.586	-8191	255	
2071.233	1	1	0	0	0.095312	0.13923	0.11196	0.063207	0.39009	0.10764	0.38771	0.31492	0.25326	0.2939	0.20422	0.35353	0.11261	0.076062	0.16243	0.081749	-2.2875	-2.9354	-2.7438	-2.8875	-3.0208	-2.6479	-3.0375	-2.8458	-2.8667	-2.9292	-2.5354	-2.9813	-2.8479	-2.8354	-2.8896	-2.8708	-33.374	3.762	-37.904	-118.588	141.391	166.601	123.965	93.549	-34.494	191.559	81.757	151.075	165.773	163.796	14.415	-162.373	0.0022937	0.00092393	0.00016809	676.82	1.0217e-05	1.4142e-05	932.1	220.69	4.2606e-06	1.4728e-05	412.6	167.18	86.143	37.159	2.001e-05	94.443	0.018199	0.022247	0.0062149	874.06	0.00023675	0.00024695	1105.6	280.56	0.00023815	0.00025097	1544.5	198.07	123.33	48.668	0.00025006	109.74	134.411	-131.796	-126.810	-150.086	8.746	136.443	-149.731	-144.752	41.791	132.971	-144.153	-141.107	-142.174	-137.239	-32.781	-137.967	-8191	255	
2071.330	1	1	0	0	0.1331	0.19296	0.10487	0.19025	0.078692	0.25177	0.30907	0.2504	0.23291	0.16923	0.32839	0.2885	0.21457	0.0913	0.13875	0.20189	-2.2938	-2.9729	-2.4437	-2.9458	-2.9	-2.525	-2.9604	-3.0187	-2.7083	-3.0167	-2.5396	-2.7958	-3.0542	-2.7604	-2.9833	-2.8125	174.550	172.831	93.416	115.806	-3.348	-117.114	117.724	93.210	-161.240	28.665	-18.638	-157.112	150.662	173.346	56.918	103.296	0.0018963	0.00091295	0.00070922	672.45	1.4139e-05	2.4182e-05	931.92	218.98	1.8634e-06	1.0783e-05	413.3	163.77	84.599	36.122	7.5157e-06	91.781	0.019458	0.023859	0.0066995	889.87	0.00025476	0.0002664	1122.3	284.55	0.00026022	0.00027263	1649	197.87	125.49	48.648	0.00027157	108.83	118.635	129.814	-145.322	-149.849	22.382	-18.766	-149.768	-144.895	-105.461	-91.502	-144.877	-141.050	-142.520	-137.065	-46.650	-137.792	-8191	255	
2071.426	1	1	0	0	0.1175	0.18	0.27947	0.18693	0.26631	0.029833	0.17827	0.11386	0.091613	0.03488	0.13455	0.061891	0.19887	0.30071	0.30001	0.21449	-2.3	-2.9021	-2.5896	-3.0896	-2.8125	-2.7479	-3.1312	-2.9854	-2.6583	-3.0208	-2.6	-2.8604	-3.0167	-2.6396	-2.9062	-2.7354	152.684	-92.386	143.046	163.773	15.892	76.933	179.101	-52.406	-46.831	150.858	-30.523	-21.208	-147.173	129.700	-67.262	141.205	0.0014657	0.0012719	0.00035963	668.29	1.3156e-05	1.1013e-05	924.72	215.96	7.1421e-06	9.6063e-06	419.69	163.54	83.786	36.013	2.5289e-05	91.701	0.021322	0.025817	0.0072935	904.66	0.00027946	0.00029269	1130.1	288.28	0.00028345	0.00029459	1735.9	199.41	128.16	49.283	0.00028522	109.65	122.442	-75.548	38.061	-150.147	132.836	-1.840	-149.904	-144.467	3.571	-33.150	-145.174	-141.070	-142.778	-137.496	-75.956	-137.580	-8191	255	
2071.546	1	1	0	0	0.14753	0.10083	0.071773	0.30024	0.3319	0.14799	0.23091	0.10845	0.172	0.27934	0.14188	0.1052	0.20295	0.13714	0.15734	0.26066	-2.275	-2.9354	-2.8896	-2.7146	-2.9938	-2.7896	-3.0812	-3.0167	-2.775	-2.9896	-2.7146	-2.8312	-3.0583	-2.8208	-2.7604	-2.9833	170.923	-78.929	125.885	138.036	-55.430	-148.740	66.417	123.979	-162.162	111.454	-64.607	193.342	27.895	193.618	-44.569	-155.328	0.0014359	0.0018719	0.00035593	670.85	1.6701e-05	2.619e-05	928.49	216.84	8.5678e-06	1.0691e-05	414.86	163.41	84.666	36.054	1.7422e-05	92.11	0.022439	0.027049	0.0075774	916.07	0.00028705	0.0002979	1137.1	290.08	0.0002848	0.00029155	1731.8	200.25	128.23	49.235	0.00028257	109.69	132.061	5.178	184.094	-150.151	-10.609	176.225	-149.864	-144.859	100.991	-16.362	-145.925	-140.859	-142.446	-136.942	3.601	-137.799	-8191	255	
2071.642	1	1	0	0	0.13616	0.14238	0.2494	0.26094	0.079082	0.14885	0.096364	0.34428	0.094986	0.029187	0.17887	0.32545	0.1501	0.14387	0.05641	0.27074	-2.1167	-2.9292	-2.8417	-2.7521	-2.8396	-2.625	-2.7667	-3.0187	-2.7229	-2.7667	-2.6354	-2.875	-2.8792	-2.7771	-2.7271	-2.9688	-160.683	187.419	186.783	135.536	-142.844	137.437	-95.143	154.449	-159.564	128.356	50.660	-105.177	-21.032	187.270	147.770	144.941	0.0017596	0.0028771	0.00052094	678.11	1.7965e-05	3.4103e-05	928.13	217.13	2.4236e-05	2.6789e-05	415.11	165.33	85.754	36.104	7.6229e-06	91.868	0.022018	0.026374	0.0074296	917.53	0.00028265	0.00029543	1141.3	291.27	0.00028787	0.00029606	1772.1	203.34	130.87	50.058	0.00030214	111.35	130.741	4.749	185.867	-150.008	6.718	10.018	-149.957	-144.993	-48.546	-98.532	-144.552	-141.042	-142.387	-137.278	87.825	-137.680	-8191	255	
2071.739	1	1	0	0	0.21235	0.034054	0.17998	0.26269	0.033386	0.005202	0.086407	0.04708	0.15407	0.10827	0.25441	0.10253	0.19303	0.05674	0.1059	0.32262	-2.2375	-2.8646	-2.8688	-2.6042	-2.8812	-2.8604	-2.7396	-2.9271	-2.7354	-2.9521	-2.7833	-2.6813	-3.0417	-2.825	-2.7313	-3.0667	57.453	-16.627	-54.410	143.368	70.100	-64.012	-95.405	-162.536	-64.415	-138.740	67.370	83.427	170.344	195.891	88.447	-124.244	0.0015525	0.0042176	0.00015005	682.31	1.8123e-05	1.9877e-05	926.92	216.65	3.8082e-05	1.4595e-05	411.06	161.14	83.507	35.28	1.0681e-05	89.928	0.023972	0.028755	0.0081718	949.35	0.00030843	0.00032409	1165.9	298.64	0.00031536	0.00032514	1904.7	204.29	133.12	50.325	0.00032245	110.43	128.156	-41.727	13.377	-150.032	-83.257	-112.337	-150.134	-144.878	25.260	-112.833	-147.129	-140.827	-142.390	-137.376	-48.482	-137.913	-8191	255	
2071.835	1	1	0	0	0.10373	0.23733	0.080503	0.28397	0.09593	0.030658	0.38317	0.083887	0.04873	0.093321	0.024568	0.51997	0.18683	0.11009	0.43528	0.10901	-2.1979	-2.7229	-2.7521	-2.6208	-2.8625	-2.7542	-2.9417	-2.8396	-2.6937	-2.9271	-3.0167	-2.7188	-2.9979	-2.9042	-2.4875	-3.1437	-159.827	51.128	186.658	192.159	-128.258	-156.811	177.436	175.045	-14.673	53.875	66.842	97.518	-128.698	-105.506	-87.481	-138.164	0.0012669	0.003601	0.00075354	677.01	1.7922e-05	1.5082e-05	921.67	214.9	2.7838e-05	1.1085e-05	410.51	160.81	84.013	34.775	2.8806e-05	89.894	0.025116	0.030076	0.0085511	958.49	0.00032105	0.00033918	1169.7	300.38	0.00032836	0.00033896	1965.8	205.14	134.92	50.669	0.00033383	110.65	110.890	-110.851	48.365	-150.198	91.267	-46.173	-149.743	-144.846	41.186	-128.929	-141.519	-140.957	-142.405	-137.314	135.397	-137.780	-8191	255	
2071.929	1	1	0	0	0.018056	0.14397	0.066463	0.19505	0.24468	0.15835	0.46091	0.10556	0.19042	0.20727	0.21145	0.33361	0.14471	0.19667	0.3622	0.13443	-2.3917	-2.7479	-3.0312	-2.8042	-2.7833	-2.775	-2.8937	-2.9396	-2.7375	-2.7708	-2.9583	-2.6063	-2.925	-2.8083	-2.6479	-3.1708	-139.823	70.182	-30.375	152.312	59.695	-78.113	139.197	92.790	95.440	130.062	-38.177	141.111	-20.413	-126.538	192.071	143.803	0.0011494	0.00041302	0.0011797	679.75	9.2096e-06	2.1873e-05	926.27	217	3.5192e-05	2.1929e-05	407.8	162.16	85.297	35.201	2.9762e-05	89.783	0.025652	0.030658	0.0086329	960.68	0.00031794	0.00033653	1170.9	300.13	0.00032102	0.00033164	1929.1	205.33	134.37	50.335	0.0003242	110.07	127.340	-32.258	-19.284	-150.124	69.357	13.483	-150.083	-144.751	185.282	-87.129	-145.564	-141.119	-141.972	-137.404	-69.535	-137.724	-8191	255	
2072.027	1	1	0	0	0.12911	0.073713	0.17825	0.1639	0.044409	0.2113	0.29135	0.08581	0.18186	0.26204	0.085386	0.27255	0.217	0.22334	0.29966	0.099959	-2.35	-2.725	-2.9688	-2.7062	-2.8458	-2.8104	-2.7292	-2.7917	-2.7	-2.8438	-2.7229	-2.725	-3.0208	-2.8417	-2.5417	-2.9542	-129.291	25.661	33.722	133.780	134.811	-146.489	100.777	184.180	-75.945	93.770	38.867	41.423	100.582	61.052	64.569	96.125	0.0014764	0.0036532	0.00062724	682.85	1.1752e-05	6.8576e-06	938.08	217.86	1.8804e-05	1.5313e-05	402.84	164.95	85.521	35.443	1.2904e-05	90.958	0.024526	0.02939	0.0082724	951.72	0.00030213	0.00031656	1164.2	294.75	0.00029319	0.00030199	1769.7	202.58	129.61	48.875	0.00029015	108.45	118.322	-22.882	-148.324	-150.264	-65.173	158.229	-149.807	-145.190	52.254	194.489	-144.460	-140.978	-142.035	-137.044	-108.706	-137.826	-8191	255	
2072.146	1	1	0	0	0.021876	0.27496	0.18805	0.081594	0.095919	0.11124	0.33125	0.21705	0.19227	0.243	0.18799	0.11967	0.25052	0.11679	0.18226	0.24053	-2.2458	-2.6625	-2.9562	-2.6292	-2.9792	-2.8	-2.7	-2.9833	-2.925	-2.8312	-2.8688	-2.9396	-2.8833	-2.9521	-2.5708	-3.125	13.164	169.734	-152.294	-86.280	146.971	-26.486	168.722	149.167	-42.473	182.619	10.275	-55.418	19.419	173.413	84.541	148.123	0.0017265	0.0040261	0.00043955	689.39	7.596e-06	3.075e-05	944.07	219.64	8.1632e-06	9.1861e-06	405.33	162.98	84.855	34.457	1.3915e-05	88.73	0.022294	0.026892	0.0075014	932.34	0.00027679	0.00029181	1152.7	291.05	0.00027859	0.00029214	1742.4	200.65	129.49	48.411	0.000301	107.21	117.421	-60.419	-107.294	-149.885	30.036	11.763	-150.024	-145.178	-12.698	-37.295	-145.166	-141.137	-141.940	-137.042	8.060	-137.985	-8191	255	
2072.242	1	1	0	0	0.21002	0.053389	0.13586	0.09168	0.18229	0.12454	0.29575	0.21643	0.1362	0.050536	0.21861	0.15563	0.045432	0.082292	0.094266	0.23682	-2.3229	-2.5979	-2.8083	-2.6875	-2.625	-2.9625	-2.8208	-2.9292	-2.9521	-2.7104	-2.9792	-2.9479	-2.6229	-2.9042	-2.6354	-3.0208	-112.343	183.507	-102.927	124.282	-114.116	30.703	174.269	159.321	-121.703	95.247	185.457	-79.401	-117.622	-61.747	122.059	-140.135	0.0014569	0.0010456	0.00012557	676.88	3.819e-05	6.9717e-06	925.35	215.57	1.1777e-05	3.7597e-05	413.98	160.88	83.818	33.996	5.4681e-06	88.544	0.023583	0.028866	0.0080808	947.6	0.00030869	0.00032772	1167.3	296.94	0.00031567	0.00033024	1889.1	202.72	133.32	49.566	0.0003295	108.81	121.182	-81.722	12.475	-150.294	9.980	182.125	-150.009	-144.930	-34.231	-101.647	-143.489	-140.943	-142.456	-137.225	15.557	-137.971	-8191	255	
2072.338	1	1	0	0	0.21315	0.19494	0.074758	0.3148	0.13999	0.069507	0.15009	0.10849	0.19223	0.088799	0.12398	0.076602	0.1674	0.34701	0.21632	0.10842	-2.5021	-2.7479	-2.9813	-2.7625	-2.7792	-2.9313	-2.8521	-2.8417	-2.9208	-2.625	-2.9458	-2.8521	-2.6458	-3.0896	-2.5208	-2.8896	132.911	-79.067	80.654	92.955	68.282	6.506	169.900	70.762	51.680	-137.188	-66.626	133.234	159.816	176.811	86.897	162.146	0.0015078	0.0025508	8.6365e-05	682.47	4.3867e-05	2.0111e-05	928.18	214.47	2.2009e-05	2.971e-05	420.26	159.14	83.03	34.091	1.4527e-05	87.309	0.025878	0.031707	0.0088613	979.55	0.00034214	0.00036491	1199.5	306.92	0.00036009	0.00037964	2120.5	209.64	142.21	52.27	0.00039051	112.61	118.485	-63.162	-124.236	-149.954	-32.672	-102.804	-149.732	-144.840	-23.037	-2.487	-143.921	-141.025	-142.163	-136.987	-17.497	-137.713	-8191	255	
2072.434	1	1	0	0	0.21512	0.10218	0.06895	0.2132	0.12721	0.078819	0.10976	0.25829	0.17454	0.048629	0.03897	0.11473	0.18009	0.068365	0.19556	0.183	-2.4	-2.6083	-2.8396	-2.8063	-2.7604	-3.0271	-2.7042	-2.7188	-2.9875	-2.575	-2.9021	-2.8021	-2.7854	-3.0938	-2.8	-2.8229	-78.721	-80.936	-19.221	13.097	145.334	-27.691	-34.240	-161.411	-91.275	-150.626	-154.456	106.645	107.231	175.307	166.457	40.477	0.0020082	0.0013007	0.0018418	680.58	1.8675e-05	2.278e-05	926.61	213.59	3.0656e-05	2.5253e-05	413.22	159.35	83.019	33.646	5.5633e-06	87.06	0.030876	0.037862	0.010618	1046	0.00041719	0.00044435	1271.8	330.49	0.00044649	0.00047169	2545.1	223.3	158.13	56.731	0.00049003	118.81	102.915	-9.511	-4.802	-150.380	35.807	-28.844	-149.989	-144.838	69.559	-55.401	-142.479	-141.296	-142.122	-137.404	167.541	-137.828	-8191	255	
2072.531	1	1	0	0	0.088592	0.083499	0.35349	0.046058	0.2157	0.1463	0.40642	0.2984	0.15085	0.19792	0.14705	0.19172	0.13177	0.098578	0.12555	0.049914	-2.475	-2.6479	-2.8146	-2.8229	-2.6354	-2.9792	-2.95	-2.85	-2.9271	-2.6667	-2.9771	-2.8646	-2.7375	-3.0563	-2.7521	-2.8354	163.300	-120.270	186.647	118.751	-61.895	49.756	171.967	27.117	-53.750	-124.064	-77.750	131.593	91.006	196.312	-53.816	178.392	0.0017054	0.0025668	0.00017067	681.39	4.4351e-05	4.3357e-05	924.62	209.54	4.0236e-05	6.4985e-06	408.55	156.64	81.443	32.639	2.8798e-05	84.695	0.038159	0.046728	0.013015	1135.1	0.0005005	0.00052084	1326.5	344.99	0.00050099	0.00051859	2738.1	225.63	160.11	56.308	0.00049098	116.37	139.966	-48.885	38.739	-150.254	-80.160	24.926	-149.989	-144.973	-30.514	34.947	-144.350	-141.036	-142.209	-137.061	-26.501	-137.863	-8191	255	
2072.627	1	1	0	0	0.022532	0.29224	0.054514	0.1799	0.33834	0.11391	0.10073	0.005191	0.038233	0.29905	0.33777	0.22516	0.062208	0.12694	0.15822	0.21002	-2.4896	-2.7583	-2.7	-2.8521	-2.7188	-2.8833	-2.9646	-2.8167	-3.0208	-2.7229	-2.8875	-3.0479	-2.7604	-2.9667	-2.7292	-2.7354	57.560	107.755	36.028	94.101	74.905	76.816	116.274	181.525	-66.827	109.232	52.444	189.367	-94.028	-130.037	187.861	150.120	0.0013497	0.0031508	0.00062557	675.31	1.8974e-05	3.8779e-05	913.3	210.07	2.2114e-05	5.4781e-06	409.35	155.05	81.142	33.022	1.4437e-05	85.217	0.036655	0.043989	0.011953	1078.6	0.00044158	0.0004491	1252.4	321.77	0.00041798	0.00043064	2323	211.93	145.25	52.062	0.00040386	111.21	137.281	-8.289	122.056	-150.054	-96.759	-138.081	-150.062	-145.121	-110.836	-25.107	-145.167	-141.037	-142.530	-137.015	75.136	-137.845	-8191	255	
2072.723	1	1	0	0	0.070048	0.090654	0.26618	0.23223	0.17108	0.25676	0.051688	0.022138	0.23033	0.076238	0.14805	0.12538	0.057061	0.16459	0.169	0.25232	-2.5417	-2.5292	-2.7188	-2.7854	-2.4875	-2.7625	-2.6667	-2.7125	-2.95	-2.7104	-2.75	-3.0542	-2.5833	-2.8771	-2.8333	-2.6813	-15.178	126.787	17.460	-127.632	-119.834	-15.958	-157.229	128.802	0.911	-73.277	-106.035	177.831	73.915	-100.738	-50.311	111.947	0.0014735	0.00074785	0.00057378	677.28	1.6236e-05	2.2939e-05	920.89	211.76	1.1473e-05	1.1216e-05	404.4	159.05	82.767	33.267	3.216e-05	87.102	0.030068	0.036112	0.0099061	1004.2	0.00036737	0.0003741	1195.8	304.4	0.00034661	0.00035626	1986.7	204.4	135.11	49.286	0.00034145	108.7	129.744	114.550	-78.344	-150.027	-61.779	102.068	-150.079	-144.854	27.616	-22.244	-143.968	-141.251	-142.366	-137.028	69.854	-137.708	-8191	255	
2072.842	1	1	0	0	0.038964	0.125	0.12212	0.3889	0.18234	0.083814	0.30363	0.29505	0.04527	0.058354	0.23582	0.30399	0.07268	0.26624	0.12572	0.24364	-2.3521	-2.5333	-2.5521	-2.9417	-2.6813	-2.9104	-2.9792	-2.7729	-2.8063	-2.7479	-2.5354	-3.0479	-2.625	-2.875	-2.9479	-2.6625	56.398	-17.856	65.049	178.536	-122.710	86.990	109.026	-54.095	-43.343	112.443	-29.308	146.964	95.213	-121.992	71.335	92.014	0.0015744	0.0022522	0.00048704	673.68	2.4401e-06	3.5177e-05	921.46	213.69	9.1874e-06	2.5687e-05	424.82	161.09	83.264	34.119	2.3701e-05	88.454	0.025809	0.03156	0.0087601	964.02	0.00033205	0.00034088	1178.3	300.82	0.0003274	0.00034285	1953.5	205.28	135.04	49.498	0.00033528	109.58	124.336	-9.386	-148.632	-149.755	103.521	42.822	-150.048	-145.360	128.887	-43.579	-145.469	-140.953	-142.133	-136.739	96.536	-137.656	-8191	255	
2072.938	1	1	0	0	0.092701	0.14019	0.088972	0.24311	0.25028	0.12916	0.059264	0.1017	0.16749	0.15951	0.13213	0.30281	0.23758	0.091849	0.21297	0.26763	-2.4521	-2.7729	-2.6854	-3.1208	-2.8312	-2.8688	-3.0646	-2.6646	-2.7562	-3	-2.575	-3.0083	-2.8292	-2.8792	-2.8979	-2.7604	-128.782	-130.511	77.051	131.740	-126.021	152.972	84.584	125.279	105.801	165.128	-87.375	142.069	-156.782	-141.656	111.270	155.100	0.001273	0.0016244	0.00062884	672.7	1.7851e-05	1.2356e-05	925.12	215.82	1.5587e-05	6.7468e-06	412.91	161.15	83.826	33.755	2.4047e-05	87.052	0.025273	0.030977	0.0086716	960.34	0.00032695	0.0003382	1179.3	302.55	0.00032706	0.00034766	1999.6	206.4	136.94	50.128	0.00035443	109.68	131.201	116.796	-48.930	-149.743	190.989	-143.849	-149.828	-144.813	-36.089	129.729	-145.800	-141.212	-142.263	-137.063	44.940	-137.870	-8191	255	
2073.010	1	1	0	0	0.11112	0.18404	0.22912	0.20706	0.14668	0.066461	0.27297	0.36719	0.12403	0.2648	0.15581	0.17622	0.16633	0.30666	0.11414	0.22473	-2.5604	-2.8792	-2.6521	-3.1188	-2.6208	-2.8271	-3.125	-2.7979	-3.1042	-2.8917	-2.5875	-2.9271	-2.7375	-2.575	-2.8729	-2.8729	-113.766	-131.382	99.267	-158.443	103.158	-118.218	107.700	179.878	-59.451	174.274	136.998	-93.553	55.304	-62.219	-129.659	-48.352	0.0019676	0.0030867	0.00043842	671.7	2.1668e-05	1.9579e-05	923.69	212.75	1.5213e-05	7.3303e-06	414.63	158.8	83.367	33.547	3.7464e-05	87.723	0.026859	0.033385	0.0094134	987.44	0.00035898	0.00037549	1203	309.74	0.00036305	0.00038565	2179.7	209.48	142.67	51.91	0.0003958	112.7	121.791	-110.315	39.681	-149.870	95.746	-56.943	-149.713	-145.114	-72.801	-62.564	-145.180	-141.232	-142.648	-137.103	-32.044	-137.923	-8191	255	
2073.130	1	1	0	0	0.074703	0.13606	0.21073	0.03953	0.17138	0.19429	0.35282	0.078355	0.11759	0.049757	0.1723	0.25768	0.18436	0.15572	0.13307	0.29784	-2.2667	-2.8208	-2.5687	-2.975	-2.6979	-2.8458	-3.1125	-2.6042	-2.8542	-2.8729	-2.7313	-2.9083	-2.8604	-2.8125	-3.0646	-2.8646	75.858	113.467	-31.520	20.511	142.223	-152.483	177.636	176.994	85.024	59.126	159.893	120.607	181.723	151.487	-102.838	155.150	0.0015227	0.00065422	0.00092649	679.67	2.778e-06	2.3789e-05	920.12	213.3	1.1212e-05	1.5967e-06	400.51	159.58	82.398	33.762	2.3626e-05	87.907	0.030295	0.037492	0.010525	1025.7	0.00039683	0.0004138	1229.9	318.01	0.00038919	0.00040975	2266.6	212.58	144.53	52.512	0.00039905	113.43	123.878	100.104	-74.254	-150.410	12.740	-14.309	-149.827	-145.105	76.427	181.320	-146.462	-141.223	-142.336	-137.370	33.247	-137.935	-8191	255	
2073.226	1	1	0	0	0.051054	0.12795	0.20715	0.038719	0.22708	0.08198	0.18705	0.11927	0.18544	0.047167	0.1078	0.12698	0.044451	0.19091	0.035535	0.36114	-2.35	-2.8146	-2.6312	-2.9521	-2.6708	-2.6917	-2.9958	-2.8833	-2.9542	-2.8417	-2.7167	-2.95	-2.8271	-2.6917	-3.0125	-2.8937	-2.334	-6.691	68.801	-70.558	127.837	-52.620	104.006	-113.558	45.659	13.435	-8.836	191.898	168.547	125.831	-8.425	175.230	0.0012191	0.0014294	0.00087086	676.15	3.2647e-05	2.5171e-05	921.92	213.17	4.1523e-06	2.3213e-05	404.45	160.69	83.593	33.917	2.8469e-05	88.76	0.030736	0.037843	0.01061	1027.6	0.00039896	0.0004182	1234.1	319.89	0.00039692	0.00041575	2288.6	214.3	146.04	52.589	0.00038874	113.01	117.435	-100.456	-57.036	-150.410	-122.547	-112.202	-149.991	-144.933	-132.363	-162.444	-142.068	-141.169	-141.957	-137.104	76.417	-137.666	-8191	255	
2073.322	1	1	0	0	0.22537	0.13344	0.1781	0.085964	0.15852	0.054366	0.026967	0.073464	0.10141	0.013455	0.39127	0.03765	0.15608	0.22213	0.16911	0.2631	-2.4062	-2.8312	-2.5312	-2.8896	-2.9042	-2.4521	-3.0104	-2.8625	-2.7708	-2.9521	-2.6208	-2.8208	-2.9896	-2.6833	-2.7625	-2.8354	-154.249	117.026	92.201	187.114	-41.754	-62.995	11.748	-10.038	124.620	-74.777	-87.517	174.725	127.743	-115.658	-104.101	126.180	0.0021642	0.00086546	0.00030271	675.28	1.5762e-05	3.9934e-05	925.59	216.1	3.4578e-05	3.0879e-05	405.49	162.32	84.181	34.145	1.9006e-06	88.016	0.029044	0.034977	0.0096341	989.74	0.00035397	0.00036419	1189.9	306.04	0.00033813	0.00035017	1979.7	206.34	136.37	49.798	0.00033278	109.11	119.704	54.902	-44.340	-150.174	19.881	-60.998	-149.883	-145.054	-73.339	-40.450	-143.531	-141.312	-142.237	-137.272	-126.607	-137.585	-8191	255	
2073.419	1	1	0	0	0.21763	0.26362	0.083386	0.14245	0.27267	0.19875	0.39658	0.14952	0.20694	0.095638	0.13824	0.12555	0.1217	0.36341	0.067102	0.24011	-2.2458	-2.9938	-2.6646	-3.0167	-2.9354	-2.5417	-3.1583	-2.8854	-2.6333	-2.9021	-2.7792	-2.9042	-2.9521	-2.6333	-2.8833	-3.0146	104.595	-41.293	106.639	178.045	22.978	93.230	-161.226	153.953	-158.616	124.644	126.712	-148.222	-82.640	155.582	-139.130	83.739	0.0018216	0.0023942	0.00040499	674.24	2.5088e-05	1.2081e-05	925.08	217.72	2.8227e-05	1.6983e-05	406.54	161.78	85.099	34.274	6.8732e-06	88.451	0.025657	0.031117	0.0086776	957.49	0.00032887	0.00034067	1167.5	300.79	0.00031768	0.0003275	1885.3	202.78	133.91	49.014	0.00031592	108.64	123.536	-146.478	151.673	-150.307	-46.264	-6.230	-149.652	-145.020	-50.980	-156.769	-144.641	-141.124	-142.373	-137.068	-32.623	-137.691	-8191	255	
2073.539	1	1	0	0	0.19308	0.11052	0.2656	0.054784	0.14142	0.055524	0.18671	0.2972	0.13331	0.18643	0.21494	0.10349	0.16528	0.21511	0.091987	0.083929	-1.9458	-3.0042	-2.6583	-2.7354	-2.9292	-2.5938	-3.1917	-2.8354	-2.4958	-2.95	-2.625	-2.8708	-2.8937	-2.6521	-2.8688	-3.1104	-120.537	54.843	-2.080	185.581	-126.726	-73.864	146.563	99.451	53.482	-40.263	-99.296	-140.074	-104.387	196.697	-148.299	123.244	0.0016074	0.0025331	0.00033235	678.36	2.1517e-05	1.982e-05	928.8	217.12	4.232e-05	4.4708e-06	408.35	161.94	84.916	34.154	8.0709e-06	88.663	0.024699	0.029886	0.0084222	957.03	0.00032117	0.00033558	1172.6	302.61	0.00032624	0.00033891	1956.7	207.17	137.63	50.297	0.00034406	111.05	144.936	50.526	78.803	-150.073	164.756	-13.556	-150.033	-145.088	150.692	-4.542	-146.137	-140.943	-141.793	-136.684	164.301	-137.534	-8191	255	
2073.611	1	1	0	0	0.092098	0.21588	0.084625	0.16699	0.14061	0.092007	0.057124	0.30327	0.2449	0.026187	0.29191	0.26679	0.25876	0.36834	0.057193	0.051942	-2.1312	-2.7833	-2.5958	-2.6042	-2.8521	-2.5896	-2.9688	-2.8979	-2.6125	-2.9437	-2.5979	-2.8208	-2.9896	-2.6104	-2.7667	-3.0646	-27.248	-28.708	150.035	100.006	-22.398	43.289	62.478	179.797	-112.487	12.864	123.797	113.898	-139.982	-109.912	74.517	137.510	0.0014778	0.0023101	0.0011149	681.2	1.3223e-05	1.6424e-05	925.67	217.25	6.855e-06	6.7857e-06	422.05	163.55	85.216	33.942	1.6068e-05	88.505	0.027418	0.033331	0.0094681	1000.4	0.00036517	0.0003838	1215.1	316.81	0.0003754	0.0003873	2198.5	215.32	146.09	52.818	0.00039754	114.48	137.172	92.198	-89.548	-150.011	-74.044	-69.254	-149.942	-145.169	84.585	6.995	-144.706	-140.955	-141.901	-137.074	-108.089	-137.693	-8191	255	
2073.707	1	1	0	0	0.17344	0.16538	0.15203	0.12471	0.1047	0.19088	0.22602	0.18702	0.15419	0.04143	0.30915	0.37347	0.12202	0.23539	0.16354	0.15056	-2.1375	-2.8625	-2.6875	-2.6208	-2.9333	-2.6542	-2.9229	-2.8667	-2.4458	-2.6729	-2.9708	-2.6583	-2.8708	-2.6813	-2.7313	-2.9938	194.725	169.153	-141.713	136.005	-84.673	-79.947	157.315	148.254	150.824	49.232	109.487	187.408	137.288	166.388	30.702	181.241	0.0017357	0.0015408	0.00029311	686.4	2.3451e-05	4.0158e-05	932.04	215.83	5.6079e-05	3.8738e-05	405.44	160.9	83.646	33.26	8.4303e-06	86.693	0.031315	0.037686	0.010682	1042.7	0.0004007	0.00041711	1239.1	322.62	0.00039285	0.00040246	2258.8	214.8	145.88	52.52	0.00040601	113.17	144.901	-116.576	187.269	-149.898	-20.452	-35.098	-150.347	-144.663	-19.879	-2.140	-144.327	-141.089	-142.409	-136.930	-115.857	-137.721	-8191	255	
2073.828	1	1	0	0	0.068648	0.092963	0.19816	0.21022	0.079435	0.23652	0.22379	0.17589	0.49057	0.046153	0.16459	0.30115	0.20073	0.17053	0.13919	0.1599	-2.2521	-2.7062	-2.7812	-2.6521	-3.0667	-2.6854	-2.7771	-2.9271	-2.4646	-2.8042	-2.7333	-2.5396	-2.8792	-2.8292	-2.4958	-3.1292	-42.169	-36.834	99.567	-125.050	-117.742	11.334	142.022	114.451	17.845	159.431	44.680	105.016	181.888	-147.508	-79.656	-137.428	0.0016939	0.00058914	0.00024861	676.82	2.5273e-05	2.4629e-05	915.17	214.05	3.6745e-05	2.2011e-05	397.26	158.69	83.917	33.27	1.8749e-05	86.835	0.031706	0.038176	0.010881	1046.8	0.00040657	0.00042317	1238.1	322.28	0.00039982	0.00040928	2288.1	213.24	145.68	52.546	0.00040883	113.15	131.066	89.988	-15.834	-150.238	9.811	-124.539	-149.735	-144.950	43.889	187.925	-145.731	-141.308	-142.638	-137.127	131.873	-137.635	-8191	255	
2073.922	1	1	0	0	0.11075	0.031354	0.14061	0.12315	0.1757	0.18958	0.3672	0.13763	0.34926	0.28971	0.073252	0.43991	0.2055	0.21564	0.087052	0.23724	-2.0354	-2.6625	-2.7458	-2.6333	-2.8083	-2.8604	-2.9646	-2.9188	-2.5979	-2.8146	-2.9771	-2.625	-2.8417	-2.6917	-2.4375	-2.9958	-82.373	-148.898	125.604	-137.170	156.204	181.619	110.047	-85.812	127.928	158.555	-121.093	-144.890	6.123	161.896	115.499	161.986	0.0012931	0.00056363	0.00060194	674.69	2.6351e-05	2.0113e-05	922.68	213.19	5.2979e-05	2.1343e-05	402.46	159.99	82.427	33.099	2.7951e-05	86.765	0.031397	0.038198	0.01087	1045.3	0.00040764	0.00043128	1249.3	324.1	0.00040993	0.00042296	2346.5	215.71	146.68	52.77	0.00041477	112.94	124.491	110.456	-158.024	-150.618	94.203	37.395	-150.139	-145.018	-95.108	-4.828	-144.178	-141.304	-142.326	-137.259	67.239	-137.779	-8191	255	
2074.018	1	1	0	0	0.033356	0.14259	0.21761	0.075722	0.051974	0.12003	0.15004	0.24596	0.22326	0.11344	0.099698	0.29882	0.20821	0.14021	0.10992	0.12584	-2.45	-2.55	-2.9	-2.7333	-2.825	-2.8021	-2.5354	-2.9021	-2.7125	-2.9042	-2.8292	-2.6521	-2.9	-2.7167	-2.6333	-3.0167	-50.883	135.824	-104.580	-140.464	-143.577	25.956	191.181	166.726	108.570	150.781	181.978	80.985	-134.632	185.559	59.540	98.143	0.0013986	0.0018166	0.00040441	675.94	2.7811e-05	3.9421e-05	926.82	214.21	1.3612e-05	1.5292e-05	403.12	160.77	84.331	33.068	1.0022e-05	87.159	0.031481	0.037944	0.010651	1033.4	0.00039378	0.00041482	1233.1	317.35	0.00038794	0.00039859	2207.2	212.01	142.46	51.15	0.00037941	110.56	120.623	16.015	44.284	-150.667	-19.709	-98.365	-149.870	-145.180	-151.762	-91.359	-143.343	-141.100	-142.188	-137.237	-103.600	-137.844	-8191	255	
2074.139	1	1	0	0	0.39006	0.18676	0.050006	0.079749	0.23469	0.051569	0.16869	0.32059	0.14174	0.2925	0.10224	0.26589	0.055595	0.076177	0.13971	0.20843	-2.1854	-2.5083	-2.8625	-2.5729	-2.5542	-3.0354	-2.7792	-2.8042	-2.7646	-2.7354	-2.8583	-2.9479	-2.7562	-2.8604	-2.625	-3.0333	61.601	192.103	68.246	188.878	-158.915	117.418	131.691	149.760	109.617	80.942	-104.938	157.966	56.649	65.029	129.886	-144.984	0.002046	0.0015273	0.00023179	676.76	1.4231e-05	1.88e-05	934.24	217.34	1.6444e-05	2.5623e-05	409.2	161.63	84.001	32.893	1.2253e-05	86.602	0.028444	0.034096	0.0094574	991.33	0.00034758	0.00036707	1200	307.33	0.00034602	0.00035776	2026.2	207.5	137.8	49.374	0.00034918	107.81	121.105	117.440	-51.525	-149.984	56.105	34.366	-150.032	-144.893	-41.961	-133.600	-144.543	-141.003	-141.910	-137.246	-94.167	-137.917	-8191	255	
2074.235	1	1	0	0	0.16547	0.32671	0.13917	0.054346	0.12101	0.10539	0.23725	0.32819	0.086729	0.11987	0.20754	0.067676	0.082659	0.27129	0.082899	0.36208	-2.3458	-2.6375	-2.8812	-2.6937	-2.5062	-2.9667	-2.7208	-3.025	-2.8542	-2.525	-2.9229	-2.8063	-2.5396	-2.925	-2.7375	-2.8417	106.920	5.085	-16.001	-48.640	111.542	99.084	119.172	185.861	36.908	44.180	-148.185	-80.118	-73.054	125.554	163.613	141.855	0.0014398	0.0021733	0.00090545	674.88	5.5034e-05	1.3173e-05	916.19	215.55	8.2365e-06	4.4672e-06	400.06	158.46	82.645	32.534	1.784e-05	85.787	0.026714	0.032394	0.0090145	973.4	0.00033818	0.00035675	1183.9	303.48	0.00034243	0.00035797	2024.8	206.25	138.06	49.665	0.00036476	108.76	126.603	35.651	53.568	-150.161	-84.941	48.644	-149.872	-145.032	28.124	-24.326	-144.756	-141.117	-142.427	-137.288	-26.247	-137.919	-8191	255	
2074.307	1	1	0	0	0.17223	0.051976	0.08103	0.14594	0.1253	0.11789	0.21945	0.38397	0.14149	0.098009	0.10764	0.30912	0.08765	0.29065	0.16715	0.011074	-2.4083	-2.5958	-2.7833	-2.7083	-2.6333	-3.0062	-2.6854	-2.7604	-2.6479	-2.7521	-2.9625	-2.7917	-2.7604	-2.8833	-2.6833	-2.9354	38.083	176.415	150.202	-98.216	-17.882	-146.810	70.071	-136.564	112.546	151.453	-162.578	-95.594	184.968	114.092	-0.743	-23.987	0.0011867	0.0012802	0.00062853	678.29	9.7786e-06	1.8129e-05	923.64	213.2	3.056e-06	3.1207e-05	408.65	158.34	82.932	32.18	3.2031e-05	85.598	0.028311	0.03448	0.0095767	999.07	0.00036988	0.00038856	1212.7	311.98	0.00038223	0.00040219	2239.3	212.57	146.58	52.17	0.00042569	112.78	138.656	19.966	-70.207	-150.054	-121.499	137.554	-149.751	-145.026	-32.608	-53.765	-143.653	-141.358	-142.502	-137.393	-160.055	-137.753	-8191	255	
2074.403	1	1	0	0	0.10433	0.082811	0.27332	0.083476	0.20115	0.072864	0.04441	0.11421	0.12545	0.11311	0.17231	0.12986	0.218	0.21533	0.18262	0.42475	-2.4729	-2.5708	-2.8312	-2.825	-2.7875	-2.9646	-2.7479	-2.8042	-2.9437	-2.5479	-2.6625	-2.8083	-2.7646	-2.8563	-2.5896	-2.9688	151.731	13.869	177.172	127.715	-64.921	163.444	147.435	60.841	7.270	-77.981	51.316	127.280	107.821	-70.247	-119.135	189.257	0.001586	0.0053794	0.00013545	671.36	9.2336e-06	5.1718e-06	917.11	210.61	8.6935e-06	2.5753e-05	397.87	158	82.051	32.396	6.6639e-06	85.894	0.033527	0.040973	0.011342	1061.4	0.00043718	0.00045538	1260.6	326.24	0.00043356	0.00044423	2362.8	214.58	146.26	51.491	0.00039508	110.53	110.785	-67.793	114.190	-150.451	170.647	11.198	-150.081	-144.940	-92.906	-90.623	-143.996	-141.084	-142.296	-136.821	180.907	-137.755	-8191	255	
2074.523	1	1	0	0	0.46494	0.27812	0.26406	0.54475	0.17972	0.1534	0.1321	0.24376	0.034753	0.20554	0.28332	0.15878	0.16375	0.14851	0.2353	0.3257	-2.2438	-2.65	-2.9167	-2.9813	-2.7583	-2.9896	-2.8833	-2.5687	-2.9	-2.5104	-2.7271	-2.9042	-2.6896	-2.9917	-2.7333	-2.7833	-28.897	-133.700	65.244	-155.187	76.714	79.309	115.388	157.540	52.589	56.681	51.055	127.240	-117.855	189.322	-92.972	137.746	0.0019331	0.00050111	0.00048066	665.23	1.5649e-05	2.3561e-05	911.02	212.11	1.129e-05	1.8293e-05	410.73	160.39	81.949	33.301	3.4546e-05	87.205	0.029137	0.034401	0.0092258	968.78	0.00033584	0.00033775	1153.5	294.69	0.00031284	0.00032066	1822	201.15	130.24	47.794	0.00031419	107.14	113.576	160.839	-143.703	-149.997	-20.402	42.092	-149.907	-144.843	-111.724	140.703	-146.550	-141.277	-142.314	-137.304	-14.873	-137.730	-8191	255	
2074.620	1	1	0	0	0.16866	0.21812	0.089047	0.0095826	0.19642	0.10401	0.13332	0.082533	0.21816	0.26452	0.023742	0.16113	0.10327	0.1078	0.089271	0.27045	-2.5167	-2.4833	-2.775	-3.05	-2.6333	-2.8333	-2.9042	-2.6667	-3.0021	-2.6937	-2.8125	-3.0083	-2.6333	-2.8646	-2.7438	-2.7458	-26.455	-16.749	-8.861	121.219	19.689	154.887	145.659	-52.255	136.364	121.118	-103.651	78.440	179.428	78.924	95.575	175.561	0.0016211	0.0016428	0.00035372	663.17	1.9963e-05	2.3759e-05	915.79	213.31	2.0344e-05	1.8968e-05	411.43	158.08	81.632	32.866	5.8761e-06	85.273	0.02474	0.030075	0.0084356	952.4	0.0003337	0.00034973	1180.4	306.37	0.00035912	0.00037981	2144.7	210.18	143.51	51.407	0.00041054	112.39	123.207	50.922	102.984	-150.395	-74.992	4.517	-150.105	-144.973	23.345	-66.714	-143.956	-141.125	-142.498	-136.959	133.835	-137.790	-8191	255	
2074.716	1	1	0	0	0.27965	0.21264	0.044406	0.10105	0.091345	0.13778	0.36477	0.1501	0.21847	0.057468	0.12967	0.32446	0.18809	0.1453	0.087127	0.22454	-2.5771	-2.4396	-2.5479	-2.8667	-2.3417	-2.8625	-2.7604	-2.6917	-2.9583	-2.6562	-2.7062	-2.9208	-2.7083	-2.9208	-2.8021	-2.6458	166.497	-116.946	-90.761	-9.091	176.866	49.858	105.455	125.383	-127.253	92.471	163.347	-126.317	-158.196	75.101	43.842	67.188	0.0019941	0.0021629	0.00091997	675.66	1.7774e-05	1.8201e-05	926.68	214.32	5.9141e-06	6.7009e-06	415.53	158.96	83.062	32.097	3.7481e-05	84.242	0.032467	0.040386	0.0114	1076.2	0.00044932	0.00046638	1288.7	337.9	0.00045957	0.00048304	2602.3	223.87	158.65	55.114	0.00049383	117.04	128.164	-158.472	10.457	-150.090	108.197	113.986	-150.082	-144.913	-15.845	30.623	-145.935	-141.132	-142.435	-137.555	-42.309	-137.993	-8191	255	
2074.835	1	1	0	0	0.13733	0.37006	0.19022	0.23371	0.10712	0.038746	0.10305	0.20719	0.20012	0.13862	0.21324	0.10258	0.22681	0.074788	0.16578	0.31943	-2.5875	-2.7271	-2.4896	-3.0354	-2.8021	-2.8604	-2.8854	-2.5271	-2.8375	-2.8625	-2.6437	-3.025	-2.7042	-2.7313	-2.9604	-2.7812	48.002	-39.062	-66.902	-95.304	-89.213	106.683	-120.789	161.188	18.633	-155.943	118.725	-37.047	184.021	-160.637	-47.551	137.724	0.0013363	0.004366	0.00027125	683.35	2.2923e-05	1.9851e-05	927.45	214.52	4.7968e-05	2.7784e-05	409.38	159.18	82.674	31.592	2.3228e-05	84.11	0.038144	0.046835	0.013132	1135.2	0.00050318	0.00052369	1336.7	352.23	0.00050837	0.00053422	2841.2	230.4	164.78	56.473	0.00052248	118.1	130.135	-32.430	-131.283	-150.389	-58.579	-5.750	-149.797	-144.682	10.405	-60.104	-144.843	-141.433	-141.974	-136.965	-104.486	-137.673	-8191	255	
2074.906	1	1	0	0	0.077748	0.24897	0.15134	0.24857	0.26472	0.0095316	0.23553	0.15226	0.17672	0.20884	0.11185	0.21549	0.10603	0.16494	0.12184	0.16812	-2.3958	-2.7479	-2.5062	-3.0854	-2.8417	-2.8708	-2.9396	-2.7958	-2.7354	-2.6542	-2.4458	-2.9	-2.7958	-2.9625	-2.9875	-2.875	-12.126	86.809	45.862	155.732	29.877	-7.645	98.482	95.422	130.746	-104.196	87.722	100.206	-88.197	132.441	190.325	9.484	0.0013432	0.0022294	0.00022671	682.64	8.5189e-06	1.2641e-05	924.77	213.62	8.5843e-06	1.5231e-05	403.77	157.39	82.853	31.654	8.5659e-06	84.153	0.038776	0.047139	0.013044	1121.4	0.00048098	0.00049681	1303.7	339.92	0.00046286	0.00048329	2592.3	221.44	155.22	53.856	0.0004666	113.97	140.342	-64.469	184.268	-150.184	132.289	-2.200	-149.769	-145.133	171.400	-43.583	-145.382	-141.112	-142.257	-137.458	-78.794	-137.658	-8191	255	
2075.002	1	1	0	0	0.13711	0.18075	0.038771	0.24249	0.072441	0.19621	0.17997	0.052834	0.22564	0.34514	0.087158	0.097844	0.031603	0.13009	0.13925	0.18823	-2.4583	-2.55	-2.4896	-3.0021	-2.7771	-2.8208	-3.0812	-2.7583	-3.0687	-2.7875	-2.7188	-2.8229	-2.7354	-2.6167	-2.7771	-2.8792	-153.547	29.845	76.286	-128.421	-11.671	71.380	169.085	7.291	-153.232	180.418	-142.684	70.914	153.542	-44.121	-74.577	128.661	0.001722	0.0028225	0.00062047	673.9	4.126e-05	2.6982e-05	917.32	211.66	2.8691e-05	4.8016e-05	408.85	155	81.652	31.601	1.243e-05	84.005	0.034788	0.042634	0.011769	1067.1	0.00043735	0.00045173	1255.6	325.27	0.00042151	0.00044383	2412.2	213.48	148.32	52.153	0.000428	111.46	141.435	-115.826	24.812	-150.095	-95.307	-49.556	-150.048	-145.254	-79.704	103.161	-145.640	-141.147	-142.540	-137.459	115.474	-137.892	-8191	255	
2075.099	1	1	0	0	0.18847	0.040111	0.13621	0.45478	0.10246	0.1119	0.1344	0.043876	0.11924	0.10541	0.17385	0.22801	0.17719	0.19765	0.17491	0.47849	-2.3604	-2.8646	-2.4688	-2.8729	-2.6458	-2.7583	-3.2354	-2.9083	-2.9479	-2.8521	-2.5104	-2.9104	-2.7792	-2.5896	-2.8604	-2.75	-67.399	-73.959	118.966	191.383	-62.463	-92.055	156.669	190.946	119.745	-84.628	-104.911	156.885	46.560	-100.262	112.232	168.676	0.0017273	0.00037413	0.00026665	670.53	2.3786e-05	1.0234e-05	914.14	211.34	3.3082e-05	2.3186e-05	412.87	157.58	82.043	32.391	2.8988e-05	85.864	0.0318	0.039115	0.010757	1024.3	0.00039722	0.0004101	1217.5	312.73	0.00037523	0.00039175	2152.2	207.43	140.09	50.163	0.00037329	109.46	116.978	-95.660	196.227	-149.865	-136.200	-17.916	-149.995	-144.841	-126.635	-70.376	-144.199	-141.266	-141.597	-136.992	-8.083	-137.867	-8191	255	
2075.219	1	1	0	0	0.18222	0.2371	0.34065	0.26774	0.1142	0.014767	0.29035	0.30643	0.22377	0.14886	0.14127	0.20735	0.2988	0.20665	0.25406	0.42839	-2.175	-2.8354	-2.7125	-2.9354	-2.9188	-2.5687	-2.925	-2.7875	-2.8042	-2.9146	-2.6646	-3.1396	-2.7438	-2.8417	-2.9542	-2.7271	161.880	-56.881	-92.502	152.195	162.537	-29.397	139.411	85.481	136.481	-79.310	72.298	183.802	118.115	64.176	-126.492	123.555	0.0012984	0.0019566	0.00030853	676.17	2.2086e-05	1.4439e-05	914.64	213.32	3.247e-05	2.5518e-05	400.48	160.15	82.625	32.622	2.7242e-05	86.829	0.028716	0.035423	0.0098168	997.55	0.00037125	0.00038757	1205.1	310.84	0.00036172	0.00037704	2099.5	207.74	139.43	50.259	0.00036605	110.19	124.070	154.806	149.097	-150.165	135.621	-152.293	-149.947	-145.326	-28.562	-50.773	-144.964	-140.979	-142.008	-137.240	24.277	-137.630	-8191	255	
2075.315	1	1	0	0	0.14796	0.15281	0.048141	0.16301	0.13973	0.039334	0.15786	0.068065	0.025752	0.043918	0.071934	0.25966	0.11214	0.25492	0.11934	0.34117	-2.25	-2.7896	-2.7271	-2.7917	-2.8729	-2.7354	-3.05	-2.8604	-2.5687	-2.9938	-2.6917	-2.8479	-3.0833	-2.7708	-2.8271	-2.9604	-129.710	194.091	-58.793	176.370	151.630	-52.431	85.268	100.809	108.327	165.562	29.077	64.526	188.126	80.657	-66.864	158.633	0.001284	0.00066648	0.00016959	672.9	9.1235e-06	1.4531e-05	924.36	214.75	2.54e-05	2.5164e-06	400.62	159.45	82.986	32.617	5.7501e-06	86.089	0.028568	0.035176	0.0098965	1001.9	0.00038029	0.00040117	1222.5	316.51	0.00038659	0.00040328	2231.9	211.46	143.59	51.304	0.00038555	110.5	116.644	-19.626	78.509	-150.010	-1.503	184.169	-150.045	-145.053	-94.418	-143.554	-144.809	-140.998	-141.991	-137.410	7.232	-137.741	-8191	255	
2075.412	1	1	0	0	0.20413	0.14266	0.068463	0.12957	0.30555	0.26359	0.096962	0.14694	0.11863	0.1233	0.18133	0.11903	0.07928	0.31421	0.1972	0.25591	-2.1479	-2.7687	-2.7021	-2.8187	-2.85	-2.575	-2.8	-2.7542	-2.625	-3.0146	-2.7229	-2.8583	-2.9146	-2.6312	-2.8167	-2.9458	163.519	144.249	101.306	180.238	68.342	56.371	32.460	150.999	195.633	88.393	194.350	16.414	-23.466	130.550	37.080	173.058	0.0013717	0.0012709	0.00039115	665.14	1.9873e-05	2.0879e-05	917.92	211.39	1.073e-05	4.0044e-05	409.68	156.08	81.286	32.117	2.9265e-05	84.668	0.029822	0.036413	0.010224	1010.7	0.00039591	0.00041798	1227.7	320.08	0.00041254	0.00043274	2383	214.06	148.55	52.62	0.0004254	112.29	125.360	-135.400	12.218	-150.069	-19.720	-17.973	-149.865	-144.840	-37.273	-7.977	-144.735	-141.208	-142.151	-137.352	-145.586	-137.965	-8191	255	
2075.508	1	1	0	0	0.1289	0.14631	0.21526	0.35135	0.26034	0.21761	0.26515	0.13844	0.15916	0.17128	0.19998	0.12601	0.21711	0.024992	0.24908	0.37229	-2.0896	-2.8333	-2.5854	-2.6896	-2.8271	-2.6104	-2.7562	-2.9083	-2.7396	-2.8854	-2.8479	-2.7062	-2.9979	-2.6	-3.0125	-3.0167	172.692	154.964	-52.012	-158.798	-151.304	-56.049	127.437	-99.856	-59.609	59.856	-2.998	-127.476	166.414	-82.299	46.392	153.478	0.0015546	0.0038279	0.00052915	671.16	1.4693e-05	4.9979e-05	919.86	210.68	1.6908e-05	1.386e-05	399.83	157.71	81.907	32.19	9.1751e-06	85.079	0.032534	0.039142	0.010895	1033.9	0.00040892	0.00042448	1229.3	319.17	0.00040358	0.00041606	2305.1	212.75	146.83	52.131	0.0004195	112.7	128.171	20.454	71.087	-150.512	-136.241	32.532	-149.956	-144.867	-8.647	14.385	-146.675	-141.098	-142.311	-136.750	-161.392	-137.766	-8191	255	
2075.604	1	1	0	0	0.18655	0.12893	0.12838	0.38579	0.12497	0.15942	0.097438	0.28448	0.11248	0.098393	0.054238	0.39607	0.26411	0.10319	0.017559	0.31462	-2.2396	-2.8354	-2.6208	-2.825	-2.8833	-2.7604	-3.1208	-2.9229	-2.7042	-2.9771	-2.9479	-2.7875	-2.9229	-2.7917	-2.5958	-3.1396	-75.441	-94.709	-146.991	-110.418	-22.815	24.128	-92.890	139.628	-13.681	26.377	149.584	155.002	-79.708	68.920	190.556	159.518	0.0013223	0.0023785	0.00036515	675.61	1.8097e-05	1.4655e-05	922.24	211.83	3.1863e-05	2.7727e-05	417.24	159.34	82.953	32.631	1.922e-05	86.024	0.03284	0.039682	0.011184	1050	0.00042086	0.00043667	1242.7	322.39	0.00040256	0.00040574	2229.6	210.63	141.54	50.468	0.00037252	110.01	116.121	24.101	-87.076	-150.294	-149.907	4.260	-149.994	-145.112	139.371	4.299	-145.111	-141.187	-142.170	-137.192	-117.977	-137.824	-8191	255	
2075.700	1	1	0	0	0.27793	0.19	0.30837	0.48252	0.14031	0.24154	0.080031	0.088421	0.10692	0.46445	0.12257	0.2703	0.30508	0.063311	0.2417	0.16773	-2.0729	-2.8792	-2.8396	-2.8875	-3.1208	-2.775	-2.8542	-3.1354	-2.7	-2.7562	-2.9167	-2.7271	-2.8688	-2.9083	-2.625	-3.0458	176.545	3.433	-136.667	100.475	-57.213	81.487	115.438	48.024	147.568	183.359	151.066	151.582	75.634	144.031	-14.992	180.809	0.0016883	0.0031217	0.00018538	676.55	1.7194e-05	1.5537e-05	924.49	216.84	8.4959e-06	1.3657e-05	401.22	160.16	83.359	32.8	1.9003e-05	85.509	0.028597	0.034105	0.0096413	997.66	0.0003629	0.00038118	1210.6	313.8	0.00036674	0.00037578	2140.9	210.06	140.37	49.981	0.00036735	108.95	114.082	-0.804	-77.764	-150.026	-47.280	-149.317	-149.915	-144.429	4.036	51.132	-146.580	-140.929	-141.910	-137.335	-96.824	-137.685	-8191	255	
2075.819	1	1	0	0	0.33196	0.062985	0.16171	0.18779	0.24686	0.050937	0.25111	0.10183	0.051981	0.14578	0.11105	0.23039	0.33743	0.18768	0.11645	0.49545	-2.1104	-2.6813	-2.8729	-2.6813	-2.9292	-2.6917	-2.9792	-3.0208	-2.7417	-2.7792	-2.9104	-2.6542	-2.9646	-2.8521	-2.6583	-3.0854	170.421	171.823	-91.001	148.245	195.316	-61.564	156.790	-137.266	-39.978	49.073	172.475	91.524	173.357	137.244	125.686	131.432	0.0018234	0.0018337	0.00025786	678.46	1.2654e-05	2.3578e-05	915.99	216.8	2.5315e-05	2.0344e-05	389.22	157.51	82.971	32.18	2.1962e-05	84.661	0.028242	0.033875	0.0097193	1002.7	0.00036992	0.00039264	1217.6	317.53	0.00038894	0.00040402	2281.6	212.41	145.53	51.741	0.00041494	111.56	127.556	-155.663	-145.432	-149.856	119.943	94.689	-149.953	-144.821	-87.945	171.428	-144.524	-141.245	-142.352	-137.220	-104.398	-137.767	-8191	255	
2075.915	1	1	0	0	0.12093	0.21231	0.074137	0.043576	0.20512	0.20319	0.28419	0.23964	0.086833	0.23413	0.056364	0.12534	0.17345	0.14604	0.36065	0.042353	-2.3646	-2.7479	-2.8125	-2.7	-3.025	-2.8521	-2.6813	-2.9667	-2.7292	-2.8042	-2.8167	-2.7167	-2.925	-2.9417	-2.6188	-3.0792	158.079	75.873	32.368	-83.124	-154.344	125.517	180.128	87.616	-140.643	82.424	192.776	138.803	-22.499	-86.343	135.739	-55.872	0.0015865	0.0024766	0.00065081	680.29	8.577e-06	1.0487e-05	919.28	213.71	4.3353e-05	6.3201e-06	395.71	158.28	82.704	32.027	2.0636e-05	84.428	0.032064	0.038958	0.0111	1051.9	0.00041605	0.00044268	1259.2	328.49	0.00043107	0.00044931	2473.1	218.75	151.62	53.688	0.00045667	114.21	124.846	-64.386	-128.064	-150.319	-71.006	-140.833	-149.833	-144.955	-111.111	150.151	-143.209	-141.117	-142.376	-137.008	99.068	-137.530	-8191	255	
2076.011	1	1	0	0	0.074162	0.15476	0.13847	0.020685	0.20121	0.19675	0.23946	0.19114	0.21725	0.073372	0.077556	0.24448	0.10132	0.045485	0.10828	0.27932	-2.3042	-2.7021	-2.8937	-2.6875	-2.8458	-2.7833	-2.675	-3.125	-2.8063	-2.6958	-2.7125	-2.8438	-3.0146	-2.9521	-2.5583	-3.1292	-18.392	-88.940	-156.181	52.519	103.515	54.209	35.957	112.775	54.134	-25.556	55.814	125.240	162.717	114.305	-20.835	126.208	0.0018164	0.0022077	0.00067775	676.96	2.8795e-05	1.7437e-05	919.97	214.9	2.3709e-05	5.6357e-05	411.76	158.96	82.987	32.228	2.7275e-06	85.58	0.035041	0.042554	0.012071	1089.9	0.00045218	0.0004786	1287.5	335.39	0.00045292	0.00046625	2505.7	219.19	151	53.285	0.00043557	112.96	126.459	-153.173	194.713	-150.255	-126.324	43.517	-150.061	-144.966	-124.265	-143.605	-145.882	-141.199	-142.086	-136.983	-57.476	-137.697	-8191	255	
2076.107	1	1	0	0	0.40238	0.2407	0.1387	0.14939	0.18912	0.13874	0.018616	0.26752	0.11452	0.18423	0.081424	0.096926	0.17845	0.32702	0.26524	0.035239	-2.5438	-2.7521	-2.9146	-2.6625	-2.7146	-2.9667	-2.7979	-2.8771	-2.8604	-2.6458	-2.9229	-2.7417	-2.6625	-2.8125	-2.5396	-3.0771	194.869	-36.895	-41.244	136.133	-62.314	167.793	-91.867	150.514	9.281	124.876	136.025	127.820	-134.678	193.157	-122.574	94.117	0.0024847	0.0020423	0.00154	679.85	1.3576e-05	3.7518e-05	926.02	216.87	2.2501e-05	1.2546e-05	395.61	160.59	83.549	32.562	4.9031e-05	85.535	0.032856	0.039702	0.011049	1050.3	0.00041034	0.00043076	1248.2	321.35	0.00039861	0.00040977	2234.1	212.4	142.66	50.734	0.00038186	109.39	142.467	129.655	-62.706	-150.144	151.314	88.670	-150.038	-144.728	103.113	155.041	-144.887	-141.030	-141.961	-137.219	102.981	-137.449	-8191	255	
2076.203	1	1	0	0	0.23031	0.11939	0.1947	0.19205	0.28594	0.10288	0.111	0.31516	0.1749	0.18439	0.32924	0.19135	0.19589	0.22483	0.097454	0.15066	-2.1792	-2.6708	-2.7354	-2.5104	-2.625	-2.8021	-2.8146	-2.7896	-2.9062	-2.6542	-2.7812	-2.8563	-2.8063	-2.8312	-2.5917	-2.7521	50.018	14.107	7.717	6.311	52.921	59.288	159.157	66.022	-140.383	51.234	37.387	143.001	192.610	-95.094	96.004	-70.413	0.0019024	0.0027381	0.0005151	672.29	1.1451e-05	2.1943e-05	919.05	217.13	2.2393e-05	1.7078e-05	402.26	159.63	82.771	32.77	3.1417e-05	85.976	0.028651	0.034406	0.0094416	986.74	0.00034625	0.00036117	1182	302.74	0.00033246	0.00034146	1919.4	202.71	133.34	47.985	0.00032526	106.12	141.994	148.124	18.916	-150.180	-83.653	28.641	-150.009	-144.831	161.489	33.221	-146.209	-141.169	-142.330	-136.937	-111.124	-137.932	-8191	255	
#DATA ENDS
