BOXY.EXE: ISS Imagent and Oximeter Data Acquisition Program Version 0.80
Ascii Record File

#ACQ INFORMATION
2  Detector Channels 
16  External MUX Channels 
1  Auxiliary Channels 
5000  Waveform (CCF) Frequency (Hz)
1  Waveforms Skipped 
30  Waveforms Averaged 
1  Cycles Averaged 
16  Acquisitions per Waveform 
10.0806  Updata Rate (Hz) 

#FILE INFORMATION
TRUE -- External MUX Channel results are PARSED.
FALSE -- AC DC and Phase are NOT grouped.
TRUE -- Companion Program Settings File CREATED.
FALSE -- AC data not excluded
FALSE -- DC data not excluded
FALSE -- Phase data not excluded
FALSE -- Auxillary Chn. data not excluded
Tab delimiters

#CALIBRATION STATE
TRUE -- Waveform Calibration Values APPLIED.


#AUX CALIBRATION VALUES
Val Type	aux-1	

Term	1.0000e+00	
Factor	0.0000e+00	


#WF CALIBRATION VALUES
A = Detector Channel
Val Type	A-AC1	A-AC2	A-AC3	A-AC4	A-AC5	A-AC6	A-AC7	A-AC8	A-AC9	A-AC10	A-AC11	A-AC12	A-AC13	A-AC14	A-AC15	A-AC16	A-DC1	A-DC2	A-DC3	A-DC4	A-DC5	A-DC6	A-DC7	A-DC8	A-DC9	A-DC10	A-DC11	A-DC12	A-DC13	A-DC14	A-DC15	A-DC16	A-Ph1	A-Ph2	A-Ph3	A-Ph4	A-Ph5	A-Ph6	A-Ph7	A-Ph8	A-Ph9	A-Ph10	A-Ph11	A-Ph12	A-Ph13	A-Ph14	A-Ph15	A-Ph16	

Term	0.00000e+00	0.00000e+00	0.00000e+00	0.00000e+00	0.00000e+00	0.00000e+00	0.00000e+00	0.00000e+00	0.00000e+00	0.00000e+00	0.00000e+00	0.00000e+00	0.00000e+00	0.00000e+00	0.00000e+00	0.00000e+00	0.00000e+00	0.00000e+00	0.00000e+00	0.00000e+00	0.00000e+00	0.00000e+00	0.00000e+00	0.00000e+00	0.00000e+00	0.00000e+00	0.00000e+00	0.00000e+00	0.00000e+00	0.00000e+00	0.00000e+00	0.00000e+00	0.00000e+00	0.00000e+00	0.00000e+00	0.00000e+00	0.00000e+00	0.00000e+00	0.00000e+00	0.00000e+00	0.00000e+00	0.00000e+00	0.00000e+00	0.00000e+00	0.00000e+00	0.00000e+00	0.00000e+00	0.00000e+00	
Factor	1.00000e+00	1.00000e+00	1.00000e+00	1.00000e+00	1.00000e+00	1.00000e+00	1.00000e+00	1.00000e+00	1.00000e+00	1.00000e+00	1.00000e+00	1.00000e+00	1.00000e+00	1.00000e+00	1.00000e+00	1.00000e+00	1.00000e+00	1.00000e+00	1.00000e+00	1.00000e+00	1.00000e+00	1.00000e+00	1.00000e+00	1.00000e+00	1.00000e+00	1.00000e+00	1.00000e+00	1.00000e+00	1.00000e+00	1.00000e+00	1.00000e+00	1.00000e+00	X	X	X	X	X	X	X	X	X	X	X	X	X	X	X	X	

B = Detector Channel
Val Type	B-AC1	B-AC2	B-AC3	B-AC4	B-AC5	B-AC6	B-AC7	B-AC8	B-AC9	B-AC10	B-AC11	B-AC12	B-AC13	B-AC14	B-AC15	B-AC16	B-DC1	B-DC2	B-DC3	B-DC4	B-DC5	B-DC6	B-DC7	B-DC8	B-DC9	B-DC10	B-DC11	B-DC12	B-DC13	B-DC14	B-DC15	B-DC16	B-Ph1	B-Ph2	B-Ph3	B-Ph4	B-Ph5	B-Ph6	B-Ph7	B-Ph8	B-Ph9	B-Ph10	B-Ph11	B-Ph12	B-Ph13	B-Ph14	B-Ph15	B-Ph16	

Term	0.00000e+00	0.00000e+00	0.00000e+00	0.00000e+00	0.00000e+00	0.00000e+00	0.00000e+00	0.00000e+00	0.00000e+00	0.00000e+00	0.00000e+00	0.00000e+00	0.00000e+00	0.00000e+00	0.00000e+00	0.00000e+00	0.00000e+00	0.00000e+00	0.00000e+00	0.00000e+00	0.00000e+00	0.00000e+00	0.00000e+00	0.00000e+00	0.00000e+00	0.00000e+00	0.00000e+00	0.00000e+00	0.00000e+00	0.00000e+00	0.00000e+00	0.00000e+00	-1.99800e+02	-1.32036e+02	-1.16888e+02	-1.84163e+02	-8.14992e+01	-6.94175e+01	-1.57306e+02	-1.62015e+02	-8.64931e+01	-6.67769e+01	-1.77797e+02	-1.71882e+02	-1.81595e+02	-1.77192e+02	-7.35172e+01	-1.50103e+02	
Factor	3.79814e-05	1.92844e-04	5.09745e-05	1.70467e-01	1.91118e-06	1.87975e-06	1.61549e-01	5.09297e-02	1.97878e-06	1.84182e-06	9.46997e-01	2.66704e-02	2.93344e-02	8.92146e-03	1.95588e-06	1.25256e-02	7.13065e-06	8.70306e-06	2.43209e-06	8.69350e-02	9.20906e-08	9.60395e-08	7.77383e-02	2.60149e-02	9.20560e-08	9.54915e-08	4.40650e-01	1.32784e-02	1.50708e-02	4.60272e-03	9.35434e-08	6.26721e-03	X	X	X	X	X	X	X	X	X	X	X	X	X	X	X	X	



#DISTANCE SETTINGS
A = Detector Channel
A-1	A-2	A-3	A-4	A-5	A-6	A-7	A-8	A-9	A-10	A-11	A-12	A-13	A-14	A-15	A-16	

2.5000e+00	3.0000e+00	2.5000e+00	3.0000e+00	2.0000e+00	3.0000e+00	1.5000e+00	3.0000e+00	3.0000e+00	3.0000e+00	3.0000e+00	3.0000e+00	3.0000e+00	3.0000e+00	1.5000e+00	3.0000e+00	

B = Detector Channel
B-1	B-2	B-3	B-4	B-5	B-6	B-7	B-8	B-9	B-10	B-11	B-12	B-13	B-14	B-15	B-16	

1.0000e+01	1.0000e+01	1.0000e+01	1.4400e+00	1.0000e+01	1.0000e+01	1.5100e+00	1.9400e+00	1.0000e+01	1.0000e+01	1.9900e+00	2.4900e+00	2.4100e+00	2.9000e+00	1.0000e+01	2.9800e+00	




#DATA BEGINS
time	group	step	mark	flag	A-AC1	A-AC2	A-AC3	A-AC4	A-AC5	A-AC6	A-AC7	A-AC8	A-AC9	A-AC10	A-AC11	A-AC12	A-AC13	A-AC14	A-AC15	A-AC16	A-DC1	A-DC2	A-DC3	A-DC4	A-DC5	A-DC6	A-DC7	A-DC8	A-DC9	A-DC10	A-DC11	A-DC12	A-DC13	A-DC14	A-DC15	A-DC16	A-Ph1	A-Ph2	A-Ph3	A-Ph4	A-Ph5	A-Ph6	A-Ph7	A-Ph8	A-Ph9	A-Ph10	A-Ph11	A-Ph12	A-Ph13	A-Ph14	A-Ph15	A-Ph16	B-AC1	B-AC2	B-AC3	B-AC4	B-AC5	B-AC6	B-AC7	B-AC8	B-AC9	B-AC10	B-AC11	B-AC12	B-AC13	B-AC14	B-AC15	B-AC16	B-DC1	B-DC2	B-DC3	B-DC4	B-DC5	B-DC6	B-DC7	B-DC8	B-DC9	B-DC10	B-DC11	B-DC12	B-DC13	B-DC14	B-DC15	B-DC16	B-Ph1	B-Ph2	B-Ph3	B-Ph4	B-Ph5	B-Ph6	B-Ph7	B-Ph8	B-Ph9	B-Ph10	B-Ph11	B-Ph12	B-Ph13	B-Ph14	B-Ph15	B-Ph16	aux-1	digaux	

562.145	1	1	0	256	0.15092	0.046134	0.1432	0.17229	0.10366	0.15396	0.088762	0.31057	0.16937	0.044264	0.062782	0.16565	0.10427	0.095099	0.074065	0.021317	-2.3563	-3.2021	-3.1188	-3.1479	-3.1333	-3.0854	-3.2917	-3.3479	-2.8646	-3.3146	-3.2021	-2.9875	-3.2313	-3.0479	-3.1625	-3.4125	-115.693	225.444	208.522	-86.327	-29.419	61.594	-133.351	178.613	-107.573	-127.472	93.754	22.423	137.718	173.267	7.129	-55.830	0.00038563	0.0002503	0.00013642	1257	1.7814e-06	4.4828e-06	1320.8	262.94	4.4052e-06	4.7933e-06	335.25	94.297	75.173	21.395	3.6979e-06	30.18	0.00023917	0.00021179	6.2226e-05	1234.2	2.435e-06	2.3134e-06	1307.4	261	2.5379e-06	2.3187e-06	318.26	94.1	74.504	21.565	2.4378e-06	30.538	129.766	-45.140	-56.959	-122.696	-9.962	8.103	-122.909	-115.683	-35.314	59.878	-115.781	-109.798	-109.691	-102.111	32.940	-102.619	-8191	255	
562.217	1	1	0	0	0.15685	0.055331	0.088082	0.28286	0.093409	0.24646	0.31272	0.088012	0.16089	0.21468	0.13787	0.14252	0.082153	0.044433	0.22606	0.05884	-2.4646	-3.2917	-3.1917	-2.9479	-3.2104	-3	-3.2854	-3.4521	-3.1854	-3.1167	-3.2812	-2.9646	-3.2625	-3.2083	-2.8688	-3.25	-78.346	-65.494	10.525	132.719	173.036	30.055	121.127	126.442	146.613	-81.754	132.839	-73.689	77.262	72.357	-92.548	-36.302	0.00038162	0.00024558	8.6797e-05	1256.8	3.0565e-06	5.8003e-06	1327.5	263.45	2.9185e-06	3.6949e-06	328.35	94.205	74.604	21.581	2.1766e-06	30.176	0.00024472	0.00020855	5.8456e-05	1234.9	2.4792e-06	2.2969e-06	1310.2	261.01	2.3764e-06	2.2675e-06	319.18	94.508	74.488	21.66	2.3037e-06	30.518	131.323	-74.429	-33.228	-122.687	-16.033	19.681	-122.793	-115.871	-37.314	56.737	-115.730	-109.675	-109.489	-101.904	82.966	-102.549	-8191	255	
562.337	1	1	0	0	0.16767	0.40751	0.11776	0.10743	0.12556	0.17484	0.19918	0.062252	0.22596	0.12986	0.17186	0.19111	0.11151	0.2614	0.094238	0.16307	-2.6521	-3.1167	-3.1083	-3.0687	-3.3063	-3.1708	-2.9958	-3.5396	-3.1125	-3.2562	-3.0729	-3	-3.3271	-3.0792	-2.9958	-3.475	-18.636	-9.168	66.954	-127.473	179.561	-32.623	196.393	-111.393	-113.891	-3.526	85.955	163.532	-63.061	209.560	-68.994	45.331	0.00038341	0.00056828	8.6536e-05	1257.1	1.43e-06	3.626e-06	1328.2	264.82	3.5342e-06	2.7658e-06	332.32	94.251	74.792	21.467	5.9962e-06	30.16	0.00024143	0.00020858	5.8208e-05	1236.6	2.3433e-06	2.3097e-06	1310.3	261.9	2.488e-06	2.1772e-06	320.01	94.58	74.615	21.664	2.2793e-06	30.547	133.758	-24.494	-46.780	-122.554	17.098	10.622	-122.828	-115.888	-56.318	28.037	-116.368	-109.325	-109.188	-102.237	41.081	-102.668	-8191	255	
562.433	1	1	0	0	0.15572	0.10754	0.169	0.23336	0.25432	0.25653	0.23211	0.1702	0.12626	0.25101	0.20777	0.1721	0.060582	0.21277	0.16272	0.15989	-2.6292	-2.9562	-3.2313	-3.0875	-3.1562	-3.1063	-3.2792	-3.2833	-3.0729	-3.3583	-3.3667	-3.0667	-3.2375	-3.2083	-3.0833	-3.2604	118.392	58.276	-16.254	148.533	159.694	21.860	178.491	159.015	-68.807	196.555	140.372	24.972	-27.629	207.679	78.946	-114.813	0.00041065	0.00038488	0.00013689	1257	3.059e-06	2.1643e-06	1332.7	264.68	5.0938e-06	5.2332e-06	329.99	95.134	74.833	21.494	2.3803e-06	30.318	0.00023356	0.00019805	5.4484e-05	1236.4	2.2449e-06	2.2075e-06	1311.8	262.64	2.3037e-06	2.1128e-06	321.54	95.079	74.77	21.674	2.1597e-06	30.659	133.691	-24.753	-52.264	-122.683	-11.649	14.346	-122.919	-115.972	-31.135	14.391	-114.956	-109.947	-109.389	-102.084	-2.066	-102.443	-8191	255	
562.530	1	1	0	0	0.080617	0.15685	0.042098	0.13296	0.28178	0.13487	0.33503	0.063534	0.26454	0.17034	0.057849	0.20336	0.086345	0.27118	0.30108	0.16615	-2.5563	-3.05	-3.25	-2.8854	-3.3063	-3.2438	-3.1063	-3.5	-2.9896	-3.1333	-3.2521	-2.9437	-3.2083	-3.3833	-2.8479	-3.3104	71.465	175.472	180.990	173.767	-45.230	77.856	117.937	158.591	108.814	117.286	74.508	-117.100	17.446	214.051	115.005	75.763	0.00035994	0.00042572	5.4902e-05	1252.9	1.2536e-06	2.1839e-06	1325.3	264.85	4.2818e-06	1.6468e-06	331.78	94.832	75.054	21.431	1.6568e-06	30.331	0.00023059	0.00020082	5.7073e-05	1236.1	2.2635e-06	2.2037e-06	1313.1	263.37	2.2778e-06	2.1764e-06	321.77	95.155	74.957	21.673	2.2591e-06	30.647	133.944	-50.253	-5.373	-122.564	-7.968	38.471	-122.774	-115.850	-48.545	-71.221	-115.647	-109.494	-109.418	-101.769	43.386	-102.675	-8191	255	
562.626	1	1	0	0	0.088415	0.23676	0.14335	0.14005	0.072414	0.1562	0.14294	0.41927	0.11206	0.20588	0.063939	0.11384	0.22106	0.19863	0.057064	0.12078	-2.8458	-3.0167	-3.175	-3.2062	-3.2896	-3.2292	-2.9583	-3.4292	-3.0938	-2.8583	-3.4667	-3.0438	-3.1625	-3.4396	-2.9833	-3.1771	55.044	52.872	-50.115	182.083	182.697	105.196	111.644	27.467	173.526	92.857	99.724	-117.564	-74.537	-70.523	126.965	153.599	0.00040104	0.0004866	0.00011341	1258	2.9532e-06	2.324e-06	1328.3	266.19	4.1337e-06	1.4116e-06	333.73	94.698	75.222	21.525	5.3644e-06	30.204	0.00023145	0.00019925	5.5735e-05	1236.8	2.3111e-06	2.1105e-06	1312.6	264.13	2.2928e-06	2.1513e-06	321.81	94.842	74.905	21.692	2.1075e-06	30.664	129.961	-70.023	-42.714	-122.808	-75.138	-21.356	-122.587	-115.993	-54.069	-13.662	-115.966	-109.611	-109.618	-101.835	6.495	-102.399	-8191	255	
562.745	1	1	0	0	0.093126	0.32418	0.2952	0.17234	0.084955	0.33505	0.11562	0.2339	0.056798	0.048668	0.13025	0.26991	0.072367	0.23512	0.11205	0.030003	-2.5958	-2.9167	-3.0687	-2.9896	-3.1708	-3.2438	-3.0687	-3.2833	-3.0396	-2.9	-3.1667	-3.0958	-2.9188	-3.325	-3.0125	-3.0979	69.852	200.746	112.141	137.708	60.162	-22.366	174.342	198.022	174.343	30.111	87.605	199.803	-91.704	-61.531	-43.728	129.198	0.0004011	0.00036301	8.5566e-05	1257.1	3.6121e-06	3.7094e-06	1321.9	266	2.943e-06	3.5832e-06	341.45	94.938	75.104	21.567	4.0008e-06	30.296	0.00022205	0.00020028	4.9453e-05	1232.6	2.1517e-06	2.0194e-06	1306.4	263.59	2.1884e-06	2.0232e-06	320.83	95.056	74.82	21.715	2.0303e-06	30.627	126.206	-27.303	-25.831	-122.562	-21.504	30.751	-122.897	-115.931	-64.101	39.596	-116.414	-109.587	-109.591	-101.946	-10.654	-102.736	-8191	255	
562.841	1	1	0	0	0.092092	0.069247	0.078539	0.26144	0.21001	0.12381	0.30182	0.22006	0.17095	0.085376	0.17581	0.30567	0.13617	0.052556	0.17993	0.26706	-2.7	-2.9146	-3.2083	-3.3354	-3.0812	-3.375	-3.2687	-3.1979	-3.3	-2.9875	-3.1437	-3.2292	-2.95	-3.2167	-2.9396	-3.175	197.444	-80.026	-121.300	116.634	187.215	185.836	174.534	205.757	54.348	186.444	206.152	180.816	-54.094	123.633	93.150	112.231	0.00039197	0.00031035	6.9445e-05	1248.4	3.4949e-06	3.1595e-06	1320.7	266.16	3.9199e-06	3.7538e-06	337.14	95.151	75.811	21.427	3.7852e-06	30.572	0.00021754	0.00018159	4.9751e-05	1229.2	2.1614e-06	1.9228e-06	1305.7	264.01	2.0653e-06	2.0559e-06	322.01	94.929	75.09	21.675	2.0299e-06	30.683	132.312	-42.372	-45.250	-122.422	-15.632	-13.375	-122.690	-115.855	-45.128	-10.867	-116.394	-109.954	-109.604	-101.954	24.393	-102.443	-8191	255	
562.912	1	1	0	0	0.22718	0.12019	0.057346	0.32011	0.20844	0.1138	0.17878	0.12112	0.24686	0.11193	0.25571	0.26895	0.16335	0.3124	0.22566	0.23595	-2.9083	-3.1146	-3.0604	-3.1208	-2.8792	-3.3021	-3.1562	-2.9625	-3.2188	-2.9521	-2.9521	-3.1333	-3.0271	-3.3563	-2.9729	-3.15	-35.947	-38.765	102.059	189.880	-102.490	4.686	147.357	164.103	200.749	223.124	-34.956	101.390	-83.200	175.413	-59.087	100.435	0.00044266	0.00032338	9.6139e-05	1254.2	3.1965e-06	3.7983e-06	1317.4	267.62	3.2911e-06	3.6142e-06	338.42	94.845	75.035	21.636	4.3487e-06	30.349	0.00022062	0.00018715	4.891e-05	1233.3	2.1142e-06	1.9842e-06	1307.6	264.53	2.1719e-06	1.9848e-06	321.88	95.033	74.839	21.79	1.934e-06	30.71	131.514	-37.025	-27.531	-122.521	-47.286	30.770	-122.640	-115.912	-80.329	-4.416	-116.197	-109.710	-109.845	-101.926	6.060	-102.703	-8191	255	
563.010	1	1	0	0	0.074426	0.067397	0.051473	0.22317	0.31618	0.054546	0.24537	0.17534	0.077755	0.22991	0.21823	0.22762	0.24671	0.094708	0.14613	0.24943	-2.8417	-2.7646	-3.0792	-3.3625	-3.0417	-3.1625	-3.2729	-3.2625	-3.3146	-2.925	-3.1083	-3.3438	-2.9104	-3.0687	-3.0042	-3.1562	75.418	-41.506	-80.315	193.925	-74.823	46.727	180.206	144.560	194.466	32.166	107.667	203.642	113.451	20.757	-22.560	54.954	0.00041335	0.0001529	0.00013718	1255.1	1.9697e-06	4.8537e-06	1326.1	267.28	4.2996e-06	2.0979e-06	338.64	95.289	74.786	21.644	4.6386e-06	30.526	0.00020621	0.00017926	5.0998e-05	1230.1	2.1298e-06	1.9314e-06	1310.2	265.59	2.03e-06	1.9516e-06	322.38	95.266	74.992	21.782	1.9648e-06	30.735	127.747	-14.331	-17.816	-122.818	-31.805	0.500	-122.694	-115.845	-51.069	23.174	-116.005	-109.545	-109.456	-101.974	-0.039	-102.591	-8191	255	
563.129	1	1	0	0	0.085502	0.068999	0.16488	0.33818	0.093134	0.06984	0.27873	0.22108	0.14279	0.25386	0.10686	0.18289	0.20057	0.24067	0.18342	0.12845	-2.7354	-2.9938	-3.1396	-3.4458	-2.8583	-3.2042	-3.3583	-3.0687	-3.3625	-3.0062	-2.9729	-3.2167	-2.9813	-3.3292	-3.1667	-2.7417	37.159	141.020	54.476	178.772	26.219	-71.582	142.684	2.093	8.093	59.894	-37.946	141.532	-133.059	195.952	202.839	178.918	0.00038231	0.00029197	7.2713e-05	1257.7	1.0661e-06	2.936e-06	1320.9	269.14	3.1426e-06	3.6774e-06	342.69	95.388	75.708	21.61	4.5156e-06	30.308	0.00021748	0.00018465	4.9878e-05	1231.8	2.1728e-06	1.9752e-06	1307	265.77	2.1915e-06	2.062e-06	323.96	95.366	75.177	21.774	2.1343e-06	30.726	138.128	-39.357	-72.042	-122.309	-32.097	21.496	-122.622	-115.758	-45.307	57.413	-115.851	-109.822	-109.602	-101.876	33.864	-102.711	-8191	255	
563.225	1	1	0	0	0.1226	0.099765	0.22825	0.21782	0.17092	0.060458	0.15726	0.2579	0.39019	0.092343	0.25401	0.13237	0.21817	0.16301	0.087747	0.060471	-2.8875	-3.0062	-3.0938	-3.2042	-2.8438	-3.2354	-3.325	-2.9313	-3.1542	-3.0271	-3.0833	-3.3208	-3.0104	-3.2438	-2.9813	-3.0292	64.306	209.127	140.813	145.398	111.869	117.328	143.844	136.121	68.282	-114.093	-78.157	170.544	176.692	201.056	61.514	142.663	0.00040867	0.0003248	8.5371e-05	1250.7	3.2014e-06	1.9969e-06	1325.5	270.08	2.5955e-06	4.0707e-06	334.46	95.345	75.291	21.685	2.5315e-06	30.342	0.00021105	0.0001882	5.1722e-05	1232	2.1494e-06	1.8344e-06	1310.3	266.9	2.0425e-06	1.9144e-06	322.6	95.595	75.239	21.836	1.9703e-06	30.753	131.427	-53.280	-33.294	-122.474	-25.770	-23.631	-122.745	-115.752	-31.015	7.756	-116.072	-109.364	-109.914	-102.034	-5.959	-102.357	-8191	255	
563.321	1	1	0	0	0.095527	0.12985	0.21403	0.22734	0.18092	0.2404	0.26761	0.25441	0.25769	0.17392	0.16859	0.27087	0.14105	0.14155	0.15085	0.27003	-2.6958	-3.05	-3.0083	-3.4354	-2.925	-3.1896	-3.3979	-3.0583	-3.0583	-2.9646	-3.0708	-3.4562	-3.0708	-2.9854	-3.175	-3.0271	-65.483	-63.537	-128.376	136.299	24.637	211.729	178.904	144.987	177.101	84.713	-84.665	-84.609	131.082	-13.168	171.240	183.159	0.00041421	0.00024269	8.1438e-05	1254.4	2.6094e-06	1.0621e-06	1327.4	269.62	1.2815e-06	2.8695e-06	337.13	95.372	75.692	21.853	1.4752e-06	30.41	0.00020767	0.00017854	4.8287e-05	1233.2	2.1016e-06	1.8378e-06	1310.8	267.54	2.0254e-06	1.8856e-06	322.78	95.834	75.362	21.903	1.9428e-06	30.809	136.375	-41.734	-1.451	-122.614	-21.005	-36.029	-122.701	-116.074	-31.157	15.559	-116.480	-109.632	-109.629	-102.091	-5.761	-102.604	-8191	255	
563.442	1	1	0	0	0.12516	0.01835	0.10954	0.33701	0.15105	0.21073	0.30021	0.15981	0.31976	0.21274	0.19508	0.29463	0.14781	0.25296	0.025429	0.26016	-3.0792	-3.0146	-2.7729	-3.2938	-2.7979	-3.1021	-3.5396	-2.9979	-2.9875	-2.9417	-2.7833	-3.2396	-3.1479	-3.1229	-3.075	-3.0021	54.876	52.965	57.570	197.005	-64.748	-16.339	190.755	-103.068	105.982	64.370	125.578	138.186	51.368	97.195	-78.968	72.242	0.00038974	0.00032745	9.5457e-05	1259.7	2.5405e-06	2.0387e-06	1326	269.62	3.4115e-06	3.528e-06	344	95.657	74.983	21.699	2.5349e-06	30.527	0.00021276	0.00017774	5.0739e-05	1235.1	2.0966e-06	1.8308e-06	1310.6	267.29	2.0607e-06	1.9329e-06	325.79	95.683	75.254	21.839	1.9792e-06	30.842	133.780	-24.352	-36.305	-122.402	-14.959	58.025	-122.760	-115.713	-37.727	48.447	-115.137	-109.580	-109.864	-101.757	25.745	-102.366	-8191	255	
563.514	1	1	0	0	0.15302	0.11206	0.17451	0.29502	0.095345	0.16411	0.18293	0.083785	0.20631	0.05876	0.27418	0.082031	0.13637	0.37692	0.084332	0.060594	-2.6229	-3.1854	-3.1813	-3.3125	-2.9292	-3.1542	-3.4729	-3.1646	-3.1979	-3.0958	-3.0521	-3.4646	-3.1437	-2.9958	-3.3792	-3.1875	-1.255	168.002	130.502	111.584	180.395	98.818	160.273	-120.793	158.454	23.569	3.798	196.854	173.782	181.782	49.436	117.077	0.00035688	0.00035937	6.9971e-05	1255.5	3.8997e-06	4.7744e-06	1330.1	271.74	2.5791e-06	4.6135e-06	343.17	95.703	75.329	21.715	4.7908e-06	30.586	0.00020992	0.00017939	4.9929e-05	1233.8	2.2248e-06	2.0082e-06	1312	268.14	2.0452e-06	1.9618e-06	324.78	95.712	75.354	21.891	1.9015e-06	30.926	136.555	-42.378	-14.450	-122.792	2.327	3.162	-122.629	-115.779	-31.847	3.886	-116.021	-109.690	-109.786	-102.166	31.423	-102.392	-8191	255	
563.610	1	1	0	0	0.16002	0.064747	0.26854	0.4097	0.060515	0.065875	0.16267	0.17081	0.12076	0.22703	0.12872	0.40082	0.30387	0.21885	0.11886	0.21819	-2.6	-3.0104	-2.9479	-3.5521	-3.2167	-3.0729	-3.2396	-2.9437	-3.2333	-3.2729	-2.5792	-3.0208	-3.1625	-2.9021	-3.0854	-3.0438	167.960	62.281	-127.799	140.254	214.147	-35.861	140.336	213.335	14.385	138.344	92.941	146.151	163.315	-119.853	-126.623	-90.347	0.00041281	0.00045421	9.8357e-05	1255.9	1.6303e-06	3.0006e-06	1328.7	270.73	2.9298e-06	2.6611e-06	341.86	96.2	75.447	21.814	5.2211e-06	30.524	0.00020605	0.00017397	4.8622e-05	1232.7	1.8731e-06	1.8105e-06	1310	268.34	1.8941e-06	1.7447e-06	323.74	96.115	75.332	21.93	1.7467e-06	30.826	128.889	-64.282	-11.303	-122.419	42.620	-15.457	-122.856	-115.832	-58.845	8.265	-115.454	-109.549	-109.472	-102.058	19.402	-102.460	-8191	255	
563.731	1	1	0	0	0.2298	0.093318	0.29873	0.31773	0.1422	0.10752	0.32582	0.14814	0.18094	0.21926	0.10854	0.17149	0.015064	0.2744	0.12267	0.18981	-2.6771	-3.2479	-2.9771	-3.2354	-3.3792	-2.8063	-3.2104	-3.0563	-3.0354	-3.3896	-2.8125	-3.0896	-3.3187	-3.1708	-3.2583	-3.0771	196.359	-84.843	-59.628	-110.652	-63.660	-78.287	167.679	108.350	186.264	-67.136	207.648	165.383	119.181	126.196	83.921	223.250	0.000404	0.00036316	0.00011573	1251.5	3.4738e-06	3.0783e-06	1326.8	270.8	2.2402e-06	3.8432e-06	342.31	95.887	75.412	21.885	3.2485e-06	30.601	0.00020269	0.00016603	4.7507e-05	1229.7	1.932e-06	1.7831e-06	1308.4	268.48	1.9259e-06	1.8563e-06	325.89	95.998	75.442	21.921	1.8025e-06	30.911	130.498	-36.524	3.449	-122.511	-4.226	1.357	-122.713	-116.025	-39.498	38.094	-115.746	-109.397	-109.479	-101.995	-6.601	-102.555	-8191	255	
563.825	1	1	0	0	0.02632	0.15363	0.1729	0.19961	0.25972	0.072339	0.14321	0.33831	0.11345	0.15456	0.27972	0.18989	0.024239	0.1036	0.093932	0.173	-2.7854	-3.4292	-2.9708	-3.2854	-3.2896	-2.8812	-3.2792	-3.1125	-3.1979	-3.2062	-3.0646	-3.2062	-3.0687	-3.0104	-3.2458	-2.9708	86.519	19.259	212.707	203.828	-115.700	104.215	117.329	-89.542	192.906	-120.190	-121.276	148.420	27.183	-61.285	-80.551	-95.439	0.00037913	0.00018138	9.9094e-05	1249.8	1.4716e-06	2.401e-06	1327.1	272.3	2.9125e-06	3.5442e-06	344.18	96.253	74.986	21.729	4.4623e-06	30.757	0.00019609	0.00016121	4.6255e-05	1229.6	1.9324e-06	1.8296e-06	1310.1	268.79	1.8524e-06	1.8211e-06	325.58	95.971	75.242	21.844	1.7664e-06	30.947	135.792	-73.414	-18.522	-122.443	-72.359	17.993	-122.797	-116.007	-53.036	10.038	-115.879	-109.677	-109.392	-101.926	16.798	-102.125	-8191	255	
563.921	1	1	0	0	0.14852	0.19808	0.035863	0.14436	0.12687	0.26069	0.092951	0.18203	0.094764	0.13365	0.0587	0.058944	0.13071	0.12446	0.15717	0.21636	-2.6	-3.3604	-3.0208	-3.3792	-3.5375	-2.9167	-3.4313	-3.125	-3.0604	-3.3125	-3.0438	-2.8896	-3.1229	-3.0062	-3.2583	-3.2354	213.624	39.700	-65.210	124.435	-62.130	-80.017	134.548	215.105	57.647	119.605	92.284	-91.858	32.148	-37.491	-41.474	31.347	0.0003773	0.00026556	7.3176e-05	1252.1	3.4779e-06	3.7429e-06	1324.3	270.49	4.7789e-06	3.4149e-06	339.58	95.929	75.331	21.66	2.9726e-06	30.472	0.00020466	0.0001609	4.6514e-05	1230.2	2.0116e-06	1.7811e-06	1306.6	268.23	1.9464e-06	1.7722e-06	323.45	95.83	75.306	21.832	1.8177e-06	30.809	132.188	-45.438	-61.239	-122.633	-43.409	67.219	-122.565	-115.963	-14.251	-25.662	-115.845	-109.599	-109.637	-101.834	-1.273	-102.368	-8191	255	
564.042	1	1	0	0	0.11283	0.10111	0.17228	0.25791	0.19658	0.25965	0.37342	0.11557	0.21964	0.14432	0.22733	0.16096	0.18711	0.096924	0.10486	0.13462	-2.5083	-3.2479	-3.0542	-3.0083	-3.1667	-2.9229	-3.2854	-3.2667	-2.8688	-3.2708	-3.0938	-3.1042	-3.1917	-2.9375	-3.325	-3.1917	-63.340	142.555	14.805	178.046	-80.442	218.117	178.438	111.141	68.962	32.025	-126.661	-53.190	51.010	222.337	-84.310	128.871	0.00037061	0.00031024	8.7051e-05	1251.5	3.1714e-06	3.0015e-06	1320.1	270.4	5.0805e-06	1.0895e-06	341.42	96.285	75.619	21.717	4.3461e-06	30.615	0.00021174	0.00016915	4.9635e-05	1227.8	2.0195e-06	1.9118e-06	1307	267.61	2.1029e-06	1.8539e-06	323.92	95.901	75.379	21.859	1.7452e-06	30.906	130.005	-42.060	-19.669	-122.755	-18.091	21.523	-122.811	-116.145	-56.535	57.160	-115.410	-109.368	-109.622	-101.970	8.555	-102.430	-8191	255	
564.113	1	1	0	0	0.27411	0.091108	0.22349	0.14973	0.010492	0.18407	0.34028	0.27318	0.071881	0.14868	0.088814	0.20524	0.27496	0.28905	0.06192	0.15157	-2.45	-3.5021	-3.0354	-3.125	-3.3292	-3.1021	-3.2417	-3.4167	-3.0729	-3.1437	-3.0938	-3.2146	-3.1854	-2.9292	-3.1354	-3.3458	77.835	215.851	209.454	205.709	171.295	-118.230	111.777	130.083	181.348	95.185	-132.887	182.476	112.393	-35.998	170.880	-125.866	0.00034247	0.0003227	0.00015316	1253.1	1.799e-06	2.4515e-06	1334.3	271.83	3.2608e-06	4.0034e-06	347.97	96.286	76.027	21.871	2.4121e-06	30.496	0.00020174	0.00015878	4.853e-05	1232.7	1.9907e-06	1.876e-06	1314.4	268.75	2.1668e-06	1.8267e-06	328.35	96.106	75.671	21.929	1.918e-06	30.869	133.228	-21.533	-46.843	-122.634	-71.989	23.999	-122.632	-115.859	-70.969	32.571	-116.721	-109.828	-109.800	-102.061	85.806	-102.837	-8191	255	
564.210	1	1	0	0	0.19673	0.077283	0.16397	0.25634	0.1757	0.16448	0.27242	0.037009	0.15826	0.10335	0.27942	0.10456	0.30545	0.049463	0.22909	0.098015	-2.5167	-3.0958	-2.9708	-3.1083	-3.4875	-2.9604	-3.3042	-3.4021	-2.8854	-3.3354	-3.225	-2.9208	-3.2125	-3.0042	-3.1792	-3.3104	64.568	-29.342	24.739	-96.795	117.222	46.433	194.654	21.686	90.654	37.673	157.493	132.623	106.597	202.022	49.115	-16.681	0.00041661	0.00028244	7.3103e-05	1260.1	1.9149e-06	2.6975e-06	1331.8	270.9	3.6819e-06	3.043e-06	339.08	95.944	75.926	21.677	3.3545e-06	30.676	0.00022105	0.00018402	5.3065e-05	1236.1	2.1697e-06	2.1115e-06	1312.8	268.55	2.3227e-06	2.0131e-06	326.06	95.673	75.516	21.864	2.078e-06	30.874	126.118	-51.028	-1.565	-122.476	-32.983	15.585	-122.618	-115.738	-57.782	31.097	-116.596	-109.530	-109.425	-102.336	-18.207	-102.131	-8191	255	
564.306	1	1	0	0	0.23841	0.28962	0.24486	0.14897	0.19388	0.1851	0.25601	0.26222	0.16078	0.25223	0.049828	0.18599	0.12433	0.18789	0.17561	0.015995	-2.6792	-3.1604	-3.0292	-2.9292	-3.2729	-3.2	-3.3063	-3.3312	-2.9625	-3.1917	-3.2729	-2.8104	-3.3333	-2.9667	-3.0125	-3.3187	81.322	136.592	-87.240	-24.601	43.115	51.663	57.759	148.355	34.183	-114.645	112.948	221.841	1.520	-106.387	-94.717	95.477	0.00035167	0.00054665	6.5004e-05	1259.2	3.1816e-06	2.6796e-06	1329.4	271.04	3.2101e-06	2.0931e-06	336.76	95.54	75.745	21.634	3.5155e-06	30.446	0.00022983	0.00018996	5.491e-05	1237.2	2.2998e-06	2.1625e-06	1314.3	268.75	2.2228e-06	2.0543e-06	326.32	95.737	75.218	21.817	2.1365e-06	30.764	126.468	-41.826	-24.950	-122.581	-9.933	-1.870	-122.921	-115.815	-65.929	57.750	-116.992	-109.453	-109.160	-102.019	-2.596	-102.614	-8191	255	
564.426	1	1	0	0	0.29722	0.12428	0.19223	0.31936	0.13269	0.070197	0.16995	0.092815	0.24447	0.16458	0.23992	0.057375	0.19909	0.18779	0.23098	0.072093	-2.8083	-3.0604	-3.0771	-3.0521	-3.2333	-3.025	-3.0812	-3.3792	-3.0438	-3.1437	-3.3396	-3.0125	-3.0563	-3.075	-3.0771	-3.3604	78.390	149.721	-52.407	221.390	-98.056	-51.440	199.211	192.743	-99.426	100.446	181.168	11.625	180.598	-23.329	-127.948	-104.412	0.0004063	0.0003233	0.0001054	1260.9	3.151e-06	1.8578e-06	1326	271.1	3.0525e-06	3.8306e-06	340.1	95.948	75.738	21.75	3.1726e-06	30.388	0.00022937	0.00019513	5.5041e-05	1237.2	2.2545e-06	2.1999e-06	1314.2	268.52	2.2699e-06	2.0509e-06	325.16	95.724	75.343	21.855	2.2197e-06	30.78	135.411	-51.371	-42.165	-122.588	-46.130	-2.861	-122.609	-115.892	-39.658	30.328	-116.562	-109.340	-109.572	-102.258	-11.536	-102.491	-8191	255	
564.523	1	1	0	0	0.2201	0.045034	0.16313	0.083008	0.043795	0.10207	0.131	0.27399	0.28968	0.035108	0.046578	0.0052648	0.14239	0.11403	0.23712	0.13675	-2.5479	-2.8625	-3.3917	-3.1208	-3.2062	-3.2229	-3.0917	-3.6167	-3.0479	-3.0271	-3.4062	-2.9896	-3.1021	-3.3917	-3.0021	-3.2188	-85.185	-64.839	9.743	-18.909	57.213	190.173	125.614	-128.097	-72.288	93.980	108.333	141.125	99.649	169.060	31.974	157.381	0.00039198	0.00017621	4.7174e-05	1259.1	3.1307e-06	4.0359e-06	1333.3	271.37	4.6038e-06	2.2309e-06	338.83	96.036	75.258	21.85	2.0261e-06	30.324	0.00022873	0.00019181	5.3344e-05	1237.4	2.2714e-06	2.1051e-06	1315.8	268.64	2.2395e-06	2.1215e-06	326.09	95.971	75.354	21.923	2.1887e-06	30.838	132.068	-36.409	-81.691	-122.507	-12.223	-27.657	-122.738	-115.974	-55.752	31.872	-115.745	-109.881	-109.704	-102.447	20.203	-102.725	-8191	255	
564.619	1	1	0	0	0.3642	0.065864	0.13854	0.29522	0.18652	0.21177	0.054091	0.16061	0.093024	0.15423	0.065965	0.13751	0.22807	0.17955	0.10988	0.2533	-2.6813	-3.0708	-3.1583	-3.1875	-3.0708	-3.175	-3.1396	-3.3583	-2.9813	-2.9521	-3.1542	-2.8583	-3.1437	-3.1063	-2.9188	-3.3646	-28.975	4.349	201.041	206.998	-81.525	26.278	88.969	87.659	-132.834	-48.335	185.167	-25.482	103.818	-71.042	193.040	-123.030	0.00037837	0.00025285	0.00010394	1267	3.3939e-06	1.8639e-06	1334.8	270.63	2.044e-06	2.7406e-06	338.8	95.4	75.968	21.793	3.4573e-06	30.515	0.0002239	0.00018481	4.9513e-05	1240.5	2.2194e-06	2.1429e-06	1317.1	268.69	2.2249e-06	2.0407e-06	326.66	95.93	75.691	21.857	2.0626e-06	30.822	133.785	-28.038	-51.396	-122.614	-11.251	-18.794	-122.799	-115.939	-35.331	39.192	-116.021	-109.558	-109.781	-102.196	4.801	-102.733	-8191	255	
564.715	1	1	0	0	0.29973	0.16787	0.21576	0.19631	0.10982	0.27223	0.37125	0.057931	0.10964	0.13295	0.22051	0.01427	0.21297	0.13133	0.27061	0.20535	-2.5875	-3.2542	-3.1375	-3.1896	-3.2938	-3.1646	-3.1521	-3.3625	-3.1229	-2.9562	-3.2896	-3.4083	-3.1625	-3.2188	-3.0208	-3.3396	203.660	81.347	-64.518	207.525	-132.211	-78.854	136.858	-132.133	84.589	136.630	198.788	-85.403	-113.426	61.856	143.191	219.189	0.00042319	0.00037252	0.00013345	1258.7	7.6807e-07	3.3729e-06	1335.1	272.06	3.6707e-06	8.3311e-07	347.84	95.672	76.067	21.662	4.3314e-06	30.517	0.00022167	0.00019382	5.1241e-05	1240.2	2.1802e-06	2.1153e-06	1317.8	268.88	2.0939e-06	2.0385e-06	327.32	95.942	75.702	21.88	2.0728e-06	30.881	124.908	-68.652	-20.686	-122.602	-79.530	7.949	-122.748	-116.175	-59.539	16.265	-115.707	-109.785	-109.858	-102.305	12.093	-102.383	-8191	255	
564.809	1	1	0	0	0.31433	0.085727	0.23233	0.25368	0.11825	0.13406	0.31294	0.272	0.22046	0.26326	0.049425	0.2959	0.1712	0.073314	0.090822	0.062951	-2.6625	-2.9958	-3.3125	-3.1708	-3.0438	-3.3708	-3.0979	-3.1292	-3.2625	-2.9271	-3.3333	-2.9688	-2.9458	-3.4083	-2.9958	-3.2562	123.418	44.829	28.604	201.987	64.609	91.722	131.464	152.199	-90.044	-12.950	68.232	164.309	-16.511	-105.389	-95.864	196.871	0.00037879	0.00029506	8.7684e-05	1268.2	2.6972e-06	3.4173e-06	1334.2	271.47	2.3409e-06	4.0174e-06	339.39	95.817	75.596	21.611	3.4191e-06	30.399	0.00022772	0.00019288	5.0623e-05	1241.8	2.2165e-06	2.024e-06	1318.4	269.03	2.2195e-06	2.0049e-06	326.19	95.852	75.712	21.871	2.1217e-06	30.867	132.959	-34.888	-57.920	-122.501	-0.216	22.474	-122.722	-116.000	-44.824	5.359	-115.645	-109.638	-109.479	-101.650	-7.376	-102.494	-8191	255	
564.905	1	1	0	0	0.1853	0.12977	0.15309	0.19087	0.17101	0.11923	0.22862	0.13894	0.16353	0.18753	0.27386	0.27846	0.10503	0.18255	0.33178	0.11009	-2.7979	-2.8771	-3.3083	-3.0687	-3.0771	-3.4479	-3.0604	-3.2	-3.3271	-2.9688	-3.0563	-3.0646	-3.0062	-3.3063	-3.1271	-3.175	-3.917	-22.638	189.962	141.309	-20.344	35.259	138.947	165.250	-6.699	100.092	157.901	157.234	175.959	-43.383	131.733	188.728	0.00033701	0.00019061	4.0129e-05	1260.3	4.3072e-06	2.8631e-06	1332	270.67	3.0514e-06	3.8868e-06	340.23	95.217	75.41	21.644	2.7203e-06	30.376	0.00022355	0.00019751	5.4722e-05	1240.4	2.3592e-06	2.0749e-06	1317.4	268.54	2.3497e-06	2.024e-06	324.58	95.581	75.35	21.878	2.262e-06	30.81	130.211	-40.743	0.787	-122.703	-15.431	17.397	-122.657	-115.771	-68.210	5.525	-115.719	-109.512	-109.432	-102.200	13.222	-102.626	-8191	255	
565.003	1	1	0	0	0.13053	0.2325	0.25842	0.15015	0.12633	0.23415	0.11048	0.124	0.14796	0.26374	0.10858	0.095113	0.24387	0.21573	0.28571	0.2018	-2.8646	-2.75	-3.2021	-3.4083	-3.0292	-3.3792	-3.4146	-3.1542	-3.0583	-2.9458	-3.3063	-3.2375	-3.0458	-3.3375	-3.075	-2.8958	1.976	199.736	-130.496	224.644	214.349	171.552	118.192	131.984	50.372	111.764	19.678	205.986	187.529	173.881	-76.264	162.356	0.00041341	0.00030271	0.00014439	1261.1	2.5844e-06	2.1604e-06	1337.3	271.28	1.9438e-06	2.7162e-06	339.43	96.05	75.469	21.804	3.2828e-06	30.552	0.00023038	0.00019923	5.2488e-05	1241.4	2.3094e-06	2.0396e-06	1320.2	268.89	2.2602e-06	2.1478e-06	326.66	95.896	75.488	21.928	2.1649e-06	30.899	134.448	-51.024	-30.107	-122.585	10.580	27.089	-122.771	-116.095	-33.059	34.170	-116.165	-109.635	-109.822	-102.292	-26.348	-102.749	-8191	255	
565.122	1	1	0	0	0.10867	0.026318	0.27308	0.1774	0.11031	0.068205	0.19759	0.28989	0.3178	0.085582	0.11665	0.13824	0.21826	0.1618	0.14696	0.16588	-2.6542	-2.8979	-3.1896	-3.2854	-2.8771	-3.4125	-3.3	-3.025	-3.3333	-3.0104	-3.0604	-3.15	-2.8937	-3.1958	-3.2021	-3.1083	203.912	25.867	-67.345	-42.154	-56.600	-116.588	155.669	132.808	215.388	-90.627	-99.663	170.272	213.140	18.100	160.495	-127.814	0.00043184	0.00039069	0.00010083	1262.4	3.9663e-06	3.6266e-06	1336.3	272.3	3.2773e-06	4.0249e-06	346.51	96.519	75.39	21.716	2.9483e-06	30.447	0.00022057	0.00019176	5.153e-05	1241.6	2.2838e-06	2.0456e-06	1320.2	268.91	2.1827e-06	2.0429e-06	327.64	96.08	75.399	21.879	2.1293e-06	30.863	127.097	-12.665	-30.047	-122.728	-43.829	20.614	-122.618	-115.697	-89.890	19.596	-115.697	-109.954	-109.688	-102.507	-6.715	-102.822	-8191	255	
565.218	1	1	0	0	0.14035	0.13652	0.19914	0.3155	0.083422	0.24718	0.035045	0.24879	0.094729	0.17998	0.28321	0.12689	0.15113	0.030764	0.094407	0.19125	-2.8187	-3.0563	-3.1104	-3.2167	-3.1354	-3.2542	-3.2146	-3.1271	-3.2438	-3.2479	-3.0146	-3.2604	-3.1458	-3.1875	-3.1458	-3.0667	54.947	-74.574	-58.207	216.884	119.394	-96.502	87.798	171.283	36.388	134.488	31.465	216.303	145.339	169.894	115.070	-131.523	0.00041502	9.9513e-05	0.00011913	1265.9	3.089e-06	3.7384e-06	1333.9	272.17	3.6707e-06	5.1588e-06	338.04	95.751	75.193	21.711	3.6442e-06	30.468	0.00022254	0.00018345	5.193e-05	1243.6	2.1388e-06	1.9768e-06	1319.4	269.45	2.1785e-06	2.1124e-06	325.41	96.105	75.432	21.868	2.0845e-06	30.92	132.638	-125.433	-65.316	-122.554	53.300	4.190	-122.730	-115.957	-55.312	33.164	-115.956	-109.561	-109.510	-101.809	-2.284	-102.421	-8191	255	
565.314	1	1	0	0	0.11383	0.18704	0.1726	0.2261	0.16193	0.15789	0.061177	0.37618	0.060417	0.2392	0.093629	0.13586	0.076894	0.27997	0.02969	0.14873	-2.575	-3.025	-2.9479	-3.3937	-2.9479	-3.125	-3.4354	-2.9188	-3.3708	-3.025	-3.0812	-3.3063	-2.9646	-3.2604	-3.2812	-2.8937	-119.168	-86.025	173.618	-88.268	-56.991	133.205	119.088	189.481	-110.774	222.440	150.859	160.677	31.286	-96.219	119.145	141.289	0.00040459	0.0003896	0.00013659	1264.8	1.9972e-06	2.3221e-06	1336.4	270.77	4.2778e-06	2.3443e-06	341.67	96.023	75.463	21.72	1.642e-06	30.53	0.00022457	0.00019546	5.3921e-05	1242.6	2.2482e-06	2.017e-06	1318	268.56	2.1817e-06	1.95e-06	327.99	95.918	75.518	21.832	2.0289e-06	30.913	126.523	-53.570	-43.366	-122.535	25.940	45.069	-122.595	-115.734	-11.968	18.617	-116.496	-109.588	-109.553	-102.327	35.628	-102.293	-8191	255	
565.411	1	1	0	0	0.044529	0.19105	0.1781	0.19726	0.18332	0.31428	0.1494	0.15535	0.11703	0.092169	0.13749	0.19719	0.11352	0.16041	0.17159	0.33114	-2.95	-3.2042	-2.8104	-3.4437	-3.1	-2.9562	-3.5021	-3.1083	-3.1875	-3.1063	-2.9125	-3.1771	-3.1	-3.0812	-3.2438	-3.1625	-98.547	-72.697	-88.105	214.309	-132.179	201.197	214.140	168.144	198.730	-48.640	130.863	-102.626	-103.020	168.264	-124.960	189.845	0.00038693	0.00032896	7.9641e-05	1264.2	3.1063e-06	4.6356e-06	1337.7	272.34	3.4518e-06	1.9304e-06	342.54	95.487	75.317	21.708	2.9638e-06	30.329	0.00021775	0.00018933	5.1591e-05	1242.5	2.143e-06	2.0094e-06	1318	269.01	2.1121e-06	2.0033e-06	326.53	95.869	75.451	21.85	2.1821e-06	30.809	129.716	-52.829	-65.116	-122.589	-19.034	21.512	-122.945	-115.727	-62.271	34.132	-115.730	-109.584	-109.603	-102.160	-10.141	-102.531	-8191	255	
565.507	1	1	0	0	0.17023	0.082641	0.13759	0.16323	0.16815	0.13351	0.33723	0.29472	0.20658	0.1558	0.025229	0.13903	0.10418	0.24108	0.16011	0.25498	-2.6958	-3.225	-2.9021	-3.3292	-3.1167	-2.9896	-3.4458	-3.1354	-3.0521	-2.9979	-3.075	-3.2375	-3.1792	-3.1188	-3.1542	-3.1271	215.551	28.673	191.104	162.627	-128.834	131.318	207.121	183.455	-28.424	113.897	185.971	97.491	-32.713	7.976	63.493	91.953	0.00039922	0.00045525	0.00010047	1260.1	2.7455e-07	4.9212e-06	1331.5	272.24	3.3161e-06	4.469e-06	347.78	95.639	75.808	21.674	4.1279e-06	30.336	0.00021827	0.00018853	5.3177e-05	1242	2.2931e-06	2.0164e-06	1319.5	269.11	2.1861e-06	2.1762e-06	328.53	95.947	75.534	21.885	2.0605e-06	30.807	130.657	-35.260	-49.334	-122.512	114.102	5.704	-122.689	-116.072	-85.062	10.854	-116.315	-109.835	-109.676	-102.093	-15.514	-102.855	-8191	255	
565.603	1	1	0	0	0.31524	0.12938	0.07078	0.19565	0.10636	0.066654	0.36426	0.1888	0.1749	0.11153	0.055562	0.28674	0.14345	0.070036	0.086055	0.21918	-2.6604	-2.9646	-2.8583	-3.3021	-3.1	-3.1042	-3.4	-3.0625	-3.1167	-3.1146	-2.9	-3.3417	-3.1146	-3.1375	-3.1354	-2.9521	44.393	-124.673	-60.221	176.684	113.393	113.670	185.489	223.576	140.067	136.069	99.611	124.240	188.435	-75.897	-109.589	125.574	0.00036421	8.8701e-05	3.7969e-05	1262.5	2.28e-06	1.5981e-06	1336	271.98	3.6577e-06	4.4506e-06	342.06	95.909	75.619	21.658	1.5521e-06	30.598	0.00021982	0.00019745	5.0755e-05	1242.9	2.2835e-06	2.0819e-06	1318.5	269.22	2.1976e-06	2.0907e-06	327.17	95.978	75.559	21.867	2.0679e-06	30.858	126.624	-70.258	-46.583	-122.711	10.265	22.939	-122.714	-115.941	-60.425	-10.345	-116.165	-109.556	-109.310	-101.808	21.929	-102.561	-8191	255	
565.724	1	1	0	0	0.17025	0.22972	0.14415	0.34197	0.066956	0.18114	0.24268	0.1979	0.23438	0.34928	0.056906	0.21266	0.30825	0.1415	0.020747	0.024288	-2.6833	-3.0563	-2.8646	-3.5187	-2.9813	-2.925	-3.4313	-3.0708	-2.9688	-3.2417	-3.0292	-3.2375	-3.0938	-2.8229	-3.3187	-3.1542	159.396	156.680	117.507	161.041	-102.570	-106.835	211.202	126.604	183.172	195.494	72.576	224.360	193.828	8.232	107.526	88.519	0.00038101	0.00039393	7.6319e-05	1263.6	2.4264e-06	3.5651e-06	1341.3	271.99	3.5427e-06	2.8181e-06	337.22	95.793	75.713	21.695	1.9587e-06	30.709	0.00021821	0.00018663	5.2812e-05	1242.7	2.1348e-06	2.0392e-06	1321.4	269.56	2.1804e-06	2.0314e-06	325.07	96.01	75.573	21.911	2.0379e-06	30.9	132.054	-31.396	-24.848	-122.635	-14.233	12.664	-122.805	-115.680	-22.165	-7.503	-115.903	-109.828	-109.617	-102.335	22.838	-102.574	-8191	255	
565.818	1	1	0	0	0.14433	0.22113	0.27867	0.28585	0.069431	0.19303	0.13405	0.07304	0.29347	0.21594	0.15803	0.33725	0.084597	0.23319	0.18006	0.31958	-2.5604	-3.2	-2.9188	-3.4562	-3.0708	-3.025	-3.4688	-3.1042	-3.2021	-2.9437	-2.5979	-3.0771	-3.2229	-2.8937	-3.0271	-2.7979	-14.852	158.059	-47.712	158.881	-104.531	-54.129	156.514	67.526	77.006	134.791	-47.471	165.576	202.747	130.541	75.156	92.732	0.00039737	0.00045891	0.00011655	1265.5	7.448e-07	2.6898e-06	1334.3	271.76	2.1907e-06	2.8299e-06	341.73	95.48	75.55	21.776	4.5887e-06	30.462	0.00022004	0.00018748	5.2032e-05	1242.6	2.2923e-06	2.0817e-06	1320.3	268.88	2.1344e-06	2.0594e-06	326.6	95.823	75.542	21.842	2.1266e-06	30.861	131.810	-38.538	-46.013	-122.529	31.081	45.382	-122.813	-115.994	-44.387	-8.507	-116.600	-109.618	-109.596	-102.087	-2.850	-102.806	-8191	255	
565.914	1	1	0	0	0.31789	0.18185	0.40462	0.13284	0.19187	0.09428	0.28947	0.28989	0.19693	0.32401	0.26516	0.23464	0.21834	0.20158	0.04378	0.17947	-2.6333	-3.0854	-2.7562	-3.2604	-3.1104	-2.9333	-3.4104	-3.0396	-3.0417	-3.2396	-2.8708	-3.3417	-3.225	-2.8833	-3.2521	-2.9125	105.807	86.542	118.308	150.642	111.983	117.602	146.102	-113.981	-102.430	158.086	145.655	169.993	105.545	72.174	127.058	187.569	0.00038373	0.00051729	9.599e-05	1264.7	1.3604e-06	5.1941e-06	1335.7	271.85	3.2263e-06	3.4536e-06	343.51	96.101	75.693	21.688	2.6265e-06	30.546	0.00021845	0.00018757	5.345e-05	1242.8	2.1238e-06	2.0024e-06	1320.2	269.52	2.0661e-06	1.9321e-06	329.08	96.302	75.573	21.879	1.9515e-06	30.967	135.782	-38.982	-51.571	-122.570	-28.730	25.387	-122.503	-116.029	-44.114	2.931	-116.210	-109.569	-109.684	-102.093	17.795	-102.939	-8191	255	
566.010	1	1	0	0	0.10036	0.11993	0.23114	0.32231	0.13282	0.19153	0.32129	0.28612	0.37786	0.1293	0.092296	0.19032	0.35681	0.1785	0.20429	0.18741	-2.475	-3.3083	-2.8208	-3.2229	-3.3229	-2.7167	-3.4458	-3.1896	-2.85	-3.3021	-3.0271	-3.0187	-3.1896	-2.9521	-3.0354	-3.2917	-83.232	51.683	-31.982	219.218	88.241	58.511	193.812	178.364	43.410	-96.056	-127.467	194.381	125.162	-117.179	133.213	108.286	0.00037571	0.0005519	0.00011356	1267.5	4.6248e-06	2.4845e-06	1336.9	271.61	2.358e-06	3.4143e-06	347.18	95.969	75.763	21.692	3.9259e-06	30.565	0.00020859	0.0001801	5.156e-05	1243.9	2.0999e-06	1.9744e-06	1323.9	269.52	2.1424e-06	1.9781e-06	328.53	96.279	75.684	21.887	1.9441e-06	30.973	130.578	-42.292	-37.328	-122.471	-16.580	5.706	-122.704	-116.043	-87.092	27.782	-116.305	-109.677	-109.488	-101.925	0.110	-102.672	-8191	255	
566.106	1	1	0	0	0.11942	0.17245	0.16297	0.34635	0.1777	0.085083	0.30302	0.22384	0.22935	0.21426	0.13756	0.092512	0.16865	0.040553	0.087845	0.11012	-2.4083	-3.2167	-2.9271	-2.9562	-3.2667	-3.0875	-3.3833	-3.2792	-2.8688	-3.2729	-2.8438	-3.1354	-3.3396	-2.9271	-3.2729	-2.975	-41.526	156.856	98.691	191.064	-128.534	23.716	105.400	154.280	4.535	-133.586	-30.149	87.057	-110.029	-122.429	130.127	137.940	0.00042386	0.00045851	0.00011213	1268.2	3.3078e-06	3.7426e-06	1335.7	272.06	4.8158e-06	7.6876e-07	347.95	95.87	76.144	21.924	4.9373e-07	30.463	0.00022148	0.00018358	5.1545e-05	1244.3	2.1164e-06	2.05e-06	1320.4	269.78	2.0853e-06	1.8893e-06	327.81	96.174	75.722	21.933	1.9648e-06	30.936	131.722	-48.812	-9.181	-122.463	-14.297	-5.687	-122.684	-115.781	-69.863	67.433	-116.777	-109.470	-109.574	-102.068	112.876	-102.553	-8191	255	
566.203	1	1	0	0	0.18047	0.032	0.10726	0.29984	0.14099	0.18347	0.20811	0.014314	0.10751	0.056049	0.37383	0.10834	0.11227	0.081556	0.24312	0.15957	-2.5458	-3.1042	-3.0896	-3.0417	-3.125	-3.0312	-3.1771	-3.2146	-2.9188	-3.1063	-3.2667	-2.9771	-3.3688	-3.0167	-3.0333	-3.2354	33.036	-111.605	-80.173	140.466	203.232	26.722	155.032	164.747	157.718	29.313	118.650	207.209	82.814	-112.690	52.805	146.349	0.00034977	0.00039518	9.3826e-05	1265.2	6.4925e-07	1.9066e-06	1340	272.51	5.4371e-06	4.1093e-06	336.13	96.332	75.307	21.808	2.3851e-06	30.464	0.00021717	0.00016862	5.0603e-05	1244	2.1624e-06	2.1169e-06	1322.4	270.07	2.1555e-06	1.9011e-06	325.73	96.262	75.616	21.938	1.9469e-06	30.889	125.618	-41.878	-20.404	-122.764	29.963	-20.583	-122.824	-116.033	-61.434	0.546	-116.159	-109.557	-109.487	-101.852	27.640	-102.794	-8191	255	
566.299	1	1	0	0	0.053145	0.018419	0.27178	0.24257	0.1483	0.051339	0.24365	0.042806	0.056531	0.12482	0.13603	0.052466	0.1064	0.19416	0.10655	0.28065	-2.3333	-3.2938	-3.0333	-2.9917	-3.3292	-2.9833	-3.2833	-3.1771	-2.9458	-3.175	-3.1667	-2.9458	-3.0812	-3.1896	-3.0042	-3.2208	13.265	134.187	26.440	-123.490	109.618	167.850	178.929	-107.017	31.969	141.597	62.344	-62.524	-125.551	82.076	-94.022	132.796	0.00040519	0.0002541	0.00011206	1262.4	2.0625e-06	3.2692e-06	1337.6	272.82	2.398e-06	4.0334e-06	347.24	95.606	75.62	21.743	3.4734e-06	30.43	0.0002228	0.00018142	5.5229e-05	1242.7	2.242e-06	2.0755e-06	1320.5	269.55	2.2701e-06	1.9751e-06	328.64	95.904	75.449	21.885	2.0866e-06	30.837	129.277	-37.302	-40.206	-122.547	-19.534	21.257	-122.844	-115.962	-43.811	-4.817	-117.447	-109.512	-109.435	-102.159	24.581	-102.449	-8191	255	
566.395	1	1	0	0	0.068135	0.097235	0.050193	0.18142	0.3676	0.18385	0.3426	0.18541	0.060261	0.087248	0.086837	0.17307	0.15557	0.084865	0.30392	0.11507	-2.5542	-3.2062	-2.7417	-3.0646	-3.3521	-2.9833	-3.3396	-3.4188	-3.0958	-3.0062	-3.15	-3.2229	-3.2	-2.9146	-3.1396	-3.1729	150.690	-36.545	178.961	121.848	-43.008	79.140	173.220	213.369	-15.422	66.352	-5.848	137.184	200.452	55.416	-71.186	-107.164	0.00039155	0.00042109	0.00012484	1263.4	2.6376e-06	1.3907e-06	1335.8	270.8	4.9626e-06	4.5061e-06	339.93	95.724	75.625	21.69	2.4723e-06	30.431	0.00021962	0.00018088	5.5219e-05	1240.4	2.1632e-06	2.0773e-06	1317	268.04	2.181e-06	2.0372e-06	326.85	95.584	75.356	21.789	2.1174e-06	30.798	127.952	-34.847	-24.656	-122.571	-63.628	-13.981	-122.786	-115.986	-46.048	5.740	-115.741	-109.709	-110.044	-102.167	49.975	-102.793	-8191	255	
566.515	1	1	0	0	0.11387	0.18166	0.15778	0.17999	0.1375	0.07796	0.15516	0.021736	0.11945	0.34383	0.16923	0.25361	0.12809	0.078179	0.13676	0.18789	-2.4938	-3.2438	-3.225	-2.9813	-3.3542	-2.9813	-3.2479	-3.6	-3.0396	-3.2083	-3.2021	-2.8563	-3.1917	-3.1479	-3.0687	-3.2021	-128.093	-10.738	199.294	179.103	-117.398	-73.993	-94.685	28.071	29.110	125.678	211.467	163.301	196.889	209.709	157.457	127.347	0.0003775	0.00026055	0.00011763	1263	2.792e-06	2.7826e-06	1336.5	271.14	4.6168e-06	1.8222e-06	348.08	95.355	75.616	21.652	1.2184e-06	30.405	0.00021386	0.00018066	5.1778e-05	1242.2	2.111e-06	2.0871e-06	1318.2	268.41	2.1656e-06	1.9011e-06	329.2	95.619	75.455	21.821	2.0938e-06	30.788	128.987	-70.971	-24.855	-122.574	-61.390	15.737	-122.525	-115.730	-46.380	-25.425	-116.354	-109.307	-109.623	-102.024	-12.878	-102.708	-8191	255	
566.612	1	1	0	0	0.028927	0.15961	0.15491	0.15922	0.088437	0.12442	0.25238	0.21266	0.21053	0.26109	0.20708	0.29655	0.11258	0.1464	0.22569	0.12237	-2.4958	-3.0646	-2.9917	-3.2083	-3.1958	-3.25	-2.9979	-3.3688	-2.9917	-2.9208	-3.375	-3.0771	-3.375	-3.1771	-2.7979	-3.3333	154.766	-55.125	14.264	129.481	-68.659	-126.268	188.929	101.567	105.615	38.990	98.237	-100.884	169.543	127.187	2.453	62.561	0.00044835	0.00022836	0.00010657	1263.1	2.6651e-06	2.9942e-06	1333.7	270.52	3.0102e-06	2.2108e-06	339.42	95.412	75.371	21.497	3.2887e-06	30.362	0.00022812	0.00018813	5.4372e-05	1240.5	2.1112e-06	2.0554e-06	1317.5	267.84	2.2945e-06	2.0161e-06	325.06	95.546	75.124	21.713	2.1299e-06	30.683	133.580	-50.412	-37.531	-122.350	11.964	10.760	-122.701	-115.876	-32.008	16.169	-115.173	-109.650	-109.655	-101.895	-10.238	-101.808	-8191	255	
566.683	1	1	0	0	0.13471	0.091772	0.12719	0.36921	0.25249	0.083966	0.40945	0.28365	0.27915	0.054584	0.14141	0.17574	0.17353	0.41204	0.21203	0.14692	-2.6229	-2.9313	-3.2833	-3.0312	-3.1625	-3.1437	-3.2833	-3.1604	-3.2396	-3.0583	-3.4	-3.2333	-3.2646	-3.2375	-3.1271	-3.275	-21.685	146.266	191.932	-126.915	24.234	195.340	135.765	209.261	157.948	-14.677	212.104	-113.706	139.029	171.481	-94.024	137.464	0.00040852	0.0004646	9.9436e-05	1262.6	4.2867e-06	1.1821e-06	1336.7	271.43	4.8579e-06	3.5096e-06	340.92	95.923	75.722	21.664	4.4467e-06	30.436	0.00022095	0.00018947	5.0699e-05	1239.6	2.187e-06	2.0468e-06	1319	268.19	2.2001e-06	2.0216e-06	324.61	95.606	75.48	21.826	2.0174e-06	30.822	132.160	-61.582	2.494	-122.419	12.090	79.450	-122.832	-115.797	-40.096	44.639	-115.011	-109.718	-109.856	-102.325	-16.761	-102.342	-8191	255	
566.804	1	1	0	0	0.26179	0.14808	0.15952	0.29899	0.20783	0.12417	0.45823	0.19428	0.19278	0.098532	0.26936	0.22632	0.034167	0.12253	0.23937	0.077251	-2.5292	-2.8792	-3.1937	-3.0729	-2.9792	-3.1708	-3.0563	-3.3063	-2.9437	-2.925	-3.1937	-3.1521	-3.0896	-3.2042	-3.1333	-3.1583	-88.642	-83.288	36.269	-126.008	-107.747	-110.986	149.751	190.552	-62.172	54.338	-55.955	-112.947	59.545	56.414	166.627	55.936	0.000392	0.00032776	0.0001662	1261.3	2.0326e-06	4.3457e-06	1335.1	271.74	9.2354e-07	3.5233e-06	334.18	95.001	75.379	21.634	5.0042e-06	30.509	0.00022101	0.00018935	5.3009e-05	1241.6	2.1459e-06	2.028e-06	1320.1	268.57	2.269e-06	2.0761e-06	324.96	95.437	75.38	21.746	2.1798e-06	30.73	125.760	-46.121	0.255	-122.652	-25.778	17.872	-122.828	-115.640	-7.988	24.186	-115.564	-109.708	-109.531	-102.027	-24.178	-102.829	-8191	255	
566.900	1	1	0	0	0.035979	0.20915	0.028181	0.11705	0.13806	0.12997	0.21641	0.11598	0.10111	0.24232	0.10606	0.21234	0.17082	0.23332	0.13106	0.3072	-2.9479	-2.8958	-3.3312	-3.2583	-3.0208	-3.2167	-3.2646	-3.1917	-3.1208	-2.8292	-3.2271	-2.9854	-3.1208	-3.4958	-3.0625	-3.2854	106.069	-26.016	63.840	181.717	-83.660	57.909	160.412	69.745	-122.031	146.889	-95.525	205.275	78.037	214.282	-29.820	148.532	0.00044871	0.00034993	0.000129	1259.8	1.6784e-06	1.8853e-06	1333.6	269.56	4.6216e-06	2.6021e-06	335.16	94.853	75.148	21.552	3.6121e-06	30.317	0.00022781	0.00019493	5.4991e-05	1241.1	2.303e-06	2.0877e-06	1316.3	267.19	2.329e-06	2.1201e-06	325.6	94.929	74.892	21.688	2.1856e-06	30.66	131.784	-80.319	-11.310	-122.417	45.267	28.791	-122.495	-115.904	-47.561	9.691	-116.264	-109.253	-109.558	-102.144	18.602	-102.653	-8191	255	
566.994	1	1	0	0	0.090483	0.14052	0.31653	0.35113	0.075821	0.25564	0.41563	0.21357	0.21095	0.090956	0.10603	0.2607	0.060082	0.20091	0.10199	0.1185	-2.8937	-3.0604	-3.1896	-3.1333	-2.9125	-3.3187	-3.2396	-3.2729	-3.2417	-3.0812	-3.2938	-3.1896	-2.9979	-3.4625	-2.7646	-3.1458	-46.171	214.685	54.237	195.781	-27.938	96.568	183.146	151.467	76.208	220.751	52.741	181.068	64.602	-89.574	189.904	221.344	0.0003658	0.00041271	0.00010992	1257.5	1.8492e-06	3.4359e-06	1331.5	269.12	3.7764e-06	5.616e-06	341.25	94.667	74.998	21.604	4.5377e-06	30.154	0.0002231	0.00019631	5.2564e-05	1237.1	2.3082e-06	2.1641e-06	1314	266.61	2.3166e-06	2.1959e-06	324.39	94.961	74.706	21.656	2.2873e-06	30.564	130.893	-67.100	-0.330	-122.660	-20.825	78.942	-122.658	-115.672	-61.036	0.669	-115.468	-109.741	-109.579	-101.762	-11.492	-102.720	-8191	255	
567.091	1	1	0	0	0.27068	0.20661	0.078066	0.34843	0.19499	0.26894	0.063547	0.1463	0.070202	0.25478	0.068759	0.05459	0.17718	0.11313	0.12393	0.1097	-2.8333	-3.0333	-3.3479	-3.1958	-3.0521	-3.4792	-3.275	-3.0292	-3.1292	-2.9708	-3.2938	-3.2229	-3.1854	-3.3521	-3.0563	-3.2125	213.508	193.784	-107.171	209.793	-78.628	168.530	189.500	-121.141	150.770	161.060	132.917	-12.151	107.757	-119.104	128.760	180.678	0.00038267	0.00038494	3.6457e-05	1256.4	1.7216e-06	4.1771e-06	1330.8	268.24	4.3247e-06	2.7524e-06	336.05	94.719	74.712	21.587	2.4665e-06	30.202	0.00022774	0.00019647	5.3759e-05	1236.4	2.3025e-06	2.0761e-06	1315.5	266.09	2.2696e-06	2.1547e-06	322.04	94.896	74.73	21.714	2.2302e-06	30.548	126.787	-50.255	-34.139	-122.562	-48.601	14.924	-122.433	-115.826	-70.082	33.975	-115.770	-109.561	-109.903	-102.017	-0.000	-102.299	-8191	255	
567.211	1	1	0	0	0.038957	0.13496	0.18812	0.19975	0.10925	0.047203	0.16495	0.055878	0.098783	0.16354	0.25862	0.12649	0.10922	0.04779	0.23438	0.048251	-3.0167	-2.9229	-3.25	-3.4542	-2.7208	-3.2792	-3.5208	-3.2125	-3.3292	-3.15	-3.25	-3.1458	-2.925	-3.3458	-3.2521	-3.1167	73.847	212.539	109.667	53.863	15.026	17.727	122.463	120.317	-41.678	130.548	-31.741	-118.439	-91.128	-93.314	124.267	-78.101	0.00040781	0.00045814	8.4267e-05	1259.6	2.4045e-06	3.2639e-06	1331.1	269.07	5.0667e-06	2.7905e-06	336.23	95.079	75.385	21.64	3.7957e-06	30.389	0.00022759	0.00019705	5.1631e-05	1237.5	2.2282e-06	1.9384e-06	1312.5	266.54	2.0791e-06	1.8645e-06	323.8	95.273	75.085	21.754	1.9095e-06	30.658	131.667	-51.952	-23.034	-122.438	-18.338	35.601	-122.669	-115.697	-48.121	33.378	-115.931	-109.556	-109.818	-101.954	14.323	-102.723	-8191	255	
567.283	1	1	0	0	0.14299	0.15781	0.11865	0.12212	0.22206	0.08199	0.012252	0.24027	0.17258	0.11631	0.13265	0.14342	0.15037	0.11815	0.16759	0.084212	-3.1271	-3.1146	-3.2042	-3.3646	-3.2125	-3.2562	-3.4375	-3.2958	-3.2458	-2.8667	-3.2229	-3.3812	-2.8563	-3.2812	-3.2833	-2.8937	-89.757	-22.037	-96.689	165.610	-70.870	-71.249	37.594	194.998	-105.012	68.430	12.935	199.090	199.873	-29.598	208.045	-132.677	0.00042279	0.00023596	4.766e-05	1256.3	4.6235e-06	2.6722e-06	1318.2	269.77	4.7051e-06	3.4e-06	342.37	94.578	74.837	21.622	3.335e-06	30.071	0.00020414	0.00016485	4.6002e-05	1235.1	1.9999e-06	1.7863e-06	1309.2	266.44	1.9387e-06	1.8444e-06	322.17	95.008	74.913	21.672	1.9056e-06	30.611	134.612	-72.826	-24.672	-122.594	-4.111	-6.068	-122.578	-115.817	-47.278	37.377	-116.241	-109.207	-109.359	-101.867	33.561	-102.266	-8191	255	
567.379	1	1	0	0	0.17547	0.29031	0.11551	0.041474	0.28923	0.15937	0.25424	0.27425	0.13585	0.16203	0.25625	0.080854	0.042059	0.3412	0.13347	0.14261	-3	-3.1875	-3.2687	-3.35	-2.9604	-3.4625	-3.3333	-3.0792	-3.2938	-3	-3.25	-3.5479	-2.9062	-3.1146	-3.1125	-2.8125	-81.735	74.089	-8.075	91.405	186.397	33.556	190.952	-52.798	-70.131	138.813	222.403	2.552	-5.088	162.535	118.865	156.186	0.0003813	0.00049724	1.5815e-05	1251.3	2.7661e-06	3.4167e-06	1320.8	268.05	4.3624e-06	1.849e-06	343.66	94.77	74.359	21.376	1.5846e-06	30.157	0.00020936	0.00017065	4.891e-05	1229.5	2.1091e-06	1.8424e-06	1305.6	265.74	2.067e-06	1.9019e-06	323.87	94.85	74.346	21.548	1.9611e-06	30.525	127.932	-51.233	-16.187	-122.575	-13.686	20.175	-122.728	-115.826	-43.037	12.673	-115.067	-109.518	-109.311	-101.885	-21.237	-102.607	-8191	255	
567.500	1	1	0	0	0.19512	0.071782	0.085822	0.33691	0.14636	0.13143	0.04707	0.25924	0.24778	0.19933	0.22119	0.17048	0.065637	0.21611	0.2688	0.050619	-2.5521	-3.1063	-3.0125	-3.4729	-2.8854	-3.2771	-3.4021	-2.9938	-3.3792	-3	-2.8854	-3.3729	-3.0896	-3.1375	-3.1688	-3.0312	146.610	22.289	46.011	209.459	-112.184	-82.634	73.543	186.680	-120.864	-59.058	208.971	73.141	181.383	193.070	10.007	-77.967	0.00036617	0.00038417	5.2517e-05	1248.6	2.3017e-06	2.1563e-06	1315	268.82	3.6958e-06	5.228e-06	339.46	94.594	74.749	21.614	1.7447e-06	30.246	0.00021061	0.000182	5.2705e-05	1227.5	2.158e-06	1.8582e-06	1301.2	265.88	2.0929e-06	1.9277e-06	321.59	94.858	74.601	21.707	2.0696e-06	30.551	127.005	-60.019	-26.984	-122.815	-10.832	20.004	-122.689	-115.895	-36.715	48.139	-116.282	-109.666	-109.225	-101.859	-53.808	-102.087	-8191	255	
567.596	1	1	0	0	0.073939	0.028351	0.11885	0.093413	0.071382	0.11957	0.16693	0.31001	0.13879	0.11784	0.051987	0.1108	0.078509	0.12738	0.21155	0.234	-2.8312	-2.8042	-3.0708	-3.4333	-3.1458	-3.2812	-3.45	-2.9062	-3.3063	-3.0875	-2.7812	-3.2958	-3.1896	-3.0563	-3.0979	-3.0396	-90.447	183.467	77.628	-106.232	123.933	9.394	74.935	138.507	-79.086	-12.361	-5.092	202.817	111.521	149.770	-73.842	78.542	0.0003838	0.00060363	7.7673e-05	1253.6	2.8399e-06	3.1714e-06	1324.4	268.2	6.4066e-06	4.1181e-06	339.9	94.43	75.043	21.544	2.184e-06	30.368	0.00021319	0.00018869	5.2249e-05	1229.4	2.1048e-06	1.9752e-06	1306	265.58	2.1533e-06	1.9707e-06	324.4	95.045	75.064	21.694	1.9886e-06	30.644	133.312	-29.743	-1.132	-122.405	9.782	27.695	-122.646	-115.697	-28.603	-5.026	-115.555	-109.893	-109.616	-102.282	-0.486	-102.714	-8191	255	
567.690	1	1	0	0	0.21037	0.17297	0.18725	0.25556	0.17021	0.036319	0.23624	0.21223	0.15148	0.21915	0.075282	0.2467	0.17956	0.073098	0.27696	0.035068	-2.5604	-3.0271	-2.8771	-3.2938	-2.9396	-3.1354	-3.3729	-2.9667	-3.0438	-3.0542	-2.9104	-3.1792	-3.0979	-3.0563	-3.4375	-3.0333	10.234	-85.509	225.826	178.519	147.977	75.906	171.276	-91.061	-69.507	46.297	-99.646	210.761	85.637	105.137	171.284	-23.739	0.00040051	0.00019445	0.00010648	1256	3.468e-06	4.6977e-06	1321.5	268.88	3.8002e-06	3.5582e-06	339.11	94.618	74.73	21.371	2.435e-06	30.015	0.00021717	0.00018559	4.9817e-05	1231.2	2.2411e-06	2.0378e-06	1306.3	265.8	2.1844e-06	2.0716e-06	324.02	94.791	74.517	21.54	2.1573e-06	30.453	131.894	-70.320	-15.361	-122.565	-50.777	2.538	-122.752	-115.866	-79.010	12.393	-116.638	-109.559	-109.501	-101.709	9.169	-102.450	-8191	255	
567.811	1	1	0	0	0.16823	0.11832	0.15975	0.040317	0.13785	0.12129	0.11007	0.13767	0.17916	0.16611	0.15018	0.17558	0.33298	0.054679	0.16353	0.11262	-2.6229	-3.0729	-2.9729	-3.2083	-2.8729	-3.0563	-3.4792	-2.8875	-3.0687	-3.2083	-2.7854	-3.3812	-3.0583	-2.8	-3.4708	-2.9562	49.262	219.463	142.986	66.148	-60.942	39.831	193.217	182.283	180.144	52.712	138.579	169.530	-131.363	40.474	-99.939	-106.904	0.00039808	0.00010875	0.00011886	1252.1	2.9449e-06	2.6577e-06	1320.9	266.33	5.299e-06	3.6342e-06	335.23	93.928	74.327	21.38	3.9559e-06	30.006	0.00023332	0.00019042	5.6805e-05	1230.9	2.4139e-06	2.1355e-06	1304.5	264.47	2.3798e-06	2.1631e-06	322.93	94.41	74.171	21.536	2.1733e-06	30.487	125.977	-52.376	-39.328	-122.475	-15.316	10.558	-122.923	-115.847	-53.117	21.760	-115.436	-109.478	-109.580	-102.032	57.298	-102.809	-8191	255	
567.907	1	1	0	0	0.090723	0.031821	0.18207	0.23481	0.30775	0.115	0.078559	0.20878	0.049129	0.12416	0.073714	0.21219	0.17805	0.12499	0.15093	0.50832	-2.7458	-3.2125	-2.9062	-3.3917	-3.3125	-2.9292	-3.3604	-3.3083	-3.1125	-3.2396	-3.0479	-3.2125	-3.2833	-2.8646	-3.1417	-3.1708	76.307	-86.238	165.036	220.057	-105.286	-87.395	-3.661	157.348	69.025	-9.429	78.968	195.098	207.876	108.569	35.134	168.252	0.00037981	0.00032152	0.00011534	1250.7	2.2338e-06	2.6213e-06	1317	265.63	3.3086e-06	4.0383e-06	340.61	94.635	74.438	21.298	4.529e-06	29.846	0.0002353	0.00020686	6.0002e-05	1229.1	2.403e-06	2.2569e-06	1304.4	264	2.3628e-06	2.2269e-06	322.32	94.262	74.211	21.461	2.3275e-06	30.28	130.222	-25.041	-20.413	-122.629	11.714	-21.483	-122.716	-115.593	-67.648	70.104	-116.129	-109.536	-109.705	-102.072	-0.468	-102.754	-8191	255	
567.979	1	1	0	0	0.017839	0.22681	0.18061	0.34899	0.16831	0.4618	0.34832	0.12487	0.17719	0.13427	0.22148	0.19214	0.1497	0.27569	0.055073	0.044229	-2.6583	-3.2562	-3.0312	-3.5333	-3.1188	-2.9292	-3.4583	-3.3729	-3.0042	-3.1562	-3.0542	-3.2646	-3.275	-3.0208	-3.3187	-3.2062	16.166	129.246	3.933	186.276	137.975	143.929	93.886	192.325	-107.735	-118.208	170.142	103.291	76.203	13.319	-69.240	21.697	0.00037704	0.00032731	0.00012831	1253.1	2.1678e-06	3.58e-06	1324	265.94	5.0215e-06	3.3037e-06	331.75	94.35	74.591	21.252	2.3523e-06	30.101	0.0002376	0.00021533	6.0615e-05	1231.1	2.5365e-06	2.2261e-06	1308.1	263.84	2.5078e-06	2.2665e-06	321.23	94.303	74.502	21.483	2.3516e-06	30.468	134.290	-8.331	-9.538	-122.460	-9.797	17.099	-122.833	-115.593	-51.029	9.226	-116.036	-109.461	-109.473	-101.844	21.952	-102.431	-8191	255	
568.075	1	1	0	0	0.1053	0.099032	0.095391	0.11052	0.15222	0.23812	0.14469	0.36922	0.080963	0.14899	0.13177	0.021429	0.22788	0.25655	0.072878	0.2752	-2.5938	-3.1063	-2.9146	-3.2562	-3.1042	-3.0458	-3.3833	-3.025	-2.9958	-3.2771	-2.9208	-3.0729	-3.3042	-3.1896	-3.1167	-3.1292	191.209	28.753	-72.503	203.724	21.899	210.953	191.126	198.597	-38.276	-102.517	151.304	-82.703	-7.488	198.241	-50.858	182.970	0.00038521	0.00037749	5.0635e-05	1251.7	2.3186e-06	9.3937e-07	1324.2	265.85	1.0752e-06	3.4092e-06	334.28	94.023	74.22	21.333	2.639e-06	30.021	0.00025008	0.00020233	6.1405e-05	1231.7	2.5528e-06	2.3396e-06	1307.7	263.53	2.4913e-06	2.4213e-06	322	94.279	74.178	21.497	2.4267e-06	30.349	127.666	-59.373	4.922	-122.485	-70.091	-17.682	-122.803	-115.967	-66.729	6.197	-115.440	-109.395	-109.516	-101.480	49.284	-102.294	-8191	255	
568.171	1	1	0	0	0.20116	0.22858	0.040281	0.26064	0.082953	0.14993	0.12215	0.24397	0.20225	0.17071	0.11155	0.022796	0.30467	0.12345	0.088987	0.26401	-2.6125	-3.2292	-2.7812	-3.2667	-3.2792	-2.9417	-3.2708	-3.0396	-3.0146	-3.4396	-3.1896	-3.0958	-3.2708	-3.1167	-3.0479	-3.4167	36.454	191.059	200.394	-72.068	85.515	-72.306	191.469	177.119	-53.736	44.752	215.842	-97.399	156.026	135.835	69.342	152.847	0.00040688	0.00035592	0.00010489	1255	2.9341e-06	3.1907e-06	1326	265.55	4.3884e-06	4.9429e-06	335.3	93.884	74.155	21.329	2.2061e-06	29.944	0.00025082	0.00021578	6.3072e-05	1233.7	2.553e-06	2.4662e-06	1309.7	263.48	2.5574e-06	2.3127e-06	322.25	94.342	74.2	21.537	2.3592e-06	30.403	128.245	-45.487	-28.801	-122.509	8.150	21.323	-122.522	-115.857	-36.667	54.297	-116.068	-109.591	-109.714	-102.204	-8.447	-102.732	-8191	255	
568.292	1	1	0	0	0.27013	0.070653	0.094457	0.17492	0.14982	0.2122	0.13338	0.15987	0.21026	0.072883	0.17125	0.1203	0.10914	0.26366	0.14993	0.1075	-2.7896	-3.1271	-2.9125	-3.1958	-3.2542	-3.0146	-3.5167	-3.2271	-2.8208	-3.1562	-3.0583	-3.0646	-3.3063	-3.1667	-3.0146	-3.2104	149.918	-13.943	-68.771	-130.872	21.265	193.744	213.282	71.273	-108.599	126.148	223.697	39.892	88.959	-124.146	8.424	-1.662	0.00034711	0.0004448	0.00010312	1256.7	3.6297e-06	4.2453e-06	1332.2	266.12	3.11e-06	5.0354e-06	335.87	94.08	74.669	21.405	3.5002e-06	29.992	0.00024449	0.00021825	6.1653e-05	1234.5	2.5212e-06	2.4342e-06	1312	264	2.5948e-06	2.3843e-06	323.85	94.367	74.365	21.567	2.4126e-06	30.429	130.871	-64.082	-27.951	-122.776	28.771	10.769	-122.818	-115.752	-81.504	21.702	-115.903	-109.570	-109.685	-101.929	-10.699	-102.417	-8191	255	
568.388	1	1	0	0	0.40034	0.32928	0.27089	0.11941	0.061891	0.11848	0.17759	0.21144	0.21546	0.11295	0.1106	0.29548	0.05393	0.22642	0.21398	0.13587	-2.6729	-3.0812	-3.0125	-3.175	-3.3375	-3.1917	-3.3958	-3.2521	-3.1792	-3.0708	-3.0792	-3.1583	-3.3854	-3.025	-2.9562	-3.3542	-32.849	15.395	-116.123	96.177	-13.696	-23.752	86.214	-118.952	80.449	-55.293	219.914	170.716	34.186	-72.906	115.383	174.425	0.00041222	0.00033322	0.00011274	1257.4	2.1126e-06	5.4716e-06	1330.7	266.34	2.783e-06	7.08e-07	332.65	94.646	74.014	21.283	2.2433e-06	30.021	0.00025008	0.00022813	6.5798e-05	1235.9	2.6196e-06	2.4372e-06	1313.4	263.92	2.6687e-06	2.3935e-06	323.6	94.546	74.241	21.503	2.4711e-06	30.382	131.604	27.309	11.171	-122.399	3.332	15.730	-122.773	-115.879	-13.165	4.554	-116.372	-109.352	-109.347	-101.926	29.675	-102.749	-8191	255	
568.484	1	1	0	0	0.287	0.10331	0.23078	0.1409	0.13253	0.1608	0.1598	0.18902	0.13925	0.21362	0.15941	0.025162	0.27716	0.20656	0.089995	0.27029	-2.7354	-3.0729	-3.0417	-3.1646	-3.0854	-3.0583	-3.3083	-3.5083	-3.025	-3.1813	-3.1208	-3.1604	-3.5375	-3.1312	-2.9813	-3.2812	134.266	112.417	-89.874	217.827	60.597	8.686	132.085	199.385	-38.802	47.589	-11.977	-131.920	225.606	126.518	4.264	171.886	0.00039762	0.00058651	9.9331e-05	1258.2	2.2026e-06	4.2015e-06	1328.6	267.23	3.2769e-06	3.3712e-06	335.02	94.008	74.78	21.281	2.551e-06	29.702	0.00025234	0.00021662	6.2819e-05	1236.5	2.5229e-06	2.5514e-06	1312.3	264.49	2.6666e-06	2.4004e-06	323.07	94.272	74.534	21.524	2.445e-06	30.399	132.858	-60.685	5.098	-122.721	-3.915	-3.979	-122.726	-115.773	-40.700	10.992	-116.589	-109.524	-109.960	-101.851	18.046	-102.349	-8191	255	
568.580	1	1	0	0	0.11767	0.12786	0.23173	0.14812	0.23054	0.099116	0.16541	0.24896	0.063004	0.1303	0.3753	0.20816	0.068706	0.10106	0.18892	0.1337	-2.5875	-3.1333	-3.0917	-3.0187	-3.3167	-3.1708	-3.2854	-3.4583	-2.8667	-3.2354	-3.0792	-3.0667	-3.2104	-3.0708	-2.8917	-3.2521	182.048	-61.951	-11.762	-118.590	87.055	121.943	100.988	-108.132	201.399	-14.043	64.083	64.553	-51.483	68.929	140.042	-78.139	0.0004019	0.00044837	0.00013257	1260.1	3.8371e-06	3.3869e-06	1326.4	266.68	3.6359e-06	3.0021e-06	337.72	94.404	74.504	21.431	4.3312e-06	30.097	0.00025251	0.00021828	6.5525e-05	1238.5	2.4738e-06	2.4954e-06	1313.3	264	2.5693e-06	2.3923e-06	322.32	94.487	74.578	21.566	2.4356e-06	30.491	135.489	-50.752	-16.076	-122.525	-55.653	10.127	-122.718	-115.641	-86.689	39.253	-115.188	-109.549	-109.360	-101.935	-13.081	-102.234	-8191	255	
568.676	1	1	0	0	0.26964	0.16382	0.17058	0.081489	0.18614	0.12581	0.32803	0.45948	0.068303	0.16626	0.14788	0.27424	0.019522	0.022034	0.17711	0.12958	-2.6542	-3.0312	-3.2729	-3.0604	-3.1063	-2.9208	-3.3208	-3.35	-3.1146	-3.0187	-3.1979	-3.0687	-3.3958	-3.3292	-3.1208	-3.2125	125.551	42.053	77.661	221.355	117.535	214.466	154.894	182.501	209.532	46.209	105.192	167.199	113.004	-49.651	26.917	87.729	0.00038717	0.00030429	0.00012203	1258.4	9.9758e-07	2.2591e-06	1325.9	267.18	2.2506e-06	3.6834e-06	331.96	94.082	74.383	21.39	2.5547e-06	30.028	0.00024938	0.00021848	5.8142e-05	1236.9	2.4625e-06	2.4002e-06	1309.8	263.92	2.4803e-06	2.2723e-06	320.84	94.435	74.311	21.533	2.3694e-06	30.399	124.353	-29.910	-50.169	-122.598	-52.770	-38.315	-122.678	-116.039	-41.916	-16.605	-116.779	-109.496	-109.676	-102.249	-5.046	-102.759	-8191	255	
568.772	1	1	0	0	0.10488	0.050858	0.24723	0.14894	0.22857	0.16903	0.28206	0.082767	0.11502	0.10027	0.25614	0.016346	0.23073	0.15951	0.10302	0.067851	-2.6417	-3.1625	-3.0687	-3.0625	-3.1958	-3.1625	-3.1875	-3.3417	-3.1688	-3.0729	-3.2812	-2.8396	-3.3312	-3.1792	-3.0104	-3.2208	-91.180	26.401	-80.291	-107.481	-109.150	139.346	146.372	177.929	6.852	136.978	143.185	207.241	93.003	196.986	170.633	69.926	0.00039782	0.00059918	6.8864e-05	1252.1	2.212e-06	2.7273e-06	1322.8	266.18	1.9333e-06	2.051e-06	341.43	94.521	74.065	21.431	3.6788e-06	30.015	0.00024177	0.00020585	5.9069e-05	1230.6	2.3483e-06	2.3071e-06	1307	263.26	2.3929e-06	2.2224e-06	324.94	94.29	74.113	21.526	2.3205e-06	30.361	126.659	-66.903	-59.721	-122.383	19.396	-8.797	-122.585	-115.666	-21.049	19.712	-115.426	-109.168	-109.414	-101.737	23.461	-102.215	-8191	255	
568.891	1	1	0	0	0.18315	0.37195	0.14534	0.14773	0.023848	0.17407	0.23933	0.096824	0.3279	0.21218	0.19049	0.1544	0.28478	0.061123	0.25968	0.12361	-2.6917	-3.0229	-3.4125	-3.0958	-3.1083	-3.4229	-3.0458	-3.3521	-3.0187	-2.9958	-3.4667	-3.2	-2.9729	-2.875	-2.9292	-3.2583	110.216	188.930	-119.083	101.722	186.108	92.934	138.095	163.226	77.541	79.068	217.253	219.029	99.581	2.855	143.050	184.030	0.0003624	0.00028827	7.2092e-05	1247.7	2.1275e-06	4.0304e-06	1322.2	265.7	2.2251e-06	2.522e-06	334.6	93.881	74.375	21.264	2.4069e-06	30.114	0.00022754	0.00020139	5.7595e-05	1228.7	2.2405e-06	2.2699e-06	1303.1	263.2	2.4512e-06	2.2385e-06	320.88	94.02	74.112	21.472	2.1996e-06	30.417	137.819	-56.477	-4.658	-122.643	-59.532	45.424	-122.673	-115.927	-60.946	10.287	-116.455	-109.485	-109.428	-101.524	12.778	-102.526	-8191	255	
568.987	1	1	0	0	0.24706	0.059748	0.28495	0.14278	0.12927	0.07718	0.12266	0.1043	0.07876	0.23786	0.11634	0.14743	0.18885	0.1479	0.41542	0.30978	-2.6562	-3.0792	-3.1	-3.2708	-3.3333	-3.2729	-2.8125	-3.3208	-3.1104	-2.975	-3.1146	-2.9208	-3.2229	-3.3375	-3	-3.1813	104.293	146.130	208.330	221.420	-1.108	182.454	223.343	103.365	76.184	129.218	216.003	89.120	-65.352	210.257	169.736	118.409	0.00041432	0.00030528	8.6675e-05	1247.9	2.1751e-06	3.3064e-06	1322.6	265.24	4.1438e-06	4.1014e-06	337.27	94.049	74.709	21.497	2.4941e-06	30.06	0.00023668	0.00020742	5.4489e-05	1228.8	2.3249e-06	2.1775e-06	1305.5	262.64	2.3486e-06	2.2647e-06	321.42	94.222	74.351	21.589	2.2643e-06	30.434	122.872	-53.024	-42.973	-122.354	3.404	24.720	-122.771	-115.900	-80.713	12.356	-115.607	-109.648	-109.528	-102.005	-6.609	-102.739	-8191	255	
569.084	1	1	0	0	0.059027	0.16466	0.18448	0.11269	0.094871	0.1447	0.28326	0.25775	0.036928	0.013792	0.070383	0.021824	0.065995	0.24764	0.056011	0.14956	-2.6708	-2.7729	-2.9167	-3.3083	-2.8667	-3.2979	-3.2812	-3.05	-3.2062	-3.0479	-3.0021	-3.2042	-3.2625	-3.1771	-3.0625	-3.3333	-125.370	77.873	115.810	54.855	122.485	34.361	124.840	-107.872	-95.779	-121.532	110.383	131.152	130.448	-130.997	-56.806	173.318	0.00034923	0.00032149	5.7086e-05	1247.7	3.1572e-06	4.2188e-06	1323.4	264.98	6.6253e-06	2.9657e-06	334.53	93.894	74.345	21.375	1.5762e-06	30.111	0.00023703	0.00021105	5.7737e-05	1229.4	2.4124e-06	2.2501e-06	1305.9	262.92	2.3762e-06	2.2013e-06	320.99	94.344	74.125	21.536	2.2788e-06	30.403	131.796	-43.088	-59.066	-122.457	-48.826	-2.745	-122.718	-115.633	-45.460	45.702	-115.594	-109.814	-109.231	-102.189	-4.783	-102.190	-8191	255	
569.204	1	1	0	0	0.16842	0.15296	0.17752	0.1019	0.10333	0.19246	0.26038	0.15172	0.086915	0.051207	0.24332	0.31105	0.074918	0.24652	0.20374	0.14651	-2.6188	-2.9625	-3.125	-3.1125	-3.0292	-3.3729	-2.9583	-3.3375	-3.1958	-2.8729	-3.3396	-3.3208	-2.8417	-3.2292	-3.0354	-3.1375	-115.966	55.086	19.112	68.394	-83.588	100.678	132.789	213.508	-11.049	-69.070	206.906	-91.977	49.674	160.900	209.488	152.648	0.00039204	0.00027153	5.4108e-05	1251.6	1.3201e-06	3.2514e-06	1320.7	265.15	3.1803e-06	2.8939e-06	338.31	94.366	74.608	21.441	4.1698e-06	30.216	0.00023019	0.0002049	5.7119e-05	1229.6	2.4598e-06	2.1785e-06	1304.9	262.59	2.3739e-06	2.2061e-06	321.31	94.368	74.387	21.554	2.2663e-06	30.497	127.624	-21.956	-55.495	-122.263	72.524	10.635	-122.497	-115.673	-58.189	-51.712	-116.267	-109.506	-109.346	-101.722	17.468	-102.552	-8191	255	
569.276	1	1	0	0	0.098338	0.10737	0.086695	0.091307	0.057168	0.049884	0.17753	0.13086	0.1805	0.075284	0.30098	0.2414	0.17983	0.22141	0.27809	0.12932	-2.8667	-2.925	-3.0979	-3.3771	-2.8667	-3.275	-3.1271	-2.9208	-3.45	-2.9208	-3.1813	-3.1	-2.825	-3.4083	-2.9417	-3.2958	59.632	110.859	-65.494	166.748	196.413	-0.449	184.522	-96.431	-98.480	120.069	-102.030	-87.922	-4.425	-43.188	151.945	202.787	0.00041863	0.00035506	9.4297e-05	1250.3	2.5149e-06	3.9222e-06	1322.9	265.46	5.2405e-06	2.7695e-06	334.36	93.581	74.057	21.247	1.9295e-06	30.132	0.00023461	0.00020314	5.6663e-05	1230.5	2.3422e-06	2.2211e-06	1304.7	262.97	2.3716e-06	2.2612e-06	321.52	94.028	74.021	21.453	2.3197e-06	30.42	134.989	-43.254	-12.362	-122.711	-57.376	1.906	-122.695	-115.744	-28.174	21.184	-115.502	-109.311	-109.720	-101.891	-25.153	-102.184	-8191	255	
569.370	1	1	0	0	0.34185	0.25994	0.013231	0.21515	0.22257	0.13058	0.18003	0.11512	0.21624	0.018424	0.44201	0.25273	0.13398	0.087161	0.26823	0.21802	-2.8937	-2.9833	-3.1896	-3.1292	-2.95	-3.4313	-3.1396	-3.0146	-3.2458	-3.0479	-3.2146	-3.3208	-2.9167	-3.0854	-3.1083	-2.9313	202.906	31.486	-101.460	213.669	42.922	188.375	166.024	165.422	153.136	-91.800	-61.265	155.604	-48.998	-97.088	213.654	-87.766	0.00034558	0.00049714	0.00011849	1242.9	5.4536e-06	2.2485e-06	1318.5	265.79	8.4886e-08	3.1241e-06	335.22	94.532	74.146	21.396	2.6075e-06	29.966	0.000229	0.00020835	5.7995e-05	1225.6	2.4364e-06	2.2547e-06	1304.5	262.91	2.3181e-06	2.21e-06	322.82	94.088	74.081	21.473	2.2764e-06	30.394	131.421	-26.591	-62.480	-122.526	-0.057	6.889	-122.659	-115.731	138.283	19.270	-115.672	-109.538	-109.803	-101.706	34.906	-102.279	-8191	255	
569.466	1	1	0	0	0.13501	0.19285	0.23948	0.18049	0.18063	0.086206	0.095411	0.1174	0.076142	0.036993	0.05739	0.22585	0.15115	0.27814	0.074557	0.036301	-2.8104	-3.0583	-2.7979	-3.4792	-3.0375	-3.2333	-3.4833	-3.0125	-3.1854	-3.1312	-2.9813	-3.2729	-2.9396	-3.2917	-3.1729	-3.0042	100.406	-22.230	-13.438	164.133	178.899	3.934	212.949	210.615	111.968	80.180	-85.136	211.617	202.863	200.542	222.683	34.035	0.00040205	0.00037735	0.00010295	1247.2	2.4023e-06	4.0069e-06	1324.2	265.66	3.3311e-06	8.8202e-07	330.96	94.025	74.716	21.304	3.1987e-06	29.962	0.0002288	0.00020213	5.6653e-05	1225.9	2.374e-06	2.1941e-06	1303.8	262.77	2.3052e-06	2.1529e-06	321.46	94.16	74.195	21.498	2.3203e-06	30.314	121.357	-70.520	-29.013	-122.578	-31.579	47.697	-122.591	-115.855	-48.738	55.763	-116.929	-109.798	-109.355	-102.178	-11.108	-102.494	-8191	255	
569.587	1	1	0	0	0.085111	0.053453	0.28602	0.12531	0.21793	0.27103	0.10786	0.14291	0.20491	0.15169	0.16363	0.15802	0.10951	0.19156	0.19344	0.12394	-2.7208	-2.95	-3.1833	-3.4813	-2.925	-3.1312	-3.3604	-2.95	-3.1813	-3.1396	-3.0979	-3.1083	-3.1729	-3.2271	-2.9938	-3.075	-115.720	-37.392	203.155	203.862	98.917	-15.562	177.997	158.496	29.220	72.005	158.218	10.343	123.155	-98.283	36.006	198.815	0.00036823	0.00044465	6.9641e-05	1247.8	3.1962e-06	1.5556e-06	1319.5	264.71	1.7829e-06	3.213e-06	332.76	94.527	74.167	21.294	1.8988e-06	29.891	0.00023353	0.00021257	5.6825e-05	1226.7	2.3598e-06	2.2609e-06	1302.7	262.49	2.3818e-06	2.2305e-06	320.86	94.057	73.991	21.474	2.3534e-06	30.323	137.799	-29.704	-13.381	-122.432	-28.076	17.391	-122.597	-115.529	-111.511	23.417	-116.029	-109.116	-109.335	-101.885	27.305	-102.567	-8191	255	
569.683	1	1	0	0	0.206	0.081232	0.15419	0.21984	0.23048	0.21726	0.09273	0.14755	0.24509	0.21721	0.13249	0.48874	0.1785	0.28927	0.14791	0.11077	-2.8125	-2.9521	-2.8604	-3.4875	-3.0729	-3.2812	-3.3417	-2.8646	-3.0708	-2.9229	-2.9938	-3.4208	-3.0146	-3.1271	-3.4	-3.0938	225.068	-86.930	19.609	170.144	75.133	120.347	-91.171	196.032	-46.565	159.959	76.788	161.353	203.338	-87.176	-2.119	123.768	0.00043451	0.0006035	0.00010468	1248.3	1.8285e-06	3.0344e-06	1321	265.47	4.435e-06	3.9209e-06	335.81	94.796	74.405	21.348	3.7768e-06	30.05	0.00023796	0.00022224	5.8456e-05	1226.5	2.3959e-06	2.2573e-06	1303.9	262.87	2.344e-06	2.3167e-06	322.01	94.426	74.209	21.464	2.3068e-06	30.433	126.350	-50.054	-39.525	-122.394	-35.049	4.223	-122.738	-115.974	-33.209	37.897	-116.104	-109.484	-109.840	-101.547	3.330	-102.290	-8191	255	
569.779	1	1	0	0	0.19479	0.13867	0.031976	0.14781	0.016643	0.043856	0.2312	0.13099	0.087444	0.13663	0.23521	0.070472	0.21885	0.26205	0.1199	0.10999	-2.7	-3.1437	-3.1021	-3.5438	-2.925	-3.0438	-3.5958	-3.0458	-3.2625	-3.1479	-2.9292	-3.2833	-3.1271	-3.2062	-3.4042	-2.8792	-43.645	55.549	5.603	-59.535	14.757	216.519	136.871	29.700	74.201	138.754	-35.430	200.408	199.999	-133.346	-24.657	-119.453	0.00041875	0.00061556	0.0001387	1250.2	2.4381e-06	1.7537e-06	1318	266.06	3.6008e-06	9.2735e-07	339.06	94.457	74.364	21.325	3.0233e-06	30.062	0.00022634	0.00020331	5.9465e-05	1228.2	2.4381e-06	2.2295e-06	1301.2	262.87	2.3392e-06	2.3161e-06	321.64	94.235	74.103	21.515	2.2766e-06	30.458	132.927	-39.934	-33.873	-122.356	-54.074	38.242	-122.834	-115.827	-38.050	-84.538	-116.293	-109.868	-109.397	-101.944	-7.640	-102.656	-8191	255	
569.851	1	1	0	0	0.13276	0.028846	0.29263	0.37064	0.2414	0.3052	0.26382	0.20393	0.050455	0.4128	0.14572	0.058969	0.14179	0.076013	0.2502	0.099532	-2.6521	-3.4042	-3.0979	-3.3688	-2.9708	-3.0271	-3.4354	-3.1417	-3.1125	-3.1958	-2.9979	-3.3146	-3.0604	-3.0042	-3.2625	-3.1292	191.206	-54.358	172.287	167.423	-128.833	34.814	216.807	146.503	149.642	-67.560	21.124	151.884	19.490	168.337	71.296	-71.793	0.00038175	0.00043413	0.00011275	1248.6	2.829e-06	3.3632e-06	1320.5	265.11	2.4346e-06	2.9143e-06	334.52	94.187	74.204	21.249	1.9013e-06	29.93	0.00023225	0.00021355	6.0711e-05	1227.2	2.5476e-06	2.3087e-06	1304.4	263.09	2.4483e-06	2.3606e-06	323.35	94.257	74.093	21.445	2.4849e-06	30.368	132.782	-20.542	-22.165	-122.424	-58.407	14.568	-122.872	-115.729	-52.209	32.743	-115.914	-109.438	-109.314	-101.891	29.888	-102.718	-8191	255	
569.972	1	1	0	0	0.41379	0.19017	0.14791	0.43127	0.11648	0.17705	0.080429	0.14278	0.1236	0.13852	0.19948	0.2197	0.10718	0.083005	0.14409	0.2305	-2.775	-3.1854	-2.8917	-3.2625	-3.2479	-2.9396	-3.5792	-3.1542	-3.2646	-3.2812	-2.875	-3.2396	-3.1979	-3.1437	-3.2812	-2.9521	203.133	33.101	174.543	176.743	-18.903	64.134	184.345	174.863	7.853	119.259	210.364	-132.664	-114.250	-118.348	25.831	167.108	0.00040673	0.00024979	6.2442e-05	1249.5	8.6745e-07	2.6624e-06	1317.3	264.36	5.7259e-06	1.293e-06	334.95	93.816	73.912	21.18	3.0924e-06	29.876	0.00024292	0.00021852	5.986e-05	1229.8	2.524e-06	2.4412e-06	1303.5	262.17	2.5956e-06	2.2854e-06	322.06	94.072	74.151	21.433	2.3887e-06	30.342	129.755	-44.896	-20.738	-122.524	45.788	17.774	-122.514	-115.875	-52.507	30.812	-115.780	-109.376	-109.614	-101.730	6.430	-102.281	-8191	255	
570.068	1	1	0	0	0.07675	0.23748	0.17398	0.24286	0.17417	0.19695	0.19371	0.12362	0.21605	0.18967	0.14545	0.22972	0.12429	0.14935	0.077824	0.077843	-2.6437	-3.2167	-2.9271	-3.1292	-3.0229	-2.9604	-3.3375	-3.0958	-3.0146	-3.2042	-2.8083	-3.0271	-3.1958	-3.1083	-3.4313	-3.0833	79.827	205.322	-50.908	130.017	112.494	76.926	211.710	-129.044	-114.893	-103.075	-5.170	38.604	209.216	142.015	110.291	149.079	0.00039278	0.00036386	0.00013582	1254.2	2.1302e-06	2.2737e-06	1320.5	264.4	4.2475e-06	2.7754e-06	337.31	93.872	74.076	21.407	4.9434e-06	30.031	0.00025196	0.00022332	6.3873e-05	1229.2	2.5206e-06	2.4602e-06	1305	262.55	2.548e-06	2.3159e-06	323.78	94.197	74.128	21.509	2.368e-06	30.415	126.917	-49.574	-8.906	-122.509	-54.200	26.094	-122.719	-115.845	-40.036	34.065	-115.850	-109.562	-109.506	-102.019	14.489	-102.060	-8191	255	
570.164	1	1	0	0	0.1319	0.12936	0.35987	0.21494	0.17506	0.24284	0.35151	0.092929	0.056731	0.26449	0.086505	0.28598	0.16374	0.10486	0.091477	0.2675	-2.4958	-3.4417	-2.9396	-3.2083	-3.1167	-2.9917	-3.6583	-3.2854	-2.775	-3.3625	-3.0583	-3.3292	-3.35	-3.1729	-3.1458	-3.1083	54.062	55.403	-63.727	158.471	196.620	153.753	171.759	36.515	62.945	-68.593	65.220	-107.860	209.023	208.186	112.328	133.496	0.00034793	0.00023897	9.4544e-05	1249	2.347e-06	3.5042e-06	1324.8	266.93	3.0437e-06	3.7026e-06	337.54	94.017	74.466	21.239	2.6918e-06	30.082	0.00025087	0.00021817	6.3528e-05	1229.6	2.557e-06	2.4674e-06	1307.5	263.63	2.5666e-06	2.4251e-06	322.64	94.211	74.167	21.426	2.3659e-06	30.388	131.600	-66.070	-10.607	-122.594	-4.692	43.727	-122.702	-115.554	-40.682	53.501	-116.225	-109.560	-109.337	-102.205	-4.134	-102.181	-8191	255	
570.283	1	1	0	0	0.020104	0.23035	0.11874	0.23904	0.091005	0.25635	0.33351	0.10964	0.1527	0.026131	0.2232	0.19656	0.1525	0.10884	0.095422	0.20467	-2.3667	-3.3542	-2.9333	-3.1	-3.1688	-3.0917	-3.3812	-3.1729	-2.9979	-3.3021	-3.0354	-3.0208	-3.3729	-3.2479	-3.2646	-3.1542	-10.926	-33.058	159.950	-124.441	-91.480	-127.671	191.209	217.248	224.433	97.206	-79.000	138.084	205.350	-83.006	-113.882	62.263	0.00040309	0.00043194	3.7006e-05	1250	9.9508e-07	2.7088e-06	1319.4	265.87	3.9275e-06	3.2024e-06	334.82	94.176	74.194	21.207	3.5186e-06	29.874	0.00025379	0.0002234	6.3959e-05	1228.3	2.5498e-06	2.5324e-06	1304.2	263	2.6445e-06	2.3686e-06	322.8	94.191	74.188	21.501	2.4245e-06	30.302	135.122	-61.350	-40.666	-122.511	-15.236	1.025	-122.445	-115.605	-26.118	-22.095	-115.081	-109.866	-109.456	-101.941	-11.676	-102.657	-8191	255	
570.379	1	1	0	0	0.049668	0.14996	0.18891	0.23337	0.065808	0.22047	0.0894	0.22248	0.10547	0.13836	0.1207	0.22628	0.16008	0.21501	0.13969	0.066337	-2.4708	-3.3937	-3.1521	-3.1521	-3.2146	-3.0958	-3.3958	-3.3667	-2.7313	-3.2854	-3.0271	-3.0375	-3.3604	-2.8167	-3.1292	-3.3167	157.999	183.999	128.926	206.930	19.164	152.653	3.179	169.236	151.101	72.994	-99.929	-133.442	-110.867	147.611	15.107	85.791	0.00040346	0.00042277	9.0243e-05	1246.9	1.0161e-06	4.2368e-06	1322.2	265.65	3.43e-06	5.0236e-07	341.2	94	74.39	21.42	1.1512e-06	30.112	0.00025648	0.00022876	6.3589e-05	1229.3	2.5632e-06	2.44e-06	1305.5	263.18	2.5733e-06	2.363e-06	323.72	94.218	74.186	21.561	2.4356e-06	30.422	129.400	-22.317	9.715	-122.662	-55.092	-14.807	-122.626	-115.857	-34.071	-18.003	-116.407	-109.663	-109.500	-101.945	78.918	-102.560	-8191	255	
570.452	1	1	0	0	0.098938	0.29453	0.12322	0.28088	0.20041	0.10764	0.18255	0.020079	0.13404	0.26619	0.16847	0.12178	0.33182	0.098018	0.11511	0.069157	-2.6979	-3.1833	-2.95	-3.1771	-3.1417	-2.975	-3.2875	-3.4583	-2.8417	-3.0729	-3.0854	-3	-3.2729	-2.9771	-2.8875	-3.3312	-74.267	163.060	141.112	137.324	-25.241	80.362	135.720	67.658	163.675	217.446	174.643	174.357	-85.711	57.652	-56.662	33.781	0.00037253	0.00026864	8.4809e-05	1254.5	2.1098e-06	1.8708e-06	1323.7	265.32	2.0447e-06	4.5389e-06	340.93	94.039	74.961	21.432	4.3911e-06	30.069	0.00025045	0.00021687	6.3726e-05	1231.9	2.6562e-06	2.5512e-06	1305.7	263.09	2.5264e-06	2.3839e-06	325.18	94.216	74.433	21.543	2.3742e-06	30.406	132.647	-29.647	-58.564	-122.447	30.331	3.697	-122.879	-115.815	-54.565	29.888	-115.083	-109.398	-110.015	-101.705	-22.786	-102.408	-8191	255	
570.571	1	1	0	0	0.11339	0.18217	0.10755	0.15891	0.14869	0.19455	0.22106	0.094006	0.13975	0.099675	0.23024	0.24045	0.41683	0.20479	0.24745	0.041817	-2.6063	-3.1104	-2.8583	-3.1458	-3.4229	-3.0875	-3.0229	-3.425	-3.1542	-3.0771	-3.1625	-2.9562	-3.2083	-2.9583	-3.0375	-3.3833	-15.507	224.562	130.032	214.638	-83.322	-119.920	171.992	171.818	213.740	73.019	217.416	118.501	165.609	187.677	-117.038	59.860	0.00039792	0.00025224	4.8252e-05	1253.2	3.8352e-06	1.8098e-06	1324.1	265.87	1.2558e-06	1.9377e-06	333.61	94.724	74.58	21.328	5.0417e-06	30.126	0.00025504	0.00021455	6.3457e-05	1230.1	2.4884e-06	2.4008e-06	1307.3	263.48	2.525e-06	2.2715e-06	322.01	94.545	74.304	21.497	2.428e-06	30.455	133.920	-67.075	-25.480	-122.403	5.163	69.501	-122.712	-115.897	-74.680	60.303	-116.056	-109.674	-109.556	-101.767	-32.540	-102.451	-8191	255	
570.667	1	1	0	0	0.19522	0.1034	0.044597	0.19312	0.1375	0.15328	0.2425	0.080477	0.11009	0.036135	0.078522	0.17698	0.26283	0.096748	0.20607	0.17969	-2.5458	-2.9417	-3.075	-2.9896	-3.3688	-3.1396	-3.1146	-3.4896	-2.8937	-3.0896	-3.2	-2.8333	-3.2938	-3.1042	-2.8896	-3.2354	124.986	125.241	171.395	-113.153	38.451	30.057	185.647	151.476	187.910	180.724	-15.760	191.413	211.608	41.273	113.113	109.396	0.00039146	0.00027674	8.9761e-05	1251.8	4.7692e-06	4.0777e-06	1327.5	266.01	3.2194e-06	2.9398e-06	337.7	94.316	73.978	21.301	4.0004e-06	30.178	0.00024164	0.00021629	6.0924e-05	1231.1	2.459e-06	2.4164e-06	1308.4	263.63	2.5049e-06	2.4295e-06	322.74	94.399	74.202	21.52	2.4448e-06	30.442	129.965	-84.401	-57.916	-122.569	-0.860	43.324	-122.535	-115.862	-40.122	5.172	-115.794	-109.617	-109.630	-101.884	-1.465	-102.979	-8191	255	
570.764	1	1	0	0	0.1238	0.08663	0.057727	0.28206	0.13989	0.22227	0.092801	0.23329	0.054257	0.21185	0.088664	0.18287	0.16271	0.21906	0.31444	0.21129	-2.6292	-3.1021	-3.2729	-3.1188	-3.1208	-3.1354	-3.2396	-3.3229	-2.8271	-3.0542	-3.3458	-3.0958	-3.1437	-3.1896	-3.2313	-3.3063	74.133	-16.837	191.578	176.500	-1.484	-48.031	153.327	143.077	150.812	-90.004	54.465	62.274	-98.406	-39.351	218.985	199.928	0.00037172	0.00020644	9.9677e-05	1252	2.5582e-06	4.4518e-06	1321.9	265.03	2.6678e-06	4.8645e-06	333.69	93.849	74.782	21.435	2.7077e-06	30.182	0.00025101	0.00022196	6.3184e-05	1230.6	2.4765e-06	2.4322e-06	1307.9	262.75	2.5421e-06	2.4319e-06	321.79	94.246	74.485	21.514	2.43e-06	30.405	131.515	-98.344	-52.676	-122.525	14.089	15.766	-122.677	-116.019	-42.176	49.606	-116.467	-109.378	-109.510	-101.778	20.746	-102.382	-8191	255	
570.884	1	1	0	0	0.21765	0.13461	0.12015	0.099589	0.16661	0.2912	0.097855	0.10489	0.057999	0.205	0.10011	0.15207	0.097953	0.10166	0.13467	0.10951	-2.5958	-3.2271	-3.1479	-3.025	-3.1937	-3.0958	-2.9958	-3.2562	-3.1063	-2.8833	-3.1437	-3.0167	-3.0083	-3.2562	-3.0771	-3.1458	75.774	86.415	17.764	10.715	7.164	-111.614	205.305	202.082	62.438	156.093	146.178	-0.921	171.388	209.825	23.037	-123.533	0.00038749	0.00026072	9.7359e-05	1250.4	1.6364e-06	8.3777e-07	1323.3	267.33	4.6158e-06	1.8325e-06	340.87	94.053	74.609	21.413	1.3764e-06	30.043	0.00025323	0.00022407	6.0807e-05	1231	2.5405e-06	2.4006e-06	1308.3	263.99	2.549e-06	2.3855e-06	324.23	94.349	74.316	21.549	2.5294e-06	30.403	129.616	-45.783	-38.353	-122.544	-93.777	-84.503	-122.801	-115.814	-30.931	-1.382	-116.189	-109.463	-109.348	-102.184	8.412	-102.083	-8191	255	
570.980	1	1	0	0	0.17551	0.19228	0.29648	0.24621	0.1708	0.06503	0.15886	0.22537	0.18212	0.205	0.12637	0.25953	0.17839	0.27486	0.3408	0.13075	-2.6688	-2.9813	-3.3021	-3.1021	-3.2021	-3.1646	-3.2	-3.4313	-2.9667	-3.0312	-3.3	-3.1458	-3.1208	-3.2021	-3.0479	-3.1479	161.476	8.938	-122.549	193.748	186.228	-65.873	222.176	128.333	-77.496	194.316	27.488	216.476	-85.611	-38.178	-67.279	219.687	0.00038605	0.00041497	9.5635e-05	1255.5	1.9866e-06	2.5141e-06	1323.7	266.17	2.3398e-06	4.5222e-06	332.18	94.463	74.802	21.309	5.4906e-06	29.88	0.00024708	0.00022099	6.1415e-05	1231.4	2.5521e-06	2.3726e-06	1307.8	263.47	2.5747e-06	2.3469e-06	321.57	94.359	74.449	21.499	2.5512e-06	30.308	132.752	4.827	6.414	-122.537	-118.647	-4.109	-122.862	-115.669	-77.611	1.676	-115.812	-109.594	-109.524	-102.317	-21.249	-102.258	-8191	255	
571.075	1	1	0	0	0.2318	0.18592	0.19765	0.036472	0.216	0.24708	0.3509	0.21974	0.13814	0.087379	0.1556	0.22759	0.24188	0.1485	0.03732	0.13438	-2.6437	-2.8438	-3.3333	-3.1542	-2.9229	-3.1083	-3.1937	-3.1667	-3.05	-2.9479	-3.2021	-3.0167	-3.1083	-3.1583	-2.8792	-3.2208	189.231	48.240	114.609	-54.366	8.080	131.646	184.521	186.107	222.821	223.466	41.599	-113.348	132.994	35.107	202.944	166.116	0.00039778	0.00023296	9.8574e-05	1249.5	3.3973e-06	3.2427e-06	1320.2	266.75	3.0437e-06	3.7401e-06	338.71	94.091	74.212	21.291	3.1799e-06	30.198	0.00025434	0.00021741	6.1572e-05	1231.5	2.5964e-06	2.4826e-06	1306.3	263.63	2.6324e-06	2.4581e-06	322.84	94.126	74.314	21.482	2.5354e-06	30.407	136.231	-62.791	-36.987	-122.695	-55.632	23.627	-122.771	-115.557	9.847	12.311	-116.280	-109.624	-109.454	-102.253	15.669	-102.183	-8191	255	
571.148	1	1	0	0	0.026848	0.058666	0.18857	0.45953	0.10229	0.11478	0.21567	0.35359	0.1398	0.15904	0.064453	0.19241	0.29471	0.13373	0.28455	0.10525	-2.7729	-2.7583	-3.0333	-3.1458	-3.1188	-3.3458	-3.2396	-3.1813	-3.3104	-3.0438	-3.3271	-3.1104	-2.9688	-3.3667	-3.2	-3.35	-17.704	-17.019	-120.280	185.440	-56.067	-38.390	121.064	115.312	-131.463	112.163	106.583	106.543	-108.663	182.800	55.657	127.536	0.00038593	0.00047951	8.0534e-05	1253	3.7221e-06	3.1737e-06	1318.6	265.13	3.8361e-06	2.9056e-06	338.27	93.688	74.013	21.338	3.892e-06	30.033	0.00024797	0.00022575	6.3847e-05	1231.3	2.5636e-06	2.4518e-06	1305.4	263.54	2.4867e-06	2.4143e-06	322.37	94.055	74.241	21.506	2.5163e-06	30.431	134.104	-69.132	14.131	-122.481	-31.607	34.271	-122.703	-115.839	-53.462	28.638	-116.178	-109.463	-109.493	-101.533	35.135	-102.120	-8191	255	
571.267	1	1	0	0	0.077597	0.15923	0.26389	0.29774	0.39005	0.11552	0.44161	0.17158	0.053793	0.31138	0.24772	0.05837	0.26252	0.12135	0.25521	0.32436	-2.5604	-2.9083	-3.3521	-3.2083	-2.8833	-3.3375	-3.2188	-3.1542	-3.1542	-3.1083	-3.1479	-2.9854	-2.975	-3.4208	-3.0167	-3.1063	-54.100	23.649	24.446	201.221	-83.247	-27.610	185.102	161.098	199.760	-112.603	43.471	71.426	181.549	207.753	70.125	151.007	0.00038283	0.00029551	5.0657e-05	1255.8	1.2284e-06	4.2155e-06	1326.7	266	3.3228e-06	3.6979e-06	332.99	93.567	74.155	21.282	2.1004e-06	30.1	0.00025501	0.00022889	6.3523e-05	1231.7	2.6192e-06	2.4496e-06	1306.7	263.18	2.6186e-06	2.5092e-06	321.93	94.07	74.279	21.499	2.4253e-06	30.429	131.778	-43.892	6.937	-122.641	-3.402	3.181	-122.779	-115.566	-68.598	18.121	-116.685	-109.348	-109.485	-101.893	60.607	-102.499	-8191	255	
571.363	1	1	0	0	0.17914	0.16971	0.2444	0.078358	0.18492	0.22115	0.13026	0.11373	0.22905	0.09725	0.082788	0.2481	0.065776	0.23681	0.069228	0.20191	-2.9333	-2.8042	-3.0896	-3.4875	-3.125	-3.2854	-3.1271	-3.0875	-3.275	-3.0354	-3.0542	-3.1083	-3.0271	-3.2333	-2.9542	-3.0667	189.459	-88.365	222.690	-16.262	36.845	-73.465	109.462	-97.341	-34.402	131.280	158.263	81.009	158.107	8.130	50.638	118.863	0.00035966	0.00030743	0.00015182	1250	1.5147e-06	2.7297e-06	1319.8	265.21	3.5085e-06	2.8713e-06	331.96	93.741	74.613	21.22	3.5955e-06	30.112	0.00025081	0.00022972	6.1517e-05	1229.7	2.5509e-06	2.4202e-06	1304.2	263.07	2.4863e-06	2.4446e-06	320.3	94.079	74.249	21.469	2.5109e-06	30.392	135.166	-55.008	-38.422	-122.375	157.667	-2.968	-122.563	-115.918	-57.818	-17.534	-116.049	-109.417	-109.302	-102.067	-22.116	-102.072	-8191	255	
571.459	1	1	0	0	0.090616	0.076934	0.015419	0.15658	0.063356	0.2136	0.19323	0.24015	0.1683	0.020552	0.21893	0.15611	0.44304	0.086604	0.1644	0.2056	-3.2167	-2.9479	-3.1083	-3.4167	-3.0646	-3.175	-3.2896	-3.1104	-3.2479	-3.0979	-3.1729	-3.1854	-2.9521	-3.3354	-3.1021	-3.0187	205.948	-78.417	-52.238	165.960	221.865	-109.986	179.124	152.175	89.278	137.316	-45.694	140.632	168.964	225.094	109.308	156.445	0.0003655	0.00039215	0.00010197	1252.8	2.4732e-06	2.514e-06	1322.3	265.74	4.3829e-06	3.6884e-06	336.54	93.836	74.268	21.369	2.1469e-06	30.058	0.00025183	0.0002337	6.3067e-05	1230.3	2.6607e-06	2.546e-06	1305.6	262.9	2.6579e-06	2.5665e-06	323.71	94.112	74.228	21.534	2.6461e-06	30.396	131.704	-56.574	-15.033	-122.679	-19.954	-6.117	-122.541	-115.784	-33.207	46.776	-115.978	-109.611	-109.381	-101.953	19.212	-102.471	-8191	255	
571.555	1	1	0	0	0.304	0.1673	0.21745	0.021204	0.24382	0.10137	0.24375	0.1324	0.26117	0.16836	0.13343	0.13384	0.10536	0.10482	0.033573	0.16259	-2.6979	-3.1292	-3.0833	-3.325	-2.875	-3.1104	-3.3208	-3.0854	-2.9792	-3.0771	-3.2896	-3.3146	-3.1083	-3.2271	-3.1917	-2.9875	157.880	-99.288	93.355	8.133	110.889	-38.516	186.016	-96.199	22.118	132.633	92.299	209.644	86.948	-96.636	183.510	174.770	0.00036429	0.00033548	0.00010469	1252	2.7794e-06	1.4597e-06	1324	265.94	3.7309e-06	2.217e-06	338.39	94.325	74.833	21.416	2.7632e-06	30.083	0.00027125	0.00024336	6.7693e-05	1231.6	2.8222e-06	2.513e-06	1308.6	263.62	2.6529e-06	2.4882e-06	322.17	94.383	74.568	21.523	2.515e-06	30.476	136.497	-38.809	-32.344	-122.656	-74.865	2.615	-122.657	-115.824	-19.362	12.594	-115.928	-109.314	-109.301	-101.736	-29.236	-102.784	-8191	255	
571.676	1	1	0	0	0.13675	0.29122	0.1711	0.033525	0.15505	0.10344	0.13547	0.070569	0.064081	0.074852	0.18247	0.10582	0.1985	0.16871	0.085924	0.1641	-3.0229	-3.0479	-2.975	-3.4813	-2.9458	-3.1271	-3.4292	-3.0875	-3.2812	-3.1396	-3.2021	-3.2771	-3.0021	-3.2521	-3.0521	-2.8792	177.895	71.607	146.976	-107.868	-61.852	58.528	170.999	217.085	137.642	80.524	150.032	116.558	211.601	98.722	3.549	17.009	0.00038771	0.00016773	7.5478e-05	1253.2	1.3381e-06	2.5797e-06	1323.4	266.94	4.1115e-06	2.8737e-06	336.97	94.272	74.463	21.262	4.496e-06	30.046	0.00024797	0.00023194	6.3118e-05	1234.2	2.5588e-06	2.3906e-06	1309.5	263.94	2.6117e-06	2.5254e-06	325.8	94.247	74.331	21.531	2.619e-06	30.452	130.412	-27.154	10.680	-122.440	-63.682	22.381	-122.833	-115.790	-33.468	29.233	-117.299	-109.638	-109.412	-102.137	25.175	-102.664	-8191	255	
571.748	1	1	0	0	0.095592	0.30402	0.091652	0.42378	0.14655	0.20534	0.42893	0.21476	0.10002	0.22521	0.014818	0.17152	0.18717	0.29586	0.19875	0.30553	-2.9229	-3.0521	-3.0312	-3.5187	-2.9542	-3.0042	-3.4167	-2.9292	-2.9729	-3.3063	-3.0979	-3.3187	-3.0625	-3.1104	-3.1854	-3.0563	-49.216	61.803	-112.600	135.462	113.875	172.839	139.544	168.722	225.179	-66.259	37.803	203.431	-68.440	-129.318	211.212	79.243	0.00037884	0.00050423	6.3607e-05	1254.9	3.894e-06	3.9893e-06	1321.3	265.93	2.3201e-06	6.6916e-07	337.13	94.306	74.924	21.432	1.8955e-06	30.019	0.0002556	0.00024133	6.4379e-05	1231.5	2.7566e-06	2.5961e-06	1306.5	263.28	2.6412e-06	2.5228e-06	324.28	93.953	74.359	21.54	2.5894e-06	30.415	130.102	-35.477	-9.976	-122.548	-11.573	23.098	-122.802	-115.708	-71.199	172.542	-116.157	-109.562	-109.592	-101.470	44.553	-102.014	-8191	255	
571.844	1	1	0	0	0.083356	0.30069	0.25919	0.3141	0.16532	0.26449	0.35111	0.078083	0.22569	0.10585	0.065389	0.13516	0.083384	0.27901	0.1261	0.17805	-2.8396	-3.1813	-3.0083	-3.4229	-3.1646	-3.0687	-3.6167	-3.125	-3.1854	-3.2875	-3.2333	-3.4667	-3.0521	-3.15	-3.5021	-3.1375	-120.134	-55.280	43.232	223.698	153.630	-41.863	206.383	70.365	-119.719	-91.931	-39.957	-74.675	-44.175	-102.701	193.807	189.328	0.00039213	0.00033216	9.7533e-05	1247.2	3.3733e-06	2.6244e-06	1318.6	265.29	1.476e-06	3.4961e-06	333.19	93.987	74.165	21.144	1.9518e-06	30	0.0002476	0.00023852	6.4891e-05	1229.7	2.6674e-06	2.4924e-06	1303.7	262.37	2.5682e-06	2.5486e-06	322.66	93.917	74.147	21.404	2.6118e-06	30.358	134.314	-30.246	-38.643	-122.566	4.680	4.046	-122.904	-115.846	60.591	17.129	-116.101	-109.484	-109.267	-101.821	-42.362	-102.155	-8191	255	
571.965	1	1	0	0	0.28507	0.25375	0.23738	0.22935	0.2241	0.18566	0.32157	0.20662	0.044582	0.041609	0.15639	0.067288	0.02408	0.17347	0.15118	0.11308	-2.8833	-3.2896	-3.0979	-3.3292	-2.9917	-3.3104	-3.5229	-3.0792	-3.325	-3.2479	-3.1708	-3.3167	-3.0146	-3.0646	-3.3937	-3.1833	124.434	-119.804	-18.157	218.490	-128.741	-28.556	189.404	142.558	68.758	37.625	80.743	-24.622	-30.399	122.096	32.498	115.191	0.00042418	9.9523e-05	8.169e-05	1245.6	1.9003e-06	3.8154e-06	1317.7	264.93	4.1775e-06	1.737e-06	334.37	93.896	73.875	21.306	3.5564e-06	29.877	0.00025376	0.00023489	6.7491e-05	1228	2.6204e-06	2.6041e-06	1304.4	262.07	2.6784e-06	2.4989e-06	320.43	93.852	73.827	21.42	2.4321e-06	30.282	137.008	-45.263	-17.760	-122.519	-30.833	-25.192	-122.720	-115.748	-31.643	35.527	-116.444	-109.255	-109.734	-101.498	2.160	-102.429	-8191	255	
#DATA ENDS
