BOXY.EXE: ISS Imagent and Oximeter Data Acquisition Program Version 0.80
Ascii Record File

#ACQ INFORMATION
2  Detector Channels 
16  External MUX Channels 
1  Auxiliary Channels 
5000  Waveform (CCF) Frequency (Hz)
1  Waveforms Skipped 
30  Waveforms Averaged 
1  Cycles Averaged 
16  Acquisitions per Waveform 
10.0806  Updata Rate (Hz) 

#FILE INFORMATION
TRUE -- External MUX Channel results are PARSED.
FALSE -- AC DC and Phase are NOT grouped.
TRUE -- Companion Program Settings File CREATED.
FALSE -- AC data not excluded
FALSE -- DC data not excluded
FALSE -- Phase data not excluded
FALSE -- Auxillary Chn. data not excluded
Tab delimiters

#CALIBRATION STATE
TRUE -- Waveform Calibration Values APPLIED.


#AUX CALIBRATION VALUES
Val Type	aux-1	

Term	1.0000e+00	
Factor	0.0000e+00	


#WF CALIBRATION VALUES
A = Detector Channel
Val Type	A-AC1	A-AC2	A-AC3	A-AC4	A-AC5	A-AC6	A-AC7	A-AC8	A-AC9	A-AC10	A-AC11	A-AC12	A-AC13	A-AC14	A-AC15	A-AC16	A-DC1	A-DC2	A-DC3	A-DC4	A-DC5	A-DC6	A-DC7	A-DC8	A-DC9	A-DC10	A-DC11	A-DC12	A-DC13	A-DC14	A-DC15	A-DC16	A-Ph1	A-Ph2	A-Ph3	A-Ph4	A-Ph5	A-Ph6	A-Ph7	A-Ph8	A-Ph9	A-Ph10	A-Ph11	A-Ph12	A-Ph13	A-Ph14	A-Ph15	A-Ph16	

Term	0.00000e+00	0.00000e+00	0.00000e+00	0.00000e+00	0.00000e+00	0.00000e+00	0.00000e+00	0.00000e+00	0.00000e+00	0.00000e+00	0.00000e+00	0.00000e+00	0.00000e+00	0.00000e+00	0.00000e+00	0.00000e+00	0.00000e+00	0.00000e+00	0.00000e+00	0.00000e+00	0.00000e+00	0.00000e+00	0.00000e+00	0.00000e+00	0.00000e+00	0.00000e+00	0.00000e+00	0.00000e+00	0.00000e+00	0.00000e+00	0.00000e+00	0.00000e+00	0.00000e+00	0.00000e+00	0.00000e+00	0.00000e+00	0.00000e+00	0.00000e+00	0.00000e+00	0.00000e+00	0.00000e+00	0.00000e+00	0.00000e+00	0.00000e+00	0.00000e+00	0.00000e+00	0.00000e+00	0.00000e+00	
Factor	1.00000e+00	1.00000e+00	1.00000e+00	1.00000e+00	1.00000e+00	1.00000e+00	1.00000e+00	1.00000e+00	1.00000e+00	1.00000e+00	1.00000e+00	1.00000e+00	1.00000e+00	1.00000e+00	1.00000e+00	1.00000e+00	1.00000e+00	1.00000e+00	1.00000e+00	1.00000e+00	1.00000e+00	1.00000e+00	1.00000e+00	1.00000e+00	1.00000e+00	1.00000e+00	1.00000e+00	1.00000e+00	1.00000e+00	1.00000e+00	1.00000e+00	1.00000e+00	X	X	X	X	X	X	X	X	X	X	X	X	X	X	X	X	

B = Detector Channel
Val Type	B-AC1	B-AC2	B-AC3	B-AC4	B-AC5	B-AC6	B-AC7	B-AC8	B-AC9	B-AC10	B-AC11	B-AC12	B-AC13	B-AC14	B-AC15	B-AC16	B-DC1	B-DC2	B-DC3	B-DC4	B-DC5	B-DC6	B-DC7	B-DC8	B-DC9	B-DC10	B-DC11	B-DC12	B-DC13	B-DC14	B-DC15	B-DC16	B-Ph1	B-Ph2	B-Ph3	B-Ph4	B-Ph5	B-Ph6	B-Ph7	B-Ph8	B-Ph9	B-Ph10	B-Ph11	B-Ph12	B-Ph13	B-Ph14	B-Ph15	B-Ph16	

Term	0.00000e+00	0.00000e+00	0.00000e+00	0.00000e+00	0.00000e+00	0.00000e+00	0.00000e+00	0.00000e+00	0.00000e+00	0.00000e+00	0.00000e+00	0.00000e+00	0.00000e+00	0.00000e+00	0.00000e+00	0.00000e+00	0.00000e+00	0.00000e+00	0.00000e+00	0.00000e+00	0.00000e+00	0.00000e+00	0.00000e+00	0.00000e+00	0.00000e+00	0.00000e+00	0.00000e+00	0.00000e+00	0.00000e+00	0.00000e+00	0.00000e+00	0.00000e+00	-6.39374e+00	-1.30076e+02	-1.26601e+02	-1.84394e+02	-6.08140e+01	-7.06777e+01	-1.57167e+02	-1.62015e+02	-3.31567e+01	-6.16301e+01	-1.77855e+02	-1.71352e+02	-1.80192e+02	-1.76785e+02	-5.94064e+01	-1.49703e+02	
Factor	3.40232e-05	2.11048e-04	5.73687e-05	1.81022e-01	2.72477e-06	1.95530e-06	1.79154e-01	5.79627e-02	2.25856e-06	1.85658e-06	1.08032e+00	3.06876e-02	3.08175e-02	1.00977e-02	2.67119e-06	1.45155e-02	6.65788e-06	7.85998e-06	2.20830e-06	8.86745e-02	8.43392e-08	8.72387e-08	8.25446e-02	2.84046e-02	8.40714e-08	8.72613e-08	4.76702e-01	1.46536e-02	1.52110e-02	4.99653e-03	8.52396e-08	6.96091e-03	X	X	X	X	X	X	X	X	X	X	X	X	X	X	X	X	



#DISTANCE SETTINGS
A = Detector Channel
A-1	A-2	A-3	A-4	A-5	A-6	A-7	A-8	A-9	A-10	A-11	A-12	A-13	A-14	A-15	A-16	

2.5000e+00	3.0000e+00	2.5000e+00	3.0000e+00	2.0000e+00	3.0000e+00	1.5000e+00	3.0000e+00	3.0000e+00	3.0000e+00	3.0000e+00	3.0000e+00	3.0000e+00	3.0000e+00	1.5000e+00	3.0000e+00	

B = Detector Channel
B-1	B-2	B-3	B-4	B-5	B-6	B-7	B-8	B-9	B-10	B-11	B-12	B-13	B-14	B-15	B-16	

1.0000e+01	1.0000e+01	1.0000e+01	1.4400e+00	1.0000e+01	1.0000e+01	1.5100e+00	1.9400e+00	1.0000e+01	1.0000e+01	1.9900e+00	2.4900e+00	2.4100e+00	2.9000e+00	1.0000e+01	2.9800e+00	




#DATA BEGINS
time	group	step	mark	flag	A-AC1	A-AC2	A-AC3	A-AC4	A-AC5	A-AC6	A-AC7	A-AC8	A-AC9	A-AC10	A-AC11	A-AC12	A-AC13	A-AC14	A-AC15	A-AC16	A-DC1	A-DC2	A-DC3	A-DC4	A-DC5	A-DC6	A-DC7	A-DC8	A-DC9	A-DC10	A-DC11	A-DC12	A-DC13	A-DC14	A-DC15	A-DC16	A-Ph1	A-Ph2	A-Ph3	A-Ph4	A-Ph5	A-Ph6	A-Ph7	A-Ph8	A-Ph9	A-Ph10	A-Ph11	A-Ph12	A-Ph13	A-Ph14	A-Ph15	A-Ph16	B-AC1	B-AC2	B-AC3	B-AC4	B-AC5	B-AC6	B-AC7	B-AC8	B-AC9	B-AC10	B-AC11	B-AC12	B-AC13	B-AC14	B-AC15	B-AC16	B-DC1	B-DC2	B-DC3	B-DC4	B-DC5	B-DC6	B-DC7	B-DC8	B-DC9	B-DC10	B-DC11	B-DC12	B-DC13	B-DC14	B-DC15	B-DC16	B-Ph1	B-Ph2	B-Ph3	B-Ph4	B-Ph5	B-Ph6	B-Ph7	B-Ph8	B-Ph9	B-Ph10	B-Ph11	B-Ph12	B-Ph13	B-Ph14	B-Ph15	B-Ph16	aux-1	digaux	

17480.145	1	1	0	768	0.064591	0.19193	0.15694	0.21866	0.23691	0.32871	0.2176	0.15088	0.20329	0.19064	0.16879	0.24996	0.10948	0.2301	0.20027	0.1341	-2.2188	-2.5687	-2.8542	-2.6354	-2.6167	-2.8292	-2.5625	-2.6604	-2.6813	-2.2646	-2.7562	-2.5125	-2.6958	-2.85	-2.5	-2.7667	159.503	130.928	19.962	264.374	267.636	47.486	-51.083	217.398	39.207	171.542	-2.355	230.275	69.628	192.423	211.990	270.804	0.00027077	0.00010385	0.0001313	384.02	6.3064e-06	3.468e-06	543.81	105.13	8.0611e-06	3.2278e-06	207.32	78.507	34.661	14.754	5.0212e-06	38.856	0.0015337	0.0017434	0.0004774	387.28	1.7885e-05	1.9461e-05	541.71	106.63	1.8296e-05	1.9044e-05	292	79.26	37.128	15.418	1.8389e-05	39.214	-66.944	115.129	85.091	-55.335	218.037	-51.134	-54.876	-49.550	184.179	18.568	-49.873	-46.018	-44.891	-41.521	70.570	-42.694	-8191	255	
17480.240	1	1	0	0	0.1159	0.086268	0.069205	0.16464	0.18954	0.20761	0.15312	0.29812	0.16966	0.13113	0.081882	0.12304	0.18882	0.19588	0.22004	0.10153	-2.1896	-2.5271	-2.8458	-2.5812	-2.5625	-2.7667	-2.4125	-2.7271	-2.5396	-2.6125	-2.7208	-2.725	-2.5208	-2.975	-2.4479	-2.7833	81.868	-12.337	24.859	229.005	15.259	116.221	165.778	189.708	234.898	278.645	-65.974	48.646	-36.351	247.815	165.050	210.366	0.00022861	0.00044068	0.0002312	385.14	2.1541e-06	4.0053e-06	547.63	104.95	2.5134e-06	2.2933e-06	214.51	78.602	34.957	14.79	1.1307e-05	39.104	0.0015303	0.0016933	0.00046435	388.17	1.8182e-05	1.9496e-05	542.62	106.98	1.8186e-05	1.8717e-05	286.36	79.315	37.273	15.414	1.7528e-05	39.402	288.035	105.579	58.858	-55.296	84.430	94.496	-54.845	-49.527	57.144	202.713	-50.274	-46.048	-44.910	-41.460	75.969	-42.486	-8191	255	
17480.336	1	1	0	0	0.21596	0.23684	0.41486	0.24485	0.14736	0.22762	0.18826	0.18281	0.075165	0.31698	0.22351	0.12768	0.31953	0.30277	0.10758	0.13202	-2.1813	-2.4313	-2.7125	-2.6792	-2.6375	-2.9271	-2.525	-2.6917	-2.6979	-2.4021	-2.7687	-2.6583	-2.3146	-2.8396	-2.4021	-2.7042	195.803	96.167	2.894	228.619	204.224	237.096	-40.532	-42.972	-6.460	-29.300	-38.709	257.740	56.805	226.385	166.454	189.475	0.00027116	0.00058393	5.8762e-05	382.65	7.2576e-06	4.1378e-06	546.01	105.37	6.8903e-06	5.9157e-06	211.61	79.639	34.988	14.64	7.626e-06	38.904	0.0015287	0.0016607	0.00044287	388.61	1.7947e-05	1.8611e-05	541.89	107.51	1.8049e-05	1.8423e-05	282.53	79.816	37.228	15.368	1.6742e-05	39.253	-52.895	12.536	-24.203	-55.496	126.147	-13.247	-55.063	-49.761	131.580	134.098	-50.083	-45.983	-45.285	-41.595	37.607	-42.263	-8191	255	
17480.434	1	1	0	0	0.11426	0.33276	0.28288	0.32666	0.17258	0.25909	0.026396	0.16034	0.15598	0.15473	0.17186	0.010655	0.178	0.17939	0.37308	0.070305	-2.2979	-2.5062	-2.7729	-2.6562	-2.5438	-2.7208	-2.5396	-2.6167	-2.6688	-2.5854	-2.8271	-2.625	-2.5812	-2.9333	-2.6	-2.6021	-19.121	261.553	88.333	233.252	-19.541	74.138	54.497	251.928	51.699	51.678	233.709	134.644	242.412	122.630	280.515	223.214	0.00021421	0.0010496	0.00022244	385.41	5.2975e-06	5.4075e-06	543.63	104.61	1.1866e-05	3.885e-06	210.07	78.647	35.249	14.841	1.1514e-06	38.999	0.0014796	0.001627	0.00042677	388.8	1.7742e-05	1.8415e-05	540.17	107.19	1.7635e-05	1.7552e-05	280.14	79.549	37.259	15.375	1.6809e-05	39.391	-64.218	72.340	131.170	-55.191	60.914	12.398	-54.990	-49.905	115.411	44.529	-49.220	-45.992	-45.098	-41.690	30.715	-42.619	-8191	255	
17480.527	1	1	0	0	0.17383	0.15831	0.18655	0.10065	0.32982	0.1291	0.29623	0.32476	0.077223	0.1055	0.025343	0.11261	0.10845	0.16565	0.080981	0.16772	-2.3417	-2.4	-2.6375	-2.7146	-2.4396	-2.7833	-2.6417	-2.5542	-2.8042	-2.6292	-2.6104	-2.6542	-2.5687	-2.5625	-2.6167	-2.5167	227.231	-4.513	284.899	277.029	112.989	35.449	57.396	164.480	35.409	157.251	154.449	291.341	267.403	284.909	-23.385	222.638	0.00025161	0.00030947	0.00010683	385.32	4.6753e-06	3.3541e-06	545.21	104.26	4.0227e-06	3.0001e-06	211.17	79.056	35.17	14.915	8.0407e-06	39.56	0.0014938	0.0015657	0.00043109	389.17	1.7372e-05	1.7082e-05	540.99	107.2	1.7133e-05	1.7206e-05	281.53	79.825	37.287	15.397	1.7016e-05	39.675	283.108	278.848	-30.833	-55.368	-42.278	46.504	-55.170	-49.397	203.429	40.341	-50.733	-45.848	-45.522	-41.506	106.334	-42.334	-8191	255	
17480.625	1	1	0	0	0.074828	0.28265	0.16614	0.17877	0.13067	0.10851	0.025245	0.095003	0.11318	0.10876	0.22557	0.36237	0.24569	0.32806	0.033027	0.070857	-2.3708	-2.525	-2.6667	-2.8104	-2.3625	-2.7083	-2.5146	-2.6646	-2.8	-2.7208	-2.7375	-2.5604	-2.3771	-2.7271	-2.7625	-2.4562	45.639	237.285	222.738	281.778	125.654	112.461	67.378	-45.146	176.547	-67.368	89.089	199.078	50.287	265.915	137.101	268.919	0.00021023	0.00055997	0.00011028	386.53	6.2941e-06	4.1929e-06	545.4	105.81	8.3202e-06	3.4044e-06	209.98	79.655	35.405	14.885	4.9625e-06	39.365	0.0014293	0.0015156	0.00043464	389.84	1.7278e-05	1.6385e-05	544.05	107.76	1.6892e-05	1.6565e-05	283.6	80.252	37.328	15.451	1.7347e-05	39.729	290.487	6.701	-14.573	-55.140	89.624	62.848	-55.170	-49.730	54.933	-13.371	-50.650	-45.916	-45.692	-41.575	165.356	-42.058	-8191	255	
17480.744	1	1	0	0	0.11799	0.10155	0.28558	0.046646	0.11686	0.0699	0.087889	0.20724	0.16317	0.052754	0.10357	0.098978	0.14542	0.24573	0.30483	0.11855	-2.4292	-2.5917	-2.5625	-2.7687	-2.4729	-2.7854	-2.7667	-2.55	-2.7125	-2.5375	-2.5333	-2.7104	-2.625	-2.6312	-2.6479	-2.5187	203.280	33.954	177.963	188.116	206.569	67.311	130.799	118.078	221.635	65.343	-37.569	226.061	4.027	276.944	122.037	188.195	0.00010732	0.00016672	0.00014229	385.71	2.4959e-06	3.7034e-06	550.99	105.58	5.5471e-06	2.0512e-06	210.54	79.021	35.163	14.895	9.5772e-06	39.234	0.0013897	0.0015061	0.00044151	389.95	1.6327e-05	1.6495e-05	545.26	107.38	1.5843e-05	1.6499e-05	283.51	79.756	37.11	15.391	1.6923e-05	39.365	247.889	201.042	38.038	-55.242	65.944	-48.248	-54.788	-49.642	74.815	77.034	-49.613	-45.949	-45.543	-41.476	34.587	-42.309	-8191	255	
17480.840	1	1	0	0	0.19146	0.13854	0.27199	0.30293	0.2719	0.18545	0.13805	0.14642	0.23188	0.094911	0.31405	0.17927	0.12721	0.18117	0.15678	0.13598	-2.3167	-2.4542	-2.7062	-2.8833	-2.4875	-2.7687	-2.8479	-2.4562	-2.7042	-2.3875	-2.3792	-2.7146	-2.3583	-2.7938	-2.6813	-2.5729	81.588	-13.328	182.160	90.504	209.173	45.741	171.683	42.276	-67.013	230.711	10.672	284.286	277.122	289.531	73.275	271.005	0.00018411	0.00021579	2.5138e-05	384.02	3.6914e-06	3.6401e-06	544.07	105.81	3.8415e-06	4.8946e-06	209.19	78.394	35.038	14.894	5.7661e-06	38.983	0.0012811	0.0015364	0.00043321	388.28	1.5623e-05	1.6465e-05	541.14	107.36	1.5104e-05	1.6887e-05	280.68	79.341	36.961	15.376	1.6755e-05	39.295	-50.065	193.397	-14.770	-55.138	-57.572	70.310	-54.776	-49.363	53.510	94.778	-50.692	-45.791	-44.923	-41.762	159.475	-42.502	-8191	255	
17480.936	1	1	0	0	0.11891	0.094539	0.14163	0.21993	0.31857	0.13127	0.32313	0.088336	0.11174	0.1406	0.14988	0.10845	0.060352	0.18325	0.01627	0.21856	-2.3667	-2.6854	-2.3542	-2.7062	-2.5417	-2.8312	-2.7375	-2.4188	-2.5896	-2.6417	-2.4771	-2.7167	-2.5792	-2.5521	-2.8229	-2.35	280.730	-22.436	145.686	266.604	2.723	-33.993	-57.425	-1.234	83.273	191.704	64.099	260.320	-37.724	71.769	123.328	237.957	0.00018586	0.00019676	0.00021511	384.89	6.9172e-06	3.401e-06	548.45	105.26	5.5774e-06	1.3042e-06	213.74	79.342	35.241	14.774	9.9978e-06	39.314	0.0012339	0.0016119	0.00042716	387.83	1.5178e-05	1.6693e-05	542.57	107.14	1.5118e-05	1.6795e-05	279.2	79.443	36.933	15.373	1.5998e-05	39.379	-31.486	171.117	23.475	-55.436	74.684	195.919	-55.008	-49.355	-45.814	-35.100	-51.892	-45.622	-44.495	-41.482	80.021	-42.720	-8191	255	
17481.031	1	1	0	0	0.33365	0.26318	0.41053	0.23926	0.036275	0.2608	0.13254	0.25893	0.13783	0.12818	0.13085	0.21047	0.047098	0.15537	0.1941	0.12716	-2.2917	-2.5958	-2.5042	-2.7479	-2.6375	-2.5563	-3.0062	-2.4146	-2.7479	-2.675	-2.3854	-2.9125	-2.5625	-2.4958	-2.7229	-2.5375	240.287	230.027	247.400	55.831	116.671	74.207	217.195	-62.544	-0.326	225.262	24.764	213.652	56.889	-48.147	278.953	241.428	0.00027088	0.00026453	0.00018932	389.85	1.8292e-06	2.8406e-07	549.48	106.05	7.153e-06	3.8531e-06	218.1	80.349	35.385	14.948	6.7817e-06	39.468	0.0012339	0.0015087	0.0004099	388.74	1.5229e-05	1.6218e-05	544.27	107.38	1.4824e-05	1.5888e-05	276.89	79.914	37.145	15.46	1.5093e-05	39.585	-47.201	20.656	0.962	-55.207	148.429	151.853	-54.794	-49.486	9.767	87.210	-51.823	-45.971	-45.629	-41.396	250.119	-42.039	-8191	255	
17481.129	1	1	0	0	0.055665	0.087319	0.15136	0.011175	0.11722	0.14651	0.21485	0.093301	0.218	0.14513	0.057552	0.19432	0.13374	0.030312	0.14333	0.13739	-2.3333	-2.7271	-2.3396	-2.9667	-2.6479	-2.6437	-2.8604	-2.4583	-2.7104	-2.7271	-2.3896	-2.75	-2.4771	-2.4688	-2.8625	-2.4542	171.977	76.889	5.083	248.344	199.138	-56.026	188.831	-50.384	111.509	-30.538	48.917	282.178	255.849	65.276	-31.440	202.708	0.00018692	0.00047162	0.0002688	391.46	2.4081e-06	1.0152e-06	551.4	106.88	8.0237e-06	4.2927e-06	213.22	79.463	35.623	14.997	3.8336e-06	39.27	0.0012179	0.0014947	0.00039077	389.62	1.5021e-05	1.5547e-05	545.1	107.6	1.4882e-05	1.5744e-05	271.17	79.395	37.114	15.399	1.4828e-05	39.32	287.820	83.289	54.288	-55.138	245.974	90.809	-55.002	-49.333	55.242	30.325	-51.265	-45.838	-45.136	-41.501	159.113	-42.256	-8191	255	
17481.225	1	1	0	0	0.23007	0.20541	0.11209	0.25678	0.14927	0.16542	0.22214	0.13055	0.30836	0.31861	0.29976	0.078267	0.17673	0.18358	0.19287	0.27494	-2.2438	-2.7771	-2.4	-2.9896	-2.5875	-2.6792	-2.9417	-2.5708	-2.7562	-2.7125	-2.5875	-2.8625	-2.6729	-2.5104	-2.7396	-2.6125	110.452	-14.191	79.387	281.082	-54.361	-33.548	185.381	-25.568	216.789	164.875	-22.051	232.608	112.758	-65.572	-57.872	-21.351	0.00026545	0.00048589	0.00019925	388.07	1.1691e-05	3.1746e-06	550.16	105.28	3.8697e-06	5.6816e-07	215.77	79.388	35.23	14.846	2.5629e-06	39.009	0.0012449	0.0014459	0.00037705	388.74	1.5279e-05	1.5529e-05	541.93	107.01	1.5078e-05	1.5452e-05	270.7	79.169	36.992	15.293	1.4206e-05	39.226	283.143	3.534	-28.030	-55.468	101.429	115.034	-54.930	-49.638	229.246	145.645	-50.020	-45.733	-45.026	-41.321	82.990	-42.428	-8191	255	
17481.346	1	1	0	0	0.22812	0.05291	0.084404	0.15882	0.24123	0.13382	0.086865	0.22702	0.16192	0.26385	0.099941	0.15536	0.24304	0.090553	0.17157	0.080627	-2.1958	-2.7521	-2.4271	-2.875	-2.6458	-2.5208	-2.7146	-2.5875	-2.675	-2.8417	-2.4437	-2.8146	-2.8521	-2.5125	-2.7125	-2.6771	224.834	201.653	55.016	62.142	-28.319	141.519	282.261	251.450	136.152	182.149	-52.674	-66.087	214.734	178.432	257.157	-61.221	0.00022858	0.00031335	0.00013316	387.61	3.4452e-06	2.8952e-06	544.72	105.15	3.3332e-06	5.3401e-06	210.85	78.978	35.229	14.773	9.8352e-06	39.057	0.0012362	0.0014832	0.00037021	388.84	1.5091e-05	1.5368e-05	539.89	107.24	1.5268e-05	1.5305e-05	267.45	79.059	37.079	15.256	1.4184e-05	39.176	272.510	52.507	-5.604	-55.207	175.734	78.179	-54.907	-49.540	4.438	39.193	-50.492	-45.777	-45.216	-41.062	137.696	-42.526	-8191	255	
17481.439	1	1	0	0	0.24209	0.2057	0.34754	0.10003	0.18328	0.32815	0.29857	0.14064	0.18256	0.18615	0.098805	0.048238	0.099305	0.042508	0.35572	0.058418	-1.9396	-2.7417	-2.5812	-2.6854	-2.8729	-2.4	-2.7521	-2.6271	-2.8667	-2.7646	-2.5312	-2.7167	-2.7438	-2.4042	-3.0042	-2.6542	128.701	76.442	-9.176	250.484	253.692	153.731	200.930	180.924	11.471	1.981	51.564	141.590	-49.235	127.155	-42.747	-64.394	0.00034959	0.00091968	0.00020196	388.95	9.191e-06	7.0254e-06	546.93	105.88	5.7263e-06	3.6121e-06	206.37	79.165	35.17	14.779	2.3201e-06	38.898	0.0012397	0.0013777	0.00037655	389.84	1.5298e-05	1.4996e-05	542.34	107.42	1.503e-05	1.4657e-05	270.23	79.244	36.858	15.203	1.4565e-05	39.073	282.050	-38.156	53.693	-55.091	86.393	117.706	-54.744	-49.891	155.794	91.276	-48.921	-45.783	-45.897	-40.981	131.430	-42.253	-8191	255	
17481.535	1	1	0	0	0.10593	0.11249	0.22608	0.17509	0.27958	0.23986	0.25855	0.11534	0.16874	0.036252	0.12403	0.11974	0.10282	0.32201	0.10806	0.28433	-1.8563	-2.6854	-2.4833	-2.5271	-2.7771	-2.3604	-2.7292	-2.625	-2.4521	-2.7083	-2.6104	-2.5292	-2.5979	-2.6146	-2.8063	-2.7812	143.267	-26.473	168.423	-66.130	-16.393	286.668	233.713	129.414	-61.065	41.064	-24.384	283.170	161.818	34.047	129.944	146.239	0.00016784	0.00040734	8.4106e-05	386.03	6.1816e-06	2.9997e-06	547.97	105.38	4.2594e-06	9.2271e-07	210.9	78.382	34.896	14.57	3.859e-06	38.52	0.0012361	0.0013652	0.00039044	388.68	1.5227e-05	1.4738e-05	541.43	107.05	1.5201e-05	1.4793e-05	274.04	78.629	36.661	15.04	1.5267e-05	38.679	-56.357	47.867	278.135	-55.458	188.458	-35.207	-55.051	-49.815	213.780	80.221	-49.491	-45.891	-45.000	-41.613	7.377	-42.512	-8191	255	
17481.633	1	1	0	0	0.17637	0.16944	0.19489	0.038672	0.11588	0.14417	0.14117	0.16314	0.031398	0.28524	0.13705	0.19453	0.074899	0.27256	0.34018	0.056013	-2.2104	-2.7792	-2.5875	-2.7896	-2.7771	-2.3958	-2.6	-2.9125	-2.4604	-2.7313	-2.7208	-2.6708	-2.7208	-2.5521	-2.7021	-2.8312	18.730	225.121	210.890	260.305	290.249	237.749	147.340	-35.602	104.172	262.489	274.297	158.442	257.308	244.253	202.800	1.822	0.00016564	0.00023908	6.1552e-05	384.48	2.7531e-06	3.2379e-06	543.93	104.6	3.4291e-06	6.0109e-07	209.57	77.409	34.541	14.694	5.4446e-06	38.098	0.0012588	0.0013495	0.00041942	387.3	1.5127e-05	1.5289e-05	538.41	106.62	1.5178e-05	1.5343e-05	275.4	78.275	36.447	15.078	1.5791e-05	38.378	-49.160	22.746	60.483	-55.205	103.228	129.008	-55.029	-49.827	151.287	-5.314	-50.075	-45.870	-45.319	-41.339	88.448	-42.312	-8191	255	
17481.705	1	1	0	0	0.3975	0.21266	0.077519	0.11979	0.089158	0.19867	0.049374	0.26901	0.068446	0.11182	0.18135	0.20566	0.096928	0.21413	0.061635	0.13328	-2.1271	-2.9021	-2.6979	-2.3667	-2.9313	-2.6063	-2.7333	-2.6937	-2.5625	-2.7104	-2.5458	-2.4458	-2.7583	-2.6625	-2.5833	-2.8229	166.623	147.489	191.665	161.524	39.521	228.187	281.663	199.438	-62.592	153.692	-1.753	215.990	286.750	1.431	236.194	254.030	0.00014489	0.0001522	8.292e-05	383	9.3282e-06	3.4605e-06	542.3	103.87	8.3883e-07	4.3753e-06	205	76.522	34.301	14.416	7.5259e-06	37.996	0.0012067	0.0013624	0.00042045	385.71	1.4016e-05	1.4931e-05	536.53	105.47	1.3913e-05	1.4736e-05	268.27	77.062	35.936	14.939	1.4843e-05	38.243	283.937	-64.467	54.672	-55.227	102.617	-16.436	-54.779	-49.849	83.809	130.355	-49.917	-46.259	-45.064	-41.253	50.001	-42.274	-8191	255	
17481.824	1	1	0	0	0.10729	0.26643	0.30893	0.015788	0.23239	0.33493	0.155	0.10311	0.21323	0.20144	0.094407	0.0448	0.16758	0.2438	0.065032	0.34206	-1.9458	-2.6292	-2.6958	-2.3979	-2.8292	-2.5229	-2.7625	-2.6646	-2.5042	-2.6792	-2.7188	-2.5042	-2.8479	-2.4479	-2.5125	-2.7917	52.274	173.639	256.843	-29.701	121.986	274.499	-55.318	1.138	272.113	-42.784	153.588	244.871	214.219	204.969	17.581	129.969	0.00015448	0.00020939	0.00018475	383.87	3.7224e-06	2.3322e-06	542.05	104.41	2.5058e-06	5.7815e-06	210.7	77.408	34.21	14.415	3.8252e-06	38.134	0.0011362	0.0013609	0.00039349	385.25	1.3461e-05	1.5099e-05	537.6	105.22	1.3559e-05	1.4774e-05	267.33	77.115	35.671	14.922	1.4511e-05	38.188	-36.530	149.092	51.792	-55.225	100.772	-51.281	-55.152	-49.996	108.184	54.644	-49.742	-45.784	-44.812	-41.201	172.655	-42.612	-8191	255	
17481.920	1	1	0	0	0.24375	0.054657	0.11437	0.32019	0.28403	0.2293	0.23185	0.1569	0.035541	0.13951	0.287	0.25171	0.046865	0.14894	0.045417	0.072607	-2.0083	-2.8937	-2.6604	-2.5229	-2.8292	-2.5625	-2.7687	-2.9042	-2.6208	-2.6271	-2.6396	-2.675	-2.5021	-2.6688	-2.6458	-2.7562	126.230	177.972	1.588	286.170	-24.469	260.316	187.822	-49.899	187.646	269.125	-16.781	214.523	145.781	-46.871	-45.070	159.122	0.00016798	0.00034997	9.7987e-05	381.29	1.5668e-06	2.0354e-06	541.8	103.66	2.0822e-06	4.2444e-06	203.67	76.965	34.269	14.34	8.4093e-06	37.646	0.0011243	0.0013311	0.00039727	383.22	1.3708e-05	1.4894e-05	536.25	104.57	1.3831e-05	1.4828e-05	266.52	76.749	35.652	14.841	1.4617e-05	37.892	-60.897	43.591	-56.482	-54.966	254.282	27.682	-54.806	-49.487	203.470	121.167	-50.118	-46.052	-45.371	-41.349	74.929	-42.502	-8191	255	
17482.016	1	1	0	0	0.29443	0.28422	0.18359	0.17011	0.23784	0.091289	0.19993	0.16239	0.098231	0.22943	0.28831	0.056835	0.15512	0.28111	0.15309	0.12083	-2.1646	-2.5187	-2.7396	-2.6813	-2.5896	-2.7542	-2.7167	-2.8937	-2.6	-2.3042	-2.7812	-2.5521	-2.8396	-2.55	-2.4062	-2.8333	213.466	-62.358	180.425	49.889	211.300	203.810	267.094	203.073	151.901	243.182	92.334	-18.001	76.679	253.100	133.940	-36.049	0.00018822	0.00047514	0.0001489	384.14	3.0893e-06	2.4758e-06	540.2	102.74	4.659e-06	1.0939e-06	207.01	76.856	33.818	14.27	5.1703e-06	37.941	0.0011673	0.0013381	0.00038164	382.51	1.4311e-05	1.5233e-05	533.96	103.97	1.479e-05	1.4979e-05	264.26	76.881	35.621	14.789	1.4156e-05	37.879	-59.045	170.257	-57.167	-55.406	103.716	201.551	-54.976	-49.589	207.571	80.517	-51.215	-45.883	-45.127	-41.086	76.772	-42.395	-8191	255	
17482.113	1	1	0	0	0.20053	0.15179	0.1617	0.24026	0.13801	0.14933	0.24266	0.097555	0.069145	0.079943	0.17095	0.15114	0.026593	0.17297	0.080899	0.39258	-2.3688	-2.6125	-2.7542	-2.5979	-2.6688	-2.6958	-2.7354	-2.7521	-2.5083	-2.7042	-2.9479	-2.5167	-2.7458	-2.8042	-2.4167	-2.7938	-44.773	233.096	171.818	281.040	137.169	-11.480	269.771	160.382	117.518	93.472	21.738	169.236	64.414	262.739	82.603	267.281	0.00025076	0.00021224	0.0001196	383.29	3.9038e-06	3.1883e-06	539.94	103.04	1.9202e-06	4.9858e-07	210.73	76.378	34.139	14.397	1.4275e-06	37.715	0.001203	0.0013598	0.0003913	382.98	1.4446e-05	1.5357e-05	533.49	104.16	1.5176e-05	1.5091e-05	264.98	76.733	35.641	14.798	1.3971e-05	37.936	290.967	72.309	232.243	-55.128	-33.035	265.127	-54.753	-49.864	281.573	53.878	-51.019	-45.741	-45.539	-41.340	86.872	-42.482	-8191	255	
17482.232	1	1	0	0	0.34169	0.058592	0.18298	0.097444	0.25288	0.15645	0.092074	0.1026	0.16739	0.07243	0.23926	0.29328	0.18342	0.12934	0.3318	0.10459	-2.2458	-2.6625	-2.7708	-2.5104	-2.7188	-2.7396	-2.6437	-2.8792	-2.725	-2.6479	-2.8792	-2.5333	-2.6958	-2.8542	-2.5146	-2.8792	235.663	203.520	51.097	213.724	2.313	78.255	-56.956	28.468	213.790	285.271	138.710	197.879	-60.551	273.950	208.461	224.321	0.00015071	0.00060505	0.0001223	381.58	7.118e-06	3.2997e-06	544.11	104.14	6.4895e-06	5.8126e-06	208.27	77.412	34.333	14.438	3.7737e-06	38.144	0.0012348	0.001389	0.00037034	382.77	1.4933e-05	1.5386e-05	536.65	104.98	1.6096e-05	1.5358e-05	263.65	77.511	35.932	14.929	1.4482e-05	38.467	-53.583	66.286	13.164	-55.093	51.642	116.719	-54.876	-49.454	114.244	8.092	-49.930	-46.125	-45.128	-41.493	216.472	-42.507	-8191	255	
17482.305	1	1	0	0	0.12506	0.081583	0.16884	0.091699	0.053003	0.17486	0.13327	0.11735	0.18891	0.19901	0.016599	0.19138	0.11883	0.21545	0.11345	0.1969	-2.2146	-2.3396	-2.7833	-2.5458	-2.7479	-2.8396	-2.5958	-2.7917	-2.5396	-2.3854	-2.8063	-2.8521	-2.675	-2.7708	-2.4062	-2.8708	256.718	1.813	123.077	240.956	11.959	182.234	232.494	182.878	173.994	-35.954	247.949	-65.082	206.337	-49.209	51.134	241.928	0.00022518	0.0006786	0.00014363	383.34	7.2056e-06	2.3916e-06	541.01	102.98	5.2105e-06	9.2989e-06	211.1	77.021	34.22	14.485	6.0475e-06	38.058	0.0012908	0.0013953	0.00038554	385.65	1.5472e-05	1.5275e-05	536.73	105.2	1.5929e-05	1.5581e-05	269.67	77.387	35.978	14.959	1.5532e-05	38.238	-53.629	1.683	41.096	-55.320	132.275	34.838	-54.989	-49.564	111.436	88.038	-49.977	-46.051	-44.975	-41.069	96.448	-42.163	-8191	255	
17482.426	1	1	0	0	0.20205	0.44799	0.13747	0.25376	0.5035	0.20503	0.29318	0.13674	0.12201	0.034762	0.1596	0.17799	0.17918	0.14368	0.1718	0.16565	-2.0104	-2.375	-2.5208	-2.4167	-2.4979	-2.8042	-2.6271	-2.7938	-2.6167	-2.3958	-2.7104	-2.5458	-2.5583	-2.7062	-2.7562	-2.6542	260.116	57.341	93.583	168.178	209.073	-29.879	203.356	255.138	-17.566	34.761	240.138	206.632	225.935	-34.395	-33.520	-40.290	0.00023448	0.00078773	9.9202e-05	381.24	7.0089e-06	2.4089e-06	537.54	103.63	6.1295e-06	5.0091e-06	205.52	77.221	33.991	14.639	1.1491e-05	38.298	0.0013038	0.0014067	0.00039862	385.03	1.6172e-05	1.5407e-05	534.66	105.29	1.6937e-05	1.5565e-05	273.18	77.625	36.122	15.037	1.6661e-05	38.581	-64.236	-12.738	59.110	-55.137	152.249	57.903	-54.749	-49.818	63.547	49.555	-49.248	-45.670	-45.591	-41.444	-47.548	-42.153	-8191	255	
17482.520	1	1	0	0	0.21577	0.12091	0.20777	0.23705	0.24087	0.06931	0.18527	0.31824	0.097739	0.16124	0.066247	0.11868	0.39384	0.2346	0.17869	0.068284	-2.4271	-2.4542	-2.6437	-2.6167	-2.6167	-2.875	-2.6042	-2.6271	-2.675	-2.6271	-2.7458	-2.8104	-2.4896	-2.7021	-2.5146	-2.5083	106.289	198.546	-12.094	-42.393	287.172	-9.987	247.966	235.750	7.172	251.678	145.124	-42.529	131.654	-40.039	-1.722	155.690	0.00022091	0.00055126	9.065e-05	383.78	1.0182e-05	4.0343e-06	541.31	103.88	6.8556e-06	1.7529e-06	208	77.55	34.215	14.576	7.0787e-06	38.333	0.0013535	0.0014555	0.00043438	387.27	1.6747e-05	1.6505e-05	538.13	106.01	1.7264e-05	1.6988e-05	284.28	78.382	36.406	15.192	1.8256e-05	38.883	269.784	-4.125	-8.237	-55.234	162.996	65.886	-54.716	-49.671	100.029	-57.982	-49.312	-46.071	-45.386	-41.332	213.698	-42.313	-8191	255	
17482.615	1	1	0	0	0.19741	0.16084	0.059927	0.092547	0.16877	0.18835	0.16285	0.11757	0.17809	0.10709	0.21489	0.01557	0.0883	0.30691	0.078188	0.18241	-2.2271	-2.4396	-2.7313	-2.7729	-2.4646	-2.9104	-2.6229	-2.5917	-2.7479	-2.5021	-2.5625	-2.6667	-2.5	-2.7958	-2.6042	-2.65	80.059	229.697	60.840	-10.659	246.060	146.581	-23.158	5.756	242.411	59.631	201.026	98.897	58.090	20.720	221.818	256.526	0.00016172	0.00039208	0.00018646	385.66	4.6112e-06	2.1882e-06	548.82	104.4	8.9944e-06	2.0014e-06	211.62	78.264	34.8	14.551	2.7013e-06	38.636	0.0014062	0.0016067	0.0004639	389.95	1.728e-05	1.7711e-05	544.45	107.04	1.8071e-05	1.8635e-05	292.1	79.176	36.819	15.303	2.0164e-05	39.185	-43.856	210.149	72.957	-54.871	89.552	191.614	-54.996	-49.788	76.928	29.878	-51.109	-45.890	-45.384	-41.255	-12.707	-42.056	-8191	255	
17482.713	1	1	0	0	0.17968	0.14397	0.15002	0.057055	0.22729	0.19479	0.16325	0.27019	0.097979	0.17505	0.072374	0.30099	0.17509	0.030233	0.18813	0.17682	-2.3729	-2.4333	-2.6854	-2.9125	-2.4146	-2.8583	-2.4396	-2.4896	-2.7917	-2.6292	-2.5	-2.9167	-2.3604	-2.6937	-2.5542	-2.5083	235.015	246.276	238.946	-65.420	277.013	141.671	260.602	111.109	7.341	238.167	84.506	283.078	51.744	278.927	176.881	289.836	0.00024191	8.655e-05	0.0001927	386.74	1.6216e-06	1.6955e-06	544.59	104.93	5.6693e-06	1.175e-06	207.19	77.786	34.328	14.65	6.6977e-06	38.488	0.0014864	0.0018151	0.0005128	392.76	1.891e-05	2.0543e-05	543.61	107.86	1.9667e-05	2.1119e-05	304.27	78.941	36.965	15.403	2.2277e-05	38.982	-62.120	243.308	74.661	-55.145	163.112	238.219	-54.834	-49.689	-6.453	186.978	-48.939	-45.751	-45.133	-41.471	99.786	-42.232	-8191	255	
17482.832	1	1	0	0	0.15507	0.098481	0.24476	0.11404	0.09572	0.43508	0.12867	0.21434	0.063539	0.070343	0.17051	0.21652	0.1357	0.14895	0.11774	0.054929	-2.1562	-2.6937	-2.3604	-2.9167	-2.4917	-2.725	-2.8312	-2.6521	-2.9313	-2.55	-2.4854	-2.7521	-2.3521	-2.7438	-2.6458	-2.65	214.040	48.586	284.716	208.948	-3.049	288.602	196.464	195.336	-9.423	173.495	107.543	263.790	289.607	97.426	274.674	-67.277	0.00024738	8.5317e-05	7.015e-05	383.8	8.626e-06	3.1945e-06	539.09	104.35	3.1998e-06	5.6071e-06	207.32	78.149	34.486	14.671	3.6892e-06	38.828	0.0016287	0.0019799	0.00055517	391.58	2.0357e-05	2.1847e-05	543.16	107.22	2.0778e-05	2.2792e-05	308.48	79.265	37.288	15.527	2.2301e-05	39.419	289.245	-17.696	30.355	-55.481	143.676	-22.741	-54.926	-49.696	182.320	80.226	-49.308	-45.697	-45.165	-41.185	291.708	-42.195	-8191	255	
17482.930	1	1	0	0	0.077163	0.20411	0.18187	0.15095	0.21073	0.18871	0.069975	0.059235	0.0917	0.23879	0.16085	0.062292	0.23944	0.21295	0.093005	0.16578	-2.2438	-2.5458	-2.6167	-2.7792	-2.3812	-2.7583	-2.8312	-2.5521	-2.725	-2.6562	-2.5271	-2.725	-2.4938	-2.6896	-2.7938	-2.5187	36.535	198.951	291.516	228.070	30.205	283.448	207.409	-8.920	253.059	207.970	-3.087	167.076	-1.560	215.226	145.947	194.524	0.00011732	0.0005147	0.00012192	383.36	7.3131e-06	4.5016e-06	543.95	104.78	3.3958e-06	1.8473e-06	208.37	78.19	34.584	14.726	1.4207e-05	39.029	0.0016947	0.0020109	0.00055615	391.88	2.1062e-05	2.1952e-05	545.62	107.53	2.0813e-05	2.2622e-05	307.13	79.336	37.423	15.583	2.2046e-05	39.475	282.091	281.216	-4.385	-55.192	186.008	146.318	-54.948	-49.496	150.584	175.044	-50.056	-45.932	-45.156	-41.405	191.861	-42.196	-8191	255	
17483.002	1	1	0	0	0.15217	0.0076131	0.096663	0.15426	0.29926	0.16824	0.13673	0.066912	0.1726	0.16535	0.2686	0.10207	0.13953	0.10573	0.1135	0.054491	-2.3063	-2.6542	-2.2938	-2.7042	-2.5979	-2.825	-2.925	-2.6667	-2.7375	-2.7333	-2.6146	-2.7958	-2.6396	-2.575	-2.6437	-2.525	83.069	214.082	105.670	279.202	125.955	178.467	-35.353	146.862	-15.625	110.676	115.510	-45.492	-33.646	93.133	-24.903	-9.839	0.0002953	0.00079152	0.00014754	388.84	5.2678e-06	8.6091e-06	546.63	105.51	1.1575e-06	9.4248e-06	210.36	78.384	34.313	14.687	4.0859e-06	38.647	0.0016867	0.0019782	0.0005349	394.05	2.1214e-05	2.1614e-05	547.38	108.3	2.0729e-05	2.2975e-05	303.94	79.338	37.391	15.506	2.1001e-05	39.214	287.532	50.047	13.437	-55.210	57.565	97.858	-54.814	-49.630	217.988	98.489	-49.485	-45.826	-44.753	-41.526	24.789	-42.140	-8191	255	
17483.121	1	1	0	0	0.13331	0.12333	0.14102	0.24057	0.11867	0.043839	0.26009	0.17201	0.1044	0.079634	0.12812	0.18887	0.32101	0.27337	0.063758	0.094149	-2.3521	-2.5458	-2.4625	-2.7354	-2.5438	-2.4917	-2.8625	-2.3792	-2.6396	-2.7104	-2.4479	-2.7125	-2.3771	-2.5104	-2.7313	-2.5021	4.308	70.638	-34.378	282.822	234.365	241.797	243.459	-49.814	88.723	227.963	167.749	187.192	-51.032	255.085	251.980	-24.247	0.00018624	0.00071745	0.00011621	388.43	4.6492e-06	6.9555e-06	548.2	104.76	3.3461e-06	4.1252e-06	214.93	77.37	34.65	14.523	1.2784e-05	38.052	0.0017295	0.0020219	0.00053645	395.51	2.2151e-05	2.2465e-05	545.77	108.18	2.1734e-05	2.3172e-05	303.87	78.976	37.381	15.416	2.1847e-05	38.909	285.776	65.533	35.892	-55.128	19.813	105.484	-55.046	-49.092	38.239	73.479	-49.633	-45.671	-45.229	-41.405	132.399	-42.218	-8191	255	
17483.217	1	1	0	0	0.26199	0.10408	0.2322	0.1535	0.041915	0.12668	0.1784	0.24825	0.061422	0.12467	0.17585	0.23229	0.20463	0.06488	0.094708	0.19405	-2.3063	-2.6354	-2.4083	-2.7188	-2.6312	-2.3771	-2.7646	-2.5417	-2.7146	-2.6396	-2.4646	-2.8063	-2.7562	-2.5229	-2.6937	-2.4583	-50.242	176.655	90.608	-47.246	240.139	6.707	238.156	262.946	180.237	217.581	50.259	-15.692	73.032	145.296	110.512	93.707	0.0001838	0.00059144	0.0001326	386.88	7.5946e-06	2.8462e-06	540.76	104.43	9.88e-07	5.429e-06	208.37	77.005	34.398	14.405	2.2552e-06	37.774	0.0017926	0.0020358	0.00055225	394.38	2.2691e-05	2.2255e-05	544.8	107.86	2.1806e-05	2.2819e-05	304.94	78.666	37.268	15.211	2.1409e-05	38.556	-66.742	132.413	62.490	-55.228	29.821	-38.275	-55.049	-49.935	170.135	91.132	-49.468	-46.087	-45.196	-41.221	198.672	-42.273	-8191	255	
17483.314	1	1	0	0	0.12184	0.16355	0.39568	0.2402	0.33292	0.21056	0.22512	0.24716	0.19857	0.20161	0.035515	0.062891	0.18895	0.040215	0.34508	0.24227	-2.1146	-2.5708	-2.3854	-2.6625	-2.6792	-2.5958	-2.7146	-2.6813	-2.6542	-2.9313	-2.4708	-2.7708	-2.6375	-2.6271	-2.6375	-2.6188	-66.071	175.641	25.128	-67.212	96.260	-42.091	275.006	239.200	188.739	157.938	216.389	177.767	167.228	210.690	74.703	250.999	0.00025324	0.00086135	0.00022734	385.24	4.5519e-06	2.6844e-06	546.6	103.34	3.6617e-06	5.3312e-06	204.62	77.095	34.043	14.317	2.3073e-06	37.701	0.0017794	0.0019454	0.00054867	394.06	2.2808e-05	2.1029e-05	546.03	107.61	2.1137e-05	2.106e-05	305.55	78.316	36.89	15.051	2.1085e-05	38.402	271.469	50.919	45.848	-55.322	64.439	38.425	-54.960	-49.749	3.856	66.060	-51.559	-45.525	-45.540	-41.313	23.238	-42.317	-8191	255	
17483.408	1	1	0	0	0.15339	0.17279	0.010082	0.19704	0.17819	0.19755	0.1363	0.42411	0.13308	0.025641	0.12528	0.10803	0.24243	0.08881	0.24778	0.040333	-2.2458	-2.7375	-2.5875	-2.9125	-2.6875	-2.4208	-2.8563	-2.5417	-2.6063	-2.9146	-2.4479	-2.6646	-2.7146	-2.4646	-2.8333	-2.725	135.356	33.070	126.202	-63.534	99.135	108.995	193.653	159.117	203.545	140.554	109.293	231.884	111.419	-21.861	-10.467	-25.740	0.00017151	0.00094843	7.6505e-05	387.3	1.0098e-05	2.8296e-06	546.6	104.01	5.5942e-06	1.1178e-05	202.91	77.091	34.082	14.361	1.3408e-06	37.621	0.0017238	0.0018543	0.00054793	394.57	2.1217e-05	2.0454e-05	547.51	107.91	2.0384e-05	2.1379e-05	304.92	78.606	36.888	15.112	2.107e-05	38.582	267.628	-10.824	-42.356	-55.249	108.675	171.199	-54.788	-49.851	84.191	164.528	-49.907	-45.891	-45.242	-41.149	34.510	-42.095	-8191	255	
17483.529	1	1	0	0	0.1614	0.096371	0.14512	0.18277	0.090736	0.17391	0.13663	0.26268	0.14757	0.18598	0.026728	0.050291	0.10944	0.13919	0.21892	0.2707	-2.0187	-2.8042	-2.6937	-2.8021	-2.7562	-2.4688	-2.8583	-2.8896	-2.4562	-2.8688	-2.5979	-2.6396	-2.7125	-2.6063	-2.7729	-2.6917	-4.986	79.641	110.950	256.567	270.249	25.190	212.676	241.374	176.658	87.775	122.317	62.761	37.613	41.764	49.806	187.423	0.00019227	0.00055726	0.00021649	385.31	1.2774e-05	6.7166e-06	545.8	104.47	1.5012e-06	2.6963e-06	207.36	76.942	33.834	14.268	7.7023e-06	37.34	0.0016535	0.0018714	0.00056103	395.2	2.1132e-05	2.1385e-05	546.38	107.96	2.0266e-05	2.1543e-05	307.66	78.128	36.694	15.121	2.1567e-05	38.27	-58.672	30.833	51.335	-55.009	-11.496	108.221	-54.807	-50.055	122.720	223.436	-51.735	-45.592	-45.698	-41.000	54.568	-42.251	-8191	255	
17483.600	1	1	0	0	0.28501	0.21301	0.30671	0.17899	0.051317	0.11616	0.068658	0.17747	0.072691	0.06683	0.15565	0.17474	0.2699	0.35693	0.26352	0.11501	-2.0604	-2.7417	-2.6479	-2.6458	-2.8771	-2.45	-2.6146	-2.5187	-2.4646	-2.8688	-2.3	-2.7625	-2.8708	-2.3958	-2.6562	-2.7812	235.343	99.660	290.984	29.638	162.225	5.994	32.722	146.315	41.809	186.255	50.807	122.866	277.200	207.226	123.746	167.828	0.0001216	0.00033821	0.00022593	387.69	3.3666e-06	3.3459e-06	545.98	103.92	5.9756e-06	7.6248e-06	209.7	76.721	34.157	14.332	6.8988e-06	37.636	0.0016215	0.0019374	0.00055983	394.05	2.0317e-05	2.1655e-05	545.17	107.31	2.0062e-05	2.1872e-05	309.46	78.071	36.644	15.115	2.1368e-05	38.304	253.707	-25.030	48.191	-54.895	56.317	82.367	-55.108	-49.922	129.330	119.106	-51.405	-45.674	-44.682	-40.948	207.143	-41.872	-8191	255	
17483.695	1	1	0	0	0.17806	0.091507	0.13594	0.099891	0.11029	0.26367	0.20015	0.091456	0.20147	0.079098	0.10217	0.17105	0.058893	0.12556	0.16944	0.30587	-2.025	-2.7208	-2.4583	-2.5042	-2.7417	-2.5146	-2.7958	-2.5958	-2.55	-2.7167	-2.5875	-2.6833	-2.7396	-2.6167	-2.4313	-2.7875	227.141	139.013	-27.982	147.101	269.869	128.479	37.916	-33.627	281.336	170.027	50.320	286.862	231.114	-31.725	291.082	188.748	0.0002016	0.00028816	6.0585e-05	384.47	1.0655e-05	7.5223e-06	543.23	104.34	2.7921e-06	8.2041e-06	209.9	76.158	34.102	14.349	1.1305e-05	37.655	0.0016576	0.001972	0.00055727	392.57	2.0979e-05	2.2115e-05	545.21	107.31	2.0609e-05	2.171e-05	309.77	77.659	36.761	15.149	2.127e-05	38.39	-65.330	67.136	-4.018	-55.373	46.026	73.068	-54.724	-49.698	198.007	130.604	-50.623	-46.023	-45.157	-40.954	121.414	-42.241	-8191	255	
17483.793	1	1	0	0	0.20304	0.2217	0.10597	0.18665	0.15704	0.17794	0.27262	0.2283	0.16706	0.22236	0.205	0.13467	0.1499	0.11117	0.3119	0.02478	-2.0854	-2.7917	-2.5604	-2.4479	-2.8688	-2.55	-2.6583	-2.7583	-2.4354	-2.5333	-2.6	-2.4583	-2.8083	-2.3417	-2.5	-2.9833	-54.746	231.219	56.916	3.841	-36.603	118.353	175.281	230.663	44.968	-7.836	42.797	251.965	-22.526	143.931	284.077	93.620	0.00035359	0.00042711	0.00019748	384.59	1.2623e-06	6.5275e-06	548.99	103.83	7.9815e-06	4.7215e-06	210.45	76.88	33.945	14.258	6.6414e-06	37.497	0.0016893	0.0019602	0.00055793	391.84	2.0898e-05	2.2017e-05	548.22	106.83	2.1027e-05	2.1814e-05	311.86	78.115	36.862	15.092	2.1051e-05	38.238	-66.392	118.531	27.323	-55.696	224.783	73.541	-54.796	-49.391	155.810	103.301	-49.790	-45.880	-44.875	-41.159	86.706	-42.165	-8191	255	
17483.912	1	1	0	0	0.23386	0.13031	0.12846	0.29511	0.24694	0.28057	0.076652	0.12137	0.1679	0.10308	0.29625	0.1987	0.060467	0.27097	0.034007	0.21993	-2.1188	-2.6021	-2.6688	-2.4854	-2.7875	-2.5375	-2.5792	-2.6958	-2.3958	-2.7396	-2.7021	-2.5208	-2.7396	-2.5792	-2.6875	-2.7958	282.304	82.961	-40.867	-58.307	199.947	260.146	246.570	-22.884	28.823	216.710	148.084	-54.109	177.510	-31.360	167.603	273.971	0.0001478	0.00027784	6.8484e-05	386.41	2.1386e-06	2.2095e-06	545.21	103.6	2.8184e-06	7.201e-06	204.92	76.204	33.851	14.221	6.4502e-06	37.402	0.0017315	0.0019922	0.00055097	393.26	2.1549e-05	2.3028e-05	544.75	106.98	2.1563e-05	2.2268e-05	305.34	77.562	36.677	15.085	2.0972e-05	38.016	276.740	242.788	17.563	-55.233	137.728	220.069	-54.958	-49.466	-21.935	121.453	-49.264	-45.909	-45.251	-41.426	27.297	-42.502	-8191	255	
17484.010	1	1	0	0	0.18247	0.21368	0.1468	0.25182	0.11092	0.13666	0.31223	0.13928	0.24368	0.12602	0.36429	0.22143	0.14465	0.33495	0.21027	0.20155	-2.1208	-2.5687	-2.6521	-2.2646	-2.7417	-2.6146	-2.5625	-2.7625	-2.65	-2.6375	-2.8646	-2.3604	-2.8208	-2.7396	-2.6146	-2.9271	144.189	70.041	198.924	90.530	137.835	80.245	256.856	152.175	222.631	8.301	223.138	-63.338	64.178	-24.193	268.401	172.871	0.00025699	0.00086846	0.00019629	384.76	3.3685e-06	3.3625e-06	541.11	103.02	7.6134e-06	3.2459e-06	207.85	75.64	34.027	14.18	5.1654e-06	37.222	0.0017489	0.0019995	0.00054284	391.72	2.1278e-05	2.2915e-05	542.44	106.6	2.1502e-05	2.2339e-05	305.41	77.322	36.685	15.048	2.0346e-05	37.963	-57.257	290.850	38.192	-55.183	143.467	117.883	-54.996	-49.453	215.284	31.761	-50.480	-45.786	-45.569	-41.374	85.405	-42.445	-8191	255	
17484.105	1	1	0	0	0.20714	0.077181	0.024786	0.33055	0.15716	0.06194	0.1262	0.097174	0.17187	0.026274	0.064495	0.17125	0.1305	0.14745	0.15243	0.25112	-2.1042	-2.5438	-2.7667	-2.4333	-2.7417	-2.4917	-2.3688	-2.8063	-2.4896	-2.5646	-2.8812	-2.4792	-2.7062	-2.5792	-2.4917	-2.8458	-35.622	101.327	290.346	291.362	93.708	151.091	276.989	197.234	174.635	17.863	70.170	281.836	234.182	-60.571	86.173	259.849	0.00019847	0.0004976	8.6952e-05	385.23	1.8132e-06	8.0583e-06	542.8	103.69	3.2436e-06	7.5338e-06	207.23	76.458	33.729	14.188	5.0966e-06	37.464	0.0017402	0.0019615	0.00052939	392.88	2.1386e-05	2.2344e-05	543.27	107	2.1477e-05	2.1545e-05	303.53	77.848	36.689	14.932	2.0585e-05	38.067	290.803	265.810	265.598	-55.341	126.868	91.908	-54.805	-49.674	91.067	115.116	-50.054	-45.715	-45.238	-41.566	256.258	-42.260	-8191	255	
17484.201	1	1	0	0	0.15471	0.1299	0.15881	0.20065	0.077881	0.16671	0.15273	0.03884	0.073308	0.10639	0.091092	0.20134	0.081214	0.20596	0.059003	0.20462	-2.0958	-2.5167	-2.6917	-2.6708	-2.5896	-2.65	-2.5646	-2.8438	-2.6813	-2.6917	-2.7479	-2.5271	-2.5146	-2.6396	-2.3417	-2.7333	215.217	254.975	240.676	-47.432	142.398	221.485	249.719	265.497	65.413	-22.916	25.067	214.761	-47.135	168.808	-46.724	210.799	0.00022433	0.00053109	0.00022597	387.53	2.9264e-06	8.2968e-06	546.28	104.12	3.9784e-06	3.0613e-06	209.12	76.306	33.808	14.163	3.0096e-06	37.204	0.0017745	0.0018851	0.00053626	393.94	2.12e-05	2.1288e-05	546.83	107.18	2.1347e-05	2.0765e-05	308.38	77.568	36.622	14.896	2.1278e-05	37.849	270.997	37.982	59.013	-55.094	-22.306	43.285	-54.965	-49.685	86.167	165.300	-50.706	-45.685	-44.829	-41.119	-38.161	-42.287	-8191	255	
17484.299	1	1	0	0	0.13177	0.19315	0.1117	0.2767	0.33645	0.16607	0.21898	0.30492	0.029513	0.066266	0.094649	0.12534	0.11793	0.16524	0.21158	0.3503	-2.2438	-2.5563	-2.7354	-2.6146	-2.4396	-2.7167	-2.6875	-2.7667	-2.7125	-2.4479	-2.8667	-2.575	-2.6583	-2.8604	-2.3729	-2.7	20.762	185.755	157.330	174.137	160.043	286.843	203.550	142.991	95.622	169.489	61.599	-55.171	-35.475	224.150	254.019	226.876	0.00030297	0.00048414	0.00017409	385.21	1.0337e-05	1.6677e-06	544.65	103.01	1.7194e-06	1.3494e-06	211.87	75.241	33.701	13.901	2.3482e-06	36.616	0.0017409	0.0018553	0.00055359	393.7	2.1057e-05	2.1749e-05	545.58	106.87	2.1212e-05	2.1261e-05	304.2	76.896	36.449	14.794	2.1633e-05	37.412	290.062	4.915	13.939	-55.353	129.120	105.553	-54.770	-49.854	41.872	163.472	-51.276	-45.531	-44.896	-41.630	109.337	-42.406	-8191	255	
17484.395	1	1	0	0	0.14833	0.32437	0.16454	0.13996	0.16782	0.10981	0.1373	0.02224	0.30884	0.095971	0.18821	0.2483	0.15809	0.11266	0.14828	0.19607	-2.2083	-2.3729	-2.5271	-2.6521	-2.5458	-2.7896	-2.5563	-2.7292	-2.6562	-2.4083	-2.6271	-2.5583	-2.3937	-2.7542	-2.5042	-2.6437	144.436	-2.015	176.968	215.964	68.805	-25.831	156.395	230.401	76.847	201.607	210.404	217.103	-0.315	243.553	99.752	70.693	0.0002365	0.00011408	0.00012794	384.15	3.2528e-06	7.5343e-06	542.36	102.98	3.6576e-06	3.2902e-06	204.21	75.114	33.338	13.973	7.3237e-06	36.731	0.0017441	0.0019223	0.00055614	393.13	2.0497e-05	2.1664e-05	544.16	106.36	2.0488e-05	2.1233e-05	301.63	76.859	36.066	14.754	2.1601e-05	37.402	-60.863	56.358	111.603	-55.410	140.722	121.354	-54.936	-49.868	38.778	107.618	-51.674	-45.800	-45.397	-41.270	-26.610	-42.091	-8191	255	
17484.514	1	1	0	0	0.26136	0.17451	0.042852	0.14548	0.072103	0.31239	0.23543	0.1907	0.086158	0.11044	0.10263	0.22341	0.057676	0.13445	0.10133	0.32618	-2.2917	-2.4333	-2.6354	-2.5458	-2.5146	-2.6604	-2.7396	-2.6854	-2.7896	-2.5083	-2.8292	-2.6917	-2.4167	-2.7167	-2.6104	-2.4833	281.463	7.669	141.255	209.828	171.707	260.810	187.705	38.334	247.820	135.394	132.380	257.868	-62.230	111.825	-34.689	249.087	0.00015728	0.00051346	0.00014737	384.63	4.3651e-06	5.7252e-06	545.88	103.5	2.0912e-06	2.4816e-06	209.06	75.032	33.527	13.855	7.0447e-06	36.575	0.0016718	0.0019473	0.00055061	392.51	1.9955e-05	2.2323e-05	544.73	106.44	2.01e-05	2.1807e-05	302.67	76.68	36.127	14.708	2.1474e-05	37.293	-42.879	-41.759	281.549	-55.455	44.669	140.747	-54.844	-49.961	24.661	84.070	-50.000	-45.569	-44.721	-41.478	118.295	-42.139	-8191	255	
17484.609	1	1	0	0	0.042681	0.19791	0.12338	0.0091902	0.21761	0.1509	0.16241	0.13908	0.16359	0.20791	0.075912	0.17924	0.14719	0.092293	0.35095	0.33277	-2.3771	-2.4958	-2.5812	-2.7417	-2.5312	-2.7667	-2.5917	-2.5292	-2.6813	-2.4792	-2.6354	-2.7687	-2.3812	-2.6771	-2.45	-2.6188	232.010	95.999	96.710	79.348	-30.126	197.872	245.084	16.153	-32.227	75.806	68.390	-62.854	113.539	156.744	229.103	255.555	0.00018955	0.00090457	3.1349e-05	384.97	3.76e-06	7.0121e-06	546.8	102.96	4.4129e-06	3.0983e-07	207.08	74.92	33.194	13.955	6.788e-06	36.462	0.0016907	0.0019544	0.00054718	392.32	2.0229e-05	2.1741e-05	546.45	106.11	2.0404e-05	2.1743e-05	302.99	76.699	36.045	14.707	2.1703e-05	37.244	-46.742	66.579	187.686	-55.515	180.657	42.994	-54.599	-49.438	110.696	226.662	-50.102	-45.563	-44.927	-41.068	14.570	-42.376	-8191	255	
17484.705	1	1	0	0	0.36937	0.29303	0.31153	0.12291	0.12207	0.20331	0.25496	0.066666	0.16571	0.1735	0.14718	0.04088	0.10224	0.19373	0.11063	0.2234	-2.1625	-2.5021	-2.7104	-2.6354	-2.55	-2.6188	-2.6896	-2.65	-2.7479	-2.4583	-2.5875	-2.7229	-2.3854	-2.6479	-2.6	-2.5812	125.960	58.395	31.474	172.478	11.419	134.148	65.608	219.840	96.977	-38.054	196.544	125.030	160.155	286.765	125.092	124.945	0.00019714	0.00012739	0.00014057	384.41	4.6087e-06	5.1788e-06	543.63	102.57	1.0514e-05	6.2348e-06	207.53	74.691	33.005	13.752	1.0717e-05	36.141	0.0017277	0.0019823	0.00055577	390.86	2.1337e-05	2.2158e-05	544.03	105.8	2.1225e-05	2.2437e-05	305.55	75.883	36.053	14.622	2.1449e-05	36.931	290.317	81.129	28.402	-55.094	-36.745	51.076	-55.104	-50.047	126.155	90.538	-49.635	-45.729	-45.183	-41.309	-28.648	-42.406	-8191	255	
17484.826	1	1	0	0	0.04919	0.21792	0.093136	0.11203	0.074978	0.071841	0.27367	0.15145	0.37371	0.20347	0.040996	0.02196	0.10085	0.22428	0.17142	0.22382	-2.2854	-2.5396	-2.6896	-2.7021	-2.6229	-2.9083	-2.7958	-2.3771	-2.8083	-2.5896	-2.6063	-2.7438	-2.4062	-2.7938	-2.8396	-2.4604	184.313	25.017	-24.819	-62.966	151.682	185.848	256.930	230.074	-36.951	232.337	194.566	133.819	255.358	288.469	-2.016	240.771	0.00013744	0.00023631	9.7669e-05	385.03	1.1512e-06	5.7642e-06	540.97	102.08	3.3046e-06	4.0237e-06	207.81	74.812	33.262	13.891	9.0029e-07	36.581	0.001784	0.0020058	0.00055324	390.74	2.1299e-05	2.1801e-05	541.27	105.25	2.1191e-05	2.2285e-05	299.4	76.252	36.067	14.727	2.1177e-05	37.233	-66.397	-30.247	110.918	-55.234	83.628	174.590	-54.927	-49.411	34.700	28.337	-51.445	-45.590	-45.239	-41.459	-23.472	-42.242	-8191	255	
17484.896	1	1	0	0	0.044681	0.14985	0.13057	0.17916	0.11612	0.22945	0.058306	0.0862	0.16612	0.12422	0.10328	0.15137	0.19773	0.10227	0.099672	0.034363	-2.3104	-2.5604	-2.4896	-2.8208	-2.5354	-2.8521	-2.7604	-2.5583	-2.9188	-2.4125	-2.4938	-2.8729	-2.7208	-2.6188	-2.6208	-2.4771	-50.856	64.823	-36.855	218.371	15.430	-4.391	214.837	212.422	103.161	159.947	125.810	70.982	217.543	245.445	-45.384	242.389	0.00023096	0.00059116	0.00011675	383.32	2.5755e-06	4.429e-06	542.15	101.39	3.453e-06	6.7087e-06	206.79	74.956	33.391	13.876	1.0987e-05	36.739	0.0017488	0.002022	0.00053338	390.75	2.1552e-05	2.2343e-05	542.24	105.23	2.1335e-05	2.24e-05	299.41	76.505	36.127	14.758	2.0703e-05	37.497	281.080	89.799	24.671	-55.378	18.418	23.130	-54.529	-49.477	261.233	80.352	-49.391	-45.206	-45.139	-41.531	136.276	-42.171	-8191	255	
17484.994	1	1	0	0	0.086837	0.20632	0.15899	0.15813	0.071614	0.10934	0.25104	0.19892	0.064069	0.13241	0.23668	0.097987	0.055413	0.071932	0.12861	0.055727	-2.1479	-2.6521	-2.4667	-2.7104	-2.3688	-2.5812	-2.7062	-2.4688	-2.7896	-2.5917	-2.5208	-2.8312	-2.6333	-2.5458	-2.5917	-2.5771	105.164	-46.926	-40.340	258.958	169.262	285.108	17.382	264.957	98.996	59.463	272.005	101.300	-8.179	45.819	122.788	36.065	0.00032246	0.0002346	0.00011092	384.83	2.438e-07	3.4418e-06	542.39	102.01	7.3384e-06	7.519e-06	202.18	75.403	33.086	13.965	1.1121e-05	36.547	0.0017423	0.002053	0.00053645	391.68	2.1898e-05	2.1943e-05	544.19	105.66	2.1402e-05	2.2216e-05	301.27	77.018	36.22	14.732	2.1479e-05	37.498	291.484	-30.178	94.180	-55.437	114.225	41.944	-54.908	-49.676	259.986	96.689	-49.780	-46.113	-45.505	-41.246	137.101	-42.292	-8191	255	
17485.090	1	1	0	0	0.066739	0.28534	0.11646	0.046037	0.35193	0.025808	0.28666	0.17434	0.24528	0.082677	0.087649	0.16021	0.14643	0.26518	0.19363	0.18254	-2.1167	-2.5	-2.3438	-2.6375	-2.5292	-2.4979	-2.8063	-2.5062	-2.7042	-2.6604	-2.4083	-2.8167	-2.4521	-2.7	-2.75	-2.6375	262.117	88.433	8.961	142.686	83.297	-55.221	228.352	233.999	85.937	-34.556	-9.885	203.147	25.673	-55.263	14.572	-60.381	0.00016335	0.00088079	0.00011929	384.63	3.2766e-06	5.2085e-06	544.76	102.08	5.7051e-06	2.8598e-06	204.23	75.048	33.148	13.918	3.848e-06	36.577	0.0017349	0.0019953	0.00055349	391.09	2.1783e-05	2.1588e-05	542.96	105.78	2.1509e-05	2.1505e-05	303.01	76.474	36.105	14.701	2.1547e-05	37.399	248.846	18.279	50.204	-55.442	93.307	143.077	-54.782	-49.503	218.900	151.419	-49.292	-45.809	-44.957	-41.555	259.852	-42.587	-8191	255	
17485.211	1	1	0	0	0.26058	0.087267	0.15544	0.096744	0.16893	0.076812	0.063374	0.21874	0.11474	0.17732	0.11886	0.27145	0.18348	0.026473	0.14812	0.016842	-2.2313	-2.725	-2.2458	-2.7	-2.7	-2.6396	-2.9104	-2.425	-2.8396	-2.8292	-2.4271	-2.6979	-2.6125	-2.5604	-2.6125	-2.6437	41.045	220.391	127.866	227.646	284.534	243.108	108.186	108.691	60.947	184.901	140.251	268.931	99.725	16.588	39.242	84.463	0.00019	0.00031672	0.00017979	383.25	1.3553e-06	1.0243e-05	541.19	102.03	3.9923e-06	5.6662e-06	204.95	75.973	33.245	14.13	5.0494e-06	37.159	0.0017225	0.001964	0.00055738	390.57	2.1268e-05	2.0883e-05	540.91	105.56	2.0659e-05	2.0957e-05	302.03	76.985	36.289	14.891	2.1297e-05	37.814	-55.020	59.611	-35.586	-55.481	91.219	106.491	-55.230	-49.270	25.103	111.003	-52.659	-45.649	-44.939	-41.292	60.533	-42.548	-8191	255	
17485.307	1	1	0	0	0.10897	0.20826	0.25139	0.0085915	0.11166	0.13763	0.051223	0.21123	0.07439	0.077478	0.1969	0.11415	0.21352	0.23764	0.11212	0.1085	-2.1042	-2.6792	-2.5062	-2.7417	-2.5604	-2.475	-2.7583	-2.5125	-2.5208	-2.65	-2.5062	-2.4896	-2.5333	-2.5062	-2.7333	-2.6	-57.090	172.952	73.352	18.113	182.753	237.038	148.594	242.446	149.946	36.469	273.121	75.723	270.372	246.984	244.268	274.926	0.00021123	0.00016611	7.6496e-05	382.29	7.735e-06	2.625e-06	543.15	102.05	1.8115e-06	2.2924e-06	211.23	75.712	33.427	14.149	3.9129e-06	37.228	0.0016471	0.001922	0.00054629	390.88	2.0467e-05	2.1218e-05	544.13	105.58	2.0176e-05	2.1062e-05	304.22	77.243	36.191	14.937	2.0719e-05	37.88	277.444	50.203	92.236	-55.029	166.673	30.882	-54.799	-49.359	191.548	117.894	-50.508	-45.701	-44.938	-41.668	102.031	-42.351	-8191	255	
17485.402	1	1	0	0	0.035322	0.16924	0.24865	0.1558	0.2679	0.1827	0.17761	0.10327	0.27841	0.032895	0.15367	0.025181	0.10417	0.094372	0.19509	0.25869	-2.0875	-2.7375	-2.4021	-2.7833	-2.7208	-2.5625	-2.6625	-2.4396	-2.4792	-2.8812	-2.3729	-2.6813	-2.6583	-2.2521	-2.7	-2.7646	234.388	-43.327	74.305	214.857	122.192	206.654	29.870	181.859	182.577	177.399	50.423	113.410	-22.853	179.325	111.600	-33.499	0.00020293	0.00082969	0.00016123	387.54	6.7517e-06	5.3579e-06	545.4	102.36	4.227e-06	9.1213e-06	204.11	75.922	33.661	13.969	9.1672e-06	37.153	0.0016096	0.0019846	0.00054211	392.86	1.9891e-05	2.1227e-05	546.96	106.35	1.9697e-05	2.1368e-05	301.84	77.169	36.461	14.891	2.0912e-05	37.805	283.881	-0.736	21.410	-55.362	53.050	67.748	-54.988	-49.488	229.268	-9.220	-50.344	-45.817	-45.358	-41.523	145.617	-42.473	-8191	255	
17485.475	1	1	0	0	0.27032	0.24706	0.097269	0.082749	0.29136	0.15455	0.15368	0.072024	0.29974	0.27219	0.08419	0.0067073	0.089696	0.13838	0.053631	0.25634	-2.1292	-2.7875	-2.5458	-2.6104	-2.4667	-2.4	-2.8167	-2.6042	-2.55	-2.7188	-2.4583	-2.5812	-2.6188	-2.3854	-2.5979	-2.6688	250.363	174.907	275.103	85.446	218.646	120.999	-58.288	126.057	-29.096	51.416	265.188	269.940	113.211	98.947	-28.573	185.427	0.00019826	0.00028486	2.5315e-05	382.52	3.5496e-06	3.1126e-06	543.73	102.42	5.0981e-06	3.0525e-06	203.41	75.284	33.407	13.921	9.6909e-06	36.916	0.0016551	0.0019843	0.00055165	391.74	2.0391e-05	2.1609e-05	542.32	106.16	2.0587e-05	2.1763e-05	303.58	76.661	36.337	14.849	2.1212e-05	37.511	286.703	28.110	60.293	-55.682	93.114	74.279	-54.887	-49.941	193.876	78.184	-49.744	-45.650	-44.649	-41.516	185.335	-42.287	-8191	255	
17485.594	1	1	0	0	0.28983	0.25758	0.26482	0.056079	0.14179	0.055955	0.054185	0.09087	0.12346	0.22845	0.21119	0.19124	0.10672	0.15334	0.2642	0.097481	-1.7563	-2.7646	-2.5563	-2.6312	-2.7812	-2.4542	-2.6875	-2.6104	-2.4417	-2.775	-2.7542	-2.7104	-2.75	-2.2979	-2.7625	-2.5375	260.702	245.497	241.794	182.985	266.178	38.764	263.764	37.236	114.260	207.552	-22.819	-11.035	54.826	200.726	239.043	289.779	0.00025153	0.00023437	0.00016475	384.07	3.0223e-06	9.2638e-06	542.91	102.26	7.5282e-06	3.7518e-06	205.43	75.926	33.539	14.084	5.9366e-06	37.065	0.0016782	0.0020125	0.00055156	390.69	2.079e-05	2.1612e-05	542.03	105.79	2.0736e-05	2.1626e-05	303.47	76.671	36.496	14.871	2.0864e-05	37.547	277.834	-25.139	74.641	-55.162	115.560	50.178	-54.932	-49.436	251.022	223.510	-51.378	-45.632	-45.801	-41.281	156.756	-42.381	-8191	255	
17485.689	1	1	0	0	0.081963	0.069099	0.18267	0.23565	0.28236	0.18905	0.18097	0.37216	0.069971	0.41291	0.21521	0.19346	0.084867	0.22825	0.027734	0.1945	-1.9312	-2.6875	-2.325	-2.5563	-2.9292	-2.55	-2.6354	-2.6979	-2.3187	-2.6958	-2.5812	-2.4958	-2.7833	-2.5646	-2.5604	-2.8167	187.992	38.926	281.462	222.771	170.162	108.251	232.642	44.873	26.308	-59.997	68.701	193.564	113.393	-43.652	283.389	171.801	0.00024143	0.00029994	0.00018228	385.35	7.5718e-06	9.1113e-06	542.55	102.77	3.9842e-06	2.618e-06	201.48	76.039	33.692	14.132	3.8209e-06	37.285	0.0017007	0.0019708	0.0005478	391.96	2.1025e-05	2.1795e-05	543.05	106.09	2.0772e-05	2.1606e-05	301.17	77.252	36.477	14.972	2.0478e-05	37.958	-52.319	-0.035	2.196	-54.901	54.974	100.063	-55.000	-49.640	188.400	76.614	-49.759	-45.952	-44.873	-41.265	-56.558	-41.955	-8191	255	
17485.785	1	1	0	0	0.24157	0.164	0.0049838	0.14155	0.20678	0.061915	0.26644	0.19357	0.2127	0.18091	0.10999	0.16159	0.29557	0.22462	0.36437	0.14709	-1.9792	-2.6875	-2.5125	-2.6229	-2.7958	-2.5062	-2.4562	-2.6417	-2.6292	-2.8521	-2.4958	-2.7354	-2.8604	-2.6458	-2.6125	-2.9292	175.826	31.953	46.668	227.079	-65.267	71.681	122.975	244.789	83.370	43.976	71.052	204.820	268.314	252.761	-31.700	5.346	0.00021016	0.00089467	4.2389e-05	385.75	6.3745e-06	6.2766e-06	545.02	102.62	4.2306e-06	8.4697e-06	206.47	75.918	33.805	14.085	6.2777e-06	37.117	0.0016849	0.0019485	0.00054692	393.1	2.0805e-05	2.1728e-05	544.53	106.36	2.0977e-05	2.1614e-05	298.76	77.197	36.61	14.942	2.0077e-05	37.815	281.415	-8.918	-19.322	-55.212	24.153	96.955	-54.652	-49.374	180.552	103.597	-49.771	-45.848	-45.347	-41.444	191.053	-42.182	-8191	255	
17485.906	1	1	0	0	0.15793	0.10475	0.15671	0.048397	0.26997	0.14607	0.053677	0.18044	0.19464	0.045495	0.30848	0.2806	0.098874	0.25319	0.032924	0.060422	-2.05	-2.6646	-2.7875	-2.3625	-2.9229	-2.7375	-2.7146	-2.825	-2.5542	-2.9354	-2.7438	-2.4062	-2.8312	-2.6042	-2.6208	-2.6437	-7.369	205.484	281.515	55.384	193.951	156.350	226.578	2.952	174.178	266.948	6.644	282.277	111.351	145.982	267.760	101.786	0.00023585	0.00020983	0.00017642	386.08	8.5743e-06	5.8018e-06	541.05	102.44	3.9176e-06	3.1031e-06	200.18	75.403	33.614	13.948	7.6631e-06	36.79	0.0017177	0.0019251	0.0005394	392.59	2.0907e-05	2.1403e-05	541.73	106.4	2.1147e-05	2.1144e-05	298.18	76.629	36.322	14.84	2.0649e-05	37.434	-49.160	42.464	-29.768	-55.316	155.357	12.432	-54.830	-49.853	26.901	124.331	-50.436	-45.640	-45.221	-41.631	113.743	-42.177	-8191	255	
17486.002	1	1	0	0	0.09348	0.16875	0.13136	0.28382	0.016335	0.15638	0.39767	0.13989	0.25963	0.060914	0.29628	0.29863	0.29599	0.16435	0.19256	0.082004	-2.0104	-2.7458	-2.6937	-2.6667	-2.5667	-2.4646	-2.725	-2.8625	-2.4979	-2.75	-2.8292	-2.5687	-2.9208	-2.675	-2.4958	-2.8271	3.359	153.561	216.597	112.880	236.545	-42.236	248.589	20.899	21.918	236.963	292.745	162.506	103.383	-65.840	18.671	162.226	0.00017498	0.00053074	6.9192e-05	385.4	1.4342e-05	5.4413e-06	542.54	102.63	7.3854e-06	2.6444e-06	207.5	75.514	33.326	14.044	6.6912e-06	36.886	0.0016945	0.0018859	0.0005509	392.04	2.0977e-05	2.0968e-05	541.89	105.98	2.1075e-05	2.055e-05	301.61	76.611	36.215	14.854	2.1047e-05	37.381	278.974	31.729	274.367	-55.677	80.289	89.185	-55.036	-49.260	123.088	22.967	-49.652	-45.899	-45.116	-41.618	232.223	-42.245	-8191	255	
17486.098	1	1	0	0	0.13678	0.22472	0.034892	0.20172	0.21806	0.049874	0.10374	0.11146	0.19724	0.34734	0.21348	0.048356	0.071942	0.11064	0.34678	0.11288	-2.1771	-2.6729	-2.6271	-2.5104	-2.5083	-2.6083	-2.4708	-2.6979	-2.6729	-2.65	-2.8604	-2.4458	-2.7542	-2.7021	-2.5542	-2.8417	260.366	255.007	-55.840	131.554	173.031	110.199	121.958	73.840	248.524	287.658	40.677	265.257	247.477	264.687	-32.398	84.026	0.0002225	0.00052623	0.00025022	385.42	7.0906e-06	3.2648e-06	544.91	102.68	4.5937e-06	5.7417e-06	198.05	75.158	33.495	14.04	8.1483e-07	37.118	0.0017016	0.0018456	0.00055326	391.6	2.0316e-05	2.0663e-05	543.67	106.32	2.0641e-05	2.0607e-05	301.43	76.671	36.241	14.891	2.112e-05	37.703	284.456	32.877	-11.468	-55.283	61.197	29.972	-54.963	-49.334	-55.518	-63.823	-49.398	-45.894	-45.293	-41.279	135.828	-42.447	-8191	255	
17486.195	1	1	0	0	0.11629	0.1891	0.12627	0.056161	0.20742	0.22979	0.014616	0.18501	0.33378	0.15598	0.13495	0.032999	0.20656	0.095352	0.21033	0.078742	-2.2104	-2.3937	-2.8063	-2.3042	-2.5438	-2.5604	-2.6833	-2.6854	-2.6208	-2.5396	-2.7313	-2.5083	-2.7417	-2.7875	-2.45	-2.7208	-13.055	214.784	69.651	263.753	236.518	263.255	150.792	234.189	134.896	249.571	202.985	137.295	258.628	173.678	26.013	140.342	0.00010415	0.00026943	0.00026458	386.69	6.1214e-06	2.8385e-06	543.92	103.29	7.7475e-06	6.7487e-06	202.91	75.735	33.998	14.117	1.1271e-05	36.778	0.0016535	0.0018937	0.00056767	393.77	2.0181e-05	2.1079e-05	545.75	106.2	2.0246e-05	2.1266e-05	299.93	76.964	36.272	14.957	2.131e-05	37.518	-31.102	32.791	25.153	-55.346	93.234	31.331	-54.734	-49.819	95.599	106.648	-50.289	-46.020	-45.493	-41.430	95.319	-42.502	-8191	255	
17486.291	1	1	0	0	0.036492	0.32111	0.09182	0.21396	0.14276	0.19701	0.1562	0.09035	0.051123	0.15459	0.17039	0.11641	0.083577	0.11818	0.191	0.14743	-2.2146	-2.525	-2.7229	-2.6458	-2.6292	-2.8854	-2.5896	-2.7042	-2.6333	-2.6146	-2.8417	-2.5396	-2.5667	-2.7083	-2.45	-2.75	-65.652	179.483	266.498	193.881	173.487	58.438	210.840	137.886	42.979	210.285	254.938	-57.544	275.977	84.497	-1.819	67.725	0.00016136	0.00040539	0.00010465	384.34	1.0376e-05	5.3914e-06	540.39	102.2	5.6239e-06	3.3909e-06	204.06	74.986	33.304	14.092	1.2103e-05	36.772	0.0016339	0.0019419	0.00055694	391.69	2.0085e-05	2.1736e-05	541.66	105.66	2.0674e-05	2.166e-05	301.08	76.352	36.132	14.901	2.1283e-05	37.324	282.888	49.583	165.597	-55.341	83.907	111.203	-55.258	-49.530	193.949	151.462	-49.861	-45.879	-45.349	-41.187	67.457	-42.361	-8191	255	
17486.387	1	1	0	0	0.17493	0.11308	0.14378	0.047973	0.10659	0.25637	0.3297	0.094751	0.085873	0.27534	0.14925	0.28271	0.087963	0.23008	0.15983	0.16343	-2.0583	-2.5146	-2.7375	-2.3833	-2.5708	-2.7208	-2.4521	-2.7146	-2.7896	-2.3563	-2.8021	-2.6771	-2.5687	-2.6833	-2.5479	-2.6813	78.580	57.271	74.613	134.040	133.916	259.204	198.609	255.519	-59.936	-37.859	100.760	241.741	98.054	240.888	-31.170	-21.520	0.00024151	0.0006028	9.0378e-05	383.91	5.9871e-06	4.9329e-06	542.2	102.16	3.1629e-06	5.7992e-06	200.92	75.027	33.571	14.113	6.811e-06	37.021	0.0016549	0.0019639	0.00056301	390.41	2.04e-05	2.1943e-05	541.61	105.37	2.0846e-05	2.1696e-05	299.09	76.254	36.162	14.938	2.1188e-05	37.406	282.460	42.345	101.462	-55.630	133.415	75.889	-55.008	-49.682	-60.374	78.196	-50.437	-45.764	-45.126	-41.403	80.548	-42.305	-8191	255	
17486.506	1	1	0	0	0.054174	0.24136	0.073148	0.22964	0.21344	0.16983	0.24268	0.25621	0.21598	0.14442	0.10486	0.21639	0.05	0.17032	0.13777	0.063783	-2.1229	-2.3875	-2.7417	-2.5687	-2.4542	-2.9437	-2.5396	-2.5917	-2.5104	-2.725	-2.7708	-2.7333	-2.5979	-2.7792	-2.6208	-2.6271	213.550	180.410	-49.842	255.977	220.992	144.200	169.094	23.681	192.469	286.123	-31.636	-32.925	-63.295	40.798	-42.427	45.866	0.00031967	0.00020373	0.00010282	383.93	6.129e-06	4.245e-06	543.61	102.33	8.5812e-07	3.764e-06	205.55	75.235	33.517	14.018	2.6118e-06	36.979	0.0016528	0.0019287	0.00053824	390.13	2.049e-05	2.118e-05	542.69	105.4	2.1193e-05	2.1414e-05	295.89	76.452	36.251	14.895	2.0654e-05	37.388	279.192	67.055	282.401	-55.361	130.503	40.695	-55.029	-49.768	141.869	136.261	-49.813	-45.773	-45.357	-41.482	79.024	-41.912	-8191	255	
17486.602	1	1	0	0	0.04989	0.063368	0.16072	0.19048	0.15405	0.079769	0.2011	0.086101	0.18791	0.28247	0.18043	0.14691	0.32559	0.16696	0.25779	0.20688	-2.3458	-2.4708	-2.6562	-2.5333	-2.45	-2.6875	-2.6958	-2.6042	-2.7771	-2.3542	-2.7479	-2.7021	-2.4042	-2.8229	-2.6417	-2.6125	204.640	150.469	32.793	-2.152	74.110	53.522	272.984	9.374	168.930	-22.005	206.152	92.900	156.835	123.471	-54.309	222.350	0.00013336	0.00086582	0.00016314	383.5	5.3589e-06	2.2205e-06	544.49	102.5	7.391e-06	7.7978e-06	200.75	75.163	33.624	14.244	1.082e-05	36.819	0.0016725	0.0018852	0.00051942	390.63	2.0464e-05	2.0663e-05	542.15	105.19	2.0436e-05	2.0988e-05	292.61	76.5	36.252	14.965	1.9944e-05	37.409	292.334	61.749	-43.291	-55.299	100.172	56.144	-54.936	-49.420	166.987	196.092	-49.595	-46.110	-45.197	-41.431	31.849	-42.361	-8191	255	
17486.697	1	1	0	0	0.23466	0.25723	0.07782	0.032784	0.27241	0.27794	0.22774	0.096029	0.052426	0.046767	0.11858	0.30254	0.14895	0.21169	0.3336	0.15726	-2.4167	-2.5187	-2.575	-2.7188	-2.5687	-2.8833	-2.6042	-2.4146	-2.7708	-2.4437	-2.8125	-2.6312	-2.4146	-2.6562	-2.625	-2.5167	1.813	119.175	285.385	162.948	45.658	134.083	15.466	206.365	96.746	112.397	287.175	160.286	10.242	-41.483	120.568	291.679	0.00015313	0.00022995	8.9941e-05	382.85	7.9388e-06	2.6543e-06	539.18	101.34	3.6301e-06	6.2094e-06	200.97	74.707	33.4	13.971	5.8034e-06	36.595	0.0016513	0.0018988	0.00051232	390.07	2.0258e-05	2.06e-05	538.07	104.48	2.0859e-05	2.105e-05	289.24	75.748	35.921	14.786	1.9634e-05	37.103	-38.627	95.720	287.089	-55.564	38.071	-4.100	-55.242	-49.579	95.975	39.993	-50.046	-46.086	-45.219	-41.885	116.163	-42.447	-8191	255	
17486.770	1	1	0	0	0.15764	0.17354	0.14332	0.24329	0.14369	0.11587	0.062283	0.17529	0.096039	0.26279	0.16985	0.2821	0.18022	0.23257	0.30824	0.34703	-2.2667	-2.6771	-2.6646	-2.8854	-2.3833	-2.7646	-2.5958	-2.3104	-2.8146	-2.5875	-2.5375	-2.7583	-2.2917	-2.7958	-2.7208	-2.5458	70.181	278.774	10.880	69.909	107.602	165.806	-42.026	129.705	154.236	126.453	269.676	119.015	-47.635	207.889	278.062	190.012	0.00022544	0.00034316	0.00017997	382.73	3.4233e-06	7.3272e-06	537.95	101.28	6.9313e-06	6.6493e-07	199.26	74.43	33.049	13.958	2.9404e-06	36.47	0.0016351	0.0018739	0.00050172	389.44	2.016e-05	2.0134e-05	537.35	104.53	2.0241e-05	2.041e-05	291.64	75.525	35.878	14.656	2.048e-05	36.986	263.407	126.807	25.510	-55.261	290.127	38.241	-54.983	-49.822	19.607	106.579	-51.014	-45.910	-44.987	-41.516	103.618	-42.296	-8191	255	
17486.865	1	1	0	0	0.28634	0.018968	0.12298	0.26149	0.12133	0.12255	0.21965	0.12227	0.076626	0.26732	0.12685	0.13577	0.027162	0.19224	0.20828	0.043052	-2.4292	-2.7458	-2.5104	-2.7583	-2.4542	-2.7229	-2.8417	-2.5375	-2.9625	-2.55	-2.6854	-2.8854	-2.4604	-2.7146	-2.6854	-2.5917	261.537	264.299	-27.463	203.379	215.202	6.159	170.680	161.317	80.527	276.773	200.530	223.005	56.153	101.009	-25.762	-39.103	0.0001983	0.00020696	1.5451e-05	381.21	8.2774e-06	5.8771e-06	538.14	100.99	3.1052e-06	3.5141e-06	199.07	74.112	32.982	13.959	9.2071e-06	36.264	0.0016204	0.0018124	0.00050916	388.34	1.9812e-05	1.9437e-05	538.72	104.31	2.0075e-05	1.9552e-05	290.14	75.49	35.715	14.561	2.0022e-05	36.889	-55.503	189.615	110.628	-55.474	74.586	43.185	-54.969	-49.811	271.084	30.282	-50.609	-45.597	-45.279	-41.358	70.566	-42.364	-8191	255	
17486.986	1	1	0	0	0.023838	0.15358	0.13645	0.28393	0.19218	0.11019	0.10929	0.037137	0.04665	0.28283	0.064837	0.12406	0.11669	0.066803	0.29569	0.097615	-2.3375	-2.6583	-2.5125	-2.7	-2.4542	-2.7313	-2.7979	-2.4958	-2.7792	-2.4792	-2.5104	-2.8417	-2.5375	-2.5833	-2.6604	-2.5229	14.576	171.454	46.485	267.989	254.950	-58.578	175.293	30.293	-15.060	96.974	238.300	176.403	278.203	84.624	-23.434	-11.582	0.00019667	0.0011785	3.2081e-05	385.81	5.3944e-06	4.6367e-06	536.45	101.05	5.0901e-06	6.5353e-06	201.6	74.499	33.059	13.992	5.4098e-06	36.287	0.001569	0.0017295	0.00050897	389.38	1.9059e-05	1.9037e-05	538.58	103.73	1.8965e-05	1.9275e-05	293.47	75.585	35.479	14.621	2.0357e-05	36.846	-30.295	6.236	100.692	-55.573	92.918	115.131	-54.978	-49.972	65.652	98.404	-50.972	-46.017	-45.489	-41.548	197.549	-42.061	-8191	255	
17487.082	1	1	0	0	0.24927	0.017502	0.12852	0.38156	0.15263	0.21115	0.13333	0.20844	0.38129	0.12933	0.11184	0.12976	0.04926	0.087515	0.23158	0.08878	-2.2083	-2.6042	-2.3854	-2.7292	-2.3125	-2.55	-2.8688	-2.4458	-2.7062	-2.5708	-2.5271	-2.8	-2.4813	-2.5396	-2.6917	-2.5938	26.113	185.664	70.241	262.974	28.395	27.838	286.670	277.428	162.080	-3.665	198.395	-44.461	112.981	121.914	99.565	200.555	0.00019781	0.00077419	8.5903e-05	377.72	9.0887e-06	1.8498e-06	536.37	100.36	6.1308e-06	2.3799e-07	197.39	74	33.208	13.859	1.1879e-06	36.206	0.0015376	0.0017374	0.00050916	385.61	1.8888e-05	1.9494e-05	534.62	103.36	1.8449e-05	2.0587e-05	290.31	75.003	35.408	14.584	1.9914e-05	36.827	289.353	151.386	-4.441	-55.371	107.073	277.093	-54.952	-50.013	177.801	280.594	-50.307	-46.055	-45.542	-41.791	93.928	-42.405	-8191	255	
17487.180	1	1	0	0	0.14038	0.063277	0.068403	0.26374	0.24606	0.21864	0.21208	0.13756	0.1118	0.20133	0.095369	0.15465	0.041497	0.067801	0.23951	0.21884	-2.2979	-2.5438	-2.6104	-2.7583	-2.625	-2.4375	-2.9354	-2.5229	-2.7271	-2.6333	-2.6375	-2.7313	-2.675	-2.4625	-2.7875	-2.4646	95.899	218.168	88.711	201.147	82.412	269.582	166.631	25.697	-16.436	272.076	271.294	285.117	223.397	33.820	269.997	242.283	0.00020964	0.00039228	0.00019406	379.87	6.5367e-06	2.5655e-06	534.31	100.93	2.6869e-06	5.3275e-06	198.32	74.471	33.086	13.825	3.3859e-06	36.457	0.0014986	0.0018044	0.00050314	385.68	1.808e-05	1.9912e-05	534.12	103.33	1.804e-05	2.0349e-05	288.65	75.248	35.282	14.583	2.0081e-05	36.796	-55.145	-14.869	126.833	-55.186	-0.185	156.952	-54.881	-49.681	167.360	265.831	-51.811	-45.833	-45.130	-41.422	113.050	-41.959	-8191	255	
17487.275	1	1	0	0	0.29723	0.11064	0.17203	0.024418	0.25852	0.22983	0.17719	0.055615	0.24755	0.24613	0.078692	0.13198	0.39504	0.19211	0.070702	0.14166	-2.2396	-2.6562	-2.5875	-2.7542	-2.55	-2.5042	-2.8958	-2.5104	-2.5979	-2.7333	-2.3896	-2.7188	-2.675	-2.6312	-2.9	-2.5375	-36.876	196.454	12.960	93.891	102.746	251.168	224.906	166.668	103.547	286.067	216.392	203.840	240.848	264.828	-13.097	198.501	0.0002605	0.00033594	0.00014877	381.36	9.0435e-06	2.985e-06	540.2	100.86	1.6971e-06	6.5735e-06	203.91	74.729	33.193	13.985	5.3437e-06	36.492	0.0014762	0.0017943	0.00049392	384.93	1.8495e-05	1.9471e-05	536.67	103.32	1.7716e-05	1.9921e-05	285.67	75.303	35.435	14.601	1.8843e-05	36.969	-59.643	49.168	34.402	-55.468	290.619	275.779	-55.067	-49.900	50.014	-31.520	-49.627	-46.113	-45.793	-41.311	-10.748	-42.526	-8191	255	
17487.371	1	1	0	0	0.31624	0.2349	0.17392	0.17022	0.14046	0.23834	0.23865	0.075466	0.20914	0.16196	0.066071	0.48399	0.16778	0.047265	0.17315	0.16749	-2.1	-2.6979	-2.4167	-2.8583	-2.7646	-2.6271	-2.7812	-2.5771	-2.4417	-2.8104	-2.4042	-2.75	-2.5354	-2.4125	-2.8104	-2.5875	267.644	21.929	-35.839	197.175	57.479	189.816	250.757	264.953	163.821	241.100	171.529	211.470	287.950	233.196	57.215	70.317	0.00011086	0.00055286	0.00012203	383.1	1.8143e-06	3.5981e-06	540.74	101.03	2.477e-06	2.7058e-06	209.79	74.49	32.99	14.03	4.6603e-07	36.578	0.0014836	0.0017247	0.00048089	385.6	1.9175e-05	1.9135e-05	538.06	103.47	1.8368e-05	1.9709e-05	285.79	75.433	35.588	14.68	1.8885e-05	37.154	-54.556	80.807	47.195	-55.575	12.122	107.268	-54.877	-50.124	155.235	207.200	-50.701	-46.078	-45.147	-41.155	54.131	-42.386	-8191	255	
17487.467	1	1	0	0	0.23981	0.14574	0.13482	0.092983	0.11289	0.1684	0.29071	0.34523	0.092886	0.12469	0.43125	0.34192	0.10808	0.15445	0.19577	0.22368	-2.1625	-2.7479	-2.6229	-2.7042	-2.7167	-2.4771	-2.8479	-2.6958	-2.4479	-2.8417	-2.6854	-2.6229	-2.8583	-2.5687	-2.75	-2.8896	102.210	86.181	-7.773	126.797	111.338	240.686	82.382	200.422	144.686	30.705	250.453	-58.756	-43.897	-53.978	2.421	-1.314	0.00025693	0.00014399	0.00016156	381.39	1.7816e-06	2.0806e-06	535.64	100.37	4.7513e-06	2.1172e-06	199.43	74.318	33.173	14.093	4.1431e-06	36.654	0.0015328	0.001754	0.00048393	384.31	1.9587e-05	1.9607e-05	534.14	103.44	1.9044e-05	2.0109e-05	284.71	75.313	35.719	14.751	1.8188e-05	37.082	288.243	121.266	45.535	-55.281	250.522	77.750	-55.009	-49.742	130.132	-63.620	-49.041	-45.871	-45.199	-41.290	41.297	-42.468	-8191	255	
17487.586	1	1	0	0	0.15979	0.074751	0.22024	0.08118	0.34756	0.17267	0.24024	0.13932	0.19075	0.20849	0.088894	0.12757	0.23322	0.10086	0.31174	0.085059	-1.8479	-2.8333	-2.4979	-2.8146	-2.7604	-2.4604	-2.8125	-2.6063	-2.5438	-2.8187	-2.5979	-2.6583	-2.8375	-2.5396	-2.8854	-2.6417	244.457	-54.751	258.359	-45.154	-55.394	261.137	193.885	234.547	263.190	-6.393	283.482	266.992	177.636	182.871	271.618	194.079	0.00019264	0.00037155	5.7769e-05	383.43	1.555e-06	8.2482e-07	536.13	100.71	5.6827e-06	5.1098e-06	199.46	74.508	33.093	14.065	6.2009e-06	36.681	0.0015422	0.0017354	0.00047193	386.8	1.9617e-05	1.9239e-05	534.86	103.82	1.8647e-05	1.9285e-05	280.88	75.698	35.749	14.734	1.7635e-05	37.29	277.153	134.363	-57.791	-55.232	285.173	163.243	-54.556	-49.497	31.114	200.858	-49.784	-45.968	-45.140	-41.533	87.440	-42.246	-8191	255	
17487.682	1	1	0	0	0.20901	0.1472	0.12932	0.19506	0.11241	0.1104	0.1035	0.35968	0.10185	0.35234	0.17285	0.040906	0.098421	0.39565	0.16218	0.11468	-1.9729	-2.7438	-2.4375	-2.5687	-2.8083	-2.5333	-2.8333	-2.6208	-2.5521	-2.7313	-2.6875	-2.6	-2.6375	-2.5667	-2.6333	-2.875	54.039	10.082	279.421	272.078	-35.052	64.710	176.367	172.905	49.525	227.090	60.115	9.774	-24.218	-22.257	96.596	-18.982	0.00024847	0.00042561	7.0585e-05	381.21	1.3672e-05	6.9906e-06	541.36	100.94	1.6045e-06	6.7726e-06	202.28	74.816	33.556	14.111	1.413e-06	37.144	0.0015191	0.0016965	0.00046449	387.43	1.8971e-05	1.881e-05	536.75	104.18	1.8488e-05	1.913e-05	282.87	75.959	35.876	14.819	1.7813e-05	37.482	292.008	-36.693	66.683	-54.876	132.980	64.593	-54.986	-49.281	-42.838	129.763	-51.459	-45.959	-45.114	-41.767	281.715	-42.036	-8191	255	
17487.777	1	1	0	0	0.11611	0.060681	0.067773	0.21957	0.15349	0.10247	0.17319	0.15611	0.19583	0.21768	0.16365	0.29499	0.053964	0.13812	0.049007	0.32386	-2.0438	-2.7479	-2.6188	-2.6146	-2.825	-2.4771	-2.6542	-2.8063	-2.5	-3.0375	-2.575	-2.4292	-2.8104	-2.6562	-2.6479	-2.8708	291.335	81.518	268.955	179.669	-45.946	238.851	145.815	281.449	-15.477	216.771	257.192	210.137	-5.186	212.502	-36.731	222.639	0.00032592	0.00076551	0.00012037	382.13	6.379e-06	8.3523e-06	540.71	101.45	4.7231e-06	4.8276e-06	201.41	75.32	33.653	14.132	2.4493e-06	36.743	0.0015281	0.0016506	0.00047344	387.97	1.9131e-05	1.8185e-05	537.93	104.51	1.8412e-05	1.8013e-05	287.64	76.171	35.936	14.748	1.8342e-05	37.299	282.936	-8.245	47.651	-55.432	140.151	20.206	-55.036	-49.512	129.361	15.953	-50.980	-45.762	-45.318	-41.092	-64.950	-42.464	-8191	255	
17487.875	1	1	0	0	0.24708	0.073032	0.035949	0.097162	0.1637	0.3232	0.18892	0.15164	0.25205	0.26765	0.24852	0.072075	0.060123	0.072889	0.17139	0.014699	-2.1167	-2.8	-2.6	-2.5958	-2.6271	-2.4771	-2.6063	-2.7917	-2.5771	-2.7729	-2.5958	-2.4646	-2.7792	-2.5625	-2.5646	-2.775	89.300	65.045	88.631	-47.633	-26.149	101.727	251.471	31.882	115.493	22.618	131.743	47.392	108.816	170.713	218.894	172.071	0.00014763	0.00031121	0.000142	383.59	5.5878e-06	4.2392e-06	533.86	100.9	1.4704e-06	4.0589e-06	195.03	74.758	33.355	14.133	6.3285e-06	36.892	0.0015119	0.0016178	0.00048333	386.63	1.8671e-05	1.8068e-05	534.17	104.31	1.8176e-05	1.7744e-05	290.33	75.599	35.669	14.779	1.8711e-05	37.253	-53.704	60.014	218.844	-54.951	93.437	126.329	-54.910	-49.670	285.061	163.100	-50.489	-45.619	-44.979	-41.597	124.550	-42.305	-8191	255	
17487.994	1	1	0	0	0.072114	0.25264	0.1057	0.10705	0.073052	0.18079	0.21993	0.075095	0.17285	0.24907	0.12367	0.12269	0.17745	0.23528	0.17393	0.31572	-2.1813	-2.7479	-2.5438	-2.6813	-2.7771	-2.5458	-2.625	-2.7792	-2.5104	-2.7104	-2.7042	-2.5	-2.5333	-2.5833	-2.4542	-2.8625	193.842	172.709	24.497	187.330	150.021	79.668	289.221	145.475	81.333	286.967	-49.161	68.438	-31.619	177.561	79.162	167.693	0.00022165	0.00077248	9.029e-05	381.67	2.817e-06	2.4797e-06	538.45	101.32	1.0205e-05	7.366e-06	201.15	74.691	33.498	14.235	8.1603e-06	37.119	0.001448	0.0016346	0.00048723	386.61	1.81e-05	1.8624e-05	536.75	104.07	1.7544e-05	1.8206e-05	287.7	75.67	35.654	14.841	1.8483e-05	37.359	-32.007	14.032	262.868	-55.157	90.627	131.140	-54.896	-49.665	69.159	221.426	-49.857	-45.906	-45.440	-41.121	115.698	-42.635	-8191	255	
17488.066	1	1	0	0	0.20604	0.12824	0.23151	0.11741	0.15793	0.12042	0.26766	0.1187	0.26605	0.12103	0.21028	0.15035	0.063478	0.3895	0.17803	0.12651	-2.0771	-2.7229	-2.8625	-2.6896	-2.6688	-2.7292	-2.6063	-2.8812	-2.625	-2.6292	-2.9333	-2.5229	-2.6958	-2.6792	-2.4313	-2.7667	-5.658	241.595	23.475	-9.434	247.445	65.632	250.675	6.629	31.679	-38.816	291.316	183.495	210.547	186.982	-22.037	94.234	0.00017384	0.00065238	1.2277e-05	385.87	1.6322e-06	4.6594e-06	539.18	101.4	4.8505e-06	2.565e-06	204.05	75.197	33.814	14.172	6.831e-06	37.038	0.001426	0.0016681	0.00047649	388.24	1.7227e-05	1.879e-05	537.92	104.31	1.7152e-05	1.8805e-05	288.46	75.986	35.777	14.908	1.8485e-05	37.452	-55.478	121.958	16.675	-55.302	24.322	54.069	-54.996	-49.543	97.130	153.303	-49.881	-46.146	-45.380	-41.151	42.033	-42.178	-8191	255	
17488.188	1	1	0	0	0.13284	0.1213	0.084109	0.15295	0.25844	0.082596	0.18722	0.096039	0.15	0.17441	0.059627	0.29458	0.13826	0.17494	0.1744	0.14157	-2.1354	-2.6229	-2.8479	-2.4313	-2.5792	-2.65	-2.3646	-2.7229	-2.4667	-2.6042	-2.875	-2.6146	-2.5854	-2.5875	-2.5292	-2.75	100.344	127.268	-28.011	244.043	114.466	55.127	-54.985	96.398	128.759	255.402	174.846	-64.615	-21.192	286.781	54.830	-62.727	0.00029437	0.00040114	0.00012193	381.99	4.1269e-06	1.0794e-06	540.5	101.71	3.6978e-06	2.9139e-06	202.68	74.779	33.752	14.211	4.3819e-06	36.62	0.0014063	0.0016991	0.0004713	387.21	1.7481e-05	1.9668e-05	538.9	104.04	1.752e-05	1.9069e-05	285.69	75.687	35.782	14.847	1.8239e-05	37.059	281.821	12.932	56.853	-55.046	190.730	6.226	-55.156	-49.987	53.934	9.364	-50.131	-46.058	-45.113	-41.420	93.618	-42.401	-8191	255	
17488.283	1	1	0	0	0.16202	0.1176	0.12554	0.22986	0.12641	0.25855	0.15744	0.17647	0.044792	0.23539	0.29496	0.021934	0.23436	0.050582	0.2635	0.13167	-2.2062	-2.3438	-2.7188	-2.3563	-2.6771	-2.8167	-2.3896	-2.6708	-2.7292	-2.5021	-2.7292	-2.6292	-2.7792	-2.7146	-2.5521	-2.7708	170.625	166.688	110.288	-56.991	260.014	272.419	125.933	14.042	226.217	173.483	211.169	-42.410	52.681	215.518	23.010	234.721	0.0002119	0.00053892	0.00014129	382.22	3.0764e-06	2.6998e-06	537.43	101.6	5.7934e-06	6.7608e-06	205.2	74.318	33.653	14.192	4.3439e-06	36.555	0.0014682	0.0017128	0.00048193	386.55	1.8163e-05	1.9501e-05	535.63	103.82	1.839e-05	1.9347e-05	287.19	75.122	35.82	14.814	1.8285e-05	36.946	291.867	130.948	68.007	-55.110	56.498	85.343	-55.113	-49.525	-59.826	71.487	-50.776	-46.119	-45.500	-41.553	191.219	-42.011	-8191	255	
17488.381	1	1	0	0	0.15803	0.11112	0.22204	0.016507	0.2917	0.12159	0.12147	0.26575	0.20913	0.10585	0.030334	0.078551	0.038409	0.26976	0.33695	0.10201	-2.25	-2.4667	-2.6813	-2.5646	-2.5667	-2.8563	-2.5667	-2.6583	-2.6083	-2.6792	-2.6896	-2.4833	-2.6229	-2.7729	-2.5042	-2.7562	249.632	76.722	241.394	142.145	160.378	197.900	77.999	183.199	177.673	145.997	94.842	185.340	252.245	168.685	110.806	240.140	0.00012449	0.00052001	0.00020834	381.6	5.6557e-06	6.1745e-06	538.04	101.57	4.9343e-06	7.6849e-06	200.72	73.996	33.653	14.144	2.711e-06	36.476	0.0015253	0.0017192	0.00046749	386.32	1.8314e-05	1.9642e-05	535.04	103.97	1.87e-05	1.899e-05	281.73	75.192	35.973	14.85	1.7682e-05	37.041	276.889	45.527	54.189	-55.176	135.235	143.921	-55.324	-49.720	163.335	120.952	-49.540	-45.773	-45.203	-41.163	161.701	-42.379	-8191	255	
17488.475	1	1	0	0	0.068481	0.28191	0.18997	0.25995	0.30155	0.099644	0.13373	0.33874	0.14238	0.094595	0.16271	0.28173	0.054361	0.093087	0.27218	0.092931	-2.2438	-2.3833	-2.7583	-2.7625	-2.6208	-2.8438	-2.6458	-2.5917	-2.6667	-2.4792	-2.6917	-2.7042	-2.6167	-2.7104	-2.4292	-2.6646	292.399	7.606	144.505	265.727	208.867	77.694	-14.671	269.252	8.283	264.224	37.407	228.826	119.135	264.907	-56.826	255.304	0.00016576	0.00061633	0.00022636	383.99	1.0703e-05	1.8585e-06	541.02	102.44	7.0028e-06	5.5225e-06	200.94	75.065	33.707	14.308	2.5216e-06	37.146	0.0015615	0.0016951	0.00044834	388.29	1.8349e-05	1.8919e-05	538.29	104.77	1.854e-05	1.8654e-05	279.85	76.126	35.919	14.874	1.7124e-05	37.458	289.346	73.509	-4.993	-55.247	161.063	154.584	-54.962	-49.394	167.057	11.712	-49.447	-46.083	-45.250	-41.562	80.976	-42.348	-8191	255	
17488.596	1	1	0	0	0.40527	0.22393	0.030769	0.22977	0.039779	0.14086	0.11849	0.15661	0.15312	0.13978	0.11586	0.15508	0.15123	0.31414	0.078435	0.26331	-2.1813	-2.4104	-2.7313	-2.7042	-2.3896	-2.9083	-2.6188	-2.6	-2.7979	-2.4688	-2.6188	-2.6646	-2.6854	-2.7271	-2.6667	-2.6771	214.814	72.558	200.233	137.816	270.081	229.791	68.660	-53.756	218.106	60.696	199.641	245.092	241.611	53.430	-35.576	155.676	0.00019015	0.00032787	0.00019302	387.55	1.0437e-05	8.7903e-06	542.04	102.44	1.5956e-06	7.9923e-06	201.85	74.857	33.521	14.094	2.0093e-06	36.562	0.0015183	0.0016638	0.00043808	390	1.8456e-05	1.8927e-05	539.09	104.93	1.83e-05	1.8372e-05	277.73	75.737	35.905	14.752	1.7441e-05	37.001	284.541	80.297	275.017	-55.677	68.516	132.235	-55.264	-49.592	-15.254	-3.577	-48.957	-46.080	-44.905	-41.515	183.978	-42.420	-8191	255	
17488.668	1	1	0	0	0.13907	0.19622	0.10663	0.27026	0.18214	0.10752	0.12817	0.041178	0.12818	0.050698	0.30815	0.23017	0.17298	0.17277	0.17156	0.26299	-2.2708	-2.3875	-2.7771	-2.7708	-2.5	-2.8646	-2.5917	-2.4292	-2.9792	-2.5958	-2.8646	-2.5229	-2.3833	-2.8167	-2.6833	-2.5	90.552	-35.697	-19.921	69.295	-41.859	227.158	-35.044	121.984	224.552	110.572	160.018	189.841	63.245	-10.224	50.920	-45.360	0.00017453	0.00082975	0.00014573	382.77	7.5146e-06	3.6639e-06	538.13	101.24	1.3264e-06	2.9326e-06	199.58	73.948	33.435	14.174	2.3646e-06	36.746	0.0015331	0.0016204	0.00044993	388.8	1.8013e-05	1.7801e-05	535.41	104.41	1.806e-05	1.7752e-05	278.42	75.296	35.788	14.707	1.7899e-05	36.992	-46.853	-40.442	175.562	-55.328	72.203	182.408	-54.781	-49.697	242.609	45.484	-50.819	-46.082	-45.368	-41.724	41.996	-42.467	-8191	255	
17488.764	1	1	0	0	0.16271	0.24095	0.27792	0.13862	0.16055	0.10544	0.26186	0.11255	0.24387	0.087349	0.10188	0.10558	0.098286	0.063884	0.15428	0.098646	-2.1375	-2.3187	-2.6688	-2.7146	-2.4958	-2.5958	-2.5333	-2.4938	-2.5479	-2.6813	-2.55	-2.8438	-2.5563	-2.8063	-2.7313	-2.4479	81.762	85.018	140.539	28.248	246.646	167.525	-43.656	182.097	59.132	4.815	175.825	239.430	289.291	61.753	164.890	247.241	0.00027422	0.00022297	0.00020011	381.95	1.0523e-05	5.7776e-06	537.66	101.48	4.6546e-06	3.8548e-06	200.11	74.871	33.528	14.201	9.2277e-06	36.818	0.0014786	0.001574	0.00046114	387.59	1.7725e-05	1.7369e-05	536.67	104.2	1.7594e-05	1.7176e-05	280.6	75.466	35.687	14.748	1.8216e-05	37.097	-42.206	127.280	80.400	-55.579	92.756	53.627	-55.273	-49.650	-45.384	97.844	-50.056	-45.879	-45.306	-41.237	147.746	-42.654	-8191	255	
17488.859	1	1	0	0	0.20079	0.10409	0.10149	0.21736	0.21637	0.18721	0.29619	0.17441	0.11691	0.027203	0.016569	0.213	0.18662	0.16288	0.26099	0.26555	-2.3771	-2.4521	-2.6854	-2.7417	-2.5354	-2.6875	-2.6958	-2.4917	-2.9292	-2.7833	-2.55	-2.8208	-2.4792	-2.9604	-2.6167	-2.4875	41.337	35.709	116.393	-64.292	136.328	128.143	251.421	190.566	94.501	161.945	-43.009	12.241	136.804	228.125	130.961	263.949	0.00020902	0.00025106	9.0045e-05	384.43	4.9253e-06	5.0841e-06	540.72	101.82	1.7187e-06	1.9906e-06	206.29	74.873	33.564	14.25	4.5425e-06	36.629	0.001462	0.0015798	0.00046425	388.94	1.6985e-05	1.7483e-05	539.01	104.39	1.6571e-05	1.7873e-05	281.53	75.855	35.781	14.807	1.8037e-05	37.196	-59.913	-53.114	97.789	-54.996	133.413	113.764	-54.988	-49.443	96.862	161.784	-49.899	-46.193	-45.193	-41.247	162.303	-42.355	-8191	255	
17488.955	1	1	0	0	0.16217	0.18291	0.33202	0.28794	0.14838	0.35164	0.3662	0.12032	0.066708	0.2112	0.19626	0.19397	0.1311	0.24067	0.31754	0.1733	-2.5917	-2.5312	-2.4854	-2.8	-2.4896	-2.6979	-2.8229	-2.1854	-2.7708	-2.5292	-2.4792	-2.7667	-2.4208	-2.6562	-2.4625	-2.3667	-18.288	-59.744	1.168	264.579	280.028	269.234	267.813	120.444	118.790	104.622	125.074	199.930	282.381	102.441	41.666	180.875	0.00024377	0.00045312	6.5489e-05	385.65	1.1072e-05	3.114e-06	541.2	101.74	2.6081e-06	6.9821e-06	195.95	74.671	33.572	14.074	4.5346e-06	36.409	0.0013685	0.0016199	0.00046476	388.74	1.6586e-05	1.791e-05	538.46	104.28	1.6404e-05	1.8339e-05	281.05	75.253	35.529	14.758	1.8354e-05	36.774	-55.557	48.774	120.847	-55.459	31.330	121.511	-55.098	-49.878	-23.680	133.994	-50.407	-45.790	-45.168	-41.340	75.594	-42.440	-8191	255	
17489.076	1	1	0	0	0.14025	0.081681	0.17003	0.092328	0.13654	0.24238	0.060974	0.071383	0.12645	0.13967	0.086954	0.12638	0.23108	0.29846	0.27024	0.24759	-2.2125	-2.6354	-2.5625	-2.6792	-2.4875	-2.7833	-2.825	-2.3667	-2.5687	-2.5646	-2.4625	-2.9042	-2.4417	-2.5833	-2.7271	-2.6292	267.863	129.200	-40.069	15.765	-24.003	279.799	202.587	189.331	62.865	114.314	48.126	-65.532	14.100	47.800	72.644	-63.649	7.9125e-05	0.00038094	0.00016158	384.28	1.1247e-05	6.424e-06	538.06	101.5	4.8395e-06	2.9383e-06	200.81	73.957	33.343	14.094	2.1929e-06	36.285	0.0013891	0.0016971	0.00047085	387.22	1.6929e-05	1.8527e-05	535.89	104.1	1.6903e-05	1.889e-05	281.79	74.837	35.593	14.78	1.81e-05	36.712	-55.409	22.997	-33.665	-55.531	89.964	54.289	-54.986	-50.216	173.843	101.796	-50.414	-46.041	-44.947	-41.968	-61.689	-42.414	-8191	255	
17489.172	1	1	0	0	0.31943	0.25473	0.11061	0.18157	0.12773	0.15358	0.24172	0.17257	0.2322	0.10662	0.098142	0.085341	0.39614	0.27207	0.35868	0.13537	-2.2854	-2.7313	-2.4208	-2.7771	-2.6937	-2.6896	-2.8167	-2.5667	-2.6104	-2.8063	-2.5062	-2.9104	-2.6792	-2.5229	-2.6125	-2.3854	126.547	137.715	-64.885	60.364	163.506	177.864	220.912	33.131	-61.590	136.458	257.409	-26.907	123.732	106.870	203.239	167.784	0.00018459	0.00035978	9.8854e-05	382.87	2.2924e-06	4.5467e-06	539.74	101.07	9.0831e-06	3.2403e-06	202.77	74.171	33.373	14.102	8.9287e-06	36.313	0.0014065	0.001717	0.00045857	386.95	1.7336e-05	1.8573e-05	537.26	103.63	1.7229e-05	1.8593e-05	279.14	74.858	35.754	14.739	1.7885e-05	36.658	-63.113	185.287	-30.575	-55.200	191.116	25.966	-54.745	-49.895	156.511	26.644	-52.062	-45.757	-44.943	-41.469	119.898	-42.054	-8191	255	
17489.268	1	1	0	0	0.2479	0.1498	0.14467	0.18365	0.16833	0.14744	0.070715	0.084984	0.1664	0.21792	0.28529	0.22548	0.15956	0.10298	0.42918	0.10377	-2.3771	-2.5708	-2.3771	-2.7604	-2.8	-2.6437	-2.9292	-2.6104	-2.6188	-2.8208	-2.4042	-2.7792	-2.4875	-2.4958	-2.8167	-2.6	75.987	273.864	173.489	-36.102	65.145	72.521	240.043	-27.030	277.673	218.191	147.161	-19.796	92.269	150.042	29.623	273.124	0.00015461	0.00042019	0.00012731	382.43	1.1995e-06	4.9226e-06	542.5	102.07	4.7392e-07	4.0204e-06	206.42	74.13	33.756	14.087	1.9441e-06	36.408	0.0014188	0.0017068	0.00044557	386.88	1.7809e-05	1.8016e-05	539.04	104.4	1.7598e-05	1.8203e-05	274.74	75.202	35.936	14.757	1.7085e-05	36.832	278.258	0.928	16.350	-55.540	237.359	28.750	-54.999	-49.410	84.771	220.295	-50.022	-46.203	-45.310	-41.629	61.958	-42.371	-8191	255	
17489.363	1	1	0	0	0.09151	0.21193	0.18739	0.065958	0.020455	0.13752	0.31737	0.080448	0.1223	0.24015	0.11137	0.18745	0.14246	0.26501	0.11711	0.18126	-2.1021	-2.7292	-2.5062	-2.7438	-2.6021	-2.5917	-2.8396	-2.4875	-2.8229	-2.7771	-2.4813	-2.7708	-2.7417	-2.3812	-2.6521	-2.5792	140.099	120.479	201.773	271.961	254.736	186.131	193.575	-17.077	154.402	188.112	23.031	-45.832	85.053	-44.275	80.649	256.113	0.00025912	0.00080883	7.2908e-05	383.93	8.7328e-06	2.946e-06	542.51	102.1	5.3806e-06	6.8559e-06	200.98	74.123	33.314	14.039	1.1962e-05	35.9	0.0014311	0.0016649	0.00043333	389.17	1.7892e-05	1.8121e-05	538.3	104.42	1.7743e-05	1.818e-05	274.76	74.815	35.785	14.692	1.6775e-05	36.498	282.586	-2.518	44.887	-55.195	117.732	125.112	-54.561	-49.865	246.384	131.440	-50.658	-45.920	-45.336	-41.358	8.044	-42.453	-8191	255	
17489.461	1	1	0	0	0.33017	0.13766	0.15969	0.31394	0.12111	0.33044	0.13092	0.044308	0.11425	0.19826	0.33298	0.11442	0.13784	0.13016	0.39994	0.23127	-2.1833	-2.5958	-2.3958	-2.5667	-2.7271	-2.4854	-2.8688	-2.4021	-2.4417	-2.6271	-2.4417	-2.6979	-2.5771	-2.3958	-2.7333	-2.5312	33.561	22.921	196.064	-46.039	255.587	235.005	57.728	-20.653	123.847	-57.403	205.814	-31.285	135.570	283.557	39.343	76.493	0.00013184	0.00051811	0.00014631	383.62	2.1043e-06	1.3845e-06	539.59	101.57	9.7915e-06	8.8183e-06	199.8	73.994	33.594	13.977	1.0333e-05	36.327	0.001448	0.0016884	0.00042697	388.21	1.7779e-05	1.8063e-05	535.18	104.24	1.7821e-05	1.7493e-05	273.2	74.672	35.84	14.639	1.666e-05	36.646	273.314	-0.560	289.749	-55.327	64.072	62.837	-55.031	-49.219	127.854	36.526	-50.114	-45.842	-44.934	-41.546	119.408	-42.806	-8191	255	
17489.557	1	1	0	0	0.217	0.034917	0.12002	0.16348	0.24892	0.29721	0.2691	0.11108	0.032637	0.30551	0.32292	0.10407	0.044728	0.27116	0.36947	0.036326	-1.9854	-2.5833	-2.3917	-2.5	-2.6979	-2.6021	-2.8208	-2.5625	-2.3833	-2.7708	-2.4938	-2.4771	-2.5604	-2.4146	-2.4062	-2.55	250.299	-45.071	-21.706	-27.490	190.540	88.647	231.869	101.676	163.085	230.972	177.488	124.488	-9.254	42.013	-67.255	-33.370	0.00022021	0.00036917	9.0089e-05	385.3	8.0292e-06	5.197e-06	535.46	102.19	3.5171e-06	3.6476e-06	201.16	74.052	33.613	14.086	3.4567e-06	36.432	0.001433	0.0015827	0.0004379	388.45	1.7388e-05	1.7219e-05	535.28	104.3	1.7465e-05	1.6886e-05	278.05	74.781	35.751	14.67	1.704e-05	36.665	291.943	-6.156	77.999	-55.184	136.086	32.563	-54.964	-50.005	115.947	32.154	-50.409	-46.096	-45.348	-41.596	263.170	-42.438	-8191	255	
17489.676	1	1	0	0	0.19445	0.19568	0.1825	0.077356	0.023404	0.055311	0.095024	0.24862	0.18039	0.24732	0.24788	0.20588	0.12338	0.14408	0.5742	0.1999	-1.9708	-2.625	-2.4188	-2.5646	-2.7229	-2.4917	-2.7771	-2.4208	-2.3708	-2.7583	-2.5542	-2.7521	-2.5917	-2.4604	-2.6521	-2.7042	130.986	205.712	225.598	195.082	120.140	161.071	283.612	9.084	-21.014	58.568	99.866	174.047	134.911	246.247	229.182	82.920	0.00014725	0.0001813	0.00017369	385.58	6.1799e-06	7.6574e-06	540.87	101.94	3.7337e-06	4.5831e-06	200.56	74.072	33.644	14.069	3.5267e-06	36.245	0.0014172	0.0015682	0.00044736	388.55	1.7512e-05	1.6517e-05	538.59	104.6	1.708e-05	1.6445e-05	279.16	75.096	35.836	14.638	1.7238e-05	36.714	282.950	44.024	34.520	-55.397	-14.635	116.264	-55.008	-49.626	76.666	43.125	-50.909	-46.294	-45.277	-41.370	69.708	-42.447	-8191	255	
17489.771	1	1	0	0	0.061314	0.2837	0.13693	0.082412	0.26791	0.10394	0.19505	0.1694	0.2413	0.10102	0.15441	0.14769	0.061435	0.17235	0.26372	0.26951	-2.0146	-2.8479	-2.5208	-2.4667	-2.7	-2.3896	-2.8167	-2.8625	-2.5354	-2.9333	-2.5854	-2.4771	-2.725	-2.5917	-2.7625	-2.8208	30.807	161.440	155.189	132.566	34.385	259.718	257.007	172.707	92.766	-38.738	-14.372	-12.252	-53.798	30.124	265.911	167.611	0.00019781	0.00035741	4.675e-05	384.69	5.3691e-06	3.0335e-06	537.92	102.39	3.6093e-06	3.9836e-06	203.4	73.972	33.295	14.056	4.829e-07	36.165	0.001369	0.0015221	0.00045669	388.7	1.6711e-05	1.7063e-05	536.43	104.66	1.6809e-05	1.7017e-05	279.32	74.734	35.506	14.647	1.7693e-05	36.461	272.766	54.823	275.864	-55.222	57.533	132.794	-55.136	-49.930	26.528	245.840	-49.304	-45.908	-45.532	-41.533	8.987	-42.237	-8191	255	
17489.867	1	1	0	0	0.15253	0.11315	0.18833	0.081385	0.17835	0.094083	0.20706	0.10206	0.34646	0.11928	0.072346	0.14978	0.14274	0.22326	0.097913	0.10224	-2.0646	-2.7354	-2.6708	-2.5146	-2.8417	-2.5854	-2.6729	-2.5896	-2.5042	-2.6896	-2.6271	-2.4854	-2.7771	-2.6271	-2.6021	-2.8792	108.817	132.390	154.673	-47.593	-25.651	236.680	85.059	165.293	279.215	-37.972	193.898	264.808	232.202	47.684	139.791	185.397	0.00021243	0.00036339	0.00022225	384.74	6.0773e-06	5.2369e-06	536.63	101.47	9.325e-06	1.8333e-06	201.4	73.424	33.698	14.047	3.4935e-06	35.968	0.0013558	0.0016002	0.00047213	387.64	1.6312e-05	1.7675e-05	534.21	103.94	1.6167e-05	1.7667e-05	278.31	74.152	35.518	14.644	1.7742e-05	36.29	-18.973	150.330	31.000	-55.036	32.847	-20.410	-54.873	-49.853	153.032	164.469	-50.132	-45.935	-45.689	-41.469	17.608	-42.229	-8191	255	
17489.965	1	1	0	0	0.15971	0.20289	0.18597	0.2447	0.18156	0.070396	0.078911	0.15832	0.23412	0.21664	0.23546	0.34671	0.18435	0.32489	0.065185	0.22221	-2.0563	-2.7917	-2.6792	-2.5917	-2.7562	-2.6396	-2.6042	-2.6104	-2.3917	-2.7188	-2.5875	-2.4729	-2.6063	-2.4979	-2.4271	-2.85	18.276	-36.600	291.747	259.904	276.130	63.685	256.446	188.400	-63.313	223.949	114.720	273.247	243.448	72.275	81.595	205.425	0.00022942	0.00048345	0.00020795	383.69	8.7058e-06	3.1525e-06	536.76	100.91	5.2062e-06	6.6207e-06	202.11	73.255	33.604	14.084	7.5641e-06	35.857	0.0013221	0.0016094	0.0004707	386.34	1.6224e-05	1.8091e-05	535.13	103.72	1.6518e-05	1.7972e-05	281.26	74.038	35.517	14.673	1.7788e-05	36.272	291.924	135.468	53.964	-55.640	75.756	12.127	-55.111	-49.706	255.589	133.819	-50.469	-45.827	-45.852	-41.614	59.286	-42.732	-8191	255	
#DATA ENDS
