BOXY.EXE: ISS Imagent and Oximeter Data Acquisition Program Version 0.80
Ascii Record File

#ACQ INFORMATION
2  Detector Channels 
16  External MUX Channels 
1  Auxiliary Channels 
5000  Waveform (CCF) Frequency (Hz)
1  Waveforms Skipped 
30  Waveforms Averaged 
1  Cycles Averaged 
16  Acquisitions per Waveform 
10.0806  Updata Rate (Hz) 

#FILE INFORMATION
TRUE -- External MUX Channel results are PARSED.
FALSE -- AC DC and Phase are NOT grouped.
TRUE -- Companion Program Settings File CREATED.
FALSE -- AC data not excluded
FALSE -- DC data not excluded
FALSE -- Phase data not excluded
FALSE -- Auxillary Chn. data not excluded
Tab delimiters

#CALIBRATION STATE
TRUE -- Waveform Calibration Values APPLIED.


#AUX CALIBRATION VALUES
Val Type	aux-1	

Term	1.0000e+00	
Factor	0.0000e+00	


#WF CALIBRATION VALUES
A = Detector Channel
Val Type	A-AC1	A-AC2	A-AC3	A-AC4	A-AC5	A-AC6	A-AC7	A-AC8	A-AC9	A-AC10	A-AC11	A-AC12	A-AC13	A-AC14	A-AC15	A-AC16	A-DC1	A-DC2	A-DC3	A-DC4	A-DC5	A-DC6	A-DC7	A-DC8	A-DC9	A-DC10	A-DC11	A-DC12	A-DC13	A-DC14	A-DC15	A-DC16	A-Ph1	A-Ph2	A-Ph3	A-Ph4	A-Ph5	A-Ph6	A-Ph7	A-Ph8	A-Ph9	A-Ph10	A-Ph11	A-Ph12	A-Ph13	A-Ph14	A-Ph15	A-Ph16	

Term	0.00000e+00	0.00000e+00	0.00000e+00	0.00000e+00	0.00000e+00	0.00000e+00	0.00000e+00	0.00000e+00	0.00000e+00	0.00000e+00	0.00000e+00	0.00000e+00	0.00000e+00	0.00000e+00	0.00000e+00	0.00000e+00	0.00000e+00	0.00000e+00	0.00000e+00	0.00000e+00	0.00000e+00	0.00000e+00	0.00000e+00	0.00000e+00	0.00000e+00	0.00000e+00	0.00000e+00	0.00000e+00	0.00000e+00	0.00000e+00	0.00000e+00	0.00000e+00	0.00000e+00	0.00000e+00	0.00000e+00	0.00000e+00	0.00000e+00	0.00000e+00	0.00000e+00	0.00000e+00	0.00000e+00	0.00000e+00	0.00000e+00	0.00000e+00	0.00000e+00	0.00000e+00	0.00000e+00	0.00000e+00	
Factor	1.00000e+00	1.00000e+00	1.00000e+00	1.00000e+00	1.00000e+00	1.00000e+00	1.00000e+00	1.00000e+00	1.00000e+00	1.00000e+00	1.00000e+00	1.00000e+00	1.00000e+00	1.00000e+00	1.00000e+00	1.00000e+00	1.00000e+00	1.00000e+00	1.00000e+00	1.00000e+00	1.00000e+00	1.00000e+00	1.00000e+00	1.00000e+00	1.00000e+00	1.00000e+00	1.00000e+00	1.00000e+00	1.00000e+00	1.00000e+00	1.00000e+00	1.00000e+00	X	X	X	X	X	X	X	X	X	X	X	X	X	X	X	X	

B = Detector Channel
Val Type	B-AC1	B-AC2	B-AC3	B-AC4	B-AC5	B-AC6	B-AC7	B-AC8	B-AC9	B-AC10	B-AC11	B-AC12	B-AC13	B-AC14	B-AC15	B-AC16	B-DC1	B-DC2	B-DC3	B-DC4	B-DC5	B-DC6	B-DC7	B-DC8	B-DC9	B-DC10	B-DC11	B-DC12	B-DC13	B-DC14	B-DC15	B-DC16	B-Ph1	B-Ph2	B-Ph3	B-Ph4	B-Ph5	B-Ph6	B-Ph7	B-Ph8	B-Ph9	B-Ph10	B-Ph11	B-Ph12	B-Ph13	B-Ph14	B-Ph15	B-Ph16	

Term	0.00000e+00	0.00000e+00	0.00000e+00	0.00000e+00	0.00000e+00	0.00000e+00	0.00000e+00	0.00000e+00	0.00000e+00	0.00000e+00	0.00000e+00	0.00000e+00	0.00000e+00	0.00000e+00	0.00000e+00	0.00000e+00	0.00000e+00	0.00000e+00	0.00000e+00	0.00000e+00	0.00000e+00	0.00000e+00	0.00000e+00	0.00000e+00	0.00000e+00	0.00000e+00	0.00000e+00	0.00000e+00	0.00000e+00	0.00000e+00	0.00000e+00	0.00000e+00	-2.12444e+02	-1.41062e+02	-1.70892e+02	-1.83732e+02	-1.12109e+02	-1.05118e+02	-1.55012e+02	-1.62015e+02	-9.09407e+01	-9.85453e+01	-1.70533e+02	-1.70350e+02	-1.84933e+02	-1.77024e+02	-9.26801e+01	-1.49740e+02	
Factor	3.86930e-05	3.87587e-05	1.11420e-05	1.84525e-01	4.76322e-07	4.00243e-07	1.77227e-01	5.92448e-02	4.03067e-07	4.33660e-07	9.47737e-02	3.35258e-02	3.39684e-02	1.07113e-02	3.85728e-07	1.51601e-02	1.41076e-07	1.41361e-07	3.93248e-08	7.31989e-02	1.55024e-09	1.55026e-09	6.73368e-02	2.26348e-02	1.55356e-09	1.55040e-09	3.24457e-02	1.12648e-02	1.11019e-02	3.63347e-03	1.55221e-09	4.80811e-03	X	X	X	X	X	X	X	X	X	X	X	X	X	X	X	X	



#DISTANCE SETTINGS
A = Detector Channel
A-1	A-2	A-3	A-4	A-5	A-6	A-7	A-8	A-9	A-10	A-11	A-12	A-13	A-14	A-15	A-16	

2.5000e+00	3.0000e+00	2.5000e+00	3.0000e+00	2.0000e+00	3.0000e+00	1.5000e+00	3.0000e+00	3.0000e+00	3.0000e+00	3.0000e+00	3.0000e+00	3.0000e+00	3.0000e+00	1.5000e+00	3.0000e+00	

B = Detector Channel
B-1	B-2	B-3	B-4	B-5	B-6	B-7	B-8	B-9	B-10	B-11	B-12	B-13	B-14	B-15	B-16	

1.0000e+01	1.0000e+01	1.0000e+01	1.4400e+00	1.0000e+01	1.0000e+01	1.5100e+00	1.9400e+00	1.0000e+01	1.0000e+01	1.9900e+00	2.4900e+00	2.4100e+00	2.9000e+00	1.0000e+01	2.9800e+00	




#DATA BEGINS
time	group	step	mark	flag	A-AC1	A-AC2	A-AC3	A-AC4	A-AC5	A-AC6	A-AC7	A-AC8	A-AC9	A-AC10	A-AC11	A-AC12	A-AC13	A-AC14	A-AC15	A-AC16	A-DC1	A-DC2	A-DC3	A-DC4	A-DC5	A-DC6	A-DC7	A-DC8	A-DC9	A-DC10	A-DC11	A-DC12	A-DC13	A-DC14	A-DC15	A-DC16	A-Ph1	A-Ph2	A-Ph3	A-Ph4	A-Ph5	A-Ph6	A-Ph7	A-Ph8	A-Ph9	A-Ph10	A-Ph11	A-Ph12	A-Ph13	A-Ph14	A-Ph15	A-Ph16	B-AC1	B-AC2	B-AC3	B-AC4	B-AC5	B-AC6	B-AC7	B-AC8	B-AC9	B-AC10	B-AC11	B-AC12	B-AC13	B-AC14	B-AC15	B-AC16	B-DC1	B-DC2	B-DC3	B-DC4	B-DC5	B-DC6	B-DC7	B-DC8	B-DC9	B-DC10	B-DC11	B-DC12	B-DC13	B-DC14	B-DC15	B-DC16	B-Ph1	B-Ph2	B-Ph3	B-Ph4	B-Ph5	B-Ph6	B-Ph7	B-Ph8	B-Ph9	B-Ph10	B-Ph11	B-Ph12	B-Ph13	B-Ph14	B-Ph15	B-Ph16	aux-1	digaux	

4036.016	1	1	0	768	0.22725	0.040443	0.21359	0.24241	0.045376	0.43392	0.20457	0.19805	0.053895	0.056922	0.14004	0.14511	0.083695	0.29788	0.107	0.21534	-3.2708	-4.0792	-3.6542	-3.7792	-4.1438	-3.8271	-4.1083	-4.2	-3.5729	-4.15	-4.0104	-3.7229	-4.3958	-3.7458	-3.9375	-4.2063	1.829	-9.572	2.798	213.975	-51.578	56.193	12.458	50.640	-104.168	104.978	137.988	139.277	-6.066	190.334	-27.118	105.425	0.00077166	5.9701e-05	3.7614e-05	586.14	1.0188e-06	8.3917e-07	625.58	240.39	1.3202e-06	5.1299e-07	292.86	123.27	107.49	48.476	1.0036e-06	54.333	2.5544e-05	2.3858e-05	7.3755e-06	471.39	2.6011e-07	2.61e-07	510.82	186.3	2.6322e-07	2.6775e-07	209.61	86.45	71.466	33.15	2.8862e-07	36.004	120.700	-2.335	-102.652	-123.073	-40.531	184.476	-124.269	-117.747	-11.734	-25.209	-119.924	-117.001	-115.109	-109.957	-0.454	-113.486	-8191	255	
4036.112	1	1	0	0	0.18523	0.018031	0.18075	0.18215	0.23708	0.20846	0.093675	0.28283	0.12107	0.11667	0.042008	0.03704	0.25307	0.26684	0.078634	0.12425	-3.1813	-4.0604	-3.9333	-3.7333	-4.0854	-3.7229	-3.8854	-4.1146	-3.7479	-3.9625	-4.0729	-3.6729	-4.25	-3.8167	-3.8292	-4.1896	-66.476	11.133	-22.285	161.133	186.756	43.736	156.301	172.832	186.047	-1.040	23.631	197.633	-103.020	-58.670	171.213	200.350	0.00064704	9.6551e-05	2.8927e-05	585.2	1.6022e-06	6.5922e-07	625.87	240.96	7.2206e-07	7.296e-07	294	123.61	108.07	48.752	1.4229e-06	54.761	2.5391e-05	2.5269e-05	7.238e-06	472.66	2.5492e-07	2.8088e-07	511.95	187	2.6273e-07	2.8484e-07	210.54	86.916	71.843	33.37	2.897e-07	36.28	122.429	-45.868	-101.486	-122.655	-78.203	64.686	-124.302	-117.926	3.805	-84.557	-120.259	-117.188	-115.099	-110.037	-28.573	-113.609	-8191	255	
4036.209	1	1	0	0	0.065059	0.15788	0.041914	0.069382	0.17334	0.34662	0.12749	0.13997	0.13091	0.094107	0.047102	0.18926	0.17822	0.13859	0.18506	0.34857	-3.2438	-4.0396	-4.0375	-3.6625	-4.2208	-3.6937	-3.8438	-4.3187	-3.7646	-4.025	-4.2396	-3.7542	-4.2396	-3.9396	-3.8458	-4.1354	-82.913	194.470	160.000	217.073	113.445	-16.320	-32.870	-131.745	85.190	-93.197	71.790	158.165	-82.878	170.435	144.340	130.310	0.00068402	0.00014127	3.7544e-05	587.48	5.8934e-07	7.7078e-07	626.27	241.17	1.3418e-06	1.3963e-06	295.35	124.26	107.77	48.82	8.9539e-07	54.803	2.5916e-05	2.6541e-05	7.1728e-06	473.02	2.6474e-07	2.95e-07	512.25	186.71	2.741e-07	2.9984e-07	210.99	87.137	71.764	33.444	2.8575e-07	36.324	116.327	-71.067	-79.183	-122.760	-53.580	-5.469	-124.320	-117.669	-42.341	3.909	-120.290	-117.099	-114.981	-110.109	-90.602	-113.380	-8191	255	
4036.305	1	1	0	0	0.34609	0.31301	0.12671	0.20041	0.14614	0.020151	0.11625	0.13037	0.092851	0.11535	0.025983	0.087153	0.26425	0.10678	0.12528	0.18655	-3.2896	-3.9521	-4.0563	-3.6	-4.0042	-3.8875	-3.6667	-4.3354	-3.6937	-3.8	-4.0938	-3.7479	-4.1271	-3.9042	-3.7	-4.0521	75.583	182.149	63.897	107.654	-23.480	23.723	168.876	7.791	127.657	216.095	134.300	-80.225	159.230	-12.764	-14.357	124.319	0.00069873	0.00019531	5.4817e-05	581.25	1.5616e-06	8.446e-07	622.53	238.85	1.1751e-06	9.9342e-07	290.71	121.59	106.56	47.52	5.1851e-07	53.66	2.716e-05	2.7508e-05	7.2012e-06	469.87	2.7924e-07	2.9963e-07	509.07	184.8	2.8471e-07	3.0065e-07	208.02	85.57	70.896	32.754	2.8438e-07	35.494	121.053	-11.003	-50.531	-123.080	-86.587	-39.118	-124.223	-117.801	-56.840	-51.832	-120.421	-117.407	-114.891	-110.138	-16.598	-113.586	-8191	255	
4036.401	1	1	0	0	0.11258	0.19465	0.12232	0.13653	0.27771	0.13946	0.35022	0.06533	0.20966	0.13975	0.073273	0.18682	0.18513	0.17958	0.25271	0.24996	-3.5708	-3.9292	-4.0083	-3.7562	-3.9229	-4.0354	-3.9042	-4.2354	-3.7938	-3.9208	-4.0583	-3.6479	-3.9542	-3.9125	-3.7125	-4.2812	-122.780	-130.050	131.766	31.794	215.439	35.302	124.022	56.715	188.231	32.515	221.534	-129.719	214.087	103.772	114.296	57.014	0.0006068	0.00012973	2.1496e-05	582.21	9.0668e-07	1.8316e-06	617.19	238.79	1.2829e-06	1.1136e-06	290.6	121.01	105.89	47.583	2.1507e-06	53.46	2.8333e-05	2.7398e-05	7.0967e-06	468.48	2.9382e-07	2.9516e-07	506.15	184.13	2.9782e-07	2.9029e-07	207.1	85.21	70.683	32.686	2.8057e-07	35.436	111.886	-66.160	-53.281	-123.007	190.442	-16.084	-124.477	-117.682	1.348	14.558	-120.060	-117.323	-114.915	-110.008	-47.222	-113.545	-8191	255	
4036.497	1	1	0	0	0.056078	0.17955	0.13051	0.11344	0.2452	0.20765	0.36307	0.14703	0.18118	0.18843	0.19801	0.095928	0.28869	0.12946	0.046927	0.02603	-3.5479	-3.8312	-4.175	-3.7875	-3.9604	-4.0271	-3.7062	-4.175	-3.9583	-3.8854	-4.3958	-3.7938	-3.9208	-4.1333	-3.5042	-4.2812	-86.587	-5.881	40.278	156.411	156.674	16.714	132.109	113.324	19.161	-27.399	56.337	22.506	206.242	173.685	32.227	35.972	0.00062327	0.00010659	1.4596e-05	581.66	2.6747e-06	7.1427e-07	620.54	238.99	7.8239e-07	1.5235e-06	288.93	121.8	105.86	47.859	7.5906e-07	54.018	2.9074e-05	2.6562e-05	6.9286e-06	468.32	2.9918e-07	2.8469e-07	506.8	184.76	3.0229e-07	2.8223e-07	207.3	85.508	70.862	32.786	2.6649e-07	35.754	121.696	-46.762	-109.418	-122.993	-18.840	-55.279	-124.464	-117.474	-8.076	0.887	-120.228	-117.182	-114.861	-109.840	-39.288	-113.595	-8191	255	
4036.618	1	1	0	0	0.10066	0.1023	0.083517	0.23289	0.13626	0.088933	0.26406	0.12594	0.086126	0.25364	0.11495	0.20248	0.053951	0.13396	0.063949	0.054034	-3.5021	-3.5646	-3.9729	-3.8292	-4.0417	-4.1208	-3.8271	-4.2042	-3.9875	-3.7188	-4.2729	-3.8792	-3.9896	-4.2958	-3.5792	-4.1958	69.425	-46.829	136.584	-121.492	-110.782	-5.284	98.201	139.815	81.228	-121.925	182.300	104.307	88.164	144.812	86.327	216.983	0.0006814	4.4228e-05	6.2992e-05	584.78	2.1437e-06	4.7644e-07	623.47	239.52	1.357e-06	1.1062e-06	292.95	122.97	106.19	48.014	7.2514e-07	54.498	2.906e-05	2.5375e-05	6.6778e-06	470.06	2.979e-07	2.7449e-07	509.02	185.94	2.9634e-07	2.7686e-07	208.52	86.209	71.197	32.959	2.6262e-07	36.008	119.167	0.669	-124.493	-122.704	-72.073	16.327	-124.070	-117.671	-40.693	-23.983	-120.101	-117.127	-114.714	-109.685	-89.656	-113.771	-8191	255	
4036.712	1	1	0	0	0.28621	0.2342	0.039763	0.15772	0.10568	0.14857	0.021976	0.11578	0.15139	0.082089	0.21656	0.10997	0.17762	0.080064	0.083773	0.029003	-3.5458	-3.6417	-4.1417	-3.8375	-3.8375	-4.0833	-3.8	-4.1917	-3.8333	-3.5792	-4.225	-3.8292	-3.8271	-4.1438	-3.6229	-4.1542	81.147	180.275	46.306	165.379	4.499	177.015	96.955	210.338	72.289	213.812	-27.485	194.069	203.992	150.415	-6.833	-17.534	0.00063368	0.00018335	1.5893e-05	583.01	2.1852e-06	1.97e-06	626.43	240.82	1.9079e-06	2.1359e-06	290.55	121.41	105.5	47.618	9.4215e-07	53.237	2.826e-05	2.482e-05	6.4476e-06	471.03	2.8553e-07	2.625e-07	510.18	186.43	2.8217e-07	2.6418e-07	207.55	85.562	70.466	32.602	2.5609e-07	35.42	125.047	-9.275	-90.141	-122.969	-78.866	-20.094	-124.178	-117.635	-53.900	-41.023	-120.306	-117.054	-114.924	-109.796	-58.883	-113.665	-8191	255	
4036.810	1	1	0	0	0.21879	0.29703	0.062932	0.032868	0.10433	0.066427	0.03882	0.057081	0.028163	0.20676	0.14488	0.19597	0.28688	0.31924	0.025523	0.051619	-3.5146	-3.6354	-4.2104	-3.9062	-3.7104	-4.1188	-3.7333	-3.8646	-3.9167	-3.5792	-4.2521	-3.8375	-3.7979	-4.1625	-3.8	-4.0646	-68.618	120.318	220.423	-76.666	-45.887	45.587	57.251	216.104	208.181	-52.505	-107.035	223.823	150.046	115.678	171.093	-111.474	0.00062117	0.00019124	3.4083e-05	579.02	1.6128e-06	8.0237e-07	616.38	237.18	2.1692e-06	9.3408e-07	287.41	119.79	104.06	46.859	1.0701e-06	52.693	2.7123e-05	2.375e-05	6.5185e-06	467.67	2.7319e-07	2.5364e-07	503.84	184.21	2.7215e-07	2.5661e-07	205.05	84.308	69.434	32.124	2.6348e-07	34.934	117.217	-91.861	-124.978	-122.824	17.234	-12.433	-124.293	-117.468	-54.777	-49.039	-120.358	-117.337	-114.956	-109.950	-86.604	-113.443	-8191	255	
4036.906	1	1	0	0	0.095049	0.19631	0.086861	0.28211	0.18686	0.11639	0.33744	0.11382	0.22284	0.18566	0.10591	0.15311	0.0060558	0.1728	0.098289	0.15289	-3.7812	-3.5896	-3.9562	-3.9458	-3.5812	-4.3104	-3.8396	-3.8812	-4.0896	-3.7354	-4.0563	-3.9333	-3.9437	-4.2979	-3.7354	-3.8833	215.888	-111.968	27.900	169.972	-90.654	71.012	106.229	145.907	39.051	-23.967	56.767	135.494	-101.293	161.316	93.309	158.220	0.00072755	0.00015789	1.1313e-05	576.3	1.3802e-06	9.0771e-07	617.45	236.37	1.1634e-06	6.9429e-07	287.08	119.77	103.98	46.959	1.3097e-06	52.697	2.6625e-05	2.2872e-05	6.8772e-06	464.86	2.7232e-07	2.5199e-07	504.56	183.64	2.6885e-07	2.5598e-07	205.25	84.17	69.435	32.216	2.8383e-07	34.982	118.313	-75.173	205.738	-123.081	8.681	-11.332	-124.418	-117.835	-77.445	-13.247	-120.112	-117.240	-114.974	-109.781	-24.251	-113.640	-8191	255	
4037.000	1	1	0	0	0.18258	0.093944	0.094487	0.12018	0.14754	0.070438	0.16554	0.13755	0.057643	0.24094	0.16279	0.06765	0.1783	0.1884	0.26854	0.10806	-3.8063	-3.55	-3.8479	-4.1083	-3.7438	-4.2521	-3.7771	-3.7938	-4.1229	-3.5479	-4.1021	-4.0854	-3.5375	-4.2	-3.9646	-4.1083	-64.389	139.130	131.314	169.741	-87.915	5.026	-104.221	128.173	138.629	135.203	-86.732	215.138	220.659	168.024	36.215	62.621	0.00072374	0.00011012	2.3536e-05	580.48	1.0051e-07	7.7723e-07	618.72	237.33	9.3113e-07	1.2798e-06	288.19	119.68	104.65	47.184	5.5948e-07	53.116	2.6025e-05	2.3238e-05	7.1656e-06	466.86	2.6633e-07	2.5362e-07	505.53	184.08	2.6346e-07	2.5483e-07	206.32	84.526	69.47	32.313	2.9049e-07	35.241	123.502	-86.512	199.943	-122.855	-123.174	-86.926	-124.089	-117.329	-47.943	19.729	-120.185	-116.775	-114.935	-109.965	-2.878	-113.490	-8191	255	
4037.097	1	1	0	0	0.075285	0.2009	0.25247	0.079428	0.10883	0.23308	0.17137	0.27915	0.17958	0.25189	0.19919	0.05875	0.16004	0.16538	0.12869	0.29402	-3.8833	-3.6479	-3.925	-4.0667	-3.6917	-4.0292	-3.8979	-3.8771	-4.1208	-3.7167	-3.8187	-4.1729	-3.6604	-4.0458	-3.7646	-3.8542	111.106	-125.073	-68.176	-42.212	59.430	200.105	186.161	73.118	-83.245	36.166	216.466	61.735	-115.924	-129.190	-101.743	141.898	0.00065908	8.9629e-05	5.0167e-05	579.01	1.5759e-06	7.1539e-07	621	237.37	3.4348e-07	9.8552e-07	286.99	120.63	104.98	47.45	1.1915e-06	53.11	2.5253e-05	2.39e-05	7.3616e-06	466.36	2.5852e-07	2.6416e-07	507.63	184.34	2.5835e-07	2.6407e-07	207.08	84.926	69.688	32.504	2.8664e-07	35.202	126.404	-48.031	-95.535	-122.586	-45.826	-1.203	-124.178	-117.622	205.789	-42.624	-120.130	-117.098	-114.845	-109.794	1.243	-113.376	-8191	255	
4037.217	1	1	0	0	0.086465	0.25311	0.20095	0.25609	0.11629	0.14818	0.15406	0.14089	0.10795	0.052575	0.25161	0.037807	0.26077	0.25547	0.22528	0.32873	-3.8604	-3.7938	-3.8667	-4.0521	-3.7333	-3.9479	-4.0146	-3.6167	-4.0312	-3.775	-3.8896	-4.125	-3.6833	-4.2146	-3.975	-3.7958	-42.828	109.761	-97.443	187.755	184.378	62.463	153.996	-111.396	-70.868	77.609	88.205	156.609	-89.643	-73.155	41.558	152.769	0.00069255	6.5093e-06	3.1264e-05	576.3	1.0718e-06	5.0406e-07	612.9	236.44	5.6251e-07	8.8311e-07	284.28	118.85	103.65	46.436	7.2445e-07	52.148	2.4362e-05	2.4741e-05	7.1773e-06	464	2.5057e-07	2.7038e-07	502.59	182.87	2.5202e-07	2.7582e-07	204.35	83.409	68.776	31.904	2.8348e-07	34.432	120.543	-32.605	-113.030	-123.087	-28.439	76.238	-124.497	-117.571	-20.856	-53.887	-120.538	-117.202	-114.851	-109.859	-26.589	-113.560	-8191	255	
4037.313	1	1	0	0	0.19763	0.040115	0.049451	0.05725	0.1565	0.20922	0.14766	0.13123	0.23234	0.079448	0.20051	0.058315	0.11893	0.33081	0.14027	0.11308	-3.7896	-3.7896	-3.7375	-4.0917	-3.6063	-3.9833	-3.9833	-3.7021	-4.1375	-3.7792	-3.7188	-4.2208	-3.5667	-3.9583	-4.0292	-3.6375	-69.171	204.623	-5.960	-75.263	-95.816	9.082	187.333	156.909	118.254	216.641	165.747	-40.644	149.308	200.565	201.763	94.333	0.00065735	5.5834e-05	1.3332e-05	576.4	8.8695e-07	1.1214e-06	612.7	234.9	6.7237e-07	1.4442e-06	283.7	117.71	102.82	46.391	1.5562e-06	52.097	2.5009e-05	2.6136e-05	7.0309e-06	462.39	2.588e-07	2.8564e-07	501.61	182.05	2.6237e-07	2.8863e-07	203.37	83.047	68.489	31.823	2.789e-07	34.421	121.227	-25.199	-69.847	-122.987	-62.266	-83.414	-124.329	-117.764	-47.419	-18.979	-120.185	-117.234	-114.921	-110.043	-23.442	-113.168	-8191	255	
4037.410	1	1	0	0	0.15951	0.08558	0.071811	0.17127	0.12382	0.11534	0.17918	0.08204	0.12777	0.10115	0.090831	0.29138	0.10239	0.089515	0.1015	0.18753	-3.5854	-3.8688	-3.6188	-4.1625	-3.6875	-3.9146	-4.0208	-3.5896	-4.2333	-3.8083	-3.725	-4.1771	-3.6375	-3.8688	-3.9521	-3.6292	-5.068	83.832	-112.517	-79.099	120.064	70.013	175.932	213.444	175.951	145.966	222.880	-105.313	78.222	147.315	189.190	143.556	0.00067666	9.2637e-05	4.9124e-05	580.02	7.2789e-07	4.8245e-07	613.99	237.22	9.348e-07	3.6908e-07	285.59	119.03	102.73	46.681	8.7446e-07	52.371	2.6047e-05	2.6546e-05	7.0329e-06	463.91	2.7365e-07	2.9141e-07	503.14	183.04	2.7479e-07	2.929e-07	204.39	83.402	68.879	31.981	2.763e-07	34.622	122.290	-38.819	-97.056	-122.787	-24.534	26.949	-124.325	-117.569	-50.095	51.508	-120.048	-117.004	-115.098	-110.023	-53.810	-113.562	-8191	255	
4037.506	1	1	0	0	0.01877	0.050649	0.10959	0.10383	0.085889	0.15268	0.12853	0.050489	0.1595	0.21079	0.20719	0.27142	0.069646	0.051622	0.13221	0.22819	-3.6833	-3.8542	-3.6167	-4.0625	-3.7208	-3.7729	-4.1583	-3.6708	-3.8146	-3.8375	-3.7812	-4.0167	-3.7542	-3.8292	-4.125	-3.6167	-102.944	85.135	169.634	-128.332	61.355	-115.824	224.063	-5.076	167.475	126.586	165.732	-61.484	143.638	139.707	39.671	174.960	0.00060787	0.00011427	3.6538e-05	578.45	1.2099e-06	1.9249e-06	620.63	235.2	5.2284e-07	1.0015e-06	285.98	119.46	103.34	46.917	1.5152e-06	52.889	2.7856e-05	2.6583e-05	6.9682e-06	465.04	2.8615e-07	2.8894e-07	505.3	182.7	2.8854e-07	2.8654e-07	205.22	84.055	69.206	32.196	2.727e-07	35.018	111.833	-65.961	-51.945	-122.867	-66.602	-9.119	-124.172	-117.539	-47.166	-32.325	-120.240	-117.077	-114.688	-109.889	0.463	-113.435	-8191	255	
4037.577	1	1	0	0	0.14761	0.11286	0.053005	0.12103	0.25954	0.21416	0.073781	0.34561	0.046796	0.32463	0.29558	0.19089	0.30578	0.17055	0.22447	0.31682	-3.5687	-3.9958	-3.6063	-4.1333	-3.85	-3.7062	-4.0687	-3.7292	-3.9792	-3.9021	-3.7604	-4.0188	-3.8458	-3.6813	-3.9896	-3.7333	187.989	179.894	88.465	-38.999	79.975	176.333	-97.557	-127.514	117.261	182.005	-71.631	170.702	-117.613	211.796	14.739	129.757	0.0006187	7.4252e-05	9.8244e-06	579.39	1.6953e-06	7.4683e-07	617.74	235.4	1.5638e-06	9.6927e-07	284.18	118.3	102.15	46.335	1.4845e-06	51.732	2.8941e-05	2.5815e-05	6.7896e-06	465.55	2.9719e-07	2.8395e-07	504.91	182.9	3.0262e-07	2.8216e-07	204	83.323	68.647	31.811	2.6668e-07	34.325	120.301	-77.044	222.956	-122.652	-4.267	-34.028	-124.161	-117.341	-18.316	34.532	-120.292	-116.942	-114.805	-109.776	-33.963	-113.396	-8191	255	
4037.698	1	1	0	0	0.13832	0.095546	0.11504	0.11867	0.1283	0.17942	0.14411	0.18799	0.092283	0.3427	0.16836	0.13559	0.27487	0.14777	0.096815	0.12338	-3.4729	-4.075	-3.7167	-4.0813	-3.7438	-3.6958	-4.2167	-3.7729	-3.8667	-3.9958	-3.725	-4.0625	-3.7938	-3.7542	-4.175	-3.9521	86.469	-31.292	17.970	92.633	105.370	-29.352	194.855	115.036	145.731	-73.213	-105.704	86.305	174.710	-70.251	223.369	50.307	0.0007597	0.00016308	5.9425e-05	574.96	8.9695e-07	3.3935e-07	613.47	234.26	4.5658e-07	8.5767e-07	281.56	117.07	101.68	45.841	1.2566e-06	51.456	2.9034e-05	2.5461e-05	6.6241e-06	463.76	2.9584e-07	2.7875e-07	500.95	181.82	2.9824e-07	2.7202e-07	202	82.544	68.041	31.409	2.6145e-07	34.065	118.306	-72.801	-55.383	-122.723	-43.082	106.848	-124.566	-117.783	-19.734	24.356	-120.151	-116.880	-115.179	-109.867	-18.459	-113.563	-8191	255	
4037.794	1	1	0	0	0.16025	0.12407	0.14158	0.11474	0.14742	0.13426	0.12178	0.16644	0.060633	0.25339	0.17574	0.089253	0.14583	0.057407	0.29023	0.19248	-3.5292	-4.1833	-3.5271	-4.05	-3.7979	-3.65	-4.225	-3.775	-3.8375	-4.1354	-3.8354	-4.1062	-4.0083	-3.6479	-4.2271	-3.775	187.964	55.366	-50.639	177.381	-66.841	114.964	187.741	194.753	184.768	-51.155	129.830	190.135	-115.350	9.497	178.360	207.695	0.00056794	2.5031e-05	5.6637e-05	575.17	1.0885e-06	1.7706e-06	614.17	234.35	7.5203e-07	9.2457e-07	282.31	117.06	101.81	46.015	1.2499e-06	51.513	2.8279e-05	2.4974e-05	6.6724e-06	464.45	2.8928e-07	2.7069e-07	500.29	181.87	2.9288e-07	2.678e-07	201.78	82.763	68.065	31.534	2.692e-07	34.222	121.378	-47.640	-131.396	-122.876	-15.323	-43.970	-124.053	-117.663	-24.854	94.596	-120.282	-116.941	-114.940	-110.040	-66.153	-113.143	-8191	255	
4037.890	1	1	0	0	0.21149	0.11823	0.042569	0.084728	0.0086855	0.10913	0.21144	0.29857	0.051688	0.033774	0.07214	0.20797	0.062848	0.069168	0.18493	0.11009	-3.4354	-4.1875	-3.6375	-3.9333	-4	-3.6792	-4.3167	-4.0771	-3.7542	-4.175	-3.7354	-4.0833	-4.0437	-3.6604	-4.025	-3.9896	-52.600	-89.966	-39.834	-98.331	23.067	203.853	144.856	-112.041	-43.216	24.587	134.480	-122.272	148.390	184.661	-75.662	163.458	0.00052498	8.7708e-05	1.7299e-05	574.24	1.6118e-06	1.6563e-06	616.24	235.18	1.8844e-06	8.5737e-07	282.23	118.14	101.82	46.195	4.3025e-07	51.764	2.7956e-05	2.4906e-05	6.8855e-06	465.28	2.8771e-07	2.7573e-07	502.7	182.28	2.9317e-07	2.7236e-07	202.76	83.196	68.179	31.699	2.9333e-07	34.539	113.932	-21.869	-102.011	-122.700	-34.994	-40.836	-124.113	-117.832	2.894	-17.078	-120.311	-117.031	-115.082	-109.674	-134.335	-113.267	-8191	255	
4038.009	1	1	0	0	0.34553	0.095937	0.33411	0.11735	0.21379	0.047656	0.25488	0.18395	0.34758	0.098645	0.040603	0.078725	0.1936	0.19709	0.083753	0.21129	-3.3021	-4.1458	-3.6229	-3.9208	-3.9542	-3.6708	-4.1458	-3.8125	-3.6333	-4.1333	-3.8312	-3.7125	-4.2875	-3.8521	-3.9854	-4.2104	-0.544	98.600	-18.535	-129.988	-19.389	-95.443	219.377	174.170	211.171	102.327	187.603	197.323	209.706	-119.179	39.451	155.764	0.00070709	8.7641e-05	5.9358e-05	578.06	1.3436e-06	9.2457e-07	615.09	236.09	1.7395e-06	7.7117e-07	284.1	118.41	102.2	46.248	1.1698e-06	51.848	2.8674e-05	2.5197e-05	7.506e-06	466.68	2.9518e-07	2.8162e-07	505.31	183.39	3.0021e-07	2.7789e-07	204.85	83.738	68.533	31.788	3.1743e-07	34.506	127.377	-1.655	-78.816	-122.672	-59.674	-22.819	-123.773	-117.714	-37.375	23.572	-120.239	-117.010	-115.012	-109.561	-105.037	-113.487	-8191	255	
4038.105	1	1	0	0	0.23627	0.10072	0.042027	0.068865	0.041686	0.11093	0.2211	0.17275	0.28859	0.069033	0.062434	0.13709	0.1468	0.10579	0.29352	0.19499	-3.2438	-4.1646	-3.8812	-3.8792	-4.1	-3.6562	-4.0792	-4.0687	-3.6896	-4.1271	-3.7833	-3.7313	-4.2562	-3.9813	-3.925	-3.9333	-127.767	-42.805	209.015	-130.671	165.661	-11.844	146.889	104.601	-6.951	33.651	142.633	194.673	203.941	20.197	-123.051	150.936	0.00073577	8.5392e-05	3.7761e-05	580.04	7.7053e-07	1.5056e-06	611.03	232.57	4.2514e-07	1.4124e-06	281.14	116.67	100.69	45.359	7.6897e-07	50.891	2.8582e-05	2.5709e-05	7.9858e-06	466.03	2.9277e-07	2.8691e-07	502.94	181.32	3.0015e-07	2.8811e-07	202.42	82.105	67.485	31.213	3.2787e-07	33.81	116.858	-84.981	218.710	-122.712	-15.833	-30.618	-124.235	-117.473	-8.799	-30.695	-120.259	-116.904	-115.138	-109.959	-63.262	-113.564	-8191	255	
4038.177	1	1	0	0	0.25638	0.086708	0.11554	0.22034	0.074439	0.16053	0.13717	0.20479	0.058448	0.2162	0.11835	0.19376	0.10051	0.2878	0.11767	0.12801	-3.3	-4.1354	-3.925	-3.7792	-4.3479	-3.7104	-3.9562	-4.0708	-3.4	-3.9562	-3.9583	-3.8187	-4.2458	-3.7146	-3.8958	-4.1604	-133.666	53.397	-6.926	141.205	128.420	-52.017	103.376	164.921	16.089	-129.768	157.797	180.002	-43.213	-122.717	154.262	219.172	0.00064114	8.9604e-05	3.9958e-05	573.2	1.4623e-06	1.4967e-06	610.84	232.33	4.3119e-07	9.9539e-07	279.43	116.24	100.47	45.216	6.3705e-07	50.799	2.8699e-05	2.7076e-05	8.4067e-06	463.23	2.9409e-07	3.0282e-07	501.02	180.54	2.9658e-07	3.0775e-07	201.36	81.958	67.216	31.175	3.3452e-07	33.764	125.147	184.438	-45.573	-122.498	-43.584	-62.059	-124.449	-117.676	-50.555	-30.115	-119.994	-116.953	-114.824	-109.759	-40.470	-113.464	-8191	255	
4038.298	1	1	0	0	0.079332	0.1639	0.097727	0.26013	0.048338	0.13649	0.070915	0.2148	0.2248	0.08763	0.097227	0.16348	0.19559	0.081988	0.33067	0.053387	-3.2667	-4.1521	-3.7667	-3.6667	-4.125	-3.6417	-4.1042	-4.0833	-3.6562	-4.1042	-3.9417	-3.6458	-4.1333	-3.875	-3.8187	-4.0708	55.580	152.314	-26.630	-134.548	-115.241	23.917	-20.878	173.888	51.956	-129.144	-20.051	176.156	220.266	178.591	-72.642	92.660	0.00062786	2.1308e-05	3.2486e-05	571.84	9.5952e-07	1.056e-06	608.58	232.63	4.2076e-07	2.1124e-07	279.87	116.08	100.3	45.5	9.6685e-07	50.794	2.8748e-05	2.9068e-05	8.3452e-06	462.45	2.9156e-07	3.2127e-07	500.94	180.76	2.9689e-07	3.2391e-07	201.98	81.913	67.286	31.313	3.2599e-07	33.889	126.369	-106.057	-72.090	-122.564	-29.660	-30.870	-124.300	-117.589	-108.611	-56.568	-120.336	-116.922	-115.005	-109.522	-16.467	-113.313	-8191	255	
4038.394	1	1	0	0	0.13175	0.056536	0.14325	0.21044	0.0921	0.20091	0.093933	0.20435	0.070057	0.16922	0.15506	0.33088	0.1567	0.076322	0.078467	0.29654	-3.3208	-3.9979	-3.9333	-3.5896	-4.0813	-3.7646	-3.8688	-4.2562	-3.6375	-3.9437	-4.0479	-3.55	-4.2896	-3.8104	-3.7062	-4.2	-92.236	-45.627	-6.925	214.506	85.173	119.125	140.892	186.458	98.597	-33.094	-116.679	190.241	150.502	202.421	86.260	-130.750	0.00059343	0.0001763	6.6198e-05	571.64	2.8809e-07	4.9911e-07	612.29	233.53	4.369e-07	1.3962e-06	282.01	116.51	100.91	45.63	1.1367e-06	51.311	2.9004e-05	3.0059e-05	8.2177e-06	463.39	3.0015e-07	3.3217e-07	502.73	181.64	3.0803e-07	3.3956e-07	203.3	82.339	67.587	31.491	3.2981e-07	34.166	112.101	-85.983	-87.112	-122.784	-5.981	-55.660	-124.251	-117.512	-43.255	48.649	-120.210	-116.810	-114.750	-109.743	17.852	-113.442	-8191	255	
4038.490	1	1	0	0	0.27907	0.15041	0.18615	0.034128	0.060258	0.20096	0.13115	0.15203	0.13526	0.27135	0.055877	0.07687	0.085036	0.16032	0.075505	0.15405	-3.3063	-3.8521	-3.9167	-3.6229	-3.9938	-3.8583	-3.7771	-4.1708	-3.6958	-4.0146	-3.9958	-3.4729	-4.2125	-4.0354	-3.7458	-4.1833	-77.527	79.581	142.236	110.225	109.753	1.196	135.203	191.610	103.099	217.647	126.088	220.477	-87.843	196.566	19.112	188.523	0.00057902	4.1156e-05	5.2269e-05	574.08	1.3053e-06	7.9801e-07	612.77	232.37	7.0313e-07	3.675e-07	281.24	115.27	100.39	45.021	1.1391e-06	50.437	3.0845e-05	3.1465e-05	8.2677e-06	464.61	3.1806e-07	3.4408e-07	502.6	181.33	3.2552e-07	3.474e-07	201.81	81.719	67.305	31.084	3.2321e-07	33.595	118.885	-114.742	-79.017	-122.636	-81.230	-62.983	-124.155	-117.609	224.365	-50.685	-120.294	-117.006	-115.099	-109.713	-69.669	-113.374	-8191	255	
4038.611	1	1	0	0	0.12931	0.37266	0.16314	0.27833	0.11077	0.11678	0.076654	0.21327	0.35909	0.24582	0.28199	0.10455	0.018712	0.11147	0.087312	0.21873	-3.4062	-3.7604	-4.1208	-3.5021	-3.9854	-3.8396	-3.6833	-4.2271	-3.7812	-3.7583	-4.0333	-3.5479	-4.1188	-3.8979	-3.5833	-4.1042	159.588	-19.894	-31.980	140.211	215.357	-123.646	128.703	99.405	131.096	100.627	173.402	11.966	176.771	-45.463	164.474	64.561	0.00046153	0.00012471	4.5807e-05	571.82	1.1206e-06	9.6038e-07	605.53	230.5	1.8177e-06	2.1569e-06	278.79	114.17	99.003	44.367	1.1562e-06	49.604	3.1792e-05	3.1168e-05	8.1905e-06	462.03	3.3593e-07	3.3815e-07	498.58	179.59	3.382e-07	3.3495e-07	199.84	80.735	66.757	30.681	3.1431e-07	33.117	106.942	-33.201	-103.839	-122.612	-23.179	-38.576	-124.575	-117.695	-55.325	21.757	-120.453	-117.203	-114.961	-109.792	-7.632	-113.708	-8191	255	
4038.707	1	1	0	0	0.15691	0.18329	0.15679	0.2985	0.19298	0.176	0.16395	0.093375	0.18549	0.10267	0.061849	0.19768	0.12978	0.32977	0.13653	0.09966	-3.375	-3.8396	-3.9604	-3.6937	-3.8542	-4.0229	-3.6729	-4.1937	-3.7958	-3.6354	-4.2521	-3.6667	-3.8708	-4.0437	-3.6167	-4.1021	-38.631	106.293	56.561	139.586	-115.614	146.686	-107.496	189.840	-28.751	-33.433	-64.178	155.929	108.446	185.714	56.049	82.229	0.00058013	0.00018329	3.2404e-05	570.06	1.7884e-06	1.4717e-06	608.54	230.8	1.3161e-06	1.6117e-06	278.18	113.82	98.925	44.659	3.0084e-07	49.883	3.3101e-05	3.0515e-05	7.959e-06	461.66	3.4196e-07	3.3145e-07	499.31	179.98	3.461e-07	3.2759e-07	199.74	80.932	66.773	30.746	3.1115e-07	33.282	110.476	-121.993	-95.289	-122.631	-60.365	-22.162	-124.126	-117.435	-17.331	3.750	-120.299	-116.956	-114.909	-109.748	84.267	-113.511	-8191	255	
4038.801	1	1	0	0	0.14773	0.18998	0.10115	0.069602	0.098897	0.28722	0.11943	0.33693	0.2643	0.10799	0.20301	0.11588	0.16659	0.12865	0.20294	0.14017	-3.4167	-3.5979	-4.0938	-3.6688	-3.9917	-4.1583	-3.7083	-4.0188	-3.8375	-3.5667	-4.1562	-3.7708	-3.9896	-4.1875	-3.6854	-4.1396	-73.384	-41.676	194.364	142.457	-49.497	11.277	124.517	-124.733	-120.161	208.821	194.998	184.723	100.010	20.669	0.719	-9.880	0.00067605	0.00011315	3.073e-05	567.64	1.3788e-06	1.4055e-06	608.2	232.76	1.2846e-06	1.8846e-06	279.15	114.59	99.236	44.823	5.684e-07	50.311	3.368e-05	2.9906e-05	7.9044e-06	462	3.5138e-07	3.26e-07	499.79	180.61	3.5116e-07	3.2424e-07	200.76	81.444	66.938	30.857	3.1274e-07	33.664	118.247	-49.552	-93.674	-122.715	-52.147	-19.211	-124.078	-117.468	-57.307	22.012	-120.170	-116.649	-114.959	-109.688	-49.207	-113.231	-8191	255	
4038.875	1	1	0	0	0.097271	0.19388	0.051737	0.017132	0.093652	0.10579	0.10711	0.11841	0.052637	0.20742	0.16542	0.23724	0.15837	0.17925	0.060754	0.20439	-3.6958	-3.5354	-3.9688	-3.7104	-3.8333	-4.1333	-3.6667	-4.0125	-3.7646	-3.5896	-4.2021	-3.9542	-3.9	-4.3562	-3.6125	-4.0708	-107.533	139.837	-54.973	50.978	215.180	-105.691	114.880	-127.849	-43.730	-125.515	171.210	202.264	204.185	-119.743	122.151	96.323	0.00056437	3.5857e-05	2.1607e-05	573.3	2.0193e-06	1.2543e-06	613.3	232.31	2.025e-06	1.3712e-06	280.2	115.9	99.354	44.604	1.4059e-06	50.323	3.3722e-05	3.0139e-05	8.0267e-06	464.7	3.4784e-07	3.2642e-07	503.01	181.44	3.5164e-07	3.3049e-07	201.43	82.036	67.04	30.824	3.2208e-07	33.665	121.588	138.050	-45.271	-122.917	-2.758	-20.188	-124.106	-117.528	0.260	26.593	-120.275	-117.007	-115.316	-109.559	-40.808	-113.430	-8191	255	
4038.993	1	1	0	0	0.083146	0.13472	0.17099	0.17338	0.038604	0.049047	0.17947	0.05154	0.22135	0.32645	0.12706	0.38287	0.14791	0.2495	0.095949	0.094954	-3.5479	-3.6396	-4.1104	-3.875	-3.8021	-4.0437	-3.575	-3.9354	-3.9417	-3.5083	-4.2521	-3.9542	-3.7854	-4.2937	-3.65	-4.0854	139.522	-108.022	135.477	207.345	157.982	147.975	-76.005	159.580	-17.816	-21.476	147.315	81.678	-70.162	211.836	-41.359	130.796	0.00064697	0.00013532	2.0027e-05	567.84	1.0904e-06	1.7294e-06	608.48	230.47	3.14e-07	1.3441e-06	277.64	114.05	98.762	44.173	8.5594e-07	49.514	3.3041e-05	2.9546e-05	8.2076e-06	463.41	3.3979e-07	3.1857e-07	499.95	180.36	3.3952e-07	3.2009e-07	199.7	80.908	66.305	30.392	3.3381e-07	33.028	131.487	-68.179	-23.971	-122.969	22.462	-20.964	-124.431	-117.705	-58.120	-44.248	-120.052	-117.198	-114.882	-109.746	82.490	-113.354	-8191	255	
4039.090	1	1	0	0	0.18	0.13427	0.14453	0.20238	0.25662	0.12252	0.25775	0.21568	0.25208	0.27496	0.20973	0.20163	0.13083	0.092125	0.15766	0.20033	-3.7083	-3.625	-4.0938	-3.775	-3.5604	-4.1687	-4.0167	-3.9604	-4.075	-3.6813	-4.1979	-3.9813	-3.5021	-4.1312	-3.8854	-3.7646	176.296	20.277	-99.880	100.906	50.024	47.206	162.435	168.029	126.948	89.189	72.142	168.538	161.835	-70.402	40.613	143.056	0.00053431	7.5437e-05	1.5758e-05	573.71	9.0126e-07	9.1194e-07	605.64	230.34	1.3504e-06	1.368e-06	275.49	113.98	98.25	43.882	1.0395e-06	49.569	3.2258e-05	2.925e-05	8.4797e-06	463.36	3.3705e-07	3.1308e-07	499.11	179.69	3.3245e-07	3.2027e-07	199.68	80.657	66.172	30.307	3.5379e-07	33.069	125.107	-42.321	211.723	-122.957	190.207	-29.087	-124.275	-117.618	29.572	-20.615	-120.264	-117.019	-115.111	-109.551	-17.089	-113.387	-8191	255	
4039.186	1	1	0	0	0.089987	0.041912	0.17032	0.1803	0.060966	0.085436	0.12354	0.22065	0.017488	0.094741	0.1655	0.094107	0.20556	0.19081	0.11016	0.23364	-3.5708	-3.6542	-4.0458	-3.9625	-3.5583	-4.1792	-3.8333	-3.9958	-4.1438	-3.6542	-3.9625	-4.1062	-3.6437	-4.0813	-3.825	-3.8708	-25.373	-133.813	-81.551	-99.878	-31.172	-75.304	148.607	114.143	-62.253	91.529	-103.505	-87.598	-112.775	167.593	-34.484	91.791	0.00059476	0.00021206	2.963e-05	572.39	2.4793e-06	9.7629e-07	610.01	231.47	2.0931e-07	1.4651e-06	276.48	114.41	98.451	43.929	1.3417e-06	50.082	3.2201e-05	2.9283e-05	8.9977e-06	464	3.392e-07	3.239e-07	502.62	180.36	3.3481e-07	3.3026e-07	200.24	80.898	66.275	30.427	3.6992e-07	33.257	116.088	-91.613	-43.049	-122.794	-58.579	86.743	-124.320	-117.465	46.406	-23.293	-119.931	-117.069	-114.917	-109.733	-85.513	-113.311	-8191	255	
4039.282	1	1	0	0	0.095567	0.18784	0.019546	0.15862	0.14433	0.11027	0.14313	0.0093613	0.18245	0.29637	0.020636	0.077327	0.17998	0.19629	0.28211	0.059003	-3.7667	-3.5167	-3.9167	-4.1125	-3.5708	-4.0312	-3.9771	-3.8417	-4.0312	-3.6729	-4.0563	-4.05	-3.5917	-4.1979	-3.95	-3.8354	52.715	-121.266	-26.462	-114.456	-111.569	184.522	168.632	223.312	-98.366	-120.131	132.156	-68.322	-12.777	175.740	39.358	26.165	0.00059325	0.00012443	2.5944e-05	575.49	2.5812e-06	2.0511e-07	610.66	231.01	4.1972e-07	4.2985e-07	278.38	115.09	98.62	44.431	1.807e-06	50.212	3.2224e-05	3.0898e-05	9.4257e-06	465.41	3.3848e-07	3.3911e-07	504.78	180.62	3.3104e-07	3.4349e-07	201.55	81.338	66.365	30.637	3.7111e-07	33.531	117.715	-96.858	142.140	-122.847	-38.811	213.077	-124.425	-117.724	-55.334	-90.686	-120.089	-116.944	-114.670	-109.554	33.137	-113.195	-8191	255	
4039.402	1	1	0	0	0.048571	0.017515	0.16125	0.15377	0.11133	0.1771	0.024811	0.093594	0.096989	0.072831	0.022423	0.23095	0.23915	0.15143	0.16944	0.17644	-3.6667	-3.6625	-3.9667	-4.1917	-3.5708	-4.0729	-4.0708	-3.8979	-4.1813	-3.7042	-3.8937	-4.2625	-3.7	-4.1875	-4.0458	-3.7812	-20.361	23.976	-129.743	165.153	159.949	91.997	-110.852	0.278	155.271	123.512	-34.352	192.351	50.751	52.061	182.646	100.836	0.00058772	0.00010774	5.5983e-05	574.27	1.4455e-06	8.4588e-07	614.53	230.91	1.2556e-06	8.1452e-07	276.17	113.7	97.73	43.742	2.1742e-06	49.067	3.1867e-05	3.2279e-05	9.3074e-06	465.47	3.3168e-07	3.5379e-07	505.66	180.25	3.353e-07	3.6084e-07	199.87	80.354	65.66	30.25	3.6557e-07	32.794	120.066	-109.834	-118.626	-122.677	18.677	-85.885	-124.348	-117.405	-0.184	-102.095	-120.179	-116.937	-115.007	-109.800	-44.768	-113.140	-8191	255	
4039.474	1	1	0	0	0.27062	0.30216	0.27504	0.035627	0.14607	0.19713	0.2057	0.090016	0.098898	0.17879	0.035368	0.15289	0.19073	0.15989	0.16048	0.11188	-3.9292	-3.7042	-3.7042	-4.2396	-3.5438	-4.2146	-4.0042	-3.5958	-4.2104	-3.8167	-3.9146	-4.2583	-3.6896	-3.7854	-3.9542	-3.7771	222.291	176.268	56.035	44.637	-45.663	1.517	197.677	-98.099	-7.331	-108.770	-61.980	-112.709	165.183	-18.259	48.423	223.907	0.00054429	8.1676e-05	4.6472e-05	568.93	1.0352e-06	8.9624e-07	605.38	228.19	1.2837e-07	9.7828e-07	275.21	112.37	96.944	43.34	1.7551e-06	48.524	3.2275e-05	3.408e-05	9.1993e-06	461.78	3.3924e-07	3.7183e-07	500.09	178.6	3.4286e-07	3.7537e-07	198.8	79.456	65.309	29.979	3.6319e-07	32.488	115.074	-34.876	-111.811	-122.750	-44.386	145.799	-124.035	-117.459	-58.742	196.790	-119.973	-116.835	-114.826	-109.552	-32.259	-113.446	-8191	255	
4039.570	1	1	0	0	0.13782	0.17057	0.097555	0.08496	0.17435	0.22606	0.23905	0.27244	0.12248	0.26337	0.1523	0.3803	0.21717	0.080631	0.2187	0.18447	-3.7958	-3.8833	-3.7271	-4.2271	-3.6583	-3.8812	-4.0938	-3.6708	-3.9875	-3.8396	-3.6813	-4.1271	-3.6688	-4.0813	-3.9542	-3.55	51.380	30.515	127.660	174.387	165.680	-42.318	200.325	182.740	85.681	111.617	-31.963	163.705	184.382	-125.189	44.320	112.907	0.00062576	8.2935e-05	5.1436e-05	566.78	3.695e-07	9.9915e-07	606.17	229.45	7.4327e-07	1.2621e-06	275.49	112.76	97.429	43.491	1.0672e-06	48.946	3.367e-05	3.4686e-05	9.0553e-06	461.39	3.516e-07	3.7436e-07	500.11	179.04	3.521e-07	3.7476e-07	198.92	79.862	65.691	30.137	3.5034e-07	32.676	114.091	-117.349	-93.916	-122.906	-90.447	-8.332	-124.173	-117.591	-92.520	-7.946	-120.262	-117.033	-114.914	-109.633	32.693	-113.451	-8191	255	
4039.691	1	1	0	0	0.10503	0.030396	0.17219	0.15692	0.041814	0.20028	0.14817	0.20055	0.1038	0.2102	0.090121	0.074696	0.057269	0.088968	0.18931	0.25297	-3.7667	-3.7542	-3.6917	-4.2458	-3.7729	-3.7625	-4.2146	-3.6688	-3.9292	-3.9083	-3.7313	-4.1271	-3.9542	-3.7729	-4.025	-3.7938	63.872	-112.942	208.639	-114.925	-126.993	155.546	-133.630	157.169	-64.510	-82.000	220.501	164.862	-4.455	-118.330	-25.078	146.587	0.00055378	5.3879e-05	1.3844e-05	572.45	3.8003e-07	5.0644e-07	610.52	229.34	4.8656e-07	2.0039e-06	276.46	113.47	97.346	43.66	3.0801e-07	49.496	3.4328e-05	3.3114e-05	8.8334e-06	462.21	3.6095e-07	3.6393e-07	501.94	179.35	3.6019e-07	3.6312e-07	199.24	80.132	65.892	30.272	3.3925e-07	32.979	116.538	-64.554	-92.175	-122.870	-77.866	-4.825	-124.035	-117.616	-91.028	-60.310	-120.017	-117.093	-115.055	-109.328	131.555	-113.045	-8191	255	
4039.785	1	1	0	0	0.014111	0.046131	0.091994	0.029753	0.052721	0.079973	0.16008	0.22062	0.24947	0.20284	0.28576	0.078965	0.286	0.025141	0.37381	0.066471	-3.7687	-3.7458	-3.575	-4.2312	-3.8625	-3.8021	-4.2229	-3.7479	-4.0229	-4.1354	-3.6104	-4.175	-3.8917	-3.675	-4.1333	-3.8083	21.327	97.496	120.851	-75.044	7.806	92.887	-66.664	163.899	72.500	-124.297	99.871	11.948	166.654	-131.722	-15.279	-133.768	0.00059653	0.00014773	6.0125e-05	570.65	1.8413e-07	1.9615e-06	613.85	231.19	1.4489e-06	1.4753e-06	276.53	113.7	97.394	43.653	5.2268e-07	49.204	3.5168e-05	3.2822e-05	8.6401e-06	463.3	3.7674e-07	3.5962e-07	503.21	180.18	3.7594e-07	3.5527e-07	199.97	80.345	65.82	30.134	3.4082e-07	32.854	116.985	-56.032	-67.958	-122.731	217.065	-16.700	-124.180	-117.426	4.289	-39.488	-119.993	-116.973	-114.669	-109.542	-24.640	-112.968	-8191	255	
4039.881	1	1	0	0	0.11554	0.084493	0.34572	0.17865	0.11761	0.12772	0.34935	0.098088	0.15766	0.090363	0.14973	0.075186	0.21733	0.097004	0.058365	0.018341	-3.6	-4.0792	-3.5938	-4.1062	-3.8917	-3.8875	-4.2188	-3.7771	-3.9354	-4.175	-3.6729	-3.9521	-4.0396	-3.7292	-4.0875	-3.725	39.507	199.910	206.432	196.082	-33.974	-13.355	120.321	-41.967	-72.418	97.056	157.633	-74.602	-63.194	162.329	72.448	99.305	0.00059608	0.00010846	4.3381e-05	571.84	8.1654e-07	1.4597e-06	607.59	229.05	1.9372e-06	5.2621e-07	274.04	111.71	96.308	42.974	1.9025e-06	48.418	3.5348e-05	3.1727e-05	8.3686e-06	462.1	3.7006e-07	3.4414e-07	500.23	178.7	3.7121e-07	3.4446e-07	197.65	79.163	65.03	29.627	3.3177e-07	32.296	118.878	-66.243	-103.591	-122.796	-45.109	-30.651	-124.308	-117.853	-22.494	24.508	-120.280	-116.857	-115.103	-109.745	24.841	-113.309	-8191	255	
4039.979	1	1	0	0	0.163	0.037703	0.12719	0.10225	0.14066	0.10754	0.10641	0.13873	0.15453	0.13875	0.20879	0.36762	0.32117	0.13477	0.11021	0.18159	-3.3542	-3.8312	-3.5542	-4.175	-3.8021	-3.5312	-4.2542	-3.7646	-3.8812	-4.1167	-3.7083	-4.0479	-3.8896	-3.7792	-4.0042	-3.8542	-67.458	-44.730	26.835	-95.939	-33.770	107.195	-38.391	182.169	49.691	110.651	19.627	146.126	122.985	153.410	-83.518	138.325	0.00050596	0.00014294	2.8444e-05	569.13	1.2555e-06	5.273e-07	608.46	228.59	1.9482e-06	1.3882e-06	274.51	110.97	96.641	42.785	1.1089e-06	48.436	3.495e-05	3.1279e-05	8.2699e-06	461.95	3.6318e-07	3.3738e-07	498.19	178.63	3.6096e-07	3.3854e-07	197.43	79.261	65.058	29.599	3.3246e-07	32.442	125.414	-10.858	-50.801	-122.780	-81.580	8.035	-124.153	-117.595	-11.019	-28.419	-120.235	-116.873	-115.067	-109.588	-103.458	-113.174	-8191	255	
4040.074	1	1	0	0	0.11418	0.22329	0.15906	0.15773	0.12333	0.24828	0.17134	0.25705	0.30402	0.15617	0.14635	0.16574	0.32154	0.1495	0.085203	0.18605	-3.4521	-4.0479	-3.8021	-4.0021	-4.025	-3.5833	-4.2104	-3.9583	-3.8396	-4.1104	-3.7646	-3.8958	-4.0563	-3.6625	-4.0542	-3.9729	129.172	-12.597	147.855	-70.104	202.624	-84.286	22.642	144.826	27.734	133.850	-52.846	13.357	140.663	-110.058	-94.970	43.138	0.00059325	0.00012228	2.6073e-05	573.48	2.1149e-06	8.8514e-07	609.02	228.89	1.0121e-06	2.0386e-06	274.95	112.18	96.578	43.208	1.4424e-06	48.834	3.4236e-05	3.0264e-05	8.3431e-06	464.66	3.4794e-07	3.3194e-07	500.83	179.26	3.4575e-07	3.2579e-07	197.94	79.657	65.055	29.741	3.3666e-07	32.701	116.358	-91.601	-72.521	-122.824	-52.910	-55.809	-124.332	-117.345	-54.098	20.926	-120.145	-116.820	-114.789	-109.563	24.882	-112.835	-8191	255	
4040.170	1	1	0	0	0.1078	0.15708	0.1289	0.14655	0.040596	0.15311	0.18528	0.1745	0.15176	0.14037	0.13602	0.16884	0.31684	0.12595	0.057818	0.060278	-3.2354	-4.0417	-3.6813	-3.9979	-4.0062	-3.6896	-4.1083	-3.9042	-3.6875	-4.3812	-3.7917	-3.7979	-4.1458	-3.6521	-3.8396	-3.9458	-78.624	57.969	10.131	147.154	3.689	68.409	68.222	16.941	81.172	0.786	73.023	-131.317	207.299	-83.937	-98.467	222.985	0.00060977	0.00011551	3.712e-05	570.36	1.0981e-06	1.4551e-06	611.92	230.27	7.4861e-07	6.3673e-07	275.8	112.17	96.443	43.181	3.7091e-07	49.071	3.2596e-05	2.9239e-05	8.6651e-06	464.88	3.3722e-07	3.1938e-07	503.43	179.72	3.4018e-07	3.1495e-07	198.94	79.933	65.101	29.814	3.4831e-07	32.897	115.603	-102.236	-81.475	-122.794	-24.837	9.783	-124.304	-117.495	-40.819	-10.746	-120.055	-116.854	-114.843	-109.487	-106.925	-113.111	-8191	255	
4040.291	1	1	0	0	0.14686	0.1744	0.061609	0.18182	0.1355	0.080012	0.15235	0.14647	0.10373	0.25276	0.17737	0.078776	0.10606	0.1709	0.26308	0.20785	-3.2687	-4.1146	-3.7375	-3.8958	-4.1438	-3.5104	-3.8521	-4.1062	-3.6458	-3.9917	-3.8833	-3.8875	-4.0479	-3.7583	-4.0458	-3.8792	-92.750	157.057	-24.190	-131.437	47.272	79.218	178.382	169.050	28.637	51.683	107.697	166.127	78.382	221.063	10.094	207.158	0.00055366	3.6428e-05	3.3129e-05	572.78	2.3351e-06	9.6636e-07	610.17	229.03	9.0364e-07	1.5743e-06	274.08	111.4	95.367	42.522	1.0122e-06	48.015	3.1466e-05	2.8323e-05	8.8201e-06	464.46	3.1659e-07	3.0917e-07	504.14	178.82	3.1704e-07	3.0655e-07	197.58	78.762	64.325	29.308	3.4664e-07	32.088	112.699	-62.895	-39.924	-122.720	-3.117	-79.605	-124.232	-117.714	-51.695	-23.134	-120.135	-116.658	-115.039	-109.512	-3.067	-113.422	-8191	255	
4040.387	1	1	0	0	0.21036	0.056282	0.22712	0.14359	0.15469	0.15946	0.31394	0.15208	0.37254	0.1911	0.23651	0.13184	0.16757	0.14624	0.099866	0.081569	-3.2729	-4	-3.7833	-3.7833	-4.1125	-3.6562	-4.1188	-4.1937	-3.4167	-4.1167	-3.8479	-3.7958	-4.0833	-3.6354	-4.0146	-3.9896	190.040	-17.946	0.172	101.296	110.553	-123.048	210.973	-85.329	-110.392	67.486	85.107	-61.280	111.036	-73.220	-111.418	-125.904	0.00056464	9.8226e-05	2.2493e-05	570.46	1.4823e-06	1.2495e-06	609.95	228.28	7.7102e-07	3.4578e-07	271.75	109.94	94.67	42.114	1.4168e-06	47.554	2.958e-05	2.8086e-05	8.6738e-06	461.66	3.059e-07	3.1024e-07	501.17	177.69	3.0532e-07	3.117e-07	196.02	77.918	63.749	29.04	3.485e-07	31.8	112.202	-78.571	195.015	-122.776	-34.145	-16.497	-124.225	-117.434	11.234	81.745	-120.110	-116.596	-114.682	-109.565	-5.297	-113.314	-8191	255	
4040.483	1	1	0	0	0.2541	0.12303	0.17187	0.2003	0.16495	0.10932	0.25002	0.13399	0.19079	0.24707	0.2725	0.10282	0.11362	0.18885	0.11608	0.035456	-3.1833	-4.0792	-3.7417	-3.6146	-4.1479	-3.5187	-3.8667	-4.2458	-3.5187	-3.9938	-3.8187	-3.7271	-4.2167	-3.7229	-3.7625	-4.0208	-132.722	-65.912	31.483	168.551	-108.339	215.876	150.254	128.717	91.657	-17.205	173.499	179.317	-103.712	91.802	178.071	97.852	0.00057393	5.543e-05	4.3395e-05	570.71	1.3786e-06	2.0815e-07	608.76	229.05	1.4007e-06	3.117e-07	272.18	110.46	94.913	42.125	1.1521e-06	47.893	2.9454e-05	2.9946e-05	8.7952e-06	463.03	3.0498e-07	3.3045e-07	501.71	177.73	3.1249e-07	3.3639e-07	196.95	78.281	64.078	29.135	3.4806e-07	31.978	111.259	140.688	-82.568	-123.108	-53.889	23.420	-124.035	-117.458	-69.095	156.928	-120.011	-116.632	-114.547	-109.598	-12.558	-113.307	-8191	255	
4040.579	1	1	0	0	0.031389	0.16968	0.18348	0.079907	0.013512	0.18052	0.21801	0.2183	0.033654	0.079827	0.25237	0.17367	0.13967	0.04546	0.041311	0.11218	-3.275	-3.9667	-3.95	-3.6979	-4.1667	-3.7208	-3.7	-4.0792	-3.4958	-3.8812	-4.0917	-3.5771	-3.9688	-3.7938	-3.8083	-4.1021	2.060	165.039	-21.627	178.853	187.396	191.505	101.559	209.279	-126.718	-107.667	149.087	205.647	37.888	-10.920	-28.566	-42.428	0.00056784	4.4283e-05	6.7416e-05	572.23	1.9521e-06	3.6684e-07	609.9	228.59	6.5924e-07	1.1351e-06	272.49	111.14	95.364	42.092	1.1535e-06	48.121	3.0322e-05	3.2177e-05	8.8323e-06	463.57	3.2106e-07	3.5878e-07	503.98	178.16	3.318e-07	3.6615e-07	197.47	78.626	64.121	29.231	3.5791e-07	32.174	118.341	55.248	-73.244	-122.982	-85.192	25.920	-124.217	-117.615	-76.159	-69.995	-120.331	-116.661	-114.790	-109.530	-30.437	-113.220	-8191	255	
4040.700	1	1	0	0	0.17532	0.10471	0.2116	0.059076	0.15467	0.094787	0.13695	0.092756	0.056015	0.16341	0.13273	0.24785	0.3255	0.23829	0.033405	0.27021	-3.2083	-3.8771	-3.8229	-3.5438	-4.1583	-3.9458	-3.7687	-4.0917	-3.7458	-3.9625	-4.0479	-3.6354	-4.0542	-3.9146	-3.7375	-4.1583	114.633	-120.889	88.898	23.827	6.499	147.052	127.319	7.190	134.579	-108.295	160.486	172.160	145.441	219.030	2.955	126.377	0.00061024	0.00022464	1.552e-05	570.79	6.8511e-07	7.0093e-07	614.08	229.23	1.063e-06	1.7165e-06	273.57	111.2	95.029	41.996	6.2778e-07	47.762	3.2574e-05	3.4298e-05	8.9176e-06	463.35	3.4739e-07	3.76e-07	505.01	178.65	3.539e-07	3.7954e-07	198.27	78.767	64.157	29.13	3.4741e-07	31.857	113.303	-111.044	-86.396	-122.702	156.928	72.041	-124.195	-117.448	0.083	-47.692	-119.907	-116.764	-114.915	-109.297	107.655	-112.924	-8191	255	
4040.771	1	1	0	0	0.12294	0.13683	0.13097	0.21227	0.093547	0.18809	0.26574	0.11989	0.028683	0.046434	0.05749	0.27425	0.22422	0.18062	0.27275	0.069889	-3.4354	-3.8875	-4.0312	-3.6146	-3.9958	-4.05	-3.8042	-4.1104	-3.8063	-3.6354	-4.1896	-3.6042	-4	-4.0167	-3.65	-4.2229	204.772	-45.290	22.370	131.633	173.074	48.440	-133.956	-120.040	-21.854	166.041	53.163	116.772	200.708	217.032	117.769	198.195	0.00057224	8.2373e-05	5.3946e-05	569.41	5.5778e-07	1.4619e-06	607.66	226.88	1.4441e-07	1.1801e-06	270.3	109.3	93.846	41.37	1.4435e-06	47.077	3.4101e-05	3.3376e-05	8.6162e-06	461.24	3.5866e-07	3.6927e-07	500.52	176.85	3.6621e-07	3.5952e-07	195.12	77.264	63.53	28.684	3.3412e-07	31.413	113.604	-37.592	-96.008	-122.806	190.839	-38.713	-124.053	-117.542	205.986	-59.514	-120.085	-116.703	-114.586	-109.312	27.081	-113.413	-8191	255	
4040.867	1	1	0	0	0.23271	0.22236	0.19042	0.091025	0.18704	0.18926	0.048049	0.073035	0.015997	0.13189	0.13459	0.11162	0.38658	0.24096	0.20334	0.17759	-3.3896	-3.6458	-3.9604	-3.6104	-3.9	-4.0938	-3.6146	-4.1208	-3.8812	-3.6562	-4.0938	-3.6542	-3.8604	-3.8583	-3.6854	-4.0479	139.903	170.482	-102.037	14.368	-124.003	46.485	116.791	154.255	-106.337	131.743	-101.983	126.929	-67.690	102.130	-27.887	65.755	0.00055665	0.00012277	4.8291e-05	565.44	1.0324e-06	5.6311e-07	603.37	226.26	6.5597e-07	1.8758e-06	269.51	109.09	93.922	41.635	7.9933e-07	46.885	3.4578e-05	3.1942e-05	8.2508e-06	458.18	3.6491e-07	3.4872e-07	497.31	176.66	3.7027e-07	3.4854e-07	195.09	77.513	63.669	28.732	3.2736e-07	31.502	118.194	-53.004	-71.477	-122.837	23.071	-34.798	-124.059	-117.502	-9.873	28.056	-120.001	-116.868	-115.089	-109.523	-45.105	-113.459	-8191	255	
4040.962	1	1	0	0	0.13644	0.064002	0.098055	0.081674	0.18218	0.21651	0.18223	0.49479	0.13648	0.27498	0.15096	0.28628	0.098099	0.32789	0.15282	0.036495	-3.5062	-3.6375	-4.0687	-3.7562	-3.8271	-4.0708	-3.675	-4.1625	-3.7479	-3.5687	-4.2042	-3.4938	-3.8375	-4.2	-3.5917	-3.9042	-106.360	147.180	170.450	169.319	-72.180	106.677	61.306	91.885	213.706	202.360	70.628	204.863	219.289	147.288	129.637	177.133	0.00061852	0.00011938	3.5873e-05	565.81	8.3686e-07	1.1337e-06	605.15	226.82	1.4939e-06	1.7019e-06	270.51	109.82	94.29	41.754	1.3505e-06	47.596	3.5178e-05	3.0981e-05	8.1664e-06	460.3	3.6365e-07	3.4426e-07	499.5	176.99	3.6898e-07	3.4042e-07	195.26	78.047	63.746	28.909	3.2527e-07	31.918	127.753	-10.501	-17.136	-122.725	-16.655	14.892	-123.958	-117.498	3.788	-28.610	-120.220	-116.581	-114.685	-109.534	-56.108	-112.955	-8191	255	
4041.060	1	1	0	0	0.095106	0.10829	0.12529	0.11995	0.075778	0.2008	0.087458	0.20869	0.10977	0.045667	0.10338	0.046331	0.15643	0.037095	0.062288	0.11952	-3.6333	-3.7812	-3.9854	-3.7313	-3.8417	-4.175	-3.7979	-4.0833	-3.7479	-3.8042	-4.1687	-3.8854	-3.8812	-4.25	-3.5583	-3.9854	-111.195	15.267	37.199	-93.181	-2.189	30.658	-134.051	-102.056	108.283	-59.400	-97.949	45.749	213.691	191.876	-57.109	149.699	0.00051869	0.00015747	3.5052e-05	567.43	8.4859e-07	3.3572e-08	612.73	228.3	6.2323e-07	1.0133e-06	271.42	110.64	94.923	42.087	1.5669e-06	48.204	3.5045e-05	3.1501e-05	8.378e-06	462.64	3.6772e-07	3.464e-07	501.54	178.29	3.7252e-07	3.413e-07	196.62	78.794	64.13	29.094	3.3943e-07	32.376	119.371	-21.192	-86.983	-122.662	-0.462	56.151	-124.133	-117.507	-73.547	2.460	-120.082	-116.852	-114.714	-109.388	-39.449	-112.846	-8191	255	
4041.179	1	1	0	0	0.23186	0.11403	0.043321	0.19486	0.41374	0.056861	0.10939	0.20928	0.11146	0.17458	0.17014	0.13341	0.087942	0.18801	0.14939	0.12693	-3.5646	-3.4854	-4.0771	-3.8563	-3.7521	-4.15	-3.8083	-4.0437	-3.9417	-3.4708	-4.0062	-3.7562	-3.8729	-4.1396	-3.7333	-3.9646	120.322	140.744	206.700	63.567	184.238	-40.667	-35.094	220.452	27.775	-85.545	-75.214	-41.962	181.548	173.713	134.965	-120.821	0.00063691	8.3186e-05	4.0523e-05	569.89	4.7703e-07	1.2738e-06	610.29	226.66	1.5343e-06	1.8088e-06	268.93	109.3	93.602	41.431	5.7263e-07	46.998	3.4847e-05	3.1492e-05	8.6374e-06	463.69	3.6458e-07	3.4115e-07	500.73	177.74	3.6518e-07	3.4557e-07	195.72	77.795	63.421	28.651	3.5792e-07	31.596	122.576	-60.220	-61.073	-122.823	-20.588	-42.185	-124.074	-117.367	2.263	-45.940	-120.293	-116.980	-115.077	-109.518	-120.677	-112.951	-8191	255	
4041.275	1	1	0	0	0.06217	0.073131	0.10588	0.13655	0.1967	0.15639	0.029193	0.05558	0.35009	0.17291	0.12245	0.087248	0.085483	0.035728	0.12336	0.15509	-3.5667	-3.6188	-4.0062	-4.0958	-3.6521	-4.0083	-3.7583	-3.9083	-4.0417	-3.5979	-4.0667	-3.8958	-3.7521	-4.1542	-3.7438	-3.6375	124.090	-61.423	-22.181	88.910	131.166	71.783	215.271	166.543	-94.765	62.770	99.931	157.693	-16.277	206.205	203.660	-82.512	0.00059141	0.00016116	2.2295e-05	564.15	1.4082e-06	7.2983e-07	603.62	226.63	3.0707e-07	1.29e-06	267.97	108.71	93.111	41.166	7.2892e-07	46.684	3.4262e-05	3.1255e-05	9.2266e-06	459.69	3.5966e-07	3.3631e-07	497.89	176.97	3.6227e-07	3.3944e-07	194.73	77.293	62.992	28.442	3.7687e-07	31.493	125.231	-75.775	-129.895	-122.536	-28.420	-72.806	-124.201	-117.426	207.683	32.214	-120.193	-116.666	-114.822	-109.425	-70.178	-113.049	-8191	255	
4041.371	1	1	0	0	0.013698	0.24521	0.25844	0.17222	0.1457	0.27296	0.16695	0.20726	0.05109	0.082608	0.04924	0.091482	0.095785	0.19404	0.12871	0.067207	-3.7167	-3.5563	-4.1146	-4.0396	-3.7271	-4.2583	-3.6979	-3.6396	-4.1354	-3.6042	-4.1083	-3.9938	-3.6167	-4.2167	-3.8146	-3.9167	-22.696	-109.338	-102.820	110.982	85.327	211.952	223.792	-92.950	51.718	129.040	-90.706	84.380	193.617	-8.101	203.820	186.469	0.00057626	3.1253e-05	1.0731e-05	566.77	6.5516e-07	1.5097e-06	604.55	226.1	1.8425e-06	9.7279e-07	269.09	108.54	93.772	41.377	9.1097e-07	47.089	3.4131e-05	3.1124e-05	9.7131e-06	460.58	3.5608e-07	3.4887e-07	500.5	176.84	3.5727e-07	3.5079e-07	196.36	77.454	63.345	28.583	3.9716e-07	31.601	115.356	79.982	-32.537	-122.735	-35.197	29.150	-124.368	-117.669	4.260	-7.237	-120.179	-116.826	-114.746	-109.311	-70.396	-113.392	-8191	255	
4041.467	1	1	0	0	0.033592	0.12513	0.15586	0.091908	0.10814	0.053404	0.16773	0.17399	0.15058	0.063035	0.14795	0.17597	0.076291	0.30597	0.17439	0.050396	-3.9125	-3.5271	-3.8271	-4.0375	-3.4875	-4.0604	-4.0208	-3.6125	-4.1438	-3.5875	-3.9854	-4.0292	-3.5271	-4.1687	-3.8625	-3.7667	20.866	-1.676	130.815	143.823	-10.851	131.687	179.265	63.512	-109.394	-79.916	-119.036	222.522	-17.057	-124.998	120.684	70.524	0.00062445	1.9266e-05	3.0193e-05	567.13	6.7336e-07	8.9452e-07	606.27	225.9	9.4467e-07	4.5327e-07	270.33	109.82	94.311	41.639	1.381e-06	47.567	3.3749e-05	3.2683e-05	9.9868e-06	461.39	3.5273e-07	3.5878e-07	501.77	177.32	3.537e-07	3.6085e-07	197.1	78.107	63.582	28.853	3.9178e-07	31.963	130.918	-108.471	-85.198	-123.054	-57.499	32.825	-124.177	-117.428	-30.091	-26.515	-120.249	-116.762	-114.518	-109.559	-21.191	-113.129	-8191	255	
4041.563	1	1	0	0	0.19973	0.20125	0.21499	0.16349	0.11215	0.16783	0.11258	0.23119	0.16297	0.19999	0.12447	0.15849	0.12539	0.14246	0.14093	0.22904	-3.7	-3.5396	-3.8167	-4.0583	-3.5833	-3.9729	-4.1937	-3.7062	-4.1479	-3.7667	-3.7417	-4.1312	-3.6042	-4.0542	-3.9813	-3.6792	-107.236	-112.273	-38.792	11.316	-23.569	48.783	-28.132	119.130	25.156	-11.298	169.154	111.615	156.482	31.163	216.251	120.376	0.00064457	5.5423e-05	6.4097e-05	567.12	1.8661e-06	1.2488e-06	611.78	227.58	1.2492e-06	6.5765e-07	271.73	109.78	93.758	41.368	1.4226e-06	47.238	3.3551e-05	3.4139e-05	9.9824e-06	462.14	3.5086e-07	3.7857e-07	503.92	177.79	3.501e-07	3.8681e-07	197.56	78.045	63.293	28.735	3.9195e-07	31.591	126.083	-42.733	-102.064	-122.848	-113.946	-33.199	-124.009	-117.613	-28.291	205.101	-120.302	-116.901	-114.632	-109.414	-31.829	-112.958	-8191	255	
4041.659	1	1	0	0	0.15238	0.079518	0.034637	0.3299	0.19307	0.04468	0.040236	0.066877	0.18567	0.047994	0.10005	0.28177	0.20841	0.086705	0.067323	0.18318	-3.8792	-3.7375	-3.7708	-4.2271	-3.6542	-3.9979	-4.0542	-3.4521	-4.2417	-3.9417	-3.8438	-4.1479	-3.6813	-4.1937	-4.0229	-3.6604	16.376	13.356	16.534	115.571	184.811	13.498	140.466	57.798	67.401	-107.253	-121.451	193.519	220.294	-122.926	-34.673	-113.967	0.00067606	2.5251e-05	8.29e-06	562.26	2.2402e-06	7.0784e-07	602.75	224.55	1.5243e-06	4.89e-07	269.04	107.76	92.213	40.76	1.0274e-06	46.322	3.3422e-05	3.5691e-05	9.7543e-06	457.75	3.5379e-07	3.9403e-07	498.28	175.9	3.5667e-07	3.9835e-07	194.77	76.64	62.515	28.29	3.7041e-07	31.027	120.080	91.067	-27.625	-122.851	-59.270	-50.540	-124.280	-117.440	-24.160	217.265	-120.066	-116.731	-114.520	-109.590	-29.859	-113.295	-8191	255	
4041.780	1	1	0	0	0.063814	0.20434	0.2776	0.12423	0.16721	0.11327	0.07357	0.050251	0.1804	0.055189	0.18373	0.12693	0.24815	0.26121	0.20001	0.039565	-3.6271	-3.7729	-3.6521	-4.0437	-3.6417	-3.7521	-4.1833	-3.5958	-4.1979	-3.8083	-3.5917	-4.1937	-3.7062	-3.9813	-3.9688	-3.8125	145.120	3.969	17.094	-17.697	-118.620	63.014	92.314	50.455	98.007	-65.678	150.750	224.469	-74.422	168.288	-43.938	207.658	0.00064266	5.3784e-05	3.5569e-05	563.38	2.3059e-06	1.1197e-06	604.31	224.93	9.9376e-07	6.3214e-07	266.48	107.96	92.293	40.877	1.5219e-06	46.43	3.4089e-05	3.5484e-05	9.2273e-06	456.74	3.6205e-07	3.941e-07	497.44	175.64	3.6532e-07	3.8795e-07	194.17	76.65	62.702	28.327	3.5637e-07	31.145	125.896	-40.994	-78.606	-122.768	-71.927	-40.831	-124.376	-117.507	-99.480	96.112	-119.881	-116.755	-114.845	-109.740	-52.016	-113.287	-8191	255	
4041.874	1	1	0	0	0.14943	0.048797	0.078882	0.091647	0.040161	0.088026	0.1661	0.25272	0.08362	0.2818	0.20028	0.10054	0.10738	0.022086	0.13066	0.25783	-3.8146	-3.8458	-3.7292	-4.3354	-3.8438	-4.0146	-4.1667	-3.6646	-4.0312	-4.0333	-3.7875	-4.1792	-3.7542	-3.8979	-4.1875	-3.7438	136.198	-81.902	31.022	-12.211	136.450	-84.159	151.004	204.417	58.429	152.893	200.988	-49.420	17.708	192.146	-53.316	100.338	0.00061952	8.0066e-05	3.3923e-05	561.48	1.0317e-06	1.0289e-06	605	225.43	1.2823e-06	1.2084e-06	268.9	108.5	93.275	41.052	8.0798e-07	46.842	3.5431e-05	3.4707e-05	9.1221e-06	456.89	3.7881e-07	3.7693e-07	497.93	176.02	3.8066e-07	3.7861e-07	194.87	77.01	63.15	28.451	3.5572e-07	31.487	108.060	-92.130	-83.503	-122.669	-57.032	23.494	-124.050	-117.695	-78.162	46.880	-120.222	-116.797	-114.828	-109.449	-15.567	-113.207	-8191	255	
4041.971	1	1	0	0	0.055389	0.091407	0.055618	0.010453	0.16281	0.18757	0.14371	0.15603	0.13695	0.21641	0.20202	0.24894	0.09897	0.11715	0.15528	0.12455	-3.8396	-4.0042	-3.7292	-4.1417	-3.7479	-3.7812	-4.2625	-3.6708	-3.9896	-4.1271	-3.6875	-4.1875	-3.8688	-3.5625	-4.175	-3.65	86.888	-120.528	-34.258	166.069	63.972	220.575	-125.390	219.422	54.910	-131.980	138.601	176.775	-125.786	75.345	-129.803	106.169	0.00051851	0.00013575	3.1209e-05	565.14	1.5562e-06	1.2175e-06	607.98	227.36	6.3547e-07	1.8376e-06	271.67	109.5	93.291	41.352	6.1539e-07	47.678	3.7101e-05	3.4511e-05	9.0994e-06	458.3	3.9376e-07	3.7256e-07	500.58	177.1	3.9443e-07	3.7025e-07	196.03	77.813	63.477	28.668	3.5428e-07	31.878	123.296	-44.668	-109.853	-122.732	11.031	-29.114	-124.362	-117.407	-76.585	-51.719	-120.001	-116.521	-114.885	-109.204	12.517	-113.232	-8191	255	
4042.067	1	1	0	0	0.12781	0.15322	0.23657	0.12022	0.055658	0.049227	0.093697	0.0839	0.16453	0.1747	0.12475	0.21638	0.16279	0.20701	0.028342	0.11845	-3.6646	-4.0833	-3.6125	-4.2458	-3.8417	-3.7333	-4.1813	-3.6854	-3.8708	-4.0938	-3.6667	-4.1917	-3.9354	-3.8187	-4.0479	-3.8271	122.213	6.535	-21.358	104.638	-61.421	87.308	64.810	36.361	-57.589	192.832	189.531	25.585	179.840	188.570	-24.949	140.989	0.00053507	7.93e-05	2.9889e-05	561.2	1.2804e-06	4.8695e-07	608.87	225.23	8.1313e-07	1.2855e-06	268.34	108.51	92.71	40.764	1.1508e-06	46.775	3.807e-05	3.3941e-05	9.01e-06	458.34	3.9388e-07	3.7118e-07	499	176.47	3.9644e-07	3.6496e-07	194.92	77.162	62.846	28.276	3.4612e-07	31.277	128.227	-80.744	224.240	-122.939	4.114	6.300	-124.272	-117.609	-3.835	-1.582	-119.916	-116.818	-114.625	-109.607	-73.451	-113.176	-8191	255	
4042.163	1	1	0	0	0.19244	0.12237	0.10516	0.21241	0.14189	0.074848	0.1543	0.11607	0.17763	0.22945	0.14505	0.16452	0.11913	0.26624	0.16065	0.3153	-3.4604	-4.0813	-3.6396	-3.9542	-4.0396	-3.5521	-4.2333	-3.8083	-3.8792	-4.25	-3.7604	-4.0417	-4.0625	-3.5854	-4.0958	-3.8375	-4.313	69.539	-2.914	164.428	110.575	-12.635	163.648	-102.155	113.822	158.987	180.804	-114.900	92.169	189.446	94.024	-135.416	0.00051884	0.00010048	3.2438e-05	562.59	1.0987e-06	7.833e-07	602.5	225.55	2.1482e-06	2.9093e-06	267.46	107.83	92.588	40.827	1.0931e-06	46.189	3.7223e-05	3.3111e-05	8.8151e-06	457.2	3.9099e-07	3.6406e-07	495.67	176.2	3.8818e-07	3.6009e-07	194.13	76.767	62.645	28.126	3.611e-07	31.168	123.802	-53.822	-122.897	-122.984	-3.657	-32.691	-124.309	-117.710	-10.946	-7.563	-120.060	-116.886	-114.830	-109.617	-37.936	-113.295	-8191	255	
4042.259	1	1	0	0	0.15086	0.073695	0.079968	0.045943	0.20941	0.0060043	0.35091	0.15995	0.11748	0.096565	0.26815	0.13264	0.13692	0.15428	0.33268	0.29573	-3.3042	-4.0854	-3.6646	-3.9917	-4.0604	-3.7229	-4.1229	-3.975	-3.8	-4.0896	-3.7083	-3.9875	-3.9896	-3.6417	-4.0521	-3.9229	38.778	112.832	21.175	-125.522	178.830	179.618	191.213	178.149	54.603	181.958	190.142	-77.345	-109.163	45.040	150.360	159.424	0.00048634	5.6241e-05	1.4558e-05	562.09	5.7407e-07	9.3916e-07	603.81	225.03	1.4454e-06	1.5551e-06	269.66	107.75	92.731	40.579	8.2118e-07	46.586	3.6483e-05	3.3073e-05	9.2469e-06	458.59	3.8321e-07	3.6484e-07	497.36	176.76	3.884e-07	3.683e-07	195.51	77.241	62.838	28.201	3.9013e-07	31.441	112.655	-71.514	145.639	-122.631	-91.516	-8.304	-124.197	-117.667	-23.000	-41.529	-120.257	-116.728	-114.972	-109.512	122.328	-113.360	-8191	255	
4042.380	1	1	0	0	0.1485	0.089542	0.058266	0.10114	0.19084	0.094825	0.11503	0.26807	0.070043	0.10393	0.10711	0.16501	0.23302	0.067718	0.050913	0.2032	-3.3063	-4.2438	-3.6813	-3.9375	-4.0646	-3.7188	-4.0479	-3.9729	-3.5479	-4.1438	-3.8271	-3.7792	-4.0479	-3.5917	-4.0625	-4.0188	-62.169	108.501	14.276	-104.489	163.955	16.293	223.543	147.208	-120.837	-124.050	188.180	179.803	-95.541	181.860	203.926	19.842	0.00052632	8.2894e-05	3.4334e-05	563.07	2.4879e-06	1.1953e-06	606.58	227.1	1.9612e-06	7.0883e-07	271.11	109.25	93.176	41.209	9.9915e-07	47.233	3.708e-05	3.365e-05	9.9574e-06	460.04	3.9336e-07	3.7739e-07	501.79	178.06	4.0224e-07	3.7895e-07	197.49	78.003	63.356	28.546	4.3073e-07	31.914	116.356	-49.956	-134.381	-122.683	-22.128	-63.512	-124.358	-117.495	13.559	15.239	-120.044	-116.892	-114.773	-109.604	-11.199	-113.301	-8191	255	
4042.476	1	1	0	0	0.21098	0.2177	0.25967	0.14086	0.33625	0.19289	0.11058	0.082595	0.28882	0.16097	0.09328	0.16803	0.15279	0.2182	0.11208	0.26385	-3.3042	-4.0208	-3.6917	-3.9417	-3.9479	-3.5167	-4.0354	-3.825	-3.5938	-4.2146	-3.7458	-3.8312	-4.1833	-3.6583	-3.8333	-4.2167	-100.431	41.377	-15.043	-108.763	54.343	155.277	-129.517	155.907	-49.095	-109.357	157.778	88.167	165.052	220.943	212.551	-62.928	0.00054589	6.1029e-05	5.5917e-05	564.68	1.4e-06	7.8448e-07	608.03	227.36	9.8657e-07	3.8077e-07	273.02	109.34	93.222	40.817	1.0069e-06	46.893	3.9017e-05	3.5851e-05	1.0933e-05	461.16	4.0985e-07	3.9602e-07	504.63	178.71	4.109e-07	3.9825e-07	198.99	78.177	63.351	28.448	4.4854e-07	31.693	118.026	-23.006	180.474	-122.699	-91.797	11.879	-124.244	-117.403	-61.071	216.819	-120.172	-116.934	-114.916	-109.464	35.212	-113.068	-8191	255	
4042.572	1	1	0	0	0.21632	0.1631	0.31161	0.11286	0.081529	0.11537	0.066771	0.13998	0.059253	0.16357	0.095973	0.058187	0.11272	0.048939	0.20957	0.2166	-3.2792	-4.0021	-3.8125	-3.6458	-4.0208	-3.7104	-3.9583	-4.1292	-3.6125	-3.95	-3.8812	-3.5333	-4.2583	-3.8604	-3.7313	-4.0729	-26.947	-63.536	-119.689	-112.495	-92.844	59.588	110.018	183.117	146.614	-50.317	28.087	23.266	49.816	117.467	126.246	-128.743	0.00059697	0.00016442	2.1095e-06	560.28	2.1347e-06	4.6916e-07	604.11	223.78	1.9451e-06	3.6114e-07	268.95	107.74	91.919	40.142	1.4012e-06	45.794	3.9031e-05	3.7405e-05	1.1462e-05	458.45	4.1195e-07	4.2183e-07	500.99	176.86	4.2161e-07	4.3435e-07	197.07	77.164	62.664	28.024	4.7103e-07	31.098	131.981	-100.587	-28.218	-122.683	-28.265	26.019	-124.429	-117.623	-48.042	30.165	-119.853	-116.934	-114.808	-109.414	-21.917	-113.183	-8191	255	
4042.644	1	1	0	0	0.11304	0.16138	0.081916	0.23099	0.11125	0.085498	0.14269	0.085913	0.21375	0.057081	0.2408	0.012803	0.12013	0.19926	0.24438	0.26201	-3.1979	-3.9667	-3.7708	-3.8833	-4.1354	-3.6312	-3.8271	-4.0833	-3.5625	-4.0687	-3.8854	-3.6167	-4.0125	-3.9688	-3.8875	-4.4125	104.890	-8.563	183.553	146.858	102.881	186.453	172.769	203.794	113.528	44.292	-55.745	-105.953	186.765	-104.392	118.930	182.328	0.00059165	7.5189e-05	1.1422e-05	558.95	2.3327e-06	3.7977e-07	599.46	225.02	4.068e-07	1.882e-06	267.35	107.52	91.716	40.445	2.6537e-07	46.243	4.0173e-05	4.1125e-05	1.194e-05	458.55	4.275e-07	4.602e-07	499.74	176.88	4.3032e-07	4.6527e-07	196.69	77.101	62.651	28.207	4.7154e-07	31.317	127.293	61.916	109.416	-122.818	-61.308	46.761	-124.183	-117.431	-17.727	-38.671	-120.105	-116.737	-114.693	-109.394	93.137	-113.160	-8191	255	
4042.762	1	1	0	0	0.27744	0.041122	0.098077	0.23697	0.14604	0.21423	0.089703	0.22721	0.19106	0.38089	0.13043	0.15773	0.090804	0.1835	0.18245	0.034369	-3.3563	-3.9021	-3.9188	-3.7583	-4.0604	-3.8146	-3.625	-4.1021	-3.5896	-3.8729	-4.0687	-3.6437	-4.2479	-3.9146	-3.7667	-4.4125	195.373	124.127	-26.014	-12.733	-126.489	58.327	-114.021	185.443	223.972	217.775	-125.460	161.696	210.918	177.822	179.105	102.914	0.00050992	0.00010893	5.5221e-05	561.28	3.0708e-06	5.3128e-07	600.25	224.4	8.5905e-07	1.4619e-06	271.07	108.09	92.218	40.361	1.342e-06	46.816	4.1504e-05	4.3888e-05	1.2021e-05	459.97	4.5045e-07	4.9177e-07	501.22	177.12	4.5773e-07	4.981e-07	198.23	77.731	63.3	28.408	4.8558e-07	31.674	127.325	25.228	-52.474	-122.808	-78.876	-7.554	-124.212	-117.545	-121.940	-80.800	-120.125	-116.609	-114.612	-109.092	52.614	-113.050	-8191	255	
4042.859	1	1	0	0	0.21929	0.089418	0.07047	0.23676	0.09557	0.062336	0.1615	0.12277	0.1835	0.13339	0.2074	0.12025	0.21273	0.13975	0.057448	0.1054	-3.1667	-4.0167	-3.9208	-3.6688	-4.15	-3.8833	-3.7417	-4.1542	-3.7583	-3.9417	-3.9125	-3.5	-4.1396	-3.9333	-3.6813	-4.2979	206.946	55.879	56.218	49.004	84.219	91.051	145.084	169.437	16.390	169.004	38.063	144.761	-128.374	-84.943	220.834	223.964	0.00056015	7.0723e-05	4.5361e-05	564.03	1.0182e-06	1.3327e-06	605.17	225.91	1.021e-06	8.7323e-07	270.93	109.1	93.032	40.82	5.6003e-07	47.326	4.4845e-05	4.6699e-05	1.2309e-05	462.29	4.8066e-07	5.1364e-07	505.31	178.35	5.0214e-07	5.2736e-07	199.4	78.518	63.928	28.66	5.0386e-07	32.066	118.581	-3.281	-8.347	-122.738	1.432	-19.986	-124.179	-117.532	-57.277	21.754	-120.193	-116.434	-114.655	-109.403	-45.879	-112.807	-8191	255	
4042.955	1	1	0	0	0.010726	0.17944	0.19353	0.13252	0.16026	0.17	0.16758	0.31496	0.072873	0.23515	0.13586	0.14755	0.049245	0.24393	0.1443	0.094437	-3.4313	-3.9667	-4.0833	-3.6396	-3.9479	-4.0021	-3.6021	-4.125	-3.5479	-3.7833	-4.1	-3.6542	-4.0771	-3.9833	-3.6875	-4.1625	-94.559	-54.130	170.453	-90.671	-124.948	108.433	173.241	90.790	35.901	16.910	162.078	193.794	165.230	-122.813	-15.504	184.418	0.00049193	9.8909e-05	3.9347e-05	562	1.2548e-06	1.2195e-06	606.11	224.89	1.2717e-06	1.7228e-06	269.02	108.15	91.707	39.972	2.095e-06	46.052	4.8433e-05	4.824e-05	1.2837e-05	463.54	5.2625e-07	5.3047e-07	505.02	177.95	5.3646e-07	5.358e-07	198.09	77.695	63.521	28.122	5.1477e-07	31.29	107.338	-127.570	-77.346	-122.811	-86.516	-133.742	-124.161	-117.398	-116.377	13.780	-119.943	-116.681	-114.750	-109.295	-40.856	-112.893	-8191	255	
4043.053	1	1	0	0	0.089863	0.017357	0.16175	0.10389	0.19037	0.15795	0.16248	0.11896	0.12346	0.13466	0.066224	0.19449	0.17268	0.080758	0.061069	0.2122	-3.5917	-3.6271	-4.1542	-3.8354	-3.9896	-3.9354	-3.3896	-4.2542	-3.8104	-3.7292	-4.3812	-3.8063	-4.0083	-4.125	-3.6104	-4.0042	112.266	199.943	126.097	150.771	-80.978	164.692	158.337	158.488	-11.826	-30.636	159.118	192.796	-129.551	-55.424	-124.440	198.234	0.00060971	0.0001851	6.3226e-05	557.74	7.7347e-07	1.8832e-06	599.23	224.68	5.273e-07	7.5734e-07	266.73	105.75	91.486	39.613	3.8936e-07	45.805	5.1079e-05	4.8261e-05	1.2774e-05	459.82	5.4079e-07	5.2327e-07	500.72	177.07	5.4465e-07	5.1368e-07	196.03	76.784	63.067	27.865	4.9879e-07	31.202	111.919	-59.530	-70.384	-122.705	-57.508	-94.460	-124.138	-117.648	-50.278	16.169	-120.220	-116.602	-114.815	-109.434	2.447	-113.213	-8191	255	
4043.172	1	1	0	0	0.25364	0.16002	0.12123	0.10771	0.12417	0.088913	0.39275	0.12424	0.21452	0.23059	0.21681	0.13274	0.12292	0.16396	0.082373	0.027661	-3.6104	-3.7646	-4.1542	-3.7708	-3.9437	-3.875	-3.8521	-4.0875	-3.8729	-3.7938	-4.1375	-3.8729	-3.7687	-3.9854	-3.4917	-4.0771	130.084	108.579	202.528	119.184	-111.408	219.566	197.132	205.608	96.268	-126.756	180.943	-6.654	150.595	-98.720	-122.219	-63.251	0.00045744	9.7816e-05	2.229e-05	558.09	2.4633e-06	1.4279e-06	601.18	223.6	8.8498e-07	3.322e-07	266.2	106.71	91.635	39.58	7.5217e-07	45.834	5.1676e-05	4.7233e-05	1.2599e-05	461.61	5.4819e-07	5.1795e-07	501.56	177.17	5.5111e-07	5.2528e-07	196.46	77.197	63.212	27.868	5.0467e-07	31.422	118.306	-134.331	-79.361	-122.915	-84.895	74.500	-124.227	-117.631	1.581	172.155	-119.993	-116.473	-114.380	-109.196	-16.847	-113.094	-8191	255	
4043.243	1	1	0	0	0.20015	0.117	0.18634	0.058217	0.14956	0.15853	0.14658	0.17432	0.35579	0.17039	0.080347	0.25237	0.11284	0.25144	0.30566	0.10858	-3.6708	-3.5333	-4.2646	-3.8042	-3.7562	-4.1979	-3.7042	-4.2188	-4.0458	-3.8896	-4.1438	-3.95	-3.9625	-4.2729	-3.7104	-4.1	186.130	212.041	39.311	-65.605	-100.700	-14.163	151.971	-11.860	-1.489	108.814	154.394	116.206	139.294	94.879	40.764	49.146	0.00061808	2.0248e-05	3.7807e-05	557.7	2.4052e-06	1.6438e-06	603.2	223.58	1.4912e-06	1.4707e-06	267.46	107.58	91.499	40.068	1.7672e-06	46.492	5.2243e-05	4.7324e-05	1.2759e-05	462.84	5.5818e-07	5.173e-07	503.32	178.13	5.4769e-07	5.1729e-07	197.89	78.082	63.132	28.123	5.1065e-07	31.862	116.891	-17.616	-33.144	-122.827	-52.522	72.322	-124.414	-117.431	-10.391	-5.573	-120.007	-116.717	-114.617	-109.349	22.255	-113.206	-8191	255	
4043.339	1	1	0	0	0.046421	0.159	0.042881	0.17851	0.12578	0.091059	0.25201	0.053949	0.21894	0.1228	0.20774	0.10251	0.26059	0.22074	0.10507	0.11775	-3.6229	-3.7562	-4.0208	-3.8937	-3.8625	-4.0312	-3.8167	-3.9271	-3.9604	-3.6937	-4.1229	-3.9208	-3.6396	-4.3479	-3.8396	-4.0854	-51.157	150.094	-110.481	50.843	162.456	36.925	170.944	80.869	195.676	61.411	-114.669	-76.340	186.485	-107.799	-18.575	129.874	0.00044997	0.00025087	2.5417e-05	560.67	6.2745e-07	1.2778e-07	603.51	224.65	3.1423e-07	1.8652e-06	268.77	107.72	91.672	40.092	4.4918e-07	46.136	5.0462e-05	4.7217e-05	1.2921e-05	464.97	5.4112e-07	5.0509e-07	505.78	178.91	5.2668e-07	5.0548e-07	198.34	78.171	63.127	28.086	5.2087e-07	31.586	125.062	-63.024	-73.083	-122.723	54.246	83.706	-123.828	-117.487	-124.682	-40.605	-120.084	-116.668	-114.852	-109.319	3.019	-113.269	-8191	255	
4043.460	1	1	0	0	0.1484	0.16099	0.21728	0.23775	0.24121	0.0029733	0.26328	0.22305	0.15306	0.24601	0.27226	0.053668	0.052647	0.34167	0.17207	0.16238	-3.9375	-3.6042	-4.1042	-4.0312	-3.6708	-4.175	-3.8375	-4.1062	-4.0563	-3.5458	-4.0958	-4.0125	-3.7396	-4.2333	-3.8083	-3.9	92.424	-4.798	-58.693	179.664	94.199	-107.179	123.535	206.055	-131.563	213.367	176.568	122.245	157.064	180.558	-41.898	220.322	0.00058215	9.6998e-05	2.8275e-05	557.37	8.5127e-07	1.8565e-06	603.32	222.14	1.4568e-06	1.0806e-06	265.22	105.79	90.014	39.313	1.7331e-06	45.358	4.8998e-05	4.4851e-05	1.322e-05	461.79	5.2102e-07	4.9948e-07	503.34	176.7	5.1906e-07	4.967e-07	196.01	76.607	62.308	27.54	5.3137e-07	30.998	120.152	-16.320	-43.939	-122.820	-100.141	-1.181	-124.275	-117.532	-45.375	-120.341	-120.095	-116.648	-114.770	-109.317	7.652	-112.970	-8191	255	
4043.556	1	1	0	0	0.12561	0.1651	0.20306	0.28973	0.2142	0.15655	0.18779	0.16799	0.10089	0.072318	0.17961	0.38318	0.33051	0.13543	0.074457	0.24909	-3.7167	-3.5	-4.1333	-3.8333	-3.5979	-4.2833	-3.8646	-3.8646	-4.2688	-3.5021	-4.0292	-3.9354	-3.5062	-4.1083	-3.7479	-3.7417	47.977	221.775	-130.390	158.089	37.909	144.910	100.017	-105.293	-71.179	-55.530	118.483	-131.615	-63.344	221.228	-103.001	-53.049	0.00047627	6.2505e-05	1.2135e-05	557.09	1.2524e-06	4.3453e-07	597.58	222.78	1.4717e-06	1.1095e-06	265.19	105.92	90.611	39.463	7.4378e-07	45.358	4.711e-05	4.4023e-05	1.333e-05	459.47	4.9451e-07	4.8149e-07	500.83	176.43	4.8608e-07	4.7862e-07	196.42	76.622	62.211	27.607	5.2648e-07	31.039	136.933	-58.132	204.385	-122.785	-35.726	-103.721	-124.194	-117.390	-17.655	-28.688	-120.334	-116.635	-114.642	-109.428	101.476	-112.987	-8191	255	
4043.652	1	1	0	0	0.11239	0.18591	0.15428	0.28189	0.12046	0.067603	0.16654	0.033418	0.21037	0.18035	0.22481	0.17135	0.30596	0.16061	0.10947	0.23159	-3.7896	-3.7125	-4.1625	-4.0271	-3.7313	-4.1167	-3.8729	-3.8438	-4.3854	-3.7646	-3.9729	-4.1667	-3.6208	-4.2667	-3.8646	-3.8979	-57.422	91.289	-26.749	205.430	19.186	-17.744	159.703	161.297	127.197	131.310	151.343	139.794	-118.783	-17.237	104.166	97.133	0.00063168	0.00010739	6.2353e-06	558.85	2.1722e-07	6.4356e-07	601.05	222.19	1.1404e-06	1.0027e-06	268.54	106.82	90.419	39.52	1.6325e-06	46.088	4.5075e-05	4.359e-05	1.3291e-05	459.86	4.7568e-07	4.8215e-07	502.12	176.18	4.6562e-07	4.8099e-07	196.86	76.827	62.296	27.84	5.2413e-07	31.351	119.758	121.835	17.140	-122.479	94.718	70.250	-124.079	-117.424	-4.681	-3.861	-120.057	-116.581	-114.613	-109.326	-7.759	-113.178	-8191	255	
4043.773	1	1	0	0	0.16552	0.10522	0.28627	0.3804	0.080834	0.3519	0.26138	0.11152	0.18196	0.082178	0.28255	0.14415	0.052793	0.15056	0.19665	0.14764	-3.8937	-3.6937	-3.8792	-4.1438	-3.6312	-3.95	-4.0563	-3.6125	-4.0021	-3.7313	-4.0292	-4.175	-3.7708	-4.1417	-4.0312	-3.7375	-2.862	89.279	-41.843	146.933	-24.141	178.198	177.364	-99.366	9.434	204.360	-115.906	216.967	183.541	-72.883	112.476	179.935	0.00052252	0.00012725	1.9478e-05	558.2	1.2283e-06	1.2774e-06	601.96	224.07	6.8856e-07	1.125e-06	268.97	107.5	91.398	39.858	1.863e-06	46.489	4.4197e-05	4.5923e-05	1.3254e-05	460.62	4.71e-07	5.0977e-07	504.32	176.96	4.7351e-07	5.1484e-07	198.03	77.503	62.639	28.074	5.1478e-07	31.646	129.028	-81.651	-41.087	-122.534	-1.509	24.637	-124.132	-117.356	-51.821	201.972	-119.955	-116.585	-114.629	-109.113	6.845	-113.016	-8191	255	
4043.867	1	1	0	0	0.17784	0.052258	0.18034	0.2363	0.28374	0.10181	0.16149	0.29473	0.15779	0.20033	0.23606	0.1148	0.14063	0.17938	0.172	0.072415	-3.8271	-3.6542	-3.9083	-4.1292	-3.7938	-3.9875	-4.1854	-3.7333	-4.1667	-3.8979	-3.8937	-4.1833	-3.8021	-4.0125	-3.9938	-3.5917	-130.306	99.838	37.986	98.578	191.487	165.827	114.850	144.228	-51.379	-25.293	207.767	-22.280	-115.037	-77.334	-104.489	210.454	0.00055197	1.8841e-05	2.4228e-05	561.27	1.1272e-06	9.0285e-07	603.46	223.72	5.5635e-07	2.7642e-07	267.88	106.74	90.868	39.484	2.2226e-06	45.737	4.4773e-05	4.759e-05	1.2954e-05	460.75	4.7159e-07	5.2042e-07	504.69	176.74	4.7577e-07	5.1815e-07	196.78	76.735	62.097	27.689	4.8911e-07	31.011	126.040	-33.973	-56.519	-122.688	-78.854	-21.333	-124.233	-117.431	67.961	41.772	-119.900	-116.725	-114.478	-109.490	-86.284	-112.758	-8191	255	
4043.939	1	1	0	0	0.19909	0.19753	0.21724	0.11375	0.035557	0.096049	0.30544	0.088692	0.067639	0.078193	0.19997	0.20752	0.087616	0.097717	0.2161	0.16927	-3.6813	-3.9208	-3.8312	-4.1771	-3.6375	-3.8729	-4.1104	-3.7354	-4.0917	-3.8187	-3.7521	-4.35	-3.65	-4.0771	-4.1937	-3.6792	-96.671	52.468	-70.515	79.436	92.451	153.368	209.771	62.569	196.578	135.387	95.020	202.372	161.929	39.302	34.379	104.043	0.00063496	8.8902e-05	4.9798e-05	555.58	1.3355e-06	5.4076e-07	597.89	221.99	2.1422e-06	1.1646e-06	263.5	105.76	90.251	39.109	1.1283e-06	45.315	4.4321e-05	4.6961e-05	1.2349e-05	456.77	4.7977e-07	5.104e-07	499.47	175.36	4.8404e-07	5.113e-07	194.76	75.847	61.953	27.501	4.8311e-07	30.743	113.797	-127.413	-93.568	-122.731	-32.686	85.245	-124.115	-117.638	-13.873	11.393	-120.027	-116.902	-114.852	-109.546	-50.711	-113.203	-8191	255	
4044.035	1	1	0	0	0.1036	0.21391	0.18287	0.23628	0.055986	0.077264	0.1443	0.054617	0.14048	0.13504	0.2513	0.17731	0.30589	0.11182	0.16402	0.22332	-3.7958	-4.0167	-3.575	-4.1083	-3.6417	-3.925	-4.2063	-3.6292	-3.8688	-4.0625	-3.7375	-4.1333	-3.9688	-3.9354	-4.175	-3.925	-1.541	156.477	-24.291	-53.891	174.068	-96.275	106.913	148.655	177.663	-53.340	74.408	-31.255	-88.772	158.208	-52.474	59.957	0.00066941	7.5953e-05	5.1765e-05	553	1.7214e-06	1.3826e-06	600.35	221.84	1.8038e-06	6.2547e-07	264.85	105.47	89.756	39.207	1.3028e-06	45.674	4.6496e-05	4.6286e-05	1.2238e-05	455.37	5.0411e-07	5.0881e-07	499.56	175.34	5.1121e-07	5.0701e-07	195.18	76.114	62.022	27.565	4.7586e-07	30.976	118.753	-61.854	-77.292	-122.762	151.748	-76.241	-124.143	-117.593	-64.427	-14.560	-120.177	-116.654	-114.678	-109.331	-16.550	-113.186	-8191	255	
4044.156	1	1	0	0	0.31933	0.32893	0.26968	0.30383	0.0057817	0.32109	0.24205	0.20521	0.2709	0.25305	0.31155	0.1535	0.13119	0.22864	0.18471	0.32817	-3.6958	-4.0208	-3.7958	-4.2396	-3.7708	-3.8229	-4.2542	-3.75	-4.2333	-3.9771	-3.7687	-4.1979	-3.9	-3.9042	-4.1125	-3.7875	-40.392	-58.680	-59.648	208.643	3.770	-121.472	138.580	156.039	-92.202	-101.333	220.884	131.654	-68.337	180.038	188.882	-127.926	0.0005735	0.00019546	7.9454e-06	558.83	9.5997e-07	5.113e-07	605.49	222.57	8.2913e-07	2.3644e-06	266.65	106.82	90.667	39.493	1.1776e-06	46.305	4.8031e-05	4.4985e-05	1.1998e-05	457.6	5.1081e-07	4.9439e-07	500.88	176.2	5.1683e-07	4.8528e-07	195.72	76.701	62.521	27.71	4.6074e-07	31.348	125.129	-61.963	-67.336	-122.854	-73.364	-7.813	-123.904	-117.684	28.425	-40.414	-120.046	-116.722	-114.612	-109.349	19.912	-113.116	-8191	255	
4044.252	1	1	0	0	0.11698	0.083073	0.0571	0.26234	0.23608	0.22471	0.30105	0.24565	0.28165	0.29106	0.21209	0.28731	0.064598	0.096239	0.05178	0.1136	-3.5438	-3.8583	-3.475	-4.0979	-3.9083	-3.7646	-4.3187	-3.7583	-3.7208	-4.0042	-3.5979	-4.3125	-3.8354	-3.7208	-4.1333	-3.8937	-10.510	17.367	-89.888	176.824	147.784	-120.559	-39.098	130.713	-131.956	140.284	-5.456	213.122	84.672	154.193	-62.825	134.584	0.00053713	0.00015922	3.7227e-05	557.8	2.2103e-06	2.8332e-06	605.17	224.01	1.9515e-06	1.6142e-06	268.81	107.83	91.138	39.757	1.2053e-06	46.21	4.8228e-05	4.37e-05	1.1665e-05	459.07	5.1046e-07	4.7749e-07	502.44	176.9	5.0552e-07	4.7476e-07	196.98	77.553	62.716	27.764	4.5546e-07	31.432	125.616	-113.719	-74.144	-122.675	9.857	-30.952	-124.099	-117.396	-77.880	-57.676	-119.905	-116.546	-114.560	-109.143	2.226	-113.058	-8191	255	
4044.348	1	1	0	0	0.2726	0.22676	0.14477	0.17693	0.12882	0.054884	0.23876	0.17289	0.1025	0.15071	0.19755	0.063409	0.28454	0.21443	0.10212	0.23365	-3.6271	-4.1521	-3.6271	-4.1188	-3.8125	-3.8125	-4.3187	-3.9021	-3.8833	-4.0104	-3.7188	-4.0354	-4.0229	-3.5604	-4.2542	-3.7646	-98.336	2.560	161.113	214.974	5.703	102.813	-130.623	164.969	1.120	134.870	182.686	-111.728	156.867	195.640	-29.411	176.965	0.00044636	0.00011119	4.1986e-05	557.68	9.7136e-07	1.6916e-06	602.24	222.73	9.8131e-07	1.8526e-07	265.31	105.54	90.294	38.884	6.9518e-07	45.009	4.7238e-05	4.3111e-05	1.1639e-05	459.4	4.9964e-07	4.7576e-07	499.6	176.39	4.9219e-07	4.6428e-07	194.97	76.46	61.91	27.198	4.5328e-07	30.741	121.506	-100.761	217.447	-122.710	-51.807	-37.440	-124.105	-117.874	-33.937	57.303	-120.143	-116.530	-114.980	-109.332	35.195	-113.136	-8191	255	
4044.444	1	1	0	0	0.11313	0.15035	0.065398	0.29824	0.097203	0.10125	0.14891	0.13733	0.082345	0.15069	0.18976	0.13297	0.15054	0.13524	0.31969	0.14126	-3.3229	-4.2188	-3.8646	-4.0312	-4.075	-3.5583	-4.2875	-3.9813	-3.7958	-4.2833	-3.7438	-3.8771	-4.1417	-3.7938	-4.0062	-3.9542	178.733	-17.366	85.264	154.004	-128.651	-56.319	-72.792	91.062	94.195	71.631	-116.194	192.083	176.659	192.079	17.540	136.626	0.00050384	0.00017107	4.6873e-05	553.5	3.8982e-06	6.7612e-07	597.43	222.65	1.3704e-06	2.8633e-07	265.78	105.67	90.187	38.725	1.4292e-06	45.135	4.5407e-05	4.1631e-05	1.1649e-05	457.51	4.7533e-07	4.5079e-07	497.75	175.4	4.7115e-07	4.491e-07	194.24	76.135	61.725	27.149	4.5864e-07	30.706	128.726	-49.616	-66.266	-123.122	-31.305	-5.837	-123.969	-117.439	-77.019	35.289	-120.287	-116.453	-114.772	-109.088	73.221	-113.171	-8191	255	
4044.540	1	1	0	0	0.23702	0.1923	0.11224	0.22415	0.17858	0.16339	0.27057	0.030467	0.11127	0.14865	0.13926	0.15104	0.02856	0.10107	0.11587	0.088861	-3.4813	-4.0271	-3.7375	-3.8708	-3.9104	-3.5417	-4.1438	-4.0667	-3.6833	-4.2	-3.7583	-3.7938	-4.0979	-3.4979	-4.1875	-3.9708	-19.094	-69.292	222.646	218.683	128.891	86.616	200.898	16.213	65.917	-107.250	212.647	135.164	43.875	-72.048	78.518	198.980	0.00056555	0.00013063	4.8884e-06	554.73	3.1202e-07	1.2886e-06	601.76	221.31	1.1387e-06	1.1704e-06	266.99	106.04	90.088	39.014	1.3759e-06	45.369	4.3598e-05	3.9681e-05	1.1784e-05	457.84	4.5514e-07	4.3281e-07	499.74	175.65	4.5342e-07	4.298e-07	195.14	76.249	61.656	27.19	4.7383e-07	30.847	121.748	-57.024	73.851	-122.533	-82.629	19.681	-124.167	-117.442	23.627	-0.638	-120.221	-116.512	-114.710	-109.526	-44.742	-112.978	-8191	255	
4044.637	1	1	0	0	0.31389	0.12999	0.092348	0.18593	0.18004	0.03534	0.027715	0.22915	0.28364	0.10028	0.29483	0.018708	0.20328	0.18022	0.17231	0.37636	-3.2333	-4.2042	-3.6854	-3.7562	-3.9396	-3.7313	-4.225	-3.9917	-3.5729	-4.1771	-3.9271	-3.8229	-4.2625	-3.775	-4.0229	-3.9833	167.694	26.358	220.321	86.769	3.421	43.091	-74.860	178.483	94.105	-24.083	194.555	68.012	-131.474	127.971	94.387	117.222	0.00053337	7.951e-05	2.8748e-05	555.51	1.7175e-06	6.147e-07	604.07	223.35	2.1542e-07	9.4374e-07	266.08	106.71	90.72	39.168	6.0331e-07	45.785	4.2785e-05	3.9585e-05	1.227e-05	458.85	4.5644e-07	4.4086e-07	503.04	176.41	4.568e-07	4.4373e-07	196.34	76.657	61.849	27.37	5.0192e-07	31.113	117.149	-56.099	-96.363	-122.632	-73.544	60.316	-124.338	-117.591	111.957	-14.527	-120.302	-116.540	-114.659	-109.285	70.578	-112.869	-8191	255	
4044.733	1	1	0	0	0.10226	0.16656	0.21823	0.1021	0.20727	0.32777	0.21591	0.22989	0.13174	0.25723	0.33293	0.32321	0.27493	0.16692	0.13756	0.13662	-3.2438	-4.1479	-3.7062	-3.7917	-3.9958	-3.6667	-3.9125	-4.0854	-3.5125	-4.15	-3.9375	-3.9417	-4.2542	-3.6208	-3.95	-4.2292	-106.611	196.058	201.274	19.247	-42.607	87.066	118.701	155.525	144.288	16.282	163.782	165.116	145.182	196.057	-120.567	163.282	0.00055576	1.5147e-05	5.1983e-05	558.08	1.6807e-06	9.4246e-07	608.34	222.71	1.0387e-06	8.2766e-07	265.1	105.74	89.796	38.612	1.4365e-06	44.997	4.3064e-05	4.1925e-05	1.2757e-05	460.18	4.5746e-07	4.7175e-07	507.59	176.49	4.6384e-07	4.783e-07	196.51	76.21	61.466	27.081	5.1398e-07	30.587	125.927	106.882	-58.684	-122.712	-34.419	30.243	-124.020	-117.525	-34.723	-29.278	-120.106	-116.870	-114.427	-109.264	-38.952	-112.881	-8191	255	
4044.852	1	1	0	0	0.057176	0.015485	0.21471	0.20923	0.26215	0.26533	0.26697	0.062975	0.23107	0.17315	0.087946	0.07539	0.0083842	0.14138	0.25597	0.071306	-3.2875	-4.2146	-3.8292	-3.8479	-4.1458	-3.8875	-3.9938	-4.1146	-3.5208	-4.0021	-4.1417	-3.725	-4.0854	-3.7792	-3.8563	-4.15	2.307	140.865	13.162	182.730	-65.776	59.707	49.711	-57.414	92.501	114.366	155.462	36.273	-93.020	83.426	-101.461	10.099	0.00053104	0.00016357	5.4825e-05	557.67	1.5689e-06	1.5153e-06	599.3	220.67	1.3966e-06	5.6263e-07	264.06	104.5	89.003	38.103	4.822e-07	44.329	4.3466e-05	4.4817e-05	1.2944e-05	458.11	4.5937e-07	4.9804e-07	501.54	174.51	4.684e-07	5.0487e-07	193.93	75.111	60.916	26.76	5.0933e-07	30.169	113.186	-115.306	-85.567	-122.700	-22.133	-95.307	-124.138	-117.628	46.989	74.725	-120.113	-116.348	-114.922	-109.224	32.748	-113.042	-8191	255	
4044.948	1	1	0	0	0.063521	0.092091	0.027853	0.11018	0.067891	0.099727	0.28146	0.22828	0.039035	0.16094	0.23557	0.12675	0.094291	0.20565	0.19826	0.28779	-3.2271	-4.0521	-3.8583	-3.6979	-4.2625	-3.9188	-3.7896	-4.4062	-3.5354	-4.1562	-4.1271	-3.7646	-4.1	-3.7917	-3.6708	-4.275	210.032	182.591	-13.961	112.146	5.358	33.339	158.161	195.987	72.665	-14.279	192.929	-118.282	133.151	221.730	-2.553	105.272	0.00059033	0.00013751	1.9194e-05	553.51	1.944e-06	2.6322e-07	601.68	220.58	9.575e-07	1.3408e-06	263.62	104.24	88.615	38.298	5.4787e-07	44.821	4.4609e-05	4.731e-05	1.2878e-05	457.45	4.7272e-07	5.2e-07	502.01	174.53	4.7962e-07	5.1971e-07	194.07	75.3	61.068	26.908	4.9616e-07	30.348	129.616	-115.356	-120.534	-122.665	-32.130	-15.149	-123.967	-117.661	-70.900	37.827	-120.033	-116.651	-114.450	-109.162	16.597	-113.151	-8191	255	
4045.044	1	1	0	0	0.098805	0.090353	0.090096	0.014507	0.22874	0.16352	0.217	0.32136	0.11111	0.093715	0.10677	0.37799	0.11579	0.09784	0.16374	0.10123	-3.4875	-3.9062	-4.0417	-3.7521	-4.1104	-3.9917	-3.7938	-4.1813	-3.5771	-3.9521	-4	-3.5938	-4.0771	-3.6375	-3.6354	-4.1396	207.407	-23.562	58.991	-8.747	72.435	-123.578	104.996	162.591	-59.169	154.059	221.275	125.302	-72.554	16.852	199.225	-117.970	0.00063991	0.00020387	5.9297e-05	560.49	8.9597e-07	1.778e-06	603.58	221.09	1.1135e-06	1.6782e-06	266.44	105.03	89.423	38.577	9.9317e-07	45.304	4.4936e-05	4.6943e-05	1.232e-05	458.51	4.8271e-07	5.0886e-07	502.71	174.51	4.8533e-07	5.0643e-07	194.84	75.601	61.572	27.085	4.8143e-07	30.703	124.238	-75.274	-55.532	-122.656	-30.929	-17.504	-124.342	-117.591	108.723	-67.115	-120.165	-116.662	-114.828	-109.372	-100.640	-113.105	-8191	255	
4045.140	1	1	0	0	0.081904	0.18484	0.38856	0.093977	0.14844	0.15395	0.18931	0.084861	0.10214	0.23557	0.25278	0.063003	0.045654	0.17144	0.10031	0.11339	-3.5708	-3.825	-3.9542	-3.6646	-4.1125	-4.0104	-3.6854	-4.1104	-3.8104	-3.8167	-4.2208	-3.6521	-4.1979	-3.9083	-3.6333	-4.1271	34.462	184.111	17.215	81.100	191.908	182.753	95.855	168.117	50.540	-38.836	224.148	79.589	-73.261	150.987	172.011	172.974	0.00055727	3.8253e-05	5.9758e-06	560.93	9.9257e-07	1.6215e-06	604.81	221.14	7.618e-07	2.2831e-06	267.51	105.81	89.756	38.63	2.2684e-06	45.454	4.6614e-05	4.6419e-05	1.2064e-05	459.99	5.0438e-07	5.0666e-07	503.92	174.91	5.0866e-07	5.0877e-07	195.88	76.206	61.728	27.194	4.8277e-07	30.897	117.009	-7.339	-111.326	-122.741	-89.075	-43.808	-124.287	-117.534	-62.811	-58.585	-119.883	-116.719	-114.577	-109.178	-29.056	-112.822	-8191	255	
4045.236	1	1	0	0	0.14278	0.15759	0.11463	0.067859	0.16502	0.014807	0.19295	0.25412	0.017539	0.16379	0.063427	0.44344	0.038447	0.25919	0.029537	0.084593	-3.45	-3.7604	-4.2729	-3.6875	-3.8521	-3.9646	-3.5667	-4.1062	-3.8667	-3.6792	-4.2458	-3.8063	-4.1	-4.0083	-3.4521	-4.1438	-112.534	213.807	41.049	-43.928	-64.506	196.246	181.336	158.862	80.016	103.328	-113.536	55.947	-57.738	211.996	183.406	-0.778	0.00063159	7.6821e-05	6.3739e-05	557.23	5.7653e-07	7.456e-07	606.7	221.67	2.0138e-06	1.2733e-06	264.51	104.57	88.384	37.998	1.068e-06	44.361	4.8879e-05	4.5901e-05	1.1915e-05	459.48	5.2726e-07	4.9987e-07	502.99	174.78	5.2721e-07	4.9564e-07	193.97	75.359	61.153	26.649	4.6887e-07	30.254	115.804	106.457	-96.143	-122.950	23.915	9.274	-124.232	-117.555	-33.388	-42.554	-120.105	-116.656	-114.462	-109.210	-2.917	-112.901	-8191	255	
4045.332	1	1	0	0	0.03922	0.28451	0.35548	0.14049	0.097353	0.14935	0.23008	0.088875	0.090599	0.24069	0.039444	0.38231	0.23132	0.23275	0.15717	0.13994	-3.6167	-3.7062	-4.125	-3.7229	-3.8896	-4.1542	-3.6354	-4.2667	-3.9542	-3.7958	-4.1792	-3.8646	-4.0188	-4.1958	-3.6312	-3.975	154.606	200.781	28.188	-67.524	46.458	114.093	188.048	203.507	127.789	45.111	11.811	209.718	69.591	205.692	61.853	-82.377	0.00056034	5.576e-05	3.0739e-05	555.11	1.7499e-06	5.4331e-07	598.8	220.13	1.1257e-06	2.1203e-06	262.86	103.9	88.107	37.726	1.2625e-06	44.364	4.9183e-05	4.5219e-05	1.1955e-05	458.08	5.2918e-07	4.8996e-07	499.91	174.23	5.2023e-07	4.868e-07	192.42	75.017	60.896	26.509	4.6446e-07	30.272	121.528	-93.314	-82.562	-123.190	-47.410	34.488	-123.857	-117.572	31.599	-0.489	-120.265	-116.439	-114.643	-108.968	-67.789	-113.228	-8191	255	
4045.453	1	1	0	0	0.14733	0.15022	0.14314	0.19676	0.14838	0.22934	0.040799	0.12083	0.13392	0.055731	0.19493	0.011958	0.31377	0.13104	0.1651	0.074763	-3.5187	-3.625	-4.1208	-3.6333	-3.5958	-4.0188	-3.55	-4.0375	-4.0417	-3.6208	-4.0875	-3.8521	-3.8125	-4.0896	-3.6521	-4.2146	2.925	-125.559	-42.265	58.636	202.693	59.795	27.012	111.586	78.444	51.812	-25.455	-42.673	-116.256	70.231	102.601	-44.797	0.00058477	0.00019679	5.2116e-05	555.91	1.0144e-06	1.6634e-06	603.49	220.52	1.0368e-06	5.7375e-07	264.37	104.01	88.717	37.997	6.5486e-07	44.844	4.7564e-05	4.3579e-05	1.1582e-05	459.24	5.0175e-07	4.7095e-07	500.67	174.6	5.0059e-07	4.7145e-07	193.85	75.287	60.927	26.635	4.6235e-07	30.566	114.053	-66.852	-0.002	-123.109	-10.918	-12.294	-124.153	-117.635	-16.935	221.900	-119.962	-116.740	-114.737	-109.051	-58.286	-113.170	-8191	255	
4045.549	1	1	0	0	0.18293	0.1174	0.22338	0.21174	0.12522	0.17201	0.061143	0.26725	0.10316	0.22188	0.18142	0.22704	0.18274	0.15515	0.21032	0.12663	-3.7396	-3.6063	-4.2083	-3.8417	-3.7333	-4.1375	-3.875	-3.9833	-4.0979	-3.5312	-3.9875	-3.85	-3.8	-4.1646	-3.5375	-3.8958	-106.808	138.378	118.330	216.813	140.358	117.951	46.361	130.599	-75.068	198.716	138.909	-113.251	-41.307	-116.431	-86.130	129.180	0.00049314	0.00017538	3.5465e-05	557.91	1.0652e-06	1.8208e-06	607.19	222.09	2.8261e-07	1.8063e-06	264.82	105.31	89.195	38.215	6.6901e-07	45.547	4.5981e-05	4.2709e-05	1.1764e-05	460.67	4.9378e-07	4.6439e-07	504.25	175.65	4.9047e-07	4.5838e-07	194.69	76.096	61.209	26.788	4.8629e-07	30.998	121.944	-115.988	-127.237	-122.644	5.692	39.243	-123.904	-117.524	211.949	-0.434	-120.030	-116.582	-114.605	-108.951	-80.035	-112.992	-8191	255	
4045.645	1	1	0	0	0.17789	0.1241	0.20912	0.11461	0.21878	0.31634	0.11774	0.052275	0.26184	0.14195	0.086478	0.099163	0.34875	0.36056	0.05565	0.050788	-3.5833	-3.4417	-3.8875	-3.8083	-3.5938	-4.175	-3.8917	-3.9521	-4.0292	-3.5396	-4.0958	-3.8417	-3.6271	-4.2812	-3.7313	-3.675	135.717	179.839	-14.603	10.516	134.770	85.285	150.236	190.075	207.993	85.034	174.918	102.245	170.968	133.645	115.599	189.733	0.00050075	0.00022307	3.0648e-05	559.66	1.8067e-06	1.3402e-06	611.9	224.06	1.097e-06	1.299e-06	267.58	105.27	88.871	38.069	5.1392e-07	45.196	4.4846e-05	4.1859e-05	1.2296e-05	462.51	4.7543e-07	4.4799e-07	507.49	176.7	4.7581e-07	4.5005e-07	196.25	76.041	61.047	26.747	5.0016e-07	30.689	123.386	-58.829	222.084	-122.749	-10.400	-23.332	-124.130	-117.315	53.874	-47.731	-120.113	-116.343	-114.682	-109.302	36.545	-112.593	-8191	255	
4045.741	1	1	0	0	0.071138	0.16978	0.071408	0.10666	0.088125	0.18818	0.14896	0.21772	0.10342	0.16816	0.036963	0.19259	0.23427	0.17678	0.074008	0.11189	-3.7042	-3.5708	-3.9208	-3.9958	-3.4938	-4.0062	-3.8146	-3.7375	-4.0771	-3.6833	-4.1	-3.9292	-3.4708	-4.1708	-3.7333	-3.8688	157.255	-6.247	195.641	-109.721	217.992	-76.925	-97.979	123.590	112.350	127.469	64.715	144.234	107.687	8.776	135.114	31.994	0.00044916	2.7161e-05	1.8417e-05	553.92	1.0218e-06	6.0628e-07	600.69	220.81	1.0594e-06	1.4903e-06	263.08	103.82	88.415	37.655	1.5261e-06	44.367	4.3901e-05	4.1528e-05	1.2755e-05	458.04	4.6682e-07	4.5213e-07	501.62	174.62	4.6241e-07	4.621e-07	194.13	74.96	60.505	26.345	5.1493e-07	30.143	123.389	-131.123	147.269	-122.786	-40.789	9.077	-124.208	-117.783	-19.838	-33.316	-119.967	-116.771	-114.853	-109.168	-1.898	-112.933	-8191	255	
4045.836	1	1	0	0	0.14696	0.038938	0.15211	0.15274	0.24228	0.048695	0.06824	0.21431	0.37484	0.29555	0.15601	0.076713	0.053781	0.28584	0.22246	0.16346	-3.7896	-3.6646	-4.0083	-4.0917	-3.5687	-4.1729	-4.0229	-3.6729	-3.9979	-3.7375	-3.8792	-3.9667	-3.7042	-3.9792	-3.8604	-3.8312	43.196	82.541	201.239	-42.492	51.054	-38.305	100.974	51.058	206.495	94.319	223.902	105.302	98.257	188.772	-30.546	-103.244	0.00047939	4.374e-05	1.0386e-05	555.91	5.587e-07	1.5893e-06	600.64	220.59	2.3613e-06	1.0158e-06	263.88	103.76	88.28	37.891	2.2635e-06	44.557	4.3867e-05	4.3197e-05	1.3083e-05	456.92	4.6331e-07	4.6956e-07	501.96	174.21	4.6092e-07	4.8425e-07	194.74	75.109	60.515	26.552	5.1268e-07	30.304	109.976	-47.138	-42.358	-122.414	-7.314	-24.857	-123.984	-117.301	-77.963	-77.438	-120.124	-116.454	-114.251	-109.218	-10.602	-112.973	-8191	255	
#DATA ENDS
