BOXY.EXE: ISS Imagent and Oximeter Data Acquisition Program Version 0.80
Ascii Record File

#ACQ INFORMATION
2  Detector Channels 
16  External MUX Channels 
1  Auxiliary Channels 
5000  Waveform (CCF) Frequency (Hz)
1  Waveforms Skipped 
30  Waveforms Averaged 
1  Cycles Averaged 
16  Acquisitions per Waveform 
10.0806  Updata Rate (Hz) 

#FILE INFORMATION
TRUE -- External MUX Channel results are PARSED.
FALSE -- AC DC and Phase are NOT grouped.
TRUE -- Companion Program Settings File CREATED.
FALSE -- AC data not excluded
FALSE -- DC data not excluded
FALSE -- Phase data not excluded
FALSE -- Auxillary Chn. data not excluded
Tab delimiters

#CALIBRATION STATE
TRUE -- Waveform Calibration Values APPLIED.


#AUX CALIBRATION VALUES
Val Type	aux-1	

Term	1.0000e+00	
Factor	0.0000e+00	


#WF CALIBRATION VALUES
A = Detector Channel
Val Type	A-AC1	A-AC2	A-AC3	A-AC4	A-AC5	A-AC6	A-AC7	A-AC8	A-AC9	A-AC10	A-AC11	A-AC12	A-AC13	A-AC14	A-AC15	A-AC16	A-DC1	A-DC2	A-DC3	A-DC4	A-DC5	A-DC6	A-DC7	A-DC8	A-DC9	A-DC10	A-DC11	A-DC12	A-DC13	A-DC14	A-DC15	A-DC16	A-Ph1	A-Ph2	A-Ph3	A-Ph4	A-Ph5	A-Ph6	A-Ph7	A-Ph8	A-Ph9	A-Ph10	A-Ph11	A-Ph12	A-Ph13	A-Ph14	A-Ph15	A-Ph16	

Term	0.00000e+00	0.00000e+00	0.00000e+00	0.00000e+00	0.00000e+00	0.00000e+00	0.00000e+00	0.00000e+00	0.00000e+00	0.00000e+00	0.00000e+00	0.00000e+00	0.00000e+00	0.00000e+00	0.00000e+00	0.00000e+00	0.00000e+00	0.00000e+00	0.00000e+00	0.00000e+00	0.00000e+00	0.00000e+00	0.00000e+00	0.00000e+00	0.00000e+00	0.00000e+00	0.00000e+00	0.00000e+00	0.00000e+00	0.00000e+00	0.00000e+00	0.00000e+00	0.00000e+00	0.00000e+00	0.00000e+00	0.00000e+00	0.00000e+00	0.00000e+00	0.00000e+00	0.00000e+00	0.00000e+00	0.00000e+00	0.00000e+00	0.00000e+00	0.00000e+00	0.00000e+00	0.00000e+00	0.00000e+00	
Factor	1.00000e+00	1.00000e+00	1.00000e+00	1.00000e+00	1.00000e+00	1.00000e+00	1.00000e+00	1.00000e+00	1.00000e+00	1.00000e+00	1.00000e+00	1.00000e+00	1.00000e+00	1.00000e+00	1.00000e+00	1.00000e+00	1.00000e+00	1.00000e+00	1.00000e+00	1.00000e+00	1.00000e+00	1.00000e+00	1.00000e+00	1.00000e+00	1.00000e+00	1.00000e+00	1.00000e+00	1.00000e+00	1.00000e+00	1.00000e+00	1.00000e+00	1.00000e+00	X	X	X	X	X	X	X	X	X	X	X	X	X	X	X	X	

B = Detector Channel
Val Type	B-AC1	B-AC2	B-AC3	B-AC4	B-AC5	B-AC6	B-AC7	B-AC8	B-AC9	B-AC10	B-AC11	B-AC12	B-AC13	B-AC14	B-AC15	B-AC16	B-DC1	B-DC2	B-DC3	B-DC4	B-DC5	B-DC6	B-DC7	B-DC8	B-DC9	B-DC10	B-DC11	B-DC12	B-DC13	B-DC14	B-DC15	B-DC16	B-Ph1	B-Ph2	B-Ph3	B-Ph4	B-Ph5	B-Ph6	B-Ph7	B-Ph8	B-Ph9	B-Ph10	B-Ph11	B-Ph12	B-Ph13	B-Ph14	B-Ph15	B-Ph16	

Term	0.00000e+00	0.00000e+00	0.00000e+00	0.00000e+00	0.00000e+00	0.00000e+00	0.00000e+00	0.00000e+00	0.00000e+00	0.00000e+00	0.00000e+00	0.00000e+00	0.00000e+00	0.00000e+00	0.00000e+00	0.00000e+00	0.00000e+00	0.00000e+00	0.00000e+00	0.00000e+00	0.00000e+00	0.00000e+00	0.00000e+00	0.00000e+00	0.00000e+00	0.00000e+00	0.00000e+00	0.00000e+00	0.00000e+00	0.00000e+00	0.00000e+00	0.00000e+00	-1.99800e+02	-1.32036e+02	-1.16888e+02	-1.84163e+02	-8.14992e+01	-6.94175e+01	-1.57306e+02	-1.62015e+02	-8.64931e+01	-6.67769e+01	-1.77797e+02	-1.71882e+02	-1.81595e+02	-1.77192e+02	-7.35172e+01	-1.50103e+02	
Factor	3.79814e-05	1.92844e-04	5.09745e-05	1.70467e-01	1.91118e-06	1.87975e-06	1.61549e-01	5.09297e-02	1.97878e-06	1.84182e-06	9.46997e-01	2.66704e-02	2.93344e-02	8.92146e-03	1.95588e-06	1.25256e-02	7.13065e-06	8.70306e-06	2.43209e-06	8.69350e-02	9.20906e-08	9.60395e-08	7.77383e-02	2.60149e-02	9.20560e-08	9.54915e-08	4.40650e-01	1.32784e-02	1.50708e-02	4.60272e-03	9.35434e-08	6.26721e-03	X	X	X	X	X	X	X	X	X	X	X	X	X	X	X	X	



#DISTANCE SETTINGS
A = Detector Channel
A-1	A-2	A-3	A-4	A-5	A-6	A-7	A-8	A-9	A-10	A-11	A-12	A-13	A-14	A-15	A-16	

2.5000e+00	3.0000e+00	2.5000e+00	3.0000e+00	2.0000e+00	3.0000e+00	1.5000e+00	3.0000e+00	3.0000e+00	3.0000e+00	3.0000e+00	3.0000e+00	3.0000e+00	3.0000e+00	1.5000e+00	3.0000e+00	

B = Detector Channel
B-1	B-2	B-3	B-4	B-5	B-6	B-7	B-8	B-9	B-10	B-11	B-12	B-13	B-14	B-15	B-16	

1.0000e+01	1.0000e+01	1.0000e+01	1.4400e+00	1.0000e+01	1.0000e+01	1.5100e+00	1.9400e+00	1.0000e+01	1.0000e+01	1.9900e+00	2.4900e+00	2.4100e+00	2.9000e+00	1.0000e+01	2.9800e+00	




#DATA BEGINS
time	group	step	mark	flag	A-AC1	A-AC2	A-AC3	A-AC4	A-AC5	A-AC6	A-AC7	A-AC8	A-AC9	A-AC10	A-AC11	A-AC12	A-AC13	A-AC14	A-AC15	A-AC16	A-DC1	A-DC2	A-DC3	A-DC4	A-DC5	A-DC6	A-DC7	A-DC8	A-DC9	A-DC10	A-DC11	A-DC12	A-DC13	A-DC14	A-DC15	A-DC16	A-Ph1	A-Ph2	A-Ph3	A-Ph4	A-Ph5	A-Ph6	A-Ph7	A-Ph8	A-Ph9	A-Ph10	A-Ph11	A-Ph12	A-Ph13	A-Ph14	A-Ph15	A-Ph16	B-AC1	B-AC2	B-AC3	B-AC4	B-AC5	B-AC6	B-AC7	B-AC8	B-AC9	B-AC10	B-AC11	B-AC12	B-AC13	B-AC14	B-AC15	B-AC16	B-DC1	B-DC2	B-DC3	B-DC4	B-DC5	B-DC6	B-DC7	B-DC8	B-DC9	B-DC10	B-DC11	B-DC12	B-DC13	B-DC14	B-DC15	B-DC16	B-Ph1	B-Ph2	B-Ph3	B-Ph4	B-Ph5	B-Ph6	B-Ph7	B-Ph8	B-Ph9	B-Ph10	B-Ph11	B-Ph12	B-Ph13	B-Ph14	B-Ph15	B-Ph16	aux-1	digaux	

543.179	1	1	0	256	0.18809	0.16607	0.2379	0.26725	0.17034	0.19509	0.43458	0.38479	0.10528	0.034752	0.13834	0.12371	0.16289	0.13215	0.3373	0.10805	-2.5667	-3.3083	-3.2896	-3.3312	-3.3083	-2.9208	-3.4188	-3.3917	-2.9562	-3.2729	-3.0167	-3.0583	-3.3271	-3.3667	-2.8667	-3.3854	-34.779	-77.297	-64.276	193.748	170.064	179.574	172.760	176.085	62.833	-59.134	-18.934	203.780	111.009	204.558	195.912	-123.238	0.00085371	0.0006587	0.00015059	1554.8	5.1773e-06	4.2033e-06	1536.9	428.19	7.3601e-06	4.8103e-06	486.51	163.02	144.73	48.796	4.1302e-06	59.752	0.00043383	0.00035084	0.00010083	1571.4	4.0002e-06	4.0333e-06	1560.5	435.54	4.0808e-06	3.8911e-06	478.23	166.69	146.86	49.923	4e-06	61.384	132.414	-64.426	-41.094	-124.715	-18.237	15.120	-125.081	-120.516	-60.926	24.140	-120.467	-116.485	-116.586	-111.350	-17.496	-112.074	-8191	255	
543.273	1	1	0	0	0.21119	0.24243	0.025232	0.36212	0.24438	0.054752	0.11828	0.35142	0.024001	0.085084	0.18764	0.23919	0.073705	0.2363	0.20964	0.21495	-2.4375	-3.1458	-3.0896	-2.9708	-3.2333	-3.0125	-3.3542	-3.3979	-3.0042	-3.3812	-3.0292	-3.0917	-3.1458	-3.0062	-3.15	-3.2833	89.593	135.318	15.784	198.477	-69.181	-48.924	176.607	189.017	144.177	41.219	-76.912	161.855	-98.971	116.553	-75.260	136.108	0.0008779	0.00052666	0.00019561	1550.5	5.2432e-06	6.9834e-06	1535.4	429.45	4.6819e-06	3.6163e-06	484.19	163.37	144.09	48.801	3.9367e-06	59.864	0.0004417	0.00035842	0.00010646	1569.9	4.1441e-06	4.0052e-06	1559.9	435.27	4.281e-06	3.8063e-06	479.72	166.68	146.89	49.925	4.0799e-06	61.44	127.666	-52.468	-52.371	-124.850	-5.734	-2.501	-125.118	-120.438	-44.023	7.332	-120.715	-116.587	-116.736	-111.405	-14.282	-112.253	-8191	255	
543.369	1	1	0	0	0.18381	0.14334	0.1885	0.25591	0.11898	0.21127	0.45778	0.23423	0.12829	0.3237	0.1113	0.13632	0.22782	0.40079	0.038019	0.19829	-2.5417	-3.1562	-3.1521	-3.1042	-3.0771	-2.8396	-3.2	-3.3875	-2.95	-3.3771	-3.3708	-3.1604	-3.4146	-3.2521	-3.0542	-3.4229	206.506	150.589	69.299	166.470	-39.250	-55.622	119.643	184.780	163.849	186.452	145.608	-100.442	109.120	213.953	-85.155	21.413	0.00089471	0.00039099	0.00013087	1554.9	6.3605e-06	5.4164e-06	1537.4	428.14	7.464e-06	6.2024e-06	486.97	163.27	143.98	48.752	6.8334e-06	59.751	0.00044009	0.0003577	0.00010352	1570.8	4.126e-06	4.0219e-06	1560.2	434.86	4.272e-06	3.9569e-06	479.98	166.9	146.74	49.898	4.0401e-06	61.452	130.489	-54.403	-33.112	-124.768	-38.137	38.536	-125.084	-120.531	-36.456	-7.629	-121.211	-116.804	-116.733	-111.150	-6.611	-112.161	-8191	255	
543.490	1	1	0	0	0.19374	0.059365	0.23068	0.26186	0.11686	0.11533	0.32558	0.36318	0.1628	0.10484	0.079877	0.21924	0.055347	0.32731	0.23623	0.11405	-2.2771	-2.9437	-3.2188	-3.0979	-3.3542	-3.2896	-3.3708	-3.4396	-2.8563	-3.1333	-3.15	-2.9896	-3.2438	-3.3083	-2.8729	-3.3646	90.308	-128.308	119.536	179.670	24.596	75.995	108.158	176.552	56.517	27.033	36.003	53.954	100.392	151.352	-137.325	11.462	0.00089655	0.00054156	0.00011216	1547.6	5.5833e-06	5.9958e-06	1541.5	428.47	5.0298e-06	3.2029e-06	477.81	163.18	143.91	48.802	5.7842e-06	59.823	0.00044047	0.00035811	0.00010197	1566.7	3.9768e-06	4.0141e-06	1562.4	435.05	4.1734e-06	3.87e-06	476.93	166.81	146.84	49.894	4.0107e-06	61.466	131.944	-49.917	-32.811	-124.764	-14.422	32.914	-125.117	-120.516	-29.042	-4.279	-120.930	-116.654	-116.596	-111.308	0.859	-111.970	-8191	255	
543.586	1	1	0	0	0.090732	0.4086	0.28894	0.52416	0.013145	0.1107	0.27062	0.31996	0.22482	0.30408	0.037858	0.073084	0.18168	0.18927	0.16695	0.081252	-2.6042	-3.2812	-3.3375	-3.2292	-3.3042	-3.2708	-3.05	-3.4729	-2.9604	-3.0604	-3.2854	-3.2708	-3.4354	-3.4396	-3.2208	-3.575	120.563	-60.087	186.960	155.368	186.417	154.231	161.610	183.954	85.715	23.629	-134.285	100.011	-91.607	-4.376	81.922	214.830	0.0008521	0.00083996	0.00017291	1552.2	6.9155e-06	4.629e-06	1535.8	427.64	5.4902e-06	4.3894e-06	480.92	163.75	144.28	48.758	4.7647e-06	59.951	0.00044015	0.00035911	9.9478e-05	1568.2	4.0403e-06	3.865e-06	1559.5	434.62	4.135e-06	3.8537e-06	477.4	166.99	146.77	49.923	4.0997e-06	61.553	130.785	-61.383	-41.703	-124.571	-26.064	23.851	-125.113	-120.534	-55.156	32.060	-120.398	-116.449	-116.783	-111.464	-9.572	-112.217	-8191	255	
543.682	1	1	0	0	0.14338	0.1237	0.27015	0.23255	0.21372	0.18681	0.23329	0.32885	0.39072	0.2302	0.15875	0.21033	0.066124	0.20942	0.052093	0.16503	-2.5812	-3.0542	-3.4229	-3.3	-3.225	-3.3187	-3.2396	-3.4792	-3.2062	-3.0854	-3.3521	-3.0563	-3.2188	-3.1854	-2.7625	-3.1646	-89.033	29.204	-75.653	161.285	-65.235	50.969	171.917	160.604	-88.173	-81.510	52.538	-92.596	90.268	133.631	11.137	56.235	0.00084677	0.00045312	0.00019203	1549.3	4.0866e-06	5.2616e-06	1540.1	429.95	5.3457e-06	8.6874e-06	485.22	163.74	144.49	48.826	3.53e-06	59.762	0.0004474	0.00037276	0.00010569	1571.8	4.2306e-06	4.2041e-06	1564.9	435.87	4.4294e-06	4.0803e-06	480.54	167.19	147.13	49.977	4.3186e-06	61.537	128.659	-68.506	-38.359	-124.781	-14.772	0.424	-125.146	-120.610	-58.246	7.408	-120.840	-116.423	-116.513	-111.538	-11.132	-112.107	-8191	255	
543.779	1	1	0	0	0.20304	0.14903	0.17628	0.1587	0.0055946	0.08033	0.26773	0.22538	0.089673	0.14718	0.13634	0.19566	0.47659	0.24587	0.29194	0.43857	-2.6021	-3.0854	-3.3479	-3.2354	-3.1437	-3.2896	-2.9479	-3.2729	-3.15	-3.25	-3.3208	-2.95	-3.0042	-3.4708	-3.0104	-3.5563	220.310	-95.133	-9.015	147.414	110.285	71.591	-126.408	181.415	146.319	207.767	197.370	202.532	157.342	200.926	152.364	168.404	0.00087796	0.00063591	0.00013023	1548.9	4.5403e-06	6.1481e-06	1539.8	427.16	6.7774e-06	5.248e-06	482.76	163.4	144.26	48.582	4.7016e-06	59.831	0.00044835	0.00036765	0.00010101	1569.3	3.9881e-06	4.0759e-06	1560	434.66	4.1005e-06	3.7252e-06	477.16	166.75	146.76	49.815	3.9505e-06	61.416	128.888	-54.618	-32.168	-124.881	-6.890	5.086	-125.178	-120.492	-59.648	25.374	-121.177	-116.607	-116.608	-111.267	-36.757	-111.979	-8191	255	
543.875	1	1	0	0	0.11365	0.079996	0.080955	0.15898	0.081929	0.12931	0.11309	0.26548	0.045046	0.1263	0.21519	0.17789	0.21334	0.15655	0.12185	0.27754	-2.7542	-2.8771	-3.1875	-2.9958	-3.1625	-3.325	-3.3229	-3.4604	-3.1292	-2.9646	-3.1417	-3.0854	-3.2604	-3.4813	-3.3063	-3.4437	204.452	104.283	116.635	186.983	205.112	128.934	159.870	160.599	-47.277	100.132	-134.930	-102.968	205.944	-132.218	49.287	161.061	0.00084068	0.00060876	0.00016478	1542.2	4.3211e-06	5.0782e-06	1531.2	428.33	6.1109e-06	7.4486e-06	481.47	163.4	143.52	48.71	2.8436e-06	59.721	0.00043025	0.0003476	9.6625e-05	1562.1	3.9183e-06	3.7623e-06	1555.6	434.51	4.015e-06	3.8105e-06	477.05	166.62	146.43	49.864	3.8561e-06	61.323	130.325	-55.817	-15.430	-124.864	-21.647	23.947	-125.114	-120.570	-44.390	19.180	-120.253	-116.721	-116.696	-111.391	-10.093	-111.953	-8191	255	
543.971	1	1	0	0	0.066477	0.22328	0.1856	0.070035	0.25833	0.14892	0.31095	0.16941	0.063705	0.17991	0.097997	0.15446	0.11443	0.31073	0.22145	0.13051	-2.675	-2.6333	-3.3125	-3.1688	-2.9688	-3.4729	-3.2438	-3.3333	-3.2583	-3.1021	-3.125	-3.0708	-2.9688	-3.4813	-3.1292	-3.2958	95.883	77.961	-49.515	195.919	121.578	153.636	153.513	149.036	-86.307	111.809	-115.487	153.627	-38.617	-83.251	12.762	-110.770	0.00089993	0.00085092	0.00016013	1550.5	3.6865e-06	6.6341e-06	1530	427.47	7.4054e-06	3.5263e-06	479.9	162.84	143.99	48.768	6.4229e-06	59.776	0.00043671	0.00035059	9.6802e-05	1562.9	3.8561e-06	3.7621e-06	1553.6	433.98	3.9613e-06	3.6315e-06	474.75	166.73	146.72	49.861	3.7028e-06	61.439	131.285	-43.658	-53.997	-124.703	41.589	13.417	-125.086	-120.528	-53.421	-13.973	-120.204	-116.419	-116.631	-111.411	6.203	-112.054	-8191	255	
544.067	1	1	0	0	0.12615	0.2561	0.26115	0.26518	0.1304	0.11931	0.43998	0.35948	0.11837	0.027388	0.16767	0.11607	0.11986	0.18452	0.042139	0.22461	-2.8688	-2.9958	-3.1292	-3.1083	-3.1063	-3.1604	-3.3833	-3.3187	-3.3542	-3.0708	-3.2083	-3.1083	-3.0833	-3.5208	-3.0812	-3.1937	-111.923	134.325	80.031	167.056	70.237	47.809	167.218	204.166	132.339	-64.389	-8.738	161.203	185.276	125.195	11.516	105.561	0.00088873	0.00086399	0.0001506	1541.1	4.0594e-06	1.5971e-06	1534.1	429.02	5.7953e-06	4.8173e-06	483.56	163.39	144.55	48.64	5.0253e-06	60.052	0.000409	0.00034127	8.9825e-05	1561	3.6055e-06	3.4432e-06	1554.6	434.94	3.8401e-06	3.5378e-06	475.7	166.76	146.95	49.901	3.7786e-06	61.567	126.505	-44.484	-32.668	-124.830	-28.431	56.528	-125.134	-120.556	-61.796	22.559	-120.790	-116.456	-116.455	-111.398	15.238	-112.180	-8191	255	
544.163	1	1	0	0	0.24587	0.15538	0.35907	0.27169	0.1873	0.076479	0.3338	0.075777	0.16547	0.055192	0.1378	0.34444	0.072174	0.33764	0.25561	0.13874	-2.6542	-2.7521	-3.4083	-3.3458	-2.9625	-3.1958	-3.0458	-3.2271	-3.2687	-3.0312	-3.0062	-3.2333	-3.0812	-3.4583	-3.2979	-3.0583	36.648	-116.742	23.013	-129.349	-28.063	72.557	182.617	145.208	141.421	-76.818	153.463	147.179	156.818	-55.036	-94.477	184.367	0.00084866	0.00063502	0.00015038	1542.8	5.318e-06	6.293e-06	1532.2	427.7	6.4885e-06	6.6017e-06	482.84	162.91	143.89	48.616	7.8092e-06	59.639	0.00041027	0.00033393	9.1791e-05	1561.2	3.7757e-06	3.5955e-06	1553.6	434.23	3.9252e-06	3.7053e-06	475.16	166.41	146.52	49.766	3.8976e-06	61.274	128.305	-52.058	-51.092	-124.799	-3.385	14.835	-124.974	-120.511	-61.341	14.087	-120.182	-116.571	-116.511	-111.506	1.838	-111.884	-8191	255	
544.282	1	1	0	0	0.1662	0.13485	0.14692	0.46609	0.043766	0.068785	0.36453	0.26082	0.051281	0.32335	0.2362	0.19276	0.18669	0.34041	0.084088	0.071025	-2.7	-3.0542	-3.0938	-3.3667	-2.8646	-3.3	-3.3	-3.1562	-3.225	-2.8438	-3.0917	-3.3958	-3.1437	-3.2354	-2.95	-3.0646	-132.511	-113.745	117.916	166.694	86.604	119.122	192.805	218.135	-123.566	-24.241	191.393	220.364	-124.891	211.397	27.126	11.207	0.00087028	0.0006713	0.00011159	1540.6	3.6483e-06	3.7733e-06	1528.7	426.96	6.2044e-06	3.4608e-06	478.34	162.01	143.44	48.535	4.5969e-06	59.587	0.00041997	0.00034288	9.2764e-05	1557.4	3.9353e-06	3.6697e-06	1549.4	433.02	3.8836e-06	3.7457e-06	473.97	165.61	145.83	49.566	3.8739e-06	61.006	128.138	-49.302	-56.127	-124.827	4.460	12.912	-124.908	-120.558	-47.569	-9.745	-121.103	-116.654	-116.569	-111.138	-13.803	-112.244	-8191	255	
544.378	1	1	0	0	0.12262	0.21827	0.10715	0.11244	0.23745	0.16515	0.07584	0.15295	0.033613	0.083953	0.147	0.14269	0.14892	0.09476	0.13323	0.21169	-2.8937	-2.9917	-3.3333	-3.4604	-2.7833	-3.1208	-3.3292	-3.2375	-3.3708	-3.1354	-3.0271	-3.2354	-2.9583	-3.3104	-3.2583	-3.3042	67.612	13.834	136.301	-2.609	-10.849	151.519	137.018	193.593	42.458	-0.831	90.519	142.256	83.597	-95.894	-62.012	96.815	0.00091774	0.00073813	0.00014902	1530.8	4.7662e-06	8.034e-06	1523.3	423.83	6.5194e-06	4.4702e-06	475.57	162.62	142.81	48.415	7.2256e-06	59.512	0.00041581	0.00034263	9.3914e-05	1547.7	3.7746e-06	3.6207e-06	1542.7	431.32	3.7708e-06	3.6798e-06	473.68	165.44	145.34	49.461	3.7638e-06	61.008	129.891	-47.395	-54.852	-124.666	-23.725	-2.581	-125.018	-120.488	-62.120	4.601	-121.323	-116.513	-116.432	-111.310	-0.738	-112.261	-8191	255	
544.452	1	1	0	0	0.079708	0.044783	0.28476	0.30087	0.025406	0.14146	0.63311	0.18209	0.1859	0.21628	0.061518	0.11146	0.41792	0.097596	0.083577	0.18396	-2.9271	-2.9437	-2.95	-3.5458	-3.1937	-3.325	-3.4521	-3.2687	-3.2417	-3.2625	-3.1792	-3.5729	-3.05	-3.1	-3.1396	-3.0083	151.374	189.444	19.673	205.128	-26.329	93.329	149.703	187.521	92.186	-62.864	49.618	147.711	-134.308	-74.688	164.067	110.741	0.00088801	0.00069496	0.00020364	1530.6	4.9708e-06	7.7001e-06	1515.8	424.2	7.1892e-06	3.1973e-06	477.01	161.58	142.03	48.451	4.4155e-06	59.49	0.00040447	0.00034919	9.3924e-05	1548.2	3.8083e-06	3.493e-06	1538.4	430.75	3.7601e-06	3.5837e-06	470.55	165.15	145.09	49.512	3.8269e-06	60.946	131.583	-48.852	-54.681	-124.743	-23.883	31.241	-124.871	-120.488	-66.272	0.243	-121.348	-116.429	-116.669	-111.469	-19.394	-112.270	-8191	255	
544.570	1	1	0	0	0.28408	0.028759	0.21771	0.25635	0.070286	0.07036	0.11072	0.1735	0.11228	0.17918	0.13802	0.18251	0.33077	0.23794	0.2581	0.13505	-2.9271	-3.0917	-3.1188	-3.4833	-2.9708	-3.3792	-3.4271	-3.1708	-3.1688	-3.1104	-3.0125	-3.5083	-3.2417	-3.2417	-3.4875	-3.0896	54.232	94.668	58.357	105.749	-46.638	72.860	-95.655	-131.625	-7.395	100.223	94.931	199.702	-81.296	213.610	126.635	169.048	0.00093317	0.00054726	0.00015687	1520.1	4.1972e-06	6.7687e-06	1509.1	423.84	4.0253e-06	2.6366e-06	480.68	161.87	142.77	48.428	3.6607e-06	59.65	0.00040416	0.00033849	8.9648e-05	1540	3.7429e-06	3.5208e-06	1534.6	429.96	3.7659e-06	3.6629e-06	472.34	164.93	145.1	49.396	3.6749e-06	60.962	131.924	-42.115	-62.154	-124.668	-46.009	-0.653	-124.768	-120.473	-24.122	-1.663	-120.702	-116.607	-116.677	-111.433	-40.131	-111.831	-8191	255	
544.667	1	1	0	0	0.029866	0.16655	0.10857	0.24386	0.14404	0.11164	0.16472	0.43329	0.087438	0.068164	0.084892	0.053435	0.14693	0.19407	0.14795	0.15045	-2.7875	-3.1458	-3.05	-3.6125	-2.9875	-2.8771	-3.4896	-3.2792	-3.3396	-3.25	-2.925	-3.3708	-3.3854	-3.1354	-3.2708	-2.9583	153.427	-57.815	125.824	206.028	74.894	-126.076	140.663	194.207	69.309	-34.932	139.251	165.891	175.205	152.044	-129.240	114.174	0.00081094	0.00053384	0.00015831	1526.1	5.3719e-06	6.2388e-06	1509.1	423.54	5.3961e-06	6.2635e-06	478.03	161.8	142.49	48.397	6.0196e-06	59.288	0.00040663	0.00032283	9.0271e-05	1540.7	3.7548e-06	3.4902e-06	1534.8	429.67	3.5643e-06	3.5024e-06	472.55	165.09	144.91	49.448	3.5102e-06	60.875	134.400	-50.970	-32.606	-124.708	-20.150	-4.102	-124.993	-120.707	-50.379	-1.177	-120.637	-116.530	-116.436	-111.400	-30.803	-111.759	-8191	255	
544.763	1	1	0	0	0.2982	0.16209	0.14656	0.19647	0.10926	0.097703	0.099127	0.14727	0.093767	0.34458	0.18135	0.10909	0.2723	0.13875	0.030306	0.079034	-2.6771	-3.3729	-3.0729	-3.6312	-3.0729	-3.125	-3.3896	-2.9562	-3.1375	-3.2771	-2.9833	-3.3333	-2.9896	-3.2167	-3.4604	-3.4625	181.837	-121.131	-103.831	-137.130	126.923	201.467	134.663	201.431	-124.959	2.623	30.689	156.887	192.539	193.815	41.182	128.594	0.00088339	0.00049207	0.00018225	1525	3.8644e-06	2.574e-06	1518	422.99	7.4444e-06	6.4838e-06	482.76	161.09	142.05	48.398	4.9077e-06	59.548	0.00040012	0.00031848	9.2146e-05	1541.1	3.6123e-06	3.458e-06	1535	429.42	3.5938e-06	3.4484e-06	472.68	164.97	145.11	49.469	3.4625e-06	60.933	130.549	-66.303	-38.217	-124.566	-46.978	0.322	-125.121	-120.607	-51.472	11.586	-121.235	-116.481	-116.623	-111.287	1.605	-111.968	-8191	255	
544.883	1	1	0	0	0.18273	0.13483	0.11422	0.064644	0.28945	0.13916	0.11048	0.14478	0.13678	0.054155	0.11649	0.20819	0.21531	0.19385	0.11266	0.13914	-2.7562	-3.0729	-2.8937	-3.5896	-3.325	-2.9667	-3.4604	-3.2333	-3.2062	-3.2854	-2.8104	-3.2854	-3.2729	-3.1333	-3.3042	-2.8917	-97.300	95.835	-134.489	102.965	97.552	-51.995	160.681	151.464	-32.278	-37.518	217.219	-27.387	-93.325	168.886	56.178	4.612	0.00088573	0.00043894	0.00021202	1527.7	2.7885e-06	7.2902e-06	1516.4	424.04	6.2004e-06	3.8918e-06	482.65	161.99	142.8	48.265	4.8258e-06	59.365	0.00039097	0.00032709	9.1062e-05	1544.5	3.6641e-06	3.5525e-06	1537.3	430.86	3.6884e-06	3.4777e-06	472.83	165.35	145.4	49.43	3.5225e-06	60.992	129.991	-50.829	-35.615	-124.703	20.303	13.984	-124.953	-120.466	-47.656	-4.573	-120.938	-116.390	-116.236	-111.458	-53.048	-112.033	-8191	255	
544.980	1	1	0	0	0.084269	0.070782	0.047747	0.45958	0.14308	0.057283	0.22876	0.19002	0.16446	0.10574	0.17258	0.27901	0.34407	0.1653	0.14038	0.0064133	-2.8104	-3.2396	-2.9229	-3.3458	-3.2542	-2.8708	-3.4562	-3.15	-3.2021	-3.2417	-3.2104	-3.4583	-3.2104	-3.1521	-3.2479	-3.1958	-15.092	171.341	-40.286	158.789	-10.181	52.098	187.118	152.070	-24.168	-83.775	168.640	201.376	-105.202	-103.191	198.991	-137.983	0.00086448	0.00068482	0.00017744	1527	5.2333e-06	4.0189e-06	1512.2	423.42	5.6558e-06	4.9612e-06	474.63	161.55	142.63	48.378	4.1664e-06	59.326	0.00039235	0.00032337	9.0251e-05	1543.6	3.6598e-06	3.519e-06	1535.4	430.37	3.6642e-06	3.4049e-06	470.93	165.32	145.38	49.466	3.5506e-06	60.925	131.272	-66.379	-34.037	-124.682	-14.155	21.354	-125.073	-120.492	-55.445	1.442	-120.286	-116.346	-116.515	-111.416	-6.771	-111.996	-8191	255	
545.051	1	1	0	0	0.23636	0.26085	0.14732	0.42185	0.12241	0.16862	0.28996	0.22997	0.4801	0.28136	0.075991	0.04564	0.20157	0.15384	0.18	0.051031	-2.6312	-3.2542	-2.9646	-3.3146	-3.0333	-3.1042	-3.475	-3.3833	-2.9333	-3.0187	-2.9146	-3.3083	-3.4854	-3.1	-3.0583	-3.1646	-117.961	-4.192	79.380	185.145	82.046	-43.123	131.774	214.007	28.641	181.214	138.786	198.253	-135.740	146.445	201.522	20.825	0.00085502	0.00051042	7.7556e-05	1528.3	4.5811e-06	4.5832e-06	1515.4	423.45	5.2991e-06	5.1793e-06	482.4	161.91	142.44	48.195	4.9784e-06	59.476	0.00040076	0.00031779	9.0646e-05	1543.3	3.7136e-06	3.486e-06	1539.9	430.75	3.7037e-06	3.4252e-06	473.42	165.47	145.31	49.411	3.5858e-06	60.993	130.536	-56.388	-44.088	-124.718	-16.153	-6.681	-124.866	-120.428	-43.123	25.389	-121.290	-116.640	-116.590	-111.420	-36.152	-111.967	-8191	255	
545.172	1	1	0	0	0.068642	0.086757	0.078185	0.064476	0.10444	0.25899	0.43957	0.48141	0.097993	0.047501	0.15109	0.2886	0.2625	0.2725	0.084254	0.23556	-2.2542	-3.2	-3.1542	-3.4646	-3.2458	-3	-3.2188	-3.1333	-2.85	-3.2354	-3.0958	-3.3479	-3.1396	-3	-3.0542	-3.3312	177.214	-116.680	161.108	117.264	147.559	-58.728	155.641	162.220	208.162	125.018	195.651	207.529	205.148	-130.100	26.932	153.589	0.00086737	0.00069208	0.0001331	1525.6	4.5363e-06	5.6806e-06	1512.9	422.63	6.378e-06	5.1463e-06	477.25	162.03	142.99	48.333	4.692e-06	59.422	0.00040487	0.00031556	8.978e-05	1541.6	3.6472e-06	3.6315e-06	1538.4	430.43	3.7793e-06	3.5664e-06	472.6	165.38	145.29	49.464	3.6821e-06	60.978	132.618	-46.148	-39.528	-124.756	-2.858	-18.682	-124.943	-120.475	-49.493	-6.073	-121.341	-116.656	-116.522	-111.615	-7.851	-112.322	-8191	255	
545.266	1	1	0	0	0.06039	0.12952	0.13584	0.49186	0.12444	0.0466	0.23314	0.23517	0.021516	0.093719	0.074079	0.20387	0.10191	0.15279	0.16147	0.13935	-2.6167	-3.4292	-3.1083	-2.8083	-3.1021	-2.8625	-3.4833	-3.3312	-2.7021	-3.1479	-2.9313	-3.0583	-3.3708	-3.0542	-3.2313	-3.5104	40.825	-67.036	-17.920	197.048	-79.159	200.581	138.987	169.476	111.046	220.139	109.872	137.926	147.047	-104.920	2.006	94.580	0.00087762	0.0005524	0.00012036	1526.9	5.2964e-06	4.8999e-06	1515	424.18	5.4092e-06	5.7241e-06	478.05	161.59	142.92	48.041	7.412e-06	59.382	0.00041685	0.00033021	9.7228e-05	1544.4	3.8185e-06	3.6485e-06	1538.5	431.16	3.9229e-06	3.5688e-06	474.62	165.09	145.44	49.363	3.6476e-06	60.989	130.702	-57.210	-43.204	-124.579	-54.225	18.731	-125.021	-120.552	-58.944	34.182	-121.164	-116.430	-116.463	-111.399	-6.048	-112.099	-8191	255	
545.362	1	1	0	0	0.24476	0.079518	0.099777	0.11903	0.12464	0.29976	0.30787	0.10217	0.10705	0.22088	0.046108	0.33	0.089034	0.21047	0.28028	0.20576	-2.6458	-3.0646	-2.95	-3.0896	-2.9229	-3.0375	-3.1125	-3.2833	-2.8021	-3.1833	-3.2583	-3.325	-3.3563	-3.0229	-3.0375	-3.3896	178.162	-42.302	-59.891	173.602	-122.068	43.092	122.488	114.322	-43.130	74.230	206.149	221.220	4.682	132.368	183.496	-97.932	0.00086945	0.00062992	0.00012922	1527.7	2.2918e-06	6.0841e-06	1515.6	423.38	8.086e-06	6.5512e-06	481.51	161.91	142.77	48.237	4.2134e-06	59.284	0.00040676	0.0003258	9.475e-05	1544	3.6915e-06	3.6893e-06	1538.3	431.04	3.8896e-06	3.5165e-06	473.51	165.15	145.28	49.405	3.6704e-06	60.91	129.627	-51.073	-26.976	-124.826	-12.843	26.808	-124.920	-120.476	-34.369	37.431	-120.788	-116.527	-116.668	-111.541	-6.669	-111.913	-8191	255	
545.459	1	1	0	0	0.18601	0.036079	0.099266	0.15095	0.078878	0.19279	0.12326	0.29376	0.040165	0.053171	0.22231	0.12571	0.14246	0.25212	0.27587	0.16235	-2.5479	-3.2854	-3.0042	-3.1437	-3.2562	-3.0833	-3.1167	-3.425	-2.9229	-3.2771	-3.2188	-2.9667	-3.4	-3.1917	-3.0333	-3.4729	72.346	99.210	72.632	208.748	81.647	188.326	93.800	184.520	165.116	101.299	78.148	-126.767	113.221	-132.519	51.581	-75.225	0.00087935	0.00068561	0.00010682	1526.9	2.3584e-06	3.5014e-06	1517.8	425.07	6.9986e-06	5.4394e-06	476.15	161.77	142.47	48.225	5.2144e-06	59.55	0.00041655	0.00032988	9.3154e-05	1544.8	3.7316e-06	3.6903e-06	1538.7	431.25	3.8146e-06	3.4994e-06	473.53	165.3	145.18	49.434	3.6351e-06	60.986	129.877	-60.301	-11.122	-124.625	-40.718	3.160	-125.036	-120.684	-43.228	-1.232	-121.056	-116.415	-116.668	-111.179	-9.725	-112.043	-8191	255	
545.579	1	1	0	0	0.096475	0.086975	0.15994	0.4378	0.14094	0.28554	0.31292	0.13139	0.085218	0.086693	0.21647	0.21341	0.25542	0.38624	0.065193	0.26945	-2.6125	-3.2604	-2.9396	-3.1417	-3.2604	-3.1583	-3.1021	-3.5604	-3.0708	-2.975	-3.0875	-3.1146	-3.5146	-3.2729	-2.8708	-3.325	186.716	143.462	-55.012	191.094	28.050	6.817	163.070	175.483	-35.910	-41.788	-132.088	181.504	105.164	174.931	-57.764	157.057	0.0008547	0.00052217	0.00014765	1527.4	5.4e-06	7.2247e-06	1516.1	423.08	5.1252e-06	3.2798e-06	483.9	162.14	142.51	48.147	6.9357e-06	59.227	0.00041009	0.00032767	9.3296e-05	1543.9	3.6773e-06	3.7217e-06	1537.7	430.21	3.8194e-06	3.5551e-06	474.38	165.19	145.24	49.355	3.7125e-06	60.863	129.793	-61.563	-61.481	-124.671	5.780	2.042	-125.012	-120.533	-75.386	34.431	-121.036	-116.363	-116.436	-111.316	-0.786	-112.094	-8191	255	
545.675	1	1	0	0	0.098163	0.12952	0.22099	0.19895	0.45484	0.09662	0.39171	0.24959	0.095671	0.11769	0.16746	0.16909	0.059409	0.073922	0.16861	0.13353	-2.5146	-3.3063	-3.0167	-2.9	-3.2083	-3.1083	-3.1354	-3.2125	-2.8688	-3.0833	-3.3604	-3.1854	-3.3354	-3.2354	-3.15	-3.5042	-62.552	2.167	21.310	106.778	-33.358	-60.647	105.175	156.561	64.882	126.016	-12.594	191.929	-72.076	102.905	-106.097	175.395	0.00080681	0.00046917	9.9601e-05	1524.2	4.5737e-06	4.7002e-06	1509.7	424.11	4.8459e-06	5.2721e-06	477.33	161.99	142.84	48.361	7.7448e-06	59.278	0.00041258	0.0003295	9.2886e-05	1544.3	3.6802e-06	3.6749e-06	1536.2	430.64	3.9314e-06	3.6335e-06	470.89	165.12	145.43	49.445	3.6916e-06	60.914	131.292	-29.576	-53.870	-124.740	-21.112	0.782	-125.071	-120.535	-83.315	1.767	-121.286	-116.353	-116.293	-111.345	-10.687	-112.004	-8191	255	
545.747	1	1	0	0	0.26948	0.14179	0.17664	0.49208	0.22955	0.10836	0.28185	0.17217	0.24765	0.20568	0.11841	0.33078	0.25402	0.13342	0.18937	0.24043	-2.5792	-3.0312	-3.2271	-2.95	-3.2854	-3.3438	-3.0646	-3.4125	-3.05	-3.0167	-3.0229	-3.1917	-3.3187	-3.2667	-2.9562	-3.3021	3.846	46.251	63.598	182.844	-127.963	-132.173	185.097	205.102	-47.344	93.949	-51.420	-91.934	-128.446	200.690	3.388	168.287	0.00088596	0.00069464	0.00016568	1523.5	5.8117e-06	4.7446e-06	1511.9	423.79	4.8017e-06	5.215e-06	479.53	161.65	142.27	48.233	4.0134e-06	59.336	0.00041147	0.00033393	9.1127e-05	1542.4	3.6656e-06	3.6481e-06	1536.3	430.69	3.8468e-06	3.5348e-06	472.85	165.11	145.38	49.408	3.6609e-06	60.923	132.211	-56.259	-41.694	-124.660	-48.687	22.894	-125.060	-120.717	-48.075	29.146	-120.171	-116.630	-116.377	-111.097	7.010	-112.141	-8191	255	
545.843	1	1	0	0	0.16774	0.081639	0.045781	0.14174	0.16166	0.33578	0.30431	0.18686	0.19885	0.1132	0.085326	0.12286	0.09768	0.182	0.05585	0.2828	-2.7104	-3.0812	-3.2417	-3.0896	-3.1188	-3.2333	-3.3333	-3.4458	-2.8438	-3.1167	-3.4875	-3.1667	-3.2021	-3.2146	-2.925	-3.4062	-31.454	30.870	153.360	157.892	95.549	33.132	176.465	-128.811	45.244	19.871	94.224	-48.404	82.081	-104.141	-0.722	192.432	0.00086052	0.0007108	0.00015995	1525.3	3.4301e-06	5.7949e-06	1513.4	423.85	6.0158e-06	3.429e-06	484.8	161.52	142.83	48.293	4.6991e-06	59.242	0.00040695	0.00033293	9.0448e-05	1543.5	3.7356e-06	3.5861e-06	1535.8	430.32	3.8598e-06	3.5272e-06	473.94	165.05	145.27	49.407	3.6318e-06	60.931	132.380	-56.270	-31.821	-124.787	-32.172	5.709	-124.997	-120.468	-46.114	-6.424	-120.795	-116.553	-116.614	-111.339	5.854	-112.015	-8191	255	
545.964	1	1	0	0	0.10721	0.11559	0.14775	0.30529	0.17711	0.13256	0.068535	0.25904	0.18467	0.14079	0.067263	0.15812	0.23292	0.10967	0.14134	0.15898	-2.5792	-2.925	-3.2375	-2.975	-2.8688	-3.3688	-3.1542	-3.4292	-3.3396	-3.075	-3.3042	-3.1708	-3.2979	-3.2604	-2.8563	-3.3167	-91.043	-42.230	95.493	209.397	89.766	97.742	68.981	211.560	-105.317	76.524	6.985	213.119	-93.823	-7.565	-21.794	135.142	0.00088905	0.00047506	0.00019261	1519.9	3.747e-06	4.6348e-06	1512	424.03	5.3044e-06	6.6572e-06	481.89	161.16	142.08	48.302	6.8826e-06	59.347	0.00040541	0.00032292	8.7398e-05	1540.6	3.5883e-06	3.5681e-06	1534	430.13	3.7166e-06	3.4144e-06	473.74	165.07	145.19	49.404	3.6724e-06	60.916	131.266	-28.768	-36.747	-124.756	-19.004	-11.339	-125.140	-120.423	-67.165	25.033	-121.100	-116.534	-116.464	-111.226	-5.255	-112.047	-8191	255	
546.060	1	1	0	0	0.23506	0.14816	0.15813	0.14918	0.27643	0.059138	0.42444	0.26949	0.096984	0.11869	0.31789	0.24951	0.17761	0.091026	0.088303	0.18517	-2.6375	-2.7521	-3.2417	-3.0875	-2.7979	-3.2604	-3.2646	-3.3958	-3.1813	-2.7854	-3.2375	-3.225	-3.1333	-3.4604	-2.925	-3.4792	-16.721	-31.537	73.585	-124.299	-103.534	21.800	166.934	99.059	-94.359	-123.853	61.797	143.298	149.515	-44.818	169.170	154.833	0.00086566	0.0005518	0.00016622	1520.5	5.3262e-06	5.5297e-06	1511.5	423.78	5.9931e-06	6.0811e-06	484.8	161.81	142.7	48.209	6.1714e-06	59.32	0.00040504	0.00031434	8.639e-05	1538.6	3.6387e-06	3.473e-06	1536.1	430.39	3.7162e-06	3.5006e-06	473.08	165.15	145.12	49.433	3.5673e-06	60.938	128.220	-47.939	-37.315	-124.723	-35.539	9.777	-124.935	-120.540	-56.400	7.199	-121.321	-116.634	-116.444	-111.302	-14.153	-112.077	-8191	255	
546.154	1	1	0	0	0.25786	0.13142	0.047277	0.13722	0.066502	0.11703	0.20169	0.34178	0.080447	0.096791	0.17098	0.13684	0.049898	0.24772	0.14441	0.14965	-3.0271	-3.1583	-3.25	-3.4521	-2.8958	-3.3875	-3.3333	-3.425	-3.1396	-3.0792	-3.2771	-3.1646	-3.0875	-3.275	-2.9979	-3.2062	66.366	208.219	184.089	181.878	219.747	28.480	-126.710	164.007	59.597	-40.002	217.108	67.418	55.750	154.547	-77.634	171.630	0.00086173	0.00051493	0.00020359	1523.5	3.0629e-06	5.7808e-06	1514.3	422.84	6.5242e-06	4.9408e-06	487.62	161.62	142.16	48.215	3.4109e-06	59.461	0.00039975	0.00031926	8.7854e-05	1540.7	3.6767e-06	3.4354e-06	1534.7	429.69	3.7791e-06	3.5517e-06	472.83	165.01	145.05	49.369	3.7727e-06	61.002	129.381	-57.749	-52.274	-124.806	-31.905	-2.003	-125.184	-120.595	-66.580	21.323	-120.568	-116.678	-116.473	-111.331	-28.134	-112.174	-8191	255	
546.252	1	1	0	0	0.43046	0.20737	0.17938	0.13679	0.18746	0.1179	0.050307	0.19938	0.11726	0.18472	0.17974	0.067866	0.24337	0.026408	0.22241	0.15767	-2.6937	-2.75	-3.2562	-3.1813	-3.0771	-3.225	-3.2729	-3.225	-3.4042	-2.9688	-3.0938	-3.3521	-2.9833	-3.3354	-3.025	-3.3646	170.989	165.345	122.912	92.577	-11.610	-25.610	119.161	172.244	148.768	44.300	180.968	56.725	179.426	63.506	187.074	81.604	0.00088436	0.00058593	0.00014418	1520.6	6.0592e-06	4.6568e-06	1515.1	423.98	7.0519e-06	2.8365e-06	474.39	161.83	142.19	48.222	8.0681e-06	59.482	0.00041502	0.00032334	8.8118e-05	1541.3	3.6934e-06	3.5126e-06	1537.2	430.4	3.6719e-06	3.5571e-06	472.04	164.82	145.06	49.352	3.731e-06	60.858	131.064	-40.864	-24.613	-124.661	-0.126	2.152	-124.922	-120.433	-50.438	51.747	-120.990	-116.509	-116.572	-111.542	17.822	-112.012	-8191	255	
546.347	1	1	0	0	0.20032	0.177	0.15989	0.24386	0.28841	0.21826	0.1909	0.40273	0.22441	0.25812	0.18654	0.11548	0.2721	0.19513	0.11674	0.18448	-3.1188	-3.125	-3.2125	-3.1917	-2.8417	-3.1479	-3.3854	-3.3833	-3.5	-3.0354	-3.1562	-3.3438	-2.9458	-3.2583	-3.2417	-3.3458	-75.090	-123.884	88.367	187.852	89.875	46.667	73.911	209.802	154.195	64.103	127.389	-138.363	-69.964	-128.213	216.688	201.899	0.00087763	0.00057964	0.00012807	1526.8	5.5052e-06	5.1865e-06	1513.8	425.13	4.2619e-06	6.9636e-06	477.5	161.21	142.22	48.227	5.9464e-06	59.487	0.00040305	0.00032914	8.7104e-05	1542.5	3.6915e-06	3.5088e-06	1535.1	430.46	3.7296e-06	3.4842e-06	471.91	164.64	145	49.412	3.7137e-06	60.891	131.664	-49.131	-34.160	-124.688	-24.094	25.275	-124.962	-120.428	-62.539	-4.491	-121.188	-116.664	-116.496	-111.424	-4.434	-112.063	-8191	255	
546.445	1	1	0	0	0.21952	0.093265	0.15619	0.38662	0.28516	0.052681	0.2279	0.2713	0.16126	0.20552	0.2151	0.061903	0.30921	0.48259	0.24326	0.17644	-2.9167	-2.9146	-2.9813	-3.2792	-2.825	-3.1271	-3.2896	-3.1417	-3.2396	-3.1917	-3.1063	-3.4208	-3.0458	-3.3667	-3.2896	-2.975	31.393	-65.796	-83.112	195.287	83.424	91.112	126.229	180.583	50.831	102.086	123.450	4.408	202.273	158.335	-50.410	120.344	0.00090549	0.00062965	0.00017022	1526.6	3.9806e-06	5.4403e-06	1514.4	423.04	5.3024e-06	2.898e-06	476.96	161.9	143.06	48.242	3.8982e-06	59.508	0.0004123	0.00033215	8.9126e-05	1542.5	3.7018e-06	3.3978e-06	1536.5	429.87	3.7035e-06	3.492e-06	472.7	165.03	145.12	49.424	3.6874e-06	60.928	129.590	-37.345	-58.035	-124.700	-10.081	-11.557	-124.816	-120.388	-38.788	-33.073	-121.165	-116.584	-116.241	-111.212	4.418	-112.241	-8191	255	
546.563	1	1	0	0	0.19501	0.3129	0.11152	0.16044	0.06616	0.12361	0.18341	0.099308	0.12105	0.17594	0.20472	0.38321	0.21593	0.34227	0.14587	0.1518	-2.6688	-3.0312	-3.0875	-3.5375	-2.8625	-3.2104	-3.3333	-2.9792	-3.2021	-2.9333	-3.1125	-3.4437	-3	-3.2604	-3.1437	-3.0563	190.798	-99.986	-48.193	117.223	-31.065	133.870	98.162	158.589	111.664	109.704	205.574	213.327	107.882	-75.506	117.395	209.816	0.00089997	0.00039212	0.00013631	1522.2	3.9539e-06	4.2714e-06	1506.9	423.23	7.4294e-06	4.5932e-06	477.5	161.42	142.51	48.128	2.5645e-06	59.419	0.00040856	0.00032937	9.1107e-05	1542.1	3.7166e-06	3.5244e-06	1534.9	430.25	3.683e-06	3.5833e-06	474.16	164.83	145.05	49.36	3.723e-06	60.915	130.321	-69.526	-34.325	-124.638	-24.187	26.232	-125.003	-120.402	-40.450	37.334	-120.657	-116.758	-116.459	-111.359	-18.065	-111.982	-8191	255	
546.660	1	1	0	0	0.12964	0.30531	0.15966	0.12525	0.12349	0.049406	0.45212	0.13437	0.37757	0.033578	0.21195	0.29804	0.09447	0.21399	0.16299	0.28102	-2.9646	-3.0375	-2.9271	-3.3792	-2.9271	-3.1042	-3.5438	-2.8729	-3.1813	-3.1333	-3.1146	-3.3812	-2.8646	-3.4458	-3.3771	-3.0083	28.491	-34.419	33.125	123.225	206.668	217.427	160.388	118.452	-90.271	72.625	-133.069	176.689	144.916	113.228	-110.855	201.297	0.00083929	0.00057154	0.00013931	1527.1	4.835e-06	1.3142e-06	1513.4	423.62	6.2482e-06	3.8087e-06	476.51	161.74	142.24	48.344	6.9242e-06	59.357	0.00040258	0.00033982	9.0616e-05	1543.6	3.7966e-06	3.4832e-06	1536.5	430.42	3.6111e-06	3.5628e-06	471.48	165.18	145.11	49.489	3.6597e-06	60.888	131.425	-48.817	-38.086	-124.721	-19.778	37.219	-124.940	-120.487	-39.139	25.533	-120.564	-116.795	-116.723	-111.251	-28.929	-112.067	-8191	255	
546.756	1	1	0	0	0.025459	0.32246	0.29449	0.14783	0.16088	0.17458	0.21147	0.16944	0.13702	0.22852	0.15371	0.10173	0.10912	0.081794	0.083955	0.33752	-2.775	-3.0208	-3.0667	-3.5563	-2.9562	-3.0979	-3.6104	-3.3312	-3.0438	-3.1958	-2.9896	-3.4542	-3.2042	-3.1375	-3.3167	-3.2167	-54.415	-75.023	10.175	183.238	210.098	101.564	200.511	167.655	100.438	70.241	16.621	100.783	123.014	85.213	-87.038	170.700	0.00089569	0.00043019	0.00023311	1523	5.8664e-06	5.7728e-06	1512.8	422.94	6.1374e-06	5.3889e-06	484.58	161.18	141.84	48.328	4.6848e-06	59.279	0.00039597	0.00033104	9.021e-05	1539.6	3.6376e-06	3.3998e-06	1536.1	430.01	3.655e-06	3.4844e-06	473.49	164.94	144.82	49.464	3.578e-06	60.864	131.998	-53.157	-34.954	-124.676	-33.287	25.835	-125.109	-120.373	-37.946	18.781	-120.482	-116.469	-116.422	-111.472	-12.069	-111.890	-8191	255	
546.852	1	1	0	0	0.11092	0.080068	0.14162	0.12724	0.20722	0.089416	0.26834	0.26785	0.13649	0.14515	0.084733	0.1987	0.23157	0.19449	0.16633	0.24338	-2.7417	-3.0521	-3.1042	-3.5271	-3.2458	-2.9813	-3.6229	-3.2167	-3.1562	-3.1729	-2.8646	-3.4542	-3.2104	-3.1021	-3.2208	-3.0458	-49.679	55.192	94.611	-128.776	134.022	208.224	142.882	116.210	-62.743	69.784	-14.064	142.554	-81.543	-104.854	-124.221	68.191	0.00090884	0.00055026	0.00010692	1523.6	5.8538e-06	6.6673e-06	1510	423.81	5.9396e-06	5.0158e-06	483.09	161.81	142.04	48.143	6.8727e-06	59.56	0.00039791	0.00032421	8.8163e-05	1538.8	3.6719e-06	3.4268e-06	1533.3	430.31	3.6101e-06	3.5439e-06	471.18	165.04	145.04	49.351	3.5654e-06	60.897	130.468	-56.857	-38.728	-124.800	-41.862	-17.425	-125.082	-120.471	-46.775	20.702	-120.947	-116.455	-116.481	-111.307	-7.287	-111.823	-8191	255	
546.972	1	1	0	0	0.17456	0.20375	0.024291	0.20067	0.31561	0.051623	0.16439	0.30271	0.0319	0.061818	0.25845	0.17254	0.33329	0.23303	0.1467	0.16476	-2.7125	-3.3312	-2.9667	-3.35	-2.9479	-2.9188	-3.5625	-3.0542	-3.0604	-3.2	-3.0687	-3.3937	-3.1667	-3.15	-3.2542	-3.2	204.272	-83.649	-104.112	195.794	-20.602	190.548	203.699	185.394	41.846	170.440	162.815	219.053	166.624	209.407	199.356	186.637	0.00089861	0.00067185	8.7098e-05	1520.8	4.6057e-06	6.6749e-06	1508	423.69	5.9405e-06	6.0454e-06	485.64	161.24	142.48	48.227	5.5927e-06	59.474	0.00038905	0.00031545	8.7084e-05	1538.7	3.5919e-06	3.3464e-06	1532.1	429.91	3.59e-06	3.3227e-06	473.49	164.77	145.15	49.367	3.3886e-06	60.979	128.770	-55.161	-17.431	-124.675	-35.514	11.068	-124.901	-120.612	-48.634	-12.248	-120.100	-116.339	-116.508	-111.412	-21.529	-112.018	-8191	255	
547.044	1	1	0	0	0.061133	0.1561	0.21744	0.21473	0.040017	0.078182	0.31558	0.094448	0.20482	0.12611	0.11526	0.24684	0.31213	0.2548	0.17549	0.12212	-2.7812	-3.4167	-2.9729	-3.5	-3.2521	-3.1375	-3.4604	-3.1854	-3.0104	-3.4333	-3.1021	-3.1854	-3.4062	-3.2875	-3.4188	-3.1958	-134.156	-9.567	10.285	136.274	175.468	192.500	112.550	150.966	-7.508	207.996	-17.699	150.279	173.197	-138.273	150.409	96.877	0.00085716	0.00064068	0.00010951	1522.4	5.1061e-06	7.742e-06	1510.8	423.9	8.0446e-06	3.654e-06	474.23	161.79	142.73	48.267	4.5652e-06	59.216	0.0003832	0.00031217	8.601e-05	1538.2	3.5599e-06	3.42e-06	1533.1	430.05	3.5405e-06	3.4154e-06	468.75	164.99	145.04	49.376	3.4697e-06	60.857	130.393	-52.726	-57.410	-124.644	-34.203	6.886	-125.038	-120.458	-67.451	2.872	-121.339	-116.323	-116.704	-111.177	-19.925	-112.278	-8191	255	
547.140	1	1	0	0	0.17513	0.013473	0.10245	0.40726	0.12222	0.2057	0.37308	0.28629	0.25081	0.19035	0.20621	0.19352	0.22267	0.2297	0.26785	0.24102	-2.7667	-3.3729	-3.3208	-3.4354	-3.3646	-3.2313	-3.5354	-3.0708	-3.0354	-3.3229	-3.1333	-3.2896	-3.5333	-3.0938	-3.2771	-3.2042	37.320	200.389	-89.748	213.488	60.862	85.530	152.611	141.585	26.335	46.108	44.176	-130.557	172.098	-127.365	-70.054	-123.857	0.0008051	0.00046132	0.00014418	1525.9	3.9948e-06	4.9385e-06	1509.2	422.8	5.5241e-06	5.1953e-06	480.53	161.56	143.02	48.236	3.1081e-06	59.343	0.00039572	0.00031168	9.0271e-05	1539.1	3.6247e-06	3.4614e-06	1534.5	430.2	3.5988e-06	3.2417e-06	471.69	165.14	145.35	49.449	3.4362e-06	61.051	131.720	-51.895	-37.959	-124.560	-8.608	-17.258	-124.969	-120.530	-28.093	11.009	-121.014	-116.428	-116.775	-111.449	-10.379	-111.988	-8191	255	
547.236	1	1	0	0	0.27203	0.22359	0.13138	0.35813	0.2118	0.14201	0.41173	0.10629	0.14425	0.1054	0.32212	0.16845	0.25982	0.31848	0.12604	0.27487	-2.3854	-3.1292	-2.9292	-3.2292	-3.4625	-3.1667	-3.5542	-3.4104	-2.9208	-3.0104	-2.9208	-3.225	-3.25	-3.0187	-3.2854	-3.2396	9.314	-50.710	72.630	134.291	-100.051	-75.311	142.449	134.211	-84.091	-97.423	-64.087	-46.303	-120.037	-126.832	-115.714	183.488	0.00088381	0.00056473	0.00015317	1524	9.2884e-06	3.3028e-06	1507.8	423.9	4.5701e-06	6.1279e-06	479.67	162.2	143.02	48.341	4.821e-06	59.585	0.00038697	0.00030265	8.5113e-05	1539	3.4935e-06	3.2916e-06	1535.4	430.42	3.6097e-06	3.2338e-06	473.22	165.34	145.52	49.539	3.3884e-06	61.024	127.726	-61.175	-20.616	-124.651	-28.957	24.027	-125.018	-120.641	-49.527	13.664	-120.159	-116.423	-116.574	-111.407	-15.830	-112.029	-8191	255	
547.355	1	1	0	0	0.18387	0.071374	0.038123	0.36921	0.18589	0.08728	0.41651	0.28701	0.07198	0.1261	0.19923	0.19581	0.16871	0.04877	0.1201	0.12745	-2.7083	-3.2146	-2.9604	-3.1667	-3.2958	-2.8354	-3.2833	-3.4167	-2.9792	-3.3229	-3.1813	-3.2604	-3.4583	-3.0542	-3.1625	-3.2	-52.010	14.684	215.130	175.690	57.863	-34.605	105.977	159.269	156.949	73.933	140.925	43.052	153.252	121.532	-91.320	-84.546	0.00084291	0.00048182	0.00017829	1525.3	4.0648e-06	4.5767e-06	1514.4	423.57	6.6885e-06	5.5852e-06	477.81	162.11	142.73	48.455	5.8958e-06	59.499	0.00039648	0.00029815	8.6648e-05	1541.2	3.5317e-06	3.4642e-06	1535.5	430.96	3.612e-06	3.3585e-06	471.31	165.38	145.38	49.511	3.3683e-06	61.077	130.071	-72.003	-37.990	-124.592	-9.685	-15.543	-125.005	-120.475	-37.696	25.155	-121.127	-116.459	-116.451	-111.228	-12.875	-112.018	-8191	255	
547.451	1	1	0	0	0.22441	0.070762	0.14012	0.28397	0.032821	0.22789	0.21261	0.24292	0.029446	0.16782	0.074571	0.33233	0.23493	0.055178	0.17671	0.097694	-2.4917	-2.8958	-2.7979	-3.1229	-3.1937	-3.0521	-3.5479	-3.4521	-3.0604	-3.0833	-3.0438	-3.1229	-3.2896	-3.1312	-2.9896	-3.3354	140.187	120.616	67.166	164.428	-133.290	-3.923	156.355	168.438	184.036	16.205	110.282	216.653	129.258	-119.882	-56.348	102.242	0.00084722	0.00064749	0.00018246	1522.5	4.9457e-06	6.6046e-06	1511.1	423.1	7.3713e-06	4.0975e-06	481.37	161.59	141.97	48.28	6.1015e-06	59.478	0.00039254	0.00029924	8.8189e-05	1539.7	3.43e-06	3.3582e-06	1532.5	429.97	3.5603e-06	3.2592e-06	473.99	165.11	145.33	49.476	3.4531e-06	61.028	128.317	-60.209	-53.510	-124.537	-38.692	6.981	-124.984	-120.577	-38.279	24.041	-120.850	-116.573	-116.393	-111.299	-19.512	-112.012	-8191	255	
547.548	1	1	0	0	0.18061	0.15431	0.045414	0.093592	0.042096	0.14011	0.35787	0.14979	0.086771	0.17784	0.10779	0.11782	0.13075	0.11585	0.054201	0.2406	-2.2896	-3.0625	-3.1229	-3.1646	-3.3583	-2.9437	-3.1854	-3.4167	-3.0208	-3.2458	-3.0958	-3.1292	-3.4271	-3.0583	-2.9208	-3.1937	-94.148	167.721	-1.681	-71.243	17.451	-89.455	147.254	160.193	125.818	-46.944	-27.110	-121.102	157.882	-124.797	-15.809	139.248	0.00089643	0.000627	0.00013287	1521.3	4.3905e-06	4.3903e-06	1509.5	423.4	8.6909e-06	4.2651e-06	481.33	161.38	142.72	48.348	4.4897e-06	59.407	0.00039287	0.00030359	8.5741e-05	1537.9	3.4196e-06	3.346e-06	1531.7	430.28	3.5649e-06	3.3549e-06	473.04	165.17	145.32	49.436	3.4223e-06	60.944	130.891	-67.286	-38.955	-124.665	-3.781	12.292	-125.078	-120.381	-36.352	1.858	-120.470	-116.548	-116.489	-111.086	-10.244	-112.307	-8191	255	
547.644	1	1	0	0	0.029195	0.19431	0.33967	0.38064	0.045386	0.087545	0.3326	0.40427	0.25182	0.21185	0.13382	0.2093	0.21969	0.098406	0.081028	0.17906	-2.4625	-3.1479	-2.9854	-3.1688	-3.1896	-3.0354	-3.2979	-3.5396	-3	-3.1208	-3.2125	-3.0667	-3.3354	-3.0229	-3.0625	-3.4062	-123.978	185.714	-117.161	140.933	73.775	-61.319	166.159	162.306	48.512	-99.461	117.500	171.943	-118.739	211.249	-21.858	178.108	0.00082461	0.00052118	0.00018226	1517.5	6.3416e-06	6.1321e-06	1510.3	424.17	5.9987e-06	2.0515e-06	479.53	161.81	142.43	48.442	5.8422e-06	59.319	0.00039052	0.00030388	8.8123e-05	1537.3	3.4795e-06	3.4364e-06	1532.2	430.67	3.6038e-06	3.3263e-06	470.97	165.24	145.24	49.482	3.4708e-06	61	129.828	-65.077	-51.370	-124.756	-36.094	-3.710	-124.977	-120.531	-29.328	33.137	-120.910	-116.421	-116.487	-110.917	-15.181	-112.229	-8191	255	
547.740	1	1	0	0	0.17034	0.092891	0.12978	0.37018	0.084923	0.15573	0.30892	0.335	0.12027	0.2437	0.28786	0.36403	0.064139	0.20697	0.13438	0.20721	-2.6771	-2.7125	-3.0312	-2.9958	-3.1771	-3.3625	-3.3792	-3.5104	-2.975	-3.0042	-3.1021	-2.9875	-3.4292	-3.2812	-2.9583	-3.2729	48.153	205.503	-114.160	216.283	-75.781	-105.669	141.826	184.822	100.101	14.857	76.124	180.167	40.185	-13.627	123.982	-84.338	0.00088354	0.00054655	0.00010254	1518.2	4.0493e-06	2.8157e-06	1514.6	424.01	7.2434e-06	4.1458e-06	479.59	162.06	142.89	48.399	4.2864e-06	59.705	0.00039339	0.00030122	8.7059e-05	1536.1	3.4505e-06	3.3414e-06	1535	430.69	3.7183e-06	3.2923e-06	471.82	165.48	145.52	49.576	3.5038e-06	61.136	129.436	-46.366	-26.193	-124.769	-31.074	17.872	-124.909	-120.512	-45.387	22.995	-120.571	-116.630	-116.373	-111.251	-47.489	-112.052	-8191	255	
547.836	1	1	0	0	0.090111	0.29071	0.11402	0.17899	0.11711	0.091788	0.24373	0.16832	0.23377	0.13103	0.31514	0.061625	0.24351	0.17594	0.064844	0.1027	-2.5125	-3.1104	-3.4958	-3.3208	-3.2917	-3.125	-3.2333	-3.4292	-3.0646	-3.0271	-3.2438	-3.1188	-3.2938	-3.1854	-2.95	-3.2062	-93.859	-44.531	-66.578	196.868	10.112	82.475	-68.304	221.094	151.024	-8.895	166.152	-131.716	123.163	171.050	74.921	190.692	0.00088299	0.00043411	0.00014609	1520.4	3.3175e-06	4.1392e-06	1509.7	424.09	4.2441e-06	8.2489e-06	478.45	162.57	142.61	48.33	3.7042e-06	59.518	0.00039066	0.0003031	8.5797e-05	1539.2	3.3619e-06	3.333e-06	1535.5	430.97	3.502e-06	3.3078e-06	472.16	165.71	145.31	49.494	3.4901e-06	61.074	128.232	-30.995	-36.194	-124.668	-28.968	-7.626	-124.928	-120.372	-58.038	12.956	-121.383	-116.676	-116.370	-111.315	-1.452	-112.100	-8191	255	
547.932	1	1	0	0	0.11351	0.2762	0.19935	0.23815	0.19999	0.21572	0.49596	0.21442	0.15913	0.20565	0.086481	0.11327	0.29603	0.16283	0.22033	0.02024	-2.6771	-3.1417	-3.2375	-3.1854	-3.0938	-3.225	-3.15	-3.4333	-3.1312	-3.0563	-3.2229	-3.2708	-3.2667	-3.3229	-2.9104	-3.1896	153.849	205.797	-125.533	212.363	185.690	186.667	155.284	189.352	118.522	72.153	-128.765	188.764	-107.185	122.427	106.290	-50.940	0.00086709	0.00069881	0.00012507	1520.6	5.329e-06	6.6587e-06	1509.7	424.68	7.7536e-06	6.7724e-06	483.27	161.9	141.99	48.269	5.1744e-06	59.344	0.00038954	0.00031677	8.715e-05	1539.8	3.4964e-06	3.5252e-06	1534.2	430.5	3.7703e-06	3.3838e-06	472.59	165.24	145.11	49.454	3.6646e-06	60.804	127.065	-51.094	-8.685	-124.652	-12.426	21.099	-124.981	-120.473	-54.195	7.702	-120.488	-116.384	-116.495	-111.339	-31.565	-111.964	-8191	255	
548.053	1	1	0	0	0.072238	0.13724	0.1838	0.098777	0.20376	0.23241	0.24924	0.13569	0.16498	0.20168	0.18793	0.19206	0.068465	0.13594	0.23146	0.25602	-2.6875	-2.7917	-3.225	-3.2188	-3.0417	-3.1937	-3.1188	-3.5146	-3.0792	-3.1458	-3.3021	-3.2375	-3.3187	-3.4708	-2.9917	-3.2188	-137.971	162.718	-82.474	-136.984	-122.849	141.195	-104.286	-125.432	-25.818	152.954	65.114	201.639	-94.882	-112.224	144.780	166.727	0.00087351	0.00058928	0.00013026	1516.8	2.7619e-06	4.7973e-06	1507.5	423.54	4.988e-06	4.2572e-06	475.82	162.06	142.03	48.065	5.4025e-06	59.201	0.00040422	0.00032394	8.8254e-05	1537.5	3.6754e-06	3.5935e-06	1531.6	429.93	3.7486e-06	3.5756e-06	470.9	165.02	144.92	49.247	3.6724e-06	60.749	130.815	-48.165	-24.194	-124.734	-46.462	19.488	-124.923	-120.568	-38.259	3.904	-121.359	-116.532	-116.644	-111.306	-39.503	-112.091	-8191	255	
548.149	1	1	0	0	0.23565	0.025299	0.070221	0.18773	0.099395	0.10386	0.41574	0.19518	0.13498	0.19876	0.15366	0.12251	0.13267	0.070191	0.16401	0.28659	-2.7604	-2.8958	-3.2875	-3.1708	-2.7854	-3.375	-3.3688	-3.5479	-3.175	-3.1229	-2.9354	-3.0708	-3.1729	-3.4542	-3.2083	-3.3937	52.919	8.423	-33.645	-137.464	-129.913	-32.163	158.862	156.824	-6.121	204.071	213.959	179.841	-78.608	25.320	-41.946	171.229	0.00084925	0.00055131	0.00016786	1518.2	5.7182e-06	3.1166e-06	1509	423.06	6.835e-06	5.7945e-06	480.22	161.52	142.17	48.297	4.3776e-06	59.269	0.00041352	0.00032908	8.8168e-05	1534.3	3.6431e-06	3.4802e-06	1531.2	429.72	3.8061e-06	3.5183e-06	473.38	165.17	144.95	49.415	3.7297e-06	60.843	127.945	-55.433	-32.989	-124.595	-36.094	-26.413	-124.895	-120.473	-59.071	25.160	-120.804	-116.424	-116.601	-111.320	8.735	-112.028	-8191	255	
548.245	1	1	0	0	0.29588	0.18957	0.11272	0.34396	0.32048	0.068976	0.32585	0.21456	0.088734	0.16712	0.074381	0.37238	0.11945	0.25263	0.1407	0.12135	-2.9313	-3.0375	-3.1854	-3.2646	-3.1792	-3.4062	-3.1937	-3.3521	-3.3604	-3.0563	-3.2521	-3.2854	-2.9625	-3.3604	-2.9313	-3.2979	-123.650	137.851	5.101	-111.893	-17.421	126.561	19.453	203.945	94.066	155.879	169.851	168.760	174.554	118.840	73.484	171.818	0.00088937	0.00068787	0.00014861	1516.5	3.3961e-06	5.7773e-06	1508.8	424.28	5.731e-06	4.4755e-06	489.85	162.16	142.77	48.175	7.76e-06	59.25	0.00040723	0.0003264	8.9992e-05	1537.2	3.6408e-06	3.5351e-06	1532.5	430.7	3.7916e-06	3.6424e-06	475.49	165.19	145.22	49.348	3.7437e-06	60.895	131.405	-51.941	-50.682	-124.797	-46.556	36.759	-125.086	-120.299	-64.047	29.987	-121.084	-116.649	-116.259	-111.232	-8.595	-112.065	-8191	255	
548.340	1	1	0	0	0.18985	0.16315	0.14822	0.31424	0.14458	0.19429	0.22992	0.46803	0.13496	0.32899	0.10821	0.031548	0.22387	0.24381	0.063682	0.11305	-3.0667	-3.2021	-3.1542	-3.4083	-2.9188	-3.3708	-3.2438	-3.0667	-3.2812	-3.2104	-3.2938	-3.2875	-3.0917	-3.5417	-3.175	-3.1063	-17.202	143.383	-45.901	143.611	82.854	212.797	149.867	207.182	66.908	17.077	-77.060	-0.134	132.304	61.002	125.790	98.991	0.00085184	0.00058944	0.00012003	1522.4	5.8304e-06	3.5353e-06	1512	424.46	5.5921e-06	7.4483e-06	481.48	161.97	142.62	48.044	6.3864e-06	59.47	0.0004019	0.00032753	8.6623e-05	1538.9	3.5871e-06	3.4912e-06	1532.8	430.5	3.6581e-06	3.5409e-06	472.52	165.24	145.26	49.298	3.6983e-06	60.933	134.388	-65.620	-57.026	-124.714	-19.611	-2.527	-125.008	-120.435	-57.517	11.732	-120.347	-116.466	-116.373	-111.339	-12.221	-112.120	-8191	255	
548.436	1	1	0	0	0.1717	0.22989	0.19273	0.22313	0.26423	0.16891	0.24333	0.25878	0.22861	0.088037	0.16785	0.22509	0.13803	0.35185	0.12991	0.14389	-2.7292	-2.8187	-3.2292	-3.3917	-3.025	-3.1604	-3.1667	-3.1979	-3.4104	-3.0125	-3.0979	-3.2438	-3.0187	-3.4208	-3.0875	-3.1146	-84.814	50.049	40.006	167.562	-129.068	187.224	-131.407	172.202	154.380	79.864	-35.032	143.705	116.735	174.201	44.418	-58.599	0.00085303	0.00072707	8.473e-05	1521.2	4.6403e-06	4.2137e-06	1505.9	424.25	7.0799e-06	5.1541e-06	481.44	162.09	142	48.093	6.2231e-06	59.274	0.00041221	0.00033695	8.7672e-05	1539.2	3.7859e-06	3.493e-06	1534.1	430.83	3.7156e-06	3.5336e-06	473.37	165.23	145.13	49.304	3.7807e-06	60.884	129.906	-61.472	-40.626	-124.650	-1.653	-18.499	-124.976	-120.494	-59.947	15.112	-121.040	-116.419	-116.258	-111.276	-11.123	-112.144	-8191	255	
548.532	1	1	0	0	0.073021	0.21413	0.16008	0.19308	0.15768	0.1965	0.08574	0.1809	0.15351	0.11008	0.11061	0.13591	0.18051	0.14797	0.17663	0.22146	-3.0812	-3.1333	-2.9333	-3.425	-2.8083	-3.5583	-3.15	-2.9354	-3.4375	-3.0854	-3.1917	-3.5917	-3.1333	-3.2917	-3.0958	-3.2208	-125.627	82.855	85.270	203.774	-78.738	21.373	101.480	-77.385	37.569	-13.383	198.540	89.013	154.765	139.115	73.539	210.857	0.00089871	0.00049175	0.00020154	1525.7	5.6373e-06	5.3773e-06	1510.4	423.98	5.8259e-06	5.6995e-06	479.26	161.3	142.29	48.235	4.9593e-06	59.303	0.00041117	0.00033162	8.945e-05	1539.8	3.7652e-06	3.4356e-06	1534.5	430.41	3.7039e-06	3.5077e-06	471.59	164.83	145.16	49.314	3.7415e-06	60.856	129.277	-35.832	-37.490	-124.737	-23.305	11.466	-124.924	-120.319	-76.391	17.272	-121.022	-116.264	-116.693	-111.154	1.796	-112.117	-8191	255	
548.652	1	1	0	0	0.079244	0.096139	0.34155	0.15085	0.11628	0.079318	0.08903	0.22194	0.087371	0.34839	0.099876	0.11294	0.12799	0.21312	0.31413	0.25285	-2.85	-3.0458	-3.0729	-3.4708	-3	-3.2833	-3.5729	-3.1875	-3.1813	-2.9792	-2.9208	-3.4583	-3.0146	-3.45	-3.2396	-3.0771	-61.097	110.363	184.145	-137.909	-106.153	1.940	98.756	150.586	-79.763	1.465	-136.200	-136.061	156.014	149.938	159.655	190.145	0.00087765	0.00058715	0.00014745	1523.9	6.1354e-06	5.3945e-06	1511.8	424.39	6.2844e-06	5.0872e-06	483.09	161.16	142.22	48.124	4.6914e-06	59.143	0.0003899	0.00032725	8.9131e-05	1538.6	3.6809e-06	3.4244e-06	1533.7	430.36	3.6e-06	3.5714e-06	472.75	164.99	145.07	49.295	3.6238e-06	60.815	131.382	-73.998	-24.788	-124.632	-19.245	4.423	-124.855	-120.432	-41.404	17.138	-121.264	-116.414	-116.621	-111.404	-20.015	-112.019	-8191	255	
548.749	1	1	0	0	0.22941	0.28567	0.059787	0.25718	0.17823	0.051062	0.34584	0.25087	0.067112	0.21723	0.17822	0.10509	0.24502	0.13273	0.12664	0.21763	-2.9083	-3.0333	-3.0667	-3.4688	-3.0583	-3.1958	-3.3688	-3.0083	-3.0729	-2.7146	-2.8708	-3.4688	-3.1604	-3.1271	-3.0938	-3.0979	142.521	47.156	67.220	156.091	192.122	191.562	196.014	208.078	122.917	130.099	112.490	1.836	183.820	-116.906	20.859	137.191	0.00090684	0.00045226	0.00016867	1517	4.5707e-06	5.6061e-06	1510.8	423.32	6.1419e-06	6.4202e-06	480.56	162.27	142.7	48.183	4.3173e-06	59.098	0.00039776	0.00032306	8.9658e-05	1537	3.5781e-06	3.4504e-06	1532.8	429.8	3.5741e-06	3.4455e-06	471.46	165.11	145.25	49.326	3.5967e-06	60.789	129.060	-26.911	-51.268	-124.587	-17.167	18.911	-125.051	-120.595	-58.676	11.896	-121.315	-116.627	-116.389	-111.222	-17.017	-111.963	-8191	255	
548.845	1	1	0	0	0.07972	0.032189	0.13632	0.19338	0.31125	0.075186	0.20584	0.24756	0.094517	0.068724	0.099988	0.276	0.078296	0.32336	0.21591	0.11814	-2.8271	-3.175	-2.8063	-3.3646	-3.3604	-3.2396	-3.3812	-3.0187	-3.2083	-3.2021	-3.0875	-3.2771	-3.0646	-3.0396	-3.0854	-3.1292	-94.652	208.017	-21.702	118.873	-104.789	106.434	126.164	130.814	-129.858	113.880	-62.259	86.915	-50.478	209.769	-5.377	158.829	0.0008586	0.00056646	0.00013828	1523	5.5957e-06	5.1277e-06	1507.8	423.53	5.6806e-06	4.4622e-06	477.51	161.89	141.76	48.264	5.308e-06	59.457	0.00039587	0.00032453	8.7788e-05	1539.1	3.6548e-06	3.4592e-06	1531.9	429.88	3.6567e-06	3.5167e-06	471.29	165.19	144.83	49.428	3.5921e-06	60.843	128.983	-60.361	-37.896	-124.636	0.286	12.196	-124.963	-120.469	-44.757	-6.946	-121.132	-116.644	-116.555	-111.381	-20.938	-112.256	-8191	255	
548.916	1	1	0	0	0.072662	0.15339	0.10656	0.17864	0.077674	0.17397	0.29197	0.11995	0.07616	0.026257	0.14273	0.12771	0.26108	0.05076	0.20312	0.28764	-2.6604	-3.175	-3.0458	-3.5167	-3.2	-2.9167	-3.3833	-3.2188	-3.1833	-3.125	-3.0604	-3.475	-3.2375	-3.2687	-3.2792	-2.9396	-120.299	-111.038	-12.416	142.235	8.169	143.341	133.824	126.417	124.747	76.554	50.383	-92.390	168.547	-107.567	48.675	122.551	0.00088293	0.00046273	0.00017885	1517.3	4.3808e-06	7.3044e-06	1506.3	422.88	4.5922e-06	3.7936e-06	480.33	161.8	142.7	48.276	3.6872e-06	59.082	0.00040226	0.00032526	8.5873e-05	1536.2	3.7279e-06	3.5208e-06	1529.7	429.86	3.6082e-06	3.5133e-06	472.7	164.92	145.07	49.35	3.4147e-06	60.787	131.451	-83.979	-41.244	-124.731	-6.592	8.886	-124.778	-120.490	-61.457	25.598	-120.804	-116.491	-116.486	-111.358	-24.896	-111.923	-8191	255	
549.037	1	1	0	0	0.062306	0.14359	0.092463	0.50018	0.1189	0.19895	0.1742	0.22741	0.25582	0.14887	0.24272	0.12683	0.090992	0.30527	0.1159	0.21374	-2.7896	-3.1354	-2.975	-3.4958	-2.9458	-2.975	-3.2667	-3.0875	-3.1688	-3.2979	-2.8958	-3.3771	-3.0625	-2.9625	-3.3354	-3.4083	52.966	-135.439	5.619	193.119	82.449	8.074	117.761	145.912	33.595	158.725	130.057	142.117	-41.329	145.502	-64.730	115.072	0.00087285	0.00070721	0.0001752	1522.5	2.8991e-06	4.0927e-06	1511.6	422.41	7.6589e-06	6.0501e-06	480.83	161.77	142.94	48.141	5.1738e-06	59.29	0.00039124	0.00031915	8.9329e-05	1537.1	3.5938e-06	3.3958e-06	1531.4	429.84	3.5509e-06	3.4001e-06	472.61	164.93	145.19	49.369	3.4898e-06	60.854	132.463	-52.914	-42.708	-124.793	-3.072	17.497	-124.880	-120.395	-74.051	14.012	-121.315	-116.563	-116.691	-111.262	-14.242	-112.016	-8191	255	
549.133	1	1	0	0	0.12642	0.08932	0.082126	0.1092	0.039166	0.16224	0.307	0.030404	0.024138	0.072342	0.26685	0.25512	0.046094	0.25883	0.095035	0.043147	-2.8521	-3.35	-2.9188	-3.3063	-3.1125	-3.1167	-3.5979	-3.2854	-3.0938	-3.5125	-2.9021	-3.1813	-3.3458	-3.1667	-3.2354	-3.1708	-94.466	199.036	-82.658	203.820	-15.454	63.474	169.764	161.840	-93.305	201.622	132.699	189.961	-56.348	164.820	-98.545	187.424	0.00089892	0.00047259	0.00016714	1520.8	4.9995e-06	4.8753e-06	1510.6	422.99	7.9987e-06	5.8553e-06	482.31	161.61	142.16	48.228	5.703e-06	59.168	0.00039092	0.00030493	8.8558e-05	1537.3	3.5127e-06	3.472e-06	1531.3	429.88	3.59e-06	3.3601e-06	473.08	164.89	144.95	49.382	3.4291e-06	60.797	132.280	-36.937	-10.449	-124.685	-27.590	2.551	-125.067	-120.761	-50.089	-4.624	-121.230	-116.204	-116.242	-110.965	-12.915	-112.148	-8191	255	
549.229	1	1	0	0	0.24748	0.31788	0.098619	0.30677	0.154	0.12099	0.097361	0.32539	0.161	0.20093	0.18633	0.24137	0.23505	0.23439	0.19554	0.21917	-2.5708	-3.2771	-3.1729	-3.3833	-3.2938	-2.975	-3.4	-3.1375	-3.1063	-3.3146	-3.0854	-3.1583	-3.0333	-3.2438	-3.3312	-3.1583	7.901	199.754	-12.702	197.003	184.841	-136.388	-115.222	211.027	207.876	116.454	-14.525	130.280	-126.038	180.113	207.548	213.441	0.0008325	0.00066284	0.00018292	1515.9	4.6233e-06	4.2706e-06	1509	422.19	5.0668e-06	5.3575e-06	483.08	161.8	142.06	48.102	5.3959e-06	59.278	0.00038345	0.00030816	8.6511e-05	1535.7	3.5557e-06	3.3768e-06	1531.2	429.37	3.6134e-06	3.3165e-06	473.45	165.01	145.02	49.319	3.4369e-06	60.849	133.229	-70.758	-49.797	-124.768	-54.935	13.754	-124.923	-120.557	-36.992	14.467	-121.026	-116.464	-116.551	-111.438	-6.614	-112.042	-8191	255	
549.326	1	1	0	0	0.37478	0.060109	0.18169	0.19246	0.14674	0.094781	0.29745	0.25967	0.16128	0.12558	0.12439	0.21334	0.057283	0.16203	0.11297	0.080108	-2.5563	-3.3896	-3.0375	-3.2896	-3.2729	-2.9958	-3.3958	-3.2542	-3.0271	-3.0938	-3.1729	-3.3667	-3.3271	-2.9938	-3.3375	-3.1646	-123.569	-18.290	103.926	-115.074	140.940	-93.169	150.776	205.526	-113.906	46.693	87.891	207.221	-27.234	148.791	201.517	116.128	0.00089097	0.00063426	0.00013775	1516.4	3.3186e-06	6.234e-06	1507.4	422.03	3.597e-06	4.4409e-06	477.08	161.7	142.75	48.241	6.5638e-06	59.162	0.00038812	0.00032024	8.7586e-05	1533.7	3.5532e-06	3.424e-06	1529.6	429.5	3.5572e-06	3.2899e-06	471.51	164.85	145.08	49.326	3.4625e-06	60.79	129.374	-65.060	-27.799	-124.665	-6.548	-18.710	-124.846	-120.579	-48.244	3.324	-120.606	-116.330	-116.588	-111.156	10.348	-112.147	-8191	255	
549.444	1	1	0	0	0.037245	0.16073	0.22062	0.22092	0.10982	0.24152	0.016226	0.29321	0.056877	0.13118	0.084792	0.091372	0.34311	0.19878	0.23598	0.093608	-2.4875	-3.2854	-3.0438	-3.1604	-3.1937	-3.0687	-3.4396	-3.2479	-2.7771	-3.2562	-3.1583	-3.1667	-3.2792	-3.15	-3.2646	-3.2479	-93.208	130.374	-94.440	-127.114	-105.632	103.397	201.147	171.322	125.952	118.334	-89.249	52.723	25.174	205.437	54.910	-46.631	0.00086019	0.0006073	0.00016889	1518.1	3.9327e-06	6.0896e-06	1509.3	424.05	7.9634e-06	4.8478e-06	479.15	161.58	142.9	48.262	6.2212e-06	59.218	0.00039455	0.00030249	8.8366e-05	1533.8	3.4952e-06	3.4188e-06	1530.5	429.44	3.6732e-06	3.2372e-06	471.45	164.92	144.95	49.376	3.4149e-06	60.78	129.743	-45.544	-46.346	-124.749	-20.362	18.641	-125.040	-120.480	-54.158	-6.297	-121.233	-116.434	-116.692	-111.233	-14.265	-112.054	-8191	255	
549.516	1	1	0	0	0.14881	0.17185	0.11275	0.096904	0.22649	0.10286	0.21065	0.1232	0.072606	0.33054	0.11132	0.069317	0.13959	0.2852	0.21862	0.04832	-2.5083	-3.0167	-3.0292	-3.0958	-3.1063	-2.9688	-3.2562	-3.4125	-2.7771	-3.2771	-3.1729	-3.0833	-3.2792	-3.0396	-3.1896	-3.375	163.906	-109.810	3.260	-107.110	7.060	63.132	133.107	-123.333	-79.516	-35.347	174.581	155.938	-134.843	181.036	143.486	5.669	0.0008729	0.00060136	0.00012699	1524.7	4.8652e-06	3.6197e-06	1506.3	422.98	7.1932e-06	5.2004e-06	478.87	162.06	142.63	47.969	7.7409e-06	59.237	0.00039361	0.00029882	8.871e-05	1537.2	3.4799e-06	3.4374e-06	1529	429.45	3.6473e-06	3.2447e-06	472.12	164.89	144.97	49.287	3.4997e-06	60.825	131.885	-40.982	-38.973	-124.596	-36.583	31.756	-125.060	-120.477	-58.857	20.249	-120.855	-116.330	-116.609	-111.426	7.831	-112.176	-8191	255	
549.612	1	1	0	0	0.15529	0.12077	0.053254	0.36492	0.20225	0.24001	0.29968	0.091996	0.098554	0.010595	0.11277	0.029666	0.1547	0.23642	0.25779	0.056045	-2.5375	-3.2458	-3.0708	-3.1437	-3.3271	-3.1688	-3.3979	-3.4625	-2.8708	-3.2083	-3.3667	-3.1	-3.2583	-3.0625	-3.2438	-3.4562	165.171	-119.523	23.387	-136.557	18.471	86.738	144.856	167.530	-89.188	-103.315	-1.456	204.277	-93.569	-88.452	39.131	-83.473	0.00084986	0.00081944	0.00014522	1521.6	5.4217e-06	5.8084e-06	1506.6	422.91	4.6455e-06	4.0364e-06	479.85	161.4	142.34	48.223	6.0068e-06	59.316	0.00039498	0.00030932	8.7408e-05	1535.6	3.369e-06	3.4184e-06	1530.4	429.8	3.664e-06	3.2463e-06	471.82	164.76	144.76	49.369	3.4424e-06	60.895	130.650	-58.607	-27.879	-124.739	-34.633	6.939	-124.978	-120.549	-58.448	-7.245	-121.269	-116.477	-116.235	-111.342	-18.635	-112.092	-8191	255	
549.733	1	1	0	0	0.23093	0.11622	0.23811	0.23958	0.12724	0.21103	0.33216	0.36638	0.081202	0.066923	0.23706	0.097532	0.16649	0.18335	0.12019	0.1682	-2.4688	-2.9938	-3.025	-3.0521	-3.3208	-3.1125	-3.2875	-3.3667	-2.9688	-3.2625	-3.2833	-2.9792	-3.4437	-3.3042	-3.0042	-3.5062	152.040	134.580	116.189	-132.315	-124.374	197.076	179.890	157.550	169.345	-1.051	151.979	-16.783	195.124	-45.612	3.285	208.175	0.00086103	0.00048301	0.0001309	1517	6.4368e-06	4.6748e-06	1508.5	422.01	4.5418e-06	6.7189e-06	478.29	162.11	141.92	48.345	5.0491e-06	59.163	0.00038853	0.00029998	8.6714e-05	1535.8	3.4768e-06	3.4484e-06	1530.2	429.09	3.5837e-06	3.3372e-06	470.09	164.88	144.84	49.328	3.4328e-06	60.732	133.671	-45.369	-28.995	-124.701	-29.537	17.139	-124.936	-120.538	-38.593	21.830	-120.967	-116.485	-116.542	-111.365	-5.339	-112.115	-8191	255	
549.829	1	1	0	0	0.18823	0.16572	0.083251	0.066014	0.25664	0.24994	0.19768	0.27252	0.13142	0.16037	0.19451	0.3891	0.20568	0.24512	0.36968	0.21121	-2.4792	-2.9625	-3.1646	-3.4042	-3.2438	-3.25	-3.1771	-3.3187	-3.1437	-3.1646	-3.2958	-3.2083	-3.4104	-3.1188	-2.7479	-3.2917	111.712	21.515	-16.326	-95.502	-41.943	-85.658	44.751	179.125	-98.516	73.150	69.415	176.226	209.806	175.411	-29.357	218.082	0.00087391	0.0004699	0.0001289	1517.2	5.3924e-06	4.7017e-06	1511.4	423.03	5.8156e-06	5.6782e-06	479.26	161.11	142.71	48.149	4.1995e-06	59.097	0.00039645	0.00029589	8.5534e-05	1535.2	3.4453e-06	3.42e-06	1532.2	429.29	3.6122e-06	3.2931e-06	471.45	164.58	145.11	49.336	3.413e-06	60.656	134.149	-59.348	-33.685	-124.568	-0.924	-9.853	-124.951	-120.304	-49.279	5.748	-120.976	-116.434	-116.474	-111.390	-18.261	-112.057	-8191	255	
549.925	1	1	0	0	0.16538	0.18137	0.064556	0.28171	0.10056	0.11667	0.28539	0.15721	0.049327	0.34752	0.14667	0.26875	0.14844	0.21807	0.16295	0.17321	-2.7146	-3.1146	-3.4021	-3.125	-3.1854	-3.3375	-3.4208	-3.55	-3.1542	-3.2708	-3.2125	-3.0125	-3.0833	-3.1583	-3.1437	-3.45	39.659	24.183	184.041	149.394	167.670	130.924	168.841	173.492	-133.038	63.852	-120.293	120.862	207.202	-7.932	153.596	98.723	0.00084923	0.00037591	0.00018654	1518	5.6785e-06	4.5989e-06	1505.4	422.86	8.0548e-06	4.0746e-06	477.32	161.87	142.06	48.112	4.7535e-06	59.329	0.00038635	0.00030065	8.4586e-05	1534	3.4123e-06	3.4012e-06	1530.4	429.54	3.6598e-06	3.2618e-06	470.18	165.13	144.78	49.316	3.4502e-06	60.916	131.412	-74.343	-3.414	-124.630	-25.999	39.113	-125.110	-120.498	-44.442	46.479	-122.100	-116.429	-116.472	-111.239	-6.891	-112.085	-8191	255	
550.046	1	1	0	0	0.1978	0.07531	0.081292	0.23204	0.09545	0.067481	0.072976	0.243	0.34344	0.12129	0.04078	0.36553	0.30914	0.14017	0.10993	0.1953	-2.7667	-3.0896	-3.3229	-3.0021	-2.7979	-3.1583	-3.1604	-3.2854	-3.1271	-2.8875	-3.4104	-3.0479	-3.0354	-3.275	-2.8917	-3.275	-78.408	-107.003	-109.053	167.222	115.230	118.136	210.217	176.941	186.558	-52.182	203.329	210.749	172.325	-18.251	-46.150	122.102	0.00088174	0.00046284	0.00012872	1521.1	6.5335e-06	3.9912e-06	1509.6	423.77	6.3435e-06	5.1441e-06	476.98	161.32	143.15	48.2	4.0641e-06	59.436	0.00039776	0.00030432	8.378e-05	1537.1	3.3949e-06	3.3232e-06	1531.1	429.92	3.6013e-06	3.2586e-06	470.27	164.99	145.11	49.362	3.4108e-06	60.926	131.891	-38.434	-42.452	-124.524	-33.227	-2.710	-124.906	-120.568	-46.939	8.324	-120.302	-116.608	-116.405	-111.238	-25.694	-111.958	-8191	255	
550.140	1	1	0	0	0.12802	0.084584	0.10808	0.20208	0.19604	0.24748	0.14549	0.38817	0.24211	0.055143	0.18767	0.20923	0.093607	0.053404	0.11811	0.27485	-2.7062	-3.0583	-3.2458	-3.1667	-3.0354	-3.2104	-3.1104	-3.2917	-3.1208	-3.0104	-3.4667	-2.9833	-3.0854	-3.175	-2.8917	-3.2583	8.663	54.530	164.173	190.564	-134.346	83.676	209.657	166.877	185.890	28.824	178.724	214.790	102.076	-129.461	14.734	139.262	0.00088752	0.0005517	0.00010784	1519.6	4.6413e-06	4.8094e-06	1507.4	422.86	7.1647e-06	7.1934e-06	474.26	161.4	142.82	48.074	3.9579e-06	59.025	0.00038826	0.00030932	8.3056e-05	1535.8	3.4085e-06	3.3814e-06	1530.6	429.57	3.5351e-06	3.2831e-06	469.1	164.85	144.97	49.266	3.381e-06	60.709	130.773	-40.277	-44.647	-124.768	-26.676	12.999	-125.095	-120.551	-50.035	15.326	-121.424	-116.675	-116.484	-111.396	11.767	-111.982	-8191	255	
550.214	1	1	0	0	0.21978	0.26303	0.15943	0.42196	0.17659	0.30077	0.1958	0.36223	0.052348	0.20739	0.20343	0.46536	0.13295	0.32437	0.048576	0.18003	-2.6229	-3.0438	-3.3812	-3.05	-3.0646	-3.3271	-3.0396	-3.2917	-3.1813	-3.05	-3.1604	-3.2375	-3.1833	-3.3521	-2.8312	-3.15	0.071	-0.668	217.910	-94.766	146.370	-32.167	169.782	159.785	57.295	120.303	-15.195	182.022	-28.387	130.845	41.593	-124.009	0.00091659	0.00063251	0.00018932	1520.9	5.3923e-06	6.5421e-06	1510.8	423.31	5.2956e-06	7.2792e-06	475.11	161.67	142.57	48.024	5.0584e-06	59.271	0.00039244	0.00029449	8.1318e-05	1535.5	3.4275e-06	3.2463e-06	1530.9	429.27	3.5773e-06	3.2785e-06	471.47	164.94	145.11	49.339	3.4122e-06	60.783	131.208	-47.662	-25.030	-124.655	-24.074	10.299	-125.102	-120.332	-45.652	10.015	-120.514	-116.466	-116.442	-111.519	-21.719	-111.943	-8191	255	
550.332	1	1	0	0	0.17445	0.26496	0.14059	0.078786	0.087818	0.27165	0.3161	0.068876	0.098153	0.30244	0.086607	0.32169	0.35305	0.028432	0.25034	0.035676	-2.9229	-2.7771	-2.9958	-3.2812	-3.0375	-3.2958	-3.325	-3.1437	-3.3312	-3.2562	-3.1854	-3.4042	-3.1063	-3.3563	-3.0729	-3.0333	177.895	-110.119	85.699	-137.246	-89.266	-124.757	107.403	-130.524	-30.783	194.083	201.728	216.525	152.922	31.567	169.720	-65.176	0.00083131	0.00062584	0.000167	1517.7	1.8522e-06	4.4071e-06	1508.4	421.91	5.9631e-06	3.8658e-06	478.03	161.39	142.4	48.309	8.2239e-06	59.227	0.00039217	0.00030573	8.1186e-05	1535.5	3.4321e-06	3.1555e-06	1529.3	429.4	3.5192e-06	3.3313e-06	471.32	164.83	145.11	49.339	3.4913e-06	60.867	129.342	-63.928	-2.964	-124.558	-2.668	15.389	-124.978	-120.572	-50.714	18.913	-121.255	-116.493	-116.520	-111.463	-0.398	-111.926	-8191	255	
550.429	1	1	0	0	0.1025	0.095144	0.19592	0.12654	0.20638	0.11895	0.16387	0.46573	0.0011773	0.076231	0.1219	0.34495	0.21147	0.0598	0.085186	0.299	-2.9375	-2.9021	-3.1437	-3.2313	-2.8604	-3.1083	-3.2313	-3.2771	-3.2167	-3.225	-3.2062	-3.1729	-2.9208	-3.3604	-3.25	-3.2521	148.902	-54.326	3.934	202.978	-122.651	67.340	137.820	200.373	180.000	35.194	213.842	-135.458	-124.400	169.648	49.215	147.414	0.00090475	0.00049536	8.4833e-05	1515.9	6.8944e-06	3.0819e-06	1505.3	422.82	6.947e-06	4.015e-06	483.56	161.72	142.43	48.277	2.3939e-06	59.284	0.0003803	0.00030183	8.0188e-05	1532.4	3.4486e-06	3.1455e-06	1530.6	429.43	3.4818e-06	3.1894e-06	471.16	165.1	145.06	49.362	3.3146e-06	60.916	132.875	-71.251	-48.972	-124.590	-41.148	2.330	-124.956	-120.530	-41.227	43.914	-121.278	-116.453	-116.283	-111.442	-38.013	-112.177	-8191	255	
550.525	1	1	0	0	0.27299	0.13284	0.21419	0.28638	0.11516	0.10375	0.19615	0.18528	0.13063	0.070858	0.11989	0.01322	0.17487	0.064693	0.19931	0.37927	-2.6854	-2.9458	-3.0208	-3.3333	-2.9083	-3.4	-3.2479	-3.05	-3.2021	-2.9333	-3.1562	-3.3333	-2.9854	-3.0625	-3.0417	-3.0104	219.911	37.179	-44.777	-126.619	17.294	-95.652	180.473	195.533	133.106	-45.981	0.781	-39.053	187.518	220.377	98.031	159.948	0.00084283	0.00054514	0.0001044	1515.9	3.4991e-06	4.63e-06	1510.6	421.98	4.9129e-06	4.0348e-06	476.99	161.64	142.65	48.317	6.271e-06	59.204	0.00037742	0.00029648	7.9889e-05	1532.8	3.4285e-06	3.1315e-06	1530.1	428.73	3.4642e-06	3.161e-06	469.97	165.04	145.08	49.382	3.3939e-06	60.78	129.982	-47.283	-27.115	-124.635	-31.747	29.549	-125.089	-120.631	-76.729	11.970	-120.975	-116.349	-116.466	-111.205	18.176	-111.884	-8191	255	
550.621	1	1	0	0	0.088071	0.12238	0.20368	0.17163	0.22928	0.09972	0.1821	0.14209	0.10635	0.16532	0.26076	0.077741	0.27063	0.12391	0.20774	0.12106	-2.6417	-2.9229	-3.2229	-3.3708	-2.8312	-3.15	-3.5396	-3.2313	-3.1667	-2.9521	-2.9625	-3.2	-2.9667	-3.2854	-3.25	-3.1667	146.932	192.607	72.838	181.044	41.742	63.251	147.894	78.779	4.387	180.938	163.846	182.855	148.855	85.412	218.052	116.587	0.00088108	0.00047117	0.00011354	1517.8	4.2024e-06	4.8875e-06	1504.7	423.03	6.7285e-06	5.4943e-06	483.33	161.37	142.14	48.187	4.2256e-06	59.282	0.00038006	0.00030742	8.0533e-05	1533.1	3.3744e-06	3.0669e-06	1529	429.9	3.3019e-06	3.2159e-06	471.7	165	144.92	49.376	3.3151e-06	60.882	129.699	-49.046	-61.157	-124.547	-2.534	16.146	-124.848	-120.646	-73.608	6.918	-120.377	-116.567	-116.396	-111.338	12.466	-112.138	-8191	255	
550.742	1	1	0	0	0.0683	0.25468	0.13885	0.1712	0.20058	0.081721	0.36403	0.42126	0.10332	0.13013	0.10515	0.22371	0.09124	0.4361	0.17615	0.18429	-2.9125	-2.8937	-3.0187	-3.5458	-3.1042	-3.2313	-3.5521	-3.2667	-3.4208	-3.1375	-2.9125	-3.2938	-3.0146	-3.2938	-3.2271	-3.1417	-58.038	-19.932	143.223	188.324	170.982	186.881	113.319	180.172	-36.455	-27.825	-112.745	197.727	201.163	182.464	-79.115	-120.607	0.00088324	0.00056228	0.00019139	1517.4	5.417e-06	7.1208e-06	1507.1	423.49	6.4055e-06	4.1223e-06	479.92	161.83	142.3	48.297	4.1374e-06	59.114	0.00037656	0.00028856	8.0847e-05	1534	3.3289e-06	3.0451e-06	1528.9	430.11	3.2998e-06	3.2077e-06	471.12	165.14	144.92	49.394	3.3557e-06	60.724	130.499	-63.634	-31.749	-124.449	-27.869	8.744	-124.866	-120.369	-75.102	16.864	-120.682	-116.340	-116.247	-111.279	-24.718	-111.950	-8191	255	
550.813	1	1	0	0	0.15298	0.061019	0.09552	0.11471	0.13114	0.026899	0.22263	0.14487	0.20983	0.17582	0.19409	0.23428	0.14416	0.086663	0.18437	0.13001	-2.6688	-2.8667	-2.9479	-3.4375	-2.9708	-3.2104	-3.275	-3.125	-3.3458	-3.1896	-2.8937	-3.5208	-3.1937	-3.0729	-3.2021	-3.0146	2.287	133.194	16.210	178.795	-110.121	-92.456	-123.370	-118.308	78.884	25.101	169.468	70.801	-97.317	-135.023	-120.445	176.556	0.00084536	0.00050927	0.00020451	1513.2	4.8766e-06	5.2121e-06	1504.6	422.21	6.4497e-06	5.5387e-06	481.51	161.64	142.45	47.936	5.0775e-06	59.235	0.00037128	0.00030056	8.2727e-05	1532.1	3.3295e-06	3.0705e-06	1527.5	429.64	3.3366e-06	3.2901e-06	470.86	164.93	145.1	49.239	3.3933e-06	60.818	133.312	-47.299	-37.966	-124.820	-6.421	14.939	-124.963	-120.489	-62.826	5.834	-120.205	-116.397	-116.447	-111.128	-15.695	-112.146	-8191	255	
550.909	1	1	0	0	0.056963	0.049411	0.054717	0.10805	0.071714	0.19689	0.18873	0.13323	0.19144	0.1356	0.26299	0.15016	0.35156	0.086234	0.10718	0.16498	-2.6854	-3.2146	-3.1021	-3.3688	-3.0583	-3.1708	-3.3	-2.9771	-3.1833	-2.9625	-2.8542	-3.4437	-3.1188	-3.35	-3.2687	-2.9854	76.024	-42.760	183.993	157.956	35.718	93.321	176.617	172.866	19.048	181.477	121.604	82.344	-137.014	202.700	90.769	24.782	0.00080067	0.00051875	0.00010695	1514.2	3.3536e-06	4.1222e-06	1504.8	423.35	6.7765e-06	6.6849e-06	477.73	161.74	142.54	48.287	6.9958e-06	59.014	0.00037397	0.00030084	8.0786e-05	1533.8	3.4954e-06	3.1925e-06	1530	429.63	3.3689e-06	3.262e-06	472.97	164.93	145.05	49.277	3.3077e-06	60.72	130.053	-50.628	-65.642	-124.628	-12.412	7.927	-124.812	-120.446	-51.076	6.532	-121.050	-116.413	-116.529	-111.078	-33.095	-112.067	-8191	255	
551.006	1	1	0	0	0.022524	0.13132	0.18439	0.084962	0.20889	0.12441	0.11628	0.2918	0.1598	0.26637	0.070715	0.10338	0.17005	0.064119	0.17381	0.15145	-2.6917	-3.1708	-2.9604	-3.2583	-2.875	-2.8229	-3.4562	-3.2979	-3.1646	-3.3542	-2.9771	-3.2646	-3.0458	-2.925	-3.1604	-2.9958	166.946	146.290	203.859	-109.306	52.640	92.556	184.182	148.956	201.436	88.283	150.138	67.787	-68.636	135.131	-114.356	-123.670	0.00088633	0.00061531	0.00010211	1515.9	4.1499e-06	4.8118e-06	1505.3	421.63	6.1003e-06	6.1878e-06	484.42	161.59	142.63	48.115	4.407e-06	59.303	0.00037577	0.00029592	8.1845e-05	1531.2	3.4121e-06	3.2071e-06	1528	429.38	3.333e-06	3.1938e-06	472.41	165.09	144.99	49.234	3.3294e-06	60.744	130.003	-37.120	-28.756	-124.540	-34.992	5.261	-125.004	-120.309	-34.690	20.018	-120.967	-116.426	-116.467	-111.310	-22.106	-111.943	-8191	255	
551.126	1	1	0	0	0.23726	0.012043	0.16056	0.21477	0.10627	0.11852	0.32058	0.40845	0.19373	0.12071	0.13035	0.12089	0.14658	0.32952	0.15462	0.17752	-2.7146	-3.3833	-2.8396	-3.375	-3.1792	-2.8021	-3.5167	-2.8958	-3.0312	-3.1021	-2.9479	-3.4562	-3.3583	-3.1042	-3.3667	-3.1312	62.136	-21.671	-5.985	161.649	100.470	185.180	158.562	161.242	215.307	22.623	52.943	-122.143	201.542	159.485	95.715	171.367	0.00088917	0.00050899	0.00018585	1515.5	4.7082e-06	6.2325e-06	1506.4	422.72	6.7232e-06	4.2913e-06	481.76	161.31	141.87	48.159	5.7878e-06	59.451	0.00037458	0.00030401	8.2615e-05	1532.3	3.4288e-06	3.2842e-06	1529.9	429.35	3.427e-06	3.2972e-06	471.45	164.95	144.76	49.32	3.1982e-06	60.853	128.836	-54.914	-41.440	-124.540	-9.092	13.624	-124.938	-120.625	-64.448	28.563	-121.028	-116.709	-116.668	-111.365	-10.415	-112.116	-8191	255	
551.222	1	1	0	0	0.24363	0.09145	0.16617	0.20447	0.16897	0.2438	0.22047	0.070613	0.30454	0.19958	0.083193	0.27116	0.28598	0.13569	0.25621	0.27322	-2.7062	-3.3083	-2.7792	-3.3417	-2.9667	-3.0354	-3.3417	-3.2229	-3.1937	-3.3063	-2.9125	-3.3625	-3.1271	-3.0021	-2.9938	-3.0208	203.832	141.129	168.497	-112.509	5.343	99.430	-91.799	68.345	130.817	204.533	-9.295	170.918	181.917	142.251	80.726	161.705	0.00084268	0.00061708	0.00011437	1515.7	4.1879e-06	5.5603e-06	1506.2	422.27	6.0262e-06	6.1459e-06	479.93	162.04	142.28	48.056	5.0301e-06	59.251	0.00037729	0.00029652	8.3816e-05	1533.5	3.4513e-06	3.2791e-06	1527.2	429.11	3.4951e-06	3.2308e-06	469.51	164.93	145.02	49.259	3.238e-06	60.787	134.560	-36.612	-27.387	-124.592	-10.281	-8.130	-125.065	-120.497	-59.872	32.532	-120.999	-116.297	-116.380	-111.187	-5.117	-111.985	-8191	255	
551.317	1	1	0	0	0.10118	0.060095	0.20158	0.34286	0.27386	0.074615	0.16412	0.22812	0.25233	0.091295	0.27694	0.09267	0.15533	0.17695	0.11158	0.18942	-2.4333	-3.0708	-2.8229	-3.4583	-2.9708	-2.8771	-3.4458	-3.1708	-2.7896	-3.1146	-2.9708	-3.1562	-3.3104	-3.0167	-3.0917	-3.3708	-130.262	65.699	-114.263	191.795	137.201	-8.195	192.913	74.697	-109.880	-43.888	161.359	-95.652	-101.000	145.911	-117.110	143.659	0.00084482	0.00043318	0.00012938	1513.4	4.5139e-06	4.2774e-06	1503	423.11	7.0498e-06	3.691e-06	475.28	161.26	142.09	48.136	3.4845e-06	59.241	0.00038072	0.00029763	8.1323e-05	1531.9	3.4555e-06	3.3062e-06	1527.3	429.38	3.4878e-06	3.1894e-06	469.14	164.78	144.67	49.27	3.2918e-06	60.772	131.434	-34.353	-18.567	-124.603	-44.563	-12.068	-124.947	-120.555	-45.602	26.361	-120.117	-116.420	-116.453	-111.303	-23.608	-111.970	-8191	255	
551.415	1	1	0	0	0.16888	0.03444	0.090169	0.34073	0.46632	0.20123	0.21313	0.18516	0.22248	0.14014	0.14358	0.27185	0.1034	0.23257	0.1285	0.16952	-2.5542	-3.225	-3.0354	-3.3708	-3.275	-3.0604	-3.3917	-3.2729	-2.975	-3.4083	-3.1646	-3.375	-3.4	-3.0708	-3.1375	-3.4229	92.057	29.892	-33.272	220.405	61.201	90.573	163.269	142.718	-100.016	-42.458	173.769	208.861	-1.255	-6.781	211.601	166.369	0.00081646	0.00056699	8.4364e-05	1514.2	4.9184e-06	4.9512e-06	1505.5	421.32	7.4194e-06	5.738e-06	484.97	161.56	142.09	48.101	4.7238e-06	58.902	0.00037922	0.00029986	8.7383e-05	1533.1	3.4517e-06	3.2771e-06	1528.5	428.8	3.5309e-06	3.2e-06	471.61	164.77	144.87	49.234	3.3001e-06	60.727	129.068	-68.602	-65.535	-124.598	-24.217	8.479	-125.093	-120.382	-37.680	-5.352	-120.649	-116.546	-116.277	-111.203	-13.713	-112.137	-8191	255	
551.509	1	1	0	0	0.17458	0.35328	0.029443	0.49828	0.13948	0.19914	0.12142	0.085826	0.13505	0.0676	0.13669	0.12487	0.031697	0.17895	0.27998	0.050639	-2.3438	-3.2	-2.9104	-3.1417	-3.2771	-2.8187	-3.5667	-3.3458	-3.1146	-3.3104	-3.1375	-3.0729	-3.425	-3.0604	-3.3583	-3.3896	-45.827	55.778	-99.335	-125.554	115.948	138.705	192.675	179.225	92.355	-26.401	5.719	-115.372	-8.481	92.722	123.273	-108.971	0.00086727	0.00073914	0.00014825	1513.2	5.2006e-06	5.5988e-06	1504.9	422.81	6.4791e-06	4.6503e-06	480.92	161.26	141.58	48.07	4.1904e-06	59.191	0.00038574	0.00030123	8.4601e-05	1532.3	3.4194e-06	3.377e-06	1527	429.36	3.5461e-06	3.2246e-06	469.43	164.71	144.79	49.264	3.3261e-06	60.762	130.185	-71.454	-57.746	-124.654	3.321	-7.634	-124.919	-120.690	-55.031	16.862	-120.579	-116.417	-116.435	-111.428	-14.593	-111.889	-8191	255	
551.605	1	1	0	0	0.55817	0.068917	0.073048	0.37469	0.043429	0.19818	0.3246	0.12211	0.17003	0.083424	0.14675	0.14425	0.098577	0.1779	0.41984	0.08996	-2.5417	-3.3604	-2.8396	-3.1063	-3.1875	-3.0396	-3.3979	-3.2771	-2.8708	-3.3563	-3.2438	-3.2167	-3.2979	-3.0938	-3.3187	-3.3521	-30.466	201.654	111.304	194.413	13.438	83.344	138.726	83.160	109.728	-123.054	165.178	-119.391	-118.558	218.560	44.932	181.004	0.00080921	0.00054979	0.00014573	1516.4	6.0025e-06	6.388e-06	1504.9	421.82	6.8414e-06	5.2185e-06	478.45	161.03	142.18	48.264	5.5972e-06	59.335	0.00038405	0.00029253	8.5387e-05	1533.1	3.3179e-06	3.3486e-06	1526.8	428.86	3.4926e-06	3.2133e-06	470.93	164.54	144.7	49.347	3.3621e-06	60.769	129.171	-63.651	-38.479	-124.627	-11.552	-14.144	-124.899	-120.511	-49.314	0.665	-120.569	-116.587	-116.466	-111.327	-20.875	-112.131	-8191	255	
551.726	1	1	0	0	0.11372	0.22975	0.13253	0.087359	0.11175	0.095302	0.37964	0.38494	0.099695	0.46273	0.23316	0.15484	0.24611	0.17953	0.10116	0.2218	-2.3875	-3.2292	-3.2917	-3.0625	-3.1708	-3.2229	-3.5667	-3.5729	-3.0021	-3.375	-3.1771	-3.0542	-3.3708	-3.2208	-3.0521	-3.3146	146.570	214.143	-66.170	212.533	-117.577	-48.627	184.418	205.651	15.801	77.319	-65.956	-114.496	198.008	207.152	92.656	167.010	0.00083443	0.00053826	0.00011579	1517.5	3.9138e-06	4.5918e-06	1506.6	421.61	5.2924e-06	3.0597e-06	476.32	161.33	142.09	48.122	4.933e-06	59.044	0.00039355	0.00029502	8.5691e-05	1534.2	3.3262e-06	3.3602e-06	1528.3	428.61	3.5739e-06	3.1944e-06	470.67	164.65	144.65	49.29	3.458e-06	60.748	132.034	-52.144	-36.541	-124.717	-41.277	4.721	-124.873	-120.424	-41.433	18.191	-120.651	-116.419	-116.360	-111.468	-29.198	-112.203	-8191	255	
551.820	1	1	0	0	0.26641	0.080906	0.089257	0.17627	0.13904	0.13388	0.31617	0.086047	0.077772	0.19282	0.089817	0.20589	0.16262	0.25124	0.12765	0.14282	-2.4208	-3.0938	-3.2125	-3.0833	-3.3083	-3.3583	-3.3083	-3.5312	-3	-3.3063	-3.2729	-3.1333	-3.3292	-3.1271	-3.1146	-3.5854	-60.688	-84.793	-57.272	178.420	176.401	-82.623	136.624	-23.066	-76.324	175.218	-55.181	119.526	208.177	122.167	188.596	156.483	0.00083762	0.00068025	0.00016653	1517.7	4.348e-06	5.4581e-06	1504.6	423.15	4.5108e-06	5.3014e-06	471.01	161.43	142.04	48.129	3.544e-06	59.485	0.00038526	0.00030339	8.4991e-05	1533.3	3.3955e-06	3.4248e-06	1529.8	429.79	3.6245e-06	3.2592e-06	469.31	164.75	144.67	49.306	3.3656e-06	60.845	132.095	-58.435	-45.809	-124.698	3.802	3.373	-124.926	-120.236	-38.912	-3.845	-121.059	-116.438	-116.577	-111.378	-4.124	-112.055	-8191	255	
551.916	1	1	0	0	0.12848	0.11005	0.12869	0.25915	0.094541	0.28159	0.17719	0.16872	0.22436	0.2985	0.075222	0.053323	0.083883	0.17385	0.1665	0.10439	-2.775	-3.2583	-3.1854	-3.0667	-3.0667	-3.1104	-3.2812	-3.4	-3.0917	-3.3542	-3.225	-3.2104	-3.4	-3.2938	-2.8312	-3.1125	-11.527	216.012	130.397	200.746	-91.836	-118.811	193.573	177.601	-60.137	45.340	-17.451	215.818	-79.726	192.043	191.695	219.948	0.00086788	0.00038542	0.00014755	1516.5	5.0293e-06	6.4627e-06	1506.6	422.72	8.4243e-06	3.4281e-06	485.48	161.59	141.91	48.094	5.2917e-06	59.04	0.00039764	0.00029734	8.4779e-05	1533.6	3.3331e-06	3.3404e-06	1528.5	429.45	3.59e-06	3.271e-06	470.09	164.73	144.75	49.224	3.5482e-06	60.713	128.829	-45.250	-45.858	-124.748	-24.743	-26.609	-124.983	-120.453	-61.102	4.978	-121.105	-116.598	-116.392	-111.423	6.920	-111.940	-8191	255	
552.037	1	1	0	0	0.1245	0.066173	0.22591	0.31964	0.32798	0.22677	0.1099	0.19521	0.13917	0.12718	0.043049	0.17055	0.20179	0.22827	0.2181	0.14957	-2.5979	-2.9896	-3.1937	-3.2167	-3.1917	-3.3125	-3.0333	-3.4583	-3.0479	-3.2708	-3.4062	-3.2292	-3.1708	-3.3167	-2.9437	-3.3667	133.570	15.453	-82.547	203.587	56.232	180.111	98.761	107.394	14.993	-37.400	-31.683	171.678	-86.640	187.437	37.199	-89.715	0.00082194	0.00055474	0.00015022	1516.9	5.5231e-06	6.2306e-06	1501.8	423.06	5.6418e-06	4.4568e-06	476.68	162.1	142.98	48.288	4.3301e-06	59.193	0.00039086	0.00029853	8.4561e-05	1535.5	3.4342e-06	3.3064e-06	1529.2	429.6	3.4205e-06	3.2354e-06	470.06	164.83	144.97	49.308	3.3861e-06	60.742	131.004	-47.624	-39.340	-124.710	-14.531	-8.824	-124.968	-120.497	-48.237	5.380	-120.943	-116.448	-116.414	-111.060	17.019	-111.967	-8191	255	
552.109	1	1	0	0	0.20425	0.078162	0.10552	0.25038	0.1076	0.15676	0.39392	0.21396	0.18601	0.19276	0.062122	0.15961	0.13636	0.19859	0.10759	0.14983	-2.7396	-3.0354	-3.2729	-3.1771	-3.0479	-3.2396	-3.0917	-3.2687	-3.0271	-2.9813	-3.3396	-3.2583	-3.2875	-3.575	-3.0479	-3.5333	-38.837	137.176	191.546	166.623	-70.709	-1.313	214.517	199.141	98.267	152.271	129.876	177.368	-70.657	161.687	-21.016	143.551	0.00088879	0.00054132	0.00017159	1518	5.9013e-06	3.3254e-06	1500.8	421.97	4.3754e-06	2.3079e-06	477.94	161.3	142.03	48.117	4.4766e-06	59.15	0.00039397	0.00029304	8.488e-05	1534.5	3.4469e-06	3.3288e-06	1528	429.32	3.5798e-06	3.1882e-06	469.07	164.72	144.78	49.278	3.4116e-06	60.621	131.422	-57.491	-42.862	-124.793	3.956	12.618	-124.946	-120.393	-55.840	9.785	-120.670	-116.446	-116.364	-111.132	-13.556	-112.093	-8191	255	
552.205	1	1	0	0	0.14133	0.158	0.072325	0.39047	0.10967	0.038891	0.16286	0.25736	0.035357	0.21186	0.20183	0.1539	0.14996	0.12502	0.11657	0.050043	-2.8688	-2.8396	-3.2208	-3.2042	-3.1167	-3.3438	-3.3438	-3.2521	-3.0292	-2.8958	-3.2542	-3.25	-3.2042	-3.4729	-3.1375	-3.3417	-119.546	155.783	119.050	198.322	-134.524	21.509	181.555	191.464	-76.362	24.247	-76.312	175.667	55.315	186.788	-37.435	176.810	0.00091503	0.000641	0.00022862	1518.4	5.9112e-06	5.6956e-06	1506.9	422.58	7.2871e-06	4.8056e-06	477.52	161.88	141.66	48.153	6.2312e-06	59.046	0.0003906	0.0003025	8.4571e-05	1532.4	3.3747e-06	3.1773e-06	1527.1	429.41	3.463e-06	3.2427e-06	470.69	164.86	144.83	49.27	3.3818e-06	60.695	133.492	-38.162	-40.536	-124.789	-19.854	-6.028	-124.923	-120.597	-44.014	26.985	-120.430	-116.550	-116.340	-111.355	-37.304	-111.965	-8191	255	
552.301	1	1	0	0	0.13502	0.13722	0.13194	0.35518	0.060989	0.043658	0.30454	0.3576	0.062409	0.26784	0.090471	0.25809	0.37212	0.26519	0.1808	0.21917	-2.6188	-3.0062	-3.0292	-2.9917	-2.9583	-3.5625	-3.2812	-3.2396	-3.25	-2.8	-3.0208	-3.2833	-2.9896	-3.225	-2.8792	-3.1937	81.423	56.041	164.649	191.720	-73.323	140.737	143.409	-119.914	154.320	-137.058	95.215	-136.480	203.816	164.252	-61.595	84.619	0.00085826	0.00068614	0.00014908	1516.7	5.9182e-06	2.6517e-06	1506.4	421.92	6.4119e-06	5.7298e-06	477.03	161.64	141.97	48.037	4.5303e-06	59.343	0.00039219	0.0003016	8.1333e-05	1533.1	3.3857e-06	3.2457e-06	1528	429.07	3.5116e-06	3.2966e-06	470	164.84	144.74	49.225	3.349e-06	60.71	127.755	-38.135	-42.036	-124.549	-14.992	24.104	-124.972	-120.522	-48.156	15.482	-120.657	-116.275	-116.312	-111.160	-17.335	-112.290	-8191	255	
552.397	1	1	0	0	0.10102	0.24513	0.26407	0.23636	0.17417	0.2454	0.10373	0.30466	0.37201	0.076098	0.15197	0.16314	0.24047	0.10588	0.13697	0.19678	-2.7833	-2.8208	-3.0604	-3.2625	-3.0125	-3.3354	-3.4042	-3.4771	-3.0792	-2.975	-3.3167	-3.1813	-3.1688	-3.5375	-3.1229	-3.2333	-124.308	-74.456	213.006	204.653	105.995	118.849	-59.717	183.858	91.136	196.491	-119.068	87.611	196.517	200.315	205.916	-116.916	0.00087286	0.00037055	9.0336e-05	1512.9	6.4089e-06	4.0851e-06	1504.4	423.42	7.128e-06	6.8518e-06	477.03	161.16	142.59	47.927	6.3558e-06	59.255	0.00038	0.00029589	7.9965e-05	1532.6	3.4214e-06	3.1541e-06	1526.8	429.37	3.3788e-06	3.226e-06	471.27	164.62	144.78	49.231	3.3654e-06	60.779	130.989	-61.863	-35.451	-124.602	-47.489	40.751	-124.983	-120.339	-58.618	34.357	-120.963	-116.609	-116.360	-111.289	-14.258	-112.050	-8191	255	
552.518	1	1	0	0	0.13608	0.24171	0.19669	0.25847	0.059238	0.19265	0.20817	0.40652	0.048396	0.21436	0.31148	0.12306	0.036364	0.25687	0.037858	0.39402	-3.0062	-3.0062	-2.9771	-2.9771	-2.9375	-3.3021	-3.2271	-3.4437	-3.4021	-3.0208	-3.1604	-3.1896	-2.9958	-3.4354	-3.0792	-3.2188	-91.051	-132.054	22.641	165.203	-44.709	43.946	151.700	189.881	-5.517	36.448	195.090	-132.256	-40.585	193.282	123.671	96.927	0.0008348	0.00054939	0.00013031	1518.7	6.0379e-06	4.7828e-06	1505.9	422.47	8.8007e-06	3.6035e-06	473.9	161.37	141.77	48.167	2.754e-06	59.069	0.00038825	0.00030595	8.0984e-05	1533.1	3.4131e-06	3.1615e-06	1527.8	429.04	3.4437e-06	3.3444e-06	468.82	164.58	144.78	49.218	3.3561e-06	60.739	131.553	-53.788	-67.223	-124.676	-16.972	-13.458	-124.959	-120.695	-51.020	5.205	-119.996	-116.353	-116.523	-111.312	-12.867	-111.875	-8191	255	
552.612	1	1	0	0	0.17964	0.056262	0.096393	0.41065	0.21658	0.042774	0.33183	0.26677	0.16559	0.30667	0.14544	0.15939	0.15012	0.030911	0.19734	0.1664	-2.7438	-2.7979	-3.0854	-3.3042	-3.0625	-3.3688	-3.2792	-3.1208	-3.2875	-3.0542	-3.2708	-3.3625	-2.9354	-3.1813	-3.0896	-3.0292	15.350	80.762	-96.633	186.101	-128.933	5.657	176.068	189.784	143.572	196.991	158.956	-129.429	14.332	168.321	-7.387	195.020	0.00086249	0.00067106	0.00015714	1510.7	2.7145e-06	4.3128e-06	1503.5	422.06	7.3194e-06	1.4681e-06	478.9	161.56	142.53	48.153	3.896e-06	59.19	0.00037598	0.00030464	7.9919e-05	1531	3.4189e-06	3.1681e-06	1528.3	429.08	3.4237e-06	3.2429e-06	470.87	164.56	144.84	49.302	3.3292e-06	60.815	129.261	-72.248	-34.307	-124.817	-30.352	5.483	-124.896	-120.513	-54.776	45.533	-121.027	-116.157	-116.039	-111.355	-4.130	-112.141	-8191	255	
552.686	1	1	0	0	0.17068	0.15524	0.12086	0.15755	0.10178	0.14653	0.33221	0.21135	0.15984	0.25158	0.20911	0.16126	0.15662	0.43532	0.11763	0.46338	-2.7438	-2.975	-3.0792	-3.4146	-2.6667	-3.3667	-3.425	-3.1104	-3.2458	-3.1375	-3.1937	-3.4729	-3.0083	-3.2792	-3.0062	-3.2333	49.183	180.110	-56.782	-104.514	176.652	15.290	170.439	178.682	218.090	165.735	6.972	144.531	-91.386	150.734	112.468	200.769	0.00087354	0.0004681	0.00018412	1515.4	6.8888e-06	3.7815e-06	1503.6	422.97	6.3002e-06	4.9244e-06	492.03	161.56	142.35	48.146	5.3618e-06	59.236	0.00038266	0.00030898	8.4738e-05	1533.7	3.5165e-06	3.2041e-06	1528.2	429.55	3.5459e-06	3.312e-06	472.78	164.7	144.76	49.247	3.4085e-06	60.75	132.315	-51.644	-35.909	-124.756	-17.502	39.494	-124.903	-120.577	-63.743	27.627	-120.544	-116.495	-116.368	-111.355	-14.512	-111.792	-8191	255	
552.804	1	1	0	0	0.023273	0.108	0.1863	0.15793	0.14239	0.10958	0.26587	0.446	0.13243	0.20714	0.15197	0.12916	0.33221	0.20832	0.21603	0.16296	-2.8917	-3.2021	-3.2167	-3.4979	-3.0771	-3.2667	-3.4104	-3.0812	-3.3458	-3.1542	-2.9271	-3.425	-3.1375	-3.3854	-3.1875	-2.9042	-97.239	175.363	156.001	168.331	-43.946	-54.221	123.771	196.537	78.801	-28.180	-91.663	-69.286	197.290	141.941	-127.576	156.638	0.00081391	0.00057479	9.799e-05	1514.6	5.6907e-06	4.0641e-06	1504.6	423.47	5.8014e-06	4.53e-06	483.42	161.63	141.99	47.908	3.3169e-06	59.052	0.00037751	0.00030178	8.3152e-05	1532.6	3.41e-06	3.2605e-06	1527.9	429.21	3.4356e-06	3.3364e-06	470.89	164.76	144.75	49.171	3.5264e-06	60.726	127.545	-71.814	-31.282	-124.721	-14.491	29.089	-125.115	-120.306	-43.460	14.361	-120.770	-116.393	-116.471	-111.226	-16.426	-111.843	-8191	255	
552.901	1	1	0	0	0.13323	0.28619	0.081826	0.36251	0.28724	0.07928	0.36548	0.19014	0.32415	0.27039	0.23406	0.16789	0.15572	0.21113	0.061821	0.088968	-2.9562	-3.1146	-3.3271	-3.5687	-2.9375	-3.2313	-3.3833	-3.0229	-3.2729	-3.0667	-3.025	-3.3187	-3.1542	-3.3458	-3.2062	-3.1146	-120.583	70.027	96.961	173.378	172.372	154.219	156.699	153.658	76.807	-137.104	-125.632	176.153	79.075	-101.628	38.811	104.475	0.00089199	0.00045791	0.00015384	1518.9	3.3128e-06	8.6667e-06	1506	421.09	5.7413e-06	2.166e-06	480.27	161	141.96	48.092	6.7218e-06	59.275	0.00038436	0.00031511	8.5954e-05	1532.7	3.4989e-06	3.2265e-06	1528.2	428.9	3.4849e-06	3.3541e-06	472.32	164.48	144.67	49.221	3.4342e-06	60.771	130.820	-54.436	-44.088	-124.684	-22.202	25.936	-125.024	-120.398	-47.351	7.517	-121.265	-116.342	-116.569	-111.159	2.004	-111.888	-8191	255	
552.997	1	1	0	0	0.22116	0.094183	0.15153	0.23048	0.1534	0.12757	0.16745	0.34721	0.054723	0.09438	0.094392	0.13545	0.23101	0.26599	0.10663	0.083312	-3.1083	-3.2021	-2.825	-3.5479	-3.1167	-2.925	-3.3333	-3.1375	-3.2771	-3.1792	-2.9146	-3.3333	-3.2458	-3.1479	-3.3583	-3.175	-109.558	189.711	74.063	202.385	139.996	73.590	126.771	-137.008	44.224	176.478	-81.222	-32.873	177.646	-134.960	181.897	114.150	0.00085299	0.00051966	0.00015443	1514.7	4.6289e-06	3.3284e-06	1504.2	421.47	5.7004e-06	5.447e-06	478.24	161.2	141.85	48.021	3.5764e-06	59.305	0.00038161	0.00030874	8.3623e-05	1531	3.5228e-06	3.2641e-06	1528.2	428.67	3.4772e-06	3.3661e-06	470.54	164.54	144.71	49.23	3.4999e-06	60.8	130.691	-65.717	-54.103	-124.658	-26.149	14.415	-124.869	-120.504	-33.964	-3.588	-120.993	-116.418	-116.374	-111.192	-10.968	-111.801	-8191	255	
#DATA ENDS
