BOXY.EXE: ISS Imagent and Oximeter Data Acquisition Program Version 0.80
Ascii Record File

#ACQ INFORMATION
2  Detector Channels 
16  External MUX Channels 
1  Auxiliary Channels 
5000  Waveform (CCF) Frequency (Hz)
1  Waveforms Skipped 
30  Waveforms Averaged 
1  Cycles Averaged 
16  Acquisitions per Waveform 
10.0806  Updata Rate (Hz) 

#FILE INFORMATION
TRUE -- External MUX Channel results are PARSED.
FALSE -- AC DC and Phase are NOT grouped.
TRUE -- Companion Program Settings File CREATED.
FALSE -- AC data not excluded
FALSE -- DC data not excluded
FALSE -- Phase data not excluded
FALSE -- Auxillary Chn. data not excluded
Tab delimiters

#CALIBRATION STATE
TRUE -- Waveform Calibration Values APPLIED.


#AUX CALIBRATION VALUES
Val Type	aux-1	

Term	1.0000e+00	
Factor	0.0000e+00	


#WF CALIBRATION VALUES
A = Detector Channel
Val Type	A-AC1	A-AC2	A-AC3	A-AC4	A-AC5	A-AC6	A-AC7	A-AC8	A-AC9	A-AC10	A-AC11	A-AC12	A-AC13	A-AC14	A-AC15	A-AC16	A-DC1	A-DC2	A-DC3	A-DC4	A-DC5	A-DC6	A-DC7	A-DC8	A-DC9	A-DC10	A-DC11	A-DC12	A-DC13	A-DC14	A-DC15	A-DC16	A-Ph1	A-Ph2	A-Ph3	A-Ph4	A-Ph5	A-Ph6	A-Ph7	A-Ph8	A-Ph9	A-Ph10	A-Ph11	A-Ph12	A-Ph13	A-Ph14	A-Ph15	A-Ph16	

Term	0.00000e+00	0.00000e+00	0.00000e+00	0.00000e+00	0.00000e+00	0.00000e+00	0.00000e+00	0.00000e+00	0.00000e+00	0.00000e+00	0.00000e+00	0.00000e+00	0.00000e+00	0.00000e+00	0.00000e+00	0.00000e+00	0.00000e+00	0.00000e+00	0.00000e+00	0.00000e+00	0.00000e+00	0.00000e+00	0.00000e+00	0.00000e+00	0.00000e+00	0.00000e+00	0.00000e+00	0.00000e+00	0.00000e+00	0.00000e+00	0.00000e+00	0.00000e+00	0.00000e+00	0.00000e+00	0.00000e+00	0.00000e+00	0.00000e+00	0.00000e+00	0.00000e+00	0.00000e+00	0.00000e+00	0.00000e+00	0.00000e+00	0.00000e+00	0.00000e+00	0.00000e+00	0.00000e+00	0.00000e+00	
Factor	1.00000e+00	1.00000e+00	1.00000e+00	1.00000e+00	1.00000e+00	1.00000e+00	1.00000e+00	1.00000e+00	1.00000e+00	1.00000e+00	1.00000e+00	1.00000e+00	1.00000e+00	1.00000e+00	1.00000e+00	1.00000e+00	1.00000e+00	1.00000e+00	1.00000e+00	1.00000e+00	1.00000e+00	1.00000e+00	1.00000e+00	1.00000e+00	1.00000e+00	1.00000e+00	1.00000e+00	1.00000e+00	1.00000e+00	1.00000e+00	1.00000e+00	1.00000e+00	X	X	X	X	X	X	X	X	X	X	X	X	X	X	X	X	

B = Detector Channel
Val Type	B-AC1	B-AC2	B-AC3	B-AC4	B-AC5	B-AC6	B-AC7	B-AC8	B-AC9	B-AC10	B-AC11	B-AC12	B-AC13	B-AC14	B-AC15	B-AC16	B-DC1	B-DC2	B-DC3	B-DC4	B-DC5	B-DC6	B-DC7	B-DC8	B-DC9	B-DC10	B-DC11	B-DC12	B-DC13	B-DC14	B-DC15	B-DC16	B-Ph1	B-Ph2	B-Ph3	B-Ph4	B-Ph5	B-Ph6	B-Ph7	B-Ph8	B-Ph9	B-Ph10	B-Ph11	B-Ph12	B-Ph13	B-Ph14	B-Ph15	B-Ph16	

Term	0.00000e+00	0.00000e+00	0.00000e+00	0.00000e+00	0.00000e+00	0.00000e+00	0.00000e+00	0.00000e+00	0.00000e+00	0.00000e+00	0.00000e+00	0.00000e+00	0.00000e+00	0.00000e+00	0.00000e+00	0.00000e+00	0.00000e+00	0.00000e+00	0.00000e+00	0.00000e+00	0.00000e+00	0.00000e+00	0.00000e+00	0.00000e+00	0.00000e+00	0.00000e+00	0.00000e+00	0.00000e+00	0.00000e+00	0.00000e+00	0.00000e+00	0.00000e+00	6.09306e+01	-1.28867e+02	-1.24252e+02	-1.83791e+02	-7.10263e+01	-6.44181e+01	-1.55111e+02	-1.62015e+02	-5.97362e+01	-7.09102e+01	-1.70545e+02	-1.70268e+02	-1.83573e+02	-1.76953e+02	-6.30865e+01	-1.49760e+02	
Factor	6.88653e-05	1.99114e-04	5.52351e-05	1.82487e-01	2.78844e-06	2.19230e-06	1.74721e-01	5.94271e-02	3.46584e-06	1.87842e-06	9.44179e-02	3.29784e-02	3.44525e-02	1.09698e-02	2.67653e-06	1.53179e-02	1.06372e-05	1.32956e-05	3.69939e-06	9.20757e-02	1.38416e-07	1.48277e-07	8.30070e-02	2.99589e-02	1.38529e-07	1.47423e-07	4.64028e-02	1.61447e-02	1.73924e-02	5.58577e-03	1.42191e-07	7.57640e-03	X	X	X	X	X	X	X	X	X	X	X	X	X	X	X	X	



#DISTANCE SETTINGS
A = Detector Channel
A-1	A-2	A-3	A-4	A-5	A-6	A-7	A-8	A-9	A-10	A-11	A-12	A-13	A-14	A-15	A-16	

2.5000e+00	3.0000e+00	2.5000e+00	3.0000e+00	2.0000e+00	3.0000e+00	1.5000e+00	3.0000e+00	3.0000e+00	3.0000e+00	3.0000e+00	3.0000e+00	3.0000e+00	3.0000e+00	1.5000e+00	3.0000e+00	

B = Detector Channel
B-1	B-2	B-3	B-4	B-5	B-6	B-7	B-8	B-9	B-10	B-11	B-12	B-13	B-14	B-15	B-16	

1.0000e+01	1.0000e+01	1.0000e+01	1.4400e+00	1.0000e+01	1.0000e+01	1.5100e+00	1.9400e+00	1.0000e+01	1.0000e+01	1.9900e+00	2.4900e+00	2.4100e+00	2.9000e+00	1.0000e+01	2.9800e+00	




#DATA BEGINS
time	group	step	mark	flag	A-AC1	A-AC2	A-AC3	A-AC4	A-AC5	A-AC6	A-AC7	A-AC8	A-AC9	A-AC10	A-AC11	A-AC12	A-AC13	A-AC14	A-AC15	A-AC16	A-DC1	A-DC2	A-DC3	A-DC4	A-DC5	A-DC6	A-DC7	A-DC8	A-DC9	A-DC10	A-DC11	A-DC12	A-DC13	A-DC14	A-DC15	A-DC16	A-Ph1	A-Ph2	A-Ph3	A-Ph4	A-Ph5	A-Ph6	A-Ph7	A-Ph8	A-Ph9	A-Ph10	A-Ph11	A-Ph12	A-Ph13	A-Ph14	A-Ph15	A-Ph16	B-AC1	B-AC2	B-AC3	B-AC4	B-AC5	B-AC6	B-AC7	B-AC8	B-AC9	B-AC10	B-AC11	B-AC12	B-AC13	B-AC14	B-AC15	B-AC16	B-DC1	B-DC2	B-DC3	B-DC4	B-DC5	B-DC6	B-DC7	B-DC8	B-DC9	B-DC10	B-DC11	B-DC12	B-DC13	B-DC14	B-DC15	B-DC16	B-Ph1	B-Ph2	B-Ph3	B-Ph4	B-Ph5	B-Ph6	B-Ph7	B-Ph8	B-Ph9	B-Ph10	B-Ph11	B-Ph12	B-Ph13	B-Ph14	B-Ph15	B-Ph16	aux-1	digaux	

486.314	1	1	0	256	0.24072	0.1397	0.20828	0.28905	0.19794	0.010199	0.16743	0.096305	0.09485	0.045327	0.28779	0.2168	0.33052	0.16105	0.42599	0.22883	-2.2771	-2.7708	-2.9271	-2.8021	-3.0021	-2.9667	-2.8229	-3.0917	-2.7687	-2.8625	-3.1208	-2.875	-2.8125	-3.0062	-2.6188	-3.1063	257.740	-8.517	208.009	296.845	261.489	162.922	100.675	284.399	113.500	271.150	-23.848	115.172	229.513	-16.688	35.524	136.708	0.00038063	0.00027841	0.00015482	1282	6.0586e-06	2.4282e-06	1350.8	268.63	1.1818e-06	1.2816e-06	330.06	92.404	72.715	21.408	8.8857e-06	29.841	0.00056262	0.000617	0.00016972	1265.5	6.6486e-06	6.7315e-06	1328.9	266.73	6.3994e-06	6.7019e-06	330.07	92.609	73.215	21.743	6.6424e-06	30.232	331.316	64.871	39.716	-15.686	158.068	134.188	-15.469	-8.364	123.431	105.598	-8.946	-2.154	-1.686	4.909	88.062	4.359	-8191	255	
486.410	1	1	0	0	0.21013	0.16644	0.090681	0.063456	0.020769	0.19624	0.095282	0.17526	0.1061	0.19123	0.14997	0.14655	0.13547	0.21247	0.14342	0.21627	-2.3667	-2.5417	-3.0333	-2.9229	-2.7958	-2.8354	-3.0146	-3.1521	-2.8542	-2.8187	-2.95	-2.7896	-2.875	-2.8958	-2.7125	-3.1979	133.446	311.806	148.630	76.703	69.488	-8.174	200.037	242.976	308.382	214.767	69.063	254.667	186.803	96.793	309.813	281.288	0.00038958	0.00032558	0.00015358	1279.5	6.5729e-06	4.0334e-06	1348.1	267.52	1.4986e-06	4.756e-06	330.29	91.585	72.478	21.286	5.1823e-06	29.514	0.00055566	0.00062243	0.00016552	1260	6.4882e-06	6.5625e-06	1328.2	265.86	6.1331e-06	6.1918e-06	329.31	92.282	72.812	21.587	6.159e-06	30.046	329.015	25.012	49.087	-15.879	161.422	142.589	-15.501	-8.338	104.485	122.062	-8.670	-2.107	-1.751	4.647	131.135	4.208	-8191	255	
486.506	1	1	0	0	0.052602	0.15826	0.079773	0.16394	0.20731	0.14442	0.15976	0.16204	0.13911	0.052758	0.47682	0.28818	0.22072	0.20119	0.18256	0.069903	-2.3896	-2.6542	-2.7896	-3.0333	-2.8854	-2.7854	-2.8875	-2.9688	-2.7625	-2.8083	-3.0208	-2.8646	-2.8542	-2.9333	-2.7021	-2.9333	192.383	147.199	153.043	310.601	127.737	87.847	212.042	105.006	94.647	120.712	284.687	258.046	301.147	-12.511	301.866	268.943	0.00038262	0.00019788	7.8232e-05	1274.6	4.1984e-06	3.7632e-06	1339.5	267.15	4.9288e-06	2.0869e-06	331.07	92.073	72.846	21.241	2.6055e-06	29.654	0.00051076	0.00057498	0.00015433	1255.2	6.3386e-06	6.3425e-06	1324.3	265.9	6.5567e-06	6.7867e-06	330.18	92.571	73.309	21.684	6.5663e-06	30.206	323.295	124.205	56.594	-15.655	145.095	154.624	-15.241	-8.375	148.857	135.473	-8.905	-2.048	-1.690	4.586	215.309	4.388	-8191	255	
486.578	1	1	0	0	0.15993	0.15492	0.041795	0.1677	0.10398	0.19214	0.16542	0.11338	0.065111	0.31735	0.17413	0.22474	0.074999	0.032238	0.19721	0.097592	-2.5042	-2.675	-2.8375	-2.8812	-2.6854	-3.1271	-2.8667	-2.9062	-3.0021	-2.7896	-3.0938	-2.775	-2.7417	-2.8854	-2.8646	-2.9125	-9.361	201.441	21.278	265.802	45.387	21.756	310.329	198.221	141.014	145.597	279.610	332.233	112.885	179.433	212.205	241.165	0.00039114	0.00021942	0.00010095	1284.8	5.4973e-06	4.1256e-06	1353.7	267.13	8.0406e-06	4.9108e-06	332.5	92.394	73.566	21.402	5.2571e-06	29.799	0.00053891	0.00059669	0.00016436	1264.2	6.5384e-06	6.5804e-06	1331.2	266.83	6.6603e-06	6.9135e-06	331.45	93.11	73.721	21.892	7.3151e-06	30.467	318.556	51.873	55.581	-15.595	111.246	86.765	-15.756	-8.723	142.881	119.646	-8.899	-2.207	-2.058	4.495	120.229	3.926	-8191	255	
486.699	1	1	0	0	0.21558	0.15366	0.093077	0.20099	0.14925	0.055927	0.35912	0.0079483	0.085874	0.049403	0.30444	0.13539	0.15773	0.23935	0.15087	0.22077	-2.5021	-2.6979	-2.7271	-2.7854	-2.6104	-3.0583	-3.15	-2.8333	-3	-2.7479	-2.9917	-2.8438	-2.7708	-2.9979	-2.6771	-2.7792	218.742	32.464	242.666	204.606	28.722	49.158	265.660	49.239	308.398	55.772	292.277	319.174	278.740	237.307	313.152	148.604	0.00040559	0.00056645	0.00015462	1296	6.3763e-06	3.4483e-06	1373.2	272.18	7.3976e-06	3.338e-06	336.61	93.489	74.915	21.948	3.8327e-06	30.48	0.000627	0.00072381	0.00020153	1279.7	8.7176e-06	8.9859e-06	1352.2	271.54	9.3945e-06	1.019e-05	337.4	94.838	75.548	22.483	1.0573e-05	31.086	321.686	38.923	51.638	-15.600	158.708	15.887	-15.610	-8.478	121.125	108.448	-8.915	-2.127	-2.134	4.296	148.747	4.357	-8191	255	
486.795	1	1	0	0	0.21735	0.26558	0.14714	0.13289	0.03409	0.21708	0.33216	0.24867	0.29149	0.18486	0.21629	0.13565	0.22844	0.25338	0.073756	0.24872	-2.4521	-2.5333	-2.825	-2.7667	-2.8229	-3.0062	-2.9521	-2.8104	-2.9437	-2.6437	-2.9417	-2.9458	-2.5479	-3.1146	-2.9792	-2.7687	137.354	-14.741	135.784	271.125	274.570	329.738	228.281	323.265	68.851	126.129	11.495	53.461	195.007	328.760	228.825	208.600	0.00033365	0.0003808	0.00017277	1308.7	2.7384e-06	5.959e-06	1381.9	273.8	3.7728e-06	4.8128e-06	337.07	94.269	74.665	21.876	6.1011e-07	30.148	0.00084238	0.00098623	0.0002656	1294.4	9.9267e-06	9.8063e-06	1360.9	273.51	8.9019e-06	8.8706e-06	337.3	94.721	75.145	22.286	8.3123e-06	30.789	312.784	68.104	95.562	-15.713	110.570	123.166	-15.632	-8.743	109.602	117.305	-8.986	-2.036	-1.878	4.832	80.521	4.021	-8191	255	
486.891	1	1	0	0	0.23557	0.0096131	0.14934	0.33276	0.13931	0.13712	0.10371	0.15067	0.060694	0.25367	0.33207	0.30645	0.12389	0.17409	0.24647	0.11278	-2.6958	-2.7562	-2.7542	-2.9979	-2.5979	-3.0104	-2.9083	-2.8854	-2.8875	-3.0187	-3.0042	-2.9042	-2.6917	-2.9188	-2.9104	-2.8854	144.374	256.792	267.100	268.979	102.650	15.397	314.990	-8.129	181.793	-15.916	304.673	312.101	85.685	21.234	191.370	86.146	0.00031299	0.00011864	0.00010686	1303	4.3241e-06	5.9121e-06	1371.6	272.81	7.7778e-06	4.7878e-06	337.4	93.849	74.529	21.933	3.6603e-06	30.268	0.00068752	0.00078613	0.00021983	1284.5	8.6562e-06	8.8123e-06	1352	272.75	8.7868e-06	9.2947e-06	337.09	94.392	74.983	22.283	9.5298e-06	30.785	322.332	17.350	34.942	-15.453	114.347	117.085	-15.517	-8.444	132.341	102.090	-9.006	-2.265	-1.521	4.485	103.810	3.961	-8191	255	
486.987	1	1	0	0	0.14497	0.088595	0.071003	0.096253	0.23986	0.18728	0.39896	0.17332	0.16469	0.28673	0.051789	0.053122	0.33328	0.30039	0.059406	0.11763	-2.5542	-2.8312	-2.7062	-3.2521	-2.7313	-2.8667	-3.15	-2.6896	-3.0375	-3.0625	-2.8812	-2.9833	-2.8104	-2.9417	-2.6229	-2.7542	327.273	192.419	3.786	255.127	117.627	125.165	231.370	263.807	217.420	146.303	295.468	1.077	222.579	270.653	169.466	1.834	0.00032073	0.00024592	5.8821e-05	1303.5	4.507e-06	7.1428e-06	1372.4	272.81	3.0867e-06	1.7135e-06	337.72	93.563	74.376	21.808	6.2478e-06	30.183	0.00080608	0.00092102	0.00026109	1287.6	9.9333e-06	1.0209e-05	1353.7	272.97	9.7123e-06	9.9486e-06	337.49	94.323	74.863	22.278	9.3428e-06	30.837	319.749	-23.343	13.229	-15.647	169.348	117.637	-15.659	-8.431	168.981	115.927	-8.968	-2.200	-1.489	4.480	166.895	4.017	-8191	255	
487.106	1	1	0	0	0.10571	0.082891	0.078035	0.28987	0.19297	0.15561	0.16796	0.26008	0.17934	0.053301	0.13099	0.26583	0.057011	0.063563	0.086728	0.026597	-2.6354	-2.7313	-2.8937	-3.1021	-2.7729	-2.8312	-3.0083	-2.8917	-3.0792	-2.7667	-3.0187	-3.0417	-2.8542	-2.9062	-2.8979	-2.6063	271.799	172.516	192.989	264.490	179.948	210.695	32.215	328.596	246.568	148.080	43.932	313.345	228.495	261.464	86.653	207.311	0.00046438	0.00054744	0.00016547	1296.2	5.8189e-06	2.8506e-06	1370.6	273.99	4.4077e-06	3.8444e-06	338.1	93.229	73.263	21.674	5.7628e-06	29.852	0.00076247	0.00085225	0.00023577	1282.5	8.8563e-06	8.9738e-06	1350.1	272.37	8.6927e-06	8.6479e-06	336.3	93.951	74.333	22.093	8.3226e-06	30.528	328.848	72.264	67.672	-15.705	154.957	137.758	-15.489	-8.567	120.686	133.857	-9.001	-1.989	-1.922	4.419	149.463	4.658	-8191	255	
487.179	1	1	0	0	0.12412	0.224	0.065849	0.17926	0.26492	0.16338	0.1706	0.23462	0.24875	0.24279	0.17802	0.11062	0.068154	0.11163	0.12811	0.14143	-2.5062	-2.7583	-2.725	-3.0771	-2.8604	-2.8021	-3.2521	-2.625	-2.925	-2.6104	-2.6479	-3.0854	-2.8312	-2.9354	-2.9583	-2.7562	320.711	126.296	258.469	265.126	209.372	17.933	283.452	238.631	269.281	28.618	305.235	130.168	269.850	-8.028	106.910	22.271	0.00040109	0.00035587	0.00014787	1288.7	5.7148e-06	1.6125e-06	1357.9	270.27	4.5403e-06	5.2355e-06	334.96	92.741	73.691	21.516	4.541e-06	29.662	0.00065696	0.00073993	0.00021329	1274.2	8.0203e-06	8.3282e-06	1340.2	269.56	8.0055e-06	8.3543e-06	334.15	93.534	73.794	21.953	8.2735e-06	30.397	330.508	74.114	51.039	-15.576	132.985	158.332	-15.574	-8.712	170.553	106.994	-8.661	-2.225	-1.744	4.908	180.049	4.198	-8191	255	
487.275	1	1	0	0	0.12642	0.036826	0.21882	0.35659	0.26558	0.22638	0.17581	0.21377	0.14012	0.11614	0.2216	0.076081	0.14968	0.037388	0.21099	0.18553	-2.4708	-2.8625	-2.7333	-2.9583	-2.7125	-2.7812	-3.2979	-2.8396	-2.9458	-2.8646	-2.8688	-3.1125	-2.9833	-2.7396	-2.9188	-2.6292	278.502	59.977	0.164	292.293	119.914	155.447	304.818	30.731	18.911	325.124	243.187	-2.978	268.288	74.162	138.895	-5.218	0.00036072	0.00063259	0.00016749	1289.4	3.0989e-06	4.9244e-06	1364.4	269.67	5.2675e-06	3.6362e-06	334.52	92.626	73.279	21.523	2.6504e-06	29.852	0.00068958	0.00075217	0.00020959	1273.5	8.0088e-06	8.3789e-06	1342.2	268.97	7.9657e-06	8.146e-06	333.38	93.425	73.809	21.971	8.1292e-06	30.471	321.885	77.484	102.337	-15.668	214.148	143.698	-15.550	-8.514	197.991	130.025	-8.984	-2.192	-1.966	4.722	98.143	4.206	-8191	255	
487.394	1	1	0	0	0.28135	0.19347	0.17695	0.29787	0.26073	0.31823	0.1127	0.35581	0.21506	0.038204	0.055121	0.287	0.15213	0.062577	0.15029	0.15854	-2.525	-2.8604	-2.7229	-3.1104	-2.7438	-2.7687	-3.0438	-2.9062	-2.9354	-2.9479	-2.7771	-3.0167	-2.9062	-2.8146	-2.9792	-2.8917	46.381	49.734	227.037	287.888	177.960	156.613	303.057	288.400	91.413	93.531	285.129	211.968	306.756	307.277	94.796	236.093	0.00040073	0.00034965	0.00013467	1287.2	1.6249e-06	5.5452e-06	1357.7	270.77	7.8296e-06	3.1164e-06	332.44	93.204	73.199	21.422	3.551e-06	29.804	0.00067786	0.00077281	0.00021869	1272.3	8.2006e-06	8.7514e-06	1339	269.69	8.2586e-06	8.5656e-06	332.89	93.425	73.896	21.889	8.1446e-06	30.443	-21.733	85.036	72.588	-15.501	240.824	131.701	-15.489	-8.495	133.214	85.738	-8.617	-1.803	-1.980	4.931	140.397	4.117	-8191	255	
487.490	1	1	0	0	0.10772	0.069019	0.012144	0.1066	0.25553	0.13285	0.3232	0.35245	0.085334	0.11545	0.099794	0.2146	0.12526	0.21004	0.022352	0.10701	-2.6437	-3.0583	-2.8417	-3.0708	-2.9938	-2.7562	-3.2917	-2.7354	-2.9083	-2.9938	-2.7104	-2.8688	-3.0792	-2.7313	-2.9146	-2.9917	173.855	64.782	107.370	237.203	223.835	161.835	274.836	-14.665	132.819	47.464	323.562	-24.247	328.127	51.650	298.480	197.559	0.00032967	0.0002045	0.00010597	1291.7	4.7705e-06	3.5268e-06	1357.8	268.94	3.8124e-06	3.6337e-06	334.16	92.505	73.283	21.321	1.8192e-06	29.755	0.00066919	0.00076868	0.00021421	1273.1	8.0189e-06	8.3884e-06	1338.9	268.59	7.985e-06	8.0591e-06	332.93	92.905	73.797	21.823	7.9544e-06	30.318	323.844	60.984	108.144	-15.539	171.571	184.607	-15.462	-8.661	149.317	133.412	-8.769	-2.170	-1.937	4.514	52.827	3.651	-8191	255	
487.587	1	1	0	0	0.11769	0.26493	0.13427	0.3467	0.13029	0.049034	0.043053	0.26061	0.10755	0.077583	0.19983	0.10692	0.33108	0.14995	0.17568	0.082984	-2.5625	-3.0208	-2.5646	-3.0854	-2.9958	-2.7854	-3.25	-2.7417	-2.6167	-3.0375	-2.8229	-2.9604	-2.8312	-2.6458	-2.8792	-2.8521	115.361	288.855	278.438	321.406	166.546	303.439	32.506	267.905	129.420	240.700	229.949	153.528	258.176	325.742	230.300	243.637	0.00049168	0.00026531	0.00011313	1288.6	1.4344e-06	7.1566e-06	1359.4	269.88	1.8198e-06	2.8769e-06	332.09	91.925	73.26	21.378	3.0298e-06	29.6	0.00064349	0.0007304	0.00019999	1269	7.5875e-06	7.9081e-06	1337.9	268.23	7.6251e-06	7.7062e-06	332	92.865	73.751	21.755	7.825e-06	30.284	-21.228	90.744	82.103	-15.506	130.981	107.920	-15.551	-8.508	205.668	104.951	-9.018	-2.000	-1.573	4.444	205.550	4.401	-8191	255	
487.707	1	1	0	0	0.16572	0.16731	0.29729	0.24464	0.08256	0.044996	0.29455	0.20768	0.18365	0.099121	0.17523	0.24104	0.058099	0.1303	0.2548	0.27922	-2.2125	-2.8292	-2.5875	-3.0146	-2.7833	-2.5792	-3.0312	-2.9417	-2.5896	-2.875	-2.7	-2.8688	-2.9125	-2.7396	-2.9521	-2.8667	72.030	288.577	155.171	328.064	178.839	96.500	274.639	302.946	82.660	114.919	307.747	278.536	308.700	21.962	40.739	239.605	0.00035583	0.0003065	6.309e-05	1284.5	7.242e-06	4.2503e-06	1357.9	269.8	3.0768e-06	5.6204e-06	333.15	92.024	73.411	21.296	4.9417e-06	29.685	0.00064953	0.00072092	0.00020302	1271.1	8.0751e-06	8.1169e-06	1337	268.09	8.1818e-06	8.2474e-06	332.12	92.822	73.705	21.804	8.0622e-06	30.291	-23.537	27.134	63.873	-15.600	162.293	135.155	-15.449	-8.548	163.670	104.982	-9.088	-2.466	-1.661	4.762	159.289	4.065	-8191	255	
487.803	1	1	0	0	0.14777	0.21342	0.18195	0.19711	0.2116	0.093975	0.29847	0.15756	0.22457	0.18737	0.30564	0.05533	0.30161	0.19182	0.045002	0.25482	-2.225	-3.0146	-2.6312	-2.9896	-3.0792	-2.7438	-3.05	-2.7354	-2.7417	-2.8604	-2.8958	-2.9104	-3.0771	-2.7396	-2.9229	-3.0187	278.193	200.220	150.275	271.044	1.005	215.472	304.497	287.502	145.775	329.317	241.814	321.655	61.280	25.272	-17.744	-18.676	0.0003979	0.00062451	9.1348e-05	1287.8	2.8182e-06	5.5351e-06	1354.1	268.67	1.051e-06	2.2804e-06	330.55	92.305	72.538	21.272	4.2559e-06	29.507	0.00069827	0.00076153	0.00021297	1271.3	8.2199e-06	8.6461e-06	1336.9	267.51	8.2684e-06	8.2047e-06	331.48	92.858	73.406	21.682	8.2418e-06	30.271	322.480	73.671	34.797	-15.633	86.006	123.063	-15.450	-8.647	-19.717	92.542	-8.728	-2.154	-1.723	4.602	114.817	4.169	-8191	255	
487.875	1	1	0	0	0.040654	0.19909	0.14928	0.08437	0.17296	0.02397	0.18692	0.21868	0.30547	0.19432	0.11679	0.34894	0.24649	0.13924	0.15871	0.19224	-2.2896	-2.8667	-2.6688	-2.8479	-3.0646	-2.6646	-3.2	-3.0812	-2.8042	-2.9583	-2.9375	-2.8167	-3.0354	-2.7354	-2.9354	-2.9333	150.328	-16.459	280.609	300.135	128.127	327.942	256.075	-23.547	130.319	56.315	207.114	258.631	127.247	275.041	121.978	146.259	0.00044694	0.00047905	0.00014925	1281.6	4.7666e-06	3.9196e-06	1353.6	268.83	8.7738e-06	5.3172e-06	331.79	92.111	72.902	21.258	4.7606e-06	29.704	0.00069266	0.00079668	0.00022219	1267.9	8.5068e-06	9.0631e-06	1335.3	268.19	8.4153e-06	8.9145e-06	332.23	92.816	73.525	21.704	8.2714e-06	30.255	-7.461	41.558	40.461	-15.540	146.981	135.044	-15.568	-8.484	204.898	88.439	-8.669	-1.949	-1.620	5.050	129.409	4.162	-8191	255	
487.996	1	1	0	0	0.17915	0.1014	0.055318	0.34014	0.041243	0.025525	0.22712	0.24734	0.062773	0.11044	0.011613	0.17057	0.25588	0.090644	0.057937	0.09907	-2.3229	-2.8812	-2.7333	-2.8208	-3.0458	-2.7125	-3.0062	-3.05	-2.6854	-3.1125	-3.0458	-2.7458	-3.1646	-2.8187	-2.6979	-2.925	304.941	213.629	163.038	328.205	14.250	326.102	255.574	329.305	327.794	197.775	126.989	257.677	-23.818	37.220	21.696	121.659	0.00045398	0.00051946	4.8536e-05	1291	3.213e-06	5.9721e-06	1355	269.11	1.3498e-06	6.0684e-06	331.85	92.326	73.289	21.285	5.7574e-06	29.555	0.00069909	0.00077073	0.00021796	1272.7	8.5229e-06	8.8339e-06	1338.9	268.27	8.7033e-06	9.0165e-06	331.8	92.999	73.745	21.737	9.0594e-06	30.365	-13.287	47.744	116.670	-15.578	143.863	128.119	-15.511	-8.658	170.142	123.104	-9.018	-1.962	-1.578	4.303	145.737	3.934	-8191	255	
488.092	1	1	0	0	0.15211	0.20604	0.11662	0.049865	0.0828	0.17113	0.33877	0.24477	0.032559	0.19113	0.24681	0.16923	0.11789	0.20674	0.11904	0.087831	-2.3063	-3.0021	-3.0042	-2.9625	-3.0875	-2.9229	-3.0646	-3.2458	-2.6292	-2.7625	-2.9292	-2.6	-2.8271	-2.6646	-2.8	-3.0354	178.147	265.691	300.629	-25.952	186.418	183.464	283.684	205.428	173.922	121.894	311.796	215.879	7.314	94.338	318.200	80.577	0.00032252	0.0004921	0.00014641	1289.7	2.7774e-06	3.1023e-06	1357.9	268.71	5.8341e-06	4.8877e-06	333.08	92.467	72.886	21.218	6.233e-06	29.662	0.00072147	0.00082131	0.00022949	1274.1	8.8387e-06	9.098e-06	1339.2	268.29	8.7616e-06	8.8838e-06	332.28	92.979	73.547	21.722	8.7231e-06	30.368	327.163	58.375	84.823	-15.637	133.580	171.293	-15.397	-8.713	143.310	141.270	-8.974	-2.087	-1.503	4.722	187.218	4.304	-8191	255	
488.186	1	1	0	0	0.1024	0.10692	0.28264	0.18071	0.078113	0.15959	0.10915	0.19374	0.14174	0.038225	0.058566	0.18	0.06501	0.10136	0.3248	0.24342	-2.0812	-2.9521	-2.95	-2.7646	-2.9292	-2.8479	-2.775	-3.0667	-2.775	-2.9167	-2.8167	-2.8688	-2.9771	-2.8125	-2.8292	-2.9771	30.899	267.163	293.120	263.570	22.432	281.841	209.387	253.275	122.287	50.717	123.174	220.967	84.512	81.639	236.493	290.889	0.00031912	0.00032451	0.00013519	1292.7	3.7941e-06	2.8561e-06	1358.1	269.86	3.5738e-06	4.9151e-06	334.38	92.251	73.077	21.286	8.425e-06	29.806	0.00071292	0.00080485	0.00022552	1274.7	8.8283e-06	9.2423e-06	1340.4	268.84	9.1135e-06	9.6666e-06	334.06	93.142	73.857	21.839	9.7043e-06	30.455	321.970	68.853	69.298	-15.657	132.158	160.243	-15.568	-8.549	191.616	108.731	-8.877	-1.897	-1.516	4.624	128.238	4.312	-8191	255	
488.282	1	1	0	0	0.19531	0.021309	0.19761	0.17756	0.20853	0.20018	0.15577	0.29004	0.029515	0.10856	0.10775	0.13411	0.16286	0.15419	0.26445	0.12351	-2.425	-2.6125	-3.0021	-2.8688	-3.075	-3.0021	-2.9771	-3.0542	-2.9062	-2.9542	-3.1104	-2.7604	-2.9938	-2.9792	-2.6125	-2.9042	203.985	17.805	146.566	9.550	6.291	151.117	257.790	297.295	107.053	41.973	286.942	69.927	212.175	-12.712	161.304	-13.690	0.00053495	0.00024227	3.8787e-05	1288	5.0532e-06	6.9991e-06	1360	269.56	9.6307e-07	5.3503e-06	333.44	91.879	72.785	21.311	5.7462e-06	29.685	0.00077459	0.00087025	0.00023735	1272.5	9.1698e-06	9.0594e-06	1339.8	268.83	8.8338e-06	9.2152e-06	332.42	92.889	73.565	21.676	8.78e-06	30.341	328.992	102.325	60.048	-15.662	183.326	137.771	-15.471	-8.416	147.682	94.786	-8.843	-1.872	-1.736	4.843	133.938	4.676	-8191	255	
488.403	1	1	0	0	0.24035	0.1215	0.17904	0.030813	0.060496	0.11212	0.25558	0.15099	0.19758	0.29011	0.19454	0.067929	0.12815	0.15202	0.23826	0.062793	-2.4854	-2.6729	-2.9625	-2.8292	-3.0229	-2.9125	-2.75	-3.0333	-2.7812	-2.925	-3.1646	-2.7958	-2.7229	-3.0375	-2.5917	-2.9542	311.191	152.121	256.982	264.199	270.523	116.152	266.858	256.353	129.302	5.921	207.402	281.561	199.367	212.521	237.487	144.675	0.00049932	0.00037862	0.0001418	1285.2	4.3812e-06	5.0556e-06	1352.9	268.17	3.264e-06	2.5781e-06	330.94	92.269	72.427	21.238	1.1543e-06	29.597	0.00069357	0.00080507	0.00021554	1269.8	8.6461e-06	8.6186e-06	1335.3	267.55	8.2635e-06	8.7683e-06	331.34	92.724	73.165	21.614	8.4174e-06	30.232	-25.581	99.086	71.098	-15.667	122.735	156.877	-15.601	-8.412	178.305	188.503	-8.790	-2.006	-1.508	4.852	206.410	3.770	-8191	255	
488.475	1	1	0	0	0.10782	0.050007	0.2198	0.10975	0.13827	0.083879	0.1402	0.039078	0.28447	0.17573	0.26307	0.090044	0.39884	0.26848	0.13896	0.093779	-2.2979	-2.7646	-2.9125	-2.8792	-2.8729	-2.9917	-2.8438	-3.1333	-2.85	-2.7562	-2.9188	-2.8146	-2.9708	-2.8521	-2.7	-3.0312	156.659	16.750	1.136	263.734	136.058	325.512	181.490	118.551	167.549	11.064	326.421	292.501	268.210	-9.355	272.886	9.092	0.00040539	5.4132e-06	0.00017156	1285.5	4.6554e-06	4.0482e-06	1349.8	268.29	1.6571e-06	5.449e-06	330.99	91.354	72.469	21.071	4.1544e-06	29.704	0.000675	0.0007758	0.00021497	1268.3	8.2401e-06	8.4783e-06	1332.6	266.86	8.3556e-06	8.5241e-06	330.62	92.311	73.124	21.528	8.2711e-06	30.235	320.945	9.035	64.118	-15.511	141.547	126.744	-15.545	-8.490	155.524	108.369	-8.974	-2.343	-1.588	4.827	117.456	4.128	-8191	255	
488.571	1	1	0	0	0.19337	0.35029	0.12783	0.078928	0.083938	0.24005	0.2778	0.090556	0.12252	0.079281	0.059285	0.094225	0.27939	0.2089	0.25183	0.1562	-2.5187	-2.8625	-2.9646	-2.9458	-2.95	-3.0333	-2.8708	-3.1354	-2.7979	-2.725	-3.0479	-2.9333	-2.7875	-2.9792	-2.6917	-3.0667	71.240	107.268	91.643	123.716	4.561	118.773	224.141	269.963	22.518	73.030	57.102	52.786	205.726	-19.761	133.653	85.115	0.00049235	0.00053112	8.6935e-05	1285.1	3.929e-06	2.2225e-06	1355.6	267.86	4.6899e-06	1.3636e-06	332.04	91.675	72.531	21.029	4.7893e-06	29.558	0.00067619	0.00077045	0.00020957	1268.5	8.1178e-06	8.4864e-06	1336	266.96	7.9492e-06	8.3383e-06	330.58	92.2	72.892	21.497	7.9058e-06	30.209	326.159	66.496	59.597	-15.516	124.124	33.286	-15.424	-8.375	137.282	139.709	-8.669	-2.132	-1.772	4.783	118.126	4.451	-8191	255	
488.667	1	1	0	0	0.22812	0.11099	0.22222	0.10239	0.10286	0.249	0.068369	0.26157	0.0058238	0.20254	0.0588	0.21211	0.12559	0.055212	0.040561	0.23372	-2.4333	-2.5604	-2.8458	-2.7875	-2.7229	-3.0062	-2.9292	-3.0771	-3.1	-2.8312	-3.2042	-2.9354	-2.6937	-3.0125	-2.6167	-2.625	88.752	-4.577	169.809	109.119	275.727	86.525	239.611	314.958	328.124	291.924	-9.571	240.862	295.587	-0.225	199.647	-15.582	0.00045797	0.00047606	7.0974e-05	1280.9	8.1342e-06	5.026e-06	1348.3	267.17	8.523e-06	6.0758e-06	330.3	91.528	72.744	21.299	3.8294e-06	29.595	0.00064351	0.00071455	0.00019836	1264.1	7.7201e-06	7.6359e-06	1329.9	265.66	7.4361e-06	7.744e-06	329.4	92.003	72.957	21.443	7.2997e-06	30.063	316.220	37.181	69.592	-15.409	154.035	115.336	-15.579	-8.429	115.650	102.112	-8.876	-2.039	-1.721	4.701	149.963	4.591	-8191	255	
488.788	1	1	0	0	0.23702	0.085228	0.10554	0.098675	0.21378	0.13648	0.24149	0.14843	0.030031	0.16418	0.091774	0.10873	0.14958	0.21411	0.09083	0.1668	-2.5438	-2.5729	-2.9083	-2.9854	-2.8563	-2.9479	-3.1167	-3.2125	-3.0146	-2.8729	-2.9208	-2.7729	-2.7917	-2.9646	-2.7229	-2.9458	281.139	-21.721	52.885	136.641	244.969	310.951	246.442	278.050	83.091	321.569	-15.649	256.828	260.157	83.845	-5.924	22.665	0.00044536	7.6999e-05	6.2166e-05	1273.6	5.6704e-06	3.0693e-06	1345.4	265.75	5.3873e-06	2.3016e-06	328.36	91.338	71.685	20.913	3.0469e-06	29.497	0.00061771	0.00068314	0.00018841	1259.7	7.4698e-06	7.6662e-06	1326.1	264.29	7.2632e-06	7.779e-06	328.05	91.731	72.541	21.347	7.4055e-06	30.053	320.002	22.339	71.784	-15.707	152.337	139.757	-15.298	-8.754	147.682	166.524	-8.980	-1.820	-1.471	4.919	133.534	4.255	-8191	255	
488.884	1	1	0	0	0.081304	0.15945	0.1284	0.03934	0.29824	0.17341	0.21854	0.27368	0.11583	0.22779	0.19143	0.24549	0.12445	0.13526	0.25355	0.12797	-2.5625	-2.7354	-2.9125	-2.9729	-2.7542	-3.05	-3.0646	-2.8563	-3.1458	-2.8312	-3.0042	-3.175	-2.7604	-2.9083	-2.7917	-2.7104	36.669	131.423	236.625	129.912	100.315	205.236	285.021	-15.888	307.984	10.835	29.767	56.112	294.570	202.154	281.880	-9.820	0.00044704	0.00057527	7.5466e-05	1280.9	3.4863e-06	5.4967e-06	1338.3	266.26	7.7926e-06	2.5295e-06	328.51	90.808	72.349	20.949	4.6131e-06	29.391	0.00061352	0.00069455	0.00019303	1259.4	7.5419e-06	7.5522e-06	1324.4	264.26	7.1432e-06	7.4842e-06	327.79	91.644	72.622	21.34	7.2488e-06	30.016	329.946	107.414	23.101	-15.713	112.738	93.077	-15.447	-8.492	100.241	117.887	-8.787	-1.796	-1.698	5.112	96.332	3.824	-8191	255	
488.980	1	1	0	0	0.099629	0.02663	0.18313	0.17285	0.091434	0.12916	0.378	0.097347	0.06682	0.042787	0.16631	0.18759	0.21244	0.10406	0.05545	0.13816	-2.6125	-2.8396	-2.9938	-2.9396	-2.5521	-3.0958	-3.0167	-2.7667	-2.9625	-2.9479	-3.0521	-2.9271	-2.8583	-3.1063	-2.9875	-2.8812	309.950	115.259	41.748	265.238	-5.733	27.195	261.583	60.509	151.967	59.242	267.761	179.810	308.398	130.409	10.040	93.703	0.00050003	0.00052654	9.3904e-05	1275.3	2.1079e-06	2.1585e-06	1347.2	264.79	4.4941e-06	4.0877e-06	328.03	91.026	72.26	21.002	3.8859e-06	29.377	0.00059178	0.00065547	0.00018142	1258.1	7.3153e-06	7.1822e-06	1325.2	263.75	6.9665e-06	6.9273e-06	327.64	91.592	72.538	21.323	7.0829e-06	29.989	329.602	60.703	32.820	-15.569	157.390	127.959	-15.536	-8.603	150.934	96.405	-8.650	-2.100	-1.639	4.746	165.899	4.446	-8191	255	
489.076	1	1	0	0	0.079141	0.12808	0.26685	0.39299	0.050599	0.071679	0.17636	0.12204	0.32993	0.12057	0.12419	0.13359	0.02796	0.078242	0.20552	0.060877	-2.6521	-2.8417	-2.8604	-3.2042	-2.6417	-2.9771	-2.9188	-2.7521	-3.0875	-2.7792	-2.7646	-2.9354	-2.6229	-3.0667	-3.0021	-2.8542	318.538	12.626	26.476	312.348	162.852	67.421	-18.013	-8.458	328.361	320.624	153.677	138.561	144.441	288.141	213.963	159.079	0.00046378	0.0002764	9.3727e-05	1276.6	4.0088e-06	4.2166e-06	1345.3	264.6	6.388e-06	5.0052e-06	327.93	90.422	71.985	20.996	5.4695e-06	29.503	0.00058323	0.00065276	0.00017748	1257.4	7.2293e-06	7.3687e-06	1325	263.66	6.9824e-06	7.1365e-06	327.13	91.524	72.469	21.358	7.0337e-06	29.946	331.360	50.974	50.096	-15.468	131.649	97.267	-15.409	-8.498	150.569	147.758	-8.567	-2.030	-1.687	4.973	161.828	4.756	-8191	255	
489.170	1	1	0	0	0.10774	0.16347	0.036103	0.31355	0.10641	0.09558	0.36437	0.090994	0.19218	0.14332	0.091324	0.2169	0.22641	0.060207	0.074617	0.13213	-2.4958	-2.7417	-2.6792	-3.0979	-2.7021	-2.9333	-3.0021	-2.8646	-2.9354	-2.8937	-2.8917	-3.0438	-2.7438	-3.0125	-3.2313	-2.6729	258.848	325.762	89.472	325.497	292.548	218.852	270.168	112.340	-2.351	27.376	332.424	30.270	325.356	-1.468	5.784	156.363	0.00049731	0.00059957	0.00010192	1277.6	5.1466e-06	2.4748e-06	1342.6	266.14	7.4951e-06	6.3645e-06	329.15	90.99	71.721	20.828	6.0761e-06	29.441	0.00058587	0.00065555	0.0001815	1259.6	7.0139e-06	7.0184e-06	1324.3	264.24	6.9377e-06	6.9906e-06	327.91	91.704	72.311	21.288	6.6113e-06	29.931	330.358	91.357	75.815	-15.529	114.857	117.239	-15.562	-8.528	129.604	123.941	-8.920	-2.108	-1.631	4.970	144.696	4.510	-8191	255	
489.267	1	1	0	0	0.13605	0.24868	0.12514	0.16578	0.21713	0.1212	0.2975	0.31984	0.093628	0.21609	0.27487	0.086426	0.20131	0.22671	0.094261	0.12604	-2.5542	-2.7771	-2.7708	-3.0417	-2.6229	-2.9583	-3.3312	-2.8812	-2.9958	-2.8354	-2.8604	-2.9437	-2.7542	-2.8688	-2.9271	-2.8396	230.550	57.201	196.337	-12.474	-21.684	81.278	264.449	312.424	149.557	270.184	256.040	116.265	267.866	106.142	303.088	82.466	0.00046861	0.00035815	5.5154e-05	1274.5	8.3089e-06	4.8976e-06	1337.7	263.68	4.7248e-06	2.7502e-06	327.27	90.57	71.789	20.717	4.4345e-06	29.151	0.00056162	0.00061705	0.00017371	1254	6.6486e-06	6.6987e-06	1319.4	262.15	6.286e-06	6.3699e-06	325.87	91.059	72.06	21.154	6.2007e-06	29.795	-23.241	99.097	61.354	-15.657	126.726	119.702	-15.505	-8.593	163.013	104.655	-8.745	-1.979	-1.684	4.838	148.613	4.396	-8191	255	
489.387	1	1	0	0	0.24037	0.067177	0.20621	0.095278	0.15121	0.19115	0.26524	0.074225	0.33105	0.22039	0.21825	0.13207	0.11504	0.24822	0.06606	0.068459	-2.4354	-2.8833	-2.8063	-3.1583	-2.9771	-2.7583	-3.2271	-2.825	-3.1208	-3.0833	-2.7625	-2.9792	-3.0187	-2.7667	-3.1125	-2.8667	179.588	254.953	111.279	308.883	233.622	328.036	-1.381	111.745	134.004	163.485	281.898	302.529	213.955	61.599	172.070	315.128	0.00044169	0.00037128	0.0001158	1268.5	7.6839e-06	1.0702e-06	1334.7	263.59	3.8976e-06	4.1652e-06	324.83	90.678	71.36	20.8	5.6873e-06	29.356	0.00053738	0.00058548	0.00016092	1250.4	6.1312e-06	6.3095e-06	1316.3	261.41	6.151e-06	6.2133e-06	324.78	91.102	71.792	21.151	6.0988e-06	29.788	331.005	76.874	48.211	-15.473	116.276	32.690	-15.516	-8.409	137.710	120.228	-8.661	-1.974	-1.534	4.665	114.111	4.491	-8191	255	
489.483	1	1	0	0	0.12173	0.1504	0.1929	0.30275	0.094195	0.24606	0.2324	0.19786	0.1481	0.17574	0.042652	0.1317	0.17733	0.25389	0.15789	0.19744	-2.5375	-3.0521	-2.7354	-2.9792	-2.9021	-2.7792	-3.2438	-2.7854	-2.8396	-2.9271	-2.9562	-2.8354	-2.8729	-2.8271	-3.0479	-2.8521	27.122	24.121	39.344	231.158	211.395	35.871	257.026	-15.968	103.350	293.749	246.314	42.531	305.678	33.771	264.599	78.950	0.00038158	0.00034243	0.00014028	1265	1.9068e-06	2.4466e-06	1337.9	263.37	3.6744e-06	4.7029e-06	325.7	90.306	71.849	20.833	5.1738e-06	29.06	0.00052832	0.00057088	0.00015834	1249.2	6.2662e-06	6.4025e-06	1316.3	261.46	6.0716e-06	6.1586e-06	325.32	90.962	72.025	21.171	6.0165e-06	29.744	327.332	98.319	79.654	-15.490	210.624	155.826	-15.666	-8.462	155.112	127.124	-8.564	-2.002	-1.734	5.079	189.518	4.228	-8191	255	
489.580	1	1	0	0	0.27426	0.14967	0.10947	0.12224	0.12911	0.07982	0.24781	0.21528	0.021815	0.10525	0.10521	0.19736	0.096773	0.18774	0.38588	0.12862	-2.3708	-2.8792	-2.5729	-3.0521	-2.9854	-2.7229	-3.1979	-2.8833	-2.8792	-3.1188	-2.9271	-2.9458	-2.9708	-2.7167	-2.9875	-2.8292	140.653	279.793	119.664	266.867	38.888	-23.823	219.325	322.113	294.860	-20.685	-14.972	176.358	240.720	296.312	292.352	32.431	0.00038621	0.00035834	9.5061e-05	1266.3	5.2852e-06	2.0731e-06	1336.7	262.91	6.7206e-06	5.5649e-06	326.27	90.762	71.57	20.842	8.5306e-06	29.154	0.00052306	0.00058132	0.00016286	1249	6.4756e-06	6.548e-06	1315.8	261.62	6.4222e-06	6.3377e-06	324.82	91.199	71.944	21.175	6.2502e-06	29.709	326.620	104.016	75.761	-15.659	155.448	195.346	-15.400	-8.566	149.175	111.438	-8.833	-2.084	-1.910	4.823	160.996	4.409	-8191	255	
489.674	1	1	0	0	0.14535	0.27279	0.14019	0.42363	0.23788	0.14318	0.057548	0.035531	0.064209	0.14904	0.36417	0.14743	0.3399	0.28522	0.1779	0.2636	-2.5771	-2.9021	-2.7646	-3.0042	-2.8	-2.8292	-3.2208	-2.9104	-2.7604	-2.9771	-2.9188	-2.8729	-2.7604	-2.8458	-3.0083	-2.8021	268.532	45.213	-0.026	302.018	232.817	208.900	243.658	27.372	232.411	9.326	10.844	266.946	-6.771	114.049	307.594	289.896	0.00039656	0.00021	7.9568e-05	1264.9	3.8495e-06	4.2051e-06	1334	263.19	4.8701e-06	2.8446e-06	327.11	90.462	71.824	20.766	1.8483e-06	29.112	0.00053257	0.00058669	0.00016619	1250	6.4533e-06	6.5773e-06	1315.6	261.64	6.4318e-06	6.2461e-06	325.27	90.882	71.967	21.14	6.2736e-06	29.709	-25.432	32.986	71.949	-15.492	148.578	88.462	-15.358	-8.442	170.422	149.767	-8.804	-1.817	-1.541	4.714	171.511	4.227	-8191	255	
489.770	1	1	0	0	0.15625	0.37391	0.14273	0.22235	0.087546	0.14072	0.11596	0.19523	0.095882	0.062441	0.12583	0.24799	0.11367	0.037762	0.07056	0.1935	-2.3458	-2.7479	-2.8479	-2.8479	-2.9521	-2.7125	-3.1562	-3	-2.775	-2.9917	-2.8729	-2.8167	-2.9542	-2.9458	-2.9313	-2.925	119.357	172.045	133.247	326.070	159.273	82.620	182.351	134.782	256.183	163.227	188.518	0.540	247.250	74.068	97.089	51.742	0.00033884	0.00043819	0.00015652	1264.7	4.118e-06	3.8582e-06	1332.6	262.22	9.1871e-06	3.4979e-06	325.62	90.597	71.567	20.795	7.3317e-06	29.263	0.00055291	0.00057567	0.00016948	1248.5	6.4796e-06	6.6261e-06	1314.6	261.33	6.4248e-06	6.5084e-06	324.73	90.936	72.054	21.141	6.4184e-06	29.711	331.068	113.725	50.151	-15.280	136.359	131.394	-15.447	-8.566	160.030	115.212	-8.754	-1.722	-1.495	4.968	146.460	3.990	-8191	255	
489.866	1	1	0	0	0.24068	0.026755	0.25119	0.09979	0.21263	0.22187	0.36986	0.34625	0.11447	0.25562	0.10161	0.17138	0.15937	0.13254	0.10117	0.31046	-2.4458	-3.0729	-2.8042	-3.0604	-2.9771	-2.8063	-3.1229	-2.9792	-2.7146	-3.0542	-2.9417	-2.6646	-2.7979	-2.8583	-2.7833	-2.9979	220.162	48.673	302.354	311.861	98.197	311.058	300.929	291.534	313.352	-13.753	204.579	1.023	257.131	277.355	116.173	286.927	0.00039381	0.00035981	0.00013794	1265.8	3.0081e-06	3.4485e-06	1335.5	262.52	6.5332e-06	3.3048e-06	327.23	90.928	71.76	20.575	5.4421e-06	29.298	0.00053884	0.00058589	0.00016288	1249.1	6.2691e-06	6.5103e-06	1314.7	261.37	6.3308e-06	6.3229e-06	325.11	90.97	71.964	21.105	6.4552e-06	29.791	328.310	64.840	74.382	-15.502	231.448	154.079	-15.557	-8.243	200.524	100.599	-8.834	-2.016	-1.999	4.838	172.483	4.542	-8191	255	
489.962	1	1	0	0	0.26407	0.16108	0.059108	0.40925	0.036555	0.16519	0.21691	0.10062	0.24796	0.18493	0.32031	0.071757	0.13707	0.064417	0.13065	0.29268	-2.2833	-2.9271	-2.6042	-2.8917	-3.0771	-2.8708	-3.2042	-2.9813	-2.7188	-3.0687	-3.0917	-2.7958	-2.9479	-2.7146	-2.8729	-3.0104	227.572	27.137	-17.625	27.613	-8.627	64.282	221.764	-16.982	-25.663	43.355	136.179	130.198	280.787	303.680	31.103	274.374	0.00042307	0.00048611	0.00011049	1265.8	4.9362e-06	3.8902e-06	1332	261.58	3.8518e-06	4.0433e-06	323.26	90.243	71.206	20.772	3.9532e-06	29.117	0.00055008	0.00058143	0.00016127	1248.1	6.4678e-06	6.4479e-06	1314.5	260.88	6.3608e-06	6.3143e-06	324.02	90.934	71.645	21.139	6.3465e-06	29.659	326.278	67.025	64.638	-15.694	165.685	131.369	-15.417	-8.481	144.843	115.832	-8.803	-1.908	-1.597	5.139	143.975	4.318	-8191	255	
490.059	1	1	0	0	0.23887	0.11056	0.19871	0.34667	0.27568	0.10665	0.21863	0.23287	0.042898	0.14949	0.11137	0.25689	0.13931	0.031697	0.16546	0.27112	-2.4083	-3.0646	-2.7604	-2.75	-2.9688	-2.6792	-3.0563	-2.9854	-2.6708	-3.0896	-2.8021	-2.7917	-3.0792	-2.7875	-2.8125	-3.1396	109.317	232.389	-13.687	246.278	298.007	185.624	327.128	285.842	162.072	254.401	192.615	266.887	29.147	3.293	293.751	226.415	0.00047708	0.00050857	7.7649e-05	1262.6	3.6951e-06	3.3905e-06	1333.1	262.42	4.4948e-06	4.0598e-06	325.85	90.29	71.029	20.867	5.3153e-06	29.081	0.00052818	0.00058401	0.00015592	1246.1	6.2247e-06	6.3197e-06	1313.5	261.48	6.4251e-06	6.4694e-06	324.37	90.806	71.764	21.18	6.4158e-06	29.726	332.684	29.087	77.143	-15.531	154.722	162.222	-15.301	-8.418	139.321	101.661	-8.908	-1.579	-1.512	4.679	117.650	4.266	-8191	255	
490.179	1	1	0	0	0.053608	0.20499	0.17251	0.19667	0.087929	0.26885	0.16616	0.24242	0.3864	0.11808	0.2163	0.024689	0.1146	0.116	0.15404	0.15999	-2.3958	-3.0083	-2.95	-2.9562	-2.775	-2.8125	-3.1708	-2.95	-2.6271	-2.8667	-2.9938	-2.6771	-2.8292	-2.9521	-2.6396	-2.8146	86.143	97.107	11.025	301.814	49.319	272.065	303.086	-17.585	318.769	213.114	217.650	239.015	282.904	43.420	71.024	96.431	0.00047929	0.00042835	9.6751e-05	1267.2	1.604e-06	2.3072e-06	1331.3	261.35	4.9888e-06	1.6702e-06	326.55	90.224	71.374	20.797	6.3886e-06	29.036	0.00052539	0.00057514	0.00016019	1247.6	6.199e-06	6.2699e-06	1313.4	260.67	6.0084e-06	6.2237e-06	324.52	90.66	71.745	21.117	6.0867e-06	29.59	322.915	100.279	99.015	-15.545	162.867	119.625	-15.455	-8.567	107.635	133.546	-8.735	-1.808	-1.672	4.601	142.055	4.569	-8191	255	
490.275	1	1	0	0	0.10589	0.11151	0.23094	0.20355	0.065835	0.20435	0.4376	0.20423	0.1701	0.35953	0.11332	0.01933	0.33292	0.28537	0.14887	0.19508	-2.2833	-2.725	-2.7458	-2.95	-3.0062	-2.9708	-2.8688	-3.0625	-2.5812	-2.8417	-2.9125	-2.6646	-2.825	-2.8438	-2.6771	-3.2271	67.033	102.759	199.684	305.877	36.084	291.151	314.140	203.862	210.069	134.285	37.627	271.914	37.831	205.558	257.358	291.760	0.00027377	0.00038661	5.6586e-05	1259.8	2.8481e-06	3.856e-06	1328.5	261.42	4.1847e-06	3.6331e-06	323.06	89.991	70.783	20.606	2.8756e-06	29.2	0.00050551	0.00053927	0.00014595	1242.5	5.7232e-06	5.8066e-06	1309	259.88	5.7916e-06	6.029e-06	322.53	90.596	71.418	20.965	5.7623e-06	29.553	323.231	57.590	59.230	-15.574	120.014	90.283	-15.383	-8.237	176.203	134.097	-9.005	-2.210	-1.672	5.095	248.290	4.268	-8191	255	
490.347	1	1	0	0	0.17475	0.1412	0.22533	0.051046	0.13083	0.15328	0.091438	0.1482	0.15648	0.097585	0.29379	0.20792	0.15742	0.095429	0.31491	0.0099584	-2.4729	-2.8125	-2.8542	-2.6875	-2.8688	-2.925	-2.8833	-3.1688	-2.6312	-2.8417	-2.9896	-2.7542	-2.8812	-2.8833	-2.8208	-3.025	213.085	90.541	62.695	249.303	117.824	106.304	317.773	277.828	274.123	110.533	60.603	199.662	261.421	125.977	207.364	186.370	0.00034978	0.00044369	0.00013594	1262.3	2.6939e-06	6.6066e-06	1325.3	259.96	4.1865e-06	3.2919e-06	323.24	90.077	70.912	20.691	4.0595e-06	29.138	0.00048162	0.00051393	0.0001403	1240.7	5.6154e-06	5.616e-06	1302.9	259.03	5.3712e-06	5.4847e-06	321.7	90.469	71.059	20.952	5.48e-06	29.489	320.577	80.189	64.782	-15.613	160.260	136.926	-15.385	-8.563	129.445	133.762	-8.733	-1.503	-1.429	5.167	178.017	4.547	-8191	255	
490.468	1	1	0	0	0.1366	0.098223	0.036317	0.16463	0.025161	0.13576	0.099185	0.13729	0.19466	0.26642	0.28552	0.18694	0.081678	0.19097	0.048609	0.15354	-2.4229	-2.6208	-2.9229	-2.9708	-3.0271	-2.9896	-2.95	-2.9333	-2.9604	-2.9479	-3.2438	-2.8958	-2.7625	-2.9062	-2.5583	-2.9958	56.053	139.796	155.912	277.257	322.826	-0.272	293.518	307.519	159.289	159.304	-25.767	244.055	276.392	181.957	59.925	90.903	0.00036863	0.00029463	9.2254e-05	1253.5	2.9115e-06	1.1944e-06	1318.8	260.27	4.7864e-06	3.648e-06	322.23	89.501	71.224	20.602	4.7764e-06	28.947	0.00045877	0.0005188	0.00013793	1236.3	5.5663e-06	5.5425e-06	1301.4	259.1	5.5166e-06	5.6635e-06	321.59	90.114	71.358	20.913	5.5016e-06	29.456	326.242	108.609	82.465	-15.574	172.822	120.414	-15.316	-8.282	245.999	119.115	-8.847	-1.985	-1.524	4.645	123.045	4.248	-8191	255	
490.564	1	1	0	0	0.30401	0.24543	0.19166	0.049802	0.06229	0.17072	0.14093	0.1421	0.13474	0.24449	0.075612	0.12067	0.29777	0.13387	0.43273	0.060601	-2.375	-2.8438	-2.8667	-3.0312	-2.8708	-3.0062	-2.9667	-3.0646	-2.8	-2.85	-2.9062	-2.7521	-2.6458	-3.0896	-2.6208	-3.0208	259.689	78.485	151.742	190.800	169.550	189.416	299.450	280.997	58.498	190.280	250.379	279.500	31.327	209.990	267.740	290.344	0.00032371	0.00026615	7.5281e-05	1254.6	4.3534e-06	3.5299e-06	1325.7	260.17	3.7188e-06	2.8879e-06	323.11	89.377	71.342	20.566	5.6016e-06	28.865	0.00046564	0.00048676	0.00013167	1236.6	5.5603e-06	5.4362e-06	1304.5	258.81	5.3928e-06	5.7787e-06	322.11	90.097	71.301	20.949	5.7179e-06	29.568	-19.417	71.027	47.542	-15.634	149.109	146.910	-15.512	-8.375	133.039	129.822	-8.908	-1.834	-1.663	5.178	151.714	4.526	-8191	255	
490.660	1	1	0	0	0.14362	0.16864	0.43469	0.34135	0.13584	0.21972	0.33012	0.20046	0.093749	0.044183	0.11728	0.062333	0.22935	0.094709	0.022335	0.27053	-2.6104	-2.5958	-2.9146	-2.9333	-2.6979	-3.0792	-2.9042	-2.9917	-2.7792	-2.6583	-2.9729	-2.725	-2.6604	-3.0104	-2.7833	-2.8458	234.049	247.287	59.373	271.371	158.517	146.058	238.712	268.364	40.055	36.584	170.779	311.883	330.560	318.373	200.534	147.044	0.00041756	0.00043918	9.6832e-05	1256.6	4.4611e-06	4.3499e-06	1325	260.04	9.2317e-06	3.9958e-06	323.07	89.84	71.103	20.638	5.9285e-06	28.835	0.0004871	0.00055016	0.00014963	1240.1	5.9432e-06	5.8319e-06	1306.6	258.97	5.7602e-06	6.0711e-06	322.58	90.307	71.309	21.008	5.9101e-06	29.542	325.900	45.702	119.257	-15.313	137.688	104.501	-15.311	-8.521	171.202	137.679	-8.601	-1.790	-1.662	4.982	147.995	4.132	-8191	255	
490.756	1	1	0	0	0.17771	0.09235	0.21217	0.2614	0.15335	0.088768	0.35936	0.16414	0.060734	0.28394	0.11669	0.14689	0.092439	0.23094	0.18719	0.1968	-2.5542	-2.725	-2.8875	-2.8333	-2.7938	-3.0354	-2.8917	-2.9542	-3.0375	-2.7708	-2.9771	-2.9146	-2.8896	-3.0792	-2.6562	-2.725	78.280	132.843	226.764	319.831	67.540	282.616	293.731	245.368	146.414	164.948	21.137	93.593	23.470	163.435	107.644	243.221	0.00042372	0.00042195	8.7698e-05	1260.5	5.0027e-06	3.2825e-06	1331.6	261.23	2.955e-06	1.8868e-06	325.35	90.076	70.826	20.583	3.2421e-06	29.079	0.0005089	0.00055794	0.00015319	1241.2	6.2296e-06	6.0843e-06	1309.8	259.96	6.0716e-06	6.2311e-06	323.32	90.584	71.417	20.998	6.1278e-06	29.694	316.700	73.709	112.424	-15.730	146.092	107.061	-15.511	-8.482	227.901	123.743	-8.518	-2.126	-1.327	4.922	136.835	4.439	-8191	255	
490.875	1	1	0	0	0.30627	0.21497	0.054832	0.091517	0.084441	0.14437	0.17077	0.26112	0.25017	0.19882	0.11552	0.031794	0.038802	0.17396	0.10957	0.16265	-2.425	-2.8438	-2.9437	-2.9896	-2.8354	-2.9771	-3.0104	-2.8438	-3.0229	-2.6333	-2.9688	-2.8729	-2.8625	-2.9813	-2.8396	-2.6125	75.451	45.008	210.684	94.451	163.148	66.451	-20.388	326.845	54.235	253.053	333.287	8.771	314.454	278.490	112.273	-18.769	0.00040769	0.00038499	7.9843e-05	1263.1	4.4808e-06	4.8022e-06	1328	261.4	7.7426e-06	4.5227e-06	323.86	90.282	71.441	20.739	2.5289e-06	29.299	0.00052812	0.00059284	0.00015921	1245.5	6.5107e-06	6.4405e-06	1311.9	259.93	6.5394e-06	6.6737e-06	323.96	90.634	71.781	21.134	6.5251e-06	29.704	322.394	41.459	66.484	-15.383	160.175	129.231	-15.516	-8.541	104.674	117.658	-8.522	-2.201	-1.754	5.031	145.689	4.371	-8191	255	
490.971	1	1	0	0	0.14288	0.1838	0.076027	0.16193	0.24226	0.075116	0.1073	0.17741	0.18663	0.17907	0.14693	0.14156	0.20365	0.046493	0.24112	0.096888	-2.5062	-2.7229	-3.0125	-3.0333	-2.7167	-3.1	-2.9229	-2.9542	-3.275	-2.7667	-2.9938	-3.0458	-2.6917	-2.8896	-2.8875	-2.6708	75.942	273.083	309.915	73.222	302.496	310.795	286.928	299.033	22.706	286.361	-23.340	-22.743	322.254	129.630	86.360	154.532	0.00040684	0.00057771	0.00014211	1264.7	2.3887e-06	3.1717e-06	1332.5	261.4	1.7954e-06	1.5466e-06	324.3	90.756	71.733	20.692	6.4289e-06	29.048	0.00054939	0.00059459	0.0001658	1245.6	6.5127e-06	6.4358e-06	1313.5	260.41	6.3966e-06	6.4341e-06	323.48	90.887	71.86	21.114	6.2203e-06	29.66	333.411	66.664	65.803	-15.455	146.441	188.800	-15.461	-8.291	285.286	126.072	-8.768	-2.042	-1.773	4.612	128.725	4.338	-8191	255	
491.067	1	1	0	0	0.17996	0.057794	0.17082	0.26748	0.11241	0.10288	0.16693	0.3069	0.020861	0.10129	0.15168	0.21897	0.094473	0.14776	0.031842	0.13993	-2.7562	-2.6958	-2.8271	-3.1833	-2.6542	-2.8937	-3.1042	-2.7396	-3.1167	-2.9562	-2.9604	-3.2208	-2.7396	-2.9333	-3.0062	-2.6813	312.653	-6.612	142.357	300.093	311.695	191.349	209.356	265.224	79.405	223.482	10.686	64.577	220.043	47.862	3.958	312.565	0.00036369	0.00040499	0.00010915	1263.6	6.3823e-06	5.5824e-06	1334.1	261.49	2.6797e-06	9.3461e-07	323.79	90.169	71.708	20.822	8.8492e-06	28.94	0.00053554	0.00058999	0.00016445	1247.7	6.4222e-06	6.4788e-06	1314.3	260.54	6.3261e-06	6.4117e-06	323.71	90.679	71.772	21.134	6.3497e-06	29.636	322.558	70.375	81.036	-15.643	98.190	119.092	-15.608	-8.330	156.597	137.485	-8.761	-1.883	-1.713	4.922	148.348	4.329	-8191	255	
491.163	1	1	0	0	0.23125	0.2439	0.072117	0.088345	0.11845	0.14364	0.38168	0.070873	0.30687	0.20425	0.22355	0.081119	0.33145	0.1941	0.12933	0.034809	-2.5354	-2.8146	-2.7438	-3.0708	-2.7417	-2.7604	-3.1625	-2.8542	-2.9104	-3.0729	-2.7167	-3.1063	-2.6646	-2.8458	-2.925	-2.6917	245.540	15.459	-10.970	307.860	138.223	107.662	264.089	31.483	121.698	21.131	289.742	315.555	9.899	56.567	250.228	253.632	0.00050378	0.00055215	0.00011291	1261.7	5.4252e-06	6.1142e-06	1328.6	261.8	4.7964e-06	2.2236e-06	324.93	90.29	71.06	20.655	3.921e-06	29.188	0.0005351	0.00057811	0.00016169	1243.8	6.2636e-06	6.3722e-06	1310.7	260.34	6.1714e-06	6.1478e-06	324.05	90.651	71.631	21.047	6.2312e-06	29.655	327.683	43.744	100.335	-15.680	184.854	131.916	-15.671	-8.417	179.029	109.828	-8.901	-1.964	-1.694	4.811	169.202	4.477	-8191	255	
491.260	1	1	0	0	0.17525	0.080752	0.039633	0.31062	0.082102	0.11539	0.17149	0.14229	0.081036	0.063594	0.044765	0.16407	0.11955	0.13277	0.22968	0.21654	-2.6937	-2.5708	-2.8187	-3.0896	-2.7687	-2.9146	-3.1167	-2.7833	-2.8208	-2.7792	-2.9208	-2.9667	-2.7833	-2.775	-2.9604	-2.6937	171.216	3.745	64.876	330.059	166.510	57.083	249.120	71.970	3.649	169.186	-3.045	6.709	-10.937	133.247	45.958	224.272	0.00045117	0.0004952	0.00010846	1255.9	2.2702e-06	3.8668e-06	1325.9	260.41	5.6543e-06	4.1212e-06	324.36	90.374	71.968	20.69	7.4467e-06	29.089	0.00052229	0.00058719	0.00015948	1241.3	6.2965e-06	6.4216e-06	1308.7	259.68	6.2292e-06	6.3051e-06	323.64	90.666	71.822	21.074	6.0464e-06	29.62	320.346	64.868	65.338	-15.524	152.557	118.399	-15.437	-8.294	185.297	145.161	-8.334	-2.102	-1.614	4.882	119.399	4.197	-8191	255	
491.356	1	1	0	0	0.11747	0.24611	0.052758	0.3004	0.032069	0.14588	0.27679	0.21256	0.11133	0.1151	0.20348	0.21571	0.13685	0.29317	0.14143	0.084327	-2.525	-3.0021	-2.7083	-3.0938	-2.7	-2.8833	-3.0396	-2.6458	-2.8792	-3.0812	-2.6688	-3.0979	-2.9896	-2.8187	-3.0667	-2.7979	139.324	276.050	174.077	330.957	326.394	65.898	213.607	244.674	56.455	185.786	215.262	296.842	318.491	322.556	-9.522	89.911	0.00041682	0.00010946	7.7728e-05	1258.9	3.7309e-06	2.6224e-06	1327.9	261.52	4.3967e-06	2.2559e-06	324.46	90.213	71.218	20.599	4.6422e-06	29.193	0.00051885	0.00056642	0.00016014	1242.3	6.1096e-06	6.1387e-06	1307.3	260.06	6.0993e-06	6.3733e-06	323.98	90.377	71.7	21.021	6.2087e-06	29.653	321.397	32.245	69.178	-15.579	148.583	190.236	-15.378	-8.412	189.648	169.818	-8.483	-1.828	-1.533	5.055	155.990	4.737	-8191	255	
491.476	1	1	0	0	0.091522	0.18357	0.23369	0.24493	0.18749	0.15109	0.22841	0.24049	0.18781	0.054099	0.33954	0.20695	0.084471	0.15938	0.10971	0.34685	-2.5208	-2.8104	-2.5687	-2.9646	-2.6875	-2.6667	-3.1708	-2.6104	-2.8354	-3.025	-2.6833	-3.025	-2.7396	-2.8542	-2.9083	-2.7271	65.239	171.913	200.265	31.490	285.593	150.079	286.202	17.235	292.836	-16.087	333.275	-20.778	302.873	260.726	297.779	258.498	0.00039883	0.00035109	7.8552e-05	1263.6	5.0521e-06	3.2575e-06	1327.3	261.36	6.9022e-06	4.2864e-06	325.38	89.891	70.937	20.653	2.3904e-06	29.238	0.00052145	0.00056827	0.00015692	1243.8	6.1777e-06	6.1365e-06	1308.6	259.57	6.0566e-06	6.0158e-06	323.79	90.57	71.533	21.045	5.9356e-06	29.632	329.830	83.048	122.113	-15.536	137.034	172.328	-15.449	-8.401	166.870	115.656	-8.629	-1.784	-1.411	4.945	144.919	4.365	-8191	255	
491.571	1	1	0	0	0.21958	0.14905	0.11816	0.2211	0.11103	0.047813	0.19643	0.21613	0.16908	0.21692	0.13044	0.26429	0.13628	0.24862	0.24256	0.22514	-2.3458	-2.9646	-2.5521	-3.1437	-2.7458	-2.8167	-3.0417	-2.825	-2.9667	-3.0167	-2.6292	-3.1104	-2.8208	-2.7458	-3.1937	-2.5958	245.847	258.300	109.284	25.914	254.888	188.065	299.784	41.463	261.523	-5.894	291.414	-12.912	288.272	33.717	267.682	35.120	0.00042283	0.00038786	5.5904e-05	1260.2	7.1742e-06	4.0738e-06	1331.6	260.43	4.0629e-06	5.7156e-06	323.16	90.284	71.017	20.631	4.9835e-06	29.067	0.00051524	0.00055152	0.00015793	1244.3	5.96e-06	6.1121e-06	1310.6	259.94	6.1876e-06	6.0379e-06	322.81	90.631	71.611	21.042	5.9525e-06	29.615	331.363	51.579	56.026	-15.491	144.082	102.712	-15.503	-8.501	65.760	141.427	-8.744	-2.092	-1.776	4.731	123.572	4.325	-8191	255	
491.644	1	1	0	0	0.058404	0.16988	0.053876	0.23109	0.13282	0.23232	0.22563	0.16567	0.18313	0.27193	0.077752	0.078501	0.17148	0.33258	0.13267	0.04916	-2.3354	-2.9896	-2.8104	-3.0771	-2.9604	-2.8167	-2.95	-3.0271	-2.7875	-3.0792	-2.8667	-2.9562	-2.8563	-2.8292	-3.0604	-2.9688	276.467	225.764	276.870	330.810	194.920	9.265	305.713	44.760	143.948	16.397	10.424	234.052	259.594	-1.161	51.821	173.646	0.00044529	0.00028406	5.3452e-05	1266.8	6.7589e-06	2.9604e-06	1327.4	261.79	7.6471e-06	3.9802e-06	324.82	89.985	71.254	20.692	1.7144e-06	29.041	0.00050853	0.00054116	0.00014858	1242.7	5.9614e-06	5.9756e-06	1308.5	259.5	5.9452e-06	5.8766e-06	323.32	90.509	71.406	21.044	5.6986e-06	29.536	311.828	54.616	37.882	-15.458	160.183	134.607	-15.331	-8.313	213.575	110.206	-8.968	-1.717	-1.447	4.777	105.555	4.460	-8191	255	
491.740	1	1	0	0	0.14846	0.17187	0.11097	0.21995	0.15837	0.17977	0.38934	0.21935	0.16443	0.10244	0.077879	0.24141	0.13774	0.17799	0.049533	0.023337	-2.3375	-3.1354	-2.6354	-2.9125	-2.7313	-2.5625	-3.1375	-2.8229	-2.6396	-3.0396	-2.675	-2.8375	-2.8667	-2.6771	-2.9708	-3.0583	48.764	225.921	331.470	315.209	116.909	173.160	219.630	331.793	35.875	191.436	92.755	316.905	182.528	155.832	30.483	272.253	0.00048098	0.00034722	9.0827e-05	1265.2	3.6632e-06	4.1547e-06	1323.5	261.29	4.2948e-06	8.6014e-07	322.19	90.056	71.09	20.763	3.797e-06	29.033	0.00050518	0.00052872	0.00014694	1243.1	5.7665e-06	5.9249e-06	1307.2	259.57	5.8416e-06	5.6752e-06	322.14	90.401	71.337	21.017	5.7164e-06	29.507	318.178	68.912	45.692	-15.537	100.071	148.963	-15.233	-8.472	172.470	-16.384	-8.513	-1.930	-1.496	4.747	165.784	4.362	-8191	255	
491.859	1	1	0	0	0.21763	0.06385	0.1171	0.15702	0.1476	0.23937	0.39184	0.063678	0.20592	0.17995	0.32378	0.15426	0.21766	0.34704	0.20911	0.17615	-2.3854	-2.8354	-2.8083	-2.8833	-3.0521	-2.7375	-3.1854	-2.9188	-2.8958	-2.9354	-3.0729	-2.8375	-3.1604	-2.7167	-2.8271	-2.7875	174.228	100.362	146.318	213.540	202.601	176.023	276.032	10.506	209.649	22.032	276.813	309.807	134.355	319.822	98.396	303.093	0.00052845	0.00033229	0.00012117	1261.2	2.8773e-06	1.9853e-06	1322	261.27	3.8748e-06	2.4097e-06	325.32	89.757	70.395	20.762	4.2728e-06	29.056	0.00049286	0.00053584	0.00015142	1241.8	5.7229e-06	5.7896e-06	1305.1	259.56	5.8246e-06	5.728e-06	322.93	90.401	71.242	20.979	5.6026e-06	29.519	320.148	33.452	63.383	-15.373	160.104	106.955	-15.324	-8.339	147.726	120.661	-8.560	-1.941	-1.389	4.922	83.138	4.659	-8191	255	
491.955	1	1	0	0	0.13189	0.10624	0.10346	0.20048	0.29746	0.30316	0.086691	0.19137	0.15448	0.1235	0.13367	0.024333	0.17695	0.13267	0.063411	0.070535	-2.4229	-2.9979	-2.6771	-2.8	-2.9458	-2.7458	-3.0521	-2.9313	-2.8417	-2.9333	-2.8896	-2.6875	-2.8708	-3.0187	-2.7229	-2.9458	239.190	-24.434	181.717	161.843	211.380	237.866	293.497	176.044	89.906	26.733	258.071	129.206	310.999	291.458	254.149	99.826	0.00042009	0.00039731	6.5166e-05	1253.9	7.3602e-06	1.987e-06	1326.4	259.19	3.0632e-06	4.6602e-06	322.66	89.272	70.969	20.715	1.8572e-06	28.764	0.00048612	0.00051797	0.00013942	1238.3	5.457e-06	5.5477e-06	1303.9	258.55	5.6854e-06	5.4267e-06	321.74	90.122	71.154	20.963	5.6157e-06	29.47	331.587	29.903	54.991	-15.644	140.648	146.969	-15.603	-8.549	133.413	99.530	-8.785	-1.898	-1.468	5.021	160.417	4.336	-8191	255	
492.051	1	1	0	0	0.25467	0.051866	0.044341	0.19228	0.08702	0.13336	0.15477	0.14908	0.33329	0.23624	0.10916	0.30505	0.052765	0.23844	0.21912	0.095351	-2.1458	-2.8458	-2.9354	-2.8354	-3.0396	-2.9229	-3.0479	-3.0708	-2.6792	-2.9875	-2.8542	-2.7562	-3.0646	-2.7771	-2.7542	-2.975	124.425	312.446	160.910	190.415	138.854	-8.186	298.131	321.475	67.358	69.033	174.231	319.529	191.799	240.446	130.428	292.085	0.00029405	0.00054873	9.5686e-05	1252.8	4.3848e-06	5.7509e-06	1320.9	259.91	3.2375e-06	2.8087e-06	323.61	89.488	71.229	20.492	4.1931e-06	29.039	0.00046861	0.00049238	0.00013655	1237.5	5.3097e-06	5.5066e-06	1303.6	258.41	5.4208e-06	5.4937e-06	321.59	90.017	71.195	20.891	5.3523e-06	29.507	320.252	31.979	45.625	-15.607	160.732	106.311	-15.329	-8.337	123.540	155.180	-8.556	-1.755	-1.468	4.798	152.628	4.669	-8191	255	
492.148	1	1	0	0	0.17004	0.086775	0.34509	0.21629	0.2019	0.079584	0.4352	0.15155	0.022931	0.023869	0.03844	0.17789	0.11132	0.11365	0.31745	0.10376	-2.2083	-2.8688	-2.8896	-2.6292	-3.0083	-2.7958	-2.9396	-3.1729	-2.6896	-2.8083	-2.9917	-2.6458	-2.9917	-3.0062	-2.7021	-3.0396	24.961	309.049	280.402	-5.401	290.093	256.877	263.935	92.159	135.325	279.371	22.897	277.958	215.539	90.415	55.348	153.897	0.00044398	0.0003376	0.00014426	1254.4	5.0658e-06	3.3541e-06	1322.7	258.76	6.5568e-06	3.5592e-06	322.25	89.729	70.892	20.612	2.7078e-06	28.954	0.00046762	0.00050149	0.00014085	1235.5	5.436e-06	5.5934e-06	1302.1	258.44	5.5293e-06	5.5824e-06	321	90.007	71.091	20.91	5.3396e-06	29.393	320.636	59.548	71.572	-15.302	160.830	119.072	-15.318	-8.539	144.163	100.533	-8.623	-1.875	-1.585	4.600	115.359	4.267	-8191	255	
492.268	1	1	0	0	0.09924	0.12733	0.1188	0.22126	0.14691	0.012896	0.41102	0.083212	0.079955	0.21296	0.18064	0.15055	0.049615	0.23639	0.015074	0.085014	-2.3021	-2.8771	-2.9792	-2.9062	-2.9021	-2.7708	-2.8729	-3.1979	-2.7396	-2.8708	-2.925	-2.6688	-2.9813	-2.8542	-2.8854	-3.1583	268.461	152.536	-22.448	281.155	261.380	-12.461	209.564	30.163	183.566	313.693	264.794	265.983	162.370	106.307	-9.309	292.140	0.00049923	0.00050241	8.603e-05	1252.7	3.8691e-06	2.1644e-06	1314.6	259.97	1.0594e-06	5.0644e-06	321.93	89.405	70.9	20.624	3.9825e-06	28.903	0.00047054	0.00049551	0.00013897	1232.8	5.323e-06	5.544e-06	1298	258.05	5.4274e-06	5.4307e-06	320.77	89.91	70.927	20.866	5.3941e-06	29.345	330.891	67.777	61.134	-15.396	145.834	209.992	-15.495	-8.184	164.227	137.935	-8.690	-1.920	-1.295	5.044	116.425	4.338	-8191	255	
492.340	1	1	0	0	0.36997	0.19515	0.27261	0.3862	0.25902	0.067581	0.5399	0.1581	0.085075	0.10985	0.35979	0.13321	0.24402	0.16233	0.042293	0.19829	-2.6562	-2.8167	-2.8958	-2.8458	-2.9229	-3.0792	-2.8667	-3.1833	-2.5771	-2.6625	-3.1542	-2.6021	-2.8021	-2.7375	-2.7208	-2.9833	202.034	258.616	193.206	305.555	151.919	160.897	250.719	303.919	263.658	179.289	196.901	12.309	162.814	45.863	90.342	191.891	0.00041504	0.00030851	0.00012284	1249.5	6.7873e-06	3.2293e-06	1314.8	258.54	4.8667e-06	4.6866e-06	320.86	89.257	70.755	20.45	5.5278e-06	28.666	0.00045742	0.00048942	0.00013319	1230.1	5.2422e-06	5.2258e-06	1293.7	257.18	5.1902e-06	5.204e-06	319.97	89.533	70.767	20.737	5.0913e-06	29.192	330.644	76.165	73.434	-15.476	135.893	109.671	-15.328	-8.168	164.611	134.318	-8.458	-1.682	-1.682	5.113	102.397	4.670	-8191	255	
492.436	1	1	0	0	0.23599	0.099371	0.18703	0.26208	0.087731	0.075514	0.34891	0.13365	0.096554	0.27678	0.15616	0.24302	0.24295	0.23512	0.12998	0.25209	-2.3458	-2.7562	-2.7771	-2.8187	-3.0792	-2.85	-2.9604	-2.9333	-2.5771	-2.65	-3.1917	-2.75	-2.7333	-3.0125	-2.6604	-3.0271	303.881	15.036	262.560	274.685	45.639	56.586	249.508	3.642	254.589	127.268	19.705	-4.394	74.838	300.890	-11.173	-14.933	0.00039025	0.00031764	6.7421e-05	1242.8	4.6643e-06	3.5179e-06	1307.8	256.84	2.2194e-06	2.1038e-06	319.69	88.908	70.398	20.359	1.8577e-06	28.754	0.00044065	0.00046241	0.00012889	1225.7	5.1557e-06	4.9756e-06	1288.6	255.3	4.8929e-06	5.0806e-06	318.49	89.383	70.571	20.705	4.8644e-06	29.201	-23.158	146.834	64.155	-15.433	159.951	170.128	-15.263	-8.314	191.421	98.041	-8.777	-1.718	-1.766	5.095	195.930	4.822	-8191	255	
492.557	1	1	0	0	0.12842	0.30402	0.29931	0.29739	0.080309	0.17113	0.4015	0.11893	0.08164	0.2651	0.14122	0.029954	0.12273	0.095393	0.14499	0.088037	-2.3896	-2.6146	-2.8604	-2.9708	-2.7271	-2.9146	-2.7979	-3.0271	-2.8083	-2.7979	-3.1521	-2.7229	-2.8812	-3.0833	-2.7854	-3.0417	157.823	12.166	1.272	286.072	164.275	-2.206	293.744	312.860	168.342	53.200	207.484	186.037	214.566	130.548	11.722	131.467	0.00043908	0.00041972	0.00014273	1237.3	9.1385e-06	3.3511e-06	1304.6	256.52	2.7093e-06	3.1646e-06	317.78	88.617	70.346	20.492	7.2648e-06	28.803	0.00043256	0.00045463	0.00012512	1219.8	4.9625e-06	4.9521e-06	1284.3	254.61	4.7807e-06	5.0253e-06	317.88	89.206	70.261	20.715	5.0004e-06	29.229	327.757	30.987	59.319	-15.320	162.606	165.765	-15.327	-8.509	112.264	130.908	-8.723	-1.783	-1.634	5.130	149.952	4.675	-8191	255	
492.651	1	1	0	0	0.078056	0.21566	0.13241	0.14251	0.15465	0.1259	0.36754	0.21641	0.24772	0.1359	0.15765	0.03525	0.17574	0.10068	0.043067	0.21159	-2.3854	-2.675	-2.9875	-3.0208	-3.0396	-3.0687	-2.9542	-2.9313	-2.9688	-2.9042	-3.0333	-3.0542	-2.8375	-2.9917	-2.5625	-2.7938	175.755	186.107	133.067	297.541	-21.541	249.734	256.583	257.215	169.715	81.325	268.247	-8.818	300.070	224.067	59.301	319.065	0.00031823	0.00017722	6.5291e-05	1233.7	4.6944e-06	2.8725e-06	1306.9	255.65	5.1245e-06	5.2561e-06	319.3	88.921	69.929	20.359	5.6464e-06	28.681	0.0004301	0.00046086	0.00012352	1220.1	5.0724e-06	4.9778e-06	1285.3	254.82	4.9339e-06	4.8849e-06	317.49	89.108	70.178	20.735	4.8943e-06	29.205	330.425	87.926	118.387	-15.318	171.886	163.633	-15.359	-8.030	175.065	124.688	-8.524	-1.757	-1.630	4.843	136.384	4.802	-8191	255	
492.749	1	1	0	0	0.10954	0.13314	0.033369	0.21689	0.24626	0.073057	0.38209	0.2298	0.10983	0.15436	0.22521	0.15495	0.1704	0.21652	0.29466	0.083929	-2.4542	-2.6146	-3.0833	-2.8333	-2.8167	-2.9188	-2.9021	-2.9667	-2.8688	-2.7979	-3.0042	-2.825	-2.65	-2.9979	-2.6958	-2.8271	257.146	291.459	16.924	-0.887	87.158	308.222	272.688	312.514	180.696	258.775	5.719	16.264	96.853	50.986	236.447	247.910	0.00047569	0.0003319	0.00012595	1241.3	7.0207e-06	3.6276e-06	1310.7	256.89	4.7078e-06	2.1084e-06	318.91	89.143	70.337	20.49	2.1982e-07	28.825	0.00042225	0.0004515	0.00012606	1220.6	5.0692e-06	5.043e-06	1288.8	254.9	4.9651e-06	5.1097e-06	317.77	89.325	70.428	20.794	5.0893e-06	29.264	331.977	129.834	83.254	-15.426	157.717	149.659	-15.323	-8.394	151.861	120.076	-8.725	-1.952	-1.422	4.949	94.695	4.478	-8191	255	
492.868	1	1	0	0	0.1738	0.079286	0.032034	0.21661	0.044099	0.2808	0.27909	0.1805	0.22456	0.090714	0.2409	0.21439	0.36012	0.31041	0.066516	0.2192	-2.5458	-2.6937	-2.7125	-3.0458	-2.6896	-3.0604	-2.8708	-2.875	-2.9229	-2.6	-3.0271	-2.8979	-2.8333	-2.9062	-2.7354	-2.8104	250.934	79.315	304.229	316.300	317.852	324.765	308.306	86.390	92.864	65.564	272.107	299.506	330.183	107.594	23.920	159.942	0.00033224	0.00041473	0.00010201	1243.2	4.3773e-06	2.0098e-06	1304.8	256.39	2.2392e-06	1.7511e-06	320.23	89.303	70.374	20.454	4.7761e-06	28.836	0.00043927	0.00047155	0.00012961	1222.7	5.2918e-06	5.2743e-06	1287.9	255.12	5.1305e-06	5.236e-06	318.55	89.38	70.517	20.782	5.3846e-06	29.253	328.113	63.259	43.822	-15.258	149.279	110.170	-15.413	-7.866	154.160	126.428	-8.465	-2.028	-1.579	4.953	124.590	4.476	-8191	255	
492.940	1	1	0	0	0.16448	0.10467	0.1387	0.15384	0.22053	0.24265	0.091546	0.26407	0.31088	0.09712	0.066304	0.12993	0.21594	0.098877	0.058738	0.11589	-2.6125	-2.7021	-2.9313	-2.8042	-2.8375	-2.8854	-3.0271	-2.8	-3.1042	-2.5417	-3.1333	-2.8479	-2.7687	-2.9271	-2.8333	-2.6063	96.639	140.044	191.747	286.010	43.938	192.234	-14.874	268.486	182.813	106.810	124.419	222.489	77.438	274.456	254.023	12.998	0.0003655	0.00033728	5.1009e-05	1247.2	5.4168e-06	3.2488e-06	1303.1	256.7	1.3034e-06	3.04e-06	319.1	89.311	70.145	20.508	1.8589e-06	28.862	0.00045217	0.00050022	0.00014058	1223.3	5.5603e-06	5.515e-06	1289.6	255.58	5.4352e-06	5.5145e-06	318.51	89.554	70.645	20.828	5.4841e-06	29.338	325.741	89.822	93.891	-15.441	170.269	110.763	-15.180	-8.196	29.781	169.197	-8.683	-2.106	-1.404	4.661	96.995	4.609	-8191	255	
493.036	1	1	0	0	0.12778	0.22667	0.14303	0.23532	0.15661	0.043071	0.13975	0.080744	0.058651	0.088041	0.17348	0.19336	0.058045	0.26664	0.32469	0.098654	-2.5458	-2.8063	-2.8833	-2.9958	-2.5604	-2.8771	-2.9688	-2.8479	-2.8979	-2.5833	-2.8375	-2.9833	-2.7146	-2.8229	-2.9083	-2.6562	149.246	184.164	322.257	295.089	323.634	4.271	333.336	223.143	321.144	70.213	196.642	-2.583	46.350	260.060	235.646	214.793	0.00045515	0.00022409	0.00011994	1244.4	4.5395e-06	5.5281e-06	1309.8	256.92	2.6091e-06	1.3643e-06	318.2	89.387	70.091	20.453	2.2398e-06	28.91	0.00046881	0.00051346	0.00013995	1225.8	5.6269e-06	5.6076e-06	1289.9	255.54	5.3957e-06	5.4924e-06	318.55	89.56	70.515	20.818	5.5037e-06	29.351	320.983	0.075	60.515	-15.501	133.419	155.913	-15.350	-8.357	146.282	147.569	-8.811	-1.959	-1.219	4.784	236.212	4.576	-8191	255	
493.156	1	1	0	0	0.21855	0.054151	0.16932	0.036243	0.18459	0.2706	0.30054	0.11948	0.12612	0.211	0.21293	0.18224	0.2243	0.23526	0.19708	0.20387	-2.3979	-2.7708	-2.7188	-3.2562	-2.7062	-2.9604	-2.9646	-2.5542	-2.9688	-2.925	-2.7188	-2.8771	-2.6521	-2.9354	-2.8771	-2.6396	133.159	235.972	170.041	12.891	-10.444	213.051	213.347	321.128	190.768	-20.227	285.776	236.048	87.522	166.025	65.812	75.082	0.00042439	0.00029205	4.2687e-05	1245.9	3.1976e-06	3.0414e-06	1310.1	256.74	4.838e-06	2.0669e-06	319.1	89.294	70.81	20.479	3.1794e-06	28.891	0.00046064	0.00051022	0.00014251	1225.1	5.4743e-06	5.5035e-06	1291.1	256.13	5.5992e-06	5.4633e-06	319.03	89.81	70.794	20.814	5.512e-06	29.374	320.197	34.631	77.202	-15.607	135.592	171.315	-15.432	-8.461	148.913	75.232	-8.603	-1.852	-1.641	4.879	124.010	4.669	-8191	255	
493.252	1	1	0	0	0.099859	0.16763	0.24206	0.21346	0.038956	0.23639	0.14959	0.23288	0.10357	0.20228	0.18185	0.073698	0.048114	0.19925	0.22977	0.21513	-2.5292	-2.7333	-2.7625	-3.0896	-2.7354	-2.9458	-3.0521	-2.7417	-3.0896	-2.6958	-2.8417	-3.0062	-2.6646	-2.9417	-2.9729	-2.9021	194.969	265.106	324.916	248.276	299.369	191.107	296.291	321.677	125.119	314.857	83.280	-7.877	279.929	55.720	-2.854	275.130	0.00036745	0.00050729	0.00014094	1240.1	5.885e-06	3.4382e-06	1313.3	257.03	8.5428e-06	3.3697e-06	320.13	89.592	70.106	20.491	2.8074e-06	29.085	0.00046447	0.00051022	0.00014146	1225.5	5.5934e-06	5.6095e-06	1292.9	256.26	5.3876e-06	5.5999e-06	319.4	89.687	70.632	20.802	5.2655e-06	29.452	-22.560	58.846	64.108	-15.620	130.420	133.386	-15.337	-8.546	168.607	104.606	-8.689	-1.695	-1.495	5.145	209.163	4.475	-8191	255	
493.349	1	1	0	0	0.10125	0.090933	0.27992	0.14466	0.25429	0.078334	0.17304	0.15418	0.061656	0.092943	0.418	0.078332	0.19563	0.12643	0.01102	0.13145	-2.5375	-2.7979	-2.7917	-3.0812	-2.8854	-2.8063	-3.0104	-2.7771	-2.9021	-3.0271	-2.8	-3.1479	-2.8792	-2.9167	-2.7438	-2.8521	28.976	202.658	146.493	259.534	271.786	111.944	290.560	287.929	133.723	85.199	301.536	203.709	298.259	242.158	202.105	308.098	0.00039718	0.00016122	0.00011141	1243.3	7.0057e-06	1.1768e-06	1308.9	258.58	6.5076e-06	2.4565e-06	319.56	89.328	70.645	20.382	6.8598e-06	28.882	0.0004691	0.00048631	0.00014688	1226.1	5.4374e-06	5.5354e-06	1290.5	256.12	5.3463e-06	5.2728e-06	318.4	89.62	70.582	20.775	5.1953e-06	29.407	316.200	119.378	65.092	-15.465	134.366	161.316	-15.398	-8.247	171.463	138.377	-8.515	-1.616	-1.581	4.788	135.572	4.770	-8191	255	
493.445	1	1	0	0	0.22026	0.17149	0.18875	0.30251	0.23356	0.23526	0.15621	0.020902	0.22373	0.044253	0.24227	0.22955	0.26012	0.099524	0.1898	0.0068673	-2.3396	-2.775	-2.7271	-3.1542	-2.9333	-2.8417	-3.1813	-2.7854	-3.0125	-2.9521	-2.7792	-2.9854	-2.9854	-2.7479	-3.1354	-2.7188	201.635	244.006	273.109	255.365	278.150	31.554	316.176	1.365	56.678	203.091	0.920	-0.773	320.666	180.847	-0.734	248.157	0.00047562	0.0001899	2.2658e-05	1241.3	5.3116e-06	2.2623e-06	1307.4	256.55	7.8411e-06	3.6807e-06	319.86	89.049	70.559	20.557	2.4241e-06	28.888	0.00045007	0.00047305	0.00013246	1223.7	5.1834e-06	5.1699e-06	1288.7	255.57	5.2015e-06	5.2741e-06	318.8	89.355	70.557	20.802	5.3052e-06	29.314	319.879	61.468	167.756	-15.368	153.244	147.667	-15.399	-8.472	157.218	154.661	-8.713	-1.564	-1.600	5.055	141.655	4.425	-8191	255	
493.541	1	1	0	0	0.22581	0.19998	0.1581	0.22751	0.080865	0.14365	0.17713	0.12012	0.10341	0.026396	0.16485	0.19134	0.23987	0.24651	0.065887	0.10945	-2.3375	-2.8396	-2.6562	-2.8979	-2.8896	-2.7708	-3.0792	-2.9313	-2.7667	-3.025	-2.9104	-2.9562	-3.0729	-2.9375	-2.9646	-2.7229	87.255	18.961	257.964	331.308	207.473	184.180	280.177	4.574	62.288	109.177	311.980	221.289	238.824	45.471	234.505	39.665	0.00034616	0.00046175	0.00012059	1239.5	4.1192e-06	2.3139e-06	1307.7	257.04	8.2533e-06	1.9781e-06	318.99	88.717	70.118	20.633	4.9815e-06	28.849	0.0004525	0.00047501	0.00013526	1221.6	5.3074e-06	5.4226e-06	1287.1	255.67	5.155e-06	5.1097e-06	317.74	89.364	70.405	20.796	4.9568e-06	29.281	324.765	67.376	75.026	-15.407	140.103	126.659	-15.384	-7.984	158.257	140.172	-8.622	-1.530	-1.693	5.521	139.030	4.475	-8191	255	
493.637	1	1	0	0	0.09935	0.19166	0.26093	0.1516	0.1102	0.16575	0.1495	0.23246	0.19424	0.14054	0.060489	0.26197	0.17946	0.26571	0.17721	0.087969	-2.4667	-2.8771	-2.5354	-3.1333	-2.6375	-2.7438	-3.1417	-2.8875	-2.8271	-3	-2.7271	-2.8937	-2.7708	-2.7083	-2.9562	-2.6625	39.956	185.284	-3.075	248.665	47.999	27.871	294.478	310.547	260.103	86.435	302.858	-0.468	74.281	2.216	25.287	35.245	0.0004493	5.149e-05	0.00012158	1238.9	5.78e-06	4.0035e-06	1302.1	257.02	5.4031e-06	2.1717e-06	320.75	89.223	70.451	20.444	3.2517e-06	28.978	0.00044792	0.00047435	0.00013701	1222.4	5.2059e-06	5.4121e-06	1285.1	255.88	5.1821e-06	5.1825e-06	318.75	89.531	70.519	20.79	5.0795e-06	29.316	329.911	103.289	33.439	-15.411	155.519	178.532	-15.085	-8.350	163.216	170.256	-8.630	-1.964	-1.365	5.462	157.061	4.668	-8191	255	
493.733	1	1	0	0	0.09988	0.087412	0.11741	0.14753	0.097669	0.081806	0.15185	0.093325	0.14322	0.17771	0.24504	0.2991	0.23116	0.28335	0.23985	0.27011	-2.3208	-2.9521	-2.5917	-2.9958	-2.7812	-2.6979	-3.2208	-2.8021	-2.8625	-3.0521	-2.8271	-2.9771	-2.8854	-2.5854	-3.0583	-2.7604	292.514	134.409	3.613	178.912	282.493	285.243	243.744	297.240	176.286	236.149	281.258	3.678	171.573	100.454	224.550	43.004	0.00045662	0.00048776	8.392e-05	1239	3.6051e-06	3.7143e-06	1306.4	257.91	4.1992e-06	2.7137e-06	319.66	89.004	70.271	20.474	5.8133e-06	28.772	0.00044413	0.00045906	0.00012875	1222.3	5.218e-06	5.2447e-06	1287.4	255.8	5.1896e-06	5.2682e-06	318.31	89.558	70.488	20.782	5.0901e-06	29.183	322.299	51.269	67.649	-15.410	175.601	122.666	-15.267	-8.519	127.188	129.246	-8.683	-1.656	-1.740	5.060	137.413	4.401	-8191	255	
493.829	1	1	0	0	0.29097	0.097522	0.11133	0.30669	0.096288	0.21387	0.18637	0.12367	0.017461	0.16153	0.10625	0.15694	0.079472	0.31764	0.11446	0.26707	-2.3438	-3.1271	-2.6833	-3.1104	-3.0979	-2.8104	-3.0667	-3.0062	-2.5979	-2.9646	-2.85	-2.6333	-2.9354	-2.7042	-2.9083	-2.9062	252.961	208.457	103.125	211.564	223.759	46.020	300.784	28.519	115.153	79.211	42.502	122.584	-9.408	318.254	-4.112	-16.511	0.00043279	0.00034639	0.00011372	1238.1	5.5522e-06	3.9932e-06	1308.8	257.79	2.9506e-06	2.3718e-06	319.88	89.238	70.706	20.589	2.4466e-06	28.978	0.00044439	0.00046803	0.00012961	1222.8	5.1407e-06	5.2292e-06	1288.3	255.95	5.0462e-06	5.1924e-06	318.22	89.574	70.627	20.795	5.0185e-06	29.305	322.319	71.160	83.320	-15.373	118.716	159.481	-15.357	-8.383	160.649	80.517	-8.756	-1.835	-1.654	5.123	105.098	4.597	-8191	255	
493.948	1	1	0	0	0.32341	0.24391	0.011255	0.18871	0.21002	0.21863	0.14773	0.074289	0.14478	0.18016	0.030828	0.071198	0.071103	0.13587	0.18168	0.14619	-2.2188	-2.8271	-2.7917	-2.725	-3.0208	-2.6937	-2.9708	-2.9313	-2.6875	-2.8729	-2.85	-2.8708	-2.95	-2.6771	-2.8875	-2.7917	164.620	270.826	-13.994	-0.406	-18.606	55.292	252.449	216.808	88.915	281.109	256.910	-9.912	44.284	193.332	327.839	97.644	0.00037431	0.00045928	8.5345e-05	1240.5	7.7014e-06	3.6079e-06	1306.4	256.91	6.12e-06	3.9207e-06	319.22	89.084	70.054	20.634	6.6148e-06	28.881	0.00044885	0.00047767	0.00013445	1223.4	5.2246e-06	5.2567e-06	1288.2	255.57	5.2326e-06	5.2596e-06	318.01	89.431	70.539	20.854	5.1444e-06	29.271	316.204	66.893	60.613	-15.414	166.798	128.580	-15.400	-8.315	147.624	120.919	-8.511	-1.655	-1.631	5.210	125.715	4.540	-8191	255	
494.044	1	1	0	0	0.19509	0.24131	0.12157	0.31927	0.12128	0.063441	0.17663	0.12724	0.080524	0.15879	0.28434	0.12627	0.17817	0.28413	0.15144	0.15026	-2.1104	-2.9667	-2.8479	-2.8708	-3.0208	-2.8583	-2.8042	-3.0229	-2.6063	-2.75	-2.8	-2.8063	-2.9167	-2.9083	-2.8083	-3.1333	216.857	318.013	228.605	-13.430	152.141	-1.931	251.188	73.994	69.221	76.390	165.522	175.319	158.377	262.763	255.761	-17.310	0.00040115	0.00027768	9.3674e-05	1244.6	6.1012e-06	2.5411e-06	1308.5	256.92	3.6983e-06	2.0537e-06	320.51	88.789	70.488	20.443	3.4514e-06	28.948	0.00044069	0.0004649	0.00012435	1222.2	5.0853e-06	5.0674e-06	1288.1	255.72	4.9466e-06	5.134e-06	318.37	89.399	70.453	20.746	4.9071e-06	29.268	328.415	63.784	70.592	-15.404	130.810	85.846	-15.511	-8.395	134.149	96.602	-8.753	-1.698	-1.398	4.936	167.682	4.439	-8191	255	
494.141	1	1	0	0	0.064627	0.1649	0.11226	0.085783	0.22228	0.1875	0.16197	0.14387	0.049104	0.22788	0.1431	0.14558	0.08861	0.18444	0.24088	0.076061	-2.1292	-3.0208	-3.0167	-2.8083	-3.0292	-2.8396	-2.9854	-3.0458	-2.6292	-3.0292	-2.8	-2.775	-3.0396	-2.7917	-2.8042	-3.0271	263.032	139.807	165.802	139.791	140.085	131.766	286.826	140.994	210.629	47.486	300.418	53.981	330.201	170.503	52.220	189.100	0.00037995	0.00028405	6.3355e-05	1242.5	4.4209e-06	3.6234e-06	1313.3	258.11	4.145e-06	2.2422e-06	320.6	89.113	70.411	20.392	2.7633e-06	28.955	0.00045543	0.00047094	0.00013016	1223.7	5.1822e-06	5.0924e-06	1290.1	255.83	5.2049e-06	5.0108e-06	318.99	89.6	70.631	20.743	5.2178e-06	29.31	324.981	43.581	43.009	-15.421	137.042	113.737	-15.356	-8.361	182.341	106.679	-8.660	-2.059	-1.438	4.668	139.707	4.611	-8191	255	
494.237	1	1	0	0	0.078271	0.35469	0.04027	0.40889	0.11304	0.064805	0.34499	0.11548	0.26948	0.090077	0.07631	0.23365	0.12698	0.24634	0.20695	0.22967	-2.45	-2.8729	-2.8396	-2.7396	-3.0042	-2.8729	-3.0042	-3.1375	-2.7583	-3.1312	-2.7938	-2.8167	-3.0687	-2.6125	-2.8312	-3.0208	165.516	-20.576	331.305	-24.176	63.959	-7.271	243.045	273.265	26.220	10.589	150.369	-5.325	234.467	-9.739	179.191	314.667	0.00041928	0.0002094	0.00011739	1236.8	4.5358e-06	4.1144e-06	1311	257.51	3.6075e-06	2.6932e-06	319.03	88.825	70.099	20.456	3.4966e-06	28.89	0.00044523	0.00046515	0.00013165	1222.6	5.0957e-06	5.2209e-06	1290.2	256.01	5.2093e-06	5.1395e-06	318.8	89.483	70.51	20.806	5.1319e-06	29.332	329.244	17.406	48.569	-15.467	132.021	160.672	-15.292	-8.331	219.575	149.798	-8.665	-1.559	-1.117	5.288	165.823	4.541	-8191	255	
494.333	1	1	0	0	0.23931	0.32149	0.25763	0.099941	0.20669	0.13915	0.23131	0.24878	0.026519	0.028079	0.15921	0.27012	0.17871	0.084366	0.053899	0.124	-2.3792	-2.9625	-2.9729	-2.85	-2.975	-2.8646	-2.9208	-2.9854	-2.8438	-2.7229	-3.1312	-2.75	-3.1167	-2.8292	-2.7062	-3.1333	230.604	-9.093	220.609	297.773	282.864	220.748	238.483	93.469	-17.870	98.389	255.842	270.573	296.754	222.644	232.047	10.494	0.00041276	0.00022848	0.0001366	1237.7	3.7869e-06	3.9848e-06	1309.2	256.08	4.887e-06	2.2178e-06	322.55	89.223	70.884	20.425	2.6449e-06	28.803	0.00046084	0.0004775	0.00012919	1224	5.1615e-06	5.2725e-06	1289.3	255.62	5.1879e-06	5.2446e-06	318.96	89.668	70.7	20.786	5.2845e-06	29.315	318.034	18.328	72.860	-15.335	131.561	136.660	-15.316	-8.268	138.776	84.794	-8.667	-1.789	-1.544	4.684	112.036	4.541	-8191	255	
494.429	1	1	0	0	0.25402	0.1413	0.093671	0.15687	0.22646	0.13169	0.2137	0.18835	0.33547	0.016697	0.25615	0.04721	0.14652	0.15068	0.1589	0.22604	-2.1354	-2.8771	-2.8937	-2.7708	-2.9667	-2.8104	-2.8479	-3.1125	-2.7646	-2.8229	-2.9437	-2.8458	-2.8729	-3.0604	-2.8104	-3.15	272.871	228.072	192.784	19.838	230.697	148.680	-22.026	48.477	169.872	191.013	302.704	316.902	302.421	225.894	297.454	-16.607	0.00046142	0.00037631	0.0001121	1241.7	7.0959e-06	5.5224e-06	1311.9	257.46	7.7263e-06	1.8399e-06	320.36	88.953	70.361	20.497	1.7882e-06	28.788	0.00044856	0.00048399	0.0001321	1225.3	5.1739e-06	5.0822e-06	1289.9	255.7	5.1867e-06	5.0698e-06	318.94	89.432	70.527	20.772	5.1467e-06	29.26	332.127	76.362	42.420	-15.552	147.156	131.165	-15.534	-8.460	153.073	101.940	-8.685	-1.361	-1.494	4.638	177.486	4.237	-8191	255	
494.550	1	1	0	0	0.10872	0.044546	0.18366	0.17457	0.24349	0.18234	0.26345	0.19434	0.14049	0.11352	0.30273	0.14361	0.036925	0.15373	0.29483	0.11701	-2.4167	-2.65	-2.9854	-2.8312	-3.075	-2.9979	-2.9562	-2.8875	-2.8604	-2.9042	-2.9833	-2.8	-2.9667	-3.0417	-2.675	-3.0333	19.963	111.256	4.078	-1.377	317.690	228.292	200.583	281.063	87.689	159.042	-19.172	78.732	196.122	43.892	326.423	132.651	0.00045165	0.00040152	0.00010974	1243.8	6.3607e-06	3.6923e-06	1310.8	257.54	3.4988e-06	2.3801e-06	320.99	88.949	70.471	20.508	2.9032e-06	28.96	0.00044222	0.00046845	0.0001264	1224.5	5.0799e-06	5.1353e-06	1290.6	255.97	5.0355e-06	5.1024e-06	318.8	89.632	70.643	20.81	5.1476e-06	29.328	328.047	42.268	85.928	-15.455	145.755	129.370	-15.485	-8.439	172.396	113.504	-8.846	-1.884	-1.406	4.750	114.859	4.317	-8191	255	
494.644	1	1	0	0	0.11442	0.09788	0.23974	0.13317	0.15592	0.14953	0.22923	0.16159	0.22773	0.10865	0.16697	0.024369	0.16055	0.063141	0.079965	0.11208	-2.4938	-2.8583	-2.9021	-3.0125	-2.9354	-3.0042	-3.075	-2.9479	-2.9313	-2.7708	-2.9667	-2.775	-3.0062	-3.0292	-2.7646	-2.9313	124.578	-17.642	207.094	-12.607	63.358	-10.268	274.478	243.016	124.877	6.180	52.901	319.838	48.126	303.602	102.553	239.046	0.00039305	0.00037123	0.0001585	1241.8	5.051e-06	2.3403e-06	1308.1	256.83	5.7249e-06	1.4e-06	320.45	89.009	70.236	20.487	5.6057e-06	28.971	0.00043697	0.00047235	0.00012916	1223.9	5.2477e-06	4.9005e-06	1289.7	255.79	4.9709e-06	5.1696e-06	318.99	89.432	70.562	20.804	5.2119e-06	29.351	327.933	99.756	65.272	-15.438	122.054	153.659	-15.457	-8.295	158.630	184.774	-9.051	-1.734	-1.042	4.921	122.067	4.408	-8191	255	
494.740	1	1	0	0	0.085722	0.070071	0.32328	0.39115	0.14344	0.24764	0.14263	0.070251	0.20689	0.039634	0.089393	0.06735	0.30589	0.067507	0.20121	0.32862	-2.4708	-2.6688	-2.9667	-2.8937	-2.8854	-3.125	-2.9021	-2.9729	-2.8625	-2.6292	-3.0438	-2.8229	-2.8479	-3.2062	-2.6729	-3.0333	258.859	260.325	286.094	266.364	221.633	48.961	300.011	197.544	105.429	244.952	89.959	261.484	279.640	264.788	13.082	246.368	0.00041645	0.00041492	7.1015e-05	1242.7	3.7762e-06	4.685e-06	1309.5	257.21	4.7232e-06	5.5266e-06	320.01	89.663	70.905	20.397	3.5851e-06	28.798	0.00044353	0.00046343	0.00013346	1224.6	5.222e-06	5.3018e-06	1291.1	255.84	5.0935e-06	5.3653e-06	318.74	89.691	70.764	20.829	5.2332e-06	29.291	321.575	53.800	91.471	-15.378	119.492	121.595	-15.477	-8.177	184.275	122.385	-8.774	-1.945	-1.425	5.325	138.300	4.326	-8191	255	
494.814	1	1	0	0	0.22282	0.17688	0.089212	0.08414	0.21291	0.13197	0.43534	0.071314	0.097697	0.25532	0.25109	0.27215	0.25434	0.20359	0.18852	0.16521	-2.425	-2.6437	-3.1146	-2.8354	-2.9333	-3.1854	-3.0354	-2.9375	-3.0812	-2.7021	-3.0583	-2.8583	-2.7938	-3.0917	-2.5708	-2.9667	310.950	249.570	331.772	255.645	-13.059	300.355	283.163	240.748	89.966	236.386	-19.185	-7.488	96.769	268.689	187.556	306.504	0.0004807	0.00052352	0.00010062	1245.8	5.2154e-06	3.4923e-06	1308.6	256.02	7.2553e-06	2.3459e-06	320.37	89.427	70.648	20.537	5.8517e-06	28.955	0.00045343	0.00048834	0.00013466	1224.6	5.2318e-06	5.2861e-06	1289.4	255.58	5.2494e-06	5.3935e-06	318.65	89.572	70.775	20.812	5.4883e-06	29.322	322.005	77.130	55.116	-15.620	125.750	140.091	-15.407	-8.448	175.924	85.482	-8.559	-1.831	-1.100	5.265	147.262	4.664	-8191	255	
494.932	1	1	0	0	0.12723	0.33771	0.082934	0.23722	0.30223	0.28498	0.46447	0.31253	0.2841	0.16044	0.084861	0.23395	0.23422	0.11988	0.119	0.059377	-2.6937	-2.65	-2.8542	-3.0042	-2.85	-3.1521	-2.9562	-2.9188	-2.9542	-2.8417	-3.0812	-3.05	-2.7542	-3.1354	-2.7062	-2.8625	-6.673	50.981	117.366	303.869	205.653	253.209	283.292	281.712	314.808	-18.186	-11.986	315.539	287.374	251.051	329.957	11.582	0.00034321	0.00022023	0.00014583	1243.8	2.6306e-06	1.8253e-06	1307.9	256.97	8.5511e-06	1.4083e-06	319.98	88.846	70.19	20.515	6.0906e-06	28.689	0.00045492	0.0004923	0.00013558	1223.1	5.3541e-06	5.3349e-06	1288.7	255.56	5.1541e-06	5.3981e-06	318.83	89.408	70.587	20.807	5.3476e-06	29.283	321.509	98.860	94.118	-15.485	115.980	199.446	-15.375	-8.134	128.889	122.641	-8.592	-2.088	-1.507	4.942	166.620	4.601	-8191	255	
495.029	1	1	0	0	0.15623	0.35512	0.16611	0.16071	0.14116	0.19505	0.29343	0.12431	0.19084	0.14062	0.1426	0.097522	0.12212	0.1881	0.10036	0.2514	-2.5604	-2.7521	-2.775	-3.0312	-2.7271	-2.9417	-3.0021	-2.8312	-3.1688	-2.7354	-3.1042	-3.2562	-2.625	-3.1583	-2.8896	-2.9771	272.946	77.454	150.039	37.833	259.722	137.962	304.664	160.171	232.358	152.276	261.354	-16.499	54.511	245.624	18.373	305.798	0.00045685	0.00038761	8.2214e-05	1243.1	4.3602e-06	6.5095e-06	1310.9	257.97	6.2678e-06	4.6307e-06	320.7	89.356	70.598	20.698	2.7778e-06	29.097	0.00046529	0.00049507	0.00013515	1224	5.4279e-06	5.3834e-06	1292.3	256.27	5.3258e-06	5.5118e-06	319.37	89.795	70.818	20.865	5.1138e-06	29.397	321.380	58.631	92.454	-15.531	161.058	145.404	-15.282	-8.159	187.385	146.321	-8.774	-1.715	-1.587	5.049	165.067	4.670	-8191	255	
495.125	1	1	0	0	0.10455	0.18986	0.096714	0.10427	0.14329	0.17207	0.17881	0.32094	0.069174	0.084655	0.057551	0.14085	0.10085	0.035941	0.18332	0.12288	-2.6063	-2.7771	-2.7958	-3.0771	-2.8	-2.9938	-3.0396	-2.8208	-2.9062	-2.8875	-3.0729	-2.9458	-2.8125	-2.925	-2.9479	-2.875	249.526	50.435	30.348	289.603	204.527	22.851	276.253	2.631	61.745	10.169	99.551	236.022	282.772	19.932	64.221	9.793	0.00040067	0.00019141	0.00012357	1241.9	6.2223e-06	7.8903e-06	1311.5	257.91	4.8781e-06	1.3021e-06	320.02	88.885	70.431	20.622	4.7167e-06	28.738	0.00044468	0.00047584	0.00012913	1223.5	5.0294e-06	5.026e-06	1289.5	255.66	4.9085e-06	5.0704e-06	318.21	89.401	70.503	20.785	4.916e-06	29.221	324.924	38.933	75.007	-15.248	137.450	96.255	-15.234	-8.383	169.538	116.436	-8.774	-1.677	-1.548	5.440	105.904	4.520	-8191	255	
495.245	1	1	0	0	0.15664	0.084253	0.17773	0.18676	0.10556	0.10326	0.0091265	0.24922	0.15493	0.19319	0.13616	0.27897	0.18381	0.086596	0.24852	0.057942	-2.4729	-2.8063	-2.7625	-3.1333	-2.95	-3.0854	-3.0312	-2.725	-3.1583	-2.8187	-2.8187	-3.1688	-2.7062	-3.1562	-2.7104	-2.8729	66.448	183.492	202.571	328.979	122.717	314.719	238.754	192.086	-21.893	-16.109	25.236	211.407	179.061	68.287	-24.940	-23.318	0.00043584	0.00018452	0.00012767	1234.5	5.561e-06	2.3716e-06	1306.3	256.64	5.3088e-06	5.3184e-06	318.68	88.675	69.983	20.367	3.8567e-06	28.68	0.00043617	0.00045432	0.00012729	1217.8	5.0571e-06	5.0238e-06	1285.7	255.28	4.6944e-06	4.9387e-06	317.75	89.3	70.344	20.666	4.6425e-06	29.13	-17.242	23.921	75.591	-15.389	143.643	95.238	-15.491	-8.337	188.289	103.834	-8.400	-1.567	-1.370	5.194	151.207	4.295	-8191	255	
495.342	1	1	0	0	0.26859	0.22899	0.018483	0.17596	0.089863	0.13954	0.31335	0.094592	0.16476	0.10804	0.2556	0.10283	0.077199	0.010415	0.13629	0.15114	-2.5542	-2.8625	-3.1437	-3.1104	-2.7354	-2.9583	-3.0938	-2.8146	-2.7875	-3.0125	-2.8625	-2.9542	-2.8042	-3.0479	-3.0979	-2.7729	183.573	276.345	305.349	308.274	31.329	17.889	290.018	327.042	-13.016	314.759	5.695	321.776	257.575	147.885	130.062	249.441	0.00033069	0.00031234	5.993e-05	1234.4	7.345e-06	4.5549e-06	1302.2	254.98	7.8766e-06	3.2492e-06	317.46	88.852	70.679	20.422	2.7472e-06	28.693	0.0004037	0.0004377	0.00011732	1217.7	4.7462e-06	4.5957e-06	1283.2	254.56	4.4736e-06	4.5329e-06	317.04	89.101	70.253	20.664	4.53e-06	29.099	322.800	103.078	72.178	-15.451	151.182	132.451	-15.259	-8.342	135.443	124.918	-8.804	-1.851	-1.679	5.059	110.052	4.455	-8191	255	
495.438	1	1	0	0	0.21997	0.13269	0.087969	0.29332	0.1658	0.026157	0.28829	0.14394	0.17889	0.12451	0.17995	0.15681	0.18331	0.037536	0.26486	0.090081	-2.5792	-2.9208	-2.6375	-3.0104	-2.8917	-2.9229	-3.1521	-3.0125	-3.1792	-3.1083	-2.8625	-3.0083	-2.7792	-3	-3.2417	-2.8708	-20.632	64.145	269.604	289.026	205.638	235.175	252.377	49.168	154.165	75.936	298.917	163.021	304.713	74.171	113.741	81.533	0.00035548	0.00057221	9.2319e-05	1234.5	4.3919e-06	3.6716e-06	1301.4	254.34	3.4532e-06	3.632e-06	318.39	88.965	70.106	20.32	4.4698e-06	28.617	0.00040198	0.00042679	0.0001171	1213.4	4.7563e-06	4.6244e-06	1280.5	253.72	4.654e-06	4.5234e-06	316.92	89.053	70.164	20.694	4.5572e-06	29.135	330.079	59.184	67.471	-15.693	160.047	80.510	-15.377	-8.445	172.065	133.387	-8.566	-1.791	-1.748	5.466	141.721	4.611	-8191	255	
495.509	1	1	0	0	0.12259	0.07699	0.085106	0.19924	0.15696	0.18815	0.45351	0.19403	0.1924	0.11886	0.17334	0.1829	0.14218	0.074004	0.21556	0.032625	-2.4729	-2.8042	-2.7667	-3.1542	-2.7729	-2.9875	-3.2	-2.8292	-2.8646	-2.875	-2.9437	-3.1667	-2.8958	-2.8042	-3.1854	-2.925	-21.667	89.228	135.847	311.067	6.687	175.075	284.208	202.573	330.582	52.220	93.811	38.580	288.811	114.663	287.995	-0.124	0.00034341	0.00042408	0.00019015	1234.5	4.4447e-06	3.9482e-06	1300.7	256.17	2.266e-06	2.4201e-06	318.02	89.052	70.006	20.309	3.809e-06	28.714	0.00040483	0.00041662	0.00011975	1215.2	4.7056e-06	4.7087e-06	1279.9	254.04	4.8222e-06	4.6994e-06	316.89	89.226	70.056	20.646	4.8188e-06	29.102	331.862	102.214	68.204	-15.317	154.267	131.219	-15.257	-8.244	169.809	149.400	-8.722	-1.583	-1.424	5.157	98.175	4.632	-8191	255	
495.630	1	1	0	0	0.22241	0.04193	0.16651	0.1758	0.13234	0.068731	0.42819	0.19901	0.19195	0.2137	0.41507	0.089905	0.13914	0.23952	0.18481	0.20662	-2.4854	-2.8979	-2.5917	-3.1562	-3.0167	-2.8083	-3.2271	-3.0208	-2.9667	-3.0167	-2.7562	-3.0938	-2.9292	-2.8104	-3.2375	-2.7896	58.955	51.715	290.564	-7.895	316.435	96.164	267.087	275.437	163.145	157.805	329.499	206.392	71.811	-23.075	17.098	17.357	0.00040545	0.00023141	6.8456e-05	1228.5	8.3046e-06	4.5354e-06	1301.3	256.42	4.1038e-06	3.2487e-06	320.79	88.495	70.222	20.418	3.3519e-06	28.734	0.00041895	0.00043266	0.00012491	1212.7	4.8474e-06	5.0111e-06	1280.9	254.49	4.7781e-06	4.7117e-06	317.49	88.976	70.111	20.673	4.6286e-06	29.102	319.377	90.870	79.920	-15.444	168.722	112.223	-15.451	-8.324	213.571	130.476	-8.628	-1.607	-1.883	5.156	141.603	4.284	-8191	255	
495.726	1	1	0	0	0.24027	0.17899	0.1094	0.47401	0.17748	0.1515	0.14273	0.22975	0.087981	0.082885	0.29019	0.16808	0.16287	0.049323	0.22015	0.11379	-2.6208	-3.0479	-2.6312	-3.0354	-2.8812	-2.7771	-3.1771	-2.9313	-3.0417	-3.0354	-2.7208	-2.9708	-2.9792	-2.8271	-2.9875	-3.0417	89.269	-10.904	144.326	280.126	203.317	176.234	318.671	286.731	196.122	197.382	-4.349	111.847	39.365	103.762	101.428	169.219	0.0004686	0.00032317	7.6928e-05	1232.5	4.7682e-06	3.8382e-06	1298	255.49	6.1996e-06	2.4849e-06	317.47	88.837	69.848	20.483	2.4663e-06	28.641	0.00040388	0.00041765	0.00012384	1212.8	4.7929e-06	4.9719e-06	1279.1	254.06	4.8574e-06	4.9706e-06	316.29	89.103	70.134	20.675	4.6861e-06	29.139	-25.554	91.532	62.769	-15.711	151.612	138.070	-15.319	-8.316	149.092	77.544	-8.409	-1.785	-1.365	5.422	99.996	4.445	-8191	255	
495.821	1	1	0	0	0.050065	0.16893	0.15467	0.10884	0.084656	0.1422	0.31712	0.19348	0.21504	0.18671	0.046035	0.18046	0.10569	0.30057	0.12158	0.10209	-2.4083	-3.1521	-2.9354	-3.1375	-3.0583	-2.6333	-3.3042	-2.8563	-2.725	-3.1229	-2.5521	-2.9479	-2.6917	-2.8125	-2.9792	-2.7229	239.786	156.518	169.639	281.482	141.517	53.811	292.725	237.800	109.533	91.974	178.727	239.942	263.158	213.114	321.556	-1.387	0.00037726	0.00035271	5.4491e-05	1231.1	5.0913e-06	4.7659e-06	1301.2	256.13	5.964e-06	4.3458e-06	319.51	88.863	69.934	20.45	6.5384e-06	28.839	0.00044359	0.00046161	0.00012811	1213.8	5.0571e-06	5.1227e-06	1281	254.62	5.1345e-06	4.8444e-06	317.19	89.158	70.279	20.728	5.0404e-06	29.159	326.747	66.863	48.090	-15.402	121.981	150.800	-15.299	-8.133	137.341	115.069	-8.601	-1.830	-1.703	4.993	125.093	4.414	-8191	255	
495.918	1	1	0	0	0.14003	0.12455	0.17299	0.2969	0.29433	0.015914	0.16728	0.087503	0.17414	0.043118	0.087836	0.14868	0.2203	0.079683	0.095411	0.089348	-2.4042	-2.8104	-2.9271	-2.9521	-3.0938	-2.85	-3.0854	-3.0667	-2.7792	-2.9667	-3.0667	-3.0229	-3.375	-2.7021	-3.0271	-3.0021	309.266	-17.635	237.480	303.850	171.209	152.421	264.054	-1.776	194.578	102.769	117.291	0.398	319.001	9.987	0.584	88.713	0.00039663	0.0004016	9.9937e-05	1235.6	4.7236e-06	3.5522e-06	1300.4	255.96	9.026e-06	3.8819e-06	318.79	88.564	69.985	20.364	4.8747e-06	28.63	0.00045135	0.00045723	0.00012647	1214.9	5.0003e-06	5.2107e-06	1281.4	254.66	5.1123e-06	5.0981e-06	317.66	89.042	70.138	20.728	5.0078e-06	29.087	332.725	76.015	86.515	-15.259	154.786	92.584	-15.266	-8.480	190.433	148.361	-8.556	-1.916	-1.448	4.925	130.498	4.320	-8191	255	
496.037	1	1	0	0	0.24807	0.15347	0.2367	0.095067	0.21042	0.19376	0.2435	0.18695	0.19485	0.04204	0.46956	0.1595	0.16054	0.091603	0.036854	0.19987	-2.3375	-3.0292	-2.8896	-2.9667	-3.0187	-2.8146	-3.2479	-3.0292	-2.6375	-3.05	-2.9375	-3.1458	-3.125	-2.7396	-3.0396	-3.0062	99.582	300.955	317.520	330.129	270.955	8.054	-19.802	262.915	12.769	159.227	333.265	74.857	135.621	-11.048	-25.905	242.709	0.0004166	0.00026195	9.4912e-05	1231.8	5.6432e-06	4.7312e-06	1300.1	255.49	6.2081e-06	3.1692e-06	317.57	88.97	70.226	20.346	3.2504e-06	28.853	0.00043242	0.00045554	0.00012474	1214.7	5.0825e-06	5.1078e-06	1282.2	254.14	5.0739e-06	5.0827e-06	316.93	89.171	70.207	20.668	5.0946e-06	29.24	327.165	79.266	54.660	-15.460	140.523	111.023	-15.350	-8.446	124.716	139.100	-8.670	-1.678	-1.417	5.082	150.829	4.394	-8191	255	
496.109	1	1	0	0	0.20661	0.12164	0.40041	0.23892	0.17331	0.090749	0.27688	0.10239	0.1444	0.13243	0.1497	0.1581	0.067597	0.18719	0.070989	0.41823	-2.4062	-2.9917	-2.8104	-2.875	-3.1521	-2.6479	-2.9083	-3.0312	-2.5458	-2.9854	-2.95	-2.7625	-3.1479	-2.8396	-2.9542	-3.1333	15.596	126.744	281.381	306.263	275.536	-16.583	280.255	211.034	241.230	298.040	237.448	266.373	91.833	272.903	97.021	128.691	0.0004729	0.0004485	0.00010133	1233.7	5.6635e-06	3.0099e-06	1301.8	256.48	6.6166e-06	6.1575e-07	316.77	88.552	70.273	20.256	3.6663e-06	28.697	0.00043635	0.00046451	0.00012649	1215.1	5.1577e-06	5.101e-06	1282	254.57	4.9899e-06	4.8822e-06	316.94	88.95	70.132	20.606	4.828e-06	29.125	329.493	58.385	103.897	-15.398	119.318	118.469	-15.361	-8.273	173.300	58.647	-8.816	-1.722	-1.483	5.054	132.521	4.215	-8191	255	
#DATA ENDS
