BOXY.EXE: ISS Imagent and Oximeter Data Acquisition Program Version 0.80
Ascii Record File

#ACQ INFORMATION
2  Detector Channels 
16  External MUX Channels 
1  Auxiliary Channels 
5000  Waveform (CCF) Frequency (Hz)
1  Waveforms Skipped 
30  Waveforms Averaged 
1  Cycles Averaged 
16  Acquisitions per Waveform 
10.0806  Updata Rate (Hz) 

#FILE INFORMATION
TRUE -- External MUX Channel results are PARSED.
FALSE -- AC DC and Phase are NOT grouped.
TRUE -- Companion Program Settings File CREATED.
FALSE -- AC data not excluded
FALSE -- DC data not excluded
FALSE -- Phase data not excluded
FALSE -- Auxillary Chn. data not excluded
Tab delimiters

#CALIBRATION STATE
TRUE -- Waveform Calibration Values APPLIED.


#AUX CALIBRATION VALUES
Val Type	aux-1	

Term	1.0000e+00	
Factor	0.0000e+00	


#WF CALIBRATION VALUES
A = Detector Channel
Val Type	A-AC1	A-AC2	A-AC3	A-AC4	A-AC5	A-AC6	A-AC7	A-AC8	A-AC9	A-AC10	A-AC11	A-AC12	A-AC13	A-AC14	A-AC15	A-AC16	A-DC1	A-DC2	A-DC3	A-DC4	A-DC5	A-DC6	A-DC7	A-DC8	A-DC9	A-DC10	A-DC11	A-DC12	A-DC13	A-DC14	A-DC15	A-DC16	A-Ph1	A-Ph2	A-Ph3	A-Ph4	A-Ph5	A-Ph6	A-Ph7	A-Ph8	A-Ph9	A-Ph10	A-Ph11	A-Ph12	A-Ph13	A-Ph14	A-Ph15	A-Ph16	

Term	0.00000e+00	0.00000e+00	0.00000e+00	0.00000e+00	0.00000e+00	0.00000e+00	0.00000e+00	0.00000e+00	0.00000e+00	0.00000e+00	0.00000e+00	0.00000e+00	0.00000e+00	0.00000e+00	0.00000e+00	0.00000e+00	0.00000e+00	0.00000e+00	0.00000e+00	0.00000e+00	0.00000e+00	0.00000e+00	0.00000e+00	0.00000e+00	0.00000e+00	0.00000e+00	0.00000e+00	0.00000e+00	0.00000e+00	0.00000e+00	0.00000e+00	0.00000e+00	0.00000e+00	0.00000e+00	0.00000e+00	0.00000e+00	0.00000e+00	0.00000e+00	0.00000e+00	0.00000e+00	0.00000e+00	0.00000e+00	0.00000e+00	0.00000e+00	0.00000e+00	0.00000e+00	0.00000e+00	0.00000e+00	
Factor	1.00000e+00	1.00000e+00	1.00000e+00	1.00000e+00	1.00000e+00	1.00000e+00	1.00000e+00	1.00000e+00	1.00000e+00	1.00000e+00	1.00000e+00	1.00000e+00	1.00000e+00	1.00000e+00	1.00000e+00	1.00000e+00	1.00000e+00	1.00000e+00	1.00000e+00	1.00000e+00	1.00000e+00	1.00000e+00	1.00000e+00	1.00000e+00	1.00000e+00	1.00000e+00	1.00000e+00	1.00000e+00	1.00000e+00	1.00000e+00	1.00000e+00	1.00000e+00	X	X	X	X	X	X	X	X	X	X	X	X	X	X	X	X	

B = Detector Channel
Val Type	B-AC1	B-AC2	B-AC3	B-AC4	B-AC5	B-AC6	B-AC7	B-AC8	B-AC9	B-AC10	B-AC11	B-AC12	B-AC13	B-AC14	B-AC15	B-AC16	B-DC1	B-DC2	B-DC3	B-DC4	B-DC5	B-DC6	B-DC7	B-DC8	B-DC9	B-DC10	B-DC11	B-DC12	B-DC13	B-DC14	B-DC15	B-DC16	B-Ph1	B-Ph2	B-Ph3	B-Ph4	B-Ph5	B-Ph6	B-Ph7	B-Ph8	B-Ph9	B-Ph10	B-Ph11	B-Ph12	B-Ph13	B-Ph14	B-Ph15	B-Ph16	

Term	0.00000e+00	0.00000e+00	0.00000e+00	0.00000e+00	0.00000e+00	0.00000e+00	0.00000e+00	0.00000e+00	0.00000e+00	0.00000e+00	0.00000e+00	0.00000e+00	0.00000e+00	0.00000e+00	0.00000e+00	0.00000e+00	0.00000e+00	0.00000e+00	0.00000e+00	0.00000e+00	0.00000e+00	0.00000e+00	0.00000e+00	0.00000e+00	0.00000e+00	0.00000e+00	0.00000e+00	0.00000e+00	0.00000e+00	0.00000e+00	0.00000e+00	0.00000e+00	-2.12444e+02	-1.41062e+02	-1.70892e+02	-1.83732e+02	-1.12109e+02	-1.05118e+02	-1.55012e+02	-1.62015e+02	-9.09407e+01	-9.85453e+01	-1.70533e+02	-1.70350e+02	-1.84933e+02	-1.77024e+02	-9.26801e+01	-1.49740e+02	
Factor	3.86930e-05	3.87587e-05	1.11420e-05	1.84525e-01	4.76322e-07	4.00243e-07	1.77227e-01	5.92448e-02	4.03067e-07	4.33660e-07	9.47737e-02	3.35258e-02	3.39684e-02	1.07113e-02	3.85728e-07	1.51601e-02	1.41076e-07	1.41361e-07	3.93248e-08	7.31989e-02	1.55024e-09	1.55026e-09	6.73368e-02	2.26348e-02	1.55356e-09	1.55040e-09	3.24457e-02	1.12648e-02	1.11019e-02	3.63347e-03	1.55221e-09	4.80811e-03	X	X	X	X	X	X	X	X	X	X	X	X	X	X	X	X	



#DISTANCE SETTINGS
A = Detector Channel
A-1	A-2	A-3	A-4	A-5	A-6	A-7	A-8	A-9	A-10	A-11	A-12	A-13	A-14	A-15	A-16	

2.5000e+00	3.0000e+00	2.5000e+00	3.0000e+00	2.0000e+00	3.0000e+00	1.5000e+00	3.0000e+00	3.0000e+00	3.0000e+00	3.0000e+00	3.0000e+00	3.0000e+00	3.0000e+00	1.5000e+00	3.0000e+00	

B = Detector Channel
B-1	B-2	B-3	B-4	B-5	B-6	B-7	B-8	B-9	B-10	B-11	B-12	B-13	B-14	B-15	B-16	

1.0000e+01	1.0000e+01	1.0000e+01	1.4400e+00	1.0000e+01	1.0000e+01	1.5100e+00	1.9400e+00	1.0000e+01	1.0000e+01	1.9900e+00	2.4900e+00	2.4100e+00	2.9000e+00	1.0000e+01	2.9800e+00	




#DATA BEGINS
time	group	step	mark	flag	A-AC1	A-AC2	A-AC3	A-AC4	A-AC5	A-AC6	A-AC7	A-AC8	A-AC9	A-AC10	A-AC11	A-AC12	A-AC13	A-AC14	A-AC15	A-AC16	A-DC1	A-DC2	A-DC3	A-DC4	A-DC5	A-DC6	A-DC7	A-DC8	A-DC9	A-DC10	A-DC11	A-DC12	A-DC13	A-DC14	A-DC15	A-DC16	A-Ph1	A-Ph2	A-Ph3	A-Ph4	A-Ph5	A-Ph6	A-Ph7	A-Ph8	A-Ph9	A-Ph10	A-Ph11	A-Ph12	A-Ph13	A-Ph14	A-Ph15	A-Ph16	B-AC1	B-AC2	B-AC3	B-AC4	B-AC5	B-AC6	B-AC7	B-AC8	B-AC9	B-AC10	B-AC11	B-AC12	B-AC13	B-AC14	B-AC15	B-AC16	B-DC1	B-DC2	B-DC3	B-DC4	B-DC5	B-DC6	B-DC7	B-DC8	B-DC9	B-DC10	B-DC11	B-DC12	B-DC13	B-DC14	B-DC15	B-DC16	B-Ph1	B-Ph2	B-Ph3	B-Ph4	B-Ph5	B-Ph6	B-Ph7	B-Ph8	B-Ph9	B-Ph10	B-Ph11	B-Ph12	B-Ph13	B-Ph14	B-Ph15	B-Ph16	aux-1	digaux	

3197.355	1	1	0	256	0.17651	0.11974	0.038026	0.111	0.30088	0.046475	0.052668	0.10279	0.12062	0.19447	0.076233	0.095081	0.30128	0.39283	0.1973	0.22293	-3.2917	-4.0083	-3.8854	-3.7625	-4.075	-3.775	-3.9437	-4.1792	-3.7062	-4.0979	-4.0708	-3.6167	-4.1729	-3.7979	-3.7583	-4.2646	388.236	273.863	418.765	370.355	111.426	409.940	102.674	316.212	163.755	139.263	393.625	350.663	407.062	113.886	362.025	391.446	0.0013505	0.00026965	0.00015342	593.49	2.7244e-06	5.9596e-06	689.69	228.53	5.4227e-06	7.7077e-07	296.09	127.88	93.773	41.94	1.0725e-06	61.104	0.00026475	0.00031458	8.5253e-05	603.75	2.7712e-06	3.3322e-06	683.44	213.07	2.7233e-06	3.2986e-06	271.55	107.01	79.681	36.018	3.1014e-06	48.176	86.729	125.388	283.746	94.921	173.380	178.710	93.420	100.868	221.451	160.520	98.880	102.972	105.293	109.455	276.965	105.932	-8191	255	
3197.452	1	1	0	0	0.21364	0.10843	0.039897	0.13877	0.0827	0.10168	0.1583	0.081558	0.26289	0.0091464	0.21895	0.076503	0.163	0.18497	0.051901	0.15202	-3.1979	-3.9333	-3.8854	-3.7167	-4.1438	-3.7625	-3.7354	-4.2438	-3.5104	-3.9625	-4.0021	-3.8187	-4.0771	-3.925	-3.6292	-4.1083	285.360	301.165	84.860	133.628	227.204	284.791	357.565	360.926	129.090	101.022	402.040	331.334	249.995	129.219	212.989	179.508	0.0015472	0.00010233	4.738e-05	603.78	9.7653e-06	1.5829e-06	698.5	231.14	5.3316e-06	4.1974e-06	301.06	127.94	94.662	41.995	3.4669e-06	61.578	0.00026982	0.0003195	7.9106e-05	601.74	2.9362e-06	3.3729e-06	678.85	212.07	2.8595e-06	3.2207e-06	267.47	105.99	80.681	35.498	2.7213e-06	47.43	437.988	257.520	274.101	94.908	186.900	156.257	93.769	100.579	198.953	361.707	98.678	103.117	105.345	109.720	311.289	106.043	-8191	255	
3197.548	1	1	0	0	0.24031	0.17145	0.034187	0.20407	0.11629	0.0060617	0.069225	0.12314	0.23646	0.19927	0.1968	0.20638	0.073964	0.096847	0.24006	0.27637	-3.3292	-3.9083	-4.075	-3.7208	-4.0458	-3.9375	-3.8104	-4.1125	-3.8375	-3.9792	-4.2375	-3.8167	-3.9792	-4.075	-3.7292	-4.2604	400.497	416.135	172.689	352.114	123.375	423.531	391.657	272.186	226.173	120.849	358.574	376.145	375.479	399.041	376.814	331.183	0.0014078	0.0005287	0.00010912	601.23	8.4136e-06	2.0545e-06	699.66	230.89	6.461e-06	1.1695e-06	300.1	128.41	94.438	42.136	3.306e-06	61.72	0.00026381	0.00027918	6.7549e-05	583.54	2.835e-06	2.8768e-06	660.61	207.16	2.7537e-06	2.7132e-06	258.02	103.91	79.779	34.469	2.3915e-06	46.726	438.478	362.540	286.143	95.431	180.574	305.307	93.533	100.946	203.648	220.834	98.525	103.150	105.427	109.564	360.258	106.283	-8191	255	
3197.644	1	1	0	0	0.15387	0.13091	0.16053	0.26008	0.15747	0.14544	0.025501	0.20817	0.054292	0.15615	0.07078	0.18814	0.37612	0.11662	0.16149	0.14063	-3.4771	-3.7646	-4.1708	-3.7104	-4.0271	-3.9604	-3.8333	-4.1354	-3.6937	-3.8063	-4.2104	-3.6083	-4.125	-4.0729	-3.6312	-4.1125	407.763	174.551	163.242	340.639	181.681	160.119	150.567	412.902	362.214	234.090	399.237	84.667	347.349	188.018	90.299	117.086	0.0014806	0.00029581	0.00012406	596.63	4.1172e-06	5.327e-06	691.35	231.01	3.8632e-06	3.923e-06	295.49	128.02	93.321	41.839	3.8455e-06	61.245	0.00026083	0.00024543	6.1722e-05	579.17	2.976e-06	2.7702e-06	655.59	210.67	3.1662e-06	2.8735e-06	260.14	106.53	83.194	34.703	2.6328e-06	47.978	85.830	317.909	198.755	95.272	168.701	336.353	93.648	100.915	155.414	350.612	98.635	103.067	105.287	109.602	278.385	106.237	-8191	255	
3197.765	1	1	0	0	0.327	0.26082	0.11355	0.26611	0.24639	0.18884	0.12719	0.21363	0.10029	0.10995	0.079463	0.22009	0.059925	0.088658	0.14267	0.34218	-3.4833	-3.6542	-4.1021	-3.7333	-3.8875	-4.0146	-3.6167	-4.1458	-3.7396	-3.8146	-4.2375	-3.6042	-3.7792	-4.15	-3.7125	-4.1708	219.048	128.809	216.746	429.685	337.582	184.997	427.817	350.228	121.720	264.384	273.222	405.122	440.816	112.134	184.257	356.268	0.0011376	0.0001196	9.6708e-05	599.93	3.2215e-06	3.8805e-06	691.09	230.7	1.5415e-06	4.3755e-06	297.07	128.41	93.609	41.845	1.1899e-06	61.427	0.00029858	0.00026161	6.6998e-05	603.16	3.3041e-06	2.8873e-06	660.65	217.1	3.2771e-06	2.8591e-06	261.06	109.18	82.816	34.597	2.598e-06	48.895	93.891	396.249	163.169	95.171	118.700	284.325	93.775	100.962	317.795	371.612	98.972	103.113	105.342	109.467	352.276	106.223	-8191	255	
3197.861	1	1	0	0	0.27094	0.22943	0.092336	0.049564	0.10186	0.20773	0.075654	0.35375	0.026915	0.12122	0.27868	0.17823	0.090481	0.24893	0.081921	0.18319	-3.5979	-3.5667	-4.0854	-3.8792	-3.7646	-4.1333	-3.7938	-4.1146	-3.8729	-3.6479	-4.2063	-3.7687	-3.7167	-4.1583	-3.6729	-3.9375	143.433	154.747	303.872	365.590	313.070	146.708	102.586	375.614	229.477	358.204	367.420	436.061	382.428	418.145	407.677	324.634	0.00071502	8.0352e-05	7.2721e-05	599.44	8.3252e-06	2.4458e-06	690.29	230.77	1.2836e-06	5.9008e-06	300.46	128.75	93.513	42.273	6.8539e-06	61.781	0.00028363	0.00025003	6.5572e-05	615.07	3.0951e-06	2.7449e-06	661.97	220.23	3.0388e-06	2.7166e-06	262.97	110.9	81.476	34.364	2.6607e-06	49.542	434.353	189.974	181.642	95.253	328.297	318.539	93.848	100.884	255.126	339.749	98.862	103.000	105.330	109.527	163.734	106.075	-8191	255	
3197.955	1	1	0	0	0.23866	0.047204	0.075277	0.2933	0.1772	0.23555	0.2253	0.27308	0.18447	0.094984	0.1739	0.10127	0.10982	0.10571	0.29313	0.1213	-3.6188	-3.675	-4.0083	-3.8312	-3.6396	-4.1042	-3.8937	-3.9354	-4.0146	-3.6063	-4.1	-3.7354	-3.7729	-4.3313	-3.6333	-3.8917	105.948	221.542	439.716	383.127	244.060	384.000	315.301	349.099	111.014	224.447	427.823	96.194	309.618	393.066	272.422	376.074	0.001025	0.00023425	0.00015829	601.7	1.5053e-07	4.7649e-07	701.98	231.68	3.7419e-06	3.4409e-06	304.49	129.55	94.197	42.401	8.519e-06	61.763	0.00026566	0.00024105	6.8981e-05	622.76	2.9114e-06	2.644e-06	675.69	221.78	2.835e-06	2.5901e-06	269.23	111.65	80.665	34.341	2.9001e-06	49.84	117.735	430.321	129.575	95.215	310.627	110.909	93.626	100.522	359.476	271.355	99.043	103.351	105.343	109.552	217.763	106.163	-8191	255	
3198.028	1	1	0	0	0.27904	0.1629	0.085663	0.027439	0.39372	0.30549	0.16678	0.20235	0.15795	0.18368	0.049018	0.24193	0.18106	0.22569	0.058483	0.15378	-3.7708	-3.6354	-4.1292	-4.1188	-3.6521	-4.2292	-3.8563	-3.8708	-4.0729	-3.6667	-4.1354	-4.1479	-3.7021	-4.2521	-3.7083	-3.8604	120.471	438.684	91.866	241.100	228.869	135.137	378.227	359.759	101.989	285.952	180.596	397.479	398.763	358.855	411.619	322.476	0.00076847	0.0001198	8.0539e-05	599.19	3.8436e-06	1.8855e-06	698.8	230.94	2.7245e-06	3.9289e-06	299.5	128.1	93.682	42.189	7.244e-06	61.353	0.00025658	0.00023603	7.6195e-05	620.53	2.8744e-06	2.6866e-06	689.53	222.64	2.9496e-06	2.7776e-06	276.7	110.97	80.647	34.391	3.2077e-06	49	442.684	379.793	158.640	94.740	299.492	308.788	94.118	100.947	279.653	218.260	98.650	103.280	105.280	109.447	204.207	106.103	-8191	255	
3198.147	1	1	0	0	0.22278	0.35852	0.028142	0.083723	0.28049	0.27465	0.097331	0.13915	0.11673	0.11499	0.1371	0.22116	0.091874	0.30234	0.24991	0.34348	-3.7417	-3.6875	-3.9146	-4.0646	-3.7083	-3.9979	-3.8521	-3.9042	-4.1937	-3.6937	-3.8833	-4.1208	-3.5375	-4.0437	-3.6479	-3.8187	97.854	260.962	262.156	259.859	181.209	389.604	108.875	379.964	263.327	205.034	229.604	253.948	295.691	388.250	203.060	365.767	0.00083197	0.00054763	7.401e-05	594.69	5.2761e-06	6.0906e-06	685.57	229.03	4.3584e-06	6.8483e-06	297.35	127.27	93.887	42.357	1.2712e-06	61.636	0.00024752	0.00023591	7.9425e-05	601.61	2.6376e-06	2.5995e-06	681.74	215.68	2.6721e-06	2.7386e-06	274.96	108.66	79.501	34.817	3.3275e-06	48.66	439.686	91.148	110.887	95.268	430.617	164.439	93.604	100.954	307.980	177.262	98.681	103.159	105.111	109.658	211.705	106.222	-8191	255	
3198.244	1	1	0	0	0.24021	0.1379	0.15717	0.34362	0.11599	0.089541	0.10791	0.50126	0.030375	0.27084	0.035667	0.22123	0.20575	0.056424	0.070067	0.17402	-3.7938	-3.6646	-3.8438	-4.1271	-3.5646	-3.9938	-3.9521	-3.7479	-4.1271	-3.5917	-3.8688	-4.2	-3.6521	-4.1542	-3.9313	-3.5833	334.630	291.539	113.096	405.286	102.916	195.676	120.491	401.092	304.020	301.245	324.138	88.430	87.290	312.005	355.783	98.559	0.00088239	0.00051327	8.5775e-05	595.08	2.1874e-06	6.1852e-06	690.04	228.63	4.8141e-06	4.0328e-06	298.22	127.86	94.413	42.373	5.4041e-06	61.632	0.00024473	0.00026209	8.3151e-05	600.98	2.6581e-06	2.9466e-06	689.95	215.61	2.6927e-06	3.0999e-06	277.69	108.82	80.188	35.977	3.4658e-06	49.052	101.718	131.779	391.183	95.132	329.937	201.799	93.828	101.000	291.791	214.525	98.845	103.204	105.521	109.323	366.536	106.026	-8191	255	
3198.340	1	1	0	0	0.22574	0.22742	0.17563	0.29026	0.17508	0.27457	0.16709	0.11993	0.12613	0.20738	0.22389	0.1134	0.18413	0.18214	0.13402	0.16221	-3.7854	-3.9417	-3.9	-4.1042	-3.6542	-4.1312	-3.9313	-3.9208	-4.3917	-3.7083	-3.9833	-4.0604	-3.5875	-4.1188	-4.0208	-3.7188	293.748	117.768	229.100	399.928	225.561	302.621	210.800	99.867	303.968	350.496	345.786	101.038	333.962	419.060	150.836	311.747	0.0013873	0.00035989	6.9358e-05	596.08	2.1678e-06	6.8836e-06	689.42	232.26	4.5429e-06	3.4847e-06	299.22	128.85	94.69	42.631	1.4744e-06	62.354	0.00026463	0.00031451	8.819e-05	611.25	2.9007e-06	3.4701e-06	695.64	217.65	2.8217e-06	3.3947e-06	274.89	108.48	80.15	36.301	3.0456e-06	48.634	439.687	185.520	251.000	95.069	165.412	227.040	93.672	100.488	176.025	224.095	98.531	103.063	105.288	109.550	331.767	106.175	-8191	255	
3198.436	1	1	0	0	0.253	0.10347	0.079973	0.098633	0.15716	0.12637	0.25677	0.11437	0.21021	0.22404	0.042801	0.07814	0.38864	0.42819	0.17649	0.081878	-3.8292	-3.725	-3.6958	-4.3187	-3.4792	-4.0729	-4.0625	-3.6458	-4.1125	-3.9896	-3.8646	-4.1729	-3.7542	-3.9938	-4.0917	-3.5292	418.652	286.764	142.857	424.723	423.909	312.575	392.815	385.719	195.107	372.730	341.407	339.784	392.963	363.178	343.482	141.842	0.0015122	0.00024786	0.00012725	604.54	8.1038e-06	2.7161e-06	700.66	232.04	6.3616e-06	3.767e-06	301.59	129.14	94.902	42.526	1.7308e-06	62.509	0.00025345	0.00030338	7.6871e-05	600.82	2.8721e-06	3.4181e-06	687.07	215.59	2.9059e-06	3.3449e-06	269.8	107.33	81.108	36.082	2.7929e-06	48.021	84.080	164.845	314.430	95.177	163.839	163.442	93.484	100.972	214.772	86.643	98.942	103.180	105.613	109.908	387.668	106.085	-8191	255	
3198.532	1	1	0	0	0.10821	0.21234	0.14266	0.21858	0.14145	0.06606	0.26815	0.19274	0.11727	0.032702	0.052847	0.30942	0.10913	0.13068	0.15464	0.24092	-3.675	-3.7146	-3.6437	-4.0833	-3.5771	-3.9458	-4.0583	-3.6188	-4.1271	-3.9771	-3.6396	-4.4583	-3.8458	-3.8292	-4.0979	-3.8542	82.929	358.696	300.719	385.702	130.658	421.100	282.291	364.032	124.400	174.464	173.847	425.762	91.314	93.382	313.575	375.415	0.0015575	0.00024077	1.5676e-05	600.33	4.5856e-06	2.7167e-06	690.85	231.21	3.9295e-06	1.8552e-06	296.72	128.7	94.685	42.307	2.084e-06	61.793	0.00026427	0.00028927	7.1019e-05	588.08	2.9847e-06	3.1617e-06	667.59	211.85	3.114e-06	3.2006e-06	265.62	106.55	82.971	35.796	2.7939e-06	47.894	435.089	343.804	194.758	94.786	198.910	387.404	93.528	100.682	178.936	117.002	98.477	102.935	105.255	109.511	422.803	106.179	-8191	255	
3198.653	1	1	0	0	0.12901	0.22653	0.2007	0.074678	0.1503	0.1269	0.10742	0.27487	0.22653	0.12856	0.19662	0.10239	0.018986	0.4086	0.10513	0.27199	-3.775	-3.9188	-3.5771	-4.1562	-3.9646	-3.7458	-4.1438	-3.6813	-3.8375	-3.9792	-3.7354	-4.3	-3.8688	-3.8125	-4.0854	-3.7708	397.693	294.148	348.094	135.831	250.659	116.189	381.135	394.355	89.661	259.620	169.218	325.195	345.471	442.201	255.340	359.074	0.0011104	0.00019203	7.4644e-05	597.2	6.5351e-06	3.1446e-06	684.29	230.59	4.9015e-06	5.3182e-06	296.03	128.74	94.46	42.417	8.9395e-07	62.253	0.00029279	0.00028002	6.9604e-05	589.25	3.213e-06	3.0032e-06	660.02	212.31	3.2532e-06	2.9812e-06	262.23	107.06	83.551	35.196	2.6089e-06	48.211	436.125	401.867	235.584	95.013	192.458	318.780	93.623	100.924	294.914	285.883	98.787	103.260	105.561	109.679	392.264	106.222	-8191	255	
3198.724	1	1	0	0	0.33384	0.13533	0.053967	0.17217	0.15322	0.21428	0.19865	0.2104	0.27272	0.084295	0.18639	0.1071	0.16328	0.26033	0.26587	0.22745	-3.575	-3.8667	-3.7104	-4.0917	-3.7146	-3.625	-4.2792	-3.7458	-3.7917	-3.9604	-3.5917	-4.1521	-3.9479	-3.6479	-4.1833	-3.7354	187.795	128.432	441.033	405.515	343.357	305.330	341.553	430.089	204.728	94.514	105.346	375.736	268.508	437.784	409.794	368.086	0.0011434	0.00037921	1.6209e-05	597.35	2.1341e-06	2.659e-06	689.48	230.75	5.1894e-07	3.518e-06	298.04	129.62	94.284	42.865	2.5669e-06	62.658	0.0002864	0.00024726	6.2494e-05	587.87	2.9567e-06	2.5588e-06	645.67	210.59	2.8256e-06	2.4592e-06	254.26	106.62	80.47	34.29	2.2678e-06	48.415	85.347	338.956	175.270	95.048	196.753	366.230	93.797	100.931	427.710	339.526	98.939	103.358	105.146	109.560	312.331	106.050	-8191	255	
3198.845	1	1	0	0	0.22137	0.27434	0.012783	0.04766	0.056081	0.093989	0.30567	0.22926	0.13805	0.19406	0.13429	0.30034	0.14794	0.20152	0.057656	0.13897	-3.3875	-4.0813	-3.5354	-4.1937	-3.7979	-3.4854	-4.2833	-3.7896	-3.8583	-4.0354	-3.7792	-4.1937	-3.7854	-3.7687	-4.2167	-3.9167	116.755	369.315	216.371	321.147	427.697	404.908	112.541	365.010	216.670	323.058	102.913	419.797	83.594	145.129	394.990	182.198	0.0011372	8.3411e-05	4.4977e-05	601.75	4.3903e-06	2.9983e-06	696.35	232.12	3.6026e-06	2.2018e-06	302.34	130.9	94.42	43.215	6.9048e-06	63.365	0.00025312	0.00022075	5.7235e-05	593.96	2.7258e-06	2.4117e-06	648.21	215.1	2.7297e-06	2.4459e-06	258.26	109.75	80.785	34.604	2.4441e-06	49.803	86.942	374.944	180.005	95.229	304.514	332.313	93.743	100.887	308.501	178.529	98.541	103.351	105.565	109.553	194.054	106.365	-8191	255	
3198.941	1	1	0	0	0.052802	0.08513	0.15767	0.01978	0.15292	0.13643	0.040069	0.2162	0.16735	0.17634	0.26696	0.14784	0.07568	0.17103	0.11296	0.32785	-3.3729	-4.0208	-3.5479	-4.1146	-4.1292	-3.6104	-4.0042	-3.8292	-3.8333	-4.1271	-3.6188	-3.9062	-3.9396	-3.5125	-4.0625	-3.9792	419.095	424.582	148.959	259.294	365.092	338.063	339.026	344.916	334.831	198.257	392.558	97.447	318.244	281.144	184.832	368.270	0.00091643	0.00011554	0.00010481	604.63	4.5034e-06	2.4782e-06	703.92	233.68	3.1364e-06	3.3078e-07	303.1	130.58	95.077	42.974	4.9915e-06	63.059	0.00025471	0.0002285	6.4136e-05	616.23	2.7707e-06	2.5194e-06	667.52	220.41	2.6692e-06	2.408e-06	263.02	109.98	79.032	34.051	2.4749e-06	49.067	92.885	260.527	127.870	94.786	306.936	236.888	93.678	101.020	315.020	288.285	98.734	103.285	105.260	109.893	195.528	106.268	-8191	255	
3199.035	1	1	0	0	0.15879	0.32505	0.22637	0.031149	0.20212	0.10521	0.054083	0.094921	0.15059	0.11522	0.15967	0.069581	0.032153	0.13638	0.26801	0.033503	-3.3354	-4.1417	-3.7854	-3.9667	-4.0396	-3.5146	-4.1729	-3.9562	-3.7104	-4.1083	-3.925	-3.9083	-3.9542	-3.6479	-4.0021	-4.0542	263.806	173.292	284.940	422.750	114.875	329.672	331.883	118.770	149.413	218.653	213.820	380.405	358.034	325.671	279.673	130.538	0.00091525	0.0002208	0.000184	595.08	2.4234e-06	8.1904e-07	695.29	230.73	3.1393e-06	2.6676e-06	300.12	129.1	94.753	42.814	6.7114e-06	62.768	0.00022081	0.0002001	6.2566e-05	593.15	2.3502e-06	2.1756e-06	656.21	212.95	2.3242e-06	2.1395e-06	260.59	106.87	76.756	33.552	2.5307e-06	47.95	439.699	219.280	125.921	94.932	298.823	204.654	93.765	100.854	296.734	271.788	98.893	103.055	105.282	109.808	187.263	106.145	-8191	255	
3199.133	1	1	0	0	0.042863	0.20879	0.10631	0.12729	0.037191	0.14421	0.27292	0.25904	0.09826	0.093749	0.24588	0.027788	0.24616	0.20695	0.17476	0.12118	-3.4167	-4.0813	-3.8271	-3.8958	-4.0792	-3.7646	-4.0604	-4.1125	-3.8271	-4.1333	-3.9	-3.8646	-4.1646	-3.7687	-4.0396	-4.1667	189.412	115.085	291.968	300.154	208.996	86.709	426.232	355.697	150.163	423.330	433.027	287.612	378.413	360.019	272.331	206.562	0.0010331	0.0002756	8.1073e-05	597.33	2.8e-06	5.544e-06	691.02	230.09	1.4498e-06	4.88e-06	299.3	129.18	94.082	43.054	4.1845e-06	62.35	0.00020578	0.00019318	6.5396e-05	582.54	2.2229e-06	2.1643e-06	661.71	210.45	2.2611e-06	2.2456e-06	265.22	106.53	77.283	34.276	2.8963e-06	48.345	91.621	90.743	133.489	95.070	239.511	200.481	94.152	100.843	324.552	219.503	98.801	102.973	105.452	109.623	209.636	106.030	-8191	255	
3199.252	1	1	0	0	0.21039	0.1333	0.049229	0.14376	0.078195	0.27203	0.10979	0.018438	0.066603	0.37477	0.20074	0.20629	0.13263	0.20548	0.24272	0.06714	-3.3375	-3.9771	-3.8042	-3.9104	-4.1667	-3.6646	-3.8521	-3.9833	-3.5375	-4.0979	-4.0396	-3.7812	-4.1937	-3.8667	-3.9167	-4.1146	143.397	126.567	263.017	373.276	403.492	245.968	343.789	189.116	151.568	372.122	415.654	349.452	394.008	393.944	200.916	339.539	0.00086601	0.00060589	3.1746e-05	597.7	7.1362e-06	6.8579e-06	691.12	230.72	4.2635e-06	8.5102e-06	299.57	129.51	94.92	43.238	3.5994e-06	63.114	0.00022035	0.0002299	7.5499e-05	590.11	2.3995e-06	2.5775e-06	676.88	212.2	2.3949e-06	2.6864e-06	270.67	107.31	77.935	35.181	2.9503e-06	48.325	84.082	169.395	431.232	95.177	268.967	186.871	93.625	100.575	392.015	216.953	98.680	103.256	105.189	109.455	314.407	106.036	-8191	255	
3199.324	1	1	0	0	0.12389	0.11498	0.13233	0.049758	0.16487	0.22617	0.11974	0.056987	0.2131	0.087877	0.14023	0.025053	0.050277	0.12028	0.17185	0.13749	-3.2729	-4.1417	-3.9042	-3.75	-4.1	-3.7062	-3.8875	-4.1771	-3.4896	-4.0938	-4.0458	-3.775	-4.2333	-3.8229	-3.7271	-4.1708	307.175	145.135	116.201	200.574	239.378	376.610	340.254	181.058	112.238	252.069	357.156	239.556	206.007	130.105	412.607	362.436	0.0011776	0.00054498	2.8527e-05	603.17	1.9613e-06	6.5525e-06	695.82	232.51	5.1547e-06	5.0475e-06	302.06	130.58	95.226	43.168	3.2181e-06	63.406	0.00021658	0.00025184	7.266e-05	587.2	2.3279e-06	2.7811e-06	671.47	210.32	2.2711e-06	2.7293e-06	265.21	106.16	77.206	35.408	2.6186e-06	48.085	95.347	126.096	253.302	95.055	292.804	189.576	93.668	100.878	198.196	182.883	98.902	103.012	105.416	109.573	267.367	106.402	-8191	255	
3199.445	1	1	0	0	0.19367	0.085747	0.065095	0.088289	0.1027	0.22872	0.22143	0.4451	0.045484	0.21509	0.11668	0.14776	0.1247	0.2704	0.19603	0.12261	-3.3042	-3.9813	-3.8604	-3.5979	-4.0292	-3.8417	-3.8229	-4.3292	-3.7458	-3.9938	-4.0563	-3.7958	-4.0208	-3.9125	-3.8583	-4.2625	194.986	211.740	301.868	214.857	389.411	355.526	415.113	417.744	323.815	278.498	223.613	175.872	436.230	108.011	242.078	333.577	0.0013307	0.00018348	0.00011118	601.89	4.474e-06	3.1582e-06	701.58	231.65	4.5486e-06	3.7965e-06	300.85	130.52	95.802	42.914	5.6117e-06	62.762	0.00021234	0.00025788	6.691e-05	582.43	2.3997e-06	2.8947e-06	666.6	209.23	2.4376e-06	2.9159e-06	263.43	106.11	79.391	35.92	2.6998e-06	48.124	93.789	95.323	275.662	95.092	173.815	206.593	93.786	101.158	182.337	198.857	98.688	103.249	105.622	109.392	336.810	106.162	-8191	255	
3199.541	1	1	0	0	0.11868	0.21982	0.26589	0.080374	0.15857	0.12894	0.23074	0.11557	0.14722	0.12163	0.088911	0.1406	0.11231	0.45172	0.24378	0.12125	-3.2375	-3.925	-3.95	-3.575	-3.9688	-3.8167	-3.8333	-4.0938	-3.5042	-3.8375	-3.9958	-3.6229	-3.8542	-3.9396	-3.6562	-4.2104	408.952	174.700	125.851	299.521	389.371	336.075	361.681	316.217	172.820	280.169	398.269	352.489	381.602	398.935	206.699	259.920	0.0016013	0.00050874	5.4954e-05	597.41	7.9745e-06	4.5193e-06	686.17	229.46	6.5142e-06	3.0401e-06	297.14	128.77	94.408	42.567	2.0234e-06	62.378	0.00025467	0.0002929	7.2352e-05	590.09	3.0141e-06	3.3234e-06	670.25	212	3.0903e-06	3.2566e-06	265.72	106.54	82.432	35.909	2.7554e-06	47.968	87.138	348.777	192.406	94.811	164.428	299.085	93.805	101.043	221.009	372.683	98.974	103.260	105.344	109.536	414.071	106.038	-8191	255	
3199.637	1	1	0	0	0.28617	0.10208	0.25573	0.037289	0.17198	0.20347	0.17065	0.19362	0.11178	0.092798	0.20117	0.090165	0.26228	0.26977	0.10373	0.20298	-3.3	-3.8333	-4.0958	-3.6688	-3.9458	-3.8646	-3.7417	-4.1583	-3.5417	-3.6688	-4.0833	-3.6937	-4.0667	-4.0208	-3.5354	-4.2042	221.162	416.223	158.890	133.188	176.870	233.421	341.181	403.496	209.667	220.874	116.651	288.994	107.640	411.738	420.865	305.592	0.0012523	8.7162e-05	4.5063e-05	593.62	9.1245e-06	1.444e-06	688.83	231.48	4.0511e-06	3.0057e-06	295.86	129.24	94.17	42.469	6.5278e-07	62.331	0.00028345	0.0002801	6.9103e-05	583.81	3.1258e-06	3.0162e-06	661.06	211.1	3.198e-06	3.0105e-06	262.13	107	83.514	35.517	2.7098e-06	48.493	435.525	359.683	424.089	94.692	176.429	137.684	93.535	100.850	180.138	331.152	98.910	103.119	105.116	109.682	366.481	106.068	-8191	255	
3199.733	1	1	0	0	0.15882	0.20375	0.22092	0.13774	0.086023	0.14701	0.30787	0.047283	0.21717	0.15268	0.17621	0.06455	0.2957	0.15026	0.10169	0.17474	-3.2125	-3.6104	-4.2125	-3.5583	-3.875	-3.9062	-3.6104	-4.0813	-3.9562	-3.6083	-4.1208	-3.6646	-3.9479	-4.0792	-3.3979	-4.2625	195.406	137.396	414.043	282.003	292.949	409.199	346.477	113.500	87.455	91.436	332.018	437.198	171.917	439.174	408.191	163.234	0.0013453	0.0002926	4.8581e-05	596.63	5.7921e-06	2.1116e-06	684.34	230.65	1.9376e-06	3.0958e-06	296.91	129.68	93.824	42.402	4.2917e-06	62.986	0.00030641	0.00027334	6.934e-05	598.3	3.3961e-06	3.009e-06	664.18	217.04	3.4988e-06	3.1097e-06	266.04	111.14	86.192	35.907	2.898e-06	50.593	90.220	297.914	97.082	95.394	172.498	294.413	93.451	100.614	340.321	410.550	98.413	103.180	105.601	109.639	357.158	106.558	-8191	255	
3199.854	1	1	0	0	0.16815	0.068843	0.20453	0.08581	0.18886	0.10191	0.16637	0.19413	0.071388	0.079672	0.15675	0.1563	0.022529	0.078439	0.14048	0.14906	-3.5062	-3.625	-4.0625	-3.7188	-3.825	-4.1042	-3.6292	-4.0583	-3.9542	-3.7	-4.1125	-3.7083	-3.7875	-4.2167	-3.6125	-4.0229	416.517	428.447	170.815	114.012	279.013	116.502	364.377	367.883	179.271	344.960	84.529	369.414	169.120	97.062	241.565	391.312	0.00075168	0.00027256	9.8215e-05	596.09	7.5008e-06	3.7581e-06	692.52	230.8	6.4383e-06	3.6454e-06	301.02	130.99	94.165	42.857	4.2894e-06	63.257	0.00033428	0.00029364	7.6245e-05	631.15	3.7067e-06	3.2983e-06	682.26	227.77	3.7548e-06	3.3501e-06	273.99	116.53	87.422	36.436	3.1719e-06	52.472	83.044	348.618	230.621	95.281	376.461	280.073	93.467	100.928	342.571	328.658	98.549	103.363	105.325	109.236	195.659	106.546	-8191	255	
3199.948	1	1	0	0	0.17592	0.12297	0.18768	0.2743	0.13192	0.13135	0.052297	0.12367	0.070186	0.16398	0.036241	0.17619	0.089089	0.038336	0.19483	0.25972	-3.6208	-3.4979	-4.0396	-3.9729	-3.7771	-4.0667	-3.5312	-4.0042	-3.9646	-3.6229	-4.1625	-3.9813	-3.7771	-4.1833	-3.7313	-4.0083	86.554	417.893	110.560	415.403	340.814	406.826	348.832	241.332	375.319	372.712	209.879	346.421	259.339	104.165	367.907	263.745	0.00046671	0.00035417	0.00026561	602.4	8.0634e-06	4.298e-06	695.12	229.99	2.4505e-06	1.6871e-06	299.45	130.08	93.902	42.923	7.482e-06	62.331	0.00033618	0.00030087	8.222e-05	654.32	3.6083e-06	3.2536e-06	688.54	229.59	3.4374e-06	3.1032e-06	274.06	115.91	84.247	35.815	3.2412e-06	52	438.702	398.253	127.960	95.036	318.116	207.316	93.753	101.001	339.469	408.962	98.956	103.184	105.525	109.557	194.014	106.241	-8191	255	
3200.021	1	1	0	0	0.20368	0.31381	0.16017	0.23027	0.12206	0.16803	0.095171	0.17288	0.19655	0.051806	0.074722	0.044177	0.17794	0.095542	0.034927	0.17994	-3.4771	-3.5104	-3.9042	-3.9813	-3.5604	-4.2521	-3.7	-4.025	-3.8854	-3.5979	-4.1604	-3.9958	-3.5667	-4.3021	-3.6625	-3.9833	407.069	126.711	435.629	129.842	185.425	258.946	400.377	396.700	314.481	142.990	165.985	170.394	186.915	399.052	420.608	344.407	0.00094123	0.00059489	0.00020793	594.44	2.2959e-06	1.6169e-06	687.36	227.66	1.6576e-06	5.1697e-06	296.98	128.18	93.491	42.337	6.7673e-06	61.506	0.00030942	0.00028288	8.6585e-05	647.2	3.4321e-06	3.1754e-06	699.35	230.31	3.4601e-06	3.1778e-06	281.57	115.59	84.314	35.73	3.7395e-06	51.667	99.340	266.263	105.221	95.162	402.564	358.493	93.710	100.715	430.361	418.005	99.034	103.303	104.925	109.720	154.386	105.955	-8191	255	
3200.118	1	1	0	0	0.12337	0.28044	0.04627	0.11314	0.11313	0.15343	0.16629	0.14444	0.012428	0.25462	0.2173	0.067685	0.19833	0.14163	0.067024	0.28449	-3.6979	-3.7562	-4.0167	-4.0354	-3.5979	-4.1542	-3.775	-3.9958	-4.1792	-3.8083	-4.1521	-4.0437	-3.6583	-4.1292	-3.8354	-3.9667	190.639	191.344	146.676	102.419	207.630	311.348	323.480	159.040	250.103	83.160	367.848	336.562	234.511	103.402	289.936	323.113	0.00098571	0.00030952	0.00024638	585.83	7.5274e-07	4.812e-06	685.16	228.03	2.7847e-06	2.177e-06	295.9	127.23	92.445	42.208	3.9042e-06	61.618	0.00031622	0.00029499	9.9345e-05	647.26	3.5446e-06	3.3974e-06	722.94	231.65	3.6708e-06	3.5561e-06	295.67	116.46	85.421	36.571	4.2414e-06	51.688	432.453	162.679	128.575	94.937	430.863	142.123	93.602	100.802	396.157	140.724	98.828	103.535	105.342	109.664	185.563	106.360	-8191	255	
3200.236	1	1	0	0	0.13979	0.1123	0.12798	0.21753	0.22289	0.13319	0.17419	0.34287	0.10442	0.098456	0.1474	0.08052	0.19963	0.25545	0.11577	0.25795	-3.7875	-3.6771	-4.0042	-3.8542	-3.5292	-4.0833	-3.9646	-3.7979	-4.0792	-3.6771	-4.0146	-4.0896	-3.7292	-4.1479	-3.8	-3.8063	320.638	103.301	363.829	377.557	202.203	385.412	361.928	399.726	332.958	310.460	415.421	153.114	335.762	423.450	442.057	406.391	0.00087118	0.000622	0.00012146	588.89	6.0647e-06	5.5015e-06	684.11	227.27	1.9635e-06	5.7005e-06	294.73	127.45	92.832	42.422	4.0116e-06	62.346	0.0003177	0.00031665	0.0001052	635.44	3.3534e-06	3.4588e-06	718.48	223.62	3.2307e-06	3.4669e-06	289	112.67	82.742	36.652	3.8888e-06	50.297	118.479	145.330	128.160	95.311	283.327	181.013	93.611	100.673	317.389	197.871	98.784	103.137	105.562	109.858	325.937	106.133	-8191	255	
3200.333	1	1	0	0	0.27281	0.1596	0.084978	0.062884	0.13655	0.051923	0.052099	0.218	0.12038	0.19197	0.15614	0.16017	0.09576	0.17853	0.28039	0.13233	-3.7938	-3.5333	-4.0375	-4.1229	-3.5	-3.9604	-3.8958	-3.8167	-4.1708	-3.8771	-3.9562	-4.0979	-3.5687	-4.35	-3.9604	-3.8063	169.090	213.003	85.816	405.996	117.740	178.912	391.373	337.356	86.399	160.392	373.768	412.545	358.492	362.575	130.030	211.740	0.00091679	0.00076824	0.00014657	589.22	2.6789e-06	6.0788e-06	685.74	230.14	8.7539e-07	1.0555e-05	296.66	129.16	93.828	42.86	4.4382e-06	62.704	0.00028098	0.00031356	9.3243e-05	612.74	2.9483e-06	3.4285e-06	700.83	218.52	2.9367e-06	3.4995e-06	280.92	110.47	80.869	36.791	3.402e-06	49.72	86.276	148.708	253.807	94.820	242.148	235.056	93.761	101.081	246.137	196.866	98.633	103.367	105.752	109.832	346.016	106.185	-8191	255	
3200.429	1	1	0	0	0.21058	0.2705	0.11257	0.25203	0.13329	0.13133	0.11277	0.043794	0.19069	0.24254	0.074011	0.24547	0.38903	0.26576	0.093411	0.2737	-3.7417	-3.575	-3.5896	-4.2854	-3.6521	-4.075	-4.1146	-3.8375	-4.0563	-3.7396	-3.9562	-4.3187	-3.7208	-4.0375	-3.9854	-3.7979	170.259	122.798	217.397	194.499	423.309	215.322	377.242	107.568	408.520	393.737	218.128	419.136	135.536	437.229	435.372	413.401	0.0011511	0.00031379	0.00010315	594.61	8.3329e-06	2.5965e-06	690.54	228.71	6.1252e-06	2.7693e-06	295.52	128.72	94.046	42.747	3.1743e-06	62.104	0.0002633	0.00031721	8.4234e-05	606.1	2.9254e-06	3.5611e-06	689.84	216.36	2.9749e-06	3.5738e-06	273.45	109.04	81.374	36.827	3.1568e-06	48.802	86.176	107.492	295.455	95.301	164.341	132.915	93.688	100.646	182.134	235.640	98.880	102.950	105.120	109.425	308.168	106.238	-8191	255	
3200.525	1	1	0	0	0.063142	0.061382	0.15447	0.28193	0.13037	0.11305	0.12939	0.071621	0.064876	0.093323	0.34901	0.07491	0.141	0.18012	0.14688	0.40015	-3.7521	-3.8208	-3.6063	-4.1354	-3.4625	-3.7646	-4.1188	-3.6437	-4.0083	-3.9458	-3.7375	-4.1833	-3.7292	-3.8937	-4.0292	-3.7917	185.366	256.118	319.451	357.343	247.543	252.196	421.164	259.963	359.539	112.462	376.345	197.393	86.771	326.630	154.962	124.879	0.0015097	0.00018805	0.00013095	592.23	7.8689e-06	3.9612e-06	682.69	227.87	3.3355e-06	3.0227e-06	293.54	126.33	93.319	42.25	3.0418e-06	61.757	0.0002774	0.00031988	7.8017e-05	593.47	3.0591e-06	3.4328e-06	670.34	211.07	3.0566e-06	3.3186e-06	263.97	105.43	81.001	35.709	2.7769e-06	47.537	437.922	378.901	244.500	95.291	134.219	295.397	93.623	100.968	215.724	367.668	98.934	103.373	105.426	109.688	232.108	106.295	-8191	255	
3200.621	1	1	0	0	0.1491	0.12141	0.1222	0.23056	0.2246	0.04978	0.31294	0.18524	0.279	0.096701	0.15654	0.15555	0.22309	0.28165	0.14998	0.15486	-3.6625	-3.7917	-3.5896	-4.1979	-3.6833	-3.8063	-4.1729	-3.7667	-3.8542	-3.9583	-3.8542	-4.1083	-3.7333	-3.925	-4.0563	-3.7	242.388	338.605	208.488	136.287	187.576	143.184	348.737	400.141	440.463	164.155	105.901	436.837	147.719	123.116	86.295	87.365	0.0016046	0.00041375	5.1729e-05	587.99	8.523e-06	4.7627e-06	679.61	227.47	3.3461e-06	1.5983e-06	292.82	127.2	93.363	42.157	2.1871e-06	61.299	0.00027704	0.0002813	6.844e-05	577.45	3.0335e-06	3.0115e-06	654.54	208.1	3.0834e-06	2.9804e-06	259.45	104.99	81.992	35.144	2.7046e-06	47.826	82.833	304.013	198.219	95.049	199.213	366.624	93.667	100.658	184.154	255.695	99.103	103.353	105.130	109.638	325.276	106.008	-8191	255	
3200.717	1	1	0	0	0.054292	0.10573	0.19162	0.21332	0.092669	0.13936	0.10129	0.069945	0.1022	0.094023	0.10521	0.21031	0.07404	0.23835	0.23812	0.46574	-3.7167	-3.9396	-3.6417	-4.2	-3.9208	-3.7896	-4.2063	-3.7521	-3.9042	-3.9354	-3.6354	-4.2438	-3.9271	-3.7979	-4.0583	-3.8812	399.648	434.085	249.471	131.729	192.945	165.824	301.194	282.406	279.751	245.713	88.139	170.274	396.184	169.232	296.452	400.807	0.0013642	0.00041506	9.0805e-05	592.76	6.1731e-06	4.4832e-06	679.82	227.57	6.6259e-07	3.3045e-06	291.85	127.43	92.999	41.967	3.5232e-06	62.003	0.00030455	0.00028358	7.2139e-05	597.48	3.526e-06	3.1794e-06	665.53	215.16	3.5663e-06	3.138e-06	263.6	108.99	84.905	35.38	2.8519e-06	49.396	433.939	306.808	282.164	94.778	246.455	357.439	93.522	100.792	359.054	351.927	98.612	103.411	105.434	109.386	369.842	106.375	-8191	255	
3200.813	1	1	0	0	0.13384	0.096486	0.061638	0.1167	0.13693	0.088057	0.14909	0.065254	0.10499	0.10929	0.2533	0.18685	0.075359	0.06538	0.047218	0.067102	-3.6312	-4.1771	-3.5354	-4.2188	-3.925	-3.6937	-4.2042	-3.7188	-3.7062	-4.1875	-3.6125	-4.0708	-3.8979	-3.7729	-4.2625	-3.9562	400.637	401.642	270.399	409.785	117.049	167.002	297.484	299.044	197.184	321.488	157.104	377.691	274.090	419.053	124.348	383.779	0.0010644	2.2024e-05	0.00010545	589.85	3.7037e-06	3.1615e-06	684.36	227.62	6.4529e-06	2.4488e-06	295.29	127.78	92.202	41.93	5.6718e-06	61.778	0.00032147	0.00027997	7.12e-05	610.03	3.44e-06	2.9819e-06	660.16	218.52	3.3704e-06	2.9954e-06	262.75	110.96	83.629	35.003	2.7716e-06	50.071	87.790	159.786	173.157	94.947	281.982	171.247	93.774	100.986	348.526	390.353	98.776	103.210	105.338	109.392	226.040	106.474	-8191	255	
3200.934	1	1	0	0	0.065674	0.18789	0.26422	0.4089	0.24389	0.034192	0.16298	0.12369	0.095627	0.17183	0.25868	0.11488	0.18687	0.036724	0.2549	0.1763	-3.4938	-4.1396	-3.6208	-4.0521	-4.1125	-3.8063	-4.1042	-3.7125	-3.8104	-3.9917	-3.5979	-4.0271	-3.8875	-3.7479	-4.0312	-3.8167	158.911	313.960	429.394	411.985	437.462	239.737	91.192	352.199	118.429	343.172	386.503	409.871	368.791	306.808	380.694	115.572	0.00082299	0.000422	0.00011036	590.68	8.9474e-07	4.0477e-06	682.78	227.47	2.3903e-06	9.4193e-07	293.55	127.35	92.188	41.806	2.3519e-06	61.089	0.00029633	0.00025989	6.8098e-05	611.5	3.0522e-06	2.7165e-06	653.95	217.75	2.9849e-06	2.6971e-06	260.65	110.7	80.724	34.295	2.8365e-06	49.917	109.530	222.636	92.169	95.073	383.371	295.740	93.719	100.762	405.450	332.976	98.478	103.421	105.257	109.790	187.503	106.464	-8191	255	
3201.028	1	1	0	0	0.04283	0.074645	0.051113	0.26958	0.10466	0.136	0.13314	0.060884	0.051501	0.043428	0.18984	0.20764	0.13439	0.13942	0.12834	0.15353	-3.2979	-4.2688	-3.6437	-3.9167	-4.0437	-3.7333	-4.3146	-3.9938	-3.6292	-4.0563	-3.7042	-3.95	-4.0354	-3.5438	-4.0229	-4.1125	90.730	409.936	197.659	324.491	152.521	292.880	277.398	331.043	114.439	257.557	348.195	365.917	171.852	113.084	363.676	413.993	0.00074397	0.00019828	8.1892e-05	582.41	4.1962e-06	1.1296e-06	679.96	224.18	5.8408e-07	5.2057e-07	291.8	124.95	91.611	41.389	6.1501e-06	60.2	0.00028046	0.00025723	7.6202e-05	622.21	3.1474e-06	2.8785e-06	672.32	221.95	3.1582e-06	2.8976e-06	269.15	111.34	80.518	34.069	3.1982e-06	49.363	434.238	323.226	423.617	94.952	285.570	343.935	93.776	100.982	425.107	284.305	99.269	103.263	105.288	109.538	187.649	106.291	-8191	255	
3201.126	1	1	0	0	0.19291	0.026313	0.11815	0.050436	0.26611	0.033112	0.063474	0.107	0.14607	0.26268	0.11775	0.14064	0.03153	0.081713	0.15398	0.21806	-3.3063	-4.0437	-3.4896	-3.9875	-4.0625	-3.5563	-4.0667	-3.875	-3.5938	-4.1104	-3.6688	-3.9292	-4.0708	-3.6688	-3.9854	-4.1479	206.354	190.743	275.596	92.599	94.696	118.312	343.415	221.097	210.758	82.852	370.882	333.891	303.558	402.234	350.008	313.724	0.0007592	0.00029001	0.00014831	579.06	7.6428e-07	1.1896e-06	675.4	224.06	1.0753e-06	5.6396e-06	291.43	125.28	91.472	41.354	5.8245e-06	60.245	0.00027244	0.00025002	8.1642e-05	610.19	2.8902e-06	2.6899e-06	673.45	215.32	2.8413e-06	2.666e-06	268.87	108.05	78.269	33.664	3.1551e-06	48.018	94.954	387.524	98.240	95.167	345.053	431.302	93.744	100.785	206.530	184.627	98.699	103.221	105.399	109.587	118.835	106.212	-8191	255	
3201.221	1	1	0	0	0.24177	0.10839	0.34473	0.39308	0.14303	0.039059	0.11048	0.28585	0.14632	0.091525	0.16723	0.081882	0.20883	0.035922	0.091934	0.211	-3.3042	-4.1396	-3.8042	-3.8771	-4	-3.7604	-4.0042	-4.1167	-3.5208	-3.8792	-3.9458	-3.7729	-4.2396	-3.7458	-3.9313	-4.1417	402.993	229.277	334.884	434.754	117.930	329.899	98.999	353.933	181.106	260.118	360.377	335.077	160.096	213.009	176.893	325.778	0.0008159	0.00058703	0.00013853	580.68	3.2385e-06	4.7262e-06	680.74	225.8	1.9346e-06	9.4092e-06	294.91	126.5	91.873	41.668	1.3873e-06	60.902	0.00024141	0.00023749	7.9883e-05	589.53	2.5828e-06	2.5948e-06	672.6	210.59	2.5491e-06	2.6487e-06	269.5	106.48	77.35	34.211	3.1967e-06	48.1	436.114	137.881	100.925	94.977	342.254	204.993	93.713	101.170	98.480	198.149	98.596	103.583	105.587	109.769	320.516	106.411	-8191	255	
3201.317	1	1	0	0	0.1359	0.18881	0.0478	0.14379	0.12239	0.10574	0.23261	0.37117	0.16559	0.24922	0.089305	0.087844	0.072853	0.05692	0.20374	0.074797	-3.3021	-4.1438	-3.9146	-3.7146	-4.1375	-3.8167	-4.0938	-4.0333	-3.6312	-4.0229	-4.0062	-3.7667	-4.2167	-3.9229	-3.7292	-4.1438	120.406	200.861	379.474	383.161	347.534	210.224	341.360	389.663	299.628	391.853	432.340	159.952	344.676	111.233	172.937	87.176	0.0007876	0.0009394	9.9009e-05	583.94	9.943e-07	7.0829e-06	683.33	225.49	3.028e-06	5.8347e-06	294.87	127.24	92.837	42.03	1.1652e-06	61.385	0.00023788	0.00026469	8.2886e-05	592.4	2.6549e-06	3.0156e-06	684.03	213.2	2.7074e-06	3.1766e-06	275.72	108.3	79.112	35.746	3.3251e-06	48.816	95.662	134.268	244.070	94.980	148.464	198.000	93.783	101.067	271.585	191.176	99.038	103.474	105.537	109.615	151.262	106.566	-8191	255	
3201.413	1	1	0	0	0.057284	0.10526	0.093799	0.10111	0.092928	0.094986	0.23809	0.11728	0.13713	0.18646	0.20699	0.15579	0.074866	0.14071	0.16475	0.17199	-3.1729	-4.1438	-3.8187	-3.6583	-4.1292	-3.7583	-3.8479	-4.2458	-3.6896	-3.8875	-3.9938	-3.6854	-4.1104	-3.9042	-3.7729	-4.2729	203.095	249.642	127.378	199.576	311.493	93.417	356.519	352.545	130.017	95.561	379.730	153.572	143.042	166.858	312.929	119.271	0.00095492	0.00038512	7.0724e-05	586.6	9.5745e-06	4.9176e-06	685.92	226.06	7.857e-06	4.3851e-06	291.59	127.17	92.556	41.9	1.4961e-06	61.275	0.00025148	0.00030107	8.2175e-05	593.07	2.7098e-06	3.2624e-06	675.31	211.09	2.6572e-06	3.2191e-06	266.8	106.08	78.303	35.566	2.8981e-06	47.647	88.003	119.680	261.906	95.153	133.780	157.894	93.554	100.749	211.604	205.170	98.721	103.023	105.342	109.636	333.147	106.322	-8191	255	
3201.534	1	1	0	0	0.1317	0.11337	0.18513	0.21985	0.21114	0.088917	0.20453	0.098402	0.25153	0.084791	0.12686	0.063835	0.0716	0.13756	0.1626	0.052019	-3.2417	-4.0646	-3.9896	-3.6083	-3.8979	-3.9313	-3.7979	-4.2333	-3.7271	-3.8646	-4.0208	-3.7938	-3.9708	-3.9292	-3.5417	-4.2688	178.150	259.531	410.788	222.263	375.841	125.302	332.029	87.310	89.834	366.239	96.019	335.556	410.364	111.702	300.181	395.750	0.0012189	0.00030476	0.00012097	588.24	5.2191e-06	3.253e-06	680.13	225.11	5.1731e-06	1.819e-06	292.1	126.72	92.655	41.719	2.5102e-06	61.245	0.00024386	0.00028718	7.1034e-05	575.78	2.6682e-06	3.1034e-06	655.32	206.29	2.6817e-06	3.0452e-06	258.6	103.52	78.425	34.924	2.5546e-06	46.671	440.546	136.919	323.027	95.553	144.214	152.440	93.769	100.848	191.376	271.180	99.043	103.083	105.266	109.673	159.201	106.390	-8191	255	
3201.630	1	1	0	0	0.081413	0.22894	0.1595	0.22901	0.33796	0.35595	0.034412	0.19141	0.2396	0.097383	0.069861	0.18468	0.20923	0.23765	0.22207	0.12421	-3.35	-3.8667	-4.0583	-3.5542	-4.1229	-3.8104	-3.7083	-4.1917	-3.7229	-3.7438	-4.1375	-3.5187	-4.0208	-3.9667	-3.6583	-4.375	396.714	333.385	283.824	399.113	295.660	354.189	354.523	391.863	213.049	136.559	326.035	382.229	256.011	384.530	369.782	352.621	0.0014025	0.00044392	7.0141e-05	585.39	5.4312e-06	1.9943e-06	678.03	226.49	4.7662e-06	7.991e-06	292.66	127.13	92.611	41.58	2.4682e-06	61.898	0.00024472	0.0002591	6.2558e-05	563.71	2.6926e-06	2.7873e-06	643.77	203.93	2.7825e-06	2.7952e-06	254.87	103.42	79.367	34.408	2.418e-06	46.807	437.577	321.180	317.799	95.332	204.733	128.443	93.523	100.867	202.691	354.343	98.870	103.352	105.283	109.598	115.613	106.526	-8191	255	
3201.726	1	1	0	0	0.17762	0.29888	0.14599	0.10102	0.21533	0.21173	0.095434	0.14883	0.095212	0.19404	0.24388	0.051767	0.11498	0.24404	0.19296	0.10469	-3.2833	-3.9104	-4.0229	-3.5854	-3.9708	-3.9646	-3.6229	-4.2229	-3.8625	-3.8042	-4.3187	-3.6646	-4.0479	-3.9813	-3.5187	-4.1312	402.712	377.797	220.424	415.031	185.603	83.928	380.361	335.078	99.710	419.865	416.261	348.470	197.722	429.017	427.392	406.921	0.0012371	0.00033489	3.5385e-05	588.9	4.1753e-06	4.2412e-06	680.5	226.33	1.8534e-06	8.7478e-07	294.33	127.6	93.015	42.071	2.0954e-06	62.428	0.0002588	0.00024076	6.0199e-05	565.36	2.815e-06	2.5998e-06	640.21	205.46	2.8648e-06	2.5579e-06	252.54	104.58	79.918	34.124	2.3095e-06	47.639	84.543	279.815	215.401	94.960	145.842	355.401	93.999	100.835	395.893	381.246	98.884	103.580	105.726	109.816	137.935	106.513	-8191	255	
3201.822	1	1	0	0	0.13299	0.17072	0.22103	0.26053	0.18358	0.16687	0.29476	0.12926	0.080832	0.051113	0.12924	0.056001	0.13459	0.13206	0.11534	0.019171	-3.6583	-3.5917	-4.0896	-3.5646	-3.8625	-4.0333	-3.675	-4.1375	-3.9125	-3.6375	-4.2958	-3.7771	-3.8187	-4.2188	-3.6896	-4.1833	161.076	190.398	374.004	134.246	195.728	327.749	373.084	343.825	371.312	121.483	341.510	153.461	123.946	308.226	137.203	111.201	0.00089944	0.00019323	5.5028e-05	592.98	5.4613e-07	1.2609e-06	684.14	228.43	2.4594e-06	1.4123e-06	296.35	129.83	92.781	42.451	1.126e-06	62.636	0.00026419	0.0002289	5.8966e-05	579.31	2.8404e-06	2.4839e-06	639.39	208.8	2.7925e-06	2.4295e-06	252.68	106.71	79.398	34.088	2.2428e-06	48.807	90.112	346.603	87.217	95.189	304.902	373.441	93.541	101.075	425.685	110.520	98.821	103.409	105.417	109.549	114.841	106.581	-8191	255	
3201.894	1	1	0	0	0.27648	0.043263	0.032234	0.2275	0.047076	0.09256	0.27193	0.060409	0.14207	0.060747	0.17661	0.39594	0.089969	0.097067	0.088585	0.04573	-3.6625	-3.6792	-4.275	-3.6688	-3.9104	-4.125	-3.8229	-4.1521	-3.9958	-3.6646	-4.4437	-3.775	-3.95	-4.0771	-3.5083	-4.2708	123.847	340.619	417.111	345.861	440.747	369.992	336.489	123.792	196.454	368.725	295.686	123.921	364.438	391.611	399.577	109.363	0.00071588	0.00035848	2.1053e-05	591.92	4.335e-06	1.2081e-06	685.29	228.3	2.968e-06	2.8265e-06	296.63	128.29	92.191	41.982	4.6222e-06	62.361	0.00025542	0.00022311	5.8681e-05	592.58	2.7635e-06	2.4509e-06	643.85	213.2	2.7535e-06	2.4671e-06	255.11	108.86	79.022	34.007	2.4655e-06	49.248	92.102	220.770	377.814	95.033	420.515	437.522	93.588	100.854	381.911	367.195	98.726	103.302	105.414	109.796	147.135	106.464	-8191	255	
3202.013	1	1	0	0	0.036982	0.085818	0.058022	0.092731	0.11544	0.35119	0.04225	0.12954	0.076516	0.10851	0.36388	0.29187	0.2248	0.12974	0.095476	0.15272	-3.6063	-3.5292	-4.1937	-3.9688	-3.6896	-4.0229	-3.6979	-3.8958	-3.8667	-3.4313	-4.1188	-3.9542	-3.7042	-4.1646	-3.6979	-3.9479	425.098	387.555	368.174	322.124	102.112	421.145	353.624	278.329	196.568	172.362	331.206	380.732	103.505	339.757	102.304	376.595	0.00070838	0.00031495	0.00012	588.06	3.294e-06	2.4786e-06	676.02	225.85	1.5652e-06	1.2554e-06	294.78	127.22	92.336	41.369	7.671e-06	61.558	0.00025127	0.00022357	6.3905e-05	599.16	2.6899e-06	2.4558e-06	649.21	214.41	2.6598e-06	2.4089e-06	257.62	108.25	77.548	33.47	2.64e-06	48.615	88.309	226.238	124.746	95.134	96.180	185.345	94.007	100.687	299.615	409.638	98.825	103.154	105.069	109.840	202.086	106.154	-8191	255	
3202.109	1	1	0	0	0.12997	0.27895	0.11661	0.26439	0.094774	0.10491	0.14027	0.258	0.1675	0.04746	0.094152	0.082592	0.32437	0.096591	0.24119	0.068026	-3.7042	-3.5104	-4.0771	-3.9	-3.7188	-4.0563	-3.7958	-3.7792	-3.9813	-3.5729	-4.1062	-3.8604	-3.4938	-4.2042	-3.825	-3.7854	377.396	366.245	393.548	279.698	329.016	173.250	321.098	367.138	139.473	292.777	122.440	245.690	294.334	97.862	186.600	179.943	0.0011126	0.00015558	0.00016296	583.13	3.3065e-06	1.6518e-06	675.75	224.58	4.4335e-06	1.2609e-06	293.29	127.32	91.417	42.034	4.5983e-06	61.527	0.00023465	0.00021063	6.7966e-05	589.77	2.4962e-06	2.3097e-06	652.22	210.26	2.4611e-06	2.2989e-06	261.19	106.96	76.676	33.545	2.947e-06	48.665	88.848	293.776	102.814	95.086	310.104	334.873	93.673	101.025	144.921	142.899	98.612	103.588	105.600	109.744	212.092	106.186	-8191	255	
3202.207	1	1	0	0	0.22996	0.046056	0.11607	0.12693	0.10268	0.22497	0.17537	0.22718	0.14041	0.15114	0.26019	0.050353	0.091606	0.22394	0.11522	0.20232	-3.7854	-3.5604	-4.0208	-4.0083	-3.6063	-4.2042	-3.8667	-3.8979	-4.0125	-3.6667	-3.8167	-3.8875	-3.7687	-4.0854	-3.7708	-3.8542	306.097	207.914	152.828	196.376	218.081	104.568	323.217	421.451	246.308	375.738	333.772	190.007	236.094	362.992	396.779	380.645	0.0010506	0.0005314	0.00017997	583.79	2.7124e-06	4.3359e-06	679.7	225.64	1.9517e-06	8.334e-06	295.57	126.99	92.347	41.882	4.0832e-06	61.853	0.00024058	0.00022834	7.8036e-05	593.82	2.6213e-06	2.5893e-06	673.89	212.05	2.6237e-06	2.6384e-06	271.21	108.01	78.193	34.538	3.3362e-06	49.077	438.708	142.781	93.898	95.241	374.751	121.886	93.776	100.743	251.668	200.946	98.889	103.476	105.310	109.852	170.990	106.238	-8191	255	
3202.326	1	1	0	0	0.13872	0.2646	0.17747	0.41352	0.090472	0.066436	0.085312	0.24744	0.14911	0.17994	0.23272	0.065777	0.10412	0.057274	0.11724	0.039967	-3.6688	-3.5125	-3.8646	-4.0042	-3.4708	-4.0312	-3.9333	-3.625	-4.2458	-3.7125	-3.9646	-4.0417	-3.5833	-4.0021	-3.8937	-3.7104	232.649	350.109	397.492	431.560	84.947	387.693	427.857	397.637	217.394	154.422	438.495	86.526	186.942	380.426	221.488	441.561	0.00081379	0.00051541	8.1918e-05	586.05	2.1831e-06	6.0199e-06	680.96	225.2	3.1342e-06	6.4518e-06	295.96	128.69	91.784	42.204	2.588e-06	62.091	0.00025346	0.00026914	8.7172e-05	600.63	2.7557e-06	3.0415e-06	689.72	214.01	2.7398e-06	3.095e-06	276.19	108.69	78.51	35.499	3.3089e-06	48.954	439.141	187.214	314.627	95.095	134.375	179.380	93.648	101.061	103.526	191.828	98.733	103.227	105.298	109.733	86.765	106.295	-8191	255	
3202.422	1	1	0	0	0.068249	0.1636	0.23964	0.12684	0.095474	0.24128	0.14091	0.098852	0.15891	0.17751	0.024026	0.0089632	0.13771	0.15912	0.17363	0.31729	-3.7604	-3.7062	-3.6375	-4.1021	-3.5292	-3.9688	-4.025	-3.7833	-4.0292	-4.0771	-4.1292	-4.3146	-3.6688	-3.9	-3.9042	-3.6667	362.766	119.536	112.636	319.015	416.063	90.519	382.071	169.542	274.237	288.193	388.625	137.848	158.096	86.509	384.386	369.576	0.0010443	0.00056646	0.00014369	590.42	1.2751e-06	9.0118e-06	685.54	225.99	4.1958e-06	1.5618e-06	294.1	127.61	92.542	41.957	2.9431e-06	61.515	0.00024454	0.00028421	8.074e-05	592.03	2.5882e-06	3.1069e-06	674.91	209.26	2.5528e-06	3.0736e-06	266.01	106.1	77.215	35.263	2.9015e-06	47.71	120.730	132.638	254.737	95.142	217.800	179.437	93.755	100.619	234.735	269.068	98.776	103.163	105.370	109.490	312.988	106.297	-8191	255	
3202.493	1	1	0	0	0.18324	0.072175	0.077487	0.20257	0.22898	0.20314	0.2425	0.22741	0.11925	0.038465	0.097211	0.23019	0.35868	0.11491	0.22946	0.024129	-3.6354	-3.7271	-3.7438	-4.1875	-3.3312	-3.8979	-3.8833	-3.6583	-4.1813	-3.7313	-3.6896	-4.1896	-3.6542	-3.9833	-3.8604	-3.7771	220.800	386.944	378.500	186.498	425.105	270.763	376.423	306.321	370.971	232.111	343.759	377.865	100.069	434.862	199.781	299.502	0.0013505	0.00042164	5.9057e-05	586.14	1.0949e-05	3.0002e-06	676.12	223.6	5.1238e-06	2.4036e-06	291.37	126.18	91.776	41.287	3.1772e-06	60.719	0.00023988	0.00029075	7.4262e-05	582.72	2.7591e-06	3.3387e-06	667.49	209.47	2.8815e-06	3.3849e-06	265.45	106.03	79.848	35.685	3.0094e-06	47.657	423.146	127.350	199.373	95.014	186.298	341.190	93.369	100.836	148.216	426.918	98.958	103.057	105.671	109.820	250.883	106.491	-8191	255	
3202.614	1	1	0	0	0.16416	0.14345	0.065279	0.2723	0.091723	0.054766	0.11391	0.069472	0.038859	0.091117	0.23643	0.13429	0.1264	0.19531	0.14623	0.083319	-3.6979	-3.7333	-3.4646	-4.0354	-3.6771	-3.8771	-4.0271	-3.6521	-4.0563	-3.8771	-3.7062	-4.0604	-3.8667	-3.7375	-3.9417	-3.65	209.763	188.821	297.126	438.605	264.895	251.642	367.762	378.885	332.906	320.697	337.392	103.231	414.271	294.426	295.014	141.656	0.0016101	0.00026018	3.9051e-05	582.85	1.2261e-05	2.5286e-06	675.11	223.2	1.0976e-05	3.1643e-06	289.94	125.82	91.747	41.491	7.1062e-07	60.907	0.00028668	0.00032032	7.7815e-05	589.46	3.3054e-06	3.58e-06	672.16	211.27	3.435e-06	3.574e-06	267.03	106.97	82.761	35.723	2.9961e-06	47.72	91.566	334.933	305.367	95.155	164.958	338.315	93.557	100.730	195.768	358.542	98.619	103.203	105.396	109.519	83.368	106.197	-8191	255	
3202.710	1	1	0	0	0.14472	0.10279	0.33841	0.085572	0.1323	0.063419	0.17736	0.19933	0.056967	0.16494	0.18611	0.40356	0.31435	0.17356	0.17855	0.13682	-3.6208	-4.0146	-3.5146	-4.1542	-3.6	-3.7875	-4.2104	-3.7542	-3.9313	-3.9229	-3.5583	-4.1917	-3.7	-3.8563	-4.1813	-3.5333	152.237	282.069	292.193	160.435	144.070	200.517	398.709	371.506	274.557	186.681	275.523	441.699	412.147	314.867	206.437	360.931	0.0015126	0.00034592	7.8311e-05	587.72	8.0813e-06	1.1955e-06	678.21	225.92	3.9893e-06	3.8637e-06	292.34	126.94	91.599	41.849	7.2697e-07	62.005	0.00030566	0.00029327	7.1288e-05	581.09	3.2132e-06	3.0287e-06	652.99	207.16	3.1435e-06	2.893e-06	256.4	104.78	80.747	34.386	2.48e-06	47.661	85.376	216.409	284.637	95.216	169.963	100.757	93.615	100.889	220.375	312.568	98.580	103.301	105.389	109.679	314.382	106.300	-8191	255	
3202.806	1	1	0	0	0.11515	0.14999	0.24305	0.17157	0.16145	0.089155	0.32001	0.25825	0.11526	0.041193	0.1668	0.19476	0.059011	0.078051	0.06127	0.19774	-3.5833	-4.0208	-3.5833	-4.1042	-3.7771	-3.5563	-4.2083	-3.5792	-4.0125	-3.9896	-3.3896	-4.0667	-3.9125	-3.7646	-4.0542	-3.8375	94.539	117.471	278.831	220.903	284.712	219.250	351.827	384.551	133.407	343.615	377.317	372.090	426.068	246.174	152.180	355.021	0.0008757	0.00030298	9.1016e-05	587.36	2.7628e-06	2.0367e-06	679.25	227.8	3.0977e-06	4.3083e-06	292.94	128.34	92.544	42.306	4.4237e-06	62.862	0.0002792	0.00024731	6.2563e-05	584.01	3.125e-06	2.7422e-06	650.43	211.32	3.1721e-06	2.7851e-06	257.69	108.15	81.807	34.635	2.5204e-06	49.25	96.176	320.179	249.036	94.920	232.910	302.045	93.819	100.616	119.173	383.232	98.885	103.057	105.045	109.843	273.361	106.371	-8191	255	
3202.927	1	1	0	0	0.15059	0.16293	0.099857	0.10838	0.064539	0.22575	0.38695	0.38478	0.089018	0.17035	0.1925	0.090426	0.16852	0.17999	0.5436	0.080681	-3.3604	-4.0208	-3.625	-4.1396	-3.7229	-3.7208	-4.2396	-3.6354	-3.7417	-4.0125	-3.5792	-4.1396	-3.9437	-3.6312	-4.0458	-3.8854	199.517	266.028	203.002	393.604	190.265	284.723	97.908	362.192	96.625	244.653	381.611	414.382	386.506	122.985	265.139	376.449	0.0006365	0.00037932	0.00012091	593.05	4.276e-06	3.2423e-06	685.17	227.5	5.5983e-06	5.7837e-06	295.54	128.47	91.643	42.083	2.2293e-06	62.119	0.0002819	0.00024819	6.3847e-05	602.6	3.1588e-06	2.8044e-06	659.98	219.32	3.2927e-06	2.9405e-06	262.94	112	82.806	35.006	2.8746e-06	50.729	92.220	181.124	132.486	94.871	263.655	266.307	93.891	100.776	338.796	361.762	98.544	103.464	105.292	109.850	130.317	106.410	-8191	255	
3203.023	1	1	0	0	0.18816	0.087092	0.14359	0.20889	0.12082	0.11121	0.17077	0.059692	0.1648	0.18842	0.10925	0.21417	0.26912	0.083625	0.16301	0.10869	-3.4729	-4.0292	-3.6083	-4.0542	-4.0042	-3.5354	-4.225	-3.7396	-3.7687	-4.1687	-3.6833	-3.8729	-3.9021	-3.7146	-3.8354	-3.9021	214.776	287.449	116.451	128.220	323.350	402.189	126.671	386.688	322.248	210.725	116.428	90.491	421.584	370.174	351.877	408.852	0.0007953	0.00011482	0.00022028	586.39	4.1817e-06	1.216e-06	681.39	225.77	2.0299e-06	1.4088e-06	293.29	127.14	91.047	41.372	3.5926e-06	61.308	0.00030061	0.0002699	7.4003e-05	625.15	3.2728e-06	2.9619e-06	669.39	222.95	3.2993e-06	3.0275e-06	268.19	113.71	82.366	35.03	3.2901e-06	51.295	86.033	415.318	133.047	95.021	370.164	348.490	93.990	101.008	425.196	345.153	98.713	103.103	105.089	109.505	218.418	105.893	-8191	255	
3203.117	1	1	0	0	0.17992	0.13437	0.13348	0.22786	0.15753	0.22595	0.17531	0.13417	0.067638	0.24943	0.40939	0.20123	0.2135	0.21912	0.26182	0.19279	-3.1688	-4.1333	-3.5875	-4.0062	-3.9083	-3.6646	-4.1396	-3.7375	-3.6375	-4.1792	-3.7271	-3.8708	-4.0771	-3.5604	-3.9854	-4.2	88.956	126.669	283.562	106.145	401.507	293.172	290.967	294.704	163.501	108.436	389.810	421.606	405.154	436.265	428.535	406.810	0.0007288	0.00042947	0.00019486	579.72	2.4333e-06	2.1271e-06	679.93	223.48	3.2061e-06	2.4022e-06	291.9	125.75	90.467	41.517	7.4091e-06	61.018	0.00030283	0.00027367	8.3356e-05	625.96	3.1871e-06	2.9048e-06	678.22	221.46	3.196e-06	2.9776e-06	275.2	112.88	81.951	35.006	3.6958e-06	51.046	109.241	229.886	129.151	94.978	82.905	397.696	93.660	100.601	428.024	248.385	98.533	103.180	105.244	109.655	208.359	106.189	-8191	255	
3203.189	1	1	0	0	0.14492	0.11009	0.36786	0.1863	0.14178	0.028872	0.36194	0.22467	0.24999	0.12204	0.17891	0.08007	0.18846	0.13993	0.092436	0.063378	-3.3729	-4.0354	-3.7458	-3.9854	-4.1396	-3.6083	-4.1854	-4.0208	-3.5771	-4.1438	-3.825	-3.9313	-3.9313	-3.6354	-3.85	-4.0687	295.265	392.339	130.821	278.042	157.059	107.650	388.200	212.766	413.578	315.747	83.039	321.740	142.737	362.881	276.356	139.013	0.00087999	0.00046451	0.00017929	579.04	5.1043e-06	3.0945e-06	680.03	223.56	3.8047e-06	3.501e-06	292.26	126.68	91.393	41.862	2.431e-06	61.286	0.00030567	0.00028729	9.5307e-05	627.07	3.2946e-06	3.1328e-06	699.74	221.61	3.247e-06	3.1575e-06	282.05	112	81.251	35.255	3.8059e-06	50.296	108.253	163.385	131.059	94.812	330.818	173.035	93.968	100.753	363.133	142.974	98.783	103.333	105.285	109.649	173.973	105.958	-8191	255	
3203.310	1	1	0	0	0.13067	0.099712	0.20247	0.12297	0.30389	0.13196	0.10248	0.050909	0.15645	0.21026	0.24671	0.10463	0.22068	0.11961	0.10747	0.10993	-3.1562	-4.0687	-3.7396	-3.7979	-3.9479	-3.625	-3.9021	-4.0938	-3.65	-3.9688	-3.9167	-3.6312	-3.95	-3.6937	-3.9229	-4.1188	393.801	379.450	309.811	287.955	190.229	404.810	364.430	128.689	296.815	161.850	416.872	197.802	442.375	282.309	262.930	380.882	0.00078553	0.00079762	0.00011843	579.85	3.0098e-06	7.6434e-06	673.38	222.27	1.829e-06	1.0341e-05	291.25	126.92	91.295	42.076	1.4479e-06	61.933	0.00028468	0.00029132	9.6411e-05	612.01	3.097e-06	3.2822e-06	702.69	217.62	3.061e-06	3.3282e-06	281.79	110.39	80.268	35.815	3.673e-06	49.691	94.902	149.899	121.648	95.162	422.339	176.814	93.738	100.825	356.393	177.315	98.553	103.610	105.708	109.402	108.187	106.203	-8191	255	
3203.406	1	1	0	0	0.18453	0.23873	0.035581	0.33707	0.20266	0.19397	0.0674	0.31814	0.23515	0.21984	0.19988	0.1865	0.29658	0.1715	0.11063	0.16979	-3.3292	-3.7438	-3.7042	-3.8354	-4.1146	-3.6271	-3.9208	-4.1333	-3.6479	-3.925	-3.9292	-3.6771	-4.1146	-3.7188	-3.7167	-4.2167	384.584	198.758	415.893	382.118	384.691	175.968	394.754	98.907	302.584	293.152	430.008	421.884	247.342	309.271	139.499	190.645	0.0010375	0.00048366	8.8934e-06	582.42	3.7845e-06	6.9087e-06	684.71	224.46	1.088e-06	6.8618e-06	293.47	127.99	91.908	42.007	9.5019e-07	62.171	0.00026442	0.00030112	8.8373e-05	597.36	2.8036e-06	3.271e-06	687.4	213.23	2.757e-06	3.3236e-06	274.07	108.78	78.987	36.069	3.2918e-06	49.056	88.279	135.649	300.899	95.100	167.101	167.378	93.574	100.859	196.627	168.905	98.792	103.521	105.350	109.426	342.295	106.185	-8191	255	
3203.502	1	1	0	0	0.085345	0.042273	0.055067	0.094622	0.039583	0.057107	0.14576	0.061892	0.24172	0.079489	0.091203	0.26688	0.18974	0.1058	0.20849	0.13793	-3.2667	-4.0125	-3.9479	-3.5854	-3.9771	-3.7438	-3.9208	-4.1958	-3.6333	-3.825	-4.1042	-3.5667	-4.0938	-3.9083	-3.7542	-4.1354	389.003	262.450	224.898	414.528	370.879	363.873	348.076	161.927	157.938	117.286	371.948	413.747	98.536	214.310	255.096	366.889	0.00095549	0.00080918	0.0001377	579.09	4.5809e-06	2.5247e-06	676.47	224.84	5.9462e-06	5.6485e-06	290.25	126.52	91.593	41.528	4.2658e-06	61.146	0.00025716	0.00030947	8.0408e-05	585.14	2.7848e-06	3.3765e-06	672.17	210.82	2.9279e-06	3.5598e-06	270.54	108.28	81.548	36.959	3.4649e-06	49.403	106.335	139.625	293.041	95.437	200.806	153.244	93.428	100.748	200.950	406.408	98.626	103.502	105.364	109.295	362.716	106.338	-8191	255	
3203.598	1	1	0	0	0.10947	0.030499	0.27493	0.083596	0.038031	0.19172	0.092413	0.33441	0.10168	0.31216	0.049881	0.36406	0.20674	0.27365	0.096196	0.028165	-3.3937	-3.6833	-3.9688	-3.6917	-4.0229	-3.8021	-3.8208	-4.1708	-3.6104	-3.8896	-4.0938	-3.7729	-4.2479	-3.8792	-3.5917	-4.3063	150.662	410.937	91.515	140.845	304.704	253.311	401.534	193.845	108.583	388.110	188.497	359.135	403.652	85.387	339.281	415.229	0.0014729	0.00043327	2.9559e-05	581.41	1.0062e-05	3.8819e-06	670.76	222.78	8.6008e-06	1.7601e-06	289.06	124.94	90.76	41.393	3.0921e-06	61.246	0.0003155	0.00036037	8.6705e-05	598.21	3.3802e-06	3.7424e-06	673.81	211.19	3.3539e-06	3.6337e-06	267.86	106.62	82.266	35.996	3.0807e-06	48.086	83.730	414.178	137.276	94.848	189.429	366.061	93.596	100.818	181.428	391.582	98.744	103.284	105.421	109.389	292.507	106.359	-8191	255	
3203.719	1	1	0	0	0.30759	0.3213	0.1228	0.15012	0.18081	0.20559	0.15211	0.12863	0.041209	0.20611	0.027107	0.069944	0.025481	0.23207	0.17815	0.13714	-3.3688	-3.8521	-4.0938	-3.4917	-4.0062	-3.8958	-3.8104	-4.1583	-3.7667	-3.7521	-4.1229	-3.7042	-3.9521	-4.1146	-3.6562	-4.15	193.533	391.383	264.712	362.530	200.116	374.053	293.952	375.804	173.149	303.547	212.249	265.396	133.159	94.965	146.996	310.333	0.0016299	0.00045846	6.6748e-05	582.35	6.8256e-06	2.6133e-06	672.12	223.72	8.643e-06	5.1464e-06	289.39	126.27	91.632	41.232	3.3727e-06	61.333	0.00031183	0.00031431	7.7214e-05	587.36	3.4365e-06	3.3764e-06	663.6	209.68	3.4643e-06	3.2952e-06	263.26	106.52	83.496	35.388	2.9738e-06	48.63	89.632	326.448	295.520	94.928	145.311	386.674	93.539	101.046	182.812	322.622	98.806	103.383	105.285	109.683	315.008	106.552	-8191	255	
3203.791	1	1	0	0	0.14227	0.13624	0.068359	0.13194	0.20151	0.18234	0.25541	0.041587	0.21534	0.13503	0.13729	0.11037	0.17228	0.20563	0.078563	0.19928	-3.3438	-3.6625	-4.1188	-3.825	-3.8458	-3.8854	-3.3875	-4.0062	-3.9104	-3.8083	-4.1479	-3.6083	-4.0125	-4.1562	-3.7	-4.2125	84.451	142.819	251.612	88.875	293.105	158.443	332.441	181.423	146.518	327.987	123.743	407.344	320.646	104.052	106.016	381.903	0.0012952	6.0734e-05	9.4168e-05	586.94	4.452e-06	6.5035e-06	682.23	225.79	2.5797e-06	3.147e-06	292.39	127.13	91.738	41.63	3.675e-06	62.005	0.00033284	0.00030175	7.6821e-05	600.49	3.7129e-06	3.3156e-06	668.55	215.29	3.6951e-06	3.2146e-06	264.11	109.25	84.135	35.107	2.8361e-06	49.389	439.399	334.223	233.160	95.050	409.056	371.774	93.583	100.996	426.279	334.227	98.839	103.374	105.621	109.527	345.464	106.422	-8191	255	
3203.887	1	1	0	0	0.0018768	0.14361	0.15781	0.36463	0.094535	0.047715	0.34082	0.18147	0.14354	0.19623	0.064795	0.059855	0.19926	0.14561	0.28653	0.046908	-3.4188	-3.7188	-4.1625	-3.7188	-3.8958	-4.1813	-3.7146	-4.0104	-4.0042	-3.6396	-4.175	-3.8187	-3.9854	-4.0854	-3.5542	-3.9917	180.000	276.153	235.384	89.799	370.233	336.254	283.696	339.293	318.420	129.267	390.489	391.271	384.462	350.873	412.950	192.863	0.00093563	0.00032154	6.7525e-05	591.63	2.0518e-06	1.5533e-06	685.47	228.09	2.7389e-06	1.9346e-06	294.95	127.32	91.046	41.769	2.1468e-06	61.879	0.00031824	0.00027659	7.112e-05	610.35	3.4405e-06	3.0208e-06	662.86	218.61	3.4229e-06	3.0027e-06	262.71	111.24	82.53	34.712	2.7206e-06	49.909	94.994	296.667	113.870	95.183	408.571	240.842	93.869	100.854	369.369	435.000	98.738	103.165	105.205	109.341	127.378	106.410	-8191	255	
3204.007	1	1	0	0	0.14898	0.1646	0.078043	0.21505	0.14332	0.16321	0.097922	0.098647	0.20441	0.24105	0.029919	0.1373	0.11711	0.082023	0.068821	0.28022	-3.5396	-3.5854	-4.0958	-3.6875	-3.8333	-4.0229	-3.8688	-3.9583	-3.9646	-3.5312	-4.2458	-3.85	-3.8292	-4.1521	-3.6521	-3.9083	114.748	140.339	423.186	403.342	320.106	295.019	101.634	336.580	208.040	403.884	251.403	300.684	349.580	367.030	312.766	394.042	0.00091699	9.1081e-05	0.00013404	587.28	5.6854e-06	3.3154e-06	684.82	225.52	7.7648e-06	1.0372e-06	293.64	126.82	91.057	41.256	5.2358e-06	61.059	0.00029275	0.0002588	6.9201e-05	613.81	3.1583e-06	2.8408e-06	659.79	219.68	3.1732e-06	2.8522e-06	263.23	111.33	80.853	34.313	2.9562e-06	50.136	111.178	248.984	126.547	94.981	360.277	328.573	93.711	100.758	373.699	156.805	98.802	103.312	105.455	109.764	187.991	106.287	-8191	255	
3204.102	1	1	0	0	0.34078	0.27775	0.11495	0.040922	0.26767	0.10739	0.070833	0.06461	0.18488	0.099979	0.28758	0.20857	0.069443	0.20707	0.26039	0.11636	-3.6479	-3.5812	-4.1833	-3.725	-3.6083	-4.3146	-3.7458	-3.8708	-3.8271	-3.3833	-4.1083	-3.9792	-3.7979	-4.0854	-3.6292	-3.9042	239.234	409.815	349.579	253.781	83.839	329.919	216.546	137.966	312.835	408.965	85.638	415.257	121.862	121.472	313.422	253.066	0.00052309	0.00029204	0.00013904	586.46	2.3456e-06	4.7901e-06	679.23	224.29	2.7101e-06	1.5625e-06	289.3	124.51	90.633	40.98	6.8174e-06	60.646	0.00028455	0.00025747	7.6354e-05	620.62	3.0439e-06	2.7999e-06	668.91	219.18	3.0297e-06	2.7778e-06	266.94	110.38	79.805	33.95	3.2087e-06	49.492	437.046	309.563	130.655	95.256	125.753	353.238	93.804	100.949	380.569	323.439	98.706	103.409	105.360	109.603	186.123	106.425	-8191	255	
3204.198	1	1	0	0	0.16733	0.030184	0.085899	0.18547	0.11358	0.052372	0.034823	0.14439	0.038897	0.10448	0.071516	0.24583	0.12983	0.11595	0.21509	0.20127	-3.7313	-3.55	-4.1438	-4.0437	-3.7542	-4.2042	-3.8937	-4.0604	-4.0333	-3.6312	-4.2542	-3.9604	-3.5583	-4.2688	-3.8375	-3.8542	388.043	145.910	394.437	83.560	420.419	236.865	211.306	387.735	171.157	92.879	191.077	396.219	381.651	377.268	411.263	337.946	0.00082553	0.00030667	0.00017332	582.36	1.2573e-06	1.1431e-06	674.31	222.85	1.4262e-06	5.2825e-06	292.84	125.28	90.194	41.16	4.9137e-06	60.428	0.00026695	0.00024429	7.965e-05	605.43	2.7638e-06	2.583e-06	671.96	213.78	2.742e-06	2.5946e-06	267.8	107.49	77.725	33.687	3.2358e-06	48.439	86.047	88.415	122.045	95.254	271.962	167.551	93.640	100.732	317.006	169.516	98.780	103.537	105.527	109.875	153.353	106.085	-8191	255	
3204.294	1	1	0	0	0.10382	0.09482	0.32391	0.065898	0.096416	0.37944	0.11772	0.015019	0.21023	0.075797	0.060658	0.27375	0.1467	0.15258	0.25379	0.093751	-3.7	-3.6063	-3.9667	-3.95	-3.5312	-4.1146	-3.9208	-3.7917	-4.0229	-3.4667	-4.1542	-4.0604	-3.725	-4	-3.8417	-3.8063	345.077	374.252	306.685	431.785	90.182	328.343	339.059	211.107	384.484	304.143	278.171	390.132	399.188	355.984	200.697	357.919	0.0010402	0.00045167	8.2568e-05	582.26	1.143e-06	7.0651e-06	678.92	223.66	2.2227e-06	8.3743e-06	291.43	124.98	90.868	41.649	3.4502e-06	61.188	0.00025022	0.00024845	8.3537e-05	597.5	2.7087e-06	2.7941e-06	683.95	213.3	2.7699e-06	2.9164e-06	274.03	107.77	78.463	34.75	3.5098e-06	48.82	83.426	148.742	339.283	94.786	267.810	190.808	93.646	100.804	84.990	199.206	98.729	103.421	105.475	109.759	357.821	106.271	-8191	255	
3204.390	1	1	0	0	0.18113	0.10654	0.13202	0.24274	0.21554	0.046604	0.16249	0.14722	0.046569	0.066317	0.10075	0.30091	0.35388	0.2836	0.069916	0.10436	-3.725	-3.7042	-3.9104	-4.0625	-3.4521	-4.0542	-3.8688	-3.7771	-4.0854	-3.7396	-3.9229	-4.3042	-3.8	-4.1021	-3.8729	-3.6104	234.031	282.245	347.537	376.740	352.390	421.456	336.074	387.259	156.390	308.240	237.094	357.304	146.470	108.749	272.250	274.152	0.00090168	0.00089554	0.00010995	587.39	1.3788e-06	7.5222e-06	685.97	223.37	1.6188e-06	8.0865e-06	290.24	126.18	90.854	41.387	5.7983e-06	60.638	0.00026206	0.00029043	9.0847e-05	605	2.8885e-06	3.3239e-06	697.27	214.8	2.923e-06	3.4195e-06	277.4	108.6	79.131	35.733	3.4764e-06	48.598	433.940	128.982	88.039	94.891	387.923	167.655	93.706	100.707	217.995	165.099	98.786	103.557	105.657	109.646	349.203	106.655	-8191	255	
3204.486	1	1	0	0	0.033043	0.15746	0.16689	0.28215	0.11064	0.3044	0.35057	0.12821	0.12706	0.28739	0.079749	0.062598	0.17594	0.21859	0.23931	0.25809	-3.7188	-3.6896	-3.7375	-3.9958	-3.6604	-3.8896	-4.0646	-3.6854	-4.1375	-3.8125	-3.8667	-4.3229	-3.6688	-3.9042	-4.0104	-3.7583	305.372	413.649	413.317	388.120	91.500	389.661	333.536	349.992	326.031	174.004	390.429	377.075	108.961	257.115	405.863	344.890	0.00154	0.00071027	8.6872e-05	577.88	1.5851e-06	5.6947e-06	674.73	222.16	5.0223e-06	3.7753e-06	288.4	124.72	90.458	40.59	3.7644e-06	59.613	0.00026342	0.0003137	8.4821e-05	592.52	2.8351e-06	3.4592e-06	679.06	210.81	2.9064e-06	3.5536e-06	270.18	106.73	79.315	35.916	3.3649e-06	47.88	100.297	120.096	255.559	95.164	143.589	247.862	93.557	100.793	195.656	179.283	98.753	103.371	105.162	109.578	315.868	106.132	-8191	255	
3204.607	1	1	0	0	0.14657	0.064533	0.18231	0.33732	0.057044	0.021748	0.23445	0.08236	0.13274	0.048847	0.0071833	0.14427	0.039522	0.11082	0.22683	0.041596	-3.8083	-3.7667	-3.8354	-4.2188	-3.6896	-4.1312	-3.9938	-3.7375	-3.8667	-3.8396	-3.7271	-4.3438	-3.7458	-4.1604	-4.0917	-3.7917	429.953	253.797	304.383	104.720	348.542	365.104	431.541	379.338	200.625	155.400	423.844	318.191	421.446	436.964	401.679	406.868	0.0013807	0.00019819	7.7436e-05	575.47	8.2067e-06	1.4369e-06	666.5	219.45	9.5967e-06	2.4761e-06	284.2	123.57	90.22	40.017	3.5774e-06	58.911	0.0002899	0.00034203	8.5e-05	593.16	3.2048e-06	3.7236e-06	671.19	209.29	3.2517e-06	3.69e-06	266.02	105.76	81.508	35.709	3.3304e-06	47.577	97.793	166.042	283.104	95.028	177.446	192.789	93.763	100.724	227.624	382.357	98.555	103.752	105.305	109.477	276.944	106.411	-8191	255	
3204.703	1	1	0	0	0.054086	0.10468	0.079506	0.21583	0.13443	0.15722	0.083571	0.31314	0.13424	0.18882	0.12071	0.1176	0.39739	0.25372	0.069783	0.24889	-3.7125	-4.0958	-3.6708	-4.2417	-3.775	-3.8604	-4.1208	-3.6458	-3.8729	-3.9479	-3.8	-4.2771	-3.5625	-3.8792	-4.1062	-3.775	114.709	416.005	264.501	83.888	378.473	84.698	406.033	352.430	438.912	108.107	400.824	408.416	111.212	97.189	337.188	427.520	0.0017586	0.00035186	0.00013422	574.73	4.7275e-06	5.6365e-06	669.02	220.28	7.4557e-06	5.3377e-06	283.01	123.31	89.68	39.783	2.2752e-06	58.91	0.00033002	0.0003524	8.6432e-05	599.03	3.7774e-06	3.9061e-06	679.69	213.13	3.9414e-06	3.9541e-06	271.7	108.06	86.451	35.995	3.5078e-06	48.381	438.099	351.395	199.506	94.889	176.694	322.556	93.252	100.924	149.143	430.735	98.753	102.986	105.245	109.670	377.088	106.428	-8191	255	
3204.799	1	1	0	0	0.13215	0.11565	0.15291	0.1427	0.17054	0.069118	0.03769	0.14998	0.3196	0.12087	0.24333	0.067359	0.1973	0.10959	0.21582	0.12871	-3.7375	-3.9958	-3.6479	-4.1479	-3.7938	-3.9	-4.2812	-3.7083	-3.9562	-3.9667	-3.5958	-4.1229	-3.9083	-3.7833	-4.1854	-3.6854	161.415	341.452	155.601	318.504	343.682	150.762	399.308	436.567	158.758	287.417	295.473	371.580	382.614	127.134	297.341	105.826	0.0013639	0.00046843	0.00011052	577.2	4.3668e-06	4.2857e-06	666.81	221.12	1.3559e-06	8.3963e-06	285.74	124.21	89.816	39.737	2.3486e-06	59.532	0.00037713	0.00035359	8.8039e-05	611.82	4.1904e-06	3.8326e-06	681.65	217.85	4.2539e-06	3.8285e-06	271.31	110.36	88.331	35.695	3.5398e-06	49.821	433.351	292.386	106.260	95.148	164.526	383.325	93.720	100.819	96.881	357.495	98.727	103.540	105.274	109.864	387.745	106.540	-8191	255	
3204.895	1	1	0	0	0.22141	0.33021	0.11737	0.16456	0.11968	0.26554	0.11951	0.15359	0.076279	0.13681	0.092562	0.19048	0.11255	0.15958	0.071137	0.22322	-3.6625	-4.1438	-3.6896	-4.0646	-3.7854	-3.6958	-4.1229	-3.8021	-3.8854	-4.1229	-3.6521	-4.0583	-3.8771	-3.8458	-4.2792	-3.9083	318.484	322.020	125.109	374.968	169.600	391.061	336.490	372.674	412.594	105.922	100.397	419.458	391.678	90.703	201.167	295.122	0.00095066	0.00038972	4.4011e-05	579.43	7.1258e-06	8.5782e-06	669.92	222.06	1.0657e-06	1.2969e-06	287.78	123.25	87.554	39.241	2.6788e-06	58.487	0.00040778	0.00036191	9.3238e-05	644.76	4.6647e-06	4.1533e-06	700.66	231.37	4.8391e-06	4.2921e-06	284.29	119.02	94.151	37.337	4.3722e-06	53.942	94.981	360.259	332.235	95.086	348.461	342.580	93.883	100.929	214.259	175.498	98.993	103.633	105.614	109.683	149.663	106.529	-8191	255	
3205.014	1	1	0	0	0.13347	0.073704	0.11044	0.088088	0.063755	0.20439	0.093604	0.20015	0.19171	0.26949	0.20552	0.088581	0.10541	0.070497	0.28945	0.16591	-3.5292	-4.0563	-3.5687	-4.1646	-3.9292	-3.6688	-4.3021	-3.9313	-3.6688	-4.3833	-3.7271	-4.175	-4.1521	-3.8917	-4.15	-3.9521	118.109	111.522	355.361	86.889	330.996	124.612	259.349	108.656	355.621	331.039	85.868	161.833	352.719	344.468	157.983	112.429	0.00071263	0.00060419	3.889e-05	578.39	5.6941e-06	5.556e-06	661.4	219.14	2.9389e-06	2.8e-06	283.03	120.43	86.299	38.215	8.6882e-06	55.986	0.00049987	0.00044836	0.00011888	721.44	5.8162e-06	5.2883e-06	750.64	258.16	6.2397e-06	5.7106e-06	313.46	132.4	102.93	39.677	5.9709e-06	58.513	126.399	328.862	136.358	95.021	350.947	312.417	93.754	100.701	422.441	273.035	98.924	103.245	105.542	109.651	213.798	106.230	-8191	255	
3205.086	1	1	0	0	0.16431	0.2492	0.20248	0.36777	0.21794	0.24775	0.049147	0.14209	0.16348	0.11706	0.42983	0.099292	0.14478	0.2107	0.087747	0.10188	-3.5	-4.1479	-3.7625	-4.1167	-3.9521	-3.625	-4.3187	-4.0917	-3.7	-4.1708	-3.8812	-4.0771	-4.0896	-3.6167	-4.0125	-3.8896	282.221	92.612	187.980	366.274	230.999	217.384	383.565	101.311	246.875	266.074	377.795	146.630	216.086	138.336	307.479	231.334	0.00041644	0.00045287	0.00029114	571.71	1.4725e-06	6.5407e-06	658.81	215.64	4.8992e-06	2.9513e-06	279.62	117.97	85.959	37.735	7.9176e-06	55.792	0.00058987	0.00053453	0.00015008	773.08	6.084e-06	5.4407e-06	767.2	257.46	5.6505e-06	5.1155e-06	308.21	125.43	93.498	36.882	5.3794e-06	54.367	131.713	324.727	124.905	94.837	331.242	296.383	94.106	100.544	378.083	410.314	99.110	103.544	105.238	109.903	169.019	106.236	-8191	255	
3205.182	1	1	0	0	0.25521	0.26491	0.091762	0.092065	0.16609	0.04023	0.091323	0.13598	0.069182	0.033538	0.35696	0.22525	0.15873	0.22961	0.031679	0.16248	-3.2396	-4.0458	-3.65	-3.7854	-4.1438	-3.6646	-4.3438	-4.1	-3.5854	-4.0146	-3.8708	-3.9542	-4.1854	-3.7062	-4.0167	-3.8458	123.271	179.120	298.354	414.953	231.729	313.938	382.925	425.290	92.877	139.513	122.754	94.890	324.156	439.008	303.769	388.634	0.00099542	0.00018672	0.00030502	566	8.4648e-06	4.7397e-06	657.09	214.07	8.0953e-06	8.7904e-06	279.7	117.88	85.198	38.155	1.4387e-05	56.216	0.00046483	0.0004256	0.00013466	708.31	4.9664e-06	4.5849e-06	756.47	245.01	4.9974e-06	4.6942e-06	311.24	121.9	90.978	36.613	5.7442e-06	53.5	434.152	383.744	106.902	94.948	353.115	190.597	93.941	100.641	339.759	188.329	98.906	103.362	105.306	109.638	196.035	106.389	-8191	255	
3205.278	1	1	0	0	0.22802	0.10046	0.028402	0.23956	0.41069	0.21712	0.081942	0.093964	0.087093	0.26513	0.11683	0.23461	0.30678	0.13284	0.087567	0.22196	-3.2333	-4.2042	-3.7542	-3.65	-4.1396	-3.6417	-4.1479	-4.025	-3.7021	-4.0958	-3.8542	-3.8021	-4.1854	-3.7375	-3.8208	-4.0792	390.874	241.439	410.357	106.553	422.396	112.920	177.302	338.081	382.503	94.084	194.780	317.557	422.837	303.329	292.147	385.584	0.0004965	0.0001896	0.00021034	562.55	6.9013e-06	9.0796e-06	657.17	213.87	4.1086e-06	6.1717e-06	277.52	118.61	86.138	38.401	7.6624e-06	56.085	0.00045758	0.00044133	0.00014972	705.3	5.0507e-06	4.974e-06	785.04	244.23	5.09e-06	5.145e-06	323.85	121.9	91.892	37.994	6.2452e-06	53.494	102.958	233.503	101.706	94.487	311.788	158.278	93.697	100.421	321.005	197.168	98.684	103.238	105.652	109.524	230.785	105.989	-8191	255	
3205.399	1	1	0	0	0.079155	0.083939	0.23586	0.074866	0.20232	0.083288	0.29065	0.14997	0.19419	0.19339	0.049435	0.12581	0.16332	0.32506	0.16706	0.026755	-3.4208	-4.1417	-3.8646	-3.7875	-4.2646	-3.6208	-3.7938	-4.0271	-3.6833	-4.0875	-4.0417	-3.9979	-4.0062	-3.8479	-4.0604	-4.15	200.830	247.387	384.973	324.117	203.415	410.158	331.322	133.183	325.649	364.681	338.749	351.891	341.648	101.913	99.833	392.032	0.00082814	0.00098968	9.8761e-05	562.89	1.795e-06	1.0542e-05	657.75	213.71	4.9137e-06	1.6439e-05	278.41	118.96	86.62	38.747	7.2678e-06	56.601	0.0004622	0.00049265	0.00015879	701.61	5.0892e-06	5.5914e-06	798.58	244.39	5.1424e-06	5.8491e-06	329.68	122.68	93.332	40.233	6.5627e-06	54.551	136.448	153.761	297.633	95.142	120.964	179.570	93.484	100.390	404.530	186.378	98.893	103.342	105.684	109.606	390.588	106.367	-8191	255	
3205.495	1	1	0	0	0.1387	0.17128	0.037927	0.21533	0.16012	0.23161	0.17397	0.13099	0.092562	0.161	0.33086	0.22477	0.24644	0.1124	0.10469	0.31332	-3.4167	-4.0229	-3.9542	-3.7208	-4.1146	-3.6979	-3.9604	-4.1646	-3.7354	-4.0417	-4.0792	-3.8958	-4.1229	-3.8708	-3.8708	-4.1375	107.184	243.301	274.140	375.677	269.183	136.235	171.596	343.757	118.544	258.882	84.014	391.234	427.354	425.031	181.619	325.107	0.0012765	0.0011528	0.00018364	562.58	4.4781e-06	8.9783e-06	652.08	213.98	8.2708e-06	1.1593e-05	275	118.08	86.53	38.41	8.6308e-06	55.801	0.00050041	0.00059963	0.00017426	735.18	5.8631e-06	7.1059e-06	831.94	256.09	6.2135e-06	7.6742e-06	351.6	130.74	103.42	44.994	7.7651e-06	57.843	83.306	151.355	300.281	95.024	250.017	198.758	93.821	100.206	189.777	227.915	98.383	103.351	105.371	109.444	392.193	106.215	-8191	255	
3205.591	1	1	0	0	0.087445	0.12742	0.30598	0.21026	0.011972	0.087341	0.22773	0.023155	0.051128	0.17388	0.10394	0.13284	0.051574	0.086213	0.26254	0.1092	-3.3333	-4.1375	-3.9708	-3.6792	-4.1208	-3.8771	-3.7313	-4.3125	-3.7083	-3.9125	-4.1	-3.7458	-4.1833	-3.8104	-3.4792	-4.1625	87.679	245.652	216.356	248.957	172.198	346.954	115.511	354.047	397.861	284.075	412.226	203.333	394.103	90.835	417.521	87.972	0.0015704	0.00094284	0.00035058	556.29	1.4032e-05	4.363e-06	648.24	211.53	1.4175e-05	2.3743e-06	273.77	115.98	86.083	37.846	2.5714e-06	55.315	0.000641	0.00077524	0.00019763	772.35	7.1753e-06	8.5291e-06	847.03	261.91	7.243e-06	8.4542e-06	348.47	129.84	108.42	45.705	7.5371e-06	57.276	89.588	139.146	297.494	94.705	152.948	186.582	93.297	100.284	186.253	386.838	98.453	103.182	105.400	109.686	358.105	105.971	-8191	255	
3205.687	1	1	0	0	0.12134	0.18003	0.2471	0.10192	0.09522	0.060417	0.19809	0.14091	0.1666	0.12381	0.13202	0.20983	0.066143	0.10925	0.18442	0.19113	-3.5104	-3.7938	-4.0646	-3.6479	-3.9125	-3.9125	-3.8229	-4.1708	-3.6437	-3.8625	-4.1125	-3.7354	-4.1021	-4.0437	-3.5958	-4.3104	315.918	150.902	228.122	114.028	268.286	174.292	87.854	390.463	105.697	378.132	244.948	412.952	101.745	158.513	280.413	430.684	0.0023426	0.00080393	0.00014277	556.99	1.853e-05	8.4934e-06	650.84	212.23	1.4009e-05	6.7586e-06	273.24	117.14	86.399	37.77	3.0824e-06	56.299	0.00069352	0.0007631	0.00018358	748.73	7.4022e-06	7.8565e-06	810.34	251.42	7.2079e-06	7.4571e-06	329.41	124.85	107.7	43.144	6.6199e-06	55.721	434.758	321.369	331.532	94.739	160.951	345.462	93.796	100.444	185.902	349.794	98.627	103.330	105.063	109.775	314.399	106.428	-8191	255	
3205.783	1	1	0	0	0.14746	0.16618	0.25469	0.31841	0.091643	0.23684	0.22644	0.13458	0.074718	0.34232	0.012931	0.22255	0.24971	0.23334	0.26751	0.094054	-3.2875	-3.7188	-4.0208	-3.8937	-3.8854	-3.9437	-3.6958	-4.1354	-3.7875	-3.8937	-4.0687	-3.5104	-3.9104	-4.0833	-3.5958	-4.2188	187.156	320.035	378.318	351.564	187.860	224.814	347.658	209.879	404.667	111.997	378.976	272.170	430.298	284.837	280.670	210.986	0.0024892	0.00031825	0.00014104	563.92	8.0143e-06	8.4607e-06	648.51	213.73	1.2271e-05	1.0868e-05	274.35	118.14	85.799	38.182	5.323e-06	56.647	0.0006935	0.00068003	0.00016933	739.12	7.7014e-06	7.3287e-06	798.33	254.3	7.7181e-06	7.0799e-06	324.91	126.94	110.25	42.087	6.4197e-06	57.091	436.485	333.117	313.839	94.875	192.327	363.161	93.510	100.684	191.230	359.374	98.418	103.303	105.203	109.585	304.135	106.289	-8191	255	
3205.880	1	1	0	0	0.12159	0.088976	0.064972	0.17999	0.084452	0.076244	0.12601	0.39545	0.19057	0.13289	0.094945	0.16998	0.052729	0.12604	0.13357	0.2328	-3.4562	-3.7188	-4.2583	-3.6604	-3.8917	-4.2208	-3.55	-4.15	-3.9313	-3.55	-4.1625	-3.8063	-4.025	-4.1042	-3.6312	-4.0938	207.991	295.652	186.695	347.493	384.193	302.418	102.210	389.636	314.952	165.610	292.965	90.639	383.225	429.226	442.456	330.636	0.0011422	0.00088926	0.00011591	573.81	4.6e-06	5.8234e-06	652.51	216.14	2.72e-06	4.0058e-06	275.88	120.33	85.511	38.16	3.1739e-06	57.37	0.00072534	0.00065231	0.00016764	771.32	8.1965e-06	7.2887e-06	807.77	268.38	8.1812e-06	7.1322e-06	331.29	135.62	113.94	42.71	6.6745e-06	60.699	424.043	318.991	248.562	94.243	332.440	323.406	93.518	101.000	323.369	381.885	98.583	103.312	104.949	109.448	325.207	106.527	-8191	255	
3205.976	1	1	0	0	0.079921	0.16851	0.25405	0.19806	0.19852	0.1947	0.13216	0.23231	0.21108	0.074126	0.22488	0.092625	0.20796	0.079803	0.16418	0.11928	-3.6167	-3.7812	-4.1813	-4.0271	-4.0958	-4.2021	-3.6979	-4.1104	-3.8583	-3.6188	-4.2167	-3.9271	-3.8292	-4.1125	-3.65	-4.0875	295.646	437.623	169.606	348.199	189.754	188.288	380.994	108.278	87.671	390.826	278.035	416.144	223.953	306.626	333.134	350.923	0.0003385	0.00026372	5.5828e-05	568.98	9.0592e-06	4.8354e-06	650.26	216.03	1.0106e-05	2.0317e-06	274.66	118.87	85.22	38.397	9.6135e-06	56.921	0.00075532	0.00067406	0.00017645	828.73	8.5023e-06	7.605e-06	825.55	286.57	8.4987e-06	7.4536e-06	339.72	142.33	113.28	42.758	7.0164e-06	62.983	429.553	352.030	165.926	94.982	368.080	318.588	93.795	101.212	346.454	297.642	98.564	103.241	105.225	109.631	205.705	106.066	-8191	255	
3206.095	1	1	0	0	0.075429	0.15012	0.24989	0.068631	0.11963	0.029193	0.35028	0.11312	0.10125	0.1087	0.17188	0.030142	0.13343	0.12092	0.26193	0.12513	-3.5625	-3.55	-4.0333	-3.9979	-3.7542	-3.9646	-3.6271	-4.1208	-4.1417	-3.5667	-4.3063	-3.8917	-3.9021	-4.1958	-3.6875	-3.9188	223.363	412.351	193.361	254.175	159.843	256.437	337.733	420.234	147.222	256.363	371.698	212.810	312.447	196.313	144.306	304.456	0.00050611	0.00022834	0.00035026	563.21	1.1378e-05	9.5145e-06	653.02	212.89	9.0744e-06	8.8578e-06	277.27	116.6	84.492	37.762	1.7476e-05	56.047	0.00073023	0.00065998	0.00018335	853.39	8.047e-06	7.3604e-06	837.56	290.63	7.9848e-06	7.2112e-06	348.86	144.65	110.38	42.21	7.5818e-06	63.485	288.845	201.543	100.854	94.720	359.452	357.916	93.458	100.975	347.188	355.905	98.731	103.005	105.838	109.677	201.741	106.104	-8191	255	
3206.191	1	1	0	0	0.14269	0.031322	0.15679	0.056898	0.1669	0.2424	0.040593	0.073462	0.16144	0.15463	0.17057	0.10888	0.13587	0.080843	0.081193	0.2028	-3.7292	-3.6667	-4.1979	-3.8854	-3.7417	-4.1875	-3.7396	-4.05	-4.1104	-3.6896	-4.2146	-3.8292	-3.8417	-4.2354	-3.7417	-3.9562	135.541	164.402	140.040	234.014	310.985	379.894	275.843	110.993	352.910	258.648	371.674	440.600	161.144	323.267	183.909	102.383	0.00092331	0.00011478	0.00048326	561.77	7.8631e-06	4.1539e-06	656.97	211.75	6.4028e-06	1.2951e-06	277.82	117.65	85.235	38.604	1.3447e-05	56.592	0.00070046	0.00064324	0.00019821	851.74	7.6184e-06	7.0742e-06	865.64	288.08	7.6685e-06	7.0639e-06	364.25	143.23	108.95	42.242	8.1951e-06	62.271	106.127	274.065	108.722	94.934	354.074	241.844	93.898	100.562	350.376	307.216	98.863	103.282	105.407	109.493	211.690	105.951	-8191	255	
3206.287	1	1	0	0	0.09391	0.036946	0.12772	0.22996	0.23658	0.20122	0.31638	0.18533	0.25232	0.1187	0.13292	0.20837	0.21631	0.045622	0.031391	0.1824	-3.8792	-3.775	-4.075	-3.9958	-3.6417	-4.2708	-3.9062	-3.9917	-4	-3.8417	-4.0521	-4.0125	-3.7542	-4.2958	-3.7646	-3.8646	405.818	274.158	382.128	416.088	230.010	190.986	323.163	83.281	145.059	380.399	112.992	440.592	436.116	318.645	190.296	421.213	0.00069181	0.00019205	0.00025065	559.71	2.7608e-07	8.5823e-06	657.47	213.39	3.7596e-06	8.6546e-06	278.1	118.52	85.728	39.031	9.3288e-06	57.048	0.00065797	0.0006145	0.00020392	813.98	6.9423e-06	6.6822e-06	870.74	274.19	6.9116e-06	6.6777e-06	361.66	135.65	103.29	41.616	7.8988e-06	59.219	89.619	175.683	139.563	94.783	295.829	167.253	93.609	100.680	349.114	176.687	99.019	103.210	105.339	109.519	152.115	106.259	-8191	255	
3206.383	1	1	0	0	0.089477	0.16309	0.04935	0.24748	0.22333	0.076778	0.17062	0.25444	0.24014	0.074638	0.10971	0.24416	0.28616	0.09956	0.1889	0.15353	-3.8063	-3.7333	-4.0062	-4.1146	-3.6229	-4.0208	-4.0104	-3.8563	-4.3125	-3.8125	-4.1	-4.0917	-3.4896	-4.0917	-3.8292	-3.6854	422.109	294.976	191.471	210.125	300.265	412.489	391.337	405.098	338.109	260.018	194.192	406.602	401.424	403.284	318.227	438.845	0.00042227	0.0011413	0.00010866	563.04	3.39e-06	1.1702e-05	660.06	215.1	5.5757e-06	1.9094e-05	277.96	119.23	86.649	39.722	2.8284e-06	57.905	0.00059045	0.00060089	0.00019793	773.98	6.3939e-06	6.7879e-06	870.02	265.7	6.4195e-06	6.895e-06	358.5	131.71	100.37	42.643	7.5309e-06	57.767	370.968	116.153	424.325	95.205	294.414	183.240	93.338	100.655	342.590	183.940	98.516	102.899	105.044	109.933	346.935	106.285	-8191	255	
3206.479	1	1	0	0	0.088045	0.10311	0.2118	0.1392	0.15058	0.018944	0.10876	0.2052	0.17298	0.29594	0.27297	0.12988	0.1629	0.046071	0.16671	0.051362	-3.8625	-3.5563	-4.0854	-4.1479	-3.6792	-4.1396	-3.9688	-3.6792	-4.2958	-3.8479	-3.9958	-4.3812	-3.6417	-4.1646	-4.0146	-3.6917	104.051	434.123	101.868	405.898	408.299	374.157	120.302	85.882	262.295	416.101	91.977	409.058	425.987	141.546	421.617	175.005	0.00096803	0.0016194	0.00027923	563.68	8.3838e-06	1.2796e-05	652.28	215.06	3.9853e-06	1.0196e-05	275.54	118.79	86.635	39.3	4.1857e-06	57.382	0.00054907	0.00062568	0.00018575	749.51	6.0091e-06	7.1004e-06	842.19	257.81	6.1524e-06	7.3504e-06	348.42	129.47	100.85	44.288	7.5227e-06	57.928	87.573	143.883	273.346	94.893	174.267	176.156	93.402	100.479	230.452	178.094	98.737	103.251	105.357	109.564	408.796	106.412	-8191	255	
3206.575	1	1	0	0	0.072566	0.19944	0.17844	0.16011	0.10003	0.11888	0.049893	0.21204	0.13764	0.096687	0.21788	0.21432	0.06732	0.059562	0.050351	0.22314	-3.7542	-3.7229	-3.7375	-4.2688	-3.6854	-4.0729	-4.0813	-3.6688	-4.2188	-3.9292	-3.8833	-4.0979	-3.7958	-4.0896	-4.0646	-3.7458	285.799	263.784	370.555	84.185	439.174	176.028	144.875	358.567	226.425	154.799	394.263	324.556	222.765	292.134	138.565	295.200	0.0014577	0.00081685	0.00012851	562.52	1.1504e-05	9.1056e-06	650.61	213.23	1.2771e-05	2.0912e-06	274.27	117.51	87.328	38.767	8.8249e-06	56.76	0.00059544	0.00071328	0.00018479	746.74	6.1967e-06	7.4035e-06	810.65	249.44	6.0199e-06	7.1853e-06	326.7	123.25	99.024	43.036	6.3755e-06	54.744	437.814	144.178	250.459	94.913	197.259	182.435	93.597	100.763	190.472	202.473	98.550	103.110	105.046	109.872	363.214	106.187	-8191	255	
3206.696	1	1	0	0	0.1382	0.32584	0.19543	0.022601	0.047277	0.28347	0.33166	0.1873	0.10819	0.18183	0.21423	0.14897	0.14872	0.029048	0.16141	0.20723	-3.6771	-3.7667	-3.6333	-4.2667	-3.775	-3.8875	-4.0188	-3.7958	-4.075	-3.8583	-3.8292	-4.2937	-3.7646	-4.0354	-4.1667	-3.8417	387.560	115.768	430.115	220.735	392.134	338.505	409.703	325.093	99.838	364.374	123.519	251.245	339.430	296.624	111.768	361.768	0.0019905	0.000628	0.00015286	564.18	1.7271e-05	1.1118e-05	648.88	214.72	1.2239e-05	2.1674e-06	274.86	117.65	86.923	38.828	7.6339e-06	56.852	0.00056069	0.0006409	0.00015575	706.29	6.1016e-06	6.776e-06	774.87	240.11	6.0428e-06	6.5026e-06	309.7	118.46	98.295	41	5.5485e-06	52.914	429.121	343.151	255.938	95.003	172.200	377.887	93.432	100.703	188.501	356.234	98.575	103.055	105.606	109.855	405.140	106.137	-8191	255	
3206.792	1	1	0	0	0.063356	0.18774	0.17815	0.075659	0.12993	0.16668	0.005362	0.37514	0.32482	0.046131	0.15971	0.25012	0.085304	0.18662	0.19187	0.10511	-3.7521	-4.0292	-3.5146	-4.1271	-4.0396	-3.9354	-4.2417	-3.9104	-4.1042	-3.8958	-3.7833	-4.2562	-4.0563	-3.7313	-4.1854	-3.7229	370.686	386.867	190.482	170.855	145.119	385.039	111.167	440.024	342.843	435.094	214.510	374.702	396.939	372.899	115.363	276.854	0.0016788	0.00062866	0.0001184	566.86	1.287e-05	7.8917e-06	651.3	215.44	8.6349e-06	1.2872e-05	275.26	118.83	87.086	38.995	3.9646e-06	57.775	0.00057004	0.00058663	0.00014562	699.7	6.5813e-06	6.533e-06	774.44	243.33	6.7422e-06	6.4753e-06	313.74	122.08	105.01	41.257	5.8009e-06	54.835	84.675	337.951	293.825	95.041	171.681	344.040	93.606	100.915	207.991	322.834	99.011	103.381	105.109	109.537	320.901	106.582	-8191	255	
3206.888	1	1	0	0	0.096456	0.19863	0.11003	0.080712	0.3084	0.12098	0.22412	0.23603	0.069891	0.097048	0.11672	0.20533	0.11728	0.028044	0.0016145	0.20867	-3.7208	-3.975	-3.6354	-4.1729	-3.775	-3.875	-4.3208	-3.7271	-4.0354	-4.0771	-3.7896	-4.1646	-3.9729	-3.8271	-4.1771	-3.7188	322.127	172.859	378.456	361.817	345.683	147.455	308.725	329.403	232.085	316.541	88.699	197.300	415.197	347.671	180.000	270.149	0.0015739	0.00073653	7.5802e-05	567.87	3.0997e-06	6.6269e-06	655.38	216.9	9.4541e-07	3.6591e-06	276.57	120.02	86.293	39.027	2.2216e-06	58.104	0.00063325	0.00057709	0.0001469	724.32	7.1602e-06	6.4642e-06	780.58	254.85	7.4143e-06	6.574e-06	319.38	128.96	109.12	41.507	5.9498e-06	57.57	89.456	313.531	229.074	95.028	219.705	343.885	93.548	100.980	119.498	339.971	98.949	103.510	105.617	109.532	114.826	106.902	-8191	255	
3206.960	1	1	0	0	0.16828	0.27024	0.20605	0.21794	0.3023	0.21273	0.097116	0.099666	0.23889	0.12639	0.28549	0.092912	0.074986	0.28261	0.10775	0.077782	-3.5979	-3.9938	-3.6479	-4.2146	-3.9833	-3.6896	-4.1729	-3.7979	-3.925	-4.0604	-3.7333	-4.1521	-3.9396	-3.8417	-4.15	-3.9625	265.706	388.590	240.975	339.586	432.676	197.202	273.390	246.037	380.799	402.055	420.262	256.287	143.668	87.814	205.724	394.188	0.00058059	0.0002719	5.6625e-05	569.9	6.9989e-06	6.5633e-06	651.99	216.32	8.3929e-06	1.3961e-06	273.69	119.65	85.387	38.402	8.7436e-06	57.058	0.00065358	0.00056904	0.00014523	751.46	7.0309e-06	6.1566e-06	768.08	260.68	7.032e-06	6.2808e-06	313.67	132.16	106.31	40.811	5.9915e-06	59.122	411.200	321.323	138.290	95.167	348.279	342.119	93.588	100.640	340.372	320.195	98.739	103.340	105.528	109.560	187.883	106.565	-8191	255	
3207.081	1	1	0	0	0.081871	0.069451	0.28722	0.17293	0.19422	0.2305	0.084822	0.12904	0.20027	0.085223	0.10656	0.1448	0.13056	0.3439	0.19205	0.10561	-3.5146	-4.1188	-3.6625	-4.0104	-3.8063	-3.7562	-4.2354	-3.8458	-3.95	-4.1833	-3.7604	-4.1417	-3.9333	-3.8021	-4.1333	-3.9833	146.158	288.340	313.520	120.590	239.372	267.584	227.521	306.324	115.289	84.948	99.880	112.758	314.294	418.309	87.225	114.601	0.00094073	0.00076913	0.00016572	563.74	4.2097e-06	5.0307e-06	649.34	214.96	8.7249e-06	7.4574e-06	272.89	117.61	85.154	38.289	1.0717e-05	56.525	0.00064128	0.00057306	0.0001522	785.26	6.9774e-06	6.2908e-06	786.07	272.43	7.0988e-06	6.5284e-06	327.19	138.13	106.82	41.011	6.6732e-06	60.805	170.833	286.650	134.325	94.801	358.962	359.148	93.974	100.656	368.904	360.567	98.572	103.429	105.411	109.621	185.687	106.252	-8191	255	
3207.175	1	1	0	0	0.23403	0.048196	0.23312	0.10074	0.13963	0.15231	0.021977	0.059805	0.19041	0.078117	0.12861	0.14881	0.090627	0.27112	0.30882	0.22741	-3.4854	-4.1479	-3.6562	-4.0375	-4.0833	-3.8063	-4.2188	-3.8625	-3.8104	-4.2	-3.6833	-4.0104	-4.1146	-3.6896	-4.1667	-4.0271	309.149	158.359	406.614	314.420	377.351	264.462	131.687	230.811	286.752	116.225	243.046	384.409	406.666	364.157	116.016	333.663	0.00046675	0.00065502	0.00044234	556.45	6.7545e-06	2.5703e-06	648.3	210.52	3.7143e-06	1.8963e-06	275.2	116.72	85.019	38.532	1.6348e-05	56.256	0.00063329	0.00057351	0.00016912	800	6.7149e-06	6.1135e-06	803.64	271.07	6.5934e-06	6.1145e-06	333.69	134.8	102.21	39.985	6.9536e-06	59.277	363.378	278.092	115.272	95.003	385.532	188.994	94.112	100.596	332.995	207.919	98.774	103.253	105.303	109.794	192.002	105.876	-8191	255	
#DATA ENDS
