BOXY.EXE: ISS Imagent and Oximeter Data Acquisition Program Version 0.80
Ascii Record File

#ACQ INFORMATION
2  Detector Channels 
16  External MUX Channels 
1  Auxiliary Channels 
5000  Waveform (CCF) Frequency (Hz)
1  Waveforms Skipped 
30  Waveforms Averaged 
1  Cycles Averaged 
16  Acquisitions per Waveform 
10.0806  Updata Rate (Hz) 

#FILE INFORMATION
TRUE -- External MUX Channel results are PARSED.
FALSE -- AC DC and Phase are NOT grouped.
TRUE -- Companion Program Settings File CREATED.
FALSE -- AC data not excluded
FALSE -- DC data not excluded
FALSE -- Phase data not excluded
FALSE -- Auxillary Chn. data not excluded
Tab delimiters

#CALIBRATION STATE
TRUE -- Waveform Calibration Values APPLIED.


#AUX CALIBRATION VALUES
Val Type	aux-1	

Term	1.0000e+00	
Factor	0.0000e+00	


#WF CALIBRATION VALUES
A = Detector Channel
Val Type	A-AC1	A-AC2	A-AC3	A-AC4	A-AC5	A-AC6	A-AC7	A-AC8	A-AC9	A-AC10	A-AC11	A-AC12	A-AC13	A-AC14	A-AC15	A-AC16	A-DC1	A-DC2	A-DC3	A-DC4	A-DC5	A-DC6	A-DC7	A-DC8	A-DC9	A-DC10	A-DC11	A-DC12	A-DC13	A-DC14	A-DC15	A-DC16	A-Ph1	A-Ph2	A-Ph3	A-Ph4	A-Ph5	A-Ph6	A-Ph7	A-Ph8	A-Ph9	A-Ph10	A-Ph11	A-Ph12	A-Ph13	A-Ph14	A-Ph15	A-Ph16	

Term	0.00000e+00	0.00000e+00	0.00000e+00	0.00000e+00	0.00000e+00	0.00000e+00	0.00000e+00	0.00000e+00	0.00000e+00	0.00000e+00	0.00000e+00	0.00000e+00	0.00000e+00	0.00000e+00	0.00000e+00	0.00000e+00	0.00000e+00	0.00000e+00	0.00000e+00	0.00000e+00	0.00000e+00	0.00000e+00	0.00000e+00	0.00000e+00	0.00000e+00	0.00000e+00	0.00000e+00	0.00000e+00	0.00000e+00	0.00000e+00	0.00000e+00	0.00000e+00	0.00000e+00	0.00000e+00	0.00000e+00	0.00000e+00	0.00000e+00	0.00000e+00	0.00000e+00	0.00000e+00	0.00000e+00	0.00000e+00	0.00000e+00	0.00000e+00	0.00000e+00	0.00000e+00	0.00000e+00	0.00000e+00	
Factor	1.00000e+00	1.00000e+00	1.00000e+00	1.00000e+00	1.00000e+00	1.00000e+00	1.00000e+00	1.00000e+00	1.00000e+00	1.00000e+00	1.00000e+00	1.00000e+00	1.00000e+00	1.00000e+00	1.00000e+00	1.00000e+00	1.00000e+00	1.00000e+00	1.00000e+00	1.00000e+00	1.00000e+00	1.00000e+00	1.00000e+00	1.00000e+00	1.00000e+00	1.00000e+00	1.00000e+00	1.00000e+00	1.00000e+00	1.00000e+00	1.00000e+00	1.00000e+00	X	X	X	X	X	X	X	X	X	X	X	X	X	X	X	X	

B = Detector Channel
Val Type	B-AC1	B-AC2	B-AC3	B-AC4	B-AC5	B-AC6	B-AC7	B-AC8	B-AC9	B-AC10	B-AC11	B-AC12	B-AC13	B-AC14	B-AC15	B-AC16	B-DC1	B-DC2	B-DC3	B-DC4	B-DC5	B-DC6	B-DC7	B-DC8	B-DC9	B-DC10	B-DC11	B-DC12	B-DC13	B-DC14	B-DC15	B-DC16	B-Ph1	B-Ph2	B-Ph3	B-Ph4	B-Ph5	B-Ph6	B-Ph7	B-Ph8	B-Ph9	B-Ph10	B-Ph11	B-Ph12	B-Ph13	B-Ph14	B-Ph15	B-Ph16	

Term	0.00000e+00	0.00000e+00	0.00000e+00	0.00000e+00	0.00000e+00	0.00000e+00	0.00000e+00	0.00000e+00	0.00000e+00	0.00000e+00	0.00000e+00	0.00000e+00	0.00000e+00	0.00000e+00	0.00000e+00	0.00000e+00	0.00000e+00	0.00000e+00	0.00000e+00	0.00000e+00	0.00000e+00	0.00000e+00	0.00000e+00	0.00000e+00	0.00000e+00	0.00000e+00	0.00000e+00	0.00000e+00	0.00000e+00	0.00000e+00	0.00000e+00	0.00000e+00	6.09306e+01	-1.28867e+02	-1.24252e+02	-1.83791e+02	-7.10263e+01	-6.44181e+01	-1.55111e+02	-1.62015e+02	-5.97362e+01	-7.09102e+01	-1.70545e+02	-1.70268e+02	-1.83573e+02	-1.76953e+02	-6.30865e+01	-1.49760e+02	
Factor	6.88653e-05	1.99114e-04	5.52351e-05	1.82487e-01	2.78844e-06	2.19230e-06	1.74721e-01	5.94271e-02	3.46584e-06	1.87842e-06	9.44179e-02	3.29784e-02	3.44525e-02	1.09698e-02	2.67653e-06	1.53179e-02	1.06372e-05	1.32956e-05	3.69939e-06	9.20757e-02	1.38416e-07	1.48277e-07	8.30070e-02	2.99589e-02	1.38529e-07	1.47423e-07	4.64028e-02	1.61447e-02	1.73924e-02	5.58577e-03	1.42191e-07	7.57640e-03	X	X	X	X	X	X	X	X	X	X	X	X	X	X	X	X	



#DISTANCE SETTINGS
A = Detector Channel
A-1	A-2	A-3	A-4	A-5	A-6	A-7	A-8	A-9	A-10	A-11	A-12	A-13	A-14	A-15	A-16	

2.5000e+00	3.0000e+00	2.5000e+00	3.0000e+00	2.0000e+00	3.0000e+00	1.5000e+00	3.0000e+00	3.0000e+00	3.0000e+00	3.0000e+00	3.0000e+00	3.0000e+00	3.0000e+00	1.5000e+00	3.0000e+00	

B = Detector Channel
B-1	B-2	B-3	B-4	B-5	B-6	B-7	B-8	B-9	B-10	B-11	B-12	B-13	B-14	B-15	B-16	

1.0000e+01	1.0000e+01	1.0000e+01	1.4400e+00	1.0000e+01	1.0000e+01	1.5100e+00	1.9400e+00	1.0000e+01	1.0000e+01	1.9900e+00	2.4900e+00	2.4100e+00	2.9000e+00	1.0000e+01	2.9800e+00	




#DATA BEGINS
time	group	step	mark	flag	A-AC1	A-AC2	A-AC3	A-AC4	A-AC5	A-AC6	A-AC7	A-AC8	A-AC9	A-AC10	A-AC11	A-AC12	A-AC13	A-AC14	A-AC15	A-AC16	A-DC1	A-DC2	A-DC3	A-DC4	A-DC5	A-DC6	A-DC7	A-DC8	A-DC9	A-DC10	A-DC11	A-DC12	A-DC13	A-DC14	A-DC15	A-DC16	A-Ph1	A-Ph2	A-Ph3	A-Ph4	A-Ph5	A-Ph6	A-Ph7	A-Ph8	A-Ph9	A-Ph10	A-Ph11	A-Ph12	A-Ph13	A-Ph14	A-Ph15	A-Ph16	B-AC1	B-AC2	B-AC3	B-AC4	B-AC5	B-AC6	B-AC7	B-AC8	B-AC9	B-AC10	B-AC11	B-AC12	B-AC13	B-AC14	B-AC15	B-AC16	B-DC1	B-DC2	B-DC3	B-DC4	B-DC5	B-DC6	B-DC7	B-DC8	B-DC9	B-DC10	B-DC11	B-DC12	B-DC13	B-DC14	B-DC15	B-DC16	B-Ph1	B-Ph2	B-Ph3	B-Ph4	B-Ph5	B-Ph6	B-Ph7	B-Ph8	B-Ph9	B-Ph10	B-Ph11	B-Ph12	B-Ph13	B-Ph14	B-Ph15	B-Ph16	aux-1	digaux	

765.942	1	1	0	256	0.13493	0.22248	0.23962	0.26197	0.21091	0.15386	0.021545	0.23753	0.13401	0.25393	0.091518	0.11707	0.32441	0.13197	0.11864	0.27871	-2.2417	-2.9354	-2.775	-2.8125	-3.1104	-2.9688	-3.0667	-3.15	-2.8458	-2.9146	-2.875	-2.9542	-3.1917	-2.9146	-2.8375	-2.9708	299.653	286.381	225.634	318.463	77.476	104.493	52.668	232.776	297.956	127.219	33.682	294.181	304.819	39.493	-6.900	-7.094	0.00043686	0.00072095	9.6835e-05	424.12	4.9826e-06	3.9816e-06	496.97	122.65	7.1139e-06	7.4983e-07	199.36	77.739	45.037	21.082	3.3845e-06	42.737	0.001307	0.0015007	0.00041317	424.29	1.5702e-05	1.7229e-05	496.52	123.85	1.6957e-05	1.7534e-05	201.51	78.773	46.444	21.534	1.739e-05	43.234	-3.866	50.660	52.767	-14.441	116.075	106.355	-14.668	-8.027	121.717	324.710	-9.493	-3.688	-3.433	1.350	162.208	-0.371	-8191	255	
766.038	1	1	0	0	0.071097	0.18875	0.16075	0.20322	0.15387	0.34806	0.079795	0.23051	0.12694	0.31491	0.23392	0.03494	0.16979	0.12759	0.078072	0.10595	-2.3229	-2.9208	-2.9646	-2.8063	-3.0292	-2.9146	-2.9313	-3.0292	-2.9167	-3.0771	-3.1604	-2.9375	-3.1208	-2.8542	-3.0312	-3.1562	50.141	159.908	89.321	249.298	12.029	-1.661	-16.105	-4.422	148.198	294.375	65.350	187.296	244.941	67.128	78.153	174.909	0.0006052	0.00047702	1.3694e-05	422.18	4.5894e-06	2.5714e-06	502.16	122.51	5.0711e-06	5.6509e-06	200.69	78.127	45.071	20.973	4.4697e-06	42.352	0.0013905	0.0015952	0.0004359	422.08	1.6063e-05	1.7313e-05	499.64	123.91	1.606e-05	1.6975e-05	202.48	78.965	46.335	21.488	1.713e-05	43.095	-16.447	54.924	77.178	-14.258	78.177	169.799	-14.840	-8.180	180.102	105.681	-9.608	-4.027	-3.609	1.354	136.075	-0.400	-8191	255	
766.134	1	1	0	0	0.24278	0.10701	0.10519	0.17167	0.17371	0.16451	0.03905	0.26768	0.049213	0.063862	0.02771	0.029692	0.016591	0.070942	0.30816	0.067677	-2.5354	-2.9313	-3.0208	-2.6833	-3.1542	-2.8875	-3.0917	-3.1271	-2.9458	-2.9188	-3.1271	-2.6625	-2.9917	-3.0438	-2.725	-3.0479	272.684	200.170	195.409	261.015	72.680	254.758	-12.570	-3.075	191.453	299.125	4.700	90.122	207.271	281.271	15.256	14.226	0.00050132	0.00087137	6.1055e-05	413.92	3.5762e-06	3.1994e-06	507.06	121.29	9.1546e-06	2.3944e-06	201.85	77.403	44.462	20.956	6.1114e-06	42.652	0.0013519	0.0015924	0.00044141	417.12	1.6155e-05	1.6845e-05	503.3	122.38	1.5917e-05	1.6727e-05	202.93	78.101	45.812	21.289	1.6117e-05	43.385	-13.714	77.934	49.009	-14.250	159.069	155.459	-14.944	-8.189	125.498	105.896	-9.315	-4.193	-3.294	1.311	179.744	-0.497	-8191	255	
766.230	1	1	0	0	0.25208	0.036975	0.24555	0.046882	0.29588	0.17432	0.12445	0.17899	0.20804	0.17764	0.16763	0.37501	0.12065	0.13923	0.27559	0.15722	-2.2583	-2.9313	-3.1229	-2.8104	-2.9583	-3.1229	-2.8271	-3.1854	-2.8854	-2.8458	-3.2625	-2.6021	-2.8875	-2.9417	-2.8583	-3.1562	-20.673	-11.355	261.869	314.404	98.082	310.492	330.458	187.862	322.847	262.638	217.273	213.750	220.845	303.225	284.473	326.611	0.00063948	0.00043665	2.749e-05	413.52	2.9817e-06	4.1436e-06	505	121.09	7.5866e-06	5.45e-06	198.69	75.314	43.499	20.178	8.93e-06	41.971	0.0012708	0.0014932	0.00040141	415.35	1.5421e-05	1.6193e-05	504.23	121.85	1.4938e-05	1.6101e-05	200.8	76.138	44.426	20.545	1.4477e-05	42.397	330.671	64.924	70.095	-14.503	75.511	138.831	-14.807	-8.197	169.297	141.021	-9.866	-3.798	-3.291	1.252	124.733	-0.448	-8191	255	
766.351	1	1	0	0	0.23941	0.19431	0.069613	0.37555	0.27623	0.13538	0.20615	0.035292	0.23207	0.12767	0.16556	0.062192	0.10915	0.14677	0.23738	0.14649	-2.4167	-2.8771	-2.9729	-2.975	-2.9188	-3.1083	-2.9417	-2.9833	-3.0375	-2.8229	-3.1021	-2.7479	-2.9354	-2.9854	-2.8937	-3.0875	15.360	57.068	184.674	21.995	318.905	271.570	207.151	10.038	240.180	288.296	-3.260	261.121	145.645	153.933	104.197	262.916	0.00054728	0.00033262	0.00018739	401.09	1.0158e-05	4.8448e-06	500.39	118.23	3.9386e-06	3.9479e-06	197.72	74.265	41.855	19.569	1.1267e-05	41.212	0.0011513	0.0013353	0.00036872	403.71	1.4261e-05	1.472e-05	498.5	119.35	1.4219e-05	1.5436e-05	198.24	74.889	43.41	20.118	1.449e-05	41.622	-21.359	59.478	12.968	-14.566	113.087	84.953	-14.376	-8.179	54.534	108.863	-9.426	-4.057	-3.184	1.075	171.991	-0.675	-8191	255	
766.447	1	1	0	0	0.074125	0.086549	0.2288	0.071486	0.13833	0.17488	0.085088	0.1114	0.10058	0.31529	0.10377	0.25462	0.15137	0.11577	0.036245	0.30784	-2.5292	-2.8271	-3.1958	-2.8583	-2.9625	-3.0354	-2.9833	-3.0521	-2.9708	-2.8167	-3.1104	-2.7979	-2.7854	-2.9667	-2.8771	-3.0083	3.403	150.203	306.405	110.636	76.885	52.763	211.685	75.933	305.613	42.070	199.717	-25.682	-7.177	16.772	27.359	225.140	0.00058389	0.00034149	7.1589e-05	400.47	3.4469e-06	5.0158e-06	499.13	117.74	2.0935e-06	3.1614e-06	196.29	74.552	42.498	19.763	4.3724e-06	41.205	0.0011286	0.0012909	0.00034236	399.5	1.2996e-05	1.338e-05	495.86	118.49	1.2519e-05	1.3605e-05	198.03	75.068	43.579	20.074	1.3183e-05	41.645	-25.545	95.397	25.263	-14.386	84.712	101.135	-14.780	-7.916	-18.215	144.093	-9.868	-4.194	-3.346	1.043	135.558	-0.211	-8191	255	
766.541	1	1	0	0	0.12165	0.11231	0.26071	0.12037	0.12745	0.03138	0.25298	0.18635	0.071726	0.41177	0.073212	0.15679	0.14489	0.099808	0.34223	0.19046	-2.5979	-2.7167	-3.2	-2.9354	-2.8229	-3.1271	-2.9708	-3.1021	-3.0667	-2.8917	-3.1625	-2.9521	-2.8125	-3.0333	-2.9688	-3.1125	310.655	281.934	-11.406	297.848	209.061	19.794	154.492	289.341	53.751	-8.158	284.782	90.492	16.364	287.690	83.628	243.500	0.00052401	0.00039917	6.3511e-05	394.78	4.333e-06	4.2436e-06	498.83	117.62	6.7771e-06	2.1947e-06	195.27	74.364	42.188	19.529	4.5564e-06	41.155	0.0010675	0.0012116	0.00032758	394.11	1.2517e-05	1.2933e-05	496.37	118.13	1.2257e-05	1.3154e-05	197.39	74.599	43.075	19.841	1.2989e-05	41.616	317.995	130.953	86.447	-14.407	109.442	96.224	-15.025	-8.601	167.030	167.319	-9.667	-4.209	-3.204	1.046	189.056	-0.638	-8191	255	
766.639	1	1	0	0	0.066957	0.20651	0.10558	0.24652	0.15084	0.17395	0.088687	0.17098	0.0336	0.094178	0.046942	0.16276	0.080565	0.15561	0.31979	0.23603	-2.825	-2.8208	-3.0125	-2.9188	-2.8604	-3.3063	-2.9479	-2.9667	-3.0208	-2.8646	-2.9792	-2.95	-2.825	-3.075	-2.9708	-2.9479	176.408	243.092	322.301	312.824	109.699	54.098	59.852	286.400	13.472	-5.866	261.947	46.003	93.250	40.139	235.088	58.988	0.00044853	0.00034837	2.3449e-05	393.24	4.7317e-06	7.0291e-06	504.91	118.38	8.8028e-06	1.1873e-06	199.38	73.922	42.051	19.307	3.2151e-06	41.279	0.0010056	0.0011836	0.00032924	392.29	1.2756e-05	1.3094e-05	500.45	118.92	1.226e-05	1.3169e-05	199.67	74.534	42.875	19.682	1.2137e-05	41.641	326.933	11.929	187.456	-14.770	142.512	112.438	-14.731	-8.365	146.706	-9.487	-9.578	-4.590	-3.161	1.340	233.083	-0.298	-8191	255	
766.733	1	1	0	0	0.10432	0.42968	0.31405	0.011445	0.065338	0.11124	0.12987	0.28476	0.21699	0.066289	0.1369	0.34079	0.14669	0.26037	0.14149	0.12324	-2.7812	-2.7458	-3.1729	-3.2188	-2.8521	-3.1125	-2.9542	-2.95	-3.1562	-3.0833	-3.1792	-2.9854	-2.8208	-2.9667	-2.9375	-2.9958	152.873	-18.867	187.300	45.899	161.814	139.613	32.037	303.385	174.760	207.069	63.156	16.316	187.216	21.272	50.268	195.388	0.00057529	0.00037966	5.3185e-05	388.87	5.4921e-06	4.6303e-06	505.21	118.28	1.0037e-05	3.5665e-06	199.55	74.308	42.366	19.394	5.5931e-06	41.256	0.00097463	0.0011308	0.0003154	389.48	1.2246e-05	1.257e-05	503.29	118.73	1.2004e-05	1.2743e-05	200.88	75.038	43.262	19.706	1.2074e-05	41.705	323.051	38.518	57.347	-14.482	177.981	109.700	-15.070	-8.890	160.867	66.367	-10.185	-4.386	-3.545	1.082	95.492	-0.263	-8191	255	
766.830	1	1	0	0	0.06482	0.26794	0.34718	0.052977	0.19023	0.072893	0.1771	0.43012	0.022209	0.33214	0.15464	0.014438	0.20216	0.11965	0.19222	0.14351	-2.7271	-2.8333	-3.0229	-2.9458	-2.7771	-3.0875	-2.9833	-2.8	-3.2542	-2.9354	-2.9875	-3.0458	-2.8646	-3.1479	-3.0438	-2.8771	-25.976	53.456	62.319	221.017	139.797	162.363	-9.585	273.703	-25.211	163.052	295.232	227.526	83.950	146.683	243.412	218.033	0.00046586	0.00026371	0.00013286	391.32	3.4009e-06	2.133e-06	511.5	119.03	3.4922e-06	2.5932e-06	199.34	75.001	42.552	19.721	1.7293e-06	41.566	0.00097397	0.001101	0.00029996	390.55	1.1042e-05	1.1602e-05	504.43	119.34	1.0994e-05	1.1926e-05	200.56	75.586	43.314	19.953	1.1829e-05	41.901	328.845	123.734	40.541	-14.736	184.728	112.521	-14.846	-8.752	171.976	111.675	-9.533	-4.365	-3.363	1.459	103.018	-0.258	-8191	255	
766.926	1	1	0	0	0.26286	0.04653	0.10198	0.084699	0.41019	0.27188	0.065414	0.21579	0.075154	0.10681	0.16249	0.23942	0.27998	0.10772	0.06176	0.15074	-2.6417	-2.85	-2.9021	-3.0667	-2.7979	-3.0521	-3.1292	-2.8729	-3.0646	-2.9604	-3.0062	-3.0646	-2.9292	-3.0896	-2.8792	-2.9771	5.441	197.365	78.240	68.820	325.255	284.763	104.912	229.857	155.411	237.865	185.456	171.602	66.395	255.584	144.598	118.123	0.00057302	0.00021846	0.00010289	392.28	4.6013e-06	3.1178e-06	503.91	117.82	2.8403e-06	3.6283e-06	197.75	74.624	42.332	19.53	3.2201e-06	41.162	0.00096885	0.0010686	0.00030256	390.03	1.138e-05	1.1848e-05	500.16	118.97	1.1225e-05	1.197e-05	198.97	75.147	43.117	19.805	1.1856e-05	41.668	-23.856	81.862	26.430	-14.656	154.867	194.371	-14.674	-8.682	234.486	88.732	-9.634	-4.643	-3.207	1.118	198.114	-0.575	-8191	255	
767.022	1	1	0	0	0.051041	0.21901	0.2312	0.21785	0.20374	0.048626	0.18659	0.078047	0.25221	0.058007	0.077667	0.25073	0.047211	0.32364	0.31874	0.21425	-2.7	-2.9229	-2.9333	-3.2375	-2.9917	-3.0708	-3.1646	-2.6875	-3.1333	-2.9146	-3.0417	-3.2042	-3.0292	-2.8229	-3.2	-2.6646	182.487	328.023	16.267	16.880	291.391	49.643	-19.637	19.009	309.359	-8.363	332.222	54.441	112.214	244.438	81.442	239.908	0.00049598	0.00033716	0.00019157	390.92	6.9618e-06	5.042e-06	508.81	120.39	1.0692e-05	1.2233e-06	199.36	75.248	42.43	19.461	4.287e-06	41.288	0.0009919	0.0011386	0.0003206	390.56	1.2496e-05	1.3034e-05	505	120.28	1.2316e-05	1.3187e-05	201.14	75.806	43.764	19.816	1.232e-05	41.78	327.028	6.897	89.197	-14.891	181.898	196.168	-14.950	-8.281	129.630	123.820	-10.001	-4.258	-3.713	1.362	132.162	-0.343	-8191	255	
767.143	1	1	0	0	0.26835	0.14888	0.18385	0.10505	0.14699	0.23278	0.089188	0.25345	0.31895	0.1308	0.089059	0.081771	0.098741	0.28842	0.076846	0.021654	-2.6521	-2.8167	-2.9792	-3.2146	-2.975	-3.0042	-3.0396	-2.7792	-3.0729	-3.0271	-2.9604	-3.3937	-2.8854	-2.9229	-3.1458	-3.0021	318.018	-7.432	302.637	283.059	-7.673	255.077	272.757	11.513	130.039	-13.445	136.734	298.767	108.398	21.918	316.261	20.001	0.00043147	0.00027881	6.4145e-05	392.57	2.9299e-06	3.897e-06	508.51	119.1	1.0773e-05	3.118e-06	200.03	75.174	42.823	19.379	5.7417e-06	41.249	0.00099974	0.001141	0.00032106	392.33	1.2179e-05	1.3012e-05	504.88	120.02	1.2227e-05	1.2953e-05	200.92	75.678	43.595	19.786	1.2687e-05	41.748	-22.645	121.892	54.905	-14.695	224.266	73.658	-14.677	-8.699	116.383	110.870	-10.069	-4.266	-3.376	0.672	144.634	-0.669	-8191	255	
767.239	1	1	0	0	0.17804	0.15557	0.15812	0.21446	0.21263	0.063875	0.26847	0.097368	0.12258	0.12886	0.19185	0.02883	0.086259	0.14456	0.12949	0.14973	-2.6042	-3.1083	-2.7646	-3.1771	-2.9583	-2.9813	-3.0604	-2.7583	-3.1688	-3.1271	-2.7958	-3.1208	-2.9521	-2.9458	-3.2604	-3.0438	287.404	-10.068	94.182	155.998	73.269	82.704	264.963	15.006	25.585	205.882	-0.526	288.400	13.043	126.333	290.246	231.380	0.00061041	0.00053801	9.625e-05	392.78	4.5074e-06	2.4524e-06	509.45	119.03	5.153e-06	5.3788e-06	199.78	74.942	42.607	19.463	5.2301e-06	41.028	0.0010587	0.0011894	0.00033602	393.81	1.2428e-05	1.3584e-05	505.13	119.88	1.2356e-05	1.32e-05	201.12	75.945	43.619	19.86	1.3775e-05	41.677	322.079	81.490	93.968	-14.736	105.535	83.298	-14.861	-8.483	60.420	180.019	-9.769	-4.243	-3.829	1.144	153.674	-0.571	-8191	255	
767.310	1	1	0	0	0.053042	0.071678	0.2084	0.11227	0.14654	0.05576	0.10853	0.20735	0.15651	0.19054	0.21611	0.12514	0.053677	0.24146	0.031299	0.089084	-2.5125	-2.9813	-2.7208	-3.0625	-2.9396	-3.0062	-3.0708	-2.7938	-3.1458	-2.9313	-2.825	-3.0833	-2.9208	-2.8458	-2.8979	-2.775	69.898	35.185	100.403	23.359	179.552	223.855	314.281	304.671	224.258	253.032	318.803	185.131	81.383	201.265	204.816	157.368	0.00039871	0.00021533	0.00012334	391.88	3.843e-06	2.9421e-06	509.31	118.44	5.647e-06	3.1958e-06	200.04	74.336	42.216	19.051	1.7881e-06	41.102	0.0011558	0.0013823	0.00040152	393.05	1.5033e-05	1.6547e-05	508.45	119.81	1.5453e-05	1.5974e-05	201.99	75.273	43.32	19.539	1.4434e-05	41.594	-13.634	46.000	25.729	-14.597	16.625	100.304	-15.127	-8.808	140.425	116.902	-9.794	-4.267	-3.370	1.206	157.616	-0.481	-8191	255	
767.431	1	1	0	0	0.18911	0.2279	0.13291	0.29039	0.094996	0.24007	0.13849	0.14334	0.14188	0.17381	0.29883	0.29656	0.067853	0.25198	0.11505	0.13707	-2.5854	-3.0583	-2.7375	-3.0083	-3.0021	-2.7542	-3.0917	-3.0646	-2.9562	-3.0375	-2.7604	-3.0208	-2.9958	-2.7542	-3.1271	-2.9375	94.260	249.685	115.394	-9.856	242.984	285.951	14.774	-3.140	251.955	332.394	-0.798	26.737	75.311	322.074	-0.887	188.754	0.00049936	0.00065434	0.00010885	392.63	2.3232e-06	2.4948e-06	512.85	118.99	9.9266e-06	3.1023e-06	199.33	74.531	41.894	19.137	6.3842e-06	40.462	0.001171	0.0013101	0.00037899	392.55	1.4198e-05	1.5536e-05	507.44	119.63	1.4902e-05	1.5589e-05	200.94	75.393	43.414	19.518	1.498e-05	41.163	324.259	53.515	128.913	-14.271	14.866	51.629	-14.726	-8.471	175.073	90.929	-9.652	-4.556	-3.566	0.757	99.744	-0.497	-8191	255	
767.527	1	1	0	0	0.051504	0.2019	0.12215	0.10172	0.24701	0.057235	0.20576	0.12431	0.22398	0.029377	0.20981	0.087125	0.066883	0.28044	0.18375	0.091394	-2.5167	-3.0521	-2.9083	-2.9	-3.0542	-3.0312	-3.1979	-2.9333	-2.9458	-3.0687	-2.9938	-3.0021	-3.175	-2.775	-3.2062	-2.9333	12.065	203.238	284.929	20.260	210.541	120.088	323.618	259.374	-22.603	209.115	258.402	183.292	288.464	253.825	292.291	-2.974	0.00043912	0.00052271	0.00022898	391	3.2059e-06	4.922e-06	505.45	117.97	9.1264e-06	7.2692e-06	196.73	74.656	42.293	19.099	3.2491e-06	40.317	0.0012063	0.0013346	0.00038595	390.8	1.367e-05	1.4924e-05	503.55	118.77	1.4151e-05	1.4905e-05	198.73	74.976	43.225	19.497	1.4813e-05	40.8	332.023	15.408	79.267	-14.458	201.110	168.137	-14.586	-8.810	164.303	135.980	-9.683	-4.367	-3.390	1.227	157.341	-0.521	-8191	255	
767.623	1	1	0	0	0.29821	0.1949	0.1313	0.22136	0.10965	0.04035	0.044682	0.10361	0.19431	0.050855	0.21372	0.29745	0.059429	0.090651	0.051112	0.27258	-2.5792	-3.0125	-2.9062	-3.1396	-3.1312	-2.9271	-3.1188	-2.9813	-2.8479	-3.1583	-3.0458	-3.0917	-3.1437	-2.8	-3.1542	-3.125	137.190	134.886	124.029	304.938	-22.999	194.173	287.601	240.982	176.035	29.794	32.043	120.361	191.621	299.625	177.363	312.083	0.00059181	0.00038264	6.4853e-05	388.95	4.6717e-06	4.4645e-06	505.19	117.57	6.1008e-06	3.5247e-06	196.84	73.749	41.998	18.972	1.7036e-06	40.445	0.0012501	0.0014113	0.00039431	390.06	1.4493e-05	1.5741e-05	502.42	118.36	1.4318e-05	1.4874e-05	198.11	74.51	42.963	19.435	1.4107e-05	41.095	328.645	41.220	109.220	-14.726	184.453	57.198	-14.892	-8.878	199.229	95.828	-9.924	-4.279	-3.400	1.596	219.025	-0.521	-8191	255	
767.742	1	1	0	0	0.35745	0.12206	0.12888	0.28282	0.15293	0.12571	0.20565	0.22314	0.083255	0.19396	0.22774	0.25428	0.0626	0.11762	0.22184	0.1111	-2.4188	-2.9958	-2.8563	-2.875	-3.1458	-2.8646	-3	-3.0812	-2.8542	-3.1979	-2.8438	-2.8583	-3.2229	-2.7875	-3.0833	-2.9229	14.094	-12.809	-11.102	302.249	114.099	43.038	324.289	157.896	46.582	86.327	141.618	75.151	177.291	316.276	215.678	183.838	0.00057642	0.00036611	0.00010309	389.79	5.0067e-06	2.4488e-06	505.8	117.1	4.9822e-06	4.8917e-06	195.76	73.393	41.793	19.123	4.847e-06	40.64	0.0011859	0.0013896	0.00037654	390.07	1.4414e-05	1.5514e-05	503.48	118.47	1.4776e-05	1.5146e-05	198.25	74.506	42.989	19.503	1.48e-05	41.041	326.973	48.717	31.448	-14.779	167.968	177.595	-14.651	-8.533	280.667	166.188	-9.537	-4.792	-3.655	1.338	89.066	-0.580	-8191	255	
767.838	1	1	0	0	0.13889	0.062358	0.082107	0.07495	0.13778	0.037628	0.093147	0.10823	0.18297	0.19442	0.18855	0.15018	0.13401	0.12699	0.2588	0.2057	-2.3563	-3.1667	-3.0312	-2.8104	-3.0396	-3	-3.1813	-3.0979	-2.9333	-3.2021	-3.0625	-2.9333	-3.1188	-2.8792	-3.1771	-3.0979	290.888	135.731	312.782	-24.630	56.402	82.205	212.423	104.445	15.312	31.101	152.244	240.671	115.869	179.355	44.099	3.199	0.00040329	0.00034784	0.00021237	392.7	6.7988e-06	5.4231e-06	506.51	118.06	1.117e-06	6.446e-06	198.5	74.657	42.193	19.192	7.3021e-06	40.526	0.0011955	0.0013572	0.00037661	391.72	1.446e-05	1.5504e-05	504.59	119.11	1.4773e-05	1.5555e-05	200.2	75.404	43.485	19.615	1.5099e-05	41.165	-20.642	64.845	20.774	-15.023	161.007	62.960	-14.612	-8.400	285.929	106.189	-9.577	-4.109	-3.514	1.250	131.029	-0.477	-8191	255	
767.912	1	1	0	0	0.093627	0.22032	0.14747	0.21467	0.18097	0.11208	0.25545	0.15449	0.13305	0.13609	0.20402	0.0787	0.20813	0.27893	0.14523	0.059077	-2.4604	-2.9021	-2.9229	-2.8563	-3.0896	-2.975	-3.1167	-2.9333	-3.0104	-3.1458	-3.0979	-2.8354	-3.1063	-2.9	-2.9875	-3.2062	105.959	312.621	324.776	218.651	6.438	126.655	296.984	99.408	168.218	318.691	150.339	12.044	296.944	301.415	295.581	330.701	0.00048501	0.00041084	0.00010221	392.25	4.623e-06	2.5499e-06	509.53	117.65	3.5029e-06	4.7367e-06	199.49	74.864	42.243	19.076	5.7685e-06	40.624	0.0012279	0.0013847	0.00037786	392.24	1.4438e-05	1.5108e-05	505.92	118.66	1.4373e-05	1.4793e-05	200.06	75.483	43.333	19.617	1.4691e-05	41.329	331.832	50.605	76.737	-14.481	208.445	57.295	-14.921	-8.535	266.455	120.083	-9.937	-4.175	-3.406	1.561	223.866	-0.206	-8191	255	
768.031	1	1	0	0	0.34295	0.24611	0.2022	0.071862	0.10594	0.1662	0.23595	0.18779	0.12529	0.092854	0.093327	0.17466	0.213	0.23953	0.051366	0.061091	-2.4146	-2.8937	-2.9375	-2.7604	-3.1333	-2.95	-2.8896	-3.1146	-2.7313	-3.1604	-3.1688	-2.7729	-3.1625	-2.9625	-2.8333	-3.2271	-20.777	219.329	44.463	225.008	330.320	37.695	197.353	110.857	91.545	271.424	103.588	121.809	219.874	37.556	300.055	258.334	0.00055234	0.00032484	8.3344e-05	393.77	6.8378e-06	4.3179e-06	512.36	119.18	5.3862e-06	6.0452e-06	200.47	74.931	41.936	19.175	6.1159e-06	41.046	0.001242	0.0014408	0.00039475	392.87	1.4909e-05	1.5653e-05	508.98	119.83	1.5089e-05	1.5519e-05	201.6	75.843	43.263	19.645	1.5042e-05	41.504	-19.873	157.775	192.285	-14.619	76.317	127.246	-15.037	-8.723	234.529	113.653	-9.871	-4.087	-3.190	1.452	142.715	-0.225	-8191	255	
768.127	1	1	0	0	0.15942	0.29057	0.045897	0.06016	0.095349	0.10314	0.093596	0.16002	0.12563	0.11267	0.15501	0.12954	0.1108	0.14262	0.27882	0.22195	-2.4313	-3.0563	-2.9729	-2.8104	-3.0979	-3.05	-2.9333	-3.1104	-2.8458	-2.8104	-3.0458	-2.9208	-2.9958	-2.8125	-2.875	-3.2833	187.169	277.160	269.413	302.990	282.844	321.588	298.451	262.082	70.728	316.191	91.679	243.652	187.420	328.947	125.164	240.260	0.00045087	0.00042839	0.00013673	393.03	5.4325e-06	4.5235e-06	508.94	117.22	6.2094e-06	2.8875e-06	198	74.439	42.136	19.114	3.4763e-06	40.6	0.0012251	0.0014158	0.00037911	392.27	1.505e-05	1.5922e-05	506.46	119.02	1.5209e-05	1.5921e-05	199.98	75.095	43.234	19.502	1.5286e-05	41.062	328.681	52.446	99.749	-14.542	17.499	87.295	-14.887	-8.464	201.191	32.171	-10.006	-4.465	-3.399	1.130	44.746	-0.751	-8191	255	
768.223	1	1	0	0	0.064166	0.28645	0.18773	0.16672	0.057151	0.28739	0.27328	0.2301	0.15267	0.2171	0.19437	0.13314	0.097366	0.2802	0.12906	0.13727	-2.3292	-3.0792	-2.9583	-2.8521	-3.0229	-2.9875	-2.9833	-3.0396	-2.8625	-3.0312	-3.0854	-2.7292	-3.1271	-2.9083	-2.9104	-3.1521	126.200	330.342	9.167	32.713	-22.513	102.297	321.152	226.365	48.356	213.678	2.784	7.473	120.108	221.383	291.300	176.171	0.00048675	0.00071844	7.1229e-05	390.52	1.0009e-05	8.2038e-06	500.09	117.06	6.0708e-06	2.5471e-06	197.59	73.895	41.763	19.129	4.0035e-06	40.28	0.0012154	0.0013995	0.00037702	391.06	1.4113e-05	1.4988e-05	499.54	118.12	1.4513e-05	1.5285e-05	198.21	74.612	43.099	19.491	1.5514e-05	40.83	-18.860	108.148	84.709	-14.655	108.012	162.126	-14.771	-8.314	80.997	88.676	-9.890	-4.245	-3.774	1.457	174.397	-0.435	-8191	255	
768.344	1	1	0	0	0.090786	0.13739	0.30844	0.009442	0.12819	0.20961	0.34146	0.33522	0.10021	0.079622	0.059876	0.22762	0.093293	0.054675	0.12938	0.27077	-2.5208	-2.9792	-2.9021	-2.9125	-3.0604	-3.1292	-2.9313	-3.1167	-2.85	-2.8104	-3.1458	-2.9292	-2.9708	-3.1104	-2.8458	-3.0917	-0.387	40.504	185.750	162.552	113.410	209.056	261.948	239.946	296.305	285.732	316.121	262.618	306.464	4.176	256.056	-1.875	0.0005711	0.00037972	4.2004e-05	389.29	1.4753e-06	3.7801e-06	503.86	118.12	3.917e-06	2.4431e-06	197.42	74.374	41.772	19.267	9.383e-06	40.365	0.0012082	0.0014335	0.0003887	390.33	1.4365e-05	1.5446e-05	502.31	118.65	1.413e-05	1.5147e-05	198.1	75.034	43.139	19.637	1.5124e-05	41.055	318.358	104.359	196.777	-14.679	242.253	97.376	-14.870	-8.823	39.874	56.629	-9.775	-4.540	-3.487	1.094	143.624	-0.355	-8191	255	
768.440	1	1	0	0	0.10726	0.17544	0.26982	0.14963	0.087	0.23449	0.19825	0.076066	0.030827	0.15947	0.13982	0.02714	0.13999	0.31145	0.078179	0.10066	-2.5312	-2.875	-3.0271	-2.8833	-2.85	-3.1792	-3.0583	-3.075	-2.8708	-2.8063	-3.2042	-2.8292	-3.0646	-3.0604	-2.8042	-3.1375	273.462	54.666	276.478	320.786	314.579	66.437	222.275	111.380	35.711	162.146	56.031	67.635	92.937	244.199	11.671	264.499	0.00039449	0.00017225	3.6951e-05	390.35	1.3241e-06	4.4551e-06	505.89	116.93	3.6486e-06	5.3315e-06	199.01	74.792	42.351	19.265	3.1277e-06	40.879	0.0011964	0.0014116	0.00039001	391.42	1.4637e-05	1.5494e-05	503.86	118.57	1.4551e-05	1.581e-05	200.13	75.435	43.508	19.745	1.5606e-05	41.31	330.692	200.857	-10.594	-14.477	127.153	129.146	-14.808	-8.747	213.398	184.103	-10.056	-4.369	-3.098	1.577	100.373	-0.368	-8191	255	
768.534	1	1	0	0	0.19656	0.2674	0.25802	0.24492	0.19257	0.35699	0.13973	0.24104	0.1258	0.16815	0.14878	0.19903	0.17614	0.11359	0.15728	0.14987	-2.5896	-2.7396	-3.0187	-2.7708	-2.9625	-3.1167	-2.9188	-3.0667	-3.0583	-2.8563	-3.2021	-2.9458	-2.9167	-3.0292	-2.7938	-3.0771	94.739	192.527	-22.014	109.088	236.964	140.539	184.205	298.133	274.454	143.193	215.231	330.364	239.599	-0.216	171.321	257.978	0.00051013	0.00034468	7.177e-05	390.69	1.9794e-06	4.7478e-06	506.85	116.96	3.5209e-06	2.5862e-06	198.5	74.569	42.043	19.131	3.276e-06	40.729	0.0012346	0.0014595	0.00040007	391.58	1.5035e-05	1.5932e-05	504.4	118.67	1.4756e-05	1.6352e-05	199.74	75.405	43.43	19.601	1.5557e-05	41.305	-22.964	68.679	102.749	-15.002	245.950	169.796	-15.079	-8.453	111.382	128.263	-10.060	-4.155	-3.409	1.240	154.405	-0.327	-8191	255	
768.607	1	1	0	0	0.18415	0.15105	0.15086	0.040091	0.27412	0.33042	0.22286	0.25516	0.07671	0.037144	0.071593	0.12801	0.20917	0.21859	0.26086	0.22379	-2.575	-2.8583	-3.0187	-2.9354	-2.7333	-2.9437	-2.825	-3.0771	-3.2146	-2.7687	-3.1354	-3.0208	-2.8312	-3.1458	-2.7604	-3.0438	44.043	302.244	287.266	331.738	141.175	1.009	249.203	33.178	330.865	6.675	-17.972	252.823	101.723	106.290	8.400	62.035	0.00051391	0.00045047	1.5607e-05	388.69	1.091e-05	4.8793e-06	507.23	118.21	3.894e-06	4.8744e-06	199.05	74.495	42.006	19.04	8.5856e-06	40.645	0.0012107	0.0014645	0.00039762	391.75	1.527e-05	1.5911e-05	505.92	119.14	1.4674e-05	1.6375e-05	200.42	75.155	43.198	19.458	1.5772e-05	41.221	-15.149	124.696	117.672	-14.643	145.529	58.429	-14.753	-9.045	210.556	36.969	-9.968	-4.309	-3.205	1.248	110.562	-0.342	-8191	255	
768.704	1	1	0	0	0.14758	0.06336	0.1231	0.13204	0.22247	0.15126	0.054096	0.09655	0.18347	0.11022	0.049221	0.25217	0.16451	0.12855	0.069614	0.12132	-2.7083	-2.9208	-2.9646	-3.0146	-2.8312	-3.0917	-2.8583	-2.8937	-3.1146	-3.0812	-3.0146	-3.0146	-2.9854	-3.1646	-2.9125	-2.9813	-0.094	-10.774	17.290	65.720	159.954	23.501	135.678	211.874	102.163	-19.557	161.085	219.366	315.213	324.668	54.300	215.750	0.00063257	0.00029356	7.2305e-05	388.58	6.5532e-06	2.1701e-06	508.63	117.33	2.0058e-07	6.2099e-06	197.14	74.305	41.612	19.001	1.1724e-05	40.548	0.0012695	0.0015239	0.0004152	390.13	1.5638e-05	1.6476e-05	508.01	118.49	1.5101e-05	1.6057e-05	199.38	75.102	42.991	19.363	1.5507e-05	41.027	326.768	42.832	67.778	-14.620	142.084	192.742	-14.831	-8.547	220.030	86.739	-9.826	-3.908	-3.630	1.224	90.360	-0.337	-8191	255	
768.823	1	1	0	0	0.039753	0.14734	0.22112	0.10129	0.24534	0.19677	0.073573	0.16301	0.023675	0.15522	0.26254	0.32437	0.1396	0.254	0.3558	0.073649	-2.8625	-2.7083	-3.0271	-2.9958	-2.8104	-3.1479	-2.9896	-2.8521	-3.0646	-2.7	-3.0146	-3.0167	-2.8333	-3.1458	-2.8979	-2.8563	58.202	141.528	47.564	211.682	165.337	115.867	299.370	61.586	62.115	152.948	26.019	84.325	171.979	223.697	97.968	279.138	0.00068034	0.00019718	0.00013141	387.8	7.6379e-06	3.1977e-06	507.22	116.83	4.5801e-06	4.9127e-06	196.59	73.575	41.896	18.943	2.8734e-06	40.021	0.0012315	0.0014643	0.00040829	389.25	1.5442e-05	1.6088e-05	504.49	118.03	1.4727e-05	1.5838e-05	198.53	74.56	42.905	19.326	1.4661e-05	40.747	-22.895	40.573	94.654	-14.739	89.006	113.915	-14.708	-8.845	121.907	99.658	-9.961	-4.557	-3.739	1.177	155.579	-0.384	-8191	255	
768.919	1	1	0	0	0.45061	0.19559	0.30905	0.062491	0.23347	0.122	0.13285	0.11299	0.27915	0.073529	0.061483	0.15137	0.10452	0.094058	0.11957	0.14513	-2.6583	-2.8292	-3.0625	-2.9271	-2.825	-3.1042	-2.95	-2.8771	-3.0458	-2.9625	-2.9854	-2.9542	-2.7292	-2.9333	-3.0167	-2.8438	207.723	118.315	214.102	79.017	73.531	188.704	167.139	119.461	150.464	148.842	272.556	237.776	23.373	253.100	-25.854	100.631	0.00051759	0.00043229	4.155e-05	386.09	3.1975e-06	4.2484e-06	504.16	116.27	9.7876e-06	2.2444e-06	195.91	73.469	41.354	18.936	6.5277e-06	40.164	0.0011825	0.0013802	0.00038123	386.32	1.5157e-05	1.559e-05	500.64	117.43	1.4703e-05	1.5434e-05	197.82	74.249	42.708	19.271	1.4579e-05	40.656	332.121	73.628	83.982	-14.556	172.704	137.603	-14.922	-8.895	83.007	75.402	-9.819	-4.398	-3.326	1.410	182.643	-0.228	-8191	255	
769.013	1	1	0	0	0.1559	0.26833	0.26617	0.065815	0.27084	0.18297	0.23022	0.34286	0.073433	0.076235	0.083929	0.17456	0.26049	0.19106	0.027283	0.089021	-2.7354	-2.7729	-2.9437	-3.0521	-2.8417	-3.1021	-3.0438	-2.6604	-3.2021	-2.9938	-2.8563	-3.1667	-2.8396	-2.9417	-2.8875	-2.9104	270.219	143.961	34.845	186.386	84.391	331.647	108.153	-9.900	266.487	296.983	42.432	263.596	213.202	-25.038	232.507	128.089	0.00070384	0.00020906	0.00018663	385.18	7.4146e-06	3.1974e-06	501.34	116.2	1.7234e-06	2.5858e-06	196.77	73.539	41.439	18.763	1.8525e-06	40.233	0.0011773	0.0013721	0.000379	386.16	1.4367e-05	1.5227e-05	499.66	117.26	1.4391e-05	1.5328e-05	198.45	74.349	42.755	19.198	1.4586e-05	40.672	-26.312	58.989	107.145	-14.547	75.064	101.797	-14.883	-8.881	173.954	221.784	-10.112	-4.275	-3.557	1.247	222.614	-0.746	-8191	255	
769.111	1	1	0	0	0.1224	0.12565	0.262	0.27482	0.13633	0.14388	0.27105	0.028209	0.22324	0.14239	0.25445	0.10907	0.1353	0.10965	0.13183	0.19627	-2.5062	-2.9	-2.7375	-2.9667	-2.7958	-2.9104	-2.975	-2.7021	-3.125	-2.925	-2.7438	-3.0396	-2.8354	-3.0146	-3.0292	-3.0312	143.719	15.653	-3.652	71.189	102.459	129.540	232.871	58.739	118.894	265.601	-22.252	216.855	143.297	298.702	203.375	325.663	0.00033619	0.00029304	0.00017749	386.02	7.0614e-06	1.0026e-06	501.42	115.82	3.937e-06	5.6444e-06	197.34	73.015	41.442	18.79	2.766e-06	40.232	0.0011885	0.0013529	0.00038328	385.97	1.4261e-05	1.4869e-05	500.7	117.05	1.3998e-05	1.4514e-05	198.28	74.235	42.495	19.212	1.4035e-05	40.763	325.247	73.204	127.223	-15.173	151.660	198.202	-14.804	-8.877	302.586	104.111	-9.922	-3.998	-3.545	1.252	132.293	-0.305	-8191	255	
769.205	1	1	0	0	0.0899	0.036647	0.06689	0.2751	0.15496	0.22637	0.27349	0.11598	0.31384	0.17534	0.11303	0.0036292	0.23973	0.11081	0.19883	0.23478	-2.5229	-2.8708	-2.9542	-2.9979	-2.9271	-3.1312	-2.9854	-2.825	-3.1021	-3.0208	-2.9479	-3.2167	-2.8167	-2.95	-3.0958	-2.8396	19.506	262.595	274.883	-12.828	166.555	-1.375	298.114	3.357	104.205	275.578	244.034	231.017	108.576	148.885	244.532	27.669	0.00049567	0.00017396	0.00016982	383.99	2.6319e-06	5.0235e-06	505.5	116.89	2.7031e-06	3.3894e-06	198.05	73.669	41.186	18.835	5.0437e-06	40.084	0.0011905	0.0013589	0.00038849	385.5	1.4328e-05	1.534e-05	503.17	117.94	1.4112e-05	1.4614e-05	199.62	74.663	42.54	19.238	1.4679e-05	40.849	331.930	60.612	70.605	-14.454	130.995	168.613	-14.914	-8.879	176.217	178.702	-9.907	-4.214	-3.315	1.038	153.872	-0.421	-8191	255	
769.303	1	1	0	0	0.047968	0.094842	0.40153	0.17231	0.061985	0.22349	0.27914	0.086713	0.28429	0.10568	0.22197	0.11194	0.16985	0.2652	0.15372	0.16891	-2.4396	-3.0292	-2.7313	-3.1	-2.9958	-2.9062	-3.0583	-2.9813	-2.9833	-3.0687	-3.0125	-3.1208	-2.9604	-2.9125	-3.2375	-2.8542	318.092	66.768	243.960	304.328	35.955	21.101	304.486	298.448	317.589	23.245	50.015	325.324	165.481	219.178	-21.699	187.123	0.0005268	0.00041107	0.00013279	383.83	6.177e-06	5.2382e-06	510.47	117.19	1.6921e-06	6.1943e-06	200.7	75.044	41.868	18.811	6.1071e-06	40.301	0.0011868	0.0013783	0.00039419	386.12	1.4783e-05	1.5848e-05	507.82	118.6	1.5185e-05	1.5571e-05	201.6	75.658	43.252	19.233	1.5579e-05	40.89	324.422	107.955	-3.290	-14.524	137.269	52.404	-14.402	-8.574	68.606	142.002	-10.057	-4.433	-3.617	1.169	167.145	-0.416	-8191	255	
769.422	1	1	0	0	0.11811	0.12496	0.27529	0.16291	0.27045	0.21555	0.15916	0.14026	0.066159	0.054153	0.14734	0.17189	0.16632	0.036018	0.11118	0.094152	-2.5604	-3.0833	-2.7896	-3.0521	-2.9375	-2.9896	-3.275	-2.8312	-3.0958	-3.0167	-2.9021	-3.2229	-3.0104	-2.8167	-3.0396	-2.8688	284.340	49.065	315.986	207.546	192.732	114.664	120.039	281.016	122.646	81.880	302.514	272.406	111.369	260.564	43.804	247.671	0.00049522	0.00084047	2.9915e-05	385.48	2.5427e-06	5.728e-06	507.18	116.95	5.7998e-06	3.2531e-06	198.4	74.15	42.027	18.799	5.5399e-06	40.009	0.0012228	0.001424	0.00039957	386.81	1.4233e-05	1.569e-05	506.54	118.41	1.4392e-05	1.5387e-05	200.62	75.15	43.019	19.175	1.4748e-05	40.623	314.273	121.000	132.260	-14.929	99.281	133.853	-14.915	-8.938	198.399	149.668	-9.828	-4.550	-3.635	1.357	128.192	-0.601	-8191	255	
769.518	1	1	0	0	0.27101	0.21233	0.1433	0.12569	0.31497	0.18158	0.052201	0.073556	0.1786	0.11514	0.12929	0.083274	0.096684	0.071524	0.3374	0.080807	-2.5167	-2.9208	-2.8333	-3.1083	-2.7875	-2.8812	-2.9562	-2.8271	-3.0875	-3.0042	-2.9125	-3.0083	-2.9708	-2.875	-3.1646	-3.0458	224.342	227.014	3.346	172.424	151.389	-6.910	178.363	29.434	39.961	194.275	14.500	146.381	291.364	62.781	234.776	206.271	0.0004788	0.000622	2.1541e-05	383.74	4.0383e-06	6.2818e-06	505.23	117.22	5.537e-06	4.6999e-06	199.61	74.274	41.889	18.873	3.2577e-06	40.442	0.001169	0.0013527	0.00038303	384.72	1.3537e-05	1.4995e-05	504.49	117.78	1.3468e-05	1.4628e-05	199.69	74.787	42.877	19.265	1.3928e-05	40.864	322.330	26.956	55.502	-15.089	126.420	177.709	-14.667	-8.517	46.524	118.708	-9.881	-4.250	-3.552	1.181	167.942	-0.388	-8191	255	
769.614	1	1	0	0	0.20712	0.17159	0.066005	0.17236	0.11153	0.15138	0.10289	0.11922	0.16421	0.27566	0.20648	0.20468	0.1908	0.095049	0.1538	0.044612	-2.5583	-3.1188	-2.6792	-3.0083	-3.0479	-2.6771	-3.0958	-2.9167	-2.9313	-3.1688	-2.7917	-3.0979	-2.9854	-2.8021	-3.025	-3.0396	61.868	74.614	280.231	278.321	44.016	329.275	49.888	-3.401	83.492	316.584	-25.876	116.086	310.738	-4.552	47.947	36.758	0.00047899	0.00040242	0.0002224	386.32	5.6041e-06	7.5167e-06	506.63	116.89	6.4853e-06	3.4713e-06	198.06	74.105	41.447	18.714	1.1672e-05	39.802	0.0011343	0.0012961	0.00037223	385.51	1.3479e-05	1.4603e-05	504.25	117.8	1.3989e-05	1.4582e-05	199.68	74.801	42.674	19.154	1.449e-05	40.577	329.170	68.299	83.515	-14.743	179.477	157.036	-15.055	-8.533	136.217	155.081	-10.053	-4.409	-3.839	0.994	85.188	-0.498	-8191	255	
769.711	1	1	0	0	0.023437	0.043715	0.22031	0.091076	0.033198	0.18051	0.14769	0.086809	0.20517	0.12986	0.12412	0.14927	0.31853	0.10694	0.17791	0.014678	-2.65	-3.1083	-2.7792	-3.1292	-2.9958	-2.8042	-3.1813	-3.0375	-2.9979	-3.2062	-2.9813	-3.075	-3.0438	-2.8292	-3.3125	-3.1104	24.412	320.701	132.511	261.467	53.451	107.391	136.105	16.729	81.426	116.327	-15.960	66.297	40.931	113.087	-19.384	131.646	0.00055538	0.00037057	2.5616e-05	383.46	7.6074e-06	2.3615e-06	509.75	116.76	9.3023e-07	2.6978e-06	197.94	74.272	41.766	18.831	3.2556e-06	40.597	0.0011812	0.0013224	0.00036848	383.86	1.3771e-05	1.495e-05	505.05	117.49	1.3786e-05	1.4301e-05	199.61	74.8	42.691	19.27	1.3566e-05	41.051	332.201	85.280	78.579	-14.721	139.391	65.574	-14.856	-8.757	103.428	143.501	-10.151	-4.386	-4.139	1.521	164.265	-0.421	-8191	255	
769.807	1	1	0	0	0.11037	0.1316	0.11305	0.074248	0.18969	0.094748	0.016476	0.18416	0.078631	0.094389	0.21883	0.13075	0.18946	0.12903	0.10212	0.35864	-2.3021	-3.2979	-2.8542	-3.0875	-3.1104	-2.8208	-3.2667	-3.1271	-2.8375	-3.1875	-2.9562	-2.9833	-3.1667	-2.8667	-2.9521	-2.9604	241.018	-26.392	-0.829	16.033	163.049	134.102	193.647	139.271	162.550	124.896	243.611	311.578	256.064	267.349	257.488	111.005	0.00054216	0.0002092	0.00011426	386.91	3.8443e-06	3.7744e-06	507.22	116.81	9.7533e-06	5.5524e-06	198.15	74.189	41.825	18.909	6.7339e-06	40.759	0.0011486	0.0012791	0.00035459	386.3	1.3436e-05	1.4567e-05	505.36	117.89	1.4031e-05	1.4561e-05	200.29	75.235	42.867	19.252	1.4128e-05	41.196	332.223	61.486	74.698	-14.894	133.653	115.017	-14.917	-8.725	67.364	163.794	-9.892	-4.085	-3.458	0.750	139.143	-0.509	-8191	255	
769.903	1	1	0	0	0.051649	0.22885	0.081599	0.29429	0.078444	0.18317	0.35306	0.26124	0.094399	0.16817	0.40693	0.20595	0.081918	0.031797	0.18348	0.27445	-2.5062	-3.0125	-3.0667	-2.8604	-3.0229	-2.9375	-3.1146	-3.0521	-2.8479	-3.0187	-3.0729	-2.975	-3.1	-3.0125	-3.1021	-3.1146	176.663	257.560	326.385	11.791	11.900	292.987	311.789	269.293	86.703	188.733	281.959	291.154	240.352	29.233	232.011	232.548	0.00045067	0.00044048	0.00012752	385.38	5.3639e-06	2.1316e-06	507.73	116.52	1.1374e-05	5.0963e-06	198.6	74.077	41.691	18.896	3.3657e-06	40.182	0.0011425	0.001316	0.00035264	385.24	1.3958e-05	1.5078e-05	506.59	117.67	1.4571e-05	1.4859e-05	200.45	75.326	42.901	19.217	1.4518e-05	41.043	-22.057	135.030	56.080	-14.464	120.046	98.161	-14.667	-8.832	88.572	96.100	-9.912	-4.704	-3.538	1.165	103.748	-0.464	-8191	255	
769.999	1	1	0	0	0.13363	0.15037	0.15325	0.20139	0.080275	0.082196	0.088737	0.099069	0.17878	0.069155	0.17806	0.074612	0.11558	0.13035	0.18523	0.18515	-2.3604	-2.9354	-2.9375	-2.7354	-3.2375	-2.9021	-2.9188	-2.9521	-2.8146	-3.1896	-3.0812	-2.7104	-3.0833	-2.8833	-2.875	-3.0208	47.024	129.968	65.190	-3.345	-15.148	229.433	311.715	207.173	105.352	181.763	231.381	168.995	231.155	115.188	138.350	64.465	0.00054131	0.00021525	0.00022093	381.92	3.3334e-06	9.0813e-06	507.19	115.32	4.5644e-06	6.876e-06	196.29	73.507	40.926	18.665	9.2902e-06	40.074	0.0011987	0.0013546	0.00037073	383.07	1.3877e-05	1.4811e-05	504.27	116.66	1.424e-05	1.4845e-05	198.05	74.362	42.262	19.066	1.4778e-05	40.692	-24.275	73.215	71.609	-14.486	164.013	97.268	-14.870	-8.695	222.249	130.736	-9.769	-4.208	-3.249	1.419	129.967	-0.736	-8191	255	
770.118	1	1	0	0	0.23543	0.22204	0.086252	0.031714	0.052926	0.14043	0.1725	0.13466	0.17349	0.16215	0.062759	0.1271	0.048028	0.091116	0.18203	0.3234	-2.5438	-2.9979	-2.8563	-2.8396	-3.1208	-3.0375	-3.0521	-3.3	-2.8396	-3.1021	-3.0938	-2.9646	-3.3104	-2.8708	-2.9417	-3.1458	43.310	135.784	36.565	2.390	0.993	163.462	232.382	9.336	53.545	162.714	297.571	209.701	175.127	153.720	162.240	300.275	0.00045486	0.00037567	5.1806e-05	381.69	8.1663e-06	4.9953e-06	503.12	114.72	7.0433e-06	1.9477e-06	194.19	73.155	40.938	18.606	5.1605e-06	40.084	0.0011855	0.0013282	0.0003698	382.84	1.4114e-05	1.4754e-05	502.13	115.94	1.4162e-05	1.482e-05	196.49	74.048	42.193	19.006	1.4658e-05	40.591	-19.654	165.869	87.323	-14.858	145.026	131.964	-14.928	-8.841	113.621	173.963	-9.990	-4.334	-3.139	1.167	-19.594	-0.297	-8191	255	
770.214	1	1	0	0	0.17883	0.034196	0.071079	0.15046	0.035048	0.15355	0.18664	0.061991	0.092927	0.10851	0.34312	0.17224	0.11595	0.17363	0.091501	0.21689	-2.3688	-3.0708	-2.8708	-2.8875	-3.0354	-2.8958	-2.9208	-3.0708	-2.8312	-2.8354	-3.2229	-2.7292	-3.125	-3.0042	-2.9021	-3.2479	114.747	215.858	200.677	74.509	58.216	158.382	-15.786	255.328	115.889	116.231	204.179	213.725	163.200	106.979	204.039	241.058	0.00038565	0.00030768	0.00010885	381.68	3.0144e-06	3.6806e-06	504.17	115.61	7.2303e-06	3.213e-06	196.81	74.014	41.424	18.691	2.6844e-06	40.217	0.0011581	0.0013325	0.00036584	382.83	1.3982e-05	1.433e-05	501.08	116.62	1.4236e-05	1.4982e-05	197.71	74.495	42.575	19.084	1.4985e-05	40.715	-18.207	88.771	40.564	-14.503	162.916	106.085	-15.074	-8.809	136.322	162.300	-9.653	-4.040	-3.438	1.489	273.963	-0.375	-8191	255	
770.310	1	1	0	0	0.093109	0.18913	0.098163	0.13468	0.22359	0.20268	0.14579	0.13069	0.2351	0.086955	0.16868	0.24018	0.18421	0.10222	0.17297	0.13129	-2.2854	-2.8979	-3.1833	-2.875	-3.05	-3.1604	-2.8542	-3.1208	-3.0771	-2.9271	-3.2708	-3.0104	-3.0854	-3.0021	-2.8083	-3.25	186.185	82.303	170.688	24.650	265.225	139.721	-10.235	226.157	315.089	156.416	34.069	32.249	-18.658	283.621	262.514	15.399	0.00045675	0.00036998	0.00015809	381.76	7.3589e-06	3.5607e-06	503.77	115.33	8.7233e-06	1.8394e-06	196.8	73.346	40.927	18.621	4.3452e-06	40.001	0.0011527	0.0013387	0.00037611	382.49	1.4186e-05	1.4887e-05	500.61	116.19	1.4129e-05	1.5019e-05	197.68	74.141	42.208	19.058	1.4655e-05	40.612	328.158	80.747	82.963	-14.819	123.646	156.042	-15.086	-8.754	113.058	155.598	-9.926	-4.543	-3.724	1.048	121.986	-0.577	-8191	255	
770.406	1	1	0	0	0.17006	0.095663	0.072348	0.025302	0.13701	0.16496	0.08149	0.2128	0.05099	0.10724	0.10775	0.32478	0.45068	0.21369	0.034886	0.20862	-2.5812	-2.8979	-3.2229	-2.9313	-3.05	-3.0563	-2.7667	-3.1417	-2.9396	-2.9313	-3.1083	-2.9854	-3.0104	-3.0708	-2.8271	-3.1375	111.533	100.472	83.465	123.827	326.029	93.000	216.611	332.125	190.117	27.852	89.244	56.236	247.443	191.383	194.303	126.437	0.00047346	0.00019157	5.0222e-05	381.91	4.1251e-06	4.9516e-06	506.29	114.51	6.8549e-06	1.9945e-06	196.27	73.521	41.471	18.707	3.6061e-06	40.586	0.0011442	0.0013536	0.00037178	382.39	1.3832e-05	1.4538e-05	502.84	115.94	1.3456e-05	1.4801e-05	197.95	74.427	42.254	19.11	1.434e-05	41.004	-22.402	157.180	98.539	-14.696	123.190	53.604	-14.644	-8.750	72.980	101.825	-10.132	-4.228	-3.262	1.124	119.549	-0.745	-8191	255	
770.503	1	1	0	0	0.13021	0.13519	0.15079	0.21212	0.056198	0.13928	0.18264	0.16262	0.075775	0.18491	0.036372	0.20173	0.15506	0.038048	0.21688	0.12102	-2.4958	-2.8667	-3.0979	-3.0146	-2.925	-3.3521	-3	-3.1063	-3.0021	-2.8167	-3.0687	-2.9062	-2.8937	-3.0062	-2.8479	-3.1167	162.403	134.441	196.334	312.983	106.026	192.018	241.412	329.775	271.993	277.911	30.051	266.044	203.763	61.862	143.020	306.479	0.00037498	0.00063161	0.00019856	380.63	1.9695e-06	2.4146e-06	507.02	115.91	2.9924e-06	1.4894e-06	198.48	73.903	41.328	18.877	9.8151e-06	40.951	0.0011073	0.0013379	0.00036548	382.84	1.3857e-05	1.4362e-05	504.52	116.57	1.3529e-05	1.4592e-05	198.74	74.691	42.451	19.247	1.4549e-05	41.305	313.082	8.746	45.789	-14.845	172.630	135.770	-14.807	-8.518	144.889	26.735	-9.799	-4.315	-3.426	1.463	102.505	-0.292	-8191	255	
770.599	1	1	0	0	0.16114	0.18693	0.033967	0.037731	0.053476	0.2106	0.31539	0.19852	0.053381	0.27416	0.26175	0.10567	0.076559	0.1073	0.06373	0.096556	-2.5729	-2.7833	-3.1354	-2.9375	-2.9333	-3.0125	-2.8896	-2.9458	-3.0479	-2.9604	-3.1396	-2.9229	-2.8667	-3.2438	-2.8688	-3.1979	317.582	303.927	85.597	122.233	275.850	309.530	291.577	42.630	56.983	119.196	-11.683	55.405	-15.058	183.686	285.085	-20.114	0.00044742	0.00066178	4.1953e-05	382.78	2.5e-06	4.3405e-06	505.96	115.81	7.2445e-06	4.9601e-06	197.46	74.491	41.369	18.745	6.8291e-06	40.642	0.0011312	0.0013571	0.00036109	383.25	1.4128e-05	1.4934e-05	505.38	116.84	1.3937e-05	1.5342e-05	199.72	75.032	42.656	19.243	1.4762e-05	41.284	327.417	75.556	57.397	-14.611	193.793	141.902	-14.549	-8.759	120.555	93.608	-9.961	-4.059	-4.195	1.204	99.312	0.035	-8191	255	
770.695	1	1	0	0	0.1786	0.43348	0.19692	0.13439	0.16444	0.11068	0.21599	0.070019	0.14802	0.1358	0.19857	0.16261	0.14703	0.10802	0.10201	0.12314	-2.7167	-2.7625	-3.0021	-3.1896	-2.85	-3.2333	-3.0792	-3.0125	-3.0375	-2.9062	-3.0875	-2.9938	-2.9396	-3.0292	-2.9458	-2.9458	-25.774	144.736	256.213	245.286	90.559	11.210	238.008	280.361	145.291	291.555	221.433	-15.423	295.065	93.373	70.065	93.455	0.00045073	0.00023745	5.6208e-05	383.72	2.6015e-06	6.2499e-06	507.54	115.64	6.5782e-06	9.6031e-07	196.72	74.187	41.542	18.875	7.5938e-06	40.406	0.0011558	0.0013613	0.0003692	382.81	1.416e-05	1.4701e-05	504.31	116.48	1.3825e-05	1.4751e-05	198.24	74.632	42.475	19.226	1.4324e-05	41.02	326.755	46.201	-20.004	-14.724	59.919	110.412	-14.845	-8.792	212.159	113.620	-9.774	-4.535	-3.503	1.431	138.940	-0.417	-8191	255	
770.791	1	1	0	0	0.19097	0.098159	0.066899	0.0234	0.2268	0.068162	0.080639	0.25321	0.094181	0.12106	0.25441	0.2701	0.12423	0.30059	0.11816	0.11728	-2.7896	-2.7021	-3.05	-3.0229	-2.9208	-3.1333	-2.9396	-3.0563	-3.1042	-3.0062	-3.1354	-2.9896	-2.8396	-3.0938	-3.0458	-3.1	158.710	81.259	166.095	99.662	16.227	215.464	291.642	225.127	209.005	248.639	254.096	10.098	143.905	321.811	205.654	21.145	0.00049517	0.00050278	0.00013726	384.35	2.2397e-06	3.0673e-06	502.25	115.15	4.0011e-06	1.1243e-06	195.61	73.575	40.924	18.832	3.4989e-06	40.475	0.00115	0.0013306	0.00037201	382.75	1.4109e-05	1.4667e-05	500.15	116.08	1.3601e-05	1.4569e-05	196.57	74.219	42.287	19.202	1.4019e-05	40.966	-26.357	107.102	46.841	-14.486	180.418	133.411	-15.021	-8.585	181.120	47.099	-9.784	-4.362	-3.394	1.284	78.426	-0.255	-8191	255	
770.912	1	1	0	0	0.15951	0.24917	0.10377	0.089862	0.14885	0.18022	0.17195	0.22791	0.22392	0.33228	0.11466	0.27113	0.11438	0.25073	0.14607	0.30581	-2.8167	-2.8875	-3.1646	-3.0312	-3.0167	-3.0438	-3.0125	-2.9458	-3.1125	-2.7771	-3.1646	-3.0208	-2.9125	-3.0875	-2.9062	-3.0396	136.189	95.541	167.672	148.046	42.038	289.827	21.700	185.085	68.440	187.045	-3.306	181.397	179.564	77.511	220.596	264.290	0.00055216	0.0005717	0.00010209	381.16	7.0421e-06	7.3526e-06	502.2	114.43	9.4516e-06	6.3116e-06	195.46	73.472	41.223	18.777	8.5159e-06	40.471	0.0011455	0.0013535	0.00036506	382.92	1.4396e-05	1.5189e-05	500.55	116.32	1.4031e-05	1.4836e-05	197.19	74.265	42.348	19.197	1.3821e-05	41.036	328.968	89.142	92.178	-14.652	148.433	133.390	-14.938	-8.528	184.759	128.729	-9.574	-4.276	-3.600	1.337	140.542	-0.535	-8191	255	
771.006	1	1	0	0	0.12632	0.085933	0.11982	0.037228	0.087774	0.20907	0.24022	0.14109	0.15848	0.16726	0.037969	0.23729	0.26274	0.12099	0.23057	0.20862	-2.6229	-2.9458	-3.075	-2.9896	-3.0167	-2.9437	-3.1708	-2.8979	-3.0458	-2.9292	-3.1688	-3.0812	-2.7583	-3.0187	-3.0625	-2.9104	142.306	75.839	202.595	122.303	199.043	64.863	65.229	-21.099	124.451	251.826	330.860	153.661	181.250	29.553	76.960	216.411	0.00054573	0.00027689	4.0251e-05	383.25	6.0996e-06	5.6156e-06	502.93	115.23	1.0212e-05	3.5164e-06	196.12	73.492	41.148	18.805	5.2783e-06	40.592	0.0011369	0.0013013	0.00036001	382.92	1.3933e-05	1.4339e-05	500.45	116.09	1.354e-05	1.4438e-05	197.48	74.462	42.375	19.199	1.4229e-05	41.098	318.202	104.868	11.109	-15.021	77.418	58.892	-14.768	-8.630	125.777	167.588	-9.678	-4.348	-3.710	1.367	132.751	-0.269	-8191	255	
771.104	1	1	0	0	0.039523	0.10545	0.021475	0.26549	0.28549	0.21287	0.30616	0.32391	0.10237	0.072399	0.25674	0.07721	0.080317	0.14879	0.16145	0.25382	-2.5792	-2.775	-2.8792	-3.0875	-3.0271	-3.0917	-2.925	-2.8875	-3.1937	-2.9354	-2.8104	-3.1479	-2.8438	-3.0062	-3.0312	-2.8167	161.069	112.588	210.518	-6.400	-14.591	145.910	290.769	221.680	146.402	74.414	333.152	236.660	239.194	259.437	-11.959	253.924	0.00057617	0.00028686	0.00021534	383.71	3.1281e-06	3.6194e-06	506.3	115.77	7.7259e-06	3.5132e-06	196.41	74.537	41.444	18.989	6.8942e-06	41.184	0.0011454	0.0013047	0.00037193	384.15	1.4107e-05	1.478e-05	503.79	117.01	1.3558e-05	1.4323e-05	198.51	75.168	42.53	19.397	1.4086e-05	41.505	-21.960	40.133	50.306	-14.717	138.520	36.892	-15.016	-8.415	120.373	182.753	-9.971	-4.569	-3.350	1.077	154.826	-0.651	-8191	255	
771.198	1	1	0	0	0.16867	0.18849	0.18303	0.13032	0.23224	0.29332	0.054543	0.14505	0.030918	0.072609	0.20724	0.025167	0.22952	0.20533	0.22724	0.18521	-2.5979	-3.05	-2.8375	-3.2062	-2.8833	-2.8812	-3.0292	-2.9917	-3.1604	-3.0083	-2.9896	-3.1375	-2.9813	-3.0479	-3.0312	-2.9729	144.187	303.858	108.236	287.935	235.519	295.491	131.550	105.894	82.514	190.840	258.690	27.223	323.202	317.806	217.645	215.934	0.00039957	0.00029071	0.00014267	382.37	2.9935e-06	1.0491e-06	505.77	115.78	8.0881e-06	9.6647e-07	198.93	74.771	41.568	19.13	5.6386e-06	41.027	0.0011265	0.0012912	0.00036813	384.03	1.3996e-05	1.4722e-05	504.05	117.18	1.3828e-05	1.4631e-05	200.15	75.386	42.687	19.485	1.4274e-05	41.616	320.496	67.187	93.533	-14.657	172.950	-15.662	-14.975	-9.006	239.658	119.185	-9.673	-4.753	-3.657	1.495	85.234	-0.487	-8191	255	
771.294	1	1	0	0	0.23442	0.027323	0.23443	0.067215	0.22468	0.22365	0.2557	0.15935	0.20668	0.21601	0.20036	0.086966	0.18569	0.14484	0.2623	0.24775	-2.7625	-3.0833	-2.7271	-3.1688	-2.9042	-2.9667	-3.225	-2.8271	-3.1854	-3.1917	-3.0479	-3.1667	-3.1562	-3.075	-3.1604	-3.0083	57.550	283.317	175.691	252.953	271.837	33.683	87.325	303.517	154.664	21.593	107.336	97.661	36.210	219.502	57.765	253.365	0.00053008	0.00051974	0.00012982	385.53	9.3596e-06	1.1713e-06	508.82	115.8	3.3659e-06	2.7641e-06	198.81	74.696	41.852	19.105	7.8846e-06	41.214	0.0011637	0.0013257	0.00037641	385.22	1.3832e-05	1.4975e-05	506.64	116.94	1.3812e-05	1.4717e-05	200.38	75.418	42.709	19.435	1.4156e-05	41.744	333.298	86.141	97.538	-14.665	104.137	254.269	-14.922	-8.584	178.521	184.928	-9.879	-4.127	-4.099	1.033	185.203	-0.281	-8191	255	
771.391	1	1	0	0	0.027329	0.17676	0.17582	0.1027	0.12193	0.29966	0.10993	0.17092	0.075201	0.13343	0.33192	0.12292	0.14207	0.21296	0.089953	0.24192	-2.675	-3.1354	-2.8812	-3.2083	-2.7792	-2.7708	-3.0958	-2.8875	-3.0979	-3.1417	-2.8896	-3.3312	-3.1146	-2.9771	-3.1625	-2.9208	245.633	117.653	139.116	131.692	229.559	322.348	162.281	1.261	80.841	327.646	302.515	75.165	323.689	292.551	321.840	214.281	0.00052625	0.00037667	0.00017229	384.17	2.9849e-06	6.2425e-06	507.87	115.85	8.3989e-06	3.6055e-06	196.52	73.876	41.536	18.93	2.7539e-06	40.582	0.0011437	0.0013005	0.00037211	384.09	1.3481e-05	1.4932e-05	503.68	116.65	1.3559e-05	1.4189e-05	198.32	74.753	42.313	19.425	1.3872e-05	41.264	-16.016	142.825	53.077	-14.750	138.460	118.231	-14.562	-8.858	159.088	151.456	-9.927	-4.260	-3.621	1.168	306.363	-0.401	-8191	255	
771.511	1	1	0	0	0.16022	0.065435	0.17726	0.26221	0.083387	0.093905	0.11083	0.11139	0.25311	0.17214	0.061938	0.019923	0.38321	0.25933	0.17083	0.085399	-2.4813	-2.9917	-2.6979	-3.2167	-3.0667	-2.9688	-3.1813	-2.9083	-2.8542	-3.1813	-3.0354	-3.1979	-2.9958	-2.7625	-3.2083	-2.9979	69.461	177.777	82.055	218.019	113.220	67.590	206.846	23.104	-22.829	315.977	256.565	190.489	212.427	267.361	3.243	93.307	0.00048954	0.00030672	4.5195e-05	380.01	2.7045e-06	5.1762e-06	501.09	114.91	8.7962e-06	8.6327e-07	195.89	73.251	40.956	18.833	8.1899e-06	40.655	0.0011506	0.0012936	0.00036565	381.07	1.2988e-05	1.4213e-05	498.69	115.44	1.3438e-05	1.392e-05	196.63	74.239	41.98	19.286	1.3724e-05	41.163	-26.608	130.945	37.348	-14.783	59.253	60.731	-14.791	-8.777	138.640	220.961	-9.762	-4.196	-3.552	1.038	131.433	-0.572	-8191	255	
771.607	1	1	0	0	0.068351	0.055511	0.049048	0.19488	0.36208	0.14349	0.18822	0.20618	0.13623	0.10393	0.16044	0.14459	0.16186	0.086047	0.14084	0.083619	-2.5625	-3.1167	-2.8187	-3.1	-3.1042	-2.9833	-3.1312	-2.9083	-3.0458	-3.1833	-2.9042	-3.225	-3.0708	-2.85	-3.1937	-2.9729	324.299	91.853	189.805	272.450	280.908	88.659	101.161	128.140	215.189	236.519	-23.841	26.919	14.883	312.794	291.013	177.251	0.00042892	0.00086418	0.00016171	383.86	1.1747e-06	1.7e-06	504.41	114.69	3.7408e-06	3.5257e-06	196.63	73.586	41.1	19.029	4.2698e-06	40.789	0.0011135	0.0012587	0.00036142	381.87	1.3295e-05	1.4446e-05	500.62	115.74	1.3481e-05	1.3825e-05	197.47	74.351	42.099	19.352	1.3436e-05	41.351	-23.938	83.698	42.052	-14.523	263.274	38.585	-15.075	-8.992	142.815	156.861	-9.885	-4.117	-3.313	0.916	85.181	-0.281	-8191	255	
771.704	1	1	0	0	0.14156	0.14941	0.058578	0.065066	0.069178	0.14778	0.15715	0.11932	0.060038	0.26923	0.20069	0.17973	0.24653	0.12976	0.053939	0.14387	-2.4562	-3.0312	-2.8979	-3.0625	-3.3833	-2.9208	-3.0896	-2.8604	-2.9458	-3.0792	-2.95	-2.9813	-3.0521	-2.8563	-3.0396	-3.1271	113.115	332.351	273.942	107.134	55.703	324.548	30.490	181.323	15.485	114.168	63.603	174.347	40.386	62.895	301.234	257.175	0.00061387	0.00047964	0.00013359	380.58	9.9758e-06	4.8663e-06	504.26	114.58	6.613e-06	3.8074e-06	196	73.63	41.072	18.934	2.648e-06	40.843	0.0011301	0.0012484	0.00035523	381	1.325e-05	1.4368e-05	500.89	115.69	1.3676e-05	1.4019e-05	197.53	74.475	42.212	19.318	1.3376e-05	41.234	-24.593	49.846	85.463	-14.683	164.851	138.015	-14.998	-8.678	16.756	157.988	-9.494	-4.184	-3.553	1.171	141.895	-0.384	-8191	255	
771.800	1	1	0	0	0.13046	0.14263	0.155	0.089762	0.088048	0.11999	0.098872	0.30155	0.064046	0.23443	0.31079	0.28436	0.24471	0.27876	0.35303	0.23508	-2.2521	-3.1562	-3.05	-2.9188	-3.0479	-2.7917	-3.175	-2.8896	-2.9938	-3.0896	-3.0125	-2.9104	-3.0542	-2.8146	-3.0146	-3.1562	25.481	84.100	113.629	237.634	171.260	31.377	298.952	226.296	143.816	176.233	328.856	234.631	113.598	159.421	234.472	187.964	0.00058743	0.00054418	9.9631e-05	382.65	5.4734e-06	5.5871e-06	505.19	114.51	6.7504e-06	3.8619e-06	196.36	74.388	41.136	18.972	2.1831e-06	41.159	0.0011129	0.0012394	0.00034708	381.55	1.3156e-05	1.4293e-05	501.04	115.8	1.3333e-05	1.3537e-05	197.72	74.924	42.16	19.305	1.319e-05	41.441	325.007	154.322	153.452	-14.590	107.022	109.423	-14.868	-8.739	89.880	98.355	-9.837	-4.303	-3.375	1.661	108.536	-0.590	-8191	255	
771.896	1	1	0	0	0.12243	0.054493	0.17067	0.098081	0.099306	0.20184	0.21517	0.10683	0.097636	0.1463	0.24801	0.14894	0.18183	0.26592	0.15019	0.13331	-2.5062	-3.2333	-2.9083	-2.925	-3.1625	-2.8	-3.0812	-3.0854	-2.7917	-3.1521	-3.0208	-2.9417	-3.1625	-2.9042	-3.2375	-3.1042	294.837	94.375	-22.874	315.825	224.259	29.888	116.118	180.891	102.056	196.981	-15.113	250.060	159.444	10.407	322.891	183.140	0.00046933	0.00033407	1.9486e-05	381.22	4.7239e-06	2.4331e-06	505.67	115.24	7.8846e-06	5.5406e-06	196.96	74.284	41.414	18.978	5.5456e-06	41.187	0.0011062	0.0012502	0.00034218	381.1	1.287e-05	1.3725e-05	502.46	115.8	1.3331e-05	1.3549e-05	198.72	74.842	42.295	19.303	1.3261e-05	41.624	320.051	7.339	-5.551	-14.843	245.125	125.200	-14.717	-8.975	185.576	129.973	-10.046	-4.172	-3.963	0.768	106.242	-0.576	-8191	255	
771.992	1	1	0	0	0.11802	0.096043	0.29773	0.04849	0.12163	0.12098	0.2775	0.18351	0.16484	0.19611	0.31591	0.29549	0.070127	0.14027	0.10183	0.025092	-2.4771	-3.1104	-2.8854	-3.0229	-3.1875	-2.8271	-3.0333	-2.975	-2.7542	-3.1688	-2.9	-2.9604	-3.2583	-2.9188	-3.0104	-3.1021	-17.395	45.047	259.508	236.267	82.272	330.782	240.879	236.964	67.355	195.672	295.878	6.317	261.229	301.736	41.900	117.963	0.00063411	0.00022057	0.00013805	381.59	2.5508e-06	2.2003e-06	507.35	115.43	8.4656e-06	2.5633e-06	197.26	74.343	41.4	19.031	5.6789e-06	41.266	0.0011218	0.0012414	0.00034548	382.91	1.3342e-05	1.4087e-05	504.75	116.55	1.3556e-05	1.3818e-05	198.77	75.047	42.335	19.339	1.3551e-05	41.541	327.012	110.857	29.457	-14.698	143.895	213.010	-14.844	-8.324	143.646	16.539	-9.951	-3.962	-3.345	1.250	98.704	-0.354	-8191	255	
772.086	1	1	0	0	0.2607	0.023415	0.1771	0.26629	0.22259	0.13101	0.08422	0.11318	0.18615	0.26809	0.11079	0.1154	0.15811	0.16997	0.12675	0.14931	-2.3583	-3.1813	-2.8937	-2.9167	-3.0979	-2.8583	-3.0938	-3.0625	-3.0271	-3.0854	-3.1104	-2.9188	-3.0771	-3	-2.9208	-3.2167	111.820	198.436	94.500	328.441	68.304	184.430	264.036	304.314	69.199	160.329	179.155	281.375	223.374	22.275	199.268	165.007	0.00046644	3.9163e-05	5.5545e-05	381.86	4.3989e-06	4.1711e-06	503.54	115.36	9.1402e-06	1.4516e-06	197.18	74.341	41.451	18.966	7.1198e-06	41.009	0.0011134	0.0012573	0.00034616	381.46	1.3e-05	1.3983e-05	500.96	115.97	1.3158e-05	1.3739e-05	198.25	74.924	42.345	19.379	1.3681e-05	41.563	331.528	48.966	127.816	-14.842	140.174	48.779	-14.987	-8.925	187.842	142.093	-9.975	-4.497	-3.874	1.200	188.120	-0.195	-8191	255	
772.207	1	1	0	0	0.23265	0.32514	0.030951	0.21565	0.063801	0.14654	0.037941	0.25142	0.13572	0.091467	0.12906	0.15687	0.14812	0.28855	0.14738	0.22277	-2.5167	-3.175	-2.9562	-2.6146	-3.0938	-3.0167	-3.1063	-2.9938	-2.7271	-2.9938	-3.0583	-2.8708	-3.1521	-2.9875	-2.8875	-3.3333	174.242	85.660	68.508	-5.040	171.844	33.205	250.142	281.423	305.503	223.302	310.503	250.242	1.716	325.834	202.370	303.894	0.00060984	0.00051	0.00013497	383.36	2.1109e-06	1.6959e-06	503.43	115.67	7.1177e-06	4.2254e-06	197.06	73.721	41.322	18.885	7.0239e-06	40.516	0.0010993	0.0012263	0.00034024	383.62	1.271e-05	1.3371e-05	500.01	116.19	1.2953e-05	1.3195e-05	197.68	74.696	42.173	19.272	1.3437e-05	41.195	-25.453	40.841	101.135	-14.842	4.843	11.067	-14.945	-8.854	138.030	171.375	-9.825	-4.104	-3.125	0.805	64.806	-0.409	-8191	255	
772.303	1	1	0	0	0.19432	0.16077	0.24954	0.30975	0.14041	0.14754	0.16541	0.34222	0.23267	0.15554	0.1445	0.18252	0.19799	0.11536	0.19181	0.0075869	-2.5875	-2.9271	-3.0479	-2.8896	-3.1688	-2.9125	-3.025	-3.1667	-3.1042	-3.0958	-2.9542	-2.8896	-3.025	-3.1937	-2.8375	-3.1437	-2.062	140.614	252.832	-6.894	196.133	232.923	199.345	287.534	172.123	181.353	296.493	302.557	262.762	82.900	52.743	96.285	0.00058042	0.00025185	9.317e-05	382.91	4.8399e-06	5.5478e-06	506.12	115.18	2.3895e-06	1.4017e-06	198.08	74.398	41.422	18.978	2.1326e-06	40.884	0.0010732	0.0012471	0.00033964	382.41	1.2711e-05	1.3344e-05	501.56	115.86	1.2648e-05	1.3336e-05	197.96	74.83	42.316	19.323	1.3515e-05	41.341	329.516	110.938	59.650	-14.600	159.645	87.420	-14.634	-8.705	71.747	238.535	-9.968	-4.346	-3.298	1.047	163.568	-0.085	-8191	255	
772.375	1	1	0	0	0.26775	0.17175	0.083662	0.02175	0.17516	0.18186	0.2527	0.062034	0.13906	0.12742	0.2065	0.22759	0.3659	0.17455	0.23863	0.086009	-2.5438	-2.8104	-3.1604	-2.8438	-2.9979	-3.0625	-2.9521	-3	-2.8583	-2.9854	-3.2854	-2.9396	-3.0604	-3.2	-2.9062	-3.1042	112.870	45.599	-7.324	-23.942	124.599	247.375	268.379	41.366	328.518	148.838	5.744	288.785	252.282	123.903	166.608	-10.587	0.0005537	0.00019959	0.00014538	380.35	2.5478e-06	5.3638e-06	506.01	114.97	7.1415e-06	3.4881e-06	196.24	74.169	41.439	19.063	5.6516e-06	40.908	0.0010731	0.0012516	0.00034354	381.14	1.3189e-05	1.398e-05	503.29	115.93	1.3098e-05	1.4235e-05	197.92	74.768	42.192	19.306	1.3658e-05	41.362	322.531	51.203	52.968	-14.678	69.915	192.958	-15.128	-8.798	175.305	137.854	-9.769	-4.256	-3.771	0.961	193.513	-0.164	-8191	255	
772.471	1	1	0	0	0.11764	0.315	0.078677	0.16303	0.099648	0.01478	0.13813	0.15597	0.24631	0.20733	0.085483	0.083227	0.083385	0.12362	0.18722	0.12652	-2.5646	-2.7313	-3.1729	-2.8229	-2.9792	-3.0187	-2.9562	-3.15	-2.9062	-2.9667	-3.1021	-2.9771	-3.0021	-2.9917	-2.8187	-3.0438	288.081	32.666	109.373	309.844	217.004	100.557	33.325	-17.262	-6.412	220.258	54.001	-10.622	52.773	288.730	64.831	182.463	0.00053015	6.6242e-05	0.00013684	379.87	8.1142e-06	1.7279e-06	506.52	114.44	2.5769e-06	2.3966e-06	196.57	74.164	41.117	18.903	2.0823e-06	41.111	0.0010854	0.0012792	0.00035518	380.16	1.347e-05	1.4044e-05	502.44	115.36	1.3458e-05	1.4398e-05	198.42	74.632	42.131	19.251	1.3806e-05	41.587	331.777	58.814	55.802	-14.894	133.621	59.728	-14.769	-8.809	126.272	163.754	-10.187	-4.252	-3.733	1.046	86.561	-0.533	-8191	255	
772.592	1	1	0	0	0.1594	0.31452	0.19615	0.13256	0.10855	0.18533	0.068743	0.14214	0.1623	0.15273	0.0926	0.20571	0.18954	0.18518	0.23704	0.05796	-2.625	-2.7979	-3.0896	-3.1792	-2.9188	-3.1104	-3.0417	-3.0563	-3.0229	-2.7062	-3.25	-2.9708	-3.0729	-3.2271	-2.7708	-2.9979	191.011	128.626	323.200	73.438	127.352	50.782	26.250	320.562	112.880	15.334	164.139	268.287	73.763	14.486	153.693	121.916	0.00038242	0.00059406	6.7538e-05	382.34	1.1711e-06	4.2576e-06	510.56	115.84	3.7888e-06	6.8427e-06	199.51	75.178	41.141	18.913	8.3704e-06	41.493	0.0010756	0.0012587	0.00033853	383.12	1.2964e-05	1.3455e-05	506.33	116.23	1.2613e-05	1.357e-05	199.86	75.256	42.221	19.32	1.3197e-05	41.844	327.093	98.524	30.585	-14.998	-6.797	90.091	-14.766	-8.655	161.037	104.798	-9.726	-4.139	-3.377	1.244	155.535	-0.142	-8191	255	
772.688	1	1	0	0	0.17291	0.087639	0.096624	0.10884	0.26144	0.27213	0.077131	0.23827	0.27295	0.15675	0.15438	0.19927	0.090113	0.097706	0.09585	0.18424	-2.6188	-2.8937	-3.2188	-2.9229	-3.0792	-3.1583	-2.9771	-3.0187	-2.9604	-2.8542	-3.0625	-2.9167	-2.8896	-3.1063	-2.8312	-3.0417	24.816	94.162	313.667	227.244	222.230	101.967	4.689	204.762	-6.600	257.649	283.984	301.674	-20.418	10.558	19.970	219.814	0.00053118	4.4482e-05	0.0001165	383.33	1.2106e-06	7.4309e-06	508.32	115.84	7.0336e-06	2.9313e-06	198.57	74.107	41.047	19.019	5.1746e-06	40.801	0.0010515	0.0012548	0.00033091	382.08	1.2849e-05	1.3532e-05	505.1	116.24	1.2585e-05	1.3635e-05	199.3	74.876	42.185	19.319	1.3002e-05	41.349	329.369	66.800	55.315	-14.757	44.257	89.468	-14.850	-8.699	107.127	167.218	-9.912	-4.396	-3.682	1.323	84.939	-0.467	-8191	255	
772.784	1	1	0	0	0.066755	0.13925	0.09968	0.069924	0.16515	0.11346	0.23796	0.10742	0.026403	0.20416	0.13139	0.15321	0.12276	0.20559	0.19766	0.11066	-2.5812	-2.9292	-2.9771	-2.7896	-2.9188	-3.025	-3	-3.0125	-2.9271	-2.7604	-3.0646	-3.0521	-2.9625	-3.0708	-2.8583	-3.2438	79.235	37.952	243.239	325.065	310.397	328.985	250.952	32.600	320.691	252.642	176.328	129.571	39.814	275.171	106.849	284.754	0.00052129	0.00023811	0.00010076	380.39	1.1659e-06	2.6563e-06	502.97	114.56	1.1277e-06	6.6277e-06	195.68	73.936	41.037	18.916	6.3041e-06	40.925	0.0010406	0.0012056	0.00032842	379.56	1.2805e-05	1.3308e-05	500.51	115.2	1.2346e-05	1.3197e-05	197	74.437	42.04	19.251	1.2474e-05	41.294	326.501	49.657	99.823	-14.823	112.355	9.767	-14.978	-8.758	158.889	82.672	-9.871	-4.190	-3.761	1.090	86.561	-0.270	-8191	255	
772.905	1	1	0	0	0.088452	0.26014	0.14839	0.21358	0.13782	0.034422	0.28234	0.35763	0.074073	0.17317	0.10631	0.049134	0.13141	0.072252	0.063935	0.18766	-2.8396	-2.6771	-3.0333	-3.0125	-2.8708	-3.0667	-3.1917	-2.9813	-3.0542	-2.8729	-3.2792	-3.0333	-2.8229	-3.1021	-3.0167	-3.0604	142.106	84.659	-15.002	8.278	-6.959	313.771	241.936	258.152	-19.033	38.828	232.883	-2.135	77.241	119.762	270.665	186.818	0.00061572	0.00059482	9.2226e-05	382.28	2.8781e-06	4.3091e-06	504	114.05	4.1012e-06	2.3277e-06	194.77	72.962	40.402	18.763	5.3488e-06	40.646	0.0010185	0.0011912	0.0003308	380.35	1.2713e-05	1.297e-05	499.37	115.25	1.224e-05	1.3066e-05	197.03	73.891	41.789	19.148	1.2294e-05	41.257	-21.390	52.280	46.575	-14.666	152.743	111.448	-14.507	-8.942	111.923	107.636	-9.552	-4.250	-3.955	1.043	92.836	-0.509	-8191	255	
772.976	1	1	0	0	0.26758	0.19218	0.076363	0.24766	0.055723	0.19714	0.1936	0.095106	0.23263	0.14605	0.10832	0.33131	0.098744	0.31422	0.13097	0.21109	-2.8229	-2.8	-2.9604	-3.0833	-2.8021	-3.0563	-3.0563	-2.9729	-3.1271	-2.8208	-3.1896	-3.0312	-2.9333	-3.2229	-3.0771	-2.8563	74.465	119.439	31.616	178.153	151.822	327.390	80.418	275.543	102.635	40.212	317.717	283.184	10.745	287.663	195.925	45.795	0.00060158	0.00035415	0.00012004	381.8	5.0272e-06	4.303e-06	505.17	115.26	6.5411e-06	1.5863e-06	197.25	73.714	41.269	19	1.226e-05	40.764	0.0010402	0.0011716	0.00033244	380.82	1.2844e-05	1.32e-05	500.96	115.82	1.2294e-05	1.3179e-05	197.74	74.404	41.967	19.205	1.2295e-05	41.271	-22.578	251.815	72.248	-14.750	191.604	63.648	-14.923	-8.652	155.897	63.351	-9.666	-4.293	-2.968	0.825	166.096	-0.496	-8191	255	
773.072	1	1	0	0	0.1463	0.38531	0.038115	0.13038	0.14605	0.07196	0.10439	0.13676	0.1032	0.15104	0.15556	0.19351	0.070861	0.2969	0.19929	0.27175	-2.6625	-2.8729	-2.9333	-3.2708	-2.8354	-3.1	-3.0229	-2.9854	-3.2062	-3.0396	-2.9042	-3.1312	-2.8896	-3.0375	-3.0083	-2.8604	-26.319	-16.827	221.102	19.844	59.337	3.055	324.473	127.902	196.255	85.323	262.025	-0.011	134.460	215.612	130.034	329.883	0.00049677	0.00022444	0.0001417	381.53	2.1014e-06	3.5056e-06	505.55	114.98	7.2185e-06	4.7362e-06	197.03	74.127	40.935	19.161	7.9328e-06	41.061	0.0010071	0.0011597	0.00032558	379.24	1.2177e-05	1.3094e-05	501.47	115.61	1.2014e-05	1.2754e-05	197.85	74.734	41.937	19.311	1.2454e-05	41.532	-17.955	35.707	84.027	-14.634	187.868	110.850	-14.829	-8.847	95.356	142.353	-9.769	-4.060	-3.604	1.241	144.264	-0.532	-8191	255	
773.191	1	1	0	0	0.26679	0.2136	0.14972	0.1573	0.17231	0.17894	0.1473	0.19297	0.098352	0.20266	0.18154	0.14257	0.16202	0.065965	0.092314	0.13056	-2.6646	-2.8438	-2.9042	-3.1729	-2.8104	-3.1813	-2.9979	-2.7667	-3.1375	-2.8354	-2.8208	-3.025	-2.8854	-3.0458	-2.9396	-2.9188	261.270	313.947	0.578	-15.342	197.208	118.143	308.810	8.257	34.780	112.623	140.735	6.743	-0.819	132.711	36.928	256.210	0.00053626	0.0003107	9.5227e-05	380.59	2.8742e-06	6.8987e-07	506.17	115.17	4.2114e-06	2.5855e-06	198.48	74.064	41.107	18.841	6.0853e-06	41.093	0.0010129	0.0011683	0.0003287	380.24	1.229e-05	1.3034e-05	502.77	115.88	1.2207e-05	1.2999e-05	199.11	74.843	41.997	19.243	1.2445e-05	41.616	-26.359	58.710	6.797	-14.575	91.037	37.030	-14.851	-8.618	176.207	83.347	-9.618	-4.240	-3.099	1.171	127.336	-0.640	-8191	255	
773.287	1	1	0	0	0.33378	0.31871	0.21298	0.18743	0.17186	0.12897	0.13672	0.15345	0.078853	0.14642	0.095556	0.15874	0.21608	0.055899	0.25184	0.0093765	-2.5375	-3.0458	-2.9167	-3.0125	-2.7938	-2.9437	-3.0458	-2.7708	-2.9958	-2.9354	-2.9167	-3.1937	-2.9021	-2.9688	-3.1354	-2.9688	189.680	316.871	199.595	289.478	143.386	43.360	202.621	274.504	206.240	292.265	297.673	300.980	179.481	144.811	5.364	196.700	0.00057497	0.00020076	0.00011764	380.27	4.7949e-06	1.9817e-06	508.98	115.18	6.2753e-06	1.319e-06	199.88	74.751	41.138	19.048	5.5345e-06	41.47	0.0010254	0.001161	0.00033397	379.93	1.2049e-05	1.3124e-05	505.6	115.92	1.2323e-05	1.2815e-05	200.52	75.429	42.256	19.418	1.2552e-05	41.92	-25.937	297.663	118.034	-14.756	113.004	185.402	-14.655	-8.792	166.081	188.118	-9.858	-4.283	-3.758	1.497	174.715	-0.490	-8191	255	
773.384	1	1	0	0	0.19849	0.12216	0.1052	0.20118	0.2393	0.24051	0.16987	0.11006	0.041459	0.1493	0.12303	0.28012	0.18308	0.2702	0.21626	0.24092	-2.6792	-3.0854	-2.9604	-3.1021	-2.9208	-3.1312	-3.2104	-2.7979	-3.0521	-2.9896	-3.0312	-3.2104	-3	-2.6979	-3.2167	-2.8792	30.504	273.768	50.345	211.296	62.132	326.447	326.428	278.845	84.135	293.316	-5.163	296.367	331.116	27.850	286.139	38.659	0.00050962	0.0004752	0.0001361	379.93	8.8537e-07	5.8133e-06	507.59	115.17	4.1888e-06	4.2405e-06	196.11	73.851	40.944	19.135	4.0352e-06	41.254	0.0010286	0.0011663	0.00033501	380.45	1.2106e-05	1.3124e-05	504.77	115.76	1.204e-05	1.2517e-05	197.77	74.63	41.786	19.328	1.189e-05	41.567	-25.891	117.767	94.058	-14.782	72.418	112.660	-14.712	-8.474	-21.944	134.876	-9.856	-4.420	-3.306	1.328	46.312	-0.455	-8191	255	
773.504	1	1	0	0	0.18135	0.29026	0.16574	0.053045	0.038783	0.19371	0.15824	0.03309	0.034811	0.078041	0.029009	0.15677	0.12177	0.15121	0.11937	0.21232	-2.7771	-3.1208	-2.775	-3.1083	-2.9	-3.0042	-2.9604	-2.8292	-3.1479	-3.1917	-2.9958	-2.9708	-3.1688	-2.9833	-3.1688	-3.025	165.852	159.167	241.676	293.005	297.850	189.719	310.058	178.381	265.566	264.166	183.508	-13.719	231.153	184.663	124.759	332.102	0.0005288	0.0003167	0.00015903	378.15	2.3611e-06	2.6167e-06	501.51	113.83	5.2059e-06	1.2645e-06	195.83	73.799	40.401	18.839	2.8048e-06	40.69	0.0010112	0.0011335	0.00032292	377.34	1.2098e-05	1.3327e-05	497.31	114.83	1.2139e-05	1.2616e-05	196.45	73.903	41.427	19.114	1.1857e-05	41.216	324.500	-8.779	40.365	-14.657	273.645	110.773	-14.872	-8.505	149.154	66.469	-9.811	-4.312	-3.384	1.502	170.571	-0.578	-8191	255	
773.600	1	1	0	0	0.069701	0.15746	0.21662	0.08531	0.034193	0.10894	0.04111	0.10459	0.22759	0.19976	0.13191	0.11722	0.069917	0.019417	0.18769	0.22001	-2.6396	-3.2167	-2.8312	-3.1417	-2.9208	-3.0812	-3.1521	-2.8146	-3.0229	-3.1437	-2.8792	-3.1167	-2.9375	-2.7583	-3.0542	-2.8563	20.196	198.477	61.259	235.529	112.683	-13.653	286.730	280.353	260.367	5.280	55.441	37.683	193.607	67.180	79.303	20.278	0.00043244	0.00013497	4.6748e-05	376.13	4.425e-06	2.8691e-06	499.6	113.02	6.0772e-06	3.9445e-06	194.61	73.317	40.568	18.762	1.2794e-06	40.944	0.00098731	0.0010881	0.00031242	376.61	1.1493e-05	1.2242e-05	496.67	114.02	1.1695e-05	1.2196e-05	195.16	73.691	41.394	19.085	1.1685e-05	41.265	-21.941	66.138	1.915	-14.665	113.703	171.165	-14.824	-8.980	77.360	121.497	-10.080	-4.462	-3.521	1.236	160.909	-0.633	-8191	255	
773.672	1	1	0	0	0.1127	0.02478	0.045002	0.24285	0.25715	0.084848	0.15301	0.060226	0.13641	0.12231	0.049696	0.19718	0.059593	0.025121	0.22452	0.15752	-2.4271	-2.9896	-2.7146	-3.0896	-3.0333	-2.875	-3.3208	-3.0958	-2.9938	-3.1792	-2.7062	-3.0417	-3.1417	-2.7583	-3.0687	-2.9292	279.324	183.121	44.015	161.270	197.443	107.694	289.504	113.230	320.250	67.022	132.563	-17.965	-0.192	143.314	24.986	122.560	0.00044441	0.00036632	0.00012495	379.84	3.1541e-06	8.5255e-06	503.24	114.19	8.0579e-06	2.4954e-06	195.77	73.448	40.573	18.905	3.7667e-06	41.294	0.00098441	0.0010983	0.00031444	376.9	1.1724e-05	1.2601e-05	498.02	114.53	1.172e-05	1.1883e-05	195.59	73.835	41.379	19.172	1.1416e-05	41.491	-18.206	40.997	127.268	-14.741	31.060	110.473	-14.972	-8.453	104.909	109.722	-9.714	-4.205	-3.561	0.940	56.922	-0.655	-8191	255	
773.768	1	1	0	0	0.16218	0.26522	0.097702	0.036243	0.17763	0.21867	0.060062	0.19394	0.050554	0.1127	0.084636	0.076852	0.17059	0.33382	0.040061	0.1897	-2.4917	-2.8937	-2.8625	-3.0021	-3.0833	-2.8854	-3.1104	-3.0604	-2.8917	-3.1458	-2.9021	-2.8958	-3.15	-2.7917	-2.9708	-3.2188	260.879	282.608	179.791	228.924	262.812	278.362	18.544	316.186	147.205	44.137	132.386	330.611	328.131	313.495	83.124	291.155	0.0005762	0.00033357	4.0935e-05	376.44	5.4939e-06	4.9723e-06	502.42	113.58	3.1171e-06	4.1631e-06	195.05	73.762	40.697	18.842	1.7813e-06	41.351	0.00096858	0.0010577	0.00029845	376.54	1.1057e-05	1.2305e-05	499.42	114.59	1.1569e-05	1.1802e-05	196.45	74.396	41.542	19.223	1.1267e-05	41.649	325.379	15.355	64.921	-14.707	106.248	109.869	-14.831	-8.433	102.163	164.760	-9.783	-4.325	-3.051	1.430	161.158	-0.445	-8191	255	
773.889	1	1	0	0	0.26389	0.34571	0.21278	0.39502	0.029803	0.15678	0.10197	0.063971	0.11002	0.13106	0.21982	0.24166	0.24421	0.057092	0.14802	0.044714	-2.2687	-3.1792	-2.8688	-2.9062	-3.3187	-2.9792	-3.1354	-3.1521	-2.825	-3.1125	-2.8542	-3.1042	-3.075	-3.025	-3.1646	-3.1	307.973	23.141	211.477	325.347	194.824	78.692	218.468	31.374	-21.149	210.791	281.969	274.550	168.259	55.441	254.499	105.156	0.00055505	0.00012303	9.0465e-05	377.23	4.7935e-06	1.7636e-06	505.27	115.1	7.87e-06	2.6001e-06	197.09	74.453	40.816	19.033	4.672e-06	41.497	0.00096251	0.0010533	0.00029657	377.66	1.1056e-05	1.1926e-05	500.57	115.17	1.1388e-05	1.173e-05	198.26	74.719	41.721	19.319	1.1336e-05	41.853	-23.887	82.172	47.728	-14.508	161.540	150.974	-14.943	-8.853	169.711	71.872	-9.775	-4.481	-3.483	0.913	53.795	-0.531	-8191	255	
773.985	1	1	0	0	0.023621	0.1887	0.278	0.06574	0.33042	0.14866	0.030167	0.093268	0.097911	0.078313	0.20118	0.19229	0.096922	0.18972	0.11259	0.053822	-2.3833	-2.9896	-3.0083	-2.9604	-3.1771	-2.9271	-2.9729	-2.9771	-3.0292	-3.175	-3.0396	-2.5687	-3.0917	-3.0021	-2.9021	-3.0625	7.720	331.212	329.369	115.025	276.256	228.484	208.102	37.898	89.819	66.545	317.769	71.623	49.626	100.229	191.928	3.702	0.00045681	0.00040952	0.00010777	378.95	3.7694e-06	1.5434e-06	507.73	114.89	4.321e-06	3.6166e-06	198.06	74.334	41.141	19.154	5.0501e-06	41.795	0.00095965	0.001067	0.00029727	377.6	1.1101e-05	1.1946e-05	503.71	115.3	1.1331e-05	1.1512e-05	199.03	74.9	41.961	19.375	1.1352e-05	42.148	-20.136	61.888	-0.770	-14.767	87.136	87.146	-15.222	-9.025	25.607	170.171	-10.007	-4.144	-3.447	1.100	190.844	-0.620	-8191	255	
774.079	1	1	0	0	0.16668	0.18059	0.23589	0.096032	0.088609	0.18153	0.16796	0.16835	0.20542	0.046274	0.18674	0.12363	0.17002	0.17621	0.23088	0.2072	-2.5396	-3.0833	-2.9313	-2.8917	-3.3	-3.0396	-2.9771	-3.1	-2.6104	-3.0146	-2.9146	-2.6354	-3.1813	-2.7667	-2.8917	-3.0021	50.246	213.285	-2.488	228.307	40.361	332.983	177.611	62.135	52.465	240.048	219.510	266.557	281.151	11.182	200.301	6.105	0.00061407	0.00035012	0.00012907	379.93	4.1404e-06	3.5722e-06	508.35	114.87	4.1103e-06	1.9275e-06	199.29	74.495	41.381	19.038	2.7002e-06	41.713	0.00093583	0.0010652	0.00028736	378.39	1.0918e-05	1.1631e-05	504.3	115.47	1.0918e-05	1.1483e-05	199.1	75.036	42.055	19.399	1.1343e-05	41.979	325.766	68.204	128.669	-14.481	96.906	130.085	-15.010	-8.759	125.959	198.506	-10.093	-3.906	-3.590	1.420	205.787	-0.342	-8191	255	
774.175	1	1	0	0	0.13964	0.13389	0.046981	0.17907	0.32199	0.13941	0.099191	0.05741	0.050087	0.18115	0.14199	0.16468	0.17082	0.12906	0.17754	0.17202	-2.6333	-2.9646	-2.925	-2.8312	-3.2729	-3.0208	-3.1042	-3.1771	-2.9437	-3.1875	-2.9604	-2.8604	-3.0687	-3.0875	-2.8812	-3.1354	303.900	219.868	-2.673	131.600	147.921	128.807	144.108	-1.061	325.991	0.334	49.612	257.498	205.585	281.374	140.335	266.412	0.0004484	0.00030926	8.6821e-05	380.31	9.78e-06	1.6999e-06	504.03	114.79	2.8482e-06	2.5025e-06	196.41	73.954	40.831	19.017	4.9142e-06	41.434	0.00093393	0.0010484	0.00028759	378.39	1.0984e-05	1.156e-05	499.39	115.13	1.0829e-05	1.1464e-05	196.6	74.363	41.746	19.317	1.1331e-05	41.637	-24.781	48.639	84.370	-14.755	92.546	164.796	-14.869	-8.788	83.469	49.652	-9.719	-4.371	-3.766	0.974	84.887	-0.882	-8191	255	
774.273	1	1	0	0	0.13293	0.18083	0.05395	0.23101	0.039924	0.049199	0.23708	0.13357	0.20808	0.063074	0.37625	0.1353	0.10866	0.17869	0.12904	0.22198	-2.4688	-2.9688	-3.0979	-2.7854	-3.0917	-3.0708	-3.0083	-3.1625	-2.9208	-3.0958	-3.2458	-2.9083	-2.9792	-3.0021	-2.8917	-3.2438	317.496	254.838	188.721	322.855	332.868	52.367	278.226	268.451	113.546	228.876	57.243	306.165	-16.109	-5.408	-13.626	12.009	0.00051839	0.00052036	6.2593e-05	378.73	1.1322e-05	3.968e-06	503.31	114.42	9.5399e-07	3.3913e-06	196.75	74.153	41.168	19.031	9.8589e-07	41.297	0.00093011	0.0010581	0.00028826	377.71	1.0952e-05	1.147e-05	499.65	115.1	1.107e-05	1.1517e-05	197.15	74.443	41.994	19.302	1.1426e-05	41.654	325.259	72.582	-21.871	-14.494	138.142	194.905	-14.899	-8.657	177.231	123.478	-10.109	-3.997	-3.626	1.113	119.607	-0.324	-8191	255	
774.368	1	1	0	0	0.097084	0.075588	0.15173	0.083554	0.27197	0.19961	0.16907	0.1078	0.16542	0.23558	0.16759	0.022273	0.20081	0.12255	0.042364	0.066778	-2.4688	-3.025	-3.0312	-2.8229	-3.0021	-2.85	-2.9313	-3.0458	-2.9667	-3.0479	-3.0354	-2.8792	-3.0625	-2.95	-2.7313	-3.0333	70.158	155.965	295.734	93.588	118.531	78.244	197.963	-22.289	64.970	64.430	180.031	103.826	297.822	294.895	149.906	131.881	0.00057258	0.00082377	0.00011472	377.86	8.4942e-06	6.5272e-06	503.18	114.41	6.746e-06	5.4959e-06	196.94	74.46	41.65	19.26	9.1143e-06	41.366	0.00092761	0.0010546	0.00028382	378.31	1.0942e-05	1.1235e-05	500.66	115.28	1.0826e-05	1.1377e-05	197.42	74.772	42.167	19.481	1.1469e-05	41.914	-22.469	35.312	72.552	-14.675	67.116	41.671	-14.841	-9.106	129.112	127.367	-9.703	-4.527	-3.933	1.222	106.251	-0.485	-8191	255	
774.464	1	1	0	0	0.13663	0.24945	0.1403	0.24484	0.20793	0.16773	0.20392	0.11499	0.21493	0.055884	0.16173	0.063195	0.14617	0.067717	0.049335	0.077332	-2.2958	-2.9167	-2.9958	-2.825	-2.9437	-3.1292	-2.8396	-3.2271	-2.7604	-2.8583	-3.0146	-2.8896	-2.8229	-2.9583	-2.8667	-3.2208	245.088	131.971	283.685	250.047	311.987	26.092	207.140	40.755	23.758	42.652	-10.383	331.402	28.044	242.919	231.240	180.654	0.0005362	0.00012553	9.1956e-05	379.25	5.0173e-06	5.1077e-06	506.94	115.22	4.5779e-06	4.3389e-06	196.45	74.358	41.141	19.073	3.4715e-06	41.606	0.00091265	0.0010452	0.00028633	378.11	1.0587e-05	1.1116e-05	500.54	115.25	1.0631e-05	1.1278e-05	197.52	74.739	41.832	19.376	1.1113e-05	41.766	-21.097	42.497	87.017	-14.726	89.208	146.840	-14.812	-8.667	145.844	130.840	-9.958	-4.180	-3.767	1.023	131.241	-0.146	-8191	255	
774.585	1	1	0	0	0.29446	0.22563	0.089708	0.1848	0.080509	0.15977	0.24683	0.10736	0.14125	0.26684	0.12107	0.21934	0.30444	0.22937	0.09186	0.052294	-2.3458	-2.7417	-3.0125	-2.8083	-2.9292	-3.0792	-2.8021	-3.0667	-2.9104	-2.7604	-3.1063	-2.9	-2.7188	-3.1729	-2.7604	-3.0021	-20.949	331.245	20.574	139.235	224.778	256.713	289.141	196.319	281.151	138.810	15.421	288.106	-24.671	128.337	294.899	8.097	0.0005307	0.00045784	0.00010979	378.34	4.3566e-06	3.113e-06	505.42	114.78	9.5773e-06	5.2729e-06	198.62	74.346	41.203	19.187	3.4761e-06	41.723	0.00090758	0.0010426	0.00028007	377.59	1.086e-05	1.1315e-05	501.8	115.37	1.0715e-05	1.156e-05	198.59	74.79	42.035	19.48	1.1082e-05	42.022	-15.525	89.471	26.123	-14.772	150.570	128.717	-14.760	-8.884	97.217	102.887	-9.888	-4.018	-3.718	0.966	199.389	-0.408	-8191	255	
774.681	1	1	0	0	0.17217	0.18762	0.19944	0.12209	0.36616	0.19362	0.046559	0.17417	0.15416	0.21304	0.12745	0.27024	0.1589	0.070885	0.075917	0.20394	-2.5479	-2.8854	-3.0396	-2.8708	-2.8271	-2.9396	-2.9	-3.0375	-2.9333	-2.8563	-3.0771	-2.7396	-2.9604	-3.0458	-2.8438	-3.0938	128.375	162.960	153.743	207.637	-20.049	209.549	11.840	297.157	52.691	46.204	197.657	265.210	332.823	310.797	-8.557	136.705	0.00060248	3.9677e-05	5.2814e-05	382.4	6.7539e-06	5.1817e-06	510.81	115.14	8.4339e-06	2.4925e-06	197.98	74.842	41.305	19.293	8.7327e-06	41.954	0.00090753	0.0010425	0.00028107	380.15	1.0707e-05	1.1328e-05	503.67	115.57	1.0637e-05	1.155e-05	198.93	75.087	42.063	19.57	1.0899e-05	42.444	-24.891	320.728	-3.933	-14.817	107.775	131.277	-14.872	-8.748	101.124	206.529	-9.930	-4.412	-3.428	1.285	148.235	-0.582	-8191	255	
774.777	1	1	0	0	0.18768	0.22497	0.024662	0.087184	0.27886	0.20844	0.049477	0.36462	0.15042	0.23377	0.10713	0.2115	0.05359	0.12428	0.29342	0.12614	-2.4625	-2.7729	-2.9688	-2.7479	-2.9771	-3.0083	-2.8708	-3.0792	-3.025	-2.7625	-3.0167	-2.8375	-2.8708	-3.2125	-2.9417	-3.0187	54.996	149.582	102.617	-23.786	279.515	300.147	202.006	-12.069	3.819	285.101	-4.297	273.063	203.147	-1.644	44.332	325.166	0.00067765	0.00034233	0.00012291	381.25	4.124e-06	3.8252e-06	507	114.23	6.8908e-06	3.3835e-06	198.26	74.609	41.572	19.213	5.9202e-06	41.744	0.00089277	0.0010152	0.00027747	379.09	1.068e-05	1.1139e-05	502.89	115.18	1.0468e-05	1.1338e-05	197.77	74.873	41.901	19.467	1.0799e-05	41.948	-17.360	15.223	60.871	-14.750	106.287	214.629	-14.908	-8.533	150.367	100.144	-10.109	-4.489	-3.509	0.886	132.947	-0.407	-8191	255	
774.873	1	1	0	0	0.084134	0.1704	0.17604	0.22846	0.21548	0.076862	0.24221	0.15484	0.17361	0.14382	0.11918	0.10089	0.19878	0.19771	0.19147	0.16557	-2.4688	-2.7521	-2.8167	-3.0396	-2.7917	-3.1104	-2.9854	-2.9313	-2.9875	-2.9083	-3.0479	-3.0521	-2.8	-3.0146	-2.8625	-2.8854	151.594	-5.255	248.545	322.327	142.057	-25.263	303.139	275.362	199.015	214.132	7.220	263.481	264.097	324.682	319.289	272.564	0.00064584	0.00047716	0.00015334	380.55	3.4084e-06	4.4425e-06	504.94	114.01	7.8372e-06	1.8992e-06	195.15	73.581	41.175	19.078	3.755e-06	40.967	0.00088486	0.0010147	0.00027503	377.11	1.081e-05	1.0961e-05	499.41	114.32	1.0274e-05	1.1197e-05	196.42	74.091	41.629	19.31	1.0651e-05	41.376	331.180	22.125	48.917	-14.826	168.529	144.864	-15.242	-8.693	170.827	119.284	-9.820	-4.667	-3.502	0.856	179.709	-0.428	-8191	255	
774.969	1	1	0	0	0.051119	0.11388	0.18885	0.2446	0.21078	0.21369	0.027047	0.22039	0.25107	0.19738	0.089991	0.21802	0.1356	0.35616	0.19334	0.22911	-2.6229	-2.8125	-3.0292	-3.0604	-2.7792	-2.9792	-2.9021	-3.0083	-3.2042	-2.8125	-3.0521	-2.9979	-2.6604	-3.0604	-2.8854	-2.9146	155.093	153.568	197.716	183.158	131.319	99.111	239.487	55.459	61.680	187.387	195.327	132.920	283.305	127.430	83.795	146.641	0.0006454	0.00019853	0.00015086	376.83	5.3743e-06	5.2531e-06	502.07	114.01	6.5368e-06	2.4185e-06	196.75	73.224	40.86	18.982	2.8627e-06	41.166	0.000882	0.0010135	0.00027766	374.92	1.0468e-05	1.0786e-05	497.13	114.23	1.016e-05	1.1144e-05	196.42	73.854	41.469	19.241	1.0647e-05	41.457	-24.171	103.748	44.220	-14.533	139.596	89.424	-14.983	-8.598	142.960	126.553	-9.702	-4.181	-3.943	1.217	185.424	-0.444	-8191	255	
775.065	1	1	0	0	0.18742	0.26978	0.082512	0.20014	0.16938	0.075595	0.18368	0.03932	0.30779	0.05536	0.13392	0.12079	0.25349	0.12041	0.14621	0.17364	-2.6979	-2.8875	-3.0958	-3.1646	-2.9271	-3.1542	-3.0958	-2.7333	-3.0521	-2.8146	-2.9146	-3.1375	-2.8417	-3.125	-3.0417	-2.9229	38.732	63.406	274.493	251.927	153.142	38.133	-14.041	76.065	-15.997	87.651	254.933	304.986	245.239	-3.097	130.836	300.120	0.00039456	0.00026579	9.4338e-05	376.51	1.3837e-06	3.8365e-06	503.4	113.64	7.9367e-06	3.2403e-06	196.58	73.862	40.92	18.877	1.0138e-06	40.934	0.000898	0.00099988	0.00028026	375.04	1.0745e-05	1.1051e-05	498.29	114.36	1.0746e-05	1.1307e-05	196.75	74.181	41.652	19.211	1.088e-05	41.292	-19.223	51.920	91.511	-14.897	219.407	104.835	-14.964	-8.928	153.890	137.397	-9.830	-4.183	-3.548	1.269	234.046	-0.467	-8191	255	
775.161	1	1	0	0	0.16107	0.11038	0.046454	0.27159	0.2099	0.20581	0.22795	0.1313	0.18344	0.14706	0.15796	0.082628	0.14121	0.060365	0.20016	0.0687	-2.675	-2.8646	-2.8729	-3.1354	-2.8063	-3.25	-2.9208	-2.725	-3.1146	-2.8812	-2.8604	-3.1083	-2.7542	-3.05	-3.0792	-2.7188	169.824	158.599	256.237	-1.498	-12.884	77.328	40.953	109.415	100.704	291.572	242.119	-0.440	246.047	114.984	152.254	276.473	0.00062441	0.00016418	9.6439e-05	378.36	1.0442e-05	4.0217e-06	502.75	114.37	1.0578e-06	3.8139e-06	196.91	73.635	40.537	18.885	2.2875e-06	40.977	0.00090501	0.0010243	0.00028405	375.54	1.0928e-05	1.1468e-05	498.63	114.23	1.0487e-05	1.1325e-05	196.69	73.846	41.356	19.092	1.0936e-05	41.293	332.626	96.474	84.902	-14.673	116.063	121.179	-15.053	-8.702	18.782	121.459	-9.964	-4.154	-3.586	1.076	76.205	-0.378	-8191	255	
775.280	1	1	0	0	0.17949	0.20776	0.098076	0.099717	0.12719	0.15892	0.069479	0.12929	0.12834	0.044137	0.21744	0.093445	0.21107	0.16952	0.21704	0.069316	-2.6937	-3.075	-3.0854	-3.2771	-2.7771	-3.1625	-3.2021	-2.8	-3.0021	-2.8937	-2.9021	-3.1688	-2.9896	-2.9854	-3.0687	-2.8417	304.208	268.563	52.295	162.888	204.121	-5.720	209.308	308.139	117.243	294.563	242.075	16.641	312.816	284.618	172.054	212.040	0.00043261	0.00053949	0.00013154	376.81	9.083e-06	3.6722e-06	504.91	114.02	3.7351e-06	3.3977e-06	196.32	74.025	40.682	18.924	6.4903e-06	41.113	0.00091258	0.0010255	0.0002901	374.77	1.0878e-05	1.1364e-05	500.43	114.41	1.0938e-05	1.126e-05	197.61	74.232	41.477	19.15	1.089e-05	41.525	325.893	48.840	67.152	-14.830	160.436	144.724	-14.705	-8.963	129.654	112.439	-9.937	-4.413	-3.660	1.322	184.609	-0.512	-8191	255	
775.376	1	1	0	0	0.097598	0.093516	0.16495	0.15273	0.098231	0.10956	0.32322	0.085422	0.21012	0.17566	0.33171	0.3284	0.1761	0.02213	0.15847	0.018528	-2.7208	-3.0354	-2.7667	-3.2708	-2.8542	-2.7771	-3.2229	-2.7792	-3.1479	-3.0187	-2.9146	-3.1063	-2.9	-2.9396	-3.0375	-2.8438	231.868	121.038	29.065	286.864	308.732	133.478	259.668	-20.840	-17.191	-1.000	46.365	72.635	316.910	264.945	-3.436	0.295	0.00050191	0.00037066	6.0896e-05	377.36	8.0376e-06	2.3326e-06	505.75	114.64	5.2529e-06	3.1039e-06	197.95	74.467	40.84	19.001	1.0666e-06	41.158	0.0009148	0.0010396	0.00029064	374.8	1.0864e-05	1.1462e-05	502.73	115	1.0989e-05	1.1451e-05	198.08	74.553	41.655	19.302	1.1113e-05	41.559	329.721	29.069	137.303	-14.637	172.232	103.099	-14.972	-8.554	118.879	59.352	-9.548	-4.187	-3.778	1.172	224.832	-0.445	-8191	255	
775.473	1	1	0	0	0.074259	0.14838	0.069794	0.10009	0.12996	0.1445	0.24021	0.20039	0.18638	0.078315	0.23462	0.20279	0.087179	0.17112	0.1159	0.31927	-2.6458	-3.0083	-2.6396	-3.0625	-2.8937	-2.9667	-3.2875	-2.8438	-3.1542	-2.9521	-2.7604	-3.2396	-2.9604	-2.9313	-3.0146	-2.85	61.425	326.806	21.623	44.451	105.051	52.968	170.886	-2.624	204.113	331.419	294.932	271.671	319.550	303.703	161.378	321.677	0.00048831	0.00048934	0.00013654	378.93	3.54e-06	3.2417e-06	504.48	113.77	1.4447e-06	3.2963e-06	195.97	73.202	40.489	18.608	3.4247e-06	40.392	0.00093588	0.0010578	0.00029521	376.01	1.0963e-05	1.2057e-05	499.94	114.15	1.1155e-05	1.1739e-05	196.3	73.396	41.282	18.938	1.1507e-05	40.831	-20.745	111.399	65.405	-15.029	116.259	250.439	-14.825	-9.019	263.288	70.856	-9.816	-4.446	-3.796	1.364	135.152	-0.307	-8191	255	
775.544	1	1	0	0	0.14076	0.29374	0.069207	0.26098	0.24011	0.071929	0.20971	0.14835	0.18081	0.13938	0.10735	0.052484	0.13313	0.11449	0.11701	0.18745	-2.3563	-2.9917	-2.8625	-3.0354	-2.9604	-2.9083	-3.125	-2.8917	-2.95	-3.125	-2.7958	-2.9021	-2.6896	-2.7687	-3.05	-2.8417	-14.296	154.140	49.712	311.229	82.114	89.845	264.754	45.238	122.792	201.337	286.550	225.679	-21.330	33.478	182.345	324.066	0.0004285	0.00022751	2.8443e-05	374.49	4.9675e-06	1.1264e-06	503.53	113.65	3.0259e-06	1.7607e-06	194.09	73.474	40.665	18.592	5.019e-06	40.489	0.00093173	0.0010503	0.00029959	373.14	1.0924e-05	1.1903e-05	498.25	113.97	1.1049e-05	1.1485e-05	195.15	73.418	41.276	18.922	1.1129e-05	40.777	-11.942	57.818	84.442	-14.775	139.298	167.009	-14.874	-9.063	151.093	151.115	-9.883	-4.103	-3.308	1.085	124.672	-0.446	-8191	255	
775.665	1	1	0	0	0.21368	0.17663	0.14257	0.32798	0.025403	0.10036	0.14104	0.13496	0.087829	0.25764	0.081544	0.14595	0.084367	0.13893	0.032465	0.0086977	-2.6	-3.0167	-2.7896	-2.9542	-3.0458	-2.8167	-3.1	-2.8458	-2.9708	-3.0354	-2.9062	-2.9896	-3.0062	-2.9208	-3.0563	-2.8708	114.107	109.204	221.079	-2.480	-18.826	96.905	99.688	269.781	-21.333	271.754	286.700	216.044	141.992	118.953	326.743	127.620	0.00051802	0.00015255	2.6759e-05	374.07	3.4194e-06	4.2077e-06	505.31	113.44	6.3036e-06	1.278e-06	195.49	73.191	40.504	18.684	3.802e-06	40.512	0.00094184	0.0010281	0.00029729	373.14	1.0988e-05	1.176e-05	499.94	114.13	1.1202e-05	1.1556e-05	196.1	73.42	41.346	18.932	1.1547e-05	40.803	329.947	-15.297	-2.905	-14.824	104.043	165.569	-14.861	-8.947	108.205	133.098	-10.346	-4.064	-3.504	1.085	57.364	-0.332	-8191	255	
775.761	1	1	0	0	0.22809	0.10978	0.12914	0.030911	0.077063	0.1657	0.17956	0.052385	0.16912	0.25111	0.22109	0.21415	0.22249	0.1127	0.11087	0.089641	-2.4104	-2.9229	-2.7708	-2.6792	-2.9583	-2.6396	-3.0958	-2.8479	-3.0333	-3.0812	-2.8333	-2.8688	-3.2604	-2.8667	-3.0708	-3.0187	283.096	198.769	333.322	312.463	11.073	333.392	307.637	50.221	113.167	124.014	68.579	-25.417	102.438	67.348	42.480	61.961	0.00041828	0.00023531	4.8778e-05	376.71	5.5388e-08	1.337e-06	506.92	113.43	2.9045e-06	9.0249e-07	196.99	73.351	40.355	18.745	4.3218e-06	40.807	0.00095797	0.0010713	0.00029883	375.22	1.1089e-05	1.2121e-05	501.91	114.2	1.1051e-05	1.1654e-05	197.2	74.06	41.415	18.965	1.1365e-05	41.041	-24.093	80.236	34.071	-14.801	-0.433	-14.283	-14.695	-8.576	123.807	114.517	-9.720	-4.148	-3.178	1.380	210.835	-0.507	-8191	255	
#DATA ENDS
