BOXY.EXE: ISS Imagent and Oximeter Data Acquisition Program Version 0.80
Ascii Record File

#ACQ INFORMATION
2  Detector Channels 
16  External MUX Channels 
1  Auxiliary Channels 
5000  Waveform (CCF) Frequency (Hz)
1  Waveforms Skipped 
30  Waveforms Averaged 
1  Cycles Averaged 
16  Acquisitions per Waveform 
10.0806  Updata Rate (Hz) 

#FILE INFORMATION
TRUE -- External MUX Channel results are PARSED.
FALSE -- AC DC and Phase are NOT grouped.
TRUE -- Companion Program Settings File CREATED.
FALSE -- AC data not excluded
FALSE -- DC data not excluded
FALSE -- Phase data not excluded
FALSE -- Auxillary Chn. data not excluded
Tab delimiters

#CALIBRATION STATE
TRUE -- Waveform Calibration Values APPLIED.


#AUX CALIBRATION VALUES
Val Type	aux-1	

Term	1.0000e+00	
Factor	0.0000e+00	


#WF CALIBRATION VALUES
A = Detector Channel
Val Type	A-AC1	A-AC2	A-AC3	A-AC4	A-AC5	A-AC6	A-AC7	A-AC8	A-AC9	A-AC10	A-AC11	A-AC12	A-AC13	A-AC14	A-AC15	A-AC16	A-DC1	A-DC2	A-DC3	A-DC4	A-DC5	A-DC6	A-DC7	A-DC8	A-DC9	A-DC10	A-DC11	A-DC12	A-DC13	A-DC14	A-DC15	A-DC16	A-Ph1	A-Ph2	A-Ph3	A-Ph4	A-Ph5	A-Ph6	A-Ph7	A-Ph8	A-Ph9	A-Ph10	A-Ph11	A-Ph12	A-Ph13	A-Ph14	A-Ph15	A-Ph16	

Term	0.00000e+00	0.00000e+00	0.00000e+00	0.00000e+00	0.00000e+00	0.00000e+00	0.00000e+00	0.00000e+00	0.00000e+00	0.00000e+00	0.00000e+00	0.00000e+00	0.00000e+00	0.00000e+00	0.00000e+00	0.00000e+00	0.00000e+00	0.00000e+00	0.00000e+00	0.00000e+00	0.00000e+00	0.00000e+00	0.00000e+00	0.00000e+00	0.00000e+00	0.00000e+00	0.00000e+00	0.00000e+00	0.00000e+00	0.00000e+00	0.00000e+00	0.00000e+00	0.00000e+00	0.00000e+00	0.00000e+00	0.00000e+00	0.00000e+00	0.00000e+00	0.00000e+00	0.00000e+00	0.00000e+00	0.00000e+00	0.00000e+00	0.00000e+00	0.00000e+00	0.00000e+00	0.00000e+00	0.00000e+00	
Factor	1.00000e+00	1.00000e+00	1.00000e+00	1.00000e+00	1.00000e+00	1.00000e+00	1.00000e+00	1.00000e+00	1.00000e+00	1.00000e+00	1.00000e+00	1.00000e+00	1.00000e+00	1.00000e+00	1.00000e+00	1.00000e+00	1.00000e+00	1.00000e+00	1.00000e+00	1.00000e+00	1.00000e+00	1.00000e+00	1.00000e+00	1.00000e+00	1.00000e+00	1.00000e+00	1.00000e+00	1.00000e+00	1.00000e+00	1.00000e+00	1.00000e+00	1.00000e+00	X	X	X	X	X	X	X	X	X	X	X	X	X	X	X	X	

B = Detector Channel
Val Type	B-AC1	B-AC2	B-AC3	B-AC4	B-AC5	B-AC6	B-AC7	B-AC8	B-AC9	B-AC10	B-AC11	B-AC12	B-AC13	B-AC14	B-AC15	B-AC16	B-DC1	B-DC2	B-DC3	B-DC4	B-DC5	B-DC6	B-DC7	B-DC8	B-DC9	B-DC10	B-DC11	B-DC12	B-DC13	B-DC14	B-DC15	B-DC16	B-Ph1	B-Ph2	B-Ph3	B-Ph4	B-Ph5	B-Ph6	B-Ph7	B-Ph8	B-Ph9	B-Ph10	B-Ph11	B-Ph12	B-Ph13	B-Ph14	B-Ph15	B-Ph16	

Term	0.00000e+00	0.00000e+00	0.00000e+00	0.00000e+00	0.00000e+00	0.00000e+00	0.00000e+00	0.00000e+00	0.00000e+00	0.00000e+00	0.00000e+00	0.00000e+00	0.00000e+00	0.00000e+00	0.00000e+00	0.00000e+00	0.00000e+00	0.00000e+00	0.00000e+00	0.00000e+00	0.00000e+00	0.00000e+00	0.00000e+00	0.00000e+00	0.00000e+00	0.00000e+00	0.00000e+00	0.00000e+00	0.00000e+00	0.00000e+00	0.00000e+00	0.00000e+00	-6.39374e+00	-1.30076e+02	-1.26601e+02	-1.84394e+02	-6.08140e+01	-7.06777e+01	-1.57167e+02	-1.62015e+02	-3.31567e+01	-6.16301e+01	-1.77855e+02	-1.71352e+02	-1.80192e+02	-1.76785e+02	-5.94064e+01	-1.49703e+02	
Factor	3.40232e-05	2.11048e-04	5.73687e-05	1.81022e-01	2.72477e-06	1.95530e-06	1.79154e-01	5.79627e-02	2.25856e-06	1.85658e-06	1.08032e+00	3.06876e-02	3.08175e-02	1.00977e-02	2.67119e-06	1.45155e-02	6.65788e-06	7.85998e-06	2.20830e-06	8.86745e-02	8.43392e-08	8.72387e-08	8.25446e-02	2.84046e-02	8.40714e-08	8.72613e-08	4.76702e-01	1.46536e-02	1.52110e-02	4.99653e-03	8.52396e-08	6.96091e-03	X	X	X	X	X	X	X	X	X	X	X	X	X	X	X	X	



#DISTANCE SETTINGS
A = Detector Channel
A-1	A-2	A-3	A-4	A-5	A-6	A-7	A-8	A-9	A-10	A-11	A-12	A-13	A-14	A-15	A-16	

2.5000e+00	3.0000e+00	2.5000e+00	3.0000e+00	2.0000e+00	3.0000e+00	1.5000e+00	3.0000e+00	3.0000e+00	3.0000e+00	3.0000e+00	3.0000e+00	3.0000e+00	3.0000e+00	1.5000e+00	3.0000e+00	

B = Detector Channel
B-1	B-2	B-3	B-4	B-5	B-6	B-7	B-8	B-9	B-10	B-11	B-12	B-13	B-14	B-15	B-16	

1.0000e+01	1.0000e+01	1.0000e+01	1.4400e+00	1.0000e+01	1.0000e+01	1.5100e+00	1.9400e+00	1.0000e+01	1.0000e+01	1.9900e+00	2.4900e+00	2.4100e+00	2.9000e+00	1.0000e+01	2.9800e+00	




#DATA BEGINS
time	group	step	mark	flag	A-AC1	A-AC2	A-AC3	A-AC4	A-AC5	A-AC6	A-AC7	A-AC8	A-AC9	A-AC10	A-AC11	A-AC12	A-AC13	A-AC14	A-AC15	A-AC16	A-DC1	A-DC2	A-DC3	A-DC4	A-DC5	A-DC6	A-DC7	A-DC8	A-DC9	A-DC10	A-DC11	A-DC12	A-DC13	A-DC14	A-DC15	A-DC16	A-Ph1	A-Ph2	A-Ph3	A-Ph4	A-Ph5	A-Ph6	A-Ph7	A-Ph8	A-Ph9	A-Ph10	A-Ph11	A-Ph12	A-Ph13	A-Ph14	A-Ph15	A-Ph16	B-AC1	B-AC2	B-AC3	B-AC4	B-AC5	B-AC6	B-AC7	B-AC8	B-AC9	B-AC10	B-AC11	B-AC12	B-AC13	B-AC14	B-AC15	B-AC16	B-DC1	B-DC2	B-DC3	B-DC4	B-DC5	B-DC6	B-DC7	B-DC8	B-DC9	B-DC10	B-DC11	B-DC12	B-DC13	B-DC14	B-DC15	B-DC16	B-Ph1	B-Ph2	B-Ph3	B-Ph4	B-Ph5	B-Ph6	B-Ph7	B-Ph8	B-Ph9	B-Ph10	B-Ph11	B-Ph12	B-Ph13	B-Ph14	B-Ph15	B-Ph16	aux-1	digaux	

16822.240	1	1	0	256	0.18158	0.15525	0.14798	0.27767	0.16073	0.11826	0.069584	0.24491	0.20886	0.13472	0.16011	0.29955	0.27752	0.18324	0.20398	0.10635	-2.0479	-2.4875	-2.7188	-2.7125	-2.6312	-2.7188	-2.6604	-2.5812	-2.6625	-2.5146	-2.6437	-2.6708	-2.5792	-2.75	-2.5125	-2.6354	-30.740	142.135	-4.587	-45.054	220.090	35.600	-27.239	308.149	258.234	-1.671	232.026	-5.805	296.272	-26.924	283.363	268.679	0.00030662	0.00043431	0.00015209	1303	5.9706e-06	3.3434e-06	1308.6	352.62	2.9646e-06	5.2641e-06	408.29	134.73	115.78	40.283	4.1617e-06	50.665	0.0002841	0.00025167	6.5941e-05	1318.3	2.9174e-06	2.691e-06	1320.2	357.56	2.9038e-06	2.8274e-06	394.32	137.21	118.08	41.273	2.8248e-06	51.733	271.966	48.198	40.151	-32.176	107.751	99.465	-31.874	-27.367	122.594	106.579	-27.666	-23.191	-22.319	-18.133	124.196	-19.022	-8191	255	
16822.361	1	1	0	0	0.20532	0.17521	0.34365	0.55463	0.11849	0.10325	0.24699	0.19314	0.15522	0.16905	0.26123	0.11649	0.05172	0.14627	0.13301	0.16828	-2.2521	-2.2458	-2.5542	-2.6833	-2.5104	-2.6958	-2.775	-2.5979	-2.5708	-2.4229	-2.6688	-2.6854	-2.3542	-2.7292	-2.575	-2.5	25.662	188.404	294.309	288.211	289.656	176.812	262.600	227.971	49.956	190.180	289.118	219.467	137.266	107.620	202.425	172.902	0.00028755	0.00045533	0.00011345	1302.7	5.9592e-06	2.5464e-06	1307	352.64	2.5158e-06	3.968e-06	402.53	134.66	115.65	40.257	6.2411e-06	50.437	0.00028984	0.00024924	6.6479e-05	1318.6	2.8793e-06	2.6422e-06	1318.5	357.06	2.7765e-06	2.6435e-06	392.4	136.95	117.85	41.06	2.6456e-06	51.463	272.529	47.494	37.824	-31.926	140.824	95.355	-31.982	-27.174	187.345	112.940	-28.628	-23.480	-22.500	-18.053	127.928	-19.194	-8191	255	
16822.457	1	1	0	0	0.1944	0.085965	0.24984	0.35257	0.037431	0.07339	0.35683	0.1154	0.018168	0.077756	0.19692	0.1925	0.18541	0.17071	0.39031	0.24413	-2.2667	-2.5854	-2.7771	-2.7146	-2.2646	-2.7062	-2.5604	-2.6562	-2.6437	-2.5042	-2.5187	-2.6625	-2.4833	-2.8229	-2.5625	-2.5062	75.519	196.415	122.994	248.941	182.803	88.779	289.580	-17.093	194.041	106.988	8.454	295.054	256.791	273.106	57.672	252.058	0.00026491	0.0004394	0.00010544	1299.2	5.3408e-06	3.1158e-06	1301.2	351.27	5.3632e-07	2.3495e-06	400.59	134.03	115.55	39.881	3.6052e-06	50.173	0.00027246	0.00022853	6.2946e-05	1313.3	2.6483e-06	2.3549e-06	1313	355.78	2.6111e-06	2.3759e-06	391.59	136.35	117.43	40.92	2.6305e-06	51.278	274.606	33.060	36.848	-32.053	118.399	95.479	-32.029	-27.190	81.867	127.513	-27.794	-22.960	-22.204	-18.014	130.621	-19.165	-8191	255	
16822.553	1	1	0	0	0.09	0.23189	0.1015	0.066865	0.17136	0.053731	0.29789	0.36603	0.19467	0.12277	0.094855	0.082543	0.26966	0.15581	0.16983	0.10449	-2.2167	-2.4896	-2.5083	-2.7771	-2.5167	-2.8125	-2.7208	-2.4938	-2.5625	-2.5333	-2.3875	-2.6729	-2.7042	-2.775	-2.6229	-2.4979	51.108	143.114	202.322	-15.974	6.496	178.592	302.970	247.043	117.391	1.157	198.945	234.812	232.452	18.618	-19.469	4.670	0.0002811	0.00032874	0.00016281	1294.4	6.359e-06	4.787e-06	1304.1	350.57	4.1531e-06	3.7329e-06	405.68	134.31	115.49	40.047	7.0803e-06	50.459	0.0002625	0.00022203	6.335e-05	1310.4	2.6693e-06	2.4031e-06	1313.1	355.67	2.6588e-06	2.5308e-06	392.9	136.71	117.71	41.029	2.7944e-06	51.449	276.016	51.264	61.110	-32.026	141.575	104.064	-32.094	-27.169	141.397	98.959	-28.761	-23.338	-22.388	-17.771	113.166	-19.343	-8191	255	
16822.650	1	1	0	0	0.1005	0.19203	0.060179	0.056278	0.053212	0.085749	0.34938	0.20057	0.12657	0.22287	0.24969	0.19208	0.28163	0.2581	0.17219	0.053116	-2.2354	-2.45	-2.2292	-2.8333	-2.325	-2.5479	-2.8354	-2.6083	-2.6167	-2.4146	-2.5417	-2.7687	-2.5	-2.6729	-2.7417	-2.3729	46.002	212.288	308.024	172.653	117.271	149.928	200.234	282.036	270.946	122.500	93.495	14.678	-43.739	300.327	257.995	248.609	0.00026604	0.00041903	0.00011957	1302.2	6.1248e-06	1.8126e-06	1305	352.75	3.6246e-06	4.8658e-06	406.65	134.73	115.85	40.235	3.1798e-06	50.347	0.00027243	0.00024564	7.107e-05	1315.2	2.8407e-06	2.6619e-06	1317.5	357.28	2.8344e-06	2.8456e-06	395.95	137.14	117.92	41.271	2.8882e-06	51.449	274.012	28.670	65.659	-32.026	133.332	87.317	-32.020	-27.216	136.835	122.273	-27.634	-23.235	-22.305	-17.934	121.123	-19.028	-8191	255	
16822.746	1	1	0	0	0.064129	0.053259	0.24149	0.37015	0.11007	0.18032	0.19786	0.20952	0.16869	0.054697	0.11712	0.15767	0.17584	0.1226	0.20014	0.080718	-2.1354	-2.4458	-2.5687	-2.7854	-2.4354	-2.6188	-2.8542	-2.6729	-2.6208	-2.7167	-2.525	-2.6875	-2.5979	-2.5875	-2.4958	-2.3958	103.454	96.237	-10.628	-42.616	152.473	97.134	264.079	245.144	274.648	69.650	285.360	215.608	91.226	-28.064	239.563	195.378	0.00029812	0.00055529	0.00014208	1309.8	2.4884e-06	4.4076e-06	1311.3	353.33	2.2402e-06	4.5833e-06	406.46	134.54	116.15	40.189	7.7224e-06	50.473	0.00027708	0.00025818	7.2496e-05	1321.1	2.861e-06	2.7776e-06	1323.1	358.38	2.8222e-06	2.8456e-06	395.72	137.26	118.03	41.175	2.8543e-06	51.448	278.262	48.657	42.409	-31.879	141.828	110.129	-31.980	-27.072	127.562	108.467	-27.997	-23.219	-22.331	-18.037	120.963	-19.068	-8191	255	
16822.842	1	1	0	0	0.10856	0.16758	0.16162	0.21741	0.14354	0.1235	0.18921	0.46068	0.16282	0.049987	0.1489	0.2515	0.25879	0.13019	0.17132	0.28644	-2.1312	-2.5604	-2.225	-2.6646	-2.4062	-2.5312	-2.8854	-2.4396	-2.6146	-2.5667	-2.3812	-2.75	-2.6896	-2.4958	-2.5708	-2.2708	116.260	-23.198	309.551	216.610	129.883	221.814	42.614	273.300	309.864	191.028	279.878	127.939	48.544	45.676	91.879	255.459	0.00029893	0.00051381	9.1252e-05	1303	5.7316e-06	2.8892e-06	1304	351.51	1.6362e-06	3.7523e-06	409.45	134.27	115.83	40.048	3.6369e-06	50.279	0.00027806	0.00025805	6.9147e-05	1317.3	2.886e-06	2.6953e-06	1317.6	356.57	2.718e-06	2.6677e-06	395.32	136.68	117.76	41.003	2.6762e-06	51.315	277.465	41.789	29.006	-32.056	120.125	84.470	-32.041	-27.039	150.037	89.480	-28.084	-23.191	-22.169	-18.106	129.538	-19.093	-8191	255	
16822.938	1	1	0	0	0.19332	0.072744	0.10937	0.34417	0.20847	0.21819	0.12622	0.29022	0.044819	0.10914	0.14953	0.013559	0.36148	0.29976	0.14793	0.15615	-2.0229	-2.55	-2.3688	-2.8063	-2.3729	-2.3875	-2.8292	-2.4062	-2.7021	-2.5563	-2.4813	-2.7896	-2.5104	-2.6042	-2.7833	-2.4521	230.719	17.002	71.639	311.995	-10.663	57.427	210.584	-14.220	113.825	303.219	74.401	-44.082	-39.738	29.075	130.800	135.104	0.00026979	0.00040441	0.00011251	1297.7	2.539e-06	4.7902e-06	1301.7	351.17	4.2701e-06	3.7617e-06	405.17	134.54	115.07	40.093	3.6134e-06	50.003	0.00026573	0.00023529	6.4818e-05	1313.3	2.6799e-06	2.5161e-06	1313.2	355.62	2.6398e-06	2.4722e-06	392.91	136.51	117.32	40.912	2.4721e-06	51.159	276.080	49.873	28.180	-32.157	132.458	97.334	-31.762	-27.073	148.142	88.440	-27.778	-23.315	-22.467	-18.154	110.810	-19.065	-8191	255	
16823.057	1	1	0	0	0.25171	0.2853	0.24285	0.32663	0.21798	0.080143	0.07077	0.11553	0.045017	0.21507	0.09533	0.03961	0.081468	0.12525	0.054493	0.086982	-2.0479	-2.3667	-2.5292	-2.6646	-2.6	-2.5771	-2.7479	-2.4125	-2.8042	-2.7229	-2.5729	-2.6167	-2.6417	-2.5979	-2.675	-2.3792	-8.810	-27.077	192.899	236.917	-3.881	126.008	233.005	244.787	3.111	95.039	305.233	260.353	221.989	244.963	76.851	141.147	0.0002736	0.00052616	0.00014256	1294.9	5.5288e-06	4.127e-06	1296.1	350.22	2.3421e-06	4.356e-06	407.02	133.84	114.89	39.867	3.959e-06	49.928	0.0002605	0.00023118	6.2499e-05	1309.6	2.6857e-06	2.5143e-06	1308.4	354.79	2.6265e-06	2.4588e-06	390.71	136.13	117.01	40.784	2.3862e-06	51.102	279.327	38.440	43.700	-32.069	171.194	69.415	-32.161	-26.945	138.036	124.206	-27.760	-23.336	-22.426	-17.987	102.681	-18.988	-8191	255	
16823.152	1	1	0	0	0.32686	0.1775	0.15988	0.2839	0.30448	0.11012	0.20817	0.058482	0.14103	0.1076	0.089338	0.048478	0.20638	0.12431	0.062127	0.15319	-2.0646	-2.5917	-2.4021	-2.7	-2.525	-2.4583	-2.8271	-2.5438	-2.5417	-2.8083	-2.4292	-2.6833	-2.5687	-2.4771	-2.7917	-2.6125	162.212	298.663	-2.377	312.085	303.530	34.156	215.676	-32.189	262.938	156.991	229.992	28.287	218.421	287.522	273.467	52.364	0.00029062	0.00049307	0.00017213	1294.6	6.2904e-06	4.8639e-06	1300.6	350.17	3.2911e-07	1.7779e-06	398.67	133.51	115.01	39.935	4.8083e-06	49.955	0.00026784	0.00023023	6.1202e-05	1310.8	2.7855e-06	2.6704e-06	1311.1	355.27	2.773e-06	2.588e-06	390.04	136.12	117.15	40.81	2.5034e-06	51.055	270.054	35.187	57.676	-32.161	112.046	67.396	-31.822	-26.990	53.811	97.548	-27.047	-23.202	-22.261	-17.829	132.344	-19.086	-8191	255	
16823.248	1	1	0	0	0.079273	0.23876	0.25595	0.039381	0.18677	0.024386	0.21035	0.25563	0.2274	0.063244	0.23857	0.11841	0.23062	0.033145	0.11864	0.069288	-2.0938	-2.5792	-2.4042	-2.7062	-2.6104	-2.2938	-2.6771	-2.6646	-2.3583	-2.5958	-2.375	-2.6271	-2.5354	-2.5083	-2.4375	-2.4354	139.179	215.726	257.698	250.246	-31.499	303.556	240.837	215.339	66.601	21.844	139.043	218.821	-27.816	230.264	58.159	11.384	0.00027796	0.00054742	0.00016285	1299.2	4.2165e-06	3.7686e-06	1297.5	349.56	3.4728e-06	2.6067e-06	399.08	133.05	115.29	39.843	4.4038e-06	50.171	0.00028087	0.00023829	6.4698e-05	1307.9	2.7273e-06	2.5815e-06	1307.2	354.26	2.7055e-06	2.4384e-06	390.62	135.67	117.07	40.696	2.4435e-06	51.09	271.938	33.939	50.806	-32.076	119.243	110.914	-32.014	-27.106	159.471	89.348	-27.633	-23.319	-22.433	-17.833	123.162	-19.129	-8191	255	
16823.346	1	1	0	0	0.02064	0.19608	0.23296	0.30325	0.098046	0.12463	0.18897	0.0128	0.25239	0.19392	0.13291	0.37196	0.23946	0.099758	0.18782	0.022174	-1.9292	-2.8563	-2.3083	-2.7771	-2.7604	-2.3625	-2.8583	-2.5083	-2.4417	-2.5625	-2.3583	-2.6688	-2.875	-2.3667	-2.6646	-2.4875	0.151	278.313	144.721	231.475	201.072	152.599	251.793	183.795	106.501	179.295	41.209	291.786	227.135	3.956	283.050	308.648	0.0002528	0.00039697	0.00014664	1290.4	4.5159e-06	4.6541e-06	1291.9	347.7	1.8276e-06	3.1622e-06	406.11	133.37	114.69	39.702	6.0824e-06	49.884	0.00026687	0.00022385	6.2992e-05	1304.8	2.6595e-06	2.39e-06	1303.9	353.49	2.6169e-06	2.2708e-06	390.34	135.73	116.65	40.646	2.5531e-06	50.951	274.017	14.520	54.016	-31.890	135.801	86.705	-32.043	-27.081	133.072	82.782	-28.310	-23.237	-22.514	-18.156	103.806	-19.090	-8191	255	
16823.439	1	1	0	0	0.031171	0.2028	0.081195	0.21365	0.036473	0.18768	0.17206	0.17804	0.12677	0.12184	0.21844	0.38995	0.14188	0.30221	0.058667	0.071772	-1.7792	-2.6688	-2.4458	-2.5917	-2.475	-2.2396	-2.8771	-2.5646	-2.3396	-2.6229	-2.5833	-2.6167	-2.6688	-2.2854	-2.4208	-2.6354	-4.599	280.245	155.379	-37.210	12.283	259.576	238.795	252.971	-4.067	-10.624	236.310	303.759	10.545	273.448	140.186	160.873	0.00028894	0.00052064	0.00011975	1289.2	4.8307e-06	6.4606e-06	1296.1	349.75	1.5974e-06	2.7667e-06	402.6	133.92	114.46	39.847	4.4885e-06	50.127	0.00026107	0.00021626	6.4979e-05	1302.6	2.5878e-06	2.4412e-06	1306	354.11	2.5523e-06	2.4419e-06	391.11	135.9	116.8	40.715	2.6153e-06	51.105	278.566	38.193	38.760	-32.001	109.946	120.315	-31.978	-27.218	145.728	91.533	-27.308	-23.376	-22.441	-18.123	123.862	-19.422	-8191	255	
16823.535	1	1	0	0	0.31916	0.2638	0.18584	0.32966	0.20241	0.13154	0.3967	0.29077	0.16963	0.16371	0.22163	0.074058	0.14609	0.056414	0.44918	0.059622	-1.9813	-2.6771	-2.3417	-2.6708	-2.7229	-2.5187	-2.7396	-2.7562	-2.3729	-2.7083	-2.4896	-2.6979	-2.7938	-2.475	-2.5667	-2.6813	53.381	199.785	33.062	303.991	98.730	19.254	264.721	250.090	204.583	93.365	235.894	303.876	134.720	222.149	131.354	115.296	0.00030517	0.00054639	0.00012526	1296.8	3.417e-06	2.8356e-06	1293.8	350.72	4.3794e-06	4.1052e-06	400.35	134.05	114.28	39.911	5.6072e-06	50.137	0.00026235	0.00022936	6.647e-05	1310.6	2.6235e-06	2.4972e-06	1307.6	355.19	2.639e-06	2.5219e-06	391.49	136.03	116.88	40.863	2.7461e-06	51.113	273.828	33.818	44.175	-31.997	131.635	96.057	-31.931	-27.060	171.502	120.608	-28.431	-23.220	-22.319	-17.817	140.818	-18.799	-8191	255	
16823.656	1	1	0	0	0.20708	0.094289	0.20099	0.19399	0.11311	0.29313	0.16701	0.26144	0.16118	0.10829	0.11981	0.059296	0.27963	0.13975	0.18955	0.10251	-1.8729	-2.6146	-2.5146	-2.6229	-2.6417	-2.5417	-2.8312	-3.0312	-2.4	-2.7479	-2.5625	-2.6396	-2.8771	-2.5271	-2.5583	-2.7396	180.155	229.075	45.375	214.865	209.175	285.896	242.397	237.762	224.937	288.077	238.833	86.809	290.146	279.722	153.229	27.699	0.00028551	0.00053114	7.1078e-05	1295.4	2.2727e-06	3.7929e-06	1293.9	350.11	2.4355e-06	5.0921e-06	401.87	133.5	115.01	39.941	5.3027e-06	50.23	0.00027028	0.00024299	6.9382e-05	1310.7	2.6613e-06	2.689e-06	1309.2	354.85	2.6952e-06	2.6033e-06	391.8	135.99	117.13	40.836	2.6627e-06	51.153	275.534	37.123	39.672	-31.965	164.559	61.421	-31.893	-27.118	167.688	108.202	-28.017	-23.156	-22.410	-18.012	123.206	-19.000	-8191	255	
16823.754	1	1	0	0	0.17339	0.16974	0.30316	0.27335	0.10145	0.28637	0.060305	0.33821	0.076047	0.086606	0.052841	0.22323	0.080257	0.098146	0.33094	0.42321	-1.9688	-2.4604	-2.6042	-2.575	-2.8063	-2.6667	-2.7271	-2.7729	-2.4771	-2.6521	-2.6771	-2.3417	-2.8604	-2.5896	-2.4271	-2.6437	166.016	-43.829	111.956	-41.936	-16.229	148.674	220.085	221.645	12.200	36.198	66.422	282.171	53.725	77.384	119.501	280.933	0.00030315	0.00048328	0.0001096	1300	5.1271e-06	1.8522e-06	1296.8	349.31	2.0403e-06	3.3401e-06	396.49	134.03	114.78	39.797	5.8001e-06	50.117	0.00027086	0.00023966	6.7325e-05	1312.3	2.6447e-06	2.7224e-06	1309.6	354.49	2.6889e-06	2.5637e-06	391.9	136.04	116.95	40.748	2.7007e-06	51.02	274.890	28.205	51.947	-32.096	108.279	120.927	-32.019	-27.105	186.050	111.981	-27.340	-23.333	-22.375	-18.091	156.370	-19.231	-8191	255	
16823.850	1	1	0	0	0.42421	0.080791	0.11698	0.28767	0.34679	0.17662	0.29694	0.18406	0.10252	0.11643	0.084048	0.19353	0.3814	0.11702	0.14873	0.083836	-1.8792	-2.5917	-2.575	-2.4646	-2.7979	-2.4833	-2.5729	-2.8104	-2.4042	-2.4896	-2.6104	-2.3917	-2.725	-2.5792	-2.3167	-2.8792	312.970	55.763	-30.953	250.475	75.066	23.844	250.701	283.407	-30.980	145.388	144.568	249.683	275.327	-37.401	261.264	94.392	0.00030723	0.00051756	9.8179e-05	1295.4	5.186e-06	2.4624e-06	1295	349.69	2.5989e-06	2.5993e-06	404.42	133.41	114.87	39.863	6.4376e-06	49.879	0.00027195	0.00023475	6.7344e-05	1309	2.67e-06	2.5746e-06	1308.3	354.33	2.6775e-06	2.5778e-06	392.66	135.66	116.67	40.659	2.5277e-06	50.902	277.930	38.388	38.225	-32.092	136.364	70.678	-32.008	-27.209	183.472	82.309	-27.221	-23.161	-22.272	-18.048	154.364	-19.032	-8191	255	
16823.945	1	1	0	0	0.26259	0.06293	0.25961	0.43294	0.11362	0.18545	0.31935	0.28782	0.23337	0.068088	0.21373	0.41196	0.16492	0.16858	0.085924	0.22678	-2.0687	-2.6396	-2.6521	-2.45	-2.7167	-2.5667	-2.675	-2.9771	-2.5521	-2.3812	-2.6063	-2.5167	-2.6917	-2.6354	-2.4875	-2.6354	29.090	204.754	26.040	-40.864	194.027	85.721	286.126	304.277	235.621	238.001	1.168	304.844	302.335	223.927	131.528	241.451	0.00027898	0.0005568	0.00014035	1292.5	5.4383e-06	5.0228e-06	1289.8	347.95	1.3052e-06	2.7831e-06	398.57	132.48	113.9	39.568	6.0262e-06	49.648	0.00027328	0.00023503	6.3663e-05	1303.8	2.6187e-06	2.5506e-06	1302.7	353.04	2.6497e-06	2.466e-06	388.96	135.26	116.29	40.552	2.5023e-06	50.835	273.829	35.991	43.238	-31.947	125.804	127.113	-31.954	-26.971	199.797	99.816	-28.893	-23.406	-22.131	-18.054	136.599	-19.085	-8191	255	
16824.041	1	1	0	0	0.24645	0.22147	0.18958	0.19971	0.11645	0.04692	0.23858	0.2365	0.081752	0.31318	0.18396	0.12873	0.1521	0.33679	0.13183	0.043245	-1.8729	-2.8104	-2.5687	-2.4729	-2.6604	-2.5729	-2.6292	-2.7812	-2.6292	-2.7396	-2.7146	-2.6271	-2.7	-2.7229	-2.4167	-2.7771	104.994	-7.620	257.917	262.588	141.288	93.904	182.294	231.517	194.169	205.285	239.642	231.709	43.230	288.568	117.672	263.126	0.00029606	0.00039391	0.00019423	1286.3	5.6512e-06	4.4877e-06	1290.4	346.85	2.603e-06	4.8517e-06	401.11	133.08	114.52	39.515	3.7177e-06	49.989	0.00026934	0.0002291	6.3567e-05	1300.9	2.6027e-06	2.5141e-06	1299.9	352.64	2.6731e-06	2.5159e-06	388.26	135.13	116.29	40.457	2.4442e-06	50.825	276.700	66.412	53.709	-31.993	158.921	82.926	-31.976	-27.111	182.466	104.793	-27.922	-23.423	-22.465	-17.834	105.634	-19.041	-8191	255	
16824.137	1	1	0	0	0.17852	0.05668	0.15197	0.18187	0.12335	0.085953	0.35458	0.24395	0.19641	0.12797	0.063575	0.20739	0.19688	0.20251	0.199	0.23929	-1.9625	-2.3833	-2.675	-2.5979	-2.5646	-2.6896	-2.525	-2.5875	-2.4375	-2.6021	-2.7354	-2.7042	-2.7542	-2.7708	-2.375	-2.8812	106.311	126.085	102.491	-39.360	175.800	134.659	271.201	178.448	-23.371	291.195	58.939	219.969	-36.159	-41.918	36.816	119.940	0.00029161	0.00053231	0.00016618	1284.7	7.0746e-06	1.4845e-06	1283.1	347.22	9.582e-07	3.8417e-06	401.3	132.93	113.91	39.607	4.7113e-06	49.582	0.00025738	0.00022147	5.7264e-05	1297.8	2.6101e-06	2.3122e-06	1296.1	351.91	2.4836e-06	2.3499e-06	387.54	134.91	116.02	40.503	2.4251e-06	50.704	273.730	53.022	27.980	-31.923	123.674	92.326	-31.927	-27.015	135.345	100.817	-28.152	-23.216	-22.235	-18.017	141.210	-18.972	-8191	255	
16824.232	1	1	0	0	0.056308	0.22662	0.052845	0.1543	0.17056	0.092322	0.11125	0.16462	0.29466	0.3357	0.040486	0.21252	0.021103	0.078777	0.23336	0.33699	-2.1375	-2.4271	-2.9125	-2.7625	-2.4958	-2.5354	-2.5896	-2.8937	-2.6354	-2.4729	-2.8	-2.4854	-2.4396	-2.6833	-2.4458	-2.5833	157.132	94.963	127.982	-37.221	-29.601	170.276	-13.768	209.755	74.898	-15.316	-15.435	294.343	86.339	196.989	176.011	-16.662	0.0002896	0.00042342	0.00015735	1279	3.8204e-06	1.3939e-06	1285	346.34	1.4478e-06	5.9404e-06	397.69	132.91	114	39.616	3.9775e-06	49.541	0.00026185	0.00021305	6.0125e-05	1294.7	2.5179e-06	2.2426e-06	1294.7	351.37	2.5311e-06	2.2633e-06	386.43	134.87	115.89	40.383	2.4592e-06	50.671	277.764	49.527	64.309	-31.981	141.058	118.223	-32.041	-27.126	141.708	135.203	-27.463	-23.163	-22.426	-17.901	122.215	-19.052	-8191	255	
16824.330	1	1	0	0	0.21158	0.091148	0.057404	0.2269	0.25758	0.25316	0.18535	0.34239	0.05457	0.11279	0.21939	0.074446	0.061558	0.27529	0.282	0.30589	-2.2542	-2.3937	-2.7604	-2.6396	-2.6312	-2.6083	-2.5687	-2.8625	-2.5896	-2.5062	-2.6188	-2.6125	-2.425	-2.8125	-2.4375	-2.625	3.997	120.845	167.650	263.514	157.462	122.620	241.295	279.916	119.846	301.442	283.765	210.411	-12.213	264.756	258.626	43.774	0.00034835	0.00054456	0.00011301	1283.2	6.2411e-06	5.2108e-06	1287.4	347.06	3.3269e-06	3.7229e-06	398.23	132.35	113.61	39.711	4.9017e-06	49.786	0.00025887	0.0002113	5.9693e-05	1297.2	2.5542e-06	2.3278e-06	1298.7	352.25	2.5472e-06	2.3893e-06	388.11	134.96	116.01	40.584	2.5609e-06	50.78	271.338	54.437	17.347	-32.005	129.014	102.390	-31.984	-27.146	128.446	109.385	-27.752	-23.082	-22.376	-17.801	125.785	-19.051	-8191	255	
16824.447	1	1	0	0	0.2169	0.17319	0.19522	0.051005	0.19033	0.1814	0.1585	0.062795	0.11405	0.11724	0.081196	0.32779	0.19814	0.25835	0.2891	0.14977	-2.175	-2.3458	-2.4896	-2.6833	-2.5396	-2.8729	-2.7812	-2.8	-2.7479	-2.3563	-2.7583	-2.575	-2.575	-2.8812	-2.5583	-2.7062	119.587	130.082	205.482	129.038	63.184	227.247	144.186	292.322	19.804	39.295	19.086	256.350	15.972	269.329	278.794	203.038	0.00027678	0.00036457	0.00012711	1278.9	3.4816e-06	5.1046e-06	1284.7	347.03	3.9671e-06	5.5754e-06	400.49	132.81	114.02	39.685	4.7878e-06	49.81	0.00025826	0.0002224	6.2605e-05	1297.8	2.5778e-06	2.3614e-06	1300.2	352.68	2.5025e-06	2.455e-06	388.82	135.23	116.19	40.591	2.544e-06	50.843	271.799	36.856	42.249	-32.110	129.562	94.165	-32.124	-27.010	160.967	104.311	-28.001	-23.298	-22.360	-18.056	133.667	-19.135	-8191	255	
16824.545	1	1	0	0	0.23816	0.27319	0.03829	0.22191	0.079294	0.47241	0.044989	0.028283	0.1171	0.078486	0.22821	0.16534	0.18144	0.21069	0.095449	0.078294	-2.2917	-2.5812	-2.6417	-2.7354	-2.3625	-2.6479	-2.8937	-2.5979	-2.7833	-2.5354	-2.725	-2.8063	-2.5271	-2.9583	-2.5938	-2.5312	-39.612	187.493	54.649	218.603	25.154	-35.595	300.051	44.440	81.052	34.590	27.933	270.526	-16.208	-37.144	-4.331	271.037	0.00026256	0.00044832	0.00012169	1283.8	4.8175e-06	4.2708e-06	1287.2	346.74	2.1673e-06	4.2176e-06	405.38	132.76	114.84	39.561	4.4004e-06	49.916	0.0002491	0.00022756	6.238e-05	1299.1	2.4609e-06	2.3927e-06	1299.5	352.54	2.4288e-06	2.4602e-06	390.92	135.31	116.37	40.56	2.445e-06	50.813	272.096	53.255	47.553	-32.006	157.852	103.347	-31.937	-27.103	171.895	123.793	-27.509	-23.296	-22.540	-17.798	136.552	-18.945	-8191	255	
16824.617	1	1	0	0	0.057775	0.19087	0.22569	0.46727	0.14275	0.13504	0.095958	0.061184	0.21979	0.21678	0.14351	0.1879	0.030168	0.14176	0.053057	0.21466	-2.3438	-2.4938	-2.4292	-2.7896	-2.4792	-2.825	-2.7979	-2.5021	-2.6312	-2.4625	-2.6708	-2.7125	-2.6229	-2.8917	-2.5958	-2.5396	83.452	75.553	217.044	284.789	114.747	201.938	-40.823	242.053	88.151	104.939	120.278	197.200	243.579	14.210	249.583	313.006	0.00030562	0.00035019	0.00015417	1287.4	6.0133e-06	4.3359e-06	1290.5	347.15	2.3738e-06	3.7316e-06	396.82	132.91	114.58	39.458	3.695e-06	49.798	0.00024662	0.00021895	6.0728e-05	1299.7	2.5432e-06	2.3549e-06	1301.7	352.37	2.4037e-06	2.438e-06	386.87	135.26	116.36	40.482	2.5204e-06	50.84	282.458	31.381	40.802	-31.880	132.657	90.010	-32.090	-27.132	198.931	147.926	-28.265	-23.244	-22.366	-17.845	111.099	-19.094	-8191	255	
16824.736	1	1	0	0	0.046959	0.20884	0.073296	0.32301	0.16897	0.12917	0.15248	0.34429	0.19505	0.23076	0.14237	0.10823	0.12758	0.18013	0.2117	0.1483	-2.3333	-2.3625	-2.6333	-2.8292	-2.5125	-2.8479	-2.7125	-2.5854	-2.7146	-2.2875	-2.4792	-2.6729	-2.4458	-2.8729	-2.5417	-2.7021	158.160	-2.316	-12.358	271.452	-31.941	86.555	290.969	282.142	108.542	303.161	209.298	-40.372	302.175	287.623	-26.938	-11.545	0.00028712	0.00057458	0.00013997	1285.1	5.5895e-06	4.0174e-06	1286.1	347.1	3.4753e-06	3.6281e-06	402.27	132.74	114.27	39.559	4.4338e-06	49.753	0.00025527	0.00021865	6.2541e-05	1300.6	2.5043e-06	2.3767e-06	1299.9	352.55	2.4554e-06	2.3821e-06	388.74	135.11	116.22	40.494	2.4606e-06	50.736	271.482	48.100	54.270	-31.998	102.491	93.194	-31.995	-27.236	166.086	106.852	-27.384	-23.425	-22.267	-18.077	111.560	-18.743	-8191	255	
16824.832	1	1	0	0	0.076659	0.25859	0.065348	0.21673	0.12938	0.0641	0.16067	0.062591	0.092185	0.07203	0.079205	0.072874	0.15274	0.17313	0.057857	0.38879	-2.4771	-2.4062	-2.5208	-2.8125	-2.3833	-2.6021	-2.6396	-2.7313	-2.9	-2.5354	-2.7104	-2.7562	-2.5646	-2.6583	-2.5542	-2.4792	3.711	37.685	54.148	-21.657	6.128	277.714	255.334	18.047	105.243	39.380	-43.980	251.686	207.733	67.988	282.578	248.404	0.00030098	0.00037088	0.00016587	1286.2	4.9068e-06	3.5801e-06	1290.8	348.04	3.4814e-06	5.2756e-06	399.68	132.76	114.13	39.717	3.8631e-06	49.515	0.00025522	0.00021908	5.9757e-05	1300	2.5801e-06	2.3238e-06	1300.4	352.66	2.4948e-06	2.3642e-06	388.33	135.07	116.27	40.571	2.3677e-06	50.713	272.571	41.201	44.533	-31.969	134.437	67.739	-31.926	-26.948	153.613	102.351	-27.331	-23.298	-22.364	-18.047	120.027	-19.013	-8191	255	
16824.930	1	1	0	0	0.13242	0.11901	0.13802	0.23938	0.30957	0.29002	0.39862	0.15775	0.19228	0.18068	0.25363	0.17464	0.3762	0.088507	0.17241	0.12115	-2.1667	-2.4896	-2.4271	-2.75	-2.4437	-2.6917	-2.7875	-2.5104	-2.625	-2.5771	-2.5563	-2.8292	-2.7021	-2.6604	-2.6771	-2.5896	257.710	-5.688	-23.373	278.121	72.790	69.807	232.626	116.330	220.283	-5.268	238.343	272.857	35.969	-40.065	195.119	97.007	0.00026832	0.00059965	0.00017324	1286	5.4446e-06	5.8666e-06	1292	348.55	4.1482e-06	4.5551e-06	400.34	132.73	114.53	39.698	5.8624e-06	49.93	0.00025178	0.00022501	5.8451e-05	1301.2	2.5307e-06	2.3807e-06	1301.3	352.88	2.457e-06	2.3922e-06	387.85	135.08	116.27	40.522	2.3292e-06	50.798	277.649	54.112	53.159	-32.153	116.487	89.648	-32.096	-27.194	166.250	104.061	-27.581	-23.441	-22.158	-18.067	121.255	-18.978	-8191	255	
16825.051	1	1	0	0	0.063121	0.25659	0.067166	0.063661	0.26163	0.18052	0.15817	0.44184	0.1883	0.15961	0.10596	0.1667	0.11565	0.14626	0.058239	0.17584	-2.3604	-2.4854	-2.4375	-2.7979	-2.3083	-2.4562	-2.775	-2.5354	-2.5958	-2.375	-2.4	-2.7896	-2.6063	-2.5792	-2.6646	-2.4354	97.839	-30.280	280.678	309.768	182.315	12.197	188.323	267.351	29.265	167.478	117.934	262.832	-19.388	275.687	15.793	-37.600	0.00028559	0.00060336	0.00014125	1285.8	4.8337e-06	4.9196e-06	1288.1	348.25	1.8901e-06	5.7167e-06	402.08	132.63	114.67	39.612	5.6094e-06	49.735	0.00025215	0.00021292	5.6739e-05	1301.3	2.5537e-06	2.3171e-06	1301.5	351.99	2.4652e-06	2.2848e-06	387.45	135.13	116.39	40.506	2.3455e-06	50.76	274.147	49.657	48.669	-31.927	122.968	93.084	-31.980	-27.134	181.766	105.112	-28.045	-23.226	-22.307	-17.975	133.868	-19.087	-8191	255	
16825.146	1	1	0	0	0.21898	0.19927	0.041288	0.16556	0.32648	0.15733	0.33657	0.29755	0.13485	0.063935	0.2727	0.15347	0.16086	0.20859	0.14898	0.10989	-2.2542	-2.5854	-2.1521	-2.9188	-2.4354	-2.6729	-2.7646	-2.5604	-2.6833	-2.5125	-2.4854	-2.7125	-2.5958	-2.4188	-2.8792	-2.5542	313.616	65.944	-33.864	247.953	-17.170	-27.995	251.342	262.698	15.360	-27.162	293.946	310.681	201.530	155.028	54.143	4.574	0.00026176	0.00035709	0.00011501	1292.5	3.1401e-06	3.9736e-06	1290.4	347.2	2.6753e-06	5.0272e-06	400.05	132.49	114.13	39.516	4.6038e-06	49.481	0.00024895	0.00020637	5.7922e-05	1303.2	2.4975e-06	2.2835e-06	1302.4	352.73	2.3899e-06	2.1895e-06	388.27	135.17	116.19	40.486	2.3048e-06	50.691	272.991	18.397	54.338	-32.056	136.869	123.106	-31.879	-27.107	146.894	109.114	-27.319	-23.328	-22.414	-17.983	133.306	-18.884	-8191	255	
16825.242	1	1	0	0	0.090709	0.10726	0.20196	0.095918	0.10867	0.02813	0.13601	0.080856	0.1608	0.23206	0.18891	0.26247	0.12681	0.11845	0.15843	0.38544	-2.3042	-2.6667	-2.5271	-2.8104	-2.425	-2.4625	-2.8229	-2.4688	-2.5146	-2.6229	-2.4062	-2.7604	-2.575	-2.5042	-2.6875	-2.4542	-21.023	15.972	281.031	275.289	254.560	-5.175	214.736	-25.530	150.760	282.446	268.043	261.793	143.742	-28.690	8.809	269.087	0.00032219	0.00056019	0.00017406	1288.4	6.1727e-06	3.6247e-06	1291.5	347.63	3.7004e-06	4.7354e-06	397.9	132.76	114.3	39.493	6.4707e-06	49.423	0.00024821	0.00019779	5.9178e-05	1300.4	2.4367e-06	2.2379e-06	1300.3	351.94	2.3917e-06	2.1997e-06	387.26	135.03	116.17	40.412	2.3642e-06	50.625	276.067	42.148	50.150	-31.919	140.711	117.173	-31.843	-27.054	174.222	103.431	-27.899	-23.168	-22.418	-17.930	121.909	-18.924	-8191	255	
16825.338	1	1	0	0	0.067796	0.21252	0.17065	0.22174	0.12232	0.13233	0.20515	0.26121	0.068169	0.029647	0.038055	0.1565	0.17997	0.15064	0.131	0.18694	-2.0083	-2.4562	-2.4583	-2.9729	-2.6292	-2.3688	-2.7958	-2.4875	-2.4917	-2.6729	-2.4813	-2.6583	-2.6042	-2.4104	-2.8375	-2.6396	313.031	4.031	254.378	256.210	17.195	64.347	269.527	239.355	69.047	112.785	138.776	222.086	-36.619	-38.805	285.137	248.492	0.00030677	0.0008374	0.00012796	1286.4	4.5097e-06	3.7447e-06	1289.9	346.31	2.1582e-06	4.2193e-06	401.65	132.87	113.95	39.52	6.9189e-06	49.599	0.00024128	0.00021022	5.8879e-05	1298.5	2.374e-06	2.2597e-06	1299.6	351.62	2.2985e-06	2.2059e-06	387.41	134.91	115.91	40.354	2.3125e-06	50.64	274.696	35.396	51.418	-31.954	114.756	125.893	-31.880	-27.053	127.450	104.994	-27.736	-23.094	-22.478	-18.098	108.874	-18.888	-8191	255	
16825.434	1	1	0	0	0.3688	0.14693	0.21746	0.11411	0.32405	0.082717	0.27814	0.33355	0.20882	0.1496	0.1287	0.37174	0.16044	0.23816	0.032867	0.15993	-2.1	-2.5479	-2.3021	-2.6625	-2.6167	-2.3333	-2.6875	-2.5292	-2.4833	-2.7667	-2.4313	-2.7021	-2.6063	-2.4229	-2.6417	-2.4229	-11.192	177.311	250.910	219.128	238.787	198.910	-26.344	258.865	217.997	130.156	-36.056	268.295	260.233	13.090	128.637	-30.659	0.00029071	0.00063299	9.9636e-05	1288.8	6.5933e-06	4.3255e-06	1291.3	347.92	2.3771e-06	4.1542e-06	403.09	132.28	113.94	39.567	6.1701e-06	49.385	0.00023963	0.00021448	5.9771e-05	1300.1	2.3661e-06	2.3405e-06	1299.6	352.07	2.3223e-06	2.285e-06	388.86	134.72	116.08	40.455	2.3176e-06	50.568	265.196	38.793	73.006	-31.872	118.774	103.615	-32.003	-27.015	157.180	130.586	-27.406	-23.270	-22.351	-17.703	129.477	-18.933	-8191	255	
16825.529	1	1	0	0	0.19435	0.18257	0.24789	0.33242	0.25806	0.19298	0.16905	0.13531	0.1224	0.052919	0.14731	0.23093	0.2192	0.3904	0.45313	0.2133	-1.9271	-2.6604	-2.2667	-2.525	-2.6146	-2.3104	-2.8979	-2.8	-2.4354	-2.6792	-2.3917	-2.6021	-2.6875	-2.3375	-2.5729	-2.7271	74.934	310.309	-21.515	251.112	44.404	134.147	250.762	184.724	128.179	292.825	212.305	261.063	-19.686	273.491	121.836	237.142	0.00028517	0.00043696	0.00015495	1289.3	3.5256e-06	3.9521e-06	1284.2	346.15	2.6559e-06	4.277e-06	400.79	132.3	114.07	39.468	3.1713e-06	49.701	0.0002426	0.00020416	5.8345e-05	1299	2.2989e-06	2.3026e-06	1296.8	351.32	2.3137e-06	2.2188e-06	387.82	134.62	115.79	40.359	2.3029e-06	50.62	276.861	48.332	64.655	-32.019	114.433	96.782	-31.971	-27.157	139.233	136.159	-27.402	-23.443	-22.430	-17.965	152.070	-19.067	-8191	255	
16825.625	1	1	0	0	0.18185	0.15121	0.21918	0.18842	0.17118	0.05421	0.32156	0.11796	0.036104	0.46551	0.12429	0.1031	0.04915	0.19106	0.17119	0.26658	-1.9042	-2.6042	-2.4167	-2.4437	-2.8375	-2.5104	-2.7854	-2.7646	-2.3167	-2.7208	-2.4917	-2.5375	-2.7188	-2.5271	-2.5479	-2.6104	231.492	51.511	8.109	-25.784	165.321	20.780	188.825	213.228	236.235	23.090	302.427	60.871	162.089	78.170	69.590	271.015	0.00031883	0.00046304	0.00014224	1283.1	4.5558e-06	3.0097e-06	1288.7	346.47	2.8594e-06	4.3208e-06	399.29	132.41	113.66	39.422	5.0222e-06	49.333	0.00023759	0.00021351	5.8607e-05	1296.8	2.3578e-06	2.2735e-06	1298.3	351.3	2.384e-06	2.2037e-06	385.87	134.83	115.68	40.3	2.2281e-06	50.438	270.768	47.583	46.979	-32.119	138.367	93.768	-31.957	-27.149	140.198	100.693	-27.862	-23.039	-22.441	-18.009	132.533	-18.816	-8191	255	
16825.746	1	1	0	0	0.16804	0.081164	0.12237	0.26596	0.30635	0.23806	0.17417	0.2459	0.04728	0.10932	0.20015	0.096713	0.18808	0.20884	0.29067	0.089535	-1.9583	-2.6146	-2.4625	-2.4146	-2.5792	-2.3854	-2.7875	-2.6917	-2.5875	-2.7625	-2.5292	-2.7125	-2.8479	-2.4458	-2.6	-2.7062	-21.982	-21.043	241.106	258.536	176.759	119.204	266.380	266.723	291.912	-39.440	12.057	238.905	-38.214	-30.118	192.802	239.455	0.00028076	0.00042488	0.00011557	1283	4.535e-06	3.9267e-06	1288	346.29	2.4737e-06	4.2428e-06	401.58	132.32	113.76	39.333	5.0714e-06	49.541	0.00023873	0.00020678	5.6546e-05	1297.1	2.3506e-06	2.266e-06	1297.2	351.13	2.3787e-06	2.167e-06	386.06	134.67	115.82	40.315	2.2146e-06	50.573	282.194	42.549	41.365	-31.994	156.241	95.056	-31.839	-27.122	173.687	106.155	-28.052	-23.227	-22.298	-17.904	129.442	-18.764	-8191	255	
16825.842	1	1	0	0	0.053285	0.10421	0.1474	0.32302	0.094555	0.30784	0.43391	0.17388	0.18429	0.26996	0.1995	0.20423	0.1862	0.20452	0.10937	0.18287	-1.8917	-2.5333	-2.5771	-2.7062	-2.7313	-2.5521	-2.6792	-2.6354	-2.3583	-2.6229	-2.3187	-2.5542	-2.8167	-2.5146	-2.6437	-2.6604	101.872	-28.021	137.570	258.079	235.404	41.981	267.515	221.691	-24.077	299.282	312.195	242.015	-34.694	-2.532	34.475	95.017	0.00029452	0.0002856	0.00016151	1284.1	5.4834e-06	3.9795e-06	1287.7	345.72	3.686e-06	3.6089e-06	399.08	132.55	114.06	39.36	6.1766e-06	49.498	0.00023977	0.00019869	5.5069e-05	1296.1	2.3972e-06	2.2384e-06	1297.7	351.08	2.3897e-06	2.1839e-06	384.5	134.71	115.84	40.294	2.1759e-06	50.552	270.923	60.617	38.789	-31.830	123.697	90.981	-32.224	-27.097	169.159	131.360	-28.177	-23.323	-22.308	-18.136	113.041	-18.972	-8191	255	
16825.912	1	1	0	0	0.18902	0.21058	0.070374	0.044854	0.1951	0.05579	0.12435	0.24095	0.23155	0.42009	0.031242	0.26986	0.090695	0.18007	0.084062	0.25173	-1.8292	-2.6104	-2.4979	-2.7125	-2.6	-2.5229	-2.6167	-2.7708	-2.2396	-2.4958	-2.6479	-2.4458	-2.8521	-2.6604	-2.4667	-2.7708	11.886	132.580	192.422	306.898	148.834	210.341	241.959	277.228	147.106	252.075	-12.400	314.117	309.675	161.288	-1.975	267.087	0.0002945	0.00059627	8.5208e-05	1281.3	3.0184e-06	5.1126e-06	1282.6	346.82	2.8874e-06	3.8093e-06	399.6	132.3	113.66	39.448	7.1189e-06	49.619	0.00024469	0.00019907	5.4669e-05	1296.3	2.2896e-06	2.1719e-06	1296.3	351.22	2.3461e-06	2.1319e-06	385.97	134.53	115.64	40.234	2.1686e-06	50.517	278.244	51.757	29.993	-32.099	121.149	107.142	-31.828	-26.984	157.049	109.410	-28.401	-23.385	-22.627	-17.811	126.860	-18.978	-8191	255	
16826.010	1	1	0	0	0.14858	0.16421	0.23647	0.15552	0.11719	0.14371	0.27925	0.15107	0.06331	0.090044	0.13317	0.18136	0.18452	0.17166	0.23493	0.069296	-1.9104	-2.5125	-2.6021	-2.5583	-2.8542	-2.5542	-2.6271	-2.8125	-2.4875	-2.5917	-2.7125	-2.5292	-2.7354	-2.575	-2.4458	-2.925	9.752	87.620	-29.935	314.694	222.704	176.725	242.351	193.878	-14.072	282.048	-27.711	14.550	166.289	-1.193	271.827	-13.134	0.00030694	0.00036567	0.00010189	1283	4.1368e-06	5.7036e-06	1285.5	346.47	2.8733e-06	2.9238e-06	402.02	132.08	113.77	39.384	5.241e-06	49.411	0.00024268	0.00018959	5.5681e-05	1296.2	2.4002e-06	2.1061e-06	1296.2	351.1	2.3878e-06	2.0623e-06	386.77	134.73	115.76	40.302	2.3191e-06	50.435	277.357	23.436	33.883	-31.985	139.553	76.544	-31.964	-27.016	164.498	102.956	-28.270	-23.322	-22.182	-18.052	144.908	-19.148	-8191	255	
16826.131	1	1	0	0	0.091978	0.23914	0.11593	0.23953	0.10662	0.2555	0.33784	0.21275	0.15882	0.21033	0.17625	0.53421	0.15022	0.24613	0.17616	0.042792	-1.9979	-2.5521	-2.3312	-2.5708	-2.5958	-2.475	-2.5208	-2.8688	-2.3083	-2.475	-2.5687	-2.6271	-2.7354	-2.7708	-2.3958	-2.6583	231.159	219.144	-44.065	295.934	9.932	276.995	251.481	299.481	295.772	-38.510	248.208	306.976	277.738	265.813	-4.136	261.742	0.00035095	0.00055864	0.00011312	1281.2	5.0012e-06	3.9527e-06	1287.3	346.11	3.8288e-06	4.4308e-06	398.74	132.26	113.58	39.453	5.3365e-06	49.392	0.00023924	0.00019376	5.6141e-05	1297	2.342e-06	2.1179e-06	1296.6	350.89	2.3162e-06	2.1099e-06	385	134.56	115.54	40.243	2.2899e-06	50.446	277.529	48.600	33.887	-31.939	157.739	107.642	-31.883	-27.246	150.742	104.299	-27.889	-23.280	-22.258	-17.960	127.088	-18.933	-8191	255	
16826.227	1	1	0	0	0.23793	0.084367	0.29917	0.21209	0.048918	0.30727	0.37243	0.21373	0.081366	0.24049	0.12723	0.055974	0.035965	0.24593	0.20045	0.044583	-2.0146	-2.5312	-2.6167	-2.4625	-2.5583	-2.6667	-2.4875	-2.8458	-2.3375	-2.4375	-2.5854	-2.4083	-2.8375	-2.5312	-2.4688	-2.6729	168.572	194.765	277.081	217.895	137.563	248.264	224.694	299.129	142.708	235.764	216.430	77.947	-35.094	280.568	61.879	-31.441	0.00027827	0.00054563	0.00011906	1281.2	3.872e-06	3.4216e-06	1289.3	345.34	4.0098e-06	4.5153e-06	399.2	132.3	113.67	39.318	6.811e-06	49.444	0.00023837	0.00019439	5.5148e-05	1295	2.1854e-06	2.1192e-06	1295.8	350.63	2.1972e-06	2.0735e-06	384.36	134.62	115.67	40.195	2.2697e-06	50.479	271.868	28.619	33.112	-31.988	114.711	101.979	-31.954	-27.072	155.832	129.230	-27.919	-23.235	-22.140	-17.893	116.799	-18.764	-8191	255	
16826.322	1	1	0	0	0.096134	0.29969	0.031092	0.30625	0.15097	0.059679	0.27979	0.17622	0.1834	0.09395	0.13782	0.2542	0.1832	0.11281	0.053398	0.24686	-2.0583	-2.4313	-2.625	-2.6021	-2.7083	-2.6375	-2.5667	-2.8479	-2.6667	-2.5625	-2.7812	-2.4875	-2.6625	-2.5333	-2.4479	-2.7229	-26.480	160.267	-6.445	-15.966	223.223	193.253	308.852	281.310	270.145	2.283	171.299	15.808	289.625	145.000	210.983	105.959	0.00029812	0.00037776	0.0001145	1274.6	3.9762e-06	3.3642e-06	1282.3	346.49	3.9308e-06	3.0114e-06	394.71	132.16	113.3	39.205	4.6444e-06	49.482	0.00023128	0.00019298	5.3105e-05	1291.1	2.1248e-06	2.0799e-06	1293.7	350.3	2.224e-06	2.1659e-06	383.76	134.48	115.34	40.182	2.1749e-06	50.414	277.287	31.570	54.321	-32.018	114.276	90.624	-32.053	-27.078	150.167	110.847	-27.222	-23.142	-22.497	-17.921	146.200	-18.880	-8191	255	
16826.420	1	1	0	0	0.22136	0.25416	0.15879	0.15106	0.074163	0.051814	0.31193	0.20511	0.20172	0.26687	0.19871	0.090229	0.4048	0.27818	0.2349	0.067988	-2.0062	-2.4229	-2.6312	-2.4688	-2.6021	-2.4958	-2.5812	-2.7542	-2.3604	-2.2833	-2.5312	-2.4479	-2.4792	-2.5583	-2.3083	-2.8438	154.717	205.345	233.694	256.784	224.737	230.204	283.201	228.459	34.185	279.125	257.868	136.515	279.861	-6.239	117.700	117.180	0.00028315	0.00064528	0.00014343	1277.8	5.6594e-06	3.207e-06	1286.1	346.39	1.6917e-06	3.0843e-06	398.49	131.78	113.92	39.334	5.1079e-06	49.287	0.00022795	0.00019429	5.3298e-05	1291.7	2.1749e-06	2.1012e-06	1293	350.2	2.2584e-06	2.1392e-06	385.41	134.32	115.68	40.263	2.2754e-06	50.443	273.729	51.642	57.699	-32.020	128.224	80.083	-32.010	-27.009	97.743	109.318	-27.489	-23.039	-22.171	-18.004	104.032	-18.817	-8191	255	
16826.537	1	1	0	0	0.027848	0.28131	0.11439	0.24977	0.24761	0.068779	0.20968	0.27671	0.1996	0.11955	0.12564	0.12998	0.13888	0.056963	0.18574	0.1477	-1.8312	-2.3208	-2.6083	-2.5563	-2.5792	-2.6229	-2.575	-2.6833	-2.5146	-2.1229	-2.8375	-2.5187	-2.3979	-2.8312	-2.4854	-2.6271	258.725	124.067	202.003	157.714	66.326	215.869	-40.991	267.144	-17.444	178.368	21.253	276.822	297.727	154.524	-3.901	252.824	0.0003113	0.0005584	0.000115	1278.4	3.4954e-06	4.2279e-06	1283.4	346.15	2.1119e-06	4.2575e-06	405.28	132.39	113.66	39.71	7.3209e-06	49.762	0.00023568	0.00019937	5.4757e-05	1293.7	2.2772e-06	2.1463e-06	1296.2	351.08	2.2698e-06	2.1948e-06	385.81	134.66	115.67	40.397	2.2116e-06	50.553	272.825	22.154	36.002	-31.995	122.320	98.608	-32.132	-27.143	148.717	114.737	-27.804	-23.308	-22.384	-18.115	136.079	-18.917	-8191	255	
16826.611	1	1	0	0	0.12804	0.057632	0.21759	0.11601	0.23001	0.19196	0.32799	0.1991	0.099431	0.043806	0.14924	0.1928	0.17939	0.26378	0.16454	0.11044	-2.0458	-2.3125	-2.5604	-2.8542	-2.4188	-2.6813	-2.6667	-2.7687	-2.7729	-2.4	-2.5438	-2.7167	-2.4229	-2.7562	-2.5417	-2.6854	294.443	257.270	296.276	133.208	56.619	217.138	222.710	284.259	-27.650	158.263	44.870	-11.966	242.309	306.417	125.606	281.974	0.0003152	0.00054967	0.00011839	1283.2	5.3376e-06	4.6392e-06	1284.7	345.84	2.6712e-06	3.2123e-06	398.72	132.3	113.95	39.433	5.2352e-06	49.579	0.00024028	0.00020503	5.3036e-05	1296.8	2.3835e-06	2.1506e-06	1297.5	350.74	2.317e-06	2.2048e-06	385.38	134.48	115.64	40.286	2.2043e-06	50.518	280.514	38.987	47.446	-32.056	145.401	108.188	-31.965	-26.864	100.482	105.045	-27.374	-23.284	-22.301	-18.038	136.057	-18.892	-8191	255	
16826.730	1	1	0	0	0.073465	0.26374	0.086344	0.35568	0.23415	0.17023	0.48823	0.20778	0.16525	0.13232	0.38186	0.16613	0.23519	0.087461	0.14691	0.13417	-2.3771	-2.35	-2.7062	-2.6562	-2.3125	-2.5812	-2.7542	-2.6479	-2.7417	-2.4562	-2.4437	-2.4375	-2.4188	-2.7708	-2.4688	-2.6063	212.904	208.051	100.059	-28.757	236.457	220.371	250.501	-28.749	275.191	5.614	244.411	215.862	280.103	130.819	234.911	226.448	0.00030104	0.00040377	0.00017454	1281.4	3.2012e-06	3.706e-06	1282.8	346.22	1.892e-06	5.6073e-06	400.03	132.63	113.82	39.293	7.1299e-06	49.559	0.00024661	0.00019825	5.2419e-05	1295.5	2.3371e-06	2.1232e-06	1297.2	350.81	2.3412e-06	2.1652e-06	384.94	134.67	115.7	40.261	2.1514e-06	50.537	268.562	46.447	40.884	-31.965	134.392	102.767	-31.911	-26.895	190.477	118.005	-27.749	-23.315	-22.289	-18.001	132.443	-19.020	-8191	255	
16826.826	1	1	0	0	0.16387	0.29912	0.11929	0.24752	0.21359	0.05296	0.13584	0.054121	0.22109	0.17746	0.13496	0.13272	0.23369	0.057482	0.060473	0.071926	-2.2417	-2.3875	-2.6875	-2.6375	-2.3708	-2.7333	-2.5604	-2.5125	-2.6937	-2.4188	-2.6312	-2.7771	-2.3937	-2.7229	-2.5146	-2.5312	276.876	8.999	282.550	244.387	5.179	292.047	25.681	-42.888	-32.674	196.049	81.208	-11.516	214.433	131.658	2.532	13.874	0.00027056	0.00043828	0.00017033	1280.5	5.7485e-06	3.9368e-06	1283.4	346.2	2.2736e-06	3.1936e-06	396.2	132.18	113.78	39.512	7.1934e-06	49.66	0.0002383	0.00019709	5.1748e-05	1295.8	2.2875e-06	2.0935e-06	1295.7	351.18	2.2843e-06	2.0937e-06	384.23	134.51	115.65	40.248	2.1779e-06	50.499	272.495	52.526	36.485	-31.901	152.593	102.008	-32.096	-27.156	144.283	117.708	-27.827	-23.359	-22.253	-17.945	117.633	-18.973	-8191	255	
16826.922	1	1	0	0	0.10818	0.16464	0.17604	0.30127	0.22843	0.36005	0.16454	0.15636	0.1083	0.026559	0.18264	0.32247	0.09055	0.47978	0.10468	0.15371	-2.3688	-2.3417	-2.7375	-2.8104	-2.4458	-2.7458	-2.65	-2.6167	-2.7188	-2.3688	-2.6875	-2.5542	-2.2896	-2.6604	-2.5687	-2.4979	189.344	96.236	49.671	292.550	-28.613	114.756	168.053	255.523	289.196	175.077	68.225	224.989	-7.709	275.375	166.211	-9.463	0.00025697	0.00051694	0.0001396	1277.7	4.4801e-06	4.4006e-06	1283.2	345.92	5.0236e-06	5.6138e-06	402.22	131.94	112.89	39.27	4.5669e-06	49.49	0.0002339	0.00018975	5.0717e-05	1294.9	2.2633e-06	2.0252e-06	1294.5	350.58	2.2023e-06	2.033e-06	385.4	134.4	115.43	40.211	2.1651e-06	50.428	265.925	40.436	64.167	-31.871	133.917	89.616	-32.004	-27.112	138.335	114.958	-27.719	-23.085	-22.520	-17.891	121.801	-18.793	-8191	255	
16827.018	1	1	0	0	0.041233	0.16603	0.088795	0.24908	0.048647	0.091679	0.1212	0.21969	0.071895	0.085485	0.11259	0.37973	0.02956	0.067689	0.077534	0.30398	-2.2375	-2.4688	-2.4271	-2.6271	-2.2729	-2.45	-2.8042	-2.5167	-2.6667	-2.5646	-2.5854	-2.7083	-2.4917	-2.7021	-2.4688	-2.5771	301.976	251.324	132.986	233.416	174.652	161.017	146.542	303.046	257.276	44.124	66.256	295.547	302.263	209.841	-34.630	220.426	0.00028448	0.00042376	0.00010618	1278.2	5.2684e-06	3.9842e-06	1284.6	345.52	4.4065e-06	4.4611e-06	406.97	132.34	113.52	39.277	5.102e-06	49.39	0.00023516	0.00018649	5.2166e-05	1293.1	2.2608e-06	1.9783e-06	1294.5	349.94	2.1923e-06	1.9719e-06	386.76	134.45	115.58	40.197	2.2102e-06	50.441	273.767	32.788	39.723	-31.906	126.973	107.872	-31.857	-26.991	189.596	118.709	-28.310	-23.206	-22.372	-17.940	136.261	-18.828	-8191	255	
16827.139	1	1	0	0	0.1835	0.18521	0.12975	0.19429	0.20369	0.28918	0.14885	0.047781	0.12322	0.37593	0.23573	0.23977	0.15802	0.39768	0.068801	0.080703	-2.1667	-2.4333	-2.3021	-2.8479	-2.4062	-2.6063	-2.75	-2.5146	-2.6792	-2.3937	-2.3625	-2.725	-2.6104	-2.7333	-2.6083	-2.4083	223.488	73.917	-26.975	-43.598	242.096	172.772	258.025	268.047	128.025	54.641	217.764	-44.268	145.417	-15.957	6.874	171.628	0.0002915	0.00066808	0.0001321	1280.7	4.7271e-06	3.5474e-06	1282.6	346.78	4.2589e-06	4.2794e-06	398.62	132.61	113.66	39.411	4.6283e-06	49.466	0.00022556	0.00019126	5.5327e-05	1293.4	2.2531e-06	2.0786e-06	1293.4	350.77	2.1888e-06	2.0785e-06	385.79	134.53	115.63	40.249	2.2326e-06	50.482	274.578	45.406	43.597	-31.854	132.064	93.382	-31.911	-27.043	160.678	117.498	-28.050	-23.063	-22.347	-18.001	121.528	-18.969	-8191	255	
16827.211	1	1	0	0	0.14256	0.19222	0.14798	0.46333	0.23474	0.27869	0.1725	0.19004	0.029034	0.21876	0.16907	0.18388	0.24471	0.14187	0.23081	0.11406	-2.1479	-2.3937	-2.325	-2.8104	-2.4188	-2.725	-2.7354	-2.5104	-2.5854	-2.4562	-2.3792	-2.75	-2.5333	-2.6792	-2.7083	-2.3	43.998	168.230	212.454	-42.551	156.886	182.555	275.173	-29.508	98.149	28.557	262.235	36.198	282.026	4.635	95.448	269.697	0.00028722	0.00045931	0.00016735	1279.7	4.6537e-06	2.9608e-06	1282.3	345.06	3.0193e-06	3.2754e-06	400.29	132.69	113.34	39.403	7.0827e-06	49.591	0.0002273	0.00018995	5.5497e-05	1294	2.1953e-06	2.0834e-06	1295.8	350.62	2.1023e-06	2.1492e-06	384.98	134.73	115.6	40.325	2.2004e-06	50.456	277.501	46.302	58.007	-32.055	135.807	98.727	-31.884	-26.984	130.615	101.707	-28.002	-23.369	-22.340	-17.897	99.833	-18.874	-8191	255	
16827.307	1	1	0	0	0.1306	0.14288	0.085884	0.17017	0.15793	0.24074	0.088334	0.15519	0.15253	0.22164	0.2929	0.21899	0.19126	0.25134	0.18053	0.1543	-2.2771	-2.425	-2.3146	-2.9396	-2.5833	-2.6521	-2.9208	-2.5	-2.6896	-2.6625	-2.3583	-2.7625	-2.5854	-2.7396	-2.8	-2.7146	118.057	253.842	170.875	269.300	152.786	226.514	21.034	194.024	118.498	39.319	-27.979	247.217	30.769	253.885	101.650	277.872	0.00025941	0.00055513	0.00010206	1280.5	4.4493e-06	2.0307e-06	1283.4	345.48	4.4119e-06	2.5774e-06	398.31	131.93	113.32	39.36	4.855e-06	49.52	0.00022266	0.0001946	5.3496e-05	1294.6	2.181e-06	2.1052e-06	1295	350.16	2.1349e-06	2.1301e-06	385.05	134.49	115.5	40.209	2.1182e-06	50.455	280.613	42.795	30.592	-31.898	137.883	81.428	-32.068	-27.144	172.262	102.549	-27.814	-23.201	-22.349	-17.824	129.050	-19.005	-8191	255	
16827.402	1	1	0	0	0.24702	0.11184	0.29968	0.2582	0.10664	0.13237	0.22071	0.30893	0.12463	0.17666	0.25406	0.035557	0.35757	0.18623	0.1921	0.051443	-2.1396	-2.6479	-2.3625	-2.7458	-2.3208	-2.5687	-2.8229	-2.7229	-2.5583	-2.7521	-2.3792	-2.7542	-2.5458	-2.7125	-2.9521	-2.5208	118.163	265.512	-11.532	289.245	277.770	108.294	264.948	256.435	9.340	147.225	278.393	196.928	297.939	314.059	-35.558	-21.317	0.00026768	0.00055113	0.00011018	1280.3	4.911e-06	3.9003e-06	1286	345.78	4.3913e-06	3.8363e-06	397.65	132.25	113.55	39.393	5.2826e-06	49.626	0.00022952	0.00020308	5.4494e-05	1294.5	2.2373e-06	2.1437e-06	1295.9	350.41	2.2591e-06	2.1186e-06	384.67	134.64	115.8	40.306	2.1551e-06	50.567	265.921	41.272	35.683	-32.018	118.501	84.886	-31.948	-27.117	192.874	98.619	-27.554	-23.221	-22.476	-17.905	97.312	-18.898	-8191	255	
16827.521	1	1	0	0	0.16405	0.16242	0.14293	0.1645	0.013386	0.12851	0.22799	0.20657	0.19495	0.15533	0.12911	0.30337	0.12822	0.11077	0.18173	0.099631	-2.2208	-2.6833	-2.5604	-2.975	-2.4437	-2.4604	-2.9229	-2.6583	-2.5958	-2.7562	-2.3292	-2.8	-2.7125	-2.5083	-2.7125	-2.6625	159.952	-27.044	227.343	284.294	206.526	154.992	309.883	-31.515	-19.697	0.603	131.962	310.728	249.579	-0.156	172.822	232.638	0.00027173	0.0003878	0.00012613	1285.5	5.0688e-06	3.5243e-06	1286.8	345.01	1.2632e-06	4.4939e-06	400.91	131.99	113.95	39.538	3.687e-06	49.689	0.00023425	0.00020122	5.5138e-05	1297.7	2.322e-06	2.2068e-06	1297.8	350.69	2.323e-06	2.2299e-06	386.84	134.53	115.86	40.365	2.2164e-06	50.586	280.522	52.937	28.425	-31.922	120.441	103.235	-31.867	-27.075	122.476	137.125	-27.484	-23.135	-22.417	-18.063	146.683	-19.113	-8191	255	
16827.617	1	1	0	0	0.18284	0.071127	0.25381	0.12533	0.31243	0.26245	0.17705	0.26781	0.23124	0.23462	0.06306	0.11202	0.12465	0.20835	0.092001	0.14648	-2.0708	-2.4688	-2.2938	-2.8896	-2.7708	-2.3708	-2.8646	-2.5583	-2.4521	-2.7354	-2.5104	-2.6729	-2.6625	-2.4646	-2.7979	-2.6458	284.839	142.148	85.842	218.697	108.763	64.960	239.366	212.622	307.849	41.304	311.148	-0.347	53.789	-37.312	58.977	228.826	0.00032395	0.00044492	0.00013829	1289.9	6.2694e-06	1.9615e-06	1295.7	348.51	4.091e-06	3.3395e-06	400.93	132.94	114.5	39.771	3.9649e-06	49.883	0.0002493	0.00020824	5.6514e-05	1304.7	2.5344e-06	2.3854e-06	1306.9	353.43	2.5106e-06	2.4313e-06	389.95	135.43	116.72	40.661	2.3832e-06	50.874	277.650	35.034	59.818	-31.986	99.780	121.856	-32.010	-27.170	151.515	109.651	-27.848	-23.254	-22.300	-18.035	178.980	-19.121	-8191	255	
16827.715	1	1	0	0	0.19093	0.38416	0.12851	0.2361	0.080497	0.14801	0.047236	0.15258	0.14879	0.17002	0.1035	0.18808	0.30003	0.15279	0.11275	0.21446	-1.825	-2.675	-2.5292	-2.8167	-2.5062	-2.45	-2.7333	-2.5563	-2.4125	-2.9208	-2.4958	-2.7229	-2.8708	-2.4458	-2.8042	-2.4958	263.074	292.196	13.643	266.265	-11.821	154.431	282.538	293.212	88.714	141.748	97.163	41.449	139.718	240.009	49.751	40.283	0.00029544	0.00044788	0.00014659	1291.1	6.4462e-06	2.4592e-06	1298.1	348.76	2.561e-06	5.4099e-06	400.74	133.59	115.07	39.804	3.9442e-06	49.665	0.00026159	0.00021805	5.9527e-05	1306.7	2.6407e-06	2.4281e-06	1308.5	353.6	2.5989e-06	2.3593e-06	390	135.51	116.7	40.616	2.4331e-06	50.783	261.974	48.750	56.650	-31.841	106.401	91.650	-32.166	-26.987	188.357	115.687	-28.325	-23.197	-22.417	-18.037	134.407	-18.982	-8191	255	
16827.811	1	1	0	0	0.27377	0.23265	0.21667	0.29848	0.084279	0.13967	0.43971	0.32373	0.12019	0.054788	0.14086	0.32225	0.35392	0.074185	0.191	0.22132	-2	-2.6479	-2.55	-2.6917	-2.6125	-2.3271	-2.9667	-2.6542	-2.5042	-2.6708	-2.5396	-2.5229	-2.7458	-2.3438	-2.7542	-2.7542	281.535	236.990	165.144	262.460	-33.994	100.409	244.746	218.245	75.482	79.140	224.363	306.155	309.797	194.074	235.778	111.843	0.00030416	0.00061472	8.5944e-05	1292.6	6.1837e-06	4.8436e-06	1293	348.13	3.7305e-06	5.1154e-06	401.78	133.25	114.83	39.86	5.8849e-06	49.893	0.00026482	0.00021664	6.111e-05	1304.6	2.6623e-06	2.3829e-06	1305.5	353.53	2.6328e-06	2.2799e-06	388.83	135.63	116.63	40.73	2.4851e-06	50.797	274.336	35.527	71.362	-31.808	132.210	106.047	-31.866	-27.100	136.303	132.787	-27.879	-23.126	-22.148	-17.937	134.237	-18.877	-8191	255	
16827.906	1	1	0	0	0.1371	0.1228	0.069896	0.16509	0.14749	0.13436	0.050044	0.40657	0.06953	0.23719	0.13301	0.11281	0.080705	0.16507	0.20814	0.11376	-2.0833	-2.6813	-2.3917	-2.6604	-2.7729	-2.4125	-2.7917	-2.6417	-2.3208	-2.7167	-2.3458	-2.6229	-2.6771	-2.6958	-2.5604	-2.7375	144.497	19.733	155.879	290.129	257.869	159.702	-21.344	270.302	215.660	217.274	234.350	231.833	47.124	-26.125	259.012	253.659	0.00028365	0.00051429	0.00015154	1296.3	4.1755e-06	4.7367e-06	1293.4	349.1	3.9314e-06	5.1807e-06	400.67	133.13	115.08	39.597	5.2951e-06	49.893	0.00025268	0.00020424	6.1726e-05	1310.4	2.4745e-06	2.2853e-06	1307.4	353.72	2.5601e-06	2.2746e-06	388.51	135.62	116.85	40.571	2.456e-06	50.883	273.348	36.043	54.169	-32.041	87.333	91.449	-32.110	-26.964	130.658	108.372	-27.361	-23.212	-22.458	-17.996	117.691	-19.071	-8191	255	
16828.004	1	1	0	0	0.038081	0.29847	0.26819	0.37438	0.35004	0.12456	0.072174	0.058068	0.10239	0.17341	0.10159	0.26082	0.15261	0.13508	0.073621	0.29583	-1.8312	-2.6437	-2.4021	-2.6229	-2.7958	-2.5812	-2.8875	-2.6646	-2.4083	-2.6688	-2.6417	-2.5521	-2.85	-2.6417	-2.4375	-2.7021	-24.804	255.258	245.458	249.716	59.359	139.997	303.119	-21.068	188.081	53.341	19.481	-37.292	261.151	-31.044	184.365	255.041	0.00027265	0.00049718	0.0001	1296.5	4.5191e-06	4.6451e-06	1295.9	347.65	4.161e-06	4.9048e-06	400.28	133.28	114.55	39.775	3.1697e-06	49.891	0.00025391	0.0002078	6.03e-05	1309.4	2.3669e-06	2.2351e-06	1309.4	353.69	2.4118e-06	2.2855e-06	389.45	135.64	116.68	40.644	2.4549e-06	50.933	274.938	38.328	52.299	-31.832	125.513	96.346	-31.938	-27.231	164.656	105.054	-27.715	-23.185	-22.161	-17.949	111.235	-18.953	-8191	255	
16828.100	1	1	0	0	0.19272	0.29823	0.10715	0.22032	0.25353	0.22191	0.14456	0.18225	0.15167	0.10264	0.18712	0.14043	0.10984	0.17034	0.15723	0.22074	-1.9542	-2.6188	-2.5438	-2.5333	-2.6104	-2.5438	-2.8333	-2.9396	-2.3396	-2.7438	-2.5438	-2.3438	-2.9	-2.3875	-2.4688	-2.9146	174.051	185.419	142.540	289.108	50.270	102.395	253.521	227.076	40.756	207.801	155.855	303.886	276.622	215.872	-27.824	192.108	0.0002941	0.0005421	0.00015124	1300.6	7.8873e-06	4.2558e-06	1303.4	349.59	3.107e-06	4.1523e-06	400.74	133.02	114.83	39.876	7.4211e-06	50.122	0.00025002	0.00022041	6.4974e-05	1313.1	2.4509e-06	2.5366e-06	1312.9	354.9	2.594e-06	2.538e-06	389.45	135.77	116.88	40.746	2.7136e-06	51.051	270.290	46.622	23.874	-32.129	131.525	92.205	-31.924	-27.210	160.196	115.664	-28.129	-23.218	-22.118	-17.952	118.526	-19.006	-8191	255	
16828.219	1	1	0	0	0.33019	0.32352	0.16707	0.068682	0.12172	0.28687	0.14226	0.15977	0.099955	0.073348	0.10788	0.16198	0.12263	0.20651	0.063998	0.078296	-1.8833	-2.6167	-2.5667	-2.625	-2.7125	-2.6625	-2.5667	-2.8125	-2.4979	-2.6646	-2.8104	-2.6083	-2.6937	-2.6146	-2.5646	-2.7104	-19.967	259.045	285.435	253.391	302.524	310.234	241.477	260.078	34.268	226.058	186.225	282.566	265.152	-33.655	-31.654	201.334	0.00028443	0.00062569	0.00016359	1299.1	4.3337e-06	2.7027e-06	1301.5	349.25	4.5088e-06	3.6798e-06	401.87	133.38	114.89	39.784	7.5773e-06	49.802	0.00026551	0.00023883	6.7335e-05	1313.3	2.6342e-06	2.6095e-06	1314.2	354.52	2.6658e-06	2.5568e-06	391.32	135.71	116.88	40.711	2.7058e-06	50.933	269.473	33.759	41.726	-32.122	111.676	86.606	-31.977	-27.017	149.669	115.689	-28.115	-23.364	-22.405	-18.117	141.745	-19.146	-8191	255	
16828.314	1	1	0	0	0.10053	0.18425	0.22994	0.12182	0.11928	0.15116	0.39533	0.30362	0.083963	0.14673	0.26096	0.054537	0.22081	0.4891	0.242	0.31484	-2.0396	-2.6833	-2.6	-2.6688	-2.6312	-2.7792	-2.5312	-2.8604	-2.2396	-2.5271	-2.5042	-2.3896	-2.5312	-2.5021	-2.4188	-2.6854	47.907	292.806	213.491	2.836	115.696	127.681	288.577	252.418	135.740	185.193	251.927	-36.780	281.430	306.250	68.493	253.460	0.00031018	0.00059397	0.00013724	1297.4	5.7093e-06	3.6577e-06	1295.6	349.28	3.0829e-06	5.1214e-06	401.72	133.99	115.19	39.791	4.5789e-06	49.871	0.00027794	0.00023293	6.8066e-05	1310	2.6964e-06	2.5972e-06	1307.4	354.33	2.6913e-06	2.6318e-06	389.62	135.86	116.85	40.665	2.674e-06	50.915	273.779	48.679	50.963	-31.835	140.860	84.386	-32.013	-27.254	144.889	117.125	-27.708	-23.308	-22.140	-17.665	134.151	-19.117	-8191	255	
16828.412	1	1	0	0	0.10865	0.32398	0.13415	0.12709	0.13278	0.04349	0.10371	0.14518	0.2433	0.10224	0.22725	0.30127	0.13317	0.12589	0.073236	0.12982	-2.0312	-2.5875	-2.55	-2.5729	-2.675	-2.5833	-2.725	-2.8021	-2.5021	-2.6354	-2.7146	-2.3937	-2.7729	-2.7604	-2.4167	-2.6458	68.029	278.185	185.445	255.752	176.797	193.256	312.259	-11.140	157.618	242.968	253.365	7.888	208.753	22.702	162.672	242.283	0.0003063	0.00046613	0.00016519	1298.6	5.6792e-06	4.6721e-06	1301.6	348.54	2.6243e-06	5.0269e-06	399.95	132.88	114.83	39.666	4.6756e-06	49.832	0.00026946	0.00023351	6.3663e-05	1310.2	2.6405e-06	2.6203e-06	1311.4	354.22	2.7113e-06	2.5655e-06	391.18	135.45	116.86	40.613	2.5975e-06	50.877	273.501	35.912	30.762	-31.912	112.540	92.216	-32.056	-27.035	252.427	119.228	-28.682	-23.286	-22.478	-17.961	96.739	-18.903	-8191	255	
16828.508	1	1	0	0	0.2257	0.096234	0.15749	0.18148	0.049229	0.20336	0.10121	0.28692	0.11397	0.33266	0.16848	0.093672	0.24622	0.30393	0.14357	0.24229	-2.0312	-2.5	-2.6229	-2.4979	-2.6917	-2.5167	-2.5833	-2.7792	-2.3771	-2.5167	-2.6479	-2.5187	-2.7313	-2.6188	-2.3229	-2.6542	206.942	83.561	233.100	262.557	151.033	114.419	11.056	-17.809	178.988	56.562	-12.091	32.085	311.659	-40.117	-17.037	296.229	0.00027463	0.00023959	0.00015338	1294.5	4.6562e-06	5.4883e-06	1300.6	348.11	2.3259e-06	5.4845e-06	402.61	133.3	114.76	39.669	4.3262e-06	49.922	0.00027525	0.0002323	6.3212e-05	1309.8	2.6918e-06	2.6281e-06	1310.6	353.87	2.6941e-06	2.5346e-06	390.94	135.59	116.68	40.591	2.4989e-06	50.845	277.214	28.131	38.920	-31.890	121.789	105.828	-31.875	-27.127	172.254	100.246	-27.777	-23.511	-22.296	-18.260	95.811	-19.050	-8191	255	
16828.602	1	1	0	0	0.12529	0.20988	0.11275	0.13464	0.083642	0.17059	0.36667	0.38937	0.08793	0.16211	0.28585	0.29917	0.18378	0.11214	0.36393	0.19531	-2.2458	-2.3479	-2.6396	-2.4167	-2.5917	-2.6521	-2.5021	-2.7604	-2.525	-2.3854	-2.5833	-2.5333	-2.6396	-2.8292	-2.3583	-2.5563	223.776	131.459	246.592	265.847	-9.752	111.896	222.060	253.688	206.572	36.986	118.842	275.929	285.022	250.007	72.128	270.656	0.00030271	0.00032222	0.00014329	1299.2	6.1002e-06	4.8813e-06	1297.2	348.67	2.7225e-06	3.6662e-06	402.64	132.86	114.23	39.603	3.4534e-06	49.641	0.00027116	0.00023177	6.0273e-05	1311.2	2.6665e-06	2.5208e-06	1308.7	353.45	2.6724e-06	2.5089e-06	389.41	135.34	116.41	40.503	2.535e-06	50.716	273.187	64.633	55.391	-32.041	132.001	110.359	-31.988	-27.106	153.328	127.956	-27.602	-23.255	-22.450	-17.937	125.029	-19.200	-8191	255	
16828.697	1	1	0	0	0.053186	0.11385	0.12532	0.3423	0.12805	0.34461	0.12261	0.39531	0.089008	0.062056	0.18347	0.019938	0.10356	0.34268	0.1678	0.24737	-2.025	-2.4938	-2.7417	-2.6146	-2.4896	-2.65	-2.4958	-2.9021	-2.8229	-2.525	-2.675	-2.5229	-2.6604	-2.7021	-2.4333	-2.7271	310.385	-2.274	272.502	285.718	2.288	43.758	297.826	291.162	-44.020	-19.514	209.550	101.483	96.945	-12.914	241.081	162.517	0.00029458	0.00050213	0.00010717	1298.5	4.4771e-06	4.1528e-06	1295.2	347.23	4.3914e-06	4.5132e-06	400.98	132.64	114.31	39.439	4.8765e-06	49.728	0.00027315	0.0002253	6.0806e-05	1308.2	2.6598e-06	2.3974e-06	1308.1	352.69	2.6654e-06	2.3597e-06	388.7	135.06	116.16	40.332	2.4192e-06	50.602	273.159	42.093	40.696	-32.021	137.988	96.334	-32.003	-27.136	126.496	125.370	-27.401	-23.357	-22.502	-17.932	138.609	-19.023	-8191	255	
16828.818	1	1	0	0	0.18515	0.30765	0.087139	0.15173	0.18675	0.12046	0.17195	0.34135	0.16962	0.10191	0.15961	0.13187	0.22868	0.019268	0.13477	0.097448	-2.2167	-2.2792	-2.7458	-2.6396	-2.5104	-2.7479	-2.7083	-2.7458	-2.4437	-2.4479	-2.8292	-2.6583	-2.6083	-2.7979	-2.3354	-2.7521	-3.888	158.698	-1.089	213.489	101.170	272.038	286.521	-22.726	300.834	292.034	275.403	300.606	266.347	224.399	27.847	47.296	0.00028489	0.00035523	0.00017008	1289.1	4.378e-06	2.8738e-06	1295	346.9	2.5208e-06	4.0982e-06	399.14	132.4	114.08	39.31	5.8127e-06	49.472	0.0002593	0.00021012	5.9445e-05	1303.2	2.5017e-06	2.1841e-06	1303.5	351.82	2.489e-06	2.2439e-06	386.74	134.78	115.94	40.316	2.4499e-06	50.574	273.552	59.526	50.318	-31.945	122.436	85.262	-31.963	-27.026	143.281	115.289	-28.272	-23.186	-22.160	-18.058	98.902	-19.240	-8191	255	
16828.914	1	1	0	0	0.19646	0.043467	0.26046	0.2898	0.094297	0.18242	0.29223	0.39917	0.10562	0.33014	0.13731	0.35894	0.24905	0.19431	0.18754	0.056486	-2.1667	-2.5625	-2.8333	-2.5208	-2.4854	-2.8333	-2.65	-2.7354	-2.7542	-2.3646	-2.8604	-2.8187	-2.4375	-2.7021	-2.2583	-2.5542	182.177	256.669	45.177	32.613	140.827	130.025	236.186	254.948	260.715	-8.587	90.950	273.799	277.793	280.203	308.248	219.659	0.00024573	0.00063913	0.0001323	1288.3	3.4751e-06	2.5412e-06	1292.3	347.04	2.1261e-06	3.77e-06	401.04	132.24	114.17	39.434	5.866e-06	49.656	0.00024784	0.00020696	5.8322e-05	1302.9	2.3757e-06	2.1488e-06	1304	351.72	2.4146e-06	2.2912e-06	386.6	134.69	115.98	40.418	2.437e-06	50.703	275.092	42.025	40.586	-32.087	107.092	114.263	-32.087	-26.968	156.616	87.553	-27.638	-23.242	-22.441	-17.862	136.187	-19.039	-8191	255	
16829.012	1	1	0	0	0.26053	0.15104	0.11178	0.15627	0.065639	0.062284	0.19011	0.17371	0.018031	0.13098	0.089997	0.1383	0.29272	0.10749	0.19242	0.28938	-2.2646	-2.3708	-2.5875	-2.7146	-2.4396	-2.7771	-2.6333	-2.8104	-2.7458	-2.3375	-2.6458	-2.8292	-2.4125	-2.9521	-2.6167	-2.5938	101.666	123.566	231.334	232.716	52.752	16.520	258.819	223.968	139.063	-41.160	227.379	-26.442	245.687	284.054	-0.138	210.303	0.00026068	0.00067078	0.00013282	1289.5	6.4342e-06	4.4234e-06	1290.2	347.2	2.4938e-06	3.135e-06	399.36	132.58	113.97	39.556	3.722e-06	49.658	0.00024819	0.00021905	6.1179e-05	1303.3	2.414e-06	2.3734e-06	1303	351.64	2.3994e-06	2.4097e-06	388.35	134.81	115.96	40.387	2.4648e-06	50.606	273.882	50.275	41.480	-32.035	117.137	108.007	-31.961	-27.190	131.066	104.975	-28.026	-23.003	-22.291	-18.037	104.249	-19.033	-8191	255	
16829.082	1	1	0	0	0.24018	0.069483	0.087535	0.32668	0.15701	0.061597	0.22336	0.15245	0.1305	0.14892	0.21021	0.17107	0.042036	0.26181	0.2679	0.085398	-2.4375	-2.2896	-2.6979	-2.7083	-2.3688	-2.775	-2.6271	-2.6833	-2.7417	-2.2917	-2.7729	-2.8833	-2.45	-2.8333	-2.5812	-2.4625	229.917	86.390	155.556	274.450	135.462	108.776	287.360	289.820	313.756	269.065	257.437	295.263	308.431	306.318	265.154	288.295	0.00028652	0.00036472	0.00015652	1284.6	5.5847e-06	3.5474e-06	1289.9	345.88	1.5135e-06	4.1692e-06	397.29	132.62	114.01	39.505	3.079e-06	49.505	0.00024318	0.00021379	6.0273e-05	1299.9	2.3701e-06	2.2977e-06	1302.8	351.44	2.3614e-06	2.4017e-06	386.52	134.81	116.08	40.406	2.4307e-06	50.631	274.189	46.506	40.697	-32.034	110.332	115.651	-31.864	-26.966	146.619	98.058	-27.855	-23.528	-22.281	-17.904	109.711	-18.837	-8191	255	
16829.203	1	1	0	0	0.030578	0.014705	0.082979	0.17557	0.15952	0.09229	0.059496	0.35283	0.21732	0.16041	0.19515	0.12317	0.22031	0.12136	0.064536	0.10741	-2.1958	-2.2958	-2.6958	-2.6646	-2.4542	-2.7458	-2.8854	-2.5563	-2.8208	-2.7146	-2.5896	-2.9646	-2.4562	-2.6083	-2.6729	-2.6292	-29.738	156.287	314.693	-33.912	279.368	203.796	49.549	231.030	65.243	240.943	-16.629	163.203	290.856	275.999	117.562	-29.100	0.00028677	0.00039699	0.00011729	1289.9	3.9541e-06	2.5129e-06	1295.5	347.52	2.5676e-06	3.5715e-06	404.17	133.05	113.91	39.425	5.7536e-06	49.955	0.00025261	0.00021975	6.0066e-05	1304.3	2.4887e-06	2.3794e-06	1306.5	352.56	2.591e-06	2.3821e-06	389.48	135.2	116.23	40.441	2.5707e-06	50.793	272.188	30.630	71.193	-32.033	122.880	82.343	-32.065	-27.010	130.576	112.264	-27.912	-23.343	-22.466	-17.842	118.772	-19.017	-8191	255	
16829.301	1	1	0	0	0.27321	0.076943	0.21761	0.25005	0.1487	0.095714	0.34097	0.044799	0.19908	0.15488	0.14642	0.41736	0.12383	0.049748	0.14389	0.25753	-2.3063	-2.4979	-2.6333	-2.95	-2.4437	-2.7	-2.675	-2.3146	-2.675	-2.4021	-2.5083	-2.8812	-2.5396	-2.8729	-2.5187	-2.6917	-30.307	240.212	145.342	-31.891	116.280	23.027	208.401	-8.596	61.230	-33.311	216.652	7.932	292.687	180.897	155.934	253.967	0.00032444	0.00014347	0.00011604	1289.1	7.4463e-06	2.9924e-06	1292.5	347.18	2.9254e-06	3.996e-06	403.99	132.3	114.07	39.521	3.1791e-06	49.482	0.00025737	0.00023274	6.2164e-05	1303.5	2.6047e-06	2.529e-06	1302.9	352.25	2.5442e-06	2.4639e-06	388.73	134.79	116.01	40.413	2.4783e-06	50.645	274.581	74.454	43.082	-31.978	139.282	106.450	-32.034	-26.827	146.658	125.536	-27.829	-23.255	-22.282	-18.245	146.167	-19.161	-8191	255	
16829.396	1	1	0	0	0.21365	0.28351	0.071588	0.21603	0.20056	0.09472	0.27944	0.13988	0.369	0.2383	0.09254	0.099703	0.25382	0.15964	0.18559	0.20733	-2.3187	-2.5667	-2.4875	-2.8979	-2.4813	-2.6708	-2.8958	-2.5	-2.7292	-2.5583	-2.5292	-3.0104	-2.4208	-2.6417	-2.4	-2.6104	165.364	267.084	303.309	257.800	86.535	312.582	282.479	35.659	314.008	175.533	-1.155	219.901	293.774	257.141	231.077	-20.639	0.00026825	0.00054581	0.00013691	1286.5	4.98e-06	4.2635e-06	1289.9	347.7	2.2652e-06	5.286e-06	398.22	132.77	114.34	39.547	5.8033e-06	49.589	0.00026364	0.00022607	6.1542e-05	1301.5	2.7192e-06	2.5492e-06	1300.4	352.24	2.6581e-06	2.6057e-06	387.06	134.94	116.22	40.471	2.5524e-06	50.663	269.940	51.675	35.266	-31.895	114.600	71.317	-31.887	-27.045	162.724	114.243	-27.393	-23.462	-22.297	-17.871	110.971	-18.977	-8191	255	
16829.492	1	1	0	0	0.17011	0.057406	0.044165	0.21256	0.11308	0.15014	0.1713	0.32603	0.14981	0.1357	0.10715	0.2672	0.10859	0.08852	0.076415	0.13896	-2.2646	-2.5021	-2.2333	-2.8417	-2.625	-2.4271	-2.9771	-2.5771	-2.5625	-2.5521	-2.4604	-2.8667	-2.5958	-2.5729	-2.7562	-2.5042	155.952	182.034	-43.020	285.447	168.098	230.544	-44.724	288.408	70.030	226.016	255.641	-34.085	190.748	-43.596	180.042	264.640	0.00025796	0.0002643	0.0001307	1290.9	5.296e-06	2.4779e-06	1293.5	349.61	1.5772e-06	3.6396e-06	408.14	133.76	114.86	39.941	5.5918e-06	50.026	0.0002787	0.00024603	6.6065e-05	1305.8	2.8971e-06	2.692e-06	1309	354.47	2.9821e-06	2.7851e-06	393.53	136.11	117.16	40.811	2.8411e-06	51.078	271.456	10.475	30.864	-31.830	119.457	114.718	-31.910	-27.241	139.101	118.387	-28.711	-23.069	-22.402	-17.981	134.822	-19.370	-8191	255	
16829.611	1	1	0	0	0.16104	0.16862	0.080576	0.15295	0.36388	0.11837	0.36959	0.26217	0.3062	0.18466	0.12662	0.37489	0.099355	0.19039	0.47628	0.23629	-2.1188	-2.2562	-2.4271	-2.7958	-2.4	-2.5167	-2.9333	-2.6813	-2.5354	-2.6312	-2.4729	-2.8271	-2.5917	-2.4521	-2.6521	-2.4771	296.999	88.364	255.317	256.986	-5.820	140.589	230.128	202.871	-33.491	-35.710	-32.043	-23.346	256.954	284.034	181.709	305.364	0.00029441	0.00050297	0.00013767	1299.2	8.7202e-06	5.7037e-06	1296.3	350.35	3.4407e-06	2.7954e-06	401.24	133.98	114.78	39.974	6.6483e-06	50.136	0.00029378	0.00026642	7.2552e-05	1313.8	3.1144e-06	2.9254e-06	1311.5	355.23	2.994e-06	2.7669e-06	392.16	136.1	117.07	40.862	2.8548e-06	51.124	276.485	45.512	55.820	-32.072	130.158	127.822	-32.021	-27.196	169.282	80.665	-27.235	-23.380	-22.356	-18.183	104.556	-19.045	-8191	255	
16829.707	1	1	0	0	0.25581	0.1526	0.29332	0.31427	0.23104	0.10056	0.20977	0.078148	0.071145	0.13503	0.27292	0.076542	0.18023	0.15806	0.21595	0.052395	-2.1521	-2.6188	-2.3167	-2.8417	-2.5729	-2.5979	-2.8958	-2.6167	-2.7896	-2.6	-2.2729	-2.7562	-2.55	-2.5646	-2.6479	-2.5875	-2.520	257.761	61.772	205.957	140.712	212.210	210.561	280.655	75.410	78.629	105.802	279.303	279.717	84.482	41.352	128.176	0.00028692	0.00056152	0.00010002	1300.2	2.6458e-06	2.8596e-06	1300.4	349.63	1.6054e-06	4.2799e-06	400.15	133.33	114.59	40.012	6.1582e-06	49.845	0.00028433	0.00024142	7.0256e-05	1315.4	2.9399e-06	2.5846e-06	1313.4	354.93	2.8484e-06	2.5717e-06	393.13	135.77	116.74	40.827	2.7884e-06	50.977	272.259	44.590	47.818	-32.054	170.805	104.392	-31.891	-27.141	189.511	118.583	-28.134	-23.407	-22.377	-18.092	114.611	-19.016	-8191	255	
16829.779	1	1	0	0	0.074579	0.13491	0.13716	0.17382	0.20756	0.073563	0.34258	0.012889	0.031304	0.13636	0.18367	0.33176	0.029146	0.11367	0.077704	0.15723	-1.9917	-2.6104	-2.3354	-2.9104	-2.6063	-2.3729	-3.0604	-2.5104	-2.5917	-2.7458	-2.5521	-2.6958	-2.5729	-2.3479	-2.6292	-2.6979	107.211	102.067	245.481	224.864	234.146	90.199	235.449	40.626	287.910	85.107	219.368	272.605	249.958	-37.154	206.118	212.189	0.00028978	0.00052158	0.00014723	1297.7	4.8945e-06	5.6609e-06	1297.8	348.2	1.9797e-06	3.3887e-06	395.27	133.06	114.51	39.837	4.4588e-06	49.979	0.00027962	0.00024425	7.1107e-05	1311.6	2.8408e-06	2.6895e-06	1309.8	353.74	2.8034e-06	2.5897e-06	389.68	135.64	116.69	40.718	2.744e-06	50.929	273.270	36.869	50.393	-32.103	122.097	109.553	-32.026	-27.053	141.403	124.844	-27.452	-23.393	-22.508	-18.144	119.343	-18.928	-8191	255	
16829.898	1	1	0	0	0.22407	0.20503	0.12752	0.32095	0.11894	0.16405	0.23465	0.22136	0.074509	0.10235	0.15014	0.14466	0.10018	0.13065	0.054936	0.13442	-1.9396	-2.8104	-2.3646	-2.7	-2.6688	-2.5667	-2.875	-2.7479	-2.5271	-3.0208	-2.4396	-2.7812	-2.6458	-2.5521	-2.7979	-2.5729	215.881	246.731	247.722	284.218	260.942	272.254	239.754	-21.519	-28.795	-4.752	110.856	58.568	-32.209	271.353	304.884	294.299	0.00029893	0.00054453	0.0002104	1292.9	3.5653e-06	3.6239e-06	1295.6	348.59	3.5173e-06	3.8974e-06	394.14	133.39	115.1	39.771	5.6878e-06	50.17	0.00028143	0.0002452	6.935e-05	1307.3	2.799e-06	2.7271e-06	1307.2	353.52	2.7493e-06	2.7182e-06	389.85	135.73	117.09	40.811	2.9028e-06	51.139	275.682	28.101	53.952	-32.116	136.599	90.889	-31.913	-27.141	130.373	104.653	-27.304	-23.432	-22.291	-17.821	133.074	-18.951	-8191	255	
16829.994	1	1	0	0	0.13846	0.068168	0.085963	0.43653	0.077096	0.28162	0.36607	0.15965	0.24562	0.27611	0.21047	0.18248	0.1916	0.26262	0.097934	0.28594	-2.1125	-2.6333	-2.5167	-2.9542	-2.7375	-2.4792	-2.9104	-2.6396	-2.3979	-2.7917	-2.4354	-2.5625	-2.9521	-2.5458	-2.8937	-2.7313	168.042	111.177	7.224	-43.650	274.570	309.149	244.703	283.440	153.409	245.113	28.247	61.663	-24.026	304.363	220.353	258.426	0.00033343	0.00051934	0.00012479	1296.1	7.2345e-06	3.791e-06	1297.6	350.77	3.411e-06	3.0562e-06	407.07	133.21	115.11	39.967	6.6202e-06	50.142	0.00028902	0.00026185	7.3297e-05	1312.8	2.9417e-06	2.882e-06	1311.8	355.33	2.888e-06	2.7498e-06	393.83	136.04	117.17	40.956	2.774e-06	51.132	270.957	61.046	14.537	-32.008	112.462	93.095	-32.123	-27.148	171.289	124.103	-28.217	-23.236	-22.456	-18.187	114.212	-19.170	-8191	255	
16830.092	1	1	0	0	0.14204	0.16605	0.0099481	0.10646	0.049448	0.20224	0.17111	0.18392	0.22867	0.059394	0.051417	0.25371	0.3148	0.057144	0.0236	0.22026	-1.9625	-2.6375	-2.3563	-2.6521	-2.7396	-2.5833	-2.8583	-2.7687	-2.4104	-2.7354	-2.6188	-2.5542	-2.8063	-2.425	-2.7062	-2.775	188.850	266.695	85.575	218.368	233.273	-13.395	203.294	242.080	102.645	57.121	99.690	283.802	-31.424	290.850	168.593	209.140	0.00027632	0.0002681	0.0001694	1297.1	5.4345e-06	6.1722e-06	1300.5	349.62	3.5419e-06	5.1323e-06	404.19	134.07	115.33	40.372	5.8574e-06	50.355	0.00027202	0.00023793	6.7505e-05	1310.5	2.7022e-06	2.702e-06	1312.2	354.76	2.7954e-06	2.6442e-06	392.34	136.42	117.51	41.124	2.7241e-06	51.375	279.214	80.138	36.875	-32.088	154.341	93.151	-31.898	-26.994	146.238	114.624	-28.120	-23.427	-22.445	-17.940	122.321	-19.001	-8191	255	
16830.213	1	1	0	0	0.33613	0.12278	0.43254	0.40255	0.084691	0.24651	0.14939	0.20383	0.13828	0.10017	0.20218	0.13342	0.13286	0.059527	0.10134	0.20453	-1.8583	-2.6188	-2.3125	-2.55	-2.7833	-2.5375	-2.7271	-2.6167	-2.4854	-2.7313	-2.5812	-2.5687	-2.7812	-2.5729	-2.5125	-2.6854	277.648	170.573	299.938	268.404	145.589	126.722	247.059	281.001	-31.787	298.137	-11.980	244.470	267.443	-32.264	181.211	240.307	0.00029294	0.00044868	0.00012511	1302.4	3.9607e-06	5.833e-06	1310.4	351.42	3.5898e-06	3.8426e-06	406.2	134.91	116.23	40.399	5.3842e-06	50.718	0.00028407	0.00025566	7.1783e-05	1318.7	2.9981e-06	2.9528e-06	1321.2	357.03	3.1045e-06	2.9634e-06	395.37	137.45	118.61	41.498	2.9512e-06	51.77	274.642	48.400	15.131	-32.000	87.411	112.553	-31.831	-27.288	170.426	130.234	-28.154	-23.297	-22.415	-18.087	154.571	-19.090	-8191	255	
16830.309	1	1	0	0	0.14774	0.35238	0.086752	0.061642	0.18689	0.30568	0.34643	0.33446	0.089523	0.25352	0.092267	0.14688	0.43787	0.12972	0.095966	0.2257	-2.0104	-2.5812	-2.4979	-2.4562	-2.6813	-2.4625	-2.7646	-2.7167	-2.3792	-2.7583	-2.4979	-2.4771	-2.7021	-2.4667	-2.6479	-2.8396	290.345	-13.963	-7.931	29.127	229.258	12.189	277.342	273.881	83.140	123.596	-12.034	159.390	-36.195	70.668	63.905	82.802	0.0002979	0.00044839	0.00014205	1312	6.11e-06	5.0726e-06	1317.7	354.51	4.717e-06	5.0173e-06	407.15	136.04	117.33	40.734	5.6544e-06	51.138	0.00031151	0.00027891	7.683e-05	1326.9	3.2588e-06	3.2102e-06	1330	359.46	3.2685e-06	3.1127e-06	398.16	138.51	119.45	41.828	3.0693e-06	52.145	282.240	53.372	51.472	-32.093	135.137	99.229	-31.989	-27.167	151.192	113.345	-27.829	-23.417	-22.179	-18.369	140.607	-19.107	-8191	255	
16830.381	1	1	0	0	0.1778	0.33158	0.25615	0.17078	0.26547	0.14159	0.20419	0.46336	0.14036	0.10088	0.15956	0.087892	0.1341	0.21668	0.19827	0.11485	-2.1229	-2.5938	-2.575	-2.5396	-2.6354	-2.4229	-2.7188	-2.7042	-2.5812	-2.7167	-2.5896	-2.4833	-2.7708	-2.5625	-2.3646	-2.85	299.922	-41.312	35.232	309.879	-26.966	82.587	301.464	276.913	283.887	254.514	198.961	261.640	27.801	41.390	303.184	301.742	0.00029327	0.00064068	0.0001445	1317.4	3.1505e-06	4.823e-06	1324.8	355.49	4.6871e-06	3.4979e-06	408.1	136.84	118.22	40.972	4.9945e-06	51.072	0.00032543	0.00029599	7.9333e-05	1334.5	3.3476e-06	3.2589e-06	1338.1	360.94	3.3804e-06	3.148e-06	399.42	139.24	120.11	41.99	3.1159e-06	52.278	269.607	30.275	35.088	-31.981	146.308	119.913	-31.898	-27.282	165.643	95.335	-27.584	-23.291	-22.470	-18.318	125.253	-19.042	-8191	255	
16830.502	1	1	0	0	0.069993	0.068542	0.17685	0.21934	0.1659	0.25425	0.21243	0.12509	0.19692	0.1393	0.13028	0.36657	0.11388	0.1176	0.1472	0.04034	-2.0833	-2.5792	-2.5604	-2.5229	-2.6521	-2.5042	-2.5979	-2.7208	-2.3917	-2.6708	-2.5792	-2.4083	-2.7812	-2.7	-2.3438	-2.9104	6.552	26.384	256.296	299.426	-24.847	109.296	294.428	22.113	259.364	-41.734	48.459	9.133	-36.453	186.313	40.610	125.151	0.00031371	0.00052157	0.00015095	1318.7	4.3784e-06	4.3095e-06	1328.3	356.33	2.5986e-06	3.0758e-06	408.79	136.35	118.26	40.991	5.3851e-06	51.271	0.00031825	0.00027869	7.9048e-05	1337	3.2016e-06	3.0961e-06	1340.8	361.28	3.301e-06	3.0429e-06	399.76	139.36	120.34	42.053	3.1912e-06	52.434	277.419	45.959	26.414	-32.117	120.555	100.002	-32.042	-27.224	179.477	94.962	-28.153	-23.388	-22.571	-18.470	123.954	-19.142	-8191	255	
16830.596	1	1	0	0	0.12734	0.19552	0.10616	0.051874	0.063729	0.21321	0.29714	0.18508	0.11442	0.22556	0.12881	0.11285	0.23194	0.26121	0.15135	0.21543	-1.8021	-2.5479	-2.5	-2.4521	-2.6625	-2.5354	-2.7375	-2.8312	-2.4813	-2.5375	-2.7667	-2.525	-2.7271	-2.8042	-2.4583	-2.6896	243.690	183.393	261.859	270.054	271.011	130.163	312.162	278.480	39.458	279.994	36.761	241.202	302.336	308.364	288.470	-22.080	0.00030156	0.00055952	0.00014889	1322.9	4.0297e-06	4.6666e-06	1329.4	357.31	1.6669e-06	4.0168e-06	405.46	136.52	118.4	41.075	3.6621e-06	51.313	0.00032081	0.00027407	8.0051e-05	1339.4	3.2204e-06	2.9721e-06	1341.9	361.82	3.27e-06	2.9445e-06	398.89	139.28	120.34	42.114	3.1516e-06	52.441	278.616	40.597	62.363	-32.042	141.411	109.123	-32.096	-27.203	153.743	116.757	-28.183	-23.317	-22.431	-18.294	107.658	-19.210	-8191	255	
16830.691	1	1	0	0	0.22022	0.18122	0.083954	0.14968	0.28253	0.084949	0.058375	0.21203	0.24172	0.052519	0.16476	0.41261	0.10391	0.5289	0.13715	0.17559	-2.1333	-2.4083	-2.7333	-2.5396	-2.7021	-2.6625	-2.4938	-2.9437	-2.6917	-2.375	-2.675	-2.5354	-2.7354	-2.7604	-2.3875	-2.8958	150.961	-37.424	221.613	276.469	117.246	-42.954	65.419	244.716	87.932	79.548	165.637	130.349	194.469	267.266	313.821	276.501	0.00031485	0.00063273	6.6416e-05	1323	3.6852e-06	5.738e-06	1324.9	355.17	3.2549e-06	2.3879e-06	414.55	136.77	118.07	41.106	3.7421e-06	51.151	0.00031743	0.00027166	7.8666e-05	1338.1	3.2019e-06	3.0459e-06	1340.5	360.9	3.1175e-06	2.94e-06	400.74	139.27	120.17	42.028	3.1452e-06	52.297	273.732	42.874	66.320	-31.955	129.699	124.495	-31.997	-27.106	127.878	117.323	-28.014	-23.332	-22.356	-18.205	111.727	-19.264	-8191	255	
16830.787	1	1	0	0	0.20043	0.22862	0.26004	0.15829	0.10491	0.048698	0.36783	0.3073	0.12622	0.36324	0.22077	0.080182	0.17775	0.24383	0.088823	0.28962	-1.9958	-2.4437	-2.6896	-2.4375	-2.6646	-2.8125	-2.6042	-2.8417	-2.4083	-2.4625	-2.75	-2.6104	-2.8583	-2.6833	-2.4896	-2.7354	220.504	135.092	293.939	294.867	237.734	241.735	282.666	310.900	274.631	137.687	-1.516	-20.952	218.079	173.514	90.940	278.484	0.00029526	0.00057009	0.00014673	1324.5	4.3587e-06	4.5495e-06	1327.3	355.49	3.8033e-06	5.4157e-06	410.12	136.88	117.76	41.242	5.0313e-06	51.306	0.00029976	0.00027402	7.7235e-05	1338.5	3.0334e-06	2.9292e-06	1339.8	360.62	3.0996e-06	3.0591e-06	399.98	139.3	120.04	42.106	3.2434e-06	52.351	279.403	61.092	50.079	-31.962	92.529	130.641	-31.972	-27.121	154.918	105.117	-28.538	-23.145	-22.516	-18.307	107.411	-19.237	-8191	255	
16830.908	1	1	0	0	0.094644	0.029724	0.19705	0.21611	0.11507	0.19278	0.070463	0.17891	0.17917	0.21106	0.43641	0.25932	0.021728	0.25427	0.21803	0.15259	-2.1396	-2.5438	-2.7313	-2.6625	-2.6229	-2.8229	-2.4875	-2.8833	-2.3958	-2.4625	-2.6354	-2.4854	-2.7146	-2.8396	-2.4292	-2.75	138.062	236.718	63.657	-31.618	64.116	-36.469	152.737	-33.064	215.238	177.934	87.840	260.648	304.485	9.618	235.477	154.579	0.00027359	0.00073625	0.00011626	1324.3	5.9939e-06	2.6808e-06	1331.6	355.2	3.9208e-06	2.9818e-06	408.05	137.22	118.32	41.003	5.9632e-06	51.368	0.00030422	0.00028067	8.0083e-05	1338.9	3.1311e-06	3.1095e-06	1342.9	361.33	3.1548e-06	3.0803e-06	400.22	139.69	120.51	42.216	3.2473e-06	52.496	270.424	48.298	25.295	-32.040	101.557	130.125	-32.045	-27.222	167.643	142.711	-27.563	-23.345	-22.538	-18.279	126.704	-19.117	-8191	255	
16830.980	1	1	0	0	0.16107	0.18554	0.28254	0.097678	0.20396	0.010186	0.30563	0.14223	0.27179	0.34104	0.16272	0.32012	0.31676	0.10799	0.11956	0.14023	-2.2792	-2.3833	-2.6771	-2.7313	-2.5833	-2.8333	-2.7146	-2.5625	-2.5687	-2.2708	-2.7333	-2.4062	-2.4062	-2.8979	-2.5438	-2.4938	137.696	306.345	49.613	-29.406	177.001	141.761	242.858	188.642	272.500	152.505	51.959	299.512	313.468	87.046	313.448	276.022	0.00029939	0.00062248	9.5278e-05	1324.2	6.5091e-06	4.4663e-06	1331.9	355.53	8.9036e-07	3.5091e-06	414.08	137.31	118.28	41.076	5.4139e-06	51.456	0.00030962	0.00027939	7.7226e-05	1340.9	3.0956e-06	3.0846e-06	1342.3	361.35	3.2084e-06	3.1849e-06	401.39	139.67	120.43	42.1	3.1084e-06	52.403	280.519	30.816	60.974	-32.087	94.022	116.819	-32.067	-27.161	183.588	97.778	-27.634	-23.120	-22.478	-18.373	101.586	-19.233	-8191	255	
16831.076	1	1	0	0	0.24289	0.20658	0.20444	0.4142	0.13245	0.23131	0.31427	0.12535	0.15934	0.18897	0.18616	0.31917	0.18322	0.12051	0.17591	0.14676	-2.2125	-2.3458	-2.5896	-2.7604	-2.5812	-2.6333	-2.6792	-2.7938	-2.8688	-2.6021	-2.6271	-2.6854	-2.3167	-2.8438	-2.5417	-2.5458	190.244	82.524	297.141	301.764	272.229	70.203	210.139	294.976	102.418	232.968	157.025	233.007	209.118	5.054	-33.759	234.453	0.00031182	0.00058712	0.0001658	1323.5	6.3847e-06	4.6025e-06	1325.2	356.17	2.9647e-06	3.7094e-06	411.48	136.7	118.12	40.986	4.2365e-06	51.214	0.00031113	0.00027477	7.338e-05	1339.7	3.0705e-06	3.015e-06	1339.1	361.34	3.0709e-06	2.9516e-06	399.67	139.42	120.15	42.045	3.0445e-06	52.307	269.462	59.340	51.761	-32.128	154.616	106.091	-31.990	-27.175	162.582	104.377	-27.970	-23.289	-22.408	-18.325	107.985	-19.306	-8191	255	
16831.172	1	1	0	0	0.12581	0.11292	0.10151	0.033074	0.019164	0.07096	0.16845	0.3716	0.016089	0.26022	0.079047	0.23629	0.17088	0.30003	0.26172	0.072497	-2.2313	-2.4833	-2.5208	-2.6688	-2.5104	-2.775	-2.8292	-2.6354	-2.8833	-2.4083	-2.7354	-2.6188	-2.5021	-2.7917	-2.5292	-2.7	-34.621	-11.782	53.297	71.759	24.508	79.795	191.420	309.656	167.072	303.932	204.812	287.788	195.444	225.417	120.299	86.584	0.00029771	0.0004863	0.00011052	1327.1	5.2349e-06	4.3687e-06	1326.7	355.09	3.3863e-06	4.759e-06	408.53	136.13	117.78	40.956	3.991e-06	51.046	0.00030213	0.00027639	7.177e-05	1338.9	3.1021e-06	2.8929e-06	1339.8	360.47	3.0068e-06	2.9562e-06	398.31	138.95	119.76	41.956	2.9134e-06	52.163	272.492	43.433	22.467	-31.974	148.490	104.713	-31.987	-27.189	152.571	101.024	-27.841	-23.222	-22.501	-18.017	154.132	-19.297	-8191	255	
16831.293	1	1	0	0	0.10098	0.16621	0.21714	0.011394	0.22367	0.24843	0.30234	0.17885	0.09435	0.13914	0.071682	0.16148	0.31055	0.17459	0.18048	0.32214	-2.4021	-2.3063	-2.6021	-2.8125	-2.4792	-2.5958	-2.8104	-2.6188	-2.7646	-2.5125	-2.5292	-2.7708	-2.4167	-2.8438	-2.6167	-2.7229	183.427	59.853	-0.354	63.005	154.369	212.595	275.169	-28.680	167.318	310.122	155.830	145.880	-26.221	273.884	243.910	233.440	0.0002743	0.0005577	0.00012734	1323.3	6.0401e-06	3.0314e-06	1325.3	354.68	3.765e-06	3.4004e-06	406.89	136.27	117.84	41.061	4.4522e-06	51.124	0.00028985	0.00026563	6.9603e-05	1335.6	2.961e-06	2.7546e-06	1337.1	360.07	2.8665e-06	2.7462e-06	396.86	138.88	119.74	41.954	2.6927e-06	52.09	275.445	28.825	42.661	-32.033	138.481	127.328	-32.095	-27.204	172.051	105.300	-27.772	-23.406	-22.715	-18.076	119.517	-19.101	-8191	255	
16831.387	1	1	0	0	0.17424	0.19076	0.094556	0.1573	0.2752	0.20316	0.132	0.18994	0.22821	0.20381	0.13215	0.29349	0.2598	0.17812	0.04108	0.18893	-2.1875	-2.2	-2.5646	-2.5646	-2.4562	-2.5521	-2.8396	-2.5187	-2.7562	-2.6458	-2.5354	-2.7083	-2.5875	-2.8583	-2.5625	-2.4771	165.651	63.310	14.822	116.956	98.669	30.889	242.223	173.458	306.392	82.253	69.953	214.039	276.221	226.490	220.305	217.030	0.00025254	0.00053115	7.6301e-05	1318.7	4.6325e-06	2.5258e-06	1327	353.81	3.8531e-06	3.2815e-06	408.33	136.56	117.46	40.979	5.2662e-06	51.062	0.00027858	0.00024746	6.7013e-05	1334.2	2.8544e-06	2.6184e-06	1338	359.68	2.8251e-06	2.682e-06	397.09	139.18	119.78	41.878	2.7524e-06	52.218	277.024	32.023	50.292	-32.145	125.737	110.391	-31.872	-27.279	167.617	123.264	-27.289	-23.319	-22.522	-18.128	117.868	-19.183	-8191	255	
16831.482	1	1	0	0	0.043847	0.060079	0.24314	0.15722	0.18491	0.022919	0.30469	0.2826	0.16215	0.13107	0.085528	0.25473	0.21193	0.21685	0.10324	0.37538	-2.3646	-2.4229	-2.3542	-2.7375	-2.3917	-2.6896	-2.8729	-2.4646	-2.5187	-2.2979	-2.6625	-2.8917	-2.5729	-2.7292	-2.6979	-2.5604	215.616	161.252	65.368	249.844	290.560	135.589	227.199	281.734	270.813	-14.786	215.532	218.267	-24.917	226.772	196.645	304.405	0.00031307	0.00057373	0.00015452	1324	5.2609e-06	4.4287e-06	1325.5	354.84	3.3383e-06	3.5806e-06	406.29	136.63	118.23	41.034	4.128e-06	51.09	0.00028809	0.0002434	6.8572e-05	1336.7	2.9835e-06	2.6664e-06	1339	360.27	2.9124e-06	2.6684e-06	397.98	139.14	120.03	42.04	2.8957e-06	52.32	272.812	33.566	55.979	-32.187	134.022	98.548	-32.068	-27.053	147.096	114.059	-27.775	-23.233	-22.502	-18.259	104.377	-19.033	-8191	255	
16831.580	1	1	0	0	0.19948	0.21115	0.21284	0.33512	0.1773	0.045855	0.33495	0.058936	0.092274	0.069584	0.14137	0.23628	0.15941	0.17553	0.14676	0.11735	-2.2938	-2.4479	-2.325	-3.0021	-2.6333	-2.5042	-2.5479	-2.5146	-2.8292	-2.5458	-2.6208	-2.6375	-2.5458	-2.5833	-2.5604	-2.5021	36.871	253.181	100.336	282.724	65.773	79.563	237.271	241.989	43.411	-27.809	273.244	235.772	235.911	217.236	206.367	-13.807	0.00030941	0.00036304	0.0001295	1323.5	7.2256e-06	6.5806e-06	1326.3	355.4	3.7895e-06	3.4609e-06	405.64	136.82	117.93	41.277	6.2238e-06	51.384	0.0002873	0.00025524	7.4567e-05	1338	3.0336e-06	2.7804e-06	1342	360.81	2.8395e-06	2.7973e-06	398.41	139.45	120.11	42.162	2.8994e-06	52.399	280.173	39.332	59.807	-32.112	117.367	107.820	-32.141	-27.368	190.895	106.381	-27.829	-23.557	-22.272	-18.224	123.535	-19.350	-8191	255	
16831.676	1	1	0	0	0.26196	0.1277	0.024561	0.31318	0.21842	0.13905	0.084434	0.15568	0.14061	0.15201	0.021841	0.24148	0.51647	0.10961	0.20033	0.062216	-2.0896	-2.5271	-2.3229	-2.9229	-2.4938	-2.5333	-3.0083	-2.5396	-2.5708	-2.5417	-2.1792	-2.8042	-2.4417	-2.6146	-2.5187	-2.5896	306.873	229.269	0.451	247.144	172.254	145.372	256.509	303.530	257.859	-33.105	295.182	267.033	284.833	-37.554	163.014	1.135	0.00031023	0.00051901	0.00012382	1321.6	1.5657e-06	5.8089e-06	1333	354.71	2.7881e-06	4.0485e-06	404.8	136.73	117.96	40.977	6.373e-06	51.126	0.0002882	0.00026421	7.5041e-05	1339.8	2.9517e-06	2.8869e-06	1343	360.76	2.9246e-06	2.9291e-06	399.51	139.42	120.23	42.057	3.0148e-06	52.362	274.387	35.148	30.440	-32.007	195.367	97.089	-31.903	-27.116	155.753	123.600	-27.297	-23.423	-22.420	-18.205	103.227	-19.225	-8191	255	
16831.771	1	1	0	0	0.15386	0.14864	0.21832	0.19727	0.17547	0.01586	0.2808	0.20416	0.17057	0.10348	0.17939	0.2494	0.17064	0.027939	0.11484	0.070559	-2.1042	-2.3583	-2.4354	-2.9062	-2.5042	-2.5854	-2.7917	-2.5646	-2.725	-2.6083	-2.4021	-2.6604	-2.6021	-2.6646	-2.825	-2.4729	51.048	-8.534	173.312	249.088	152.681	243.904	244.616	239.238	13.615	240.448	199.609	264.553	307.545	303.671	255.487	199.932	0.00029736	0.00062493	0.00014408	1323.9	7.4244e-06	4.6622e-06	1333.5	356.54	3.0939e-06	3.2426e-06	407.6	137.56	118.4	41.271	5.5482e-06	51.657	0.00029336	0.00027191	7.6784e-05	1339.2	3.0735e-06	3.039e-06	1343.5	361.59	3.0765e-06	3.0921e-06	399.57	139.76	120.6	42.238	3.1397e-06	52.55	263.174	47.253	41.031	-31.992	126.087	88.075	-31.785	-26.998	168.278	113.731	-28.395	-23.482	-22.337	-18.156	148.180	-19.204	-8191	255	
16831.893	1	1	0	0	0.036037	0.099444	0.28331	0.29659	0.19042	0.22053	0.15668	0.27998	0.18557	0.088176	0.2244	0.10359	0.4121	0.1056	0.21651	0.10918	-2.2854	-2.4437	-2.2979	-2.8146	-2.5042	-2.5979	-3.0146	-2.6083	-2.6333	-2.7562	-2.3937	-2.9021	-2.6396	-2.5479	-2.7458	-2.6188	3.161	123.110	11.371	311.173	125.931	57.687	271.004	307.195	264.036	229.317	278.564	212.657	299.212	202.926	88.468	258.297	0.00026905	0.00065573	0.00016079	1331.1	4.1643e-06	4.0416e-06	1334.6	357	4.0034e-06	2.8112e-06	415.45	137.29	118.11	41.495	4.9098e-06	51.526	0.00030327	0.00029046	8.058e-05	1344.3	3.2573e-06	3.1719e-06	1346.8	362.61	3.242e-06	3.1258e-06	403.27	139.96	120.75	42.432	3.2119e-06	52.707	268.452	46.916	52.173	-32.076	142.029	103.146	-32.041	-27.150	149.293	116.288	-28.016	-23.511	-22.582	-18.244	134.985	-19.027	-8191	255	
16831.988	1	1	0	0	0.18222	0.079406	0.090228	0.18448	0.070361	0.11031	0.24096	0.18625	0.049381	0.2201	0.12839	0.15687	0.16755	0.20129	0.051872	0.089159	-2.1542	-2.5021	-2.3854	-2.8917	-2.5479	-2.4688	-2.825	-2.5417	-2.4604	-2.7062	-2.3521	-2.7875	-2.6521	-2.4167	-2.7375	-2.5312	273.318	212.418	16.832	296.172	187.595	146.930	251.394	309.766	284.044	-7.537	159.398	53.339	177.633	-44.568	249.917	16.974	0.0002831	0.00055241	0.00014983	1331.1	6.7837e-06	5.4501e-06	1334.4	357.92	4.132e-06	3.7848e-06	412.84	137.5	119.05	41.4	4.0076e-06	51.416	0.00032083	0.00029532	8.3285e-05	1345.8	3.4431e-06	3.2038e-06	1348.2	363.37	3.3527e-06	3.2029e-06	403.63	140.33	121	42.42	3.2473e-06	52.644	265.667	51.183	40.951	-32.179	145.421	89.453	-31.878	-27.081	179.154	115.777	-28.439	-23.370	-22.553	-18.279	110.155	-19.138	-8191	255	
16832.086	1	1	0	0	0.16036	0.3049	0.12398	0.32423	0.054131	0.22053	0.12661	0.51814	0.16124	0.17765	0.11854	0.17517	0.17255	0.30999	0.15224	0.11375	-2.1562	-2.5563	-2.3125	-2.9562	-2.5062	-2.5833	-2.8125	-2.5271	-2.5563	-2.7417	-2.1979	-2.7938	-2.6625	-2.375	-2.7188	-2.6813	23.996	307.651	205.732	298.964	201.427	-10.002	242.032	253.065	221.992	-31.439	218.056	191.424	273.505	270.809	239.687	105.217	0.00029404	0.00061283	5.7907e-05	1334.3	4.6892e-06	4.3758e-06	1337.6	357.8	5.2617e-06	3.5512e-06	410.75	137.78	119.32	41.485	6.4538e-06	51.696	0.00032668	0.0002983	8.1431e-05	1346.7	3.4203e-06	3.3085e-06	1348.9	363.59	3.3746e-06	3.2536e-06	401.18	140.5	121.33	42.577	3.1739e-06	52.771	274.472	20.928	54.939	-31.873	112.707	108.750	-31.909	-27.183	163.387	90.723	-27.950	-23.546	-22.400	-18.279	123.768	-19.170	-8191	255	
#DATA ENDS
