BOXY.EXE: ISS Imagent and Oximeter Data Acquisition Program Version 0.80
Ascii Record File

#ACQ INFORMATION
2  Detector Channels 
16  External MUX Channels 
1  Auxiliary Channels 
5000  Waveform (CCF) Frequency (Hz)
1  Waveforms Skipped 
30  Waveforms Averaged 
1  Cycles Averaged 
16  Acquisitions per Waveform 
10.0806  Updata Rate (Hz) 

#FILE INFORMATION
TRUE -- External MUX Channel results are PARSED.
FALSE -- AC DC and Phase are NOT grouped.
TRUE -- Companion Program Settings File CREATED.
FALSE -- AC data not excluded
FALSE -- DC data not excluded
FALSE -- Phase data not excluded
FALSE -- Auxillary Chn. data not excluded
Tab delimiters

#CALIBRATION STATE
TRUE -- Waveform Calibration Values APPLIED.


#AUX CALIBRATION VALUES
Val Type	aux-1	

Term	1.0000e+00	
Factor	0.0000e+00	


#WF CALIBRATION VALUES
A = Detector Channel
Val Type	A-AC1	A-AC2	A-AC3	A-AC4	A-AC5	A-AC6	A-AC7	A-AC8	A-AC9	A-AC10	A-AC11	A-AC12	A-AC13	A-AC14	A-AC15	A-AC16	A-DC1	A-DC2	A-DC3	A-DC4	A-DC5	A-DC6	A-DC7	A-DC8	A-DC9	A-DC10	A-DC11	A-DC12	A-DC13	A-DC14	A-DC15	A-DC16	A-Ph1	A-Ph2	A-Ph3	A-Ph4	A-Ph5	A-Ph6	A-Ph7	A-Ph8	A-Ph9	A-Ph10	A-Ph11	A-Ph12	A-Ph13	A-Ph14	A-Ph15	A-Ph16	

Term	0.00000e+00	0.00000e+00	0.00000e+00	0.00000e+00	0.00000e+00	0.00000e+00	0.00000e+00	0.00000e+00	0.00000e+00	0.00000e+00	0.00000e+00	0.00000e+00	0.00000e+00	0.00000e+00	0.00000e+00	0.00000e+00	0.00000e+00	0.00000e+00	0.00000e+00	0.00000e+00	0.00000e+00	0.00000e+00	0.00000e+00	0.00000e+00	0.00000e+00	0.00000e+00	0.00000e+00	0.00000e+00	0.00000e+00	0.00000e+00	0.00000e+00	0.00000e+00	0.00000e+00	0.00000e+00	0.00000e+00	0.00000e+00	0.00000e+00	0.00000e+00	0.00000e+00	0.00000e+00	0.00000e+00	0.00000e+00	0.00000e+00	0.00000e+00	0.00000e+00	0.00000e+00	0.00000e+00	0.00000e+00	
Factor	1.00000e+00	1.00000e+00	1.00000e+00	1.00000e+00	1.00000e+00	1.00000e+00	1.00000e+00	1.00000e+00	1.00000e+00	1.00000e+00	1.00000e+00	1.00000e+00	1.00000e+00	1.00000e+00	1.00000e+00	1.00000e+00	1.00000e+00	1.00000e+00	1.00000e+00	1.00000e+00	1.00000e+00	1.00000e+00	1.00000e+00	1.00000e+00	1.00000e+00	1.00000e+00	1.00000e+00	1.00000e+00	1.00000e+00	1.00000e+00	1.00000e+00	1.00000e+00	X	X	X	X	X	X	X	X	X	X	X	X	X	X	X	X	

B = Detector Channel
Val Type	B-AC1	B-AC2	B-AC3	B-AC4	B-AC5	B-AC6	B-AC7	B-AC8	B-AC9	B-AC10	B-AC11	B-AC12	B-AC13	B-AC14	B-AC15	B-AC16	B-DC1	B-DC2	B-DC3	B-DC4	B-DC5	B-DC6	B-DC7	B-DC8	B-DC9	B-DC10	B-DC11	B-DC12	B-DC13	B-DC14	B-DC15	B-DC16	B-Ph1	B-Ph2	B-Ph3	B-Ph4	B-Ph5	B-Ph6	B-Ph7	B-Ph8	B-Ph9	B-Ph10	B-Ph11	B-Ph12	B-Ph13	B-Ph14	B-Ph15	B-Ph16	

Term	0.00000e+00	0.00000e+00	0.00000e+00	0.00000e+00	0.00000e+00	0.00000e+00	0.00000e+00	0.00000e+00	0.00000e+00	0.00000e+00	0.00000e+00	0.00000e+00	0.00000e+00	0.00000e+00	0.00000e+00	0.00000e+00	0.00000e+00	0.00000e+00	0.00000e+00	0.00000e+00	0.00000e+00	0.00000e+00	0.00000e+00	0.00000e+00	0.00000e+00	0.00000e+00	0.00000e+00	0.00000e+00	0.00000e+00	0.00000e+00	0.00000e+00	0.00000e+00	-1.99800e+02	-1.32036e+02	-1.16888e+02	-1.84163e+02	-8.14992e+01	-6.94175e+01	-1.57306e+02	-1.62015e+02	-8.64931e+01	-6.67769e+01	-1.77797e+02	-1.71882e+02	-1.81595e+02	-1.77192e+02	-7.35172e+01	-1.50103e+02	
Factor	3.79814e-05	1.92844e-04	5.09745e-05	1.70467e-01	1.91118e-06	1.87975e-06	1.61549e-01	5.09297e-02	1.97878e-06	1.84182e-06	9.46997e-01	2.66704e-02	2.93344e-02	8.92146e-03	1.95588e-06	1.25256e-02	7.13065e-06	8.70306e-06	2.43209e-06	8.69350e-02	9.20906e-08	9.60395e-08	7.77383e-02	2.60149e-02	9.20560e-08	9.54915e-08	4.40650e-01	1.32784e-02	1.50708e-02	4.60272e-03	9.35434e-08	6.26721e-03	X	X	X	X	X	X	X	X	X	X	X	X	X	X	X	X	



#DISTANCE SETTINGS
A = Detector Channel
A-1	A-2	A-3	A-4	A-5	A-6	A-7	A-8	A-9	A-10	A-11	A-12	A-13	A-14	A-15	A-16	

2.5000e+00	3.0000e+00	2.5000e+00	3.0000e+00	2.0000e+00	3.0000e+00	1.5000e+00	3.0000e+00	3.0000e+00	3.0000e+00	3.0000e+00	3.0000e+00	3.0000e+00	3.0000e+00	1.5000e+00	3.0000e+00	

B = Detector Channel
B-1	B-2	B-3	B-4	B-5	B-6	B-7	B-8	B-9	B-10	B-11	B-12	B-13	B-14	B-15	B-16	

1.0000e+01	1.0000e+01	1.0000e+01	1.4400e+00	1.0000e+01	1.0000e+01	1.5100e+00	1.9400e+00	1.0000e+01	1.0000e+01	1.9900e+00	2.4900e+00	2.4100e+00	2.9000e+00	1.0000e+01	2.9800e+00	




#DATA BEGINS
time	group	step	mark	flag	A-AC1	A-AC2	A-AC3	A-AC4	A-AC5	A-AC6	A-AC7	A-AC8	A-AC9	A-AC10	A-AC11	A-AC12	A-AC13	A-AC14	A-AC15	A-AC16	A-DC1	A-DC2	A-DC3	A-DC4	A-DC5	A-DC6	A-DC7	A-DC8	A-DC9	A-DC10	A-DC11	A-DC12	A-DC13	A-DC14	A-DC15	A-DC16	A-Ph1	A-Ph2	A-Ph3	A-Ph4	A-Ph5	A-Ph6	A-Ph7	A-Ph8	A-Ph9	A-Ph10	A-Ph11	A-Ph12	A-Ph13	A-Ph14	A-Ph15	A-Ph16	B-AC1	B-AC2	B-AC3	B-AC4	B-AC5	B-AC6	B-AC7	B-AC8	B-AC9	B-AC10	B-AC11	B-AC12	B-AC13	B-AC14	B-AC15	B-AC16	B-DC1	B-DC2	B-DC3	B-DC4	B-DC5	B-DC6	B-DC7	B-DC8	B-DC9	B-DC10	B-DC11	B-DC12	B-DC13	B-DC14	B-DC15	B-DC16	B-Ph1	B-Ph2	B-Ph3	B-Ph4	B-Ph5	B-Ph6	B-Ph7	B-Ph8	B-Ph9	B-Ph10	B-Ph11	B-Ph12	B-Ph13	B-Ph14	B-Ph15	B-Ph16	aux-1	digaux	

464.790	1	1	0	768	0.0063592	0.11359	0.10065	0.2446	0.10134	0.097006	0.30005	0.36119	0.25891	0.028351	0.15571	0.16366	0.17453	0.12179	0.19109	0.29816	-2.7083	-3.0667	-3.2417	-3.0708	-3.3396	-3.1604	-3.3208	-3.6063	-3.1437	-3.2125	-3.1813	-3.1292	-3.2021	-3.3729	-3.05	-3.2687	147.125	98.700	-106.067	-124.574	73.679	-23.211	175.895	172.558	149.599	154.091	141.888	74.119	-31.316	-23.980	-86.005	139.525	0.00082138	0.00073223	0.00010011	1360	5.3527e-06	6.2636e-06	1359.3	367.16	5.6263e-06	2.952e-06	419.72	139.56	121.65	41.932	6.7006e-06	51.94	0.00057584	0.00053526	0.0001513	1378.1	5.7988e-06	6.0411e-06	1377.1	373.57	6.04e-06	5.9547e-06	425.72	143.07	124.62	42.992	5.9441e-06	53.225	132.877	-54.969	-53.553	-125.460	0.241	38.721	-125.604	-120.970	-59.170	27.325	-121.764	-117.110	-116.840	-111.883	10.178	-112.354	-8191	255	
464.886	1	1	0	0	0.066164	0.28031	0.13359	0.27004	0.16431	0.10875	0.21845	0.16108	0.02528	0.085762	0.135	0.14448	0.18254	0.32635	0.24046	0.19088	-2.6375	-2.9479	-3.3312	-3.0167	-3.2	-3.3021	-3.2833	-3.5854	-3.1229	-3.1479	-3.3917	-3.2396	-3.1833	-3.6188	-2.8042	-3.4125	-100.267	172.250	-8.463	104.969	15.844	66.429	132.365	-122.687	-97.830	-96.313	198.779	190.786	-105.350	-113.569	160.680	164.028	0.00080186	0.00046915	0.00011991	1358.1	2.8832e-06	4.8194e-06	1356.6	366.98	4.3422e-06	3.9328e-06	422.04	139.83	121.8	41.911	3.6873e-06	51.571	0.00058298	0.00053738	0.00015383	1378.4	5.866e-06	6.0769e-06	1376.7	373.34	6.1455e-06	5.9002e-06	426.44	143.02	124.54	42.947	5.957e-06	53.108	126.821	-58.391	-22.648	-125.434	-34.579	-11.458	-125.644	-121.086	-45.520	8.841	-121.757	-117.070	-117.273	-111.855	-16.520	-112.884	-8191	255	
464.983	1	1	0	0	0.35363	0.051824	0.13811	0.31504	0.082198	0.096569	0.27375	0.37929	0.2261	0.20542	0.0159	0.12456	0.29618	0.19573	0.20063	0.27809	-2.6896	-3.075	-3.2833	-3.1813	-3.0375	-3.5333	-3.2729	-3.6063	-3.2146	-2.9729	-3.35	-3.1167	-3.2417	-3.3	-3	-3.2979	51.102	126.517	-90.128	120.738	68.870	-19.000	169.207	201.595	-118.558	-10.462	-51.305	-119.159	-94.672	-85.362	47.549	127.039	0.00074673	0.00068975	0.00018515	1359.2	2.2477e-06	5.2394e-06	1354	365.95	5.3394e-06	2.3882e-06	423.36	139.73	122.05	41.875	3.8248e-06	51.44	0.00057452	0.00053812	0.00014963	1377.1	5.8441e-06	6.0457e-06	1375	373.26	6.0983e-06	5.9364e-06	426.17	142.82	124.78	42.924	6.0144e-06	53.056	129.918	-52.985	-17.625	-125.521	24.238	5.115	-125.730	-121.044	-19.326	-11.320	-120.791	-116.958	-117.085	-111.979	-27.417	-112.668	-8191	255	
465.079	1	1	0	0	0.16245	0.078064	0.23517	0.23621	0.25398	0.29847	0.060276	0.19901	0.073091	0.21603	0.15961	0.3321	0.13004	0.083428	0.1525	0.21396	-2.7729	-2.9833	-3.1937	-3.2917	-2.9167	-3.2562	-3.1583	-3.3875	-3.0354	-2.9646	-3.3583	-3.0854	-3.5563	-3.3417	-3.4021	-3.3	141.973	-102.956	63.158	205.115	24.337	-47.038	92.584	-68.643	178.349	-44.418	143.597	141.144	139.384	-137.619	72.222	172.232	0.0007627	0.00053518	0.00016762	1358.9	6.5577e-06	4.0873e-06	1347.5	366.34	5.2414e-06	6.6424e-06	415.9	139.61	122.21	41.757	3.0025e-06	51.466	0.00057766	0.00054474	0.00014714	1376.1	5.8149e-06	5.942e-06	1373.2	373.16	6.2884e-06	5.8015e-06	426.16	142.82	124.6	42.886	5.9638e-06	53.086	130.054	-47.325	-40.004	-125.395	-15.228	18.393	-125.584	-121.059	-17.891	15.695	-121.054	-117.075	-117.232	-112.059	21.184	-112.750	-8191	255	
465.173	1	1	0	0	0.24517	0.072771	0.11374	0.22197	0.23649	0.11398	0.079833	0.20049	0.097478	0.16442	0.16846	0.1416	0.07988	0.019974	0.20905	0.13372	-2.7354	-2.9271	-3.1792	-3.4562	-3.0667	-3.4062	-3.1771	-3.4458	-3.0187	-3.0104	-3.3	-3.2896	-3.1813	-3.2438	-3.025	-3.1396	-61.388	187.271	33.205	141.587	130.995	-98.310	124.074	130.497	201.585	68.339	-117.961	150.781	204.641	-80.713	73.142	198.967	0.00073016	0.00069321	0.00018769	1356.9	5.8716e-06	3.8742e-06	1349.6	367.65	5.8972e-06	3.9083e-06	419.79	139.31	121.61	41.724	5.0108e-06	51.614	0.00057018	0.00053803	0.00014449	1373.1	6.0081e-06	5.801e-06	1373	373.54	6.0124e-06	5.938e-06	424.65	142.93	124.39	42.929	6.1857e-06	53.132	130.889	-34.485	-26.228	-125.493	-21.082	25.072	-125.654	-120.969	-55.528	17.816	-120.964	-117.097	-117.091	-111.957	-34.136	-112.770	-8191	255	
465.271	1	1	0	0	0.20716	0.20721	0.073311	0.26732	0.23983	0.16761	0.25145	0.26303	0.053166	0.19628	0.057456	0.039858	0.21779	0.27013	0.088292	0.093255	-2.8083	-3.1479	-3.1188	-3.3812	-3.0875	-3.2646	-3.2771	-3.425	-3.3292	-3.1792	-3.2438	-3.1792	-3.1625	-3.5875	-2.875	-3.3646	-129.314	159.107	-76.149	-126.080	-20.467	-44.196	181.224	203.955	158.126	34.390	187.273	-37.746	117.092	190.059	27.854	161.857	0.00084683	0.00082634	0.00019874	1352.9	4.1291e-06	4.7584e-06	1349.6	367.54	6.5599e-06	3.8427e-06	417.78	139.56	121.47	41.867	4.9653e-06	51.638	0.00057423	0.00053622	0.000149	1374.1	5.8564e-06	5.8676e-06	1374.1	373.51	6.0836e-06	5.8775e-06	425	142.98	124.33	42.954	6.1643e-06	53.085	130.594	-56.345	-46.653	-125.518	-46.958	8.036	-125.706	-120.854	-47.784	1.578	-121.675	-117.108	-116.940	-111.758	-5.541	-112.805	-8191	255	
465.390	1	1	0	0	0.10092	0.28151	0.0425	0.37594	0.042006	0.10818	0.099369	0.32883	0.2044	0.14167	0.12455	0.20742	0.1816	0.10298	0.079629	0.20439	-2.8187	-3.0729	-3.1042	-3.1958	-3.2167	-3.1708	-3.4479	-3.175	-3.1771	-2.8563	-3.4354	-3.3146	-3.1521	-3.3958	-3.1208	-3.175	59.963	55.273	87.557	164.948	106.022	98.322	-135.488	144.038	145.412	211.823	183.987	195.456	204.867	-115.829	-51.050	114.146	0.00080389	0.00044731	0.00014853	1357.9	4.7027e-06	4.302e-06	1352.7	367.65	5.1627e-06	2.3887e-06	418.23	139.86	122.18	41.793	7.4845e-06	51.769	0.00056968	0.00054568	0.00015015	1373.6	5.9337e-06	5.8168e-06	1375	373.31	5.9378e-06	6.1053e-06	423.64	143.01	124.59	42.984	6.1324e-06	53.134	125.176	-87.242	-46.580	-125.237	-44.871	-1.469	-125.794	-120.823	-99.316	78.492	-121.721	-117.241	-116.952	-111.991	8.787	-112.751	-8191	255	
465.486	1	1	0	0	0.095939	0.13801	0.16656	0.27743	0.35154	0.068994	0.36711	0.39109	0.16724	0.11628	0.23172	0.030207	0.46543	0.21326	0.19716	0.17672	-2.9208	-3.0021	-2.9354	-3.4292	-2.9938	-3.375	-3.2875	-3.1354	-3.2062	-3.1021	-3.0354	-3.4875	-3.0125	-3.3667	-3.2562	-3.1104	-129.430	81.342	-34.368	191.229	156.715	2.252	148.591	163.633	-113.250	-0.213	-116.591	-93.447	205.176	185.287	15.372	123.952	0.00072805	0.00041873	0.00010129	1353.8	4.6454e-06	5.8953e-06	1351.6	366.95	2.3879e-06	2.0288e-06	418.95	139.48	121.58	41.802	4.9159e-06	51.395	0.00056556	0.00055489	0.00015034	1372.6	6.006e-06	5.6879e-06	1373.8	373.2	5.905e-06	5.8932e-06	425.03	142.85	124.46	42.905	6.0031e-06	53.126	131.820	-17.889	-72.246	-125.511	-38.386	3.969	-125.729	-121.174	-21.598	-1.888	-121.056	-116.941	-117.053	-111.856	-37.092	-112.586	-8191	255	
465.582	1	1	0	0	0.088069	0.019423	0.049807	0.34398	0.28895	0.14726	0.16137	0.34446	0.019658	0.18177	0.072652	0.12464	0.24126	0.2128	0.17151	0.21878	-2.9521	-3.1688	-3.1021	-3.5479	-2.8	-3.4313	-3.2896	-3.1979	-3.4188	-3.2188	-3.1813	-3.5687	-3.2479	-3.3292	-3.2938	-2.9562	181.000	-44.246	176.013	-132.942	182.176	-51.582	121.331	142.784	176.074	170.395	159.515	-97.107	211.079	205.361	101.403	85.503	0.00070661	0.00039896	0.00018847	1356.9	8.0129e-06	7.9165e-06	1350.7	367.38	5.3836e-06	3.0586e-06	423.35	139.38	121.58	41.777	6.4201e-06	51.556	0.00056711	0.00056648	0.00015297	1374.5	6.1724e-06	5.8738e-06	1372.1	373.5	5.8998e-06	5.9833e-06	425.99	142.84	124.42	42.895	6.0641e-06	53.142	128.223	-31.560	-40.557	-125.318	-25.467	13.983	-125.659	-120.987	-37.217	30.501	-121.123	-117.149	-117.168	-112.045	-35.202	-112.730	-8191	255	
465.678	1	1	0	0	0.21383	0.033773	0.1682	0.32033	0.19376	0.15499	0.15709	0.30184	0.079877	0.10257	0.12157	0.057929	0.27001	0.2294	0.10195	0.12126	-2.8417	-3.0792	-2.9	-3.7	-3.1437	-3.2104	-3.4396	-3.1125	-3.0729	-3.1667	-2.8854	-3.3792	-3.2708	-3.2417	-3.475	-3.1646	191.253	70.718	213.879	174.004	-5.019	175.190	155.707	167.662	-18.955	-55.023	183.938	196.600	173.411	-89.173	207.620	-22.999	0.00077043	0.0006948	8.9815e-05	1362.3	3.5259e-06	6.3517e-06	1349	366.81	7.5864e-06	5.0838e-06	421.82	139.58	121.88	41.77	6.3868e-06	51.572	0.00055236	0.0005428	0.00014951	1374.6	6.0316e-06	5.7898e-06	1372.3	373.17	5.8881e-06	6.0257e-06	425.85	142.93	124.44	42.89	6.14e-06	53.104	129.433	-58.433	-44.690	-125.494	-35.464	21.113	-125.677	-121.116	-68.598	24.649	-121.746	-116.963	-117.296	-111.997	-18.299	-112.842	-8191	255	
465.774	1	1	0	0	0.045457	0.07011	0.17352	0.20536	0.1911	0.20889	0.2315	0.27336	0.11503	0.15132	0.088216	0.058522	0.08862	0.35835	0.1586	0.10437	-2.9771	-3.0792	-3.0208	-3.3833	-3.0563	-3.1833	-3.5792	-3.2958	-3.3187	-3.2771	-3.1729	-3.4896	-3.2562	-3.1396	-3.3688	-3.0667	-75.923	76.092	105.854	148.355	-45.238	-54.001	127.164	98.877	93.347	-28.334	-51.051	-120.664	27.971	202.823	17.221	166.085	0.00073338	0.00040523	0.00011894	1355.7	5.1829e-06	5.5664e-06	1351	366.52	3.3904e-06	4.1222e-06	419.62	139.44	121.13	41.778	2.2169e-06	51.413	0.00055525	0.00055005	0.00015265	1373	6.0573e-06	5.8532e-06	1372	372.89	5.9202e-06	6.0365e-06	424.65	142.71	124.12	42.799	5.9778e-06	53.064	127.840	-26.053	-20.783	-125.324	-31.012	8.047	-125.707	-120.984	-73.406	55.545	-121.200	-117.071	-116.984	-112.062	70.370	-112.854	-8191	255	
465.871	1	1	0	0	0.21112	0.16639	0.2085	0.14465	0.073924	0.046881	0.33622	0.20873	0.14035	0.18562	0.23123	0.12883	0.26028	0.2603	0.15837	0.12196	-2.9396	-3.1625	-3.0875	-3.5042	-2.9708	-2.9958	-3.5333	-3.1312	-3.2854	-3.2562	-3.1917	-3.1708	-3.1667	-3.05	-3.2812	-3.1771	-89.338	171.896	-12.565	-72.842	80.428	83.168	168.754	131.008	95.406	192.712	162.825	-58.623	148.348	221.069	115.369	-136.612	0.00074474	0.00048849	0.00017777	1349.1	4.6686e-06	7.4032e-06	1345.1	366.69	4.2419e-06	4.7269e-06	420.83	138.89	121.46	41.764	5.3404e-06	51.53	0.0005571	0.00055593	0.0001526	1370.6	5.9813e-06	5.8282e-06	1369.5	372.82	5.8912e-06	5.9105e-06	425.22	142.5	124.05	42.886	5.9367e-06	53.014	129.637	-28.227	-30.843	-125.260	-38.507	1.337	-125.664	-120.913	-50.119	41.422	-120.529	-117.331	-117.117	-111.889	-19.285	-112.789	-8191	255	
465.991	1	1	0	0	0.12538	0.22991	0.18837	0.11114	0.22069	0.3151	0.4608	0.24187	0.075593	0.20057	0.27277	0.14831	0.24349	0.0046376	0.23834	0.26881	-2.8646	-3.2021	-3.0042	-3.5792	-3.15	-3.1583	-3.5062	-3.2812	-3.0312	-3.3354	-2.9729	-3.2646	-3.1479	-3.2062	-3.2958	-3.125	-31.665	110.547	189.527	219.334	175.038	-133.169	176.314	152.770	-71.450	168.748	52.084	151.717	-132.614	-103.497	69.277	206.665	0.00073643	0.00036588	4.3121e-05	1353.1	3.5598e-06	4.5961e-06	1345.3	366.02	3.4732e-06	3.7678e-06	422.3	139.36	121.49	41.55	4.1396e-06	51.78	0.00055732	0.00055094	0.00014968	1371.2	5.9174e-06	5.9576e-06	1368.7	372.47	5.8615e-06	5.826e-06	425.6	142.44	124.33	42.791	5.8578e-06	53.07	130.804	-20.236	-40.863	-125.390	-34.385	18.058	-125.520	-120.973	-56.451	26.758	-121.618	-117.006	-117.016	-111.858	50.289	-112.530	-8191	255	
466.086	1	1	0	0	0.11571	0.38025	0.10386	0.34925	0.15928	0.1858	0.20368	0.16846	0.16644	0.10023	0.12028	0.15933	0.10337	0.12106	0.12564	0.2282	-2.6417	-3.3771	-3.0354	-3.5833	-3.1208	-3.2021	-3.4833	-3.3312	-3.2188	-3.3292	-3.1063	-3.3521	-3.4125	-3.2188	-3.3417	-3.1542	-10.743	83.784	182.983	158.473	37.173	156.595	199.431	167.736	-29.277	76.813	-43.999	136.592	216.876	46.300	220.851	130.938	0.00075962	0.00036814	0.00010589	1355.4	6.4463e-06	2.8329e-06	1349.9	367.29	3.399e-06	1.458e-06	420.02	139.41	121.49	41.553	4.9158e-06	51.613	0.00055286	0.00053605	0.0001511	1371.2	5.9834e-06	5.9092e-06	1369.4	372.7	5.8348e-06	5.7418e-06	425.9	142.43	124.12	42.78	5.8081e-06	53.106	130.612	-27.627	-59.266	-125.430	-28.788	33.714	-125.628	-121.133	-42.817	38.441	-121.173	-117.104	-116.892	-111.753	-15.739	-112.687	-8191	255	
466.182	1	1	0	0	0.17454	0.050399	0.080663	0.071882	0.1398	0.028787	0.41147	0.29711	0.048023	0.20707	0.088632	0.29157	0.099052	0.08974	0.07187	0.15123	-2.7229	-3.2479	-3.0187	-3.4896	-3.3187	-2.9688	-3.5521	-3.3125	-3.25	-3.4146	-3.0167	-3.4167	-3.2833	-3.1542	-3.2812	-3.3396	-33.427	-13.466	-122.347	-127.864	35.295	-129.562	160.009	180.401	174.888	161.522	115.416	-126.366	210.338	175.558	-102.259	187.268	0.00077334	0.00043129	6.2025e-05	1350.7	5.8876e-06	4.7981e-06	1350.3	366.59	7.6632e-06	4.3468e-06	422.09	139.47	121.82	41.709	4.1579e-06	51.545	0.00055465	0.00052724	0.00014904	1368.7	5.9235e-06	5.8316e-06	1370.3	372.87	5.9476e-06	5.8039e-06	428.05	142.69	124.17	42.782	5.7753e-06	53.087	127.322	-93.607	-66.238	-125.335	-25.547	21.952	-125.798	-120.901	-68.499	-35.060	-120.766	-116.893	-116.943	-111.905	0.094	-112.850	-8191	255	
466.278	1	1	0	0	0.16976	0.11954	0.068751	0.49068	0.18812	0.21462	0.02378	0.28488	0.13283	0.098367	0.27324	0.09458	0.20246	0.23392	0.23534	0.20408	-2.4229	-3.1479	-3.1354	-3.1688	-3.4667	-2.8854	-3.6083	-3.4	-3.0604	-3.2875	-3.1604	-3.2479	-3.2729	-2.9667	-3.3375	-3.1729	-107.031	-112.558	81.366	180.469	-87.895	-31.344	81.312	202.119	45.754	67.084	-45.459	120.616	-131.795	-64.633	148.430	-110.998	0.00080666	0.00055655	0.00012564	1358.1	2.1135e-06	3.2837e-06	1353.1	365.95	4.9252e-06	7.5736e-06	418.64	139.04	121.82	41.678	5.4586e-06	51.428	0.00056179	0.00052632	0.00014992	1370.9	5.9945e-06	5.9865e-06	1370.2	372.82	5.8814e-06	5.7164e-06	425.49	142.65	124.07	42.857	5.6541e-06	52.987	130.197	-63.549	-33.429	-125.398	-65.669	11.672	-125.551	-120.964	-37.763	-17.132	-121.726	-116.901	-117.019	-111.954	-14.235	-112.525	-8191	255	
466.351	1	1	0	0	0.13697	0.093926	0.062257	0.30007	0.23141	0.096658	0.23341	0.30002	0.035768	0.17105	0.18056	0.13535	0.19649	0.34686	0.21838	0.26035	-2.5979	-3.2646	-3.1	-3.2583	-3.3271	-3.1104	-3.5375	-3.2667	-2.9854	-3.3083	-3.1625	-3.2438	-3.2729	-3.1792	-3.1479	-3.4729	29.549	204.869	149.892	191.149	66.581	-108.930	136.774	179.952	205.209	148.338	-89.360	204.453	149.614	-134.589	140.605	184.998	0.00075099	0.00046919	0.00012847	1345.1	4.5314e-06	4.9249e-06	1342.7	365.51	5.5665e-06	5.7077e-06	417.74	138.93	120.98	41.743	8.6344e-06	51.174	0.000547	0.00051265	0.00014972	1367.1	5.767e-06	5.7788e-06	1365	371.57	5.8001e-06	5.6083e-06	423.65	142.29	123.65	42.782	5.748e-06	52.857	130.351	-65.619	-15.969	-125.260	-46.169	13.466	-125.449	-120.943	-32.905	6.757	-121.803	-116.737	-117.021	-111.980	-51.239	-112.775	-8191	255	
466.470	1	1	0	0	0.03192	0.074827	0.064678	0.19748	0.14988	0.089503	0.14099	0.10655	0.12724	0.10723	0.099087	0.06938	0.16045	0.013356	0.08943	0.2223	-2.5583	-3.1208	-3.1208	-3.2542	-3.3896	-2.9854	-3.2854	-3.3312	-2.9021	-3.2812	-3.0479	-2.9646	-3.5062	-3.1625	-3.0875	-3.2396	75.144	-18.003	69.190	-131.011	-109.049	-104.524	136.401	126.118	-59.066	176.093	151.950	-85.623	132.860	21.067	173.229	162.978	0.00085575	0.00050657	0.00011563	1350.1	3.4818e-06	5.5065e-06	1338	365.04	6.8819e-06	9.9243e-07	425.16	138.83	121.23	41.57	4.4963e-06	51.275	0.00055083	0.00051774	0.00015108	1364	5.6925e-06	5.6983e-06	1360.6	371.11	5.6998e-06	5.41e-06	425.37	142.01	123.55	42.595	5.4851e-06	52.774	128.639	-80.737	-54.870	-125.473	-10.801	-3.204	-125.738	-120.919	-42.648	73.109	-121.428	-116.992	-117.052	-111.757	-21.052	-112.641	-8191	255	
466.566	1	1	0	0	0.14728	0.26109	0.10047	0.15173	0.14717	0.026365	0.31672	0.15322	0.19253	0.28217	0.16672	0.12	0.2724	0.27163	0.22965	0.090612	-2.4854	-3.2958	-3.0229	-3.2979	-3.2104	-3.2687	-3.4375	-3.2875	-3.0417	-3.2792	-3.1813	-3.0375	-3.3542	-3.1188	-3.2708	-3.3229	-41.944	164.901	20.883	190.657	113.971	106.010	140.566	117.346	-37.964	-100.432	-130.921	180.849	206.675	-137.196	0.596	-84.652	0.00079993	0.0003785	6.1852e-05	1345.2	3.9455e-06	2.6823e-06	1332.8	363.13	5.9431e-06	4.1319e-06	410.88	138.42	120.42	41.58	4.0797e-06	51.13	0.00053655	0.00049676	0.00014384	1358.1	5.4429e-06	5.7388e-06	1355.4	369.9	5.7786e-06	5.3923e-06	419.83	141.48	123.14	42.557	5.467e-06	52.682	130.722	-13.774	-85.750	-125.266	-17.181	11.755	-125.724	-120.919	-49.746	25.597	-121.445	-116.930	-117.018	-112.066	-34.528	-112.322	-8191	255	
466.663	1	1	0	0	0.080374	0.17643	0.070652	0.25666	0.29933	0.13131	0.3754	0.065369	0.33841	0.056023	0.099998	0.22821	0.23101	0.1169	0.15077	0.27254	-2.6708	-3.1208	-3.0938	-3.2167	-3.2875	-3.0729	-3.125	-3.2938	-2.9688	-3.2833	-3.0583	-3.0104	-3.2896	-3.2875	-3.05	-3.4729	-86.439	-50.717	76.067	216.347	207.970	171.946	149.366	68.221	103.494	14.200	-15.663	132.066	-70.348	216.017	188.101	197.677	0.00076365	0.00052638	0.00014559	1338.6	4.5792e-06	2.2192e-06	1335.8	363.43	6.4758e-06	4.6955e-06	415.49	138.89	120.74	41.446	4.5083e-06	51.345	0.00054184	0.00050037	0.00014658	1354.5	5.5494e-06	5.7678e-06	1356.8	369.86	5.7894e-06	5.4301e-06	422.79	141.65	123.03	42.574	5.6414e-06	52.69	132.324	-52.215	-51.032	-125.265	-6.693	3.692	-125.298	-120.848	-43.112	5.125	-121.005	-117.090	-116.973	-111.782	-10.910	-112.733	-8191	255	
466.759	1	1	0	0	0.16568	0.025001	0.20107	0.17989	0.32113	0.051889	0.22982	0.27614	0.1273	0.15714	0.11056	0.33072	0.40279	0.11214	0.16419	0.11563	-2.2917	-3.2417	-3.0979	-3.0208	-3.2521	-2.8979	-3.4125	-3.3396	-3.0292	-3.1729	-3.4333	-3.0938	-3.2313	-3.2021	-3.0854	-3.2854	-24.435	147.026	20.601	137.999	-91.076	-105.679	105.717	198.450	-136.649	109.740	23.454	218.417	-110.552	150.419	34.788	-108.234	0.00076439	0.00048668	0.00016522	1339.2	3.4487e-06	4.8187e-06	1337.2	364.62	5.4773e-06	3.9528e-06	413.16	138.82	119.88	41.362	5.0061e-06	51.103	0.00054784	0.00051219	0.00014542	1357.1	5.4922e-06	5.857e-06	1356.8	370.42	5.7677e-06	5.5618e-06	421.1	141.94	122.98	42.565	5.6787e-06	52.671	128.557	1.202	-44.674	-125.313	-20.004	14.676	-125.365	-120.892	-62.262	65.099	-120.820	-116.961	-117.022	-111.858	30.941	-112.802	-8191	255	
466.879	1	1	0	0	0.26681	0.29765	0.22132	0.094694	0.11863	0.12262	0.23752	0.10362	0.16961	0.036332	0.3883	0.26574	0.18834	0.19792	0.20086	0.15953	-2.7875	-3.1146	-3.2812	-2.9625	-3.275	-3.1625	-3.1896	-3.4021	-3.0271	-3.05	-3.1979	-3.2104	-3.1625	-3.3417	-2.7729	-3.3937	201.160	25.507	158.149	168.436	-62.148	45.805	155.053	62.555	80.728	-87.517	-32.792	178.210	206.218	206.536	84.304	-44.832	0.00070487	0.00060664	7.3555e-05	1336.5	3.8102e-06	5.3002e-06	1332.8	363.87	5.6342e-06	5.4188e-06	420.13	138.72	120.28	41.349	5.6178e-06	51.264	0.00054474	0.00050762	0.00014309	1354.9	5.4903e-06	5.6509e-06	1355.8	369.6	5.8072e-06	5.4398e-06	421.97	141.71	123.13	42.479	5.445e-06	52.702	130.351	-44.443	-21.014	-125.234	-79.018	13.959	-125.959	-120.937	-58.910	-7.641	-121.006	-117.090	-116.977	-111.796	-44.453	-112.842	-8191	255	
466.951	1	1	0	0	0.070706	0.13217	0.027909	0.18457	0.0046427	0.33327	0.067808	0.2305	0.17211	0.12018	0.043808	0.16099	0.12911	0.2339	0.2841	0.135	-2.6208	-2.9167	-3.2021	-2.9771	-3.1396	-3.2646	-3.2771	-3.3812	-3.0542	-3.225	-3.1333	-3.1667	-3.1458	-3.4562	-3.1688	-3.4188	-100.905	95.526	-34.566	187.727	-75.981	6.051	74.150	195.758	210.191	59.251	84.297	88.484	117.238	184.379	-17.353	213.612	0.0007568	0.0004511	0.00018453	1340.4	1.2841e-06	4.4617e-06	1334.7	363.23	3.8333e-06	4.2073e-06	415.77	138.2	120.64	41.362	2.5574e-06	51.337	0.0005471	0.0005096	0.00014029	1354.1	5.4408e-06	5.5857e-06	1354.7	369.22	5.677e-06	5.4287e-06	419.2	141.63	122.98	42.526	5.6112e-06	52.703	130.332	-80.527	-46.847	-125.098	-27.873	-11.004	-125.658	-120.737	-44.334	15.018	-120.708	-116.992	-116.814	-111.732	41.467	-112.685	-8191	255	
467.072	1	1	0	0	0.033574	0.29214	0.093086	0.27882	0.27735	0.050178	0.068167	0.31157	0.17253	0.10332	0.25166	0.070825	0.19182	0.20633	0.13969	0.31831	-2.7313	-3.0917	-3.3708	-3.0604	-3.2771	-3.3	-3.2083	-3.225	-3.2146	-2.9417	-3.1958	-2.9875	-3.2687	-3.2875	-3.1396	-3.3771	-38.484	187.851	135.661	191.634	144.362	170.257	137.650	141.726	157.684	117.089	-70.314	120.485	-89.300	173.398	-37.421	159.678	0.00077327	0.00029566	8.5826e-05	1333.4	3.993e-06	4.1947e-06	1326.8	362.3	5.0914e-06	2.8814e-06	414.85	137.98	120.45	41.401	3.7775e-06	51.036	0.00054141	0.00051047	0.00013399	1350.9	5.4913e-06	5.5599e-06	1350.6	368.27	5.6559e-06	5.4201e-06	418.71	141.22	122.97	42.474	5.5493e-06	52.606	128.963	11.593	-54.317	-125.208	-11.389	17.476	-125.679	-121.003	-52.513	3.023	-121.077	-117.052	-116.975	-111.759	-29.173	-112.810	-8191	255	
467.166	1	1	0	0	0.062629	0.031857	0.14869	0.32868	0.21181	0.12683	0.41596	0.28365	0.085715	0.11264	0.06843	0.18468	0.17421	0.19576	0.023097	0.18829	-2.9375	-2.9479	-3.3375	-3.3021	-3.0646	-3.3479	-3.3521	-3.2854	-3.4	-2.9938	-3.4854	-3.2	-3.1083	-3.2708	-3.0687	-3.2833	187.904	47.387	-39.527	194.885	89.590	-54.809	147.491	157.197	53.212	103.226	-23.811	-90.129	7.222	166.563	125.597	127.133	0.00074867	0.00063188	0.00011321	1335.6	1.9384e-06	4.5479e-06	1326.5	362.79	6.5486e-06	6.2783e-06	420.44	137.93	120.45	41.241	5.388e-06	51.175	0.00053741	0.00049607	0.00013857	1351.3	5.6029e-06	5.5191e-06	1351.3	368.75	5.5822e-06	5.5493e-06	419.35	141.28	122.9	42.454	5.6506e-06	52.612	133.826	-62.672	-42.504	-125.204	-8.339	24.231	-125.553	-120.781	-52.455	-14.340	-121.903	-117.190	-117.127	-111.906	-13.046	-112.790	-8191	255	
467.262	1	1	0	0	0.2087	0.23764	0.13753	0.032171	0.10508	0.070497	0.25562	0.19192	0.082213	0.040043	0.18784	0.097714	0.13669	0.028333	0.056169	0.33244	-2.7542	-2.925	-3.2792	-3.4104	-2.925	-3.2146	-3.1063	-3.2542	-3.2313	-2.9583	-3.1667	-3.3583	-2.9188	-3.3792	-2.9208	-3.2375	180.535	102.660	-95.274	217.257	-122.258	26.269	209.305	130.761	-87.225	-0.786	-32.090	164.724	175.932	9.035	-75.420	141.940	0.00076707	0.00056255	0.00013108	1335.8	6.694e-06	5.9387e-06	1330.3	362.23	4.9086e-06	2.6736e-06	418.53	138.17	120.49	41.473	3.2318e-06	51.033	0.00053447	0.00049403	0.00013963	1349.8	5.4606e-06	5.4178e-06	1352.4	368.49	5.5838e-06	5.481e-06	419.64	141.16	122.89	42.501	5.651e-06	52.575	131.563	-22.217	-22.530	-125.375	-27.716	-2.194	-125.547	-121.090	-47.752	7.720	-121.547	-116.981	-117.293	-111.706	49.903	-112.529	-8191	255	
467.358	1	1	0	0	0.11413	0.085805	0.1241	0.14484	0.2008	0.20985	0.49104	0.22327	0.15738	0.12644	0.0093335	0.20121	0.0091848	0.51261	0.22037	0.22846	-2.9333	-2.9125	-3.05	-3.4271	-2.8187	-3.45	-3.225	-3.225	-3.1833	-3.0563	-3.2854	-3.4542	-3.0604	-3.3875	-3.0563	-3.1979	110.110	192.957	-63.535	214.677	62.539	96.807	158.361	195.625	156.037	122.722	-104.117	199.497	56.974	-78.329	-93.994	167.704	0.0007512	0.00055196	0.0001795	1332.4	2.7221e-06	4.9909e-06	1324.2	363.2	7.2847e-06	7.8459e-06	412.64	137.94	120.44	41.26	3.369e-06	50.967	0.00052645	0.00050612	0.00013387	1349.1	5.4456e-06	5.3702e-06	1348.9	368.64	5.5007e-06	5.4032e-06	418.21	141.21	122.71	42.407	5.6192e-06	52.544	130.350	-60.705	-19.219	-125.350	-2.695	6.537	-125.664	-121.038	-35.991	14.599	-121.093	-117.058	-117.163	-111.810	-0.294	-112.454	-8191	255	
467.479	1	1	0	0	0.29424	0.10632	0.16064	0.18039	0.17644	0.13893	0.13417	0.30557	0.096581	0.098081	0.11767	0.12101	0.049383	0.16058	0.095496	0.12152	-2.8438	-2.9083	-3.2146	-3.2146	-2.9958	-3.45	-3.3042	-3.1229	-3.2708	-3.2104	-3.2687	-3.475	-3.0312	-3.3438	-3.0167	-3.1771	-81.200	182.872	87.855	151.913	-55.591	59.951	219.294	152.160	132.980	135.078	-138.456	202.126	-134.268	216.164	-26.984	-51.369	0.0007678	0.00050781	0.00013897	1332.2	6.356e-06	5.9021e-06	1323.6	360.97	6.1359e-06	3.0274e-06	418.84	138.11	119.84	41.28	5.8483e-06	50.909	0.00051908	0.00049091	0.00013346	1346.7	5.4368e-06	5.2604e-06	1345.9	367.08	5.4183e-06	5.2785e-06	418.42	140.82	122.31	42.288	5.3826e-06	52.391	130.263	-52.791	-46.646	-125.306	8.712	21.791	-125.757	-121.065	-43.700	-13.881	-121.181	-116.964	-116.778	-111.764	0.752	-112.618	-8191	255	
467.575	1	1	0	0	0.29995	0.093389	0.13692	0.16557	0.06352	0.22643	0.25	0.15521	0.13655	0.1781	0.14171	0.13131	0.20224	0.15079	0.23465	0.13209	-2.9437	-3.0208	-3.1896	-3.5042	-2.9042	-3.1937	-3.2021	-2.9938	-3.3042	-3.0417	-3.1771	-3.3458	-3.1896	-3.1688	-3.0229	-2.9917	-129.796	-32.928	76.672	191.160	-113.698	137.217	164.430	84.571	59.645	-93.484	144.955	185.592	-80.043	155.603	-67.160	156.968	0.0007509	0.00056197	0.00014561	1323.8	4.8198e-06	5.7573e-06	1318.3	360.09	8.2296e-06	5.9543e-06	414.06	137.23	119.77	41.179	3.5025e-06	50.831	0.00049842	0.00048454	0.00013258	1339.5	5.3756e-06	5.1579e-06	1340.7	365.88	5.2372e-06	5.4806e-06	417.41	140.28	122.13	42.224	5.355e-06	52.306	131.276	-35.291	-62.315	-125.187	-25.707	40.107	-125.654	-120.926	-53.626	10.531	-121.478	-117.004	-116.883	-111.668	-25.650	-112.746	-8191	255	
467.647	1	1	0	0	0.12008	0.27978	0.039556	0.21852	0.099826	0.2293	0.16884	0.051115	0.19397	0.10064	0.17771	0.093296	0.28692	0.050851	0.057566	0.098347	-2.9979	-3.0229	-3.1	-3.5438	-3.0271	-3.2583	-3.3187	-3.0771	-3.2313	-3.175	-3.0083	-3.4292	-3.0187	-3.2562	-3.1437	-3.2167	192.389	181.864	69.561	154.351	181.758	-38.376	207.355	-50.357	33.131	101.352	-56.536	-98.013	-124.790	152.491	147.124	-132.990	0.00075492	0.00064611	0.00011819	1319.2	6.3469e-06	3.9601e-06	1312.4	359.85	4.1574e-06	5.1326e-06	418.85	137.46	118.88	40.853	2.7097e-06	50.697	0.00050689	0.00048353	0.00013173	1334	5.3746e-06	5.1375e-06	1334	365.23	5.1964e-06	5.2902e-06	415.85	140.16	121.44	42.091	5.3585e-06	52.096	128.509	-55.142	-46.145	-125.290	-11.020	-15.190	-125.601	-120.943	-42.852	-12.740	-121.206	-116.884	-116.746	-111.745	-18.390	-112.522	-8191	255	
467.767	1	1	0	0	0.090942	0.064139	0.13054	0.38157	0.20102	0.11782	0.25415	0.10971	0.10266	0.18081	0.24435	0.19497	0.12282	0.099557	0.09421	0.19911	-2.8917	-3.0604	-2.9083	-3.4104	-3.1646	-3.0792	-3.4333	-3.1271	-3.4979	-3.0708	-3.0583	-3.4292	-3.0875	-3.0812	-3.3208	-3.0062	134.670	63.052	98.865	197.846	-6.122	-107.411	141.233	-123.581	-85.402	24.665	155.766	172.220	119.656	146.557	-22.192	181.189	0.00075092	0.00072858	0.00015328	1310.4	4.4334e-06	6.7947e-06	1310.9	356.76	3.5011e-06	4.581e-06	415.04	136.98	118.67	41.01	3.9602e-06	50.622	0.00049796	0.00048529	0.00013244	1328.2	5.2879e-06	5.1903e-06	1330.9	363.82	5.2052e-06	5.327e-06	413.93	139.86	121.34	42.11	5.4279e-06	52.138	131.483	-24.715	-28.481	-125.196	-24.945	-7.026	-125.516	-120.701	-5.582	0.878	-121.353	-117.011	-116.922	-111.920	-2.459	-112.457	-8191	255	
467.864	1	1	0	0	0.33636	0.27487	0.18129	0.27552	0.16068	0.022968	0.1264	0.35286	0.056849	0.03262	0.051775	0.17398	0.12031	0.20366	0.21607	0.336	-2.8729	-3.2646	-2.9604	-3.4979	-3.1354	-2.9146	-3.6583	-3.2188	-3.2417	-3.2771	-2.8604	-3.4688	-3.1896	-2.9729	-3.275	-2.9938	22.274	14.350	-34.339	195.570	122.243	132.537	117.132	191.139	153.306	-75.957	-101.809	147.716	115.811	-48.481	109.716	160.908	0.00076307	0.00096964	0.00012351	1310.7	2.6114e-06	3.9391e-06	1305.8	357.45	7.9912e-06	3.1132e-06	405.95	136.19	118.61	40.895	5.1326e-06	50.533	0.00049643	0.00048743	0.00013236	1326.7	5.3929e-06	5.1259e-06	1328	363.37	5.1831e-06	5.1918e-06	413.53	139.62	121.27	41.967	5.2201e-06	52.045	128.558	-47.341	-41.701	-125.305	-2.746	-5.053	-125.616	-120.824	-47.688	29.667	-121.316	-117.133	-116.732	-111.509	-85.314	-112.508	-8191	255	
467.960	1	1	0	0	0.074205	0.10784	0.038859	0.2769	0.040188	0.027289	0.17391	0.17342	0.32944	0.16747	0.22697	0.23139	0.26254	0.14741	0.14728	0.11394	-2.7188	-3.1646	-2.6979	-3.3729	-2.9833	-3.0938	-3.5312	-2.9604	-3.1021	-3.0729	-2.8812	-3.3042	-3.2958	-3.1354	-3.3083	-3.0187	-64.466	64.666	-74.396	182.029	1.235	158.077	165.032	122.304	-93.459	66.161	90.739	-114.925	46.351	111.813	172.221	219.017	0.00068544	0.00049718	0.00013247	1302.6	4.3332e-06	5.0262e-06	1303.7	355.15	5.0157e-06	2.6891e-06	416.86	136.33	118.4	40.903	5.725e-06	50.565	0.00049759	0.00047747	0.0001308	1319.8	5.1876e-06	5.0107e-06	1326.7	362.06	5.1691e-06	5.1991e-06	413.9	139.4	120.96	41.955	5.0862e-06	51.945	131.301	-68.946	-61.325	-125.300	-44.330	-9.137	-125.585	-120.827	-76.974	31.620	-120.564	-116.925	-116.978	-111.683	-21.572	-112.389	-8191	255	
468.056	1	1	0	0	0.1351	0.17292	0.26937	0.065722	0.1406	0.29389	0.25774	0.29715	0.17553	0.37048	0.10343	0.26819	0.21727	0.32439	0.21109	0.20264	-2.4708	-3.1958	-2.9271	-3.4146	-2.9604	-3.0938	-3.5542	-3.1958	-3.1083	-3.1875	-2.9542	-3.0146	-3.3083	-2.9625	-3.325	-2.9708	-8.306	-112.691	-34.217	-70.145	150.966	121.984	136.356	191.829	97.126	-67.417	188.241	-134.660	121.755	164.973	-23.051	143.919	0.00076971	0.00039377	0.00015133	1305	1.4213e-06	3.7869e-06	1302.1	354.96	5.0326e-06	1.8651e-06	408.73	135.62	118.61	40.657	4.3814e-06	50.253	0.00049693	0.00046447	0.00013191	1318.2	5.235e-06	5.1229e-06	1323	361.53	5.2598e-06	5.0821e-06	411.86	139.05	120.91	41.825	5.0346e-06	51.88	131.501	-55.037	-45.257	-125.247	30.650	-5.279	-125.773	-120.958	-49.555	-3.989	-121.094	-116.974	-116.825	-111.712	11.851	-112.543	-8191	255	
468.175	1	1	0	0	0.15569	0.11269	0.14672	0.21781	0.18576	0.28411	0.34961	0.31123	0.18709	0.21884	0.06256	0.1793	0.24862	0.13159	0.14143	0.19356	-2.6729	-3.3187	-2.7146	-3.3833	-3.2438	-2.9521	-3.5875	-3.0521	-3.1521	-3.2917	-2.975	-3.3042	-3.1167	-2.9542	-3.5292	-3.0938	-119.690	220.841	42.038	181.330	-120.741	-6.993	194.939	150.930	143.011	187.258	39.674	-99.335	218.344	168.563	26.763	113.261	0.00073419	0.00055792	0.00012895	1295.8	6.3274e-06	5.803e-06	1301.8	355.89	7.3599e-06	3.4095e-06	407.08	136.3	117.77	40.784	2.9348e-06	50.399	0.00050161	0.00046342	0.00013345	1314	5.2298e-06	5.1515e-06	1322.3	361.75	5.1956e-06	5.0917e-06	410.5	139.24	120.54	41.845	5.0673e-06	51.846	133.128	-60.993	-49.271	-125.171	-51.703	6.905	-125.413	-120.923	-44.215	-8.782	-120.826	-116.946	-116.919	-111.644	-5.318	-112.494	-8191	255	
468.246	1	1	0	0	0.07947	0.20489	0.10911	0.38629	0.12988	0.06207	0.11865	0.29352	0.18165	0.010841	0.23442	0.19736	0.062748	0.028586	0.22895	0.27846	-2.6229	-3.3396	-2.9646	-3.3	-3.2604	-2.85	-3.45	-3.1917	-3.1417	-3.4042	-2.9083	-3.4479	-3.2354	-3.0333	-3.1396	-3.0625	187.821	193.963	204.533	211.103	97.452	-37.929	114.718	138.650	182.674	-40.053	86.125	173.320	199.273	-84.476	68.694	126.971	0.0007858	0.00056502	0.00019632	1299.1	4.208e-06	4.1347e-06	1300.3	355.68	5.3268e-06	6.2346e-06	406.99	135.74	117.78	40.839	4.6148e-06	50.26	0.00050022	0.00045466	0.00013128	1315.2	5.2265e-06	5.1029e-06	1321.9	361.72	5.1724e-06	4.9713e-06	411.34	138.91	120.57	41.834	4.9578e-06	51.808	130.748	-56.675	-37.511	-125.181	-24.289	-6.188	-125.492	-120.772	-37.705	11.567	-120.784	-116.914	-116.911	-111.851	1.851	-112.557	-8191	255	
468.343	1	1	0	0	0.31383	0.15976	0.1151	0.072396	0.058985	0.14546	0.1391	0.24246	0.17741	0.09785	0.035035	0.19028	0.092904	0.15385	0.12728	0.08076	-2.5542	-3.2083	-3.0354	-3.3292	-3.2333	-3.0354	-3.3063	-3.3208	-3.0021	-3.2438	-3.1854	-3.2979	-3.2854	-3.1583	-3.1896	-3.2729	-111.767	146.472	168.782	-119.271	-33.008	204.616	146.257	215.384	118.405	130.479	-105.784	192.439	191.660	-127.161	-98.392	-116.497	0.00067229	0.00066662	6.5358e-05	1299.6	5.4329e-06	4.1836e-06	1297	355.95	5.4354e-06	4.3184e-06	409.75	136.2	117.75	40.719	1.863e-06	50.605	0.00049707	0.00046137	0.00013244	1313	5.2008e-06	5.1257e-06	1320.1	361.64	5.2662e-06	4.9699e-06	411.02	138.86	120.62	41.776	5.0741e-06	51.892	129.810	-42.561	-39.418	-125.292	-34.467	1.277	-125.669	-120.987	-53.572	44.226	-121.225	-116.885	-116.833	-111.630	-9.670	-112.407	-8191	255	
468.439	1	1	0	0	0.15685	0.07808	0.31404	0.16012	0.028959	0.29046	0.23675	0.29849	0.015571	0.20556	0.33606	0.054282	0.43223	0.18732	0.078637	0.095069	-2.6521	-3.1562	-3.175	-3.0271	-3.5	-2.9979	-3.3417	-3.1958	-3.1	-3.0146	-3.3167	-3.175	-3.3063	-3.0938	-3.1375	-3.3729	75.724	-16.109	197.300	207.134	87.043	8.746	143.925	187.001	-46.710	-70.476	-102.292	214.055	202.780	86.651	1.323	175.274	0.00075167	0.0006025	0.00014801	1298.3	3.3932e-06	5.1056e-06	1299.3	355.86	6.304e-06	3.3768e-06	408.18	135.83	118.18	40.74	4.4547e-06	50.338	0.00050222	0.00046351	0.00013337	1313.5	5.1684e-06	5.1323e-06	1319.3	361.81	5.1216e-06	4.9272e-06	409.6	139.06	120.68	41.895	5.0034e-06	51.809	125.094	-76.124	-25.303	-125.295	-26.360	2.793	-125.587	-120.690	-47.042	23.970	-120.953	-116.836	-116.940	-111.579	-27.142	-112.637	-8191	255	
468.559	1	1	0	0	0.19083	0.17156	0.21738	0.264	0.23376	0.13234	0.34164	0.24981	0.092405	0.11128	0.19298	0.28717	0.14193	0.13721	0.23525	0.087696	-2.5479	-3.3583	-3.1271	-3.1521	-3.1521	-3.0938	-3.4417	-3.2854	-3.0979	-3.1042	-3.2417	-3.1188	-3.2708	-3.2	-2.8979	-3.4917	157.906	98.329	-127.571	182.616	39.026	50.220	149.855	115.020	-91.415	-81.509	90.651	121.163	166.844	163.975	-94.357	-27.665	0.00072258	0.00053921	0.00014342	1298.3	4.0271e-06	4.4007e-06	1296.9	355.45	7.1534e-06	6.2493e-06	406.89	135.67	118.1	40.686	4.41e-06	50.297	0.00049822	0.00044862	0.00013196	1313.7	5.0769e-06	5.238e-06	1318.8	361.33	5.2411e-06	4.8661e-06	411.71	139	120.61	41.792	5.0574e-06	51.848	131.355	-64.627	-62.062	-125.276	-22.073	11.015	-125.575	-120.922	-65.516	-0.915	-120.481	-117.027	-116.940	-111.753	-10.425	-112.626	-8191	255	
468.655	1	1	0	0	0.065609	0.10297	0.19567	0.26209	0.31021	0.15134	0.27178	0.054672	0.29143	0.16334	0.16886	0.2202	0.21587	0.053312	0.26313	0.16387	-2.4458	-3.2208	-3.0021	-3.1583	-3.1979	-3.2687	-3.3125	-3.5146	-2.7667	-3.2646	-3.3	-3.2417	-3.3812	-3.2229	-3.1	-3.4396	15.723	-78.273	3.133	176.628	193.361	-52.902	105.719	153.480	-50.092	-14.789	156.055	208.783	218.096	130.056	64.905	143.642	0.00073217	0.00058411	8.7741e-05	1297.6	4.4684e-06	6.4407e-06	1300.6	355.46	7.7322e-06	4.926e-06	401.52	135.56	118.25	40.665	6.0565e-06	50.146	0.00050693	0.00045666	0.00012928	1313.5	5.0387e-06	5.2025e-06	1319.7	361.23	5.276e-06	4.9866e-06	409.33	138.94	120.66	41.814	5.0626e-06	51.747	130.742	-31.173	-33.463	-125.277	-37.332	-2.869	-125.383	-120.833	-33.316	10.359	-122.068	-116.814	-116.762	-111.887	-26.740	-112.501	-8191	255	
468.752	1	1	0	0	0.10131	0.27012	0.187	0.19264	0.21203	0.20229	0.33888	0.33902	0.17494	0.097702	0.20637	0.39988	0.16987	0.066153	0.1364	0.23276	-2.7354	-2.9604	-3.3417	-3.1063	-3.125	-3.0667	-3.2812	-3.4521	-3.0417	-3.0812	-3.1854	-3.0563	-3.3125	-3.3375	-3.0563	-3.3292	34.189	28.025	214.357	213.540	-11.617	-130.694	128.826	189.960	170.368	33.758	-106.518	166.661	-131.416	-53.269	66.856	126.485	0.00070869	0.00059219	0.00022351	1297.2	3.4573e-06	4.0426e-06	1301.1	353.85	5.0465e-06	4.1554e-06	411.24	135.78	117.72	40.725	4.0411e-06	50.272	0.00050004	0.00046795	0.00013109	1312.9	4.9664e-06	5.0975e-06	1318.3	361.17	5.1918e-06	4.9391e-06	412.12	138.89	120.48	41.78	5.0455e-06	51.756	134.007	-54.376	-31.949	-125.367	29.045	32.177	-125.575	-120.728	-42.486	15.313	-121.287	-116.971	-116.772	-111.620	-8.483	-112.199	-8191	255	
468.848	1	1	0	0	0.064788	0.063547	0.41227	0.31096	0.14875	0.16795	0.31254	0.25518	0.18806	0.19006	0.030004	0.20945	0.40929	0.20141	0.14327	0.39382	-2.4958	-3.0333	-3.3521	-3.2021	-3.2958	-2.975	-3.3271	-3.3833	-3.0854	-3.1562	-3.3542	-2.9708	-3.1833	-3.1833	-3.1875	-3.2729	-101.308	17.828	75.759	170.965	-111.645	-126.753	97.549	197.190	-111.701	93.803	79.294	213.652	158.109	179.349	49.255	71.418	0.0007532	0.00040619	0.00010052	1296.2	4.5019e-06	2.4176e-06	1298.2	355.91	5.1193e-06	1.048e-06	405.63	135.68	117.8	40.835	5.2662e-06	50.328	0.00050738	0.00046137	0.00012793	1313.2	5.0105e-06	5.1299e-06	1317.7	361.64	5.2069e-06	4.9902e-06	411.04	138.86	120.49	41.856	5.2178e-06	51.849	134.635	-71.795	-33.330	-125.335	-13.722	13.935	-125.681	-120.800	-65.936	-1.636	-121.007	-116.844	-116.893	-111.788	-32.890	-112.587	-8191	255	
468.944	1	1	0	0	0.28647	0.25121	0.24667	0.26545	0.14416	0.19563	0.36973	0.11147	0.11356	0.062515	0.042199	0.29041	0.20206	0.083313	0.35368	0.15829	-2.7438	-3.1146	-3.0667	-3.1521	-3.1896	-3.3104	-3.2146	-3.4646	-3.0354	-3.0583	-3.3	-2.9833	-3.2062	-3.1271	-3.0896	-3.4146	47.504	-84.894	180.022	133.160	-119.601	185.995	97.551	187.689	136.052	-52.657	106.023	199.554	-109.213	-108.156	-19.075	129.631	0.00073551	0.00034803	9.8339e-05	1299.2	3.4999e-06	3.1078e-06	1296.8	354.91	5.0997e-06	2.8233e-06	401.24	135.8	117.99	40.694	5.3817e-06	50.33	0.00051093	0.00045114	0.00012889	1313.4	4.9959e-06	5.1923e-06	1317.9	360.97	5.3277e-06	4.9685e-06	409.31	139.1	120.42	41.754	5.2109e-06	51.738	132.530	-67.625	-56.192	-125.454	-35.034	-8.850	-125.375	-120.911	-27.916	10.387	-121.533	-116.993	-116.970	-111.998	-21.628	-112.394	-8191	255	
469.040	1	1	0	0	0.22858	0.11742	0.30374	0.32452	0.067749	0.18388	0.17996	0.43961	0.17857	0.020755	0.0071672	0.19984	0.25932	0.33389	0.13269	0.14315	-2.7375	-3.0563	-3.2208	-3.225	-2.9479	-3.1458	-3.0708	-3.4688	-3.0375	-3.1042	-3.375	-3.1208	-3.2646	-3.3875	-2.9667	-3.1958	-18.372	117.805	29.838	217.434	-125.446	87.377	159.401	135.833	151.791	123.128	-50.379	214.032	70.758	216.097	213.969	94.388	0.00075632	0.00044907	5.6841e-05	1296.3	5.2164e-06	3.0094e-06	1296.5	355.68	6.0452e-06	3.6998e-06	400.54	135.42	117.85	40.668	5.3333e-06	50.183	0.00051411	0.00047002	0.000127	1312.7	5.1413e-06	5.1723e-06	1319.7	361.46	5.2205e-06	5.0823e-06	409.6	138.75	120.62	41.759	5.1219e-06	51.772	127.595	-49.454	-58.907	-125.304	23.158	68.306	-125.620	-120.777	-72.783	-6.392	-121.014	-117.134	-116.723	-111.763	-59.549	-112.390	-8191	255	
469.161	1	1	0	0	0.033798	0.076877	0.15352	0.22567	0.16009	0.094365	0.081	0.33452	0.096177	0.095183	0.19864	0.041575	0.074503	0.10203	0.11474	0.057922	-2.7375	-2.9104	-3.225	-3.1708	-3.2146	-3.1375	-3.3667	-3.2083	-3.1146	-2.7958	-3.2687	-3.1417	-3.0687	-3.3083	-2.9271	-3.3438	-31.408	102.635	-121.047	184.510	157.221	-32.657	-27.470	151.729	52.846	141.395	196.234	86.662	150.443	-89.397	-118.418	-114.338	0.00074177	0.00043455	0.00015781	1298.2	6.233e-06	3.3196e-06	1300.7	354.77	6.3428e-06	3.814e-06	406.23	135.91	118.13	40.789	6.3124e-06	50.542	0.00050721	0.00047432	0.00012765	1314.3	5.1316e-06	5.0303e-06	1320.5	360.84	5.2303e-06	5.1717e-06	409.14	138.79	120.53	41.762	5.209e-06	51.893	127.928	-73.540	-79.030	-125.171	-17.472	3.479	-125.564	-120.987	-44.427	35.622	-120.782	-116.859	-116.910	-111.710	-6.648	-112.289	-8191	255	
469.255	1	1	0	0	0.13577	0.23666	0.018978	0.21992	0.3561	0.26413	0.078285	0.020773	0.26043	0.11681	0.042362	0.12681	0.11796	0.17644	0.18295	0.16373	-2.5833	-3.0021	-3.0896	-3.1854	-2.9708	-3.4562	-3.2125	-3.3271	-3.1937	-2.9875	-3.2646	-3.1083	-3.1813	-3.3146	-3	-3.2333	109.975	-27.144	-107.580	205.322	-95.114	184.260	159.977	31.493	122.701	-37.005	-10.999	-94.960	216.195	-135.105	-93.669	-35.505	0.00070898	0.00030795	0.00012289	1300.6	2.0352e-06	2.8469e-06	1295.1	354.96	2.5724e-06	5.4959e-06	405.54	135.25	117.72	40.836	6.3586e-06	50.54	0.00051003	0.00046275	0.00012669	1313.8	5.1799e-06	5.2826e-06	1319.5	361.25	5.2763e-06	5.212e-06	411.16	138.7	120.37	41.799	5.133e-06	51.857	134.419	-68.894	-24.598	-125.214	2.739	11.932	-125.543	-120.675	-61.959	-4.899	-120.696	-116.942	-116.960	-111.673	8.812	-112.300	-8191	255	
469.351	1	1	0	0	0.29444	0.0031826	0.31466	0.16765	0.21929	0.13879	0.20039	0.1465	0.16357	0.10418	0.087904	0.13991	0.29299	0.12487	0.13874	0.12292	-2.9521	-2.7938	-2.9896	-3.2771	-2.9521	-3.2812	-3.1562	-3.1312	-3.2125	-2.8521	-3.2646	-3.0521	-2.925	-3.3958	-3.0167	-3.0417	179.177	54.057	164.835	100.058	-128.507	218.898	85.803	30.135	-44.404	142.565	131.146	111.689	185.629	-123.331	-53.920	-1.999	0.00076323	0.00043432	0.00014904	1294.8	4.8548e-06	4.0009e-06	1298	356.35	8.701e-06	4.6406e-06	406.61	136.16	118.17	40.899	6.0834e-06	50.408	0.00050085	0.00046951	0.00012745	1312.2	5.2169e-06	5.0893e-06	1319.3	361.27	5.2788e-06	5.175e-06	409.52	139	120.52	41.86	5.1425e-06	51.779	127.800	-51.202	-64.286	-125.291	-29.443	30.239	-125.534	-120.949	-101.057	17.931	-121.429	-116.718	-117.067	-111.589	2.186	-112.628	-8191	255	
469.472	1	1	0	0	0.22324	0.09681	0.15978	0.28113	0.082483	0.071036	0.17994	0.2637	0.17483	0.27873	0.19445	0.22971	0.047441	0.11086	0.1212	0.21292	-2.9292	-2.9125	-3.2604	-3.3917	-2.9167	-3.2313	-3.3104	-3.2438	-3.1708	-3.0333	-3.0708	-3.2833	-2.8937	-3.4062	-2.9708	-3.1792	154.826	30.106	-73.759	213.029	119.079	-53.044	154.544	125.966	176.381	177.939	194.697	208.335	100.096	-116.267	158.410	219.385	0.00068802	0.00052032	0.00018781	1294.7	4.8703e-06	4.2143e-06	1297.4	355.54	5.9389e-06	4.4067e-06	410.37	135.75	117.74	40.788	5.1616e-06	50.603	0.00050773	0.00047201	0.000129	1312.6	5.1118e-06	4.9114e-06	1318.8	361.45	5.2493e-06	5.2152e-06	411.28	138.87	120.38	41.822	5.2199e-06	51.802	127.515	-25.648	-24.350	-125.370	-25.448	-6.756	-125.486	-120.811	-54.763	6.355	-120.774	-117.073	-116.878	-111.737	-21.692	-112.748	-8191	255	
469.544	1	1	0	0	0.082064	0.033686	0.23692	0.19572	0.16209	0.24584	0.32168	0.049251	0.16421	0.17045	0.26103	0.20281	0.2083	0.24947	0.15682	0.28692	-2.9021	-2.8937	-3.2667	-3.2083	-3.0375	-3.1792	-3.3229	-3.1875	-3.2042	-3.0583	-3.125	-3.3979	-2.9854	-3.2062	-3.1437	-3.2438	-138.475	25.531	-7.923	134.652	219.957	177.670	170.983	133.269	-116.958	217.160	-32.787	176.995	196.721	-125.636	88.048	159.200	0.0007103	0.00062946	0.00014375	1299.7	5.7786e-06	5.4498e-06	1298.4	355.73	8.3101e-06	4.089e-06	407.31	135.8	118.1	40.575	5.79e-06	50.49	0.00049133	0.00047684	0.00012657	1313.9	5.0949e-06	4.8212e-06	1319.5	361.61	5.1133e-06	5.153e-06	410.39	138.86	120.43	41.764	5.3012e-06	51.919	131.018	-49.102	-24.386	-125.465	-62.987	5.938	-125.624	-120.803	-70.642	0.440	-120.765	-117.010	-117.017	-111.745	-22.862	-112.431	-8191	255	
469.640	1	1	0	0	0.1279	0.14971	0.17369	0.43824	0.30054	0.17579	0.18836	0.3168	0.18854	0.16207	0.28656	0.10055	0.015418	0.040142	0.31576	0.10022	-2.9375	-3.0417	-3.125	-3.3458	-2.8875	-3.1208	-3.3521	-3.0729	-3.1562	-3.1521	-3.1479	-3.2604	-3.2396	-3.1042	-3.1354	-3.1292	-87.122	-49.331	44.124	-109.492	125.300	192.119	149.232	180.595	32.028	-39.836	-89.797	87.149	215.462	-8.279	143.068	-135.264	0.00066943	0.00058294	4.5469e-05	1294.7	2.8356e-06	7.0198e-06	1301	355.97	4.8291e-06	3.4718e-06	408.07	135.6	118.34	40.659	5.1824e-06	50.23	0.00048998	0.000483	0.00012893	1313.3	5.1296e-06	5.0519e-06	1318.9	361.76	5.1053e-06	5.179e-06	409.97	138.81	120.58	41.719	5.1453e-06	51.808	129.509	-44.264	-25.297	-125.119	-20.514	40.354	-125.803	-120.787	-51.824	-5.520	-120.824	-116.954	-117.074	-111.784	-8.435	-112.537	-8191	255	
469.736	1	1	0	0	0.016998	0.32921	0.13573	0.11834	0.16648	0.082873	0.18587	0.36588	0.032902	0.14095	0.16186	0.12234	0.057148	0.1129	0.17617	0.35936	-2.8521	-3.1708	-2.8292	-3.3187	-2.7833	-3.1667	-3.2812	-2.8979	-3.1896	-3.0833	-3.0396	-3.3958	-2.9708	-3.1875	-3.2021	-3.1375	-46.679	149.317	84.956	163.165	148.258	118.677	193.325	205.883	110.468	130.371	211.298	152.351	52.311	-115.434	167.970	210.983	0.00071105	0.00051936	9.1772e-05	1294.9	3.5292e-06	1.3917e-06	1298.5	354.31	3.1644e-06	2.67e-06	410.68	135.78	118.16	40.685	4.6179e-06	50.367	0.0004942	0.00048142	0.00012922	1312.9	5.2024e-06	4.977e-06	1320.3	360.79	5.0652e-06	5.2397e-06	411.68	138.74	120.63	41.817	5.2164e-06	51.816	126.999	-70.787	-46.609	-125.290	-86.988	23.238	-125.675	-120.940	-49.881	-4.205	-120.928	-117.030	-116.979	-111.804	15.174	-112.608	-8191	255	
469.856	1	1	0	0	0.29378	0.15654	0.15793	0.14813	0.21542	0.24165	0.29117	0.053242	0.16897	0.163	0.20996	0.34787	0.26977	0.34821	0.081191	0.19072	-2.9	-3.1146	-2.8833	-3.5667	-2.9771	-3.2062	-3.4208	-3.1979	-3.2354	-3.2667	-2.9604	-3.3854	-3.3	-3.2396	-3.3458	-3.2562	213.833	81.854	-94.002	-130.838	-101.946	-124.612	203.016	177.262	-27.802	96.727	209.337	97.732	78.330	-88.046	-138.120	163.262	0.00073237	0.00065634	0.00010915	1296.2	1.928e-06	5.3117e-06	1295.9	355.78	5.3152e-06	4.841e-06	405.67	135.77	118.07	40.741	4.9556e-06	50.432	0.00049479	0.0004883	0.00013223	1314.9	5.3593e-06	5.0051e-06	1321.1	361.86	5.107e-06	5.2479e-06	411.62	138.88	120.55	41.886	5.0956e-06	51.905	129.237	-48.136	-71.207	-125.236	3.713	29.574	-125.559	-120.844	-41.788	32.628	-121.538	-117.098	-116.843	-111.837	7.072	-112.540	-8191	255	
469.951	1	1	0	0	0.15061	0.19296	0.1409	0.070566	0.12189	0.14754	0.38978	0.2014	0.24264	0.16172	0.16909	0.2768	0.099667	0.1338	0.027049	0.15562	-2.9375	-3.1104	-3.0479	-3.2188	-3.2104	-2.9979	-3.6479	-3.0271	-3.3771	-3.3667	-3.0583	-3.2833	-3.1542	-3.1896	-3.2771	-3.1937	152.303	60.286	-82.305	79.965	127.263	-94.320	174.654	-127.557	184.155	-89.080	-4.520	-110.858	-12.273	97.567	86.337	-77.957	0.00074372	0.00071835	0.00010329	1299.3	3.7403e-06	6.4894e-06	1300.4	355.78	2.8263e-06	5.7935e-06	409.23	136.13	118.59	40.749	4.4325e-06	50.729	0.00048499	0.00047247	0.0001261	1315.4	5.3048e-06	4.95e-06	1320.5	361.98	5.0429e-06	5.2309e-06	412.31	139.1	120.73	41.873	4.967e-06	51.956	130.783	-76.225	-55.496	-125.351	-57.072	15.599	-125.550	-120.911	-35.179	-15.703	-121.275	-116.934	-117.097	-111.810	-12.572	-112.654	-8191	255	
470.047	1	1	0	0	0.17006	0.14778	0.10679	0.21817	0.22548	0.022821	0.17082	0.24912	0.26202	0.16907	0.17665	0.084393	0.16985	0.32114	0.21229	0.19348	-2.5958	-3.075	-2.9188	-3.3167	-3.1875	-3.0708	-3.525	-3.025	-3.1604	-3.1333	-3.2396	-3.2896	-3.2521	-3.125	-3.2542	-3.4375	119.931	64.055	151.474	145.276	146.206	55.324	172.627	135.769	-127.077	74.951	95.871	98.399	211.783	179.086	-52.348	149.163	0.00076224	0.00047964	0.00015003	1304.8	2.5611e-06	4.7491e-06	1297	356.61	2.2261e-06	3.8366e-06	412.1	136.74	118.45	40.78	2.608e-06	50.669	0.00049564	0.00047381	0.00012661	1318.1	5.1189e-06	5.0459e-06	1322.1	362.86	5.1521e-06	5.0921e-06	413.22	139.37	121.01	41.912	5.0094e-06	52.054	132.852	-52.153	-46.091	-125.391	-33.336	-17.302	-125.695	-120.748	-36.512	59.626	-121.691	-116.980	-116.952	-111.801	-5.687	-112.718	-8191	255	
470.120	1	1	0	0	0.12179	0.03511	0.085706	0.19143	0.22129	0.25458	0.11581	0.12048	0.26942	0.15838	0.22292	0.14098	0.17715	0.13816	0.11645	0.28084	-2.5062	-3.2917	-3.0146	-3.3875	-3.2896	-2.8292	-3.55	-3.1896	-3.0229	-3.425	-2.9375	-3.475	-3.2833	-3.2354	-3.0896	-3.3604	54.264	-103.431	-108.156	160.311	212.753	36.543	158.916	91.949	62.117	93.561	149.496	200.010	158.609	115.794	60.211	33.412	0.00076908	0.00034352	0.00015462	1311.2	5.9755e-06	4.0878e-06	1308.3	357.64	6.2015e-06	5.6464e-06	407.03	136.63	118.9	40.855	6.978e-06	50.649	0.00049944	0.00047602	0.00013184	1325.7	5.2568e-06	5.0423e-06	1327	363.57	5.2278e-06	5.1146e-06	411.66	139.47	121.12	42.008	5.0691e-06	52.029	129.164	-54.929	-70.054	-125.342	-53.786	31.668	-125.443	-120.835	-57.667	-1.954	-121.352	-116.875	-116.798	-111.832	-26.142	-112.801	-8191	255	
470.239	1	1	0	0	0.11564	0.14778	0.079466	0.33991	0.20546	0.45762	0.27856	0.4333	0.12798	0.13375	0.22874	0.12309	0.31057	0.31784	0.13523	0.15993	-2.7125	-3.1208	-3.0062	-3.5312	-3.2875	-2.8646	-3.5	-3.2042	-3.0083	-3.45	-3.1667	-3.2417	-3.4313	-3.2104	-3.2292	-3.2562	166.598	59.549	-90.541	123.817	86.684	-81.455	157.167	163.173	13.617	31.811	215.829	199.871	117.736	174.832	-104.735	79.813	0.00075698	0.0006813	0.00015753	1304.6	3.6447e-06	4.6073e-06	1302.2	356.22	4.785e-06	4.7337e-06	410.51	136.32	118.41	40.843	6.1909e-06	50.571	0.00049172	0.00046465	0.00013337	1319.3	5.1703e-06	5.0955e-06	1323.9	362.38	5.1868e-06	4.9481e-06	414.14	139.27	120.81	41.936	5.0215e-06	52.088	125.361	-29.188	-47.971	-125.180	-24.466	6.930	-125.533	-120.789	-35.390	-24.890	-121.302	-117.097	-116.924	-111.729	-34.304	-112.575	-8191	255	
470.335	1	1	0	0	0.027165	0.1914	0.15371	0.24366	0.33453	0.13628	0.13408	0.044766	0.22171	0.20129	0.16569	0.040498	0.077999	0.1652	0.29685	0.18735	-2.5438	-3.3854	-3.1417	-3.4	-3.3208	-2.8583	-3.5604	-3.2917	-2.9917	-3.2917	-3.1583	-3.3667	-3.4521	-3.2	-3.2896	-3.3937	48.473	187.024	-48.707	194.591	42.585	-33.439	103.148	92.309	18.537	-24.454	138.757	-107.713	-129.747	186.505	30.903	-44.474	0.00069522	0.00066288	0.00012436	1302.5	3.8815e-06	2.3095e-06	1305.3	356.56	7.9357e-06	5.1813e-06	409.52	137.02	118.61	41.067	3.4184e-06	50.632	0.00050118	0.00045762	0.00013481	1320.4	5.2862e-06	5.245e-06	1323.8	362.87	5.2633e-06	5.0807e-06	413.1	139.7	121.19	42.018	5.0712e-06	52.021	131.389	-39.879	-16.667	-125.280	-42.467	-32.550	-125.643	-120.740	-69.295	2.564	-121.309	-116.874	-117.037	-111.804	1.077	-112.541	-8191	255	
470.432	1	1	0	0	0.096161	0.13236	0.13605	0.21773	0.067671	0.12273	0.37001	0.43456	0.13913	0.19705	0.18381	0.10618	0.079739	0.10522	0.10429	0.10235	-2.6854	-3.2333	-3.1146	-3.1833	-3.1583	-3.1875	-3.3854	-3.4188	-3.1562	-3.4125	-3.1896	-3.0771	-3.6167	-3.1958	-3.1771	-3.3208	40.190	101.111	52.027	125.542	-100.098	200.638	220.861	190.382	-3.625	104.773	-23.417	104.038	-0.100	-67.712	-4.754	-89.906	0.00065837	0.00050623	0.00019033	1307.9	5.4634e-06	3.8051e-06	1306.2	356.8	7.3676e-06	5.5751e-06	410.85	136.26	117.93	40.958	4.8959e-06	50.443	0.00050815	0.00046596	0.00013342	1322.3	5.1223e-06	5.1777e-06	1324.6	363.26	5.162e-06	4.9037e-06	413.78	139.4	120.67	41.959	4.8964e-06	51.977	128.782	-72.072	-46.512	-125.318	-67.148	20.891	-125.461	-120.789	-47.433	3.860	-121.032	-116.763	-117.110	-111.798	-15.344	-112.464	-8191	255	
470.552	1	1	0	0	0.11354	0.14893	0.045849	0.33074	0.056665	0.11203	0.45468	0.20158	0.18544	0.29461	0.20596	0.4865	0.071625	0.21101	0.26985	0.23782	-2.5771	-3.3604	-3.3458	-3.3	-3.3937	-3.0646	-3.4896	-3.5042	-3.0646	-3.3354	-3.325	-3.1354	-3.3812	-3.2271	-3.0458	-3.5875	139.225	116.548	123.610	162.301	-55.492	-3.447	196.262	177.793	183.186	196.364	109.695	210.147	-138.615	-62.128	57.550	212.819	0.00074514	0.00065408	0.00012512	1299.1	4.1835e-06	2.7572e-06	1300.9	356.04	7.05e-06	3.5412e-06	409.6	136.56	117.98	40.998	5.9346e-06	50.543	0.00049147	0.00043506	0.00012703	1317.4	4.971e-06	5.0245e-06	1321.9	362.79	5.064e-06	4.841e-06	414.23	139.47	120.8	42.012	4.8974e-06	51.989	128.037	-47.322	-48.142	-125.257	-27.327	19.273	-125.511	-120.819	-75.128	22.322	-121.737	-117.009	-116.755	-111.515	-4.936	-112.699	-8191	255	
470.648	1	1	0	0	0.19705	0.40448	0.12323	0.23848	0.24747	0.12077	0.24412	0.2696	0.29455	0.12461	0.12398	0.22778	0.2079	0.163	0.35609	0.13767	-2.5312	-3.2313	-3.0062	-3.1646	-3.1875	-3.2833	-3.1396	-3.3708	-2.9875	-3.2833	-3.1458	-3.2479	-3.3063	-3.2042	-3.1646	-3.3896	-103.288	30.504	182.500	209.338	-26.940	91.188	153.390	205.536	-20.966	73.498	177.273	138.726	-115.816	19.134	-115.977	187.193	0.00072732	0.00062015	0.0001131	1302.6	4.5635e-06	6.0127e-06	1303.4	355.71	5.4931e-06	3.1719e-06	411.04	136.5	118.31	40.886	6.7138e-06	50.673	0.00049695	0.00044766	0.00012959	1321.2	5.0867e-06	5.1159e-06	1324.7	362.44	5.116e-06	4.7597e-06	412.68	139.55	121	41.947	4.8754e-06	52.049	129.412	-62.298	-56.817	-125.286	-17.086	21.428	-125.403	-120.766	-85.242	-26.571	-121.213	-117.147	-117.005	-112.032	-22.768	-112.620	-8191	255	
470.745	1	1	0	0	0.099203	0.11751	0.21499	0.13967	0.061355	0.24196	0.23392	0.14268	0.25135	0.15343	0.15637	0.097238	0.19344	0.047959	0.21124	0.039096	-2.5396	-3.0833	-3.3375	-3.0125	-3.1625	-3.0687	-3.2521	-3.4958	-3.0333	-3.35	-3.3729	-3.2521	-3.3896	-3.3312	-2.9	-3.5333	-117.167	129.974	161.213	142.591	84.180	202.951	140.665	-103.967	-128.349	-51.502	134.769	-120.239	172.533	192.222	210.887	165.280	0.00073941	0.00054262	0.0001053	1307.5	3.9486e-06	3.8545e-06	1306.4	356.6	4.9801e-06	4.0327e-06	410.37	135.7	118.34	40.909	4.8725e-06	50.949	0.00048803	0.00044382	0.00012697	1321.7	4.8937e-06	5.1163e-06	1325.8	362.45	5.1595e-06	4.8273e-06	411.71	139.24	120.84	41.94	4.9787e-06	52.074	128.363	-65.105	-50.608	-125.393	-14.693	17.690	-125.355	-121.022	-46.181	32.245	-121.563	-116.855	-116.954	-111.851	3.224	-112.442	-8191	255	
470.841	1	1	0	0	0.041127	0.084771	0.092367	0.15832	0.19941	0.27414	0.071676	0.078874	0.030608	0.172	0.10513	0.082813	0.22384	0.25426	0.10301	0.14096	-2.5333	-3.1458	-3.1667	-3.1979	-3.1458	-3.1729	-3.3792	-3.2583	-3.125	-3.1333	-3.2458	-3.2375	-3.3417	-3.2979	-2.9875	-3.4396	88.263	112.104	-54.734	131.876	21.500	-101.260	151.789	209.711	1.647	-28.175	5.324	65.209	-124.189	-88.496	-120.035	218.185	0.00077501	0.00030758	0.00014274	1301.4	3.9416e-06	6.8483e-06	1304.4	357.76	7.9932e-06	5.4047e-06	405.41	136.7	118.47	40.882	2.5929e-06	50.448	0.00049617	0.0004477	0.0001282	1319.7	4.9339e-06	5.0649e-06	1323.8	362.96	5.2554e-06	4.9021e-06	412.12	139.54	121.1	41.923	4.9966e-06	51.926	129.020	-63.721	-34.774	-125.222	9.506	4.732	-125.530	-120.636	-55.558	-32.822	-121.125	-116.961	-116.741	-111.786	-30.519	-112.753	-8191	255	
470.937	1	1	0	0	0.18376	0.21429	0.11524	0.34253	0.040164	0.13517	0.28414	0.23982	0.17383	0.26148	0.14451	0.11138	0.13618	0.11478	0.34945	0.23893	-2.4708	-3.2104	-3.2771	-3.2167	-3.1479	-3.1646	-3.1562	-3.3625	-3.0396	-3.0563	-3.1917	-2.9792	-3.3083	-3.3917	-2.9729	-3.3917	129.748	-94.330	24.980	215.861	-138.832	-134.152	-128.694	191.273	-136.506	-68.822	219.317	140.280	212.929	-92.153	208.369	128.242	0.0007209	0.00045481	0.0001594	1302.4	3.0118e-06	6.9916e-06	1304	356.88	4.6622e-06	4.6695e-06	406.71	136.08	118.79	40.9	7.6256e-06	50.703	0.00049874	0.00045591	0.0001264	1320.1	4.8679e-06	5.1167e-06	1323.5	362.89	5.2081e-06	4.9299e-06	411.38	139.39	121.18	41.944	5.0969e-06	52.013	133.218	-32.895	-44.657	-125.234	-38.486	37.037	-125.727	-120.862	-38.904	-13.643	-120.919	-116.952	-116.755	-111.640	-5.811	-112.532	-8191	255	
471.033	1	1	0	0	0.28724	0.12899	0.2768	0.2426	0.17327	0.16666	0.033489	0.39096	0.1593	0.041108	0.17627	0.24723	0.19243	0.23096	0.22249	0.11184	-2.6583	-2.9625	-3.2625	-3.1	-3.3583	-3.3646	-3.2583	-3.3771	-3.3187	-2.9708	-3.4083	-3.1625	-3.4125	-3.1833	-3.2167	-3.2896	70.059	198.966	192.121	180.060	-60.152	-46.216	-49.103	173.154	176.979	191.715	120.352	160.867	211.573	204.348	40.673	201.973	0.00065588	0.00033356	0.0001339	1306.3	6.2487e-06	2.6426e-06	1305.4	357.44	6.2391e-06	7.3382e-06	406.81	136.27	118.77	40.685	5.3113e-06	50.525	0.00049681	0.00044487	0.00012702	1323	4.9597e-06	5.1137e-06	1325.7	363.03	5.1275e-06	4.8854e-06	411.07	139.22	120.98	41.852	5.0124e-06	51.946	134.935	-19.051	-23.086	-125.148	-38.639	-21.214	-125.597	-120.752	-24.380	-15.769	-121.784	-117.105	-116.838	-111.752	-20.069	-112.765	-8191	255	
471.152	1	1	0	0	0.13448	0.069672	0.19787	0.27615	0.17438	0.17793	0.2631	0.11029	0.14338	0.31416	0.22246	0.33234	0.049243	0.19053	0.096734	0.10237	-2.7625	-2.9729	-3.2812	-3.325	-3.2417	-3.3292	-3.1667	-3.4271	-3.3688	-2.9292	-3.4146	-3.2375	-3.4771	-3.3521	-3.0438	-3.4729	-61.270	124.940	-43.309	162.255	17.577	-60.400	142.301	58.262	-22.134	126.077	149.810	216.920	-52.588	125.920	-19.276	158.647	0.00074351	0.00062521	0.00017237	1305.1	2.0288e-06	1.7044e-06	1304.7	357.03	7.1588e-06	4.0044e-06	402.91	136.65	118.05	40.861	6.2732e-06	50.55	0.00049482	0.00045488	0.00012433	1320.3	4.9136e-06	5.0599e-06	1325.1	363.26	5.2418e-06	4.9222e-06	409.31	139.59	120.89	41.898	5.0361e-06	51.957	132.623	-45.177	-51.770	-125.100	-35.201	24.441	-125.527	-120.611	-43.776	14.701	-120.791	-116.936	-116.842	-111.860	-5.194	-112.513	-8191	255	
471.248	1	1	0	0	0.11778	0.22452	0.3256	0.26892	0.2246	0.21779	0.14182	0.082913	0.31265	0.10324	0.16141	0.26846	0.072055	0.14492	0.13595	0.26976	-2.7917	-2.9	-3.3167	-3.3208	-3.0396	-3.3854	-3.2208	-3.4125	-3.0667	-3.0854	-3.2313	-3.2792	-3.0396	-3.575	-2.9708	-3.5292	-29.824	148.794	144.458	160.480	19.612	-18.362	111.891	167.048	63.651	-95.164	144.943	139.871	-35.414	198.454	130.122	182.160	0.00072587	0.00075035	0.00014177	1309.2	3.643e-06	5.533e-06	1302.7	357.49	6.3078e-06	3.7845e-06	410	136.75	118.43	40.994	1.6421e-06	50.718	0.00049628	0.00046208	0.00012462	1320.7	4.981e-06	4.9176e-06	1323.8	362.99	5.2324e-06	5.0352e-06	413.16	139.5	120.97	41.973	5.1698e-06	52.05	129.042	-60.460	-15.612	-125.366	-34.869	-3.305	-125.539	-120.830	-25.762	13.642	-121.618	-116.911	-116.792	-111.811	-55.112	-112.601	-8191	255	
471.344	1	1	0	0	0.079595	0.181	0.18036	0.47762	0.1798	0.10189	0.16093	0.16939	0.18754	0.053642	0.092202	0.062635	0.26486	0.15356	0.068336	0.21425	-2.7417	-3.0125	-3.2188	-3.2938	-2.8854	-3.4437	-3.3312	-3.4167	-3.2188	-3.0792	-3.2542	-3.3208	-3.2229	-3.3208	-3.0375	-3.1792	110.666	107.372	112.230	180.913	80.015	-65.136	-104.108	139.283	-51.171	-74.825	56.132	-68.575	144.729	87.908	80.126	185.267	0.00071464	0.00055355	0.00012459	1307.4	3.0079e-06	3.1869e-06	1301.4	357.94	5.8558e-06	3.3507e-06	413.88	136.59	118.89	40.85	6.7836e-06	50.307	0.00049453	0.00046153	0.000121	1321.5	5.0195e-06	4.876e-06	1323.2	363.08	5.0892e-06	4.9451e-06	411.32	139.36	121.02	41.892	5.0886e-06	51.837	131.609	-39.925	-18.516	-125.353	-15.205	-82.585	-125.580	-120.896	-58.104	50.875	-121.698	-117.028	-116.927	-111.684	25.045	-112.354	-8191	255	
471.416	1	1	0	0	0.17187	0.2799	0.05525	0.33081	0.32187	0.041584	0.18305	0.096943	0.21706	0.21189	0.10691	0.16506	0.079884	0.27991	0.018448	0.18383	-2.7542	-3.0542	-3.3167	-3.5396	-2.9479	-3.3708	-3.2354	-3.1125	-3.3479	-3.0604	-3.2042	-3.2938	-2.9813	-3.2208	-3.0354	-3.2604	202.342	-19.091	-119.126	124.641	76.491	142.001	145.757	127.360	124.713	206.654	210.995	188.371	205.151	192.956	-109.637	157.448	0.00076589	0.00034102	0.00015269	1297.4	4.2513e-06	3.9117e-06	1302.5	356.91	6.7505e-06	4.0183e-06	411.01	136.12	118.87	40.879	2.6073e-06	50.621	0.0004962	0.00045153	0.00012564	1318.5	4.9953e-06	4.7241e-06	1322.9	362.99	5.0149e-06	5.036e-06	412.86	139.31	121	41.961	5.1581e-06	52.059	127.528	-39.460	-22.699	-125.233	-18.628	-23.055	-125.709	-120.936	-27.600	39.891	-121.159	-117.014	-116.641	-111.776	-25.457	-112.359	-8191	255	
471.512	1	1	0	0	0.1983	0.3035	0.18682	0.17279	0.18586	0.12152	0.019991	0.17644	0.1854	0.090477	0.11371	0.28996	0.30208	0.16047	0.080246	0.091832	-2.8125	-2.9917	-3.0083	-3.5479	-2.9583	-3.3396	-3.3146	-3.2833	-3.1458	-3.1479	-2.9271	-3.5792	-2.8646	-3.5292	-3.1271	-3.1229	-117.001	52.241	-106.175	190.183	9.826	-63.164	169.550	70.531	60.660	-85.395	105.716	19.798	-112.591	-102.819	-80.270	-78.561	0.00075017	0.00045147	0.00014641	1302.4	6.0461e-06	7.777e-06	1299.8	356.1	5.2745e-06	1.8241e-06	411.76	136.55	118.07	40.939	5.596e-06	50.507	0.0004898	0.00045463	0.00012648	1319.2	5.15e-06	4.833e-06	1324	362.26	4.9798e-06	4.9475e-06	410.92	139.47	121.03	41.987	5.1957e-06	51.976	130.673	-66.598	-19.222	-125.171	-23.228	-14.423	-125.534	-120.834	-40.575	-31.242	-121.669	-117.004	-116.941	-111.676	-21.384	-112.417	-8191	255	
471.633	1	1	0	0	0.1345	0.14225	0.23894	0.24337	0.069841	0.19889	0.27537	0.24627	0.028433	0.22131	0.18971	0.31245	0.39637	0.14091	0.20916	0.17995	-2.8187	-2.9938	-2.9542	-3.5417	-3.1688	-3.2771	-3.4521	-3.1125	-3.2062	-3.0667	-3.0458	-3.3604	-3.0312	-3.2979	-3.2438	-3.0625	-21.852	101.626	-80.567	175.015	57.398	-44.140	183.484	178.707	-135.059	110.272	-72.062	145.038	-129.449	205.862	131.176	122.969	0.00074987	0.00039318	0.00018197	1301.3	6.023e-06	6.7738e-06	1302.4	357.06	4.7236e-06	5.1e-06	413.04	136.58	118.19	40.985	2.3355e-06	50.436	0.00049322	0.00046315	0.0001241	1319.9	4.9848e-06	4.8046e-06	1322.9	362.55	4.9831e-06	4.9174e-06	412.88	139.26	120.85	41.983	5.0521e-06	51.92	133.345	-43.154	-27.903	-125.274	11.304	5.874	-125.518	-120.926	-64.720	-2.690	-121.320	-116.986	-116.815	-111.706	-24.374	-112.730	-8191	255	
471.729	1	1	0	0	0.079186	0.26571	0.11862	0.38486	0.11342	0.074352	0.51186	0.26266	0.1562	0.11789	0.046495	0.2091	0.10279	0.14498	0.2218	0.39348	-2.875	-2.95	-3.3354	-3.35	-3.0708	-3.1625	-3.5	-3.2062	-3.1688	-3.3146	-3.1354	-3.5062	-3.2625	-3.2062	-3.1854	-3.2042	20.232	139.189	147.618	169.032	60.383	141.143	141.816	-127.262	-124.291	211.956	-114.664	79.255	171.202	-87.272	8.736	78.749	0.00075972	0.00064661	0.00017158	1302.6	4.4915e-06	3.6053e-06	1301.1	356.97	5.4014e-06	3.3781e-06	408.54	136.28	118.5	40.846	5.5766e-06	50.457	0.00048936	0.00046946	0.00012736	1319.2	5.0005e-06	4.8722e-06	1323.3	363.07	5.0337e-06	5.0055e-06	412.29	139.42	121.14	41.954	5.0601e-06	51.98	127.719	-63.809	-42.435	-125.119	-20.141	-5.895	-125.531	-120.839	-44.682	15.596	-121.583	-117.068	-116.845	-111.817	37.408	-112.616	-8191	255	
471.825	1	1	0	0	0.075455	0.19574	0.16563	0.41636	0.20375	0.12105	0.25611	0.24638	0.15752	0.23952	0.13638	0.16004	0.25413	0.073282	0.1748	0.27929	-2.9813	-3.1729	-2.8083	-3.6	-2.9292	-3.3688	-3.5021	-3.2146	-3.2521	-3.1542	-2.9833	-3.3854	-3.1875	-3.3	-3.2604	-3.1146	-133.926	-68.851	128.489	164.590	-53.754	87.661	184.639	173.374	-20.386	124.318	154.312	155.416	119.582	35.654	72.520	128.265	0.00072248	0.00036981	0.00013249	1303.9	4.3776e-06	2.1814e-06	1300.4	357.2	3.8782e-06	1.8233e-06	413.21	136.46	118.48	41.021	3.5437e-06	50.555	0.00049259	0.00046402	0.00012516	1321.1	5.0577e-06	4.9492e-06	1323.9	363.4	4.9683e-06	5.0603e-06	413	139.46	120.99	41.957	5.0808e-06	52.063	134.538	-41.186	-56.788	-125.268	-45.275	11.337	-125.599	-120.787	-45.513	16.824	-121.350	-116.997	-116.763	-111.694	-23.337	-112.577	-8191	255	
471.944	1	1	0	0	0.022514	0.10125	0.086108	0.51565	0.14336	0.1376	0.078027	0.17936	0.26196	0.079949	0.17739	0.19294	0.082411	0.091834	0.21077	0.12376	-2.8125	-3.1208	-3	-3.325	-3.0833	-3.0042	-3.4958	-3.1833	-3.3292	-3.3146	-3.0062	-3.4062	-3.1021	-3.1354	-3.2833	-3.0958	-68.501	-67.253	-30.024	195.889	30.373	-62.952	166.489	145.242	-81.446	142.588	-78.584	119.640	101.817	158.948	155.733	-9.008	0.0007487	0.00051808	8.0439e-05	1304.7	5.1839e-06	6.7975e-06	1303.8	355.85	6.5094e-06	3.733e-06	406.22	136.35	118.77	40.943	5.0858e-06	50.635	0.00048973	0.00046657	0.00012678	1321.3	5.2662e-06	4.879e-06	1324.1	362.93	4.9839e-06	5.0101e-06	412.21	139.61	121.2	42.03	5.0467e-06	52.107	132.537	-50.076	-36.070	-125.276	-35.220	10.116	-125.612	-120.890	-57.565	-35.213	-121.000	-117.219	-116.506	-111.680	-14.058	-112.483	-8191	255	
472.017	1	1	0	0	0.092739	0.10055	0.17174	0.065752	0.09702	0.12026	0.12222	0.18905	0.27925	0.074056	0.16825	0.062071	0.098887	0.20165	0.059255	0.11039	-2.6688	-3.2646	-2.8063	-3.3833	-3.0104	-3.2	-3.4938	-3.2125	-3.1958	-3.3	-3.0104	-3.4625	-3.1479	-3.0938	-3.3604	-3.1229	51.049	-83.911	188.420	22.473	15.629	-42.017	137.458	189.673	-75.303	-84.520	127.020	-106.178	-34.807	157.145	165.739	214.482	0.00075792	0.00046249	0.00011146	1306.7	4.6355e-06	2.0642e-06	1304.9	356.61	5.6164e-06	4.47e-06	409.32	136.85	118.58	40.902	6.049e-06	50.567	0.00048393	0.00045521	0.0001274	1323.5	5.1172e-06	4.9248e-06	1324.5	363.19	4.9701e-06	5.0137e-06	413.03	139.68	121.12	42.095	4.995e-06	52.005	135.700	-74.503	-45.524	-125.163	-30.496	10.563	-125.571	-120.776	-46.342	26.893	-121.770	-116.838	-116.783	-111.741	8.999	-112.493	-8191	255	
472.113	1	1	0	0	0.13839	0.19765	0.1802	0.12873	0.2203	0.23991	0.29713	0.11703	0.13235	0.13525	0.04757	0.3269	0.23215	0.32535	0.053386	0.25565	-2.5708	-3.0812	-3.2	-3.3646	-3.1521	-2.9271	-3.4938	-3.2854	-3.2146	-3.2167	-3.1208	-3.3354	-3.4542	-3.2062	-3.3625	-3.1333	131.272	53.852	-53.987	201.180	170.715	-71.827	162.914	52.779	-32.830	91.305	142.450	149.338	-132.157	127.861	-59.102	121.710	0.00078222	0.0007354	0.00014231	1307.1	3.0803e-06	6.5186e-06	1306.6	357.3	6.8515e-06	7.9123e-07	411.32	136.58	118.97	41.034	3.0098e-06	50.645	0.0004882	0.00046607	0.00012985	1323.2	5.1713e-06	4.9176e-06	1327.8	362.92	5.069e-06	5.0732e-06	413.92	139.59	121.12	42.081	4.942e-06	52.049	131.810	-77.030	-4.895	-125.218	-38.403	-15.099	-125.559	-120.936	-60.733	110.057	-121.324	-117.088	-116.867	-111.804	21.424	-112.922	-8191	255	
472.232	1	1	0	0	0.35243	0.09119	0.12993	0.15016	0.10694	0.071412	0.39819	0.17032	0.092187	0.083239	0.10675	0.21223	0.32912	0.022137	0.041065	0.28452	-2.8479	-3.25	-3.2792	-3.3021	-3.3542	-3.0792	-3.3771	-3.4479	-3.0563	-3.2854	-2.9771	-3.2583	-3.1479	-3.1479	-3.2729	-3.4271	-57.124	187.204	11.288	106.673	-58.290	198.217	136.923	154.493	201.891	58.321	-112.984	149.699	212.200	61.343	-124.291	177.741	0.00072483	0.00023627	0.00017465	1302.4	4.5839e-06	4.2023e-06	1301.4	357.79	4.9849e-06	5.1806e-06	408.94	136.86	118.75	40.947	8.2027e-06	50.533	0.00049423	0.00046458	0.00012786	1321.7	5.1438e-06	5.0509e-06	1325.1	363.75	5.0575e-06	5.0666e-06	411.8	139.73	121.31	42.021	5.0624e-06	52.074	134.015	-92.679	-35.916	-125.225	20.074	9.946	-125.385	-120.785	-79.049	-17.394	-121.313	-117.000	-116.850	-111.596	23.373	-112.593	-8191	255	
472.328	1	1	0	0	0.17622	0.25194	0.19642	0.48983	0.22852	0.17105	0.27482	0.4324	0.24924	0.13596	0.19638	0.13841	0.27235	0.1775	0.15949	0.15914	-2.5729	-3.2458	-3.1271	-3.1167	-3.1771	-2.9	-3.2354	-3.2375	-3.0417	-3.4292	-3.1688	-3.2646	-3.5687	-3.1271	-3.3	-3.2667	-100.771	-114.892	-19.568	148.430	-115.905	-35.740	157.478	164.122	164.649	165.263	211.733	150.167	-104.188	172.243	74.033	5.867	0.00072674	0.00027376	0.0001192	1311.5	6.2797e-06	5.2211e-06	1306.8	356.98	7.1946e-06	7.8695e-06	404.6	136.52	118.6	40.869	3.7755e-06	50.58	0.00049885	0.000458	0.00013448	1323.5	5.2733e-06	5.1821e-06	1326	363.39	5.2178e-06	5.1426e-06	412.53	139.71	121.19	42.018	4.9344e-06	52.054	126.606	-63.023	-32.507	-125.234	-24.317	33.692	-125.550	-120.892	-80.182	19.248	-120.913	-117.018	-117.020	-111.604	3.703	-112.477	-8191	255	
472.425	1	1	0	0	0.056705	0.10885	0.097689	0.33581	0.10813	0.22363	0.33416	0.30405	0.17945	0.12685	0.040202	0.16651	0.14512	0.1922	0.11432	0.19163	-2.7146	-3.2396	-3.1917	-3.3417	-3.1	-3.0146	-3.4896	-3.3187	-2.9354	-3.4104	-3.0604	-3.3292	-3.5979	-3.2021	-3.4271	-3.3063	136.503	24.113	179.755	211.766	106.263	-70.162	174.590	133.730	90.436	42.584	125.285	-112.403	-138.211	211.108	-5.034	186.803	0.00075258	0.00052368	0.00013825	1309	2.851e-06	4.9984e-06	1306.1	357.16	5.7062e-06	6.4365e-06	412.65	136.73	119.16	41.028	5.2643e-06	50.759	0.00050986	0.00046549	0.00013365	1323.6	5.2956e-06	5.2029e-06	1329.3	363.62	5.2821e-06	5.0969e-06	415.52	139.7	121.46	42.067	5.1233e-06	52.132	130.913	-78.001	-41.193	-125.217	-18.754	-16.111	-125.666	-120.887	-48.975	30.887	-120.810	-116.914	-116.801	-111.621	-9.170	-112.655	-8191	255	
472.521	1	1	0	0	0.024846	0.021748	0.10139	0.31696	0.14751	0.25112	0.21081	0.4164	0.17819	0.15417	0.09421	0.24472	0.042052	0.36479	0.14181	0.17864	-2.6125	-3.5104	-2.9938	-3.3833	-3.0917	-3.3542	-3.45	-3.3396	-3.0583	-3.1833	-3.3	-3.2396	-3.2958	-3.1958	-2.9771	-3.3146	36.798	-106.901	-62.160	208.999	166.780	86.170	195.171	150.409	153.103	135.165	-115.878	191.910	-26.597	-110.706	-51.510	86.470	0.00080351	0.00045973	0.00019924	1312.6	5.0781e-06	2.7219e-06	1308.2	359.05	5.8858e-06	4.2853e-06	409.94	136.67	118.96	41.196	1.1768e-06	50.568	0.00050553	0.00046434	0.00013527	1326.9	5.2323e-06	5.2143e-06	1329.4	365	5.3387e-06	5.0636e-06	413.62	139.76	121.43	42.214	5.1476e-06	52.155	129.641	-39.282	-33.744	-125.350	7.174	0.003	-125.467	-121.253	-55.769	20.486	-120.736	-117.090	-117.080	-111.762	14.099	-112.504	-8191	255	
472.641	1	1	0	0	0.097709	0.2997	0.22642	0.26883	0.23827	0.2169	0.22439	0.26946	0.099603	0.046189	0.17719	0.062632	0.090869	0.37933	0.089809	0.20897	-2.775	-3.1188	-3.1312	-2.9771	-3.4562	-3.0729	-3.1667	-3.3646	-2.9188	-3.4125	-3.1708	-3.1542	-3.3771	-3.1833	-2.9771	-3.3979	9.778	215.884	6.970	206.679	-137.098	-98.579	-87.957	131.648	203.915	-21.125	210.331	-138.629	-17.486	-130.084	-109.465	170.325	0.00073701	0.00067932	7.4379e-05	1308.5	4.5953e-06	6.1031e-06	1310.8	357.79	7.2788e-06	3.126e-06	411.92	136.78	119.13	41.128	5.8409e-06	50.742	0.00051978	0.00046728	0.00013609	1327.2	5.1319e-06	5.3508e-06	1331.7	364.59	5.4211e-06	5.0674e-06	416.39	140	121.51	42.115	5.1724e-06	52.202	129.852	-38.791	-46.575	-125.461	-49.546	-0.219	-125.481	-120.849	-42.875	-3.122	-121.678	-116.830	-116.889	-111.811	-51.938	-112.616	-8191	255	
472.713	1	1	0	0	0.20767	0.097804	0.23515	0.21468	0.19127	0.21684	0.09059	0.28732	0.26537	0.22412	0.28672	0.23503	0.084024	0.26954	0.063842	0.22286	-2.5438	-3.1104	-3.2146	-2.9292	-3.1937	-3.0542	-3.3063	-3.4083	-3.0417	-3.1604	-3.2271	-3.1875	-3.325	-3.3083	-3.0958	-3.5187	-116.716	-26.798	151.983	-135.870	155.402	36.703	145.503	147.749	-131.187	-23.014	70.897	125.407	167.036	200.635	-53.130	129.032	0.00074591	0.00045704	0.00015434	1310.3	5.035e-06	5.9131e-06	1308.5	357.96	7.1723e-06	3.3517e-06	408.43	136.95	119.25	41.006	5.1077e-06	50.736	0.00051561	0.00047181	0.00013492	1328.8	5.1268e-06	5.2998e-06	1333.2	364.35	5.3674e-06	5.0183e-06	414.5	139.96	121.59	42.119	5.2067e-06	52.204	131.606	-28.161	-12.659	-125.292	3.854	54.157	-125.547	-120.906	-76.013	25.898	-121.188	-117.006	-116.805	-111.898	-13.020	-112.530	-8191	255	
472.834	1	1	0	0	0.2192	0.35399	0.21921	0.34623	0.30681	0.09601	0.13888	0.31532	0.18608	0.0165	0.17254	0.24338	0.080968	0.13926	0.26834	0.17861	-2.5958	-3.1646	-3.1063	-3.2667	-3.2333	-3.1813	-3.2042	-3.4729	-2.8854	-3.3021	-3.2208	-3.2021	-3.3937	-3.4021	-3.0146	-3.3438	-65.317	-58.419	199.916	190.652	43.510	201.164	140.824	147.947	-128.069	43.799	177.169	146.181	-78.198	21.428	-39.331	78.820	0.0007872	0.00021829	5.8955e-05	1315.7	3.3738e-06	2.8419e-06	1309.6	358.65	4.976e-06	3.2711e-06	409.29	136.65	118.62	41.03	4.2777e-06	50.863	0.00051742	0.00045863	0.00013272	1330.7	5.1195e-06	5.2734e-06	1331.2	364.55	5.3841e-06	5.1052e-06	414.45	139.98	121.41	42.151	5.3296e-06	52.268	131.384	-51.845	-49.200	-125.357	-5.414	16.894	-125.506	-120.808	-74.870	-5.143	-120.843	-116.907	-116.812	-111.661	3.464	-112.596	-8191	255	
472.930	1	1	0	0	0.066678	0.096061	0.14905	0.23824	0.16784	0.25446	0.33107	0.29622	0.10194	0.048732	0.19311	0.1731	0.28192	0.024035	0.030787	0.3508	-2.7625	-3.0542	-3.375	-3.0438	-3.4354	-3.0667	-3.3042	-3.4562	-3.0938	-3.0229	-3.3667	-3.2417	-3.2854	-3.3417	-2.9271	-3.4188	74.454	-27.916	-2.018	-116.377	-18.793	-10.071	152.405	212.477	137.068	-114.177	-78.695	139.879	-129.724	-25.366	154.271	215.194	0.00071108	0.00060471	0.0002037	1314.4	4.2348e-06	3.3519e-06	1310.5	359	7.3533e-06	4.2519e-06	416.69	136.86	118.77	40.995	4.7402e-06	50.886	0.00051259	0.00047704	0.00013329	1331.6	5.1404e-06	5.3694e-06	1331.9	364.84	5.3709e-06	4.9876e-06	417.82	139.97	121.4	42.126	5.1086e-06	52.38	129.626	-49.059	-29.091	-125.255	8.717	5.986	-125.437	-120.714	-41.825	-1.540	-121.204	-117.009	-117.032	-111.830	-20.715	-112.626	-8191	255	
473.026	1	1	0	0	0.35266	0.21368	0.18648	0.18921	0.057325	0.29924	0.31915	0.29506	0.15353	0.196	0.15526	0.14414	0.36313	0.090422	0.12316	0.093738	-2.6417	-3.2146	-3.3854	-3.2271	-3.0396	-3.3646	-2.9729	-3.5333	-3.1854	-3.2938	-3.2771	-3.2	-3.1667	-3.2458	-3.0042	-3.4208	-37.572	85.389	-57.492	184.036	49.725	7.204	162.179	105.656	50.292	-19.897	-84.892	-127.277	167.638	-57.392	14.984	146.462	0.00071046	0.00025767	0.00020124	1314.6	2.3991e-06	3.3574e-06	1306.2	356.85	3.8714e-06	3.5614e-06	412.74	136.99	119.17	41.151	3.7769e-06	50.546	0.00051581	0.00047348	0.0001327	1329	5.0111e-06	5.1489e-06	1330.7	364.37	5.4014e-06	5.11e-06	415.18	140.01	121.66	42.23	5.4142e-06	52.155	133.177	-52.192	-25.624	-125.255	-67.687	2.312	-125.437	-120.902	-42.786	19.713	-120.468	-117.016	-117.121	-111.710	-15.240	-112.360	-8191	255	
473.120	1	1	0	0	0.11681	0.089353	0.068741	0.21414	0.19545	0.064957	0.18465	0.12304	0.084844	0.11359	0.16894	0.1497	0.14122	0.20618	0.03649	0.27089	-2.8042	-3.0104	-3.4271	-3.2938	-3.2812	-3.3479	-3.2062	-3.4021	-3.3583	-3.0208	-3.5771	-3.1958	-3.3354	-3.1063	-3.1875	-3.1583	-131.970	-33.905	-85.448	156.775	38.437	-3.183	144.473	217.971	196.222	60.030	70.817	-121.912	-138.779	218.034	32.989	189.956	0.0007386	0.00051323	0.00014707	1308.3	4.259e-06	4.4104e-06	1305.4	359.57	3.7606e-06	4.423e-06	411.56	136.53	119.29	41.108	6.2332e-06	50.702	0.00051263	0.00048583	0.00012962	1327.8	5.2254e-06	5.1679e-06	1329.5	364.71	5.4303e-06	5.0358e-06	414.47	139.75	121.61	42.162	5.3415e-06	52.21	134.140	-36.850	-8.935	-125.366	-19.971	0.312	-125.515	-121.017	-54.726	50.419	-120.890	-117.058	-117.031	-111.781	4.660	-112.724	-8191	255	
473.241	1	1	0	0	0.12422	0.3174	0.037135	0.20886	0.10548	0.20242	0.38924	0.098294	0.1444	0.084111	0.038461	0.18552	0.051729	0.16862	0.12323	0.067074	-2.825	-2.9896	-3.3271	-3.2562	-3.1333	-3.3333	-3.3167	-3.7812	-3.2979	-3.0083	-3.275	-3.2667	-3.2	-3.4771	-3.4583	-3.2042	28.935	102.798	-47.928	215.588	-71.276	-54.890	151.596	220.097	64.556	75.356	93.387	-96.421	162.284	214.863	140.139	21.309	0.00074945	0.00059613	9.997e-05	1317.4	4.1893e-06	6.1915e-06	1310.4	358.85	3.3628e-06	2.8395e-06	414.37	136.91	119.04	41.084	6.7777e-06	50.657	0.00050898	0.00048032	0.00012834	1330.4	5.1413e-06	5.1913e-06	1330.7	365.02	5.3419e-06	5.1412e-06	414.31	140.09	121.7	42.118	5.2622e-06	52.27	130.767	-42.296	-57.721	-125.311	-38.894	19.096	-125.792	-120.834	-52.571	-27.626	-120.896	-117.157	-116.872	-111.861	4.269	-112.495	-8191	255	
473.313	1	1	0	0	0.31095	0.075296	0.14634	0.35282	0.20231	0.076841	0.38845	0.16085	0.16563	0.19958	0.13515	0.051543	0.20822	0.056625	0.15596	0.27727	-2.9333	-2.9958	-3.4021	-3.3292	-3.3271	-3.3708	-3.3917	-3.2167	-3.55	-2.9854	-3.2208	-3.2771	-3.1042	-3.3312	-3.0958	-3.1833	39.155	119.874	31.683	182.549	163.059	-75.635	99.990	-120.676	105.265	-85.047	114.999	213.212	135.687	101.266	57.467	192.534	0.00074757	0.00041558	8.9036e-05	1314.2	4.3069e-06	4.6299e-06	1312.5	359.1	8.663e-06	7.5173e-06	415.06	136.8	119.31	41.269	5.3218e-06	50.789	0.00052204	0.00048083	0.0001301	1331.7	5.2831e-06	5.1325e-06	1332.9	365.05	5.3387e-06	5.2711e-06	414.6	140.07	121.76	42.237	5.3778e-06	52.285	131.168	-47.559	-11.061	-125.236	-20.535	-19.408	-125.633	-120.970	-67.178	31.930	-121.921	-116.917	-117.203	-111.578	-31.402	-112.754	-8191	255	
473.409	1	1	0	0	0.11579	0.029802	0.17567	0.15157	0.19974	0.35904	0.24671	0.13626	0.24487	0.064438	0.27614	0.10384	0.051441	0.22231	0.080136	0.099826	-2.8396	-2.9792	-3.4146	-3.4771	-2.8792	-3.2729	-3.1188	-3.4688	-3.2396	-3.1896	-3.1354	-3.4313	-2.9896	-3.4083	-3.1667	-3.2042	74.086	-20.189	-75.305	127.125	-97.606	198.769	187.117	-56.754	161.417	202.709	39.640	97.506	98.548	169.165	-71.258	145.266	0.00073152	0.00039867	0.00019045	1313.5	2.4675e-06	5.9547e-06	1312.3	359.72	3.5842e-06	3.7097e-06	417.15	136.77	118.31	41.128	2.1754e-06	50.901	0.00050934	0.00047785	0.00012923	1331.9	5.1885e-06	5.0453e-06	1331.9	365.12	5.3329e-06	5.3199e-06	416.6	140.12	121.44	42.196	5.2234e-06	52.28	135.881	-66.170	-49.064	-125.401	-59.083	18.720	-125.642	-120.669	-48.294	-23.880	-121.329	-116.994	-116.945	-111.804	-2.720	-112.706	-8191	255	
473.505	1	1	0	0	0.22596	0.14652	0.16932	0.18138	0.16764	0.28235	0.35195	0.19637	0.047698	0.20946	0.11252	0.096599	0.21513	0.053891	0.074052	0.2043	-2.9771	-3.0042	-3.2812	-3.2542	-2.925	-3.3021	-3.4271	-3.1208	-3.425	-3.0563	-3.2125	-3.4771	-3.1646	-3.4688	-2.9375	-3.0833	152.454	-77.745	-50.756	171.971	-45.322	186.700	192.495	83.412	141.749	-129.567	-85.056	-56.447	82.901	165.770	-22.300	125.549	0.00078494	0.00063667	0.00011934	1314.3	2.7874e-06	4.2093e-06	1311.7	357.86	6.2193e-06	2.0949e-06	411.5	137.02	119.53	41.157	3.8834e-06	50.74	0.00050026	0.00048438	0.00012847	1330.6	5.2208e-06	5.0653e-06	1333.8	365.04	5.2368e-06	5.2194e-06	414.95	140.24	121.87	42.231	5.3941e-06	52.223	127.409	-61.601	-29.920	-125.300	81.089	-35.109	-125.630	-120.764	-58.935	4.537	-122.124	-117.071	-116.746	-111.746	-2.534	-112.410	-8191	255	
473.601	1	1	0	0	0.17626	0.26437	0.19993	0.26606	0.17508	0.23622	0.13833	0.13324	0.17212	0.11828	0.10827	0.074483	0.15072	0.15334	0.15809	0.23315	-3.0875	-3.0125	-3.4167	-3.3312	-3.1229	-3.3583	-3.1958	-3.2604	-3.3104	-2.9229	-3.3167	-3.4458	-3.2667	-3.3729	-3.2479	-3.1437	17.142	-63.169	-8.388	176.859	9.607	148.662	-122.417	-55.986	126.988	-3.663	184.090	140.665	-132.131	129.711	190.554	-129.504	0.00074269	0.00062972	0.00012118	1317.1	3.9868e-06	7.5545e-06	1313.3	359.06	5.4541e-06	3.2658e-06	414.08	136.99	119.39	41.291	4.0428e-06	50.702	0.00049922	0.00048646	0.00013276	1332.8	5.1953e-06	5.1063e-06	1335.3	365	5.3619e-06	5.2924e-06	414.9	140.14	121.76	42.25	5.3908e-06	52.248	128.188	-54.965	-34.338	-125.386	-25.377	18.625	-125.439	-120.800	-45.617	40.424	-120.722	-116.801	-117.010	-111.655	-45.916	-112.441	-8191	255	
473.722	1	1	0	0	0.35099	0.21466	0.26625	0.059238	0.10955	0.18276	0.12252	0.068162	0.14104	0.1639	0.22891	0.13676	0.15571	0.11963	0.054993	0.096946	-2.775	-2.925	-3.1396	-3.4875	-3.1479	-3.225	-3.3979	-2.975	-3.1917	-3.075	-2.9729	-3.45	-3.1979	-3.3229	-3.375	-3.1771	139.324	108.999	-95.994	152.177	185.259	26.348	110.735	113.049	133.426	-44.395	164.018	215.005	171.713	194.587	143.456	182.367	0.00073919	0.00026787	0.00010391	1312.1	4.9133e-06	4.4316e-06	1310.7	359.9	3.6484e-06	3.8206e-06	415.05	137.54	119.27	41.207	5.1911e-06	51.027	0.00050947	0.00047343	0.00013082	1329.8	5.2756e-06	5.1845e-06	1333	365.38	5.2554e-06	5.2417e-06	414.39	140.25	121.69	42.198	5.3524e-06	52.354	130.484	-78.368	-16.930	-125.145	8.737	27.444	-125.461	-120.755	-20.428	14.018	-121.333	-116.916	-116.957	-111.693	-15.174	-112.581	-8191	255	
473.818	1	1	0	0	0.20825	0.23137	0.12091	0.23157	0.2794	0.21655	0.26207	0.14553	0.19785	0.11192	0.24789	0.18136	0.22458	0.14307	0.13582	0.13599	-2.8375	-3.1875	-2.9854	-3.5563	-3.0187	-3.4417	-3.5187	-3.2104	-3.2771	-3.3729	-3.025	-3.4625	-2.9854	-3.225	-3.5417	-3.3104	153.723	97.449	139.642	-92.703	195.626	157.880	121.893	-83.718	173.105	-34.761	-48.320	190.732	183.368	142.931	144.745	-119.814	0.00071207	0.00069685	0.00015377	1312	2.0866e-06	6.1397e-06	1310.9	359.01	6.4095e-06	3.3456e-06	409.52	136.81	118.98	41.23	4.0067e-06	50.807	0.00049791	0.00047812	0.00013042	1329.6	5.2563e-06	5.0221e-06	1332.7	364.78	5.0477e-06	5.2908e-06	414.77	139.98	121.72	42.248	5.2421e-06	52.329	131.871	-60.415	-43.931	-125.274	-69.003	13.857	-125.298	-120.857	-64.077	25.428	-121.335	-117.030	-117.100	-111.582	-16.352	-112.626	-8191	255	
473.914	1	1	0	0	0.092218	0.086183	0.11396	0.38876	0.095104	0.33556	0.1117	0.29514	0.32114	0.096795	0.21198	0.20965	0.21289	0.094246	0.084081	0.22537	-2.9792	-3.1542	-3.1854	-3.4458	-3.1604	-3.2396	-3.6437	-3.0958	-3.4271	-3.275	-3.1104	-3.5	-3.1854	-3.3604	-3.2979	-3.2062	-24.859	209.286	26.651	159.369	-32.586	27.169	138.050	161.941	27.006	-81.578	-64.247	197.565	190.720	113.967	107.264	129.744	0.00074723	0.00042096	8.0683e-05	1315.4	4.0111e-06	6.9709e-06	1312.6	359.61	4.6287e-06	3.7647e-06	417.24	137.28	119.22	41.077	5.3441e-06	50.742	0.00049822	0.00048472	0.00013075	1333.1	5.3865e-06	5.2386e-06	1335.2	365.39	5.1515e-06	5.2216e-06	417.54	140.39	121.52	42.179	5.1996e-06	52.318	126.973	-37.397	-19.342	-125.248	3.410	6.610	-125.406	-120.871	-94.637	27.674	-120.923	-117.077	-116.765	-111.498	-34.880	-112.558	-8191	255	
474.010	1	1	0	0	0.039744	0.087439	0.1572	0.32846	0.12023	0.15919	0.11389	0.15148	0.28621	0.16948	0.12223	0.38203	0.072784	0.29463	0.23991	0.27895	-2.7167	-3.1604	-2.9229	-3.4125	-2.9854	-3.2021	-3.4854	-3.3708	-3.2354	-3.2729	-2.9938	-3.3833	-3.2104	-3.2146	-3.2958	-3.2583	123.729	186.928	45.336	-107.639	187.980	56.457	195.349	137.660	90.392	181.757	-107.910	187.791	4.752	160.532	174.838	-45.705	0.00069011	0.00029606	6.8045e-05	1319	4.911e-06	4.0748e-06	1313.3	360.33	7.2544e-06	6.4488e-06	417.15	136.97	119.32	41.201	1.055e-06	50.875	0.00049647	0.00048957	0.00013282	1333.7	5.3017e-06	5.2135e-06	1335	365.76	5.1962e-06	5.2498e-06	416.77	140.14	121.97	42.293	5.1453e-06	52.339	129.930	-3.367	-71.362	-125.104	25.056	-12.160	-125.556	-121.014	-54.639	34.678	-121.934	-117.044	-116.708	-111.861	71.126	-112.655	-8191	255	
474.106	1	1	0	0	0.22395	0.14043	0.10632	0.17063	0.23536	0.04475	0.35027	0.10099	0.011478	0.11701	0.17064	0.12888	0.025143	0.28204	0.11365	0.24271	-2.7354	-3.2292	-3.0729	-3.4833	-3.0938	-3.1312	-3.4979	-3.4167	-3.1104	-3.4021	-2.9354	-3.5667	-3.3187	-3.0042	-3.1854	-3.1875	-134.994	190.767	178.437	-128.987	84.313	66.423	174.735	211.727	-25.533	136.859	173.491	111.162	119.719	151.888	43.093	-137.275	0.0007813	0.00069026	0.00020527	1321.6	3.3435e-06	5.4375e-06	1313.3	358.94	7.5953e-06	4.1291e-06	415.6	137.14	119.03	41.315	6.392e-06	50.811	0.00049637	0.00047622	0.00013236	1333.9	5.3714e-06	5.1867e-06	1335.8	365.46	5.1482e-06	5.2652e-06	416.21	140.3	121.85	42.287	5.1248e-06	52.375	130.908	-61.315	-41.487	-125.226	-11.631	-10.047	-125.352	-120.808	-63.260	0.531	-121.563	-116.964	-116.903	-111.915	11.530	-112.578	-8191	255	
474.202	1	1	0	0	0.16558	0.20171	0.16335	0.25937	0.17946	0.10752	0.1204	0.1114	0.17723	0.07409	0.26571	0.19328	0.023761	0.3001	0.081577	0.071	-2.5854	-3.2083	-3.0375	-3.2708	-3.1813	-3.1562	-3.3917	-3.3917	-3.1729	-3.2083	-3.0917	-3.3417	-3.2333	-3.2021	-3.0583	-3.275	204.445	72.950	-75.750	215.905	46.848	40.544	140.181	152.922	-93.656	106.640	40.024	-92.113	-122.382	158.182	159.325	-138.078	0.00076507	0.00050359	0.00017963	1320.1	4.7084e-06	4.9098e-06	1314.6	358.84	4.1367e-06	1.5638e-06	416.67	137.12	119.03	41.261	4.0047e-06	50.836	0.00050527	0.00048251	0.00013578	1335.2	5.3462e-06	5.2678e-06	1335.3	365.4	5.2432e-06	5.0895e-06	418.06	140.4	121.72	42.26	5.0778e-06	52.364	130.499	-58.382	-43.379	-125.301	-31.026	26.382	-125.536	-121.131	-54.307	18.690	-121.536	-117.009	-116.905	-111.968	-41.596	-112.590	-8191	255	
474.321	1	1	0	0	0.028942	0.23783	0.14699	0.2805	0.041094	0.11444	0.17234	0.42935	0.18829	0.13878	0.054948	0.39599	0.27882	0.40678	0.099432	0.048174	-2.7354	-3.4333	-3.0708	-3.3187	-3.2333	-2.9604	-3.4625	-3.0729	-3.2292	-3.3438	-3.15	-3.2583	-3.2792	-3.1562	-3.2417	-3.3312	-137.273	40.146	-75.673	201.372	137.705	-30.370	171.266	145.403	163.913	183.268	-78.529	171.827	98.064	63.584	193.677	212.171	0.00076261	0.00013146	0.00017272	1315.6	6.0982e-06	4.1693e-06	1318.4	358.62	6.5383e-06	3.5303e-06	410.11	137.15	119.72	41.247	4.4963e-06	50.905	0.00050568	0.00047009	0.00013463	1334.7	5.3812e-06	5.2582e-06	1336.7	365.57	5.2865e-06	5.004e-06	417.57	140.15	122.05	42.293	5.104e-06	52.368	131.411	-111.193	-25.424	-125.286	-19.112	-21.521	-125.513	-120.850	-44.864	13.605	-121.811	-116.852	-116.713	-111.803	-19.166	-112.455	-8191	255	
474.417	1	1	0	0	0.10671	0.17209	0.11591	0.35521	0.23429	0.046875	0.28475	0.14501	0.18755	0.12011	0.32474	0.083092	0.1758	0.39736	0.049545	0.17204	-2.7083	-3.3042	-3.2229	-3.3583	-3.3063	-3.0896	-3.3167	-3.4354	-2.9521	-3.4583	-3.1333	-3.1229	-3.1833	-3.1271	-3.2354	-3.3646	82.499	167.285	103.723	188.999	21.158	-86.575	131.047	66.874	-74.198	-103.331	65.530	51.168	-122.771	217.188	-6.267	84.565	0.00071232	0.00060682	0.000193	1321.3	2.868e-06	4.2389e-06	1317.4	361.44	6.5011e-06	6.8046e-06	409.94	137.07	119.58	41.154	4.4488e-06	50.89	0.00050032	0.00047058	0.00013597	1335.7	5.3111e-06	5.2972e-06	1337.1	366.61	5.2152e-06	5.0632e-06	415.08	140.31	121.92	42.259	5.0496e-06	52.351	130.702	-57.989	-51.603	-125.340	7.946	25.669	-125.615	-120.638	-43.724	15.214	-121.678	-116.879	-117.052	-111.511	-19.297	-112.631	-8191	255	
474.514	1	1	0	0	0.15467	0.050603	0.21066	0.30928	0.18238	0.083847	0.045947	0.38889	0.19682	0.11171	0.15957	0.065225	0.27386	0.19861	0.089775	0.023432	-2.5521	-3.4833	-2.9896	-3.4813	-3.2458	-3.0875	-3.3604	-3.5021	-2.9542	-3.4229	-3.1875	-3.3354	-3.5563	-3.2479	-3.0896	-3.35	92.547	177.833	57.741	148.204	48.363	129.358	-40.285	169.062	-123.009	-135.121	-100.945	112.866	197.978	72.165	194.423	102.093	0.00070735	0.00044041	0.00010009	1319.7	2.789e-06	5.107e-06	1318.9	359.9	5.1035e-06	4.0394e-06	410.47	137.12	119.93	41.128	3.7586e-06	50.745	0.00050663	0.00046933	0.00013485	1334.5	5.1914e-06	5.3044e-06	1337.8	365.7	5.3448e-06	5.0429e-06	416.65	140.28	122.07	42.297	5.0599e-06	52.319	131.358	-60.914	-37.498	-125.277	-57.021	7.865	-125.508	-120.825	-68.552	12.779	-121.752	-116.885	-116.749	-111.592	31.210	-112.523	-8191	255	
474.610	1	1	0	0	0.18878	0.17839	0.084831	0.10838	0.12893	0.022938	0.13269	0.16518	0.24656	0.0056985	0.15004	0.06455	0.26281	0.082101	0.011835	0.14639	-2.2979	-3.4167	-3.0333	-3.3167	-3.425	-3.1542	-3.3042	-3.325	-2.9562	-3.5167	-3.275	-3.2208	-3.2812	-3.05	-2.9375	-3.3208	-26.788	-40.934	121.215	180.826	-64.755	52.400	166.586	156.837	-103.330	64.067	134.114	103.568	154.872	-89.767	127.215	-104.434	0.00071935	0.00057266	0.00012018	1317.2	3.8322e-06	4.6949e-06	1312	358.01	6.0002e-06	1.704e-06	414.01	137.03	119.19	41.22	9.674e-06	50.755	0.00051121	0.00046395	0.00013381	1333.1	5.12e-06	5.2257e-06	1333.1	365.16	5.2528e-06	4.9467e-06	415.56	140.29	121.75	42.272	5.1652e-06	52.288	131.124	-54.500	-43.455	-125.191	4.028	38.208	-125.607	-120.862	-44.312	8.790	-121.348	-116.995	-116.817	-111.862	-3.433	-112.522	-8191	255	
#DATA ENDS
