BOXY.EXE: ISS Imagent and Oximeter Data Acquisition Program Version 0.80
Ascii Record File

#ACQ INFORMATION
2  Detector Channels 
16  External MUX Channels 
1  Auxiliary Channels 
5000  Waveform (CCF) Frequency (Hz)
1  Waveforms Skipped 
30  Waveforms Averaged 
1  Cycles Averaged 
16  Acquisitions per Waveform 
10.0806  Updata Rate (Hz) 

#FILE INFORMATION
TRUE -- External MUX Channel results are PARSED.
FALSE -- AC DC and Phase are NOT grouped.
TRUE -- Companion Program Settings File CREATED.
FALSE -- AC data not excluded
FALSE -- DC data not excluded
FALSE -- Phase data not excluded
FALSE -- Auxillary Chn. data not excluded
Tab delimiters

#CALIBRATION STATE
TRUE -- Waveform Calibration Values APPLIED.


#AUX CALIBRATION VALUES
Val Type	aux-1	

Term	1.0000e+00	
Factor	0.0000e+00	


#WF CALIBRATION VALUES
A = Detector Channel
Val Type	A-AC1	A-AC2	A-AC3	A-AC4	A-AC5	A-AC6	A-AC7	A-AC8	A-AC9	A-AC10	A-AC11	A-AC12	A-AC13	A-AC14	A-AC15	A-AC16	A-DC1	A-DC2	A-DC3	A-DC4	A-DC5	A-DC6	A-DC7	A-DC8	A-DC9	A-DC10	A-DC11	A-DC12	A-DC13	A-DC14	A-DC15	A-DC16	A-Ph1	A-Ph2	A-Ph3	A-Ph4	A-Ph5	A-Ph6	A-Ph7	A-Ph8	A-Ph9	A-Ph10	A-Ph11	A-Ph12	A-Ph13	A-Ph14	A-Ph15	A-Ph16	

Term	0.00000e+00	0.00000e+00	0.00000e+00	0.00000e+00	0.00000e+00	0.00000e+00	0.00000e+00	0.00000e+00	0.00000e+00	0.00000e+00	0.00000e+00	0.00000e+00	0.00000e+00	0.00000e+00	0.00000e+00	0.00000e+00	0.00000e+00	0.00000e+00	0.00000e+00	0.00000e+00	0.00000e+00	0.00000e+00	0.00000e+00	0.00000e+00	0.00000e+00	0.00000e+00	0.00000e+00	0.00000e+00	0.00000e+00	0.00000e+00	0.00000e+00	0.00000e+00	0.00000e+00	0.00000e+00	0.00000e+00	0.00000e+00	0.00000e+00	0.00000e+00	0.00000e+00	0.00000e+00	0.00000e+00	0.00000e+00	0.00000e+00	0.00000e+00	0.00000e+00	0.00000e+00	0.00000e+00	0.00000e+00	
Factor	1.00000e+00	1.00000e+00	1.00000e+00	1.00000e+00	1.00000e+00	1.00000e+00	1.00000e+00	1.00000e+00	1.00000e+00	1.00000e+00	1.00000e+00	1.00000e+00	1.00000e+00	1.00000e+00	1.00000e+00	1.00000e+00	1.00000e+00	1.00000e+00	1.00000e+00	1.00000e+00	1.00000e+00	1.00000e+00	1.00000e+00	1.00000e+00	1.00000e+00	1.00000e+00	1.00000e+00	1.00000e+00	1.00000e+00	1.00000e+00	1.00000e+00	1.00000e+00	X	X	X	X	X	X	X	X	X	X	X	X	X	X	X	X	

B = Detector Channel
Val Type	B-AC1	B-AC2	B-AC3	B-AC4	B-AC5	B-AC6	B-AC7	B-AC8	B-AC9	B-AC10	B-AC11	B-AC12	B-AC13	B-AC14	B-AC15	B-AC16	B-DC1	B-DC2	B-DC3	B-DC4	B-DC5	B-DC6	B-DC7	B-DC8	B-DC9	B-DC10	B-DC11	B-DC12	B-DC13	B-DC14	B-DC15	B-DC16	B-Ph1	B-Ph2	B-Ph3	B-Ph4	B-Ph5	B-Ph6	B-Ph7	B-Ph8	B-Ph9	B-Ph10	B-Ph11	B-Ph12	B-Ph13	B-Ph14	B-Ph15	B-Ph16	

Term	0.00000e+00	0.00000e+00	0.00000e+00	0.00000e+00	0.00000e+00	0.00000e+00	0.00000e+00	0.00000e+00	0.00000e+00	0.00000e+00	0.00000e+00	0.00000e+00	0.00000e+00	0.00000e+00	0.00000e+00	0.00000e+00	0.00000e+00	0.00000e+00	0.00000e+00	0.00000e+00	0.00000e+00	0.00000e+00	0.00000e+00	0.00000e+00	0.00000e+00	0.00000e+00	0.00000e+00	0.00000e+00	0.00000e+00	0.00000e+00	0.00000e+00	0.00000e+00	6.18343e+01	-1.31059e+02	-1.28480e+02	-1.84124e+02	-6.87911e+01	-6.82456e+01	-1.56911e+02	-1.62015e+02	-7.40016e+01	-6.54156e+01	-1.77697e+02	-1.71319e+02	-1.80631e+02	-1.77165e+02	-6.37371e+01	-1.49825e+02	
Factor	5.72416e-05	1.94192e-04	5.38199e-05	1.68864e-01	2.83546e-06	2.03816e-06	1.62166e-01	5.20289e-02	3.35572e-06	1.96407e-06	9.52225e-01	2.70685e-02	2.82943e-02	8.99284e-03	2.49629e-06	1.25482e-02	1.20680e-05	1.63461e-05	4.57917e-06	8.64489e-02	1.66670e-07	1.82106e-07	7.82106e-02	2.66752e-02	1.65207e-07	1.81697e-07	4.60311e-01	1.35287e-02	1.46057e-02	4.65260e-03	1.72611e-07	6.31523e-03	X	X	X	X	X	X	X	X	X	X	X	X	X	X	X	X	



#DISTANCE SETTINGS
A = Detector Channel
A-1	A-2	A-3	A-4	A-5	A-6	A-7	A-8	A-9	A-10	A-11	A-12	A-13	A-14	A-15	A-16	

2.5000e+00	3.0000e+00	2.5000e+00	3.0000e+00	2.0000e+00	3.0000e+00	1.5000e+00	3.0000e+00	3.0000e+00	3.0000e+00	3.0000e+00	3.0000e+00	3.0000e+00	3.0000e+00	1.5000e+00	3.0000e+00	

B = Detector Channel
B-1	B-2	B-3	B-4	B-5	B-6	B-7	B-8	B-9	B-10	B-11	B-12	B-13	B-14	B-15	B-16	

1.0000e+01	1.0000e+01	1.0000e+01	1.4400e+00	1.0000e+01	1.0000e+01	1.5100e+00	1.9400e+00	1.0000e+01	1.0000e+01	1.9900e+00	2.4900e+00	2.4100e+00	2.9000e+00	1.0000e+01	2.9800e+00	




#DATA BEGINS
time	group	step	mark	flag	A-AC1	A-AC2	A-AC3	A-AC4	A-AC5	A-AC6	A-AC7	A-AC8	A-AC9	A-AC10	A-AC11	A-AC12	A-AC13	A-AC14	A-AC15	A-AC16	A-DC1	A-DC2	A-DC3	A-DC4	A-DC5	A-DC6	A-DC7	A-DC8	A-DC9	A-DC10	A-DC11	A-DC12	A-DC13	A-DC14	A-DC15	A-DC16	A-Ph1	A-Ph2	A-Ph3	A-Ph4	A-Ph5	A-Ph6	A-Ph7	A-Ph8	A-Ph9	A-Ph10	A-Ph11	A-Ph12	A-Ph13	A-Ph14	A-Ph15	A-Ph16	B-AC1	B-AC2	B-AC3	B-AC4	B-AC5	B-AC6	B-AC7	B-AC8	B-AC9	B-AC10	B-AC11	B-AC12	B-AC13	B-AC14	B-AC15	B-AC16	B-DC1	B-DC2	B-DC3	B-DC4	B-DC5	B-DC6	B-DC7	B-DC8	B-DC9	B-DC10	B-DC11	B-DC12	B-DC13	B-DC14	B-DC15	B-DC16	B-Ph1	B-Ph2	B-Ph3	B-Ph4	B-Ph5	B-Ph6	B-Ph7	B-Ph8	B-Ph9	B-Ph10	B-Ph11	B-Ph12	B-Ph13	B-Ph14	B-Ph15	B-Ph16	aux-1	digaux	

8057.940	1	1	0	768	0.30727	0.12565	0.28252	0.18314	0.02325	0.15792	0.24758	0.071619	0.17075	0.085433	0.089288	0.14639	0.099636	0.2555	0.27083	0.27776	-2.2	-2.7417	-2.7375	-2.6021	-2.9313	-2.7938	-2.9979	-2.9646	-2.5438	-2.7958	-2.7	-2.6562	-3.0729	-2.8042	-2.7042	-3.1042	21.041	-50.729	146.719	207.296	23.785	103.295	220.686	35.899	9.733	85.263	62.317	193.714	193.896	-82.521	-42.135	156.682	0.00069342	0.00066195	0.00019502	1545.3	6.1565e-06	4.4201e-06	1530.5	418.14	5.9314e-06	4.6665e-06	475.58	156.55	136.88	46.092	6.1011e-06	56.58	0.00033647	0.00022888	6.4013e-05	1562.4	2.7542e-06	2.367e-06	1553.9	425.94	2.9121e-06	2.4029e-06	474.06	160.16	139.64	47.25	2.6719e-06	58.189	25.176	-9.734	-16.593	-83.895	49.648	38.544	-84.095	-79.587	20.277	34.969	-80.536	-75.745	-75.288	-70.642	42.347	-71.495	-8191	255	
8058.036	1	1	0	0	0.098686	0.16457	0.12673	0.29388	0.15578	0.14655	0.29926	0.53352	0.10739	0.22912	0.19745	0.21343	0.04921	0.073588	0.087342	0.31798	-2.2458	-2.9208	-2.8458	-2.8646	-3.0021	-3	-2.8917	-3.0333	-2.7479	-2.7542	-2.9979	-2.9562	-3.15	-2.8937	-2.7042	-3.0521	192.115	-69.561	248.694	230.136	59.233	254.092	208.242	185.548	112.032	131.467	123.053	207.821	255.150	-61.845	-20.952	229.916	0.00066986	0.00057862	0.00013272	1547	6.4776e-06	5.4908e-06	1536.2	417.98	4.2259e-06	6.9533e-06	474.56	157.31	137.34	46.3	6.7709e-06	56.932	0.00033386	0.0002266	6.1599e-05	1563.6	2.7233e-06	2.5104e-06	1555.3	425.87	2.7745e-06	2.3738e-06	475.75	160.37	139.86	47.333	2.6967e-06	58.138	25.733	-8.491	-14.077	-84.075	39.598	56.048	-84.242	-79.502	16.056	48.439	-80.157	-75.689	-75.303	-70.764	55.435	-71.914	-8191	255	
8058.133	1	1	0	0	0.075263	0.24618	0.13295	0.26966	0.21727	0.091175	0.19094	0.36339	0.029203	0.068057	0.18777	0.19316	0.22897	0.10858	0.23211	0.1768	-2.1396	-2.6479	-2.8875	-2.8667	-2.9771	-2.8458	-3.0104	-2.9437	-2.7313	-2.8063	-2.8	-2.8167	-3.1292	-2.7021	-2.5021	-2.9792	228.079	253.946	242.216	-95.024	-36.771	102.534	131.749	233.075	48.878	244.105	230.377	208.159	181.465	174.100	179.017	170.403	0.00067008	0.00051406	0.00017877	1545.6	6.0457e-06	5.5627e-06	1532.6	420.44	5.74e-06	4.7619e-06	478.02	157.61	137.16	46.498	6.1776e-06	56.645	0.0003456	0.00022408	6.2448e-05	1562	2.7053e-06	2.3977e-06	1555.1	426.95	2.7789e-06	2.4609e-06	475.34	160.46	139.71	47.382	2.6766e-06	58.086	26.749	-8.542	0.116	-84.184	40.382	51.702	-83.984	-79.557	30.383	56.664	-80.965	-75.656	-75.364	-70.686	58.807	-71.471	-8191	255	
8058.229	1	1	0	0	0.057054	0.26353	0.082206	0.1322	0.20919	0.028144	0.24915	0.31429	0.030885	0.088935	0.17853	0.11504	0.25932	0.082419	0.19549	0.16049	-2.2375	-2.7708	-2.9208	-2.7083	-2.9896	-2.7958	-2.7896	-3.1208	-2.7542	-2.7417	-3	-2.9375	-2.9083	-2.8646	-2.625	-3.025	22.397	192.046	166.665	-21.007	31.838	170.512	226.305	260.525	155.204	-57.812	94.866	248.402	-79.030	-94.217	-76.830	245.881	0.00066694	0.00061321	0.00018203	1546.7	5.6735e-06	5.911e-06	1532.6	420.08	4.9844e-06	4.7821e-06	467.56	157.72	137.21	46.196	6.027e-06	56.69	0.0003365	0.00021393	6.2639e-05	1562.8	2.7931e-06	2.4049e-06	1554.6	426.7	2.7979e-06	2.3973e-06	470.79	160.39	139.69	47.31	2.6507e-06	58.169	25.737	-0.493	-7.397	-84.049	39.365	65.410	-84.210	-79.637	-3.706	51.007	-80.562	-75.537	-75.366	-70.695	40.951	-71.284	-8191	255	
8058.325	1	1	0	0	0.16427	0.051621	0.21444	0.37928	0.16787	0.028822	0.45374	0.10845	0.083798	0.084717	0.26358	0.2094	0.34942	0.11829	0.18934	0.21054	-2.2375	-2.4979	-2.9708	-2.7438	-2.7542	-2.8	-2.8833	-3.1458	-2.7125	-2.5312	-2.8354	-2.7375	-2.775	-2.9792	-2.7333	-3.0938	93.061	58.528	69.495	-95.411	-32.549	-31.513	167.563	68.398	32.185	-27.204	-71.902	182.373	256.101	-10.891	209.558	218.778	0.00073173	0.00039337	0.00013692	1544.4	6.7019e-06	6.0247e-06	1538.4	419.8	5.0594e-06	5.1384e-06	478.27	157.62	137.24	46.415	5.1346e-06	56.854	0.00033929	0.00021877	6.1227e-05	1563.2	2.8612e-06	2.3636e-06	1557.7	426.97	2.7862e-06	2.4408e-06	475.38	160.49	139.96	47.402	2.6474e-06	58.232	24.829	-14.295	-25.278	-84.109	42.672	60.640	-84.172	-79.540	0.296	55.771	-79.687	-75.838	-75.406	-70.564	69.241	-71.418	-8191	255	
8058.421	1	1	0	0	0.13646	0.16584	0.36285	0.19422	0.035412	0.11297	0.19186	0.38099	0.1012	0.10733	0.33052	0.11146	0.3361	0.30444	0.25038	0.1547	-2.0896	-2.5917	-2.7875	-2.9	-2.6958	-2.8271	-2.8917	-2.9417	-2.8583	-2.5729	-2.7708	-2.7708	-2.8896	-2.9125	-2.6167	-2.8958	91.909	-67.166	214.315	194.340	256.332	-3.635	169.261	188.752	236.563	157.728	202.637	-76.906	196.391	245.429	-94.526	-43.228	0.00063403	0.00058928	0.00016215	1546.9	5.544e-06	5.9097e-06	1537.1	421.26	4.7441e-06	4.9243e-06	475.47	156.88	136.65	46.341	5.0765e-06	56.625	0.00033277	0.00022381	5.7345e-05	1564	2.7317e-06	2.37e-06	1555.2	427.19	2.7858e-06	2.4234e-06	471.92	160.06	139.6	47.4	2.6327e-06	58.142	23.186	-6.967	7.857	-83.894	43.002	56.646	-84.128	-79.559	-3.272	47.565	-79.449	-75.733	-75.365	-70.793	62.563	-71.271	-8191	255	
8058.542	1	1	0	0	0.22288	0.14981	0.17084	0.053062	0.099763	0.068739	0.11188	0.2838	0.042425	0.073114	0.17389	0.1559	0.057704	0.29069	0.081602	0.23894	-2.3812	-2.6708	-2.8563	-2.8667	-2.6375	-2.9313	-2.9625	-3.0083	-2.825	-2.7188	-2.6042	-2.8958	-2.7625	-2.9729	-2.7062	-3.0438	-64.745	211.157	121.774	-96.131	101.523	18.078	159.012	156.304	2.118	225.315	13.412	194.875	91.571	-91.508	53.633	174.466	0.00070541	0.00058778	0.00014912	1547.9	4.3418e-06	5.1258e-06	1533.8	418.96	4.7021e-06	4.6878e-06	474.39	157.43	136.92	46.404	4.8489e-06	56.66	0.00033735	0.00023249	6.0645e-05	1565.3	2.7636e-06	2.4068e-06	1557.7	426.52	2.7693e-06	2.5241e-06	474.4	160.49	139.9	47.438	2.8679e-06	58.188	22.403	-9.977	-4.299	-83.950	61.231	65.402	-84.186	-79.524	47.187	63.976	-80.493	-75.535	-75.423	-70.697	50.494	-71.646	-8191	255	
8058.638	1	1	0	0	0.12659	0.1407	0.36102	0.16707	0.13725	0.1401	0.38724	0.060678	0.16184	0.19781	0.042518	0.097414	0.33011	0.24299	0.16237	0.3671	-2.3688	-2.6083	-2.9604	-2.8958	-2.6292	-2.975	-3.0062	-2.9062	-2.8792	-2.5125	-2.8375	-2.7146	-2.5604	-2.8146	-2.7375	-2.6688	115.866	91.773	131.151	159.476	208.300	121.978	188.960	-71.463	-63.778	123.542	33.336	231.356	192.188	202.139	249.972	194.067	0.00067161	0.00062453	0.00010652	1554.5	5.4022e-06	4.6684e-06	1540.1	419.32	6.6017e-06	3.0861e-06	474.07	157.95	137.35	46.354	4.2637e-06	56.748	0.00034338	0.00024802	6.3975e-05	1568.2	2.8633e-06	2.4209e-06	1561.5	427.33	2.8343e-06	2.5207e-06	473.59	160.72	140.11	47.522	2.7478e-06	58.238	19.038	-16.161	-16.150	-84.092	52.891	61.313	-84.136	-79.740	1.356	37.923	-80.201	-75.653	-75.297	-70.744	52.211	-71.303	-8191	255	
8058.734	1	1	0	0	0.16956	0.22238	0.15736	0.10791	0.23156	0.10142	0.40336	0.036529	0.1559	0.2795	0.10589	0.025867	0.11097	0.16504	0.13166	0.15682	-2.4333	-2.5563	-2.6854	-2.8667	-2.5958	-2.8542	-2.9104	-2.9104	-2.8688	-2.6021	-2.7979	-2.9896	-2.7417	-2.8979	-2.6521	-2.6979	-24.747	115.328	-73.397	-85.245	227.946	-70.711	174.422	185.068	161.579	222.682	132.006	-44.107	-66.375	197.368	190.746	192.356	0.00066126	0.0005527	0.00016317	1552.8	6.1176e-06	4.9075e-06	1543.8	420.78	7.3961e-06	6.4146e-06	471.86	158.05	137.16	46.459	6.1572e-06	56.716	0.00034062	0.00024727	6.5921e-05	1571.9	2.9153e-06	2.474e-06	1562.6	428.06	2.8237e-06	2.6304e-06	475.78	160.82	140.08	47.592	2.7179e-06	58.406	25.778	-13.902	-16.435	-84.297	54.146	51.602	-84.424	-79.488	16.788	45.181	-80.046	-75.763	-75.227	-70.943	45.663	-71.309	-8191	255	
8058.830	1	1	0	0	0.12153	0.14866	0.045435	0.44418	0.088295	0.089509	0.16701	0.23737	0.22247	0.25336	0.20077	0.10662	0.28136	0.21745	0.14268	0.25091	-2.3667	-2.6104	-2.6458	-2.8438	-2.5083	-2.8812	-2.9062	-2.775	-2.8542	-2.5938	-2.5708	-2.8146	-2.6333	-2.8896	-2.8167	-2.7979	19.815	233.294	228.749	220.297	-68.782	104.852	197.571	-94.157	45.526	95.465	261.329	131.621	-95.454	-84.950	66.310	191.482	0.0006779	0.0005356	0.0001411	1549.2	5.7786e-06	5.8161e-06	1541.7	419.95	5.4965e-06	5.338e-06	476.16	157.68	137.78	46.282	6.176e-06	57.109	0.00034024	0.00023177	6.3975e-05	1567.1	2.7514e-06	2.4342e-06	1561.4	427.32	2.7338e-06	2.5411e-06	474.13	160.62	140.3	47.536	2.7553e-06	58.441	25.857	-4.809	-17.289	-84.125	48.846	55.208	-84.316	-79.669	31.991	51.622	-79.978	-75.686	-75.144	-70.789	61.701	-71.427	-8191	255	
8058.925	1	1	0	0	0.069619	0.091551	0.11527	0.3047	0.21585	0.064349	0.31379	0.21729	0.19929	0.10944	0.16073	0.1972	0.20495	0.16464	0.15534	0.15293	-2.2875	-2.6292	-2.7062	-2.9313	-2.5458	-2.9729	-2.8979	-2.5167	-2.8438	-2.5938	-2.5833	-2.8083	-2.5062	-2.8667	-2.7042	-2.6063	41.359	12.073	141.326	233.493	172.566	35.577	214.114	203.424	143.228	-47.989	166.115	-41.587	-87.429	245.500	138.217	185.464	0.00071549	0.00055292	0.00018343	1557.1	5.5712e-06	5.1317e-06	1539.9	419.93	5.6037e-06	6.5477e-06	473.85	157.18	137.95	46.449	5.52e-06	56.867	0.00033386	0.00023109	6.2725e-05	1570.5	2.9244e-06	2.4979e-06	1559.2	427	2.7992e-06	2.5695e-06	474.1	160.67	140.33	47.514	2.6773e-06	58.391	23.337	-3.533	-12.474	-84.129	45.990	65.858	-84.187	-79.696	0.579	62.068	-80.496	-75.589	-75.411	-70.746	50.677	-71.363	-8191	255	
8059.021	1	1	0	0	0.34436	0.25689	0.062733	0.46368	0.12567	0.040884	0.22915	0.0793	0.077754	0.10523	0.067453	0.08014	0.21673	0.04593	0.038906	0.084779	-2.4354	-2.6521	-2.5563	-2.9417	-2.5667	-2.75	-2.7958	-2.6375	-2.6312	-2.5958	-2.6542	-3.0438	-2.5896	-2.7042	-2.7125	-2.5375	173.505	33.294	-23.540	234.885	-55.985	-55.697	227.798	234.778	151.301	-45.423	199.307	229.058	220.436	229.398	171.095	8.466	0.0007293	0.00052914	0.00012987	1549.4	4.6896e-06	4.4383e-06	1540.2	418.64	5.7969e-06	4.807e-06	472.17	157.19	137.31	46.421	6.3154e-06	56.876	0.00035274	0.00023865	6.5158e-05	1567.1	2.8723e-06	2.4372e-06	1559.1	426.07	2.8488e-06	2.5419e-06	472.6	160.52	140.01	47.54	2.7521e-06	58.323	24.073	-16.627	-20.162	-84.205	20.791	47.317	-84.210	-79.708	45.294	53.146	-79.895	-75.785	-75.346	-70.648	57.263	-71.406	-8191	255	
8059.117	1	1	0	0	0.28291	0.13981	0.09751	0.40286	0.21331	0.30728	0.20431	0.30281	0.4611	0.10675	0.13911	0.052403	0.44963	0.48742	0.023542	0.39892	-2.275	-2.5938	-2.5062	-2.9813	-2.4083	-2.6875	-2.9542	-2.7167	-2.8479	-2.7979	-2.575	-3.0208	-2.5667	-2.5312	-2.8229	-2.5479	0.649	56.491	10.993	167.931	-13.729	87.916	171.633	214.313	-17.751	37.803	-64.078	148.511	227.913	-79.191	79.294	234.745	0.0006878	0.00072492	0.00018937	1542.6	4.837e-06	3.8954e-06	1532.2	420.23	5.1898e-06	7.1114e-06	477.85	157.6	137.45	46.269	4.0603e-06	56.694	0.00034949	0.00024458	6.3851e-05	1563.1	2.858e-06	2.5578e-06	1555.2	426.27	2.9204e-06	2.4961e-06	473.25	160.53	139.98	47.409	2.6611e-06	58.205	28.378	-14.861	-27.497	-84.257	39.646	33.584	-84.161	-79.646	13.662	54.194	-80.434	-75.612	-75.307	-70.673	82.766	-71.437	-8191	255	
8059.238	1	1	0	0	0.078949	0.23431	0.050573	0.33037	0.11798	0.027502	0.14728	0.04655	0.17496	0.15159	0.070473	0.090521	0.13767	0.13945	0.074838	0.057991	-2.3729	-2.425	-2.4104	-2.95	-2.6083	-2.6125	-3.1083	-2.7938	-2.8604	-2.7021	-2.6271	-2.9271	-2.6937	-2.7313	-2.8958	-2.5708	147.286	154.153	220.879	202.845	183.786	-95.782	-2.721	52.808	191.709	-54.022	17.597	206.111	245.780	-97.014	81.889	145.049	0.00072258	0.00066318	0.00019055	1547.8	3.9017e-06	5.4094e-06	1529	418.08	5.75e-06	4.9876e-06	478.72	157.03	137.34	46.367	4.5227e-06	56.74	0.00033846	0.00023358	6.5807e-05	1565.3	2.9039e-06	2.326e-06	1552.4	425.46	2.8901e-06	2.493e-06	474.4	160.07	139.71	47.412	2.5593e-06	58.16	29.466	-4.095	-9.261	-83.969	34.814	52.077	-84.148	-79.657	25.940	39.122	-80.076	-75.638	-75.356	-70.551	62.868	-71.378	-8191	255	
8059.334	1	1	0	0	0.2399	0.15704	0.33611	0.28337	0.076378	0.22287	0.27772	0.46856	0.11952	0.083618	0.1105	0.19493	0.21691	0.1474	0.27371	0.084549	-2.3958	-2.6396	-2.6	-2.9396	-2.675	-2.6063	-2.9396	-2.8	-2.6729	-2.7562	-2.6437	-2.9542	-2.7875	-2.9021	-2.6979	-2.7458	79.994	206.785	-21.697	227.505	249.930	202.829	178.017	218.606	40.598	106.646	6.599	239.015	18.195	199.813	76.863	-66.112	0.00070382	0.00040833	0.00016922	1542.4	5.307e-06	4.8741e-06	1532.7	418.52	6.5287e-06	4.3702e-06	471.78	156.85	136.93	46.326	6.7753e-06	56.487	0.00033609	0.0002203	6.2e-05	1558	2.7126e-06	2.3511e-06	1548	425.06	2.8137e-06	2.317e-06	471.08	159.89	139.45	47.307	2.6776e-06	58.062	16.330	-4.948	-14.567	-84.069	50.473	60.078	-84.250	-79.838	27.569	58.851	-80.828	-75.541	-75.227	-70.681	59.195	-71.683	-8191	255	
8059.430	1	1	0	0	0.1023	0.036964	0.12129	0.3595	0.28021	0.050748	0.29132	0.29051	0.096424	0.092817	0.21566	0.17468	0.24627	0.26792	0.18013	0.22876	-2.2042	-2.7167	-2.6854	-3	-2.95	-2.6125	-3.0979	-2.7812	-2.7646	-2.8812	-2.5687	-2.8354	-2.7625	-2.5625	-2.9625	-2.6521	245.283	173.998	24.285	229.086	-14.873	64.484	208.428	206.299	17.046	215.386	213.734	180.403	238.128	243.315	57.829	218.720	0.00070561	0.00065336	0.00015297	1538.9	6.9535e-06	4.6555e-06	1528.6	416.51	4.0241e-06	6.4087e-06	477.66	156.99	136.75	46.271	3.7488e-06	56.604	0.00032357	0.0002252	6.2897e-05	1559.1	2.8591e-06	2.4675e-06	1549.8	424.87	2.7418e-06	2.4809e-06	473.49	160.08	139.45	47.348	2.6133e-06	58.08	23.529	-18.161	-5.305	-84.067	47.672	42.787	-84.107	-79.531	21.460	56.150	-79.739	-75.626	-75.303	-70.576	33.524	-71.172	-8191	255	
8059.501	1	1	0	0	0.12809	0.11363	0.15449	0.1937	0.14217	0.084613	0.36465	0.43261	0.29441	0.054386	0.028661	0.26711	0.27388	0.077695	0.10482	0.11061	-2.2396	-2.9417	-2.6667	-3.0438	-2.8375	-2.7167	-2.9646	-2.875	-2.6417	-2.8	-2.3583	-2.825	-2.7313	-2.6292	-2.8125	-2.5083	89.404	191.926	219.613	211.484	76.088	-37.217	212.553	225.200	242.311	27.817	116.776	208.811	227.586	212.474	24.985	228.066	0.00074141	0.00064142	0.00012781	1541.1	5.4301e-06	5.3018e-06	1524.9	418.17	3.5467e-06	3.5171e-06	476.43	156.72	136.52	46.118	4.897e-06	56.598	0.00033898	0.0002206	6.0636e-05	1556.4	2.7615e-06	2.342e-06	1545.5	424.83	2.7868e-06	2.2689e-06	471.49	159.62	139.32	47.228	2.5151e-06	58.038	23.704	-13.707	-2.758	-84.081	61.480	59.498	-84.251	-79.850	11.751	56.330	-79.861	-75.764	-75.329	-70.767	43.970	-71.216	-8191	255	
8059.622	1	1	0	0	0.26371	0.32773	0.101	0.1458	0.19194	0.30895	0.22634	0.15501	0.080422	0.22471	0.10873	0.26055	0.2717	0.29084	0.06018	0.21008	-1.9208	-2.8417	-2.4313	-2.9417	-2.6979	-2.5396	-2.8625	-2.7271	-2.6521	-2.8812	-2.4938	-2.7562	-2.7	-2.8521	-2.8854	-2.6604	-83.245	-14.883	-35.528	218.040	161.319	2.695	188.909	217.371	-12.313	-7.252	183.024	153.225	171.406	202.699	182.387	206.572	0.00071585	0.00053146	0.00013037	1539.8	6.7166e-06	5.1045e-06	1526.7	418.59	7.4794e-06	6.1582e-06	471.92	156.26	136.79	46.092	6.35e-06	56.448	0.00033149	0.00021614	6.2792e-05	1558.5	2.8067e-06	2.4342e-06	1547.7	425.2	2.7142e-06	2.3613e-06	472.32	159.61	139.21	47.18	2.6791e-06	58.035	23.035	-0.822	-17.819	-84.026	43.914	52.742	-84.279	-79.623	26.591	53.443	-79.942	-75.773	-75.386	-70.774	47.627	-71.519	-8191	255	
8059.718	1	1	0	0	0.032321	0.22998	0.17468	0.21532	0.26939	0.20718	0.45233	0.12531	0.1319	0.18469	0.25133	0.41676	0.1971	0.13646	0.097059	0.27853	-2.2458	-2.7521	-2.8167	-2.8187	-2.8979	-2.6083	-3.0812	-2.8167	-2.4458	-2.9813	-2.5458	-2.75	-3.0208	-2.4271	-2.6104	-2.5479	250.508	103.365	236.804	203.800	241.718	193.225	196.173	167.210	172.044	119.420	126.664	208.424	239.832	221.652	-67.032	162.399	0.0007013	0.00064147	0.00017007	1542	4.2045e-06	6.8344e-06	1528.1	416.9	6.2493e-06	4.8982e-06	476.51	156.67	136.2	46.008	6.8333e-06	56.763	0.00033164	0.00023232	6.1971e-05	1557.1	2.7067e-06	2.4034e-06	1546.7	424.6	2.7714e-06	2.3208e-06	470.9	159.85	139.3	47.193	2.6888e-06	58.131	26.186	-4.727	-13.182	-84.066	33.672	44.381	-84.203	-79.754	44.009	47.697	-79.847	-75.696	-75.333	-70.636	49.977	-71.330	-8191	255	
8059.814	1	1	0	0	0.22317	0.30457	0.13458	0.25874	0.18917	0.2034	0.28196	0.17022	0.15904	0.046273	0.34858	0.058991	0.2554	0.11275	0.11742	0.15732	-2.0667	-2.775	-2.5563	-2.8604	-2.8771	-2.5583	-2.9	-2.8271	-2.5958	-2.6813	-2.5438	-2.6979	-2.7604	-2.5125	-2.7021	-2.9167	93.186	200.216	247.333	-93.784	-71.226	21.367	234.630	221.588	-95.869	175.350	-72.810	-62.281	191.763	210.812	49.043	-56.395	0.00065769	0.00054119	0.00012465	1540.4	6.1167e-06	6.3002e-06	1527.3	417.61	5.9155e-06	4.8058e-06	472.24	156.7	136.97	46.18	6.7645e-06	56.604	0.00033831	0.0002206	6.201e-05	1556.2	2.7577e-06	2.548e-06	1546.3	424.74	2.7906e-06	2.2826e-06	470.66	159.73	139.34	47.235	2.5399e-06	57.993	24.598	-7.421	-11.051	-84.102	56.388	51.303	-84.178	-79.628	17.559	59.054	-80.121	-75.597	-75.211	-70.653	56.406	-71.438	-8191	255	
8059.933	1	1	0	0	0.10367	0.24378	0.267	0.095838	0.11999	0.11622	0.18892	0.40907	0.096594	0.27097	0.29328	0.23608	0.15616	0.10237	0.26126	0.33254	-2.0458	-2.6333	-2.5896	-2.7333	-2.7354	-2.6375	-2.8021	-3.0458	-2.7479	-2.8187	-2.725	-2.5854	-3.075	-2.6375	-2.8583	-2.8542	6.113	210.460	187.593	231.027	-64.949	132.410	139.024	182.927	213.469	101.370	-45.960	130.664	202.443	212.727	100.224	-77.414	0.00067453	0.0004082	0.00014171	1537.4	5.2946e-06	4.8215e-06	1522.8	418.02	4.9202e-06	5.0373e-06	468.89	156.44	136.69	46.063	4.6893e-06	56.587	0.00033479	0.00021614	6.1704e-05	1554.7	2.5719e-06	2.3283e-06	1545.2	424.65	2.7992e-06	2.2311e-06	469.87	159.67	139.13	47.181	2.4101e-06	57.95	26.619	-16.306	-18.281	-84.123	66.769	60.603	-84.086	-79.622	5.819	53.884	-80.521	-75.642	-75.256	-70.546	45.564	-71.351	-8191	255	
8060.029	1	1	0	0	0.21868	0.14025	0.126	0.19015	0.30743	0.24284	0.43371	0.29651	0.16653	0.25363	0.059916	0.11801	0.28561	0.13093	0.34695	0.23598	-1.9729	-2.6354	-2.6042	-2.7104	-2.7	-2.5875	-2.9458	-3.1146	-2.4271	-2.8271	-2.7521	-2.7167	-2.7354	-2.7792	-2.5917	-2.8438	134.799	175.309	-14.131	174.856	247.390	10.376	214.355	240.099	172.462	240.722	31.418	211.867	191.947	256.452	77.942	255.669	0.00066932	0.00054907	0.00019477	1539.9	3.4906e-06	5.9388e-06	1524.2	417.09	5.0784e-06	5.412e-06	471.63	156.19	136.93	46.041	7.5376e-06	56.554	0.00033574	0.0002156	6.2019e-05	1555.5	2.6518e-06	2.3552e-06	1545.9	423.76	2.877e-06	2.4219e-06	470.36	159.48	139.34	47.192	2.6525e-06	58.008	26.160	-4.226	-9.411	-84.010	65.502	42.015	-84.177	-79.744	18.819	58.007	-80.305	-75.681	-75.454	-70.703	43.907	-71.379	-8191	255	
8060.101	1	1	0	0	0.19278	0.18847	0.25669	0.30857	0.14236	0.066308	0.28259	0.11012	0.075712	0.11717	0.20058	0.25684	0.18325	0.067771	0.10206	0.19058	-1.8854	-2.575	-2.5125	-2.7562	-2.7979	-2.5187	-2.7396	-2.9813	-2.5646	-2.6688	-2.5917	-2.6708	-3.0083	-2.5583	-2.5208	-2.7729	88.723	-12.376	-19.540	-75.383	229.916	-58.855	231.396	162.484	220.214	241.664	71.483	-96.483	-43.451	237.156	-97.581	-95.474	0.00066539	0.00059005	0.00012669	1541.2	5.7753e-06	5.1576e-06	1526.5	418.03	3.5447e-06	4.7034e-06	473.15	156.64	136.27	45.988	5.8671e-06	56.406	0.00033964	0.00022163	6.1752e-05	1556.6	2.6858e-06	2.3742e-06	1546.9	424.57	2.749e-06	2.2099e-06	472.62	159.78	139.12	47.17	2.6963e-06	57.995	27.852	-12.884	-20.201	-83.846	38.681	53.787	-84.108	-79.677	28.424	50.946	-79.987	-75.521	-75.380	-70.552	51.918	-71.205	-8191	255	
8060.222	1	1	0	0	0.16525	0.070901	0.22349	0.27345	0.23404	0.2391	0.2081	0.11076	0.10038	0.068736	0.1114	0.25771	0.21984	0.039211	0.089793	0.070899	-2.1437	-2.8021	-2.7146	-2.7812	-2.8583	-2.7771	-2.5354	-2.9938	-2.625	-2.6604	-2.7958	-2.7188	-2.8979	-2.8271	-2.6167	-2.8417	244.098	-0.538	218.859	201.970	155.823	51.434	210.385	260.878	107.992	137.875	31.529	213.274	-90.255	49.675	236.050	-86.808	0.00068491	0.00063193	0.00016988	1538.1	5.3108e-06	5.4721e-06	1519.2	415.6	5.2691e-06	5.4822e-06	474.68	156.42	136.43	46.163	5.2899e-06	56.745	0.00033182	0.00022105	6.138e-05	1557.4	2.6535e-06	2.4463e-06	1546.2	423.82	2.8254e-06	2.3889e-06	471.74	159.75	139.23	47.275	2.6841e-06	58.014	21.088	-18.547	-18.549	-84.043	49.744	66.149	-84.242	-79.775	0.577	59.460	-80.012	-75.754	-75.237	-70.826	50.492	-71.402	-8191	255	
8060.318	1	1	0	0	0.063027	0.021717	0.18229	0.11033	0.13767	0.10962	0.019216	0.291	0.18065	0.057771	0.08855	0.22178	0.19415	0.19593	0.12156	0.22076	-2.0979	-2.7354	-2.7125	-2.7	-2.825	-2.7021	-2.7625	-3.0167	-2.725	-2.8229	-2.7188	-2.6042	-2.9229	-2.675	-2.5875	-2.9708	18.091	77.662	-64.919	197.723	81.174	97.668	201.502	219.158	14.582	207.462	1.715	24.787	261.721	151.430	232.210	216.034	0.00062602	0.00056666	0.00017252	1533	3.363e-06	6.3913e-06	1528.7	416.37	3.8287e-06	6.1004e-06	467.71	156.72	136.57	46.152	6.1487e-06	56.464	0.00033167	0.00021897	6.1561e-05	1554.4	2.6289e-06	2.3511e-06	1546.9	424.15	2.7652e-06	2.3579e-06	470.54	159.67	139.16	47.161	2.7409e-06	58.045	21.990	-8.447	-8.612	-84.171	67.570	55.284	-84.144	-79.713	10.070	65.900	-80.312	-75.874	-75.425	-70.750	59.030	-71.290	-8191	255	
8060.414	1	1	0	0	0.15024	0.14246	0.11642	0.12917	0.12642	0.079564	0.22792	0.32018	0.057166	0.076115	0.11314	0.11399	0.41679	0.28884	0.18858	0.23448	-1.9312	-2.5438	-2.8042	-2.6229	-2.6646	-2.8583	-2.7167	-2.9104	-2.9125	-2.6063	-2.6583	-2.7708	-2.8375	-2.8875	-2.675	-2.8646	89.427	-82.526	39.884	209.136	77.642	176.095	218.002	209.317	224.375	137.234	140.730	-36.095	210.115	260.682	125.381	166.239	0.00070235	0.00055812	0.00014697	1538.3	5.0338e-06	6.1559e-06	1525.2	417.37	6.5887e-06	6.5318e-06	477.97	156.57	136.66	46.189	4.9119e-06	56.671	0.00033215	0.00021972	6.0455e-05	1555	2.7671e-06	2.3477e-06	1544.4	424.14	2.7676e-06	2.3322e-06	473.47	159.69	139.19	47.202	2.5831e-06	57.996	23.557	-2.847	-4.342	-84.157	48.548	56.759	-84.205	-79.720	13.745	48.550	-79.935	-75.803	-75.399	-70.746	37.829	-71.375	-8191	255	
8060.535	1	1	0	0	0.084793	0.27477	0.2051	0.27045	0.12435	0.21805	0.17356	0.4155	0.11075	0.12136	0.12747	0.40578	0.066042	0.22305	0.045115	0.11293	-2.0979	-2.6229	-2.9	-2.7479	-2.9021	-2.9375	-2.8187	-3.1229	-2.7979	-2.6375	-2.8771	-2.7271	-2.6417	-2.9583	-2.5938	-2.9	75.455	121.115	159.577	230.494	-53.700	-52.578	183.063	244.936	209.144	151.653	62.060	228.869	204.711	-64.537	237.015	216.639	0.00070456	0.00067302	0.00012644	1539	5.6319e-06	5.8747e-06	1525.3	416.88	6.2521e-06	5.7172e-06	467.75	156.35	136.3	46.006	4.9242e-06	56.752	0.00034356	0.0002266	6.0712e-05	1555.6	2.6813e-06	2.3784e-06	1547.1	424.22	2.8275e-06	2.381e-06	470.76	159.48	139.15	47.133	2.7118e-06	58.009	24.001	-15.974	-8.203	-83.964	50.738	34.773	-84.176	-79.571	31.712	51.948	-79.814	-75.603	-75.290	-70.952	47.470	-71.355	-8191	255	
8060.631	1	1	0	0	0.18783	0.18185	0.14602	0.13931	0.23112	0.1363	0.13282	0.32977	0.19818	0.075503	0.26994	0.12245	0.41224	0.12055	0.092264	0.20006	-2.3021	-2.4708	-2.9458	-2.8563	-2.7167	-2.9083	-2.8896	-2.8375	-2.6813	-2.625	-2.8646	-2.725	-2.6312	-2.6542	-2.5479	-2.8354	-15.444	78.204	245.723	165.347	261.481	-10.808	182.392	212.084	72.794	-55.374	223.146	15.409	227.068	160.827	249.494	241.829	0.00071716	0.00060608	0.0001982	1531.9	5.9483e-06	4.9692e-06	1525.7	417.59	4.2116e-06	4.0678e-06	473.43	156.54	135.81	46.116	5.8589e-06	56.711	0.00033418	0.00022149	6.138e-05	1554.9	2.6244e-06	2.3446e-06	1545.4	424.26	2.7431e-06	2.3696e-06	469.28	159.65	138.94	47.149	2.6341e-06	58.005	23.019	-7.268	-7.862	-84.172	41.889	65.230	-84.176	-79.677	25.562	53.138	-79.900	-75.606	-75.287	-70.749	65.320	-71.563	-8191	255	
8060.725	1	1	0	0	0.16024	0.25805	0.23374	0.37871	0.087195	0.19217	0.13026	0.33335	0.30704	0.13901	0.3284	0.088243	0.22649	0.080156	0.27562	0.26093	-2.3271	-2.4813	-2.6354	-2.675	-2.6375	-2.9271	-2.8875	-2.7396	-2.6854	-2.4875	-2.8104	-2.6312	-2.6521	-2.7583	-2.5396	-2.7604	-11.252	169.502	188.268	180.590	154.310	100.890	213.212	220.911	91.629	-66.165	111.733	255.122	205.533	198.995	183.222	234.996	0.0006731	0.00054213	0.00017466	1537.2	6.6092e-06	6.7216e-06	1529.7	418.38	6.5475e-06	4.9005e-06	470.45	156.53	136.27	46.28	5.5096e-06	56.515	0.00033169	0.00023229	5.7392e-05	1556.3	2.8622e-06	2.3366e-06	1547.6	424.91	2.8818e-06	2.5191e-06	470.2	159.82	139.18	47.217	2.6399e-06	57.987	27.292	-12.820	-0.217	-84.208	35.995	47.058	-84.183	-79.642	37.994	51.811	-79.970	-75.533	-75.198	-70.920	78.880	-71.484	-8191	255	
8060.799	1	1	0	0	0.18776	0.18323	0.11899	0.16304	0.13284	0.22673	0.32982	0.23114	0.20568	0.17648	0.44582	0.2887	0.072344	0.11156	0.10951	0.069948	-2.4104	-2.4917	-2.7667	-2.8208	-2.5208	-2.9188	-2.8375	-2.7938	-2.6875	-2.5646	-2.6708	-2.8563	-2.6542	-2.9146	-2.5604	-2.7271	21.627	115.555	-78.549	231.193	199.392	-26.212	177.896	161.206	84.332	0.312	-91.098	151.489	4.623	1.557	231.566	232.115	0.00070449	0.00053332	0.00014618	1533.8	4.5052e-06	4.9877e-06	1526.2	418.38	6.4906e-06	5.5731e-06	472.47	156.33	136.27	46.137	6.1076e-06	56.817	0.00033813	0.00022231	6.1819e-05	1554.5	2.7573e-06	2.2805e-06	1544.4	424.24	2.5996e-06	2.4381e-06	471.26	159.42	139.35	47.141	2.5478e-06	58.031	27.702	-25.494	-31.746	-84.083	53.897	42.796	-84.080	-79.622	2.086	53.717	-80.138	-75.748	-75.438	-70.774	66.778	-71.471	-8191	255	
8060.918	1	1	0	0	0.15681	0.052976	0.094633	0.43057	0.047931	0.13442	0.42148	0.27688	0.21314	0.070826	0.17093	0.21065	0.31153	0.17985	0.23292	0.15513	-2.4313	-2.5687	-2.7396	-2.85	-2.5583	-2.9708	-2.8812	-2.8417	-2.7271	-2.5563	-2.7042	-2.7521	-2.8833	-2.9542	-2.7417	-2.6729	-28.557	23.866	56.172	227.307	153.202	-55.445	142.689	231.396	-71.708	-0.707	156.412	227.341	227.656	191.572	254.797	128.356	0.00070333	0.00056876	0.00012208	1535.9	3.7642e-06	5.6275e-06	1528.7	417.2	3.2897e-06	5.1297e-06	470.09	156.66	136.67	45.924	5.7633e-06	56.479	0.00033285	0.00022588	6.0264e-05	1555.8	2.7664e-06	2.3848e-06	1546.2	424.04	2.7586e-06	2.5316e-06	471.54	159.63	139.18	47.153	2.5003e-06	57.848	27.382	-2.172	0.892	-84.140	79.091	69.985	-84.369	-79.593	31.212	54.565	-80.113	-75.754	-75.389	-70.767	56.169	-71.483	-8191	255	
8061.014	1	1	0	0	0.10986	0.22172	0.15022	0.1993	0.20568	0.055167	0.34986	0.17373	0.16801	0.2909	0.058612	0.19156	0.08237	0.29602	0.24703	0.16375	-2.4646	-2.4125	-2.7979	-2.8979	-2.6083	-2.9271	-2.8958	-2.8146	-2.7687	-2.5208	-2.7979	-3.0896	-2.4813	-2.9313	-2.6292	-2.7104	-16.287	42.586	-18.840	213.657	-64.792	93.296	170.918	231.148	-76.080	-5.386	229.528	99.685	260.840	238.065	73.163	181.312	0.00069116	0.00065969	0.00015711	1539.7	3.4371e-06	5.3e-06	1520.4	416.74	4.1707e-06	4.5738e-06	472.62	156.02	136.65	46.105	5.3255e-06	56.325	0.00032837	0.0002234	5.9329e-05	1554.4	2.7285e-06	2.3131e-06	1542.6	423.92	2.6509e-06	2.3965e-06	471.51	159.48	139.28	47.121	2.5701e-06	57.908	23.220	-1.763	2.592	-84.038	49.361	58.026	-84.226	-79.613	-11.948	40.290	-79.673	-75.592	-75.150	-70.734	69.287	-71.184	-8191	255	
8061.110	1	1	0	0	0.12561	0.2888	0.086456	0.27748	0.28703	0.041132	0.12019	0.41967	0.18546	0.053311	0.16971	0.19156	0.25787	0.18965	0.081288	0.10603	-2.2604	-2.7458	-2.5312	-2.8208	-2.5958	-2.7417	-3.1188	-2.7104	-2.7062	-2.6396	-2.7083	-2.9875	-2.6667	-2.7438	-2.7979	-2.6188	-70.455	151.053	135.270	248.209	103.551	212.550	228.087	205.677	255.849	21.714	123.477	-57.285	221.854	196.163	168.362	196.943	0.00074123	0.00062495	0.00019654	1538.7	4.0186e-06	5.7911e-06	1524.1	417.55	3.8759e-06	4.0878e-06	471.3	156.77	136.14	46.286	4.654e-06	56.652	0.00033149	0.00022163	5.8928e-05	1553.7	2.7264e-06	2.3689e-06	1544.9	424.12	2.633e-06	2.3651e-06	470.2	159.61	139.01	47.188	2.509e-06	57.996	26.341	-7.111	-22.352	-84.142	37.213	58.163	-84.184	-79.646	16.557	52.252	-79.657	-75.627	-75.201	-70.817	42.135	-71.370	-8191	255	
8061.206	1	1	0	0	0.0070313	0.073635	0.21966	0.13096	0.14513	0.14993	0.16872	0.29609	0.13463	0.2928	0.13058	0.22175	0.076518	0.16668	0.1038	0.14454	-2.6146	-2.8042	-2.5354	-3.0187	-2.5812	-2.5917	-2.8917	-2.7167	-2.6208	-2.5604	-2.6042	-2.8979	-2.7042	-2.6917	-2.6917	-2.8	-24.435	-53.988	100.303	190.332	146.268	231.766	205.913	237.555	172.700	79.085	151.473	245.171	-51.788	163.852	110.924	229.644	0.00070401	0.00065412	0.00014577	1535	6.5468e-06	6.1521e-06	1528.1	417.52	4.8166e-06	4.2371e-06	475.12	156.04	136.44	45.939	5.0693e-06	56.637	0.0003278	0.00022479	5.9234e-05	1552.6	2.7115e-06	2.337e-06	1545.2	423.9	2.6777e-06	2.3666e-06	469.93	159.39	139.16	47.081	2.5665e-06	57.969	28.038	-13.598	-17.743	-84.137	46.750	54.640	-84.178	-79.474	10.475	56.859	-79.969	-75.704	-75.316	-70.864	50.284	-71.480	-8191	255	
8061.327	1	1	0	0	0.096724	0.058066	0.039887	0.13547	0.074831	0.080869	0.22463	0.13299	0.093204	0.083274	0.13907	0.080627	0.166	0.12717	0.027165	0.20107	-2.4646	-2.7208	-2.4958	-2.8937	-2.5271	-2.7812	-3.0542	-2.8208	-2.7271	-2.7	-2.6354	-2.9333	-2.6292	-2.6937	-2.825	-2.6396	86.300	185.790	5.356	166.232	226.477	214.857	-81.913	128.441	8.748	-84.423	-9.264	133.294	247.218	198.160	143.799	223.020	0.0007254	0.00061909	0.00016509	1540.1	6.8697e-06	6.7048e-06	1525	416.47	5.6489e-06	4.8538e-06	474.68	156.3	136.71	45.993	6.2647e-06	56.358	0.00033916	0.00021233	6.014e-05	1555.6	2.6653e-06	2.2718e-06	1546.6	423.44	2.6798e-06	2.2754e-06	471.69	159.41	139.28	47.126	2.4763e-06	57.91	24.361	-10.777	-24.577	-83.925	40.470	38.013	-84.383	-79.529	11.649	53.608	-79.619	-75.641	-75.312	-70.771	66.334	-71.295	-8191	255	
8061.398	1	1	0	0	0.21942	0.26985	0.11501	0.020981	0.071897	0.2822	0.28239	0.2431	0.13836	0.15245	0.22337	0.069427	0.14271	0.042401	0.039998	0.10106	-2.1896	-2.6146	-2.5146	-3.0187	-2.5396	-2.5812	-3.0896	-2.8354	-2.7229	-2.8167	-2.5021	-2.9583	-2.7708	-2.9104	-2.7958	-2.6792	171.987	-76.787	-94.238	-63.299	-95.049	-23.539	199.167	231.560	3.608	111.890	-9.239	98.153	-43.389	193.509	257.562	48.850	0.00071159	0.00055907	0.00017496	1536.6	6.4597e-06	4.3843e-06	1524.2	416.66	8.3238e-06	4.354e-06	472.05	156.03	136.28	46.187	4.3327e-06	56.449	0.00032868	0.00021294	5.9586e-05	1552.5	2.6362e-06	2.29e-06	1541.7	423.68	2.6474e-06	2.1137e-06	471.14	159.52	139.17	47.171	2.3784e-06	57.916	25.366	-22.298	2.818	-84.240	48.383	60.158	-84.128	-79.491	17.783	56.933	-80.253	-75.613	-75.356	-70.822	37.167	-71.509	-8191	255	
8061.494	1	1	0	0	0.084678	0.22256	0.086067	0.075705	0.15888	0.20852	0.25529	0.19802	0.24928	0.13806	0.14126	0.27191	0.31614	0.13674	0.18475	0.18782	-2.2875	-2.6292	-2.425	-2.9208	-2.6937	-2.7562	-2.9813	-2.7938	-2.7146	-2.7958	-2.4375	-3.0729	-3.0333	-2.7021	-2.8479	-2.7542	-31.170	57.149	250.287	194.754	152.527	166.519	243.842	183.067	191.317	6.574	-4.617	249.420	-39.525	33.524	112.533	-33.985	0.00064614	0.00056312	0.0001994	1535.7	6.348e-06	6.4773e-06	1524.8	415.73	3.2132e-06	6.5945e-06	466.84	156.75	136.17	46.172	5.1787e-06	56.514	0.00032966	0.00020971	6.2611e-05	1551.3	2.6049e-06	2.2767e-06	1543.7	423.5	2.5466e-06	2.3772e-06	468.35	159.52	139.11	47.11	2.5557e-06	57.996	22.855	-15.900	-14.358	-84.083	44.149	50.074	-84.076	-79.663	19.321	44.143	-80.262	-75.595	-75.075	-70.787	50.197	-71.305	-8191	255	
8061.615	1	1	0	0	0.060337	0.23665	0.11497	0.24552	0.213	0.46213	0.36031	0.088665	0.13703	0.068425	0.0031075	0.19566	0.31658	0.18285	0.029578	0.15506	-2.3646	-2.8042	-2.4792	-3.0104	-2.7729	-2.5542	-3.1229	-2.825	-2.7333	-3.1146	-2.4708	-2.7458	-2.7188	-2.5292	-2.9896	-2.7708	110.058	213.117	119.489	187.749	213.900	-0.512	197.091	199.258	146.924	190.141	-61.431	203.982	-94.141	-68.811	196.351	164.547	0.00068695	0.00058883	0.00013902	1537.6	8.448e-06	6.0106e-06	1522.6	415.58	3.1048e-06	4.7912e-06	473.28	155.44	136.81	45.964	5.3617e-06	56.373	0.00032516	0.00021659	5.8766e-05	1553.4	2.6841e-06	2.3841e-06	1541.6	423.24	2.6443e-06	2.1675e-06	468.58	158.89	139.1	47.124	2.4288e-06	57.852	26.445	-8.383	-4.583	-84.065	84.926	54.668	-84.266	-79.524	-3.292	61.366	-80.595	-75.705	-75.428	-70.659	36.817	-71.447	-8191	255	
8061.711	1	1	0	0	0.16627	0.20284	0.30828	0.11091	0.062968	0.098896	0.34037	0.3295	0.10388	0.19005	0.16301	0.48741	0.1902	0.22462	0.14303	0.26986	-2.3312	-3.0354	-2.4562	-2.9646	-2.6854	-2.6146	-3.0021	-2.8354	-2.6917	-2.7396	-2.4958	-2.9042	-2.7167	-2.5396	-2.8021	-2.7896	-33.671	136.664	183.378	172.603	147.612	246.284	193.510	-89.543	-11.627	9.662	-1.938	240.723	131.321	-93.857	158.038	146.490	0.00070914	0.00059361	0.00014668	1529.1	6.0694e-06	5.988e-06	1523.6	416.95	7.2889e-06	7.0174e-06	474.96	156.05	135.66	45.95	6.7797e-06	56.292	0.00032687	0.00021505	5.9262e-05	1549	2.6049e-06	2.2835e-06	1542.3	423.53	2.6602e-06	2.2648e-06	469.82	159.21	138.61	47.067	2.4033e-06	57.745	25.799	-18.401	-9.373	-84.051	48.962	38.824	-84.082	-79.457	4.287	55.528	-80.150	-75.466	-75.412	-70.685	56.350	-71.484	-8191	255	
8061.806	1	1	0	0	0.15793	0.25169	0.23237	0.029985	0.093628	0.21394	0.26417	0.28015	0.18015	0.23304	0.29134	0.15957	0.14354	0.17359	0.17272	0.055472	-2.2042	-2.9271	-2.4667	-2.8146	-2.7146	-2.6188	-2.9917	-2.725	-2.5333	-2.775	-2.5896	-2.8063	-2.8708	-2.7521	-2.7417	-2.8521	108.754	161.287	194.759	17.954	162.837	240.445	212.302	119.104	-69.296	194.975	30.960	22.584	240.257	188.223	146.642	-92.351	0.00065821	0.00064607	0.00013628	1531.4	6.3203e-06	5.5849e-06	1514.5	416.28	7.1007e-06	4.8239e-06	465.65	156.36	136.56	46.053	5.1382e-06	56.456	0.00031339	0.00020555	5.4673e-05	1546.8	2.7004e-06	2.1883e-06	1534.8	422.43	2.5917e-06	2.1455e-06	467.64	158.99	138.81	47.107	2.4194e-06	57.818	23.419	-1.822	-3.620	-84.151	55.419	50.142	-84.107	-79.590	1.208	43.402	-80.828	-75.512	-75.248	-70.676	63.994	-71.588	-8191	255	
8061.903	1	1	0	0	0.13721	0.28391	0.32976	0.091954	0.17093	0.19791	0.16306	0.13353	0.26253	0.22713	0.26151	0.10739	0.057122	0.059674	0.1251	0.14357	-2.2375	-2.7687	-2.5563	-2.8854	-2.7354	-2.5062	-2.8583	-2.7625	-2.6667	-3.0708	-2.5771	-2.8604	-3.0583	-2.7417	-2.8563	-2.8458	165.537	31.652	243.022	208.929	210.290	186.845	183.414	131.875	200.427	197.661	159.009	209.400	102.986	140.909	117.274	159.622	0.00063871	0.00063922	0.00015407	1524.7	4.5642e-06	6.6711e-06	1514	415.1	5.9615e-06	5.3761e-06	476.83	155.98	135.5	45.81	5.942e-06	56.283	0.00032563	0.00019997	5.8461e-05	1545.5	2.598e-06	2.3708e-06	1536.1	422.36	2.623e-06	2.2432e-06	471.15	159.08	138.55	47.023	2.4191e-06	57.808	25.209	-9.615	-12.054	-84.040	47.588	49.028	-84.127	-79.582	15.671	48.713	-80.431	-75.564	-75.278	-70.609	45.376	-71.506	-8191	255	
8061.998	1	1	0	0	0.17517	0.14801	0.37624	0.24188	0.1076	0.13785	0.3556	0.28278	0.20386	0.050745	0.23501	0.3437	0.070464	0.15113	0.14358	0.21989	-2.125	-2.8854	-2.5	-2.8479	-2.7542	-2.6646	-3.0229	-2.8896	-2.5438	-2.8833	-2.5396	-2.7	-2.9062	-2.7562	-2.5083	-2.8333	-18.112	82.379	231.847	203.261	61.104	68.976	230.270	171.182	16.649	28.054	97.132	-18.266	242.243	181.080	167.331	-21.984	0.00066142	0.00056192	0.00015734	1522.9	4.5043e-06	6.694e-06	1512.8	415.17	6.4928e-06	6.2425e-06	473.73	155.61	135.86	46.096	6.0431e-06	56.289	0.00032868	0.00020814	6.0197e-05	1544.1	2.4879e-06	2.3112e-06	1533.5	421.91	2.6629e-06	2.1879e-06	470.32	158.96	138.5	47.098	2.4051e-06	57.751	24.333	-11.785	-5.062	-84.184	26.953	54.249	-84.153	-79.716	33.551	58.337	-79.896	-75.567	-75.152	-70.907	53.095	-71.273	-8191	255	
8062.094	1	1	0	0	0.12379	0.15719	0.36097	0.23673	0.10589	0.094473	0.23906	0.34735	0.10153	0.10507	0.063207	0.39974	0.16925	0.18205	0.12298	0.23066	-2.0167	-2.6958	-2.6604	-2.6979	-2.7438	-2.5604	-3.025	-2.8479	-2.5021	-2.9	-2.7479	-2.6771	-2.8021	-2.6604	-2.7167	-3.0125	-17.174	224.782	78.948	-92.371	86.302	162.576	230.881	170.567	-55.651	230.625	-83.502	206.790	243.114	-86.409	-38.071	188.477	0.00068726	0.00065992	0.00016801	1526.3	6.418e-06	3.9857e-06	1513.8	414.28	5.2487e-06	5.4116e-06	468.87	156.03	135.87	45.982	6.2073e-06	56.158	0.00032103	0.0002014	5.6906e-05	1543.5	2.3744e-06	2.1644e-06	1534.5	421.75	2.7194e-06	2.1561e-06	467.27	158.97	138.67	47.109	2.3116e-06	57.783	24.331	-13.281	-3.627	-84.035	53.207	63.378	-84.252	-79.694	0.269	44.112	-79.988	-75.602	-75.349	-70.820	63.011	-71.436	-8191	255	
8062.215	1	1	0	0	0.3304	0.143	0.19852	0.084607	0.1633	0.092603	0.19235	0.17349	0.098069	0.11671	0.29299	0.30136	0.35688	0.19215	0.085892	0.13529	-2.1396	-2.7167	-2.7021	-2.7625	-2.9229	-2.7875	-2.7938	-3.0479	-2.4208	-2.8458	-2.6458	-2.7729	-2.9021	-2.6354	-2.6188	-3	-51.536	-8.884	97.302	-59.490	199.079	-44.547	254.645	213.605	6.885	-76.187	-11.587	-93.694	213.903	-21.563	107.099	216.803	0.00067979	0.0007285	0.00014618	1521.7	3.5921e-06	4.8107e-06	1511.7	413.12	5.716e-06	4.8013e-06	467.18	155.79	135.89	45.991	5.1826e-06	56.313	0.00032013	0.00019002	5.5656e-05	1537.5	2.4323e-06	2.095e-06	1532.3	421.05	2.6622e-06	2.0547e-06	467.67	158.87	138.62	47.111	2.3432e-06	57.792	25.942	-8.789	-7.451	-84.059	37.079	67.215	-84.159	-79.762	9.066	42.684	-80.646	-75.644	-75.198	-70.659	56.022	-71.314	-8191	255	
8062.311	1	1	0	0	0.21854	0.26239	0.23707	0.34101	0.17009	0.14308	0.20747	0.40108	0.1927	0.064277	0.072449	0.12088	0.25234	0.22366	0.25284	0.34282	-2.2812	-2.8312	-2.6354	-2.65	-2.775	-2.7146	-2.7229	-3.0062	-2.5667	-2.725	-2.7188	-2.5042	-2.8354	-2.5896	-2.5708	-2.9813	-93.904	214.060	8.167	230.509	-79.501	168.811	130.143	181.428	-74.502	134.610	-8.985	-92.675	131.670	-71.800	232.935	-82.102	0.00069468	0.00046878	0.00017676	1522.4	7.8859e-06	6.1635e-06	1516.2	416.44	6.0543e-06	6.3434e-06	467.41	155.82	135.49	45.955	3.5489e-06	56.411	0.00032	0.00020113	5.9415e-05	1540.9	2.541e-06	2.1272e-06	1533.7	422.41	2.58e-06	2.1202e-06	468.06	158.94	138.46	46.991	2.386e-06	57.798	25.033	-15.480	-11.152	-84.058	59.938	52.428	-84.097	-79.658	-8.871	50.197	-80.383	-75.661	-74.980	-70.806	59.403	-71.253	-8191	255	
8062.407	1	1	0	0	0.15563	0.22373	0.072476	0.29137	0.19503	0.026402	0.10687	0.34363	0.21244	0.32137	0.27507	0.14079	0.10556	0.21233	0.20084	0.25155	-2.025	-2.5563	-2.7479	-2.6917	-2.8771	-2.6271	-2.7313	-2.9979	-2.7271	-2.6292	-2.8917	-2.5438	-2.7854	-2.8146	-2.6229	-2.9479	226.845	-86.229	176.664	245.113	33.172	113.246	169.733	219.805	-83.986	-75.366	-51.442	-67.716	130.495	-76.140	198.883	197.600	0.00064838	0.00062439	0.0001122	1525	4.8762e-06	6.6314e-06	1513.9	414.3	5.4928e-06	6.5839e-06	464.92	156.14	135.81	45.908	6.095e-06	56.339	0.0003151	0.00020593	5.536e-05	1540.8	2.4948e-06	2.2581e-06	1529.7	421.39	2.5583e-06	2.1047e-06	466	158.93	138.64	46.975	2.3108e-06	57.81	25.203	-8.831	-6.694	-84.023	44.096	47.091	-84.170	-79.795	4.470	48.391	-80.089	-75.579	-75.335	-70.454	52.987	-71.370	-8191	255	
8062.503	1	1	0	0	0.083404	0.083967	0.095913	0.29511	0.13995	0.021718	0.36852	0.16989	0.05925	0.1143	0.24304	0.32603	0.095103	0.3367	0.061888	0.17466	-2.2771	-2.6271	-2.6937	-2.6646	-2.7812	-2.7417	-2.6646	-2.8333	-2.6604	-2.6583	-2.8542	-2.5	-2.8167	-2.875	-2.7208	-2.8521	137.509	-77.114	120.053	225.385	-2.340	-6.991	211.191	190.800	-71.831	120.958	202.610	243.420	173.915	245.004	173.487	208.941	0.00076031	0.00054521	9.9223e-05	1518.3	6.4812e-06	5.3966e-06	1511.6	413.47	6.1765e-06	4.5697e-06	471.51	155.98	136.02	45.954	5.3193e-06	56.238	0.0003145	0.00019632	5.5742e-05	1538.7	2.4712e-06	2.1564e-06	1530.8	421.25	2.5528e-06	2.2125e-06	467.66	158.79	138.59	46.987	2.5989e-06	57.663	25.913	-8.851	-9.704	-84.175	51.999	50.018	-84.266	-79.734	15.533	58.586	-80.842	-75.537	-75.168	-70.906	69.176	-71.445	-8191	255	
8062.624	1	1	0	0	0.33967	0.098943	0.21038	0.41344	0.1892	0.075944	0.20804	0.13642	0.19148	0.1705	0.20105	0.23178	0.12551	0.2502	0.21908	0.16878	-2.1688	-2.6708	-2.9896	-2.7708	-2.5854	-2.7604	-2.8333	-3.0375	-2.7583	-2.5417	-2.7333	-2.5896	-2.8292	-2.8083	-2.7417	-2.7188	-43.800	-88.896	142.060	-87.771	99.357	77.689	167.635	261.183	165.554	225.755	-71.897	215.528	171.036	222.355	63.824	194.666	0.00067518	0.00043339	0.00015746	1525.6	7.4795e-06	4.9321e-06	1513.8	414.65	3.0849e-06	5.6856e-06	467.9	155.29	136.27	45.772	4.856e-06	56.332	0.00031942	0.00020283	5.5494e-05	1541.7	2.6018e-06	2.2593e-06	1532.4	421.3	2.5418e-06	2.2458e-06	467.81	158.76	138.64	46.989	2.441e-06	57.833	25.224	-15.861	-16.022	-83.990	58.683	44.299	-84.163	-79.589	24.403	62.357	-80.354	-75.706	-75.326	-70.899	71.112	-71.542	-8191	255	
8062.695	1	1	0	0	0.33004	0.18167	0.035988	0.11478	0.22952	0.23794	0.14259	0.33654	0.13192	0.18232	0.21304	0.15891	0.32925	0.27449	0.37085	0.12676	-2.2104	-2.5438	-2.7083	-2.8833	-2.6625	-2.7479	-2.7104	-3.05	-2.8667	-2.4479	-2.7562	-2.7396	-2.8708	-2.9729	-2.6125	-2.8667	-57.434	71.687	-13.862	-55.913	5.449	-23.647	197.420	188.942	-93.241	-43.144	-96.212	194.775	-90.696	241.803	-29.216	159.420	0.0006985	0.00049726	0.00015471	1523.5	6.8505e-06	4.3964e-06	1510.7	414.72	7.0991e-06	5.0242e-06	471.5	155.44	135.68	45.956	5.6784e-06	56.434	0.00032071	0.00020569	5.3786e-05	1540.1	2.5223e-06	2.271e-06	1530.8	421.8	2.603e-06	2.2485e-06	466.83	158.84	138.39	47.033	2.4223e-06	57.85	22.354	-17.046	-9.173	-84.183	66.517	56.921	-84.321	-79.575	8.452	42.467	-80.512	-75.710	-75.166	-70.879	54.254	-71.549	-8191	255	
8062.792	1	1	0	0	0.33099	0.16009	0.044619	0.2169	0.092936	0.13538	0.36014	0.13689	0.19063	0.096217	0.031056	0.096099	0.068053	0.30416	0.098421	0.19583	-2.2771	-2.5104	-2.75	-2.7646	-2.5833	-2.8542	-2.7188	-2.8563	-2.6063	-2.4208	-2.65	-2.6896	-2.7438	-2.9479	-2.5104	-2.9437	-10.264	251.118	41.488	237.807	-7.624	-31.560	157.292	255.896	-67.348	-2.903	-95.333	261.412	-0.157	247.832	247.800	-69.037	0.00072948	0.00049555	0.00014473	1524.9	5.5594e-06	6.4602e-06	1513.8	414.12	5.0808e-06	5.306e-06	466.39	155.98	136.41	45.89	4.9597e-06	56.313	0.00032548	0.00020181	5.6248e-05	1541.6	2.6039e-06	2.2039e-06	1532.4	421.65	2.6691e-06	2.225e-06	468.07	158.93	138.68	46.97	2.4565e-06	57.714	29.283	-18.543	-8.200	-84.072	62.373	55.935	-84.199	-79.558	8.860	63.362	-80.167	-76.004	-75.308	-70.658	36.440	-71.532	-8191	255	
8062.886	1	1	0	0	0.25196	0.17663	0.18272	0.45637	0.1845	0.074248	0.17931	0.15223	0.21479	0.10104	0.0349	0.27926	0.37841	0.37425	0.075638	0.22804	-2.3771	-2.6	-2.6396	-2.8688	-2.6792	-2.7708	-2.7938	-2.9146	-2.8104	-2.5521	-2.7708	-2.7104	-2.6937	-2.9833	-2.4917	-2.7583	8.968	109.919	213.500	238.718	-58.322	-81.836	218.419	238.548	-49.445	2.980	1.601	198.968	228.455	248.014	60.214	152.231	0.00067284	0.00062559	0.00015585	1519.2	4.4223e-06	6.1244e-06	1511.9	414.98	6.1884e-06	5.4374e-06	469.42	155.13	136	45.779	5.5276e-06	56.167	0.00030922	0.00020685	5.5179e-05	1538.2	2.5337e-06	2.1189e-06	1529	421.42	2.5755e-06	2.138e-06	468.41	158.7	138.52	46.901	2.3838e-06	57.737	26.849	-18.551	-12.813	-83.961	46.881	42.602	-84.116	-79.542	31.458	52.020	-79.653	-75.588	-75.537	-70.675	56.170	-71.394	-8191	255	
8063.007	1	1	0	0	0.047522	0.23103	0.15404	0.34526	0.21172	0.15049	0.34102	0.23869	0.081908	0.039469	0.13742	0.19419	0.1748	0.049467	0.2199	0.10943	-2.1729	-2.5104	-2.6708	-2.7938	-2.6354	-2.8604	-2.7458	-2.8688	-2.7687	-2.5354	-2.5167	-2.8771	-2.7875	-3.0187	-2.7271	-2.7417	51.287	-67.630	-52.236	164.836	173.249	-30.205	181.240	175.667	126.537	96.374	171.073	207.358	260.313	241.025	146.452	253.347	0.0006502	0.00056999	0.00013403	1521.4	7.3056e-06	5.3343e-06	1511.5	414.69	7.1601e-06	6.048e-06	474.51	155.47	136.14	45.975	6.7001e-06	56.313	0.00032096	0.00020855	5.6171e-05	1539.1	2.616e-06	2.1033e-06	1529.5	421.61	2.5827e-06	2.1978e-06	469.69	158.79	138.61	46.944	2.395e-06	57.71	26.397	-9.732	-2.306	-84.048	46.094	64.336	-84.199	-79.722	9.725	53.207	-80.419	-75.846	-75.106	-70.656	56.562	-71.452	-8191	255	
8063.103	1	1	0	0	0.065274	0.061357	0.13325	0.17241	0.1392	0.12859	0.47425	0.13178	0.048164	0.26754	0.11573	0.3734	0.23856	0.13362	0.13137	0.33221	-2.4854	-2.4479	-2.8812	-3.0417	-2.5083	-2.8354	-2.7875	-2.7271	-2.8354	-2.4979	-2.7938	-3.0333	-2.4854	-2.8792	-2.7417	-2.6104	8.733	70.804	-60.173	-56.170	-30.956	-86.914	176.564	-83.005	56.681	220.255	69.054	-54.161	205.473	169.406	250.090	103.181	0.00066729	0.00056927	0.0001848	1515.8	5.9658e-06	5.4659e-06	1509.4	415.37	5.9745e-06	4.1281e-06	473.82	155.5	135.22	46.042	6.3185e-06	56.375	0.00031905	0.00020865	5.4473e-05	1537.7	2.5563e-06	2.0586e-06	1530.3	421.77	2.5951e-06	2.1183e-06	468.39	158.83	138.22	47	2.4921e-06	57.754	24.210	-14.221	-9.125	-84.157	54.556	55.240	-84.216	-79.798	35.644	70.690	-80.682	-75.688	-75.321	-70.528	57.385	-71.315	-8191	255	
8063.199	1	1	0	0	0.13221	0.1603	0.25353	0.16417	0.43103	0.090925	0.094419	0.15132	0.11847	0.15584	0.087785	0.23697	0.11809	0.11423	0.26413	0.34477	-2.5146	-2.4521	-2.7479	-2.8792	-2.6771	-2.825	-2.9604	-2.7104	-2.8958	-2.6188	-2.7979	-2.9375	-2.7979	-2.775	-2.65	-2.8104	128.864	213.887	213.535	163.366	21.375	25.327	194.501	228.494	87.010	17.169	75.583	155.848	-57.575	223.949	147.529	205.440	0.00066935	0.00052584	0.00015508	1522.7	3.5607e-06	5.613e-06	1506.3	413.37	3.4061e-06	5.8217e-06	474.59	155.85	135.53	45.937	6.2543e-06	56.366	0.00030655	0.00020382	5.8384e-05	1538.9	2.5907e-06	2.1378e-06	1529.8	420.91	2.6086e-06	2.364e-06	470.96	158.92	138.35	46.96	2.4716e-06	57.726	20.021	-9.450	-21.494	-84.091	51.373	52.334	-84.113	-79.778	55.047	42.484	-80.471	-75.480	-75.353	-70.554	53.573	-71.236	-8191	255	
8063.295	1	1	0	0	0.020383	0.079138	0.11984	0.50507	0.41383	0.29929	0.39088	0.15364	0.087876	0.3086	0.052671	0.20775	0.24977	0.15189	0.45766	0.21117	-2.4396	-2.5333	-2.4854	-2.8229	-2.6479	-3.0542	-2.8771	-2.6708	-2.8292	-2.7188	-2.5625	-2.8958	-2.5542	-2.8854	-2.6708	-2.6312	172.207	-10.566	-87.738	210.284	148.367	143.872	221.107	241.022	102.784	143.234	184.383	203.032	181.084	159.207	-3.977	11.114	0.00068944	0.0005341	0.0001174	1523.6	7.5155e-06	5.1452e-06	1514	414.24	5.0781e-06	4.2404e-06	470.41	155.48	135.81	45.693	5.5526e-06	56.247	0.00031495	0.00019561	5.7554e-05	1540.5	2.6594e-06	2.1591e-06	1532	421.2	2.5721e-06	2.3976e-06	469.52	158.88	138.62	46.872	2.4626e-06	57.72	23.297	-10.202	-9.493	-84.173	55.633	47.964	-84.258	-79.674	18.921	58.885	-79.695	-75.658	-75.376	-70.421	50.836	-71.309	-8191	255	
8063.391	1	1	0	0	0.12299	0.23157	0.16029	0.33746	0.26745	0.11954	0.2916	0.21578	0.090905	0.22403	0.027701	0.22586	0.2097	0.12792	0.11671	0.11719	-2.3917	-2.4896	-2.5375	-2.9208	-2.4375	-2.8104	-3.0333	-2.7562	-2.7708	-2.8063	-2.6479	-2.9667	-2.7417	-2.8271	-2.8458	-2.55	18.581	123.739	151.568	261.750	-40.071	121.055	226.998	242.579	-74.168	136.827	222.165	233.076	236.275	110.541	42.247	221.942	0.00068466	0.00060484	0.00010322	1525.8	3.7679e-06	5.5848e-06	1509.1	413.97	6.8042e-06	5.2204e-06	463.95	155.58	135.82	46.015	4.8995e-06	56.27	0.00032669	0.00021291	5.4988e-05	1540.4	2.6643e-06	2.1894e-06	1531.8	421.39	2.5642e-06	2.197e-06	467.32	158.71	138.52	46.896	2.3896e-06	57.787	25.393	-5.815	-11.289	-84.159	40.297	53.718	-84.272	-79.739	12.131	55.144	-80.359	-75.598	-75.353	-70.830	55.057	-71.218	-8191	255	
8063.487	1	1	0	0	0.026301	0.35622	0.33372	0.2754	0.1693	0.063089	0.35317	0.5287	0.05664	0.26163	0.077528	0.16487	0.089635	0.19923	0.0080697	0.17316	-2.4688	-2.5938	-2.4458	-2.9688	-2.5729	-2.8792	-2.9979	-2.9021	-2.825	-2.7979	-2.6542	-2.9396	-2.7417	-3.0104	-2.8937	-2.65	20.750	40.712	75.933	173.041	-90.229	211.112	226.905	188.745	114.552	172.324	91.288	230.245	202.072	190.638	35.674	260.769	0.00067708	0.00060338	0.00014777	1525.2	4.7521e-06	4.0526e-06	1509.9	415.53	4.9179e-06	5.2123e-06	468.05	155.71	135.74	45.848	6.6176e-06	56.228	0.00031143	0.00021121	5.7831e-05	1541.9	2.5546e-06	2.1872e-06	1533.3	422.02	2.5222e-06	2.253e-06	468.01	158.88	138.53	46.947	2.4392e-06	57.76	26.020	-28.231	-16.100	-83.984	73.821	46.240	-84.288	-79.664	16.862	62.042	-79.741	-75.754	-75.157	-70.656	39.270	-71.577	-8191	255	
8063.583	1	1	0	0	0.10524	0.14756	0.13783	0.37067	0.15709	0.082594	0.29635	0.075151	0.022304	0.1371	0.15541	0.069905	0.31204	0.080893	0.10166	0.18848	-2.5125	-2.6042	-2.5021	-2.9	-2.8729	-2.6771	-2.975	-2.6854	-2.7604	-2.7646	-2.4458	-2.6292	-2.8167	-2.8125	-2.9271	-2.6104	146.290	204.419	7.446	227.862	25.946	-41.288	226.531	140.334	29.376	107.745	190.555	-74.656	244.379	-7.513	106.936	212.688	0.00064685	0.00068806	0.0001725	1520.3	5.8306e-06	5.261e-06	1516.6	413.18	4.1059e-06	5.4038e-06	469.16	155.86	136.11	45.959	6.7044e-06	56.344	0.00032272	0.00020443	5.5828e-05	1540.2	2.6004e-06	2.1595e-06	1533.6	421.17	2.5315e-06	2.1247e-06	467.93	158.93	138.78	46.999	2.3396e-06	57.81	21.710	-7.528	8.110	-84.175	61.147	49.383	-84.246	-79.613	23.037	54.224	-80.351	-75.450	-75.377	-70.453	45.257	-71.487	-8191	255	
8063.704	1	1	0	0	0.22652	0.21813	0.12277	0.11006	0.14108	0.24051	0.49284	0.092859	0.14571	0.34779	0.19343	0.19743	0.31007	0.14654	0.092597	0.28964	-2.2729	-2.7979	-2.3563	-3.0146	-2.8271	-2.6417	-3.125	-2.5812	-2.5812	-2.8083	-2.5292	-2.9437	-2.85	-2.7333	-2.8125	-2.6229	65.557	257.699	203.785	171.036	92.504	260.980	240.729	-43.091	114.423	107.396	54.906	191.146	-88.042	221.599	161.836	221.605	0.00072518	0.00053278	0.00010762	1524.3	3.6643e-06	4.6964e-06	1516.1	414.68	3.5635e-06	5.1006e-06	479.65	155.55	135.78	45.923	6.7765e-06	56.255	0.00032267	0.00020623	5.4912e-05	1541	2.5653e-06	2.2429e-06	1532.4	421.46	2.5673e-06	2.1289e-06	469.04	158.87	138.47	46.996	2.3856e-06	57.768	24.366	-24.039	-17.088	-83.967	56.414	65.450	-84.077	-79.680	11.136	65.848	-80.350	-75.677	-75.214	-70.606	45.335	-71.318	-8191	255	
8063.799	1	1	0	0	0.24586	0.099478	0.11129	0.092722	0.19502	0.10085	0.18878	0.1212	0.096868	0.13836	0.2008	0.25113	0.18588	0.19451	0.075552	0.2745	-2.2438	-2.7542	-2.4854	-3.0917	-2.8396	-2.7021	-3.0542	-2.6708	-2.7583	-2.8375	-2.6813	-2.9042	-2.7938	-2.7167	-2.8021	-2.7521	140.807	58.029	250.727	230.391	-83.502	-61.867	137.277	253.579	-9.453	171.129	128.472	229.581	-82.676	231.990	-66.256	242.395	0.00067601	0.00056838	0.00017108	1526.9	5.8854e-06	4.7309e-06	1514.4	416.47	6.8848e-06	5.1876e-06	469.79	155.71	135.93	45.938	3.8402e-06	56.282	0.00032209	0.00019718	5.8365e-05	1541.7	2.5632e-06	2.2744e-06	1532	422.07	2.5043e-06	2.1887e-06	467.96	158.88	138.55	47.05	2.3842e-06	57.776	24.608	-2.782	-8.254	-84.049	45.295	43.143	-84.207	-79.651	17.726	53.409	-80.419	-75.601	-75.466	-70.643	52.574	-71.306	-8191	255	
8063.895	1	1	0	0	0.23335	0.20279	0.039478	0.18719	0.10814	0.15682	0.27742	0.12984	0.26842	0.44535	0.22708	0.37644	0.15556	0.36385	0.054596	0.11395	-2.2292	-2.8958	-2.6167	-2.8792	-2.8479	-2.4938	-2.9667	-2.7458	-2.6625	-2.8646	-2.3688	-2.7875	-2.7854	-2.5125	-2.9458	-2.4396	115.495	-30.101	132.321	248.479	-74.443	110.308	188.084	176.646	-47.072	150.527	12.619	214.689	-91.811	-87.555	141.949	158.507	0.0006684	0.00048172	0.00018021	1523.9	5.2643e-06	6.3011e-06	1509.8	414.67	5.8669e-06	6.0004e-06	465.97	155.42	135.77	46.034	6.0502e-06	56.289	0.00031435	0.00020218	5.8556e-05	1541.8	2.5219e-06	2.1663e-06	1532.2	421.71	2.6347e-06	2.1115e-06	467.86	158.88	138.61	47.04	2.3903e-06	57.811	21.727	3.912	-16.186	-84.110	45.314	62.328	-84.142	-79.719	8.338	48.024	-80.147	-75.736	-75.040	-70.598	38.076	-71.438	-8191	255	
8063.991	1	1	0	0	0.1449	0.20635	0.089341	0.13962	0.1769	0.31994	0.27306	0.15868	0.15346	0.26722	0.080089	0.19922	0.10731	0.17993	0.17689	0.21547	-2.2417	-2.8667	-2.5854	-2.9104	-2.7875	-2.7	-3.1458	-2.85	-2.6979	-2.8271	-2.5	-2.8354	-2.8542	-2.7104	-2.7417	-2.9125	179.898	30.723	-0.408	214.579	-20.755	167.703	207.058	195.093	134.566	83.935	226.771	178.611	141.337	167.264	112.965	152.162	0.00070883	0.00052974	0.00017842	1525.2	5.2839e-06	5.0839e-06	1511.4	414.47	5.7321e-06	4.9586e-06	470.71	155.84	136.06	45.959	4.3556e-06	56.27	0.00032131	0.00019632	5.9214e-05	1540.7	2.4747e-06	2.1686e-06	1532	422.05	2.5796e-06	2.0573e-06	468.21	159.16	138.62	47.04	2.3695e-06	57.736	19.908	-5.637	-18.582	-84.114	53.830	40.794	-84.208	-79.536	14.299	58.752	-80.312	-75.580	-75.572	-70.772	59.800	-71.388	-8191	255	
8064.087	1	1	0	0	0.32535	0.16611	0.13526	0.081389	0.23216	0.10303	0.28056	0.382	0.2061	0.12522	0.19501	0.20478	0.020728	0.21269	0.33019	0.041055	-2.0729	-2.8771	-2.5812	-2.8271	-2.8312	-2.6542	-3.1312	-2.9	-2.6833	-2.7313	-2.7917	-2.9458	-3.0333	-2.7833	-2.7521	-2.8479	184.886	-95.616	-87.419	-94.567	38.402	210.700	153.306	230.767	180.750	-66.104	83.365	222.212	-41.528	190.891	135.920	41.039	0.00071543	0.00055227	0.00017949	1518.2	5.5965e-06	4.7848e-06	1509.7	414.1	4.9374e-06	4.2971e-06	471.98	156.03	136.45	45.904	5.5932e-06	56.142	0.00030829	0.00019196	5.6791e-05	1537.9	2.5487e-06	2.1902e-06	1532	422.31	2.6388e-06	2.1629e-06	469.36	159.1	138.86	47.02	2.277e-06	57.817	25.419	-9.665	-12.613	-83.974	53.906	49.380	-84.095	-79.667	38.945	61.079	-80.639	-75.673	-75.253	-70.607	57.121	-71.577	-8191	255	
8064.183	1	1	0	0	0.17941	0.10712	0.21858	0.10837	0.28707	0.12611	0.30441	0.2783	0.077426	0.064647	0.20556	0.3818	0.37981	0.3333	0.2608	0.10432	-1.9083	-2.9313	-2.65	-2.9437	-2.8604	-2.6854	-2.9396	-2.8271	-2.475	-3.075	-2.6604	-2.6271	-2.9042	-2.6729	-2.7896	-2.8479	161.870	169.094	4.508	22.888	86.363	156.598	209.591	200.672	38.123	-19.270	235.553	223.901	209.747	206.557	221.336	119.043	0.00070359	0.00065079	0.00013816	1518.8	6.7387e-06	5.3586e-06	1506.3	414.61	5.8058e-06	4.7501e-06	470.44	155.14	136.1	46.06	5.5826e-06	56.249	0.00031837	0.0001938	5.4635e-05	1538.3	2.4e-06	2.1117e-06	1527.6	421.41	2.4953e-06	2.0346e-06	467.22	158.79	138.79	47.033	2.3234e-06	57.833	24.089	-10.520	-15.766	-83.934	52.013	62.563	-84.184	-79.692	20.391	56.536	-79.795	-75.604	-75.174	-70.614	67.872	-71.540	-8191	255	
8064.304	1	1	0	0	0.055457	0.2906	0.048828	0.094578	0.12375	0.19951	0.33508	0.29977	0.4063	0.21639	0.012736	0.09572	0.015905	0.363	0.03596	0.16685	-2.0521	-2.6542	-2.6167	-2.7562	-2.8708	-2.5604	-2.9708	-2.8167	-2.5604	-2.8604	-2.5833	-2.6312	-2.7958	-2.55	-2.7396	-2.7542	-81.745	-18.997	118.420	209.094	41.315	261.192	237.702	165.138	-13.731	87.229	-91.523	-22.692	105.667	222.859	-57.419	-87.794	0.00068742	0.00054916	9.6132e-05	1520.8	6.5376e-06	5.7448e-06	1512.3	415.88	6.6511e-06	5.7701e-06	471.59	155.85	136.55	46.031	4.4309e-06	56.451	0.00031789	0.00019367	5.33e-05	1538.2	2.4285e-06	2.0749e-06	1533.3	422.39	2.4795e-06	2.1365e-06	468.47	159.11	138.73	47.043	2.3274e-06	57.82	24.548	-10.876	-7.536	-84.150	47.698	61.576	-84.252	-79.647	15.361	48.237	-79.794	-75.664	-75.297	-70.826	62.620	-71.173	-8191	255	
8064.400	1	1	0	0	0.11014	0.13815	0.23066	0.15953	0.15674	0.061858	0.15102	0.29176	0.08578	0.068621	0.25989	0.048194	0.41408	0.31543	0.2117	0.25294	-2.1813	-2.5375	-2.8208	-2.6146	-2.9688	-2.6604	-2.9792	-2.8708	-2.5146	-2.8958	-2.7896	-2.5333	-3.0396	-2.7521	-2.5271	-2.8646	-92.212	173.578	-37.470	237.473	74.284	133.853	132.958	169.595	145.230	33.551	143.513	234.686	225.863	204.388	-66.855	88.246	0.000684	0.00052004	0.00019289	1523	4.1445e-06	5.5528e-06	1510.6	415.09	6.3558e-06	5.5458e-06	465.2	155.58	136.45	45.891	5.0637e-06	56.339	0.00030942	0.00019683	5.3233e-05	1540	2.4198e-06	2.0942e-06	1530.9	421.86	2.4757e-06	2.0971e-06	466.94	159.08	138.86	46.949	2.3511e-06	57.766	21.243	-24.076	1.789	-84.036	43.226	54.799	-84.162	-79.587	25.911	50.667	-80.121	-75.695	-75.182	-70.677	52.539	-71.287	-8191	255	
8064.496	1	1	0	0	0.12424	0.17891	0.094539	0.27482	0.33222	0.11571	0.34484	0.10025	0.099522	0.21694	0.12492	0.073688	0.14411	0.19887	0.155	0.19016	-2.1542	-2.5979	-2.8563	-2.8333	-2.9458	-2.65	-2.9167	-2.9417	-2.5021	-2.7938	-2.7875	-2.7125	-2.8354	-2.6312	-2.45	-2.9729	186.545	68.385	-47.406	248.644	123.361	-14.423	196.591	168.694	-96.080	190.789	-64.952	-86.870	209.005	-85.154	107.338	250.693	0.00071568	0.00058836	0.00019083	1521.1	5.4306e-06	5.6428e-06	1508.5	416.21	4.6285e-06	5.1785e-06	468.61	156.03	136.53	46.078	4.9241e-06	56.232	0.00032591	0.00019847	5.5131e-05	1539	2.5223e-06	2.1291e-06	1529.5	422.1	2.5552e-06	2.0445e-06	466.58	159.09	138.78	47.101	2.3414e-06	57.875	25.975	-12.843	-12.175	-84.090	58.419	53.465	-84.238	-79.855	31.480	60.252	-79.957	-75.640	-75.351	-70.703	53.042	-71.491	-8191	255	
8064.568	1	1	0	0	0.15706	0.11128	0.12748	0.33385	0.074633	0.085941	0.26867	0.062589	0.12813	0.067906	0.06199	0.19136	0.12552	0.058045	0.11643	0.26775	-2.1583	-2.4521	-2.7083	-2.5312	-2.9229	-2.8667	-2.8	-2.9271	-2.7021	-2.8792	-3.0208	-2.6583	-2.85	-2.8396	-2.6813	-2.8604	208.581	105.045	10.254	206.344	239.161	-49.870	-65.162	-62.483	161.791	235.789	-24.385	209.041	165.040	-79.086	-82.488	227.965	0.00073935	0.00056638	0.00015023	1522	6.5022e-06	6.1119e-06	1507.5	414.33	7.0251e-06	5.4864e-06	475.54	155.51	136.12	46.029	4.3591e-06	56.542	0.0003201	0.00019643	5.5236e-05	1538.7	2.4695e-06	2.1325e-06	1529.2	421.51	2.4888e-06	2.1134e-06	467.79	159.24	138.85	47.05	2.2925e-06	57.887	26.579	7.756	0.602	-84.010	60.355	68.526	-84.358	-79.463	6.461	57.624	-79.994	-75.654	-75.212	-70.687	58.196	-71.410	-8191	255	
8064.664	1	1	0	0	0.15634	0.038056	0.16889	0.2621	0.27264	0.043164	0.18468	0.2434	0.23169	0.22693	0.20536	0.1651	0.26895	0.13229	0.17375	0.33379	-2.0563	-2.5875	-2.7958	-2.8688	-2.4958	-2.7938	-2.8458	-2.8271	-2.6688	-2.5208	-2.725	-2.7083	-2.9125	-2.7396	-2.4625	-2.6979	-55.006	9.512	-44.638	218.465	40.644	252.521	208.753	236.416	80.606	135.242	-44.295	230.647	-39.220	222.370	141.016	221.143	0.00072134	0.00062306	0.00014971	1519.3	5.5464e-06	4.9438e-06	1511.3	414.59	5.1424e-06	5.6906e-06	472.49	156.37	135.88	45.933	4.5383e-06	56.444	0.00031274	0.00019782	5.3748e-05	1537.5	2.4837e-06	2.1071e-06	1530.2	421.87	2.4705e-06	2.1175e-06	468.59	159.18	138.8	47.029	2.2795e-06	57.803	29.182	-20.036	-13.140	-84.090	35.688	43.565	-84.242	-79.659	22.453	53.228	-79.904	-75.769	-75.338	-70.692	62.616	-71.271	-8191	255	
8064.783	1	1	0	0	0.25654	0.061692	0.14817	0.32365	0.13875	0.042996	0.17925	0.34391	0.2074	0.11068	0.25409	0.29652	0.23784	0.062681	0.18025	0.26051	-2.1896	-2.7354	-2.8583	-2.8438	-2.7458	-2.85	-2.8021	-2.7875	-2.7313	-2.6854	-2.8542	-2.7125	-2.7042	-2.9688	-2.5604	-2.9562	206.667	-21.502	-37.137	209.527	-54.919	-54.002	156.330	214.800	32.198	225.584	197.815	168.765	134.845	144.827	-32.290	204.566	0.00068163	0.00052909	0.00013137	1518.7	4.7936e-06	5.1783e-06	1508.2	416.16	4.9549e-06	5.8252e-06	466.41	155.9	136.17	46.086	4.8377e-06	56.581	0.00031203	0.00018795	5.1201e-05	1538.9	2.4188e-06	1.9903e-06	1529.1	421.97	2.5432e-06	2.2568e-06	466.51	158.97	138.69	47.015	2.3497e-06	57.886	28.079	-17.746	5.819	-84.169	39.772	62.743	-84.147	-79.535	11.403	50.998	-79.704	-75.485	-75.205	-70.763	57.015	-71.458	-8191	255	
8064.879	1	1	0	0	0.2311	0.23044	0.29947	0.28912	0.1805	0.22755	0.44405	0.39761	0.18698	0.26936	0.12948	0.32291	0.35538	0.15849	0.046212	0.11446	-2.1875	-2.5625	-2.6396	-2.7167	-2.6583	-2.7667	-2.7313	-2.7625	-2.7479	-2.6937	-2.9125	-2.8271	-2.8021	-2.8729	-2.6292	-2.9833	-94.798	-34.296	223.743	230.137	-21.552	-79.768	163.694	227.900	85.456	9.179	-36.981	200.774	255.859	188.303	124.223	-50.799	0.00072319	0.0006084	0.00018638	1522.9	6.3861e-06	5.9995e-06	1508.3	413.07	7.3243e-06	5.1558e-06	474.3	156.08	137.2	45.897	4.9461e-06	56.154	0.00031435	0.00019248	5.349e-05	1537.8	2.3646e-06	1.9519e-06	1530.2	421.24	2.5094e-06	2.0142e-06	467.72	159.02	139.02	47.01	2.2853e-06	57.739	25.635	-22.181	-7.550	-83.938	48.544	45.603	-84.018	-79.496	14.795	60.025	-80.234	-75.711	-75.160	-70.691	31.607	-71.167	-8191	255	
8064.977	1	1	0	0	0.072013	0.22563	0.03255	0.23274	0.26806	0.11013	0.13369	0.18189	0.10035	0.24313	0.030184	0.18196	0.085418	0.15611	0.09573	0.11086	-2.3958	-2.4646	-2.7687	-2.7417	-2.5542	-2.7729	-2.6813	-2.9854	-2.6521	-2.7542	-2.7271	-2.6833	-2.6688	-2.8375	-2.7208	-2.4604	-89.631	62.669	208.818	223.022	115.236	220.785	162.243	216.582	118.916	88.826	126.790	242.419	-57.595	251.755	257.511	132.308	0.00071092	0.00058689	0.00015591	1518.8	6.4105e-06	6.0786e-06	1509.6	414.29	6.7005e-06	3.6156e-06	474.08	155.85	135.74	45.741	3.4321e-06	56.3	0.00030949	0.00020061	5.2966e-05	1536.7	2.4563e-06	2.0142e-06	1527.5	421.42	2.4155e-06	2.0146e-06	468.49	159.18	138.55	46.997	2.3817e-06	57.758	21.569	-11.487	-9.102	-84.107	37.529	38.988	-84.234	-79.559	-13.708	56.646	-80.214	-75.688	-75.320	-70.649	65.752	-71.361	-8191	255	
8065.096	1	1	0	0	0.054717	0.25333	0.13236	0.29232	0.18135	0.13589	0.28719	0.26931	0.19003	0.33537	0.3106	0.29593	0.31778	0.26156	0.06499	0.16716	-2.2458	-2.4208	-2.6375	-2.8958	-2.5479	-2.8333	-2.7229	-2.6646	-2.8438	-2.5604	-2.75	-2.7229	-2.7333	-2.7333	-2.5396	-2.8271	136.496	20.963	47.584	188.495	49.228	180.576	128.249	254.112	183.873	-37.014	122.872	227.445	243.284	192.611	202.002	255.209	0.0006879	0.00067809	0.0001365	1520	6.4751e-06	5.1462e-06	1512.8	414.96	5.3026e-06	4.9771e-06	474	156.02	136.2	46.004	4.8093e-06	56.477	0.00031128	0.00020382	5.3386e-05	1536.7	2.5112e-06	2.0005e-06	1528.9	422.19	2.4155e-06	2.1391e-06	467.34	159.27	138.86	47.009	2.2943e-06	57.795	27.358	-9.871	-11.407	-84.047	53.418	52.750	-84.207	-79.520	16.193	45.067	-79.659	-75.852	-75.161	-70.601	47.363	-71.509	-8191	255	
8065.167	1	1	0	0	0.051468	0.2544	0.17921	0.41172	0.066054	0.2801	0.10656	0.3248	0.089994	0.14622	0.13576	0.09558	0.20294	0.40356	0.10911	0.26693	-2.2854	-2.4375	-2.6312	-2.7271	-2.3563	-2.9542	-2.7313	-2.8396	-2.7208	-2.5479	-2.7271	-2.7396	-2.6521	-2.8479	-2.6813	-2.7542	47.266	29.704	-24.770	251.427	2.733	239.490	177.554	232.614	225.455	-22.491	184.134	239.556	253.689	-92.910	192.067	251.778	0.00072691	0.00068873	0.00022742	1519.7	6.8149e-06	6.048e-06	1515.6	414.33	5.2053e-06	5.6493e-06	468.84	155.85	136	45.917	4.5332e-06	56.283	0.00030444	0.0001984	5.5561e-05	1538	2.4685e-06	2.0661e-06	1530.5	421.86	2.3986e-06	2.0615e-06	466.42	159.21	138.77	47.01	2.2785e-06	57.772	25.263	-5.494	-14.504	-84.027	42.823	55.457	-84.183	-79.562	-3.804	58.208	-80.695	-75.494	-75.233	-70.687	44.979	-71.181	-8191	255	
8065.264	1	1	0	0	0.11651	0.012227	0.10277	0.09366	0.32363	0.25857	0.17593	0.2288	0.10015	0.18378	0.20917	0.17006	0.16547	0.15283	0.083085	0.26943	-2.3	-2.55	-2.4917	-2.8271	-2.5125	-2.7896	-2.8063	-2.8312	-2.7104	-2.6792	-2.6979	-2.8479	-2.4688	-2.8312	-2.6667	-2.5938	-68.122	180.690	46.113	8.496	37.979	-11.455	161.686	168.858	-33.046	233.041	191.445	195.703	215.272	218.694	76.920	182.415	0.00067416	0.00072884	0.00012028	1520.5	5.6289e-06	5.9842e-06	1506	415.33	3.9856e-06	5.4258e-06	470.51	156.55	135.63	45.928	4.3084e-06	56.351	0.00031052	0.00020453	5.2909e-05	1537	2.4744e-06	2.0301e-06	1528	422.29	2.412e-06	2.1058e-06	466.66	159.19	138.8	46.997	2.2792e-06	57.782	24.969	-4.732	2.605	-84.155	73.073	53.438	-84.041	-79.635	45.400	47.982	-79.939	-75.829	-75.175	-70.862	55.865	-71.431	-8191	255	
8065.384	1	1	0	0	0.31231	0.12078	0.043175	0.19033	0.2375	0.21821	0.24882	0.16152	0.2074	0.24981	0.16849	0.19743	0.15116	0.020395	0.11318	0.15683	-2.3563	-2.5292	-2.5229	-2.9271	-2.5396	-2.8021	-2.7062	-2.7771	-2.7687	-2.55	-2.4021	-2.8688	-2.675	-2.9542	-2.625	-2.5792	-35.464	98.093	30.508	226.066	194.717	88.187	193.380	212.248	257.844	226.967	-47.178	218.218	149.904	230.957	192.378	170.210	0.00061757	0.00059123	0.00016533	1517.5	5.1626e-06	4.7103e-06	1508.8	414.85	7.6167e-06	4.6739e-06	469.57	156.7	136.35	45.933	7.5529e-06	56.404	0.00030796	0.0001982	5.4559e-05	1536.6	2.4667e-06	2.0237e-06	1527.2	421.8	2.411e-06	2.0524e-06	467.98	159.35	138.81	46.986	2.2925e-06	57.859	27.443	2.614	-6.774	-84.153	50.338	54.720	-84.130	-79.726	19.909	45.093	-80.353	-75.676	-75.274	-70.716	65.060	-71.506	-8191	255	
8065.480	1	1	0	0	0.16366	0.12906	0.20225	0.4524	0.19609	0.24846	0.35265	0.23131	0.26964	0.13927	0.3201	0.37138	0.23015	0.26588	0.084611	0.16824	-2.3333	-2.4625	-2.6396	-2.9125	-2.5583	-2.7479	-2.9813	-2.55	-2.6937	-2.7667	-2.5479	-2.9208	-2.65	-3.0854	-2.8521	-2.6542	0.404	170.818	0.375	227.116	253.164	-93.060	210.684	-83.211	77.022	-18.252	-30.979	222.508	135.804	245.749	30.858	202.432	0.00068839	0.0006967	0.00015164	1518.4	5.6801e-06	5.2261e-06	1509.2	416.22	6.2416e-06	3.2943e-06	469.36	155.94	136.31	45.864	3.8141e-06	56.467	0.00030713	0.00020205	5.2689e-05	1535.6	2.4358e-06	2.0582e-06	1529.8	422.02	2.378e-06	2.1077e-06	469.15	159.38	139.11	46.988	2.2465e-06	57.913	24.465	-12.120	-2.298	-84.138	28.776	48.303	-84.192	-79.613	-1.054	57.144	-79.767	-75.701	-75.171	-70.493	43.552	-71.520	-8191	255	
8065.576	1	1	0	0	0.10471	0.2563	0.17431	0.20606	0.1971	0.061068	0.15719	0.07537	0.12728	0.2124	0.17227	0.33921	0.34513	0.14575	0.15034	0.068528	-2.2479	-2.6833	-2.6917	-3.1667	-2.65	-2.8354	-3.0833	-2.7625	-2.9167	-2.5771	-2.6167	-2.9792	-2.725	-2.6417	-2.8979	-2.6146	97.705	-94.943	170.637	-91.980	154.694	-66.997	173.502	141.417	119.332	241.233	25.784	240.521	243.480	168.030	211.522	219.999	0.00068533	0.00052524	0.0001606	1522.3	5.0864e-06	5.5001e-06	1507.9	414.37	2.6867e-06	5.2628e-06	476.3	156.01	136.19	45.924	4.4971e-06	56.38	0.00031223	0.00018788	5.4597e-05	1538.2	2.4751e-06	1.9842e-06	1529.6	422.01	2.4771e-06	2.0925e-06	470.36	159.38	139.11	47.122	2.2285e-06	57.796	25.479	-10.040	-15.813	-84.211	50.522	64.952	-84.211	-79.621	-26.227	63.280	-79.813	-75.691	-75.040	-70.708	45.690	-71.450	-8191	255	
8065.697	1	1	0	0	0.066139	0.12505	0.14703	0.27746	0.25575	0.09916	0.2062	0.22963	0.19703	0.23683	0.16237	0.090976	0.13445	0.11188	0.26828	0.31085	-2.225	-2.5187	-2.6854	-3.0833	-2.5792	-2.7687	-3.1771	-2.8021	-2.8083	-2.8375	-2.7687	-2.8125	-2.6688	-2.9146	-2.9	-2.7	121.137	-71.873	237.803	-95.521	-63.920	-53.375	228.661	240.245	-57.321	130.877	15.339	235.287	-68.562	231.455	111.387	232.984	0.00074138	0.00062275	0.00018457	1521	3.7578e-06	6.1777e-06	1505	415.93	5.169e-06	5.7657e-06	467.47	156.31	136.12	45.937	5.9017e-06	56.346	0.00031347	0.00018716	5.619e-05	1536.5	2.4685e-06	2.0665e-06	1527.8	422.25	2.5067e-06	1.9513e-06	467.9	159.37	138.99	47.031	2.2767e-06	57.922	24.699	-9.527	-6.572	-84.041	43.821	54.371	-84.261	-79.774	18.471	72.822	-79.916	-75.523	-75.053	-70.660	59.754	-71.421	-8191	255	
8065.793	1	1	0	0	0.061447	0.13509	0.091344	0.40234	0.12998	0.14934	0.16892	0.27889	0.13335	0.16748	0.06559	0.21221	0.161	0.19487	0.096264	0.38511	-2.6375	-2.8792	-2.5292	-3.0771	-2.7062	-2.7062	-3.0542	-2.6146	-2.775	-2.7375	-2.7104	-3.0583	-2.6813	-2.6854	-2.9167	-2.6396	-69.243	177.920	46.643	-93.175	-41.800	206.557	163.428	210.319	231.678	19.801	112.754	226.731	-94.880	199.044	93.227	172.880	0.00070152	0.00047558	0.00015034	1518.5	6.3713e-06	6.692e-06	1512.2	415.97	6.5688e-06	6.649e-06	469.1	156.75	136.15	45.928	5.9156e-06	56.509	0.00030296	0.00018696	5.1554e-05	1536.8	2.3962e-06	1.9804e-06	1528.2	422.65	2.4389e-06	1.9782e-06	466.74	159.5	139.07	47.05	2.2008e-06	57.909	27.727	-2.238	-16.260	-84.083	39.688	67.123	-83.947	-79.685	19.010	43.264	-79.260	-75.650	-75.448	-70.868	69.499	-71.201	-8191	255	
8065.865	1	1	0	0	0.18505	0.12951	0.31463	0.16223	0.010903	0.18287	0.059229	0.45557	0.14753	0.089432	0.15367	0.35499	0.12404	0.16097	0.13036	0.23595	-2.2896	-2.8292	-2.5854	-3.0687	-2.6542	-2.6688	-2.9896	-2.7375	-2.5812	-2.7625	-2.4646	-2.9604	-2.7646	-2.6854	-2.775	-2.7625	112.396	258.745	122.953	214.246	32.443	13.905	151.957	237.749	238.890	48.349	63.141	233.732	-10.710	29.718	138.079	195.378	0.00066412	0.00063184	0.00014245	1518.9	8.4447e-06	5.6903e-06	1514.5	415.13	5.4224e-06	6.7263e-06	466.22	156.57	136.16	45.833	5.0737e-06	56.533	0.00030411	0.00017988	5.2279e-05	1536.3	2.4112e-06	2.0282e-06	1527.8	422.03	2.3219e-06	1.976e-06	467.26	159.65	138.96	47	2.2008e-06	57.853	25.360	-5.039	-8.971	-83.943	38.234	57.136	-84.250	-79.631	31.203	53.409	-80.442	-75.585	-75.222	-70.598	48.060	-71.453	-8191	255	
8065.984	1	1	0	0	0.082015	0.034015	0.061014	0.04452	0.04865	0.078242	0.45723	0.4337	0.20653	0.1922	0.1376	0.10174	0.16348	0.28396	0.24524	0.21085	-2.2562	-2.8	-2.4333	-2.9292	-2.5708	-2.3792	-3.0083	-2.675	-2.5021	-2.9104	-2.6063	-2.9	-2.8854	-2.5896	-2.8167	-2.9083	24.833	-32.811	84.001	216.588	215.782	196.522	201.304	223.653	-60.262	186.889	64.768	34.666	-45.799	174.985	-94.652	203.325	0.00068205	0.00051096	0.0001615	1518.3	4.8477e-06	4.2404e-06	1511.5	414.36	6.521e-06	4.3654e-06	467.31	156.73	136.57	45.794	6.9949e-06	56.64	0.00031862	0.00019013	5.3614e-05	1536.1	2.4247e-06	1.9831e-06	1528.9	421.85	2.485e-06	2.1084e-06	467.36	159.51	139.06	47.009	2.2447e-06	57.896	24.240	-0.605	-9.836	-84.025	49.693	46.481	-84.125	-79.729	29.428	49.893	-80.307	-75.722	-75.292	-70.907	52.892	-71.248	-8191	255	
8066.080	1	1	0	0	0.14703	0.19947	0.11956	0.126	0.19367	0.065973	0.31602	0.19885	0.34698	0.061956	0.1638	0.25172	0.033824	0.077422	0.035039	0.24334	-2.2042	-2.8312	-2.5687	-2.8896	-2.5938	-2.5583	-2.8958	-2.9146	-2.4729	-2.6854	-2.5563	-2.8583	-2.7667	-2.675	-2.9917	-2.8792	-45.692	104.981	110.682	216.331	137.247	184.851	222.105	-82.590	201.293	134.437	212.002	174.601	-49.980	236.292	209.632	-87.091	0.00071316	0.00069199	0.00012645	1519.6	5.7171e-06	5.0855e-06	1504.8	414.36	4.9615e-06	5.3903e-06	468.84	156.15	136.32	45.827	5.6305e-06	56.447	0.00030705	0.00018968	5.2136e-05	1535.7	2.3914e-06	2.029e-06	1525.1	421.83	2.4038e-06	2.0448e-06	466.68	159.16	139	46.943	2.2591e-06	57.865	25.797	-14.616	-12.942	-83.914	61.734	63.797	-84.050	-79.505	10.350	48.595	-79.663	-75.597	-75.068	-70.658	49.517	-71.461	-8191	255	
8066.176	1	1	0	0	0.094764	0.13923	0.17814	0.5651	0.044283	0.24517	0.17232	0.070667	0.061258	0.12853	0.17488	0.26154	0.026249	0.37292	0.065719	0.1621	-2.1667	-2.7896	-2.4771	-2.8667	-2.8917	-2.6708	-2.95	-2.7021	-2.6229	-2.7938	-2.6958	-2.8792	-2.8104	-2.5979	-2.7854	-2.8771	-29.019	127.777	-62.441	221.451	-63.014	18.685	243.508	97.563	53.203	23.273	126.999	83.537	96.027	250.180	-27.806	255.936	0.00071604	0.0004623	0.00018408	1516.1	4.9057e-06	4.9016e-06	1508.5	413.68	5.0373e-06	5.6077e-06	469.93	156.15	136.16	45.81	4.0397e-06	56.312	0.00030934	0.00018267	5.2785e-05	1533.9	2.4566e-06	2.1337e-06	1527.3	421.21	2.475e-06	2.0013e-06	467.76	159.3	138.85	46.981	2.272e-06	57.628	26.912	-11.168	-1.654	-84.076	40.362	40.316	-84.127	-79.618	26.928	44.940	-80.323	-75.590	-75.260	-70.601	45.027	-71.328	-8191	255	
8066.272	1	1	0	0	0.11975	0.089921	0.19299	0.33958	0.13226	0.061222	0.28851	0.22995	0.14086	0.1445	0.069429	0.18559	0.2369	0.084485	0.096903	0.10196	-2.1396	-2.7104	-2.7313	-2.7729	-2.8187	-2.7375	-2.8521	-2.9729	-2.5104	-2.8833	-2.7479	-2.8229	-2.85	-2.6604	-2.7979	-2.9083	86.661	44.698	-6.405	222.237	155.488	191.080	215.091	163.078	-39.004	88.451	-36.092	184.580	219.391	16.265	130.967	256.095	0.00062171	0.00055485	0.00014547	1518.5	5.2529e-06	4.5869e-06	1509.1	414.98	6.1095e-06	5.7223e-06	468.64	156.45	136.08	45.883	2.7733e-06	56.256	0.00031246	0.00018584	5.2889e-05	1535	2.3955e-06	1.9891e-06	1527.2	421.71	2.4747e-06	1.9949e-06	466.2	159.29	138.96	46.995	2.2386e-06	57.782	21.441	-5.928	3.120	-84.100	58.669	58.874	-84.063	-79.626	2.679	51.599	-80.809	-75.641	-75.334	-70.590	79.430	-71.439	-8191	255	
8066.368	1	1	0	0	0.12886	0.13191	0.1595	0.27561	0.16785	0.04971	0.21437	0.10386	0.34231	0.17539	0.089077	0.44366	0.07144	0.1668	0.16877	0.15718	-2.0479	-2.8625	-2.5979	-2.9396	-2.9083	-2.6375	-2.9396	-2.9167	-2.5875	-2.8042	-2.7104	-2.8063	-3.0438	-2.8792	-2.6583	-2.9625	232.277	180.934	25.529	156.070	195.883	53.834	155.682	256.192	22.302	112.858	-80.796	231.946	247.302	202.381	230.372	135.944	0.00068697	0.00079177	0.00015364	1518.9	4.1629e-06	6.6678e-06	1507.5	414.5	4.9015e-06	4.3453e-06	479.06	155.76	135.96	46.009	5.7436e-06	56.346	0.00032584	0.00019214	5.3004e-05	1533.1	2.2601e-06	1.9705e-06	1526.4	421.46	2.4506e-06	1.8889e-06	470.35	159.16	138.7	47.049	2.2123e-06	57.798	26.219	-13.459	3.947	-83.993	58.019	61.472	-84.168	-79.718	20.403	58.366	-80.267	-75.429	-75.245	-70.800	60.488	-71.398	-8191	255	
8066.465	1	1	0	0	0.24301	0.2588	0.17938	0.37333	0.15303	0.091393	0.31646	0.20206	0.24932	0.20128	0.23142	0.27304	0.26595	0.089314	0.019699	0.14724	-2.1271	-2.6583	-2.6208	-2.5125	-2.7667	-2.7396	-2.8896	-3.0292	-2.6875	-2.825	-2.7729	-2.6854	-3.0542	-2.7583	-2.6396	-3.0583	129.313	243.968	-22.328	254.999	162.642	-73.399	213.259	226.462	-30.699	-10.456	98.778	256.554	212.010	-82.116	74.745	240.132	0.00071298	0.00068114	0.00014155	1516.7	7.1882e-06	4.287e-06	1505.1	413.67	7.0248e-06	4.919e-06	473.21	155.9	136.09	46.028	4.8489e-06	56.237	0.00031384	0.00018274	5.0151e-05	1532.2	2.3667e-06	1.9815e-06	1526	421.56	2.4275e-06	1.9756e-06	469.85	159.2	138.68	47.02	2.162e-06	57.708	24.004	-11.086	-2.159	-84.203	50.254	45.173	-84.127	-79.741	16.236	52.773	-79.768	-75.552	-75.129	-70.793	31.754	-71.502	-8191	255	
8066.561	1	1	0	0	0.21762	0.088943	0.15956	0.31263	0.091106	0.16266	0.2054	0.37038	0.12561	0.40624	0.18374	0.1671	0.1921	0.13845	0.23261	0.062326	-2.1688	-2.7521	-2.6917	-2.825	-2.8458	-2.6833	-2.7438	-3.0458	-2.6125	-2.7458	-2.8438	-2.6833	-2.8292	-2.8917	-2.7771	-2.9583	259.439	-35.396	22.583	192.547	58.655	40.006	190.358	198.223	229.396	247.646	179.365	178.439	156.195	15.390	192.498	-71.939	0.00072123	0.0007615	0.00016217	1514.5	6.6758e-06	4.9217e-06	1503.5	414.27	5.3061e-06	6.0581e-06	474.47	156.46	135.58	45.955	4.8662e-06	55.982	0.00031178	0.00019132	5.1067e-05	1532.2	2.3612e-06	2.0153e-06	1523	421.26	2.5556e-06	2.0089e-06	467.26	159.34	138.54	46.942	2.308e-06	57.616	26.593	-7.685	-7.965	-84.012	52.459	60.776	-84.217	-79.493	52.402	56.521	-81.085	-75.516	-75.224	-70.568	75.865	-71.189	-8191	255	
8066.657	1	1	0	0	0.050888	0.031383	0.18685	0.22042	0.23171	0.35706	0.42801	0.12172	0.39979	0.27998	0.096783	0.097568	0.20974	0.14086	0.048475	0.045059	-2.2687	-2.675	-2.8083	-2.6208	-2.8521	-2.8083	-2.8312	-2.9146	-2.7083	-2.8104	-2.7833	-2.6875	-2.8	-2.9208	-2.5438	-2.8875	83.007	64.679	62.519	223.689	157.898	14.293	207.657	50.226	182.334	102.166	77.891	-80.835	188.053	204.813	58.088	121.510	0.00070071	0.00076175	0.00016535	1515.3	5.2398e-06	3.6812e-06	1506.7	413.12	6.3022e-06	5.394e-06	466.82	155.67	136.3	46.007	4.7149e-06	56.473	0.0003107	0.00018842	5.3977e-05	1533.7	2.4438e-06	2.0111e-06	1525.6	421.21	2.4588e-06	2.1031e-06	465.74	159.06	138.77	47.01	2.2576e-06	57.832	24.968	-12.865	-17.902	-84.054	46.631	47.336	-84.160	-79.572	17.227	50.380	-80.524	-75.759	-75.303	-70.704	32.116	-71.360	-8191	255	
8066.777	1	1	0	0	0.14311	0.035061	0.13035	0.42013	0.039504	0.078746	0.44257	0.24411	0.08935	0.15554	0.16982	0.12406	0.12801	0.23707	0.11818	0.16108	-2.2438	-2.7896	-2.8438	-2.75	-2.7417	-2.7833	-2.65	-3.0354	-2.8021	-2.8625	-2.9437	-2.7062	-2.9271	-2.8708	-2.6625	-2.8417	262.266	101.592	-84.106	260.467	256.253	137.872	189.888	238.544	-10.653	12.807	-58.272	253.377	-38.471	232.894	-85.841	235.049	0.00070138	0.00057608	0.00015665	1514.1	5.2693e-06	6.4351e-06	1511.6	416	7.1728e-06	4.3299e-06	466.36	156.31	136.42	45.955	5.6367e-06	56.606	0.00031518	0.00019322	5.2021e-05	1531.9	2.3181e-06	2.0214e-06	1528.1	421.97	2.4922e-06	1.9843e-06	466.6	159.21	138.75	47.021	2.2048e-06	57.798	26.330	-0.552	-9.292	-84.158	61.749	56.758	-84.034	-79.432	10.693	52.405	-80.220	-75.675	-75.161	-70.643	70.034	-71.511	-8191	255	
8066.872	1	1	0	0	0.31398	0.27751	0.065774	0.097877	0.090566	0.24317	0.25287	0.088234	0.14569	0.1982	0.30671	0.3241	0.15304	0.19549	0.28338	0.27083	-2.2229	-2.6271	-2.8896	-2.6979	-2.8125	-2.9458	-3.0271	-2.9271	-2.4917	-2.6625	-2.8438	-2.8167	-2.9562	-2.8854	-2.5333	-2.9375	19.304	50.805	145.967	141.058	-81.956	52.079	174.300	179.509	-18.089	166.086	-75.362	-83.546	50.601	142.187	-81.681	113.430	0.00070393	0.00050935	0.0001697	1519.7	5.6231e-06	6.0885e-06	1508.3	414.04	5.2917e-06	6.2626e-06	473.21	155.91	136.13	45.831	4.3141e-06	56.161	0.00031397	0.00018948	5.1773e-05	1534.5	2.3924e-06	2.0248e-06	1526.3	421.3	2.463e-06	2.043e-06	468.31	159.19	138.69	46.902	2.2576e-06	57.675	23.596	-0.341	-12.342	-84.030	47.270	47.037	-84.258	-79.666	8.599	45.495	-80.132	-75.618	-75.292	-70.522	55.946	-71.560	-8191	255	
8066.968	1	1	0	0	0.13391	0.020344	0.21993	0.37692	0.23466	0.057964	0.20144	0.2871	0.11968	0.10787	0.05524	0.053033	0.11507	0.04838	0.078302	0.14948	-2.2125	-2.7833	-2.7521	-2.8063	-2.8042	-2.7479	-2.775	-3.0896	-2.625	-2.5625	-2.7667	-2.7562	-2.6979	-2.8833	-2.6833	-2.8417	106.846	125.605	209.213	235.452	197.067	217.299	218.326	237.460	176.692	52.225	73.514	208.451	81.456	199.906	95.988	119.183	0.00065216	0.00053246	0.0001776	1515.1	5.6776e-06	4.8546e-06	1506.2	414.79	4.2794e-06	5.1039e-06	470.43	155.96	136.06	45.943	4.473e-06	56.393	0.00030585	0.00018938	5.2498e-05	1533.4	2.3577e-06	1.9508e-06	1523.4	421.57	2.4812e-06	1.9548e-06	467.56	159.04	138.77	46.905	2.3205e-06	57.791	25.167	-12.918	-14.459	-84.175	68.850	58.392	-84.133	-79.691	31.302	53.584	-80.407	-75.687	-75.382	-70.711	46.928	-71.262	-8191	255	
8067.064	1	1	0	0	0.033605	0.091579	0.031257	0.27633	0.072483	0.05162	0.091849	0.3428	0.12182	0.1305	0.13532	0.25159	0.058121	0.35109	0.13448	0.11943	-2.2271	-2.4917	-2.8375	-2.725	-2.8375	-2.9646	-2.9417	-2.9688	-2.7562	-2.6104	-2.8896	-2.8917	-2.7333	-3.1375	-2.4062	-2.8604	213.186	69.548	67.248	244.480	-50.497	122.573	195.042	173.086	136.337	21.065	50.084	-84.510	-7.817	219.482	47.919	137.345	0.00068698	0.00066614	0.00016572	1519.7	3.9942e-06	4.3363e-06	1511.1	415.45	5.1221e-06	5.6424e-06	470.59	155.48	136.12	45.799	7.0989e-06	56.386	0.00030198	0.00019806	5.3214e-05	1534.8	2.3507e-06	2.0145e-06	1527.7	421.89	2.4485e-06	2.0486e-06	468.65	159.06	138.83	46.979	2.3256e-06	57.687	22.029	-13.952	-5.252	-84.024	33.319	54.593	-84.122	-79.655	18.124	53.202	-80.814	-75.565	-75.079	-70.743	63.700	-71.302	-8191	255	
8067.160	1	1	0	0	0.17943	0.27706	0.21718	0.16943	0.24481	0.19019	0.18107	0.35012	0.24537	0.23017	0.095747	0.16309	0.21743	0.23799	0.073432	0.10936	-2.3646	-2.5417	-3.0104	-2.8896	-2.8375	-2.9708	-2.7229	-2.9188	-2.9021	-2.5417	-2.8104	-2.7938	-2.7958	-3.075	-2.5187	-2.7479	147.427	-95.405	-50.720	-54.374	-23.374	119.510	237.080	-96.739	157.386	236.628	-21.733	199.789	241.790	-88.222	177.993	177.900	0.00071974	0.00051983	0.00015663	1512.2	6.5881e-06	6.1341e-06	1508.2	415.41	6.3785e-06	5.8117e-06	469.78	156.11	136.17	45.87	6.2291e-06	56.219	0.00030399	0.00018515	5.121e-05	1530.2	2.449e-06	1.9277e-06	1525.6	421.87	2.4058e-06	2.024e-06	466.9	159.25	138.78	47.01	2.2637e-06	57.775	21.355	3.037	-9.540	-84.006	52.620	58.714	-84.323	-79.506	25.506	48.349	-79.533	-75.581	-75.171	-70.846	40.640	-71.385	-8191	255	
8067.256	1	1	0	0	0.17986	0.28886	0.10541	0.10703	0.027804	0.12645	0.45074	0.15466	0.28091	0.33036	0.056269	0.25405	0.29925	0.23147	0.084774	0.1954	-2.1979	-2.6333	-2.9437	-2.9208	-2.5875	-3.1583	-2.875	-2.7729	-2.8771	-2.7167	-2.7021	-2.9625	-2.6667	-3.0396	-2.525	-2.6208	77.008	-33.946	173.263	251.800	2.955	41.947	235.205	163.893	193.152	-6.477	67.336	-75.820	235.673	175.341	104.935	155.248	0.00067112	0.00048233	0.00020352	1513	3.5833e-06	5.6636e-06	1504.9	414.79	5.642e-06	5.0708e-06	465.08	156.08	136.41	45.999	5.6819e-06	56.542	0.00030188	0.00018917	5.1659e-05	1531.6	2.416e-06	2.0601e-06	1523.1	421.43	2.3811e-06	2.021e-06	465.2	159.17	138.83	47.053	2.2303e-06	57.851	21.828	-8.161	-8.966	-84.031	23.226	52.222	-84.068	-79.639	17.547	71.764	-80.044	-75.713	-75.178	-70.577	54.595	-71.328	-8191	255	
8067.377	1	1	0	0	0.052082	0.14325	0.15658	0.37205	0.25459	0.11713	0.27736	0.11911	0.068564	0.18678	0.043889	0.1404	0.26222	0.29256	0.12678	0.24916	-2.3667	-2.6292	-2.6875	-3.0604	-2.725	-2.7896	-2.9083	-2.8083	-3.025	-2.6875	-2.8833	-2.9354	-2.7667	-3.0542	-2.8521	-2.7625	-14.100	23.027	-48.675	254.888	239.990	-42.033	216.733	219.250	180.020	203.142	124.840	221.931	230.960	237.569	208.609	194.122	0.00067898	0.0005563	0.0001353	1519.7	6.1703e-06	4.413e-06	1503.7	414.43	5.8904e-06	4.1229e-06	466.37	157.03	136.51	45.901	6.1902e-06	56.075	0.00029991	0.00018342	5.0304e-05	1533.6	2.3928e-06	1.8548e-06	1523.6	421.47	2.4038e-06	1.9396e-06	467.21	159.52	139.06	47.028	2.2314e-06	57.803	21.055	-8.116	-19.516	-84.223	54.812	50.940	-84.288	-79.662	31.102	48.766	-80.103	-75.768	-75.347	-70.611	44.760	-71.620	-8191	255	
8067.473	1	1	0	0	0.27956	0.119	0.19449	0.28676	0.15013	0.17673	0.49834	0.24197	0.3154	0.24408	0.078721	0.1584	0.36858	0.34244	0.080832	0.15349	-2.65	-2.7562	-2.7771	-3.0479	-2.5292	-2.7646	-2.8708	-2.8021	-2.925	-2.7375	-2.7479	-2.9917	-2.6604	-2.7854	-2.675	-2.5542	31.238	-64.670	-28.020	210.386	-58.807	11.439	217.167	172.659	100.513	169.177	221.004	208.936	230.837	244.965	242.894	-32.155	0.00064888	0.00059845	0.000182	1520.3	3.5364e-06	5.1734e-06	1502	415.36	5.3552e-06	3.0582e-06	468.93	156.5	135.86	45.904	4.9786e-06	56.463	0.00030482	0.00019275	5.4015e-05	1534.5	2.4535e-06	1.8882e-06	1524.1	422.25	2.4306e-06	1.9903e-06	469.02	159.42	138.73	46.961	2.1968e-06	57.883	22.115	-4.311	-3.591	-84.280	20.922	52.617	-84.382	-79.589	35.381	28.983	-79.602	-75.462	-75.125	-70.695	45.453	-71.130	-8191	255	
8067.569	1	1	0	0	0.31156	0.043392	0.27392	0.15689	0.21672	0.28097	0.30548	0.20839	0.14996	0.045859	0.11146	0.19662	0.14646	0.14618	0.16166	0.17036	-2.225	-2.5062	-2.5021	-2.9083	-2.6167	-2.9583	-2.9688	-2.4833	-2.8646	-2.7333	-2.65	-3.0625	-2.7208	-2.9625	-2.5563	-2.6146	22.910	154.109	204.529	240.302	239.172	131.453	203.728	229.337	186.246	63.368	175.005	206.938	201.005	188.464	-41.193	113.761	0.00069359	0.00048434	0.00018617	1511.6	6.0155e-06	4.8616e-06	1509.4	415.92	8.0595e-06	4.8405e-06	470.57	156.53	136.63	45.899	5.1726e-06	56.325	0.00031269	0.00018294	5.2622e-05	1532.3	2.3938e-06	1.8966e-06	1526.8	422.41	2.357e-06	2.021e-06	468.04	159.4	139.04	46.986	2.2979e-06	57.858	23.964	-7.078	-6.871	-84.055	43.416	62.708	-84.184	-79.578	6.313	68.488	-79.822	-75.687	-75.354	-70.586	57.468	-71.363	-8191	255	
8067.666	1	1	0	0	0.23538	0.20669	0.14731	0.36447	0.11122	0.36843	0.33827	0.25975	0.083378	0.16473	0.21792	0.25763	0.30929	0.25706	0.25944	0.15588	-2.4292	-2.6458	-2.4437	-3	-2.7396	-2.6542	-3.0083	-2.7396	-2.8646	-2.8563	-2.6375	-2.9062	-2.5917	-2.8375	-2.8375	-2.7062	111.974	51.782	9.107	220.174	142.657	62.350	165.040	209.848	71.837	153.633	33.366	240.255	-85.872	240.828	40.992	217.226	0.00072674	0.00045549	0.00017336	1512.7	4.4878e-06	6.1213e-06	1507.2	414.61	4.7841e-06	6.6451e-06	467.66	155.85	137.08	45.954	6.6951e-06	56.524	0.00030507	0.00018553	5.4902e-05	1531.3	2.3889e-06	1.9068e-06	1523.8	421.48	2.3459e-06	1.8855e-06	465.24	159.08	139.13	47.077	2.2414e-06	57.889	26.085	-26.106	-3.377	-84.078	35.657	51.621	-84.249	-79.437	1.906	52.211	-80.105	-75.723	-75.398	-70.641	52.427	-71.175	-8191	255	
8067.762	1	1	0	0	0.11083	0.13817	0.19445	0.32475	0.21245	0.011149	0.40172	0.40219	0.037545	0.034802	0.029093	0.044623	0.25263	0.13727	0.15431	0.10154	-2.3	-2.625	-2.5667	-3.0771	-2.5563	-2.7438	-3.0542	-2.725	-2.9188	-2.6979	-2.4979	-2.9	-2.7687	-2.9104	-2.8896	-2.6229	-73.420	127.503	238.875	196.385	-50.500	-34.027	245.270	233.760	116.473	-16.309	-45.351	37.900	203.802	86.721	69.901	-47.083	0.00067719	0.00056218	0.00015887	1512.2	4.7486e-06	6.5647e-06	1505.2	414.42	4.5881e-06	4.5296e-06	469.52	156.63	136.59	46.001	6.464e-06	56.487	0.00030316	0.00019656	5.4139e-05	1531.2	2.4202e-06	2.0274e-06	1524.6	421.07	2.3576e-06	2.0301e-06	467.57	159.4	139.27	47.021	2.2195e-06	57.978	23.878	-16.105	0.264	-84.113	42.914	48.318	-84.092	-79.622	31.027	59.989	-81.096	-75.716	-75.344	-70.671	57.480	-71.256	-8191	255	
#DATA ENDS
