BOXY.EXE: ISS Imagent and Oximeter Data Acquisition Program Version 0.80
Ascii Record File

#ACQ INFORMATION
2  Detector Channels 
16  External MUX Channels 
1  Auxiliary Channels 
5000  Waveform (CCF) Frequency (Hz)
1  Waveforms Skipped 
30  Waveforms Averaged 
1  Cycles Averaged 
16  Acquisitions per Waveform 
10.0806  Updata Rate (Hz) 

#FILE INFORMATION
TRUE -- External MUX Channel results are PARSED.
FALSE -- AC DC and Phase are NOT grouped.
TRUE -- Companion Program Settings File CREATED.
FALSE -- AC data not excluded
FALSE -- DC data not excluded
FALSE -- Phase data not excluded
FALSE -- Auxillary Chn. data not excluded
Tab delimiters

#CALIBRATION STATE
TRUE -- Waveform Calibration Values APPLIED.


#AUX CALIBRATION VALUES
Val Type	aux-1	

Term	1.0000e+00	
Factor	0.0000e+00	


#WF CALIBRATION VALUES
A = Detector Channel
Val Type	A-AC1	A-AC2	A-AC3	A-AC4	A-AC5	A-AC6	A-AC7	A-AC8	A-AC9	A-AC10	A-AC11	A-AC12	A-AC13	A-AC14	A-AC15	A-AC16	A-DC1	A-DC2	A-DC3	A-DC4	A-DC5	A-DC6	A-DC7	A-DC8	A-DC9	A-DC10	A-DC11	A-DC12	A-DC13	A-DC14	A-DC15	A-DC16	A-Ph1	A-Ph2	A-Ph3	A-Ph4	A-Ph5	A-Ph6	A-Ph7	A-Ph8	A-Ph9	A-Ph10	A-Ph11	A-Ph12	A-Ph13	A-Ph14	A-Ph15	A-Ph16	

Term	0.00000e+00	0.00000e+00	0.00000e+00	0.00000e+00	0.00000e+00	0.00000e+00	0.00000e+00	0.00000e+00	0.00000e+00	0.00000e+00	0.00000e+00	0.00000e+00	0.00000e+00	0.00000e+00	0.00000e+00	0.00000e+00	0.00000e+00	0.00000e+00	0.00000e+00	0.00000e+00	0.00000e+00	0.00000e+00	0.00000e+00	0.00000e+00	0.00000e+00	0.00000e+00	0.00000e+00	0.00000e+00	0.00000e+00	0.00000e+00	0.00000e+00	0.00000e+00	0.00000e+00	0.00000e+00	0.00000e+00	0.00000e+00	0.00000e+00	0.00000e+00	0.00000e+00	0.00000e+00	0.00000e+00	0.00000e+00	0.00000e+00	0.00000e+00	0.00000e+00	0.00000e+00	0.00000e+00	0.00000e+00	
Factor	1.00000e+00	1.00000e+00	1.00000e+00	1.00000e+00	1.00000e+00	1.00000e+00	1.00000e+00	1.00000e+00	1.00000e+00	1.00000e+00	1.00000e+00	1.00000e+00	1.00000e+00	1.00000e+00	1.00000e+00	1.00000e+00	1.00000e+00	1.00000e+00	1.00000e+00	1.00000e+00	1.00000e+00	1.00000e+00	1.00000e+00	1.00000e+00	1.00000e+00	1.00000e+00	1.00000e+00	1.00000e+00	1.00000e+00	1.00000e+00	1.00000e+00	1.00000e+00	X	X	X	X	X	X	X	X	X	X	X	X	X	X	X	X	

B = Detector Channel
Val Type	B-AC1	B-AC2	B-AC3	B-AC4	B-AC5	B-AC6	B-AC7	B-AC8	B-AC9	B-AC10	B-AC11	B-AC12	B-AC13	B-AC14	B-AC15	B-AC16	B-DC1	B-DC2	B-DC3	B-DC4	B-DC5	B-DC6	B-DC7	B-DC8	B-DC9	B-DC10	B-DC11	B-DC12	B-DC13	B-DC14	B-DC15	B-DC16	B-Ph1	B-Ph2	B-Ph3	B-Ph4	B-Ph5	B-Ph6	B-Ph7	B-Ph8	B-Ph9	B-Ph10	B-Ph11	B-Ph12	B-Ph13	B-Ph14	B-Ph15	B-Ph16	

Term	0.00000e+00	0.00000e+00	0.00000e+00	0.00000e+00	0.00000e+00	0.00000e+00	0.00000e+00	0.00000e+00	0.00000e+00	0.00000e+00	0.00000e+00	0.00000e+00	0.00000e+00	0.00000e+00	0.00000e+00	0.00000e+00	0.00000e+00	0.00000e+00	0.00000e+00	0.00000e+00	0.00000e+00	0.00000e+00	0.00000e+00	0.00000e+00	0.00000e+00	0.00000e+00	0.00000e+00	0.00000e+00	0.00000e+00	0.00000e+00	0.00000e+00	0.00000e+00	-2.12444e+02	-1.41062e+02	-1.70892e+02	-1.83732e+02	-1.12109e+02	-1.05118e+02	-1.55012e+02	-1.62015e+02	-9.09407e+01	-9.85453e+01	-1.70533e+02	-1.70350e+02	-1.84933e+02	-1.77024e+02	-9.26801e+01	-1.49740e+02	
Factor	3.86930e-05	3.87587e-05	1.11420e-05	1.84525e-01	4.76322e-07	4.00243e-07	1.77227e-01	5.92448e-02	4.03067e-07	4.33660e-07	9.47737e-02	3.35258e-02	3.39684e-02	1.07113e-02	3.85728e-07	1.51601e-02	1.41076e-07	1.41361e-07	3.93248e-08	7.31989e-02	1.55024e-09	1.55026e-09	6.73368e-02	2.26348e-02	1.55356e-09	1.55040e-09	3.24457e-02	1.12648e-02	1.11019e-02	3.63347e-03	1.55221e-09	4.80811e-03	X	X	X	X	X	X	X	X	X	X	X	X	X	X	X	X	



#DISTANCE SETTINGS
A = Detector Channel
A-1	A-2	A-3	A-4	A-5	A-6	A-7	A-8	A-9	A-10	A-11	A-12	A-13	A-14	A-15	A-16	

2.5000e+00	3.0000e+00	2.5000e+00	3.0000e+00	2.0000e+00	3.0000e+00	1.5000e+00	3.0000e+00	3.0000e+00	3.0000e+00	3.0000e+00	3.0000e+00	3.0000e+00	3.0000e+00	1.5000e+00	3.0000e+00	

B = Detector Channel
B-1	B-2	B-3	B-4	B-5	B-6	B-7	B-8	B-9	B-10	B-11	B-12	B-13	B-14	B-15	B-16	

1.0000e+01	1.0000e+01	1.0000e+01	1.4400e+00	1.0000e+01	1.0000e+01	1.5100e+00	1.9400e+00	1.0000e+01	1.0000e+01	1.9900e+00	2.4900e+00	2.4100e+00	2.9000e+00	1.0000e+01	2.9800e+00	




#DATA BEGINS
time	group	step	mark	flag	A-AC1	A-AC2	A-AC3	A-AC4	A-AC5	A-AC6	A-AC7	A-AC8	A-AC9	A-AC10	A-AC11	A-AC12	A-AC13	A-AC14	A-AC15	A-AC16	A-DC1	A-DC2	A-DC3	A-DC4	A-DC5	A-DC6	A-DC7	A-DC8	A-DC9	A-DC10	A-DC11	A-DC12	A-DC13	A-DC14	A-DC15	A-DC16	A-Ph1	A-Ph2	A-Ph3	A-Ph4	A-Ph5	A-Ph6	A-Ph7	A-Ph8	A-Ph9	A-Ph10	A-Ph11	A-Ph12	A-Ph13	A-Ph14	A-Ph15	A-Ph16	B-AC1	B-AC2	B-AC3	B-AC4	B-AC5	B-AC6	B-AC7	B-AC8	B-AC9	B-AC10	B-AC11	B-AC12	B-AC13	B-AC14	B-AC15	B-AC16	B-DC1	B-DC2	B-DC3	B-DC4	B-DC5	B-DC6	B-DC7	B-DC8	B-DC9	B-DC10	B-DC11	B-DC12	B-DC13	B-DC14	B-DC15	B-DC16	B-Ph1	B-Ph2	B-Ph3	B-Ph4	B-Ph5	B-Ph6	B-Ph7	B-Ph8	B-Ph9	B-Ph10	B-Ph11	B-Ph12	B-Ph13	B-Ph14	B-Ph15	B-Ph16	aux-1	digaux	

4129.174	1	1	0	512	0.0829	0.15558	0.19112	0.23609	0.090256	0.09822	0.051358	0.15618	0.044548	0.17287	0.17667	0.21914	0.20921	0.14668	0.077313	0.16288	-3.3458	-3.9833	-3.5667	-3.8937	-3.9208	-3.6083	-4.1729	-3.9167	-3.625	-4.0708	-3.625	-3.9542	-4.1625	-3.6417	-3.9188	-3.9104	175.398	11.272	-16.650	262.423	50.287	178.890	208.071	254.473	259.589	238.243	25.422	323.554	238.091	33.216	307.997	223.054	0.00033116	8.7004e-05	2.3585e-05	592.04	1.077e-06	1.2395e-06	750.17	208.83	1.1905e-06	7.8114e-07	281.8	104.15	74.876	37.289	4.4258e-07	52.087	6.8231e-06	5.0039e-06	1.4957e-06	449.39	6.1525e-08	5.6277e-08	584.14	154.16	6.2269e-08	5.5379e-08	190.39	69.504	47.672	24.322	6.4097e-08	32.504	68.326	43.900	47.293	-13.791	100.116	118.762	-14.987	-8.249	116.400	98.134	-10.834	-6.251	-4.869	-0.289	67.498	-3.808	-8191	255	
4129.270	1	1	0	0	0.14953	0.29802	0.1076	0.078745	0.2014	0.1666	0.17394	0.13017	0.29162	0.10134	0.18915	0.047442	0.10622	0.1193	0.050144	0.22629	-3.2854	-4.0563	-3.8563	-3.8063	-4.0208	-3.6208	-4.0938	-3.9854	-3.575	-4.175	-3.8812	-3.7458	-4.0167	-3.6937	-4	-4.1896	180.462	78.012	-4.309	284.411	60.033	24.834	114.660	98.585	80.286	-11.914	208.768	273.834	178.381	303.670	5.170	283.849	0.00033003	6.2727e-05	2.0339e-05	571.82	8.0668e-07	7.6553e-07	728.5	201.2	5.0227e-07	9.6185e-07	266.67	97.883	71.245	35.283	8.4439e-07	49.3	6.6811e-06	4.8231e-06	1.601e-06	434.3	5.7285e-08	5.4853e-08	561.35	148.5	5.8414e-08	5.3483e-08	181.3	65.36	45.24	23.033	6.6545e-08	30.91	55.909	69.795	43.106	-13.448	74.075	86.038	-15.180	-8.205	141.260	85.561	-10.810	-6.680	-4.836	-0.468	69.163	-4.260	-8191	255	
4129.366	1	1	0	0	0.27957	0.10541	0.30544	0.0094684	0.12225	0.052651	0.20595	0.2772	0.32244	0.1971	0.15962	0.23993	0.056924	0.21156	0.30763	0.31726	-3.2562	-4.1792	-3.9562	-3.775	-4.2771	-3.7812	-3.9229	-4.0312	-3.7562	-4.0625	-4.0292	-3.8208	-4.1937	-3.7938	-4.0521	-4.0771	-17.578	78.043	24.665	327.111	39.222	79.812	144.366	283.930	69.508	312.736	194.918	244.040	44.961	239.312	263.915	228.513	0.00031138	7.7125e-05	1.1892e-05	563.13	4.8236e-07	5.3412e-07	717.53	199.43	4.4479e-07	7.3962e-07	267.42	98.484	71.973	35.597	8.9086e-07	49.979	6.404e-06	5.3002e-06	1.6501e-06	428.09	5.5059e-08	5.5199e-08	554.97	147.56	5.8958e-08	5.7895e-08	181.93	65.893	45.66	23.235	6.8453e-08	31.278	62.321	42.693	-5.670	-13.687	69.167	74.079	-15.022	-8.309	133.088	74.768	-11.113	-6.456	-4.495	-0.276	79.944	-4.054	-8191	255	
4129.485	1	1	0	0	0.16942	0.10301	0.30387	0.17387	0.051597	0.29955	0.071666	0.20779	0.14322	0.23149	0.17021	0.27568	0.10352	0.13739	0.20506	0.23783	-3.3563	-4.0958	-3.9729	-3.6833	-4.1708	-3.8458	-3.8979	-4.1833	-3.5875	-4.0229	-3.9896	-3.7792	-4.1479	-3.8667	-3.7875	-4.0042	151.898	189.735	30.658	-8.538	206.430	172.522	-24.688	331.059	25.988	76.673	199.392	-20.570	249.318	254.693	120.609	142.769	0.00029443	0.00010802	2.6581e-05	569.5	1.2946e-06	5.282e-07	732.53	203.78	6.6922e-07	3.3949e-07	273.77	100.79	73.565	36.59	8.4416e-07	51.193	6.3481e-06	5.5838e-06	1.6893e-06	433.08	5.5757e-08	6.211e-08	566.05	149.92	5.7365e-08	6.1774e-08	185.37	67.246	46.53	23.828	6.7069e-08	32.068	55.583	51.924	43.026	-13.593	56.528	107.314	-15.166	-8.163	125.278	65.767	-10.897	-6.507	-4.595	-0.389	77.893	-3.555	-8191	255	
4129.581	1	1	0	0	0.15973	0.0867	0.035324	0.099148	0.071408	0.14451	0.1825	0.046073	0.14744	0.055788	0.11502	0.20119	0.071709	0.11439	0.12378	0.20419	-3.2917	-4.1396	-3.9958	-3.7562	-4.1375	-3.8479	-3.9	-4.1042	-3.6271	-4.0271	-4.0708	-3.6958	-4.2188	-3.7917	-3.7792	-4.3375	161.263	77.842	59.188	235.963	329.160	213.603	307.185	37.910	287.269	286.971	56.824	296.547	32.302	136.743	280.193	219.644	0.0003832	9.223e-05	1.1687e-05	579.14	7.9198e-07	8.643e-07	738.05	206.46	1.0635e-06	3.2524e-07	278.55	103.12	75.37	37.344	4.3742e-07	52.797	6.553e-06	6.0049e-06	1.6029e-06	441.09	5.5531e-08	6.7953e-08	574.2	152.19	5.9094e-08	6.6693e-08	188.84	68.909	47.591	24.382	6.5128e-08	33.053	60.951	87.968	35.888	-13.496	97.589	73.774	-15.022	-8.411	119.736	68.745	-10.588	-6.479	-4.704	-0.401	59.366	-3.854	-8191	255	
4129.677	1	1	0	0	0.10454	0.097847	0.18312	0.17023	0.29013	0.25629	0.1017	0.15979	0.17604	0.071782	0.045715	0.10206	0.19377	0.061299	0.23472	0.23115	-3.3167	-3.8854	-4.0667	-3.6458	-4.0583	-3.8583	-3.8312	-4.2396	-3.6771	-4.0583	-3.9583	-3.5458	-4.125	-3.85	-3.7208	-4.2083	20.715	185.996	269.079	208.398	109.348	81.555	310.789	241.962	58.392	244.594	261.025	149.836	146.762	268.103	10.932	319.091	0.00036994	9.9277e-05	2.4898e-05	589.82	4.93e-07	1.0409e-06	757.65	210.33	4.817e-07	6.6091e-07	278.75	103.01	74.944	36.844	6.9969e-07	51.737	6.7869e-06	6.1369e-06	1.5691e-06	449.32	6.2388e-08	6.9949e-08	585.69	154.65	6.433e-08	6.898e-08	189.06	68.685	47.395	24.113	5.9783e-08	32.364	65.061	36.879	13.147	-13.366	102.753	68.261	-14.975	-8.508	102.813	62.400	-10.482	-6.455	-4.757	-0.334	122.036	-3.734	-8191	255	
4129.773	1	1	0	0	0.19354	0.28626	0.19314	0.22519	0.11709	0.042694	0.11883	0.085088	0.071808	0.16778	0.29501	0.16691	0.24104	0.25209	0.16622	0.054936	-3.3771	-3.8167	-4.0125	-3.7604	-4.1208	-3.9083	-3.7771	-3.9062	-3.6958	-3.8333	-4.3688	-3.5438	-4.0021	-4.1125	-3.7229	-4.1958	274.754	50.878	62.134	27.532	56.696	302.841	279.225	81.740	53.754	163.404	247.074	114.013	199.588	321.112	134.719	6.050	0.00033518	6.6722e-05	2.1584e-05	577.46	5.1073e-07	1.0343e-06	738.8	204.43	7.9564e-07	7.2051e-07	270.46	98.937	72.157	35.631	6.3705e-07	49.774	7.0203e-06	5.8026e-06	1.4749e-06	440.8	6.3137e-08	6.1413e-08	571.32	150.67	6.4317e-08	6.2065e-08	182.97	66.253	45.722	23.298	6.042e-08	31.239	61.349	9.375	26.451	-13.716	115.612	101.618	-15.276	-8.246	111.635	84.120	-10.754	-6.263	-4.514	-0.268	92.394	-3.898	-8191	255	
4129.869	1	1	0	0	0.19988	0.19284	0.089089	0.10604	0.12877	0.054213	0.1142	0.27855	0.14316	0.082669	0.026657	0.21809	0.27913	0.067579	0.26103	0.12431	-3.5479	-3.9396	-4.0729	-3.7083	-4.0979	-4.0604	-3.725	-4.0458	-3.7083	-3.6208	-4.1104	-3.8063	-4.1354	-3.9625	-3.6854	-4.2667	297.141	292.366	168.725	297.103	26.642	14.789	184.962	236.436	74.970	220.216	14.742	16.446	259.884	205.062	185.321	176.924	0.00033936	7.9921e-05	2.0659e-05	563.76	1.1778e-06	9.3108e-07	734.78	204.05	8.9738e-07	7.671e-07	278.06	102.36	74.839	37.369	1.0094e-06	53.076	7.3213e-06	5.5296e-06	1.4033e-06	430.58	6.5181e-08	5.9094e-08	566.33	150.76	6.5932e-08	5.7833e-08	188.42	68.554	47.626	24.387	5.3655e-08	33.177	67.607	39.147	-15.555	-14.006	129.135	76.027	-15.111	-8.409	121.684	109.362	-11.015	-6.207	-4.840	-0.293	87.862	-3.938	-8191	255	
4129.966	1	1	0	0	0.11982	0.11823	0.23963	0.39509	0.098631	0.12082	0.19291	0.087306	0.09462	0.1365	0.11717	0.21149	0.043265	0.032601	0.32043	0.18336	-3.5771	-3.7729	-4.0396	-3.7708	-4.0042	-4.075	-3.7896	-4.1542	-3.925	-3.7667	-4.2229	-3.8271	-4.0708	-4.1458	-3.6021	-4.175	135.689	160.006	13.077	285.744	128.514	203.882	88.209	317.520	296.718	-19.944	175.695	85.581	125.912	84.619	161.515	89.395	0.00035925	0.00012463	1.6003e-05	605.57	1.1165e-06	6.796e-07	782.92	218.16	6.9631e-07	4.612e-07	295.81	109.63	80.015	39.484	3.9333e-07	56.075	7.0788e-06	5.2757e-06	1.3213e-06	460.18	6.3314e-08	5.463e-08	602.34	160.37	6.4372e-08	5.5139e-08	200.98	73.254	50.537	25.741	5.2801e-08	35.12	67.779	74.616	10.707	-13.685	49.321	60.111	-15.270	-8.708	82.041	89.867	-11.003	-6.529	-4.759	-0.460	106.753	-3.905	-8191	255	
4130.062	1	1	0	0	0.11391	0.13077	0.21466	0.16291	0.26007	0.11004	0.029593	0.094594	0.051844	0.11989	0.0777	0.06185	0.20606	0.23197	0.17083	0.17373	-3.5708	-3.7542	-4.1875	-3.8396	-3.8396	-4.1729	-3.5687	-4.125	-3.9042	-3.6583	-4.1917	-3.9542	-3.9437	-4.1229	-3.675	-4.0125	314.919	229.589	156.554	302.869	36.461	67.567	198.612	184.378	155.748	306.400	238.997	252.500	-25.278	286.634	167.110	-4.943	0.00036084	8.9136e-05	2.2878e-05	631.83	9.282e-07	8.1154e-07	817.18	230.11	1.0063e-06	1.1024e-06	313.56	115.22	83.673	40.916	5.4774e-07	58.18	6.9595e-06	4.9612e-06	1.2433e-06	481.33	6.116e-08	5.3206e-08	631.91	169.61	6.0084e-08	5.3001e-08	211.63	76.878	52.917	26.7	5.4408e-08	36.477	62.028	32.504	23.218	-13.629	103.493	64.068	-15.055	-8.581	111.039	48.938	-10.747	-6.211	-4.822	-0.679	69.864	-3.741	-8191	255	
4130.182	1	1	0	0	0.13372	0.20588	0.15655	0.096149	0.081008	0.19099	0.18715	0.15286	0.14062	0.19667	0.070276	0.36107	0.10385	0.107	0.22252	0.15934	-3.9083	-3.6437	-4.0312	-3.9	-3.8271	-4.1667	-3.7708	-4.05	-4.075	-3.6521	-4.0312	-3.9729	-3.7979	-4.1792	-3.6917	-3.9146	138.092	3.720	330.071	152.774	58.691	207.597	294.625	329.643	-13.427	122.220	194.429	227.213	219.442	265.571	185.786	120.073	0.00037838	8.0285e-05	3.3134e-05	653.95	5.3482e-07	7.6313e-07	848.99	242.19	7.812e-07	1.4483e-06	327.04	118.39	86.948	41.514	1.5383e-06	58.223	6.6794e-06	4.753e-06	1.3216e-06	498.39	5.5214e-08	4.9921e-08	655.66	178.07	5.4316e-08	4.9642e-08	221.5	79.327	54.456	26.995	5.3807e-08	36.472	61.494	63.924	-0.231	-13.395	87.224	76.519	-15.174	-8.519	92.553	62.791	-10.627	-6.439	-4.763	-0.297	121.798	-3.923	-8191	255	
4130.277	1	1	0	0	0.10993	0.18098	0.13746	0.067085	0.090168	0.032424	0.12436	0.12751	0.11085	0.18188	0.089779	0.31817	0.094913	0.31064	0.24122	0.14713	-3.7979	-3.4688	-3.9229	-3.9958	-3.6208	-4.2104	-3.9354	-4.0271	-3.975	-3.7167	-4.1583	-3.9688	-3.7396	-4.1312	-3.725	-4	94.567	328.945	247.180	154.317	80.452	119.019	314.108	-3.746	45.881	208.606	211.970	245.501	200.639	119.342	111.532	205.333	0.00039007	8.4999e-05	3.0188e-05	657.21	4.918e-07	9.636e-07	835.98	240.78	1.0576e-06	1.1798e-06	326.62	117.43	85.235	40.107	6.2753e-07	56.982	6.1236e-06	4.2939e-06	1.3094e-06	497.56	5.0916e-08	4.4912e-08	643.29	177.55	5.0002e-08	4.5824e-08	220.24	78.291	53.755	26.249	5.2487e-08	35.676	61.560	18.171	25.269	-13.835	54.862	87.103	-15.366	-8.781	118.433	50.996	-11.139	-6.884	-4.982	-0.570	136.701	-3.932	-8191	255	
4130.375	1	1	0	0	0.065962	0.084923	0.14219	0.20989	0.18891	0.26548	0.15236	0.1056	0.1687	0.11444	0.10039	0.16345	0.16158	0.084793	0.14107	0.28251	-3.7667	-3.6646	-4.05	-4.0646	-3.65	-4.2667	-3.7104	-3.8438	-4.1396	-3.6958	-4.1125	-4.0729	-3.6917	-4.1292	-3.8833	-3.7917	322.789	226.611	52.567	148.288	94.158	76.152	321.118	228.100	179.330	301.698	28.432	31.424	271.549	131.954	45.296	265.138	0.00037947	8.9321e-05	2.353e-05	655	1.6987e-06	8.9732e-07	847.12	247.84	5.8457e-07	1.261e-06	336.68	120.9	88.021	41.445	6.1591e-07	58.546	5.7923e-06	4.2043e-06	1.3012e-06	498.49	4.8671e-08	4.4489e-08	655.22	183.02	4.7882e-08	4.4652e-08	227.95	80.737	55.52	27.053	5.3972e-08	36.716	66.822	77.616	29.923	-13.805	85.393	81.860	-15.488	-8.849	130.460	101.723	-10.908	-6.973	-4.995	-0.079	92.050	-3.829	-8191	255	
4130.471	1	1	0	0	0.07957	0.015587	0.081221	0.24114	0.24312	0.17618	0.19209	0.19017	0.0538	0.23801	0.19028	0.12636	0.11251	0.262	0.05926	0.080153	-3.7958	-3.7812	-3.9833	-4.1646	-3.6521	-3.9708	-3.975	-3.725	-4.1438	-3.5083	-3.9958	-4.1646	-3.7438	-4.2625	-4.0104	-3.5875	279.523	289.427	324.665	330.681	38.465	293.329	294.146	251.884	58.981	310.910	47.869	94.284	-24.043	196.675	199.740	136.306	0.00039057	9.5924e-05	2.4324e-05	670.16	7.6885e-07	6.8045e-07	863.8	254.62	1.2535e-06	1.2296e-06	343.37	124.03	89.899	42.143	1.1335e-06	59.707	5.5628e-06	4.2397e-06	1.3397e-06	510.53	4.6278e-08	4.5384e-08	666.64	187.19	4.6888e-08	4.8725e-08	232.15	82.647	56.745	27.531	5.4644e-08	37.458	68.091	54.530	13.614	-13.922	53.203	95.433	-15.307	-8.660	92.035	104.256	-10.821	-6.750	-4.574	-0.499	90.130	-3.994	-8191	255	
4130.565	1	1	0	0	0.14535	0.14585	0.21148	0.19905	0.011102	0.13161	0.32695	0.27243	0.17858	0.29618	0.19847	0.068769	0.099558	0.18343	0.12329	0.18274	-3.7042	-3.7583	-3.8896	-4.2	-3.5875	-3.9417	-4.0687	-3.6604	-4.0729	-3.7604	-3.825	-4.0312	-3.6792	-4.0708	-4.0437	-3.6667	73.197	-15.185	216.791	332.262	6.376	131.526	274.540	236.007	138.663	184.959	313.291	294.025	85.113	-13.987	197.894	303.081	0.00045942	0.00010509	2.3861e-05	682.76	8.8206e-07	8.0015e-07	883.09	260.62	7.8151e-07	8.6271e-07	355.07	128.34	92.296	43.207	8.3057e-07	61.948	5.6372e-06	4.4502e-06	1.3175e-06	519.88	4.4967e-08	4.9589e-08	681.99	191.74	4.6296e-08	4.9481e-08	239.45	85.406	58.351	28.315	5.3726e-08	38.651	62.638	64.865	17.936	-13.588	69.524	80.664	-15.430	-8.709	109.918	81.394	-11.037	-6.704	-4.622	-0.567	112.245	-3.997	-8191	255	
4130.661	1	1	0	0	0.18197	0.12086	0.12264	0.19463	0.063671	0.16733	0.026464	0.032434	0.038266	0.16231	0.14345	0.11384	0.27803	0.12942	0.055218	0.089082	-3.7562	-3.5687	-3.8312	-4.1083	-3.6042	-3.8833	-4.2083	-3.9125	-4.0771	-3.9333	-3.825	-4.1	-3.7271	-3.9917	-3.9958	-3.6896	5.901	115.749	17.505	229.391	30.596	136.149	297.444	257.147	55.796	211.577	248.590	325.195	111.024	297.685	25.388	-6.331	0.00041008	9.3426e-05	4.2478e-05	698.6	1.4403e-06	1.2666e-06	895.76	263.87	8.9845e-07	1.0607e-06	354.54	127.43	91.763	42.899	8.6732e-07	60.7	5.6668e-06	4.8287e-06	1.2423e-06	530.42	4.5803e-08	5.2176e-08	692.94	194.32	4.7468e-08	5.2297e-08	240.12	85.199	58.006	28.082	4.9027e-08	38.033	62.811	47.672	11.577	-13.800	69.157	106.000	-15.042	-8.894	126.040	94.724	-10.805	-6.555	-4.685	-0.321	86.933	-3.691	-8191	255	
4130.782	1	1	0	0	0.20407	0.13725	0.06447	0.16382	0.078172	0.19621	0.26923	0.21908	0.062621	0.18915	0.016351	0.27859	0.2587	0.11402	0.060513	0.098512	-3.7375	-3.8979	-3.675	-4.1729	-3.7042	-3.9042	-4.0292	-3.6917	-3.9229	-4.0292	-3.8	-4.1458	-3.7083	-3.9271	-3.9938	-3.725	16.824	39.117	131.439	229.484	257.754	116.945	327.951	-19.374	111.510	-2.252	198.327	19.787	305.101	20.327	123.812	272.854	0.00040406	0.00012092	2.8612e-05	690.61	9.6749e-07	9.906e-07	891.44	262.43	8.6213e-07	1.3567e-06	354.66	126.84	91.689	42.82	9.5136e-07	60.701	5.8085e-06	4.801e-06	1.196e-06	523.97	4.9504e-08	4.9841e-08	689.47	192.89	4.9232e-08	4.7575e-08	239.01	84.523	57.811	27.952	4.5532e-08	38.013	63.787	37.325	0.977	-13.825	123.003	72.046	-15.175	-8.777	136.810	90.696	-11.109	-6.728	-5.020	-0.666	94.821	-3.718	-8191	255	
4130.878	1	1	0	0	0.087649	0.088872	0.15118	0.073739	0.17443	0.076763	0.063092	0.10687	0.18556	0.37288	0.12569	0.14778	0.052799	0.086446	0.089136	0.26305	-3.5812	-3.8333	-3.65	-4.0333	-3.5958	-3.7333	-4.0875	-3.6771	-3.9167	-3.8854	-3.8125	-4.1562	-3.9125	-3.9479	-4.3	-3.7083	281.939	30.994	15.508	-13.777	226.739	241.196	-3.916	132.661	158.077	44.300	-11.387	292.954	300.095	281.639	138.956	296.561	0.00040673	9.7169e-05	2.0582e-05	695.3	9.6222e-07	7.7685e-07	905.27	267.98	6.5642e-07	1.6408e-06	362.24	129.52	94.379	44.046	3.1877e-07	62.441	5.8062e-06	4.3731e-06	1.1149e-06	528.93	5.0635e-08	4.8575e-08	697.16	196.94	5.1216e-08	4.6861e-08	244.68	86.897	59.558	28.706	4.4393e-08	39	59.333	38.772	0.117	-14.005	85.648	76.853	-15.206	-8.773	154.097	79.773	-11.015	-6.676	-4.851	-0.434	94.992	-4.280	-8191	255	
4130.974	1	1	0	0	0.044214	0.14191	0.16316	0.15223	0.23836	0.09521	0.30865	0.26627	0.12029	0.038425	0.1278	0.045955	0.29037	0.18365	0.097474	0.20749	-3.6312	-4.0229	-3.6937	-4.1937	-3.6833	-3.6417	-4.3021	-3.7083	-3.7375	-4.1021	-3.8896	-4.1292	-4.0583	-3.8375	-4.2875	-3.8667	184.248	156.142	12.061	8.842	182.607	101.743	247.300	307.742	261.474	267.658	57.178	294.656	2.756	228.285	43.679	309.796	0.00038471	0.00012792	2.4377e-05	708.98	1.3277e-06	1.316e-06	911.95	269.26	9.6483e-07	5.8115e-07	365.78	132.07	95.354	44.443	1.0359e-06	63.226	6.2162e-06	4.1457e-06	1.1169e-06	537.16	5.1487e-08	4.6349e-08	703.14	198.57	5.185e-08	4.6205e-08	246.75	87.887	59.997	28.981	4.3734e-08	39.533	58.166	44.701	-6.227	-13.816	82.843	77.571	-15.232	-8.674	85.811	76.973	-10.985	-6.849	-4.816	-0.334	120.080	-3.878	-8191	255	
4131.046	1	1	0	0	0.11119	0.16237	0.086641	0.088497	0.087492	0.09291	0.18525	0.21431	0.10928	0.094845	0.11541	0.060971	0.31048	0.15103	0.099927	0.16361	-3.5208	-4.1604	-3.7146	-4.2854	-3.7271	-3.75	-4.3271	-3.8792	-3.95	-4.0896	-3.575	-4.0917	-3.9417	-3.6458	-4.0458	-3.6854	28.113	4.606	-18.157	74.617	-24.416	159.899	243.017	311.788	201.552	15.204	245.443	249.202	4.289	252.555	9.082	311.564	0.00040637	8.3615e-05	3.0038e-05	714.88	1.5192e-06	1.0212e-06	926.22	274.98	7.8345e-07	1.3294e-06	373.98	135.75	97.938	45.512	1.1588e-06	64.612	6.3722e-06	4.0294e-06	1.1036e-06	543.32	5.2537e-08	4.6492e-08	714.3	202.23	5.309e-08	4.408e-08	252.66	90.355	61.586	29.593	4.429e-08	40.486	61.779	34.097	25.573	-13.461	63.421	97.484	-14.967	-8.585	105.179	82.765	-11.170	-6.915	-5.090	-0.690	111.560	-3.816	-8191	255	
4131.142	1	1	0	0	0.087578	0.1964	0.063604	0.19194	0.22111	0.14626	0.14316	0.07536	0.18233	0.19817	0.11844	0.23703	0.1462	0.063932	0.1078	0.12323	-3.5104	-4	-3.6021	-4.2354	-3.9479	-3.6021	-4.3042	-3.95	-3.8583	-4.2167	-3.7458	-4.0792	-4.0104	-3.7396	-4.1625	-3.9333	-19.365	155.717	28.791	228.244	245.995	156.821	174.781	160.528	217.129	253.965	-11.002	231.583	-0.127	288.569	266.681	327.733	0.00036655	9.5763e-05	2.827e-05	727.69	1.0809e-06	1.1884e-06	938.05	280.76	1.0684e-06	1.0178e-06	381.14	137.41	98.909	45.66	5.5435e-07	64.875	6.2767e-06	4.0506e-06	1.0992e-06	552.39	4.9566e-08	4.3963e-08	727.29	206.45	5.1332e-08	4.1916e-08	257.05	91.698	62.343	29.795	4.3527e-08	40.423	71.196	44.365	21.511	-13.738	86.722	67.183	-15.076	-8.823	101.361	88.216	-10.848	-6.746	-5.291	-0.441	123.099	-4.080	-8191	255	
4131.263	1	1	0	0	0.12107	0.092445	0.13818	0.20367	0.1524	0.10899	0.070329	0.28696	0.18796	0.14168	0.059949	0.090552	0.017063	0.15201	0.24585	0.02632	-3.3104	-4.2688	-3.7	-4.0833	-4.0375	-3.5646	-4.2958	-3.9833	-3.6188	-4.1333	-3.9062	-4.2104	-4.1417	-3.6104	-4.1729	-4.1	-1.580	13.280	116.865	309.613	280.037	39.695	41.430	281.028	-18.417	76.948	91.396	319.253	179.077	300.869	146.349	238.584	0.00043217	0.00010348	2.0842e-05	728.35	1.3175e-06	1.1331e-06	936.12	278.86	8.474e-07	1.3089e-06	376.01	136.32	97.651	45.332	9.2856e-07	64.143	5.894e-06	3.6457e-06	1.0669e-06	553.51	4.7121e-08	4.2038e-08	722.87	205.69	4.8478e-08	4.1047e-08	254.78	90.89	61.734	29.549	4.5557e-08	40.229	56.513	51.184	41.827	-13.919	78.334	76.908	-15.279	-9.080	124.553	86.233	-10.991	-6.622	-5.148	-0.764	115.394	-4.100	-8191	255	
4131.357	1	1	0	0	0.10086	0.095382	0.081282	0.19915	0.12996	0.13822	0.098982	0.021775	0.18147	0.079656	0.31312	0.18218	0.19847	0.28386	0.12832	0.15491	-3.3875	-4.1854	-3.7771	-3.975	-4.1417	-3.6521	-4.3125	-4.0312	-3.7375	-4.3167	-3.8854	-4.0479	-4.1188	-3.8625	-4.0875	-4.0958	210.012	-16.849	259.935	48.963	313.945	284.171	305.417	186.704	81.808	10.359	282.007	264.130	308.564	291.064	256.793	236.117	0.00039987	9.677e-05	3.0034e-05	729.55	1.2418e-06	1.2428e-06	945.16	282.34	8.6056e-07	1.4961e-06	383.43	138.67	100.29	46.408	1.275e-06	65.941	5.6886e-06	3.6957e-06	1.131e-06	554.43	4.3652e-08	3.9351e-08	728.69	207.41	4.5387e-08	3.9816e-08	258.59	92.617	62.983	30.166	4.9309e-08	41.263	57.662	42.825	25.497	-13.670	86.500	86.588	-15.445	-8.714	118.973	101.629	-11.522	-6.582	-5.152	-0.707	115.049	-4.052	-8191	255	
4131.455	1	1	0	0	0.040579	0.043797	0.043203	0.080417	0.24759	0.058113	0.059807	0.20463	0.1709	0.13115	0.23664	0.29284	0.11731	0.1327	0.10713	0.060091	-3.3438	-4.0958	-3.7854	-3.8104	-4.1562	-3.6646	-4.0479	-4.275	-3.6729	-4.2583	-3.8354	-3.8417	-4.4229	-3.8042	-3.9958	-4.0687	237.336	194.080	230.018	200.919	301.990	111.787	-1.668	11.271	79.681	-23.066	166.800	-9.248	291.861	306.123	98.309	247.348	0.00046318	0.00011593	2.6823e-05	741.12	7.8017e-07	1.0611e-06	956.47	288.02	1.4635e-06	7.8318e-07	389.64	141.56	101.8	47.075	1.3185e-06	67.133	5.6424e-06	3.7243e-06	1.1502e-06	562.96	4.1989e-08	4.0578e-08	739.37	211.23	4.5552e-08	4.1141e-08	263.42	94.437	64.247	30.71	4.9309e-08	41.966	57.160	38.039	13.206	-13.750	86.857	93.611	-15.381	-9.059	105.060	98.550	-11.121	-6.407	-5.105	-0.774	114.579	-3.669	-8191	255	
4131.574	1	1	0	0	0.31517	0.061086	0.12522	0.079656	0.17864	0.041851	0.15062	0.068504	0.01759	0.085898	0.18938	0.12622	0.24516	0.21302	0.37523	0.17212	-3.3375	-4.05	-3.9771	-4.0188	-4.2979	-3.7562	-3.9771	-4.1562	-3.5417	-4.0563	-4.1125	-3.7729	-4.3583	-3.8667	-3.9938	-4.2104	22.736	201.868	196.579	316.669	197.661	138.926	165.177	215.915	95.949	328.568	272.390	256.396	-11.424	302.766	160.235	295.462	0.0004428	0.00014174	3.0491e-05	748.3	9.7488e-07	8.4072e-07	973.5	290.27	1.3822e-06	1.1528e-06	394.99	144.32	103.13	47.695	9.3566e-07	68.324	5.6086e-06	3.7976e-06	1.1824e-06	568.09	4.1421e-08	4.4001e-08	749.85	214.11	4.3995e-08	4.2284e-08	267.72	96.208	65.237	31.124	4.9719e-08	42.742	61.314	42.672	12.085	-13.877	125.435	81.204	-15.200	-8.643	110.770	98.223	-10.868	-6.622	-5.029	-0.639	110.423	-4.027	-8191	255	
4131.646	1	1	0	0	0.017842	0.071194	0.10233	0.064104	0.09553	0.14784	0.24379	0.27815	0.10766	0.18801	0.074497	0.24349	0.15889	0.1088	0.17976	0.2773	-3.175	-3.9854	-3.9646	-3.7583	-4.2833	-3.7729	-3.9292	-4.3667	-3.6208	-4.1292	-4.2146	-3.6437	-4.2604	-4.0292	-3.7104	-4.1604	215.036	237.493	83.684	300.570	188.570	106.138	321.931	-24.441	-25.182	231.473	31.521	-6.927	332.745	55.228	22.313	280.274	0.00043329	0.00013833	2.6385e-05	755.75	1.0651e-06	7.9644e-07	975.56	294.37	1.211e-06	6.8191e-07	401.02	146.44	104.64	48.179	1.3575e-06	68.312	5.472e-06	4.0259e-06	1.1873e-06	573.19	4.2441e-08	4.572e-08	755.78	216.56	4.2525e-08	4.6347e-08	270.64	97.559	65.985	31.399	4.6195e-08	42.783	61.314	35.964	31.104	-13.841	89.141	91.765	-15.287	-8.876	120.153	72.469	-11.051	-6.930	-5.112	-0.645	108.473	-4.061	-8191	255	
4131.742	1	1	0	0	0.39607	0.26661	0.08612	0.22246	0.30487	0.088449	0.18077	0.09235	0.14802	0.093801	0.29709	0.19759	0.068766	0.23193	0.18724	0.26027	-3.325	-3.8937	-4.1	-3.7188	-4.0687	-4.0146	-3.8542	-4.3146	-3.8875	-4.0479	-4.3104	-3.7333	-4.1958	-3.8937	-3.8083	-4.1646	36.703	71.551	-14.007	225.204	244.175	52.241	296.897	255.970	210.979	322.585	315.174	276.526	192.951	255.565	296.418	312.938	0.00042132	9.3556e-05	3.9196e-05	757.98	1.5175e-06	7.5468e-07	971.86	290.46	1.0517e-06	5.7877e-07	392.87	142.33	102.12	47.385	5.8132e-07	67.178	5.3956e-06	4.1551e-06	1.0897e-06	574.9	4.1088e-08	4.5965e-08	751.29	213.8	4.3254e-08	4.532e-08	265.23	94.848	64.39	30.935	4.4377e-08	42.022	61.288	70.606	22.394	-13.884	100.769	82.174	-15.338	-8.786	108.115	61.068	-11.166	-6.808	-5.089	-0.868	106.176	-4.072	-8191	255	
4131.862	1	1	0	0	0.087691	0.24603	0.21015	0.012685	0.21604	0.0614	0.28781	0.082185	0.094156	0.21162	0.11157	0.10776	0.10941	0.11801	0.24778	0.27044	-3.5042	-3.9188	-3.9437	-3.6646	-4.0771	-4.0625	-3.8229	-4.3083	-3.7854	-4.0312	-4.0833	-3.6979	-4.0521	-4.0312	-3.6375	-4.2458	283.354	267.656	49.108	140.265	149.071	89.718	321.902	204.708	250.069	8.537	134.722	241.522	155.599	216.747	45.446	327.186	0.00043886	0.0001416	3.2036e-05	755.52	1.2949e-06	9.299e-07	977.84	292.49	1.0377e-06	5.854e-07	393.54	144.5	103.39	48.171	9.4041e-07	68.355	5.6283e-06	4.0044e-06	1.0201e-06	573.32	4.1543e-08	4.3436e-08	753.4	214.98	4.5037e-08	4.3537e-08	266.96	96.125	65.177	31.334	4.2579e-08	42.69	53.892	57.172	5.526	-13.964	82.079	80.531	-15.257	-8.986	106.810	78.364	-11.180	-6.818	-5.593	-0.780	90.337	-4.346	-8191	255	
4131.958	1	1	0	0	0.14592	0.085591	0.12264	0.21322	0.20273	0.081985	0.19553	0.21671	0.21732	0.20418	0.063085	0.13963	0.14657	0.17141	0.33176	0.06402	-3.375	-3.7771	-4.0792	-3.6354	-3.8583	-3.9125	-3.7375	-4.1813	-3.8812	-3.7521	-4.2917	-3.6688	-4.0437	-4.1188	-3.55	-4.1937	143.531	281.687	106.220	232.483	74.575	191.177	328.848	271.557	326.234	3.983	160.033	247.720	286.826	303.496	291.681	2.600	0.0004518	0.00012774	3.6531e-05	761.21	1.6821e-06	1.3098e-06	981.24	295.63	7.9831e-07	1.2108e-06	403.25	147.32	105.77	49.152	9.5102e-07	69.987	5.6163e-06	4.022e-06	1.0031e-06	577.91	4.5658e-08	4.2613e-08	758.99	217.12	4.6416e-08	4.3809e-08	272.3	98.358	66.56	31.936	4.2013e-08	43.576	73.395	39.716	2.437	-14.103	103.150	95.036	-15.283	-8.919	150.192	76.532	-11.197	-6.593	-5.122	-0.811	108.479	-3.924	-8191	255	
4132.055	1	1	0	0	0.28927	0.18956	0.11786	0.13404	0.13525	0.33798	0.21577	0.053498	0.12482	0.21439	0.27293	0.13748	0.035974	0.077482	0.21592	0.19303	-3.5208	-3.8396	-4.0167	-3.7583	-3.9229	-4.05	-3.7083	-4.2375	-3.7146	-3.7229	-4.3771	-3.8917	-3.9229	-4.225	-3.4792	-4.1708	220.208	60.710	-5.626	168.409	118.163	46.560	296.434	225.079	302.064	69.232	226.527	225.959	298.542	136.134	27.157	269.238	0.00049707	0.0001192	2.5713e-05	768.69	5.4852e-07	1.3891e-06	996.64	300.73	1.0243e-06	1.3811e-06	411.49	150.65	108.29	50.296	6.8968e-07	71.809	6.0821e-06	4.0229e-06	1.0228e-06	583.94	4.716e-08	4.2112e-08	769.24	221.18	4.8804e-08	4.1719e-08	277.56	100.85	68.392	32.761	4.3465e-08	44.875	61.325	75.232	2.251	-13.752	122.413	74.084	-15.344	-8.795	118.400	93.952	-11.366	-6.847	-5.118	-0.864	111.846	-3.889	-8191	255	
4132.175	1	1	0	0	0.053984	0.087086	0.089861	0.11122	0.032267	0.19122	0.29479	0.14875	0.061276	0.053959	0.05984	0.1831	0.24596	0.19953	0.084477	0.12886	-3.5479	-3.7687	-4.1583	-3.8125	-3.8396	-4.0604	-3.7729	-4.0771	-3.9667	-3.7271	-4.1125	-3.9354	-4.0521	-4.2917	-3.6604	-4.2292	155.894	67.800	331.395	-8.534	-24.149	245.913	269.188	291.626	259.998	-24.084	196.976	233.011	56.358	223.367	38.831	289.349	0.00046404	6.0563e-05	3.272e-05	780.15	1.3761e-06	9.3874e-07	1013.4	307.01	1.315e-06	1.4393e-06	416.58	154.18	109.3	50.208	9.6234e-07	71.796	6.073e-06	3.8173e-06	1.0141e-06	593.28	4.8116e-08	3.9993e-08	782.24	225.2	4.7228e-08	3.9455e-08	281.14	102.37	68.916	32.704	4.0642e-08	44.676	60.388	40.462	26.636	-13.888	96.285	95.773	-15.221	-8.887	128.571	96.378	-11.072	-6.972	-5.204	-0.616	112.099	-4.004	-8191	255	
4132.271	1	1	0	0	0.12062	0.41005	0.12404	0.2263	0.14815	0.056251	0.091895	0.2744	0.07741	0.051043	0.29117	0.11758	0.12356	0.091779	0.022196	0.31814	-3.6437	-3.6021	-3.9813	-3.9042	-3.7208	-4.1979	-3.8812	-4.0542	-3.9792	-3.7875	-4.2188	-4.0021	-3.8229	-4.1937	-3.5896	-4.0583	83.127	-8.075	157.035	-15.982	306.404	130.216	182.863	243.860	282.821	20.582	316.363	326.732	-11.175	-19.149	2.569	276.249	0.00049751	0.00011691	3.2541e-05	776.31	1.0196e-06	9.047e-07	996.12	299.96	1.4274e-06	8.3883e-07	405.81	146.75	104.46	49.096	1.1351e-06	69.468	5.6686e-06	3.6259e-06	9.737e-07	589.68	4.3739e-08	3.6802e-08	768.07	220.29	4.3092e-08	3.7368e-08	272.67	98.084	66.14	31.882	4.0257e-08	43.519	65.803	41.571	9.510	-13.606	104.028	99.458	-15.428	-8.657	124.676	78.646	-11.274	-7.118	-5.134	-0.660	104.221	-4.242	-8191	255	
4132.343	1	1	0	0	0.08072	0.328	0.046084	0.37674	0.1906	0.1013	0.42919	0.42641	0.25187	0.1025	0.12116	0.10542	0.08479	0.15485	0.11994	0.28378	-3.6937	-3.7729	-4.0813	-3.9437	-3.7687	-4.2854	-3.9167	-3.8688	-4.0896	-3.6604	-4.0604	-4.0938	-3.7958	-4.1354	-3.8125	-3.9854	165.594	126.564	38.821	291.249	192.565	293.374	250.029	252.299	165.706	132.609	271.673	53.651	-26.780	249.319	253.788	291.243	0.00047394	0.00010341	3.1022e-05	770.89	1.6311e-06	1.3542e-06	987.93	297.27	7.8096e-07	1.3759e-06	406.57	148.5	106.49	49.286	1.194e-06	70.178	5.3879e-06	3.4345e-06	9.8033e-07	585.45	4.1973e-08	3.6977e-08	765.05	219.3	4.3212e-08	3.8101e-08	273.99	99.164	67.147	32.117	4.3853e-08	43.852	67.089	66.301	28.464	-14.249	95.979	72.614	-15.371	-9.003	128.766	80.858	-11.267	-7.082	-5.121	-0.630	96.561	-4.109	-8191	255	
4132.462	1	1	0	0	0.12995	0.24131	0.048442	0.14732	0.18816	0.23453	0.12758	0.095619	0.2354	0.12079	0.11128	0.1738	0.32277	0.065216	0.25337	0.37426	-3.7625	-3.6208	-3.9729	-3.9437	-3.6562	-4.2146	-3.9313	-3.8917	-4.0167	-3.5021	-4.1375	-3.9979	-3.6958	-4.2667	-3.8104	-4.0437	-5.587	321.455	8.717	286.611	183.235	92.499	212.139	2.173	142.449	78.306	159.787	296.463	278.440	295.230	292.310	310.163	0.00046848	7.9147e-05	3.0878e-05	773.73	1.8256e-06	8.3193e-07	999.59	301.61	1.0031e-06	1.0736e-06	411.09	151.91	108.29	50.24	1.4281e-06	71.64	5.4111e-06	3.5002e-06	1.0378e-06	586.78	4.062e-08	3.5869e-08	770.98	221.73	4.1567e-08	3.7626e-08	278.78	101.32	68.343	32.728	4.6744e-08	44.793	61.478	57.774	23.129	-13.907	88.228	75.348	-15.528	-8.999	111.657	87.869	-11.214	-6.817	-5.240	-0.799	119.200	-4.020	-8191	255	
4132.558	1	1	0	0	0.12792	0.09251	0.1479	0.42807	0.10858	0.13352	0.13561	0.05757	0.066301	0.16652	0.16614	0.32182	0.098428	0.24377	0.023746	0.047424	-3.8625	-3.6771	-3.9542	-4.0563	-3.7458	-4.1542	-4.0792	-3.9	-4.3354	-3.6479	-4.0917	-4.1292	-3.5958	-4.3438	-3.8312	-3.8312	-14.589	80.927	182.883	316.000	52.464	-21.324	256.835	269.003	140.538	41.573	275.699	283.736	320.566	286.561	60.078	104.253	0.00046535	0.00012787	3.9226e-05	780.32	1.4162e-06	1.0828e-06	1006	304.01	1.2151e-06	1.7241e-06	415.1	152.96	109.6	50.636	1.0578e-06	72.427	5.41e-06	3.6021e-06	1.1541e-06	592.39	4.1708e-08	3.8572e-08	777.82	223.23	4.204e-08	3.9529e-08	281	102.19	68.937	32.893	4.7905e-08	45.192	63.812	22.438	13.435	-13.780	95.049	112.926	-15.246	-8.713	107.538	104.682	-11.167	-6.806	-5.091	-0.549	94.898	-4.296	-8191	255	
4132.654	1	1	0	0	0.099189	0.18411	0.046808	0.13949	0.12775	0.082227	0.21404	0.1383	0.23077	0.081308	0.064581	0.33054	0.1787	0.13689	0.11139	0.32545	-3.8417	-3.7542	-3.9979	-4.3125	-3.6042	-4.2021	-4.0625	-3.7521	-4.3521	-3.8021	-4.0062	-4.1917	-3.6396	-4.2208	-4.0083	-4.0208	140.400	221.380	32.230	70.266	106.570	181.422	-22.069	-20.080	2.969	26.221	285.330	276.535	304.687	209.280	282.503	318.139	0.00042911	0.00012309	3.5879e-05	790.71	1.8016e-06	1.3115e-06	1018.2	306.61	9.1134e-07	6.2063e-07	418.67	153.97	109.93	50.068	1.2123e-06	71.453	5.4514e-06	3.8727e-06	1.1917e-06	597.12	4.1114e-08	4.0924e-08	786.85	225.28	3.9515e-08	4.2374e-08	282.48	102.81	69.07	32.661	4.6534e-08	44.604	62.876	49.467	-5.063	-14.145	81.101	88.407	-15.205	-8.879	131.952	110.611	-10.745	-7.014	-4.990	-0.570	106.379	-3.896	-8191	255	
4132.750	1	1	0	0	0.13803	0.11876	0.11592	0.023679	0.22652	0.14201	0.22328	0.11782	0.21209	0.21293	0.06331	0.08583	0.11763	0.20469	0.11794	0.15176	-3.8937	-3.7812	-3.7292	-4.1896	-3.7542	-3.9938	-4.2021	-3.7583	-4.1229	-3.7833	-4.0104	-4.3688	-3.9667	-4.1729	-4.0312	-3.7833	289.258	5.282	-16.352	103.024	46.949	37.083	245.286	249.495	191.135	26.011	21.156	255.342	239.155	308.125	-7.349	265.346	0.00047174	9.6232e-05	4.008e-05	779.73	1.6655e-06	8.2725e-07	1005.7	301.42	1.0344e-06	1.0733e-06	408.28	149.58	106.52	49.241	1.2627e-06	70.309	5.2712e-06	3.7414e-06	1.0671e-06	591.58	3.8698e-08	4.1805e-08	775.81	221.36	3.8761e-08	4.2549e-08	275.52	99.626	66.982	32.076	4.2492e-08	43.818	62.091	74.764	24.036	-13.934	106.411	92.322	-15.474	-8.947	113.093	83.090	-10.999	-6.941	-5.042	-0.684	111.262	-4.026	-8191	255	
4132.847	1	1	0	0	0.19568	0.089776	0.2731	0.14071	0.088835	0.079232	0.22523	0.25967	0.2162	0.0471	0.12201	0.30436	0.048099	0.15065	0.12484	0.026019	-3.7833	-3.9208	-3.7375	-4.3438	-3.5687	-4.0146	-4.2667	-3.7667	-4.1542	-3.9354	-3.9271	-4.225	-3.7542	-4.0333	-4.1375	-3.6875	170.307	124.078	67.947	221.428	81.003	26.971	245.203	309.373	82.839	49.277	326.495	286.354	41.916	172.119	300.916	32.497	0.00048257	0.00014827	3.4868e-05	774.82	1.3983e-06	1.1895e-06	998.54	300.05	9.5362e-07	1.32e-06	408.72	150.32	107.35	49.734	1.1912e-06	70.689	5.2501e-06	4.0338e-06	1.0588e-06	588.92	3.8921e-08	4.2131e-08	771.98	220.24	4.1257e-08	4.3809e-08	276.3	100.35	67.618	32.335	4.255e-08	44.292	65.891	38.065	24.806	-13.992	115.565	84.798	-15.366	-8.761	106.878	66.264	-11.123	-7.203	-5.027	-0.630	100.566	-4.260	-8191	255	
4132.943	1	1	0	0	0.1721	0.071739	0.091293	0.18603	0.18556	0.09754	0.17919	0.11099	0.3106	0.21323	0.1983	0.2085	0.053433	0.068565	0.10463	0.11204	-3.7479	-3.8271	-3.6042	-4.3625	-3.7792	-3.9667	-4.1208	-3.6688	-4.1521	-3.9938	-3.8542	-4.3187	-3.7771	-3.9792	-4.0896	-3.6917	55.424	193.017	216.402	301.099	189.388	222.149	161.692	-26.568	237.650	30.914	312.603	-11.508	237.531	319.042	302.929	209.723	0.00049704	0.00012868	3.7967e-05	780.86	5.4775e-07	1.2856e-06	1012.9	302.2	1.1015e-06	1.1574e-06	414.91	153.2	108.39	50.096	1.0741e-06	71.889	5.4732e-06	4.0285e-06	1.0283e-06	593.81	4.4505e-08	4.3546e-08	780.46	222.39	4.4257e-08	4.3792e-08	280.23	102.07	68.469	32.685	4.1405e-08	44.96	61.487	64.505	16.543	-13.744	76.453	93.402	-15.456	-8.645	108.396	92.142	-11.047	-7.170	-5.306	-0.760	108.715	-4.194	-8191	255	
4133.039	1	1	0	0	0.13743	0.049468	0.14638	0.073542	0.13432	0.14061	0.099885	0.074823	0.1123	0.10868	0.074012	0.27349	0.10531	0.10781	0.081839	0.095368	-3.525	-3.8729	-3.7354	-4.0917	-3.8521	-3.6833	-4.2646	-3.7021	-4.0167	-3.9542	-3.5938	-4.2333	-3.8292	-3.8438	-4.1229	-3.7854	96.873	62.614	304.563	3.466	2.802	201.015	267.977	-11.782	233.892	-14.721	174.277	274.378	265.914	170.939	150.262	58.040	0.00045524	0.00010471	4.2533e-05	786.44	1.7358e-06	1.3762e-06	1024.4	304.84	1.1384e-06	7.7411e-07	420.52	155.54	110.24	50.901	8.4089e-07	73.141	5.9743e-06	3.9996e-06	1.0369e-06	598.01	4.7654e-08	4.405e-08	788.7	224.43	4.6714e-08	4.336e-08	283.96	103.83	69.612	33.194	4.1373e-08	45.658	56.878	46.105	5.773	-14.012	89.589	74.782	-15.302	-8.726	94.274	97.215	-11.125	-6.891	-5.325	-0.842	121.344	-3.903	-8191	255	
4133.135	1	1	0	0	0.10034	0.15828	0.027754	0.24942	0.26675	0.2254	0.090919	0.05779	0.13421	0.05946	0.12624	0.19522	0.189	0.31201	0.14237	0.18596	-3.7146	-4.1542	-3.6542	-4.1188	-3.7896	-3.7938	-4.3792	-3.8792	-3.95	-4.2208	-3.65	-4.3104	-3.9833	-3.8333	-4.2333	-3.8417	45.579	309.010	182.134	274.315	138.253	256.418	302.293	41.847	-10.904	216.907	-21.221	235.124	37.452	311.394	148.641	297.551	0.00044222	0.000127	5.3839e-05	793.87	1.6208e-06	1.3015e-06	1032.3	308.52	1.2982e-06	1.2151e-06	423.34	157.48	111.98	50.983	7.5442e-07	73.15	5.9754e-06	3.8589e-06	1.0484e-06	602.18	4.9524e-08	4.1272e-08	795.53	226.87	4.9144e-08	4.1399e-08	286.65	104.94	70.225	33.326	3.9284e-08	45.698	58.645	40.150	12.507	-13.946	60.061	96.283	-15.338	-8.810	133.274	108.886	-11.000	-6.857	-5.196	-0.794	88.803	-4.056	-8191	255	
4133.256	1	1	0	0	0.13915	0.082591	0.2075	0.034958	0.12267	0.17657	0.29229	0.18783	0.04811	0.090863	0.22031	0.13164	0.25217	0.17891	0.083588	0.25758	-3.4458	-4.0354	-3.6208	-4.1333	-3.9583	-3.5938	-4.4583	-3.8417	-3.8396	-3.9313	-3.7333	-4.1167	-3.9792	-3.7771	-4.1292	-3.8042	37.812	169.218	176.125	291.914	48.008	161.682	244.904	237.288	13.106	286.636	330.862	266.716	320.439	-26.733	81.603	301.896	0.00046795	9.3044e-05	2.1983e-05	791.38	7.448e-07	7.3989e-07	1017.5	302.65	1.1354e-06	1.3509e-06	409.61	150.2	106.58	49.906	8.3169e-07	71.114	5.8688e-06	3.7561e-06	9.7116e-07	600.37	4.4398e-08	3.8388e-08	785.62	222.61	4.6354e-08	3.8993e-08	276.86	100.11	67.17	32.524	3.8631e-08	44.4	63.913	36.877	23.896	-13.842	89.729	74.815	-15.322	-8.986	67.643	71.496	-11.199	-6.680	-5.443	-0.884	120.469	-3.974	-8191	255	
4133.350	1	1	0	0	0.22273	0.1369	0.10017	0.26759	0.12492	0.11611	0.24908	0.21357	0.13677	0.024396	0.22344	0.095051	0.30451	0.1393	0.13185	0.15306	-3.325	-4.075	-3.5396	-4.075	-4.0604	-3.5563	-4.1042	-3.8438	-3.6792	-4.1354	-3.8125	-3.9667	-3.9146	-3.6958	-4.0208	-3.9458	142.666	12.950	49.194	324.663	134.320	95.440	289.995	315.282	-23.982	6.131	295.353	298.583	287.598	239.034	88.432	303.753	0.00045415	0.00011521	1.5519e-05	780.64	9.1533e-07	1.6637e-06	1012.8	301.1	1.1603e-06	9.4594e-07	411.41	150.53	107.6	49.935	1.0562e-06	71.425	5.8788e-06	3.3517e-06	9.1791e-07	593.62	4.2525e-08	3.8928e-08	779.08	221.22	4.47e-08	3.7882e-08	278.07	100.69	67.722	32.496	4.1008e-08	44.768	59.378	51.632	44.508	-13.857	53.793	74.624	-15.453	-8.957	132.756	81.892	-11.463	-6.750	-5.404	-0.836	132.988	-3.860	-8191	255	
4133.446	1	1	0	0	0.042843	0.023347	0.02448	0.14807	0.11691	0.18993	0.14425	0.27806	0.075393	0.18208	0.092347	0.21146	0.11171	0.08129	0.098786	0.1234	-3.3333	-4.1083	-3.7313	-3.8458	-3.925	-3.5354	-4.2875	-4.0312	-3.8521	-4.0938	-3.8229	-3.8792	-3.9542	-3.875	-4.0188	-3.95	33.518	4.511	12.112	276.435	275.307	154.998	163.080	-0.311	332.604	21.139	302.591	253.613	267.726	319.642	274.825	148.289	0.00044199	9.3716e-05	5.0508e-05	786.56	1.0208e-06	1.1886e-06	1015.4	301.86	9.523e-07	1.2608e-06	415.75	154.39	108.9	50.625	1.6619e-06	72.567	5.5878e-06	3.3096e-06	1.0364e-06	596.57	4.176e-08	3.8934e-08	784.48	223.09	4.3891e-08	3.5818e-08	281.58	102.7	68.73	32.946	4.4891e-08	45.426	60.912	41.057	26.979	-13.830	72.968	95.443	-15.451	-8.746	103.279	98.191	-11.177	-7.029	-5.403	-0.664	114.262	-3.984	-8191	255	
4133.544	1	1	0	0	0.13178	0.089482	0.16223	0.1272	0.067404	0.21074	0.25358	0.41678	0.11404	0.098017	0.019334	0.097771	0.15504	0.096982	0.10373	0.1783	-3.325	-4.1813	-3.7667	-3.9542	-4.1792	-3.5458	-4.1792	-4.2271	-3.6312	-4.075	-3.8354	-4.0437	-4.2583	-3.8625	-4.0417	-4.1813	58.233	56.332	144.739	317.418	92.875	324.131	260.304	262.882	90.906	240.937	188.973	192.333	317.428	58.462	271.039	204.058	0.00043838	7.3957e-05	3.3195e-05	791.75	1.2428e-06	1.0541e-06	1026.6	306.64	1.1306e-06	9.8832e-07	424.28	156.47	111.15	51.609	7.5204e-07	73.878	5.5863e-06	3.4451e-06	1.1146e-06	601.13	4.0833e-08	3.8443e-08	792.69	225.65	4.3516e-08	3.7168e-08	286.41	104.71	70.145	33.593	4.6557e-08	46.325	57.998	53.939	33.138	-13.957	78.668	100.937	-15.266	-8.937	122.123	102.626	-11.156	-7.019	-5.215	-0.759	91.134	-4.093	-8191	255	
4133.638	1	1	0	0	0.27189	0.254	0.15497	0.35557	0.17898	0.18302	0.24098	0.039712	0.11844	0.27332	0.076205	0.085209	0.19463	0.27393	0.12631	0.045054	-3.3271	-4.1813	-3.7604	-3.8667	-3.9542	-3.4708	-4.0396	-4.0437	-3.6979	-4.2458	-3.9625	-3.9479	-4.3396	-3.875	-3.9375	-4.0229	197.605	197.003	325.913	306.470	193.334	203.887	306.870	249.908	284.620	191.019	85.338	304.412	186.001	276.916	321.960	63.654	0.00044882	0.00011185	3.4921e-05	799.36	1.5615e-06	1.1608e-06	1037.5	311.09	1.3599e-06	1.2158e-06	425.67	158.24	111.2	51.286	1.2915e-06	73.336	5.5425e-06	3.5891e-06	1.1297e-06	605.89	4.0549e-08	3.9913e-08	798.55	228.48	4.1231e-08	3.8612e-08	287.73	105.41	70.134	33.425	4.6767e-08	45.918	60.729	31.562	12.267	-13.915	99.661	96.991	-15.454	-9.009	115.535	105.889	-11.063	-6.977	-5.369	-0.553	93.519	-3.827	-8191	255	
4133.735	1	1	0	0	0.20077	0.19468	0.12054	0.20832	0.060827	0.12475	0.16581	0.030344	0.14701	0.13621	0.10941	0.24234	0.10509	0.089005	0.19892	0.19054	-3.4062	-4.2063	-3.8	-3.7375	-3.9958	-3.7771	-4.1396	-4.2312	-3.5396	-3.9562	-3.8937	-3.7021	-4.0917	-3.8438	-3.8312	-4.2354	180.642	303.302	165.364	202.315	331.975	190.718	263.205	14.023	283.865	33.644	140.356	301.919	-24.506	179.557	126.969	291.462	0.00044199	0.00016624	2.6232e-05	791.33	1.0528e-06	1.1393e-06	1020.5	303.48	1.1373e-06	1.4602e-06	411.38	151.08	107.09	49.967	9.4068e-07	71.339	5.3671e-06	3.6866e-06	1.1096e-06	601.02	3.8704e-08	4.0949e-08	786.23	222.82	4.0635e-08	3.9648e-08	278.19	100.79	67.315	32.477	4.5677e-08	44.545	63.127	47.254	32.670	-13.781	98.681	81.519	-15.479	-8.953	111.246	96.481	-11.403	-6.823	-5.475	-0.728	77.470	-4.144	-8191	255	
4133.855	1	1	0	0	0.14021	0.01133	0.19421	0.14342	0.36337	0.15151	0.10714	0.10597	0.078641	0.29184	0.1394	0.10497	0.15278	0.04838	0.093555	0.082072	-3.2271	-3.8979	-3.75	-3.7458	-4.075	-3.7083	-3.8583	-4.2417	-3.5938	-4.0687	-4.1208	-3.5021	-4.075	-3.825	-3.6688	-4.2833	31.099	-21.195	-17.109	275.483	231.558	106.470	317.431	32.476	9.865	178.451	263.656	299.696	87.483	16.165	29.127	79.151	0.00045993	0.00013101	3.0868e-05	780.84	1.1846e-06	1.0752e-06	1008.8	300.44	1.1576e-06	1.2826e-06	412.65	151.98	106.95	49.715	1.2637e-06	71.349	5.2842e-06	3.9528e-06	1.0843e-06	593.25	3.8075e-08	4.425e-08	780.94	220.81	4.2746e-08	4.2817e-08	278.01	101.09	67.629	32.437	4.4484e-08	44.569	61.908	40.998	18.081	-13.985	70.061	85.590	-15.325	-9.091	121.410	120.906	-10.964	-7.115	-5.255	-1.050	118.964	-4.267	-8191	255	
4133.951	1	1	0	0	0.17695	0.11201	0.07287	0.16727	0.26023	0.40104	0.20281	0.22564	0.17067	0.16194	0.19839	0.058284	0.14496	0.25011	0.12686	0.26483	-3.3917	-3.8458	-4.0792	-3.4938	-4.0625	-3.9	-3.7708	-4.1042	-3.675	-3.85	-4.0833	-3.7167	-4.1729	-3.9125	-3.7792	-4.3146	56.274	306.465	181.825	29.912	11.195	43.493	289.508	320.400	200.771	236.308	287.471	330.602	241.091	292.800	268.246	278.412	0.00051603	0.00011347	3.7534e-05	783.42	1.1656e-06	1.0652e-06	1009.9	300.45	1.1127e-06	1.544e-06	410.92	151.3	107.21	49.473	7.7051e-07	71.605	5.5264e-06	4.1163e-06	1.0578e-06	593.05	4.2302e-08	4.5597e-08	779.99	220.54	4.3671e-08	4.5449e-08	278.4	101.18	67.432	32.315	4.384e-08	44.662	64.688	47.345	11.247	-13.934	97.205	103.514	-15.406	-8.837	108.344	112.877	-11.110	-6.713	-5.263	-0.673	111.621	-4.300	-8191	255	
4134.048	1	1	0	0	0.25197	0.15375	0.13597	0.039752	0.074614	0.14955	0.17826	0.16447	0.15455	0.094878	0.1367	0.29929	0.15571	0.16213	0.17038	0.10568	-3.2188	-3.9104	-3.975	-3.6354	-4.1271	-3.9479	-3.7833	-4.2208	-3.55	-3.8375	-4.1667	-3.7417	-4.1458	-3.95	-3.6083	-4.3083	59.719	280.552	46.814	107.961	226.436	271.880	253.476	242.330	210.534	304.475	265.469	279.916	29.622	282.214	225.366	276.139	0.00047302	0.00013688	1.9014e-05	780.04	1.6935e-06	9.3433e-07	1009	300.36	9.2269e-07	1.3894e-06	415.87	152.74	107.49	49.768	9.429e-07	71.952	5.8488e-06	4.0797e-06	1.0415e-06	592.14	4.3778e-08	4.5794e-08	781.39	220.94	4.9038e-08	4.6435e-08	280.21	101.95	67.891	32.448	4.4455e-08	44.981	59.496	40.964	23.433	-13.949	109.258	87.752	-15.331	-8.884	107.013	65.586	-11.219	-7.050	-5.149	-0.582	104.037	-4.117	-8191	255	
4134.144	1	1	0	0	0.29778	0.056575	0.060962	0.25893	0.069033	0.25389	0.16277	0.11725	0.34328	0.12068	0.10408	0.21952	0.10685	0.26691	0.094075	0.30401	-3.4188	-3.7687	-4.2229	-3.6479	-3.9313	-3.8792	-3.8167	-4.375	-3.7479	-3.7229	-4.2	-4.0167	-4.1271	-4.0125	-3.6792	-4.1438	265.379	20.201	114.273	282.103	145.031	88.482	333.095	215.455	161.932	245.131	274.296	280.692	38.399	306.604	146.305	249.120	0.00051743	0.00013384	2.493e-05	782.62	7.272e-07	1.3923e-06	1022.4	303.17	1.0154e-06	1.3042e-06	419.28	155.52	108.53	50.129	1.1325e-06	71.889	6.1015e-06	4.1481e-06	1.0548e-06	595.39	4.8397e-08	4.322e-08	789.63	223.81	4.9733e-08	4.3541e-08	283.33	103.54	68.657	32.761	4.2026e-08	45.181	61.437	47.941	37.392	-14.078	69.078	73.049	-15.564	-8.750	103.052	92.038	-11.221	-6.920	-5.385	-0.814	123.480	-3.947	-8191	255	
4134.240	1	1	0	0	0.29388	0.16857	0.078084	0.2335	0.16067	0.25526	0.26101	0.1894	0.16514	0.073457	0.1156	0.36383	0.15876	0.081061	0.23869	0.047566	-3.4562	-3.6729	-4.2229	-3.6708	-3.8771	-4.0146	-3.6625	-4.0625	-3.8333	-3.775	-4.1312	-3.6875	-3.7875	-4.1896	-3.5354	-4.1458	251.819	319.706	29.884	26.663	99.746	31.676	24.619	300.593	92.111	255.920	242.818	-22.535	-22.307	316.784	5.870	78.028	0.00050374	0.00011159	3.7975e-05	781.87	1.9362e-06	1.4073e-06	1017.8	300.12	1.5101e-06	9.0836e-07	405.82	149.29	104.92	48.913	6.5758e-07	70.725	5.9552e-06	3.8138e-06	9.6796e-07	594.52	4.7337e-08	3.8879e-08	783.27	220.42	4.6659e-08	4.063e-08	275.09	99.639	66.225	31.886	3.9003e-08	44.124	59.755	39.131	25.607	-13.865	71.277	68.604	-15.401	-8.852	111.248	134.663	-11.216	-6.718	-5.375	-0.533	133.983	-3.868	-8191	255	
4134.336	1	1	0	0	0.060201	0.14329	0.14566	0.066154	0.065563	0.2637	0.21935	0.15467	0.22852	0.14549	0.47212	0.16643	0.30306	0.333	0.05842	0.12123	-3.5292	-3.525	-4.1229	-3.7479	-3.8625	-3.9729	-3.7771	-4.1604	-3.8937	-3.5875	-4.175	-3.7625	-3.8333	-4.2625	-3.775	-4.1375	298.678	280.657	43.350	207.370	243.192	125.086	-26.404	303.778	22.377	116.206	-12.128	48.697	192.559	317.867	-15.649	154.368	0.0004678	0.00015027	3.0383e-05	774.15	1.4538e-06	1.6223e-06	1002.7	299.48	1.0238e-06	1.118e-06	409.02	150.96	106.58	49.792	1.1769e-06	71.837	5.7048e-06	3.6118e-06	9.2479e-07	588.75	4.3404e-08	3.8188e-08	775.39	219.69	4.4312e-08	3.7068e-08	276.09	100.69	67.138	32.344	3.735e-08	44.775	62.206	50.711	24.010	-13.907	90.374	106.990	-15.539	-9.066	102.272	82.552	-11.099	-6.875	-5.354	-0.759	92.062	-4.100	-8191	255	
4134.430	1	1	0	0	0.13738	0.070553	0.11318	0.18308	0.20207	0.26802	0.33373	0.22961	0.12884	0.19829	0.17738	0.079256	0.12509	0.13942	0.021237	0.28552	-3.6271	-3.6771	-4.0854	-3.7458	-3.6083	-4.0813	-3.8292	-3.9333	-3.925	-3.7188	-4.2354	-3.9083	-3.8458	-4.1937	-3.7396	-4.0563	169.325	283.618	182.780	297.698	141.512	275.364	288.524	204.930	2.785	212.519	279.700	272.975	328.961	315.194	146.504	219.956	0.00046575	0.0001263	3.239e-05	785.2	1.6233e-06	1.3682e-06	1013.4	301.36	1.4049e-06	1.6476e-06	416.42	154.49	108.64	50.594	1.1187e-06	73.398	5.6442e-06	3.5114e-06	9.0521e-07	595.11	4.2241e-08	3.5536e-08	783.43	222.11	4.4166e-08	3.7232e-08	281.09	103.02	68.677	32.927	4.1037e-08	45.929	58.388	49.297	0.179	-14.254	91.854	86.520	-15.401	-9.150	96.761	88.192	-10.932	-6.971	-5.371	-0.823	93.018	-3.965	-8191	255	
4134.527	1	1	0	0	0.14133	0.19102	0.16881	0.070697	0.11775	0.20987	0.20814	0.13465	0.19849	0.073116	0.20906	0.17791	0.12347	0.14912	0.070843	0.2149	-3.6063	-3.5563	-4.0167	-3.9938	-3.6771	-4.2729	-3.7208	-3.9771	-4.125	-3.5938	-4.0875	-3.9833	-3.7083	-4.3438	-3.7604	-4.0875	153.287	182.606	132.221	233.228	9.816	158.752	223.440	278.108	-11.631	289.317	257.315	213.708	205.692	309.813	162.515	310.306	0.00049632	0.00013041	3.6797e-05	791.72	1.1678e-06	7.8936e-07	1024.8	307.13	5.8226e-07	8.5889e-07	425.59	158.23	111.07	51.315	1.2818e-06	74.812	5.4805e-06	3.5034e-06	1.0075e-06	600.06	3.997e-08	3.4406e-08	792.95	226.28	4.2169e-08	3.6228e-08	286.23	105.44	70.091	33.554	4.5435e-08	46.856	58.564	40.468	21.317	-13.953	64.704	92.783	-15.601	-8.780	124.058	113.940	-11.336	-6.924	-5.266	-0.796	63.809	-3.869	-8191	255	
4134.647	1	1	0	0	0.18915	0.11506	0.18473	0.05408	0.22364	0.13291	0.095912	0.029758	0.13037	0.16927	0.16984	0.24289	0.34465	0.087945	0.092883	0.15115	-3.8354	-3.5542	-3.85	-3.8333	-3.5312	-4.1708	-3.9708	-3.875	-4.0396	-3.6604	-4.0563	-4.0146	-3.5479	-4.2958	-3.9229	-3.7979	-10.929	137.971	288.337	6.554	322.418	149.714	328.452	74.122	276.161	73.094	313.279	297.524	288.798	190.979	266.793	262.513	0.00049056	0.00010916	2.4491e-05	795.19	8.956e-07	1.0946e-06	1032.3	310.18	1.3719e-06	1.1513e-06	424.85	158.51	109.82	51.004	1.1876e-06	73.134	5.5531e-06	3.5246e-06	1.0538e-06	605.36	4.0933e-08	3.7542e-08	799.27	228.04	4.1438e-08	3.7226e-08	287.09	105.28	69.148	33.228	4.6149e-08	45.918	63.844	47.723	6.769	-13.940	64.597	82.573	-15.254	-8.924	96.111	104.660	-11.077	-7.037	-5.305	-0.834	130.739	-4.166	-8191	255	
4134.743	1	1	0	0	0.20502	0.18439	0.077922	0.19179	0.012289	0.29179	0.21651	0.10845	0.13431	0.30294	0.12862	0.14904	0.22122	0.22336	0.10102	0.16337	-3.7604	-3.6583	-4.0271	-4.0833	-3.6458	-4.0104	-3.975	-3.9292	-4.3208	-3.5896	-4.0333	-4.1062	-3.5396	-4.2458	-3.8375	-3.7625	94.701	192.825	225.723	218.503	263.215	-2.972	164.540	181.436	241.866	163.476	164.746	306.705	257.054	260.632	313.853	230.955	0.00044341	0.00012832	2.3089e-05	787.34	1.2879e-06	1.1257e-06	1015.3	301.09	8.2993e-07	9.9104e-07	411.12	151.52	106.29	49.773	6.7533e-07	71.854	5.3112e-06	3.5178e-06	1.1147e-06	598.13	3.8837e-08	3.7716e-08	786.46	221.33	4.0548e-08	3.8618e-08	277.43	100.98	66.928	32.377	4.5024e-08	44.87	66.045	67.537	18.335	-13.994	85.838	89.938	-15.599	-8.881	116.154	102.966	-11.166	-6.650	-5.330	-0.910	108.994	-4.052	-8191	255	
4134.815	1	1	0	0	0.11804	0.27148	0.15171	0.17298	0.1327	0.21808	0.10511	0.19852	0.067258	0.16302	0.22535	0.22606	0.17576	0.13471	0.18613	0.075466	-3.8604	-3.6396	-3.9042	-4.0917	-3.7042	-3.9	-3.9167	-3.8167	-4.0979	-3.8	-3.8417	-4.0646	-3.6917	-4.1813	-4.1542	-3.575	314.032	298.018	193.758	157.863	143.996	162.958	-12.364	296.054	62.374	246.620	281.634	229.960	200.838	267.019	218.843	264.330	0.00047098	0.00013434	3.7565e-05	782.61	1.7119e-06	1.6314e-06	1015.8	300.44	7.33e-07	1.3838e-06	412.49	152.85	107.85	49.973	9.1765e-07	72.738	5.1628e-06	3.6595e-06	1.0611e-06	594.66	3.8462e-08	3.968e-08	785.49	221.2	3.9936e-08	4.1493e-08	278.95	101.94	67.792	32.669	4.3633e-08	45.481	59.860	52.636	20.379	-13.877	102.693	106.198	-15.532	-8.919	83.521	101.848	-11.117	-6.958	-5.529	-0.746	117.837	-4.093	-8191	255	
4134.936	1	1	0	0	0.26495	0.29623	0.079483	0.15963	0.16523	0.12166	0.066206	0.24883	0.084738	0.087794	0.33487	0.32807	0.15119	0.22189	0.12687	0.13256	-3.8083	-3.4625	-3.7604	-4.1917	-3.5917	-4.0771	-4.0833	-3.55	-4.0958	-3.8292	-3.8833	-4.2688	-3.7167	-3.9	-3.9708	-3.7708	202.051	81.991	7.929	209.163	269.243	9.194	-27.031	252.085	17.758	116.124	290.412	300.057	-18.654	318.315	166.477	195.633	0.00049522	0.00016983	2.2674e-05	787.32	1.0309e-06	1.184e-06	1027.3	304.86	1.1429e-06	1.737e-06	421.01	157.32	109.93	50.782	7.0873e-07	74.338	5.1152e-06	3.9154e-06	1.0429e-06	598.09	3.884e-08	4.1237e-08	792.78	223.85	4.1289e-08	4.3734e-08	284.28	104.46	69.163	33.286	4.3333e-08	46.424	60.538	46.922	25.695	-14.126	97.123	114.277	-15.384	-9.151	115.574	83.012	-11.345	-6.870	-5.662	-0.818	95.763	-4.152	-8191	255	
4135.032	1	1	0	0	0.33468	0.11775	0.19783	0.042816	0.14931	0.11497	0.19466	0.067659	0.16276	0.18203	0.30046	0.15133	0.061952	0.15401	0.1743	0.19332	-3.5896	-3.8229	-3.6688	-4.0521	-3.8	-3.9729	-4.2729	-3.6063	-3.9542	-3.7021	-3.7271	-4.3	-3.8333	-3.9167	-3.9896	-3.6979	140.450	282.772	82.680	75.860	25.440	317.692	61.313	162.685	171.099	307.648	305.854	303.335	38.675	51.505	137.809	291.105	0.00050526	0.00016423	2.9893e-05	795.11	1.3762e-06	1.4726e-06	1036.9	308.69	9.1139e-07	1.4512e-06	426.44	159.77	111.42	51.722	9.5434e-07	75.274	5.5261e-06	4.0344e-06	1.0356e-06	601.72	4.1931e-08	4.3065e-08	799.43	226.7	4.271e-08	4.3366e-08	288.15	106.43	70.25	33.652	4.2786e-08	47.047	62.521	51.453	15.402	-13.812	85.932	86.670	-15.310	-8.950	130.894	92.259	-10.812	-6.659	-5.238	-0.597	103.849	-3.866	-8191	255	
4135.128	1	1	0	0	0.084991	0.022515	0.1337	0.17998	0.13396	0.070066	0.079382	0.22602	0.22823	0.25461	0.23974	0.23868	0.37149	0.02694	0.11693	0.26542	-3.8229	-3.8833	-3.7125	-4.2	-3.7771	-3.6896	-4.2146	-3.5708	-3.9688	-3.8875	-3.7042	-4.2146	-3.9125	-3.9042	-4.025	-3.7521	258.304	267.135	106.063	292.854	11.139	32.154	117.622	208.109	179.515	161.479	254.576	258.054	327.139	297.745	185.002	290.028	0.00057933	0.00010173	3.4906e-05	795.53	1.5023e-06	1.0034e-06	1041.3	308.88	8.0002e-07	7.4713e-07	423.62	156.69	108.61	50.668	1.3252e-06	73.825	5.7991e-06	4.0447e-06	1.0392e-06	605.47	4.3594e-08	4.3313e-08	802.83	227.13	4.5432e-08	4.2969e-08	286.59	104.66	68.766	33.102	4.0759e-08	46.079	60.336	7.737	20.231	-13.852	81.786	62.238	-15.355	-8.993	123.542	96.815	-11.309	-6.927	-5.574	-0.613	89.945	-4.034	-8191	255	
4135.224	1	1	0	0	0.26552	0.085239	0.0065713	0.25818	0.17561	0.17811	0.19553	0.03917	0.07586	0.03985	0.14817	0.11466	0.25834	0.10986	0.16511	0.11989	-3.6375	-3.8104	-3.7167	-4.1271	-3.7938	-3.7521	-4.3833	-3.7188	-3.8271	-4.0396	-3.8521	-4.1396	-3.8833	-3.8187	-4.0854	-3.5708	61.580	330.612	6.930	320.665	0.248	43.619	277.387	219.224	36.859	122.239	5.573	205.744	233.936	254.624	97.544	252.899	0.00048565	0.00013925	1.6721e-05	786.76	1.1331e-06	1.3517e-06	1020.8	300.43	1.3433e-06	1.3263e-06	411.52	151.72	106.44	49.872	9.8724e-07	72.279	5.7236e-06	3.838e-06	9.7894e-07	598.23	4.5225e-08	4.2357e-08	788.4	221.39	4.5811e-08	4.0443e-08	277.91	101.35	67.104	32.41	3.8747e-08	45.178	63.844	30.632	1.144	-13.853	81.179	87.617	-15.325	-9.204	127.276	70.379	-11.348	-6.918	-5.374	-1.044	116.813	-3.902	-8191	255	
4135.345	1	1	0	0	0.078569	0.13622	0.10061	0.22201	0.16884	0.14511	0.1723	0.1673	0.22884	0.14066	0.16095	0.15977	0.26698	0.22765	0.116	0.18043	-3.5646	-4.0667	-3.625	-4.0104	-3.9646	-3.7	-4.2833	-3.7479	-4.0146	-4.075	-3.7375	-4.0333	-3.9021	-3.875	-4.1125	-3.6708	314.030	301.839	28.481	252.439	244.429	238.521	331.806	264.364	163.524	142.882	-8.072	228.025	327.384	237.701	242.250	232.142	0.00048639	0.00012844	3.2902e-05	780.95	1.2571e-06	1.2924e-06	1025	302.69	8.7741e-07	1.0165e-06	417.01	154.63	107.95	50.452	6.682e-07	73.393	5.9587e-06	3.6029e-06	9.1643e-07	595.19	4.539e-08	3.9496e-08	789.55	222.03	4.5124e-08	3.8666e-08	281.31	103	68.2	32.792	4.0041e-08	45.823	62.422	44.225	15.962	-13.893	67.304	82.355	-15.260	-8.948	110.267	107.832	-11.265	-6.748	-5.456	-0.903	138.956	-4.247	-8191	255	
4135.439	1	1	0	0	0.19783	0.31357	0.012027	0.25375	0.25728	0.12559	0.21442	0.28172	0.092393	0.071573	0.11764	0.12989	0.073017	0.12678	0.079102	0.33812	-3.4	-4.075	-3.5458	-4.1021	-3.8521	-3.5479	-4.2542	-3.7229	-3.7708	-4.0229	-3.6896	-3.9542	-4.0292	-3.6583	-4.1042	-3.925	243.978	94.611	316.778	41.093	-3.749	109.850	291.107	277.469	23.759	281.646	224.822	237.415	240.431	282.192	321.728	212.188	0.00047332	0.00011793	3.5683e-05	787.94	1.3916e-06	7.2558e-07	1026.8	303.18	1.2202e-06	1.2585e-06	421.81	156.26	109.7	50.839	1.1061e-06	74.102	5.929e-06	3.643e-06	9.5879e-07	598.76	4.4779e-08	4.0294e-08	793.4	223.67	4.638e-08	3.875e-08	284.55	104.65	69.071	33.185	4.1198e-08	46.45	61.479	60.721	7.395	-13.785	80.063	88.028	-15.204	-9.043	101.716	101.443	-11.223	-6.876	-5.356	-0.869	84.952	-4.193	-8191	255	
4135.535	1	1	0	0	0.1249	0.17972	0.20506	0.15478	0.064233	0.070253	0.32349	0.22761	0.17455	0.12367	0.11089	0.23739	0.19803	0.16904	0.1684	0.12622	-3.4542	-4.2146	-3.7292	-3.9896	-4.125	-3.7146	-4.15	-3.9583	-3.6667	-4.2167	-3.8125	-4.0792	-4.0021	-3.7375	-4.0583	-4.0208	303.023	67.084	150.017	237.599	91.729	71.946	264.100	233.498	66.667	237.297	331.837	-25.512	9.012	42.377	83.397	272.834	0.00050695	0.00012672	3.3348e-05	794.29	1.5814e-06	1.3563e-06	1038.8	305.6	7.0746e-07	1.5681e-06	424.67	158.83	110.63	51.552	7.2152e-07	74.913	5.8358e-06	3.5611e-06	1.0094e-06	602.21	4.4321e-08	3.9024e-08	800.04	225.59	4.3603e-08	3.8773e-08	287.71	106.27	69.895	33.54	4.4005e-08	46.903	65.455	41.366	12.093	-13.783	82.631	79.761	-15.065	-8.908	127.355	85.612	-11.023	-6.666	-5.168	-0.939	85.143	-3.964	-8191	255	
4135.631	1	1	0	0	0.14561	0.091535	0.24698	0.18119	0.17397	0.41831	0.1171	0.21502	0.14462	0.086837	0.17919	0.26593	0.072332	0.083212	0.26464	0.10737	-3.3083	-4.2	-3.6312	-3.8937	-4.0271	-3.6708	-4.1583	-4.0813	-3.675	-4.125	-3.7875	-3.9292	-4.3375	-3.6833	-4.075	-3.9896	281.641	239.736	264.810	255.689	258.564	125.719	206.241	322.792	192.269	145.972	328.376	323.622	13.090	25.250	278.501	189.524	0.00050643	7.8364e-05	3.5339e-05	791.91	1.5135e-06	7.2061e-07	1030.6	302.65	7.9381e-07	1.2639e-06	417.27	154.08	107.06	49.994	8.9868e-07	72.645	5.8538e-06	3.4969e-06	1.0693e-06	601.84	4.0716e-08	3.687e-08	796.47	222.93	4.3908e-08	3.6625e-08	281.72	102.76	67.635	32.466	4.4561e-08	45.308	58.768	46.594	12.575	-13.981	68.060	86.050	-15.434	-9.012	106.541	84.314	-11.175	-6.759	-5.408	-1.080	104.725	-4.410	-8191	255	
4135.728	1	1	0	0	0.086581	0.21021	0.22303	0.36004	0.11848	0.14273	0.045585	0.22859	0.13064	0.035474	0.39217	0.2753	0.2514	0.074104	0.14062	0.099985	-3.0812	-4.1625	-3.7833	-3.8042	-4.2104	-3.6854	-4.1562	-3.9042	-3.6937	-4.2417	-4.075	-3.8063	-4.1375	-3.6458	-3.95	-4.0396	31.439	2.000	93.871	285.770	189.136	164.639	286.733	246.354	60.967	312.590	325.359	317.215	264.221	21.576	251.221	144.974	0.00045519	7.8716e-05	2.7051e-05	777.42	1.1251e-06	1.0731e-06	1016.2	296.82	1.3358e-06	1.2333e-06	407.79	150.57	105.36	49.057	1.1432e-06	71.402	5.7535e-06	3.4307e-06	1.1006e-06	592.88	4.0497e-08	3.6886e-08	784.51	218.17	4.3823e-08	3.7798e-08	276.26	100.75	66.434	32.011	4.8672e-08	44.791	65.461	34.924	8.855	-13.971	101.034	110.867	-15.416	-8.837	101.344	99.548	-11.274	-6.769	-5.348	-0.932	131.071	-3.938	-8191	255	
4135.824	1	1	0	0	0.24702	0.17802	0.14704	0.075376	0.18601	0.0094169	0.29478	0.20082	0.18201	0.1975	0.28497	0.13335	0.37658	0.12343	0.18682	0.13201	-3.2771	-4.0646	-3.8063	-3.9813	-4.075	-3.7708	-3.9688	-4.0417	-3.4646	-3.9562	-3.9188	-3.825	-4.1562	-3.6875	-3.9042	-4.1896	-4.777	211.833	86.679	249.131	136.757	-20.886	296.738	48.460	127.035	314.352	233.235	270.946	264.434	-21.482	121.556	89.844	0.00049333	0.00013526	3.9324e-05	777.92	1.5268e-06	8.6752e-07	1012.4	295.08	1.553e-06	1.277e-06	412.22	152.21	105.93	49.169	9.6959e-07	71.936	5.5067e-06	3.6047e-06	1.1503e-06	591.6	4.0713e-08	3.9893e-08	784.07	217.93	4.3509e-08	4.074e-08	277.85	101.71	66.864	32.122	4.8306e-08	45.011	60.293	53.484	31.863	-14.155	87.129	94.335	-15.458	-8.926	113.587	103.455	-11.009	-6.866	-5.417	-0.984	95.157	-4.096	-8191	255	
4135.944	1	1	0	0	0.15445	0.121	0.077201	0.12474	0.2677	0.25118	0.046259	0.053985	0.17718	0.045489	0.17752	0.2389	0.12551	0.15686	0.14474	0.19738	-3.2	-3.9375	-3.8979	-3.6937	-4.0917	-3.6229	-4.0417	-4.2646	-3.4813	-4.0729	-4.1	-3.5687	-4.1917	-3.8812	-3.7875	-4.1583	4.938	26.502	-1.281	222.590	216.623	41.482	87.787	4.850	33.938	77.050	299.462	-2.726	31.602	-9.562	104.368	285.872	0.00049897	9.5538e-05	4.1792e-05	775.66	1.0714e-06	1.492e-06	1015.9	297.33	7.8702e-07	1.4737e-06	412.85	153.39	106.42	49.406	1.0627e-06	72.175	5.5043e-06	4.0547e-06	1.2075e-06	590.51	4.2515e-08	4.7441e-08	785.22	218.79	4.3192e-08	4.5343e-08	279.3	102.42	67.136	32.187	4.8513e-08	45.144	61.700	67.522	11.619	-13.955	91.115	97.959	-15.422	-8.787	142.255	101.639	-11.013	-6.869	-5.444	-0.761	80.721	-4.021	-8191	255	
4136.040	1	1	0	0	0.10756	0.076105	0.27286	0.22292	0.1769	0.1075	0.24763	0.033486	0.1923	0.16343	0.18876	0.075943	0.12784	0.10673	0.27985	0.28876	-3.3563	-3.8708	-3.95	-3.6292	-4.2146	-3.8542	-3.8375	-4.2312	-3.7958	-3.9396	-4.0687	-3.6312	-4.2021	-3.8958	-3.7104	-4.3021	100.408	155.851	10.934	6.821	55.709	138.114	261.095	219.667	-20.304	68.130	252.706	-24.106	-24.390	28.703	-22.568	331.541	0.00044618	8.3651e-05	2.5915e-05	772.46	1.3025e-06	1.2375e-06	1019.6	295.13	1.1706e-06	1.1609e-06	413.4	154.36	106.55	49.091	7.8682e-07	71.454	5.8282e-06	4.3854e-06	1.2219e-06	588.87	4.2793e-08	4.871e-08	786.98	217.51	4.5529e-08	4.8231e-08	279.54	102.77	67.103	32.042	4.883e-08	44.921	60.098	42.233	13.904	-14.210	72.175	87.486	-15.200	-9.014	95.254	53.636	-10.979	-6.716	-5.321	-1.050	93.125	-3.910	-8191	255	
4136.112	1	1	0	0	0.07605	0.063236	0.092327	0.23153	0.17549	0.20223	0.15684	0.21613	0.11668	0.18512	0.10225	0.21837	0.12265	0.14853	0.088792	0.2694	-3.2479	-3.9958	-3.9875	-3.5542	-4.0771	-3.8729	-3.9167	-4.2229	-3.7896	-3.9458	-4.075	-3.6854	-4.075	-4.1083	-3.5438	-4.3063	140.251	236.808	173.354	262.538	218.726	139.864	318.190	-18.694	226.949	1.069	38.956	292.916	6.801	279.777	72.722	269.750	0.00050789	7.4368e-05	3.3814e-05	762.43	1.8775e-06	1.2181e-06	999.67	288.56	8.3316e-07	1.0687e-06	400.03	147.68	101.96	47.259	8.8892e-07	68.715	6.0613e-06	4.5963e-06	1.1333e-06	580.57	4.6824e-08	4.8439e-08	771.65	211.91	4.8257e-08	4.9103e-08	270.12	98.654	64.517	30.815	4.7543e-08	43.062	59.667	24.237	9.075	-14.002	72.316	74.404	-15.235	-8.926	112.854	71.038	-11.248	-7.036	-5.380	-0.843	110.944	-4.086	-8191	255	
4136.208	1	1	0	0	0.17611	0.20644	0.17029	0.031562	0.16213	0.15064	0.055327	0.085596	0.15943	0.16144	0.23451	0.21149	0.062515	0.20928	0.032956	0.22156	-3.5333	-3.9708	-4.1104	-3.7771	-3.9542	-3.9458	-3.6937	-4.1354	-3.6583	-3.7562	-4.3667	-3.7854	-4.1687	-3.9354	-3.6479	-4.1542	-16.879	270.069	49.979	285.727	-6.662	7.060	203.623	310.547	219.297	253.812	320.837	-12.420	305.452	1.779	250.156	277.031	0.00050029	0.00010959	1.6236e-05	744.31	5.8074e-07	1.321e-06	978.79	281.18	1.129e-06	1.0535e-06	391.08	145.31	99.899	46.556	1.034e-06	68.082	6.1259e-06	4.4217e-06	1.111e-06	568.1	5.0535e-08	4.8119e-08	755.86	206.69	5.1009e-08	4.8053e-08	263.95	96.639	63.054	30.294	4.8491e-08	42.568	61.456	37.302	28.390	-13.787	100.287	76.229	-15.239	-8.842	126.500	116.335	-11.286	-6.821	-5.177	-0.688	113.166	-4.105	-8191	255	
4136.304	1	1	0	0	0.10921	0.16598	0.050054	0.20283	0.29707	0.062171	0.33063	0.084626	0.35704	0.13346	0.049478	0.1292	0.076176	0.14964	0.2106	0.16308	-3.4083	-3.8729	-4.0708	-3.5917	-3.8042	-3.8063	-3.7396	-4.2042	-3.675	-3.7333	-4.3479	-3.8125	-3.9167	-4.0854	-3.6792	-4.0417	285.611	63.924	292.759	312.874	149.504	69.996	292.475	245.411	35.011	304.583	123.062	-22.794	328.946	4.129	296.805	230.787	0.00050201	9.7941e-05	1.7521e-05	737.23	1.0257e-06	7.6698e-07	965.03	273.74	9.5446e-07	9.2394e-07	380.27	141.1	97.791	45.846	1.9932e-06	67.232	6.6276e-06	4.6702e-06	1.1285e-06	559.67	5.5056e-08	4.9043e-08	744.73	201.19	5.6278e-08	4.9613e-08	256.75	94.163	61.729	29.933	5.185e-08	42.165	65.762	53.306	-6.907	-14.013	94.958	68.134	-15.446	-9.119	148.551	91.476	-10.871	-6.751	-4.984	-0.926	93.085	-3.851	-8191	255	
4136.423	1	1	0	0	0.097734	0.28987	0.089157	0.181	0.14382	0.048447	0.20635	0.27398	0.21288	0.32454	0.21337	0.10884	0.19507	0.21121	0.14789	0.17355	-3.4313	-3.7271	-4.1792	-3.8083	-3.8583	-4.1062	-3.7854	-4.1042	-3.7833	-3.6229	-4.1417	-3.7646	-3.8	-4.1104	-3.7771	-4.1375	28.977	100.719	322.348	20.210	199.582	30.314	312.885	276.103	-3.930	-1.374	241.868	242.926	-1.658	270.015	307.531	281.383	0.00046527	0.00015716	3.8496e-05	727.37	1.0592e-06	2.4374e-07	949.41	264.38	1.2401e-06	1.3782e-06	370.34	139.11	96.879	46.077	1.4714e-06	67.211	6.9048e-06	4.7668e-06	1.1975e-06	550.86	5.7711e-08	5.2289e-08	734.92	194.75	5.9796e-08	5.1309e-08	250	93.001	61.227	29.979	5.2798e-08	42.31	60.262	53.122	8.655	-13.867	87.142	53.279	-15.014	-8.651	92.222	117.189	-10.621	-6.547	-4.826	-0.979	108.350	-4.212	-8191	255	
4136.519	1	1	0	0	0.030995	0.202	0.12076	0.23169	0.072668	0.05678	0.38354	0.18508	0.27154	0.19475	0.1021	0.07336	0.062919	0.11626	0.27557	0.12612	-3.4917	-3.6	-4.1708	-3.7875	-3.7479	-4.1958	-3.6708	-3.9417	-3.9417	-3.5208	-4.1687	-3.7521	-3.7354	-4.2375	-3.5083	-4.0896	118.554	89.098	250.711	295.127	50.655	212.255	292.059	251.699	234.979	103.304	292.075	215.802	15.883	37.408	170.098	286.807	0.00045791	0.00010341	4.2138e-05	715.13	1.0744e-06	1.1649e-06	945.66	259.46	1.1578e-06	1.456e-06	364.25	138.73	95.95	46.274	8.9751e-07	67.556	7.219e-06	5.0245e-06	1.2679e-06	546.5	6.0001e-08	5.1966e-08	729.72	191.47	6.1039e-08	5.461e-08	246.19	92.857	60.731	30.064	5.5382e-08	42.284	58.815	37.149	17.782	-13.911	77.184	72.839	-14.958	-8.722	113.878	83.941	-10.835	-6.345	-5.175	-0.741	119.632	-3.883	-8191	255	
4136.616	1	1	0	0	0.06428	0.17326	0.079316	0.22383	0.13929	0.16648	0.061251	0.19479	0.21455	0.085333	0.21651	0.20044	0.15603	0.018782	0.17143	0.038901	-3.5917	-3.525	-4.0542	-3.8333	-3.6813	-4.1583	-3.9167	-3.95	-3.8667	-3.5812	-4.0792	-3.9062	-3.7125	-4.1979	-3.7188	-3.9313	131.662	99.881	79.729	308.870	174.971	72.726	166.719	256.335	33.569	-5.477	54.006	208.689	314.463	250.235	195.546	39.818	0.00040598	6.2566e-05	2.2108e-05	710.07	1.629e-06	1.326e-06	932.88	254.95	7.6054e-07	9.1027e-07	356.38	136.86	94.44	45.224	1.361e-06	66.795	6.8977e-06	4.783e-06	1.3646e-06	540.67	5.8544e-08	5.257e-08	722.12	187.74	6.0084e-08	5.1251e-08	240.93	91.2	59.58	29.516	5.6588e-08	41.618	59.580	-0.275	25.593	-13.776	83.227	57.742	-15.141	-8.548	140.161	78.035	-10.765	-6.788	-5.445	-0.744	112.161	-4.151	-8191	255	
4136.736	1	1	0	0	0.12189	0.02292	0.09875	0.17038	0.22803	0.16057	0.13836	0.14777	0.16346	0.056325	0.12979	0.32701	0.14444	0.13596	0.10795	0.056375	-3.7375	-3.6521	-3.9458	-3.9521	-3.6208	-4.1062	-3.8646	-3.9	-4.0563	-3.4833	-4.0437	-3.9896	-3.5875	-4.1833	-3.5896	-3.7687	165.548	129.659	198.571	283.507	210.387	205.101	298.089	323.525	79.498	144.114	262.867	-8.526	-20.469	263.291	46.350	43.911	0.00040401	0.00013284	2.9323e-05	702.55	1.0163e-06	1.3949e-06	926.78	252.33	1.2733e-06	8.7554e-07	352.23	134.91	93.713	44.772	5.6574e-07	66.051	6.5292e-06	4.7524e-06	1.4199e-06	536.87	5.7411e-08	5.0464e-08	717.77	185.66	5.6821e-08	4.9019e-08	238.63	89.881	59.128	29.266	6.1959e-08	41.376	51.511	71.975	19.578	-13.841	69.257	79.354	-15.020	-8.604	97.835	45.809	-10.962	-6.972	-5.317	-0.996	63.655	-3.895	-8191	255	
4136.808	1	1	0	0	0.17614	0.043744	0.10975	0.19805	0.03402	0.12912	0.19246	0.3025	0.26392	0.087703	0.17993	0.036277	0.11607	0.02925	0.15567	0.047418	-3.6833	-3.6854	-3.9208	-4.0875	-3.45	-4.1937	-3.85	-3.7438	-4.0667	-3.5979	-4.1583	-4.1188	-3.6104	-4.0917	-3.7479	-3.8021	318.267	62.630	260.078	192.549	287.923	295.786	247.597	279.123	120.507	328.695	-14.618	324.169	10.901	41.030	123.155	311.714	0.00039437	7.0003e-05	3.5401e-05	704.17	8.5175e-07	8.47e-07	919.43	251.02	9.1859e-07	8.8446e-07	348.03	132.47	91.523	44.283	6.47e-07	65.161	6.6176e-06	4.733e-06	1.5132e-06	535.55	5.5014e-08	5.2789e-08	713.14	184.34	5.6093e-08	5.3799e-08	235.9	88.283	57.9	28.825	6.3195e-08	40.878	61.954	56.205	4.480	-13.737	102.119	107.557	-15.168	-8.684	90.272	70.588	-10.974	-6.560	-4.999	-0.633	132.416	-4.053	-8191	255	
4136.904	1	1	0	0	0.10192	0.27866	0.17664	0.13832	0.21517	0.24216	0.21988	0.30717	0.064507	0.23559	0.049749	0.10723	0.080269	0.081445	0.090965	0.26719	-3.9	-3.6188	-3.8271	-4.1458	-3.675	-4.2167	-3.9958	-3.7354	-4.1229	-3.6312	-3.9854	-4.1146	-3.5062	-4.0396	-3.8125	-3.7271	186.246	72.186	-25.083	281.215	165.700	-4.485	258.755	234.106	139.747	291.927	90.684	-24.537	135.069	297.773	156.836	203.509	0.00040519	9.6654e-05	3.5258e-05	699.71	4.7998e-07	6.0582e-07	924.17	248.76	7.7494e-07	1.254e-06	351.3	133.24	93.352	44.852	1.5998e-06	66.23	6.617e-06	5.1747e-06	1.6568e-06	532	5.5221e-08	5.5551e-08	713.92	183.61	5.6064e-08	5.888e-08	237.37	89.329	58.665	29.313	6.6089e-08	41.459	62.885	55.459	-4.810	-13.746	44.937	73.190	-15.165	-8.724	111.838	61.956	-10.830	-6.726	-5.002	-0.605	74.138	-4.087	-8191	255	
4137.025	1	1	0	0	0.17807	0.14578	0.070283	0.1185	0.2967	0.030475	0.14604	0.11417	0.070554	0.20915	0.36257	0.32455	0.33452	0.21678	0.095656	0.17272	-3.7833	-3.7438	-3.8958	-4.2167	-3.5146	-3.9313	-4.0437	-3.7771	-4.1729	-3.8458	-3.8625	-4.2125	-3.625	-4.1021	-3.9104	-3.7812	0.142	330.933	-15.510	150.525	154.268	295.421	302.626	227.227	-12.677	112.384	235.726	242.773	-3.271	294.923	176.700	252.475	0.00040469	0.00013862	3.6432e-05	698.24	1.0409e-06	1.3707e-06	915.3	244.91	7.0246e-07	1.5491e-06	340.67	131.06	90.878	44.167	6.3369e-07	64.626	6.7073e-06	5.6757e-06	1.5758e-06	530.39	5.6723e-08	6.1897e-08	708.61	180.95	5.7857e-08	6.2142e-08	231.02	87.595	57.316	28.687	6.387e-08	40.482	61.830	68.312	-4.788	-13.834	91.352	77.649	-15.000	-8.635	119.840	63.866	-10.543	-6.541	-4.952	-0.806	102.285	-3.904	-8191	255	
4137.121	1	1	0	0	0.05855	0.22062	0.12838	0.22795	0.18546	0.070709	0.32043	0.27	0.21733	0.13571	0.16548	0.27582	0.098633	0.20139	0.23613	0.17578	-3.7729	-3.7021	-3.7083	-4.1229	-3.6521	-4.0188	-4.0542	-3.6813	-4.1667	-3.9146	-3.7458	-4.0771	-3.6188	-3.7812	-3.9437	-3.4583	54.051	222.360	228.620	276.155	52.025	27.784	257.420	314.960	117.865	274.538	192.124	265.542	264.392	296.568	67.374	177.604	0.00043103	8.2585e-05	2.8965e-05	677.81	1.2755e-06	7.7527e-07	880.7	232.51	8.5433e-07	1.2367e-06	321.52	123.42	85.319	41.678	8.1033e-07	61.188	6.6867e-06	5.8447e-06	1.5067e-06	514.69	5.8186e-08	6.4678e-08	680.29	171.48	5.7925e-08	6.7013e-08	217.18	82.834	54.085	27.175	6.1225e-08	38.295	60.157	66.089	27.772	-13.725	79.113	79.178	-15.240	-8.607	97.430	106.857	-11.059	-6.584	-4.979	-0.668	114.479	-4.057	-8191	255	
4137.217	1	1	0	0	0.14322	0.14113	0.055112	0.11857	0.11543	0.27307	0.062763	0.13178	0.11805	0.15337	0.12879	0.18567	0.062874	0.25717	0.10179	0.037302	-3.8417	-3.8521	-3.5479	-4.0687	-3.675	-3.7812	-4.1771	-3.8146	-4.0917	-3.8812	-3.6146	-4.2083	-3.6604	-3.8187	-3.9167	-3.4542	-12.951	280.386	259.510	20.271	-12.945	155.718	189.901	184.377	63.074	215.718	3.889	234.473	18.955	297.806	271.754	331.780	0.00042962	0.00012417	1.586e-05	640.01	1.0492e-06	1.8771e-07	838.54	219.64	1.3286e-06	1.4313e-06	305.48	120.49	83.193	41.033	5.6295e-07	60.829	7.1267e-06	6.2355e-06	1.5808e-06	485.31	6.3986e-08	6.8011e-08	647.37	161.79	6.7179e-08	6.9232e-08	206.15	80.386	52.818	26.817	6.5898e-08	38.089	60.619	44.148	5.194	-13.935	56.594	95.025	-15.352	-8.634	144.086	85.748	-10.745	-6.718	-5.080	-0.910	95.476	-3.916	-8191	255	
4137.338	1	1	0	0	0.077862	0.2112	0.33301	0.10393	0.076374	0.14531	0.2104	0.12013	0.17556	0.19632	0.12323	0.11652	0.18316	0.20815	0.048708	0.24846	-3.7354	-3.9104	-3.6458	-4.0167	-3.6917	-3.7542	-4.0625	-3.6604	-4.0833	-4.0625	-3.6646	-4.1917	-3.8542	-3.9708	-4.0167	-3.6979	150.103	63.847	319.473	216.552	-1.655	301.611	11.810	268.370	22.706	142.144	165.013	102.002	306.905	331.415	-8.414	244.264	0.00043482	8.6822e-05	3.2605e-05	632	1.0694e-06	8.5115e-07	825.76	214.26	1.2994e-06	5.3268e-07	294.56	119.21	82.03	40.707	1.1413e-06	60.244	7.9711e-06	6.4405e-06	1.6726e-06	480.74	7.2002e-08	7.1273e-08	639.52	157.48	7.5076e-08	7.1858e-08	199.88	79.689	51.982	26.507	6.9947e-08	37.778	64.021	24.806	-19.475	-13.617	91.583	70.052	-15.003	-8.378	138.909	84.149	-10.759	-6.771	-4.861	-0.440	53.822	-4.102	-8191	255	
4137.408	1	1	0	0	0.062655	0.062493	0.045403	0.097207	0.13522	0.18791	0.099484	0.30424	0.15504	0.13821	0.079056	0.20814	0.075351	0.12626	0.13722	0.22479	-3.5771	-3.9188	-3.3542	-4.1271	-3.8333	-3.7188	-4.125	-3.8271	-3.8833	-3.9792	-3.5083	-4.0896	-3.8479	-3.6729	-4.1104	-3.6854	124.882	150.643	60.804	280.363	211.008	1.641	99.380	250.516	244.937	189.052	-18.187	-22.294	9.578	32.236	178.374	125.197	0.00030338	9.9269e-05	2.3327e-05	615.63	7.1346e-07	8.5355e-07	808.23	207.97	9.111e-07	1.1335e-06	287.94	117.66	81.189	40.093	7.3927e-07	59.582	8.9548e-06	6.7633e-06	1.801e-06	470.36	8.3481e-08	7.4606e-08	625.5	153.63	8.3044e-08	7.524e-08	194.47	78.849	51.332	26.212	7.3507e-08	37.387	76.141	55.781	1.303	-14.207	91.257	79.100	-15.060	-8.417	74.984	83.005	-10.625	-6.510	-4.867	-0.799	62.884	-3.963	-8191	255	
4137.504	1	1	0	0	0.31567	0.085395	0.29631	0.16892	0.13366	0.10827	0.21328	0.2244	0.049545	0.22862	0.31019	0.081392	0.23787	0.28281	0.015235	0.23979	-3.4167	-3.9979	-3.5354	-4.2583	-3.8312	-3.675	-4.2854	-3.7729	-3.9375	-4.0938	-3.7562	-3.9896	-3.9521	-3.675	-4.2146	-4.0229	320.758	5.567	258.724	13.681	14.984	55.700	283.790	300.156	224.556	99.739	-20.953	-21.499	185.899	275.386	128.074	-8.345	0.00038508	0.00013002	2.9677e-05	602.15	7.8071e-07	5.9744e-07	788.18	199.93	7.5294e-07	6.9182e-07	273.28	112.77	77.095	37.903	9.5476e-07	56.115	9.2887e-06	7.0483e-06	1.855e-06	459.97	8.5383e-08	7.8304e-08	609.91	147.81	8.7087e-08	7.9109e-08	185.47	75.525	48.824	24.849	7.6152e-08	35.201	65.962	93.063	-0.797	-13.839	129.616	116.740	-15.151	-8.684	93.607	81.451	-10.560	-6.638	-4.461	-0.487	84.561	-3.989	-8191	255	
4137.624	1	1	0	0	0.12051	0.13413	0.13474	0.082894	0.038156	0.14213	0.18601	0.1316	0.012461	0.23551	0.24014	0.26183	0.060242	0.15772	0.14283	0.12114	-3.5646	-4.0062	-3.6021	-3.9792	-3.925	-3.625	-4.0813	-3.8812	-3.7313	-4.2208	-3.6792	-4.125	-3.9958	-3.6562	-4.15	-3.8771	248.481	5.452	27.078	311.634	83.162	105.064	301.079	311.972	-15.441	299.510	50.076	213.896	161.962	304.901	210.370	245.753	0.00039705	9.5624e-05	3.1078e-05	566.4	1.1972e-06	1.2398e-06	731.85	184.93	4.3953e-07	6.763e-08	252.01	104.63	71.999	35.476	7.4555e-07	52.686	9.1238e-06	7.0212e-06	1.9364e-06	432.93	8.6158e-08	7.8543e-08	567	137.04	8.7148e-08	8.0337e-08	171.36	70.261	45.769	23.213	8.0819e-08	33.194	55.628	68.011	10.318	-13.588	75.401	31.436	-15.215	-8.677	125.198	158.204	-10.676	-6.645	-4.944	-0.705	123.122	-3.904	-8191	255	
4137.720	1	1	0	0	0.011637	0.10735	0.11025	0.16782	0.23955	0.017549	0.10349	0.18941	0.045565	0.17455	0.032981	0.12884	0.071653	0.25844	0.14717	0.24489	-3.3458	-4.0687	-3.55	-3.7979	-3.9375	-3.7396	-4.1	-3.7604	-3.7313	-4.1521	-3.6083	-3.825	-4.0188	-3.5542	-3.975	-4.0354	98.408	49.113	255.921	-9.202	21.929	274.022	158.228	302.278	46.197	3.423	225.710	47.734	123.233	253.787	-16.747	264.891	0.00032051	1.5631e-05	1.8856e-05	548.22	7.5304e-07	8.8047e-07	718.67	181.23	1.3778e-06	9.7165e-07	248.3	103.62	71.269	34.919	3.8476e-07	52.086	9.0303e-06	7.1429e-06	2.0347e-06	419.83	8.35e-08	7.7674e-08	556.88	134.46	8.6815e-08	7.9762e-08	169.23	69.447	45.178	22.929	8.8751e-08	32.788	54.046	46.077	21.677	-14.016	62.984	57.475	-15.446	-8.808	94.460	63.436	-10.502	-6.466	-4.897	-0.641	94.186	-3.929	-8191	255	
4137.817	1	1	0	0	0.11378	0.060333	0.12291	0.097589	0.16152	0.13739	0.28184	0.28811	0.19889	0.33058	0.11662	0.16508	0.059294	0.24892	0.054001	0.26856	-3.3708	-4.0625	-3.5333	-3.9604	-3.9625	-3.6833	-4.1833	-3.9667	-3.6625	-4.125	-3.9	-3.8208	-4.1312	-3.6833	-4.1354	-4.0479	181.473	70.389	249.291	-19.366	57.804	0.704	-22.087	300.376	165.783	2.843	241.988	248.061	306.318	-7.025	309.698	254.282	0.00033004	8.9257e-05	2.3212e-05	544.58	1.9913e-06	1.0993e-06	716.26	179.66	1.1308e-06	1.3881e-06	248.45	104.16	71.416	35.392	1.2878e-06	52.71	9.2734e-06	7.2892e-06	2.2571e-06	416.25	8.4582e-08	8.1375e-08	554.88	133.46	8.7572e-08	8.0547e-08	169.36	69.849	45.393	23.146	9.3938e-08	33.22	66.481	41.417	50.113	-13.742	87.276	67.712	-14.990	-8.534	130.559	122.445	-10.604	-6.443	-5.129	-0.585	89.353	-3.836	-8191	255	
4137.913	1	1	0	0	0.078424	0.12689	0.05909	0.15572	0.25255	0.018618	0.040668	0.14766	0.1098	0.078876	0.054875	0.14571	0.13868	0.16976	0.13653	0.31031	-3.3208	-3.9771	-3.6833	-3.8563	-4.0417	-3.6167	-4.0229	-3.9729	-3.6333	-4.0583	-3.6708	-3.7083	-4.1167	-3.5062	-3.9562	-4.0375	-25.432	117.091	214.928	41.873	-12.055	320.501	-11.891	7.239	232.788	168.264	70.130	315.957	317.038	20.381	95.533	-14.306	0.00034132	5.4971e-05	1.5326e-05	549.45	8.5002e-07	1.1245e-06	734.95	186.78	7.797e-07	4.1473e-07	261.89	109.87	74.88	37.27	7.5252e-07	56.309	8.8928e-06	7.185e-06	2.2452e-06	421.2	7.82e-08	7.707e-08	570.08	137.98	7.7801e-08	7.4778e-08	177.48	73.554	47.626	24.476	8.7826e-08	35.306	63.934	48.960	8.667	-13.610	119.720	115.718	-15.228	-8.481	93.933	73.831	-10.484	-6.559	-4.643	-0.766	117.999	-3.884	-8191	255	
4137.984	1	1	0	0	0.21558	0.11401	0.09331	0.36864	0.077344	0.25216	0.062525	0.1503	0.18931	0.26036	0.16798	0.17663	0.01415	0.026155	0.1156	0.18061	-3.1646	-4.0521	-3.8542	-3.7771	-4.0417	-3.7146	-3.9396	-4.0583	-3.7375	-3.7521	-4.0229	-3.7562	-4.1937	-3.7812	-3.8312	-4.0938	270.669	204.270	287.430	-14.321	66.922	68.837	120.006	294.687	256.007	273.551	84.677	278.365	105.502	166.263	67.294	227.796	0.00040509	0.00011758	4.3579e-05	567.41	1.4536e-06	1.094e-06	742.86	187.78	1.3092e-06	1.2232e-06	254.91	106.66	72.721	36.146	7.2248e-07	54	8.2773e-06	6.9217e-06	2.0927e-06	431.5	7.271e-08	7.6457e-08	575.48	138.54	7.2865e-08	7.6735e-08	174.18	71.417	46.082	23.656	8.3723e-08	33.858	68.245	40.502	2.557	-13.752	116.080	81.171	-15.030	-8.787	98.012	134.039	-10.778	-6.821	-5.375	-0.472	114.357	-3.988	-8191	255	
4138.105	1	1	0	0	0.18283	0.22848	0.3021	0.020159	0.27709	0.25297	0.18143	0.11393	0.10176	0.19199	0.060428	0.42715	0.15349	0.067468	0.23745	0.10192	-3.1312	-3.8812	-3.9208	-3.5896	-4.0146	-3.7687	-3.8396	-4.075	-3.5854	-3.9854	-4.1208	-3.7792	-4.1125	-4.0354	-3.9083	-4.1104	45.284	224.696	34.212	15.112	276.302	32.620	327.439	218.186	142.870	-9.121	184.345	-18.693	14.571	29.067	298.199	257.578	0.00031092	4.5687e-05	3.6427e-05	543.84	2.835e-07	6.2303e-07	712.64	180.61	1.4012e-06	9.8926e-07	248.42	103.98	70.668	34.959	4.8596e-07	52.358	7.711e-06	6.9986e-06	2.0753e-06	415.42	6.8895e-08	8.0042e-08	553.18	133.18	7.4005e-08	8.0162e-08	168.86	69.183	44.901	22.934	8.1737e-08	32.848	58.030	86.724	8.924	-13.698	108.850	72.682	-14.979	-8.822	89.972	96.999	-10.766	-6.471	-5.072	-0.700	152.631	-4.178	-8191	255	
4138.201	1	1	0	0	0.057192	0.16937	0.24571	0.18606	0.16142	0.14261	0.15453	0.12745	0.30501	0.049972	0.21624	0.13549	0.27919	0.189	0.15041	0.088195	-3.3812	-4.0687	-3.9875	-3.6625	-4.1146	-3.8688	-3.6896	-4.0833	-3.7104	-3.8708	-4.1188	-3.6083	-4.0938	-3.8646	-3.6375	-4.1312	17.220	67.169	99.732	38.706	151.490	164.840	16.878	4.680	22.676	168.065	217.414	-26.387	294.207	131.770	-2.258	280.344	0.00038437	6.4026e-05	1.2644e-05	535.19	1.6185e-06	7.3836e-07	711.64	178.71	5.7781e-07	4.9019e-07	247.93	103.53	71.058	35.295	5.5334e-07	53.014	8.2371e-06	7.6865e-06	2.0346e-06	408.43	7.507e-08	8.4654e-08	549.63	132.18	7.6089e-08	8.387e-08	168.04	69.317	44.989	23.094	8.0916e-08	33.179	65.753	65.821	332.134	-13.909	86.278	81.815	-15.161	-8.444	151.273	69.673	-10.945	-6.700	-4.904	-0.820	117.624	-4.061	-8191	255	
4138.297	1	1	0	0	0.084247	0.079335	0.16607	0.23175	0.17925	0.20244	0.4738	0.079695	0.13689	0.099285	0.16593	0.092982	0.22686	0.18816	0.21742	0.16072	-3.3	-3.9	-4.175	-3.9333	-4.05	-3.8708	-3.6854	-4.1	-3.6667	-3.7521	-4.0542	-3.5771	-4.1771	-3.9542	-3.6042	-4.3292	266.132	194.458	98.836	129.233	306.879	-8.659	280.494	206.964	292.355	326.238	249.021	289.423	298.112	294.942	125.687	318.555	0.000361	7.0859e-05	2.1579e-05	537.92	8.4517e-07	1.0391e-06	716.71	180.34	1.3399e-06	6.7412e-07	252.01	104.77	71.429	35.781	6.0615e-07	53.284	8.4884e-06	7.7001e-06	1.9326e-06	410.32	8.0299e-08	8.3258e-08	553.13	133.3	8.2708e-08	8.3305e-08	170.23	70.243	45.458	23.381	7.8678e-08	33.543	60.693	73.379	46.718	-13.521	78.880	116.492	-15.112	-8.744	95.142	129.292	-10.682	-6.548	-4.660	-0.525	146.369	-3.867	-8191	255	
4138.418	1	1	0	0	0.052444	0.031228	0.19724	0.020825	0.21393	0.11113	0.11927	0.123	0.078914	0.099285	0.23765	0.086439	0.20024	0.13071	0.057928	0.099794	-3.4875	-3.7896	-4.0604	-3.5312	-4.0167	-3.8729	-3.7104	-4.0625	-3.6417	-3.7938	-4.1375	-3.6813	-3.9792	-4.0354	-3.6875	-4.1438	331.374	-1.957	126.714	25.373	181.149	17.155	149.676	210.833	158.546	281.069	151.097	183.600	295.638	203.630	327.260	124.939	0.00040548	5.5064e-05	3.2279e-05	538.51	1.4023e-06	8.7249e-07	717.66	180.54	8.394e-07	1.2457e-06	250.12	106.06	72.284	35.992	9.2562e-07	53.402	9.0195e-06	7.4176e-06	1.9249e-06	412.06	8.4207e-08	7.8314e-08	556.45	133.87	8.6138e-08	8.1703e-08	170.68	70.787	45.809	23.497	7.656e-08	33.655	65.092	115.900	-17.831	-13.741	102.194	90.120	-15.109	-8.448	120.920	63.699	-10.598	-6.517	-4.948	-0.550	121.697	-4.009	-8191	255	
4138.512	1	1	0	0	0.11863	0.13978	0.07479	0.099995	0.095839	0.19587	0.30493	0.19325	0.1656	0.075917	0.22585	0.31472	0.055311	0.28762	0.21209	0.043858	-3.3792	-3.6083	-4.1042	-3.7792	-3.9	-4.0938	-3.6229	-4.0375	-3.725	-3.6813	-4.15	-3.6604	-3.9188	-4.1271	-3.5938	-3.9646	150.528	51.916	203.216	283.935	39.072	194.353	173.339	-16.894	-10.197	67.572	259.557	243.785	313.391	297.638	223.302	317.019	0.00033279	3.5396e-05	3.1748e-05	533.26	8.4914e-07	7.8569e-07	705.74	177.93	5.6278e-07	1.4114e-06	243.11	102.99	70.055	34.458	5.1534e-07	51.659	9.1981e-06	7.2993e-06	1.8323e-06	408.09	8.5115e-08	7.8656e-08	545.85	130.99	8.6158e-08	7.8505e-08	165.36	68.735	44.342	22.544	7.3093e-08	32.393	72.331	-0.199	28.978	-13.872	116.288	49.930	-15.025	-8.441	53.524	57.662	-10.391	-6.532	-4.696	-0.517	93.861	-4.097	-8191	255	
4138.609	1	1	0	0	0.11788	0.1348	0.058378	0.032004	0.19944	0.11013	0.097318	0.17193	0.054618	0.077633	0.20868	0.037309	0.072296	0.10611	0.10141	0.14947	-3.3583	-3.5958	-4.0437	-3.7542	-3.8375	-4.0938	-3.6792	-4.0958	-3.95	-3.6333	-4.1771	-3.7396	-3.8354	-4.1813	-3.475	-4.025	210.653	68.830	308.729	61.816	201.178	67.631	296.796	318.401	92.430	332.946	324.066	205.782	88.146	30.212	273.163	46.355	0.00034162	7.1585e-05	2.505e-05	517.27	1.1674e-06	6.1086e-07	687.01	172.92	5.9476e-07	7.5437e-07	241.72	101.93	69.786	34.794	9.1541e-07	52.251	8.9774e-06	7.1673e-06	1.8437e-06	395.85	8.5037e-08	7.4228e-08	532.52	128.04	8.3889e-08	7.4788e-08	163.94	68.453	44.31	22.706	7.3594e-08	32.806	64.467	0.513	32.341	-13.948	127.290	10.525	-14.934	-8.755	81.591	105.580	-10.741	-6.657	-5.148	-0.701	92.793	-4.056	-8191	255	
4138.705	1	1	0	0	0.065419	0.18296	0.29086	0.22566	0.07421	0.29683	0.048396	0.20742	0.062129	0.13443	0.13196	0.10147	0.12003	0.20886	0.10037	0.14292	-3.6833	-3.6188	-4.0375	-3.7146	-3.7729	-4.1104	-3.7333	-3.9583	-3.8708	-3.6979	-4.1833	-3.9688	-3.6917	-4.1562	-3.6875	-4.0062	138.154	291.494	191.968	270.568	294.798	4.714	264.949	239.693	92.203	193.060	260.118	222.068	45.020	-12.406	198.240	232.883	0.00035316	0.00010911	2.2956e-05	525.33	9.5934e-07	9.5983e-07	700.84	176.75	1.1135e-06	7.9573e-07	248.17	104.71	71.119	35.757	4.6956e-07	53.954	8.6997e-06	6.8292e-06	1.7785e-06	400.99	8.0051e-08	7.2355e-08	542.82	130.78	8.007e-08	7.2601e-08	168.08	70.11	45.084	23.328	7.3989e-08	33.835	64.160	31.855	-5.167	-14.018	74.578	88.323	-14.902	-8.546	79.507	125.930	-10.427	-6.671	-5.146	-0.867	39.132	-3.830	-8191	255	
4138.801	1	1	0	0	0.16773	0.1206	0.13041	0.21807	0.15297	0.11268	0.10669	0.050862	0.10337	0.30595	0.097548	0.28143	0.19599	0.1925	0.08348	0.11818	-3.6583	-3.7021	-4.0167	-3.8333	-3.6146	-4.2937	-3.7604	-3.9271	-3.9688	-3.6188	-4.1458	-3.9104	-3.7917	-4.1375	-3.6083	-3.9562	314.879	128.743	186.807	-2.546	171.998	-13.245	323.712	136.969	65.908	31.329	323.314	277.568	301.915	322.589	225.458	172.534	0.000373	9.5143e-05	2.6863e-05	537.24	1.3357e-06	1.3313e-06	715.43	180.85	3.3285e-07	5.9183e-07	252.1	107.29	73.152	36.729	5.2569e-07	55.746	8.3091e-06	6.3613e-06	1.875e-06	408.69	7.5058e-08	7.0013e-08	553.52	133.34	7.6069e-08	6.8757e-08	171.59	71.92	46.327	23.982	7.7216e-08	34.896	68.557	47.189	24.639	-13.470	103.183	92.236	-14.960	-8.286	118.736	65.716	-10.631	-6.476	-4.931	-0.649	50.478	-3.903	-8191	255	
4138.897	1	1	0	0	0.25424	0.1133	0.098344	0.25999	0.14631	0.20004	0.14314	0.13222	0.059195	0.037068	0.16181	0.22625	0.056237	0.094822	0.19204	0.032214	-3.8167	-3.6729	-3.9833	-4.0437	-3.5938	-4.2646	-3.7229	-3.9104	-4.1417	-3.5979	-4.0542	-4.0687	-3.7417	-4.1896	-3.6625	-3.6875	4.022	311.203	147.531	17.571	221.084	133.928	199.537	291.302	168.575	93.332	213.253	288.634	289.331	261.278	113.448	179.981	0.0004324	5.3742e-05	4.1278e-05	547.74	1.0507e-06	1.2143e-06	738.05	185.12	8.7101e-07	1.2335e-06	259.15	109.81	74.005	37.469	1.2542e-06	56.006	7.9461e-06	6.1071e-06	1.9534e-06	417.2	7.5775e-08	6.5689e-08	569.93	137.04	7.247e-08	6.8131e-08	176	73.589	47.003	24.429	7.9422e-08	35.226	63.506	11.462	23.140	-13.841	17.810	95.422	-15.052	-8.622	129.420	88.680	-10.633	-6.830	-4.839	-0.669	96.889	-3.778	-8191	255	
4139.018	1	1	0	0	0.14468	0.11209	0.069583	0.13836	0.15647	0.02329	0.15431	0.22415	0.11858	0.19631	0.11037	0.11176	0.20079	0.10972	0.072149	0.028433	-3.8396	-3.5917	-3.8583	-4.0833	-3.6229	-4.05	-3.9813	-3.8146	-4.1021	-3.4958	-4.0604	-4.075	-3.5208	-4.0979	-3.8125	-3.7958	148.024	278.294	240.192	265.085	126.302	322.743	-6.515	117.969	59.092	153.972	303.237	-2.054	29.085	320.580	-1.684	192.090	0.0003326	9.9422e-05	1.9993e-05	551.13	8.3834e-07	1.3171e-06	737.72	185.72	9.6543e-07	4.3616e-07	257.89	108.87	74.382	37.117	1.4524e-06	55.683	7.8706e-06	6.2279e-06	1.9612e-06	419.54	7.1964e-08	6.8793e-08	570.5	137.06	6.9169e-08	7.0162e-08	175.25	73.09	46.835	24.255	8.0275e-08	35.003	59.861	62.559	9.069	-13.903	64.056	86.351	-15.286	-8.482	128.282	117.203	-10.485	-6.789	-5.083	-1.014	128.664	-4.220	-8191	255	
#DATA ENDS
