BOXY.EXE: ISS Imagent and Oximeter Data Acquisition Program Version 0.80
Ascii Record File

#ACQ INFORMATION
2  Detector Channels 
16  External MUX Channels 
1  Auxiliary Channels 
5000  Waveform (CCF) Frequency (Hz)
1  Waveforms Skipped 
30  Waveforms Averaged 
1  Cycles Averaged 
16  Acquisitions per Waveform 
10.0806  Updata Rate (Hz) 

#FILE INFORMATION
TRUE -- External MUX Channel results are PARSED.
FALSE -- AC DC and Phase are NOT grouped.
TRUE -- Companion Program Settings File CREATED.
FALSE -- AC data not excluded
FALSE -- DC data not excluded
FALSE -- Phase data not excluded
FALSE -- Auxillary Chn. data not excluded
Tab delimiters

#CALIBRATION STATE
TRUE -- Waveform Calibration Values APPLIED.


#AUX CALIBRATION VALUES
Val Type	aux-1	

Term	1.0000e+00	
Factor	0.0000e+00	


#WF CALIBRATION VALUES
A = Detector Channel
Val Type	A-AC1	A-AC2	A-AC3	A-AC4	A-AC5	A-AC6	A-AC7	A-AC8	A-AC9	A-AC10	A-AC11	A-AC12	A-AC13	A-AC14	A-AC15	A-AC16	A-DC1	A-DC2	A-DC3	A-DC4	A-DC5	A-DC6	A-DC7	A-DC8	A-DC9	A-DC10	A-DC11	A-DC12	A-DC13	A-DC14	A-DC15	A-DC16	A-Ph1	A-Ph2	A-Ph3	A-Ph4	A-Ph5	A-Ph6	A-Ph7	A-Ph8	A-Ph9	A-Ph10	A-Ph11	A-Ph12	A-Ph13	A-Ph14	A-Ph15	A-Ph16	

Term	0.00000e+00	0.00000e+00	0.00000e+00	0.00000e+00	0.00000e+00	0.00000e+00	0.00000e+00	0.00000e+00	0.00000e+00	0.00000e+00	0.00000e+00	0.00000e+00	0.00000e+00	0.00000e+00	0.00000e+00	0.00000e+00	0.00000e+00	0.00000e+00	0.00000e+00	0.00000e+00	0.00000e+00	0.00000e+00	0.00000e+00	0.00000e+00	0.00000e+00	0.00000e+00	0.00000e+00	0.00000e+00	0.00000e+00	0.00000e+00	0.00000e+00	0.00000e+00	0.00000e+00	0.00000e+00	0.00000e+00	0.00000e+00	0.00000e+00	0.00000e+00	0.00000e+00	0.00000e+00	0.00000e+00	0.00000e+00	0.00000e+00	0.00000e+00	0.00000e+00	0.00000e+00	0.00000e+00	0.00000e+00	
Factor	1.00000e+00	1.00000e+00	1.00000e+00	1.00000e+00	1.00000e+00	1.00000e+00	1.00000e+00	1.00000e+00	1.00000e+00	1.00000e+00	1.00000e+00	1.00000e+00	1.00000e+00	1.00000e+00	1.00000e+00	1.00000e+00	1.00000e+00	1.00000e+00	1.00000e+00	1.00000e+00	1.00000e+00	1.00000e+00	1.00000e+00	1.00000e+00	1.00000e+00	1.00000e+00	1.00000e+00	1.00000e+00	1.00000e+00	1.00000e+00	1.00000e+00	1.00000e+00	X	X	X	X	X	X	X	X	X	X	X	X	X	X	X	X	

B = Detector Channel
Val Type	B-AC1	B-AC2	B-AC3	B-AC4	B-AC5	B-AC6	B-AC7	B-AC8	B-AC9	B-AC10	B-AC11	B-AC12	B-AC13	B-AC14	B-AC15	B-AC16	B-DC1	B-DC2	B-DC3	B-DC4	B-DC5	B-DC6	B-DC7	B-DC8	B-DC9	B-DC10	B-DC11	B-DC12	B-DC13	B-DC14	B-DC15	B-DC16	B-Ph1	B-Ph2	B-Ph3	B-Ph4	B-Ph5	B-Ph6	B-Ph7	B-Ph8	B-Ph9	B-Ph10	B-Ph11	B-Ph12	B-Ph13	B-Ph14	B-Ph15	B-Ph16	

Term	0.00000e+00	0.00000e+00	0.00000e+00	0.00000e+00	0.00000e+00	0.00000e+00	0.00000e+00	0.00000e+00	0.00000e+00	0.00000e+00	0.00000e+00	0.00000e+00	0.00000e+00	0.00000e+00	0.00000e+00	0.00000e+00	0.00000e+00	0.00000e+00	0.00000e+00	0.00000e+00	0.00000e+00	0.00000e+00	0.00000e+00	0.00000e+00	0.00000e+00	0.00000e+00	0.00000e+00	0.00000e+00	0.00000e+00	0.00000e+00	0.00000e+00	0.00000e+00	-2.12444e+02	-1.41062e+02	-1.70892e+02	-1.83732e+02	-1.12109e+02	-1.05118e+02	-1.55012e+02	-1.62015e+02	-9.09407e+01	-9.85453e+01	-1.70533e+02	-1.70350e+02	-1.84933e+02	-1.77024e+02	-9.26801e+01	-1.49740e+02	
Factor	3.86930e-05	3.87587e-05	1.11420e-05	1.84525e-01	4.76322e-07	4.00243e-07	1.77227e-01	5.92448e-02	4.03067e-07	4.33660e-07	9.47737e-02	3.35258e-02	3.39684e-02	1.07113e-02	3.85728e-07	1.51601e-02	1.41076e-07	1.41361e-07	3.93248e-08	7.31989e-02	1.55024e-09	1.55026e-09	6.73368e-02	2.26348e-02	1.55356e-09	1.55040e-09	3.24457e-02	1.12648e-02	1.11019e-02	3.63347e-03	1.55221e-09	4.80811e-03	X	X	X	X	X	X	X	X	X	X	X	X	X	X	X	X	



#DISTANCE SETTINGS
A = Detector Channel
A-1	A-2	A-3	A-4	A-5	A-6	A-7	A-8	A-9	A-10	A-11	A-12	A-13	A-14	A-15	A-16	

2.5000e+00	3.0000e+00	2.5000e+00	3.0000e+00	2.0000e+00	3.0000e+00	1.5000e+00	3.0000e+00	3.0000e+00	3.0000e+00	3.0000e+00	3.0000e+00	3.0000e+00	3.0000e+00	1.5000e+00	3.0000e+00	

B = Detector Channel
B-1	B-2	B-3	B-4	B-5	B-6	B-7	B-8	B-9	B-10	B-11	B-12	B-13	B-14	B-15	B-16	

1.0000e+01	1.0000e+01	1.0000e+01	1.4400e+00	1.0000e+01	1.0000e+01	1.5100e+00	1.9400e+00	1.0000e+01	1.0000e+01	1.9900e+00	2.4900e+00	2.4100e+00	2.9000e+00	1.0000e+01	2.9800e+00	




#DATA BEGINS
time	group	step	mark	flag	A-AC1	A-AC2	A-AC3	A-AC4	A-AC5	A-AC6	A-AC7	A-AC8	A-AC9	A-AC10	A-AC11	A-AC12	A-AC13	A-AC14	A-AC15	A-AC16	A-DC1	A-DC2	A-DC3	A-DC4	A-DC5	A-DC6	A-DC7	A-DC8	A-DC9	A-DC10	A-DC11	A-DC12	A-DC13	A-DC14	A-DC15	A-DC16	A-Ph1	A-Ph2	A-Ph3	A-Ph4	A-Ph5	A-Ph6	A-Ph7	A-Ph8	A-Ph9	A-Ph10	A-Ph11	A-Ph12	A-Ph13	A-Ph14	A-Ph15	A-Ph16	B-AC1	B-AC2	B-AC3	B-AC4	B-AC5	B-AC6	B-AC7	B-AC8	B-AC9	B-AC10	B-AC11	B-AC12	B-AC13	B-AC14	B-AC15	B-AC16	B-DC1	B-DC2	B-DC3	B-DC4	B-DC5	B-DC6	B-DC7	B-DC8	B-DC9	B-DC10	B-DC11	B-DC12	B-DC13	B-DC14	B-DC15	B-DC16	B-Ph1	B-Ph2	B-Ph3	B-Ph4	B-Ph5	B-Ph6	B-Ph7	B-Ph8	B-Ph9	B-Ph10	B-Ph11	B-Ph12	B-Ph13	B-Ph14	B-Ph15	B-Ph16	aux-1	digaux	

2089.269	1	1	0	256	0.10413	0.10256	0.20093	0.29736	0.13256	0.22554	0.21372	0.19078	0.10586	0.081222	0.17818	0.090391	0.088474	0.16082	0.18393	0.15627	-3.6646	-4.2875	-3.7833	-4.3792	-4.1833	-3.6708	-4.4667	-4.025	-3.9583	-4.1375	-3.8354	-4.2708	-4.2208	-3.7979	-4.2458	-4.1021	93.490	-33.909	174.072	272.179	155.220	278.028	262.150	240.549	-39.349	-26.758	-9.837	252.381	150.456	-3.242	32.458	222.828	0.00032036	0.00015416	2.7718e-05	1303.2	2.4856e-06	3.6057e-06	1304.3	341.03	4.6215e-06	3.1639e-06	394.59	131.86	113.79	39.434	2.1978e-06	48.944	0.00025738	0.00024676	6.2924e-05	1170	2.7681e-06	2.6563e-06	1171.3	304.59	2.7665e-06	2.6285e-06	331.78	113.11	95.25	33.09	2.5008e-06	41.033	77.686	43.518	-45.655	-62.446	53.470	-6.748	-62.727	-57.762	81.832	-49.302	-58.098	-54.226	-53.434	-48.701	195.237	-50.041	-8191	255	
2089.366	1	1	0	0	0.15744	0.14598	0.017904	0.21287	0.1086	0.063684	0.19579	0.13466	0.065373	0.11267	0.12636	0.18715	0.058945	0.22586	0.19491	0.092053	-3.6521	-4.2167	-3.9021	-4.3479	-4.0563	-3.7687	-4.5188	-4.0312	-3.7583	-4.3333	-3.8875	-4.2438	-4.2	-3.6813	-4.3021	-4.0563	55.442	101.527	142.676	143.509	-20.224	-6.458	-43.955	271.278	21.525	219.949	167.138	281.002	156.463	-59.776	9.163	-11.297	0.0001983	0.00038184	1.7429e-05	1309.9	7.8966e-07	3.1754e-06	1310.2	342.87	4.3619e-06	1.7194e-06	394.12	132.68	114.18	39.418	1.206e-06	49.327	0.00024969	0.00023608	6.3424e-05	1177.9	2.7031e-06	2.5299e-06	1177.2	305.88	2.6515e-06	2.4714e-06	333.16	113.02	94.118	32.592	2.473e-06	40.644	144.943	-14.723	128.023	-62.561	-13.756	57.576	-62.734	-57.760	77.789	-10.453	-58.240	-53.926	-53.454	-48.833	45.792	-49.693	-8191	255	
2089.437	1	1	0	0	0.15755	0.13233	0.16992	0.2127	0.12964	0.030543	0.14817	0.084134	0.26788	0.091188	0.16813	0.069658	0.22462	0.16495	0.29434	0.18775	-3.5792	-4.1104	-3.7604	-4.1167	-4.2188	-3.8812	-4.3375	-4.1958	-3.7812	-4.2875	-3.9292	-4.0938	-4.3042	-3.8271	-4.0792	-4.2	200.520	-40.459	-26.896	212.762	273.964	-30.892	175.019	180.433	242.978	255.908	211.584	125.951	-22.467	265.668	275.853	-8.417	0.00032629	0.0003062	0.00013867	1313.6	2.04e-06	2.9989e-06	1314	343.2	6.8711e-07	1.3828e-06	395.89	132.69	114.4	39.456	2.8931e-06	49.17	0.00023116	0.0002141	6.2498e-05	1170.6	2.5099e-06	2.3077e-06	1177.1	303.3	2.4784e-06	2.3089e-06	333.89	112.31	93.493	32.409	2.5381e-06	40.42	154.105	-22.255	111.255	-62.562	98.015	23.266	-62.654	-57.814	29.505	275.982	-58.319	-53.979	-53.569	-48.794	189.265	-50.039	-8191	255	
2089.533	1	1	0	0	0.15215	0.18178	0.045315	0.26593	0.30127	0.1151	0.10147	0.18708	0.096665	0.017274	0.13817	0.065099	0.20966	0.090733	0.12096	0.17495	-3.3917	-4.3208	-3.9062	-3.9104	-4.2354	-3.8792	-4.4062	-4.1958	-3.7687	-4.3375	-3.9437	-3.8292	-4.5104	-3.8937	-3.9708	-4.2417	-30.391	17.705	-45.727	253.338	275.819	242.113	238.074	188.424	216.735	-73.154	231.380	-62.095	-69.574	249.957	227.064	-44.009	0.00027601	0.00015173	8.9036e-05	1312.6	1.5036e-06	2.0566e-06	1313.2	344.2	2.4792e-06	9.2298e-07	396.2	132.96	115.23	39.656	7.5124e-08	49.607	0.00022296	0.00021052	6.4865e-05	1170.3	2.4651e-06	2.3425e-06	1186.5	304.08	2.4756e-06	2.42e-06	339.01	112.94	94.083	32.904	2.7302e-06	40.783	107.431	197.433	107.211	-62.606	-1.235	-40.209	-62.860	-57.700	82.246	126.400	-58.246	-53.845	-53.290	-48.761	-46.602	-49.576	-8191	255	
2089.654	1	1	0	0	0.19834	0.17452	0.044149	0.11567	0.14898	0.23003	0.039028	0.20117	0.0063331	0.31877	0.19494	0.16604	0.18895	0.25731	0.34399	0.19601	-3.4313	-4.2	-4.0042	-4.0167	-4.3292	-4.0375	-4.3438	-4.3063	-3.6688	-4.2708	-4.1458	-3.9771	-4.4292	-3.9771	-3.9375	-4.3625	18.439	-65.352	119.801	247.533	133.906	140.548	233.283	276.227	199.305	7.769	199.406	87.261	223.256	208.033	68.840	134.326	0.00039112	0.00027977	6.2224e-05	1319.3	4.3948e-06	1.9852e-06	1319.9	344.96	1.3707e-06	2.0181e-06	398.07	133.95	115.16	39.843	1.0558e-06	49.481	0.00022535	0.00022851	6.9095e-05	1177.1	2.4587e-06	2.5044e-06	1196	305.33	2.434e-06	2.5806e-06	340.9	113.3	94.246	33.513	2.8095e-06	41.144	81.502	129.221	15.314	-62.401	7.763	189.516	-62.597	-57.765	0.531	171.166	-58.441	-53.953	-53.610	-48.762	-67.489	-49.698	-8191	255	
2089.750	1	1	0	0	0.067962	0.33946	0.079452	0.11981	0.052489	0.098878	0.13334	0.098288	0.19894	0.04153	0.05119	0.10493	0.33765	0.10226	0.28593	0.067465	-3.4542	-4.1833	-4.05	-3.9771	-4.3187	-3.9771	-4.3313	-4.3	-3.8187	-4.3146	-4.1687	-3.8979	-4.4396	-4.0625	-3.9813	-4.2833	41.526	254.084	249.727	179.845	217.495	116.801	-60.568	143.671	114.419	0.151	93.184	176.993	249.208	54.244	199.442	-61.574	0.00012802	0.00050885	0.00011082	1328.4	1.3899e-06	1.2144e-06	1329.9	347.99	1.935e-06	3.4013e-06	402.47	134.53	116.49	40.308	4.284e-06	50.222	0.00023016	0.00025606	7.3708e-05	1193.4	2.635e-06	2.9192e-06	1215.7	311.6	2.7093e-06	3.0619e-06	351.48	116.22	97.542	34.959	3.1226e-06	42.316	127.194	106.857	23.193	-62.542	282.044	163.809	-62.735	-57.950	68.567	171.735	-58.601	-54.158	-53.604	-48.878	19.851	-49.399	-8191	255	
2089.846	1	1	0	0	0.19604	0.21585	0.12971	0.08518	0.04284	0.10974	0.34915	0.22252	0.18171	0.1108	0.049614	0.16703	0.24819	0.1105	0.097554	0.24731	-3.7104	-4.075	-4.0188	-4.0667	-4.2042	-3.9771	-4.2083	-4.4042	-3.9	-4.1062	-4.475	-3.7188	-4.2312	-3.9604	-3.7646	-4.3104	249.536	37.278	109.060	245.853	-51.450	201.137	241.863	156.272	82.446	240.244	-3.287	-75.218	-44.934	-64.993	203.045	-63.832	0.00057606	0.00031476	0.0001139	1335.2	2.4926e-06	2.6752e-06	1339	351.76	4.4367e-06	1.2647e-06	404.68	135.67	117.22	40.499	3.4499e-06	50.292	0.0002599	0.0002919	7.883e-05	1203.8	2.866e-06	3.1374e-06	1222.5	313.64	2.7985e-06	3.0882e-06	349.64	115.19	97.855	34.723	2.8881e-06	41.411	79.010	160.946	-53.934	-62.472	264.963	153.205	-62.680	-58.052	216.233	-56.856	-58.379	-54.103	-53.505	-48.940	-11.474	-50.110	-8191	255	
2089.942	1	1	0	0	0.24024	0.24902	0.18211	0.22298	0.20925	0.065451	0.22607	0.039759	0.036892	0.099082	0.15301	0.20489	0.029371	0.18942	0.22558	0.11778	-3.5146	-4.1333	-4.2063	-3.8542	-4.2479	-4.0729	-3.9958	-4.6125	-3.8063	-3.9875	-4.3667	-3.7583	-4.2688	-4.0354	-3.7167	-4.4479	-69.500	-59.907	256.984	215.788	-54.462	7.845	-63.400	79.578	-70.611	-52.157	124.846	190.201	46.424	130.223	22.499	-52.754	0.00054387	8.0218e-05	5.8873e-05	1335.3	5.3711e-06	4.3174e-07	1335.8	350.48	2.8846e-06	2.7182e-06	406.29	135.51	116.9	40.314	4.405e-06	49.792	0.00025302	0.00027166	7.1899e-05	1189	2.7977e-06	2.9353e-06	1210.8	309.44	2.7995e-06	2.9288e-06	346.88	113.69	97.836	34.352	2.7475e-06	40.93	102.846	111.263	0.316	-62.605	184.049	-12.322	-62.885	-57.839	126.891	108.550	-58.648	-53.975	-53.585	-48.883	57.804	-49.847	-8191	255	
2090.061	1	1	0	0	0.15442	0.045735	0.15036	0.20776	0.25714	0.13039	0.45379	0.12421	0.16624	0.18474	0.1363	0.19062	0.17456	0.27075	0.13044	0.047761	-3.5458	-3.8958	-4.1771	-3.8896	-4.0042	-4.1542	-3.7958	-4.4271	-3.9417	-4.0646	-4.1625	-3.6667	-4.0958	-4.3958	-3.8979	-4.4563	42.864	-3.830	-59.652	228.914	9.585	142.201	210.962	256.753	78.457	-67.231	166.066	114.391	237.022	-66.257	125.593	-57.478	0.00033329	0.00028937	3.8213e-05	1331.3	8.3452e-07	3.6093e-06	1330.8	349.86	7.8177e-07	3.9326e-06	403.93	133.97	116.58	40.338	2.8071e-06	49.88	0.00025721	0.00025994	6.8694e-05	1181.8	2.8452e-06	2.8126e-06	1201.7	308.12	2.844e-06	2.8139e-06	343.19	113.55	98.137	34.193	2.6388e-06	41.218	90.741	-4.993	37.388	-62.542	128.645	4.282	-62.634	-57.838	164.443	-16.701	-58.332	-54.246	-53.513	-48.973	-18.153	-49.918	-8191	255	
2090.133	1	1	0	0	0.14417	0.19848	0.044454	0.23798	0.16642	0.053994	0.057531	0.14843	0.037315	0.10158	0.28943	0.11166	0.15292	0.14401	0.094386	0.13485	-3.6125	-3.7458	-4.3229	-4	-4.0354	-4.2646	-4	-4.3833	-3.9542	-4.1333	-4.4479	-3.8667	-4.0312	-4.4125	-3.9813	-4.2667	165.422	-3.603	-16.580	255.082	224.387	8.002	270.286	203.328	205.473	250.440	228.369	161.438	-34.106	198.823	-15.930	-9.059	0.00030699	9.407e-05	3.1742e-05	1327.2	4.5727e-06	9.9523e-07	1334.5	348.98	1.467e-06	3.0751e-06	402.22	134.34	116.84	40.325	4.017e-06	49.902	0.00026542	0.00025601	6.7231e-05	1186.4	2.911e-06	2.8102e-06	1197.4	310.05	2.8852e-06	2.7724e-06	341.05	114.7	98.289	34.053	2.5454e-06	41.586	82.293	154.399	119.102	-62.743	26.993	165.169	-62.618	-57.742	138.818	79.675	-58.269	-53.982	-53.610	-48.804	74.368	-49.814	-8191	255	
2090.231	1	1	0	0	0.064527	0.15588	0.067662	0.35185	0.22925	0.11675	0.13161	0.15166	0.20048	0.25832	0.18676	0.040014	0.1146	0.10725	0.27638	0.099562	-3.7271	-3.9667	-4.1	-4.0062	-4.0417	-4.2729	-3.8854	-4.4146	-4.1604	-3.7646	-4.3604	-3.9875	-4.1292	-4.5188	-3.7646	-4.1229	206.458	-11.121	27.922	241.362	43.921	-61.336	221.185	203.438	257.712	133.114	-52.497	195.191	256.659	-36.887	9.721	193.266	0.00026075	0.00046895	8.3052e-05	1324.8	5.0589e-06	1.854e-06	1329	350.59	3.6445e-06	2.8542e-06	403.27	134.29	117.31	40.376	1.6692e-06	49.912	0.0002631	0.00025108	6.5005e-05	1192.3	2.883e-06	2.7569e-06	1195.2	312.43	2.8548e-06	2.7203e-06	340.58	115.56	97.892	33.886	2.5264e-06	41.888	125.828	31.033	-6.530	-62.524	26.691	33.119	-62.665	-57.733	21.860	23.908	-58.544	-54.108	-53.573	-48.928	149.143	-49.921	-8191	255	
2090.350	1	1	0	0	0.30009	0.14336	0.15669	0.075547	0.18084	0.078595	0.25845	0.096721	0.074972	0.11259	0.13409	0.13395	0.34988	0.26048	0.15629	0.095474	-3.7812	-3.7042	-4.1917	-4.075	-3.9771	-4.3542	-4.0167	-4.2271	-4.0521	-3.7062	-4.3625	-4.1542	-3.9	-4.3938	-3.875	-3.9375	92.266	139.786	262.117	186.776	181.781	160.231	217.589	-59.387	275.918	66.614	51.227	-45.781	245.234	267.699	18.664	275.288	0.00027606	0.0003071	8.9791e-05	1327.3	2.8273e-06	2.3384e-06	1329.2	350.14	1.4059e-06	2.6206e-06	403.1	134.81	117.22	40.62	4.8698e-06	49.932	0.00025563	0.00024209	6.5231e-05	1197.6	2.7764e-06	2.6357e-06	1196.3	313.05	2.7963e-06	2.6054e-06	342.27	116	97.439	33.743	2.6576e-06	42.033	102.298	85.813	149.566	-62.438	19.412	267.233	-62.800	-57.532	-67.534	-27.321	-58.231	-54.145	-53.488	-48.882	147.507	-49.893	-8191	255	
2090.446	1	1	0	0	0.18984	0.20783	0.097355	0.13741	0.099832	0.040705	0.15014	0.12329	0.17231	0.35232	0.32556	0.20085	0.18471	0.15358	0.034318	0.090042	-3.8479	-3.8271	-4.3667	-4.1458	-4.0167	-4.2937	-3.8708	-4.0042	-4.325	-3.8271	-4.1188	-4.2104	-3.9062	-4.3562	-3.8479	-4.0958	-66.100	103.494	-21.383	262.324	174.325	-47.661	233.175	-12.049	148.867	211.015	-39.717	253.827	-72.534	-46.843	-5.823	236.795	0.00026575	0.00017789	0.00013984	1331.5	3.776e-06	2.5194e-06	1329.5	350.99	1.8307e-06	2.8203e-06	404.52	135.47	117.29	40.419	3.4663e-06	50.048	0.0002553	0.0002354	6.9325e-05	1199.8	2.7881e-06	2.6089e-06	1206.2	313.81	2.8018e-06	2.5765e-06	346.77	116.45	97.491	33.701	2.8478e-06	42.133	87.784	-31.716	95.655	-62.519	-4.299	-51.641	-62.613	-57.664	-57.017	-20.917	-58.473	-54.186	-53.448	-48.923	189.203	-49.780	-8191	255	
2090.542	1	1	0	0	0.1965	0.1733	0.036945	0.22574	0.16366	0.14256	0.033099	0.04641	0.12734	0.17036	0.35486	0.20055	0.078797	0.1973	0.17395	0.25528	-3.9104	-3.7667	-4.3479	-4.2854	-4.0333	-4.325	-4.2208	-4.1333	-4.3625	-3.8563	-4.2542	-4.2354	-3.8146	-4.4187	-3.9854	-4.0667	77.344	-25.056	10.004	198.422	40.140	265.409	231.994	80.667	258.077	28.271	233.969	211.829	108.969	202.299	277.762	179.778	0.00033222	0.00014343	6.7037e-05	1331.9	3.3303e-06	1.7394e-06	1331.2	351.38	4.9091e-06	1.864e-06	402.99	135.95	117.18	40.292	9.5824e-07	49.908	0.00025465	0.0002347	7.3453e-05	1199.8	2.7431e-06	2.6051e-06	1211.1	313.74	2.7339e-06	2.6022e-06	349.58	116.12	96.814	33.801	2.9262e-06	41.823	91.197	-13.663	148.825	-62.563	30.158	106.340	-62.574	-57.641	3.736	134.259	-58.337	-54.281	-53.744	-48.922	80.743	-49.801	-8191	255	
2090.638	1	1	0	0	0.23011	0.22892	0.25578	0.16764	0.1204	0.031032	0.24296	0.24775	0.11302	0.043911	0.12313	0.19921	0.18922	0.081112	0.16894	0.22163	-3.9354	-3.6604	-4.05	-4.3833	-3.8229	-4.2104	-4.1125	-4.0312	-4.3792	-3.9083	-4.1771	-4.4375	-3.85	-4.4021	-3.9771	-3.9771	65.612	-21.045	54.747	-75.785	265.503	-5.830	217.854	255.734	59.413	-43.817	-27.867	-71.843	-29.296	235.998	246.866	-64.710	0.00037849	0.00012609	4.7969e-05	1332.3	2.8555e-06	4.8816e-06	1331.6	350.61	2.205e-06	5.4275e-06	406.21	135.73	116.97	40.304	2.562e-06	50.18	0.00024442	0.0002402	7.4262e-05	1195.6	2.6115e-06	2.6761e-06	1212.4	312.28	2.6083e-06	2.6791e-06	348.76	115.48	95.935	34.039	2.8755e-06	41.595	100.671	128.972	152.569	-62.549	1.285	136.319	-62.690	-57.824	87.228	168.143	-58.377	-54.331	-53.427	-48.852	-14.333	-49.936	-8191	255	
2090.734	1	1	0	0	0.047469	0.20488	0.18734	0.17833	0.11539	0.10757	0.13073	0.26003	0.090688	0.13233	0.24267	0.16364	0.064699	0.32065	0.094089	0.1284	-4.1333	-3.7958	-4.1125	-4.3938	-3.6979	-4.1146	-4.4062	-4.0833	-4.3146	-3.9604	-4.1104	-4.4583	-3.725	-4.2542	-4.0813	-3.9896	173.453	135.292	169.699	204.905	110.586	-13.280	164.832	-43.165	27.290	-62.832	191.748	256.434	-18.233	225.056	177.736	221.276	0.00018859	0.0001773	0.00014591	1328.1	1.223e-06	2.5789e-06	1331.3	350.76	8.4088e-07	3.6781e-06	404.27	135.37	116.32	40.329	3.3446e-06	50.007	0.00023515	0.00025116	7.2915e-05	1193.5	2.5301e-06	2.8025e-06	1209.8	311.13	2.5616e-06	2.7937e-06	347.2	114.95	95.472	34.244	2.7939e-06	41.182	53.206	82.807	206.193	-62.492	-46.235	114.751	-62.668	-57.858	39.522	173.648	-58.553	-54.064	-53.412	-48.654	-59.641	-49.777	-8191	255	
2090.831	1	1	0	0	0.20596	0.053189	0.066882	0.096161	0.11048	0.10519	0.28389	0.079719	0.16069	0.18273	0.053614	0.072151	0.31151	0.076285	0.04837	0.049841	-4.0021	-3.9208	-3.8292	-4.4646	-3.9125	-4.2792	-4.4854	-3.8833	-4.2667	-4.0396	-4.0854	-4.4979	-3.8563	-4.1229	-4.2396	-3.9292	104.613	-4.306	147.983	262.770	190.038	115.529	193.283	155.232	79.936	57.116	44.836	-71.144	279.707	61.469	185.581	-38.543	0.00062755	0.00015201	4.8767e-05	1327.3	2.2284e-06	1.7067e-06	1330.9	349.84	3.8914e-06	1.9435e-06	403.35	135.19	117.07	40.329	2.6443e-06	49.927	0.0002325	0.00025632	7.0047e-05	1184.4	2.5251e-06	2.8324e-06	1203.6	308.52	2.5744e-06	2.8291e-06	344.92	113.76	96.041	34.298	2.7423e-06	40.854	77.058	112.288	-18.545	-62.601	122.071	24.214	-62.614	-57.845	175.486	69.956	-58.651	-54.050	-53.479	-48.924	-7.752	-49.731	-8191	255	
2090.951	1	1	0	0	0.24479	0.12379	0.26553	0.17146	0.08727	0.23009	0.18541	0.1142	0.11219	0.08704	0.1421	0.17648	0.20418	0.1583	0.19513	0.36227	-3.8479	-3.8854	-3.9042	-4.5521	-3.9292	-4.1646	-4.4042	-3.8167	-4.2396	-4.125	-3.875	-4.4854	-4.0083	-4.0104	-4.2438	-3.7854	64.060	205.237	46.763	219.482	-57.591	141.609	157.329	264.539	30.458	28.256	-32.937	271.165	110.874	-39.628	189.233	186.963	0.00052529	0.00044529	2.9659e-05	1325.8	4.6446e-06	2.075e-06	1330.3	348.97	1.8983e-06	1.3338e-06	404.57	134.44	116.66	40.49	2.8235e-06	49.846	0.00024251	0.00025765	6.8972e-05	1178.6	2.6442e-06	2.8247e-06	1202.1	306.73	2.7177e-06	2.8051e-06	343.61	113.27	96.992	34.184	2.6853e-06	40.56	86.238	233.577	-15.248	-62.656	157.644	134.207	-62.713	-57.863	124.252	86.492	-58.491	-54.088	-53.768	-48.946	138.907	-49.792	-8191	255	
2091.046	1	1	0	0	0.10897	0.15032	0.18068	0.12665	0.10513	0.10965	0.39025	0.11631	0.10801	0.20639	0.092611	0.053734	0.10368	0.2148	0.15072	0.2534	-3.8937	-4	-3.8479	-4.3333	-3.8667	-4.0292	-4.5333	-3.8979	-4.1583	-4.2292	-4.0583	-4.4062	-4.125	-3.9042	-4.2667	-3.9437	155.988	52.420	260.714	-62.402	22.648	25.559	205.950	264.097	156.626	-30.994	162.670	42.965	222.644	-49.918	-60.048	259.038	0.00038268	0.00030608	0.00016756	1325.2	2.0254e-06	2.0401e-06	1329.3	348.46	1.013e-06	4.2478e-06	403.21	135.25	116.63	40.318	3.322e-06	50.034	0.0002522	0.00025331	6.6996e-05	1176.9	2.7453e-06	2.7676e-06	1197.8	306.99	2.7969e-06	2.7418e-06	341.28	113.55	97.51	33.929	2.594e-06	40.823	103.623	-34.734	-49.393	-62.391	183.462	-30.205	-62.511	-57.860	185.357	48.223	-58.625	-54.048	-53.454	-48.882	11.384	-49.947	-8191	255	
2091.142	1	1	0	0	0.16934	0.1132	0.23895	0.17185	0.12774	0.13016	0.12406	0.19772	0.11307	0.085404	0.32458	0.24424	0.12227	0.2296	0.15821	0.15681	-3.6958	-4.3417	-3.8104	-4.4729	-4.1104	-3.9062	-4.5312	-3.8917	-4.0312	-4.1729	-3.9062	-4.3375	-3.8812	-3.8896	-4.4688	-3.8292	-12.644	159.673	97.559	-75.498	233.610	40.941	189.183	-36.552	143.923	-58.413	211.354	49.434	210.587	-50.528	-9.165	226.396	0.00049106	0.00022952	0.00019883	1325.8	1.1271e-06	1.8479e-06	1326.3	349.18	1.6949e-06	3.5068e-07	404.51	134.7	117.11	40.214	2.3201e-06	49.889	0.00025809	0.00024823	6.4452e-05	1181.8	2.7991e-06	2.6839e-06	1191.8	308.01	2.7827e-06	2.6719e-06	338.57	114.01	97.396	33.767	2.4768e-06	41.082	106.504	-14.100	-75.323	-62.352	3.292	168.853	-62.768	-57.767	11.143	95.365	-58.352	-53.903	-53.541	-48.908	39.699	-49.713	-8191	255	
2091.238	1	1	0	0	0.23341	0.11822	0.17982	0.25736	0.028388	0.09748	0.26424	0.23217	0.14887	0.051164	0.15812	0.19117	0.29228	0.14307	0.21323	0.17349	-3.7167	-4.1646	-3.6437	-4.425	-3.9021	-4.0188	-4.5917	-4.0146	-4.0917	-4.2771	-3.8667	-4.1792	-4.1104	-3.7646	-4.3167	-3.9688	146.170	101.203	232.665	270.315	-14.770	51.299	204.851	214.552	-55.756	218.869	202.135	230.526	-50.840	-55.228	70.625	176.474	0.00025191	0.0001214	9.9724e-05	1326.3	4.8423e-07	2.7865e-06	1329.6	350.03	2.0285e-06	3.0147e-06	403.68	135.1	116.44	40.272	2.0825e-06	49.638	0.00025381	0.0002429	6.2319e-05	1187.3	2.7749e-06	2.659e-06	1190.7	311.02	2.7854e-06	2.6625e-06	338.8	115.34	97.227	33.713	2.5174e-06	41.564	116.086	-9.410	-40.820	-62.535	134.641	-21.026	-62.708	-57.850	61.655	20.162	-58.386	-53.969	-53.410	-48.852	225.851	-49.776	-8191	255	
2091.359	1	1	0	0	0.16677	0.029428	0.25446	0.474	0.20144	0.14338	0.29199	0.134	0.14058	0.25135	0.39644	0.082684	0.26889	0.058638	0.079962	0.21468	-3.4375	-4.2021	-3.8229	-4.2479	-3.8917	-3.9979	-4.5542	-4.0771	-3.9521	-4.2729	-3.9667	-4.0917	-4.2167	-3.9896	-4.15	-4.0125	47.857	272.589	272.632	277.046	155.531	3.653	213.193	132.870	-9.118	119.586	260.000	270.003	240.987	-62.863	-8.035	179.972	0.00044992	0.00033177	8.8397e-05	1323.2	2.7153e-06	3.5166e-06	1330	349.19	4.0073e-06	1.4064e-06	402.66	135.3	117.13	40.399	2.014e-06	49.912	0.00025327	0.00024048	6.3681e-05	1194.3	2.7586e-06	2.6046e-06	1195.7	312.33	2.7561e-06	2.6135e-06	341.03	115.97	97.072	33.556	2.6462e-06	41.77	92.295	6.627	122.740	-62.591	79.137	43.025	-62.731	-57.753	10.076	13.628	-58.420	-54.022	-53.494	-49.101	215.001	-49.778	-8191	255	
2091.430	1	1	0	0	0.074466	0.051383	0.091732	0.11022	0.10642	0.27494	0.23388	0.041577	0.17713	0.169	0.32577	0.2214	0.38152	0.26985	0.16643	0.051281	-3.5021	-4.4187	-3.7479	-4.2937	-4.2354	-3.7687	-4.3187	-4.2271	-3.625	-4.3271	-4.0729	-4.2229	-4.225	-3.9562	-4.1583	-4.1208	-4.942	37.660	3.537	227.311	-36.335	263.334	158.073	101.714	-55.529	179.453	-69.910	224.089	202.137	270.696	42.797	163.772	0.00029393	0.00032064	9.8751e-05	1326	2.0234e-06	6.2406e-06	1322.9	351.76	8.6178e-08	2.1859e-06	403.73	134.86	116.91	40.353	3.1434e-06	49.949	0.00025051	0.00023512	6.7309e-05	1196.2	2.7452e-06	2.5295e-06	1200.6	312.93	2.746e-06	2.5551e-06	344.62	115.86	97.089	33.493	2.8132e-06	41.808	97.539	-51.053	95.770	-62.344	53.277	39.093	-62.608	-57.896	242.885	-16.611	-58.541	-54.219	-53.474	-48.872	135.348	-49.890	-8191	255	
2091.526	1	1	0	0	0.098424	0.16287	0.073791	0.45702	0.037699	0.16867	0.24493	0.19609	0.23045	0.15276	0.13191	0.081575	0.33883	0.1543	0.085045	0.13039	-3.5583	-4.2063	-3.9375	-4.15	-4.2271	-3.8438	-4.2646	-4.3625	-3.8104	-4.2188	-3.9958	-3.8021	-4.3438	-3.8208	-4.1687	-4.1958	62.926	27.303	23.903	239.679	-35.912	196.892	188.418	254.420	129.782	203.091	202.405	156.042	242.937	197.654	38.783	214.158	0.00026695	0.00024958	0.00011334	1324.8	2.6654e-06	2.8231e-06	1330.6	351.43	4.7992e-07	1.204e-06	402.29	135.58	116.82	40.149	2.9942e-06	49.885	0.00024985	0.00023427	7.1461e-05	1193.8	2.7284e-06	2.5483e-06	1207.4	312.48	2.7014e-06	2.59e-06	347.24	115.57	96.627	33.594	2.915e-06	41.683	-36.007	238.660	71.713	-62.528	19.182	128.351	-62.551	-57.755	25.855	11.952	-58.150	-54.220	-53.590	-48.933	91.905	-49.725	-8191	255	
2091.622	1	1	0	0	0.15057	0.25713	0.12211	0.31874	0.10563	0.19489	0.13818	0.024649	0.19425	0.15459	0.32706	0.14527	0.26316	0.063614	0.085426	0.16467	-3.2875	-4.2646	-4.0167	-4.0229	-4.3271	-3.7896	-4.2604	-4.2271	-3.6354	-4.2729	-4.0188	-4.0125	-4.475	-3.8937	-3.9333	-4.25	276.769	-75.658	27.062	236.237	261.234	-74.025	258.460	27.598	155.922	80.462	278.412	268.796	282.472	224.682	280.589	270.807	8.611e-05	0.0003338	3.6591e-05	1324.4	4.915e-06	2.2249e-06	1329.2	350.36	1.3546e-06	4.2293e-06	403.92	135.54	117.57	40.053	4.0271e-06	49.91	0.00024145	0.00024115	7.3579e-05	1190.5	2.6433e-06	2.6454e-06	1211.1	311.86	2.5962e-06	2.7088e-06	348	115.37	96.108	33.889	2.8947e-06	41.543	84.746	121.232	240.570	-62.477	2.142	151.960	-62.680	-57.854	0.066	164.773	-58.440	-53.952	-53.508	-49.012	17.698	-49.918	-8191	255	
2091.719	1	1	0	0	0.13725	0.12394	0.046754	0.043433	0.12119	0.11376	0.22093	0.22906	0.048956	0.057555	0.28074	0.20294	0.18586	0.3294	0.19978	0.23403	-3.3708	-4.1708	-3.8354	-3.9792	-4.0458	-3.7771	-4.0146	-4.3562	-3.6354	-4.2729	-4.1833	-3.7521	-4.1813	-3.7687	-3.9958	-4.475	-48.306	236.006	236.797	142.127	110.882	267.125	218.972	214.093	263.239	202.979	94.425	233.896	269.704	224.658	250.765	112.693	0.00041787	0.00030566	3.7565e-05	1324.8	1.8316e-06	2.994e-06	1330.1	350.82	1.3424e-06	1.4694e-06	403.43	135.54	116.82	40.025	2.7213e-06	49.858	0.00023341	0.00025384	7.3005e-05	1188.4	2.5701e-06	2.7894e-06	1209.8	310.98	2.5572e-06	2.8727e-06	348.3	115.22	96.142	34.285	2.8945e-06	41.462	85.029	113.568	235.592	-62.295	84.096	180.170	-62.456	-58.012	25.273	43.572	-58.473	-53.990	-53.487	-49.151	31.550	-49.628	-8191	255	
2091.838	1	1	0	0	0.23336	0.24012	0.13543	0.1509	0.15094	0.10014	0.28894	0.064367	0.11796	0.098843	0.12967	0.18072	0.074007	0.24532	0.17343	0.036126	-3.3812	-4.3354	-4.1979	-3.95	-4.3562	-3.95	-3.9625	-4.3	-3.7687	-4.1771	-4.2458	-3.8229	-4.3021	-3.8708	-3.6583	-4.4146	177.074	-23.881	48.724	215.040	174.669	79.836	229.669	152.878	121.567	1.305	-52.443	229.795	43.468	276.184	56.660	207.700	0.00067614	0.00020869	5.9899e-05	1329.9	1.4018e-06	3.7062e-07	1328	349.85	2.6255e-06	2.9001e-06	405.22	135.17	116.27	40.229	1.7214e-06	49.917	0.0002379	0.0002685	7.3278e-05	1187.7	2.6578e-06	2.9359e-06	1206.9	310.36	2.6466e-06	2.9516e-06	347.57	114.37	96.7	34.465	2.8271e-06	41.17	83.575	117.689	7.833	-62.483	114.581	64.156	-62.620	-57.839	218.596	107.455	-58.457	-54.427	-53.617	-49.085	-21.415	-49.911	-8191	255	
2091.934	1	1	0	0	0.15832	0.29824	0.095178	0.1706	0.17267	0.12688	0.34471	0.18397	0.22273	0.10646	0.35684	0.098819	0.14247	0.20254	0.17038	0.15232	-3.4562	-4.0938	-4.225	-3.7667	-4.1896	-4.1917	-4.0229	-4.3792	-3.8354	-4.0646	-4.2833	-3.675	-4.2104	-4.3229	-3.8646	-4.3688	16.719	119.782	85.506	210.629	263.737	19.504	255.020	167.779	0.185	110.037	226.746	-75.408	276.320	56.143	230.204	-58.598	0.00049691	0.00014339	7.1516e-05	1328	2.1284e-06	3.656e-06	1330.6	349.45	3.788e-06	3.165e-06	401.98	134.78	116.45	40.21	3.9999e-06	49.913	0.00024595	0.0002675	7.1331e-05	1180.9	2.737e-06	2.8976e-06	1204.1	308.3	2.7287e-06	2.8873e-06	345	113.5	97.509	34.291	2.7616e-06	40.945	73.860	10.671	237.274	-62.605	101.795	47.104	-62.509	-57.698	195.404	11.462	-58.449	-54.199	-53.532	-48.924	5.929	-49.743	-8191	255	
2092.032	1	1	0	0	0.0088967	0.08579	0.16724	0.024424	0.075409	0.26799	0.13098	0.16075	0.038735	0.13146	0.27243	0.12801	0.074074	0.13559	0.16309	0.32624	-3.7188	-3.9458	-4.2646	-3.9875	-4.1271	-4.1375	-3.9125	-4.4271	-3.9875	-4.0375	-4.4812	-3.875	-4.2854	-4.3	-3.8104	-4.4917	22.460	276.116	277.005	76.126	134.873	162.656	222.001	18.663	273.537	-61.362	271.797	-75.086	260.656	6.547	82.411	-45.763	0.00056448	0.00030351	4.5008e-05	1327.8	5.1596e-06	4.0689e-06	1326.9	349.12	1.8714e-07	2.3062e-06	404.23	135.09	116.88	40.321	2.7482e-06	49.723	0.00025893	0.00026413	7.0507e-05	1180.1	2.8974e-06	2.8855e-06	1200.9	308.8	2.9079e-06	2.8905e-06	344.55	114.04	98.416	34.237	2.6974e-06	41.131	53.885	-63.908	-74.431	-62.419	113.922	16.485	-62.622	-57.895	187.073	76.792	-58.473	-53.915	-53.427	-48.925	-6.836	-49.842	-8191	255	
2092.126	1	1	0	0	0.17978	0.1566	0.089051	0.24076	0.32021	0.12964	0.075153	0.3205	0.059723	0.080921	0.23299	0.12267	0.05526	0.15784	0.17254	0.15746	-3.6771	-3.725	-4.2771	-4	-3.9604	-4.4646	-3.9146	-4.2542	-4.0375	-3.8604	-4.4479	-3.8146	-4.1	-4.3458	-3.8312	-4.3104	23.863	9.083	226.406	141.352	121.254	117.909	227.925	273.884	126.040	275.939	265.921	260.530	-60.518	206.562	-47.645	181.154	0.00047365	0.00010661	5.1387e-05	1323.1	2.1069e-06	1.9864e-06	1329.2	348.64	1.0841e-06	2.6568e-06	405.01	134.52	116.92	40.2	2.9504e-06	49.819	0.00026797	0.00026	6.8578e-05	1184.1	2.9573e-06	2.8471e-06	1195.9	310.36	2.936e-06	2.8281e-06	343.02	114.84	98.528	34.182	2.6096e-06	41.61	53.011	-65.189	-38.450	-62.475	93.819	-51.483	-62.638	-57.708	85.741	15.440	-58.407	-54.203	-53.631	-48.881	-12.118	-49.545	-8191	255	
2092.222	1	1	0	0	0.20203	0.17996	0.078432	0.097799	0.14876	0.03766	0.17602	0.10021	0.048158	0.03415	0.18925	0.045892	0.042763	0.20205	0.072633	0.022712	-3.8146	-3.8583	-4.4646	-3.9938	-4.0021	-4.3333	-3.8729	-4.3354	-4.0354	-3.8979	-4.3729	-4	-4.025	-4.4542	-3.8271	-4.2521	-23.198	231.933	188.758	123.862	276.526	113.210	186.028	212.636	280.496	102.097	188.063	139.855	-37.407	266.266	-73.183	39.490	0.00034147	0.00040645	2.7449e-05	1321.3	3.3555e-06	3.7272e-06	1330.1	348.29	2.6868e-06	2.439e-06	403.85	134.81	116.93	40.094	1.9144e-07	49.821	0.00026817	0.0002562	6.6577e-05	1190	2.9221e-06	2.8104e-06	1193.6	312.16	2.9051e-06	2.7841e-06	342.07	115.91	98.275	33.968	2.5939e-06	42.022	67.651	-49.392	-10.556	-62.628	-34.290	9.594	-62.523	-57.795	-45.291	-16.683	-58.375	-53.872	-53.402	-48.839	1.263	-49.748	-8191	255	
2092.318	1	1	0	0	0.079008	0.020894	0.31772	0.45656	0.18696	0.077697	0.038248	0.10672	0.16745	0.25293	0.038867	0.22548	0.20019	0.19351	0.14677	0.10146	-3.7729	-3.8042	-4.3917	-4.1125	-3.9271	-4.2937	-4.1312	-4.3333	-4.2417	-3.9333	-4.3104	-4.2521	-3.8833	-4.4646	-3.8958	-4.0813	14.491	-24.835	-61.566	225.455	198.908	216.644	246.545	239.889	239.005	254.074	179.203	233.210	192.788	186.717	204.417	57.227	0.00024137	0.00016908	8.9102e-05	1323	1.395e-06	4.0796e-06	1326.4	349.01	1.0319e-06	4.5731e-06	402.27	135.14	116.61	40.204	2.5952e-06	49.688	0.00026366	0.00024863	6.6712e-05	1195.7	2.8532e-06	2.7081e-06	1194.9	313.46	2.8453e-06	2.666e-06	343.12	116.39	97.654	33.714	2.6473e-06	41.969	159.024	-28.818	33.875	-62.397	-50.995	-7.866	-62.602	-57.715	127.535	31.671	-58.249	-53.951	-53.641	-49.101	161.947	-49.653	-8191	255	
2092.439	1	1	0	0	0.20445	0.25031	0.36207	0.16645	0.21522	0.21601	0.070112	0.12877	0.16668	0.14523	0.14301	0.18056	0.21598	0.084987	0.14446	0.24608	-3.7542	-3.7625	-4.3208	-4.2229	-3.9021	-4.3354	-4.1188	-4.2896	-4.4187	-3.7354	-4.4521	-4.1583	-3.7979	-4.3125	-3.775	-4.1396	182.339	-55.640	273.432	242.984	57.594	-3.094	-72.372	233.357	37.113	184.537	258.653	254.278	198.621	-5.242	219.345	-22.275	0.00020272	0.00033998	0.00011183	1324.3	3.6959e-06	5.4594e-06	1322.9	349.71	1.4904e-06	2.3786e-06	402.57	134.93	116.64	40.127	2.3502e-06	49.798	0.00025525	0.00023652	6.8839e-05	1195.7	2.7744e-06	2.594e-06	1200.2	312.69	2.7825e-06	2.5469e-06	345.28	115.8	96.983	33.444	2.7555e-06	41.678	124.245	-70.747	129.481	-62.580	66.206	3.800	-62.638	-57.843	170.720	44.276	-58.302	-54.157	-53.377	-48.816	83.077	-49.653	-8191	255	
2092.535	1	1	0	0	0.11274	0.043147	0.11591	0.17435	0.15989	0.14704	0.30637	0.050036	0.1125	0.11921	0.085349	0.20554	0.18867	0.027461	0.27981	0.17481	-3.9313	-3.7375	-4.3125	-4.2312	-3.7792	-4.4083	-4.1042	-3.925	-4.275	-3.8187	-4.1729	-4.1333	-3.8063	-4.35	-3.875	-4.1458	45.346	97.725	107.134	-73.066	216.950	279.350	183.329	266.390	-2.211	243.721	212.675	-61.535	-31.879	-52.499	19.934	282.667	0.00024649	6.018e-05	0.00011554	1323.9	4.2402e-06	7.4892e-07	1327	349.47	3.4325e-06	3.9656e-06	403.94	135.09	117.15	40.054	2.5009e-06	49.747	0.00024876	0.00022853	7.121e-05	1192.2	2.6887e-06	2.549e-06	1204.7	311.83	2.6997e-06	2.5418e-06	347.12	115.58	96.367	33.514	2.8603e-06	41.514	168.151	26.851	103.637	-62.584	-38.734	-7.105	-62.401	-57.922	34.095	123.951	-58.508	-54.102	-53.524	-48.860	157.007	-49.859	-8191	255	
2092.631	1	1	0	0	0.076238	0.14723	0.095765	0.30731	0.14524	0.14546	0.19913	0.31655	0.14048	0.14686	0.086398	0.15497	0.083112	0.16528	0.080284	0.35876	-3.8958	-3.7687	-4.125	-4.2729	-3.8354	-4.4792	-4.0354	-4.0667	-4.2438	-3.8479	-4.1292	-4.3229	-3.9542	-4.3187	-4.1104	-4	189.652	19.618	273.664	-67.787	104.444	249.889	150.029	242.167	228.018	196.908	-68.239	3.664	238.237	-36.442	144.644	203.570	0.00031052	7.6369e-05	2.8047e-05	1322.6	3.0128e-06	3.7712e-06	1327.7	349.19	2.743e-06	1.7772e-06	402.94	135.15	116.64	40.066	1.3704e-06	49.78	0.00024202	0.00023458	7.2957e-05	1187.4	2.5831e-06	2.6288e-06	1206.7	310.63	2.5929e-06	2.6273e-06	347.13	114.89	95.559	33.847	2.8636e-06	41.422	-59.562	126.147	247.333	-62.487	137.338	175.936	-62.761	-57.876	-20.934	177.426	-58.388	-53.954	-53.506	-48.862	-38.764	-49.959	-8191	255	
2092.727	1	1	0	0	0.18378	0.10404	0.15811	0.26275	0.25779	0.1802	0.303	0.20603	0.037702	0.042031	0.15739	0.21682	0.20343	0.05646	0.040962	0.14004	-3.9333	-3.9271	-3.9625	-4.2667	-3.7104	-4.1125	-4.1083	-4.1667	-4.4313	-3.9688	-3.925	-4.2729	-3.9625	-4.2125	-4.1375	-3.9458	219.092	235.228	-14.168	226.738	154.430	52.674	243.597	225.095	42.987	36.802	152.901	282.286	221.733	-26.252	163.735	230.427	0.00010214	0.00034966	0.00010922	1322	2.0106e-06	2.834e-06	1323.3	349.14	3.6998e-06	3.1864e-06	405.63	135.28	116.43	40.083	1.4141e-06	49.757	0.00023417	0.00024758	7.2836e-05	1186.8	2.521e-06	2.7807e-06	1205.5	310.16	2.5528e-06	2.7848e-06	346.84	114.76	95.35	34.154	2.8214e-06	41.164	80.493	43.053	-12.568	-62.569	41.613	119.667	-62.681	-57.944	-9.669	172.083	-58.381	-54.074	-53.478	-48.815	88.844	-49.872	-8191	255	
2092.823	1	1	0	0	0.27759	0.31138	0.11667	0.33211	0.0764	0.12448	0.17533	0.17679	0.093788	0.22247	0.16851	0.15335	0.29521	0.19662	0.093824	0.20853	-3.975	-4.0563	-3.9958	-4.5771	-3.7854	-4.2875	-4.4021	-3.8958	-4.2542	-4.0875	-4.0479	-4.4417	-3.9583	-4.2	-4.3292	-4.0563	50.630	177.712	159.632	265.996	202.687	-60.447	213.405	-40.040	115.250	273.052	-15.283	253.781	271.863	269.990	3.025	262.823	0.00029723	0.0001359	0.00011713	1323.1	3.2569e-06	2.5947e-06	1327.7	350.98	5.0863e-06	1.5782e-06	402.95	134.91	116.22	40.273	4.1814e-07	50.081	0.00023488	0.0002611	7.2128e-05	1184.7	2.5789e-06	2.9149e-06	1206.2	309.38	2.6445e-06	2.9099e-06	346.39	114.21	96.091	34.328	2.8078e-06	41.039	55.540	165.582	-11.902	-62.499	84.870	254.585	-62.582	-57.800	233.770	220.791	-58.576	-54.064	-53.449	-49.237	280.673	-49.723	-8191	255	
2092.920	1	1	0	0	0.051279	0.26597	0.017823	0.21196	0.15564	0.18566	0.28986	0.16124	0.022455	0.18616	0.24247	0.069992	0.28796	0.19827	0.14105	0.12394	-4.0458	-4.1125	-3.7396	-4.3812	-4.0604	-4.1667	-4.45	-3.8646	-4.1958	-4.2146	-4.0396	-4.3875	-3.9458	-4.0958	-4.1333	-3.9167	131.619	149.978	82.183	255.303	-34.844	36.756	255.535	257.027	118.831	97.401	273.406	205.665	215.772	180.697	108.612	-35.432	0.00047718	0.00021806	8.1196e-05	1326.7	3.255e-06	3.1779e-06	1322.1	349.47	3.7679e-06	2.1416e-06	402.64	134.46	115.95	40.153	1.4904e-06	49.896	0.00024463	0.00026342	7.0213e-05	1180.1	2.6691e-06	2.8858e-06	1200.9	307.65	2.7396e-06	2.8716e-06	344.5	113.31	96.879	34.214	2.7404e-06	40.693	59.706	11.009	5.356	-62.628	178.247	35.203	-62.795	-57.826	208.237	80.154	-58.376	-53.997	-53.428	-48.722	71.760	-49.865	-8191	255	
2093.016	1	1	0	0	0.1166	0.1424	0.14064	0.31221	0.15879	0.078768	0.041258	0.21784	0.14177	0.082986	0.083435	0.025097	0.27545	0.14869	0.16371	0.035077	-3.6771	-4.1292	-3.8958	-4.4521	-3.9354	-4.0125	-4.4792	-3.9604	-4.1271	-4.1188	-3.8708	-4.2875	-3.9854	-4.1042	-4.0771	-3.8833	-27.936	193.795	107.632	233.442	-17.259	61.078	-14.730	273.367	-15.429	162.882	176.850	-56.656	-53.174	240.816	-42.332	18.584	0.00038188	0.00020923	0.000122	1321.9	2.1279e-06	4.8811e-06	1324.6	350.24	2.4088e-06	2.7305e-06	402.45	134.49	116.26	40.198	1.4885e-06	49.709	0.00025615	0.00025998	6.9004e-05	1175.9	2.8013e-06	2.835e-06	1198.7	307.47	2.8451e-06	2.8086e-06	342.3	113.45	97.575	34.036	2.6538e-06	40.772	101.638	-20.348	266.920	-62.557	182.851	10.828	-62.683	-57.893	234.222	-10.990	-58.471	-54.142	-53.355	-48.917	29.522	-49.629	-8191	255	
2093.135	1	1	0	0	0.25808	0.090428	0.21286	0.27145	0.28299	0.14957	0.039441	0.0667	0.042423	0.20309	0.24177	0.20386	0.18013	0.33307	0.14755	0.17923	-3.8083	-4.1167	-3.8187	-4.4292	-3.9562	-4.0083	-4.4958	-4	-4.1375	-4.2688	-3.9813	-4.4	-4.0854	-4.075	-4.3979	-4.1687	267.747	98.244	189.713	-31.429	244.716	-39.480	225.016	267.742	90.634	84.316	196.601	243.453	160.909	274.972	56.053	216.992	0.00022034	0.00014941	8.231e-05	1319.5	2.9925e-06	1.7042e-06	1321.9	349.08	1.9771e-06	2.9324e-06	404.31	134.65	116.36	40.086	3.2593e-07	49.588	0.00026255	0.00025413	6.6183e-05	1180.5	2.8624e-06	2.7831e-06	1193.6	308.54	2.8962e-06	2.7752e-06	341.03	114.54	97.922	33.982	2.5947e-06	41.272	70.784	-64.288	0.379	-62.654	95.705	31.879	-62.692	-57.747	15.025	43.123	-58.273	-54.046	-53.321	-48.741	-0.540	-49.657	-8191	255	
2093.231	1	1	0	0	0.14963	0.13881	0.15871	0.12503	0.25376	0.17528	0.16022	0.23822	0.20326	0.13344	0.28256	0.101	0.083944	0.094798	0.27169	0.20536	-3.5479	-4.2562	-3.7896	-4.4417	-4.1667	-3.8354	-4.6583	-4.0292	-4.0792	-4.325	-4.0083	-4.3354	-4.1687	-3.9625	-4.3146	-3.9792	-18.919	248.187	141.037	197.802	264.343	238.016	246.958	-53.854	47.534	148.370	226.469	186.144	-60.528	-72.542	73.139	228.497	5.5489e-05	0.00034525	4.176e-05	1317.8	5.168e-06	5.3984e-07	1324.3	349.21	2.6359e-06	1.3846e-06	404.14	134.33	116.32	40.25	1.8221e-06	49.672	0.00026477	0.00025298	6.4678e-05	1187	2.8704e-06	2.7465e-06	1190.7	310.79	2.8725e-06	2.7449e-06	339.82	115.39	97.782	33.841	2.5792e-06	41.657	6.013	-11.363	277.106	-62.613	-38.662	-10.760	-62.620	-57.811	56.057	-38.019	-58.410	-54.028	-53.266	-48.785	90.412	-49.637	-8191	255	
2093.302	1	1	0	0	0.11586	0.063355	0.1466	0.29942	0.056671	0.13543	0.11575	0.38604	0.062487	0.2127	0.16306	0.15508	0.16061	0.028892	0.30563	0.12866	-3.5479	-4.3167	-3.8417	-4.3167	-4.1375	-3.6604	-4.4833	-4.1792	-3.9042	-4.2354	-4.0625	-4.2396	-4.3688	-3.9229	-4.3479	-4.0271	-71.431	134.634	226.235	274.713	271.107	-47.697	184.110	-61.742	184.801	262.942	224.463	216.919	226.047	-60.396	177.060	129.037	0.00011073	0.00042291	6.0775e-05	1322.6	3.6653e-06	3.6956e-06	1321.9	349.92	1.1904e-06	6.1949e-06	402.34	134.93	116.59	40.182	1.5875e-06	49.641	0.00026022	0.00024725	6.4679e-05	1193	2.8225e-06	2.669e-06	1191.7	312.6	2.8273e-06	2.6766e-06	341.27	116.23	97.613	33.71	2.7028e-06	41.943	127.530	-7.372	-34.259	-62.443	263.260	39.418	-62.594	-57.805	6.731	54.513	-58.162	-54.231	-53.580	-48.976	180.965	-49.836	-8191	255	
2093.399	1	1	0	0	0.085334	0.20322	0.048887	0.10651	0.085067	0.035694	0.063751	0.14446	0.077986	0.22109	0.34009	0.077919	0.098941	0.13602	0.1064	0.22271	-3.5	-4.2417	-3.9292	-4.1479	-4.2167	-3.7833	-4.5375	-4.1396	-3.7917	-4.2688	-3.8208	-4.1875	-4.3458	-3.7979	-4.3875	-4.0938	277.183	118.407	28.989	231.457	-7.732	67.259	231.118	46.363	88.038	186.321	-51.460	168.804	-5.147	60.621	278.645	109.739	0.00036133	0.00039761	3.4818e-05	1319.9	3.824e-06	4.1573e-06	1324.2	350.26	1.8886e-06	1.4512e-06	401.39	135.43	116.95	40.045	2.8189e-06	49.901	0.00025886	0.00024282	6.8705e-05	1195.6	2.817e-06	2.6021e-06	1200.7	313.02	2.7964e-06	2.5968e-06	344.61	116.09	97.387	33.421	2.8192e-06	41.8	121.307	-39.721	23.946	-62.418	234.198	26.176	-62.619	-57.933	1.079	51.662	-58.321	-53.741	-53.599	-48.911	132.184	-50.122	-8191	255	
2093.519	1	1	0	0	0.033613	0.051238	0.12888	0.22078	0.13105	0.22342	0.15903	0.1537	0.14541	0.067775	0.031206	0.026511	0.24225	0.086472	0.14905	0.19227	-3.3646	-4.2917	-3.8542	-4.1417	-4.1896	-3.8896	-4.3354	-4.1896	-3.6479	-4.3063	-4.0333	-4.0375	-4.1729	-3.9479	-3.95	-4.2646	-63.916	-29.250	46.433	-65.593	229.676	115.234	234.895	-74.955	210.215	184.012	209.437	235.588	-56.799	-57.804	-10.731	178.266	0.00025558	0.00022362	5.3666e-05	1320.1	9.0715e-07	1.5801e-06	1322.5	350.09	1.2386e-06	1.6662e-06	402.53	134.96	116.82	40.06	2.7976e-06	49.723	0.00025127	0.00023481	7.1021e-05	1192.2	2.74e-06	2.5332e-06	1204	311.7	2.6768e-06	2.5422e-06	345.8	115.21	96.178	33.312	2.8135e-06	41.451	241.215	-55.382	94.396	-62.337	63.261	59.879	-62.703	-57.925	146.761	142.587	-58.451	-54.234	-53.447	-49.008	159.022	-49.784	-8191	255	
2093.615	1	1	0	0	0.091344	0.07333	0.21579	0.10881	0.13812	0.087369	0.38607	0.17965	0.19053	0.40991	0.1428	0.19472	0.11518	0.21771	0.061033	0.18729	-3.3729	-4.2104	-4.0563	-4.1896	-4.3917	-3.8063	-4.1896	-4.225	-3.8688	-4.3167	-4.1667	-4.0437	-4.4354	-3.9667	-4.0312	-4.2271	171.267	76.855	259.963	-62.661	147.789	45.387	202.068	-59.610	75.804	28.514	-28.561	253.820	86.609	152.583	0.754	-37.892	0.00040642	0.00010722	5.4579e-05	1327.8	4.5542e-06	1.8661e-06	1324.1	349.06	2.9625e-06	9.1003e-07	402.94	134.4	116.49	39.948	3.343e-06	49.705	0.00023565	0.00023187	7.108e-05	1186.6	2.5751e-06	2.5514e-06	1202.9	309.9	2.5399e-06	2.5972e-06	345.68	114.63	95.381	33.576	2.8318e-06	41.269	76.109	148.914	49.371	-62.660	-0.531	125.389	-62.585	-57.786	32.481	80.798	-58.349	-54.163	-53.732	-48.711	39.929	-50.229	-8191	255	
2093.712	1	1	0	0	0.11774	0.15248	0.063758	0.091897	0.40125	0.062398	0.1973	0.31215	0.14389	0.12457	0.12516	0.2227	0.093333	0.3007	0.12086	0.12728	-3.5042	-4.3208	-3.9542	-3.9813	-4.2146	-3.9146	-4.2229	-4.3667	-3.9688	-4.3104	-4.4625	-3.9917	-4.4104	-3.925	-3.9479	-4.4437	75.660	252.418	127.074	-32.591	282.823	30.302	263.607	214.111	-67.249	221.888	215.914	-54.976	187.807	260.781	267.055	164.328	0.00012951	0.00020029	4.3612e-05	1325.3	8.6328e-07	8.617e-07	1323.1	348.42	3.1715e-06	2.1652e-06	402.79	134.72	116.34	39.893	3.1998e-06	49.908	0.00022834	0.00024436	7.1332e-05	1183.4	2.5051e-06	2.6803e-06	1201.5	308.93	2.4738e-06	2.7393e-06	345.36	114.23	95.228	33.914	2.7943e-06	41.159	102.010	111.341	250.639	-62.324	249.915	240.379	-62.770	-57.860	185.910	125.172	-58.186	-54.224	-53.375	-49.116	-9.201	-49.911	-8191	255	
2093.832	1	1	0	0	0.13015	0.13206	0.12271	0.36343	0.11527	0.29562	0.15711	0.061288	0.090385	0.13917	0.051107	0.14533	0.17334	0.17123	0.11467	0.065558	-3.5604	-4.2479	-4.2937	-4	-4.2167	-4.0208	-4.0417	-4.4313	-3.8063	-4.1875	-4.2875	-3.9396	-4.5104	-4.0833	-4.0146	-4.3875	187.269	184.961	154.667	251.685	262.799	36.618	117.016	34.887	-41.588	221.908	239.531	256.771	197.475	224.381	25.192	221.521	0.00044267	0.0003412	0.00011063	1321.5	1.1958e-06	3.3923e-06	1324.1	349.4	4.3218e-06	1.7634e-06	402.02	134.77	116.11	40.025	4.1383e-06	49.696	0.00022734	0.00025589	7.0559e-05	1179.8	2.525e-06	2.7874e-06	1200	308.09	2.5109e-06	2.8077e-06	343.86	113.24	95.363	33.993	2.6997e-06	40.639	99.117	73.434	-61.865	-62.365	186.804	111.256	-62.437	-57.761	151.936	129.197	-58.501	-54.168	-53.470	-48.717	20.194	-49.824	-8191	255	
2093.904	1	1	0	0	0.12896	0.16733	0.26779	0.15841	0.039418	0.18164	0.10363	0.15704	0.15628	0.10512	0.19529	0.26586	0.20679	0.22495	0.12739	0.2183	-3.4854	-3.9542	-4.0625	-3.9542	-4.2854	-4.1042	-4.0417	-4.4854	-3.8438	-4.0875	-4.4083	-3.7729	-4.2583	-4.15	-3.7375	-4.3083	59.664	11.683	224.639	242.787	182.372	-9.422	-62.768	283.295	156.718	127.840	-49.518	118.273	252.037	-44.824	49.486	219.136	0.00055791	0.00021661	2.3167e-05	1317.9	4.0271e-06	3.6156e-06	1324.2	351.17	2.0275e-06	1.4636e-06	401.77	133.9	116.15	40.206	1.358e-06	49.54	0.00023157	0.00025437	6.7582e-05	1171.4	2.5776e-06	2.7606e-06	1193.8	306.33	2.5821e-06	2.7533e-06	341.94	112.44	96.186	33.871	2.6189e-06	40.347	78.218	-48.492	78.624	-62.687	157.809	48.551	-62.612	-58.004	167.815	-54.130	-58.244	-53.926	-53.498	-48.795	-36.176	-49.753	-8191	255	
2094.000	1	1	0	0	0.062461	0.04107	0.015474	0.10076	0.084292	0.18113	0.10006	0.1305	0.22355	0.16097	0.15472	0.14483	0.068029	0.10486	0.28833	0.1364	-3.6854	-3.9792	-4.25	-3.7812	-4.2562	-4.1083	-3.9562	-4.4896	-3.9375	-4.0604	-4.4625	-3.7542	-4.2146	-4.3375	-3.7687	-4.3208	95.928	154.434	57.297	-74.077	-50.496	50.513	139.843	244.064	77.433	14.359	170.996	-54.158	-49.157	263.468	221.878	104.672	0.00061735	0.00038854	0.00011345	1318.8	2.5579e-06	1.7241e-06	1325.4	349.46	4.1764e-06	1.781e-06	401.45	134.35	116.3	40.025	1.8643e-06	49.623	0.00024064	0.00024827	6.6105e-05	1167.6	2.673e-06	2.6887e-06	1189.3	304.85	2.6489e-06	2.6585e-06	338.99	111.98	96.414	33.601	2.4888e-06	40.289	60.867	12.656	-31.029	-62.607	189.868	80.469	-62.548	-57.803	202.829	-46.471	-58.689	-54.171	-53.491	-48.781	43.379	-49.878	-8191	255	
2094.119	1	1	0	0	0.10391	0.057719	0.21698	0.035369	0.094721	0.3158	0.23667	0.31075	0.10789	0.10189	0.26459	0.098609	0.14119	0.14889	0.17495	0.083394	-3.7125	-3.8083	-4.3688	-4.0167	-4.0104	-4.1729	-4.0042	-4.4521	-4.0083	-4.0104	-4.3542	-3.9417	-4.1104	-4.2583	-3.8	-4.3938	189.195	204.461	110.752	-72.521	93.506	-66.637	232.483	208.618	-50.449	-29.554	217.799	120.715	191.245	226.676	161.804	281.581	0.00038726	8.2424e-05	6.6771e-05	1319.3	1.733e-06	8.1216e-07	1323.4	349.18	1.1557e-06	3.9198e-06	402.4	134.14	116.79	40.11	2.4794e-06	49.155	0.00024495	0.00023821	6.3103e-05	1167.6	2.6916e-06	2.6012e-06	1182.8	305.85	2.6787e-06	2.5811e-06	337.01	112.59	96.483	33.406	2.3661e-06	40.482	81.306	259.381	5.622	-62.577	54.106	-63.341	-62.620	-57.790	247.356	51.140	-58.344	-53.958	-53.359	-48.971	-69.721	-49.780	-8191	255	
2094.215	1	1	0	0	0.027477	0.070823	0.10795	0.24353	0.21485	0.21017	0.06921	0.19248	0.15054	0.17368	0.089863	0.074035	0.29348	0.22593	0.077072	0.37179	-3.8271	-3.85	-4.2375	-4.05	-4.1667	-4.1292	-3.7729	-4.2104	-4.2125	-3.8937	-4.3958	-3.9979	-4.2167	-4.3958	-3.8812	-4.2542	159.199	169.461	120.322	250.437	116.002	83.490	-12.821	212.814	-2.687	143.870	259.534	51.894	176.850	190.883	81.534	250.995	8.9502e-05	0.00015254	3.9916e-05	1318.1	3.0341e-06	1.5877e-06	1325.2	348.89	1.9336e-07	4.3383e-06	402.59	134.19	116.58	39.988	3.3769e-06	49.693	0.00024154	0.00023156	6.024e-05	1173.4	2.6449e-06	2.5487e-06	1179.4	307.43	2.6476e-06	2.5235e-06	335.69	113.46	96.086	33.34	2.3496e-06	41.005	32.986	10.134	-69.903	-62.513	51.369	202.385	-62.570	-57.752	217.448	26.982	-58.508	-53.914	-53.497	-48.874	21.420	-49.679	-8191	255	
2094.311	1	1	0	0	0.12644	0.15455	0.11929	0.28902	0.060856	0.064292	0.21583	0.33537	0.079513	0.18818	0.11968	0.25379	0.1864	0.11489	0.10576	0.10847	-3.7854	-3.7812	-4.2812	-4.0375	-3.8521	-4.2729	-4.0604	-4.225	-4.2354	-3.7854	-4.4021	-4.175	-3.825	-4.275	-4.0188	-4.4604	-27.079	199.635	25.885	228.968	63.408	24.754	243.405	217.665	27.417	32.330	-35.044	-29.747	240.621	-72.479	115.834	241.126	4.2549e-05	0.00050193	9.2304e-05	1318.1	4.3507e-06	3.7115e-06	1320.5	349.36	4.1589e-06	4.8248e-07	401.3	134.66	116.6	40.051	1.4766e-06	49.58	0.00024115	0.00022908	6.0472e-05	1179.7	2.6237e-06	2.4894e-06	1180.9	309.23	2.616e-06	2.4635e-06	337.31	114.28	95.635	33.173	2.4261e-06	41.103	71.092	-50.463	196.878	-62.471	21.439	60.453	-62.537	-57.914	55.776	239.385	-58.292	-54.034	-53.619	-48.862	154.229	-49.828	-8191	255	
2094.432	1	1	0	0	0.10027	0.23152	0.10931	0.37055	0.15463	0.054387	0.22509	0.15344	0.090038	0.1213	0.19828	0.14975	0.1209	0.089458	0.12349	0.19527	-3.7792	-3.7896	-4.3146	-4.1083	-3.9188	-4.3729	-4.0104	-4.2542	-4.1	-3.7833	-4.4667	-4.1333	-3.9042	-4.3771	-4.0208	-4.1125	278.014	107.926	61.046	257.820	-51.020	186.853	246.667	169.018	125.984	-22.205	193.033	222.691	-56.685	222.944	123.277	209.139	8.4394e-05	0.00041967	9.1057e-05	1322.5	3.6725e-06	4.0826e-06	1325.8	349.35	2.0233e-06	3.2617e-06	401.54	134.31	116.79	40.06	4.5191e-06	49.768	0.00023674	0.00022057	6.2768e-05	1182.2	2.5662e-06	2.3984e-06	1186.1	308.8	2.5548e-06	2.3539e-06	339.28	113.93	95.436	32.931	2.5275e-06	40.947	184.896	-44.583	142.428	-62.389	28.072	17.370	-62.632	-57.785	-35.942	-33.869	-58.323	-54.163	-53.728	-48.729	164.289	-49.677	-8191	255	
2094.528	1	1	0	0	0.1494	0.19794	0.099132	0.0493	0.059401	0.16818	0.080714	0.22766	0.26607	0.14888	0.17391	0.14309	0.19613	0.13233	0.23626	0.014694	-3.8896	-3.7729	-4.2083	-4.2792	-3.7208	-4.3688	-4.1271	-4.0958	-4.2167	-3.8063	-4.4104	-4.3292	-3.7667	-4.2792	-3.95	-4.0417	255.731	278.899	-73.555	42.502	21.672	253.901	153.964	220.559	-30.846	-43.709	164.126	20.597	277.455	-40.125	70.409	64.156	3.6687e-05	0.00023233	7.2237e-05	1317.1	1.9081e-06	1.6736e-06	1318.6	349.51	1.7471e-06	1.9961e-06	400.86	134.66	116.26	39.991	2.0288e-06	49.607	0.00023139	0.00021238	6.5562e-05	1177	2.5039e-06	2.3471e-06	1189.5	308.27	2.5036e-06	2.3354e-06	341.27	113.66	94.729	32.938	2.6259e-06	40.738	243.366	60.647	17.440	-62.527	13.481	96.774	-62.521	-57.612	24.769	153.173	-58.066	-54.163	-53.441	-48.785	141.453	-49.662	-8191	255	
2094.600	1	1	0	0	0.23699	0.24452	0.088162	0.26505	0.03451	0.24129	0.16474	0.23215	0.039472	0.22209	0.028425	0.096304	0.092254	0.043798	0.17449	0.16619	-3.95	-3.85	-4.2292	-4.2792	-3.825	-4.3021	-4.1708	-4.0375	-4.1042	-3.8708	-4.1792	-4.1	-3.8646	-4.3229	-4.1229	-4.0292	216.290	137.794	83.239	257.146	196.122	200.259	249.573	242.727	254.301	171.845	89.942	223.804	-39.678	1.692	261.016	245.125	0.00018476	0.00015445	3.5864e-05	1316.2	2.4264e-06	2.5517e-07	1321.8	348.62	3.5359e-06	2.7597e-06	402.53	134.22	116.64	39.967	2.3702e-06	49.752	0.00022463	0.00021539	6.7306e-05	1174.3	2.4053e-06	2.3933e-06	1191	306.68	2.4097e-06	2.4017e-06	342.2	113.06	94.083	33.2	2.6445e-06	40.671	126.255	15.668	62.509	-62.538	-18.162	260.555	-62.651	-57.774	40.356	151.121	-58.044	-54.113	-53.568	-48.758	38.621	-49.953	-8191	255	
2094.720	1	1	0	0	0.041548	0.13523	0.14462	0.24592	0.17941	0.10873	0.3138	0.10981	0.10656	0.14803	0.073708	0.092569	0.13734	0.28254	0.12387	0.20016	-4.1146	-3.925	-3.9646	-4.375	-3.8542	-4.2604	-4.3333	-3.9771	-4.275	-4.0271	-4.2021	-4.4083	-3.8937	-4.35	-4.0312	-3.7521	153.134	4.046	234.699	-67.305	10.463	222.731	175.622	123.957	-58.787	223.453	80.413	236.591	60.690	273.554	284.014	228.271	1.8215e-05	0.00014832	1.4958e-05	1317.3	8.0022e-07	1.3501e-06	1322.1	349.04	1.7156e-06	4.0129e-06	402.34	134.62	116.21	40.15	3.2705e-06	49.734	0.00021741	0.00022697	6.7593e-05	1172.1	2.3459e-06	2.5521e-06	1192.8	306.96	2.3788e-06	2.5816e-06	342.22	113.28	93.915	33.639	2.6581e-06	40.685	-35.587	47.912	200.113	-62.579	-24.367	95.406	-62.575	-57.742	-35.880	165.202	-58.197	-53.951	-53.471	-48.697	-1.405	-49.719	-8191	255	
2094.816	1	1	0	0	0.080013	0.090095	0.15802	0.2235	0.14597	0.14908	0.22281	0.16434	0.14464	0.24711	0.22853	0.15958	0.15072	0.11446	0.1336	0.052043	-3.9458	-3.8875	-4.1167	-4.3625	-3.5479	-4.0792	-4.3979	-4.0083	-4.1583	-3.9333	-4.0417	-4.4187	-4	-4.1979	-4.0854	-3.7812	236.397	23.511	196.817	202.314	-34.896	53.631	-61.162	194.973	154.165	240.467	-47.468	282.071	-45.374	206.313	254.722	-68.715	0.00056223	0.00014251	3.4737e-05	1317.6	1.434e-06	3.3099e-06	1325.9	350.04	1.5434e-06	1.1427e-06	401.84	134.46	116.33	39.963	2.3226e-06	49.655	0.00021999	0.00024196	6.7913e-05	1173	2.3988e-06	2.7155e-06	1195.3	306.76	2.4622e-06	2.7195e-06	342.12	112.95	94.77	33.869	2.656e-06	40.452	99.884	166.306	215.359	-62.404	154.888	209.217	-62.599	-57.873	171.466	-49.247	-58.483	-54.107	-53.522	-48.930	-24.756	-49.517	-8191	255	
2094.911	1	1	0	0	0.23155	0.26493	0.098681	0.03438	0.27953	0.13944	0.28653	0.39094	0.11501	0.12045	0.16836	0.11492	0.1509	0.052487	0.18252	0.28976	-3.8042	-4.1146	-3.9458	-4.5979	-3.8896	-4.1083	-4.3604	-3.7271	-4.3354	-4.0729	-3.9188	-4.3542	-4.0208	-3.9833	-4.1604	-3.7771	183.313	274.213	237.416	261.609	-44.625	-10.030	233.628	217.367	128.839	203.773	-70.208	-70.520	261.346	247.663	204.286	132.962	0.00086809	6.6387e-05	6.3944e-05	1321.5	3.0123e-06	2.1838e-06	1323.6	349.1	4.6071e-06	1.6406e-07	401.53	134.45	116.49	40.09	1.1363e-06	49.616	0.00022978	0.00024889	6.6843e-05	1171.3	2.5025e-06	2.7309e-06	1192.8	304.9	2.5577e-06	2.6997e-06	340.56	112.24	95.461	33.798	2.5833e-06	40.208	98.126	107.356	-9.435	-62.493	168.169	26.101	-62.769	-57.786	190.276	36.012	-58.325	-54.093	-53.445	-49.081	-35.387	-49.538	-8191	255	
2095.007	1	1	0	0	0.11004	0.15163	0.037277	0.065291	0.055451	0.31901	0.088308	0.22461	0.11232	0.11562	0.038193	0.16361	0.12594	0.21335	0.026172	0.30238	-3.9625	-4.1646	-3.975	-4.3354	-4.0188	-4.0042	-4.5604	-3.9	-4.125	-4.0854	-4.0208	-4.4833	-3.9833	-4.1271	-4.2479	-3.8771	283.201	100.755	279.656	242.999	276.892	-25.182	280.878	208.710	273.913	28.127	217.892	-73.170	-48.287	268.993	-52.625	271.548	0.00037373	0.00035504	0.00010364	1317.4	3.9058e-06	1.3584e-06	1325.3	348.1	2.0305e-06	1.2446e-06	404.09	134.6	116.22	40.072	4.881e-06	49.593	0.00023836	0.00024369	6.4894e-05	1166.1	2.6054e-06	2.6614e-06	1190.3	303.98	2.6496e-06	2.6478e-06	339.35	112.08	96.118	33.666	2.5243e-06	40.213	81.149	8.965	-30.822	-62.561	103.156	-66.890	-62.727	-57.947	100.792	274.366	-58.356	-53.909	-53.524	-48.908	0.474	-49.823	-8191	255	
2095.103	1	1	0	0	0.12897	0.13975	0.231	0.1969	0.069601	0.060505	0.092118	0.14275	0.15221	0.27948	0.11313	0.24816	0.043069	0.15389	0.13045	0.05001	-3.7771	-4.2	-3.8104	-4.5958	-3.9313	-3.8479	-4.6687	-4.0896	-4.0146	-4.2812	-3.8458	-4.5167	-4.0771	-4.0604	-4.15	-3.9167	254.162	94.312	122.871	266.649	-34.112	180.662	251.751	254.154	229.560	174.127	219.378	-52.765	247.999	-24.155	13.508	-45.076	0.00054832	0.00033125	0.00014233	1316.2	1.7526e-06	2.5289e-06	1324.8	348.07	4.1827e-07	1.743e-06	403.18	134.02	116.02	39.971	3.0962e-06	49.582	0.00024775	0.00024099	6.3093e-05	1169.6	2.7045e-06	2.6416e-06	1186.8	305.27	2.7403e-06	2.6321e-06	337.51	112.95	96.559	33.525	2.452e-06	40.625	74.457	-33.003	283.264	-62.415	60.142	51.487	-62.604	-57.897	-27.820	9.166	-58.290	-53.875	-53.296	-48.983	28.049	-49.780	-8191	255	
2095.199	1	1	0	0	0.18731	0.12197	0.070963	0.028683	0.1241	0.16658	0.42132	0.16069	0.32655	0.069982	0.37836	0.17129	0.0246	0.15573	0.18404	0.19056	-3.7104	-4.2688	-3.7604	-4.2125	-3.9813	-3.8896	-4.5437	-3.9771	-3.9208	-4.2188	-3.7396	-4.4667	-4.2708	-3.8479	-4.2188	-4.0417	220.187	39.649	209.859	57.143	-31.024	212.161	227.050	259.466	10.864	248.725	256.363	-19.883	93.011	153.694	-61.823	178.120	0.00018925	0.00042198	2.5029e-05	1318.2	2.8396e-06	3.6269e-06	1321.6	348.86	1.0282e-06	2.3112e-06	402.11	134.44	115.88	40.156	1.7876e-06	49.833	0.00024903	0.00023769	6.101e-05	1176	2.697e-06	2.5961e-06	1182.1	307.59	2.7065e-06	2.6056e-06	336.56	114.09	96.543	33.47	2.4411e-06	41.114	163.200	-18.532	-10.643	-62.457	-16.413	275.974	-62.716	-57.907	-36.105	-20.863	-58.260	-54.090	-53.667	-48.857	-14.100	-49.826	-8191	255	
2095.295	1	1	0	0	0.050455	0.088573	0.10507	0.095587	0.23857	0.10487	0.22198	0.12213	0.075897	0.15832	0.21059	0.074489	0.14306	0.096572	0.10105	0.061217	-3.5854	-4.325	-3.6937	-4.2646	-4.1771	-3.8792	-4.6438	-4.1062	-3.8812	-4.2063	-4.0646	-4.0375	-4.1937	-3.8333	-4.2042	-4.0417	172.162	189.044	50.565	223.289	-11.860	278.901	215.956	210.392	99.690	213.932	251.906	99.627	-64.031	-16.774	167.335	17.448	0.0005553	0.0005269	5.2951e-05	1321.7	4.5886e-06	2.2176e-06	1323.7	348.05	3.4054e-06	6.1836e-06	402.61	134.29	116.24	40.261	1.3521e-06	49.46	0.00024792	0.00023651	6.1244e-05	1183.3	2.6995e-06	2.5523e-06	1185.7	309.52	2.6995e-06	2.5519e-06	337.62	114.83	96.262	33.352	2.5188e-06	41.311	44.169	-7.272	109.784	-62.594	76.633	-5.250	-62.602	-57.765	56.884	39.076	-58.363	-54.021	-53.674	-48.734	185.827	-49.699	-8191	255	
2095.392	1	1	0	0	0.15087	0.23715	0.39972	0.094529	0.16518	0.047593	0.34875	0.062788	0.068401	0.16468	0.22827	0.19176	0.097595	0.12945	0.17767	0.15414	-3.5646	-4.4042	-3.8937	-4.175	-4.2896	-3.9792	-4.5229	-4.0729	-3.95	-4.3708	-4.0687	-4.1792	-4.3083	-3.7167	-4.4104	-4.2438	-7.293	-56.693	56.909	258.795	19.090	-33.109	220.683	41.914	210.718	193.311	-70.691	-71.636	134.061	119.131	89.944	188.118	0.00043984	0.00047167	8.6073e-05	1320.1	2.6049e-06	3.2415e-06	1321	348.86	2.3786e-06	1.8636e-06	402.07	134.87	116.55	39.991	5.5386e-06	49.632	0.00024305	0.00022919	6.3551e-05	1185.1	2.646e-06	2.4528e-06	1189.3	309.74	2.6238e-06	2.4498e-06	339.81	114.6	95.825	33.021	2.6149e-06	41.209	56.216	-8.501	37.635	-62.578	1.020	11.308	-62.705	-58.019	17.372	99.881	-58.397	-53.999	-53.741	-49.060	149.698	-49.919	-8191	255	
2095.512	1	1	0	0	0.27039	0.26446	0.027909	0.33764	0.11477	0.057231	0.18451	0.12037	0.27801	0.1822	0.17032	0.065709	0.19521	0.10259	0.21683	0.18756	-3.4396	-4.4521	-3.8542	-4.0896	-4.3187	-3.7021	-4.375	-4.175	-3.8167	-4.4021	-4.1687	-3.9625	-4.275	-3.8854	-4.1937	-4.2333	66.080	278.596	61.766	242.997	31.693	74.710	196.072	183.759	-7.970	-12.497	149.105	92.360	266.585	264.583	-2.608	90.482	7.9022e-05	0.00045483	4.4298e-05	1318.6	3.6472e-06	1.6226e-06	1318.8	348.05	3.0802e-06	1.1857e-06	401.59	134.38	116.25	40.115	2.5095e-06	49.649	0.00023767	0.00022154	6.6943e-05	1182.9	2.6082e-06	2.4087e-06	1194.5	308.88	2.5883e-06	2.4446e-06	342.84	114.33	95.494	33.113	2.7498e-06	41.147	250.763	-5.013	118.943	-62.446	-23.100	56.729	-62.671	-57.919	32.886	36.729	-58.300	-53.940	-53.371	-48.817	60.101	-49.912	-8191	255	
2095.608	1	1	0	0	0.11776	0.10187	0.10945	0.077203	0.093201	0.087219	0.19174	0.10938	0.087298	0.30181	0.13047	0.17212	0.16236	0.27953	0.2563	0.14369	-3.4729	-4.3542	-3.9688	-4.0167	-4.325	-3.8167	-4.3438	-4.3479	-3.7604	-4.3917	-4.1792	-4.0146	-4.4125	-3.8083	-4.0687	-4.2292	269.416	-1.675	222.127	222.608	168.730	-59.356	207.756	185.201	93.232	6.148	117.405	-38.749	207.390	255.635	211.161	183.788	0.00023905	0.00017871	8.6926e-06	1321.4	4.7542e-06	2.6088e-06	1326.2	348.69	1.2686e-06	1.8731e-06	401.15	134.26	115.67	39.867	2.8908e-06	49.804	0.00023369	0.00022775	7.0183e-05	1183.4	2.5647e-06	2.5029e-06	1202.6	308.85	2.5246e-06	2.5557e-06	344.59	114.25	95.035	33.46	2.8289e-06	41.188	156.132	128.568	-30.490	-62.473	53.729	183.458	-62.690	-57.849	281.082	161.043	-58.365	-54.334	-53.500	-48.851	18.939	-49.887	-8191	255	
2095.705	1	1	0	0	0.082188	0.19028	0.065989	0.33016	0.14082	0.16298	0.20814	0.2187	0.22425	0.0935	0.06718	0.18917	0.14823	0.16505	0.0907	0.058237	-3.4354	-4.3187	-3.8979	-3.9333	-4.3875	-3.8937	-4.1813	-4.3979	-3.8979	-4.4187	-4.0854	-3.9125	-4.4667	-4.0542	-3.9188	-4.3063	91.367	-44.873	255.862	277.516	238.360	234.790	218.516	273.530	233.215	191.159	-55.005	-46.672	189.293	8.638	-49.099	202.053	0.00021644	0.00020334	2.8789e-05	1318	2.6197e-06	3.2592e-06	1321.3	348.38	1.0787e-06	3.8582e-06	401.89	134.4	116.34	40.064	3.5415e-06	49.566	0.00022963	0.00024214	7.1452e-05	1182.5	2.5171e-06	2.6751e-06	1201	308.79	2.4809e-06	2.7217e-06	344.66	114.07	95.027	33.811	2.7925e-06	41.028	69.278	129.130	1.848	-62.502	13.925	130.397	-62.591	-57.668	98.036	177.765	-58.290	-54.025	-53.367	-48.682	-8.666	-49.859	-8191	255	
2095.801	1	1	0	0	0.19083	0.1475	0.21157	0.0894	0.060643	0.034931	0.31758	0.10407	0.31481	0.10005	0.22392	0.30187	0.26085	0.1448	0.10727	0.31045	-3.4417	-4.1896	-4.1417	-4.1021	-4.3063	-3.9021	-4.1125	-4.3354	-3.8917	-4.2708	-4.3875	-3.9021	-4.3375	-3.9833	-3.8312	-4.4271	161.831	164.213	35.541	268.098	-57.256	-59.110	246.949	234.495	-44.344	31.632	233.395	191.937	140.339	-0.120	202.715	236.682	0.0002594	0.00022501	4.0983e-05	1319	1.0258e-06	2.5344e-06	1323.4	348.33	2.2288e-06	3.3328e-06	402.82	134.75	116.35	40.116	2.5661e-06	49.699	0.0002261	0.00025332	7.0347e-05	1179.5	2.5102e-06	2.7767e-06	1198.8	307.64	2.5086e-06	2.8203e-06	344.55	113.57	95.365	34.06	2.756e-06	40.842	122.536	117.359	29.469	-62.404	232.808	101.470	-62.604	-58.151	158.995	2.293	-58.211	-53.952	-53.591	-48.900	30.226	-49.805	-8191	255	
2095.897	1	1	0	0	0.11073	0.2897	0.18368	0.24307	0.074864	0.082697	0.11717	0.079338	0.17018	0.058731	0.029424	0.16008	0.2186	0.09098	0.11661	0.0472	-3.6937	-4.0708	-4.2917	-3.9188	-4.3354	-4.0563	-4.1333	-4.4625	-3.9104	-4.2354	-4.3083	-3.8333	-4.3187	-4.1312	-3.7875	-4.5479	233.452	-4.939	134.133	216.714	154.154	173.186	107.231	281.896	117.520	26.383	177.164	206.297	240.916	12.955	151.874	66.466	0.00076933	0.00012798	9.8772e-05	1318.7	2.2926e-06	4.019e-06	1322.4	347.5	3.2476e-06	2.0667e-06	402.02	134.1	116.32	40.203	1.9477e-06	49.347	0.00023591	0.00026071	6.9835e-05	1175.1	2.6333e-06	2.8449e-06	1196.5	306.63	2.6508e-06	2.8453e-06	343.75	112.83	96.532	34.108	2.7312e-06	40.59	95.232	-52.635	-69.792	-62.438	172.566	31.101	-62.508	-57.750	187.711	42.696	-58.438	-53.888	-53.505	-48.724	272.889	-49.700	-8191	255	
2095.993	1	1	0	0	0.1031	0.18428	0.18178	0.20091	0.091554	0.3046	0.20824	0.094866	0.22754	0.078775	0.050457	0.14968	0.15251	0.22507	0.057609	0.14629	-3.3167	-3.9562	-4.1438	-3.9021	-4.0479	-4.0646	-3.9125	-4.2979	-3.9625	-3.9125	-4.55	-3.8208	-4.1687	-4.1583	-3.7104	-4.3833	173.305	-13.331	30.108	269.990	281.276	45.649	249.258	156.008	146.321	115.437	98.639	226.418	260.840	266.895	-20.882	-31.132	0.00034098	0.00015173	3.6182e-05	1318.4	4.2144e-06	2.0432e-06	1323	348.77	4.7183e-06	4.0192e-07	402.5	134.07	116.09	39.996	1.5829e-06	49.526	0.0002494	0.00026054	6.9564e-05	1172.2	2.7875e-06	2.837e-06	1196.1	306.65	2.7877e-06	2.8318e-06	342.77	112.89	97.393	33.972	2.6629e-06	40.746	93.129	-0.557	20.087	-62.479	171.948	78.258	-62.531	-57.590	200.969	-36.188	-58.306	-54.183	-53.421	-48.935	37.197	-49.723	-8191	255	
2096.112	1	1	0	0	0.17094	0.175	0.12586	0.070875	0.033963	0.087836	0.26503	0.20355	0.092263	0.29261	0.27192	0.062826	0.11123	0.025329	0.11472	0.16403	-3.5417	-3.7542	-4.275	-3.9396	-4.1854	-4.1708	-3.9458	-4.4333	-4.0979	-3.9292	-4.5167	-3.8479	-4.1979	-4.1708	-3.6771	-4.3479	44.259	148.475	234.040	-28.147	24.516	-22.754	224.505	232.439	145.282	256.865	-53.145	60.820	-56.724	186.695	161.108	-39.738	0.00041652	0.00040704	0.00010591	1320.6	8.4595e-07	2.3944e-06	1326.9	348.01	1.7501e-06	6.9479e-07	401.65	133.93	116.41	40.108	4.7986e-06	49.661	0.00026013	0.00025538	6.7268e-05	1175.2	2.8626e-06	2.7862e-06	1191.2	307.75	2.8703e-06	2.7683e-06	340.76	113.62	97.864	33.891	2.5677e-06	41.093	66.026	7.634	271.098	-62.477	262.921	43.385	-62.668	-57.750	69.661	46.677	-58.431	-53.900	-53.471	-48.858	24.603	-49.730	-8191	255	
2096.208	1	1	0	0	0.22506	0.27785	0.049574	0.077369	0.1108	0.22075	0.090724	0.23789	0.01582	0.022255	0.20568	0.308	0.035348	0.035094	0.12179	0.038353	-3.6292	-3.9208	-4.3625	-4.0521	-4.0479	-4.3146	-3.95	-4.3187	-3.9875	-3.7708	-4.4375	-3.9708	-4.0583	-4.4479	-3.8104	-4.1875	185.614	256.161	7.647	271.631	35.020	-16.255	137.978	275.013	256.817	263.569	-20.969	177.222	249.345	136.043	-48.293	-55.789	0.00029392	0.00029605	0.00015294	1314.5	1.7781e-06	3.0663e-06	1321.7	347.83	1.5665e-06	3.2389e-06	402.91	134.27	116.51	39.999	2.1422e-06	49.832	0.00026181	0.00025101	6.5101e-05	1180.8	2.8694e-06	2.7593e-06	1187.3	309.97	2.8585e-06	2.7311e-06	339.84	114.77	97.601	33.786	2.5161e-06	41.527	60.392	16.554	-37.696	-62.541	223.004	-51.503	-62.567	-57.749	259.772	205.892	-58.399	-54.078	-53.505	-48.960	23.655	-49.979	-8191	255	
2096.304	1	1	0	0	0.17125	0.07123	0.12033	0.25653	0.092333	0.17253	0.17336	0.16846	0.20385	0.19631	0.32274	0.13991	0.048465	0.26896	0.24098	0.04658	-3.8208	-3.9167	-4.2979	-3.9958	-4.0229	-4.2646	-3.9062	-4.3021	-4.1417	-3.8208	-4.4521	-3.9604	-3.9958	-4.2896	-3.8937	-4.1958	279.667	157.577	-21.100	-30.300	-59.694	165.649	283.014	226.279	152.276	179.205	251.866	268.495	225.421	177.347	2.748	120.642	0.00026107	0.00055642	5.3512e-05	1319.4	4.1083e-06	7.33e-07	1322	348.85	2.242e-06	3.555e-06	401.94	134.34	116.25	40.142	1.8673e-06	49.49	0.00025843	0.00024502	6.4561e-05	1186.6	2.8002e-06	2.6855e-06	1186.1	311.26	2.8036e-06	2.64e-06	340.25	115.56	97.085	33.594	2.5914e-06	41.69	80.402	-30.470	-34.137	-62.412	-35.220	186.302	-62.584	-57.842	-19.504	20.420	-58.068	-53.887	-53.603	-48.827	204.909	-49.875	-8191	255	
2096.400	1	1	0	0	0.22509	0.22543	0.081459	0.2285	0.18631	0.090683	0.10252	0.10685	0.16423	0.094654	0.14797	0.2251	0.13284	0.11491	0.17733	0.21863	-3.7583	-3.6708	-4.0625	-4.0208	-3.8292	-4.4958	-4.0104	-4.1438	-4.1625	-3.7313	-4.3292	-4.0917	-4.0729	-4.3646	-3.9208	-4.1625	114.335	-48.829	47.678	262.819	179.033	4.733	232.352	221.240	145.974	-4.238	171.974	278.038	-49.978	213.042	232.137	148.048	0.00026446	0.00019748	0.00010831	1316.8	2.6278e-06	3.4007e-06	1319.8	348.16	3.3553e-06	5.0575e-06	400.87	134.11	116.75	39.986	3.8276e-06	49.566	0.00025469	0.00023818	6.7262e-05	1189	2.771e-06	2.6057e-06	1191.1	311.87	2.7719e-06	2.5513e-06	343.18	115.45	96.641	33.319	2.7003e-06	41.679	104.819	-23.266	104.114	-62.510	-8.844	-24.101	-62.789	-57.730	248.885	21.696	-58.270	-53.998	-53.488	-49.048	162.349	-49.866	-8191	255	
2096.496	1	1	0	0	0.17752	0.24369	0.21195	0.18184	0.24089	0.13078	0.23962	0.13437	0.10031	0.11805	0.099797	0.18686	0.069955	0.19125	0.26466	0.067841	-3.9313	-3.7625	-4.1708	-4.1604	-3.7875	-4.3187	-4.1521	-4.1917	-4.3604	-3.7625	-4.0583	-4.1438	-3.8146	-4.5083	-3.9437	-3.9188	189.645	-9.728	-18.199	203.277	47.044	54.798	213.718	-9.404	207.489	206.411	25.946	259.123	197.806	-45.917	129.072	74.518	0.00020323	0.0002016	5.3622e-05	1319.3	8.1766e-07	1.2028e-06	1317.5	348.6	3.7485e-06	2.0981e-06	401.72	134.85	116.04	40.154	1.7095e-06	49.467	0.00025023	0.00022893	7.002e-05	1187.6	2.704e-06	2.539e-06	1196.1	311.14	2.7185e-06	2.5129e-06	345.68	115.33	96.19	33.423	2.838e-06	41.524	87.385	-0.449	74.722	-62.531	31.024	26.958	-62.436	-57.908	-22.824	-6.294	-58.353	-53.897	-53.280	-48.934	114.078	-49.782	-8191	255	
2096.593	1	1	0	0	0.17077	0.13513	0.0541	0.3208	0.16647	0.089608	0.11542	0.25871	0.099623	0.17318	0.012585	0.27287	0.16282	0.13578	0.29428	0.084945	-3.8604	-3.7687	-4.2583	-4.2542	-3.775	-4.3333	-4.3604	-4.1583	-4.3083	-3.7458	-4.2167	-4.4083	-3.9417	-4.2125	-4.05	-4.05	22.771	-14.379	267.913	-52.709	134.028	-63.738	160.354	220.667	272.457	-59.117	54.982	240.757	182.728	225.439	-15.640	227.373	0.00031677	5.0254e-05	4.2658e-05	1317.1	6.4129e-06	2.252e-06	1318.7	348.88	3.6613e-06	4.0945e-06	402.32	134.33	116.33	39.924	2.389e-06	49.683	0.00024557	0.00023232	7.2785e-05	1185.8	2.6252e-06	2.5881e-06	1201.7	310.19	2.6329e-06	2.5848e-06	346.89	114.74	95.517	33.6	2.8583e-06	41.304	136.991	-53.466	-58.792	-62.418	7.908	204.249	-62.522	-57.765	-20.067	188.401	-58.259	-54.054	-53.332	-48.638	-19.749	-49.760	-8191	255	
2096.689	1	1	0	0	0.047241	0.13057	0.22128	0.2489	0.15627	0.070019	0.43857	0.29354	0.042005	0.14694	0.14435	0.26502	0.12467	0.15286	0.13228	0.097938	-4.0021	-3.9729	-4.1458	-4.3812	-3.7875	-4.3375	-4.2167	-3.9938	-4.3229	-3.8479	-4.1708	-4.35	-3.8604	-4.2708	-4.1708	-4.0167	158.814	279.439	217.648	225.339	-16.208	118.194	171.848	224.082	269.596	273.479	174.485	278.152	205.761	41.938	47.368	235.841	0.00031392	0.00016771	9.3843e-05	1323.8	3.4415e-06	2.0712e-06	1326.5	349.11	1.7117e-06	1.049e-06	403.49	134.59	116.19	39.75	3.6359e-06	49.543	0.00023637	0.00024246	7.3e-05	1185.7	2.5409e-06	2.7276e-06	1203.9	310.14	2.5696e-06	2.7621e-06	347.19	114.75	95.329	34.002	2.8715e-06	41.252	188.916	134.492	283.091	-62.517	36.318	169.230	-62.650	-57.824	280.522	116.687	-58.284	-54.035	-53.587	-48.770	56.404	-49.571	-8191	255	
2096.785	1	1	0	0	0.070452	0.39597	0.073024	0.23388	0.06857	0.029491	0.068445	0.27507	0.031635	0.076108	0.20768	0.16816	0.15988	0.074142	0.26058	0.13358	-3.9688	-4.0125	-3.95	-4.1958	-3.6958	-3.9938	-4.2958	-3.8937	-4.2063	-3.8833	-4.1792	-4.3271	-3.8812	-4.2458	-4.35	-3.8521	-20.865	128.651	77.896	244.574	-31.181	114.617	263.551	164.332	-52.496	158.556	-22.966	216.041	-67.299	48.366	166.497	-4.812	7.009e-05	9.0348e-05	6.0155e-05	1318.7	2.0039e-06	3.59e-06	1325.5	349.6	1.9578e-06	2.6244e-07	402.33	134.97	116.03	39.812	3.1889e-06	49.696	0.00023549	0.00025771	7.2761e-05	1185.5	2.5647e-06	2.9012e-06	1205.2	309.74	2.6285e-06	2.9176e-06	347.58	114.67	96.051	34.304	2.8671e-06	41.131	33.545	62.473	-72.985	-62.650	185.449	169.046	-62.782	-57.709	259.091	149.285	-58.223	-53.965	-53.551	-48.701	26.529	-50.024	-8191	255	
2096.904	1	1	0	0	0.10327	0.082902	0.072434	0.23059	0.20539	0.13191	0.23726	0.1456	0.09734	0.14256	0.097482	0.27684	0.14562	0.098848	0.22075	0.26053	-3.8125	-4.0542	-3.7313	-4.4604	-3.725	-3.9917	-4.2979	-3.9458	-4.2875	-3.9354	-3.9437	-4.4	-3.9521	-4.2521	-4.2125	-3.8187	183.601	171.440	219.690	195.573	120.784	-34.532	164.273	62.847	173.669	255.314	228.125	281.466	241.165	263.539	-46.524	8.682	0.00036246	0.00015686	4.7123e-05	1321.1	4.9645e-06	2.2741e-06	1324.7	349.55	5.3949e-06	1.7683e-06	402.45	134.34	116.71	40.008	4.9643e-07	49.762	0.00024528	0.00026746	7.1889e-05	1182.1	2.6676e-06	2.9529e-06	1202.7	308.07	2.7439e-06	2.9323e-06	345.49	113.75	96.981	34.277	2.8065e-06	40.785	61.027	150.604	240.462	-62.722	164.974	55.443	-62.646	-57.916	217.298	140.052	-58.406	-54.106	-53.431	-48.887	36.725	-49.942	-8191	255	
2097.000	1	1	0	0	0.12251	0.080955	0.21866	0.21754	0.21458	0.070779	0.095793	0.36602	0.17864	0.20164	0.33108	0.13995	0.18308	0.12977	0.14437	0.18064	-3.8563	-3.9729	-3.7833	-4.3896	-3.8458	-4.0771	-4.4083	-3.9896	-4.1604	-4.1	-3.8854	-4.3708	-3.9729	-4.075	-4.3	-3.9771	-22.208	107.748	-60.555	212.321	25.187	245.903	183.665	243.520	106.097	25.636	283.687	-49.576	169.658	-54.362	68.200	114.890	0.00049198	0.00022688	7.3499e-05	1319.9	5.3517e-06	3.0487e-06	1319.2	348.15	2.0283e-06	1.3551e-06	401.93	134.18	116.4	39.921	2.9196e-06	49.582	0.00025467	0.00026466	7.0132e-05	1174.7	2.7932e-06	2.8843e-06	1196.6	306.56	2.8347e-06	2.8571e-06	342.81	113.25	97.405	34.043	2.7173e-06	40.707	105.033	-36.890	5.480	-62.484	141.228	-12.105	-62.637	-57.763	138.725	164.881	-58.440	-54.208	-53.477	-48.799	-13.667	-49.816	-8191	255	
2097.073	1	1	0	0	0.16924	0.15092	0.15588	0.20649	0.16195	0.14973	0.2456	0.077295	0.14411	0.043106	0.19141	0.073809	0.15905	0.11785	0.18849	0.20935	-3.8563	-4.3229	-3.775	-4.4563	-3.9375	-3.9792	-4.2854	-3.9313	-4.0104	-4.2354	-3.7542	-4.3458	-4.0312	-3.9375	-4.3042	-3.9771	259.201	170.493	203.364	237.176	55.946	78.965	261.486	150.544	-36.934	54.468	212.443	128.110	199.438	219.806	-41.737	278.902	0.00060619	0.00029096	0.00011672	1317	3.4465e-06	2.2392e-06	1320.4	346.89	1.8519e-06	6.1376e-06	401.45	133.36	115.86	39.98	5.7358e-06	49.625	0.00026448	0.00026038	6.8289e-05	1175.9	2.9108e-06	2.8569e-06	1194.9	307.99	2.9558e-06	2.8538e-06	341.06	114.02	98.091	34.024	2.6866e-06	41.262	51.914	-74.889	-33.180	-62.571	199.160	2.095	-62.582	-57.908	123.425	-37.663	-58.360	-54.169	-53.685	-48.779	-0.473	-49.806	-8191	255	
2097.192	1	1	0	0	0.035453	0.11738	0.27536	0.11593	0.11794	0.069511	0.33943	0.13405	0.19036	0.17012	0.11442	0.18774	0.18865	0.237	0.17457	0.13148	-3.6771	-4.2417	-3.6708	-4.2625	-4.0312	-4.0188	-4.5479	-4.0687	-4.1771	-4.3021	-3.9813	-4.3021	-4.2625	-3.9729	-4.375	-4.0542	59.175	106.807	146.565	109.490	282.920	47.766	184.127	184.752	86.979	180.221	155.070	194.764	189.498	247.057	255.061	185.962	0.00033461	0.00026783	8.641e-05	1314.7	3.587e-06	2.4554e-06	1317.4	346.92	5.1689e-06	7.1325e-07	400.36	133.84	116.59	39.943	1.738e-06	49.335	0.0002734	0.0002635	6.821e-05	1185	3.0253e-06	2.9204e-06	1193.2	311.48	3.0885e-06	2.9679e-06	342.3	116.23	98.972	34.195	2.7358e-06	41.956	75.668	37.718	-53.142	-62.606	36.630	36.996	-62.463	-57.708	-2.510	240.336	-58.428	-54.016	-53.587	-48.913	207.465	-49.955	-8191	255	
2097.288	1	1	0	0	0.074057	0.13485	0.14808	0.16138	0.2373	0.23299	0.29218	0.45591	0.13302	0.012594	0.257	0.26897	0.26728	0.12411	0.16611	0.13268	-3.6229	-4.2667	-3.7812	-4.2167	-4.1438	-3.7396	-4.5354	-4.0167	-3.9167	-4.1708	-3.825	-4.1667	-4.1667	-4.0042	-4.3021	-3.9792	-25.589	-71.268	-31.546	103.095	-46.145	-1.930	167.442	227.749	139.186	196.076	225.630	63.365	225.444	247.512	134.150	197.025	1.8544e-05	0.00049948	6.3529e-05	1317.4	4.7192e-06	5.9281e-06	1314.1	346.77	2.6119e-06	5.0935e-06	400.66	133.31	116.22	40	2.1445e-06	49.606	0.00027909	0.00026631	6.8882e-05	1198	3.0339e-06	2.8843e-06	1193	313.57	3.0223e-06	2.884e-06	342.68	116.64	98.368	33.942	2.7783e-06	42.216	254.656	29.059	278.894	-62.336	-20.975	-14.172	-62.714	-57.762	1.028	30.543	-58.440	-54.207	-53.180	-48.993	160.953	-49.802	-8191	255	
2097.385	1	1	0	0	0.20172	0.12753	0.076976	0.20576	0.26525	0.064459	0.34898	0.1358	0.11065	0.072578	0.31481	0.13522	0.082887	0.07334	0.19922	0.15087	-3.4604	-4.1625	-3.7958	-4.1687	-4.2125	-3.6521	-4.425	-4.075	-3.8104	-4.3521	-3.8979	-4.1417	-4.3583	-4.0125	-4.2896	-4.0833	-49.536	259.227	-27.540	204.174	204.505	227.909	189.059	258.509	-71.302	-29.615	213.014	-18.493	-20.101	69.126	283.159	128.875	0.00015157	0.0003391	7.3414e-05	1313	3.208e-06	1.838e-06	1316.7	347.57	3.1056e-06	2.7163e-06	400.24	133.77	115.87	39.678	4.196e-06	49.33	0.00027226	0.00025659	7.0099e-05	1196	2.9388e-06	2.7207e-06	1196.5	312.63	2.8727e-06	2.6797e-06	342.66	115.65	96.727	33.234	2.7455e-06	41.497	102.523	-24.054	10.084	-62.383	65.934	1.074	-62.466	-57.767	223.051	-8.207	-58.294	-54.141	-53.480	-48.895	178.545	-49.904	-8191	255	
2097.481	1	1	0	0	0.075336	0.11598	0.15327	0.055248	0.12711	0.10787	0.15892	0.2068	0.095234	0.059794	0.24591	0.18484	0.16659	0.11663	0.11375	0.073034	-3.4813	-4.2708	-3.8208	-4.3063	-4.1208	-3.7938	-4.4292	-4.3125	-3.8604	-4.4729	-4.0563	-4.075	-4.4896	-3.7687	-4.1083	-4.225	38.353	156.287	195.624	175.797	101.790	77.335	224.931	-66.677	258.936	236.880	220.036	247.158	255.436	274.490	-24.755	3.720	0.00046197	0.00026721	6.9122e-05	1314.6	3.2109e-06	1.5123e-06	1311.2	345.68	1.9631e-06	2.5432e-06	398.43	132.95	115.11	39.655	2.7756e-06	49.329	0.00024932	0.0002316	6.87e-05	1182.7	2.6812e-06	2.4661e-06	1188.3	307.79	2.6282e-06	2.4644e-06	340.51	113.8	95.048	32.855	2.7274e-06	40.932	109.985	-32.077	46.383	-62.469	109.168	6.196	-62.638	-57.569	54.647	103.126	-58.349	-53.874	-53.329	-48.758	133.819	-49.808	-8191	255	
2097.601	1	1	0	0	0.29539	0.16608	0.22991	0.22501	0.12417	0.097548	0.12794	0.26601	0.07286	0.14786	0.173	0.1341	0.066861	0.17361	0.16369	0.080702	-3.5021	-4.1354	-3.8563	-4.0188	-4.3417	-3.7979	-4.1583	-4.2125	-3.8312	-4.275	-4.2229	-3.8271	-4.3917	-4.0292	-4.1771	-4.1021	-1.476	-0.592	83.038	240.491	255.288	217.782	146.116	197.511	19.493	-61.037	183.361	205.156	-69.812	273.083	-41.627	109.179	0.00018953	9.2073e-05	8.5732e-05	1310.3	2.703e-06	2.0447e-06	1311.8	345.82	3.9169e-06	2.9454e-06	399.13	134.08	115.99	39.63	3.8993e-06	49.112	0.00023286	0.00022332	6.8914e-05	1174.4	2.5365e-06	2.442e-06	1189.6	306.34	2.5076e-06	2.5114e-06	342.23	113.4	94.511	33.102	2.7962e-06	40.854	91.850	88.746	-41.425	-62.415	-19.528	143.523	-62.631	-57.942	21.770	108.663	-58.405	-53.891	-53.558	-48.653	233.176	-49.692	-8191	255	
2097.697	1	1	0	0	0.061668	0.1679	0.053083	0.1131	0.073709	0.039904	0.19398	0.12169	0.086407	0.20933	0.084824	0.059596	0.24662	0.12607	0.21389	0.11883	-3.5104	-4.1979	-3.9062	-4.0208	-4.2896	-3.8563	-4.0833	-4.2458	-3.7417	-4.2188	-4.2104	-3.825	-4.4	-3.7812	-4.0229	-4.4771	-11.883	16.768	92.196	216.299	282.940	165.003	240.669	203.587	-24.809	283.135	204.802	256.624	225.196	212.011	76.125	117.128	0.00015522	0.00017112	6.6867e-05	1311.2	8.3601e-07	5.1436e-06	1312.3	346.53	2.3909e-06	1.7548e-06	397.51	133.19	114.85	39.665	1.1115e-06	49.307	0.00022852	0.00023782	7.1101e-05	1175	2.517e-06	2.6272e-06	1192.3	307.28	2.5076e-06	2.7311e-06	343.37	113.65	94.576	33.703	2.887e-06	41.142	266.841	114.433	-70.038	-62.415	3.975	152.260	-62.628	-57.861	46.530	254.946	-58.220	-54.000	-53.500	-48.689	125.450	-49.624	-8191	255	
2097.794	1	1	0	0	0.1096	0.22519	0.0766	0.31175	0.029	0.25979	0.19973	0.34778	0.17659	0.031175	0.37908	0.37754	0.1885	0.14914	0.11046	0.18974	-3.4104	-4.2375	-4.25	-3.9562	-4.2	-4.0208	-4.2146	-4.3542	-3.9125	-4.1021	-4.1312	-3.8438	-4.35	-3.9667	-4.0667	-4.4083	283.058	275.430	169.601	-70.272	34.961	-35.094	-74.900	267.119	58.648	270.262	274.829	-39.396	271.613	5.968	151.759	110.330	0.0005886	0.00029373	6.2202e-05	1310.9	2.4355e-06	2.2451e-06	1314.1	345.15	2.7693e-06	1.6162e-06	397.76	133.67	114.82	39.569	4.3143e-06	49.277	0.00023425	0.00026208	7.3909e-05	1177.1	2.6051e-06	2.8847e-06	1195.2	307.63	2.5959e-06	2.9264e-06	344.3	113.75	95.379	34.078	2.8774e-06	41.047	104.282	146.835	-4.842	-62.407	152.398	202.005	-62.512	-57.676	145.235	135.822	-58.371	-53.945	-53.539	-48.891	23.664	-49.479	-8191	255	
2097.890	1	1	0	0	0.26399	0.012789	0.19536	0.17599	0.21694	0.12475	0.14261	0.2834	0.083196	0.2756	0.12745	0.22507	0.093935	0.18017	0.11689	0.18715	-3.6063	-4.1062	-4.2271	-3.8479	-4.5	-4.0563	-4.0208	-4.4167	-3.9146	-4.0979	-4.4563	-3.75	-4.4021	-4.1833	-4.0125	-4.5021	-58.601	-48.370	119.330	235.898	187.359	183.711	253.723	165.669	142.049	-34.170	222.030	257.319	7.606	232.318	-25.425	271.191	0.00051301	0.00014493	6.131e-05	1311.7	2.4343e-06	6.0251e-07	1321	347.05	4.5427e-06	2.0956e-06	399.21	133.46	115.16	39.884	1.3655e-06	49.501	0.00024281	0.00027075	7.2655e-05	1173.2	2.7035e-06	2.9476e-06	1196	306.85	2.7146e-06	2.9569e-06	344.06	113.18	96.338	34.117	2.8597e-06	40.796	76.102	5.203	-58.331	-62.422	219.377	252.449	-62.655	-57.749	168.612	39.324	-58.402	-53.825	-53.351	-48.787	84.533	-49.764	-8191	255	
2097.984	1	1	0	0	0.17484	0.094554	0.04507	0.17825	0.10458	0.12422	0.22548	0.23481	0.20075	0.18651	0.33926	0.06824	0.063268	0.052652	0.086875	0.23365	-3.5958	-4.0729	-4.375	-3.8479	-4.1125	-4.0792	-4.0417	-4.3812	-3.9354	-3.9833	-4.2417	-3.7938	-4.1771	-4.1354	-3.7812	-4.3292	132.709	236.372	11.577	-68.442	90.505	-20.693	234.326	152.441	-19.012	24.438	209.980	282.386	21.851	-3.994	142.652	250.588	0.00081479	0.00015149	8.3699e-05	1310	2.1282e-06	2.4268e-06	1312.1	346.17	2.0589e-06	2.8775e-06	398.22	133.32	115.24	39.661	3.1642e-06	49.307	0.0002592	0.00027439	7.3401e-05	1171.8	2.9266e-06	3.0186e-06	1194.5	307.72	3.0035e-06	3.0704e-06	346.21	113.99	98.578	34.471	2.9565e-06	41.358	77.645	215.648	257.908	-62.396	213.434	238.503	-62.598	-57.782	166.967	19.700	-58.271	-54.038	-53.387	-48.710	30.864	-49.719	-8191	255	
2098.080	1	1	0	0	0.16559	0.19763	0.13184	0.094387	0.096798	0.12523	0.057345	0.23848	0.1387	0.10504	0.060534	0.33985	0.25333	0.29676	0.27585	0.16483	-3.3792	-3.9583	-4.2312	-3.95	-4.225	-3.9917	-3.9688	-4.1583	-4.05	-3.9208	-4.3479	-3.9208	-4.1333	-4.2104	-3.6896	-4.375	-55.435	86.782	199.505	127.768	-12.654	218.312	37.196	188.575	-34.417	173.844	185.635	-69.443	68.337	249.950	69.359	-62.160	0.00021731	0.00029922	0.00012603	1312	2.9314e-06	5.6431e-06	1314.4	346.44	7.9519e-07	2.8147e-06	400.52	132.97	115.25	39.865	1.1636e-06	49.189	0.00028559	0.0002828	7.5007e-05	1180.1	3.1436e-06	3.078e-06	1198.2	310.21	3.1534e-06	3.054e-06	345.67	114.71	99.385	34.443	2.86e-06	41.755	93.100	-61.684	-9.554	-62.441	124.562	68.158	-62.580	-57.726	169.874	89.642	-58.296	-53.980	-53.396	-48.762	140.557	-49.725	-8191	255	
2098.201	1	1	0	0	0.096879	0.026857	0.088728	0.28663	0.15812	0.20901	0.11577	0.31842	0.058525	0.072934	0.13914	0.048861	0.12123	0.068637	0.34115	0.21825	-3.7104	-3.8042	-4.3146	-4.075	-4.0479	-4.0979	-4	-4.3187	-4.1062	-3.8187	-4.5792	-3.9896	-4.0667	-4.2208	-3.7854	-4.2771	118.318	79.467	241.211	247.016	-75.194	-12.042	198.027	222.793	23.125	245.236	196.780	-56.175	120.055	-23.046	87.768	1.247	0.0002621	0.00016494	7.2945e-05	1309.2	3.6783e-06	2.4624e-06	1317.5	347.08	3.1631e-06	3.0106e-06	401.08	133.31	116.38	39.756	3.3009e-06	49.354	0.00029236	0.00028052	7.3274e-05	1189.4	3.2269e-06	3.1182e-06	1195.2	313.84	3.2429e-06	3.091e-06	345.29	116.57	99.826	34.457	2.8171e-06	42.337	99.477	283.502	-67.669	-62.373	269.112	13.599	-62.600	-57.655	62.097	63.452	-58.196	-54.043	-53.757	-49.155	-1.406	-49.770	-8191	255	
2098.297	1	1	0	0	0.23784	0.16553	0.1071	0.17293	0.0407	0.0639	0.097946	0.11777	0.29308	0.034454	0.23629	0.066274	0.1404	0.08545	0.14444	0.14354	-3.7604	-3.8187	-4.2937	-4.0542	-3.9083	-4.3396	-3.9708	-4.2979	-4.1167	-3.6937	-4.5021	-3.9396	-3.8563	-4.3354	-3.7646	-3.9292	-21.651	197.965	276.052	186.169	255.659	191.744	181.722	107.907	187.840	-10.978	222.974	37.317	268.015	53.137	54.898	-41.711	0.00034633	0.00015593	3.9548e-05	1310.5	3.3005e-06	2.3898e-06	1318.1	346.85	2.6077e-06	4.2973e-06	399.7	133.6	115.45	39.825	1.1259e-06	49.414	0.00028873	0.00027394	7.1717e-05	1196.8	3.1279e-06	3.0022e-06	1194.5	314.67	3.1192e-06	2.9385e-06	344.09	117.14	98.661	34.114	2.8246e-06	42.516	129.237	-39.547	-41.022	-62.531	60.280	28.855	-62.616	-57.643	45.144	15.935	-58.380	-54.012	-53.625	-48.851	236.356	-49.811	-8191	255	
2098.369	1	1	0	0	0.34035	0.24379	0.15673	0.16812	0.085104	0.14238	0.065762	0.15857	0.16857	0.2253	0.066898	0.18392	0.2625	0.37407	0.33413	0.28553	-3.7958	-3.8146	-4.1917	-4.1646	-4.0354	-4.275	-4.0417	-4.1854	-4.1062	-3.7271	-4.3562	-4.0479	-3.8896	-4.4833	-3.9	-4.0312	238.935	-69.507	96.166	238.582	244.679	38.374	173.438	-54.799	-18.313	257.503	-60.931	261.352	187.145	264.490	254.387	-41.558	0.00034354	0.00038605	8.2015e-05	1310.9	4.0525e-06	1.0927e-06	1316.4	348.09	1.4108e-06	4.7305e-06	399.55	134.06	115.52	39.739	2.4158e-06	49.215	0.00028238	0.00026317	7.3519e-05	1201.1	3.0611e-06	2.9057e-06	1199.2	315.79	3.0918e-06	2.8556e-06	347.7	117.76	98.675	33.998	3.0474e-06	42.724	59.183	-39.727	-30.352	-62.505	-42.949	29.126	-62.565	-57.626	-38.479	19.125	-58.291	-54.355	-53.387	-48.787	184.053	-49.803	-8191	255	
2098.465	1	1	0	0	0.043214	0.17269	0.32056	0.25227	0.22662	0.1638	0.29059	0.22883	0.19037	0.031385	0.077361	0.12182	0.27872	0.17718	0.15323	0.16523	-3.9854	-3.6625	-4.0875	-4.2562	-3.8187	-4.4917	-4.0437	-4.1396	-4.1813	-3.6937	-4.3063	-4.225	-3.8708	-4.3271	-3.8667	-3.925	1.231	-1.167	72.485	-67.878	-67.403	97.213	271.566	227.830	-59.653	144.839	84.249	168.255	268.986	245.353	229.442	127.423	0.00047498	0.00032017	0.00012441	1310.1	3.5494e-06	2.153e-06	1313.6	347.68	4.5891e-06	2.0308e-06	399.15	133.84	115.65	39.736	3.6647e-06	49.241	0.00028691	0.00026381	8.0108e-05	1205.3	3.1516e-06	2.9607e-06	1211.7	317.16	3.1599e-06	2.9038e-06	353.21	117.94	98.606	34.066	3.2083e-06	42.55	108.014	4.197	111.238	-62.293	2.665	33.435	-62.559	-57.544	8.574	42.271	-58.532	-54.194	-53.472	-48.848	191.065	-49.929	-8191	255	
2098.586	1	1	0	0	0.31118	0.29639	0.070406	0.22403	0.025109	0.19626	0.21608	0.24389	0.020534	0.06497	0.11173	0.10449	0.30216	0.097688	0.083641	0.2669	-3.7833	-3.7833	-4.1667	-4.3125	-3.7833	-4.2792	-4.2812	-4.0062	-4.1896	-3.8021	-4.2208	-4.2646	-3.775	-4.3229	-3.9292	-3.9458	228.489	78.214	132.162	220.860	258.202	-52.281	202.830	247.806	260.624	48.411	245.137	207.510	205.478	190.808	155.651	247.429	0.00018551	0.0004138	7.5159e-05	1316.5	4.1609e-06	6.5877e-07	1314.1	347.68	1.6228e-06	3.7548e-06	401.92	133.4	115.25	39.609	1.9993e-06	49.308	0.00027723	0.00025866	8.0605e-05	1199	2.9168e-06	2.844e-06	1210.3	313.58	2.8815e-06	2.8023e-06	350.77	115.94	96.482	33.809	3.0621e-06	41.745	280.785	57.679	55.185	-62.447	-6.401	152.490	-62.514	-57.790	46.908	127.026	-58.278	-54.018	-53.478	-48.749	-6.230	-49.808	-8191	255	
2098.682	1	1	0	0	0.098982	0.20442	0.17897	0.13169	0.092473	0.21806	0.1528	0.2449	0.28433	0.069212	0.062861	0.09288	0.29037	0.20632	0.1561	0.07428	-3.9979	-3.7438	-4.0333	-4.2042	-3.7062	-4.2583	-4.1188	-3.9083	-4.2312	-3.8792	-4.2583	-4.3854	-3.7646	-4.2	-4.2375	-3.8563	205.744	197.037	-8.127	-41.507	-3.282	-69.587	131.871	227.918	49.237	206.627	-45.730	213.698	189.757	123.656	17.512	181.752	0.00020278	0.0003886	0.00012069	1313.8	3.1732e-06	4.43e-06	1312.2	347.57	2.4677e-06	1.0647e-06	400.06	133.94	115.37	39.618	2.5816e-06	49.294	0.0002523	0.0002548	7.693e-05	1187.5	2.6808e-06	2.8386e-06	1201.8	310.67	2.6783e-06	2.8127e-06	346.87	114.6	95.032	33.857	2.9305e-06	41.177	70.116	89.951	-45.694	-62.513	105.634	161.546	-62.685	-57.678	-9.641	136.359	-58.486	-54.152	-53.492	-48.652	79.469	-49.357	-8191	255	
2098.778	1	1	0	0	0.13379	0.11616	0.10063	0.1754	0.13132	0.10502	0.053762	0.084681	0.089657	0.14498	0.23107	0.13041	0.19427	0.27758	0.05452	0.13948	-4.0021	-3.8458	-3.9875	-4.3688	-3.7333	-4.1937	-4.35	-3.8396	-4.3979	-3.9625	-3.9917	-4.4021	-3.8458	-4.0771	-4.1604	-3.8896	24.596	133.258	161.108	175.592	16.991	-18.890	198.803	270.609	277.449	172.064	-65.626	258.226	225.305	260.855	267.379	208.312	0.0001998	0.00036723	2.1623e-05	1307.6	2.4179e-06	1.8059e-06	1311.6	346.55	1.0605e-06	4.0721e-06	398.16	133.52	114.73	39.75	2.1106e-06	49.457	0.00023776	0.00025857	7.332e-05	1178.8	2.5492e-06	2.8756e-06	1193.4	307.47	2.5875e-06	2.8488e-06	342.72	113.49	94.509	33.92	2.8103e-06	40.697	193.487	173.290	10.698	-62.468	-44.382	72.918	-62.624	-57.719	-43.493	164.782	-58.497	-53.796	-53.240	-48.948	-2.790	-49.704	-8191	255	
2098.874	1	1	0	0	0.15213	0.10777	0.15439	0.17084	0.14314	0.13402	0.2221	0.24026	0.21901	0.15937	0.18677	0.18709	0.14898	0.083174	0.12829	0.23833	-3.9688	-3.9292	-3.7583	-4.4583	-3.8458	-4.0125	-4.2562	-3.8438	-4.0167	-3.9479	-3.8521	-4.3104	-3.9188	-4.1042	-4.2833	-3.8187	279.114	2.178	-3.621	276.956	-29.821	273.080	218.397	211.539	251.387	149.099	198.748	-22.850	151.573	187.052	186.113	185.141	0.00040094	0.00022509	2.2992e-05	1313.2	1.9717e-06	3.9293e-06	1309.6	346.3	2.5214e-06	3.1536e-06	395.72	133.34	114.64	39.615	1.6165e-06	49.068	0.00023866	0.00026249	7.1142e-05	1171.8	2.593e-06	2.8863e-06	1188.5	305.44	2.6386e-06	2.8553e-06	340.66	112.54	95.297	33.859	2.7669e-06	40.308	77.956	23.184	-51.463	-62.567	129.840	62.197	-62.650	-57.716	183.291	84.565	-58.310	-54.068	-53.280	-48.744	-65.226	-49.360	-8191	255	
2098.970	1	1	0	0	0.15715	0.077811	0.17457	0.088618	0.068171	0.044248	0.20265	0.1612	0.13895	0.14264	0.099326	0.12172	0.29391	0.069153	0.1105	0.13101	-3.8417	-4.0479	-3.8271	-4.3479	-3.9813	-4.0417	-4.3854	-3.9292	-4.1208	-4.0583	-3.8729	-4.4521	-3.9437	-4.0458	-4.2771	-3.8354	-12.235	195.149	215.110	41.799	185.053	-31.840	277.218	219.712	226.506	152.385	-53.309	-17.586	-28.885	181.487	178.597	196.165	0.00078363	0.00021683	7.592e-05	1305.6	4.7481e-06	2.6342e-06	1308.1	345.38	2.7542e-06	2.3844e-06	399.13	132.48	114.75	39.732	7.6588e-07	49.202	0.00024836	0.0002596	6.8967e-05	1163.2	2.6996e-06	2.8214e-06	1183	303.76	2.7439e-06	2.7856e-06	338.91	111.66	95.853	33.601	2.6635e-06	40.132	78.379	28.899	225.923	-62.439	159.255	58.121	-62.622	-57.825	165.953	-27.422	-58.288	-54.101	-53.190	-48.801	36.228	-49.570	-8191	255	
2099.065	1	1	0	0	0.13337	0.21373	0.23189	0.074161	0.21251	0.1434	0.096517	0.15298	0.085673	0.15928	0.23737	0.21502	0.08059	0.27068	0.14135	0.020924	-3.8354	-4.1438	-3.7021	-4.4146	-4.0542	-4.0458	-4.5396	-3.8271	-4.0646	-4.2146	-3.8021	-4.4729	-4.0208	-3.8479	-4.225	-3.9729	-45.402	153.577	267.076	282.285	32.218	81.364	278.218	245.034	72.872	236.011	198.223	224.766	-17.404	250.086	119.422	132.533	0.00017092	0.00032566	9.2516e-05	1304.6	2.3663e-06	3.8204e-06	1304.5	346.07	1.0883e-07	2.4405e-06	399.04	132.55	114.99	39.606	3.1651e-06	48.986	0.00025436	0.00025128	6.6099e-05	1163.1	2.7781e-06	2.7349e-06	1177.8	304.06	2.8082e-06	2.7243e-06	336.66	112.16	96.259	33.388	2.5532e-06	40.378	61.400	278.262	-69.620	-62.605	160.955	59.309	-62.568	-57.734	76.530	7.103	-58.193	-54.057	-53.374	-48.850	45.798	-49.847	-8191	255	
#DATA ENDS
