BOXY.EXE: ISS Imagent and Oximeter Data Acquisition Program Version 0.80
Ascii Record File

#ACQ INFORMATION
2  Detector Channels 
16  External MUX Channels 
1  Auxiliary Channels 
5000  Waveform (CCF) Frequency (Hz)
1  Waveforms Skipped 
30  Waveforms Averaged 
1  Cycles Averaged 
16  Acquisitions per Waveform 
10.0806  Updata Rate (Hz) 

#FILE INFORMATION
TRUE -- External MUX Channel results are PARSED.
FALSE -- AC DC and Phase are NOT grouped.
TRUE -- Companion Program Settings File CREATED.
FALSE -- AC data not excluded
FALSE -- DC data not excluded
FALSE -- Phase data not excluded
FALSE -- Auxillary Chn. data not excluded
Tab delimiters

#CALIBRATION STATE
TRUE -- Waveform Calibration Values APPLIED.


#AUX CALIBRATION VALUES
Val Type	aux-1	

Term	1.0000e+00	
Factor	0.0000e+00	


#WF CALIBRATION VALUES
A = Detector Channel
Val Type	A-AC1	A-AC2	A-AC3	A-AC4	A-AC5	A-AC6	A-AC7	A-AC8	A-AC9	A-AC10	A-AC11	A-AC12	A-AC13	A-AC14	A-AC15	A-AC16	A-DC1	A-DC2	A-DC3	A-DC4	A-DC5	A-DC6	A-DC7	A-DC8	A-DC9	A-DC10	A-DC11	A-DC12	A-DC13	A-DC14	A-DC15	A-DC16	A-Ph1	A-Ph2	A-Ph3	A-Ph4	A-Ph5	A-Ph6	A-Ph7	A-Ph8	A-Ph9	A-Ph10	A-Ph11	A-Ph12	A-Ph13	A-Ph14	A-Ph15	A-Ph16	

Term	0.00000e+00	0.00000e+00	0.00000e+00	0.00000e+00	0.00000e+00	0.00000e+00	0.00000e+00	0.00000e+00	0.00000e+00	0.00000e+00	0.00000e+00	0.00000e+00	0.00000e+00	0.00000e+00	0.00000e+00	0.00000e+00	0.00000e+00	0.00000e+00	0.00000e+00	0.00000e+00	0.00000e+00	0.00000e+00	0.00000e+00	0.00000e+00	0.00000e+00	0.00000e+00	0.00000e+00	0.00000e+00	0.00000e+00	0.00000e+00	0.00000e+00	0.00000e+00	0.00000e+00	0.00000e+00	0.00000e+00	0.00000e+00	0.00000e+00	0.00000e+00	0.00000e+00	0.00000e+00	0.00000e+00	0.00000e+00	0.00000e+00	0.00000e+00	0.00000e+00	0.00000e+00	0.00000e+00	0.00000e+00	
Factor	1.00000e+00	1.00000e+00	1.00000e+00	1.00000e+00	1.00000e+00	1.00000e+00	1.00000e+00	1.00000e+00	1.00000e+00	1.00000e+00	1.00000e+00	1.00000e+00	1.00000e+00	1.00000e+00	1.00000e+00	1.00000e+00	1.00000e+00	1.00000e+00	1.00000e+00	1.00000e+00	1.00000e+00	1.00000e+00	1.00000e+00	1.00000e+00	1.00000e+00	1.00000e+00	1.00000e+00	1.00000e+00	1.00000e+00	1.00000e+00	1.00000e+00	1.00000e+00	X	X	X	X	X	X	X	X	X	X	X	X	X	X	X	X	

B = Detector Channel
Val Type	B-AC1	B-AC2	B-AC3	B-AC4	B-AC5	B-AC6	B-AC7	B-AC8	B-AC9	B-AC10	B-AC11	B-AC12	B-AC13	B-AC14	B-AC15	B-AC16	B-DC1	B-DC2	B-DC3	B-DC4	B-DC5	B-DC6	B-DC7	B-DC8	B-DC9	B-DC10	B-DC11	B-DC12	B-DC13	B-DC14	B-DC15	B-DC16	B-Ph1	B-Ph2	B-Ph3	B-Ph4	B-Ph5	B-Ph6	B-Ph7	B-Ph8	B-Ph9	B-Ph10	B-Ph11	B-Ph12	B-Ph13	B-Ph14	B-Ph15	B-Ph16	

Term	0.00000e+00	0.00000e+00	0.00000e+00	0.00000e+00	0.00000e+00	0.00000e+00	0.00000e+00	0.00000e+00	0.00000e+00	0.00000e+00	0.00000e+00	0.00000e+00	0.00000e+00	0.00000e+00	0.00000e+00	0.00000e+00	0.00000e+00	0.00000e+00	0.00000e+00	0.00000e+00	0.00000e+00	0.00000e+00	0.00000e+00	0.00000e+00	0.00000e+00	0.00000e+00	0.00000e+00	0.00000e+00	0.00000e+00	0.00000e+00	0.00000e+00	0.00000e+00	6.18343e+01	-1.31059e+02	-1.28480e+02	-1.84124e+02	-6.87911e+01	-6.82456e+01	-1.56911e+02	-1.62015e+02	-7.40016e+01	-6.54156e+01	-1.77697e+02	-1.71319e+02	-1.80631e+02	-1.77165e+02	-6.37371e+01	-1.49825e+02	
Factor	5.72416e-05	1.94192e-04	5.38199e-05	1.68864e-01	2.83546e-06	2.03816e-06	1.62166e-01	5.20289e-02	3.35572e-06	1.96407e-06	9.52225e-01	2.70685e-02	2.82943e-02	8.99284e-03	2.49629e-06	1.25482e-02	1.20680e-05	1.63461e-05	4.57917e-06	8.64489e-02	1.66670e-07	1.82106e-07	7.82106e-02	2.66752e-02	1.65207e-07	1.81697e-07	4.60311e-01	1.35287e-02	1.46057e-02	4.65260e-03	1.72611e-07	6.31523e-03	X	X	X	X	X	X	X	X	X	X	X	X	X	X	X	X	



#DISTANCE SETTINGS
A = Detector Channel
A-1	A-2	A-3	A-4	A-5	A-6	A-7	A-8	A-9	A-10	A-11	A-12	A-13	A-14	A-15	A-16	

2.5000e+00	3.0000e+00	2.5000e+00	3.0000e+00	2.0000e+00	3.0000e+00	1.5000e+00	3.0000e+00	3.0000e+00	3.0000e+00	3.0000e+00	3.0000e+00	3.0000e+00	3.0000e+00	1.5000e+00	3.0000e+00	

B = Detector Channel
B-1	B-2	B-3	B-4	B-5	B-6	B-7	B-8	B-9	B-10	B-11	B-12	B-13	B-14	B-15	B-16	

1.0000e+01	1.0000e+01	1.0000e+01	1.4400e+00	1.0000e+01	1.0000e+01	1.5100e+00	1.9400e+00	1.0000e+01	1.0000e+01	1.9900e+00	2.4900e+00	2.4100e+00	2.9000e+00	1.0000e+01	2.9800e+00	




#DATA BEGINS
time	group	step	mark	flag	A-AC1	A-AC2	A-AC3	A-AC4	A-AC5	A-AC6	A-AC7	A-AC8	A-AC9	A-AC10	A-AC11	A-AC12	A-AC13	A-AC14	A-AC15	A-AC16	A-DC1	A-DC2	A-DC3	A-DC4	A-DC5	A-DC6	A-DC7	A-DC8	A-DC9	A-DC10	A-DC11	A-DC12	A-DC13	A-DC14	A-DC15	A-DC16	A-Ph1	A-Ph2	A-Ph3	A-Ph4	A-Ph5	A-Ph6	A-Ph7	A-Ph8	A-Ph9	A-Ph10	A-Ph11	A-Ph12	A-Ph13	A-Ph14	A-Ph15	A-Ph16	B-AC1	B-AC2	B-AC3	B-AC4	B-AC5	B-AC6	B-AC7	B-AC8	B-AC9	B-AC10	B-AC11	B-AC12	B-AC13	B-AC14	B-AC15	B-AC16	B-DC1	B-DC2	B-DC3	B-DC4	B-DC5	B-DC6	B-DC7	B-DC8	B-DC9	B-DC10	B-DC11	B-DC12	B-DC13	B-DC14	B-DC15	B-DC16	B-Ph1	B-Ph2	B-Ph3	B-Ph4	B-Ph5	B-Ph6	B-Ph7	B-Ph8	B-Ph9	B-Ph10	B-Ph11	B-Ph12	B-Ph13	B-Ph14	B-Ph15	B-Ph16	aux-1	digaux	

8470.967	1	1	0	768	0.15334	0.19868	0.36841	0.2755	0.14916	0.069901	0.10909	0.41271	0.15284	0.19004	0.053086	0.29096	0.1505	0.030263	0.16387	0.20693	-2.2208	-2.5438	-2.3563	-2.875	-2.5458	-2.4583	-2.7438	-2.4062	-2.5938	-2.4792	-2.3458	-2.8563	-2.4833	-2.5417	-2.7958	-2.6437	204.239	392.794	435.150	485.532	372.977	298.128	144.406	441.954	289.587	370.301	277.804	462.523	197.420	160.217	378.494	412.202	0.0037795	0.00057098	0.00023013	982.89	1.1522e-05	7.467e-06	1208.2	283.44	1.453e-05	7.6805e-06	451.63	211.81	113.8	48.596	1.1237e-05	115.41	0.00074097	0.00026678	7.2074e-05	914.76	3.1442e-06	2.779e-06	1131	265.38	2.8818e-06	2.9295e-06	410.38	200.4	105.79	45.93	2.9538e-06	109.57	378.808	230.766	239.934	151.335	287.346	294.596	151.358	155.661	282.947	287.585	155.955	159.469	159.353	162.807	277.359	161.853	-8191	255	
8471.063	1	1	0	0	0.093954	0.14191	0.20251	0.35389	0.17734	0.11655	0.33458	0.24554	0.19664	0.28968	0.14954	0.17227	0.10444	0.089924	0.26236	0.12907	-2.0875	-2.5771	-2.2979	-2.8354	-2.5438	-2.5729	-2.7917	-2.4792	-2.5583	-2.8646	-2.3542	-2.9396	-2.6583	-2.4854	-2.6333	-2.4854	402.204	271.237	139.989	176.385	452.061	281.075	376.677	452.617	474.825	456.501	333.046	432.526	453.725	444.470	163.026	426.557	0.0035745	0.00084275	0.00017543	982.61	1.1769e-05	7.1457e-06	1210.4	284.64	1.2463e-05	7.1019e-06	441.96	210.51	112.96	48.15	1.1411e-05	113.15	0.00070723	0.00026791	7.6196e-05	919.97	3.1122e-06	2.7168e-06	1134.4	266.52	2.9854e-06	2.7985e-06	409.74	198.82	105.23	45.379	3.2325e-06	107.28	379.353	240.992	237.308	151.193	288.428	292.649	151.298	155.577	285.697	280.804	155.798	159.373	159.052	162.816	266.521	162.008	-8191	255	
8471.159	1	1	0	0	0.21134	0.12732	0.17124	0.16746	0.16409	0.046727	0.15752	0.17015	0.28583	0.27495	0.050648	0.19091	0.21668	0.071925	0.16126	0.2505	-1.9375	-2.5396	-2.35	-2.7958	-2.3646	-2.4271	-2.6625	-2.5479	-2.5438	-2.8438	-2.4021	-2.7375	-2.5167	-2.6562	-2.5208	-2.5896	341.400	197.548	218.684	468.264	250.593	496.634	452.125	409.728	182.292	313.000	306.394	364.172	469.379	175.496	339.208	481.071	0.0036807	0.00077272	0.00019485	974.78	1.1571e-05	8.2941e-06	1190.6	279.46	1.4586e-05	7.0474e-06	436.16	208.06	111.07	47.557	1.0474e-05	112	0.00072627	0.00025667	7.9716e-05	910.88	2.982e-06	2.8814e-06	1117.7	261.72	2.8743e-06	2.7921e-06	404.85	196.08	103.36	44.867	3.2084e-06	106.7	377.559	236.043	230.289	151.382	288.835	284.252	151.100	155.325	272.221	287.657	156.047	159.651	159.348	162.920	290.292	161.962	-8191	255	
8471.255	1	1	0	0	0.098829	0.16999	0.21516	0.32956	0.23381	0.18886	0.132	0.27726	0.23319	0.20112	0.068997	0.19276	0.094296	0.4166	0.20286	0.18978	-1.9813	-2.5083	-2.2375	-2.5479	-2.5604	-2.3833	-2.7917	-2.7479	-2.5021	-2.6833	-2.3729	-2.7896	-2.5354	-2.5229	-2.6688	-2.6188	334.296	294.442	333.875	435.063	322.845	416.096	438.843	430.774	218.210	223.975	370.812	465.007	155.633	451.855	199.202	371.340	0.0035516	0.00091183	0.00017684	970.88	1.2149e-05	6.6818e-06	1191.7	278.15	1.4124e-05	6.1699e-06	439.96	208.56	111.11	47.618	1.1346e-05	113.5	0.00072571	0.00028664	7.735e-05	907.66	2.8879e-06	3.0897e-06	1116.7	261.51	2.6915e-06	2.7648e-06	405.34	196.77	103.26	45.004	3.0146e-06	107.6	377.975	216.291	220.696	151.149	274.760	287.519	151.323	155.642	270.281	296.934	155.076	159.582	159.396	162.946	294.738	161.819	-8191	255	
8471.351	1	1	0	0	0.20352	0.29387	0.22144	0.1714	0.1143	0.090032	0.080665	0.1102	0.1653	0.25104	0.14324	0.062467	0.10253	0.13214	0.15016	0.22326	-2.0187	-2.5125	-2.4729	-2.4896	-2.5479	-2.3187	-2.7479	-2.5271	-2.4271	-2.6896	-2.3625	-2.7313	-2.5938	-2.3125	-2.4896	-2.5563	466.950	390.088	149.840	166.881	451.820	174.262	233.101	260.934	253.775	416.975	485.738	473.955	408.648	496.969	278.987	472.761	0.0037382	0.00093927	0.00024097	970.45	9.6863e-06	6.2549e-06	1199.9	277.07	9.2047e-06	7.2711e-06	442.46	208.07	110.75	47.097	1.177e-05	112.65	0.00073207	0.00028449	7.4564e-05	907.21	2.7077e-06	3.0639e-06	1122.3	260.6	2.9448e-06	3.0601e-06	407.63	196.82	102.75	44.55	2.9229e-06	106.89	378.821	221.658	220.657	151.330	291.784	279.747	151.097	155.441	280.933	289.981	155.557	159.458	159.261	163.087	287.247	161.902	-8191	255	
8471.448	1	1	0	0	0.16527	0.27005	0.33548	0.17189	0.16831	0.12007	0.30359	0.33272	0.16941	0.081817	0.12906	0.20723	0.16445	0.35667	0.15667	0.5275	-1.7833	-2.5521	-2.0771	-2.5812	-2.4083	-2.3438	-2.7938	-2.6021	-2.2375	-2.6208	-2.3479	-2.5417	-2.7313	-2.3625	-2.5167	-2.6083	497.032	273.285	192.164	461.257	338.151	366.920	479.969	464.495	280.893	168.588	297.315	168.659	150.887	145.978	170.271	448.712	0.0035522	0.00084388	0.00021699	968.16	1.016e-05	5.7357e-06	1199.9	279.42	1.6039e-05	5.7209e-06	439.04	208.93	111.42	47.813	1.0124e-05	112.49	0.00072813	0.00028749	8.0174e-05	906.31	2.948e-06	3.0651e-06	1120.9	261.62	3.0446e-06	2.9314e-06	407.14	197.31	103.93	44.841	2.8524e-06	106.76	378.426	209.579	227.988	151.267	276.608	288.220	151.274	155.619	268.287	274.776	155.552	159.490	159.212	163.059	286.701	161.909	-8191	255	
8471.568	1	1	0	0	0.19486	0.12428	0.025529	0.31028	0.14229	0.34561	0.32315	0.068361	0.24158	0.044301	0.055861	0.28916	0.17589	0.092751	0.068657	0.50719	-1.7833	-2.5708	-2.4104	-2.4646	-2.6125	-2.3667	-2.6771	-2.5542	-2.3312	-2.5646	-2.3708	-2.6771	-2.6979	-2.2125	-2.5062	-2.6896	146.761	487.807	332.403	144.754	204.181	278.226	481.346	157.904	218.849	493.631	477.739	395.215	463.789	458.756	329.724	477.053	0.0034547	0.00088224	0.00018094	978.08	1.1554e-05	7.0883e-06	1210.9	282.44	1.5151e-05	5.0653e-06	440.29	208.98	112.27	47.436	8.8927e-06	112.08	0.00071689	0.00026127	7.4078e-05	914.33	2.9969e-06	2.99e-06	1127.7	264	3.0732e-06	2.6547e-06	405.23	197.6	104.61	44.746	2.8851e-06	106.46	378.216	220.312	227.231	151.386	284.820	283.329	151.156	155.531	266.229	273.560	156.086	159.636	159.124	162.938	283.921	161.879	-8191	255	
8471.664	1	1	0	0	0.30271	0.30904	0.27412	0.18723	0.070076	0.14605	0.25847	0.34651	0.19852	0.18785	0.16825	0.21927	0.15684	0.30063	0.13312	0.34926	-1.875	-2.5042	-2.1937	-2.5604	-2.5271	-2.3521	-2.65	-2.6104	-2.2833	-2.4688	-2.4521	-2.6063	-2.5542	-2.3708	-2.2917	-2.5812	192.348	146.640	347.568	184.576	344.527	468.298	339.086	449.510	315.617	299.259	316.108	140.926	394.867	147.688	348.303	454.455	0.0037995	0.00070557	0.0001732	972.18	8.7591e-06	8.2124e-06	1200.6	280.7	1.555e-05	6.7434e-06	438.45	207.76	111.06	46.681	7.366e-06	111.88	0.00076534	0.00025469	7.2866e-05	912.72	3.0188e-06	2.7012e-06	1124.1	262.72	3.0629e-06	2.7039e-06	403.94	196.07	103.13	44.213	2.7647e-06	106.08	379.593	217.018	227.395	151.324	286.230	278.343	151.000	155.331	262.730	295.735	156.012	159.517	159.193	162.920	290.297	161.727	-8191	255	
8471.759	1	1	0	0	0.16184	0.16631	0.22791	0.28058	0.087617	0.064522	0.28018	0.17029	0.3263	0.18636	0.078299	0.16985	0.14657	0.37676	0.019937	0.077349	-1.8687	-2.5125	-2.1437	-2.3438	-2.5083	-2.3896	-2.7	-2.7917	-2.3521	-2.6917	-2.3833	-2.4833	-2.6375	-2.475	-2.3812	-2.75	482.060	419.917	219.901	467.252	368.547	223.731	455.683	425.046	488.355	222.452	248.194	437.201	313.607	437.817	314.179	493.453	0.0035327	0.00068681	0.00025599	971.79	1.1963e-05	7.8831e-06	1194.7	278.19	1.3148e-05	6.1103e-06	435.3	207.73	109.84	46.693	5.4665e-06	111.62	0.00071973	0.00026355	7.3677e-05	905.66	3.0969e-06	3.0636e-06	1118.6	260.28	2.9868e-06	2.9518e-06	402.92	195.57	102.29	43.946	2.7273e-06	105.78	379.480	224.411	231.081	151.135	278.061	282.853	151.028	155.743	274.935	286.413	154.808	159.394	159.310	162.770	290.416	161.808	-8191	255	
8471.857	1	1	0	0	0.083469	0.11947	0.10687	0.37112	0.038406	0.27376	0.18359	0.17909	0.15818	0.073358	0.098148	0.064155	0.16444	0.15095	0.018123	0.19505	-1.8458	-2.6479	-2.5083	-2.3771	-2.55	-2.2979	-2.5958	-2.8292	-2.3729	-2.3083	-2.4583	-2.3458	-2.8187	-2.5646	-2.4313	-3.0042	387.983	196.154	267.080	485.678	240.104	335.388	436.718	444.752	342.799	330.872	248.695	279.470	226.972	359.226	157.442	413.666	0.0035622	0.00072605	0.00018705	957.13	1.226e-05	6.5069e-06	1186.3	275.2	1.6395e-05	9.5435e-06	427.88	205.5	109.59	46.316	1.0851e-05	110.63	0.00072923	0.00026637	7.321e-05	897.11	2.823e-06	2.9004e-06	1111.6	257.28	2.9362e-06	2.7379e-06	397.73	193.69	101.75	43.687	2.9545e-06	105.16	378.508	207.221	234.355	151.313	296.757	283.508	151.301	155.597	277.626	288.019	155.013	159.663	159.191	162.883	277.997	161.990	-8191	255	
8471.951	1	1	0	0	0.094211	0.1009	0.29035	0.24867	0.093002	0.23172	0.38958	0.03989	0.14272	0.12314	0.087008	0.23125	0.22622	0.33355	0.15495	0.22968	-2.1667	-2.6063	-2.5833	-2.4979	-2.6063	-2.6396	-2.475	-2.75	-2.4646	-2.4604	-2.6813	-2.6312	-2.7625	-2.4188	-2.4333	-2.7313	175.922	349.094	387.823	486.636	479.497	378.975	479.446	227.665	395.428	206.003	380.737	463.431	371.305	430.792	314.810	401.069	0.0036712	0.00055938	0.00022296	963.94	1.2527e-05	6.8203e-06	1191.6	277.14	1.5691e-05	7.1104e-06	433.94	208.89	110.71	46.952	1.1297e-05	111.71	0.00073356	0.00024366	7.5137e-05	901.84	2.9744e-06	2.7593e-06	1114.5	260.39	3.0632e-06	2.6248e-06	401.42	196.15	102.8	44.309	3.2681e-06	106.3	377.981	220.811	220.689	151.395	270.027	278.010	151.217	155.341	279.140	285.325	156.245	159.270	159.339	162.835	289.925	161.526	-8191	255	
8472.047	1	1	0	0	0.03841	0.15336	0.19761	0.20645	0.14219	0.088415	0.16089	0.20708	0.16539	0.20009	0.058951	0.34206	0.24471	0.2116	0.099657	0.29182	-1.825	-2.4437	-2.4354	-2.5021	-2.6167	-2.5583	-2.6396	-2.7854	-2.3396	-2.6063	-2.5354	-2.3729	-2.5938	-2.5625	-2.2896	-2.8729	327.743	417.310	444.870	338.498	166.585	433.339	467.692	418.883	424.733	374.681	418.299	460.289	430.079	320.761	488.970	484.468	0.0035972	0.00090133	0.00023171	963.73	1.1737e-05	6.1493e-06	1192.5	276.37	1.3318e-05	6.6488e-06	433.17	207.98	111.83	47.112	1.0522e-05	112.19	0.00073806	0.00025776	7.8304e-05	900.97	2.8296e-06	2.8006e-06	1116.7	259.72	3.0698e-06	2.9564e-06	402.41	196.4	103.38	44.432	3.3163e-06	106.6	378.984	211.886	224.921	151.371	268.974	280.197	151.277	155.544	267.434	289.819	154.916	159.370	159.180	162.792	279.687	161.945	-8191	255	
8472.168	1	1	0	0	0.039547	0.030021	0.2722	0.24779	0.23326	0.29173	0.18149	0.35939	0.18066	0.23805	0.12136	0.13565	0.1551	0.23451	0.1657	0.17351	-1.9312	-2.5479	-2.5646	-2.4813	-2.5083	-2.6688	-2.7188	-2.7	-2.5312	-2.5187	-2.5563	-2.6042	-2.7646	-2.5896	-2.3479	-2.9292	323.276	178.477	401.265	481.637	463.145	429.156	436.946	415.522	418.467	361.398	177.723	485.810	468.482	471.004	162.069	439.567	0.0036006	0.00075479	0.00017658	966.57	1.1383e-05	7.095e-06	1193.9	278.05	1.318e-05	7.8131e-06	442.71	208.69	111.64	46.85	1.1552e-05	112.8	0.00072521	0.00027472	7.7722e-05	902.71	2.8306e-06	3.1664e-06	1116.8	260.22	3.0649e-06	2.9018e-06	405.2	197.27	103.27	44.458	3.1602e-06	107.03	378.736	226.939	217.099	151.001	274.486	296.525	151.116	155.523	289.732	277.740	156.987	159.408	159.593	162.704	289.647	162.006	-8191	255	
8472.264	1	1	0	0	0.12219	0.42449	0.44282	0.33572	0.12455	0.13759	0.49611	0.33516	0.048962	0.089322	0.12528	0.31056	0.14882	0.32507	0.16387	0.42083	-2.0771	-2.4167	-2.4479	-2.4771	-2.4271	-2.4646	-2.3396	-2.7562	-2.4146	-2.2271	-2.6042	-2.5312	-2.45	-2.8542	-2.2604	-2.7812	383.367	171.070	282.589	430.806	425.812	408.186	449.803	465.456	376.375	364.646	417.004	429.133	407.366	144.370	221.129	430.939	0.0034775	0.00088002	0.000214	959.82	1.0139e-05	8.6674e-06	1192.5	277.87	1.2047e-05	5.6288e-06	430.48	207.02	110.65	46.655	1.1122e-05	111.72	0.00072571	0.00029355	7.6205e-05	900.44	2.7834e-06	3.0704e-06	1116.6	260.2	3.0116e-06	2.7879e-06	401.21	195.04	102.66	44.196	3.0649e-06	105.88	378.373	225.195	220.768	151.327	268.228	266.120	150.907	155.588	265.057	290.394	155.719	159.411	159.763	162.818	286.892	161.770	-8191	255	
8472.360	1	1	0	0	0.073355	0.11739	0.063225	0.12445	0.18466	0.25155	0.16246	0.11857	0.22865	0.19941	0.37065	0.12719	0.10402	0.12695	0.14885	0.37907	-2.0167	-2.2396	-2.5917	-2.3333	-2.5708	-2.6583	-2.5125	-2.6521	-2.5896	-2.3417	-2.6188	-2.3875	-2.4521	-2.7542	-2.4062	-2.7562	157.308	178.231	275.423	382.191	214.039	409.148	158.964	381.385	397.889	257.711	185.644	399.480	395.579	148.161	227.989	402.576	0.0036021	0.00090156	0.00020732	965.48	1.3779e-05	1.0101e-05	1193.5	278.65	1.4554e-05	7.7172e-06	438.92	208.26	111.54	47.472	9.3179e-06	112.92	0.00074024	0.00028534	6.9937e-05	900.61	2.9629e-06	2.9858e-06	1114.4	260.07	3.1214e-06	3.1116e-06	402.01	196.51	103.34	44.61	3.226e-06	107.11	377.986	234.526	208.790	151.275	285.234	291.982	151.071	155.784	265.902	277.235	155.372	159.529	159.453	162.790	297.749	161.775	-8191	255	
8472.456	1	1	0	0	0.11984	0.069185	0.18662	0.29518	0.1011	0.20245	0.18202	0.2196	0.12557	0.16498	0.15889	0.38472	0.25694	0.10916	0.098723	0.36766	-2.1104	-2.2438	-2.6854	-2.3979	-2.2854	-2.7292	-2.6562	-2.7396	-2.4896	-2.0938	-2.5229	-2.6583	-2.4458	-2.7396	-2.4396	-2.625	465.968	485.181	381.299	474.838	323.758	159.491	260.595	146.871	333.093	369.276	343.276	463.702	474.974	170.748	387.279	473.802	0.0035397	0.00068575	0.00022897	968.97	1.1849e-05	6.8391e-06	1194.3	280.78	1.2894e-05	6.7246e-06	440.88	210.34	112.86	47.767	1.0777e-05	114.26	0.00073833	0.0002864	6.9498e-05	904.74	3.1046e-06	2.7748e-06	1120.2	261.97	3.1255e-06	2.8738e-06	405.7	198.63	104.54	44.993	3.1225e-06	108.19	378.474	228.076	236.701	151.139	274.939	292.628	151.145	155.261	278.164	288.041	156.115	159.373	159.330	162.916	272.913	162.066	-8191	255	
8472.552	1	1	0	0	0.30538	0.12617	0.089322	0.16348	0.22222	0.06649	0.10037	0.17842	0.046631	0.27923	0.23091	0.20143	0.13258	0.34181	0.094768	0.29108	-2.1312	-2.1083	-2.5854	-2.5708	-2.0917	-2.6937	-2.5771	-2.5583	-2.5563	-2.4042	-2.5229	-2.5729	-2.4208	-2.725	-2.4104	-2.7125	442.211	140.934	387.915	494.756	377.692	221.328	326.313	409.156	493.061	239.637	287.317	431.325	437.689	469.511	297.565	445.090	0.0036127	0.00068741	0.00026562	968.69	1.1624e-05	6.654e-06	1201.3	280.95	1.3917e-05	5.9724e-06	445.29	210.01	111.42	47.492	1.0908e-05	113.06	0.00074454	0.00026219	7.1445e-05	908.03	3.3039e-06	2.7305e-06	1126.1	262.95	3.1561e-06	2.797e-06	408.22	198.3	103.88	44.726	3.0189e-06	107.44	377.880	224.731	219.431	151.568	284.540	280.276	150.904	155.678	257.640	280.316	155.415	159.392	159.270	162.758	274.157	161.949	-8191	255	
8472.649	1	1	0	0	0.23084	0.056585	0.25481	0.26619	0.25752	0.18683	0.27336	0.13434	0.28536	0.097699	0.23612	0.083285	0.21867	0.23164	0.05732	0.5565	-2.1188	-2.4167	-2.575	-2.8479	-2.1292	-2.6229	-2.5146	-2.4917	-2.7833	-2.4396	-2.3771	-2.8021	-2.4167	-2.7792	-2.5854	-2.6396	465.620	496.727	459.500	428.948	469.750	404.804	390.543	468.840	277.361	216.457	494.659	230.381	374.373	445.380	459.868	437.035	0.0036844	0.00058626	0.0001731	970.26	1.4488e-05	7.073e-06	1194.9	279.95	1.5665e-05	6.6538e-06	436.72	207.37	111.17	46.985	9.8133e-06	112.19	0.00074492	0.00027669	6.6121e-05	905.67	3.1171e-06	2.765e-06	1118.3	261.39	2.9369e-06	3.0181e-06	402.35	195.67	103.13	44.435	3.1225e-06	106.48	379.534	204.977	206.979	151.310	284.009	264.838	151.046	155.456	276.946	297.877	155.979	159.168	159.048	163.018	276.810	161.806	-8191	255	
8472.745	1	1	0	0	0.23332	0.23571	0.06899	0.12371	0.15733	0.029666	0.22342	0.21137	0.22659	0.10239	0.18727	0.087339	0.15634	0.20459	0.33524	0.18128	-2.2708	-2.3625	-2.6125	-2.6125	-2.4896	-2.6521	-2.6854	-2.5896	-2.4813	-2.3375	-2.3896	-2.8354	-2.6021	-2.8875	-2.5667	-2.5792	374.007	199.224	345.781	441.044	177.148	347.842	491.824	376.871	414.389	224.150	158.050	456.393	158.365	403.392	188.026	444.740	0.0037839	0.00077742	0.00021289	964.06	1.1237e-05	6.0071e-06	1197.5	279.82	1.5534e-05	7.3695e-06	442.08	210.04	112.25	47.591	1.1345e-05	113.5	0.00075659	0.00026954	7.1988e-05	902.14	2.9955e-06	2.7081e-06	1118.9	262.13	2.8003e-06	2.8375e-06	405.51	198.35	104.48	45.069	3.0987e-06	107.95	377.836	240.332	233.775	151.049	271.372	278.601	151.212	155.559	280.555	291.050	155.289	159.353	159.254	163.023	292.492	161.747	-8191	255	
8472.839	1	1	0	0	0.12353	0.10128	0.16157	0.18613	0.1729	0.13848	0.098909	0.17001	0.1234	0.19267	0.1481	0.37418	0.1312	0.15168	0.096878	0.071459	-2.2062	-2.4062	-2.4354	-2.7583	-2.3604	-2.5563	-2.6437	-2.4354	-2.5896	-2.4104	-2.4	-2.7438	-2.4417	-2.5479	-2.5917	-2.3542	325.413	365.937	311.214	379.543	407.273	186.911	138.809	235.121	483.540	378.857	349.720	400.453	163.087	180.809	485.256	401.937	0.003774	0.00068519	0.00022841	971.34	1.3235e-05	7.1229e-06	1202.6	280.78	1.5428e-05	6.4789e-06	438.74	210.26	112.45	47.91	1.1075e-05	114.34	0.00074407	0.00026239	7.3009e-05	908.08	3.0771e-06	2.7384e-06	1125.3	263.54	2.9231e-06	2.8065e-06	408.5	199.36	104.57	45.223	3.2577e-06	108.45	377.979	217.304	234.400	151.316	255.826	281.309	151.163	155.587	271.349	279.936	156.544	159.505	159.179	162.697	294.977	161.928	-8191	255	
8472.937	1	1	0	0	0.11744	0.19226	0.058331	0.18798	0.031819	0.13851	0.26875	0.35735	0.16608	0.27385	0.064325	0.23786	0.17039	0.041186	0.05482	0.23777	-2.1583	-2.3771	-2.3937	-2.6729	-2.3604	-2.5438	-2.7083	-2.5354	-2.5479	-2.4708	-2.3667	-2.6813	-2.525	-2.6604	-2.5021	-2.4125	173.596	391.886	348.281	207.533	290.884	390.567	412.439	151.743	472.333	245.240	180.320	487.936	371.286	254.230	459.536	421.903	0.0037383	0.00073556	0.00021829	975.96	1.1379e-05	6.5989e-06	1205.2	283.98	1.4908e-05	7.0361e-06	438.73	211.84	112.38	47.436	1.2403e-05	113.57	0.0007501	0.00025173	8.4886e-05	912.94	2.9417e-06	2.7377e-06	1127.9	265.11	2.9872e-06	2.9704e-06	408.24	199.09	104.57	44.788	3.4195e-06	107.53	379.443	222.437	221.278	151.393	281.390	279.180	151.239	155.405	280.942	286.971	155.712	159.354	159.265	163.037	298.884	161.743	-8191	255	
8473.056	1	1	0	0	0.039646	0.39106	0.083434	0.10538	0.1942	0.20326	0.30674	0.088817	0.32062	0.061948	0.05471	0.20976	0.14104	0.074769	0.27902	0.42578	-2.0646	-2.525	-2.3063	-2.6458	-2.3396	-2.6104	-2.6542	-2.4354	-2.4375	-2.3937	-2.4208	-2.8104	-2.3771	-2.4521	-2.7729	-2.5687	315.084	182.115	230.318	257.807	229.231	396.764	455.528	244.708	475.991	419.277	437.173	450.634	144.158	461.254	351.118	440.040	0.0035904	0.00069723	0.00017673	971.7	8.7801e-06	9.0276e-06	1200	280.79	1.1853e-05	6.7816e-06	438.87	206.23	109.97	46.91	7.046e-06	110.94	0.00072501	0.00028456	8.0546e-05	910.07	3.1556e-06	3.1167e-06	1120.1	262.1	2.8719e-06	3.389e-06	403.24	194.96	102.45	44.204	3.0843e-06	105.6	379.295	216.685	233.028	151.298	277.466	278.908	151.187	155.484	268.639	284.775	154.673	159.492	159.501	162.765	298.634	161.762	-8191	255	
8473.129	1	1	0	0	0.23622	0.39634	0.1016	0.24231	0.021787	0.052393	0.10118	0.062604	0.17492	0.26674	0.13728	0.10947	0.080555	0.21331	0.088569	0.31135	-2.1667	-2.4333	-2.2146	-2.4417	-2.4604	-2.3521	-2.8208	-2.4708	-2.4437	-2.4771	-2.3208	-2.8937	-2.4896	-2.4938	-2.6708	-2.3917	340.624	180.583	264.881	157.808	306.262	378.709	142.413	348.346	440.970	222.015	459.840	424.017	345.532	361.922	263.732	470.283	0.0036535	0.00055828	0.00017592	969.11	8.2624e-06	6.5955e-06	1186.7	279.82	1.2074e-05	6.7718e-06	435.25	208.37	111.77	47.087	1.0427e-05	112.28	0.00072702	0.00028854	7.9821e-05	904.84	3.0039e-06	2.9607e-06	1116	262.14	2.9706e-06	3.2429e-06	403.8	196.31	103.7	44.582	3.1983e-06	106.57	378.122	260.781	204.791	151.199	267.134	293.734	151.298	155.680	272.085	309.569	155.282	159.514	159.418	163.048	279.296	162.176	-8191	255	
8473.248	1	1	0	0	0.14335	0.11631	0.060997	0.26233	0.085925	0.075853	0.2369	0.45357	0.24886	0.25564	0.26973	0.30767	0.2046	0.038207	0.27982	0.3607	-2.0625	-2.5479	-2.3187	-2.7687	-2.7562	-2.3937	-2.9625	-2.4938	-2.3271	-2.7021	-2.325	-2.6229	-2.5667	-2.4458	-2.5208	-2.5271	397.285	351.224	415.525	193.139	148.553	447.673	453.027	436.218	404.418	402.316	203.309	476.280	381.346	141.628	201.550	477.889	0.003569	0.00066447	0.00021383	967.31	1.3657e-05	7.7325e-06	1198.6	279.93	1.2733e-05	6.523e-06	435.88	208.36	111.63	47.355	1.239e-05	112.3	0.00073677	0.00029338	7.6777e-05	907.1	3.0431e-06	3.0692e-06	1120.9	261.88	3.1981e-06	3.1479e-06	403.8	196.69	103.41	44.569	3.0764e-06	106.76	378.760	218.925	225.585	151.435	267.709	288.152	151.412	155.846	272.807	271.909	156.395	159.541	159.221	162.960	278.823	161.866	-8191	255	
8473.344	1	1	0	0	0.080346	0.13293	0.27438	0.38097	0.26109	0.18074	0.20416	0.20819	0.11275	0.13449	0.090257	0.2196	0.086141	0.11973	0.21015	0.31231	-1.8146	-2.6646	-2.2812	-2.7729	-2.6042	-2.4229	-2.5521	-2.4375	-2.5104	-2.5292	-2.2396	-2.675	-2.4479	-2.4896	-2.5583	-2.625	365.193	374.819	200.479	153.012	453.548	237.771	446.648	422.904	414.902	413.362	437.580	490.161	307.806	387.416	146.256	433.052	0.0035133	0.00062415	0.00023838	967.32	1.0806e-05	7.9678e-06	1199.2	279.69	1.5438e-05	7.9394e-06	436.81	209.04	110.79	46.967	1.1692e-05	112.19	0.0007279	0.00028292	8.0174e-05	906.25	3.3893e-06	3.2278e-06	1118.5	261.06	3.3947e-06	3.0688e-06	407.07	196.83	103.05	44.361	3.1358e-06	106.63	378.370	218.830	207.771	151.407	282.886	289.920	151.102	155.358	269.840	272.725	155.422	159.527	159.190	162.869	286.234	161.863	-8191	255	
8473.440	1	1	0	0	0.16351	0.22684	0.20958	0.14834	0.19018	0.10832	0.16365	0.19612	0.2341	0.090903	0.07291	0.12553	0.091737	0.30542	0.12471	0.20779	-2.0458	-2.5604	-2.4688	-2.7438	-2.4604	-2.3979	-2.8271	-2.6417	-2.2708	-2.4688	-2.2271	-2.6208	-2.6396	-2.3667	-2.5625	-2.5375	405.783	278.346	250.958	148.850	287.780	470.103	461.502	424.486	284.492	271.155	453.952	482.258	151.081	173.327	218.805	439.885	0.0036691	0.0007556	0.00017278	968.94	1.0748e-05	7.1271e-06	1194.8	280.61	1.759e-05	4.5815e-06	434.72	207.41	110.53	46.897	1.0279e-05	112.01	0.00076056	0.00026947	7.5871e-05	906.96	3.3167e-06	2.828e-06	1116.2	261.73	3.2429e-06	2.8409e-06	404.01	196.06	103.07	44.444	2.9175e-06	106.28	378.130	193.143	241.107	151.445	275.293	294.199	151.070	155.319	274.118	299.833	155.226	159.344	159.125	162.784	290.935	161.749	-8191	255	
8473.537	1	1	0	0	0.06109	0.039955	0.082427	0.24179	0.14702	0.14287	0.126	0.051036	0.13499	0.031754	0.075796	0.23032	0.19585	0.17856	0.21699	0.29925	-1.6979	-2.325	-2.4729	-2.4271	-2.7417	-2.4083	-2.8708	-2.4938	-2.3542	-2.6	-2.6813	-2.6979	-2.7	-2.5896	-2.7042	-2.6125	435.246	246.313	383.443	469.364	277.709	392.368	358.927	449.109	295.288	368.178	273.496	156.555	278.546	484.511	227.087	460.790	0.0035658	0.00098486	0.00016055	965.13	1.6481e-05	8.701e-06	1188.7	279.79	1.4824e-05	6.1703e-06	436.25	208.6	110.36	47.246	1.1907e-05	112.47	0.00074112	0.0002643	7.4402e-05	902.55	3.1362e-06	3.0393e-06	1114.4	260.5	3.172e-06	2.8871e-06	405.99	196.38	102.75	44.55	3.0498e-06	106.93	379.196	225.864	223.581	150.761	266.273	287.371	151.154	155.768	267.735	288.684	156.771	159.341	159.144	163.110	269.820	161.792	-8191	255	
8473.657	1	1	0	0	0.16839	0.31148	0.22483	0.23049	0.015124	0.095507	0.39984	0.25716	0.081573	0.090466	0.22178	0.2551	0.1203	0.40821	0.17018	0.1638	-1.7	-2.5542	-2.3396	-2.5312	-2.6646	-2.4479	-2.6604	-2.5667	-2.2375	-2.7396	-2.3875	-2.5375	-2.6896	-2.4479	-2.4375	-2.8042	439.488	151.484	224.174	137.668	399.122	446.436	400.720	362.556	174.780	458.852	267.485	459.678	158.870	483.490	348.450	416.799	0.0036691	0.00049219	0.00026686	964.22	7.1973e-06	6.2481e-06	1197	278.7	1.1576e-05	4.8971e-06	440.1	209.45	111.05	47.381	1.2915e-05	113.21	0.00075078	0.00024836	7.3038e-05	904.73	3.0087e-06	2.9277e-06	1119.7	261.12	3.014e-06	2.8102e-06	410.02	197.67	103.32	44.811	3.1253e-06	107.73	378.583	218.184	237.603	151.163	303.827	283.138	151.199	155.480	277.134	301.506	155.600	159.664	159.187	163.310	283.054	161.972	-8191	255	
8473.752	1	1	0	0	0.20957	0.046218	0.13358	0.026209	0.037661	0.13414	0.27298	0.28926	0.17412	0.29305	0.20388	0.31318	0.21474	0.15662	0.11132	0.49672	-1.9958	-2.6437	-2.3792	-2.2896	-2.6708	-2.3354	-2.5771	-2.6562	-2.3229	-2.6813	-2.4271	-2.5646	-2.7542	-2.4208	-2.3646	-2.7708	202.015	393.948	316.504	187.471	362.839	250.599	399.563	470.268	215.774	192.110	379.292	480.004	412.103	151.522	409.114	416.861	0.0037078	0.00070505	0.00017279	970.64	1.2878e-05	8.4816e-06	1201.2	280.28	1.873e-05	7.4763e-06	443.46	209.99	111.07	47.412	1.3454e-05	112.85	0.00074927	0.00026222	8.2244e-05	906.9	3.0636e-06	3.0343e-06	1123.6	262.15	3.1744e-06	2.8651e-06	408.21	198.1	103.21	44.704	3.3753e-06	107.42	378.403	241.777	232.818	151.309	279.800	282.758	151.121	155.574	274.092	286.832	154.808	159.314	159.440	163.004	280.192	161.898	-8191	255	
8473.850	1	1	0	0	0.23427	0.32632	0.14408	0.36285	0.17655	0.033167	0.2105	0.20199	0.13755	0.11994	0.098185	0.21715	0.099198	0.065953	0.30252	0.26258	-1.6875	-2.4646	-2.2833	-2.5333	-2.7104	-2.3854	-2.4729	-2.5146	-2.35	-2.4437	-2.3042	-2.5333	-2.6458	-2.5271	-2.5354	-2.9208	428.672	490.727	270.957	182.955	235.423	365.796	467.893	462.745	189.577	188.603	156.832	397.031	291.188	481.551	192.391	400.167	0.0037773	0.00064161	0.00023706	962.59	1.1684e-05	7.4109e-06	1195.1	277.89	1.3638e-05	6.8617e-06	442.32	207.97	110.34	47.286	1.2261e-05	112.36	0.00074749	0.00024346	8.3274e-05	901.66	2.9646e-06	2.7665e-06	1118.2	260.12	3.0143e-06	2.5733e-06	405.98	196.59	102.96	44.561	3.1969e-06	106.95	378.912	228.441	237.613	150.971	274.096	284.321	151.282	155.329	268.340	283.466	154.299	159.510	159.312	163.027	281.291	161.865	-8191	255	
8473.944	1	1	0	0	0.090284	0.12232	0.33888	0.093779	0.19668	0.14668	0.18912	0.15415	0.32614	0.1388	0.22074	0.15768	0.22498	0.32965	0.066452	0.15388	-1.8146	-2.575	-2.5646	-2.5542	-2.5125	-2.4625	-2.4542	-2.9396	-2.4354	-2.5042	-2.5375	-2.5167	-2.5625	-2.5812	-2.2792	-2.7208	460.614	237.558	454.323	465.414	426.525	440.043	216.958	268.505	349.988	440.097	333.347	433.792	187.774	479.807	400.720	154.698	0.0035388	0.00076321	0.00020635	966.67	1.2314e-05	6.349e-06	1204.1	279.65	1.5769e-05	7.731e-06	443.92	210.63	111.35	47.329	1.2029e-05	113.89	0.00071387	0.00026457	7.5356e-05	905.73	2.7955e-06	2.9262e-06	1122.7	261.75	2.8306e-06	2.9147e-06	407.47	198.7	103.44	44.719	3.0052e-06	107.9	380.067	227.598	228.081	151.563	276.517	284.222	150.976	155.463	273.004	293.733	154.932	159.386	159.526	162.762	294.119	161.959	-8191	255	
8474.040	1	1	0	0	0.14713	0.13145	0.14509	0.18881	0.036782	0.10064	0.30081	0.012347	0.18605	0.029211	0.4482	0.46005	0.15785	0.27444	0.1574	0.17079	-2.0667	-2.3021	-2.3063	-2.4938	-2.6208	-2.3271	-2.4938	-2.6479	-2.3604	-2.3771	-2.4938	-2.3354	-2.5438	-2.5667	-2.2958	-2.7958	301.351	378.885	248.774	393.153	211.603	236.963	449.559	438.097	302.907	240.626	266.706	463.799	432.544	477.568	379.040	470.026	0.0036978	0.00083942	0.00015955	968.23	8.5104e-06	5.8055e-06	1194.2	277.71	1.7929e-05	8.0526e-06	432.47	209.05	110.73	47.401	1.2229e-05	113.5	0.00074221	0.00026566	7.5003e-05	903.49	2.6695e-06	3.0264e-06	1119.4	260.37	2.8571e-06	3.2528e-06	404.65	197.79	103.07	44.671	2.9132e-06	107.72	378.683	231.228	219.246	151.113	267.005	253.321	151.304	155.466	266.208	279.361	156.017	159.301	159.625	162.931	283.636	161.946	-8191	255	
8474.136	1	1	0	0	0.20458	0.091221	0.21109	0.13467	0.077822	0.22639	0.20421	0.14142	0.19867	0.20121	0.19427	0.060774	0.14687	0.20199	0.09837	0.36799	-1.9167	-2.3271	-2.5917	-2.4396	-2.5979	-2.5625	-2.3792	-2.7229	-2.4375	-2.6562	-2.4375	-2.4396	-2.5771	-2.4083	-2.2729	-2.7812	227.517	376.807	267.723	455.047	318.073	314.949	143.513	418.399	490.421	216.504	207.200	488.181	442.685	479.376	411.559	458.697	0.0035979	0.00074957	0.00018176	960.39	1.0758e-05	7.8939e-06	1197.3	275.25	1.479e-05	5.7673e-06	435.76	208.84	109.96	46.359	1.2026e-05	112.43	0.00073346	0.00027121	6.9518e-05	899.44	2.8449e-06	3.1686e-06	1118.1	258.1	3.0322e-06	2.7815e-06	403.81	197.14	102.14	43.961	3.0502e-06	106.81	379.017	217.259	238.316	151.136	277.755	286.912	151.271	155.645	260.309	271.662	155.542	159.355	159.190	163.003	285.374	161.927	-8191	255	
8474.232	1	1	0	0	0.03934	0.060166	0.32559	0.20887	0.25277	0.1544	0.26946	0.043126	0.26352	0.095606	0.19301	0.29197	0.33603	0.33194	0.2092	0.26528	-2.1375	-2.4417	-2.4479	-2.4042	-2.6229	-2.5146	-2.4208	-2.6708	-2.4896	-2.3208	-2.4125	-2.6562	-2.7687	-2.6417	-2.425	-3.0187	373.785	380.037	474.851	346.937	150.369	413.194	465.618	436.429	396.493	236.119	315.333	483.633	424.373	496.190	446.203	460.179	0.0035245	0.0009015	0.00020116	960.93	1.157e-05	7.0902e-06	1190.9	274.26	1.5341e-05	5.927e-06	440.21	207.35	109.83	46.248	1.1117e-05	111.06	0.00072453	0.000269	7.3906e-05	899.66	3.0254e-06	2.8329e-06	1112.3	257.58	3.0071e-06	2.9325e-06	400.99	195.23	101.96	43.662	3.0487e-06	105.7	376.820	218.621	206.795	151.308	284.861	277.534	151.031	155.400	276.540	307.362	155.958	159.300	159.256	162.669	287.229	161.839	-8191	255	
8474.353	1	1	0	0	0.2039	0.14309	0.22396	0.25683	0.093237	0.33427	0.042749	0.1348	0.2494	0.31644	0.081643	0.16043	0.082962	0.23922	0.040549	0.22154	-1.975	-2.1458	-2.5417	-2.3333	-2.5708	-2.7229	-2.4667	-2.675	-2.4208	-2.4292	-2.6229	-2.6292	-2.3583	-2.7771	-2.55	-2.8354	448.692	148.684	290.387	470.318	241.780	197.989	433.105	422.412	470.408	234.871	297.893	442.643	182.325	152.088	366.567	465.305	0.0035435	0.00063144	0.00019739	965.38	1.2825e-05	5.8796e-06	1193.2	278.51	1.3743e-05	8.9723e-06	435.18	208.83	111.05	46.679	8.2493e-06	112.57	0.0007362	0.00026368	7.3839e-05	901.22	3.1331e-06	2.8412e-06	1117	260.52	3.1978e-06	2.7633e-06	404.74	197.23	103.49	44.141	2.9466e-06	106.6	379.042	224.013	222.615	151.397	285.051	287.330	151.156	155.423	278.926	302.592	155.449	159.409	159.353	162.643	283.519	161.932	-8191	255	
8474.425	1	1	0	0	0.15917	0.36528	0.17422	0.36205	0.36638	0.1855	0.2765	0.15671	0.17906	0.19233	0.14017	0.17663	0.21271	0.042825	0.2347	0.24384	-2.0479	-2.3167	-2.5896	-2.5708	-2.5438	-2.6354	-2.7021	-2.6021	-2.5167	-2.4062	-2.6854	-2.5583	-2.4708	-2.7625	-2.4938	-2.6688	385.534	285.098	405.074	443.939	373.520	188.176	400.678	186.191	351.960	468.840	155.979	481.468	139.423	210.945	192.577	419.573	0.0035338	0.00059339	0.00023452	965.17	1.1782e-05	7.9082e-06	1192.7	278.18	1.5684e-05	6.7886e-06	433.88	208.6	110.31	46.811	8.9005e-06	113.3	0.00074233	0.00026103	7.0443e-05	901.6	2.9744e-06	2.9979e-06	1116.6	259.77	3.1255e-06	2.9431e-06	400.2	197.33	102.49	44.041	2.975e-06	107.49	378.594	228.218	241.372	151.061	286.067	283.126	151.002	155.610	282.272	290.980	155.940	159.318	159.245	162.873	276.177	162.167	-8191	255	
8474.521	1	1	0	0	0.040901	0.2173	0.10248	0.43079	0.070449	0.16645	0.18148	0.23547	0.14891	0.30119	0.18329	0.15252	0.32785	0.2955	0.095146	0.17631	-2.1083	-2.4583	-2.6083	-2.5896	-2.5229	-2.6854	-2.5792	-2.6146	-2.6354	-2.3563	-2.5875	-2.6083	-2.5354	-2.9	-2.4979	-2.675	255.831	352.351	252.162	490.176	170.708	383.110	387.315	419.657	338.266	461.627	324.312	160.406	481.575	445.720	356.754	464.118	0.0036881	0.00069587	0.00021417	958.32	9.4194e-06	6.5987e-06	1190	275.58	1.4951e-05	1.0147e-05	438.69	209.17	109.93	46.473	1.2226e-05	113.32	0.00073489	0.00026266	6.5396e-05	896.19	2.8949e-06	2.6773e-06	1116.6	258.09	2.7449e-06	2.8776e-06	403.76	197.31	102.03	43.904	3.0653e-06	107.19	379.880	222.344	226.605	151.449	272.627	291.414	151.037	155.397	264.007	294.206	155.713	159.427	159.251	162.920	302.824	162.100	-8191	255	
8474.617	1	1	0	0	0.14051	0.14741	0.1637	0.33658	0.16085	0.16189	0.26807	0.08812	0.08149	0.24973	0.064378	0.25872	0.14189	0.13852	0.23143	0.11504	-2.2417	-2.5208	-2.6083	-2.775	-2.4042	-2.6083	-2.5875	-2.6021	-2.6542	-2.5438	-2.675	-2.6354	-2.3792	-2.7104	-2.475	-2.625	472.054	177.770	396.658	472.894	165.564	369.462	426.393	212.732	411.764	321.465	277.857	484.621	153.809	472.865	370.672	185.778	0.00371	0.00072408	0.00019145	950.02	8.9851e-06	7.2162e-06	1187.3	273.21	1.71e-05	6.59e-06	436.4	206.82	109.38	46.104	1.1545e-05	112.08	0.00072008	0.00025265	7.3896e-05	892.88	3.0067e-06	2.7589e-06	1111	256.43	2.8784e-06	2.7747e-06	399.09	195.14	101.59	43.646	3.1581e-06	106.48	379.305	221.956	229.315	151.105	280.864	277.866	150.997	155.658	264.302	299.155	155.192	159.258	159.020	162.655	274.830	161.637	-8191	255	
8474.736	1	1	0	0	0.22116	0.14512	0.11909	0.12192	0.32767	0.1304	0.031587	0.15921	0.24649	0.35526	0.1568	0.18701	0.272	0.20655	0.090847	0.23021	-2.1146	-2.3167	-2.55	-2.6354	-2.4083	-2.7854	-2.8667	-2.5104	-2.4875	-2.4021	-2.6083	-2.8854	-2.575	-2.6188	-2.5604	-2.6708	250.391	399.365	422.495	377.995	305.936	195.233	441.601	426.174	209.807	171.774	440.022	496.695	485.690	163.423	206.583	451.707	0.0036625	0.00071944	0.0001929	949.19	1.0497e-05	6.5798e-06	1184.9	276.06	1.371e-05	6.3473e-06	434.77	210.11	111.3	46.848	8.5323e-06	112.95	0.00072418	0.00025895	7.5051e-05	892.2	2.8171e-06	2.5233e-06	1111.5	257.93	2.9586e-06	2.7501e-06	402.56	197.93	103.06	44.266	3.2437e-06	107.61	378.224	213.434	236.602	151.399	280.316	270.677	151.132	155.667	263.486	295.567	154.491	159.399	159.296	162.737	304.289	161.860	-8191	255	
8474.832	1	1	0	0	0.22354	0.18497	0.21014	0.20236	0.028798	0.22616	0.087966	0.37877	0.093447	0.1526	0.1264	0.23576	0.078967	0.1119	0.1895	0.34185	-2.1729	-2.2417	-2.5375	-2.5917	-2.3833	-2.5396	-2.6771	-2.3375	-2.775	-2.4271	-2.575	-2.725	-2.4104	-2.5854	-2.3875	-2.5312	336.819	183.460	226.034	473.079	214.550	479.792	358.773	429.573	174.591	323.635	467.005	155.359	440.027	402.879	455.916	443.606	0.0035651	0.00074703	0.00021112	965.99	1.0483e-05	8.1004e-06	1201.5	281.69	1.4053e-05	7.915e-06	441.99	213.16	112.74	47.675	8.9116e-06	115.55	0.00071523	0.00027104	7.3229e-05	905.71	2.9115e-06	2.6618e-06	1126.6	263.04	2.7521e-06	2.8072e-06	411.27	201.38	104.96	45.039	2.9844e-06	109.48	378.739	221.476	233.908	151.355	271.886	281.356	151.320	155.560	286.073	280.384	155.798	159.412	159.099	162.794	284.506	161.866	-8191	255	
8474.930	1	1	0	0	0.13984	0.30114	0.11363	0.13399	0.083195	0.1304	0.21428	0.099508	0.39111	0.11241	0.058512	0.24969	0.06218	0.19943	0.055852	0.15833	-2.075	-2.3563	-2.2562	-2.8875	-2.4021	-2.5229	-2.6479	-2.4688	-2.5979	-2.4396	-2.5083	-2.85	-2.5083	-2.6104	-2.4896	-2.3771	304.019	151.641	464.749	144.984	478.768	221.983	453.848	396.932	426.094	386.034	413.300	492.840	153.427	363.176	381.803	382.629	0.0037123	0.00094911	0.00024359	976.64	1.4445e-05	5.6555e-06	1215.5	281.55	1.7405e-05	8.2625e-06	443.99	213.11	112.6	47.627	9.0922e-06	114.45	0.00071088	0.00027308	7.5814e-05	912.75	2.7535e-06	2.8226e-06	1137.7	264.63	2.6378e-06	3.0037e-06	411.99	201.25	104.78	44.84	2.9189e-06	108.52	379.910	229.937	217.484	151.348	275.934	291.477	151.197	155.555	274.425	295.236	155.557	159.410	159.249	162.681	301.959	161.874	-8191	255	
8475.024	1	1	0	0	0.14742	0.1195	0.26506	0.20487	0.11296	0.078919	0.16017	0.080756	0.14788	0.16708	0.28654	0.039444	0.21186	0.093229	0.16553	0.35005	-2.1813	-2.4521	-2.3396	-2.8042	-2.2375	-2.3063	-2.45	-2.5583	-2.7167	-2.35	-2.5104	-2.7729	-2.4729	-2.7	-2.7708	-2.6375	332.045	404.005	370.948	159.967	226.536	270.115	436.586	337.644	298.588	159.378	228.301	235.627	471.594	419.549	291.116	437.411	0.0034867	0.00062691	0.00015307	972.15	1.4691e-05	6.3349e-06	1199.5	281.77	1.1563e-05	7.1967e-06	433.43	209.45	111.42	46.967	6.9657e-06	112.94	0.00070924	0.00028926	6.802e-05	908.24	2.94e-06	2.8291e-06	1125.9	262.96	2.8312e-06	3.0487e-06	403.31	198	103.58	44.319	2.8715e-06	107.51	378.742	230.396	234.626	151.432	288.683	290.232	150.869	155.464	268.628	286.483	155.570	159.338	158.965	162.911	288.341	161.965	-8191	255	
8475.120	1	1	0	0	0.17068	0.096657	0.16409	0.070905	0.23518	0.055307	0.15196	0.19238	0.14462	0.23529	0.15694	0.36969	0.21987	0.28366	0.16688	0.3054	-2.075	-2.3167	-2.2375	-2.7	-2.2292	-2.6146	-2.8354	-2.4854	-2.7375	-2.575	-2.2	-2.7125	-2.6229	-2.6479	-2.5229	-2.4583	182.013	138.455	246.933	238.035	139.956	306.223	475.807	399.466	403.560	459.626	227.328	149.504	147.305	148.330	313.471	426.033	0.0037273	0.00061683	0.00019726	963.39	1.0768e-05	7.4915e-06	1194.8	277.96	1.3112e-05	6.5852e-06	439.01	209.49	111.18	47.148	9.1994e-06	113.59	0.00074319	0.00026702	7.3057e-05	900.51	3.014e-06	2.7119e-06	1119.4	260.55	3.013e-06	2.8046e-06	407.22	198.6	103.46	44.526	2.8351e-06	108.06	379.688	214.207	230.854	151.465	282.469	286.472	151.242	155.284	278.244	294.802	155.577	159.222	159.057	163.008	295.558	161.878	-8191	255	
8475.217	1	1	0	0	0.22064	0.16702	0.15007	0.023832	0.23142	0.098147	0.19433	0.11926	0.06757	0.1792	0.17282	0.33206	0.084155	0.23477	0.36705	0.13143	-1.9625	-2.3896	-2.25	-2.6958	-2.5229	-2.4583	-2.8792	-2.4104	-2.5812	-2.7	-2.2917	-2.7938	-2.6063	-2.4167	-2.6396	-2.625	149.216	380.120	264.965	388.328	251.614	193.053	459.036	473.330	240.929	214.185	475.009	424.816	435.542	461.852	423.857	455.277	0.0035569	0.00052378	0.00022092	969.38	8.8756e-06	8.1606e-06	1201.3	282.28	1.4169e-05	6.4852e-06	443.54	212.4	112.95	47.492	1.0079e-05	114.99	0.00073104	0.0002518	7.1359e-05	903.78	3.1473e-06	2.7092e-06	1126.8	263.17	2.9672e-06	2.7962e-06	410.46	200.54	104.65	44.846	2.9164e-06	109.1	378.352	223.388	223.868	151.200	266.066	279.677	151.266	155.737	272.699	286.438	155.773	159.306	159.375	162.901	287.811	161.815	-8191	255	
8475.337	1	1	0	0	0.15233	0.14971	0.086104	0.23147	0.20471	0.16732	0.25204	0.20572	0.30799	0.020513	0.038323	0.24033	0.25205	0.19769	0.12459	0.19026	-1.8917	-2.5396	-2.2354	-2.7438	-2.4354	-2.4562	-2.6375	-2.5375	-2.3312	-2.6312	-2.3125	-2.6854	-2.6104	-2.4917	-2.5812	-2.6396	166.793	425.073	430.325	435.907	454.674	430.133	154.495	369.076	289.715	374.185	377.910	464.509	161.311	342.234	407.214	426.909	0.0037504	0.00070858	0.00022896	978.01	1.1652e-05	7.1436e-06	1210.2	283.11	1.5714e-05	6.9497e-06	461.47	212.75	113.8	47.208	1.2536e-05	114.25	0.00074356	0.00025435	6.8316e-05	916.76	3.0282e-06	2.7464e-06	1135.6	266.34	2.866e-06	2.7557e-06	415.22	201.65	105.47	44.83	2.6611e-06	108.43	377.212	233.387	233.305	151.634	281.581	294.583	151.089	155.475	265.236	281.180	155.602	159.396	159.323	162.906	281.340	161.863	-8191	255	
8475.433	1	1	0	0	0.25746	0.171	0.26889	0.32244	0.23888	0.11209	0.08755	0.19831	0.20419	0.19229	0.29568	0.1659	0.083274	0.080446	0.31154	0.20725	-2.1167	-2.5792	-2.2542	-2.6479	-2.5062	-2.3688	-2.9104	-2.4604	-2.6146	-2.8208	-2.2625	-2.65	-2.5333	-2.3875	-2.6625	-2.5771	396.261	309.181	351.209	468.487	476.996	328.197	450.531	367.129	426.697	444.990	226.907	473.913	391.923	406.737	207.965	477.769	0.0035818	0.00083924	0.000199	971.25	1.167e-05	7.1397e-06	1200.6	279.41	1.3477e-05	5.6108e-06	446.69	210.03	111.68	46.855	8.4756e-06	113.04	0.00072735	0.00024945	6.8172e-05	910.89	2.9646e-06	2.6125e-06	1124.9	262.51	2.7572e-06	2.7345e-06	409.88	197.85	103.31	44.307	2.9542e-06	107.55	379.287	225.062	232.051	151.267	269.109	283.490	150.885	155.570	280.785	295.830	154.878	159.316	159.274	162.773	280.429	161.556	-8191	255	
8475.530	1	1	0	0	0.15593	0.15383	0.037625	0.069581	0.097041	0.10985	0.25982	0.15434	0.20638	0.096705	0.15209	0.19243	0.26866	0.18702	0.047537	0.24442	-1.8229	-2.4875	-2.3271	-2.7271	-2.525	-2.3688	-2.8271	-2.4708	-2.2583	-2.8521	-2.4792	-2.7396	-2.6042	-2.3625	-2.5646	-2.5958	213.326	245.655	410.097	497.658	368.551	289.127	146.197	445.456	267.816	318.028	379.495	365.681	381.421	489.127	469.527	423.618	0.0036882	0.0007427	0.00019428	968.11	1.1857e-05	5.7235e-06	1200	280.38	1.4384e-05	7.443e-06	443.15	210.72	110.68	46.955	9.1535e-06	113.39	0.00072119	0.00025319	7.0615e-05	906.82	3.0025e-06	2.694e-06	1125.2	262	2.8811e-06	2.7353e-06	409.87	198.31	103.1	44.258	3.0203e-06	107.54	379.963	205.009	224.474	151.615	277.610	292.209	151.026	155.658	259.916	277.158	155.806	159.268	159.415	162.957	290.941	162.043	-8191	255	
8475.650	1	1	0	0	0.10195	0.2783	0.14722	0.033102	0.23752	0.31043	0.36872	0.15138	0.084033	0.13062	0.20846	0.16536	0.11069	0.16195	0.1769	0.11475	-2.0792	-2.5521	-2.4146	-2.6792	-2.4313	-2.4771	-2.7313	-2.4792	-2.4521	-2.6083	-2.2729	-2.6292	-2.8917	-2.5646	-2.5917	-2.7979	279.647	457.460	428.263	193.300	249.690	467.885	465.769	337.801	345.983	380.608	338.968	449.556	459.783	384.033	363.529	327.189	0.0034891	0.00089711	0.00018965	956.05	1.3393e-05	7.4418e-06	1194	274.3	1.4663e-05	8.3889e-06	437.68	208.37	109.18	46.322	6.9091e-06	112.95	0.00070942	0.00024008	7.7627e-05	897.5	3.081e-06	2.7494e-06	1118.1	257.93	3.0353e-06	2.56e-06	405.71	196.99	101.44	43.662	3.1084e-06	107.11	377.265	225.501	216.995	151.170	276.684	294.684	151.218	155.685	276.129	279.372	154.751	159.491	159.052	162.777	287.532	161.979	-8191	255	
8475.722	1	1	0	0	0.22949	0.21599	0.10881	0.15553	0.17875	0.19103	0.11669	0.32119	0.27506	0.092902	0.19645	0.13123	0.13963	0.2536	0.012276	0.11807	-1.8479	-2.6833	-2.3563	-2.6542	-2.6188	-2.425	-2.7438	-2.8688	-2.4271	-2.8583	-2.6146	-2.5375	-2.9708	-2.5812	-2.6854	-2.8896	298.464	297.487	288.196	468.822	353.335	191.588	458.269	482.173	253.044	237.621	431.766	445.001	161.663	488.701	212.235	455.083	0.0036915	0.00093453	0.00016786	951.75	1.3752e-05	7.7849e-06	1189.1	275.41	1.4606e-05	8.4761e-06	429.12	205.84	108.04	45.528	1.1054e-05	110.77	0.000737	0.00025595	7.7922e-05	893.68	2.9785e-06	2.8462e-06	1115.4	257.33	2.8605e-06	2.741e-06	400.92	194.82	100.27	42.957	3.0398e-06	105.06	379.173	221.398	223.440	151.212	280.670	280.250	151.164	155.609	288.080	284.796	156.327	159.432	159.521	162.608	290.291	162.022	-8191	255	
8475.818	1	1	0	0	0.13649	0.2243	0.04706	0.12421	0.099634	0.086394	0.18341	0.12723	0.10195	0.1169	0.14576	0.076644	0.13115	0.14163	0.13339	0.29542	-1.9083	-2.6063	-2.5333	-2.35	-2.7958	-2.4562	-2.875	-2.8958	-2.4729	-2.575	-2.6833	-2.6208	-2.7875	-2.6375	-2.8354	-2.9188	203.400	317.932	253.201	469.468	202.273	238.619	470.184	491.713	489.742	395.174	285.085	373.535	190.101	232.024	146.800	411.881	0.003412	0.00052682	0.00015252	946.49	1.2735e-05	3.9179e-06	1171.5	267.41	1.3619e-05	7.2326e-06	416.26	199.61	103.15	43.917	9.5211e-06	107.24	0.00069514	0.00027632	7.7207e-05	883.63	2.7438e-06	3.1516e-06	1095.9	250.49	2.8798e-06	3.0809e-06	391.44	188.51	96.053	41.406	2.9959e-06	101.98	379.327	202.739	227.784	151.295	270.018	311.171	151.435	155.542	252.622	291.292	154.980	159.462	159.023	162.790	277.358	161.999	-8191	255	
8475.912	1	1	0	0	0.22387	0.18358	0.091744	0.22114	0.0301	0.49513	0.24193	0.18091	0.1744	0.20371	0.092049	0.17208	0.23502	0.31974	0.29835	0.21295	-1.9833	-2.6063	-2.7125	-2.5896	-2.9646	-2.5958	-2.8354	-2.8333	-2.4938	-2.8042	-2.6729	-2.7583	-2.8521	-2.7146	-2.7417	-3.0958	358.502	313.856	394.387	486.406	225.097	141.614	438.188	421.669	401.209	270.499	362.098	431.337	489.000	430.233	428.056	449.557	0.0036004	0.00071246	0.00013658	921.71	6.6695e-06	7.7822e-06	1146.5	258.61	1.2529e-05	7.3925e-06	418.61	197.92	101.89	43.548	1.3588e-05	107.39	0.00073595	0.00028473	7.8657e-05	861.46	2.9744e-06	3.2802e-06	1071.3	242.23	3.0639e-06	3.1278e-06	389.32	186.82	94.866	41.134	3.1246e-06	102.22	378.437	242.047	211.901	151.430	288.235	284.479	151.065	155.495	257.099	304.734	156.053	159.584	158.913	162.804	294.083	161.924	-8191	255	
8476.033	1	1	0	0	0.22114	0.20327	0.27297	0.17681	0.11417	0.17591	0.26073	0.050998	0.17301	0.24964	0.062437	0.27922	0.20893	0.18254	0.17914	0.13917	-2.1833	-2.6083	-2.6854	-2.5646	-2.9104	-2.8646	-2.6667	-2.7417	-2.6292	-2.7	-2.7062	-2.725	-2.9021	-2.7	-2.65	-3.1083	147.199	284.002	157.611	182.975	256.366	406.410	416.252	283.765	338.757	193.497	325.538	461.261	367.941	411.907	207.037	440.062	0.0033467	0.00056866	0.0001979	917.01	9.8355e-06	6.0946e-06	1149.4	260.98	1.4959e-05	5.2007e-06	419.56	198	100.77	43.303	7.742e-06	108.38	0.00071752	0.00028323	7.7026e-05	860.09	2.9226e-06	3.0825e-06	1072.9	242.81	3.2353e-06	2.9643e-06	388.12	187.46	93.875	40.867	3.0908e-06	102.81	376.869	216.319	222.004	151.106	279.814	281.720	150.902	155.658	262.996	282.731	155.567	159.422	159.215	163.179	285.699	162.061	-8191	255	
8476.129	1	1	0	0	0.096269	0.19588	0.11758	0.49909	0.11893	0.10049	0.11987	0.099849	0.13188	0.064089	0.22726	0.43987	0.24066	0.073376	0.12705	0.2619	-1.9958	-2.5042	-2.9688	-2.6833	-2.8937	-2.6	-2.8	-2.7917	-2.7479	-2.5375	-2.8021	-2.7313	-2.75	-2.575	-2.4083	-3.0771	182.596	320.613	164.938	469.349	205.155	375.141	404.113	351.338	311.318	202.502	363.230	442.818	473.184	450.400	292.565	456.027	0.0034662	0.00054468	0.00019654	918.96	9.5634e-06	7.932e-06	1149.2	259.93	1.577e-05	7.0805e-06	418.23	198.05	101.78	43.351	9.5417e-06	107.45	0.00074173	0.00027009	7.6224e-05	857.36	3.1987e-06	2.9289e-06	1077.6	242.57	3.5444e-06	2.9147e-06	387.53	186.95	94.667	40.915	3.0257e-06	102.25	379.493	214.776	223.286	151.144	273.783	272.951	150.965	155.226	275.873	292.283	155.974	159.360	159.310	163.180	278.390	161.926	-8191	255	
8476.225	1	1	0	0	0.16236	0.34397	0.081253	0.2544	0.15355	0.30916	0.23862	0.20801	0.22315	0.11418	0.17707	0.23372	0.04414	0.094977	0.14501	0.19026	-2.1958	-2.6458	-2.7417	-2.7354	-2.6979	-2.725	-2.5271	-2.8979	-2.6125	-2.5646	-2.7562	-2.7	-2.5938	-2.95	-2.5958	-3.025	238.366	425.064	202.659	174.769	271.554	339.539	400.888	463.607	475.061	453.792	292.291	425.762	412.382	171.133	229.972	482.484	0.0034067	0.00068152	0.0001755	923.37	9.4831e-06	6.9296e-06	1156.6	262.55	1.5812e-05	5.9588e-06	421.4	199.96	103.08	44.002	9.6415e-06	108.66	0.0007285	0.00027203	7.1826e-05	865.26	2.9973e-06	3.0689e-06	1082	245.32	3.1049e-06	2.8186e-06	390.61	189.03	96.107	41.457	2.8646e-06	103.14	377.759	216.742	229.872	151.250	279.068	294.474	151.206	155.453	268.477	285.623	155.906	159.388	159.376	163.100	280.531	161.804	-8191	255	
8476.297	1	1	0	0	0.084554	0.074432	0.065887	0.15638	0.088051	0.29267	0.17268	0.46838	0.262	0.16769	0.20331	0.10006	0.19885	0.16079	0.10683	0.21392	-2.1021	-2.6833	-2.7438	-2.4792	-2.7125	-2.8917	-2.7125	-2.7521	-2.6125	-2.625	-2.8542	-2.8187	-2.7146	-2.8875	-2.5708	-3.0042	391.327	368.889	217.197	401.095	459.524	454.036	402.939	429.869	238.754	241.288	308.710	442.730	482.477	412.865	488.108	452.575	0.003564	0.00099709	0.00022383	917.2	1.0097e-05	9.772e-06	1141.5	257.29	1.6043e-05	5.2428e-06	409.51	197.26	99.719	42.671	7.3413e-06	107.14	0.00072916	0.00028129	6.6121e-05	858.21	2.8521e-06	2.9311e-06	1069.8	240.48	2.9613e-06	2.6948e-06	379.99	186.27	92.722	40.409	2.979e-06	102.02	378.917	221.961	218.667	151.262	292.721	282.351	150.680	155.523	276.130	308.880	155.590	159.352	159.556	162.859	286.057	161.783	-8191	255	
8476.418	1	1	0	0	0.09847	0.26295	0.026802	0.21486	0.060485	0.29853	0.37764	0.11901	0.0049012	0.23254	0.039607	0.19209	0.14029	0.087351	0.20618	0.47625	-2.3229	-2.3979	-2.8	-2.6271	-2.7438	-2.9854	-2.8083	-2.8	-2.8812	-2.7917	-2.7979	-2.7375	-2.6208	-2.8417	-2.5875	-2.8771	346.815	187.402	423.155	423.164	346.738	397.919	446.734	484.853	467.134	313.604	400.419	400.117	400.910	449.865	394.179	434.585	0.0035112	0.00050745	0.00018063	892.25	1.0386e-05	7.2001e-06	1124.5	249.15	1.1827e-05	4.8681e-06	413.03	198.15	98.747	42.852	6.5015e-06	108.57	0.00070696	0.00024294	7.0872e-05	835.24	2.7761e-06	2.8086e-06	1053.7	233.34	3.066e-06	2.5063e-06	381.57	186.64	91.853	40.507	3.061e-06	103.1	378.720	225.966	232.240	151.232	282.003	278.380	150.876	155.502	289.397	273.781	155.466	159.269	159.338	162.485	293.903	162.060	-8191	255	
8476.514	1	1	0	0	0.23136	0.13046	0.14641	0.19029	0.19039	0.099895	0.15962	0.0017079	0.10106	0.096203	0.11918	0.23427	0.22577	0.11024	0.13391	0.28474	-2.0563	-2.4479	-2.7	-2.7021	-2.55	-2.8729	-2.4833	-2.8396	-2.7667	-2.4083	-2.7271	-2.7604	-2.4292	-2.9458	-2.5812	-2.7104	496.442	214.729	490.061	207.969	295.405	445.770	375.909	180.000	162.785	446.398	346.642	436.723	491.832	378.072	237.219	454.045	0.0034606	0.00089898	0.00020311	909.34	8.5778e-06	7.4425e-06	1150	255.38	1.5253e-05	6.8201e-06	420.51	200.47	102.6	43.894	9.7108e-06	109.03	0.00071023	0.00025459	7.3381e-05	848.64	2.7626e-06	2.7122e-06	1076.6	240.54	3.0842e-06	2.6607e-06	392.44	189.35	95.036	41.466	3.2282e-06	103.64	378.756	219.824	227.229	151.385	277.742	276.573	151.117	155.430	270.916	287.638	154.893	159.156	159.107	162.820	274.821	161.873	-8191	255	
8476.610	1	1	0	0	0.084362	0.17979	0.22478	0.21774	0.25825	0.062991	0.26403	0.06423	0.23831	0.22235	0.1501	0.44054	0.12373	0.083204	0.1015	0.22718	-2.1688	-2.4313	-2.9542	-2.6208	-2.6333	-2.7833	-2.8417	-2.7083	-2.6604	-2.575	-2.6729	-2.7729	-2.6125	-3.0146	-2.375	-2.5979	496.821	267.972	201.768	440.332	475.394	285.573	413.716	168.723	464.774	483.167	162.735	456.967	142.324	471.933	222.743	393.007	0.0035031	0.00047581	0.00020267	931.65	8.2975e-06	5.9969e-06	1170.6	267.34	1.6271e-05	5.5198e-06	422.78	203.3	105.97	44.37	9.7385e-06	109.09	0.00070987	0.00025319	7.5451e-05	874.08	2.8532e-06	2.6117e-06	1094.9	249.41	2.9307e-06	2.9427e-06	395.82	191.77	98.445	42.054	3.1246e-06	103.65	379.460	230.828	243.972	151.284	276.956	276.921	151.031	155.514	262.549	285.089	156.278	159.292	159.251	162.733	293.006	162.050	-8191	255	
8476.731	1	1	0	0	0.12766	0.032191	0.20813	0.20915	0.18613	0.23083	0.25004	0.11912	0.27625	0.21386	0.063761	0.33217	0.41234	0.36204	0.42947	0.18782	-2.3479	-2.5646	-2.7354	-2.7792	-2.5375	-2.6958	-2.7062	-2.6312	-2.8812	-2.5667	-2.7042	-2.8167	-2.5479	-2.8292	-2.525	-2.6729	233.112	384.029	477.877	417.058	285.275	453.258	473.549	153.857	168.999	265.387	413.637	468.365	475.289	151.678	155.072	477.675	0.0035013	0.00059928	0.00014411	955.6	1.0868e-05	7.3374e-06	1188.6	273.29	1.7929e-05	5.8036e-06	435.68	203.46	107.43	44.653	1.3027e-05	108.63	0.00070887	0.00028888	7.4774e-05	895.24	2.9275e-06	2.9444e-06	1112.6	255.91	3.0178e-06	3.0608e-06	402.42	192.5	99.918	42.152	3.194e-06	103.45	378.454	219.133	224.832	151.264	280.210	278.561	151.156	155.281	258.372	294.615	156.091	159.359	159.267	162.875	260.798	161.891	-8191	255	
8476.825	1	1	0	0	0.24878	0.22473	0.21097	0.2087	0.22109	0.35014	0.072841	0.22258	0.17201	0.28062	0.31711	0.20907	0.16074	0.19528	0.18332	0.27411	-2.1729	-2.5042	-2.8479	-2.9604	-2.6854	-2.7	-2.6688	-2.6917	-2.8125	-2.4875	-2.6	-3.0083	-2.725	-2.8458	-2.7542	-2.6875	335.185	332.494	409.885	139.483	268.572	147.037	156.021	489.403	463.258	470.613	257.360	424.841	215.880	459.670	151.283	489.429	0.0035162	0.00099135	0.00020828	957.33	1.3865e-05	5.5281e-06	1186.4	273.56	1.0568e-05	6.5032e-06	430	205.08	107.36	44.866	8.327e-06	109.89	0.00070092	0.00029641	7.2399e-05	895.45	2.9199e-06	2.9304e-06	1113.8	256.05	2.8529e-06	3.0578e-06	400.81	194.18	100.21	42.325	2.9736e-06	104.47	379.531	228.365	235.377	151.161	290.179	280.846	151.130	155.350	283.312	300.390	155.554	159.298	159.257	162.738	280.633	161.922	-8191	255	
8476.921	1	1	0	0	0.20813	0.028972	0.24501	0.16436	0.18515	0.19217	0.11477	0.31752	0.19964	0.046665	0.14673	0.076073	0.15888	0.062549	0.092652	0.12859	-2.5146	-2.7083	-2.6167	-2.8583	-2.3958	-2.8854	-2.8958	-2.4583	-2.7271	-2.3542	-2.5396	-2.9667	-2.525	-2.9542	-2.6875	-2.6208	346.185	368.070	410.100	472.435	398.148	219.239	359.863	332.932	328.189	497.248	239.455	314.478	301.800	177.333	311.186	473.149	0.0033254	0.0008819	0.0001861	951.95	1.3425e-05	6.3394e-06	1189.1	273.68	1.4101e-05	8.0128e-06	426.7	203.48	105.9	44.003	1.1487e-05	108.12	0.00070376	0.00029076	7.1712e-05	891.32	3.1869e-06	2.8052e-06	1111.6	254.85	2.8694e-06	3.0158e-06	397.13	191.76	98.404	41.608	2.9276e-06	102.45	378.951	243.922	216.071	151.219	277.117	281.338	151.235	155.454	258.813	282.507	155.540	159.377	159.124	162.712	275.136	161.821	-8191	255	
8477.017	1	1	0	0	0.09283	0.10025	0.1312	0.078012	0.3699	0.072574	0.1636	0.04666	0.28912	0.11995	0.088159	0.32877	0.11049	0.1974	0.20322	0.20897	-2.2812	-2.6646	-2.4958	-2.825	-2.45	-2.8396	-2.7417	-2.6854	-2.6604	-2.6937	-2.6729	-2.9583	-2.5708	-2.6854	-2.7396	-2.7083	183.957	214.225	208.512	444.325	433.475	365.496	453.906	472.447	401.662	287.650	339.777	461.120	166.908	414.458	232.199	493.852	0.0035215	0.00066467	0.00019331	934.06	9.7549e-06	7.3164e-06	1166.3	264.53	1.0163e-05	5.6095e-06	414.86	198.85	102.78	43.57	1.2064e-05	107.65	0.00071382	0.00027455	7.3381e-05	875.1	3.0674e-06	2.7468e-06	1087.5	247.32	3.0973e-06	2.878e-06	390.61	188.48	96.039	41.147	2.9175e-06	102.01	378.654	217.372	211.664	150.955	292.727	276.796	151.179	155.487	277.050	284.955	155.391	159.297	159.208	162.907	291.753	161.819	-8191	255	
8477.113	1	1	0	0	0.19225	0.16794	0.32496	0.14614	0.26131	0.34869	0.052216	0.15327	0.12367	0.093492	0.07928	0.23078	0.19431	0.40308	0.257	0.29886	-2.3625	-2.4479	-2.5375	-2.8333	-2.6333	-2.6479	-2.825	-2.675	-2.7313	-2.6417	-2.5771	-3.0229	-2.5083	-2.6854	-2.7542	-2.8	316.171	450.064	252.256	380.951	227.496	368.557	355.677	321.028	438.964	334.913	161.757	144.175	402.986	485.080	460.356	468.881	0.0034212	0.00076757	0.00024907	934.32	9.5819e-06	6.2861e-06	1171.3	267.22	1.4805e-05	7.5809e-06	428.21	204.35	106.97	45.091	9.8993e-06	110.49	0.00069964	0.00028323	7.3124e-05	874.76	2.9605e-06	2.8154e-06	1095.6	251.08	2.9507e-06	2.8061e-06	397.55	193.33	99.494	42.463	2.7661e-06	104.61	378.585	212.931	226.258	151.383	281.168	282.411	151.007	155.394	271.720	295.728	156.171	159.507	158.840	163.215	285.241	161.828	-8191	255	
8477.210	1	1	0	0	0.11275	0.13732	0.24338	0.089757	0.2041	0.26652	0.1208	0.28852	0.033208	0.16838	0.10764	0.089219	0.1388	0.22403	0.16601	0.19025	-2.2167	-2.6771	-2.5104	-2.8354	-2.6146	-2.6854	-2.9667	-2.5854	-2.8417	-2.7979	-2.6792	-2.9375	-2.7271	-2.7375	-2.8229	-2.7521	236.123	405.540	293.665	355.745	233.744	296.591	370.297	414.238	381.469	287.029	434.551	424.245	190.999	483.521	474.119	452.592	0.0036135	0.00074661	0.00019924	955.28	1.1244e-05	6.7808e-06	1195	275.65	1.4339e-05	8.6348e-06	439.08	210.02	109.84	45.754	1.1485e-05	111.54	0.00071845	0.00028289	6.9699e-05	893.34	3.0018e-06	2.6785e-06	1119	257.24	2.8068e-06	2.8182e-06	409	198.02	101.9	43.176	2.9678e-06	105.96	378.718	233.352	238.931	151.205	286.029	279.268	151.035	155.704	288.640	300.431	154.895	159.336	159.285	163.066	275.584	162.004	-8191	255	
8477.330	1	1	0	0	0.12818	0.031364	0.24712	0.11694	0.27175	0.25987	0.058076	0.073575	0.048986	0.058253	0.21294	0.32116	0.22893	0.23323	0.2081	0.27679	-2.1896	-2.5812	-2.5	-2.8812	-2.4646	-2.5667	-2.8375	-2.5833	-2.8167	-2.7708	-2.4333	-3	-2.6625	-2.6646	-2.8729	-2.7	204.980	348.707	478.363	482.312	451.967	303.514	143.619	357.723	341.556	255.225	228.187	424.890	392.702	452.811	212.289	402.340	0.003524	0.00047748	0.00024118	960.08	1.0031e-05	7.5651e-06	1196.2	275.46	1.3824e-05	7.4443e-06	436.44	207.36	109.02	45.034	1.1315e-05	109.68	0.00069866	0.00026695	7.5127e-05	897.27	2.8365e-06	2.7464e-06	1123	257.8	2.8567e-06	2.694e-06	404.37	196.19	101.14	42.582	3.03e-06	104.05	379.005	205.839	219.599	151.110	285.623	296.834	151.213	155.406	265.250	275.658	154.825	159.246	159.068	162.795	278.896	161.825	-8191	255	
8477.426	1	1	0	0	0.071363	0.13979	0.031037	0.23407	0.13904	0.17571	0.28646	0.17619	0.21919	0.072521	0.1233	0.26021	0.13212	0.084872	0.1374	0.26693	-2.125	-2.7583	-2.6229	-2.9083	-2.7438	-2.4729	-2.8917	-2.5687	-2.6542	-2.7771	-2.3604	-2.8208	-2.6479	-2.6229	-2.7458	-2.7729	485.088	470.417	165.907	356.753	237.760	353.770	425.748	342.624	392.405	425.169	168.751	431.703	389.110	388.844	194.030	151.701	0.0034848	0.00042336	0.00015612	952.34	1.0361e-05	7.8973e-06	1189.6	273.51	1.5865e-05	6.9126e-06	425.61	205.47	107.79	44.874	9.0811e-06	108.96	0.0007055	0.00023698	7.4545e-05	892.02	2.7435e-06	2.6895e-06	1111.1	254.92	3.0068e-06	2.6036e-06	400.09	193.83	100.09	42.293	3.2339e-06	103.59	380.269	223.682	234.261	151.116	272.952	278.230	151.172	155.729	260.643	275.962	155.040	159.186	159.228	162.900	263.545	161.930	-8191	255	
8477.522	1	1	0	0	0.16056	0.11454	0.14922	0.18568	0.16606	0.13328	0.15425	0.14602	0.068145	0.20294	0.12471	0.18868	0.22057	0.34548	0.098765	0.084123	-2.1667	-2.8354	-2.4979	-2.9	-2.6542	-2.4667	-2.9396	-2.8042	-2.7583	-2.8937	-2.4437	-2.8167	-2.725	-2.4917	-2.725	-2.8792	319.732	200.984	483.020	174.465	204.499	478.588	374.462	472.205	471.721	344.409	344.086	466.107	210.810	471.048	264.306	147.533	0.0035355	0.00067959	0.00016552	950.21	1.1737e-05	7.5127e-06	1185.1	269.34	1.1241e-05	7.8252e-06	434.42	207.4	108.12	44.92	9.2955e-06	109.77	0.00071732	0.00024584	7.7216e-05	888.31	2.7876e-06	2.8833e-06	1106.9	253.26	2.74e-06	2.8034e-06	403.19	195.24	100.17	42.404	3.0045e-06	104.47	377.659	227.496	238.563	151.376	271.405	276.460	151.179	155.524	266.036	278.654	154.061	159.396	159.341	162.859	279.465	161.696	-8191	255	
8477.594	1	1	0	0	0.27183	0.13627	0.022081	0.20971	0.029731	0.05603	0.18981	0.18957	0.25021	0.042205	0.11479	0.11144	0.19464	0.071975	0.12883	0.18999	-2.1354	-2.9062	-2.4958	-2.6833	-2.8479	-2.6417	-3.0375	-2.7292	-2.5917	-2.7646	-2.5896	-2.8479	-2.6542	-2.4854	-2.6167	-3.0479	238.891	488.208	175.419	415.865	381.334	234.732	468.221	349.748	190.185	401.992	416.107	167.304	400.952	233.813	483.876	456.118	0.0036304	0.0006104	0.00020229	953.33	9.7354e-06	7.8975e-06	1191.1	273.55	1.4437e-05	6.3416e-06	438.76	207.65	107.85	44.842	1.2592e-05	110.27	0.00072476	0.00026535	7.3496e-05	889.72	2.7056e-06	2.8549e-06	1114.4	255.93	2.7745e-06	2.9037e-06	405.49	196.46	100.41	42.465	2.7629e-06	104.44	379.094	221.284	220.217	151.355	260.894	281.685	150.857	155.956	268.152	288.515	155.523	159.568	159.091	162.959	292.978	161.787	-8191	255	
8477.715	1	1	0	0	0.17256	0.15583	0.29701	0.24623	0.032607	0.20337	0.17507	0.29804	0.30371	0.27825	0.22582	0.3777	0.27	0.4323	0.11918	0.33461	-2.1125	-2.6437	-2.6271	-2.6688	-2.7771	-2.5042	-3.1417	-2.9125	-2.5438	-2.8542	-2.7313	-2.6771	-2.7542	-2.4875	-2.7	-2.7646	249.418	465.181	277.687	450.896	228.045	374.369	441.353	453.788	194.565	457.349	327.701	410.225	186.753	448.459	174.621	406.329	0.0034998	0.00084535	0.00020947	956.89	1.043e-05	9.0306e-06	1188.3	271.51	1.1439e-05	6.5944e-06	432.14	205.91	107.7	44.575	9.7149e-06	108.52	0.00070663	0.00028388	7.6911e-05	893.02	2.8657e-06	2.9998e-06	1114.5	255.14	2.8612e-06	2.7588e-06	402.29	194.52	100.15	42.082	2.9455e-06	102.84	377.478	206.974	219.889	151.368	271.885	287.003	151.138	155.258	286.713	287.338	154.329	159.240	158.756	162.736	295.685	161.683	-8191	255	
8477.809	1	1	0	0	0.34034	0.21446	0.09742	0.22212	0.16723	0.15006	0.28625	0.19768	0.14885	0.30544	0.25193	0.4375	0.20035	0.19291	0.11883	0.46464	-1.8896	-2.6875	-2.5792	-2.6479	-2.8104	-2.5938	-2.7833	-2.8187	-2.5438	-2.7833	-2.7104	-2.7042	-2.7458	-2.6125	-2.7438	-2.9896	151.965	397.547	243.107	425.244	236.458	145.474	364.021	359.023	362.615	335.752	248.085	466.134	164.498	451.840	354.510	441.205	0.0035192	0.0008307	0.00016304	950.53	9.724e-06	6.5028e-06	1189.5	271.04	9.6552e-06	6.418e-06	427.85	204.75	107.29	44.351	6.7883e-06	107.76	0.00071392	0.00026539	7.1531e-05	890.92	2.9164e-06	2.9444e-06	1110.8	253.92	3.0085e-06	2.8258e-06	397.4	193.17	99.728	41.822	2.8959e-06	102.6	377.775	230.199	242.126	151.238	284.268	282.869	151.123	155.380	252.149	272.358	154.404	159.145	159.035	162.817	292.354	161.919	-8191	255	
8477.905	1	1	0	0	0.32835	0.11469	0.2262	0.13549	0.14236	0.18262	0.26847	0.14845	0.19603	0.10912	0.077636	0.10457	0.1082	0.23682	0.12379	0.36022	-1.8875	-2.6875	-2.4875	-2.6688	-2.7354	-2.7188	-2.8937	-3.0229	-2.4667	-2.8521	-2.6167	-2.7062	-2.9771	-2.5875	-2.5563	-3.0208	364.482	483.771	458.365	182.297	390.205	177.903	432.049	274.905	145.344	232.998	236.176	464.832	165.617	417.507	138.766	492.959	0.0035351	0.00062202	0.0002341	951.89	7.7024e-06	5.9457e-06	1175.9	270.84	1.0775e-05	6.1895e-06	428.2	202.77	106.24	43.836	7.1535e-06	107.73	0.00074346	0.00025844	7.3973e-05	890.2	3.0723e-06	2.7581e-06	1105.7	253.35	3.0384e-06	2.694e-06	396.59	191.59	98.671	41.379	2.9747e-06	102.04	376.824	238.322	220.617	151.199	267.115	273.597	151.068	155.406	280.591	305.944	155.149	159.269	159.229	163.082	272.072	161.746	-8191	255	
8478.001	1	1	0	0	0.22964	0.088354	0.17319	0.077122	0.21925	0.21636	0.24177	0.18094	0.23789	0.28897	0.075271	0.10976	0.14466	0.081175	0.089956	0.15847	-1.9937	-2.6729	-2.5854	-2.4938	-2.7417	-2.5875	-2.6854	-2.7854	-2.5	-2.8312	-2.55	-2.6875	-2.9125	-2.7271	-2.5521	-2.9062	141.698	343.430	220.686	433.602	471.389	371.148	431.700	435.539	373.110	145.012	474.080	381.280	352.715	488.873	140.418	397.600	0.0033884	0.00054869	0.00017303	951.95	9.1823e-06	7.0329e-06	1189.9	273.17	1.7845e-05	8.2529e-06	436.3	205.29	107.25	44.024	1.1951e-05	107.76	0.00069376	0.0002378	7.1178e-05	891.77	2.8303e-06	2.7373e-06	1112.6	255.35	3.0013e-06	2.6721e-06	397.47	193.6	99.471	41.568	2.7629e-06	102.38	377.385	237.333	227.164	151.065	275.600	272.430	150.938	155.607	259.040	279.053	154.644	159.259	158.929	162.665	285.160	161.690	-8191	255	
8478.098	1	1	0	0	0.040425	0.2754	0.18846	0.1311	0.16113	0.1424	0.15377	0.11791	0.12395	0.15585	0.098024	0.20746	0.054514	0.22287	0.12719	0.27415	-2.0917	-2.6562	-2.6063	-2.6542	-2.8979	-2.5896	-2.6896	-2.7354	-2.6521	-2.575	-2.7333	-2.7521	-2.6667	-2.8396	-2.4813	-2.775	324.827	439.655	422.916	482.588	347.121	275.426	222.575	413.067	439.707	205.087	237.068	377.562	409.584	453.707	408.726	140.760	0.0035209	0.00082033	0.00021164	945.76	7.5686e-06	9.2308e-06	1181	269.73	1.339e-05	5.0712e-06	429.92	202.87	106.24	43.815	9.9051e-06	107.01	0.00070457	0.00024867	6.4862e-05	882.4	2.7896e-06	2.7502e-06	1104.5	252.22	2.7775e-06	2.5676e-06	394.84	192.4	98.857	41.407	2.8934e-06	101.72	379.063	227.776	222.564	151.269	287.633	269.310	151.240	155.173	267.182	294.195	155.893	159.274	159.252	162.849	293.923	161.880	-8191	255	
8478.194	1	1	0	0	0.066812	0.16405	0.095282	0.13926	0.11907	0.20232	0.21612	0.14861	0.22957	0.085693	0.060113	0.16802	0.087425	0.021833	0.15858	0.34467	-2.0958	-2.5792	-2.6375	-2.5396	-2.5083	-2.6958	-2.7271	-2.7562	-2.5708	-2.6708	-2.6813	-2.6146	-2.7042	-2.7396	-2.4771	-3.0417	177.302	211.122	465.615	451.943	411.367	391.767	464.645	424.563	310.924	158.983	228.985	483.127	444.519	423.277	150.942	434.408	0.0034853	0.00079224	0.00021182	944.65	1.0289e-05	8.268e-06	1178.5	271.07	1.2939e-05	7.5151e-06	420.83	206.44	108.01	44.577	1.1478e-05	109.08	0.00069056	0.00023746	6.9432e-05	881.7	2.7858e-06	2.7593e-06	1102.5	254.04	2.7314e-06	2.5793e-06	395.98	194.96	100.49	42.151	2.8564e-06	103.69	377.990	220.748	224.827	151.394	283.034	285.275	151.149	155.414	272.153	280.358	155.331	159.156	158.752	162.947	283.515	161.752	-8191	255	
8478.290	1	1	0	0	0.085067	0.19235	0.058119	0.32127	0.16315	0.19061	0.11311	0.182	0.22664	0.1088	0.12397	0.25803	0.12509	0.083557	0.12094	0.32115	-2.05	-2.3146	-2.5812	-2.5021	-2.4979	-2.8271	-2.725	-2.9375	-2.5417	-2.4521	-2.7229	-2.6229	-2.6396	-2.8854	-2.5354	-3.1354	177.819	275.506	255.778	460.678	300.835	361.761	438.200	144.368	438.458	419.282	443.083	427.408	354.757	486.968	315.233	423.139	0.0035441	0.00064311	0.0001763	947.2	1.1053e-05	7.7127e-06	1188.2	272.42	1.334e-05	5.37e-06	430.88	207.14	107.42	44.486	1.0106e-05	109.88	0.00069597	0.00023341	6.7982e-05	883.99	2.683e-06	2.532e-06	1110.4	254.75	2.8133e-06	2.4911e-06	399.16	194.66	99.916	42.064	3.0865e-06	104.11	378.447	247.418	220.643	151.117	272.196	277.623	151.001	155.523	278.485	278.595	156.604	159.267	159.235	162.814	272.875	161.632	-8191	255	
8478.411	1	1	0	0	0.30799	0.17029	0.24491	0.15302	0.27481	0.084263	0.31553	0.42082	0.1923	0.05801	0.11291	0.32778	0.28513	0.32865	0.20167	0.36236	-2.0375	-2.3312	-2.8604	-2.6562	-2.6854	-2.675	-2.6896	-2.8521	-2.6146	-2.5146	-2.9688	-2.6208	-2.6875	-2.8854	-2.6292	-2.7896	473.118	161.743	179.168	472.182	178.149	363.676	429.260	149.327	483.808	470.506	325.727	475.151	433.189	153.684	428.187	489.329	0.0036662	0.00068567	0.00015647	940.93	1.0377e-05	7.6631e-06	1189.9	273.88	1.6196e-05	8.5468e-06	433.08	207.39	107.93	44.817	1.0305e-05	110.15	0.00072177	0.00024352	7.1836e-05	883.55	2.6601e-06	2.6193e-06	1112.3	255.02	2.6698e-06	2.7981e-06	401.96	195.45	99.967	42.129	3.0487e-06	104.41	379.355	229.103	226.610	151.282	272.760	294.843	151.103	155.545	266.303	291.050	155.304	159.407	159.594	162.887	273.873	161.727	-8191	255	
8478.507	1	1	0	0	0.13935	0.18256	0.2212	0.22385	0.14679	0.25211	0.16037	0.13377	0.14256	0.15046	0.1259	0.19985	0.28226	0.03912	0.15073	0.26738	-2.2583	-2.4979	-2.7958	-2.6729	-2.5687	-2.7646	-2.7542	-2.7562	-2.4917	-2.5146	-2.6896	-2.5875	-2.5875	-2.8771	-2.3396	-2.7875	391.926	199.344	243.519	433.165	168.581	413.262	412.301	274.766	434.421	249.269	427.645	481.194	436.724	235.909	386.328	395.174	0.0033992	0.00073632	0.00021209	940.28	1.3217e-05	6.652e-06	1183.6	268.61	1.5062e-05	5.4928e-06	431.09	205.67	107.12	44.265	8.5528e-06	107.8	0.00068508	0.00025524	7.091e-05	879.26	2.5876e-06	2.6868e-06	1106.1	252.46	2.7104e-06	2.8311e-06	397.82	193.42	99.415	41.746	2.8143e-06	102.45	378.914	221.891	229.840	151.345	282.459	276.218	151.020	155.350	278.878	264.556	154.621	159.213	159.432	162.992	275.237	161.921	-8191	255	
8478.603	1	1	0	0	0.23354	0.14658	0.17998	0.26987	0.22155	0.16043	0.30244	0.042892	0.10838	0.29423	0.32023	0.038062	0.2908	0.1753	0.034553	0.11308	-2.3083	-2.4229	-2.8187	-2.5896	-2.6667	-2.7667	-2.7333	-2.7417	-2.6542	-2.45	-2.5042	-2.7917	-2.3042	-2.8312	-2.3563	-2.5812	141.994	289.881	299.411	228.393	451.523	328.771	422.608	486.222	160.139	332.931	492.028	272.552	169.474	400.976	310.751	167.024	0.0034534	0.00060293	0.00019943	943.59	9.6461e-06	6.6919e-06	1178.7	271.73	1.1111e-05	8.1042e-06	425.83	205.39	107.34	44.564	8.6193e-06	108.17	0.00068659	0.00028364	6.6408e-05	882.24	2.7063e-06	2.7991e-06	1104	254.21	2.7084e-06	2.9866e-06	397.64	193.58	99.943	41.93	3.025e-06	102.66	378.026	210.892	237.711	151.321	280.536	272.348	151.021	155.769	271.593	295.388	154.583	159.288	159.225	162.772	291.259	162.007	-8191	255	
8478.699	1	1	0	0	0.042912	0.16474	0.37646	0.17213	0.0064661	0.29316	0.24895	0.090594	0.069614	0.15819	0.066481	0.32419	0.24874	0.34016	0.27025	0.31157	-2.3208	-2.4792	-2.8187	-2.6437	-2.2708	-2.6417	-2.6917	-2.6146	-2.7938	-2.5292	-2.5625	-2.7458	-2.5687	-2.8229	-2.4083	-2.8063	300.494	162.992	183.279	451.411	139.985	290.492	358.716	437.033	169.768	456.584	495.432	448.811	467.118	166.291	208.075	395.769	0.0033488	0.00091407	0.00016571	947.39	1.1011e-05	7.3342e-06	1179.8	271.62	1.6051e-05	7.1917e-06	437.4	206.02	107.84	44.758	9.3627e-06	109.07	0.00068526	0.00027189	6.532e-05	885.47	2.806e-06	2.6242e-06	1106.1	254.57	2.7283e-06	2.6543e-06	400.81	194.55	100.18	42.165	2.8283e-06	103.56	378.167	224.784	227.012	151.599	294.249	293.519	151.259	155.422	260.491	293.304	155.882	159.331	159.067	162.957	268.735	162.094	-8191	255	
8478.820	1	1	0	0	0.13834	0.040996	0.065285	0.22326	0.24215	0.20386	0.16871	0.085757	0.12341	0.31884	0.18534	0.24487	0.16958	0.1773	0.024064	0.46439	-2.1813	-2.6937	-2.5771	-2.6646	-2.2917	-2.7521	-2.6917	-2.6854	-2.9458	-2.5187	-2.5208	-2.9313	-2.5667	-2.8104	-2.5979	-2.7521	317.309	215.343	141.834	139.639	493.001	262.118	486.564	465.914	291.925	147.201	286.471	487.386	413.329	141.614	295.954	443.413	0.0035511	0.00077191	0.00019669	947.21	1.0843e-05	5.9037e-06	1187.7	271.51	1.6629e-05	7.3277e-06	435.46	205.23	107.49	44.344	9.1443e-06	108.7	0.00071367	0.00025582	7.0271e-05	886.49	2.9834e-06	2.5343e-06	1109.2	254.62	3.1031e-06	2.7837e-06	398.94	193.95	99.52	41.814	2.888e-06	103.38	378.227	222.572	217.662	151.181	273.441	273.420	150.895	155.568	271.942	288.070	154.553	159.255	159.090	163.151	278.375	161.901	-8191	255	
8478.891	1	1	0	0	0.11645	0.2187	0.085025	0.26048	0.10734	0.071474	0.12117	0.2885	0.18754	0.20367	0.21493	0.08598	0.094802	0.28655	0.098929	0.33679	-2.2438	-2.6229	-2.5062	-2.7875	-2.3458	-2.7021	-2.5604	-2.5396	-2.7875	-2.6	-2.7521	-2.95	-2.5708	-2.85	-2.4188	-2.7292	399.091	427.857	362.694	439.785	195.650	373.163	399.156	432.455	446.095	304.589	175.464	416.548	487.924	483.711	312.511	409.772	0.0036139	0.00057647	0.00024142	937.15	8.8001e-06	8.4752e-06	1170	268.71	1.2181e-05	6.9258e-06	424.44	203.1	106.51	44.055	9.8078e-06	107.21	0.00072471	0.00024478	6.9975e-05	875.54	2.8768e-06	2.6026e-06	1097.7	251.28	2.888e-06	2.8958e-06	394.63	191.46	98.594	41.423	2.655e-06	101.8	378.147	240.416	244.460	151.186	284.098	275.662	151.071	155.455	254.079	291.831	154.505	159.228	159.177	162.801	284.649	161.847	-8191	255	
8479.010	1	1	0	0	0.12267	0.33835	0.21019	0.16801	0.10762	0.1056	0.25412	0.15607	0.10058	0.15965	0.1442	0.073451	0.17086	0.091818	0.26113	0.26782	-2.35	-2.5563	-2.5167	-2.8625	-2.4188	-2.7562	-2.7125	-2.4083	-2.8479	-2.5563	-2.4583	-2.9979	-2.3604	-2.6958	-2.6021	-2.6292	252.168	202.252	234.475	144.878	277.644	495.299	434.773	393.489	164.544	447.113	287.247	451.680	481.589	148.553	140.345	465.062	0.0034052	0.00091814	0.00018127	934.82	1.013e-05	5.7758e-06	1168.2	268.94	1.1935e-05	8.2693e-06	423.61	204	106.22	43.965	1.246e-05	107.95	0.00069675	0.00025766	6.6703e-05	877.23	2.9494e-06	2.7635e-06	1094	251.68	2.9262e-06	2.7864e-06	394.66	192.06	98.826	41.598	2.8208e-06	102.55	379.345	208.340	228.356	151.245	292.998	288.942	150.773	155.387	273.454	273.894	156.703	159.211	159.265	163.021	287.634	161.791	-8191	255	
8479.106	1	1	0	0	0.16877	0.20058	0.05113	0.15564	0.17119	0.11627	0.25394	0.35575	0.052743	0.11789	0.22277	0.31962	0.11272	0.13361	0.051896	0.30049	-2.2417	-2.6479	-2.4667	-2.9	-2.5438	-2.5812	-2.8042	-2.5	-2.9146	-2.6458	-2.5292	-2.8688	-2.4417	-2.8042	-2.5792	-2.9708	352.537	326.593	193.030	241.276	357.703	138.523	449.360	429.829	400.333	245.027	146.493	470.382	426.293	488.133	212.259	439.093	0.0034013	0.0007701	0.00019693	945.83	1.1209e-05	8.7333e-06	1187.1	272.93	9.7821e-06	8.4776e-06	438.8	206.41	109.13	44.92	9.8202e-06	109.44	0.00068307	0.00026808	6.9565e-05	884.56	2.8261e-06	2.6849e-06	1109.3	256.29	2.6571e-06	2.6978e-06	403.79	195.08	101.1	42.384	2.888e-06	103.95	379.393	231.252	222.184	151.336	283.499	294.946	150.727	155.512	272.514	286.313	155.532	159.272	158.923	162.757	286.172	161.881	-8191	255	
8479.202	1	1	0	0	0.1022	0.2896	0.15255	0.13985	0.09702	0.15408	0.25295	0.16035	0.11048	0.14604	0.12155	0.27232	0.17156	0.11251	0.14246	0.23571	-2.1229	-2.6458	-2.4271	-2.8667	-2.3937	-2.5938	-2.9229	-2.5896	-2.8917	-2.625	-2.4771	-2.9271	-2.4458	-2.6646	-2.5958	-2.5021	484.741	150.598	286.648	248.730	142.475	363.135	480.008	178.641	143.241	334.310	447.800	466.952	486.512	141.184	240.597	476.076	0.003491	0.00056235	0.00017478	957.27	5.8306e-06	6.2901e-06	1194.3	276.82	1.4446e-05	5.9909e-06	442.92	208.06	109.96	45.027	9.7065e-06	109.45	0.00069341	0.00024615	6.7314e-05	895.01	2.8205e-06	2.3385e-06	1119.5	259.57	2.5917e-06	2.5771e-06	405.79	196.14	101.63	42.47	3.1609e-06	103.4	378.343	221.870	227.269	151.403	267.506	289.650	151.233	155.496	267.581	269.971	155.293	159.118	159.539	163.112	267.391	161.992	-8191	255	
8479.299	1	1	0	0	0.26394	0.14257	0.14519	0.22901	0.046792	0.24308	0.22605	0.21767	0.23483	0.28689	0.25051	0.21596	0.17679	0.4177	0.048172	0.16949	-2.1	-2.5875	-2.5687	-2.7792	-2.6229	-2.2708	-2.8458	-2.6396	-2.5083	-2.45	-2.3354	-2.6854	-2.475	-2.5854	-2.5792	-2.45	244.994	478.024	273.380	412.455	167.439	300.069	468.429	493.679	472.473	414.462	469.572	392.423	436.935	436.455	226.498	454.934	0.0035233	0.00096287	0.00022341	960.66	1.3056e-05	6.2923e-06	1194.1	276.18	1.5187e-05	7.1264e-06	428.03	203.17	108.58	43.859	1.3244e-05	106.18	0.00070857	0.00026702	7.3582e-05	897.92	3.0535e-06	2.7001e-06	1115.1	258.17	2.6874e-06	2.7769e-06	398.45	191.93	100.4	41.528	3.0721e-06	100.79	378.953	238.168	236.112	151.202	285.721	282.611	150.890	155.443	274.942	298.823	155.780	159.295	159.297	163.002	285.165	161.870	-8191	255	
8479.419	1	1	0	0	0.066134	0.21413	0.21249	0.18666	0.20669	0.30231	0.2985	0.10247	0.053655	0.2686	0.21765	0.18005	0.18181	0.16952	0.27194	0.42024	-1.9542	-2.5292	-2.2062	-2.7375	-2.4562	-2.4896	-2.7562	-2.2417	-2.3833	-2.4813	-2.2167	-2.75	-2.5333	-2.5458	-2.8021	-2.575	181.565	480.010	451.403	393.821	484.742	316.593	483.662	459.831	166.727	444.476	240.672	444.061	170.583	437.863	225.013	139.868	0.0035367	0.00066753	0.00020226	954.02	9.2314e-06	1.0475e-05	1184.6	275.62	1.5513e-05	5.3454e-06	428.88	203.65	108.18	44.28	1.1391e-05	106.88	0.00070032	0.00026007	7.4335e-05	893.96	2.6931e-06	2.9126e-06	1108.8	258.01	2.5996e-06	2.9537e-06	399.57	192.15	100.95	41.81	2.8837e-06	101.48	378.909	225.240	217.213	151.258	289.336	288.994	151.136	155.181	280.494	299.496	155.644	159.305	159.142	163.282	280.496	161.870	-8191	255	
8479.491	1	1	0	0	0.21362	0.0056289	0.2235	0.03339	0.1531	0.098908	0.22393	0.30076	0.16041	0.10604	0.15561	0.2257	0.11584	0.28507	0.19602	0.20236	-1.9854	-2.4917	-2.3271	-2.5292	-2.3729	-2.4167	-2.7771	-2.45	-2.4813	-2.6562	-2.4604	-2.6292	-2.6042	-2.5208	-2.5729	-2.4813	350.258	269.384	182.337	269.071	411.859	488.851	153.981	485.128	289.159	199.998	467.043	431.079	465.270	418.162	176.274	458.160	0.0035655	0.00091425	0.00015022	960.31	8.7356e-06	6.5923e-06	1189.9	279.71	1.2716e-05	8.7752e-06	437.5	206.6	110.94	45.109	1.1081e-05	108.81	0.00069793	0.00028476	6.9565e-05	897.67	2.7622e-06	2.8606e-06	1116.9	261.6	2.634e-06	2.8515e-06	403.57	195.52	103.08	42.601	2.582e-06	103.18	378.566	217.660	237.211	151.242	265.634	288.515	151.163	155.677	269.661	296.869	155.922	159.287	159.074	163.059	293.730	162.077	-8191	255	
8479.587	1	1	0	0	0.095987	0.16878	0.41532	0.15089	0.39702	0.020009	0.19463	0.27799	0.14129	0.087469	0.071167	0.10111	0.51229	0.34388	0.34212	0.35374	-1.925	-2.4813	-2.2417	-2.5729	-2.5646	-2.3063	-2.9042	-2.6375	-2.4688	-2.6792	-2.4458	-2.6833	-2.7021	-2.4229	-2.6437	-2.6271	163.652	427.099	338.826	484.410	442.726	338.234	377.406	469.195	390.148	171.283	369.758	234.730	471.775	418.002	451.579	475.575	0.0032759	0.00076618	0.00020675	967.38	8.7998e-06	6.9351e-06	1209.7	285.49	1.3722e-05	6.8216e-06	447.49	209.8	111.87	45.325	9.7958e-06	108.75	0.00067211	0.00025854	6.9136e-05	907.14	2.7768e-06	2.6739e-06	1131	266.43	2.8319e-06	2.6172e-06	412.01	197.77	104.03	42.721	2.8107e-06	103.33	376.945	221.145	210.050	150.878	271.408	288.384	151.072	155.728	268.075	295.924	155.186	159.234	159.410	162.921	285.316	161.722	-8191	255	
8479.683	1	1	0	0	0.16873	0.15532	0.084622	0.26207	0.16655	0.079947	0.41136	0.24446	0.27452	0.08422	0.06673	0.17418	0.063112	0.088686	0.08074	0.16118	-2.0333	-2.5438	-2.3917	-2.4688	-2.4479	-2.2875	-2.5625	-2.5083	-2.1979	-2.6292	-2.3812	-2.5062	-2.5917	-2.4188	-2.6292	-2.8208	149.329	363.700	372.915	414.383	192.464	208.819	418.492	494.614	423.916	156.664	491.896	494.086	399.874	408.325	176.632	431.809	0.0034786	0.00096384	0.00021386	964.13	1.6231e-05	6.7812e-06	1199.3	280.93	1.5328e-05	5.875e-06	437.03	206.22	111.11	44.701	1.1022e-05	106.86	0.00070402	0.00025728	7.6529e-05	903.42	3.0862e-06	2.6724e-06	1121.6	263.1	2.9799e-06	2.6229e-06	403.9	194.59	103.12	42.187	2.7823e-06	101.48	377.084	225.352	223.759	151.048	269.285	273.398	150.926	155.288	282.259	290.440	155.539	159.361	159.284	163.197	279.981	161.845	-8191	255	
8479.779	1	1	0	0	0.12329	0.21049	0.10218	0.29109	0.26058	0.27773	0.18319	0.10484	0.10328	0.198	0.079322	0.10583	0.16989	0.12341	0.059876	0.12037	-1.9167	-2.4625	-2.2792	-2.6354	-2.5	-2.3625	-2.6333	-2.5812	-2.2438	-2.6813	-2.4458	-2.6417	-2.7333	-2.4958	-2.7125	-2.7042	251.400	396.526	464.833	453.294	262.372	272.273	367.528	354.675	432.242	350.301	431.802	408.142	187.220	402.447	470.060	440.903	0.0034942	0.00083084	0.00020437	973.37	1.0287e-05	1.0005e-05	1204.3	285.95	1.8073e-05	6.7835e-06	437.8	210.09	113.39	45.335	1.0157e-05	108.66	0.00071538	0.00025796	7.0309e-05	908.46	2.9129e-06	2.6523e-06	1126.4	266.94	3.0109e-06	2.5419e-06	408.66	198.39	105.49	42.913	2.7571e-06	103.27	378.687	225.770	235.141	151.248	281.611	271.733	151.026	155.430	266.108	278.317	154.834	159.282	159.092	162.872	289.790	161.867	-8191	255	
8479.898	1	1	0	0	0.19388	0.15666	0.12804	0.18097	0.27538	0.16316	0.19333	0.076068	0.15656	0.32033	0.19754	0.33346	0.34064	0.19057	0.052141	0.063814	-2.0187	-2.6729	-2.2146	-2.4271	-2.6729	-2.375	-2.7646	-2.7667	-2.2062	-2.6312	-2.4625	-2.6083	-2.6896	-2.4625	-2.4854	-2.6479	210.613	431.785	344.514	417.783	227.247	343.763	476.656	481.490	331.738	396.468	337.449	143.633	442.945	175.706	279.363	417.395	0.0036153	0.00065514	0.00017636	975.3	1.0272e-05	7.2126e-06	1210	287.7	1.514e-05	6.4758e-06	455.43	212.15	113.98	46.134	8.5824e-06	110.3	0.00070346	0.00024563	6.7571e-05	910.73	2.6032e-06	2.5028e-06	1131.5	269	2.7263e-06	2.4567e-06	415.51	200.94	105.85	43.536	2.6201e-06	104.96	380.689	228.986	212.294	151.255	293.288	270.233	151.112	155.568	279.305	273.395	155.512	159.392	159.272	162.713	277.749	161.786	-8191	255	
8479.994	1	1	0	0	0.14239	0.071175	0.071216	0.38993	0.12495	0.2907	0.34084	0.24839	0.21491	0.17715	0.18756	0.16241	0.044382	0.12631	0.045303	0.10764	-1.7437	-2.4583	-2.3333	-2.2917	-2.6979	-2.4188	-2.3479	-2.5604	-2.375	-2.6	-2.4437	-2.4833	-2.55	-2.4333	-2.4521	-2.6854	182.528	243.317	398.668	181.260	308.447	268.792	365.148	367.405	390.026	223.851	432.736	429.720	382.619	143.020	189.839	367.608	0.0035478	0.00077469	0.00018439	951.61	1.1628e-05	7.4792e-06	1197.7	279.27	1.2772e-05	7.6893e-06	441.27	212.21	111.63	45.629	9.5601e-06	109.75	0.00069451	0.00024083	6.5997e-05	893	2.6931e-06	2.6644e-06	1120.3	261.16	2.7449e-06	2.666e-06	408.96	199.99	103.68	43.082	2.751e-06	104.48	378.602	225.570	233.083	151.530	283.766	268.757	150.861	155.438	267.633	286.385	155.620	159.547	158.985	162.859	282.975	161.838	-8191	255	
8480.091	1	1	0	0	0.026883	0.067008	0.32079	0.12288	0.16643	0.28648	0.16496	0.3636	0.23554	0.11694	0.089653	0.27493	0.19258	0.0608	0.18447	0.24186	-1.7167	-2.4333	-2.3979	-2.55	-2.7458	-2.2188	-2.4625	-2.4792	-2.3271	-2.6813	-2.5229	-2.4875	-2.5354	-2.5125	-2.3438	-2.6896	329.692	160.738	446.623	457.497	162.701	220.940	415.238	449.002	308.608	357.983	391.136	397.526	169.050	492.102	436.784	467.489	0.0034139	0.00090167	0.000225	959.65	9.7261e-06	7.6717e-06	1199.2	280.92	1.5637e-05	5.8284e-06	432.57	209.92	111.78	45.345	1.0804e-05	108.8	0.0006919	0.00023991	7.0882e-05	896.33	2.7035e-06	2.5943e-06	1121.9	262.72	2.833e-06	2.4033e-06	405.65	198.42	103.75	42.896	2.8556e-06	103.26	377.877	224.238	233.907	151.346	283.502	274.456	150.972	155.342	272.797	275.369	155.469	159.313	159.208	163.087	279.661	162.088	-8191	255	
8480.187	1	1	0	0	0.30582	0.1303	0.13719	0.13493	0.14726	0.19515	0.27483	0.10136	0.13196	0.058373	0.16293	0.34256	0.28223	0.20236	0.14661	0.53336	-1.9604	-2.4208	-2.4021	-2.4479	-2.675	-2.4062	-2.2792	-2.5375	-2.2917	-2.4396	-2.5604	-2.6646	-2.5812	-2.6437	-2.4021	-2.7875	455.945	369.348	294.678	146.779	465.582	311.679	429.239	310.554	398.178	488.129	429.162	461.928	454.742	493.829	351.448	448.021	0.0034804	0.00089351	0.00024272	957.01	1.2231e-05	6.0171e-06	1192.9	278.94	1.4946e-05	6.1839e-06	432.06	208.34	110.97	45.314	1.1963e-05	109.8	0.00069371	0.00024059	7.3925e-05	894.43	2.7358e-06	2.4489e-06	1117.2	260.73	2.8891e-06	2.5248e-06	403.98	196.85	103.13	42.882	2.8754e-06	103.88	378.423	215.088	230.245	151.110	276.776	297.967	151.075	155.408	264.637	281.152	156.316	159.475	159.132	162.848	297.873	161.817	-8191	255	
8480.283	1	1	0	0	0.27092	0.062551	0.09044	0.11675	0.16994	0.12025	0.16783	0.53709	0.18885	0.075421	0.08495	0.28117	0.25321	0.36009	0.10694	0.28016	-1.9729	-2.45	-2.4188	-2.2917	-2.625	-2.3396	-2.5083	-2.7479	-2.4271	-2.4333	-2.5104	-2.65	-2.525	-2.5646	-2.4417	-2.9062	187.190	302.210	139.096	453.810	464.875	214.155	432.951	449.597	390.663	154.460	297.405	493.379	229.918	157.553	358.016	472.458	0.0036314	0.00087177	0.00022649	962.8	1.1059e-05	7.0922e-06	1198.8	281.77	1.5295e-05	5.2881e-06	449.44	212.15	112.76	46.164	1.1474e-05	110.39	0.00070655	0.000236	6.697e-05	898.08	2.5469e-06	2.4922e-06	1122.5	263.31	2.5728e-06	2.5517e-06	410.63	200.16	104.73	43.42	2.66e-06	105.15	378.517	229.240	237.209	151.239	278.948	308.611	151.124	155.558	281.599	296.282	155.040	159.196	158.867	162.814	280.668	161.745	-8191	255	
8480.379	1	1	0	0	0.10877	0.34135	0.088873	0.34398	0.14267	0.19146	0.44921	0.18775	0.11288	0.30453	0.16663	0.32293	0.37151	0.090718	0.23034	0.32306	-1.9458	-2.3812	-2.3875	-2.4104	-2.4375	-2.6354	-2.5083	-2.7021	-2.3542	-2.3958	-2.6542	-2.4146	-2.6375	-2.5167	-2.1688	-2.8458	215.272	401.901	441.219	411.506	362.552	368.509	404.539	436.257	324.873	309.178	433.174	431.315	463.671	418.577	201.756	477.014	0.0035441	0.00074699	0.00021014	969.87	1.1972e-05	5.0638e-06	1209.6	283.26	1.8445e-05	8.2899e-06	442.38	213.49	113.37	46.019	1.0462e-05	110.51	0.0006795	0.00024175	6.3708e-05	904.64	2.5066e-06	2.4998e-06	1134.2	265.75	2.6753e-06	2.733e-06	415.82	201.61	105.78	43.501	2.6435e-06	105.14	377.348	236.620	206.622	151.292	270.807	295.421	151.037	155.400	267.551	290.436	155.460	159.200	159.270	162.963	285.510	161.827	-8191	255	
8480.500	1	1	0	0	0.10283	0.30391	0.13808	0.22116	0.11068	0.054963	0.089211	0.33783	0.14699	0.25538	0.2164	0.26694	0.29995	0.071437	0.15619	0.043779	-1.9937	-2.3042	-2.5312	-2.3604	-2.4375	-2.6542	-2.4604	-2.5521	-2.5521	-2.3083	-2.5062	-2.6646	-2.4437	-2.5104	-2.3292	-2.75	336.270	497.197	145.330	419.895	165.131	316.284	156.957	323.083	273.942	323.670	334.200	452.883	153.858	177.020	318.884	438.406	0.003532	0.00068767	0.00018174	975.23	1.1107e-05	7.431e-06	1216.8	287.77	1.5642e-05	6.6564e-06	447.17	212.7	114.03	46.058	1.1679e-05	109.9	0.0006926	0.00022639	6.2525e-05	911.24	2.5667e-06	2.4277e-06	1139.2	269.85	2.7011e-06	2.4245e-06	415.85	201.1	106.06	43.486	2.7096e-06	104.55	377.014	220.072	226.480	151.467	273.799	286.934	151.128	155.502	265.110	287.405	155.201	158.896	159.260	162.700	289.872	161.885	-8191	255	
8480.596	1	1	0	0	0.21513	0.166	0.1941	0.28341	0.11724	0.27483	0.31681	0.18673	0.15863	0.087083	0.087883	0.21421	0.11388	0.16648	0.14747	0.2177	-1.9625	-2.3646	-2.4938	-2.3937	-2.4875	-2.7458	-2.5062	-2.5375	-2.5208	-2.1729	-2.6083	-2.3458	-2.4396	-2.6833	-2.3042	-2.6604	350.531	400.912	266.373	431.599	347.042	408.199	362.865	413.936	305.143	168.752	307.142	473.814	187.219	486.857	459.387	392.454	0.0035757	0.00079191	0.0002188	970.82	1.3548e-05	1.0205e-05	1217.8	288.86	1.5952e-05	6.2217e-06	443.57	213.92	113.43	46.415	9.4579e-06	110.19	0.00071151	0.00024213	6.1065e-05	908.1	2.6403e-06	2.4599e-06	1138.7	269.88	2.6653e-06	2.2761e-06	413.93	201.75	105.78	43.674	2.6345e-06	104.69	378.521	223.220	220.135	151.136	276.575	277.449	151.164	155.368	274.489	281.929	156.393	159.032	159.250	162.644	290.462	161.870	-8191	255	
8480.692	1	1	0	0	0.086447	0.1387	0.13316	0.16266	0.30018	0.099269	0.16807	0.14174	0.32618	0.12842	0.16936	0.051714	0.093118	0.083099	0.27256	0.20652	-2.0208	-2.375	-2.7062	-2.4437	-2.4125	-2.6375	-2.3917	-2.675	-2.6042	-2.4458	-2.5812	-2.5938	-2.2417	-2.8229	-2.1417	-2.6771	437.813	179.469	424.459	483.461	340.826	173.791	446.316	212.290	383.879	321.436	247.315	398.443	470.262	186.974	345.091	359.416	0.0034976	0.00069961	0.00022775	960.63	1.0837e-05	4.9905e-06	1205.5	282.76	1.1293e-05	7.7294e-06	435.13	211.77	113.02	46.423	1.0579e-05	111.52	0.00069675	0.00023181	6.2048e-05	900.15	2.8067e-06	2.1917e-06	1129	265.1	2.7473e-06	2.4612e-06	406.17	200.54	104.91	43.805	2.7564e-06	105.83	379.926	221.660	235.741	151.389	303.690	295.606	151.250	155.464	277.275	301.696	155.571	159.111	159.536	162.914	277.966	161.875	-8191	255	
8480.788	1	1	0	0	0.24441	0.13463	0.35218	0.32987	0.22201	0.12622	0.31957	0.22747	0.10685	0.028511	0.23691	0.13123	0.38783	0.18212	0.12221	0.25252	-2.1979	-2.3021	-2.5646	-2.5396	-2.1646	-2.7375	-2.5458	-2.4875	-2.7771	-2.2771	-2.5604	-2.6125	-2.4729	-2.6125	-2.4354	-2.6021	207.429	401.551	391.224	447.739	397.202	289.622	436.851	463.856	158.302	373.545	175.852	182.097	495.745	462.207	146.260	142.441	0.0035861	0.00062711	0.00023841	959.3	1.2294e-05	6.4761e-06	1206.4	284.41	1.4089e-05	5.1423e-06	450.17	215.05	113.96	46.541	9.184e-06	112.2	0.00071224	0.00024928	5.806e-05	895.99	2.5872e-06	2.3203e-06	1132.3	265.83	2.4846e-06	2.554e-06	415.19	203.5	105.9	44.133	2.614e-06	106.47	378.419	221.627	225.651	151.566	279.725	298.602	150.754	155.549	280.133	281.188	155.266	159.352	159.332	162.806	282.194	161.874	-8191	255	
#DATA ENDS
