BOXY.EXE: ISS Imagent and Oximeter Data Acquisition Program Version 0.80
Ascii Record File

#ACQ INFORMATION
2  Detector Channels 
16  External MUX Channels 
1  Auxiliary Channels 
5000  Waveform (CCF) Frequency (Hz)
1  Waveforms Skipped 
30  Waveforms Averaged 
1  Cycles Averaged 
16  Acquisitions per Waveform 
10.0806  Updata Rate (Hz) 

#FILE INFORMATION
TRUE -- External MUX Channel results are PARSED.
FALSE -- AC DC and Phase are NOT grouped.
TRUE -- Companion Program Settings File CREATED.
FALSE -- AC data not excluded
FALSE -- DC data not excluded
FALSE -- Phase data not excluded
FALSE -- Auxillary Chn. data not excluded
Tab delimiters

#CALIBRATION STATE
TRUE -- Waveform Calibration Values APPLIED.


#AUX CALIBRATION VALUES
Val Type	aux-1	

Term	1.0000e+00	
Factor	0.0000e+00	


#WF CALIBRATION VALUES
A = Detector Channel
Val Type	A-AC1	A-AC2	A-AC3	A-AC4	A-AC5	A-AC6	A-AC7	A-AC8	A-AC9	A-AC10	A-AC11	A-AC12	A-AC13	A-AC14	A-AC15	A-AC16	A-DC1	A-DC2	A-DC3	A-DC4	A-DC5	A-DC6	A-DC7	A-DC8	A-DC9	A-DC10	A-DC11	A-DC12	A-DC13	A-DC14	A-DC15	A-DC16	A-Ph1	A-Ph2	A-Ph3	A-Ph4	A-Ph5	A-Ph6	A-Ph7	A-Ph8	A-Ph9	A-Ph10	A-Ph11	A-Ph12	A-Ph13	A-Ph14	A-Ph15	A-Ph16	

Term	0.00000e+00	0.00000e+00	0.00000e+00	0.00000e+00	0.00000e+00	0.00000e+00	0.00000e+00	0.00000e+00	0.00000e+00	0.00000e+00	0.00000e+00	0.00000e+00	0.00000e+00	0.00000e+00	0.00000e+00	0.00000e+00	0.00000e+00	0.00000e+00	0.00000e+00	0.00000e+00	0.00000e+00	0.00000e+00	0.00000e+00	0.00000e+00	0.00000e+00	0.00000e+00	0.00000e+00	0.00000e+00	0.00000e+00	0.00000e+00	0.00000e+00	0.00000e+00	0.00000e+00	0.00000e+00	0.00000e+00	0.00000e+00	0.00000e+00	0.00000e+00	0.00000e+00	0.00000e+00	0.00000e+00	0.00000e+00	0.00000e+00	0.00000e+00	0.00000e+00	0.00000e+00	0.00000e+00	0.00000e+00	
Factor	1.00000e+00	1.00000e+00	1.00000e+00	1.00000e+00	1.00000e+00	1.00000e+00	1.00000e+00	1.00000e+00	1.00000e+00	1.00000e+00	1.00000e+00	1.00000e+00	1.00000e+00	1.00000e+00	1.00000e+00	1.00000e+00	1.00000e+00	1.00000e+00	1.00000e+00	1.00000e+00	1.00000e+00	1.00000e+00	1.00000e+00	1.00000e+00	1.00000e+00	1.00000e+00	1.00000e+00	1.00000e+00	1.00000e+00	1.00000e+00	1.00000e+00	1.00000e+00	X	X	X	X	X	X	X	X	X	X	X	X	X	X	X	X	

B = Detector Channel
Val Type	B-AC1	B-AC2	B-AC3	B-AC4	B-AC5	B-AC6	B-AC7	B-AC8	B-AC9	B-AC10	B-AC11	B-AC12	B-AC13	B-AC14	B-AC15	B-AC16	B-DC1	B-DC2	B-DC3	B-DC4	B-DC5	B-DC6	B-DC7	B-DC8	B-DC9	B-DC10	B-DC11	B-DC12	B-DC13	B-DC14	B-DC15	B-DC16	B-Ph1	B-Ph2	B-Ph3	B-Ph4	B-Ph5	B-Ph6	B-Ph7	B-Ph8	B-Ph9	B-Ph10	B-Ph11	B-Ph12	B-Ph13	B-Ph14	B-Ph15	B-Ph16	

Term	0.00000e+00	0.00000e+00	0.00000e+00	0.00000e+00	0.00000e+00	0.00000e+00	0.00000e+00	0.00000e+00	0.00000e+00	0.00000e+00	0.00000e+00	0.00000e+00	0.00000e+00	0.00000e+00	0.00000e+00	0.00000e+00	0.00000e+00	0.00000e+00	0.00000e+00	0.00000e+00	0.00000e+00	0.00000e+00	0.00000e+00	0.00000e+00	0.00000e+00	0.00000e+00	0.00000e+00	0.00000e+00	0.00000e+00	0.00000e+00	0.00000e+00	0.00000e+00	6.18343e+01	-1.31059e+02	-1.28480e+02	-1.84124e+02	-6.87911e+01	-6.82456e+01	-1.56911e+02	-1.62015e+02	-7.40016e+01	-6.54156e+01	-1.77697e+02	-1.71319e+02	-1.80631e+02	-1.77165e+02	-6.37371e+01	-1.49825e+02	
Factor	5.72416e-05	1.94192e-04	5.38199e-05	1.68864e-01	2.83546e-06	2.03816e-06	1.62166e-01	5.20289e-02	3.35572e-06	1.96407e-06	9.52225e-01	2.70685e-02	2.82943e-02	8.99284e-03	2.49629e-06	1.25482e-02	1.20680e-05	1.63461e-05	4.57917e-06	8.64489e-02	1.66670e-07	1.82106e-07	7.82106e-02	2.66752e-02	1.65207e-07	1.81697e-07	4.60311e-01	1.35287e-02	1.46057e-02	4.65260e-03	1.72611e-07	6.31523e-03	X	X	X	X	X	X	X	X	X	X	X	X	X	X	X	X	



#DISTANCE SETTINGS
A = Detector Channel
A-1	A-2	A-3	A-4	A-5	A-6	A-7	A-8	A-9	A-10	A-11	A-12	A-13	A-14	A-15	A-16	

2.5000e+00	3.0000e+00	2.5000e+00	3.0000e+00	2.0000e+00	3.0000e+00	1.5000e+00	3.0000e+00	3.0000e+00	3.0000e+00	3.0000e+00	3.0000e+00	3.0000e+00	3.0000e+00	1.5000e+00	3.0000e+00	

B = Detector Channel
B-1	B-2	B-3	B-4	B-5	B-6	B-7	B-8	B-9	B-10	B-11	B-12	B-13	B-14	B-15	B-16	

1.0000e+01	1.0000e+01	1.0000e+01	1.4400e+00	1.0000e+01	1.0000e+01	1.5100e+00	1.9400e+00	1.0000e+01	1.0000e+01	1.9900e+00	2.4900e+00	2.4100e+00	2.9000e+00	1.0000e+01	2.9800e+00	




#DATA BEGINS
time	group	step	mark	flag	A-AC1	A-AC2	A-AC3	A-AC4	A-AC5	A-AC6	A-AC7	A-AC8	A-AC9	A-AC10	A-AC11	A-AC12	A-AC13	A-AC14	A-AC15	A-AC16	A-DC1	A-DC2	A-DC3	A-DC4	A-DC5	A-DC6	A-DC7	A-DC8	A-DC9	A-DC10	A-DC11	A-DC12	A-DC13	A-DC14	A-DC15	A-DC16	A-Ph1	A-Ph2	A-Ph3	A-Ph4	A-Ph5	A-Ph6	A-Ph7	A-Ph8	A-Ph9	A-Ph10	A-Ph11	A-Ph12	A-Ph13	A-Ph14	A-Ph15	A-Ph16	B-AC1	B-AC2	B-AC3	B-AC4	B-AC5	B-AC6	B-AC7	B-AC8	B-AC9	B-AC10	B-AC11	B-AC12	B-AC13	B-AC14	B-AC15	B-AC16	B-DC1	B-DC2	B-DC3	B-DC4	B-DC5	B-DC6	B-DC7	B-DC8	B-DC9	B-DC10	B-DC11	B-DC12	B-DC13	B-DC14	B-DC15	B-DC16	B-Ph1	B-Ph2	B-Ph3	B-Ph4	B-Ph5	B-Ph6	B-Ph7	B-Ph8	B-Ph9	B-Ph10	B-Ph11	B-Ph12	B-Ph13	B-Ph14	B-Ph15	B-Ph16	aux-1	digaux	

8366.625	1	1	0	768	0.058433	0.10247	0.10212	0.11588	0.19877	0.021852	0.075121	0.053254	0.17473	0.0682	0.11125	0.14046	0.15741	0.2212	0.13965	0.14381	-2.2271	-2.35	-2.5208	-2.8312	-2.3521	-2.45	-2.7375	-2.3604	-2.5167	-2.4792	-2.4854	-2.7292	-2.3458	-2.4625	-2.6312	-2.4646	-106.655	155.918	-94.342	-0.586	-69.491	-136.116	128.377	-11.218	80.584	-44.447	-55.766	53.614	-127.412	115.713	-110.317	188.757	0.0021081	0.00026695	0.00022577	964.65	1.1133e-05	8.055e-06	1154.5	275.97	1.2685e-05	8.0121e-06	457.15	159.3	87.376	33.613	1.2093e-05	78.556	0.0025263	0.0030941	0.00075408	901.6	3.1855e-05	3.3168e-05	1071	257.13	3.1586e-05	3.5538e-05	486.04	150.14	83.044	31.925	3.1692e-05	74.6	33.434	-104.636	-87.934	-154.804	-70.756	-53.618	-154.750	-150.446	-58.303	-33.266	-151.236	-146.850	-146.992	-144.037	-49.162	-144.503	-8191	255	
8366.721	1	1	0	0	0.19047	0.32054	0.055002	0.15344	0.15986	0.31183	0.30368	0.071322	0.079673	0.22496	0.24833	0.23941	0.24616	0.18845	0.13306	0.13412	-2.1375	-2.325	-2.2229	-2.6646	-2.4458	-2.7	-2.6188	-2.7333	-2.7896	-2.5854	-2.4	-2.8292	-2.2979	-2.4813	-2.5396	-2.3958	82.138	-35.623	187.581	185.943	-57.088	-54.473	-136.961	69.015	-40.495	39.452	-143.241	117.173	182.531	178.828	-92.752	106.194	0.0021961	0.00046695	5.4499e-05	967.39	4.5927e-06	7.7295e-06	1153.1	275.1	3.4376e-06	9.6769e-06	456.35	159.93	88.299	33.561	8.8234e-06	79.56	0.0025831	0.0031202	0.00079986	904.86	3.2594e-05	3.2097e-05	1075.9	257.18	3.0263e-05	3.3843e-05	494.01	151.09	83.493	32.023	3.2722e-05	75.47	33.686	-131.587	-65.084	-154.654	-110.151	-82.401	-154.823	-150.808	157.881	-13.700	-151.017	-147.174	-147.820	-143.957	-44.118	-145.043	-8191	255	
8366.817	1	1	0	0	0.24983	0.29997	0.17628	0.24956	0.15354	0.1418	0.17819	0.24307	0.29557	0.02721	0.39342	0.17404	0.15114	0.17549	0.098569	0.20259	-2.1312	-2.3375	-2.1625	-2.725	-2.55	-2.6208	-2.7792	-2.2021	-2.5083	-2.6542	-2.2188	-2.7708	-2.6375	-2.4813	-2.7167	-2.6021	-143.540	145.920	25.834	-126.060	9.948	19.379	148.450	-134.297	-16.540	-52.692	84.933	-110.493	-109.351	127.359	84.418	133.637	0.0018738	0.00077306	0.0001193	973.14	1.9668e-05	1.1327e-05	1159.1	275.64	8.7485e-06	1.5974e-05	463.17	160.42	87.755	33.734	1.1208e-05	78.784	0.0025746	0.0030393	0.00086023	906.05	3.3818e-05	3.2223e-05	1082	258.44	3.081e-05	3.2988e-05	499.4	150.78	83.391	31.961	3.2316e-05	74.555	33.497	-112.441	23.751	-154.828	-56.438	-31.223	-154.358	-150.970	172.450	-38.272	-150.740	-146.827	-147.533	-143.913	-24.261	-144.663	-8191	255	
8366.913	1	1	0	0	0.044312	0.23163	0.11752	0.042131	0.0902	0.094102	0.16361	0.21455	0.36092	0.15123	0.089566	0.29778	0.073917	0.32533	0.18683	0.055957	-2.1667	-2.5521	-2.2125	-2.6771	-2.4646	-2.5208	-2.7812	-2.3625	-2.6271	-2.55	-2.3063	-2.6875	-2.2875	-2.5375	-2.6521	-2.5271	-108.389	-157.014	109.294	99.075	-126.184	28.726	153.445	124.857	-42.855	150.017	94.271	171.557	-149.269	181.309	17.177	79.113	0.0021973	0.00059765	0.0004444	962.99	1.0767e-05	6.134e-06	1145.1	274.32	1.8209e-05	4.884e-06	452.35	158.88	87.409	33.817	1.226e-05	79.164	0.0025222	0.0028706	0.00087811	903.65	3.2442e-05	3.1944e-05	1072.1	256.89	3.0273e-05	3.4001e-05	502.23	149.65	82.935	32.029	3.4825e-05	74.571	37.393	-126.380	-62.474	-154.642	8.516	-63.163	-154.630	-150.599	-43.730	22.354	-151.213	-146.957	-147.938	-144.015	-3.111	-144.591	-8191	255	
8367.009	1	1	0	0	0.28014	0.23727	0.34582	0.21712	0.03992	0.20147	0.026034	0.31394	0.16945	0.072107	0.10128	0.18838	0.25756	0.26255	0.17882	0.15481	-2.0271	-2.6979	-2.3271	-2.8646	-2.4396	-2.475	-2.8937	-2.5812	-2.3417	-2.4979	-2.3708	-2.6542	-2.6271	-2.575	-2.4625	-2.5187	-57.011	71.950	-54.532	143.254	88.856	-87.336	153.363	165.095	-123.243	99.471	-124.483	169.066	-9.800	-158.981	34.084	90.944	0.0022985	0.00019166	0.00015887	972.98	7.99e-06	9.5111e-06	1157.6	274.99	2.453e-05	7.9774e-06	450.57	161.42	88.57	34.239	1.6442e-05	79.496	0.0024787	0.0030987	0.00089209	906.89	3.0926e-05	3.3037e-05	1076.1	258.25	2.8342e-05	3.4421e-05	497.75	151.3	83.765	32.448	3.3432e-05	75.606	31.210	-114.592	-83.219	-154.671	-110.625	-41.332	-154.536	-150.751	-50.650	-40.861	-151.518	-147.212	-147.640	-144.088	-6.214	-144.688	-8191	255	
8367.105	1	1	0	0	0.23466	0.088739	0.20355	0.25522	0.080978	0.18275	0.10793	0.30548	0.28033	0.32461	0.32654	0.13914	0.24301	0.14658	0.31775	0.26829	-1.8021	-2.4437	-2.2938	-2.6583	-2.7896	-2.3937	-2.8375	-2.3083	-2.3479	-2.8438	-2.2354	-2.6167	-2.6146	-2.3333	-2.6021	-2.4688	-10.406	145.831	-66.769	185.416	-152.114	-22.805	80.158	146.209	121.042	-23.599	20.658	-123.980	164.091	-166.296	169.438	71.762	0.0021854	0.00060062	0.00012758	972.29	1.2867e-05	1.1056e-05	1156.3	277.13	2.6328e-05	6.5859e-06	455.18	160.72	88.584	34.118	1.7515e-05	79.878	0.0024393	0.0032779	0.0009415	908.75	3.2024e-05	3.6866e-05	1079.9	259.11	3.187e-05	3.8662e-05	509.19	151.58	83.976	32.392	3.6764e-05	75.704	26.049	4.586	-145.392	-154.807	-40.094	21.692	-154.969	-150.927	-40.695	1.246	-150.992	-146.812	-148.007	-144.079	60.050	-144.510	-8191	255	
8367.226	1	1	0	0	0.21429	0.24679	0.20932	0.31925	0.13936	0.117	0.15179	0.24502	0.17758	0.16783	0.10633	0.04643	0.19104	0.066331	0.23189	0.069897	-1.8979	-2.6625	-2.3917	-2.7375	-2.6417	-2.3688	-2.7375	-2.4625	-2.3021	-2.5229	-2.275	-2.5896	-2.6042	-2.3146	-2.6396	-2.7625	49.986	165.646	190.752	148.479	105.828	119.785	145.642	179.657	171.970	94.994	-31.151	-5.461	-147.916	-139.097	100.586	-39.080	0.0024413	0.0010687	0.00012286	963.42	1.7137e-05	7.1306e-06	1152.1	274.41	1.9391e-05	9.1658e-06	464.39	158.67	87.458	33.798	9.413e-06	79.323	0.0027899	0.003574	0.0010166	903.03	3.5585e-05	3.9699e-05	1078	257.61	3.3885e-05	3.7876e-05	509.75	149.89	83.352	32.264	3.4947e-05	74.908	29.064	-80.669	-16.337	-154.644	-44.856	18.260	-154.729	-150.503	-52.444	-27.852	-150.330	-147.067	-147.697	-143.736	6.242	-144.888	-8191	255	
8367.322	1	1	0	0	0.050394	0.29672	0.25885	0.16289	0.031818	0.05091	0.19838	0.40018	0.18961	0.10656	0.07308	0.22272	0.27661	0.33201	0.11171	0.20806	-2.0479	-2.5958	-2.3688	-2.7875	-2.7708	-2.3812	-2.5896	-2.5104	-2.4458	-2.8479	-2.4854	-2.65	-2.6937	-2.4458	-2.4562	-2.5167	183.713	-97.349	45.729	-156.893	-48.077	-101.456	146.381	147.791	-77.501	98.412	72.459	190.853	131.362	156.193	-109.151	110.732	0.0023132	0.00099752	1.7357e-05	972.31	7.0431e-06	1.0691e-05	1146.9	273.87	1.737e-05	1.3256e-05	449.41	159.7	88.412	33.929	3.713e-06	79.537	0.0028102	0.0032974	0.00096207	902.61	3.4147e-05	3.7974e-05	1070.5	257.02	3.383e-05	3.6248e-05	502.44	150.59	84.086	32.306	3.3361e-05	75.139	31.442	-48.137	5.247	-154.786	105.693	-20.727	-154.624	-150.755	-44.136	9.626	-150.448	-146.915	-147.715	-143.904	50.302	-144.637	-8191	255	
8367.418	1	1	0	0	0.40498	0.13445	0.022379	0.2786	0.071727	0.17874	0.29719	0.20234	0.16536	0.12915	0.13229	0.29377	0.087596	0.35589	0.18682	0.13851	-2.1	-2.5979	-2.4417	-2.5896	-2.5708	-2.4771	-2.6375	-2.7083	-2.3104	-2.6208	-2.4042	-2.5187	-2.7146	-2.3021	-2.4542	-2.6604	-24.148	-12.061	-15.931	136.725	-35.328	65.650	153.855	152.708	-137.039	53.130	-2.703	39.598	182.231	133.187	-80.426	110.183	0.0021836	0.00086001	8.9459e-05	970.63	3.0746e-06	5.1084e-06	1150.1	275.96	1.4703e-05	9.6671e-06	460.6	161.61	88.655	34.23	5.7644e-06	80.316	0.0028049	0.0032881	0.00092533	907.91	3.4772e-05	3.7315e-05	1074.4	258.7	3.3677e-05	3.4823e-05	501.63	151.69	84.289	32.555	3.1144e-05	75.926	30.042	-64.763	167.136	-154.769	-3.267	-36.046	-154.715	-150.756	1.233	17.187	-150.832	-147.123	-147.744	-143.882	1.985	-144.769	-8191	255	
8367.514	1	1	0	0	0.068183	0.12048	0.081686	0.12394	0.06599	0.26853	0.24309	0.19404	0.044275	0.093454	0.20197	0.071916	0.052679	0.16694	0.12469	0.077062	-1.7792	-2.5354	-2.4479	-2.3521	-2.5438	-2.3479	-2.6063	-2.7292	-2.5021	-2.5146	-2.6958	-2.4938	-2.6292	-2.4583	-2.4875	-2.7917	-135.250	-56.746	75.788	37.701	153.744	-164.130	84.873	-101.449	-119.398	-55.727	110.349	-25.090	26.168	-99.149	-12.708	6.003	0.0023057	0.00055358	0.0001752	971.36	1.2896e-05	2.0335e-06	1159.7	278.11	1.4966e-05	6.7876e-06	469.1	162.04	88.902	34.324	1.4209e-05	80.287	0.0027193	0.0030269	0.00086083	908.48	3.2228e-05	3.6095e-05	1080.2	259.98	3.2858e-05	3.4369e-05	498.94	152.41	84.405	32.64	3.0777e-05	76.298	34.285	-71.292	-69.810	-154.754	-81.641	137.756	-154.855	-150.539	-50.169	8.053	-150.682	-147.251	-147.613	-143.858	-25.747	-144.663	-8191	255	
8367.609	1	1	0	0	0.2839	0.075851	0.18616	0.22819	0.20441	0.12904	0.35179	0.16706	0.24532	0.13341	0.29661	0.12577	0.17735	0.10358	0.28234	0.3501	-1.9104	-2.5042	-2.5042	-2.4333	-2.5854	-2.2833	-2.7021	-2.5792	-2.1833	-2.4688	-2.4854	-2.2854	-2.6917	-2.5271	-2.6375	-2.85	34.473	-110.790	81.546	171.960	53.401	-159.408	152.824	-74.789	23.878	152.803	-48.914	140.284	139.921	174.534	-167.849	120.444	0.0020834	0.0014498	0.00023744	972.47	1.0649e-06	1.1762e-05	1154.6	274.58	1.02e-05	8.2275e-06	463.06	160.23	88.463	33.994	1.3057e-06	78.93	0.0027181	0.0030289	0.00086138	910.79	3.1539e-05	3.4414e-05	1077.3	258.23	3.1443e-05	3.1165e-05	492.5	150.49	83.553	32.088	3.0652e-05	74.604	22.429	-86.601	-65.069	-154.930	-84.542	1.629	-154.646	-150.551	-89.447	1.058	-152.361	-146.795	-147.173	-144.199	61.042	-144.420	-8191	255	
8367.705	1	1	0	0	0.10606	0.15249	0.24638	0.06212	0.26826	0.16824	0.17548	0.1627	0.20817	0.083299	0.20485	0.41086	0.16304	0.040308	0.25412	0.14845	-1.9625	-2.4708	-2.5896	-2.3542	-2.5125	-2.4813	-2.6063	-2.6229	-2.3042	-2.5604	-2.5	-2.4979	-2.6188	-2.7021	-2.45	-2.6917	136.940	-122.378	-143.690	152.099	-35.241	148.546	137.595	140.526	104.403	69.644	-119.309	77.109	25.767	94.218	104.175	125.108	0.0023802	0.0011053	0.00041048	970.86	5.1943e-06	1.2508e-05	1152.3	275.68	1.7373e-05	1.5493e-05	456.28	158.94	88.234	33.556	1.3438e-05	78.718	0.0025726	0.002701	0.00084358	905.61	3.0051e-05	3.2028e-05	1071.3	258.05	3.1447e-05	2.9896e-05	493.31	149.6	83.325	31.782	3.1903e-05	74.33	23.647	-73.292	-90.211	-155.007	-103.233	-26.459	-154.920	-150.472	-54.867	-36.357	-150.733	-147.029	-147.534	-143.705	12.158	-144.709	-8191	255	
8367.826	1	1	0	0	0.20333	0.19787	0.087447	0.21172	0.27682	0.10792	0.21456	0.27497	0.34245	0.0237	0.055254	0.12348	0.018612	0.14564	0.095538	0.41538	-1.9708	-2.5625	-2.4792	-2.4583	-2.7167	-2.5375	-2.6229	-2.7062	-2.3792	-2.6667	-2.6937	-2.4271	-2.6792	-2.5938	-2.3229	-2.7125	16.130	-10.475	-129.227	-160.592	66.067	-149.360	144.607	78.097	-39.938	126.402	94.197	-135.420	-63.700	96.810	0.758	178.821	0.0021741	0.0015944	0.00029138	967.89	1.2122e-05	1.0223e-05	1154.3	274.46	1.7558e-05	4.8899e-06	458.35	159.9	88.569	33.678	4.2165e-06	79.172	0.002567	0.0026431	0.00085796	905.48	2.935e-05	3.1188e-05	1075.1	256.33	3.036e-05	3.03e-05	494.15	150.06	83.29	31.822	3.1139e-05	74.773	30.144	-98.312	-77.235	-155.191	-65.775	-62.526	-154.746	-150.670	-24.499	19.834	-150.504	-146.870	-147.461	-143.876	-79.683	-144.557	-8191	255	
8367.922	1	1	0	0	0.29712	0.19272	0.040112	0.32985	0.068196	0.12066	0.18167	0.18139	0.18202	0.17432	0.23136	0.22451	0.09676	0.15026	0.10464	0.29394	-1.8875	-2.3521	-2.5604	-2.3438	-2.5312	-2.5833	-2.4583	-2.7125	-2.3896	-2.2875	-2.5625	-2.5396	-2.5438	-2.4188	-2.1833	-2.7146	44.983	-152.772	-127.719	172.152	-143.266	26.626	79.767	46.565	-50.345	186.302	121.405	62.276	-79.454	30.362	-8.317	125.558	0.0019314	0.00074303	0.00014773	975.97	1.193e-05	9.5597e-06	1149.7	273.81	1.5092e-05	8.4304e-06	457.13	159.93	87.424	33.253	7.5677e-06	78.077	0.0023723	0.0027208	0.00082887	907.95	2.7842e-05	3.3709e-05	1074.9	256.38	3.0212e-05	3.3453e-05	501.04	150.46	82.493	31.703	3.4073e-05	74.113	29.083	-81.669	-165.340	-154.998	-61.892	-39.502	-154.459	-150.636	-67.513	2.318	-151.012	-146.895	-147.623	-143.788	-34.004	-144.866	-8191	255	
8368.018	1	1	0	0	0.18739	0.26876	0.20955	0.059533	0.19939	0.013946	0.17391	0.2421	0.11471	0.093498	0.027264	0.24592	0.13575	0.19759	0.13614	0.41645	-1.7958	-2.3333	-2.6104	-2.4646	-2.4771	-2.6771	-2.6479	-2.7542	-2.3063	-2.4042	-2.4688	-2.3563	-2.3563	-2.6813	-2.2979	-2.7625	-166.171	-38.153	-92.889	93.353	-47.562	-55.488	166.780	19.713	94.459	153.752	7.575	133.995	-151.164	50.200	172.940	120.918	0.0020916	0.00058757	8.1597e-05	957.41	1.0372e-05	6.9355e-06	1148	271.44	1.1894e-05	4.1303e-06	456.93	157.36	85.843	32.903	6.6071e-06	77.234	0.0025525	0.0031323	0.00087708	897.53	2.8975e-05	3.5879e-05	1070.8	254.21	2.9863e-05	3.3532e-05	491.24	148.11	81.15	31.211	3.2868e-05	72.824	33.522	-117.618	-84.751	-154.946	-39.520	-72.555	-154.770	-150.685	-121.458	-134.274	-150.430	-147.106	-147.391	-144.085	-61.357	-144.622	-8191	255	
8368.114	1	1	0	0	0.15839	0.011024	0.19682	0.19412	0.20866	0.030896	0.23542	0.099524	0.16265	0.26137	0.15196	0.27226	0.082027	0.083955	0.10627	0.23426	-1.9688	-2.1813	-2.5917	-2.3646	-2.4646	-2.6688	-2.2812	-2.4792	-2.4896	-2.4813	-2.7083	-2.525	-2.4188	-2.6854	-2.5438	-2.6833	76.053	-43.920	119.329	167.882	-146.852	-59.583	148.737	-152.602	123.898	116.137	-105.592	-163.860	28.886	166.100	-58.570	143.099	0.0020467	0.001364	0.00012817	959.02	1.1414e-05	1.7107e-05	1146.7	271.67	1.1893e-05	9.7586e-06	447.77	156.63	85.566	32.566	6.1371e-06	77.382	0.0024843	0.0030958	0.00083811	894.95	2.9996e-05	3.5502e-05	1068.3	254.1	3.0492e-05	3.3661e-05	484.11	147.28	81.247	31.006	3.1513e-05	72.752	30.831	-77.758	-57.677	-154.872	-37.385	1.500	-154.612	-150.785	-102.914	-29.205	-152.084	-146.988	-147.846	-143.859	-21.973	-144.849	-8191	255	
8368.186	1	1	0	0	0.14155	0.15939	0.28805	0.34404	0.16623	0.13058	0.094101	0.10179	0.14714	0.12958	0.02412	0.21973	0.37771	0.26804	0.05194	0.15825	-2.0167	-2.2979	-2.5833	-2.5958	-2.6354	-2.6813	-2.4188	-2.4271	-2.3896	-2.5104	-2.6021	-2.55	-2.2875	-2.6792	-2.2083	-2.6604	-68.601	112.347	-99.801	144.071	129.349	18.499	-97.851	130.797	-107.552	62.463	-51.627	139.083	139.697	168.470	-148.511	143.210	0.002088	0.00074174	0.00020475	960.1	9.8255e-06	8.4836e-06	1155.1	272.86	2.9469e-05	1.1817e-05	461.59	157.17	86.559	33.006	1.0427e-05	77.911	0.0024563	0.0028586	0.0007911	898.89	2.8991e-05	3.2476e-05	1075	254.86	3.0179e-05	3.1842e-05	488.95	147.8	81.987	31.242	3.0794e-05	73.456	30.059	-68.976	-46.254	-154.747	-56.495	-21.674	-154.839	-150.631	-46.783	-37.776	-150.171	-147.209	-147.363	-143.957	-80.113	-144.611	-8191	255	
8368.306	1	1	0	0	0.22073	0.15512	0.057205	0.1253	0.16341	0.33223	0.33639	0.22642	0.14905	0.040221	0.16295	0.17323	0.07906	0.5657	0.1292	0.15813	-2.2833	-2.2104	-2.5958	-2.4229	-2.3042	-2.6083	-2.3833	-2.5062	-2.5062	-2.4604	-2.5792	-2.6208	-2.3021	-2.6271	-2.4646	-2.5271	-9.334	3.889	118.382	96.449	-100.979	109.300	132.457	185.501	74.685	186.866	1.357	62.288	171.073	-144.286	-58.172	-24.549	0.0019778	0.00081259	0.00033884	966.51	9.806e-06	1.1491e-05	1157.5	275.82	2.3028e-05	9.2006e-06	458.69	159.74	87.5	33.406	6.3738e-06	79.247	0.002539	0.0029185	0.00078378	903.63	2.9939e-05	3.1546e-05	1079.7	257	2.9978e-05	3.2735e-05	486.38	150.02	82.741	31.701	3.0006e-05	74.631	31.878	-147.681	-102.902	-154.801	-59.182	-46.132	-154.677	-150.861	-12.215	19.080	-150.426	-147.112	-147.520	-144.148	-26.600	-144.607	-8191	255	
8368.402	1	1	0	0	0.11386	0.15717	0.095636	0.17863	0.096196	0.22402	0.41011	0.19278	0.12452	0.32117	0.26589	0.30357	0.087106	0.22306	0.22998	0.36356	-2.1542	-2.2833	-2.5521	-2.6354	-2.4021	-2.6562	-2.7479	-2.5312	-2.7021	-2.3354	-2.625	-2.7021	-2.4729	-2.5771	-2.4125	-2.5208	75.266	-94.471	-123.724	152.798	172.432	38.992	164.758	133.437	-66.199	107.090	81.095	176.770	26.066	-66.763	-33.610	155.860	0.0020723	0.00070291	3.9975e-05	963.03	1.2668e-05	3.3334e-06	1156.2	274.2	1.0608e-05	8.9652e-06	458.73	157.46	87.028	32.956	5.13e-06	77.646	0.0025771	0.0030603	0.00075387	901.78	3.0346e-05	3.1852e-05	1075.7	255.92	2.971e-05	3.3227e-05	479.79	148.19	82.285	31.389	2.8552e-05	73.467	31.308	-13.510	-53.072	-154.939	-14.921	89.492	-154.795	-150.498	-105.438	-39.447	-150.982	-147.128	-147.404	-144.065	133.554	-144.736	-8191	255	
8368.499	1	1	0	0	0.11626	0.14628	0.23626	0.12731	0.097675	0.29204	0.24042	0.32163	0.042432	0.057806	0.31065	0.039797	0.26117	0.21475	0.17579	0.22668	-2.0604	-2.2771	-2.6	-2.4854	-2.4125	-2.5042	-2.6312	-2.5104	-2.725	-2.4104	-2.4875	-2.75	-2.3042	-2.6354	-2.5375	-2.4792	-113.160	155.451	127.158	164.440	191.089	-127.653	178.133	169.350	89.964	152.218	-132.428	81.319	-85.299	-91.967	-122.670	10.038	0.0025268	0.00067025	0.0002485	967.79	4.3794e-06	6.7851e-06	1154.5	276.17	1.0914e-05	1.413e-05	456.39	159.01	88.258	33.667	1.5808e-05	79.536	0.0024133	0.0028117	0.00071258	905.01	2.8941e-05	2.9306e-05	1076.9	257.31	2.731e-05	3.0416e-05	481.93	149.7	83.286	31.745	2.8311e-05	75.02	28.660	-65.399	177.241	-155.152	-73.736	-52.384	-154.702	-150.641	-3.041	35.561	-151.924	-146.764	-147.516	-143.958	-0.204	-144.751	-8191	255	
8368.617	1	1	0	0	0.087754	0.18687	0.058961	0.13506	0.17482	0.18573	0.17493	0.14576	0.1653	0.099419	0.29683	0.10922	0.24651	0.2444	0.14399	0.34458	-2.3167	-2.2938	-2.2938	-2.5729	-2.5021	-2.6458	-2.5771	-2.5062	-2.7771	-2.3688	-2.5125	-2.6708	-2.3021	-2.5833	-2.5708	-2.4917	-51.711	150.787	156.712	161.921	91.860	67.244	122.338	96.450	75.648	169.317	68.439	-27.039	172.627	-128.039	4.029	105.079	0.0022295	0.00071202	0.00024345	979.64	1.2334e-05	1.0057e-05	1165.9	277.85	2.103e-05	5.7142e-06	470.15	162.56	89.677	34.29	1.7678e-05	81.383	0.0022831	0.0026409	0.00071525	912.01	2.8932e-05	2.7498e-05	1085.3	259.89	2.8193e-05	2.9621e-05	495.28	152.57	84.693	32.507	3.0366e-05	76.687	29.917	-24.797	-85.245	-154.971	-131.225	26.014	-154.666	-150.699	-57.631	-34.152	-152.508	-146.858	-147.724	-143.717	-55.694	-144.590	-8191	255	
8368.714	1	1	0	0	0.30741	0.32056	0.095614	0.15011	0.093286	0.11467	0.18893	0.23454	0.035478	0.20834	0.31764	0.10945	0.10775	0.12157	0.11602	0.22999	-2.125	-2.3833	-2.4625	-2.8104	-2.2708	-2.6521	-2.5187	-2.5229	-2.5687	-2.4875	-2.35	-2.7687	-2.5042	-2.7042	-2.4813	-2.4729	31.707	161.169	-19.872	177.101	124.298	-123.137	96.787	138.183	-7.971	-92.026	184.143	80.534	26.848	158.057	-23.293	152.969	0.001894	0.00065247	0.00026718	982.63	1.8933e-05	7.7238e-06	1175.2	278.58	1.9172e-05	1.041e-05	469.18	165.07	91.125	35.048	1.0884e-05	82.892	0.0023025	0.0025682	0.00076598	915.43	2.8312e-05	2.7371e-05	1093.3	261.27	2.6893e-05	2.9977e-05	496.52	154.78	85.618	33.195	2.9661e-05	78.045	26.937	-109.745	-118.274	-155.018	-82.318	-14.703	-154.932	-150.730	42.851	-92.579	-152.618	-147.039	-147.509	-144.032	70.208	-144.923	-8191	255	
8368.787	1	1	0	0	0.20256	0.12201	0.024876	0.12969	0.19357	0.2223	0.10362	0.1868	0.14888	0.26669	0.16001	0.094535	0.18188	0.065292	0.15518	0.1474	-2.1063	-2.3021	-2.3167	-2.6813	-2.3271	-2.3896	-2.6208	-2.4521	-2.6312	-2.5312	-2.325	-2.6271	-2.4208	-2.6229	-2.6125	-2.5958	85.467	-28.869	76.444	-124.250	56.779	-5.783	147.842	133.983	157.904	117.096	-165.304	-152.139	130.131	168.748	-138.879	49.714	0.0021895	0.0014182	0.00026936	985.69	1.4038e-05	6.5796e-06	1170.1	280.82	1.6963e-05	5.3568e-06	455.77	164.21	92.056	35.216	1.287e-05	83.389	0.0021708	0.0027034	0.00075797	916.98	2.6401e-05	2.7163e-05	1089	261.77	2.4443e-05	3.0817e-05	491.97	154.36	86.185	33.409	2.9297e-05	78.499	35.503	-119.674	2.805	-154.816	-57.487	-41.580	-154.855	-150.483	-40.635	-84.977	-150.637	-147.046	-147.499	-144.269	9.416	-144.757	-8191	255	
8368.906	1	1	0	0	0.22621	0.1762	0.20212	0.29294	0.30191	0.027446	0.14106	0.17732	0.099619	0.021003	0.16631	0.085297	0.26467	0.1003	0.029505	0.19651	-2.0771	-2.425	-2.2792	-2.6521	-2.1396	-2.5187	-2.7333	-2.6292	-2.7833	-2.5375	-2.4854	-2.8917	-2.2667	-2.4917	-2.675	-2.6521	-16.841	73.242	-55.288	144.422	-97.952	170.491	159.627	107.078	-82.183	-5.250	94.073	99.032	-151.688	64.722	96.750	144.264	0.0024165	0.0010489	0.00022771	985.05	9.878e-06	4.121e-06	1171.9	282.24	9.9128e-06	9.096e-06	470.01	167.25	92.273	36.068	1.5607e-05	84.703	0.0021079	0.0027976	0.00075574	917.59	2.5948e-05	2.9132e-05	1092.1	262.87	2.3843e-05	3.0566e-05	493.57	156.61	87	34.037	2.9139e-05	79.864	37.413	-107.554	-96.584	-154.892	-12.169	-53.359	-154.791	-150.330	-31.710	63.601	-151.772	-146.991	-147.642	-144.159	-60.074	-144.765	-8191	255	
8369.002	1	1	0	0	0.11153	0.041715	0.14877	0.28626	0.22799	0.060131	0.32513	0.21586	0.11966	0.20324	0.11911	0.080199	0.020033	0.23598	0.027084	0.15049	-2.0833	-2.4688	-2.35	-2.6937	-2.3625	-2.2313	-2.6646	-2.2229	-2.7313	-2.5396	-2.3271	-2.775	-2.4583	-2.4167	-2.6167	-2.6833	-43.129	-44.746	-39.174	-164.057	-0.669	-133.141	157.261	178.118	-73.212	107.595	30.762	176.120	54.995	163.571	-100.039	153.156	0.0025055	0.00055794	0.00013171	991.83	1.7972e-05	9.7894e-06	1181.6	284.16	6.2324e-06	1.111e-05	483.52	169.26	93.948	36.983	1.4868e-05	86.781	0.0021855	0.0027872	0.00074964	923.38	2.7086e-05	2.9373e-05	1097.5	264.98	2.4211e-05	2.9539e-05	499.91	158.68	88.073	34.702	2.7344e-05	81.627	33.366	-43.615	-123.082	-154.908	-56.061	40.406	-154.677	-150.661	-138.365	-36.368	-149.585	-146.849	-147.670	-144.156	-27.640	-144.834	-8191	255	
8369.098	1	1	0	0	0.13846	0.16026	0.22014	0.12623	0.17527	0.058333	0.38786	0.15662	0.056725	0.29035	0.083853	0.18283	0.12685	0.19623	0.17878	0.40773	-2.0833	-2.4875	-2.3417	-2.4958	-2.5292	-2.3021	-2.7021	-2.3458	-2.5187	-2.7375	-2.3104	-2.7208	-2.5438	-2.4021	-2.7354	-2.3333	67.836	-7.040	-27.508	189.313	-133.258	175.304	97.646	14.217	-0.028	47.545	171.233	164.810	186.251	-126.549	165.996	129.408	0.0025834	0.0007962	0.00034828	1000.4	1.839e-05	1.0458e-05	1186.1	283.99	1.3886e-05	8.9903e-06	475.66	170.23	94.221	36.808	7.7762e-06	86.38	0.0022039	0.0026708	0.00073145	930.1	2.7319e-05	2.8222e-05	1102.9	265.63	2.6023e-05	2.908e-05	497.27	159.15	88.812	34.827	2.6303e-05	81.322	27.182	-90.551	-48.166	-154.873	-27.268	-38.653	-154.701	-150.577	-117.130	-26.208	-150.140	-146.846	-147.657	-144.304	18.022	-144.629	-8191	255	
8369.219	1	1	0	0	0.047093	0.23107	0.33192	0.095014	0.051951	0.14058	0.39217	0.2726	0.085809	0.11988	0.28138	0.23709	0.29248	0.2301	0.16541	0.33084	-1.9604	-2.6854	-2.3375	-2.7604	-2.5354	-2.0687	-2.9437	-2.4	-2.3479	-2.5125	-2.4646	-2.7354	-2.4958	-2.3521	-2.7417	-2.6708	9.531	77.363	-146.992	-129.188	6.441	17.243	175.614	145.091	-135.255	-96.722	174.841	167.904	147.098	13.672	-59.265	130.484	0.0023425	0.00087051	0.00030639	996.97	4.6967e-06	9.124e-06	1174.2	283.83	8.4907e-06	1.2636e-06	469.36	168.81	93.69	36.791	1.3577e-05	86.469	0.0021959	0.0025794	0.00071127	927.8	2.7832e-05	2.9216e-05	1096.3	265.02	2.6724e-05	2.8993e-05	492.99	157.72	88.535	34.76	2.5462e-05	81.429	32.239	-130.473	-50.845	-154.938	-17.360	-39.127	-154.901	-150.710	-60.518	76.641	-150.832	-146.881	-147.474	-143.913	15.745	-144.680	-8191	255	
8369.315	1	1	0	0	0.26992	0.17282	0.14546	0.3852	0.12283	0.20939	0.18685	0.15708	0.31656	0.051	0.26839	0.28892	0.21968	0.088484	0.16531	0.35686	-1.9354	-2.5479	-2.3667	-2.5271	-2.5021	-2.3229	-2.75	-2.4375	-2.3563	-2.6562	-2.2146	-2.675	-2.5208	-2.4062	-2.7042	-2.5271	5.323	143.487	49.777	154.867	47.845	-72.624	122.504	-80.846	96.841	-48.940	-98.933	-149.696	-101.838	102.784	73.786	127.374	0.0022513	0.00097943	0.00012789	996.19	1.1895e-05	7.7373e-06	1179.3	284.97	1.5471e-05	6.7225e-06	477.86	169.6	94.477	37.277	1.5244e-05	87.519	0.0022595	0.0025477	0.00069408	928.65	2.7414e-05	2.8755e-05	1095.9	265.93	2.6246e-05	2.828e-05	492.29	159.7	89.039	35.162	2.4506e-05	82.449	29.266	-75.308	-58.244	-154.789	-106.457	-27.320	-154.689	-150.678	-30.063	0.835	-150.477	-146.975	-147.099	-144.040	11.712	-144.677	-8191	255	
8369.409	1	1	0	0	0.10371	0.11626	0.13199	0.12792	0.13956	0.074492	0.34014	0.16143	0.17166	0.14149	0.10236	0.10015	0.14726	0.10296	0.10758	0.32201	-2.0312	-2.5229	-2.275	-2.55	-2.5917	-2.4042	-2.6854	-2.6167	-2.475	-2.7271	-2.3292	-2.7125	-2.8312	-2.4146	-2.7646	-2.8771	-144.619	-58.383	184.451	130.032	-68.392	-50.811	105.574	105.990	-121.786	34.189	170.715	155.394	-66.765	-47.059	-100.488	167.503	0.0022871	0.000622	6.9862e-05	1002.4	6.9999e-06	2.231e-06	1188.9	286.08	2.1794e-05	1.3131e-05	478.72	172.25	95.598	37.935	9.0546e-06	89.106	0.0022465	0.0025225	0.00070575	931.36	2.6924e-05	2.8184e-05	1103.7	267.01	2.5732e-05	2.7287e-05	494.76	161.85	89.751	35.654	2.4742e-05	83.675	31.549	-115.569	-47.529	-154.732	-21.397	189.172	-154.533	-150.717	-49.543	-10.063	-151.710	-147.031	-147.501	-143.875	-37.418	-144.554	-8191	255	
8369.483	1	1	0	0	0.085307	0.12815	0.13874	0.17729	0.43104	0.14687	0.14885	0.084741	0.29037	0.27915	0.076449	0.27556	0.27032	0.32436	0.14698	0.061479	-1.8188	-2.6625	-2.4625	-2.6583	-2.6792	-2.4688	-2.8021	-2.5917	-2.3792	-2.5792	-2.3604	-2.4646	-2.575	-2.4542	-2.5125	-2.8208	165.898	-44.065	-142.801	34.294	173.778	-119.738	142.885	-155.446	167.134	48.068	145.373	178.332	-20.807	-167.213	76.121	171.183	0.0024156	0.00089608	0.00017597	999.61	9.432e-06	9.2934e-06	1192.2	286.01	1.2466e-05	8.9281e-06	484.74	173.96	96.375	38.013	6.3817e-06	88.842	0.00221	0.0023266	0.00070537	932.32	2.6058e-05	2.6229e-05	1108.1	268.28	2.5326e-05	2.4489e-05	500.21	162.8	90.462	35.776	2.6194e-05	83.669	29.735	-25.017	-63.612	-154.650	-36.799	-49.178	-154.657	-150.726	-76.800	31.168	-150.991	-146.840	-147.752	-144.148	-72.686	-144.625	-8191	255	
8369.602	1	1	0	0	0.16773	0.13601	0.15455	0.22965	0.25494	0.23637	0.25973	0.034731	0.10967	0.21269	0.154	0.39805	0.2774	0.17388	0.16455	0.28556	-1.8292	-2.4771	-2.2271	-2.6979	-2.8646	-2.5187	-2.7313	-2.8063	-2.2625	-2.8375	-2.5479	-2.4229	-2.7375	-2.2562	-2.5812	-2.8417	-104.509	-87.115	82.822	171.872	-88.923	120.067	110.319	43.687	109.818	-138.247	-123.753	132.406	-138.394	172.361	16.199	120.023	0.0022517	0.00056893	0.00011959	1006.2	1.2513e-05	5.641e-06	1180.9	285.95	1.3238e-05	4.5437e-06	471.84	172.27	95.356	37.786	1.3149e-05	88.119	0.0022533	0.0022871	0.00074185	932.17	2.6001e-05	2.6856e-05	1099.9	266.87	2.5488e-05	2.4976e-05	498.42	161.42	89.554	35.426	2.5833e-05	82.831	30.848	-36.940	-66.382	-154.801	-20.523	17.031	-154.571	-150.688	-36.985	-94.929	-151.146	-147.190	-147.975	-143.645	-20.510	-144.842	-8191	255	
8369.698	1	1	0	0	0.50786	0.052658	0.15282	0.13578	0.11279	0.059454	0.027215	0.33941	0.11333	0.27298	0.035486	0.28764	0.22724	0.11286	0.03118	0.029437	-1.8167	-2.4292	-2.5021	-2.3312	-2.5563	-2.625	-2.5479	-2.5792	-2.4396	-2.6896	-2.5854	-2.5812	-2.7208	-2.5646	-2.4375	-2.6688	-88.211	28.677	190.009	98.857	-112.692	138.384	89.776	134.331	-109.611	-109.809	125.705	139.225	186.177	165.084	179.319	91.012	0.0024606	0.00097338	0.00022622	999.75	5.9222e-06	4.5803e-06	1185	285.34	3.3796e-05	2.1208e-06	478.82	170.44	94.776	37.182	3.6997e-06	87.343	0.0021196	0.0023316	0.0007433	930.62	2.4773e-05	2.8822e-05	1103	266.9	2.5865e-05	2.6853e-05	501.46	160.06	88.917	35.258	2.7124e-05	82.365	30.644	-84.958	-41.022	-154.748	-0.239	-10.679	-154.769	-150.915	-64.667	40.156	-150.482	-147.054	-147.742	-144.191	-24.053	-144.692	-8191	255	
8369.794	1	1	0	0	0.10949	0.19188	0.081941	0.23042	0.13092	0.16421	0.38254	0.094246	0.11647	0.056159	0.24895	0.067065	0.055765	0.14686	0.19662	0.2187	-1.9646	-2.4771	-2.4271	-2.3333	-2.3333	-2.5146	-2.525	-2.6542	-2.3854	-2.3708	-2.2833	-2.4646	-2.5521	-2.6063	-2.3563	-2.5146	130.298	-60.193	-139.613	174.728	150.860	-138.986	108.573	165.989	-56.516	-79.010	-133.726	-63.499	-25.233	116.930	72.266	100.986	0.0022241	0.00041699	0.00038951	1008.3	9.9555e-06	2.3022e-06	1195.8	287.68	1.2717e-05	5.9072e-06	482.01	170.45	95.442	37.29	7.0013e-06	87.555	0.0020816	0.0024156	0.00073074	935.51	2.2428e-05	2.8857e-05	1109.5	267.7	2.3629e-05	2.765e-05	503.25	160	89.225	35.24	2.7233e-05	82.326	31.625	-42.346	-99.455	-154.683	-7.352	67.129	-154.950	-150.809	-22.514	1.345	-150.444	-146.923	-147.316	-143.872	-57.618	-144.674	-8191	255	
8369.890	1	1	0	0	0.156	0.19031	0.14894	0.20683	0.15281	0.1018	0.31131	0.099643	0.2005	0.17414	0.12854	0.12346	0.091811	0.39964	0.19226	0.34002	-2.05	-2.4646	-2.5958	-2.5083	-2.6417	-2.3833	-2.4521	-2.6562	-2.5312	-2.4625	-2.6771	-2.3229	-2.5042	-2.5083	-2.1958	-2.6104	100.387	-71.553	57.184	100.514	-135.764	-72.479	-159.607	170.484	116.128	175.268	-30.897	-136.120	-5.696	139.677	24.162	101.482	0.0022566	0.00082095	0.00034925	1007.3	1.1338e-05	1.3871e-05	1189.7	284.82	1.8233e-05	6.0016e-06	483.03	168.8	93.668	36.615	1.0435e-05	85.554	0.0021734	0.0025406	0.00073693	934.93	2.409e-05	2.9696e-05	1108.3	266.15	2.5409e-05	2.7192e-05	494.28	158.05	88.078	34.527	2.6082e-05	80.435	31.386	-109.484	-72.014	-155.120	-42.281	-59.637	-154.643	-150.711	-58.751	8.941	-150.529	-146.900	-147.411	-143.684	-93.286	-144.872	-8191	255	
8370.011	1	1	0	0	0.16847	0.18194	0.12947	0.031928	0.18867	0.17872	0.22557	0.17553	0.19646	0.21213	0.12295	0.26317	0.21222	0.27968	0.097799	0.24267	-1.9354	-2.1958	-2.5896	-2.525	-2.5542	-2.3771	-2.5146	-2.5812	-2.2625	-2.5104	-2.6646	-2.4458	-2.6354	-2.4354	-2.3063	-2.625	-125.393	170.425	-27.643	165.857	6.321	-130.111	173.182	80.580	92.369	80.404	-45.750	-168.062	160.887	-147.216	39.480	-166.796	0.002131	0.00026777	0.00021363	997.6	1.3195e-05	3.2048e-06	1177.1	283.7	1.2106e-05	1.1252e-05	473.25	166.5	92.697	36.139	7.0753e-06	84.217	0.0022491	0.0025706	0.00072238	927.74	2.5899e-05	2.989e-05	1096	263.77	2.8029e-05	2.9402e-05	492.68	155.87	87.441	34.04	2.8421e-05	79.407	26.516	-45.296	-67.943	-154.455	-68.624	-124.898	-154.931	-150.656	13.995	19.491	-152.033	-146.674	-147.770	-143.883	-30.244	-144.827	-8191	255	
8370.082	1	1	0	0	0.091209	0.10647	0.30573	0.1638	0.01696	0.069072	0.33695	0.12895	0.093113	0.23711	0.20331	0.17178	0.27691	0.18742	0.056285	0.15621	-1.9792	-2.3854	-2.5375	-2.4167	-2.4688	-2.5667	-2.3833	-2.7875	-2.35	-2.2812	-2.5146	-2.3063	-2.4771	-2.5833	-2.1958	-2.6333	-138.019	-6.388	41.175	-164.176	172.944	-69.367	76.825	186.883	-23.606	144.401	106.840	50.603	81.467	121.582	182.389	170.097	0.0022363	0.00078937	0.00013056	988.75	2.0476e-06	7.7935e-06	1171.3	282.21	1.7384e-05	8.1843e-06	469.4	165.74	92.695	35.876	5.5187e-06	83.917	0.0024955	0.0026908	0.00073823	923.01	2.7798e-05	3.0851e-05	1093.6	263.23	2.9847e-05	2.9771e-05	490.72	155.32	86.952	33.953	2.7282e-05	79.331	32.686	-109.411	-29.477	-154.817	7.269	-43.958	-154.706	-150.902	-59.641	-70.109	-150.829	-147.109	-147.757	-144.006	-16.483	-144.709	-8191	255	
8370.179	1	1	0	0	0.021217	0.047172	0.063728	0.1133	0.098839	0.096528	0.29134	0.064646	0.10989	0.3988	0.091744	0.31334	0.21534	0.16962	0.1483	0.2863	-2.0021	-2.4313	-2.5208	-2.4229	-2.3271	-2.5354	-2.5417	-2.6417	-2.5417	-2.2667	-2.5687	-2.5479	-2.4354	-2.9271	-2.4083	-2.7042	-147.904	-134.311	190.145	-72.659	-64.498	-42.813	167.337	93.000	-15.053	-94.797	-45.958	145.397	176.789	153.429	-136.051	135.518	0.0020877	0.00018257	0.00019755	995.12	1.6908e-05	3.9587e-06	1178.3	282.05	1.1736e-05	3.9722e-06	470.69	165.95	92.544	35.967	1.0801e-05	85.038	0.002439	0.002651	0.00065466	924.43	2.5835e-05	2.9149e-05	1098.2	262.83	2.6768e-05	2.794e-05	482.54	156.24	86.93	33.816	2.6401e-05	79.968	34.760	-103.084	-84.881	-154.713	-23.346	-16.610	-154.679	-150.575	-60.435	-9.733	-149.969	-147.161	-147.419	-144.141	-86.695	-144.674	-8191	255	
8370.299	1	1	0	0	0.35826	0.028323	0.11996	0.42769	0.082616	0.03863	0.15691	0.011553	0.12424	0.11571	0.28365	0.09656	0.30718	0.046966	0.094368	0.19551	-2.1833	-2.4	-2.6333	-2.5542	-2.3271	-2.6729	-2.5812	-2.5875	-2.5917	-2.4854	-2.6125	-2.675	-2.4792	-2.7646	-2.425	-2.7667	126.689	8.900	101.642	100.579	26.535	-80.968	105.491	131.455	29.071	25.445	179.086	101.360	171.970	174.767	-25.970	113.338	0.002061	0.00071579	0.00021794	988.81	9.7034e-06	5.2275e-06	1177.8	281.42	4.0689e-06	4.6307e-06	457.55	165.17	90.914	35.421	1.0725e-05	83.161	0.0023797	0.0026515	0.00068256	920.37	2.821e-05	2.9679e-05	1094.8	261.47	2.8526e-05	2.9353e-05	486.97	154.65	85.632	33.266	2.8532e-05	78.544	30.556	-71.369	-59.855	-154.821	-73.331	174.470	-154.957	-150.890	-97.202	-83.470	-150.871	-147.052	-147.455	-144.139	-12.228	-144.792	-8191	255	
8370.395	1	1	0	0	0.2408	0.14277	0.064357	0.044925	0.29432	0.089708	0.11715	0.14387	0.063496	0.11531	0.10059	0.3167	0.18036	0.10846	0.13022	0.26802	-2.0104	-2.3688	-2.475	-2.6833	-2.4625	-2.625	-2.6396	-2.7083	-2.4896	-2.3333	-2.7188	-2.5021	-2.5021	-2.7229	-2.3625	-2.7667	78.002	15.402	132.243	-18.295	54.040	-161.301	80.759	103.625	125.972	145.037	130.899	129.671	-137.608	-104.022	45.913	147.118	0.0021702	0.00026117	0.00018842	982.95	6.6771e-06	7.7585e-06	1169.3	278.17	6.6336e-06	6.626e-06	460.23	164.87	91.609	35.587	3.9919e-06	83.929	0.0023755	0.0025578	0.00069594	915.58	2.6808e-05	2.7637e-05	1087.8	260.18	2.8127e-05	2.8005e-05	485.88	155.29	85.95	33.489	2.8544e-05	79.12	30.559	114.409	-40.510	-155.085	-1.233	-32.569	-154.825	-150.506	-61.142	-28.780	-150.957	-147.130	-147.847	-143.884	-131.963	-144.908	-8191	255	
8370.492	1	1	0	0	0.090569	0.27826	0.2249	0.061896	0.30644	0.063299	0.11119	0.41748	0.20488	0.18072	0.19955	0.38619	0.55198	0.18364	0.06717	0.14854	-2.2021	-2.2229	-2.6354	-2.6229	-2.25	-2.7396	-2.6104	-2.65	-2.6792	-2.4125	-2.6437	-2.5354	-2.4188	-2.7208	-2.4229	-2.5958	49.856	181.048	172.942	77.901	64.863	157.300	103.712	160.933	16.742	-64.535	-70.129	146.948	-113.706	115.365	-111.304	93.305	0.0018499	0.00034593	0.00013475	984.45	6.08e-06	8.4413e-06	1170	280.2	1.4311e-05	6.5642e-06	465.76	166.28	92.193	35.657	4.4782e-06	85.219	0.0023646	0.0024792	0.00071133	916.55	2.6975e-05	2.6228e-05	1090.9	260.95	2.6571e-05	2.7762e-05	494.41	156.36	86.6	33.759	2.9227e-05	80.221	28.887	-145.286	-79.666	-154.993	-129.697	-50.947	-155.031	-150.883	-5.900	-44.302	-150.302	-146.914	-147.660	-144.237	-7.176	-144.539	-8191	255	
8370.588	1	1	0	0	0.36116	0.12787	0.37109	0.16078	0.31967	0.055093	0.48864	0.28062	0.28788	0.15681	0.20535	0.18188	0.0090259	0.30677	0.22305	0.17161	-2.1042	-2.5042	-2.5896	-2.775	-2.2979	-2.8479	-2.5687	-2.5167	-2.6125	-2.4562	-2.6021	-2.7812	-2.4667	-2.8271	-2.6521	-2.5229	97.931	-32.416	130.184	-85.163	47.453	-14.621	122.632	138.471	78.178	-36.460	62.137	-136.858	-34.551	-65.431	47.402	125.115	0.0021107	0.0010353	0.00047327	983.74	5.4499e-06	6.561e-06	1177.3	283.11	8.932e-06	7.165e-06	467.75	167.39	92.9	36.264	5.9793e-06	86.196	0.002239	0.0026145	0.00074945	917.3	2.6235e-05	2.7565e-05	1098.3	262.86	2.5758e-05	2.9193e-05	496.51	157.48	87.173	34.239	2.8942e-05	81.271	29.216	-91.343	-65.488	-154.703	-34.060	18.226	-154.881	-150.889	-28.315	-38.635	-150.217	-146.860	-147.568	-144.118	59.750	-144.854	-8191	255	
8370.682	1	1	0	0	0.24461	0.15405	0.051834	0.23767	0.1691	0.14113	0.29001	0.24244	0.16901	0.15414	0.24288	0.12144	0.14467	0.18803	0.39198	0.42145	-2.1667	-2.4062	-2.6562	-2.7083	-2.2021	-2.6146	-2.5812	-2.4042	-2.7646	-2.5083	-2.4333	-2.7562	-2.4313	-2.5417	-2.5083	-2.5438	100.131	132.632	120.745	108.523	134.312	41.859	80.006	147.322	85.099	100.935	92.988	64.924	135.153	-86.521	-104.962	-161.125	0.0020027	0.00025786	0.00024326	982.7	8.5462e-06	1.449e-05	1179.7	282.49	1.5178e-05	1.0716e-05	470.19	168.82	92.862	36.391	1.0485e-05	85.905	0.002117	0.002653	0.00071139	917.41	2.4303e-05	2.7688e-05	1100.4	263.23	2.3258e-05	2.9628e-05	490.29	157.77	87.064	34.283	2.7986e-05	80.825	34.604	-86.279	-103.152	-154.951	-41.207	-22.739	-154.602	-150.660	-25.447	-108.310	-150.119	-146.946	-147.467	-143.812	-54.271	-144.454	-8191	255	
8370.778	1	1	0	0	0.16017	0.21421	0.26057	0.34262	0.048313	0.062831	0.069623	0.10495	0.10742	0.21667	0.15893	0.33006	0.3212	0.25445	0.09105	0.18041	-2.1667	-2.4479	-2.4271	-2.5292	-2.3979	-2.6125	-2.5167	-2.4104	-2.5812	-2.4833	-2.5896	-2.6542	-2.4813	-2.4583	-2.5938	-2.4875	36.928	23.739	-75.476	42.444	129.282	-145.744	160.812	-35.090	-105.233	24.402	-61.207	89.448	-161.080	156.268	159.512	116.729	0.0022915	0.00072962	0.00018576	985.69	1.1786e-05	7.7923e-06	1178.7	281.22	2.0794e-05	3.9304e-06	475.55	169.5	92.728	36.558	8.3482e-06	86.146	0.0020762	0.0027456	0.00072672	916.53	2.6093e-05	2.9146e-05	1095.7	262.56	2.5558e-05	3.0513e-05	497.94	158.42	87.428	34.432	2.9006e-05	81.229	30.468	-89.467	-143.180	-154.986	-141.331	-55.840	-154.805	-150.875	-75.090	33.883	-151.980	-146.859	-147.752	-143.925	31.771	-144.830	-8191	255	
8370.899	1	1	0	0	0.15271	0.18673	0.25755	0.22743	0.2074	0.28899	0.14375	0.12107	0.1705	0.17151	0.27861	0.28552	0.29462	0.11306	0.13669	0.31614	-2.2354	-2.4208	-2.1646	-2.6479	-2.5146	-2.5479	-2.825	-2.5771	-2.5917	-2.4979	-2.3521	-2.6458	-2.5917	-2.6708	-2.6292	-2.4729	145.275	-84.449	-120.263	151.573	186.056	-31.046	170.173	136.188	71.149	-155.431	60.621	144.423	-163.131	122.243	-124.528	112.497	0.0024239	0.0014526	0.00016831	978.36	1.7608e-06	1.2809e-05	1181.5	283.36	9.0933e-06	4.6221e-06	479.14	170.23	93.956	36.966	2.955e-06	87.089	0.0022444	0.0028004	0.00074758	915.47	2.7517e-05	2.9337e-05	1100.2	263.9	2.6635e-05	3.0793e-05	500.53	159.34	88.476	34.816	2.8138e-05	81.977	29.577	-107.804	-109.759	-154.890	-6.093	-59.944	-154.806	-150.789	-54.877	106.725	-151.584	-146.908	-147.523	-144.012	-52.773	-145.079	-8191	255	
8370.995	1	1	0	0	0.16631	0.18485	0.08685	0.29718	0.23796	0.14931	0.10242	0.072097	0.012557	0.18865	0.021013	0.46118	0.25856	0.22461	0.25543	0.17584	-2.3125	-2.5375	-2.2188	-2.5771	-2.2875	-2.4938	-2.7438	-2.5125	-2.5563	-2.6979	-2.1854	-2.7125	-2.4104	-2.3625	-2.7687	-2.3542	1.247	80.448	104.156	174.493	5.821	47.082	159.664	178.069	101.816	-63.923	162.640	184.622	-89.655	156.378	-61.299	113.162	0.0022409	0.00023302	0.00012061	980.18	8.765e-06	3.1254e-06	1186.4	283.29	7.4252e-06	3.7123e-06	473.07	170.88	94.316	36.7	7.7494e-06	86.405	0.0023027	0.0028073	0.00071629	915.79	2.9101e-05	2.9406e-05	1103.5	264.66	2.7599e-05	3.1991e-05	500	160.44	88.647	34.803	2.9075e-05	81.59	32.360	-53.094	-115.300	-155.006	-3.621	-81.045	-154.783	-150.712	-28.946	2.491	-150.254	-146.556	-147.618	-144.010	-11.530	-144.699	-8191	255	
8371.091	1	1	0	0	0.10935	0.068998	0.088414	0.11069	0.18781	0.28151	0.18825	0.21393	0.083733	0.12739	0.18671	0.12761	0.12828	0.14612	0.03857	0.20522	-2.1021	-2.4229	-2.3667	-2.4688	-2.4313	-2.5354	-2.7354	-2.4479	-2.5479	-2.6458	-2.4125	-2.8646	-2.4604	-2.3604	-2.5729	-2.4958	-34.694	55.605	-53.644	60.150	-58.498	158.570	149.036	79.895	11.068	76.274	-136.571	-138.820	109.910	29.681	-46.825	120.027	0.0021863	0.00027552	9.6128e-05	986.34	6.8996e-06	1.2185e-05	1180.8	282.11	8.3276e-06	6.9888e-06	470.84	166.69	91.605	35.564	1.3944e-05	82.87	0.0024456	0.0029822	0.00076322	918.23	3.111e-05	3.1772e-05	1099.9	263.64	2.9671e-05	3.3566e-05	501.36	156.21	86.922	33.629	3.0393e-05	78.341	35.267	-101.906	-104.587	-154.745	-29.900	-60.440	-154.622	-150.690	-3.412	-44.040	-152.391	-146.857	-147.588	-144.424	28.338	-144.820	-8191	255	
8371.187	1	1	0	0	0.10576	0.19765	0.25693	0.33658	0.051597	0.13589	0.28267	0.34407	0.20052	0.14385	0.1124	0.17857	0.34095	0.30169	0.21048	0.23704	-1.9771	-2.5292	-2.2896	-2.6146	-2.3729	-2.1875	-2.9396	-2.4625	-2.5563	-2.6562	-2.4458	-2.7021	-2.5646	-2.3521	-2.75	-2.5687	-55.594	14.466	184.508	185.694	47.015	80.769	170.149	82.465	85.324	-27.329	-153.149	-155.934	131.838	-144.901	-109.810	164.179	0.0019469	0.00076038	3.6527e-05	966.27	6.1856e-06	2.6376e-06	1165.1	275.52	1.5068e-05	2.1765e-06	463.55	163.2	89.287	34.74	1.2936e-05	80.724	0.0027011	0.0033356	0.00089815	907.8	3.8166e-05	4.0968e-05	1089.4	260.02	4.0088e-05	4.4624e-05	527.38	154.3	86.028	33.213	4.2374e-05	77.197	34.621	-136.049	-154.532	-154.722	-64.972	-54.838	-155.031	-150.784	17.198	70.013	-151.673	-146.913	-147.865	-144.110	8.146	-144.705	-8191	255	
8371.308	1	1	0	0	0.16872	0.23476	0.013182	0.081941	0.19128	0.12982	0.19309	0.25732	0.25061	0.064743	0.24082	0.16518	0.3283	0.11165	0.027262	0.38741	-1.9792	-2.5146	-2.2062	-2.6604	-2.5979	-2.4083	-2.6333	-2.4604	-2.3271	-2.6437	-2.4188	-2.6125	-2.4375	-2.5104	-2.5771	-2.5375	2.529	150.252	-34.028	-168.512	15.616	-0.830	111.596	144.772	151.789	131.930	-75.549	-152.237	-165.925	180.929	-109.372	128.276	0.0020437	0.00084304	0.00023505	961.85	1.7632e-05	1.1545e-05	1160.7	272.83	2.1657e-05	9.7038e-06	458.17	163.24	88.297	34.345	3.2187e-06	81.166	0.0034328	0.0041445	0.0011942	902.12	4.7147e-05	4.6284e-05	1090.5	259	4.6691e-05	4.9241e-05	547.73	154.47	85.492	33.016	4.8084e-05	77.324	35.259	-81.051	-121.125	-154.806	-22.481	0.646	-155.053	-150.653	-72.247	-33.118	-150.765	-147.032	-147.930	-144.328	-126.424	-144.798	-8191	255	
8371.380	1	1	0	0	0.21154	0.20325	0.096439	0.26786	0.29787	0.11035	0.31741	0.094221	0.032117	0.2968	0.22288	0.12141	0.15654	0.14183	0.063685	0.089665	-1.8083	-2.6562	-2.375	-2.4188	-2.5667	-2.3625	-3.0208	-2.5667	-2.5125	-2.5771	-2.4833	-2.6229	-2.5125	-2.4292	-2.6229	-2.6646	171.930	62.634	41.924	170.522	168.277	-64.168	158.928	87.777	-28.019	-12.300	173.391	-3.309	115.591	66.671	-49.449	58.343	0.0021852	0.0010256	7.162e-05	953.9	9.1416e-06	6.3481e-06	1171.5	277.18	1.0757e-05	2.2025e-06	470.53	164.56	89.328	34.862	9.003e-06	82.08	0.0036768	0.0041429	0.0012522	898.04	4.4507e-05	4.3504e-05	1096.1	259.81	3.9921e-05	4.0579e-05	534.38	155.34	85.721	33.247	4.0491e-05	77.979	30.760	-81.077	-66.899	-154.669	44.965	48.680	-154.892	-150.804	-64.907	72.165	-151.289	-147.251	-147.542	-144.179	-36.677	-144.715	-8191	255	
8371.476	1	1	0	0	0.26448	0.19195	0.17903	0.20498	0.05613	0.32398	0.16038	0.33269	0.14783	0.23363	0.14537	0.018252	0.045564	0.07523	0.071031	0.20226	-1.9375	-2.6521	-2.3417	-2.6813	-2.6188	-2.2729	-2.7458	-2.4896	-2.4333	-2.6479	-2.3667	-2.3583	-2.6937	-2.3542	-2.6292	-2.7583	160.658	18.855	119.590	106.204	100.915	162.666	160.051	18.626	48.759	-15.329	60.667	-38.948	-127.571	-145.867	-26.952	120.039	0.0021733	0.00096592	0.0003022	961.13	9.6392e-06	1.4654e-05	1167.1	275.37	1.5733e-05	6.6453e-06	466.67	163.77	90.192	35.052	7.8947e-06	82.926	0.0029936	0.003604	0.0011113	902.05	3.7048e-05	3.9713e-05	1090.5	259.44	3.4288e-05	3.8098e-05	521.03	154.47	85.554	33.32	3.6627e-05	78.367	33.838	186.573	-59.223	-155.162	-82.065	-34.451	-154.945	-150.633	-45.258	-13.228	-151.238	-146.790	-147.456	-143.765	-69.614	-144.789	-8191	255	
8371.572	1	1	0	0	0.19026	0.14517	0.13448	0.36337	0.20726	0.16208	0.054281	0.1648	0.15067	0.15443	0.26673	0.24917	0.15566	0.081513	0.08394	0.19817	-1.8917	-2.6333	-2.5896	-2.7521	-2.5938	-2.4813	-2.7646	-2.4417	-2.3271	-2.7188	-2.4542	-2.5375	-2.6937	-2.4667	-2.4458	-2.5375	117.117	-113.289	-104.514	161.931	32.160	-141.343	71.128	159.972	-46.887	17.465	-108.939	-20.268	188.638	-54.850	116.078	120.933	0.0025715	0.0010538	0.00023584	961.64	2.2207e-05	5.1662e-06	1165	277.07	1.7095e-05	1.1863e-05	475.89	166.83	91.027	35.732	2.1696e-05	84.6	0.0026955	0.0033587	0.0010024	897.8	3.3407e-05	3.9102e-05	1090.5	260.17	3.2754e-05	3.8196e-05	525.02	156.82	86.246	33.979	3.5035e-05	79.986	33.265	-44.482	-58.759	-154.655	-23.189	84.546	-154.778	-150.829	-45.203	-11.163	-151.386	-147.120	-147.771	-143.985	-56.170	-144.824	-8191	255	
8371.691	1	1	0	0	0.064778	0.06734	0.25726	0.11119	0.093041	0.17575	0.28739	0.2037	0.12629	0.15801	0.16094	0.22314	0.25319	0.15145	0.13309	0.16478	-1.9292	-2.6104	-2.2604	-2.4062	-2.7104	-2.2667	-2.8479	-2.6562	-2.3854	-2.75	-2.6333	-2.6042	-2.6937	-2.5417	-2.3729	-2.7687	-46.465	30.568	-84.903	75.804	139.343	-58.813	98.039	90.242	-114.895	39.769	-161.400	119.538	184.042	66.617	34.975	152.240	0.0022222	0.0015161	0.00022133	967.12	1.1153e-05	1.2398e-06	1175.2	279.34	1.6783e-05	6.8384e-06	480.08	169.87	92.959	36.577	8.1463e-06	86.956	0.0026087	0.0032698	0.00094969	901.57	3.0899e-05	3.6422e-05	1098.6	262.21	2.9773e-05	3.2596e-05	517.89	159.1	87.563	34.554	3.0281e-05	81.697	27.511	-92.489	-88.960	-155.159	-27.958	-165.138	-154.818	-150.688	-53.479	49.969	-151.083	-147.077	-148.030	-144.069	-103.895	-144.804	-8191	255	
8371.787	1	1	0	0	0.10467	0.22148	0.079425	0.095522	0.19233	0.19896	0.022423	0.39872	0.11067	0.2086	0.14756	0.38709	0.068898	0.23213	0.14965	0.19736	-1.8042	-2.5187	-2.3333	-2.4771	-2.4042	-2.5938	-2.5646	-2.6271	-2.4125	-2.6333	-2.6104	-2.4813	-2.6312	-2.4646	-2.6354	-2.8604	153.347	-100.992	47.304	-165.960	138.410	135.144	-157.578	171.508	-5.373	1.843	150.639	180.597	113.059	-164.527	163.023	-156.162	0.0022349	0.00094832	0.00033953	972.08	3.0867e-06	1.6283e-05	1187.9	281.16	3.4928e-06	1.3509e-05	476.63	170.67	92.682	36.452	2.7997e-06	86.366	0.0025005	0.0028563	0.00085385	907.95	3.016e-05	3.5207e-05	1105.6	263.02	3.2599e-05	3.3994e-05	520.26	160.25	87.789	34.687	3.2609e-05	81.426	34.056	-105.241	-64.823	-154.618	-47.809	-21.412	-154.583	-150.459	-15.920	12.361	-150.112	-147.193	-147.539	-144.173	-80.100	-144.861	-8191	255	
8371.883	1	1	0	0	0.18583	0.044632	0.097293	0.36445	0.31994	0.11739	0.15031	0.12755	0.2177	0.36782	0.2725	0.072292	0.15523	0.17875	0.23076	0.1742	-1.9792	-2.4854	-2.3917	-2.4	-2.8917	-2.2625	-2.3958	-2.5833	-2.2042	-2.6292	-2.6396	-2.4875	-2.6896	-2.5042	-2.4813	-2.8271	48.859	131.734	-90.174	166.611	-98.233	158.130	148.243	176.520	33.625	168.438	12.701	158.060	55.412	-147.827	-65.034	128.613	0.0021732	0.00073745	0.00038834	970.27	8.7338e-06	7.1821e-06	1174.6	280.57	4.5349e-06	1.6021e-05	479.32	168.31	92.104	35.971	8.5786e-07	84.529	0.0027186	0.0030707	0.00087395	904.98	3.25e-05	3.654e-05	1096.2	262.5	3.3708e-05	3.4833e-05	512.73	158.16	87.219	34.215	3.1448e-05	80.004	24.279	-82.041	-88.253	-154.875	-0.978	-91.410	-154.851	-150.564	-65.752	19.537	-150.483	-146.860	-147.800	-144.223	40.353	-145.226	-8191	255	
8371.979	1	1	0	0	0.17558	0.3431	0.033551	0.35932	0.18777	0.14512	0.43542	0.11988	0.19071	0.11182	0.17308	0.1657	0.28672	0.080034	0.25996	0.16149	-2.0375	-2.6271	-2.3833	-2.4167	-2.6042	-2.5854	-2.5167	-2.7604	-2.1729	-2.6604	-2.7562	-2.4417	-2.7146	-2.5271	-2.5354	-2.7583	180.793	159.630	-117.955	178.033	-114.190	20.543	109.741	47.556	102.275	-17.627	-35.512	80.898	127.513	-80.318	51.792	145.406	0.0023718	0.00048436	0.00035102	976	1.4056e-06	9.861e-06	1175.6	279.27	1.3523e-05	8.7197e-06	479.12	166.76	91.953	35.81	6.2272e-06	83.793	0.0027134	0.0030209	0.00083319	909.21	3.1083e-05	3.5064e-05	1096.7	262.09	3.2629e-05	3.3667e-05	507.8	157.23	87.159	34.054	3.1361e-05	79.345	28.843	-88.499	-100.903	-154.953	119.180	-47.017	-154.791	-150.497	-115.463	-30.065	-151.371	-146.913	-147.636	-144.115	-27.984	-144.923	-8191	255	
8372.075	1	1	0	0	0.30299	0.11943	0.3048	0.30104	0.040031	0.10048	0.27258	0.17394	0.057829	0.17253	0.068357	0.15632	0.090334	0.16644	0.15032	0.11082	-1.8438	-2.4062	-2.5958	-2.45	-2.6188	-2.5583	-2.4479	-2.8688	-2.3146	-2.4646	-2.5104	-2.5458	-2.5125	-2.5396	-2.2417	-2.7188	188.266	56.992	179.992	153.929	51.316	20.301	144.749	146.395	-136.118	63.454	63.844	-154.769	-98.355	100.073	35.100	-150.605	0.002219	0.00085404	0.00015124	971.85	3.3308e-06	5.9874e-06	1177.2	280.88	1.0066e-05	1.168e-06	471.36	166.45	91.686	35.752	1.2504e-05	83.98	0.002913	0.0032629	0.00086819	907.99	3.388e-05	3.8456e-05	1097.4	262.31	3.614e-05	3.6386e-05	510.56	157.04	87.076	33.938	3.4755e-05	79.352	30.803	-51.355	186.673	-154.976	-55.112	-21.438	-154.716	-150.837	-86.683	52.430	-152.357	-146.949	-148.026	-144.162	16.874	-145.065	-8191	255	
8372.172	1	1	0	0	0.35144	0.11569	0.18814	0.17591	0.13919	0.1011	0.27239	0.16025	0.21139	0.12386	0.24728	0.19061	0.15691	0.15427	0.35528	0.028303	-2.0708	-2.3833	-2.6146	-2.4271	-2.6021	-2.6292	-2.5583	-2.6958	-2.3729	-2.4771	-2.55	-2.5292	-2.5021	-2.5625	-2.2833	-2.6604	-162.912	-120.530	-46.289	104.510	-47.727	-164.552	104.660	138.415	125.507	-109.858	178.652	101.595	96.172	157.652	-104.189	-33.010	0.0024801	0.00054831	9.8363e-05	973.12	7.329e-06	1.8642e-05	1182.6	280.24	2.6789e-05	1.0568e-05	472.66	166.22	91.665	35.088	1.8906e-05	83.026	0.0029612	0.0032318	0.00092168	911.4	3.3107e-05	3.5681e-05	1103	262.67	3.4843e-05	3.3607e-05	512.15	156.77	86.626	33.358	3.3697e-05	78.142	29.335	-57.198	-10.523	-154.647	22.769	-41.035	-154.892	-150.896	-48.518	48.172	-150.780	-147.078	-147.672	-144.410	-7.451	-144.683	-8191	255	
8372.268	1	1	0	0	0.34472	0.1314	0.25019	0.42174	0.19872	0.12846	0.067586	0.15824	0.084814	0.21709	0.11422	0.10219	0.14495	0.22056	0.086633	0.38899	-2.1542	-2.3208	-2.6021	-2.5167	-2.5646	-2.725	-2.5417	-2.6312	-2.6521	-2.2917	-2.6813	-2.5104	-2.4167	-2.7188	-2.2417	-2.6229	-17.808	-88.165	-53.007	130.705	19.161	98.125	118.072	139.620	179.986	-1.024	32.250	9.297	-145.251	-163.084	-124.219	85.414	0.0020402	0.00044447	0.00021808	977.99	8.0364e-06	4.5637e-06	1164.6	277.88	6.3088e-06	4.7929e-06	468.59	163.73	90.861	34.892	1.7818e-05	82.563	0.0027522	0.0028825	0.00085979	910.36	3.1376e-05	3.244e-05	1092.3	260.93	3.1619e-05	3.1424e-05	504.59	154.07	85.681	33.12	3.3377e-05	77.811	26.913	-8.619	-61.171	-155.000	15.734	-28.801	-154.959	-150.605	63.793	-64.010	-150.661	-146.875	-147.710	-144.031	-8.979	-144.646	-8191	255	
8372.388	1	1	0	0	0.059682	0.11663	0.14295	0.14049	0.15282	0.22623	0.16743	0.27103	0.25131	0.15539	0.057972	0.35143	0.13311	0.28583	0.072646	0.21379	-2.175	-2.2958	-2.4875	-2.6625	-2.5333	-2.8125	-2.5542	-2.6542	-2.5021	-2.3438	-2.7062	-2.475	-2.375	-2.7042	-2.4333	-2.7583	-126.733	65.466	56.282	78.776	145.886	74.188	110.874	-160.519	9.860	-12.891	-11.043	143.800	-92.387	155.585	-48.557	126.898	0.0020242	0.00047385	6.9156e-05	971.28	2.1148e-05	2.8513e-06	1178.8	279.66	6.877e-06	9.7731e-06	473.07	164.93	90.928	35.411	4.1479e-06	83.41	0.0025966	0.002845	0.00084104	908.6	2.8535e-05	3.0823e-05	1096	261.51	2.7748e-05	3.0192e-05	499.35	155.08	85.848	33.321	3.0208e-05	78.541	30.733	-132.500	147.050	-154.559	-19.242	-58.855	-154.837	-150.498	-95.445	-14.509	-151.513	-146.890	-147.302	-144.327	40.166	-144.816	-8191	255	
8372.483	1	1	0	0	0.11096	0.35818	0.019167	0.25018	0.042234	0.065698	0.072988	0.17256	0.31729	0.080524	0.1739	0.24464	0.073266	0.065472	0.10853	0.24851	-2.1625	-2.2188	-2.6521	-2.6354	-2.5667	-2.6542	-2.6979	-2.5146	-2.525	-2.4062	-2.5146	-2.5812	-2.4125	-2.6792	-2.3333	-2.3937	-113.194	105.753	176.767	103.721	151.324	-124.389	177.158	82.649	35.104	41.620	-57.774	185.577	-125.658	185.348	109.237	104.382	0.0021826	0.00027246	0.00034492	982.1	1.1484e-05	8.2117e-06	1183.5	281.42	2.5717e-05	9.2754e-06	469.6	165.64	91.175	35.082	7.7351e-06	83.426	0.0022157	0.0026199	0.00073506	913.48	2.5335e-05	2.9304e-05	1101	262.25	2.5272e-05	2.9951e-05	496.54	155.78	85.86	33.283	3.0839e-05	78.537	25.830	-97.866	-108.658	-154.950	53.166	-83.473	-154.854	-150.851	-45.051	-38.993	-151.642	-147.223	-147.622	-144.046	88.394	-144.661	-8191	255	
8372.581	1	1	0	0	0.31094	0.34651	0.035773	0.26127	0.18553	0.22176	0.25267	0.38336	0.070093	0.088307	0.09953	0.25054	0.14705	0.15776	0.27511	0.21443	-2.2812	-2.3708	-2.7271	-2.5979	-2.5312	-2.6375	-2.4375	-2.6771	-2.5292	-2.4313	-2.5375	-2.6479	-2.5375	-2.7687	-2.65	-2.5812	156.588	45.788	61.299	101.060	48.273	-87.984	69.828	162.843	32.143	78.184	-132.396	186.283	130.147	-159.070	108.740	181.403	0.0023582	0.00083972	0.00034878	969.23	1.3813e-05	6.5391e-06	1175.3	278.11	2.0093e-05	7.0539e-06	471.56	164.6	90.276	35.028	1.6982e-05	82.821	0.0023093	0.0029897	0.00078716	907.74	2.8372e-05	3.2801e-05	1099.9	260.51	2.7927e-05	3.2412e-05	497.91	155.01	85.434	33.063	3.0559e-05	77.877	26.959	-87.167	-69.457	-154.841	9.877	-38.223	-154.812	-150.819	-28.030	-15.236	-151.119	-146.913	-147.629	-143.946	34.026	-144.825	-8191	255	
8372.677	1	1	0	0	0.18918	0.26109	0.21526	0.31376	0.30174	0.25342	0.26824	0.13198	0.12666	0.17002	0.12012	0.26062	0.22271	0.098125	0.12863	0.076296	-2.1813	-2.4271	-2.5563	-2.6667	-2.2875	-2.7604	-2.5	-2.5521	-2.3667	-2.2042	-2.4833	-2.8292	-2.4396	-2.6292	-2.5438	-2.5021	-15.010	147.905	-88.977	144.845	-22.409	31.228	148.237	70.013	112.499	94.968	164.896	10.741	91.066	146.216	-138.218	-58.689	0.0022461	0.0013206	4.7973e-05	970.82	4.1495e-06	6.8976e-06	1169	275.78	2.2089e-05	6.5133e-06	474.39	162.87	89.832	34.858	4.5965e-06	82.712	0.0023545	0.0029463	0.00078345	904.41	2.8949e-05	3.1712e-05	1087.5	258	2.9083e-05	3.4089e-05	499.37	152.95	84.774	33.002	3.1869e-05	77.926	30.624	-59.931	129.492	-154.959	-95.219	28.966	-154.701	-150.747	-25.495	19.473	-151.462	-147.235	-147.442	-144.217	-6.516	-144.605	-8191	255	
8372.771	1	1	0	0	0.080612	0.10046	0.22953	0.37459	0.21787	0.3399	0.24139	0.24716	0.015765	0.14413	0.23756	0.050224	0.13236	0.12567	0.18835	0.081882	-2.3063	-2.3479	-2.5125	-2.8396	-2.4333	-2.6167	-2.7604	-2.475	-2.7333	-2.5208	-2.5375	-2.75	-2.375	-2.6792	-2.6	-2.4833	156.000	186.704	151.840	108.180	-105.122	74.158	146.378	60.921	-105.991	79.529	167.963	-163.854	109.897	112.683	-101.554	45.103	0.0022951	0.00042527	0.00018764	965.26	1.1016e-05	3.1182e-06	1169	276.33	9.2994e-06	4.6219e-06	468.7	162.44	89.451	35.287	5.804e-06	83.666	0.0024854	0.0029471	0.00077628	899.03	3.0247e-05	3.1584e-05	1089.8	257.57	2.9085e-05	3.1836e-05	494.09	153.25	84.717	33.296	2.9665e-05	78.877	31.242	-88.255	-89.347	-154.949	-80.518	-6.982	-154.774	-150.861	-14.382	47.741	-151.507	-147.065	-147.915	-144.241	-10.971	-145.054	-8191	255	
8372.867	1	1	0	0	0.23868	0.089553	0.085935	0.28158	0.15314	0.24709	0.2631	0.25421	0.14516	0.11053	0.18255	0.32627	0.19686	0.10734	0.24111	0.2937	-2.2792	-2.2521	-2.3917	-2.6417	-2.325	-2.5917	-2.6167	-2.3708	-2.65	-2.5083	-2.3292	-2.6167	-2.4854	-2.4938	-2.4771	-2.6417	33.166	-18.177	24.561	104.267	-1.039	158.841	162.744	97.822	136.838	-159.145	50.659	170.708	112.152	-51.820	32.744	141.869	0.0022331	0.00083314	0.00035007	963.72	1.5518e-05	3.9523e-06	1171.4	275.83	9.6049e-06	7.2584e-06	462.85	164.8	89.725	35.111	1.6383e-05	84.314	0.002453	0.0029315	0.00073741	900.27	2.9484e-05	3.0186e-05	1090	258.34	2.7961e-05	3.2159e-05	488.18	154.26	84.978	33.359	2.7847e-05	79.612	33.090	-36.152	-77.655	-154.998	0.404	-39.197	-154.759	-150.723	-110.958	13.379	-150.943	-147.233	-147.616	-144.438	-0.393	-144.627	-8191	255	
8372.988	1	1	0	0	0.14781	0.095161	0.13962	0.43759	0.053336	0.14846	0.16312	0.09235	0.1645	0.096486	0.068986	0.12014	0.036062	0.22368	0.16637	0.13416	-2.1604	-2.3625	-2.3375	-2.7896	-2.3375	-2.6125	-2.7917	-2.4771	-2.6354	-2.6354	-2.3792	-2.8146	-2.5375	-2.5833	-2.775	-2.3521	-19.142	70.723	-69.712	146.339	-17.672	70.324	-123.201	89.973	43.268	101.024	64.497	174.443	134.839	175.939	-72.753	63.541	0.0020627	0.0004365	0.00024209	969.44	2.2513e-05	5.8663e-06	1177.5	278.6	1.4389e-05	1.1757e-05	463.52	163.89	90.017	35.126	6.5555e-06	83.472	0.002358	0.0028057	0.00070467	905.2	2.8884e-05	2.9113e-05	1093.2	259.52	2.7764e-05	3.036e-05	488.01	153.95	84.785	33.238	2.8465e-05	78.921	34.079	-70.460	-23.447	-154.908	-58.244	-17.410	-154.866	-150.661	-18.995	11.513	-151.421	-146.900	-147.694	-144.252	-69.377	-145.042	-8191	255	
8373.084	1	1	0	0	0.041282	0.16078	0.070944	0.16749	0.14222	0.22521	0.35247	0.13213	0.029452	0.11744	0.1274	0.24648	0.099432	0.096851	0.25952	0.2288	-2.2104	-2.5521	-2.5667	-2.7542	-2.5208	-2.7229	-2.7646	-2.5354	-2.7104	-2.5208	-2.2438	-2.7083	-2.4021	-2.7021	-2.5917	-2.45	-92.212	115.469	118.035	160.954	36.301	-111.384	164.180	149.157	48.368	48.483	43.677	142.673	36.533	188.376	-15.971	109.774	0.0021837	0.0010185	0.00012366	964.22	1.2756e-05	4.4194e-06	1160.3	272.87	8.5749e-06	3.385e-06	460.78	162.13	88.838	34.874	1.0317e-05	82.813	0.0024121	0.0028307	0.0007705	897.03	3.1165e-05	3.0433e-05	1081.6	256.57	2.9725e-05	3.2088e-05	494.89	152.02	84.294	33.023	3.2506e-05	78.201	30.051	-119.255	-83.006	-154.718	-21.408	-0.883	-154.699	-150.690	-83.561	-31.072	-150.193	-147.317	-147.463	-144.009	101.760	-144.862	-8191	255	
8373.180	1	1	0	0	0.14687	0.061507	0.37058	0.23884	0.051188	0.12622	0.30123	0.17239	0.21143	0.1341	0.36486	0.032176	0.29371	0.16334	0.05585	0.077531	-2.0979	-2.5354	-2.3563	-2.775	-2.4667	-2.3896	-2.8208	-2.5729	-2.6479	-2.6708	-2.4083	-2.6625	-2.4521	-2.6417	-2.7917	-2.4875	52.258	164.407	-55.491	189.742	-101.919	21.522	114.489	136.337	37.344	54.435	-39.907	110.808	-166.148	11.793	161.352	139.329	0.00218	0.00096108	7.9695e-05	950.97	1.1515e-05	6.7351e-06	1160.3	275.44	1.2596e-05	2.3577e-06	455.85	162.67	88.553	35.103	1.6933e-05	82.932	0.0026325	0.0030017	0.00088087	893.6	3.3526e-05	3.1636e-05	1082.6	257.15	3.0991e-05	3.3528e-05	505.76	152.79	84.251	33.218	3.4433e-05	78.731	30.591	-114.754	-153.520	-155.212	-45.596	-59.607	-154.835	-150.753	-109.346	185.801	-151.437	-147.152	-147.702	-144.160	-32.486	-145.089	-8191	255	
8373.252	1	1	0	0	0.13829	0.21253	0.26626	0.18618	0.3349	0.095782	0.33066	0.16386	0.23657	0.20209	0.22904	0.097093	0.21582	0.086545	0.1298	0.056529	-2.2083	-2.5833	-2.4417	-2.8021	-2.5854	-2.5458	-2.9604	-2.5479	-2.4188	-2.6604	-2.3479	-2.6333	-2.6104	-2.3521	-2.6229	-2.4583	119.477	74.732	-2.243	96.597	-49.043	-145.014	109.984	35.881	158.321	-117.826	178.476	-166.469	120.995	148.151	-47.554	105.934	0.0022796	0.000689	2.7539e-05	970.46	2.6904e-06	4.0903e-06	1169.6	275.97	2.298e-05	7.7628e-06	476.95	163.92	89.94	35.258	6.7742e-06	84.392	0.0025877	0.0031153	0.00092275	903.1	3.276e-05	3.3052e-05	1089.9	258.55	3.0007e-05	3.4164e-05	510.65	154.23	85.019	33.386	3.1839e-05	79.655	32.596	146.159	54.725	-154.912	116.114	20.982	-154.714	-150.845	-38.212	-58.705	-150.960	-146.944	-147.791	-143.997	-52.810	-144.710	-8191	255	
8373.373	1	1	0	0	0.22118	0.036369	0.35463	0.22909	0.096782	0.15773	0.35143	0.24431	0.16595	0.17203	0.16828	0.31693	0.1546	0.13463	0.15138	0.26	-2.0917	-2.7708	-2.2979	-2.7479	-2.5479	-2.4917	-2.7708	-2.6208	-2.4875	-2.7854	-2.4562	-2.5875	-2.5125	-2.5042	-2.5854	-2.5312	16.041	19.379	-58.933	74.685	166.837	5.131	120.137	78.981	-49.530	13.925	-89.630	-163.765	-107.814	-128.819	-117.793	84.952	0.002074	0.00051125	0.0001842	971.32	1.2185e-05	2.7097e-06	1175.1	277.42	1.4693e-05	2.7731e-06	468.61	164.03	89.876	35.552	8.6414e-07	83.932	0.0023562	0.0030332	0.00086368	906.48	2.9721e-05	3.256e-05	1093.3	259.83	2.6894e-05	3.2666e-05	502.26	153.9	84.943	33.533	3.0892e-05	78.994	25.841	-81.199	-72.472	-154.803	6.423	-114.390	-154.674	-150.581	-50.472	-42.291	-151.968	-147.042	-147.670	-144.295	-19.508	-144.794	-8191	255	
8373.469	1	1	0	0	0.091718	0.2218	0.41467	0.06964	0.28456	0.12872	0.31939	0.23498	0.16617	0.12116	0.1777	0.27663	0.085385	0.049866	0.12899	0.19304	-2.1875	-2.6688	-2.3896	-2.7125	-2.6188	-2.2854	-2.8	-2.5958	-2.5854	-2.7646	-2.4625	-2.75	-2.7417	-2.5438	-2.6271	-2.7229	-47.776	-18.357	56.221	179.218	-122.211	-56.653	145.317	176.383	56.213	-154.805	10.187	137.516	97.606	164.441	127.652	103.301	0.0021333	0.00017744	0.00024882	960.13	7.1233e-06	7.8617e-06	1174.2	276.77	6.7283e-06	1.2063e-05	470.87	166.88	90.79	36.115	8.7869e-06	86.159	0.0022855	0.0029693	0.00083071	898.91	2.7487e-05	3.2269e-05	1091	259.52	2.6315e-05	3.0864e-05	500.12	156.01	86.043	34.109	2.8873e-05	81.072	25.574	-162.824	-125.452	-154.949	-84.359	-20.962	-154.937	-150.968	-30.842	-71.326	-151.810	-146.998	-147.567	-144.003	16.268	-144.781	-8191	255	
8373.565	1	1	0	0	0.092029	0.16706	0.12702	0.17704	0.15418	0.13632	0.27449	0.12031	0.21918	0.2857	0.14343	0.10776	0.19167	0.20306	0.25757	0.17854	-1.9708	-2.7438	-2.4104	-2.8667	-2.6167	-2.3187	-2.7646	-2.6125	-2.3729	-2.8292	-2.6104	-2.7521	-2.7979	-2.4354	-2.725	-2.7083	-114.976	-102.202	29.608	26.741	23.808	-69.250	111.709	-138.154	-77.692	94.366	95.017	12.941	-102.275	101.749	-155.870	101.651	0.0021205	0.0012145	0.00022235	972.38	1.1638e-05	7.5337e-06	1173.1	279.27	9.5031e-06	7.0913e-06	473.25	169.69	92.931	36.916	3.4071e-06	88.643	0.0022909	0.0028007	0.00079825	905.82	2.8591e-05	3.1487e-05	1093.7	261.92	2.7264e-05	3.0362e-05	503.2	159.15	87.923	35.038	2.7158e-05	83.545	28.320	-89.747	-83.462	-154.776	102.250	-10.199	-155.236	-151.007	-29.511	-66.704	-150.575	-147.125	-147.820	-144.409	36.838	-144.769	-8191	255	
8373.661	1	1	0	0	0.20559	0.036833	0.17258	0.15527	0.075643	0.10773	0.28497	0.050022	0.032157	0.16845	0.18253	0.35255	0.15397	0.15751	0.11296	0.10499	-2.0021	-2.8312	-2.6	-2.5458	-2.5792	-2.2062	-2.7896	-2.6937	-2.3604	-2.5708	-2.4437	-2.4375	-2.4542	-2.4062	-2.5979	-2.7438	-1.018	-112.346	41.032	184.753	180.472	-163.714	156.126	96.255	-35.868	79.843	51.119	170.664	133.989	158.898	155.246	153.485	0.002502	0.0012093	0.00012476	989.29	8.4002e-06	1.0103e-05	1188.3	282.9	1.1451e-05	4.8443e-06	479.12	173.24	95.133	38.233	1.2414e-05	90.716	0.0022755	0.0026118	0.00072557	915.76	2.718e-05	2.9826e-05	1103.8	264.61	2.7079e-05	2.8359e-05	504.38	162.61	89.467	36.012	2.75e-05	85.247	30.170	-59.763	-69.760	-154.750	-26.987	11.134	-154.807	-150.635	2.615	-32.912	-151.612	-147.221	-147.766	-144.064	15.110	-144.890	-8191	255	
8373.780	1	1	0	0	0.019102	0.027401	0.2151	0.20744	0.11431	0.20551	0.14309	0.37445	0.20373	0.059328	0.14241	0.08101	0.17019	0.44937	0.14837	0.23511	-1.9292	-2.5875	-2.3521	-2.4458	-2.5938	-2.3292	-2.7229	-2.7021	-2.3354	-2.675	-2.4292	-2.6479	-2.6333	-2.4917	-2.5646	-2.7083	157.276	98.208	169.207	-104.917	118.647	114.315	183.813	-167.622	-42.710	185.435	-51.850	-150.819	-101.718	-136.957	19.299	147.666	0.0024102	0.00098573	0.00011283	977.13	9.2898e-06	1.0232e-05	1182.8	281.01	1.314e-05	1.4368e-05	479.87	172.59	94.277	37.828	4.3383e-06	89.106	0.0024046	0.0027074	0.00077242	910.82	2.9329e-05	3.2498e-05	1101.6	264.05	3.0135e-05	3.125e-05	507.48	161.83	89.003	35.845	2.8308e-05	84.124	28.242	-56.025	154.011	-154.746	-0.260	-87.689	-154.944	-150.831	-31.990	-22.928	-151.774	-146.771	-147.983	-143.862	94.182	-144.723	-8191	255	
8373.852	1	1	0	0	0.18849	0.086071	0.11819	0.093914	0.11194	0.17936	0.27309	0.31262	0.084186	0.22452	0.31272	0.062662	0.16483	0.20497	0.089599	0.16268	-1.9917	-2.3875	-2.6583	-2.2917	-2.6396	-2.6167	-2.7167	-2.7771	-2.5729	-2.6729	-2.4542	-2.5438	-2.7	-2.5375	-2.3604	-2.85	28.816	-103.124	-115.851	-146.104	-12.596	147.646	117.976	189.021	116.713	164.748	-59.726	-8.567	-145.781	125.392	85.539	117.224	0.0021785	0.00077894	0.00023458	969.05	7.4301e-06	7.6394e-06	1167.8	282.28	1.6381e-05	2.3772e-06	481.93	171.77	94.561	37.841	1.318e-05	90.023	0.0026128	0.0029628	0.00082004	906.45	3.1032e-05	3.4734e-05	1092.7	264.33	3.1528e-05	3.2013e-05	510.6	161.43	89.337	35.841	2.8209e-05	84.836	34.210	-23.768	-74.528	-154.611	61.550	-12.488	-154.717	-150.829	-86.601	-34.638	-150.876	-146.712	-147.716	-144.424	-44.995	-144.863	-8191	255	
8373.948	1	1	0	0	0.032919	0.17937	0.10572	0.12585	0.074268	0.16764	0.37175	0.17782	0.29697	0.26003	0.2783	0.099027	0.098923	0.114	0.12487	0.21895	-1.9375	-2.5438	-2.6	-2.4417	-2.7479	-2.6229	-2.4479	-2.7583	-2.3917	-2.5312	-2.6271	-2.4938	-2.6458	-2.5625	-2.5229	-2.975	101.399	-60.438	169.632	-163.233	0.668	114.471	117.656	159.326	-157.203	-28.816	114.634	140.294	172.539	184.625	146.720	87.639	0.0026396	0.00071986	0.00013223	977.34	7.4308e-06	7.9468e-06	1183.9	281.37	1.4425e-05	5.6252e-06	479.39	173.72	95.894	38.708	7.9105e-06	91.204	0.0025997	0.0027935	0.00081775	911.72	3.0142e-05	3.3418e-05	1099.4	264.31	3.1281e-05	3.1246e-05	515.06	163.22	90.018	36.386	2.9868e-05	86.072	28.370	-123.361	-65.481	-154.777	-46.826	20.271	-154.606	-150.809	-89.782	2.128	-151.788	-147.034	-147.662	-144.188	-1.288	-144.659	-8191	255	
8374.068	1	1	0	0	0.036278	0.20409	0.089562	0.34381	0.14185	0.1529	0.15927	0.26526	0.16286	0.16207	0.15821	0.27832	0.19838	0.10949	0.19364	0.08407	-2.0604	-2.4437	-2.5563	-2.4042	-2.55	-2.6021	-2.6708	-2.8479	-2.3917	-2.6271	-2.6271	-2.5104	-2.55	-2.5771	-2.5	-2.9125	-87.361	-15.269	168.120	139.387	-0.559	177.875	139.276	98.967	184.720	-150.159	-31.972	127.963	-153.480	108.566	-141.505	-43.199	0.0022613	0.0010731	0.00028701	989.48	1.6462e-05	7.5116e-06	1190.4	284.96	1.3078e-05	3.1306e-06	484.08	177.72	97.105	39.338	9.3638e-06	92.207	0.0025284	0.0025037	0.00077727	917.96	2.7018e-05	2.8686e-05	1108.2	266.44	2.8314e-05	2.7163e-05	512.76	166.31	91.395	37.105	3.0083e-05	87.338	33.781	-70.452	-112.776	-154.708	-67.484	-11.753	-154.666	-150.636	-33.263	-20.263	-150.993	-147.128	-147.474	-144.017	-63.111	-144.848	-8191	255	
8374.164	1	1	0	0	0.17635	0.18239	0.16131	0.11595	0.11885	0.063663	0.080742	0.22268	0.19438	0.073567	0.19519	0.15215	0.16507	0.2321	0.19637	0.11795	-1.975	-2.3146	-2.6125	-2.3937	-2.6937	-2.5687	-2.5938	-2.8271	-2.5563	-2.5583	-2.7083	-2.6125	-2.5771	-2.5667	-2.2812	-2.7729	-113.215	-145.048	-40.573	117.233	52.321	-120.750	82.939	161.844	137.213	-122.472	41.468	154.961	129.447	186.210	144.391	131.998	0.0025518	0.0016491	0.00028964	976.38	1.1224e-05	6.6127e-06	1178.4	284.28	1.1711e-05	1.4253e-05	478.06	173.3	96.146	38.686	1.0071e-05	90.651	0.0024929	0.0026551	0.00085485	914.29	2.8866e-05	3.2435e-05	1104.4	266.11	2.9472e-05	3.0825e-05	514.88	163.88	90.26	36.557	3.054e-05	85.575	30.042	-101.163	-81.168	-154.995	-42.020	-31.188	-154.477	-150.337	-47.980	-22.736	-150.778	-147.083	-147.438	-144.111	-52.322	-144.897	-8191	255	
8374.261	1	1	0	0	0.17493	0.15707	0.23892	0.31824	0.075063	0.25801	0.10446	0.17201	0.0057768	0.41003	0.19999	0.50742	0.064341	0.29294	0.11596	0.17564	-2.1104	-2.3708	-2.6667	-2.275	-2.45	-2.5979	-2.7104	-2.5104	-2.4646	-2.4417	-2.5333	-2.3646	-2.4938	-2.5083	-2.2062	-2.6646	-46.643	148.814	-88.269	115.919	-25.516	-84.874	59.976	112.862	64.225	103.377	83.918	104.474	88.491	149.539	61.162	-65.766	0.0024756	0.0002166	0.00034809	982.86	1.6043e-05	8.3236e-06	1188.3	285.96	6.7865e-06	8.796e-06	476.33	174.83	96.088	39.01	1.0058e-05	91.425	0.0023741	0.0027679	0.00080863	916.08	2.6453e-05	3.2184e-05	1105.1	266.24	2.8162e-05	3.1363e-05	511.48	163.94	90.357	36.748	2.959e-05	85.89	27.577	166.439	-108.589	-154.784	-23.324	-14.324	-154.742	-150.566	-85.547	-31.484	-150.509	-147.064	-147.947	-144.111	-31.514	-144.805	-8191	255	
8374.381	1	1	0	0	0.15465	0.30825	0.091279	0.18022	0.10274	0.15146	0.36501	0.15435	0.11814	0.078907	0.22573	0.17639	0.19542	0.17854	0.17125	0.28256	-2.0938	-2.3937	-2.6708	-2.4688	-2.4917	-2.5	-2.6	-2.6958	-2.5521	-2.4792	-2.775	-2.5104	-2.5354	-2.7062	-2.3625	-2.8312	-127.514	-131.121	38.234	137.888	69.203	130.620	112.378	147.357	-56.298	123.112	179.629	-112.602	36.058	174.572	-129.276	156.929	0.0022237	0.00049297	0.00031658	987.53	1.485e-05	6.8156e-06	1191.2	289.65	1.3165e-05	5.7651e-06	476.03	176.86	97.715	39.536	1.8593e-05	92.23	0.0022994	0.0027142	0.00074772	919.96	2.4601e-05	3.0204e-05	1109.5	268.4	2.5973e-05	2.8962e-05	504.35	165.86	91.569	37.085	2.7076e-05	86.617	31.639	-95.239	-46.837	-154.914	-103.089	-36.215	-154.654	-150.602	-88.010	-43.848	-150.857	-147.205	-147.465	-144.150	-66.188	-144.643	-8191	255	
8374.477	1	1	0	0	0.13585	0.099901	0.30928	0.063892	0.30733	0.066904	0.22121	0.019896	0.20493	0.20484	0.022495	0.13297	0.14732	0.16606	0.20634	0.033012	-2.0542	-2.4042	-2.5833	-2.5542	-2.5125	-2.6458	-2.4771	-2.6875	-2.4875	-2.3979	-2.7146	-2.5312	-2.6333	-2.7854	-2.3708	-2.9	151.299	15.024	104.712	-77.976	110.020	-18.587	116.086	79.167	41.870	-95.915	85.601	126.543	-49.496	-162.781	51.931	56.771	0.0025004	0.00088824	0.00014005	998.44	9.3281e-06	9.4066e-06	1201.6	288.77	6.519e-06	7.6878e-06	494.06	178.91	98.087	39.46	6.7679e-06	92.544	0.0021228	0.002436	0.00069162	925.85	2.3776e-05	2.7787e-05	1114.6	268.7	2.5445e-05	2.7957e-05	504.3	167.54	92.39	37.207	2.7512e-05	87.065	29.457	-91.851	-15.622	-154.942	48.529	-36.316	-154.794	-150.851	-52.501	-7.194	-151.491	-147.170	-147.234	-143.902	-56.662	-144.543	-8191	255	
8374.549	1	1	0	0	0.14552	0.13599	0.14394	0.23971	0.11431	0.24265	0.26935	0.11352	0.082547	0.26488	0.23639	0.20084	0.11205	0.25844	0.1207	0.34362	-2.1833	-2.4062	-2.6979	-2.6146	-2.3125	-2.625	-2.5271	-2.7146	-2.7021	-2.3896	-2.675	-2.625	-2.5542	-2.7146	-2.4104	-2.625	77.180	56.925	-68.840	163.959	-103.887	-114.373	122.780	-118.844	140.595	-157.893	135.259	127.702	106.246	-154.663	-58.210	147.774	0.0028287	0.00068451	0.00024081	993.41	1.1022e-05	6.9486e-06	1187.6	287.57	8.1342e-06	4.1792e-06	479.01	176.43	97.718	39.115	1.4584e-05	91.702	0.0022608	0.0024924	0.00066481	923.69	2.5315e-05	2.6969e-05	1106.9	267.56	2.5433e-05	2.6985e-05	492.98	165.42	91.476	36.751	2.4611e-05	85.961	25.992	-56.225	-84.811	-154.767	-40.838	-33.808	-154.741	-151.000	-72.108	-63.042	-151.032	-147.267	-147.672	-144.163	-46.336	-144.812	-8191	255	
8374.645	1	1	0	0	0.063375	0.35908	0.25666	0.28378	0.18095	0.049158	0.079994	0.12937	0.23329	0.069721	0.16765	0.10877	0.077836	0.22749	0.14165	0.43274	-2.2208	-2.3083	-2.6604	-2.7979	-2.6792	-2.9417	-2.6375	-2.6333	-2.7438	-2.2229	-2.4917	-2.8354	-2.6021	-2.7771	-2.6792	-2.6354	79.578	17.000	-74.949	150.420	-121.203	27.088	172.037	21.317	-81.442	49.795	-61.475	-115.267	73.930	-162.724	155.480	160.159	0.0026215	0.0002115	0.00020131	989.9	1.8469e-05	8.4902e-06	1187.9	288.04	1.2827e-05	3.3023e-06	492.56	177.46	97.754	39.549	1.1735e-05	92.378	0.0022061	0.0024257	0.00061511	921.2	2.4802e-05	2.609e-05	1104.7	267.56	2.5305e-05	2.7206e-05	495.39	166.33	92.293	37.157	2.5515e-05	86.826	31.600	-159.082	-78.129	-155.066	-24.054	-0.775	-154.847	-150.618	-26.781	-1.479	-150.361	-146.823	-147.407	-144.044	-87.205	-145.112	-8191	255	
8374.764	1	1	0	0	0.12169	0.17236	0.33375	0.077863	0.18163	0.071823	0.30464	0.37002	0.14451	0.086803	0.11591	0.21527	0.029527	0.078381	0.1369	0.36797	-2.4021	-2.3688	-2.5417	-2.7083	-2.5917	-2.7438	-2.5896	-2.5792	-2.6021	-2.5771	-2.6479	-2.675	-2.4708	-2.6937	-2.5583	-2.4792	47.687	-113.066	94.865	-129.673	61.595	-132.919	133.136	100.644	141.703	24.490	-115.618	87.237	-125.785	-59.846	-142.998	178.523	0.0024039	0.00052164	7.8153e-05	991.25	8.2941e-06	6.9586e-06	1189.5	286.39	2.8687e-05	4.843e-06	488.93	177.05	98.345	39.151	1.1061e-05	92.081	0.0022345	0.0025669	0.00061958	923.41	2.649e-05	2.7185e-05	1105.6	267.16	2.633e-05	2.9546e-05	500.35	166	92.031	36.888	2.6647e-05	86.598	30.124	-44.370	9.529	-154.962	-104.633	-41.147	-154.977	-150.667	-19.472	-70.330	-151.501	-147.066	-147.638	-144.001	-17.014	-144.680	-8191	255	
8374.860	1	1	0	0	0.092769	0.046757	0.16665	0.13054	0.20181	0.10737	0.016456	0.10901	0.13976	0.11794	0.13086	0.32998	0.14871	0.41238	0.18055	0.21766	-2.2979	-2.3438	-2.4167	-2.8417	-2.3354	-2.725	-2.8167	-2.5396	-2.6917	-2.3438	-2.5542	-2.7604	-2.6	-2.8312	-2.6333	-2.575	120.674	-21.642	-57.061	-130.598	-157.981	98.334	-113.565	-56.475	65.102	158.769	-155.872	59.911	173.734	167.563	142.155	145.536	0.0024305	0.00046722	0.0001314	986.26	1.4051e-05	7.8467e-06	1190.7	286.74	1.1183e-05	5.0506e-06	483.02	177.16	97.389	39	1.5333e-06	90.995	0.0023097	0.0026386	0.00071212	920.22	2.8254e-05	2.8124e-05	1107.3	267.14	2.7274e-05	2.92e-05	503.57	165.86	91.52	36.696	2.6973e-05	85.922	27.602	-91.406	-64.875	-154.754	6.586	-20.564	-154.716	-151.053	-85.456	-80.636	-151.143	-146.780	-147.522	-143.971	172.954	-144.893	-8191	255	
8374.956	1	1	0	0	0.14719	0.17824	0.21412	0.20846	0.098553	0.25679	0.19016	0.030865	0.067825	0.15331	0.065108	0.15988	0.2429	0.26708	0.20481	0.26209	-2.3271	-2.5271	-2.7167	-2.6542	-2.1479	-2.6562	-2.6417	-2.5458	-2.6562	-2.45	-2.5417	-2.7875	-2.4437	-2.5125	-2.6583	-2.6917	-1.099	-136.543	-133.711	178.015	-52.277	-158.498	168.034	101.749	-19.990	73.825	79.240	132.963	152.926	170.056	-27.839	157.881	0.0022222	0.0010609	0.00036678	990	9.6185e-06	5.4533e-06	1188.2	285.9	9.9435e-06	6.9987e-06	468.93	175.22	96.974	38.895	6.4109e-06	90.56	0.0021635	0.0023545	0.00065239	922.65	2.5605e-05	2.4008e-05	1104	266.57	2.3774e-05	2.5211e-05	494.01	164.19	91.286	36.407	2.6348e-05	85.045	29.758	-26.643	-124.753	-155.023	-26.021	-38.824	-154.752	-151.048	-47.075	0.516	-150.785	-147.079	-148.044	-143.883	-25.745	-144.982	-8191	255	
8375.077	1	1	0	0	0.075881	0.22955	0.041279	0.11203	0.24975	0.10589	0.076918	0.26751	0.039515	0.22475	0.36933	0.2035	0.20624	0.099903	0.14511	0.11752	-2.1625	-2.5812	-2.2917	-2.6937	-2.3354	-2.5917	-2.7083	-2.5875	-2.5167	-2.5792	-2.3542	-2.8042	-2.4958	-2.6542	-2.5062	-2.4229	82.823	-167.531	76.693	179.262	-128.269	11.664	-99.692	19.134	-160.868	99.475	132.429	158.452	120.885	-95.041	-167.920	121.568	0.0025811	0.00088433	0.0001882	997.04	1.492e-05	6.6379e-06	1182.7	287.89	1.5138e-05	3.8813e-06	477.78	176.06	97.95	39.177	1.239e-05	91.802	0.002092	0.0023366	0.00067883	926.25	2.4747e-05	2.4699e-05	1105	267.66	2.2838e-05	2.6237e-05	496.61	165.07	91.835	36.895	2.4332e-05	86.434	30.434	-109.440	-78.193	-154.838	-2.606	-55.847	-154.669	-150.518	31.147	-30.389	-150.626	-146.884	-147.353	-144.388	-20.686	-144.488	-8191	255	
8375.149	1	1	0	0	0.36302	0.16662	0.10838	0.24799	0.098441	0.040056	0.30248	0.32168	0.042938	0.11962	0.010129	0.28462	0.16733	0.080341	0.080816	0.22817	-2.0833	-2.3208	-2.3917	-2.7417	-2.3292	-2.5979	-2.6979	-2.4271	-2.7333	-2.5187	-2.4917	-2.7292	-2.5542	-2.5917	-2.7604	-2.6042	119.530	-0.359	95.180	100.063	-44.683	-98.453	184.089	113.896	-40.443	-127.882	-84.659	153.015	98.476	-168.678	65.794	140.429	0.0024204	0.0010858	2.3026e-05	1006	9.4687e-06	1.1195e-05	1205	290.67	9.2865e-06	1.1386e-05	490.77	179.73	99.141	40.14	9.4459e-06	93.748	0.0018704	0.0022133	0.00062647	933.71	2.1443e-05	2.3691e-05	1116.2	270.37	2.032e-05	2.5399e-05	502.81	168.37	93.074	37.586	2.481e-05	88.036	28.529	-120.467	-73.670	-154.797	-7.386	-50.859	-154.711	-150.694	-15.282	-73.875	-150.424	-146.793	-147.675	-143.795	-62.771	-144.752	-8191	255	
8375.245	1	1	0	0	0.33983	0.18215	0.12703	0.20494	0.16949	0.21492	0.45078	0.085839	0.32578	0.058019	0.037839	0.20899	0.11652	0.12689	0.10368	0.60383	-2.0687	-2.4792	-2.5646	-2.8083	-2.5646	-2.5125	-2.8063	-2.4958	-2.4354	-2.5458	-2.3667	-2.7479	-2.5687	-2.4333	-2.7646	-2.7687	-27.862	8.187	190.274	182.493	-57.102	-84.247	162.317	91.902	-10.531	170.862	-14.435	-163.568	-155.426	184.112	111.496	129.457	0.0024687	0.00091127	0.00013586	1002.5	1.3759e-05	1.172e-05	1204.9	292.63	1.3827e-05	6.9286e-06	498.77	182.66	101.34	40.69	1.1098e-05	94.417	0.0018658	0.0024767	0.00064555	931.13	2.2569e-05	2.5481e-05	1120.8	271.91	2.099e-05	2.597e-05	505.68	170.79	94.377	38.23	2.4721e-05	88.769	25.108	-122.237	-129.159	-155.085	-39.715	-14.628	-154.806	-150.859	-76.666	0.578	-151.663	-147.051	-147.818	-144.123	2.586	-144.584	-8191	255	
8375.341	1	1	0	0	0.067435	0.19826	0.066607	0.12507	0.35222	0.11922	0.33263	0.10701	0.087582	0.096335	0.16481	0.25792	0.26507	0.2912	0.1295	0.39755	-2.0625	-2.4375	-2.3146	-2.8771	-2.3375	-2.5042	-2.7625	-2.4917	-2.5833	-2.8083	-2.3354	-2.9083	-2.3646	-2.4354	-2.8229	-2.4938	189.906	-12.958	181.395	-146.610	-12.040	154.882	99.324	-121.920	175.318	27.031	39.454	129.598	148.171	98.846	120.001	150.382	0.0024358	0.00019448	0.00016497	1008.1	1.645e-05	1.6346e-06	1196.9	291.11	2.0584e-05	8.5193e-06	491.97	181.42	100.94	40.861	9.6992e-06	94.431	0.0019516	0.0024053	0.0006538	931.45	2.3807e-05	2.5822e-05	1113.9	270.46	2.2536e-05	2.6314e-05	505.38	169.87	94.616	38.325	2.6e-05	88.78	26.321	-45.100	-111.756	-154.689	-51.625	-98.908	-154.719	-150.639	-56.415	-45.347	-151.008	-147.151	-147.504	-144.146	-44.165	-144.969	-8191	255	
8375.462	1	1	0	0	0.1983	0.0046504	0.3499	0.36373	0.2824	0.38876	0.34258	0.15224	0.1338	0.23446	0.20407	0.36122	0.24819	0.23535	0.038703	0.18454	-1.9604	-2.5958	-2.2854	-2.8187	-2.5833	-2.4854	-2.9417	-2.6667	-2.55	-2.825	-2.3375	-2.7458	-2.6354	-2.45	-2.7313	-2.6729	-146.944	184.081	141.729	160.643	26.757	-19.614	162.038	-9.099	-83.070	-125.158	57.259	-152.883	96.595	157.284	-110.342	97.662	0.0025313	0.0012356	7.1533e-05	994.34	2.5213e-06	1.0203e-05	1193.6	288.71	1.4419e-05	1.0379e-05	488.51	180.83	100.06	40.455	8.0474e-06	93.902	0.0022303	0.0026577	0.00072377	925.22	2.8637e-05	2.9964e-05	1112.6	269.64	2.7949e-05	3.1136e-05	512.53	169.25	94.199	38.195	2.6767e-05	88.434	31.503	-114.742	-76.308	-154.546	186.748	-52.691	-154.699	-150.554	-52.591	-28.136	-150.343	-147.171	-147.632	-144.069	-32.491	-144.961	-8191	255	
8375.556	1	1	0	0	0.22836	0.17576	0.25762	0.31699	0.20505	0.079283	0.37297	0.17222	0.21655	0.35058	0.13195	0.1276	0.1506	0.30454	0.062929	0.23384	-1.9458	-2.5792	-2.2667	-2.8	-2.6562	-2.4021	-2.6729	-2.5438	-2.3396	-2.5604	-2.3396	-2.8479	-2.5292	-2.3271	-2.5625	-2.7771	169.574	-144.611	55.502	-166.236	-92.658	185.005	158.169	142.059	165.113	-168.600	170.989	56.216	96.682	-162.818	-150.549	138.759	0.0027593	0.00088173	0.00029978	996.95	1.1413e-05	2.565e-06	1200.3	290.91	1.8167e-05	1.0273e-05	495.69	181.94	101.24	40.974	1.3843e-05	94.584	0.002328	0.0026757	0.00070753	929.77	2.7177e-05	2.8936e-05	1117.2	271.73	2.6123e-05	2.8314e-05	511.46	170.56	94.948	38.445	2.5099e-05	89.021	30.888	-75.174	-66.241	-154.833	-84.257	-65.977	-154.811	-150.834	-80.279	-25.421	-151.513	-147.009	-147.227	-144.059	-15.467	-144.787	-8191	255	
8375.652	1	1	0	0	0.1082	0.20213	0.12321	0.2232	0.23071	0.24139	0.15936	0.31772	0.086254	0.26765	0.21197	0.20109	0.19062	0.289	0.081386	0.25189	-1.9729	-2.7042	-2.4354	-2.5938	-2.6437	-2.4208	-2.9729	-2.7208	-2.3896	-2.9333	-2.375	-2.5729	-2.7625	-2.5396	-2.7042	-2.6896	138.525	-35.073	63.992	155.829	-71.807	-151.737	134.508	169.645	-149.039	46.848	-32.328	182.686	120.667	181.710	41.868	103.806	0.0026951	0.0002975	0.00041727	1003.1	1.7498e-05	7.0181e-06	1206.7	289.99	1.3143e-05	5.1403e-06	499.6	181.25	99.685	40.406	7.7381e-06	93.489	0.0022873	0.0025928	0.0006896	931.95	2.756e-05	2.9657e-05	1120.2	271.57	2.6631e-05	2.8503e-05	507.89	169.97	94.393	38.108	2.4872e-05	88.318	32.977	56.220	-88.474	-154.797	23.990	-18.009	-154.650	-150.755	-22.364	-9.559	-150.690	-147.149	-147.788	-144.327	-43.545	-144.526	-8191	255	
8375.748	1	1	0	0	0.090147	0.18956	0.15879	0.40066	0.13443	0.16429	0.2137	0.28214	0.057162	0.090302	0.20156	0.056052	0.13673	0.074802	0.19439	0.10781	-1.8021	-2.5542	-2.3625	-2.5729	-2.6375	-2.4896	-2.8354	-2.7604	-2.3688	-2.6792	-2.5	-2.5771	-2.7687	-2.5479	-2.55	-2.8771	82.824	14.500	-51.090	156.575	93.913	-147.102	113.510	101.718	-99.416	49.961	-39.711	157.304	60.209	-17.748	112.959	-126.617	0.0024716	0.0012858	0.00016655	1000.2	4.5673e-06	6.506e-06	1192.7	287.4	1.3908e-05	6.3526e-06	479.07	178.4	99.323	40.315	1.1747e-05	93.539	0.0022822	0.0025461	0.00072606	928.77	2.7993e-05	2.9417e-05	1112	269.39	2.7738e-05	2.799e-05	507.84	167.67	93.694	37.936	2.6409e-05	87.655	32.970	-110.049	-79.777	-154.704	-20.748	-49.192	-154.713	-150.867	71.059	16.223	-151.622	-146.893	-147.981	-144.278	-34.536	-144.749	-8191	255	
8375.844	1	1	0	0	0.11948	0.10001	0.16694	0.070103	0.022274	0.21466	0.26587	0.17098	0.077677	0.10249	0.091243	0.19016	0.17873	0.28778	0.089082	0.29302	-2	-2.7854	-2.6458	-2.5292	-2.5271	-2.6271	-2.6979	-2.9021	-2.3187	-2.7146	-2.5896	-2.4437	-2.8458	-2.4896	-2.6	-2.7833	-111.779	-18.176	76.666	-124.848	12.419	97.501	78.526	123.020	16.944	-44.917	28.293	190.253	-161.576	115.727	-36.197	131.684	0.0022781	0.00063402	5.6413e-05	1002.5	8.9391e-06	5.0096e-06	1201.3	291.27	1.4244e-05	1.0862e-05	492.93	180.36	100.79	40.693	1.524e-05	94.112	0.0022661	0.0022978	0.00072815	932.97	2.5636e-05	2.6143e-05	1117.4	271.51	2.5094e-05	2.3549e-05	508.82	169.54	94.658	38.285	2.5481e-05	88.29	27.603	-92.742	20.163	-154.901	-19.407	-56.574	-154.641	-150.713	-10.601	-17.111	-150.382	-147.064	-147.713	-143.689	-41.970	-144.708	-8191	255	
8375.941	1	1	0	0	0.095553	0.23418	0.1149	0.23416	0.17848	0.12607	0.058708	0.30214	0.10354	0.13344	0.17538	0.39792	0.14455	0.07721	0.22731	0.25914	-1.9979	-2.6021	-2.5812	-2.4708	-2.625	-2.5542	-2.6146	-2.6542	-2.3708	-2.525	-2.5604	-2.6417	-2.7771	-2.3167	-2.5563	-2.7167	173.089	120.470	-74.390	128.245	-103.981	-144.340	-69.588	164.092	31.699	72.283	-19.775	166.040	169.259	69.040	-55.813	138.791	0.002585	0.00074948	0.00025806	1007.9	9.5042e-06	7.3652e-06	1209	292.3	1.5671e-05	1.5725e-06	490.13	181.31	100.53	40.664	3.5649e-06	94.572	0.0022098	0.0021764	0.00072274	937.76	2.4024e-05	2.6121e-05	1123.8	272.79	2.4319e-05	2.4585e-05	507.05	169.91	94.717	38.299	2.5724e-05	88.703	25.539	-73.109	-79.251	-154.881	-71.866	-9.414	-154.944	-150.807	-61.890	-3.306	-150.903	-147.175	-147.596	-143.926	1.449	-144.841	-8191	255	
8376.061	1	1	0	0	0.20913	0.2894	0.068304	0.19221	0.14032	0.21467	0.20469	0.093853	0.32934	0.073026	0.17741	0.14545	0.30113	0.30947	0.11187	0.39501	-1.8979	-2.5708	-2.6354	-2.325	-2.7667	-2.5625	-2.6167	-2.9708	-2.3625	-2.8479	-2.7208	-2.4813	-2.7125	-2.4542	-2.2625	-2.9896	177.190	175.809	115.516	146.325	8.341	37.349	71.460	112.097	65.072	-87.631	-153.939	104.950	61.620	149.390	118.641	106.132	0.0024498	0.0010142	0.00030193	1010.4	1.21e-05	3.3041e-06	1205.5	291.85	1.0848e-05	8.3959e-06	478.59	178.98	100.17	40.461	9.0542e-06	92.672	0.0021584	0.0023848	0.00072772	937.71	2.2991e-05	2.8273e-05	1120.6	272.06	2.3277e-05	2.4814e-05	498.97	168.1	93.792	37.919	2.4728e-05	87.148	32.018	-87.493	-58.883	-154.907	-36.054	-86.594	-154.462	-150.371	-17.079	-1.247	-151.417	-146.973	-147.413	-143.733	-15.379	-144.906	-8191	255	
8376.157	1	1	0	0	0.11961	0.13569	0.10349	0.10032	0.10294	0.23023	0.24727	0.11819	0.2466	0.22142	0.12164	0.13668	0.30222	0.29245	0.21916	0.28667	-1.9125	-2.5042	-2.5729	-2.4542	-2.7542	-2.5438	-2.6708	-2.9083	-2.4958	-2.6312	-2.6042	-2.4542	-2.6354	-2.5625	-2.4854	-2.8667	101.574	14.656	-137.118	-29.198	-166.022	45.361	132.114	-140.062	183.230	10.880	65.722	-150.161	174.323	178.000	37.436	140.702	0.0023495	0.00030601	4.6284e-05	999.84	9.2525e-06	7.9201e-06	1193.5	289.44	7.3466e-06	3.8629e-06	486.54	177.49	99.71	39.731	9.3898e-06	91.036	0.0019615	0.0023654	0.00068357	931.85	2.2519e-05	2.8445e-05	1108.7	269.38	2.4298e-05	2.7659e-05	502.77	165.97	92.993	37.385	2.6548e-05	85.986	30.627	-102.115	3.780	-154.975	-48.258	5.007	-154.841	-150.597	-45.781	-15.444	-150.393	-147.178	-147.354	-144.078	-24.667	-144.897	-8191	255	
8376.254	1	1	0	0	0.076109	0.1841	0.10149	0.32842	0.26763	0.1211	0.20423	0.19728	0.11111	0.15596	0.3285	0.37392	0.18099	0.14712	0.2937	0.1358	-1.9333	-2.475	-2.7167	-2.5583	-2.6188	-2.5896	-2.4562	-2.6729	-2.4437	-2.5375	-2.7917	-2.5271	-2.6292	-2.625	-2.275	-3.0167	-21.315	101.817	-36.678	131.832	25.220	-10.309	91.333	150.179	1.009	60.955	-11.483	138.249	116.716	159.896	66.369	-94.878	0.0025462	0.0011379	0.00033744	1003.6	6.3659e-06	4.4851e-06	1196.2	287.11	1.1091e-05	7.9226e-06	492.34	176.83	98.808	39.63	7.1261e-06	91.784	0.0021396	0.0024395	0.00070225	932.46	2.415e-05	2.8196e-05	1111.8	268.06	2.6538e-05	2.8453e-05	507.06	165.9	92.973	37.457	2.7838e-05	86.456	30.328	-117.282	-71.374	-154.853	-68.481	-16.847	-154.724	-150.472	-78.091	11.536	-150.907	-147.079	-147.589	-143.986	36.930	-144.685	-8191	255	
8376.350	1	1	0	0	0.24237	0.27226	0.12974	0.30534	0.22183	0.24069	0.09736	0.19557	0.13233	0.089324	0.26119	0.14924	0.2772	0.22575	0.17365	0.18175	-2.0958	-2.3187	-2.5812	-2.6188	-2.5917	-2.7292	-2.6333	-2.7771	-2.5896	-2.6583	-2.5854	-2.5271	-2.65	-2.8708	-2.2521	-2.6771	21.556	39.229	-2.399	105.106	184.831	69.814	114.011	148.403	-96.746	93.091	-151.468	190.001	156.934	158.731	-129.294	169.566	0.0025177	0.00068207	0.00014241	1000.3	1.6498e-06	1.2393e-05	1199.1	288.07	1.0859e-05	6.817e-06	491.4	177.03	97.858	39.615	9.4052e-06	92.043	0.0023239	0.0025102	0.00072138	930.23	2.6326e-05	2.8987e-05	1113.6	268.4	2.724e-05	2.876e-05	505.33	166.04	92.426	37.354	2.6673e-05	86.832	30.531	-111.711	-103.059	-154.739	26.971	-19.232	-154.975	-150.553	-34.465	-41.012	-150.910	-146.851	-147.451	-144.273	-13.152	-144.842	-8191	255	
8376.446	1	1	0	0	0.12185	0.095503	0.26629	0.23495	0.13914	0.46478	0.18641	0.089311	0.34191	0.27447	0.12617	0.23289	0.057912	0.31074	0.10562	0.36166	-2.1875	-2.3646	-2.4979	-2.6312	-2.4083	-2.4708	-2.5521	-2.8146	-2.6437	-2.4292	-2.7792	-2.5833	-2.5687	-2.6917	-2.3	-2.7458	169.987	-0.475	-59.308	153.252	-13.973	-127.591	109.483	123.787	53.094	186.768	145.258	137.742	96.782	130.487	-73.818	52.940	0.0024793	0.0004328	0.00035155	998.9	1.4458e-05	9.8628e-06	1191	287.22	2.0886e-05	9.0456e-06	484.43	175.6	97.479	38.787	2.563e-05	90.303	0.0023617	0.0025234	0.00067525	929.73	2.5075e-05	2.8492e-05	1110.4	267.78	2.6246e-05	2.6589e-05	491.78	164.09	91.415	36.574	2.4965e-05	84.637	28.299	-79.547	-87.881	-154.768	-11.361	-30.742	-154.855	-150.690	-36.876	-18.440	-151.633	-147.052	-147.433	-144.329	-41.268	-144.714	-8191	255	
#DATA ENDS
