BOXY.EXE: ISS Imagent and Oximeter Data Acquisition Program Version 0.80
Ascii Record File

#ACQ INFORMATION
2  Detector Channels 
16  External MUX Channels 
1  Auxiliary Channels 
5000  Waveform (CCF) Frequency (Hz)
1  Waveforms Skipped 
30  Waveforms Averaged 
1  Cycles Averaged 
16  Acquisitions per Waveform 
10.0806  Updata Rate (Hz) 

#FILE INFORMATION
TRUE -- External MUX Channel results are PARSED.
FALSE -- AC DC and Phase are NOT grouped.
TRUE -- Companion Program Settings File CREATED.
FALSE -- AC data not excluded
FALSE -- DC data not excluded
FALSE -- Phase data not excluded
FALSE -- Auxillary Chn. data not excluded
Tab delimiters

#CALIBRATION STATE
TRUE -- Waveform Calibration Values APPLIED.


#AUX CALIBRATION VALUES
Val Type	aux-1	

Term	1.0000e+00	
Factor	0.0000e+00	


#WF CALIBRATION VALUES
A = Detector Channel
Val Type	A-AC1	A-AC2	A-AC3	A-AC4	A-AC5	A-AC6	A-AC7	A-AC8	A-AC9	A-AC10	A-AC11	A-AC12	A-AC13	A-AC14	A-AC15	A-AC16	A-DC1	A-DC2	A-DC3	A-DC4	A-DC5	A-DC6	A-DC7	A-DC8	A-DC9	A-DC10	A-DC11	A-DC12	A-DC13	A-DC14	A-DC15	A-DC16	A-Ph1	A-Ph2	A-Ph3	A-Ph4	A-Ph5	A-Ph6	A-Ph7	A-Ph8	A-Ph9	A-Ph10	A-Ph11	A-Ph12	A-Ph13	A-Ph14	A-Ph15	A-Ph16	

Term	0.00000e+00	0.00000e+00	0.00000e+00	0.00000e+00	0.00000e+00	0.00000e+00	0.00000e+00	0.00000e+00	0.00000e+00	0.00000e+00	0.00000e+00	0.00000e+00	0.00000e+00	0.00000e+00	0.00000e+00	0.00000e+00	0.00000e+00	0.00000e+00	0.00000e+00	0.00000e+00	0.00000e+00	0.00000e+00	0.00000e+00	0.00000e+00	0.00000e+00	0.00000e+00	0.00000e+00	0.00000e+00	0.00000e+00	0.00000e+00	0.00000e+00	0.00000e+00	0.00000e+00	0.00000e+00	0.00000e+00	0.00000e+00	0.00000e+00	0.00000e+00	0.00000e+00	0.00000e+00	0.00000e+00	0.00000e+00	0.00000e+00	0.00000e+00	0.00000e+00	0.00000e+00	0.00000e+00	0.00000e+00	
Factor	1.00000e+00	1.00000e+00	1.00000e+00	1.00000e+00	1.00000e+00	1.00000e+00	1.00000e+00	1.00000e+00	1.00000e+00	1.00000e+00	1.00000e+00	1.00000e+00	1.00000e+00	1.00000e+00	1.00000e+00	1.00000e+00	1.00000e+00	1.00000e+00	1.00000e+00	1.00000e+00	1.00000e+00	1.00000e+00	1.00000e+00	1.00000e+00	1.00000e+00	1.00000e+00	1.00000e+00	1.00000e+00	1.00000e+00	1.00000e+00	1.00000e+00	1.00000e+00	X	X	X	X	X	X	X	X	X	X	X	X	X	X	X	X	

B = Detector Channel
Val Type	B-AC1	B-AC2	B-AC3	B-AC4	B-AC5	B-AC6	B-AC7	B-AC8	B-AC9	B-AC10	B-AC11	B-AC12	B-AC13	B-AC14	B-AC15	B-AC16	B-DC1	B-DC2	B-DC3	B-DC4	B-DC5	B-DC6	B-DC7	B-DC8	B-DC9	B-DC10	B-DC11	B-DC12	B-DC13	B-DC14	B-DC15	B-DC16	B-Ph1	B-Ph2	B-Ph3	B-Ph4	B-Ph5	B-Ph6	B-Ph7	B-Ph8	B-Ph9	B-Ph10	B-Ph11	B-Ph12	B-Ph13	B-Ph14	B-Ph15	B-Ph16	

Term	0.00000e+00	0.00000e+00	0.00000e+00	0.00000e+00	0.00000e+00	0.00000e+00	0.00000e+00	0.00000e+00	0.00000e+00	0.00000e+00	0.00000e+00	0.00000e+00	0.00000e+00	0.00000e+00	0.00000e+00	0.00000e+00	0.00000e+00	0.00000e+00	0.00000e+00	0.00000e+00	0.00000e+00	0.00000e+00	0.00000e+00	0.00000e+00	0.00000e+00	0.00000e+00	0.00000e+00	0.00000e+00	0.00000e+00	0.00000e+00	0.00000e+00	0.00000e+00	-1.87321e+01	-2.01382e+02	-2.04078e+02	-1.83917e+02	-1.28168e+02	-1.16194e+02	-1.55153e+02	-1.62015e+02	-8.71299e+01	-1.10166e+02	-1.70746e+02	-1.70338e+02	-1.84751e+02	-1.77127e+02	-1.27571e+02	-1.49891e+02	
Factor	3.21959e-05	5.86218e-05	1.70957e-05	1.85218e-01	6.38908e-07	6.61217e-07	1.79242e-01	5.85498e-02	6.28257e-07	6.32059e-07	9.41592e-02	3.29196e-02	3.35767e-02	1.04145e-02	6.48013e-07	1.48882e-02	2.48085e-07	2.48645e-07	6.85922e-08	8.06149e-02	2.73403e-09	2.72330e-09	7.40105e-02	2.49478e-02	2.74050e-09	2.72179e-09	3.69338e-02	1.28081e-02	1.29845e-02	4.14818e-03	2.70430e-09	5.58471e-03	X	X	X	X	X	X	X	X	X	X	X	X	X	X	X	X	



#DISTANCE SETTINGS
A = Detector Channel
A-1	A-2	A-3	A-4	A-5	A-6	A-7	A-8	A-9	A-10	A-11	A-12	A-13	A-14	A-15	A-16	

2.5000e+00	3.0000e+00	2.5000e+00	3.0000e+00	2.0000e+00	3.0000e+00	1.5000e+00	3.0000e+00	3.0000e+00	3.0000e+00	3.0000e+00	3.0000e+00	3.0000e+00	3.0000e+00	1.5000e+00	3.0000e+00	

B = Detector Channel
B-1	B-2	B-3	B-4	B-5	B-6	B-7	B-8	B-9	B-10	B-11	B-12	B-13	B-14	B-15	B-16	

1.0000e+01	1.0000e+01	1.0000e+01	1.4400e+00	1.0000e+01	1.0000e+01	1.5100e+00	1.9400e+00	1.0000e+01	1.0000e+01	1.9900e+00	2.4900e+00	2.4100e+00	2.9000e+00	1.0000e+01	2.9800e+00	




#DATA BEGINS
time	group	step	mark	flag	A-AC1	A-AC2	A-AC3	A-AC4	A-AC5	A-AC6	A-AC7	A-AC8	A-AC9	A-AC10	A-AC11	A-AC12	A-AC13	A-AC14	A-AC15	A-AC16	A-DC1	A-DC2	A-DC3	A-DC4	A-DC5	A-DC6	A-DC7	A-DC8	A-DC9	A-DC10	A-DC11	A-DC12	A-DC13	A-DC14	A-DC15	A-DC16	A-Ph1	A-Ph2	A-Ph3	A-Ph4	A-Ph5	A-Ph6	A-Ph7	A-Ph8	A-Ph9	A-Ph10	A-Ph11	A-Ph12	A-Ph13	A-Ph14	A-Ph15	A-Ph16	B-AC1	B-AC2	B-AC3	B-AC4	B-AC5	B-AC6	B-AC7	B-AC8	B-AC9	B-AC10	B-AC11	B-AC12	B-AC13	B-AC14	B-AC15	B-AC16	B-DC1	B-DC2	B-DC3	B-DC4	B-DC5	B-DC6	B-DC7	B-DC8	B-DC9	B-DC10	B-DC11	B-DC12	B-DC13	B-DC14	B-DC15	B-DC16	B-Ph1	B-Ph2	B-Ph3	B-Ph4	B-Ph5	B-Ph6	B-Ph7	B-Ph8	B-Ph9	B-Ph10	B-Ph11	B-Ph12	B-Ph13	B-Ph14	B-Ph15	B-Ph16	aux-1	digaux	

1197.329	1	1	0	256	0.043745	0.087229	0.22384	0.29894	0.24296	0.042446	0.26878	0.32157	0.18495	0.003813	0.26283	0.2257	0.18402	0.16237	0.20972	0.2677	-3.625	-4.2125	-4.0896	-4.3083	-4.3167	-3.9896	-4.3542	-4.1125	-3.8458	-4.1917	-4.1479	-4.3958	-4.4187	-3.8812	-4.2354	-4.1458	219.537	262.898	-10.072	283.312	29.924	201.145	236.764	221.769	159.681	79.205	167.515	-8.897	15.744	-7.679	250.063	186.189	0.00026737	0.00040864	3.9137e-05	1322.1	2.9158e-06	4.0704e-06	1390.8	275.89	4.5542e-06	3.4458e-06	341.87	94.778	74.945	21.766	4.3382e-06	30.444	0.00023289	0.00021267	5.7156e-05	1200.3	2.4313e-06	2.2355e-06	1260.3	255.39	2.3742e-06	2.1879e-06	302.16	87.601	68.699	20.471	2.2371e-06	28.403	-59.745	-33.712	264.320	-64.975	-21.384	43.304	-64.695	-57.867	246.183	267.750	-58.230	-51.634	-51.232	-45.095	155.035	-45.169	-8191	255	
1197.424	1	1	0	0	0.19423	0.25653	0.28282	0.13231	0.28206	0.25385	0.02118	0.099837	0.11949	0.15236	0.22326	0.10992	0.1324	0.172	0.056841	0.07832	-3.6312	-4.2312	-3.7375	-4.4479	-4.0687	-3.9813	-4.5604	-4.2021	-4.0521	-4.4229	-4.0833	-4.1062	-4.2812	-3.8312	-4.1396	-4.0979	136.227	-51.379	130.516	247.122	58.033	272.260	136.145	223.546	5.530	38.279	267.948	267.350	22.422	97.735	98.432	90.984	0.00025278	9.2135e-05	9.9607e-05	1318.2	4.3101e-07	3.2111e-06	1382.6	275.71	1.2038e-06	2.4366e-06	339.24	94.597	75.046	21.706	1.246e-06	30.452	0.00020907	0.00019432	5.7343e-05	1192.3	2.2874e-06	2.1389e-06	1258.4	254.14	2.3406e-06	2.1637e-06	303.79	87.372	68.772	20.459	2.4794e-06	28.491	44.523	173.328	84.562	-64.923	125.467	-25.389	-64.720	-57.715	53.787	49.880	-58.328	-51.555	-51.310	-44.836	28.281	-45.258	-8191	255	
1197.521	1	1	0	0	0.11938	0.071788	0.16504	0.11787	0.098865	0.12407	0.030343	0.11673	0.071895	0.027934	0.068684	0.17906	0.1097	0.17315	0.17183	0.17828	-3.3771	-4.4812	-3.8937	-4.4208	-4.3167	-3.9104	-4.2354	-4.2063	-3.7833	-4.4292	-4.0938	-4.3229	-4.5229	-3.9521	-4.2188	-4.1708	131.618	185.739	-3.427	275.557	199.993	-1.675	191.832	232.169	0.228	242.611	40.184	-60.560	280.787	269.408	63.877	32.709	0.00024394	0.00028446	3.763e-05	1315	6.9288e-07	2.5554e-06	1392.9	275.8	3.0544e-06	2.1893e-06	340.65	95.101	75.821	21.729	2.443e-06	30.363	0.00021486	0.00020143	6.3798e-05	1194.8	2.3502e-06	2.2217e-06	1268.3	254.48	2.3711e-06	2.2673e-06	307.26	87.66	68.937	20.679	2.6477e-06	28.538	-74.748	-23.283	29.354	-64.971	27.146	142.057	-64.585	-57.892	55.037	172.429	-58.093	-51.460	-51.248	-45.068	233.305	-45.020	-8191	255	
1197.640	1	1	0	0	0.046246	0.14616	0.14321	0.15555	0.19517	0.087611	0.13978	0.049419	0.24453	0.071199	0.070317	0.069131	0.14297	0.16203	0.098776	0.049749	-3.5479	-4.4688	-4.0188	-3.9458	-4.5042	-3.9625	-4.5021	-4.3729	-3.775	-4.2521	-4.0604	-4.0312	-4.5042	-3.8667	-4.3292	-4.3896	198.739	-42.224	9.702	246.675	-67.142	6.849	124.381	45.244	270.777	203.251	201.644	135.563	-54.897	-18.313	83.293	145.553	0.00024466	0.00024175	0.00013155	1323.8	2.9462e-06	6.8984e-06	1387.6	276.34	3.3042e-06	2.83e-06	341.61	94.894	75.388	21.707	4.8012e-06	30.511	0.00021408	0.00021476	6.7249e-05	1196.8	2.3369e-06	2.3689e-06	1271.7	254.84	2.3254e-06	2.4094e-06	308.09	87.411	68.571	20.948	2.6531e-06	28.365	107.700	172.535	-11.742	-64.896	-1.826	230.613	-64.891	-57.833	-48.490	159.677	-58.192	-51.342	-51.191	-44.893	25.643	-45.483	-8191	255	
1197.736	1	1	0	0	0.16165	0.066585	0.20354	0.11147	0.079369	0.092432	0.16698	0.084379	0.37108	0.23552	0.096594	0.087507	0.22612	0.18757	0.06766	0.21461	-3.5479	-4.2354	-3.8271	-4.2667	-4.3167	-4.0417	-4.3146	-4.3375	-3.9042	-4.3854	-4.0833	-4.0396	-4.2771	-3.9458	-4.2562	-4.2854	194.226	15.673	276.591	-69.711	-50.332	-39.510	239.072	177.192	130.990	159.680	198.776	-17.269	274.019	250.416	94.750	-30.581	2.793e-05	0.00035402	9.9162e-05	1319.1	2.8176e-06	2.0689e-06	1394.6	276.57	4.2354e-06	6.9032e-06	341.97	94.531	75.925	21.884	4.6343e-06	30.401	0.00021069	0.00022781	6.6887e-05	1194.9	2.3085e-06	2.5411e-06	1274.9	254.69	2.3356e-06	2.6177e-06	308.87	87.631	69.259	21.357	2.6502e-06	28.453	-6.934	94.165	-48.006	-64.838	-32.382	73.943	-64.742	-57.889	40.023	168.398	-58.054	-51.399	-51.688	-45.251	103.508	-45.295	-8191	255	
1197.833	1	1	0	0	0.16941	0.059912	0.1617	0.23497	0.2996	0.075034	0.27595	0.14234	0.11626	0.2461	0.077895	0.16629	0.066794	0.13736	0.18813	0.14495	-3.3917	-4.2375	-4.2604	-4.0667	-4.3208	-3.9104	-4.2896	-4.5	-3.9479	-4.2688	-4.0563	-3.8708	-4.5333	-4.1375	-4.0167	-4.3333	149.658	186.056	24.351	259.693	-68.385	-67.371	231.493	-17.893	144.070	-73.072	-60.479	149.352	-7.835	-46.303	108.558	80.146	0.00029331	0.00042183	0.00022381	1322.8	1.2142e-06	5.142e-06	1395.2	277.4	2.6816e-06	3.382e-06	342.7	95.194	75.334	21.932	6.2501e-06	30.252	0.00021464	0.00024589	6.6004e-05	1197.8	2.3228e-06	2.634e-06	1272.7	254.15	2.3017e-06	2.6474e-06	307.07	86.986	69.041	21.372	2.503e-06	28.199	283.005	-36.667	-65.693	-65.061	162.645	31.865	-64.752	-57.918	204.038	93.940	-57.917	-51.302	-51.096	-44.764	-28.981	-45.113	-8191	255	
1197.929	1	1	0	0	0.23885	0.19351	0.27027	0.24582	0.10448	0.1629	0.12457	0.17835	0.10941	0.16171	0.029224	0.22755	0.19316	0.15533	0.18197	0.22194	-3.5438	-4.1271	-4.1521	-4.1292	-4.4521	-3.9958	-4.2917	-4.4917	-3.8333	-4.05	-4.4229	-4.1167	-4.5125	-4.3479	-4.0583	-4.5458	184.628	229.296	123.152	-46.217	249.971	132.163	169.496	237.396	182.378	-40.448	147.704	-40.724	259.998	110.448	207.898	-17.883	0.00018892	0.00029349	0.00011505	1331.5	4.4303e-06	3.599e-06	1411.8	277.79	2.6424e-06	1.2542e-06	342.82	95.424	75.638	21.98	1.3329e-06	30.292	0.00021943	0.00024837	6.3466e-05	1201.3	2.4467e-06	2.7029e-06	1276.9	254.64	2.4721e-06	2.6722e-06	306.53	86.975	69.887	21.309	2.4151e-06	27.959	269.663	244.580	260.165	-64.793	124.770	96.928	-64.792	-57.831	171.404	174.555	-58.068	-51.560	-51.022	-44.829	-56.237	-45.102	-8191	255	
1198.025	1	1	0	0	0.086018	0.12198	0.20274	0.17139	0.033242	0.069045	0.12098	0.27701	0.20844	0.035014	0.22512	0.31695	0.13028	0.11951	0.094217	0.14766	-3.6188	-4.1958	-4.2208	-4.0479	-4.0229	-4.1917	-4.1083	-4.6542	-4.0375	-4.1875	-4.2188	-3.6688	-4.3438	-4.2604	-4.1312	-4.3958	189.958	179.976	122.682	131.643	114.961	-47.794	253.909	234.255	-36.793	89.491	229.963	113.029	50.248	83.830	12.285	181.018	0.0003162	0.00064443	6.5313e-05	1317.8	4.8703e-06	1.4903e-06	1396.8	276.46	1.4103e-06	2.8108e-06	344.31	94.695	75.409	21.884	2.3816e-06	30.17	0.00023017	0.00024454	6.2125e-05	1191.2	2.5973e-06	2.648e-06	1269	253.13	2.6367e-06	2.6446e-06	305.3	86.519	70.304	21.12	2.3552e-06	27.812	-74.918	-58.831	-49.554	-64.885	112.662	-25.922	-64.725	-57.666	199.634	-51.443	-58.296	-51.698	-51.268	-45.234	80.321	-44.831	-8191	255	
1198.121	1	1	0	0	0.1426	0.23855	0.12595	0.1815	0.048621	0.10516	0.23192	0.12572	0.3209	0.18246	0.15292	0.19994	0.078047	0.087074	0.11603	0.06487	-3.4333	-4.1062	-4.1521	-3.775	-4.1813	-4.0021	-4.075	-4.5062	-3.9271	-4.0583	-4.3208	-3.8937	-4.1146	-4.0396	-3.9208	-4.4292	28.996	244.211	92.784	-68.495	-14.340	27.687	232.678	140.866	93.112	25.610	3.991	221.075	231.886	7.479	87.261	-66.429	0.00023926	0.00043609	0.00018788	1310.8	6.6144e-06	3.2035e-06	1385.3	273.71	2.1161e-06	6.099e-06	339.19	94.633	74.743	21.736	2.7702e-06	30.344	0.00023703	0.00022873	5.9133e-05	1181.6	2.6211e-06	2.4968e-06	1254	252.06	2.6468e-06	2.5054e-06	302.14	86.794	70.528	20.991	2.3702e-06	28.321	188.532	243.725	-18.666	-64.876	115.396	55.850	-64.500	-57.732	67.867	-4.085	-58.255	-51.625	-51.406	-44.858	-19.383	-45.466	-8191	255	
1198.242	1	1	0	0	0.14952	0.19247	0.31153	0.091206	0.016617	0.20329	0.10973	0.091988	0.083405	0.33021	0.099863	0.026495	0.23242	0.12853	0.23456	0.29644	-3.5625	-4.1167	-4.4917	-4.2708	-4.1708	-4.3208	-4.0875	-4.5125	-3.8896	-3.8729	-4.375	-3.9625	-4.3	-4.1708	-4.025	-4.2854	-73.900	122.266	50.852	232.118	130.433	283.199	222.893	31.590	-59.650	66.961	260.547	127.880	281.308	-60.740	21.409	237.280	0.00012465	0.000399	8.4461e-05	1319.8	4.2071e-06	3.1822e-06	1397.2	276.75	2.946e-06	5.2211e-07	343.9	95.157	76.642	21.835	1.3237e-06	30.393	0.000253	0.00023673	6.0679e-05	1196.5	2.8734e-06	2.6607e-06	1267.1	257.32	2.9836e-06	2.7891e-06	308.7	90.159	73.48	21.891	2.8375e-06	30.196	185.224	274.600	250.941	-64.882	280.939	-9.120	-64.844	-57.905	-9.093	53.703	-57.938	-51.509	-51.244	-45.029	79.279	-45.312	-8191	255	
1198.336	1	1	0	0	0.13666	0.056516	0.10166	0.18206	0.14233	0.18266	0.36198	0.047552	0.049792	0.054787	0.22099	0.058672	0.11025	0.097748	0.087093	0.029049	-3.7604	-3.7812	-4.2979	-4	-4.0813	-4.2562	-4.1438	-4.3708	-4.1813	-4.0062	-4.375	-4.0583	-4.0417	-4.2875	-3.8271	-4.1333	216.176	-66.535	70.467	235.772	234.999	181.582	171.748	72.316	58.980	-56.687	282.074	138.864	-66.155	13.108	72.637	168.543	0.00017889	0.00045322	6.6214e-05	1330.5	6.646e-06	8.7714e-06	1403.2	280.41	2.7047e-06	3.0524e-06	345.17	95.594	75.985	22.048	2.0526e-06	30.167	0.00031275	0.00029762	7.7754e-05	1235	3.5856e-06	3.3066e-06	1292.4	267.57	3.5076e-06	3.2069e-06	315.62	93.06	74.642	22.131	2.9474e-06	30.516	218.808	-72.444	225.164	-64.922	46.487	-6.548	-64.744	-57.896	-3.896	39.791	-58.266	-51.559	-51.505	-45.186	100.744	-45.373	-8191	255	
1198.410	1	1	0	0	0.27432	0.17611	0.22817	0.076994	0.087453	0.10293	0.29122	0.19726	0.084079	0.098501	0.10028	0.10298	0.31234	0.086204	0.015575	0.19961	-3.9521	-3.8458	-4.2667	-4.2333	-3.9833	-4.4146	-4.0687	-4.4354	-4.2875	-3.8104	-4.475	-4.0021	-3.9667	-4.4437	-4.075	-4.4812	85.832	-60.215	27.523	282.154	251.292	250.813	243.145	-56.205	249.624	87.271	-6.476	-21.625	116.243	65.858	245.669	240.558	0.0001825	0.00012401	0.00010782	1323.6	2.6337e-06	2.5672e-06	1397.8	276.21	8.1412e-07	3.404e-06	341.42	95.054	75.43	21.727	4.3201e-06	30.1	0.00029923	0.00027702	7.4332e-05	1227.7	3.1383e-06	2.8775e-06	1282.6	262.81	2.9656e-06	2.6949e-06	309.32	90.036	70.937	21.026	2.6043e-06	29.149	199.387	-56.535	49.938	-64.724	29.740	136.304	-64.771	-57.795	-71.738	-30.857	-58.131	-51.661	-51.283	-45.095	131.987	-44.891	-8191	255	
1198.528	1	1	0	0	0.10968	0.025391	0.28612	0.26626	0.14817	0.1448	0.16067	0.18024	0.088958	0.3603	0.20552	0.10534	0.19489	0.18557	0.23221	0.062694	-4.0021	-3.8646	-4.1813	-4.0333	-3.9646	-4.4854	-4.0521	-4.2854	-4.4042	-3.8458	-4.2375	-4.0979	-3.9979	-4.3625	-3.6875	-4.0146	260.670	119.552	217.335	212.665	61.412	128.647	216.774	264.570	-21.190	190.126	-64.907	-60.644	273.923	155.494	231.279	-7.977	6.5069e-05	0.0002829	8.5097e-05	1318.3	3.3484e-06	1.6861e-06	1388.1	273.76	6.0071e-07	1.7249e-06	338.5	94.284	74.618	21.643	9.7471e-07	30.201	0.00024163	0.00022401	6.5539e-05	1202	2.6324e-06	2.414e-06	1265.4	255.6	2.5648e-06	2.3458e-06	305.04	88.003	69.247	20.588	2.5834e-06	28.619	249.055	249.397	20.883	-64.903	-50.043	45.433	-64.749	-57.636	-69.910	266.304	-58.047	-51.578	-50.961	-44.794	214.405	-45.087	-8191	255	
1198.625	1	1	0	0	0.21023	0.23718	0.19938	0.13631	0.2718	0.17086	0.18845	0.28952	0.21431	0.22715	0.18836	0.14426	0.1292	0.24009	0.11456	0.25899	-3.9417	-3.8583	-4.3021	-4.2521	-4	-4.2688	-4.2042	-4.2396	-4.4396	-3.9396	-4.3646	-4.4375	-3.9375	-4.3375	-4.0896	-4.1813	206.619	129.738	142.638	219.656	254.826	155.334	188.691	269.979	-52.035	33.919	228.366	171.412	22.104	187.687	119.873	-4.230	0.00015373	0.00020385	4.7108e-05	1310.7	2.631e-06	2.1594e-06	1383.4	273.63	2.8556e-06	1.2304e-06	338.23	93.646	74.708	21.45	2.6453e-06	29.941	0.00022544	0.0002102	6.5883e-05	1190.3	2.424e-06	2.2635e-06	1262.8	252.8	2.3684e-06	2.2422e-06	303.86	86.62	68.161	20.402	2.5371e-06	28.09	269.690	268.658	79.019	-64.878	180.806	17.247	-64.632	-57.842	70.973	-4.242	-58.322	-51.544	-51.117	-44.945	90.023	-44.914	-8191	255	
1198.721	1	1	0	0	0.13974	0.12456	0.15901	0.11361	0.18186	0.12881	0.11129	0.23401	0.16886	0.12232	0.079963	0.017522	0.15358	0.11842	0.14344	0.16397	-4.1562	-3.6979	-4.2417	-4.3313	-3.8292	-4.4958	-4.2667	-4.0979	-4.3063	-3.8187	-4.0563	-4.2646	-3.9792	-4.4229	-4.1125	-4.0979	-30.190	-27.283	88.196	202.769	119.917	172.821	192.892	281.365	48.945	56.548	5.820	8.830	275.310	191.716	58.202	-50.216	0.000115	0.00064122	0.00015753	1308.2	1.5598e-06	7.7114e-07	1378.7	273.1	1.2117e-07	2.0821e-06	336.97	93.625	74.702	21.279	2.6762e-06	29.8	0.00020637	0.00020399	6.3726e-05	1180.3	2.2161e-06	2.2322e-06	1256.8	250.8	2.1731e-06	2.2417e-06	302.69	85.567	67.078	20.315	2.3721e-06	27.52	214.108	81.181	283.445	-64.957	-68.512	152.328	-64.668	-57.718	263.561	125.129	-58.165	-51.498	-51.050	-44.829	25.983	-45.835	-8191	255	
1198.817	1	1	0	0	0.055934	0.051229	0.17172	0.084677	0.25951	0.24618	0.17234	0.18228	0.053336	0.063867	0.082426	0.10608	0.14865	0.12642	0.13593	0.18081	-4.0625	-4.0708	-4.3187	-4.2396	-3.8771	-4.3708	-4.2396	-4.075	-4.3542	-3.9562	-4.2312	-4.3063	-3.9458	-4.2583	-4.1438	-3.9875	279.970	201.310	-8.593	77.804	-35.564	161.123	229.322	267.329	-73.450	138.764	270.721	-49.631	-72.461	280.853	7.327	259.330	0.00016934	0.00031255	0.0001162	1303.1	1.0832e-06	3.9034e-06	1370.5	270.31	1.1733e-06	1.1123e-06	334.65	92.975	73.325	21.382	1.6417e-06	29.832	0.00018645	0.00019918	5.872e-05	1169	1.9901e-06	2.176e-06	1243.8	246.25	1.9684e-06	2.1749e-06	297.3	84.075	65.825	20.229	2.2061e-06	27.209	223.237	106.974	-69.927	-64.946	-41.728	137.851	-64.577	-57.788	210.887	73.065	-58.202	-51.256	-51.007	-44.556	-26.570	-45.175	-8191	255	
1198.937	1	1	0	0	0.12078	0.10069	0.023396	0.24045	0.21039	0.080255	0.10522	0.20388	0.25086	0.18868	0.29212	0.2006	0.024715	0.12707	0.084018	0.14575	-3.95	-3.6562	-3.8396	-4.4187	-3.8833	-4.4021	-4.2979	-3.9042	-4.5062	-4.1271	-4.2646	-4.5167	-4.0208	-4.4271	-4.2896	-3.9333	244.987	217.390	152.707	228.525	247.822	185.677	219.251	183.734	63.330	265.253	250.144	186.253	200.957	241.570	14.293	-49.375	0.00011667	8.8205e-06	9.9692e-05	1300.1	2.3254e-06	1.8523e-06	1369.6	270.33	3.8223e-06	8.3613e-07	336.23	92.95	73.595	21.342	3.1172e-06	29.851	0.00017872	0.00020451	5.5511e-05	1163.7	1.9564e-06	2.2286e-06	1238.4	245.28	1.9589e-06	2.2204e-06	295.63	83.495	65.93	20.225	2.0687e-06	26.862	264.330	50.969	252.807	-64.740	151.616	234.139	-64.658	-58.268	253.253	-4.781	-58.127	-51.322	-50.840	-44.666	-40.880	-45.054	-8191	255	
1199.034	1	1	0	0	0.12165	0.38343	0.14451	0.19611	0.13397	0.044976	0.14921	0.069678	0.096598	0.13555	0.12188	0.2887	0.16363	0.11978	0.2551	0.051677	-4.1813	-4.1271	-4.2542	-4.5333	-3.9958	-4.2208	-4.4437	-3.9458	-4.3354	-4.0208	-3.9708	-4.3604	-3.8875	-4.1021	-4.475	-4.0354	23.270	98.990	21.562	237.141	73.885	16.665	237.870	102.938	186.951	210.788	252.669	236.403	165.606	-54.232	18.142	-54.196	0.00025527	0.00024462	6.8729e-05	1293.5	9.3717e-07	2.9413e-06	1371	270.03	9.8328e-07	1.9947e-06	334.66	92.334	73.608	21.319	2.3456e-06	29.787	0.00017956	0.00020312	5.2379e-05	1158.8	2.0047e-06	2.2241e-06	1236	244.27	2.0484e-06	2.2102e-06	294.41	83.206	66.32	20.155	2.0084e-06	26.726	278.579	-29.200	10.160	-64.838	38.582	10.060	-64.794	-57.634	85.450	19.459	-57.989	-51.630	-50.593	-44.833	-40.410	-44.969	-8191	255	
1199.105	1	1	0	0	0.11884	0.10194	0.27319	0.026458	0.22821	0.0903	0.10575	0.3042	0.12945	0.15573	0.078936	0.12327	0.19161	0.18167	0.12507	0.31671	-4.1458	-4.0729	-3.8646	-4.55	-4.1062	-4.2896	-4.4583	-3.9604	-4.2604	-4.0646	-4.0417	-4.5229	-3.9542	-4.1937	-4.1854	-3.9646	-64.534	-5.010	197.813	99.848	276.499	214.226	222.883	249.262	89.644	182.384	193.936	169.753	232.425	283.471	-34.290	232.921	0.0001614	0.00027318	4.8816e-05	1293.8	1.6607e-06	4.1398e-06	1367.5	268.99	4.1592e-06	6.4256e-06	333.87	92.126	74.109	21.162	1.7886e-06	29.595	0.00018944	0.00019889	5.0912e-05	1155.9	2.0774e-06	2.1365e-06	1230.3	242.99	2.1245e-06	2.1006e-06	292.94	82.694	66.659	19.947	1.926e-06	26.664	258.849	270.423	-74.420	-64.943	244.777	28.441	-64.756	-57.745	208.316	-51.907	-58.008	-50.983	-51.146	-44.295	18.446	-44.893	-8191	255	
1199.201	1	1	0	0	0.11409	0.25981	0.025619	0.13883	0.025158	0.23315	0.2855	0.11731	0.091351	0.14016	0.17155	0.20664	0.23553	0.10321	0.094621	0.1058	-3.7646	-4.1562	-3.6479	-4.5563	-4.1229	-4.2	-4.7604	-3.9354	-4.1646	-4.1625	-3.7687	-4.3417	-4.0354	-4.0354	-4.3688	-4.0458	199.633	75.958	253.183	210.127	-43.100	156.369	193.590	-3.438	-59.308	84.529	224.826	-37.960	-35.295	281.678	-22.563	-16.935	0.00014744	0.00045701	9.5142e-05	1287.7	6.8635e-07	1.8672e-06	1366.9	268.96	2.3881e-06	1.9003e-06	333.65	92.092	73.409	21.304	1.4284e-06	29.626	0.00019571	0.00018892	4.8974e-05	1153.3	2.1668e-06	2.0873e-06	1227.7	243.4	2.2042e-06	2.055e-06	292.3	83.254	66.958	19.905	1.9274e-06	26.901	227.789	-49.819	-7.119	-64.843	-26.863	184.668	-64.477	-58.045	114.122	-50.688	-57.758	-51.415	-51.105	-44.615	-24.488	-44.989	-8191	255	
1199.320	1	1	0	0	0.11469	0.16733	0.16836	0.31371	0.075057	0.24868	0.37841	0.25204	0.016928	0.09005	0.074446	0.19766	0.20952	0.11758	0.2647	0.22885	-3.925	-4.2896	-3.8708	-4.3833	-4.1396	-4.0354	-4.375	-3.9896	-4.0167	-4.3938	-4.1479	-4.4208	-4.2333	-4.0604	-4.4792	-3.9688	128.883	31.049	19.203	248.575	40.072	10.016	217.279	82.990	113.345	18.806	186.306	270.946	249.777	257.785	140.259	80.450	0.00020362	0.00011101	0.00010953	1290.9	3.2204e-06	1.7708e-06	1363.8	268.43	1.6881e-06	2.0545e-06	334.18	92.033	72.736	21.184	3.0903e-06	29.595	0.00020445	0.00018928	4.9031e-05	1157.6	2.2306e-06	2.0716e-06	1224.9	244.34	2.2314e-06	2.0595e-06	291.63	83.807	66.7	19.806	1.8843e-06	27.003	256.953	13.939	284.304	-64.618	2.789	-36.704	-64.641	-57.584	35.743	-11.391	-58.211	-51.292	-51.277	-44.765	-30.145	-45.254	-8191	255	
1199.416	1	1	0	0	0.023483	0.13911	0.29433	0.35394	0.14033	0.045831	0.1857	0.13886	0.035323	0.058032	0.19028	0.060341	0.3134	0.12776	0.10611	0.05113	-3.9167	-4.1958	-4	-4.6396	-4.2458	-4.0312	-4.4833	-3.975	-4.1646	-4.2542	-3.9625	-4.3187	-4.1917	-3.9083	-4.3562	-4.0062	188.674	214.220	208.006	220.277	-42.563	73.178	220.902	120.442	-73.416	238.052	264.797	227.089	240.455	232.810	266.853	36.351	5.4696e-05	0.00025755	8.5256e-05	1282.8	1.4735e-06	2.6655e-06	1355.1	266.1	4.5658e-07	3.526e-06	329.97	90.861	72.55	20.951	1.6378e-06	29.325	0.00020033	0.00018394	4.7383e-05	1153.6	2.1756e-06	2.0187e-06	1216.1	243.33	2.1969e-06	2.051e-06	289.33	83.974	66.396	19.709	1.9855e-06	27.299	225.602	258.113	-47.944	-64.695	-72.546	230.447	-64.724	-57.572	-68.551	19.199	-57.834	-51.118	-51.213	-44.422	249.041	-44.951	-8191	255	
1199.514	1	1	0	0	0.10479	0.14802	0.060189	0.16148	0.06469	0.062921	0.23077	0.035979	0.020106	0.19088	0.067034	0.1938	0.12341	0.049188	0.16078	0.11964	-3.6896	-4.15	-3.7812	-4.2542	-4.3146	-4.0875	-4.6021	-4.175	-4.0125	-4.2792	-3.9208	-4.2354	-4.3104	-3.9458	-4.3375	-4.2188	7.104	239.334	-32.313	280.844	249.688	200.716	247.271	179.691	210.953	120.951	112.781	247.984	-73.014	124.226	168.706	205.179	7.5694e-05	0.00036317	5.7958e-05	1282.9	4.8704e-06	9.053e-07	1360.1	266.51	2.6149e-06	2.2536e-07	331.22	91.922	72.154	20.883	2.4515e-07	29.274	0.0002061	0.0001906	5.1586e-05	1160.6	2.2182e-06	2.0466e-06	1223.5	244.36	2.1566e-06	2.0019e-06	290.45	84.082	65.528	19.48	2.0248e-06	27.058	150.996	264.300	92.149	-64.797	-36.486	194.733	-64.798	-57.573	-34.741	254.355	-58.037	-51.328	-51.181	-44.426	155.786	-45.214	-8191	255	
1199.633	1	1	0	0	0.22212	0.072163	0.2608	0.17726	0.22121	0.077819	0.1961	0.037315	0.18432	0.10561	0.030474	0.094177	0.22481	0.064462	0.14045	0.14895	-3.6333	-4.3313	-3.9229	-4.1729	-4.2458	-3.9333	-4.4688	-4.1917	-4.0208	-4.5833	-3.8417	-4.2688	-4.275	-3.8667	-4.2604	-4.1438	269.003	283.400	260.141	281.366	127.548	47.681	279.732	81.526	149.538	94.448	26.455	197.913	253.769	254.011	-15.030	227.046	9.2374e-05	0.00036672	0.00010431	1278.5	1.6325e-06	8.0144e-07	1348.1	264.84	2.9757e-06	7.4927e-07	328.58	90.919	71.997	20.863	3.3025e-06	29.145	0.00019003	0.0001747	5.1218e-05	1153.8	2.03e-06	1.8605e-06	1217.9	241.69	1.9766e-06	1.8228e-06	289.12	82.725	64.608	19.148	1.9987e-06	26.551	220.874	250.448	33.539	-64.821	124.756	189.316	-64.680	-57.461	38.150	270.956	-58.038	-51.354	-50.898	-44.750	60.861	-45.181	-8191	255	
1199.705	1	1	0	0	0.044828	0.099662	0.12783	0.22245	0.10959	0.28784	0.069599	0.21259	0.15645	0.11598	0.22722	0.22941	0.25489	0.07898	0.12486	0.072393	-3.6708	-4.2021	-3.8688	-4.0979	-4.2708	-3.9167	-4.4333	-4.2063	-3.7667	-4.3438	-4.0771	-4.0687	-4.3438	-3.8604	-4.375	-4.1375	-29.707	2.166	261.424	253.450	-28.795	69.459	-16.235	-13.789	250.336	-68.648	260.232	233.901	261.463	122.959	151.645	-6.352	0.0001028	0.00016295	1.25e-05	1275.3	4.2203e-06	2.76e-06	1350.9	264.23	2.4249e-06	3.7357e-06	328.12	90.76	72.227	20.997	4.1159e-06	29.15	0.00017514	0.00016235	5.1032e-05	1146.7	1.8996e-06	1.8209e-06	1219.7	240.74	1.9485e-06	1.8648e-06	291.04	82.728	64.776	19.387	2.2149e-06	26.766	235.805	39.545	119.470	-64.930	274.036	131.166	-64.648	-57.669	5.205	172.111	-57.911	-51.089	-51.226	-44.637	277.538	-44.296	-8191	255	
1199.801	1	1	0	0	0.090088	0.25609	0.078347	0.17746	0.08825	0.16002	0.15676	0.10869	0.12405	0.18026	0.082145	0.1299	0.16924	0.13344	0.18938	0.13591	-3.5104	-4.3604	-4.0521	-3.8667	-4.1479	-3.7292	-4.2146	-4.2646	-3.8125	-4.4146	-4.2063	-4.2063	-4.4125	-3.8771	-4.0729	-4.2188	164.717	-70.918	198.729	196.189	89.449	57.162	-66.097	238.014	147.982	253.228	12.261	180.569	279.018	148.504	210.856	266.555	0.00011648	4.6855e-05	2.1747e-05	1283.3	2.6426e-06	5.5201e-06	1354	264.01	2.6935e-06	3.6754e-06	330.89	91.532	72.901	20.918	2.527e-06	29.206	0.0001845	0.00018301	5.8091e-05	1153.5	2.0801e-06	2.1027e-06	1231.4	243.11	2.1077e-06	2.1644e-06	295.6	83.862	65.832	19.877	2.4174e-06	27.132	-65.192	-17.440	114.557	-64.870	-16.298	188.002	-64.547	-57.662	-5.648	231.831	-57.729	-51.483	-51.151	-44.689	-37.077	-45.265	-8191	255	
1199.922	1	1	0	0	0.038209	0.15132	0.065105	0.30032	0.10603	0.045945	0.26708	0.33285	0.14849	0.16174	0.17444	0.36611	0.113	0.077172	0.098139	0.29028	-3.4792	-4.3333	-4	-3.9521	-4.4625	-3.9375	-4.3271	-4.4021	-3.8229	-4.5021	-4.2417	-3.9104	-4.4313	-3.9042	-3.9917	-4.3083	253.677	89.515	18.894	228.391	18.215	-27.998	206.840	7.103	-66.908	166.392	272.336	12.660	120.364	183.500	-68.285	-10.466	0.00013665	0.00022529	2.1285e-05	1290.9	3.7767e-06	3.5819e-06	1364.9	268.45	3.9636e-06	1.2654e-06	332.64	92.957	73.179	20.94	2.1418e-06	29.474	0.0001936	0.00020839	6.2424e-05	1165.8	2.1906e-06	2.4251e-06	1245.6	246.98	2.2742e-06	2.5476e-06	300.42	85.54	67.311	20.606	2.6096e-06	27.605	-10.238	24.352	175.654	-64.697	11.264	164.597	-64.648	-57.708	-22.249	219.715	-57.888	-51.252	-50.985	-44.887	74.233	-45.100	-8191	255	
1200.018	1	1	0	0	0.1695	0.22767	0.22625	0.30418	0.18325	0.11516	0.23763	0.16387	0.16791	0.11505	0.099984	0.17931	0.17741	0.1657	0.16684	0.17421	-3.5958	-4.2937	-4.2875	-3.9271	-4.2083	-3.9146	-4.1604	-4.4125	-3.8458	-4.3562	-4.3292	-4.1	-4.3604	-4.225	-4.1229	-4.375	129.033	-64.212	176.332	214.750	146.090	182.342	213.331	273.102	49.797	88.404	210.876	50.563	240.132	150.307	-23.861	231.166	0.0002201	0.00045827	0.00015955	1292.5	2.7676e-06	2.0975e-06	1363.2	268.29	3.2096e-06	4.3979e-06	332.37	92.159	73.155	21.166	4.2288e-06	29.546	0.00021061	0.00023889	6.444e-05	1169.3	2.2596e-06	2.5554e-06	1243	245.58	2.2114e-06	2.5127e-06	296.9	84.26	66.544	20.417	2.3474e-06	27.115	261.999	61.052	-31.952	-64.766	15.542	51.416	-64.774	-57.805	115.275	25.558	-57.937	-51.292	-50.666	-44.989	-44.715	-45.218	-8191	255	
1200.114	1	1	0	0	0.076257	0.18449	0.31376	0.16271	0.24047	0.068342	0.10652	0.18112	0.18927	0.075796	0.16825	0.1361	0.17473	0.3843	0.13798	0.24227	-3.7042	-4.2458	-4.0125	-4.0521	-4.2479	-3.9333	-4.1292	-4.4229	-3.9688	-4.0625	-4.3354	-3.8104	-4.1875	-3.9437	-3.9042	-4.4062	199.253	-68.312	109.798	266.067	81.754	-36.299	-45.162	193.289	260.610	191.739	219.618	-0.536	19.550	13.074	257.184	-75.627	0.00031861	7.229e-05	0.00010464	1293.9	3.2499e-06	2.5817e-06	1368	266.92	5.6184e-06	1.4034e-06	330.7	92.292	73.075	20.897	2.4661e-07	29.24	0.00020408	0.00023097	5.8796e-05	1163.2	2.26e-06	2.5057e-06	1239.5	244.35	2.2875e-06	2.5097e-06	295.62	83.758	67.211	20.371	2.2973e-06	26.824	272.357	29.432	267.987	-64.813	159.936	215.128	-64.671	-57.693	204.747	-62.578	-58.063	-51.405	-51.026	-44.790	2.407	-44.976	-8191	255	
1200.235	1	1	0	0	0.20262	0.21204	0.18856	0.15326	0.14818	0.08831	0.23251	0.26875	0.14014	0.21343	0.21617	0.24256	0.26471	0.2044	0.088239	0.097348	-3.5979	-4.3104	-4.25	-4.075	-4.2292	-3.9708	-3.9	-4.4521	-3.8396	-4.1667	-4.5188	-3.9479	-4.4458	-4.1729	-4.0229	-4.5792	260.106	-35.434	193.933	222.011	-46.915	179.902	182.403	-74.997	200.266	124.115	200.466	215.574	-12.738	-17.349	175.628	-43.792	0.00022876	0.00010411	8.5372e-05	1290.3	3.4293e-06	5.8087e-06	1362.9	266.89	5.4792e-06	3.5687e-06	331.83	92.319	73.697	20.981	3.918e-06	28.993	0.00021347	0.00022535	5.7472e-05	1160.5	2.3859e-06	2.4366e-06	1235.9	244	2.3851e-06	2.4087e-06	294.52	83.586	67.454	20.107	2.1839e-06	26.733	-66.846	62.548	259.753	-64.871	122.577	-49.487	-64.660	-57.570	203.989	-17.474	-58.245	-51.587	-51.344	-44.864	-26.450	-44.836	-8191	255	
1200.305	1	1	0	0	0.12492	0.23521	0.13409	0.38294	0.28249	0.20565	0.23765	0.074631	0.16929	0.21632	0.075626	0.1967	0.29952	0.19217	0.080041	0.20941	-3.6312	-4.0604	-4.3917	-4.1729	-4.3625	-4.1292	-4.1958	-4.5354	-3.9354	-4.15	-4.4437	-3.8563	-4.3292	-4.325	-3.8688	-4.5021	-74.281	194.693	4.172	271.548	-53.454	110.280	205.987	-14.111	99.724	1.308	246.707	120.359	-63.644	66.273	-32.804	279.778	0.00019444	0.00030921	6.5723e-05	1295.7	3.8767e-06	4.0608e-06	1368	267.74	2.1058e-06	3.4567e-06	332.48	91.883	72.785	20.749	2.0506e-06	29.163	0.00021851	0.00021283	5.5123e-05	1162.2	2.4372e-06	2.3265e-06	1234	244.01	2.4342e-06	2.3009e-06	292.96	83.526	67.481	19.903	2.0898e-06	26.832	-75.906	256.379	267.368	-64.864	-63.694	-67.307	-64.627	-57.966	214.424	65.226	-58.266	-51.492	-50.990	-44.145	118.619	-45.251	-8191	255	
1200.401	1	1	0	0	0.10199	0.031381	0.087516	0.42336	0.21395	0.2186	0.31846	0.10679	0.10279	0.099279	0.039214	0.17205	0.069545	0.10063	0.22225	0.39582	-3.8104	-4.0312	-4.3313	-4.0958	-4.1729	-4.2646	-4.0625	-4.4271	-4.1042	-3.9479	-4.4917	-3.8917	-3.9562	-4.0917	-3.4813	-4.2375	61.018	201.032	274.237	-67.565	259.632	144.121	195.484	179.141	23.276	21.296	110.447	-28.274	102.231	268.310	240.703	228.629	0.00018728	0.00029586	9.9148e-05	1289.2	2.4869e-06	4.2359e-06	1364	267.06	1.0763e-06	2.2769e-06	331.27	92.022	73.155	20.843	1.3201e-06	28.883	0.00022067	0.00020515	5.2788e-05	1162.2	2.4175e-06	2.2154e-06	1229.5	244.46	2.3848e-06	2.1868e-06	291.19	83.66	66.836	19.623	1.9412e-06	26.709	275.645	25.402	-20.845	-65.037	-29.861	10.434	-64.771	-57.681	29.939	267.799	-57.938	-51.300	-51.430	-44.557	30.052	-45.008	-8191	255	
1200.497	1	1	0	0	0.16436	0.11764	0.12412	0.24643	0.26415	0.23842	0.1648	0.12669	0.10636	0.19947	0.073652	0.078641	0.11789	0.046112	0.13515	0.06796	-3.6417	-3.6833	-4.125	-4.0687	-4.0854	-4.2396	-4.0042	-4.3688	-4.1417	-3.9354	-4.4417	-4.0458	-4.1917	-4.3479	-4.0146	-4.3125	78.429	203.936	93.066	216.296	14.253	154.600	132.241	198.468	184.411	141.260	238.878	-42.106	162.392	57.608	111.275	-20.389	0.00018003	0.00044352	5.7661e-05	1278.9	4.8126e-06	1.5916e-06	1352.8	264.77	1.9866e-06	4.2608e-06	328.29	90.399	72.338	20.593	4.1665e-06	28.758	0.00020365	0.00018613	4.7526e-05	1153.7	2.163e-06	1.9866e-06	1215.4	241.87	2.1122e-06	1.9356e-06	286.04	82.538	65.01	19.076	1.7697e-06	26.365	250.660	-43.428	-51.729	-64.829	74.699	284.132	-64.735	-57.663	85.362	81.931	-57.911	-51.383	-51.104	-44.591	152.147	-45.057	-8191	255	
1200.617	1	1	0	0	0.18737	0.08156	0.11772	0.43823	0.14404	0.20396	0.38601	0.13525	0.044133	0.074153	0.16209	0.11245	0.10045	0.18526	0.21218	0.04564	-3.7229	-3.9854	-4.1146	-4.1021	-4.0604	-4.175	-3.9458	-4.2229	-4.0708	-3.6458	-4.35	-4.2083	-4.0979	-4.4271	-3.9437	-4.2104	-74.010	-61.239	115.349	277.414	102.511	218.928	-75.381	269.862	242.474	-45.263	21.729	-72.006	145.330	228.670	193.197	-28.000	9.1835e-05	0.00036442	3.8411e-05	1272.1	2.5818e-06	2.8447e-06	1343.4	260.43	6.3247e-07	1.6425e-06	325.21	90.248	71.328	20.43	9.8373e-07	28.574	0.00017823	0.00016478	4.3827e-05	1141	1.8786e-06	1.7321e-06	1200.3	236.52	1.8079e-06	1.6904e-06	281.83	80.977	63.14	18.614	1.6658e-06	25.845	11.327	267.259	-49.796	-64.808	253.544	273.789	-64.529	-57.878	118.404	140.472	-58.011	-51.368	-50.885	-44.626	12.963	-45.026	-8191	255	
1200.714	1	1	0	0	0.11076	0.1203	0.17879	0.14445	0.24586	0.13099	0.11106	0.19905	0.26907	0.10562	0.36788	0.2229	0.15384	0.19405	0.16808	0.14625	-4.1521	-3.8583	-4.5229	-4.3521	-3.9104	-4.3583	-4.2229	-4.2292	-4.3042	-4.0167	-4.3917	-4.0917	-3.8125	-4.2646	-3.8937	-4.15	232.868	276.699	212.053	252.560	259.478	-18.503	221.586	242.357	39.923	236.779	227.357	70.918	0.278	-39.048	154.958	247.125	0.00015942	0.00035386	0.00012772	1260.2	2.3889e-06	1.8201e-06	1332.2	257.82	4.1305e-06	2.2694e-06	322.79	89.445	70.465	20.14	5.1122e-06	28.383	0.00015716	0.00014602	4.224e-05	1125.5	1.6667e-06	1.5406e-06	1190.2	232.54	1.6195e-06	1.4682e-06	278.07	79.544	61.6	18.109	1.5927e-06	25.17	-64.051	271.411	43.832	-64.808	-61.689	-58.874	-64.700	-57.348	102.232	-59.344	-57.749	-50.778	-50.609	-44.317	141.130	-45.342	-8191	255	
1200.810	1	1	0	0	0.14026	0.072015	0.077979	0.046162	0.11531	0.091924	0.207	0.24076	0.25495	0.13532	0.1356	0.13173	0.15036	0.141	0.037935	0.18575	-3.8354	-3.7479	-4.3479	-4.1979	-4	-4.3	-4.0083	-4.3438	-4.2937	-3.8792	-4.3958	-4.1896	-3.9938	-4.3542	-4.025	-4.1917	56.736	239.891	90.665	252.964	51.722	188.707	195.611	191.661	281.407	56.070	86.488	145.272	112.398	239.735	-26.171	258.288	0.00025292	0.0001788	3.584e-05	1248.7	3.2725e-06	2.8892e-06	1317.1	255.46	1.3859e-06	2.8926e-06	319.2	89.35	70.35	20.024	6.7627e-07	28.284	0.000141	0.00012991	4.061e-05	1110.1	1.4976e-06	1.4045e-06	1180.6	228.85	1.4673e-06	1.3812e-06	275.87	78.374	60.628	17.93	1.5723e-06	24.787	-22.346	-74.469	-32.848	-64.795	-1.963	49.738	-64.536	-57.671	85.885	98.911	-57.891	-51.059	-50.977	-44.354	102.254	-44.696	-8191	255	
1200.906	1	1	0	0	0.083161	0.11441	0.13676	0.25954	0.1182	0.12693	0.11067	0.22917	0.17366	0.075624	0.17615	0.14133	0.060327	0.11513	0.12127	0.17831	-4.1375	-3.875	-4.3562	-4.4146	-3.9354	-4.5646	-4.225	-4.1583	-4.2354	-3.7646	-4.25	-4.3375	-3.9313	-4.4938	-3.9625	-4.1271	-24.932	35.054	-17.645	284.642	133.647	187.003	170.099	188.181	132.873	104.792	181.498	171.440	205.640	131.575	69.979	180.195	5.4407e-05	4.9317e-05	8.0182e-06	1244	2.3561e-06	9.7414e-08	1313.3	253.57	1.1978e-06	2.5414e-06	319.13	88.782	69.891	19.92	3.2012e-06	28.279	0.00013002	0.00012731	4.04e-05	1102.8	1.3987e-06	1.3965e-06	1174.2	226.73	1.3781e-06	1.404e-06	274.24	77.587	60.038	17.927	1.5328e-06	24.589	-74.463	282.359	215.668	-64.744	41.643	-67.092	-64.516	-57.362	-21.797	148.658	-57.955	-51.144	-50.906	-44.310	-10.020	-44.557	-8191	255	
1201.002	1	1	0	0	0.16455	0.077493	0.23461	0.18814	0.16427	0.074834	0.18236	0.042444	0.12073	0.19818	0.21163	0.23466	0.24246	0.11779	0.087116	0.33097	-4.1312	-3.9354	-3.9875	-4.2229	-3.7021	-4.2188	-4.2771	-3.9437	-4.4146	-4.0396	-4.3812	-4.475	-3.9313	-4.3479	-4.1146	-4.1104	34.080	271.174	53.051	223.963	227.808	107.570	193.070	169.032	71.866	-67.728	70.673	278.763	166.263	103.611	34.237	22.246	0.00021775	0.00022433	4.6245e-05	1237.6	2.3084e-06	1.3952e-06	1312.6	252.7	2.4228e-06	3.8781e-06	317.18	88.226	70.268	20.013	5.8256e-06	28.332	0.00012317	0.00013037	3.8783e-05	1095	1.32e-06	1.4455e-06	1168.4	224.83	1.3062e-06	1.4566e-06	273.03	77.143	59.761	18.054	1.4865e-06	24.473	-62.991	109.808	252.291	-64.640	-45.472	77.954	-64.240	-57.383	124.743	98.423	-57.747	-50.981	-50.597	-44.371	24.222	-44.808	-8191	255	
1201.098	1	1	0	0	0.26306	0.1414	0.13761	0.23587	0.19101	0.19148	0.22271	0.048723	0.056833	0.13725	0.10615	0.094587	0.078643	0.18998	0.028589	0.14049	-4.0292	-3.9792	-4.2583	-4.6521	-3.9792	-4.4208	-4.2729	-4.1167	-4.3896	-4.1104	-4.2812	-4.3896	-3.8542	-4.2146	-4.125	-3.7042	85.244	104.804	34.871	-56.906	-39.761	75.592	114.142	45.850	281.059	120.797	50.159	214.019	142.116	-37.135	227.052	-28.255	0.00026318	0.00019934	4.7709e-05	1240.9	6.7887e-07	1.3003e-06	1315.9	253.76	3.2244e-07	2.2761e-06	318.14	88.281	69.894	19.987	2.547e-06	28.123	0.00012262	0.00013758	3.8053e-05	1093.4	1.3546e-06	1.5626e-06	1171	225.39	1.3733e-06	1.5798e-06	273.32	77.301	60.281	18.235	1.5003e-06	24.521	263.013	34.289	244.060	-64.720	19.619	88.204	-64.514	-57.490	11.092	196.559	-57.728	-51.046	-50.893	-44.163	-24.100	-44.542	-8191	255	
1201.194	1	1	0	0	0.16582	0.17846	0.078863	0.21595	0.16261	0.11957	0.34187	0.10912	0.0672	0.049192	0.22168	0.078269	0.05452	0.061064	0.15969	0.087057	-3.9042	-3.8521	-3.8542	-4.3292	-3.7667	-4.2167	-4.3729	-3.9417	-4.4479	-3.9896	-4.1062	-4.5125	-3.8604	-4.1375	-4.0167	-3.7104	18.402	-1.106	164.796	-61.945	93.987	206.885	245.740	-11.543	159.148	47.479	217.368	282.600	231.175	-17.110	163.782	29.604	0.00035937	0.00037416	6.2231e-05	1243.2	2.6623e-06	3.5958e-07	1309.9	254.54	2.2757e-06	3.7824e-06	318.44	88.732	70.189	20.051	9.1347e-07	28.282	0.00013091	0.00014608	3.7824e-05	1095.6	1.4469e-06	1.6088e-06	1169.4	225.8	1.4841e-06	1.6154e-06	273.37	77.376	60.77	18.321	1.4753e-06	24.492	-50.103	-0.565	-28.197	-64.753	132.840	-62.990	-64.778	-57.306	136.409	43.620	-57.907	-51.080	-50.608	-44.595	-52.684	-45.327	-8191	255	
1201.315	1	1	0	0	0.1223	0.062315	0.16678	0.12578	0.11975	0.045441	0.15218	0.17973	0.15936	0.15322	0.22305	0.060028	0.20137	0.24729	0.19398	0.030516	-3.8187	-3.7875	-3.8667	-4.3521	-3.6146	-4.0312	-4.4042	-3.8146	-4.1646	-4.0896	-3.7792	-4.3417	-4.1333	-4.1792	-4.3667	-4.0813	270.454	5.557	179.038	58.867	-63.934	137.914	255.411	258.153	250.840	-17.858	252.576	82.340	223.100	130.269	164.324	-24.333	0.00011643	0.00030583	4.6651e-05	1239.6	2.3459e-06	2.3397e-06	1313.4	254.17	2.8444e-06	5.0111e-06	318.96	88.611	70.089	20.159	4.7688e-06	28.277	0.00013769	0.00014438	3.7076e-05	1094.3	1.5187e-06	1.5611e-06	1169.7	225.71	1.5443e-06	1.5495e-06	273.26	77.322	60.969	18.213	1.4169e-06	24.552	-42.644	275.843	227.535	-64.787	69.770	8.900	-64.530	-57.270	173.377	49.590	-57.958	-51.418	-50.850	-44.322	-38.282	-44.712	-8191	255	
1201.409	1	1	0	0	0.3031	0.17602	0.073259	0.19925	0.19923	0.031714	0.15131	0.11052	0.092325	0.18068	0.20144	0.13568	0.25468	0.049331	0.14409	0.20422	-4.0396	-4.1521	-3.5083	-4.3542	-3.7979	-4.0667	-4.4104	-4	-4.2521	-4.1896	-3.9979	-4.5	-4.2104	-4.1417	-4.2604	-4.025	-59.108	-69.051	235.483	201.010	188.900	245.695	197.934	-60.780	81.431	19.312	217.766	100.896	56.903	-39.353	-65.559	249.655	0.0002757	0.00015021	6.4178e-05	1246.6	1.8987e-06	2.0656e-06	1315.3	253.61	2.7288e-06	3.2186e-06	319.04	88.685	70.101	20.062	3.8339e-06	28.086	0.00014468	0.00013844	3.5874e-05	1096.9	1.5755e-06	1.495e-06	1169.7	225.46	1.5703e-06	1.4728e-06	271.7	77.367	61.072	18.107	1.3384e-06	24.538	276.528	233.943	234.916	-64.678	194.439	4.348	-64.419	-57.403	157.767	68.642	-57.887	-51.326	-50.807	-44.527	-13.231	-44.907	-8191	255	
1201.506	1	1	0	0	0.25059	0.041182	0.080389	0.15154	0.20351	0.45929	0.17598	0.27824	0.060968	0.048661	0.22538	0.17544	0.14773	0.25951	0.061342	0.030897	-3.8187	-4.1937	-3.7958	-4.3833	-3.9771	-3.8917	-4.2958	-3.7313	-3.8292	-4.1021	-3.7313	-4.1687	-3.9021	-3.7875	-4.3146	-3.8354	-59.615	213.333	103.451	275.636	-57.210	-44.877	239.282	168.130	6.667	-36.126	191.033	162.091	76.507	-39.201	269.916	16.241	0.00021918	0.00025051	8.7063e-05	1239.2	1.3231e-06	7.9215e-07	1312.6	253.13	3.8596e-06	4.1345e-06	317.18	89.237	69.977	20.17	1.2706e-06	28.231	0.00014172	0.00013113	3.3774e-05	1095.9	1.5414e-06	1.432e-06	1166.3	225.7	1.551e-06	1.4203e-06	270.64	77.974	61.176	18.101	1.3261e-06	24.816	231.099	-62.913	266.326	-64.753	0.652	-1.030	-64.426	-57.250	31.049	-26.146	-57.852	-51.175	-50.432	-44.445	126.718	-44.687	-8191	255	
1201.602	1	1	0	0	0.18339	0.040588	0.24218	0.061137	0.019138	0.073881	0.32021	0.071899	0.19864	0.15493	0.18162	0.13923	0.028027	0.1234	0.094225	0.20105	-3.65	-4.1271	-3.7188	-4.2729	-4.2312	-3.9167	-4.3104	-4.1104	-4.2542	-4.4833	-3.9521	-4.3354	-4.1021	-4.0521	-4.1521	-3.9604	98.266	284.239	149.461	175.200	264.277	144.806	241.403	-56.151	54.608	270.479	214.382	20.319	222.776	21.690	-0.686	138.996	4.733e-05	0.0002161	4.5343e-05	1241.8	2.0542e-06	1.581e-06	1311.4	253.24	9.639e-07	2.2589e-06	317.45	89.316	70.166	20.203	3.7402e-06	28.291	0.00014145	0.00012941	3.3488e-05	1099.4	1.5233e-06	1.4055e-06	1166.3	226.59	1.513e-06	1.3801e-06	271.27	78.217	60.82	18.009	1.3204e-06	24.899	72.639	-49.469	-5.057	-64.663	52.672	11.796	-64.512	-57.467	172.692	20.892	-57.912	-50.932	-50.867	-44.388	151.454	-44.732	-8191	255	
1201.698	1	1	0	0	0.098928	0.14226	0.17431	0.34354	0.094334	0.17576	0.099172	0.18803	0.14025	0.18079	0.14355	0.0096872	0.2021	0.14782	0.22854	0.16901	-3.7417	-4.3167	-3.8646	-4.4938	-4.2188	-3.9292	-4.6292	-4.0625	-3.9396	-4.5188	-4.0521	-4.25	-4.3417	-3.9604	-4.3021	-4.1438	240.112	-61.598	-43.482	-25.472	77.241	276.975	-63.679	208.264	49.350	171.703	175.239	48.711	118.200	-62.748	-38.096	72.392	7.005e-05	0.00025307	4.5944e-05	1244.1	9.7377e-07	4.2238e-06	1315.1	253.62	1.0158e-06	2.6799e-06	318.84	88.582	70.115	20.188	4.5286e-07	28.445	0.00013463	0.00012522	3.351e-05	1101.2	1.4518e-06	1.3522e-06	1165.6	227.39	1.4708e-06	1.3467e-06	271.65	78.244	60.481	17.947	1.3839e-06	24.931	144.502	-50.403	211.786	-64.750	89.520	25.122	-64.485	-57.554	-19.456	-34.739	-57.849	-51.136	-50.525	-43.803	207.712	-44.661	-8191	255	
1201.794	1	1	0	0	0.047781	0.16707	0.12387	0.11973	0.044006	0.11674	0.17901	0.26944	0.0811	0.02472	0.2394	0.22739	0.068794	0.11723	0.17369	0.26022	-3.7458	-4.4125	-3.9292	-4.3125	-4.2896	-3.8812	-4.6354	-4.1937	-3.9708	-4.3771	-3.9562	-4.2354	-4.3562	-3.9437	-4.2667	-4.1625	7.976	-20.092	-36.865	251.158	-39.609	171.900	249.312	246.469	72.325	122.791	97.042	135.874	9.756	185.781	60.221	-50.784	0.00026343	0.00013775	6.2244e-05	1241.5	7.3935e-07	2.8822e-06	1311	252.82	2.8215e-06	2.6424e-06	318.39	88.758	70.243	20.103	1.9603e-06	28.245	0.00013193	0.00012122	3.5513e-05	1101.1	1.4308e-06	1.3197e-06	1167.6	226.9	1.4298e-06	1.3151e-06	272.97	78.043	60.443	17.884	1.4809e-06	24.862	259.854	-16.128	-7.563	-64.539	68.572	34.253	-64.401	-57.544	59.225	137.735	-58.037	-51.343	-50.625	-44.092	-57.754	-45.216	-8191	255	
1201.915	1	1	0	0	0.067535	0.2822	0.14564	0.10662	0.18742	0.022824	0.17273	0.077011	0.30099	0.057006	0.19854	0.22192	0.17138	0.11177	0.25986	0.18216	-3.6208	-4.2937	-3.9708	-4.2271	-4.3458	-3.975	-4.5042	-4.2271	-3.9938	-4.4229	-4.1813	-4.1312	-4.4521	-3.9688	-4.2104	-4.2708	-34.401	34.991	270.530	176.104	170.741	-5.214	236.543	263.484	87.655	222.792	243.652	-71.383	98.217	269.127	-22.693	201.129	0.00014273	0.00024647	3.4204e-05	1242.1	4.594e-07	1.7328e-06	1312.1	253.86	3.6368e-06	2.1662e-06	317.74	89.005	70.144	20.214	1.3305e-06	28.48	0.00013028	0.00012101	3.8005e-05	1099.2	1.4148e-06	1.34e-06	1170.7	227.04	1.422e-06	1.35e-06	274.17	78.159	60.331	17.993	1.562e-06	24.903	247.960	10.958	9.180	-64.727	70.865	38.474	-64.649	-57.536	14.244	121.926	-57.907	-51.005	-50.707	-44.084	33.508	-44.475	-8191	255	
1202.011	1	1	0	0	0.10885	0.23715	0.27864	0.16904	0.26926	0.22515	0.2304	0.095853	0.14508	0.18622	0.15457	0.099149	0.27261	0.17478	0.22967	0.059395	-3.625	-4.4333	-4.0021	-4.2292	-4.3896	-3.8729	-4.4271	-4.4229	-3.8167	-4.3417	-4.1125	-4.0521	-4.4917	-3.8312	-4.1438	-4.1438	183.222	61.340	18.591	264.006	283.255	216.798	202.967	264.390	179.970	24.132	249.899	-73.101	197.739	56.068	11.643	-52.408	1.5342e-05	8.4218e-05	3.6477e-05	1245.6	1.2762e-06	1.3284e-06	1311.4	252.85	6.5585e-07	4.4755e-07	319.28	88.55	70.108	20.238	4.0036e-06	28.47	0.00012934	0.00012669	4.0317e-05	1099.7	1.4023e-06	1.4159e-06	1173	226.13	1.4015e-06	1.4447e-06	275.29	77.883	60.289	18.165	1.5948e-06	24.867	14.770	-31.256	98.089	-64.675	9.821	6.078	-64.597	-57.684	-68.305	-51.740	-57.910	-50.875	-50.639	-44.298	-10.599	-44.625	-8191	255	
1202.107	1	1	0	0	0.014614	0.1718	0.19202	0.1082	0.12348	0.18112	0.11665	0.12034	0.022428	0.028089	0.17968	0.077085	0.15756	0.17327	0.14507	0.081436	-3.4479	-4.3063	-3.7542	-3.8396	-4.2521	-3.9167	-4.3542	-4.3875	-3.7104	-4.4042	-4.2875	-3.9896	-4.4812	-3.8937	-3.9708	-4.2896	4.066	139.265	26.255	-53.529	124.765	273.417	211.414	-38.692	251.747	25.780	9.474	186.579	-64.026	-53.208	36.689	270.542	4.282e-05	0.0001286	2.9963e-05	1238.5	8.8571e-07	2.9971e-06	1308.3	255.06	1.1792e-06	2.3933e-06	317.82	88.852	70.103	20.167	3.2448e-06	28.328	0.0001269	0.00013673	4.0126e-05	1097.4	1.3863e-06	1.5081e-06	1172.4	226.97	1.3948e-06	1.544e-06	274.99	77.963	60.362	18.347	1.58e-06	24.859	30.575	78.221	252.940	-64.825	-16.771	108.810	-64.493	-57.594	249.121	62.836	-57.868	-51.263	-51.184	-44.452	-13.672	-44.852	-8191	255	
1202.203	1	1	0	0	0.11418	0.066401	0.17118	0.29282	0.11549	0.092225	0.24726	0.3244	0.31109	0.094826	0.078645	0.24955	0.17103	0.067536	0.076256	0.045105	-3.5563	-4.3833	-4.1833	-4.2354	-4.25	-4.1771	-4.3292	-4.4833	-3.8812	-4.1562	-4.1771	-3.8937	-4.4396	-3.8917	-3.9229	-4.3063	155.532	281.813	229.926	267.667	21.406	255.746	204.552	-73.487	-37.872	284.274	217.686	73.209	-38.139	66.801	-74.530	258.780	9.0219e-05	0.00010636	0.00011405	1240.1	1.6924e-06	3.6833e-06	1314.8	254.68	2.6766e-06	2.4926e-06	318.33	88.581	70.346	20.122	3.8621e-06	28.328	0.00012962	0.00014744	3.9981e-05	1099.2	1.4129e-06	1.6126e-06	1174.5	226.58	1.4028e-06	1.6029e-06	274.04	77.621	60.504	18.375	1.4961e-06	24.677	187.171	103.549	276.670	-64.671	-3.581	173.241	-64.325	-57.381	241.373	92.358	-57.774	-51.198	-50.684	-44.451	-24.321	-44.749	-8191	255	
1202.275	1	1	0	0	0.15256	0.074907	0.011412	0.1838	0.10313	0.19199	0.20082	0.22647	0.0083586	0.1138	0.16214	0.10576	0.20151	0.027155	0.14859	0.035688	-3.4708	-4.0312	-3.95	-3.7667	-4.3458	-3.9271	-4.0021	-4.3063	-3.85	-4.1021	-4.2521	-3.8167	-4.3187	-4.0521	-3.9208	-4.1875	49.564	265.322	179.667	252.332	-71.751	69.016	186.076	-70.004	-37.812	-66.600	136.627	253.031	274.020	245.031	261.704	175.872	0.00021812	0.00011666	1.1132e-05	1242.2	3.2734e-06	3.6353e-06	1310.8	253.44	9.1877e-07	1.6841e-06	318.58	89.093	69.843	20.096	1.8924e-06	28.536	0.00012938	0.00014548	3.6834e-05	1094.6	1.4142e-06	1.557e-06	1168	225.52	1.4351e-06	1.5625e-06	272.7	77.16	60.497	18.248	1.4379e-06	24.599	-61.106	125.959	-5.665	-64.713	129.938	95.454	-64.476	-57.449	183.223	-59.885	-57.872	-51.006	-50.778	-44.386	18.582	-44.454	-8191	255	
1202.394	1	1	0	0	0.075929	0.21021	0.049015	0.31249	0.21609	0.056615	0.2509	0.23205	0.14533	0.10563	0.11804	0.27797	0.26062	0.073351	0.11564	0.13776	-3.5208	-3.9813	-4.1646	-3.8833	-4.2042	-3.9562	-3.9875	-4.3083	-3.8417	-4.1833	-4.2354	-3.7979	-4.2896	-4.0208	-4.0729	-4.6188	254.065	18.453	-48.387	241.451	-29.611	233.833	276.457	-11.676	87.703	56.000	-51.227	157.673	-54.803	132.186	117.677	254.598	0.00035952	0.00017171	1.9247e-05	1244	2.9438e-06	2.8826e-06	1308.8	253.78	3.279e-06	1.1438e-06	315.85	88.825	70.055	20.158	3.4431e-06	28.296	0.00013373	0.00014046	3.5975e-05	1092.8	1.5062e-06	1.5252e-06	1166.5	224.99	1.5082e-06	1.5178e-06	271.23	77.119	60.845	18.198	1.3873e-06	24.511	-71.441	248.268	227.562	-64.639	112.007	-15.593	-64.423	-57.552	219.738	19.257	-57.844	-50.826	-50.579	-44.345	10.480	-44.316	-8191	255	
1202.490	1	1	0	0	0.25857	0.1331	0.15166	0.21058	0.12792	0.16149	0.20284	0.19757	0.13025	0.18084	0.07142	0.24256	0.31316	0.19755	0.17424	0.21139	-3.7375	-4.0208	-4.3125	-3.8812	-4.1521	-4.1	-4.15	-4.3562	-3.9583	-3.9958	-4.3417	-3.8604	-4.05	-4.125	-3.7542	-4.4521	240.344	172.055	88.084	-42.755	-28.758	-21.293	223.205	212.109	102.538	195.818	59.594	228.393	256.696	-22.963	248.946	185.038	0.0002394	0.00022897	6.6737e-05	1238.2	3.2474e-06	2.601e-06	1308.4	252.61	2.2128e-06	4.2736e-06	317.4	88.504	70.42	20.17	4.1187e-06	28.178	0.00013928	0.00013597	3.4663e-05	1091.5	1.5341e-06	1.4562e-06	1164.9	225.02	1.5505e-06	1.4748e-06	271.44	77.295	61.226	18.135	1.3447e-06	24.596	-71.191	-21.321	267.944	-64.751	139.197	29.046	-64.471	-57.437	-4.738	-57.574	-57.892	-51.119	-50.785	-44.156	24.235	-44.575	-8191	255	
1202.586	1	1	0	0	0.076716	0.098529	0.14941	0.10349	0.099097	0.18486	0.12643	0.099693	0.17291	0.20374	0.094176	0.13413	0.095231	0.11363	0.25332	0.063876	-3.6	-3.9875	-4.4375	-4.0875	-4.1375	-4.2937	-3.9625	-4.4542	-4.1438	-4.1417	-4.45	-3.8833	-4.1854	-4.2812	-3.725	-4.4771	45.160	236.219	30.362	113.484	-73.260	-65.994	234.975	-35.362	-42.806	111.368	10.498	184.817	-3.064	-70.013	254.910	223.877	0.00016205	0.00025409	8.6421e-05	1234	2.4321e-06	2.7435e-06	1309.8	253.28	1.8864e-06	2.0576e-06	316.98	88.552	70.138	20.228	2.9444e-06	28.298	0.00014306	0.00013085	3.3794e-05	1093	1.5557e-06	1.4241e-06	1164.5	225.89	1.5511e-06	1.4378e-06	270.72	77.745	60.931	18.066	1.3227e-06	24.768	244.747	253.751	250.049	-64.832	10.418	165.114	-64.433	-57.524	208.731	-25.702	-57.912	-50.951	-50.835	-44.337	-65.670	-44.472	-8191	255	
1202.682	1	1	0	0	0.091719	0.066222	0.087161	0.13061	0.087346	0.18558	0.241	0.14594	0.17503	0.026701	0.28371	0.16738	0.27918	0.24149	0.22759	0.031229	-3.8146	-3.9292	-4.3479	-4.1917	-4.2312	-4.2812	-3.9958	-4.3562	-4.1104	-3.8958	-4.1792	-3.8479	-3.9771	-4.3833	-3.7146	-4.1042	72.453	28.023	262.033	213.094	4.216	21.475	157.696	108.607	13.689	181.876	277.623	254.008	262.395	-73.209	-70.534	168.521	0.00014292	0.00033323	3.6319e-05	1234.8	8.1836e-07	1.0077e-06	1308.9	253.35	2.7629e-06	1.5868e-06	318.35	88.637	70.342	20.112	1.5429e-06	28.452	0.00013829	0.00012849	3.2823e-05	1094.5	1.5028e-06	1.3724e-06	1162.3	226.42	1.4828e-06	1.3569e-06	270.14	77.8	60.553	17.886	1.2756e-06	24.815	104.344	253.862	-15.841	-64.588	-48.789	69.031	-64.595	-57.466	209.944	48.936	-57.603	-50.939	-51.157	-44.397	73.825	-44.570	-8191	255	
1202.803	1	1	0	0	0.060598	0.10892	0.26125	0.15561	0.1187	0.065574	0.024442	0.086724	0.10069	0.20099	0.20321	0.091089	0.055651	0.12467	0.12845	0.22287	-3.7229	-3.7083	-4.3396	-3.9667	-3.9104	-4.1167	-3.6958	-4.1417	-4.0062	-3.8083	-4.4021	-4.1104	-4.0958	-4.4208	-3.8042	-4.2438	129.867	-41.949	175.950	-46.693	271.904	190.415	231.309	-32.722	184.061	-9.876	282.340	214.411	-12.011	88.339	89.749	133.735	4.3675e-05	0.00019457	5.1527e-05	1237	8.209e-07	1.1163e-06	1310	252.53	2.2439e-06	3.4082e-06	317.48	89.085	70.134	20.247	9.4084e-07	28.188	0.00013122	0.00012119	3.2871e-05	1094.3	1.4331e-06	1.3238e-06	1160.5	226.15	1.3864e-06	1.2909e-06	270.28	77.753	60.067	17.817	1.3154e-06	24.682	-45.515	-40.341	111.313	-64.863	172.150	189.158	-64.423	-57.189	61.033	-12.294	-57.705	-51.061	-50.495	-43.993	90.736	-44.853	-8191	255	
1202.874	1	1	0	0	0.29739	0.15099	0.12444	0.28079	0.22944	0.17072	0.22075	0.36081	0.1181	0.16602	0.043737	0.10586	0.054148	0.17088	0.14638	0.19422	-3.9583	-3.9292	-4.5229	-4.325	-3.9	-4.5021	-4.1562	-4.3667	-4.3021	-3.8063	-4.35	-3.9813	-3.95	-4.3063	-3.875	-4.2021	11.008	172.912	33.373	197.056	-35.113	162.868	219.363	233.871	217.905	-0.543	161.077	125.610	-13.019	-71.948	22.179	-10.748	0.00010804	0.00027327	5.6382e-05	1236.1	1.2731e-06	1.7952e-06	1303	251.77	2.4838e-06	9.0729e-07	315.92	88.425	70.142	20.146	1.9036e-06	28.215	0.00012424	0.00011576	3.3849e-05	1091.8	1.3526e-06	1.2348e-06	1159.8	225.07	1.3282e-06	1.2364e-06	270.09	77.368	59.691	17.691	1.3752e-06	24.573	-30.548	-65.633	24.252	-64.809	26.150	43.100	-64.401	-57.401	152.120	18.872	-57.822	-50.835	-50.825	-44.576	92.459	-45.169	-8191	255	
1202.995	1	1	0	0	0.062387	0.050726	0.065836	0.15554	0.20189	0.252	0.054024	0.21487	0.24594	0.20925	0.24974	0.13256	0.11596	0.13088	0.20624	0.12505	-3.85	-3.6604	-4.2896	-4.2	-3.7292	-4.1042	-4.2521	-4.1375	-4.2771	-3.9333	-4.2771	-4.2375	-3.7812	-4.2854	-3.8458	-4.2562	173.567	-30.331	211.709	180.506	134.238	91.307	283.420	226.920	-74.016	-22.884	214.896	111.102	-71.570	-17.655	71.502	177.563	0.00015493	0.00012527	9.4995e-05	1232.7	2.7528e-06	8.7428e-07	1303.3	252.68	3.6561e-06	1.5051e-06	316.96	88.377	69.623	19.977	1.9339e-06	28.051	0.0001207	0.00011233	3.5237e-05	1088.4	1.3059e-06	1.2135e-06	1159.1	224.32	1.293e-06	1.2358e-06	271.32	76.995	59.417	17.659	1.412e-06	24.423	220.243	54.199	89.115	-64.552	32.316	246.996	-64.553	-57.407	-9.960	270.461	-57.612	-51.396	-50.837	-44.038	36.223	-44.608	-8191	255	
1203.091	1	1	0	0	0.26785	0.36468	0.21844	0.20475	0.12863	0.15963	0.2724	0.29541	0.075912	0.23058	0.17168	0.12109	0.058101	0.089813	0.028381	0.15667	-4.1188	-4.1146	-4.2729	-4.4021	-3.9562	-4.375	-4.4167	-4.1604	-4.4833	-3.9354	-4.2292	-4.2792	-3.9104	-4.3146	-4.0854	-4.0146	187.538	114.603	198.966	274.875	-9.633	9.856	236.510	246.095	221.971	142.423	224.950	262.312	237.383	221.908	189.280	215.491	0.00011411	0.0002206	6.4596e-05	1231.1	2.6327e-06	2.6235e-06	1300.6	251.6	6.3406e-07	5.9533e-07	315.64	87.983	69.615	20.014	3.1283e-06	28.376	0.00011558	0.00011377	3.5662e-05	1084.1	1.2495e-06	1.2462e-06	1157.1	223.32	1.216e-06	1.2546e-06	270.14	76.32	58.815	17.712	1.365e-06	24.299	-48.972	89.569	235.416	-64.641	-11.714	132.440	-64.621	-57.214	51.151	12.404	-57.898	-50.852	-50.716	-44.308	-75.189	-44.601	-8191	255	
1203.187	1	1	0	0	0.046657	0.15982	0.062547	0.19094	0.16263	0.13541	0.211	0.045657	0.29661	0.29202	0.15772	0.21982	0.29213	0.074139	0.085305	0.035053	-4.0563	-3.9771	-4.1333	-4.4812	-3.8083	-4.375	-4.4104	-4.0312	-4.4667	-4.0375	-4.4833	-4.4292	-3.7542	-4.3417	-4.1667	-4.0792	-41.339	34.986	82.596	197.741	49.201	148.787	233.613	226.530	81.724	86.392	-74.598	283.347	-49.762	-65.752	-24.397	-36.368	0.00013698	0.00035593	3.8029e-05	1223.4	3.3549e-06	2.7424e-06	1295.3	251.39	1.47e-06	2.2089e-06	314.87	87.765	69.022	19.8	3.3335e-07	28.282	0.00010925	0.00011727	3.4615e-05	1077.5	1.1788e-06	1.2966e-06	1150.9	222.03	1.1706e-06	1.3034e-06	268.47	75.976	58.656	17.726	1.3369e-06	24.246	272.103	89.750	-31.737	-64.727	-8.537	110.818	-64.459	-57.223	-29.414	124.171	-57.758	-51.077	-50.605	-43.912	67.266	-44.809	-8191	255	
1203.283	1	1	0	0	0.16497	0.13724	0.27593	0.22461	0.17056	0.20619	0.11366	0.07838	0.079894	0.11969	0.13867	0.058548	0.23384	0.069841	0.081781	0.1132	-4.0312	-3.9896	-4.0125	-4.4396	-3.9771	-4.2125	-4.3187	-3.975	-4.4042	-3.9208	-3.8812	-4.2833	-3.7104	-4.2188	-4.1458	-3.9229	224.710	-10.142	49.192	199.987	-38.262	116.780	85.682	26.981	119.944	22.764	224.137	142.652	120.817	-43.727	28.591	-15.137	0.00029074	0.00012749	1.8143e-05	1222.8	1.5051e-06	7.4164e-07	1296.2	251.13	1.8262e-06	1.2562e-06	314.26	88	69.312	19.926	2.6011e-06	28.073	0.00011028	0.00012478	3.4079e-05	1076.5	1.2348e-06	1.4098e-06	1152.2	222.29	1.2652e-06	1.4401e-06	269.25	76.321	59.349	17.958	1.3622e-06	24.31	270.333	32.625	150.288	-64.496	209.749	98.134	-64.577	-57.451	99.717	33.499	-58.163	-50.754	-50.570	-44.186	-30.686	-44.604	-8191	255	
1203.402	1	1	0	0	0.021166	0.097601	0.21377	0.15688	0.10709	0.28188	0.18255	0.17385	0.10218	0.094996	0.18358	0.039221	0.11162	0.21047	0.19273	0.089422	-4.0333	-4.0833	-3.9708	-4.5396	-3.9125	-4.0521	-4.3708	-4.0104	-4.2875	-4.1312	-4.05	-4.3125	-3.7771	-4.2271	-4.1375	-3.7958	46.478	43.198	-73.834	187.716	-13.661	259.967	-2.739	210.516	3.627	-24.911	-21.931	239.310	68.339	-11.023	-11.719	68.642	0.00010492	0.00025151	6.275e-05	1223.5	2.87e-06	2.238e-06	1295.9	251.38	1.2317e-06	1.0883e-06	316.27	88.321	69.474	19.943	1.1245e-06	28.111	0.00012046	0.00013339	3.4216e-05	1078.8	1.3172e-06	1.4572e-06	1152.4	222.5	1.3362e-06	1.4497e-06	268.29	76.156	59.528	17.911	1.2934e-06	24.094	265.031	240.923	266.980	-64.744	137.651	91.825	-64.415	-57.516	192.693	-15.368	-57.770	-50.646	-51.044	-44.084	14.048	-44.624	-8191	255	
1203.474	1	1	0	0	0.10336	0.12464	0.19191	0.22207	0.31266	0.021369	0.24732	0.20765	0.14995	0.2657	0.18478	0.22615	0.096869	0.061071	0.32986	0.10104	-3.7146	-4.1375	-3.75	-4.45	-3.8521	-4.175	-4.4229	-3.8708	-4.3604	-4.1167	-4.1167	-4.6083	-4.0021	-4.0938	-4.2042	-3.8875	144.152	143.083	112.320	186.338	153.326	-15.531	226.962	182.105	125.391	48.435	179.252	214.694	44.928	89.582	108.522	18.656	0.00016224	0.00041854	6.5731e-05	1224.2	9.451e-07	4.4616e-06	1295.1	250.56	3.012e-06	3.1003e-06	314.07	87.95	69.493	19.911	2.7145e-06	28.066	0.00012351	0.00012824	3.2767e-05	1075.2	1.3686e-06	1.3962e-06	1151	221.66	1.3989e-06	1.3904e-06	268.07	75.993	59.785	17.863	1.2747e-06	24.143	272.421	194.418	232.221	-64.531	-28.795	26.236	-64.427	-57.448	150.080	17.517	-57.645	-51.023	-50.648	-43.837	17.086	-44.913	-8191	255	
1203.595	1	1	0	0	0.17712	0.040695	0.10987	0.24173	0.14447	0.16885	0.22458	0.057395	0.11783	0.16093	0.18473	0.23399	0.23398	0.169	0.17031	0.20984	-3.7208	-4.0292	-3.8625	-4.4875	-3.9292	-3.9042	-4.2625	-4.0583	-4.2625	-4.1896	-4.0667	-4.5875	-4.1167	-3.8396	-4.1667	-3.8063	172.487	114.078	-26.335	220.981	158.154	-46.240	212.139	-38.162	33.849	33.669	-50.033	257.294	264.749	181.453	-61.252	120.919	0.00016271	0.00030786	4.3963e-05	1219.5	1.6153e-06	3.6941e-06	1295.1	250.85	3.4881e-06	1.7916e-06	314.8	87.6	69.161	20.011	3.0679e-06	28.091	0.00013167	0.00012508	3.2328e-05	1075.2	1.4295e-06	1.3617e-06	1149.3	222.04	1.4429e-06	1.3337e-06	267.29	76.022	59.639	17.724	1.2187e-06	24.172	270.297	-67.158	-65.801	-64.774	114.715	60.628	-64.651	-57.296	154.781	48.072	-57.821	-51.195	-50.819	-44.472	-46.247	-44.513	-8191	255	
1203.691	1	1	0	0	0.063885	0.19313	0.18473	0.2579	0.052621	0.078864	0.16495	0.13181	0.21479	0.23942	0.059587	0.24828	0.23563	0.27789	0.20919	0.1782	-3.7979	-4.0708	-3.6896	-4.3083	-3.8792	-3.825	-4.4875	-3.9375	-4.0833	-4.1312	-3.9875	-4.2896	-4.1979	-3.9562	-4.3042	-3.9042	208.778	211.292	143.869	273.093	-20.988	132.526	264.194	58.221	-70.238	101.935	121.224	280.382	-70.011	-73.594	180.865	205.159	0.00020168	5.8468e-05	6.4356e-05	1218.9	2.4242e-06	3.5718e-06	1297.4	251.2	1.3899e-06	8.2495e-07	314.2	87.652	69.151	20.012	1.4379e-06	27.987	0.00012871	0.0001171	3.0185e-05	1075	1.3765e-06	1.2742e-06	1145.1	222.14	1.3748e-06	1.2635e-06	266.16	76.132	59.372	17.639	1.1506e-06	24.23	233.822	194.423	-65.874	-64.592	57.573	89.437	-64.567	-57.600	66.078	-0.363	-57.691	-50.808	-50.585	-44.171	72.412	-44.541	-8191	255	
1203.787	1	1	0	0	0.028588	0.31741	0.26707	0.20831	0.17826	0.061947	0.12159	0.17814	0.043144	0.11724	0.162	0.098407	0.15356	0.052721	0.029439	0.22747	-3.8833	-4.425	-3.7938	-4.5229	-4.2188	-3.9583	-4.5792	-3.975	-4.0354	-4.325	-3.7625	-4.5333	-4.2271	-4.0708	-4.2625	-3.9729	21.568	176.753	-40.792	-49.079	122.090	118.601	-44.232	129.670	227.901	-56.936	241.886	-45.946	262.721	-39.735	-40.777	134.694	1.6165e-05	0.00012342	0.00010042	1222.1	4.0307e-06	2.1921e-06	1288.5	250.33	3.1663e-06	1.0979e-06	313.19	88.161	69.372	19.839	1.0974e-06	28.08	0.00012289	0.0001137	2.9139e-05	1076.8	1.3421e-06	1.2387e-06	1142.2	222.32	1.3384e-06	1.2231e-06	265.49	76.527	59.297	17.535	1.1691e-06	24.323	-74.613	-31.617	257.816	-64.580	61.854	-29.879	-64.453	-57.326	-25.861	-11.727	-57.934	-51.127	-50.668	-44.176	0.384	-44.442	-8191	255	
1203.883	1	1	0	0	0.11475	0.34256	0.053847	0.24203	0.034576	0.13039	0.027252	0.26742	0.20147	0.1556	0.15019	0.019895	0.26336	0.11462	0.25589	0.077781	-3.8792	-4.3979	-3.9104	-4.2729	-4.1312	-3.7854	-4.3646	-4.0729	-4.1875	-4.3646	-4.0354	-4.2792	-4.0458	-3.85	-4.3438	-3.9688	154.986	34.497	242.129	189.668	9.086	-50.308	123.643	-48.730	105.753	100.026	159.192	131.659	58.313	-18.441	31.799	159.384	0.00016846	0.0001242	6.9303e-05	1218.8	2.8463e-06	2.0764e-07	1287.8	249.91	9.2753e-07	1.9755e-06	315.48	87.712	69.314	19.911	1.1297e-06	28.052	0.0001199	0.00011106	3.01e-05	1075.3	1.301e-06	1.1996e-06	1142.9	222.57	1.2813e-06	1.1713e-06	266.4	76.398	58.838	17.428	1.2049e-06	24.27	229.828	3.104	-15.193	-64.516	34.461	168.780	-64.416	-57.255	154.581	49.660	-58.005	-51.087	-50.283	-44.144	112.541	-44.804	-8191	255	
1203.979	1	1	0	0	0.24524	0.06601	0.10715	0.26573	0.25269	0.029498	0.2133	0.23063	0.219	0.062167	0.33786	0.18582	0.055102	0.012073	0.099621	0.23356	-3.7167	-4.3812	-3.8708	-4.2438	-4.2083	-3.7167	-4.2625	-4.1312	-3.9313	-4.3417	-3.9646	-4.0646	-4.3854	-4.0437	-4.2229	-4.0854	-19.465	-28.427	95.172	253.092	8.173	272.297	213.457	225.147	172.206	150.723	253.993	2.966	-58.030	-37.030	175.971	225.263	9.9366e-05	0.00025725	9.7849e-05	1217.7	3.6402e-06	2.0958e-06	1287.8	249.39	8.4729e-07	2.8761e-07	311.71	87.872	69.157	19.984	2.361e-06	27.982	0.00011341	0.00010363	3.0658e-05	1072.2	1.2069e-06	1.1229e-06	1139.2	221.19	1.1934e-06	1.1e-06	265.14	75.835	58.418	17.327	1.2426e-06	24.046	220.466	283.843	52.424	-64.600	51.512	-23.091	-64.583	-57.371	248.347	130.311	-57.705	-50.906	-50.724	-43.903	70.485	-44.462	-8191	255	
1204.100	1	1	0	0	0.18553	0.24014	0.22827	0.34156	0.03833	0.11149	0.18135	0.13036	0.15846	0.26906	0.10575	0.15557	0.06739	0.055246	0.16728	0.28917	-3.4	-4.3333	-3.7438	-4.3354	-4.3417	-3.9042	-4.5583	-4.1792	-3.8667	-4.25	-4.0979	-4.1542	-4.2333	-3.9208	-4.1604	-4.4292	45.478	-67.056	239.167	250.393	-25.629	157.527	223.977	229.729	96.543	56.644	-60.147	243.894	188.393	206.175	39.061	218.703	0.00012553	0.00017276	2.0472e-05	1211.5	2.9602e-06	7.841e-07	1284.4	248.55	1.8474e-06	2.0514e-06	311.74	87.578	68.725	19.877	1.7617e-06	28.034	0.00010807	0.00010032	3.1748e-05	1067.3	1.1738e-06	1.1109e-06	1138.8	220.04	1.1699e-06	1.1261e-06	266.31	75.661	58.26	17.359	1.3049e-06	24.079	-25.740	275.200	84.175	-64.719	-30.198	67.909	-64.602	-57.494	180.224	38.209	-57.696	-51.088	-50.864	-44.028	77.635	-44.434	-8191	255	
1204.172	1	1	0	0	0.087636	0.042222	0.21496	0.17079	0.043327	0.2026	0.077458	0.24755	0.041128	0.19878	0.069726	0.14469	0.28137	0.11719	0.17192	0.15736	-3.4646	-4.3333	-4.0062	-4.0917	-4.2312	-3.6625	-4.2	-3.8646	-3.75	-4.2229	-3.8771	-4.0354	-4.275	-4.1729	-4.1833	-4.35	276.978	158.552	-3.761	154.208	125.447	-10.823	193.283	171.187	44.393	-64.272	-73.078	73.706	-33.566	210.428	102.078	122.794	8.4262e-05	0.0001324	5.7155e-06	1210.4	1.4922e-06	2.987e-06	1284.7	249.13	2.0069e-06	9.3142e-07	313.04	86.934	68.502	19.683	2.6452e-06	27.947	0.00010697	0.00010528	3.3048e-05	1065.7	1.152e-06	1.1616e-06	1140.6	219.77	1.1429e-06	1.1874e-06	266.51	75.291	58.046	17.422	1.2885e-06	23.917	-70.876	241.782	180.816	-64.449	31.465	40.649	-64.309	-57.184	-44.102	52.216	-57.592	-50.757	-50.690	-43.987	83.476	-44.593	-8191	255	
1204.268	1	1	0	0	0.18188	0.29666	0.081536	0.12744	0.23116	0.061704	0.2132	0.1672	0.13721	0.14522	0.079114	0.10528	0.13016	0.19477	0.21217	0.12016	-3.3396	-4.4083	-4.0875	-4.1458	-4.3854	-3.9646	-4.3875	-4.3333	-3.9229	-4.0667	-3.9771	-3.85	-4.3083	-3.9458	-4.0437	-4.3688	-29.585	204.602	7.430	252.132	68.075	142.616	190.887	180.068	-61.951	129.807	-71.084	-73.226	123.201	-6.776	9.559	239.230	0.00016697	0.00033335	6.4461e-05	1211.3	1.5099e-06	2.7098e-06	1278.8	249.04	7.6092e-07	6.3823e-07	312.65	87.5	68.709	19.78	1.2086e-06	28.049	0.00010299	0.00011037	3.2256e-05	1064.9	1.1184e-06	1.2326e-06	1136.8	219.25	1.1174e-06	1.2668e-06	265.76	75.279	57.967	17.556	1.2627e-06	23.918	283.562	-48.098	-58.634	-64.471	23.414	2.784	-64.368	-57.407	265.007	197.043	-57.592	-50.962	-50.422	-44.285	-26.881	-44.680	-8191	255	
1204.364	1	1	0	0	0.21871	0.022783	0.15179	0.25775	0.13414	0.083989	0.26369	0.25371	0.15636	0.20077	0.11726	0.15305	0.079162	0.0082417	0.094222	0.29312	-3.675	-4.2458	-4.0312	-3.9354	-4.2167	-4.0042	-4.1729	-4.3292	-3.8208	-4.225	-4.3604	-3.9	-4.3438	-3.9958	-4.0208	-4.4542	42.456	222.843	130.520	226.158	254.376	186.220	224.766	158.890	57.108	172.923	231.453	58.169	205.192	-72.760	7.522	259.094	0.00027682	0.00030358	7.731e-05	1209.9	5.6186e-08	5.8104e-07	1281.1	247.86	5.4761e-07	3.5811e-07	312.56	87.139	69.225	19.833	2.782e-06	28.075	0.00010362	0.00011788	3.2209e-05	1064.9	1.1421e-06	1.3122e-06	1137	219.22	1.1638e-06	1.3167e-06	265.02	75.116	58.265	17.588	1.2386e-06	23.883	-74.330	-33.437	-52.843	-64.595	54.866	149.889	-64.449	-57.453	201.562	87.481	-57.867	-50.796	-51.148	-44.391	50.941	-44.904	-8191	255	
1204.483	1	1	0	0	0.081526	0.25729	0.22916	0.15897	0.17805	0.17463	0.12811	0.045229	0.16711	0.026111	0.13695	0.13199	0.23264	0.047811	0.1704	0.18017	-3.5021	-4.2542	-4.0646	-3.975	-4.1021	-3.9896	-4.0042	-4.3979	-3.8458	-4.0896	-4.2396	-3.7938	-4.3562	-4.2146	-3.85	-4.3938	-69.027	-57.278	-5.444	194.180	31.357	26.354	77.502	83.437	242.951	-1.578	280.599	-71.850	108.406	-34.650	180.939	191.857	0.00010709	0.00040576	7.7707e-05	1209	1.3588e-06	7.3906e-07	1283	247.64	2.4033e-06	3.6175e-06	312.23	87.219	68.451	19.812	2.5486e-06	28.036	0.00010992	0.00012202	3.1192e-05	1061.4	1.2106e-06	1.3323e-06	1136.1	218.44	1.21e-06	1.3097e-06	265.08	75.004	58.328	17.591	1.2019e-06	23.765	-34.673	-48.148	240.889	-64.449	113.429	-7.239	-64.609	-57.200	-66.181	21.049	-57.828	-50.558	-50.666	-44.372	-63.114	-44.688	-8191	255	
1204.579	1	1	0	0	0.18198	0.080754	0.071625	0.10297	0.14922	0.19616	0.24818	0.24569	0.20076	0.091517	0.099345	0.20102	0.16348	0.20997	0.16638	0.11381	-3.7646	-4.0646	-4.3938	-4.05	-4.3875	-4.0875	-4.1167	-4.5208	-3.9542	-4.1	-4.5833	-4.0271	-4.2417	-4.0896	-3.8729	-4.4917	-74.253	-74.650	258.774	260.846	100.367	-34.588	233.283	242.584	-51.452	262.743	-48.028	235.266	-31.292	-24.484	196.262	182.283	0.00012256	0.00021442	5.1466e-05	1211	1.8304e-06	3.978e-06	1282	248.48	1.6535e-06	1.9244e-06	311.46	86.987	68.445	19.886	1.9749e-06	28.03	0.00011483	0.0001178	3.0378e-05	1061.2	1.275e-06	1.2832e-06	1135.5	218.63	1.3031e-06	1.2875e-06	263.98	74.911	58.73	17.584	1.1888e-06	23.847	34.554	123.288	78.584	-64.591	46.293	18.040	-64.291	-57.224	164.770	41.340	-57.784	-50.991	-50.387	-44.051	32.947	-44.342	-8191	255	
1204.675	1	1	0	0	0.1007	0.19204	0.1228	0.28697	0.048305	0.010066	0.17709	0.20652	0.025118	0.10506	0.012876	0.19478	0.19252	0.21533	0.086452	0.0095026	-3.5979	-4.0188	-4.4354	-4.2562	-4.1417	-3.9854	-3.9917	-4.4021	-3.8563	-4.0667	-4.5729	-3.9583	-4.2271	-4.15	-3.8521	-4.1917	232.611	1.562	270.609	212.831	-56.953	-9.974	276.063	-47.929	50.355	252.529	14.491	-66.111	-22.259	-40.154	-22.400	216.100	0.00022418	0.00011085	0.00012444	1210.8	1.3492e-06	4.1939e-06	1283.2	248.3	2.8495e-06	3.9231e-06	311.68	87.259	68.536	19.811	1.7897e-06	28.148	0.00012142	0.00011656	2.9959e-05	1064.6	1.3468e-06	1.2569e-06	1134.7	219.17	1.3449e-06	1.249e-06	263.73	75.223	58.862	17.508	1.1407e-06	23.963	-51.357	273.921	-67.402	-64.634	44.420	11.062	-64.440	-57.504	52.600	13.984	-57.897	-50.787	-50.498	-44.135	8.901	-44.413	-8191	255	
1204.771	1	1	0	0	0.32602	0.19508	0.15268	0.18163	0.23525	0.052355	0.21439	0.10612	0.14196	0.057072	0.070435	0.24989	0.24004	0.081232	0.30768	0.18731	-3.6688	-4.0125	-4.2875	-4.1583	-4.1062	-3.9667	-3.8854	-4.3646	-3.8937	-3.8792	-4.5375	-3.925	-4.1729	-4.1	-3.8521	-4.1562	215.927	141.024	-45.621	-45.984	99.701	140.648	154.113	190.801	168.413	219.271	42.020	251.891	239.078	-70.128	242.253	-54.938	0.00013373	0.00024533	1.8494e-05	1213	2.414e-06	3.9908e-06	1281.8	248.33	5.1689e-07	5.5282e-06	311.16	86.977	68.793	19.819	4.116e-06	27.947	0.00011967	0.00011103	2.8277e-05	1063.6	1.3228e-06	1.2039e-06	1133.9	219.42	1.31e-06	1.2074e-06	263.27	75.584	58.791	17.439	1.1125e-06	24.056	-2.589	0.676	9.343	-64.579	-46.361	11.583	-64.361	-57.583	39.553	43.923	-57.798	-50.773	-51.041	-44.062	-3.922	-44.448	-8191	255	
1204.867	1	1	0	0	0.17131	0.051191	0.12529	0.28184	0.24611	0.021839	0.3283	0.084874	0.079827	0.058098	0.28553	0.22233	0.3971	0.074942	0.083386	0.1306	-3.7021	-3.8125	-4.3562	-4.1646	-4.025	-4.3854	-4.1021	-4.2854	-4.2	-4.0333	-4.5563	-4.0042	-3.8208	-4.2042	-3.825	-4.3562	43.418	136.459	-54.576	237.875	-41.354	267.875	263.120	166.013	70.671	193.081	256.214	281.182	-7.041	-29.979	37.035	273.716	0.00022684	0.00018544	8.0757e-05	1209.8	2.7181e-06	1.9088e-06	1280.2	247.79	3.6897e-06	1.3281e-06	310.78	86.552	68.957	19.813	7.0181e-07	27.966	0.00011885	0.00010918	2.8247e-05	1065.2	1.2934e-06	1.1855e-06	1132.8	220.5	1.2928e-06	1.1892e-06	263.9	75.751	58.826	17.434	1.146e-06	24.247	-53.707	9.579	-60.393	-64.620	42.404	7.639	-64.373	-57.265	60.049	104.351	-57.589	-50.943	-50.643	-44.188	-7.894	-44.513	-8191	255	
1204.963	1	1	0	0	0.070204	0.070893	0.16693	0.1606	0.07092	0.077971	0.37302	0.044705	0.14273	0.10219	0.14455	0.06597	0.077814	0.15787	0.045556	0.082204	-3.9188	-3.8521	-4.0708	-4.0542	-3.7458	-4.3688	-4.1375	-4.4271	-4.3146	-3.9146	-4.3333	-4.1792	-3.9771	-4.4646	-4.0125	-4.2188	-59.092	226.607	-6.010	274.171	126.295	206.129	237.988	-21.066	145.350	72.729	272.302	142.585	204.983	-51.128	-25.579	134.394	0.00019679	0.00026482	7.6997e-05	1207.9	2.8571e-06	3.4186e-06	1281.5	247.57	3.8664e-07	2.8769e-06	312.37	86.902	68.686	19.714	1.8682e-06	27.923	0.00011743	0.0001087	2.9777e-05	1068	1.2676e-06	1.1746e-06	1135.3	220.42	1.2527e-06	1.1651e-06	264.74	75.858	58.447	17.356	1.2068e-06	24.222	-72.052	-45.633	119.110	-64.588	-45.823	-0.109	-64.311	-57.377	35.195	-6.306	-57.669	-50.933	-50.557	-44.194	158.481	-44.617	-8191	255	
1205.084	1	1	0	0	0.021425	0.094732	0.19	0.18659	0.098695	0.13714	0.079611	0.32328	0.093469	0.1443	0.11165	0.11863	0.20742	0.27743	0.10454	0.15821	-3.9958	-3.8083	-4.3354	-3.8792	-3.7771	-4.225	-4.0583	-4.35	-4.2646	-3.8417	-4.3938	-4.1146	-3.7687	-4.3438	-3.7875	-4.0917	274.305	-53.151	-6.805	-57.366	230.300	256.426	-34.794	256.487	40.747	32.943	226.988	155.933	-8.470	278.798	227.884	116.015	0.00012489	5.8953e-05	2.0719e-05	1212.5	1.8325e-06	1.4347e-06	1282.9	248.16	1.3468e-06	5.2526e-07	310.97	87.187	68.504	19.744	2.886e-06	28.032	0.00011316	0.0001039	3.1087e-05	1068	1.2318e-06	1.1349e-06	1136.7	220.5	1.2115e-06	1.1186e-06	265.24	75.844	58.351	17.304	1.2565e-06	24.132	-4.613	241.877	-43.415	-64.756	154.344	57.281	-64.517	-57.325	13.070	42.115	-57.827	-50.971	-50.483	-44.093	215.479	-44.466	-8191	255	
1205.180	1	1	0	0	0.1945	0.081589	0.27881	0.05944	0.21137	0.088595	0.25651	0.17045	0.14507	0.19574	0.16749	0.21823	0.34128	0.20365	0.10007	0.050502	-4.0646	-3.8833	-4.1375	-4.2167	-3.7854	-4.1312	-4.0437	-4.1438	-4.4979	-3.9313	-4.2604	-4.1	-3.8812	-4.1417	-3.8167	-3.9729	203.946	202.290	-47.249	197.835	-67.318	73.105	213.480	148.980	98.953	122.248	188.093	29.781	12.421	-17.994	100.992	115.682	0.00022783	0.00017505	4.3298e-05	1210.3	2.9536e-06	9.1846e-07	1283.3	248.38	1.1127e-06	1.4488e-06	310.19	87.392	68.765	19.938	2.5631e-06	27.853	0.0001088	0.00010222	3.2259e-05	1065.1	1.1876e-06	1.1255e-06	1137.2	219.64	1.1701e-06	1.1205e-06	266.25	75.522	58.143	17.394	1.2905e-06	24.027	-57.753	69.966	32.308	-64.688	41.034	59.086	-64.509	-57.343	-7.234	68.037	-57.815	-50.914	-50.735	-44.067	-60.965	-44.667	-8191	255	
1205.276	1	1	0	0	0.13318	0.10505	0.10177	0.17939	0.21088	0.14119	0.023604	0.11291	0.16812	0.10207	0.080362	0.22464	0.14559	0.089167	0.15033	0.12623	-4.1396	-3.975	-4.0583	-4.1937	-3.7833	-4.1917	-4.15	-3.8354	-4.2396	-3.9417	-4.0292	-4.0813	-3.7396	-4.1417	-3.9271	-3.5938	1.138	217.816	71.054	190.658	-60.905	100.320	211.857	241.590	194.239	47.451	14.484	212.880	200.239	264.686	146.666	-72.932	7.0719e-05	0.00026749	1.0316e-05	1206.9	1.3504e-06	6.2667e-07	1277.1	247.69	3.4896e-06	1.5182e-06	311.5	87.31	69.144	19.82	1.8347e-06	27.977	0.00010568	0.00010552	3.2841e-05	1063.4	1.1459e-06	1.1682e-06	1135.5	219.27	1.1301e-06	1.1829e-06	265.49	75.2	58.155	17.462	1.2772e-06	23.893	268.074	173.257	128.997	-64.529	67.727	54.046	-64.226	-57.468	20.458	147.400	-57.436	-50.951	-50.575	-44.399	167.022	-44.648	-8191	255	
1205.395	1	1	0	0	0.15223	0.14782	0.16341	0.18231	0.096413	0.13941	0.20788	0.062086	0.21593	0.16558	0.27769	0.20042	0.11404	0.16311	0.06071	0.19613	-3.8438	-3.6042	-4.0083	-4.1438	-3.7042	-4.1062	-4.2312	-3.9417	-4.1687	-3.8854	-3.925	-4.1958	-3.7562	-4.2792	-4.0604	-3.8875	3.649	128.581	283.396	-21.676	59.668	183.350	147.641	-40.494	189.736	79.571	271.297	204.638	253.328	98.948	144.194	222.157	0.00014045	0.00014647	2.7319e-05	1208.2	3.4887e-06	1.6447e-06	1279.5	248.52	1.0133e-07	4.5274e-07	312.25	87.215	68.828	19.783	2.1402e-06	28.159	0.00010265	0.00011169	3.2103e-05	1062.2	1.1177e-06	1.2358e-06	1135.5	218.88	1.1102e-06	1.2528e-06	265.38	75.25	57.904	17.574	1.2357e-06	23.885	235.341	-8.175	-71.795	-64.584	-18.206	263.803	-64.536	-57.338	-43.599	190.271	-57.628	-50.935	-50.597	-43.935	-38.485	-44.711	-8191	255	
1205.467	1	1	0	0	0.17295	0.12984	0.11651	0.11195	0.14462	0.086797	0.2345	0.17393	0.15436	0.085444	0.10584	0.11899	0.38485	0.12793	0.30735	0.077818	-4.0208	-3.9146	-4.0021	-4.2521	-3.8083	-4.1208	-4.2312	-4.15	-4.2958	-4.1646	-4.1833	-4.3625	-3.9333	-4.275	-4.2604	-3.9667	11.103	125.621	207.487	262.164	81.515	148.690	188.161	279.594	265.026	183.274	168.919	136.828	-38.353	72.138	-56.526	100.984	0.00019383	0.00015553	3.0324e-05	1208.6	3.0292e-06	3.427e-06	1281.4	247.93	1.4526e-06	7.4177e-07	311.47	87.286	68.818	19.87	2.0646e-06	27.944	0.0001026	0.00011677	3.1321e-05	1062.2	1.1402e-06	1.3024e-06	1136.2	218.81	1.1459e-06	1.3036e-06	264.84	75.08	58.182	17.634	1.2102e-06	23.821	268.544	1.718	200.432	-64.713	80.008	-21.920	-64.548	-57.570	260.343	198.577	-57.872	-50.907	-50.548	-44.136	-13.219	-44.916	-8191	255	
1205.563	1	1	0	0	0.14913	0.19354	0.15857	0.15975	0.046446	0.29902	0.054888	0.14963	0.12853	0.22392	0.11426	0.10362	0.14148	0.17714	0.14685	0.17304	-3.9313	-3.9625	-3.8187	-4.3979	-3.8771	-4.1271	-4.1875	-3.7146	-4.1604	-4.0375	-3.8021	-4.2333	-3.9625	-4.4479	-4.2625	-3.8708	187.056	66.042	-38.841	226.591	-60.422	85.644	157.879	156.363	167.053	232.934	165.861	198.115	208.406	269.984	270.788	217.549	0.00017455	0.0002949	1.3297e-05	1209	2.4394e-06	4.5087e-06	1282.3	248.2	1.4217e-06	5.4828e-07	312.08	86.75	69.142	19.874	1.3359e-06	28.023	0.00010703	0.00011855	3.0285e-05	1059.9	1.1801e-06	1.2774e-06	1135	218.61	1.1828e-06	1.27e-06	263.94	74.831	58.453	17.568	1.1659e-06	23.771	213.000	254.366	201.274	-64.590	174.341	36.547	-64.401	-57.221	84.253	126.710	-57.519	-50.821	-50.298	-44.449	97.426	-44.555	-8191	255	
1205.659	1	1	0	0	0.090641	0.22972	0.074105	0.31529	0.16361	0.13756	0.056432	0.14759	0.30414	0.23182	0.1742	0.1813	0.21326	0.05612	0.14337	0.062361	-3.9958	-4.0896	-4.0104	-4.4792	-3.8458	-4.3187	-4.5104	-3.9813	-4.3083	-4.2667	-3.9208	-4.3688	-4.0208	-4.25	-4.3	-3.9521	-66.200	278.301	223.753	252.009	261.784	75.774	174.972	232.938	97.584	184.674	-65.116	253.750	106.633	262.391	-18.046	252.563	0.00014995	0.00029485	3.6287e-05	1205.1	6.4592e-07	3.1773e-06	1280.6	248.59	6.2427e-08	1.9255e-06	312.44	87.19	69.135	19.917	2.4041e-06	27.775	0.00011333	0.00011474	2.9358e-05	1059.2	1.245e-06	1.2517e-06	1132.7	218.54	1.2506e-06	1.2282e-06	264.12	74.965	58.652	17.522	1.1364e-06	23.71	264.740	-62.696	-18.595	-64.742	111.812	1.368	-64.505	-57.558	236.177	203.594	-57.701	-50.739	-50.555	-43.762	-43.660	-44.786	-8191	255	
1205.780	1	1	0	0	0.35351	0.33601	0.075905	0.024969	0.13009	0.27336	0.2578	0.15964	0.031176	0.11601	0.067069	0.095527	0.020964	0.048905	0.12992	0.020018	-3.8438	-4.0875	-3.8	-4.4583	-4.0833	-3.9062	-4.2354	-4.0854	-4.0042	-4.225	-4.0396	-4.4417	-3.9479	-3.9542	-4.2854	-3.7917	80.789	-5.126	189.423	-45.125	191.345	-3.175	229.116	-56.332	261.601	73.145	-61.820	154.737	95.853	255.214	263.839	283.417	0.00025717	0.00022439	4.8868e-05	1211.6	2.0564e-06	4.6377e-06	1280.3	247.92	1.7236e-06	2.9913e-06	313.52	87.388	68.46	19.873	4.8519e-06	27.935	0.00011744	0.0001111	2.8804e-05	1061	1.293e-06	1.2256e-06	1131.6	218.66	1.3001e-06	1.1931e-06	263.64	75.239	58.722	17.5	1.094e-06	23.885	-51.975	224.130	277.399	-64.598	98.006	6.641	-64.368	-57.315	-47.070	-35.287	-57.943	-50.784	-50.487	-44.197	-29.919	-44.998	-8191	255	
1205.876	1	1	0	0	0.21933	0.23914	0.18294	0.45064	0.17115	0.23258	0.23226	0.1199	0.070084	0.21888	0.11594	0.14064	0.10169	0.10408	0.10225	0.084829	-3.6729	-4.1208	-3.8	-4.2917	-4.1375	-3.9167	-4.3854	-3.775	-4.1125	-4.1542	-3.7292	-4.3938	-3.9417	-3.8125	-4.0667	-3.9083	173.303	195.489	-1.081	246.851	-31.665	119.333	218.907	209.864	217.099	217.928	-67.339	-29.703	27.677	33.297	28.876	140.973	0.0001138	7.2724e-05	3.567e-05	1207.8	1.5895e-07	4.2108e-06	1279.1	248.23	2.8091e-06	4.1947e-06	312.06	87.487	69.017	19.911	3.6277e-06	28.016	0.00011759	0.00010773	2.7703e-05	1061.7	1.2606e-06	1.1608e-06	1131.8	219.26	1.26e-06	1.154e-06	262.8	75.532	58.74	17.406	1.0683e-06	24.066	268.085	216.309	197.250	-64.605	262.167	-30.588	-64.474	-57.412	76.279	77.268	-57.704	-50.900	-50.834	-44.426	15.172	-44.567	-8191	255	
1205.972	1	1	0	0	0.060272	0.11285	0.21228	0.085682	0.035765	0.18487	0.24984	0.11882	0.069985	0.075751	0.066923	0.099169	0.26493	0.22659	0.032792	0.11207	-3.7646	-4.2292	-3.9146	-4.2104	-3.9562	-3.8563	-4.4313	-4.0625	-4.125	-4.35	-3.925	-4.2792	-4.1333	-4.0042	-4.3854	-4.2271	160.925	53.665	201.756	212.009	162.521	-10.974	226.600	177.153	16.604	62.734	169.257	156.196	147.385	283.945	157.286	60.226	0.00010506	0.00021882	5.1568e-05	1215.2	1.6875e-06	2.9536e-06	1278.2	248.39	1.4136e-06	2.2556e-06	311.76	87.674	68.776	19.893	3.5264e-06	27.873	0.00011453	0.00010443	2.7085e-05	1066.7	1.2192e-06	1.1244e-06	1130.4	220.01	1.2162e-06	1.1225e-06	263.01	75.794	58.568	17.413	1.096e-06	24.132	-75.409	283.545	-69.809	-64.622	281.657	0.476	-64.546	-57.508	45.933	-8.469	-57.916	-50.652	-50.806	-44.479	16.025	-44.919	-8191	255	
1206.044	1	1	0	0	0.24473	0.17228	0.12446	0.088097	0.19595	0.034869	0.32003	0.30657	0.066228	0.18191	0.20706	0.13467	0.15321	0.16863	0.15479	0.036699	-3.9437	-4.2958	-3.8187	-4.1333	-4.1625	-3.9417	-4.5938	-4.0375	-4.0146	-4.4271	-3.9792	-4.2583	-4.0771	-3.6521	-4.1875	-3.8958	-47.353	247.766	267.443	264.803	-12.390	-50.573	198.243	273.215	117.553	50.358	-17.697	257.775	215.216	275.145	281.360	130.398	6.7387e-05	0.000225	5.1596e-05	1210.9	1.7088e-06	1.3166e-06	1284.5	249.19	2.6123e-06	2.9689e-06	312.19	87.905	68.882	19.793	1.2725e-06	28.233	0.00011117	0.00010174	2.8336e-05	1067.1	1.1999e-06	1.1223e-06	1134.8	220.38	1.2005e-06	1.1086e-06	263.99	75.897	58.426	17.387	1.172e-06	24.19	-11.788	-55.553	137.754	-64.652	172.953	-34.845	-64.308	-57.394	72.776	73.585	-57.769	-51.092	-50.588	-44.367	98.780	-44.627	-8191	255	
1206.164	1	1	0	0	0.047401	0.075846	0.13389	0.17508	0.12003	0.13621	0.19659	0.19878	0.11063	0.17327	0.23041	0.16547	0.1699	0.051518	0.19838	0.1746	-3.5729	-4.2354	-3.8333	-4.1708	-4.0104	-3.7333	-4.3333	-3.9792	-3.7896	-4.2479	-4.1375	-4.1917	-4.1417	-3.6521	-4.2083	-4.1479	184.166	-42.336	247.596	272.209	5.593	65.624	245.826	-69.711	69.119	102.207	-73.397	142.229	9.486	-26.423	261.517	280.868	0.00016658	0.00018825	8.1133e-05	1213.6	1.7015e-06	2.4654e-06	1281.9	247.45	3.4155e-06	4.0856e-06	310.83	87.894	68.951	19.868	8.982e-07	27.85	0.00011009	0.00010144	3.0281e-05	1067.2	1.1798e-06	1.0927e-06	1135.5	220.08	1.1921e-06	1.0916e-06	265.28	75.936	58.332	17.36	1.234e-06	24.091	79.511	-51.241	17.198	-64.607	-35.664	-62.726	-64.383	-57.240	40.114	-18.298	-57.573	-51.148	-50.596	-43.941	137.236	-44.494	-8191	255	
1206.261	1	1	0	0	0.10373	0.29875	0.11981	0.19976	0.26486	0.17182	0.3517	0.26933	0.14615	0.15084	0.11249	0.099435	0.1247	0.29414	0.089379	0.29421	-3.3979	-4.1083	-3.8458	-4.1312	-4.325	-3.9083	-4.4146	-4.2292	-3.8354	-4.2875	-4.0583	-4.1	-4.4563	-3.8563	-4.0208	-4.0813	-70.563	227.756	277.657	200.146	87.067	54.914	174.050	-27.488	92.516	47.717	-1.233	210.023	-70.707	218.115	199.540	195.444	0.00017236	0.00035895	7.0992e-05	1214.2	1.858e-06	1.5499e-06	1279.8	248.29	1.8194e-06	6.4216e-07	311.12	87.192	69.006	19.927	9.4521e-07	28.179	0.00010684	0.00010017	3.1747e-05	1066.5	1.1581e-06	1.1135e-06	1137.1	219.99	1.1452e-06	1.1085e-06	265.53	75.519	58.136	17.41	1.2729e-06	24.05	242.240	-33.011	273.832	-64.617	46.891	69.478	-64.486	-57.478	30.093	223.750	-57.538	-50.804	-50.500	-43.628	126.004	-44.461	-8191	255	
1206.357	1	1	0	0	0.1586	0.067027	0.16836	0.058384	0.17435	0.089012	0.31993	0.18964	0.22427	0.11736	0.11	0.065236	0.1617	0.2037	0.082015	0.092034	-3.5625	-4.1375	-3.9875	-4.1104	-4.3667	-3.8792	-4.1917	-4.3688	-3.8438	-4.3271	-4.1083	-4.0625	-4.3375	-4.1021	-4.0792	-4.3417	48.648	228.586	206.745	-41.540	48.992	-53.476	193.979	221.151	238.319	53.176	-58.152	263.425	126.747	264.596	-42.154	122.744	0.00025026	0.00014739	4.9623e-05	1212.7	1.1857e-06	2.5267e-06	1280.3	248.9	2.777e-06	2.1351e-06	312.66	87.445	69.016	19.818	1.7708e-06	28.16	0.00010332	0.00010404	3.19e-05	1064.6	1.1169e-06	1.1585e-06	1137.7	219.48	1.1042e-06	1.1628e-06	265.77	75.273	58.071	17.47	1.236e-06	23.966	-57.423	130.917	-17.248	-64.607	-30.590	92.039	-64.465	-57.351	50.122	138.010	-57.738	-50.940	-50.620	-44.165	-21.546	-44.610	-8191	255	
1206.476	1	1	0	0	0.040576	0.29598	0.31467	0.039619	0.1283	0.066917	0.21954	0.097778	0.097712	0.11058	0.18136	0.17312	0.06737	0.024316	0.029194	0.1802	-3.6854	-4.3979	-4.1687	-4.1896	-4.4833	-3.9604	-4.3396	-4.2979	-3.7604	-4.3479	-4.1708	-4.1708	-4.2312	-4.0333	-4.0125	-4.2083	-47.842	270.578	27.576	-26.665	235.953	172.629	180.004	277.688	-51.701	-40.441	267.832	275.866	90.314	150.207	11.258	-63.420	0.00018739	0.00016851	9.2234e-05	1209.9	2.4925e-06	1.9133e-06	1282.2	248.65	4.4046e-07	3.5582e-06	312.89	87.178	68.826	19.98	2.262e-06	28.033	9.9202e-05	0.0001092	3.1e-05	1061.9	1.0711e-06	1.1978e-06	1136.1	219.07	1.0655e-06	1.2011e-06	264.44	75.042	57.816	17.556	1.1999e-06	23.793	258.894	-55.465	232.859	-64.548	-54.221	35.555	-64.495	-57.307	-46.214	131.249	-57.621	-51.147	-50.357	-43.840	282.370	-44.705	-8191	255	
1206.572	1	1	0	0	0.19062	0.039194	0.19481	0.29791	0.17178	0.13457	0.19767	0.33201	0.13595	0.13941	0.076523	0.10591	0.2818	0.096729	0.10062	0.061	-3.3417	-4.1417	-4.0729	-3.875	-4.325	-4.0458	-4.2875	-4.4667	-3.9208	-4.3187	-4.2917	-3.9708	-4.5604	-4.0021	-3.9396	-4.3521	183.115	78.006	-29.314	-54.010	206.348	216.640	129.642	-45.417	7.624	142.905	215.419	169.568	-46.968	163.926	153.306	112.066	0.00014455	0.00026187	0.0001012	1215.2	6.87e-07	2.7084e-06	1282	248.01	7.7841e-07	4.1402e-07	312.65	87.728	69.218	19.903	1.75e-06	27.84	9.9984e-05	0.00011495	3.0454e-05	1062.6	1.1048e-06	1.2529e-06	1135.2	218.45	1.1095e-06	1.2539e-06	264.65	75.021	58.144	17.638	1.1706e-06	23.783	267.506	42.148	63.604	-64.677	108.119	-65.094	-64.285	-57.238	211.147	98.249	-57.650	-50.829	-50.311	-43.857	-21.344	-44.581	-8191	255	
1206.645	1	1	0	0	0.11274	0.34507	0.16512	0.14923	0.13564	0.067269	0.10372	0.4054	0.18571	0.10934	0.34989	0.072789	0.15278	0.20944	0.14612	0.16848	-3.3812	-3.9333	-4.0312	-3.8875	-4.2792	-3.925	-4.1167	-4.6396	-4.0062	-4.1083	-4.375	-3.8937	-4.3187	-4.2083	-3.9958	-4.4521	211.014	8.238	-72.849	259.576	12.297	174.408	-74.399	280.022	105.070	182.544	192.249	283.741	139.040	136.400	216.885	249.425	0.00029519	0.00020634	9.9585e-05	1212.3	1.7455e-06	2.8689e-06	1284.7	248.62	1.1635e-06	5.8838e-07	311.69	87.854	68.831	20.028	4.89e-07	28.381	0.00010581	0.00011594	2.9406e-05	1061.8	1.18e-06	1.2592e-06	1135.5	218.83	1.1931e-06	1.2642e-06	264.16	74.998	58.499	17.587	1.1557e-06	23.857	235.075	-29.507	-38.514	-64.723	130.464	-19.718	-64.344	-57.310	103.598	239.368	-57.765	-50.704	-50.524	-44.406	-5.099	-44.757	-8191	255	
1206.764	1	1	0	0	0.096318	0.068899	0.0098919	0.16627	0.106	0.21721	0.23898	0.35554	0.026285	0.055693	0.30094	0.12949	0.11286	0.24133	0.12934	0.19641	-3.7167	-4.1896	-4.3187	-3.9833	-4.3	-4.0667	-4.025	-4.2042	-3.7021	-4.0854	-4.2188	-3.9375	-4.3396	-4.2937	-3.8917	-4.3521	258.714	0.791	38.528	252.367	-9.881	21.780	154.608	232.505	135.360	-63.424	273.142	-11.130	86.587	-39.156	125.342	137.215	0.00019037	0.00025881	9.5297e-05	1210.8	1.2048e-06	3.4257e-07	1286	248.6	2.7449e-06	4.0046e-06	311.74	87.107	68.858	20.001	4.0612e-06	28.082	0.00011268	0.00011488	2.9242e-05	1061.8	1.2461e-06	1.2427e-06	1135.2	218.55	1.2608e-06	1.2399e-06	263.95	75.076	58.872	17.574	1.1443e-06	23.872	256.415	-20.849	235.906	-64.494	85.545	37.749	-64.361	-57.306	69.225	-20.426	-57.730	-51.114	-50.641	-44.251	-35.578	-44.328	-8191	255	
1206.860	1	1	0	0	0.14963	0.055349	0.3157	0.23549	0.11305	0.058912	0.19839	0.077857	0.084924	0.088557	0.27606	0.13864	0.17956	0.11897	0.28831	0.23297	-3.5667	-4.075	-4.3771	-4.0542	-4.2458	-4.2542	-3.9875	-4.2708	-3.9688	-3.8667	-4.3583	-3.9417	-4.1687	-4.1542	-3.7479	-4.4229	196.822	19.362	153.880	255.970	183.201	234.673	217.970	163.689	-72.640	181.039	-74.745	-73.203	-46.852	152.138	164.583	104.459	0.00020894	0.00025105	5.1679e-05	1206.1	5.01e-07	5.368e-06	1281.2	247.88	3.8532e-06	1.9975e-06	312.21	87.455	68.959	19.98	2.8175e-06	28.21	0.00011837	0.00011219	2.8991e-05	1061.6	1.3124e-06	1.2122e-06	1133.6	219.28	1.3075e-06	1.2137e-06	264.22	75.29	58.955	17.503	1.1039e-06	23.99	245.033	-62.929	284.091	-64.579	-47.479	21.746	-64.459	-57.466	169.333	66.164	-57.472	-50.844	-50.856	-44.412	-33.227	-44.883	-8191	255	
1206.956	1	1	0	0	0.15771	0.097706	0.064501	0.17153	0.11958	0.23318	0.1791	0.20055	0.16635	0.18751	0.16309	0.062807	0.18877	0.031041	0.047039	0.14853	-3.7	-3.8792	-4.2708	-3.9437	-4.0667	-4.4958	-4.2	-4.425	-4.2146	-3.9271	-4.6292	-4.1083	-4.2417	-4.3688	-3.6646	-4.2854	62.482	239.952	130.993	236.997	259.194	121.041	228.603	168.906	54.369	56.070	218.433	164.842	-8.980	-75.095	209.311	113.060	0.00012786	0.00010453	4.7819e-05	1210	2.3491e-06	1.5108e-06	1276.3	248.13	2.0651e-06	8.9474e-07	311.43	87.348	68.962	19.897	1.0722e-06	28.011	0.00011924	0.00010937	2.7932e-05	1064.8	1.287e-06	1.1765e-06	1130.8	219.76	1.2771e-06	1.1756e-06	263.47	75.694	58.847	17.485	1.092e-06	24.178	262.671	-62.952	238.031	-64.459	-22.800	213.637	-64.225	-57.305	27.523	-28.789	-57.822	-50.807	-50.930	-44.097	268.572	-44.530	-8191	255	
1207.077	1	1	0	0	0.053034	0.21581	0.22108	0.047637	0.04023	0.22352	0.19222	0.13251	0.060417	0.17007	0.21408	0.04634	0.054194	0.12499	0.21575	0.063417	-3.7188	-3.7354	-4.4625	-4.1813	-4.0917	-4.3083	-4.15	-4.4417	-4.1979	-3.9021	-4.2854	-3.975	-4.0396	-4.3313	-3.8833	-4.3604	-47.499	121.217	-29.903	247.947	43.190	-8.254	246.278	135.757	193.770	-58.019	-60.741	41.671	136.799	-66.269	155.533	261.711	9.221e-05	0.00046094	7.6949e-05	1211	1.4778e-06	2.3384e-06	1281.8	248.58	1.1292e-06	1.5479e-06	311.82	87.452	69.264	19.872	2.2851e-06	28.064	0.00011423	0.00010593	2.7438e-05	1064.4	1.2515e-06	1.1613e-06	1131.9	220.55	1.243e-06	1.159e-06	263.75	75.895	58.749	17.429	1.1188e-06	24.242	15.358	272.985	231.695	-64.559	31.752	76.336	-64.561	-57.531	110.699	24.062	-57.857	-50.820	-50.718	-43.881	135.825	-44.198	-8191	255	
1207.173	1	1	0	0	0.10389	0.09363	0.21451	0.1289	0.13138	0.097261	0.33734	0.12378	0.29974	0.26358	0.14893	0.043218	0.12638	0.064347	0.10173	0.13769	-3.8688	-4.0479	-4.25	-4.2042	-4.0208	-4.5208	-4.0646	-4.3833	-4.3688	-3.8438	-4.3667	-4.0042	-3.9229	-4.3875	-3.8187	-4.2875	97.541	254.051	234.171	133.693	81.225	32.720	238.874	231.199	76.923	38.287	214.732	217.647	265.735	-21.350	210.818	-45.297	0.00012534	0.00012913	8.1511e-05	1210.3	6.4725e-07	2.5177e-06	1278.5	249.24	3.8991e-06	1.0793e-06	312.72	87.751	69.295	19.942	1.5998e-06	28.049	0.00011105	0.00010325	2.8727e-05	1066	1.2014e-06	1.1065e-06	1131.6	221.05	1.1845e-06	1.0856e-06	264.38	75.61	58.374	17.352	1.156e-06	24.095	223.622	282.127	87.260	-64.676	7.721	19.709	-64.664	-57.272	13.943	266.854	-57.651	-50.780	-50.769	-43.851	83.687	-44.401	-8191	255	
#DATA ENDS
