BOXY.EXE: ISS Imagent and Oximeter Data Acquisition Program Version 0.80
Ascii Record File

#ACQ INFORMATION
2  Detector Channels 
16  External MUX Channels 
1  Auxiliary Channels 
5000  Waveform (CCF) Frequency (Hz)
1  Waveforms Skipped 
30  Waveforms Averaged 
1  Cycles Averaged 
16  Acquisitions per Waveform 
10.0806  Updata Rate (Hz) 

#FILE INFORMATION
TRUE -- External MUX Channel results are PARSED.
FALSE -- AC DC and Phase are NOT grouped.
TRUE -- Companion Program Settings File CREATED.
FALSE -- AC data not excluded
FALSE -- DC data not excluded
FALSE -- Phase data not excluded
FALSE -- Auxillary Chn. data not excluded
Tab delimiters

#CALIBRATION STATE
TRUE -- Waveform Calibration Values APPLIED.


#AUX CALIBRATION VALUES
Val Type	aux-1	

Term	1.0000e+00	
Factor	0.0000e+00	


#WF CALIBRATION VALUES
A = Detector Channel
Val Type	A-AC1	A-AC2	A-AC3	A-AC4	A-AC5	A-AC6	A-AC7	A-AC8	A-AC9	A-AC10	A-AC11	A-AC12	A-AC13	A-AC14	A-AC15	A-AC16	A-DC1	A-DC2	A-DC3	A-DC4	A-DC5	A-DC6	A-DC7	A-DC8	A-DC9	A-DC10	A-DC11	A-DC12	A-DC13	A-DC14	A-DC15	A-DC16	A-Ph1	A-Ph2	A-Ph3	A-Ph4	A-Ph5	A-Ph6	A-Ph7	A-Ph8	A-Ph9	A-Ph10	A-Ph11	A-Ph12	A-Ph13	A-Ph14	A-Ph15	A-Ph16	

Term	0.00000e+00	0.00000e+00	0.00000e+00	0.00000e+00	0.00000e+00	0.00000e+00	0.00000e+00	0.00000e+00	0.00000e+00	0.00000e+00	0.00000e+00	0.00000e+00	0.00000e+00	0.00000e+00	0.00000e+00	0.00000e+00	0.00000e+00	0.00000e+00	0.00000e+00	0.00000e+00	0.00000e+00	0.00000e+00	0.00000e+00	0.00000e+00	0.00000e+00	0.00000e+00	0.00000e+00	0.00000e+00	0.00000e+00	0.00000e+00	0.00000e+00	0.00000e+00	0.00000e+00	0.00000e+00	0.00000e+00	0.00000e+00	0.00000e+00	0.00000e+00	0.00000e+00	0.00000e+00	0.00000e+00	0.00000e+00	0.00000e+00	0.00000e+00	0.00000e+00	0.00000e+00	0.00000e+00	0.00000e+00	
Factor	1.00000e+00	1.00000e+00	1.00000e+00	1.00000e+00	1.00000e+00	1.00000e+00	1.00000e+00	1.00000e+00	1.00000e+00	1.00000e+00	1.00000e+00	1.00000e+00	1.00000e+00	1.00000e+00	1.00000e+00	1.00000e+00	1.00000e+00	1.00000e+00	1.00000e+00	1.00000e+00	1.00000e+00	1.00000e+00	1.00000e+00	1.00000e+00	1.00000e+00	1.00000e+00	1.00000e+00	1.00000e+00	1.00000e+00	1.00000e+00	1.00000e+00	1.00000e+00	X	X	X	X	X	X	X	X	X	X	X	X	X	X	X	X	

B = Detector Channel
Val Type	B-AC1	B-AC2	B-AC3	B-AC4	B-AC5	B-AC6	B-AC7	B-AC8	B-AC9	B-AC10	B-AC11	B-AC12	B-AC13	B-AC14	B-AC15	B-AC16	B-DC1	B-DC2	B-DC3	B-DC4	B-DC5	B-DC6	B-DC7	B-DC8	B-DC9	B-DC10	B-DC11	B-DC12	B-DC13	B-DC14	B-DC15	B-DC16	B-Ph1	B-Ph2	B-Ph3	B-Ph4	B-Ph5	B-Ph6	B-Ph7	B-Ph8	B-Ph9	B-Ph10	B-Ph11	B-Ph12	B-Ph13	B-Ph14	B-Ph15	B-Ph16	

Term	0.00000e+00	0.00000e+00	0.00000e+00	0.00000e+00	0.00000e+00	0.00000e+00	0.00000e+00	0.00000e+00	0.00000e+00	0.00000e+00	0.00000e+00	0.00000e+00	0.00000e+00	0.00000e+00	0.00000e+00	0.00000e+00	0.00000e+00	0.00000e+00	0.00000e+00	0.00000e+00	0.00000e+00	0.00000e+00	0.00000e+00	0.00000e+00	0.00000e+00	0.00000e+00	0.00000e+00	0.00000e+00	0.00000e+00	0.00000e+00	0.00000e+00	0.00000e+00	-1.87321e+01	-2.01382e+02	-2.04078e+02	-1.83917e+02	-1.28168e+02	-1.16194e+02	-1.55153e+02	-1.62015e+02	-8.71299e+01	-1.10166e+02	-1.70746e+02	-1.70338e+02	-1.84751e+02	-1.77127e+02	-1.27571e+02	-1.49891e+02	
Factor	3.21959e-05	5.86218e-05	1.70957e-05	1.85218e-01	6.38908e-07	6.61217e-07	1.79242e-01	5.85498e-02	6.28257e-07	6.32059e-07	9.41592e-02	3.29196e-02	3.35767e-02	1.04145e-02	6.48013e-07	1.48882e-02	2.48085e-07	2.48645e-07	6.85922e-08	8.06149e-02	2.73403e-09	2.72330e-09	7.40105e-02	2.49478e-02	2.74050e-09	2.72179e-09	3.69338e-02	1.28081e-02	1.29845e-02	4.14818e-03	2.70430e-09	5.58471e-03	X	X	X	X	X	X	X	X	X	X	X	X	X	X	X	X	



#DISTANCE SETTINGS
A = Detector Channel
A-1	A-2	A-3	A-4	A-5	A-6	A-7	A-8	A-9	A-10	A-11	A-12	A-13	A-14	A-15	A-16	

2.5000e+00	3.0000e+00	2.5000e+00	3.0000e+00	2.0000e+00	3.0000e+00	1.5000e+00	3.0000e+00	3.0000e+00	3.0000e+00	3.0000e+00	3.0000e+00	3.0000e+00	3.0000e+00	1.5000e+00	3.0000e+00	

B = Detector Channel
B-1	B-2	B-3	B-4	B-5	B-6	B-7	B-8	B-9	B-10	B-11	B-12	B-13	B-14	B-15	B-16	

1.0000e+01	1.0000e+01	1.0000e+01	1.4400e+00	1.0000e+01	1.0000e+01	1.5100e+00	1.9400e+00	1.0000e+01	1.0000e+01	1.9900e+00	2.4900e+00	2.4100e+00	2.9000e+00	1.0000e+01	2.9800e+00	




#DATA BEGINS
time	group	step	mark	flag	A-AC1	A-AC2	A-AC3	A-AC4	A-AC5	A-AC6	A-AC7	A-AC8	A-AC9	A-AC10	A-AC11	A-AC12	A-AC13	A-AC14	A-AC15	A-AC16	A-DC1	A-DC2	A-DC3	A-DC4	A-DC5	A-DC6	A-DC7	A-DC8	A-DC9	A-DC10	A-DC11	A-DC12	A-DC13	A-DC14	A-DC15	A-DC16	A-Ph1	A-Ph2	A-Ph3	A-Ph4	A-Ph5	A-Ph6	A-Ph7	A-Ph8	A-Ph9	A-Ph10	A-Ph11	A-Ph12	A-Ph13	A-Ph14	A-Ph15	A-Ph16	B-AC1	B-AC2	B-AC3	B-AC4	B-AC5	B-AC6	B-AC7	B-AC8	B-AC9	B-AC10	B-AC11	B-AC12	B-AC13	B-AC14	B-AC15	B-AC16	B-DC1	B-DC2	B-DC3	B-DC4	B-DC5	B-DC6	B-DC7	B-DC8	B-DC9	B-DC10	B-DC11	B-DC12	B-DC13	B-DC14	B-DC15	B-DC16	B-Ph1	B-Ph2	B-Ph3	B-Ph4	B-Ph5	B-Ph6	B-Ph7	B-Ph8	B-Ph9	B-Ph10	B-Ph11	B-Ph12	B-Ph13	B-Ph14	B-Ph15	B-Ph16	aux-1	digaux	

1286.544	1	1	0	256	0.074465	0.037472	0.16536	0.053785	0.098324	0.097496	0.24614	0.4202	0.10023	0.15033	0.29247	0.17	0.047457	0.069507	0.29305	0.19644	-3.6146	-4.1833	-4	-3.9271	-4.1896	-3.7396	-4.1542	-4.3688	-3.6458	-3.9667	-4.0646	-3.9396	-4.1958	-3.9521	-3.8542	-4.4021	24.835	48.162	-41.178	265.908	158.163	-63.161	271.862	235.128	143.104	53.100	79.180	14.335	15.768	265.386	-71.174	242.596	0.00012145	8.5332e-05	4.4173e-05	1182.7	1.8612e-06	1.7998e-06	1254.8	243.54	2.1607e-06	9.3478e-07	305.79	86.489	67.596	19.729	2.5527e-06	28.091	6.0028e-05	6.5632e-05	1.8276e-05	1023.7	6.3993e-07	7.1833e-07	1098.4	210.07	6.301e-07	7.1525e-07	253.23	71.954	54.84	16.581	6.6045e-07	22.737	237.711	-57.472	8.783	-64.286	244.309	-38.219	-64.265	-56.994	72.904	87.991	-57.334	-50.752	-50.360	-43.877	19.583	-44.201	-8191	255	
1286.665	1	1	0	0	0.052595	0.15968	0.13408	0.069953	0.10271	0.11902	0.11699	0.049871	0.12571	0.17804	0.086715	0.092622	0.11258	0.11626	0.27655	0.28428	-3.4521	-4.1854	-4.0813	-3.7667	-4.0813	-4.0062	-3.9313	-4.3812	-3.8375	-4.0188	-4.0354	-3.8542	-4.1875	-4.0104	-3.7854	-4.4917	-54.795	175.557	219.431	175.114	183.367	251.731	134.153	179.098	121.772	257.245	-36.752	191.411	272.166	195.953	-47.474	81.798	0.00018645	0.00013492	5.5641e-05	1168.3	3.9433e-08	2.6747e-06	1240.5	240.48	9.182e-07	4.7261e-07	304.96	85.881	67.549	19.649	2.9704e-06	27.986	5.6527e-05	6.2513e-05	1.589e-05	1009.4	5.9764e-07	6.689e-07	1080.7	207.54	5.9054e-07	6.6984e-07	250.32	71.014	54.472	16.522	5.9776e-07	22.656	259.814	-17.467	-63.638	-64.284	174.352	51.018	-64.101	-57.011	106.264	168.767	-57.432	-50.641	-50.180	-43.412	13.902	-44.467	-8191	255	
1286.737	1	1	0	0	0.19993	0.13882	0.081924	0.080366	0.086942	0.15003	0.11533	0.01421	0.021478	0.16542	0.19294	0.051763	0.13991	0.012392	0.23299	0.17879	-3.4688	-3.9458	-4.3083	-4.0125	-3.9896	-4.0375	-4.0625	-4.4771	-3.6146	-4.1458	-4.3125	-3.7979	-4.3417	-3.8438	-3.7646	-4.3583	-68.987	236.092	26.753	265.152	284.196	245.060	234.441	167.265	8.915	35.794	-64.603	-68.010	-5.674	102.689	131.180	225.197	0.00015124	0.00022362	6.5563e-05	1168.1	1.6046e-06	2.3716e-06	1240.9	241.89	1.4982e-06	4.2893e-06	305.65	86.276	68.115	19.794	9.5758e-07	28.228	5.7566e-05	6.0136e-05	1.5126e-05	1007.6	6.272e-07	6.49e-07	1084.2	208.61	6.2811e-07	6.2842e-07	251.5	71.585	54.927	16.518	5.5076e-07	22.696	256.343	254.470	-11.039	-64.210	88.121	274.343	-64.049	-57.061	281.629	-7.486	-57.318	-50.674	-50.064	-43.719	34.520	-44.281	-8191	255	
1286.833	1	1	0	0	0.042992	0.047135	0.080878	0.12922	0.11135	0.025684	0.077683	0.17747	0.24458	0.22235	0.10118	0.099596	0.079047	0.17237	0.069858	0.043887	-3.5	-3.8979	-4.1729	-3.9813	-4.0312	-3.9542	-3.9354	-4.4396	-3.9646	-3.875	-4.3708	-3.9729	-4.0229	-4.1813	-3.8646	-4.1292	169.362	260.761	-24.199	-11.175	170.182	189.120	277.601	206.122	117.829	5.637	263.109	102.398	11.214	16.725	173.210	226.608	0.00016702	0.00019758	7.4112e-05	1166.5	1.4356e-06	2.2775e-06	1237.8	242.9	1.2613e-06	2.0985e-06	305.46	86.328	67.759	19.827	2.9648e-06	27.957	5.573e-05	5.3852e-05	1.3469e-05	1005.7	6.0907e-07	5.871e-07	1080.1	208.75	6.4048e-07	6.012e-07	250.5	71.482	54.893	16.468	5.6963e-07	22.723	274.081	-20.886	277.357	-64.203	117.464	55.629	-64.235	-57.222	-20.050	-1.029	-57.237	-50.677	-50.376	-43.895	10.417	-44.245	-8191	255	
1286.929	1	1	0	0	0.44133	0.02665	0.12309	0.21036	0.12839	0.29379	0.15909	0.193	0.1143	0.10657	0.10581	0.20803	0.28092	0.11518	0.023801	0.13374	-3.5583	-3.9958	-4.175	-3.9813	-3.9271	-4.2	-3.9292	-4.2979	-3.8854	-3.8521	-4.1729	-3.8521	-4.1583	-4.0271	-3.7333	-4.3375	4.374	178.632	-37.865	186.443	68.453	72.203	27.504	25.477	-50.853	119.859	246.344	175.308	207.677	233.219	-60.662	-28.488	0.00010509	0.00030217	9.2831e-06	1175.8	1.2542e-06	8.0349e-07	1253.2	245.07	1.2542e-06	4.1423e-06	308.1	86.182	67.986	19.742	1.4044e-06	28.423	6.3658e-05	5.8028e-05	1.5109e-05	1017.1	7.1971e-07	6.5698e-07	1093.2	211.46	7.5364e-07	6.8975e-07	253.99	72.501	55.896	16.706	6.4999e-07	23.212	223.453	270.894	-70.706	-64.224	126.694	257.398	-64.013	-57.061	212.667	41.557	-57.629	-50.533	-50.170	-44.081	5.133	-44.125	-8191	255	
1287.048	1	1	0	0	0.067127	0.14444	0.37885	0.32619	0.068894	0.21168	0.40122	0.19419	0.12794	0.22186	0.19887	0.1454	0.12414	0.12461	0.16081	0.13317	-3.6667	-3.8958	-4.1542	-3.8042	-3.9792	-4.3208	-3.9437	-4.2521	-4.1146	-3.9104	-4.2417	-3.8688	-4.0833	-4.2042	-3.7229	-4.0792	253.128	-12.674	118.465	190.220	72.418	-68.184	192.354	276.967	88.854	-68.492	-68.248	76.517	204.498	135.916	239.172	263.505	0.00011196	0.00010432	3.1893e-05	1191.8	1.5822e-06	1.5186e-06	1267.6	246.81	9.1335e-07	1.7958e-06	311.69	87.148	68.677	20.032	1.5565e-06	28.501	7.1026e-05	6.2596e-05	1.6075e-05	1034.8	7.3887e-07	6.6838e-07	1105.8	213.54	7.2279e-07	6.5194e-07	255.73	73.124	56.04	16.809	6.5291e-07	23.449	-64.712	-24.600	253.302	-64.412	74.405	-13.852	-64.194	-56.976	238.275	49.143	-57.765	-50.563	-50.693	-43.859	-7.868	-44.739	-8191	255	
1287.144	1	1	0	0	0.20003	0.11551	0.17112	0.19989	0.19279	0.068529	0.16003	0.0491	0.17505	0.21614	0.040831	0.26931	0.32618	0.18354	0.18203	0.27918	-3.8521	-3.6917	-4.225	-4.2604	-3.8292	-4.1854	-4.0125	-4.1667	-3.9833	-3.7417	-4.4021	-3.9708	-3.9021	-4.2896	-3.8812	-4.0646	144.688	246.955	268.446	221.362	70.451	52.170	245.422	262.662	-21.181	1.673	64.209	208.620	238.758	-65.303	86.977	280.796	9.6113e-05	0.00024958	2.1421e-05	1210.9	2.0369e-06	2.1923e-06	1284.4	249.35	2.5897e-06	1.667e-06	313.6	87.746	69.673	20.165	2.3633e-06	28.751	6.8307e-05	6.2348e-05	1.6786e-05	1050	7.4691e-07	6.787e-07	1122.2	216.5	7.2936e-07	6.6623e-07	258.26	73.712	56.507	16.88	6.7132e-07	23.554	-5.508	-41.602	124.836	-64.366	-19.356	-31.129	-64.170	-57.247	17.070	39.983	-57.331	-50.885	-50.296	-43.706	179.563	-44.056	-8191	255	
1287.240	1	1	0	0	0.053579	0.07847	0.20384	0.10528	0.06686	0.18364	0.2333	0.23842	0.11503	0.087678	0.098186	0.15784	0.19173	0.13963	0.16626	0.14815	-3.5854	-3.7417	-4.2271	-4.0146	-3.6521	-4.4062	-4.0396	-4.1333	-3.9979	-3.7479	-4.2667	-4.0437	-3.9521	-4.3229	-3.9333	-4.0979	270.853	236.053	110.537	-64.432	61.083	34.514	-65.851	156.989	31.332	32.131	266.834	-0.924	-65.764	253.206	-31.723	56.734	0.0001403	0.00019311	1.3152e-05	1212.4	6.3357e-07	1.6288e-06	1282.5	250.5	1.4559e-06	8.038e-07	314.01	88.035	69.802	20.176	2.4499e-06	28.431	6.2686e-05	5.681e-05	1.677e-05	1048.9	6.5894e-07	6.034e-07	1121.7	215.98	6.4118e-07	5.9841e-07	258.25	73.601	56.175	16.84	6.7784e-07	23.37	-47.791	269.894	190.236	-64.424	50.145	110.449	-64.135	-57.146	26.053	207.661	-57.623	-50.479	-50.242	-44.059	34.693	-44.400	-8191	255	
1287.336	1	1	0	0	0.14702	0.077742	0.29984	0.30408	0.21496	0.18283	0.22135	0.064406	0.089286	0.13276	0.086027	0.23254	0.077343	0.11705	0.20924	0.090612	-3.9521	-3.8458	-4.0771	-4.3083	-3.7917	-4.3021	-3.8854	-4.2396	-4.225	-3.8458	-4.4896	-4.0792	-3.75	-4.4812	-4.0292	-3.8521	113.151	249.348	70.040	229.215	2.218	-17.677	215.673	-31.308	-5.607	41.748	28.636	220.270	-25.380	-19.907	283.963	230.007	0.00013886	0.00018632	4.1616e-05	1204.2	1.9253e-06	1.2556e-06	1278.8	249.71	1.946e-06	7.2839e-07	314.23	88.031	69.451	20.144	1.4172e-06	28.704	5.9e-05	5.4523e-05	1.7396e-05	1044.3	6.4039e-07	6.0211e-07	1120.1	216.19	6.3999e-07	6.1955e-07	259.48	73.495	56.232	16.883	7.4409e-07	23.395	254.225	-49.912	11.731	-64.386	33.900	151.922	-63.941	-57.151	57.525	114.758	-57.356	-50.871	-50.475	-44.317	120.246	-44.288	-8191	255	
1287.432	1	1	0	0	0.069625	0.10469	0.16425	0.20044	0.22863	0.13716	0.22919	0.22772	0.093515	0.067224	0.21372	0.14812	0.12029	0.36973	0.18528	0.051157	-3.9792	-3.9083	-4.125	-4.3271	-3.6292	-4.2896	-4.1375	-4.1062	-4.2562	-3.8792	-4.1854	-4.3125	-3.6625	-4.2937	-4.025	-4.05	211.605	176.855	87.374	278.472	284.570	193.520	225.655	274.345	-29.043	72.996	-48.054	148.835	208.756	-64.831	156.087	253.983	0.00013622	0.00011166	4.7067e-05	1202.9	9.33e-07	4.6965e-07	1279.3	249.32	1.0363e-06	1.1777e-06	313.1	88.02	69.414	20.053	1.8599e-06	28.388	6.019e-05	5.991e-05	1.885e-05	1044.5	6.3908e-07	6.5239e-07	1118.7	215.3	6.1637e-07	6.4882e-07	257.75	73.148	55.784	16.817	6.9667e-07	23.178	-61.422	-4.234	0.025	-64.206	-6.966	55.427	-64.313	-57.236	21.026	1.711	-57.842	-50.914	-50.537	-43.444	-48.472	-44.108	-8191	255	
1287.529	1	1	0	0	0.2832	0.17702	0.22753	0.31541	0.12243	0.12435	0.16243	0.35078	0.10487	0.064359	0.054077	0.14678	0.092876	0.14765	0.12673	0.16072	-3.9958	-3.9583	-4.0583	-4.2208	-3.9292	-4.2521	-4.2167	-3.8063	-4.325	-4.0875	-4.0938	-4.2896	-3.8479	-4.0938	-4.1521	-3.8917	49.895	132.358	246.200	190.113	174.488	134.974	248.190	-55.012	2.892	280.917	-45.174	86.874	192.178	191.207	1.849	191.985	0.00016658	0.00011783	9.6968e-06	1198.7	1.724e-06	2.7731e-06	1273.1	248.41	1.939e-06	1.6915e-06	312.96	87.176	68.838	20.103	2.5748e-06	28.488	5.5278e-05	6.0065e-05	1.7537e-05	1037.9	6.0501e-07	6.7527e-07	1113.3	214.21	6.093e-07	6.8912e-07	257.73	72.806	55.65	16.896	6.898e-07	23.14	-64.388	-3.471	260.335	-64.591	47.665	59.694	-64.296	-57.306	-5.059	101.202	-57.425	-51.069	-50.514	-43.657	-24.439	-44.182	-8191	255	
1287.649	1	1	0	0	0.055059	0.16111	0.073202	0.19707	0.20257	0.17095	0.26604	0.11943	0.095294	0.21009	0.065072	0.22242	0.096815	0.12551	0.13714	0.1136	-3.9083	-3.9521	-4.0021	-4.3208	-3.775	-4.0458	-4.3458	-3.9542	-4.0833	-4.1042	-4	-4.5292	-3.8104	-4.1062	-4.1667	-3.8792	178.655	231.510	12.358	274.091	-69.761	194.852	261.917	282.841	-33.835	260.791	197.327	-33.734	-48.420	80.791	-0.806	282.769	0.00022142	0.00043006	7.3423e-05	1195.9	1.3731e-06	1.0633e-06	1266.8	247.41	7.8314e-07	1.744e-06	311.05	87.366	68.59	20.109	1.9988e-06	28.468	5.7505e-05	6.5426e-05	1.7315e-05	1034.3	6.2947e-07	7.1676e-07	1109.9	213.69	6.3531e-07	7.2393e-07	256.85	72.65	55.656	16.924	6.4845e-07	23.078	264.237	-51.537	274.370	-64.268	-9.246	-34.177	-64.256	-56.967	108.482	115.128	-57.642	-50.431	-50.260	-43.812	68.171	-44.126	-8191	255	
1287.745	1	1	0	0	0.21082	0.069911	0.15585	0.21825	0.15005	0.20512	0.19254	0.16388	0.12795	0.26193	0.15998	0.12774	0.21087	0.21162	0.25778	0.015751	-4.0521	-4.0708	-3.7667	-4.4729	-3.9354	-4.0771	-4.0667	-4.0875	-4.2167	-3.8958	-3.9125	-4.4292	-3.8063	-4.0604	-4.2479	-3.7875	9.160	126.452	106.332	273.514	134.989	228.309	177.479	81.884	-54.244	52.357	200.279	255.425	284.559	283.201	-20.865	-34.852	0.00019362	4.1028e-05	1.8851e-05	1191.2	1.682e-06	1.2321e-06	1265.1	245.83	7.7776e-07	6.9245e-07	309.73	86.584	68.251	19.943	5.0752e-07	28.496	5.8411e-05	6.5026e-05	1.6392e-05	1030.4	6.4504e-07	7.1604e-07	1105.3	212.57	6.7412e-07	7.184e-07	255.42	72.245	55.659	16.821	6.6125e-07	23.065	273.239	11.054	90.239	-64.327	148.650	163.006	-64.017	-57.237	97.347	227.377	-57.363	-50.677	-50.277	-43.763	90.315	-44.054	-8191	255	
1287.841	1	1	0	0	0.14425	0.30929	0.2086	0.14874	0.2035	0.11978	0.14181	0.046039	0.25823	0.096789	0.13424	0.25876	0.21105	0.2078	0.11697	0.094024	-4.0458	-4.3208	-3.75	-4.4583	-3.9104	-4.0604	-4.4208	-3.8396	-4.2042	-4.1271	-4.0229	-4.2667	-4.0042	-3.9771	-4.2729	-3.8688	84.277	51.621	83.631	270.156	53.663	114.196	165.986	254.749	226.957	37.213	54.849	-20.913	-63.333	-28.374	-15.528	-3.337	0.00017633	0.00028883	3.5873e-05	1188.8	7.059e-07	8.6716e-07	1261.5	245.24	2.2816e-06	3.7387e-06	310.16	87.099	68.553	20.021	2.5471e-06	28.277	6.5791e-05	6.6466e-05	1.709e-05	1028.6	7.4018e-07	7.3892e-07	1104.7	212.38	7.5674e-07	7.3643e-07	255.02	72.418	56.07	16.815	6.6729e-07	23.071	277.815	248.712	114.632	-64.481	260.974	106.077	-64.332	-57.010	76.493	29.626	-57.602	-50.590	-50.526	-43.664	-59.874	-44.128	-8191	255	
1287.938	1	1	0	0	0.063425	0.047743	0.14312	0.30053	0.17763	0.12514	0.27516	0.076487	0.1046	0.12274	0.02637	0.12729	0.12265	0.036761	0.13002	0.083264	-3.8979	-4.3562	-3.8271	-4.3271	-3.9313	-4.1708	-4.2208	-3.9292	-4.2	-4.1021	-3.9146	-4.5813	-3.9542	-3.8625	-4.3708	-3.8625	56.221	94.481	-69.000	282.025	76.231	78.950	181.479	-32.578	135.455	58.146	76.319	224.521	188.990	-37.767	164.916	-51.007	0.00022748	0.00011663	7.2731e-06	1189.7	1.4766e-06	2.201e-06	1260.6	246.77	1.1849e-06	1.0968e-06	308.99	86.366	68.324	19.968	1.707e-06	28.346	7.1291e-05	6.5026e-05	1.6942e-05	1030.2	7.7673e-07	7.2073e-07	1103.2	212.81	7.898e-07	7.127e-07	255.09	72.597	56.051	16.759	6.4636e-07	23.164	-72.799	0.078	-41.791	-64.333	99.117	22.018	-64.335	-57.160	19.551	28.552	-57.385	-50.717	-50.235	-43.368	7.749	-44.039	-8191	255	
1288.032	1	1	0	0	0.13881	0.13489	0.013672	0.12799	0.069593	0.10786	0.16521	0.17831	0.23696	0.17715	0.14937	0.12032	0.25403	0.18557	0.084201	0.029169	-3.8312	-4.4604	-3.9271	-4.475	-4.0333	-3.8521	-4.4875	-4.0646	-4.0146	-4.2312	-3.9292	-4.3688	-3.9667	-3.7562	-4.3646	-4.0563	20.871	-45.498	197.091	263.454	-19.527	144.154	248.572	262.720	-43.290	-58.925	168.582	115.977	111.029	239.804	-42.403	43.574	8.558e-05	0.00011739	6.9003e-05	1188.3	1.7997e-06	2.3256e-06	1263.6	245.95	1.1557e-06	2.0873e-06	309.98	86.827	68.699	19.955	2.0553e-06	28.231	7.1788e-05	6.3784e-05	1.6283e-05	1031	7.652e-07	6.8337e-07	1102.2	212.95	7.4691e-07	6.7611e-07	254.96	72.99	55.967	16.737	6.223e-07	23.188	199.936	-38.589	-25.191	-64.448	-18.415	-47.933	-64.174	-56.876	49.413	55.730	-57.371	-50.925	-50.451	-43.521	13.596	-44.239	-8191	255	
1288.128	1	1	0	0	0.098571	0.051843	0.065874	0.092289	0.079183	0.1116	0.2748	0.10138	0.25782	0.1293	0.11326	0.065885	0.046652	0.39382	0.20355	0.10808	-3.6063	-4.1417	-3.7896	-4.4042	-4.1729	-3.8438	-4.5375	-3.8812	-4.0917	-4.3708	-4.1021	-3.9708	-4.0146	-3.8083	-4.2896	-4.15	30.585	244.104	-12.179	208.917	140.214	185.649	216.143	157.700	130.125	-19.243	49.171	256.426	33.880	264.582	205.650	-38.029	0.00014823	9.5373e-05	9.1414e-05	1188.8	2.1382e-06	4.0144e-06	1268.2	245.55	1.8279e-06	2.0574e-06	310.27	87.027	68.053	19.908	2.4265e-06	28.185	6.7185e-05	6.0433e-05	1.5875e-05	1034.2	7.1531e-07	6.6315e-07	1106.4	213.31	7.096e-07	6.4678e-07	255.01	72.862	55.728	16.673	6.3454e-07	23.207	281.728	267.227	-65.135	-64.354	49.263	-3.677	-64.012	-57.109	-55.534	21.162	-57.552	-50.516	-50.267	-43.670	-4.842	-44.344	-8191	255	
1288.224	1	1	0	0	0.17859	0.095002	0.043385	0.20176	0.10681	0.13042	0.13839	0.14276	0.12868	0.16043	0.24904	0.065912	0.28631	0.21051	0.16293	0.055495	-3.6167	-4.3833	-3.8292	-4.2208	-4.0521	-3.8771	-4.4458	-4.0458	-4.0375	-4.4563	-3.8792	-4.1458	-4.3042	-4.0312	-4.1542	-4.0396	5.657	112.690	-10.356	-69.552	99.269	112.588	178.313	246.888	186.570	37.297	236.753	68.564	-41.225	99.076	32.612	127.187	4.6232e-05	0.00022888	5.227e-05	1194.8	1.6542e-06	2.9007e-06	1261.7	246.15	1.6669e-06	1.6096e-06	310.34	86.676	69.178	19.811	1.1483e-06	28.231	6.2826e-05	5.7256e-05	1.6058e-05	1032.8	6.6242e-07	6.1589e-07	1102.5	213.06	6.5972e-07	5.9771e-07	255.31	72.523	55.552	16.578	6.565e-07	23.088	-36.340	-74.795	35.687	-64.392	-48.654	25.056	-64.194	-57.272	45.210	25.262	-57.608	-50.625	-50.431	-43.473	87.938	-44.243	-8191	255	
1288.320	1	1	0	0	0.15153	0.092364	0.26926	0.021706	0.12165	0.076401	0.18654	0.16932	0.15901	0.089717	0.15385	0.097024	0.051419	0.23014	0.18573	0.06788	-3.4792	-4.3208	-3.7833	-4.1625	-4.2229	-3.6729	-4.4563	-4.0625	-3.8104	-4.2958	-3.8854	-4.275	-4.2146	-3.6937	-4.0854	-4.125	-1.445	276.971	152.293	-33.458	257.919	-55.149	223.603	43.450	226.091	-25.056	266.945	-61.264	222.658	-69.324	243.124	-14.071	0.00016615	3.8149e-05	0.00011209	1191.1	3.2757e-06	2.4897e-06	1266.4	245.27	7.3313e-07	2.3607e-06	309.06	86.949	68.493	19.742	7.7127e-07	28.252	5.8877e-05	5.4025e-05	1.6713e-05	1031.2	6.3242e-07	5.8592e-07	1102.8	212.17	6.2262e-07	5.7713e-07	254.27	72.27	55.122	16.483	6.6412e-07	22.968	-49.279	-71.483	-58.937	-64.357	42.611	-40.724	-64.023	-57.153	1.370	39.034	-57.460	-50.700	-50.438	-43.798	29.197	-44.412	-8191	255	
1288.441	1	1	0	0	0.10231	0.25144	0.03955	0.3265	0.33762	0.12228	0.24933	0.22676	0.21734	0.039545	0.26683	0.058424	0.15704	0.18384	0.15204	0.10236	-3.475	-4.2667	-3.7687	-4.0229	-4.2958	-3.7146	-4.1438	-4.2438	-3.8375	-4.2521	-4.075	-4.0917	-4.3125	-3.775	-4.0542	-4.4	71.570	211.283	281.207	253.330	-74.434	-54.857	207.679	209.895	164.941	275.034	-67.718	178.833	266.948	-59.347	30.165	-68.781	0.00019092	0.00025282	2.8562e-05	1186.8	6.4202e-07	1.2504e-06	1253.1	244.78	2.0413e-06	1.8849e-06	306.53	85.981	68.428	19.657	1.7366e-06	28.152	5.6039e-05	5.238e-05	1.6822e-05	1025.8	5.8907e-07	5.7384e-07	1095.4	210.87	5.8821e-07	5.8009e-07	253.19	71.708	54.858	16.452	6.5442e-07	22.834	261.163	22.670	-43.686	-64.311	2.129	150.019	-64.205	-56.994	-56.838	88.327	-57.414	-50.592	-50.639	-43.231	79.763	-44.272	-8191	255	
1288.537	1	1	0	0	0.15871	0.18708	0.059781	0.14202	0.1269	0.26293	0.23152	0.048163	0.35621	0.083405	0.17002	0.15259	0.35798	0.089425	0.18188	0.1608	-3.6063	-4.1625	-3.9708	-4.1021	-4.2063	-3.9646	-4.2458	-4.2458	-3.9583	-4.2083	-4.1042	-4.1042	-4.2396	-3.8458	-4.275	-4.3208	25.208	268.178	139.453	256.942	219.849	58.171	204.948	217.468	-1.938	27.414	135.085	160.785	-62.068	-19.649	16.343	133.001	8.1846e-05	0.0001554	9.4156e-06	1181.8	9.8021e-07	1.2963e-06	1248.2	243.9	8.2759e-07	8.4893e-07	307.06	85.96	68.136	19.71	1.3531e-06	28.22	5.33e-05	5.4108e-05	1.6521e-05	1019.8	5.7067e-07	6.0134e-07	1093.2	210.13	5.639e-07	6.2028e-07	253.38	71.668	54.72	16.522	6.5343e-07	22.817	242.945	198.733	185.690	-64.377	-16.666	3.498	-64.043	-57.065	-15.668	128.584	-57.399	-50.645	-50.436	-43.835	129.398	-43.984	-8191	255	
1288.609	1	1	0	0	0.18632	0.2514	0.15558	0.20793	0.1152	0.071042	0.19421	0.10627	0.18249	0.066144	0.11164	0.11172	0.094643	0.018319	0.13064	0.10395	-3.4958	-4.4667	-4.0479	-3.7875	-4.1479	-3.9229	-4.1125	-4.2854	-3.5854	-4.3	-4.2771	-3.9354	-4.1417	-3.8063	-4.0521	-4.5146	195.577	276.354	110.030	204.673	30.168	-37.704	237.353	227.747	228.080	159.967	-36.404	43.855	25.757	26.027	117.376	178.201	7.1738e-05	1.9959e-05	4.5438e-05	1180.8	9.0169e-07	4.5294e-07	1252.9	243.38	1.9468e-06	2.6928e-06	308.66	86.125	67.828	19.847	6.9011e-07	28.151	5.3002e-05	5.7822e-05	1.6284e-05	1020.9	5.6548e-07	6.5617e-07	1095.9	209.98	5.7607e-07	6.6384e-07	253.61	71.594	54.85	16.593	6.4388e-07	22.781	259.921	42.950	-45.696	-64.387	144.555	255.643	-63.967	-57.210	107.426	71.403	-57.543	-50.370	-49.984	-43.886	267.860	-44.361	-8191	255	
1288.730	1	1	0	0	0.10942	0.19808	0.29642	0.2087	0.067136	0.14685	0.036962	0.2353	0.19328	0.16023	0.15836	0.30375	0.25394	0.29156	0.12351	0.089545	-3.7562	-4.0479	-4.0708	-3.95	-4.1521	-3.8104	-4.1729	-4.4563	-3.775	-4.1188	-4.1562	-3.7292	-4.1958	-3.8125	-3.8167	-4.4604	-10.487	136.435	105.156	-68.569	270.700	10.560	48.512	-35.661	186.430	37.510	266.495	66.527	-28.096	-72.391	109.153	268.541	0.00015866	0.00015089	3.6328e-05	1180.3	7.9221e-07	3.2824e-06	1255.5	244.55	6.7662e-07	1.2915e-06	308.51	86.364	67.557	19.675	1.8554e-06	28.158	5.6037e-05	6.4099e-05	1.6455e-05	1022.2	6.2928e-07	7.1107e-07	1096.5	210.53	6.4339e-07	7.1712e-07	253.71	71.71	55.142	16.613	6.3545e-07	22.781	276.889	-1.820	267.440	-64.150	195.924	-1.072	-64.270	-57.102	207.724	64.005	-57.410	-50.425	-49.935	-43.646	15.304	-44.306	-8191	255	
1288.826	1	1	0	0	0.18137	0.13155	0.19886	0.25372	0.18054	0.1358	0.10182	0.12637	0.15029	0.1091	0.079277	0.0045756	0.051825	0.12631	0.20615	0.088508	-3.3896	-4.0083	-4.0271	-3.9458	-4.3104	-4.0042	-3.9458	-4.3688	-4.1104	-4.1479	-4.4021	-3.7958	-4.1083	-4.0417	-4.0396	-4.5062	146.403	84.411	51.752	214.098	8.509	-0.146	143.516	-51.859	-67.476	284.588	276.046	235.227	-71.231	70.101	199.290	272.090	0.00018782	0.00020284	3.7304e-05	1184.8	9.2432e-07	1.4544e-06	1255.7	244.6	1.6843e-06	2.0685e-06	307.26	86.356	67.838	19.691	1.7226e-06	28.019	6.0457e-05	6.3222e-05	1.5959e-05	1023	6.59e-07	6.82e-07	1097.5	210.53	6.7329e-07	6.8353e-07	252.59	71.585	55.271	16.566	6.3151e-07	22.681	278.674	-68.790	-51.340	-64.301	7.394	-26.359	-64.115	-56.865	158.404	68.551	-57.379	-50.856	-50.410	-43.849	32.578	-44.318	-8191	255	
1288.922	1	1	0	0	0.031282	0.18051	0.27351	0.24738	0.21372	0.18521	0.028561	0.10296	0.023828	0.13517	0.1566	0.074453	0.21009	0.17052	0.26222	0.076004	-3.525	-3.9708	-4.4396	-4.0083	-4.0625	-3.9375	-4.0396	-4.475	-4.0146	-4.1167	-4.2229	-3.8479	-4.2521	-4.0563	-3.7646	-4.3063	233.100	201.686	6.289	-60.053	96.240	62.249	74.742	123.983	206.967	-11.427	3.645	141.662	-20.657	244.654	-18.216	118.060	0.00010384	0.00024727	3.5992e-05	1184.5	1.1629e-06	3.7303e-06	1256.5	243.84	2.5577e-06	1.7893e-06	307.13	86.206	67.916	19.777	8.3653e-07	27.936	6.4406e-05	6.2135e-05	1.5705e-05	1023.7	7.0725e-07	6.793e-07	1096.4	210.16	7.1385e-07	6.768e-07	253.36	71.749	55.394	16.553	6.184e-07	22.787	263.733	275.381	-26.203	-64.356	89.176	20.958	-64.110	-57.045	54.653	113.678	-57.347	-50.766	-50.149	-44.248	-12.323	-44.545	-8191	255	
1289.018	1	1	0	0	0.039639	0.054352	0.079037	0.37051	0.074812	0.38072	0.076319	0.12548	0.16427	0.10495	0.074886	0.35006	0.1436	0.11301	0.12132	0.1581	-3.5521	-3.9313	-4.45	-3.9167	-3.8688	-4.0625	-3.8958	-4.4042	-4.1104	-3.8667	-4.2958	-3.8917	-4.1125	-4.1979	-3.7542	-4.0938	212.139	3.712	21.037	270.180	-24.201	-7.656	282.548	156.499	180.850	-53.778	-25.270	-38.013	-45.766	226.061	-43.929	233.583	0.00018538	0.00011575	7.0457e-05	1183.3	3.8299e-07	6.0751e-07	1257.5	243.46	6.0573e-07	2.7332e-06	307.85	85.659	67.166	19.551	4.2302e-07	27.821	6.6229e-05	6.0214e-05	1.5527e-05	1024.9	7.3345e-07	6.5857e-07	1097.4	210.36	7.4046e-07	6.7247e-07	252.75	71.844	55.298	16.484	6.4041e-07	22.894	259.767	284.386	-69.871	-64.241	150.312	91.634	-64.308	-56.993	83.725	49.897	-56.892	-50.701	-50.253	-43.915	127.247	-44.712	-8191	255	
1289.137	1	1	0	0	0.13207	0.046263	0.13073	0.35959	0.27348	0.17849	0.17717	0.14552	0.16662	0.16238	0.16178	0.28402	0.10521	0.058236	0.072386	0.28289	-3.65	-3.7521	-4.2271	-3.9146	-3.9167	-4.3896	-4.0125	-4.3542	-3.8958	-3.8125	-4.6562	-3.7979	-3.8229	-4.3458	-3.9521	-4.1104	235.120	118.773	171.037	264.380	-73.948	265.131	266.111	224.543	103.443	198.129	235.279	244.334	-36.134	-36.305	112.414	176.021	0.00015558	0.00011723	1.8075e-05	1182.9	3.4234e-07	1.815e-06	1256.9	243.67	1.2568e-06	1.3325e-06	307.32	86.191	67.699	19.731	8.7336e-07	28.056	6.9219e-05	6.2391e-05	1.6371e-05	1027.1	7.5058e-07	6.8547e-07	1097.9	211.14	7.3618e-07	6.7194e-07	252.69	72.243	55.314	16.501	6.4427e-07	23.018	-74.399	-56.055	-49.557	-64.366	213.361	93.355	-64.098	-57.253	117.806	8.874	-57.586	-50.567	-50.367	-43.843	-26.864	-43.888	-8191	255	
1289.209	1	1	0	0	0.19054	0.15255	0.18652	0.26166	0.26043	0.21912	0.14361	0.15108	0.19358	0.1657	0.084229	0.19245	0.26383	0.18395	0.03482	0.16443	-3.6667	-3.9833	-4.2458	-4	-3.9896	-4.3875	-3.9562	-4.3146	-4.3854	-3.8271	-4.2104	-3.9	-4.1667	-4.4	-3.8792	-4.2271	59.043	60.561	166.829	251.206	11.566	-55.084	181.948	278.065	75.577	20.159	244.939	30.802	243.039	84.378	261.156	235.151	9.5493e-05	0.00011328	1.673e-05	1183	1.4002e-06	1.027e-06	1256.4	242.8	1.5786e-06	1.548e-06	307.53	86.267	68.136	19.621	8.587e-08	28.004	6.6927e-05	6.1027e-05	1.6563e-05	1026.9	7.2289e-07	6.5369e-07	1097.3	210.99	7.0046e-07	6.4647e-07	253.36	72.062	55.089	16.416	6.4002e-07	22.921	-43.467	172.391	156.809	-64.407	19.781	0.979	-64.341	-57.036	9.458	5.546	-57.314	-50.526	-49.814	-43.471	75.699	-44.786	-8191	255	
1289.329	1	1	0	0	0.13511	0.15643	0.13472	0.12229	0.17492	0.14148	0.031115	0.2542	0.087668	0.14916	0.21964	0.066582	0.17073	0.19517	0.18207	0.22697	-3.8271	-3.7417	-4.2146	-4.2729	-3.9854	-4.2875	-3.9917	-4.2042	-4.4021	-3.7229	-4.2458	-4.0938	-4.0542	-4.4187	-3.7438	-4.2875	79.506	280.161	61.529	-22.724	265.556	4.317	34.800	253.332	244.719	230.375	244.778	94.412	227.624	-18.331	99.803	112.629	0.00017257	0.00017905	6.0462e-05	1186.7	2.0364e-07	1.1164e-06	1252.6	243.35	1.1147e-06	6.2788e-07	306.44	85.671	68.517	19.576	6.7758e-07	28.023	5.9895e-05	5.4281e-05	1.609e-05	1025.8	6.3171e-07	5.8314e-07	1097.2	210.25	6.2212e-07	5.6758e-07	252.23	71.677	54.848	16.322	6.4699e-07	22.738	-71.623	168.545	-58.983	-64.370	39.373	26.589	-64.117	-56.909	-10.165	22.898	-57.582	-50.778	-50.564	-43.700	137.273	-44.256	-8191	255	
1289.425	1	1	0	0	0.11899	0.18649	0.10752	0.2588	0.15394	0.097338	0.18063	0.16674	0.19546	0.18937	0.18492	0.10164	0.13104	0.18826	0.041356	0.19499	-3.8563	-3.7979	-4.225	-4.1125	-3.8833	-4.2604	-4.0417	-3.9354	-4.3125	-3.9083	-4.2063	-4.2604	-4.0521	-4.2896	-3.9437	-4.25	-51.551	-8.081	246.085	273.181	17.368	175.023	85.800	248.883	-27.788	118.918	269.429	274.771	35.972	203.800	159.167	259.537	5.4513e-06	8.6206e-05	6.0925e-06	1182.5	4.8998e-07	8.1142e-07	1255	242.71	1.5107e-06	2.7215e-06	305.4	86.431	67.417	19.569	6.7927e-08	27.791	5.6223e-05	5.2553e-05	1.6695e-05	1020.4	6.1074e-07	5.7739e-07	1095.1	209.72	6.1891e-07	5.919e-07	252.5	71.686	54.578	16.338	6.9516e-07	22.709	198.673	7.045	65.690	-64.406	-51.458	144.832	-64.150	-57.102	-14.928	100.731	-57.571	-50.617	-50.499	-43.514	-27.066	-43.938	-8191	255	
1289.521	1	1	0	0	0.21755	0.10345	0.14012	0.23822	0.028506	0.20186	0.14275	0.15863	0.18064	0.06477	0.04097	0.20942	0.26643	0.093045	0.020332	0.20422	-3.9104	-3.675	-4.2854	-4.2479	-3.8521	-4.2604	-4.1292	-4.0938	-4.1667	-3.9854	-4.2979	-4.2937	-3.9208	-4.4417	-3.9979	-4.0625	-48.618	208.141	-64.883	167.136	275.220	135.487	195.514	262.439	16.538	251.120	218.544	-69.089	38.243	-35.787	-11.676	-36.754	9.8449e-05	0.00019781	2.6056e-05	1180.5	1.3907e-06	1.4966e-06	1254.1	242.36	2.1239e-06	1.2939e-06	304.86	85.878	67.806	19.619	1.6618e-06	27.738	5.6654e-05	5.5677e-05	1.7716e-05	1021.8	6.0724e-07	6.133e-07	1096.7	209.23	5.9385e-07	6.1686e-07	252.69	71.472	54.688	16.402	6.7641e-07	22.701	-27.192	-13.727	29.652	-64.365	10.409	72.276	-64.014	-56.990	23.213	49.835	-57.075	-50.918	-50.290	-43.475	-26.080	-44.185	-8191	255	
1289.618	1	1	0	0	0.18983	0.026215	0.35187	0.19111	0.23181	0.078686	0.1578	0.13536	0.0079235	0.24387	0.1988	0.090078	0.080828	0.16928	0.19203	0.023589	-3.9854	-3.8104	-3.9229	-4.3938	-3.8125	-4.1042	-4.1875	-4.0333	-4.2979	-3.9417	-4.2646	-4.0958	-3.6958	-4.2333	-4.0938	-3.7938	-63.267	29.369	-62.564	198.120	52.514	116.058	183.408	-15.629	-31.283	100.169	124.833	186.570	-21.180	-71.286	81.817	90.717	0.00012776	2.6811e-05	5.6582e-05	1182	4.9497e-07	8.0582e-07	1250.9	242.45	3.8189e-07	1.2771e-06	308.08	85.765	67.525	19.702	1.8206e-06	27.739	5.4344e-05	5.853e-05	1.7121e-05	1020.8	5.8386e-07	6.4947e-07	1095.4	209.28	5.8471e-07	6.5453e-07	252.71	71.453	54.654	16.483	6.5109e-07	22.589	261.743	14.308	-58.518	-64.278	141.436	135.815	-64.128	-56.964	52.637	-18.909	-57.663	-50.729	-50.581	-43.527	30.387	-44.158	-8191	255	
1289.738	1	1	0	0	0.065621	0.081527	0.19162	0.29946	0.14764	0.17721	0.2137	0.27501	0.19184	0.10446	0.28643	0.22184	0.13028	0.1829	0.091733	0.0077987	-3.8542	-3.7438	-3.9854	-4.4542	-3.7021	-4.3458	-4.4979	-3.825	-4.4229	-4.0771	-4.0292	-4.4	-3.9333	-4.175	-4.1792	-3.9729	-33.007	151.060	-12.161	-43.184	248.122	272.822	-54.674	236.669	134.441	266.005	257.842	170.291	234.267	210.026	174.717	192.205	0.00017984	1.4932e-05	4.2325e-05	1180.3	1.5202e-06	1.136e-06	1252.2	241.64	7.6553e-07	2.7417e-06	306.78	86.206	67.61	19.74	1.1018e-06	27.954	5.4918e-05	6.1657e-05	1.6278e-05	1021	5.9485e-07	6.7786e-07	1095	208.59	5.9473e-07	6.7356e-07	252.27	71.302	54.645	16.506	6.2222e-07	22.669	254.989	53.466	-72.874	-64.461	154.504	155.872	-64.311	-56.798	145.058	48.271	-57.531	-50.523	-50.816	-43.753	283.384	-43.891	-8191	255	
1289.833	1	1	0	0	0.065276	0.14071	0.12978	0.19793	0.095529	0.059378	0.14191	0.09533	0.23558	0.41762	0.14987	0.13619	0.090077	0.1979	0.13733	0.15204	-3.9583	-3.8312	-3.9396	-4.5188	-3.7896	-4.0625	-4.3479	-3.9104	-4.2688	-4.0917	-4.0271	-4.3021	-4.0333	-4.2167	-4.1292	-3.7188	200.673	180.551	-37.195	225.141	226.615	34.400	200.222	195.898	109.481	105.819	150.849	64.620	27.698	102.950	179.435	159.830	0.00019676	0.00010902	2.7316e-05	1179.3	1.5775e-06	2.003e-06	1250.6	242.77	1.6917e-06	3.0452e-06	307.88	85.564	67.694	19.614	1.5945e-06	27.879	5.7353e-05	6.2382e-05	1.5872e-05	1019.5	6.3407e-07	6.8476e-07	1093.9	208.98	6.4784e-07	6.8747e-07	252.26	71.222	54.94	16.475	6.1092e-07	22.595	-74.361	71.230	265.250	-64.386	270.612	-52.813	-64.129	-57.052	97.106	21.743	-57.219	-50.669	-50.065	-43.884	-46.652	-44.251	-8191	255	
1289.906	1	1	0	0	0.21498	0.15624	0.071639	0.21863	0.17561	0.11275	0.074544	0.043377	0.28008	0.20391	0.010646	0.27228	0.1418	0.097533	0.12075	0.062524	-3.8	-4.0021	-3.9833	-4.5542	-3.8187	-4.0521	-4.4917	-4.0729	-4.2625	-4.0188	-3.8354	-4.4021	-4.1979	-4.0042	-4.3479	-3.9688	69.229	207.960	239.676	150.620	278.132	277.244	246.433	126.170	54.679	1.611	2.238	227.015	135.399	-50.801	64.715	243.384	9.4361e-05	8.1953e-05	3.2076e-05	1185	3.5169e-06	3.0798e-06	1254.8	242.46	5.9271e-07	4.1517e-06	307.87	85.832	67.353	19.576	1.8047e-06	28.167	6.1628e-05	6.0995e-05	1.5463e-05	1023.7	6.6978e-07	6.6628e-07	1095.9	209.37	6.7693e-07	6.5121e-07	252.25	71.33	55.072	16.471	5.9938e-07	22.639	260.548	197.947	-40.389	-64.165	211.572	27.534	-64.137	-56.910	-36.618	2.254	-57.230	-50.769	-50.156	-43.531	-61.539	-44.427	-8191	255	
1290.002	1	1	0	0	0.10296	0.18957	0.10332	0.14295	0.044834	0.10511	0.33923	0.19851	0.15404	0.12861	0.29227	0.11642	0.077813	0.10837	0.14908	0.12235	-3.8646	-4.1396	-3.7521	-4.5042	-3.9562	-4.0229	-4.4521	-3.8146	-4.1208	-4.2354	-4.0604	-4.3833	-4.1375	-3.8937	-4.1833	-3.9604	3.677	158.309	216.229	-37.896	3.732	121.416	227.928	-6.417	209.940	-66.467	-68.202	-36.143	6.262	39.877	233.040	90.462	0.00020232	0.00019183	7.3638e-05	1183.4	2.4086e-06	1.4393e-06	1258.3	243.32	9.131e-07	1.4348e-06	308.01	85.778	67.978	19.61	1.1744e-06	27.894	6.3096e-05	5.8469e-05	1.4872e-05	1023.6	6.8728e-07	6.3552e-07	1096.4	209.67	6.8309e-07	6.2104e-07	251.9	71.695	55.168	16.42	5.6284e-07	22.692	-67.143	222.059	-58.365	-64.258	176.514	9.832	-64.110	-57.027	27.116	33.487	-57.408	-50.509	-50.063	-44.059	1.147	-44.092	-8191	255	
1290.121	1	1	0	0	0.090656	0.10931	0.055032	0.23499	0.33596	0.081426	0.03376	0.24543	0.25183	0.087977	0.14028	0.36081	0.27507	0.1566	0.25612	0.26725	-3.8833	-4.1021	-3.8729	-4.2854	-3.9917	-3.9292	-4.25	-3.8792	-4.1167	-4.1479	-3.7625	-4.3313	-4.0479	-3.8792	-4.2708	-4.0312	166.753	193.350	278.751	228.511	-73.001	253.880	276.543	197.383	15.466	244.488	27.013	283.793	223.026	-2.996	283.116	37.722	0.00012885	4.8678e-05	4.0102e-05	1189.3	1.8003e-06	2.0903e-06	1258	242.72	2.3497e-06	1.1105e-06	307.63	85.935	67.941	19.709	1.9995e-06	28.124	6.2328e-05	5.4954e-05	1.4159e-05	1027.4	6.5585e-07	5.9986e-07	1096	209.5	6.5218e-07	5.8638e-07	251.45	71.756	55.061	16.44	5.4897e-07	22.861	255.830	20.131	-43.887	-64.034	261.639	20.229	-64.095	-57.141	36.205	-33.633	-57.475	-50.454	-50.271	-43.563	42.267	-44.237	-8191	255	
1290.217	1	1	0	0	0.1329	0.14076	0.096786	0.31225	0.13731	0.13797	0.37329	0.043396	0.11359	0.16546	0.4321	0.10691	0.19528	0.086433	0.030428	0.13408	-3.8229	-4.1979	-3.7396	-4.3938	-3.8833	-3.6625	-4.3417	-4.0854	-4.0854	-4.3229	-3.8729	-4.1813	-4.2042	-3.7438	-4.2292	-3.9729	160.832	-14.634	-40.760	174.955	113.161	127.527	157.558	-69.273	51.712	-20.676	199.677	241.900	185.230	53.116	14.558	187.502	0.00011766	0.00021911	4.4794e-05	1191	1.1069e-06	1.9193e-06	1257.2	242.61	1.6161e-06	2.1717e-06	307.33	86.435	67.915	19.714	2.2757e-06	28.051	5.9548e-05	5.3246e-05	1.4372e-05	1027.9	6.4133e-07	5.909e-07	1098	209.88	6.3352e-07	5.7749e-07	251.99	71.969	54.968	16.423	5.714e-07	22.871	-50.038	-62.804	247.105	-64.305	141.335	6.496	-64.011	-57.022	-12.606	-66.576	-57.414	-50.583	-50.167	-43.451	67.172	-44.532	-8191	255	
1290.313	1	1	0	0	0.10941	0.089902	0.23022	0.021771	0.099583	0.26491	0.17792	0.090464	0.17367	0.13667	0.17239	0.14513	0.17959	0.18093	0.079456	0.11549	-3.7292	-4.3313	-3.7083	-4.3146	-4.1521	-3.7667	-4.4333	-4.2312	-4.1312	-4.3083	-3.7229	-4.2292	-4.2208	-3.8271	-4.2021	-4.0979	106.301	-15.274	231.382	225.248	10.815	-72.932	205.935	118.541	1.548	-14.061	214.136	237.699	281.840	250.200	279.037	125.458	0.00015894	0.00013263	6.2684e-05	1186.4	1.1214e-06	2.1529e-06	1256.5	243.89	7.3189e-07	2.2618e-06	306.38	86.504	67.98	19.682	1.2144e-06	28.095	5.6343e-05	5.1218e-05	1.4534e-05	1028.6	6.018e-07	5.606e-07	1097.6	210.49	5.962e-07	5.5413e-07	252.07	71.999	54.989	16.365	6.1768e-07	22.863	-69.249	-11.475	8.139	-64.325	-1.542	-67.289	-64.169	-56.878	-32.581	62.365	-57.487	-50.550	-50.540	-44.141	42.452	-43.840	-8191	255	
1290.410	1	1	0	0	0.092944	0.16691	0.16257	0.18433	0.25781	0.15381	0.090314	0.14785	0.37142	0.079252	0.14176	0.22373	0.13364	0.11013	0.19434	0.085622	-3.4521	-4.3625	-3.8187	-4.2458	-4.1708	-3.7562	-4.425	-4.1542	-3.9104	-4.0479	-3.9562	-4.0813	-4.2167	-3.7521	-4.2937	-4.1458	260.941	-39.699	64.681	261.513	-54.483	130.144	239.065	10.120	101.046	0.409	254.632	278.343	1.191	-28.106	-20.028	181.481	0.00017926	0.00020301	3.6289e-05	1190.2	2.2683e-06	9.2868e-07	1260.7	243.97	1.1486e-06	7.2294e-07	306.38	86.26	68.226	19.575	8.5947e-07	28.022	5.5825e-05	4.9903e-05	1.5499e-05	1027.8	5.914e-07	5.4915e-07	1101.4	210.31	5.8642e-07	5.4638e-07	253.05	71.995	54.898	16.377	6.327e-07	22.758	270.934	-26.088	-10.001	-64.170	6.158	277.600	-64.190	-56.947	252.920	2.016	-57.382	-50.310	-49.939	-43.796	118.214	-44.268	-8191	255	
1290.506	1	1	0	0	0.055681	0.16412	0.1611	0.32934	0.14949	0.19965	0.27575	0.2324	0.090567	0.086353	0.045962	0.053609	0.090579	0.24046	0.23235	0.13749	-3.5521	-4.2812	-3.8208	-4.0208	-4.2583	-3.7833	-4.1687	-4.2917	-3.7396	-4.2417	-4.1125	-3.9896	-4.3104	-3.7271	-3.9729	-4.3208	208.020	-54.260	167.782	-27.436	216.918	111.134	201.549	12.817	55.800	31.736	120.658	232.809	54.915	-35.093	256.846	144.086	9.1695e-05	6.0419e-05	6.2133e-05	1191.2	1.5069e-06	6.1927e-07	1264.3	243.83	1.2517e-06	1.1411e-06	306.68	86.59	67.523	19.7	1.3915e-06	28.164	5.2849e-05	5.0499e-05	1.6113e-05	1028.3	5.7419e-07	5.5657e-07	1102.3	210.28	5.6924e-07	5.7121e-07	253.54	71.833	54.785	16.428	6.4678e-07	22.761	261.262	89.599	59.644	-64.204	53.901	-35.282	-64.209	-56.926	71.548	101.017	-57.433	-50.780	-50.205	-43.875	14.995	-44.204	-8191	255	
1290.602	1	1	0	0	0.16027	0.098971	0.19436	0.054575	0.21752	0.1601	0.23945	0.16506	0.098514	0.25271	0.15872	0.086198	0.19747	0.041868	0.18729	0.13093	-3.4417	-4.2292	-4.1021	-4.1062	-4.2146	-3.7646	-4.3729	-4.2396	-3.7896	-4.3104	-4.1813	-3.9813	-4.4771	-3.9625	-3.7896	-4.3792	124.185	31.870	-48.337	16.142	92.928	261.720	186.232	229.835	136.324	75.493	186.328	89.406	178.906	92.700	111.103	128.793	0.00015146	1.9719e-05	4.097e-05	1190.8	3.3263e-07	3.5008e-06	1268.8	244.57	1.8311e-06	1.2473e-06	307.87	86.332	68.053	19.788	1.8214e-06	28.003	5.2337e-05	5.3802e-05	1.6234e-05	1027.1	5.5643e-07	6.0533e-07	1104.5	210.15	5.5744e-07	6.0529e-07	253.3	71.764	54.731	16.54	6.2472e-07	22.674	260.115	-3.685	-69.227	-64.326	106.706	126.604	-64.147	-57.066	117.693	-50.706	-57.556	-50.681	-50.082	-43.818	6.723	-44.477	-8191	255	
1290.698	1	1	0	0	0.17321	0.29208	0.17223	0.082473	0.21231	0.080284	0.051428	0.31106	0.24487	0.16253	0.14007	0.058864	0.26712	0.081258	0.19407	0.14237	-3.3312	-4	-3.8021	-4.0542	-4.3229	-3.775	-4.125	-4.3542	-3.8604	-4.1146	-4.0792	-3.9229	-4.2229	-4.0375	-3.8125	-4.2375	54.770	175.408	269.647	269.942	53.045	201.219	231.630	208.662	22.299	57.346	236.292	65.930	-46.695	-47.190	-11.172	208.939	0.00015512	9.9781e-05	7.448e-05	1191.9	1.2206e-06	2.0895e-06	1254.8	244.18	6.4948e-07	6.2728e-07	308.77	86.545	68.336	19.516	1.8735e-06	27.967	5.0786e-05	5.559e-05	1.5377e-05	1027.3	5.4207e-07	6.1456e-07	1098.4	209.74	5.38e-07	6.2266e-07	253.03	71.666	54.761	16.474	5.8234e-07	22.613	205.293	-64.050	273.069	-64.394	78.349	153.092	-64.121	-57.242	80.836	238.134	-57.549	-50.579	-50.238	-43.433	52.425	-44.199	-8191	255	
1290.819	1	1	0	0	0.12752	0.045521	0.077042	0.21804	0.2705	0.13418	0.23267	0.18646	0.024315	0.25604	0.14418	0.07725	0.17281	0.22024	0.081683	0.10077	-3.4813	-4.0563	-3.9771	-3.7687	-4.2562	-4.0188	-3.8833	-4.3292	-3.9646	-4.0229	-4.1062	-3.8979	-4.2917	-4.0542	-3.6292	-4.1	191.992	189.878	189.820	227.400	32.745	-14.189	181.072	217.860	110.797	38.944	205.480	36.561	-20.203	144.213	74.118	169.435	0.00017495	0.00010913	3.796e-05	1187.3	1.9504e-06	2.0176e-06	1257.1	243.59	1.7971e-06	2.6016e-06	308.81	86.048	68.006	19.726	2.2874e-06	28.135	5.076e-05	5.6776e-05	1.4531e-05	1023.4	5.663e-07	6.3317e-07	1097.8	209.63	5.7627e-07	6.3342e-07	252.56	71.482	54.791	16.524	5.7733e-07	22.654	231.784	207.197	283.388	-64.314	-33.076	4.451	-64.212	-56.933	178.054	-34.720	-57.218	-50.644	-50.255	-43.671	43.414	-44.205	-8191	255	
1290.915	1	1	0	0	0.14015	0.12764	0.27936	0.18531	0.18737	0.04625	0.026403	0.18697	0.20584	0.16393	0.21931	0.01514	0.086522	0.15763	0.13643	0.10091	-3.45	-4.15	-4.2583	-3.9229	-4.0979	-4.0021	-4.2375	-4.4042	-3.8125	-4.0396	-4.3063	-3.9417	-4.0646	-3.8479	-3.6229	-4.2604	263.514	27.288	-7.834	270.902	283.496	20.875	97.645	277.458	219.979	-6.044	202.494	77.573	191.312	12.639	263.744	-0.202	0.00018523	7.1598e-05	5.4407e-05	1186.8	1.7414e-07	7.3307e-08	1258.6	244.85	2.1973e-06	1.7585e-06	306.41	86.282	68.339	19.739	1.4369e-06	28.025	5.5099e-05	5.7039e-05	1.4404e-05	1024.1	5.9346e-07	6.1997e-07	1098.1	209.65	6.1374e-07	6.1465e-07	252.14	71.557	54.955	16.486	5.5689e-07	22.586	246.492	237.756	-61.606	-64.430	104.358	120.337	-64.217	-56.931	229.279	38.717	-57.667	-50.730	-50.376	-43.711	-10.497	-44.155	-8191	255	
1291.011	1	1	0	0	0.18738	0.10642	0.2368	0.087465	0.14629	0.35037	0.27299	0.039057	0.13696	0.19012	0.18925	0.10409	0.18393	0.10538	0.059725	0.11255	-3.4229	-4.0208	-4.1562	-3.6854	-3.9792	-3.9958	-3.8875	-4.1958	-3.8792	-3.9854	-4.2708	-3.7729	-4.4125	-3.9688	-3.6396	-4.1937	181.451	110.928	83.921	-31.261	59.751	120.233	245.247	-13.709	-67.299	10.799	202.490	248.488	249.077	-29.210	270.150	202.773	0.0001352	0.00011357	6.6534e-05	1186.8	1.0084e-06	1.3987e-06	1257.8	244.32	8.8801e-07	8.2088e-07	308.89	85.719	68.02	19.796	1.9153e-06	28.038	5.7429e-05	5.4856e-05	1.3985e-05	1025.1	6.3575e-07	5.8541e-07	1098.4	209.97	6.3592e-07	5.8706e-07	252.53	71.469	55.158	16.481	5.4373e-07	22.73	284.282	229.287	-43.209	-63.950	-43.291	-31.318	-63.999	-57.169	167.174	282.900	-57.732	-50.801	-50.311	-43.679	46.750	-44.353	-8191	255	
1291.130	1	1	0	0	0.23151	0.13674	0.18845	0.20855	0.099155	0.055057	0.30128	0.17212	0.13988	0.12838	0.015103	0.083789	0.21815	0.041016	0.28034	0.027826	-3.4542	-3.975	-4.2604	-3.8375	-3.9896	-4.1667	-3.8792	-4.0771	-4.0208	-3.8479	-4.1042	-3.7188	-4.0312	-4.0792	-3.575	-4.2562	4.476	-60.238	0.404	258.387	262.319	-29.093	196.680	-47.658	34.912	-36.057	244.481	61.085	162.545	-14.455	36.908	-6.688	9.5267e-05	5.915e-05	4.5673e-05	1192.6	2.5735e-06	2.575e-06	1260.9	244.82	5.0495e-07	9.9316e-07	308.47	86.341	68.184	19.77	9.6197e-07	28.086	5.9482e-05	5.3394e-05	1.359e-05	1029.1	6.5363e-07	5.8377e-07	1099	210.61	6.4183e-07	5.7507e-07	252.64	71.758	55.312	16.45	5.4544e-07	22.813	234.941	275.750	-66.164	-64.145	68.333	1.824	-64.109	-57.204	53.888	12.283	-57.353	-50.810	-50.253	-43.726	268.690	-44.585	-8191	255	
1291.202	1	1	0	0	0.11784	0.15967	0.24098	0.15917	0.069751	0.13065	0.2815	0.24379	0.14427	0.17437	0.084857	0.24678	0.043767	0.03408	0.14936	0.20707	-3.6542	-3.6562	-4.0667	-4.0125	-4.0292	-4.1708	-3.8375	-4.2771	-4.0604	-3.8146	-4.2063	-3.975	-3.9271	-4.2125	-3.8354	-4.1708	192.353	-54.239	-54.775	-64.437	198.955	245.753	213.260	-13.508	203.775	-1.977	186.502	251.809	21.335	-20.646	160.663	228.066	0.00011559	0.00014806	5.6891e-05	1196.6	2.0998e-06	9.8236e-07	1265.9	245.16	1.7587e-06	1.9322e-06	309.19	86.411	67.949	19.87	1.8089e-07	28.036	5.873e-05	5.3603e-05	1.3842e-05	1031.1	6.3212e-07	5.7468e-07	1101.7	211.48	6.1822e-07	5.6951e-07	252.77	72.157	55.069	16.46	5.4802e-07	22.847	-44.740	215.762	185.547	-64.390	-0.611	21.500	-64.247	-56.918	77.242	45.522	-57.661	-50.650	-50.496	-43.826	72.710	-44.484	-8191	255	
1291.298	1	1	0	0	0.16429	0.17942	0.2521	0.17227	0.10776	0.32991	0.11522	0.17122	0.20053	0.070846	0.10377	0.1107	0.052923	0.0054146	0.2584	0.2259	-3.75	-3.6604	-4.1729	-4.1646	-3.8021	-4.1854	-3.9042	-4.2833	-4.0042	-3.8125	-4.3083	-3.9062	-3.9417	-4.2521	-3.7958	-3.8937	184.880	64.549	183.136	23.462	195.878	249.851	275.612	-71.355	-31.366	98.056	261.219	72.392	254.274	142.795	134.862	3.809	9.4393e-05	0.0002995	2.0315e-05	1187.9	1.3924e-06	1.9734e-06	1259.4	245.23	9.5468e-07	2.2545e-06	308.12	86.35	68.64	19.805	9.5986e-07	28.124	5.6994e-05	5.1301e-05	1.4091e-05	1029.1	6.1305e-07	5.5909e-07	1100.7	211.78	6.0737e-07	5.586e-07	252.94	72.155	55.201	16.421	5.8682e-07	22.917	234.085	240.654	41.451	-64.304	-38.960	3.652	-64.179	-57.023	243.781	20.421	-57.450	-50.855	-50.784	-43.731	74.569	-44.179	-8191	255	
1291.418	1	1	0	0	0.10234	0.065946	0.15019	0.17321	0.11831	0.11531	0.0345	0.15262	0.024791	0.17347	0.23196	0.021558	0.053639	0.060008	0.24673	0.067876	-3.8167	-3.8354	-4.1021	-4.175	-3.8271	-4.175	-4.0979	-4.025	-4.2146	-3.7438	-4.4542	-3.9292	-3.8271	-4.3104	-3.7833	-4.2271	186.026	149.984	-27.775	-49.886	251.262	-69.950	226.699	122.862	194.487	247.735	229.307	139.447	267.878	145.240	262.616	66.724	9.882e-05	8.6638e-05	3.6902e-05	1190.4	1.0757e-06	1.6744e-06	1260.4	245.81	7.5293e-07	2.0197e-06	308.09	85.938	68.389	19.838	2.1868e-06	27.863	5.4967e-05	5.0261e-05	1.5023e-05	1031.1	5.9278e-07	5.4494e-07	1101.5	211.91	5.9141e-07	5.4715e-07	253.67	71.939	54.967	16.41	6.1645e-07	22.773	222.471	-61.987	-44.737	-64.314	252.504	-5.072	-63.956	-56.983	41.454	104.483	-57.700	-50.720	-50.046	-43.426	29.926	-44.130	-8191	255	
1291.514	1	1	0	0	0.12366	0.060426	0.10479	0.2757	0.035381	0.16446	0.06649	0.071456	0.29788	0.10402	0.13006	0.18887	0.18968	0.044267	0.12724	0.18454	-3.7125	-3.7833	-4.2583	-4.0979	-3.8667	-4.3583	-4.0479	-3.9833	-4.2479	-3.8479	-4.1792	-4.1438	-3.7979	-4.2229	-3.8125	-3.8812	107.058	203.194	216.203	221.584	220.064	166.991	245.145	214.305	153.254	235.572	209.142	94.860	266.212	80.654	158.074	263.250	6.189e-05	8.4704e-05	3.9406e-05	1186.8	2.1151e-06	6.2879e-07	1259.2	244.99	2.8131e-06	5.0653e-07	308.57	86.157	68.349	19.776	1.4991e-06	28.018	5.3982e-05	5.0641e-05	1.5957e-05	1028	5.7563e-07	5.4901e-07	1100.6	211.32	5.6056e-07	5.4498e-07	253.91	71.832	54.967	16.402	6.2607e-07	22.738	-55.137	66.671	276.940	-64.100	-13.768	39.679	-64.125	-57.106	16.914	-55.409	-57.431	-50.757	-50.349	-43.641	2.256	-44.052	-8191	255	
1291.611	1	1	0	0	0.2514	0.22599	0.1722	0.29425	0.22067	0.19541	0.24116	0.12447	0.25103	0.26322	0.09176	0.056245	0.15007	0.076847	0.10475	0.024647	-3.9896	-3.625	-3.9292	-4.2583	-3.7667	-4.0312	-3.9437	-3.975	-4.2312	-3.7042	-4.25	-4.2083	-3.475	-4.2438	-3.9479	-3.8042	86.625	28.703	242.729	-23.978	-4.017	-22.439	233.858	201.677	162.689	50.421	139.945	-1.679	48.042	224.894	83.708	54.408	0.00013303	0.00016272	2.1897e-05	1184.2	9.6018e-07	1.8804e-06	1259.8	245.87	1.9328e-06	1.3621e-06	309.92	86.224	68.255	19.87	2.8333e-06	28.066	5.0539e-05	5.109e-05	1.5836e-05	1025.9	5.492e-07	5.6223e-07	1102.4	211.02	5.4661e-07	5.7348e-07	254.16	71.817	54.69	16.503	6.2057e-07	22.724	278.690	-53.878	140.087	-64.132	31.239	53.028	-64.222	-57.007	64.177	24.456	-57.544	-50.643	-50.598	-44.077	36.769	-44.558	-8191	255	
1291.707	1	1	0	0	0.26723	0.099728	0.075026	0.064061	0.18454	0.088936	0.02726	0.14923	0.10096	0.018511	0.26054	0.22077	0.24139	0.13502	0.095511	0.050428	-3.8167	-3.8354	-3.8542	-4.1167	-3.7062	-4.175	-4.1396	-3.8083	-4.1917	-3.8375	-3.9583	-4.2729	-3.7479	-4.0604	-3.8708	-3.7188	-49.355	244.773	188.322	227.108	-72.797	67.348	150.225	176.886	85.999	70.747	257.002	-41.863	170.145	231.428	50.356	104.135	0.00012534	0.00011392	7.6658e-05	1191.2	9.233e-07	9.6584e-07	1264.2	245.29	8.891e-07	2.4207e-06	308.89	86.395	68.533	19.847	1.0248e-06	28.034	4.9823e-05	5.4709e-05	1.5693e-05	1027.5	5.4095e-07	6.0048e-07	1101.6	211.03	5.3529e-07	6.1261e-07	253.71	71.704	54.952	16.536	6.072e-07	22.666	-40.485	-42.387	269.546	-64.289	37.659	119.426	-64.020	-56.855	117.735	40.039	-57.359	-50.632	-50.446	-43.801	-15.455	-44.238	-8191	255	
1291.803	1	1	0	0	0.23381	0.026303	0.13157	0.061263	0.071017	0.067234	0.16027	0.066502	0.15228	0.28229	0.035965	0.17099	0.23722	0.16786	0.11913	0.08316	-3.9208	-3.8583	-3.9646	-4.4729	-3.8854	-4.2271	-4.2708	-3.8854	-4.1208	-3.9938	-3.9917	-4.2771	-3.6729	-4.1021	-4.0896	-3.8271	-4.250	45.715	236.241	263.531	91.870	14.651	101.793	245.526	263.250	204.945	117.364	236.151	-32.401	-22.118	-45.478	-1.841	0.00013148	0.0001995	5.1902e-05	1185	2.4516e-06	1.2025e-06	1258.4	244.95	1.3334e-06	1.4376e-06	307.34	86.432	67.955	19.806	1.974e-06	28.177	5.1629e-05	5.7915e-05	1.5367e-05	1024.2	5.6135e-07	6.4383e-07	1099.5	210.65	5.7074e-07	6.4964e-07	253.01	71.532	54.871	16.557	5.9582e-07	22.714	279.180	-30.956	-45.940	-64.367	-18.959	82.106	-64.172	-57.047	37.076	53.897	-57.423	-50.755	-50.133	-43.729	-15.794	-44.142	-8191	255	
1291.899	1	1	0	0	0.034794	0.088323	0.1971	0.20474	0.12772	0.10355	0.25333	0.11683	0.057138	0.05624	0.091599	0.13887	0.29931	0.073284	0.1035	0.097246	-3.9396	-3.9979	-3.9896	-4.3708	-3.8708	-4.15	-4.375	-3.8792	-4.1271	-4.1271	-3.9458	-4.5896	-3.8063	-4.2042	-4.0083	-3.6542	178.431	96.300	-32.946	142.694	-28.439	108.707	184.117	258.346	238.254	61.695	110.234	240.597	276.361	123.333	-32.933	110.094	0.00010742	8.2269e-05	5.9261e-05	1184.8	1.0219e-06	1.3064e-06	1255	245.3	2.8274e-06	1.6696e-06	308.15	86.721	68.092	19.782	7.2927e-07	28.104	5.497e-05	5.9176e-05	1.502e-05	1024.4	6.0214e-07	6.5007e-07	1098.5	210.77	6.2065e-07	6.3749e-07	253.07	71.533	55.163	16.546	5.8791e-07	22.612	-47.073	-41.143	-13.817	-64.349	60.797	272.290	-64.178	-56.979	110.944	7.660	-57.262	-50.736	-50.137	-44.156	279.150	-44.094	-8191	255	
1291.995	1	1	0	0	0.17315	0.087165	0.08701	0.12725	0.39217	0.17063	0.079466	0.26652	0.20102	0.15464	0.1692	0.12937	0.14838	0.16291	0.16543	0.13325	-3.875	-3.9271	-3.9417	-4.5583	-3.8917	-4.1417	-4.5813	-3.7854	-4.1021	-4.2896	-3.8604	-4.4146	-4.0563	-3.8812	-4.2792	-3.9167	200.260	28.146	180.810	231.231	30.391	-10.109	266.289	137.735	-47.598	56.581	251.439	15.228	-53.756	201.614	220.846	-50.739	0.00011997	0.00037672	5.4744e-05	1191.1	4.3195e-07	1.3606e-06	1260.4	244.72	7.9439e-07	4.1837e-06	308.72	86.777	68.154	19.766	7.0432e-07	28.003	5.8956e-05	5.839e-05	1.5006e-05	1024.9	6.4974e-07	6.3151e-07	1098.2	210.46	6.5761e-07	6.2902e-07	253.16	71.757	55.27	16.455	5.8136e-07	22.656	269.087	-73.023	275.927	-64.166	71.325	-0.748	-64.275	-57.223	246.089	1.357	-57.280	-50.715	-50.049	-43.835	33.133	-44.280	-8191	255	
1292.091	1	1	0	0	0.032574	0.16867	0.11608	0.3068	0.09013	0.0754	0.1274	0.078562	0.17591	0.12244	0.17573	0.11472	0.11114	0.02914	0.2899	0.15026	-3.7625	-4.1167	-3.775	-4.5979	-3.8625	-3.8312	-4.3313	-3.8438	-4.0583	-4.0604	-3.7729	-4.3187	-4.0167	-3.8104	-4.3792	-3.6042	9.258	73.149	70.018	-65.822	31.382	-12.096	197.368	172.687	140.779	91.044	113.238	169.500	164.020	50.885	195.421	-38.064	0.00013656	0.00029329	1.7621e-05	1184	1.5739e-06	6.1848e-07	1260.7	244.14	9.1712e-07	2.9195e-06	307.89	86.135	67.756	19.617	2.6669e-06	28.053	6.2928e-05	5.8522e-05	1.5107e-05	1026.4	7.0597e-07	6.3307e-07	1098.4	210.46	7.0503e-07	6.343e-07	252.59	71.756	55.187	16.457	5.9596e-07	22.806	254.436	-42.710	-52.858	-64.185	97.779	16.088	-63.946	-57.070	91.638	41.194	-57.538	-50.706	-50.500	-43.865	40.260	-44.119	-8191	255	
1292.210	1	1	0	0	0.11756	0.2248	0.073044	0.11943	0.11472	0.076547	0.13038	0.074007	0.015765	0.12642	0.18516	0.20833	0.069348	0.21844	0.19219	0.047757	-3.8042	-4.1104	-3.8625	-4.1083	-4.0271	-3.7917	-4.3396	-3.7083	-4	-4.1562	-3.8563	-4.3042	-3.9625	-3.8	-4.2542	-3.8021	-26.945	-13.573	76.716	133.313	277.586	231.180	-52.483	28.543	91.739	113.362	229.710	28.932	151.561	183.938	178.197	72.253	0.00018497	0.00019352	6.1162e-05	1181.9	3.0179e-06	2.3336e-06	1256.8	244.07	3.187e-06	1.684e-06	308.2	85.57	68.122	19.661	2.07e-06	27.84	6.5688e-05	5.9599e-05	1.5106e-05	1026.4	7.0699e-07	6.4311e-07	1097.9	211.03	7.1197e-07	6.4904e-07	253.07	71.976	55.382	16.451	6.1252e-07	22.859	282.212	-45.080	274.611	-64.374	25.772	41.582	-64.142	-57.147	-21.474	65.271	-57.215	-51.100	-50.475	-43.542	-10.714	-44.493	-8191	255	
1292.306	1	1	0	0	0.18411	0.20709	0.13488	0.26743	0.26638	0.21163	0.29586	0.17526	0.17745	0.13927	0.059472	0.083785	0.031106	0.030481	0.17383	0.21956	-3.6229	-4.1813	-3.6417	-4.2396	-3.8833	-3.6521	-4.3292	-4.0167	-3.7687	-4.3187	-3.7271	-4.1979	-4.1521	-3.6417	-4.3792	-3.8937	115.438	54.848	-40.331	215.767	177.375	126.083	-75.218	66.736	21.665	52.067	145.468	234.737	86.434	16.471	-25.861	282.861	4.6885e-05	0.00025194	2.2965e-05	1188.4	2.2371e-06	1.8779e-06	1260.5	244.26	2.1271e-06	1.1791e-06	305.8	85.759	67.721	19.745	1.4295e-06	27.8	6.5713e-05	5.8893e-05	1.5599e-05	1031.7	7.0109e-07	6.4442e-07	1101.8	211.32	6.9474e-07	6.3129e-07	252.95	72.058	55.07	16.452	6.3949e-07	22.885	158.353	-58.922	6.167	-64.293	-31.691	19.467	-63.981	-57.246	107.757	51.209	-57.553	-50.573	-50.112	-43.579	203.577	-44.217	-8191	255	
1292.380	1	1	0	0	0.36997	0.1919	0.18465	0.047097	0.028816	0.31789	0.32106	0.17786	0.18538	0.21508	0.24377	0.15836	0.25265	0.2011	0.16864	0.14886	-3.5917	-4.2729	-3.8396	-4.225	-4.1208	-3.6771	-4.4875	-4.1083	-3.8604	-4.3229	-3.7146	-4.2125	-4.1813	-3.9083	-4.1458	-4.0583	217.802	145.295	202.214	150.374	212.752	135.232	237.083	-40.008	115.038	151.125	-74.185	-34.146	102.537	162.421	97.111	265.044	0.00011146	0.00028148	3.6086e-05	1190.5	2.4332e-06	1.8816e-06	1260.7	243.18	2.483e-06	2.3786e-06	308.14	86.365	68.06	19.715	1.7724e-06	27.876	6.3006e-05	5.7557e-05	1.674e-05	1031.2	6.8032e-07	6.2408e-07	1103.1	211.09	6.8372e-07	6.2188e-07	253.97	72.135	55.098	16.416	6.9076e-07	22.869	-69.082	-73.907	41.243	-64.425	-23.404	8.426	-64.020	-56.958	11.699	0.078	-57.467	-50.806	-50.198	-43.851	41.963	-44.432	-8191	255	
1292.499	1	1	0	0	0.077977	0.070539	0.11187	0.14588	0.13444	0.11519	0.075078	0.13144	0.20424	0.083568	0.13514	0.045231	0.15397	0.16537	0.14307	0.18533	-3.4562	-4.225	-3.8958	-4	-4.3229	-3.85	-4.2354	-4.0396	-3.8187	-4.175	-3.8917	-3.9125	-4.1417	-3.7542	-4.0667	-4.2167	-52.174	226.667	-74.335	266.362	-14.201	-11.820	-72.588	284.050	91.259	194.491	224.082	144.957	235.536	224.992	71.512	257.139	0.00016479	0.0002027	4.5346e-06	1190.8	2.2773e-06	2.0092e-06	1259	244.52	1.8377e-06	5.3622e-07	307.35	86.134	67.709	19.729	1.2749e-06	27.79	6.0993e-05	5.6453e-05	1.7707e-05	1030.9	6.5929e-07	6.1218e-07	1102.9	211.11	6.4769e-07	6.1056e-07	253.99	71.854	54.956	16.421	7.0582e-07	22.728	281.662	34.719	71.564	-64.429	-13.865	57.211	-64.051	-56.943	176.802	-41.076	-57.323	-50.626	-50.269	-43.963	75.256	-44.241	-8191	255	
1292.595	1	1	0	0	0.085361	0.20332	0.13583	0.24303	0.14802	0.14557	0.12596	0.10766	0.027272	0.084042	0.26923	0.13158	0.23809	0.046428	0.052176	0.14428	-3.6854	-4.2354	-3.8021	-3.9021	-4.3854	-3.7583	-4.1646	-4.2875	-3.6354	-4.2937	-4.0396	-3.9667	-4.3063	-3.9813	-4.1687	-4.2417	235.354	123.321	187.323	215.448	238.782	-16.020	-56.661	282.169	-2.102	-33.562	263.745	211.808	-37.986	165.754	-45.724	110.637	0.00014897	2.8049e-05	6.0349e-05	1190.1	1.8962e-06	1.7665e-06	1259.5	243.61	9.2474e-07	1.4568e-06	306.13	85.906	67.62	19.564	2.3841e-06	27.802	5.9301e-05	5.7093e-05	1.8314e-05	1029.3	6.3876e-07	6.3392e-07	1103.1	210.88	6.4134e-07	6.5649e-07	254.05	71.766	54.927	16.483	7.2936e-07	22.733	284.853	129.497	186.352	-64.455	51.015	45.820	-64.151	-57.029	178.194	125.916	-57.408	-50.693	-50.173	-43.185	-10.032	-44.251	-8191	255	
1292.691	1	1	0	0	0.20296	0.26729	0.10068	0.10697	0.14632	0.1553	0.18499	0.24911	0.12375	0.17305	0.24717	0.011414	0.19718	0.28228	0.07593	0.25788	-3.3479	-4.2312	-4.0417	-4.0771	-4.25	-3.7812	-4.0167	-4.3438	-3.7792	-4.3479	-4.1792	-4.0271	-4.2583	-3.8771	-4.0542	-4.4125	-73.117	238.540	238.049	44.760	5.682	-16.304	225.985	252.294	-66.080	74.031	-45.417	19.967	253.011	-40.888	-34.166	-18.713	3.8964e-05	0.00014469	5.3113e-05	1189.5	1.3476e-06	2.2027e-06	1264.6	244.09	2.5131e-06	1.7408e-06	308.15	86.184	67.971	19.662	1.9514e-06	27.929	5.8399e-05	6.0876e-05	1.8231e-05	1030.3	6.2236e-07	6.8071e-07	1105	210.96	6.2987e-07	7.0728e-07	254.98	71.86	55.091	16.585	7.2036e-07	22.804	263.451	40.499	278.329	-64.227	233.985	113.095	-64.371	-57.053	71.411	31.743	-57.314	-50.969	-50.346	-43.467	61.095	-44.077	-8191	255	
1292.812	1	1	0	0	0.17205	0.10142	0.080962	0.078267	0.22257	0.052703	0.17245	0.040748	0.26195	0.14116	0.20455	0.15114	0.036188	0.23377	0.36595	0.12025	-3.5375	-4.1125	-4.0583	-4.0437	-4.3667	-3.8875	-4.075	-4.4292	-3.8792	-4.1687	-4.1167	-3.9396	-4.2562	-4.1	-3.8854	-4.2229	211.085	51.230	245.676	39.427	263.831	72.378	182.856	127.852	-31.157	212.376	172.602	272.212	44.305	271.281	-28.156	132.704	0.00012899	0.00017934	6.5268e-05	1192.8	1.749e-06	1.0523e-06	1267.6	243.98	8.3332e-07	1.0187e-06	307.25	86.113	67.965	19.828	1.5632e-06	28.011	5.9883e-05	6.8276e-05	1.8422e-05	1032.6	6.5576e-07	7.4618e-07	1107.7	211.27	6.6739e-07	7.5929e-07	254.8	71.937	55.278	16.73	7.0848e-07	22.864	-72.436	-28.872	282.949	-64.175	116.748	182.578	-64.195	-57.065	136.660	76.238	-57.490	-50.498	-50.252	-43.690	-58.647	-44.251	-8191	255	
1292.906	1	1	0	0	0.10877	0.15723	0.14417	0.14013	0.11886	0.10364	0.10088	0.048081	0.1906	0.078231	0.082443	0.11724	0.10353	0.14545	0.24382	0.091723	-3.7812	-3.9271	-4.1792	-3.9813	-4.1146	-4.0479	-4.2042	-4.1958	-3.6958	-4.0417	-4.3521	-3.7604	-4.0604	-4.0833	-3.8854	-4.2917	56.349	-33.515	280.882	225.702	-55.135	276.415	-70.098	-55.925	240.154	28.047	165.154	-39.858	12.699	86.718	241.177	-60.386	0.00013022	0.00019149	4.1144e-05	1195.5	5.7595e-07	1.6294e-06	1270.5	245.35	7.682e-07	1.5164e-06	308.62	86.15	68.346	19.708	2.1248e-06	27.984	6.2957e-05	7.077e-05	1.7903e-05	1036.8	6.9936e-07	7.7428e-07	1110.3	211.58	7.219e-07	7.8242e-07	255.21	71.871	55.742	16.721	7.185e-07	22.813	-66.372	-66.069	41.377	-64.557	211.940	83.130	-63.955	-57.159	121.964	68.717	-57.383	-50.772	-50.293	-43.684	-1.634	-44.495	-8191	255	
1293.002	1	1	0	0	0.20153	0.06329	0.12526	0.17353	0.042767	0.079396	0.36293	0.15277	0.21954	0.2119	0.081741	0.34366	0.13827	0.22436	0.28519	0.18815	-3.6271	-3.9667	-4.2979	-3.9979	-4.2083	-4.0083	-4.2083	-4.2438	-3.8375	-4.0563	-4.3896	-3.9458	-4.3	-4.325	-3.9375	-4.3688	274.655	226.173	162.451	242.359	130.350	261.859	194.969	-75.086	-11.431	110.997	236.643	-66.813	-13.093	-24.087	26.858	111.503	7.1886e-05	0.00017605	6.4094e-05	1196	1.5646e-06	3.8417e-06	1268.9	245.61	2.6557e-07	2.8918e-06	309.25	86.214	68.917	19.699	4.8523e-06	28.009	6.9232e-05	7.2457e-05	1.8092e-05	1037.1	7.7236e-07	7.7549e-07	1110.8	212.22	7.8647e-07	7.7095e-07	255.18	72.119	56.119	16.723	7.0502e-07	22.867	268.404	-66.036	249.548	-64.441	220.466	34.195	-64.169	-57.241	121.353	55.921	-57.154	-50.577	-50.142	-43.647	22.116	-44.267	-8191	255	
1293.100	1	1	0	0	0.12646	0.02956	0.2253	0.1613	0.08139	0.13513	0.33342	0.17023	0.050282	0.11389	0.19462	0.1661	0.075656	0.065255	0.052766	0.093649	-3.6688	-3.9146	-4.1521	-3.8854	-4.3667	-4.0208	-3.8833	-4.4917	-3.9167	-3.8292	-4.3604	-3.775	-4.0917	-4.1479	-3.9271	-4.3167	75.636	242.518	200.769	204.669	-26.683	-36.699	203.403	250.931	-24.659	53.945	227.495	154.639	-65.245	-16.291	136.083	236.923	0.00011968	0.00021537	9.2414e-05	1197.7	3.2825e-06	1.0785e-06	1269.9	245.08	1.0036e-06	3.2668e-06	310.18	86.637	68.15	19.732	2.8125e-06	27.836	7.4018e-05	6.9417e-05	1.7592e-05	1037.9	8.1357e-07	7.5192e-07	1111.1	212.55	8.174e-07	7.5918e-07	255.59	72.432	56.196	16.702	6.9898e-07	22.977	267.162	-56.622	-73.815	-64.284	-66.099	-9.029	-64.161	-57.209	129.165	56.280	-57.454	-50.667	-50.494	-44.008	-8.130	-44.314	-8191	255	
1293.194	1	1	0	0	0.064871	0.19066	0.19169	0.165	0.1565	0.057923	0.36476	0.29646	0.068166	0.23047	0.12791	0.13557	0.1056	0.076874	0.20843	0.16997	-3.6792	-3.9896	-4.2271	-4.0687	-4.0958	-4.0938	-4.1458	-4.4396	-3.9104	-3.9167	-4.3812	-3.8917	-3.9854	-4.2333	-3.8875	-4.2	179.625	-69.067	255.920	235.484	82.095	-10.016	209.425	177.126	-2.701	26.820	62.836	103.490	189.271	-60.742	208.015	194.306	8.3226e-05	0.0002722	4.9183e-05	1203	6.9439e-07	1.5282e-06	1268.6	244.62	1.679e-06	4.2849e-06	309.14	86.275	68.399	19.654	1.7353e-06	27.994	7.6029e-05	6.8238e-05	1.7751e-05	1042.5	8.2747e-07	7.4169e-07	1109.8	212.94	8.1983e-07	7.4138e-07	255.37	72.727	56.074	16.666	6.9423e-07	23.084	-70.851	-49.817	-50.160	-64.279	31.362	-31.613	-64.171	-57.208	-25.456	-14.900	-57.417	-50.875	-50.551	-43.925	168.898	-44.128	-8191	255	
1293.291	1	1	0	0	0.18972	0.20745	0.041706	0.1733	0.12572	0.11372	0.13108	0.15022	0.17591	0.11478	0.086776	0.14872	0.17971	0.096407	0.024856	0.17581	-3.7146	-3.9167	-4.2188	-4.1	-4.1188	-4.15	-3.9521	-4.3063	-3.9875	-3.775	-4.2958	-3.9688	-4.1042	-4.1854	-3.8979	-4.35	92.828	80.839	43.502	138.547	260.949	58.268	198.355	7.986	-28.030	-31.798	117.411	3.003	153.204	42.129	123.343	281.460	9.9674e-05	7.8751e-05	5.5753e-05	1201.1	2.4008e-06	1.5926e-06	1275	245.55	7.9414e-07	2.6414e-06	310.27	86.405	67.979	19.795	1.4745e-06	28.167	7.3852e-05	6.7282e-05	1.7503e-05	1043.8	8.031e-07	7.2929e-07	1113.3	213.76	7.9815e-07	7.2818e-07	256.43	72.866	56.079	16.668	7.1208e-07	23.258	-72.836	283.782	250.424	-64.334	-59.139	-50.652	-64.301	-57.077	23.561	-27.269	-57.472	-50.425	-50.485	-43.527	241.076	-44.382	-8191	255	
1293.387	1	1	0	0	0.16585	0.11126	0.045009	0.26138	0.10935	0.2494	0.23657	0.088276	0.059335	0.023319	0.080574	0.14198	0.1739	0.24728	0.18803	0.21766	-3.8354	-3.8937	-4.3375	-4.0146	-4.0667	-4.1146	-3.9042	-4.1542	-4.1	-3.7708	-4.2708	-4.1875	-3.8	-4.2667	-3.9375	-4.0229	211.019	276.679	186.625	258.503	62.118	79.875	269.291	75.958	60.045	126.061	138.839	238.925	232.960	37.832	-13.862	-7.078	0.00014983	0.00027128	2.8215e-05	1206.6	5.7049e-07	1.7784e-06	1277.2	247.07	2.3494e-06	1.7703e-06	310.93	86.57	68.364	19.743	1.3323e-06	28.124	7.2757e-05	6.569e-05	1.8233e-05	1046.7	7.7419e-07	7.1089e-07	1116.6	214.28	7.6142e-07	7.0976e-07	256.86	72.944	56.01	16.626	7.5274e-07	23.259	211.036	282.873	53.091	-64.347	116.242	67.106	-64.228	-57.182	39.298	11.473	-57.384	-50.727	-50.506	-44.018	-21.604	-44.061	-8191	255	
1293.507	1	1	0	0	0.073787	0.20753	0.15035	0.2575	0.17564	0.22448	0.15958	0.13627	0.062827	0.15772	0.11233	0.17878	0.15125	0.2912	0.10635	0.099432	-3.7083	-3.8125	-4.2729	-4.0667	-4.0292	-4.2417	-4.0604	-4.1125	-4.1333	-3.8417	-4.1625	-3.9458	-3.7833	-4.3562	-3.8187	-4.0625	258.293	59.864	26.263	223.754	271.051	-74.757	190.602	27.382	-55.674	31.815	63.752	259.723	236.696	-63.241	281.587	54.641	6.4853e-05	4.94e-05	2.8369e-05	1204.8	1.935e-06	2.7384e-06	1278.2	247.3	2.8132e-06	3.003e-06	310.7	86.851	68.64	19.731	2.2326e-06	27.949	7.0003e-05	6.4477e-05	1.9267e-05	1047.6	7.5206e-07	6.9623e-07	1119.1	214.81	7.5278e-07	6.9574e-07	257.75	73.061	56.001	16.665	8.0122e-07	23.153	229.172	190.885	-58.658	-64.332	50.277	109.272	-64.121	-57.238	72.163	36.175	-57.486	-50.718	-50.370	-43.778	266.649	-43.959	-8191	255	
1293.604	1	1	0	0	0.15959	0.14926	0.09607	0.16488	0.19894	0.13511	0.31682	0.17389	0.042006	0.092102	0.081671	0.15353	0.083022	0.043631	0.11002	0.11753	-3.8312	-3.7333	-4.2562	-4.2271	-3.825	-4.3708	-4.0125	-3.9833	-4.2771	-3.7292	-4.2208	-4.2667	-3.8812	-4.2083	-3.9271	-4.0604	128.418	207.066	-19.368	68.012	268.812	65.619	209.155	276.399	236.171	4.923	109.763	99.152	11.672	235.595	161.860	276.735	0.00025459	0.00019338	7.5996e-05	1209.6	2.0107e-06	8.0926e-07	1280.5	246.75	9.5305e-07	1.6034e-06	311	86.352	68.592	19.781	8.7245e-07	28.101	6.7592e-05	6.3241e-05	2.0202e-05	1049.2	7.2207e-07	6.9015e-07	1122.3	214.06	7.105e-07	7.0082e-07	257.99	72.811	55.864	16.703	8.1479e-07	23.109	266.240	-3.795	-19.525	-64.322	-21.754	214.720	-64.331	-57.306	88.315	73.311	-57.587	-50.763	-50.812	-44.050	-31.119	-44.079	-8191	255	
1293.675	1	1	0	0	0.10286	0.22088	0.043813	0.1117	0.13144	0.047232	0.212	0.22429	0.14046	0.070008	0.066905	0.25591	0.1121	0.087437	0.14967	0.29891	-3.9354	-3.8021	-4.2771	-4.4187	-3.6542	-4.3979	-4.1062	-3.8937	-4.3896	-4.0083	-4.3875	-4.1438	-3.925	-4.1729	-4.0396	-4.1729	-73.246	201.207	222.072	172.703	34.522	-17.287	207.009	49.055	11.297	106.580	12.353	284.399	115.148	167.019	1.476	-60.922	2.5247e-05	0.00010365	4.5442e-05	1208.3	2.7549e-06	7.2527e-07	1275.9	248.01	9.1379e-07	2.5208e-06	310.59	87.073	68.406	19.807	1.7864e-06	28.152	6.5574e-05	6.678e-05	2.0806e-05	1047.5	7.0381e-07	7.4184e-07	1120.3	214.54	7.0451e-07	7.6448e-07	258.16	72.721	55.82	16.819	8.0253e-07	23.095	253.740	52.053	280.989	-64.302	-38.326	6.579	-64.191	-57.242	-5.518	94.438	-57.413	-50.666	-50.056	-43.538	62.819	-44.468	-8191	255	
1293.771	1	1	0	0	0.28024	0.11083	0.11391	0.13379	0.13958	0.22292	0.050614	0.091072	0.084143	0.38389	0.32488	0.32676	0.10621	0.014345	0.13925	0.076599	-4.0854	-3.7458	-4.0437	-4.4437	-3.8958	-4.25	-4.3313	-3.7812	-4.15	-3.8812	-4.0146	-4.2063	-3.9146	-4.1229	-3.9188	-3.9188	1.696	94.318	19.733	263.469	27.575	60.507	119.701	231.417	-34.410	-48.892	267.800	-22.193	259.925	59.964	259.092	137.601	0.00011066	0.00013039	1.14e-05	1212.5	1.9925e-06	3.3778e-07	1280.6	246.59	1.4238e-06	2.2159e-06	310.86	86.494	68.924	19.749	2.5819e-06	28.113	6.4626e-05	7.1762e-05	2.0228e-05	1049.2	7.0552e-07	8.0625e-07	1122.8	213.94	7.0891e-07	8.1328e-07	258.2	72.727	55.958	16.904	7.8758e-07	23.071	-50.270	76.434	274.165	-64.342	-26.302	-46.412	-64.106	-57.039	93.316	44.993	-57.475	-50.844	-50.529	-43.349	25.311	-44.420	-8191	255	
1293.892	1	1	0	0	0.047555	0.12244	0.15934	0.17669	0.15498	0.15499	0.25559	0.1655	0.31085	0.17703	0.14902	0.029479	0.20277	0.18965	0.062824	0.05617	-3.8917	-3.8625	-3.7521	-4.3917	-3.7417	-3.9313	-4.3187	-3.8042	-4.2104	-3.875	-4.1167	-4.1937	-3.8458	-4.0667	-4.0958	-3.9083	49.958	113.234	141.849	235.728	36.409	201.976	211.990	45.598	227.105	76.450	-58.629	243.445	25.600	-19.332	148.742	223.562	0.00015505	0.00019288	4.0174e-05	1213.9	1.7285e-06	2.484e-06	1279.5	247.64	1.64e-06	6.0221e-07	310.95	86.879	68.744	19.895	5.7719e-07	28.054	6.5882e-05	7.5522e-05	1.9699e-05	1050.7	7.3385e-07	8.3296e-07	1123.2	214.04	7.3331e-07	8.229e-07	257.68	72.751	56.099	16.921	7.4615e-07	23.021	278.870	40.537	46.661	-64.151	-22.063	269.667	-64.172	-56.960	258.405	62.726	-57.341	-50.697	-49.958	-43.553	77.493	-44.424	-8191	255	
1293.986	1	1	0	0	0.2069	0.11031	0.071748	0.15332	0.038771	0.11497	0.13386	0.21762	0.24637	0.24994	0.13514	0.24761	0.068296	0.11565	0.05487	0.1171	-3.8292	-3.9771	-3.925	-4.2667	-3.9062	-4.0292	-4.1542	-3.7812	-4.3292	-3.9938	-3.8312	-4.4333	-3.6896	-4.0375	-4.3792	-3.7854	27.563	155.983	253.395	-47.198	215.769	193.041	257.488	213.706	98.993	269.975	222.021	218.059	142.634	218.986	-72.276	126.167	0.00013542	0.00023573	2.2607e-05	1209.2	1.2336e-06	4.672e-06	1280	247.14	1.766e-06	1.8946e-06	311.48	86.773	68.898	19.901	1.5445e-06	28.271	6.9365e-05	7.3761e-05	1.8637e-05	1047.3	7.5409e-07	7.9246e-07	1120.6	213.67	7.6519e-07	7.7893e-07	257.73	72.386	56.323	16.843	6.9875e-07	22.968	-60.646	278.901	213.512	-64.492	248.338	5.654	-64.389	-57.176	41.487	8.693	-57.662	-50.711	-49.992	-43.778	-29.270	-44.614	-8191	255	
1294.083	1	1	0	0	0.19746	0.24395	0.093078	0.14382	0.034981	0.19794	0.31149	0.21431	0.26118	0.22724	0.12205	0.10647	0.10184	0.10293	0.18478	0.14578	-3.8083	-4.0792	-3.6667	-4.3375	-3.8521	-4.0792	-4.6417	-3.7333	-4.1625	-4.2562	-4.05	-4.4229	-4.025	-3.9583	-4.0854	-3.8625	-40.860	249.664	150.903	44.494	173.314	253.592	235.490	232.605	-45.180	74.404	68.253	-66.052	105.183	245.884	125.770	-19.450	0.00013952	0.00021383	3.1301e-05	1204.9	1.4112e-06	3.1025e-06	1277.1	247	9.5028e-07	2.4611e-06	310.43	86.697	68.546	19.913	1.6716e-06	28.008	7.1472e-05	6.9242e-05	1.7937e-05	1045.9	8.0193e-07	7.8003e-07	1119	214.15	8.3122e-07	7.8719e-07	257.29	72.765	56.654	16.882	7.4399e-07	23.07	239.025	-68.773	251.347	-64.341	19.093	-20.170	-64.245	-57.204	225.736	30.764	-57.785	-50.429	-50.372	-43.622	45.731	-44.481	-8191	255	
1294.180	1	1	0	0	0.061705	0.14772	0.014372	0.38847	0.13468	0.18299	0.19468	0.19973	0.10098	0.36129	0.16001	0.22432	0.13845	0.23772	0.16655	0.11633	-3.6813	-3.9146	-3.9437	-4.3229	-3.8229	-4.0583	-4.5104	-3.7875	-4.1958	-4.1625	-3.8354	-4.2417	-4.2042	-3.7896	-4.1146	-3.9062	85.595	175.014	101.790	-73.636	126.798	107.922	211.544	237.289	103.357	139.439	-6.398	197.738	167.876	-44.564	5.035	182.147	0.00010983	8.0819e-05	2.3448e-05	1206.5	1.5717e-06	1.8347e-06	1282.5	247.08	3.3099e-06	6.8203e-07	310.89	86.57	68.491	19.855	9.2056e-07	28.18	8.053e-05	7.3814e-05	1.9224e-05	1050	8.9567e-07	8.1086e-07	1121.7	214.82	9.0231e-07	8.0807e-07	257.77	73.024	56.756	16.895	7.5437e-07	23.291	-41.034	175.000	-0.635	-64.432	280.839	59.473	-64.127	-57.095	-0.722	0.382	-57.599	-50.646	-50.438	-43.986	260.232	-44.473	-8191	255	
1294.299	1	1	0	0	0.060047	0.086357	0.15008	0.14178	0.10676	0.065802	0.1604	0.18742	0.12399	0.083157	0.16519	0.32819	0.097611	0.1237	0.085809	0.15884	-3.7292	-4.2667	-3.6937	-4.3375	-4.1208	-3.775	-4.3187	-3.8542	-4.05	-4.2312	-3.8292	-4.3792	-4.1375	-3.8021	-4.1687	-3.8979	-45.397	129.807	-14.563	-43.563	49.004	139.683	274.791	134.876	13.567	-44.846	268.013	216.605	216.701	221.699	127.280	225.212	0.00012594	0.00013155	0.00010331	1210.6	2.7371e-06	3.2904e-06	1285.2	247.57	2.5181e-06	1.4084e-06	312.57	86.467	68.92	19.871	5.9098e-07	28.109	8.2888e-05	7.5367e-05	1.955e-05	1055.1	9.1857e-07	8.3623e-07	1126	215.9	9.2493e-07	8.4166e-07	259.37	73.82	57.097	16.935	8.1586e-07	23.565	278.240	232.149	-61.743	-64.349	10.784	4.583	-64.272	-57.099	-12.407	-48.736	-57.505	-50.686	-50.522	-43.887	82.528	-44.363	-8191	255	
1294.371	1	1	0	0	0.11915	0.1721	0.15119	0.21461	0.11089	0.027648	0.22868	0.10785	0.13784	0.11937	0.062185	0.20024	0.18844	0.19564	0.14099	0.078119	-3.7562	-4.1167	-3.7646	-4.2583	-4.0042	-3.4979	-4.3333	-4.0104	-3.8563	-4.1958	-3.9021	-4.2125	-4.1771	-3.8792	-4.3708	-4.1458	92.979	-61.707	283.197	227.706	120.961	262.616	214.551	-27.020	181.346	282.798	103.426	-74.984	235.939	52.343	16.500	143.070	0.00028849	0.00031401	3.4097e-05	1214.1	6.1006e-07	2.7854e-06	1284.7	248.06	1.5814e-06	3.4977e-06	312.16	87.103	68.506	20.049	2.2043e-06	28.169	8.472e-05	7.7428e-05	2.082e-05	1061.1	9.2065e-07	8.6016e-07	1129	217.31	9.3008e-07	8.6229e-07	260.6	74.434	57.201	17.035	8.8634e-07	23.707	272.187	282.984	25.966	-64.293	-48.801	22.441	-64.106	-57.080	-46.924	54.456	-57.509	-50.306	-50.388	-44.309	137.189	-44.267	-8191	255	
1294.492	1	1	0	0	0.074488	0.08736	0.032575	0.31086	0.049088	0.062785	0.26866	0.04652	0.15178	0.10417	0.14705	0.19252	0.10091	0.1634	0.23269	0.055209	-3.5938	-4.4104	-3.6792	-4.15	-4.1917	-3.8688	-4.2937	-4.2063	-3.9854	-4.1896	-3.9583	-4.1479	-3.9292	-3.6875	-4.1333	-4.1062	60.370	36.409	146.245	260.896	168.480	195.059	-15.052	-70.366	-8.262	165.793	35.237	267.533	128.162	136.884	263.826	209.669	0.00012322	9.5246e-05	3.6965e-05	1217.9	2.7392e-06	2.9261e-06	1290.8	248.98	1.5753e-06	2.273e-06	315.13	87.458	68.999	20.07	1.2563e-06	28.277	8.4221e-05	7.8469e-05	2.2972e-05	1065.1	9.2342e-07	8.5857e-07	1136.5	218.63	9.2821e-07	8.575e-07	262.65	74.507	57.317	17.104	9.7575e-07	23.698	-58.594	-8.566	272.193	-64.312	-64.390	23.519	-64.246	-57.176	-53.719	29.765	-57.534	-50.882	-50.045	-43.759	108.368	-44.511	-8191	255	
1294.588	1	1	0	0	0.27244	0.053021	0.047694	0.13559	0.035607	0.096979	0.26744	0.16035	0.087393	0.099	0.12762	0.1478	0.33144	0.15196	0.22744	0.077869	-3.4896	-4.3771	-3.8708	-4.1292	-4.2583	-3.6	-4.3292	-4.2417	-3.7458	-4.2104	-4.0437	-3.9771	-4.0687	-3.9625	-4.0354	-4.0375	48.925	12.704	28.703	260.217	234.394	104.444	249.185	-4.367	83.231	180.175	-66.128	255.353	229.569	-67.738	146.284	66.701	0.00020522	4.7381e-05	3.1377e-05	1225.8	1.7695e-06	4.921e-07	1291.2	250.47	7.1635e-07	1.0464e-06	314.08	87.193	69.205	19.882	3.3922e-06	28.359	8.5608e-05	7.9241e-05	2.5115e-05	1068.3	9.2606e-07	8.7548e-07	1140.2	218.93	9.3077e-07	8.9314e-07	263.55	74.287	57.327	17.075	1.0432e-06	23.686	259.141	104.515	276.289	-64.421	-10.778	57.067	-64.366	-57.124	7.092	155.075	-57.302	-51.086	-50.653	-44.068	69.386	-44.361	-8191	255	
1294.684	1	1	0	0	0.20725	0.10311	0.20537	0.24762	0.10083	0.080061	0.35893	0.13274	0.18733	0.3135	0.28949	0.28115	0.07208	0.18841	0.074053	0.1499	-3.4354	-4.05	-4.0333	-4.0417	-4.2167	-3.7958	-4.0312	-4.1292	-3.8521	-4.2812	-3.9875	-3.9625	-4.3083	-3.9938	-4.0229	-4.1604	179.083	-34.077	117.638	254.804	272.015	24.183	235.990	135.406	181.564	12.802	258.673	186.924	-33.371	-6.376	142.461	149.811	0.00014337	0.00027605	2.6214e-05	1223.7	3.2404e-06	1.1664e-06	1297.2	251.82	8.7976e-07	9.9515e-07	314.97	87.232	69.091	20.048	4.7011e-06	28.127	8.5582e-05	8.4726e-05	2.6781e-05	1070.7	9.386e-07	9.5607e-07	1143.2	219.67	9.4318e-07	9.8105e-07	264.62	74.584	57.608	17.312	1.0868e-06	23.754	251.438	-26.419	5.848	-64.516	-0.435	130.952	-64.243	-57.245	274.143	84.029	-57.630	-50.802	-50.550	-43.586	-43.727	-44.278	-8191	255	
1294.780	1	1	0	0	0.1146	0.10786	0.070618	0.2069	0.2121	0.21647	0.4845	0.10042	0.1716	0.1754	0.031792	0.069075	0.095814	0.014417	0.10761	0.20712	-3.45	-4.0479	-4.1521	-3.8771	-4.2875	-3.7313	-4.1583	-4.175	-3.7396	-4.2729	-3.9708	-3.6979	-4.2083	-3.8104	-3.9396	-4.1521	7.560	225.640	256.857	258.766	89.466	71.418	189.168	273.424	6.792	226.709	139.013	-11.015	231.547	91.309	166.230	189.791	0.00018312	0.00012322	6.4182e-05	1229.5	6.3754e-07	1.8211e-06	1298	251.49	9.3247e-07	1.855e-06	316.78	87.864	69.916	20.033	2.6159e-06	28.215	8.6909e-05	9.4679e-05	2.7434e-05	1072	9.4133e-07	1.0487e-06	1145.7	219.98	9.5054e-07	1.0784e-06	265.64	74.712	57.79	17.444	1.0732e-06	23.715	-42.999	256.131	-42.227	-64.467	127.964	229.760	-64.101	-57.226	58.428	62.741	-57.632	-50.836	-50.339	-43.901	234.834	-44.206	-8191	255	
1294.901	1	1	0	0	0.055029	0.11832	0.15232	0.099754	0.24082	0.13011	0.24302	0.07417	0.2746	0.11158	0.13428	0.16051	0.058228	0.22984	0.1787	0.32217	-3.4625	-4.0458	-4.1229	-3.8375	-4.2292	-3.8396	-4.0646	-4.2729	-3.8417	-4.1354	-4.0833	-3.8042	-4.4396	-4.0479	-3.8	-4.2542	51.640	48.132	-26.414	242.275	145.429	-58.858	226.801	267.561	121.153	72.498	210.580	-10.486	143.541	207.188	-21.549	57.110	9.9962e-05	0.00013342	3.2542e-05	1229.7	1.1293e-06	1.58e-06	1299.8	253.34	1.6777e-06	9.2313e-07	316.11	87.33	69.6	20.059	1.4615e-06	28.318	8.7688e-05	9.9636e-05	2.6767e-05	1072.9	9.5196e-07	1.0947e-06	1146.1	220.03	9.7071e-07	1.0991e-06	265.03	74.492	57.948	17.463	1.0124e-06	23.668	244.433	40.649	207.981	-64.326	42.082	269.055	-64.219	-57.082	245.693	221.390	-57.558	-50.569	-50.375	-44.286	-12.046	-44.645	-8191	255	
1294.972	1	1	0	0	0.11356	0.16744	0.16447	0.19268	0.22362	0.089281	0.11311	0.18459	0.11301	0.15066	0.0092142	0.067994	0.23212	0.033261	0.15004	0.31904	-3.3396	-4.05	-4.2583	-3.7917	-4.0833	-3.8104	-4.1	-4.3854	-3.8292	-3.8521	-4.2958	-3.8146	-4.2521	-3.9354	-4.1417	-4.4062	37.227	170.691	101.043	262.175	202.049	63.237	60.953	176.812	109.453	228.813	55.022	63.341	149.347	9.270	105.311	227.525	0.00025875	6.8798e-05	0.00010471	1232.6	1.8509e-06	3.222e-06	1296	252.46	9.059e-07	3.5278e-07	315.79	87.518	69.534	20.046	1.6125e-06	28.336	9.175e-05	0.0001001	2.5354e-05	1073.2	1.0111e-06	1.0985e-06	1144.6	219.73	1.0345e-06	1.1091e-06	264.99	74.506	58.299	17.493	1.0168e-06	23.658	231.100	-36.350	264.282	-64.463	146.081	11.242	-64.148	-57.239	227.601	46.384	-57.407	-50.919	-50.534	-43.778	10.041	-44.408	-8191	255	
1295.068	1	1	0	0	0.1332	0.23988	0.079462	0.19233	0.067015	0.13208	0.16255	0.22074	0.076172	0.093399	0.066665	0.21713	0.085813	0.10093	0.11866	0.095505	-3.3104	-4.1979	-4.1958	-3.8167	-4.2396	-3.9854	-4.0458	-4.3208	-3.9062	-3.9688	-4.2292	-3.8	-4.3104	-4.0917	-3.7833	-4.3187	242.045	140.038	-10.605	146.712	219.027	197.219	237.844	276.755	182.764	-14.842	170.205	245.975	261.130	-41.874	216.113	-9.571	8.9702e-05	6.2317e-05	3.3731e-05	1228.4	2.0401e-06	2.768e-06	1303.8	252.38	1.2637e-06	1.8404e-06	318.22	87.02	69.273	20.204	1.1505e-06	28.346	9.987e-05	0.00010002	2.5786e-05	1073.2	1.1098e-06	1.1006e-06	1148.1	220.43	1.1276e-06	1.1114e-06	265.66	74.659	58.737	17.536	1.0289e-06	23.829	282.307	-28.704	245.022	-64.624	57.595	11.021	-64.287	-57.186	203.613	37.298	-57.512	-50.581	-50.245	-44.041	-23.704	-43.711	-8191	255	
1295.187	1	1	0	0	0.16626	0.13901	0.13618	0.27496	0.24684	0.044957	0.032801	0.023151	0.21829	0.12881	0.04551	0.11071	0.14972	0.12473	0.089539	0.074944	-3.1813	-3.9479	-4.0729	-3.9688	-4.0708	-4.0792	-3.9188	-4.3479	-3.8771	-3.8812	-4.3688	-3.7521	-4.1062	-4.1562	-3.8187	-4.3063	98.216	253.487	20.491	199.667	159.238	-36.777	271.989	19.222	175.689	17.419	16.952	275.572	1.216	201.879	86.776	20.829	0.00013675	0.00026245	1.4776e-05	1236.6	1.4556e-06	1.1007e-06	1311.6	252.62	1.4472e-06	1.7742e-06	316.27	88.473	69.898	20.169	1.387e-06	28.429	0.00010889	0.00010151	2.6315e-05	1080.8	1.2077e-06	1.1113e-06	1153.5	221.78	1.2055e-06	1.0901e-06	265.35	75.362	59.223	17.519	1.015e-06	24.032	281.608	-62.516	121.533	-64.413	231.354	-52.365	-64.149	-57.295	99.914	-45.297	-57.747	-50.794	-50.713	-43.949	91.500	-44.234	-8191	255	
1295.284	1	1	0	0	0.1042	0.11994	0.17099	0.15184	0.15825	0.20841	0.090796	0.17102	0.060467	0.072371	0.24272	0.1063	0.12074	0.20204	0.17397	0.13142	-3.5417	-3.8375	-4.2229	-3.7646	-4.1875	-4.0125	-3.8375	-4.1646	-3.9104	-3.6583	-4.3979	-3.9167	-4.0021	-4.1854	-3.9271	-4.4104	-19.531	47.903	111.134	87.473	-54.196	33.579	-45.327	201.197	83.461	53.162	278.714	-33.613	-41.067	247.403	99.859	174.488	3.692e-05	0.000356	0.0001035	1240.3	2.9437e-06	1.1502e-06	1311.4	251.72	3.0238e-06	3.9383e-06	317.22	87.683	69.711	20.079	1.2009e-06	28.486	0.00011032	0.00010034	2.5724e-05	1084.5	1.2231e-06	1.1014e-06	1152.4	222.65	1.2129e-06	1.111e-06	266.13	75.861	59.23	17.547	1.0448e-06	24.296	115.020	-46.528	-47.106	-64.284	-60.132	275.704	-64.392	-57.522	77.300	23.387	-57.774	-50.583	-50.812	-44.094	122.470	-44.386	-8191	255	
1295.380	1	1	0	0	0.23878	0.14223	0.094846	0.32137	0.11037	0.29271	0.13852	0.17439	0.070375	0.10724	0.099671	0.079187	0.34719	0.072665	0.19679	0.45507	-3.7354	-3.6458	-4.3667	-4.0896	-3.9	-4.2146	-3.9833	-4.2312	-4.1229	-3.7979	-4.2646	-3.7896	-4.0417	-4.2625	-3.7479	-4.3042	75.180	-50.812	-14.436	-68.423	63.953	214.667	211.015	-71.110	18.159	-74.252	195.962	241.547	21.484	141.237	-54.609	275.879	0.00025573	9.1633e-05	9.557e-05	1239	1.2179e-06	1.8784e-06	1305.6	253.93	5.149e-07	2.5125e-06	317.53	87.797	69.817	20.058	5.4631e-07	28.311	0.00011095	0.00010058	2.6644e-05	1089.2	1.207e-06	1.1162e-06	1154.7	224.27	1.1867e-06	1.0985e-06	267.13	76.164	59.176	17.538	1.0844e-06	24.346	278.709	17.868	-4.537	-64.313	246.252	166.398	-64.043	-57.303	102.197	-17.412	-57.447	-50.813	-50.752	-44.004	84.664	-44.361	-8191	255	
1295.476	1	1	0	0	0.083347	0.11198	0.3504	0.2186	0.20778	0.13754	0.18043	0.050972	0.19623	0.22048	0.18908	0.1726	0.088376	0.11288	0.092017	0.10245	-3.7875	-3.6979	-4.2812	-4.1729	-3.9583	-3.9708	-3.8542	-4.0354	-4.3042	-3.5354	-4.1792	-3.9375	-3.9208	-4.3771	-3.7167	-3.875	239.405	87.832	42.446	255.631	67.696	82.831	247.470	110.262	32.954	114.540	-41.052	-71.716	-44.158	-33.838	256.015	212.580	0.00017197	0.00023207	3.247e-05	1238.5	3.9015e-06	5.4217e-06	1312.4	253.58	1.9256e-06	1.7215e-06	317.3	88.221	70.062	20.092	2.4561e-06	28.363	0.00010631	9.7768e-05	2.7549e-05	1089.7	1.1463e-06	1.0445e-06	1157.5	223.74	1.1178e-06	1.0333e-06	267.57	75.922	58.839	17.411	1.1337e-06	24.227	-42.891	-69.716	13.963	-64.384	9.367	35.414	-64.411	-57.089	33.896	-17.838	-57.336	-50.905	-50.263	-44.604	200.017	-44.214	-8191	255	
1295.572	1	1	0	0	0.13894	0.055157	0.14958	0.20467	0.19325	0.19541	0.2568	0.16906	0.099417	0.17299	0.12219	0.055696	0.20391	0.27371	0.23257	0.16061	-3.6792	-3.7354	-4.1667	-3.9917	-4.0333	-4.225	-3.9875	-4.2542	-4.25	-3.5771	-4.2604	-4.1646	-3.7438	-4.1583	-3.8771	-3.8458	127.782	275.338	178.170	222.292	208.033	-15.449	202.194	226.450	48.234	218.689	95.575	25.929	266.650	51.153	61.474	269.842	9.1886e-05	0.00027098	8.0264e-05	1237.5	5.0818e-06	1.5525e-06	1308.8	252.95	2.1413e-06	8.7645e-07	318.22	88.426	69.964	20.191	3.7545e-06	28.427	0.00010258	9.4263e-05	2.9439e-05	1086.8	1.1223e-06	1.0397e-06	1157.6	223.42	1.1083e-06	1.0399e-06	268.8	75.989	58.786	17.456	1.1943e-06	24.156	-22.776	280.591	-62.695	-64.456	41.173	-20.919	-64.364	-57.192	229.764	24.047	-57.463	-50.712	-50.726	-44.327	-60.931	-44.544	-8191	255	
1295.668	1	1	0	0	0.17793	0.064091	0.098546	0.31614	0.17694	0.32423	0.14096	0.13195	0.19775	0.079313	0.16968	0.14941	0.20567	0.085857	0.24803	0.072647	-3.7396	-3.6021	-4.1417	-4.0792	-3.6375	-4.2729	-4.1312	-3.8063	-4.0646	-3.825	-4.2208	-4.2083	-3.6229	-3.9979	-3.8292	-4.05	-56.575	-49.528	196.450	260.575	189.605	211.677	182.456	83.674	211.971	-64.465	-56.707	118.930	229.028	1.721	84.242	169.690	0.00020055	0.00012826	5.5721e-05	1240.2	1.0192e-06	1.713e-06	1307.6	252.6	1.5874e-06	4.7005e-06	316.5	88.117	70.079	20.1	1.9664e-06	28.527	0.00010007	9.5899e-05	3.051e-05	1087.2	1.0762e-06	1.0585e-06	1159.1	222.74	1.0553e-06	1.0522e-06	268.91	75.518	58.469	17.499	1.1762e-06	23.971	222.017	258.484	-70.154	-64.512	-32.099	23.827	-64.142	-57.198	-3.109	123.702	-57.506	-50.782	-50.562	-44.103	91.395	-44.466	-8191	255	
1295.764	1	1	0	0	0.17509	0.050428	0.071293	0.06448	0.15065	0.18083	0.21606	0.289	0.085947	0.22338	0.28694	0.11391	0.092729	0.084509	0.28002	0.18274	-3.8104	-3.7438	-4.0604	-4.1625	-3.6667	-4.1875	-4.0333	-3.775	-4.3646	-3.8792	-4.0667	-4.1062	-3.9146	-4.2438	-3.8917	-3.8875	-28.777	111.938	51.802	194.505	238.251	58.915	275.279	226.021	283.179	96.567	-44.760	111.198	25.346	24.452	-0.162	113.441	0.00012424	0.00034088	2.9627e-05	1239.8	2.8138e-06	5.6274e-07	1304.6	252.68	1.919e-06	2.7071e-06	317.93	88.278	70.122	20.05	4.1002e-06	28.365	9.4111e-05	9.8038e-05	2.9802e-05	1084.7	1.0154e-06	1.0864e-06	1155.8	222.16	9.8564e-07	1.0882e-06	268.04	75.147	58.25	17.507	1.1217e-06	23.875	258.147	39.156	82.981	-64.469	17.741	-33.952	-64.239	-57.386	3.614	145.532	-57.307	-50.608	-50.427	-43.940	-29.935	-44.557	-8191	255	
1295.860	1	1	0	0	0.18767	0.02764	0.086374	0.21811	0.039223	0.26911	0.22187	0.15427	0.057607	0.1821	0.073047	0.16828	0.049496	0.23493	0.19772	0.19019	-4.1312	-3.6375	-3.9333	-4.4208	-3.6292	-3.8708	-4.1562	-3.9125	-4.2312	-3.8583	-4.1625	-4.0625	-3.7583	-4.1438	-4.0708	-3.8625	132.154	86.833	-3.789	273.946	-15.242	-74.390	236.083	-4.941	-63.655	44.042	279.256	-48.939	75.244	-43.160	40.358	121.927	9.5923e-05	0.00020806	5.0451e-05	1240.6	1.1566e-07	1.0552e-06	1310.7	252.97	2.408e-06	8.4691e-07	315.72	88.176	69.903	20.255	1.9463e-06	28.284	8.9767e-05	0.00010264	2.808e-05	1080.9	9.8012e-07	1.1222e-06	1156.6	221.76	9.8725e-07	1.1394e-06	266.91	75.105	58.281	17.601	1.0601e-06	23.769	275.404	97.721	247.001	-64.426	64.558	-4.788	-64.277	-57.517	158.160	-12.491	-57.528	-50.732	-50.176	-43.849	-50.835	-44.429	-8191	255	
1295.981	1	1	0	0	0.07437	0.28058	0.2735	0.13088	0.070428	0.088626	0.22329	0.16711	0.029722	0.26857	0.24418	0.22594	0.0068435	0.038542	0.15198	0.16381	-3.8375	-3.9646	-3.8958	-4.4646	-3.7625	-4.1354	-4.3938	-3.7125	-4.1062	-4.0312	-3.9688	-4.05	-3.875	-4.0646	-3.9292	-3.7958	249.273	219.906	258.406	208.318	89.876	-44.589	248.318	213.151	157.773	135.520	36.050	-62.715	265.803	49.432	-4.340	172.332	9.7914e-05	0.00024886	9.5524e-05	1237.6	9.6656e-07	1.7195e-06	1303.5	252.09	1.8983e-06	2.3434e-06	316.79	87.764	69.349	20.095	2.1014e-06	28.135	9.0689e-05	0.00010292	2.6599e-05	1078.9	1.0034e-06	1.1317e-06	1150.1	220.74	1.0249e-06	1.11e-06	266.06	74.562	58.181	17.499	9.9848e-07	23.613	-22.751	252.707	237.705	-64.557	-63.517	33.497	-64.199	-57.191	-74.274	-40.325	-57.261	-50.811	-50.407	-43.683	283.832	-43.851	-8191	255	
1296.075	1	1	0	0	0.1352	0.059005	0.16963	0.13433	0.12511	0.059882	0.041498	0.292	0.13629	0.18226	0.22835	0.18483	0.037662	0.16074	0.093515	0.21212	-3.8479	-4.0188	-3.7833	-4.3646	-3.8396	-3.9667	-4.1479	-3.9042	-4.0875	-3.8563	-3.9521	-4.2979	-3.8375	-4.0854	-4.0833	-3.9	34.480	-54.773	59.934	201.782	176.573	239.070	-62.387	146.368	43.899	130.996	203.379	-56.975	-45.234	110.079	184.257	-59.363	0.00019807	0.00017792	6.5579e-05	1234.7	2.0664e-06	1.7303e-06	1308.8	252.22	1.0421e-06	2.3132e-06	317.66	87.788	69.43	20.025	3.5811e-06	28.274	9.6335e-05	9.8855e-05	2.5089e-05	1076.3	1.0452e-06	1.0718e-06	1149.8	220.48	1.0598e-06	1.0624e-06	265.01	74.445	58.42	17.423	9.7112e-07	23.663	275.641	251.824	-64.633	-64.537	99.718	25.285	-64.325	-57.186	77.646	58.240	-57.458	-50.521	-50.441	-43.740	-20.261	-44.068	-8191	255	
1296.172	1	1	0	0	0.11451	0.17235	0.11175	0.19258	0.21391	0.0886	0.078985	0.22234	0.15632	0.23113	0.18078	0.11026	0.19915	0.1365	0.18544	0.23932	-3.7104	-3.9854	-3.6937	-4.1625	-3.825	-3.8833	-4.3313	-4.0271	-4.1937	-3.9979	-3.8458	-4.3021	-3.9083	-4.0167	-4.4271	-3.8667	39.811	208.047	98.814	261.065	-6.811	199.879	162.471	277.793	262.860	175.447	-62.261	35.843	-39.005	155.366	-74.757	59.594	6.2382e-05	0.00016237	5.5189e-05	1234.7	2.4082e-06	1.7519e-06	1304.6	251.74	3.9239e-06	2.7234e-06	315.35	87.278	69.338	20.029	1.7354e-06	28.306	0.00010009	9.597e-05	2.4605e-05	1076.8	1.1056e-06	1.0396e-06	1148.2	220.56	1.1139e-06	1.0297e-06	264.22	74.625	58.574	17.348	9.3844e-07	23.726	219.182	259.111	-37.935	-64.523	75.291	-30.311	-64.079	-57.252	-23.848	48.339	-57.601	-51.118	-50.261	-43.975	2.966	-44.348	-8191	255	
1296.268	1	1	0	0	0.28115	0.16135	0.16906	0.39496	0.014946	0.0689	0.32271	0.079225	0.084773	0.12836	0.15672	0.18231	0.13304	0.051456	0.1211	0.12455	-3.7188	-4.0625	-3.5563	-4.4229	-4.0479	-3.8667	-4.2792	-3.8667	-4.2271	-4.1292	-4.0021	-4.2542	-3.9354	-3.8333	-4.0813	-3.8187	87.610	-49.918	78.167	258.402	151.626	173.225	228.261	277.321	-34.402	-21.718	219.464	62.211	234.834	193.158	1.394	108.764	0.00010066	4.5357e-05	4.6708e-05	1235.1	1.1106e-06	1.084e-06	1306.4	253.02	2.8335e-06	1.8306e-06	314.74	87.868	69.591	20.107	2.8957e-07	28.31	0.00010193	9.1435e-05	2.3659e-05	1078	1.091e-06	9.9791e-07	1147.8	221.31	1.0902e-06	9.875e-07	264.06	74.967	58.451	17.264	9.0558e-07	23.765	204.838	114.068	265.198	-64.314	151.562	-35.819	-64.150	-57.331	128.679	47.755	-57.380	-50.875	-50.734	-43.940	10.776	-44.540	-8191	255	
1296.364	1	1	0	0	0.23162	0.12185	0.076996	0.23019	0.19581	0.21608	0.15074	0.037351	0.26055	0.055241	0.15698	0.10078	0.30964	0.20547	0.14009	0.2254	-3.4854	-4.2562	-3.6979	-4.1937	-4.1292	-3.6875	-4.1604	-3.8563	-4.0104	-4.125	-3.8312	-4.1229	-3.9167	-3.9125	-4.3042	-3.8396	97.946	0.256	104.420	-60.437	-10.410	168.330	232.804	259.324	-1.116	68.722	210.891	233.552	231.237	166.137	142.164	33.349	6.6364e-05	0.00022599	3.9296e-05	1231.6	5.0721e-07	1.0839e-06	1305.9	252.42	2.0537e-06	2.1562e-06	315.08	87.827	69.614	20.01	2.5008e-06	28.272	9.8704e-05	8.7843e-05	2.3069e-05	1077.5	1.0454e-06	9.5738e-07	1146	221.22	1.0348e-06	9.4001e-07	263.93	75.053	58.144	17.179	9.1072e-07	23.844	203.916	257.529	226.593	-64.576	102.991	-34.344	-64.038	-57.219	-46.262	57.762	-57.445	-50.928	-50.220	-43.674	165.638	-44.501	-8191	255	
#DATA ENDS
