BOXY.EXE: ISS Imagent and Oximeter Data Acquisition Program Version 0.80
Ascii Record File

#ACQ INFORMATION
2  Detector Channels 
16  External MUX Channels 
1  Auxiliary Channels 
5000  Waveform (CCF) Frequency (Hz)
1  Waveforms Skipped 
30  Waveforms Averaged 
1  Cycles Averaged 
16  Acquisitions per Waveform 
10.0806  Updata Rate (Hz) 

#FILE INFORMATION
TRUE -- External MUX Channel results are PARSED.
FALSE -- AC DC and Phase are NOT grouped.
TRUE -- Companion Program Settings File CREATED.
FALSE -- AC data not excluded
FALSE -- DC data not excluded
FALSE -- Phase data not excluded
FALSE -- Auxillary Chn. data not excluded
Tab delimiters

#CALIBRATION STATE
TRUE -- Waveform Calibration Values APPLIED.


#AUX CALIBRATION VALUES
Val Type	aux-1	

Term	1.0000e+00	
Factor	0.0000e+00	


#WF CALIBRATION VALUES
A = Detector Channel
Val Type	A-AC1	A-AC2	A-AC3	A-AC4	A-AC5	A-AC6	A-AC7	A-AC8	A-AC9	A-AC10	A-AC11	A-AC12	A-AC13	A-AC14	A-AC15	A-AC16	A-DC1	A-DC2	A-DC3	A-DC4	A-DC5	A-DC6	A-DC7	A-DC8	A-DC9	A-DC10	A-DC11	A-DC12	A-DC13	A-DC14	A-DC15	A-DC16	A-Ph1	A-Ph2	A-Ph3	A-Ph4	A-Ph5	A-Ph6	A-Ph7	A-Ph8	A-Ph9	A-Ph10	A-Ph11	A-Ph12	A-Ph13	A-Ph14	A-Ph15	A-Ph16	

Term	0.00000e+00	0.00000e+00	0.00000e+00	0.00000e+00	0.00000e+00	0.00000e+00	0.00000e+00	0.00000e+00	0.00000e+00	0.00000e+00	0.00000e+00	0.00000e+00	0.00000e+00	0.00000e+00	0.00000e+00	0.00000e+00	0.00000e+00	0.00000e+00	0.00000e+00	0.00000e+00	0.00000e+00	0.00000e+00	0.00000e+00	0.00000e+00	0.00000e+00	0.00000e+00	0.00000e+00	0.00000e+00	0.00000e+00	0.00000e+00	0.00000e+00	0.00000e+00	0.00000e+00	0.00000e+00	0.00000e+00	0.00000e+00	0.00000e+00	0.00000e+00	0.00000e+00	0.00000e+00	0.00000e+00	0.00000e+00	0.00000e+00	0.00000e+00	0.00000e+00	0.00000e+00	0.00000e+00	0.00000e+00	
Factor	1.00000e+00	1.00000e+00	1.00000e+00	1.00000e+00	1.00000e+00	1.00000e+00	1.00000e+00	1.00000e+00	1.00000e+00	1.00000e+00	1.00000e+00	1.00000e+00	1.00000e+00	1.00000e+00	1.00000e+00	1.00000e+00	1.00000e+00	1.00000e+00	1.00000e+00	1.00000e+00	1.00000e+00	1.00000e+00	1.00000e+00	1.00000e+00	1.00000e+00	1.00000e+00	1.00000e+00	1.00000e+00	1.00000e+00	1.00000e+00	1.00000e+00	1.00000e+00	X	X	X	X	X	X	X	X	X	X	X	X	X	X	X	X	

B = Detector Channel
Val Type	B-AC1	B-AC2	B-AC3	B-AC4	B-AC5	B-AC6	B-AC7	B-AC8	B-AC9	B-AC10	B-AC11	B-AC12	B-AC13	B-AC14	B-AC15	B-AC16	B-DC1	B-DC2	B-DC3	B-DC4	B-DC5	B-DC6	B-DC7	B-DC8	B-DC9	B-DC10	B-DC11	B-DC12	B-DC13	B-DC14	B-DC15	B-DC16	B-Ph1	B-Ph2	B-Ph3	B-Ph4	B-Ph5	B-Ph6	B-Ph7	B-Ph8	B-Ph9	B-Ph10	B-Ph11	B-Ph12	B-Ph13	B-Ph14	B-Ph15	B-Ph16	

Term	0.00000e+00	0.00000e+00	0.00000e+00	0.00000e+00	0.00000e+00	0.00000e+00	0.00000e+00	0.00000e+00	0.00000e+00	0.00000e+00	0.00000e+00	0.00000e+00	0.00000e+00	0.00000e+00	0.00000e+00	0.00000e+00	0.00000e+00	0.00000e+00	0.00000e+00	0.00000e+00	0.00000e+00	0.00000e+00	0.00000e+00	0.00000e+00	0.00000e+00	0.00000e+00	0.00000e+00	0.00000e+00	0.00000e+00	0.00000e+00	0.00000e+00	0.00000e+00	-2.12444e+02	-1.41062e+02	-1.70892e+02	-1.83732e+02	-1.12109e+02	-1.05118e+02	-1.55012e+02	-1.62015e+02	-9.09407e+01	-9.85453e+01	-1.70533e+02	-1.70350e+02	-1.84933e+02	-1.77024e+02	-9.26801e+01	-1.49740e+02	
Factor	3.86930e-05	3.87587e-05	1.11420e-05	1.84525e-01	4.76322e-07	4.00243e-07	1.77227e-01	5.92448e-02	4.03067e-07	4.33660e-07	9.47737e-02	3.35258e-02	3.39684e-02	1.07113e-02	3.85728e-07	1.51601e-02	1.41076e-07	1.41361e-07	3.93248e-08	7.31989e-02	1.55024e-09	1.55026e-09	6.73368e-02	2.26348e-02	1.55356e-09	1.55040e-09	3.24457e-02	1.12648e-02	1.11019e-02	3.63347e-03	1.55221e-09	4.80811e-03	X	X	X	X	X	X	X	X	X	X	X	X	X	X	X	X	



#DISTANCE SETTINGS
A = Detector Channel
A-1	A-2	A-3	A-4	A-5	A-6	A-7	A-8	A-9	A-10	A-11	A-12	A-13	A-14	A-15	A-16	

2.5000e+00	3.0000e+00	2.5000e+00	3.0000e+00	2.0000e+00	3.0000e+00	1.5000e+00	3.0000e+00	3.0000e+00	3.0000e+00	3.0000e+00	3.0000e+00	3.0000e+00	3.0000e+00	1.5000e+00	3.0000e+00	

B = Detector Channel
B-1	B-2	B-3	B-4	B-5	B-6	B-7	B-8	B-9	B-10	B-11	B-12	B-13	B-14	B-15	B-16	

1.0000e+01	1.0000e+01	1.0000e+01	1.4400e+00	1.0000e+01	1.0000e+01	1.5100e+00	1.9400e+00	1.0000e+01	1.0000e+01	1.9900e+00	2.4900e+00	2.4100e+00	2.9000e+00	1.0000e+01	2.9800e+00	




#DATA BEGINS
time	group	step	mark	flag	A-AC1	A-AC2	A-AC3	A-AC4	A-AC5	A-AC6	A-AC7	A-AC8	A-AC9	A-AC10	A-AC11	A-AC12	A-AC13	A-AC14	A-AC15	A-AC16	A-DC1	A-DC2	A-DC3	A-DC4	A-DC5	A-DC6	A-DC7	A-DC8	A-DC9	A-DC10	A-DC11	A-DC12	A-DC13	A-DC14	A-DC15	A-DC16	A-Ph1	A-Ph2	A-Ph3	A-Ph4	A-Ph5	A-Ph6	A-Ph7	A-Ph8	A-Ph9	A-Ph10	A-Ph11	A-Ph12	A-Ph13	A-Ph14	A-Ph15	A-Ph16	B-AC1	B-AC2	B-AC3	B-AC4	B-AC5	B-AC6	B-AC7	B-AC8	B-AC9	B-AC10	B-AC11	B-AC12	B-AC13	B-AC14	B-AC15	B-AC16	B-DC1	B-DC2	B-DC3	B-DC4	B-DC5	B-DC6	B-DC7	B-DC8	B-DC9	B-DC10	B-DC11	B-DC12	B-DC13	B-DC14	B-DC15	B-DC16	B-Ph1	B-Ph2	B-Ph3	B-Ph4	B-Ph5	B-Ph6	B-Ph7	B-Ph8	B-Ph9	B-Ph10	B-Ph11	B-Ph12	B-Ph13	B-Ph14	B-Ph15	B-Ph16	aux-1	digaux	

4170.277	1	1	0	256	0.054469	0.17617	0.22075	0.25989	0.22594	0.17226	0.076455	0.12051	0.17959	0.24687	0.2439	0.11114	0.18098	0.055823	0.04328	0.24492	-3.1375	-4.0833	-3.6437	-3.8063	-3.8167	-3.4604	-4.2167	-3.7021	-3.4979	-4.0437	-3.4521	-3.7646	-3.9813	-3.6292	-3.8667	-3.8812	297.550	-17.537	185.207	282.500	132.368	99.296	177.770	238.810	36.962	218.851	-16.468	288.188	182.101	300.609	224.823	-7.183	0.00036382	0.0001359	2.9594e-05	553.16	3.236e-07	1.2667e-06	753.01	196.94	1.2244e-06	8.1681e-07	284.21	134.13	86.843	35.845	7.0245e-07	64.179	1.4418e-05	1.1977e-05	3.5026e-06	426.36	1.4534e-07	1.3415e-07	585.89	146.29	1.4844e-07	1.3411e-07	194.52	90.207	55.39	23.526	1.5001e-07	40.449	66.294	16.181	12.322	-14.642	220.185	81.611	-15.694	-10.359	123.173	122.719	-11.859	-8.424	-7.027	-2.890	99.321	-5.453	-8191	255	
4170.371	1	1	0	0	0.13223	0.24407	0.13659	0.12905	0.060948	0.17798	0.12843	0.02552	0.158	0.18312	0.21357	0.17827	0.23407	0.16266	0.18846	0.12003	-3.1479	-4.0625	-3.3646	-3.7438	-4.0479	-3.5292	-4.025	-3.8125	-3.3958	-4.1062	-3.8708	-3.6958	-4.0583	-3.4354	-3.7833	-3.7854	127.653	266.681	190.736	260.673	89.485	-9.987	243.447	-23.981	47.254	93.169	-13.727	51.861	251.328	112.004	-16.399	-17.417	0.00039184	8.5258e-05	1.1451e-05	557.81	5.3244e-07	9.7697e-07	761.58	198.05	1.9332e-07	7.5536e-07	286.46	134.07	86.599	35.924	1.2076e-06	64.294	1.5313e-05	1.2579e-05	4.0591e-06	430.98	1.5701e-07	1.4719e-07	594.02	147.65	1.6612e-07	1.5196e-07	195.73	90.284	55.485	23.566	1.7647e-07	40.515	68.607	54.240	-6.091	-14.580	56.688	104.698	-15.737	-10.071	125.826	152.311	-11.636	-8.349	-6.992	-2.785	175.321	-5.497	-8191	255	
4170.445	1	1	0	0	0.17628	0.15892	0.24465	0.088181	0.020753	0.11343	0.23333	0.22576	0.18566	0.060919	0.26854	0.20021	0.029205	0.20653	0.25438	0.12616	-3.0604	-3.9521	-3.5729	-3.6312	-3.9	-3.4625	-3.8979	-4.0146	-3.3958	-3.9875	-3.7167	-3.8083	-4.1396	-3.4479	-3.8729	-3.8896	239.455	207.028	64.061	220.120	62.242	164.619	233.128	287.652	322.484	121.693	210.751	96.474	105.865	85.656	-2.154	256.705	0.00046474	0.00012593	3.5974e-05	554.44	7.1149e-07	1.2148e-06	747.3	194.4	1.1821e-06	6.0977e-07	278.88	130.57	84.74	34.775	1.3367e-06	62.067	1.5728e-05	1.3592e-05	4.5486e-06	428.13	1.5478e-07	1.5008e-07	583.68	145.1	1.5651e-07	1.5367e-07	191.36	87.83	54.079	22.902	1.8047e-07	39.189	58.941	89.873	21.919	-15.115	38.108	90.291	-16.012	-10.145	40.488	58.203	-11.853	-8.572	-6.913	-3.059	105.152	-5.401	-8191	255	
4170.541	1	1	0	0	0.062084	0.2022	0.31043	0.067213	0.055616	0.083019	0.14094	0.11216	0.14085	0.16668	0.085346	0.11021	0.11362	0.19698	0.23267	0.35623	-3.1188	-3.8271	-3.5854	-3.4771	-3.8333	-3.5458	-3.8708	-3.8833	-3.4854	-3.9396	-3.6792	-3.5312	-3.9542	-3.4667	-3.6813	-3.8833	-23.329	130.985	148.630	217.800	276.021	-11.696	282.678	304.872	161.642	127.646	73.059	-6.351	302.194	319.541	94.446	284.330	0.00041128	9.4147e-05	4.7524e-05	547.51	6.9024e-07	9.0877e-07	739.96	193.64	7.362e-07	7.8619e-07	277.05	131.46	84.726	34.871	8.4625e-07	62.38	1.5142e-05	1.4219e-05	4.5074e-06	420.24	1.4786e-07	1.5538e-07	576.28	143.71	1.4592e-07	1.5634e-07	190.04	88.028	54.119	23.008	1.6846e-07	39.36	64.983	43.180	16.367	-14.939	71.425	126.973	-15.953	-10.420	33.030	97.618	-11.597	-8.112	-6.761	-2.960	131.738	-5.274	-8191	255	
4170.660	1	1	0	0	0.10095	0.067443	0.16519	0.10054	0.057559	0.07147	0.23802	0.090273	0.23058	0.23122	0.31367	0.27216	0.065169	0.040804	0.14316	0.28587	-3.2667	-3.8604	-3.7708	-3.5583	-3.9313	-3.5312	-3.7625	-3.8875	-3.4292	-3.8583	-3.9292	-3.5646	-3.9062	-3.6562	-3.5417	-4.1125	224.921	134.012	315.991	252.592	-6.911	142.266	245.203	183.421	91.645	161.548	258.006	293.611	50.223	-0.289	4.211	209.445	0.0003993	0.00017989	2.186e-05	550.33	9.8838e-07	1.5895e-06	748.75	195.75	5.151e-07	8.0495e-07	280.9	132.52	85.945	35.436	1.3958e-06	63.328	1.433e-05	1.4539e-05	4.1683e-06	422.77	1.3799e-07	1.6137e-07	581.96	145.33	1.4481e-07	1.6082e-07	192.67	88.897	54.766	23.346	1.5806e-07	39.844	66.209	72.062	7.022	-14.906	65.590	86.868	-15.687	-10.400	142.011	162.559	-11.669	-8.361	-7.180	-2.861	94.875	-5.428	-8191	255	
4170.756	1	1	0	0	0.16531	0.076632	0.11552	0.2687	0.12882	0.13936	0.075398	0.14097	0.11106	0.12294	0.19031	0.087127	0.30963	0.029993	0.17381	0.22703	-3.0979	-3.7833	-3.8958	-3.5229	-3.9188	-3.7729	-3.4167	-4.0146	-3.6646	-3.8792	-3.8396	-3.4604	-3.95	-3.7562	-3.5875	-3.9917	-7.802	162.265	57.961	199.056	272.076	21.240	42.776	206.814	156.745	282.540	326.842	214.308	31.320	240.197	250.062	217.252	0.00036476	8.5552e-05	4.7786e-05	558.62	7.1551e-07	1.0635e-06	760.42	198.54	1.5418e-06	1.8882e-06	288.01	135.72	88.084	36.268	7.9703e-07	65.033	1.446e-05	1.4978e-05	3.8492e-06	427.64	1.4143e-07	1.6309e-07	589.57	147.05	1.4324e-07	1.6338e-07	195.87	90.842	56.137	23.874	1.4873e-07	40.987	59.003	-5.847	1.057	-15.044	141.601	163.185	-15.862	-10.355	124.536	53.983	-11.729	-8.273	-7.577	-3.132	109.316	-5.239	-8191	255	
4170.852	1	1	0	0	0.087192	0.12221	0.11835	0.18904	0.080364	0.11487	0.18059	0.047266	0.19398	0.15679	0.024606	0.16039	0.19192	0.15471	0.29066	0.042631	-3.0583	-3.6583	-4.025	-3.4417	-3.8896	-3.8042	-3.8063	-4.1792	-3.6479	-3.6896	-4.0792	-3.4917	-3.8958	-3.8438	-3.4708	-4.0938	257.429	93.274	104.530	227.817	261.668	15.222	236.477	307.309	91.395	316.695	41.581	224.748	321.209	10.991	41.059	257.914	0.00036439	2.2562e-05	2.2032e-05	566.98	1.0531e-06	1.5553e-06	772.77	202.94	1.0367e-06	1.1392e-06	293.09	138.64	89.59	37.031	2.2868e-07	65.608	1.5071e-05	1.4811e-05	3.7169e-06	433.5	1.4823e-07	1.5807e-07	601.06	150.43	1.5205e-07	1.5524e-07	200.08	92.968	57.294	24.306	1.4601e-07	41.192	64.279	89.758	27.456	-14.934	97.169	51.863	-15.749	-10.220	90.792	109.785	-12.019	-8.260	-7.287	-3.010	111.767	-5.463	-8191	255	
4170.973	1	1	0	0	0.29799	0.19489	0.23856	0.3198	0.37171	0.10964	0.057341	0.34188	0.174	0.14211	0.081138	0.38165	0.25153	0.046594	0.17053	0.12831	-3.3063	-3.6958	-3.8625	-3.4958	-3.7562	-3.8646	-3.6854	-4.0479	-3.6479	-3.6333	-4.0479	-3.5375	-3.7542	-3.9604	-3.4729	-4.0208	196.767	299.239	234.998	262.574	212.505	259.148	194.797	218.439	119.047	76.098	172.167	280.583	321.122	21.676	81.878	297.708	0.000444	6.3319e-05	3.1669e-05	558.53	1.9133e-06	1.1243e-06	757.13	198.69	8.1559e-07	1.1889e-06	284.93	133.89	87.265	35.642	1.4528e-06	63.757	1.5521e-05	1.3939e-05	3.5057e-06	429.01	1.5681e-07	1.5147e-07	589.11	147.64	1.5813e-07	1.505e-07	194.21	89.611	55.489	23.383	1.3542e-07	40.137	62.104	40.246	-2.185	-15.286	69.850	40.943	-15.829	-10.074	125.616	87.882	-11.877	-8.400	-7.108	-3.151	80.852	-5.475	-8191	255	
4171.044	1	1	0	0	0.28414	0.19522	0.11346	0.066467	0.061246	0.10579	0.13705	0.15418	0.093066	0.19987	0.081516	0.14587	0.0491	0.24105	0.28395	0.044034	-3.2083	-3.5583	-4.0375	-3.7313	-3.7708	-3.7792	-3.375	-3.8708	-3.625	-3.6396	-3.8229	-3.5292	-3.7479	-3.9313	-3.4125	-3.9313	267.729	301.162	154.177	56.090	95.758	274.516	299.389	211.587	-3.122	102.413	167.253	169.686	88.510	218.275	4.388	19.706	0.00037747	0.0001078	1.1305e-05	558.38	1.2713e-06	9.1886e-07	760.7	199.84	1.0822e-06	1.5667e-06	288.66	135.68	88.624	36.166	1.6066e-06	64.488	1.4922e-05	1.2546e-05	3.2067e-06	427.3	1.4707e-07	1.3282e-07	589.47	147.81	1.4683e-07	1.3286e-07	196.29	90.882	56.32	23.726	1.2371e-07	40.647	69.424	46.842	-18.309	-14.821	102.015	65.633	-15.995	-10.197	97.063	80.109	-11.705	-8.539	-6.954	-2.881	106.502	-5.589	-8191	255	
4171.141	1	1	0	0	0.16453	0.16958	0.16417	0.23681	0.068078	0.0081002	0.28095	0.21531	0.20111	0.047133	0.12803	0.2176	0.29342	0.066073	0.11212	0.24759	-3.4375	-3.4792	-3.85	-3.5583	-3.6854	-4.075	-3.425	-4.0167	-3.5854	-3.5917	-4.0271	-3.5854	-3.6042	-4.0167	-3.3083	-3.9813	91.628	84.819	276.090	152.207	278.353	321.141	-18.978	225.114	120.964	303.078	237.574	221.959	298.775	197.024	258.038	273.913	0.00035646	0.00010724	4.3778e-05	568.34	1.6202e-06	1.1281e-06	769.27	201.91	1.1249e-06	1.2137e-06	292.45	137.95	89.327	36.648	7.3371e-07	65.329	1.4838e-05	1.1936e-05	3.0607e-06	433.84	1.4389e-07	1.2946e-07	597.48	149.71	1.4146e-07	1.2912e-07	198.57	92.39	56.875	24.051	1.265e-07	41.237	55.039	75.939	17.926	-15.133	70.676	55.070	-16.113	-10.243	125.626	146.152	-11.759	-8.212	-7.123	-3.199	108.242	-5.282	-8191	255	
4171.261	1	1	0	0	0.092531	0.082976	0.092792	0.22327	0.17221	0.15514	0.089193	0.16634	0.00765	0.12506	0.15798	0.3309	0.18173	0.23452	0.40565	0.067215	-3.35	-3.4417	-3.8563	-3.6125	-3.6396	-3.8937	-3.4958	-3.8625	-3.9021	-3.4146	-4.0062	-3.6375	-3.4313	-4.0875	-3.425	-3.9771	256.210	264.748	102.906	317.775	6.681	53.108	5.786	235.242	178.557	102.139	262.246	256.070	284.887	327.111	17.726	186.586	0.00039077	9.4537e-05	1.9086e-05	571.6	1.3206e-06	1.6107e-06	778.86	205.33	6.3286e-07	1.1212e-06	296.36	140.5	90.574	37.24	1.0569e-06	66.826	1.4786e-05	1.2099e-05	3.2149e-06	439.48	1.4511e-07	1.3115e-07	606.05	152.34	1.4875e-07	1.3576e-07	202.33	94.139	57.76	24.48	1.4686e-07	42.129	55.922	10.954	46.192	-14.719	118.049	44.549	-15.624	-10.320	152.972	92.291	-11.793	-8.344	-6.899	-3.174	114.693	-5.289	-8191	255	
4171.357	1	1	0	0	0.20903	0.10718	0.07698	0.10267	0.11331	0.14629	0.07847	0.21496	0.206	0.15507	0.1756	0.27606	0.25079	0.15752	0.087196	0.18222	-3.4229	-3.3708	-3.7729	-3.675	-3.5	-4.1375	-3.6792	-3.85	-3.8458	-3.2083	-3.8271	-3.7208	-3.6396	-4.025	-3.5833	-3.75	168.734	114.392	225.191	113.666	255.668	67.776	251.843	-16.888	-13.786	135.603	304.010	284.279	213.643	205.872	70.464	272.817	0.00042084	0.00014173	3.7807e-05	579.94	1.4727e-06	1.6007e-06	786.63	206.87	1.0613e-06	1.9792e-07	295.6	137.64	89.599	36.428	1.531e-06	64.849	1.5764e-05	1.2848e-05	3.6868e-06	445.13	1.5547e-07	1.432e-07	611.87	153.59	1.5322e-07	1.4196e-07	201.56	92.818	57.003	23.974	1.5535e-07	40.977	64.271	46.898	24.592	-15.073	97.365	63.924	-15.445	-10.306	64.976	24.883	-11.649	-8.240	-6.890	-2.944	95.337	-5.558	-8191	255	
4171.452	1	1	0	0	0.19819	0.23135	0.072283	0.090919	0.032011	0.17884	0.12758	0.17596	0.12634	0.14135	0.0841	0.11899	0.15767	0.19866	0.035269	0.27082	-3.6646	-3.4208	-3.8229	-3.9938	-3.4292	-3.9417	-3.5187	-3.8812	-3.8937	-3.4188	-3.8646	-3.7542	-3.5333	-3.9021	-3.55	-3.6188	111.650	122.731	298.358	170.912	225.749	228.111	198.321	259.815	155.169	167.540	324.563	-13.856	225.086	-19.553	240.378	267.676	0.00040627	0.00015953	3.1665e-05	564.55	1.4644e-06	1.0793e-06	761.84	200.67	5.9147e-07	7.0928e-07	286.98	134.49	87.277	35.775	1.3572e-06	63.726	1.5007e-05	1.2441e-05	3.9201e-06	434	1.4749e-07	1.3379e-07	594.01	149.33	1.4239e-07	1.3561e-07	196.73	90.563	55.811	23.52	1.6122e-07	40.303	59.498	17.006	25.867	-14.979	60.657	62.324	-15.818	-10.189	113.046	144.955	-11.813	-8.500	-7.037	-2.936	93.815	-5.239	-8191	255	
4171.550	1	1	0	0	0.27182	0.20081	0.16045	0.061676	0.064097	0.15771	0.20195	0.19686	0.17772	0.15217	0.0074244	0.16255	0.12476	0.17334	0.12124	0.24841	-3.65	-3.4083	-3.85	-3.7729	-3.375	-3.9792	-3.6146	-3.5271	-3.8958	-3.5833	-3.8937	-3.9062	-3.4562	-3.9375	-3.575	-3.6604	227.571	14.673	-27.396	80.520	134.090	166.707	6.377	170.915	272.354	127.120	42.484	6.576	317.039	-0.158	61.769	323.351	0.00038758	0.0001657	2.991e-05	562.38	6.4162e-07	1.1603e-06	762.19	200.46	1.3021e-06	6.0772e-07	289.71	136.26	88.489	36.233	1.0649e-06	64.969	1.4725e-05	1.3012e-05	4.0867e-06	432.49	1.4389e-07	1.3981e-07	593.86	148.9	1.4159e-07	1.4046e-07	197.92	91.474	56.284	23.831	1.6355e-07	40.924	66.820	70.607	7.706	-14.840	88.821	82.962	-15.862	-10.114	107.114	115.908	-11.913	-8.272	-7.226	-2.904	67.935	-5.623	-8191	255	
4171.668	1	1	0	0	0.12334	0.15768	0.16521	0.16283	0.2324	0.17925	0.087111	0.14429	0.091531	0.17894	0.08189	0.043949	0.11372	0.16545	0.069955	0.10626	-3.725	-3.2667	-3.7354	-4.0167	-3.4917	-4.0813	-3.8312	-3.6604	-3.9083	-3.6	-3.8896	-4.0125	-3.5687	-3.9521	-3.7021	-3.6458	86.077	259.923	79.149	277.394	108.798	-2.966	244.366	175.569	297.251	315.630	225.680	84.038	139.466	158.114	143.028	106.517	0.00042872	4.2389e-05	3.6073e-05	564.04	7.7977e-07	1.4213e-06	770.48	202.19	5.6971e-07	9.1033e-07	292.47	137.36	88.749	36.56	8.7443e-07	65.599	1.4205e-05	1.3365e-05	4.1769e-06	434.97	1.4015e-07	1.4497e-07	600.5	150.43	1.4271e-07	1.5188e-07	199.93	92.148	56.601	24.026	1.6709e-07	41.336	62.685	93.023	34.213	-15.162	48.417	112.461	-15.876	-10.264	116.695	115.774	-12.053	-8.547	-6.986	-3.169	119.465	-5.398	-8191	255	
4171.740	1	1	0	0	0.17702	0.16074	0.11575	0.35038	0.10676	0.17925	0.24207	0.097916	0.11413	0.051272	0.032933	0.27314	0.26702	0.21218	0.070297	0.16704	-3.5375	-3.6354	-3.6	-4.0729	-3.6146	-3.7708	-3.9833	-3.5375	-3.9021	-3.6396	-3.6167	-3.9167	-3.425	-3.8333	-3.7229	-3.5021	104.369	65.015	222.952	-23.809	233.146	281.024	18.647	215.966	112.492	106.825	-5.897	299.177	116.499	260.412	202.766	35.881	0.00040984	9.3594e-05	3.8478e-05	573.57	1.3594e-06	1.2991e-06	782.12	207.15	1.4732e-06	8.157e-07	296.35	140.64	90.515	37.428	1.034e-06	67.292	1.4353e-05	1.4653e-05	4.1025e-06	439.25	1.4286e-07	1.6188e-07	609.55	153.1	1.4376e-07	1.6433e-07	203.48	94.412	57.843	24.642	1.6199e-07	42.39	69.722	11.289	14.855	-14.846	101.884	66.530	-15.763	-10.439	138.492	105.336	-11.786	-8.411	-7.447	-2.753	102.738	-5.606	-8191	255	
4171.836	1	1	0	0	0.12605	0.27267	0.14262	0.1256	0.1364	0.29796	0.11888	0.29003	0.15453	0.074708	0.05995	0.19579	0.13977	0.13968	0.048442	0.18519	-3.4688	-3.5479	-3.7687	-4.0708	-3.525	-3.8646	-4.0083	-3.4458	-4.0208	-3.7125	-3.7812	-4.2146	-3.4854	-3.7708	-3.8875	-3.3854	42.688	214.343	128.612	325.140	98.187	44.122	236.733	170.318	166.043	147.347	57.784	23.646	318.419	28.488	312.270	288.980	0.00047984	4.9097e-05	2.7229e-05	577.06	1.4078e-06	1.5541e-06	775.84	203.1	1.0028e-06	9.3861e-07	290.05	136.55	88.114	36.15	1.351e-06	65.133	1.4901e-05	1.5885e-05	4.0371e-06	441.11	1.4752e-07	1.7051e-07	601.98	150.68	1.5055e-07	1.7075e-07	198.54	91.354	56.243	23.854	1.533e-07	40.855	65.880	138.215	11.117	-14.897	103.207	108.151	-15.836	-10.225	50.413	94.957	-12.035	-8.379	-7.182	-3.183	76.517	-5.394	-8191	255	
4171.957	1	1	0	0	0.097864	0.26899	0.079599	0.056665	0.24929	0.18969	0.14619	0.2891	0.12955	0.22147	0.11724	0.23984	0.058327	0.28091	0.17101	0.056863	-3.4667	-3.6521	-3.4271	-4.0354	-3.4813	-3.6667	-4.0208	-3.6292	-4.0437	-3.7562	-3.4208	-4.0854	-3.5167	-3.8396	-3.8688	-3.4667	239.384	199.787	330.328	20.050	-20.483	-10.034	200.123	249.431	194.429	42.842	294.906	305.850	95.717	21.315	1.052	272.482	0.00036978	0.00014482	4.6927e-05	560.98	7.7919e-07	1.0302e-06	755.72	200	6.409e-07	1.237e-06	288.07	134.62	87.022	35.934	1.1156e-06	64.192	1.5422e-05	1.5222e-05	3.8007e-06	428.94	1.5354e-07	1.6435e-07	589.39	148.04	1.5483e-07	1.6171e-07	195.75	90.144	55.687	23.605	1.4403e-07	40.554	69.795	128.706	-8.466	-15.237	139.535	2.018	-15.914	-10.287	129.606	106.082	-12.161	-8.462	-7.246	-3.196	78.402	-5.362	-8191	255	
4172.053	1	1	0	0	0.14644	0.13148	0.14156	0.0117	0.060406	0.18079	0.20194	0.098201	0.11071	0.035177	0.048165	0.22965	0.017732	0.38154	0.059724	0.093007	-3.4771	-3.8208	-3.5979	-4.1271	-3.6813	-3.6437	-4.1125	-3.5958	-3.9938	-3.7125	-3.5042	-3.9562	-3.725	-3.6646	-3.9104	-3.6646	104.706	112.461	294.734	99.365	294.007	105.692	-2.035	194.343	159.661	134.844	88.275	272.489	212.866	309.072	1.586	238.011	0.00041858	0.00011104	4.8424e-05	563.2	5.2374e-07	2.4626e-07	770.37	202.57	1.1542e-06	6.8673e-07	292.04	137.88	88.988	36.637	8.7658e-07	65.261	1.5551e-05	1.403e-05	3.5323e-06	432.38	1.5667e-07	1.5306e-07	596.9	150.13	1.577e-07	1.5132e-07	198.72	91.918	56.716	24.042	1.4305e-07	41.173	61.301	76.988	-2.140	-15.016	120.020	96.682	-15.862	-10.490	106.983	106.217	-11.851	-8.385	-6.837	-2.969	92.055	-5.621	-8191	255	
4172.149	1	1	0	0	0.13518	0.038893	0.16185	0.098002	0.038249	0.15443	0.18406	0.2834	0.14635	0.075168	0.17571	0.24684	0.26899	0.25616	0.05504	0.24391	-3.4708	-3.8688	-3.3646	-3.9854	-3.5792	-3.8208	-4.125	-3.5479	-3.5292	-4.0021	-3.4188	-3.9354	-3.7562	-3.6167	-3.95	-3.5271	179.093	-23.424	86.643	28.759	161.466	217.770	239.941	290.918	320.237	-8.873	304.523	297.730	172.070	74.349	117.284	306.782	0.0004531	0.00013039	1.4754e-05	565.88	1.6406e-06	9.347e-07	780.7	205.06	1.0378e-06	1.216e-06	296.18	138.73	90.446	37.174	7.4322e-07	66.715	1.6793e-05	1.4029e-05	3.6714e-06	436.61	1.7229e-07	1.578e-07	605.16	152.16	1.7658e-07	1.6087e-07	201.62	93.402	57.628	24.386	1.5264e-07	42.144	64.240	38.841	29.201	-15.032	70.687	85.805	-15.921	-10.356	81.159	80.376	-11.833	-8.403	-7.350	-3.077	98.928	-5.411	-8191	255	
4172.245	1	1	0	0	0.2063	0.15912	0.11492	0.32726	0.044329	0.25172	0.068078	0.12833	0.078811	0.053523	0.29482	0.17372	0.10307	0.31151	0.17597	0.083052	-3.3375	-3.9854	-3.4437	-3.9417	-3.7042	-3.4938	-4.2083	-3.6312	-3.7708	-4.0188	-3.5563	-3.9688	-3.7	-3.5438	-3.9813	-3.6354	236.657	164.838	153.545	242.210	54.970	226.010	263.069	301.245	161.289	52.803	331.623	175.067	312.502	-18.435	-7.271	311.711	0.00037529	4.0157e-05	3.3026e-05	574.75	1.2887e-06	1.3903e-06	788.49	206.27	5.8435e-07	1.2761e-06	297.56	139.78	90.37	36.963	1.5746e-06	65.953	1.8187e-05	1.4996e-05	3.9367e-06	443.24	1.8418e-07	1.6692e-07	613.13	153.81	1.8339e-07	1.6784e-07	203.65	94.084	57.617	24.287	1.5821e-07	41.579	53.412	244.830	-15.949	-14.878	76.528	92.319	-15.821	-10.365	124.589	106.892	-11.845	-8.223	-7.301	-3.080	104.138	-5.349	-8191	255	
4172.342	1	1	0	0	0.34222	0.3043	0.23161	0.31238	0.19763	0.1113	0.22894	0.11491	0.15139	0.13379	0.15659	0.26892	0.08845	0.080132	0.096913	0.21874	-3.3937	-3.9833	-3.5687	-3.9708	-3.7771	-3.325	-4.1833	-3.5979	-3.6229	-3.8688	-3.3979	-3.8083	-3.9813	-3.5375	-3.9271	-3.8354	14.188	93.722	26.995	-16.539	213.156	196.266	-27.666	313.823	10.286	26.798	247.202	301.536	162.042	25.892	-15.449	290.988	0.00039653	8.2824e-05	2.2219e-05	566.38	1.2009e-06	8.6597e-07	764.63	199.56	9.3204e-07	4.3673e-07	287.79	134.13	87.269	35.949	1.4187e-06	64.226	1.8715e-05	1.5319e-05	4.1439e-06	434.54	1.8341e-07	1.7211e-07	595.1	149.49	1.8538e-07	1.7269e-07	196.47	90.685	55.95	23.63	1.6758e-07	40.617	71.505	81.087	34.238	-15.013	85.970	76.584	-15.981	-10.442	99.514	80.683	-11.983	-8.508	-7.403	-3.156	144.044	-5.656	-8191	255	
4172.438	1	1	0	0	0.37803	0.15375	0.16864	0.10747	0.19726	0.1744	0.34242	0.20002	0.22543	0.12075	0.067715	0.033409	0.32766	0.31552	0.12016	0.14666	-3.1542	-4.1542	-3.4521	-3.8979	-4.0708	-3.5146	-3.9813	-3.7896	-3.4354	-3.9625	-3.6917	-3.8479	-3.9979	-3.5375	-3.8146	-4.0292	283.378	180.286	-12.614	318.947	303.873	264.466	249.005	-2.421	193.284	243.509	273.705	-21.416	181.672	327.925	314.193	330.470	0.00048816	9.7366e-05	3.631e-05	557.89	1.7405e-06	1.5635e-06	762.04	200.88	1.3969e-06	1.3912e-06	288.19	136.1	87.969	36.349	5.968e-07	64.906	1.799e-05	1.4934e-05	4.3134e-06	430.25	1.7407e-07	1.6366e-07	593.34	149.76	1.7813e-07	1.6337e-07	197.46	91.407	56.203	23.877	1.8029e-07	41.06	72.181	33.035	13.887	-15.010	106.780	88.163	-15.859	-10.508	109.192	94.720	-12.022	-8.499	-7.205	-3.123	124.666	-5.716	-8191	255	
4172.532	1	1	0	0	0.31871	0.011317	0.39637	0.24877	0.2075	0.13777	0.10716	0.26059	0.060156	0.1949	0.37084	0.12189	0.077392	0.19531	0.037477	0.19429	-3.0979	-3.7958	-3.5438	-3.675	-3.7708	-3.4646	-4.0813	-3.725	-3.4458	-4.0354	-3.7167	-3.7375	-4.1188	-3.6708	-3.8521	-3.8375	184.104	123.748	192.329	-10.021	22.799	129.643	234.406	267.632	37.830	19.507	58.807	214.510	67.061	266.001	70.619	218.997	0.00042087	6.9312e-05	2.4258e-05	560.79	1.6241e-06	5.3688e-07	768.11	203	1.4027e-06	1.7828e-06	291.42	135.9	88.615	36.569	1.8677e-06	65.669	1.7398e-05	1.4588e-05	4.5485e-06	434	1.702e-07	1.5867e-07	597.53	150.69	1.6887e-07	1.5599e-07	199.45	91.814	56.646	23.991	1.836e-07	41.449	66.676	105.329	41.162	-14.817	95.084	69.193	-15.978	-10.422	98.267	94.677	-11.961	-8.452	-7.614	-3.160	100.910	-5.578	-8191	255	
4172.630	1	1	0	0	0.30504	0.12445	0.085075	0.22993	0.072508	0.19632	0.21257	0.27213	0.051706	0.092437	0.15973	0.019377	0.15556	0.081999	0.075553	0.040003	-2.7417	-4.0354	-3.6229	-3.6333	-4.1125	-3.5292	-3.8104	-3.8042	-3.3479	-3.7875	-3.7708	-3.5958	-3.9896	-3.5167	-3.5438	-4.0292	9.559	317.512	-9.700	47.279	247.390	64.548	2.051	277.848	164.939	85.383	-22.086	167.687	243.186	-24.521	316.056	50.418	0.00046668	4.8173e-05	2.4416e-05	567.75	1.8852e-06	4.3328e-07	776.22	204.16	1.2821e-06	4.7621e-07	294.44	138.16	89.908	37.084	1.7498e-06	66.835	1.6595e-05	1.409e-05	4.6017e-06	438.13	1.6319e-07	1.604e-07	605.59	152.07	1.6718e-07	1.6355e-07	202.13	93.132	57.355	24.386	1.9505e-07	42.084	60.188	56.437	72.822	-14.758	80.869	164.767	-15.828	-10.429	89.880	186.246	-12.005	-8.449	-7.255	-2.886	123.485	-5.656	-8191	255	
4172.749	1	1	0	0	0.14745	0.0656	0.33701	0.20385	0.11264	0.10625	0.14696	0.14622	0.22796	0.10207	0.098887	0.014551	0.20203	0.17871	0.08087	0.1678	-3.0563	-3.9229	-3.6063	-3.5792	-3.925	-3.5125	-3.7396	-3.9708	-3.3167	-3.9313	-3.725	-3.5312	-4.0229	-3.6063	-3.6875	-4.1396	102.673	206.666	3.213	17.141	283.579	300.146	135.185	268.416	242.905	241.517	20.566	88.829	13.502	220.652	-2.499	266.397	0.00046087	7.2988e-05	3.5624e-05	572.67	6.7303e-07	1.2843e-06	774.36	202.45	8.784e-07	7.8564e-07	288.15	135.79	87.932	36.091	1.1357e-06	64.744	1.7299e-05	1.5934e-05	5.0903e-06	440.65	1.698e-07	1.8225e-07	602.05	150.76	1.7526e-07	1.8867e-07	198.05	91.416	56.174	23.841	1.9816e-07	40.891	72.897	21.387	2.693	-14.874	60.346	141.634	-15.881	-10.452	84.632	166.473	-11.961	-8.458	-7.336	-2.902	103.881	-5.781	-8191	255	
4172.845	1	1	0	0	0.10763	0.18436	0.12137	0.2354	0.12448	0.11859	0.2565	0.034898	0.041284	0.24803	0.062957	0.053355	0.062642	0.031967	0.060553	0.085717	-2.9104	-3.7292	-3.7021	-3.6271	-3.9604	-3.6917	-3.9333	-3.8771	-3.3604	-3.7938	-3.7354	-3.5854	-4.0312	-3.6813	-3.6854	-3.8479	320.874	269.137	173.181	147.740	304.981	242.291	302.020	182.550	274.509	322.377	311.285	317.283	190.488	296.895	33.906	166.920	0.00039239	0.00011243	3.5509e-05	557.88	4.9814e-07	1.3535e-06	761.94	200.35	8.8378e-07	1.651e-06	286.96	134.68	86.784	35.769	4.1287e-07	64.015	1.6866e-05	1.7208e-05	4.8443e-06	429.8	1.6633e-07	1.9157e-07	591.96	148.83	1.6796e-07	1.9232e-07	196.07	90.562	55.681	23.637	1.967e-07	40.396	69.582	-2.111	-0.053	-15.172	67.238	74.315	-16.131	-10.477	136.786	80.014	-12.183	-8.710	-7.518	-3.351	317.315	-5.947	-8191	255	
4172.941	1	1	0	0	0.17314	0.16788	0.029367	0.16144	0.30047	0.13593	0.18795	0.151	0.18996	0.15641	0.19012	0.21177	0.031881	0.24962	0.11452	0.41099	-3.1104	-3.8083	-3.8021	-3.4688	-3.9604	-3.6458	-3.7438	-4.0979	-3.55	-3.8042	-3.9917	-3.3604	-3.8667	-3.7229	-3.55	-4.0792	210.358	181.536	316.603	292.039	308.675	275.221	272.051	236.070	212.158	45.246	206.988	192.607	243.678	-22.437	290.747	248.375	0.00043942	0.00015166	2.7659e-05	551.95	7.3928e-07	1.4501e-06	758.86	200.2	1.1781e-06	7.989e-07	286.05	134.62	87.745	35.931	1.14e-06	64.59	1.7487e-05	1.8532e-05	4.7735e-06	427.29	1.7474e-07	1.9954e-07	590.43	148.64	1.7963e-07	2.0257e-07	196.06	90.474	56.005	23.778	1.8672e-07	40.791	60.368	-11.442	6.621	-15.195	163.998	111.814	-15.862	-10.585	131.171	108.627	-11.987	-8.404	-7.139	-3.287	99.098	-5.820	-8191	255	
4173.037	1	1	0	0	0.17612	0.057233	0.16742	0.17423	0.1866	0.18832	0.13154	0.10542	0.13791	0.29668	0.15304	0.021054	0.098205	0.25301	0.022412	0.081688	-3.2542	-3.7938	-3.7229	-3.6896	-3.8292	-3.7687	-3.5604	-4.0979	-3.55	-3.7042	-4.0146	-3.5646	-4.0083	-3.7979	-3.6312	-4.2312	5.133	183.701	-18.543	11.108	-21.957	109.684	194.298	238.762	163.827	254.392	120.543	-19.890	-8.980	-6.892	-5.546	140.636	0.00046993	0.00010287	1.7063e-05	564.33	1.5324e-06	7.3093e-07	762.85	201.57	4.3017e-07	1.607e-06	288.74	136.36	88.068	36.644	1.4509e-07	65.781	1.84e-05	1.8619e-05	4.658e-06	432.57	1.8773e-07	1.9989e-07	596.42	150	1.9536e-07	2.007e-07	198.41	91.981	56.678	24.177	1.8719e-07	41.454	64.219	20.170	256.838	-15.209	98.551	151.542	-15.739	-10.487	76.858	67.909	-12.065	-8.489	-7.424	-2.910	117.792	-5.598	-8191	255	
4173.133	1	1	0	0	0.10317	0.16726	0.13852	0.10966	0.16478	0.12248	0.05333	0.14107	0.12252	0.059343	0.077579	0.15876	0.10409	0.19277	0.10109	0.18444	-3.3521	-3.6	-3.9667	-3.4625	-3.8521	-3.7438	-3.4375	-4.0083	-3.5687	-3.6979	-4.0563	-3.5167	-3.8083	-3.8396	-3.3896	-4.0354	227.770	233.631	134.805	38.364	292.834	112.049	33.471	317.862	251.154	96.204	131.325	280.535	254.720	309.792	204.050	-4.677	0.00046317	0.00013176	8.5023e-06	568.13	1.8015e-06	1.596e-06	773.4	204.81	1.4089e-06	3.697e-07	292.85	138.54	89.806	36.716	6.9384e-07	65.776	2.017e-05	1.8342e-05	4.648e-06	436.51	2.0337e-07	1.9614e-07	602.94	152.29	2.0596e-07	1.9256e-07	201.13	93.132	57.43	24.271	1.7745e-07	41.409	62.166	13.212	34.711	-15.172	79.287	75.746	-15.956	-10.339	159.517	213.746	-12.110	-8.388	-7.120	-3.481	124.605	-5.671	-8191	255	
4173.230	1	1	0	0	0.25989	0.068095	0.30337	0.035763	0.048521	0.35952	0.48426	0.058854	0.079069	0.2344	0.11638	0.19773	0.21479	0.11023	0.082055	0.22385	-3.4896	-3.5604	-3.7875	-3.5396	-3.7646	-3.8042	-3.3917	-3.9083	-3.5312	-3.5896	-4.1667	-3.4479	-3.6479	-3.9417	-3.3187	-3.9562	103.813	270.426	29.573	175.074	166.225	66.743	315.439	179.124	242.695	-27.794	-17.823	193.894	208.416	299.400	235.415	-26.881	0.00031156	0.00021576	5.5505e-05	558.85	1.1683e-06	1.8987e-06	755.38	199.56	1.7639e-06	7.7844e-07	282.92	133.09	86.412	35.629	6.9244e-07	63.151	1.9435e-05	1.6999e-05	4.3868e-06	430.17	1.9779e-07	1.7858e-07	589.2	148.09	1.9533e-07	1.7449e-07	193.71	89.625	55.484	23.417	1.6738e-07	39.916	72.566	59.012	3.343	-15.050	114.576	49.024	-15.999	-10.466	176.159	100.257	-11.945	-8.271	-7.382	-3.021	117.208	-5.701	-8191	255	
4173.350	1	1	0	0	0.2622	0.17763	0.2647	0.19202	0.22248	0.17427	0.28033	0.22525	0.16086	0.11689	0.15577	0.073001	0.25565	0.08303	0.084329	0.033014	-3.4625	-3.3937	-3.8229	-3.6146	-3.6354	-3.7687	-3.5708	-3.9979	-3.6542	-3.5958	-3.9521	-3.4958	-3.7104	-4.0625	-3.4083	-3.8812	186.686	189.524	240.193	13.225	-21.475	183.994	319.558	308.339	267.032	-13.348	250.125	322.175	55.744	234.493	196.525	145.676	0.00038317	0.00021191	3.1265e-05	551.39	1.8221e-06	8.932e-08	749.7	197.09	9.8491e-07	1.6584e-06	283.05	133.34	86.784	35.622	4.8009e-07	64.092	1.8918e-05	1.6082e-05	4.1366e-06	425.32	1.9206e-07	1.7325e-07	583.81	147.11	1.8793e-07	1.6815e-07	193.77	89.76	55.629	23.513	1.5833e-07	40.57	47.732	41.460	13.004	-15.036	67.811	72.492	-15.944	-10.537	75.767	64.556	-11.992	-8.443	-7.498	-3.345	127.629	-5.472	-8191	255	
4173.445	1	1	0	0	0.084156	0.10561	0.0464	0.075413	0.24219	0.096442	0.02735	0.17693	0.042505	0.16169	0.13894	0.099076	0.20363	0.070458	0.067708	0.14165	-3.3146	-3.4729	-3.9562	-3.7062	-3.6542	-4.0229	-3.5563	-3.9042	-3.6979	-3.4375	-4.1625	-3.8167	-3.7687	-4.0687	-3.5479	-3.7438	292.435	65.342	57.285	187.986	1.696	-2.398	204.327	225.410	109.641	160.856	176.617	-15.978	317.712	-6.187	27.591	274.520	0.00035763	6.3738e-05	1.5837e-06	559.61	4.7498e-07	9.737e-07	761.02	200.5	1.2366e-06	2.5973e-07	287.32	134.28	87.179	36.178	6.9101e-07	64.844	1.7875e-05	1.4883e-05	3.9162e-06	431.24	1.7783e-07	1.6498e-07	593.04	149.54	1.78e-07	1.6015e-07	196.42	90.922	56.056	23.794	1.6851e-07	41.005	45.311	0.578	84.994	-15.228	96.183	82.381	-15.968	-10.517	123.808	27.789	-11.929	-8.495	-7.138	-3.140	138.635	-5.395	-8191	255	
4173.541	1	1	0	0	0.18809	0.17101	0.22223	0.11672	0.26155	0.029473	0.069793	0.34424	0.17449	0.30074	0.22819	0.1952	0.087477	0.23761	0.26617	0.15484	-3.4708	-3.3438	-3.8688	-3.7479	-3.5604	-3.9875	-3.6292	-3.6896	-3.8167	-3.475	-3.9833	-3.6104	-3.5708	-4.0396	-3.4792	-3.9813	-3.349	95.123	196.407	328.777	-6.823	34.161	37.211	302.943	14.334	285.432	-27.441	320.541	265.095	241.891	224.204	253.275	0.00045572	0.00022598	4.3491e-05	565.07	1.531e-06	7.2699e-07	768.28	202.67	1.3857e-06	5.5191e-07	291.43	135.83	88.645	36.572	1.2209e-06	66.118	1.7823e-05	1.5656e-05	4.3811e-06	435.34	1.8609e-07	1.7322e-07	598.19	150.98	1.8996e-07	1.7375e-07	199.05	91.945	56.826	24.061	1.8628e-07	41.702	54.716	37.589	21.370	-15.162	98.887	93.703	-15.942	-10.421	103.080	96.355	-12.091	-8.520	-7.272	-3.261	80.714	-5.523	-8191	255	
4173.637	1	1	0	0	0.10184	0.10489	0.19557	0.10902	0.091935	0.15227	0.20064	0.12691	0.09313	0.14945	0.23807	0.086162	0.17048	0.17432	0.053484	0.25731	-3.4896	-3.3271	-3.9	-3.7812	-3.4542	-4.0167	-3.575	-3.5521	-3.8583	-3.6229	-4.0896	-4.0125	-3.5979	-4.0813	-3.4854	-3.7896	47.606	261.945	279.656	54.672	-26.601	206.482	207.763	32.945	330.224	52.109	5.610	226.010	44.786	14.625	77.611	266.348	0.00044985	0.00011873	4.7665e-05	570.34	1.5874e-06	9.9463e-07	777.34	204.5	5.4447e-07	1.4246e-06	291	136.02	88.784	36.204	1.9655e-07	64.772	1.7745e-05	1.496e-05	4.5934e-06	440.39	1.681e-07	1.5515e-07	606.71	152.54	1.6069e-07	1.5114e-07	199.48	91.76	56.442	23.817	1.707e-07	40.76	65.990	87.507	28.962	-15.018	89.774	82.874	-15.980	-10.380	138.210	135.892	-12.072	-8.410	-6.728	-3.098	20.061	-5.518	-8191	255	
4173.733	1	1	0	0	0.13082	0.12186	0.051998	0.06702	0.041578	0.06222	0.094867	0.28681	0.065659	0.1104	0.085591	0.060387	0.15131	0.17284	0.19397	0.2074	-3.6521	-3.4417	-3.8021	-3.7479	-3.3396	-4.0896	-3.6125	-3.6833	-3.95	-3.4729	-3.8479	-3.9125	-3.4958	-3.8958	-3.6417	-3.6729	168.046	281.904	200.369	301.268	35.507	259.303	-25.299	179.716	24.921	165.864	300.484	261.815	169.878	318.034	223.628	61.086	0.00041777	0.00014021	3.5956e-05	562.52	1.2395e-06	1.1725e-06	759.27	200.81	9.1407e-07	5.2461e-07	286.44	133.08	86.495	35.533	7.8276e-07	62.722	1.5237e-05	1.3238e-05	4.2469e-06	432.08	1.4577e-07	1.4506e-07	592.42	149.09	1.4865e-07	1.4743e-07	195.89	89.582	55.156	23.271	1.765e-07	39.644	67.535	39.389	48.995	-15.107	71.831	92.626	-16.210	-10.673	139.259	67.373	-11.948	-8.420	-7.385	-2.938	136.955	-5.447	-8191	255	
4173.829	1	1	0	0	0.059955	0.11028	0.12942	0.11045	0.41378	0.16657	0.043317	0.052231	0.21143	0.19781	0.1873	0.047838	0.065155	0.11017	0.10719	0.1104	-3.5958	-3.5667	-3.8917	-3.8521	-3.4437	-3.8479	-3.7521	-3.6583	-3.9042	-3.6521	-3.7625	-4.0417	-3.3458	-4.0333	-3.7396	-3.45	305.526	54.545	261.447	285.017	194.356	-11.002	243.610	243.873	38.357	95.062	187.933	293.383	265.432	105.531	330.640	204.801	0.00043654	0.00011922	4.8734e-05	560.81	1.4036e-06	1.1805e-06	758.8	199.01	1.097e-06	1.1511e-06	287.55	133.46	87.271	35.773	1.658e-06	63.895	1.5274e-05	1.4353e-05	4.3964e-06	429.71	1.4834e-07	1.5358e-07	591.32	148.14	1.4219e-07	1.4978e-07	196.34	89.761	55.562	23.479	1.5915e-07	40.222	62.947	63.770	4.595	-15.041	98.821	95.816	-16.185	-10.836	116.188	125.712	-11.966	-8.542	-7.226	-3.176	112.672	-5.624	-8191	255	
4173.925	1	1	0	0	0.082618	0.24188	0.16727	0.061729	0.36341	0.16016	0.067173	0.17323	0.16389	0.26316	0.062297	0.18905	0.033923	0.26143	0.19456	0.2021	-3.525	-3.5146	-3.6708	-3.9146	-3.3125	-3.7708	-3.8417	-3.4813	-3.9667	-3.6042	-3.7333	-4.1208	-3.5104	-3.7604	-3.7042	-3.5042	59.505	302.390	-9.401	253.906	35.412	91.112	2.514	-18.807	173.375	154.395	241.740	240.550	226.822	280.807	87.145	284.572	0.00038086	0.00011679	2.5868e-05	566.88	9.891e-07	1.0323e-06	772.64	203.42	6.4226e-07	1.4248e-06	292.71	136.6	88.593	36.536	1.3103e-06	65.054	1.3746e-05	1.3402e-05	3.8954e-06	434.62	1.3029e-07	1.4704e-07	599.61	150.65	1.2943e-07	1.4703e-07	199.91	91.671	56.68	23.944	1.3938e-07	40.948	58.723	31.967	28.923	-14.752	95.874	84.943	-15.721	-10.254	132.944	80.395	-11.486	-8.326	-7.159	-2.716	152.059	-5.411	-8191	255	
4174.046	1	1	0	0	0.1955	0.16059	0.10172	0.12625	0.092096	0.17548	0.034388	0.2197	0.11983	0.16043	0.1719	0.082744	0.12773	0.19934	0.10828	0.17492	-3.6229	-3.7333	-3.4708	-3.9396	-3.5479	-3.6542	-4.0417	-3.4375	-3.8792	-3.7021	-3.5833	-4.1271	-3.5187	-3.8896	-3.9625	-3.5229	222.253	-13.763	270.590	63.102	296.435	143.730	281.783	246.466	116.693	17.785	176.606	28.698	219.714	239.797	193.247	159.144	0.00041004	0.00016931	2.3423e-05	575.29	1.5299e-06	1.2604e-06	783.36	207.29	1.0189e-06	8.527e-07	296.87	138.83	90.746	36.98	1.4871e-07	65.713	1.3241e-05	1.3318e-05	3.4747e-06	440.67	1.3177e-07	1.4766e-07	609.71	153.28	1.3244e-07	1.4524e-07	203.1	93.48	57.731	24.355	1.3519e-07	41.405	61.375	66.821	-21.599	-14.970	95.428	124.860	-15.680	-10.056	108.603	114.159	-11.680	-8.039	-7.281	-2.741	1.633	-5.275	-8191	255	
4174.142	1	1	0	0	0.19337	0.28527	0.16162	0.091533	0.15841	0.27438	0.24935	0.1136	0.23175	0.15009	0.14469	0.11687	0.17605	0.21673	0.17972	0.18695	-3.3875	-3.6458	-3.7	-3.9542	-3.5167	-3.8833	-4.0938	-3.5271	-3.8958	-3.7104	-3.6063	-3.9458	-3.5979	-3.7	-3.8312	-3.5729	254.293	149.644	284.046	28.517	32.782	82.624	270.039	294.098	9.119	90.497	41.697	227.714	-22.196	259.138	45.636	330.764	0.00045619	0.00010907	4.8629e-05	568.12	1.7236e-06	9.7545e-07	766.05	201.96	6.0606e-07	1.0077e-06	286.11	133.94	87.082	35.314	1.5902e-06	62.876	1.3971e-05	1.34e-05	3.4131e-06	436.43	1.3935e-07	1.4925e-07	595.11	149.44	1.4457e-07	1.4932e-07	195.81	89.596	55.428	23.225	1.3755e-07	39.582	65.165	64.764	24.640	-14.731	72.797	56.661	-15.751	-10.150	142.881	136.763	-11.980	-8.565	-7.050	-2.962	49.002	-5.348	-8191	255	
4174.214	1	1	0	0	0.082317	0.028433	0.057086	0.20877	0.12646	0.1205	0.14954	0.215	0.072473	0.2327	0.17865	0.29318	0.14181	0.15951	0.21666	0.07737	-3.5312	-3.8625	-3.4292	-4.0083	-3.4583	-3.6375	-4.1271	-3.4292	-3.775	-3.8333	-3.5917	-4.0188	-3.6312	-3.6229	-3.9792	-3.4708	264.150	92.905	-11.368	69.337	270.139	156.561	238.790	258.941	130.355	31.437	234.571	-15.986	269.624	200.996	290.260	242.923	0.00041118	7.7601e-05	2.4527e-05	562.45	6.8963e-07	4.9444e-07	760.6	200.99	8.2641e-07	1.7585e-06	287.95	133.43	87.139	35.572	1.5709e-06	63.461	1.485e-05	1.3181e-05	3.4931e-06	430.19	1.5053e-07	1.4803e-07	590.35	148.24	1.5274e-07	1.4511e-07	196.1	89.55	55.646	23.408	1.3554e-07	39.96	59.916	53.876	38.365	-14.947	113.905	100.319	-16.033	-10.316	114.658	78.807	-11.842	-8.388	-7.046	-2.994	86.827	-5.492	-8191	255	
4174.310	1	1	0	0	0.15783	0.19398	0.11791	0.039074	0.15758	0.13517	0.23516	0.28105	0.10531	0.30161	0.17001	0.15661	0.043015	0.3789	0.074747	0.093844	-3.3729	-3.7458	-3.6354	-3.9062	-3.6583	-3.4167	-4.0146	-3.4688	-3.4437	-3.9104	-3.3937	-3.9167	-3.8771	-3.6188	-3.8312	-3.5875	134.392	31.225	25.227	296.768	225.319	142.083	290.949	266.287	61.417	-7.982	303.963	130.973	141.707	-26.213	168.647	254.378	0.00038221	9.9125e-05	3.558e-05	566.9	1.7225e-06	1.2441e-06	773.61	204.13	1.4555e-06	1.3731e-06	294.21	136.86	89.04	36.388	9.271e-07	65.59	1.5608e-05	1.2992e-05	3.353e-06	434.19	1.4911e-07	1.3447e-07	598.9	150.89	1.4824e-07	1.3078e-07	200	91.845	56.854	23.968	1.2367e-07	41.204	67.083	55.516	-3.096	-15.139	67.336	55.641	-15.750	-10.340	89.799	66.446	-11.660	-8.343	-7.250	-2.828	59.078	-5.369	-8191	255	
4174.429	1	1	0	0	0.16202	0.20277	0.18227	0.12644	0.21509	0.35805	0.095009	0.29253	0.13161	0.092347	0.097229	0.28805	0.16067	0.056585	0.20127	0.1355	-3.55	-3.7708	-3.5292	-3.9333	-3.8354	-3.4042	-4.0062	-3.7313	-3.5604	-3.9833	-3.4313	-3.775	-3.6312	-3.5208	-3.8729	-3.5042	5.765	72.301	-5.166	230.066	103.578	291.329	179.786	240.642	215.686	181.804	248.814	0.302	209.544	79.428	236.859	207.616	0.00040822	1.7417e-05	2.3133e-05	578.58	1.2448e-06	1.2064e-07	784.52	207.54	3.0837e-07	1.0085e-06	298.65	140.1	90.567	37.304	9.1544e-07	66.412	1.4652e-05	1.1707e-05	3.081e-06	442.44	1.4288e-07	1.297e-07	609.74	153.67	1.4389e-07	1.2775e-07	203.64	93.791	57.863	24.418	1.2198e-07	41.85	69.175	154.070	21.180	-15.160	49.798	230.361	-15.769	-10.260	30.663	76.403	-12.054	-8.412	-7.188	-3.057	148.144	-5.201	-8191	255	
4174.525	1	1	0	0	0.15214	0.086711	0.082548	0.32939	0.20604	0.050153	0.25203	0.0076772	0.06301	0.070223	0.25631	0.23728	0.16622	0.2404	0.3257	0.2507	-3.3917	-3.8396	-3.375	-3.7542	-3.7479	-3.4813	-3.9646	-3.6979	-3.7375	-3.9458	-3.4854	-3.8771	-3.8417	-3.5062	-4.0229	-3.7125	89.470	288.735	288.783	117.412	54.123	141.716	270.564	268.652	299.739	296.894	-4.041	314.139	297.046	39.747	296.766	293.025	0.00039566	4.2695e-05	4.3845e-05	582.76	1.5364e-06	9.1278e-07	790.05	208.42	9.298e-07	1.5305e-06	297.39	137.36	88.929	36.385	8.6086e-07	64.342	1.4489e-05	1.1646e-05	3.2391e-06	447.67	1.4106e-07	1.3187e-07	614.83	154.64	1.4075e-07	1.288e-07	202.25	92.414	56.628	23.799	1.2843e-07	40.527	59.588	80.913	49.743	-14.721	105.150	95.065	-15.771	-10.434	109.265	76.478	-12.116	-8.602	-7.097	-2.913	122.853	-5.348	-8191	255	
4174.623	1	1	0	0	0.084091	0.24611	0.12386	0.069408	0.26668	0.044416	0.26075	0.13994	0.2582	0.23604	0.20456	0.12035	0.070264	0.32539	0.14397	0.23272	-3.0917	-3.8104	-3.5938	-3.8521	-3.9833	-3.5687	-4.025	-3.6937	-3.6813	-3.9854	-3.4542	-3.7729	-3.7771	-3.4854	-3.7729	-3.95	-2.087	296.946	84.857	159.562	331.353	12.906	330.178	203.375	56.574	79.094	299.186	27.954	74.415	261.283	280.123	270.882	0.00047151	0.00013062	2.4641e-05	568.79	1.134e-06	7.7838e-07	761.07	201.57	7.0826e-07	8.2745e-07	287.88	133.3	87.348	35.651	1.421e-06	63.149	1.4155e-05	1.1373e-05	3.3119e-06	435.86	1.3786e-07	1.2834e-07	593.1	149.9	1.3776e-07	1.2845e-07	196.27	89.863	55.592	23.377	1.4305e-07	39.865	65.812	43.406	69.306	-14.829	61.725	81.260	-16.170	-10.315	143.528	139.306	-11.696	-8.297	-7.105	-2.963	94.435	-5.164	-8191	255	
4174.742	1	1	0	0	0.13152	0.088494	0.13046	0.14906	0.1634	0.13995	0.15676	0.23559	0.21638	0.3097	0.34458	0.053078	0.063628	0.084481	0.067855	0.25565	-3.1125	-3.9771	-3.4229	-3.6646	-3.9542	-3.4229	-4.025	-3.825	-3.5187	-3.9646	-3.6042	-3.6417	-3.9021	-3.6208	-3.7854	-3.8354	225.622	319.584	196.181	322.390	233.881	105.381	193.474	321.965	315.329	-14.883	205.627	267.592	2.811	49.242	264.959	261.727	0.00040546	0.00011214	4.0742e-05	563.28	1.2653e-06	8.6083e-07	766.56	203.8	5.211e-07	7.323e-07	290.36	136.13	89.11	36.403	1.0276e-06	64.874	1.4121e-05	1.1434e-05	3.633e-06	433.37	1.3538e-07	1.2751e-07	595.39	150.41	1.355e-07	1.2297e-07	198.77	91.275	56.592	23.801	1.4884e-07	40.791	58.423	38.614	16.947	-14.994	84.103	115.172	-15.921	-10.185	128.695	106.565	-11.680	-8.347	-6.700	-3.229	79.411	-5.361	-8191	255	
4174.838	1	1	0	0	0.13143	0.14722	0.18842	0.14439	0.16064	0.15599	0.13799	0.18231	0.30317	0.085361	0.030221	0.2543	0.053525	0.085935	0.21474	0.154	-3.0104	-4.0604	-3.55	-3.6562	-3.8104	-3.5083	-3.9729	-3.9188	-3.4062	-3.8812	-3.7729	-3.7125	-3.8396	-3.5208	-3.7229	-3.8854	156.717	22.522	59.100	308.442	162.712	232.958	324.310	-14.501	-13.814	30.985	212.959	-6.055	31.362	119.653	295.059	266.910	0.00047838	0.00010989	1.1803e-05	568.95	1.1182e-06	9.5185e-07	777.67	206.46	1.4978e-06	1.6121e-06	295.23	138.97	90.556	37.27	1.0508e-06	65.667	1.359e-05	1.1732e-05	3.7313e-06	439.4	1.3086e-07	1.2836e-07	605.68	152.92	1.3179e-07	1.2891e-07	202.19	93.071	57.582	24.333	1.4968e-07	41.432	73.752	58.010	44.461	-14.866	99.983	124.881	-15.935	-10.234	84.889	115.836	-11.818	-8.309	-7.352	-2.887	93.337	-5.331	-8191	255	
4174.910	1	1	0	0	0.13974	0.066488	0.015041	0.12836	0.087249	0.076779	0.3623	0.26698	0.22277	0.082618	0.012961	0.1214	0.13083	0.25992	0.229	0.37317	-3.2292	-3.8812	-3.7687	-3.5583	-3.9375	-3.5021	-3.7188	-3.9292	-3.3792	-3.8875	-3.8083	-3.5604	-3.9958	-3.6604	-3.6875	-3.9729	171.905	178.283	-25.230	243.637	258.806	-13.806	298.215	265.922	200.653	303.543	156.870	-6.941	259.708	1.844	-19.407	289.463	0.00043649	9.1766e-05	3.4876e-05	582.95	1.2802e-06	1.2413e-06	788.72	208.83	1.0349e-06	5.6423e-07	300.43	141.49	91.504	37.621	7.1968e-07	66.744	1.3408e-05	1.2e-05	3.6987e-06	445.57	1.2497e-07	1.3115e-07	613.85	154.82	1.2696e-07	1.3414e-07	204.82	94.483	58.109	24.664	1.4663e-07	41.901	62.184	48.683	49.666	-14.971	104.713	71.344	-15.758	-10.003	77.349	101.774	-11.681	-8.238	-7.160	-2.706	71.394	-5.348	-8191	255	
4175.030	1	1	0	0	0.079132	0.24451	0.097928	0.1656	0.18968	0.24759	0.07023	0.065865	0.17882	0.064101	0.19082	0.18615	0.075505	0.24538	0.084892	0.22562	-3.0583	-3.8417	-3.9375	-3.6229	-3.8125	-3.5479	-3.8	-3.9688	-3.4667	-3.6354	-3.7083	-3.4875	-4.0542	-3.5187	-3.6271	-3.9688	116.855	236.106	8.855	-7.467	234.206	221.622	105.592	-8.223	5.659	305.596	54.305	313.945	314.913	329.499	-11.109	240.182	0.0004553	9.1618e-05	1.6454e-05	578.04	1.1271e-06	8.4266e-07	774.51	204.85	9.6932e-07	1.4227e-06	290.53	134.85	88.436	36.139	4.8827e-07	63.516	1.3032e-05	1.2695e-05	3.6629e-06	442.93	1.2714e-07	1.4434e-07	601.15	151.31	1.2801e-07	1.4713e-07	198.43	90.69	56.273	23.651	1.4375e-07	40.049	64.483	56.816	41.582	-14.855	85.282	99.751	-15.944	-10.158	145.143	89.174	-11.664	-8.473	-6.975	-2.669	104.528	-5.386	-8191	255	
4175.126	1	1	0	0	0.16275	0.071326	0.12678	0.064194	0.16962	0.11766	0.16114	0.12255	0.051453	0.22081	0.084794	0.050683	0.1233	0.11783	0.089054	0.18745	-3.0604	-3.7271	-3.8042	-3.5083	-3.9292	-3.6833	-3.6417	-3.9708	-3.4062	-3.9625	-4.0188	-3.6417	-3.9042	-3.7979	-3.4333	-4.0792	194.472	167.752	290.510	178.327	39.933	25.428	220.662	151.643	91.194	128.539	323.243	93.893	173.481	219.504	300.720	277.962	0.00040986	0.00013869	3.0284e-06	563.22	5.7038e-07	1.0112e-06	763.67	200.92	1.3158e-06	1.3711e-06	288.46	134.55	87.225	36.038	1.692e-06	63.967	1.3629e-05	1.3918e-05	3.6323e-06	432.96	1.3309e-07	1.5591e-07	593.63	149.16	1.3881e-07	1.5172e-07	196.83	90.291	55.862	23.643	1.4248e-07	40.174	61.210	117.053	20.478	-14.959	195.865	61.195	-15.841	-10.196	142.300	81.446	-11.630	-8.360	-7.046	-2.704	114.103	-5.297	-8191	255	
4175.223	1	1	0	0	0.10602	0.12957	0.090115	0.10324	0.10307	0.23117	0.24616	0.066551	0.22964	0.078269	0.16252	0.25195	0.076137	0.1746	0.12894	0.23807	-3.3667	-3.6917	-3.9396	-3.5396	-3.825	-3.8812	-3.5229	-4.2229	-3.3979	-3.5917	-3.9729	-3.425	-3.9271	-3.9313	-3.6583	-4.1062	256.091	42.636	113.055	27.269	279.577	189.183	259.516	309.094	40.162	193.897	25.279	-9.235	19.207	259.567	263.841	280.145	0.00042417	0.0001047	2.2834e-05	569.43	1.2452e-06	7.7295e-07	772.5	204.16	1.2272e-06	9.6285e-07	292.63	135.93	89.058	36.229	1.0975e-06	64.773	1.4387e-05	1.3817e-05	3.4612e-06	437.36	1.4443e-07	1.4846e-07	600	151.31	1.4702e-07	1.5324e-07	199.26	91.08	56.578	23.812	1.402e-07	40.686	67.358	37.439	-21.290	-14.884	92.472	86.139	-15.923	-10.073	123.374	63.263	-11.953	-8.453	-7.169	-2.709	175.782	-5.373	-8191	255	
4175.343	1	1	0	0	0.15042	0.15663	0.017536	0.23221	0.31425	0.26335	0.12816	0.099473	0.13063	0.069475	0.26059	0.21021	0.24892	0.33258	0.191	0.11184	-3.1854	-3.6792	-4.0083	-3.5104	-3.7604	-3.8083	-3.5312	-3.9896	-3.8104	-3.6979	-3.9875	-3.3812	-3.825	-3.8812	-3.4875	-4.0292	118.521	303.801	301.166	68.324	-25.227	202.957	259.279	178.475	306.245	236.285	226.014	2.206	-1.514	-1.947	38.756	270.020	0.00039577	0.00010592	1.7347e-05	579.98	1.2372e-06	8.6472e-07	788.93	207.19	1.5243e-06	8.3317e-07	298.42	138.97	90.326	36.797	1.4742e-07	66.111	1.5235e-05	1.3775e-05	3.5137e-06	443.49	1.521e-07	1.4956e-07	610.34	153.23	1.5359e-07	1.4768e-07	203.19	93.176	57.768	24.302	1.3698e-07	41.634	67.034	69.626	46.703	-14.797	39.945	63.202	-15.989	-10.227	134.244	65.482	-11.915	-8.193	-7.194	-2.831	91.835	-5.389	-8191	255	
4175.439	1	1	0	0	0.053022	0.26553	0.1606	0.15965	0.22138	0.15822	0.32202	0.23525	0.032413	0.1683	0.30308	0.046623	0.16866	0.21104	0.078973	0.07331	-3.1354	-3.45	-3.9417	-3.5312	-3.6604	-3.9729	-3.4375	-4.0813	-3.7854	-3.6104	-4.1375	-3.675	-3.8937	-3.8875	-3.3979	-3.95	266.368	180.728	56.142	149.532	235.803	248.631	193.704	249.830	155.328	20.045	3.829	78.709	75.777	67.390	265.706	310.531	0.00044853	0.0001172	2.2143e-05	582.02	1.5082e-06	1.1946e-06	793.33	208.94	9.2684e-07	1.199e-06	297.48	136.91	89.566	36.465	7.7557e-07	63.827	1.5742e-05	1.3142e-05	3.3287e-06	447.55	1.5495e-07	1.4087e-07	615.51	154.7	1.5624e-07	1.3781e-07	202.21	92.248	57.045	23.87	1.2845e-07	40.279	57.020	35.427	-15.162	-14.881	91.683	40.469	-15.979	-10.186	124.091	85.722	-11.644	-8.151	-6.976	-3.013	100.556	-5.475	-8191	255	
4175.511	1	1	0	0	0.17054	0.10073	0.08216	0.19684	0.17336	0.34324	0.21309	0.12562	0.11179	0.18497	0.070848	0.33928	0.09325	0.24125	0.029845	0.15824	-3.3292	-3.5979	-3.8854	-3.7083	-3.6979	-3.9437	-3.5104	-3.95	-3.7021	-3.5646	-4.0792	-3.6562	-3.6792	-3.8125	-3.5625	-3.8833	7.700	203.085	135.072	-19.585	191.275	183.269	-19.164	275.530	-17.515	91.813	216.728	310.182	-8.417	140.337	214.382	228.601	0.00038225	0.00011517	2.7216e-05	567.86	1.367e-06	1.3604e-06	758.95	202.92	1.1443e-06	6.4283e-07	286.62	134.11	87.644	35.882	1.4312e-06	63.528	1.5164e-05	1.2325e-05	3.1318e-06	435.23	1.4998e-07	1.3524e-07	592.08	149.65	1.4683e-07	1.3378e-07	195.37	90.044	55.898	23.473	1.2262e-07	39.836	69.148	13.669	48.355	-15.265	95.123	58.625	-15.976	-10.067	114.322	70.485	-11.715	-8.320	-6.910	-2.800	115.955	-5.314	-8191	255	
4175.605	1	1	0	0	0.35449	0.071965	0.083557	0.10652	0.21017	0.22213	0.24658	0.18968	0.081669	0.055635	0.12987	0.15437	0.17388	0.33151	0.15864	0.12093	-3.4083	-3.3167	-3.8125	-3.6583	-3.6958	-3.8771	-3.5354	-3.8	-3.7375	-3.2646	-4.0979	-3.7146	-3.7917	-3.9354	-3.3563	-3.7917	69.898	29.597	170.955	19.217	216.294	230.704	312.971	19.819	174.025	108.822	220.262	260.169	-15.721	276.604	244.677	328.007	0.0004605	9.1775e-05	2.7346e-05	565.94	8.9731e-07	5.8706e-07	766.78	203.06	1.3512e-06	1.6719e-06	287.76	135.67	88.565	36.445	1.4447e-06	64.299	1.4335e-05	1.1909e-05	3.1106e-06	435.05	1.4218e-07	1.2715e-07	594.91	150.46	1.4283e-07	1.337e-07	196.86	90.804	56.361	23.781	1.3604e-07	40.458	62.017	44.128	46.450	-14.873	105.543	35.132	-15.864	-10.073	87.655	65.120	-11.646	-8.494	-6.905	-2.852	135.814	-5.397	-8191	255	
4175.726	1	1	0	0	0.20021	0.21989	0.21226	0.12658	0.11618	0.15754	0.16016	0.25904	0.15903	0.25825	0.26859	0.034866	0.15117	0.077008	0.21881	0.1449	-3.5333	-3.4958	-3.8979	-3.6521	-3.5625	-3.9042	-3.6458	-3.8521	-3.9396	-3.3958	-4.0333	-3.7104	-3.5104	-3.9458	-3.4729	-3.7729	93.720	198.170	305.588	241.359	228.614	311.729	304.284	322.566	217.197	229.959	251.109	0.968	-14.547	62.234	256.248	7.238	0.00039691	7.0903e-05	3.9879e-05	572.73	8.6775e-07	1.3911e-06	776.57	205.48	4.715e-07	8.1346e-07	293.34	137.05	90.31	36.893	2.7291e-07	65.299	1.4413e-05	1.2249e-05	3.4199e-06	439.27	1.419e-07	1.309e-07	602.49	152.79	1.4575e-07	1.3305e-07	200.57	92.609	57.551	24.257	1.5357e-07	41.204	67.293	76.001	45.981	-14.987	81.649	41.646	-15.657	-10.209	176.394	67.222	-11.602	-8.758	-7.231	-2.821	108.102	-5.503	-8191	255	
4175.822	1	1	0	0	0.047629	0.24321	0.068071	0.082281	0.06944	0.028574	0.13466	0.32909	0.099327	0.1491	0.12727	0.12325	0.27055	0.16626	0.079139	0.15243	-3.5042	-3.4833	-3.9479	-3.7229	-3.4958	-3.9646	-3.625	-3.7375	-3.8583	-3.2021	-3.8854	-3.7229	-3.6333	-4.0188	-3.5021	-3.6917	23.254	283.093	255.664	302.003	213.981	6.235	292.275	233.078	12.153	31.172	264.281	2.039	271.155	46.160	188.398	231.848	0.00043027	0.0001184	2.4069e-05	577.76	1.4661e-06	1.0302e-06	784.52	206.8	4.633e-07	7.8239e-07	295.19	139.6	91.226	37.514	8.781e-07	66.494	1.5298e-05	1.3062e-05	4.1085e-06	444.33	1.5744e-07	1.4541e-07	609.74	154.03	1.5305e-07	1.4591e-07	202.53	93.899	58.177	24.652	1.7647e-07	41.911	55.997	44.781	32.113	-15.219	102.912	82.102	-15.902	-10.055	199.482	69.786	-11.586	-8.233	-7.071	-2.867	94.556	-5.408	-8191	255	
4175.918	1	1	0	0	0.10432	0.13933	0.15884	0.095184	0.13495	0.063548	0.12218	0.10095	0.31023	0.22315	0.27587	0.18329	0.31004	0.38221	0.1858	0.23362	-3.5854	-3.5208	-3.7271	-3.7375	-3.3146	-3.8812	-3.6375	-3.6146	-4.0083	-3.5042	-3.9708	-3.9917	-3.5	-4.0813	-3.5354	-3.7146	197.580	171.203	210.152	289.620	47.790	6.593	34.605	175.322	271.658	89.553	300.741	305.231	250.120	290.915	32.331	287.783	0.00048639	0.00010784	5.0004e-05	576.8	7.1422e-07	4.7721e-07	769.81	205.08	8.8301e-07	1.5468e-06	291.2	136.3	89.54	36.465	8.569e-07	64.206	1.5622e-05	1.351e-05	4.4172e-06	443.83	1.5413e-07	1.47e-07	601.4	151.94	1.4816e-07	1.483e-07	199.16	91.674	56.914	24.007	1.7232e-07	40.531	60.824	38.080	37.925	-14.414	60.186	51.554	-15.590	-10.488	100.056	143.713	-11.625	-8.487	-7.047	-2.907	49.861	-5.318	-8191	255	
4176.014	1	1	0	0	0.20602	0.095651	0.11972	0.22986	0.050376	0.16048	0.024102	0.27043	0.24716	0.23846	0.14281	0.13966	0.070399	0.24314	0.086606	0.27199	-3.5062	-3.375	-3.6146	-3.8937	-3.4042	-3.7479	-3.8354	-3.6292	-4.0208	-3.7083	-3.6708	-3.8646	-3.4792	-3.9458	-3.7208	-3.7042	75.268	42.079	88.302	18.095	71.349	0.951	322.205	206.145	25.234	-6.727	-1.883	329.102	24.022	18.317	323.820	296.133	0.00043741	6.0805e-05	2.571e-05	569.38	1.6022e-06	1.1239e-06	762.44	203.17	1.1025e-06	7.1238e-07	292.4	136.83	90.29	36.846	4.7913e-07	65.747	1.4418e-05	1.3769e-05	4.1979e-06	436.46	1.3859e-07	1.4462e-07	594.05	151.05	1.3636e-07	1.4897e-07	199.01	91.809	57.332	24.315	1.5614e-07	41.247	57.063	50.540	20.711	-14.805	90.427	91.936	-15.745	-10.060	109.790	109.518	-11.940	-8.495	-7.216	-3.032	25.422	-5.312	-8191	255	
4176.111	1	1	0	0	0.1954	0.16695	0.26374	0.23448	0.12891	0.028945	0.2343	0.050836	0.020965	0.141	0.17248	0.042182	0.26306	0.20682	0.15343	0.099567	-3.5333	-3.4604	-3.5	-3.9333	-3.6167	-3.8208	-3.9792	-3.4271	-4.0292	-3.5708	-3.7208	-3.9917	-3.4708	-3.8688	-3.9	-3.3812	310.050	45.655	54.670	-10.265	258.326	80.297	-18.289	115.813	98.603	329.461	52.041	-6.363	290.735	-21.187	177.658	-4.205	0.00039945	9.0165e-05	3.9908e-05	572.37	5.5232e-07	1.5554e-06	778.82	206.78	1.1024e-06	7.7752e-07	294.68	139.3	91.999	37.65	1.6795e-06	66.39	1.357e-05	1.3568e-05	3.8692e-06	441	1.3419e-07	1.5066e-07	604.95	153.6	1.338e-07	1.5545e-07	201.92	93.727	58.447	24.765	1.523e-07	41.901	74.720	31.818	9.314	-14.958	82.513	73.613	-15.851	-10.345	151.084	181.932	-11.665	-8.467	-7.211	-2.970	74.792	-5.490	-8191	255	
4176.207	1	1	0	0	0.1947	0.064419	0.22797	0.42618	0.11817	0.16995	0.076848	0.14936	0.11358	0.30616	0.014724	0.025957	0.060063	0.11821	0.1942	0.1342	-3.6354	-3.7042	-3.4562	-3.9083	-3.3812	-3.7208	-3.9208	-3.4479	-3.9229	-3.6271	-3.5917	-4.0896	-3.6	-3.8604	-3.9271	-3.7292	8.253	-1.378	123.918	305.334	229.006	-15.510	249.210	312.829	97.803	153.017	110.395	-23.756	-10.362	8.675	115.416	90.454	0.00042659	4.3406e-05	3.9842e-05	581.36	1.0058e-06	1.6528e-06	788.95	210.16	1.0005e-06	8.8773e-07	301.87	142.01	92.792	38.223	1.506e-06	67.497	1.4214e-05	1.4695e-05	3.8232e-06	445.89	1.4301e-07	1.6529e-07	612.04	155.57	1.4318e-07	1.64e-07	205.37	95.171	59.161	25.177	1.5362e-07	42.547	65.397	138.439	12.154	-15.145	148.035	65.442	-15.724	-10.356	142.444	72.391	-11.924	-8.604	-6.913	-2.994	103.165	-5.448	-8191	255	
4176.303	1	1	0	0	0.051682	0.32969	0.35116	0.17607	0.16431	0.10447	0.094085	0.071109	0.10233	0.17758	0.16739	0.16907	0.25243	0.2139	0.225	0.13922	-3.4792	-3.8333	-3.7	-4.05	-3.4688	-3.8625	-4.0417	-3.6437	-3.825	-3.7667	-3.5812	-4.1625	-3.5563	-3.6958	-3.9979	-3.525	-10.808	14.727	-6.909	192.752	255.656	283.556	269.788	317.961	260.182	189.851	245.294	306.891	281.455	313.459	172.991	249.225	0.00054696	0.00017336	1.8796e-05	589.33	5.9092e-07	1.0617e-06	791.46	212.96	9.1779e-07	3.9412e-07	304.29	143.61	94.127	38.668	8.9019e-07	68.195	1.534e-05	1.4875e-05	3.8379e-06	450.04	1.5409e-07	1.6209e-07	617.36	157.73	1.524e-07	1.5757e-07	207.66	96.404	60.01	25.386	1.4309e-07	42.762	54.653	44.357	24.638	-15.092	50.142	69.333	-16.109	-10.374	148.418	136.847	-12.109	-8.348	-7.374	-3.025	86.177	-5.732	-8191	255	
4176.424	1	1	0	0	0.21792	0.073487	0.17793	0.09048	0.045002	0.16239	0.22075	0.097547	0.076174	0.02992	0.48602	0.15945	0.15343	0.092414	0.12151	0.25618	-3.4708	-3.7833	-3.4375	-3.9958	-3.5312	-3.6833	-4.0854	-3.5896	-3.6937	-3.6833	-3.5083	-3.9854	-3.7646	-3.575	-3.95	-3.4104	77.744	300.011	286.333	-20.022	55.722	5.539	167.407	296.978	275.001	94.269	326.810	319.559	98.549	-18.790	323.906	316.712	0.0004733	8.8045e-05	4.8552e-06	586.08	1.1421e-06	1.486e-06	789.13	209.73	4.21e-07	6.8372e-07	297.27	141.04	92.172	37.971	6.5817e-07	66.509	1.5502e-05	1.3855e-05	3.5264e-06	448.03	1.5429e-07	1.4997e-07	611.81	155.67	1.5573e-07	1.4683e-07	203.33	94.607	58.909	24.893	1.3154e-07	41.874	60.957	17.119	264.959	-14.806	107.044	78.589	-15.610	-10.400	97.956	86.889	-11.854	-8.332	-7.127	-2.873	65.669	-5.433	-8191	255	
4176.518	1	1	0	0	0.11611	0.14289	0.090933	0.11437	0.098832	0.22667	0.26802	0.24213	0.20022	0.17683	0.13727	0.13372	0.29479	0.1841	0.12903	0.14171	-3.5646	-3.7958	-3.2938	-3.9125	-3.7958	-3.4917	-4.0563	-3.4396	-3.7125	-3.6979	-3.5292	-4.0708	-3.6875	-3.6021	-4.125	-3.7646	14.530	218.821	325.409	323.474	176.900	191.894	235.466	233.450	37.898	189.323	36.912	298.374	269.755	317.032	299.723	-24.051	0.00034147	0.0001259	1.7199e-05	582.32	9.7404e-07	8.3059e-07	785.83	210.85	1.288e-06	1.132e-06	300.66	142.33	93.962	38.289	3.3175e-07	67.55	1.5387e-05	1.2564e-05	3.2909e-06	444.15	1.4991e-07	1.3641e-07	609.89	156.02	1.5214e-07	1.3553e-07	204.92	95.402	59.761	25.167	1.258e-07	42.488	69.162	41.049	33.467	-14.849	76.728	40.473	-15.724	-10.452	126.231	0.271	-11.860	-8.401	-7.188	-2.964	99.708	-5.434	-8191	255	
4176.614	1	1	0	0	0.056928	0.18012	0.20042	0.12775	0.055872	0.17031	0.052446	0.13701	0.16563	0.15767	0.24284	0.12504	0.11099	0.096038	0.069041	0.15951	-3.5167	-3.7458	-3.4229	-4.0458	-3.8229	-3.5521	-4.0375	-3.7	-3.7062	-3.9542	-3.4938	-3.9583	-3.825	-3.4042	-3.7687	-3.5833	227.096	19.366	302.150	105.177	252.950	38.750	35.903	112.151	181.323	216.770	257.012	296.546	66.861	38.103	220.906	327.080	0.00049981	7.2769e-05	3.0255e-05	591.54	2.0518e-06	1.2513e-06	795.74	211.74	4.4978e-07	1.7365e-06	302.72	143.3	94.458	38.331	7.5746e-07	67.919	1.5466e-05	1.2509e-05	3.225e-06	452.08	1.5654e-07	1.3699e-07	616.84	157.73	1.5647e-07	1.3574e-07	206.44	95.991	59.907	25.233	1.2919e-07	42.669	66.459	13.640	-7.663	-14.948	109.473	83.557	-15.552	-10.551	88.524	51.727	-11.930	-8.422	-7.034	-2.793	146.478	-5.584	-8191	255	
4176.710	1	1	0	0	0.24509	0.28207	0.35445	0.044769	0.05358	0.13523	0.07866	0.02768	0.1527	0.068761	0.08416	0.19054	0.19041	0.13817	0.02181	0.17322	-3.1813	-3.9604	-3.4688	-3.7833	-3.7729	-3.5563	-4.0167	-3.5563	-3.6646	-3.7292	-3.5458	-3.9125	-3.9	-3.5146	-3.9146	-3.7271	112.354	-5.525	181.025	298.632	145.238	7.415	4.210	297.481	117.521	266.397	67.983	81.119	167.995	330.855	12.541	222.573	0.00035423	9.2213e-05	3.3821e-05	591.3	1.4942e-06	5.5416e-07	799.78	213.29	1.0366e-06	3.3303e-07	305.92	144.41	94.095	38.708	1.1612e-06	68.269	1.545e-05	1.2324e-05	3.3265e-06	453.63	1.4905e-07	1.3679e-07	621.42	158.76	1.492e-07	1.353e-07	208.02	96.823	60.075	25.357	1.3583e-07	43.146	50.789	85.105	18.066	-14.946	83.393	82.344	-15.974	-10.411	71.210	103.109	-11.791	-8.451	-7.152	-2.782	128.626	-5.461	-8191	255	
4176.806	1	1	0	0	0.19438	0.10278	0.17181	0.14025	0.14058	0.25685	0.13298	0.17705	0.15869	0.36956	0.039488	0.032907	0.056123	0.078852	0.21288	0.30816	-3.2062	-3.8604	-3.4313	-3.8417	-3.9271	-3.4208	-4.05	-3.8083	-3.5438	-4.0188	-3.7687	-3.7958	-3.9729	-3.4646	-3.8375	-3.7917	204.213	49.682	103.819	230.316	203.672	-12.249	161.433	119.585	175.001	175.855	212.672	95.173	188.128	-9.059	51.151	234.430	0.00052123	0.00012032	2.2202e-05	594.61	1.5649e-06	4.4999e-07	803.42	214.01	7.9067e-07	1.4235e-06	301.35	142.01	92.66	37.877	8.5672e-07	66.221	1.489e-05	1.188e-05	3.4598e-06	457.08	1.3827e-07	1.3145e-07	623.3	158.85	1.4459e-07	1.2682e-07	206.14	95.377	58.981	24.767	1.4666e-07	41.717	64.686	105.992	47.457	-14.934	90.066	72.642	-15.707	-10.358	62.351	93.187	-11.752	-8.423	-7.138	-2.896	145.813	-5.395	-8191	255	
4176.903	1	1	0	0	0.029701	0.087903	0.15106	0.16756	0.2568	0.11432	0.25837	0.13984	0.076356	0.073092	0.35539	0.15735	0.068823	0.28239	0.22989	0.10782	-3.1562	-3.9667	-3.7167	-3.8354	-3.8479	-3.4354	-3.8854	-3.8479	-3.375	-4.1062	-3.6917	-3.7646	-3.8146	-3.5146	-3.85	-4.025	70.197	70.103	248.876	-15.225	19.160	227.792	300.843	235.877	151.191	-27.804	228.335	91.200	249.984	128.149	167.198	310.456	0.00046499	9.7769e-05	1.4063e-05	578.28	1.3171e-06	7.5308e-07	780.38	207.87	3.2671e-07	9.6509e-07	297.67	138.75	91.014	37.245	7.1861e-07	65.759	1.443e-05	1.1551e-05	3.746e-06	444.96	1.3567e-07	1.2879e-07	606.06	153.94	1.3676e-07	1.2276e-07	202.3	93.283	58.123	24.502	1.5205e-07	41.383	61.913	49.599	25.947	-14.964	83.958	40.047	-15.781	-10.433	70.128	113.141	-11.880	-8.595	-7.329	-3.132	110.288	-5.335	-8191	255	
4177.021	1	1	0	0	0.1306	0.13017	0.10322	0.19605	0.10777	0.05963	0.2657	0.070819	0.071005	0.239	0.1319	0.20306	0.052454	0.13792	0.024221	0.29723	-3.1979	-3.8604	-3.5021	-3.55	-3.975	-3.4771	-3.9313	-3.9104	-3.4708	-3.975	-3.8021	-3.5167	-3.9604	-3.5958	-3.8333	-3.7146	317.397	30.100	134.103	169.869	306.772	290.998	225.658	232.470	58.326	253.043	224.312	201.987	11.944	-15.142	53.275	219.782	0.00041303	3.6217e-05	1.8127e-05	584.14	2.4846e-06	6.9599e-07	789.35	209.75	3.5161e-07	9.8932e-07	299.89	141.33	92.408	37.94	1.013e-06	66.758	1.3571e-05	1.1554e-05	3.823e-06	447.5	1.308e-07	1.3015e-07	611.34	155.34	1.319e-07	1.31e-07	204.56	94.852	59.061	24.84	1.5093e-07	42.151	70.284	-2.642	16.120	-14.906	76.335	5.863	-15.843	-10.276	23.417	79.947	-11.847	-8.347	-7.256	-2.990	82.892	-5.670	-8191	255	
4177.118	1	1	0	0	0.18798	0.075501	0.23236	0.12144	0.13507	0.26207	0.10304	0.13128	0.079264	0.18166	0.10408	0.27614	0.049248	0.11856	0.12421	0.062659	-2.9562	-3.7562	-3.7417	-3.5625	-3.9938	-3.4479	-3.8937	-3.95	-3.4	-3.9208	-3.7792	-3.6813	-4.1125	-3.5875	-3.8542	-3.9521	-0.560	-9.397	264.789	226.951	212.404	164.732	294.563	321.863	266.367	-27.184	208.710	290.013	-24.848	-20.483	251.307	47.119	0.00043031	0.000126	3.6208e-05	590.06	1.3113e-06	1.3544e-06	797.32	213.27	9.0443e-07	1.4882e-06	306.23	142.63	94.259	38.246	1.7301e-06	67.514	1.3137e-05	1.2202e-05	3.8587e-06	451.92	1.2807e-07	1.3629e-07	621.06	157.84	1.2863e-07	1.4378e-07	207.99	95.896	59.734	25.14	1.5252e-07	42.542	61.443	94.444	54.286	-14.955	92.946	71.652	-15.812	-10.167	119.074	123.964	-11.840	-8.125	-7.212	-2.590	120.955	-5.499	-8191	255	
4177.214	1	1	0	0	0.099441	0.14768	0.11448	0.065312	0.26649	0.13554	0.08691	0.23091	0.076108	0.061483	0.011954	0.058587	0.17412	0.18296	0.1962	0.11636	-2.9729	-3.7396	-3.725	-3.6771	-4.0292	-3.6229	-3.8125	-4.0354	-3.3354	-3.9313	-3.9125	-3.6271	-3.9229	-3.5833	-3.5812	-4.2104	55.365	124.285	150.813	274.580	-22.328	271.341	106.177	239.067	201.715	299.233	22.199	273.804	311.907	139.903	56.535	-11.362	0.00035103	9.8867e-05	3.1981e-05	596.16	1.2905e-06	7.9702e-07	802.26	213.7	9.7951e-07	2.6847e-07	306.05	143.85	94.245	38.419	1.112e-06	68.01	1.334e-05	1.3257e-05	3.8948e-06	455.7	1.2905e-07	1.5004e-07	624.07	158.55	1.312e-07	1.5036e-07	208.76	96.638	59.928	25.281	1.4508e-07	42.645	57.806	59.679	6.387	-15.129	93.487	125.490	-15.560	-10.103	90.366	103.223	-11.742	-8.114	-6.829	-3.215	110.612	-5.286	-8191	255	
4177.310	1	1	0	0	0.21644	0.14373	0.12291	0.1901	0.06181	0.21043	0.0468	0.060285	0.12574	0.12185	0.058374	0.093416	0.36041	0.2292	0.15692	0.14138	-2.9167	-3.8854	-3.8958	-3.3771	-4.1042	-3.5125	-3.5917	-4.0229	-3.3583	-3.725	-4.0396	-3.3604	-3.9354	-3.7146	-3.5729	-4.2562	-25.786	56.440	242.809	278.052	171.765	264.990	278.726	226.123	40.040	95.882	81.639	45.412	269.623	217.857	231.731	243.523	0.00052063	0.00015784	1.8398e-05	591.42	1.2049e-06	1.3417e-06	791.19	211.99	8.7748e-07	2.3841e-07	300.47	141.73	93.286	37.761	7.5697e-07	66.36	1.3869e-05	1.3556e-05	3.5391e-06	452.11	1.2841e-07	1.5038e-07	615.64	156.38	1.3005e-07	1.4499e-07	205.29	94.93	59.028	24.86	1.3102e-07	41.623	65.744	67.081	0.262	-15.037	82.502	93.212	-15.631	-10.099	144.035	55.541	-11.623	-8.228	-7.066	-2.866	69.964	-5.516	-8191	255	
4177.382	1	1	0	0	0.1736	0.048995	0.093435	0.16688	0.23111	0.012138	0.19095	0.09672	0.07022	0.16338	0.12572	0.049632	0.034629	0.032166	0.13025	0.13346	-3.0667	-3.6146	-3.8229	-3.5271	-3.8021	-3.675	-3.5604	-4.1667	-3.525	-3.5354	-4.0396	-3.5917	-3.9333	-3.7875	-3.5021	-4.0563	52.497	273.776	280.635	220.715	193.073	171.005	299.473	268.392	-15.279	232.596	238.322	-18.763	234.522	303.942	43.453	315.146	0.0004675	0.00017196	4.3038e-05	586.15	1.3043e-06	1.1361e-06	786.51	210.54	1.0151e-06	1.6959e-06	303.14	142.7	93.937	38.218	4.2897e-07	67.52	1.336e-05	1.2928e-05	3.2069e-06	447.22	1.2982e-07	1.3862e-07	612.15	155.83	1.319e-07	1.3801e-07	206.25	95.372	59.65	25.145	1.2275e-07	42.404	59.737	38.986	31.543	-14.516	95.080	82.858	-15.872	-10.513	77.009	108.741	-11.567	-8.408	-6.894	-2.772	82.484	-5.501	-8191	255	
4177.502	1	1	0	0	0.024283	0.05151	0.12123	0.32823	0.21824	0.33505	0.01625	0.092025	0.10253	0.13203	0.049951	0.24754	0.087396	0.14156	0.047217	0.22986	-3.1437	-3.6396	-3.9104	-3.3146	-3.8854	-3.8375	-3.5417	-3.9854	-3.725	-3.6646	-4.0979	-3.5542	-3.8563	-3.9792	-3.3438	-4.0458	136.988	59.106	24.192	318.743	209.857	222.735	293.054	269.706	290.640	13.669	285.613	286.753	309.512	283.093	189.914	243.517	0.00040805	4.0682e-05	2.9793e-05	596.3	1.1354e-06	1.105e-06	804.86	214.82	1.2762e-06	3.4885e-07	307.68	144.19	94.968	38.466	1.0398e-06	68.049	1.3874e-05	1.2275e-05	3.0577e-06	455.12	1.351e-07	1.3044e-07	625.36	159.05	1.3616e-07	1.3134e-07	209.13	96.654	60.261	25.246	1.2314e-07	42.718	60.686	68.372	20.119	-15.025	53.298	78.571	-15.783	-10.289	111.145	123.736	-11.991	-8.455	-7.191	-2.961	106.571	-5.062	-8191	255	
4177.598	1	1	0	0	0.096079	0.17043	0.10819	0.16463	0.13367	0.25465	0.26632	0.078952	0.13255	0.14834	0.17307	0.12245	0.16643	0.27459	0.13616	0.11868	-3.4562	-3.5542	-3.9021	-3.5958	-3.9562	-4.0292	-3.3292	-3.9792	-3.675	-3.65	-4.1062	-3.6833	-3.7146	-4.0083	-3.4771	-4.2625	90.017	47.221	5.914	239.203	9.880	-21.681	252.689	89.561	229.096	89.810	6.992	-20.440	68.673	261.526	272.625	202.625	0.00040344	0.00013519	4.4425e-05	601.42	1.5502e-06	4.4852e-07	814.4	218.32	1.1814e-06	7.5542e-08	312.42	146.07	95.776	39.08	1.1878e-06	68.939	1.4354e-05	1.1722e-05	2.926e-06	459.48	1.4006e-07	1.251e-07	631.39	161.13	1.4312e-07	1.2758e-07	212.27	98.072	61.067	25.695	1.1813e-07	43.443	65.409	40.416	23.571	-14.737	88.966	89.112	-15.641	-10.159	109.483	109.123	-11.909	-8.419	-6.861	-2.622	114.710	-5.290	-8191	255	
4177.694	1	1	0	0	0.079423	0.10935	0.12191	0.18126	0.077865	0.3089	0.21061	0.22991	0.14123	0.043159	0.12005	0.2049	0.062118	0.031093	0.12263	0.19674	-3.4917	-3.6375	-4.0687	-3.6729	-3.6583	-3.9583	-3.5	-4.1083	-3.9188	-3.6312	-3.9958	-3.6646	-3.8187	-4.1333	-3.5187	-3.925	100.200	262.075	209.003	201.593	83.786	263.901	228.306	285.494	325.576	111.448	33.032	56.624	244.359	241.450	18.015	210.299	0.00049098	9.0052e-05	2.4346e-05	610.84	1.7297e-06	1.5076e-06	817.47	220.01	7.1903e-07	5.9229e-07	314.47	146.9	96.424	39.047	8.8047e-07	68.483	1.4541e-05	1.1465e-05	2.934e-06	465.43	1.3981e-07	1.2294e-07	637.05	162.74	1.3738e-07	1.2294e-07	213.76	98.588	61.172	25.604	1.1777e-07	43.034	63.299	27.932	54.847	-14.761	94.190	87.096	-15.623	-10.020	76.218	113.941	-11.924	-8.535	-7.174	-2.402	87.941	-5.280	-8191	255	
4177.791	1	1	0	0	0.17536	0.22847	0.22202	0.049835	0.37395	0.10299	0.11824	0.22146	0.12656	0.069546	0.18713	0.071714	0.088235	0.18746	0.064214	0.044967	-3.5042	-3.45	-4.0208	-3.8771	-3.6146	-4.0792	-3.5417	-3.8875	-3.8333	-3.5938	-3.9958	-3.8208	-3.4875	-3.975	-3.5833	-4.1042	163.536	71.655	15.572	19.801	329.554	322.989	184.336	299.651	270.797	232.957	313.258	68.803	264.378	256.891	279.493	170.531	0.00041243	0.00010192	3.7039e-05	595.28	1.645e-06	8.9182e-07	798.47	213.16	1.3154e-06	9.0617e-07	302.81	140.84	92.773	37.753	1.2993e-06	66.34	1.3832e-05	1.158e-05	2.9855e-06	457.94	1.335e-07	1.2083e-07	620.64	157.88	1.3363e-07	1.2007e-07	205.75	94.776	59.119	24.698	1.214e-07	41.671	72.219	-3.441	63.734	-14.854	83.477	32.307	-15.626	-10.359	128.094	57.335	-11.868	-8.437	-7.112	-2.768	169.738	-5.231	-8191	255	
4177.910	1	1	0	0	0.14875	0.3039	0.12697	0.12375	0.11238	0.17794	0.071799	0.14294	0.12124	0.091658	0.10987	0.34919	0.14316	0.19835	0.040024	0.17287	-3.4813	-3.4396	-3.925	-3.7062	-3.5312	-4.0563	-3.6417	-3.9292	-3.8104	-3.5021	-4.0354	-3.7875	-3.6542	-4.1417	-3.4583	-3.8083	165.237	265.075	188.463	43.066	109.051	-11.460	281.333	19.035	-20.514	231.650	147.716	304.753	199.624	302.862	226.950	212.629	0.00036917	0.00012852	1.8735e-05	592.8	1.2891e-06	6.9691e-07	799.27	212.46	5.0001e-07	5.4231e-07	304.54	142.36	93.85	37.987	6.7351e-07	67.048	1.3406e-05	1.0827e-05	3.1141e-06	453.97	1.2791e-07	1.1428e-07	619.87	157.69	1.2692e-07	1.1751e-07	207.22	95.349	59.461	24.92	1.3158e-07	42.279	51.287	33.511	0.548	-15.186	82.979	93.909	-16.013	-10.062	83.254	66.408	-11.875	-8.375	-7.219	-2.849	129.172	-5.297	-8191	255	
4178.006	1	1	0	0	0.22561	0.052222	0.16196	0.22803	0.1359	0.082471	0.19875	0.07535	0.056662	0.11384	0.15199	0.14205	0.12003	0.1645	0.10802	0.1815	-3.6167	-3.5479	-3.7667	-3.7396	-3.475	-4.1458	-3.825	-4.0375	-4.0312	-3.7083	-3.9208	-3.7917	-3.5187	-4.1167	-3.7938	-3.7521	210.931	217.832	124.303	279.001	251.597	166.971	131.614	190.727	298.022	211.778	312.268	292.049	263.078	290.406	228.209	280.573	0.00048605	0.00012784	3.0091e-05	598.19	5.3017e-07	1.2423e-06	807.82	216.47	9.614e-07	1.9223e-06	307.41	144.63	94.963	38.664	1.4678e-06	67.956	1.2796e-05	1.0463e-05	3.3023e-06	458	1.2256e-07	1.1457e-07	627.92	160.15	1.2506e-07	1.1373e-07	210.1	96.931	60.273	25.277	1.3488e-07	42.836	63.684	38.014	21.240	-14.901	26.159	78.005	-15.738	-10.137	110.172	80.216	-11.747	-8.417	-6.785	-2.683	105.057	-5.210	-8191	255	
4178.102	1	1	0	0	0.26286	0.11977	0.036592	0.13653	0.071545	0.11426	0.10977	0.24323	0.19106	0.08864	0.29019	0.16139	0.25239	0.17745	0.1511	0.16862	-3.6958	-3.6458	-3.8396	-3.7687	-3.2854	-3.9958	-3.7125	-3.6396	-4.0729	-3.675	-3.8625	-4.0104	-3.5083	-3.8396	-3.625	-3.5062	111.115	236.263	95.968	266.161	-12.317	109.770	281.916	26.922	34.835	245.500	317.826	280.450	292.363	218.700	326.879	280.264	0.00050481	9.798e-05	2.2984e-05	600.11	1.2214e-06	8.5546e-07	818.75	218.63	8.3931e-07	4.3101e-07	311.99	146.04	95.727	39.206	1.5533e-06	68.929	1.2594e-05	1.0641e-05	3.4331e-06	460.57	1.227e-07	1.1741e-07	635.05	161.31	1.2252e-07	1.2096e-07	212.75	97.881	60.777	25.63	1.3867e-07	43.313	70.316	76.575	39.948	-15.148	55.074	87.828	-15.687	-10.129	95.337	94.395	-11.536	-8.244	-6.891	-2.655	82.968	-5.014	-8191	255	
4178.198	1	1	0	0	0.27495	0.12734	0.1253	0.049841	0.028612	0.14425	0.33197	0.1544	0.21275	0.047746	0.28003	0.15188	0.17539	0.053569	0.14278	0.10438	-3.725	-3.5625	-3.8292	-3.9625	-3.3583	-4.1208	-3.9083	-3.6667	-4.1188	-3.575	-3.7	-3.9708	-3.3729	-3.9396	-3.7938	-3.5458	271.089	229.530	303.427	211.906	142.272	98.880	304.893	16.055	139.232	70.759	288.233	29.613	109.378	42.281	88.945	224.452	0.00042131	0.00013661	2.2769e-05	605.11	6.5615e-07	1.1739e-06	816.1	217.68	7.3385e-07	1.2498e-06	308.92	144.08	95.004	38.378	1.2045e-06	67.205	1.2123e-05	1.1002e-05	3.4365e-06	462.48	1.1495e-07	1.2e-07	634.2	160.91	1.143e-07	1.2353e-07	210.37	96.506	60.056	25.156	1.296e-07	42.256	64.525	75.957	323.967	-14.810	35.447	108.066	-15.727	-10.167	31.217	91.860	-11.528	-8.066	-7.174	-2.840	91.165	-5.108	-8191	255	
4178.294	1	1	0	0	0.13137	0.2656	0.1172	0.26636	0.050354	0.096791	0.19788	0.23447	0.14298	0.13959	0.080925	0.19784	0.095212	0.1188	0.15789	0.1656	-3.8771	-3.5146	-3.6042	-3.9229	-3.5229	-3.8979	-3.8833	-3.3063	-4.0292	-3.6521	-3.7854	-4.0271	-3.6437	-3.8875	-3.8333	-3.5312	-26.536	182.666	7.782	303.926	41.603	239.859	-22.323	231.778	36.572	133.371	46.907	45.595	286.560	221.681	169.407	310.445	0.00038997	0.00010728	4.9337e-05	600.4	1.0152e-06	1.3653e-06	805.76	215.86	9.1675e-07	1.4419e-06	310.49	144.9	95.584	38.628	1.0298e-06	68.076	1.1574e-05	1.1351e-05	3.2804e-06	458.41	1.064e-07	1.2517e-07	624.79	159.39	1.0885e-07	1.2416e-07	210.85	96.849	60.518	25.353	1.2443e-07	42.702	64.431	83.041	-0.170	-14.783	55.636	86.084	-15.787	-10.173	112.628	44.732	-11.958	-8.203	-6.999	-2.750	87.650	-5.284	-8191	255	
4178.390	1	1	0	0	0.021113	0.087172	0.029491	0.10421	0.026689	0.19763	0.10095	0.054645	0.15399	0.069457	0.15788	0.27083	0.090963	0.3114	0.15382	0.27344	-3.6188	-3.7208	-3.4979	-3.9396	-3.4646	-3.8771	-3.8854	-3.5625	-4.0917	-3.7292	-3.7208	-4.0333	-3.5708	-3.8396	-3.9437	-3.4562	1.280	218.308	138.565	125.397	85.364	139.943	241.149	296.560	76.089	307.890	283.697	265.356	317.260	24.876	62.083	293.616	0.00040602	6.2641e-05	3.8899e-05	604.51	1.0988e-06	8.4171e-07	817.48	218.65	9.3971e-07	1.6438e-06	314.12	147.01	96.711	39.425	1.1346e-06	68.971	1.174e-05	1.1624e-05	3.1144e-06	460.26	1.1367e-07	1.2883e-07	633.33	161.51	1.1331e-07	1.2722e-07	213.26	98.35	61.449	25.873	1.1897e-07	43.395	56.582	-24.791	11.966	-14.905	102.406	113.672	-15.627	-10.099	93.674	89.117	-11.949	-8.203	-7.100	-2.527	96.626	-5.212	-8191	255	
4178.511	1	1	0	0	0.061073	0.11894	0.18658	0.16049	0.10086	0.069297	0.15909	0.05139	0.19803	0.18888	0.20158	0.14704	0.17607	0.11938	0.18067	0.072608	-3.6604	-3.7458	-3.5792	-4.0833	-3.5417	-3.8854	-4.0333	-3.4833	-3.9708	-3.6979	-3.425	-4.0333	-3.7917	-3.7083	-3.75	-3.6063	321.636	261.633	251.170	254.007	317.207	133.035	-20.841	241.395	266.250	152.357	37.894	164.472	185.791	195.260	302.368	-7.294	0.00043333	7.4476e-05	5.3965e-05	613.39	1.1787e-06	8.2252e-07	825.88	220.27	1.0675e-06	3.7272e-07	315.38	148.94	98.03	39.805	1.3779e-06	70.106	1.2472e-05	1.1936e-05	2.9411e-06	466.44	1.2085e-07	1.2885e-07	639.46	162.79	1.2486e-07	1.2821e-07	214.78	99.457	62.07	26.112	1.1828e-07	43.996	59.142	45.489	10.345	-14.768	107.080	107.484	-15.631	-10.157	143.623	129.265	-11.722	-8.060	-6.744	-2.520	72.222	-5.097	-8191	255	
4178.607	1	1	0	0	0.12803	0.21102	0.14393	0.19842	0.18597	0.10679	0.11889	0.18789	0.069291	0.063648	0.213	0.22543	0.15248	0.18387	0.13561	0.2393	-3.6354	-3.8125	-3.525	-3.9667	-3.5979	-3.6021	-3.9479	-3.4437	-3.675	-3.7521	-3.5917	-4.1667	-3.6792	-3.5792	-4.0813	-3.6667	83.465	200.607	195.825	224.872	194.247	20.160	257.807	306.072	105.265	0.737	177.153	307.776	126.281	299.823	17.286	220.042	0.000476	0.00019585	4.1006e-05	613.57	7.5138e-07	1.0134e-06	831.46	221.43	7.6382e-07	9.1463e-07	315.05	148.21	97.002	39.478	1.5506e-06	68.723	1.3027e-05	1.1456e-05	2.9459e-06	468.67	1.3321e-07	1.2865e-07	643.45	163.74	1.3647e-07	1.2908e-07	214.42	99.061	61.814	25.852	1.1781e-07	43.175	55.148	35.010	31.988	-14.833	105.905	74.892	-15.734	-9.868	70.018	118.696	-11.720	-8.275	-6.637	-2.607	85.593	-5.112	-8191	255	
4178.703	1	1	0	0	0.24428	0.093513	0.10271	0.27655	0.070539	0.15847	0.078793	0.22095	0.24988	0.37482	0.040426	0.30737	0.13514	0.14743	0.21391	0.17973	-3.4208	-3.8604	-3.2833	-3.9083	-3.5687	-3.4729	-4.0646	-3.6042	-3.7438	-3.7542	-3.6667	-4.0188	-3.8646	-3.6375	-4.0563	-3.6	-26.592	239.832	237.414	328.331	322.504	-21.336	261.719	-28.158	184.747	330.539	260.632	276.748	7.817	248.006	223.579	60.304	0.00053188	0.00011591	3.4837e-05	604.21	1.6781e-06	9.9545e-07	812.87	217	1.4099e-06	9.8586e-07	308.83	144.45	94.534	38.553	7.5058e-07	67.042	1.423e-05	1.1279e-05	2.9131e-06	461.84	1.3668e-07	1.2101e-07	630.18	160.53	1.362e-07	1.1999e-07	209.92	96.58	60.237	25.24	1.0995e-07	42.182	59.781	48.572	9.410	-14.907	98.609	69.246	-15.792	-10.254	118.536	66.422	-11.683	-8.320	-6.764	-2.838	118.855	-5.106	-8191	255	
4178.799	1	1	0	0	0.21499	0.061923	0.13391	0.072243	0.17767	0.028552	0.098229	0.094024	0.18006	0.28182	0.21739	0.084391	0.069608	0.0097342	0.093398	0.097178	-3.1146	-3.8854	-3.5312	-3.9688	-3.7833	-3.4417	-4.0646	-3.6104	-3.7708	-3.9208	-3.6063	-3.8708	-3.8375	-3.5938	-4.0938	-3.575	326.259	195.119	32.125	7.348	193.755	214.044	311.034	147.966	235.509	223.856	267.370	220.689	116.906	290.233	53.454	18.118	0.00048652	9.6769e-05	2.3494e-05	599.19	1.6456e-06	1.2475e-06	810.01	218.37	3.6927e-07	1.9598e-06	312.59	147.23	97.481	39.621	1.3816e-06	69.593	1.3557e-05	1.0594e-05	2.7818e-06	457.97	1.295e-07	1.1623e-07	628.29	161.49	1.2878e-07	1.1344e-07	212.57	98.761	61.807	25.954	1.0595e-07	43.556	62.539	28.840	-26.238	-14.941	95.455	56.147	-15.923	-10.113	96.593	48.453	-11.607	-8.198	-6.770	-2.382	103.710	-5.254	-8191	255	
4178.894	1	1	0	0	0.14629	0.11725	0.15078	0.19393	0.11767	0.21151	0.25719	0.10047	0.20852	0.1956	0.099758	0.1432	0.18404	0.19476	0.055698	0.083822	-3.3042	-3.7417	-3.3125	-3.8625	-3.8479	-3.3396	-3.9354	-3.675	-3.6167	-4.0833	-3.5479	-3.8729	-3.9792	-3.4417	-4.1979	-3.7583	111.090	222.898	13.055	257.560	279.068	28.129	255.039	330.037	234.516	200.613	309.832	282.360	272.561	4.983	19.422	147.794	0.00043066	0.0001166	2.9035e-05	609.07	1.1796e-06	8.6339e-07	826.4	221.3	1.0104e-06	1.0035e-06	318.16	149.34	97.999	40.216	1.1367e-06	69.793	1.2842e-05	9.9839e-06	2.7169e-06	467.72	1.2101e-07	1.0868e-07	640.83	164.06	1.2217e-07	1.0945e-07	215.64	100.13	62.421	26.289	1.1501e-07	43.997	65.787	41.991	44.104	-14.871	80.310	125.415	-15.783	-10.080	86.869	75.269	-11.749	-8.304	-7.049	-2.520	119.653	-5.170	-8191	255	
4178.990	1	1	0	0	0.27385	0.1001	0.20475	0.1124	0.17749	0.10833	0.052301	0.10697	0.17798	0.16332	0.15925	0.071629	0.088983	0.20407	0.056215	0.068438	-3.2438	-4.0458	-3.6625	-3.7687	-4.0188	-3.4229	-4.0896	-3.625	-3.6312	-3.9521	-3.6167	-3.8771	-4	-3.5312	-3.9083	-3.7146	0.975	138.211	44.279	98.698	33.244	24.156	135.511	263.527	193.065	3.793	268.069	251.067	55.477	270.761	302.591	106.929	0.00047778	3.1137e-05	6.8274e-06	613.92	1.4886e-06	1.0585e-06	828.92	223.38	1.5429e-06	1.0738e-06	320.91	151.46	100.36	40.76	1.1663e-06	71.263	1.2821e-05	1.0051e-05	2.9444e-06	470.43	1.1985e-07	1.1303e-07	644.49	165.35	1.2243e-07	1.106e-07	218.43	101.77	63.56	26.714	1.2718e-07	44.924	65.798	48.160	142.779	-14.948	43.879	72.873	-15.950	-10.143	48.705	98.691	-11.863	-8.228	-6.944	-2.994	95.368	-5.132	-8191	255	
4179.086	1	1	0	0	0.2075	0.22158	0.14988	0.043584	0.24604	0.071292	0.11952	0.21371	0.022998	0.13952	0.13373	0.31465	0.15369	0.1559	0.18763	0.18274	-3.1479	-3.95	-3.4938	-3.6604	-3.9354	-3.4625	-4.0062	-3.5875	-3.3417	-4.0083	-3.7438	-3.7	-4.0417	-3.5167	-3.8104	-4.1042	195.207	174.880	145.739	280.073	-22.376	152.291	259.865	286.001	310.134	137.381	280.576	-15.685	168.680	278.734	133.563	263.410	0.00049516	0.00014132	5.3751e-05	616.81	1.3809e-06	6.9243e-07	835.11	224.25	9.2625e-07	1.343e-06	319.93	152.6	99.259	40.792	1.1578e-06	71.461	1.3088e-05	1.0339e-05	3.2508e-06	473.08	1.2249e-07	1.1321e-07	649.38	165.91	1.2185e-07	1.1101e-07	218.71	101.86	63.254	26.73	1.3132e-07	44.824	60.179	69.491	54.052	-15.165	54.837	118.312	-15.668	-10.243	85.136	91.947	-12.137	-8.279	-7.134	-2.519	110.012	-5.140	-8191	255	
4179.207	1	1	0	0	0.15513	0.16352	0.092416	0.12252	0.048643	0.075224	0.17294	0.24086	0.19224	0.036746	0.10525	0.20457	0.096333	0.19863	0.13618	0.36931	-3.1208	-4.0792	-3.7354	-3.7771	-3.9125	-3.7062	-3.9479	-3.9146	-3.4354	-4.0208	-3.8438	-3.6312	-3.9833	-3.6	-3.9375	-3.9146	7.826	17.608	250.301	281.957	265.294	3.160	185.599	5.794	192.101	45.087	277.605	320.552	114.560	214.711	163.234	250.179	0.00047276	0.00010072	3.3271e-05	620.51	6.7339e-07	1.5611e-06	832.4	224.83	5.2228e-07	1.2494e-06	318.59	151.18	99.945	40.811	3.9958e-07	70.647	1.2535e-05	1.0079e-05	3.3368e-06	474.22	1.166e-07	1.1256e-07	646.05	165.8	1.1593e-07	1.1208e-07	217.17	101.21	63.187	26.631	1.2991e-07	44.569	52.730	60.965	46.627	-14.905	57.085	97.886	-15.471	-10.214	59.895	81.421	-11.700	-8.282	-7.104	-2.652	162.991	-5.266	-8191	255	
4179.278	1	1	0	0	0.13466	0.1765	0.12104	0.23148	0.17302	0.2808	0.25714	0.19362	0.16278	0.21378	0.2815	0.34439	0.23025	0.1169	0.22357	0.034821	-3.1583	-4.0979	-3.6479	-3.6542	-4.0938	-3.4938	-3.9542	-4.0354	-3.475	-3.8688	-3.8708	-3.4125	-3.8771	-3.7792	-3.6875	-3.9979	186.443	275.361	104.469	242.710	-6.217	141.156	272.980	257.683	328.520	331.586	307.822	293.459	229.192	-7.954	328.938	293.613	0.00049769	0.0001278	1.8686e-05	622.61	1.1772e-06	1.1976e-06	840.35	226.85	1.0085e-06	1.351e-06	325.49	154.12	102	41.422	8.2869e-07	72.223	1.1798e-05	1.0446e-05	3.2641e-06	475.48	1.0794e-07	1.1584e-07	653.48	167.45	1.1251e-07	1.1593e-07	221.19	103.27	64.378	27.156	1.2551e-07	45.453	66.258	62.221	37.058	-14.832	87.896	97.157	-15.958	-9.921	106.012	145.102	-11.684	-8.448	-7.209	-2.682	114.000	-5.118	-8191	255	
4179.374	1	1	0	0	0.11388	0.16073	0.21624	0.27773	0.15125	0.08412	0.16697	0.26537	0.15655	0.1622	0.21521	0.099728	0.24177	0.16529	0.18127	0.1898	-3.0542	-3.8792	-3.775	-3.4667	-4.0271	-3.6063	-3.7833	-3.9083	-3.4333	-3.775	-3.9625	-3.5646	-4.1333	-3.7479	-3.6396	-4.1167	98.802	194.974	328.099	267.529	109.774	219.537	-25.484	197.911	216.082	80.181	325.366	296.121	267.126	295.489	194.671	288.502	0.00043088	0.00017681	1.8554e-05	630.53	1.9491e-06	1.2495e-06	857.49	230.86	1.4775e-06	8.8703e-07	330.28	157.87	103.45	42.195	1.3681e-06	74.099	1.178e-05	1.1301e-05	3.2195e-06	479.79	1.072e-07	1.2322e-07	661.62	170.41	1.0861e-07	1.2423e-07	225.17	105.57	65.539	27.744	1.2242e-07	46.427	67.758	38.393	60.285	-14.703	103.688	103.676	-15.676	-10.007	112.302	97.553	-11.570	-8.042	-6.726	-2.636	87.572	-5.143	-8191	255	
4179.471	1	1	0	0	0.35508	0.15983	0.10427	0.092409	0.16841	0.12643	0.18805	0.014417	0.14773	0.29865	0.21134	0.27601	0.090524	0.24254	0.072941	0.14048	-3.0604	-3.8979	-3.6854	-3.5521	-3.8667	-3.7271	-3.7104	-3.9229	-3.4417	-3.7562	-3.8917	-3.4479	-4.0104	-3.7646	-3.4771	-4.1417	275.339	28.014	165.181	214.215	195.550	238.349	54.575	212.080	-4.158	7.602	310.908	269.511	-18.761	318.286	259.241	146.229	0.00045219	0.00015539	4.6954e-05	637.06	8.4354e-08	1.828e-06	867.69	232.95	9.8948e-07	1.6562e-06	335.56	159.89	105.24	42.81	1.1709e-06	74.7	1.1805e-05	1.1326e-05	2.9663e-06	486.81	1.1049e-07	1.2576e-07	671.04	172.36	1.1252e-07	1.2406e-07	228.03	106.79	66.427	28.019	1.1483e-07	46.906	68.209	49.067	20.097	-14.879	105.309	71.620	-15.683	-9.951	109.801	97.962	-11.651	-8.114	-6.704	-2.840	108.764	-5.267	-8191	255	
4179.591	1	1	0	0	0.17203	0.098302	0.33059	0.0089087	0.098973	0.05352	0.026821	0.09688	0.24828	0.24334	0.33163	0.17875	0.34731	0.21115	0.2048	0.041098	-3.2354	-3.7438	-3.8542	-3.5333	-3.8125	-3.7896	-3.7	-4.1146	-3.6958	-3.6875	-3.9688	-3.6188	-3.8958	-3.9708	-3.6021	-4.1417	240.150	-20.590	291.321	65.930	106.228	167.181	128.730	174.317	87.495	41.141	310.016	-11.512	274.380	202.333	287.496	328.587	0.00055844	0.00013943	4.6093e-05	639.46	1.7972e-06	7.3032e-07	866.32	233.41	7.2223e-07	1.2515e-06	335.05	158.17	103.72	42.237	1.4364e-06	73.555	1.2031e-05	1.0935e-05	2.8244e-06	488.37	1.1095e-07	1.1843e-07	671.79	172.14	1.1587e-07	1.1727e-07	226.98	105.65	65.761	27.625	1.0855e-07	46.084	58.770	37.494	-7.285	-14.699	86.818	49.271	-15.538	-10.073	60.473	91.101	-11.613	-8.244	-6.971	-2.687	127.181	-5.404	-8191	255	
4179.687	1	1	0	0	0.19316	0.13184	0.036136	0.15923	0.151	0.23151	0.062798	0.2112	0.11691	0.044146	0.27502	0.31535	0.20126	0.10071	0.26276	0.30144	-3.1479	-3.7646	-4.0479	-3.5417	-3.7396	-3.8312	-3.5708	-4.0396	-3.725	-3.6458	-3.9375	-3.6167	-3.9458	-3.9021	-3.5354	-4.1208	281.416	292.683	113.177	13.310	113.496	167.007	181.058	307.297	17.131	288.265	289.876	291.976	331.056	114.215	205.094	327.255	0.00050184	0.00011242	2.1703e-05	635.59	1.5191e-06	1.6506e-06	860.12	231.01	9.162e-07	1.9399e-06	330.75	155.75	102.33	41.845	1.6463e-06	73.279	1.2593e-05	1.0824e-05	2.7087e-06	485.73	1.2044e-07	1.1879e-07	666.56	170.18	1.2253e-07	1.1573e-07	224.33	104.31	65.039	27.331	1.0693e-07	45.933	68.988	61.335	-16.716	-14.885	77.052	88.960	-15.782	-10.155	83.834	39.645	-11.774	-8.384	-7.250	-2.791	103.445	-5.557	-8191	255	
4179.784	1	1	0	0	0.18642	0.15048	0.25908	0.24203	0.23465	0.11199	0.19924	0.19064	0.26546	0.050922	0.11033	0.33833	0.19816	0.083791	0.096379	0.084384	-3.4479	-3.6146	-3.9396	-3.4875	-3.8729	-4.0375	-3.4771	-4.1333	-3.7167	-3.575	-4.1146	-3.6688	-3.7562	-3.8333	-3.4625	-4.1458	195.208	84.119	-6.795	289.973	23.849	72.887	252.008	168.736	318.482	23.795	143.290	277.821	250.472	326.217	-22.131	37.707	0.00044732	0.00010208	2.8675e-05	638.86	2.0511e-06	4.1501e-07	865.45	234.38	1.0959e-06	1.7638e-06	335.32	157.98	103.91	42.359	1.3788e-06	73.901	1.301e-05	1.02e-05	2.6071e-06	487.89	1.2154e-07	1.0974e-07	673.12	172.4	1.2274e-07	1.1151e-07	227.63	105.93	65.941	27.634	1.0477e-07	46.379	64.478	51.139	20.326	-14.773	117.988	139.991	-15.708	-10.298	100.380	111.221	-11.649	-8.145	-7.038	-2.759	105.483	-5.440	-8191	255	
4179.902	1	1	0	0	0.16727	0.19554	0.28611	0.32974	0.26053	0.25335	0.34405	0.20356	0.10401	0.11355	0.18431	0.18166	0.18498	0.070863	0.24495	0.13561	-3.3563	-3.5458	-4.0396	-3.5792	-3.7687	-3.7958	-3.5979	-3.9896	-3.7042	-3.4083	-4.0583	-3.6625	-3.7	-4.0021	-3.4062	-3.9688	107.896	330.301	251.965	-18.445	14.887	139.917	286.388	295.718	269.549	192.821	311.574	235.605	-11.489	57.045	49.342	287.778	0.00050834	0.00010227	3.14e-05	644.97	1.4287e-06	1.3284e-06	873.88	234.36	4.5221e-07	1.4223e-06	337.99	159.31	104.95	42.753	1.0151e-06	74.774	1.2913e-05	9.7625e-06	2.5495e-06	491.84	1.2003e-07	1.069e-07	677.23	173.47	1.1827e-07	1.0539e-07	229.42	106.99	66.61	27.925	1.0135e-07	46.889	54.664	47.790	5.734	-14.852	65.650	106.353	-15.840	-10.041	296.391	82.475	-11.740	-8.144	-6.964	-2.594	139.314	-5.102	-8191	255	
4179.974	1	1	0	0	0.021912	0.065462	0.20177	0.14898	0.20185	0.095478	0.067934	0.30763	0.19971	0.093468	0.054118	0.17037	0.045165	0.19772	0.056805	0.30715	-3.375	-3.3917	-3.9375	-3.6167	-3.4875	-4.0604	-3.6083	-3.7042	-3.8625	-3.4792	-3.9896	-3.7854	-3.6875	-3.9896	-3.4938	-3.8125	255.667	265.279	86.995	235.601	178.869	36.225	274.824	-9.717	51.594	220.432	209.986	22.089	83.092	324.461	240.675	213.517	0.00045376	0.00012012	5.0429e-05	646.91	1.1626e-06	1.9994e-06	882.76	235.03	8.1393e-07	1.426e-06	339.67	159.65	104.11	42.46	1.0225e-06	74.367	1.2073e-05	9.468e-06	2.4803e-06	493.64	1.1129e-07	9.9404e-08	680.24	173.64	1.0867e-07	9.9429e-08	229.68	106.88	66.137	27.813	1.0258e-07	46.642	72.324	46.433	2.759	-14.764	46.996	62.836	-15.840	-10.197	90.956	107.135	-11.865	-8.148	-7.000	-2.771	102.719	-5.132	-8191	255	
4180.072	1	1	0	0	0.22797	0.14395	0.068925	0.11928	0.28496	0.18335	0.22791	0.13694	0.2097	0.019852	0.16007	0.3092	0.28923	0.085622	0.12582	0.20744	-3.4333	-3.3479	-3.9292	-3.7667	-3.5542	-3.9688	-3.6104	-3.8646	-3.7604	-3.4875	-4.0083	-3.8979	-3.6875	-4.2063	-3.4854	-3.8125	-9.740	110.353	264.164	249.122	203.284	170.356	197.062	5.279	1.463	270.756	233.527	314.090	327.544	219.555	272.260	-16.313	0.00048588	0.0001567	3.0643e-05	645.7	1.3651e-06	1.0062e-06	872.28	234.2	7.0447e-07	2.9621e-07	335.48	159.41	104.21	42.576	1.4022e-06	74.112	1.1664e-05	8.9435e-06	2.5566e-06	493.45	1.0928e-07	9.8593e-08	677.79	173.26	1.0801e-07	1.0196e-07	228.64	106.22	66.071	27.693	1.1416e-07	46.464	59.831	35.409	16.799	-14.984	91.986	84.232	-15.657	-10.004	96.528	54.472	-11.564	-8.308	-6.975	-2.598	151.043	-5.100	-8191	255	
#DATA ENDS
