BOXY.EXE: ISS Imagent and Oximeter Data Acquisition Program Version 0.80
Ascii Record File

#ACQ INFORMATION
2  Detector Channels 
16  External MUX Channels 
1  Auxiliary Channels 
5000  Waveform (CCF) Frequency (Hz)
1  Waveforms Skipped 
30  Waveforms Averaged 
1  Cycles Averaged 
16  Acquisitions per Waveform 
10.0806  Updata Rate (Hz) 

#FILE INFORMATION
TRUE -- External MUX Channel results are PARSED.
FALSE -- AC DC and Phase are NOT grouped.
TRUE -- Companion Program Settings File CREATED.
FALSE -- AC data not excluded
FALSE -- DC data not excluded
FALSE -- Phase data not excluded
FALSE -- Auxillary Chn. data not excluded
Tab delimiters

#CALIBRATION STATE
TRUE -- Waveform Calibration Values APPLIED.


#AUX CALIBRATION VALUES
Val Type	aux-1	

Term	1.0000e+00	
Factor	0.0000e+00	


#WF CALIBRATION VALUES
A = Detector Channel
Val Type	A-AC1	A-AC2	A-AC3	A-AC4	A-AC5	A-AC6	A-AC7	A-AC8	A-AC9	A-AC10	A-AC11	A-AC12	A-AC13	A-AC14	A-AC15	A-AC16	A-DC1	A-DC2	A-DC3	A-DC4	A-DC5	A-DC6	A-DC7	A-DC8	A-DC9	A-DC10	A-DC11	A-DC12	A-DC13	A-DC14	A-DC15	A-DC16	A-Ph1	A-Ph2	A-Ph3	A-Ph4	A-Ph5	A-Ph6	A-Ph7	A-Ph8	A-Ph9	A-Ph10	A-Ph11	A-Ph12	A-Ph13	A-Ph14	A-Ph15	A-Ph16	

Term	0.00000e+00	0.00000e+00	0.00000e+00	0.00000e+00	0.00000e+00	0.00000e+00	0.00000e+00	0.00000e+00	0.00000e+00	0.00000e+00	0.00000e+00	0.00000e+00	0.00000e+00	0.00000e+00	0.00000e+00	0.00000e+00	0.00000e+00	0.00000e+00	0.00000e+00	0.00000e+00	0.00000e+00	0.00000e+00	0.00000e+00	0.00000e+00	0.00000e+00	0.00000e+00	0.00000e+00	0.00000e+00	0.00000e+00	0.00000e+00	0.00000e+00	0.00000e+00	0.00000e+00	0.00000e+00	0.00000e+00	0.00000e+00	0.00000e+00	0.00000e+00	0.00000e+00	0.00000e+00	0.00000e+00	0.00000e+00	0.00000e+00	0.00000e+00	0.00000e+00	0.00000e+00	0.00000e+00	0.00000e+00	
Factor	1.00000e+00	1.00000e+00	1.00000e+00	1.00000e+00	1.00000e+00	1.00000e+00	1.00000e+00	1.00000e+00	1.00000e+00	1.00000e+00	1.00000e+00	1.00000e+00	1.00000e+00	1.00000e+00	1.00000e+00	1.00000e+00	1.00000e+00	1.00000e+00	1.00000e+00	1.00000e+00	1.00000e+00	1.00000e+00	1.00000e+00	1.00000e+00	1.00000e+00	1.00000e+00	1.00000e+00	1.00000e+00	1.00000e+00	1.00000e+00	1.00000e+00	1.00000e+00	X	X	X	X	X	X	X	X	X	X	X	X	X	X	X	X	

B = Detector Channel
Val Type	B-AC1	B-AC2	B-AC3	B-AC4	B-AC5	B-AC6	B-AC7	B-AC8	B-AC9	B-AC10	B-AC11	B-AC12	B-AC13	B-AC14	B-AC15	B-AC16	B-DC1	B-DC2	B-DC3	B-DC4	B-DC5	B-DC6	B-DC7	B-DC8	B-DC9	B-DC10	B-DC11	B-DC12	B-DC13	B-DC14	B-DC15	B-DC16	B-Ph1	B-Ph2	B-Ph3	B-Ph4	B-Ph5	B-Ph6	B-Ph7	B-Ph8	B-Ph9	B-Ph10	B-Ph11	B-Ph12	B-Ph13	B-Ph14	B-Ph15	B-Ph16	

Term	0.00000e+00	0.00000e+00	0.00000e+00	0.00000e+00	0.00000e+00	0.00000e+00	0.00000e+00	0.00000e+00	0.00000e+00	0.00000e+00	0.00000e+00	0.00000e+00	0.00000e+00	0.00000e+00	0.00000e+00	0.00000e+00	0.00000e+00	0.00000e+00	0.00000e+00	0.00000e+00	0.00000e+00	0.00000e+00	0.00000e+00	0.00000e+00	0.00000e+00	0.00000e+00	0.00000e+00	0.00000e+00	0.00000e+00	0.00000e+00	0.00000e+00	0.00000e+00	-2.12444e+02	-1.41062e+02	-1.70892e+02	-1.83732e+02	-1.12109e+02	-1.05118e+02	-1.55012e+02	-1.62015e+02	-9.09407e+01	-9.85453e+01	-1.70533e+02	-1.70350e+02	-1.84933e+02	-1.77024e+02	-9.26801e+01	-1.49740e+02	
Factor	3.86930e-05	3.87587e-05	1.11420e-05	1.84525e-01	4.76322e-07	4.00243e-07	1.77227e-01	5.92448e-02	4.03067e-07	4.33660e-07	9.47737e-02	3.35258e-02	3.39684e-02	1.07113e-02	3.85728e-07	1.51601e-02	1.41076e-07	1.41361e-07	3.93248e-08	7.31989e-02	1.55024e-09	1.55026e-09	6.73368e-02	2.26348e-02	1.55356e-09	1.55040e-09	3.24457e-02	1.12648e-02	1.11019e-02	3.63347e-03	1.55221e-09	4.80811e-03	X	X	X	X	X	X	X	X	X	X	X	X	X	X	X	X	



#DISTANCE SETTINGS
A = Detector Channel
A-1	A-2	A-3	A-4	A-5	A-6	A-7	A-8	A-9	A-10	A-11	A-12	A-13	A-14	A-15	A-16	

2.5000e+00	3.0000e+00	2.5000e+00	3.0000e+00	2.0000e+00	3.0000e+00	1.5000e+00	3.0000e+00	3.0000e+00	3.0000e+00	3.0000e+00	3.0000e+00	3.0000e+00	3.0000e+00	1.5000e+00	3.0000e+00	

B = Detector Channel
B-1	B-2	B-3	B-4	B-5	B-6	B-7	B-8	B-9	B-10	B-11	B-12	B-13	B-14	B-15	B-16	

1.0000e+01	1.0000e+01	1.0000e+01	1.4400e+00	1.0000e+01	1.0000e+01	1.5100e+00	1.9400e+00	1.0000e+01	1.0000e+01	1.9900e+00	2.4900e+00	2.4100e+00	2.9000e+00	1.0000e+01	2.9800e+00	




#DATA BEGINS
time	group	step	mark	flag	A-AC1	A-AC2	A-AC3	A-AC4	A-AC5	A-AC6	A-AC7	A-AC8	A-AC9	A-AC10	A-AC11	A-AC12	A-AC13	A-AC14	A-AC15	A-AC16	A-DC1	A-DC2	A-DC3	A-DC4	A-DC5	A-DC6	A-DC7	A-DC8	A-DC9	A-DC10	A-DC11	A-DC12	A-DC13	A-DC14	A-DC15	A-DC16	A-Ph1	A-Ph2	A-Ph3	A-Ph4	A-Ph5	A-Ph6	A-Ph7	A-Ph8	A-Ph9	A-Ph10	A-Ph11	A-Ph12	A-Ph13	A-Ph14	A-Ph15	A-Ph16	B-AC1	B-AC2	B-AC3	B-AC4	B-AC5	B-AC6	B-AC7	B-AC8	B-AC9	B-AC10	B-AC11	B-AC12	B-AC13	B-AC14	B-AC15	B-AC16	B-DC1	B-DC2	B-DC3	B-DC4	B-DC5	B-DC6	B-DC7	B-DC8	B-DC9	B-DC10	B-DC11	B-DC12	B-DC13	B-DC14	B-DC15	B-DC16	B-Ph1	B-Ph2	B-Ph3	B-Ph4	B-Ph5	B-Ph6	B-Ph7	B-Ph8	B-Ph9	B-Ph10	B-Ph11	B-Ph12	B-Ph13	B-Ph14	B-Ph15	B-Ph16	aux-1	digaux	

2039.740	1	1	0	256	0.2563	0.027714	0.11359	0.092546	0.24114	0.019993	0.14918	0.14958	0.14878	0.11139	0.03957	0.23342	0.14012	0.13946	0.11544	0.10153	-3.7479	-4.3562	-3.8667	-4.4125	-4.1958	-4.0312	-4.6521	-4.1125	-3.9271	-4.2458	-3.9375	-4.2542	-4.1188	-3.7979	-4.2833	-4.1271	114.190	-74.949	122.915	59.597	68.610	48.091	234.214	203.467	107.054	-50.006	259.417	280.698	24.621	-30.059	221.495	-53.231	0.00033627	0.0005097	5.9632e-05	1356.9	3.3234e-06	3.6509e-06	1355.1	359	3.0943e-06	5.6258e-06	413.22	136.75	118.73	41.261	5.8288e-06	50.964	0.00027083	0.00025505	6.6975e-05	1224.8	2.9282e-06	2.72e-06	1221.7	321.27	2.8631e-06	2.7191e-06	348.95	118.47	99.43	34.329	2.684e-06	42.807	75.119	-0.167	95.726	-62.913	62.514	-18.725	-62.975	-58.102	40.342	14.081	-58.561	-54.317	-53.666	-49.225	193.354	-50.318	-8191	255	
2039.836	1	1	0	0	0.094514	0.076821	0.29233	0.19634	0.086618	0.035364	0.12548	0.23097	0.36434	0.14438	0.26696	0.21124	0.17469	0.072917	0.18953	0.28125	-3.5958	-4.3625	-3.8542	-4.3042	-4.3187	-4.0417	-4.4812	-4.1937	-3.9667	-4.4271	-4.1625	-4.2625	-4.2646	-3.9854	-4.2562	-4.2063	167.156	73.709	45.247	283.854	87.081	96.919	151.336	172.990	12.782	270.889	180.628	-23.041	257.207	-58.261	114.566	-24.115	0.00029866	0.00032348	7.8681e-05	1356.6	1.3809e-06	5.9645e-06	1357.3	360.03	4.0774e-06	1.6839e-06	409.82	137.88	119.38	41.104	2.8302e-06	50.88	0.0002549	0.00023976	6.7703e-05	1220.2	2.7496e-06	2.5209e-06	1222.6	319.48	2.651e-06	2.4714e-06	348.33	116.81	97.641	33.664	2.6219e-06	41.86	143.805	-10.942	101.845	-62.583	-71.753	-9.710	-63.051	-58.060	40.792	78.830	-58.861	-54.209	-53.887	-49.318	162.569	-50.025	-8191	255	
2039.932	1	1	0	0	0.11814	0.087792	0.11943	0.24593	0.13334	0.23681	0.31582	0.21649	0.10672	0.095341	0.2688	0.15623	0.14645	0.14157	0.10022	0.12862	-3.5833	-4.4396	-4.0167	-4.1917	-4.2833	-3.9938	-4.4604	-4.2146	-3.8917	-4.2792	-4.1	-3.9979	-4.3125	-3.9417	-4.0354	-4.2542	243.471	200.566	183.757	252.212	64.074	218.368	244.508	229.081	-44.703	121.635	255.789	174.464	-32.733	177.816	36.945	242.134	0.00028666	0.00013758	0.00010893	1353.1	8.278e-07	1.265e-06	1353.7	358.46	4.4192e-06	3.3534e-06	412.03	136.56	119.31	41.22	5.891e-07	50.747	0.00022977	0.00021441	6.5203e-05	1202.6	2.4648e-06	2.2812e-06	1214.9	314.32	2.4074e-06	2.3179e-06	347.63	115.17	96.316	33.59	2.6332e-06	41.497	19.059	-55.769	145.724	-62.938	147.170	88.562	-62.945	-58.142	-29.896	175.695	-58.847	-54.149	-53.735	-49.251	136.035	-50.085	-8191	255	
2040.028	1	1	0	0	0.1079	0.042019	0.095766	0.051516	0.034225	0.30511	0.20401	0.30485	0.21302	0.092342	0.12401	0.11306	0.1569	0.09361	0.049133	0.065746	-3.3396	-4.4667	-3.9708	-3.9708	-4.2708	-3.7729	-4.3417	-4.3063	-3.7521	-4.3667	-4.1188	-3.9542	-4.5	-3.9292	-4.0604	-4.4958	45.275	25.457	188.233	94.290	-12.864	80.604	156.437	220.932	144.397	222.959	-64.605	236.914	105.971	81.739	148.988	-66.445	0.00029486	0.00028867	1.9804e-05	1350.9	3.7927e-06	1.4166e-06	1349.1	359.21	1.4997e-06	1.9907e-06	411.67	137.8	119.46	41.121	2.3622e-06	50.925	0.00021787	0.00021563	6.68e-05	1196.6	2.3737e-06	2.354e-06	1216.4	314.09	2.2987e-06	2.38e-06	347.6	114.41	95.394	33.782	2.5627e-06	41.223	144.907	121.663	-3.571	-62.803	51.868	189.597	-62.915	-58.072	58.652	46.454	-58.655	-54.435	-53.700	-49.236	280.831	-50.028	-8191	255	
2040.124	1	1	0	0	0.14773	0.15318	0.22464	0.18153	0.24202	0.20517	0.11691	0.26103	0.15135	0.12436	0.086244	0.042658	0.097496	0.2653	0.14204	0.046022	-3.4208	-4.3125	-4.0396	-4.0354	-4.3917	-3.8479	-4.1833	-4.4812	-3.7562	-4.2729	-4.2646	-4.025	-4.2812	-4.0938	-3.9208	-4.3292	76.891	42.198	65.035	-33.540	140.195	270.170	251.918	-73.224	164.672	-51.774	193.693	216.758	221.874	264.810	219.972	259.552	0.0003767	4.0451e-05	6.4343e-05	1349.4	3.6697e-06	2.8067e-06	1357	359.26	1.8315e-06	3.3548e-06	413.45	137.8	119.68	41.131	3.6659e-06	51.098	0.00020532	0.00022184	6.481e-05	1190.9	2.2718e-06	2.4886e-06	1216.1	313.86	2.2924e-06	2.5944e-06	349.87	115.32	96.353	34.571	2.7099e-06	41.743	132.970	262.316	265.677	-62.906	32.220	165.361	-62.940	-58.147	122.244	170.057	-58.584	-54.484	-53.722	-49.302	13.884	-50.088	-8191	255	
2040.221	1	1	0	0	0.030501	0.096429	0.14759	0.1364	0.14172	0.16431	0.15371	0.11247	0.14912	0.36094	0.38177	0.16992	0.20989	0.17191	0.040441	0.2952	-3.4875	-4.1875	-4.1417	-4.0771	-4.4083	-3.9813	-4.125	-4.4958	-3.8812	-4.1687	-4.2458	-3.7687	-4.35	-4.2146	-3.9583	-4.3854	233.546	-4.495	28.768	230.091	-0.319	9.971	200.772	-65.763	89.548	75.787	219.827	263.529	-3.631	-65.647	219.875	-21.670	0.00030377	0.00015128	3.0627e-05	1356.7	9.3734e-07	1.8126e-06	1360.2	362.89	1.8285e-06	1.187e-06	415.91	137.99	119.81	41.398	3.7731e-06	51.258	0.00022513	0.00025731	7.0817e-05	1206.7	2.5788e-06	2.9117e-06	1232.5	319.27	2.6464e-06	3.0023e-06	356.64	116.82	99.286	35.516	2.8846e-06	42.221	96.930	173.655	-67.162	-62.729	-70.609	87.928	-63.074	-58.082	163.870	4.543	-58.494	-54.472	-53.910	-49.478	2.703	-49.947	-8191	255	
2040.341	1	1	0	0	0.20622	0.047524	0.23954	0.29713	0.18496	0.06355	0.32809	0.16441	0.13678	0.23702	0.21721	0.19262	0.2384	0.19352	0.071124	0.0053862	-3.5646	-4.1208	-4.3083	-3.9979	-4.225	-4.1292	-4.0167	-4.4104	-3.9042	-4.2229	-4.2396	-3.9667	-4.5	-4.0312	-3.8854	-4.4646	276.478	-39.417	30.814	242.259	269.502	26.724	239.243	-63.253	240.598	19.060	222.722	230.860	-46.460	108.041	253.695	127.582	0.0005991	0.00015665	0.0001954	1357.8	3.6571e-06	1.5301e-06	1362.4	362.58	5.4552e-06	1.3666e-06	414.62	138.67	119.8	41.564	4.1476e-06	51.214	0.00025283	0.00027701	7.2765e-05	1209.6	2.8056e-06	2.9967e-06	1233.3	318.56	2.797e-06	2.9482e-06	353.9	115.97	99.828	35.217	2.7274e-06	41.685	53.353	-0.642	282.903	-62.747	182.416	75.596	-62.932	-58.073	195.012	83.094	-58.866	-54.284	-53.712	-49.255	28.229	-50.090	-8191	255	
2040.436	1	1	0	0	0.13256	0.21303	0.069148	0.23802	0.10463	0.12086	0.21838	0.22951	0.10978	0.21062	0.23148	0.11285	0.2331	0.21983	0.077607	0.10067	-3.7521	-3.9604	-4.3542	-3.9604	-4.2146	-4.2083	-4.1438	-4.5417	-3.9792	-3.9604	-4.4542	-3.9562	-4.2479	-4.2583	-3.9375	-4.3521	16.378	122.104	129.242	-64.986	-13.507	106.431	228.349	257.890	149.331	-1.769	225.259	155.739	241.968	-28.885	2.591	124.877	0.00070121	0.00041884	7.782e-05	1357.5	2.295e-06	1.2171e-06	1362.4	361.13	2.8986e-06	3.7984e-06	415.14	137.85	119.94	41.52	3.2824e-06	51.093	0.00025598	0.00025957	6.8241e-05	1202.4	2.8068e-06	2.7948e-06	1222.5	316.32	2.7998e-06	2.7467e-06	349.79	115.17	99.784	34.748	2.5489e-06	41.561	93.300	-44.578	268.623	-62.805	97.699	73.854	-62.928	-58.105	260.714	54.563	-58.758	-54.411	-53.874	-49.131	-1.669	-50.154	-8191	255	
2040.532	1	1	0	0	0.024814	0.14638	0.17268	0.050281	0.12716	0.1114	0.24397	0.16562	0.10063	0.031388	0.084495	0.17004	0.097649	0.11057	0.26865	0.14742	-3.7708	-4.0083	-4.5312	-4.0583	-4.2292	-4.2625	-3.9354	-4.625	-4.2271	-4.0563	-4.5375	-4.0042	-4.2021	-4.3292	-3.8958	-4.4833	211.005	146.957	130.108	218.530	230.132	216.673	140.161	279.948	220.685	-67.386	263.931	235.176	53.470	282.632	-5.711	178.385	0.00043445	0.00048089	5.6673e-05	1354.7	2.2152e-06	1.3435e-06	1363.3	360.78	4.075e-07	9.4132e-07	414.24	137.49	119.78	41.415	1.4616e-06	50.925	0.00025704	0.00024634	6.4904e-05	1204.2	2.8328e-06	2.7142e-06	1219.5	318.3	2.8801e-06	2.7366e-06	348.78	116.86	100.56	34.924	2.5973e-06	42.434	85.295	-35.368	-59.438	-62.583	47.752	93.164	-62.985	-57.918	-30.127	195.692	-58.671	-54.337	-53.820	-49.198	-61.120	-50.084	-8191	255	
2040.628	1	1	0	0	0.047289	0.24382	0.26917	0.34149	0.07861	0.1682	0.19205	0.022211	0.15373	0.19497	0.3896	0.027949	0.13801	0.24798	0.08454	0.11781	-3.7396	-3.8896	-4.3771	-4.0083	-3.9729	-4.2083	-4.1333	-4.4229	-4.1771	-3.9437	-4.4896	-3.9396	-3.9813	-4.3854	-3.7875	-4.275	104.253	96.739	69.873	254.056	0.783	251.222	236.369	235.920	2.859	-71.668	268.951	-69.869	113.258	232.531	134.068	254.464	0.00030671	6.313e-06	1.0387e-05	1357.8	3.7329e-06	2.6782e-06	1363.1	360.5	1.7245e-06	2.3041e-06	413.24	137.63	120	41.465	9.4152e-07	51.065	0.0002734	0.00025826	6.6914e-05	1222	2.984e-06	2.8434e-06	1224	322.97	2.9867e-06	2.8091e-06	350.08	118.84	100.76	34.877	2.6263e-06	43.047	105.565	181.128	125.479	-62.717	-39.118	3.236	-62.742	-58.293	57.826	119.162	-58.671	-54.385	-53.640	-49.197	251.347	-50.080	-8191	255	
2040.724	1	1	0	0	0.16449	0.16539	0.2553	0.30639	0.073311	0.082401	0.24521	0.29355	0.29969	0.24728	0.097193	0.20618	0.11134	0.022314	0.1273	0.23344	-3.7583	-4.0229	-4.3208	-4.1396	-3.9646	-4.3979	-4.0146	-4.5208	-4.1396	-4.0354	-4.5542	-4.0875	-4.0833	-4.4688	-3.9979	-4.2688	28.999	277.425	246.752	215.305	27.902	-47.480	264.316	184.391	-48.717	-75.823	202.737	213.545	197.025	30.923	99.295	172.543	3.0953e-05	0.00033019	2.4002e-05	1360.8	4.1478e-06	2.7189e-06	1366.3	360.79	4.3453e-06	1.7286e-06	412.69	137.78	120.01	41.454	3.2095e-06	51.102	0.00026722	0.00024775	6.7278e-05	1227.3	2.852e-06	2.6907e-06	1225	322.78	2.8247e-06	2.6044e-06	350.26	118.53	99.394	34.49	2.673e-06	42.923	-14.309	-42.291	1.914	-62.624	-0.521	76.019	-62.905	-58.156	3.139	-32.159	-58.498	-54.498	-53.882	-49.189	174.166	-50.069	-8191	255	
2040.820	1	1	0	0	0.14725	0.07396	0.096435	0.16416	0.18218	0.13303	0.10451	0.079484	0.15477	0.23145	0.080453	0.19079	0.11474	0.071892	0.22098	0.18758	-3.825	-3.9479	-4.3667	-4.1708	-3.7021	-4.3812	-4.0583	-4.3896	-4.2979	-3.9208	-4.3375	-4.4333	-4.1542	-4.3083	-4.0479	-3.9792	255.237	-48.416	34.366	258.820	-65.066	263.880	44.041	167.358	180.306	211.756	192.863	167.102	118.957	26.756	115.391	239.589	0.0001813	0.00015365	2.9769e-05	1364.3	2.5408e-06	2.9464e-06	1360.3	360.93	2.4644e-06	1.7913e-06	413.58	137.86	119.52	41.28	5.3901e-06	50.999	0.00025535	0.00023542	6.9596e-05	1225.7	2.76e-06	2.5874e-06	1230.1	321.7	2.7655e-06	2.5373e-06	353.69	118.08	98.682	34.278	2.8048e-06	42.535	150.913	-30.884	99.781	-62.799	275.657	-11.025	-62.850	-57.909	9.882	99.742	-58.609	-54.225	-53.891	-49.387	177.093	-50.116	-8191	255	
2040.941	1	1	0	0	0.115	0.28884	0.043385	0.17219	0.062392	0.13334	0.21002	0.15008	0.13608	0.18437	0.088715	0.31251	0.35901	0.12989	0.10663	0.1689	-3.8792	-3.8896	-4.2646	-4.2458	-3.8833	-4.4729	-4.2167	-4.2271	-4.3521	-3.8063	-4.3708	-4.2771	-3.925	-4.4854	-4.1458	-3.9979	153.266	197.991	167.192	260.384	239.166	252.004	203.846	276.113	59.571	-48.994	-74.356	162.677	250.706	185.025	-16.111	49.616	0.00027852	0.00039966	0.0001135	1357.5	5.3432e-06	2.1203e-06	1360.2	360.57	4.4486e-06	1.4245e-06	412.09	137.12	119.72	41.247	4.6599e-07	50.924	0.00024685	0.0002284	7.1812e-05	1216.3	2.6353e-06	2.5158e-06	1232.6	318.92	2.6156e-06	2.4752e-06	353.15	116.48	97.204	34.132	2.7862e-06	41.944	122.499	93.476	59.833	-62.733	20.833	215.294	-62.793	-58.071	11.198	102.025	-58.503	-54.319	-53.720	-48.910	-17.251	-50.102	-8191	255	
2041.037	1	1	0	0	0.24808	0.054154	0.1643	0.072873	0.31943	0.27108	0.18079	0.18754	0.19916	0.32167	0.10519	0.12373	0.26092	0.060368	0.19327	0.092439	-3.9813	-3.8208	-4.2708	-4.3438	-3.8458	-4.4417	-4.3875	-3.9313	-4.3396	-3.7938	-4.0646	-4.3542	-4.0667	-4.3375	-4.1562	-4.0188	87.510	228.806	142.283	70.296	259.850	-26.251	233.794	219.836	-46.576	142.329	97.022	131.304	272.213	-62.237	251.127	136.722	0.00023245	0.00049704	2.858e-05	1359.4	2.2544e-06	3.6174e-06	1358.1	360.43	6.8862e-07	2.9465e-06	413.82	136.91	119.26	41.255	4.4863e-06	50.974	0.00022852	0.00022827	7.071e-05	1208.7	2.4568e-06	2.5483e-06	1228.9	316.98	2.4853e-06	2.5958e-06	353.35	116.23	96.706	34.544	2.8332e-06	41.877	83.700	125.562	204.297	-62.565	24.003	143.787	-62.819	-58.021	-73.260	198.441	-58.608	-54.308	-53.838	-49.205	37.551	-49.991	-8191	255	
2041.133	1	1	0	0	0.25319	0.078035	0.18024	0.038701	0.1788	0.078353	0.12889	0.28955	0.18629	0.19785	0.24788	0.059995	0.26953	0.28362	0.10726	0.23194	-3.9813	-4.0979	-4.0875	-4.4625	-3.9521	-4.4313	-4.5479	-4.1438	-4.3708	-4.1	-4.2417	-4.4333	-3.8083	-4.3417	-4.1729	-3.8708	160.231	56.234	94.234	46.919	242.009	9.989	194.316	188.813	71.842	90.653	-55.234	264.606	243.389	268.736	131.937	81.122	0.00016708	0.00021671	8.8891e-05	1359	2.1314e-06	3.9922e-06	1359.6	360.13	1.4719e-06	1.6733e-06	412.6	137.83	119.67	41.415	6.2838e-06	51.243	0.00022956	0.00024943	7.2222e-05	1212.1	2.5025e-06	2.8089e-06	1234	317.6	2.5609e-06	2.8564e-06	353.85	116.76	97.624	35.14	2.8531e-06	42.062	44.017	133.806	-53.861	-62.928	65.425	141.721	-63.008	-58.067	218.385	162.867	-58.620	-54.211	-53.807	-49.241	20.815	-50.370	-8191	255	
2041.229	1	1	0	0	0.24996	0.16496	0.026717	0.087136	0.08154	0.31166	0.10498	0.31914	0.28313	0.069261	0.017105	0.17364	0.20739	0.11332	0.057304	0.089042	-4.0604	-3.9042	-3.9104	-4.6	-3.7792	-4.1271	-4.3708	-3.9875	-4.5083	-4.1896	-3.9979	-4.6021	-3.9562	-4.2438	-4.1917	-3.9125	-70.007	202.940	-48.554	-35.697	-28.356	201.238	219.486	276.849	100.557	120.466	157.858	227.551	283.118	72.039	138.459	186.085	0.00048199	0.00012135	0.00017742	1360.2	3.9735e-06	2.7615e-07	1360.3	360.26	3.7901e-06	2.5174e-06	412.73	138.14	119.26	41.362	1.3474e-06	51.018	0.00023854	0.00026785	7.2059e-05	1212.1	2.612e-06	2.9526e-06	1233.6	317	2.688e-06	2.9505e-06	352.75	116.19	98.574	35.302	2.8422e-06	41.882	67.013	10.190	277.251	-62.955	146.935	228.085	-62.974	-57.958	160.919	56.881	-58.509	-54.572	-53.894	-49.172	86.001	-50.172	-8191	255	
2041.324	1	1	0	0	0.19153	0.26454	0.12563	0.13408	0.069977	0.072189	0.28559	0.17014	0.12777	0.1732	0.23533	0.15447	0.25698	0.1359	0.14271	0.1339	-3.9792	-4.0833	-3.925	-4.5375	-3.9125	-4.0813	-4.4604	-3.9688	-4.3333	-4.1562	-4.1062	-4.5375	-3.9625	-3.9479	-4.4542	-3.9437	160.748	30.609	152.774	182.443	167.942	241.914	151.374	210.448	271.924	156.475	242.417	221.914	251.284	264.870	51.391	-33.262	0.00073083	0.00011327	6.007e-05	1359.6	2.7733e-06	1.2283e-06	1360.8	359.26	2.5867e-06	3.4997e-06	412.67	137.39	119.01	41.362	6.7804e-07	51.058	0.00025569	0.00027283	7.1569e-05	1209.5	2.8217e-06	2.9788e-06	1231.8	316.06	2.8638e-06	2.9425e-06	352.21	115.56	99.583	35.056	2.743e-06	41.575	56.945	10.331	-6.573	-62.730	215.004	68.023	-62.886	-58.072	173.788	-4.568	-58.662	-54.462	-53.765	-49.154	193.467	-50.040	-8191	255	
2041.420	1	1	0	0	0.243	0.10971	0.33444	0.064722	0.16156	0.074151	0.20111	0.20525	0.23317	0.28004	0.11611	0.18968	0.088073	0.1271	0.21764	0.19584	-3.8625	-4.2771	-3.8396	-4.4896	-4.0854	-3.9979	-4.6771	-4.1479	-4.2667	-4.3167	-4.0271	-4.3438	-4.2188	-4.1146	-4.4104	-3.9104	1.400	85.705	145.250	270.311	186.284	99.184	275.043	-48.210	104.560	50.148	62.381	200.083	-22.704	261.845	-1.628	-3.348	0.00068045	0.0002406	0.00018377	1355.2	3.1112e-06	4.1952e-06	1358.8	360.83	2.0785e-06	2.3875e-06	413.8	137.3	119.23	41.298	4.117e-06	50.64	0.00026292	0.00026156	6.8117e-05	1204.9	2.8802e-06	2.8304e-06	1225.3	315.87	2.9051e-06	2.8019e-06	348.47	115.47	99.797	34.714	2.593e-06	41.592	83.059	-42.077	-16.735	-62.714	120.452	22.621	-62.967	-58.138	167.886	42.383	-58.526	-54.267	-53.639	-49.032	-11.319	-49.962	-8191	255	
2041.516	1	1	0	0	0.31769	0.070115	0.083394	0.055355	0.11079	0.11221	0.11997	0.20931	0.082432	0.070699	0.20221	0.38066	0.096918	0.20848	0.092776	0.23328	-3.7562	-4.3625	-3.9333	-4.4875	-4.2542	-4.0708	-4.5896	-4.1229	-4.1021	-4.4104	-3.9042	-4.5021	-4.2646	-4.0667	-4.3771	-4.0312	46.712	137.788	-38.757	124.361	190.989	264.920	148.109	220.060	216.149	224.174	235.039	218.986	240.447	202.141	5.728	226.884	0.00048463	0.00013447	0.00011812	1355	1.0247e-06	2.9739e-06	1358.6	360.68	1.9954e-06	2.0209e-06	413.58	137.39	119.77	41.307	1.9504e-06	50.57	0.00026259	0.00024882	6.4329e-05	1208.3	2.8767e-06	2.7318e-06	1220.4	317.82	2.8921e-06	2.7419e-06	346.76	116.79	99.803	34.571	2.5275e-06	42.116	102.041	274.504	-25.304	-62.421	92.518	-3.631	-62.853	-58.064	48.786	179.611	-58.672	-54.224	-53.819	-49.193	-12.259	-50.222	-8191	255	
2041.612	1	1	0	0	0.10694	0.20264	0.16965	0.28113	0.14432	0.15673	0.088473	0.26376	0.053415	0.23015	0.34207	0.19611	0.10169	0.16814	0.22952	0.15967	-3.6667	-4.3812	-3.8729	-4.5333	-4.1167	-3.7792	-4.6146	-4.0979	-4.0062	-4.3688	-4.1458	-4.3167	-4.2354	-3.8417	-4.4062	-4.2833	279.627	215.124	172.181	-71.241	187.356	175.780	211.893	238.123	7.025	173.808	141.110	249.103	-43.036	231.734	-12.854	-26.011	8.384e-05	0.00031572	1.147e-05	1357.2	2.8161e-06	4.1147e-06	1356.1	360.07	2.476e-06	4.8718e-06	412.65	137.78	119.7	41.269	2.381e-06	50.887	0.00025973	0.00024677	6.3567e-05	1215	2.8233e-06	2.6627e-06	1216.8	319.1	2.8115e-06	2.6696e-06	346.82	117.99	99.321	34.387	2.5671e-06	42.638	109.658	6.322	206.778	-62.919	-54.940	-64.519	-62.910	-58.125	96.246	-52.368	-58.557	-54.214	-53.890	-49.239	112.998	-49.966	-8191	255	
2041.733	1	1	0	0	0.019526	0.12328	0.20583	0.068262	0.14962	0.070589	0.36975	0.36838	0.16707	0.13756	0.30047	0.016737	0.28	0.18922	0.06056	0.1849	-3.6979	-4.4292	-3.8917	-4.5271	-4.3646	-3.6	-4.4125	-4.1875	-3.9375	-4.3438	-4.1604	-4.2688	-4.2292	-3.9083	-4.2271	-4.125	14.284	-25.905	-40.047	196.459	35.222	-42.104	229.315	192.555	187.933	201.430	-46.295	256.523	-61.955	241.129	166.116	102.272	0.00020952	0.00031995	8.5599e-05	1357.3	1.0865e-06	3.5974e-06	1358.8	359.6	2.3369e-06	4.4388e-06	412.37	137.54	120.19	41.276	3.0359e-06	51.016	0.00025523	0.00024046	6.5242e-05	1219.6	2.7791e-06	2.587e-06	1221.5	320.9	2.7689e-06	2.6068e-06	349.58	118.03	99.196	34.308	2.7521e-06	42.828	90.275	-26.464	182.259	-62.720	-38.947	6.792	-62.831	-57.939	-34.418	13.326	-58.431	-54.246	-54.075	-49.040	190.933	-50.133	-8191	255	
2041.804	1	1	0	0	0.1184	0.095983	0.044901	0.44572	0.23239	0.10655	0.23305	0.2235	0.11338	0.062829	0.12163	0.2075	0.031629	0.17632	0.17342	0.056197	-3.5104	-4.4437	-3.8708	-4.2167	-4.3146	-3.7521	-4.3313	-4.3417	-3.7021	-4.4417	-4.1792	-4.2292	-4.3063	-4.0813	-4.1979	-4.2917	2.227	158.004	197.998	227.162	161.489	274.462	238.542	211.504	-41.379	76.304	124.546	219.929	56.145	240.880	247.414	-34.204	6.7063e-05	0.00024707	4.346e-05	1354.3	4.5953e-06	4.8803e-06	1355.3	360.2	2.6571e-06	1.6885e-06	412.74	137.51	119.18	41.279	3.0745e-06	50.717	0.00025618	0.00023861	7.0881e-05	1223.3	2.8058e-06	2.5859e-06	1230.7	321.16	2.7624e-06	2.5989e-06	354	118.05	99.009	34.263	2.9188e-06	42.703	274.482	65.482	122.762	-62.663	23.538	51.705	-62.825	-58.105	28.181	-0.834	-58.778	-54.185	-53.630	-49.073	176.875	-49.667	-8191	255	
2041.901	1	1	0	0	0.13554	0.11581	0.10104	0.17812	0.10205	0.18346	0.18825	0.21831	0.11943	0.20353	0.06715	0.20227	0.27554	0.16445	0.19075	0.022911	-3.6375	-4.4417	-4.0417	-4.1188	-4.25	-3.9813	-4.4354	-4.3917	-3.8646	-4.3958	-4.2479	-4.1083	-4.3875	-3.9688	-4.1375	-4.3917	27.532	36.669	51.616	277.812	9.273	215.881	121.598	201.215	57.112	-70.059	-57.536	261.333	205.343	189.942	39.917	37.946	0.00014814	0.00017606	4.7483e-05	1354.9	3.6847e-06	2.3646e-06	1355.7	361.87	1.4704e-06	2.9758e-06	411.98	137.5	119.34	41.195	1.5466e-06	51.204	0.00024979	0.00023874	7.4695e-05	1219.5	2.7208e-06	2.6082e-06	1235.9	320.52	2.6854e-06	2.6676e-06	356.25	117.61	98.277	34.484	2.9833e-06	42.446	117.224	47.116	77.716	-62.803	-34.680	36.990	-62.867	-57.964	-30.986	96.932	-58.597	-54.302	-53.571	-49.042	-27.980	-49.927	-8191	255	
2042.021	1	1	0	0	0.20367	0.13534	0.15947	0.098492	0.23666	0.054707	0.44419	0.24797	0.11314	0.062167	0.060482	0.37138	0.090082	0.29311	0.16749	0.068629	-3.4792	-4.1875	-4.1333	-4.1271	-4.3375	-3.8167	-4.3021	-4.4229	-3.8375	-4.4021	-4.2229	-3.9229	-4.4604	-4.1521	-4.0104	-4.5854	266.112	176.146	-71.665	-3.910	-75.488	-12.207	214.284	232.445	154.979	58.664	52.929	256.543	39.607	233.575	-22.644	-18.388	0.00020212	0.00031224	9.1269e-05	1354.6	4.064e-07	2.7687e-06	1365	360.11	1.9272e-06	4.8506e-06	413.52	137.99	119.41	41.317	1.2817e-06	50.899	0.0002397	0.00024825	7.4813e-05	1211.7	2.5994e-06	2.7028e-06	1235.3	318.35	2.5348e-06	2.7511e-06	354.31	116.51	97.074	34.683	2.845e-06	42.038	41.326	84.004	-53.175	-62.807	-20.016	188.614	-62.851	-57.897	38.001	168.980	-58.597	-54.285	-53.955	-49.273	118.832	-49.920	-8191	255	
2042.117	1	1	0	0	0.11222	0.20651	0.23517	0.088681	0.12323	0.30547	0.24934	0.26563	0.18262	0.14566	0.10088	0.14865	0.10526	0.2266	0.05911	0.028729	-3.6521	-4.1917	-4.1438	-4.1	-4.4125	-4.025	-4.1729	-4.4021	-3.7792	-4.2292	-4.425	-3.9729	-4.5646	-4.2188	-4.0604	-4.4333	196.139	156.259	61.909	-67.744	49.865	67.459	258.863	216.283	128.236	283.208	263.732	-60.619	91.169	211.071	119.298	-57.145	0.00021278	0.00048294	5.312e-05	1352.2	1.404e-06	3.0377e-06	1357.7	359.84	2.5654e-06	2.2803e-06	413.31	137.74	118.71	41.155	4.1551e-06	51.013	0.00022806	0.00025545	7.1908e-05	1206.9	2.5219e-06	2.8119e-06	1229.2	316.99	2.5134e-06	2.8691e-06	352.88	115.96	97.37	34.924	2.7785e-06	41.806	58.078	117.160	-33.259	-62.578	228.614	159.464	-62.847	-58.003	181.582	72.789	-58.782	-54.458	-53.918	-49.208	16.477	-50.147	-8191	255	
2042.214	1	1	0	0	0.13099	0.05962	0.15158	0.069868	0.1856	0.13464	0.30414	0.33665	0.25998	0.056615	0.18097	0.065171	0.10716	0.1441	0.22714	0.080686	-3.65	-3.9375	-4.1729	-4.0375	-4.4146	-4.1021	-4.0792	-4.5792	-3.9583	-4.3479	-4.4042	-3.9375	-4.3458	-4.2458	-3.9083	-4.5625	40.880	270.906	-43.673	256.935	26.667	-61.792	217.539	236.476	141.708	123.391	197.790	3.894	54.748	-44.325	210.529	270.564	0.00068224	0.00017001	7.2708e-05	1356.9	2.7391e-06	3.3965e-07	1353.8	358.56	3.1355e-06	2.7867e-06	412.48	137.67	119.04	41.131	3.2978e-06	51.033	0.00023363	0.00026172	7.0016e-05	1202.7	2.5799e-06	2.8369e-06	1222.8	314.48	2.5846e-06	2.8324e-06	350.33	114.66	97.825	34.819	2.6579e-06	41.285	82.697	107.149	271.674	-62.897	108.068	-25.763	-62.953	-57.845	180.157	33.049	-58.694	-54.353	-53.656	-49.222	5.046	-50.141	-8191	255	
2042.310	1	1	0	0	0.18598	0.070268	0.085779	0.19903	0.30384	0.11547	0.46095	0.24194	0.26734	0.10684	0.073103	0.23923	0.045059	0.26113	0.2346	0.24073	-3.6604	-3.9854	-4.1583	-3.9042	-4.2833	-4.1167	-3.9854	-4.5583	-4.1146	-4.0958	-4.4437	-3.9792	-4.4333	-4.2417	-3.9562	-4.4187	37.373	-49.927	87.974	236.794	10.684	217.591	188.922	177.738	187.475	5.170	177.548	260.206	258.522	-21.011	108.666	-72.273	0.00044299	0.00019742	6.6856e-05	1354.5	2.0899e-06	2.7292e-06	1357.8	359.49	6.5701e-06	1.7289e-06	412.73	137.78	119.15	41.197	1.06e-06	50.685	0.00024247	0.00025573	6.7421e-05	1195.4	2.6929e-06	2.7752e-06	1218.5	313.42	2.6824e-06	2.7329e-06	348.12	114.11	98.314	34.467	2.5196e-06	40.994	116.932	-47.601	219.085	-62.566	124.267	-4.423	-62.815	-58.035	174.331	-16.059	-58.708	-54.341	-53.931	-49.103	-26.869	-49.899	-8191	255	
2042.429	1	1	0	0	0.09705	0.0037868	0.21322	0.12736	0.17885	0.090739	0.049829	0.02413	0.091169	0.18852	0.26098	0.17633	0.32892	0.094018	0.14962	0.071241	-3.8833	-4.1708	-4.3542	-4.2312	-4.2667	-4.375	-3.9917	-4.5021	-4.0292	-4.0125	-4.5021	-3.8833	-4.2375	-4.3917	-3.7833	-4.5188	-73.645	-48.030	261.848	179.277	-67.495	146.572	-11.506	1.499	140.955	67.632	120.927	-60.549	174.786	227.216	204.513	-35.661	0.0006935	0.00041534	0.00012749	1351.1	1.623e-06	2.2321e-06	1356.6	357.98	5.7385e-07	1.8703e-06	412.65	137.43	118.83	41.288	3.4409e-06	50.738	0.00024592	0.00024036	6.3306e-05	1190.1	2.6987e-06	2.6098e-06	1210.3	312.55	2.7064e-06	2.5977e-06	344.66	114.51	98.354	34.306	2.4231e-06	41.413	92.475	-43.721	-59.289	-62.473	144.907	44.635	-62.907	-57.964	84.555	4.054	-58.504	-54.297	-53.745	-48.988	50.675	-49.874	-8191	255	
2042.500	1	1	0	0	0.13266	0.16487	0.16605	0.096603	0.10633	0.13023	0.18002	0.19561	0.13775	0.26641	0.11705	0.03126	0.19786	0.076831	0.27979	0.090347	-3.7917	-3.8417	-4.3958	-4.3187	-4.175	-4.2	-4.0854	-4.5062	-4.0729	-3.8354	-4.3729	-4.0625	-4.1625	-4.4083	-3.7583	-4.5146	-63.720	278.328	234.062	218.457	182.901	-59.224	158.831	-60.336	191.815	229.185	-8.200	200.165	-27.164	154.592	161.926	-38.606	0.00060472	8.9628e-05	8.247e-05	1346.8	2.879e-06	3.4598e-06	1358.3	357.97	2.4263e-06	1.2868e-06	410.97	136.95	118.75	41.225	1.3739e-06	50.643	0.00024959	0.00023478	6.1466e-05	1197.9	2.7053e-06	2.5569e-06	1207.5	314.34	2.6788e-06	2.5323e-06	342.59	115.37	97.985	34.085	2.323e-06	41.624	72.257	-57.829	-73.460	-62.653	6.897	-25.435	-62.789	-58.153	106.437	-63.692	-58.747	-54.210	-53.914	-49.181	231.884	-50.167	-8191	255	
2042.621	1	1	0	0	0.10158	0.24651	0.082029	0.14671	0.25928	0.14894	0.15159	0.083887	0.070119	0.29562	0.054016	0.070161	0.077376	0.06543	0.23413	0.14772	-3.8542	-3.7979	-4.4625	-4.2708	-4.1354	-4.4812	-4.2354	-4.4354	-4.2958	-3.9125	-4.4229	-4.0292	-4.2125	-4.5771	-4.0542	-4.3146	123.269	84.787	162.470	-45.514	185.949	-24.611	241.630	133.936	183.226	279.758	51.181	69.730	189.842	251.210	242.943	-9.623	0.00022496	0.00029975	1.6973e-05	1349.6	4.1907e-06	2.217e-06	1355.8	358.62	9.83e-07	4.1777e-06	410.04	136.67	119.03	41.169	3.4604e-06	50.858	0.00024153	0.00022666	5.9619e-05	1203.5	2.6172e-06	2.4944e-06	1206	316.46	2.6136e-06	2.4543e-06	342.66	116.14	97.409	33.865	2.3826e-06	41.856	97.318	34.673	124.997	-62.762	29.044	1.350	-62.756	-57.978	91.121	40.493	-58.601	-54.176	-53.913	-49.215	185.346	-50.161	-8191	255	
2042.717	1	1	0	0	0.15455	0.16643	0.1966	0.44381	0.14617	0.097198	0.14078	0.13901	0.0084243	0.16715	0.23853	0.14018	0.19384	0.058587	0.10379	0.096694	-4.0021	-3.7458	-4.3625	-4.2958	-3.9667	-4.5563	-4.0792	-4.2042	-4.2917	-3.8333	-4.4417	-4.2396	-3.9521	-4.5625	-3.9042	-4.3208	50.175	-65.849	137.047	260.286	166.576	135.370	215.627	-52.224	161.767	67.780	-58.550	250.393	259.298	186.836	204.569	130.562	0.00010805	0.00031435	7.9833e-05	1352.7	3.8571e-06	4.527e-06	1354.9	359.74	3.8942e-06	1.7065e-06	408.83	137.15	119.29	41.125	3.0741e-06	50.843	0.00023573	0.00021884	6.1727e-05	1208	2.5442e-06	2.3943e-06	1210.2	316.84	2.5453e-06	2.3469e-06	344.93	116.06	96.796	33.592	2.4921e-06	41.693	223.975	-57.627	248.750	-62.598	0.466	21.872	-63.076	-57.972	33.320	-4.815	-58.557	-54.307	-53.353	-49.165	200.532	-50.066	-8191	255	
2042.813	1	1	0	0	0.055044	0.090282	0.17978	0.22319	0.16755	0.18295	0.49898	0.2328	0.19328	0.015293	0.32371	0.33493	0.22428	0.04009	0.10076	0.082038	-4.0229	-3.8312	-4.325	-4.2729	-3.925	-4.4396	-4.1813	-4.1875	-4.4313	-3.8937	-4.4062	-4.2396	-4.0687	-4.5354	-4.1167	-4.1312	175.305	63.626	64.900	245.865	29.609	-33.848	249.564	233.412	-11.286	163.722	227.193	266.277	249.833	242.733	234.090	-75.195	0.00014702	0.00020722	3.851e-05	1350	2.2424e-06	1.5939e-06	1351.8	357.71	9.8035e-07	6.8807e-07	410.68	137.09	119	41.103	2.7854e-06	50.89	0.00022819	0.00020946	6.4428e-05	1201.7	2.4684e-06	2.3104e-06	1214.5	315.15	2.4653e-06	2.2936e-06	346.87	115.32	96.19	33.554	2.6115e-06	41.508	4.014	17.999	33.713	-62.706	162.300	-12.010	-62.758	-58.061	196.695	190.450	-58.521	-54.117	-53.841	-48.914	170.508	-50.159	-8191	255	
2042.909	1	1	0	0	0.28783	0.22612	0.027273	0.12027	0.12942	0.29651	0.17248	0.18651	0.0079119	0.20711	0.21005	0.090365	0.18812	0.1887	0.14662	0.28796	-4.1146	-3.8354	-4.1396	-4.3292	-3.7729	-4.3542	-4.2958	-4.0312	-4.2875	-3.9792	-4.3708	-4.2729	-4.0146	-4.6104	-4.1813	-4.0417	41.632	-48.111	232.108	167.836	190.389	278.813	229.653	257.108	240.785	163.086	192.108	96.186	235.533	-27.713	-23.670	228.383	0.00030559	7.3336e-06	2.3672e-05	1352.1	4.4976e-06	3.0667e-06	1352	358.68	3.5542e-06	1.1995e-06	412.44	136.85	118.81	40.93	1.9072e-06	50.89	0.00022269	0.00021161	6.7192e-05	1199.6	2.3917e-06	2.3625e-06	1218.7	314.27	2.3851e-06	2.3709e-06	348.47	114.64	95.538	33.815	2.6374e-06	41.271	85.101	-7.529	-15.015	-62.770	4.660	134.616	-62.881	-58.033	16.050	149.746	-58.459	-54.394	-53.541	-49.247	-36.262	-49.801	-8191	255	
2043.030	1	1	0	0	0.067719	0.091139	0.25944	0.1654	0.091983	0.10687	0.33452	0.18011	0.15034	0.041122	0.14504	0.18291	0.10291	0.1717	0.15019	0.26332	-4.1292	-3.9833	-4.1646	-4.5167	-3.9437	-4.3354	-4.3458	-4.1417	-4.3917	-3.8479	-4.1604	-4.2646	-3.9521	-4.4042	-4.2188	-3.9917	77.570	165.172	-0.317	-50.918	96.678	25.859	186.291	269.175	32.052	-20.457	167.674	240.255	54.777	213.318	191.209	233.217	0.00028773	0.00011919	4.164e-05	1345.6	7.9074e-06	3.8322e-06	1352.6	358.82	2.0212e-06	3.9239e-06	412.64	136.76	119.25	41.226	9.372e-07	50.848	0.00021504	0.00022365	6.7051e-05	1195.1	2.3125e-06	2.5001e-06	1217.2	313.41	2.3092e-06	2.5051e-06	347.83	114.36	95.111	34.157	2.5934e-06	41.115	80.891	75.426	125.015	-62.683	-13.185	143.741	-62.721	-58.253	54.419	261.053	-58.487	-54.081	-53.548	-49.084	42.158	-50.101	-8191	255	
2043.102	1	1	0	0	0.21102	0.2938	0.21436	0.32405	0.32713	0.14716	0.21595	0.13234	0.058094	0.2699	0.11432	0.10783	0.25148	0.14372	0.25936	0.24367	-4.0021	-4.0021	-3.8958	-4.4583	-3.9458	-4.2604	-4.5042	-4.1042	-4.4417	-4.0104	-3.8958	-4.4	-4.1125	-4.2625	-4.4187	-3.9417	194.695	-46.693	172.125	248.486	86.561	165.630	224.503	-68.734	266.752	206.192	-73.839	200.511	169.369	161.018	223.285	262.938	0.00033197	0.00032808	4.5083e-05	1345.9	1.2963e-06	1.744e-06	1351.3	358.84	8.8605e-07	2.6544e-06	412.98	136.89	118.84	41.12	1.7034e-06	50.764	0.00021079	0.00023474	6.5532e-05	1191.5	2.3049e-06	2.6155e-06	1214.2	312.22	2.3401e-06	2.6167e-06	346.58	113.79	95.502	34.338	2.535e-06	40.834	71.109	111.447	269.424	-62.767	24.769	156.944	-62.788	-57.996	131.134	157.680	-58.609	-54.229	-53.518	-49.222	-58.675	-49.984	-8191	255	
2043.198	1	1	0	0	0.16726	0.20109	0.22773	0.041007	0.23849	0.075909	0.024708	0.28368	0.096414	0.068925	0.24202	0.07704	0.055272	0.2615	0.020382	0.35485	-3.9708	-4.1417	-3.9146	-4.6	-3.9167	-4.2396	-4.6125	-3.8479	-4.4104	-4.1188	-4.0646	-4.6646	-3.9792	-4.1062	-4.4667	-3.9104	-22.197	61.498	-31.210	215.503	65.016	-58.502	0.424	-63.566	-36.351	130.351	261.732	25.733	181.625	234.971	56.896	218.614	0.00035922	0.00011688	8.7089e-05	1350.6	2.8493e-06	2.4805e-06	1353.1	359.17	2.2221e-06	3.2458e-06	411.45	136.8	118.69	41.407	2.5905e-06	50.719	0.00021952	0.00024051	6.3886e-05	1188.5	2.4099e-06	2.6538e-06	1211.1	310.84	2.4714e-06	2.6427e-06	345.34	113.47	96.736	34.341	2.5112e-06	40.656	120.984	123.289	-32.272	-62.748	196.154	-66.367	-62.860	-58.089	226.781	53.895	-58.399	-54.414	-53.640	-48.986	72.015	-50.202	-8191	255	
2043.294	1	1	0	0	0.11773	0.23925	0.14411	0.17172	0.13605	0.036808	0.20834	0.14357	0.11708	0.21208	0.043116	0.23464	0.070322	0.12521	0.15732	0.15206	-3.9625	-4.2458	-3.8688	-4.45	-4.0854	-4.2562	-4.5083	-4.0458	-4.3625	-4.2604	-4.0479	-4.5667	-4.125	-4.1896	-4.5813	-3.9167	175.867	-64.700	28.839	263.413	123.623	238.058	281.913	176.651	144.880	87.684	-57.139	162.110	57.335	-45.622	275.111	163.490	0.00076537	0.00032942	1.7562e-05	1351	2.7288e-06	2.0921e-06	1355	359.13	4.0857e-06	2.6459e-06	411.88	136.81	118.89	41.373	1.7561e-06	50.722	0.0002337	0.00024035	6.3276e-05	1188	2.573e-06	2.6256e-06	1212	311.04	2.6208e-06	2.6065e-06	344.43	113.64	97.743	34.276	2.46e-06	40.789	79.204	92.415	33.267	-62.739	131.715	-17.534	-62.790	-57.951	209.354	32.223	-58.785	-54.278	-53.600	-48.974	-32.946	-49.908	-8191	255	
2043.413	1	1	0	0	0.29268	0.088731	0.077222	0.17387	0.1525	0.027079	0.19608	0.13711	0.27452	0.13463	0.11995	0.31705	0.15031	0.11386	0.19216	0.043403	-3.8667	-4.1729	-3.8375	-4.5083	-4.0292	-4.0271	-4.5854	-4.1417	-4.1333	-4.3125	-4.0271	-4.3583	-4.3187	-3.9875	-4.3979	-4.0188	191.399	168.391	68.566	262.843	105.471	158.282	219.024	256.345	127.098	227.190	86.012	-14.990	160.370	242.930	33.590	193.798	0.00062918	0.00018861	0.00010324	1349.9	1.5246e-06	4.1856e-06	1356.6	358.01	8.1722e-07	1.2986e-06	412.6	136.47	119.29	41.062	2.5694e-06	50.672	0.00024532	0.00023635	6.1607e-05	1191.6	2.6729e-06	2.5739e-06	1207.3	312.45	2.7025e-06	2.5663e-06	343.14	114.34	98.086	34.075	2.3889e-06	41.232	68.771	-47.290	-56.622	-62.863	54.089	7.365	-62.961	-57.851	51.033	80.450	-58.739	-54.510	-53.591	-49.062	40.058	-49.949	-8191	255	
2043.509	1	1	0	0	0.066894	0.10741	0.070654	0.27237	0.10366	0.18743	0.21699	0.023584	0.11247	0.096173	0.026331	0.25984	0.20114	0.27587	0.04397	0.10056	-3.8854	-4.4042	-3.9	-4.5292	-4.1771	-3.9083	-4.5229	-4.2458	-4.2417	-4.5062	-3.9229	-4.4125	-4.325	-3.9729	-4.5062	-4.0583	-18.750	27.512	265.862	274.062	282.553	46.128	-59.143	256.151	22.657	-67.176	247.346	-15.260	-53.463	262.712	102.157	240.413	0.00024929	0.00011194	1.7085e-05	1352.8	2.6405e-06	2.2755e-06	1355.9	358.81	1.321e-06	5.0368e-06	410.58	136.97	118.73	41.236	1.2164e-06	50.818	0.00024589	0.00023253	5.9751e-05	1198	2.6679e-06	2.5259e-06	1204.8	314.85	2.6494e-06	2.5067e-06	341.71	115.39	97.514	33.916	2.336e-06	41.596	81.092	44.230	0.324	-62.669	-26.171	53.575	-62.816	-57.909	-34.130	28.593	-58.629	-54.406	-53.544	-49.268	206.581	-49.936	-8191	255	
2043.605	1	1	0	0	0.082743	0.050189	0.31251	0.17144	0.089569	0.23704	0.25713	0.32389	0.1133	0.065963	0.10618	0.10653	0.16498	0.1299	0.155	0.045601	-3.7687	-4.4104	-3.7458	-4.4958	-4.2812	-3.8771	-4.4938	-4.1813	-3.9896	-4.5167	-4.0917	-4.1104	-4.2146	-3.9437	-4.2625	-4.2479	32.542	-23.912	-20.460	238.679	215.434	12.273	187.779	161.951	242.915	241.649	100.700	140.987	27.712	85.869	-17.056	125.800	0.00033654	0.00018039	6.7249e-05	1346.5	2.7859e-06	3.8383e-06	1355.2	358.64	2.0008e-06	1.6993e-06	410.28	136.63	119.17	41.187	1.468e-06	50.433	0.00023678	0.00022441	5.8676e-05	1204	2.5742e-06	2.4228e-06	1206.6	315.74	2.5737e-06	2.4221e-06	342.1	115.96	97.021	33.681	2.4247e-06	41.702	148.752	-31.251	71.855	-62.692	267.444	-1.638	-62.868	-57.880	3.115	43.271	-58.747	-54.266	-53.872	-49.080	241.989	-50.162	-8191	255	
2043.701	1	1	0	0	0.14614	0.075421	0.12976	0.12931	0.12911	0.17413	0.10828	0.25486	0.2948	0.039996	0.14195	0.23623	0.13992	0.28405	0.27319	0.17466	-3.4938	-4.3396	-3.8542	-4.2625	-4.2479	-3.7812	-4.5208	-4.4	-4.075	-4.4042	-3.9771	-4.1333	-4.3625	-3.9979	-4.2708	-4.1687	155.263	16.873	48.132	277.417	-39.396	71.646	179.457	192.276	260.114	57.570	204.140	212.040	220.995	-67.916	281.188	238.122	0.00026149	0.00039893	7.5315e-05	1347.5	2.6659e-06	1.6645e-06	1354.4	357.95	4.154e-07	2.54e-06	408.55	136.93	118.64	41.046	2.2752e-06	50.758	0.0002315	0.00021629	6.1444e-05	1204	2.5098e-06	2.3235e-06	1211.8	315.37	2.4952e-06	2.3055e-06	344.24	115.39	96.342	33.398	2.4874e-06	41.413	118.230	-7.213	75.440	-62.715	-15.774	-43.768	-62.984	-58.036	109.134	89.073	-58.670	-54.141	-53.723	-49.101	184.686	-50.014	-8191	255	
2043.797	1	1	0	0	0.020021	0.17079	0.058781	0.23202	0.18241	0.083261	0.16228	0.19449	0.23529	0.17958	0.081486	0.058549	0.10622	0.21475	0.060905	0.14135	-3.5958	-4.3271	-3.8708	-4.1042	-4.3333	-3.9125	-4.4083	-4.4354	-4	-4.3229	-4.2063	-4.1708	-4.4958	-4.0979	-4.2333	-4.4	267.517	-61.618	-1.877	263.783	139.446	132.626	274.097	272.721	217.917	-48.695	190.104	-13.908	-64.527	-41.999	-53.267	263.355	0.00011658	0.0002526	5.1304e-05	1347.7	3.794e-06	1.5119e-06	1350.5	357.9	2.1078e-06	6.8596e-07	411.45	137.21	118.5	41.096	2.8785e-06	50.63	0.00022007	0.00020506	6.3029e-05	1197.1	2.388e-06	2.2291e-06	1210.8	313.2	2.3792e-06	2.272e-06	346.2	114.71	95.645	33.431	2.5812e-06	41.207	124.605	280.990	3.539	-62.763	6.180	101.142	-62.849	-57.914	35.800	107.130	-58.412	-54.137	-53.723	-48.905	112.019	-49.956	-8191	255	
2043.894	1	1	0	0	0.28549	0.07187	0.13259	0.27773	0.077257	0.10469	0.10865	0.29316	0.11349	0.12754	0.15652	0.078603	0.21257	0.10166	0.17421	0.056124	-3.5854	-4.3375	-4.1333	-4.1896	-4.325	-3.8771	-4.3979	-4.5208	-3.8312	-4.5458	-4.375	-3.9646	-4.5542	-3.8958	-4.0458	-4.4604	230.541	-7.083	-56.112	217.607	192.181	6.132	263.067	123.730	181.237	-28.922	-15.467	-47.632	200.630	223.837	179.148	106.896	2.7143e-05	0.00022022	0.00011886	1347.3	3.1543e-06	8.1632e-07	1352	357.67	3e-07	1.4942e-06	411.27	137.17	118.61	40.833	1.0861e-06	50.763	0.00021271	0.00021098	6.5124e-05	1193.2	2.3334e-06	2.3267e-06	1215.5	312.82	2.3104e-06	2.4111e-06	347.26	114.42	95.26	33.728	2.6272e-06	41.226	-44.107	-11.386	-31.992	-62.576	38.218	103.920	-62.839	-58.062	70.892	177.295	-58.423	-54.308	-53.760	-49.101	-56.423	-49.927	-8191	255	
2043.990	1	1	0	0	0.14031	0.17346	0.29263	0.083426	0.084501	0.080023	0.33882	0.28571	0.089967	0.015085	0.17393	0.14409	0.12695	0.037359	0.16527	0.1146	-3.5042	-4.3104	-4.2167	-4.1146	-4.3438	-4.0229	-4.2958	-4.4313	-4.0563	-4.3396	-4.2833	-3.9437	-4.3375	-4.1979	-4.0833	-4.6021	92.572	260.917	183.115	92.668	260.759	276.172	204.206	211.686	-40.390	225.557	-53.525	206.438	9.221	233.447	-9.905	90.759	0.00030642	0.00031355	7.684e-05	1348.4	2.8469e-06	2.2921e-06	1351.4	358.24	9.6388e-07	2.1219e-06	411.38	137.09	118.4	41.057	2.239e-06	50.705	0.00020967	0.00022668	6.5966e-05	1193.5	2.2963e-06	2.5052e-06	1214.2	312.74	2.2899e-06	2.565e-06	347.15	114.09	95.148	34.124	2.5748e-06	40.997	101.120	181.593	-69.283	-62.833	20.013	137.893	-62.881	-57.952	130.028	246.118	-58.464	-54.356	-53.735	-49.064	62.193	-50.023	-8191	255	
2044.110	1	1	0	0	0.12929	0.13741	0.036445	0.18878	0.27789	0.098658	0.33874	0.19613	0.092725	0.13818	0.30254	0.22974	0.1955	0.21959	0.15261	0.13074	-3.5896	-4.1521	-4.2562	-3.8875	-4.45	-4.1708	-4.2208	-4.5104	-3.8292	-4.2792	-4.5208	-3.8542	-4.3708	-4.3854	-3.9854	-4.5062	270.752	-14.116	-66.047	256.282	281.856	46.320	-69.188	202.272	135.920	124.915	249.421	180.751	178.893	88.199	267.389	35.766	0.00043551	0.00023415	5.1794e-05	1345.5	1.5201e-06	9.2087e-07	1354.4	356.73	2.3988e-06	1.135e-06	411.84	137.05	118.74	41.098	1.1761e-06	50.578	0.00020977	0.00023825	6.456e-05	1188.6	2.3145e-06	2.5876e-06	1211.2	310.98	2.3307e-06	2.6211e-06	345.26	113.36	95.634	34.228	2.4949e-06	40.738	86.286	46.741	62.833	-62.653	111.001	181.900	-62.814	-57.993	159.915	-36.791	-58.720	-54.140	-53.752	-49.092	264.597	-49.955	-8191	255	
2044.206	1	1	0	0	0.097949	0.061362	0.22331	0.11799	0.060693	0.094362	0.23532	0.10666	0.18478	0.20067	0.18282	0.13861	0.23992	0.14503	0.14278	0.27386	-3.6375	-4.3458	-4.2312	-4.0417	-4.5646	-4.0354	-4.1729	-4.6604	-4.1	-4.1021	-4.5979	-4.0604	-4.4333	-4.225	-4.0917	-4.4729	-71.173	-5.118	79.813	247.786	207.490	60.255	197.311	-69.442	232.983	173.975	-70.294	264.038	4.501	281.738	79.715	169.442	0.0004036	0.00036465	0.00010532	1346	3.0037e-06	7.6065e-07	1349.2	357.94	2.2395e-06	1.6789e-06	409.53	137.23	119.06	41.129	3.5709e-06	50.559	0.00021958	0.00024011	6.3341e-05	1184.2	2.4707e-06	2.6488e-06	1210.8	310.87	2.5055e-06	2.6515e-06	344.95	113.3	97.158	34.271	2.4968e-06	40.644	79.072	6.364	-56.237	-62.710	161.809	-0.795	-62.881	-58.170	191.294	223.954	-58.847	-54.051	-54.077	-48.918	47.780	-49.724	-8191	255	
2044.303	1	1	0	0	0.13174	0.18501	0.10301	0.17973	0.09724	0.13778	0.20276	0.32955	0.091762	0.19502	0.094166	0.12571	0.22118	0.071815	0.11647	0.29976	-3.5667	-4.0729	-4.4146	-4.1687	-4.3021	-4.1813	-4.0333	-4.3708	-4.0583	-4.1083	-4.475	-4.1542	-4.4812	-4.4958	-4.0104	-4.4354	30.926	-60.142	-11.628	-68.172	16.455	64.343	209.603	258.917	184.693	0.199	277.604	-1.866	-54.068	50.695	139.778	222.859	0.00044971	0.00040192	7.6784e-05	1346.4	8.3152e-07	1.174e-06	1344.7	358.35	1.2673e-06	2.6844e-06	410.36	135.86	118.78	41.015	1.6654e-06	50.708	0.00023619	0.00024012	6.3396e-05	1185	2.6246e-06	2.6067e-06	1207.8	311.35	2.6487e-06	2.6065e-06	343.6	113.44	97.872	34.178	2.4263e-06	40.986	86.798	-29.233	255.489	-62.834	279.002	187.729	-62.802	-57.988	74.344	36.604	-58.479	-54.088	-53.590	-49.103	19.222	-49.914	-8191	255	
2044.399	1	1	0	0	0.17365	0.093489	0.11569	0.12617	0.19174	0.089772	0.14967	0.0723	0.095398	0.23973	0.074209	0.29855	0.18457	0.24277	0.16873	0.04862	-3.725	-3.9271	-4.3812	-3.9625	-4.2937	-4.3625	-4.1021	-4.5604	-4.1312	-4.0188	-4.6354	-3.9854	-4.2042	-4.5729	-3.8854	-4.4958	159.418	2.098	129.719	237.402	15.362	-51.952	171.609	201.247	29.733	-54.481	270.443	236.901	237.085	262.383	221.696	166.908	0.00029457	5.1351e-05	0.00014555	1344.4	4.6912e-06	3.6292e-06	1350.5	357.51	2.9735e-06	7.7721e-07	410.66	136.48	119.14	41.098	8.7404e-07	50.617	0.00024432	0.00023482	6.1474e-05	1190.9	2.6996e-06	2.5646e-06	1203.5	312.64	2.6778e-06	2.5332e-06	341.74	114.42	97.856	33.997	2.3252e-06	41.322	68.022	55.656	-29.428	-62.685	108.488	43.669	-62.762	-58.130	260.458	89.591	-58.686	-54.358	-53.665	-49.301	-42.977	-49.897	-8191	255	
2044.493	1	1	0	0	0.09315	0.23076	0.070728	0.2051	0.05665	0.099857	0.13386	0.087469	0.20307	0.19306	0.092158	0.17737	0.31302	0.10311	0.15472	0.039441	-3.7333	-3.7375	-4.3229	-4.2937	-4.1813	-4.3333	-4.0521	-4.5896	-4.1958	-3.8292	-4.5833	-4.1188	-4.1125	-4.5083	-3.8208	-4.4187	130.997	124.200	31.340	233.795	249.425	248.350	175.529	225.931	110.054	260.912	-50.263	-64.636	-33.086	282.374	174.640	276.640	0.00023929	0.00016193	3.2047e-05	1348.4	4.0739e-06	3.1122e-06	1353.5	357.19	2.6656e-06	3.0943e-06	408.83	137.29	118.79	40.881	3.7488e-06	50.797	0.00024211	0.00022897	5.9554e-05	1197.5	2.6475e-06	2.5101e-06	1204.1	315.36	2.6347e-06	2.4867e-06	341.33	115.53	97.327	33.858	2.3338e-06	41.738	169.085	110.887	53.548	-62.722	15.175	-21.587	-62.863	-58.030	9.653	69.554	-58.661	-54.044	-53.687	-49.266	162.928	-50.147	-8191	255	
2044.589	1	1	0	0	0.21951	0.19222	0.22237	0.16229	0.053725	0.010032	0.49625	0.2414	0.21137	0.17764	0.2356	0.12734	0.17032	0.14959	0.08919	0.059734	-4.0104	-3.9792	-4.3229	-4.1854	-4.0708	-4.4854	-4.2063	-4.275	-4.4167	-4.0104	-4.5167	-4.2937	-4.0229	-4.4083	-3.8583	-4.2333	27.236	91.521	49.600	-73.512	-47.726	128.958	245.505	276.280	165.569	265.022	220.977	260.685	-25.050	279.300	211.266	148.391	5.1744e-05	0.00020521	7.1639e-05	1347.9	2.69e-06	2.7588e-06	1347.7	358.31	1.6121e-06	4.4015e-06	410.44	136.97	118.81	40.956	1.1761e-06	50.928	0.00023698	0.00022142	5.9813e-05	1201.8	2.5675e-06	2.4174e-06	1203.9	315.94	2.5611e-06	2.3849e-06	343.32	115.83	96.883	33.647	2.4213e-06	41.778	278.064	-27.904	98.514	-62.621	35.495	40.378	-62.913	-58.170	135.434	19.376	-58.501	-54.233	-53.673	-49.083	264.043	-50.008	-8191	255	
2044.710	1	1	0	0	0.091197	0.068019	0.063988	0.25118	0.048727	0.11206	0.054888	0.051024	0.14973	0.24484	0.12091	0.081784	0.089106	0.089969	0.03075	0.25353	-3.825	-3.8083	-4.2125	-4.1312	-3.9667	-4.4146	-4.0125	-4.2583	-4.375	-3.8667	-4.4521	-4.3708	-4.1646	-4.6312	-4.0188	-4.1771	-26.420	261.909	181.009	242.800	84.304	139.105	245.601	101.834	217.634	105.212	184.752	-2.755	108.147	-7.980	34.123	265.189	0.00031428	0.00030534	4.5097e-05	1344.8	2.5058e-06	2.4296e-06	1350.6	358.34	2.5161e-06	1.5257e-06	410.17	137.27	118.6	41.019	2.783e-06	50.585	0.00023053	0.00021164	6.2777e-05	1200.9	2.4832e-06	2.3192e-06	1209.6	315.19	2.4816e-06	2.293e-06	345.95	115.34	96.24	33.442	2.5402e-06	41.502	120.722	-37.153	53.821	-62.749	85.995	-40.567	-62.773	-58.013	-0.888	130.523	-58.737	-54.075	-53.528	-49.212	218.585	-50.287	-8191	255	
2044.806	1	1	0	0	0.28152	0.14014	0.11731	0.084643	0.18846	0.073942	0.18952	0.16168	0.19203	0.054826	0.059794	0.11389	0.077634	0.050886	0.21663	0.083215	-4.0646	-3.9521	-4.3604	-4.4292	-3.9583	-4.3833	-4.2521	-4.3229	-4.4979	-4.0396	-4.4625	-4.3667	-4.0479	-4.3625	-4.025	-4.1083	186.283	251.703	-59.545	256.435	140.495	273.066	212.456	198.715	227.233	7.436	256.046	237.414	114.781	164.789	-24.730	151.575	0.00016998	0.00013986	2.9219e-05	1350.5	4.4452e-06	2.0065e-06	1355.4	358.3	5.3803e-06	3.1317e-06	410.84	136.73	118.64	41.095	1.7046e-06	50.698	0.00022469	0.00020746	6.5496e-05	1199.7	2.4143e-06	2.3157e-06	1214.9	314.24	2.4285e-06	2.3281e-06	348.16	115.01	95.843	33.702	2.6602e-06	41.416	75.709	-17.717	81.285	-62.654	-46.389	138.344	-62.860	-57.922	-35.884	175.037	-58.553	-54.192	-53.678	-49.089	21.285	-49.884	-8191	255	
2044.902	1	1	0	0	0.24735	0.10073	0.25147	0.28183	0.18226	0.093211	0.16585	0.13171	0.16071	0.05179	0.018559	0.16817	0.031884	0.18292	0.142	0.097865	-4.0958	-3.8292	-4.125	-4.4313	-3.9229	-4.5396	-4.3104	-4.1479	-4.35	-4.0708	-4.3313	-4.3542	-3.8292	-4.3646	-4.0563	-4.0437	-50.686	-8.397	89.800	195.897	213.609	-73.914	195.105	222.587	-43.767	61.579	86.801	192.885	174.522	169.824	-48.504	213.495	0.00015375	0.00016316	1.5412e-05	1349.1	4.8863e-06	9.1835e-07	1355.5	357.98	3.0092e-06	2.8198e-06	411.19	136.68	118.66	41.028	3.2033e-06	50.837	0.00022067	0.00021873	6.765e-05	1198.4	2.3553e-06	2.4522e-06	1219.2	313.39	2.3631e-06	2.4666e-06	348.3	114.65	95.302	34.021	2.664e-06	41.282	255.392	103.409	133.704	-62.690	50.776	100.626	-62.867	-57.951	-0.507	142.131	-58.555	-54.098	-53.659	-49.085	44.355	-49.851	-8191	255	
2044.974	1	1	0	0	0.036497	0.24344	0.12188	0.16394	0.38303	0.24728	0.07133	0.12317	0.24945	0.13845	0.20143	0.16545	0.13189	0.2267	0.061815	0.19414	-4.0312	-3.8708	-4.0417	-4.4271	-3.8146	-4.3667	-4.3	-3.8729	-4.3354	-3.9896	-4.2271	-4.4479	-4.0625	-4.425	-4.3042	-3.9229	168.217	41.337	169.763	267.376	77.210	112.924	-44.192	208.055	-25.614	160.841	169.881	-14.982	-58.088	15.556	245.095	223.261	0.0001932	0.00041974	2.2897e-05	1347.3	3.9259e-07	3.5951e-06	1352.9	358.07	1.5566e-06	1.7868e-06	410.86	137.09	118.23	40.822	5.4282e-06	50.971	0.00021609	0.00023342	6.7519e-05	1195.5	2.33e-06	2.6142e-06	1216.3	313.17	2.3547e-06	2.6164e-06	347.27	114.35	95.271	34.298	2.6151e-06	41.046	108.392	102.206	-2.698	-62.750	91.322	170.574	-62.747	-58.080	195.190	259.998	-58.622	-54.231	-53.696	-49.040	33.310	-50.123	-8191	255	
2045.070	1	1	0	0	0.13358	0.20251	0.10459	0.12839	0.085648	0.2266	0.15933	0.043941	0.084233	0.083599	0.12712	0.10442	0.32287	0.1039	0.1681	0.27868	-4.0062	-4.075	-4.1125	-4.6062	-3.8521	-4.2312	-4.3729	-3.9938	-4.3083	-4.1604	-4.0583	-4.4938	-4.1125	-4.2854	-4.2646	-4.0625	78.409	34.061	214.219	-43.854	198.792	-25.611	212.816	273.925	114.903	213.977	168.788	163.180	-74.827	197.113	101.437	180.450	0.00015453	0.00027542	0.00013839	1350.1	2.4959e-06	4.3278e-06	1356.2	357.75	4.3379e-06	1.9737e-06	408.95	137.2	118.38	41.214	2.1712e-06	50.947	0.00021791	0.00024332	6.595e-05	1192.3	2.3945e-06	2.7076e-06	1214	312.17	2.4616e-06	2.6988e-06	346.36	114.04	96.257	34.52	2.581e-06	40.811	139.171	46.692	280.824	-62.676	152.754	107.876	-62.766	-57.930	186.003	94.829	-58.633	-54.222	-53.712	-48.970	-21.152	-49.862	-8191	255	
2045.191	1	1	0	0	0.16236	0.34529	0.15515	0.37775	0.049767	0.094213	0.079193	0.12057	0.11688	0.07253	0.11327	0.24166	0.2354	0.076216	0.051012	0.1471	-4.1875	-4.2729	-3.9104	-4.5437	-4.1833	-4.2438	-4.5	-4.0896	-4.2937	-4.2438	-3.9833	-4.4875	-4.1583	-4.1937	-4.2771	-3.9396	261.606	237.397	-44.185	228.947	-36.774	268.379	123.332	221.133	141.055	210.716	276.928	279.487	200.832	167.397	115.650	159.712	0.00048429	0.00030302	2.9799e-05	1346.7	3.3557e-06	3.795e-06	1351.1	358.36	2.9282e-06	3.8337e-06	411.04	137.16	118.32	41.151	5.1665e-06	50.681	0.00023125	0.00024608	6.4694e-05	1187.5	2.5273e-06	2.6791e-06	1211.9	310.7	2.5728e-06	2.6414e-06	344.91	113.28	97.151	34.237	2.4965e-06	40.576	136.199	253.263	-38.753	-62.599	117.317	1.572	-62.782	-58.106	89.678	-1.956	-58.453	-54.534	-53.680	-49.114	-5.000	-49.998	-8191	255	
2045.287	1	1	0	0	0.048061	0.056148	0.094912	0.10115	0.11137	0.20657	0.23101	0.078407	0.048329	0.18949	0.054427	0.090959	0.2018	0.21685	0.09146	0.244	-3.9771	-4.1438	-3.8667	-4.4896	-4.2	-3.9729	-4.5125	-3.9375	-4.2375	-4.3646	-4.0271	-4.4542	-4.2937	-4.2292	-4.375	-3.9917	-4.748	203.396	224.753	10.439	7.300	63.503	228.408	85.974	-64.261	189.026	0.824	209.926	-59.051	273.124	191.715	227.525	0.00083476	0.00015896	6.2176e-05	1344.3	9.8728e-07	3.1545e-06	1353.7	357.68	2.7828e-06	2.8417e-06	410.55	135.92	118.53	40.907	1.8605e-06	50.477	0.0002405	0.00023807	6.2374e-05	1186.8	2.6313e-06	2.6035e-06	1208.6	310.94	2.6705e-06	2.5849e-06	343.4	113.68	97.868	34.015	2.4143e-06	40.88	75.344	275.084	-72.582	-62.643	78.398	280.144	-62.681	-58.000	237.853	-67.952	-58.693	-54.121	-53.486	-49.160	51.900	-49.997	-8191	255	
2045.383	1	1	0	0	0.19623	0.17262	0.10301	0.12814	0.22133	0.12332	0.11204	0.15424	0.052987	0.21977	0.3524	0.11593	0.075014	0.13072	0.07165	0.18137	-3.8729	-4.1667	-3.7	-4.6042	-4.1937	-4.0271	-4.6833	-4.1667	-4.0229	-4.4396	-4.0687	-4.2417	-4.0813	-4.0292	-4.3	-4.1979	192.241	134.583	-41.796	-58.091	181.303	16.272	-71.815	241.446	260.216	135.630	276.258	121.450	260.124	236.084	-67.745	17.282	0.00039548	0.00053475	7.8977e-05	1348.4	3.9118e-06	1.6561e-06	1353.5	356.7	2.4934e-06	3.3806e-06	410	137.07	118.77	41.006	3.7317e-06	50.685	0.00024527	0.00023278	6.0195e-05	1192.2	2.6527e-06	2.5278e-06	1203.9	312.46	2.6595e-06	2.5156e-06	340.96	114.71	97.798	33.952	2.3446e-06	41.355	91.458	-18.277	11.648	-62.641	17.885	21.430	-62.988	-58.195	81.653	-21.819	-58.517	-54.345	-53.630	-49.057	-22.115	-50.165	-8191	255	
2045.502	1	1	0	0	0.069318	0.13677	0.31341	0.067797	0.25564	0.089366	0.25366	0.095521	0.27894	0.073311	0.18543	0.073731	0.15448	0.1486	0.090764	0.14408	-3.6896	-4.4313	-4.0167	-4.3542	-4.0771	-3.7542	-4.4875	-4.3	-4.1521	-4.3854	-4.0583	-4.3104	-4.3333	-4.0271	-4.4479	-4.1146	243.859	157.345	243.637	152.709	276.959	264.467	182.090	-69.768	-71.998	271.752	239.391	260.061	258.904	190.843	25.118	31.602	0.00026768	0.00018922	4.9005e-05	1348.6	4.625e-06	2.1382e-06	1351	357.2	4.284e-06	4.8454e-06	410.26	136.79	118.48	40.996	2.7057e-06	50.821	0.00024269	0.00022954	5.901e-05	1199.8	2.622e-06	2.4846e-06	1200.9	315.02	2.6158e-06	2.4765e-06	341.27	115.66	97.211	33.709	2.3551e-06	41.661	61.079	-27.732	-53.196	-62.632	-11.520	70.120	-63.006	-57.925	4.784	-27.293	-58.472	-54.214	-53.787	-49.049	184.173	-49.792	-8191	255	
2045.598	1	1	0	0	0.050591	0.10177	0.12687	0.18539	0.082798	0.17339	0.11177	0.094719	0.10999	0.063714	0.057665	0.15742	0.10936	0.20246	0.21419	0.054317	-3.6646	-4.3604	-3.9542	-4.3646	-4.2083	-4.05	-4.3688	-4.2083	-4.1	-4.4646	-4.0833	-4.4083	-4.3604	-3.8187	-4.3562	-4.2688	-36.380	30.693	84.093	182.268	30.863	121.474	265.149	228.426	-47.684	-38.946	35.036	191.451	33.546	197.418	128.740	-15.897	9.7748e-05	0.00043928	5.1879e-05	1348	3.3574e-06	8.232e-07	1351.9	358.9	3.297e-06	1.4049e-06	409.1	137.37	118.67	41.076	2.647e-06	50.671	0.00023421	0.00022039	5.9781e-05	1202.8	2.5422e-06	2.3749e-06	1205.9	315.85	2.5373e-06	2.3843e-06	343.08	115.92	96.744	33.552	2.4776e-06	41.679	139.814	-4.782	30.551	-62.647	-60.451	28.066	-62.727	-57.989	25.025	4.918	-58.704	-54.283	-53.583	-49.023	168.803	-49.964	-8191	255	
2045.671	1	1	0	0	0.0541	0.12613	0.21233	0.20468	0.25015	0.089366	0.099077	0.14057	0.17131	0.10323	0.20101	0.14721	0.15701	0.27499	0.11393	0.14383	-3.6521	-4.4208	-3.975	-4.225	-4.4208	-3.875	-4.5354	-4.2583	-3.8187	-4.3708	-4.1729	-4.2042	-4.4229	-4.0604	-4.3396	-4.3271	-56.199	268.565	209.483	261.549	21.939	274.527	25.143	206.477	-0.401	255.500	210.141	131.300	-35.578	-65.208	201.284	134.802	9.7772e-05	0.00021952	0.00014099	1347.5	3.9141e-06	1.9126e-06	1351.1	357.81	3.3551e-06	4.728e-07	409.56	136.81	118.94	40.93	2.6076e-06	50.648	0.00022958	0.00021411	6.3031e-05	1201.7	2.5004e-06	2.2971e-06	1212.1	315.05	2.4834e-06	2.3375e-06	346.49	115.48	96.519	33.484	2.6365e-06	41.552	204.957	7.226	55.537	-62.620	18.865	45.543	-62.852	-57.879	5.872	248.920	-58.460	-54.469	-53.552	-49.017	204.591	-49.959	-8191	255	
2045.790	1	1	0	0	0.13264	0.1762	0.10405	0.21377	0.079541	0.13796	0.099999	0.11483	0.25905	0.10392	0.088917	0.25111	0.1246	0.093865	0.073277	0.26758	-3.6979	-4.2188	-4.0062	-4.2688	-4.4354	-3.9542	-4.2729	-4.3271	-3.8917	-4.3333	-4.0125	-4.1458	-4.5646	-4.1479	-4.2646	-4.5396	-54.721	238.080	5.887	255.656	74.720	42.229	238.530	271.534	47.423	-58.562	208.288	-57.672	17.392	195.113	9.919	243.903	0.00016456	0.00026136	0.00010138	1348.5	2.292e-06	9.7282e-07	1354.6	359.16	3.6289e-06	4.7059e-06	408.69	137.38	118.61	41.042	7.5932e-07	50.518	0.00022654	0.0002159	6.733e-05	1200.2	2.4869e-06	2.3749e-06	1219.8	315.05	2.4457e-06	2.4091e-06	348.62	115.18	95.867	33.735	2.7164e-06	41.443	109.440	-32.262	127.960	-62.615	16.181	212.423	-62.763	-57.973	67.177	165.350	-58.421	-54.265	-53.738	-48.994	147.452	-49.888	-8191	255	
2045.886	1	1	0	0	0.10478	0.10687	0.051411	0.18651	0.061905	0.099291	0.056559	0.19366	0.0354	0.070888	0.11422	0.14578	0.29964	0.047231	0.16326	0.15787	-3.4875	-4.4229	-4.1333	-4.1479	-4.2646	-4.0833	-4.4	-4.5521	-3.9417	-4.4812	-4.3771	-4.0667	-4.5292	-4.05	-4.1896	-4.4542	32.666	119.656	220.132	209.734	104.941	11.349	251.562	262.638	158.075	42.200	-1.689	277.648	-71.904	251.615	65.750	272.282	0.00026479	0.0002346	0.0001166	1349.6	4.442e-06	1.943e-06	1352.9	358.74	2.0331e-06	2.1376e-06	412.5	136.71	119.08	40.882	2.8775e-06	50.772	0.0002197	0.0002271	6.8249e-05	1197.7	2.3988e-06	2.4947e-06	1219.1	314.34	2.3616e-06	2.5502e-06	349.12	114.88	95.678	34.104	2.6793e-06	41.405	109.932	147.125	-49.163	-62.680	45.796	150.850	-62.705	-57.875	23.406	146.880	-58.612	-54.176	-53.607	-48.883	45.422	-50.177	-8191	255	
2045.983	1	1	0	0	0.14177	0.17827	0.058927	0.069954	0.10274	0.14009	0.18672	0.24048	0.15835	0.20617	0.30227	0.11558	0.044016	0.11132	0.25565	0.18567	-3.6271	-4.3438	-4.3396	-3.9479	-4.3771	-3.9875	-4.3396	-4.5542	-3.9813	-4.2917	-4.3521	-3.9188	-4.5167	-4.375	-3.8563	-4.5583	11.119	146.015	86.540	129.287	272.506	113.967	272.575	189.736	266.425	204.210	259.125	215.980	102.898	97.308	-55.530	135.465	0.00041759	0.0002279	5.4452e-05	1344.6	4.2644e-06	3.9534e-06	1353.8	358.19	2.9087e-06	3.3212e-06	411.41	136.63	118.9	40.921	3.3804e-06	50.679	0.00021653	0.00024144	6.8152e-05	1195.3	2.4067e-06	2.6918e-06	1219.2	314.42	2.414e-06	2.7502e-06	349.38	114.9	96.424	34.56	2.6832e-06	41.274	81.181	92.554	-61.994	-62.748	85.882	90.228	-63.051	-58.064	105.881	134.099	-58.574	-54.218	-54.053	-48.836	-12.409	-49.851	-8191	255	
2046.103	1	1	0	0	0.21963	0.1332	0.33136	0.29477	0.13053	0.3625	0.17202	0.27883	0.092369	0.13049	0.062125	0.18011	0.025602	0.17523	0.085742	0.18178	-3.525	-4.25	-4.3958	-4.1292	-4.4854	-4.1042	-4.2667	-4.6708	-4.0583	-4.2937	-4.4583	-3.9396	-4.4125	-4.325	-3.9	-4.8187	236.641	-53.529	108.423	15.969	-3.647	154.292	-63.557	228.091	160.768	63.412	228.804	228.013	33.733	248.545	131.508	246.527	0.00019867	3.4685e-05	4.7399e-05	1348.6	3.9482e-06	3.1519e-06	1351.4	358.6	3.4749e-06	4.3605e-06	411.4	137.15	118.62	41.089	2.436e-07	50.894	0.00022501	0.00025263	6.7228e-05	1192.4	2.4945e-06	2.7459e-06	1214.1	312.96	2.5052e-06	2.7675e-06	348.2	114.1	97.339	34.601	2.6195e-06	41.038	93.148	-68.652	51.397	-62.762	104.578	18.752	-62.755	-58.004	146.337	24.064	-58.433	-54.417	-53.777	-49.535	-51.069	-49.957	-8191	255	
2046.199	1	1	0	0	0.081655	0.19789	0.34027	0.11615	0.30123	0.17575	0.18178	0.25851	0.13246	0.032359	0.1118	0.12931	0.18787	0.1787	0.050355	0.14831	-3.5687	-4.2688	-4.325	-4.0229	-4.2604	-4.0458	-4.1125	-4.575	-4.05	-4.0896	-4.3688	-4.0083	-4.3792	-4.3646	-3.8979	-4.35	-33.893	224.095	154.216	-73.756	47.839	90.582	228.699	212.602	72.161	82.748	90.705	233.917	168.366	-69.859	272.570	-48.891	0.00073997	0.00035511	6.5222e-05	1346.2	5.3063e-06	3.2428e-06	1349.4	357.73	3.0035e-06	4.5314e-06	411.82	136.45	118.36	41.107	9.9618e-07	50.454	0.00023712	0.00024986	6.564e-05	1187.1	2.6087e-06	2.6821e-06	1209.4	311.68	2.6072e-06	2.6577e-06	345.36	113.36	97.745	34.272	2.4997e-06	40.867	85.160	-40.866	24.931	-62.808	124.689	18.154	-62.808	-58.137	179.952	31.327	-58.499	-54.192	-53.644	-49.185	43.483	-49.651	-8191	255	
2046.271	1	1	0	0	0.19362	0.15021	0.14824	0.16361	0.16765	0.32032	0.13425	0.42313	0.23861	0.13662	0.15996	0.1329	0.24447	0.069756	0.11974	0.06009	-3.8958	-4.0479	-4.5021	-4.1125	-4.4688	-4.3979	-3.9521	-4.3812	-4.1687	-4.0292	-4.5479	-4.15	-4.3375	-4.4	-3.7562	-4.4792	19.497	-51.535	258.564	255.769	265.688	101.944	225.740	207.408	100.100	190.136	103.496	127.257	252.754	248.818	-12.641	96.440	0.00064176	0.00014161	0.00011418	1345.6	1.6792e-06	1.656e-06	1347.8	357.65	1.1228e-06	1.1838e-06	413.18	136.69	118.78	41.148	1.9818e-06	50.499	0.00024531	0.0002419	6.3734e-05	1187.8	2.725e-06	2.6396e-06	1206.3	312.79	2.7471e-06	2.6474e-06	345.32	114.73	98.716	34.34	2.4751e-06	41.386	88.454	10.357	-31.833	-62.780	102.582	77.769	-62.808	-58.039	184.995	222.723	-58.828	-54.331	-53.635	-49.191	44.252	-49.873	-8191	255	
2046.392	1	1	0	0	0.085842	0.078588	0.082134	0.10353	0.027341	0.032352	0.13944	0.17588	0.16273	0.047898	0.15855	0.14928	0.14657	0.21259	0.076838	0.048958	-3.8854	-3.9	-4.3812	-4.1396	-4.2667	-4.3562	-4.0396	-4.5104	-4.3542	-4.0771	-4.5292	-4.1667	-4.1083	-4.5583	-3.9458	-4.4646	171.458	126.392	213.610	-74.788	153.060	243.117	169.401	259.068	43.120	257.913	257.834	255.226	275.766	-32.842	240.288	-73.910	0.00060674	0.00033969	2.3944e-05	1343.4	5.0836e-07	4.1393e-06	1352.9	357.42	4.0409e-06	3.8704e-06	412.44	136.76	118.45	40.878	8.3089e-07	50.632	0.00025573	0.00024224	6.3368e-05	1198.3	2.8039e-06	2.6597e-06	1206.3	316.03	2.7976e-06	2.6464e-06	344.86	115.86	98.63	34.243	2.4391e-06	41.892	62.437	-33.155	96.340	-62.722	37.959	25.852	-62.722	-58.080	36.122	39.622	-58.478	-54.137	-53.996	-49.271	282.354	-49.934	-8191	255	
2046.486	1	1	0	0	0.1748	0.039667	0.15842	0.041968	0.12323	0.12159	0.034703	0.31133	0.24869	0.098598	0.16343	0.17565	0.067054	0.15475	0.10545	0.28371	-3.9688	-3.8812	-4.5729	-4.2812	-4.1729	-4.3875	-4.3396	-4.5188	-4.3708	-3.9708	-4.6646	-4.2854	-3.9542	-4.5583	-3.7521	-4.2854	115.898	63.177	266.935	88.718	240.067	172.365	-64.515	203.064	-58.607	91.975	262.726	231.208	270.306	-36.075	240.121	212.759	0.00016209	0.0005162	2.5092e-05	1347.7	4.8164e-06	1.9833e-06	1347.6	357.67	1.4315e-06	3.3595e-06	410.8	136.77	118.73	41.08	2.2068e-06	50.694	0.0002514	0.00023683	6.1919e-05	1205.3	2.7112e-06	2.5747e-06	1203.4	316.86	2.6841e-06	2.5278e-06	343.61	116.48	97.832	33.97	2.4886e-06	42.157	244.724	-1.906	147.395	-62.724	274.087	30.729	-62.912	-58.095	-22.332	4.485	-58.437	-54.275	-53.623	-49.074	205.122	-49.968	-8191	255	
2046.582	1	1	0	0	0.30293	0.22158	0.33087	0.12316	0.12425	0.18325	0.22145	0.099037	0.24975	0.1923	0.13918	0.17445	0.075059	0.045809	0.20039	0.17869	-4.0229	-3.8646	-4.3271	-4.2063	-3.8792	-4.4271	-4.4375	-4.3604	-4.3396	-3.9646	-4.4812	-4.3146	-4.0167	-4.5417	-4.1125	-4.3625	173.795	9.786	33.102	195.809	46.126	175.066	117.839	195.877	282.704	-22.109	139.285	-26.245	-13.944	210.372	154.825	233.125	8.006e-05	0.00033358	6.3155e-05	1344.7	1.4404e-06	3.1842e-06	1348.7	357.41	4.4388e-06	3.8968e-06	411.11	136.79	118.8	40.907	3.8032e-06	50.59	0.00024681	0.00023114	6.5222e-05	1210	2.7368e-06	2.5839e-06	1215.2	319.59	2.8317e-06	2.6507e-06	351.76	118.59	99.766	34.551	2.9944e-06	43.327	154.871	-8.993	88.483	-62.743	-5.567	41.507	-62.850	-58.081	62.276	40.095	-58.741	-54.248	-53.919	-49.064	171.554	-49.996	-8191	255	
2046.678	1	1	0	0	0.25484	0.12263	0.15204	0.22044	0.103	0.14414	0.26001	0.10662	0.12231	0.030971	0.31813	0.16097	0.20216	0.062533	0.22637	0.12016	-3.9771	-3.9375	-4.1583	-4.4187	-4.1104	-4.6354	-4.275	-4.1542	-4.3688	-4.0542	-4.3896	-4.2188	-4.0917	-4.5938	-4.0875	-4.125	63.894	-59.518	145.754	267.457	55.613	238.208	251.259	75.006	137.631	-15.864	198.936	216.546	119.718	243.417	231.875	167.516	0.00042745	0.00015766	7.0783e-05	1349	4.8586e-06	4.3274e-06	1352.3	358.24	3.9107e-06	2.8239e-06	411.74	136.94	119.04	40.996	2.7769e-06	50.682	0.00027962	0.00025802	8.0364e-05	1233.7	3.1177e-06	2.9306e-06	1245.9	325.83	3.1687e-06	2.9489e-06	363.61	120.7	101.14	35.079	3.3253e-06	43.671	44.804	-12.360	149.995	-62.797	53.852	21.451	-62.864	-57.817	30.716	190.305	-58.600	-54.362	-53.606	-49.057	159.997	-50.087	-8191	255	
2046.775	1	1	0	0	0.087852	0.3601	0.17277	0.11515	0.26497	0.075853	0.30995	0.27333	0.082629	0.22779	0.14998	0.16808	0.24923	0.087058	0.32417	0.21206	-4	-3.7604	-4.1646	-4.45	-3.9875	-4.3167	-4.3583	-4.1562	-4.3729	-3.9979	-4.2854	-4.3833	-4.0458	-4.5229	-4.125	-3.85	256.889	-45.252	174.394	270.094	263.972	190.767	235.448	205.615	193.496	258.242	225.094	215.072	237.227	280.805	175.921	0.309	4.5471e-05	0.00018725	3.0333e-05	1351.3	4.1595e-06	3.6512e-06	1350.7	359	2.1331e-06	2.189e-06	411.3	137.04	117.89	40.947	1.0392e-06	50.577	0.00028011	0.00026559	8.3632e-05	1227.4	2.9195e-06	2.8761e-06	1241.6	321.14	2.8392e-06	2.803e-06	358.67	117.76	98.046	34.649	3.075e-06	42.46	-7.820	86.438	150.596	-62.773	-0.453	126.180	-62.814	-57.860	43.242	204.579	-58.464	-54.226	-53.781	-48.920	122.501	-49.851	-8191	255	
2046.895	1	1	0	0	0.087514	0.20891	0.082676	0.22852	0.21771	0.089894	0.14163	0.029344	0.2159	0.18877	0.17884	0.087161	0.19385	0.13753	0.067858	0.11252	-4.1104	-3.925	-4.0354	-4.5563	-3.7833	-4.3729	-4.4	-4.0583	-4.4417	-3.9542	-4.1917	-4.45	-3.8708	-4.3479	-4.2958	-3.9583	-22.954	178.333	-13.740	261.778	-7.582	106.389	236.669	147.065	62.694	194.579	-69.290	230.617	180.198	137.924	64.165	87.606	0.00021984	0.00013915	8.1334e-05	1343.8	2.0054e-06	1.993e-06	1349.5	356.13	2.3899e-06	3.8478e-06	411.39	136.39	118.51	40.903	2.6549e-06	50.556	0.00024999	0.00025827	7.7743e-05	1210.7	2.6581e-06	2.8708e-06	1233.3	317.1	2.6514e-06	2.8781e-06	354.97	116.58	97.28	34.991	3.0246e-06	42.287	139.668	73.916	-21.237	-62.547	-23.135	157.543	-62.903	-58.035	16.395	244.623	-58.524	-54.280	-53.853	-48.937	14.809	-50.164	-8191	255	
2046.967	1	1	0	0	0.1153	0.13818	0.30563	0.076831	0.19437	0.019758	0.26539	0.14423	0.12646	0.14295	0.187	0.26159	0.2662	0.098047	0.10166	0.17751	-3.9562	-4.1354	-4.0292	-4.5333	-3.9125	-4.1958	-4.4375	-4.0125	-4.4896	-3.9896	-4.2125	-4.3833	-3.9583	-4.2167	-4.2937	-3.9479	201.234	202.310	122.204	46.821	204.427	39.543	137.107	44.097	23.566	-66.072	205.966	244.399	249.966	281.633	241.111	214.136	0.00052702	0.00030871	7.84e-05	1347.3	2.0346e-06	3.6144e-06	1354.4	357.25	2.149e-06	3.3781e-06	409.69	136.61	117.91	40.895	1.2431e-06	50.74	0.00024911	0.00027991	7.8364e-05	1215.4	2.7492e-06	3.1547e-06	1238.5	318.47	2.8176e-06	3.1603e-06	356.74	117.37	98.66	35.563	3.0627e-06	42.309	97.622	136.101	-32.190	-62.480	201.950	175.625	-62.810	-57.894	241.161	149.424	-58.519	-54.290	-53.888	-49.068	23.336	-50.080	-8191	255	
2047.063	1	1	0	0	0.04619	0.27454	0.055699	0.24652	0.16004	0.2223	0.26489	0.13194	0.24783	0.05529	0.23763	0.10931	0.22446	0.17659	0.096947	0.071963	-3.9	-4.0563	-4.0062	-4.5479	-3.9667	-4.1062	-4.5563	-3.9854	-4.5333	-4.1104	-4.1542	-4.6937	-3.9688	-3.9583	-4.4167	-3.9417	-59.900	135.078	-74.502	173.055	14.371	102.853	212.550	204.345	281.310	163.470	-4.391	-62.630	202.407	238.748	189.748	241.531	0.00067195	0.0003873	0.00012242	1347.2	3.7205e-06	2.6674e-06	1350.5	355.72	1.1967e-06	3.6274e-06	410.63	135.74	118.01	41.113	2.2359e-06	50.657	0.00026468	0.00029282	7.7577e-05	1212.9	2.9157e-06	3.2359e-06	1236	317.14	3.0202e-06	3.2415e-06	356.21	116.69	100.26	35.687	3.0801e-06	42.152	104.212	-46.952	-46.960	-62.719	120.203	271.303	-63.009	-58.037	206.399	38.461	-58.508	-54.053	-53.566	-49.219	2.634	-49.970	-8191	255	
2047.184	1	1	0	0	0.2299	0.26857	0.15767	0.16043	0.11186	0.16254	0.14831	0.15858	0.20777	0.058431	0.049327	0.083738	0.049649	0.14463	0.099267	0.022681	-4.175	-4.1458	-3.9688	-4.6729	-4.1062	-4.1917	-4.625	-4.0333	-4.3708	-4.1833	-3.9083	-4.5188	-4.0813	-4.1417	-4.4896	-4.0542	78.453	154.917	27.697	205.297	5.359	-71.911	222.229	219.235	279.379	265.339	-19.455	216.652	-55.774	229.084	215.737	27.835	0.00074542	0.0001628	7.7255e-05	1341	1.8525e-06	1.6027e-06	1346.8	355.65	5.021e-06	2.6963e-06	409.43	135.92	118.1	40.736	2.2015e-07	50.168	0.00028692	0.00029409	7.6505e-05	1204	3.0542e-06	3.1125e-06	1223.5	314.43	3.0007e-06	2.9505e-06	348.49	114.6	98.723	34.406	2.6171e-06	40.898	75.968	-41.624	-30.889	-62.733	167.932	-1.040	-62.917	-58.134	174.484	32.603	-58.532	-54.585	-53.378	-49.075	-23.558	-49.993	-8191	255	
2047.280	1	1	0	0	0.30483	0.1708	0.28478	0.15526	0.15021	0.30815	0.066526	0.1694	0.094493	0.090831	0.25978	0.22482	0.21413	0.06629	0.2312	0.072147	-3.9313	-4.25	-3.9021	-4.4604	-4.0646	-3.9875	-4.6229	-3.9271	-4.1333	-4.3208	-3.9792	-4.3729	-4.2146	-3.9354	-4.3938	-4.2521	11.228	45.908	102.359	240.091	156.883	223.428	56.209	210.222	-55.107	102.061	233.699	230.828	262.498	190.018	-54.581	181.158	0.00060475	6.751e-05	7.2896e-05	1337.8	3.3026e-06	2.8395e-06	1336.5	353.45	1.34e-06	3.1602e-06	406.3	134.93	117.86	40.521	3.7708e-06	50.041	0.00025602	0.00024556	6.348e-05	1184.5	2.7276e-06	2.6116e-06	1196.3	308.88	2.7099e-06	2.5621e-06	339.7	113.19	97.088	33.718	2.3845e-06	40.727	55.871	1.144	-43.252	-62.604	169.481	-23.223	-62.727	-57.922	-48.799	12.378	-58.578	-54.290	-53.560	-49.057	23.573	-49.886	-8191	255	
2047.376	1	1	0	0	0.082618	0.039379	0.15974	0.19729	0.15077	0.04045	0.025749	0.2717	0.25953	0.28903	0.10339	0.17144	0.19346	0.23653	0.062898	0.23641	-4	-4.3875	-3.9062	-4.4229	-3.9854	-3.8646	-4.5188	-4.0229	-4.0333	-4.3875	-3.9979	-4.4437	-4.2604	-3.8167	-4.3917	-4.1479	32.871	84.921	-19.045	202.678	116.544	147.557	0.757	-67.256	254.052	221.037	238.467	-45.285	141.887	-75.488	137.710	80.142	0.00046306	0.00017434	5.3219e-05	1332.8	5.5025e-07	2.4347e-06	1337.1	353.54	8.0803e-07	4.682e-06	407.06	135.26	117.1	40.52	1.0533e-06	50.104	0.00024626	0.00023276	5.9862e-05	1186.6	2.7023e-06	2.5547e-06	1192.9	311.66	2.7276e-06	2.5936e-06	339.82	114.95	97.348	33.915	2.4758e-06	41.788	137.006	-13.481	279.201	-62.803	221.479	-10.899	-62.754	-57.785	25.212	29.635	-58.518	-54.072	-53.762	-49.140	157.859	-49.945	-8191	255	
2047.472	1	1	0	0	0.10127	0.028347	0.30306	0.30289	0.21268	0.23736	0.25169	0.27498	0.17954	0.097216	0.06221	0.12555	0.14183	0.18426	0.043974	0.21029	-3.6813	-4.2167	-3.7917	-4.3104	-4.2417	-3.9792	-4.4708	-4.0083	-4.0896	-4.3333	-4.1146	-4.4708	-4.3438	-3.7562	-4.4917	-4.1438	51.056	188.353	249.747	-49.151	-31.482	76.943	241.445	246.550	252.505	73.951	-7.048	140.560	-46.292	228.626	35.511	265.468	0.00014405	0.0001868	5.6879e-05	1333.5	3.4287e-06	3.4615e-06	1338.3	355.71	3.4465e-06	4.1283e-06	406.98	136.15	117.83	40.604	4.7359e-06	50.443	0.00025744	0.00024405	6.4659e-05	1205.4	2.8905e-06	2.7467e-06	1207.7	319.04	2.9657e-06	2.8111e-06	347.74	118.57	99.495	34.445	2.8332e-06	43.072	212.483	-49.253	63.038	-62.620	-11.076	4.583	-62.811	-58.112	73.567	35.806	-58.546	-54.397	-53.755	-49.127	192.580	-49.984	-8191	255	
2047.566	1	1	0	0	0.060696	0.061161	0.068316	0.086125	0.24872	0.08215	0.13717	0.16837	0.13353	0.088181	0.23767	0.14789	0.068901	0.18296	0.10698	0.14269	-3.7917	-4.4417	-3.8479	-4.5146	-4.2688	-3.7729	-4.45	-4.1083	-3.9313	-4.4083	-4.3271	-4.3271	-4.3063	-3.7604	-4.2625	-4.1458	-45.829	-39.931	94.561	212.039	32.693	83.182	204.958	247.212	61.478	127.758	62.666	203.167	253.962	264.735	242.664	251.054	0.00040428	0.00029389	9.8611e-05	1335.4	1.233e-06	4.3537e-06	1337.8	355.25	1.4921e-06	4.465e-06	407.06	135.98	117.55	40.599	2.8198e-06	50.374	0.00027232	0.00025537	7.1641e-05	1215.9	2.9097e-06	2.6842e-06	1213.8	319.13	2.851e-06	2.6454e-06	349.14	117.5	98.156	33.894	2.8402e-06	42.363	157.461	25.338	52.258	-62.677	246.636	14.424	-62.969	-58.016	-57.941	-9.951	-58.263	-54.177	-53.930	-49.266	171.183	-49.952	-8191	255	
2047.663	1	1	0	0	0.10657	0.44437	0.1669	0.16094	0.16644	0.22749	0.13747	0.089293	0.26393	0.1332	0.14209	0.14528	0.1156	0.10062	0.24731	0.12546	-3.5771	-4.3708	-4.0042	-4.2292	-4.3021	-3.9479	-4.5104	-4.3958	-3.9313	-4.1792	-4.225	-4.1937	-4.3625	-3.9688	-4.3187	-4.4208	90.540	-63.889	-7.624	239.022	235.574	-2.132	237.556	176.415	249.421	182.497	186.293	274.596	199.462	270.271	11.333	-54.467	0.00013891	0.00040412	9.5931e-05	1336.4	1.5654e-06	1.6505e-06	1337.2	355.73	4.4861e-06	1.5094e-06	405.93	135.98	117.25	40.62	2.7172e-06	50.121	0.00025195	0.00023441	7.1486e-05	1203.2	2.716e-06	2.5077e-06	1213.5	315.41	2.627e-06	2.4766e-06	347.65	115.21	95.965	33.412	2.7429e-06	41.332	78.551	-1.795	18.601	-62.629	-70.358	201.432	-62.763	-57.979	1.944	224.507	-58.486	-54.122	-53.813	-48.722	149.237	-49.856	-8191	255	
2047.783	1	1	0	0	0.30694	0.043607	0.25267	0.21056	0.14132	0.04123	0.060905	0.23487	0.23953	0.066955	0.13338	0.11551	0.15039	0.21103	0.20541	0.17706	-3.4437	-4.2188	-4.0417	-4.1125	-4.3271	-3.8917	-4.4458	-4.4437	-3.8917	-4.2583	-4.2854	-4.0042	-4.4771	-4.0021	-4.1396	-4.4479	80.805	154.726	-27.268	238.801	46.636	69.045	124.129	252.084	-5.175	69.020	180.748	-70.219	-43.125	267.510	-8.692	165.743	0.00036036	1.599e-05	3.975e-05	1335.5	5.528e-06	7.1886e-07	1333.5	353.56	1.984e-06	1.9345e-06	405.77	135.31	117.68	40.426	1.4405e-06	50.289	0.00022489	0.00021965	6.799e-05	1187	2.4026e-06	2.3726e-06	1203.5	310.34	2.3349e-06	2.3884e-06	343.87	113.34	94.238	33.319	2.5944e-06	40.711	158.151	243.793	4.370	-62.670	-22.116	57.282	-62.901	-57.881	57.025	178.747	-58.594	-53.887	-53.520	-49.263	72.156	-50.063	-8191	255	
2047.879	1	1	0	0	0.066949	0.051611	0.012292	0.12478	0.056461	0.044093	0.11254	0.19286	0.19174	0.053172	0.093316	0.15281	0.098027	0.2996	0.26102	0.18363	-3.6229	-4.2708	-4.1479	-4.0563	-4.3333	-4.025	-4.3063	-4.525	-3.7313	-4.2667	-4.4146	-4.1229	-4.4271	-4.0125	-4.1125	-4.5771	105.428	170.622	121.962	252.578	127.328	-17.200	206.472	264.274	175.806	103.422	-45.430	-39.528	89.108	270.631	72.035	153.482	0.00030606	0.00023444	0.0001067	1331.1	2.8117e-06	7.2515e-07	1333.4	353.85	3.1551e-06	1.0902e-06	405.09	135.13	117.05	40.579	4.3774e-06	50.362	0.00020649	0.00021973	6.4502e-05	1175.4	2.2263e-06	2.4133e-06	1195	308.57	2.218e-06	2.4783e-06	341.95	112.49	93.755	33.576	2.522e-06	40.53	147.676	174.988	273.227	-62.545	-34.428	9.475	-62.775	-57.871	120.229	248.800	-58.476	-54.074	-53.580	-49.063	15.006	-49.906	-8191	255	
2047.976	1	1	0	0	0.17252	0.099341	0.19667	0.090851	0.0069147	0.11536	0.20955	0.1773	0.19299	0.19969	0.049463	0.061584	0.263	0.23602	0.24583	0.071942	-3.3771	-4.2292	-4.1917	-4.0667	-4.3375	-4.0708	-3.9979	-4.5708	-3.9354	-4.2521	-4.4125	-3.9667	-4.4396	-4.2417	-4.0604	-4.6625	-9.611	5.454	80.868	269.736	93.579	242.682	175.807	212.986	114.737	110.169	72.076	247.759	8.031	267.706	-39.973	-67.382	0.00065649	0.00010863	5.5134e-05	1331.8	3.9283e-06	2.2434e-06	1332.5	354.12	1.9275e-06	6.8451e-07	406.79	135.64	116.82	40.487	1.1856e-06	50.222	0.00020451	0.00023214	6.3296e-05	1173.4	2.2696e-06	2.5464e-06	1192.8	307.58	2.2863e-06	2.5857e-06	341.2	112.12	94.258	33.703	2.4575e-06	40.261	94.666	101.268	-70.025	-62.500	116.286	67.298	-62.798	-57.890	124.896	243.412	-58.506	-54.430	-53.540	-49.191	-58.357	-49.681	-8191	255	
2048.072	1	1	0	0	0.29102	0.059415	0.11765	0.14793	0.10424	0.092555	0.11468	0.18396	0.13165	0.15558	0.1143	0.15157	0.21514	0.14254	0.17066	0.3576	-3.6417	-4.225	-4.3396	-4.0604	-4.3792	-4.0687	-4.0479	-4.5375	-3.9958	-4.1	-4.4646	-4.0479	-4.4167	-4.2396	-4.0021	-4.6125	-46.566	264.866	7.764	-72.798	-34.207	178.814	70.721	22.230	150.081	180.324	147.933	199.114	138.802	196.876	237.037	257.460	0.00035342	0.0001954	6.668e-05	1330.3	2.1087e-06	1.9871e-06	1333.1	354.28	3.2882e-06	3.2094e-06	405.5	135.4	116.92	40.582	1.8151e-06	50.017	0.00021291	0.00023495	6.1549e-05	1166.8	2.359e-06	2.5276e-06	1188.8	306	2.3629e-06	2.512e-06	338.66	111.18	94.85	33.478	2.3455e-06	39.855	125.431	32.079	2.318	-62.668	163.967	263.477	-62.786	-57.843	170.199	-27.095	-58.483	-54.241	-53.418	-49.182	81.618	-50.173	-8191	255	
2048.168	1	1	0	0	0.19919	0.22309	0.089045	0.14888	0.096701	0.20834	0.27168	0.22315	0.009908	0.21311	0.11601	0.22711	0.10295	0.025784	0.18147	0.01724	-3.6521	-4.0437	-4.2438	-4.0271	-4.2417	-4.1104	-4.0646	-4.4729	-4.0188	-4.1042	-4.5062	-3.9417	-4.3229	-4.3771	-3.8042	-4.4375	66.335	216.576	-32.319	175.100	-52.403	9.532	231.116	-69.097	196.553	114.219	-28.819	257.824	236.017	-26.643	264.830	155.495	0.00070962	9.4537e-05	8.7421e-05	1326.4	2.8355e-06	2.4077e-06	1329.7	352.99	1.5384e-06	1.2398e-06	404.73	134.79	117.21	40.467	4.4363e-06	50.11	0.00021819	0.00022322	5.8719e-05	1159.3	2.4189e-06	2.4175e-06	1181.3	304.91	2.4176e-06	2.4008e-06	335.87	110.83	95.099	33.234	2.2297e-06	39.873	66.076	7.446	-42.914	-62.668	164.008	-48.324	-62.548	-57.984	275.580	126.278	-58.411	-54.127	-53.726	-48.862	72.125	-49.820	-8191	255	
2048.264	1	1	0	0	0.19437	0.10862	0.026657	0.197	0.2515	0.046253	0.21979	0.20877	0.15645	0.069331	0.19964	0.20194	0.11254	0.085619	0.14876	0.093027	-3.5604	-4.0375	-4.2917	-4.2312	-4.0208	-4.1813	-4.0104	-4.2458	-4.2333	-4.0188	-4.5417	-4.0687	-4.1792	-4.4979	-3.7708	-4.3667	-36.668	275.852	255.958	-72.406	283.853	-9.681	203.503	226.308	-25.220	-2.923	236.020	152.778	71.070	234.605	55.313	144.705	0.00032986	0.00037612	0.00010973	1326	2.0502e-06	1.8687e-06	1326.4	353.78	1.2588e-06	8.7059e-07	407.1	134.37	116.89	40.463	2.8454e-06	49.79	0.00022379	0.00021584	5.6416e-05	1163.5	2.4638e-06	2.3384e-06	1177.3	305.97	2.4529e-06	2.3372e-06	334.17	111.5	95.087	33.068	2.1441e-06	40.148	52.977	-52.556	-67.295	-62.563	199.660	7.788	-62.643	-57.827	-17.520	275.009	-58.337	-54.193	-53.381	-49.165	44.205	-49.963	-8191	255	
2048.360	1	1	0	0	0.059953	0.019401	0.17482	0.18082	0.14887	0.047877	0.070153	0.1961	0.12845	0.19125	0.046722	0.11931	0.035462	0.17916	0.073277	0.19269	-3.8521	-3.9021	-4.3542	-3.9938	-4.1292	-4.4104	-4.1042	-4.3479	-4.0604	-3.8479	-4.4417	-4.0396	-4.0646	-4.4896	-3.8042	-4.2812	203.013	-10.649	281.700	-6.540	121.098	237.715	236.930	259.047	94.290	101.992	223.172	113.506	-21.127	238.738	122.736	242.802	0.00034683	9.61e-05	5.734e-05	1327.4	4.0705e-06	2.8863e-06	1328.4	353.31	1.2823e-06	4.0941e-06	405.58	135.43	117.15	40.221	1.1141e-06	50.018	0.00022046	0.00020858	5.4006e-05	1167.3	2.3981e-06	2.2691e-06	1173.1	307.41	2.3811e-06	2.2622e-06	332.93	112.39	94.72	32.949	2.1291e-06	40.569	94.124	8.053	-60.394	-62.553	-49.387	-11.489	-62.865	-57.940	68.304	-3.822	-58.425	-54.102	-53.455	-49.157	141.225	-49.681	-8191	255	
2048.456	1	1	0	0	0.17878	0.31411	0.17829	0.18792	0.12011	0.28686	0.13449	0.2317	0.095164	0.20758	0.12704	0.13448	0.055332	0.23222	0.062794	0.18153	-3.8458	-3.8146	-4.3396	-4.0687	-4.0208	-4.55	-4.1667	-4.4625	-4.1417	-3.9542	-4.3958	-4.3083	-4.0792	-4.3875	-3.8521	-4.2958	103.221	44.301	9.134	256.626	216.126	175.242	-0.809	-72.185	48.965	164.542	243.868	110.320	144.072	162.119	184.870	198.078	0.00028611	0.00046562	7.7391e-05	1326.6	2.1645e-06	2.5604e-06	1326.2	352.74	4.2165e-06	2.5995e-06	405.65	134.54	116.86	40.422	1.3351e-06	50.078	0.00021691	0.00020366	5.4574e-05	1173.9	2.3443e-06	2.2061e-06	1173.4	308.48	2.3097e-06	2.1601e-06	334.03	112.4	94.015	32.67	2.1768e-06	40.531	88.618	-35.839	65.072	-62.536	-44.057	7.479	-62.649	-57.760	18.427	20.041	-58.683	-54.242	-53.564	-49.186	212.898	-49.986	-8191	255	
2048.575	1	1	0	0	0.077887	0.18268	0.11305	0.32908	0.23398	0.23676	0.12948	0.084697	0.21459	0.21322	0.09886	0.092825	0.26227	0.16884	0.18671	0.26257	-3.9604	-3.8917	-4.2771	-4.2542	-3.8958	-4.3021	-4.1271	-4.0854	-4.425	-3.8854	-4.55	-4.3187	-3.8208	-4.5687	-3.8521	-4.1937	90.163	46.192	246.684	266.710	207.488	111.124	267.859	219.103	256.199	4.765	179.058	105.985	-48.914	-4.341	271.624	196.060	0.00035735	0.00023983	3.3747e-05	1327.1	1.6663e-06	2.5448e-06	1328.8	353.93	3.8558e-07	2.1591e-06	406.3	134.37	116.99	40.179	2.7485e-06	50.102	0.00020942	0.00019435	5.6828e-05	1173.5	2.2767e-06	2.1262e-06	1180.6	308.18	2.2675e-06	2.0888e-06	336.44	112.22	93.676	32.503	2.3044e-06	40.427	99.658	-59.737	47.056	-62.559	75.849	24.701	-62.699	-57.946	-68.826	12.823	-58.373	-54.133	-53.383	-49.070	59.639	-49.896	-8191	255	
2048.671	1	1	0	0	0.15696	0.078743	0.34017	0.096918	0.18555	0.145	0.30559	0.19148	0.030178	0.025528	0.021389	0.098235	0.060785	0.14983	0.27911	0.11619	-4.1979	-3.8708	-4.3271	-4.3938	-3.8833	-4.4417	-4.1083	-4.0958	-4.3979	-3.9146	-4.3375	-4.1875	-3.9479	-4.4021	-3.8479	-4.1604	88.935	231.437	-19.284	266.379	232.113	2.128	200.335	260.253	138.155	112.764	-53.665	176.705	121.549	113.635	-21.119	230.840	0.00015327	0.00027306	8.8196e-05	1327.5	4.63e-06	2.1026e-06	1331.7	352.99	2.7764e-06	4.3657e-06	404.22	135.42	116.8	40.445	5.1337e-07	50.097	0.00020457	0.0001887	5.9298e-05	1169.5	2.1875e-06	2.0799e-06	1185.9	306.4	2.1725e-06	2.0655e-06	337.49	111.48	92.789	32.573	2.3446e-06	40.094	170.480	282.460	90.699	-62.653	0.602	255.414	-62.800	-57.831	-10.900	-65.725	-58.391	-54.360	-53.784	-49.248	159.182	-50.059	-8191	255	
2048.767	1	1	0	0	0.22348	0.25242	0.19799	0.16141	0.16395	0.073343	0.27563	0.2703	0.15583	0.22823	0.16443	0.17531	0.26308	0.079889	0.30518	0.13878	-4.1083	-3.9	-4.1312	-4.3229	-3.9396	-4.3958	-4.1979	-4.1479	-4.4979	-3.9292	-4.0563	-4.5625	-3.825	-4.3792	-4.1208	-3.9854	198.483	151.907	29.320	192.725	273.166	2.481	156.176	219.625	24.173	278.066	243.348	269.699	114.404	223.801	107.964	274.937	0.00024791	9.8846e-05	4.81e-05	1328.6	2.8769e-06	9.9299e-07	1327.3	353.74	5.4737e-07	1.9874e-06	406.28	135.23	116.81	40.325	3.3945e-06	50.064	0.00019633	0.00019335	6.0429e-05	1166.6	2.1195e-06	2.1831e-06	1185.6	306.17	2.1321e-06	2.2013e-06	338.87	111.49	92.415	32.86	2.3684e-06	40.032	158.698	225.006	2.407	-62.452	15.132	91.600	-62.949	-57.965	-67.967	189.720	-58.639	-53.990	-53.812	-48.888	4.077	-50.001	-8191	255	
2048.864	1	1	0	0	0.30462	0.2989	0.10409	0.17765	0.14514	0.036575	0.30975	0.20823	0.17381	0.19673	0.099865	0.11841	0.13583	0.037117	0.13371	0.20239	-3.9917	-3.7375	-4.1062	-4.2875	-3.7708	-4.1646	-4.4167	-4.0458	-4.4688	-4.1021	-4.0917	-4.4	-3.8958	-4.3167	-4.2979	-3.9167	260.158	266.006	267.399	240.758	23.648	165.173	240.129	278.849	94.609	79.790	-4.664	127.817	-22.878	-71.382	272.750	186.484	0.00028471	9.4216e-05	8.8031e-05	1330.4	4.5149e-07	2.0856e-07	1328.7	352.55	1.4574e-06	1.8888e-06	404.99	134.97	117.06	40.411	2.0297e-06	50.394	0.00019142	0.00020549	6.0098e-05	1165.5	2.0679e-06	2.3076e-06	1185.6	305.23	2.0934e-06	2.2989e-06	337.38	111.2	92.315	33.151	2.3121e-06	39.827	118.713	111.361	-38.448	-62.532	42.826	-73.551	-62.768	-57.857	-48.232	175.722	-58.448	-54.185	-53.715	-49.084	-31.167	-49.949	-8191	255	
2048.960	1	1	0	0	0.040499	0.15347	0.20414	0.37097	0.13088	0.089296	0.25119	0.10305	0.20151	0.079894	0.095602	0.080557	0.33194	0.11325	0.098828	0.27132	-4.1021	-4.0646	-3.9062	-4.475	-3.8104	-4.1646	-4.4625	-3.9167	-4.4313	-4.1229	-4.1792	-4.4396	-4.0542	-4.2042	-4.25	-3.9208	180.243	221.541	116.795	265.576	73.907	248.275	237.690	198.676	35.980	42.954	-57.883	73.754	249.359	2.979	50.560	186.081	0.00025702	4.2371e-05	7.2869e-05	1331.1	4.3397e-06	3.1044e-06	1328.7	352.78	2.1568e-06	2.7117e-06	404.99	134.94	116.29	40.376	1.7096e-06	49.921	0.00019188	0.00021353	5.8369e-05	1162.9	2.0886e-06	2.3613e-06	1182	303.7	2.1069e-06	2.3109e-06	335.01	109.92	92.197	32.977	2.1731e-06	39.249	84.759	195.027	266.123	-62.622	204.534	121.626	-62.815	-57.627	137.796	139.559	-58.636	-53.999	-53.855	-48.944	152.497	-50.044	-8191	255	
2049.056	1	1	0	0	0.10006	0.32492	0.17169	0.11147	0.13723	0.18382	0.045104	0.086868	0.031723	0.1421	0.23095	0.082557	0.11361	0.16826	0.23405	0.34014	-4.0917	-4.2708	-4.0354	-4.5042	-3.7208	-4.0854	-4.4625	-4.0854	-4.1958	-4.1854	-4.1292	-4.4375	-4.1687	-3.9875	-4.2458	-3.9104	39.389	-30.957	0.002	216.578	35.687	25.932	39.818	245.334	-14.089	273.579	264.611	250.762	273.189	164.722	80.409	218.640	0.00033855	0.00021471	5.9536e-05	1325.2	4.777e-06	1.5563e-06	1323.5	352.69	1.6021e-06	5.0357e-06	406.3	134.9	116.77	40.585	3.0349e-06	49.983	0.00019334	0.00020662	5.4715e-05	1152.4	2.115e-06	2.2698e-06	1173	301.64	2.1792e-06	2.2642e-06	333.3	109.48	93.086	32.946	2.1534e-06	39.144	89.003	17.937	283.520	-62.686	117.808	-45.181	-62.681	-57.984	150.119	45.707	-58.399	-54.221	-53.460	-48.892	19.412	-49.771	-8191	255	
2049.152	1	1	0	0	0.22964	0.23748	0.053934	0.34613	0.22205	0.20909	0.2203	0.25664	0.095825	0.11836	0.14066	0.32088	0.079835	0.1296	0.10057	0.15644	-3.925	-4.2104	-3.7583	-4.5083	-4.0479	-4.2333	-4.4792	-3.9938	-4.2958	-4.3333	-4.025	-4.5396	-4.2812	-4.2042	-4.4938	-3.9562	116.760	139.283	11.528	238.556	158.658	228.691	204.266	183.968	-35.622	66.943	209.448	189.677	-62.005	-72.399	60.686	192.297	0.00050249	0.0001748	9.7465e-05	1326.9	8.6316e-07	4.0499e-06	1330.8	352.32	2.894e-06	4.0235e-06	405.02	135.12	116.87	40.474	3.4554e-06	49.975	0.00020701	0.0002063	5.4221e-05	1154.9	2.2755e-06	2.2648e-06	1174.5	302.3	2.338e-06	2.2746e-06	333.15	110.32	94.269	33.018	2.1707e-06	39.602	75.020	-2.600	5.238	-62.541	-43.225	276.591	-62.687	-57.993	169.577	42.026	-58.557	-54.082	-53.419	-48.856	7.248	-49.865	-8191	255	
2049.273	1	1	0	0	0.11268	0.060326	0.15001	0.092731	0.26715	0.080314	0.34824	0.41259	0.10671	0.26125	0.098947	0.24046	0.30038	0.088037	0.15415	0.17428	-3.9104	-4.2667	-3.8438	-4.5875	-3.9417	-4.0292	-4.5062	-3.9646	-3.9833	-4.3313	-4.0479	-4.3562	-4.0875	-3.975	-4.3375	-4.1125	119.747	77.477	91.676	126.595	39.594	-29.317	195.488	255.111	146.385	1.304	-51.013	270.440	246.686	-48.258	-29.062	185.589	0.0001744	0.00029048	0.00011101	1328	3.4904e-06	3.783e-06	1329.3	353	8.7448e-07	4.0194e-06	405.45	135.09	117.36	40.4	5.5287e-06	50.08	0.00022028	0.00020949	5.4377e-05	1164.1	2.3873e-06	2.281e-06	1175.2	304.87	2.4017e-06	2.2719e-06	331.75	111.3	94.592	32.863	2.0904e-06	40.008	120.009	-7.811	-58.367	-62.699	103.785	-25.665	-62.930	-57.990	194.695	-55.056	-58.538	-54.053	-53.618	-49.090	36.469	-50.102	-8191	255	
2049.367	1	1	0	0	0.11353	0.18733	0.25935	0.11206	0.1611	0.047094	0.29419	0.1617	0.16766	0.1579	0.11561	0.19898	0.23724	0.2261	0.10171	0.26169	-3.7438	-4.2625	-3.875	-4.3292	-4.125	-4.0312	-4.6062	-4.1375	-4.05	-4.1937	-3.8604	-4.2438	-4.3104	-3.9813	-4.3729	-3.9688	7.651	-32.131	35.900	259.013	31.211	77.890	209.181	276.415	-43.816	45.423	-18.576	273.497	276.162	-69.645	169.165	258.637	0.00015246	0.00032484	4.0567e-05	1329.1	2.5084e-06	4.3315e-06	1327.1	352.41	2.8276e-06	5.2434e-06	405.25	134.56	116.8	40.494	2.1842e-06	50.014	0.00021491	0.00020354	5.1819e-05	1167.8	2.3108e-06	2.1868e-06	1171.8	306.26	2.3263e-06	2.2221e-06	331.7	112.03	94.249	32.797	2.1274e-06	40.385	94.340	-19.200	-55.306	-62.611	7.074	15.509	-62.706	-57.819	20.589	4.596	-58.510	-54.071	-53.434	-48.921	122.661	-49.743	-8191	255	
2049.465	1	1	0	0	0.080673	0.1807	0.072012	0.12018	0.16723	0.12184	0.27521	0.24634	0.13945	0.1111	0.24232	0.13783	0.091513	0.16164	0.314	0.067791	-3.7104	-4.3479	-3.9479	-4.2542	-4.0813	-3.7667	-4.5958	-4.2583	-4.0687	-4.5021	-3.9333	-4.3979	-4.3812	-4.075	-4.3396	-4.4125	56.368	193.400	34.789	61.199	186.301	178.211	208.286	172.546	123.187	-51.289	223.716	238.338	252.224	-59.779	146.174	-11.708	0.0002773	0.00056853	3.7406e-05	1325.9	2.9681e-06	2.7728e-06	1327.9	352.75	3.1103e-06	4.6818e-06	404.25	134.87	117.56	40.526	4.6806e-06	50.172	0.00021403	0.00020168	5.3874e-05	1175.8	2.3329e-06	2.1804e-06	1180.2	308.15	2.3315e-06	2.1967e-06	334.58	113	94.342	32.728	2.2716e-06	40.733	125.882	-32.208	45.055	-62.401	-43.095	6.457	-62.843	-57.990	-21.741	3.267	-58.667	-54.170	-53.565	-49.018	147.651	-49.765	-8191	255	
2049.561	1	1	0	0	0.17177	0.21489	0.098118	0.20162	0.14332	0.26434	0.18237	0.10636	0.10782	0.33072	0.078777	0.15384	0.00667	0.063955	0.11781	0.051755	-3.4354	-4.3938	-3.9562	-4.4021	-4.2958	-3.7521	-4.4708	-4.4104	-3.875	-4.3938	-4.0021	-4.0396	-4.3979	-3.9	-4.2042	-4.225	47.966	-30.276	115.553	232.761	72.890	186.794	274.126	259.801	49.648	114.611	255.874	-42.722	-29.385	20.155	-25.806	-74.641	0.00011741	0.00014735	8.6276e-05	1333.7	6.6448e-06	3.6599e-06	1331.4	353.88	2.8625e-06	1.6896e-06	406.05	135.46	117.07	40.341	2.6945e-06	49.972	0.00021496	0.00020073	5.8693e-05	1181.2	2.3521e-06	2.1681e-06	1188.5	308.81	2.319e-06	2.144e-06	337.56	112.64	93.857	32.535	2.3486e-06	40.312	59.286	9.555	61.886	-62.578	97.499	18.123	-62.850	-57.988	3.561	65.690	-58.476	-54.298	-53.589	-48.828	78.975	-50.024	-8191	255	
#DATA ENDS
