BOXY.EXE: ISS Imagent and Oximeter Data Acquisition Program Version 0.80
Ascii Record File

#ACQ INFORMATION
2  Detector Channels 
16  External MUX Channels 
1  Auxiliary Channels 
5000  Waveform (CCF) Frequency (Hz)
1  Waveforms Skipped 
30  Waveforms Averaged 
1  Cycles Averaged 
16  Acquisitions per Waveform 
10.0806  Updata Rate (Hz) 

#FILE INFORMATION
TRUE -- External MUX Channel results are PARSED.
FALSE -- AC DC and Phase are NOT grouped.
TRUE -- Companion Program Settings File CREATED.
FALSE -- AC data not excluded
FALSE -- DC data not excluded
FALSE -- Phase data not excluded
FALSE -- Auxillary Chn. data not excluded
Tab delimiters

#CALIBRATION STATE
TRUE -- Waveform Calibration Values APPLIED.


#AUX CALIBRATION VALUES
Val Type	aux-1	

Term	1.0000e+00	
Factor	0.0000e+00	


#WF CALIBRATION VALUES
A = Detector Channel
Val Type	A-AC1	A-AC2	A-AC3	A-AC4	A-AC5	A-AC6	A-AC7	A-AC8	A-AC9	A-AC10	A-AC11	A-AC12	A-AC13	A-AC14	A-AC15	A-AC16	A-DC1	A-DC2	A-DC3	A-DC4	A-DC5	A-DC6	A-DC7	A-DC8	A-DC9	A-DC10	A-DC11	A-DC12	A-DC13	A-DC14	A-DC15	A-DC16	A-Ph1	A-Ph2	A-Ph3	A-Ph4	A-Ph5	A-Ph6	A-Ph7	A-Ph8	A-Ph9	A-Ph10	A-Ph11	A-Ph12	A-Ph13	A-Ph14	A-Ph15	A-Ph16	

Term	0.00000e+00	0.00000e+00	0.00000e+00	0.00000e+00	0.00000e+00	0.00000e+00	0.00000e+00	0.00000e+00	0.00000e+00	0.00000e+00	0.00000e+00	0.00000e+00	0.00000e+00	0.00000e+00	0.00000e+00	0.00000e+00	0.00000e+00	0.00000e+00	0.00000e+00	0.00000e+00	0.00000e+00	0.00000e+00	0.00000e+00	0.00000e+00	0.00000e+00	0.00000e+00	0.00000e+00	0.00000e+00	0.00000e+00	0.00000e+00	0.00000e+00	0.00000e+00	0.00000e+00	0.00000e+00	0.00000e+00	0.00000e+00	0.00000e+00	0.00000e+00	0.00000e+00	0.00000e+00	0.00000e+00	0.00000e+00	0.00000e+00	0.00000e+00	0.00000e+00	0.00000e+00	0.00000e+00	0.00000e+00	
Factor	1.00000e+00	1.00000e+00	1.00000e+00	1.00000e+00	1.00000e+00	1.00000e+00	1.00000e+00	1.00000e+00	1.00000e+00	1.00000e+00	1.00000e+00	1.00000e+00	1.00000e+00	1.00000e+00	1.00000e+00	1.00000e+00	1.00000e+00	1.00000e+00	1.00000e+00	1.00000e+00	1.00000e+00	1.00000e+00	1.00000e+00	1.00000e+00	1.00000e+00	1.00000e+00	1.00000e+00	1.00000e+00	1.00000e+00	1.00000e+00	1.00000e+00	1.00000e+00	X	X	X	X	X	X	X	X	X	X	X	X	X	X	X	X	

B = Detector Channel
Val Type	B-AC1	B-AC2	B-AC3	B-AC4	B-AC5	B-AC6	B-AC7	B-AC8	B-AC9	B-AC10	B-AC11	B-AC12	B-AC13	B-AC14	B-AC15	B-AC16	B-DC1	B-DC2	B-DC3	B-DC4	B-DC5	B-DC6	B-DC7	B-DC8	B-DC9	B-DC10	B-DC11	B-DC12	B-DC13	B-DC14	B-DC15	B-DC16	B-Ph1	B-Ph2	B-Ph3	B-Ph4	B-Ph5	B-Ph6	B-Ph7	B-Ph8	B-Ph9	B-Ph10	B-Ph11	B-Ph12	B-Ph13	B-Ph14	B-Ph15	B-Ph16	

Term	0.00000e+00	0.00000e+00	0.00000e+00	0.00000e+00	0.00000e+00	0.00000e+00	0.00000e+00	0.00000e+00	0.00000e+00	0.00000e+00	0.00000e+00	0.00000e+00	0.00000e+00	0.00000e+00	0.00000e+00	0.00000e+00	0.00000e+00	0.00000e+00	0.00000e+00	0.00000e+00	0.00000e+00	0.00000e+00	0.00000e+00	0.00000e+00	0.00000e+00	0.00000e+00	0.00000e+00	0.00000e+00	0.00000e+00	0.00000e+00	0.00000e+00	0.00000e+00	6.09306e+01	-1.28867e+02	-1.24252e+02	-1.83791e+02	-7.10263e+01	-6.44181e+01	-1.55111e+02	-1.62015e+02	-5.97362e+01	-7.09102e+01	-1.70545e+02	-1.70268e+02	-1.83573e+02	-1.76953e+02	-6.30865e+01	-1.49760e+02	
Factor	6.88653e-05	1.99114e-04	5.52351e-05	1.82487e-01	2.78844e-06	2.19230e-06	1.74721e-01	5.94271e-02	3.46584e-06	1.87842e-06	9.44179e-02	3.29784e-02	3.44525e-02	1.09698e-02	2.67653e-06	1.53179e-02	1.06372e-05	1.32956e-05	3.69939e-06	9.20757e-02	1.38416e-07	1.48277e-07	8.30070e-02	2.99589e-02	1.38529e-07	1.47423e-07	4.64028e-02	1.61447e-02	1.73924e-02	5.58577e-03	1.42191e-07	7.57640e-03	X	X	X	X	X	X	X	X	X	X	X	X	X	X	X	X	



#DISTANCE SETTINGS
A = Detector Channel
A-1	A-2	A-3	A-4	A-5	A-6	A-7	A-8	A-9	A-10	A-11	A-12	A-13	A-14	A-15	A-16	

2.5000e+00	3.0000e+00	2.5000e+00	3.0000e+00	2.0000e+00	3.0000e+00	1.5000e+00	3.0000e+00	3.0000e+00	3.0000e+00	3.0000e+00	3.0000e+00	3.0000e+00	3.0000e+00	1.5000e+00	3.0000e+00	

B = Detector Channel
B-1	B-2	B-3	B-4	B-5	B-6	B-7	B-8	B-9	B-10	B-11	B-12	B-13	B-14	B-15	B-16	

1.0000e+01	1.0000e+01	1.0000e+01	1.4400e+00	1.0000e+01	1.0000e+01	1.5100e+00	1.9400e+00	1.0000e+01	1.0000e+01	1.9900e+00	2.4900e+00	2.4100e+00	2.9000e+00	1.0000e+01	2.9800e+00	




#DATA BEGINS
time	group	step	mark	flag	A-AC1	A-AC2	A-AC3	A-AC4	A-AC5	A-AC6	A-AC7	A-AC8	A-AC9	A-AC10	A-AC11	A-AC12	A-AC13	A-AC14	A-AC15	A-AC16	A-DC1	A-DC2	A-DC3	A-DC4	A-DC5	A-DC6	A-DC7	A-DC8	A-DC9	A-DC10	A-DC11	A-DC12	A-DC13	A-DC14	A-DC15	A-DC16	A-Ph1	A-Ph2	A-Ph3	A-Ph4	A-Ph5	A-Ph6	A-Ph7	A-Ph8	A-Ph9	A-Ph10	A-Ph11	A-Ph12	A-Ph13	A-Ph14	A-Ph15	A-Ph16	B-AC1	B-AC2	B-AC3	B-AC4	B-AC5	B-AC6	B-AC7	B-AC8	B-AC9	B-AC10	B-AC11	B-AC12	B-AC13	B-AC14	B-AC15	B-AC16	B-DC1	B-DC2	B-DC3	B-DC4	B-DC5	B-DC6	B-DC7	B-DC8	B-DC9	B-DC10	B-DC11	B-DC12	B-DC13	B-DC14	B-DC15	B-DC16	B-Ph1	B-Ph2	B-Ph3	B-Ph4	B-Ph5	B-Ph6	B-Ph7	B-Ph8	B-Ph9	B-Ph10	B-Ph11	B-Ph12	B-Ph13	B-Ph14	B-Ph15	B-Ph16	aux-1	digaux	

537.116	1	1	0	256	0.14161	0.076197	0.21074	0.072006	0.1474	0.22652	0.23072	0.1131	0.054312	0.18551	0.19282	0.1504	0.20914	0.19911	0.050588	0.048886	-2.4562	-2.8104	-3.1542	-2.9938	-2.7833	-3.1562	-2.9583	-3.0271	-2.7771	-2.8792	-3.4521	-2.9229	-2.8958	-3.0854	-2.7333	-2.9396	20.622	220.043	122.722	162.720	81.362	266.682	304.506	-20.846	-18.233	333.082	322.224	-18.676	309.664	-5.697	134.928	211.660	0.00039275	0.00029767	0.00011627	1227.9	4.9562e-06	3.6855e-06	1296.1	255.32	8.1129e-06	2.2456e-06	316.59	88.595	69.805	20.533	2.7374e-06	28.708	0.00030453	0.0002986	8.0801e-05	1209.1	3.2121e-06	3.1333e-06	1273.4	253.12	3.2248e-06	3.2344e-06	314.53	88.672	69.712	20.838	3.4603e-06	29.172	324.063	69.285	40.065	-14.905	165.127	144.132	-14.926	-7.849	177.436	142.561	-7.760	-1.347	-0.862	6.026	181.242	5.035	-8191	255	
537.212	1	1	0	0	0.15409	0.14152	0.019527	0.30433	0.12187	0.24719	0.30382	0.082305	0.076947	0.1516	0.13864	0.2424	0.14432	0.069396	0.024386	0.18052	-2.5187	-2.5771	-2.9479	-2.8063	-2.5896	-2.7229	-2.8229	-2.95	-2.8708	-2.9188	-3.2062	-2.7562	-2.7104	-2.9313	-2.8792	-2.8021	269.190	279.622	211.790	-8.371	84.407	31.163	256.424	329.504	289.850	149.008	-4.954	311.373	311.698	-22.934	203.009	13.191	0.00039925	0.0003362	0.00012403	1221.6	5.0557e-06	2.857e-06	1290.6	256.1	8.7274e-06	3.1654e-06	318.88	88.818	70.232	20.761	3.6318e-06	28.85	0.00032412	0.0003366	9.2516e-05	1200.8	3.8754e-06	3.8815e-06	1270.6	253.63	3.8981e-06	3.985e-06	316.11	89.107	70.164	21.012	3.8252e-06	29.288	330.193	58.751	59.593	-14.780	147.949	130.060	-14.880	-7.450	177.553	139.978	-8.254	-1.170	-0.918	5.774	137.000	5.007	-8191	255	
537.308	1	1	0	0	0.111	0.14098	0.23945	0.20246	0.19319	0.13715	0.061612	0.15786	0.089719	0.23534	0.15805	0.043134	0.18645	0.29927	0.095023	0.15667	-2.4146	-2.6229	-3.0771	-2.8396	-2.6417	-3.1375	-2.8167	-2.8125	-2.8771	-2.5812	-2.7833	-2.9583	-2.6542	-2.9813	-2.8063	-2.7792	302.898	115.433	317.658	213.911	275.024	127.428	310.382	242.837	37.605	62.244	300.211	62.900	204.212	253.925	194.533	42.734	0.00036827	0.00028085	9.2641e-05	1228	3.7792e-06	4.1485e-06	1298.6	255.81	4.2781e-06	4.4148e-06	317.63	89.038	70.063	20.675	4.2818e-06	28.891	0.00033334	0.00033904	9.0042e-05	1208.9	3.7257e-06	3.525e-06	1277.7	254.22	3.28e-06	3.2006e-06	316.23	88.96	69.905	20.958	2.8338e-06	29.243	330.265	59.915	87.939	-14.865	162.858	98.642	-14.744	-7.822	194.685	135.873	-8.376	-1.248	-0.643	5.907	130.391	5.430	-8191	255	
537.405	1	1	0	0	0.13032	0.078291	0.066274	0.33961	0.19272	0.25408	0.27574	0.08739	0.07903	0.13736	0.17445	0.14846	0.13995	0.18655	0.19955	0.028991	-2.5187	-2.5479	-2.8625	-2.9125	-2.75	-2.9708	-2.9938	-2.8396	-3.1562	-2.7208	-2.9729	-2.8688	-2.7875	-3.0167	-2.7917	-2.8042	276.127	244.348	71.600	299.916	207.185	51.146	271.421	301.572	19.032	55.212	202.120	327.572	197.319	20.138	270.166	278.749	0.00040023	0.00038761	0.00012252	1229.3	5.4207e-06	3.5848e-06	1289.7	253.76	5.7153e-06	3.0285e-06	315.92	88.533	69.058	20.678	6.7691e-06	28.783	0.00025864	0.00026001	7.0258e-05	1206.4	2.8346e-06	2.5337e-06	1272.7	252.84	2.484e-06	2.387e-06	313.99	88.513	69.272	20.794	2.3192e-06	29.207	328.578	64.918	50.233	-14.808	164.362	126.288	-14.804	-7.718	163.435	94.575	-8.067	-1.173	-0.756	5.627	119.575	5.367	-8191	255	
537.501	1	1	0	0	0.14071	0.20838	0.085243	0.51304	0.14928	0.22219	0.11673	0.21393	0.16592	0.090188	0.14987	0.042865	0.1658	0.18835	0.11778	0.15616	-2.4646	-2.6708	-2.8979	-3.0292	-2.7167	-2.8708	-2.9813	-3.0292	-2.9938	-2.8708	-3.0563	-3.1354	-2.6917	-2.9646	-2.9792	-2.7854	230.183	21.019	132.581	329.232	333.568	316.763	319.771	254.986	257.169	234.053	333.390	-5.370	246.708	230.457	62.540	256.236	0.00039038	0.00046978	0.00012077	1210.4	2.573e-06	3.8877e-06	1272.5	253.04	6.5198e-06	3.8497e-06	314.83	88.063	69.591	20.633	4.6968e-06	28.774	0.00023477	0.000225	6.6281e-05	1189.3	2.843e-06	2.8599e-06	1255.9	251.01	3.142e-06	2.9835e-06	312.72	88.5	69.167	20.854	3.1718e-06	29.253	328.902	85.801	93.264	-14.683	150.578	136.356	-14.933	-7.559	129.569	121.267	-8.093	-1.124	-0.630	5.500	143.939	5.306	-8191	255	
537.597	1	1	0	0	0.22191	0.17957	0.29383	0.13131	0.26159	0.16653	0.24115	0.18491	0.088248	0.15611	0.14645	0.098379	0.33711	0.16756	0.19256	0.035614	-2.6625	-2.7271	-2.6604	-3.0792	-2.6917	-3.0896	-3.0292	-2.8104	-2.9188	-2.8021	-2.85	-3.0479	-2.8479	-2.9437	-2.9979	-2.7521	13.675	123.509	204.192	332.483	88.974	46.991	242.989	121.436	-19.161	197.471	298.966	289.859	224.484	244.329	269.213	32.014	0.00043656	0.0004016	0.00014902	1209.8	3.122e-06	8.7179e-07	1274.9	251.93	4.4976e-06	4.6529e-06	313.91	88.157	69.325	20.529	3.9312e-06	28.78	0.00031267	0.00031488	8.8392e-05	1188.3	3.5945e-06	3.3217e-06	1256.4	250.42	3.2113e-06	3.2117e-06	312.48	88.145	69.048	20.8	3.1525e-06	29.149	324.491	55.789	87.024	-14.951	177.385	140.986	-14.769	-7.852	208.837	122.189	-7.955	-1.201	-0.839	6.020	138.268	4.902	-8191	255	
537.718	1	1	0	0	0.095028	0.074504	0.095129	0.17847	0.027878	0.10121	0.11686	0.11613	0.3088	0.17287	0.3706	0.33326	0.10467	0.18293	0.27653	0.034651	-2.5042	-3.0271	-2.6125	-3.2313	-2.7438	-2.9521	-2.8771	-2.7542	-2.9437	-2.9583	-2.95	-3.0083	-2.9208	-3.0104	-3.0354	-2.8292	40.296	1.785	323.964	155.600	261.718	264.590	330.948	-18.065	4.022	131.887	96.863	-15.284	226.861	191.518	32.049	53.704	0.0004253	0.00030636	0.00013962	1194.2	7.0555e-06	3.5576e-06	1260.8	249.97	8.6774e-06	3.9414e-06	312.51	87.055	68.639	20.375	2.6969e-06	28.507	0.00029268	0.00028117	7.6184e-05	1175.8	3.1144e-06	2.9986e-06	1240.6	248.05	2.981e-06	2.8717e-06	309.33	87.351	68.416	20.604	2.6613e-06	28.929	326.963	50.049	89.276	-14.955	139.313	119.281	-14.687	-7.651	147.258	109.431	-8.076	-0.954	-1.088	5.834	144.443	5.264	-8191	255	
537.812	1	1	0	0	0.24036	0.085943	0.21862	0.11396	0.24918	0.16524	0.36998	0.20262	0.11326	0.096236	0.24317	0.34536	0.32241	0.069336	0.2486	0.15798	-2.5604	-2.8646	-2.6	-3.225	-2.825	-2.8979	-3.0875	-2.7125	-3.0417	-2.9833	-2.8292	-2.9313	-2.9292	-2.8917	-3.0687	-2.7542	187.149	84.748	171.572	212.155	153.498	191.749	286.752	306.549	258.384	15.044	242.312	235.247	18.486	257.407	202.474	296.544	0.00044812	0.00036738	7.6761e-05	1179.4	4.4454e-06	3.5473e-06	1247.4	247.61	7.1357e-06	2.8551e-06	311.2	87.047	68.658	20.403	2.3101e-06	28.498	0.00026972	0.00024206	6.6774e-05	1161	2.7542e-06	2.5803e-06	1228.1	246.16	2.5836e-06	2.5262e-06	307.99	87.262	68.287	20.588	2.4075e-06	28.917	332.431	66.575	93.334	-14.628	127.780	111.635	-14.711	-7.471	147.642	149.341	-8.017	-1.051	-0.824	5.743	158.551	5.060	-8191	255	
537.908	1	1	0	0	0.14599	0.11676	0.24366	0.31938	0.067184	0.12198	0.38595	0.36892	0.079955	0.2133	0.10674	0.22903	0.22418	0.11583	0.12705	0.32813	-2.4	-3.0771	-2.6146	-3.0292	-2.9583	-2.7062	-3.2875	-2.8396	-2.8854	-2.9521	-2.9	-3.0833	-2.9167	-2.6354	-3.0062	-2.9167	65.241	265.389	213.356	294.924	248.186	254.438	307.253	-14.303	129.712	0.737	36.700	304.648	282.540	321.717	299.265	0.944	0.00040114	0.00034211	9.1847e-05	1185.2	2.6471e-06	3.669e-06	1255.6	249.73	3.385e-06	2.6331e-06	310.66	87.433	68.219	20.493	4.5791e-06	28.657	0.00025024	0.00021658	6.0917e-05	1166.1	2.4465e-06	2.3604e-06	1235.1	247.12	2.4367e-06	2.2758e-06	308.54	87.471	68.325	20.615	2.1779e-06	28.978	329.467	78.267	76.223	-14.773	132.375	124.941	-14.759	-7.741	157.734	102.173	-7.624	-1.467	-0.670	5.943	160.282	5.568	-8191	255	
537.982	1	1	0	0	0.28071	0.090791	0.2303	0.30351	0.073664	0.22605	0.26212	0.22295	0.15009	0.074024	0.14379	0.28154	0.11571	0.26315	0.18573	0.31091	-2.5563	-3.0729	-2.7396	-3.0979	-2.8354	-2.9042	-3.2167	-2.8563	-2.7708	-3.1208	-2.5792	-3.125	-2.925	-2.7833	-2.9542	-2.8438	191.499	290.514	115.668	318.055	212.263	218.599	252.949	294.050	100.630	182.661	251.432	287.794	311.329	285.944	177.404	277.022	0.00036195	0.00033723	8.0827e-05	1185.7	4.997e-06	3.4044e-06	1249.7	249.91	3.4318e-06	3.3709e-06	310.58	87.235	68.189	20.404	4.7052e-06	28.74	0.00023112	0.00019617	5.7294e-05	1162.1	2.302e-06	2.3045e-06	1230.4	247.13	2.2999e-06	2.0215e-06	308.63	87.442	68.16	20.596	2.1462e-06	28.971	329.668	97.662	79.368	-14.871	133.171	115.852	-14.650	-7.759	186.935	118.711	-7.955	-1.365	-0.615	5.666	124.756	4.837	-8191	255	
538.100	1	1	0	0	0.14201	0.10799	0.40464	0.16239	0.11651	0.036485	0.27025	0.1424	0.14985	0.17552	0.34065	0.17235	0.19229	0.12891	0.12438	0.1275	-2.4292	-3.0167	-2.7854	-3.1375	-2.9625	-2.5646	-3.0771	-2.9833	-2.7396	-3.0625	-2.7875	-2.9458	-2.9708	-2.7646	-2.9354	-2.875	251.731	130.516	-10.699	279.667	124.801	195.493	241.154	-21.804	217.289	83.758	268.147	315.502	255.152	110.463	271.286	-13.884	0.00042891	0.00023419	0.00012868	1180.2	3.0886e-06	2.9609e-06	1250.8	250.7	7.9224e-06	1.9303e-06	311.07	87.342	68.73	20.483	2.6749e-06	28.582	0.00022398	0.00019007	5.4081e-05	1161.9	2.2172e-06	2.0434e-06	1230.8	247.68	2.3388e-06	2.1481e-06	308.96	87.517	68.492	20.652	2.31e-06	28.979	328.698	107.833	66.089	-14.523	122.577	178.450	-14.707	-7.650	147.912	97.652	-8.098	-1.312	-0.606	5.707	184.401	5.454	-8191	255	
538.197	1	1	0	0	0.17373	0.11532	0.06783	0.020654	0.16343	0.11836	0.22217	0.1527	0.097148	0.057439	0.16582	0.16112	0.16672	0.25015	0.045619	0.23493	-2.5542	-3.0396	-2.7042	-3.0354	-2.9104	-2.8083	-3.0646	-2.9167	-2.725	-2.9521	-2.8667	-2.8458	-2.9729	-2.85	-3.0438	-2.9646	139.054	264.508	239.901	139.192	69.466	243.453	225.378	324.664	37.713	264.599	333.829	256.432	246.602	231.843	321.475	307.691	0.0004434	0.00027135	0.0001015	1196.1	3.4772e-06	4.4906e-06	1270.7	253	6.7625e-06	2.9766e-06	314.96	87.936	69.759	20.755	6.9137e-06	28.834	0.00024452	0.0002219	6.5726e-05	1179.6	2.8205e-06	2.7125e-06	1250.6	250.79	2.8361e-06	2.7697e-06	312.72	88.202	69.347	20.893	3.0094e-06	29.303	332.666	70.585	56.968	-14.878	123.250	131.464	-14.712	-7.634	139.886	65.733	-8.149	-1.411	-1.060	5.582	125.369	5.236	-8191	255	
538.293	1	1	0	0	0.40435	0.20868	0.3613	0.22169	0.14256	0.11711	0.48634	0.28062	0.12078	0.1157	0.082788	0.29385	0.17672	0.2483	0.2614	0.15858	-2.2771	-2.95	-2.6292	-3.0125	-3.0917	-2.7896	-3.1229	-3.0083	-2.6792	-2.9271	-2.8229	-2.675	-3	-2.8729	-3.0229	-2.975	62.840	63.401	50.375	326.188	67.199	265.570	242.290	299.882	161.541	220.921	83.366	218.771	158.926	130.074	-3.014	317.934	0.0004381	0.00031834	0.00013512	1216.1	4.3492e-06	3.699e-06	1287.5	255.47	4.9732e-06	2.511e-06	318.62	89.191	69.691	20.605	7.0005e-06	29.061	0.00029427	0.00027846	7.9244e-05	1199	3.0356e-06	3.1561e-06	1267.3	253.43	2.9071e-06	2.7722e-06	315.8	89.014	69.549	20.892	2.6785e-06	29.299	324.383	93.541	69.600	-14.716	137.270	93.533	-14.692	-7.936	139.059	109.213	-8.076	-1.020	-1.204	5.497	137.637	5.043	-8191	255	
538.389	1	1	0	0	0.06193	0.17857	0.28144	0.23306	0.17834	0.083549	0.30923	0.26947	0.21996	0.30612	0.062126	0.11809	0.28348	0.17853	0.24781	0.20844	-2.2938	-2.9792	-2.7271	-2.8354	-3.1063	-2.7792	-3.0521	-2.9813	-2.6312	-2.9896	-2.8292	-2.6146	-2.9146	-2.7042	-2.9333	-2.8812	175.358	44.245	238.907	-19.194	125.042	287.339	273.756	126.398	37.173	331.723	313.978	108.453	257.890	285.058	150.774	0.551	0.00046343	0.00038397	7.8815e-05	1207.6	3.964e-06	6.0206e-06	1276.8	252.4	5.1087e-06	3.761e-06	314.25	88.18	69.238	20.64	3.9432e-06	28.648	0.00024663	0.00022932	6.4632e-05	1191	2.6114e-06	2.6297e-06	1257.5	250.63	2.7042e-06	2.5308e-06	312.25	88.096	69.049	20.78	2.3918e-06	29.028	318.789	77.531	56.369	-14.753	146.846	132.511	-14.836	-7.645	193.046	121.920	-8.245	-1.508	-0.830	5.985	135.891	5.262	-8191	255	
538.509	1	1	0	0	0.20052	0.1287	0.10043	0.15884	0.18579	0.18838	0.14116	0.38136	0.036742	0.12851	0.20552	0.15513	0.19372	0.16419	0.038386	0.16541	-2.2917	-2.8229	-3.1042	-2.7979	-2.9813	-2.7417	-3.0229	-3.1646	-2.7396	-2.7833	-2.8438	-2.775	-3.175	-2.7021	-2.8521	-3.1104	275.733	183.670	52.149	296.541	284.709	110.638	276.674	325.146	55.638	303.210	233.678	263.420	276.549	-14.991	110.276	289.951	0.00040463	0.00032627	9.4318e-05	1208.4	4.9333e-06	4.592e-06	1275.4	252.26	5.9276e-06	3.3312e-06	312.9	88.614	68.951	20.538	5.6399e-06	28.611	0.00024486	0.00021539	5.963e-05	1189	2.3384e-06	2.2621e-06	1256.6	250.18	2.2318e-06	1.9804e-06	310.29	88.09	68.586	20.703	1.8722e-06	28.983	327.257	79.126	81.108	-14.859	152.077	119.921	-14.618	-7.594	158.465	134.838	-7.801	-1.261	-0.968	5.606	118.113	5.459	-8191	255	
538.606	1	1	0	0	0.16127	0.20563	0.15862	0.18159	0.14536	0.031705	0.17625	0.2419	0.38934	0.039128	0.18816	0.15008	0.1929	0.24055	0.095743	0.10681	-2.2417	-2.8937	-2.8812	-2.8542	-3.0875	-2.9042	-2.8792	-3.1479	-2.7375	-3.0146	-2.9	-2.8812	-3.0229	-2.8146	-2.8354	-3.0563	-23.464	229.021	263.424	248.766	192.086	165.552	272.768	262.352	18.827	219.016	-4.743	249.171	142.775	316.228	236.245	164.843	0.00036309	0.00035567	0.00010205	1181.8	3.1924e-06	2.9603e-06	1250.4	248.59	3.2051e-06	3.3179e-06	310.11	87.944	68.519	20.61	3.9783e-06	28.67	0.00019754	0.000157	4.279e-05	1162.5	1.9171e-06	1.7194e-06	1229.7	246.64	1.8843e-06	1.6484e-06	307.94	87.657	68.336	20.709	1.7495e-06	29.134	325.972	60.377	103.348	-14.703	154.570	136.923	-14.693	-7.852	158.097	122.457	-7.902	-1.225	-0.630	5.380	112.691	5.309	-8191	255	
538.677	1	1	0	0	0.16747	0.17853	0.25137	0.13803	0.27818	0.15844	0.33796	0.13679	0.1275	0.23907	0.31166	0.10679	0.079378	0.20466	0.04723	0.20387	-2.3563	-2.9271	-2.7188	-2.8667	-2.925	-2.9729	-3.0333	-2.9708	-2.6021	-3.05	-3.0104	-2.6854	-3.0042	-2.7979	-2.8708	-3.0333	52.542	311.923	141.282	244.261	292.804	134.348	249.229	272.385	13.644	303.855	263.938	312.511	208.175	144.859	111.463	202.488	0.00041209	0.00032079	9.167e-05	1159.8	3.4731e-06	3.0648e-06	1235	246.64	3.8352e-06	3.6963e-06	306.95	87.279	67.83	20.398	3.455e-06	28.503	0.00018429	0.00014262	3.6493e-05	1145.5	1.6898e-06	1.5056e-06	1211.8	244.67	1.628e-06	1.5169e-06	305.43	87.043	67.737	20.542	1.6767e-06	28.896	325.302	78.475	43.266	-14.787	131.562	144.878	-14.676	-7.460	133.145	124.773	-7.949	-1.120	-0.785	5.830	145.742	5.193	-8191	255	
538.798	1	1	0	0	0.047454	0.27672	0.14964	0.29643	0.1109	0.22686	0.099439	0.08593	0.22526	0.2321	0.15761	0.1191	0.14773	0.044598	0.16255	0.22997	-2.3208	-3.025	-3.0042	-2.8833	-2.9625	-2.9167	-2.9167	-3.0875	-2.7333	-2.8125	-3.075	-2.9271	-2.7896	-3.0417	-2.7458	-3.0021	47.977	289.593	114.949	278.535	20.389	53.768	294.768	187.327	126.571	284.129	302.327	132.444	281.489	308.451	306.216	30.136	0.00038619	0.00033479	9.14e-05	1158.3	3.161e-06	3.4003e-06	1235.7	247.26	5.8774e-06	2.8887e-06	308.89	86.678	67.825	20.34	7.4263e-06	28.484	0.00018449	0.00015941	4.131e-05	1144.2	1.9073e-06	1.7969e-06	1215	245.16	2.0436e-06	2.039e-06	306.04	86.648	67.5	20.476	2.1373e-06	28.849	333.048	84.339	64.681	-14.685	136.198	121.498	-14.603	-7.585	129.042	110.180	-8.044	-1.311	-0.563	5.829	157.128	5.057	-8191	255	
538.892	1	1	0	0	0.10347	0.11114	0.095419	0.21844	0.27475	0.27899	0.17736	0.24089	0.2153	0.1639	0.2649	0.35379	0.26908	0.10861	0.045909	0.04293	-2.3042	-2.9167	-2.9333	-2.7833	-2.8917	-3.1437	-2.875	-3.1063	-2.8688	-2.7188	-3.1708	-2.8458	-2.8521	-2.9042	-2.9104	-2.9854	92.505	234.044	207.374	234.996	198.431	41.157	275.961	331.800	7.352	56.474	-21.576	264.526	-12.694	277.061	108.355	318.315	0.00040253	0.00031547	6.665e-05	1181.1	3.9513e-06	3.4382e-06	1257	250.88	6.1828e-06	2.2236e-06	313.13	87.67	69.317	20.687	4.7419e-06	28.89	0.00022021	0.00019902	5.3649e-05	1161.8	2.3499e-06	2.2532e-06	1237.8	248.77	2.4038e-06	2.2964e-06	311.08	87.928	68.936	20.83	2.4572e-06	29.192	332.673	65.218	71.678	-14.885	165.682	109.399	-14.760	-7.557	161.885	95.870	-7.794	-1.221	-0.965	5.827	156.513	5.085	-8191	255	
538.988	1	1	0	0	0.18139	0.29505	0.25143	0.074087	0.032168	0.10493	0.15645	0.22503	0.20136	0.063066	0.15007	0.25945	0.14626	0.191	0.091245	0.13261	-2.3521	-2.7562	-2.8583	-2.7229	-2.7917	-2.9479	-2.8708	-3.0208	-3.0292	-2.6896	-3.0167	-2.7104	-2.9167	-3.1063	-2.5083	-2.8917	224.185	328.789	167.440	-15.427	285.056	275.949	115.378	39.124	-4.734	271.361	207.095	314.242	323.862	-23.051	268.449	165.703	0.00047994	0.00045928	8.2212e-05	1202.8	5.4649e-06	4.2076e-06	1271.8	253.12	2.4052e-06	2.9262e-06	314.59	88.797	69.822	20.729	3.9396e-06	29.106	0.0002498	0.00023555	6.3329e-05	1183	2.67e-06	2.4039e-06	1252.8	251.61	2.4638e-06	2.4196e-06	313.18	88.716	69.559	20.97	2.3814e-06	29.396	333.070	53.745	83.993	-14.932	147.955	121.476	-14.665	-7.736	134.028	127.924	-7.912	-1.101	-1.129	5.405	141.117	4.893	-8191	255	
539.085	1	1	0	0	0.11008	0.14294	0.081614	0.082952	0.2716	0.1526	0.12172	0.27408	0.10251	0.20999	0.023776	0.13477	0.21153	0.09525	0.12048	0.091701	-2.5187	-2.6688	-2.9458	-2.9188	-2.8729	-3.0521	-2.8958	-2.8271	-3.0542	-2.8812	-3.025	-2.875	-2.8833	-3.0479	-2.5187	-3.0438	226.532	7.949	131.639	119.399	12.666	53.602	146.431	242.547	221.672	88.238	154.464	166.101	76.002	150.312	43.939	291.581	0.00043144	0.00038355	8.894e-05	1206	3.2617e-06	2.3894e-06	1278.2	255.34	3.7965e-06	1.615e-06	319.56	89.526	70.953	21.073	2.3569e-06	29.529	0.00025009	0.00024165	6.43e-05	1186.9	2.941e-06	2.6925e-06	1260.6	253.5	3.0012e-06	3.0618e-06	317.31	89.927	70.629	21.325	3.4049e-06	29.909	323.525	75.845	51.791	-14.843	132.416	110.397	-14.715	-7.877	173.600	163.181	-8.113	-1.410	-1.081	5.448	225.542	5.133	-8191	255	
539.205	1	1	0	0	0.10426	0.20596	0.12685	0.092933	0.081601	0.075573	0.053873	0.15955	0.26258	0.16274	0.077224	0.03937	0.070389	0.18614	0.092404	0.32741	-2.4458	-2.6854	-2.9042	-3.0187	-2.8708	-2.9979	-2.8646	-3.0146	-2.9	-2.7083	-3.1354	-2.8438	-2.8083	-3.0625	-2.7396	-2.8917	103.712	301.596	41.061	188.674	133.021	233.639	296.611	300.642	-24.362	-17.715	82.414	-12.353	258.250	11.093	253.562	150.520	0.00046756	0.00040731	8.0648e-05	1236.6	5.839e-06	3.2382e-06	1308.5	261.45	5.8347e-07	3.6466e-06	325.12	91.387	71.542	21.393	4.3063e-06	29.813	0.00031555	0.00031378	8.5171e-05	1218.4	3.7715e-06	3.545e-06	1289	259.37	3.7507e-06	3.6063e-06	322.97	91.479	71.715	21.719	3.5435e-06	30.252	324.623	61.799	44.625	-14.955	111.243	138.436	-14.800	-7.772	237.587	138.805	-8.296	-1.574	-1.022	5.331	182.920	4.838	-8191	255	
539.277	1	1	0	0	0.64891	0.14926	0.13587	0.3802	0.27594	0.15677	0.33245	0.15771	0.16858	0.11143	0.06272	0.087482	0.16035	0.12612	0.1374	0.16514	-2.5625	-2.7625	-2.8167	-3.2208	-2.8438	-3.1458	-3.1042	-3.0646	-2.9583	-2.9583	-3.0125	-2.9979	-2.7792	-2.9854	-2.95	-2.8646	6.415	227.004	148.110	293.282	-7.856	107.006	297.431	222.690	318.229	50.353	104.072	106.061	289.707	255.629	21.289	82.446	0.00041124	0.00034027	9.5881e-05	1248	2.8163e-06	5.0647e-06	1314.9	261.76	3.816e-06	3.1068e-06	325.11	91.621	71.408	21.093	4.8996e-06	29.282	0.00030999	0.00030774	8.6574e-05	1230.3	3.2646e-06	3.1589e-06	1295.6	260.88	3.131e-06	2.9617e-06	322.66	91.091	71.071	21.344	2.8148e-06	29.756	331.537	61.653	71.287	-15.058	149.848	126.250	-14.877	-7.814	170.216	123.634	-8.158	-1.220	-0.965	5.673	143.173	4.834	-8191	255	
539.398	1	1	0	0	0.16229	0.29562	0.11131	0.26898	0.04714	0.059716	0.057388	0.12847	0.03579	0.022517	0.25936	0.17981	0.20939	0.031787	0.31389	0.22383	-2.6229	-2.7021	-2.9083	-2.8833	-2.8646	-3.0375	-2.9125	-3	-3.2458	-2.7104	-2.9354	-3.1083	-2.6229	-2.8854	-2.975	-2.8375	232.309	216.304	40.887	325.143	313.159	4.092	27.746	158.854	261.513	75.287	214.318	120.253	319.699	188.945	25.803	21.558	0.00038053	0.00033227	5.5623e-05	1226.7	7.8618e-07	4.6422e-06	1290	256.82	7.1906e-06	3.6984e-06	319.04	88.947	69.567	20.781	6.4854e-06	29.02	0.00026515	0.00025431	7.0104e-05	1207.2	2.7856e-06	2.6026e-06	1271.7	255.37	2.7016e-06	2.6717e-06	317.37	89.32	69.846	21.038	2.8468e-06	29.377	329.157	78.045	52.963	-14.947	92.523	161.868	-14.874	-7.772	155.288	104.982	-8.051	-1.452	-1.149	5.638	132.661	5.270	-8191	255	
539.494	1	1	0	0	0.15233	0.12661	0.16286	0.37308	0.11328	0.19016	0.21003	0.098624	0.18218	0.16445	0.30455	0.14985	0.19254	0.33568	0.24569	0.13598	-2.5646	-2.7771	-2.825	-3.0021	-2.8563	-3.1083	-2.9917	-2.9646	-3.1833	-2.825	-3.0729	-3.0729	-2.8854	-2.9792	-2.85	-2.6521	47.681	276.223	262.084	289.899	269.583	180.741	296.937	155.967	19.442	133.087	2.007	273.949	51.881	-24.707	25.045	19.247	0.00041422	0.00021097	0.00012035	1227.8	4.9383e-06	3.2531e-06	1298.4	258.61	2.987e-06	1.6949e-06	321.3	89.246	70.677	20.876	1.4679e-06	29.091	0.00028	0.00026699	7.6762e-05	1208.3	3.3373e-06	3.1938e-06	1277.5	256.57	3.3931e-06	3.4752e-06	319.22	89.799	70.636	21.159	3.7035e-06	29.559	329.520	106.009	64.245	-14.931	129.564	155.454	-14.777	-7.636	135.395	136.603	-8.207	-1.100	-0.996	5.236	88.423	4.667	-8191	255	
539.590	1	1	0	0	0.13125	0.18491	0.19689	0.10427	0.21801	0.17355	0.073895	0.086453	0.12095	0.26996	0.13238	0.098039	0.1974	0.077434	0.25702	0.3623	-2.5354	-2.7146	-2.7875	-3.1937	-2.7083	-2.7667	-3.0396	-2.7104	-2.8208	-2.6708	-2.7812	-3.0021	-2.9396	-2.7896	-3.0854	-2.7333	144.722	86.117	52.180	267.545	-0.597	66.393	255.031	36.392	92.991	271.837	250.609	295.210	-14.693	139.684	289.146	83.219	0.00044116	0.00032013	7.8824e-05	1238.7	5.0551e-06	1.3732e-06	1308.3	260.11	3.7408e-06	3.2155e-06	322.95	90.152	71.019	21.003	5.6777e-06	29.318	0.00033605	0.00034422	9.7017e-05	1219.2	4.0567e-06	3.8212e-06	1288.2	258.45	3.8644e-06	3.7728e-06	320.58	90.317	70.939	21.264	3.7938e-06	29.729	323.978	76.997	74.400	-14.839	141.371	85.721	-14.870	-7.633	151.301	109.435	-7.876	-1.439	-0.947	5.420	146.461	5.065	-8191	255	
539.686	1	1	0	0	0.36124	0.078027	0.1717	0.427	0.17427	0.2233	0.12751	0.12769	0.04196	0.15726	0.19123	0.034203	0.11204	0.17448	0.16602	0.10202	-2.5812	-2.9292	-2.7667	-3.1	-2.95	-2.9354	-3.0396	-2.8042	-3.0563	-2.8812	-2.8396	-3.1437	-2.7125	-2.8812	-3.0167	-2.625	189.766	327.633	250.385	298.263	78.309	316.710	251.260	263.813	296.141	172.010	224.771	87.336	-14.734	248.647	207.181	133.549	0.00041525	0.00042652	7.2666e-05	1242.2	3.6961e-06	4.8268e-06	1314.9	260.12	1.7699e-06	4.0004e-06	323.96	89.935	70.75	20.947	5.7048e-06	29.207	0.00033611	0.00034117	9.6046e-05	1222.8	3.9694e-06	3.8759e-06	1292.5	258.63	3.9605e-06	3.8533e-06	321.23	90.056	70.815	21.162	3.7826e-06	29.603	332.398	67.239	69.218	-15.064	137.500	134.903	-14.820	-7.685	113.728	149.311	-8.282	-1.136	-0.920	5.635	123.751	5.502	-8191	255	
539.805	1	1	0	0	0.14844	0.11437	0.047517	0.077594	0.15064	0.18495	0.36708	0.28799	0.1413	0.15853	0.17707	0.20459	0.11492	0.42004	0.20288	0.2711	-2.4979	-2.7917	-2.7687	-3.0187	-2.6667	-2.9083	-2.9667	-2.8104	-2.875	-2.8438	-2.7229	-2.7854	-2.6854	-2.8979	-2.9521	-2.7875	236.294	29.549	318.912	10.386	77.751	-12.406	282.250	315.050	175.410	285.237	-0.031	16.530	302.896	-1.062	20.089	168.097	0.00031726	0.00015798	6.685e-05	1237.6	4.8936e-06	3.3755e-06	1306.1	258.67	3.4417e-06	2.6826e-06	321.87	89.18	70.398	20.957	1.8395e-06	29.064	0.0003462	0.00033926	0.0001009	1219	3.9399e-06	3.8209e-06	1285.6	257.7	3.8722e-06	3.9399e-06	319.58	89.69	70.459	21.081	3.7059e-06	29.475	-25.215	45.159	65.403	-14.902	148.548	142.781	-14.829	-7.958	193.575	117.266	-7.916	-1.525	-1.071	5.463	115.525	5.296	-8191	255	
539.901	1	1	0	0	0.25037	0.076788	0.22026	0.12091	0.19417	0.17154	0.36862	0.18846	0.13512	0.11041	0.24988	0.23772	0.13888	0.1587	0.23959	0.14221	-2.6437	-2.7625	-2.5604	-3.0708	-2.8208	-2.7396	-2.9208	-2.8625	-2.8271	-2.8979	-2.8333	-2.8083	-2.8542	-2.9	-2.9104	-2.7917	49.359	-19.203	2.881	90.815	164.797	12.539	283.240	320.376	228.581	92.314	278.988	250.439	301.344	293.892	1.870	211.542	0.00044014	0.00032001	0.00010874	1232.1	5.2761e-06	2.9729e-06	1300.8	257.21	7.2122e-06	4.0066e-06	320.32	88.741	70.355	20.615	2.5592e-06	29.238	0.00034919	0.00034186	9.8219e-05	1213.3	3.9774e-06	3.9818e-06	1282.5	256.22	4.0681e-06	3.9703e-06	318.53	89.435	70.378	20.992	4.2488e-06	29.441	-23.897	85.181	42.426	-14.713	133.799	137.704	-14.722	-7.915	168.881	104.504	-8.298	-1.326	-1.083	5.741	163.069	5.127	-8191	255	
539.973	1	1	0	0	0.08649	0.16687	0.12257	0.019645	0.095541	0.070767	0.25898	0.073411	0.078249	0.18237	0.27127	0.31072	0.070755	0.10693	0.2133	0.17884	-2.3646	-2.9229	-2.7313	-2.9729	-2.9229	-2.8	-3.2583	-2.6771	-2.9292	-2.9708	-2.7104	-3.0208	-2.8979	-2.7958	-3.1229	-2.8229	146.800	226.776	174.901	310.536	74.277	272.315	68.555	209.497	143.598	280.598	-11.080	290.036	233.646	112.053	74.662	299.875	0.00048419	0.00017741	9.7239e-05	1234.1	4.2524e-06	2.9414e-06	1299.2	256.97	5.9402e-06	2.2976e-06	319.62	89.308	70.17	20.794	2.3706e-06	28.853	0.00038008	0.00038709	0.00011114	1216.5	4.1957e-06	4.1904e-06	1283.2	256.08	4.2162e-06	4.0096e-06	318.86	89.679	70.371	21.023	4.2782e-06	29.31	323.555	75.944	52.716	-14.824	154.373	188.342	-14.839	-7.552	126.024	86.665	-8.211	-1.138	-0.934	5.728	125.203	4.938	-8191	255	
540.069	1	1	0	0	0.091453	0.21768	0.11319	0.20229	0.16531	0.13526	0.30891	0.071045	0.29812	0.14753	0.38046	0.23956	0.086918	0.15347	0.086693	0.011623	-2.3479	-2.85	-2.6479	-2.9729	-2.8542	-2.9125	-3.0604	-3.0563	-2.7042	-3.05	-2.9771	-2.8458	-2.9333	-2.75	-3.0958	-2.8229	83.046	172.591	273.926	5.028	311.309	149.502	272.883	255.848	207.417	130.197	324.694	294.010	116.128	318.996	183.642	82.696	0.00042627	0.00044449	0.00011387	1233.2	3.5322e-06	3.8616e-06	1300.6	257.4	2.9328e-06	2.1177e-06	320.2	89.072	70.108	20.759	6.7199e-06	28.887	0.00037616	0.00039034	0.00010517	1215.1	4.1949e-06	4.1372e-06	1283.3	256.06	3.9919e-06	3.8517e-06	318.72	89.437	70.098	21.013	3.8664e-06	29.384	330.820	106.494	48.610	-14.716	139.512	147.482	-14.709	-7.677	157.579	111.566	-8.134	-1.087	-0.988	5.411	165.518	5.227	-8191	255	
540.167	1	1	0	0	0.066514	0.051489	0.083987	0.29495	0.12244	0.080619	0.18021	0.19972	0.12328	0.064973	0.11315	0.19481	0.15945	0.11118	0.18253	0.07409	-2.2646	-2.9938	-2.8083	-2.9479	-2.9479	-2.6688	-3.0896	-2.9104	-2.8625	-2.9479	-2.7542	-2.9479	-2.8771	-2.7438	-3.0167	-3.0479	60.137	226.366	200.384	310.581	106.555	96.435	245.649	263.766	170.217	53.795	296.891	197.205	-20.610	83.995	278.288	44.127	0.00041108	0.00034309	0.00011491	1232.3	3.6278e-06	1.6392e-06	1301.9	258.85	3.0796e-06	2.8978e-06	321.14	88.988	70.158	20.656	4.7003e-06	28.965	0.00035502	0.00036471	0.00010143	1214.9	4.1467e-06	4.1555e-06	1281.8	256.12	4.196e-06	4.1533e-06	318.16	89.392	70.245	21.008	4.2657e-06	29.384	318.245	66.670	56.870	-14.912	111.737	145.574	-15.030	-7.721	182.651	76.135	-7.985	-1.305	-0.872	5.915	146.270	5.063	-8191	255	
540.286	1	1	0	0	0.21104	0.077886	0.060905	0.11903	0.12999	0.1571	0.25103	0.10927	0.19086	0.29427	0.11828	0.21478	0.089873	0.25156	0.12334	0.061408	-2.2292	-2.8521	-2.7979	-2.8812	-2.8417	-2.7333	-3.2354	-3.0083	-2.6729	-3.0458	-2.8417	-2.9104	-2.9771	-3.0104	-2.6958	-3.0667	250.485	194.422	283.071	18.116	37.917	154.919	-24.260	263.853	-20.609	328.707	310.129	226.996	262.772	226.680	12.558	202.884	0.00043179	0.0006011	6.7237e-05	1234.4	6.4917e-06	4.304e-06	1302.3	256.86	4.8045e-06	2.6275e-06	318.47	89.441	69.837	20.747	5.6161e-06	28.98	0.00038635	0.00038241	0.00010889	1216.6	4.2202e-06	4.2305e-06	1283.3	255.77	4.1105e-06	3.9003e-06	317.75	89.386	70.059	21.005	4.1016e-06	29.313	333.559	61.316	83.485	-15.023	151.105	148.589	-14.984	-7.842	99.836	148.758	-8.078	-1.204	-0.929	5.568	155.058	4.922	-8191	255	
540.382	1	1	0	0	0.096218	0.15787	0.31529	0.16261	0.21758	0.17882	0.32398	0.090352	0.21451	0.20749	0.0799	0.071206	0.035225	0.22438	0.17648	0.053174	-2.3021	-3.0125	-2.7396	-2.8	-3.1125	-2.8458	-2.925	-2.9125	-2.6063	-3	-2.9938	-2.8167	-3.0792	-2.7646	-2.9417	-3.0396	32.655	36.412	78.865	-19.108	149.375	29.426	241.293	96.772	259.213	99.063	264.450	208.427	205.845	328.127	313.565	3.354	0.0003937	0.00035027	4.4695e-05	1234.4	4.3219e-06	3.3082e-06	1301.1	257.59	5.4336e-06	4.2564e-06	319.55	89.093	69.957	20.756	5.3052e-06	29.101	0.00037139	0.00037361	0.00010491	1214	4.1902e-06	4.267e-06	1281.8	255.82	4.245e-06	4.1355e-06	318.29	89.385	70.11	21.034	3.9947e-06	29.349	322.789	46.449	96.352	-14.848	128.596	123.970	-14.723	-7.645	125.202	130.453	-8.071	-1.534	-0.636	5.779	121.252	5.141	-8191	255	
540.478	1	1	0	0	0.2358	0.16523	0.038614	0.21078	0.19174	0.070788	0.29249	0.030321	0.33834	0.15888	0.10535	0.20399	0.16696	0.3334	0.099828	0.13909	-2.2354	-2.9083	-2.7729	-3.0958	-3.1188	-2.7583	-3.1271	-2.8917	-2.7062	-2.9375	-2.9062	-2.725	-3.1542	-2.7833	-3.0417	-3.1396	114.732	239.408	251.817	240.577	164.384	179.450	260.876	15.086	272.690	220.164	290.567	282.444	154.629	279.272	-8.140	74.890	0.0004237	0.00041829	0.0001174	1233.3	6.574e-06	2.9681e-06	1301	257.04	6.0458e-06	4.4639e-06	320.13	88.828	69.688	20.606	4.1835e-06	28.706	0.00037022	0.00036169	9.7718e-05	1213.6	4.059e-06	3.8456e-06	1280	255.17	3.9507e-06	3.8708e-06	317.68	89.065	69.842	20.944	3.7402e-06	29.258	320.156	79.157	57.180	-14.873	159.560	132.627	-14.680	-7.801	158.135	120.980	-8.094	-1.067	-0.894	5.492	142.150	5.326	-8191	255	
540.574	1	1	0	0	0.14427	0.24187	0.19714	0.30433	0.10919	0.16886	0.093278	0.10306	0.21401	0.17807	0.057517	0.24977	0.050248	0.24609	0.098817	0.059703	-2.3771	-3.0687	-3.0333	-2.8375	-3.0646	-2.7917	-3.0292	-2.9229	-2.6458	-2.7208	-3.0146	-2.6229	-2.9083	-2.7896	-2.7812	-3.0625	15.301	87.932	176.072	312.442	42.384	233.434	247.324	203.292	199.609	276.285	212.798	323.425	279.712	103.942	-15.117	216.453	0.0003639	0.00053897	0.00013706	1223.8	7.2003e-07	4.4029e-06	1297.1	255.57	6.9627e-06	3.1727e-06	318.08	88.306	69.541	20.756	5.2131e-06	28.781	0.00033915	0.00034117	9.3209e-05	1207.6	3.6239e-06	3.795e-06	1274.1	254.37	3.6193e-06	3.505e-06	315.33	88.677	69.523	20.867	3.4665e-06	29.114	328.677	73.071	76.455	-15.088	75.131	138.588	-14.568	-7.712	147.560	148.558	-7.856	-1.300	-0.762	5.790	121.314	5.318	-8191	255	
540.670	1	1	0	0	0.27503	0.15376	0.11922	0.20612	0.064903	0.23118	0.40392	0.17656	0.18715	0.16346	0.15321	0.16295	0.20661	0.13001	0.24914	0.24672	-2.4938	-2.75	-2.9083	-2.6604	-3.1437	-2.925	-2.8458	-3.0875	-2.8167	-2.8083	-3.1771	-2.8042	-3.0354	-2.8458	-2.7958	-3.0104	91.886	55.877	86.550	306.481	22.991	194.370	263.906	279.724	69.487	146.418	1.471	62.398	279.055	33.017	218.968	32.983	0.00040764	0.00028669	8.4971e-05	1213.4	4.9341e-06	3.9153e-06	1281.3	252.16	6.3328e-06	3.7744e-06	314.99	88.358	68.776	20.485	3.9813e-06	28.591	0.00030225	0.00029092	7.7556e-05	1196.1	3.3148e-06	3.04e-06	1262.2	250.95	3.1579e-06	2.9697e-06	313.35	88.182	69.131	20.708	3.0174e-06	28.94	-24.831	106.788	95.892	-14.908	112.754	139.968	-14.858	-7.592	151.110	120.058	-8.130	-1.143	-0.933	5.928	103.695	5.112	-8191	255	
540.766	1	1	0	0	0.063582	0.084717	0.18907	0.15683	0.13352	0.084363	0.21495	0.088646	0.28435	0.13011	0.19606	0.11221	0.091941	0.20443	0.10425	0.21056	-2.3896	-2.9771	-2.9417	-2.9562	-2.8521	-2.7417	-2.8896	-3.1021	-2.8042	-3.0229	-3.1104	-2.8083	-3.1	-2.7	-2.6958	-3.0687	117.752	260.898	110.852	319.395	31.707	234.386	297.208	259.488	115.398	305.046	320.300	-6.290	88.481	111.465	322.875	255.848	0.00042121	0.00042319	7.321e-05	1207.6	3.2457e-06	2.9439e-06	1278.3	252.56	2.7013e-06	3.2253e-06	314.65	88.316	69.007	20.36	4.0675e-06	28.821	0.00027723	0.00027502	7.2924e-05	1189.1	3.1472e-06	2.8865e-06	1258.2	250.97	3.0447e-06	2.9555e-06	312.88	88.079	68.93	20.647	2.9668e-06	29.016	324.505	57.061	77.354	-14.933	151.441	113.836	-14.710	-7.728	170.407	110.773	-7.869	-1.136	-0.779	6.064	131.931	5.009	-8191	255	
540.887	1	1	0	0	0.2161	0.043816	0.15627	0.35705	0.20715	0.17832	0.24044	0.047203	0.10061	0.24869	0.27619	0.40395	0.15348	0.42137	0.20803	0.10837	-2.45	-2.9583	-2.9292	-2.8354	-2.8583	-2.9125	-2.7083	-3.1021	-2.8979	-2.8042	-3.1125	-2.9458	-2.8583	-2.7792	-2.6396	-2.9042	245.789	167.914	52.153	277.571	249.474	59.502	251.723	14.894	312.411	136.309	312.242	290.789	319.037	194.750	-5.560	300.227	0.00034585	0.00038753	3.8943e-05	1207.1	2.5647e-06	3.6595e-06	1281.1	252.49	5.3014e-06	3.6998e-06	315.66	87.587	69.027	20.557	5.118e-06	28.608	0.00028756	0.00028425	7.4851e-05	1191.2	3.0276e-06	2.8784e-06	1260.5	251.11	3.0217e-06	2.9088e-06	313.09	88.179	69.024	20.667	3.127e-06	28.98	322.296	80.729	62.127	-14.845	163.722	116.345	-14.691	-7.586	161.127	125.159	-8.117	-1.115	-0.800	5.994	129.083	5.166	-8191	255	
540.981	1	1	0	0	0.27332	0.067226	0.094236	0.25816	0.13266	0.18914	0.1503	0.3782	0.19963	0.34109	0.13727	0.18585	0.13082	0.016347	0.2427	0.087868	-2.4729	-2.7792	-2.7438	-2.9208	-2.8125	-2.8667	-2.9646	-3.0583	-2.7875	-2.775	-3.1292	-2.9333	-2.6833	-2.7938	-2.8667	-2.8583	36.324	325.779	140.978	308.248	302.875	122.042	293.446	214.988	11.171	24.669	160.292	149.019	45.815	38.864	14.989	-20.855	0.00041345	0.00022039	0.0001415	1210.4	6.1062e-06	3.7942e-06	1281.1	251.68	7.4644e-06	4.1416e-06	314.61	87.894	69.329	20.4	4.5472e-06	28.654	0.00029161	0.00028497	7.9945e-05	1190.7	3.2998e-06	3.0866e-06	1258.9	250.74	3.2395e-06	3.1401e-06	312.77	88.096	69.161	20.697	3.2402e-06	29.05	327.061	90.498	83.450	-14.935	138.959	115.106	-14.811	-7.615	174.746	107.605	-8.150	-1.076	-0.691	5.569	103.973	5.379	-8191	255	
541.078	1	1	0	0	0.066969	0.041144	0.10447	0.1856	0.32124	0.22361	0.45332	0.30624	0.13884	0.17688	0.1085	0.24743	0.087861	0.082628	0.11224	0.20939	-2.4146	-2.5938	-2.875	-3.0104	-2.6896	-3.05	-2.9708	-2.9	-2.8042	-2.7458	-2.8438	-2.7708	-2.7958	-2.9437	-2.6021	-3.0438	89.078	154.028	168.942	50.458	99.536	131.861	254.054	287.696	105.646	-3.871	260.803	326.012	33.534	49.497	64.535	225.108	0.00039954	0.00023447	7.2123e-05	1205.7	2.9099e-06	1.937e-06	1274.4	253.54	2.5715e-06	2.6334e-06	314.95	88.135	68.852	20.547	4.9799e-06	28.572	0.00028175	0.00028871	7.7186e-05	1189.5	3.2234e-06	2.9272e-06	1255.6	251.23	3.0658e-06	3.0504e-06	312.6	88.172	68.983	20.7	3.1857e-06	29.002	326.072	68.916	76.015	-14.608	119.092	119.404	-14.912	-7.677	183.290	114.428	-8.072	-1.313	-0.551	6.047	117.216	5.262	-8191	255	
541.174	1	1	0	0	0.20809	0.05408	0.11242	0.15249	0.035609	0.13994	0.13967	0.25669	0.086617	0.099558	0.23054	0.18215	0.1423	0.17902	0.056052	0.17955	-2.4688	-2.6	-2.9479	-2.8729	-2.825	-3.1333	-2.75	-2.9854	-2.75	-2.8104	-3.1333	-2.6854	-2.8438	-3.0667	-2.7375	-2.8438	289.326	316.276	78.136	282.589	31.412	312.620	327.074	-12.263	267.132	288.678	262.802	-7.746	218.221	21.173	69.927	20.949	0.00043249	0.00039157	0.00015043	1203.1	3.7911e-06	2.9919e-06	1274.1	252.67	1.6071e-06	3.0882e-06	314.63	87.946	68.834	20.47	5.381e-06	28.605	0.00028958	0.00027871	7.778e-05	1187.4	3.296e-06	3.0341e-06	1254.4	251.05	3.1022e-06	3.1822e-06	312.16	88.036	68.867	20.643	3.1667e-06	28.97	328.339	60.137	80.373	-14.695	139.825	123.562	-14.756	-7.731	179.376	128.474	-7.771	-0.936	-0.978	5.774	168.847	5.159	-8191	255	
541.270	1	1	0	0	0.20891	0.040113	0.10367	0.2505	0.2993	0.20702	0.23921	0.30101	0.019938	0.37084	0.49393	0.11877	0.12653	0.0602	0.20035	0.11654	-2.5542	-2.6771	-3.0042	-2.9813	-2.6312	-2.8771	-3.025	-3.0229	-2.9896	-2.7021	-3.0396	-2.9333	-2.8187	-2.9583	-2.9562	-2.9021	251.543	59.464	312.153	314.211	286.798	244.554	268.060	244.682	260.285	149.453	257.985	251.657	329.375	143.269	318.321	279.354	0.00036227	0.00035936	0.00010681	1207.4	4.3869e-06	4.5449e-06	1278.8	252.35	4.7543e-06	3.387e-06	315.29	87.525	68.877	20.458	6.5305e-06	28.453	0.00029177	0.00029779	7.9167e-05	1188.6	3.3701e-06	3.0412e-06	1257.4	250.6	3.2849e-06	3.2393e-06	313.05	87.916	68.952	20.705	3.263e-06	28.934	331.419	33.001	63.905	-14.762	154.757	138.352	-14.641	-7.638	210.028	90.953	-8.195	-1.041	-0.795	5.476	108.291	5.137	-8191	255	
541.366	1	1	0	0	0.24207	0.043831	0.23049	0.25187	0.072381	0.081968	0.12564	0.034605	0.16732	0.21836	0.3133	0.14805	0.18598	0.15201	0.23128	0.11433	-2.4729	-2.5771	-2.8229	-3.1729	-2.7458	-3.0375	-2.8271	-2.8292	-3.1333	-2.7417	-3.0292	-3.1771	-2.6229	-2.9396	-2.9125	-2.6771	95.427	184.611	308.160	-14.210	278.431	251.874	41.359	58.656	-17.848	83.330	269.748	248.822	319.117	287.918	246.895	299.997	0.00036874	0.00052185	0.00011006	1211.4	4.4163e-06	3.7168e-06	1274.3	252.69	8.4121e-06	2.1454e-06	313.64	87.827	68.604	20.524	6.0032e-06	28.51	0.000313	0.00030267	8.3113e-05	1188.1	3.431e-06	3.2068e-06	1256.8	250.93	3.1521e-06	3.192e-06	312.3	87.976	68.747	20.666	2.994e-06	28.909	328.659	54.275	37.702	-14.912	131.969	144.364	-14.829	-7.865	174.470	150.482	-8.114	-1.090	-0.910	6.005	139.567	5.388	-8191	255	
541.462	1	1	0	0	0.094645	0.1028	0.051887	0.20956	0.16286	0.023167	0.13622	0.21373	0.32007	0.20689	0.2531	0.36307	0.010648	0.30223	0.077332	0.22298	-2.6125	-2.7167	-3.0229	-2.8833	-2.775	-3.0563	-2.8354	-2.9313	-2.9542	-2.8729	-3.0021	-2.9813	-2.9833	-3.0104	-2.7917	-2.75	290.728	287.015	171.233	314.795	7.032	92.067	45.009	303.481	280.931	317.108	310.028	282.468	136.040	305.086	177.733	294.079	0.00038651	0.00032121	0.00010419	1204.9	2.7864e-06	4.4828e-06	1270.2	251.96	3.8861e-06	3.1039e-06	313.97	87.703	68.52	20.356	4.8638e-06	28.674	0.00028966	0.00027655	7.4882e-05	1184.6	3.108e-06	2.9405e-06	1252.2	250.1	2.8294e-06	2.9454e-06	311.9	87.843	68.623	20.574	2.8977e-06	28.877	323.088	54.923	66.200	-14.812	131.361	126.301	-14.794	-7.797	155.210	109.785	-7.746	-1.185	-0.825	5.868	104.118	5.131	-8191	255	
541.583	1	1	0	0	0.35432	0.40202	0.19545	0.077805	0.095511	0.41348	0.15932	0.20379	0.083195	0.12653	0.054541	0.10326	0.057076	0.087989	0.10038	0.23257	-2.5875	-2.8729	-3.0375	-3.0771	-2.6208	-3.0312	-3.0438	-2.7396	-3.0333	-2.9583	-2.825	-3.1333	-2.8	-2.7562	-2.8979	-2.7938	66.198	319.519	320.520	314.526	83.910	311.214	211.355	250.841	43.899	0.511	105.443	193.201	248.894	169.127	-14.150	208.444	0.00040891	0.00024287	7.4345e-05	1201.9	4.5011e-06	4.3813e-06	1267.7	251.62	3.6167e-06	2.3862e-06	313.19	87.245	68.969	20.413	3.4075e-06	28.638	0.00027836	0.000254	7.2339e-05	1182.4	3.108e-06	2.917e-06	1248.4	249.93	3.0237e-06	3.0375e-06	311.46	87.678	68.615	20.571	3.0011e-06	28.954	325.880	70.883	93.635	-14.602	168.521	117.642	-14.776	-7.604	152.167	156.712	-8.124	-1.249	-0.475	5.864	135.499	5.455	-8191	255	
541.677	1	1	0	0	0.13926	0.048607	0.10015	0.094216	0.13342	0.22968	0.19453	0.097308	0.10703	0.14958	0.37945	0.34712	0.031136	0.06661	0.12736	0.12022	-2.5812	-2.7167	-2.9021	-3.1646	-2.8563	-3.0208	-3.0896	-2.6729	-3.0271	-2.9188	-2.8771	-3.15	-2.7792	-2.9792	-3.0062	-2.8521	118.865	159.531	79.111	311.953	69.756	33.896	223.528	77.542	49.852	20.750	293.079	98.119	284.082	32.812	225.167	296.659	0.0003966	0.00051676	5.6694e-05	1201.4	5.5678e-06	2.6493e-06	1272.3	251.97	6.5529e-06	4.2542e-06	314.02	87.726	68.716	20.558	3.4232e-06	28.435	0.00029868	0.00029616	8.1163e-05	1181.6	3.5045e-06	3.3195e-06	1251.3	249.72	3.1948e-06	3.27e-06	311.81	87.912	68.791	20.702	3.1789e-06	28.876	327.743	49.383	72.250	-15.003	152.035	82.826	-14.638	-7.656	197.681	115.870	-7.893	-1.451	-0.313	5.687	171.211	5.024	-8191	255	
541.773	1	1	0	0	0.20648	0.032508	0.08085	0.32291	0.30424	0.0976	0.18943	0.18619	0.071934	0.13878	0.046926	0.19965	0.088513	0.17171	0.088593	0.085784	-2.6083	-2.825	-2.5542	-3.1042	-2.85	-2.7042	-3.0271	-2.7396	-3.1292	-3.0625	-2.6625	-3.0833	-2.725	-2.8479	-3.1479	-2.8563	65.947	88.654	320.856	241.776	45.211	50.346	298.293	284.182	93.508	223.064	240.389	272.588	218.257	-23.182	292.226	122.027	0.00039253	0.0003583	8.2974e-05	1198.8	4.8871e-06	2.477e-06	1269.9	251.88	4.8202e-06	1.6572e-06	313.51	87.733	68.601	20.273	1.844e-06	28.38	0.00029829	0.00027993	8.1186e-05	1182	3.2571e-06	3.0854e-06	1250.9	249.84	3.1559e-06	3.1413e-06	311.33	87.794	68.764	20.589	3.1341e-06	28.878	318.734	66.554	94.378	-14.718	138.072	124.742	-14.832	-7.658	202.128	109.029	-7.742	-0.933	-0.726	5.868	67.452	5.089	-8191	255	
541.870	1	1	0	0	0.1642	0.37549	0.093063	0.080766	0.18213	0.090219	0.18892	0.29139	0.088695	0.12221	0.080367	0.029319	0.13445	0.17338	0.061466	0.16806	-2.5229	-2.9208	-2.7354	-3.15	-2.9021	-2.8	-3.1437	-2.7479	-2.9292	-2.8563	-2.8667	-3.0833	-2.9562	-2.6708	-2.9938	-2.8646	205.389	19.533	190.373	122.356	289.914	24.818	248.188	272.147	231.319	-9.613	94.118	250.171	310.891	89.618	239.847	252.673	0.00032444	0.00038186	6.1407e-05	1202.9	4.5159e-06	3.4145e-06	1271.8	251.73	5.3447e-06	3.4261e-06	313.81	87.636	68.972	20.319	4.7651e-06	28.69	0.00030039	0.00028203	8.2435e-05	1182.9	3.3249e-06	3.1713e-06	1249.7	249.86	3.3677e-06	3.2307e-06	311.44	87.777	68.78	20.62	3.3302e-06	28.989	320.635	51.445	52.449	-14.772	158.236	128.682	-14.792	-7.290	130.518	134.998	-7.828	-1.334	-0.659	5.889	140.348	5.338	-8191	255	
541.966	1	1	0	0	0.050237	0.068206	0.17219	0.26135	0.13154	0.28145	0.22882	0.24049	0.11592	0.054885	0.0811	0.20914	0.29212	0.15252	0.31151	0.078654	-2.3333	-2.8854	-2.6458	-3.225	-2.8208	-2.8063	-3.0875	-2.6417	-3.0042	-3.0833	-2.7188	-3.0125	-2.8146	-2.6917	-3.1604	-2.8438	131.852	329.406	244.993	248.612	180.248	103.155	308.608	228.693	295.557	192.973	8.604	297.929	99.953	303.125	97.784	192.001	0.00037681	0.0003246	0.00011327	1201.6	3.1411e-06	1.8448e-06	1274.6	252.59	1.004e-06	2.626e-06	312.02	87.555	69.017	20.369	2.1705e-06	28.533	0.0003054	0.00030314	8.7244e-05	1185.1	3.5034e-06	3.5803e-06	1252.8	250.53	3.4612e-06	3.4085e-06	311.6	87.82	68.935	20.619	3.3776e-06	28.964	328.658	69.561	68.427	-14.655	131.312	134.192	-14.613	-7.523	125.246	154.439	-7.788	-0.955	-0.681	5.554	174.124	5.154	-8191	255	
542.062	1	1	0	0	0.25397	0.19279	0.052845	0.31093	0.086834	0.34826	0.29517	0.15808	0.10734	0.19097	0.10158	0.27581	0.25863	0.075636	0.12814	0.20704	-2.5167	-2.8729	-2.8146	-3.0271	-2.9792	-2.8187	-3.3271	-2.9646	-2.8875	-3.0521	-2.9021	-3.0146	-2.9	-2.8104	-2.8896	-2.625	130.280	77.626	129.205	-0.084	101.786	114.649	320.708	277.625	314.161	286.215	299.295	135.373	48.192	68.019	213.386	256.853	0.00040081	0.00043051	4.3079e-05	1202.5	2.9891e-06	6.1301e-06	1271.7	252.34	6.1019e-06	3.7213e-06	314.88	88.022	68.9	20.456	3.7237e-06	28.456	0.00031537	0.00031339	8.8477e-05	1183.4	3.4529e-06	3.4876e-06	1251.3	250.59	3.5299e-06	3.3112e-06	312.47	87.923	68.882	20.694	3.4763e-06	28.894	331.095	42.222	106.925	-14.749	108.273	134.110	-14.602	-7.752	155.504	106.059	-7.865	-1.163	-0.871	5.674	150.492	5.343	-8191	255	
542.158	1	1	0	0	0.011653	0.25069	0.12244	0.24949	0.064957	0.17146	0.37474	0.17002	0.15171	0.084932	0.20244	0.22346	0.0415	0.087778	0.14098	0.14777	-2.4125	-3.0438	-2.8458	-2.9979	-2.9479	-2.5979	-3.3354	-2.8396	-2.85	-3.2	-2.7687	-2.9313	-2.9229	-2.7646	-2.9938	-2.9354	-25.050	216.631	147.276	243.722	22.172	297.383	300.404	309.861	146.141	315.402	258.613	10.862	258.012	264.710	100.984	241.941	0.00037514	0.00027712	7.8542e-05	1200.7	5.68e-06	2.6083e-06	1270.9	250.59	3.6981e-06	3.4812e-06	315.06	87.882	68.784	20.388	5.4011e-06	28.429	0.00031805	0.00031148	8.6751e-05	1184.1	3.4362e-06	3.5271e-06	1250.6	249.78	3.4759e-06	3.3732e-06	312.05	87.779	68.875	20.666	3.2497e-06	28.917	-22.866	58.120	67.235	-14.745	163.203	126.051	-14.530	-7.820	155.801	110.529	-8.200	-1.268	-0.847	6.008	138.430	5.549	-8191	255	
542.279	1	1	0	0	0.025568	0.076046	0.13967	0.24169	0.24362	0.1529	0.24123	0.078035	0.11029	0.21875	0.13556	0.15765	0.123	0.11381	0.164	0.13284	-2.3563	-2.8854	-2.7562	-3.0125	-2.9938	-2.6625	-3.1667	-2.9437	-2.7792	-3.1188	-2.8854	-2.8458	-3.0896	-2.825	-2.9229	-2.8646	89.751	79.849	249.246	296.999	132.381	268.524	232.039	-12.519	142.108	-14.928	280.728	266.509	228.416	181.045	13.343	206.672	0.0003902	0.00031908	9.1864e-05	1201	3.086e-06	3.5438e-06	1270.6	251.87	5.6214e-06	1.6994e-06	313.95	87.475	68.693	20.326	3.4299e-06	28.463	0.00031253	0.00030134	8.2134e-05	1182.9	3.3652e-06	3.3934e-06	1251.1	250.01	3.4283e-06	3.1595e-06	312.04	87.895	68.894	20.619	3.146e-06	28.879	323.893	92.568	38.751	-14.944	136.144	146.693	-14.715	-7.675	122.946	85.455	-8.007	-1.213	-0.794	6.065	108.561	5.059	-8191	255	
542.373	1	1	0	0	0.23192	0.07801	0.14601	0.24226	0.22804	0.060642	0.053093	0.22967	0.1721	0.17502	0.10062	0.076719	0.22225	0.047788	0.1298	0.22662	-2.2708	-3	-2.8333	-2.9417	-2.9188	-2.8167	-2.9458	-2.9813	-2.9021	-3.125	-2.8771	-3.0438	-3.1792	-2.7708	-2.9708	-2.8646	191.432	222.319	91.998	35.874	212.255	-2.381	191.213	323.235	243.690	275.202	6.737	224.946	5.767	226.068	330.601	152.466	0.00041812	0.00043032	9.7348e-05	1203.2	5.3121e-06	3.5359e-06	1268.6	251.69	1.3221e-06	2.7129e-06	313.08	87.633	68.971	20.319	5.4572e-06	28.608	0.00029527	0.00028616	7.5868e-05	1182.6	3.3165e-06	3.0384e-06	1249.7	250.22	3.1651e-06	3.028e-06	311.53	87.904	68.724	20.585	3.1469e-06	28.959	324.524	78.246	50.400	-14.732	154.251	129.640	-14.726	-7.708	155.108	81.432	-7.728	-1.119	-0.515	6.361	131.588	5.110	-8191	255	
542.469	1	1	0	0	0.031393	0.13062	0.10162	0.22075	0.216	0.3321	0.14784	0.18048	0.22271	0.061541	0.17194	0.13099	0.16787	0.25711	0.0963	0.11837	-2.3521	-3.025	-2.6646	-2.9313	-2.9271	-2.6979	-3.025	-3.0458	-2.7646	-3.05	-2.7708	-2.8479	-2.85	-2.6708	-3.0396	-2.8542	244.175	3.101	218.623	304.198	188.869	174.582	294.354	207.099	13.714	314.049	322.330	46.419	302.619	66.574	70.392	320.669	0.00042532	0.00041701	0.00010062	1198.4	2.1719e-06	2.9183e-06	1268.7	250.47	5.5239e-06	1.536e-06	312.79	87.525	68.92	20.359	2.0794e-06	28.548	0.00029673	0.0002807	8.0038e-05	1181.3	3.1625e-06	3.1379e-06	1248.9	249.7	3.1821e-06	3.1413e-06	310.98	87.817	68.811	20.655	3.1872e-06	28.849	325.265	75.662	65.158	-14.718	160.820	108.211	-14.837	-7.506	168.137	152.163	-7.994	-0.946	-0.922	5.936	111.269	5.185	-8191	255	
542.565	1	1	0	0	0.17959	0.19585	0.11402	0.14618	0.094338	0.12658	0.39991	0.18804	0.077532	0.043413	0.048485	0.11934	0.060362	0.15058	0.18971	0.016605	-2.3458	-2.9354	-2.7792	-2.9625	-3.0354	-2.8229	-2.8958	-3.0667	-2.7417	-2.925	-3.0646	-2.9229	-2.9083	-2.8125	-2.6	-3.0708	319.668	333.091	75.280	284.432	88.395	219.256	213.463	-18.129	68.888	120.863	215.103	-0.369	293.049	320.877	211.608	37.692	0.00030916	0.00040588	0.00013352	1202.4	3.1757e-06	1.1694e-06	1269.9	251.54	8.032e-06	3.1742e-06	313.04	87.699	68.543	20.344	5.5927e-06	28.39	0.00030276	0.00028117	7.8604e-05	1182.3	3.3064e-06	3.2154e-06	1248.9	249.66	3.2335e-06	3.0768e-06	311.07	87.75	68.806	20.615	3.1836e-06	28.879	326.823	32.672	48.575	-14.605	145.414	147.021	-14.767	-7.503	138.419	140.940	-8.057	-1.324	-0.534	5.780	138.274	5.351	-8191	255	
542.661	1	1	0	0	0.20828	0.13202	0.11439	0.32625	0.20025	0.14123	0.089595	0.24071	0.094786	0.11026	0.018664	0.098171	0.17014	0.20905	0.22246	0.11716	-2.3229	-2.65	-2.8937	-3	-2.9854	-2.7792	-2.95	-3.1063	-2.7812	-2.7687	-2.9062	-2.8312	-2.9062	-2.7812	-2.6458	-3.0229	116.436	-17.562	-16.733	319.950	115.097	2.017	180.875	-16.485	143.762	218.486	123.489	174.022	80.915	165.609	17.082	49.950	0.00035376	0.00023849	8.0752e-05	1196.8	6.451e-06	3.2612e-06	1269.7	252.09	3.8451e-06	4.1285e-06	312.54	87.683	68.953	20.544	3.6015e-06	28.835	0.00030332	0.00029472	8.299e-05	1180.6	3.2799e-06	3.3032e-06	1250.8	249.89	3.3241e-06	3.1936e-06	311.56	87.825	68.843	20.672	3.263e-06	29.033	328.152	72.951	82.309	-14.796	131.124	127.417	-14.724	-7.413	119.736	141.461	-8.089	-1.346	-0.530	5.881	129.760	5.405	-8191	255	
542.758	1	1	0	0	0.36676	0.15678	0.3166	0.14223	0.3181	0.079108	0.071438	0.32802	0.21251	0.029606	0.1439	0.19274	0.10912	0.097908	0.15438	0.024668	-2.4542	-2.9792	-2.8312	-2.6146	-2.9062	-2.7521	-3.0042	-2.9646	-2.725	-2.7042	-2.8958	-2.6188	-2.9562	-2.9542	-2.7833	-3.1229	29.305	2.042	0.650	272.393	-2.869	290.630	313.760	299.891	69.210	15.587	60.078	89.259	253.394	294.053	216.620	84.592	0.00035108	0.00041837	8.0181e-05	1199.8	4.1455e-06	2.3144e-06	1272.8	251.74	7.673e-06	4.8336e-06	314	87.584	68.781	20.519	1.7748e-06	28.463	0.0002974	0.00029585	8.0577e-05	1181.1	3.3523e-06	3.2219e-06	1249.8	249.85	3.2952e-06	3.2279e-06	311.85	87.7	68.855	20.662	3.2796e-06	28.924	329.773	50.796	51.671	-14.618	147.844	104.152	-14.763	-7.824	123.812	113.658	-8.069	-1.289	-0.882	5.908	127.017	5.314	-8191	255	
542.878	1	1	0	0	0.21038	0.2545	0.035857	0.23842	0.15834	0.18191	0.19924	0.021709	0.29505	0.16385	0.22919	0.22668	0.046182	0.037841	0.027517	0.22996	-2.35	-2.7896	-2.7646	-2.7479	-2.9625	-2.6833	-2.8271	-3.2229	-2.8646	-2.7271	-2.8458	-2.7396	-2.9646	-2.9021	-2.6833	-2.8625	113.670	219.295	189.201	307.777	329.069	267.357	296.245	23.921	244.470	52.738	255.312	24.503	278.555	296.625	126.681	298.692	0.00045353	0.00055769	8.5302e-05	1198	4.6396e-06	3.2219e-06	1268.5	252.06	1.9908e-06	1.8896e-06	313.84	87.181	68.854	20.295	2.0545e-06	28.642	0.00031023	0.00031621	8.5764e-05	1181.6	3.4814e-06	3.4023e-06	1251.1	250.37	3.4491e-06	3.3311e-06	312.25	87.857	68.876	20.616	3.3347e-06	28.994	330.173	72.995	36.942	-14.892	142.547	112.933	-14.575	-7.634	119.639	78.677	-8.071	-1.512	-0.833	5.914	89.094	5.232	-8191	255	
542.974	1	1	0	0	0.15089	0.36914	0.031729	0.1969	0.19789	0.078733	0.15222	0.27224	0.049518	0.13769	0.22741	0.14583	0.020833	0.23673	0.12303	0.12381	-2.3958	-2.6104	-3.0312	-2.9271	-2.8708	-2.9979	-2.7917	-2.8729	-2.9167	-2.6917	-3.2292	-2.8063	-2.925	-2.9125	-2.6479	-2.9375	76.936	271.371	167.790	277.505	29.589	144.705	329.220	-9.130	54.898	297.313	232.799	43.831	-7.320	172.732	-19.278	173.146	0.00040788	0.00039511	0.00012182	1198.2	5.2308e-06	3.3205e-06	1274	251.76	3.3808e-06	3.7583e-06	313.66	87.635	69.063	20.328	3.3526e-06	28.515	0.0003093	0.00030727	8.5256e-05	1182	3.3655e-06	3.4042e-06	1252.5	250.27	3.3761e-06	3.3812e-06	311.64	87.732	68.845	20.597	3.308e-06	28.898	322.077	66.207	78.247	-14.790	208.945	120.424	-14.692	-7.769	102.855	120.773	-7.961	-1.198	-0.529	6.177	113.725	5.506	-8191	255	
543.071	1	1	0	0	0.33013	0.34947	0.080631	0.40944	0.25468	0.1251	0.40283	0.11235	0.10771	0.14409	0.12386	0.2418	0.1148	0.17589	0.21342	0.12777	-2.4125	-2.7417	-2.9854	-2.7333	-3.0729	-2.9229	-2.8292	-2.9979	-2.8396	-2.6708	-3.1917	-2.8458	-2.7271	-3.1188	-2.6104	-2.9688	0.535	17.168	174.486	303.434	282.733	243.737	-24.318	112.634	-11.260	-17.207	51.184	208.698	212.184	329.123	31.224	160.708	0.00048929	0.00032033	0.00014207	1199.2	4.9564e-06	2.5044e-06	1271.8	251.69	5.8202e-06	1.631e-06	313.2	87.338	68.607	20.326	1.8857e-06	28.507	0.00030757	0.00030214	8.3822e-05	1181.9	3.4987e-06	3.3906e-06	1250.3	250.34	3.4595e-06	3.466e-06	311.59	87.719	68.793	20.635	3.5332e-06	28.993	323.263	55.461	64.767	-14.744	172.616	159.914	-14.573	-7.676	181.951	137.228	-7.813	-1.383	-1.049	5.533	165.109	5.043	-8191	255	
543.142	1	1	0	0	0.05156	0.2447	0.13098	0.33214	0.16912	0.070266	0.2506	0.16853	0.14733	0.2083	0.15223	0.16224	0.10462	0.032658	0.18951	0.11187	-2.3625	-2.7625	-2.925	-2.85	-2.7167	-2.8604	-2.8438	-3.0333	-2.8333	-2.7104	-3.1146	-2.725	-2.8271	-3.0542	-2.8104	-3.0146	20.826	88.662	259.059	333.072	141.451	204.674	320.903	236.820	229.193	28.723	-14.509	104.582	262.589	172.365	7.315	257.308	0.00036797	0.00013947	8.8228e-05	1202.4	7.7761e-06	4.5709e-06	1272.3	252.53	5.8515e-06	3.7523e-06	315.01	87.87	69.273	20.432	4.0775e-06	28.561	0.00032885	0.00033136	9.1337e-05	1184.6	3.8612e-06	3.6816e-06	1253.3	250.63	3.7068e-06	3.7227e-06	313.01	87.71	69.034	20.706	3.7835e-06	29.011	321.777	71.358	56.462	-14.883	150.944	146.473	-14.756	-7.556	128.039	88.668	-7.971	-1.003	-0.979	5.651	117.397	4.833	-8191	255	
543.261	1	1	0	0	0.17381	0.25674	0.12696	0.21231	0.12064	0.2097	0.49644	0.3554	0.13964	0.15311	0.10431	0.20647	0.3487	0.1554	0.099733	0.11092	-2.5521	-2.8104	-2.9562	-2.9021	-2.6979	-2.8792	-3.0771	-2.7354	-3.0125	-2.6104	-2.95	-2.8521	-2.8646	-2.9167	-2.6479	-2.65	11.101	-17.291	320.665	34.901	295.518	272.896	273.245	268.641	300.725	214.829	319.970	-17.510	315.428	328.586	249.133	218.116	0.00044784	0.00041938	0.0001352	1205.6	1.3525e-06	4.2373e-06	1268.9	252.43	4.9086e-06	4.2496e-06	315.01	87.201	69.054	20.395	3.8931e-06	28.463	0.00034112	0.00035178	9.7078e-05	1184.8	3.8805e-06	3.7672e-06	1250.9	250.78	3.8768e-06	3.8699e-06	312.76	87.758	68.953	20.61	3.7538e-06	28.932	318.480	81.074	52.587	-14.929	208.852	126.367	-14.647	-7.806	135.448	109.128	-8.026	-1.138	-0.665	5.728	76.082	5.374	-8191	255	
543.357	1	1	0	0	0.10909	0.11606	0.20018	0.3222	0.11289	0.23009	0.23381	0.019595	0.023984	0.062659	0.17889	0.18759	0.1187	0.28272	0.35873	0.24077	-2.5312	-2.7104	-2.7438	-2.8271	-2.6646	-3.1	-2.9271	-2.7062	-2.9229	-2.6063	-2.8521	-3.0187	-2.6	-2.9146	-2.6583	-2.6937	145.467	34.305	258.619	307.384	75.132	115.335	328.114	181.795	-2.260	53.468	114.609	229.512	179.223	-14.829	39.990	135.066	0.00039222	0.00046003	7.3726e-05	1203.7	3.9564e-06	4.7005e-06	1270.9	251.52	2.7243e-06	1.6827e-06	313.5	87.687	68.811	20.31	5.0478e-06	28.419	0.00033252	0.00034134	9.6362e-05	1183.1	3.9976e-06	3.8669e-06	1250.3	250.18	4.1374e-06	4.2998e-06	312.39	88.016	69.182	20.744	4.37e-06	29.06	326.140	57.577	39.918	-14.915	138.643	131.410	-14.625	-7.665	169.955	95.000	-7.915	-1.096	-0.897	5.815	139.091	4.974	-8191	255	
543.453	1	1	0	0	0.14949	0.0089165	0.11667	0.21539	0.37638	0.11003	0.068594	0.06419	0.14566	0.078615	0.18597	0.2345	0.076567	0.15737	0.12621	0.10945	-2.4417	-2.9021	-2.9333	-3.0667	-2.5812	-3.0083	-2.9062	-2.8542	-2.9583	-2.6979	-2.9188	-2.8563	-2.5062	-3.0396	-2.9167	-2.7292	108.037	109.988	219.343	51.346	17.484	-15.702	208.142	266.774	221.484	-25.252	245.198	329.294	328.001	104.250	330.720	198.789	0.00039128	0.0002449	8.016e-05	1206.6	4.229e-06	3.4342e-06	1276.1	253.07	8.0594e-06	2.6475e-06	316.29	87.793	69.236	20.51	4.465e-06	28.5	0.00041266	0.00043629	0.00011863	1190.8	4.6577e-06	4.553e-06	1257.5	252.26	4.4569e-06	4.5882e-06	314.27	88.24	69.353	20.783	4.5871e-06	29.095	329.842	52.368	86.255	-14.663	148.084	108.140	-14.792	-7.728	173.594	92.330	-7.956	-1.211	-1.192	5.948	106.517	5.345	-8191	255	
543.550	1	1	0	0	0.17625	0.24521	0.12788	0.23336	0.1538	0.24906	0.24632	0.19816	0.1099	0.36566	0.17661	0.043785	0.127	0.12956	0.13157	0.17046	-2.5917	-2.8042	-2.9146	-2.9875	-2.7104	-3.0104	-3.0458	-2.725	-2.9646	-2.6083	-2.975	-2.9083	-2.7	-2.8187	-2.8104	-2.6146	281.029	160.674	251.183	265.378	191.534	221.586	234.704	213.491	284.714	108.157	313.829	-15.193	275.854	25.790	156.730	237.490	0.00043197	0.00030453	0.00015456	1211.6	5.0103e-06	3.9572e-06	1281	254.56	6.9493e-06	2.4773e-06	316.4	88.535	69.682	20.616	3.7467e-06	28.851	0.00041385	0.0004326	0.00011785	1193.9	4.799e-06	4.6423e-06	1261.5	252.64	4.785e-06	4.8078e-06	314.33	88.608	69.675	20.83	4.6621e-06	29.221	327.451	78.012	82.439	-14.613	132.767	117.005	-14.670	-7.576	173.433	101.304	-7.986	-1.204	-0.581	5.678	176.123	4.988	-8191	255	
543.670	1	1	0	0	0.34633	0.13815	0.21783	0.050055	0.13177	0.19561	0.21976	0.31517	0.1942	0.19369	0.18687	0.12005	0.31905	0.18052	0.16144	0.14829	-2.5771	-2.7458	-2.8146	-3.0062	-2.7917	-2.9083	-3.1146	-2.7854	-3.0333	-2.7479	-2.8146	-2.9875	-2.6562	-3.0583	-2.9271	-2.7062	-10.927	282.290	193.261	-25.314	322.366	18.404	242.525	314.149	259.483	211.105	290.160	232.251	220.652	206.402	-4.282	127.071	0.00038022	0.00046292	0.00011329	1215.3	2.2685e-06	2.1339e-06	1285.8	254.26	6.6074e-06	4.9348e-06	317.25	88.276	69.746	20.615	2.8668e-06	28.691	0.00040698	0.00044529	0.00012146	1197.5	4.9322e-06	4.9506e-06	1263.3	252.91	4.8361e-06	4.767e-06	315.31	88.751	70.02	20.931	5.0659e-06	29.299	329.600	66.531	67.739	-14.904	105.410	128.995	-14.539	-7.867	184.771	159.534	-7.988	-1.131	-1.108	5.610	144.890	5.018	-8191	255	
543.742	1	1	0	0	0.095192	0.19048	0.21976	0.17085	0.1393	0.24888	0.26716	0.25417	0.17361	0.12601	0.1034	0.15909	0.09053	0.23597	0.21282	0.091749	-2.6292	-2.5646	-2.6333	-3.0438	-2.6792	-2.8979	-3.0625	-2.6792	-2.9396	-2.7917	-2.725	-3.0687	-2.6729	-2.6667	-2.9271	-2.6396	185.996	127.661	334.015	40.640	133.480	63.112	235.313	233.995	233.619	-20.785	150.652	265.011	261.844	295.887	84.526	170.514	0.0003954	0.00034583	6.6593e-05	1222.4	6.9233e-06	1.4666e-06	1282.7	255.07	7.0323e-06	3.6373e-06	318.09	88.293	69.618	20.693	3.9718e-06	28.914	0.00043236	0.00048507	0.0001362	1202.5	5.3486e-06	5.3877e-06	1264.6	253.85	5.2035e-06	5.4768e-06	316.33	89.043	69.879	20.997	5.232e-06	29.345	314.866	91.928	71.362	-14.769	146.778	125.225	-14.730	-7.634	126.744	132.681	-7.925	-1.383	-0.878	5.725	136.802	4.967	-8191	255	
543.838	1	1	0	0	0.24951	0.28181	0.26589	0.26534	0.12933	0.14105	0.25834	0.26689	0.18683	0.27016	0.14574	0.34776	0.11538	0.27028	0.10478	0.18633	-2.4917	-2.7542	-2.6125	-3.1937	-2.7812	-2.9146	-3.1875	-2.6458	-2.8667	-2.8417	-2.8271	-2.9688	-2.6917	-2.7979	-2.8667	-2.7292	112.504	67.022	233.854	271.042	162.304	289.762	271.522	295.512	121.513	93.680	298.799	239.390	172.839	-17.509	62.895	25.570	0.00040922	0.00047387	5.5522e-05	1224.1	2.526e-06	3.8354e-06	1291.5	255.95	3.989e-06	2.8821e-06	318.51	88.9	69.873	20.595	5.4096e-06	28.93	0.00046157	0.00049174	0.00013972	1204.2	5.4343e-06	5.5477e-06	1272.1	254.87	5.4574e-06	5.3472e-06	317.25	89.112	70.109	20.965	5.1292e-06	29.387	320.569	71.635	107.948	-14.986	132.122	138.443	-14.961	-7.635	169.360	154.421	-8.063	-1.142	-1.416	5.911	140.387	4.790	-8191	255	
543.959	1	1	0	0	0.10672	0.11013	0.30108	0.39829	0.12276	0.2388	0.15902	0.0012289	0.20193	0.17784	0.16616	0.11154	0.1666	0.2423	0.041288	0.27231	-2.3604	-2.8063	-2.5896	-3.1146	-2.7062	-2.5917	-3.1167	-2.7083	-2.9021	-2.9396	-2.6937	-2.95	-2.9292	-2.7812	-3.0167	-2.8812	219.287	331.752	96.133	323.529	-7.437	303.313	265.424	180.000	97.636	39.643	6.100	317.576	-21.598	280.542	91.761	26.026	0.00040622	0.00046752	0.00012659	1221.5	6.4014e-06	5.4769e-06	1289.5	256.12	4.4231e-06	4.2635e-06	317.52	89.191	69.645	20.653	4.8384e-06	28.963	0.0004367	0.00045197	0.00013149	1205.9	4.8904e-06	5.1016e-06	1272.4	254.62	4.8078e-06	4.8174e-06	317.16	89.276	70.134	20.99	4.7886e-06	29.307	-20.558	88.084	47.391	-14.915	140.244	108.225	-14.681	-7.648	130.122	108.264	-7.913	-1.531	-0.648	5.560	121.079	4.911	-8191	255	
544.055	1	1	0	0	0.041477	0.043029	0.12697	0.0068557	0.050257	0.19077	0.22968	0.17528	0.095614	0.25529	0.26843	0.21803	0.21438	0.25552	0.092176	0.079657	-2.2938	-3.0104	-2.775	-3.0417	-2.9146	-2.8354	-3.0875	-2.7917	-2.9208	-3.1208	-2.7896	-3.0687	-2.9062	-2.6729	-3.0062	-2.7583	28.885	187.305	309.862	172.315	87.549	-9.988	273.741	298.286	207.384	318.772	-2.505	290.637	243.418	264.702	118.636	227.841	0.0004153	0.00036153	7.1275e-05	1225.3	6.3773e-06	5.6783e-06	1291.5	255.65	3.7174e-06	3.7658e-06	318.99	88.78	69.789	20.725	1.8213e-06	28.755	0.00041399	0.00043216	0.00012466	1206.9	4.9313e-06	5.0334e-06	1273.2	254.73	5.0196e-06	5.0796e-06	317.13	89.221	70.093	21.01	5.0679e-06	29.32	-25.690	39.629	19.625	-14.894	155.873	105.056	-14.739	-7.876	135.576	137.839	-8.077	-1.214	-1.312	5.815	160.048	5.265	-8191	255	
544.151	1	1	0	0	0.097369	0.21215	0.143	0.23801	0.15942	0.11669	0.39817	0.27254	0.14641	0.13507	0.10952	0.16616	0.25237	0.21707	0.11389	0.21188	-2.3646	-3.0542	-2.8521	-2.8354	-2.8271	-2.8167	-2.9417	-2.8271	-2.9313	-2.9521	-2.6854	-2.8417	-2.7833	-2.7125	-3.0812	-2.8479	143.231	80.347	78.500	312.390	25.559	212.041	282.345	317.917	124.186	-10.428	194.171	209.075	327.096	316.544	116.801	310.654	0.00032811	0.00030934	0.00010496	1224.1	3.8607e-06	3.6582e-06	1291	256.04	3.329e-06	2.6959e-06	318.49	88.576	70.079	20.676	6.4662e-06	28.879	0.00045139	0.00047404	0.0001295	1207.2	5.0577e-06	5.1461e-06	1271.5	254.77	4.9888e-06	4.9445e-06	316.89	88.995	69.955	20.968	4.6837e-06	29.352	324.970	83.719	78.356	-14.744	169.127	135.632	-14.665	-7.463	124.864	147.949	-8.281	-1.057	-0.978	5.818	142.496	5.273	-8191	255	
544.270	1	1	0	0	0.059141	0.1491	0.10671	0.18173	0.17344	0.10966	0.20348	0.061116	0.18789	0.042759	0.04221	0.20606	0.13691	0.11924	0.24643	0.099707	-2.4667	-2.9333	-2.7687	-3.0167	-3.0708	-2.6979	-3.2167	-2.7958	-2.9938	-2.9562	-2.8167	-2.9271	-2.7542	-2.7271	-3.1042	-2.9354	312.682	137.618	170.607	309.294	158.105	168.893	-22.305	144.259	244.167	207.571	217.509	196.664	333.487	140.716	38.038	189.605	0.00047679	0.00033517	4.7648e-05	1221.7	4.2288e-06	3.4016e-06	1287.2	256.57	2.8017e-06	2.7673e-06	318.7	88.912	69.752	20.638	5.9296e-06	28.85	0.00042662	0.00042515	0.00011977	1204.3	4.8215e-06	4.7059e-06	1268.5	254.49	4.8436e-06	4.7811e-06	316.92	89.303	69.931	20.963	4.8333e-06	29.284	320.963	60.183	32.067	-14.758	113.910	158.118	-14.702	-7.417	131.245	118.106	-7.872	-1.128	-0.973	5.878	116.977	5.099	-8191	255	
544.343	1	1	0	0	0.090078	0.21811	0.093042	0.18208	0.12849	0.21366	0.17102	0.16704	0.1237	0.17572	0.19085	0.15608	0.074744	0.23088	0.12191	0.14438	-2.2479	-3.0187	-2.7125	-3.0062	-3.0292	-2.6521	-3.0292	-2.8292	-2.6021	-2.9729	-2.7125	-2.6729	-3.0083	-2.9396	-2.9208	-2.95	303.771	-7.998	-9.094	293.809	-16.135	89.472	304.619	-1.200	72.799	243.665	212.866	256.346	208.383	54.359	94.849	278.565	0.00039295	0.00042866	7.4644e-05	1220.7	6.4198e-06	4.6211e-06	1290.3	255.44	4.1369e-06	2.888e-06	318.08	89.421	69.941	20.753	5.2381e-06	28.767	0.00042618	0.0004351	0.00012029	1202.1	4.8076e-06	4.828e-06	1270.5	254.28	4.9264e-06	4.8527e-06	316.77	89.343	69.964	21.023	4.8594e-06	29.305	324.745	31.063	62.754	-14.780	164.572	131.537	-14.717	-7.829	142.326	116.542	-8.250	-1.274	-0.787	5.742	125.410	4.965	-8191	255	
544.438	1	1	0	0	0.18218	0.22468	0.12713	0.21322	0.10829	0.089142	0.3237	0.30972	0.20268	0.18219	0.26075	0.15221	0.11519	0.21852	0.28161	0.2156	-2.3208	-2.925	-2.7375	-2.8563	-3.0354	-2.6937	-2.9688	-2.9583	-2.8	-3.0021	-3.1	-2.7687	-3.1042	-2.6333	-2.8458	-2.8479	237.492	86.760	245.194	-19.803	126.406	-4.267	304.726	332.465	293.298	95.502	308.093	112.543	151.144	-25.543	258.962	333.014	0.00041638	0.00023143	9.4255e-05	1217.9	5.2053e-06	3.522e-06	1292.6	255.46	5.2194e-06	3.6441e-06	317.91	88.879	69.856	20.77	5.3184e-06	28.796	0.00042615	0.00044125	0.00012201	1203.3	4.9132e-06	5.0068e-06	1269.4	254.2	4.9106e-06	4.9537e-06	316.6	88.973	69.951	21.012	4.7773e-06	29.324	-21.677	60.933	68.276	-14.802	129.682	102.947	-14.731	-7.643	149.930	117.678	-8.037	-1.141	-0.647	5.571	152.057	5.482	-8191	255	
544.558	1	1	0	0	0.36291	0.074202	0.14315	0.20868	0.37047	0.14445	0.32703	0.27661	0.11773	0.19324	0.075799	0.058114	0.040811	0.15427	0.27203	0.2035	-2.0583	-3.1167	-2.7875	-2.7875	-2.9583	-2.6917	-3.0729	-2.9083	-2.9	-2.9229	-2.8646	-2.9062	-2.8333	-2.8271	-2.7458	-2.9437	267.774	232.913	-21.758	52.181	144.212	259.492	269.052	37.406	242.821	258.546	309.938	27.434	177.786	291.535	224.393	263.842	0.00041627	0.00043217	9.218e-05	1219.7	2.9498e-06	4.1504e-06	1282.5	255.52	6.5354e-06	1.6605e-06	316.84	88.13	69.754	20.66	3.1132e-06	28.739	0.00042152	0.00043571	0.00012295	1201.8	4.7018e-06	4.7881e-06	1265.1	253.83	4.8173e-06	4.661e-06	316.08	88.763	69.955	20.946	4.6277e-06	29.229	326.990	60.448	68.827	-14.833	182.718	98.886	-14.786	-7.639	170.501	123.807	-8.249	-1.227	-0.838	5.994	181.233	5.255	-8191	255	
544.654	1	1	0	0	0.11876	0.18675	0.069002	0.18984	0.27876	0.1271	0.20447	0.35295	0.12839	0.096086	0.075299	0.075178	0.13943	0.15363	0.17134	0.29632	-2.1	-2.9146	-2.9771	-2.8312	-2.95	-2.7375	-3.1063	-2.9771	-2.7417	-2.7812	-2.9813	-2.7854	-3.1896	-2.7604	-2.7146	-3.0625	167.174	69.942	67.809	276.915	289.994	117.392	170.454	314.822	307.105	-9.104	220.162	222.527	37.989	121.749	139.023	285.579	0.00040292	0.00029891	0.00010129	1217	6.5206e-06	6.188e-06	1286.1	255.3	5.6308e-06	2.0671e-06	316.64	89.552	70.107	20.658	3.0363e-06	28.683	0.00040827	0.00041263	0.0001184	1199.8	4.4607e-06	4.6117e-06	1268.2	254.01	4.5706e-06	4.5938e-06	315.48	89.133	69.978	20.916	4.7317e-06	29.229	326.592	29.949	85.587	-14.633	159.980	135.473	-14.827	-7.424	127.503	95.453	-8.049	-1.075	-0.821	5.847	137.996	5.215	-8191	255	
544.751	1	1	0	0	0.11181	0.21819	0.19465	0.20641	0.17388	0.34865	0.15769	0.34244	0.145	0.046369	0.23253	0.10991	0.25004	0.090622	0.35945	0.22378	-2.1646	-2.9	-2.775	-2.7771	-3.0292	-2.8958	-3.0583	-3.1125	-2.6813	-2.9104	-2.8937	-2.6792	-2.9875	-2.8667	-2.7333	-3.1167	21.198	66.770	264.556	288.758	196.715	167.224	244.278	274.685	118.750	293.807	297.784	321.655	124.368	9.704	29.616	253.765	0.00035646	0.00032637	9.7431e-05	1217.7	5.5896e-06	4.9997e-06	1285.1	255.3	6.2834e-06	3.6762e-06	317.89	88.697	69.938	20.566	5.7823e-06	28.806	0.00041753	0.00043895	0.00012304	1200.8	4.8495e-06	4.7995e-06	1267.6	254.14	4.6895e-06	4.7449e-06	315.87	89.102	69.947	20.945	4.7554e-06	29.278	325.281	76.307	65.479	-14.774	143.450	135.581	-14.733	-7.791	112.701	110.226	-8.192	-1.338	-0.814	5.857	143.226	5.379	-8191	255	
544.847	1	1	0	0	0.16458	0.052333	0.22547	0.11794	0.14534	0.12301	0.1821	0.20579	0.18879	0.21319	0.040518	0.1154	0.13755	0.14214	0.12069	0.16126	-2.2542	-2.9479	-2.7417	-2.775	-3.0146	-2.8292	-2.9813	-3.125	-2.8104	-2.9604	-3.0312	-2.5792	-2.925	-2.8979	-2.7313	-3.0021	244.571	60.767	173.231	197.214	290.180	7.891	-21.744	304.500	-21.625	52.815	26.672	301.568	-3.042	13.614	275.869	318.573	0.00043551	0.00030071	0.00011082	1218.1	6.5778e-06	1.9733e-06	1284.7	255.41	3.3244e-06	3.2507e-06	315.78	88.749	69.862	20.651	5.9451e-06	28.882	0.00042112	0.00045097	0.00012165	1200.9	4.912e-06	4.9175e-06	1267.9	254.36	4.7847e-06	4.8444e-06	315.6	89.232	70.004	20.918	4.977e-06	29.332	325.535	42.920	85.328	-14.648	152.519	87.549	-14.729	-7.522	149.825	111.287	-7.978	-1.123	-0.647	5.536	123.621	5.130	-8191	255	
544.967	1	1	0	0	0.2199	0.22444	0.10533	0.075672	0.09501	0.094371	0.29281	0.13307	0.1231	0.28428	0.30085	0.14717	0.046869	0.0037449	0.10814	0.29897	-2.3083	-2.6458	-2.975	-2.9313	-2.8812	-2.6292	-2.7729	-2.9979	-2.9625	-2.8063	-3.2167	-2.6146	-2.8875	-2.7833	-2.7208	-3.125	188.407	180.861	285.940	-15.872	287.747	152.554	247.323	243.822	14.651	12.847	-7.754	56.376	316.999	148.026	300.000	259.048	0.00039892	0.00047965	5.3584e-05	1222.8	3.9148e-06	2.6722e-06	1288.3	255.26	4.3938e-06	2.9806e-06	318.81	88.957	69.698	20.765	5.6295e-06	28.781	0.00042757	0.00046759	0.00012574	1201.8	5.1782e-06	5.0729e-06	1269.7	254.46	5.2471e-06	5.4872e-06	316.91	89.228	70.02	21.008	5.6207e-06	29.323	329.387	69.835	38.113	-14.806	187.496	147.922	-14.733	-7.678	121.234	152.306	-8.015	-1.324	-0.993	5.512	146.687	5.304	-8191	255	
545.039	1	1	0	0	0.043946	0.29975	0.15742	0.12252	0.16883	0.11379	0.3123	0.1617	0.011993	0.083476	0.17994	0.085911	0.32858	0.16151	0.094736	0.17472	-2.3854	-2.6042	-3.0812	-2.8146	-2.8083	-2.9313	-2.8479	-2.8167	-2.7875	-2.8521	-2.9917	-2.7125	-2.6708	-3.075	-2.6688	-3.0042	318.344	328.465	301.621	-23.410	184.102	41.606	277.835	260.242	118.206	2.955	275.955	177.413	-12.232	265.964	223.343	132.742	0.00042034	0.00024048	0.00013769	1224.1	4.7016e-06	4.4408e-06	1288.1	256.16	8.1735e-06	2.4763e-06	317.89	88.469	69.851	20.591	5.6359e-06	28.991	0.00047885	0.00050465	0.00014198	1205.4	5.6782e-06	5.675e-06	1270.7	254.92	5.5155e-06	5.9147e-06	317.34	89.28	70.179	21.002	5.8491e-06	29.459	323.137	62.260	47.166	-14.882	122.193	122.892	-14.619	-7.466	173.645	130.085	-8.046	-1.484	-0.751	5.453	142.955	5.287	-8191	255	
545.135	1	1	0	0	0.16321	0.042303	0.060134	0.3321	0.2482	0.28508	0.15817	0.13243	0.15314	0.24554	0.11117	0.07912	0.2283	0.1128	0.22566	0.30434	-2.3438	-2.4938	-2.9708	-2.6708	-2.9354	-2.9229	-2.8271	-2.7875	-2.8229	-2.5521	-2.9542	-2.9437	-2.9604	-2.8937	-2.6542	-2.7708	213.103	88.022	23.168	26.592	3.871	86.868	305.345	263.209	229.547	7.964	298.766	259.776	254.277	54.761	107.379	311.179	0.00046206	0.00056992	5.8315e-05	1222.9	4.4998e-06	8.6533e-06	1291.3	256.08	6.3917e-06	1.812e-06	318.44	88.834	69.601	20.736	5.0799e-06	28.911	0.00050465	0.00055185	0.00014876	1205	5.9585e-06	6.059e-06	1272.3	255.18	5.9423e-06	6.2639e-06	317.69	89.517	70.406	21.062	6.143e-06	29.434	327.324	66.549	122.755	-14.780	148.398	150.749	-14.739	-7.584	205.458	135.298	-8.000	-1.182	-0.654	5.804	162.157	5.272	-8191	255	
545.231	1	1	0	0	0.11716	0.34502	0.15329	0.016878	0.33596	0.18585	0.30824	0.2443	0.28502	0.1989	0.14794	0.25427	0.12788	0.1289	0.078607	0.13903	-2.3771	-2.5271	-3.0375	-2.9396	-2.7458	-2.8958	-2.8646	-2.8208	-2.9396	-2.7667	-2.9396	-2.85	-2.6813	-3.15	-2.675	-3.0104	83.797	311.254	285.027	144.301	159.428	160.017	230.171	-20.681	90.258	134.454	255.795	315.071	22.970	327.409	197.227	132.945	0.00033559	0.00020368	1.7961e-06	1228.2	3.2661e-06	7.3017e-06	1293.3	257.74	4.2783e-06	3.3476e-06	319.7	89.458	70.212	20.748	3.25e-06	28.91	0.00051178	0.00055634	0.00015102	1209.3	6.0153e-06	6.1226e-06	1276.4	256.21	5.957e-06	6.1177e-06	318.74	89.674	70.464	21.087	6.0668e-06	29.45	313.176	39.103	45.782	-14.971	77.556	140.423	-14.640	-7.621	143.532	112.499	-8.202	-1.109	-0.602	5.798	123.203	4.981	-8191	255	
545.350	1	1	0	0	0.1178	0.19316	0.14857	0.14119	0.12482	0.11634	0.20955	0.14305	0.12359	0.21308	0.093114	0.10245	0.26745	0.048765	0.047094	0.069689	-2.4521	-2.6854	-3.0271	-2.9562	-2.7021	-2.875	-2.9625	-2.8646	-2.9	-2.6292	-3.0979	-2.7333	-2.6521	-3.0729	-2.7417	-2.8	92.598	124.881	292.214	-15.137	110.964	4.613	252.713	43.585	283.309	24.264	131.247	274.788	289.301	8.390	214.016	29.611	0.00044446	0.00051359	0.00012464	1228.1	2.4756e-06	5.6831e-06	1296.2	257.73	4.0511e-06	4.5702e-06	320.81	89.501	70.339	20.803	5.2678e-06	28.872	0.00050225	0.00055542	0.00015245	1212	6.2195e-06	6.3138e-06	1277.2	256.21	6.2338e-06	6.4931e-06	319.16	89.709	70.677	21.142	6.3047e-06	29.431	330.230	50.425	67.709	-14.800	149.613	129.561	-14.752	-7.565	170.899	140.789	-8.118	-1.363	-0.939	6.033	137.029	5.313	-8191	255	
545.446	1	1	0	0	0.29392	0.10665	0.16947	0.1944	0.10222	0.067066	0.13273	0.2002	0.13047	0.052096	0.19736	0.15056	0.23768	0.1132	0.068477	0.11484	-2.4604	-2.5833	-2.9188	-2.9604	-2.6833	-2.9021	-2.9771	-2.7354	-2.9437	-2.8542	-2.8208	-2.95	-2.7771	-2.9083	-2.9625	-2.725	106.252	264.195	193.898	-23.362	138.625	-23.209	211.485	278.535	288.880	267.756	166.815	215.793	293.496	221.483	42.847	276.680	0.00049761	0.000417	6.3589e-05	1228.1	5.7035e-06	4.1797e-06	1295	258.38	4.0232e-06	3.3343e-06	317.66	89.14	70.334	20.701	5.4322e-06	28.798	0.00053279	0.00059844	0.00016374	1211.6	6.3129e-06	6.2733e-06	1277.8	256.47	6.0326e-06	6.2455e-06	318.18	89.668	70.603	21.079	5.9389e-06	29.425	-18.876	38.549	40.581	-14.724	112.348	124.202	-14.895	-7.802	164.920	139.007	-7.866	-1.424	-0.645	5.728	177.217	5.179	-8191	255	
545.542	1	1	0	0	0.20453	0.092672	0.093387	0.23098	0.3012	0.11002	0.28308	0.2206	0.20361	0.12921	0.097226	0.069263	0.15898	0.029644	0.14033	0.13346	-2.4146	-2.5458	-2.8729	-3.0104	-2.8729	-2.9021	-2.9625	-2.7354	-3.2313	-2.7146	-2.9708	-3.0104	-2.5271	-2.9167	-2.8146	-2.8479	44.805	53.926	28.502	327.378	277.780	219.029	229.694	194.839	34.591	329.037	246.566	299.606	8.010	268.368	216.140	119.077	0.00045671	0.00023701	0.00010206	1228.3	7.0461e-06	1.7446e-06	1297.4	257.91	3.8914e-06	3.5466e-06	319.96	89.476	70.3	20.783	3.0039e-06	29.063	0.00051003	0.00055362	0.00015329	1212.1	6.1186e-06	6.046e-06	1277.6	256.43	5.8678e-06	6.1362e-06	318.82	89.809	70.655	21.128	6.1027e-06	29.508	320.620	56.896	40.966	-14.847	156.005	129.749	-14.816	-7.675	150.534	158.491	-8.335	-1.350	-0.737	5.316	168.181	5.221	-8191	255	
545.639	1	1	0	0	0.077208	0.089672	0.16979	0.3159	0.31045	0.044051	0.059279	0.15583	0.077551	0.051669	0.21632	0.13419	0.11	0.34661	0.27993	0.20624	-2.6625	-2.7167	-2.8542	-3.0438	-2.7292	-3.0625	-3.0021	-2.8021	-2.9104	-2.8917	-2.9313	-2.9396	-2.6437	-2.9854	-2.8479	-2.8	147.767	194.167	252.221	308.284	16.662	149.158	85.344	236.986	276.117	105.741	2.017	330.744	55.576	28.795	115.151	161.440	0.00043051	0.00021204	5.2446e-05	1227.5	5.4986e-06	2.2281e-06	1298.4	257.71	3.4635e-06	4.1484e-06	320.54	89.526	70.773	20.813	3.7529e-06	29.043	0.00050576	0.00053623	0.00015078	1211.4	5.9954e-06	6.0485e-06	1280.1	256.47	5.6525e-06	5.9083e-06	318.83	89.682	70.737	21.145	5.5786e-06	29.47	-25.358	79.005	89.336	-14.794	143.154	100.918	-14.560	-7.765	97.084	156.291	-8.008	-1.337	-0.834	5.660	140.914	5.214	-8191	255	
545.735	1	1	0	0	0.28022	0.13311	0.23548	0.57091	0.16278	0.14619	0.22343	0.11851	0.22515	0.2912	0.28288	0.12685	0.20136	0.17539	0.22259	0.269	-2.5208	-2.8854	-2.6437	-3.1208	-2.5479	-2.8646	-2.975	-2.8354	-2.8479	-2.8812	-2.825	-3.1188	-2.7271	-2.6792	-2.9396	-2.7917	142.850	310.594	226.454	281.341	-18.485	114.617	259.811	233.541	314.936	64.670	324.225	225.884	270.765	300.814	244.715	-6.926	0.00032261	0.00018487	0.00012341	1224.9	6.3286e-06	4.6875e-06	1296	256.75	3.2674e-06	2.2375e-06	319.19	89.38	70.254	20.75	6.1301e-06	28.721	0.00048087	0.00049338	0.00014225	1210	5.6877e-06	5.7686e-06	1278.9	255.72	5.6722e-06	5.6402e-06	318.46	89.503	70.427	21.112	5.4441e-06	29.392	320.579	21.900	82.115	-14.828	126.489	131.604	-14.666	-7.629	137.826	104.236	-8.047	-1.196	-0.708	5.733	137.240	5.034	-8191	255	
545.831	1	1	0	0	0.30227	0.073559	0.26652	0.04672	0.051096	0.31881	0.29642	0.074956	0.089046	0.10518	0.24139	0.26706	0.15531	0.14055	0.13255	0.047899	-2.4021	-2.7104	-2.5104	-3.1521	-2.6875	-2.8646	-2.9646	-2.8	-2.95	-2.7396	-2.7833	-2.8458	-2.8625	-2.6896	-3.2167	-2.6729	134.816	47.741	198.707	47.879	92.022	-24.067	316.009	300.086	292.435	49.148	294.042	204.826	182.392	281.186	300.364	84.623	0.00039798	0.00033946	9.1647e-05	1227.6	2.9197e-06	5.0697e-06	1294.3	257.47	8.5076e-06	2.1998e-06	319.33	89.233	70.282	20.816	5.3496e-06	28.809	0.0004609	0.00050941	0.00014011	1210.1	5.2664e-06	5.5165e-06	1276	255.71	5.1937e-06	5.2854e-06	318.71	89.405	70.456	21.059	5.0913e-06	29.365	329.040	-6.573	47.413	-14.676	169.517	139.167	-14.681	-7.689	172.974	109.933	-8.135	-1.301	-0.828	5.471	137.704	5.055	-8191	255	
545.952	1	1	0	0	0.1007	0.088349	0.2726	0.33629	0.13722	0.37646	0.16012	0.10734	0.13672	0.246	0.018146	0.15324	0.15684	0.030349	0.14701	0.081376	-2.5271	-2.7229	-2.5792	-3.0708	-2.8833	-2.8083	-3.1958	-2.6271	-2.9771	-2.9083	-2.7417	-3.0104	-2.8021	-2.8625	-2.9792	-2.8229	184.977	118.738	275.855	280.426	288.941	-9.710	313.251	266.170	252.757	-18.203	-21.090	277.678	92.448	73.701	30.396	-6.693	0.00031383	0.00018019	0.00010577	1224.5	6.7378e-06	4.5398e-06	1293.8	255.99	3.3705e-06	3.537e-06	319.64	89.26	70.103	20.672	2.9466e-06	28.858	0.00044909	0.00047019	0.00013602	1207	5.3307e-06	5.2481e-06	1275.1	255.24	5.1348e-06	5.2882e-06	317.75	89.525	70.284	21.057	4.9746e-06	29.311	331.403	56.668	53.172	-14.851	154.570	114.535	-14.930	-7.546	186.010	126.113	-8.178	-1.069	-0.767	5.664	146.093	5.129	-8191	255	
546.048	1	1	0	0	0.12934	0.28632	0.17422	0.010244	0.12879	0.054369	0.17986	0.31961	0.076698	0.1213	0.28378	0.29555	0.26905	0.10468	0.14282	0.15733	-2.2792	-2.9437	-2.7125	-3.0917	-2.75	-2.7375	-2.9354	-2.7979	-2.8604	-2.8917	-2.6875	-3.0958	-2.8958	-2.7646	-3.0438	-2.4813	77.188	24.438	235.118	300.824	267.464	268.318	261.121	299.500	213.360	317.315	216.611	296.450	309.443	73.328	167.784	299.242	0.00034029	0.00030745	6.458e-05	1219.9	6.117e-06	2.273e-06	1294.1	256.54	6.5718e-06	3.2197e-06	316.15	88.688	69.841	20.677	6.0734e-06	28.786	0.000424	0.00044443	0.00012622	1204.8	5.0799e-06	5.013e-06	1271.8	255.3	4.9504e-06	4.7925e-06	317.09	89.186	70.173	20.979	4.783e-06	29.262	325.023	100.676	96.447	-14.620	168.747	97.068	-14.671	-7.442	143.821	100.108	-7.973	-1.262	-1.037	5.591	155.131	5.222	-8191	255	
546.144	1	1	0	0	0.14825	0.1605	0.13737	0.19586	0.20752	0.19068	0.060892	0.20407	0.074379	0.21831	0.10315	0.35862	0.13875	0.12375	0.18617	0.30407	-2.5354	-2.9167	-2.6646	-3.0854	-2.6312	-2.7687	-3.3792	-2.7562	-3.0333	-2.8646	-2.9271	-2.8083	-2.8917	-2.6	-3.0729	-2.9938	258.214	190.009	153.488	254.909	23.718	264.322	97.670	280.788	54.062	180.019	121.105	325.549	310.287	-10.354	135.114	261.186	0.00039739	0.00026021	0.00016041	1221.9	6.045e-06	4.9388e-06	1289.3	256.21	6.0016e-06	4.1222e-06	317.67	88.338	69.917	20.742	4.9294e-06	28.673	0.00041977	0.00043368	0.00012477	1204.1	4.8624e-06	5.0383e-06	1269.4	254.78	4.9507e-06	4.8591e-06	317.23	89.095	69.979	20.979	4.7904e-06	29.25	320.033	92.213	35.604	-14.676	154.703	110.317	-14.705	-7.785	144.077	115.018	-7.894	-1.067	-0.620	5.540	127.544	5.088	-8191	255	
546.240	1	1	0	0	0.1155	0.33188	0.29567	0.318	0.23678	0.091159	0.40579	0.11918	0.19104	0.12332	0.12961	0.13348	0.33534	0.32573	0.19139	0.16219	-2.4354	-3.0021	-2.7479	-3.1958	-2.8896	-2.9542	-2.9854	-2.9562	-2.9917	-3.0708	-2.9062	-2.9729	-2.7958	-2.7167	-2.8167	-2.7062	230.934	6.478	173.018	315.633	-24.525	94.428	298.598	46.017	62.728	250.091	78.379	-22.707	264.515	248.583	252.624	212.453	0.0005425	0.00038477	0.00010297	1224.5	7.8119e-06	4.7314e-06	1289.8	256.63	5.2851e-06	3.4918e-06	318.47	89.156	69.654	20.737	4.0672e-06	28.895	0.00043001	0.00043754	0.00012325	1204.7	4.9155e-06	5.1103e-06	1271.3	254.95	4.9821e-06	4.9236e-06	317.01	89.201	70.045	21.016	4.9574e-06	29.314	326.543	72.554	50.761	-14.751	166.857	122.091	-14.794	-7.634	182.646	123.559	-8.004	-0.991	-0.826	5.684	127.064	4.840	-8191	255	
546.334	1	1	0	0	0.18181	0.2771	0.32183	0.22837	0.054337	0.23124	0.18162	0.074488	0.25033	0.15511	0.18098	0.054832	0.16141	0.23203	0.1619	0.22329	-2.5187	-2.9	-2.9104	-2.9958	-3.0354	-2.9604	-3.125	-3.1417	-2.6417	-2.9167	-2.7458	-2.8625	-3.0687	-2.7646	-2.9146	-2.7958	17.038	276.722	237.280	218.223	134.799	333.192	311.670	12.498	255.625	109.063	48.850	242.701	258.210	225.220	102.616	326.449	0.00031921	0.00055139	3.453e-05	1217.9	3.745e-06	4.9648e-06	1285.6	256.42	1.4489e-06	4.6712e-06	317.68	88.709	70.335	20.729	4.5369e-06	28.888	0.000434	0.00044562	0.00012388	1201.9	4.8515e-06	5.0244e-06	1268.7	254.67	4.9354e-06	4.9586e-06	316.71	89.168	70.011	21.019	4.9174e-06	29.285	317.461	51.292	55.267	-14.863	159.705	164.142	-14.830	-7.631	188.624	140.264	-8.100	-1.632	-0.831	5.604	158.142	5.319	-8191	255	
546.431	1	1	0	0	0.11413	0.20719	0.20871	0.11307	0.25679	0.093694	0.31886	0.2954	0.13799	0.031299	0.077955	0.15947	0.17278	0.24432	0.11822	0.10104	-2.2708	-2.9833	-3.05	-2.9604	-2.7625	-2.9792	-3.0125	-2.9104	-2.6042	-3.1562	-2.8354	-2.7917	-3.0875	-2.6042	-2.8187	-3.0229	222.230	-23.130	75.682	300.282	40.690	283.254	303.721	314.452	69.610	281.421	82.684	270.668	-19.357	165.606	284.163	34.151	0.00044757	0.00030296	7.9834e-05	1224	2.9306e-06	5.0434e-06	1287.1	255.28	1.9551e-06	2.6512e-06	317.39	89.413	70.09	20.668	4.0487e-06	28.803	0.00044929	0.00046709	0.00013222	1203.1	5.0634e-06	5.1267e-06	1267.3	254.59	5.0831e-06	4.9804e-06	316.5	89.322	70.063	20.92	5.0593e-06	29.297	329.671	89.897	70.987	-14.719	144.503	129.011	-14.548	-7.471	102.223	85.136	-7.943	-1.124	-0.618	5.303	89.197	5.359	-8191	255	
546.527	1	1	0	0	0.11939	0.1329	0.2215	0.13927	0.11738	0.18862	0.27614	0.17103	0.091416	0.22312	0.16497	0.17489	0.12719	0.14858	0.14153	0.29662	-2.1875	-2.9354	-2.975	-2.9313	-3.1333	-2.7604	-3.2146	-2.9396	-2.9	-2.9229	-2.8375	-2.9146	-3.0979	-2.8417	-3.0146	-2.9396	80.770	152.043	23.259	309.229	112.250	311.651	260.406	78.408	147.749	113.211	127.305	116.019	324.202	42.878	254.017	-10.598	0.00037329	0.0003839	0.00014122	1217.3	6.3973e-06	2.4263e-06	1283.7	257.65	3.4891e-06	2.2981e-06	318.94	88.867	69.782	20.631	6.1328e-06	28.85	0.00042551	0.00044742	0.00012438	1202.2	5.0034e-06	5.0738e-06	1268.4	255.44	5.0944e-06	5.1091e-06	317.34	89.164	70.076	20.97	5.0496e-06	29.323	-21.053	75.358	78.248	-14.635	154.832	112.869	-14.862	-7.715	219.233	103.145	-8.008	-1.237	-0.703	5.857	142.832	5.303	-8191	255	
546.647	1	1	0	0	0.16389	0.22357	0.067148	0.28811	0.1263	0.15704	0.30302	0.21683	0.15805	0.097855	0.084021	0.16801	0.028852	0.091911	0.11804	0.11054	-2.3396	-2.8271	-2.8083	-2.7938	-3.0146	-2.8167	-3.0125	-3.0292	-2.9854	-2.9167	-3.1375	-2.6833	-3.1104	-2.9562	-2.8458	-3.0312	168.383	87.169	16.585	284.151	331.645	100.393	256.591	305.999	111.740	11.306	11.591	15.628	277.425	-14.835	236.071	28.337	0.00041536	0.00030335	0.00010063	1219.6	4.0947e-06	3.3067e-06	1287.8	256.06	3.7171e-06	1.8521e-06	318.04	89.114	69.737	20.65	5.3405e-06	28.913	0.00044628	0.0004775	0.00013114	1203.1	5.1632e-06	5.2289e-06	1269.4	254.98	5.2381e-06	5.2639e-06	316.82	89.146	69.983	21.003	5.0419e-06	29.278	322.347	102.162	84.753	-14.628	129.362	141.839	-14.727	-7.549	158.983	127.452	-8.082	-0.965	-0.543	5.894	105.181	5.251	-8191	255	
546.743	1	1	0	0	0.18333	0.090779	0.112	0.12943	0.071315	0.074221	0.042309	0.1241	0.067819	0.071015	0.14273	0.062426	0.1392	0.19367	0.18692	0.23125	-2.0417	-2.9562	-2.7583	-3.05	-3.0271	-2.8271	-3.0292	-2.9062	-2.5854	-2.9437	-3.1	-2.625	-3.1604	-2.7583	-2.8583	-3.1458	106.996	194.622	-25.205	145.098	249.591	127.529	240.962	258.527	106.893	87.990	160.991	150.580	131.500	170.675	221.592	308.145	0.00041658	0.00019809	4.7389e-05	1219.1	4.3132e-06	2.1149e-06	1291.4	255.48	3.377e-06	3.4561e-06	317.66	88.456	69.712	20.712	3.1216e-06	28.871	0.00044105	0.00046019	0.00012566	1202.4	4.9074e-06	5.0124e-06	1270.7	254.85	4.9596e-06	4.8167e-06	316.88	89.107	70.04	20.938	4.8967e-06	29.286	-23.440	62.263	122.645	-14.797	107.047	135.142	-14.662	-7.559	132.515	126.473	-8.198	-1.401	-1.113	5.673	130.347	4.998	-8191	255	
546.840	1	1	0	0	0.2348	0.2115	0.28483	0.095077	0.074792	0.16517	0.43863	0.16868	0.19429	0.086476	0.10293	0.28046	0.092706	0.1021	0.067862	0.03958	-2.4542	-2.8792	-2.9104	-2.9375	-2.95	-2.7708	-2.7604	-3.2396	-2.775	-2.8979	-3.2667	-2.7229	-3.2062	-2.8771	-2.8083	-3.1375	92.216	240.736	68.852	167.173	16.193	67.078	283.561	319.749	174.908	101.976	45.787	44.976	260.226	98.051	69.455	108.987	0.00037681	0.00057205	9.9722e-05	1221.1	5.6986e-06	5.5174e-06	1288.4	255.43	5.4476e-06	3.9739e-06	318.35	88.395	69.666	20.72	4.0641e-06	28.891	0.00041922	0.00043862	0.00012045	1202.8	4.7909e-06	4.9015e-06	1268.9	254.66	4.7706e-06	4.9153e-06	316.69	89.033	69.96	20.93	4.8641e-06	29.262	330.223	63.502	81.105	-14.852	123.244	118.711	-14.630	-7.669	175.686	126.424	-8.052	-0.881	-0.807	5.411	154.980	5.056	-8191	255	
546.911	1	1	0	0	0.25151	0.059232	0.12565	0.15667	0.14263	0.24153	0.21244	0.1875	0.2999	0.11891	0.35129	0.11804	0.0299	0.17431	0.077197	0.027369	-2.2208	-2.8667	-2.9729	-2.7708	-2.9458	-2.875	-2.8354	-3.0646	-2.7417	-2.7604	-3.1896	-2.7021	-3.0604	-2.8229	-2.6104	-3.0792	210.138	180.417	41.141	-21.603	94.782	91.529	232.149	315.814	66.372	164.321	288.296	137.754	4.594	8.771	283.889	108.810	0.00045505	0.00033422	0.00013054	1218.9	2.3729e-06	5.7161e-06	1287	256.81	3.4101e-06	4.0039e-06	316.1	88.849	69.802	20.627	6.2875e-06	28.638	0.00042657	0.00044687	0.00012611	1200.8	4.9553e-06	5.0244e-06	1267.8	254.89	4.9714e-06	5.1128e-06	316.5	89.24	70.04	20.928	4.9551e-06	29.199	316.627	76.011	76.003	-15.002	93.562	110.258	-14.676	-7.766	174.212	122.347	-8.273	-1.400	-0.464	5.522	165.641	4.869	-8191	255	
#DATA ENDS
