BOXY.EXE: ISS Imagent and Oximeter Data Acquisition Program Version 0.80
Ascii Record File

#ACQ INFORMATION
2  Detector Channels 
16  External MUX Channels 
1  Auxiliary Channels 
5000  Waveform (CCF) Frequency (Hz)
1  Waveforms Skipped 
30  Waveforms Averaged 
1  Cycles Averaged 
16  Acquisitions per Waveform 
10.0806  Updata Rate (Hz) 

#FILE INFORMATION
TRUE -- External MUX Channel results are PARSED.
FALSE -- AC DC and Phase are NOT grouped.
TRUE -- Companion Program Settings File CREATED.
FALSE -- AC data not excluded
FALSE -- DC data not excluded
FALSE -- Phase data not excluded
FALSE -- Auxillary Chn. data not excluded
Tab delimiters

#CALIBRATION STATE
TRUE -- Waveform Calibration Values APPLIED.


#AUX CALIBRATION VALUES
Val Type	aux-1	

Term	1.0000e+00	
Factor	0.0000e+00	


#WF CALIBRATION VALUES
A = Detector Channel
Val Type	A-AC1	A-AC2	A-AC3	A-AC4	A-AC5	A-AC6	A-AC7	A-AC8	A-AC9	A-AC10	A-AC11	A-AC12	A-AC13	A-AC14	A-AC15	A-AC16	A-DC1	A-DC2	A-DC3	A-DC4	A-DC5	A-DC6	A-DC7	A-DC8	A-DC9	A-DC10	A-DC11	A-DC12	A-DC13	A-DC14	A-DC15	A-DC16	A-Ph1	A-Ph2	A-Ph3	A-Ph4	A-Ph5	A-Ph6	A-Ph7	A-Ph8	A-Ph9	A-Ph10	A-Ph11	A-Ph12	A-Ph13	A-Ph14	A-Ph15	A-Ph16	

Term	0.00000e+00	0.00000e+00	0.00000e+00	0.00000e+00	0.00000e+00	0.00000e+00	0.00000e+00	0.00000e+00	0.00000e+00	0.00000e+00	0.00000e+00	0.00000e+00	0.00000e+00	0.00000e+00	0.00000e+00	0.00000e+00	0.00000e+00	0.00000e+00	0.00000e+00	0.00000e+00	0.00000e+00	0.00000e+00	0.00000e+00	0.00000e+00	0.00000e+00	0.00000e+00	0.00000e+00	0.00000e+00	0.00000e+00	0.00000e+00	0.00000e+00	0.00000e+00	0.00000e+00	0.00000e+00	0.00000e+00	0.00000e+00	0.00000e+00	0.00000e+00	0.00000e+00	0.00000e+00	0.00000e+00	0.00000e+00	0.00000e+00	0.00000e+00	0.00000e+00	0.00000e+00	0.00000e+00	0.00000e+00	
Factor	1.00000e+00	1.00000e+00	1.00000e+00	1.00000e+00	1.00000e+00	1.00000e+00	1.00000e+00	1.00000e+00	1.00000e+00	1.00000e+00	1.00000e+00	1.00000e+00	1.00000e+00	1.00000e+00	1.00000e+00	1.00000e+00	1.00000e+00	1.00000e+00	1.00000e+00	1.00000e+00	1.00000e+00	1.00000e+00	1.00000e+00	1.00000e+00	1.00000e+00	1.00000e+00	1.00000e+00	1.00000e+00	1.00000e+00	1.00000e+00	1.00000e+00	1.00000e+00	X	X	X	X	X	X	X	X	X	X	X	X	X	X	X	X	

B = Detector Channel
Val Type	B-AC1	B-AC2	B-AC3	B-AC4	B-AC5	B-AC6	B-AC7	B-AC8	B-AC9	B-AC10	B-AC11	B-AC12	B-AC13	B-AC14	B-AC15	B-AC16	B-DC1	B-DC2	B-DC3	B-DC4	B-DC5	B-DC6	B-DC7	B-DC8	B-DC9	B-DC10	B-DC11	B-DC12	B-DC13	B-DC14	B-DC15	B-DC16	B-Ph1	B-Ph2	B-Ph3	B-Ph4	B-Ph5	B-Ph6	B-Ph7	B-Ph8	B-Ph9	B-Ph10	B-Ph11	B-Ph12	B-Ph13	B-Ph14	B-Ph15	B-Ph16	

Term	0.00000e+00	0.00000e+00	0.00000e+00	0.00000e+00	0.00000e+00	0.00000e+00	0.00000e+00	0.00000e+00	0.00000e+00	0.00000e+00	0.00000e+00	0.00000e+00	0.00000e+00	0.00000e+00	0.00000e+00	0.00000e+00	0.00000e+00	0.00000e+00	0.00000e+00	0.00000e+00	0.00000e+00	0.00000e+00	0.00000e+00	0.00000e+00	0.00000e+00	0.00000e+00	0.00000e+00	0.00000e+00	0.00000e+00	0.00000e+00	0.00000e+00	0.00000e+00	-2.12444e+02	-1.41062e+02	-1.70892e+02	-1.83732e+02	-1.12109e+02	-1.05118e+02	-1.55012e+02	-1.62015e+02	-9.09407e+01	-9.85453e+01	-1.70533e+02	-1.70350e+02	-1.84933e+02	-1.77024e+02	-9.26801e+01	-1.49740e+02	
Factor	3.86930e-05	3.87587e-05	1.11420e-05	1.84525e-01	4.76322e-07	4.00243e-07	1.77227e-01	5.92448e-02	4.03067e-07	4.33660e-07	9.47737e-02	3.35258e-02	3.39684e-02	1.07113e-02	3.85728e-07	1.51601e-02	1.41076e-07	1.41361e-07	3.93248e-08	7.31989e-02	1.55024e-09	1.55026e-09	6.73368e-02	2.26348e-02	1.55356e-09	1.55040e-09	3.24457e-02	1.12648e-02	1.11019e-02	3.63347e-03	1.55221e-09	4.80811e-03	X	X	X	X	X	X	X	X	X	X	X	X	X	X	X	X	



#DISTANCE SETTINGS
A = Detector Channel
A-1	A-2	A-3	A-4	A-5	A-6	A-7	A-8	A-9	A-10	A-11	A-12	A-13	A-14	A-15	A-16	

2.5000e+00	3.0000e+00	2.5000e+00	3.0000e+00	2.0000e+00	3.0000e+00	1.5000e+00	3.0000e+00	3.0000e+00	3.0000e+00	3.0000e+00	3.0000e+00	3.0000e+00	3.0000e+00	1.5000e+00	3.0000e+00	

B = Detector Channel
B-1	B-2	B-3	B-4	B-5	B-6	B-7	B-8	B-9	B-10	B-11	B-12	B-13	B-14	B-15	B-16	

1.0000e+01	1.0000e+01	1.0000e+01	1.4400e+00	1.0000e+01	1.0000e+01	1.5100e+00	1.9400e+00	1.0000e+01	1.0000e+01	1.9900e+00	2.4900e+00	2.4100e+00	2.9000e+00	1.0000e+01	2.9800e+00	




#DATA BEGINS
time	group	step	mark	flag	A-AC1	A-AC2	A-AC3	A-AC4	A-AC5	A-AC6	A-AC7	A-AC8	A-AC9	A-AC10	A-AC11	A-AC12	A-AC13	A-AC14	A-AC15	A-AC16	A-DC1	A-DC2	A-DC3	A-DC4	A-DC5	A-DC6	A-DC7	A-DC8	A-DC9	A-DC10	A-DC11	A-DC12	A-DC13	A-DC14	A-DC15	A-DC16	A-Ph1	A-Ph2	A-Ph3	A-Ph4	A-Ph5	A-Ph6	A-Ph7	A-Ph8	A-Ph9	A-Ph10	A-Ph11	A-Ph12	A-Ph13	A-Ph14	A-Ph15	A-Ph16	B-AC1	B-AC2	B-AC3	B-AC4	B-AC5	B-AC6	B-AC7	B-AC8	B-AC9	B-AC10	B-AC11	B-AC12	B-AC13	B-AC14	B-AC15	B-AC16	B-DC1	B-DC2	B-DC3	B-DC4	B-DC5	B-DC6	B-DC7	B-DC8	B-DC9	B-DC10	B-DC11	B-DC12	B-DC13	B-DC14	B-DC15	B-DC16	B-Ph1	B-Ph2	B-Ph3	B-Ph4	B-Ph5	B-Ph6	B-Ph7	B-Ph8	B-Ph9	B-Ph10	B-Ph11	B-Ph12	B-Ph13	B-Ph14	B-Ph15	B-Ph16	aux-1	digaux	

4069.749	1	1	0	256	0.17368	0.12228	0.16961	0.048701	0.085629	0.24655	0.23037	0.1284	0.19054	0.2597	0.13933	0.12516	0.10048	0.22337	0.32294	0.16943	-3.7229	-3.5062	-3.925	-3.8333	-3.4417	-4.1333	-3.9104	-3.5875	-3.9979	-3.6167	-3.875	-4.0583	-3.4708	-3.9771	-3.7167	-3.7313	30.334	153.132	37.069	-12.404	68.850	-36.456	175.211	212.314	192.652	86.013	106.715	62.298	129.809	220.026	78.262	130.855	0.0006815	7.4628e-05	1.4361e-05	652.11	1.0425e-06	1.0531e-06	776.34	242.54	1.4509e-06	1.734e-06	329.64	137.69	103.96	43.209	1.3572e-06	57.895	2.4485e-05	2.1698e-05	6.7647e-06	523.74	2.4621e-07	2.3586e-07	633.04	187.24	2.4684e-07	2.3977e-07	235.08	96.657	69.172	29.56	2.8305e-07	38.182	127.513	-6.198	-70.018	-123.942	-21.803	-93.279	-125.185	-118.751	-49.150	-23.001	-120.773	-117.217	-115.584	-110.390	-36.291	-113.423	-8191	255	
4069.870	1	1	0	0	0.092747	0.25871	0.10764	0.085992	0.19377	0.051757	0.18202	0.10608	0.097617	0.1603	0.087944	0.044501	0.1634	0.29202	0.10664	0.0056975	-3.7188	-3.5146	-3.9	-4.0083	-3.5625	-4.0667	-3.8937	-3.7792	-4.1854	-3.6292	-3.8521	-4.1188	-3.6292	-4.0375	-3.7854	-3.8167	-65.346	201.339	110.803	12.819	-87.413	208.817	94.868	200.763	-9.589	-103.518	170.790	8.323	80.693	156.830	107.950	218.245	0.00064676	0.0001301	2.9045e-05	656.65	1.3006e-06	2.87e-07	777.39	241.23	1.7161e-06	7.0111e-07	324.8	136.98	102.9	42.597	1.2731e-07	56.544	2.4108e-05	2.2888e-05	7.0553e-06	524.93	2.4721e-07	2.4887e-07	632.75	186.44	2.4387e-07	2.5794e-07	232.71	95.777	68.493	29.188	2.8e-07	37.367	122.967	-72.020	-107.400	-123.961	31.888	-116.814	-125.185	-118.867	-65.224	25.592	-120.852	-117.223	-115.863	-110.394	75.847	-113.407	-8191	255	
4069.942	1	1	0	0	0.22692	0.18259	0.033555	0.12954	0.042775	0.24979	0.15878	0.22706	0.050487	0.15018	0.14739	0.22363	0.16443	0.11355	0.11448	0.23252	-3.6396	-3.7271	-3.7208	-4.1271	-3.4813	-4.1062	-3.9562	-3.45	-4.0396	-3.6958	-3.8896	-4.0604	-3.5771	-4.1021	-4.0083	-3.6708	140.341	-73.341	63.566	-63.244	-135.709	118.850	125.597	183.637	170.118	194.936	206.844	202.842	-54.251	121.256	-33.154	110.383	0.00061895	8.5065e-05	3.0797e-05	651.49	3.7354e-07	1.214e-06	771.95	238.45	8.2005e-07	5.586e-07	321.8	134.67	102.08	42.095	1.3695e-06	56.147	2.3991e-05	2.4503e-05	7.0332e-06	520.2	2.4046e-07	2.6552e-07	627.73	184.61	2.4683e-07	2.7219e-07	230.81	94.381	67.886	28.893	2.7386e-07	37.052	114.983	-33.811	-94.916	-124.073	24.608	5.782	-125.167	-118.907	-28.466	-71.861	-120.759	-117.123	-115.885	-110.234	-9.050	-113.401	-8191	255	
4070.038	1	1	0	0	0.28672	0.23019	0.27	0.31993	0.067884	0.20631	0.19043	0.19629	0.371	0.037344	0.075339	0.15999	0.074134	0.19368	0.14124	0.22842	-3.7958	-3.6042	-3.6896	-4.0583	-3.5938	-3.9292	-4.1042	-3.6146	-4.0062	-3.7229	-3.7479	-4.2146	-3.6833	-3.7792	-4.2208	-3.6792	-108.486	-15.422	13.012	-123.082	-83.675	161.577	134.603	175.429	150.533	-115.406	172.001	-131.895	0.674	-4.311	157.697	175.964	0.00077379	5.6488e-05	3.9245e-05	646.48	3.2718e-07	2.7947e-07	771.66	240.24	9.2744e-07	1.9885e-06	326.21	136.12	102.55	42.12	9.4338e-07	56.192	2.431e-05	2.5042e-05	6.5953e-06	518.18	2.427e-07	2.7052e-07	626.15	185.23	2.4362e-07	2.7274e-07	232.46	95.117	68.323	29.001	2.5884e-07	37.201	119.137	-111.839	-121.586	-123.856	-62.402	-17.716	-125.004	-118.787	-81.938	-43.401	-121.065	-117.447	-115.757	-110.284	0.430	-113.424	-8191	255	
4070.134	1	1	0	0	0.1991	0.036911	0.069943	0.16656	0.11741	0.062236	0.04957	0.30623	0.17614	0.15252	0.28952	0.16803	0.15344	0.019812	0.076105	0.17553	-3.6729	-3.8583	-3.5271	-4.2583	-3.5771	-3.8312	-4.0542	-3.5187	-3.9417	-3.7521	-3.7938	-4.2562	-3.6	-3.7583	-4.0687	-3.625	116.969	189.481	73.794	-89.491	100.496	169.272	190.490	204.934	197.875	133.307	142.876	168.977	17.992	76.735	108.006	29.091	0.00071737	0.00011809	3.8273e-05	648.26	1.8451e-06	1.0732e-06	772.2	239.66	4.9298e-07	2.6676e-06	327.79	136.02	102.92	42.47	8.1359e-07	56.852	2.5045e-05	2.5482e-05	6.6035e-06	518.58	2.6039e-07	2.7946e-07	627.37	185.36	2.6201e-07	2.7674e-07	233.12	95.389	68.676	29.088	2.545e-07	37.46	118.021	-45.771	-125.191	-123.745	-52.661	53.239	-125.284	-118.708	-12.801	-6.853	-120.735	-117.352	-115.544	-110.195	13.493	-113.088	-8191	255	
4070.254	1	1	0	0	0.35476	0.10578	0.1711	0.26341	0.24661	0.021464	0.39398	0.25238	0.15974	0.079046	0.16376	0.2252	0.21514	0.13565	0.052254	0.26747	-3.6479	-3.8417	-3.4896	-4.1417	-3.6167	-3.8042	-4.1646	-3.6396	-3.9667	-3.9729	-3.6833	-4.2646	-3.7479	-3.8354	-4.1708	-3.7208	-91.271	-70.049	-89.526	174.795	128.278	-63.354	120.686	-112.615	-60.551	-34.926	29.484	211.357	152.463	79.312	2.614	177.912	0.00074444	9.015e-05	4.0456e-05	648.97	1.466e-06	1.3535e-06	777.01	241.19	3.3897e-07	1.6717e-06	328.2	137.32	103.23	42.338	7.0148e-07	57.25	2.6347e-05	2.5025e-05	6.48e-06	519.82	2.751e-07	2.7869e-07	629.62	186.1	2.8247e-07	2.796e-07	233.8	95.907	69.025	29.058	2.5538e-07	37.635	115.428	-106.417	-105.230	-123.883	-61.400	-26.479	-125.045	-118.871	-86.226	-20.801	-120.787	-117.362	-115.499	-110.054	70.489	-112.995	-8191	255	
4070.351	1	1	0	0	0.065383	0.040044	0.10156	0.11522	0.19066	0.22569	0.15118	0.071352	0.12013	0.057441	0.11987	0.14156	0.16703	0.1258	0.099046	0.058949	-3.6312	-3.9854	-3.6813	-4.1292	-3.8563	-3.8083	-4.2521	-3.8167	-3.9958	-3.8542	-3.8375	-4.2	-3.8458	-3.7938	-4.1937	-3.8104	25.877	-85.599	-120.103	-124.966	201.237	-137.224	117.021	-12.270	28.682	-12.099	136.042	174.930	199.232	200.980	-42.233	120.373	0.00066336	0.00013985	4.8536e-05	646.79	1.3912e-06	9.559e-07	910.39	284.82	1.4038e-06	1.4164e-06	386.82	160.09	121.7	49.561	1.1227e-06	66.229	2.7352e-05	2.4505e-05	6.3806e-06	519.02	2.8587e-07	2.9485e-07	723.56	215.57	3.2961e-07	3.0026e-07	270.07	110.41	79.472	33.332	2.8573e-07	42.999	118.596	-63.706	-99.202	-123.781	-47.181	20.309	-127.103	-119.990	-47.359	-37.635	-121.894	-118.514	-116.907	-111.526	-22.299	-114.475	-8191	255	
4070.445	1	1	0	0	0.22705	0.27371	0.029461	0.095837	0.22082	0.027801	0.10115	0.063205	0.13519	0.016929	0.2344	0.22052	0.28352	0.1023	0.11055	0.2507	-3.3625	-3.9854	-3.4521	-4.2854	-3.9542	-3.75	-4.2479	-3.6979	-3.9521	-4.1854	-3.7938	-4.0687	-4.1021	-3.7125	-4.1917	-3.7396	72.762	208.918	-69.721	216.842	-69.920	209.968	73.066	59.965	-127.400	29.273	-110.713	-118.507	199.453	-11.666	61.594	136.591	0.00079043	0.00012609	3.8735e-05	760.18	1.9505e-06	9.1241e-07	909.14	282.08	1.2761e-06	1.4514e-06	383.57	159.77	121.16	49.018	1.8427e-06	66.259	3.2106e-05	2.7679e-05	7.2547e-06	599.8	3.3035e-07	3.0197e-07	724.5	214.52	3.3016e-07	3.0072e-07	268.52	109.73	79.179	33.045	2.8137e-07	42.965	114.141	-87.681	-77.681	-124.890	-26.843	-19.283	-126.101	-119.958	-28.586	-44.618	-121.840	-118.565	-116.718	-111.523	-53.356	-114.605	-8191	255	
4070.543	1	1	0	0	0.076563	0.24436	0.12816	0.39057	0.11453	0.10204	0.26515	0.31392	0.14057	0.024644	0.14677	0.15668	0.029604	0.23685	0.15349	0.18231	-3.425	-3.9771	-3.6063	-4.0958	-4.0229	-3.6625	-4.3271	-3.8479	-3.7562	-4.1458	-3.8063	-4.0979	-4.1375	-3.6229	-3.9833	-3.8021	136.468	6.759	-137.875	176.901	22.911	134.980	203.100	186.784	-12.477	100.816	-107.164	178.870	-48.353	138.333	132.630	195.117	0.00085031	0.00020759	4.3546e-05	763.65	1.51e-06	1.0845e-06	907.08	283.24	1.3238e-06	1.4207e-06	386.16	160.24	121.09	49.372	1.918e-06	66.55	3.1016e-05	2.6623e-05	7.0663e-06	601.68	3.1618e-07	2.9558e-07	725.4	215.42	3.1909e-07	2.9707e-07	269.97	110.21	79.231	33.193	2.8889e-07	43.239	118.060	-85.127	-119.108	-124.997	-16.879	33.302	-126.069	-120.015	-70.160	29.943	-121.948	-118.214	-116.869	-111.650	-16.648	-114.447	-8191	255	
4070.637	1	1	0	0	0.13854	0.1371	0.13077	0.11219	0.13789	0.11807	0.13911	0.098233	0.093718	0.31696	0.28263	0.38698	0.1608	0.015759	0.13051	0.33042	-3.3396	-4.0896	-3.7521	-4.0437	-4.1188	-3.6896	-4.0563	-3.8604	-3.6167	-4.1188	-3.8187	-3.9458	-4.0354	-3.6917	-4.0896	-3.975	-87.763	33.188	-7.624	199.652	165.064	-28.004	128.974	193.689	57.131	51.173	191.945	-135.610	135.901	-27.515	10.531	157.831	0.00085923	4.9614e-05	4.9375e-05	765.72	1.6005e-06	1.0513e-06	911	285.07	2.3748e-06	2.9195e-06	387.97	160.63	121.7	49.724	9.2377e-07	66.807	3.0305e-05	2.6381e-05	7.3337e-06	603.33	3.077e-07	2.8478e-07	727.68	216.5	3.0835e-07	2.8685e-07	271.44	110.78	79.66	33.428	3.0887e-07	43.644	126.695	-9.988	212.075	-124.914	-45.959	52.744	-126.319	-119.547	-20.132	-2.926	-121.980	-118.615	-116.838	-111.216	-88.556	-114.300	-8191	255	
4070.733	1	1	0	0	0.12842	0.1327	0.10256	0.11471	0.090539	0.13406	0.35687	0.059342	0.14655	0.46999	0.25981	0.2441	0.18413	0.20115	0.088435	0.40122	-3.475	-4.0458	-3.7417	-3.875	-3.9021	-3.6021	-4.2333	-3.9229	-3.4688	-4.1625	-3.7562	-3.9125	-4.1021	-3.7625	-4.0167	-4.0021	-29.125	191.533	-104.716	143.264	-74.874	134.467	122.704	195.584	175.585	-69.959	201.527	-107.426	-72.477	186.034	185.233	189.078	0.0008466	0.00019415	1.9305e-05	765.8	1.59e-06	1.6041e-06	915.28	285.36	1.1525e-06	1.6424e-06	387.22	161.29	121.51	49.496	1.2172e-06	66.59	3.0287e-05	2.63e-05	7.9455e-06	603.81	3.063e-07	2.8404e-07	730.97	217.19	3.0158e-07	2.8484e-07	272.41	110.94	79.534	33.257	3.1681e-07	43.306	125.061	-53.756	54.990	-124.834	-78.255	-49.054	-125.899	-120.016	1.621	-17.447	-121.689	-118.343	-116.851	-111.390	-66.823	-114.432	-8191	255	
4070.854	1	1	0	0	0.29894	0.092219	0.15893	0.34336	0.13529	0.25858	0.11071	0.17583	0.022944	0.15272	0.062872	0.16536	0.075829	0.16885	0.040058	0.25584	-3.2458	-4.1396	-3.7083	-3.7896	-3.9458	-3.65	-4.0938	-3.9958	-3.4938	-3.9437	-3.7271	-3.9042	-4.0563	-3.6708	-3.9021	-3.9708	-108.819	-123.294	182.104	-119.043	-29.486	-84.228	170.323	211.069	186.396	-26.690	-45.856	169.516	205.464	-113.837	-57.053	-137.413	0.00081504	0.00022061	5.642e-05	762.28	2.0866e-06	6.9436e-07	906.55	282.71	1.4351e-06	1.8889e-06	383.76	158.58	120.84	48.864	6.3127e-07	65.859	2.9116e-05	2.5661e-05	8.0647e-06	599.8	2.9613e-07	2.8505e-07	725.19	215.21	2.9633e-07	2.8266e-07	270.1	109.11	78.688	32.887	3.2492e-07	42.828	120.990	-29.179	-65.443	-124.996	-27.011	67.741	-126.123	-119.897	-39.598	-53.705	-121.768	-118.488	-116.924	-111.345	-77.960	-114.302	-8191	255	
4070.950	1	1	0	0	0.30966	0.22857	0.19005	0.22393	0.1931	0.26988	0.18841	0.11258	0.1398	0.10034	0.17279	0.16278	0.099178	0.17484	0.14577	0.18572	-3.2625	-4.0771	-3.8417	-3.9708	-4.2646	-3.6125	-4.1875	-4.1792	-3.6229	-4.0333	-3.9667	-3.5958	-4.3125	-3.8271	-3.9229	-4.0083	-63.233	-28.367	115.482	78.134	173.856	109.274	136.052	80.471	31.506	57.328	145.876	175.353	-137.498	177.557	162.063	-101.400	0.00088182	0.00012691	5.6682e-05	757.96	1.1218e-06	8.4058e-07	905.79	282.66	1.5943e-06	8.4371e-07	385.34	157.75	119.87	48.695	1.707e-06	65.795	2.8612e-05	2.6504e-05	8.1537e-06	597.8	2.8847e-07	2.9548e-07	724.58	214.97	2.8889e-07	3.0205e-07	269.97	108.87	78.668	32.908	3.331e-07	42.761	122.374	-88.206	-52.996	-125.223	-55.051	11.796	-126.209	-119.950	-61.768	105.290	-121.658	-118.308	-117.072	-111.246	-31.214	-114.384	-8191	255	
4071.045	1	1	0	0	0.26584	0.22366	0.18612	0.25658	0.060202	0.092709	0.13116	0.27271	0.31815	0.16347	0.42006	0.13469	0.14008	0.2501	0.090894	0.083122	-3.0958	-3.9396	-3.8104	-3.9083	-4.1708	-3.7604	-3.9938	-4.2854	-3.7083	-3.9271	-4.0583	-3.5958	-4.1708	-3.8521	-3.8083	-4.0813	148.171	60.818	39.058	208.014	55.567	-74.105	-84.859	189.688	-128.688	-37.443	182.817	-82.951	204.952	172.795	100.909	168.003	0.00088996	8.605e-05	3.674e-05	761.82	1.2322e-06	1.1118e-06	926.62	323.45	1.5276e-06	1.978e-06	451.8	185.8	141.92	56.976	2.6265e-06	77.447	2.8646e-05	2.8935e-05	8.4402e-06	599.16	2.9215e-07	3.1887e-07	716.89	240.51	3.4204e-07	3.7323e-07	311.54	125.92	90.872	37.961	3.7309e-07	49.57	126.163	-101.167	-139.597	-125.204	-49.024	-120.471	-138.219	-124.667	-105.572	16.268	-122.996	-119.674	-118.020	-112.574	-30.129	-115.637	-8191	255	
4071.141	1	1	0	0	0.046425	0.33779	0.073326	0.15175	0.067282	0.19139	0.1162	0.26566	0.27755	0.079614	0.042529	0.15892	0.4336	0.13569	0.19381	0.19835	-3.1917	-4.0167	-3.8875	-3.7958	-4.1083	-3.8708	-3.8396	-4.0813	-3.7417	-3.9333	-4.1396	-3.6875	-4.1479	-3.8312	-3.7833	-4.1813	64.920	-114.531	-0.981	-53.045	174.504	-28.517	-108.639	204.252	-127.214	48.937	67.247	202.279	200.706	203.397	-108.610	-133.134	0.00087764	6.9597e-05	6.0384e-05	893.98	1.1925e-06	1.5364e-06	1069.2	331.12	1.2583e-06	9.907e-07	452.67	187.31	142.09	57.712	2.3332e-06	78.837	3.3495e-05	3.4446e-05	9.4889e-06	691.29	3.4131e-07	3.8822e-07	838.75	248.36	3.4639e-07	3.879e-07	312.32	126.87	91.381	38.399	3.5708e-07	50.16	112.709	-118.494	-92.068	-126.399	-66.362	-11.453	-127.180	-121.359	-88.992	30.586	-122.706	-119.498	-118.061	-112.712	-19.267	-115.337	-8191	255	
4071.237	1	1	0	0	0.030478	0.21619	0.11041	0.099236	0.04328	0.17029	0.11795	0.1738	0.10342	0.134	0.27444	0.10025	0.15225	0.12319	0.030262	0.26363	-3.4062	-3.9292	-4.1333	-3.5333	-4.1604	-4.0646	-3.8292	-4.2458	-3.8208	-3.9021	-4.1979	-3.775	-4.2479	-4.1167	-3.7292	-4.3125	73.481	-74.039	-89.122	196.139	58.516	220.727	103.408	189.465	-9.824	-46.476	142.502	20.170	123.669	-120.943	-5.140	131.849	0.0010708	0.00021254	9.8229e-06	896.28	2.2335e-06	2.7857e-06	1062.2	332.51	1.8495e-06	1.2927e-06	452.45	186.1	140.48	57.258	1.5129e-06	77.698	3.4072e-05	3.4455e-05	8.9177e-06	690.84	3.531e-07	3.7932e-07	836.6	248.58	3.5814e-07	3.7654e-07	311.43	125.71	90.715	38.024	3.4687e-07	49.443	118.119	-24.929	-90.189	-126.243	-76.017	-19.747	-127.342	-121.183	-73.208	-3.683	-123.099	-119.649	-117.999	-112.563	-67.435	-115.571	-8191	255	
4071.333	1	1	0	0	0.1319	0.11907	0.20539	0.063613	0.2129	0.090956	0.10154	0.063464	0.037348	0.25411	0.18602	0.21921	0.021755	0.16738	0.13951	0.2425	-3.3292	-3.8771	-3.9417	-3.7917	-3.9771	-3.9083	-3.8021	-4.2396	-3.6708	-3.5854	-4	-3.7083	-4.1104	-4.0604	-3.4062	-4.1208	-4.162	145.757	150.756	159.302	-117.234	183.607	135.651	127.414	163.074	47.850	186.429	159.683	44.259	136.984	-22.573	196.005	0.0010297	0.00015548	2.921e-05	885.99	8.6962e-07	1.513e-06	1057.7	329.31	1.4347e-06	9.3605e-07	447.36	183.4	139.51	56.54	1.4824e-06	76.714	3.5584e-05	3.359e-05	8.7022e-06	686.01	3.6277e-07	3.6142e-07	830.62	245.99	3.7039e-07	3.5666e-07	307.82	124.42	90.174	37.541	3.3589e-07	48.892	112.729	-50.253	-85.108	-125.988	12.430	-23.365	-127.263	-120.970	-71.141	6.342	-122.853	-119.541	-118.315	-112.513	-58.791	-115.775	-8191	255	
4071.454	1	1	0	0	0.056736	0.067327	0.12095	0.18099	0.1604	0.11027	0.32047	0.15491	0.10522	0.089557	0.019709	0.23006	0.088991	0.1904	0.15011	0.25493	-3.3792	-3.7375	-3.9708	-3.7125	-3.8604	-3.8937	-3.7646	-4.1958	-3.8646	-3.6104	-4.2958	-3.7687	-3.9042	-4.1229	-3.5125	-4.2021	-18.646	-2.963	-49.047	68.868	110.131	134.327	182.350	187.420	50.231	73.641	219.487	89.008	-121.816	176.912	187.606	135.716	0.0009011	9.08e-05	4.3112e-05	885.97	1.842e-06	9.9099e-07	1058.4	329.18	2.0302e-06	1.0023e-06	449.17	184.55	141.45	57.254	8.8312e-07	76.94	3.6586e-05	3.2481e-05	8.4618e-06	684.67	3.7233e-07	3.4602e-07	829.05	246.03	3.7202e-07	3.4331e-07	309.04	125.33	90.846	37.848	3.2515e-07	49.309	113.344	-88.140	-95.566	-126.313	-29.533	-112.323	-127.133	-121.123	-35.234	-28.436	-123.043	-119.622	-118.162	-112.476	-12.249	-115.643	-8191	255	
4071.550	1	1	0	0	0.24972	0.10104	0.084542	0.16046	0.25697	0.2969	0.12883	0.21257	0.13832	0.067072	0.31518	0.23508	0.01788	0.29197	0.23627	0.090475	-3.4833	-3.5604	-4.1875	-3.8708	-3.8542	-3.9979	-3.7188	-4.0062	-4.0354	-3.7396	-4.2438	-3.7896	-3.9958	-4.1396	-3.6813	-4.2312	-66.929	-129.724	148.240	168.398	-87.500	80.139	114.678	202.900	164.490	212.195	139.303	134.746	65.141	-119.094	113.551	112.069	0.0010217	7.0346e-05	4.7304e-05	882.62	7.5868e-07	2.3407e-07	1056	330.61	2.4605e-06	2.2349e-06	449.37	184.85	140.21	56.885	1.6255e-06	76.903	3.6264e-05	3.1721e-05	8.1842e-06	686.2	3.7228e-07	3.4291e-07	830.77	247.09	3.81e-07	3.5338e-07	309.13	125.8	90.809	37.826	3.3783e-07	49.426	119.795	-33.166	-68.036	-126.219	-99.573	-105.672	-127.122	-121.145	-23.064	-21.605	-122.951	-119.713	-117.974	-112.388	18.620	-115.582	-8191	255	
4071.646	1	1	0	0	0.12771	0.095473	0.049963	0.21238	0.093212	0.27214	0.12728	0.19435	0.18583	0.19911	0.19236	0.10682	0.23565	0.094427	0.084205	0.11737	-3.5729	-3.7333	-4.1062	-3.8312	-3.8917	-4.1625	-3.7167	-4.0104	-3.8479	-3.6	-4.2542	-3.9146	-3.7562	-4.2875	-3.6292	-4	114.613	63.253	-34.380	-114.140	-86.183	-107.538	140.220	164.563	106.911	-109.218	141.842	156.218	-49.062	107.132	-106.401	111.375	0.0010108	0.00011221	2.6819e-05	894.44	1.3723e-06	1.5837e-06	1061.9	330.47	1.9352e-06	8.7751e-07	450.36	185.76	141.05	57.28	1.7924e-06	77.771	3.7918e-05	3.3079e-05	8.7477e-06	692.23	3.8626e-07	3.5751e-07	834.21	247.92	3.8738e-07	3.5876e-07	310.04	126.43	90.854	37.921	3.5884e-07	49.82	120.772	-55.822	-83.645	-126.145	17.231	-39.004	-127.123	-121.171	-8.765	39.157	-123.024	-119.561	-117.965	-112.495	-6.199	-115.420	-8191	255	
4071.742	1	1	0	0	0.15	0.14676	0.25553	0.20446	0.20457	0.31676	0.041287	0.080821	0.13984	0.054273	0.11723	0.32274	0.084474	0.029558	0.20357	0.29695	-3.625	-3.6083	-4.1188	-3.9771	-3.7687	-4.1667	-3.7708	-4.075	-4.0292	-3.6458	-4.1979	-3.9833	-3.6937	-4.2646	-3.6854	-4.0292	-85.959	129.815	-84.183	43.630	46.501	183.433	117.225	100.612	84.621	75.649	37.003	213.605	159.992	-127.656	-86.341	140.614	0.0010614	0.00015603	5.3319e-05	894.26	2.3408e-06	9.2217e-07	1059.9	328.43	1.9366e-06	2.2304e-06	445.11	183.34	139.24	56.065	5.6035e-07	76.099	3.7167e-05	3.272e-05	9.1475e-06	695.33	3.811e-07	3.5994e-07	834.72	246.73	3.8297e-07	3.589e-07	307.25	124.45	89.691	37.259	3.8195e-07	48.792	120.191	-74.923	-97.947	-126.236	-30.571	-67.898	-127.459	-121.176	-35.591	-34.148	-122.940	-119.492	-118.188	-112.686	20.462	-115.442	-8191	255	
4071.814	1	1	0	0	0.16816	0.028669	0.26	0.29909	0.326	0.054977	0.10321	0.19469	0.084157	0.11478	0.067404	0.21223	0.19399	0.19566	0.034168	0.091485	-3.6458	-3.5729	-3.9604	-3.9979	-3.5938	-4.2667	-3.8208	-3.95	-4.1458	-3.725	-4.1583	-4.1917	-3.6813	-4.3083	-3.475	-3.9792	41.435	16.388	-3.184	209.807	79.416	149.591	-122.918	109.926	134.577	-125.754	-69.511	192.392	217.702	-96.225	-60.711	-16.615	0.00087457	0.00014649	1.9859e-05	893.82	1.3519e-06	1.8428e-06	1056.9	327.68	1.6006e-06	1.8034e-06	445.72	182.91	139.39	56.027	3.7722e-07	75.915	3.6882e-05	3.1978e-05	9.5023e-06	691.64	3.6905e-07	3.4125e-07	832.19	245.84	3.6107e-07	3.3507e-07	307.26	124.13	89.59	37.2	3.8127e-07	48.725	119.661	9.790	-92.996	-126.227	-59.449	-19.233	-127.336	-121.036	-56.073	-78.587	-123.115	-119.497	-118.132	-112.331	186.043	-115.635	-8191	255	
4071.933	1	1	0	0	0.13324	0.1034	0.11843	0.17512	0.093077	0.22529	0.20104	0.1613	0.20951	0.20821	0.20446	0.1506	0.045965	0.23964	0.10422	0.18792	-3.8292	-3.5312	-3.9417	-3.9688	-3.6104	-4.2375	-3.8812	-3.8375	-4.05	-3.65	-4.0188	-4.1125	-3.7021	-4.2312	-3.8438	-3.8458	63.203	-98.496	79.210	183.869	107.296	25.125	97.728	-124.577	185.940	-37.380	163.313	112.407	36.774	168.785	161.179	182.023	0.0008791	0.00013371	5.4198e-05	890.41	6.2079e-07	8.9594e-07	1060.7	330.28	1.9603e-06	1.744e-06	447.47	185.08	140.69	56.661	1.8517e-06	77.288	3.4494e-05	3.0553e-05	9.5725e-06	690.92	3.4537e-07	3.3418e-07	834.48	246.74	3.4489e-07	3.3299e-07	309.16	125.29	90.394	37.626	3.8039e-07	49.317	129.480	-42.144	-92.786	-126.066	-89.869	111.411	-127.344	-120.975	-72.782	0.699	-123.149	-119.676	-118.146	-112.270	-21.804	-115.340	-8191	255	
4072.029	1	1	0	0	0.10783	0.076708	0.089154	0.27522	0.2046	0.16268	0.22097	0.34317	0.15482	0.14219	0.042513	0.20012	0.079082	0.17858	0.015969	0.069322	-3.7146	-3.4979	-3.9167	-4.0125	-3.6562	-4.0958	-3.9833	-3.7792	-3.9458	-3.7396	-3.8688	-4.1771	-3.5771	-4.2021	-3.875	-3.7104	41.382	-10.621	-41.243	152.234	-84.567	166.545	164.722	189.938	83.636	-84.910	-102.436	-83.353	-107.582	112.332	50.505	134.761	0.001004	0.00011094	3.1786e-05	890.51	3.0523e-06	1.3948e-06	1063.5	331.16	2.9295e-06	4.8047e-07	452.39	187.51	142.09	57.451	9.7e-07	78.436	3.259e-05	3.0689e-05	9.408e-06	690.28	3.3093e-07	3.3256e-07	836.27	247.92	3.216e-07	3.367e-07	311.93	126.84	91.159	38.065	3.6824e-07	49.9	128.440	-63.666	-69.471	-126.247	-83.842	-45.367	-127.372	-121.255	-56.677	-60.296	-123.142	-119.584	-118.090	-112.558	-15.057	-115.671	-8191	255	
4072.125	1	1	0	0	0.16231	0.26627	0.27863	0.148	0.15369	0.15705	0.23629	0.1922	0.096329	0.21024	0.10452	0.35638	0.089007	0.10441	0.084319	0.28513	-3.7271	-3.6562	-3.8896	-4.0896	-3.5979	-4.0563	-4.2208	-3.7396	-4.0917	-3.6458	-3.9104	-4.0229	-3.6083	-4.0458	-3.8063	-3.8104	-132.308	192.845	95.127	194.286	124.448	-7.442	140.279	-82.769	176.564	64.264	78.505	93.688	205.382	106.091	45.482	171.905	0.00082514	2.6432e-05	5.0358e-05	895	1.6179e-06	2.1255e-06	1070.7	332.81	4.7695e-07	1.9213e-06	456.16	188.02	142.01	57.611	1.0158e-06	77.868	3.1911e-05	3.2505e-05	9.2679e-06	691.9	3.2173e-07	3.5602e-07	840.71	248.61	3.2301e-07	3.6168e-07	313.09	127.28	91.376	38.182	3.6692e-07	49.703	120.814	-47.839	-91.793	-126.273	-80.674	8.622	-127.367	-121.205	-28.138	-61.038	-122.775	-119.721	-118.034	-112.625	-29.105	-115.297	-8191	255	
4072.221	1	1	0	0	0.24332	0.16669	0.15277	0.08653	0.14572	0.12584	0.099081	0.094685	0.0887	0.10085	0.24788	0.11619	0.13383	0.16413	0.23815	0.18175	-3.8375	-3.7479	-3.7354	-4.2646	-3.6354	-3.8563	-4.0437	-3.6417	-4.0521	-3.9729	-3.8333	-4.25	-3.7833	-4.0792	-3.9667	-3.6104	204.032	130.008	160.256	194.836	63.665	-81.480	150.076	174.116	165.355	-98.727	163.020	144.826	152.216	-116.915	163.122	160.853	0.00099398	6.8474e-05	4.2003e-05	891.37	1.7126e-06	3.194e-07	1064.2	330.61	8.0749e-07	1.3975e-06	449.13	184.78	140.09	56.501	1.0564e-06	76.663	3.2462e-05	3.4108e-05	9.077e-06	689.93	3.3484e-07	3.8049e-07	834.78	246.59	3.3858e-07	3.7793e-07	309	125.04	90.236	37.577	3.5547e-07	48.912	124.672	133.557	-10.445	-126.024	-88.570	-58.264	-127.208	-120.963	-5.969	-17.564	-122.947	-119.714	-118.082	-112.202	9.856	-115.419	-8191	255	
4072.342	1	1	0	0	0.13386	0.091551	0.14114	0.14092	0.047315	0.081837	0.26085	0.1892	0.0040819	0.19799	0.28255	0.22947	0.28812	0.17713	0.049333	0.33282	-3.8771	-3.8	-3.6521	-4.2271	-3.6542	-4.0417	-4.3729	-3.7333	-4.1208	-3.9833	-3.7938	-4.4021	-3.7167	-3.8979	-4.05	-3.7313	91.278	-136.726	214.607	155.703	-78.942	117.864	153.292	139.714	-90.893	-93.337	114.277	184.519	170.276	-120.242	-98.892	195.582	0.00088275	0.00019471	2.8187e-05	889.75	1.0809e-06	2.1909e-06	1056.3	330.07	1.7454e-06	1.7932e-06	447.72	184.16	139.92	56.632	1.5925e-06	76.973	3.4172e-05	3.49e-05	8.981e-06	689	3.5677e-07	3.8853e-07	833.8	246.25	3.6872e-07	3.8842e-07	308.28	124.82	90.373	37.604	3.6793e-07	49.074	116.528	-69.182	-108.702	-126.100	220.661	-18.437	-127.664	-121.256	-71.054	-49.377	-122.972	-119.785	-118.102	-112.585	-49.707	-115.405	-8191	255	
4072.438	1	1	0	0	0.21005	0.15264	0.13933	0.16799	0.13297	0.045137	0.29271	0.10083	0.17431	0.081913	0.11748	0.15607	0.24813	0.25055	0.15364	0.022346	-3.8187	-3.9604	-3.6417	-4.3313	-3.7875	-3.7854	-4.3313	-3.5604	-4.0146	-3.8771	-3.9062	-4.3625	-3.7062	-3.7625	-4.1729	-3.6708	-32.250	-39.748	22.447	196.389	-71.132	-3.824	134.868	106.742	-3.335	-98.882	108.490	211.330	198.122	-128.419	183.900	32.079	0.00085646	0.00014132	5.5327e-05	894.4	1.8237e-06	4.3717e-07	1068.7	330.23	7.6622e-07	1.9163e-06	447.68	186.15	141.56	57.153	1.9727e-06	77.794	3.7395e-05	3.5721e-05	9.3084e-06	692.02	3.9188e-07	3.9244e-07	837.59	246.95	3.965e-07	3.8982e-07	309.83	125.9	91.277	37.889	3.6403e-07	49.66	120.993	-34.146	-58.449	-126.277	-60.092	39.157	-127.045	-120.957	195.032	12.227	-123.188	-119.744	-117.962	-112.321	5.557	-115.782	-8191	255	
4072.534	1	1	0	0	0.27976	0.097436	0.095759	0.34907	0.2051	0.13973	0.0072423	0.042319	0.078393	0.27368	0.04752	0.24734	0.1975	0.15734	0.21881	0.14865	-3.6	-3.9167	-3.6208	-4.2063	-3.9062	-3.8271	-4.1979	-3.6688	-3.8479	-4.0687	-3.6063	-4.0604	-3.8542	-3.7979	-4.1521	-3.7979	148.853	-50.464	-104.150	-131.100	215.076	-45.721	71.293	132.139	4.905	126.100	152.026	-72.600	-134.318	199.112	-21.404	132.877	0.0010037	0.00033495	4.2892e-05	897.21	2.986e-06	8.5625e-07	1067.3	332.06	9.5563e-07	2.7759e-06	450.39	187.8	141.75	57.536	1.231e-06	78.225	3.9661e-05	3.5051e-05	9.1462e-06	693.21	4.1631e-07	3.8146e-07	838.67	248.15	4.1007e-07	3.8165e-07	311.58	127.32	91.79	38.145	3.5562e-07	50.12	123.178	-104.724	-115.200	-126.109	-85.664	20.078	-127.329	-121.143	-41.394	-9.453	-122.980	-119.630	-118.182	-112.454	-37.553	-115.381	-8191	255	
4072.630	1	1	0	0	0.13975	0.1794	0.23096	0.017993	0.045089	0.045414	0.11967	0.059837	0.10101	0.14466	0.14113	0.37742	0.11004	0.077218	0.17925	0.17314	-3.4604	-4.0813	-3.6208	-4.1	-3.7208	-3.6729	-4.2958	-3.8979	-3.8417	-3.9521	-3.7333	-4.0042	-3.9896	-3.7542	-4.1188	-3.8354	-138.609	71.020	108.441	-86.825	138.894	98.673	120.344	-98.364	-67.254	-22.719	202.886	148.883	207.416	99.158	217.507	13.356	0.00098617	0.00012409	6.6232e-05	897.87	1.779e-06	1.611e-06	1074	332.32	2.6292e-06	2.7223e-06	452.11	187.05	141	56.928	1.7331e-06	77.488	3.9163e-05	3.3974e-05	8.9563e-06	696.45	4.0372e-07	3.6604e-07	842.08	248.77	4.0395e-07	3.7193e-07	311.61	127.04	91.265	37.835	3.5217e-07	49.708	120.324	-43.087	-109.470	-126.135	-69.399	-27.958	-127.346	-121.102	-43.978	-44.601	-122.847	-119.845	-118.163	-112.508	-53.649	-115.689	-8191	255	
4072.726	1	1	0	0	0.18429	0.28292	0.21258	0.18447	0.2712	0.21866	0.27536	0.11205	0.12878	0.046214	0.10973	0.12215	0.17048	0.11054	0.075846	0.1844	-3.3229	-4.1125	-3.6458	-4.0563	-3.8271	-3.6083	-4.1062	-3.7979	-3.7479	-4.1771	-3.6917	-4.0312	-4.1312	-3.6104	-4.1208	-3.8729	174.900	-109.140	131.037	170.488	192.581	203.542	-79.498	-87.604	-31.060	-93.335	20.472	-73.652	155.387	202.008	127.881	165.747	0.00093981	0.00014749	1.5149e-06	896.17	2.0913e-06	1.1355e-06	1062.5	330.31	1.7503e-06	1.6116e-06	447.05	185.47	140.1	56.375	9.4081e-07	77.054	3.8278e-05	3.3734e-05	8.8509e-06	694.9	3.9325e-07	3.658e-07	836.13	247.91	3.9408e-07	3.6653e-07	308.93	125.93	90.767	37.51	3.7139e-07	49.436	126.863	-8.257	-52.040	-126.327	4.952	-23.322	-127.510	-121.191	-32.304	-3.844	-122.882	-119.775	-118.089	-112.538	-92.526	-115.589	-8191	255	
4072.823	1	1	0	0	0.14454	0.35904	0.1015	0.23361	0.18319	0.18038	0.18424	0.0973	0.099771	0.18279	0.086319	0.066497	0.1801	0.22007	0.16047	0.17016	-3.4792	-4.0667	-3.6417	-4.1458	-3.9875	-3.8	-4.0312	-4.075	-3.6521	-4.1625	-3.8083	-4.0146	-4.0833	-3.7271	-4.0333	-3.9396	118.833	74.649	-70.015	-62.412	137.737	173.949	120.673	142.319	99.310	170.325	146.368	170.225	-116.584	187.965	206.472	122.677	0.00081884	0.00017762	5.005e-05	890.06	5.7354e-07	2.2521e-06	1066.2	329.54	2.6381e-06	1.2792e-06	447.24	185.9	140.98	57.136	1.3227e-06	77.239	3.8527e-05	3.3746e-05	9.5458e-06	692.69	3.9746e-07	3.7198e-07	837.96	247.51	3.9831e-07	3.695e-07	309.45	126.37	91.042	37.846	3.9694e-07	49.626	125.667	-79.546	-113.452	-126.288	-46.472	-39.259	-127.371	-121.138	3.273	-48.539	-122.930	-119.727	-118.162	-112.513	-29.306	-115.537	-8191	255	
4072.941	1	1	0	0	0.19289	0.098538	0.041267	0.13298	0.25968	0.058842	0.29834	0.22937	0.15551	0.10022	0.30304	0.15929	0.12123	0.043643	0.037894	0.23044	-3.5	-4.1146	-3.4875	-4.0417	-4.0312	-3.6188	-4.1771	-4.1438	-3.6458	-4.1375	-3.7562	-3.8333	-4.2333	-3.7062	-3.9813	-4.1312	154.146	58.832	-37.856	-17.736	-73.493	149.616	174.759	186.481	-128.733	-73.029	161.069	-87.839	149.250	-46.411	170.545	-138.399	0.00089413	0.00017736	3.0381e-05	889.53	2.5918e-06	1.1056e-06	1063.1	329.53	1.9796e-06	2.1713e-06	450.42	186.19	141.24	56.972	2.4322e-06	78.064	3.8532e-05	3.3707e-05	1.0262e-05	694.47	3.9697e-07	3.7336e-07	839.43	248.18	3.9598e-07	3.7423e-07	311.63	126.96	91.336	37.89	4.2518e-07	50.023	119.393	-50.344	184.027	-126.102	-8.911	-49.416	-127.279	-121.129	-14.688	-0.851	-122.863	-119.757	-118.088	-112.424	-72.473	-115.441	-8191	255	
4073.038	1	1	0	0	0.071867	0.090136	0.17411	0.22765	0.28073	0.0943	0.31199	0.2076	0.23975	0.096138	0.080658	0.088743	0.37046	0.20591	0.11614	0.23667	-3.2354	-4.175	-3.8896	-3.9042	-4.0708	-3.7271	-4.1979	-4.1375	-3.6396	-4.1417	-3.7958	-3.8979	-4.1562	-3.9417	-3.8688	-4.1521	-64.891	-16.186	8.361	172.951	-84.239	81.272	117.114	177.724	-136.670	145.308	182.308	-116.032	158.344	216.416	-39.825	-125.171	0.0010366	0.00019594	3.1829e-05	894.65	2.4864e-06	7.3649e-07	1066.1	331.44	7.4624e-07	8.8884e-07	451.77	188.47	142.49	57.666	1.6605e-06	78.875	3.8339e-05	3.4492e-05	1.09e-05	697.25	3.9895e-07	3.873e-07	843.67	248.65	3.9041e-07	3.8469e-07	313.39	128.17	92.032	38.32	4.3574e-07	50.566	119.571	-4.562	-120.326	-125.883	-30.127	-49.228	-127.345	-121.045	31.379	135.141	-122.944	-119.452	-118.118	-112.420	12.864	-115.350	-8191	255	
4073.109	1	1	0	0	0.091145	0.13931	0.37186	0.24054	0.10581	0.16313	0.11392	0.20927	0.12244	0.042986	0.24899	0.17765	0.15753	0.14206	0.055058	0.10563	-3.2146	-4.0583	-3.8979	-3.7812	-4.0396	-3.7167	-3.9771	-4.1562	-3.5563	-4.1958	-3.8208	-3.7854	-4.0729	-3.8521	-3.7917	-4.1458	161.612	59.002	210.672	117.219	-65.485	12.063	179.638	-133.567	186.584	13.968	175.525	179.359	174.125	-39.227	62.548	100.696	0.0010094	0.00010116	3.9484e-05	893.09	1.3459e-06	4.332e-07	1066.9	331.38	1.8903e-06	1.5177e-06	447.54	186.92	141.73	56.961	1.154e-06	77.572	3.7617e-05	3.5414e-05	1.1007e-05	696.69	3.8194e-07	3.9188e-07	842.99	248.62	3.7443e-07	3.9677e-07	311.33	126.85	91.164	37.862	4.3184e-07	49.683	124.804	-99.264	-83.415	-125.925	24.717	-3.656	-127.433	-121.181	24.955	-4.127	-122.785	-119.557	-118.288	-112.389	16.543	-115.395	-8191	255	
4073.230	1	1	0	0	0.2964	0.13553	0.2489	0.093766	0.12039	0.033677	0.14259	0.17075	0.17461	0.25484	0.26872	0.086559	0.12954	0.26814	0.069102	0.31738	-3.3042	-4.2312	-3.8146	-3.6583	-4.0979	-3.6417	-3.8958	-4.0729	-3.4917	-4.0563	-3.9854	-3.7583	-4.325	-3.7375	-3.725	-4.1312	7.226	121.876	-102.297	-79.964	176.491	21.634	207.222	167.761	33.821	129.427	133.834	78.524	215.758	-134.420	112.518	96.946	0.00087154	8.9404e-05	3.5969e-05	890.87	2.1573e-06	1.3002e-06	1066.3	329.71	4.9178e-07	3.2503e-07	448.54	186.48	141.59	57.314	2.6429e-06	77.914	3.6999e-05	3.7221e-05	1.0745e-05	693.44	3.7133e-07	4.1173e-07	840.62	247.46	3.7221e-07	4.0499e-07	310.54	126.66	91.298	38.033	4.0546e-07	49.787	130.427	-16.618	-84.643	-126.109	-48.259	-3.454	-127.178	-121.024	-92.630	-61.328	-123.224	-119.590	-118.255	-112.563	-31.697	-115.616	-8191	255	
4073.326	1	1	0	0	0.093346	0.32787	0.26981	0.12273	0.044562	0.23549	0.25667	0.022223	0.14907	0.26365	0.078529	0.26533	0.25374	0.13032	0.18436	0.29423	-2.9917	-3.9437	-4.0104	-3.5958	-4.1667	-3.7896	-3.8896	-4.3417	-3.6104	-3.7562	-3.8896	-3.6188	-4.1667	-4.1188	-3.6083	-4.2917	105.650	-36.073	8.241	121.567	45.732	158.764	76.402	50.381	-45.545	176.694	170.456	-137.192	-129.846	119.835	71.878	166.399	0.0010169	0.00015661	9.7263e-05	890.16	1.4662e-06	2.536e-07	1065.3	331.47	8.8828e-07	6.8524e-07	451.16	187.43	141.21	57.269	3.0323e-06	78.063	3.5866e-05	3.7764e-05	1.0047e-05	690.63	3.7056e-07	4.1637e-07	839.86	248.21	3.7937e-07	4.1866e-07	311.5	126.85	91.484	38.122	3.964e-07	50.04	115.325	-39.244	-85.932	-126.010	-51.021	5.794	-127.421	-121.008	-89.341	85.497	-123.043	-119.702	-118.136	-112.390	-0.370	-115.355	-8191	255	
4073.422	1	1	0	0	0.10693	0.14064	0.094641	0.11373	0.18355	0.13804	0.12352	0.26252	0.2219	0.20062	0.16893	0.17747	0.13281	0.070757	0.19698	0.023549	-3.2875	-3.8312	-4.0375	-3.6063	-4.2167	-3.9417	-3.8812	-4.3042	-3.7083	-3.8583	-4.1708	-3.7313	-4.2417	-4.0563	-3.6688	-4.3438	57.047	105.912	-85.092	98.354	126.729	133.749	80.678	108.281	58.240	128.469	206.110	180.109	-65.544	190.238	-71.702	98.182	0.0011565	0.00023948	5.8041e-05	893.64	9.8513e-07	1.8821e-06	1071.8	332.41	8.851e-07	1.6242e-06	454.79	189.36	143.01	57.828	8.9679e-07	79.157	3.7906e-05	3.8073e-05	9.8989e-06	690.99	3.9141e-07	4.1661e-07	841.27	249.32	3.9873e-07	4.1635e-07	313.58	128.08	92.382	38.45	3.8327e-07	50.568	121.666	-42.110	-134.933	-125.919	-129.581	-8.109	-127.210	-121.225	-30.035	9.812	-122.817	-119.801	-118.229	-112.298	-83.025	-115.798	-8191	255	
4073.518	1	1	0	0	0.28506	0.077078	0.03542	0.13081	0.13294	0.14378	0.28323	0.11342	0.07075	0.12653	0.14188	0.10898	0.15096	0.22072	0.10023	0.10652	-3.3958	-3.9792	-4.2104	-3.5729	-3.9479	-3.9854	-3.8667	-4.3396	-3.5083	-3.8208	-4.1562	-3.7417	-4.0521	-4.0062	-3.7208	-4.0396	-53.524	105.566	84.854	-80.360	211.462	24.418	185.193	-127.815	-38.189	161.586	14.102	192.058	-1.826	69.218	116.025	-1.319	0.00093541	0.00014109	2.8366e-05	893	5.506e-07	3.0339e-06	1072.2	334.94	1.5704e-06	1.4318e-06	454.08	189.76	143.04	57.739	1.2015e-06	79.492	3.9165e-05	3.7683e-05	9.7116e-06	691.67	4.0416e-07	4.0216e-07	844.07	250.08	4.0683e-07	3.9307e-07	314.37	128.6	92.397	38.409	3.6473e-07	50.717	119.361	-85.017	203.803	-125.843	-127.253	-40.188	-127.060	-121.048	-23.715	-74.240	-123.103	-119.620	-117.834	-112.468	-15.583	-115.744	-8191	255	
4073.639	1	1	0	0	0.045767	0.17129	0.16245	0.042633	0.096263	0.066297	0.013958	0.5116	0.10403	0.081044	0.19738	0.17905	0.13601	0.08846	0.15077	0.13226	-3.65	-3.7062	-4.1292	-3.7958	-3.9188	-3.9875	-3.6979	-4.1125	-3.8187	-3.6958	-4.4729	-3.6229	-3.9042	-4.1292	-3.5625	-3.9792	-95.939	-128.528	112.426	105.897	-35.533	-134.581	46.204	202.647	59.819	-102.670	219.312	81.292	-53.394	140.505	98.926	89.501	0.00094423	0.00027448	4.3338e-05	889.44	2.177e-06	7.5536e-07	1065.3	331.74	4.0738e-07	1.6711e-07	453.34	186.78	141.45	57.061	2.1502e-06	78.06	3.9106e-05	3.487e-05	9.0531e-06	689.34	3.9956e-07	3.749e-07	838.11	248.65	4.0158e-07	3.7171e-07	311.95	126.65	91.232	37.926	3.5471e-07	49.996	119.885	-50.542	-74.263	-125.949	13.907	5.419	-127.201	-120.951	199.175	-83.955	-122.980	-119.488	-118.166	-112.409	-28.993	-115.541	-8191	255	
4073.733	1	1	0	0	0.2072	0.14269	0.22275	0.022527	0.3073	0.1125	0.21289	0.25217	0.049282	0.14478	0.14139	0.16589	0.11611	0.080502	0.14358	0.0060415	-3.4458	-3.6021	-4.225	-3.775	-3.7146	-4.1062	-3.7562	-4.2188	-3.7042	-3.6229	-4.2729	-3.8438	-3.9771	-4.0646	-3.5333	-4.1396	48.880	9.249	-125.900	36.638	195.511	-82.322	159.803	168.374	127.291	-104.296	187.535	202.650	-69.423	175.710	104.811	-71.470	0.00080035	0.00013063	6.5403e-05	890.76	1.4941e-06	2.3658e-06	1062.2	332.92	1.1255e-06	1.086e-06	451.19	187.13	142.4	57.153	1.4928e-06	78.427	3.8906e-05	3.3587e-05	8.9395e-06	689.48	4.0158e-07	3.6815e-07	834.67	248.95	4.0164e-07	3.6952e-07	311.31	126.92	91.769	37.971	3.5938e-07	50.136	115.359	-17.726	-97.480	-126.063	-21.577	-50.107	-127.146	-121.121	-15.337	-4.787	-122.811	-119.746	-117.964	-112.532	-23.564	-115.557	-8191	255	
4073.807	1	1	0	0	0.2294	0.22933	0.10357	0.22017	0.25519	0.19729	0.30075	0.25543	0.22997	0.16712	0.16553	0.21921	0.15915	0.026582	0.30337	0.12538	-3.375	-3.5958	-3.8896	-3.8688	-3.8271	-3.9979	-3.8083	-3.9667	-3.8688	-3.6604	-4.2854	-3.8812	-3.8229	-4.1854	-3.7375	-4.0708	42.157	1.230	-121.633	178.978	103.088	103.068	77.993	130.742	178.313	88.841	123.063	103.172	-87.135	-100.913	-66.513	46.415	0.00081278	0.00010617	5.8686e-05	888.28	2.6662e-06	1.6219e-06	1058.8	334.25	3.2517e-06	2.0341e-06	453.38	188.6	142.88	57.73	1.2146e-06	79.134	3.9064e-05	3.3916e-05	8.8839e-06	692.73	3.911e-07	3.6273e-07	837.15	250.47	3.8676e-07	3.6072e-07	313.01	127.96	92.197	38.316	3.6061e-07	50.723	120.244	-46.216	-37.511	-126.174	-10.040	-1.416	-127.323	-121.170	-32.305	-16.812	-122.991	-119.818	-117.811	-112.378	-129.520	-115.536	-8191	255	
4073.903	1	1	0	0	0.14413	0.21949	0.11871	0.23516	0.27005	0.072458	0.18603	0.16516	0.031308	0.1719	0.06832	0.17943	0.26535	0.15724	0.12674	0.061755	-3.675	-3.5312	-3.9583	-3.8875	-3.7167	-3.9854	-3.7438	-3.9708	-3.9208	-3.7	-4.0542	-3.8688	-3.7	-4.1479	-3.6229	-3.85	-20.814	171.596	-89.589	140.573	208.115	164.326	151.739	178.709	-69.485	96.842	-124.865	115.864	-111.426	-42.591	76.190	107.129	0.00096717	0.00021189	6.5639e-05	898.78	2.6395e-06	2.0931e-06	1068	334.52	1.0094e-06	2.125e-06	458.26	188.96	143.11	58.061	5.2102e-07	80.155	3.7164e-05	3.2477e-05	9.1482e-06	694.67	3.7979e-07	3.5448e-07	840.18	251.11	3.7715e-07	3.5326e-07	314.9	128.91	92.322	38.525	3.7696e-07	51.254	116.884	-31.529	-116.389	-125.989	-61.132	-31.545	-127.225	-121.106	-48.700	-27.390	-122.954	-119.611	-118.142	-112.272	-43.097	-115.397	-8191	255	
4074.022	1	1	0	0	0.13264	0.17715	0.14461	0.24621	0.082659	0.076911	0.29904	0.20777	0.086917	0.17253	0.17037	0.1361	0.10406	0.26038	0.094417	0.25843	-3.5854	-3.5458	-4.1021	-4.0146	-3.7104	-4.0813	-3.9125	-3.9792	-4.1583	-3.5292	-4.1583	-3.9792	-3.6312	-4.2021	-3.875	-3.8104	53.821	65.118	-95.544	177.782	-13.638	-97.607	196.069	96.741	208.910	212.727	197.741	-115.855	85.408	194.571	33.709	-130.439	0.0010058	0.00028409	8.0422e-06	893.69	1.7517e-06	1.74e-06	1073.8	334.31	1.3359e-06	8.8611e-07	454.29	187.75	142.81	57.425	8.3364e-07	78.776	3.6173e-05	3.1999e-05	9.6251e-06	695.1	3.7358e-07	3.4811e-07	843.56	251.1	3.754e-07	3.4708e-07	314.2	127.55	91.928	38.123	4.0083e-07	50.447	131.425	-76.267	44.347	-126.187	-33.217	-43.148	-127.124	-121.121	-71.267	18.370	-122.904	-119.648	-118.188	-112.472	-65.816	-115.547	-8191	255	
4074.118	1	1	0	0	0.14999	0.11712	0.15039	0.077664	0.097529	0.16033	0.16246	0.074885	0.32555	0.26981	0.1053	0.058638	0.17958	0.21856	0.097142	0.16512	-3.7542	-3.4875	-4.0125	-3.9896	-3.5687	-3.9854	-3.85	-3.7208	-4.1104	-3.5687	-3.9813	-4.0958	-3.6646	-4.2083	-3.9771	-3.8333	199.736	-48.629	-138.943	-96.279	37.255	102.529	-125.033	164.143	107.565	-90.719	69.201	-32.519	-40.975	-127.373	-56.819	-92.927	0.00091944	0.00018134	4.1525e-05	891.44	1.3552e-06	7.8065e-07	1064.1	333.25	9.1148e-07	4.2333e-07	450.48	185.96	140.7	56.838	1.1859e-06	77.897	3.627e-05	3.2615e-05	1.0202e-05	690.91	3.6565e-07	3.5707e-07	837.4	248.98	3.672e-07	3.6265e-07	311.62	126.14	90.776	37.732	4.1566e-07	49.87	117.949	-49.233	-57.417	-126.188	-20.608	33.124	-127.124	-120.979	50.354	-60.915	-122.954	-119.493	-118.015	-112.438	-73.187	-115.412	-8191	255	
4074.214	1	1	0	0	0.080577	0.05763	0.35423	0.18056	0.11273	0.1091	0.21307	0.087419	0.14621	0.056674	0.1261	0.017931	0.047671	0.035754	0.15685	0.25166	-3.7938	-3.7021	-3.8875	-4.0687	-3.5062	-4.0417	-4.0208	-3.8375	-4.2521	-3.7313	-4.0167	-4.1333	-3.6542	-4.0604	-3.9854	-3.6312	149.730	-40.230	-88.837	198.672	-71.202	67.987	188.378	155.423	171.314	129.878	121.718	-81.885	206.107	-0.110	96.340	71.287	0.00096976	0.00010682	5.8219e-05	886.06	1.3139e-06	1.1873e-06	1063	333.63	1.1554e-06	1.724e-06	451.81	188.07	141.39	57.232	9.1237e-07	78.169	3.584e-05	3.4198e-05	1.0476e-05	687.79	3.6261e-07	3.7607e-07	837.01	249.26	3.5953e-07	3.7855e-07	312.65	126.99	91.31	37.936	4.1023e-07	50.178	128.880	-85.916	-121.996	-126.161	-50.742	-49.914	-127.282	-120.947	-57.366	-46.728	-123.113	-119.567	-117.883	-112.483	-53.940	-115.271	-8191	255	
4074.335	1	1	0	0	0.15235	0.19788	0.087552	0.26189	0.24054	0.057213	0.28482	0.28325	0.19626	0.1419	0.21277	0.25637	0.1689	0.064664	0.065255	0.11404	-3.7083	-3.7438	-3.6271	-4.125	-3.5708	-4.0354	-4.2396	-3.8583	-4.0979	-3.6833	-3.9562	-4.2396	-3.6521	-4.0312	-3.9917	-3.7208	-130.130	21.544	-35.354	190.178	-3.380	-88.342	186.262	-125.517	-51.827	185.458	111.754	212.514	-26.470	138.252	-106.991	-122.854	0.00095216	0.00015678	5.3662e-05	886.67	1.9952e-06	4.8736e-07	1063.8	333.36	1.116e-06	1.6489e-06	453.59	188.25	142.16	57.482	1.1414e-06	79.526	3.5633e-05	3.6079e-05	1.0407e-05	688.65	3.6322e-07	4.0357e-07	837.26	249.77	3.6589e-07	4.079e-07	313.33	127.43	91.739	38.219	4.0172e-07	50.646	127.409	-101.367	-80.496	-126.174	-48.560	-97.278	-127.429	-121.083	-19.646	-54.662	-123.071	-119.604	-118.089	-112.327	-37.377	-115.452	-8191	255	
4074.406	1	1	0	0	0.048005	0.16197	0.15037	0.20423	0.19081	0.22928	0.11753	0.1681	0.084246	0.047008	0.12985	0.094788	0.149	0.051763	0.15858	0.25466	-3.7021	-3.6188	-3.7812	-4.1354	-3.4167	-3.9104	-4.1833	-3.7167	-4.0083	-3.8292	-3.7062	-4.2104	-3.8396	-4.0708	-3.7917	-3.6375	-21.169	-69.553	92.698	159.295	-59.263	-37.186	92.723	92.121	94.726	44.930	93.784	-129.479	108.779	70.421	-43.138	110.486	0.0010687	0.00017949	3.1223e-05	891.95	2.1579e-06	1.9697e-06	1066	332.94	2.3351e-06	1.1627e-06	454.69	189.45	142.09	57.522	2.8103e-06	79.86	3.6027e-05	3.7782e-05	1.0113e-05	691.05	3.7153e-07	4.1742e-07	839.64	250.02	3.8027e-07	4.1927e-07	314.57	128.13	92.048	38.424	3.9178e-07	50.901	112.428	-105.015	-113.310	-125.901	-22.015	-24.808	-127.229	-121.042	-16.186	-57.144	-122.830	-119.724	-118.186	-112.322	-12.649	-115.448	-8191	255	
4074.503	1	1	0	0	0.14178	0.11131	0.14597	0.098601	0.1336	0.12842	0.19869	0.041239	0.15412	0.22059	0.056235	0.29305	0.19025	0.11725	0.078429	0.16158	-3.7438	-3.7687	-3.6333	-4.2063	-3.7042	-3.8667	-4.2958	-3.6937	-4.0188	-3.8542	-3.7792	-4.2854	-3.7625	-3.9375	-3.9333	-3.7479	-75.132	-38.908	15.787	133.050	34.780	129.427	124.070	132.225	190.122	16.199	-86.993	205.777	120.489	-128.272	129.561	-99.865	0.00098309	6.9411e-05	1.369e-05	889.58	1.9033e-06	1.0838e-06	1065.5	333.53	5.044e-07	5.395e-07	451.38	186.46	141.61	57.062	1.1014e-06	78.312	3.7405e-05	3.7792e-05	9.8835e-06	689.13	3.8675e-07	4.1614e-07	837.27	249.51	3.8578e-07	4.0874e-07	312.24	126.48	91.246	37.943	3.7956e-07	50.078	123.884	-57.347	-13.575	-126.086	-23.019	-11.099	-127.258	-121.062	212.943	-4.144	-122.845	-119.782	-118.005	-112.351	-35.641	-115.414	-8191	255	
4074.623	1	1	0	0	0.12406	0.13576	0.15151	0.1276	0.1457	0.093787	0.13856	0.09624	0.099375	0.072898	0.17454	0.32296	0.16904	0.21711	0.10409	0.14533	-3.5792	-3.6771	-3.5812	-4.225	-3.6771	-3.6458	-4.3	-3.7812	-3.8042	-3.9521	-3.8417	-4.0125	-3.8458	-3.7542	-4.0938	-3.7562	115.205	218.692	133.989	170.476	205.109	23.059	186.959	-82.492	133.082	7.946	141.187	193.853	197.630	-135.223	23.097	166.897	0.0010637	0.00014537	3.6113e-05	880.52	1.9884e-06	2.261e-06	1058.1	330.79	6.2662e-07	4.2374e-06	448.06	184.79	139.85	56.269	7.8694e-07	77.629	3.8667e-05	3.627e-05	9.5294e-06	684.98	3.9851e-07	3.9942e-07	833.19	247.77	4.0975e-07	4.0299e-07	310.05	125.25	90.68	37.531	3.831e-07	49.687	117.914	-90.372	-99.734	-126.242	-50.342	-13.262	-127.267	-120.771	-80.541	-56.243	-122.757	-119.519	-118.163	-112.213	15.687	-115.472	-8191	255	
4074.719	1	1	0	0	0.075398	0.1574	0.14605	0.14115	0.1074	0.329	0.15694	0.0822	0.072054	0.14267	0.091612	0.046721	0.076627	0.15137	0.20501	0.080518	-3.6896	-3.8958	-3.5583	-4.1646	-3.7625	-3.7854	-4.2896	-3.7896	-4.1396	-3.9833	-3.5687	-4.2292	-3.9146	-3.9437	-4.0583	-3.7396	-28.032	108.467	217.268	180.315	-94.794	2.091	62.199	116.583	-20.751	-117.857	206.658	-63.057	-46.506	-118.764	-124.141	113.880	0.00094772	0.00012519	4.8448e-05	884.52	1.9574e-06	8.4587e-07	1060.9	330.79	1.1696e-06	1.7588e-06	447.71	184.29	140.04	56.585	1.5882e-06	77.712	4.1167e-05	3.6699e-05	9.624e-06	686.29	4.2611e-07	4.0193e-07	834.64	248	4.4017e-07	4.0795e-07	310.03	125.32	90.778	37.591	3.8967e-07	49.815	119.876	-67.351	-114.229	-126.164	-12.288	-94.322	-127.289	-121.129	-119.168	-50.816	-122.640	-119.778	-117.938	-112.396	-5.247	-115.532	-8191	255	
4074.815	1	1	0	0	0.27208	0.14472	0.19078	0.19506	0.096336	0.19372	0.2317	0.15096	0.084078	0.31021	0.054078	0.28428	0.055602	0.079855	0.19387	0.27649	-3.5583	-3.8417	-3.6229	-4.2542	-3.9125	-3.6167	-4.3292	-3.7583	-3.7271	-4.075	-3.7521	-4.1458	-3.9875	-3.7792	-3.9354	-3.8563	73.842	103.519	-130.564	156.084	131.673	192.738	145.418	118.026	-61.445	-86.504	18.493	159.526	176.837	-49.714	-29.874	176.756	0.00091833	9.09e-05	8.6732e-05	888.35	1.0916e-06	1.6336e-06	1064.7	331.23	1.4053e-06	1.4799e-06	453.06	185.1	139.6	56.878	7.8284e-07	78.379	4.2785e-05	3.7223e-05	9.8679e-06	690.87	4.3946e-07	4.0634e-07	836.71	249	4.3237e-07	3.9613e-07	311.78	126.11	90.843	37.803	3.7208e-07	50.365	126.456	-47.752	-73.539	-126.259	-22.155	-0.760	-127.285	-121.013	3.439	-26.945	-122.951	-119.730	-118.312	-112.519	-54.283	-115.141	-8191	255	
4074.934	1	1	0	0	0.31638	0.10597	0.12714	0.10127	0.13247	0.20293	0.15747	0.20099	0.048175	0.16295	0.22163	0.032483	0.36626	0.16997	0.17366	0.33301	-3.5021	-4.1354	-3.5375	-4.0417	-3.8063	-3.525	-4.1542	-3.8563	-3.9604	-4.2229	-3.7167	-4.0979	-4.0542	-3.8792	-4.0938	-3.9562	-55.666	-23.549	53.301	190.742	-75.331	-76.034	196.889	167.573	-85.505	100.365	-124.179	-10.918	175.109	119.930	180.191	116.863	0.00097801	0.0003271	5.6873e-05	887.6	2.3585e-06	1.5586e-06	1065.8	333.43	2.6862e-06	2.3466e-06	453.97	186.2	140.98	57.018	1.533e-06	78.823	4.0819e-05	3.5731e-05	9.5517e-06	691.53	4.2034e-07	3.8859e-07	839.39	250.07	4.2228e-07	3.9017e-07	312.65	127.18	91.22	37.891	3.9343e-07	50.492	114.100	-63.206	-70.746	-126.188	-10.777	-1.209	-127.193	-121.037	2.688	-31.959	-123.017	-119.829	-118.219	-112.332	-77.398	-115.322	-8191	255	
4075.006	1	1	0	0	0.086299	0.11794	0.15464	0.21803	0.32529	0.066316	0.18604	0.077226	0.3379	0.1685	0.16857	0.12377	0.055444	0.27291	0.19628	0.36798	-3.4292	-3.8208	-3.6104	-3.8688	-3.9646	-3.5167	-4.2438	-3.9	-3.7229	-4.0083	-3.8583	-3.8604	-4.0437	-3.5354	-4.0208	-4.0646	176.116	60.307	-99.844	175.571	-24.497	117.186	31.381	74.745	186.529	-131.566	-101.984	204.108	204.169	-123.467	85.956	167.989	0.00085908	0.00015625	6.2181e-05	885.99	2.4712e-06	1.8508e-06	1058.9	331.2	1.6117e-06	2.6807e-06	448.02	183.99	139.38	55.924	1.3327e-06	77.404	4.0586e-05	3.563e-05	1.0042e-05	690.13	4.1236e-07	3.9153e-07	835.52	248.6	4.1875e-07	3.9515e-07	310.24	125.18	90.164	37.236	4.243e-07	49.683	122.673	-79.734	-82.036	-126.074	1.076	-34.040	-127.158	-121.155	-3.318	-42.524	-122.894	-119.581	-118.027	-112.257	-22.122	-115.599	-8191	255	
4075.102	1	1	0	0	0.16074	0.16011	0.057457	0.14998	0.078431	0.26161	0.11102	0.14065	0.091709	0.18339	0.15154	0.3847	0.22736	0.11146	0.046674	0.19409	-3.2146	-3.9729	-3.7542	-4.0458	-4.0708	-3.6375	-4.1917	-3.9229	-3.6792	-4.2896	-4.0417	-3.9437	-4.1188	-3.8229	-3.9667	-3.9104	83.893	-85.681	194.390	106.142	66.537	16.486	34.610	-52.249	156.611	115.099	214.725	187.005	154.856	-64.422	-125.493	-137.192	0.00092099	0.00016456	2.9274e-05	882.19	2.2575e-06	1.2591e-06	1057.6	329.27	7.0017e-07	2.5717e-06	446.87	183.75	138.67	56.126	1.3207e-06	77.734	4.1119e-05	3.5759e-05	1.0969e-05	689.09	4.2312e-07	3.9957e-07	834.49	247.93	4.2059e-07	3.992e-07	310.24	125.1	90.057	37.359	4.5033e-07	49.914	117.855	-46.645	-41.237	-126.140	-75.766	-1.103	-127.396	-121.149	41.145	-7.976	-122.868	-119.732	-118.190	-112.500	40.177	-115.390	-8191	255	
4075.198	1	1	0	0	0.16788	0.14895	0.2453	0.093941	0.11878	0.10175	0.18217	0.20573	0.24946	0.1229	0.083084	0.19709	0.2825	0.20887	0.17055	0.39867	-3.2667	-4.0646	-3.675	-3.8417	-4.0604	-3.5875	-4.0729	-3.8917	-3.5958	-4.1	-3.9229	-3.7833	-4.1292	-3.5833	-3.8375	-4.2063	-126.416	-27.867	136.235	-100.877	143.607	181.420	215.267	170.038	139.388	-34.052	214.973	98.116	209.114	174.747	-39.237	132.430	0.00095334	7.3979e-05	3.881e-05	881.65	1.95e-06	1.9272e-06	1063.2	330.08	2.2938e-06	1.8305e-06	449.28	184.61	140.71	56.524	8.4672e-07	78.341	4.0664e-05	3.6674e-05	1.159e-05	688.28	4.0939e-07	4.051e-07	837.8	248.08	4.1145e-07	4.0272e-07	311.84	125.75	90.733	37.646	4.5975e-07	50.204	116.825	-126.352	-69.331	-126.171	-56.845	-29.642	-127.264	-120.971	-33.582	-36.564	-122.839	-119.548	-118.229	-112.254	-31.059	-115.657	-8191	255	
4075.319	1	1	0	0	0.24443	0.077872	0.079055	0.19811	0.19921	0.092756	0.021193	0.23097	0.15225	0.11583	0.17185	0.10872	0.13271	0.21877	0.15171	0.36513	-3.2062	-4.0146	-3.6708	-3.8229	-4.0854	-3.6625	-4.0938	-4.2104	-3.6896	-4	-3.9208	-3.8292	-4.0229	-3.875	-3.7604	-4.2708	125.078	29.866	-61.835	147.220	107.059	32.775	141.055	36.198	163.677	17.961	201.413	-14.558	155.686	163.082	198.795	168.395	0.00083137	0.00012005	4.3857e-05	883.24	1.9024e-06	6.0728e-07	1061.6	329.54	1.6227e-06	1.9677e-06	451.02	186.25	140.42	57.016	1.6815e-06	79.038	3.9537e-05	3.7666e-05	1.1672e-05	689.05	4.0603e-07	4.2646e-07	840.12	248.93	4.0648e-07	4.3103e-07	313.23	126.69	90.826	38.023	4.6048e-07	50.731	120.935	-69.014	-114.622	-126.052	28.203	-93.295	-127.189	-121.112	-28.564	-59.079	-122.945	-119.393	-118.209	-112.320	39.243	-115.669	-8191	255	
4075.415	1	1	0	0	0.17007	0.18248	0.033546	0.18418	0.059949	0.23897	0.20933	0.13255	0.1279	0.16315	0.13337	0.30266	0.20069	0.17435	0.071225	0.25343	-3.0604	-4.0896	-3.7979	-3.625	-4.025	-3.6979	-3.9833	-4.2083	-3.4771	-4.1375	-3.8937	-3.7083	-4.3646	-3.8333	-3.7188	-4.2396	87.842	66.241	-56.327	182.950	-125.182	-68.476	180.862	163.537	55.027	-131.283	125.044	174.921	173.954	-114.062	4.435	134.040	0.00090691	0.00014755	7.8042e-05	882.41	1.7951e-06	2.8687e-06	1068.6	332.63	9.0087e-07	1.6788e-06	451.14	185.67	140.14	56.82	2.1601e-06	78.086	3.9392e-05	4.0206e-05	1.158e-05	688.52	4.0826e-07	4.4854e-07	841.1	249.6	4.1267e-07	4.5686e-07	313.23	126.41	90.592	37.876	4.5172e-07	50.255	115.053	-75.220	-105.513	-126.039	-62.146	-16.890	-127.257	-120.953	-129.630	-47.768	-122.944	-119.556	-118.239	-112.236	-41.288	-115.184	-8191	255	
4075.511	1	1	0	0	0.13839	0.27859	0.079684	0.11958	0.1317	0.23775	0.13229	0.20477	0.16352	0.057338	0.12181	0.15974	0.17118	0.251	0.15046	0.21521	-3.3146	-4.0437	-3.9354	-3.5917	-4.0104	-3.7083	-3.8125	-4.3229	-3.6688	-3.8104	-4.0625	-3.5667	-4.2208	-3.9583	-3.7104	-4.2812	207.533	-109.717	79.174	164.586	25.803	106.775	177.349	210.053	-129.084	4.755	91.950	-130.375	177.405	197.834	206.599	124.200	0.0010068	0.0001439	8.2195e-05	879.98	1.7509e-06	5.5875e-07	1055.6	330.4	1.0661e-06	1.8864e-06	446.42	184.02	138.84	56.27	1.8371e-06	77.801	4.0418e-05	4.2233e-05	1.1329e-05	684.65	4.1156e-07	4.6198e-07	834.59	247.81	4.1371e-07	4.656e-07	309.61	125	90.241	37.592	4.3523e-07	49.764	115.102	-62.915	-81.620	-126.007	-60.848	10.769	-127.092	-120.830	-60.693	8.118	-123.083	-119.592	-118.150	-112.091	6.809	-115.460	-8191	255	
4075.607	1	1	0	0	0.11871	0.29356	0.094015	0.085296	0.19305	0.16462	0.057929	0.21631	0.039436	0.13994	0.38834	0.092064	0.12344	0.27268	0.096918	0.14675	-3.1354	-3.7958	-4.0417	-3.6604	-4.1354	-3.9167	-3.7896	-4.1854	-3.475	-3.7708	-4.1438	-3.5521	-4.0854	-4.0375	-3.4896	-4.1292	203.800	59.025	-38.855	-59.610	210.858	212.555	89.499	101.837	67.116	133.364	147.377	-78.344	-51.204	177.260	18.365	121.646	0.0010991	0.00027116	6.2022e-05	876.08	1.6593e-06	9.6659e-07	1056.7	330.67	2.8715e-06	1.3811e-06	452.53	185.08	140.64	56.746	1.4914e-06	78.186	4.1089e-05	4.2178e-05	1.0889e-05	682.63	4.2682e-07	4.5893e-07	833.46	247.48	4.3256e-07	4.5009e-07	311.17	126.03	91.21	37.888	4.2413e-07	50.208	123.256	-25.689	-83.606	-126.209	-73.849	-43.346	-127.150	-120.982	-96.381	-38.928	-122.845	-119.577	-118.175	-112.276	-32.283	-115.237	-8191	255	
4075.704	1	1	0	0	0.16713	0.22525	0.2161	0.092153	0.17121	0.14116	0.13882	0.16203	0.22667	0.32476	0.054997	0.010059	0.11271	0.30926	0.205	0.14975	-3.4313	-3.775	-4.175	-3.7354	-3.8937	-3.9646	-3.6813	-4.1604	-3.7667	-3.7229	-4.2458	-3.7667	-4.1521	-4.0542	-3.6458	-4.1333	22.759	197.635	-30.780	134.048	202.251	171.403	141.703	-128.492	103.744	-3.274	-138.080	-121.889	155.092	167.666	-20.625	-118.169	0.0009549	0.00019043	5.2581e-05	880.87	9.8311e-07	1.8459e-06	1060.9	331.31	1.6998e-06	2.166e-06	451.99	188.16	141.4	57.42	5.3997e-07	79.996	4.2839e-05	4.0641e-05	1.0539e-05	683.21	4.3882e-07	4.3478e-07	836.91	248.62	4.4339e-07	4.2615e-07	313.15	127.7	91.913	38.257	3.9738e-07	51.08	113.753	-58.948	-105.640	-125.963	-107.000	1.317	-127.177	-121.005	-34.382	-40.403	-122.630	-119.704	-117.980	-112.288	-65.397	-115.329	-8191	255	
4075.800	1	1	0	0	0.13742	0.13885	0.18949	0.18716	0.10853	0.024695	0.26094	0.19426	0.050977	0.20547	0.34736	0.18369	0.32302	0.15765	0.26203	0.32787	-3.1833	-3.7917	-4.0708	-3.8333	-4.0333	-4.1958	-3.7417	-4.2083	-3.8958	-3.8104	-4.3229	-3.6917	-3.8688	-4.0687	-3.3958	-4.2792	194.206	93.807	31.908	-61.756	-103.993	-62.336	197.347	140.853	-122.590	26.085	130.461	-111.204	-62.703	195.544	-97.802	198.422	0.00097104	0.00021475	2.5432e-05	881.17	2.4755e-06	5.5182e-07	1065.9	334.38	1.0019e-06	2.0663e-06	457.33	190.05	143.26	58.218	2.0678e-07	81.102	4.2029e-05	3.8036e-05	9.7706e-06	683.99	4.3656e-07	4.0716e-07	838.73	250.63	4.2849e-07	3.9805e-07	315.5	129.22	92.902	38.705	3.7103e-07	51.772	117.354	-34.067	206.421	-126.233	-91.364	30.882	-127.224	-121.114	74.241	7.705	-122.993	-119.688	-118.165	-112.196	-72.740	-115.501	-8191	255	
4075.896	1	1	0	0	0.24209	0.15864	0.17411	0.12058	0.26139	0.22402	0.15722	0.31876	0.10471	0.071299	0.082555	0.16117	0.15745	0.17189	0.13255	0.059506	-3.5687	-3.6292	-4.0687	-3.8625	-4.0146	-3.9917	-3.6958	-4.2917	-3.9	-3.5229	-4.2771	-3.8375	-3.8604	-4.1458	-3.6813	-4.1958	206.791	163.751	121.908	-71.586	85.480	14.516	147.776	204.852	93.009	-121.445	216.232	212.929	172.893	-130.821	91.648	-66.150	0.00098296	9.7666e-05	6.2544e-05	879.73	2.0062e-06	1.4994e-06	1064.9	332.85	1.022e-06	1.8001e-06	454.34	188.34	142	57.485	1.2726e-06	79.822	4.0607e-05	3.5083e-05	9.1787e-06	684.38	4.1262e-07	3.7384e-07	838.74	250.4	4.0883e-07	3.8543e-07	313.13	127.88	91.926	38.114	3.6774e-07	50.982	119.246	-92.536	-89.483	-125.981	-44.885	-38.428	-127.274	-121.074	159.968	-12.347	-122.757	-119.772	-118.093	-112.605	39.146	-115.683	-8191	255	
4076.015	1	1	0	0	0.21112	0.12046	0.21696	0.1447	0.060427	0.10031	0.23184	0.19213	0.12731	0.021449	0.28587	0.27115	0.016032	0.30534	0.21508	0.40525	-3.5917	-3.6104	-4.0229	-3.8021	-3.8583	-4.1792	-3.7146	-3.9896	-3.9521	-3.5875	-4.1271	-3.8479	-3.7646	-4.2083	-3.7542	-3.8583	-12.117	168.174	23.359	44.743	79.641	158.162	139.806	194.767	105.000	-24.253	190.474	151.263	-131.927	-133.803	99.815	144.049	0.00083258	0.00022778	5.7937e-05	882.16	7.533e-07	7.0319e-07	1062.6	333.09	8.188e-07	1.4747e-06	454.01	187.19	142.07	57.206	1.1298e-06	79.583	3.8993e-05	3.4415e-05	9.1462e-06	683.96	4.002e-07	3.7046e-07	835.59	250.06	3.9933e-07	3.7411e-07	311.96	127.21	91.571	38.049	3.7929e-07	50.906	118.132	-72.805	-102.994	-126.136	-54.636	-47.193	-127.049	-121.062	-45.649	-5.146	-122.966	-119.545	-118.333	-112.566	-17.712	-115.452	-8191	255	
4076.111	1	1	0	0	0.21279	0.097324	0.082616	0.14247	0.2184	0.12627	0.25928	0.36303	0.095313	0.30547	0.23344	0.18473	0.15359	0.28189	0.024615	0.14196	-3.5729	-3.5042	-4.0229	-3.9521	-3.7354	-4.0042	-3.7625	-4.0854	-3.9667	-3.6729	-4.1167	-3.9792	-3.6937	-4.1917	-3.7958	-3.9375	-36.373	-80.068	-83.255	189.175	-105.026	122.144	144.363	143.713	190.632	85.536	172.827	174.376	32.769	173.781	31.787	18.545	0.0009525	2.9056e-05	4.6615e-05	879.81	2.0616e-06	1.6116e-06	1062.8	335.35	2.7473e-06	1.6705e-06	454.41	187.9	140.72	57.596	7.8879e-07	80.071	3.8702e-05	3.4059e-05	9.6619e-06	684.25	3.9754e-07	3.6935e-07	838.65	250.94	3.9401e-07	3.7178e-07	313.65	127.91	91.624	38.243	4.0177e-07	51.243	119.676	76.808	-107.716	-125.939	16.874	2.959	-127.142	-121.145	-40.802	-83.770	-122.639	-119.596	-117.825	-112.316	-56.877	-115.611	-8191	255	
4076.207	1	1	0	0	0.17434	0.19156	0.26064	0.088541	0.16483	0.32051	0.085306	0.31272	0.17596	0.25238	0.17455	0.12614	0.18072	0.13314	0.21475	0.018357	-3.5667	-3.6458	-4.1	-3.9458	-3.6375	-4.0312	-3.8542	-3.8812	-4.075	-3.5625	-4.0479	-4.0021	-3.6771	-4.275	-3.8292	-3.9625	21.311	-59.004	20.697	36.784	67.427	122.907	58.117	215.923	85.679	-62.998	211.023	157.964	99.941	-135.913	-52.201	-39.748	0.00095842	0.0001393	6.4011e-05	880.51	1.0829e-06	1.8661e-06	1067	334.17	1.21e-06	2.5625e-06	455.17	187.29	141.38	57.248	1.414e-06	80.005	3.8889e-05	3.4245e-05	1.05e-05	686	4.0687e-07	3.8133e-07	842.61	251.04	4.1944e-07	3.999e-07	315.09	127.49	91.35	38.183	4.677e-07	51.389	119.062	-61.943	-112.877	-125.786	-38.033	-15.288	-127.186	-120.898	-43.889	-5.510	-122.845	-119.551	-117.900	-112.209	-18.248	-115.465	-8191	255	
4076.303	1	1	0	0	0.13553	0.047227	0.27521	0.15356	0.12299	0.23433	0.075756	0.086525	0.16197	0.23648	0.23618	0.14146	0.17201	0.16947	0.12222	0.22982	-3.8083	-3.6854	-3.9875	-4.1396	-3.8521	-4.1937	-3.9562	-4.1	-4.1583	-3.6354	-4.1562	-4.2542	-3.6937	-4.1708	-3.9146	-3.9479	-13.939	60.963	-110.193	40.760	162.461	-107.101	147.406	84.391	78.047	-105.617	119.450	-41.273	-74.972	174.247	41.874	189.049	0.00091395	0.00020537	3.9716e-05	885.46	1.9374e-06	1.8346e-06	1075.7	333.36	7.6416e-07	1.433e-06	453.99	185.82	140.49	56.873	8.5817e-07	78.777	4.1979e-05	3.8178e-05	1.1996e-05	691.68	4.3e-07	4.2148e-07	849.77	251.73	4.3205e-07	4.3127e-07	315.18	126.84	90.982	38.012	5.1466e-07	50.731	128.847	-70.687	-119.279	-126.001	-67.494	-44.474	-126.988	-120.994	-67.447	-123.927	-122.773	-119.510	-117.911	-112.161	-22.401	-115.355	-8191	255	
4076.399	1	1	0	0	0.12947	0.12719	0.1746	0.15381	0.067918	0.1495	0.27676	0.11378	0.08722	0.18078	0.22087	0.041867	0.071291	0.12306	0.064275	0.13268	-3.8979	-3.6604	-3.8458	-4.1583	-3.6646	-4.1458	-4.0708	-3.7042	-4.2167	-3.7625	-4.0896	-4.1937	-3.7479	-4.2354	-3.7417	-3.7396	217.021	122.289	-86.790	191.897	52.632	-82.994	129.972	184.625	-131.375	-131.087	160.025	-123.090	-53.680	210.695	5.205	122.408	0.0010462	0.00014107	3.1458e-05	884.18	1.1126e-06	8.358e-07	1066.8	330.62	1.5717e-06	1.0876e-06	447.79	183.1	138.6	55.893	1.8463e-06	77.839	4.3376e-05	4.2522e-05	1.303e-05	691.97	4.5177e-07	4.7544e-07	847.19	249.38	4.5614e-07	4.8219e-07	311.81	124.94	90.026	37.46	5.1415e-07	50.122	122.817	-73.915	-113.421	-125.979	-50.165	-41.776	-127.298	-120.842	-43.069	-44.093	-122.747	-119.650	-117.941	-112.291	-0.588	-115.503	-8191	255	
4076.495	1	1	0	0	0.083641	0.17392	0.12408	0.12272	0.19113	0.1221	0.031848	0.14651	0.14743	0.16857	0.18775	0.09558	0.15598	0.15713	0.30244	0.12849	-3.7542	-3.7229	-3.7271	-4.2146	-3.6708	-4.0687	-4.1667	-3.7625	-4	-3.7729	-4.0125	-4.1479	-3.7083	-4.05	-3.9771	-3.6437	88.172	4.580	-76.851	151.438	219.047	-128.250	220.917	-130.107	134.851	39.029	219.891	-112.635	140.799	187.036	-49.805	211.925	0.00086936	0.00010385	3.9636e-05	884.3	1.4562e-06	9.9128e-07	1067.6	330.82	2.2712e-06	1.0968e-06	447.04	183.49	139.35	56.417	1.6458e-06	78.53	4.305e-05	4.4854e-05	1.2803e-05	690.86	4.4693e-07	4.9607e-07	846.08	249.58	4.3954e-07	4.9417e-07	311.33	125.48	90.519	37.829	4.8558e-07	50.512	119.059	-36.501	-91.683	-126.158	-14.816	-117.693	-127.061	-120.984	-38.171	-39.659	-122.611	-119.873	-118.105	-112.336	-27.708	-115.592	-8191	255	
4076.592	1	1	0	0	0.087229	0.13275	0.30694	0.29912	0.11246	0.18568	0.20117	0.12643	0.15672	0.1601	0.17612	0.31496	0.34868	0.22582	0.25075	0.19647	-3.7625	-3.6708	-3.7	-4.2521	-3.5521	-3.9375	-4.2063	-3.6688	-3.9917	-3.7417	-3.875	-4.2583	-3.6833	-4.0125	-3.9979	-3.75	120.884	87.081	-45.833	199.110	-115.812	6.482	-74.444	115.824	149.277	126.874	153.195	211.376	178.444	208.040	-33.483	-32.075	0.00098505	0.00010491	7.9859e-05	887.45	2.4059e-06	1.5388e-06	1070.5	333.66	2.8065e-07	2.2481e-06	450.42	186.42	140.33	57.316	2.947e-06	79.116	4.2883e-05	4.5865e-05	1.2231e-05	691.47	4.4451e-07	5.0034e-07	847.84	250.41	4.4817e-07	4.983e-07	312.9	126.64	91.281	38.22	4.5954e-07	50.983	125.079	-131.229	-124.434	-125.949	-75.874	42.115	-127.181	-121.075	213.571	-27.544	-122.719	-119.415	-118.152	-112.212	14.244	-115.551	-8191	255	
4076.712	1	1	0	0	0.17317	0.22407	0.16372	0.14568	0.15216	0.073839	0.30011	0.20232	0.21831	0.08533	0.28753	0.16297	0.17547	0.16651	0.10726	0.10201	-3.7792	-3.8708	-3.7208	-4.2458	-3.7708	-3.8396	-4.2083	-3.7771	-4.0687	-3.7771	-3.7208	-4.1792	-3.7	-3.9042	-4.1687	-3.8396	56.847	144.193	-4.659	215.837	110.752	179.819	-133.203	176.184	166.712	161.607	157.262	-116.910	207.317	199.049	124.396	71.478	0.00098258	0.00026082	2.6567e-05	886.4	3.0147e-06	2.2759e-06	1074	334.38	2.0542e-06	1.0441e-06	454.59	186.44	141.64	57.464	2.0215e-06	80.07	4.3831e-05	4.5454e-05	1.1768e-05	690.75	4.6145e-07	4.9513e-07	848.71	251.64	4.7808e-07	4.9363e-07	314.78	127.34	92.082	38.425	4.4758e-07	51.483	111.762	-78.980	-77.975	-126.038	-61.461	-8.619	-127.188	-120.946	-61.676	-52.483	-122.863	-119.473	-117.965	-111.968	-22.550	-115.410	-8191	255	
4076.807	1	1	0	0	0.084469	0.087924	0.094749	0.22012	0.0728	0.11267	0.04672	0.13205	0.11084	0.19451	0.20291	0.18325	0.18453	0.36261	0.31015	0.15347	-3.7062	-3.7917	-3.6	-4.2646	-3.6583	-3.8563	-4.1708	-3.8667	-3.975	-4.0687	-3.8479	-4.2917	-4.0146	-3.7562	-4.1396	-3.7792	27.153	63.946	-20.408	213.297	-77.668	68.137	167.085	117.819	137.505	181.088	157.195	107.641	-64.195	120.494	113.249	138.152	0.0010296	0.00012281	5.7992e-05	884.95	6.3202e-07	1.46e-06	1076.5	332.71	1.2754e-06	3.2804e-06	450.19	185.39	140.17	56.523	3.0222e-06	78.76	4.5671e-05	4.3022e-05	1.126e-05	687.53	4.7568e-07	4.7099e-07	846.37	250.15	4.8454e-07	4.6856e-07	312.01	126.05	91.322	37.868	4.3063e-07	50.599	111.489	-67.846	-80.350	-125.779	-107.048	-5.045	-127.034	-121.010	-134.225	-0.601	-122.872	-119.654	-118.136	-112.268	-24.944	-115.499	-8191	255	
4076.903	1	1	0	0	0.22419	0.12944	0.21544	0.21286	0.13726	0.10803	0.14819	0.11565	0.14728	0.070141	0.16136	0.26045	0.075252	0.12687	0.24328	0.2475	-3.5979	-4.0396	-3.5292	-4.2729	-3.875	-3.7562	-4.4646	-3.7625	-4.0437	-4.275	-3.8063	-4.1813	-3.9583	-3.8812	-3.9854	-3.6333	5.066	115.574	182.822	103.630	78.505	-130.616	156.339	40.373	-46.841	18.907	174.904	197.582	150.352	178.303	39.268	183.429	0.0011443	0.00021444	2.7828e-05	878.48	6.4475e-07	1.6692e-06	1068.9	330.43	1.4967e-06	1.1062e-06	448.52	184.91	138.92	56.561	3.1204e-06	78.447	4.6978e-05	4.1826e-05	1.085e-05	686.12	4.8446e-07	4.5536e-07	842	249.2	4.9205e-07	4.467e-07	310.22	125.48	90.827	37.739	4.2399e-07	50.606	117.818	-37.292	-47.515	-126.136	24.248	17.568	-127.260	-121.087	-9.603	-32.798	-122.711	-119.437	-117.896	-112.341	-19.995	-115.303	-8191	255	
4076.999	1	1	0	0	0.12563	0.077924	0.11824	0.148	0.07949	0.080071	0.21825	0.16571	0.0499	0.11596	0.10775	0.17196	0.027779	0.13624	0.13427	0.14494	-3.4792	-3.9917	-3.6792	-4.2667	-3.8563	-3.8937	-4.2979	-3.9354	-3.7604	-4.0437	-3.7271	-3.9583	-3.9521	-3.7104	-4.0333	-3.8208	97.370	43.449	47.955	127.080	70.527	-101.765	120.164	64.973	-81.014	-60.679	59.651	154.546	80.156	134.228	213.801	66.716	0.0010346	0.00020583	3.8726e-05	878.94	9.1329e-07	2.1302e-06	1075	331.49	2.7104e-06	7.3779e-07	448.37	185.25	140.26	56.839	1.5369e-06	79.191	4.6372e-05	4.0357e-05	1.0645e-05	687.48	4.8078e-07	4.4389e-07	844.91	249.91	4.8501e-07	4.4144e-07	310.73	126.41	91.191	37.855	4.2004e-07	50.937	111.165	-53.644	-72.350	-125.992	-18.739	15.091	-127.155	-121.128	7.246	-43.970	-122.605	-119.415	-117.976	-112.261	29.906	-115.516	-8191	255	
4077.095	1	1	0	0	0.34525	0.13628	0.16881	0.1863	0.12359	0.13538	0.12496	0.07405	0.2608	0.1032	0.21392	0.16497	0.24901	0.16062	0.042645	0.10092	-3.4583	-3.9458	-3.8208	-4.1813	-4.1417	-3.6854	-4.2688	-3.8792	-3.5542	-4.1854	-3.8979	-4.0687	-4.2333	-3.8354	-4.025	-4.0271	-85.452	-32.676	-20.451	217.636	114.838	-66.332	157.964	76.915	67.543	-20.756	213.365	208.418	151.028	186.964	43.824	134.668	0.0010201	0.00012652	6.6112e-05	884.93	2.5015e-06	1.0522e-06	1075.8	334.29	2.2275e-06	1.3125e-06	452.02	187.15	140.98	57.449	1.1028e-06	80.29	4.5719e-05	3.8905e-05	1.0409e-05	689.26	4.5525e-07	4.2349e-07	848.81	251.53	4.5281e-07	4.1374e-07	312.78	127.59	91.641	38.191	4.1765e-07	51.607	118.355	5.539	-59.314	-125.943	-80.252	4.678	-127.200	-120.873	44.465	98.128	-122.514	-119.543	-118.182	-112.082	-19.619	-115.422	-8191	255	
4077.191	1	1	0	0	0.030689	0.25363	0.14297	0.086462	0.11997	0.16985	0.16195	0.099429	0.11397	0.062184	0.25356	0.25267	0.17792	0.23732	0.090276	0.11962	-3.3375	-4.0875	-3.725	-4.0333	-4.1458	-3.6083	-4.3604	-4.0062	-3.775	-4.2063	-3.7438	-4.2875	-4.2438	-3.825	-4.2	-4.1604	-135.760	218.559	117.546	-130.569	-137.354	-132.473	208.397	126.673	-131.123	98.528	157.698	186.549	189.626	96.453	140.050	198.751	0.00097178	0.00015246	2.2081e-05	882.85	2.914e-06	1.7408e-06	1076.4	334.91	1.3451e-06	1.5337e-06	449.64	186.57	141.62	56.909	1.4942e-06	79.457	4.3053e-05	3.7516e-05	1.0691e-05	690.8	4.3769e-07	4.1024e-07	851.23	252.3	4.3946e-07	4.0143e-07	312.92	127.35	91.302	37.977	4.4268e-07	51.145	117.657	-65.766	-107.807	-125.951	-11.624	-56.822	-127.099	-121.073	-8.820	-14.814	-122.702	-119.575	-118.096	-112.314	-62.155	-115.415	-8191	255	
4077.287	1	1	0	0	0.10805	0.096257	0.10833	0.14161	0.013664	0.2236	0.18351	0.23793	0.12175	0.055635	0.13955	0.16782	0.14685	0.081742	0.15071	0.1795	-3.2479	-4.2292	-3.7896	-3.9646	-4.1833	-3.5625	-4.1188	-4.1146	-3.7542	-4.0333	-3.9458	-3.9625	-4.3146	-3.8438	-4.1146	-4.0708	81.868	-125.075	-20.497	220.833	130.048	14.664	112.751	193.954	180.054	-106.966	90.906	135.970	-64.499	-120.349	146.255	133.680	0.00093498	0.00018867	3.2509e-05	883.72	2.7076e-06	1.6317e-06	1075.5	332.05	1.6105e-06	1.4916e-06	447.93	183.28	140.03	56.51	9.695e-07	78.65	4.1539e-05	3.6439e-05	1.1318e-05	688.78	4.3032e-07	4.0363e-07	847.95	250.05	4.3264e-07	4.0147e-07	310.79	125.14	90.381	37.616	4.7197e-07	50.521	124.195	-99.336	-107.254	-126.234	-56.499	-11.646	-127.057	-120.861	-31.831	-32.161	-122.692	-119.683	-118.145	-112.122	20.164	-115.340	-8191	255	
4077.384	1	1	0	0	0.14708	0.17543	0.046161	0.15732	0.1865	0.23152	0.28307	0.087345	0.11567	0.12721	0.14441	0.041796	0.11872	0.071552	0.18097	0.10047	-3.3125	-4.0354	-3.6937	-3.8125	-4.2125	-3.5958	-4.3292	-4.1375	-3.6937	-4.2333	-4.1958	-3.975	-4.0625	-3.8729	-3.8354	-4.2417	207.201	156.145	-63.904	162.730	-114.202	86.224	187.750	67.623	117.573	-123.796	160.184	-92.951	-109.856	66.659	-131.428	111.511	0.00073799	0.00010751	6.3525e-05	871.22	1.3644e-06	2.0671e-06	1068.2	330.5	2.0397e-06	2.061e-06	447.25	183.77	140.1	56.528	8.1576e-07	79.251	4.1272e-05	3.7202e-05	1.195e-05	682.73	4.1893e-07	4.1125e-07	843.91	249.12	4.2553e-07	4.2138e-07	311.16	125.78	90.653	37.748	4.9654e-07	50.81	110.879	-31.615	-117.061	-125.897	-5.597	-39.860	-127.082	-121.139	-41.411	-18.969	-122.699	-119.734	-118.207	-112.331	-32.582	-115.701	-8191	255	
4077.504	1	1	0	0	0.15933	0.33057	0.16002	0.11069	0.20843	0.071775	0.20151	0.31004	0.38888	0.075246	0.24701	0.094299	0.093105	0.27799	0.15842	0.21986	-3.3563	-4.0396	-3.8292	-3.7562	-4.25	-3.7458	-3.9375	-4.2083	-3.6625	-4.0062	-4.0333	-3.9771	-4.3958	-3.7729	-3.7771	-4.1521	-62.215	119.278	-80.002	107.702	178.234	177.219	188.249	-107.890	101.951	-48.429	189.651	56.336	176.649	-115.915	217.295	145.328	0.00091231	0.00018086	1.8627e-05	879.98	2.75e-06	6.4314e-07	1077.5	334	2.5832e-06	1.3522e-06	448.56	185.05	140.48	57.064	6.2466e-07	79.799	4.1977e-05	4.063e-05	1.2642e-05	687.68	4.2813e-07	4.5801e-07	851.73	250.19	4.3376e-07	4.7409e-07	311.83	126.35	90.961	38.125	5.0343e-07	51.23	111.727	-124.169	-96.591	-126.056	5.625	-76.826	-126.980	-120.828	-43.179	-88.906	-122.897	-119.419	-117.927	-112.155	-44.691	-115.230	-8191	255	
4077.576	1	1	0	0	0.1645	0.14665	0.13837	0.18867	0.22837	0.14781	0.26586	0.17165	0.31633	0.099233	0.10586	0.24955	0.07132	0.15346	0.19256	0.19115	-3.325	-4.0208	-3.9688	-3.5708	-4.2708	-3.8625	-3.9229	-4.2312	-3.7104	-4.0917	-4.1375	-3.8646	-4.1479	-4.0229	-3.7188	-4.2375	147.537	19.704	-49.332	218.819	89.936	200.200	172.179	184.210	141.976	-10.167	-92.492	164.705	-64.960	174.498	-109.799	130.480	0.0008743	0.00014933	4.163e-05	879.78	2.9721e-06	8.4004e-07	1076	333.35	1.4953e-06	1.273e-06	451.15	186.56	141.2	57.338	2.4733e-07	80.118	4.2275e-05	4.4662e-05	1.2693e-05	687.78	4.3162e-07	4.9029e-07	853.04	250.52	4.4308e-07	4.9915e-07	312.84	127	91.429	38.317	4.9322e-07	51.465	113.921	-107.532	-118.640	-126.053	-8.332	-51.316	-127.104	-120.874	-34.458	11.366	-122.752	-119.283	-117.854	-112.366	45.108	-115.250	-8191	255	
4077.696	1	1	0	0	0.22194	0.082423	0.22804	0.16221	0.22506	0.055206	0.28944	0.33267	0.077194	0.20691	0.14531	0.21748	0.11713	0.15681	0.15937	0.1288	-3.2375	-4.025	-3.9542	-3.6625	-4.1042	-3.7854	-3.8979	-4.2312	-3.6292	-4.0354	-4.1813	-3.6688	-4.1229	-3.975	-3.7292	-4.3417	-28.348	167.312	210.780	184.147	-27.113	16.562	218.227	78.146	-78.419	24.366	-68.468	205.863	3.416	209.029	-127.269	68.715	0.0010752	0.00011704	6.453e-05	880.16	2.213e-06	2.1638e-06	1072.7	331.19	8.3578e-07	1.8722e-06	447.36	183.77	138.58	56.526	1.6304e-06	78.448	4.3324e-05	4.649e-05	1.2411e-05	686.6	4.4866e-07	5.1262e-07	849.86	249.5	4.612e-07	5.175e-07	310.02	125.32	90.378	37.843	4.6981e-07	50.425	119.348	-124.713	-92.105	-125.828	-89.224	-58.609	-127.198	-120.953	-133.790	7.299	-122.867	-119.420	-118.029	-112.247	25.021	-115.455	-8191	255	
4077.793	1	1	0	0	0.065828	0.17547	0.16972	0.16834	0.20827	0.14562	0.10786	0.16704	0.076973	0.094914	0.34182	0.10851	0.18881	0.48553	0.22894	0.1509	-3.1958	-3.9896	-3.9896	-3.7083	-4.1	-3.8312	-3.8542	-4.3292	-3.6646	-3.8125	-4.1271	-3.6792	-4.2312	-4.1625	-3.7167	-4.4021	77.585	-128.500	-50.743	180.295	-114.093	84.439	187.206	207.048	-6.041	-118.128	175.982	120.945	-134.019	159.097	14.082	32.754	0.0011165	0.00029201	5.293e-05	879.1	1.4763e-06	1.0479e-06	1069.8	329.27	1.2016e-06	1.6478e-06	442.4	183.03	138.34	56.203	1.6213e-06	77.958	4.5287e-05	4.6363e-05	1.1826e-05	685.45	4.7675e-07	5.111e-07	846.87	247.63	4.8649e-07	5.177e-07	307.59	124.52	90.332	37.626	4.8452e-07	50.181	120.360	-5.236	-87.672	-125.962	173.391	43.826	-127.226	-121.173	-41.969	49.987	-122.663	-119.627	-118.080	-112.118	-53.603	-115.714	-8191	255	
4077.887	1	1	0	0	0.088858	0.13424	0.099375	0.2117	0.28326	0.089057	0.21363	0.21327	0.11976	0.34717	0.19178	0.16326	0.14686	0.20861	0.13152	0.045344	-3.3187	-3.7771	-4.1813	-3.6792	-3.9292	-3.9062	-3.7687	-4.3604	-3.9	-3.8396	-4.1896	-3.7521	-4.1604	-4.1708	-3.5854	-4.1687	168.296	70.161	-10.234	181.337	-108.851	218.440	170.877	-15.872	154.554	53.985	173.466	169.088	180.232	165.906	91.814	-133.968	0.00089657	0.00024263	3.9286e-05	878.28	2.1679e-06	7.7396e-07	1069.6	329.63	2.6386e-06	4.5206e-06	441.12	182.96	137.85	55.836	8.0532e-07	78.256	4.9794e-05	4.8058e-05	1.2246e-05	686.86	5.3234e-07	5.2944e-07	847.08	248.02	5.5441e-07	5.3322e-07	307.93	124.65	90.555	37.564	5.1027e-07	50.475	123.962	-75.445	217.248	-126.127	-97.511	-38.728	-127.278	-121.131	-62.999	-20.031	-122.882	-119.502	-117.899	-112.080	-8.501	-115.461	-8191	255	
4077.985	1	1	0	0	0.175	0.13054	0.060375	0.36036	0.15015	0.16858	0.20014	0.14092	0.23421	0.19649	0.20865	0.11624	0.21239	0.29896	0.067986	0.23702	-3.5729	-3.6396	-4.1604	-3.7417	-3.8875	-4.1062	-3.7333	-4.2458	-3.9813	-3.6562	-4.3812	-3.9146	-3.9896	-4.1354	-3.4833	-4.3792	133.383	-105.205	-55.343	-109.370	-36.869	-0.172	162.093	208.695	96.630	72.681	153.917	-136.004	197.332	93.192	35.323	102.805	0.00090824	9.9351e-05	2.1954e-05	880.85	1.1907e-06	1.9031e-06	1079.4	328.87	3.0854e-06	5.0012e-06	440.36	183.62	138.75	56.16	1.9541e-06	78.515	5.6076e-05	5.0132e-05	1.3003e-05	692.39	5.9456e-07	5.4462e-07	854.95	249.2	5.9628e-07	5.4523e-07	308.31	125.83	91.005	37.69	5.1027e-07	50.901	125.195	-40.090	-56.393	-125.984	-8.212	-22.831	-126.957	-120.768	-61.715	-17.218	-122.491	-119.341	-117.834	-112.218	4.574	-115.369	-8191	255	
4078.104	1	1	0	0	0.24079	0.22604	0.28153	0.2626	0.32801	0.14488	0.18575	0.19331	0.15483	0.093093	0.033139	0.20597	0.27353	0.14893	0.055586	0.15642	-3.4562	-3.6917	-4.3333	-3.6833	-3.8063	-4.1312	-3.8042	-4.1979	-3.9083	-3.7854	-4.0958	-3.9896	-4.0312	-4.0417	-3.6792	-4.3063	-29.778	-39.371	-120.002	217.195	174.944	101.092	153.540	208.196	-63.768	-3.035	93.189	158.909	217.377	139.734	158.604	166.611	0.0010668	0.00017587	6.7333e-05	883.96	2.2892e-06	6.625e-07	1079.7	330.53	1.7544e-06	2.9051e-06	441.2	182.06	137.99	55.52	1.3441e-06	77.95	5.7336e-05	5.0219e-05	1.3139e-05	697.96	6.116e-07	5.6446e-07	856.74	250.41	6.2321e-07	5.7418e-07	308.93	125.43	90.634	37.498	5.4611e-07	50.652	123.902	-36.743	-60.309	-126.036	-45.573	15.593	-127.218	-120.947	3.735	-36.664	-122.542	-119.332	-117.817	-112.073	-18.406	-115.474	-8191	255	
4078.175	1	1	0	0	0.037038	0.28793	0.19764	0.046571	0.11885	0.32849	0.28777	0.064877	0.19166	0.15122	0.25411	0.076878	0.17955	0.063597	0.094262	0.21207	-3.6396	-3.6917	-4.2042	-4.0167	-3.7625	-4.0542	-3.6063	-4.0354	-3.9646	-3.5333	-4.3458	-3.9688	-3.8688	-4.3021	-3.8	-3.9938	184.346	73.733	-112.866	45.620	31.973	94.966	212.299	168.790	53.266	25.656	153.754	72.187	220.318	206.864	-17.269	105.184	0.00092153	0.00023674	7.633e-05	888.82	2.4523e-06	5.7506e-07	1076.5	327.86	3.0471e-06	1.8861e-06	437.13	179.79	135.56	54.922	2.4705e-07	76.674	5.8783e-05	5.2082e-05	1.3942e-05	700.42	6.171e-07	5.7109e-07	856.81	249.46	6.217e-07	5.7473e-07	306.57	124.44	89.499	37.021	5.7397e-07	50.083	122.349	-92.754	-115.820	-125.974	14.251	95.421	-127.186	-120.861	-28.101	-49.180	-122.702	-119.550	-117.817	-112.176	-2.855	-115.382	-8191	255	
4078.296	1	1	0	0	0.2167	0.077122	0.13497	0.063556	0.065262	0.057395	0.24715	0.34252	0.19129	0.12053	0.21139	0.21079	0.30732	0.068312	0.095135	0.20196	-3.6917	-3.5583	-4.1771	-3.8979	-3.6521	-4.1813	-3.8187	-3.9521	-3.9646	-3.5354	-4.2708	-4.0021	-3.8312	-4.2375	-3.6833	-4.0521	-116.393	96.397	-87.328	32.293	51.713	48.432	100.256	103.019	128.240	-39.503	188.332	142.083	192.611	143.139	-82.929	94.858	0.00091674	0.00010466	6.1356e-05	886.34	2.7736e-06	1.6847e-06	1079.2	328.04	1.0312e-06	2.3318e-06	438.92	180.73	137.18	55.093	2.0365e-06	77.607	5.7262e-05	5.1518e-05	1.4572e-05	699.7	5.9719e-07	5.4989e-07	856.08	249.22	5.846e-07	5.4468e-07	307.55	124.71	89.725	37.094	5.9684e-07	50.371	126.397	-81.454	208.819	-125.898	-10.806	-12.582	-126.886	-120.914	-54.070	-89.286	-122.859	-119.374	-118.129	-112.075	-47.682	-115.202	-8191	255	
4078.392	1	1	0	0	0.17022	0.14565	0.067142	0.15721	0.16398	0.37634	0.26391	0.25426	0.24054	0.11962	0.19455	0.14382	0.19432	0.17403	0.09545	0.16736	-3.8417	-3.4708	-3.9167	-3.8875	-3.6854	-4.3854	-4.0021	-3.8958	-4.1062	-3.8146	-4.1375	-4.1438	-3.6688	-4.2063	-3.8187	-3.8688	132.655	31.873	-112.575	122.609	-3.918	-120.368	91.685	-130.898	127.798	-124.365	-134.973	193.029	170.703	177.219	-12.428	143.279	0.00098205	0.00011357	7.3709e-05	888.52	1.3582e-06	2.8253e-06	1079.5	328.11	2.2976e-06	1.7091e-06	440.52	180.94	136.7	55.626	1.1664e-06	78.47	5.4523e-05	4.9319e-05	1.5262e-05	698.88	5.7225e-07	5.3558e-07	857.95	249.83	5.7804e-07	5.4125e-07	309.46	125.03	89.803	37.408	6.2435e-07	50.875	125.697	-64.016	220.664	-125.894	-23.513	-46.665	-127.021	-121.004	-18.535	-54.660	-122.620	-119.480	-118.073	-111.915	132.022	-115.160	-8191	255	
4078.488	1	1	0	0	0.09518	0.09343	0.13479	0.10906	0.0077939	0.22861	0.20041	0.11658	0.1397	0.23257	0.11341	0.14825	0.029796	0.31573	0.2576	0.12729	-3.7271	-3.6542	-4.0083	-4.0458	-3.6771	-3.9562	-3.9792	-3.8333	-4.125	-3.8104	-4.1188	-4.15	-3.7812	-4.2438	-3.8292	-3.8625	192.881	93.943	-135.477	-103.194	-103.499	103.497	75.656	130.298	147.398	-40.967	59.595	-125.139	191.942	-100.965	190.611	168.017	0.0010005	6.4616e-05	2.8792e-05	886.37	2.244e-06	1.4696e-06	1082.3	328.45	4.3497e-07	2.036e-06	441.03	183.28	137.65	55.917	7.795e-07	78.591	5.3518e-05	5.0392e-05	1.6086e-05	698.65	5.6082e-07	5.5108e-07	861.54	250.01	5.6863e-07	5.6694e-07	311.13	125.83	90.178	37.663	6.4442e-07	51.037	126.112	208.738	-67.713	-126.096	-53.528	-67.934	-127.091	-120.903	94.959	-16.913	-122.643	-119.259	-117.934	-112.080	-55.863	-115.296	-8191	255	
4078.585	1	1	0	0	0.17548	0.13793	0.078265	0.24113	0.10361	0.14973	0.32998	0.19191	0.04676	0.027572	0.14408	0.20329	0.13413	0.24362	0.15149	0.36597	-3.8812	-3.7354	-3.8896	-4.1396	-3.6083	-4.0687	-3.9625	-3.5083	-4.1354	-3.7562	-4.0021	-4.1479	-3.6354	-4.0458	-3.8958	-3.9917	145.651	30.685	-60.976	-104.810	-124.484	155.074	202.685	141.209	159.368	118.151	150.186	-113.082	-130.510	120.394	-136.641	175.516	0.0010991	8.0683e-05	2.6197e-05	882.93	2.8472e-06	1.0892e-06	1078.1	327.88	1.2445e-06	2.0321e-06	439.58	180.08	135.94	54.999	8.8425e-07	77.259	5.3985e-05	5.3e-05	1.6446e-05	696.83	5.5523e-07	5.8422e-07	860.74	248.85	5.4093e-07	5.942e-07	309.3	124.02	88.977	37.16	6.3557e-07	50.152	130.466	-64.223	-113.823	-125.899	-57.455	214.781	-127.161	-120.884	-85.411	-123.992	-122.722	-119.668	-117.765	-111.937	-38.129	-115.262	-8191	255	
4078.681	1	1	0	0	0.19246	0.076348	0.17395	0.041459	0.11712	0.10844	0.016391	0.19889	0.089157	0.027361	0.26132	0.073523	0.18238	0.10921	0.19379	0.20907	-3.6479	-3.6083	-3.8042	-4.2812	-3.6125	-3.9896	-4.15	-3.8292	-4.2958	-3.9146	-4.0042	-4.1312	-3.7104	-4.0333	-3.8604	-3.8021	211.144	75.223	97.593	-11.720	164.256	131.119	114.932	206.572	85.237	190.909	175.815	166.304	-66.046	64.284	94.886	1.759	0.00094449	9.1582e-05	4.651e-05	884.35	1.7074e-06	1.1881e-06	1075.2	326.91	1.5419e-06	2.883e-06	439.66	180.59	135.33	55.214	3.0829e-06	77.567	5.2113e-05	5.6429e-05	1.5852e-05	694.24	5.5412e-07	6.2591e-07	857.86	248.3	5.5434e-07	6.3346e-07	307.76	123.77	88.907	37.243	6.0482e-07	50.125	132.915	-81.142	-101.825	-125.964	-72.919	-20.927	-127.215	-121.258	18.417	-13.318	-122.505	-119.412	-117.983	-111.955	-39.133	-115.195	-8191	255	
4078.800	1	1	0	0	0.19314	0.1223	0.22311	0.13224	0.034808	0.12617	0.17833	0.34647	0.26152	0.23167	0.19326	0.20404	0.32059	0.080378	0.073411	0.39452	-3.7604	-3.775	-3.7958	-4.1583	-3.7792	-4.0687	-4.2521	-3.8979	-4.2854	-3.9896	-3.8479	-4.3271	-3.7938	-3.9875	-3.9521	-3.5729	11.947	215.627	-63.592	-78.177	-93.187	-23.969	112.415	136.806	-21.263	79.659	45.717	167.296	-122.382	-87.265	85.286	142.732	0.00090694	6.8982e-05	7.7093e-05	880.9	1.3065e-06	1.4765e-06	1074.2	329.56	5.8997e-07	3.3905e-07	440.36	181.9	136.26	55.796	1.7632e-06	78.494	5.3012e-05	5.715e-05	1.4991e-05	694.38	5.5555e-07	6.2656e-07	857.76	249.1	5.5661e-07	6.2105e-07	308.59	124.6	89.695	37.552	5.5362e-07	50.623	117.628	-79.498	-92.344	-126.055	214.444	-67.556	-127.262	-121.035	160.253	26.628	-122.686	-119.357	-117.870	-112.050	-20.258	-115.217	-8191	255	
4078.873	1	1	0	0	0.077732	0.11563	0.29951	0.26433	0.11796	0.20862	0.32458	0.26287	0.15184	0.059414	0.22447	0.17162	0.18974	0.13139	0.36787	0.12541	-3.7667	-3.9	-3.7479	-4.2708	-3.7208	-3.9125	-4.3	-3.7667	-3.8563	-4.025	-3.65	-4.3042	-3.8854	-3.9229	-4.1458	-3.7917	2.538	90.001	-53.757	201.717	-97.961	40.094	194.588	179.531	-50.320	-43.762	185.530	166.674	203.567	18.552	30.012	203.943	0.00087307	0.00021436	1.52e-05	884.68	1.4706e-06	1.9946e-06	1083	331.63	2.7373e-07	1.812e-06	444.38	184.25	137.44	56.298	2.2182e-06	79.742	5.3008e-05	5.4968e-05	1.3935e-05	693.7	5.6324e-07	6.0169e-07	860.19	250.12	5.6693e-07	5.8399e-07	310.02	125.73	90.327	37.895	5.2889e-07	51.35	111.643	-19.459	-132.232	-126.250	195.370	-37.119	-127.095	-121.017	-79.359	-57.915	-122.680	-119.531	-117.895	-111.912	-22.101	-115.179	-8191	255	
4078.969	1	1	0	0	0.13273	0.21135	0.087875	0.11301	0.055738	0.33241	0.50822	0.32293	0.25222	0.049135	0.13903	0.18685	0.041802	0.057411	0.065209	0.32693	-3.6208	-3.9875	-3.5479	-4.1667	-3.8375	-3.6708	-4.1479	-3.7208	-3.9875	-4.0104	-3.7792	-4.1125	-3.8042	-3.825	-4.0896	-3.9479	75.617	82.417	-86.329	99.869	-99.300	19.266	140.122	171.004	194.705	74.678	209.974	143.302	165.326	201.851	52.480	194.229	0.0010226	0.00019743	5.0929e-05	886.59	5.669e-07	2.3348e-06	1085.1	333.28	2.9097e-06	2.367e-06	443.62	183.47	138.01	56.273	5.5643e-07	78.887	5.3723e-05	5.1299e-05	1.3153e-05	692.94	5.6542e-07	5.5021e-07	861.05	250.8	5.679e-07	5.4019e-07	309.42	125.56	90.464	37.744	4.9683e-07	50.869	119.759	-82.096	-112.902	-126.024	-99.089	-28.009	-127.132	-121.061	-60.971	-11.488	-122.379	-119.434	-118.210	-112.073	-72.306	-115.461	-8191	255	
4079.065	1	1	0	0	0.22885	0.10278	0.094941	0.090355	0.12706	0.17238	0.16515	0.11229	0.16865	0.12117	0.21236	0.15518	0.26217	0.051702	0.15283	0.030055	-3.6771	-4.0333	-3.5271	-4.075	-3.8521	-3.5938	-4.4229	-3.6875	-3.8375	-3.9375	-3.7687	-4.2021	-4.0417	-3.9229	-4.0854	-3.7167	145.145	-13.747	71.972	-88.808	-6.573	161.919	-32.427	-12.083	-122.733	-104.316	128.043	205.881	113.203	39.376	-41.781	42.778	0.0011229	0.00019467	5.2344e-05	880.09	3.0895e-06	1.9886e-06	1075.8	330.48	1.9354e-06	1.8444e-06	439.41	181.01	137.52	55.838	9.4558e-07	78.269	5.3801e-05	4.7887e-05	1.2457e-05	690.81	5.6349e-07	5.2546e-07	854.33	249.41	5.7093e-07	5.2266e-07	306.23	124.31	90.022	37.384	4.9416e-07	50.498	118.803	-62.065	-77.066	-125.839	-62.082	-13.731	-126.951	-120.985	3.445	-11.380	-122.727	-119.541	-117.958	-112.243	-51.459	-115.465	-8191	255	
4079.184	1	1	0	0	0.071825	0.28734	0.055067	0.41552	0.059569	0.11252	0.092166	0.26625	0.060482	0.22967	0.20062	0.12915	0.19101	0.20917	0.066176	0.21049	-3.5292	-4.1958	-3.5479	-4.0229	-3.9333	-3.5104	-4.3229	-3.7042	-3.7625	-4.0312	-3.6937	-4.1042	-3.8771	-3.5646	-3.9729	-3.9729	101.565	189.461	-112.191	207.039	-66.534	-47.810	178.876	16.109	36.871	139.602	206.598	169.638	-77.227	210.319	27.615	190.992	0.00088458	0.00016646	5.0199e-05	881.21	2.195e-06	2.3333e-06	1085.9	330.26	2.0291e-06	1.7179e-06	440.08	182.7	138	56.34	7.4873e-07	78.506	5.4183e-05	4.7603e-05	1.2436e-05	692.09	5.6443e-07	5.1545e-07	855.54	249.73	5.5559e-07	5.0833e-07	307.33	125.29	90.453	37.659	4.8372e-07	50.965	120.594	-52.822	-138.165	-126.092	-26.123	-54.557	-126.966	-120.904	-43.874	-44.885	-122.616	-119.282	-117.863	-112.041	-115.540	-115.289	-8191	255	
4079.280	1	1	0	0	0.16701	0.20482	0.29264	0.093704	0.083717	0.12151	0.20077	0.39802	0.10804	0.16465	0.31462	0.04018	0.082956	0.32136	0.20043	0.18332	-3.3021	-3.9125	-3.7125	-4.1708	-3.9688	-3.5438	-4.3187	-3.8688	-3.5854	-4.1729	-3.7729	-4.075	-4.1771	-3.5667	-4.0375	-4.0479	212.691	144.571	94.132	-109.433	32.281	-120.067	157.441	145.440	180.190	-62.017	156.322	104.483	-116.611	193.198	48.169	176.100	0.00093093	0.00015697	3.7934e-05	883.04	2.7977e-06	1.2484e-06	1086.9	332.46	1.531e-06	2.4962e-06	443.75	185.25	139.1	56.568	1.5751e-06	79.69	5.1551e-05	4.5498e-05	1.2206e-05	694.25	5.258e-07	4.9452e-07	859.39	251.74	5.2853e-07	4.868e-07	309.34	126.47	90.929	37.875	4.9832e-07	51.525	132.921	12.225	-81.871	-125.837	-32.433	20.966	-127.021	-120.915	-60.833	-19.105	-122.802	-119.354	-117.803	-111.908	-48.846	-115.417	-8191	255	
4079.376	1	1	0	0	0.13616	0.24895	0.25314	0.30259	0.064547	0.10151	0.21539	0.18066	0.24234	0.11384	0.044213	0.061656	0.15403	0.15332	0.31838	0.09602	-3.2542	-4.075	-3.6729	-3.9854	-4.0021	-3.7313	-4.3396	-3.9896	-3.7042	-4.2167	-3.6479	-3.9125	-4.1813	-3.7396	-4.075	-3.9417	137.089	-81.551	-110.205	-135.276	156.239	76.647	193.168	112.278	132.506	17.909	-123.995	188.802	179.871	147.649	10.887	110.791	0.00098154	0.00018361	2.8385e-05	885.01	3.5489e-06	1.152e-06	1089.9	332.55	3.7089e-07	1.4723e-06	443.96	185.32	139.84	57.113	2.1407e-06	80.269	4.9747e-05	4.4106e-05	1.2684e-05	697.01	5.1057e-07	4.822e-07	862.96	252.39	5.1379e-07	4.6821e-07	310.78	127.3	91.217	38.182	5.1899e-07	51.901	122.580	-37.841	-132.940	-126.079	-15.791	-105.587	-127.047	-120.754	4.276	-40.538	-122.361	-119.060	-117.727	-112.159	-84.193	-115.287	-8191	255	
4079.473	1	1	0	0	0.12164	0.10921	0.21367	0.14931	0.31774	0.043218	0.050312	0.10092	0.16622	0.061979	0.12952	0.25572	0.28611	0.30995	0.063708	0.19741	-3.1479	-4.2354	-3.8417	-4.0563	-3.9521	-3.5625	-4.1729	-4.0833	-3.7062	-4.2875	-3.8021	-3.9188	-4.1896	-3.7604	-3.9958	-4.1667	93.807	194.608	13.836	-118.528	-84.823	117.531	-92.545	105.737	-137.606	166.349	187.093	196.395	216.068	201.784	-9.069	201.106	0.0010479	8.5895e-05	9.0194e-06	884.66	1.4756e-06	2.1529e-06	1089	332.2	2.3912e-06	1.0026e-06	444.35	182.91	137.49	56.154	6.2111e-07	79.139	4.8547e-05	4.2843e-05	1.3407e-05	694.57	4.9997e-07	4.7028e-07	863.31	250.63	4.9833e-07	4.6791e-07	309.56	125.36	89.813	37.559	5.4424e-07	50.889	118.501	-102.185	-65.353	-125.784	-52.457	-10.555	-127.003	-120.770	-66.380	-2.706	-122.526	-119.086	-118.201	-112.178	202.588	-115.300	-8191	255	
4079.569	1	1	0	0	0.050899	0.27626	0.070662	0.099028	0.17799	0.097431	0.163	0.10716	0.13943	0.08807	0.1193	0.30559	0.13433	0.35101	0.12054	0.10855	-3.3125	-4.1083	-3.8083	-3.8125	-4.1479	-3.6875	-4.1042	-4.0958	-3.6146	-4.2271	-4.0312	-3.8917	-4.1229	-3.7188	-3.7896	-4.1646	-97.970	178.793	19.125	161.553	119.111	-43.999	184.477	-136.094	-123.768	-129.652	133.868	28.929	59.304	-127.532	92.675	-14.316	0.00089619	9.6312e-05	1.5025e-05	880.59	1.4732e-06	1.8565e-06	1076.7	329.74	1.5517e-06	6.2845e-07	440.63	181.56	137.47	56.07	1.8627e-06	79.133	4.6899e-05	4.239e-05	1.3691e-05	690.47	4.8223e-07	4.7847e-07	858.62	249.34	4.8516e-07	4.8197e-07	308.49	124.66	89.703	37.569	5.5848e-07	50.956	122.573	-29.531	-34.436	-125.961	-39.326	-40.238	-126.915	-120.754	-80.042	-20.079	-122.658	-119.462	-118.049	-112.299	-54.314	-115.185	-8191	255	
#DATA ENDS
