BOXY.EXE: ISS Imagent and Oximeter Data Acquisition Program Version 0.80
Ascii Record File

#ACQ INFORMATION
2  Detector Channels 
16  External MUX Channels 
1  Auxiliary Channels 
5000  Waveform (CCF) Frequency (Hz)
1  Waveforms Skipped 
30  Waveforms Averaged 
1  Cycles Averaged 
16  Acquisitions per Waveform 
10.0806  Updata Rate (Hz) 

#FILE INFORMATION
TRUE -- External MUX Channel results are PARSED.
FALSE -- AC DC and Phase are NOT grouped.
TRUE -- Companion Program Settings File CREATED.
FALSE -- AC data not excluded
FALSE -- DC data not excluded
FALSE -- Phase data not excluded
FALSE -- Auxillary Chn. data not excluded
Tab delimiters

#CALIBRATION STATE
TRUE -- Waveform Calibration Values APPLIED.


#AUX CALIBRATION VALUES
Val Type	aux-1	

Term	1.0000e+00	
Factor	0.0000e+00	


#WF CALIBRATION VALUES
A = Detector Channel
Val Type	A-AC1	A-AC2	A-AC3	A-AC4	A-AC5	A-AC6	A-AC7	A-AC8	A-AC9	A-AC10	A-AC11	A-AC12	A-AC13	A-AC14	A-AC15	A-AC16	A-DC1	A-DC2	A-DC3	A-DC4	A-DC5	A-DC6	A-DC7	A-DC8	A-DC9	A-DC10	A-DC11	A-DC12	A-DC13	A-DC14	A-DC15	A-DC16	A-Ph1	A-Ph2	A-Ph3	A-Ph4	A-Ph5	A-Ph6	A-Ph7	A-Ph8	A-Ph9	A-Ph10	A-Ph11	A-Ph12	A-Ph13	A-Ph14	A-Ph15	A-Ph16	

Term	0.00000e+00	0.00000e+00	0.00000e+00	0.00000e+00	0.00000e+00	0.00000e+00	0.00000e+00	0.00000e+00	0.00000e+00	0.00000e+00	0.00000e+00	0.00000e+00	0.00000e+00	0.00000e+00	0.00000e+00	0.00000e+00	0.00000e+00	0.00000e+00	0.00000e+00	0.00000e+00	0.00000e+00	0.00000e+00	0.00000e+00	0.00000e+00	0.00000e+00	0.00000e+00	0.00000e+00	0.00000e+00	0.00000e+00	0.00000e+00	0.00000e+00	0.00000e+00	0.00000e+00	0.00000e+00	0.00000e+00	0.00000e+00	0.00000e+00	0.00000e+00	0.00000e+00	0.00000e+00	0.00000e+00	0.00000e+00	0.00000e+00	0.00000e+00	0.00000e+00	0.00000e+00	0.00000e+00	0.00000e+00	
Factor	1.00000e+00	1.00000e+00	1.00000e+00	1.00000e+00	1.00000e+00	1.00000e+00	1.00000e+00	1.00000e+00	1.00000e+00	1.00000e+00	1.00000e+00	1.00000e+00	1.00000e+00	1.00000e+00	1.00000e+00	1.00000e+00	1.00000e+00	1.00000e+00	1.00000e+00	1.00000e+00	1.00000e+00	1.00000e+00	1.00000e+00	1.00000e+00	1.00000e+00	1.00000e+00	1.00000e+00	1.00000e+00	1.00000e+00	1.00000e+00	1.00000e+00	1.00000e+00	X	X	X	X	X	X	X	X	X	X	X	X	X	X	X	X	

B = Detector Channel
Val Type	B-AC1	B-AC2	B-AC3	B-AC4	B-AC5	B-AC6	B-AC7	B-AC8	B-AC9	B-AC10	B-AC11	B-AC12	B-AC13	B-AC14	B-AC15	B-AC16	B-DC1	B-DC2	B-DC3	B-DC4	B-DC5	B-DC6	B-DC7	B-DC8	B-DC9	B-DC10	B-DC11	B-DC12	B-DC13	B-DC14	B-DC15	B-DC16	B-Ph1	B-Ph2	B-Ph3	B-Ph4	B-Ph5	B-Ph6	B-Ph7	B-Ph8	B-Ph9	B-Ph10	B-Ph11	B-Ph12	B-Ph13	B-Ph14	B-Ph15	B-Ph16	

Term	0.00000e+00	0.00000e+00	0.00000e+00	0.00000e+00	0.00000e+00	0.00000e+00	0.00000e+00	0.00000e+00	0.00000e+00	0.00000e+00	0.00000e+00	0.00000e+00	0.00000e+00	0.00000e+00	0.00000e+00	0.00000e+00	0.00000e+00	0.00000e+00	0.00000e+00	0.00000e+00	0.00000e+00	0.00000e+00	0.00000e+00	0.00000e+00	0.00000e+00	0.00000e+00	0.00000e+00	0.00000e+00	0.00000e+00	0.00000e+00	0.00000e+00	0.00000e+00	-1.87321e+01	-2.01382e+02	-2.04078e+02	-1.83917e+02	-1.28168e+02	-1.16194e+02	-1.55153e+02	-1.62015e+02	-8.71299e+01	-1.10166e+02	-1.70746e+02	-1.70338e+02	-1.84751e+02	-1.77127e+02	-1.27571e+02	-1.49891e+02	
Factor	3.21959e-05	5.86218e-05	1.70957e-05	1.85218e-01	6.38908e-07	6.61217e-07	1.79242e-01	5.85498e-02	6.28257e-07	6.32059e-07	9.41592e-02	3.29196e-02	3.35767e-02	1.04145e-02	6.48013e-07	1.48882e-02	2.48085e-07	2.48645e-07	6.85922e-08	8.06149e-02	2.73403e-09	2.72330e-09	7.40105e-02	2.49478e-02	2.74050e-09	2.72179e-09	3.69338e-02	1.28081e-02	1.29845e-02	4.14818e-03	2.70430e-09	5.58471e-03	X	X	X	X	X	X	X	X	X	X	X	X	X	X	X	X	



#DISTANCE SETTINGS
A = Detector Channel
A-1	A-2	A-3	A-4	A-5	A-6	A-7	A-8	A-9	A-10	A-11	A-12	A-13	A-14	A-15	A-16	

2.5000e+00	3.0000e+00	2.5000e+00	3.0000e+00	2.0000e+00	3.0000e+00	1.5000e+00	3.0000e+00	3.0000e+00	3.0000e+00	3.0000e+00	3.0000e+00	3.0000e+00	3.0000e+00	1.5000e+00	3.0000e+00	

B = Detector Channel
B-1	B-2	B-3	B-4	B-5	B-6	B-7	B-8	B-9	B-10	B-11	B-12	B-13	B-14	B-15	B-16	

1.0000e+01	1.0000e+01	1.0000e+01	1.4400e+00	1.0000e+01	1.0000e+01	1.5100e+00	1.9400e+00	1.0000e+01	1.0000e+01	1.9900e+00	2.4900e+00	2.4100e+00	2.9000e+00	1.0000e+01	2.9800e+00	




#DATA BEGINS
time	group	step	mark	flag	A-AC1	A-AC2	A-AC3	A-AC4	A-AC5	A-AC6	A-AC7	A-AC8	A-AC9	A-AC10	A-AC11	A-AC12	A-AC13	A-AC14	A-AC15	A-AC16	A-DC1	A-DC2	A-DC3	A-DC4	A-DC5	A-DC6	A-DC7	A-DC8	A-DC9	A-DC10	A-DC11	A-DC12	A-DC13	A-DC14	A-DC15	A-DC16	A-Ph1	A-Ph2	A-Ph3	A-Ph4	A-Ph5	A-Ph6	A-Ph7	A-Ph8	A-Ph9	A-Ph10	A-Ph11	A-Ph12	A-Ph13	A-Ph14	A-Ph15	A-Ph16	B-AC1	B-AC2	B-AC3	B-AC4	B-AC5	B-AC6	B-AC7	B-AC8	B-AC9	B-AC10	B-AC11	B-AC12	B-AC13	B-AC14	B-AC15	B-AC16	B-DC1	B-DC2	B-DC3	B-DC4	B-DC5	B-DC6	B-DC7	B-DC8	B-DC9	B-DC10	B-DC11	B-DC12	B-DC13	B-DC14	B-DC15	B-DC16	B-Ph1	B-Ph2	B-Ph3	B-Ph4	B-Ph5	B-Ph6	B-Ph7	B-Ph8	B-Ph9	B-Ph10	B-Ph11	B-Ph12	B-Ph13	B-Ph14	B-Ph15	B-Ph16	aux-1	digaux	

1161.315	1	1	0	768	0.18129	0.16702	0.25011	0.2374	0.024594	0.094501	0.26268	0.25821	0.14753	0.12616	0.082085	0.22767	0.096204	0.024888	0.080515	0.15732	-4.0542	-3.9396	-4.4313	-4.4375	-3.8104	-4.4708	-4.2812	-4.2042	-4.5396	-4.0167	-4.3271	-4.4812	-3.9604	-4.4521	-4.0229	-4.0896	194.297	-72.371	-67.406	229.324	33.784	6.395	230.249	173.915	215.115	34.243	259.995	222.936	-20.992	160.665	-24.459	207.487	0.00012141	0.0001329	3.2024e-05	1351.5	3.2695e-06	2.7642e-06	1355.4	364.58	3.4405e-06	2.463e-06	417.04	139.12	121.28	41.721	4.9034e-06	51.657	0.00048699	0.00044942	0.00013917	1355.7	5.2261e-06	4.9049e-06	1355.7	365.92	5.21e-06	4.8328e-06	417.14	139.39	119.24	40.979	5.5107e-06	51.54	-48.746	255.702	162.779	-67.325	-70.144	232.668	-67.299	-62.408	-1.622	249.071	-63.151	-58.216	-57.925	-53.501	220.854	-54.134	-8191	255	
1161.411	1	1	0	0	0.085397	0.092551	0.1378	0.067997	0.22905	0.1527	0.12664	0.27135	0.13478	0.14724	0.22832	0.14497	0.31028	0.27217	0.085626	0.13861	-4.05	-3.8688	-4.2188	-4.3458	-3.9125	-4.3146	-4.3708	-4.2021	-4.3688	-3.9625	-4.3729	-4.3812	-3.8354	-4.3292	-4.2562	-4.225	89.177	74.667	-29.386	-53.545	202.111	24.044	262.650	209.807	109.452	48.737	5.254	106.747	217.279	255.798	-12.656	161.639	2.4669e-05	0.00030483	7.4691e-05	1352.8	5.3917e-06	3.2444e-06	1357.9	364.88	8.2073e-06	6.1303e-06	418.08	139.99	121.57	41.669	6.3274e-06	51.708	0.00046612	0.00045365	0.00014412	1353.3	5.1859e-06	5.2045e-06	1366.2	367.38	5.2846e-06	5.2839e-06	422.47	140.22	119.59	41.666	5.7194e-06	51.466	137.943	51.065	273.661	-67.308	10.067	117.013	-67.076	-62.487	72.973	160.189	-63.270	-58.472	-57.980	-53.414	31.347	-54.052	-8191	255	
1161.507	1	1	0	0	0.048997	0.14692	0.21055	0.18336	0.025546	0.14085	0.14823	0.20844	0.15747	0.13615	0.14118	0.17168	0.084642	0.21381	0.089709	0.12657	-4.2146	-3.9479	-4.2271	-4.4146	-4.0646	-4.4896	-4.1833	-4.2479	-4.3313	-3.9542	-4.3125	-4.3604	-4.0708	-4.4563	-3.9792	-4.1604	145.200	95.986	70.620	239.291	108.626	211.818	221.973	219.474	65.451	192.886	-79.459	30.470	218.492	257.101	135.246	183.806	0.00017136	0.00036088	4.7852e-05	1357.5	4.8629e-06	4.7469e-06	1360.1	365.42	2.717e-06	7.1835e-06	419.37	139.82	121.5	41.735	3.3962e-06	51.993	0.00045157	0.00046665	0.000139	1344.1	4.7234e-06	5.1061e-06	1354.9	362.14	4.7893e-06	5.2366e-06	417.62	138.7	118.62	42.148	5.6423e-06	51.58	275.328	16.845	277.117	-67.244	-57.765	230.257	-67.163	-62.439	38.481	208.141	-62.990	-58.683	-58.189	-53.616	65.914	-54.512	-8191	255	
1161.603	1	1	0	0	0.16061	0.1465	0.076577	0.12504	0.031493	0.15951	0.19425	0.052855	0.19435	0.19632	0.25922	0.12826	0.043317	0.035377	0.17675	0.063918	-4.1479	-4.0917	-4.2458	-4.4833	-3.9521	-4.3896	-4.3542	-4.0792	-4.325	-3.9958	-4.125	-4.4583	-4.0188	-4.4396	-4.2917	-4.0312	84.332	-6.879	178.701	177.048	-9.314	156.881	148.658	264.584	53.857	57.544	185.279	235.521	201.718	137.340	197.534	269.027	0.00040945	0.00037603	0.00013844	1360.5	3.4082e-06	4.0126e-06	1362.1	367.2	4.4764e-06	6.4393e-06	419.29	139.79	121.46	41.874	3.3868e-06	51.738	0.00046213	0.00051691	0.00014369	1354	5.0194e-06	5.7041e-06	1362	364.75	5.0337e-06	5.6544e-06	417.36	138.1	118.78	42.203	5.2757e-06	50.725	261.585	170.273	258.400	-67.238	82.751	164.402	-67.077	-62.426	116.226	193.772	-62.983	-58.280	-57.921	-53.575	-20.271	-54.578	-8191	255	
1161.699	1	1	0	0	0.13088	0.23788	0.1195	0.13685	0.11672	0.29265	0.2016	0.31415	0.19882	0.14168	0.13475	0.21033	0.25554	0.1674	0.1892	0.10391	-4.0479	-3.875	-4.0521	-4.3812	-3.9313	-4.1979	-4.4292	-3.8083	-4.5229	-3.9562	-4.1625	-4.5792	-4.1042	-4.2292	-4.3313	-4.0146	63.368	111.323	19.524	249.406	49.943	123.669	177.929	223.233	196.476	231.926	161.925	-75.640	-33.636	-19.366	166.413	275.301	0.00039773	0.00040092	0.00016644	1361.3	4.6536e-06	3.4265e-06	1364.1	367.15	7.7687e-06	3.8771e-06	419.24	138.72	120.86	41.9	6.298e-06	51.959	0.00044362	0.00049911	0.00013005	1339	4.8433e-06	5.4664e-06	1351.1	360.08	4.974e-06	5.4782e-06	412.65	136.53	119.19	42.074	5.0548e-06	50.256	-73.269	-34.681	-78.943	-67.259	129.977	-18.447	-67.191	-62.354	172.386	-6.491	-63.022	-58.498	-58.002	-53.458	18.197	-54.598	-8191	255	
1161.796	1	1	0	0	0.16595	0.054086	0.16554	0.2508	0.09869	0.14357	0.27322	0.11978	0.12536	0.11683	0.18059	0.33211	0.19237	0.15788	0.13	0.21797	-4.0938	-3.9792	-3.9562	-4.5625	-3.9417	-4.2375	-4.5167	-4.2312	-4.1312	-4.2708	-4.1188	-4.5917	-4.0604	-4.375	-4.3187	-3.9833	170.805	191.501	258.088	197.503	201.861	9.121	116.691	-59.122	164.857	40.119	239.623	236.767	203.152	195.569	261.323	203.239	0.00054262	0.00053017	1.0337e-05	1360.8	8.3464e-06	6.8512e-06	1364.3	365.27	2.476e-06	3.1499e-06	418.05	139.75	121.63	41.921	4.3562e-06	52.099	0.00046189	0.00049119	0.00012609	1332.9	5.0685e-06	5.3315e-06	1346.9	358.32	5.1755e-06	5.2956e-06	409.72	135.91	120.44	41.858	4.9419e-06	50.253	-76.376	246.078	91.702	-67.111	187.762	-30.432	-67.215	-62.371	-47.491	15.517	-62.971	-58.239	-57.667	-53.587	16.677	-54.294	-8191	255	
1161.916	1	1	0	0	0.15634	0.20543	0.21288	0.22847	0.094743	0.12253	0.21118	0.12335	0.054657	0.1836	0.092059	0.27168	0.083707	0.017663	0.065642	0.20749	-3.9271	-4.15	-3.9062	-4.6188	-4.0792	-4.1813	-4.6146	-4.1979	-4.2917	-4.2896	-4.1083	-4.3083	-4.1729	-4.2333	-4.4333	-3.9833	-45.610	147.365	19.029	223.307	13.304	194.551	184.694	223.858	63.979	246.623	176.197	256.216	200.453	-22.038	210.980	63.011	0.00029052	0.0005054	0.00019067	1363	6.4698e-06	2.9996e-06	1364.6	364.88	1.3156e-06	3.9782e-06	419.62	139.27	121.16	41.885	4.3351e-06	51.719	0.00048629	0.00048451	0.00012521	1338.8	5.3881e-06	5.2594e-06	1344.2	358.95	5.3783e-06	5.1362e-06	406.58	135.84	120.49	41.258	4.6117e-06	49.97	251.828	279.467	274.603	-67.210	154.457	26.194	-67.212	-62.306	-64.693	-31.715	-62.787	-58.455	-57.828	-53.596	21.420	-54.382	-8191	255	
1162.012	1	1	0	0	0.10415	0.16364	0.084265	0.056946	0.12832	0.046228	0.082494	0.064039	0.035882	0.15058	0.052535	0.075265	0.13131	0.11724	0.20225	0.13776	-3.9479	-4.2917	-3.8333	-4.4396	-3.9917	-3.9	-4.6854	-4.0312	-4.1021	-4.3333	-3.8896	-4.4396	-4.1042	-3.9417	-4.3958	-4.0146	49.814	239.516	31.584	-69.654	177.695	-15.291	132.141	175.699	69.450	5.030	234.484	235.740	-3.015	170.054	-19.212	221.620	0.00039779	0.00048126	0.00022954	1358.2	5.0233e-06	1.2121e-06	1363.3	363.56	4.5363e-06	4.0193e-06	415.67	138.88	121.12	41.776	2.3889e-06	51.673	0.00047524	0.00044196	0.00011349	1330.5	5.0569e-06	4.7073e-06	1327.6	355.79	4.9738e-06	4.6032e-06	397.81	134.84	118.09	40.454	4.1739e-06	49.73	-73.047	216.615	-62.636	-67.172	179.400	-22.070	-67.220	-62.376	93.194	91.639	-62.919	-58.519	-57.718	-53.472	11.161	-54.351	-8191	255	
1162.108	1	1	0	0	0.15665	0.012408	0.13901	0.094465	0.15158	0.30777	0.30844	0.22059	0.21399	0.14313	0.12688	0.034157	0.10524	0.22359	0.19634	0.099835	-3.7729	-4.2188	-3.9375	-4.525	-4.1833	-3.9917	-4.5563	-4.275	-4.0146	-4.3875	-4.1229	-4.3396	-4.2229	-4.2083	-4.2875	-4.0667	150.560	44.161	8.531	249.727	273.384	270.598	252.024	190.130	-34.361	113.709	265.024	253.888	79.515	266.574	-52.524	143.081	0.0001072	0.00051465	0.00016861	1361	4.9464e-06	2.302e-06	1359	363.19	1.8817e-06	4.1325e-06	415.98	138.03	120.8	41.683	1.3712e-06	51.475	0.00043852	0.00041011	0.00010458	1330.1	4.8056e-06	4.4813e-06	1321	356.97	4.8834e-06	4.6004e-06	398.46	136.58	118.51	40.633	4.4471e-06	50.918	253.626	-71.563	241.349	-67.169	58.626	39.544	-67.011	-62.506	45.201	-13.351	-63.141	-58.343	-57.953	-53.791	67.193	-54.390	-8191	255	
1162.205	1	1	0	0	0.24581	0.16254	0.095131	0.25961	0.1835	0.17531	0.27926	0.17333	0.16809	0.013913	0.11112	0.077392	0.21698	0.18228	0.10744	0.20235	-3.8688	-4.2375	-3.9417	-4.4917	-4.2896	-3.8208	-4.5229	-4.0729	-4.0208	-4.2958	-3.9583	-4.3833	-4.3771	-4.0563	-4.3521	-4.05	2.096	217.191	137.955	-6.289	-80.304	-50.651	248.400	268.575	21.612	150.153	129.941	-70.075	233.090	273.086	-50.522	198.033	0.00012462	0.00076001	7.5532e-05	1361.1	3.0422e-06	6.3439e-06	1362	363.45	3.2112e-06	7.022e-06	416.53	138.36	120.55	41.632	2.5796e-06	51.671	0.00046157	0.00043306	0.00011382	1349	5.0282e-06	4.7075e-06	1332.9	361.8	5.0117e-06	4.7042e-06	402.77	138.17	118.59	40.532	4.6849e-06	51.251	-69.311	-66.490	2.639	-67.214	-21.267	2.789	-67.075	-62.520	-12.202	30.864	-62.998	-58.252	-58.042	-53.599	31.269	-54.480	-8191	255	
1162.299	1	1	0	0	0.1593	0.1425	0.04326	0.121	0.1774	0.095264	0.28671	0.27966	0.11046	0.17205	0.28178	0.19291	0.3205	0.13102	0.074166	0.034054	-3.7208	-4.4125	-3.8583	-4.2125	-4.3	-3.9417	-4.4104	-4.2458	-4.025	-4.4521	-4.1583	-4.1958	-4.3812	-4.1396	-4.3042	-4.2292	9.724	114.296	-3.058	277.496	202.387	11.892	216.356	183.398	272.145	222.549	178.596	249.934	236.727	212.668	65.416	119.620	0.00016923	0.00052758	0.00017155	1360	4.1559e-06	5.5634e-06	1360	364.1	2.03e-06	2.3311e-06	416.06	138.59	120.81	41.742	5.4976e-06	51.926	0.0004568	0.00042807	0.0001216	1355.3	5.092e-06	4.7337e-06	1345.3	364.05	5.1782e-06	4.8142e-06	410.92	139.52	119.87	40.938	5.2962e-06	52.099	-73.669	260.603	118.414	-67.304	225.961	11.856	-67.189	-62.261	82.514	13.719	-63.072	-58.507	-57.974	-53.649	114.131	-54.504	-8191	255	
1162.395	1	1	0	0	0.029284	0.13038	0.1226	0.17343	0.060274	0.045524	0.23737	0.055038	0.083212	0.13404	0.21591	0.12614	0.1554	0.32134	0.1691	0.19553	-3.6021	-4.3646	-4.0021	-4.3708	-4.2021	-4.0021	-4.4958	-4.1208	-3.8646	-4.4729	-4.0479	-4.2021	-4.475	-3.8292	-4.3104	-4.2312	262.621	162.087	-76.348	258.911	-10.565	211.249	223.870	237.082	138.955	218.287	11.739	179.476	-53.875	-74.729	26.449	243.725	0.00026949	0.00022674	0.00016877	1361.6	3.7847e-06	6.4835e-06	1365.8	363.66	5.7071e-06	5.3281e-06	417	139.2	121.58	41.645	6.7571e-06	52.079	0.00048061	0.00044871	0.00013689	1364.3	5.3011e-06	4.902e-06	1363.9	366.4	5.3048e-06	5.0289e-06	418.86	140.5	120.83	41.342	5.8048e-06	52.501	-62.766	-59.639	87.506	-67.218	-14.306	-10.567	-67.180	-62.420	-16.033	133.705	-62.971	-58.433	-57.816	-53.742	23.886	-54.592	-8191	255	
1162.516	1	1	0	0	0.31793	0.13886	0.23479	0.21277	0.15779	0.34412	0.080736	0.11066	0.16379	0.15611	0.22273	0.263	0.19101	0.18261	0.041701	0.22955	-3.525	-4.4042	-4.0021	-4.1979	-4.3646	-3.8104	-4.5104	-4.3167	-3.9396	-4.3875	-4.2083	-4.275	-4.525	-3.9667	-4.2417	-4.225	137.858	133.712	137.229	247.582	247.414	275.079	70.301	151.049	23.240	31.388	255.477	207.060	228.799	193.996	-5.083	183.439	0.00023498	0.00053312	8.915e-05	1361.2	2.5022e-06	3.9425e-06	1368.7	365.6	5.3405e-06	4.8134e-06	418.06	139.86	121.66	41.9	1.9414e-06	51.961	0.00049184	0.00047649	0.00014963	1369.6	5.3554e-06	5.2098e-06	1379.3	367.48	5.2493e-06	5.2473e-06	422.66	140.1	119.99	41.805	5.8052e-06	51.947	-41.672	17.396	128.028	-67.209	271.268	165.558	-67.045	-62.433	-28.480	164.564	-63.064	-58.386	-57.863	-53.573	137.563	-54.468	-8191	255	
1162.612	1	1	0	0	0.13895	0.19285	0.0080159	0.11226	0.1268	0.074587	0.46075	0.20016	0.11963	0.10804	0.22338	0.094227	0.20167	0.2958	0.1584	0.21073	-3.4437	-4.2583	-4.1188	-4.2458	-4.3146	-4.0188	-4.4479	-4.3354	-3.7646	-4.3063	-4.2396	-4.0729	-4.4938	-3.8812	-4.1875	-4.4292	195.393	-79.107	136.673	222.292	63.659	42.056	213.455	199.796	155.884	-2.442	260.286	9.752	-0.450	-79.868	107.824	261.680	0.00028133	0.00054403	0.0001561	1367.4	7.8527e-06	8.3574e-06	1372.9	364.4	1.6531e-06	3.2306e-06	418.6	139.12	121.35	41.852	8.4905e-06	52.025	0.00046533	0.00048463	0.00014575	1361.5	5.0614e-06	5.3363e-06	1373.5	364.43	5.0107e-06	5.449e-06	421.11	139.12	119.17	42.147	5.7098e-06	51.73	20.390	92.260	-58.652	-67.251	3.387	121.090	-67.233	-62.305	-63.551	153.147	-63.038	-58.299	-57.865	-53.422	-27.210	-54.510	-8191	255	
1162.708	1	1	0	0	0.23088	0.10193	0.19806	0.15026	0.15221	0.14244	0.27328	0.17116	0.1431	0.34688	0.38775	0.1534	0.28207	0.076419	0.14303	0.20169	-3.475	-4.2708	-4.0667	-3.9792	-4.3104	-3.9021	-4.3104	-4.4812	-4.0792	-4.4333	-4.2125	-4.0396	-4.4083	-4.0146	-4.0646	-4.4229	83.421	-18.518	59.250	245.957	-51.110	20.193	242.293	240.834	-75.258	-21.473	194.343	83.983	-75.909	99.200	180.180	201.467	0.00018825	0.00063683	9.3487e-05	1367.6	3.0436e-06	4.5807e-06	1369.8	366.65	2.2902e-06	4.0311e-06	421.59	139.08	121.29	41.984	6.0861e-06	51.966	0.00046049	0.00051831	0.00014552	1360	5.0926e-06	5.7409e-06	1372.9	365.61	5.1001e-06	5.8222e-06	420.57	139	119.83	42.673	5.5672e-06	51.464	-76.954	45.167	269.360	-67.271	72.280	244.306	-67.207	-62.542	185.035	40.178	-62.966	-58.580	-57.862	-53.770	-4.723	-54.118	-8191	255	
1162.804	1	1	0	0	0.15203	0.023314	0.11991	0.12813	0.099024	0.2177	0.060833	0.13923	0.082933	0.10022	0.22581	0.30129	0.30164	0.02045	0.30832	0.31681	-3.8083	-4.325	-4	-4.0604	-4.3875	-4.0771	-4.2375	-4.4354	-3.7854	-4.2896	-4.2646	-3.8542	-4.2917	-4.2375	-4.0979	-4.3104	56.680	230.332	-30.603	-65.607	60.492	61.571	205.145	145.834	36.246	121.050	-77.215	167.731	-67.690	55.256	247.191	234.581	0.00023828	0.00030944	0.00015997	1367.2	2.6767e-06	4.5439e-06	1369.1	367.18	5.5017e-06	4.6624e-06	419.95	139.74	121.56	41.937	1.8065e-06	52.041	0.0004648	0.00052987	0.00013927	1350.9	5.1341e-06	5.7357e-06	1362.9	362.29	5.1087e-06	5.7e-06	415.56	137.51	120.07	42.395	5.2601e-06	50.811	279.377	-32.938	-59.309	-67.114	204.655	102.687	-67.052	-62.389	154.071	33.814	-63.097	-58.284	-57.669	-53.584	-33.314	-54.489	-8191	255	
1162.876	1	1	0	0	0.23703	0.2124	0.18024	0.37055	0.12225	0.071015	0.31941	0.11064	0.081556	0.083264	0.25958	0.42891	0.32915	0.17675	0.12288	0.12739	-3.6437	-4.3438	-4.2688	-4.0667	-4.4854	-4.0104	-4.025	-4.5396	-4.0917	-4.1813	-4.3604	-3.8812	-4.3063	-4.1396	-3.8292	-4.2875	4.201	62.349	7.652	203.370	43.492	33.920	255.423	207.266	114.913	263.374	214.610	241.860	276.607	-75.735	131.293	-44.441	0.00062929	0.00049217	0.00010565	1360.3	5.6296e-06	2.6876e-06	1369.9	365.36	2.0512e-06	7.9043e-06	419.6	139.87	121.36	41.909	3.4746e-06	51.842	0.00047563	0.00051552	0.00013274	1340.2	5.2648e-06	5.5467e-06	1355.3	359.64	5.2533e-06	5.442e-06	411.75	135.95	120.39	41.79	4.929e-06	50.123	260.797	-69.903	209.902	-67.036	161.692	36.350	-67.228	-62.340	206.001	-21.669	-63.059	-58.594	-57.668	-53.677	-16.329	-54.488	-8191	255	
1162.997	1	1	0	0	0.36386	0.1296	0.18963	0.20299	0.084476	0.16788	0.090839	0.35007	0.073759	0.053797	0.1033	0.15616	0.14094	0.40126	0.22944	0.15152	-3.5542	-4.0583	-4.3917	-4.0292	-4.4854	-4.0437	-4.0437	-4.4812	-4.15	-4.1813	-4.4708	-4.0396	-4.3354	-4.2521	-3.9437	-4.5729	74.556	278.840	190.795	-46.911	-21.571	69.847	-79.698	226.961	202.134	82.516	216.399	42.202	246.078	206.618	5.608	224.536	0.00055341	0.00015302	0.00014601	1360.1	3.6872e-06	6.7412e-06	1363.4	364.46	4.264e-06	1.6316e-06	418.97	139.32	121.68	41.861	4.1114e-06	51.834	0.00047643	0.0004802	0.0001237	1330.8	5.2736e-06	5.1891e-06	1342.8	357.84	5.3057e-06	5.1753e-06	407.92	135.87	121.17	41.527	4.8071e-06	50.501	-59.601	264.051	-46.774	-67.045	49.259	-4.375	-67.063	-62.491	172.958	74.207	-63.093	-58.340	-57.824	-54.077	0.249	-54.375	-8191	255	
1163.093	1	1	0	0	0.12511	0.1743	0.079271	0.13192	0.13567	0.043552	0.14359	0.07713	0.31207	0.031846	0.25458	0.13744	0.3381	0.25405	0.14034	0.22695	-3.6542	-3.9583	-4.2917	-4.2104	-4.3417	-4.3042	-3.9417	-4.3812	-4.0938	-3.9271	-4.3875	-3.9229	-4.3958	-4.5104	-4.0104	-4.3896	214.099	270.738	-51.697	197.400	169.243	219.071	144.564	23.377	98.228	-45.421	-75.624	161.360	259.320	278.058	-56.200	151.799	0.00020404	0.00034188	3.6399e-05	1356.4	1.6956e-06	4.4224e-06	1366.4	364.45	4.0191e-06	2.282e-06	418.1	138.6	121.46	41.84	5.41e-06	51.652	0.00049846	0.0004735	0.00012322	1337.9	5.5322e-06	5.1953e-06	1343	361.47	5.5333e-06	5.1718e-06	407.01	137.31	121.68	41.479	4.7014e-06	51.059	-58.386	-69.650	88.703	-67.085	169.176	11.577	-67.227	-62.386	4.650	1.222	-63.015	-58.434	-58.053	-53.759	-6.175	-54.356	-8191	255	
1163.189	1	1	0	0	0.14704	0.16226	0.16838	0.1961	0.080462	0.27543	0.067851	0.08672	0.22014	0.054115	0.15455	0.27209	0.18383	0.063083	0.18417	0.22986	-3.6813	-3.8854	-4.3562	-4.1083	-4.1854	-4.0875	-3.9313	-4.6	-4.2167	-3.9625	-4.5208	-4.0417	-4.1417	-4.3229	-3.8354	-4.2021	37.957	-32.239	173.108	241.074	210.836	186.511	220.454	104.662	187.193	200.336	-46.651	253.892	210.085	126.621	273.343	213.254	0.00022959	0.00057828	0.00010911	1358.2	5.0587e-06	3.4169e-06	1360.2	365.17	3.2434e-06	7.1484e-06	419.16	139.08	120.85	41.693	7.0073e-06	51.631	0.00049484	0.00046084	0.00011864	1346.4	5.3819e-06	5.0252e-06	1336.6	363.12	5.4068e-06	5.0604e-06	406.88	138.92	121.47	41.604	4.8988e-06	52.303	52.920	-73.543	-54.239	-67.089	14.980	5.894	-67.264	-62.541	-5.791	40.740	-63.045	-58.454	-57.924	-53.707	-40.018	-54.612	-8191	255	
1163.309	1	1	0	0	0.18518	0.19766	0.046544	0.09694	0.17006	0.17372	0.2743	0.066	0.09385	0.21882	0.10071	0.25664	0.021451	0.27731	0.15849	0.04602	-3.8896	-3.9583	-4.4979	-4.0958	-4	-4.4479	-4.1729	-4.3604	-4.2021	-4.1333	-4.5333	-4.0938	-4.0062	-4.5875	-4.075	-4.3708	134.599	272.121	37.507	-75.167	12.748	38.204	230.192	-68.899	105.504	275.283	184.986	241.758	217.995	2.376	254.801	-80.302	0.00021627	0.00025542	9.3635e-05	1359.2	6.6687e-06	8.9753e-06	1359.4	364.91	1.8992e-06	6.2929e-06	416.58	139.23	121.45	41.914	8.1776e-06	51.971	0.00052484	0.00049479	0.00013104	1371.2	5.905e-06	5.546e-06	1353.1	371.7	5.9106e-06	5.4688e-06	414.56	142.26	122.57	41.838	5.1869e-06	52.751	219.540	-74.168	-74.643	-67.233	-2.039	-42.708	-67.220	-62.532	180.874	-22.015	-62.950	-58.415	-57.968	-53.898	117.566	-54.443	-8191	255	
1163.404	1	1	0	0	0.13588	0.18005	0.17951	0.023839	0.18062	0.039518	0.19385	0.0098672	0.19569	0.1399	0.11553	0.3336	0.25273	0.099923	0.11906	0.12072	-3.8187	-3.8583	-4.2771	-4.1188	-4.1771	-4.4583	-3.9604	-4.2479	-4.1917	-4.1083	-4.4708	-4.1104	-3.9229	-4.3875	-4.0062	-4.2958	146.649	141.260	-52.104	-23.755	168.840	94.758	162.335	183.822	111.995	-55.570	199.601	268.087	217.423	-78.076	148.071	168.369	0.00038271	0.00011684	8.2075e-05	1364.2	1.5234e-06	4.3279e-06	1363.6	365.56	9.3825e-06	3.6469e-06	418.61	139.37	121.43	41.777	1.6107e-06	51.899	0.00050284	0.00046527	0.00013047	1366.5	5.3685e-06	4.9959e-06	1351.9	367.94	5.3528e-06	4.9494e-06	413.79	140.91	120.78	41.276	5.3889e-06	52.518	-65.929	-22.930	86.755	-67.346	266.197	272.502	-67.178	-62.473	10.157	17.498	-63.069	-58.517	-57.513	-53.654	49.436	-54.442	-8191	255	
1163.477	1	1	0	0	0.34366	0.11728	0.51874	0.1521	0.16962	0.07027	0.14896	0.23486	0.14986	0.065661	0.1699	0.032225	0.061249	0.11509	0.077888	0.14726	-3.8667	-3.9708	-4.3979	-4.2979	-3.8042	-4.5458	-4.2937	-4.4521	-4.2854	-3.7771	-4.5583	-4.2937	-3.9521	-4.4625	-4.1167	-4.3604	273.090	276.586	-68.972	234.211	-75.047	240.532	173.076	178.675	201.074	43.232	-78.428	208.259	61.109	208.622	99.340	251.325	0.00023258	0.00014923	9.2931e-05	1359.4	2.773e-06	2.7885e-06	1366.8	364.78	2.1762e-06	8.6661e-07	418.81	139.29	121.02	41.716	1.0798e-06	52.088	0.00049879	0.00046138	0.00014113	1367.4	5.4655e-06	5.1097e-06	1366.5	369.05	5.4925e-06	5.085e-06	420.62	141.14	120.93	41.444	5.7378e-06	52.47	256.472	247.882	60.611	-67.318	6.035	28.120	-67.102	-62.457	278.066	219.686	-62.876	-58.331	-57.836	-53.487	-46.067	-54.429	-8191	255	
1163.596	1	1	0	0	0.11493	0.10327	0.12295	0.18039	0.22396	0.13256	0.28968	0.15061	0.016486	0.059762	0.094841	0.27497	0.2089	0.12223	0.06204	0.20496	-4.0938	-3.9875	-4.1	-4.3313	-3.9271	-4.5208	-4.2292	-4.2	-4.3229	-3.9562	-4.4292	-4.3896	-3.8563	-4.5396	-4.0896	-4.075	208.399	162.850	244.874	-80.015	-12.508	271.073	221.599	245.695	-21.664	174.349	80.152	220.105	275.906	-10.595	40.787	-76.175	0.00012118	0.00013974	0.00017306	1358	3.5252e-06	5.8527e-06	1359.5	365.3	4.2148e-06	4.3778e-06	418.38	139.08	120.91	41.669	4.0923e-06	51.944	0.00049153	0.00046408	0.00014691	1362.5	5.2846e-06	5.1386e-06	1368.6	366.68	5.2239e-06	5.0908e-06	420.59	139.61	119.34	41.468	5.6675e-06	51.586	275.664	189.141	46.786	-67.293	-9.473	254.913	-67.413	-62.345	-21.102	177.943	-63.090	-58.353	-58.010	-53.627	-24.898	-54.480	-8191	255	
1163.692	1	1	0	0	0.14047	0.23533	0.23342	0.18944	0.14989	0.23139	0.15833	0.14198	0.040712	0.07169	0.20642	0.14275	0.064654	0.21031	0.15469	0.23425	-4.2146	-3.9896	-4.2354	-4.3042	-3.8167	-4.6229	-4.5021	-4.0021	-4.3104	-3.8875	-4.3792	-4.3979	-3.8812	-4.5062	-4.1375	-4.1896	48.200	170.110	120.609	242.679	84.935	-67.643	245.333	249.177	163.983	85.779	127.830	-39.960	94.059	-74.660	26.881	159.853	0.00022734	0.00038559	0.00016664	1363.3	4.9688e-06	2.7656e-06	1360	365.36	5.0391e-06	5.7962e-06	419.59	138.92	121.15	41.76	7.391e-06	51.695	0.00046001	0.00046675	0.00014291	1351.8	4.9585e-06	5.242e-06	1364.4	364.22	5.0518e-06	5.3812e-06	421.28	139.64	119.44	42.226	5.9043e-06	51.979	-56.982	21.952	218.806	-67.057	-35.342	75.297	-66.931	-62.480	-59.618	172.288	-62.927	-58.701	-57.874	-53.474	-21.182	-54.313	-8191	255	
1163.788	1	1	0	0	0.08426	0.17467	0.14398	0.36933	0.15648	0.11625	0.09141	0.22118	0.15439	0.14789	0.36108	0.10133	0.044777	0.089297	0.14106	0.076761	-4.0104	-3.9604	-4.0896	-4.4396	-4.1042	-4.25	-4.3104	-4.0771	-4.4021	-4.0979	-3.9854	-4.3292	-3.8333	-4.3708	-4.2646	-3.9292	-19.410	250.835	113.219	207.192	-32.126	47.154	248.307	200.129	238.823	7.034	242.465	263.453	267.995	215.271	136.971	200.832	0.00048285	0.0006181	0.00016255	1359.7	2.9061e-06	5.2828e-06	1362.7	365.43	1.1764e-06	9.5569e-06	418.76	138.8	120.83	41.686	8.5285e-06	52.026	0.00047717	0.00052701	0.00015069	1361.6	5.2258e-06	5.9004e-06	1371.3	365.94	5.2527e-06	5.8458e-06	421.12	139.36	119.56	42.595	5.7059e-06	51.525	-62.283	111.977	272.844	-67.121	214.419	155.681	-67.165	-62.325	138.297	137.298	-62.984	-58.004	-57.803	-53.685	-53.037	-54.411	-8191	255	
1163.909	1	1	0	0	0.14289	0.1647	0.29038	0.14427	0.14698	0.10751	0.30141	0.35796	0.027899	0.081988	0.013175	0.24858	0.31921	0.27909	0.18741	0.39169	-3.9792	-4.0083	-3.9542	-4.4854	-4.0104	-4.1188	-4.3771	-3.9479	-4.5375	-4.0792	-4.1813	-4.4958	-3.8729	-4.3562	-4.0875	-4.0417	22.595	180.301	243.677	237.110	-72.368	-29.352	220.618	231.613	110.607	44.928	235.299	211.567	200.443	186.996	121.207	205.278	0.00041078	2.836e-05	0.00013056	1362.8	8.3644e-06	5.6503e-06	1363.7	365.99	1.3372e-06	4.4787e-06	418.73	139.44	120.58	41.898	4.8356e-06	51.91	0.00047643	0.00053588	0.0001431	1353.3	5.2016e-06	5.9321e-06	1363	363.59	5.3256e-06	5.9217e-06	417.96	138.43	120.5	42.769	5.5889e-06	51.219	-63.642	260.683	222.509	-67.189	158.725	116.780	-67.324	-62.444	106.961	137.560	-62.963	-58.430	-57.964	-53.589	-16.188	-54.237	-8191	255	
1164.005	1	1	0	0	0.17285	0.21641	0.11662	0.082501	0.079122	0.093489	0.061624	0.22264	0.12578	0.096173	0.15711	0.078415	0.18532	0.35814	0.24154	0.066938	-3.9125	-4.0958	-4.0813	-4.4979	-3.7938	-4.2958	-4.5667	-4.2417	-4.3896	-4.1687	-4.0938	-4.4958	-4.0146	-4.3667	-4.2125	-4.1125	205.395	258.109	237.030	175.036	65.747	251.534	126.839	167.570	-7.681	187.827	-42.981	183.966	-59.793	236.646	229.552	222.218	0.00044303	0.00032401	7.8431e-05	1360.6	6.5894e-06	5.4668e-06	1359.7	364.15	3.9017e-06	3.4246e-06	418.2	139.09	120.79	41.664	5.0059e-06	51.705	0.00050053	0.00054621	0.00014058	1349.4	5.5238e-06	5.9474e-06	1360.7	361.86	5.6524e-06	5.8944e-06	416.43	137.8	121.99	42.544	5.4336e-06	50.911	-75.372	210.978	-3.754	-67.259	186.098	-28.034	-67.187	-62.439	196.691	53.492	-62.848	-58.281	-57.964	-53.619	-41.659	-54.321	-8191	255	
1164.101	1	1	0	0	0.29559	0.12694	0.11631	0.14197	0.15462	0.1021	0.21779	0.052744	0.18134	0.022426	0.10109	0.2271	0.16734	0.29756	0.057923	0.069744	-3.9792	-4.0792	-3.9708	-4.4396	-3.8417	-3.9646	-4.5312	-4.0563	-4.275	-4.3979	-4.0792	-4.375	-4.1104	-4.2854	-4.4833	-4.0667	228.124	215.182	-40.258	218.547	104.230	51.376	196.360	241.167	272.952	66.450	168.717	229.248	173.319	-74.087	-44.198	2.181	0.0006068	0.00048651	0.00013748	1359.9	4.1151e-06	1.0683e-06	1362.8	363.11	1.7647e-06	9.0886e-06	419.24	139.22	121.1	41.864	4.183e-06	51.742	0.00052282	0.00052733	0.00013598	1344.5	5.7221e-06	5.7382e-06	1356.9	361.21	5.8062e-06	5.6742e-06	413.26	137.79	122.66	42.218	5.2163e-06	51.002	269.735	239.114	274.903	-67.307	209.475	266.504	-67.157	-62.452	51.832	1.715	-63.030	-58.311	-57.702	-53.846	9.221	-54.334	-8191	255	
1164.173	1	1	0	0	0.12334	0.055024	0.021115	0.075982	0.072179	0.13909	0.18841	0.077735	0.073906	0.034912	0.24393	0.17717	0.12298	0.14998	0.18487	0.0080915	-3.7292	-4.3625	-3.8937	-4.4667	-4.1292	-4.0667	-4.7312	-4.2146	-4.1167	-4.1062	-4.0708	-4.575	-4.0604	-3.9938	-4.3938	-3.8187	164.263	-61.711	105.823	151.558	70.919	-56.323	196.519	277.166	-58.857	234.860	195.592	-80.500	40.581	204.669	30.883	46.236	0.00039603	0.00034119	0.00018245	1357.6	7.9723e-06	5.0918e-06	1362.6	363.65	3.506e-06	4.9931e-06	417.16	139.09	120.92	41.826	1.8444e-06	51.639	0.00053419	0.00051073	0.00013086	1348.1	5.8903e-06	5.5873e-06	1352.9	363.42	6.0009e-06	5.603e-06	412.34	139.27	123.72	42.2	5.207e-06	51.874	273.156	239.610	-37.823	-67.112	109.016	2.923	-67.249	-62.565	105.724	52.214	-62.963	-58.400	-57.851	-53.652	-72.857	-54.693	-8191	255	
1164.292	1	1	0	0	0.11868	0.051918	0.24794	0.053169	0.11165	0.072951	0.13061	0.17221	0.31313	0.20346	0.14038	0.06385	0.15222	0.21071	0.076936	0.16584	-3.8583	-4.4333	-3.7354	-4.4583	-4.1312	-4.1896	-4.5104	-3.9583	-4.2104	-4.2958	-3.9562	-4.3187	-4.325	-4.2375	-4.3708	-4.075	231.896	201.407	27.375	243.402	146.723	108.354	236.001	219.129	24.701	137.882	187.986	11.297	-35.692	157.966	-28.134	278.696	0.00021986	0.00045304	0.00012501	1359.8	1.9078e-06	4.0735e-06	1360.1	363.65	3.6624e-06	3.4516e-06	417.55	138.81	121.38	41.813	3.3871e-06	51.613	0.00054983	0.00051299	0.00013068	1361.7	5.9511e-06	5.5474e-06	1349.9	366.5	5.9074e-06	5.5094e-06	410.25	140.64	123.03	41.898	5.0684e-06	52.309	242.662	210.880	-63.169	-67.188	243.376	87.213	-67.185	-62.353	233.537	269.502	-63.249	-58.471	-57.591	-53.670	180.960	-54.145	-8191	255	
1164.388	1	1	0	0	0.11858	0.043437	0.11221	0.092595	0.06844	0.23912	0.057599	0.12	0.13846	0.037888	0.1589	0.31192	0.065937	0.19535	0.19041	0.13044	-3.7938	-4.2083	-3.8729	-4.425	-4.15	-4.0333	-4.4083	-4.1417	-4.05	-4.4958	-3.9917	-4.2562	-4.3542	-4.0229	-4.4125	-4.1646	134.451	154.406	-53.297	-76.200	-74.413	19.200	169.253	159.196	-30.027	-49.991	3.652	273.221	-51.655	211.689	7.883	222.505	0.00013228	0.00060597	5.6325e-05	1361.8	6.4008e-06	4.0697e-06	1362.7	363.33	3.684e-06	1.0523e-05	415.93	138.43	121.29	41.816	9.3127e-06	51.773	0.00052984	0.00049537	0.00012763	1368.1	5.7289e-06	5.3418e-06	1350	368.37	5.6915e-06	5.3013e-06	410.19	141.16	121.98	41.561	5.144e-06	52.575	19.714	-59.288	55.650	-66.973	12.109	-41.273	-67.296	-62.330	53.981	26.102	-63.123	-58.347	-57.822	-53.657	153.966	-54.421	-8191	255	
1164.484	1	1	0	0	0.075239	0.28234	0.1508	0.25533	0.063444	0.074792	0.1968	0.083819	0.33342	0.12893	0.1944	0.11788	0.16486	0.0374	0.07447	0.1607	-3.7375	-4.35	-4.1521	-4.5979	-4.3208	-3.9167	-4.5104	-4.2271	-4.0354	-4.6396	-4.0229	-4.3396	-4.1917	-3.9375	-4.5	-4.1479	29.447	58.621	36.704	243.417	175.383	148.004	249.564	-64.330	105.986	7.780	274.810	-52.697	249.357	-0.839	75.878	-71.073	0.00019893	0.00086259	0.00010125	1361.7	3.7249e-06	6.9142e-06	1358.5	365.49	7.9018e-07	5.2933e-06	416.37	139.08	121.45	41.574	2.8216e-06	51.829	0.00050882	0.00047711	0.00013086	1369.6	5.5398e-06	5.125e-06	1352	368.01	5.4634e-06	5.088e-06	413.43	140.83	120.86	41.133	5.3285e-06	52.297	240.507	-71.259	94.700	-67.156	-11.801	-1.694	-67.415	-62.344	90.579	-28.994	-63.250	-58.193	-57.902	-53.520	176.736	-54.403	-8191	255	
1164.580	1	1	0	0	0.13112	0.049061	0.20104	0.33903	0.18928	0.1899	0.029861	0.1622	0.014947	0.12323	0.1745	0.034141	0.039363	0.18689	0.22758	0.12222	-3.6104	-4.2542	-3.9271	-4.2854	-4.1813	-3.9396	-4.45	-4.3625	-3.8875	-4.5333	-4.15	-4.0396	-4.25	-3.85	-4.2896	-4.1771	147.405	-10.490	52.240	273.404	104.287	126.065	-41.418	177.140	-42.002	254.038	192.155	144.515	197.694	-56.885	198.422	191.235	0.0005209	0.00038569	0.00017376	1363.2	3.6344e-06	4.1426e-06	1359.6	364.39	1.0265e-06	1.4984e-06	414.86	139.2	121.54	41.559	2.6924e-07	51.755	0.00048992	0.00045643	0.00013627	1365.3	5.373e-06	4.9396e-06	1360.4	366.57	5.2994e-06	4.9485e-06	416.31	140.11	120.31	41.005	5.5373e-06	51.849	277.773	-8.020	34.801	-67.100	161.374	37.232	-67.032	-62.363	128.285	-25.082	-62.899	-58.195	-58.017	-53.622	52.633	-54.546	-8191	255	
1164.701	1	1	0	0	0.11037	0.16255	0.071968	0.17255	0.043983	0.18054	0.30655	0.11209	0.093521	0.20139	0.22931	0.21679	0.11163	0.19989	0.21257	0.29617	-3.3792	-4.3521	-4.0917	-4.4083	-4.4	-3.725	-4.5042	-4.3354	-3.9792	-4.3958	-4.2167	-4.1729	-4.4625	-3.8937	-4.1917	-4.3833	217.673	62.789	-65.827	258.283	90.986	-29.387	161.447	228.540	-41.187	117.770	265.734	-7.941	188.317	279.271	233.144	230.298	0.00022836	0.00040077	5.2975e-05	1359.9	2.7404e-06	3.4491e-06	1359.2	364.64	5.3463e-06	1.0165e-06	416.64	139.5	120.93	41.824	3.3562e-06	51.608	0.00047282	0.00044916	0.00014017	1356.2	5.1413e-06	4.8965e-06	1361.4	364.46	5.0911e-06	4.9876e-06	418.35	139.17	119.29	41.26	5.6837e-06	51.664	267.973	59.145	254.004	-67.182	99.549	34.305	-67.154	-62.250	72.429	241.779	-63.040	-58.303	-57.858	-53.322	-18.444	-54.518	-8191	255	
1164.773	1	1	0	0	0.13672	0.15308	0.039549	0.09492	0.23798	0.11835	0.075966	0.2671	0.18016	0.19066	0.14525	0.18993	0.14676	0.32117	0.21278	0.12402	-3.5896	-4.2771	-4.0833	-4.1854	-4.4688	-4.0896	-4.3063	-4.5396	-3.8271	-4.3396	-4.3021	-4.1417	-4.5271	-4.0792	-4.15	-4.2396	20.237	186.117	212.543	-74.941	164.906	-43.483	189.354	261.710	-60.178	4.362	176.791	-40.105	-29.891	215.738	33.200	-47.953	9.5607e-05	0.00099981	0.00010056	1361.1	8.1442e-06	9.3183e-07	1360.2	363.98	2.7294e-06	5.6372e-06	418.43	138.62	120.91	41.687	6.1115e-06	51.823	0.00046198	0.00047214	0.00014464	1353.8	5.0437e-06	5.1977e-06	1365.4	363.34	4.9731e-06	5.2602e-06	418.77	138.41	118.55	41.668	5.6015e-06	51.371	167.486	69.001	270.416	-67.158	-53.257	212.156	-67.120	-62.448	55.824	131.052	-63.076	-58.613	-57.995	-53.524	40.586	-54.464	-8191	255	
1164.869	1	1	0	0	0.06593	0.13503	0.20062	0.19123	0.16783	0.24325	0.12091	0.13793	0.09227	0.08398	0.16138	0.087437	0.31999	0.23018	0.24927	0.070182	-3.6771	-4.4458	-3.9646	-4.0687	-4.4708	-3.9125	-4.4292	-4.5271	-3.875	-4.2875	-4.2854	-3.9542	-4.5125	-4.15	-4.025	-4.3833	116.820	-51.221	191.813	148.730	51.778	220.171	262.988	178.548	214.442	136.494	215.504	277.520	213.289	238.061	57.304	-30.107	6.318e-05	0.00071969	8.958e-05	1358.7	2.9514e-06	5.1102e-06	1361.8	365.06	9.7333e-07	4.4456e-06	418.94	139.54	120.9	41.631	6.9713e-06	51.792	0.00044615	0.00049522	0.00014172	1348.6	4.9176e-06	5.4463e-06	1360.9	362.23	4.8914e-06	5.5162e-06	416.6	138.01	118.45	42.008	5.4705e-06	51.219	273.351	58.941	184.619	-67.368	196.562	136.273	-67.133	-62.403	14.309	187.370	-62.943	-58.289	-57.912	-53.811	-32.911	-54.437	-8191	255	
1164.989	1	1	0	0	0.068572	0.15113	0.22786	0.26067	0.20158	0.13954	0.19432	0.21389	0.042879	0.073696	0.15704	0.21237	0.19288	0.15932	0.18795	0.17133	-3.6917	-4.3021	-4.1292	-3.9437	-4.4708	-4.0667	-4.3313	-4.5417	-4.0708	-4.2979	-4.1562	-3.8333	-4.3625	-4.1646	-4.0271	-4.3542	-66.694	83.636	186.912	264.315	-67.317	16.098	231.946	242.718	89.132	-62.563	145.141	-34.096	278.202	213.014	65.004	188.691	0.00029876	0.00011257	6.3723e-05	1359.4	6.5564e-06	4.0776e-07	1362.9	363.95	3.3178e-06	4.5135e-06	417.92	138.6	120.34	41.502	7.2979e-06	51.74	0.00045094	0.00051715	0.00013842	1344.4	5.0254e-06	5.6817e-06	1357.4	361.48	5.0485e-06	5.7324e-06	414.79	137.29	119.47	42.278	5.342e-06	50.884	257.110	63.950	273.491	-67.234	106.839	198.052	-66.954	-62.224	224.538	8.282	-63.121	-58.360	-57.821	-53.542	-25.163	-54.504	-8191	255	
1165.086	1	1	0	0	0.19171	0.28907	0.15505	0.062946	0.20339	0.10737	0.061998	0.1697	0.085727	0.18908	0.24228	0.23	0.3195	0.083477	0.30568	0.20844	-3.5271	-4.0292	-4.1937	-4.0375	-4.3208	-3.9875	-4.2229	-4.5563	-3.8604	-3.9917	-4.3625	-3.9437	-4.3396	-4.1417	-4.075	-4.5062	139.652	52.522	271.139	263.655	3.390	96.555	230.900	54.674	-56.906	62.670	238.300	230.397	234.497	-14.787	5.913	234.227	0.00054538	0.00011118	0.00028484	1360.5	7.3459e-06	3.1735e-06	1365.2	363.64	6.7891e-06	4.5877e-06	416.85	139	120.09	41.548	9.3346e-06	51.771	0.00047153	0.00052355	0.00013523	1341.6	5.2956e-06	5.733e-06	1356.7	360.37	5.391e-06	5.775e-06	414.76	136.84	121.09	42.353	5.3389e-06	50.876	279.534	18.086	-69.543	-67.217	158.800	58.410	-67.106	-62.312	231.385	-54.511	-63.051	-58.477	-57.926	-53.552	-2.558	-54.544	-8191	255	
1165.182	1	1	0	0	0.030671	0.11054	0.29699	0.14408	0.098198	0.11144	0.12663	0.23955	0.20681	0.29933	0.08437	0.15487	0.08796	0.11975	0.12733	0.35885	-3.4875	-4.0875	-4.2771	-4.0292	-4.15	-4.2625	-4.1583	-4.4604	-3.9417	-4.1604	-4.4688	-4.0167	-4.4437	-4.2896	-3.8688	-4.3979	-72.862	46.283	52.098	260.115	3.709	273.208	175.345	253.153	195.786	238.225	222.861	167.018	-35.096	275.226	-5.091	235.322	0.00047419	0.00050123	0.00021493	1357.4	8.6992e-06	1.2796e-06	1360	363.4	6.3011e-06	6.2448e-06	417.85	138.61	120.46	41.81	2.7109e-06	51.622	0.00050926	0.00052459	0.00013549	1340.4	5.6592e-06	5.6949e-06	1353.6	360.48	5.7027e-06	5.6788e-06	413.57	137.29	122.57	42.211	5.2358e-06	50.992	277.296	243.470	-56.519	-67.175	166.540	-69.068	-67.234	-62.485	181.851	13.508	-63.035	-58.424	-57.831	-53.561	-37.019	-54.385	-8191	255	
1165.278	1	1	0	0	0.4387	0.31289	0.22707	0.31898	0.18326	0.14112	0.1809	0.33444	0.11504	0.03305	0.054251	0.18035	0.11947	0.06875	0.16172	0.28137	-3.7188	-4.05	-4.2833	-3.9646	-4.3167	-4.2667	-3.9896	-4.5729	-4.0708	-4.0188	-4.4313	-4.1833	-4.2104	-4.0229	-3.8271	-4.575	68.585	146.324	1.040	205.097	22.882	-13.631	187.470	255.237	259.060	181.515	247.827	1.545	-53.465	208.028	112.483	110.017	0.00020631	0.00051344	0.00020796	1358.3	3.0032e-06	3.5459e-06	1361.2	364.04	4.1727e-06	2.1461e-06	417.29	138.66	120.67	41.712	8.2486e-06	51.804	0.00052967	0.00051003	0.00013226	1343.1	5.8233e-06	5.5257e-06	1348.9	361.88	5.8322e-06	5.4693e-06	410.96	138.1	122.77	41.967	5.0407e-06	51.502	-63.819	259.114	-57.616	-67.043	-71.113	251.954	-67.214	-62.371	17.728	265.967	-63.089	-58.194	-57.809	-53.543	-25.547	-54.565	-8191	255	
1165.372	1	1	0	0	0.27322	0.046861	0.09525	0.16691	0.13224	0.2048	0.0707	0.16506	0.10379	0.17195	0.26459	0.044595	0.12533	0.36308	0.17475	0.12505	-3.6083	-3.8833	-4.1875	-4.0146	-4.2771	-4.3292	-4.1521	-4.1646	-4.0271	-4.1062	-4.575	-3.9458	-4.0292	-4.3104	-3.9521	-4.4021	212.269	237.054	235.122	174.099	48.210	44.221	109.370	163.252	-25.129	159.687	221.934	-42.871	177.748	265.356	30.719	243.903	0.00011321	0.00048975	0.00019102	1354.9	9.1915e-07	3.6474e-07	1364.9	364.08	3.5677e-06	1.9228e-06	417.51	138.71	120.97	41.761	1.1946e-06	51.681	0.00053249	0.0004976	0.00012833	1353.4	5.8095e-06	5.4299e-06	1346	364.82	5.7923e-06	5.3509e-06	408.56	139.44	122.2	41.777	4.9446e-06	52.107	275.578	277.116	226.202	-67.167	275.925	106.210	-67.179	-62.485	16.880	-76.185	-63.003	-58.155	-57.748	-53.714	177.290	-54.589	-8191	255	
1165.468	1	1	0	0	0.19732	0.16464	0.18949	0.26576	0.25739	0.20946	0.12079	0.25122	0.19303	0.2373	0.28527	0.068031	0.13924	0.24945	0.17337	0.03172	-3.7792	-3.9437	-4.5042	-4.0687	-4.1771	-4.35	-4.1104	-4.4042	-4.1896	-3.9167	-4.3417	-3.8896	-4.2354	-4.3208	-3.8583	-4.3896	165.961	260.194	-78.121	257.125	-59.638	184.342	-67.343	226.503	177.759	226.725	268.001	-21.930	138.954	181.327	-18.542	157.529	7.5918e-05	0.0003187	6.2329e-05	1353.2	4.8239e-06	3.8581e-06	1361.2	363.48	3.6731e-06	7.9848e-06	418.08	138.73	120.91	41.655	3.9829e-06	51.79	0.00052233	0.00048526	0.00012703	1359.9	5.6788e-06	5.3227e-06	1344	367.38	5.6254e-06	5.2109e-06	409.48	140.4	121.27	41.439	4.9385e-06	52.221	122.880	183.538	246.307	-67.036	-60.616	40.493	-67.265	-62.335	22.313	-28.788	-62.987	-58.345	-57.616	-53.648	130.263	-54.399	-8191	255	
1165.589	1	1	0	0	0.08909	0.15258	0.026658	0.18517	0.040014	0.1829	0.26958	0.2319	0.059836	0.07792	0.034326	0.066487	0.12842	0.1699	0.17182	0.089541	-3.775	-3.9625	-4.3375	-3.9625	-3.9021	-4.4521	-4.0604	-4.5396	-4.2937	-3.8146	-4.4187	-3.9667	-4.1917	-4.3604	-3.8104	-4.1667	153.912	-33.330	222.315	144.092	-47.882	-62.212	213.954	277.719	121.466	-54.894	39.753	62.448	-62.263	194.494	-77.907	247.764	0.00013347	0.00068002	0.00017275	1360	6.9195e-06	8.219e-06	1358.2	363.69	7.9332e-06	4.9563e-06	417.92	138.54	121.01	41.718	3.5935e-06	51.752	0.00049729	0.00046146	0.00012713	1362.2	5.375e-06	5.0309e-06	1345.5	366.57	5.3511e-06	4.9537e-06	411.22	140.17	120.11	41.06	5.1564e-06	52.14	-14.544	222.847	45.859	-67.170	-5.340	-55.090	-67.117	-62.405	-0.128	66.736	-63.042	-58.241	-57.746	-53.642	150.366	-54.244	-8191	255	
1165.685	1	1	0	0	0.090309	0.064517	0.047	0.045099	0.11318	0.070902	0.077837	0.27171	0.1018	0.18001	0.14005	0.081402	0.16736	0.24521	0.16767	0.17618	-3.7354	-3.7375	-4.3917	-4.4688	-3.85	-4.35	-4.2562	-4.3938	-4.0146	-3.8333	-4.5312	-4.3396	-4.0021	-4.3375	-3.7854	-4.2354	49.207	250.183	188.627	36.474	39.938	277.929	-76.968	193.383	210.431	64.805	-25.743	163.814	43.400	-61.340	182.600	-10.424	0.00036535	0.00050748	8.5406e-05	1358.3	5.2399e-06	4.0793e-06	1358.8	363.66	3.6998e-06	3.1749e-06	417.64	139.06	120.29	41.731	8.3999e-06	51.941	0.00048427	0.00044803	0.00013369	1360.1	5.2589e-06	4.8981e-06	1352	365.71	5.2491e-06	4.8262e-06	415.22	139.61	119.46	40.92	5.398e-06	51.777	-76.970	231.576	129.527	-67.286	-49.818	163.195	-67.071	-62.391	41.946	45.287	-62.976	-58.679	-57.757	-53.559	144.733	-54.478	-8191	255	
1165.781	1	1	0	0	0.043375	0.08431	0.21517	0.23129	0.17181	0.03367	0.17796	0.30736	0.1568	0.044784	0.10542	0.10784	0.1198	0.073868	0.1542	0.17701	-4.0646	-4.0229	-4.4437	-4.1833	-3.8458	-4.425	-4.1875	-4.2521	-4.5563	-3.9042	-4.3667	-4.4062	-3.9729	-4.3333	-3.8896	-4.1354	-30.797	45.026	-48.658	276.335	6.449	238.713	168.443	195.369	205.978	45.359	229.127	168.813	-51.845	124.266	245.519	114.127	3.091e-05	0.00027115	0.00013163	1360.4	3.9874e-06	3.688e-06	1358.6	365.11	2.7197e-06	5.7939e-06	416.02	139.35	121.21	41.725	1.0631e-06	51.543	0.00047134	0.0004395	0.00013908	1353.8	5.0848e-06	4.8854e-06	1359.6	363.92	5.096e-06	4.8639e-06	417.22	138.82	118.65	41.123	5.5291e-06	51.246	102.542	-17.944	47.567	-67.166	18.419	73.546	-66.974	-62.272	-2.181	147.376	-63.018	-58.354	-58.005	-53.671	-72.459	-54.314	-8191	255	
1165.878	1	1	0	0	0.1284	0.13971	0.081273	0.26303	0.09478	0.29398	0.11813	0.071577	0.124	0.16839	0.20601	0.054166	0.14168	0.082369	0.040408	0.10609	-4.2396	-3.8917	-4.1604	-4.3042	-3.8333	-4.5833	-4.2167	-4.1833	-4.375	-3.9167	-4.2562	-4.4208	-3.8417	-4.4229	-4.0604	-4.1458	-22.575	205.577	13.273	262.547	84.800	35.027	234.125	162.193	104.915	-2.558	233.478	-69.217	-29.932	182.145	222.482	171.075	0.00018886	0.00053676	7.2121e-05	1357.3	9.984e-07	8.7521e-06	1363.5	363.23	1.1885e-06	5.3898e-06	416.21	138.95	121.28	41.442	1.4895e-06	51.819	0.00045633	0.00045361	0.00014134	1349.5	4.9263e-06	5.0704e-06	1361.2	362.35	4.9274e-06	5.1107e-06	417.32	138.39	118.25	41.577	5.5724e-06	51.249	-5.547	48.798	22.400	-67.129	-5.805	157.695	-67.209	-62.474	-2.147	125.704	-62.816	-58.365	-57.841	-53.382	-48.443	-54.549	-8191	255	
1165.998	1	1	0	0	0.12461	0.19249	0.16257	0.2334	0.0099179	0.17739	0.090654	0.097269	0.15503	0.26887	0.14204	0.20598	0.27205	0.10148	0.045978	0.19877	-4.1479	-3.9396	-4.1333	-4.3729	-3.8021	-4.1875	-4.3271	-4.0771	-4.1354	-4.0938	-4.3521	-4.45	-3.8896	-4.4458	-4.2292	-4.0646	236.502	278.674	67.002	-78.507	-20.642	-3.461	256.497	259.362	-79.041	199.007	195.358	254.111	212.865	41.923	175.976	179.941	0.00035745	0.00026121	9.4143e-05	1360.5	5.2062e-06	6.68e-06	1360.8	364.77	9.7223e-07	5.3191e-06	418.28	138.78	120.55	41.415	3.9499e-06	51.897	0.00045225	0.00048864	0.00014257	1350	4.9262e-06	5.4829e-06	1362.4	362.45	4.9607e-06	5.5175e-06	417.68	138.31	118.35	42.114	5.5165e-06	51.17	265.175	91.028	275.076	-67.300	-61.854	136.455	-67.131	-62.478	84.627	253.093	-62.793	-58.374	-57.603	-53.375	-17.748	-54.428	-8191	255	
1166.070	1	1	0	0	0.068349	0.11216	0.24331	0.30422	0.055993	0.15915	0.05755	0.10598	0.04598	0.16956	0.048781	0.28923	0.15475	0.11235	0.10882	0.23518	-3.9938	-3.9958	-4.1625	-4.6229	-3.9271	-4.1271	-4.2312	-4.0646	-4.3438	-4.0667	-4.2396	-4.5188	-3.8812	-4.2438	-4.175	-3.8042	263.605	166.285	-53.813	209.818	141.419	-34.227	170.420	252.318	168.175	3.507	12.271	265.613	210.319	252.212	118.487	269.417	0.00043792	0.00018281	0.00011418	1357.6	2.5984e-06	2.0865e-06	1360.2	363.5	4.3322e-06	8.036e-07	417.66	138.87	120.93	41.898	9.9624e-06	51.822	0.00045476	0.00051274	0.00013848	1344.9	4.9654e-06	5.6767e-06	1358	360.75	5.0594e-06	5.6827e-06	414.44	137.47	119.14	42.433	5.4031e-06	50.82	276.686	265.941	-60.908	-67.013	114.174	137.106	-67.184	-62.379	157.515	245.789	-63.095	-58.244	-57.822	-53.541	-17.287	-54.298	-8191	255	
1166.166	1	1	0	0	0.044702	0.050428	0.12919	0.29278	0.14734	0.25643	0.18758	0.1755	0.27456	0.11197	0.14425	0.26852	0.032851	0.093091	0.036509	0.1301	-4.025	-4.0479	-3.9458	-4.5083	-3.875	-4.0854	-4.4604	-4.0979	-4.5604	-4.0521	-4.1458	-4.5229	-4.0813	-4.2625	-4.2438	-3.825	239.510	-53.025	-61.042	-51.557	156.872	258.522	203.835	257.837	-50.117	154.683	-44.406	271.095	20.702	185.724	149.196	-46.155	0.00037384	5.4809e-05	5.4812e-05	1358.3	2.6391e-06	7.2311e-06	1357.9	362.82	4.8168e-06	4.2782e-06	415.81	139.34	120.52	41.688	2.3617e-06	51.769	0.00047629	0.00052702	0.00013549	1342.3	5.251e-06	5.7439e-06	1353.1	359.17	5.3382e-06	5.6986e-06	412.88	136.97	120.43	42.244	5.2856e-06	50.582	267.157	234.293	237.936	-67.208	140.819	25.007	-67.158	-62.346	188.806	-32.621	-63.194	-58.412	-57.632	-53.654	-78.534	-54.309	-8191	255	
1166.262	1	1	0	0	0.22311	0.12134	0.13364	0.22625	0.14564	0.061475	0.10558	0.1397	0.028468	0.06956	0.25255	0.12515	0.14779	0.26576	0.037553	0.18845	-3.8688	-4.1625	-3.9938	-4.4083	-3.7667	-4.1438	-4.5813	-3.9771	-4.2625	-4.2771	-4.2479	-4.4875	-4.0479	-4.1937	-4.3229	-3.9417	84.856	-56.156	-69.499	258.483	238.793	-20.420	254.998	243.777	234.145	137.196	-71.281	241.206	110.522	-64.945	26.227	215.555	0.00077419	0.000167	0.00014358	1359.2	7.9812e-06	5.5061e-06	1364.3	362.56	2.443e-06	4.6652e-06	417.4	138.59	120.43	41.579	3.0957e-06	51.724	0.00050166	0.00051778	0.00013307	1337.9	5.5511e-06	5.6196e-06	1352.3	359.11	5.608e-06	5.5365e-06	411.29	136.68	121.52	41.884	5.1311e-06	50.548	271.162	-67.127	233.478	-67.103	142.540	45.026	-67.161	-62.390	188.660	155.315	-63.182	-58.263	-57.583	-53.308	16.657	-54.454	-8191	255	
1166.381	1	1	0	0	0.15174	0.13066	0.031291	0.25584	0.19471	0.10684	0.060547	0.19137	0.069166	0.1256	0.1247	0.14895	0.13211	0.10507	0.045514	0.1045	-3.9958	-4.1687	-3.75	-4.5625	-4.0687	-4.0104	-4.5354	-4.0646	-4.2229	-4.1979	-4.0792	-4.5333	-4.1729	-4.0292	-4.2708	-4.1667	94.115	189.592	32.720	220.950	107.231	-74.088	53.871	263.136	98.271	76.220	142.207	4.018	101.693	212.158	271.029	117.827	0.00022828	0.00050657	0.00023317	1349.8	3.4144e-06	3.214e-06	1358.6	362.63	5.1783e-06	4.3708e-06	417.1	138.7	120.98	41.669	1.0654e-06	51.501	0.00051422	0.00049496	0.00012782	1336.9	5.6623e-06	5.3895e-06	1344.5	359.98	5.7042e-06	5.3715e-06	408.1	137.4	121.96	41.641	4.9512e-06	50.914	-64.775	-77.887	-71.427	-67.153	267.962	9.469	-67.251	-62.397	103.882	14.348	-62.926	-58.314	-57.752	-53.549	161.509	-54.310	-8191	255	
1166.477	1	1	0	0	0.19723	0.22365	0.046117	0.096026	0.25701	0.18328	0.14455	0.19497	0.21477	0.19861	0.14874	0.19511	0.11252	0.10836	0.044037	0.019979	-3.8458	-3.9792	-3.7646	-4.5979	-4.2229	-3.8542	-4.4521	-4.2146	-4.2854	-4.25	-3.8104	-4.1729	-4.2292	-4.1646	-4.4833	-4	261.110	-50.722	36.914	241.992	76.612	244.051	192.350	205.728	94.738	237.484	-73.068	274.022	-7.880	97.389	76.120	0.824	0.00030025	0.00045064	0.00012875	1355.6	4.4422e-06	7.6039e-06	1357.1	362.62	3.8504e-06	4.2437e-06	416.23	138.93	120.66	41.86	4.9582e-06	51.857	0.00051589	0.00048451	0.00012373	1346.4	5.644e-06	5.236e-06	1338.7	362.01	5.6164e-06	5.2335e-06	406.34	138.85	121.42	41.467	4.8141e-06	51.551	-53.866	234.406	255.219	-67.238	-72.144	22.496	-67.248	-62.346	47.416	9.089	-62.930	-58.148	-57.818	-53.813	128.761	-54.315	-8191	255	
1166.573	1	1	0	0	0.19599	0.35832	0.22071	0.17274	0.24108	0.15041	0.29314	0.085825	0.15607	0.36445	0.050536	0.075623	0.071902	0.039816	0.21312	0.26565	-3.6208	-4.2688	-3.8625	-4.5083	-4.2937	-3.8729	-4.4417	-4.0437	-3.9188	-4.3854	-3.9604	-4.3396	-4.3938	-4.0229	-4.3417	-4.0563	190.211	174.682	-55.384	264.163	21.644	43.842	217.586	210.908	-61.376	39.554	252.034	-2.052	-28.197	224.891	-20.459	151.423	0.00018807	0.00040346	5.9232e-05	1358.6	1.8334e-06	6.6118e-06	1354.2	361.69	4.776e-06	3.4907e-06	416.44	138.96	120.91	41.667	3.476e-06	51.718	0.00050273	0.0004716	0.00012083	1354.4	5.4804e-06	5.0918e-06	1338	364.09	5.4583e-06	5.0852e-06	406.27	139.83	120.67	41.174	4.8847e-06	51.936	-60.172	195.307	-21.581	-67.089	-63.455	-27.222	-67.192	-62.465	-17.678	-36.724	-62.878	-58.181	-57.904	-53.497	115.743	-54.443	-8191	255	
1166.669	1	1	0	0	0.094554	0.18264	0.023519	0.105	0.24135	0.11789	0.32052	0.074224	0.061617	0.11108	0.24386	0.068623	0.2732	0.040488	0.095945	0.36049	-3.4958	-4.2229	-3.9292	-4.2792	-4.0104	-3.7	-4.5104	-4.1646	-3.925	-4.1937	-3.8958	-4.4	-4.1729	-3.7583	-4.2229	-4.1104	-10.718	226.702	157.589	-31.307	220.842	72.953	225.933	-28.372	79.380	183.482	177.745	7.299	76.007	236.296	171.919	224.314	0.00017373	0.00071662	3.6635e-05	1356.7	3.9903e-06	1.0435e-05	1357	364.21	2.794e-06	7.1133e-06	415.7	138.27	120.68	41.625	5.5538e-06	51.719	0.00049132	0.00046007	0.00012422	1359.7	5.3427e-06	4.9646e-06	1343.4	366.21	5.3127e-06	4.9558e-06	409.63	139.97	119.97	40.934	5.1347e-06	52.04	10.719	233.081	113.877	-67.209	-30.368	-11.136	-67.268	-62.204	235.702	17.392	-62.909	-58.185	-57.856	-53.815	125.546	-54.325	-8191	255	
1166.766	1	1	0	0	0.017725	0.29375	0.19021	0.20691	0.12321	0.22075	0.20809	0.10229	0.17317	0.080318	0.088369	0.23628	0.31864	0.1907	0.2464	0.21994	-3.55	-4.3938	-3.7938	-4.2854	-4.175	-3.7938	-4.4042	-4.4917	-4.0167	-4.3271	-4.0146	-4.2479	-4.3354	-3.7833	-4.1521	-4.35	28.700	64.621	138.953	-63.311	99.670	142.837	193.248	257.149	148.059	189.652	269.080	214.196	-61.790	-23.061	246.397	-64.321	0.00014257	0.00058786	0.00021778	1359.3	5.7331e-06	3.7312e-06	1359	364.36	5.1147e-06	5.7116e-06	416.73	138.86	120.96	41.78	6.3411e-06	51.969	0.00048038	0.00044936	0.00013189	1359.3	5.2876e-06	4.8677e-06	1352.5	365.94	5.2688e-06	4.8902e-06	414.39	139.71	119.83	40.89	5.4518e-06	51.964	-58.722	-70.356	42.576	-67.253	26.937	62.209	-67.132	-62.167	-13.609	66.371	-62.831	-58.257	-58.028	-53.519	166.029	-54.370	-8191	255	
1166.862	1	1	0	0	0.013913	0.13537	0.01798	0.21398	0.18628	0.1809	0.21342	0.065342	0.16395	0.11368	0.039119	0.12443	0.29391	0.27543	0.14309	0.13148	-3.5833	-4.3063	-3.7771	-4.2417	-4.0458	-3.7896	-4.3104	-4.2417	-3.5979	-4.3313	-4.3	-3.9792	-4.3271	-3.9688	-4.1875	-4.2354	151.558	-10.828	10.619	256.107	80.302	222.848	194.315	186.477	192.782	79.785	276.074	138.052	238.511	-67.065	170.715	-32.657	0.00025873	0.00023962	0.00018979	1354.7	2.7636e-06	3.3793e-06	1357.9	363.46	3.5903e-06	4.0985e-06	414.5	138.73	120.5	41.505	8.0025e-06	51.487	0.00047467	0.00044952	0.00013955	1354	5.2286e-06	4.9392e-06	1362.5	365.1	5.2013e-06	5.0131e-06	418.29	139.36	119.5	41.151	5.727e-06	51.74	-11.761	36.213	81.100	-67.199	96.466	196.984	-67.259	-62.452	79.298	114.536	-62.956	-58.381	-57.644	-53.556	144.718	-54.171	-8191	255	
1166.958	1	1	0	0	0.083016	0.2154	0.27812	0.22428	0.38634	0.018418	0.22514	0.22523	0.10588	0.093362	0.28238	0.12549	0.061697	0.1965	0.14746	0.17874	-3.5438	-4.2667	-4.0687	-4.1979	-4.15	-3.7979	-4.4854	-4.4354	-3.5833	-4.1521	-4.2292	-4.1062	-4.3729	-3.9771	-3.9417	-4.3438	37.316	252.645	-15.812	252.966	44.150	-53.012	208.595	153.343	157.868	5.965	187.356	227.681	116.056	208.483	153.610	199.674	0.00018099	0.00036609	2.6405e-05	1356.7	4.1952e-06	5.5332e-06	1361.1	363.37	5.4315e-06	3.4576e-06	416.86	138.81	121.05	41.474	7.8832e-06	51.677	0.0004693	0.00047105	0.00014574	1352.2	5.158e-06	5.1931e-06	1364.8	363.95	5.0754e-06	5.298e-06	419.61	138.87	119.07	41.655	5.8094e-06	51.678	233.424	41.699	41.727	-67.194	-34.504	128.639	-67.060	-62.298	28.476	172.049	-63.136	-58.453	-57.841	-53.482	-34.889	-54.355	-8191	255	
1167.079	1	1	0	0	0.098902	0.20582	0.25352	0.14363	0.1104	0.10826	0.073425	0.29832	0.098049	0.018643	0.10904	0.249	0.1224	0.095406	0.22142	0.29895	-3.3812	-4.3396	-4.0979	-3.8583	-4.1792	-3.9646	-4.3688	-4.4688	-3.7729	-4.3375	-4.1833	-4.1042	-4.4125	-3.9646	-4.2	-4.4	62.588	139.028	94.269	238.270	27.847	186.173	253.096	242.236	251.526	-1.726	251.918	256.562	276.619	240.434	-9.230	232.685	0.00021005	0.00054275	0.00015751	1357.2	1.1247e-06	4.1728e-06	1356.4	363.23	2.9271e-06	5.9203e-06	417.91	138.4	120.38	41.722	6.1945e-06	51.456	0.00046019	0.0005016	0.00014593	1349.9	5.0387e-06	5.5176e-06	1361	362.53	4.9849e-06	5.5714e-06	417.8	138.24	118.45	42.026	5.5469e-06	51.172	277.924	11.078	278.146	-67.069	32.991	167.299	-67.289	-62.433	111.828	115.877	-63.110	-58.295	-57.687	-53.324	-7.228	-54.591	-8191	255	
1167.175	1	1	0	0	0.023754	0.23207	0.19158	0.22176	0.06154	0.1728	0.17703	0.12718	0.2766	0.18361	0.256	0.081674	0.18948	0.23603	0.29253	0.30988	-3.4375	-4.1979	-4.2542	-4.1542	-4.3438	-3.9042	-4.2708	-4.5604	-3.6667	-4.1979	-4.5292	-4.05	-4.3542	-4.0479	-4.1771	-4.7	217.389	48.753	-47.668	277.545	210.230	99.741	149.435	223.146	268.362	-18.331	234.709	-43.214	225.276	226.090	29.869	218.072	0.00047992	0.00023583	0.00022711	1355.6	4.7587e-06	7.0161e-06	1358.9	363.04	6.8287e-06	3.4582e-06	418.79	138.52	120.58	41.727	2.3829e-06	51.663	0.00045214	0.00051569	0.00014004	1342.6	5.0207e-06	5.6865e-06	1357.4	361.47	5.0758e-06	5.7816e-06	415.94	137.62	119.53	42.388	5.4801e-06	51.098	258.438	51.756	279.331	-67.091	172.038	142.711	-67.143	-62.378	238.995	27.535	-62.812	-58.422	-57.916	-53.563	83.209	-54.608	-8191	255	
1167.271	1	1	0	0	0.03525	0.062578	0.053797	0.14194	0.03453	0.21851	0.088894	0.19928	0.19028	0.018134	0.07074	0.18463	0.11257	0.087178	0.18994	0.10334	-3.5646	-4.1354	-4.1604	-3.925	-4.2521	-4.0854	-4.2396	-4.5083	-3.8812	-4.3292	-4.4167	-4.0396	-4.2104	-4.4625	-4.0271	-4.3771	29.041	69.753	117.058	-24.684	267.093	-49.817	-79.841	270.599	6.490	249.281	62.414	226.851	222.474	-34.219	206.664	250.841	0.00062623	9.9067e-05	0.00016087	1355.9	4.3633e-06	1.0425e-05	1360.9	363.84	9.1494e-06	6.0173e-06	415.41	138.5	120.33	41.647	4.6584e-06	51.543	0.00048228	0.00053919	0.00014048	1345.4	5.4368e-06	5.9491e-06	1359.3	361.71	5.5154e-06	5.9784e-06	416.08	137.73	121.74	42.652	5.5266e-06	51.06	-64.774	239.973	248.844	-67.249	181.178	-21.365	-67.062	-62.470	211.335	31.339	-62.909	-58.271	-58.058	-53.650	-1.518	-54.435	-8191	255	
1167.367	1	1	0	0	0.015041	0.088429	0.16257	0.090727	0.079808	0.09897	0.097301	0.31938	0.11105	0.13288	0.22364	0.26817	0.26853	0.27001	0.22289	0.063565	-3.6937	-4.2063	-4.2188	-4.025	-4.4292	-4.1854	-4.025	-4.4146	-4.2208	-4.1833	-4.2354	-3.8625	-4.4021	-4.2604	-3.9167	-4.4021	167.566	232.173	32.435	179.477	190.175	120.683	32.194	227.766	-48.976	143.586	181.459	243.973	243.845	252.323	7.654	-45.624	0.00062489	0.00023829	0.00012691	1356	1.0205e-06	4.1562e-06	1361.2	364.05	5.7896e-06	5.9885e-06	415.49	138.58	120.52	41.687	4.8931e-06	51.776	0.00052057	0.00054257	0.00014029	1343.8	5.8255e-06	5.8957e-06	1358	361.54	5.8377e-06	5.8751e-06	415.58	137.74	123.09	42.4	5.4254e-06	51.163	-80.072	-13.057	259.867	-67.219	66.266	-14.574	-67.177	-62.277	167.016	17.510	-62.942	-58.480	-57.921	-53.679	10.244	-54.355	-8191	255	
1167.461	1	1	0	0	0.1031	0.28459	0.093313	0.15265	0.087382	0.084614	0.24191	0.038158	0.031982	0.1672	0.14063	0.10263	0.092172	0.2867	0.13727	0.13563	-3.7396	-3.8854	-4.3833	-4.0458	-4.2896	-4.0083	-4.0167	-4.4875	-4.1771	-3.9354	-4.3063	-3.9521	-4.1667	-4.0875	-3.9	-4.575	40.071	141.739	-76.241	156.142	143.178	143.659	174.195	-3.930	-60.333	248.011	275.710	217.465	-3.438	269.122	242.413	-75.127	0.00055134	0.00065718	0.00011305	1356.8	3.07e-06	1.7723e-06	1357.3	364.14	3.7394e-06	6.3695e-06	417.67	138.3	120.59	41.812	4.7157e-06	51.371	0.00054191	0.00052963	0.00013737	1346.2	6.0329e-06	5.7613e-06	1353.2	363.15	6.0464e-06	5.7421e-06	414.04	138.76	124.16	42.345	5.3164e-06	51.837	266.141	248.041	189.025	-67.075	1.450	-49.912	-67.203	-62.282	136.936	24.215	-62.874	-58.555	-57.684	-53.709	-49.734	-54.608	-8191	255	
1167.558	1	1	0	0	0.074129	0.13419	0.15862	0.036366	0.13986	0.29556	0.12081	0.21654	0.13638	0.13034	0.11783	0.19866	0.11878	0.14567	0.077988	0.097447	-3.6958	-3.8208	-4.2833	-3.8792	-4.2458	-4.4354	-4.0667	-4.2625	-4.0771	-4.1312	-4.475	-4.0229	-4.0729	-4.2479	-3.8187	-4.4646	-19.781	130.405	126.070	163.816	71.858	-61.844	140.467	242.366	70.754	54.669	-58.715	197.908	221.023	-45.693	-44.995	233.745	0.00016135	0.000728	0.00010086	1358.6	1.831e-06	4.3918e-06	1360.3	362.54	1.0297e-06	3.9344e-06	417.11	138.58	121.09	41.572	4.3811e-06	51.44	0.0005592	0.00052376	0.00013583	1360	6.1536e-06	5.734e-06	1350.8	366.84	6.141e-06	5.6954e-06	413.7	140.87	124.14	42.263	5.2665e-06	52.687	273.187	-51.718	21.047	-67.043	65.098	38.072	-67.113	-62.219	123.083	-36.317	-63.148	-58.253	-58.026	-53.537	24.194	-54.209	-8191	255	
1167.678	1	1	0	0	0.20248	0.118	0.21402	0.14084	0.043917	0.031679	0.23402	0.27027	0.16047	0.031935	0.33249	0.14952	0.1207	0.4059	0.19951	0.16077	-3.8625	-3.9208	-4.3167	-3.9771	-4.1312	-4.475	-4.0188	-4.3667	-4.0437	-3.9833	-4.5104	-3.9958	-4.0354	-4.3667	-3.9979	-4.4604	-54.820	150.158	175.799	-80.447	19.827	-56.691	193.744	254.002	-59.512	-68.310	224.396	145.550	-47.065	272.410	-67.177	14.299	0.00027003	0.00027762	7.2349e-05	1356.4	5.7435e-06	7.6166e-06	1362.5	363.22	3.8753e-06	5.7024e-06	416.38	138.29	121.38	41.785	4.7194e-06	51.792	0.00055544	0.00051923	0.00013481	1369.5	6.0624e-06	5.6946e-06	1352.1	370.61	6.0595e-06	5.6383e-06	414.06	142.27	123.63	42.125	5.3263e-06	53.096	19.157	223.986	-47.907	-67.343	-76.354	6.245	-67.350	-62.482	9.618	-52.668	-62.952	-58.489	-57.953	-53.618	110.861	-54.332	-8191	255	
1167.774	1	1	0	0	0.24946	0.14104	0.254	0.072611	0.053	0.162	0.084981	0.13884	0.19077	0.096479	0.13494	0.11172	0.19125	0.17783	0.02023	0.28346	-3.9313	-3.6333	-4.2083	-4.0708	-4.0021	-4.4542	-4.0917	-4.4521	-4.3917	-3.75	-4.3292	-4.2042	-4.0062	-4.4729	-3.85	-4.0083	169.481	140.876	-65.173	277.477	217.207	238.292	87.693	-78.606	244.110	180.580	-78.009	270.755	225.441	-10.447	-26.655	260.622	0.00022344	0.00059737	1.846e-05	1358.1	3.9844e-06	2.0623e-06	1362.7	363.9	2.8048e-06	8.7165e-06	416.18	138.44	121.03	41.704	9.2008e-06	51.881	0.00054303	0.00050377	0.00013716	1375.8	5.8703e-06	5.4815e-06	1358.1	371.07	5.8421e-06	5.4378e-06	416.86	142.39	122.62	41.783	5.5755e-06	53.266	259.656	252.160	240.293	-67.122	-70.426	-24.730	-67.131	-62.378	112.281	-11.794	-63.223	-58.498	-57.816	-53.798	126.560	-54.098	-8191	255	
1167.870	1	1	0	0	0.05998	0.26484	0.064788	0.23038	0.25129	0.13336	0.29624	0.15647	0.043481	0.15895	0.16576	0.080576	0.033876	0.18408	0.10201	0.089238	-3.9771	-3.7708	-4.2354	-4.3167	-3.8458	-4.2438	-4.075	-4.0875	-4.0083	-3.8958	-4.2917	-4.2104	-3.9729	-4.4729	-3.9083	-3.9958	194.373	262.769	116.711	216.230	-4.480	-63.608	221.864	271.063	90.538	132.258	210.747	225.145	46.375	186.260	244.458	184.907	0.0002562	0.00040754	0.00020132	1355.5	5.2398e-06	4.4551e-06	1355.1	365.04	6.1507e-06	4.2042e-06	416.35	139.14	121.02	41.707	5.5911e-06	51.868	0.00052909	0.00048739	0.00014422	1374.4	5.7525e-06	5.3571e-06	1363.8	370.65	5.7236e-06	5.258e-06	420	141.95	121.57	41.559	5.81e-06	52.781	-22.995	248.680	72.052	-67.272	44.140	-44.720	-67.266	-62.334	84.912	36.101	-63.101	-58.020	-57.636	-53.717	144.947	-54.366	-8191	255	
1167.942	1	1	0	0	0.091581	0.19706	0.13483	0.20179	0.12314	0.13701	0.19303	0.1854	0.22171	0.23461	0.17211	0.20141	0.10478	0.23424	0.11598	0.18892	-3.8958	-3.7729	-4.2271	-4.3833	-4	-4.2417	-4.0104	-4.0833	-4.2896	-3.7812	-4.3083	-4.1104	-3.8625	-4.3688	-4.0229	-4.0188	-63.975	190.060	-11.504	193.742	266.587	86.878	216.824	169.752	-36.563	274.643	208.703	-32.703	264.390	245.305	37.909	196.153	0.00024207	0.00025186	5.7365e-05	1357.5	1.4713e-06	4.164e-06	1355.9	364.05	5.1478e-06	5.974e-06	415.5	138.47	120.92	41.376	1.6572e-06	51.758	0.00051047	0.00047513	0.00014952	1366.3	5.549e-06	5.2552e-06	1369.3	368.26	5.5247e-06	5.2487e-06	422.71	140.62	120.83	41.651	5.9446e-06	52.284	-29.244	212.167	97.525	-67.327	-5.190	108.429	-67.069	-62.350	14.940	49.941	-62.787	-58.447	-58.217	-53.586	-67.937	-54.149	-8191	255	
1168.038	1	1	0	0	0.04445	0.046264	0.22989	0.029713	0.26588	0.055798	0.55492	0.1174	0.24238	0.21784	0.22873	0.13033	0.11905	0.035807	0.18761	0.19845	-4.0604	-3.7854	-4.0458	-4.1937	-3.8604	-4.4187	-4.2354	-4.0375	-4.2438	-3.7521	-4.4229	-4.4146	-3.9771	-4.4479	-3.9708	-4.0771	198.816	203.913	265.635	-27.759	265.031	245.177	224.131	278.141	88.597	-26.778	-71.921	-58.369	168.511	271.515	-3.992	187.440	1.8836e-05	0.0001885	6.4824e-05	1358.6	8.145e-06	7.2001e-06	1360.3	363.79	4.8766e-06	5.5481e-06	416.7	139.69	120.94	41.659	5.5697e-06	51.872	0.00049447	0.00048677	0.00015241	1361.6	5.334e-06	5.4226e-06	1372.5	366.1	5.3141e-06	5.4402e-06	423.09	140.17	119.72	41.981	5.933e-06	51.902	-31.697	137.688	29.499	-67.130	-59.974	142.262	-67.150	-62.393	18.493	187.628	-63.019	-58.341	-58.060	-53.533	-10.994	-54.313	-8191	255	
1168.159	1	1	0	0	0.11251	0.18571	0.072732	0.16038	0.15107	0.15151	0.44451	0.090479	0.19845	0.12166	0.23861	0.099149	0.2937	0.073851	0.10653	0.1518	-3.9729	-3.7104	-4.1625	-4.6188	-3.9354	-4.1625	-4.2812	-4.1083	-4.3729	-3.6875	-4.3063	-4.4125	-4.0417	-4.2937	-4.1146	-3.9604	190.292	51.620	103.496	219.709	237.534	192.137	264.453	251.290	196.428	10.745	-67.893	-0.495	208.911	258.110	103.493	279.533	0.00024139	0.00057611	0.00015735	1352.4	7.1262e-06	9.1965e-06	1360	364.82	1.8447e-06	3.76e-06	417.48	139.18	120.7	41.857	1.3679e-06	51.776	0.00047691	0.0005093	0.0001498	1356.6	5.1554e-06	5.7043e-06	1369.2	365.53	5.2037e-06	5.7423e-06	421.21	139.53	119.28	42.461	5.7889e-06	51.739	-52.884	86.233	-44.569	-67.094	-56.240	112.432	-67.119	-62.389	-13.025	171.627	-63.049	-58.427	-57.919	-53.376	30.187	-54.092	-8191	255	
1168.255	1	1	0	0	0.12982	0.13523	0.12718	0.36389	0.18775	0.051578	0.37652	0.30254	0.17868	0.10688	0.23547	0.1002	0.072131	0.18327	0.10138	0.15474	-4.2167	-3.9604	-4.0625	-4.5312	-3.9479	-4.1792	-4.1396	-3.8563	-4.4229	-4.0083	-4.0604	-4.2937	-4.0458	-4.3167	-4.0188	-3.8667	-45.262	25.446	216.730	237.156	34.614	250.558	226.209	271.124	143.097	-7.852	273.081	202.786	35.486	-19.862	0.676	249.805	0.00035532	0.00045657	0.0001358	1353	2.831e-06	7.5076e-06	1357.8	365.27	3.2959e-06	3.8785e-06	417.52	138.36	120.17	41.534	4.1384e-06	51.798	0.00047513	0.00053294	0.00014587	1351.9	5.1789e-06	5.9137e-06	1363.3	363.26	5.2352e-06	5.88e-06	417.93	138.42	119.61	42.551	5.5955e-06	51.169	255.362	95.311	269.584	-67.270	84.427	127.648	-67.061	-62.156	211.322	82.406	-62.802	-58.275	-57.744	-53.461	-78.782	-54.271	-8191	255	
1168.351	1	1	0	0	0.098529	0.053514	0.19153	0.24019	0.17316	0.015033	0.21727	0.27256	0.23076	0.15719	0.31075	0.17167	0.16866	0.15988	0.29007	0.096967	-3.9646	-4.0604	-3.9896	-4.3833	-3.5583	-4.3375	-4.4667	-4.0521	-4.1292	-4.0021	-4.0875	-4.3917	-3.9104	-4.0875	-4.1062	-3.75	189.120	210.242	35.393	162.317	209.266	-74.639	235.354	233.847	-3.372	192.679	-27.572	-49.449	-66.072	247.091	-17.691	-72.845	0.00053557	0.00046695	0.00014297	1356.2	1.2486e-05	2.381e-07	1355.2	363.07	4.1394e-06	1.3637e-06	416.06	138.91	120.87	41.66	3.2473e-06	51.644	0.00048827	0.00054164	0.00014063	1347	5.3624e-06	5.9309e-06	1357.9	361.09	5.4679e-06	5.8941e-06	415.86	137.72	121.19	42.618	5.4702e-06	50.876	274.440	271.708	248.442	-67.199	156.580	109.134	-67.063	-62.322	115.373	6.418	-63.088	-58.311	-57.857	-53.682	-59.690	-54.452	-8191	255	
1168.470	1	1	0	0	0.24347	0.07591	0.13099	0.31149	0.091933	0.24867	0.46502	0.061487	0.24917	0.26003	0.089443	0.3122	0.24098	0.095098	0.27323	0.053296	-4.0062	-4.25	-4.1188	-4.5563	-3.8146	-3.8396	-4.4479	-3.9062	-4.2167	-3.9729	-3.8958	-4.425	-4.0021	-4.1646	-4.4729	-4.0167	-20.997	193.893	-47.101	220.029	170.723	258.279	241.907	250.424	97.083	45.614	166.161	270.236	-44.727	-16.674	233.755	138.226	0.00054071	0.00032514	7.5355e-05	1354.7	7.6639e-06	3.5356e-06	1360.5	362.29	1.1793e-06	5.0119e-06	418.21	138.42	120.78	41.808	4.2895e-06	51.527	0.00051535	0.00053465	0.00013812	1342.9	5.7058e-06	5.8563e-06	1358.4	360.87	5.8407e-06	5.8668e-06	415.58	137.57	123	42.476	5.4284e-06	51.026	-62.429	250.836	-58.774	-67.030	148.051	91.765	-67.171	-62.444	141.220	5.109	-62.975	-58.426	-57.777	-54.006	-63.328	-54.539	-8191	255	
1168.542	1	1	0	0	0.27101	0.13932	0.22332	0.072992	0.24724	0.093088	0.20035	0.17213	0.22294	0.073742	0.078816	0.14172	0.13611	0.15332	0.17784	0.20685	-3.925	-3.9396	-3.8104	-4.4104	-3.9896	-3.9646	-4.3042	-3.9688	-4.2646	-4.2542	-3.9042	-4.4042	-4.1229	-4.1583	-4.3958	-3.9188	-52.648	-16.862	-15.328	272.204	81.701	138.392	158.585	174.298	177.925	-56.523	-42.996	124.053	-44.962	185.736	86.458	189.001	0.00032007	0.00031917	0.00018915	1355.2	4.486e-06	5.3223e-06	1358.6	362.22	4.658e-06	4.5898e-06	418.41	138.05	120.66	41.619	4.8005e-06	51.371	0.00054192	0.00053012	0.00013587	1346.3	5.9643e-06	5.7288e-06	1351.9	362.05	6.0268e-06	5.698e-06	413.33	138.46	123.4	42.221	5.2695e-06	51.545	255.191	-71.778	269.120	-67.192	81.590	17.007	-67.142	-62.177	222.108	11.309	-62.917	-58.373	-57.800	-53.630	264.016	-54.349	-8191	255	
1168.638	1	1	0	0	0.1175	0.20148	0.044695	0.20455	0.32483	0.14554	0.21817	0.18277	0.091319	0.11137	0.039972	0.063201	0.028948	0.10687	0.11962	0.19306	-3.7375	-4.2188	-3.7833	-4.4938	-4.0312	-4.0938	-4.6521	-3.8563	-4.2688	-4.3063	-3.8375	-4.4812	-3.9562	-4.0312	-4.4208	-3.9917	91.474	-2.819	148.620	255.558	-79.017	-68.182	156.302	-65.700	57.254	82.462	200.340	218.003	60.037	251.999	230.120	230.904	0.00011057	0.00011486	0.00015686	1355.6	3.7875e-06	2.2442e-06	1361.4	362	4.2994e-06	6.4753e-06	418.66	138.13	121.03	41.554	1.3967e-06	51.441	0.00055271	0.00051578	0.00013207	1355.1	5.9923e-06	5.5975e-06	1347.7	364.7	6.0106e-06	5.5819e-06	410.92	140.19	123.27	41.923	5.1294e-06	52.165	223.123	56.317	254.401	-67.109	-35.131	-77.291	-67.185	-62.266	23.412	57.563	-62.816	-58.408	-57.862	-53.812	66.152	-54.640	-8191	255	
1168.759	1	1	0	0	0.1938	0.30149	0.16066	0.34444	0.1419	0.36613	0.15028	0.20773	0.045935	0.10004	0.062482	0.066403	0.082422	0.26277	0.066255	0.18685	-3.5667	-4.2188	-3.7083	-4.2396	-4.0146	-4.1042	-4.4833	-3.9792	-4.1583	-4.1813	-4.0167	-4.5146	-4.0833	-3.7812	-4.4417	-4.1146	226.518	-52.320	29.374	209.249	250.367	167.964	-67.984	163.600	-66.062	100.434	150.765	228.281	99.513	157.285	255.503	132.390	0.00024398	0.00030395	0.00016897	1353.7	1.1838e-06	8.8315e-06	1357	363.41	4.1366e-06	4.6202e-06	417.98	138.44	120.27	41.72	6.9056e-06	51.745	0.00054066	0.00050725	0.0001298	1362.2	5.9201e-06	5.5156e-06	1345.1	367.75	5.9039e-06	5.4899e-06	411.51	141.56	122.62	41.821	5.2109e-06	52.723	31.018	205.665	253.586	-67.133	-47.453	-13.118	-67.145	-62.361	14.819	31.188	-63.199	-58.150	-57.822	-53.999	190.582	-54.357	-8191	255	
1168.855	1	1	0	0	0.19866	0.076309	0.10893	0.052403	0.21025	0.051726	0.092609	0.12637	0.094286	0.11167	0.27857	0.070985	0.089528	0.18615	0.18795	0.21019	-3.6562	-4.2771	-4.0354	-4.2896	-4.2188	-3.7188	-4.4792	-4.2083	-4.0958	-4.2063	-3.9375	-4.3396	-4.3896	-3.7396	-4.2375	-4.2458	87.784	123.660	22.428	163.552	-67.346	226.726	268.486	278.373	198.096	66.954	123.212	275.935	-53.213	-56.568	160.788	100.979	0.00031186	0.0006233	0.00011388	1354.8	5.3543e-06	5.9786e-06	1356	362.46	4.8964e-06	7.3646e-06	415.16	138.66	120.87	41.565	9.6445e-06	51.7	0.00052964	0.00049466	0.00013221	1369.4	5.7457e-06	5.3477e-06	1350.1	369.7	5.7011e-06	5.3321e-06	414.58	141.9	121.7	41.517	5.4272e-06	52.724	-16.061	256.315	17.248	-67.197	-0.132	2.175	-67.215	-62.445	-10.283	36.871	-62.927	-57.977	-57.953	-53.648	133.245	-54.103	-8191	255	
1168.951	1	1	0	0	0.04559	0.19952	0.1592	0.032274	0.091187	0.22262	0.052189	0.066602	0.19187	0.20835	0.075595	0.40095	0.098213	0.23028	0.059083	0.024068	-3.5667	-4.1854	-3.8063	-4.4146	-4.2521	-3.7687	-4.5	-4.2896	-3.9271	-4.3021	-4.1354	-4.1396	-4.2083	-3.9875	-4.3479	-4.0563	114.660	135.624	137.633	217.192	84.603	257.886	147.530	-3.122	97.245	28.456	84.385	201.119	114.612	18.609	251.635	-51.149	5.2541e-05	0.00049772	0.0002527	1360	3.0917e-06	1.8872e-06	1356	364.18	3.5324e-06	3.2803e-06	416.39	139.11	120.78	41.679	4.5456e-06	51.862	0.00051133	0.00047818	0.00013811	1369.5	5.5947e-06	5.1513e-06	1358.2	368.71	5.554e-06	5.1505e-06	417.86	141.27	121.15	41.336	5.7195e-06	52.544	1.780	235.739	56.444	-67.249	-43.494	93.888	-67.154	-62.403	-23.255	21.500	-62.899	-58.124	-58.109	-53.382	176.765	-54.090	-8191	255	
1169.071	1	1	0	0	0.053198	0.10805	0.26075	0.051	0.16665	0.15066	0.09876	0.24402	0.13237	0.0741	0.1347	0.055499	0.22104	0.12465	0.085946	0.060844	-3.65	-4.4938	-4.0604	-4.25	-4.1958	-3.9792	-4.4646	-4.3021	-3.7917	-4.4729	-4.1188	-4.2625	-4.2417	-3.9667	-4.5083	-4.2167	73.864	200.872	180.419	161.836	37.747	220.897	238.349	233.639	-1.602	172.403	47.367	174.139	-71.361	257.803	240.265	215.794	0.00017486	0.00039892	0.00013988	1357.7	3.282e-06	3.2784e-06	1354.5	363.36	7.9725e-06	2.7554e-06	417.93	138.16	120.76	41.53	1.9868e-06	51.822	0.00050031	0.00047087	0.00014539	1361.7	5.4295e-06	5.0581e-06	1363.2	366.43	5.3374e-06	5.0895e-06	419.72	139.8	120.01	41.238	5.8063e-06	52.011	-17.632	123.109	115.607	-67.036	-17.508	1.099	-67.294	-62.374	-37.495	244.359	-62.993	-58.542	-57.728	-53.658	-80.004	-54.125	-8191	255	
1169.168	1	1	0	0	0.027696	0.17477	0.06415	0.2272	0.021714	0.21304	0.22011	0.26136	0.02205	0.25616	0.17776	0.4067	0.19046	0.091743	0.089579	0.11192	-3.4229	-4.325	-3.9813	-4.0958	-4.3917	-4.0396	-4.3979	-4.2729	-3.8979	-4.3667	-4.2229	-4.0958	-4.625	-4.0083	-4.0563	-4.2979	236.833	215.410	181.488	12.962	173.474	243.954	243.417	248.270	213.735	102.895	-37.486	-51.877	268.224	242.659	196.766	218.915	4.6253e-05	0.00059425	7.3132e-05	1356.6	4.5674e-06	9.6993e-06	1355.9	364.67	1.1198e-06	7.1778e-06	417.09	139.12	120.45	41.469	3.0035e-06	51.781	0.00047867	0.00047459	0.00014772	1356.6	5.2746e-06	5.2574e-06	1366.6	365.43	5.2208e-06	5.3672e-06	421.12	139.53	119.31	41.756	5.8612e-06	51.842	35.500	84.231	205.611	-67.171	34.944	174.676	-67.102	-62.500	46.680	172.949	-62.910	-58.432	-57.621	-53.528	-25.478	-54.129	-8191	255	
1169.239	1	1	0	0	0.25374	0.20455	0.20631	0.20242	0.10346	0.060578	0.25484	0.086296	0.19414	0.17921	0.17275	0.16089	0.018518	0.090609	0.1533	0.11821	-3.55	-4.525	-4.1021	-3.9229	-4.1687	-4.0958	-4.1979	-4.1354	-3.8583	-4.2562	-4.3854	-4.0854	-4.5146	-3.9833	-4.2771	-4.5833	249.954	-58.749	272.635	228.835	48.019	216.741	249.112	89.585	165.174	-10.927	-40.097	152.875	139.878	208.516	200.987	64.175	9.617e-05	0.0005736	0.00019889	1357	2.9649e-06	4.1616e-06	1360.6	362.87	4.6595e-06	1.2189e-06	417.56	138.98	120.52	41.636	1.6331e-06	51.628	0.00046654	0.00050189	0.00014754	1353.4	5.105e-06	5.5198e-06	1365.9	363.58	5.0256e-06	5.6073e-06	418.84	138.62	118.76	42.078	5.6452e-06	51.335	-14.578	63.017	-58.701	-67.169	-71.037	191.017	-67.054	-62.238	5.351	206.960	-63.158	-58.463	-57.710	-53.502	-31.368	-54.283	-8191	255	
1169.335	1	1	0	0	0.28488	0.33201	0.14083	0.15136	0.09081	0.019741	0.17627	0.231	0.067324	0.033587	0.010895	0.014189	0.13286	0.061371	0.23073	0.13058	-3.6854	-4.2125	-3.9562	-4.1354	-4.4688	-4.0146	-4.4167	-4.3854	-3.6229	-4.1937	-4.3708	-4.1354	-4.4896	-4.0417	-3.8792	-4.5667	63.094	79.943	65.533	28.313	66.438	128.162	198.714	96.872	141.255	172.122	171.209	-72.499	10.224	218.051	234.258	205.113	0.00033493	0.00027743	3.5929e-05	1357.9	3.2185e-06	1.8338e-06	1356.8	363.72	5.9534e-06	3.5861e-06	417.43	138.73	120.3	41.647	6.9546e-06	51.684	0.00045725	0.00052015	0.00014152	1345.8	5.0325e-06	5.6891e-06	1357.4	361.72	5.0597e-06	5.779e-06	416.3	137.8	119.25	42.377	5.4903e-06	51.044	265.706	74.097	194.426	-67.143	141.919	127.720	-67.169	-62.387	218.389	140.199	-63.142	-58.414	-57.659	-53.658	27.475	-54.463	-8191	255	
1169.454	1	1	0	0	0.029153	0.054817	0.31346	0.07501	0.15767	0.052843	0.30606	0.13612	0.20865	0.057496	0.083731	0.16094	0.17879	0.025271	0.080931	0.14808	-3.5417	-4.0479	-4.2104	-3.9396	-4.2875	-4.1333	-4.3021	-4.4854	-3.8	-4.2812	-4.5104	-3.9479	-4.2604	-4.1875	-4.025	-4.2958	-72.593	163.500	52.523	244.066	176.834	161.583	267.200	205.856	2.753	15.881	148.230	-45.849	162.218	47.586	51.932	117.205	0.00049189	0.00020594	2.2248e-05	1355.9	2.4261e-06	1.7535e-06	1355.3	363.19	1.0455e-05	7.8492e-06	417.76	138.8	120.46	41.645	4.2257e-06	51.652	0.00047293	0.00053511	0.00013916	1342.6	5.3396e-06	5.831e-06	1354.2	360.79	5.4027e-06	5.8695e-06	415.34	137.11	120.85	42.416	5.4058e-06	50.812	260.893	125.202	203.606	-67.230	149.218	-20.137	-67.153	-62.469	201.571	2.482	-63.060	-58.402	-57.719	-53.482	8.581	-54.473	-8191	255	
1169.550	1	1	0	0	0.048682	0.15364	0.071232	0.15819	0.22531	0.10779	0.21509	0.11379	0.1804	0.16609	0.032292	0.15811	0.068036	0.13103	0.044029	0.18619	-3.4875	-4.2167	-4.2896	-3.9542	-4.2958	-3.9437	-4.2229	-4.6	-3.9854	-3.9625	-4.2375	-3.8375	-4.2146	-4.2125	-3.8625	-4.1646	6.915	125.999	-69.126	210.708	240.820	88.877	190.940	256.739	75.559	208.776	-60.416	86.567	-50.558	107.645	53.436	219.541	0.00064548	0.00058422	0.0001617	1354.1	2.7097e-06	7.5467e-06	1359.3	363.95	4.532e-06	7.6352e-06	417.63	138.22	121.15	41.637	4.2244e-06	51.403	0.00050242	0.00053118	0.00013703	1337.9	5.6142e-06	5.7538e-06	1351.3	359.98	5.6549e-06	5.7206e-06	413.73	136.7	122.28	42.14	5.2793e-06	50.787	270.422	279.077	-58.143	-67.206	160.759	6.674	-67.092	-62.389	216.742	-7.759	-63.129	-58.367	-57.757	-53.688	-6.469	-54.466	-8191	255	
1169.647	1	1	0	0	0.13962	0.18888	0.085114	0.15763	0.041129	0.080972	0.18907	0.070483	0.1763	0.02311	0.048882	0.12918	0.22408	0.29518	0.12043	0.13188	-3.4708	-3.9979	-4.3688	-4.0542	-4.1958	-4.1729	-4.1188	-4.3625	-3.9875	-4.1708	-4.3667	-3.875	-4.3021	-4.1604	-3.8354	-4.4854	-29.826	-27.920	199.012	88.235	256.970	237.229	247.668	9.319	83.976	232.783	216.512	152.495	272.909	100.503	144.347	218.976	0.0007087	0.00076192	0.00013266	1352	4.078e-06	7.6403e-06	1355.6	363.6	1.0398e-06	7.3163e-06	417.19	138.11	120.6	41.797	3.5277e-06	51.282	0.00052546	0.00051675	0.00013472	1339.6	5.8469e-06	5.6223e-06	1347.3	361.31	5.8684e-06	5.5947e-06	411.46	137.7	122.99	42.006	5.1714e-06	51.331	276.186	273.536	-67.582	-67.045	20.210	4.334	-67.115	-62.389	144.567	9.791	-62.997	-58.374	-57.679	-53.561	-45.695	-54.292	-8191	255	
1169.743	1	1	0	0	0.044762	0.12412	0.25256	0.21554	0.1516	0.13691	0.21965	0.25573	0.02234	0.075523	0.10759	0.13684	0.27766	0.077277	0.21327	0.090177	-3.7687	-3.9625	-4.1708	-4.0375	-4.1396	-4.2958	-3.9	-4.2937	-3.9729	-3.9437	-4.4896	-3.9646	-4.3083	-4.5896	-3.9562	-4.2625	264.803	251.764	111.884	186.369	97.093	187.221	247.005	196.280	88.855	210.020	200.606	216.126	240.702	248.708	111.751	-61.822	0.00017254	3.4262e-05	0.00017014	1351	5.0463e-06	6.9028e-06	1354.2	362.69	4.4738e-06	2.5927e-06	415.84	137.81	120.39	41.675	2.0629e-06	51.6	0.00054112	0.00050742	0.00013066	1348.4	5.9116e-06	5.513e-06	1342.4	363.97	5.9074e-06	5.4904e-06	409.58	139.08	122.65	41.815	5.0091e-06	51.879	-75.416	137.806	-53.215	-67.029	224.935	12.432	-66.893	-62.379	27.007	267.717	-63.204	-58.272	-57.960	-53.686	-79.871	-54.424	-8191	255	
1169.839	1	1	0	0	0.15542	0.18154	0.26863	0.2757	0.10164	0.22018	0.13869	0.23604	0.26073	0.096067	0.2395	0.057689	0.095219	0.08181	0.10532	0.33953	-3.5396	-3.7854	-4.2167	-4.1604	-4.0625	-4.2979	-4.0333	-4.2542	-4.1167	-3.9896	-4.4542	-4.1896	-4.2375	-4.2896	-3.6354	-4.1854	-3.133	200.215	157.140	223.752	207.020	176.584	123.198	-76.527	213.009	-18.879	235.903	-74.209	177.667	198.930	171.473	217.903	0.00031191	0.00091894	8.0692e-05	1354.3	3.7088e-06	2.3338e-06	1356.2	362.89	3.0991e-06	4.6931e-06	415.42	137.87	120.02	41.597	4.8228e-06	51.596	0.00052705	0.00049262	0.00012669	1355.1	5.7096e-06	5.3395e-06	1338.5	365.73	5.6497e-06	5.2443e-06	408.1	139.91	121.4	41.38	4.9604e-06	52.188	-80.057	-73.034	-73.225	-67.124	8.070	-30.544	-67.199	-62.375	-13.015	-50.053	-63.155	-58.488	-57.749	-53.466	144.746	-54.549	-8191	255	
1169.935	1	1	0	0	0.13446	0.04427	0.066054	0.13743	0.15104	0.083486	0.24738	0.24875	0.055964	0.23099	0.12509	0.24647	0.22205	0.14964	0.11067	0.19493	-3.8917	-3.9458	-4.3063	-4.1062	-4.0958	-4.4062	-4.0042	-4.1271	-4.1042	-4.0479	-4.3875	-4.2688	-4.1188	-4.5	-3.9958	-4.1875	97.274	-5.273	76.425	216.292	269.743	198.751	220.313	239.080	95.985	-51.409	-41.704	232.405	115.719	254.019	14.746	-8.657	4.895e-05	0.00019248	6.0693e-05	1350.1	3.8948e-06	5.4808e-06	1356.9	364.39	6.8018e-06	8.9745e-06	415.44	138.44	121.21	41.526	7.7135e-06	51.554	0.00050867	0.00047641	0.00012868	1360.4	5.5643e-06	5.2333e-06	1343	368.04	5.5873e-06	5.1785e-06	411.83	140.96	121.27	41.349	5.2969e-06	52.57	233.080	218.237	184.026	-67.132	-16.023	16.826	-67.146	-62.429	19.601	-30.623	-63.071	-58.332	-57.700	-53.695	165.006	-54.145	-8191	255	
1170.031	1	1	0	0	0.25074	0.012838	0.17694	0.24935	0.30172	0.19967	0.14582	0.13474	0.13075	0.21824	0.1122	0.058102	0.16713	0.11518	0.11787	0.056405	-3.7396	-3.7833	-4.2792	-4.2812	-3.9958	-4.5125	-4.0375	-4.3375	-4.2063	-3.7729	-4.3979	-4.2583	-4.0271	-4.4542	-3.7979	-4.1333	109.702	73.983	-72.406	232.389	124.311	77.312	-2.210	228.290	259.867	251.426	85.855	215.138	-31.082	262.583	150.361	232.846	0.00026611	0.00050553	3.654e-05	1355	5.5819e-06	3.4315e-06	1351	363.35	4.4611e-06	4.8824e-06	415.19	138.56	120.61	41.667	8.6418e-07	51.753	0.00050677	0.00046928	0.00013753	1364.6	5.5288e-06	5.1476e-06	1353.5	367.89	5.5643e-06	5.12e-06	417.45	141	120.77	41.283	5.6259e-06	52.375	-1.893	253.742	45.871	-67.199	-26.100	5.382	-66.922	-62.482	46.646	-12.139	-63.032	-58.500	-57.822	-53.825	-43.498	-54.288	-8191	255	
1170.152	1	1	0	0	0.12162	0.056365	0.037622	0.16485	0.11941	0.14683	0.21532	0.18223	0.091156	0.1579	0.20066	0.14786	0.0488	0.17355	0.2392	0.020909	-3.9062	-3.7458	-4.1729	-3.9667	-3.8729	-4.5229	-4.2479	-4.2375	-4.2625	-3.7146	-4.2458	-4.1271	-4.0542	-4.3104	-4.0833	-4.2646	162.340	252.998	25.923	175.916	0.214	-78.425	180.019	-69.536	129.651	106.526	-75.455	232.223	77.033	273.656	211.826	230.211	0.00033187	0.00024879	8.5948e-05	1356.3	5.7431e-06	4.4153e-06	1355.6	362.55	1.9312e-06	2.3401e-06	418.19	138.25	120.42	41.54	1.8457e-06	51.697	0.00050143	0.00046369	0.00014577	1361.5	5.443e-06	5.1483e-06	1364.3	366.52	5.4791e-06	5.1717e-06	421.7	140.2	120.35	41.42	5.8477e-06	52.05	-77.495	-43.154	112.740	-67.158	-0.870	15.629	-67.123	-62.402	-73.770	150.602	-63.122	-58.352	-57.777	-53.642	100.398	-54.579	-8191	255	
1170.246	1	1	0	0	0.16098	0.12838	0.081832	0.16948	0.096261	0.25396	0.029514	0.21592	0.078433	0.089694	0.092164	0.27141	0.14868	0.25627	0.20026	0.069909	-4.0229	-3.8917	-4.1854	-4.5292	-3.7438	-4.3396	-4.1396	-4.0604	-4.0792	-3.9917	-4.3021	-4.3688	-3.7438	-4.4083	-3.8187	-3.8667	55.127	-39.157	31.837	200.319	-12.764	268.391	65.735	234.535	1.198	-70.180	269.695	247.504	199.523	168.431	38.214	-69.764	0.0001481	0.00059673	3.178e-05	1354.7	3.5774e-06	2.9204e-06	1355.8	362.98	5.7096e-06	3.7471e-06	416.48	138.79	120.87	41.563	1.4968e-06	51.503	0.00048731	0.00047462	0.00014921	1355.3	5.226e-06	5.2949e-06	1366.1	364.65	5.2459e-06	5.3214e-06	421.68	139.35	119.26	41.771	5.8566e-06	51.692	-14.305	79.030	62.299	-67.122	-23.597	217.180	-67.114	-62.486	18.874	187.367	-62.810	-58.395	-57.723	-53.405	138.546	-54.448	-8191	255	
1170.342	1	1	0	0	0.12932	0.13834	0.16815	0.14753	0.17809	0.064496	0.091362	0.11491	0.049627	0.056749	0.20498	0.041379	0.24183	0.12711	0.31401	0.12753	-3.8333	-3.7146	-4.0292	-4.425	-3.8875	-4.3417	-4.3417	-3.975	-4.2583	-3.7896	-4.2521	-4.2771	-4.0646	-4.3792	-4.0687	-3.8854	192.227	1.805	198.598	156.088	74.586	23.710	-37.274	206.554	-17.786	-17.856	198.142	14.774	-54.947	276.375	35.303	143.598	0.00018574	0.00068149	0.00010125	1354.9	3.029e-06	7.5413e-06	1357.9	362.58	4.0058e-06	3.3173e-06	417.14	138.25	120.49	41.466	5.7693e-06	51.592	0.00047303	0.00050271	0.00014896	1354.1	5.1163e-06	5.6548e-06	1366.6	364.11	5.1835e-06	5.6987e-06	421.47	139.25	119.34	42.438	5.8778e-06	51.805	-4.857	44.376	-41.497	-67.246	-20.438	185.451	-67.096	-62.296	43.316	151.695	-62.938	-58.385	-57.749	-53.427	-18.865	-54.314	-8191	255	
1170.440	1	1	0	0	0.076021	0.15537	0.20224	0.28087	0.056343	0.056291	0.21505	0.14843	0.18682	0.227	0.30372	0.32265	0.14293	0.09862	0.18969	0.23023	-4.1021	-4.075	-4.1958	-4.3479	-3.9125	-4.3375	-4.3187	-3.9396	-4.2	-3.8292	-4.0292	-4.5	-3.7708	-4.2812	-4.2292	-3.8312	92.818	221.200	255.817	-58.826	126.654	115.552	197.792	173.947	7.481	198.772	204.687	245.948	187.062	169.184	64.969	143.804	0.00015566	0.00061989	0.00013985	1350.6	5.1004e-06	5.155e-06	1360.7	363.78	1.1186e-06	2.9258e-06	416.67	138.39	120.17	41.326	6.6379e-06	51.819	0.00048251	0.00054318	0.00014967	1354.6	5.2671e-06	6.0369e-06	1366.3	364.37	5.3451e-06	6.0067e-06	419.87	138.66	119.93	42.667	5.6742e-06	51.403	-42.283	72.557	253.043	-67.040	144.213	145.805	-67.050	-62.563	150.002	142.596	-63.179	-58.349	-57.728	-53.554	37.359	-54.393	-8191	255	
1170.535	1	1	0	0	0.12564	0.14582	0.15113	0.33433	0.28159	0.28702	0.30726	0.067817	0.083819	0.10353	0.28947	0.25611	0.16861	0.16621	0.22192	0.25349	-4.0333	-4.0708	-3.8896	-4.4187	-3.9479	-4.3042	-4.2833	-4.0687	-4.1896	-4.1604	-4.1292	-4.4042	-4.0188	-4.2188	-4.2021	-3.9271	-43.295	-70.536	68.577	-46.493	5.402	230.307	234.479	259.043	136.928	207.797	254.386	274.456	-25.102	-54.515	265.329	277.479	0.00060221	0.00017086	0.0001904	1360.6	6.1488e-06	1.0401e-06	1358.5	362.94	5.117e-06	5.1132e-06	418.26	138.44	119.96	41.494	6.1837e-06	51.574	0.00049004	0.00054841	0.00014258	1347.6	5.3607e-06	5.975e-06	1359.2	361.09	5.4728e-06	5.9155e-06	416.39	137.52	120.7	42.499	5.4869e-06	50.911	265.014	-31.804	-36.400	-67.229	173.239	204.111	-66.984	-62.355	167.961	46.519	-62.905	-58.346	-57.724	-53.606	7.588	-54.126	-8191	255	
1170.631	1	1	0	0	0.15009	0.22536	0.25152	0.064397	0.14593	0.31162	0.13647	0.19304	0.10968	0.19663	0.0061692	0.17932	0.037047	0.20869	0.12075	0.13538	-3.8146	-3.9875	-3.9271	-4.5479	-3.8812	-4.3562	-4.5458	-4.0896	-4.3688	-4.3	-4.0625	-4.5188	-4.0312	-4.1062	-4.2875	-3.9437	-13.039	119.381	239.680	252.736	98.562	134.175	183.101	184.692	71.675	49.549	84.454	239.412	2.719	-32.456	85.763	223.596	0.0006712	0.00048612	3.4505e-05	1355.2	7.8355e-06	1.9285e-06	1356.3	363.34	6.1277e-06	3.596e-06	417.04	138.15	120.26	41.556	4.6158e-06	51.612	0.00051209	0.0005362	0.00013782	1341.6	5.6414e-06	5.8341e-06	1354.5	360.22	5.7404e-06	5.8061e-06	414.83	137.52	122.42	42.36	5.4209e-06	51.037	270.749	264.820	-33.603	-67.196	121.833	237.636	-67.131	-62.458	222.301	-18.068	-63.020	-58.079	-57.822	-53.537	117.047	-54.240	-8191	255	
1170.751	1	1	0	0	0.18799	0.066278	0.25969	0.21369	0.085211	0.13241	0.14496	0.18642	0.1186	0.21683	0.18434	0.19938	0.18312	0.23219	0.062839	0.093835	-3.8187	-4.1292	-3.8604	-4.4625	-3.9396	-3.9917	-4.3688	-4.2	-4.2167	-4.1354	-3.9313	-4.2708	-3.9354	-3.8917	-4.2833	-3.7271	263.138	274.105	-51.182	-57.107	67.275	73.968	-75.655	265.922	63.843	171.458	268.930	-42.337	254.945	223.060	44.154	66.560	0.00064677	0.00039673	5.7444e-05	1353.1	3.2756e-07	4.4682e-06	1358.9	363.08	4.1887e-06	5.9164e-06	417.8	138.02	120.72	41.77	4.4465e-06	51.529	0.00054138	0.00052977	0.0001365	1344.5	5.9175e-06	5.7362e-06	1351.3	361.43	5.965e-06	5.6719e-06	412.17	137.86	123.19	42.123	5.2262e-06	51.244	261.369	-65.021	219.964	-66.862	-79.368	-24.728	-66.974	-62.341	-58.482	-3.727	-63.026	-58.331	-57.764	-53.781	-7.639	-54.595	-8191	255	
1170.848	1	1	0	0	0.31437	0.023298	0.19707	0.18214	0.22316	0.14998	0.27789	0.32668	0.29487	0.1239	0.20009	0.17826	0.073124	0.15637	0.25986	0.13872	-3.7854	-4.1583	-3.5979	-4.4896	-4.1229	-3.9479	-4.6937	-4.1375	-4.1813	-4.1604	-3.9917	-4.3438	-4.0062	-3.9938	-4.3042	-3.925	277.060	4.437	220.267	237.923	117.764	52.516	166.048	243.185	-55.429	244.653	-53.691	218.646	-0.231	187.518	59.594	234.437	0.00017657	0.00050698	0.00010647	1352.5	1.8155e-06	9.2808e-06	1356.5	362.96	3.605e-06	2.2404e-06	416	137.79	120.93	41.53	4.6772e-07	51.767	0.00054472	0.0005111	0.00013138	1349.1	5.9513e-06	5.5414e-06	1346.3	364.21	5.9635e-06	5.571e-06	410.39	139.37	123.09	41.876	5.0985e-06	52.033	268.126	-50.703	234.494	-67.066	197.591	-13.305	-67.226	-62.310	38.650	63.747	-62.788	-58.251	-57.843	-53.387	54.322	-54.635	-8191	255	
1170.944	1	1	0	0	0.057596	0.13256	0.04398	0.22937	0.19788	0.16788	0.075649	0.078265	0.087297	0.21492	0.078648	0.12159	0.16309	0.18767	0.23545	0.25535	-3.625	-4.2271	-3.9708	-4.4021	-4.1104	-3.9979	-4.6208	-3.95	-4.1937	-4.1521	-3.925	-4.4	-4.2958	-4.125	-4.3604	-3.9667	150.331	260.025	215.296	266.581	268.734	133.868	157.844	-65.974	39.761	64.388	214.639	-36.860	241.870	205.074	273.636	249.199	0.000127	0.00054082	6.62e-05	1356.7	7.4564e-06	1.0632e-05	1361.4	363.13	1.5035e-06	7.4692e-06	415.17	138.26	120.98	41.629	6.3779e-06	51.704	0.00053854	0.00050328	0.00012809	1361.2	5.8648e-06	5.4466e-06	1346.4	366.85	5.8376e-06	5.4551e-06	409.89	140.66	122.24	41.617	5.0774e-06	52.38	-5.713	-59.645	238.188	-67.053	-17.804	-8.859	-67.114	-62.373	31.198	-2.105	-62.926	-58.504	-57.785	-53.501	133.830	-54.194	-8191	255	
1171.040	1	1	0	0	0.071569	0.24548	0.14761	0.29774	0.25172	0.042361	0.17432	0.23178	0.27883	0.14081	0.18254	0.12781	0.13189	0.1339	0.041798	0.17033	-3.5438	-4.2833	-3.7625	-4.2417	-4.1854	-3.7812	-4.4583	-4.0062	-3.8396	-4.1896	-4.2438	-4.4104	-4.2833	-4.0333	-4.3583	-4.1062	25.664	-70.334	83.785	175.613	64.711	-13.453	156.731	-47.418	237.022	111.579	-72.795	157.694	163.025	189.332	123.985	198.727	0.00018077	0.00040739	6.9082e-05	1354.9	3.9385e-06	2.5512e-06	1357.6	362.67	3.7791e-06	1.035e-06	414.43	138.36	120.88	41.465	4.4059e-06	51.674	0.00051665	0.00048057	0.00012786	1362.2	5.5538e-06	5.1456e-06	1345	366.63	5.4817e-06	5.1365e-06	409.21	140.21	120.56	41.117	5.152e-06	52.212	-71.077	235.562	92.257	-66.960	-44.548	10.658	-67.113	-62.432	25.734	-74.341	-62.897	-58.300	-57.816	-53.620	71.938	-54.187	-8191	255	
1171.136	1	1	0	0	0.14334	0.10016	0.064611	0.17506	0.17981	0.27545	0.19818	0.2233	0.26329	0.1368	0.2352	0.1989	0.16837	0.18051	0.010548	0.21804	-3.7354	-4.2167	-4.0771	-4.2771	-4.1417	-3.7146	-4.4646	-4.2438	-3.9688	-4.3604	-3.9604	-4.2292	-4.3896	-3.9146	-4.3562	-4.2188	174.105	167.820	82.747	273.281	35.726	241.455	221.055	271.543	248.737	122.162	-60.749	257.549	191.344	175.417	255.011	199.845	8.1158e-05	0.00063791	0.00019504	1355.2	4.7116e-06	8.9734e-06	1357.7	362.92	3.3705e-06	5.105e-06	415.3	138.6	120.71	41.739	4.0345e-06	51.65	0.0004923	0.00045862	0.00013191	1360.9	5.3904e-06	4.9548e-06	1351.3	365.69	5.3545e-06	4.9453e-06	413.42	139.81	119.99	40.927	5.4178e-06	51.913	240.507	276.519	88.965	-67.143	-44.977	34.957	-67.038	-62.380	27.955	23.350	-63.064	-58.258	-57.934	-53.717	120.980	-54.320	-8191	255	
#DATA ENDS
