BOXY.EXE: ISS Imagent and Oximeter Data Acquisition Program Version 0.80
Ascii Record File

#ACQ INFORMATION
2  Detector Channels 
16  External MUX Channels 
1  Auxiliary Channels 
5000  Waveform (CCF) Frequency (Hz)
1  Waveforms Skipped 
30  Waveforms Averaged 
1  Cycles Averaged 
16  Acquisitions per Waveform 
10.0806  Updata Rate (Hz) 

#FILE INFORMATION
TRUE -- External MUX Channel results are PARSED.
FALSE -- AC DC and Phase are NOT grouped.
TRUE -- Companion Program Settings File CREATED.
FALSE -- AC data not excluded
FALSE -- DC data not excluded
FALSE -- Phase data not excluded
FALSE -- Auxillary Chn. data not excluded
Tab delimiters

#CALIBRATION STATE
TRUE -- Waveform Calibration Values APPLIED.


#AUX CALIBRATION VALUES
Val Type	aux-1	

Term	1.0000e+00	
Factor	0.0000e+00	


#WF CALIBRATION VALUES
A = Detector Channel
Val Type	A-AC1	A-AC2	A-AC3	A-AC4	A-AC5	A-AC6	A-AC7	A-AC8	A-AC9	A-AC10	A-AC11	A-AC12	A-AC13	A-AC14	A-AC15	A-AC16	A-DC1	A-DC2	A-DC3	A-DC4	A-DC5	A-DC6	A-DC7	A-DC8	A-DC9	A-DC10	A-DC11	A-DC12	A-DC13	A-DC14	A-DC15	A-DC16	A-Ph1	A-Ph2	A-Ph3	A-Ph4	A-Ph5	A-Ph6	A-Ph7	A-Ph8	A-Ph9	A-Ph10	A-Ph11	A-Ph12	A-Ph13	A-Ph14	A-Ph15	A-Ph16	

Term	0.00000e+00	0.00000e+00	0.00000e+00	0.00000e+00	0.00000e+00	0.00000e+00	0.00000e+00	0.00000e+00	0.00000e+00	0.00000e+00	0.00000e+00	0.00000e+00	0.00000e+00	0.00000e+00	0.00000e+00	0.00000e+00	0.00000e+00	0.00000e+00	0.00000e+00	0.00000e+00	0.00000e+00	0.00000e+00	0.00000e+00	0.00000e+00	0.00000e+00	0.00000e+00	0.00000e+00	0.00000e+00	0.00000e+00	0.00000e+00	0.00000e+00	0.00000e+00	0.00000e+00	0.00000e+00	0.00000e+00	0.00000e+00	0.00000e+00	0.00000e+00	0.00000e+00	0.00000e+00	0.00000e+00	0.00000e+00	0.00000e+00	0.00000e+00	0.00000e+00	0.00000e+00	0.00000e+00	0.00000e+00	
Factor	1.00000e+00	1.00000e+00	1.00000e+00	1.00000e+00	1.00000e+00	1.00000e+00	1.00000e+00	1.00000e+00	1.00000e+00	1.00000e+00	1.00000e+00	1.00000e+00	1.00000e+00	1.00000e+00	1.00000e+00	1.00000e+00	1.00000e+00	1.00000e+00	1.00000e+00	1.00000e+00	1.00000e+00	1.00000e+00	1.00000e+00	1.00000e+00	1.00000e+00	1.00000e+00	1.00000e+00	1.00000e+00	1.00000e+00	1.00000e+00	1.00000e+00	1.00000e+00	X	X	X	X	X	X	X	X	X	X	X	X	X	X	X	X	

B = Detector Channel
Val Type	B-AC1	B-AC2	B-AC3	B-AC4	B-AC5	B-AC6	B-AC7	B-AC8	B-AC9	B-AC10	B-AC11	B-AC12	B-AC13	B-AC14	B-AC15	B-AC16	B-DC1	B-DC2	B-DC3	B-DC4	B-DC5	B-DC6	B-DC7	B-DC8	B-DC9	B-DC10	B-DC11	B-DC12	B-DC13	B-DC14	B-DC15	B-DC16	B-Ph1	B-Ph2	B-Ph3	B-Ph4	B-Ph5	B-Ph6	B-Ph7	B-Ph8	B-Ph9	B-Ph10	B-Ph11	B-Ph12	B-Ph13	B-Ph14	B-Ph15	B-Ph16	

Term	0.00000e+00	0.00000e+00	0.00000e+00	0.00000e+00	0.00000e+00	0.00000e+00	0.00000e+00	0.00000e+00	0.00000e+00	0.00000e+00	0.00000e+00	0.00000e+00	0.00000e+00	0.00000e+00	0.00000e+00	0.00000e+00	0.00000e+00	0.00000e+00	0.00000e+00	0.00000e+00	0.00000e+00	0.00000e+00	0.00000e+00	0.00000e+00	0.00000e+00	0.00000e+00	0.00000e+00	0.00000e+00	0.00000e+00	0.00000e+00	0.00000e+00	0.00000e+00	-1.87321e+01	-2.01382e+02	-2.04078e+02	-1.83917e+02	-1.28168e+02	-1.16194e+02	-1.55153e+02	-1.62015e+02	-8.71299e+01	-1.10166e+02	-1.70746e+02	-1.70338e+02	-1.84751e+02	-1.77127e+02	-1.27571e+02	-1.49891e+02	
Factor	3.21959e-05	5.86218e-05	1.70957e-05	1.85218e-01	6.38908e-07	6.61217e-07	1.79242e-01	5.85498e-02	6.28257e-07	6.32059e-07	9.41592e-02	3.29196e-02	3.35767e-02	1.04145e-02	6.48013e-07	1.48882e-02	2.48085e-07	2.48645e-07	6.85922e-08	8.06149e-02	2.73403e-09	2.72330e-09	7.40105e-02	2.49478e-02	2.74050e-09	2.72179e-09	3.69338e-02	1.28081e-02	1.29845e-02	4.14818e-03	2.70430e-09	5.58471e-03	X	X	X	X	X	X	X	X	X	X	X	X	X	X	X	X	



#DISTANCE SETTINGS
A = Detector Channel
A-1	A-2	A-3	A-4	A-5	A-6	A-7	A-8	A-9	A-10	A-11	A-12	A-13	A-14	A-15	A-16	

2.5000e+00	3.0000e+00	2.5000e+00	3.0000e+00	2.0000e+00	3.0000e+00	1.5000e+00	3.0000e+00	3.0000e+00	3.0000e+00	3.0000e+00	3.0000e+00	3.0000e+00	3.0000e+00	1.5000e+00	3.0000e+00	

B = Detector Channel
B-1	B-2	B-3	B-4	B-5	B-6	B-7	B-8	B-9	B-10	B-11	B-12	B-13	B-14	B-15	B-16	

1.0000e+01	1.0000e+01	1.0000e+01	1.4400e+00	1.0000e+01	1.0000e+01	1.5100e+00	1.9400e+00	1.0000e+01	1.0000e+01	1.9900e+00	2.4900e+00	2.4100e+00	2.9000e+00	1.0000e+01	2.9800e+00	




#DATA BEGINS
time	group	step	mark	flag	A-AC1	A-AC2	A-AC3	A-AC4	A-AC5	A-AC6	A-AC7	A-AC8	A-AC9	A-AC10	A-AC11	A-AC12	A-AC13	A-AC14	A-AC15	A-AC16	A-DC1	A-DC2	A-DC3	A-DC4	A-DC5	A-DC6	A-DC7	A-DC8	A-DC9	A-DC10	A-DC11	A-DC12	A-DC13	A-DC14	A-DC15	A-DC16	A-Ph1	A-Ph2	A-Ph3	A-Ph4	A-Ph5	A-Ph6	A-Ph7	A-Ph8	A-Ph9	A-Ph10	A-Ph11	A-Ph12	A-Ph13	A-Ph14	A-Ph15	A-Ph16	B-AC1	B-AC2	B-AC3	B-AC4	B-AC5	B-AC6	B-AC7	B-AC8	B-AC9	B-AC10	B-AC11	B-AC12	B-AC13	B-AC14	B-AC15	B-AC16	B-DC1	B-DC2	B-DC3	B-DC4	B-DC5	B-DC6	B-DC7	B-DC8	B-DC9	B-DC10	B-DC11	B-DC12	B-DC13	B-DC14	B-DC15	B-DC16	B-Ph1	B-Ph2	B-Ph3	B-Ph4	B-Ph5	B-Ph6	B-Ph7	B-Ph8	B-Ph9	B-Ph10	B-Ph11	B-Ph12	B-Ph13	B-Ph14	B-Ph15	B-Ph16	aux-1	digaux	

1264.217	1	1	0	256	0.089498	0.20082	0.28599	0.041278	0.30901	0.092684	0.24388	0.1481	0.15494	0.17592	0.10518	0.24199	0.24332	0.37392	0.13526	0.12745	-3.9271	-3.8792	-4.2854	-4.3104	-3.7542	-4.2583	-4.0271	-4.3021	-4.5104	-3.9521	-4.0854	-4.2271	-3.7542	-4.3625	-4.0854	-3.975	220.043	60.182	187.605	69.264	130.153	103.313	20.303	-75.075	-14.802	63.234	-58.192	215.552	224.390	256.133	266.943	255.401	0.00023514	0.0002743	0.000135	1315.5	3.6913e-06	4.0901e-06	1315.6	350.12	2.5113e-06	3.3016e-06	405.63	135.51	117.44	40.399	6.9157e-06	50.241	0.00028304	0.00028341	8.6027e-05	1248.4	2.9952e-06	3.0982e-06	1256.5	331.65	2.9602e-06	3.0445e-06	376.37	125.22	105.88	37.197	3.2238e-06	45.628	-62.732	41.053	206.778	-66.758	-35.517	114.045	-66.498	-61.924	227.473	162.261	-62.269	-57.859	-57.177	-52.951	38.011	-53.681	-8191	255	
1264.313	1	1	0	0	0.20918	0.22259	0.15429	0.24558	0.10021	0.28502	0.42056	0.13158	0.13236	0.10673	0.17553	0.17091	0.14462	0.37954	0.13116	0.28307	-3.9917	-3.9688	-3.9854	-4.4583	-3.925	-4.2667	-4.3167	-4.1542	-4.475	-3.8896	-4.1875	-4.4292	-3.9521	-4.4042	-4.1	-3.9562	-50.976	119.057	132.988	221.202	178.575	-13.729	230.067	235.700	166.988	84.786	254.744	217.208	196.297	236.009	-70.503	237.967	0.00021461	0.00021991	4.6768e-05	1308.6	3.0365e-06	2.0675e-06	1315.2	350.56	2.9192e-06	4.6396e-06	405.58	134.99	117.27	40.381	2.5985e-06	50.503	0.00026556	0.00028524	8.1798e-05	1239.1	2.8551e-06	3.199e-06	1253.5	330.38	2.8924e-06	3.1824e-06	374.26	124.55	105.62	37.31	3.126e-06	45.321	-70.249	18.269	-63.035	-66.610	-11.487	167.026	-66.586	-61.709	51.006	114.378	-62.668	-57.641	-57.249	-52.939	27.988	-54.034	-8191	255	
1264.433	1	1	0	0	0.1064	0.14521	0.068165	0.087335	0.084135	0.12512	0.2042	0.19363	0.18445	0.11453	0.23586	0.062059	0.066697	0.0757	0.18699	0.14619	-3.9292	-4.1354	-4.0938	-4.4167	-3.8896	-4.2521	-4.2854	-3.775	-4.1854	-4.1	-4.2125	-4.4375	-3.9729	-4.3604	-4.3479	-3.7896	-41.857	61.582	60.369	167.312	145.989	75.996	178.111	64.553	-41.755	182.634	225.936	223.373	-40.421	41.446	78.092	195.630	0.0003678	0.00029822	0.00010999	1305.9	1.2296e-06	4.3313e-06	1311	350.95	8.35e-07	4.7226e-06	406.92	135.32	117.48	40.223	5.6996e-06	50.132	0.00026156	0.00029123	7.8637e-05	1234	2.8628e-06	3.2414e-06	1247.4	329.15	2.9696e-06	3.2813e-06	373.8	124.15	106.42	37.479	3.1969e-06	45.36	-68.939	256.075	207.157	-66.607	70.150	-16.944	-66.741	-61.871	94.401	22.815	-62.582	-57.877	-57.356	-52.908	3.293	-53.839	-8191	255	
1264.505	1	1	0	0	0.19999	0.19921	0.14926	0.13474	0.2141	0.028138	0.091639	0.095599	0.10148	0.042496	0.25469	0.1183	0.2202	0.28423	0.073478	0.14212	-4.0625	-3.9396	-4.1083	-4.6562	-3.8896	-4.0667	-4.4563	-3.9146	-4.1521	-4.0271	-3.9042	-4.4042	-4.0417	-4.1958	-4.3125	-3.9875	95.396	141.174	-27.264	276.053	75.904	75.890	207.881	187.406	165.685	242.944	238.430	216.956	243.765	277.140	273.589	275.092	0.00027111	0.00013727	0.00010418	1310.3	3.5715e-06	1.0991e-06	1316.3	351.43	4.7354e-06	3.3626e-06	404.72	135.18	118.12	40.331	3.3175e-06	50.46	0.00028644	0.00030972	8.1168e-05	1237.5	3.1722e-06	3.3914e-06	1253.6	329.86	3.2203e-06	3.3653e-06	373.72	124.29	107.7	37.557	3.1459e-06	45.296	-67.059	40.784	248.587	-66.808	159.553	263.952	-66.512	-61.846	119.361	27.118	-62.505	-57.563	-57.337	-53.131	3.908	-53.575	-8191	255	
1264.601	1	1	0	0	0.19707	0.060071	0.20046	0.16015	0.12182	0.17187	0.34242	0.17234	0.033629	0.0989	0.15848	0.035568	0.30833	0.24649	0.21255	0.091773	-3.9333	-3.9625	-3.9146	-4.3729	-3.8792	-4.2708	-4.4125	-3.975	-4.4042	-4.2646	-3.9771	-4.3146	-4.1083	-4.2188	-4.3396	-3.8438	212.694	203.855	-33.703	-51.185	218.872	244.943	187.593	211.199	20.819	84.731	259.717	68.640	-67.671	233.124	15.128	65.847	0.00011372	0.00063158	0.00022492	1310.8	1.8672e-06	2.8724e-06	1312.9	350.28	4.7717e-06	5.6282e-06	405.38	135.07	117.63	40.268	2.6346e-06	50.22	0.00029784	0.00029929	7.787e-05	1236	3.2234e-06	3.2019e-06	1248.1	328.25	3.2097e-06	3.1444e-06	371.02	123.6	107.27	37.043	2.8573e-06	44.934	264.947	-67.452	266.748	-66.519	78.677	0.597	-66.677	-61.783	163.115	20.460	-62.485	-57.740	-57.265	-52.972	-0.734	-53.650	-8191	255	
1264.697	1	1	0	0	0.070932	0.11821	0.14545	0.075153	0.1468	0.091543	0.096573	0.051251	0.13816	0.24384	0.16504	0.153	0.2897	0.17434	0.082791	0.07481	-3.9625	-4.2312	-3.8333	-4.5333	-4.05	-3.9354	-4.575	-4.0479	-4.2208	-4.0979	-3.8896	-4.5062	-4.1875	-3.9625	-4.3208	-4.0458	170.313	65.372	-2.280	273.774	89.639	21.450	212.743	67.844	230.179	-46.781	123.387	-17.030	279.342	258.777	87.077	248.748	0.00036556	0.00035838	9.6199e-05	1303.6	2.9346e-06	2.2289e-06	1311.3	350.3	2.8104e-06	2.6649e-06	405.91	135.01	117.22	40.022	3.0481e-06	50.116	0.00028416	0.00027176	6.9526e-05	1226.6	3.0579e-06	2.9092e-06	1235.5	327.37	3.085e-06	2.9299e-06	367.92	123.7	107.06	36.862	2.7904e-06	45.26	-75.322	-55.523	277.008	-66.715	30.339	-22.749	-66.563	-61.672	45.579	-4.126	-62.469	-57.951	-57.275	-52.855	-43.527	-53.967	-8191	255	
1264.818	1	1	0	0	0.15408	0.1603	0.23137	0.19075	0.10983	0.1615	0.13134	0.30975	0.15165	0.22619	0.21604	0.13964	0.091345	0.23155	0.24501	0.025779	-4.1062	-4.2021	-3.8167	-4.4479	-4.0646	-3.9792	-4.4479	-4.0188	-4.2625	-4.2375	-3.9833	-4.1438	-4.2333	-4.0271	-4.2417	-4.1604	47.686	227.631	-11.406	209.422	130.819	-17.524	-0.606	225.604	22.225	71.993	188.445	153.374	239.701	234.453	157.195	-6.392	8.1582e-05	0.00043444	7.4356e-05	1306.8	1.3493e-06	7.0601e-06	1312.7	350.92	7.1012e-06	6.1997e-06	405.66	134.52	117.61	40.153	1.9761e-06	50.104	0.00029343	0.00027843	7.1457e-05	1237	3.2521e-06	3.0795e-06	1241.2	331.08	3.2784e-06	3.092e-06	369.3	125.16	107.83	37.017	2.831e-06	45.767	273.007	278.593	-26.064	-66.501	26.648	35.447	-66.644	-61.617	60.267	-20.150	-62.567	-57.825	-57.301	-52.994	-0.852	-53.868	-8191	255	
1264.914	1	1	0	0	0.15341	0.18996	0.28455	0.15078	0.17379	0.14045	0.16636	0.23931	0.014543	0.12963	0.37635	0.29409	0.16229	0.18171	0.1239	0.19448	-3.6042	-4.2583	-3.9542	-4.5417	-4.0854	-3.8563	-4.475	-4.1458	-3.9917	-4.4437	-3.9271	-4.3812	-4.125	-3.9229	-4.3688	-4.1292	248.569	247.251	-29.370	134.534	169.905	175.424	170.183	264.567	-54.001	28.523	-27.116	262.051	261.565	234.375	-3.849	201.750	0.00024425	0.00049771	8.3031e-05	1310.7	1.4057e-06	2.9485e-06	1316.4	350.83	2.5615e-06	5.4665e-06	405.34	135	117.78	40.506	5.2976e-06	50.46	0.00029199	0.00027624	7.1176e-05	1244.7	3.1821e-06	2.9848e-06	1244.4	332.18	3.1593e-06	2.9751e-06	369.96	125.7	107.1	36.843	2.8696e-06	45.91	256.495	-54.074	-49.965	-66.508	21.749	-18.909	-66.467	-61.780	-1.468	29.762	-62.417	-57.646	-57.368	-53.018	187.520	-53.863	-8191	255	
1265.010	1	1	0	0	0.057493	0.13649	0.13329	0.16382	0.18369	0.13326	0.17053	0.25772	0.1222	0.14176	0.069345	0.058172	0.14073	0.18681	0.16376	0.077024	-3.5292	-4.2562	-4.05	-4.3146	-4.1	-3.9021	-4.5667	-4.3979	-4.1521	-4.475	-3.9625	-4.1271	-4.3396	-3.8896	-4.3625	-4.1458	91.069	245.445	65.742	-79.414	-38.250	237.589	216.960	231.011	215.185	83.146	61.608	-48.631	27.066	36.168	241.949	247.956	0.00026387	0.00043447	7.4862e-05	1312.5	9.4478e-07	3.0429e-06	1316.6	351.21	2.1643e-06	1.4673e-06	405.14	135.06	117.24	40.294	2.7675e-06	50.118	0.00028189	0.0002628	7.2882e-05	1245.1	3.0351e-06	2.7885e-06	1245.8	331.42	2.9799e-06	2.7906e-06	370.46	124.99	106.32	36.471	2.9083e-06	45.544	-4.334	-53.229	18.410	-66.534	50.932	-12.695	-66.621	-61.669	-71.755	-7.463	-62.291	-57.647	-57.344	-53.032	131.533	-53.674	-8191	255	
1265.105	1	1	0	0	0.15322	0.16502	0.13906	0.083031	0.23499	0.15224	0.051301	0.16897	0.081885	0.17806	0.13683	0.21114	0.11039	0.079786	0.047097	0.10353	-3.7771	-4.4313	-3.9562	-4.2646	-4.3063	-3.8792	-4.4292	-4.2688	-3.7604	-4.2167	-4.0458	-4.0687	-4.2604	-3.8646	-4.325	-4.3729	31.207	-21.846	-55.015	175.503	120.244	6.479	-59.216	213.336	277.138	2.770	-41.583	-20.403	-47.231	203.275	162.469	113.218	0.00023017	0.00040267	3.0669e-05	1308.1	5.9815e-06	4.6388e-06	1311.1	351.34	1.6264e-06	3.4082e-06	404.92	135.49	117.83	40.377	2.1953e-06	50.027	0.00026491	0.0002437	7.2352e-05	1236.4	2.8488e-06	2.5871e-06	1240.7	329.14	2.7607e-06	2.5953e-06	369.48	123.75	105.34	36.251	2.8733e-06	45.118	-50.705	260.031	-61.546	-66.613	-7.116	-3.649	-66.648	-61.775	150.593	0.989	-62.293	-57.754	-57.245	-52.819	201.960	-53.598	-8191	255	
1265.201	1	1	0	0	0.17049	0.26929	0.14482	0.1702	0.17453	0.10619	0.20743	0.24633	0.04048	0.087564	0.050385	0.088231	0.11768	0.14016	0.27609	0.067123	-3.5062	-4.225	-3.8812	-4.1687	-4.375	-3.9146	-4.35	-4.2396	-3.7646	-4.3125	-4.2875	-4.1417	-4.3688	-3.7542	-4.0125	-4.3729	151.504	59.906	71.241	230.124	33.252	212.497	207.860	204.321	209.380	63.276	-14.740	-60.909	-65.164	-13.894	127.536	126.477	0.00010429	0.00012213	0.00017667	1305.7	3.6458e-06	3.6957e-06	1307.8	350.5	3.706e-06	2.341e-06	403.43	134.46	117.66	39.926	2.6757e-06	50.135	0.00024859	0.00023767	7.3367e-05	1227.9	2.7274e-06	2.6253e-06	1239.7	328.28	2.7472e-06	2.7573e-06	371.78	123.96	105.55	36.523	3.1696e-06	45.441	-31.627	63.105	-27.175	-66.492	26.253	21.846	-66.522	-61.611	12.582	213.297	-62.228	-57.979	-57.339	-52.910	28.392	-53.866	-8191	255	
1265.297	1	1	0	0	0.082404	0.34849	0.23219	0.1939	0.081449	0.20712	0.26368	0.19921	0.19223	0.059518	0.16521	0.088936	0.19434	0.11958	0.11795	0.1798	-3.5958	-4.2646	-4.0833	-4.1167	-4.2208	-4.1292	-4.3979	-4.3292	-3.8208	-4.2604	-4.1562	-4.2333	-4.3792	-3.7958	-4.0417	-4.2875	272.447	217.086	144.306	-51.883	-62.879	70.473	217.134	205.241	259.582	263.429	206.693	175.692	-68.629	241.988	-67.925	178.404	4.3128e-05	0.00030556	8.7198e-05	1304	3.5319e-07	3.839e-06	1310.2	349.94	2.7961e-06	4.8222e-06	403.76	134.5	117.44	39.939	2.6872e-06	50.173	0.00026285	0.00027135	8.1434e-05	1235	2.8995e-06	3.0096e-06	1248.9	330.02	2.8512e-06	3.0607e-06	373.58	124.26	105.56	36.928	3.1781e-06	45.354	59.495	40.669	207.270	-66.572	82.975	118.495	-66.432	-61.739	-17.573	144.932	-62.446	-57.648	-57.341	-52.816	83.423	-53.761	-8191	255	
1265.418	1	1	0	0	0.058755	0.030003	0.094847	0.22781	0.14718	0.075337	0.23099	0.047402	0.37596	0.028084	0.25846	0.23872	0.087316	0.2149	0.14848	0.29586	-3.6208	-4.4104	-4.1417	-3.9437	-4.25	-4.075	-4.3208	-4.4146	-3.8271	-4.2854	-4.3542	-4.05	-4.3438	-3.9813	-4.1375	-4.5021	220.823	-26.761	141.286	-68.681	242.494	223.576	213.495	56.740	57.105	126.408	224.126	209.793	-77.182	279.804	191.995	173.968	0.00028768	0.00027437	0.00014566	1305.9	9.3016e-07	6.0405e-06	1305.9	348.87	3.0754e-06	2.0805e-06	403.91	134.79	116.81	39.918	5.8701e-06	50.122	0.00025667	0.00028379	7.9549e-05	1230.4	2.8035e-06	3.0888e-06	1241.6	328.2	2.7415e-06	3.0999e-06	371.06	123.31	104.88	36.856	2.9742e-06	44.883	255.632	-23.593	234.532	-66.633	-42.552	104.652	-66.461	-61.813	187.341	34.897	-62.349	-57.960	-57.191	-53.043	9.775	-53.949	-8191	255	
1265.514	1	1	0	0	0.07682	0.098621	0.10209	0.022282	0.04772	0.076586	0.16791	0.22223	0.25242	0.22419	0.044435	0.19711	0.16369	0.3531	0.24716	0.1205	-3.5563	-4.3146	-3.9896	-4.0458	-4.3479	-4.0229	-4.1438	-4.3938	-3.8563	-4.1479	-4.2312	-3.7438	-4.2875	-4.2521	-4.0167	-4.3771	122.254	110.200	175.663	180.877	125.264	-8.483	230.541	-60.290	-58.077	-45.317	-68.193	200.946	276.468	171.326	-46.140	230.203	0.00042685	0.00023684	7.7331e-05	1300.5	1.5404e-06	3.6282e-06	1305	348.43	5.4003e-06	8.0694e-07	402.45	134.78	116.1	39.981	2.5219e-06	49.825	0.00024904	0.00027965	7.4364e-05	1220	2.7479e-06	3.0301e-06	1233.4	325.61	2.7447e-06	3.0372e-06	368.1	122.16	104.78	36.786	2.8686e-06	44.481	279.715	-67.317	219.053	-66.457	59.297	277.111	-66.408	-61.697	202.299	8.551	-62.375	-57.760	-56.963	-52.947	-6.525	-53.379	-8191	255	
1265.610	1	1	0	0	0.065014	0.22147	0.1355	0.17073	0.30194	0.11676	0.20763	0.11135	0.10842	0.040901	0.16363	0.19134	0.17812	0.19101	0.14615	0.30344	-3.65	-4.0896	-4.2958	-4.0292	-4.325	-3.7938	-3.9271	-4.4896	-3.9271	-4.0167	-4.3396	-3.9333	-4.2812	-4.0104	-3.7	-4.3396	206.115	-23.434	227.696	188.774	44.497	151.012	258.027	174.235	158.961	271.070	204.601	108.675	-66.376	106.787	-16.585	197.053	0.00032018	0.00033834	2.3748e-05	1294.2	1.8899e-06	2.4099e-06	1297	348.21	4.7376e-06	3.8462e-06	401.44	134.05	116.9	40.033	6.8852e-06	50.043	0.00025743	0.0002747	7.2172e-05	1212	2.8505e-06	2.9636e-06	1227.8	323.94	2.8261e-06	2.9207e-06	366.17	121.33	105.18	36.577	2.7255e-06	44.274	-72.062	273.025	6.524	-66.439	99.646	34.537	-66.548	-61.784	174.662	-73.821	-62.380	-58.102	-57.295	-52.799	-21.362	-53.608	-8191	255	
1265.730	1	1	0	0	0.085686	0.28021	0.04973	0.18976	0.187	0.070776	0.19054	0.12086	0.10986	0.053006	0.18953	0.096836	0.12814	0.083746	0.13044	0.062835	-3.6312	-4.0125	-4.1729	-3.8833	-4.1667	-4.425	-3.9875	-4.3625	-3.7979	-3.9354	-4.2083	-3.8438	-4.4354	-4.0729	-3.875	-4.3792	81.006	2.402	244.512	216.465	94.827	176.943	243.271	228.270	274.545	88.689	240.939	36.769	-28.022	50.997	76.350	225.741	0.00028935	0.00048555	3.8971e-05	1293.4	3.3138e-06	3.6531e-06	1298.6	348.32	1.5266e-06	1.647e-06	403.57	133.77	116.69	39.976	2.5416e-06	49.862	0.00026416	0.00026583	6.961e-05	1211.9	2.9308e-06	2.8856e-06	1224.6	323.86	2.9234e-06	2.8377e-06	365.25	121.64	105.46	36.428	2.6124e-06	44.351	279.029	-43.277	144.309	-66.548	32.342	271.982	-66.524	-61.642	63.384	-68.708	-62.691	-57.761	-57.511	-52.691	32.934	-53.811	-8191	255	
1265.802	1	1	0	0	0.14198	0.10536	0.057511	0.28017	0.12199	0.071679	0.10886	0.079418	0.1591	0.22323	0.30698	0.0734	0.18397	0.25398	0.11843	0.096695	-3.7458	-3.9125	-4.2583	-4.0708	-4.1625	-4.325	-3.9104	-4.1813	-4.0646	-3.925	-4.4708	-3.9208	-4.1708	-4.3063	-3.9542	-4.2792	92.976	63.960	208.796	234.428	186.895	97.109	-74.590	63.968	260.864	37.883	198.716	-78.257	-40.049	236.412	193.031	1.742	0.00024181	5.5292e-05	8.8453e-05	1294.6	2.4912e-06	5.6309e-06	1299.3	349.65	4.335e-06	3.3728e-06	403.9	134.58	116.91	40.019	2.2824e-06	49.675	0.00026705	0.00025418	6.597e-05	1213.4	2.9163e-06	2.7693e-06	1221.4	324.57	2.8919e-06	2.7309e-06	363.48	122.08	105.38	36.263	2.4966e-06	44.51	271.370	91.270	260.473	-66.535	47.363	-6.961	-66.449	-61.756	255.130	32.836	-62.372	-57.894	-56.963	-52.965	16.059	-53.817	-8191	255	
1265.897	1	1	0	0	0.29397	0.099487	0.29614	0.17253	0.20352	0.0069929	0.058331	0.43003	0.1278	0.1803	0.11543	0.12492	0.10137	0.099153	0.063356	0.12324	-3.8604	-3.8271	-4.3063	-3.9604	-4.0771	-4.2521	-3.9375	-4.4292	-4.1292	-4.0417	-4.4792	-3.8083	-4.1813	-4.3688	-3.925	-4.4292	98.628	280.138	216.723	266.353	0.142	194.886	-27.485	235.963	1.944	25.886	31.403	-78.344	10.661	-24.544	73.180	38.110	0.00020627	0.00023852	8.0143e-05	1294	1.1197e-06	3.4378e-06	1299.5	347.46	1.8915e-06	3.8848e-06	402.27	133.38	116.88	40.137	2.1385e-06	49.732	0.00026307	0.00024652	6.3597e-05	1214.6	2.8341e-06	2.7009e-06	1217.2	325.42	2.8283e-06	2.6353e-06	362.31	122.23	104.91	36.168	2.4537e-06	44.667	-57.164	-66.658	-18.981	-66.413	73.882	-46.296	-66.548	-61.746	-35.650	-11.778	-62.398	-57.806	-57.243	-52.823	43.321	-53.771	-8191	255	
1265.993	1	1	0	0	0.16897	0.085739	0.20757	0.19333	0.2394	0.081292	0.21191	0.33483	0.18689	0.088231	0.18328	0.065793	0.22081	0.24341	0.3053	0.18777	-3.7708	-3.7833	-4.3604	-4.1	-4.2	-4.3792	-4.1438	-4.225	-4.2	-4.0354	-4.3833	-4.2229	-3.9229	-4.4479	-3.7687	-4.0417	231.831	-50.176	89.401	174.988	68.423	266.693	236.261	214.136	-4.088	117.925	-73.870	-66.488	176.964	280.073	-48.036	155.511	0.00014769	0.00056724	9.9224e-05	1293.2	2.4924e-06	3.7808e-06	1299	347.15	2.2441e-06	7.0181e-07	402.02	134.22	117.14	40.145	1.1709e-06	50.096	0.00025428	0.00023834	6.3108e-05	1217.4	2.7538e-06	2.6073e-06	1218	325.69	2.7407e-06	2.5373e-06	362.89	122.77	104.57	36.051	2.5253e-06	44.844	241.712	279.215	52.906	-66.617	2.386	-45.544	-66.459	-61.710	41.626	-41.862	-62.376	-57.837	-57.297	-53.071	111.404	-53.831	-8191	255	
1266.113	1	1	0	0	0.24543	0.053377	0.13952	0.18961	0.22992	0.19974	0.16534	0.19819	0.18498	0.16889	0.14791	0.20468	0.10053	0.31625	0.15711	0.16056	-3.9125	-3.7542	-4.2021	-4.3812	-4.1979	-4.3333	-3.9938	-4.1958	-4.2	-3.8833	-4.2396	-4.1813	-4.05	-4.225	-3.8979	-4.3042	-66.587	-1.678	-51.901	192.096	186.819	41.064	-52.579	274.093	245.721	137.668	246.485	221.724	265.400	-6.303	-35.577	237.939	0.00024543	0.00047249	0.00011755	1293.7	7.1814e-07	3.3852e-06	1298.9	347.32	2.4775e-06	2.2965e-06	402.53	134.07	116.68	40.01	3.5893e-06	50	0.00025039	0.0002302	6.5739e-05	1218.7	2.6864e-06	2.5032e-06	1222.2	325.7	2.6914e-06	2.444e-06	364.03	122.59	104.02	35.867	2.5942e-06	44.593	271.093	266.490	24.934	-66.521	85.255	-46.207	-66.530	-61.748	42.507	-17.037	-62.394	-57.718	-57.205	-52.752	127.330	-53.712	-8191	255	
1266.209	1	1	0	0	0.14594	0.29573	0.11921	0.21651	0.1644	0.093936	0.23208	0.1013	0.10314	0.064757	0.16992	0.11021	0.15238	0.093668	0.12505	0.12706	-3.8417	-3.7917	-4.2438	-4.2188	-3.8187	-4.3396	-4.0729	-4.3125	-4.2854	-3.8333	-4.325	-4.25	-3.9396	-4.7125	-3.8146	-4.0354	39.553	245.557	174.865	232.821	169.212	63.277	184.295	-50.738	51.639	238.457	120.812	16.889	65.300	1.257	222.917	-25.117	0.00019035	0.00019974	3.6363e-05	1298.2	6.2902e-08	6.9711e-06	1300	348.47	2.2597e-06	1.9397e-06	401.11	133.61	116.87	39.993	2.9372e-06	49.992	0.00023744	0.00021585	6.6244e-05	1214.1	2.5257e-06	2.359e-06	1221.8	324.27	2.5159e-06	2.3298e-06	364.16	121.47	103.23	35.711	2.6066e-06	44.285	-79.761	263.665	111.642	-66.589	186.786	77.610	-66.678	-61.943	275.486	11.835	-62.172	-57.580	-57.243	-53.001	111.159	-53.557	-8191	255	
1266.304	1	1	0	0	0.21237	0.090166	0.18917	0.084312	0.059058	0.28062	0.07859	0.17894	0.17787	0.096434	0.21094	0.24793	0.39431	0.38037	0.1899	0.092687	-3.9708	-3.9875	-4.2583	-4.3896	-3.9313	-4.2312	-4.0938	-4.3604	-4.2771	-3.7167	-4.2021	-4.1771	-3.8729	-4.5687	-4.0375	-4.0458	19.519	4.854	11.684	275.789	49.232	-0.607	157.852	-47.742	26.319	121.310	-51.219	217.162	-42.728	-54.153	158.568	272.880	0.00037548	0.00031569	0.00014259	1295.2	3.4569e-06	3.2294e-06	1296.9	348.52	3.759e-06	2.3834e-06	403.92	134.65	117.06	39.872	1.5141e-06	49.692	0.00022535	0.00021253	6.6758e-05	1209.6	2.414e-06	2.3894e-06	1222.2	323.54	2.4252e-06	2.3899e-06	364.24	121.44	102.85	35.845	2.6234e-06	44.137	-68.201	-8.962	70.974	-66.758	36.225	10.252	-66.478	-61.796	12.438	48.996	-62.368	-57.762	-57.341	-53.025	8.667	-53.633	-8191	255	
1266.402	1	1	0	0	0.095818	0.096275	0.13181	0.28326	0.32146	0.15384	0.30847	0.2326	0.093258	0.062115	0.1582	0.05346	0.11493	0.22478	0.096937	0.10899	-3.9125	-3.875	-4.2104	-4.6146	-3.9229	-4.4583	-4.2063	-3.875	-4.3771	-4.0167	-4.2812	-4.4437	-4.0687	-4.3688	-4.1188	-4.2063	103.828	251.077	224.122	270.866	269.703	214.939	241.714	258.449	-26.765	267.901	188.931	83.310	181.465	-57.112	103.720	82.703	0.00027287	0.00010421	3.9394e-05	1291.4	2.3107e-06	3.5196e-06	1298.3	346.8	2.1434e-06	6.0073e-07	401.85	133.64	116.62	39.845	3.3134e-06	49.967	0.00021753	0.00022301	6.6282e-05	1205.3	2.3169e-06	2.4968e-06	1220.2	322.23	2.3345e-06	2.5026e-06	363.52	120.97	102.29	35.949	2.5804e-06	43.956	-39.554	129.507	260.266	-66.557	-32.715	30.049	-66.552	-61.586	65.278	6.902	-62.171	-57.835	-57.197	-52.969	-3.490	-53.616	-8191	255	
1266.496	1	1	0	0	0.17277	0.080908	0.087059	0.18185	0.15432	0.10882	0.18292	0.21562	0.12548	0.12806	0.058532	0.19694	0.23339	0.17003	0.12852	0.15868	-4.1562	-3.9729	-4.1292	-4.3562	-3.7833	-4.35	-4.3604	-3.9458	-4.15	-3.9854	-4.2458	-4.5729	-3.9104	-4.2771	-4.2229	-4.0604	-40.816	-23.888	61.991	197.768	89.234	240.591	72.361	257.948	189.379	-18.259	-43.910	215.481	235.146	-76.041	52.034	91.662	9.0972e-05	0.00011091	0.00011688	1291.2	1.3415e-06	2.8493e-06	1291	347.72	2.2429e-06	2.089e-06	403.2	134.07	117.23	39.982	1.0583e-06	49.871	0.00021137	0.0002312	6.4531e-05	1202.4	2.2845e-06	2.5572e-06	1215.1	321.13	2.2916e-06	2.5463e-06	361.88	120.59	102.38	36.027	2.4842e-06	43.725	268.645	-56.771	202.601	-66.605	85.376	271.745	-66.607	-61.566	194.117	144.357	-62.177	-57.929	-57.175	-52.975	71.607	-53.537	-8191	255	
1266.592	1	1	0	0	0.13942	0.074789	0.29021	0.35607	0.20924	0.098489	0.064585	0.16257	0.22401	0.067376	0.18292	0.15848	0.33009	0.089876	0.19627	0.14028	-4.1833	-3.9604	-3.975	-4.7271	-3.7625	-4.0292	-4.2646	-3.8812	-4.2854	-4.1438	-4.1188	-4.4542	-4.0604	-4.2958	-4.1354	-3.9146	104.373	256.978	-41.750	243.363	277.629	204.064	249.374	-61.909	170.290	56.587	271.650	-25.237	-49.879	189.149	192.002	251.966	0.00032739	0.00013916	0.00013531	1288.3	3.0248e-06	1.839e-06	1293	347.62	2.165e-06	2.3309e-06	401.84	134.15	116.78	39.988	3.7622e-06	49.946	0.0002144	0.00023576	6.2582e-05	1196.3	2.3361e-06	2.5828e-06	1212.1	320.66	2.3874e-06	2.5839e-06	360.42	120.16	102.87	36.013	2.4408e-06	43.542	-55.613	167.180	279.662	-66.498	110.092	-11.532	-66.597	-61.744	247.208	-74.118	-62.462	-57.685	-57.145	-52.899	17.571	-53.532	-8191	255	
1266.688	1	1	0	0	0.034648	0.07996	0.13103	0.23102	0.1728	0.23724	0.027346	0.25761	0.045835	0.20102	0.16625	0.29308	0.29553	0.25545	0.10809	0.44047	-4.0938	-3.9896	-3.8479	-4.5917	-3.7917	-4.1292	-4.3396	-4.0813	-4.2792	-4.0188	-3.9646	-4.4812	-4.0646	-4.0417	-4.3042	-4.0479	-30.385	239.442	240.744	252.515	-77.678	29.663	144.657	194.514	-7.795	164.393	-28.754	191.359	252.470	-50.841	258.359	-49.003	0.00045456	0.00025177	0.00010482	1288.8	2.4158e-06	1.5176e-06	1289.8	346.45	2.6168e-06	4.1831e-06	400.99	134.28	116.24	39.871	1.8374e-06	49.539	0.00022239	0.00023355	6.088e-05	1193.4	2.4522e-06	2.5506e-06	1209.7	319.35	2.5003e-06	2.5385e-06	359.61	119.95	103.22	35.898	2.3878e-06	43.428	259.708	14.366	260.712	-66.669	117.751	56.951	-66.530	-61.579	142.687	-18.613	-62.222	-57.754	-57.284	-52.820	-34.570	-53.680	-8191	255	
1266.809	1	1	0	0	0.17028	0.13893	0.028538	0.1602	0.29747	0.2051	0.26471	0.15103	0.1949	0.1568	0.17774	0.11008	0.19154	0.38872	0.16063	0.11542	-3.975	-4.0458	-3.6792	-4.5479	-4.025	-4.1542	-4.4479	-3.9792	-4.1562	-4.3063	-3.9958	-4.1854	-3.8375	-3.9042	-4.3812	-3.9813	-57.122	220.709	81.094	220.641	185.149	126.897	182.744	-69.778	202.714	278.278	242.829	-21.827	-12.219	267.314	75.561	185.933	0.0003116	0.00017134	8.4449e-05	1285.2	1.964e-06	5.5366e-06	1292	346.89	2.7218e-06	3.4163e-06	401.05	133.79	116.41	40.064	4.5218e-06	49.632	0.00023373	0.00023042	5.9952e-05	1194.3	2.5481e-06	2.4956e-06	1209.4	319.85	2.5801e-06	2.4736e-06	358.48	119.87	103.61	35.855	2.3202e-06	43.585	-49.373	-78.116	236.578	-66.573	-38.216	-3.956	-66.615	-61.764	-56.816	66.683	-62.413	-57.745	-57.223	-52.948	-59.036	-53.897	-8191	255	
1266.905	1	1	0	0	0.051954	0.17842	0.20148	0.20417	0.11281	0.08462	0.23815	0.13828	0.063074	0.2307	0.13388	0.19989	0.098706	0.10374	0.10149	0.1363	-3.8833	-4.2063	-3.9021	-4.5104	-4.1458	-4.1271	-4.5563	-4.0021	-4.0604	-4.2333	-4.0563	-4.3854	-4.1	-4.1542	-4.3542	-4.0271	227.120	167.834	204.165	188.109	150.273	99.113	228.773	172.988	12.651	137.196	102.088	109.913	-71.865	124.476	279.984	135.030	0.00031089	0.00038387	8.0922e-05	1286.3	3.8647e-06	4.9112e-06	1293.8	346.32	4.2868e-06	5.153e-06	401.16	133.59	116.85	39.934	3.2999e-06	49.933	0.00023795	0.00022479	5.766e-05	1197.5	2.587e-06	2.4487e-06	1207	321.14	2.5951e-06	2.454e-06	358.08	120.84	103.68	35.77	2.2682e-06	43.978	-75.124	-67.010	251.717	-66.586	43.457	-20.464	-66.453	-61.687	-37.926	-15.213	-62.420	-57.881	-57.267	-52.878	-11.762	-53.716	-8191	255	
1267.001	1	1	0	0	0.080692	0.16858	0.19635	0.078735	0.023565	0.23844	0.23905	0.090651	0.16658	0.17141	0.076896	0.060877	0.19068	0.13385	0.11264	0.2009	-3.8458	-4.1479	-4.0271	-4.4771	-3.9396	-3.9458	-4.675	-4.0479	-4.0958	-4.3208	-3.9625	-4.3896	-4.1333	-4.0479	-4.2167	-3.9333	-35.582	147.991	135.181	213.836	202.488	-59.026	268.927	66.001	36.088	41.506	99.255	29.933	-71.687	-65.400	-72.494	271.344	7.7039e-05	0.00028473	5.4982e-05	1289.8	9.5735e-07	4.5307e-06	1292.1	347.12	3.2499e-06	3.1864e-06	400.15	133.89	116.5	40.018	2.5656e-06	49.876	0.00023447	0.00022188	5.6237e-05	1202.4	2.5483e-06	2.3826e-06	1207.1	322.21	2.5242e-06	2.3803e-06	357.35	121.16	103.25	35.607	2.219e-06	44.056	3.154	275.258	233.275	-66.481	239.029	-10.231	-66.455	-61.685	-31.086	35.287	-62.343	-57.704	-57.015	-52.996	134.850	-53.509	-8191	255	
1267.098	1	1	0	0	0.11692	0.040027	0.096556	0.31203	0.137	0.14065	0.24774	0.27921	0.052205	0.079549	0.15448	0.064516	0.27376	0.26652	0.14689	0.29393	-3.5563	-4.3146	-3.7708	-4.4479	-4.1438	-3.9458	-4.5062	-4.1229	-3.9938	-4.4771	-4.0979	-4.3354	-4.1521	-3.9375	-4.4812	-4.0917	217.627	56.861	194.202	252.397	153.256	261.744	206.335	-75.106	39.672	41.902	-24.771	8.360	191.550	239.156	82.398	151.215	0.00023034	0.00021558	2.1326e-05	1287.2	2.9451e-06	3.1813e-06	1290.7	345.38	2.6043e-06	2.0022e-06	401.31	133.9	116.62	39.876	2.084e-06	49.599	0.00022686	0.00021262	5.5947e-05	1202.7	2.4418e-06	2.2841e-06	1205.6	321.67	2.4216e-06	2.2522e-06	357.61	121.04	102.71	35.363	2.2507e-06	43.942	-47.062	236.025	-0.134	-66.647	-30.565	15.676	-66.615	-61.662	26.921	103.704	-62.346	-57.819	-56.997	-52.790	39.650	-53.780	-8191	255	
1267.194	1	1	0	0	0.092493	0.12509	0.059133	0.12035	0.082699	0.11244	0.084596	0.10502	0.26393	0.15066	0.21704	0.084412	0.34594	0.22265	0.13979	0.049797	-3.7667	-4.2438	-3.7313	-4.3208	-4.4833	-4.0292	-4.6333	-4.3125	-3.775	-4.325	-4.2292	-4.3375	-4.4646	-3.8146	-4.2333	-4.3292	51.338	-18.914	-10.548	1.572	216.016	234.146	-41.591	177.903	131.003	71.060	-46.647	237.501	170.499	194.139	33.521	93.671	0.00034302	0.00032657	7.8745e-06	1288.8	4.4112e-06	1.632e-06	1287.8	347.67	2.8264e-06	4.5763e-06	400.95	133.38	116.64	39.851	2.0428e-06	49.6	0.00021613	0.00020149	5.7575e-05	1200.9	2.3667e-06	2.1784e-06	1205.9	321.82	2.3589e-06	2.1881e-06	359.1	120.85	102.69	35.287	2.3991e-06	43.89	-60.870	-43.974	36.132	-66.485	-42.041	58.291	-66.484	-61.767	77.218	64.391	-62.341	-57.725	-57.197	-52.939	160.514	-53.764	-8191	255	
1267.290	1	1	0	0	0.13212	0.11348	0.16526	0.10559	0.15814	0.078645	0.021784	0.089777	0.13436	0.058311	0.035566	0.35012	0.075155	0.20327	0.22505	0.11054	-3.5458	-4.2688	-3.8479	-4.4271	-4.4083	-3.8729	-4.5375	-4.2896	-4.0104	-4.3333	-4.0042	-4.0458	-4.5104	-4.2188	-4.2875	-4.1667	201.786	-52.559	269.150	29.967	154.153	241.633	267.337	-58.966	41.580	247.861	-58.700	247.362	120.529	-65.755	193.889	200.434	0.0002106	9.5385e-05	6.7998e-05	1286.7	1.8233e-06	6.689e-06	1285.5	347.97	1.4557e-06	2.7466e-06	402.06	134.05	116.7	39.822	2.959e-06	49.648	0.00021587	0.00020104	6.1371e-05	1199.9	2.3642e-06	2.1847e-06	1209.3	321.62	2.349e-06	2.2423e-06	361.6	120.82	102.65	35.424	2.5697e-06	43.988	-70.027	-21.656	-32.486	-66.463	-29.499	48.025	-66.431	-61.683	59.158	39.709	-62.250	-57.627	-57.091	-52.856	41.475	-53.734	-8191	255	
1267.410	1	1	0	0	0.44322	0.31742	0.13804	0.13926	0.082717	0.13542	0.17084	0.12421	0.10756	0.16448	0.13357	0.18065	0.16409	0.17905	0.14874	0.15347	-3.6312	-4.3479	-3.9958	-4.0521	-4.2937	-4.025	-4.2979	-4.2104	-3.9313	-4.3458	-4.1354	-4.0875	-4.6167	-3.9479	-4.1417	-4.1271	211.855	26.910	151.201	257.862	194.674	270.191	242.020	241.559	272.166	-21.908	41.937	156.260	-60.786	-47.762	32.872	229.131	0.00013776	0.0002903	0.00013752	1286.9	1.6425e-06	2.1727e-06	1286.1	346.7	1.5228e-06	5.6063e-06	401.19	134.24	116.82	39.757	1.5929e-06	49.535	0.00021821	0.00021572	6.6662e-05	1202.8	2.4268e-06	2.418e-06	1215.7	322.84	2.4409e-06	2.5187e-06	364.45	121.56	103.08	35.824	2.7529e-06	44.245	-16.855	40.904	230.028	-66.502	190.653	228.141	-66.522	-61.638	-14.722	89.599	-62.370	-57.729	-57.224	-52.829	261.271	-53.611	-8191	255	
1267.505	1	1	0	0	0.021143	0.37121	0.051381	0.042854	0.13798	0.083336	0.30951	0.12524	0.10946	0.17891	0.2463	0.20694	0.11743	0.30517	0.20672	0.17111	-3.5604	-4.3667	-4.0167	-4.1854	-4.3958	-3.8604	-4.1646	-4.4187	-3.8312	-4.2542	-4.1208	-4.0396	-4.425	-3.8604	-3.9083	-4.4708	275.916	9.836	-54.818	107.016	127.382	-60.751	162.327	102.576	-11.713	44.753	94.950	38.571	-76.055	9.087	-36.606	255.203	0.00016336	0.00017372	8.3276e-05	1285.9	1.6501e-06	1.9036e-06	1293.2	347.17	5.9137e-06	2.567e-06	401.56	133.67	116.69	40.049	5.343e-06	49.716	0.00022311	0.00023763	6.9191e-05	1205.1	2.4308e-06	2.6095e-06	1221.2	323.11	2.4083e-06	2.688e-06	364.75	121.43	102.91	36.174	2.6934e-06	44.197	274.265	13.574	233.940	-66.556	-73.767	74.495	-66.441	-61.844	99.817	150.406	-62.198	-57.632	-57.042	-52.907	-7.265	-53.543	-8191	255	
1267.601	1	1	0	0	0.035005	0.11221	0.17267	0.17568	0.22548	0.10003	0.19493	0.18788	0.21925	0.035922	0.17286	0.23152	0.29232	0.22554	0.11006	0.275	-3.7333	-4.5021	-4.1771	-4.0167	-4.3979	-3.9771	-4.4708	-4.375	-3.8375	-4.1354	-4.2875	-4.0292	-4.4938	-3.9333	-3.9188	-4.3625	56.628	-34.532	167.451	232.822	244.820	52.900	263.726	-54.515	223.066	247.110	-73.174	196.594	-23.248	-4.360	237.855	-48.833	0.00034263	0.00031349	6.6543e-05	1290.8	1.5514e-06	3.2983e-06	1291.6	347.16	1.7492e-06	4.7436e-06	400.65	134.23	116.62	39.978	2.8161e-06	49.861	0.00021949	0.00024584	6.7104e-05	1204.1	2.4015e-06	2.6433e-06	1216.6	322.2	2.3403e-06	2.6094e-06	361.8	120.43	102.4	35.934	2.3939e-06	43.587	263.199	277.336	-39.768	-66.336	96.292	221.352	-66.655	-61.723	87.432	10.366	-62.400	-57.783	-57.186	-53.125	89.930	-53.622	-8191	255	
1267.673	1	1	0	0	0.056319	0.08039	0.10982	0.11776	0.041426	0.13695	0.11984	0.15697	0.20779	0.14988	0.043889	0.17037	0.12217	0.10595	0.2289	0.098272	-3.4917	-4.0167	-4.0875	-3.9646	-4.2458	-3.9958	-4.2104	-4.3604	-3.8604	-4.2271	-4.2083	-3.9646	-4.4229	-4.0896	-3.8604	-4.3854	10.050	199.294	-56.611	-77.256	-37.104	-75.359	246.179	-4.558	2.085	136.332	1.989	-5.224	276.055	216.768	279.564	-70.211	0.00034405	0.00034713	7.58e-05	1287.3	1.8794e-06	2.3762e-06	1292.9	347.85	1.9421e-06	4.0503e-06	400.62	134.57	117.04	40.098	3.506e-06	49.966	0.00020476	0.00022342	5.8817e-05	1192.2	2.2028e-06	2.3793e-06	1206.7	319.05	2.1735e-06	2.3396e-06	357.81	119.15	101.98	35.686	2.204e-06	43.209	-76.859	-72.106	-49.186	-66.249	142.461	221.067	-66.390	-61.636	122.185	-3.944	-62.503	-57.540	-57.129	-53.083	263.181	-53.898	-8191	255	
1267.793	1	1	0	0	0.23025	0.12089	0.015091	0.14568	0.28007	0.17271	0.21033	0.22433	0.23957	0.13238	0.23273	0.19513	0.35471	0.15264	0.16973	0.077765	-3.5771	-4.05	-4.1917	-3.9417	-4.0604	-4.1667	-4.1438	-4.4958	-3.8	-3.9583	-4.2646	-3.8125	-4.1875	-4.2083	-3.7146	-4.3625	108.204	79.346	127.410	14.571	193.604	99.213	-65.077	221.188	263.788	184.706	266.964	-78.174	-59.116	162.307	45.471	255.491	0.00022717	0.0004613	5.155e-05	1287.2	3.8724e-06	3.7752e-06	1295.1	348.31	1.765e-06	6.0669e-06	403.3	134.81	117.18	39.971	2.3278e-06	49.947	0.00020608	0.00021446	5.6598e-05	1189.3	2.3068e-06	2.3583e-06	1207.6	319.65	2.3687e-06	2.4023e-06	359.66	119.89	103.37	35.934	2.3261e-06	43.687	-69.524	274.192	272.559	-66.531	166.225	-21.222	-66.565	-61.766	147.686	6.260	-62.418	-57.836	-57.238	-52.940	-27.761	-53.735	-8191	255	
1267.889	1	1	0	0	0.14338	0.11388	0.25804	0.06194	0.11045	0.017477	0.17113	0.15132	0.031217	0.28099	0.090493	0.082165	0.091405	0.18495	0.15961	0.16094	-3.6521	-4.0188	-4.3104	-3.9813	-4.0708	-4.2354	-4.0188	-4.4563	-3.975	-4.0708	-4.4083	-3.8521	-4.2542	-4.2542	-3.8042	-4.3542	9.929	144.872	101.671	256.293	-12.871	266.075	164.537	246.315	161.706	100.020	203.371	-43.034	-36.470	17.346	-64.304	-64.553	0.00028005	0.00028472	0.00011759	1292.9	4.1589e-06	3.414e-06	1293.2	348.28	4.1825e-06	5.7483e-06	402.54	134.37	116.85	39.976	3.7048e-06	49.77	0.00023457	0.00023144	6.118e-05	1200.9	2.662e-06	2.5986e-06	1214.2	322.55	2.723e-06	2.613e-06	361.93	121.14	104.75	36.231	2.4449e-06	44.249	-63.068	-63.872	-77.755	-66.419	197.068	4.720	-66.636	-61.590	36.688	89.412	-62.236	-57.828	-57.106	-53.019	6.584	-53.601	-8191	255	
1267.986	1	1	0	0	0.046327	0.09838	0.18685	0.24637	0.17467	0.1941	0.20875	0.18732	0.11231	0.22227	0.23736	0.1364	0.19255	0.056124	0.16248	0.047095	-3.6146	-3.7687	-4.1354	-4.1875	-4.1542	-4.0458	-3.8083	-4.2458	-4.0729	-3.8896	-4.2688	-3.8729	-4.1396	-4.4208	-3.625	-4.2708	264.597	36.182	86.003	260.589	83.186	239.837	178.912	238.750	-17.201	82.869	266.511	-21.755	216.822	171.976	-53.052	250.140	0.00023083	0.00033409	0.00015382	1291.5	3.3143e-06	3.1583e-06	1300.2	349.52	2.5523e-06	8.7903e-07	405.46	134.3	117.18	40.154	4.8296e-06	49.913	0.00025451	0.00024231	6.2366e-05	1210.3	2.7992e-06	2.6316e-06	1217.4	324.6	2.7511e-06	2.5964e-06	362.03	121.99	104.77	36.124	2.3745e-06	44.418	263.573	276.421	252.923	-66.541	87.898	27.082	-66.572	-61.717	34.275	-30.275	-62.431	-57.759	-57.294	-53.040	-67.565	-53.621	-8191	255	
1268.082	1	1	0	0	0.24096	0.18939	0.076806	0.062239	0.1289	0.21072	0.05439	0.17552	0.071181	0.16264	0.11389	0.052648	0.13693	0.15455	0.071198	0.049689	-3.7625	-3.9604	-4.2896	-4.1417	-4.0208	-4.3021	-4.1687	-4.2292	-3.95	-4.0521	-4.3833	-3.9083	-4.075	-4.5917	-3.7812	-4.2896	204.327	218.495	55.186	86.095	87.882	272.686	235.651	212.042	209.134	161.806	89.747	-63.702	242.883	-60.270	3.070	-70.198	0.00028241	0.00018741	5.5755e-05	1293.2	4.3027e-06	4.3921e-06	1294.2	349.83	3.9081e-06	5.7047e-06	403.24	134.04	116.5	40.072	1.9162e-07	49.604	0.00024907	0.00023262	6.0116e-05	1212.7	2.7024e-06	2.5493e-06	1214.8	325.5	2.6978e-06	2.5346e-06	361.87	122.29	104.32	35.984	2.4726e-06	44.718	-37.096	-21.392	-33.839	-66.634	11.824	-5.231	-66.495	-61.733	25.821	4.603	-62.320	-57.873	-57.224	-52.795	42.550	-53.696	-8191	255	
1268.202	1	1	0	0	0.18798	0.11279	0.10287	0.17276	0.09787	0.13313	0.13276	0.058897	0.061642	0.028476	0.22944	0.33387	0.13621	0.32148	0.041484	0.13974	-3.9167	-3.9542	-4.4479	-4.1188	-3.9271	-4.4417	-3.8125	-4.1667	-4.2542	-3.6771	-4.3542	-4.0917	-4.1167	-4.3938	-3.8354	-4.2979	151.289	-42.852	86.014	267.762	-35.294	-51.079	165.479	107.630	278.727	-13.042	265.783	210.969	213.707	-72.666	-62.330	181.716	0.00027826	0.00051653	6.3911e-05	1295.5	1.8172e-06	4.7185e-06	1299.6	347.71	4.6275e-06	4.6126e-06	401.59	134.25	116.55	39.948	2.2279e-06	49.677	0.00025372	0.0002384	6.531e-05	1222.2	2.8219e-06	2.6479e-06	1224.5	327.67	2.8686e-06	2.653e-06	365.73	123.66	105.52	36.24	2.8225e-06	45.321	276.475	-58.721	-49.968	-66.605	-16.965	27.537	-66.513	-61.663	7.367	9.557	-62.333	-57.822	-57.251	-53.017	75.266	-53.619	-8191	255	
1268.274	1	1	0	0	0.11473	0.1821	0.10781	0.27982	0.10705	0.14298	0.19113	0.18677	0.23375	0.1506	0.10623	0.18696	0.041739	0.1273	0.17561	0.14965	-3.8604	-3.8417	-4.4021	-3.975	-3.9104	-4.3521	-4.2396	-4.2208	-4.1979	-3.7542	-4.3125	-3.9437	-3.8354	-4.3458	-3.9437	-3.9854	-7.809	18.573	170.115	270.880	276.108	23.238	178.370	216.350	52.309	51.390	-31.021	203.389	257.646	230.952	189.226	125.485	0.00019021	0.00065194	5.3277e-05	1301	2.7625e-06	5.6655e-06	1308.8	349.4	3.2088e-06	3.3442e-06	403.57	134.61	116.57	40.013	2.5893e-06	49.746	0.00027219	0.00024982	7.4323e-05	1233.2	2.9825e-06	2.7632e-06	1240.3	329.69	3.0049e-06	2.7445e-06	371.02	124.3	105.74	36.357	3.0768e-06	45.365	-19.063	247.750	-30.180	-66.619	77.263	10.975	-66.525	-61.809	-37.743	43.985	-62.490	-57.861	-56.999	-53.072	108.692	-53.906	-8191	255	
1268.370	1	1	0	0	0.25267	0.17027	0.1174	0.15083	0.19372	0.20105	0.17891	0.20287	0.24906	0.13711	0.15267	0.20882	0.051993	0.21205	0.046509	0.24617	-4.0042	-3.9583	-4.2479	-4.225	-3.9437	-4.2521	-3.9688	-4.0333	-4.2646	-4.1021	-4.3	-4.1167	-3.8708	-4.4521	-3.9104	-3.9188	176.553	124.658	-36.287	-45.574	-64.357	-46.165	214.316	-56.913	233.033	275.283	46.923	22.099	278.399	272.688	177.530	173.070	0.0002122	4.7366e-05	1.6601e-05	1305.8	2.9311e-06	4.1444e-06	1308.7	349.46	4.0131e-06	2.7615e-06	403.04	134.58	116.9	39.764	1.6655e-06	49.767	0.00027647	0.00025551	7.9408e-05	1237.6	2.982e-06	2.8278e-06	1247.3	329.82	2.9655e-06	2.8115e-06	372.78	124.34	105.37	36.415	3.1397e-06	45.209	-10.227	64.338	189.636	-66.593	35.223	78.189	-66.493	-61.728	-77.848	-21.761	-62.416	-57.899	-57.214	-52.894	56.013	-53.866	-8191	255	
1268.491	1	1	0	0	0.13235	0.22518	0.14729	0.24523	0.20089	0.12158	0.31701	0.20363	0.1721	0.18581	0.17715	0.029124	0.14059	0.28595	0.094343	0.15512	-3.8646	-4	-4.0667	-4.425	-3.7438	-4.2042	-4.2042	-4.0333	-4.1521	-3.8271	-4.3854	-4.2646	-3.8125	-4.3313	-4.2917	-4.0271	-34.046	-16.784	-61.514	273.508	11.361	264.954	208.565	268.085	101.279	259.685	162.191	258.688	248.526	204.287	69.446	223.030	0.00017852	0.00024402	8.0211e-05	1306	2.5397e-06	3.338e-06	1312	349.29	5.199e-06	1.508e-06	402.75	133.97	117.01	39.999	3.9388e-06	49.845	0.00026296	0.00025805	7.9492e-05	1231.7	2.7909e-06	2.8487e-06	1243.6	327.78	2.7621e-06	2.827e-06	370.94	123.34	104.46	36.486	3.0364e-06	44.981	274.222	59.762	273.179	-66.588	15.762	103.849	-66.730	-61.741	24.828	120.371	-62.340	-57.858	-57.350	-52.868	-53.455	-53.701	-8191	255	
1268.585	1	1	0	0	0.15265	0.22842	0.24043	0.25656	0.15549	0.20169	0.36621	0.12126	0.15796	0.20468	0.21179	0.15504	0.18252	0.10385	0.10108	0.015034	-3.9188	-3.9396	-4.1896	-4.425	-3.7188	-4.2875	-4.2937	-4.0146	-4.2979	-3.9333	-4.1667	-4.45	-3.9583	-4.4125	-4.0292	-3.9521	-44.557	-78.493	125.838	260.523	16.527	11.098	235.341	240.909	109.563	69.351	225.842	-58.942	269.971	272.151	125.138	220.960	0.00033384	0.00032375	7.2918e-05	1299.8	3.8404e-06	1.8759e-06	1303.3	349.05	2.9155e-06	1.3625e-06	402.15	133.86	116.73	39.719	1.0338e-06	49.877	0.00024954	0.00026635	7.7452e-05	1227.1	2.6926e-06	2.9718e-06	1239.5	327.2	2.6966e-06	2.9482e-06	369.51	122.61	104.12	36.6	2.9192e-06	44.61	-64.503	57.493	226.195	-66.670	15.438	175.164	-66.498	-61.784	20.774	56.573	-62.330	-57.890	-57.132	-52.829	1.784	-53.779	-8191	255	
1268.681	1	1	0	0	0.10397	0.1671	0.30368	0.21112	0.12541	0.097783	0.18887	0.2734	0.12668	0.24085	0.29075	0.13826	0.28557	0.11802	0.077669	0.071481	-3.9167	-3.9292	-4.0188	-4.5542	-3.8917	-4.1479	-4.2521	-4.0354	-4.3979	-4.0646	-4.1125	-4.25	-4.0083	-4.2271	-4.3771	-3.9875	-58.979	93.456	258.237	279.847	189.826	179.775	229.126	244.623	32.759	-20.498	178.120	260.592	-17.768	259.671	-5.569	69.134	0.0003097	4.82e-05	5.9216e-05	1300.8	2.3729e-06	1.2587e-06	1297.9	347.98	3.9582e-06	4.781e-06	404.63	134.52	116.34	40.023	2.9502e-06	49.715	0.00024431	0.00027011	7.3548e-05	1220.9	2.6435e-06	2.9778e-06	1234	324.99	2.691e-06	2.952e-06	367.79	122.08	104.11	36.63	2.7655e-06	44.253	262.779	192.500	-4.510	-66.684	11.854	241.424	-66.483	-61.839	185.402	4.502	-62.505	-57.885	-57.240	-52.783	81.500	-53.639	-8191	255	
1268.802	1	1	0	0	0.25875	0.11424	0.044448	0.17439	0.12631	0.14635	0.026687	0.059576	0.0074009	0.21518	0.21745	0.017297	0.18784	0.07863	0.27737	0.053138	-3.9646	-3.8583	-4.0229	-4.5167	-3.7625	-4.1833	-4.5292	-4.075	-4.3104	-3.9979	-4.025	-4.4458	-3.9333	-4.1833	-4.1604	-3.8208	203.143	123.307	169.981	230.732	251.748	111.465	-40.389	231.236	132.371	246.297	-64.612	39.203	278.306	-8.172	-44.035	264.580	0.00039181	8.2658e-05	6.1645e-05	1302.4	1.36e-06	1.4789e-06	1305.8	349.14	4.3849e-06	3.3149e-06	404.21	133.84	117.09	40.088	5.6648e-06	49.68	0.0002448	0.00026314	6.9286e-05	1215.4	2.6534e-06	2.8376e-06	1230.3	323.53	2.6837e-06	2.8116e-06	365.61	121.16	104.54	36.483	2.6805e-06	44.015	-78.678	202.806	-22.663	-66.614	164.063	-50.425	-66.750	-61.586	169.353	78.489	-62.520	-57.841	-57.189	-52.870	-16.241	-53.593	-8191	255	
1268.898	1	1	0	0	0.13465	0.28524	0.030769	0.2223	0.14418	0.12179	0.26313	0.24234	0.11642	0.28484	0.10323	0.1961	0.057107	0.2345	0.04175	0.091812	-3.8229	-4.0458	-4.1104	-4.3417	-3.9146	-4.1292	-4.3521	-3.7979	-4.2438	-4.1354	-4.0833	-4.575	-3.9604	-4.1312	-4.4875	-3.8563	109.387	37.439	-58.750	243.738	91.494	79.560	166.404	199.224	36.004	159.537	206.554	171.737	132.361	255.518	242.961	79.722	0.00015906	0.00051093	1.5145e-05	1300.1	3.4057e-06	1.1965e-06	1308.3	348.52	3.629e-06	2.5095e-06	404.58	133.94	117.01	39.93	1.0459e-06	49.954	0.0002573	0.00025977	6.8137e-05	1214.7	2.8174e-06	2.8373e-06	1230	323.61	2.8497e-06	2.8007e-06	364.86	121.4	105.03	36.396	2.612e-06	44.103	247.121	273.918	64.218	-66.671	-27.518	228.710	-66.675	-61.866	201.567	45.185	-62.555	-57.855	-57.128	-52.947	109.786	-53.754	-8191	255	
1268.970	1	1	0	0	0.090048	0.22115	0.12907	0.058556	0.081733	0.14552	0.045507	0.16225	0.11739	0.10546	0.076424	0.11247	0.18838	0.078234	0.21701	0.26007	-3.8688	-4.0167	-4.0042	-4.4292	-3.9208	-3.9771	-4.5771	-4.1792	-4.1854	-4.2562	-4.0875	-4.4792	-4.0146	-3.925	-4.4375	-4.0021	100.150	-25.905	42.220	106.344	-8.218	-42.431	188.617	261.494	64.326	71.354	-4.813	120.927	-55.606	190.782	60.442	-79.234	0.00012078	0.00021668	6.681e-05	1298	1.8838e-06	5.0636e-06	1301.8	347.54	2.5318e-06	5.5651e-06	402.02	134.04	116.65	40.042	2.4791e-06	49.436	0.00026167	0.00025178	6.5083e-05	1215.2	2.8433e-06	2.7429e-06	1225.8	324.04	2.8763e-06	2.7308e-06	362.92	121.82	105.15	36.28	2.5174e-06	44.211	-69.910	215.686	278.486	-66.545	-38.223	-29.521	-66.457	-61.648	158.282	4.585	-62.419	-57.842	-57.180	-52.782	46.195	-53.780	-8191	255	
1269.090	1	1	0	0	0.26384	0.17098	0.089522	0.17243	0.25632	0.24777	0.18739	0.34961	0.1365	0.19798	0.10353	0.15118	0.16271	0.2602	0.13745	0.11025	-3.8729	-4.0979	-3.6688	-4.3917	-4.1667	-3.9354	-4.5458	-4.0854	-4.2271	-4.625	-4.0062	-4.3583	-4.15	-4.0167	-4.3688	-4.0375	260.818	113.619	228.146	237.815	-39.284	262.276	-30.206	241.528	55.397	221.472	271.335	225.395	-29.189	243.539	212.462	136.552	0.00012169	8.952e-05	5.651e-05	1298.5	2.015e-06	4.6324e-06	1307.9	348.77	4.0824e-06	5.1695e-07	403.18	134.1	116.92	39.875	4.3699e-06	49.914	0.00025954	0.00024485	6.1985e-05	1217.2	2.7879e-06	2.6379e-06	1221.8	324.92	2.7612e-06	2.5985e-06	360.83	121.95	104.51	35.98	2.3594e-06	44.356	-11.612	48.901	104.770	-66.514	51.446	38.223	-66.516	-62.018	-9.568	-72.569	-62.556	-57.853	-57.061	-53.033	266.270	-53.752	-8191	255	
1269.187	1	1	0	0	0.12864	0.17406	0.042853	0.19648	0.30353	0.17537	0.12507	0.18175	0.16813	0.061318	0.09477	0.049619	0.17379	0.04537	0.31734	0.023065	-3.7271	-4.1396	-3.9542	-4.3542	-4.1083	-3.9917	-4.5062	-3.8812	-3.9833	-4.2021	-4.0646	-4.3708	-3.8917	-3.7833	-4.4437	-4.1708	-7.104	44.036	-73.684	-71.374	49.295	-67.090	229.871	224.486	126.569	50.854	25.552	-25.636	-47.053	254.755	-8.491	136.588	0.00029093	0.00043223	7.47e-05	1298	2.466e-06	4.5409e-06	1299.2	348.98	1.514e-06	3.7166e-06	401.53	134.12	116.73	40.059	4.3529e-06	49.784	0.00024481	0.0002299	5.9358e-05	1216.4	2.6444e-06	2.4809e-06	1217.6	325.09	2.6379e-06	2.4579e-06	360.42	122.05	103.97	35.854	2.397e-06	44.422	271.573	266.741	200.215	-66.595	-60.087	109.521	-66.845	-61.762	113.876	-1.292	-62.356	-57.791	-57.186	-52.930	190.064	-53.829	-8191	255	
1269.283	1	1	0	0	0.21176	0.055858	0.12938	0.16518	0.17825	0.20494	0.29445	0.092268	0.12299	0.14827	0.25293	0.29839	0.13066	0.05711	0.2281	0.23224	-3.6063	-4.3938	-3.7708	-4.3979	-4.2333	-3.8458	-4.5896	-3.9625	-3.8625	-4.2812	-3.6854	-4.3708	-4.2521	-3.9104	-4.0583	-4.2667	169.387	171.337	254.414	-12.294	223.935	139.331	240.184	207.801	145.723	183.951	166.739	264.195	-74.019	21.397	21.009	243.472	0.00010194	0.00026186	0.00010158	1293.7	1.316e-06	3.5068e-06	1297	348.5	2.3801e-06	4.1987e-06	402.16	134.51	116.18	40.025	3.5307e-06	49.573	0.00023904	0.00022251	6.1416e-05	1215.9	2.5834e-06	2.4154e-06	1219	325.31	2.6093e-06	2.4077e-06	362.75	122.49	103.65	35.742	2.5386e-06	44.421	246.440	237.191	59.479	-66.526	-4.982	-35.385	-66.561	-61.725	142.406	-14.576	-62.370	-57.877	-57.167	-53.014	153.826	-53.758	-8191	255	
1269.379	1	1	0	0	0.26505	0.13327	0.1332	0.37131	0.18226	0.18198	0.28768	0.11308	0.065636	0.09546	0.16041	0.069545	0.096604	0.19745	0.22895	0.079176	-3.4875	-4.3521	-3.9646	-4.3771	-4.1229	-4.0646	-4.4042	-4.2771	-3.9521	-4.3542	-3.9917	-4.1542	-4.0312	-3.9354	-4.2583	-4.2333	214.758	200.059	3.716	241.028	208.421	97.188	188.144	231.902	149.762	-10.118	241.500	19.293	245.416	113.939	231.427	260.729	7.0012e-05	0.00020426	9.5102e-05	1296	5.413e-07	2.5183e-06	1300.2	348.46	1.9457e-06	4.4945e-06	401.84	134.19	116.35	40.027	2.2972e-06	49.773	0.00023581	0.00021775	6.4603e-05	1215.5	2.5605e-06	2.3625e-06	1224.1	325	2.5582e-06	2.3803e-06	364.16	122.05	103.5	35.707	2.6621e-06	44.323	120.104	269.524	128.631	-66.455	-40.947	-15.692	-66.533	-61.742	-1.298	22.509	-62.462	-57.673	-57.412	-52.909	137.380	-53.595	-8191	255	
1269.498	1	1	0	0	0.13099	0.18591	0.09669	0.078381	0.15073	0.081998	0.20488	0.13904	0.24639	0.18661	0.10484	0.13595	0.15217	0.07883	0.039118	0.093427	-3.7021	-4.275	-4.0667	-4.1667	-4.2229	-3.8812	-4.2479	-4.3187	-3.9042	-4.3333	-3.8479	-4.1896	-4.2333	-3.8854	-4.2542	-4.3354	262.606	-38.396	246.749	251.875	140.307	228.564	220.617	138.374	106.182	49.304	201.858	275.469	206.629	249.926	85.807	-35.952	0.00032123	6.0803e-05	6.246e-05	1300.4	4.8698e-06	8.8162e-07	1304	348.89	2.8191e-06	4.0256e-06	403.36	134.56	117.45	39.904	5.4781e-06	49.809	0.00023124	0.00021939	6.7961e-05	1215.4	2.5349e-06	2.4259e-06	1228.9	325.49	2.5256e-06	2.4777e-06	366.29	122.13	103.64	35.848	2.7451e-06	44.299	-14.812	-60.748	-34.856	-66.649	-52.070	190.860	-66.495	-61.850	-8.331	145.287	-62.277	-57.775	-57.367	-52.850	21.074	-53.649	-8191	255	
1269.569	1	1	0	0	0.053171	0.30852	0.082831	0.36115	0.10761	0.15792	0.21945	0.33735	0.10148	0.18789	0.15981	0.19553	0.13495	0.28398	0.069914	0.077677	-3.3708	-4.4062	-3.9	-4.0687	-4.2271	-3.7583	-4.3521	-4.2083	-3.7333	-4.275	-4.2042	-4.0917	-4.3167	-3.9917	-4.1833	-4.3125	29.068	-11.579	51.518	227.268	155.107	221.665	261.295	205.776	148.570	158.174	171.119	181.152	218.847	164.534	214.482	268.608	0.00012339	4.3465e-05	5.3004e-05	1296.7	1.738e-06	1.5955e-06	1304.6	348.32	2.4804e-06	1.1653e-06	402.91	135.03	117.06	40.026	3.6236e-06	49.898	0.00022677	0.00023075	6.8871e-05	1213.8	2.4591e-06	2.5366e-06	1228.8	324.36	2.4292e-06	2.587e-06	365.42	121.88	103.12	36.088	2.704e-06	44.232	255.136	-72.997	251.601	-66.516	-55.781	261.907	-66.509	-61.816	58.395	123.655	-62.320	-57.729	-57.252	-52.978	-56.590	-53.983	-8191	255	
1269.666	1	1	0	0	0.12747	0.048687	0.23886	0.18417	0.16149	0.1256	0.045471	0.26171	0.15556	0.08445	0.15409	0.23687	0.11748	0.14542	0.045994	0.058104	-3.3375	-4.1604	-4.1438	-4.1375	-4.2625	-4.0604	-4.3042	-4.2917	-3.7917	-4.2375	-4.4542	-3.9146	-4.1958	-4.1667	-3.8875	-4.1687	241.590	177.937	175.598	-48.299	53.708	78.634	-29.292	175.012	226.956	-0.695	115.384	93.661	191.982	240.460	175.989	266.796	0.00023255	0.00021336	0.00012469	1300.3	7.0783e-07	2.1461e-06	1305	348.78	1.0315e-06	1.1264e-06	404.18	134.63	116.7	39.965	2.2706e-06	49.986	0.00022125	0.00024347	6.8902e-05	1212.7	2.4219e-06	2.6763e-06	1228.9	324.21	2.4191e-06	2.722e-06	365.05	121.64	103.2	36.216	2.6659e-06	44.197	-51.270	11.262	248.401	-66.519	253.733	122.281	-66.627	-61.600	-73.230	14.408	-62.479	-57.917	-57.043	-52.967	2.093	-53.801	-8191	255	
1269.762	1	1	0	0	0.31998	0.12084	0.10037	0.11702	0.10162	0.043162	0.066592	0.23062	0.025858	0.11003	0.18301	0.040959	0.10938	0.16741	0.062104	0.14757	-3.425	-4.2271	-4.0625	-3.8792	-4.2958	-3.975	-4.0375	-4.2854	-3.8667	-4.2646	-4.2417	-3.8167	-4.3167	-4.1292	-4.0437	-4.2708	126.403	-74.442	27.735	191.093	52.751	146.267	271.441	193.786	182.248	101.141	-30.137	55.286	-8.048	219.801	114.778	114.991	0.00018662	0.00013038	0.00010266	1294.9	3.0809e-06	1.3406e-06	1301.5	347.93	4.8759e-06	9.8943e-07	402.11	134.78	117.07	40.006	1.0629e-06	50.001	0.00022332	0.00025267	6.7316e-05	1210.1	2.4963e-06	2.7407e-06	1225.4	323.57	2.4972e-06	2.7609e-06	364.26	121.06	103.63	36.303	2.6139e-06	43.939	261.882	-34.308	-33.474	-66.545	277.875	226.622	-66.662	-61.743	209.642	42.902	-62.525	-57.717	-57.101	-52.912	-60.735	-53.639	-8191	255	
1269.882	1	1	0	0	0.34429	0.2682	0.13353	0.11143	0.22812	0.075678	0.1535	0.3288	0.035993	0.030673	0.15745	0.14623	0.24512	0.26077	0.32466	0.15366	-3.4188	-4.2854	-4.2104	-3.9688	-4.3	-3.9604	-4.1083	-4.375	-3.8292	-3.9125	-4.2271	-3.925	-4.2229	-4.2667	-3.8896	-4.45	261.339	-40.980	50.211	55.807	-72.375	40.761	226.103	183.936	260.066	259.760	-75.922	-58.364	203.964	206.552	265.061	262.340	0.00038781	0.00051753	9.6983e-05	1297.7	1.9557e-06	5.2008e-06	1302.1	347.9	3.3336e-06	1.9988e-06	401.88	133.73	116.89	39.974	4.1298e-06	49.854	0.0002333	0.000252	6.6435e-05	1208.8	2.6246e-06	2.756e-06	1223.9	322.77	2.6503e-06	2.749e-06	363.53	120.77	104.35	36.257	2.5821e-06	43.88	-71.163	251.165	-17.724	-66.515	162.054	14.925	-66.529	-61.929	-42.073	44.303	-62.604	-57.927	-57.136	-53.008	-18.153	-53.802	-8191	255	
1269.979	1	1	0	0	0.09722	0.1496	0.039807	0.20677	0.18662	0.11177	0.078023	0.25194	0.15375	0.1386	0.27691	0.13817	0.026112	0.23867	0.25546	0.27944	-3.6542	-4.1167	-4.4354	-3.8792	-4.2625	-4.2042	-4.0542	-4.3083	-3.8979	-4.1062	-4.4833	-3.7979	-4.1625	-4.3042	-3.7542	-4.3708	-62.910	188.249	-77.945	145.175	29.750	277.397	251.832	226.249	263.789	218.685	258.251	191.017	-51.247	-77.823	234.174	-63.067	0.00029732	0.00029657	0.00015621	1298.2	1.735e-06	5.0623e-06	1301.4	348.49	1.5788e-06	1.7114e-06	402.55	134.17	117.11	40.124	2.3847e-06	49.774	0.00024677	0.00024892	6.5158e-05	1207.9	2.7368e-06	2.7056e-06	1222.9	322.78	2.7224e-06	2.6615e-06	362.37	120.86	104.86	36.133	2.4755e-06	43.908	264.254	-58.876	-70.045	-66.617	189.509	17.397	-66.503	-61.872	241.901	-33.413	-62.562	-57.887	-57.228	-53.014	73.906	-53.764	-8191	255	
1270.075	1	1	0	0	0.1173	0.075081	0.11878	0.14052	0.13327	0.18107	0.24918	0.26416	0.29468	0.088973	0.29168	0.022241	0.11882	0.064067	0.089841	0.24761	-3.7083	-3.8729	-4.3958	-3.9604	-4.2083	-4.2146	-4.0375	-4.3167	-4.0958	-4.0437	-4.3938	-3.9083	-4.3271	-4.075	-3.7938	-4.4708	222.836	246.217	193.421	-18.681	249.189	-77.730	271.920	-50.229	187.830	137.488	225.176	255.258	227.331	136.223	98.870	212.987	1.9859e-05	0.000416	4.5348e-05	1295.7	1.3084e-06	4.3639e-06	1305.4	348.99	2.6899e-06	7.2577e-07	402.63	133.75	117.13	39.905	1.9578e-06	49.92	0.00025082	0.00023955	6.233e-05	1210.1	2.7503e-06	2.6189e-06	1219.6	323.78	2.7281e-06	2.594e-06	361.21	121.35	104.66	36.035	2.3626e-06	44.221	-78.958	251.104	-4.244	-66.647	-19.963	9.790	-66.533	-61.608	82.413	85.906	-62.478	-57.562	-57.248	-53.122	-21.899	-53.730	-8191	255	
1270.171	1	1	0	0	0.24343	0.069209	0.1049	0.26192	0.31841	0.060871	0.28458	0.22996	0.11639	0.044384	0.2017	0.27431	0.21816	0.041751	0.080862	0.23821	-3.6542	-3.7562	-4.4792	-4.175	-4.1354	-4.225	-4.0938	-4.5521	-4.0458	-3.8729	-4.5	-3.9875	-3.8771	-4.2854	-3.8042	-4.3667	165.422	153.641	130.378	-48.041	232.054	12.016	232.896	253.620	29.776	53.488	-48.039	235.911	-79.065	192.478	268.044	250.376	0.00019209	0.00029567	9.1709e-05	1298.4	5.4865e-06	1.3649e-06	1304.1	348.29	2.4028e-06	1.822e-06	403.6	134.43	116.93	39.919	2.9569e-06	49.712	0.00024899	0.00023469	6.0447e-05	1214.7	2.7274e-06	2.5769e-06	1218.4	325.17	2.7118e-06	2.5605e-06	361.24	122.23	104.59	36.022	2.3692e-06	44.431	-5.689	-53.829	-36.757	-66.497	-72.847	61.495	-66.474	-61.600	91.070	56.534	-62.600	-57.687	-57.094	-52.833	124.756	-53.697	-8191	255	
1270.267	1	1	0	0	0.10854	0.096419	0.095055	0.24656	0.11349	0.18141	0.13444	0.21579	0.30821	0.14718	0.24753	0.034895	0.047599	0.19122	0.085632	0.18772	-3.625	-3.7812	-4.4021	-4.1979	-3.8542	-4.1917	-3.975	-4.3917	-4.2104	-3.7229	-4.2063	-4.25	-4.0021	-4.5938	-3.9	-4.2417	71.769	-5.516	-15.091	-68.315	76.695	-4.692	251.350	232.876	-10.811	149.674	-54.893	95.860	-72.077	-71.090	100.842	61.000	0.00028056	0.00043769	0.0001089	1301.8	7.5951e-07	3.9492e-06	1302.6	348.54	5.2974e-06	2.8672e-06	403.53	133.88	116.8	40.046	3.6845e-06	49.758	0.00024681	0.00022982	6.1041e-05	1218	2.6757e-06	2.517e-06	1221.4	325.97	2.6752e-06	2.5089e-06	362.72	122.44	104.2	35.871	2.4538e-06	44.602	-77.390	262.018	-22.435	-66.418	177.274	-0.962	-66.743	-61.707	47.648	3.153	-62.413	-57.833	-57.191	-52.626	114.806	-53.776	-8191	255	
1270.363	1	1	0	0	0.066646	0.26678	0.12033	0.020534	0.074371	0.093788	0.25147	0.13725	0.17443	0.045036	0.10441	0.053195	0.07176	0.20695	0.15839	0.21003	-3.9333	-3.9292	-4.3958	-4.1875	-3.9062	-4.4396	-4.1562	-4.2667	-4.0896	-3.7188	-4.5729	-4.2562	-4.1104	-4.4167	-3.7542	-4.3208	50.814	-56.720	128.885	184.861	-69.469	224.641	228.150	219.592	121.030	170.240	181.962	221.466	-64.660	266.430	31.205	279.317	0.0003179	0.00051222	3.0493e-05	1299.3	5.8123e-06	6.0231e-06	1302.1	348.78	4.2878e-06	2.0333e-06	401.74	134.15	117.26	40.051	2.9399e-06	49.807	0.00024318	0.00022253	6.3619e-05	1219.6	2.6297e-06	2.4632e-06	1225	326.17	2.6339e-06	2.409e-06	364.01	122.46	104.06	35.794	2.5893e-06	44.513	276.434	258.174	95.565	-66.450	31.312	5.432	-66.660	-61.669	241.634	1.255	-62.349	-57.778	-57.099	-52.937	176.756	-53.590	-8191	255	
1270.482	1	1	0	0	0.24739	0.16373	0.12841	0.13643	0.066327	0.10697	0.1457	0.41697	0.09804	0.18077	0.087279	0.17935	0.071085	0.10069	0.28694	0.19443	-3.8208	-3.6708	-4.2188	-4.2125	-3.7854	-4.175	-4.0604	-4.2417	-4.1417	-3.8229	-4.1813	-4.3958	-3.9708	-4.4938	-3.8312	-3.975	100.301	-39.039	189.967	199.222	262.431	101.519	211.736	192.257	81.871	-0.094	227.588	133.239	55.189	244.604	-16.754	-63.855	0.00028394	9.6366e-05	7.4869e-05	1295.2	4.7626e-06	2.5052e-06	1302	348.51	3.5418e-06	1.2932e-06	403.7	134.57	116.95	40.014	2.3752e-06	50	0.00023832	0.00021934	6.7378e-05	1217.2	2.6032e-06	2.4352e-06	1229.2	325.98	2.6069e-06	2.4372e-06	366.79	122.53	103.97	35.859	2.7199e-06	44.431	-58.225	213.079	59.735	-66.834	35.943	111.150	-66.572	-61.586	9.421	50.437	-62.483	-57.945	-57.143	-52.948	135.012	-54.043	-8191	255	
1270.578	1	1	0	0	0.083451	0.31123	0.22779	0.34504	0.15943	0.088502	0.17288	0.060765	0.12153	0.17898	0.23457	0.10154	0.1676	0.15946	0.066317	0.036045	-3.8292	-3.8688	-4.2312	-4.2021	-3.7542	-4.2812	-4.0729	-3.9188	-4.4479	-3.9854	-4.2896	-4.2021	-3.7604	-4.4333	-3.9562	-3.8333	21.071	230.206	177.286	280.085	140.691	174.561	201.567	143.947	-23.413	101.556	223.039	158.019	-65.914	240.390	-22.369	261.006	0.0001561	4.7195e-05	5.3185e-05	1296.4	2.6615e-06	1.5482e-06	1305.1	350.2	3.9331e-06	2.0261e-06	403.47	134.82	117.44	39.942	2.0376e-06	49.669	0.00023586	0.00022477	7.0419e-05	1216.7	2.5436e-06	2.5064e-06	1231.8	325.73	2.5307e-06	2.4985e-06	367.12	122.23	103.6	36.007	2.7149e-06	44.214	-35.368	134.382	269.982	-66.709	15.549	142.299	-66.709	-61.747	36.741	47.257	-62.650	-57.713	-57.358	-52.879	132.849	-53.657	-8191	255	
1270.674	1	1	0	0	0.047805	0.056874	0.051341	0.30271	0.096624	0.12989	0.34612	0.21515	0.11423	0.1584	0.33705	0.10664	0.038434	0.19646	0.18343	0.098439	-4.0292	-3.8333	-4.15	-4.2667	-3.7292	-4.1625	-4.1354	-3.9167	-4.2896	-3.8167	-4.2667	-4.2792	-3.8958	-4.3167	-4.1854	-3.9917	167.445	96.700	-23.437	223.487	196.042	-5.054	212.011	-50.662	189.611	8.063	248.407	-68.707	1.143	279.099	139.008	242.779	4.2138e-05	0.00024652	3.3119e-05	1298.7	2.0987e-06	2.8646e-06	1302.1	349.73	2.3173e-06	6.4403e-06	403.02	134.12	117.13	39.867	4.4034e-06	49.948	0.00022298	0.00022974	6.8412e-05	1215.8	2.3794e-06	2.5468e-06	1227.2	324.53	2.3645e-06	2.5419e-06	364.82	121.39	102.67	36.036	2.5899e-06	43.992	107.402	42.076	-28.482	-66.619	20.834	220.352	-66.447	-61.775	94.465	100.850	-62.406	-57.797	-57.406	-52.896	258.168	-53.546	-8191	255	
1270.770	1	1	0	0	0.10334	0.051703	0.15484	0.15341	0.16201	0.1217	0.042819	0.20277	0.19587	0.17864	0.0453	0.25969	0.15161	0.19975	0.095607	0.057358	-4.1667	-3.7687	-3.9688	-4.4396	-3.9437	-4.1417	-4.0833	-4.0687	-4.3229	-3.875	-4.1458	-4.4083	-3.9854	-4.2625	-4.1854	-3.7417	220.701	41.270	121.319	159.212	-27.272	208.264	126.879	235.634	-57.592	-34.760	134.432	277.142	196.145	248.394	56.536	108.156	0.00024602	5.22e-05	0.00011335	1303.2	1.7072e-06	2.4696e-06	1302.6	348.9	3.4229e-06	7.1688e-07	404.37	134.46	116.63	40.012	3.1366e-06	49.911	0.00021451	0.00023534	6.5562e-05	1212.1	2.3265e-06	2.6242e-06	1224.3	323.74	2.366e-06	2.6213e-06	364.14	121.11	103.05	36.211	2.553e-06	43.877	-69.604	45.077	-62.445	-66.428	70.751	231.108	-66.578	-61.798	269.840	197.110	-62.428	-57.677	-57.327	-52.969	-4.460	-53.688	-8191	255	
1270.867	1	1	0	0	0.16015	0.16182	0.13167	0.21602	0.20879	0.18736	0.22427	0.015184	0.20686	0.15179	0.18141	0.048119	0.21669	0.32329	0.075901	0.40611	-4.0125	-4.1062	-4	-4.4292	-3.8875	-4.1854	-4.2917	-4.0188	-4.1937	-4.0146	-4.1354	-4.45	-3.9333	-4.0062	-4.175	-3.9708	188.872	41.519	188.064	270.057	26.242	-17.089	258.284	-62.492	194.386	87.182	-47.860	279.476	259.793	171.699	96.761	-78.076	0.00040203	0.00042848	0.00015398	1298	1.527e-06	3.6548e-06	1301.5	350.68	2.4434e-06	2.8702e-06	402.6	134.27	116.94	39.936	1.3259e-06	49.82	0.00022045	0.00024316	6.441e-05	1209.3	2.4129e-06	2.6689e-06	1224.1	322.9	2.4544e-06	2.6429e-06	362.59	120.71	103.36	36.107	2.4717e-06	43.645	259.977	-45.858	-51.525	-66.632	54.588	-24.699	-66.485	-61.600	124.241	43.230	-62.370	-57.750	-57.266	-52.962	9.862	-53.695	-8191	255	
1270.963	1	1	0	0	0.14934	0.21873	0.14535	0.41856	0.2355	0.21227	0.06661	0.2773	0.17114	0.27415	0.17112	0.34699	0.13734	0.14115	0.19356	0.12431	-4.0583	-4.0104	-3.9896	-4.4833	-4.0354	-4.0854	-4.3521	-3.8729	-4.2333	-4.1771	-4.0729	-4.2375	-3.9792	-4.2771	-4.4521	-3.8396	139.850	69.366	275.434	-69.235	219.932	207.100	33.238	151.857	85.593	176.650	52.656	207.750	-48.825	-31.974	160.989	158.376	0.00023528	0.00021978	0.00012595	1298.9	3.1511e-06	4.015e-06	1300.5	347.83	4.3104e-06	2.2357e-06	402.56	134.48	117.33	39.815	2.7869e-06	49.57	0.00022795	0.00023616	6.2077e-05	1204.1	2.4748e-06	2.5765e-06	1219.6	321.44	2.5314e-06	2.5534e-06	361.72	120.42	103.89	35.993	2.4188e-06	43.564	-69.515	16.739	-48.155	-66.650	65.898	3.997	-66.584	-61.882	176.515	36.299	-62.377	-57.922	-57.118	-52.785	13.393	-53.780	-8191	255	
1271.059	1	1	0	0	0.031512	0.11139	0.10268	0.15764	0.34796	0.10058	0.21252	0.12754	0.023761	0.014479	0.16725	0.09976	0.17078	0.14713	0.13021	0.15359	-3.8583	-4.0917	-3.8625	-4.5104	-3.7792	-4.0229	-4.3938	-3.9042	-4.1958	-4.1979	-3.8896	-4.5479	-4.0854	-3.9104	-4.4187	-3.9729	261.840	-65.897	88.732	221.234	121.668	76.371	256.888	-14.915	187.820	54.574	218.730	214.527	205.637	-51.042	-40.967	211.722	0.00037735	0.00033583	9.2309e-05	1296.6	1.1146e-06	1.9851e-06	1300.5	349.03	2.1186e-06	4.0736e-06	402.51	133.87	116.94	39.961	2.2495e-06	49.896	0.00023688	0.00023502	6.0836e-05	1205.5	2.6163e-06	2.5759e-06	1219	322.26	2.6823e-06	2.5732e-06	361.44	120.91	104.53	36.02	2.416e-06	43.893	-66.234	230.708	-71.855	-66.546	109.553	180.851	-66.592	-61.800	71.737	31.454	-62.385	-57.731	-57.187	-52.838	11.674	-53.670	-8191	255	
1271.155	1	1	0	0	0.043304	0.12678	0.051609	0.071292	0.33088	0.078147	0.21073	0.092566	0.16455	0.053375	0.093022	0.038919	0.13586	0.24541	0.23203	0.10874	-3.7479	-4.1042	-3.9146	-4.3396	-3.9896	-3.9646	-4.4708	-4.1208	-4.075	-4.2208	-3.9542	-4.2667	-4.0917	-4.175	-4.5521	-3.7062	219.662	38.204	230.805	145.979	72.507	75.957	254.838	245.109	119.101	202.059	168.758	113.506	250.487	77.617	117.446	71.730	0.0003238	0.00047947	8.9708e-05	1296.5	3.7397e-06	5.5873e-06	1304	348.73	4.8599e-06	1.5592e-06	403.1	134.47	116.49	39.962	2.6573e-06	49.771	0.00024816	0.00023577	6.0523e-05	1210.8	2.7007e-06	2.5712e-06	1218.6	323.69	2.7131e-06	2.5591e-06	360.66	121.6	104.42	35.997	2.3426e-06	44.179	272.041	272.301	254.167	-66.545	56.658	60.703	-66.699	-61.778	55.613	-60.665	-62.436	-57.752	-57.102	-52.749	-26.479	-53.683	-8191	255	
1271.276	1	1	0	0	0.092302	0.099256	0.17847	0.059972	0.18303	0.30279	0.26404	0.33213	0.076586	0.18109	0.26202	0.30253	0.11002	0.18682	0.24249	0.13283	-3.9208	-4.325	-3.7042	-4.5042	-4.1792	-4.0375	-4.2937	-4.0792	-4.1604	-4.3646	-3.9458	-4.2812	-4.2417	-3.9125	-4.3104	-3.8771	115.531	206.627	-62.819	225.274	70.239	134.291	218.548	209.032	252.076	20.962	269.532	215.904	177.840	193.387	142.489	243.310	0.00033409	0.00021341	0.00012006	1294.1	1.4724e-07	4.2223e-06	1301.3	349.11	1.5455e-06	1.9312e-06	402.2	134.39	117.09	40.049	1.7997e-06	49.804	0.00024475	0.00023077	5.8917e-05	1214.3	2.6473e-06	2.5144e-06	1217.6	325.23	2.674e-06	2.5108e-06	360.79	122.01	104.26	35.884	2.3569e-06	44.372	276.752	273.469	261.897	-66.486	110.334	62.044	-66.534	-61.835	-30.228	56.531	-62.195	-57.983	-57.297	-52.985	242.182	-53.835	-8191	255	
1271.370	1	1	0	0	0.12008	0.17929	0.20855	0.10209	0.18747	0.10175	0.16791	0.031797	0.12409	0.17556	0.085572	0.24643	0.06473	0.23585	0.22136	0.19186	-3.6521	-4.2688	-3.7979	-4.1521	-4.0813	-3.6771	-4.5021	-4.2104	-3.9958	-4.4042	-3.9625	-4.1354	-4.2042	-3.7146	-4.3146	-3.9229	274.722	-6.690	-9.194	217.941	225.545	111.328	131.892	226.264	-66.406	-58.522	105.352	220.830	52.929	256.803	125.222	-3.906	0.00024593	0.00038093	1.6865e-05	1302	3.1489e-06	4.9186e-06	1300.9	349.27	2.037e-06	9.7007e-07	404.07	134.57	117.34	40.013	3.3174e-06	49.979	0.00023958	0.0002259	5.954e-05	1217.9	2.5812e-06	2.3995e-06	1217.6	325.27	2.5783e-06	2.3946e-06	361.66	122.26	103.86	35.685	2.4307e-06	44.351	273.495	263.347	7.336	-66.496	-33.121	-12.371	-66.707	-61.657	10.000	21.315	-62.610	-57.749	-57.341	-52.944	72.341	-53.827	-8191	255	
1271.444	1	1	0	0	0.093528	0.3066	0.12111	0.12192	0.085839	0.1152	0.34729	0.20914	0.05479	0.135	0.23984	0.29686	0.0047183	0.062665	0.1366	0.16563	-3.7792	-4.3833	-3.8812	-4.2312	-4.2688	-3.8375	-4.1979	-4.0188	-3.9646	-4.3979	-3.9771	-4.175	-4.2229	-3.9417	-4.5167	-4.1896	36.088	-20.246	217.485	26.998	30.061	272.518	202.641	152.460	-79.082	100.110	-7.193	254.805	22.695	7.975	254.801	184.090	0.0002607	0.00016538	7.3203e-05	1298.5	5.9787e-07	4.3447e-06	1304.1	348.9	3.3986e-06	1.538e-06	401.65	134.46	116.85	39.934	2.6988e-06	49.828	0.00022957	0.00021278	6.1023e-05	1215.4	2.5011e-06	2.3041e-06	1221	324.85	2.505e-06	2.3091e-06	362.82	122.03	103.52	35.594	2.5512e-06	44.251	-72.694	157.284	15.878	-66.627	261.409	-23.136	-66.608	-61.932	34.963	28.600	-62.385	-57.860	-57.169	-53.198	57.194	-53.868	-8191	255	
1271.564	1	1	0	0	0.10335	0.031676	0.30302	0.31784	0.12784	0.17162	0.25263	0.21717	0.13332	0.11509	0.19909	0.19812	0.084198	0.054577	0.19768	0.12146	-3.4083	-4.3625	-3.9792	-4.2646	-4.2729	-3.8812	-4.1958	-4.1646	-3.8333	-4.4437	-4.0312	-4.0667	-4.4125	-3.8167	-4.1687	-4.2917	14.952	272.838	108.154	260.911	99.265	-60.332	215.229	206.534	43.075	3.174	252.449	144.970	243.604	268.540	221.998	110.222	0.00029656	0.00019052	6.8227e-05	1298.5	4.2808e-06	2.2666e-06	1302.4	349.93	4.5204e-06	1.1605e-06	403.05	134.67	117.14	39.928	4.0211e-06	49.766	0.00022712	0.00021239	6.4813e-05	1214.7	2.4891e-06	2.3187e-06	1225.5	325.1	2.4695e-06	2.345e-06	364.41	121.85	103.47	35.714	2.6374e-06	44.201	276.880	-6.229	11.725	-66.506	-12.685	35.996	-66.601	-61.733	54.048	107.321	-62.282	-57.927	-57.196	-52.779	89.360	-53.678	-8191	255	
1271.659	1	1	0	0	0.16246	0.17852	0.19069	0.12011	0.29658	0.084892	0.26313	0.37147	0.1643	0.14198	0.10534	0.046473	0.12393	0.10474	0.16453	0.19733	-3.5	-4.1833	-3.8854	-4.0792	-4.4208	-3.9771	-4.4708	-4.2396	-3.7958	-4.4667	-4.2188	-4.0312	-4.2688	-3.9188	-4.2417	-4.2562	181.984	61.791	3.546	273.387	242.070	80.746	262.560	225.422	-42.819	11.537	46.184	-47.939	253.198	176.176	191.650	134.187	0.00023875	0.0001891	8.9816e-05	1304.2	4.7597e-06	2.157e-06	1299.6	349.25	3.4261e-06	2.1073e-06	402.67	134.73	117.63	39.963	2.9984e-06	49.918	0.00022033	0.00021828	6.6525e-05	1214.4	2.4037e-06	2.3852e-06	1226.6	324.13	2.365e-06	2.4251e-06	364.52	121.51	103.14	35.858	2.6027e-06	44.049	-34.076	33.938	251.407	-66.457	-9.339	150.029	-66.642	-61.822	45.682	110.262	-62.300	-57.774	-57.334	-52.743	132.531	-53.720	-8191	255	
1271.755	1	1	0	0	0.17319	0.044092	0.051213	0.15407	0.15726	0.067623	0.15902	0.16107	0.30614	0.023473	0.30853	0.27499	0.036425	0.08484	0.10101	0.16919	-3.4542	-4.0917	-4.0354	-3.9729	-4.4958	-3.8625	-4.2354	-4.2604	-3.8979	-4.3854	-4.3271	-3.9479	-4.3583	-3.9437	-4.0542	-4.3021	15.659	266.986	114.674	274.424	-59.896	223.941	222.399	244.480	244.201	8.251	253.171	-32.295	42.172	186.113	275.046	171.562	0.00020128	0.00027766	0.00016703	1298.9	2.4851e-06	2.894e-06	1299.9	349.03	2.6336e-06	1.558e-06	402.23	134.83	117.29	40.131	3.6896e-06	49.909	0.00021159	0.00022616	6.5443e-05	1211.4	2.3093e-06	2.4787e-06	1224	323.71	2.294e-06	2.5372e-06	363.8	121.22	102.82	36.07	2.5623e-06	44.069	-62.827	-7.781	269.825	-66.481	18.765	168.198	-66.562	-61.700	4.126	227.823	-62.312	-57.736	-57.150	-52.900	18.593	-53.585	-8191	255	
1271.851	1	1	0	0	0.16017	0.059837	0.19525	0.079091	0.12724	0.26238	0.066285	0.10489	0.07703	0.19209	0.13337	0.14798	0.12991	0.11213	0.21483	0.14198	-3.4604	-4.1625	-4.0167	-3.8896	-4.3187	-4.0896	-3.9188	-4.3646	-3.7313	-4.2333	-4.45	-3.8917	-4.2854	-3.8833	-3.7646	-4.3771	168.759	213.437	5.778	171.242	-24.343	189.993	85.908	159.726	204.252	128.158	156.399	218.095	-10.033	-76.019	137.877	194.724	0.00024059	0.00029908	7.6686e-05	1297	4.1246e-06	2.4047e-06	1302.8	348.56	6.7686e-07	4.394e-06	402.55	134.45	116.75	39.972	3.6277e-06	49.947	0.00021228	0.00023789	6.4859e-05	1209.2	2.3451e-06	2.613e-06	1224	322.91	2.3566e-06	2.6448e-06	363.33	120.95	103.24	36.139	2.5472e-06	43.838	266.456	-27.653	256.295	-66.547	209.336	-73.172	-66.617	-61.798	57.040	97.728	-62.290	-57.864	-57.187	-52.953	-0.558	-53.717	-8191	255	
1271.971	1	1	0	0	0.1498	0.034298	0.025994	0.195	0.27414	0.093144	0.12515	0.25817	0.092437	0.22027	0.15459	0.28564	0.038377	0.19454	0.11957	0.04369	-3.6042	-4.1083	-4.0938	-3.8792	-4.3146	-4.1875	-4.2396	-4.4271	-3.6979	-4.2729	-4.4875	-3.9875	-4.2021	-3.9792	-3.8937	-4.4458	-35.130	270.153	142.393	220.615	228.230	162.271	258.614	242.868	129.804	74.881	78.608	255.205	-6.547	-72.906	130.464	265.175	0.00040372	0.00021636	5.2155e-05	1297.4	1.8265e-06	3.1428e-06	1302	349.86	1.5498e-06	3.7955e-06	402.78	134.42	117.15	40.013	1.9503e-06	49.946	0.00022215	0.00024537	6.4354e-05	1208.6	2.4737e-06	2.6579e-06	1222.9	322.45	2.4648e-06	2.6333e-06	362.59	120.52	103.69	36.119	2.4692e-06	43.698	260.688	-37.860	-48.183	-66.485	117.277	-21.397	-66.390	-61.738	49.242	90.954	-62.165	-57.739	-57.150	-52.899	26.768	-53.956	-8191	255	
1272.068	1	1	0	0	0.12233	0.25147	0.18485	0.17986	0.02092	0.25613	0.056416	0.17159	0.18031	0.083862	0.10377	0.2102	0.31491	0.24695	0.10817	0.16059	-3.4938	-3.95	-4.0667	-4.0271	-4.1833	-4.2583	-4.1521	-4.5021	-4.0521	-3.9313	-4.2646	-3.8125	-4.2708	-4.15	-3.9354	-4.5333	189.283	138.189	80.232	190.168	71.771	78.851	55.107	231.914	-48.501	-61.552	246.657	226.964	-75.531	107.618	264.314	103.603	0.00057008	0.0004235	8.9631e-05	1300.2	1.7616e-06	2.3945e-06	1304.1	349.24	1.2338e-06	3.7442e-06	402.51	134.33	116.85	40.028	3.6485e-06	49.821	0.00023131	0.00023863	6.2946e-05	1205.5	2.572e-06	2.5867e-06	1221.4	322.25	2.5769e-06	2.5891e-06	361.8	120.45	104.3	36.079	2.4316e-06	43.738	272.149	231.732	247.887	-66.652	160.153	-51.223	-66.455	-61.857	63.672	9.048	-62.469	-57.937	-57.199	-53.038	-69.515	-53.614	-8191	255	
1272.164	1	1	0	0	0.088154	0.21278	0.054484	0.37769	0.10912	0.10621	0.29	0.30527	0.041641	0.096174	0.076394	0.25235	0.080256	0.22554	0.050389	0.092091	-3.6292	-3.8937	-4.2188	-4.0521	-4.2792	-4.2312	-3.9458	-4.1958	-3.9479	-4.0875	-4.2792	-3.9958	-4.1708	-4.1354	-3.7854	-4.5292	67.243	59.637	10.509	260.441	165.145	217.606	207.583	-58.366	198.719	20.210	26.537	235.043	140.953	196.898	17.528	213.656	0.00036782	0.00032156	0.00010936	1298.7	7.8648e-07	4.4325e-06	1300.4	349.78	2.8085e-06	3.0361e-06	402.27	134.02	117.14	39.966	4.8696e-06	49.768	0.00024231	0.00023604	6.1957e-05	1206.4	2.691e-06	2.5746e-06	1218.5	323.23	2.7003e-06	2.5627e-06	361.1	121.04	104.68	36.007	2.3502e-06	43.963	-75.770	-24.962	-74.251	-66.534	69.608	83.707	-66.746	-61.671	55.786	43.374	-62.466	-57.724	-57.406	-52.831	43.725	-53.661	-8191	255	
1272.260	1	1	0	0	0.13333	0.13268	0.1443	0.19777	0.17439	0.11373	0.16105	0.057082	0.11299	0.09476	0.18852	0.1855	0.2942	0.28583	0.22775	0.19946	-3.6667	-4.0167	-4.3063	-3.9688	-4.1417	-4.2	-3.8187	-4.3875	-4.1438	-3.975	-4.3917	-4.0062	-4.2667	-4.2021	-3.6583	-4.5625	63.643	172.778	142.481	264.060	167.564	-75.042	247.197	225.732	123.933	261.837	172.162	280.056	-67.480	279.861	39.169	215.640	0.00014622	0.0001666	0.00016812	1294.3	2.2378e-06	2.39e-06	1301.7	349.14	2.676e-06	3.4489e-06	402.56	134.35	116.72	40.046	3.7834e-06	49.685	0.00024549	0.00023115	5.9734e-05	1210.1	2.6859e-06	2.525e-06	1215.8	324.4	2.6544e-06	2.501e-06	359.84	121.6	104.31	35.933	2.2918e-06	44.234	265.787	-56.586	269.678	-66.644	14.900	36.303	-66.535	-61.751	-47.163	-22.405	-62.531	-58.012	-57.477	-52.946	211.124	-53.812	-8191	255	
1272.356	1	1	0	0	0.049677	0.14498	0.15255	0.039679	0.099248	0.09799	0.2206	0.19433	0.088302	0.21768	0.098259	0.032811	0.050096	0.2834	0.15697	0.18682	-3.9271	-3.6646	-4.3146	-4.1104	-4.0042	-4.0979	-3.8167	-4.45	-4.2063	-3.9292	-4.3063	-3.8729	-4.0354	-4.2542	-3.7479	-4.1896	150.529	262.316	123.743	-46.905	-74.049	-46.153	-49.150	177.946	190.612	170.911	197.217	197.266	89.090	256.928	79.579	238.742	0.00033835	0.00030416	9.8038e-05	1296.3	3.9987e-06	2.2138e-06	1299.1	347.67	1.5635e-06	1.9706e-06	400.93	134.14	116.78	39.926	2.8367e-06	49.834	0.00023981	0.00022642	5.9136e-05	1214.2	2.619e-06	2.4799e-06	1215.1	325.13	2.6019e-06	2.4468e-06	360.35	121.94	104.18	35.863	2.3388e-06	44.395	266.127	-68.615	213.468	-66.581	11.131	4.741	-66.601	-61.798	91.822	1.924	-62.540	-57.776	-57.323	-52.851	187.688	-53.655	-8191	255	
1272.450	1	1	0	0	0.22864	0.34129	0.15083	0.20669	0.24668	0.12666	0.1072	0.1056	0.075449	0.14249	0.22444	0.23054	0.2505	0.25801	0.1032	0.0018373	-3.6354	-3.9021	-4.4104	-4.0542	-4.0583	-4.4458	-4.0125	-4.2354	-4.1458	-3.8063	-4.1813	-4.1292	-3.9479	-4.3833	-3.9083	-4.2917	23.690	195.207	46.325	272.736	202.742	67.634	163.208	179.526	90.204	70.267	-79.305	112.639	266.291	249.880	267.795	180.000	0.00019046	0.00036722	7.7281e-05	1296.8	2.9353e-06	5.4669e-07	1298.4	349.64	5.5393e-06	1.4997e-06	401.1	134.25	117.1	40.178	5.3231e-06	49.808	0.0002366	0.0002187	6.0208e-05	1214.6	2.5445e-06	2.3755e-06	1217.9	325.21	2.5233e-06	2.3246e-06	361.14	121.98	103.71	35.688	2.4057e-06	44.311	-34.444	-53.482	19.507	-66.675	-35.449	68.737	-66.706	-61.741	68.142	23.592	-62.234	-57.639	-57.465	-53.003	131.006	-53.793	-8191	255	
1272.571	1	1	0	0	0.18088	0.21187	0.16219	0.1052	0.13353	0.32971	0.27284	0.07491	0.080548	0.2351	0.15299	0.077783	0.21255	0.23174	0.20873	0.22827	-3.7729	-3.7292	-4.2	-4.1896	-3.7146	-4.2562	-4.0458	-4.1292	-4.1125	-3.7583	-4.5375	-4.2979	-4.0188	-4.4958	-3.8771	-4	77.257	12.254	104.216	212.486	252.134	277.013	209.420	19.527	251.600	62.990	124.464	168.874	261.204	-20.839	130.033	231.172	0.0002222	0.00050424	7.2211e-05	1301.2	1.7547e-06	3.1251e-06	1299.9	348.35	2.6202e-06	1.4974e-06	402.19	134.77	116.78	39.895	8.9119e-07	49.857	0.00022696	0.00020706	6.2204e-05	1214.5	2.4576e-06	2.291e-06	1220.9	324.94	2.4623e-06	2.2628e-06	363.23	121.83	103.23	35.634	2.521e-06	44.228	-20.685	-40.313	39.142	-66.520	-64.416	-24.169	-66.685	-61.627	150.360	11.695	-62.596	-57.776	-57.146	-53.089	113.975	-53.839	-8191	255	
1272.667	1	1	0	0	0.12778	0.068361	0.063517	0.24281	0.32134	0.11083	0.19043	0.30579	0.13863	0.16905	0.42181	0.30479	0.22611	0.3753	0.10928	0.27616	-3.8542	-3.9188	-4.2833	-4.0729	-4.0021	-4.4042	-4.1958	-4.0083	-4.2104	-3.7875	-4.4208	-4.2042	-3.9375	-4.3417	-3.9479	-3.9688	12.517	4.769	253.039	233.791	-67.559	-42.950	225.256	185.833	66.936	28.311	241.879	233.280	215.712	195.829	64.910	162.945	0.00036616	0.00018946	8.2434e-06	1300.5	1.9694e-06	3.0238e-06	1302.2	349.16	1.6741e-06	3.8183e-06	403.15	134.26	117.01	39.898	3.6167e-06	49.751	0.00022509	0.0002097	6.6002e-05	1213.6	2.4489e-06	2.3494e-06	1224.8	324.97	2.4608e-06	2.3708e-06	365.15	121.68	103.41	35.816	2.6561e-06	44.136	-77.070	92.241	-1.762	-66.688	152.342	112.249	-66.672	-61.692	94.248	193.607	-62.609	-57.775	-57.137	-52.989	30.257	-53.649	-8191	255	
1272.739	1	1	0	0	0.15752	0.2146	0.069796	0.35752	0.24228	0.038143	0.096957	0.04352	0.19507	0.20426	0.027258	0.05756	0.16518	0.28389	0.041371	0.13229	-3.9188	-3.9604	-4.2688	-4.3938	-3.9771	-4.3042	-4.1438	-4.0437	-4.3771	-3.8333	-4.075	-4.1312	-3.7833	-4.5021	-4.0938	-3.8417	88.182	-59.953	92.043	225.278	-0.343	46.943	110.824	173.054	248.463	186.322	274.666	189.138	-17.421	-30.966	22.398	255.736	0.00016349	5.1761e-05	9.558e-05	1297.7	1.7753e-06	2.2351e-06	1303.6	350.04	3.1884e-06	2.9932e-06	402.56	134.24	116.63	39.875	1.7265e-06	49.74	0.00022171	0.00022034	6.7234e-05	1212.6	2.3729e-06	2.4641e-06	1227.1	324.49	2.3767e-06	2.4692e-06	364.83	121.53	102.88	35.963	2.6103e-06	43.968	-48.571	17.257	271.025	-66.627	-32.229	178.209	-66.586	-61.810	-1.892	164.347	-62.251	-57.883	-57.267	-52.706	-46.176	-53.458	-8191	255	
1272.835	1	1	0	0	0.16702	0.087085	0.16678	0.32001	0.20047	0.075107	0.19386	0.09012	0.079143	0.092285	0.11998	0.24701	0.044714	0.095449	0.18168	0.14904	-4.0021	-3.775	-3.875	-4.1542	-3.6292	-4.2646	-4.3458	-4.0854	-4.25	-3.9021	-4.225	-4.2021	-3.7687	-4.2063	-4.0042	-3.9313	27.728	91.785	-52.468	263.846	266.946	237.396	254.134	229.538	175.597	177.207	245.894	204.956	277.561	165.295	1.107	18.035	0.00030382	0.00051774	4.5694e-05	1302.6	1.45e-06	5.3863e-06	1301.4	349.64	9.3511e-07	3.2672e-06	403.58	134.24	116.61	40.031	6.7032e-06	49.906	0.00021309	0.0002294	6.5949e-05	1211.8	2.2981e-06	2.5545e-06	1223.7	323.84	2.317e-06	2.5628e-06	364.03	121.13	102.66	36.141	2.5416e-06	43.91	276.987	53.098	-21.541	-66.517	-51.129	-6.037	-66.476	-61.947	146.524	78.672	-62.367	-57.892	-57.155	-52.764	15.871	-53.518	-8191	255	
1272.956	1	1	0	0	0.21761	0.077673	0.11452	0.075862	0.064238	0.17217	0.19815	0.23956	0.10491	0.23458	0.1703	0.065565	0.16784	0.17222	0.27474	0.007262	-4.1083	-4.0208	-4.0062	-4.4125	-3.7708	-4.0771	-4.1979	-3.9062	-4.2167	-4.0771	-4.2292	-4.4187	-3.9646	-4.1438	-4.1542	-4.0062	72.036	77.999	277.355	184.157	66.740	275.809	251.277	220.356	253.202	130.757	-52.504	222.232	-49.613	-72.419	-21.553	257.470	0.00038251	0.00031509	0.00011698	1297.1	2.185e-06	3.0417e-06	1302	349.17	1.4479e-06	2.4357e-06	404.34	134.27	116.91	40.098	4.6156e-06	49.861	0.00021557	0.00023781	6.4517e-05	1208.2	2.3414e-06	2.6451e-06	1222.3	322.69	2.3859e-06	2.6135e-06	363.25	120.72	103.22	36.161	2.4714e-06	43.678	267.804	-1.551	-27.226	-66.808	79.787	8.294	-66.438	-61.771	224.090	79.550	-62.250	-57.702	-57.076	-53.079	-21.212	-53.755	-8191	255	
1273.052	1	1	0	0	0.081896	0.088167	0.061488	0.21833	0.024325	0.14578	0.2353	0.0098496	0.2851	0.017768	0.15113	0.084302	0.11583	0.40186	0.15978	0.14357	-3.9396	-3.9042	-3.8	-4.5229	-3.9729	-4.1271	-4.3646	-3.8458	-4.1562	-3.9229	-4.0125	-4.4563	-4.0333	-4.1667	-4.225	-4.0208	72.215	64.609	7.298	247.713	278.512	86.005	205.112	82.433	138.834	273.515	226.466	189.313	134.480	258.391	10.241	-68.141	0.00022048	0.00031799	5.4322e-05	1299.8	1.6257e-06	1.3893e-06	1302.7	349.52	4.1357e-06	2.3702e-06	403.45	134.2	116.85	39.922	2.9828e-06	49.856	0.00022239	0.00023828	6.2596e-05	1205.8	2.436e-06	2.6086e-06	1219.1	322.06	2.4747e-06	2.5727e-06	361.87	120.23	103.38	36.019	2.4218e-06	43.551	-77.412	-69.004	-14.555	-66.555	171.595	-57.733	-66.607	-61.832	188.547	-8.491	-62.298	-57.930	-57.306	-53.310	39.843	-53.669	-8191	255	
1273.148	1	1	0	0	0.23457	0.18368	0.11442	0.1215	0.090836	0.24306	0.20568	0.3006	0.09199	0.08156	0.14091	0.17747	0.10027	0.13728	0.075508	0.1206	-3.9333	-4.1292	-3.7417	-4.3917	-3.9	-4.1667	-4.4187	-3.925	-4.1583	-4.1417	-3.8292	-4.1583	-4.0396	-4.2146	-4.2333	-3.9625	-72.426	-76.259	69.937	255.296	259.587	224.253	222.014	245.959	173.718	20.497	217.875	178.693	46.646	125.399	250.313	-4.336	0.00023641	0.00031165	7.5322e-05	1295.8	1.8954e-06	2.5675e-06	1300.8	349.58	3.7886e-06	3.4652e-06	402.97	133.89	116.86	40.105	4.1624e-06	49.895	0.00023005	0.00023112	6.0475e-05	1202.2	2.5282e-06	2.5248e-06	1216.4	321.82	2.567e-06	2.5001e-06	360.93	120.38	104.15	35.995	2.3534e-06	43.688	-59.973	248.538	234.413	-66.555	157.727	-41.112	-66.638	-61.811	120.373	-36.857	-62.542	-57.792	-57.214	-52.946	-4.111	-53.593	-8191	255	
1273.244	1	1	0	0	0.26122	0.22055	0.22694	0.24629	0.17519	0.21431	0.31207	0.091347	0.083065	0.14901	0.042819	0.097544	0.15732	0.25218	0.085586	0.090257	-3.7938	-4.0458	-3.6646	-4.3292	-3.8979	-3.95	-4.2917	-4.1229	-4.2812	-4.1438	-3.7979	-4.25	-3.9917	-3.95	-4.4729	-4.1042	273.781	243.875	206.076	234.500	107.273	-29.776	260.386	184.838	-11.684	178.825	278.403	197.944	-31.979	-65.553	19.145	133.963	0.00036049	0.00027976	0.00011147	1292.3	1.5491e-06	1.6353e-07	1301.1	349.04	2.0955e-06	3.8491e-06	403.74	134.92	117.08	40.131	3.8266e-06	49.627	0.00023991	0.00022873	5.9299e-05	1205.9	2.6239e-06	2.5128e-06	1217.2	322.97	2.6493e-06	2.4995e-06	360.32	121.19	104.14	35.964	2.2824e-06	43.904	274.390	-76.283	-61.722	-66.629	190.135	40.901	-66.585	-61.849	80.566	30.821	-62.279	-57.842	-57.291	-53.118	12.238	-53.735	-8191	255	
1273.340	1	1	0	0	0.10905	0.09654	0.25952	0.2144	0.14013	0.19413	0.32678	0.16994	0.14046	0.058493	0.15542	0.22865	0.10598	0.33021	0.060314	0.013207	-3.7021	-4.2	-3.8479	-4.4208	-4.0437	-3.8396	-4.4167	-3.9396	-4.1625	-4.3938	-3.8167	-4.1062	-4.3688	-3.9562	-4.3812	-3.8646	-39.667	-40.841	271.313	233.862	236.833	188.652	215.642	196.597	20.629	227.292	235.101	230.106	-57.726	228.457	19.133	55.215	0.00030092	0.00033965	0.00013673	1299.7	2.0406e-06	3.1333e-06	1302.4	350.75	3.5856e-06	3.1072e-06	402.76	134.7	116.85	40.233	3.3387e-06	49.834	0.00023894	0.00022493	5.7157e-05	1211.2	2.5736e-06	2.4503e-06	1215.1	324.47	2.5845e-06	2.4225e-06	358.91	121.61	103.98	35.894	2.2458e-06	44.093	-66.803	207.545	236.707	-66.737	-17.211	24.003	-66.455	-61.649	21.530	8.787	-62.399	-57.849	-57.178	-52.686	210.459	-53.700	-8191	255	
1273.436	1	1	0	0	0.19505	0.21152	0.042359	0.14542	0.27748	0.21911	0.26012	0.16955	0.13608	0.35574	0.2315	0.11119	0.10416	0.12083	0.12119	0.17219	-3.6312	-4.1813	-3.8021	-4.3	-4.0417	-3.7417	-4.4187	-4.1146	-3.9	-4.2812	-3.8542	-4.2875	-4.2604	-4.0979	-4.2438	-3.9188	48.641	81.500	54.192	-70.167	153.999	89.252	226.230	151.231	54.851	137.405	-16.947	183.181	174.097	252.640	153.264	170.063	0.00015305	0.00011776	3.832e-05	1296.8	2.4389e-06	3.7136e-06	1300.5	348.34	2.3682e-06	3.796e-06	401.17	134.53	116.92	39.964	1.3723e-06	49.716	0.00023372	0.00021873	5.6961e-05	1211.8	2.5448e-06	2.374e-06	1216.2	324.99	2.5593e-06	2.4049e-06	360.27	122.12	103.95	35.77	2.3814e-06	44.335	257.725	-35.979	-63.380	-66.566	-17.062	16.477	-66.725	-61.825	78.730	14.798	-62.433	-57.967	-57.208	-53.063	137.130	-53.860	-8191	255	
1273.533	1	1	0	0	0.11759	0.14761	0.13036	0.32423	0.16827	0.18683	0.30149	0.23975	0.1119	0.13161	0.23261	0.05712	0.11191	0.20088	0.15043	0.17295	-3.4979	-4.15	-3.9583	-4.3208	-4.15	-3.6354	-4.2125	-4.1542	-3.8792	-4.4187	-4.1583	-4.15	-4.125	-3.7021	-4.1583	-4.0667	114.325	266.590	-16.240	246.377	30.997	-31.946	231.220	261.092	195.863	191.495	221.771	-0.676	-64.816	274.947	-13.258	102.409	0.00028406	0.00050656	9.4939e-05	1297.5	5.3928e-07	5.3678e-06	1301.7	350.14	1.4555e-06	1.8824e-06	403.08	135.02	117.57	39.96	4.8407e-06	49.804	0.00023319	0.00021848	6.0341e-05	1216	2.5304e-06	2.3455e-06	1221.2	325.6	2.5238e-06	2.3375e-06	361.68	122.29	103.85	35.625	2.4961e-06	44.285	-61.978	-70.709	10.191	-66.605	68.432	18.108	-66.667	-61.743	193.959	24.007	-62.572	-57.701	-57.304	-52.889	29.857	-53.689	-8191	255	
1273.651	1	1	0	0	0.19382	0.077723	0.096463	0.23251	0.16837	0.12886	0.24843	0.23565	0.05774	0.15621	0.02525	0.11915	0.13252	0.076749	0.082967	0.059565	-3.5375	-4.3229	-3.9896	-4.2479	-4.3417	-3.7521	-4.35	-4.0333	-3.825	-4.4083	-4.0229	-4.2167	-4.2	-3.7771	-4.2042	-4.3167	72.077	195.294	-22.433	250.626	74.105	212.743	235.068	215.257	161.224	203.697	158.172	-5.056	209.027	170.097	195.851	258.534	0.00022431	0.00015325	5.0804e-05	1299	4.649e-06	2.0267e-06	1302.2	350.39	1.3763e-06	3.5634e-07	403.48	134.45	116.98	39.89	4.2854e-06	49.887	0.00022985	0.00021161	6.3872e-05	1215.8	2.5075e-06	2.3022e-06	1225.3	325.5	2.4962e-06	2.3334e-06	364.41	122.03	103.61	35.674	2.6481e-06	44.298	-36.382	-1.004	82.309	-66.586	39.160	118.470	-66.602	-61.913	31.260	139.090	-62.236	-57.764	-57.192	-52.782	54.659	-53.830	-8191	255	
1273.748	1	1	0	0	0.059255	0.14586	0.10913	0.15125	0.18938	0.14854	0.12466	0.077433	0.080293	0.13393	0.16519	0.27065	0.1728	0.072661	0.068034	0.077449	-3.45	-4.2188	-3.7458	-4.0312	-4.2708	-3.7833	-4.3292	-4.2438	-3.725	-4.0875	-4.1667	-4.2042	-4.5104	-3.9333	-4.1479	-4.1687	-63.961	252.905	137.400	-73.827	278.399	106.886	95.668	253.803	196.148	116.133	13.042	-72.981	271.258	248.595	244.957	147.849	0.00027427	0.00017385	8.2474e-05	1301.4	5.1834e-06	2.8692e-06	1303.1	349.05	4.7017e-06	1.8542e-06	403.16	134.83	116.96	39.856	4.5228e-06	49.972	0.00022735	0.000219	6.7813e-05	1215.8	2.4887e-06	2.4054e-06	1229	325.14	2.4624e-06	2.4596e-06	365.59	121.99	103.27	35.848	2.7006e-06	44.246	279.035	-50.258	214.950	-66.530	-1.827	237.760	-66.583	-61.789	17.613	274.483	-62.460	-57.516	-57.025	-52.963	27.999	-53.745	-8191	255	
1273.844	1	1	0	0	0.091284	0.21264	0.23324	0.2581	0.082952	0.02711	0.27102	0.27522	0.11152	0.12941	0.14412	0.19517	0.12103	0.087708	0.090736	0.13022	-3.3812	-4.2792	-4.0208	-4.0417	-4.2771	-3.8708	-4.2479	-4.5458	-3.6208	-4.1687	-4.1042	-4.0792	-4.3521	-4.0396	-4.0792	-4.2312	-56.428	164.563	237.855	221.676	79.019	69.629	249.831	235.169	177.521	7.816	208.002	42.670	32.024	-8.311	-59.840	40.973	0.00012153	0.00015293	6.6853e-05	1296	1.0905e-06	3.9509e-06	1302.6	349.76	1.9772e-06	1.9342e-06	403.61	135.25	116.81	40.079	2.9941e-06	49.554	0.0002209	0.00023073	6.7996e-05	1214.4	2.4033e-06	2.5271e-06	1227.5	325.08	2.3636e-06	2.571e-06	365.26	121.79	103.02	36.056	2.6446e-06	44.11	272.455	74.099	265.651	-66.688	30.301	128.377	-66.717	-61.862	21.927	95.313	-62.424	-57.847	-57.449	-52.949	-4.747	-53.514	-8191	255	
1273.964	1	1	0	0	0.22486	0.11658	0.15209	0.064428	0.20897	0.11137	0.22259	0.18311	0.035375	0.31631	0.26045	0.19202	0.19829	0.14339	0.090696	0.059175	-3.5229	-4.4938	-4.1083	-4.05	-4.2833	-3.7667	-4.2	-4.3333	-3.7979	-4.0625	-4.2396	-3.9458	-4.45	-4.0312	-3.8771	-4.4375	274.049	83.782	-3.830	-21.669	30.855	250.587	260.237	260.696	279.467	71.077	1.505	2.299	-34.291	240.858	209.098	198.302	0.00019354	0.00014896	0.00013289	1298.1	2.4784e-06	3.2859e-06	1303.6	350.68	2.4307e-06	6.7749e-07	403.62	134.41	116.81	40.032	2.2903e-06	49.831	0.000216	0.00024081	6.6834e-05	1212.6	2.3985e-06	2.6514e-06	1226.8	324.89	2.3993e-06	2.71e-06	364.96	121.4	103.17	36.286	2.6325e-06	43.991	277.577	96.438	-36.448	-66.718	236.101	148.371	-66.616	-61.649	200.893	152.299	-62.505	-57.754	-57.257	-52.979	-25.412	-53.947	-8191	255	
1274.036	1	1	0	0	0.054306	0.055401	0.13149	0.093701	0.063019	0.28545	0.11654	0.2496	0.12299	0.22795	0.14532	0.1934	0.23387	0.095702	0.25137	0.41809	-3.7229	-4.2271	-3.9771	-3.8146	-4.3271	-3.9271	-4.1521	-4.3396	-3.6813	-4.1125	-4.3375	-3.9021	-4.2854	-4.0292	-3.8958	-4.4458	236.834	135.150	212.238	211.139	213.293	69.923	152.014	266.014	177.828	28.836	160.585	-34.433	262.584	262.669	147.139	246.095	0.00033052	0.00030986	0.0001209	1301.4	1.0949e-06	7.7552e-07	1303.2	348.73	1.2599e-06	5.4679e-06	401.44	134.56	116.7	40.102	2.905e-06	49.635	0.00022672	0.00025258	6.696e-05	1212.5	2.5289e-06	2.7565e-06	1225.9	324	2.5482e-06	2.7822e-06	364.4	121.28	103.99	36.319	2.6052e-06	43.902	267.637	-44.447	236.201	-66.556	93.458	179.095	-66.498	-61.901	172.945	85.412	-62.551	-57.872	-57.299	-52.993	-71.205	-53.796	-8191	255	
#DATA ENDS
