BOXY.EXE: ISS Imagent and Oximeter Data Acquisition Program Version 0.80
Ascii Record File

#ACQ INFORMATION
2  Detector Channels 
16  External MUX Channels 
1  Auxiliary Channels 
5000  Waveform (CCF) Frequency (Hz)
1  Waveforms Skipped 
30  Waveforms Averaged 
1  Cycles Averaged 
16  Acquisitions per Waveform 
10.0806  Updata Rate (Hz) 

#FILE INFORMATION
TRUE -- External MUX Channel results are PARSED.
FALSE -- AC DC and Phase are NOT grouped.
TRUE -- Companion Program Settings File CREATED.
FALSE -- AC data not excluded
FALSE -- DC data not excluded
FALSE -- Phase data not excluded
FALSE -- Auxillary Chn. data not excluded
Tab delimiters

#CALIBRATION STATE
TRUE -- Waveform Calibration Values APPLIED.


#AUX CALIBRATION VALUES
Val Type	aux-1	

Term	1.0000e+00	
Factor	0.0000e+00	


#WF CALIBRATION VALUES
A = Detector Channel
Val Type	A-AC1	A-AC2	A-AC3	A-AC4	A-AC5	A-AC6	A-AC7	A-AC8	A-AC9	A-AC10	A-AC11	A-AC12	A-AC13	A-AC14	A-AC15	A-AC16	A-DC1	A-DC2	A-DC3	A-DC4	A-DC5	A-DC6	A-DC7	A-DC8	A-DC9	A-DC10	A-DC11	A-DC12	A-DC13	A-DC14	A-DC15	A-DC16	A-Ph1	A-Ph2	A-Ph3	A-Ph4	A-Ph5	A-Ph6	A-Ph7	A-Ph8	A-Ph9	A-Ph10	A-Ph11	A-Ph12	A-Ph13	A-Ph14	A-Ph15	A-Ph16	

Term	0.00000e+00	0.00000e+00	0.00000e+00	0.00000e+00	0.00000e+00	0.00000e+00	0.00000e+00	0.00000e+00	0.00000e+00	0.00000e+00	0.00000e+00	0.00000e+00	0.00000e+00	0.00000e+00	0.00000e+00	0.00000e+00	0.00000e+00	0.00000e+00	0.00000e+00	0.00000e+00	0.00000e+00	0.00000e+00	0.00000e+00	0.00000e+00	0.00000e+00	0.00000e+00	0.00000e+00	0.00000e+00	0.00000e+00	0.00000e+00	0.00000e+00	0.00000e+00	0.00000e+00	0.00000e+00	0.00000e+00	0.00000e+00	0.00000e+00	0.00000e+00	0.00000e+00	0.00000e+00	0.00000e+00	0.00000e+00	0.00000e+00	0.00000e+00	0.00000e+00	0.00000e+00	0.00000e+00	0.00000e+00	
Factor	1.00000e+00	1.00000e+00	1.00000e+00	1.00000e+00	1.00000e+00	1.00000e+00	1.00000e+00	1.00000e+00	1.00000e+00	1.00000e+00	1.00000e+00	1.00000e+00	1.00000e+00	1.00000e+00	1.00000e+00	1.00000e+00	1.00000e+00	1.00000e+00	1.00000e+00	1.00000e+00	1.00000e+00	1.00000e+00	1.00000e+00	1.00000e+00	1.00000e+00	1.00000e+00	1.00000e+00	1.00000e+00	1.00000e+00	1.00000e+00	1.00000e+00	1.00000e+00	X	X	X	X	X	X	X	X	X	X	X	X	X	X	X	X	

B = Detector Channel
Val Type	B-AC1	B-AC2	B-AC3	B-AC4	B-AC5	B-AC6	B-AC7	B-AC8	B-AC9	B-AC10	B-AC11	B-AC12	B-AC13	B-AC14	B-AC15	B-AC16	B-DC1	B-DC2	B-DC3	B-DC4	B-DC5	B-DC6	B-DC7	B-DC8	B-DC9	B-DC10	B-DC11	B-DC12	B-DC13	B-DC14	B-DC15	B-DC16	B-Ph1	B-Ph2	B-Ph3	B-Ph4	B-Ph5	B-Ph6	B-Ph7	B-Ph8	B-Ph9	B-Ph10	B-Ph11	B-Ph12	B-Ph13	B-Ph14	B-Ph15	B-Ph16	

Term	0.00000e+00	0.00000e+00	0.00000e+00	0.00000e+00	0.00000e+00	0.00000e+00	0.00000e+00	0.00000e+00	0.00000e+00	0.00000e+00	0.00000e+00	0.00000e+00	0.00000e+00	0.00000e+00	0.00000e+00	0.00000e+00	0.00000e+00	0.00000e+00	0.00000e+00	0.00000e+00	0.00000e+00	0.00000e+00	0.00000e+00	0.00000e+00	0.00000e+00	0.00000e+00	0.00000e+00	0.00000e+00	0.00000e+00	0.00000e+00	0.00000e+00	0.00000e+00	-2.12444e+02	-1.41062e+02	-1.70892e+02	-1.83732e+02	-1.12109e+02	-1.05118e+02	-1.55012e+02	-1.62015e+02	-9.09407e+01	-9.85453e+01	-1.70533e+02	-1.70350e+02	-1.84933e+02	-1.77024e+02	-9.26801e+01	-1.49740e+02	
Factor	3.86930e-05	3.87587e-05	1.11420e-05	1.84525e-01	4.76322e-07	4.00243e-07	1.77227e-01	5.92448e-02	4.03067e-07	4.33660e-07	9.47737e-02	3.35258e-02	3.39684e-02	1.07113e-02	3.85728e-07	1.51601e-02	1.41076e-07	1.41361e-07	3.93248e-08	7.31989e-02	1.55024e-09	1.55026e-09	6.73368e-02	2.26348e-02	1.55356e-09	1.55040e-09	3.24457e-02	1.12648e-02	1.11019e-02	3.63347e-03	1.55221e-09	4.80811e-03	X	X	X	X	X	X	X	X	X	X	X	X	X	X	X	X	



#DISTANCE SETTINGS
A = Detector Channel
A-1	A-2	A-3	A-4	A-5	A-6	A-7	A-8	A-9	A-10	A-11	A-12	A-13	A-14	A-15	A-16	

2.5000e+00	3.0000e+00	2.5000e+00	3.0000e+00	2.0000e+00	3.0000e+00	1.5000e+00	3.0000e+00	3.0000e+00	3.0000e+00	3.0000e+00	3.0000e+00	3.0000e+00	3.0000e+00	1.5000e+00	3.0000e+00	

B = Detector Channel
B-1	B-2	B-3	B-4	B-5	B-6	B-7	B-8	B-9	B-10	B-11	B-12	B-13	B-14	B-15	B-16	

1.0000e+01	1.0000e+01	1.0000e+01	1.4400e+00	1.0000e+01	1.0000e+01	1.5100e+00	1.9400e+00	1.0000e+01	1.0000e+01	1.9900e+00	2.4900e+00	2.4100e+00	2.9000e+00	1.0000e+01	2.9800e+00	




#DATA BEGINS
time	group	step	mark	flag	A-AC1	A-AC2	A-AC3	A-AC4	A-AC5	A-AC6	A-AC7	A-AC8	A-AC9	A-AC10	A-AC11	A-AC12	A-AC13	A-AC14	A-AC15	A-AC16	A-DC1	A-DC2	A-DC3	A-DC4	A-DC5	A-DC6	A-DC7	A-DC8	A-DC9	A-DC10	A-DC11	A-DC12	A-DC13	A-DC14	A-DC15	A-DC16	A-Ph1	A-Ph2	A-Ph3	A-Ph4	A-Ph5	A-Ph6	A-Ph7	A-Ph8	A-Ph9	A-Ph10	A-Ph11	A-Ph12	A-Ph13	A-Ph14	A-Ph15	A-Ph16	B-AC1	B-AC2	B-AC3	B-AC4	B-AC5	B-AC6	B-AC7	B-AC8	B-AC9	B-AC10	B-AC11	B-AC12	B-AC13	B-AC14	B-AC15	B-AC16	B-DC1	B-DC2	B-DC3	B-DC4	B-DC5	B-DC6	B-DC7	B-DC8	B-DC9	B-DC10	B-DC11	B-DC12	B-DC13	B-DC14	B-DC15	B-DC16	B-Ph1	B-Ph2	B-Ph3	B-Ph4	B-Ph5	B-Ph6	B-Ph7	B-Ph8	B-Ph9	B-Ph10	B-Ph11	B-Ph12	B-Ph13	B-Ph14	B-Ph15	B-Ph16	aux-1	digaux	

2065.526	1	1	0	256	0.17241	0.13235	0.10059	0.24694	0.11518	0.26476	0.11781	0.32759	0.16272	0.13923	0.024581	0.012453	0.032734	0.15257	0.28095	0.13635	-3.3833	-4.3333	-4.0521	-3.9813	-4.2562	-3.7771	-4.35	-4.3688	-3.9062	-4.3521	-4.2375	-4.0062	-4.4458	-4.0354	-4.0229	-4.375	38.271	7.114	235.131	-50.146	165.875	175.269	239.074	-13.744	-18.701	188.643	265.429	125.850	103.566	225.159	91.744	182.426	0.00025795	0.000163	4.4739e-05	1237.9	3.8948e-07	3.5087e-06	1314.3	253.63	2.154e-06	1.553e-06	316.91	89.14	69.993	20.098	1.3723e-06	27.956	0.00010213	0.00010318	3.2839e-05	1017.2	1.1108e-06	1.1499e-06	1092.5	208.65	1.1119e-06	1.1855e-06	247.5	69.928	53.406	16.445	1.3753e-06	22.226	105.689	155.405	-43.234	-60.619	57.949	211.551	-60.450	-53.477	19.989	79.226	-53.854	-47.096	-46.859	-40.177	-35.510	-40.682	-8191	255	
2065.646	1	1	0	0	0.057773	0.21753	0.26741	0.31827	0.186	0.096646	0.0962	0.15887	0.15719	0.11717	0.058802	0.13159	0.029608	0.1515	0.084942	0.12405	-3.4521	-4.4062	-4.2562	-3.9021	-4.2979	-4.0437	-4.2937	-4.5771	-3.8646	-4.3146	-4.2854	-4.1104	-4.4875	-4.0687	-4.0958	-4.475	64.885	30.555	75.608	162.397	198.060	202.415	268.283	25.968	252.075	134.175	243.103	208.888	18.320	233.238	-57.692	-67.989	0.00034399	4.9751e-06	8.6393e-05	1241.4	1.198e-06	2.8893e-06	1311.9	254.85	8.6157e-07	1.5017e-06	319.31	89.667	70.297	20.097	2.3944e-06	28.267	0.00010921	0.0001218	3.6157e-05	1022.1	1.2333e-06	1.3954e-06	1098.7	211.01	1.2102e-06	1.3825e-06	249.78	70.405	53.663	16.633	1.2865e-06	21.964	108.745	189.242	19.169	-60.354	12.441	190.353	-60.347	-53.614	-20.400	-0.102	-53.786	-47.126	-47.083	-40.024	97.307	-40.626	-8191	255	
2065.742	1	1	0	0	0.077108	0.055228	0.14415	0.31772	0.10368	0.11517	0.062448	0.066693	0.28068	0.10565	0.072691	0.26377	0.084174	0.07641	0.106	0.05883	-3.6312	-4.2646	-4.2917	-4.0479	-4.3375	-4.1354	-4.2271	-4.3875	-3.9	-4.2812	-4.2083	-3.8958	-4.4396	-4.275	-3.8833	-4.4771	185.126	231.233	34.198	-68.764	254.883	33.816	12.009	195.593	192.361	188.589	146.927	-20.322	275.867	124.972	6.693	-25.853	0.00026431	0.00019786	6.5588e-05	1240.9	1.0593e-06	1.1128e-06	1308.2	254.35	1.5078e-06	6.0158e-07	318.86	88.872	69.668	20.049	2.1083e-06	28.162	0.00010228	0.00011744	3.1012e-05	1013.3	1.0932e-06	1.2559e-06	1085.6	207.19	1.0742e-06	1.2255e-06	243.87	68.627	52.713	16.221	1.0916e-06	21.342	71.571	70.438	-51.949	-60.334	189.200	92.823	-60.493	-53.382	237.696	-38.774	-53.690	-47.272	-46.400	-40.051	11.398	-40.779	-8191	255	
2065.838	1	1	0	0	0.28939	0.061992	0.10446	0.030269	0.27179	0.039953	0.22011	0.20026	0.11957	0.10988	0.20151	0.15953	0.090059	0.1629	0.13222	0.079058	-3.5	-4.1188	-4.35	-3.9125	-4.2312	-4.1375	-4.075	-4.5	-4.0333	-4.2125	-4.3438	-3.8688	-4.2708	-4.2812	-3.9	-4.4479	187.868	12.956	76.843	202.085	-54.013	268.583	257.361	202.203	91.417	69.855	225.620	177.397	59.855	246.689	147.131	242.097	0.00023094	0.00019515	6.6823e-05	1236.4	2.9343e-06	1.7606e-06	1302.6	253.22	2.423e-06	5.2118e-07	317.81	89.002	69.744	19.98	2.1846e-06	28.068	9.6937e-05	0.00010767	2.7155e-05	1003.1	1.0719e-06	1.1641e-06	1076.4	205.06	1.0872e-06	1.1532e-06	241.99	68.193	53.019	16.106	1.0435e-06	21.237	85.263	14.423	280.768	-60.531	135.536	45.204	-60.439	-53.497	158.931	18.191	-53.748	-47.060	-46.683	-39.955	39.494	-40.445	-8191	255	
2065.933	1	1	0	0	0.091247	0.24488	0.060367	0.24751	0.16533	0.11407	0.15593	0.229	0.21452	0.15129	0.082953	0.15608	0.18255	0.019936	0.17325	0.2137	-3.7458	-3.9562	-4.2188	-3.8312	-4.2896	-4.0021	-4.0833	-4.4479	-3.9708	-4.0229	-4.5708	-3.9583	-4.3063	-4.1188	-3.8542	-4.5938	250.701	75.098	193.391	284.341	273.957	70.099	243.545	-67.533	27.718	-39.628	146.427	219.803	270.930	162.802	17.626	62.654	0.00036657	0.00031482	4.2841e-05	1238.1	3.3292e-06	2.1666e-06	1307.8	252.54	3.8419e-06	1.4905e-06	317.67	88.15	69.691	20.144	2.0899e-06	28.028	0.00010235	0.00010245	2.6165e-05	1002	1.1325e-06	1.1139e-06	1076.3	205.08	1.1456e-06	1.1039e-06	241.42	68.183	53.545	16.045	1.0335e-06	21.427	84.609	-51.620	-55.354	-60.439	134.936	-31.821	-60.415	-53.281	201.242	-63.284	-53.334	-47.385	-47.041	-39.892	53.936	-40.501	-8191	255	
2066.031	1	1	0	0	0.093206	0.14628	0.11728	0.13749	0.17722	0.23208	0.097499	0.18026	0.17276	0.22127	0.24088	0.15511	0.35785	0.061726	0.066209	0.35856	-3.7771	-4.0292	-4.4396	-4.0563	-4.2312	-4.3292	-3.9479	-4.3292	-4.2812	-3.8958	-4.7833	-4.0479	-4.1813	-4.2979	-3.7938	-4.4875	130.672	280.882	-18.317	270.691	184.702	189.491	79.832	154.264	6.378	82.482	277.648	201.614	-36.099	84.997	241.372	174.455	7.4421e-05	9.5064e-05	3.6546e-05	1235.4	2.8177e-06	3.6801e-06	1303.1	253.02	1.4467e-06	9.7446e-07	317.38	88.469	70.04	19.989	7.4836e-07	28.161	0.00010956	0.00010151	2.6319e-05	1006.6	1.2228e-06	1.1192e-06	1074.1	206.92	1.2436e-06	1.1328e-06	242.04	69.459	54.077	16.046	1.0569e-06	21.82	125.790	-57.723	-65.770	-60.573	231.223	3.313	-60.388	-53.426	50.522	112.495	-53.649	-47.013	-46.809	-40.456	-66.631	-40.697	-8191	255	
2066.125	1	1	0	0	0.24466	0.27212	0.12308	0.12249	0.13904	0.10586	0.33197	0.038939	0.07812	0.13808	0.082513	0.15612	0.10083	0.047537	0.21683	0.1656	-3.9792	-3.9583	-4.2521	-4.1417	-4.1	-4.3812	-4.1354	-4.4542	-4.15	-3.8083	-4.5417	-4.1687	-4.1438	-4.5083	-3.7958	-4.2333	125.631	1.295	22.719	145.631	184.146	247.508	244.915	70.452	231.309	153.386	211.793	261.482	184.819	121.532	-23.136	18.103	2.7921e-05	0.00016939	3.9137e-05	1240.8	5.5055e-06	2.809e-06	1306	253.6	1.0974e-06	1.5044e-06	318.04	88.71	69.737	20.035	1.4445e-06	28.1	0.00011286	0.00010247	2.6689e-05	1013.1	1.2269e-06	1.1212e-06	1076.6	208.63	1.2224e-06	1.1082e-06	242.26	69.936	53.747	16.015	1.0641e-06	22.052	-20.729	14.729	-0.196	-60.400	1.264	74.543	-60.284	-53.585	19.893	-1.063	-53.650	-47.003	-47.144	-39.963	27.339	-40.555	-8191	255	
2066.221	1	1	0	0	0.26252	0.02656	0.12193	0.11228	0.20566	0.15003	0.23605	0.18612	0.080096	0.11438	0.18047	0.13048	0.080446	0.12096	0.17943	0.4172	-3.825	-4.05	-4.3875	-4.3229	-3.9396	-4.4354	-4.0437	-4.2646	-4.2146	-3.7396	-4.4021	-3.9792	-3.9229	-4.45	-4.0479	-4.1729	55.076	259.713	-60.474	-59.939	111.498	26.289	265.633	192.246	168.653	196.276	204.306	178.654	78.552	106.631	14.877	177.749	7.7982e-05	0.00023404	2.168e-05	1230.2	1.0391e-06	1.8082e-06	1297.6	253.82	1.1526e-06	1.7642e-06	315.47	88.658	69.462	19.768	1.8255e-06	27.965	0.00010934	9.9793e-05	2.6779e-05	1010.7	1.1503e-06	1.0523e-06	1070.1	207.64	1.0932e-06	9.9564e-07	239.76	68.917	52.235	15.537	9.7337e-07	21.548	-37.472	-31.096	225.108	-60.515	87.740	107.566	-60.427	-53.235	134.770	38.304	-53.696	-46.783	-46.759	-40.271	139.152	-40.749	-8191	255	
2066.317	1	1	0	0	0.1072	0.23434	0.1569	0.21216	0.20573	0.079549	0.097826	0.14715	0.016531	0.029199	0.16089	0.21811	0.1048	0.10324	0.14004	0.096165	-4.0208	-3.9146	-4.3417	-4.3208	-3.9062	-4.3917	-3.9583	-4.2729	-4.2063	-3.8396	-4.3333	-4.2958	-3.8854	-4.4396	-4.0646	-4.3688	128.385	101.503	57.974	259.931	257.322	-18.512	266.370	-64.087	225.776	6.095	266.973	79.449	270.911	-39.182	68.361	156.977	0.00023521	0.00027644	3.637e-05	1217.2	2.2981e-06	8.2738e-07	1280.3	251.17	8.1446e-07	3.3211e-06	312.53	87.712	68.877	19.919	2.3644e-06	27.758	9.0071e-05	8.3244e-05	2.4578e-05	992.02	9.6035e-07	9.0038e-07	1057.8	204.03	9.5924e-07	8.8557e-07	238.24	68.095	51.347	15.312	9.978e-07	21.244	118.463	-32.445	49.239	-60.508	60.130	45.489	-60.532	-53.282	282.195	-6.553	-53.374	-46.840	-46.732	-40.085	199.496	-40.663	-8191	255	
2066.438	1	1	0	0	0.26258	0.062682	0.26858	0.25515	0.2189	0.21397	0.21257	0.12523	0.12987	0.10217	0.045238	0.1334	0.16251	0.079642	0.18522	0.057022	-3.9854	-3.8458	-4.1042	-4.2646	-3.8521	-4.6354	-4.1896	-4.0062	-4.3833	-4.0396	-4.3083	-4.3417	-3.9833	-4.3875	-4.0854	-4.0083	144.660	250.057	182.432	105.794	108.422	223.443	225.793	119.004	241.901	197.317	189.017	-5.041	11.301	170.384	9.807	287.491	6.3773e-05	6.5385e-05	6.9992e-05	1213.9	1.9016e-06	1.309e-06	1281.6	250.15	1.3432e-06	5.2027e-07	313.88	87.856	69.15	19.861	1.3133e-06	27.974	8.5662e-05	7.973e-05	2.5737e-05	984.39	9.2911e-07	8.8661e-07	1057.4	202.9	9.1953e-07	8.8241e-07	238.76	67.419	50.938	15.318	1.0182e-06	20.997	143.722	124.752	78.307	-60.540	-51.904	239.623	-60.387	-53.164	88.709	-59.184	-54.113	-47.218	-46.783	-39.887	129.073	-40.432	-8191	255	
2066.534	1	1	0	0	0.22373	0.16941	0.2196	0.17063	0.10013	0.34146	0.1825	0.071394	0.17263	0.23182	0.099844	0.06969	0.10769	0.21078	0.13541	0.20355	-4.1375	-3.9021	-4.1375	-4.2896	-3.8583	-4.4313	-4.3104	-4.0917	-4.4604	-3.9354	-4.4708	-4.3125	-4.0437	-4.2229	-4.1708	-4.1208	285.938	25.605	222.502	-63.614	64.574	171.756	154.641	203.071	210.540	149.607	122.821	232.969	3.953	201.021	21.166	225.539	0.00011191	0.00015869	2.0732e-05	1206.4	2.4657e-06	1.727e-06	1273.7	250.33	7.5226e-07	1.6807e-06	311.96	87.397	69.036	19.87	1.5792e-06	28.101	8.0215e-05	8.0065e-05	2.5569e-05	976.83	8.6374e-07	8.9035e-07	1051.5	201.05	8.5463e-07	8.9861e-07	237.24	66.894	50.462	15.416	9.9618e-07	20.906	35.001	109.923	-37.711	-60.425	27.091	116.688	-60.306	-53.439	269.950	166.999	-53.413	-46.796	-46.827	-39.961	48.056	-40.460	-8191	255	
2066.630	1	1	0	0	0.087763	0.094287	0.11506	0.08619	0.25651	0.21524	0.38125	0.17272	0.24379	0.060015	0.11664	0.03942	0.07391	0.13232	0.4217	0.10247	-3.9667	-3.9042	-4.1354	-4.325	-3.7375	-4.3875	-4.4042	-4.0312	-4.5104	-3.9125	-4.2667	-4.4208	-3.975	-4.1875	-4.0875	-3.8917	270.468	193.464	187.297	191.925	202.548	-43.035	250.425	279.358	19.218	54.762	-3.580	-5.937	267.267	-67.382	55.789	-32.001	9.7207e-05	0.00033872	3.8568e-05	1206.5	8.4415e-07	2.3275e-06	1271.7	249.7	6.5864e-07	1.6015e-06	312.7	86.818	68.151	19.726	2.7438e-06	27.915	7.7681e-05	8.5735e-05	2.5049e-05	974.7	8.4894e-07	9.5735e-07	1050.2	200.78	8.6656e-07	9.9334e-07	237.58	66.865	50.612	15.668	1.0201e-06	20.961	51.290	71.231	273.813	-60.423	80.197	182.957	-60.362	-53.209	60.143	243.137	-53.436	-46.747	-47.003	-39.686	10.761	-40.620	-8191	255	
2066.727	1	1	0	0	0.13738	0.13318	0.10417	0.10312	0.13218	0.33882	0.35047	0.13888	0.13545	0.33236	0.24117	0.16175	0.28025	0.096822	0.042271	0.25433	-4.1396	-3.925	-4.2083	-4.6	-3.9604	-4.2229	-4.3646	-4.1167	-4.2708	-4.1208	-4.0979	-4.5729	-4.0188	-4.1458	-4.1854	-3.9542	287.529	165.301	179.302	-54.044	18.261	-31.726	-42.190	153.782	263.781	19.836	248.876	271.558	103.037	262.161	-12.319	-30.557	0.00011519	9.1095e-05	1.9174e-05	1204.3	1.7982e-06	1.3715e-06	1270.7	249.88	3.2734e-06	1.9979e-06	312.53	87.881	68.463	19.75	1.9184e-07	27.76	8.2323e-05	9.5657e-05	2.5498e-05	975.34	8.9865e-07	1.0448e-06	1049	200.63	9.0936e-07	1.0536e-06	236.98	66.908	51.04	15.718	9.6123e-07	20.811	45.545	89.421	97.398	-60.417	210.448	157.751	-60.394	-53.398	191.787	260.197	-53.475	-46.846	-46.858	-39.730	-46.157	-40.602	-8191	255	
2066.823	1	1	0	0	0.22426	0.21133	0.27233	0.20691	0.042536	0.13863	0.10962	0.20991	0.25484	0.16758	0.18247	0.2359	0.018638	0.20083	0.21493	0.10499	-3.9625	-3.9792	-4.0396	-4.5833	-3.9771	-4.2125	-4.5854	-3.9667	-4.3583	-4.0917	-4.1104	-4.6625	-4.0458	-4.1521	-4.3458	-4	87.520	166.964	256.001	240.129	-60.962	-9.332	234.098	203.854	279.414	-24.484	219.527	253.703	284.302	83.136	259.410	146.794	0.00045669	0.0001456	1.7038e-05	1204.4	3.2927e-06	1.9162e-06	1273.4	249.06	8.655e-07	2.3025e-06	312.77	87.455	68.461	19.719	1.0985e-06	27.662	8.5614e-05	9.4674e-05	2.3736e-05	973.02	9.3428e-07	1.0126e-06	1046.6	199.68	9.3279e-07	9.8851e-07	235.16	66.277	51.136	15.519	8.9641e-07	20.619	55.076	71.482	174.640	-60.249	164.351	22.858	-60.449	-53.309	136.183	2.877	-53.508	-47.304	-46.603	-40.309	253.293	-40.162	-8191	255	
2066.919	1	1	0	0	0.28364	0.13617	0.22892	0.049624	0.15218	0.27816	0.097035	0.16555	0.090624	0.22593	0.14158	0.30276	0.21238	0.040745	0.12335	0.18184	-3.9792	-4.2208	-3.8708	-4.6896	-4.1042	-4.0104	-4.5708	-3.9396	-4.2063	-4.2458	-3.9333	-4.3604	-3.9313	-4.0125	-4.3	-3.9646	180.694	54.349	-21.871	-32.733	195.977	67.004	16.557	167.346	31.367	37.706	216.651	75.753	185.639	217.006	23.594	76.988	0.00022799	0.00014307	3.8928e-05	1202.3	2.0491e-06	1.4025e-06	1273.7	248.45	2.5626e-06	3.3189e-06	312.13	87.106	68.952	19.711	2.0544e-06	27.84	8.7146e-05	8.8585e-05	2.2186e-05	970.19	9.597e-07	9.4827e-07	1044.7	199.2	9.639e-07	9.3136e-07	233.67	66.099	51.305	15.373	8.4565e-07	20.658	99.435	-57.604	-61.564	-60.478	175.611	-13.072	-60.400	-53.219	88.867	21.443	-53.462	-47.055	-46.898	-39.695	15.355	-40.402	-8191	255	
2067.038	1	1	0	0	0.20686	0.092507	0.14599	0.10097	0.18202	0.12065	0.1413	0.078445	0.13017	0.10133	0.21495	0.094863	0.10923	0.16516	0.023632	0.086353	-3.7792	-4.2979	-3.9771	-4.4771	-3.9437	-4.0188	-4.575	-4.0146	-4.125	-4.1917	-4.0042	-4.5167	-4.3417	-3.9813	-4.5312	-3.8521	-36.608	50.340	-11.486	277.580	268.291	41.418	-58.950	-68.658	127.182	92.482	140.833	216.547	270.286	-26.935	39.721	43.444	0.00019641	0.00013783	5.4134e-05	1202.3	1.3577e-06	3.5876e-07	1274.6	249.42	3.6011e-07	1.1687e-06	312.39	87.521	68.534	19.856	2.6999e-06	27.785	8.8944e-05	8.2307e-05	2.1219e-05	970.07	9.7349e-07	8.875e-07	1040.6	199.95	9.7144e-07	8.7958e-07	233.13	66.664	51.288	15.322	8.1482e-07	20.833	80.968	-3.284	28.400	-60.246	14.272	-45.922	-60.395	-53.352	288.219	100.614	-53.493	-46.801	-46.713	-39.916	41.667	-40.435	-8191	255	
2067.134	1	1	0	0	0.11463	0.1845	0.20923	0.23814	0.037854	0.091019	0.27836	0.35057	0.12833	0.095697	0.15752	0.11685	0.14251	0.18597	0.25929	0.10457	-3.7208	-4.2083	-3.9146	-4.475	-4.1937	-3.8917	-4.6146	-4.0896	-4.0292	-4.4771	-4.0229	-4.3625	-4.2667	-3.7896	-4.5104	-4.1604	248.754	288.391	22.702	286.619	-5.339	103.576	253.485	211.084	242.740	272.425	270.640	6.125	39.539	71.341	140.292	-48.145	0.00020512	0.00012452	2.0121e-05	1200.2	3.3829e-06	9.6748e-07	1268.8	247.39	2.5698e-06	2.2358e-06	310.41	87.282	68.822	19.683	1.7363e-06	27.651	8.7888e-05	7.9132e-05	2.0576e-05	971.45	9.4241e-07	8.4758e-07	1037.6	199.54	9.2764e-07	8.355e-07	231.78	66.596	50.641	15.097	7.7203e-07	20.812	84.713	280.438	104.426	-60.399	27.617	36.883	-60.505	-53.374	-3.677	-11.706	-53.615	-47.170	-46.140	-39.920	107.428	-40.257	-8191	255	
2067.206	1	1	0	0	0.058597	0.20551	0.0822	0.15589	0.11229	0.072148	0.35921	0.32986	0.20678	0.11579	0.22175	0.010121	0.16453	0.18445	0.065965	0.054098	-3.6813	-4.2812	-4.1208	-4.4083	-4.3771	-3.8667	-4.5125	-4.2333	-4.0563	-4.4146	-3.9917	-4.3313	-4.2708	-3.8542	-4.4417	-4.2979	111.917	236.845	29.678	180.099	254.423	99.984	229.299	15.044	8.291	279.573	194.276	214.618	286.879	66.333	3.853	166.790	0.00010509	0.00025524	4.138e-05	1191.9	1.0449e-06	2.3032e-06	1265.5	247.92	1.5531e-06	1.4388e-06	310.19	86.328	68.508	19.661	2.015e-06	27.819	7.9485e-05	7.2265e-05	1.9346e-05	966.94	8.5069e-07	7.7639e-07	1033	199.15	8.2637e-07	7.6352e-07	230.94	66.259	49.875	14.896	7.6012e-07	20.684	110.225	28.590	260.112	-60.334	45.772	56.419	-60.311	-53.356	-50.066	67.198	-53.428	-47.435	-46.635	-39.800	125.143	-40.299	-8191	255	
2067.302	1	1	0	0	0.22884	0.16626	0.12221	0.3935	0.12668	0.10662	0.19557	0.28461	0.23342	0.08949	0.1014	0.20273	0.18678	0.1183	0.12419	0.028356	-3.6896	-4.4083	-3.9229	-4.3417	-4.25	-3.9542	-4.4667	-4.2979	-3.7917	-4.4917	-4.1208	-4.1729	-4.3875	-3.9854	-4.2292	-4.1	173.301	182.677	55.097	228.870	233.804	77.392	-40.601	239.028	239.472	15.600	183.218	-64.975	268.426	31.753	224.856	-40.645	0.00013579	0.000182	4.5223e-05	1192	2.3285e-06	9.289e-07	1265.6	247.83	1.8858e-06	2.4575e-06	309.31	87.065	67.954	19.626	1.1381e-06	27.551	7.1915e-05	6.6296e-05	1.9379e-05	963.3	7.7849e-07	7.2627e-07	1030.5	198.04	7.7577e-07	7.2704e-07	231.12	66.125	49.458	14.898	8.2683e-07	20.679	144.449	286.088	154.903	-60.348	46.977	33.904	-60.344	-53.162	46.139	67.089	-53.620	-47.020	-46.758	-39.711	204.670	-40.438	-8191	255	
2067.422	1	1	0	0	0.22671	0.093961	0.32344	0.18376	0.067208	0.067448	0.24948	0.1678	0.17464	0.21569	0.18141	0.14469	0.14728	0.19297	0.015529	0.26631	-3.4813	-4.5625	-3.9875	-4.0417	-4.3354	-3.9021	-4.4042	-4.35	-3.8937	-4.3521	-4.1458	-4.2104	-4.4146	-3.9396	-4.1083	-4.1125	75.241	201.872	76.262	240.276	210.975	222.580	189.427	197.707	136.763	36.701	262.403	-54.273	279.917	139.569	190.927	-50.439	8.9216e-05	0.00019343	3.375e-05	1189.9	2.8843e-06	4.887e-07	1258.6	245.45	5.4157e-07	8.4956e-07	311.07	86.829	67.951	19.623	1.335e-06	27.948	7.1452e-05	6.7198e-05	2.1415e-05	960.59	7.7917e-07	7.365e-07	1033	197.71	7.8617e-07	7.5087e-07	232.95	66.024	49.573	14.929	8.8011e-07	20.628	147.998	-9.012	5.575	-60.390	-16.427	-62.726	-60.518	-53.234	134.567	-36.005	-53.452	-47.201	-46.699	-39.534	155.602	-40.382	-8191	255	
2067.518	1	1	0	0	0.1714	0.23829	0.25384	0.25618	0.036411	0.14641	0.031642	0.011398	0.18723	0.065046	0.17961	0.20276	0.10858	0.051605	0.3073	0.059784	-3.5938	-4.3521	-3.9708	-4.3667	-4.4396	-3.8333	-4.3771	-4.3938	-3.9292	-4.375	-4.3479	-4.0667	-4.5375	-4.0312	-4.0479	-4.2583	277.296	159.743	115.905	210.288	-0.656	84.039	252.526	-57.391	81.150	267.119	206.742	196.887	-65.970	-43.390	279.570	132.488	0.0001293	4.0833e-05	8.6303e-06	1189.1	1.9154e-06	7.8496e-07	1263.1	247.56	2.7752e-06	1.585e-06	309.39	87.036	67.733	19.699	5.6017e-07	27.647	7.0438e-05	6.9411e-05	2.2361e-05	959.46	7.5446e-07	7.6462e-07	1034.6	197.16	7.4319e-07	7.7491e-07	232.63	65.544	49.179	15.004	8.5559e-07	20.405	244.006	225.256	225.231	-60.243	58.454	170.380	-60.371	-53.447	69.589	172.999	-53.385	-46.822	-46.867	-39.892	226.414	-40.128	-8191	255	
2067.615	1	1	0	0	0.14894	0.038161	0.067729	0.13017	0.28652	0.10019	0.079376	0.1467	0.10158	0.14603	0.17065	0.15549	0.17014	0.21092	0.10607	0.23996	-3.4437	-4.1771	-4.1396	-4.0479	-4.5188	-3.9688	-4.2208	-4.4125	-3.775	-4.2583	-4.2771	-3.8542	-4.4125	-3.9854	-4.0729	-4.2958	163.850	134.170	103.501	20.190	65.103	260.101	225.258	10.186	208.885	-15.896	147.727	246.872	285.465	-43.396	133.852	-40.819	0.00011253	8.8074e-05	2.9083e-05	1192.8	7.5727e-07	1.4171e-06	1255.4	246.57	1.4196e-06	1.3488e-06	310.62	86.713	67.332	19.623	1.7394e-06	27.53	6.5996e-05	7.1109e-05	2.125e-05	958.52	6.9928e-07	7.8606e-07	1028.3	196.11	6.9815e-07	7.9334e-07	231.39	65.101	48.806	15.044	8.0325e-07	20.23	-13.204	169.636	-27.683	-60.511	274.711	151.692	-60.299	-53.313	181.670	282.859	-53.663	-47.133	-46.349	-39.311	-27.654	-40.317	-8191	255	
2067.711	1	1	0	0	0.085847	0.11503	0.17977	0.1159	0.13449	0.16563	0.30895	0.15234	0.084	0.10487	0.34311	0.3545	0.17197	0.056607	0.028923	0.21636	-3.5187	-4.2708	-4.1813	-3.7958	-4.4187	-4.1583	-4.2167	-4.4417	-3.7854	-4.1958	-4.3729	-3.8958	-4.3438	-4.1083	-3.9833	-4.5563	282.571	-26.792	260.084	206.034	29.814	58.954	269.167	178.133	-46.465	232.090	190.990	228.824	214.264	-28.782	-27.676	208.877	0.00011275	0.00013063	4.19e-05	1188.7	1.2066e-06	3.3479e-06	1251.8	246.27	2.1324e-06	1.7806e-06	308.82	87.087	67.234	19.676	9.4294e-07	27.778	6.4477e-05	7.4933e-05	2.0098e-05	954.37	7.084e-07	8.2933e-07	1025.6	195.69	7.2181e-07	8.3846e-07	230.21	65.056	49.135	15.127	7.7362e-07	20.235	39.992	78.861	-54.340	-60.077	-27.565	128.536	-60.157	-53.261	-13.870	-36.241	-53.656	-47.260	-46.967	-39.560	57.910	-40.514	-8191	255	
2067.830	1	1	0	0	0.18074	0.20153	0.17878	0.28029	0.056115	0.35083	0.42225	0.12835	0.12334	0.058255	0.28044	0.054819	0.10389	0.050735	0.20684	0.075429	-3.5771	-4.1021	-4.25	-3.9896	-4.2771	-4.0542	-4.0646	-4.4292	-3.8708	-4.1667	-4.3875	-3.8833	-4.3583	-4.3083	-3.9437	-4.4708	-17.802	145.207	44.582	-43.607	108.011	99.705	234.632	267.623	-40.234	67.929	234.122	-71.291	173.122	-7.094	169.455	183.269	0.00037479	0.00018211	2.0168e-05	1190.8	2.2789e-06	1.0158e-06	1257.4	246.25	1.5651e-06	1.9083e-06	308.15	87.169	67.93	19.762	5.34e-07	27.889	6.8218e-05	7.6521e-05	1.9458e-05	953.64	7.5616e-07	8.3638e-07	1027.1	195.47	7.6961e-07	8.303e-07	229.77	64.961	49.534	15.127	7.5551e-07	20.2	71.775	-13.182	-3.016	-60.375	144.402	4.489	-60.219	-53.477	261.619	20.654	-53.366	-47.137	-46.573	-39.907	133.261	-40.505	-8191	255	
2067.903	1	1	0	0	0.20885	0.19073	0.22388	0.17822	0.084095	0.083438	0.035384	0.15424	0.30259	0.21569	0.069078	0.12663	0.14176	0.1386	0.12261	0.14909	-3.5938	-4.0333	-4.3375	-3.8937	-4.4417	-4.3438	-4.0854	-4.4771	-4.0792	-4.1188	-4.3917	-3.9104	-4.1375	-4.2438	-3.925	-4.35	28.643	51.095	73.888	148.979	129.143	168.995	124.808	269.839	80.438	6.332	177.523	151.935	259.024	191.943	40.735	244.700	0.00021212	0.00030801	2.0714e-05	1189.3	1.6185e-06	1.7564e-06	1257	246.71	6.3295e-07	1.437e-06	307.04	87.142	68.315	19.657	1.6594e-06	27.807	7.4054e-05	7.5718e-05	1.9157e-05	953.27	8.2295e-07	8.2104e-07	1025.9	195.9	8.2872e-07	8.0689e-07	229.01	65.085	49.959	15.061	7.3804e-07	20.291	55.368	-50.900	-15.130	-60.313	152.124	57.839	-60.440	-53.078	242.956	-12.781	-53.540	-47.200	-46.812	-40.133	-11.624	-40.651	-8191	255	
2067.999	1	1	0	0	0.22752	0.23849	0.081671	0.30391	0.11969	0.14844	0.37965	0.15947	0.17717	0.20299	0.28772	0.099397	0.095469	0.087057	0.046017	0.07954	-3.5292	-4.0708	-4.2208	-3.9896	-4.1667	-4.3271	-3.9125	-4.2125	-3.9833	-4.1146	-4.2667	-3.7229	-4.1937	-4.2042	-3.7125	-4.3917	213.188	0.821	72.466	240.988	-45.099	260.470	254.699	273.296	99.060	280.299	181.716	231.012	36.650	148.484	123.236	11.442	0.00019852	0.00017791	7.1388e-05	1187.5	1.615e-06	2.37e-06	1259.4	245.24	1.7087e-06	4.1168e-06	307.09	87.169	67.872	19.668	8.9285e-07	27.603	7.7169e-05	7.2657e-05	1.8755e-05	955.28	8.4698e-07	7.8922e-07	1025.8	195.92	8.5904e-07	7.8734e-07	228.77	65.515	50.084	15.012	7.2946e-07	20.431	69.455	-43.993	-34.707	-60.366	170.988	54.896	-60.343	-53.426	82.057	13.940	-53.598	-46.751	-46.626	-39.598	21.753	-40.532	-8191	255	
2068.118	1	1	0	0	0.13949	0.1254	0.20426	0.10029	0.026544	0.034963	0.087079	0.10123	0.18592	0.052	0.15652	0.20632	0.26057	0.09677	0.16025	0.060816	-3.7875	-3.8937	-4.3542	-4.1104	-3.9125	-4.3771	-3.8667	-4.2083	-4.025	-3.9229	-4.4604	-3.9229	-3.9917	-4.2958	-3.8292	-4.2167	-60.963	66.953	170.350	232.421	50.541	119.470	125.694	224.433	-28.052	62.748	103.118	267.791	210.422	211.595	132.834	257.797	0.00013428	0.00010449	5.0764e-05	1189	2.2335e-06	3.2715e-06	1258.1	246.1	2.0309e-06	2.8228e-07	309.81	86.816	68.224	19.476	5.3397e-07	27.862	7.9828e-05	7.1366e-05	1.8556e-05	957.36	8.6652e-07	7.8778e-07	1025.9	197.77	8.7932e-07	8.1371e-07	229.83	66.129	50.445	15.061	7.8249e-07	20.891	200.957	13.198	-14.674	-60.326	28.481	-51.972	-60.451	-53.064	-1.307	157.791	-53.543	-46.793	-46.861	-39.852	175.052	-40.396	-8191	255	
2068.214	1	1	0	0	0.14748	0.0317	0.064281	0.032211	0.1836	0.083539	0.33571	0.15181	0.23703	0.15942	0.036993	0.1616	0.10111	0.019518	0.067474	0.1427	-3.6854	-3.6333	-4.2521	-4.1562	-3.9125	-4.3812	-3.9375	-4.2583	-4.1646	-3.8187	-4.4	-4.1458	-3.8833	-4.2063	-3.7833	-4.1937	262.580	-26.340	110.438	-23.460	-55.800	61.669	233.830	-6.212	200.288	244.697	72.919	84.897	-31.799	-68.506	-4.773	72.892	8.2784e-05	0.00010535	3.1453e-05	1193.4	7.5265e-07	1.4576e-06	1265.9	247.95	6.7055e-07	2.9999e-06	309.71	87.261	68.519	19.726	2.6735e-06	27.789	8.3149e-05	7.5861e-05	2.0482e-05	968.46	9.0616e-07	8.3538e-07	1034.7	199.91	9.0116e-07	8.3008e-07	232.27	67.121	50.539	15.154	8.4053e-07	21.075	283.524	60.029	7.419	-60.238	236.146	-28.199	-60.287	-53.474	-3.496	-50.243	-53.603	-47.051	-46.742	-39.861	212.723	-40.579	-8191	255	
2068.310	1	1	0	0	0.039979	0.25442	0.2655	0.40469	0.093316	0.23968	0.049197	0.14499	0.20047	0.13716	0.16941	0.040959	0.13421	0.1648	0.22146	0.25025	-3.6354	-3.6896	-4.0646	-4.1667	-3.8375	-4.3938	-3.9958	-4.0208	-4.2104	-3.8187	-4.2708	-4.0229	-3.8625	-4.575	-3.8667	-4.1125	98.444	78.144	0.426	-59.773	94.770	27.742	23.116	-55.282	0.660	90.218	-49.713	271.410	119.816	-34.920	173.765	-40.113	6.6511e-05	0.00010442	6.3827e-05	1200.7	1.7456e-06	1.5439e-06	1261.2	248.02	1.8806e-06	2.9395e-06	310.01	87.642	68.387	19.662	1.1325e-06	27.793	8.137e-05	7.4522e-05	2.1901e-05	975.34	9.071e-07	8.5135e-07	1039.6	201.27	9.536e-07	9.0183e-07	235.92	67.976	51.376	15.404	1.0788e-06	21.589	83.158	-6.236	138.924	-60.223	-9.302	276.150	-60.324	-53.270	-6.003	49.968	-53.771	-47.360	-46.913	-39.625	177.772	-40.374	-8191	255	
2068.431	1	1	0	0	0.077824	0.094394	0.077458	0.14869	0.085501	0.13521	0.067414	0.29405	0.13842	0.10179	0.25639	0.13338	0.19737	0.1329	0.066834	0.11095	-3.9625	-3.7396	-4.1979	-4.1625	-4.0833	-4.3771	-4.1542	-4.0771	-4.2646	-3.9271	-4.25	-4.1375	-3.7979	-4.4104	-4.1542	-3.9188	-30.767	252.758	130.725	201.276	192.012	-43.064	154.266	287.315	235.528	272.685	-52.952	286.729	-43.801	261.969	90.006	66.758	0.00017758	0.00021129	4.9529e-05	1201.9	2.4009e-06	6.6054e-07	1270.2	248.85	2.3062e-06	2.4053e-06	310.74	87.249	67.761	19.585	1.7181e-06	28.021	9.5162e-05	8.8485e-05	2.7801e-05	981.79	9.9547e-07	9.2397e-07	1048.8	201.93	9.2485e-07	8.5829e-07	235.97	66.814	50.223	15.067	9.3698e-07	20.723	104.617	87.868	81.951	-60.399	170.044	-8.156	-60.559	-53.287	89.833	2.101	-53.561	-47.432	-46.529	-39.758	286.401	-40.381	-8191	255	
2068.503	1	1	0	0	0.20945	0.094147	0.21768	0.12069	0.10897	0.18333	0.30121	0.054251	0.086358	0.11234	0.072549	0.11647	0.097683	0.12189	0.2887	0.071895	-3.9437	-3.925	-4.1146	-4.2458	-3.7229	-4.35	-4.25	-4.2229	-4.1896	-3.7896	-4.2229	-4.1312	-3.7708	-4.5417	-4.0271	-4.0062	249.485	-61.148	6.778	-23.439	133.742	168.122	197.720	-61.540	239.905	240.746	-40.895	-56.216	253.393	238.583	26.448	-56.635	7.2007e-05	6.786e-05	6.126e-06	1193.1	3.1749e-07	9.6727e-07	1258.9	246.44	6.5707e-07	2.3033e-06	308.49	86.418	68.168	19.402	2.6913e-06	27.952	7.4151e-05	7.2125e-05	2.3262e-05	963.66	7.8014e-07	7.9111e-07	1037.2	197.53	7.8655e-07	8.1422e-07	233.65	65.814	49.726	15.121	9.5863e-07	20.745	55.328	125.220	19.673	-60.227	73.668	250.227	-60.317	-53.163	72.090	209.825	-53.776	-46.880	-46.216	-40.255	-7.233	-40.343	-8191	255	
2068.599	1	1	0	0	0.040127	0.3115	0.056464	0.15815	0.10189	0.10937	0.10281	0.084905	0.24876	0.26163	0.090664	0.10906	0.10739	0.11699	0.01015	0.097844	-4.0271	-3.675	-4.1312	-4.2688	-3.9	-4.1854	-4.3542	-3.9188	-4.3646	-3.8542	-3.9813	-4.3375	-3.8625	-4.2208	-4.1417	-3.8854	175.717	-21.558	27.956	249.628	102.148	234.866	147.026	175.923	-26.628	172.857	258.473	177.418	-3.086	243.063	31.284	2.849	5.7781e-05	0.00016098	4.9134e-05	1190.9	3.9056e-07	1.5239e-06	1260.3	246.49	4.2107e-07	1.0632e-06	309.1	87.033	68.335	19.568	1.3971e-06	27.611	7.5754e-05	8.1866e-05	2.4995e-05	963.02	8.4727e-07	9.2822e-07	1040	198.84	8.5097e-07	9.6898e-07	235.24	66.467	50.415	15.557	1.0369e-06	20.982	97.977	145.923	-40.529	-60.136	-27.172	-54.275	-60.153	-53.150	223.430	118.892	-53.576	-47.433	-46.725	-39.726	-23.969	-40.564	-8191	255	
2068.720	1	1	0	0	0.2212	0.063142	0.16636	0.11064	0.15437	0.080792	0.16004	0.21987	0.12342	0.14883	0.31609	0.28193	0.29603	0.082571	0.03553	0.096991	-4.0854	-3.8917	-4.1375	-4.2667	-3.7896	-4.1708	-4.2021	-3.9458	-4.4104	-4.0687	-4.0146	-4.2646	-3.975	-4.2188	-4.1521	-3.8063	3.629	163.948	241.513	-70.652	41.209	137.358	212.634	286.350	235.167	87.606	231.137	103.443	231.485	242.426	244.444	236.119	0.00015274	6.5894e-05	5.7213e-05	1201.1	5.3486e-07	2.5246e-06	1267.9	247.99	1.5662e-06	1.382e-06	311.22	87.505	68.452	19.695	7.7922e-07	27.969	8.3965e-05	9.6666e-05	2.6609e-05	973.89	9.269e-07	1.0731e-06	1048.7	200.24	9.1539e-07	1.0681e-06	236.29	66.775	50.799	15.683	9.7426e-07	20.922	90.807	136.515	12.717	-60.494	78.982	68.731	-60.314	-53.196	179.780	125.059	-53.755	-46.694	-46.932	-40.166	89.380	-40.498	-8191	255	
2068.816	1	1	0	0	0.19052	0.21921	0.12616	0.093977	0.19568	0.18005	0.15665	0.14417	0.018412	0.19701	0.11105	0.18861	0.21118	0.047639	0.11895	0.22425	-3.9042	-3.9688	-3.8438	-4.3521	-3.9562	-4.1271	-4.3542	-3.8729	-4.275	-4.0583	-4.0062	-4.4146	-3.9229	-3.9562	-4.1708	-3.5542	30.074	3.364	128.587	105.323	161.781	45.223	222.027	-57.478	194.183	-65.683	39.822	261.833	254.723	64.254	101.891	247.715	0.00020578	0.00013544	6.3295e-05	1203.8	1.4588e-06	2.7457e-06	1276.1	249.67	2.4692e-06	3.5252e-06	312.76	87.84	68.823	19.875	1.7591e-06	27.937	8.4005e-05	9.6316e-05	2.4258e-05	973.55	9.2258e-07	1.0308e-06	1048	200.29	9.2616e-07	1.0114e-06	235	66.478	50.991	15.605	8.9037e-07	20.695	91.158	88.463	259.667	-60.205	154.737	23.547	-60.495	-53.229	146.805	-43.225	-53.791	-47.155	-46.390	-39.898	-0.847	-40.483	-8191	255	
2068.910	1	1	0	0	0.037036	0.26143	0.21159	0.28893	0.1194	0.051276	0.00825	0.10862	0.046355	0.16256	0.17426	0.099692	0.28426	0.24873	0.25161	0.29921	-3.9313	-3.9125	-3.7562	-4.5354	-3.8896	-3.8812	-4.4979	-3.9854	-4.3313	-4.0521	-3.9542	-4.4	-3.9688	-4.0375	-4.2854	-3.9188	2.660	22.662	96.151	250.528	-70.179	111.575	41.551	180.294	11.909	-63.175	239.572	149.093	73.010	37.861	267.174	143.105	0.00011082	0.00017588	2.9242e-05	1208.5	1.4727e-06	1.4456e-06	1276.9	248.96	1.5992e-06	3.5488e-06	312.35	87.889	68.648	19.859	9.4375e-07	28.149	8.509e-05	8.7556e-05	2.2015e-05	971.38	9.1559e-07	9.2917e-07	1045.3	198.79	9.0627e-07	9.0204e-07	233.35	66.165	51.009	15.368	8.0048e-07	20.606	44.391	-17.383	174.966	-60.384	89.220	12.131	-60.299	-53.343	88.323	-11.846	-53.629	-47.080	-46.765	-40.047	33.193	-40.636	-8191	255	
2069.006	1	1	0	0	0.16337	0.027413	0.16098	0.099957	0.10816	0.33488	0.20332	0.17251	0.11749	0.074709	0.23191	0.059457	0.1263	0.22966	0.11272	0.29451	-3.925	-4.2208	-3.7604	-4.3271	-3.8729	-3.8771	-4.475	-3.9896	-4.1708	-4.3833	-3.7896	-4.4604	-4.1646	-3.9104	-4.35	-3.9813	7.829	32.962	155.676	259.129	180.354	274.558	252.802	204.307	231.790	209.941	282.958	59.490	253.675	-56.160	253.314	155.617	0.00024335	6.5454e-05	7.2895e-05	1204.3	5.0777e-07	6.3166e-07	1281.1	250.28	1.6077e-06	1.3848e-06	313.88	87.506	69.031	20.181	6.4602e-07	28.105	8.3071e-05	7.8166e-05	2.02e-05	970.51	9.1671e-07	8.62e-07	1045	199.96	9.4154e-07	8.7016e-07	234.06	66.822	51.545	15.543	8.4484e-07	21.133	84.142	56.527	-44.278	-60.515	198.153	54.650	-60.503	-53.304	53.398	127.941	-53.756	-47.050	-46.708	-39.898	249.575	-40.572	-8191	255	
2069.127	1	1	0	0	0.1639	0.15427	0.2065	0.15296	0.22193	0.17468	0.32326	0.11442	0.14848	0.2859	0.13355	0.069973	0.14392	0.039036	0.085925	0.019952	-3.6937	-4.0813	-3.7313	-4.2458	-3.9875	-3.8937	-4.375	-3.9437	-4.0583	-4.2312	-3.9083	-4.3792	-4.3646	-4.0958	-4.2937	-3.9792	123.501	73.418	127.911	-26.655	-8.531	221.679	218.650	225.073	20.769	23.740	80.108	116.814	58.525	111.671	-64.324	270.786	0.00016855	0.00027355	1.3844e-05	1214	3.1291e-06	5.9975e-07	1276.5	250.16	2.037e-06	2.0982e-06	315.62	88.156	68.846	20.078	3.9272e-07	28.112	9.3475e-05	8.5169e-05	2.2217e-05	983.14	1.0418e-06	9.4166e-07	1048.9	202.79	1.0351e-06	9.3268e-07	236.13	68.101	51.868	15.605	8.5933e-07	21.328	-11.789	31.800	34.793	-60.282	71.850	13.650	-60.278	-53.232	212.670	48.003	-53.847	-46.848	-46.649	-40.087	140.058	-40.358	-8191	255	
2069.199	1	1	0	0	0.030659	0.13911	0.13518	0.095755	0.082596	0.086097	0.24187	0.19449	0.2785	0.18654	0.2016	0.054055	0.25392	0.38261	0.19815	0.17923	-3.7396	-4.25	-3.8688	-4.4625	-4.1604	-3.7625	-4.6625	-4.2292	-4.075	-4.2854	-3.8875	-4.2083	-4.2167	-3.8438	-4.35	-4.05	96.998	3.146	130.559	277.344	37.375	17.781	49.905	204.122	245.347	6.083	191.264	166.045	189.959	248.748	73.036	101.332	0.0003455	0.00033092	5.8182e-05	1207.8	3.1975e-06	1.5343e-06	1280	250.91	1.2131e-06	2.6708e-06	313.94	88.374	68.889	20.002	2.1881e-06	28.238	9.0886e-05	8.2701e-05	2.185e-05	983.51	9.8506e-07	9.1195e-07	1049.6	204.03	9.9789e-07	9.1396e-07	236.55	68.43	51.785	15.602	9.4593e-07	21.648	133.104	-55.710	81.815	-60.363	49.706	-18.186	-60.341	-53.236	-7.386	87.654	-53.703	-47.281	-46.555	-39.949	153.343	-40.511	-8191	255	
2069.295	1	1	0	0	0.078174	0.094889	0.215	0.084927	0.24891	0.18941	0.042413	0.1658	0.11873	0.2475	0.19603	0.44735	0.050719	0.21631	0.23908	0.20744	-3.5333	-4.3604	-3.9938	-4.4375	-4.2812	-3.8292	-4.4542	-4.1979	-3.9333	-4.5062	-3.975	-4.1583	-4.175	-3.8167	-4.3604	-4.1667	274.017	126.337	232.543	273.943	142.207	223.657	269.947	116.401	37.999	141.927	277.519	266.227	245.637	244.054	271.684	156.209	2.2689e-05	0.00025313	5.771e-05	1211.9	1.2346e-06	1.4739e-06	1279.3	251.36	1.7841e-06	1.5778e-06	313.99	88.244	69.102	20.121	5.9787e-07	28.201	9.288e-05	8.6781e-05	2.4961e-05	990.09	1.0438e-06	9.7696e-07	1057.5	206.12	1.0831e-06	1.0234e-06	241.29	69.807	53.069	15.989	1.2153e-06	22.367	145.519	22.918	71.967	-60.250	214.406	37.983	-60.601	-53.241	72.015	93.338	-53.677	-47.194	-47.155	-40.048	19.923	-40.802	-8191	255	
2069.391	1	1	0	0	0.11785	0.09678	0.14189	0.13492	0.10317	0.23565	0.11315	0.077868	0.060377	0.34492	0.095777	0.16467	0.25257	0.14286	0.11105	0.13823	-3.4375	-4.4354	-3.9104	-4.2312	-4.325	-3.8229	-4.3063	-4.2	-3.7271	-4.4833	-3.9896	-3.9646	-4.3292	-3.9583	-4.1896	-4.2083	126.076	251.270	-51.485	239.892	278.581	-42.587	102.153	232.373	165.418	232.143	236.529	136.770	285.926	-5.377	92.136	233.574	6.6804e-05	4.7766e-05	9.6901e-05	1223.8	2.3796e-06	1.6426e-06	1291.8	255.08	2.641e-06	3.6253e-06	318.32	89.41	70.38	20.304	8.6286e-07	28.43	0.00011185	0.00010491	3.3407e-05	1012.3	1.2933e-06	1.241e-06	1086.7	213.43	1.3833e-06	1.306e-06	252.82	72.609	55.457	16.766	1.5799e-06	23.208	110.122	-43.691	50.664	-60.358	90.749	1.740	-60.394	-53.553	85.994	77.406	-53.679	-47.508	-46.910	-39.982	-11.779	-40.318	-8191	255	
2069.511	1	1	0	0	0.022305	0.19588	0.059425	0.25847	0.13675	0.15275	0.26464	0.25456	0.087277	0.12143	0.035052	0.14582	0.22095	0.096707	0.2673	0.067327	-3.5396	-4.2104	-4.0729	-3.9521	-4.3521	-3.8187	-4.3438	-4.3125	-3.7167	-4.3104	-4.125	-4	-4.4021	-3.9729	-4.0292	-4.2667	127.863	-21.925	123.062	259.881	263.814	-27.102	235.338	218.644	81.016	256.732	-13.581	257.228	105.364	44.291	120.532	238.318	9.5255e-05	0.00011551	7.6677e-05	1234.2	2.5215e-06	8.0999e-07	1309.9	257.14	1.5313e-06	8.3133e-07	319.15	88.948	70.567	20.37	1.9726e-06	28.616	0.00012919	0.00012456	4.0427e-05	1028.6	1.3866e-06	1.3725e-06	1101.8	213.92	1.3573e-06	1.3594e-06	253.86	71.825	54.99	16.795	1.5408e-06	22.852	13.561	152.385	212.915	-60.358	-0.659	120.623	-60.365	-53.421	127.921	255.895	-53.629	-47.533	-46.840	-39.859	151.343	-40.899	-8191	255	
2069.608	1	1	0	0	0.28439	0.043304	0.14898	0.32941	0.12083	0.18038	0.2124	0.29054	0.20474	0.23478	0.14665	0.094229	0.12576	0.21591	0.084448	0.068177	-3.3812	-4.2167	-4.0833	-4.0646	-4.3125	-3.9625	-4.3167	-4.2937	-3.7271	-4.1813	-4.0729	-3.8021	-4.2896	-4.0125	-4.1	-4.3313	188.335	285.872	123.807	-32.009	107.200	90.264	249.267	241.956	66.830	140.150	28.325	251.256	-35.677	223.875	147.881	203.284	0.00041379	0.00021486	6.4171e-06	1240.3	2.6079e-06	1.4419e-06	1310.2	256.34	1.0507e-06	1.2044e-06	321.71	89.574	70.267	20.187	5.9979e-07	28.466	0.00011952	0.00012544	3.8662e-05	1026.5	1.2837e-06	1.3922e-06	1103	213.15	1.2745e-06	1.4102e-06	253.09	71.438	54.47	16.961	1.458e-06	22.576	14.411	100.245	259.922	-60.361	90.178	132.878	-60.625	-53.476	93.757	-44.463	-53.583	-47.532	-47.326	-40.234	167.261	-41.022	-8191	255	
2069.704	1	1	0	0	0.12158	0.10044	0.33788	0.19088	0.20601	0.036273	0.12726	0.088529	0.013996	0.09053	0.20124	0.119	0.21925	0.050892	0.27175	0.079221	-3.5062	-4.1521	-4.0188	-4.225	-4.4187	-3.9229	-4.2208	-4.3229	-3.8688	-4.1542	-4.3042	-3.8792	-4.45	-3.925	-4.0625	-4.4062	153.784	-38.038	66.532	276.880	222.784	225.772	257.644	179.715	31.016	-65.838	278.707	260.849	-36.956	16.891	96.492	278.271	0.00021539	0.00021912	6.6027e-05	1237	7.2376e-07	2.7031e-06	1306.8	257.86	1.9372e-06	1.9134e-06	321.09	88.945	70.035	20.245	3.4475e-06	28.564	0.00011528	0.00013054	3.6326e-05	1020.5	1.2505e-06	1.4605e-06	1096.8	212.32	1.2802e-06	1.4931e-06	251.88	71.033	54.79	17.147	1.4224e-06	22.526	101.232	61.743	-70.258	-60.469	95.222	95.988	-60.474	-53.291	265.299	199.619	-53.683	-47.355	-47.123	-40.426	75.143	-41.029	-8191	255	
2069.800	1	1	0	0	0.24721	0.13044	0.17247	0.14203	0.12984	0.13435	0.17822	0.26073	0.17057	0.065427	0.22977	0.22556	0.18888	0.13559	0.12514	0.088473	-3.675	-4.1833	-4.35	-3.8125	-4.3229	-4.0771	-4.1542	-4.5813	-3.8729	-4.0813	-4.3542	-3.7458	-4.3313	-4.1479	-3.975	-4.3208	60.707	240.820	193.012	248.738	66.575	-67.294	249.814	-50.299	51.753	104.141	197.984	256.710	154.278	110.619	247.512	17.945	0.00031376	0.00014324	3.9527e-05	1238.9	2.9096e-06	1.9706e-06	1307.4	257.14	1.9966e-06	1.1789e-06	320.12	89.299	70.121	20.267	3.1752e-06	28.5	0.00012127	0.00013856	3.5669e-05	1019.6	1.338e-06	1.5115e-06	1093.3	211.5	1.3507e-06	1.5009e-06	250.66	70.644	55.268	17.063	1.3446e-06	22.307	103.490	280.521	-16.492	-60.470	209.169	89.675	-60.356	-53.579	151.050	219.692	-53.498	-47.181	-46.918	-40.203	-36.518	-40.542	-8191	255	
2069.896	1	1	0	0	0.097752	0.071302	0.051511	0.2047	0.15081	0.059125	0.085203	0.1854	0.047283	0.24248	0.10866	0.082745	0.17125	0.22366	0.16134	0.063822	-3.6042	-4.2438	-4.2771	-4.1292	-4.2312	-4.1729	-4.0042	-4.5021	-4.1021	-4.0458	-4.2625	-4.0125	-4.3417	-4.2333	-3.8125	-4.3792	36.094	234.556	-13.565	215.170	80.374	136.280	75.488	259.278	39.428	151.349	275.702	84.319	244.545	-20.335	205.592	100.210	0.00036896	0.00024718	8.615e-05	1242.3	2.6525e-06	1.341e-06	1309	256.57	1.0755e-06	5.8007e-07	319.36	89.409	70.128	20.274	2.5593e-06	28.582	0.00012585	0.00013242	3.3399e-05	1018.5	1.3916e-06	1.4394e-06	1090.8	210.84	1.4139e-06	1.429e-06	248.76	70.582	55.651	16.946	1.2943e-06	22.385	93.934	12.033	262.449	-60.415	212.924	-27.255	-60.565	-53.446	179.666	116.841	-53.809	-47.185	-46.925	-40.546	100.412	-40.938	-8191	255	
2069.992	1	1	0	0	0.070044	0.10422	0.22856	0.19056	0.10475	0.21591	0.028354	0.27927	0.13227	0.20082	0.13436	0.2623	0.014883	0.069847	0.14086	0.20075	-3.5958	-4.1875	-4.2937	-4.0479	-4.1271	-4.2083	-4.0729	-4.4292	-4.1	-4.0938	-4.4229	-4.0958	-4.2208	-4.1479	-3.7792	-4.2292	228.070	216.422	120.556	273.577	78.029	230.602	183.602	259.544	-20.448	249.116	-49.367	-34.605	29.774	-62.637	261.790	-54.710	0.00010346	0.00035957	2.7833e-05	1241.5	1.8527e-06	2.3702e-06	1308.6	256.34	3.2409e-06	6.0035e-07	319.71	89.083	70.16	20.376	8.7157e-07	28.265	0.00013231	0.00012796	3.287e-05	1019.7	1.4704e-06	1.3812e-06	1092.7	211.88	1.4829e-06	1.3674e-06	248.02	71.003	55.989	16.769	1.258e-06	22.452	70.208	-61.076	-21.035	-60.547	76.848	-16.046	-60.408	-53.297	-41.633	82.708	-53.541	-47.131	-46.724	-40.421	109.320	-41.007	-8191	255	
2070.111	1	1	0	0	0.08998	0.18551	0.057752	0.28647	0.12732	0.18447	0.35519	0.17616	0.21441	0.049193	0.032778	0.16654	0.059121	0.15756	0.15522	0.22931	-3.7646	-3.9146	-4.5083	-4.0646	-4.0208	-4.3292	-3.9083	-4.2625	-4.1146	-3.9667	-4.3333	-4.0563	-4.2521	-4.3688	-3.8187	-4.2146	230.002	7.642	116.885	226.843	108.134	54.664	212.655	237.104	234.530	70.837	-70.099	109.221	142.403	6.628	110.461	213.906	0.00030003	0.00036595	0.00010069	1241.7	3.6106e-06	6.9857e-07	1307.5	256.15	2.6663e-06	1.9517e-06	318.81	89.211	70.324	20.251	3.1511e-06	28.227	0.00013301	0.00012065	3.1135e-05	1022	1.4425e-06	1.3067e-06	1087.5	212.81	1.4522e-06	1.3183e-06	247.08	71.697	55.923	16.654	1.2309e-06	22.766	93.235	-19.827	-52.655	-60.338	7.720	12.851	-60.363	-53.412	26.815	-26.246	-53.743	-47.237	-46.810	-40.477	21.728	-40.556	-8191	255	
2070.207	1	1	0	0	0.25687	0.22058	0.13587	0.065632	0.1894	0.11637	0.14942	0.14394	0.11979	0.10842	0.18815	0.13418	0.13648	0.17373	0.030378	0.45618	-3.7042	-3.8187	-4.3854	-4.0771	-3.9979	-4.4313	-3.95	-4.2708	-4.1542	-3.8354	-4.4396	-4.0396	-3.8937	-4.4042	-3.9583	-4.1979	234.994	145.575	-4.463	283.994	149.386	-49.368	245.242	5.489	-24.294	47.448	232.357	249.566	-49.126	280.190	288.574	288.209	0.00017777	0.00018231	5.7204e-05	1234.8	3.5952e-06	2.3705e-06	1302.9	256.92	9.6993e-07	3.3507e-06	320.06	89.878	70.865	20.193	1.0752e-06	28.637	0.00013009	0.00011873	3.1021e-05	1026.2	1.4057e-06	1.2866e-06	1086.5	214.17	1.3975e-06	1.2836e-06	247.8	72.186	55.53	16.551	1.2565e-06	23.001	173.341	-35.996	62.715	-60.292	35.628	57.162	-60.537	-53.308	36.409	48.221	-53.515	-47.117	-47.056	-40.027	169.689	-40.274	-8191	255	
2070.303	1	1	0	0	0.14335	0.20913	0.17749	0.13908	0.17365	0.38053	0.24717	0.18211	0.023021	0.23992	0.1784	0.29919	0.13445	0.094446	0.25066	0.13241	-3.825	-3.6875	-4.1958	-4.0979	-3.9708	-4.4125	-3.9729	-4.2396	-4.0167	-3.7	-4.2729	-3.9979	-3.9667	-4.3438	-3.9104	-4.0854	-68.760	-24.184	255.877	-62.593	206.109	176.472	225.454	269.295	-71.111	210.777	-27.739	246.928	9.208	67.274	131.582	-53.648	0.00016833	0.00027941	2.3639e-05	1242.9	2.3631e-06	5.7316e-07	1310.4	256.92	1.6669e-06	4.1407e-07	319.57	89.715	70.304	20.27	3.087e-06	28.671	0.00012421	0.00011498	3.2165e-05	1029.1	1.35e-06	1.2525e-06	1091.2	215.06	1.3378e-06	1.2464e-06	249.75	72.28	54.991	16.472	1.3325e-06	22.851	105.087	-32.053	-53.820	-60.289	-58.418	236.691	-60.368	-53.646	222.645	233.952	-53.937	-47.330	-47.272	-40.124	209.642	-41.089	-8191	255	
2070.400	1	1	0	0	0.21359	0.097107	0.11002	0.23684	0.20298	0.14819	0.25791	0.2248	0.2369	0.16055	0.079738	0.24635	0.17851	0.26932	0.14426	0.10697	-3.9729	-3.6667	-4.1271	-4.1583	-3.8187	-4.2417	-4.0146	-4.1146	-4.2146	-3.95	-4.25	-4.1	-3.9083	-4.4125	-4.025	-4.0917	-64.693	38.629	118.703	257.208	225.241	121.579	202.534	257.413	24.560	118.319	-43.472	185.030	256.359	220.012	159.541	-48.700	0.00030008	0.00015277	6.408e-05	1241.8	2.9103e-06	1.4626e-06	1305.8	256.35	1.0762e-06	3.2182e-07	318.91	89.462	71.013	20.312	3.0677e-06	28.375	0.00011887	0.00010999	3.3793e-05	1025.5	1.2825e-06	1.1893e-06	1093.5	213.43	1.2693e-06	1.194e-06	250.61	71.635	54.735	16.425	1.3896e-06	22.644	61.650	243.099	136.282	-60.439	18.608	96.851	-60.624	-53.372	51.944	275.766	-53.823	-46.983	-46.813	-40.341	115.671	-40.802	-8191	255	
2070.494	1	1	0	0	0.097205	0.18644	0.10132	0.22986	0.16917	0.15078	0.27999	0.14322	0.11006	0.23904	0.098314	0.18318	0.16192	0.1496	0.16586	0.15275	-3.9771	-3.9146	-4.0958	-4.3542	-3.8354	-4.3146	-4.1271	-4.1979	-4.2229	-3.8375	-4.375	-4.3146	-3.7042	-4.325	-4.0708	-4.0521	169.785	205.561	78.045	-29.709	214.775	212.598	178.668	-49.540	204.899	106.119	195.771	92.476	33.156	195.566	52.767	124.352	5.545e-05	0.00013739	7.1561e-05	1241.4	3.7283e-06	1.9077e-06	1306.3	257.35	3.2141e-06	1.5344e-06	318.03	89.271	70.637	20.105	1.7127e-06	28.192	0.00011448	0.00010902	3.5366e-05	1021.3	1.2297e-06	1.1929e-06	1093.4	212.33	1.2011e-06	1.2123e-06	250.83	70.695	54.051	16.43	1.4003e-06	22.412	3.267	134.735	145.045	-60.375	220.347	150.113	-60.536	-53.313	24.244	279.770	-53.605	-47.176	-47.068	-39.942	-20.755	-40.886	-8191	255	
2070.590	1	1	0	0	0.054486	0.011035	0.16137	0.39714	0.040508	0.24499	0.11549	0.11881	0.2435	0.1428	0.22883	0.13756	0.17508	0.12166	0.16439	0.13582	-3.9896	-3.8646	-4.1292	-4.2479	-3.8729	-4.2417	-4.1188	-4.0083	-4.4396	-4.0479	-4.1937	-4.3063	-3.7375	-4.2375	-4.1333	-3.8312	-41.162	124.892	286.120	271.030	216.113	90.427	238.392	-53.456	128.998	173.061	-12.549	35.098	59.573	-23.154	-0.144	254.814	7.3502e-05	0.00016712	1.1104e-05	1236.5	1.7412e-06	2.8387e-06	1312.1	256.52	3.1348e-07	4.2283e-07	321.13	88.672	69.822	20.111	7.2649e-07	28.238	0.00011008	0.00011493	3.5666e-05	1018.8	1.1939e-06	1.287e-06	1096.2	211.82	1.1964e-06	1.3135e-06	251.31	70.63	53.772	16.628	1.3636e-06	22.25	218.516	171.018	-64.049	-60.408	93.181	163.513	-60.270	-53.405	268.551	-9.189	-53.771	-47.372	-47.223	-39.893	38.341	-40.720	-8191	255	
2070.686	1	1	0	0	0.28739	0.15334	0.15771	0.20543	0.16141	0.22383	0.083656	0.088696	0.0074182	0.071444	0.19516	0.13781	0.15381	0.13012	0.20429	0.12035	-4.0437	-3.9104	-4.0479	-4.4062	-3.8417	-4.1625	-4.2417	-3.9167	-4.3417	-3.8833	-4.0458	-4.5188	-3.8937	-4.1771	-4.1646	-3.8708	49.535	200.926	269.509	264.024	140.251	238.581	255.105	194.641	150.664	248.358	-9.340	-26.909	111.625	2.147	238.195	281.453	0.00019308	0.00014889	0.0001028	1236.6	2.0761e-06	1.222e-06	1305.7	255.56	1.1019e-06	2.0052e-06	319.75	88.832	69.847	20.112	3.0039e-06	28.249	0.00010618	0.00012088	3.412e-05	1014.3	1.1568e-06	1.3199e-06	1087.6	209.64	1.1444e-06	1.3337e-06	248.28	69.941	53.473	16.609	1.2553e-06	21.911	150.974	163.180	248.988	-60.375	-36.347	242.891	-60.425	-53.331	224.692	106.647	-53.773	-47.096	-46.870	-39.971	18.974	-40.772	-8191	255	
2070.807	1	1	0	0	0.23177	0.12046	0.34113	0.060924	0.12978	0.096166	0.06491	0.12256	0.10669	0.071552	0.20591	0.13931	0.066707	0.19795	0.12005	0.044115	-3.9667	-3.9833	-3.8688	-4.5542	-3.9229	-4.1021	-4.35	-4.0125	-4.3292	-3.9833	-4.0646	-4.4333	-3.8625	-3.9625	-4.1771	-3.8771	192.263	241.193	67.940	256.012	-48.543	40.890	130.773	286.447	95.131	273.856	268.759	139.607	25.919	180.576	-37.020	148.743	0.00024573	8.2526e-05	5.3685e-05	1231.8	6.8767e-07	8.5945e-07	1299.7	254.13	2.4202e-06	1.6094e-06	315.63	88.417	69.196	19.997	2.3324e-06	28.082	0.00010489	0.00011945	3.0975e-05	1005.1	1.1257e-06	1.2791e-06	1078.3	206.82	1.1242e-06	1.2578e-06	243.39	68.463	52.956	16.294	1.1356e-06	21.415	41.954	244.983	269.146	-60.344	231.387	139.435	-60.450	-53.525	179.699	176.109	-53.790	-47.453	-46.355	-40.367	52.460	-40.546	-8191	255	
2070.903	1	1	0	0	0.17679	0.29432	0.19876	0.26714	0.027618	0.062205	0.16107	0.091403	0.072718	0.080116	0.22023	0.20697	0.091825	0.11182	0.13957	0.13875	-3.9479	-3.9604	-3.8354	-4.5021	-4.0458	-4.0354	-4.3	-3.8875	-4.1854	-4.2833	-3.8438	-4.2167	-4.0563	-3.9875	-4.4812	-3.9333	182.515	150.274	16.187	219.639	100.053	65.519	-44.573	269.027	171.340	252.640	108.167	237.948	27.733	282.008	68.787	220.644	0.00053437	0.0004363	6.5275e-05	1227.3	1.7603e-06	1.8692e-06	1295.7	252.67	1.1455e-06	1.3749e-06	315.21	87.992	68.856	19.837	1.5497e-06	27.843	0.0001052	0.00011285	2.8605e-05	998.06	1.1562e-06	1.2099e-06	1070.7	204.73	1.1562e-06	1.1673e-06	240.77	67.831	52.855	15.977	1.055e-06	21.157	67.841	4.490	284.845	-60.288	132.195	33.058	-60.583	-53.555	-35.250	286.927	-53.574	-47.189	-46.335	-40.102	4.841	-40.634	-8191	255	
2070.999	1	1	0	0	0.33985	0.11965	0.2035	0.1813	0.07917	0.077734	0.23318	0.1486	0.16509	0.059001	0.18065	0.12788	0.21643	0.17274	0.16268	0.16852	-3.9021	-4.0583	-3.9146	-4.3958	-4.0667	-3.9708	-4.5	-3.8854	-4.2833	-4.1292	-3.9562	-4.3479	-4.0271	-3.7812	-4.4229	-3.8979	193.417	96.461	-70.484	162.568	130.705	119.302	177.765	273.219	51.957	5.094	194.204	142.324	170.513	277.245	104.405	275.832	0.00037499	0.0002335	7.9279e-05	1225.2	2.5571e-06	1.4755e-06	1297.3	250.75	1.6725e-06	6.4299e-07	314	87.484	68.883	19.843	7.1722e-07	27.783	0.00010664	0.00010398	2.6698e-05	993.37	1.1865e-06	1.1357e-06	1068.1	204.09	1.2034e-06	1.1256e-06	239.66	68.107	53.223	15.907	1.0388e-06	21.403	26.874	140.346	279.732	-60.305	133.018	-45.458	-60.353	-53.138	194.011	56.601	-53.568	-47.247	-47.191	-39.921	-38.068	-40.259	-8191	255	
2071.071	1	1	0	0	0.28212	0.090492	0.17908	0.22411	0.093824	0.18319	0.24678	0.093469	0.062702	0.21134	0.31646	0.13802	0.064512	0.20103	0.089482	0.073767	-3.8187	-4.2146	-3.7604	-4.225	-4.0375	-3.7417	-4.5292	-3.9562	-4.2271	-4.1021	-3.9229	-4.4187	-4.0188	-3.8271	-4.1771	-3.8937	-16.550	85.989	192.059	274.155	234.794	195.946	237.938	-59.753	258.198	215.373	-68.763	157.796	86.537	-61.087	110.639	-62.405	0.00027875	0.00015262	1.1464e-05	1223.3	2.3931e-06	8.8314e-07	1288.1	250.86	1.8301e-06	2.6553e-06	315.65	87.843	69.118	19.935	1.6087e-06	27.858	0.00011074	0.00010049	2.6067e-05	997.75	1.1973e-06	1.088e-06	1063.6	204.81	1.2018e-06	1.0851e-06	239.27	68.728	53.274	15.83	1.0319e-06	21.634	125.599	1.578	-2.343	-60.367	129.880	39.270	-60.260	-53.185	100.819	0.359	-53.491	-47.295	-46.869	-40.099	88.210	-40.325	-8191	255	
2071.191	1	1	0	0	0.066945	0.086716	0.074336	0.29341	0.099274	0.1516	0.18962	0.17783	0.11006	0.11891	0.24678	0.24385	0.086403	0.16203	0.16975	0.082471	-3.7	-4.4208	-3.8	-4.4604	-4.1208	-3.725	-4.4979	-4.0083	-3.8708	-4.3063	-3.8333	-4.1125	-4.0479	-3.8583	-4.2542	-4.1229	107.030	214.583	-47.893	234.077	121.940	258.513	163.232	185.739	266.303	141.657	224.793	213.859	256.948	-20.096	-18.934	38.772	6.2833e-05	0.00017864	4.6811e-05	1222.2	3.0669e-06	1.2958e-06	1294.6	251.92	1.4963e-06	1.281e-06	313.55	87.73	68.875	19.733	1.9985e-06	27.971	0.00010883	9.8209e-05	2.5861e-05	1001	1.1733e-06	1.0748e-06	1065.3	206.17	1.1571e-06	1.0554e-06	238.87	69	52.762	15.744	1.0248e-06	21.783	4.214	35.516	238.900	-60.316	72.148	23.857	-60.627	-53.380	85.993	-6.868	-53.750	-47.325	-46.394	-40.042	212.210	-40.092	-8191	255	
2071.288	1	1	0	0	0.13013	0.083922	0.12325	0.36338	0.02291	0.12364	0.2615	0.20176	0.058456	0.16306	0.26051	0.12359	0.14974	0.20065	0.082993	0.14301	-3.5458	-4.1771	-3.7729	-4.2021	-4.0188	-3.575	-4.4271	-4.1438	-3.7792	-4.3	-3.9521	-4.1813	-4.3396	-3.8521	-4.2583	-4.0875	200.620	258.090	218.950	280.762	231.601	200.334	257.500	211.545	245.321	103.909	216.175	177.959	162.895	126.311	131.324	126.016	0.00016847	8.2722e-05	2.7368e-05	1222.5	6.708e-07	1.4818e-06	1288.7	250.28	5.8631e-07	1.4658e-06	312.39	87.912	68.454	19.865	3.2436e-06	27.951	0.00010233	9.4818e-05	2.6222e-05	1001	1.1075e-06	1.0229e-06	1064.4	205.97	1.1035e-06	1.0235e-06	239.48	69.246	52.206	15.687	1.0872e-06	21.765	197.353	5.364	95.341	-60.254	-52.735	46.052	-60.437	-53.266	46.407	110.178	-53.797	-47.251	-46.970	-40.109	154.232	-40.163	-8191	255	
2071.384	1	1	0	0	0.15315	0.042864	0.052366	0.13485	0.13243	0.099053	0.047213	0.2149	0.22891	0.041091	0.078281	0.19878	0.22653	0.041771	0.13021	0.057158	-3.6354	-4.2688	-3.7604	-4.2521	-4.2708	-3.7458	-4.3688	-4.0708	-3.7667	-4.4187	-3.8958	-4.2104	-4.4	-3.7521	-4.2792	-4.1813	-40.745	92.197	271.440	267.713	195.100	74.892	-29.120	207.077	279.681	158.997	-44.855	265.042	199.453	164.886	193.775	198.033	0.00018961	0.00016788	7.9569e-05	1225	8.7059e-07	8.3619e-07	1286.2	250.01	2.1282e-06	4.3932e-07	312.52	87.583	68.548	19.789	1.9492e-06	27.618	9.94e-05	9.2595e-05	2.7925e-05	1001	1.0711e-06	1.0069e-06	1067	205.39	1.0747e-06	1.0069e-06	241.38	68.779	52.175	15.621	1.1619e-06	21.645	94.153	50.004	103.114	-60.450	196.344	263.886	-60.431	-53.309	-17.272	-23.604	-53.904	-47.366	-46.714	-39.950	150.496	-40.234	-8191	255	
2071.503	1	1	0	0	0.099742	0.14459	0.021812	0.13321	0.18335	0.035777	0.14702	0.095727	0.11828	0.16162	0.18843	0.24889	0.13159	0.0093271	0.14423	0.15577	-3.4542	-4.2104	-3.9104	-4.1438	-4.3833	-3.8042	-4.4167	-4.3604	-3.7583	-4.2229	-4.1438	-4.0229	-4.3313	-3.9	-4.0729	-4.3	-60.999	-28.720	-59.229	-60.373	47.413	15.119	152.063	197.470	165.349	137.626	231.606	198.767	131.732	77.098	198.892	265.664	6.4797e-05	7.5928e-05	2.8496e-05	1223.3	4.9981e-07	7.3158e-07	1288.5	249.9	4.2542e-07	1.4621e-06	315.09	87.553	68.72	19.794	1.0361e-06	27.892	9.7786e-05	9.2026e-05	2.9788e-05	998.84	1.0563e-06	1.0202e-06	1071.1	204.48	1.0424e-06	1.026e-06	241.82	68.536	51.716	15.68	1.1886e-06	21.445	131.844	100.252	60.193	-60.445	35.648	72.406	-60.362	-53.460	-24.432	89.644	-53.678	-47.058	-47.001	-39.740	16.028	-40.555	-8191	255	
2071.599	1	1	0	0	0.16635	0.201	0.14939	0.17028	0.15242	0.056513	0.029551	0.038681	0.18429	0.040111	0.1818	0.3436	0.05615	0.11114	0.1102	0.21265	-3.3958	-4.1958	-4.0542	-4	-4.3542	-3.9729	-4.2604	-4.3875	-3.7938	-4.2708	-4.025	-3.8917	-4.3104	-3.9813	-4.0396	-4.2917	98.008	171.606	-11.871	223.598	-20.428	229.645	-64.181	-4.802	72.649	59.041	150.473	219.155	179.958	198.384	147.722	128.619	7.8976e-05	0.00020858	5.4506e-05	1222.8	1.214e-06	2.3177e-06	1283.7	250.1	6.6239e-07	3.1198e-06	313.11	87.351	68.706	19.763	2.1229e-06	27.945	9.2958e-05	9.5492e-05	3.0024e-05	995.76	1.0094e-06	1.0763e-06	1069.5	203.8	1.0173e-06	1.1033e-06	241.48	68.114	51.563	15.815	1.1721e-06	21.343	7.007	133.121	-4.914	-60.348	-40.760	107.842	-60.360	-53.227	103.591	160.394	-53.582	-47.477	-46.710	-40.053	42.115	-40.358	-8191	255	
2071.672	1	1	0	0	0.026908	0.10065	0.23353	0.32127	0.13091	0.21135	0.2094	0.038958	0.13932	0.1548	0.1662	0.11821	0.12968	0.04594	0.059351	0.017434	-3.5146	-4.1333	-4.0563	-3.9562	-4.2542	-3.9	-4.1542	-4.3688	-3.6875	-4.1479	-4.2896	-3.9375	-4.4333	-4.1062	-4.0854	-4.4271	29.551	149.424	15.420	260.545	13.989	-42.181	214.171	164.413	10.157	221.736	-1.198	-66.468	-33.691	57.298	46.878	180.763	0.00019489	0.00014612	4.043e-05	1219.3	2.9267e-06	1.0257e-06	1287.4	248.8	2.96e-06	1.5634e-06	313.36	87.481	68.37	19.742	1.1644e-06	27.844	9.2059e-05	0.00010327	2.9533e-05	991.8	1.0005e-06	1.1461e-06	1066.1	203.02	1.006e-06	1.1611e-06	240.53	67.939	51.557	15.982	1.1361e-06	21.232	84.051	139.843	-24.408	-60.461	108.398	200.889	-60.511	-53.048	124.355	128.807	-53.813	-47.332	-46.885	-39.710	32.737	-40.819	-8191	255	
2071.791	1	1	0	0	0.15991	0.03283	0.11274	0.12712	0.24474	0.12281	0.18532	0.073109	0.078773	0.12851	0.023897	0.10607	0.15854	0.10636	0.16466	0.22068	-3.5979	-4.1917	-4.1229	-3.9729	-4.2854	-3.9896	-4.0833	-4.5375	-3.8167	-4.1833	-4.4208	-3.9271	-4.3104	-4.0917	-3.8625	-4.4396	121.985	188.077	6.705	16.691	16.306	113.983	238.949	12.699	-18.975	185.644	149.221	-32.451	213.229	-44.738	45.856	177.973	0.00020124	0.0002648	3.1801e-05	1217.7	1.7422e-06	1.7932e-06	1284.3	249.84	6.9261e-07	3.1181e-06	313.12	87.803	68.73	19.859	1.0127e-06	27.787	9.3477e-05	0.00010799	2.8318e-05	990.4	1.0258e-06	1.1901e-06	1063.6	202.78	1.0469e-06	1.1933e-06	239.8	67.727	52.005	16.005	1.0779e-06	21.104	93.242	177.242	259.940	-60.386	196.462	67.209	-60.303	-53.387	148.635	113.408	-53.421	-46.739	-46.667	-39.652	3.748	-40.655	-8191	255	
2071.887	1	1	0	0	0.021164	0.1077	0.064914	0.3903	0.032928	0.2986	0.30463	0.088085	0.018219	0.19762	0.1053	0.10916	0.084371	0.15477	0.08201	0.19715	-3.5938	-3.9688	-4.2812	-3.9313	-4.3	-4.0521	-4.0938	-4.5	-3.95	-4.1188	-4.2562	-3.9167	-4.3646	-4.0625	-3.9292	-4.3979	159.267	-19.429	202.198	209.108	106.546	13.037	-70.545	174.985	106.465	60.835	213.137	158.119	112.891	46.743	51.595	175.178	0.00024017	0.00016229	5.945e-05	1215.9	1.8632e-06	1.2e-06	1285.2	249.29	1.0638e-06	1.4071e-06	313.76	87.678	68.762	19.731	2.3442e-06	27.812	9.8981e-05	0.00010749	2.7022e-05	988.06	1.096e-06	1.1636e-06	1061.2	202.13	1.1156e-06	1.1554e-06	239.1	67.467	52.476	15.881	1.0491e-06	21.086	118.326	-36.498	34.410	-60.311	192.757	105.641	-60.441	-53.159	210.293	-8.096	-53.379	-47.267	-46.819	-39.945	-16.176	-40.714	-8191	255	
2071.983	1	1	0	0	0.024705	0.2949	0.23256	0.27461	0.08144	0.064316	0.317	0.087618	0.12075	0.19956	0.33531	0.18076	0.16429	0.10076	0.22862	0.1104	-3.4729	-4.0062	-4.2521	-4.0104	-4.3104	-4.1771	-4.0208	-4.4479	-3.9813	-3.8917	-4.4104	-3.8958	-4.1979	-4.1417	-3.7188	-4.375	11.829	-56.958	-1.985	286.429	231.641	28.951	135.816	118.827	-62.349	161.172	238.329	201.193	254.400	-52.661	28.794	276.434	0.0001511	0.000191	6.4983e-06	1215.3	2.6581e-06	3.2211e-06	1285.3	249.11	9.6185e-07	3.8238e-06	313.24	87.249	68.658	19.634	1.5135e-06	27.742	0.00010466	0.00010354	2.6548e-05	988.25	1.1635e-06	1.1221e-06	1060.4	202.21	1.1702e-06	1.1098e-06	238.37	67.668	52.761	15.742	1.0127e-06	21.13	132.462	-36.307	172.959	-60.374	119.438	64.473	-60.358	-53.451	134.332	51.250	-53.949	-47.265	-46.720	-40.173	97.673	-40.758	-8191	255	
2072.104	1	1	0	0	0.049516	0.29169	0.24537	0.16949	0.10945	0.1875	0.17788	0.20331	0.064269	0.14563	0.33253	0.18261	0.23267	0.2294	0.052837	0.052461	-3.625	-3.9167	-4.2479	-4.1458	-4.2104	-4.2125	-4.0292	-4.3417	-4.0708	-3.825	-4.3896	-3.8542	-4.1875	-4.4146	-3.8771	-4.3604	260.774	50.896	67.929	-56.768	282.946	77.419	193.629	260.109	-29.617	13.146	240.533	72.223	68.068	192.597	13.117	285.042	8.099e-05	0.00020369	2.741e-05	1210.2	2.7601e-06	9.1478e-07	1280.5	249.56	2.2821e-06	7.7164e-07	312.67	86.946	68.756	19.718	9.7472e-07	27.573	0.00010643	9.8107e-05	2.527e-05	989.22	1.1639e-06	1.0576e-06	1057.6	202.83	1.1566e-06	1.0479e-06	237.34	67.828	52.596	15.647	9.8007e-07	21.341	91.654	8.799	-70.221	-60.175	20.904	-18.260	-60.373	-53.341	76.943	192.829	-53.510	-47.035	-46.367	-39.863	259.874	-40.560	-8191	255	
2072.200	1	1	0	0	0.11188	0.13766	0.11988	0.1955	0.15627	0.12323	0.14953	0.23078	0.16286	0.076472	0.06685	0.084555	0.082707	0.18665	0.1036	0.20513	-3.6729	-3.7667	-4.3292	-4.1333	-3.95	-4.1792	-4.0229	-4.2229	-4.1708	-3.8625	-4.4979	-4.1833	-3.775	-4.45	-3.8458	-4.1813	137.060	68.359	-67.046	15.556	35.196	172.671	94.837	240.201	-40.184	-46.759	171.252	-17.119	25.757	133.685	15.111	249.414	1.2771e-05	0.00018097	2.912e-05	1217.9	1.8926e-06	3.8223e-06	1283	249.68	1.0563e-06	2.7255e-06	311.93	86.859	68.692	19.638	1.1801e-06	27.62	0.00010404	9.4573e-05	2.4594e-05	992.27	1.1298e-06	1.0284e-06	1056.6	203.84	1.1138e-06	1.026e-06	236.47	68.275	52.293	15.565	9.917e-07	21.506	240.459	-61.781	50.821	-60.430	-23.468	43.723	-60.492	-53.471	-46.374	50.870	-53.497	-47.055	-46.719	-40.255	137.908	-40.320	-8191	255	
2072.295	1	1	0	0	0.19269	0.060107	0.068943	0.11639	0.12632	0.24596	0.24362	0.098624	0.06889	0.35712	0.19924	0.16748	0.24052	0.081499	0.12894	0.14318	-3.9813	-3.8833	-4.3417	-4.0167	-3.875	-4.375	-3.7729	-4.2083	-4.1979	-3.7687	-4.4708	-4.1771	-3.9146	-4.2104	-3.9667	-4.2375	190.650	-3.511	68.142	238.203	246.935	150.364	205.678	248.125	187.604	-59.909	-57.678	229.538	225.654	137.840	18.436	184.028	7.4759e-05	0.0001823	6.0425e-05	1215	2.2878e-06	8.8198e-07	1287.2	249.14	7.4617e-07	2.1818e-06	313.68	87.476	68.472	19.743	1.7165e-06	27.556	9.991e-05	9.2525e-05	2.5111e-05	996.42	1.0762e-06	9.9245e-07	1059.8	204.62	1.0606e-06	9.9137e-07	238.3	68.709	51.821	15.512	1.0393e-06	21.575	248.522	-17.640	19.844	-60.210	37.655	43.100	-60.563	-53.436	116.961	-8.207	-53.600	-46.913	-47.009	-40.268	276.650	-40.599	-8191	255	
2072.368	1	1	0	0	0.28592	0.26276	0.15097	0.35804	0.057535	0.13173	0.17783	0.15099	0.10301	0.18887	0.087893	0.035148	0.12616	0.17932	0.091367	0.19569	-3.8792	-3.7271	-4.1667	-3.9958	-3.9437	-4.3021	-3.9625	-4.1646	-4.2771	-3.8937	-4.3875	-4.0687	-4.0021	-4.4396	-3.9458	-4.1917	-56.902	216.719	200.760	240.830	120.690	139.534	268.270	212.451	-31.738	267.154	279.165	47.211	233.225	59.826	56.290	137.012	0.00028289	5.6509e-05	3.4124e-05	1220	1.6822e-06	1.5207e-06	1288.9	249.14	8.2892e-07	1.2434e-06	312.28	87.503	68.801	19.739	2.0123e-06	27.811	9.5905e-05	8.9937e-05	2.692e-05	997.64	1.0457e-06	9.7439e-07	1063.5	204.29	1.0422e-06	9.7487e-07	239.83	68.324	51.782	15.484	1.1077e-06	21.512	121.259	95.667	14.956	-60.332	34.488	87.098	-60.382	-53.393	3.083	20.290	-53.564	-47.415	-46.809	-39.738	134.222	-40.316	-8191	255	
2072.487	1	1	0	0	0.049512	0.12101	0.097093	0.14729	0.06178	0.094637	0.3258	0.13517	0.1472	0.11171	0.10218	0.38351	0.24773	0.17539	0.20646	0.072671	-3.9458	-3.7729	-3.9979	-4.3271	-3.7542	-4.2771	-4.0938	-4.0917	-4.2458	-4.0021	-4.2333	-4.2271	-3.9396	-4.075	-3.9833	-4.0167	198.174	62.089	2.586	-61.812	255.939	137.947	261.890	188.144	92.772	74.183	87.213	-60.766	262.141	60.452	238.872	127.402	0.00026634	0.0001516	1.8359e-05	1220	3.5445e-06	2.0778e-06	1286.9	249.69	2.4095e-06	1.5283e-06	311.03	88.052	68.12	19.702	2.7774e-06	27.871	9.404e-05	8.865e-05	2.8495e-05	995.48	1.0244e-06	9.7946e-07	1066.8	204.05	1.0145e-06	9.896e-07	241	68.411	51.665	15.616	1.1621e-06	21.391	45.225	20.222	83.515	-60.436	35.383	162.299	-60.541	-53.098	-63.972	109.304	-53.729	-46.838	-46.556	-40.118	91.821	-40.204	-8191	255	
2072.583	1	1	0	0	0.11819	0.18268	0.028481	0.23025	0.14441	0.082126	0.28094	0.2664	0.22454	0.0062144	0.26266	0.14115	0.089314	0.17229	0.019509	0.23168	-3.8354	-3.8771	-4.0417	-4.2875	-3.7979	-4.2438	-4.2979	-3.8583	-4.2354	-3.8354	-4.1521	-4.2688	-3.7458	-4.2583	-4.1771	-4.0521	167.637	287.051	67.497	-71.015	101.558	105.868	192.357	224.430	-39.117	281.801	153.915	171.950	190.872	264.611	188.829	237.716	0.00020921	8.9249e-05	5.7379e-05	1219.9	1.795e-06	2.1581e-06	1284.3	249.82	1.5147e-06	1.4624e-06	314.48	87.424	68.678	19.679	1.3456e-06	27.781	9.2294e-05	9.3214e-05	2.972e-05	994.51	9.9783e-07	1.0353e-06	1068.8	203.55	9.8704e-07	1.0535e-06	241.61	67.791	51.488	15.813	1.1462e-06	21.245	64.614	102.852	29.641	-60.485	74.842	157.496	-60.362	-53.506	117.172	214.520	-53.522	-46.998	-46.627	-39.582	-32.859	-40.150	-8191	255	
2072.679	1	1	0	0	0.14022	0.18079	0.11735	0.24836	0.13034	0.061003	0.21951	0.21453	0.10515	0.31514	0.14041	0.074389	0.2784	0.18724	0.1982	0.084594	-3.9896	-3.6792	-4.1937	-4.3958	-3.8417	-4.3604	-4.25	-3.9938	-4.2438	-3.95	-4.0354	-4.4396	-3.7792	-4.2562	-4.1167	-3.9354	14.495	-32.088	288.293	261.272	-4.699	212.059	258.198	-38.385	157.381	202.371	233.427	182.864	213.096	287.120	92.883	218.292	0.0001995	8.1729e-05	5.0522e-05	1218.2	5.5091e-07	1.6938e-06	1290.4	250.11	4.4158e-07	1.3537e-06	313.05	86.997	68.731	19.813	4.3543e-06	27.904	8.9361e-05	9.9571e-05	2.8897e-05	993.11	9.7367e-07	1.1085e-06	1068.9	203.24	9.742e-07	1.1226e-06	240.76	67.725	51.562	15.933	1.1151e-06	21.265	77.490	36.859	-68.444	-60.086	60.631	189.245	-60.513	-53.423	-51.719	12.989	-53.568	-47.267	-46.487	-40.368	79.149	-40.335	-8191	255	
2072.775	1	1	0	0	0.16655	0.19467	0.10822	0.10563	0.14464	0.133	0.18738	0.16521	0.056773	0.10858	0.073156	0.097198	0.15734	0.2408	0.10752	0.079054	-3.8958	-4.0292	-3.925	-4.5	-3.8479	-4.3688	-4.3542	-3.8812	-4.2937	-4.1417	-4.2396	-4.4021	-3.8833	-4.0896	-4.25	-3.8937	229.053	93.589	80.097	-44.293	71.182	205.073	230.055	129.325	-18.091	-70.688	237.615	111.720	225.945	270.172	57.929	6.864	0.00018349	0.00020878	5.3378e-05	1219.8	2.1291e-06	1.9076e-06	1286.6	249.97	1.155e-06	1.3671e-06	315.54	88.017	68.715	19.752	1.0876e-06	27.743	9.1765e-05	0.00010584	2.8206e-05	991.71	1.0147e-06	1.1728e-06	1066	202.97	1.0195e-06	1.165e-06	239.94	67.731	51.906	15.935	1.0503e-06	21.04	109.679	29.070	-41.395	-60.497	189.304	131.235	-60.468	-53.555	240.307	-29.576	-53.779	-47.267	-46.676	-39.976	-13.723	-40.628	-8191	255	
2072.896	1	1	0	0	0.1234	0.23507	0.095849	0.19337	0.12137	0.17216	0.11279	0.065233	0.29985	0.17227	0.23587	0.12827	0.060359	0.18928	0.16599	0.019381	-3.9646	-4.0188	-4.0354	-4.6021	-3.9229	-4.1146	-4.5771	-4.1479	-4.0625	-4.1813	-4.0188	-4.4146	-3.9875	-4.1646	-4.3542	-3.8333	135.008	175.865	233.853	271.437	204.307	213.361	240.865	-66.479	258.054	63.856	229.358	91.926	79.204	198.361	49.184	-22.997	0.0003473	0.00023006	6.5309e-05	1219.8	1.4507e-06	1.7969e-06	1288	250.01	1.8111e-07	1.2104e-06	312.66	87.252	69.23	19.766	1.16e-06	27.779	9.4421e-05	0.00010325	2.6225e-05	989.01	1.0356e-06	1.1192e-06	1062.6	201.87	1.0522e-06	1.1019e-06	237.87	67.169	52.163	15.825	1.0007e-06	20.99	51.995	-65.005	-62.264	-60.484	79.617	123.860	-60.281	-53.247	237.471	33.585	-53.768	-47.141	-47.021	-39.681	40.296	-40.151	-8191	255	
2072.968	1	1	0	0	0.11525	0.1952	0.15706	0.17042	0.20103	0.038291	0.15295	0.05135	0.13721	0.1129	0.36563	0.2918	0.13484	0.17219	0.20499	0.12557	-3.9333	-4.0979	-3.8458	-4.3667	-3.9562	-4.0521	-4.5333	-4.025	-4.1333	-4.3208	-3.9146	-4.3792	-4.1167	-3.8729	-4.3438	-3.8958	87.231	151.061	-70.581	216.663	224.751	168.179	143.625	4.121	169.013	108.615	251.771	277.135	-61.709	214.791	40.383	262.503	0.0003277	3.2567e-05	4.5291e-05	1219.7	1.9046e-06	3.9945e-06	1286.6	249.82	2.4343e-06	2.2823e-06	312.51	87.637	68.786	19.786	2.1975e-06	27.916	9.9602e-05	9.8362e-05	2.539e-05	986.23	1.0995e-06	1.0677e-06	1058.5	201.69	1.1079e-06	1.0614e-06	237.15	67.124	52.5	15.726	9.7053e-07	21.07	91.901	255.069	3.286	-60.394	76.105	18.772	-60.352	-53.243	129.988	68.753	-53.714	-47.254	-46.649	-39.945	-2.057	-40.676	-8191	255	
2073.064	1	1	0	0	0.002055	0.10171	0.13268	0.15239	0.21493	0.11742	0.20996	0.098356	0.19865	0.21302	0.016919	0.13541	0.15026	0.14011	0.13153	0.21254	-3.9062	-4.3625	-3.9104	-4.5625	-4.05	-4.0125	-4.3396	-3.8958	-4.0729	-4.2354	-3.8271	-4.3021	-4.0917	-3.7625	-4.3083	-3.9729	180.000	85.895	170.892	-32.836	39.099	158.186	265.538	195.772	237.852	151.622	44.995	222.785	216.804	265.990	18.076	183.266	3.5884e-05	0.00012429	2.4254e-05	1213.7	2.9759e-06	1.1677e-06	1286.8	250.19	1.4333e-06	7.1025e-07	312.5	87.417	68.994	19.654	8.3798e-07	27.707	0.00010384	9.5089e-05	2.4725e-05	989.09	1.1309e-06	1.0414e-06	1057.1	202.71	1.133e-06	1.0252e-06	236.82	67.81	52.474	15.585	9.48e-07	21.263	59.288	-1.760	-8.246	-60.319	-46.455	136.770	-60.453	-53.263	-51.092	-40.339	-53.356	-47.321	-46.938	-39.810	42.115	-40.147	-8191	255	
2073.184	1	1	0	0	0.2406	0.17099	0.20237	0.15533	0.25765	0.10903	0.082571	0.30245	0.24194	0.24565	0.090838	0.12056	0.1297	0.1717	0.19786	0.27037	-3.6813	-4.0396	-3.6937	-4.3917	-4.1854	-4.0396	-4.4479	-4.0521	-4.0354	-4.2708	-3.9042	-4.3917	-4.1646	-3.9708	-4.3896	-4.0958	-65.801	-20.853	257.350	-24.097	142.882	97.411	-33.659	287.315	277.790	173.253	231.887	273.011	60.952	186.976	130.031	234.049	9.13e-05	0.0002133	2.5407e-05	1217.5	3.088e-06	2.6388e-06	1283.3	248.71	3.0558e-07	6.8615e-07	312.91	87.086	68.859	19.726	1.1636e-06	27.87	0.0001022	9.183e-05	2.3914e-05	991.04	1.0972e-06	1.0026e-06	1056.6	203	1.0826e-06	9.8087e-07	236.05	67.904	51.953	15.513	9.3764e-07	21.439	287.808	-39.475	271.599	-60.320	0.314	-6.690	-60.239	-53.387	104.992	-3.519	-53.480	-47.231	-46.794	-39.962	-20.117	-40.489	-8191	255	
2073.281	1	1	0	0	0.059459	0.19787	0.1597	0.15643	0.14323	0.11778	0.38445	0.16148	0.16053	0.19392	0.048902	0.31161	0.24886	0.19758	0.1672	0.19974	-3.6083	-4.3271	-3.6417	-4.4437	-4.1708	-3.7979	-4.4708	-4.1292	-3.9229	-4.4646	-3.9021	-4.1083	-4.3125	-3.8771	-4.3125	-4.3333	-60.202	-41.802	46.438	187.316	98.689	246.643	263.912	238.830	-39.480	30.281	9.956	244.182	125.368	266.635	12.778	272.047	0.00010624	0.00022139	6.0863e-05	1211.7	8.8074e-07	1.8552e-06	1283.9	248.76	1.7164e-06	2.9484e-06	311.65	87.57	68.375	19.846	1.2365e-06	27.832	9.7289e-05	8.9183e-05	2.4241e-05	991.02	1.0507e-06	9.6818e-07	1056.1	203.99	1.0421e-06	9.6789e-07	236.89	68.455	51.781	15.493	9.9842e-07	21.488	73.484	-18.708	31.529	-60.311	247.163	39.292	-60.330	-53.251	21.444	30.211	-53.434	-47.034	-46.579	-40.171	174.103	-40.275	-8191	255	
2073.377	1	1	0	0	0.16843	0.11971	0.18622	0.3085	0.2377	0.11695	0.036611	0.14714	0.097288	0.16953	0.1494	0.30277	0.080612	0.22053	0.17274	0.14218	-3.6437	-4.3125	-3.9021	-4.3021	-4.3771	-3.85	-4.3167	-4.2042	-3.8917	-4.4167	-4.0958	-4.1042	-4.35	-3.8833	-4.2292	-4.2312	128.278	-43.016	187.924	242.800	164.175	70.458	79.082	-30.728	190.161	57.656	58.921	287.278	179.183	151.195	83.375	275.357	0.00011423	0.00013706	1.8297e-05	1212.4	1.2315e-06	2.2057e-06	1281.3	248.81	3.315e-06	2.2829e-06	310.89	87.139	68.893	19.705	2.0557e-06	27.845	9.5016e-05	8.7593e-05	2.5782e-05	991.62	1.0225e-06	9.6004e-07	1059.6	204.18	1.0243e-06	9.4716e-07	238.51	68.442	51.77	15.467	1.0735e-06	21.496	87.245	-32.674	20.100	-60.424	-12.878	19.775	-60.407	-53.421	38.414	47.442	-53.725	-47.155	-46.493	-39.891	146.513	-40.243	-8191	255	
2073.473	1	1	0	0	0.018471	0.11891	0.10333	0.10923	0.14608	0.38835	0.16806	0.21459	0.064516	0.10282	0.17243	0.09751	0.1326	0.10143	0.085387	0.13437	-3.6271	-4.3146	-4.0021	-4.0979	-4.1771	-3.8458	-4.4021	-4.2	-3.9	-4.3146	-4.0958	-3.9813	-4.45	-3.7562	-4.1062	-4.2167	224.861	5.848	211.421	197.307	-14.467	35.128	190.294	106.168	-28.274	143.369	36.784	239.904	176.430	278.687	13.732	134.765	0.00011663	0.00015701	2.7268e-05	1219	3.0499e-07	1.1962e-06	1287.9	249.39	1.5708e-06	1.4325e-07	312.07	87.777	69.048	19.77	2.2107e-06	27.971	9.2543e-05	8.5852e-05	2.7488e-05	992.53	9.9241e-07	9.3837e-07	1063.6	203.65	9.9205e-07	9.4652e-07	239.9	68.149	51.512	15.461	1.0956e-06	21.21	46.097	119.950	252.207	-60.352	23.553	51.891	-60.401	-53.366	26.174	115.404	-53.546	-47.207	-46.641	-39.361	115.760	-40.620	-8191	255	
2073.567	1	1	0	0	0.078533	0.12423	0.06369	0.20841	0.16562	0.07329	0.24504	0.06481	0.15387	0.068856	0.30325	0.055908	0.17396	0.23493	0.15489	0.15294	-3.5083	-4.2333	-3.9958	-4.0375	-4.2521	-3.8042	-4.2854	-4.325	-3.9792	-4.2792	-4.0938	-4.0917	-4.3917	-3.9542	-4.0979	-4.425	39.333	-34.578	102.365	212.930	-13.882	117.542	220.832	142.758	76.057	282.038	241.847	75.146	155.182	200.129	206.434	187.321	0.00016067	0.00014448	3.0788e-05	1213	1.7745e-06	1.1884e-06	1279.8	250.27	1.2714e-06	2.3309e-06	314.99	87.305	68.789	19.616	1.1279e-06	27.889	8.6602e-05	8.4469e-05	2.7113e-05	984.53	8.9989e-07	9.1709e-07	1057.5	201.31	8.8339e-07	9.2178e-07	238.07	66.967	50.706	15.412	1.0201e-06	20.91	117.351	83.840	89.571	-60.488	-33.969	59.880	-60.147	-53.531	156.827	164.520	-53.642	-47.048	-46.715	-39.763	-1.442	-40.393	-8191	255	
2073.663	1	1	0	0	0.067846	0.073694	0.098582	0.22637	0.094787	0.096287	0.32212	0.045866	0.12866	0.16175	0.10573	0.15927	0.090887	0.14398	0.18626	0.087156	-3.3417	-4.2354	-3.9938	-3.9667	-4.3	-3.8063	-4.2271	-4.4083	-3.85	-4.3917	-4.2917	-3.825	-4.4125	-3.9479	-3.9271	-4.3812	44.117	81.874	229.816	225.635	107.277	-0.530	209.226	-55.892	-34.352	-45.298	253.678	175.282	-40.320	144.127	225.120	68.235	6.9939e-05	0.00016737	4.5513e-05	1207.4	1.2114e-06	1.5709e-06	1280.9	248.58	1.2783e-06	9.2885e-07	312.16	87.668	68.822	19.736	6.7693e-07	27.875	7.9908e-05	8.6839e-05	2.5655e-05	979.9	8.6387e-07	9.8306e-07	1056.4	201.27	8.8448e-07	1.0071e-06	237.55	67.264	50.773	15.683	1.0344e-06	20.967	14.630	38.893	264.259	-60.299	58.304	124.753	-60.239	-53.304	-18.021	-1.180	-53.366	-47.138	-46.817	-39.824	153.707	-40.902	-8191	255	
2073.784	1	1	0	0	0.23031	0.10292	0.11104	0.22526	0.11519	0.3105	0.21632	0.15998	0.20313	0.07755	0.10057	0.17284	0.22273	0.20167	0.1151	0.11416	-3.6521	-4.2458	-4.2542	-3.6729	-4.2812	-3.9521	-4.1813	-4.3396	-3.8375	-4.2063	-4.3021	-4.0521	-4.2917	-4.0396	-3.875	-4.4062	241.112	-22.224	194.299	-68.197	2.948	257.583	207.891	68.174	-24.333	201.752	179.541	186.797	84.784	229.472	188.844	6.473	0.00027347	2.4242e-05	5.0511e-05	1209.9	2.4228e-06	1.2208e-06	1283.4	250.27	2.3706e-06	3.1534e-06	310.46	87.633	68.74	19.897	1.3614e-06	27.951	8.4293e-05	9.7405e-05	2.6239e-05	983.61	9.3993e-07	1.0992e-06	1059.4	202.25	9.8731e-07	1.1393e-06	238.87	67.714	51.817	16.034	1.074e-06	21.166	74.131	-59.766	246.609	-60.459	157.450	159.266	-60.360	-53.235	139.390	109.970	-53.741	-47.066	-46.790	-39.994	41.769	-40.650	-8191	255	
2073.880	1	1	0	0	0.15439	0.29093	0.05142	0.2084	0.10755	0.16647	0.35644	0.14301	0.11703	0.064039	0.14538	0.069796	0.10986	0.17004	0.31687	0.16604	-3.4604	-4.0979	-4.3229	-3.7833	-4.3	-4.2229	-3.9958	-4.4187	-3.7604	-4.2375	-4.2333	-3.7438	-4.3562	-4.1271	-3.9792	-4.375	75.828	-45.811	156.307	253.558	-36.008	-1.854	224.872	166.311	109.009	82.302	245.316	167.971	149.533	30.028	103.656	-36.901	0.00034779	0.00025505	3.6981e-05	1216.2	1.1688e-06	5.3831e-07	1285.3	250.47	2.8951e-06	1.607e-06	315.92	87.838	68.879	19.876	1.8666e-06	27.973	9.4795e-05	0.0001059	2.6667e-05	985.95	1.0487e-06	1.1534e-06	1060.3	202.58	1.065e-06	1.1526e-06	239.68	67.631	52.499	16.005	1.0538e-06	21.209	71.845	-42.053	39.549	-60.367	114.490	43.385	-60.478	-53.737	256.621	47.287	-53.754	-47.254	-46.417	-40.045	109.548	-40.216	-8191	255	
2073.976	1	1	0	0	0.33782	0.027255	0.10717	0.21087	0.082569	0.12132	0.16038	0.19069	0.20446	0.18153	0.13095	0.25479	0.13474	0.075302	0.083907	0.099509	-3.6229	-3.9854	-4.0396	-3.9542	-4.3063	-4.1292	-3.9771	-4.4	-3.975	-4.1208	-4.4583	-3.7625	-4.3271	-4.1771	-3.9146	-4.3688	18.432	84.149	93.258	263.598	15.756	135.772	149.781	284.339	-38.827	134.505	196.611	221.519	22.451	28.686	27.587	61.579	0.00014467	0.00015789	3.7568e-05	1213.5	1.3744e-06	1.4428e-06	1284.8	250.74	4.1015e-06	1.7527e-06	314.47	87.902	69.544	19.91	2.5605e-06	27.726	0.0001025	0.00010467	2.65e-05	986.88	1.1376e-06	1.1291e-06	1062.2	202.94	1.144e-06	1.1191e-06	238.99	67.832	53.041	15.903	1.0228e-06	21.25	-3.238	50.142	-26.523	-60.470	261.586	-18.016	-60.500	-53.301	213.010	65.279	-53.683	-47.281	-46.969	-39.529	278.382	-40.481	-8191	255	
2074.072	1	1	0	0	0.25738	0.21371	0.10953	0.17335	0.059681	0.073337	0.42707	0.13875	0.088812	0.075376	0.30663	0.11167	0.31984	0.22051	0.11204	0.21885	-3.8021	-3.9708	-4.3208	-3.9896	-4.0854	-4.2104	-4.1917	-4.3729	-3.9271	-3.8312	-4.4854	-4.0229	-4.1104	-4.3021	-3.7687	-4.2646	69.737	-19.858	-9.689	260.464	-10.242	108.519	227.722	145.378	-4.568	-53.200	-49.207	-30.126	279.450	243.143	122.670	215.051	6.1868e-05	0.00017576	4.308e-05	1219.6	1.9656e-06	1.1959e-06	1288.1	250.55	3.7074e-07	2.8866e-06	312.65	88.526	69.197	19.995	2.385e-06	27.875	0.0001063	0.00010041	2.5556e-05	990.19	1.1711e-06	1.0813e-06	1061.2	203.61	1.1775e-06	1.0776e-06	238.38	68.385	53.124	15.868	9.9762e-07	21.494	126.408	-21.238	-53.119	-60.507	130.673	-25.698	-60.440	-53.395	211.215	80.156	-53.458	-47.503	-47.017	-40.131	98.846	-41.039	-8191	255	
2074.193	1	1	0	0	0.12746	0.20024	0.15695	0.22278	0.06241	0.12818	0.26656	0.079635	0.043857	0.18861	0.13259	0.25466	0.11663	0.079501	0.13614	0.1585	-3.8354	-3.9	-4.2604	-3.9604	-3.9458	-4.1479	-4.1708	-4.2729	-4.1333	-3.7333	-4.3187	-3.9229	-4.0125	-4.3917	-3.8146	-4.4208	283.758	252.021	91.301	252.584	-55.614	109.929	222.010	79.333	69.767	129.078	147.323	36.843	167.643	36.967	222.947	156.860	0.00016621	0.00019903	6.278e-06	1215.7	2.7588e-06	1.1041e-06	1287.4	250.64	1.9817e-06	2.6988e-06	314.49	88.274	69.019	19.931	1.646e-07	27.981	0.00010715	9.7717e-05	2.5161e-05	995.37	1.1691e-06	1.0545e-06	1061.1	205.71	1.151e-06	1.0511e-06	238.87	69.125	52.884	15.803	9.9767e-07	21.771	100.552	-30.916	60.454	-60.238	-54.518	-12.310	-60.397	-53.346	75.005	17.130	-53.432	-47.324	-46.611	-39.942	236.729	-40.505	-8191	255	
2074.265	1	1	0	0	0.18805	0.083469	0.1147	0.041776	0.072574	0.1873	0.18813	0.11232	0.16591	0.2204	0.26577	0.050568	0.2228	0.1724	0.20154	0.17793	-3.8979	-3.7896	-4.3646	-4.1104	-3.8937	-4.5208	-3.9708	-4.2729	-4.2771	-3.8125	-4.475	-4.0833	-3.9583	-4.4062	-4.0062	-4.3562	-19.845	195.252	280.045	85.693	203.464	282.440	243.056	206.403	152.373	252.799	224.716	0.028	284.928	229.382	82.801	216.297	8.4992e-05	0.0002482	3.8806e-05	1218.9	3.1218e-06	4.4712e-06	1293.3	252.55	1.7192e-06	1.5427e-06	314.91	88.459	69.216	19.883	3.823e-07	27.989	0.00010391	9.5962e-05	2.5585e-05	999.18	1.1357e-06	1.0481e-06	1063.8	207.12	1.1324e-06	1.056e-06	240.33	69.701	52.95	15.8	1.0878e-06	22.048	121.401	-39.144	46.336	-60.345	78.088	9.618	-60.269	-53.451	12.149	-26.501	-53.693	-47.326	-47.151	-39.956	151.993	-40.529	-8191	255	
2074.361	1	1	0	0	0.21236	0.045023	0.11639	0.082963	0.15502	0.12406	0.25157	0.21204	0.1501	0.27476	0.22331	0.11591	0.086226	0.13975	0.084651	0.14443	-3.8792	-3.8792	-4.3396	-4.3854	-3.9458	-4.3375	-4.1667	-4.1479	-4.2396	-4.0292	-4.3688	-4.0833	-3.8	-4.2604	-3.8146	-4.2479	92.489	285.958	234.934	213.400	-42.433	99.226	216.705	181.733	130.751	47.866	267.677	163.571	-54.767	-49.561	67.418	95.331	0.00025575	0.00016971	3.3087e-05	1218.8	9.6185e-07	2.258e-06	1289.8	252.19	2.7528e-06	8.3125e-07	313.49	88.081	69.698	19.997	3.5816e-06	28.26	0.00010292	9.6748e-05	2.8065e-05	1002.5	1.1341e-06	1.059e-06	1068.9	207.8	1.1271e-06	1.0452e-06	242.43	69.664	52.849	15.818	1.1713e-06	21.979	-31.941	90.125	85.531	-60.499	115.295	71.812	-60.484	-53.447	99.497	118.806	-53.435	-47.565	-46.867	-40.188	155.160	-40.788	-8191	255	
2074.457	1	1	0	0	0.036564	0.21573	0.033416	0.4759	0.1425	0.076491	0.28125	0.11609	0.10501	0.23578	0.050889	0.23205	0.17669	0.1692	0.13712	0.20959	-3.9958	-3.8708	-4.2833	-4.2792	-3.9479	-4.1625	-4.0771	-3.9271	-4.4062	-3.8229	-4.2229	-4.2729	-3.8521	-4.3938	-4.0375	-3.9938	-20.087	248.142	208.490	248.371	-51.196	170.563	200.444	109.621	204.338	183.459	110.648	206.793	138.037	-31.874	-12.275	79.895	0.00021009	0.00018816	2.9501e-05	1222.8	2.6487e-06	2.6985e-06	1287	252.88	2.4487e-06	3.5384e-06	314.65	88.786	69.011	20.05	8.457e-07	28.047	0.00010189	9.5681e-05	3.0298e-05	1003.1	1.1155e-06	1.0456e-06	1071.7	207.51	1.0981e-06	1.0582e-06	244.14	69.435	52.567	15.863	1.2341e-06	21.848	45.577	49.317	54.671	-60.492	19.345	-53.271	-60.434	-53.569	10.057	22.672	-53.617	-46.944	-46.854	-39.813	89.575	-40.581	-8191	255	
2074.553	1	1	0	0	0.12513	0.11495	0.12528	0.076184	0.27162	0.085316	0.2278	0.26971	0.08927	0.16472	0.2243	0.12155	0.076171	0.18653	0.12117	0.20394	-3.9708	-4.0396	-4.2937	-4.2812	-3.8563	-4.0479	-4.0563	-3.9854	-4.4083	-3.8542	-4.125	-4.3792	-3.7625	-4.1937	-4.0917	-3.9813	22.487	195.352	115.791	167.899	-37.893	200.000	-57.038	277.121	138.636	-0.278	-40.659	6.176	-46.670	148.957	28.882	250.780	0.00010891	0.00028927	6.9125e-05	1221.4	2.2309e-06	1.5329e-06	1292.9	252.62	1.4297e-06	1.1525e-06	314.84	88.667	69.189	19.943	1.7907e-06	27.994	9.9055e-05	9.8474e-05	3.1397e-05	1000.2	1.0782e-06	1.0847e-06	1074.8	206.77	1.0682e-06	1.0986e-06	244.49	69.121	52.434	16.044	1.2436e-06	21.709	52.589	30.396	284.157	-60.467	54.591	138.770	-60.601	-53.528	166.795	192.378	-53.863	-47.205	-47.063	-39.877	196.351	-40.513	-8191	255	
2074.672	1	1	0	0	0.17004	0.16651	0.17607	0.19522	0.058617	0.17358	0.19596	0.23823	0.14851	0.14496	0.02958	0.075838	0.1377	0.14021	0.06353	0.075983	-4.0125	-3.8063	-4.1167	-4.4854	-3.8167	-4.2396	-4.3688	-3.9375	-4.3354	-3.9875	-4.3646	-4.375	-4.0708	-4.3896	-4.2417	-3.9417	-20.098	55.492	91.771	191.725	185.152	284.149	261.126	-31.159	8.637	137.328	218.509	244.329	259.316	249.331	134.626	144.711	0.0002762	0.000158	0.00010742	1220	1.6429e-06	1.948e-06	1292.9	253.23	1.5218e-06	1.0597e-06	315.34	88.397	69.518	19.969	2.6783e-06	28.273	9.6521e-05	0.00010391	3.1179e-05	998.66	1.0476e-06	1.1587e-06	1075.5	206.03	1.0373e-06	1.1673e-06	243.93	68.743	52.334	16.155	1.1858e-06	21.596	67.519	79.680	-4.514	-60.473	237.639	98.974	-60.437	-52.937	129.660	123.362	-53.396	-47.087	-46.806	-40.400	6.049	-40.577	-8191	255	
2074.768	1	1	0	0	0.12551	0.050554	0.15881	0.080685	0.22989	0.17898	0.064131	0.29348	0.21358	0.018777	0.25097	0.10501	0.24115	0.10929	0.14581	0.058959	-3.9437	-3.9542	-4.0292	-4.3458	-3.8917	-4.3229	-4.3187	-3.9417	-4.2083	-4.1062	-4.0375	-4.4437	-3.8896	-4.175	-4.3229	-3.8708	100.807	276.072	1.192	267.012	96.364	-27.411	116.287	198.431	264.777	104.517	219.337	75.264	210.567	76.501	12.395	46.881	9.7978e-05	0.00013303	2.3657e-05	1216.9	3.5502e-06	1.6648e-06	1287.7	253.4	1.8175e-06	8.0887e-07	314.27	88.891	69.371	20.036	2.8775e-06	28.211	9.4845e-05	0.00010887	2.9929e-05	995.27	1.0437e-06	1.2108e-06	1068.8	205.84	1.0525e-06	1.2169e-06	242.72	68.694	52.593	16.314	1.1376e-06	21.557	39.631	48.410	257.187	-60.368	97.053	172.496	-60.388	-53.184	129.881	131.649	-53.790	-47.234	-46.540	-40.058	-22.872	-40.499	-8191	255	
2074.864	1	1	0	0	0.088846	0.021393	0.17261	0.12265	0.12669	0.10712	0.087175	0.28319	0.046819	0.34085	0.30228	0.049142	0.26134	0.092425	0.27564	0.30833	-3.9688	-4.0354	-4.0437	-4.3917	-3.9917	-4.2458	-4.3708	-3.9271	-4.0687	-4.1042	-3.9604	-4.4583	-3.9188	-3.9917	-4.275	-4.0979	122.292	246.590	6.835	252.698	255.962	208.813	149.931	164.424	229.000	77.365	95.846	-15.725	198.636	245.742	164.287	270.582	0.00030324	5.7583e-05	3.0827e-05	1217.5	1.9782e-06	1.8606e-06	1285.8	251.18	1.3418e-06	3.5628e-06	317.67	88.292	69.099	20.024	2.373e-06	27.856	9.9626e-05	0.00011261	2.8625e-05	992.65	1.1096e-06	1.2358e-06	1067	204.99	1.139e-06	1.2373e-06	242.9	68.396	53.232	16.303	1.122e-06	21.456	70.773	25.506	266.103	-60.215	69.810	-32.761	-60.552	-53.527	164.666	97.055	-53.697	-47.250	-47.036	-39.727	121.622	-40.580	-8191	255	
2074.961	1	1	0	0	0.19694	0.1876	0.10573	0.20622	0.13019	0.20397	0.070209	0.25003	0.21439	0.23148	0.28903	0.25279	0.12554	0.4016	0.091942	0.14536	-4.0437	-3.9146	-3.8375	-4.5208	-3.9729	-4.1646	-4.4563	-4.0271	-4.1896	-4.2896	-3.8187	-4.4812	-4.0271	-4.1125	-4.4833	-3.8958	48.464	247.178	114.883	-62.663	107.706	7.272	207.703	144.410	113.278	228.631	-40.487	230.398	233.479	249.833	64.900	228.746	0.00038967	0.00024402	4.9463e-05	1219.9	7.2792e-07	1.1757e-06	1288.6	253.23	1.6416e-06	3.4197e-06	313.53	89.085	69.264	19.962	1.578e-06	28.166	0.0001074	0.00011116	2.8128e-05	991.54	1.1947e-06	1.2006e-06	1066.8	205.33	1.216e-06	1.1983e-06	241.82	68.616	53.87	16.215	1.1086e-06	21.645	53.194	8.228	283.807	-60.111	101.973	28.090	-60.540	-53.346	161.897	-3.623	-53.662	-47.159	-46.748	-40.127	-56.954	-40.773	-8191	255	
2075.057	1	1	0	0	0.23901	0.19934	0.061402	0.16932	0.20382	0.06116	0.29433	0.091652	0.069761	0.12959	0.24224	0.016379	0.081046	0.16756	0.21832	0.093955	-3.9375	-4.1521	-3.7979	-4.4667	-3.9562	-4.0312	-4.4688	-3.9104	-4.025	-4.3958	-3.9313	-4.4146	-4.0854	-3.9708	-4.4	-4.0396	87.233	30.559	27.636	236.427	180.651	219.609	197.503	37.313	4.920	19.035	255.586	287.936	-55.327	-65.474	112.928	-69.304	0.00019113	0.00021533	2.4471e-05	1218.1	8.0477e-07	1.5413e-06	1292.8	253.55	8.1178e-07	1.2355e-06	315.54	87.951	69.344	19.964	4.9222e-07	28.199	0.00011552	0.00010802	2.8152e-05	994.29	1.2658e-06	1.1845e-06	1067.5	206.47	1.2654e-06	1.1577e-06	241.97	69.077	53.892	16.126	1.0786e-06	21.796	97.261	52.772	27.468	-60.322	268.098	-47.350	-60.435	-53.347	194.937	-33.294	-53.666	-47.083	-47.093	-39.954	8.693	-40.559	-8191	255	
2075.153	1	1	0	0	0.13616	0.041116	0.29099	0.18999	0.12721	0.17613	0.19523	0.15842	0.2747	0.126	0.29825	0.035807	0.19349	0.3811	0.22971	0.22314	-3.9313	-4.2521	-3.7771	-4.4083	-4.1167	-3.8896	-4.4271	-3.9625	-4.1687	-4.2979	-3.9521	-4.3562	-4.1646	-3.7687	-4.3083	-3.9667	154.202	275.914	159.680	268.099	24.271	4.613	251.747	75.608	2.312	15.617	234.019	125.418	145.541	-65.472	151.092	126.045	0.00020274	0.00011974	9.6965e-06	1216.9	2.628e-07	2.2436e-06	1288.9	253.12	1.8783e-06	2.0695e-06	316.85	88.041	69.8	19.961	1.435e-06	27.811	0.00011624	0.00010513	2.724e-05	999.24	1.2585e-06	1.1505e-06	1066.7	207.92	1.251e-06	1.1413e-06	241.61	69.677	53.786	16.041	1.0712e-06	22.046	158.317	-12.399	141.495	-60.198	50.743	15.404	-60.391	-53.459	45.836	24.316	-53.623	-47.344	-47.088	-40.490	-59.341	-40.501	-8191	255	
2075.273	1	1	0	0	0.20412	0.22369	0.074375	0.2855	0.24607	0.071798	0.082526	0.21946	0.079079	0.03179	0.14956	0.038676	0.19231	0.12178	0.17503	0.10099	-3.75	-4.1875	-3.8396	-4.2375	-4.1917	-3.825	-4.4	-4.0792	-3.9875	-4.375	-3.9083	-4.2458	-4.0771	-3.8021	-4.225	-4.0104	22.310	115.550	242.638	264.895	168.591	-67.714	-23.652	269.043	22.849	-9.616	269.410	11.423	183.861	-33.186	73.426	79.312	0.00011446	0.00023845	3.06e-05	1225.1	1.6344e-06	7.326e-07	1296.1	253.86	1.6468e-06	1.1485e-06	315.74	88.145	69.953	20.075	4.4726e-07	28.338	0.00011306	0.00010353	2.7608e-05	1007.3	1.2245e-06	1.1355e-06	1069	209.24	1.2194e-06	1.1219e-06	242.26	70.262	53.578	16.048	1.1184e-06	22.287	-54.845	286.389	50.633	-60.335	34.672	-19.194	-60.349	-53.344	-26.296	36.974	-53.466	-47.165	-46.973	-39.708	-69.125	-40.752	-8191	255	
2075.368	1	1	0	0	0.098539	0.031032	0.1616	0.40282	0.07504	0.096754	0.059495	0.18132	0.11482	0.14511	0.14297	0.1201	0.072485	0.040145	0.17772	0.069438	-3.6729	-4.3083	-3.8521	-4.2854	-4.1438	-3.7687	-4.2937	-4.1125	-3.9667	-4.3063	-3.9083	-4.25	-4.1792	-3.7062	-4.2479	-4.1062	-55.967	196.370	280.408	242.719	-52.497	-37.633	271.379	252.170	223.426	37.306	245.973	131.499	-9.345	-2.027	27.556	83.079	0.0001993	0.00025483	2.6513e-05	1217.4	1.0436e-06	1.1997e-06	1288.3	252.66	3.8035e-06	7.5477e-07	314.32	88.647	69.716	19.972	7.035e-07	28.111	0.00010954	0.00010063	2.8952e-05	1005.8	1.1744e-06	1.0946e-06	1068.7	209.1	1.1713e-06	1.083e-06	243.53	70.343	53.226	15.929	1.1915e-06	22.143	124.259	12.656	255.448	-60.546	-66.372	-33.464	-60.547	-53.235	13.093	-50.802	-53.619	-47.172	-46.819	-40.245	173.800	-40.767	-8191	255	
#DATA ENDS
