BOXY.EXE: ISS Imagent and Oximeter Data Acquisition Program Version 0.80
Ascii Record File

#ACQ INFORMATION
2  Detector Channels 
16  External MUX Channels 
1  Auxiliary Channels 
5000  Waveform (CCF) Frequency (Hz)
1  Waveforms Skipped 
30  Waveforms Averaged 
1  Cycles Averaged 
16  Acquisitions per Waveform 
10.0806  Updata Rate (Hz) 

#FILE INFORMATION
TRUE -- External MUX Channel results are PARSED.
FALSE -- AC DC and Phase are NOT grouped.
TRUE -- Companion Program Settings File CREATED.
FALSE -- AC data not excluded
FALSE -- DC data not excluded
FALSE -- Phase data not excluded
FALSE -- Auxillary Chn. data not excluded
Tab delimiters

#CALIBRATION STATE
TRUE -- Waveform Calibration Values APPLIED.


#AUX CALIBRATION VALUES
Val Type	aux-1	

Term	1.0000e+00	
Factor	0.0000e+00	


#WF CALIBRATION VALUES
A = Detector Channel
Val Type	A-AC1	A-AC2	A-AC3	A-AC4	A-AC5	A-AC6	A-AC7	A-AC8	A-AC9	A-AC10	A-AC11	A-AC12	A-AC13	A-AC14	A-AC15	A-AC16	A-DC1	A-DC2	A-DC3	A-DC4	A-DC5	A-DC6	A-DC7	A-DC8	A-DC9	A-DC10	A-DC11	A-DC12	A-DC13	A-DC14	A-DC15	A-DC16	A-Ph1	A-Ph2	A-Ph3	A-Ph4	A-Ph5	A-Ph6	A-Ph7	A-Ph8	A-Ph9	A-Ph10	A-Ph11	A-Ph12	A-Ph13	A-Ph14	A-Ph15	A-Ph16	

Term	0.00000e+00	0.00000e+00	0.00000e+00	0.00000e+00	0.00000e+00	0.00000e+00	0.00000e+00	0.00000e+00	0.00000e+00	0.00000e+00	0.00000e+00	0.00000e+00	0.00000e+00	0.00000e+00	0.00000e+00	0.00000e+00	0.00000e+00	0.00000e+00	0.00000e+00	0.00000e+00	0.00000e+00	0.00000e+00	0.00000e+00	0.00000e+00	0.00000e+00	0.00000e+00	0.00000e+00	0.00000e+00	0.00000e+00	0.00000e+00	0.00000e+00	0.00000e+00	0.00000e+00	0.00000e+00	0.00000e+00	0.00000e+00	0.00000e+00	0.00000e+00	0.00000e+00	0.00000e+00	0.00000e+00	0.00000e+00	0.00000e+00	0.00000e+00	0.00000e+00	0.00000e+00	0.00000e+00	0.00000e+00	
Factor	1.00000e+00	1.00000e+00	1.00000e+00	1.00000e+00	1.00000e+00	1.00000e+00	1.00000e+00	1.00000e+00	1.00000e+00	1.00000e+00	1.00000e+00	1.00000e+00	1.00000e+00	1.00000e+00	1.00000e+00	1.00000e+00	1.00000e+00	1.00000e+00	1.00000e+00	1.00000e+00	1.00000e+00	1.00000e+00	1.00000e+00	1.00000e+00	1.00000e+00	1.00000e+00	1.00000e+00	1.00000e+00	1.00000e+00	1.00000e+00	1.00000e+00	1.00000e+00	X	X	X	X	X	X	X	X	X	X	X	X	X	X	X	X	

B = Detector Channel
Val Type	B-AC1	B-AC2	B-AC3	B-AC4	B-AC5	B-AC6	B-AC7	B-AC8	B-AC9	B-AC10	B-AC11	B-AC12	B-AC13	B-AC14	B-AC15	B-AC16	B-DC1	B-DC2	B-DC3	B-DC4	B-DC5	B-DC6	B-DC7	B-DC8	B-DC9	B-DC10	B-DC11	B-DC12	B-DC13	B-DC14	B-DC15	B-DC16	B-Ph1	B-Ph2	B-Ph3	B-Ph4	B-Ph5	B-Ph6	B-Ph7	B-Ph8	B-Ph9	B-Ph10	B-Ph11	B-Ph12	B-Ph13	B-Ph14	B-Ph15	B-Ph16	

Term	0.00000e+00	0.00000e+00	0.00000e+00	0.00000e+00	0.00000e+00	0.00000e+00	0.00000e+00	0.00000e+00	0.00000e+00	0.00000e+00	0.00000e+00	0.00000e+00	0.00000e+00	0.00000e+00	0.00000e+00	0.00000e+00	0.00000e+00	0.00000e+00	0.00000e+00	0.00000e+00	0.00000e+00	0.00000e+00	0.00000e+00	0.00000e+00	0.00000e+00	0.00000e+00	0.00000e+00	0.00000e+00	0.00000e+00	0.00000e+00	0.00000e+00	0.00000e+00	-6.39374e+00	-1.30076e+02	-1.26601e+02	-1.84394e+02	-6.08140e+01	-7.06777e+01	-1.57167e+02	-1.62015e+02	-3.31567e+01	-6.16301e+01	-1.77855e+02	-1.71352e+02	-1.80192e+02	-1.76785e+02	-5.94064e+01	-1.49703e+02	
Factor	3.40232e-05	2.11048e-04	5.73687e-05	1.81022e-01	2.72477e-06	1.95530e-06	1.79154e-01	5.79627e-02	2.25856e-06	1.85658e-06	1.08032e+00	3.06876e-02	3.08175e-02	1.00977e-02	2.67119e-06	1.45155e-02	6.65788e-06	7.85998e-06	2.20830e-06	8.86745e-02	8.43392e-08	8.72387e-08	8.25446e-02	2.84046e-02	8.40714e-08	8.72613e-08	4.76702e-01	1.46536e-02	1.52110e-02	4.99653e-03	8.52396e-08	6.96091e-03	X	X	X	X	X	X	X	X	X	X	X	X	X	X	X	X	



#DISTANCE SETTINGS
A = Detector Channel
A-1	A-2	A-3	A-4	A-5	A-6	A-7	A-8	A-9	A-10	A-11	A-12	A-13	A-14	A-15	A-16	

2.5000e+00	3.0000e+00	2.5000e+00	3.0000e+00	2.0000e+00	3.0000e+00	1.5000e+00	3.0000e+00	3.0000e+00	3.0000e+00	3.0000e+00	3.0000e+00	3.0000e+00	3.0000e+00	1.5000e+00	3.0000e+00	

B = Detector Channel
B-1	B-2	B-3	B-4	B-5	B-6	B-7	B-8	B-9	B-10	B-11	B-12	B-13	B-14	B-15	B-16	

1.0000e+01	1.0000e+01	1.0000e+01	1.4400e+00	1.0000e+01	1.0000e+01	1.5100e+00	1.9400e+00	1.0000e+01	1.0000e+01	1.9900e+00	2.4900e+00	2.4100e+00	2.9000e+00	1.0000e+01	2.9800e+00	




#DATA BEGINS
time	group	step	mark	flag	A-AC1	A-AC2	A-AC3	A-AC4	A-AC5	A-AC6	A-AC7	A-AC8	A-AC9	A-AC10	A-AC11	A-AC12	A-AC13	A-AC14	A-AC15	A-AC16	A-DC1	A-DC2	A-DC3	A-DC4	A-DC5	A-DC6	A-DC7	A-DC8	A-DC9	A-DC10	A-DC11	A-DC12	A-DC13	A-DC14	A-DC15	A-DC16	A-Ph1	A-Ph2	A-Ph3	A-Ph4	A-Ph5	A-Ph6	A-Ph7	A-Ph8	A-Ph9	A-Ph10	A-Ph11	A-Ph12	A-Ph13	A-Ph14	A-Ph15	A-Ph16	B-AC1	B-AC2	B-AC3	B-AC4	B-AC5	B-AC6	B-AC7	B-AC8	B-AC9	B-AC10	B-AC11	B-AC12	B-AC13	B-AC14	B-AC15	B-AC16	B-DC1	B-DC2	B-DC3	B-DC4	B-DC5	B-DC6	B-DC7	B-DC8	B-DC9	B-DC10	B-DC11	B-DC12	B-DC13	B-DC14	B-DC15	B-DC16	B-Ph1	B-Ph2	B-Ph3	B-Ph4	B-Ph5	B-Ph6	B-Ph7	B-Ph8	B-Ph9	B-Ph10	B-Ph11	B-Ph12	B-Ph13	B-Ph14	B-Ph15	B-Ph16	aux-1	digaux	

17499.783	1	1	0	256	0.148	0.15726	0.072647	0.14107	0.28126	0.14659	0.17533	0.20721	0.25951	0.070696	0.19405	0.13539	0.17778	0.25416	0.079778	0.08488	-1.8354	-2.6688	-2.3667	-2.4958	-2.7104	-2.2313	-2.6458	-2.5667	-2.5167	-2.8917	-2.3625	-2.6937	-2.8167	-2.6167	-2.5687	-2.4562	88.046	270.976	165.683	158.534	163.153	223.106	259.493	-14.778	90.490	221.309	211.173	-51.232	266.989	107.882	282.141	130.507	0.00017455	0.00074418	0.00023046	426.02	5.4902e-06	5.0852e-06	556.84	131.13	7.2369e-06	3.3315e-06	239.56	94.21	46.684	16.826	1.8752e-06	41.094	0.0021092	0.0024931	0.00074053	440.02	2.976e-05	3.1551e-05	566.66	137.55	3.5163e-05	3.9927e-05	451.17	98.894	53.437	19.235	5.2674e-05	44.252	272.702	138.314	36.872	-54.994	86.869	-49.696	-54.296	-49.295	-28.927	165.407	-49.850	-45.719	-44.862	-41.428	285.482	-41.937	-8191	255	
17499.902	1	1	0	0	0.22541	0.24753	0.092554	0.16995	0.19148	0.18443	0.11621	0.20142	0.054092	0.23007	0.21255	0.065502	0.16828	0.1607	0.091148	0.12304	-2.1146	-2.7	-2.3354	-2.5687	-2.725	-2.3875	-2.5979	-2.7375	-2.3604	-2.85	-2.4604	-2.5104	-2.7292	-2.4646	-2.6979	-2.7104	-6.654	-48.926	-50.167	271.715	286.983	143.269	-33.510	80.205	113.248	-50.301	125.787	95.077	211.845	136.463	234.848	253.646	0.00028836	0.0010706	0.00023129	420.69	1.9092e-06	8.7066e-06	546.33	127.86	1.0987e-05	9.8127e-06	232.67	92.199	46.074	16.712	1.4267e-05	40.435	0.0041402	0.0050091	0.0014569	464.69	5.6264e-05	5.9182e-05	584.9	143.28	5.9209e-05	6.5068e-05	569.01	100.36	55.705	20.068	6.6567e-05	44.852	-66.432	49.292	19.313	-54.760	238.572	168.554	-54.116	-49.040	-48.588	225.212	-49.951	-45.943	-45.153	-41.140	107.497	-41.974	-8191	255	
17499.998	1	1	0	0	0.061574	0.22758	0.2853	0.16963	0.14913	0.14474	0.27478	0.2433	0.14489	0.24518	0.28857	0.034494	0.30403	0.14104	0.080337	0.17234	-1.9312	-2.7021	-2.6875	-2.4167	-2.9	-2.5333	-2.7396	-2.8521	-2.4042	-2.675	-2.6229	-2.6083	-2.7271	-2.4188	-2.45	-2.9542	-21.178	96.836	80.203	200.554	159.325	22.677	116.278	140.262	252.157	137.558	26.070	210.054	-8.411	44.306	-10.590	229.080	0.00034658	0.0007595	5.7694e-05	424.39	9.6877e-06	6.6042e-06	547.16	126.81	2.2907e-06	1.8759e-05	236.73	90.023	44.109	16.352	1.349e-05	39.484	0.005112	0.0061434	0.0017631	477.82	6.7111e-05	6.9717e-05	592.94	144.87	6.8702e-05	7.298e-05	614.39	99.769	56.057	20.23	7.3864e-05	44.367	278.736	0.594	26.322	-54.937	148.659	128.621	-54.313	-49.214	-34.710	156.394	-50.855	-45.857	-45.098	-41.096	148.842	-42.083	-8191	255	
17500.070	1	1	0	0	0.17705	0.062224	0.20999	0.072088	0.15947	0.39397	0.35732	0.34479	0.21199	0.20706	0.14838	0.10134	0.18755	0.16999	0.17016	0.23401	-2.1479	-2.5812	-2.6354	-2.4958	-2.7021	-2.7375	-2.675	-2.7083	-2.7604	-2.6583	-2.7083	-2.6542	-2.5042	-2.4292	-2.6875	-2.7979	36.689	99.455	182.690	-26.041	207.293	19.739	99.051	114.409	231.831	239.543	-62.059	25.139	245.666	179.851	116.069	-67.142	0.00037196	0.00083677	0.00023628	419.71	1.6016e-05	3.3142e-06	543.61	126.08	3.5863e-06	1.0353e-05	238.21	89.577	44.469	16.276	1.0295e-05	40.059	0.00578	0.0067698	0.0019022	477.72	7.1396e-05	7.4285e-05	591.49	144.29	6.7937e-05	7.0534e-05	576.74	97.48	53.85	19.151	5.2083e-05	43.024	269.680	-65.206	11.429	-54.563	42.200	29.588	-54.247	-49.401	257.844	44.123	-50.660	-45.891	-45.117	-41.443	239.366	-42.183	-8191	255	
17500.191	1	1	0	0	0.073368	0.14394	0.038539	0.17227	0.17214	0.18089	0.12388	0.015846	0.34252	0.067859	0.11484	0.14909	0.21849	0.13126	0.13073	0.015223	-1.9833	-2.6458	-2.7833	-2.4771	-2.6188	-2.5458	-2.5021	-2.7417	-2.5729	-2.725	-2.5792	-2.4854	-2.6063	-2.3896	-2.4396	-2.7313	-6.014	137.072	237.327	-34.652	106.688	124.234	177.375	189.846	-52.117	3.578	102.077	199.165	-13.014	-22.164	118.310	27.568	0.00012923	0.0009336	0.00015506	433.59	1.0077e-05	6.258e-06	568.26	132.27	1.9147e-06	3.6134e-06	242.31	95.942	47.913	17.347	7.6948e-06	42.577	0.0037294	0.0041396	0.0010815	459.41	3.9262e-05	3.8591e-05	582.57	139.33	3.3707e-05	3.4782e-05	403.43	98.399	52.021	18.598	2.9431e-05	43.878	-42.257	14.756	-17.213	-54.781	187.902	135.587	-54.389	-49.442	-42.370	176.723	-49.598	-45.732	-45.037	-41.384	9.412	-42.297	-8191	255	
17500.287	1	1	0	0	0.16404	0.039772	0.12367	0.088228	0.11263	0.20353	0.17259	0.19162	0.15879	0.04346	0.35478	0.21203	0.12013	0.21658	0.18389	0.1555	-2.1125	-2.5563	-2.5396	-2.375	-2.7104	-2.6	-2.4375	-2.825	-2.4667	-2.7354	-2.6229	-2.6125	-2.6625	-2.6479	-2.7667	-2.8146	-6.828	264.612	177.582	93.105	22.796	266.047	120.907	231.862	277.575	14.228	13.583	217.671	171.077	284.993	133.965	260.237	0.00024444	0.00019757	0.00034498	446.25	7.2892e-06	2.8499e-06	581.96	135.05	1.9085e-06	7.9879e-07	254.09	98.6	49.073	17.742	7.7948e-06	43.102	0.0024102	0.0027493	0.00073529	459.74	2.9321e-05	2.9891e-05	587.12	140.2	2.7599e-05	2.7992e-05	380.49	100.42	52.354	18.705	2.5798e-05	44.227	-61.132	134.054	15.940	-55.031	-7.536	234.011	-54.590	-49.365	-8.809	258.554	-50.670	-45.726	-45.035	-41.509	111.453	-41.682	-8191	255	
17500.383	1	1	0	0	0.10246	0.13771	0.21371	0.19121	0.08524	0.071245	0.071799	0.27447	0.29365	0.22261	0.28657	0.12476	0.22049	0.20281	0.3071	0.22766	-2.0729	-2.5833	-2.8875	-2.5729	-2.6354	-2.6292	-2.5125	-2.6937	-2.5875	-2.5917	-2.7979	-2.4708	-2.675	-2.5417	-2.4833	-2.7875	197.980	31.156	128.477	186.077	162.698	236.312	109.517	243.371	140.397	-20.737	277.062	254.215	185.312	267.039	38.965	116.641	0.00023868	0.0010507	0.00018179	445.31	1.3825e-05	9.0591e-06	580.86	136.39	4.7569e-06	4.2081e-06	255.2	98.001	49.156	17.472	2.916e-06	42.88	0.0021503	0.002434	0.00067324	458.39	2.7812e-05	2.6872e-05	582.08	140.19	2.5905e-05	2.5914e-05	373.88	99.524	52.187	18.452	2.5068e-05	43.703	265.271	45.992	3.149	-55.403	147.811	87.987	-54.058	-49.282	35.233	58.698	-50.987	-45.568	-45.095	-40.932	-60.656	-41.776	-8191	255	
17500.479	1	1	0	0	0.058103	0.11114	0.14567	0.19531	0.18512	0.032749	0.18678	0.29174	0.31486	0.31307	0.13782	0.25392	0.033294	0.12857	0.33072	0.21009	-2.0021	-2.3604	-2.6708	-2.5875	-2.6125	-2.6083	-2.3396	-2.7333	-2.4896	-2.5292	-2.7562	-2.6437	-2.6375	-2.7375	-2.5187	-2.7146	-62.623	241.441	71.313	284.049	-56.010	-37.700	197.905	199.548	-39.403	162.600	222.928	210.966	108.674	116.899	204.577	106.234	0.00019378	0.00069719	0.00014993	449.66	7.3322e-06	5.9329e-06	581.38	136.58	2.3568e-06	1.0995e-05	251.39	97.537	48.591	17.288	9.3256e-06	42.182	0.0020837	0.0023023	0.00066447	458.68	2.6338e-05	2.6035e-05	583.96	140.23	2.6347e-05	2.6124e-05	380.92	99.373	52.061	18.266	2.6906e-05	43.394	290.947	-62.600	1.605	-55.043	101.020	129.862	-54.310	-49.238	131.744	62.753	-50.370	-45.745	-45.224	-41.100	183.478	-42.190	-8191	255	
17500.600	1	1	0	0	0.26817	0.187	0.17897	0.1243	0.13206	0.20104	0.24153	0.25143	0.137	0.1704	0.15623	0.19906	0.22067	0.1007	0.026522	0.12426	-2.0854	-2.5563	-2.6875	-2.4688	-2.2271	-2.9667	-2.5438	-2.825	-2.8375	-2.475	-2.6229	-2.2833	-2.6354	-2.6708	-2.3167	-2.7042	127.315	29.201	-55.094	111.671	217.212	105.821	242.132	224.474	65.647	232.718	203.611	27.870	286.555	33.424	208.424	180.160	0.0002147	0.00016624	0.00021127	451.55	1.0684e-05	7.006e-06	583.09	135.16	7.2034e-06	9.2205e-06	255.65	97.187	48.445	17.012	1.1091e-05	42.475	0.002173	0.0024257	0.00070708	462.18	2.7019e-05	2.8842e-05	587.35	140.08	2.804e-05	2.8768e-05	391.29	99.284	52.126	18.246	2.9163e-05	43.516	285.941	9.094	117.687	-55.094	61.503	79.734	-54.365	-49.393	111.455	175.646	-50.568	-46.166	-45.589	-41.404	114.762	-41.809	-8191	255	
17500.695	1	1	0	0	0.16777	0.18381	0.09573	0.25424	0.17814	0.38442	0.2378	0.072142	0.14391	0.11415	0.15106	0.22873	0.3371	0.18525	0.2595	0.17167	-2.1625	-2.3646	-2.9	-2.6146	-2.45	-2.7625	-2.4771	-2.7583	-2.6354	-2.4	-2.5938	-2.5563	-2.5229	-2.8542	-2.5792	-2.5292	126.757	269.393	36.222	247.099	210.624	131.841	279.458	102.016	32.531	-44.157	-29.977	288.850	285.648	-52.592	99.666	165.485	0.00037078	0.00091561	0.00011062	451.84	1.1777e-05	2.8856e-06	583.16	135.66	1.1467e-05	5.018e-06	254.24	97.656	48.934	17.16	1.1322e-05	42.176	0.0022467	0.0025954	0.00073561	463.14	2.724e-05	2.9274e-05	590.49	140.66	2.6586e-05	2.803e-05	386.91	99.585	52.086	18.2	2.6929e-05	43.244	267.811	-26.987	-47.047	-55.099	70.680	100.617	-54.524	-49.381	89.385	19.916	-50.334	-45.811	-45.762	-40.895	38.001	-41.902	-8191	255	
17500.768	1	1	0	0	0.14249	0.22268	0.37581	0.13332	0.21458	0.29035	0.05702	0.37455	0.14358	0.13714	0.33115	0.1588	0.37036	0.12091	0.07049	0.26951	-2.3542	-2.3187	-2.7104	-2.7875	-2.5042	-2.85	-2.4979	-2.5875	-2.5938	-2.3187	-2.8187	-2.7167	-2.3167	-2.6562	-2.4792	-2.6521	45.838	80.666	72.052	52.120	288.979	-60.883	82.426	256.823	210.921	275.178	105.181	93.771	201.769	207.255	52.900	-62.330	0.00037594	0.00045005	0.00010997	451.16	5.3007e-06	7.8253e-06	582.4	136.79	4.7511e-06	5.1998e-06	250.94	97.431	48.99	17.242	5.6297e-06	42.22	0.0020465	0.0023876	0.00066713	460.47	2.444e-05	2.6728e-05	586.04	139.58	2.3685e-05	2.5321e-05	369.33	98.958	51.893	18.097	2.4755e-05	42.973	271.959	55.236	-20.008	-55.126	133.519	85.782	-54.487	-49.505	273.526	114.125	-49.850	-45.866	-45.252	-41.443	152.532	-42.106	-8191	255	
17500.863	1	1	0	0	0.1671	0.29509	0.11443	0.23828	0.099014	0.23553	0.16539	0.2353	0.17408	0.14386	0.084804	0.18994	0.060716	0.21766	0.083139	0.13182	-2.2958	-2.4771	-2.5	-2.7062	-2.6146	-2.8083	-2.4542	-2.4562	-2.6937	-2.4854	-2.7167	-2.5417	-2.5542	-2.6917	-2.5917	-2.6354	179.485	-53.278	124.911	160.389	18.596	146.245	209.889	-17.080	3.832	197.738	31.689	16.422	-9.222	75.625	-36.321	-36.144	0.00020764	0.00073432	7.1482e-05	449.45	4.8136e-06	7.5362e-06	583.49	137.06	2.9971e-06	2.4741e-06	256.56	98.437	49.017	17.324	2.7852e-06	42.688	0.0019942	0.0022239	0.00062724	458.28	2.3393e-05	2.5163e-05	586.12	139.9	2.3381e-05	2.4508e-05	370.59	99.348	51.909	18.168	2.4213e-05	43.246	289.321	31.356	68.945	-54.946	109.091	138.097	-54.274	-49.352	115.743	97.921	-49.665	-45.584	-45.513	-41.110	-29.979	-42.295	-8191	255	
17500.982	1	1	0	0	0.0085462	0.081639	0.11199	0.19164	0.11537	0.19953	0.40676	0.18862	0.22691	0.24261	0.3124	0.28407	0.13755	0.064976	0.094593	0.12212	-2.325	-2.2958	-2.65	-2.8417	-2.4354	-2.8354	-2.6375	-2.5083	-2.5667	-2.4771	-2.5208	-2.6354	-2.4167	-2.7646	-2.6437	-2.3812	63.307	279.826	247.061	258.606	93.003	43.326	243.908	143.184	-54.438	181.386	210.075	241.267	252.704	132.844	12.057	-44.519	0.00030392	0.00041601	0.0002504	456.67	4.5953e-06	8.7546e-06	591.52	137.4	5.2369e-06	6.569e-06	260.75	99.059	49.652	17.359	1.0593e-06	42.563	0.0019341	0.0021782	0.00060724	460.59	2.2711e-05	2.4936e-05	590.47	140.13	2.2614e-05	2.3377e-05	356.42	99.884	52.273	18.128	2.2643e-05	43.278	-50.709	3.217	95.952	-55.024	139.052	126.883	-54.368	-49.149	188.356	112.872	-50.605	-45.868	-45.147	-41.259	68.572	-41.768	-8191	255	
17501.078	1	1	0	0	0.14863	0.05572	0.12316	0.16472	0.33697	0.089218	0.17893	0.1507	0.10404	0.25661	0.22155	0.20939	0.17471	0.15826	0.044021	0.22915	-2.2708	-2.3312	-2.5	-2.6917	-2.375	-2.6458	-2.8438	-2.2875	-2.7625	-2.675	-2.4292	-2.8896	-2.3729	-2.6292	-2.6021	-2.3854	235.957	256.808	51.843	126.934	8.435	-37.502	155.732	237.308	115.523	283.136	-60.596	-11.830	148.416	-38.425	48.580	257.786	0.00017692	0.00016126	0.00020853	455.32	6.1226e-06	5.001e-06	591.65	138.35	7.544e-06	3.3092e-06	257.35	99.458	49.477	17.305	4.0249e-06	42.46	0.0019299	0.0021396	0.00058629	461.77	2.2549e-05	2.4072e-05	592.26	140.89	2.2182e-05	2.3296e-05	353.25	100.26	52.145	18.065	2.1771e-05	43.188	-51.600	33.463	10.252	-55.201	208.669	105.198	-54.252	-49.356	65.243	16.013	-49.433	-45.708	-45.175	-40.855	51.559	-42.097	-8191	255	
17501.176	1	1	0	0	0.15366	0.15996	0.083618	0.31631	0.1313	0.28172	0.14642	0.20708	0.28442	0.045589	0.13004	0.057562	0.22822	0.029731	0.20279	0.2646	-2.3354	-2.5312	-2.3875	-2.7646	-2.4562	-2.8333	-2.6937	-2.4896	-2.6979	-2.6854	-2.5708	-2.8479	-2.4688	-2.6312	-2.6792	-2.4417	-24.095	249.059	216.742	198.780	119.578	190.243	213.495	237.161	212.512	5.285	273.429	-8.442	81.592	-26.636	114.110	-66.871	0.00016361	0.00034127	0.00013222	453.72	4.3347e-06	9.1793e-06	585.18	137.27	1.4452e-06	4.2919e-06	257.3	97.353	49.586	17.152	3.3819e-06	41.908	0.0018682	0.0021111	0.00056519	459.23	2.263e-05	2.4613e-05	585.28	140.04	2.288e-05	2.3758e-05	355.28	98.826	52.001	17.984	2.2474e-05	42.697	-63.510	287.408	93.017	-55.207	215.079	131.757	-54.437	-49.294	93.429	39.890	-49.216	-46.017	-45.419	-41.004	211.957	-41.960	-8191	255	
17501.271	1	1	0	0	0.17678	0.17055	0.082884	0.25229	0.12735	0.12758	0.28251	0.24276	0.30416	0.13861	0.14752	0.06414	0.22095	0.2189	0.11386	0.13553	-2.4354	-2.5083	-2.4	-2.825	-2.4021	-2.5938	-2.7417	-2.3021	-2.7646	-2.7521	-2.3542	-2.8104	-2.6208	-2.5687	-2.5729	-2.5521	217.174	35.066	87.012	279.405	180.447	3.184	258.405	12.292	275.570	0.966	112.983	193.861	202.119	251.850	-62.040	195.421	0.00031325	0.00012613	0.00011968	453.35	3.891e-06	6.3201e-06	583.27	137.36	6.9499e-06	5.0634e-06	251.77	98.353	49.781	17.153	4.2831e-06	42.564	0.0019431	0.0021177	0.00057828	459.46	2.2445e-05	2.2356e-05	585.4	139.84	2.1461e-05	2.1368e-05	346.66	99.335	51.994	17.873	2.0712e-05	42.995	290.569	-43.847	-20.107	-55.172	237.241	61.458	-54.110	-49.382	163.620	184.473	-49.883	-45.884	-45.156	-41.394	18.932	-42.216	-8191	255	
17501.367	1	1	0	0	0.065974	0.064533	0.10491	0.26102	0.33286	0.17215	0.23779	0.12388	0.082651	0.16885	0.10038	0.16483	0.12354	0.16136	0.28557	0.29978	-2.2479	-2.5125	-2.5146	-2.7792	-2.4375	-2.6437	-2.8458	-2.35	-2.6833	-2.7604	-2.5792	-2.8958	-2.4875	-2.55	-2.85	-2.4125	227.359	166.567	279.209	223.967	264.077	136.455	232.704	196.349	180.098	255.513	68.399	195.409	187.801	-56.753	44.317	159.955	0.00022213	0.00018862	0.00013892	453.72	1.0427e-05	1.8894e-06	588.16	137.44	4.4965e-06	8.0647e-06	253.59	98.809	49.713	17.051	4.7311e-06	42.319	0.0017215	0.0018486	0.00052648	457.39	2.0371e-05	2.0291e-05	588.97	140.15	2.0089e-05	2.0007e-05	345.29	99.767	51.898	17.776	2.0305e-05	42.87	-29.657	112.311	78.571	-55.216	79.922	26.793	-54.407	-49.462	173.732	141.136	-50.937	-45.610	-45.051	-41.023	-4.225	-42.005	-8191	255	
17501.463	1	1	0	0	0.25862	0.086847	0.052837	0.15822	0.062442	0.14931	0.11706	0.21095	0.066645	0.40758	0.16756	0.10856	0.18347	0.13768	0.14322	0.29886	-2.2604	-2.7083	-2.4	-2.6813	-2.5646	-2.4833	-2.7562	-2.5354	-2.7021	-2.6437	-2.2729	-2.6271	-2.4896	-2.5521	-2.6458	-2.5938	215.615	-12.159	58.364	52.444	37.333	-4.353	-52.552	254.261	104.784	-37.506	21.287	-65.959	286.937	139.160	1.110	83.126	0.00016909	0.0005967	0.00027952	455.71	6.36e-06	3.1716e-07	590.76	138.57	8.9162e-06	2.7432e-06	259.57	98.612	49.51	17.138	1.3123e-06	41.978	0.0017435	0.0018531	0.00053966	460.73	2.0578e-05	2.0862e-05	591.29	140.39	2.0608e-05	2.1427e-05	351.29	99.363	51.83	17.805	2.1586e-05	42.52	-62.864	-18.572	101.407	-55.108	63.322	-31.086	-54.188	-49.508	75.297	119.803	-50.577	-45.844	-44.460	-41.278	53.111	-42.311	-8191	255	
17501.584	1	1	0	0	0.37314	0.11624	0.12552	0.13837	0.12058	0.43459	0.15208	0.231	0.23192	0.17929	0.20714	0.10094	0.14156	0.08372	0.091971	0.1406	-2.0438	-2.6813	-2.2062	-2.7812	-2.7	-2.6167	-2.6417	-2.7313	-2.5042	-2.7333	-2.3583	-2.75	-2.5604	-2.5771	-2.5792	-2.6688	3.673	-48.954	103.992	158.863	34.302	240.795	251.371	10.152	136.025	45.534	70.101	217.825	29.998	237.974	44.703	218.477	0.00015733	0.00015535	0.00013004	456.83	2.1864e-06	3.5112e-06	585.1	138.14	2.0361e-06	4.1369e-06	256.9	97.056	49.138	16.952	6.0705e-06	41.84	0.0017375	0.0019945	0.00056142	460.62	2.0788e-05	2.1823e-05	586.75	140.2	2.0376e-05	2.1721e-05	347.45	98.227	51.372	17.708	2.1227e-05	42.239	281.819	45.670	63.783	-55.027	64.542	136.481	-54.574	-49.395	202.942	84.864	-51.082	-45.819	-45.156	-41.096	100.790	-41.757	-8191	255	
17501.680	1	1	0	0	0.15182	0.24197	0.35461	0.19823	0.070876	0.31811	0.29713	0.094401	0.07097	0.089998	0.051716	0.23881	0.24283	0.045286	0.37962	0.16286	-2.0417	-2.6813	-2.5479	-2.7	-2.7521	-2.4958	-2.7229	-2.525	-2.5521	-2.8521	-2.6271	-2.5521	-2.5708	-2.5062	-2.6208	-2.6833	141.981	53.769	59.449	159.945	108.966	-19.232	216.118	217.037	151.392	196.547	85.422	253.185	116.982	-54.884	6.368	256.206	0.00022293	0.00057627	0.00015754	454.96	5.1958e-06	5.3411e-06	591.42	137.89	1.2979e-06	6.232e-06	257.74	97.91	49.41	16.979	1.2973e-06	41.945	0.0016364	0.0020333	0.00053909	459.27	2.0216e-05	2.1552e-05	587.79	139.77	1.9939e-05	2.1215e-05	347.45	98.685	51.582	17.725	2.0803e-05	42.392	290.998	9.884	-10.702	-55.331	-34.800	69.056	-54.276	-49.622	182.009	96.067	-50.110	-45.928	-45.421	-41.079	25.707	-42.046	-8191	255	
17501.775	1	1	0	0	0.073148	0.080762	0.27736	0.13164	0.28083	0.18974	0.37352	0.13695	0.094	0.31335	0.086273	0.10952	0.025926	0.24573	0.13662	0.045115	-2.0479	-2.6	-2.3375	-2.6625	-2.6688	-2.3458	-2.8271	-2.5	-2.525	-2.7146	-2.3667	-2.45	-2.6583	-2.4062	-2.9792	-2.5479	196.128	274.246	9.024	170.492	75.223	147.583	291.641	-56.902	117.273	284.260	66.240	225.360	153.363	217.662	292.189	169.573	0.00027031	0.00022603	0.00017762	452.98	3.5921e-06	6.299e-06	588.78	137.57	4.3764e-06	8.4048e-06	252.09	98.296	49.611	17.043	2.9906e-06	42.275	0.0016555	0.0019702	0.00054198	459.12	2.0046e-05	2.1156e-05	589.73	140.04	2.0279e-05	2.1223e-05	347.44	99.061	51.87	17.813	2.0385e-05	42.695	283.949	-14.474	268.933	-54.895	198.553	70.789	-54.213	-49.339	146.769	68.704	-49.061	-46.091	-45.271	-41.180	29.388	-42.199	-8191	255	
17501.871	1	1	0	0	0.31924	0.13631	0.15788	0.04911	0.11804	0.16234	0.13061	0.071834	0.23256	0.066886	0.27891	0.072082	0.22495	0.13331	0.16559	0.39081	-1.9396	-2.6188	-2.4979	-2.6167	-2.8146	-2.3563	-2.7104	-2.6896	-2.4125	-2.6562	-2.45	-2.7687	-2.7875	-2.625	-2.4917	-2.8542	232.284	87.730	-43.183	-34.452	71.760	98.873	213.331	17.729	173.448	222.687	113.720	37.445	253.837	164.337	-22.906	209.389	0.00023912	0.00048125	0.00022609	458.03	7.7296e-06	4.487e-06	594.3	138.95	7.042e-06	4.3268e-06	257.72	98.469	49.464	17.059	2.1774e-06	42.187	0.0016431	0.0019772	0.0005246	460.14	2.0053e-05	2.056e-05	592.16	139.95	1.9864e-05	2.0396e-05	343.93	98.864	51.884	17.741	1.9852e-05	42.497	-66.380	-43.197	-32.196	-55.199	62.201	74.088	-54.221	-49.519	121.979	70.497	-49.633	-45.987	-45.331	-40.963	176.893	-42.010	-8191	255	
17501.990	1	1	0	0	0.17731	0.17086	0.29725	0.24502	0.21988	0.23015	0.098509	0.091573	0.28369	0.20667	0.2638	0.3118	0.3657	0.053138	0.06217	0.13435	-1.9375	-2.7104	-2.45	-2.5875	-2.7125	-2.4604	-2.5438	-2.8271	-2.4104	-2.6917	-2.6479	-2.575	-2.8646	-2.4646	-2.6813	-2.8229	0.597	-46.018	272.635	87.072	160.824	219.389	62.396	-26.075	-65.423	70.558	95.310	254.419	18.616	10.313	178.708	247.271	0.00018808	0.0008388	0.00020617	451.25	6.7295e-06	8.8728e-06	583.65	137.02	4.9466e-06	2.5709e-06	252.4	97.655	49.042	16.876	1.2325e-05	41.674	0.0016303	0.0019199	0.00051493	456.11	2.0004e-05	2.0854e-05	583.2	138.72	2.0163e-05	2.1001e-05	337.91	97.993	51.515	17.662	1.9732e-05	42.236	273.602	35.917	17.577	-55.269	106.745	35.970	-54.434	-49.361	225.557	36.874	-49.747	-45.762	-45.089	-41.201	88.967	-41.948	-8191	255	
17502.062	1	1	0	0	0.11946	0.13075	0.097852	0.36674	0.042994	0.19509	0.31991	0.23995	0.22993	0.13836	0.15363	0.074666	0.12299	0.37823	0.053359	0.052974	-1.9417	-2.8896	-2.3729	-2.375	-2.7396	-2.5229	-2.6125	-2.7771	-2.6188	-2.7667	-2.5979	-2.5396	-2.7958	-2.6063	-2.6042	-2.7667	24.850	194.299	275.113	270.803	240.852	284.541	171.572	-66.499	5.903	207.355	216.523	124.039	159.109	280.132	14.334	33.278	0.00025853	0.0010547	4.7055e-05	452.23	3.1273e-06	1.1546e-06	582.9	136.15	1.2114e-06	1.8854e-06	260.27	97.134	48.918	16.709	4.2233e-06	41.766	0.0016634	0.0020013	0.00051302	454.86	2.0379e-05	2.1149e-05	581.64	138.79	2.0479e-05	2.1023e-05	342.8	97.907	51.609	17.57	2.0348e-05	42.268	-48.117	-26.361	-22.501	-54.804	121.082	288.901	-54.646	-49.526	-21.977	200.798	-50.120	-45.882	-45.186	-41.297	178.716	-42.002	-8191	255	
17502.158	1	1	0	0	0.15857	0.079868	0.31237	0.073889	0.40798	0.096716	0.15073	0.12342	0.15419	0.15681	0.1789	0.21924	0.15438	0.22484	0.24092	0.24748	-1.9396	-2.6562	-2.5625	-2.4208	-2.6813	-2.5542	-2.6937	-2.9562	-2.5812	-2.8625	-2.675	-2.6667	-2.75	-2.5167	-2.3812	-2.8896	286.446	-3.513	-25.792	280.445	-31.024	83.123	276.030	273.735	276.920	284.295	-27.127	-67.319	268.452	211.546	207.657	271.520	0.00021929	0.00027782	4.0924e-05	451.41	5.3878e-06	5.0523e-06	585.33	135.4	1.0909e-05	7.7631e-06	257.73	97.874	49.095	16.758	5.3167e-06	41.63	0.0017292	0.0019766	0.00053357	455.52	2.1195e-05	2.1413e-05	584.62	139.17	2.1082e-05	2.1189e-05	346.99	98.222	51.615	17.496	2.1248e-05	42.219	285.797	-12.777	267.806	-54.683	85.388	125.336	-54.538	-49.572	84.285	105.651	-49.903	-45.845	-45.016	-41.269	214.071	-41.815	-8191	255	
17502.256	1	1	0	0	0.077434	0.25569	0.041613	0.029195	0.1267	0.13153	0.30273	0.10237	0.22149	0.10085	0.13761	0.24924	0.23415	0.18697	0.21418	0.21384	-1.9896	-2.5729	-2.4938	-2.5771	-2.5625	-2.6229	-2.625	-2.6688	-2.4625	-2.5938	-2.7271	-2.4521	-2.6833	-2.5312	-2.4813	-2.8708	-26.584	76.509	194.837	-42.145	240.001	118.429	186.409	286.730	163.763	169.338	25.751	-24.714	123.805	10.689	20.554	219.504	0.0002208	0.00059318	0.00011094	448.24	2.3169e-06	3.4693e-06	584.23	136.06	4.7864e-06	3.0802e-06	250.7	97.224	49.06	16.688	9.3301e-06	41.311	0.0017488	0.0019961	0.00056436	455.62	2.1568e-05	2.1392e-05	585.89	139.03	2.1488e-05	2.1386e-05	349.55	98.046	51.492	17.425	2.1831e-05	41.929	292.405	31.451	34.051	-54.862	50.321	127.511	-54.443	-48.891	178.184	53.903	-49.014	-46.033	-45.207	-41.508	159.444	-41.706	-8191	255	
17502.377	1	1	0	0	0.050034	0.22274	0.10986	0.08781	0.12901	0.13381	0.17496	0.13162	0.249	0.1251	0.11462	0.071703	0.307	0.23692	0.14188	0.01548	-1.9062	-2.4938	-2.8042	-2.5187	-2.5563	-2.6229	-2.4521	-2.6958	-2.6333	-2.5812	-2.8083	-2.5812	-2.6854	-2.6042	-2.4167	-2.8979	259.380	183.544	70.129	39.674	22.495	-11.332	246.906	126.357	75.101	180.189	-33.038	-61.683	38.807	213.464	-13.815	107.103	0.00028785	0.00022388	0.00012176	448.69	8.0053e-06	4.3693e-06	582.02	134.79	3.2829e-06	5.4944e-06	250.75	96.48	48.363	16.507	4.7786e-06	41.059	0.0017262	0.0019336	0.00057441	453.16	2.1133e-05	2.1692e-05	580.73	138.22	2.1035e-05	2.1876e-05	350.61	97.198	50.944	17.316	2.1824e-05	41.651	-51.523	173.304	36.483	-55.132	101.720	119.726	-54.251	-48.971	53.431	227.203	-49.501	-45.750	-45.019	-41.081	116.687	-41.823	-8191	255	
17502.473	1	1	0	0	0.17931	0.082964	0.21924	0.28064	0.17811	0.1197	0.22203	0.079404	0.10708	0.14263	0.17161	0.086178	0.12251	0.17411	0.095934	0.14082	-2.0708	-2.4208	-2.7229	-2.5854	-2.5187	-2.5896	-2.5312	-2.7562	-2.5938	-2.4521	-2.725	-2.6	-2.6375	-2.8063	-2.5333	-2.8688	202.160	163.249	104.294	-16.997	189.199	-46.155	203.947	-60.300	212.118	20.042	108.138	280.273	19.733	-0.814	266.671	14.503	0.0001397	0.00088897	0.00030426	447.2	6.1752e-06	3.4695e-07	580.99	135.64	9.0528e-07	5.4763e-06	247.96	96.227	48.132	16.605	1.674e-06	41.013	0.0016815	0.001956	0.00058932	452.56	2.0524e-05	2.2021e-05	579.3	138.18	2.0832e-05	2.2199e-05	346.51	97.154	50.912	17.4	2.182e-05	41.749	268.018	256.741	26.561	-55.023	125.899	-1.447	-54.231	-49.267	148.806	150.464	-49.627	-45.957	-45.325	-41.012	80.275	-41.846	-8191	255	
17502.568	1	1	0	0	0.36548	0.22253	0.13571	0.094007	0.026808	0.24564	0.040953	0.28778	0.097313	0.27279	0.12388	0.089605	0.09194	0.042688	0.0288	0.15751	-2.1229	-2.5271	-2.8542	-2.4521	-2.6042	-2.6958	-2.5625	-2.8208	-2.5375	-2.4729	-2.9562	-2.5187	-2.5687	-2.7167	-2.6333	-2.7604	128.375	157.352	-23.377	-28.104	176.573	241.892	174.929	282.734	39.878	-41.576	134.254	221.509	203.766	-28.350	257.544	226.033	0.00022801	0.00055562	7.5498e-05	444.43	7.4664e-06	4.2643e-06	581.85	134.53	5.6116e-06	3.7988e-06	248.26	96.169	48.411	16.7	4.2051e-06	41.08	0.0017183	0.0020684	0.00059341	451.07	2.1384e-05	2.3098e-05	580.71	138.01	2.1365e-05	2.3132e-05	350.75	97.285	50.88	17.469	2.285e-05	42.025	-63.943	26.057	90.399	-55.214	169.778	81.246	-54.313	-49.598	224.029	32.842	-50.113	-46.032	-44.796	-41.447	94.189	-41.920	-8191	255	
17502.664	1	1	0	0	0.15545	0.17214	0.18938	0.21717	0.17281	0.26035	0.16606	0.14309	0.11522	0.15031	0.19939	0.19193	0.027903	0.054312	0.074812	0.31718	-2.2771	-2.3458	-2.7458	-2.5104	-2.6333	-2.65	-2.5187	-2.7333	-2.7208	-2.3917	-2.5625	-2.5417	-2.4521	-2.5563	-2.5229	-2.8375	135.836	152.025	-47.210	280.550	131.105	45.526	148.935	77.405	139.771	118.280	218.040	234.335	-12.252	180.029	-58.037	63.257	0.00020186	0.00069747	0.00021116	445.6	7.2221e-06	3.3725e-06	576.99	134.49	7.1773e-06	6.4481e-06	249.46	95.912	48.192	16.593	1.2585e-05	40.889	0.0017956	0.0020933	0.00062073	451.72	2.2354e-05	2.375e-05	581.39	137.78	2.2969e-05	2.3936e-05	356.19	97.086	51.145	17.543	2.378e-05	41.563	261.385	68.342	8.700	-55.254	54.353	60.760	-54.432	-49.173	248.156	78.612	-50.670	-45.969	-45.452	-41.241	52.628	-41.748	-8191	255	
17502.760	1	1	0	0	0.12681	0.20952	0.28924	0.21001	0.10359	0.3423	0.13041	0.18351	0.19442	0.14649	0.21971	0.058337	0.081837	0.18732	0.14326	0.22043	-2.1375	-2.3604	-2.7208	-2.5958	-2.4875	-2.8625	-2.6104	-2.6312	-2.7854	-2.475	-2.8229	-2.5229	-2.4521	-2.8708	-2.3729	-2.6333	188.621	209.544	228.677	76.764	-65.360	86.092	65.479	56.493	57.139	-27.854	285.220	1.115	137.997	179.491	182.443	139.778	0.0001716	0.00029205	0.00017238	443.22	5.5483e-06	5.1125e-06	570.84	134.37	7.8904e-06	2.0484e-06	250.95	95.051	47.871	16.455	6.3674e-06	40.576	0.0019142	0.0022158	0.00062417	450.19	2.3887e-05	2.4663e-05	574.39	137.21	2.479e-05	2.484e-05	358.02	96.258	51.1	17.489	2.3925e-05	41.524	-66.939	90.756	65.664	-55.120	95.853	11.336	-54.512	-49.453	246.426	19.652	-50.326	-45.739	-45.356	-41.086	164.490	-41.871	-8191	255	
17502.857	1	1	0	0	0.10133	0.037502	0.044525	0.23538	0.12306	0.14307	0.13295	0.068689	0.11806	0.23955	0.20304	0.15654	0.10244	0.054224	0.12655	0.09606	-2.15	-2.3458	-2.5687	-2.7542	-2.5187	-2.7896	-2.8167	-2.7521	-2.7833	-2.4771	-2.6937	-2.55	-2.3521	-2.7188	-2.2917	-2.5271	122.879	289.571	202.786	52.004	193.711	-47.892	185.706	48.815	153.728	196.659	25.502	-18.817	-0.890	-15.859	257.522	221.975	0.0002783	0.00021456	0.00012293	442.73	1.3811e-05	4.8152e-06	567.63	133.75	3.5253e-06	3.2513e-06	252.34	94.97	48.053	16.5	9.5381e-06	40.899	0.0019824	0.0022965	0.00065236	449.56	2.4635e-05	2.5246e-05	571.83	136.78	2.4854e-05	2.4971e-05	354.63	96.393	51.012	17.497	2.3713e-05	41.732	285.655	39.995	1.951	-55.219	130.712	56.758	-54.457	-49.686	58.132	109.978	-50.000	-46.133	-44.942	-41.268	156.126	-41.798	-8191	255	
17502.953	1	1	0	0	0.23544	0.080175	0.1786	0.11111	0.16068	0.13325	0.07592	0.29479	0.1544	0.22119	0.2607	0.17098	0.088667	0.13381	0.12707	0.066124	-2.2604	-2.4854	-2.6271	-2.5875	-2.4667	-2.8187	-2.45	-2.5187	-2.5542	-2.5	-2.5104	-2.5792	-2.3521	-2.7042	-2.625	-2.4958	239.876	271.662	155.473	-10.466	190.436	245.905	272.105	28.470	233.498	61.935	-26.130	265.531	251.726	270.471	68.534	149.856	0.00017467	0.00063274	8.2108e-05	440.46	2.4581e-06	7.4983e-06	567.18	132.55	4.4441e-06	5.4175e-06	247.63	95.047	47.958	16.426	7.9125e-06	40.939	0.0020061	0.0023253	0.00064048	449.74	2.5074e-05	2.5683e-05	573.53	136.71	2.6322e-05	2.5724e-05	360.59	96.744	51.07	17.462	2.4699e-05	41.829	288.011	23.692	38.465	-55.299	135.004	79.590	-54.201	-49.543	111.069	36.765	-50.911	-45.869	-45.159	-41.061	160.390	-41.866	-8191	255	
17503.072	1	1	0	0	0.061047	0.17472	0.30023	0.075077	0.1533	0.11467	0.26093	0.13509	0.034553	0.12293	0.075402	0.24324	0.07758	0.19169	0.30082	0.15645	-2.2146	-2.4083	-2.6229	-2.7313	-2.4375	-2.7708	-2.6729	-2.525	-2.7146	-2.4771	-2.4542	-2.7729	-2.5271	-2.4688	-2.4646	-2.4792	-27.510	104.353	101.427	273.862	-9.048	228.718	222.754	-25.996	158.307	-43.220	123.996	282.869	71.573	162.626	-38.495	-37.720	0.00017765	0.00023239	0.00022765	443.31	4.6937e-06	4.175e-06	570.98	133.25	2.8803e-06	6.2895e-06	244.79	95.144	47.988	16.349	3.581e-06	40.541	0.0020474	0.0023012	0.00065438	452.76	2.5132e-05	2.5169e-05	575.53	137.12	2.5452e-05	2.5278e-05	362.18	96.737	51.066	17.441	2.5266e-05	41.58	286.150	57.746	67.388	-54.971	103.239	19.724	-54.281	-49.234	241.909	115.878	-50.002	-45.697	-45.289	-41.458	44.254	-42.046	-8191	255	
17503.168	1	1	0	0	0.1634	0.25321	0.49104	0.14852	0.16787	0.30963	0.1006	0.12709	0.148	0.12465	0.051023	0.19881	0.19727	0.18719	0.12689	0.11354	-2.3958	-2.5479	-2.4229	-2.5646	-2.4458	-2.6125	-2.5938	-2.4938	-2.6833	-2.6	-2.5167	-2.7917	-2.4437	-2.5771	-2.6896	-2.4042	213.785	-0.873	178.342	-53.992	238.444	75.563	280.180	240.643	195.870	120.947	28.711	262.602	229.739	-53.634	219.501	175.566	0.0002174	0.0010534	0.0001628	439.88	4.1229e-06	4.3459e-06	568.54	132.6	5.0756e-06	5.3772e-06	246.05	94.04	47.847	16.451	2.6548e-06	40.55	0.0020245	0.0022791	0.00065168	450.5	2.5203e-05	2.4839e-05	571.71	136.8	2.6212e-05	2.5046e-05	366.63	95.924	50.785	17.366	2.571e-05	41.39	260.010	7.512	276.903	-55.194	-37.824	-48.081	-54.183	-49.536	189.436	166.319	-49.121	-45.948	-45.265	-40.963	106.693	-41.917	-8191	255	
17503.264	1	1	0	0	0.19566	0.20027	0.054594	0.29153	0.32824	0.26624	0.19381	0.22357	0.25332	0.16081	0.17988	0.13426	0.15995	0.13452	0.23683	0.28154	-2.2083	-2.5	-2.4	-2.8854	-2.3167	-2.7458	-2.85	-2.5333	-2.8187	-2.6104	-2.4333	-2.7854	-2.5979	-2.7375	-2.6354	-2.4813	118.298	222.767	53.733	238.382	235.954	218.572	285.853	260.682	50.025	14.318	-29.336	49.992	209.689	74.645	29.722	-17.810	0.00018283	0.00099735	0.00019067	438.77	2.6964e-06	7.365e-06	569.46	133.65	4.4509e-06	2.2412e-06	249.09	94.083	47.905	16.323	8.4242e-06	40.57	0.0020077	0.0022426	0.00066273	450.99	2.4969e-05	2.5334e-05	571.53	137.16	2.5177e-05	2.558e-05	365.14	95.968	50.844	17.432	2.6295e-05	41.509	287.612	74.703	18.673	-55.109	203.324	41.501	-54.250	-49.448	100.971	-33.287	-51.240	-45.574	-45.305	-41.109	17.270	-41.995	-8191	255	
17503.359	1	1	0	0	0.16561	0.17487	0.13527	0.33368	0.30153	0.095148	0.19444	0.08593	0.053473	0.11356	0.18249	0.17873	0.18818	0.25092	0.03827	0.1688	-2.4292	-2.4083	-2.5167	-2.6917	-2.5479	-2.6562	-2.7917	-2.5083	-2.5896	-2.6792	-2.3937	-2.6792	-2.3917	-2.6583	-2.7188	-2.7729	11.922	290.960	202.243	177.625	269.031	34.554	263.817	-14.074	-54.618	243.517	262.949	273.403	223.619	118.440	36.158	70.950	0.00029725	0.00026095	0.00034479	440.81	3.5611e-06	4.5802e-06	569.88	133.67	4.433e-06	5.2308e-06	244.47	94.734	47.964	16.4	9.8093e-06	40.682	0.0019693	0.0023115	0.00067259	450.39	2.4248e-05	2.5961e-05	574.52	137.37	2.5039e-05	2.6018e-05	362.82	96.484	50.973	17.444	2.5651e-05	41.654	285.175	-26.024	10.403	-54.856	267.420	92.950	-54.474	-49.369	60.963	131.529	-50.901	-45.836	-45.174	-41.186	-2.171	-41.841	-8191	255	
17503.455	1	1	0	0	0.26642	0.13038	0.089104	0.27742	0.33637	0.12762	0.21362	0.19269	0.20986	0.14267	0.21524	0.35575	0.089042	0.43437	0.2614	0.26243	-2.2229	-2.5563	-2.4771	-2.8542	-2.5458	-2.725	-2.9	-2.5708	-2.8396	-2.6562	-2.275	-2.8375	-2.7875	-2.6354	-2.725	-2.5708	35.757	168.531	199.133	283.474	38.735	270.200	112.202	61.579	170.433	219.325	85.841	196.558	192.121	-40.569	90.642	279.786	0.00025398	0.00032652	0.0002565	443.61	2.5462e-06	6.0305e-06	570.57	134.25	5.0412e-06	3.0837e-06	248.83	94.811	47.869	16.454	2.0951e-06	40.765	0.0019258	0.002343	0.00065962	452.55	2.3739e-05	2.5598e-05	574.8	137.37	2.396e-05	2.5343e-05	361.04	96.588	50.748	17.427	2.5382e-05	41.473	-38.608	9.755	18.939	-55.132	86.593	4.851	-54.468	-49.247	176.122	132.732	-49.775	-46.062	-45.331	-41.108	73.335	-41.813	-8191	255	
17503.553	1	1	0	0	0.21156	0.10159	0.24432	0.22575	0.30454	0.33211	0.17028	0.13997	0.05771	0.13254	0.22053	0.11716	0.20332	0.085029	0.06955	0.36892	-2.1646	-2.7458	-2.4729	-2.8021	-2.575	-2.6792	-2.7167	-2.6188	-2.6271	-2.6896	-2.2917	-2.6312	-2.4583	-2.4625	-2.5604	-2.5938	-37.426	141.047	285.042	280.294	11.311	2.149	259.373	172.548	223.877	245.405	267.612	21.618	198.485	290.275	167.097	205.657	0.00030946	0.0004548	5.7664e-05	439.57	1.1895e-05	8.6898e-06	564.6	133.92	3.3583e-07	6.0629e-06	249.12	94.484	47.853	16.449	3.7287e-06	40.708	0.0018879	0.0022637	0.00062498	448.08	2.3443e-05	2.4785e-05	570.05	136.22	2.3828e-05	2.5006e-05	353.69	95.585	50.667	17.414	2.4106e-05	41.372	-56.243	57.987	172.914	-54.700	27.609	98.506	-54.671	-49.336	237.062	-47.148	-49.786	-45.737	-45.552	-41.036	123.418	-41.991	-8191	255	
17503.674	1	1	0	0	0.26347	0.057156	0.14547	0.172	0.12356	0.11706	0.13683	0.059107	0.12712	0.053498	0.078471	0.1347	0.21946	0.19383	0.222	0.18809	-2.1021	-2.8208	-2.3563	-2.7208	-2.8063	-2.4688	-2.7146	-2.6146	-2.6104	-2.7104	-2.3729	-2.7896	-2.5104	-2.4292	-2.7938	-2.4521	106.583	57.650	269.881	1.565	-65.954	-63.666	232.273	286.314	149.203	144.987	124.073	173.733	-60.253	5.209	35.932	265.458	0.00020259	0.00015652	0.00012399	440.69	1.0967e-05	2.3676e-06	567.57	134.15	2.9058e-06	7.1442e-06	255.42	95.165	47.888	16.612	9.0447e-06	41.021	0.0019044	0.0021944	0.00060544	446.92	2.3627e-05	2.4183e-05	569.12	136.38	2.3477e-05	2.4799e-05	351.72	96.119	50.771	17.45	2.3479e-05	41.59	-58.721	71.110	18.373	-55.212	113.992	96.671	-54.506	-49.597	157.837	121.114	-49.647	-45.618	-45.121	-41.218	65.834	-41.996	-8191	255	
17503.770	1	1	0	0	0.14079	0.052167	0.27241	0.2572	0.10616	0.065322	0.23494	0.19127	0.39929	0.10402	0.058407	0.071677	0.12789	0.010483	0.1128	0.28795	-2.025	-2.7313	-2.5146	-2.7	-2.6854	-2.5854	-2.6833	-2.6896	-2.5417	-2.9208	-2.5542	-2.675	-2.7438	-2.3542	-2.7604	-2.6396	-17.225	-65.964	-4.449	-23.652	144.814	142.800	-66.396	-62.409	77.021	210.378	144.949	-35.062	220.603	132.239	85.496	269.422	0.00019056	0.00038838	0.00023171	441.2	8.4421e-06	4.8896e-06	571.69	134.72	6.2798e-06	3.8168e-06	252.39	96.113	48.6	16.675	8.7006e-06	41.269	0.0018507	0.0020742	0.00056622	447.29	2.2637e-05	2.2976e-05	572.6	137.16	2.229e-05	2.3978e-05	343.08	96.955	51.173	17.497	2.1711e-05	41.861	-57.880	25.731	-20.329	-55.247	96.975	67.325	-54.099	-49.501	54.166	243.063	-50.548	-45.805	-45.337	-41.157	85.107	-42.125	-8191	255	
17503.863	1	1	0	0	0.1778	0.21913	0.089002	0.070969	0.22073	0.048182	0.19165	0.17261	0.14665	0.2851	0.12612	0.32697	0.18032	0.14202	0.13525	0.065495	-1.9854	-2.6708	-2.4042	-2.6333	-2.7792	-2.6375	-2.8771	-2.6917	-2.6	-2.8187	-2.5917	-2.6771	-2.775	-2.4667	-2.6771	-2.7771	147.735	-29.262	34.128	-14.427	88.424	-66.096	-33.376	165.725	75.950	25.775	228.462	234.360	170.977	-52.913	245.294	4.166	0.00019593	0.00061463	0.00011846	442.93	5.4801e-06	2.5619e-06	575.89	134.21	1.1384e-05	6.6116e-06	246.86	95.847	48.565	16.703	1.2563e-05	40.9	0.0017948	0.0020284	0.00054448	450.26	2.2291e-05	2.212e-05	574.77	137.34	2.1828e-05	2.265e-05	342.11	96.89	50.9	17.465	2.2173e-05	41.664	283.949	15.490	-8.567	-54.747	-30.196	97.317	-54.299	-49.573	118.052	102.861	-50.346	-45.646	-45.137	-41.411	112.759	-41.660	-8191	255	
17503.938	1	1	0	0	0.20134	0.32484	0.11688	0.051996	0.11758	0.18697	0.085904	0.31228	0.19232	0.11167	0.24409	0.17462	0.0909	0.20855	0.19197	0.14723	-1.9271	-2.7042	-2.5563	-2.5854	-2.65	-2.4375	-2.4708	-2.5333	-2.4583	-2.8354	-2.5687	-2.525	-2.9271	-2.4938	-2.6083	-2.7792	-35.792	170.085	-20.707	138.654	262.659	-5.133	268.106	192.034	30.997	-24.913	-34.247	236.789	279.271	122.472	287.196	188.711	0.00014444	0.0004789	0.00011344	442.09	5.8903e-06	9.7297e-06	571.05	133.77	7.6836e-06	1.2541e-06	250.39	95.012	48.642	16.633	2.0721e-05	40.774	0.001777	0.0019696	0.00054749	449.13	2.2469e-05	2.1998e-05	570.8	136.77	2.1857e-05	2.2843e-05	345.53	96.306	51.022	17.423	2.2237e-05	41.501	284.270	291.627	56.075	-55.355	139.378	100.748	-54.271	-49.522	58.209	254.226	-49.395	-46.165	-45.618	-41.078	136.163	-41.938	-8191	255	
17504.057	1	1	0	0	0.054267	0.23683	0.26665	0.045864	0.22333	0.087305	0.13532	0.19629	0.18962	0.21845	0.30222	0.31472	0.18517	0.062505	0.042454	0.26772	-2.0604	-2.8812	-2.5792	-2.4875	-2.6729	-2.7229	-2.6396	-2.6875	-2.3833	-2.8646	-2.6271	-2.5958	-2.7625	-2.5729	-2.5542	-2.7625	273.172	28.474	26.683	266.763	128.421	208.000	184.222	259.649	269.451	222.906	9.963	-66.540	189.641	152.665	177.718	180.901	0.00017886	0.0005645	0.00011351	442.09	1.2054e-05	5.5354e-06	574	134.39	5.903e-06	1.702e-06	250.22	95.306	48.285	16.635	6.8451e-06	40.791	0.0018007	0.0019547	0.00056522	448.13	2.2896e-05	2.1554e-05	572.54	137.34	2.1919e-05	2.1854e-05	347.45	96.383	50.875	17.377	2.2521e-05	41.605	267.567	24.986	124.370	-55.016	73.451	112.864	-54.486	-49.323	167.413	168.818	-49.610	-45.979	-45.526	-41.176	10.585	-41.897	-8191	255	
17504.152	1	1	0	0	0.087065	0.241	0.29491	0.26535	0.10296	0.27381	0.31259	0.27907	0.045363	0.071196	0.19373	0.15059	0.23106	0.045514	0.14845	0.17976	-2.2917	-2.6896	-2.4896	-2.5604	-2.6625	-2.3958	-2.5667	-2.8083	-2.3646	-2.8187	-2.6479	-2.3708	-2.7125	-2.5521	-2.4354	-2.6833	8.347	125.365	260.352	180.095	249.038	133.342	255.242	207.456	-44.348	114.813	209.852	250.539	283.203	-48.377	285.114	227.166	0.00010492	0.00019482	0.00028841	442.5	7.2884e-06	3.1763e-06	577.66	134.54	4.3556e-06	3.257e-06	251.55	95.965	48.616	16.648	1.1044e-05	41.175	0.0017522	0.0019347	0.0005772	449.56	2.1955e-05	2.1521e-05	576.23	137.23	2.1325e-05	2.2855e-05	349.55	96.939	50.909	17.409	2.2223e-05	41.864	-60.796	-16.598	11.474	-54.979	116.337	167.811	-54.190	-49.224	71.099	64.268	-49.857	-45.818	-45.217	-40.953	57.338	-41.775	-8191	255	
17504.248	1	1	0	0	0.20019	0.15831	0.14977	0.24648	0.11107	0.20673	0.25472	0.09225	0.26376	0.19953	0.14539	0.14772	0.11629	0.18123	0.13629	0.12939	-2.0167	-2.6042	-2.8292	-2.6333	-2.7	-2.7208	-2.5708	-2.6063	-2.625	-2.6958	-2.6417	-2.3542	-2.8417	-2.6937	-2.4688	-2.7792	85.410	217.097	50.201	265.687	195.360	256.767	238.815	-43.580	153.780	168.315	220.538	159.796	243.172	244.320	134.516	-58.372	0.00021684	0.00061682	0.00014636	444.65	6.4585e-06	1.7341e-06	572.19	134.58	7.0439e-06	1.908e-06	250.93	95.031	48.069	16.366	8.1663e-06	40.619	0.0017144	0.0020066	0.00058121	450.29	2.2346e-05	2.2222e-05	575.03	137.61	2.0784e-05	2.2845e-05	349.93	96.252	50.53	17.285	2.2355e-05	41.368	-39.744	-23.758	38.712	-55.044	41.952	-23.310	-54.087	-49.587	135.607	146.609	-50.101	-45.919	-45.253	-41.116	284.120	-42.002	-8191	255	
17504.344	1	1	0	0	0.14416	0.029855	0.33684	0.2994	0.063392	0.0087466	0.23921	0.20583	0.16966	0.20627	0.24366	0.037883	0.053188	0.26294	0.14231	0.071959	-2.05	-2.6458	-2.6271	-2.4417	-2.775	-2.4396	-2.5792	-2.6437	-2.5062	-2.6688	-2.8625	-2.4896	-2.6875	-2.6708	-2.4188	-2.8729	264.288	217.987	238.786	59.282	12.689	256.206	172.496	-53.424	252.384	108.904	-42.949	-21.194	-43.312	246.597	72.613	-29.007	0.000206	0.00023697	0.00013598	443.51	1.5374e-05	7.5458e-06	570.99	133.66	5.8683e-06	2.0305e-06	248.29	94.721	48.015	16.553	3.7796e-06	40.594	0.0016973	0.0020396	0.00058341	448.4	2.1309e-05	2.2698e-05	571.34	136.16	2.1062e-05	2.3095e-05	349.47	95.68	50.323	17.332	2.1888e-05	41.238	-59.464	-54.859	-21.603	-55.167	174.478	119.537	-54.184	-49.682	242.332	101.012	-49.623	-45.916	-45.578	-41.253	227.385	-41.832	-8191	255	
17504.465	1	1	0	0	0.04084	0.070325	0.065902	0.27152	0.31399	0.12582	0.29852	0.040996	0.055098	0.32663	0.35414	0.089903	0.18681	0.17916	0.12026	0.25417	-2.0125	-2.4188	-2.6375	-2.35	-2.5	-2.7	-2.7687	-2.7479	-2.4813	-2.5146	-2.7583	-2.65	-2.7625	-2.6542	-2.4667	-2.7354	18.197	136.136	239.971	-29.953	174.365	244.481	258.531	-20.357	122.109	-61.702	233.730	138.427	199.415	-21.988	159.313	268.926	0.00018487	0.00071161	0.0001835	439.3	7.9382e-06	5.0496e-06	568.61	134.04	3.9746e-06	8.4016e-06	246.8	95.288	48.176	16.466	2.065e-06	40.951	0.0017054	0.0020504	0.00057038	445.07	2.2189e-05	2.2377e-05	571	136.09	2.1059e-05	2.2476e-05	347.21	95.81	50.555	17.277	2.1554e-05	41.464	-54.953	29.698	42.608	-54.911	110.832	37.514	-54.303	-49.440	217.627	37.894	-50.257	-45.652	-45.549	-41.085	-38.410	-41.980	-8191	255	
17504.537	1	1	0	0	0.22827	0.06661	0.14188	0.14565	0.038772	0.13475	0.12127	0.065128	0.13226	0.13744	0.031666	0.42784	0.086623	0.16237	0.10844	0.22712	-2.0667	-2.3354	-2.5646	-2.3417	-2.5375	-2.6646	-2.5625	-2.5729	-2.5417	-2.525	-2.5187	-2.5438	-2.5875	-2.5292	-2.2542	-2.7396	68.704	161.156	49.482	-52.723	97.673	-12.155	-64.091	156.978	164.001	-10.331	-1.824	-25.444	190.793	104.908	179.363	159.739	0.00028959	0.00090257	6.0981e-05	441.01	2.7537e-06	4.1219e-06	572.42	134.03	2.3282e-06	3.2465e-06	257.43	94.717	48.268	16.472	7.5155e-06	40.688	0.0017521	0.0020192	0.00056168	445.28	2.1921e-05	2.2167e-05	572.34	136.13	2.133e-05	2.2169e-05	350.17	96.031	50.75	17.23	2.1242e-05	41.405	264.629	15.296	12.926	-55.242	181.688	40.383	-54.539	-49.398	-49.485	157.811	-51.111	-45.810	-44.978	-40.750	78.738	-42.178	-8191	255	
17504.633	1	1	0	0	0.066224	0.056245	0.23769	0.29269	0.30444	0.18303	0.27525	0.14855	0.1788	0.15272	0.068315	0.13636	0.218	0.41136	0.25006	0.10935	-2.175	-2.3771	-2.7188	-2.4375	-2.5375	-2.8021	-2.5625	-2.7167	-2.4479	-2.5708	-2.7479	-2.4917	-2.4833	-2.8563	-2.3563	-2.875	210.320	13.219	-29.945	139.682	186.056	115.071	290.306	250.288	-2.262	285.766	124.668	-4.236	275.226	230.353	246.048	266.543	0.00032377	0.00097726	0.00012408	438.76	6.8017e-06	1.5855e-06	574.22	132.95	2.7173e-06	7.3026e-06	253.53	94.895	48.348	16.427	1.4282e-05	40.593	0.0017649	0.0019975	0.00054301	445.1	2.1998e-05	2.283e-05	571.89	136.09	2.1726e-05	2.2319e-05	342.39	95.675	50.459	17.173	2.0205e-05	41.244	-37.307	-25.426	58.876	-54.923	80.302	-39.959	-54.354	-49.189	104.575	49.874	-50.473	-45.928	-45.298	-41.215	54.580	-41.850	-8191	255	
17504.754	1	1	0	0	0.23	0.114	0.15975	0.16939	0.13975	0.10495	0.15055	0.20863	0.42023	0.078353	0.16246	0.071694	0.14018	0.18665	0.19684	0.065667	-2.2	-2.5333	-2.7125	-2.6104	-2.4979	-2.8354	-2.5521	-2.6979	-2.5083	-2.5312	-2.8167	-2.5625	-2.5125	-2.7375	-2.45	-2.6833	186.934	-13.820	-64.562	121.687	90.534	128.140	261.297	99.882	290.466	218.016	61.350	206.622	162.229	-56.047	-41.575	-30.332	0.00025081	0.00031055	0.00011429	434.38	1.226e-05	2.5517e-06	564.76	132.69	3.9892e-06	1.083e-06	248.18	95.135	47.78	16.449	4.9273e-06	40.369	0.0017211	0.001938	0.00051785	442.57	2.1108e-05	2.1975e-05	565.46	135.37	2.1003e-05	2.1312e-05	339.6	95.914	50.341	17.123	1.9741e-05	41.161	280.239	257.493	-12.431	-55.069	51.889	193.264	-54.318	-49.456	-9.908	-9.350	-50.268	-45.780	-45.297	-41.289	175.504	-42.008	-8191	255	
17504.850	1	1	0	0	0.19895	0.18334	0.27648	0.11223	0.11598	0.24944	0.15229	0.10981	0.024516	0.17651	0.087304	0.13304	0.19997	0.22887	0.062414	0.21819	-2.2708	-2.4188	-2.75	-2.7479	-2.4604	-2.6333	-2.5604	-2.6292	-2.7687	-2.4375	-2.6229	-2.5687	-2.4646	-2.7229	-2.3396	-2.6125	39.638	50.669	24.265	264.065	241.589	196.343	272.063	-18.861	1.199	81.877	235.663	254.612	-62.512	280.197	260.189	227.202	0.00015651	0.00022279	0.00021665	436.23	1.2676e-05	1.6642e-06	568.91	132.83	9.404e-06	4.5728e-06	249.18	95.165	47.972	16.368	9.9441e-06	40.713	0.0016986	0.0018652	0.00051287	442.99	2.0571e-05	2.1824e-05	568.07	135.73	2.038e-05	2.041e-05	338.49	95.805	50.25	17.096	1.9876e-05	41.314	287.810	12.017	52.542	-55.437	57.616	-58.753	-54.481	-49.603	90.407	154.238	-50.625	-45.642	-45.310	-41.259	121.040	-42.138	-8191	255	
17504.945	1	1	0	0	0.12221	0.16625	0.072659	0.30103	0.18543	0.060362	0.16096	0.24903	0.035569	0.23135	0.21842	0.098036	0.054894	0.19713	0.077233	0.095221	-2.3688	-2.3542	-2.6375	-2.6854	-2.5917	-2.7979	-2.5479	-2.6437	-2.8125	-2.4292	-2.7271	-2.775	-2.5583	-2.7083	-2.6729	-2.5417	286.443	287.917	215.274	263.410	75.865	83.120	257.976	-50.905	288.041	89.580	175.576	60.649	183.815	201.003	215.922	196.160	0.00029839	0.00013172	0.00022638	439.4	4.7353e-06	3.0775e-06	573.59	134.57	3.9977e-06	2.983e-06	254.29	95.817	48.007	16.438	2.3108e-06	41.198	0.0017124	0.0018007	0.00051201	445.55	2.0202e-05	2.0286e-05	573.49	136.31	2.0152e-05	1.973e-05	346.22	96.713	50.442	17.114	2.03e-05	41.635	278.443	211.231	-20.956	-55.181	181.475	143.538	-54.462	-49.400	141.155	-56.293	-51.155	-45.941	-45.006	-41.162	54.810	-41.938	-8191	255	
17505.064	1	1	0	0	0.23731	0.14783	0.13159	0.14667	0.07741	0.19789	0.22529	0.24741	0.18394	0.20324	0.12817	0.085821	0.25988	0.079186	0.028821	0.10183	-2.3333	-2.4708	-2.7167	-2.6854	-2.4333	-2.6479	-2.6562	-2.6521	-2.7938	-2.5417	-2.6208	-2.7229	-2.3771	-2.6188	-2.5938	-2.3896	180.814	-45.496	254.762	-37.237	10.292	171.890	226.234	-36.715	58.861	210.149	92.519	157.655	271.783	196.867	10.272	139.103	0.00016854	0.00020418	0.00013371	441.18	5.2536e-06	5.6377e-06	573.37	133.74	5.7895e-06	1.6442e-06	251.86	95.151	48.055	16.432	4.3932e-06	40.739	0.0016506	0.0017497	0.00052371	445.27	1.9544e-05	2.065e-05	572.42	135.92	1.9432e-05	1.9658e-05	339.62	96.002	50.165	17.084	2.0131e-05	41.346	288.572	54.005	41.460	-55.045	-34.561	226.826	-54.375	-49.336	106.005	190.672	-50.157	-46.023	-45.428	-40.946	102.016	-41.591	-8191	255	
17505.160	1	1	0	0	0.30494	0.15318	0.27779	0.1098	0.20725	0.21639	0.11457	0.21077	0.098319	0.083625	0.068947	0.22643	0.19868	0.14719	0.10247	0.092379	-2.4188	-2.5083	-2.5563	-2.8854	-2.3083	-2.6937	-2.5771	-2.5229	-2.8708	-2.7375	-2.6333	-2.7729	-2.3375	-2.6604	-2.6146	-2.4938	254.117	84.932	71.230	-4.718	-59.948	60.578	-38.687	143.986	115.092	269.602	260.471	-54.587	-43.802	-46.461	205.690	140.237	0.00023853	0.00038307	5.3104e-05	437.26	1.0047e-05	5.6876e-06	569.43	133.67	7.2963e-06	7.9895e-06	253.23	95.15	48.594	16.499	7.4268e-06	40.971	0.0016524	0.001785	0.00052655	443.34	1.8979e-05	2.0455e-05	568.14	135.68	1.8741e-05	2.025e-05	337.36	96.101	50.178	17.158	2.0105e-05	41.419	246.924	117.525	-40.160	-55.213	115.982	-40.412	-54.074	-49.177	64.365	131.935	-49.580	-45.557	-45.315	-41.117	31.354	-41.973	-8191	255	
17505.232	1	1	0	0	0.11409	0.16219	0.28759	0.11792	0.2914	0.23386	0.17379	0.18549	0.058069	0.21051	0.17486	0.18566	0.19361	0.22852	0.053033	0.055315	-2.3167	-2.6542	-2.5271	-2.7667	-2.6292	-2.7271	-2.8146	-2.2417	-2.9271	-2.6042	-2.6854	-2.8312	-2.4583	-2.5958	-2.8021	-2.5438	129.266	28.227	-64.939	-45.823	81.202	167.490	140.100	95.715	-23.114	-29.143	128.341	261.144	-14.180	99.272	-61.410	104.381	0.00023743	0.00026843	0.00018915	442.28	1.1622e-05	5.8184e-06	570.82	134.17	7.0215e-06	4.0299e-06	256.79	95.888	48.403	16.591	6.2333e-06	41.044	0.0015757	0.0018594	0.00052497	445.86	1.8826e-05	2.1745e-05	571.53	135.86	1.8726e-05	2.0562e-05	339.4	96.141	50.248	17.247	2.0124e-05	41.498	272.147	288.260	27.702	-54.982	63.561	134.277	-54.487	-49.374	18.754	-64.691	-49.940	-45.889	-45.238	-40.836	24.661	-41.915	-8191	255	
17505.354	1	1	0	0	0.10381	0.19224	0.10229	0.27162	0.23983	0.12922	0.179	0.10807	0.14508	0.19364	0.18974	0.2335	0.083786	0.23455	0.013409	0.12252	-2.3542	-2.5125	-2.2979	-2.7021	-2.4437	-2.5771	-2.7625	-2.4771	-2.7229	-2.8125	-2.5479	-2.7625	-2.6708	-2.7354	-2.8292	-2.6479	117.871	-16.341	97.378	-26.099	151.606	184.387	163.352	275.549	-38.212	257.469	69.361	256.886	-25.287	239.456	129.759	169.904	0.00019862	0.00053744	7.2672e-05	443.5	1.038e-05	6.6845e-06	576	134.61	7.304e-06	8.9255e-06	259.05	96.399	48.5	16.613	1.071e-05	41.497	0.0016377	0.0018559	0.00051672	446.95	1.8889e-05	2.0794e-05	575.03	136.46	1.8922e-05	2.0361e-05	336.75	96.838	50.516	17.353	1.9754e-05	41.851	281.238	62.741	219.479	-55.006	123.937	201.237	-54.398	-48.954	226.505	151.963	-51.040	-45.654	-45.195	-41.047	59.798	-42.311	-8191	255	
17505.449	1	1	0	0	0.16433	0.22624	0.24725	0.10955	0.17426	0.17581	0.1257	0.23867	0.087666	0.073199	0.11383	0.22452	0.15523	0.12966	0.16554	0.29461	-2.2625	-2.6188	-2.4167	-2.8208	-2.5667	-2.5625	-2.7604	-2.425	-2.6833	-2.6083	-2.4125	-2.7812	-2.4771	-2.4896	-2.8958	-2.5521	77.040	52.772	287.249	197.276	102.148	194.391	148.457	272.318	5.199	50.987	81.712	-24.906	73.866	-38.302	164.762	103.332	0.00024099	0.00029669	5.8843e-05	444.61	5.7673e-06	5.7437e-06	578.35	134.8	9.4054e-06	5.0231e-06	248.48	95.534	48.28	16.693	1.1676e-05	40.939	0.0016008	0.001815	0.00050257	446.27	1.9206e-05	2.0297e-05	575.2	136.34	1.9287e-05	2.0164e-05	333.11	96.201	50.289	17.287	1.9297e-05	41.435	255.390	141.858	-10.306	-54.859	279.292	52.948	-54.679	-49.605	121.770	49.870	-49.094	-45.969	-44.948	-40.896	41.672	-42.065	-8191	255	
17505.545	1	1	0	0	0.19209	0.063851	0.22882	0.19043	0.039001	0.074406	0.11651	0.083081	0.24613	0.23886	0.28729	0.07794	0.14386	0.22954	0.15128	0.09669	-2.2042	-2.6437	-2.2771	-2.6771	-2.4042	-2.4646	-2.75	-2.5146	-2.6229	-2.7	-2.4313	-2.8167	-2.4625	-2.5062	-2.7833	-2.5729	71.482	6.206	177.895	280.849	-17.838	191.505	28.325	203.874	88.676	24.212	121.962	151.954	162.765	205.387	68.244	247.604	0.0002959	0.00035774	0.00011993	442.98	6.0474e-06	6.3354e-06	574.94	134.19	4.6591e-06	8.3013e-06	252.08	95.785	48.358	16.502	6.4034e-06	41.2	0.001674	0.0018273	0.00049469	444.42	1.9331e-05	2.0094e-05	572.03	136.02	1.9495e-05	2.0077e-05	332.78	96.415	50.594	17.253	1.8698e-05	41.523	-51.779	292.533	1.233	-54.873	71.346	4.084	-54.302	-49.348	84.691	82.797	-50.008	-45.838	-45.486	-41.051	60.184	-41.760	-8191	255	
17505.641	1	1	0	0	0.16692	0.17566	0.01549	0.10971	0.037066	0.2211	0.077607	0.15678	0.063061	0.086678	0.31069	0.084553	0.25711	0.14073	0.15675	0.05771	-2.1937	-2.7146	-2.4396	-2.7062	-2.8042	-2.3104	-2.7687	-2.5396	-2.5458	-2.8688	-2.35	-2.5458	-2.6063	-2.4396	-2.7687	-2.4813	-36.826	146.396	221.565	6.012	196.445	-60.267	282.007	161.101	285.265	113.920	133.531	224.702	248.582	68.892	-11.424	-39.866	0.00024862	0.00020182	0.00021145	443.02	3.0768e-06	4.7055e-06	576.06	134.92	3.9225e-06	6.4187e-06	254.26	96.159	48.407	16.685	6.5874e-06	41.452	0.0016158	0.0018061	0.00047542	446.18	1.9559e-05	1.9907e-05	574.33	136.44	1.9447e-05	1.9799e-05	326.62	96.791	50.577	17.342	1.8226e-05	41.781	284.376	252.690	59.566	-55.329	215.411	121.382	-54.349	-49.305	36.847	87.418	-49.802	-45.819	-45.236	-41.078	84.618	-42.328	-8191	255	
17505.762	1	1	0	0	0.32846	0.32346	0.3811	0.088648	0.13302	0.15225	0.13427	0.26248	0.11622	0.19193	0.10255	0.13041	0.21726	0.082217	0.17991	0.092626	-2.1729	-2.5771	-2.1833	-2.6583	-2.7	-2.5146	-2.6625	-2.6792	-2.5917	-2.6583	-2.4292	-2.7542	-2.6125	-2.3917	-2.7521	-2.5854	230.324	4.987	-31.512	11.539	123.882	64.090	245.098	158.824	64.296	186.990	86.524	222.708	-10.684	126.668	149.053	40.750	0.00022126	0.00037873	0.00011147	446.23	1.6208e-06	7.1856e-06	578.31	135.66	6.3971e-06	6.7955e-06	256.33	96.96	48.655	16.822	6.8111e-06	41.342	0.0015957	0.0018475	0.00047564	447.67	1.9621e-05	1.9478e-05	575.59	137.34	1.9369e-05	1.9279e-05	331.76	97.338	50.769	17.432	1.8842e-05	42.002	-56.187	-9.081	81.784	-54.773	36.180	98.611	-54.355	-49.431	131.851	46.745	-51.375	-45.899	-45.438	-41.208	91.257	-41.950	-8191	255	
17505.834	1	1	0	0	0.086616	0.18597	0.16607	0.14484	0.25092	0.084917	0.16056	0.26499	0.082496	0.17927	0.097795	0.03825	0.12882	0.45799	0.11396	0.25358	-2.0938	-2.55	-2.4313	-2.5958	-2.6792	-2.3875	-2.8312	-2.5271	-2.5792	-2.6833	-2.3688	-2.5042	-2.9208	-2.5104	-2.7625	-2.6188	229.281	192.254	-4.292	-18.854	-33.585	122.016	188.044	62.394	252.366	189.289	66.516	100.544	72.485	259.509	53.285	156.135	0.00030244	0.00086609	0.00011795	446.23	7.0308e-06	8.1098e-07	576.56	134.11	2.2084e-06	6.7822e-06	252.2	95.992	48.589	16.604	2.6033e-06	41.245	0.0015907	0.0017881	0.00049518	447.81	1.9673e-05	1.9059e-05	576.72	136.8	1.9643e-05	1.8948e-05	333.74	96.664	50.599	17.244	1.939e-05	41.619	-53.410	6.612	-4.084	-54.825	160.433	217.811	-54.336	-49.067	88.715	67.901	-51.048	-45.660	-45.142	-41.229	5.814	-42.141	-8191	255	
17505.930	1	1	0	0	0.077701	0.15386	0.18163	0.14659	0.12513	0.074962	0.16805	0.11617	0.1953	0.14727	0.12095	0.37193	0.34642	0.098692	0.16551	0.2907	-1.9833	-2.7313	-2.4208	-2.7438	-2.6562	-2.4062	-2.7125	-2.8146	-2.4042	-2.8042	-2.6521	-2.5563	-2.7875	-2.5917	-2.6479	-2.7438	-59.502	253.382	-17.787	267.937	276.516	191.576	283.665	251.363	274.370	168.404	-45.067	230.521	119.732	52.598	190.462	121.440	0.0001289	0.00019284	0.00011651	440.86	2.5115e-06	9.9027e-06	575	134.75	3.4853e-06	5.8e-06	249.3	95.669	48.139	16.679	9.485e-06	41.052	0.0015897	0.001819	0.00050532	445.83	1.9295e-05	1.87e-05	573.23	136.72	1.885e-05	1.8954e-05	334.62	96.305	50.497	17.3	1.9567e-05	41.671	287.989	95.857	1.917	-54.921	34.285	60.670	-54.396	-49.622	102.426	101.214	-51.835	-45.958	-45.041	-41.559	114.103	-41.939	-8191	255	
17506.025	1	1	0	0	0.053728	0.25765	0.098763	0.097995	0.31456	0.052127	0.16451	0.27481	0.053714	0.057187	0.10123	0.21351	0.1277	0.11991	0.036188	0.04354	-2.1146	-2.8042	-2.2271	-2.5417	-2.825	-2.6063	-2.6833	-2.6	-2.3063	-2.7229	-2.6708	-2.5646	-2.7333	-2.4854	-2.65	-2.6937	134.666	207.945	-43.004	-30.775	140.768	136.088	277.087	183.307	236.221	78.018	44.444	19.376	291.973	241.428	160.598	200.574	0.00024653	0.00034462	0.00026782	442.98	2.6764e-06	5.6339e-06	576.29	134.85	3.7068e-06	7.5208e-06	249.67	95.787	48.583	16.697	2.5496e-06	41.282	0.0015256	0.0017775	0.00050781	445.76	1.8284e-05	1.9326e-05	575.74	136.96	1.8547e-05	1.9477e-05	333.77	96.697	50.571	17.342	1.9755e-05	41.763	291.403	29.120	57.118	-55.128	261.219	98.766	-54.499	-49.269	125.036	45.007	-51.130	-45.803	-45.124	-40.822	121.697	-41.964	-8191	255	
17506.145	1	1	0	0	0.10385	0.16423	0.087176	0.074691	0.16457	0.11188	0.17955	0.10539	0.19528	0.087458	0.24243	0.15914	0.15013	0.14531	0.064023	0.25989	-2.0417	-2.6125	-2.6792	-2.5604	-2.7375	-2.4354	-2.6	-2.7146	-2.3896	-2.9313	-2.4062	-2.5417	-2.8417	-2.5604	-2.5104	-2.8646	185.063	141.787	194.237	-14.369	151.748	28.004	84.074	-31.992	248.801	59.308	73.526	275.685	205.212	31.692	-33.044	216.925	0.00012255	0.00019227	6.5064e-05	442.91	5.4877e-06	3.0968e-06	578.54	134.96	2.7187e-06	4.6875e-06	255.93	96.733	49.107	16.748	7.6712e-06	41.517	0.0015026	0.0018798	0.00051027	446.68	1.8109e-05	1.9847e-05	576.63	137.17	1.8409e-05	2.0153e-05	337.65	97.236	50.913	17.394	1.977e-05	42.002	-61.750	145.290	274.789	-54.864	15.366	42.144	-54.370	-49.493	205.920	28.958	-50.558	-45.590	-45.016	-40.997	195.165	-41.992	-8191	255	
17506.240	1	1	0	0	0.13033	0.10991	0.10234	0.053703	0.064568	0.059315	0.3124	0.19456	0.062213	0.10647	0.16618	0.1167	0.21945	0.22646	0.18467	0.13269	-2.1604	-2.7375	-2.5917	-2.3667	-2.625	-2.5708	-2.5812	-2.7042	-2.4313	-2.7396	-2.7188	-2.6	-2.6688	-2.6188	-2.4896	-2.7771	187.890	217.915	195.557	-19.187	-19.198	283.872	199.676	190.338	212.105	20.077	239.092	139.349	247.364	282.248	214.728	109.125	0.00014705	0.00082721	9.483e-05	443.65	1.0664e-06	4.8799e-06	575.62	134.87	3.2987e-06	3.2308e-06	249.48	95.456	48.828	16.629	7.2896e-06	41.073	0.0015194	0.0018616	0.00051877	445.51	1.865e-05	2.0504e-05	573.5	136.83	1.883e-05	2.0139e-05	335.07	96.049	50.674	17.344	1.9999e-05	41.435	274.372	46.428	28.371	-55.070	280.831	161.682	-54.324	-49.289	-50.499	12.135	-49.991	-45.920	-44.996	-41.387	128.707	-42.066	-8191	255	
17506.338	1	1	0	0	0.048053	0.26909	0.13711	0.14105	0.082437	0.16706	0.081612	0.15747	0.23196	0.12217	0.18508	0.10813	0.31621	0.28616	0.21073	0.11375	-2.0833	-2.5708	-2.7	-2.6833	-2.8083	-2.4354	-2.525	-2.6771	-2.7083	-2.6417	-2.7083	-2.4979	-2.7229	-2.5875	-2.4188	-2.7104	40.009	-4.851	-67.082	202.429	-62.293	104.219	138.823	242.809	123.355	101.241	94.483	144.832	264.872	261.873	-35.956	213.398	0.00024964	0.000715	9.5797e-05	438.39	3.9618e-06	3.7073e-06	571.46	134.58	5.9025e-06	4.7155e-06	252.15	95.83	48.478	16.666	7.2167e-06	41.274	0.0015638	0.0019566	0.00051001	442.26	1.9236e-05	2.0221e-05	569.78	135.98	1.9083e-05	2.0104e-05	333.54	95.917	50.743	17.36	1.9414e-05	41.619	281.809	151.852	20.673	-54.994	166.134	88.417	-54.268	-49.415	169.984	209.308	-49.618	-45.895	-45.627	-41.305	122.127	-42.246	-8191	255	
17506.434	1	1	0	0	0.3544	0.083644	0.14208	0.059751	0.19112	0.23507	0.53384	0.39951	0.26107	0.17284	0.40699	0.30185	0.081335	0.036028	0.12863	0.077107	-2.0167	-2.5979	-2.8125	-2.4938	-2.6125	-2.5083	-2.45	-2.7229	-2.3438	-2.6104	-2.6229	-2.5917	-2.7229	-2.6604	-2.4417	-2.7792	-15.104	-44.510	121.710	57.340	282.234	41.813	159.320	213.153	5.086	151.952	280.633	201.101	138.807	16.124	214.356	113.370	0.00014711	0.0008293	0.00032482	439.82	1.0327e-05	2.8381e-06	570.05	133.65	1.7677e-06	5.9372e-06	252.94	95.797	48.168	16.711	5.1794e-06	41.384	0.0015721	0.0018483	0.00049591	442.05	1.9247e-05	2.0178e-05	569	135.89	1.9242e-05	2.0293e-05	330.67	96.079	50.519	17.389	1.9008e-05	41.679	289.154	49.085	55.130	-54.767	129.132	192.825	-54.364	-49.156	56.074	106.887	-49.887	-45.777	-45.005	-41.137	13.152	-41.819	-8191	255	
17506.529	1	1	0	0	0.317	0.068838	0.22741	0.15325	0.22104	0.1409	0.10776	0.14286	0.15303	0.044234	0.050906	0.071247	0.13133	0.12656	0.1438	0.18015	-1.9625	-2.4625	-2.7292	-2.5021	-2.7208	-2.7042	-2.4813	-2.7438	-2.5938	-2.5583	-2.8479	-2.6396	-2.7938	-2.8	-2.5521	-2.8271	268.858	230.647	81.490	209.387	82.619	6.279	139.583	242.524	44.290	-40.056	11.113	239.390	21.106	32.376	177.065	181.780	0.00018309	0.0004139	0.00013657	436.5	2.5354e-06	7.9404e-06	572.1	134.33	8.8656e-06	8.0404e-06	252.09	96.259	48.916	16.669	5.0646e-06	41.503	0.0015896	0.0018155	0.00051103	442.17	1.9385e-05	2.0195e-05	570.66	136.2	1.9299e-05	2.0248e-05	327.94	96.697	50.947	17.368	1.8403e-05	41.893	291.797	288.883	45.635	-54.902	101.229	59.745	-54.340	-49.569	79.613	24.508	-49.883	-45.632	-45.494	-41.024	186.021	-42.065	-8191	255	
17506.627	1	1	0	0	0.1017	0.18454	0.076564	0.10669	0.12117	0.18565	0.1467	0.12815	0.1363	0.10042	0.11347	0.2279	0.27072	0.062865	0.14712	0.25236	-2.0917	-2.5333	-2.6521	-2.5417	-2.7313	-2.8333	-2.6125	-2.7438	-2.6229	-2.6667	-2.7583	-2.6208	-2.3229	-2.7729	-2.5708	-2.8542	94.281	75.839	6.377	283.112	203.251	-36.435	231.661	201.423	158.752	204.103	200.518	-40.677	201.236	23.003	193.947	196.125	0.00017734	0.00042112	6.4193e-05	438.13	3.5248e-06	2.3761e-06	570.01	133.55	4.8508e-06	1.8915e-06	254.85	95.37	48.189	16.674	1.6334e-05	40.979	0.0015951	0.0017867	0.00049605	442.6	1.9491e-05	1.9721e-05	568.34	136.07	1.9364e-05	1.9538e-05	328.8	96.075	50.408	17.287	1.8778e-05	41.424	283.303	65.699	62.776	-55.049	62.899	-8.881	-54.637	-49.141	134.606	217.047	-48.607	-45.782	-45.231	-41.438	93.578	-42.097	-8191	255	
17506.746	1	1	0	0	0.089534	0.0765	0.20574	0.22054	0.32432	0.18114	0.17153	0.13718	0.25224	0.047764	0.29201	0.12866	0.041579	0.059431	0.31513	0.14151	-2.1104	-2.4229	-2.6688	-2.6688	-2.5375	-2.9229	-2.5583	-2.7	-2.55	-2.425	-2.7729	-2.4875	-2.5042	-2.8583	-2.3958	-2.6979	33.498	-24.178	98.172	262.808	60.089	57.045	-60.408	238.892	-12.004	133.288	262.475	242.457	103.397	202.244	144.386	213.187	0.00025367	0.00034458	0.00010093	437.36	3.6865e-06	4.3395e-06	569.75	133.66	4.5732e-06	3.86e-06	251.51	94.996	48.174	16.503	5.1174e-06	41.28	0.0016083	0.0017466	0.00051934	440.48	1.962e-05	1.9603e-05	567.21	135.69	1.9566e-05	1.9258e-05	330.92	95.65	50.231	17.226	1.9388e-05	41.545	-60.907	17.333	-22.586	-55.133	191.770	168.412	-54.416	-49.170	139.932	94.742	-50.738	-45.572	-45.059	-41.150	264.017	-42.211	-8191	255	
17506.842	1	1	0	0	0.12534	0.21373	0.15784	0.04233	0.065484	0.2902	0.22626	0.086763	0.28678	0.12917	0.096248	0.10794	0.17587	0.08272	0.10008	0.13228	-2.1	-2.5333	-2.7042	-2.6917	-2.6396	-2.6875	-2.5521	-2.5417	-2.6354	-2.4292	-2.6271	-2.7438	-2.6167	-2.8312	-2.5563	-2.7313	285.289	26.927	71.638	38.162	170.231	266.466	-47.428	-52.188	274.699	112.958	-25.466	207.422	160.425	155.731	78.290	152.350	0.00026482	0.00031192	0.00013448	435.38	1.4426e-06	2.1312e-06	571.85	134.29	9.879e-06	5.4121e-07	253.01	95.438	48.216	16.683	1.4452e-05	41.541	0.001589	0.0016896	0.00051688	440.8	1.9542e-05	1.8938e-05	568.93	136.1	1.9022e-05	1.9032e-05	334.61	96.316	50.202	17.292	1.9495e-05	41.8	281.756	35.168	41.302	-55.276	108.706	131.399	-54.525	-49.333	216.670	162.699	-50.373	-45.753	-45.054	-41.031	52.405	-41.865	-8191	255	
17506.938	1	1	0	0	0.21699	0.39292	0.092801	0.24774	0.10585	0.24085	0.23938	0.036893	0.28418	0.15236	0.1762	0.21571	0.19439	0.13614	0.11699	0.14569	-2.3125	-2.3229	-2.8167	-2.6792	-2.4396	-2.7729	-2.7167	-2.5521	-2.8229	-2.5854	-2.5521	-2.675	-2.5604	-2.7562	-2.5854	-2.6896	80.357	-33.013	-45.255	74.717	181.941	165.602	-16.590	-37.842	190.463	278.479	275.187	157.567	63.694	231.660	-57.379	48.390	0.0002452	0.00052613	0.00012169	438.32	6.9944e-06	1.0992e-05	577.55	134.54	5.0514e-06	6.8786e-07	250.21	96.219	48.348	16.765	5.3614e-06	41.488	0.0015378	0.00172	0.00053746	443.46	1.865e-05	1.9198e-05	572.01	136.27	1.87e-05	1.8961e-05	332.25	96.799	50.288	17.399	1.9448e-05	41.936	287.192	23.910	125.257	-55.220	94.264	81.151	-54.538	-49.513	129.447	126.223	-50.613	-45.946	-45.480	-40.802	4.640	-41.853	-8191	255	
17507.035	1	1	0	0	0.13841	0.013944	0.18826	0.16258	0.018155	0.19351	0.088804	0.085431	0.12668	0.06074	0.038448	0.093479	0.037982	0.12542	0.042814	0.25717	-2.2604	-2.5312	-2.6479	-2.7271	-2.4292	-2.6125	-2.7771	-2.6417	-2.6688	-2.4708	-2.6729	-2.6229	-2.425	-2.7333	-2.5771	-2.5375	216.230	102.901	219.573	287.002	85.356	-7.911	162.075	105.076	292.118	1.181	151.005	191.934	30.942	137.305	65.818	275.039	0.00014874	0.00057036	0.00032239	441.08	1.3692e-05	5.7801e-06	568.23	133.89	8.7354e-07	3.9776e-06	247.76	95.279	48.559	16.54	3.1642e-06	41.153	0.001503	0.0017599	0.00051936	443.38	1.8464e-05	1.9825e-05	569.14	135.66	1.9482e-05	1.9825e-05	334.64	95.701	50.256	17.307	1.9835e-05	41.533	270.808	-39.377	90.503	-54.990	43.329	117.437	-54.200	-49.426	94.397	72.263	-50.494	-45.929	-44.896	-41.251	145.931	-42.338	-8191	255	
17507.129	1	1	0	0	0.11761	0.23282	0.063309	0.02605	0.090643	0.038086	0.29692	0.3413	0.02866	0.077875	0.17965	0.18044	0.020806	0.23946	0.19939	0.19598	-2.3229	-2.5	-2.5167	-2.8521	-2.5271	-2.675	-2.775	-2.5563	-2.6979	-2.6771	-2.5292	-2.7292	-2.5208	-2.8208	-2.6271	-2.4688	45.753	-55.097	266.965	189.471	-41.606	64.637	72.617	234.295	111.015	-35.199	245.552	2.067	-46.044	88.028	30.796	55.934	0.00025288	0.00056079	0.00014531	438.4	9.5512e-06	2.297e-06	572.51	133.09	9.7911e-06	9.8188e-06	249.99	95.252	48.245	16.795	4.4643e-06	41.351	0.0015321	0.0018305	0.00055185	441.74	1.8903e-05	2.0248e-05	569.07	135.51	1.9431e-05	2.0269e-05	335.95	95.917	50.2	17.469	2.0239e-05	41.731	-50.223	-6.424	94.258	-55.082	74.425	7.542	-54.453	-49.172	176.333	43.651	-50.231	-45.603	-44.979	-41.130	95.818	-41.929	-8191	255	
17507.225	1	1	0	0	0.21697	0.39409	0.12844	0.11675	0.11931	0.3858	0.19235	0.12552	0.10488	0.17621	0.24704	0.086733	0.087909	0.2103	0.21051	0.23323	-2.2583	-2.4104	-2.6396	-2.9062	-2.6188	-2.7708	-2.6208	-2.5667	-2.6208	-2.6958	-2.5458	-2.8521	-2.4604	-2.7604	-2.5583	-2.6792	235.306	-32.046	12.544	-58.586	225.465	55.262	246.834	288.317	12.985	-26.604	46.071	213.833	-20.817	93.163	219.567	209.212	0.00022375	0.00074978	5.0841e-05	437.26	4.7086e-06	5.1584e-06	572.68	132.96	5.0806e-06	2.3958e-06	253.82	96.031	48.407	16.726	4.3575e-06	41.66	0.0015641	0.0018342	0.00052262	440.92	1.9077e-05	2.0079e-05	569.85	135.01	2.0164e-05	2.0082e-05	335.39	96.277	50.4	17.409	1.9526e-05	41.788	-53.824	234.423	212.540	-55.281	148.996	76.278	-54.243	-49.595	-47.489	283.409	-49.912	-45.717	-45.435	-40.821	-8.912	-41.780	-8191	255	
17507.320	1	1	0	0	0.0906	0.064042	0.21528	0.17097	0.25804	0.29273	0.11926	0.15992	0.12999	0.094914	0.27193	0.19818	0.1432	0.294	0.29682	0.046004	-2.2687	-2.5167	-2.4437	-2.6542	-2.5542	-2.6688	-2.7208	-2.6021	-2.6833	-2.6021	-2.5104	-2.9479	-2.5292	-2.4792	-2.7687	-2.5042	38.732	262.582	185.906	288.660	-26.314	185.632	204.741	129.070	220.752	-24.396	239.769	264.485	230.493	152.857	227.278	199.244	0.0001709	0.0005166	4.5853e-05	439.33	1.1812e-05	3.9777e-06	573.95	134.93	4.1172e-06	2.6166e-06	254.85	95.845	48.931	16.831	8.3892e-06	41.4	0.0015827	0.0018115	0.0005023	443.3	1.933e-05	2.0023e-05	571.25	135.9	1.9786e-05	2.0002e-05	332.43	96.805	50.674	17.532	1.8907e-05	41.88	-56.224	91.194	96.092	-55.319	78.387	125.611	-54.138	-49.763	105.425	109.799	-50.391	-45.887	-45.055	-41.233	97.675	-41.972	-8191	255	
17507.441	1	1	0	0	0.055462	0.13461	0.14015	0.28379	0.21922	0.093656	0.097292	0.11919	0.28654	0.21907	0.14139	0.13716	0.059582	0.11968	0.17845	0.050314	-2.1833	-2.7438	-2.3896	-2.6063	-2.4708	-2.7	-2.8958	-2.6188	-2.6813	-2.7146	-2.4458	-2.7354	-2.5687	-2.5521	-2.6479	-2.5604	153.269	16.314	-27.519	220.105	135.736	113.102	-8.080	188.434	14.118	-17.942	204.323	160.148	213.038	223.308	100.362	291.512	0.00021905	0.00062413	0.00025459	438.01	1.0884e-05	4.789e-06	569.07	134.48	8.379e-06	4.1515e-06	248.64	94.998	48.372	16.84	4.6596e-06	41.05	0.0015659	0.0018058	0.00048658	442.39	1.9378e-05	2.0224e-05	568	135.8	2.0591e-05	2.0237e-05	327.17	95.83	50.416	17.408	1.9057e-05	41.579	-51.574	151.046	-24.456	-55.248	105.519	261.423	-54.667	-49.576	145.721	53.853	-50.369	-46.139	-45.612	-40.845	122.460	-41.922	-8191	255	
17507.537	1	1	0	0	0.13265	0.27705	0.10523	0.10008	0.096703	0.2075	0.12868	0.07331	0.090342	0.027401	0.21335	0.075178	0.15149	0.17944	0.14061	0.1431	-2.1979	-2.6063	-2.5521	-2.9813	-2.7792	-2.6875	-2.9146	-2.2854	-2.7021	-2.6729	-2.4292	-2.6937	-2.6875	-2.6312	-2.7458	-2.6667	9.509	42.909	-52.301	247.590	172.743	186.646	-28.067	284.319	-18.450	-44.256	-57.327	111.742	150.119	-24.213	255.089	95.931	0.00026371	0.00072666	0.00010105	437.91	6.7786e-06	7.1455e-06	568.19	133.51	3.6615e-06	3.9549e-06	246.11	95.253	48.13	16.616	8.37e-06	41.292	0.0015998	0.0018094	0.00048575	443.25	1.9567e-05	2.0063e-05	566.13	135.41	2.0231e-05	2.0061e-05	331.14	95.658	50.43	17.354	2.0451e-05	41.675	-66.201	30.298	16.400	-54.868	42.032	35.839	-54.265	-49.270	13.147	44.673	-49.556	-45.740	-44.859	-41.244	109.568	-42.161	-8191	255	
17507.635	1	1	0	0	0.36395	0.075595	0.21486	0.070862	0.12523	0.20691	0.21204	0.4046	0.057987	0.19272	0.22559	0.11999	0.31686	0.10992	0.24618	0.24058	-2.2625	-2.7313	-2.6021	-2.725	-2.5458	-2.7146	-2.7542	-2.5938	-2.7875	-2.8625	-2.4542	-2.8146	-2.6979	-2.3458	-2.775	-2.7292	-47.249	75.780	37.924	249.426	16.594	60.091	253.699	259.295	224.422	116.859	170.581	117.179	-54.275	116.312	255.282	213.036	0.00020285	0.00056676	7.1435e-05	438.61	1.2055e-05	5.2454e-06	570.02	133.47	4.3242e-06	5.6427e-06	253.37	95.081	48.499	16.843	1.2839e-05	41.321	0.001645	0.0018011	0.00050509	442.19	1.9835e-05	1.9725e-05	566.53	135.57	2.1229e-05	1.9641e-05	334.04	96.043	50.57	17.372	2.0455e-05	41.884	-59.925	51.556	41.403	-55.086	108.471	104.745	-54.081	-49.231	134.976	72.344	-50.390	-45.740	-45.116	-41.419	112.455	-41.778	-8191	255	
17507.705	1	1	0	0	0.21848	0.056906	0.20289	0.33014	0.10139	0.09373	0.20592	0.12756	0.29218	0.018092	0.28852	0.17358	0.24452	0.086487	0.13337	0.079669	-2.1208	-2.4854	-2.4458	-2.6979	-2.6083	-2.4875	-2.6688	-2.6188	-2.5854	-2.7458	-2.4125	-2.8167	-2.7375	-2.6229	-2.6771	-2.7125	40.864	-32.329	142.373	-48.123	83.511	176.000	103.760	80.606	107.779	3.386	232.264	-65.095	268.589	292.294	131.639	24.128	0.00021084	0.00050901	0.0002009	439.23	1.5347e-06	6.7103e-06	570.33	134.37	1.1068e-05	1.8796e-06	248.33	96.248	48.627	16.895	3.3035e-06	41.3	0.0016408	0.0017675	0.00051653	444.98	2.0122e-05	1.9861e-05	569.86	136.06	2.0081e-05	2.0106e-05	336.32	96.635	50.541	17.423	2.1408e-05	41.885	290.038	176.317	49.859	-55.075	89.953	288.362	-54.283	-49.424	106.708	0.575	-49.624	-46.044	-45.192	-40.845	191.472	-41.805	-8191	255	
17507.826	1	1	0	0	0.33914	0.16333	0.21869	0.26396	0.27131	0.11853	0.040369	0.072974	0.12629	0.27172	0.072161	0.15933	0.20022	0.1286	0.23152	0.19514	-2.0125	-2.7188	-2.5563	-2.8937	-2.6729	-2.5604	-2.7375	-2.7021	-2.6458	-2.8354	-2.4708	-2.6458	-2.7438	-2.6688	-2.8021	-2.6167	40.106	58.366	201.616	12.948	15.144	180.264	58.540	124.888	141.914	166.256	253.873	181.549	274.447	36.462	155.197	-22.974	0.00029391	0.00051449	0.00020793	436.7	3.707e-06	5.9948e-06	569.49	133.22	3.9739e-06	2.3992e-06	247.04	94.767	48.164	16.531	2.6267e-06	40.99	0.0016212	0.0018136	0.00052752	442.7	2.0189e-05	2.0431e-05	567.05	135.69	1.9891e-05	2.1831e-05	338.75	95.69	50.413	17.261	2.1227e-05	41.434	-64.696	74.684	36.757	-54.673	115.101	-59.854	-54.410	-49.323	-8.370	14.984	-50.409	-45.859	-45.180	-41.283	135.903	-42.128	-8191	255	
17507.924	1	1	0	0	0.077898	0.22297	0.17929	0.072643	0.071756	0.26458	0.038482	0.20986	0.14427	0.1722	0.059075	0.10491	0.22223	0.10557	0.081378	0.17705	-2.275	-2.6167	-2.4354	-2.5333	-2.6917	-2.5021	-2.7562	-2.5938	-2.625	-2.6688	-2.6479	-2.7042	-2.7583	-2.4792	-2.6292	-2.9354	208.229	209.858	-30.805	238.762	272.410	257.911	56.632	207.016	235.710	-4.988	-41.695	83.466	-55.309	-67.072	61.233	173.780	0.00022088	0.00025972	0.00029957	435.27	3.5412e-06	1.5366e-06	566.71	132.9	3.9175e-06	5.3413e-06	251.44	95.103	48.207	16.635	6.5908e-06	40.863	0.0016086	0.0018602	0.00054026	442.66	1.9674e-05	2.0645e-05	566	135.43	1.939e-05	2.146e-05	339.87	95.603	50.268	17.317	2.1868e-05	41.475	-40.725	59.683	28.258	-54.964	147.190	193.480	-54.250	-49.608	122.485	55.502	-51.072	-45.802	-45.142	-40.810	183.224	-41.817	-8191	255	
17508.018	1	1	0	0	0.082712	0.12177	0.2012	0.22098	0.17676	0.31745	0.31962	0.045329	0.10075	0.22542	0.22097	0.12885	0.11848	0.066963	0.086869	0.28133	-1.8104	-2.6375	-2.5167	-2.6229	-2.9083	-2.4042	-2.9396	-2.8792	-2.3896	-2.725	-2.6437	-2.4813	-3.0583	-2.5125	-2.8312	-2.6479	194.662	139.014	-6.294	95.018	32.072	229.559	200.384	225.767	154.621	174.799	232.574	273.368	215.513	76.606	242.196	191.169	0.00025164	0.00062739	0.00011528	438.58	8.6551e-06	5.6941e-06	570.12	133.75	5.0343e-06	2.1215e-06	248.17	95.854	48.223	16.703	3.7504e-06	41.213	0.0015775	0.0018554	0.00052862	441.99	1.9721e-05	2.0767e-05	569.09	135.72	1.9532e-05	2.2038e-05	339.17	96.147	50.375	17.37	2.1082e-05	41.685	-63.807	62.962	56.265	-55.092	9.178	262.665	-54.892	-49.155	234.831	35.313	-50.263	-45.707	-45.308	-41.050	136.347	-41.986	-8191	255	
17508.115	1	1	0	0	0.012525	0.096427	0.19742	0.15257	0.1619	0.083385	0.042861	0.28593	0.16595	0.13221	0.13937	0.16564	0.091403	0.20293	0.11538	0.062078	-2.0979	-2.4833	-2.5521	-2.4292	-2.6458	-2.5729	-2.8042	-2.85	-2.6542	-2.725	-2.5208	-2.4979	-2.8271	-2.5792	-2.6312	-2.7896	110.533	284.835	141.896	32.111	89.166	229.377	214.107	223.135	84.760	246.668	140.819	233.306	77.513	222.728	-61.760	-37.641	0.00023247	0.00024299	0.00010329	436.95	5.4404e-06	3.5314e-06	573.8	132.99	8.8365e-06	3.2524e-06	249.43	95.575	48.496	16.649	1.0798e-05	40.998	0.0016026	0.0018716	0.00053194	442.28	2.0975e-05	2.0721e-05	572.41	135.59	2.0087e-05	2.1584e-05	339.43	96.444	50.57	17.399	2.2115e-05	41.625	276.638	290.968	184.137	-55.167	193.349	135.406	-54.528	-49.323	163.511	142.826	-50.701	-45.686	-45.311	-40.956	111.576	-42.214	-8191	255	
17508.234	1	1	0	0	0.033162	0.30876	0.047062	0.14246	0.21426	0.30994	0.016647	0.10766	0.15675	0.16381	0.13495	0.38075	0.26176	0.018398	0.26477	0.14448	-2.1312	-2.6333	-2.6125	-2.5938	-2.6542	-2.5271	-2.7521	-2.8104	-2.5292	-2.7667	-2.9146	-2.5729	-2.7188	-2.5812	-2.6396	-2.9	-28.475	263.417	-41.804	136.229	223.261	278.480	15.044	16.681	99.310	85.217	202.374	-64.201	198.282	5.030	235.453	44.919	0.00013851	0.00074052	0.00010439	436.72	8.878e-06	3.4879e-06	569.95	132.88	1.5508e-06	3.52e-06	254.55	94.684	47.913	16.404	7.3421e-06	40.666	0.0016734	0.001917	0.00054449	442	2.1173e-05	2.1355e-05	568.06	135.49	2.0503e-05	2.2455e-05	339.08	95.26	50.258	17.229	2.0549e-05	41.252	260.755	0.761	41.009	-55.239	53.373	38.270	-54.420	-49.386	105.748	86.927	-50.359	-45.983	-45.490	-40.999	49.123	-42.156	-8191	255	
17508.330	1	1	0	0	0.14977	0.055453	0.2416	0.33386	0.15593	0.02352	0.11051	0.13246	0.10847	0.10308	0.10217	0.12113	0.18103	0.16084	0.085244	0.26914	-2.1375	-2.6792	-2.7104	-2.4604	-2.7875	-2.6188	-2.7042	-2.8125	-2.5979	-2.6688	-2.6562	-2.4938	-2.8187	-2.7729	-2.6188	-2.8688	192.485	54.292	202.503	-60.006	-24.307	130.247	84.185	-52.756	243.899	-27.296	165.213	263.249	-56.112	74.415	4.197	228.436	0.00010715	0.00060441	0.00019322	438.38	9.4966e-06	4.4653e-06	567.68	132.69	5.838e-06	6.8441e-06	251.31	94.688	47.81	16.607	7.4595e-06	40.786	0.001689	0.0019332	0.00052501	442.32	2.1734e-05	2.1465e-05	565.87	135.09	2.0407e-05	2.1906e-05	334.18	95.448	50.381	17.325	1.9906e-05	41.444	-47.135	59.276	-54.980	-55.157	-15.961	139.505	-54.525	-49.458	64.183	113.551	-50.296	-45.998	-45.345	-41.440	90.980	-42.065	-8191	255	
17508.426	1	1	0	0	0.1592	0.20775	0.20247	0.23261	0.18274	0.13839	0.14909	0.021498	0.22552	0.14342	0.10836	0.215	0.1031	0.32094	0.25627	0.10437	-1.9458	-2.5062	-2.6417	-2.3896	-2.6854	-2.6771	-2.5458	-2.8187	-2.6104	-2.5479	-2.7667	-2.5208	-2.8146	-2.7583	-2.4792	-2.8208	100.198	-67.372	240.134	31.074	-0.208	182.831	52.301	159.194	33.101	66.256	35.396	272.271	158.540	172.726	57.874	287.140	0.00021982	0.00054294	0.00022941	437.45	9.2465e-06	5.8602e-06	566.74	133.55	5.8801e-06	2.0733e-06	249.95	95.209	48.283	16.606	1.4127e-06	40.938	0.0016814	0.0019005	0.00051578	441.94	2.11e-05	2.1282e-05	567.17	135.71	2.0317e-05	2.1966e-05	334.5	95.906	50.462	17.316	1.978e-05	41.602	292.055	-39.056	-57.053	-54.997	35.392	32.924	-54.407	-49.501	69.371	115.894	-49.973	-46.001	-45.148	-41.556	260.521	-41.858	-8191	255	
17508.521	1	1	0	0	0.23029	0.07881	0.32362	0.1402	0.17809	0.23309	0.12844	0.10613	0.24273	0.24025	0.20637	0.17662	0.28009	0.17839	0.049416	0.30485	-1.9562	-2.4125	-2.6792	-2.5125	-2.6292	-2.75	-2.4313	-2.8187	-2.6813	-2.4542	-2.6937	-2.4958	-2.6854	-2.7292	-2.3875	-2.7792	-3.491	239.719	213.437	268.836	271.284	-51.598	209.290	3.888	138.021	11.060	58.022	260.888	-46.771	274.958	59.712	159.512	0.00022116	0.00038662	4.5837e-05	439.59	1.9126e-06	6.4368e-06	571.5	133.5	2.513e-06	5.7612e-06	252.59	95.645	48.046	16.46	4.7511e-06	41.089	0.0016769	0.0018686	0.00051965	442.94	2.1834e-05	2.0562e-05	568.81	135.62	2.0512e-05	2.0652e-05	340.63	96.19	50.449	17.207	2.063e-05	41.678	-29.026	30.311	-9.668	-55.183	250.859	136.708	-54.690	-49.414	191.397	-9.389	-49.379	-45.681	-44.992	-41.264	136.600	-41.908	-8191	255	
17508.619	1	1	0	0	0.2749	0.21976	0.22258	0.13402	0.23213	0.23688	0.25252	0.066075	0.050981	0.067321	0.089361	0.12715	0.14434	0.074404	0.082777	0.20416	-2.1771	-2.6521	-2.7875	-2.6104	-2.7708	-2.7771	-2.6813	-2.9167	-2.55	-2.5667	-2.8375	-2.5812	-2.6125	-2.6292	-2.5812	-2.8229	46.684	-13.259	116.101	13.141	-53.060	123.479	228.255	-25.713	280.919	-28.477	29.954	54.629	-39.826	-58.075	157.944	57.606	0.0001592	0.00051528	0.00016948	433.72	5.5363e-06	5.0356e-06	564.02	132.88	2.0699e-06	6.0049e-06	245.65	94.561	47.427	16.505	1.8577e-06	40.646	0.0016914	0.0018442	0.00052687	440.56	2.129e-05	2.0339e-05	564.71	135.16	2.0667e-05	2.055e-05	343.99	95.279	50.053	17.161	2.0998e-05	41.2	-36.702	21.739	-31.114	-54.955	10.062	115.614	-54.396	-49.215	74.681	81.993	-49.198	-45.821	-45.325	-41.109	96.039	-41.914	-8191	255	
17508.715	1	1	0	0	0.053431	0.10523	0.071336	0.22664	0.23665	0.31839	0.10667	0.075788	0.11974	0.15609	0.25099	0.15861	0.17465	0.082464	0.19776	0.18652	-2.0146	-2.4625	-2.6667	-2.6542	-2.6104	-2.8438	-2.5187	-2.8646	-2.5479	-2.5875	-2.8104	-2.5438	-2.5625	-2.8812	-2.5021	-2.8479	131.769	35.454	38.646	235.263	232.841	230.902	219.572	183.136	248.920	248.068	129.169	227.783	292.331	-62.177	202.707	197.406	0.00024395	0.00052463	0.00028609	432.68	4.1986e-06	3.4033e-06	563.08	132.34	5.1077e-06	6.4424e-07	246.81	94.081	47.876	16.476	8.2106e-06	40.626	0.0016645	0.0018702	0.00053845	438.59	2.1259e-05	2.065e-05	564	134.83	2.0167e-05	2.0964e-05	339.96	95.228	50.072	17.15	2.0714e-05	41.337	280.033	65.804	43.763	-54.940	144.998	68.524	-54.316	-49.473	64.254	-42.249	-50.670	-45.610	-44.827	-41.271	34.206	-42.037	-8191	255	
17508.836	1	1	0	0	0.13759	0.035942	0.2316	0.2299	0.071003	0.090706	0.030974	0.11676	0.092196	0.10083	0.20719	0.098648	0.17636	0.16534	0.096006	0.12395	-2.0854	-2.3396	-2.7125	-2.7542	-2.5333	-2.8292	-2.5542	-2.6562	-2.6562	-2.3646	-2.7792	-2.6833	-2.7771	-2.8812	-2.5021	-2.8146	-23.434	-49.102	40.769	-25.698	156.201	168.592	113.116	98.899	133.468	51.587	289.070	23.609	89.525	198.493	239.575	291.320	0.00022097	0.00023555	8.8836e-05	435.35	5.0356e-06	5.9431e-07	563.07	132.39	1.0514e-05	3.8684e-06	258.27	94.844	47.677	16.407	4.9342e-06	41.198	0.0016093	0.0019129	0.00053044	438.95	1.9681e-05	2.1296e-05	563.49	134.78	1.9728e-05	2.0977e-05	344.98	95.63	50.007	17.192	2.0502e-05	41.638	-56.668	76.426	30.602	-55.243	42.172	204.123	-54.388	-49.502	89.075	98.962	-49.637	-45.756	-45.080	-41.014	56.187	-42.130	-8191	255	
17508.930	1	1	0	0	0.086297	0.2618	0.19799	0.22982	0.17807	0.077619	0.17226	0.14282	0.14188	0.17479	0.22295	0.068741	0.099584	0.30027	0.10237	0.041843	-2.3937	-2.45	-2.725	-2.5458	-2.5417	-2.875	-2.6104	-2.625	-2.7646	-2.4333	-2.7667	-2.6875	-2.5146	-2.7917	-2.4458	-2.6833	86.452	192.946	243.493	144.947	84.388	-16.193	198.867	213.237	-19.839	-47.661	147.325	232.987	110.142	-4.467	-64.008	11.823	0.00025731	0.00058169	8.8228e-05	434.26	3.8664e-06	1.8707e-06	566.06	132.66	8.4868e-06	6.3751e-06	253.89	95.16	47.573	16.535	6.2595e-06	41.066	0.0016026	0.0018958	0.00052574	438.39	1.9498e-05	2.2201e-05	567.17	134.71	1.9731e-05	2.0746e-05	339.75	95.676	50.134	17.201	2.0515e-05	41.517	289.553	-17.367	239.514	-55.143	113.020	94.885	-54.457	-49.499	110.055	121.116	-49.929	-45.616	-45.449	-41.159	4.798	-41.845	-8191	255	
17509.004	1	1	0	0	0.11353	0.18928	0.12936	0.10464	0.10798	0.14251	0.088726	0.31127	0.13204	0.04643	0.053315	0.24967	0.31	0.13825	0.14829	0.19512	-2.2771	-2.3792	-2.6958	-2.7125	-2.4437	-2.8354	-2.6583	-2.6458	-2.7292	-2.5438	-2.6437	-2.8063	-2.4917	-2.6833	-2.4688	-2.6937	-59.825	88.036	180.310	58.529	81.054	-55.559	129.867	199.011	-47.268	-58.939	180.487	-22.884	268.846	232.240	277.601	-65.404	0.00018755	0.00079687	6.3532e-05	432.49	2.1335e-06	3.8077e-06	564.16	132.16	4.9037e-06	4.3709e-06	251.11	94.313	47.757	16.455	7.8413e-06	40.555	0.001621	0.0018662	0.00053476	436.75	1.986e-05	2.1483e-05	562.17	133.84	1.9662e-05	2.0585e-05	342.72	94.964	49.927	17.109	2.0363e-05	41.05	-63.150	79.594	-34.992	-54.854	-43.906	15.196	-54.470	-49.481	96.602	-6.588	-49.524	-46.027	-45.348	-41.349	219.888	-41.995	-8191	255	
17509.098	1	1	0	0	0.046793	0.059314	0.20472	0.20193	0.15393	0.09475	0.23983	0.09505	0.10652	0.12077	0.1418	0.15571	0.19137	0.088268	0.08129	0.070387	-2.4313	-2.4667	-2.7292	-2.8187	-2.4396	-2.7271	-2.5625	-2.4771	-2.7687	-2.625	-2.7396	-2.7938	-2.3792	-2.6917	-2.375	-2.6458	-13.121	112.409	21.329	110.782	-58.548	-40.733	121.866	284.587	91.374	69.050	25.262	150.371	245.202	-14.521	282.845	42.913	0.00023563	0.00051219	7.3187e-05	431.92	1.7497e-05	5.3542e-06	565.07	132.1	6.4109e-06	1.4401e-06	248.24	94.246	47.559	16.263	1.0917e-05	40.923	0.0016785	0.0018834	0.00052734	435.62	2.0429e-05	2.1862e-05	562.82	134.03	2.0197e-05	2.0896e-05	336.53	95.064	49.877	17.102	1.9783e-05	41.286	-56.093	133.647	29.818	-55.398	131.436	71.410	-54.325	-49.080	5.089	181.847	-50.627	-45.815	-45.023	-40.749	148.842	-41.925	-8191	255	
17509.219	1	1	0	0	0.32021	0.17795	0.1144	0.24679	0.16632	0.26607	0.35814	0.16399	0.19944	0.12395	0.033152	0.21606	0.12309	0.10326	0.10183	0.061506	-2.3917	-2.3063	-2.6771	-2.8	-2.4375	-2.6562	-2.5125	-2.6562	-2.7958	-2.6708	-2.5333	-2.7375	-2.4604	-2.7917	-2.6125	-2.6479	219.609	139.525	99.593	236.412	280.926	35.769	232.972	176.540	134.122	44.888	236.781	-21.129	249.766	179.801	203.902	-46.424	0.00022937	0.00066561	0.00019795	429.37	5.9938e-06	5.598e-06	565.79	132.45	2.9647e-06	4.024e-06	245.45	95.515	47.843	16.441	6.0348e-06	41.083	0.0017313	0.0018874	0.00051202	435.74	2.014e-05	2.1522e-05	564.58	134.36	2.0078e-05	2.1082e-05	334.61	95.899	49.969	17.15	1.9338e-05	41.521	-51.394	36.962	-0.483	-55.109	236.915	36.205	-54.308	-49.439	83.980	101.960	-50.654	-45.950	-45.163	-40.949	-34.765	-42.236	-8191	255	
17509.314	1	1	0	0	0.14006	0.28581	0.084273	0.15142	0.15531	0.019508	0.14227	0.14652	0.16072	0.14636	0.19491	0.20773	0.11107	0.082236	0.14128	0.14871	-2.2687	-2.3292	-2.575	-2.7333	-2.5354	-2.7333	-2.5667	-2.6604	-2.7	-2.8167	-2.4271	-2.8458	-2.55	-2.5958	-2.7625	-2.575	-29.047	262.975	235.940	232.488	213.963	5.249	268.420	95.635	87.895	264.320	288.075	194.276	8.203	-25.953	79.304	265.103	0.00032035	0.00019106	0.00011285	434.85	3.7387e-06	4.0485e-06	568.9	132.82	6.1555e-06	1.763e-06	254.41	95.456	47.702	16.555	2.7983e-06	40.981	0.0016586	0.0018492	0.00049062	439.07	2.0219e-05	2.1494e-05	567.1	134.81	1.9811e-05	2.0172e-05	333.4	96.137	50.17	17.185	1.968e-05	41.529	-66.173	261.108	45.130	-55.470	82.238	30.169	-54.655	-49.385	138.912	52.014	-49.987	-46.057	-45.316	-41.072	217.251	-41.655	-8191	255	
17509.410	1	1	0	0	0.02733	0.21187	0.12276	0.14341	0.07139	0.11608	0.27689	0.15216	0.088245	0.079016	0.12876	0.14872	0.13033	0.10475	0.12949	0.17884	-2.3646	-2.6083	-2.5438	-2.8604	-2.625	-2.5667	-2.7104	-2.4833	-2.7583	-2.6312	-2.5417	-2.8063	-2.5771	-2.75	-2.9375	-2.5583	132.890	200.972	213.991	-49.702	159.530	263.823	220.098	41.062	213.098	266.078	24.230	-1.549	160.193	-4.110	-21.128	180.004	0.00027805	0.00066181	0.00017271	433.14	4.3936e-06	7.185e-06	563.99	132.34	9.1543e-06	3.0854e-06	244.73	95.033	48.117	16.401	4.9934e-06	40.741	0.0017035	0.001816	0.0005026	438.26	1.9968e-05	2.0447e-05	563.41	134.54	1.9479e-05	1.9744e-05	332.01	95.613	50.098	17.151	1.9533e-05	41.389	290.182	18.883	110.679	-55.091	133.278	81.139	-54.542	-49.318	95.467	80.034	-50.005	-45.664	-45.226	-41.134	21.352	-41.833	-8191	255	
17509.508	1	1	0	0	0.28357	0.1782	0.061301	0.10923	0.14231	0.076921	0.17229	0.13047	0.10116	0.25774	0.31806	0.094141	0.11944	0.18832	0.17944	0.19454	-2.2625	-2.9271	-2.5042	-2.9625	-2.7604	-2.8563	-2.7208	-2.525	-2.6312	-2.7438	-2.4417	-2.7021	-2.6063	-2.6354	-2.8604	-2.6146	212.436	-8.783	-13.193	197.417	76.927	130.120	224.217	128.440	48.545	37.704	-29.392	231.174	9.310	240.687	-30.902	7.108	0.00022059	0.00075729	0.00021513	434.68	1.0493e-05	4.3736e-06	564.94	132.77	7.7574e-06	4.9188e-06	251.12	95.274	47.98	16.585	6.2445e-06	41.326	0.0016528	0.0017607	0.00050366	437.87	1.9557e-05	2.0066e-05	564.34	134.84	1.9261e-05	1.9266e-05	334.2	95.813	50.093	17.212	1.9424e-05	41.685	277.482	38.507	6.842	-54.899	97.228	20.983	-54.498	-49.437	92.341	97.887	-50.330	-45.796	-45.483	-41.047	29.246	-42.264	-8191	255	
17509.604	1	1	0	0	0.070214	0.081643	0.20905	0.10741	0.27193	0.18418	0.15795	0.14415	0.078484	0.15436	0.23948	0.19677	0.32454	0.1056	0.49182	0.096423	-2.1458	-2.3833	-2.5354	-2.725	-2.4854	-2.5583	-2.7083	-2.6125	-2.525	-2.6854	-2.3937	-2.8104	-2.6042	-2.5646	-2.6729	-2.625	138.584	12.431	114.336	71.525	182.273	220.202	287.193	21.391	6.231	-48.065	261.367	227.487	190.774	224.468	-34.503	229.981	0.00016494	0.00089583	0.00019124	434.41	1.0334e-05	6.8486e-06	569.02	133.57	8.5135e-06	5.6039e-06	253.6	95.769	48.495	16.59	2.8697e-06	41.399	0.0016542	0.001774	0.000505	438.73	1.9142e-05	1.9717e-05	567.88	135.24	1.8817e-05	1.9618e-05	332.49	96.596	50.357	17.3	1.9516e-05	41.887	-66.259	54.930	54.367	-54.880	-51.543	55.123	-54.551	-49.162	52.015	87.500	-49.205	-45.805	-45.133	-41.191	188.012	-41.974	-8191	255	
#DATA ENDS
