BOXY.EXE: ISS Imagent and Oximeter Data Acquisition Program Version 0.80
Ascii Record File

#ACQ INFORMATION
2  Detector Channels 
16  External MUX Channels 
1  Auxiliary Channels 
5000  Waveform (CCF) Frequency (Hz)
1  Waveforms Skipped 
30  Waveforms Averaged 
1  Cycles Averaged 
16  Acquisitions per Waveform 
10.0806  Updata Rate (Hz) 

#FILE INFORMATION
TRUE -- External MUX Channel results are PARSED.
FALSE -- AC DC and Phase are NOT grouped.
TRUE -- Companion Program Settings File CREATED.
FALSE -- AC data not excluded
FALSE -- DC data not excluded
FALSE -- Phase data not excluded
FALSE -- Auxillary Chn. data not excluded
Tab delimiters

#CALIBRATION STATE
TRUE -- Waveform Calibration Values APPLIED.


#AUX CALIBRATION VALUES
Val Type	aux-1	

Term	1.0000e+00	
Factor	0.0000e+00	


#WF CALIBRATION VALUES
A = Detector Channel
Val Type	A-AC1	A-AC2	A-AC3	A-AC4	A-AC5	A-AC6	A-AC7	A-AC8	A-AC9	A-AC10	A-AC11	A-AC12	A-AC13	A-AC14	A-AC15	A-AC16	A-DC1	A-DC2	A-DC3	A-DC4	A-DC5	A-DC6	A-DC7	A-DC8	A-DC9	A-DC10	A-DC11	A-DC12	A-DC13	A-DC14	A-DC15	A-DC16	A-Ph1	A-Ph2	A-Ph3	A-Ph4	A-Ph5	A-Ph6	A-Ph7	A-Ph8	A-Ph9	A-Ph10	A-Ph11	A-Ph12	A-Ph13	A-Ph14	A-Ph15	A-Ph16	

Term	0.00000e+00	0.00000e+00	0.00000e+00	0.00000e+00	0.00000e+00	0.00000e+00	0.00000e+00	0.00000e+00	0.00000e+00	0.00000e+00	0.00000e+00	0.00000e+00	0.00000e+00	0.00000e+00	0.00000e+00	0.00000e+00	0.00000e+00	0.00000e+00	0.00000e+00	0.00000e+00	0.00000e+00	0.00000e+00	0.00000e+00	0.00000e+00	0.00000e+00	0.00000e+00	0.00000e+00	0.00000e+00	0.00000e+00	0.00000e+00	0.00000e+00	0.00000e+00	0.00000e+00	0.00000e+00	0.00000e+00	0.00000e+00	0.00000e+00	0.00000e+00	0.00000e+00	0.00000e+00	0.00000e+00	0.00000e+00	0.00000e+00	0.00000e+00	0.00000e+00	0.00000e+00	0.00000e+00	0.00000e+00	
Factor	1.00000e+00	1.00000e+00	1.00000e+00	1.00000e+00	1.00000e+00	1.00000e+00	1.00000e+00	1.00000e+00	1.00000e+00	1.00000e+00	1.00000e+00	1.00000e+00	1.00000e+00	1.00000e+00	1.00000e+00	1.00000e+00	1.00000e+00	1.00000e+00	1.00000e+00	1.00000e+00	1.00000e+00	1.00000e+00	1.00000e+00	1.00000e+00	1.00000e+00	1.00000e+00	1.00000e+00	1.00000e+00	1.00000e+00	1.00000e+00	1.00000e+00	1.00000e+00	X	X	X	X	X	X	X	X	X	X	X	X	X	X	X	X	

B = Detector Channel
Val Type	B-AC1	B-AC2	B-AC3	B-AC4	B-AC5	B-AC6	B-AC7	B-AC8	B-AC9	B-AC10	B-AC11	B-AC12	B-AC13	B-AC14	B-AC15	B-AC16	B-DC1	B-DC2	B-DC3	B-DC4	B-DC5	B-DC6	B-DC7	B-DC8	B-DC9	B-DC10	B-DC11	B-DC12	B-DC13	B-DC14	B-DC15	B-DC16	B-Ph1	B-Ph2	B-Ph3	B-Ph4	B-Ph5	B-Ph6	B-Ph7	B-Ph8	B-Ph9	B-Ph10	B-Ph11	B-Ph12	B-Ph13	B-Ph14	B-Ph15	B-Ph16	

Term	0.00000e+00	0.00000e+00	0.00000e+00	0.00000e+00	0.00000e+00	0.00000e+00	0.00000e+00	0.00000e+00	0.00000e+00	0.00000e+00	0.00000e+00	0.00000e+00	0.00000e+00	0.00000e+00	0.00000e+00	0.00000e+00	0.00000e+00	0.00000e+00	0.00000e+00	0.00000e+00	0.00000e+00	0.00000e+00	0.00000e+00	0.00000e+00	0.00000e+00	0.00000e+00	0.00000e+00	0.00000e+00	0.00000e+00	0.00000e+00	0.00000e+00	0.00000e+00	-1.99800e+02	-1.32036e+02	-1.16888e+02	-1.84163e+02	-8.14992e+01	-6.94175e+01	-1.57306e+02	-1.62015e+02	-8.64931e+01	-6.67769e+01	-1.77797e+02	-1.71882e+02	-1.81595e+02	-1.77192e+02	-7.35172e+01	-1.50103e+02	
Factor	3.79814e-05	1.92844e-04	5.09745e-05	1.70467e-01	1.91118e-06	1.87975e-06	1.61549e-01	5.09297e-02	1.97878e-06	1.84182e-06	9.46997e-01	2.66704e-02	2.93344e-02	8.92146e-03	1.95588e-06	1.25256e-02	7.13065e-06	8.70306e-06	2.43209e-06	8.69350e-02	9.20906e-08	9.60395e-08	7.77383e-02	2.60149e-02	9.20560e-08	9.54915e-08	4.40650e-01	1.32784e-02	1.50708e-02	4.60272e-03	9.35434e-08	6.26721e-03	X	X	X	X	X	X	X	X	X	X	X	X	X	X	X	X	



#DISTANCE SETTINGS
A = Detector Channel
A-1	A-2	A-3	A-4	A-5	A-6	A-7	A-8	A-9	A-10	A-11	A-12	A-13	A-14	A-15	A-16	

2.5000e+00	3.0000e+00	2.5000e+00	3.0000e+00	2.0000e+00	3.0000e+00	1.5000e+00	3.0000e+00	3.0000e+00	3.0000e+00	3.0000e+00	3.0000e+00	3.0000e+00	3.0000e+00	1.5000e+00	3.0000e+00	

B = Detector Channel
B-1	B-2	B-3	B-4	B-5	B-6	B-7	B-8	B-9	B-10	B-11	B-12	B-13	B-14	B-15	B-16	

1.0000e+01	1.0000e+01	1.0000e+01	1.4400e+00	1.0000e+01	1.0000e+01	1.5100e+00	1.9400e+00	1.0000e+01	1.0000e+01	1.9900e+00	2.4900e+00	2.4100e+00	2.9000e+00	1.0000e+01	2.9800e+00	




#DATA BEGINS
time	group	step	mark	flag	A-AC1	A-AC2	A-AC3	A-AC4	A-AC5	A-AC6	A-AC7	A-AC8	A-AC9	A-AC10	A-AC11	A-AC12	A-AC13	A-AC14	A-AC15	A-AC16	A-DC1	A-DC2	A-DC3	A-DC4	A-DC5	A-DC6	A-DC7	A-DC8	A-DC9	A-DC10	A-DC11	A-DC12	A-DC13	A-DC14	A-DC15	A-DC16	A-Ph1	A-Ph2	A-Ph3	A-Ph4	A-Ph5	A-Ph6	A-Ph7	A-Ph8	A-Ph9	A-Ph10	A-Ph11	A-Ph12	A-Ph13	A-Ph14	A-Ph15	A-Ph16	B-AC1	B-AC2	B-AC3	B-AC4	B-AC5	B-AC6	B-AC7	B-AC8	B-AC9	B-AC10	B-AC11	B-AC12	B-AC13	B-AC14	B-AC15	B-AC16	B-DC1	B-DC2	B-DC3	B-DC4	B-DC5	B-DC6	B-DC7	B-DC8	B-DC9	B-DC10	B-DC11	B-DC12	B-DC13	B-DC14	B-DC15	B-DC16	B-Ph1	B-Ph2	B-Ph3	B-Ph4	B-Ph5	B-Ph6	B-Ph7	B-Ph8	B-Ph9	B-Ph10	B-Ph11	B-Ph12	B-Ph13	B-Ph14	B-Ph15	B-Ph16	aux-1	digaux	

2234.339	1	1	0	768	0.018746	0.10648	0.27984	0.26634	0.17536	0.086713	0.18968	0.033396	0.16415	0.16655	0.27492	0.10188	0.22875	0.32559	0.24283	0.075485	-2.3583	-2.6083	-2.7521	-2.6458	-2.8208	-2.9688	-2.8771	-2.8979	-2.9917	-2.8688	-3.0458	-2.8396	-2.7833	-2.9875	-2.6271	-2.7771	117.433	206.902	273.390	244.515	190.004	127.635	101.443	4.725	192.406	277.159	111.822	-67.904	179.196	-3.023	130.423	126.109	0.00011532	0.00018979	4.8678e-05	402.19	1.2369e-06	9.6589e-07	614.04	59.381	5.3125e-07	1.211e-06	132.26	36.149	13.27	3.0133	5.5657e-07	12.493	7.8675e-05	7.0694e-05	1.9168e-05	377.58	8.1922e-07	8.0813e-07	576.56	56.373	8.7031e-07	7.9198e-07	119.1	34.422	12.809	2.9213	7.2749e-07	11.857	95.276	-15.074	-4.653	-66.189	13.577	72.120	-66.271	-61.461	148.684	97.678	-62.122	-56.313	-57.064	-50.401	153.270	-50.645	-8191	255	
2234.435	1	1	0	0	0.27663	0.23583	0.15932	0.17947	0.046815	0.30711	0.10965	0.1263	0.28545	0.072126	0.10598	0.25468	0.34473	0.024694	0.072101	0.2422	-2.3729	-2.6771	-2.9938	-2.7146	-2.7292	-2.8583	-2.9062	-3.0187	-2.8979	-2.875	-2.8688	-2.7083	-2.6479	-3.0187	-2.7687	-2.8271	240.700	-17.243	121.658	241.655	55.118	104.528	236.553	274.819	219.033	77.861	190.532	236.366	35.060	197.953	64.821	9.529	8.1074e-05	0.00017365	2.8304e-05	401.54	1.2902e-06	1.3553e-06	609.08	58.56	3.031e-07	1.5327e-06	128.79	35.655	13.21	2.9816	3.0839e-07	12.253	8.1037e-05	7.258e-05	1.816e-05	375.01	7.6339e-07	7.299e-07	572.31	55.514	7.6905e-07	7.4344e-07	116.77	33.882	12.678	2.8557	7.614e-07	11.662	99.710	10.855	0.381	-65.806	108.245	62.756	-66.616	-61.408	10.805	72.950	-61.346	-55.728	-57.884	-50.603	15.659	-50.750	-8191	255	
2234.531	1	1	0	0	0.1707	0.27107	0.16452	0.1675	0.11114	0.046229	0.14874	0.10256	0.20386	0.26885	0.16504	0.1697	0.013808	0.093939	0.13323	0.18338	-2.5438	-2.4583	-2.7958	-2.7042	-2.5958	-2.9958	-2.9083	-2.85	-2.8563	-2.5583	-2.8542	-2.6333	-2.7604	-2.8667	-2.8521	-2.9188	262.505	111.733	-65.216	135.725	-1.914	-35.101	121.443	118.332	237.302	272.001	-49.099	12.471	89.251	81.342	-53.797	278.647	8.4686e-05	0.00012296	3.3823e-05	399.21	3.3315e-07	6.5645e-07	605.65	57.992	1.5425e-06	1.4971e-06	128.89	36.13	13.202	2.9807	1.996e-06	12.346	7.2584e-05	6.5418e-05	1.6042e-05	372.41	6.6631e-07	6.2186e-07	567.12	54.909	7.1708e-07	7.0843e-07	116.48	33.904	12.596	2.8685	6.5383e-07	11.743	107.533	23.043	2.451	-66.179	2.927	128.293	-66.121	-61.429	143.875	26.390	-60.503	-55.557	-56.477	-50.602	208.711	-50.787	-8191	255	
2234.628	1	1	0	0	0.24902	0.2299	0.18156	0.10188	0.17077	0.23181	0.21222	0.043928	0.088201	0.29903	0.10734	0.092613	0.09927	0.12736	0.22108	0.19449	-2.5687	-2.6688	-2.7708	-2.7375	-2.8083	-2.9062	-2.7125	-2.7958	-3.025	-2.5542	-2.8729	-2.825	-2.7708	-2.8479	-2.6792	-2.6562	0.615	-35.455	43.085	37.577	205.026	94.423	161.545	96.670	193.939	194.415	7.580	55.497	-76.171	200.766	185.071	230.650	6.1733e-05	0.00010663	2.5461e-05	394.31	1.95e-06	7.9572e-07	596.44	57.791	6.0846e-07	2.5082e-06	131.26	36.214	13.55	3.0056	1.4307e-06	12.504	7.1307e-05	5.8184e-05	1.364e-05	368.56	6.4943e-07	6.3226e-07	561.66	54.382	6.1371e-07	6.392e-07	117.32	34.169	12.756	2.8861	6.5441e-07	11.862	115.152	39.675	-18.342	-66.249	55.821	45.067	-66.226	-61.401	108.748	30.375	-62.534	-55.671	-57.339	-50.572	88.503	-51.365	-8191	255	
2234.724	1	1	0	0	0.099611	0.070996	0.17785	0.11944	0.1977	0.17398	0.11067	0.23092	0.022344	0.13024	0.11179	0.11803	0.2311	0.20705	0.15416	0.10078	-2.425	-2.625	-2.9583	-2.8438	-2.6896	-3.0229	-2.9521	-2.7562	-3.0833	-2.6021	-3.0062	-2.9021	-2.7458	-2.9896	-2.8854	-2.8271	-9.875	-11.145	53.389	34.891	64.607	60.509	247.310	199.751	77.755	-3.338	86.306	174.588	-25.578	227.633	21.968	256.906	9.5537e-05	0.0001432	3.5562e-05	390.97	6.6185e-07	1.2384e-06	594.3	57.611	5.989e-07	7.5005e-07	132.52	36.205	13.206	3.0455	2.0403e-06	12.5	7.0148e-05	6.6216e-05	1.4851e-05	366.23	6.5826e-07	5.5923e-07	559.79	54.427	5.5483e-07	6.3263e-07	117.35	34.415	12.732	2.8912	6.2966e-07	11.838	106.355	8.811	-44.970	-66.226	106.360	51.182	-66.215	-61.524	182.417	52.895	-60.614	-55.833	-57.129	-50.697	80.165	-50.361	-8191	255	
2234.820	1	1	0	0	0.23541	0.22259	0.19764	0.1192	0.22613	0.19969	0.056281	0.30238	0.27349	0.17251	0.19661	0.12413	0.33208	0.20154	0.092659	0.10324	-2.5792	-2.8063	-2.75	-3.0292	-2.5771	-2.8292	-2.8854	-2.8604	-2.8812	-2.6688	-3.0021	-2.9688	-2.6521	-2.9104	-2.8875	-2.7917	262.076	-68.045	-30.003	-2.786	54.713	266.830	-66.105	194.536	107.338	85.586	82.791	45.016	80.382	14.888	122.030	71.596	9.6208e-05	5.4134e-05	3.0302e-05	392.84	1.281e-06	6.2551e-07	598.32	58.289	2.0044e-06	1.9556e-06	128.21	35.636	13.413	3.0589	1.7548e-06	12.302	6.4102e-05	5.4884e-05	1.4506e-05	368.5	6.3236e-07	5.1561e-07	562.09	54.783	5.5982e-07	5.5763e-07	116.49	33.809	12.748	2.856	6.1115e-07	11.644	120.970	-8.118	-1.561	-66.206	16.263	128.214	-66.224	-61.281	41.030	16.914	-62.123	-56.223	-56.263	-50.474	93.540	-50.917	-8191	255	
2234.941	1	1	0	0	0.046819	0.17602	0.037673	0.020024	0.23532	0.2059	0.1015	0.12051	0.15269	0.15397	0.16201	0.053735	0.14006	0.10697	0.18313	0.18297	-2.6771	-2.7083	-2.7542	-3.0854	-2.4833	-2.9854	-2.8937	-2.7896	-3.0563	-2.7833	-2.6333	-2.9542	-2.7271	-2.7729	-2.7396	-2.6604	34.211	218.718	-53.191	276.833	-71.025	64.488	205.848	264.536	201.679	199.495	152.357	-32.458	155.453	137.199	85.464	-29.677	9.5107e-05	6.4863e-05	2.371e-05	392.05	1.0837e-06	2.2082e-06	595.17	58.143	1.2263e-06	6.6618e-07	125.05	36.198	13.288	2.994	5.2069e-07	12.393	5.9838e-05	5.7803e-05	1.5038e-05	368.44	7.1639e-07	5.5123e-07	562.18	54.728	5.7094e-07	6.1075e-07	116.73	34.158	12.721	2.8769	5.3476e-07	11.811	111.240	13.841	2.324	-66.243	170.143	130.995	-66.042	-61.412	64.003	84.038	-62.414	-56.208	-57.067	-52.277	67.321	-50.996	-8191	255	
2235.037	1	1	0	0	0.058342	0.10466	0.073894	0.07637	0.30237	0.22208	0.26742	0.24348	0.26607	0.13501	0.31712	0.097847	0.10234	0.26453	0.14678	0.33336	-2.5021	-2.6833	-2.8542	-2.9375	-2.8625	-2.7958	-3.0458	-2.6917	-2.9375	-2.8063	-2.7562	-3.0979	-2.7687	-2.7646	-2.9188	-2.8208	227.803	48.383	77.071	109.223	224.151	-59.144	163.318	156.901	-25.555	273.757	87.513	190.824	54.840	207.172	239.888	238.572	7.3513e-05	0.00016883	2.283e-05	388.42	1.2221e-06	7.2695e-07	595.09	57.849	1.7458e-06	9.9965e-07	125.85	36.147	13.282	3.0579	2.4333e-07	12.506	5.9571e-05	5.6062e-05	1.3346e-05	364.91	6.4483e-07	5.3322e-07	556.97	54.144	5.9184e-07	5.6977e-07	114.73	34.171	12.642	2.8943	4.8311e-07	11.861	96.542	20.674	-11.029	-66.541	224.365	57.817	-66.093	-61.520	116.210	116.471	-60.707	-55.984	-56.900	-50.860	153.231	-50.719	-8191	255	
2235.133	1	1	0	0	0.17713	0.036313	0.17636	0.24415	0.089143	0.25226	0.11444	0.15784	0.074006	0.18912	0.040002	0.17411	0.093628	0.081895	0.1638	0.089744	-2.4875	-2.9021	-2.6021	-2.8771	-2.7542	-2.8771	-3.0563	-2.4	-2.8625	-2.9875	-2.6083	-3.1104	-3.0854	-2.8563	-2.8958	-2.6646	-21.109	-70.384	-49.717	163.168	166.640	129.484	202.104	186.186	178.350	143.230	86.437	166.966	10.810	-74.454	94.566	192.849	9.577e-05	7.7653e-05	2.3707e-05	391.78	7.461e-07	8.5162e-07	591.57	57.888	4.183e-07	5.1255e-07	129.92	36.08	13.222	3.0482	1.4453e-06	12.374	5.963e-05	4.5238e-05	1.4207e-05	365.25	5.8938e-07	5.3982e-07	558.82	54.233	4.411e-07	5.079e-07	117.02	34.172	12.722	2.8975	4.9481e-07	11.788	94.797	23.634	-7.710	-65.924	74.227	121.052	-66.360	-61.378	223.217	217.038	-62.326	-55.985	-57.729	-50.768	28.667	-50.387	-8191	255	
2235.229	1	1	0	0	0.083912	0.12408	0.022592	0.21591	0.1868	0.15256	0.25689	0.22542	0.23491	0.16491	0.11296	0.18739	0.25814	0.21394	0.025767	0.11043	-2.4188	-2.7667	-2.4708	-2.8875	-2.5333	-2.6417	-3.1	-2.6354	-2.9104	-2.75	-2.5563	-2.9417	-2.8771	-2.7042	-3.025	-2.7229	67.719	194.154	-69.056	-71.543	143.605	0.778	25.138	-33.948	93.084	72.662	65.938	280.467	-57.891	-68.233	-65.244	181.621	0.00010809	4.0093e-05	6.8854e-05	387.95	2.6552e-06	1.8268e-06	589.67	56.849	7.5825e-07	1.0704e-06	126.05	35.788	13.221	2.9665	1.3428e-06	11.991	5.9229e-05	4.5655e-05	1.292e-05	364.62	5.9091e-07	4.944e-07	555.28	53.798	4.7754e-07	4.8362e-07	114.34	33.613	12.529	2.813	4.2133e-07	11.492	109.475	102.008	4.349	-65.974	21.584	50.677	-66.213	-61.536	-27.295	15.221	-60.570	-55.806	-57.326	-50.633	142.219	-50.635	-8191	255	
2235.325	1	1	0	0	0.16036	0.13132	0.2594	0.15228	0.13006	0.15948	0.11767	0.13118	0.18052	0.51475	0.25065	0.14286	0.10643	0.16911	0.0932	0.032096	-2.2708	-2.8042	-2.7229	-3.05	-2.9708	-2.7021	-3.1688	-2.6562	-2.7062	-2.9979	-2.6292	-2.7938	-2.7854	-2.6979	-2.7604	-2.7083	32.786	171.541	-74.878	190.876	182.101	236.835	237.248	120.968	203.485	131.715	-6.847	-39.669	256.579	144.407	133.223	-27.518	3.9396e-05	5.0768e-05	2.0137e-05	387.51	9.3246e-07	1.3401e-06	588.93	56.933	1.2208e-06	8.367e-07	126.71	34.916	13.328	2.919	4.3709e-07	12.126	5.0524e-05	4.007e-05	1.1669e-05	362.57	5.1341e-07	4.3798e-07	551.71	53.667	4.4072e-07	4.1877e-07	113.48	33.329	12.498	2.816	3.3305e-07	11.503	93.436	-77.573	-5.505	-65.924	21.284	-19.633	-66.264	-61.303	144.867	103.388	-60.789	-55.998	-57.577	-50.663	103.152	-50.673	-8191	255	
2235.420	1	1	0	0	0.11111	0.11107	0.16264	0.049414	0.094931	0.27114	0.12233	0.20694	0.10453	0.34451	0.3609	0.042399	0.1531	0.099561	0.27633	0.17876	-2.3917	-2.9771	-2.5896	-2.8729	-2.8688	-2.8083	-3.1063	-2.5687	-2.7042	-2.9271	-2.5833	-3.0792	-2.9292	-2.5312	-2.9875	-2.7792	-24.441	134.437	196.933	53.074	151.102	188.809	-59.101	-56.767	-41.247	102.052	251.126	60.450	108.987	157.592	188.644	64.761	9.1781e-05	0.00010044	1.3195e-05	385.73	6.8114e-07	9.3492e-07	584.31	57.179	9.9172e-07	1.4558e-06	127.43	35.536	13.041	2.9932	1.0812e-06	12.159	5.1103e-05	3.5936e-05	1.0995e-05	361.23	4.9806e-07	4.1477e-07	550.81	53.727	3.6822e-07	3.75e-07	114.21	33.555	12.546	2.8259	3.5176e-07	11.504	95.527	61.738	-44.595	-65.997	14.769	94.419	-66.163	-61.562	105.265	30.606	-61.834	-55.866	-56.693	-50.271	77.042	-50.458	-8191	255	
2235.517	1	1	0	0	0.10961	0.3011	0.13021	0.15799	0.14511	0.15099	0.16258	0.23585	0.25765	0.043168	0.14785	0.19909	0.13432	0.16522	0.17705	0.24523	-2.2667	-2.9354	-2.6688	-2.9604	-2.9333	-2.6667	-3.0292	-2.7979	-2.6979	-3.0083	-2.75	-2.7646	-2.9146	-2.7313	-2.8958	-2.9188	58.655	133.210	172.670	114.031	-22.724	14.340	267.085	161.999	124.606	152.978	173.087	-44.492	80.093	-52.823	29.044	141.507	7.8715e-05	0.00012276	4.7532e-05	389.17	2.1971e-06	1.592e-06	592.44	58.127	1.04e-06	2.2739e-06	125.11	35.843	13.277	2.9484	9.2466e-07	12.075	5.0598e-05	2.9862e-05	1.0301e-05	361.85	4.4376e-07	4.4318e-07	555.42	54.393	3.8664e-07	3.4158e-07	115.13	33.952	12.696	2.8381	3.2058e-07	11.464	84.150	-66.508	26.325	-66.171	55.897	53.347	-66.194	-61.206	36.701	79.047	-61.070	-55.967	-56.718	-51.700	-26.099	-50.721	-8191	255	
2235.636	1	1	0	0	0.20397	0.084669	0.14267	0.079803	0.17208	0.36139	0.12628	0.038353	0.15231	0.21374	0.19377	0.14535	0.20101	0.12564	0.14396	0.075415	-2.2854	-2.8979	-2.7167	-2.6958	-2.925	-2.6333	-2.9188	-2.85	-2.6958	-3.0812	-2.6896	-2.7958	-2.8625	-2.8625	-2.8167	-2.875	258.114	6.517	-64.058	155.712	30.301	147.291	238.149	210.859	17.218	127.444	100.911	267.935	-15.378	184.191	79.351	-10.767	9.5426e-05	0.00015417	2.1339e-05	386.92	8.5084e-07	1.2769e-06	590.99	56.706	4.3353e-07	7.625e-07	130.16	35.228	13.336	2.9375	8.5674e-07	11.809	4.4611e-05	3.0316e-05	8.4616e-06	360.61	3.3786e-07	3.0012e-07	552.65	53.728	3.3006e-07	2.8568e-07	115.03	33.307	12.57	2.7766	3.4767e-07	11.255	104.703	47.833	36.488	-65.820	188.843	0.309	-66.413	-61.200	135.706	187.242	-61.730	-55.716	-57.992	-50.695	45.905	-50.761	-8191	255	
2235.732	1	1	0	0	0.20168	0.046225	0.19	0.28505	0.11179	0.30763	0.16409	0.19443	0.057854	0.15875	0.10821	0.1599	0.17399	0.087215	0.40378	0.066352	-2.2104	-2.9208	-2.6667	-2.6604	-2.7896	-2.9313	-2.7979	-2.9021	-2.7396	-2.8937	-2.9104	-2.7438	-3.0208	-2.7229	-2.8271	-3.0396	-76.039	221.463	244.569	155.254	200.762	82.350	138.373	-25.928	267.100	105.337	65.331	-17.816	-48.657	84.282	-37.118	26.731	7.1033e-05	0.00011651	3.1209e-05	384.95	1.237e-06	8.5803e-07	585.84	56.801	7.7732e-07	1.265e-06	127.99	35.274	13.371	2.9695	4.1898e-07	11.776	4.6943e-05	2.7179e-05	9.926e-06	359.44	3.7469e-07	3.2073e-07	550.52	53.642	3.8088e-07	2.5464e-07	113.55	33.419	12.53	2.7809	2.8277e-07	11.268	97.710	19.938	267.732	-66.114	95.415	48.235	-66.254	-61.203	18.208	34.691	-60.811	-55.915	-56.510	-52.004	-5.337	-51.262	-8191	255	
2235.829	1	1	0	0	0.048623	0.049686	0.038588	0.10398	0.14873	0.1629	0.069218	0.13757	0.27477	0.25315	0.10448	0.067122	0.12872	0.25442	0.11138	0.063917	-2.1146	-2.8125	-2.8187	-2.9625	-2.975	-2.7708	-2.8958	-2.9646	-2.6521	-2.9583	-2.7896	-2.4958	-3.0333	-2.6042	-2.8208	-3.0521	189.749	41.470	92.520	263.104	103.505	103.629	266.304	248.266	248.332	182.187	63.443	113.656	-60.349	251.868	203.444	-2.103	6.3983e-05	0.00019611	4.4035e-05	384.64	1.2965e-06	2.9697e-06	591.45	58.163	1.2928e-06	5.521e-07	126.73	36.025	13.366	2.9949	1.242e-06	12.049	4.4017e-05	2.7052e-05	8.9835e-06	360.52	3.3249e-07	3.9536e-07	555.92	54.855	4.2518e-07	2.996e-07	114.95	33.914	12.8	2.8351	3.4319e-07	11.445	105.915	31.921	13.732	-65.951	147.873	59.157	-66.258	-61.538	84.350	115.226	-62.479	-56.354	-56.970	-50.290	65.145	-50.252	-8191	255	
2235.900	1	1	0	0	0.14267	0.14067	0.46533	0.12045	0.064693	0.19584	0.27308	0.1513	0.42157	0.23977	0.061162	0.26053	0.18736	0.22053	0.2156	0.067577	-2.2	-2.8667	-2.7771	-2.5792	-3.0125	-2.9042	-2.8396	-3	-2.6417	-2.8583	-3.0833	-2.6354	-2.8271	-2.7313	-2.8438	-3.0417	97.559	4.420	127.231	-69.190	-55.756	204.726	192.504	5.208	-9.632	10.067	4.846	220.013	12.469	145.423	88.464	273.277	5.2367e-05	0.00021952	3.9889e-05	387.68	4.2906e-07	1.6419e-06	591.46	57.467	3.9249e-07	1.5328e-06	129.6	36.404	13.371	3.0022	1.9261e-06	12.099	4.8696e-05	2.4804e-05	8.5123e-06	361.92	3.5455e-07	3.2553e-07	557.13	54.545	3.3888e-07	2.8727e-07	115.41	34.281	12.898	2.8587	3.389e-07	11.503	80.263	5.652	25.449	-66.617	30.047	75.745	-66.327	-61.567	-32.361	80.791	-61.071	-55.362	-57.226	-51.090	45.722	-50.999	-8191	255	
2236.021	1	1	0	0	0.44819	0.16269	0.16431	0.24399	0.092249	0.091651	0.090385	0.099713	0.05929	0.32093	0.13386	0.29751	0.20627	0.31108	0.14772	0.15914	-2.2854	-2.8771	-2.975	-2.5292	-3.025	-2.9437	-2.8271	-2.9604	-2.8	-2.8333	-2.8917	-2.8042	-3.0375	-2.6875	-2.6375	-3.1	18.825	14.430	266.065	-72.282	62.543	176.191	268.731	225.245	247.811	-2.130	224.086	218.081	107.587	113.564	105.084	-46.143	6.4637e-05	0.00016099	1.8453e-05	385.67	6.3195e-07	1.1921e-06	593.82	57.827	1.3287e-06	1.8229e-06	132.88	35.813	13.531	2.9486	1.8141e-06	11.929	4.7226e-05	2.1993e-05	7.8384e-06	361.47	3.7278e-07	3.2173e-07	556.47	54.503	3.9354e-07	2.9682e-07	115.64	33.848	12.829	2.8018	3.4397e-07	11.351	102.715	11.952	11.848	-65.665	36.897	79.164	-66.034	-61.290	81.083	75.087	-62.641	-56.229	-57.781	-52.041	77.928	-50.574	-8191	255	
2236.117	1	1	0	0	0.20004	0.22419	0.20977	0.29859	0.2088	0.1387	0.23929	0.043161	0.31539	0.04354	0.19427	0.1825	0.051268	0.099748	0.22432	0.1912	-2.2458	-2.7729	-2.9542	-2.6937	-2.8625	-3.0271	-2.7208	-2.8417	-2.7479	-2.8125	-2.9854	-2.7687	-2.8667	-2.7708	-2.6708	-3.025	66.882	184.055	142.690	79.096	-47.216	197.492	261.549	216.908	160.131	50.234	146.009	203.919	187.261	149.987	150.654	37.066	7.1482e-05	0.00018031	2.1207e-05	383.58	1.7701e-06	1.3352e-06	587.66	57.456	1.1262e-07	1.173e-06	130.07	35.875	13.39	2.9615	1.3556e-06	12.044	4.7523e-05	3.066e-05	8.5985e-06	359.94	3.9215e-07	3.6575e-07	554.05	54.365	4.3822e-07	3.0597e-07	115.77	33.991	12.639	2.8112	3.1493e-07	11.457	100.458	-35.295	-24.659	-66.292	41.887	60.821	-66.232	-61.353	191.868	68.320	-62.318	-56.064	-57.242	-50.637	17.672	-50.794	-8191	255	
2236.213	1	1	0	0	0.019443	0.047991	0.082945	0.28132	0.064258	0.19241	0.25592	0.2778	0.13872	0.20417	0.12662	0.19492	0.24903	0.2292	0.16287	0.2252	-2.3354	-2.6042	-2.8583	-2.7313	-2.9938	-2.8875	-2.7021	-2.9688	-2.95	-2.675	-2.95	-2.8375	-2.9313	-2.875	-2.85	-2.9917	-39.625	-66.703	72.088	191.831	97.258	102.361	231.061	85.525	52.257	121.316	134.280	-1.938	61.348	16.098	143.560	60.736	8.9493e-05	0.00015971	2.8775e-05	383.49	3.4171e-07	8.9247e-07	588.44	57.597	2.0085e-06	2.8316e-07	130.49	36.037	13.513	2.975	9.6297e-07	12.235	4.7181e-05	2.5547e-05	7.352e-06	359.01	3.2807e-07	2.9332e-07	552.8	53.967	3.4521e-07	2.6559e-07	114.97	34.153	12.753	2.8158	2.7517e-07	11.586	115.345	-29.552	19.486	-66.142	86.194	111.097	-66.206	-61.508	-45.620	56.019	-62.145	-55.787	-56.605	-51.751	41.401	-50.524	-8191	255	
2236.309	1	1	0	0	0.28636	0.24697	0.054137	0.34752	0.28619	0.2414	0.32395	0.14888	0.11618	0.25519	0.11674	0.22615	0.059777	0.047873	0.062191	0.076919	-2.4854	-2.4417	-3.0292	-2.7521	-2.8271	-3.0125	-3.0083	-2.8583	-2.7083	-2.7542	-2.9437	-2.6729	-2.7438	-2.9562	-2.6021	-3.0354	-10.842	79.265	280.098	42.591	164.421	-41.411	175.658	276.659	83.597	268.237	57.879	-42.645	26.878	277.032	131.106	261.196	5.5778e-05	7.7903e-05	3.9294e-05	382.15	1.3526e-06	5.2391e-07	586.68	57.242	1.1105e-06	9.8868e-07	127.12	36.326	13.314	3.0099	9.4569e-07	12.374	4.4047e-05	2.1522e-05	6.9467e-06	358.4	3.3517e-07	2.7371e-07	552.75	53.849	3.2277e-07	3.1254e-07	114.22	34.252	12.705	2.8608	3.3539e-07	11.693	99.545	56.204	-0.299	-66.139	56.184	-1.508	-66.216	-60.809	77.774	-17.328	-59.701	-55.480	-57.422	-50.631	138.380	-49.715	-8191	255	
2236.428	1	1	0	0	0.085147	0.2921	0.04815	0.17792	0.19317	0.10299	0.18625	0.061573	0.055814	0.16515	0.11603	0.16305	0.13886	0.32731	0.11931	0.13269	-2.4896	-2.6437	-2.9437	-2.7125	-2.8833	-3.0146	-2.8438	-2.9021	-3.0125	-2.8125	-2.8729	-2.875	-2.7	-2.8958	-2.6896	-2.8583	241.514	-71.919	63.285	70.796	107.649	116.260	210.782	167.205	9.463	191.001	178.111	175.226	16.578	-10.008	188.409	-0.233	8.968e-05	8.6898e-05	2.632e-05	382.06	2.408e-07	2.2551e-06	586.17	56.929	1.2812e-06	2.5979e-07	130.24	36.333	13.385	2.9185	1.667e-06	12.245	4.1432e-05	2.9699e-05	7.4787e-06	358.93	3.3575e-07	2.8572e-07	549.52	53.695	3.3888e-07	3.3342e-07	114.1	33.994	12.567	2.798	3.1434e-07	11.58	91.857	19.536	31.261	-66.006	-43.200	27.398	-66.211	-60.713	69.617	-51.336	-61.710	-55.829	-56.687	-50.393	44.367	-50.746	-8191	255	
2236.502	1	1	0	0	0.17693	0.053041	0.15474	0.19748	0.31858	0.16502	0.04198	0.34733	0.22699	0.2125	0.045589	0.20476	0.12691	0.076899	0.078194	0.18832	-2.6063	-2.7771	-2.8688	-2.8563	-2.6542	-2.9396	-2.7687	-2.8604	-2.9958	-2.6958	-2.9188	-2.9313	-2.6167	-2.9729	-2.7583	-2.5563	238.698	-14.032	12.886	12.117	40.871	236.629	-38.349	167.191	113.671	48.047	258.396	260.937	-22.996	245.625	-75.743	87.625	7.2887e-05	0.00017898	4.7591e-05	383.16	9.6307e-07	3.6068e-07	587.84	57.143	6.4787e-07	1.4344e-06	129.86	36.397	13.2	2.9992	1.4077e-06	12.373	4.4136e-05	2.6272e-05	5.1885e-06	358.44	3.4457e-07	2.9892e-07	551.51	53.911	3.2296e-07	2.6996e-07	114.83	34.348	12.677	2.8316	3.1922e-07	11.694	94.656	-21.639	7.642	-66.072	60.383	110.728	-66.338	-61.486	13.391	108.046	-61.776	-56.241	-57.530	-50.474	115.007	-50.967	-8191	255	
2236.621	1	1	0	0	0.093391	0.23553	0.30738	0.27908	0.22052	0.20096	0.14554	0.1569	0.15204	0.19598	0.18355	0.20473	0.10707	0.23689	0.05459	0.27786	-2.5104	-2.7729	-2.8167	-2.6771	-2.6937	-2.9375	-2.6542	-2.6458	-2.8208	-2.7896	-2.8167	-2.9271	-2.5979	-3.0021	-2.7146	-2.7	210.175	41.060	71.667	203.968	11.488	142.540	187.242	-28.148	233.537	270.493	225.289	64.753	-21.443	110.668	118.181	100.487	5.7579e-05	4.8765e-05	4.1664e-05	386.18	6.195e-07	1.4868e-06	584.97	57.031	1.1001e-06	4.0178e-07	130.13	36.72	13.587	3.0272	2.4046e-06	12.243	4.2353e-05	3.3978e-05	5.9333e-06	361.42	3.5819e-07	2.6471e-07	552.71	54.056	3.1011e-07	2.7832e-07	115.06	34.689	12.858	2.8931	3.1298e-07	11.785	95.674	-10.295	-10.240	-65.814	278.755	57.401	-66.493	-61.118	255.657	6.607	-60.885	-55.877	-57.367	-51.491	64.398	-51.153	-8191	255	
2236.717	1	1	0	0	0.21296	0.086772	0.082414	0.30463	0.19518	0.088537	0.14264	0.10716	0.19358	0.13666	0.13653	0.23346	0.052214	0.14609	0.24764	0.12917	-2.6708	-2.6021	-2.8104	-2.9292	-2.7146	-3.0458	-3.0375	-2.6521	-3.0646	-3.0042	-2.75	-2.8083	-2.7708	-2.9417	-2.8875	-2.7271	179.756	-78.018	35.128	137.853	62.297	52.913	-55.137	198.208	195.576	-73.595	27.729	45.263	18.560	177.986	42.596	159.359	6.7604e-05	0.00013216	4.7164e-05	386.82	2.8993e-07	1.0732e-06	591.62	57.909	1.0596e-06	1.0222e-06	129.54	36.941	13.713	3.1014	6.5048e-07	12.589	4.2413e-05	3.6589e-05	7.2051e-06	359.98	3.6913e-07	2.5591e-07	555.32	54.288	2.614e-07	2.8429e-07	116.4	34.932	12.905	2.9039	3.656e-07	11.946	108.186	31.424	-28.543	-66.003	55.145	91.331	-66.073	-61.270	99.941	46.348	-59.834	-55.677	-57.654	-50.933	68.055	-50.876	-8191	255	
2236.813	1	1	0	0	0.18453	0.21329	0.22955	0.069986	0.021514	0.16977	0.087076	0.033994	0.31215	0.24572	0.3146	0.16562	0.12382	0.15731	0.0065283	0.1299	-2.4146	-2.6937	-2.6833	-3.0104	-2.65	-3.0583	-2.975	-2.3979	-2.9792	-2.85	-2.6937	-2.9437	-2.7458	-2.8688	-2.7333	-2.6375	102.444	219.686	73.845	213.634	67.661	-49.210	8.618	171.955	42.425	148.364	105.607	-74.821	203.246	176.921	243.462	214.669	7.4463e-05	0.00017451	3.0005e-05	383.98	7.3612e-07	4.172e-07	591.45	57.683	1.4388e-06	1.9807e-06	129.75	36.348	13.44	3.0192	2.0454e-07	12.542	4.0986e-05	2.9155e-05	7.727e-06	360.14	4.2515e-07	2.6491e-07	556.34	54.476	3.6726e-07	2.996e-07	117.31	34.426	12.849	2.8649	3.1434e-07	11.779	123.975	3.757	43.657	-66.059	126.384	52.388	-66.238	-61.603	120.564	61.147	-61.184	-56.233	-56.837	-50.617	-48.022	-51.155	-8191	255	
2236.909	1	1	0	0	0.23473	0.18903	0.1228	0.34134	0.1496	0.21431	0.057607	0.21125	0.063241	0.13815	0.11671	0.065558	0.21378	0.17175	0.17341	0.25068	-2.3271	-2.75	-2.8979	-2.9104	-2.7292	-2.8354	-3.2042	-2.7188	-3.0667	-2.8667	-2.6833	-2.8312	-2.7646	-3.0708	-2.9813	-2.6542	43.452	72.463	74.969	171.171	271.292	104.983	113.369	42.641	-29.802	68.465	124.947	112.950	174.030	204.553	43.107	-53.003	7.2853e-05	8.5932e-05	3.6072e-05	384.62	1.0458e-06	1.1167e-06	590.48	57.81	9.1801e-07	1.7969e-06	132.91	37.061	13.679	3.0425	1.4979e-06	12.373	4.366e-05	2.785e-05	8.188e-06	360.87	4.3973e-07	3.1933e-07	556.45	54.246	3.3716e-07	3.5988e-07	117.54	34.852	12.995	2.8862	4.0107e-07	11.883	95.406	54.523	39.377	-66.004	47.261	78.572	-66.227	-61.358	46.870	50.351	-61.836	-56.293	-56.564	-51.485	69.063	-51.131	-8191	255	
2237.030	1	1	0	0	0.15075	0.033063	0.18329	0.13676	0.26127	0.098247	0.026079	0.018416	0.16041	0.092387	0.041584	0.18016	0.081665	0.078116	0.26853	0.17813	-2.5146	-2.5875	-2.5167	-3.05	-2.8646	-2.8521	-3.0542	-2.7125	-2.8458	-2.9542	-2.4604	-3.1729	-2.8312	-2.8771	-3.025	-2.9146	215.136	164.495	-54.581	254.952	-24.400	203.681	229.737	126.243	43.873	-27.196	-30.573	194.314	264.335	272.835	270.975	210.361	7.1452e-05	0.00016269	1.5609e-05	384.29	2.7242e-07	1.4511e-06	592.56	58.181	2.2911e-06	7.6654e-07	131.44	37.233	13.642	3.0644	1.475e-06	12.634	4.7077e-05	3.1512e-05	7.5141e-06	360.78	4.0481e-07	3.0633e-07	555.8	54.648	3.2699e-07	3.0319e-07	117.54	35.038	12.991	2.9024	3.0694e-07	11.985	105.925	62.709	47.551	-65.621	46.718	59.427	-66.289	-61.311	33.893	86.919	-60.398	-56.514	-56.975	-50.615	105.729	-50.706	-8191	255	
2237.126	1	1	0	0	0.31616	0.083721	0.17769	0.16212	0.1229	0.27151	0.16541	0.2207	0.22798	0.2447	0.061133	0.24643	0.17121	0.078625	0.28416	0.1972	-2.525	-2.9333	-2.65	-2.9813	-2.8417	-2.725	-3.2562	-2.6479	-2.9708	-2.9542	-2.4875	-2.9979	-2.5417	-2.7521	-2.9104	-2.6146	104.258	48.120	113.088	198.935	197.396	249.752	57.122	46.745	111.045	96.026	-61.359	-5.808	77.450	149.753	218.463	-69.176	6.5029e-05	4.6064e-05	2.8222e-05	383.31	4.6897e-07	1.6018e-06	591.82	58.426	4.0001e-07	3.8504e-07	133.88	36.665	14.044	3.0446	1.5195e-06	12.549	4.6557e-05	3.367e-05	7.5851e-06	360.67	4.2956e-07	3.6295e-07	556.08	54.772	3.4022e-07	3.2089e-07	119.13	35.031	13.128	2.9182	3.1259e-07	11.935	113.980	-4.953	9.354	-65.910	46.802	63.431	-65.961	-61.620	3.103	153.835	-60.721	-56.308	-56.855	-50.174	59.590	-50.855	-8191	255	
2237.197	1	1	0	0	0.031778	0.11586	0.063107	0.13552	0.1679	0.20584	0.05936	0.16088	0.20114	0.15685	0.15858	0.23022	0.068114	0.40101	0.12582	0.10617	-2.3021	-3.0375	-2.7354	-3.0333	-2.8042	-2.7479	-3.0625	-2.6875	-2.8771	-2.9667	-2.6937	-3.0458	-2.8937	-2.6896	-2.9917	-2.9	152.781	189.321	-52.000	-33.088	-17.330	-64.130	190.372	-34.397	232.651	25.925	242.451	175.540	179.687	4.131	210.982	1.771	6.5475e-05	0.00014923	3.2662e-05	387.06	1.0866e-06	5.795e-07	592.71	58.189	1.583e-06	9.6314e-07	129	36.615	13.713	3.0186	6.7361e-07	12.375	4.7181e-05	3.251e-05	7.3064e-06	362.08	4.0577e-07	2.9872e-07	557.29	54.775	3.571e-07	3.1751e-07	116.38	34.542	12.936	2.8749	2.8355e-07	11.707	93.439	-2.205	62.052	-65.907	28.135	79.958	-66.040	-61.608	56.409	78.259	-60.549	-56.295	-56.777	-50.750	167.890	-50.398	-8191	255	
2237.318	1	1	0	0	0.072613	0.18438	0.24036	0.069167	0.17799	0.15327	0.50727	0.28423	0.28178	0.41928	0.10721	0.35866	0.18038	0.06018	0.024174	0.21621	-2.2562	-3.1104	-2.4542	-2.8333	-2.9875	-2.6375	-3.0208	-2.7062	-2.6937	-2.8167	-2.6063	-2.8979	-3.025	-2.4188	-2.8896	-2.8417	115.915	-18.499	215.604	-66.508	226.410	125.449	229.404	96.084	188.452	121.856	102.359	-44.928	108.691	205.186	-20.936	28.391	6.3608e-05	0.00014531	3.6907e-05	387.73	1.6276e-06	8.334e-07	592.59	58.143	1.5342e-06	9.9469e-07	131.3	36.964	13.408	3.0945	1.4735e-06	12.428	4.2992e-05	2.8865e-05	8.2944e-06	362.41	4.0098e-07	3.3814e-07	558.05	54.804	3.0033e-07	3.2308e-07	117.43	34.815	12.995	2.907	2.9778e-07	11.838	119.693	-24.396	13.114	-65.794	80.024	57.813	-66.040	-61.464	10.051	170.926	-60.968	-56.256	-56.878	-50.580	76.069	-50.813	-8191	255	
2237.412	1	1	0	0	0.19848	0.14442	0.36263	0.015094	0.064054	0.14269	0.31947	0.16354	0.13879	0.1671	0.065956	0.09899	0.15733	0.24161	0.072237	0.20113	-2.4542	-3.05	-2.8104	-3.0229	-2.8979	-2.7458	-3.0104	-2.7833	-2.7938	-2.8875	-2.8312	-2.7604	-2.8875	-2.5771	-2.9917	-2.7812	-57.031	203.132	-13.937	150.270	222.895	-37.271	244.247	123.166	0.877	-6.737	106.014	30.157	164.483	107.302	44.079	50.898	8.7305e-05	0.00015531	1.9902e-05	388.48	8.4089e-07	1.7034e-06	597.03	58.787	2.0858e-06	1.0711e-06	132.17	36.961	13.966	3.1087	1.4339e-06	12.492	4.0466e-05	2.2719e-05	8.8518e-06	364.03	3.438e-07	3.3974e-07	561.42	55.401	3.6343e-07	2.252e-07	118.54	35.012	13.161	2.9446	2.9369e-07	11.893	113.319	45.787	-43.114	-65.835	10.245	99.828	-66.188	-61.384	89.460	115.916	-62.913	-55.819	-57.612	-51.389	73.960	-50.771	-8191	255	
2237.509	1	1	0	0	0.21668	0.23454	0.091206	0.23422	0.15553	0.23336	0.12085	0.06596	0.22954	0.16945	0.17965	0.14296	0.21984	0.18357	0.14982	0.17941	-2.2792	-2.8458	-2.7812	-2.7438	-2.9479	-2.7417	-3.0687	-2.9542	-2.5062	-3.0583	-2.675	-2.8271	-2.9708	-2.7167	-2.8833	-2.8125	37.882	14.895	188.661	189.894	69.863	99.311	275.783	138.507	264.079	152.863	64.120	259.607	110.868	65.564	23.101	116.643	7.4779e-05	9.8346e-05	5.3429e-05	393.24	1.1319e-06	1.9197e-06	594.99	59.724	1.4448e-06	1.1464e-06	136.87	37.407	14.113	3.1679	1.873e-06	12.418	4.4849e-05	2.7868e-05	9.3078e-06	365.78	3.9426e-07	3.6775e-07	561.36	55.859	3.4694e-07	3.0915e-07	119.13	35.397	13.264	2.9526	3.3422e-07	11.852	117.022	46.187	-49.655	-65.805	113.735	78.896	-66.012	-61.787	-21.369	79.210	-60.493	-56.061	-57.548	-50.467	76.475	-51.390	-8191	255	
2237.605	1	1	0	0	0.40098	0.13775	0.17501	0.049722	0.20835	0.16335	0.10724	0.23734	0.095204	0.045218	0.25996	0.43149	0.098907	0.1691	0.27286	0.19879	-2.2313	-2.9875	-2.6792	-2.6542	-3.0417	-2.6896	-3.0417	-2.8896	-2.8229	-2.9667	-2.7896	-2.6292	-2.8625	-2.6146	-2.6562	-2.9	43.995	169.775	252.552	223.639	3.855	234.603	223.679	158.254	247.258	206.890	-28.545	244.218	1.060	-71.536	-10.069	140.682	9.012e-05	0.000247	1.493e-05	389.7	1.8486e-06	1.6526e-06	596.46	59.219	1.6557e-06	2.4476e-06	132.5	36.876	14.02	3.0228	1.7287e-06	12.319	4.8667e-05	2.9391e-05	1.0635e-05	364.57	3.5033e-07	4.0797e-07	561.95	55.694	4.3669e-07	2.8031e-07	118.83	34.829	13.23	2.8978	2.8648e-07	11.674	95.747	8.528	-47.655	-65.536	103.288	118.503	-66.522	-61.030	29.996	64.281	-62.839	-56.357	-56.824	-51.411	74.722	-50.455	-8191	255	
2237.725	1	1	0	0	0.079762	0.2809	0.15191	0.14786	0.094809	0.33856	0.2635	0.0706	0.12579	0.062918	0.27781	0.10188	0.24646	0.17861	0.31662	0.28441	-2.3125	-2.9042	-2.7208	-2.7875	-2.9833	-2.6917	-2.8292	-3.1021	-2.8271	-2.9354	-2.8708	-2.5354	-3.1521	-2.7396	-2.5646	-2.8958	4.871	-0.513	-42.172	-76.982	-60.510	165.542	-18.157	208.562	-53.813	48.583	-37.010	-67.775	-49.778	47.071	110.159	78.830	8.7852e-05	0.00014511	4.1785e-05	392.07	3.8104e-07	1.2099e-06	600.05	59.593	5.5277e-07	7.691e-07	133.78	36.774	14.166	2.9912	1.2309e-06	12.287	4.785e-05	2.2719e-05	8.9531e-06	366.38	3.3018e-07	3.1613e-07	563.42	55.704	3.5863e-07	2.5783e-07	119.02	34.89	13.212	2.8869	2.8687e-07	11.648	86.935	1.052	15.000	-65.910	183.448	101.977	-66.449	-61.390	53.227	89.279	-61.776	-56.354	-56.838	-50.958	59.486	-50.728	-8191	255	
2237.797	1	1	0	0	0.070419	0.21097	0.15775	0.18879	0.051031	0.03916	0.46583	0.24704	0.070031	0.12546	0.13283	0.15402	0.23508	0.13643	0.31594	0.12187	-2.0917	-2.9271	-2.7583	-2.7062	-3.075	-2.7438	-2.8625	-2.7479	-2.6625	-2.9917	-2.8333	-2.6292	-2.9	-2.6917	-2.6937	-2.925	189.016	251.208	-38.161	174.852	70.612	277.220	227.873	201.111	57.006	39.950	5.921	168.228	278.088	280.090	-54.443	184.731	6.9458e-05	0.00012817	5.4694e-05	395.87	5.9484e-07	8.309e-07	600.99	59.411	7.3509e-07	1.1157e-06	136.52	37.126	13.626	3.0669	1.3842e-06	12.369	4.0957e-05	2.5456e-05	7.1899e-06	368.83	3.0524e-07	3.7695e-07	564.13	55.898	3.3083e-07	2.1784e-07	119.24	34.977	13.084	2.9064	2.5861e-07	11.769	105.693	-8.341	48.639	-65.970	63.156	74.776	-65.989	-61.742	106.021	115.136	-61.548	-55.966	-56.724	-51.628	91.289	-50.764	-8191	255	
2237.893	1	1	0	0	0.11205	0.10061	0.33702	0.1537	0.054132	0.21575	0.068925	0.028948	0.076263	0.17017	0.058304	0.079761	0.35982	0.047368	0.2355	0.19589	-2.2021	-2.8396	-2.9875	-2.8083	-3.0167	-2.9625	-2.9604	-2.9542	-2.7562	-2.8917	-2.9958	-2.6229	-2.9188	-2.8542	-2.7188	-2.9562	273.479	124.257	2.505	-30.386	253.602	112.077	-12.108	13.806	105.584	212.920	0.118	197.678	82.468	66.898	261.307	129.227	6.9811e-05	0.00010111	2.2349e-05	393.96	9.519e-07	1.2986e-06	603.22	59.355	2.4876e-07	1.0807e-06	130.19	37.202	13.787	3.0179	4.9677e-08	12.317	4.2383e-05	2.0924e-05	7.7371e-06	367.4	3.1426e-07	2.7911e-07	566.93	55.958	3.4905e-07	2.4151e-07	118.2	35.158	13.186	2.8648	2.816e-07	11.64	113.194	-73.422	-25.986	-66.335	126.049	91.752	-66.374	-61.559	60.126	140.789	-61.463	-56.246	-56.446	-50.867	113.288	-50.935	-8191	255	
2237.989	1	1	0	0	0.097027	0.087597	0.26939	0.057575	0.19344	0.22611	0.26994	0.10662	0.074153	0.18539	0.25817	0.066278	0.16221	0.16595	0.032856	0.22778	-2.3979	-2.8438	-3.0375	-2.6104	-3.05	-2.8375	-2.8917	-3.0792	-2.7542	-2.8854	-3.0771	-2.6312	-2.8917	-2.9562	-2.6562	-3.0125	111.952	-32.886	106.217	80.686	-41.351	238.246	94.965	213.051	39.023	225.938	-54.126	-9.652	-65.124	-34.303	229.267	-71.994	7.4195e-05	0.00010178	6.5949e-05	396.1	1.571e-06	1.0164e-06	603.36	59.067	1.9756e-06	7.9569e-07	134.25	36.324	13.935	2.9983	1.8682e-06	11.965	4.1462e-05	2.2501e-05	6.6173e-06	369.99	2.4999e-07	2.479e-07	565.02	55.733	3.3313e-07	2.3754e-07	118.69	34.332	13.064	2.8217	2.1768e-07	11.348	115.344	34.311	15.369	-65.995	90.832	109.493	-66.632	-60.698	52.718	53.652	-60.563	-55.848	-57.383	-51.921	45.462	-51.056	-8191	255	
2238.110	1	1	0	0	0.13215	0.10971	0.029852	0.10676	0.19126	0.19852	0.19039	0.13886	0.088317	0.2011	0.12856	0.11003	0.16525	0.11906	0.080581	0.12125	-2.2438	-2.9271	-2.9958	-2.6521	-2.875	-2.8458	-2.7188	-2.8604	-2.8417	-2.5125	-3.0646	-2.7292	-2.8812	-2.9313	-2.6104	-3.2125	-45.919	-54.056	148.900	279.691	-77.243	-38.306	258.066	37.448	43.187	199.688	140.611	105.031	-78.593	232.322	-23.885	196.654	6.9639e-05	0.00019267	1.5322e-05	396.49	5.3056e-07	1.1541e-06	599.11	58.377	5.3167e-07	1.5519e-06	132.49	36.057	13.918	3.0494	9.7517e-07	12.163	4.3705e-05	1.7769e-05	4.5247e-06	370.76	2.9296e-07	2.413e-07	564.78	55.631	2.8422e-07	2.624e-07	117.18	34.236	13.075	2.852	2.703e-07	11.425	101.278	32.889	18.359	-66.039	-29.350	49.036	-66.430	-61.224	6.812	90.793	-61.262	-56.198	-57.228	-51.070	89.578	-50.460	-8191	255	
2238.206	1	1	0	0	0.13622	0.18995	0.2718	0.07036	0.18079	0.19337	0.06752	0.13008	0.17079	0.076443	0.14204	0.19015	0.23328	0.1097	0.055741	0.1475	-2.5104	-2.6646	-2.9354	-2.5667	-2.9562	-3.1958	-2.9354	-2.875	-2.9646	-2.7	-3.0042	-2.8187	-2.8563	-2.9042	-2.6146	-3.025	113.842	-24.922	178.434	75.263	277.239	238.977	148.116	-32.268	-0.516	80.742	45.781	143.001	173.355	-18.818	-49.742	153.236	6.2747e-05	0.00014176	2.2095e-05	396.56	1.5867e-06	1.2469e-06	603.36	59.557	1.3888e-06	1.2405e-06	130.67	36.428	13.747	3.049	1.513e-06	12.15	3.9545e-05	2.0833e-05	4.8186e-06	371.18	2.7685e-07	1.8868e-07	568	55.974	2.8307e-07	2.0013e-07	116.72	34.45	13.022	2.8629	2.6757e-07	11.51	88.650	-1.502	4.039	-65.884	88.805	105.528	-66.340	-61.558	26.909	93.942	-62.849	-55.672	-56.971	-50.534	140.135	-50.343	-8191	255	
2238.302	1	1	0	0	0.29282	0.063801	0.10393	0.084253	0.069586	0.091139	0.035999	0.21395	0.3075	0.30086	0.10192	0.11854	0.12845	0.21974	0.20695	0.064875	-2.3542	-2.6813	-2.9708	-2.7917	-2.7875	-3.0687	-2.8396	-3.0146	-2.8646	-2.8583	-2.85	-2.875	-2.7188	-2.9854	-2.6729	-2.7604	34.417	-70.962	-54.638	148.013	183.924	-6.011	76.975	183.373	-52.681	-32.812	82.881	0.895	6.276	-54.762	-37.878	139.252	7.2134e-05	2.7348e-05	4.4973e-05	396.42	1.1944e-06	9.0568e-07	604.97	58.942	7.2642e-07	2.6559e-07	138.59	36.904	13.807	2.998	1.8058e-06	12.219	4.0556e-05	1.9636e-05	4.1498e-06	370.4	2.6917e-07	2.2049e-07	566.26	55.737	2.5239e-07	1.9834e-07	119.44	34.705	13.085	2.8537	2.6114e-07	11.571	97.605	-73.539	42.936	-66.192	78.241	7.264	-66.324	-60.755	150.213	82.429	-60.855	-56.275	-57.378	-50.817	18.567	-50.778	-8191	255	
2238.398	1	1	0	0	0.090738	0.10097	0.021205	0.080752	0.16462	0.055655	0.075726	0.28942	0.23362	0.17067	0.17907	0.23683	0.096339	0.10829	0.25955	0.1992	-2.4333	-2.6708	-2.9979	-2.8458	-2.7208	-2.9042	-2.5312	-2.7396	-3	-2.8667	-2.9833	-2.7854	-2.7333	-3.0104	-2.7708	-2.9167	92.821	-67.982	35.503	208.457	276.044	-22.278	66.631	-5.487	-54.906	-18.188	108.346	214.785	246.548	254.667	248.995	185.055	5.1967e-05	7.3706e-05	2.6505e-05	395.37	8.9003e-07	7.3127e-07	604.4	59.006	1.2476e-06	1.7255e-06	129.77	36.088	13.868	2.9915	1.5689e-06	11.916	3.5713e-05	1.9654e-05	4.6463e-06	369.95	2.615e-07	1.6907e-07	567.38	55.605	2.4414e-07	2.4669e-07	116.39	34.107	13.009	2.842	2.5198e-07	11.339	93.033	257.171	167.742	-66.011	23.268	5.465	-66.347	-61.329	-10.414	89.936	-61.402	-56.642	-56.551	-50.407	76.781	-50.825	-8191	255	
2238.493	1	1	0	0	0.17846	0.033736	0.30187	0.19363	0.21748	0.26274	0.063648	0.26471	0.20073	0.098717	0.17336	0.063423	0.15729	0.15214	0.13682	0.24542	-2.5958	-2.5875	-2.8208	-2.8229	-2.6521	-2.975	-2.7875	-2.5979	-2.8292	-2.8292	-2.95	-2.8104	-2.8146	-2.9896	-2.8271	-2.6979	202.700	119.698	146.760	-58.115	38.418	48.609	-73.097	-36.756	52.661	-51.318	147.484	239.503	138.817	-42.069	223.730	220.596	7.8628e-05	0.00016221	3.483e-05	394.78	6.3227e-07	1.1963e-06	601.58	58.683	2.4759e-07	1.4033e-06	131.98	36.116	13.729	3.0755	2.7704e-07	12.048	3.497e-05	2.0071e-05	4.2207e-06	369.29	2.5728e-07	1.5306e-07	565.37	55.396	2.4318e-07	2.3535e-07	116.92	34.068	12.976	2.8474	2.1846e-07	11.353	91.080	-33.522	29.948	-66.161	147.010	93.360	-65.998	-61.381	-33.803	63.869	-61.189	-55.894	-56.338	-50.832	113.719	-51.090	-8191	255	
2238.591	1	1	0	0	0.052311	0.044982	0.052319	0.02276	0.093029	0.2053	0.25788	0.06269	0.08497	0.070542	0.17764	0.10193	0.15621	0.20654	0.21218	0.165	-2.5938	-2.6396	-2.8292	-2.9104	-2.7583	-2.9396	-2.8396	-2.8688	-2.9479	-2.7646	-2.6208	-2.8917	-2.5854	-2.9854	-2.7938	-2.6417	144.965	-35.663	231.441	156.176	193.825	96.851	238.532	216.994	217.751	72.803	248.411	224.392	267.763	-57.331	141.185	145.126	7.9907e-05	0.00021683	3.9027e-05	396.76	2.2558e-07	1.6431e-06	607.62	58.735	9.035e-07	8.858e-07	133.02	36.253	13.526	3.0266	7.2698e-07	12.174	3.598e-05	1.9237e-05	4.1295e-06	370.69	2.4749e-07	1.5286e-07	568.01	55.39	1.8661e-07	2.0033e-07	117.95	34.244	12.944	2.8432	1.9586e-07	11.534	105.384	6.025	41.294	-65.785	136.632	28.095	-66.173	-61.242	40.450	98.609	-60.337	-57.192	-56.868	-50.115	105.343	-50.915	-8191	255	
2238.710	1	1	0	0	0.15869	0.22248	0.26833	0.23301	0.11215	0.32525	0.2016	0.079443	0.093477	0.15461	0.241	0.080773	0.24662	0.18342	0.14813	0.18677	-2.6021	-2.6479	-2.5354	-2.9396	-2.6813	-2.8354	-2.775	-2.4688	-3.1042	-2.5667	-2.4792	-3.0521	-2.5687	-2.6854	-2.7521	-2.7812	97.865	182.622	193.189	-76.797	-29.603	158.452	189.897	221.746	240.117	75.993	-66.879	260.237	206.653	7.284	102.593	-77.343	9.1049e-05	0.00012177	1.8906e-05	398.04	9.2893e-07	7.5061e-07	605.75	58.814	1.2372e-06	1.5971e-06	129.49	36.271	13.807	3.0373	1.1724e-06	12.03	3.5089e-05	1.7624e-05	4.4639e-06	370.49	2.9776e-07	1.4726e-07	565.93	55.224	2.0118e-07	2.3555e-07	117.27	34.334	13.057	2.8529	2.0657e-07	11.477	126.570	-6.158	-67.339	-66.176	117.581	20.640	-66.270	-61.101	80.493	62.746	-60.915	-55.953	-56.748	-50.628	58.177	-50.471	-8191	255	
2238.806	1	1	0	0	0.029235	0.17868	0.2095	0.099295	0.11311	0.31693	0.040081	0.14	0.35226	0.18907	0.12017	0.3045	0.2617	0.052011	0.19123	0.1667	-2.45	-2.7271	-2.7438	-2.8021	-2.5979	-2.9917	-2.9792	-2.6583	-3.0604	-2.9083	-2.8375	-3.05	-2.6479	-2.7979	-2.8979	-2.825	81.640	109.612	179.116	85.356	-44.391	163.219	-54.643	190.896	83.576	201.987	265.233	91.924	-55.570	-65.291	95.848	193.725	5.9003e-05	9.1539e-05	5.7389e-05	397.32	1.0271e-06	3.0721e-07	604.86	59.002	9.4277e-07	2.648e-06	131.12	36.07	13.438	2.9212	1.6418e-06	11.942	3.0201e-05	1.9745e-05	4.545e-06	372.31	2.8644e-07	1.7547e-07	566.96	55.63	2.1998e-07	2.1068e-07	116.45	33.823	12.822	2.7923	1.5298e-07	11.284	107.234	21.296	41.022	-66.053	58.329	76.147	-66.132	-61.259	19.667	68.395	-62.613	-56.309	-57.059	-51.290	79.932	-50.933	-8191	255	
2238.902	1	1	0	0	0.16118	0.25997	0.12475	0.22905	0.03165	0.22247	0.10799	0.019303	0.22298	0.12519	0.054121	0.028518	0.083202	0.19126	0.19304	0.033161	-2.6229	-2.7729	-2.6979	-2.9729	-2.7542	-2.95	-3.0521	-2.7687	-2.8875	-2.5896	-2.7208	-2.8937	-2.6708	-2.9521	-2.9708	-2.7375	178.220	138.568	85.455	145.995	44.989	249.136	-16.538	271.211	193.460	18.575	259.835	103.517	169.801	194.896	-55.407	172.806	8.1202e-05	0.00014681	2.8716e-05	398.77	7.8005e-07	1.4531e-06	602.65	58.886	1.0978e-06	1.4181e-06	134.09	35.892	13.371	2.9402	8.143e-07	11.942	3.1315e-05	1.5593e-05	4.0129e-06	372	2.4078e-07	1.0224e-07	566.34	55.564	2.0118e-07	1.8521e-07	116.04	34.027	12.817	2.7994	1.8436e-07	11.318	112.570	-15.017	28.379	-66.013	140.149	68.326	-66.387	-61.346	35.239	70.107	-62.853	-55.954	-56.647	-50.849	100.690	-50.631	-8191	255	
2239.023	1	1	0	0	0.17985	0.13618	0.12167	0.16799	0.26453	0.15826	0.12188	0.23752	0.18387	0.22896	0.19987	0.1787	0.045971	0.27504	0.089649	0.055619	-2.4437	-2.9333	-2.6292	-3.0438	-2.5729	-2.8729	-2.9167	-2.7021	-2.9104	-2.8708	-2.5979	-2.9167	-2.7542	-2.7354	-2.9813	-2.725	141.583	-8.735	159.249	206.874	190.356	-76.782	-43.893	254.825	157.809	-53.167	-55.663	-60.985	4.130	32.276	233.085	126.521	7.3502e-05	0.00021149	1.6373e-05	394.79	4.1808e-07	2.0684e-06	599.64	59.24	9.1375e-07	1.0515e-06	134.46	36.248	13.396	2.9849	1.0513e-06	12.162	2.9622e-05	1.4396e-05	3.2884e-06	369.92	2.4039e-07	1.9088e-07	564.05	55.416	1.7606e-07	1.9476e-07	116.6	34.263	12.829	2.8329	1.7968e-07	11.521	108.205	31.088	16.336	-65.774	110.697	85.623	-66.295	-60.930	118.451	31.344	-61.587	-56.097	-57.231	-51.446	61.290	-50.576	-8191	255	
2239.094	1	1	0	0	0.083646	0.081858	0.048754	0.081366	0.19908	0.26273	0.24364	0.13194	0.14451	0.24383	0.24045	0.18643	0.18835	0.036805	0.036169	0.1665	-2.3	-2.8542	-2.6083	-3.0771	-2.8646	-2.7396	-2.9875	-2.6063	-2.8	-2.9396	-2.85	-2.825	-2.5021	-2.6104	-2.9229	-2.6583	218.184	237.879	79.684	266.861	-7.790	210.005	169.104	214.453	8.913	-35.732	89.073	-46.419	276.717	195.687	268.581	224.601	7.4574e-05	0.00020343	2.7854e-05	396.95	1.198e-06	1.5779e-06	601.45	59.262	1.653e-06	1.2635e-06	126.86	36.66	13.805	3.0049	9.4424e-07	12.116	3.4584e-05	1.7859e-05	5.5634e-06	371.01	2.6054e-07	2.0148e-07	564.54	55.546	2.123e-07	1.5378e-07	116.55	34.737	13.054	2.8674	2.2392e-07	11.444	94.457	-8.927	27.903	-65.962	33.072	3.127	-66.242	-61.395	69.525	95.173	-60.613	-55.949	-56.678	-51.759	72.479	-50.459	-8191	255	
2239.190	1	1	0	0	0.26507	0.28933	0.083785	0.20531	0.37718	0.13537	0.1537	0.047917	0.20402	0.089503	0.14885	0.062068	0.090424	0.28953	0.29497	0.1954	-2.3021	-2.8417	-2.5708	-2.8417	-2.8542	-2.55	-3.0021	-2.7271	-2.8354	-3.1208	-2.5812	-2.7333	-2.9479	-2.6063	-2.9583	-2.7687	-58.410	93.007	159.147	-74.924	184.134	-74.937	103.183	176.953	172.643	57.901	237.782	90.397	139.480	200.908	-77.089	149.014	7.2354e-05	0.00013892	2.4693e-05	395.29	1.2289e-06	1.2168e-06	601.65	59.167	8.6886e-07	7.1717e-07	131.73	35.764	13.852	3.0014	1.1184e-06	11.755	3.8387e-05	1.4958e-05	5.4215e-06	369.75	2.5728e-07	1.8388e-07	564.74	55.547	2.0808e-07	1.9635e-07	116.13	34.041	12.994	2.8196	1.4148e-07	11.192	88.444	43.146	15.392	-65.954	54.049	74.616	-66.352	-61.213	40.328	-78.042	-61.617	-55.902	-57.846	-51.648	91.956	-51.197	-8191	255	
2239.287	1	1	0	0	0.054551	0.11014	0.040039	0.12855	0.17055	0.15704	0.10086	0.056148	0.12544	0.1289	0.1044	0.18056	0.12153	0.14237	0.22379	0.22097	-2.1771	-2.8438	-2.6229	-2.7667	-2.7458	-2.6771	-3.0021	-2.8312	-2.7938	-2.9625	-2.6167	-2.9896	-2.8146	-2.6667	-2.9771	-2.7125	131.383	205.929	25.005	275.673	116.916	96.995	208.917	-3.973	88.512	242.419	-26.133	-13.427	186.940	-9.740	-22.347	198.907	5.435e-05	0.00012663	4.0553e-05	401.77	1.9378e-06	1.5931e-06	601.23	59.22	8.0621e-07	9.8511e-07	129.82	35.814	13.682	2.8899	2.3279e-06	11.736	3.7362e-05	1.2438e-05	4.7324e-06	373.03	2.4155e-07	2.2149e-07	566.82	55.702	2.3263e-07	1.2673e-07	115.29	34.014	12.91	2.798	1.4129e-07	11.241	89.888	15.588	2.921	-66.299	29.668	5.106	-66.262	-60.947	57.337	34.407	-59.241	-56.459	-56.780	-52.382	69.647	-50.610	-8191	255	
2239.405	1	1	0	0	0.30333	0.067514	0.21428	0.3525	0.1191	0.0063074	0.070344	0.14908	0.02751	0.20112	0.10443	0.19342	0.18959	0.13462	0.036617	0.28923	-2.3083	-2.8292	-2.6167	-2.6771	-2.9458	-2.6146	-2.7146	-2.8542	-2.5979	-3.0062	-2.6229	-2.85	-2.9979	-2.5938	-3.0187	-2.7625	213.198	145.246	244.617	275.674	245.755	18.201	139.855	193.898	253.806	-58.992	-48.672	203.541	37.125	265.685	-61.846	250.820	6.386e-05	0.00012375	4.2863e-05	401.23	9.4445e-07	1.4569e-06	599.85	58.306	2.1637e-06	8.7713e-07	135.51	35.884	13.502	3.0153	5.0317e-07	12.114	3.4792e-05	1.077e-05	4.4183e-06	372.86	2.7474e-07	2.345e-07	563.81	55.103	2.7463e-07	1.5239e-07	116.6	34.164	12.885	2.8522	1.5941e-07	11.495	99.159	28.370	-11.837	-65.606	70.042	76.427	-66.087	-61.374	76.952	220.099	-59.628	-56.391	-57.277	-50.913	102.940	-50.800	-8191	255	
2239.502	1	1	0	0	0.54821	0.06807	0.26917	0.18137	0.1641	0.32624	0.12023	0.29418	0.26646	0.11332	0.071761	0.11808	0.1268	0.023513	0.10628	0.35523	-2.2396	-2.8271	-2.6917	-2.9875	-2.9479	-2.7542	-2.9979	-2.7979	-2.7604	-3.0729	-2.825	-2.7812	-2.9646	-2.4958	-3.0708	-2.8875	2.572	195.505	2.114	254.846	105.804	-3.062	112.659	159.806	-59.155	107.468	265.357	269.302	71.594	247.421	-48.588	237.849	6.304e-05	0.00022145	4.1161e-05	394.69	1.7684e-06	1.7151e-06	598.5	58.122	8.5685e-07	1.1136e-06	131.72	36.122	13.561	2.9671	7.9171e-07	11.95	3.65e-05	1.8621e-05	5.3607e-06	369.38	2.663e-07	2.5731e-07	561.92	54.784	2.5795e-07	1.681e-07	117.06	34.294	12.826	2.8293	1.7422e-07	11.438	83.931	39.914	6.021	-66.129	62.011	29.980	-66.463	-61.472	79.806	60.717	-62.564	-56.148	-57.243	-52.682	39.253	-50.482	-8191	255	
2239.598	1	1	0	0	0.11969	0.048366	0.0945	0.11155	0.033944	0.20167	0.1179	0.045437	0.16034	0.10093	0.035854	0.14057	0.1364	0.32687	0.24388	0.14173	-2.1896	-2.9313	-2.6437	-2.6937	-2.8271	-2.7604	-2.8646	-2.9083	-2.5938	-2.9708	-2.9646	-2.8708	-2.9604	-2.8667	-2.8521	-2.9437	158.722	23.861	0.115	244.737	16.144	273.326	202.822	207.530	-57.430	-58.925	-51.678	-67.639	52.675	-61.583	62.614	103.617	7.3783e-05	0.00014878	3.4728e-05	392.14	6.8271e-07	8.3307e-07	601.1	57.917	7.4258e-07	1.3821e-06	129.41	35.395	13.31	2.9124	7.9943e-07	11.646	3.6173e-05	1.3979e-05	5.0213e-06	367.17	2.2658e-07	1.7907e-07	561.9	54.413	2.683e-07	1.5179e-07	115.08	33.563	12.605	2.7655	1.4928e-07	11.14	118.831	43.857	-3.544	-66.231	132.772	94.203	-66.009	-61.492	-6.062	7.594	-61.685	-55.968	-57.238	-51.242	156.568	-50.063	-8191	255	
2239.671	1	1	0	0	0.13075	0.15053	0.087771	0.11711	0.082839	0.11082	0.14997	0.12242	0.081837	0.1424	0.13677	0.22057	0.085094	0.13628	0.11768	0.30746	-2.2062	-2.925	-2.9354	-2.8021	-3.0271	-2.7354	-2.9625	-2.925	-2.6375	-2.8312	-2.9146	-2.7208	-3.1292	-2.7896	-2.7708	-2.975	115.390	99.518	207.412	115.323	61.640	265.917	-29.001	279.332	80.896	103.010	-28.757	253.105	85.465	-20.257	256.323	57.992	7.3946e-05	0.00011689	2.9561e-06	392.03	5.9279e-07	6.3368e-07	595.18	56.437	1.1371e-06	1.4112e-06	127.55	35.86	13.435	2.9386	1.7555e-06	11.799	3.4079e-05	1.8168e-05	6.4552e-06	365.31	2.2716e-07	2.1569e-07	557.45	53.758	2.8441e-07	1.6373e-07	113.63	33.651	12.633	2.7648	2.0365e-07	11.17	114.068	42.135	130.464	-66.208	-3.651	55.275	-66.220	-61.487	14.268	75.133	-61.854	-55.727	-57.193	-50.223	42.510	-50.488	-8191	255	
2239.790	1	1	0	0	0.1963	0.20668	0.099083	0.13138	0.22231	0.11426	0.16293	0.27917	0.068037	0.097958	0.043014	0.024892	0.36088	0.086663	0.26914	0.228	-2.2896	-2.9125	-2.7375	-2.6396	-3.0729	-2.7646	-2.7125	-3.0958	-2.8958	-2.9042	-2.9229	-2.6479	-2.9667	-2.8708	-2.8583	-2.8542	149.922	206.706	-60.917	-30.474	106.078	13.944	66.504	54.450	232.308	201.380	38.585	99.432	125.100	262.489	-76.653	253.922	8.3505e-05	0.00013405	2.5597e-05	394.51	1.0433e-06	6.9753e-07	592.6	57.082	6.6113e-07	1.7993e-06	128.46	35.482	13.468	2.9122	1.0918e-06	11.787	3.8491e-05	1.8258e-05	5.6141e-06	364.91	2.4749e-07	1.9668e-07	555.9	53.748	2.5143e-07	1.3031e-07	114.42	33.641	12.613	2.7674	1.7637e-07	11.233	104.499	-34.464	40.112	-65.696	46.824	133.610	-66.467	-61.901	56.515	42.508	-61.155	-56.156	-56.942	-50.278	24.919	-50.429	-8191	255	
2239.886	1	1	0	0	0.11061	0.14845	0.19445	0.1404	0.12558	0.098719	0.14406	0.18653	0.2772	0.14438	0.10215	0.10357	0.37304	0.16518	0.26124	0.19291	-2.3812	-2.8646	-2.9021	-2.5812	-2.8854	-2.7646	-2.775	-2.8937	-2.5896	-2.7458	-2.95	-2.6792	-3.0604	-2.7188	-2.8167	-3.025	45.953	106.871	103.704	-9.370	16.278	207.632	238.197	89.444	41.457	-30.379	191.023	75.089	29.900	178.988	45.250	-49.183	8.012e-05	0.00015168	4.2705e-05	390.31	1.5336e-06	2.4709e-06	596.76	57.528	1.1881e-06	3.4983e-07	128.47	35.531	13.316	2.9017	1.6911e-06	11.914	3.7332e-05	1.7279e-05	3.9977e-06	364.88	2.3234e-07	2.1489e-07	557.19	53.857	2.5009e-07	1.5318e-07	113.87	33.704	12.559	2.7529	1.5415e-07	11.237	100.293	7.754	40.602	-66.098	21.920	46.155	-66.358	-61.192	33.913	92.426	-59.203	-55.942	-57.113	-51.213	39.621	-50.915	-8191	255	
2239.982	1	1	0	0	0.39149	0.053756	0.15301	0.1281	0.23202	0.059703	0.29008	0.18735	0.32192	0.21941	0.10156	0.096702	0.13094	0.038414	0.17693	0.16983	-2.4167	-2.8688	-2.8438	-2.6542	-2.7458	-2.7583	-2.5812	-2.8208	-2.7833	-2.7583	-3.0312	-2.7042	-2.7292	-2.9562	-2.6667	-2.9562	64.164	39.646	54.435	229.186	-25.043	124.690	166.051	127.299	137.157	223.932	89.198	-69.775	22.199	11.837	260.849	-35.614	7.86e-05	0.00016698	6.2315e-05	390.12	1.5328e-06	3.6212e-07	588.16	57.461	9.2027e-07	1.1296e-06	128.34	34.9	13.205	2.8153	1.3001e-06	11.606	3.5252e-05	1.4559e-05	3.9775e-06	365.01	2.0241e-07	1.6367e-07	553.36	53.605	2.0176e-07	1.7029e-07	113.76	33.179	12.419	2.6939	1.8943e-07	10.999	97.910	46.914	69.498	-66.193	48.042	1.644	-66.220	-61.530	71.713	58.711	-62.929	-56.024	-57.509	-50.786	43.644	-50.358	-8191	255	
2240.103	1	1	0	0	0.12661	0.094632	0.031248	0.081959	0.15373	0.094013	0.29298	0.18507	0.12539	0.10466	0.095086	0.21107	0.058225	0.51025	0.13048	0.14116	-2.4542	-3.0042	-3.0271	-2.9083	-2.8688	-3.0458	-2.8167	-2.8625	-2.8542	-2.7188	-2.9021	-2.7083	-2.9604	-2.9333	-2.7083	-3.0396	206.662	171.005	81.787	144.065	149.755	-0.384	191.755	198.191	126.129	220.345	73.172	257.757	143.404	23.444	95.899	4.786	6.6261e-05	0.00012926	4.9952e-05	389.8	4.1425e-07	6.5176e-07	587.26	56.667	1.6523e-06	6.4975e-07	128.72	35.239	13.229	2.928	3.8356e-07	11.754	3.5965e-05	1.8911e-05	3.7089e-06	363.08	2.0222e-07	1.8368e-07	552.29	53.288	2.4203e-07	1.6433e-07	113.33	33.502	12.456	2.7295	2.1047e-07	11.138	109.325	-9.436	-22.862	-65.909	-49.070	119.661	-66.240	-61.242	22.700	127.902	-60.636	-55.954	-56.837	-51.257	223.953	-50.785	-8191	255	
2240.199	1	1	0	0	0.11405	0.29102	0.077954	0.27928	0.27919	0.040764	0.3779	0.012368	0.079798	0.24416	0.11935	0.084789	0.14847	0.20711	0.18379	0.047435	-2.3125	-2.7938	-2.9938	-2.6625	-3.0271	-2.9188	-2.8229	-2.7833	-3.0083	-2.6375	-3.1333	-2.8146	-2.8271	-3.0687	-2.9521	-2.8604	44.485	4.960	159.294	231.621	64.677	-15.518	174.721	-35.277	73.699	107.870	134.186	79.111	221.692	98.188	105.450	106.389	4.8972e-05	0.00010916	3.8825e-05	388.06	8.0153e-07	2.115e-06	591.47	56.468	9.7028e-07	1.2448e-06	128.14	35.489	13.039	2.9214	1.8327e-06	11.997	3.7213e-05	2.0887e-05	3.6633e-06	364.02	2.285e-07	1.5586e-07	555.5	53.505	2.0214e-07	1.9576e-07	113.1	33.57	12.494	2.7708	2.0716e-07	11.314	95.396	-28.271	23.463	-66.218	138.155	19.152	-66.215	-61.629	100.879	85.751	-61.862	-56.422	-56.006	-51.664	28.410	-50.625	-8191	255	
2240.293	1	1	0	0	0.18088	0.24262	0.2301	0.25917	0.14788	0.10211	0.30254	0.065666	0.015094	0.15417	0.082449	0.20583	0.32682	0.25247	0.096025	0.13768	-2.4708	-2.8167	-3.0354	-2.9	-2.9021	-3.1521	-2.9208	-2.975	-2.9479	-2.7438	-3.0292	-2.875	-2.825	-2.9958	-2.8521	-2.8312	157.601	19.780	-29.805	14.962	45.844	24.140	214.910	-11.390	171.413	-27.364	-47.032	252.652	114.404	93.119	-39.642	193.957	7.4119e-05	0.00011809	6.6797e-05	386.95	1.6508e-06	2.2942e-06	591.49	57.878	3.5804e-07	9.9119e-07	132.42	36.221	13.234	2.9884	1.5093e-06	11.855	3.3321e-05	1.679e-05	2.5638e-06	363.34	2.5881e-07	1.1305e-07	555.99	53.856	2.1441e-07	1.8899e-07	115.24	34.053	12.661	2.7995	1.9371e-07	11.311	108.620	7.720	-30.069	-66.221	52.178	78.553	-66.183	-60.860	105.025	105.113	-60.983	-55.992	-56.769	-51.214	92.765	-50.291	-8191	255	
2240.391	1	1	0	0	0.16049	0.097208	0.12646	0.14717	0.14862	0.12016	0.094733	0.14913	0.069038	0.16083	0.2987	0.15497	0.075637	0.19734	0.20446	0.34366	-2.4083	-2.5812	-2.8958	-2.9083	-2.6125	-2.9958	-2.7188	-2.6625	-2.9167	-2.7708	-3.1063	-3.0979	-2.7521	-2.8812	-2.7938	-2.7604	99.411	239.422	18.467	-19.347	-2.187	232.744	212.062	113.938	224.976	2.580	134.875	262.985	205.746	114.248	148.003	99.158	9.5622e-05	0.00014512	5.7587e-05	391.27	5.6507e-07	1.8433e-06	596.33	56.985	9.9093e-07	1.1565e-06	135.71	35.679	13.271	2.9974	1.435e-06	11.78	3.5713e-05	2.4097e-05	4.0738e-06	365.27	2.1488e-07	1.1045e-07	557.55	53.657	2.148e-07	2.1227e-07	115.71	33.652	12.569	2.7711	2.0716e-07	11.186	96.383	0.400	28.254	-65.840	47.649	61.417	-66.307	-61.609	20.943	83.772	-61.439	-56.151	-56.723	-50.760	64.641	-50.820	-8191	255	
2240.486	1	1	0	0	0.11598	0.22067	0.023032	0.1617	0.22607	0.1561	0.013011	0.092007	0.12881	0.16307	0.086871	0.10621	0.23737	0.2201	0.12234	0.19062	-2.7042	-2.75	-2.9375	-2.9042	-2.6479	-3.1708	-2.775	-2.7917	-3.1125	-2.8896	-2.9938	-2.9375	-2.8021	-3.0354	-2.7687	-2.6542	-22.373	239.919	212.377	14.291	275.499	2.837	-47.581	68.448	261.490	270.686	-22.340	-38.310	89.364	-51.643	246.708	273.189	5.9395e-05	0.00025669	2.8122e-05	394.57	8.73e-07	1.8632e-06	591.65	58.019	1.1148e-06	1.3983e-06	132.34	35.929	13.49	2.9216	7.9885e-07	11.996	3.5475e-05	1.5865e-05	2.3561e-06	368.25	2.851e-07	1.1325e-07	558.41	54.28	2.1998e-07	1.9755e-07	114.66	33.889	12.71	2.7818	2.0502e-07	11.341	89.156	10.122	7.056	-65.979	40.163	70.672	-66.231	-61.400	4.852	124.728	-62.859	-56.571	-57.354	-50.731	103.198	-50.654	-8191	255	
2240.582	1	1	0	0	0.070736	0.25129	0.29065	0.058837	0.11586	0.067643	0.38552	0.20629	0.088964	0.063236	0.093623	0.19811	0.13077	0.11271	0.21285	0.14115	-2.6437	-2.7792	-2.7687	-2.8021	-2.5125	-3.0667	-2.9437	-2.7104	-2.9146	-2.8396	-2.9229	-3.0708	-2.6333	-2.925	-2.7104	-2.7958	248.727	-28.721	112.896	-38.436	71.264	53.926	268.082	260.500	-38.329	51.084	236.940	232.180	133.661	68.558	143.216	8.514	7.5877e-05	0.00021863	3.3461e-05	391.84	1.513e-07	4.5831e-07	596.83	57.425	7.8864e-07	1.3501e-06	131.02	36.167	13.55	2.9658	1.025e-06	11.94	3.1538e-05	1.8494e-05	3.0705e-06	368.09	2.7877e-07	9.3038e-08	560.48	54.314	1.6781e-07	2.0173e-07	115.93	34.035	12.677	2.7883	1.826e-07	11.326	120.145	10.890	-18.242	-65.767	236.283	52.719	-66.184	-60.934	57.977	44.681	-62.392	-55.890	-56.448	-50.800	30.160	-49.931	-8191	255	
2240.703	1	1	0	0	0.14145	0.066373	0.21996	0.091638	0.095137	0.1504	0.10016	0.15643	0.16799	0.1568	0.084665	0.17867	0.13222	0.099889	0.13448	0.01315	-2.5792	-2.7625	-2.6562	-2.9167	-2.5646	-2.9562	-2.8292	-2.8958	-2.9437	-2.8604	-2.6958	-2.8771	-2.6958	-2.8167	-3.0396	-2.6792	152.256	272.620	57.736	-50.644	237.965	207.893	208.121	177.515	257.903	-24.254	280.220	-32.100	131.880	-12.451	102.432	-45.720	5.1482e-05	0.00011315	2.4887e-05	392.66	9.1456e-07	1.3707e-06	600.09	56.909	1.2836e-06	1.0617e-06	128.29	36.362	13.475	3.01	1.5367e-07	12.098	3.2667e-05	1.4668e-05	4.7172e-06	367.84	2.3003e-07	1.4146e-07	562.28	54.162	1.7414e-07	1.7626e-07	114.1	34.32	12.803	2.8114	1.5357e-07	11.41	92.263	21.042	36.279	-66.041	-5.990	89.900	-66.333	-60.801	106.244	149.196	-61.981	-55.816	-56.304	-51.501	166.072	-50.780	-8191	255	
2240.799	1	1	0	0	0.34564	0.059333	0.1026	0.21729	0.26746	0.23944	0.081612	0.22439	0.10229	0.11511	0.42349	0.2845	0.14149	0.19769	0.14894	0.13092	-2.6646	-2.9083	-2.6521	-2.9562	-2.7979	-3.0208	-2.7188	-2.5896	-3.0375	-2.7062	-2.8146	-2.9417	-2.7646	-2.7271	-3.0104	-2.6521	-54.975	257.488	107.929	196.319	276.857	-6.061	248.114	15.417	51.920	38.606	-27.057	202.550	152.018	171.988	-59.906	223.481	4.2392e-05	9.7276e-05	6.3564e-05	391.82	1.2927e-06	2.4244e-06	595.38	58.322	4.861e-07	1.0099e-06	130.12	35.701	13.491	2.8979	1.4392e-06	11.809	3.3232e-05	1.6264e-05	4.4386e-06	367.15	2.8414e-07	1.4046e-07	559.49	54.606	1.8296e-07	1.9536e-07	114.31	33.888	12.768	2.7598	1.6195e-07	11.194	99.980	-15.506	46.187	-66.074	153.052	82.343	-66.229	-61.401	10.627	67.944	-60.827	-55.752	-57.158	-50.439	67.787	-50.458	-8191	255	
2240.895	1	1	0	0	0.11964	0.31505	0.069734	0.090629	0.0912	0.28467	0.015665	0.049664	0.25094	0.22812	0.23892	0.13968	0.1494	0.41474	0.15143	0.28346	-2.7521	-2.8896	-2.7083	-3.0167	-2.7313	-2.9021	-2.9729	-2.5833	-2.8688	-2.9271	-2.6167	-2.9375	-2.7458	-2.875	-2.9833	-2.8104	250.231	41.595	249.601	10.559	242.892	9.040	31.733	234.567	278.703	266.718	141.118	78.946	204.483	-54.526	-14.531	242.895	5.6626e-05	0.00026011	1.1572e-05	398.59	5.0865e-07	1.3941e-06	596.61	57.857	6.0709e-07	8.681e-07	130.08	35.893	13.343	2.9096	4.5069e-07	11.866	3.3351e-05	1.6391e-05	4.2308e-06	370.1	2.5306e-07	1.4586e-07	562.72	54.74	2.1115e-07	1.5995e-07	117.25	33.854	12.765	2.7672	1.7793e-07	11.362	113.993	33.720	-46.240	-66.090	150.048	115.899	-66.152	-61.333	204.931	119.761	-59.889	-56.374	-57.539	-51.277	8.154	-50.760	-8191	255	
2240.967	1	1	0	0	0.14494	0.2332	0.083068	0.037814	0.2443	0.093124	0.12847	0.13474	0.13821	0.23508	0.036278	0.19852	0.082865	0.25602	0.1773	0.16254	-2.5292	-2.8292	-2.55	-3.0833	-2.7604	-2.7958	-3.1146	-2.6	-2.9417	-2.9104	-2.6	-2.8187	-2.7562	-2.8312	-2.8854	-2.6729	23.115	149.564	74.168	2.391	235.619	93.713	237.722	-2.754	247.324	254.342	99.219	207.515	-17.002	131.504	-28.536	-19.966	8.382e-05	0.00021242	3.6499e-05	397.66	1.2133e-06	1.6163e-07	602.93	58.663	4.7637e-07	2.4044e-06	130.19	36.216	13.469	2.9654	1.043e-06	12.242	3.4435e-05	1.8512e-05	5.1125e-06	369.58	2.4193e-07	2.2149e-07	564.24	55.066	2.1269e-07	1.8104e-07	115.93	34.212	12.85	2.8058	1.791e-07	11.553	99.396	24.865	-22.914	-66.246	142.770	27.346	-66.089	-61.508	200.017	51.836	-60.220	-56.630	-57.192	-50.735	82.024	-50.756	-8191	255	
2241.087	1	1	0	0	0.19282	0.13202	0.26189	0.24872	0.13981	0.33458	0.25164	0.21364	0.25449	0.044869	0.19103	0.25079	0.06435	0.045501	0.15381	0.15353	-2.3792	-2.8312	-2.625	-2.7938	-2.8229	-2.675	-2.9583	-2.6896	-2.6667	-3.025	-2.7958	-2.9125	-2.9042	-2.6312	-2.8812	-2.8271	28.164	188.118	119.080	175.609	61.306	-62.057	173.859	210.954	23.106	207.767	190.470	247.790	120.744	-73.121	52.768	220.058	6.6862e-05	0.0001736	1.862e-05	391.37	8.6228e-07	8.582e-07	601.38	58.118	1.1038e-06	1.0462e-06	129.8	36.707	13.608	3.017	6.7723e-07	12.313	3.3692e-05	1.6083e-05	4.6818e-06	367.94	2.6246e-07	1.8428e-07	561.66	54.742	2.1192e-07	1.8442e-07	116.6	34.74	12.801	2.847	1.6507e-07	11.586	115.508	30.469	36.584	-65.934	96.738	87.349	-66.040	-61.148	88.831	71.364	-62.542	-56.013	-57.230	-50.643	43.992	-50.987	-8191	255	
2241.183	1	1	0	0	0.087591	0.096239	0.26722	0.11757	0.27531	0.13561	0.19837	0.32556	0.20729	0.099044	0.062473	0.16496	0.35247	0.33231	0.041773	0.15109	-2.1937	-2.9833	-2.5438	-2.7729	-2.8	-2.6104	-3.1646	-2.6417	-2.9354	-2.9313	-2.6875	-3.025	-2.7021	-2.4625	-3.0104	-2.7646	144.314	-17.351	-18.304	241.591	40.390	243.955	-74.535	149.675	11.410	100.003	196.083	211.468	-20.957	111.296	237.761	-30.227	5.8911e-05	0.00012366	6.9549e-06	393.35	7.6835e-07	1.2374e-06	595.55	57.548	7.2145e-07	1.2986e-06	126.64	36.185	13.506	2.9286	9.1092e-07	12.148	3.4554e-05	1.4016e-05	5.5381e-06	366.68	2.9622e-07	2.1149e-07	558.38	54.259	2.3052e-07	1.5955e-07	114.89	34.191	12.74	2.7812	2.1729e-07	11.414	95.920	-23.055	149.707	-65.714	24.318	61.627	-65.765	-61.488	118.023	127.594	-61.458	-56.236	-56.759	-50.769	87.618	-50.619	-8191	255	
2241.279	1	1	0	0	0.099409	0.10125	0.23226	0.21397	0.20014	0.23527	0.15641	0.22869	0.16112	0.06542	0.051576	0.39281	0.16519	0.16655	0.19928	0.12633	-2.3792	-2.9042	-2.775	-2.8271	-2.8792	-2.6396	-2.9604	-2.7542	-2.8063	-2.9271	-2.7062	-2.9396	-2.9292	-2.6083	-3.0229	-2.8042	164.430	-7.850	102.470	206.925	176.929	240.504	170.809	7.139	-45.592	205.094	63.944	149.209	180.083	179.978	133.180	102.063	7.1953e-05	8.4354e-05	3.0894e-05	388.85	1.3662e-06	1.4329e-06	592.99	57.707	2.7358e-07	7.7645e-07	128.62	36.086	13.54	2.9325	2.0147e-06	12.088	3.5683e-05	1.4795e-05	5.5431e-06	364.79	2.5114e-07	1.9248e-07	557.38	53.908	2.311e-07	1.7765e-07	115.69	34.078	12.662	2.7949	1.6799e-07	11.493	107.142	1.789	20.459	-66.190	108.822	87.035	-65.897	-61.330	-48.387	80.725	-62.376	-56.323	-56.556	-50.785	55.309	-50.630	-8191	255	
2241.374	1	1	0	0	0.33029	0.043642	0.1643	0.13949	0.056075	0.097725	0.35298	0.16397	0.1347	0.24949	0.11106	0.31037	0.10948	0.15795	0.27514	0.17956	-2.3021	-2.9167	-2.8063	-2.9521	-2.9	-2.7667	-2.9792	-2.8583	-2.6562	-3.0521	-2.7292	-2.9083	-3.0604	-2.6979	-2.875	-2.8583	195.717	124.554	10.713	-13.166	-59.393	-49.882	-45.156	151.885	-64.242	37.178	89.428	-11.804	47.572	234.407	-31.260	-6.977	0.00010081	7.3252e-05	5.4945e-05	392.21	5.7197e-07	3.4311e-07	591.21	57.18	5.8964e-07	1.4136e-06	129.19	36.077	13.527	3.0233	4.8757e-07	12.447	3.4569e-05	1.291e-05	6.1562e-06	364.48	1.8514e-07	1.7507e-07	556.41	53.982	2.3206e-07	1.4662e-07	115.21	34.278	12.663	2.8336	1.3057e-07	11.687	103.596	-39.269	14.556	-66.122	77.869	131.462	-66.110	-60.685	45.187	73.395	-60.765	-55.782	-56.640	-50.353	-12.397	-50.300	-8191	255	
2241.472	1	1	0	0	0.03618	0.079518	0.12915	0.13856	0.3708	0.13356	0.23106	0.13303	0.11071	0.24257	0.17721	0.37536	0.151	0.059273	0.1038	0.17519	-2.3104	-2.9708	-2.8771	-2.8354	-2.975	-2.8146	-2.9167	-2.8917	-2.6604	-2.7562	-2.7396	-2.6833	-2.9938	-2.6604	-2.9354	-2.9292	142.668	93.263	-71.095	-15.461	-45.351	222.483	112.644	114.815	-41.438	148.662	-14.709	243.094	220.325	156.523	251.752	-6.060	8.7388e-05	0.00012314	2.4054e-05	388.08	8.0713e-07	8.2286e-07	590.98	57.807	1.093e-06	1.0291e-06	127.91	36.393	13.713	2.9611	7.062e-07	12.298	4.0452e-05	1.3453e-05	5.1429e-06	363.72	2.049e-07	1.6347e-07	557.33	53.914	1.9715e-07	1.3707e-07	115.56	34.433	12.748	2.8289	1.6779e-07	11.636	103.464	-12.099	-21.952	-65.905	184.947	76.190	-66.165	-60.925	122.169	65.579	-61.429	-55.954	-56.668	-51.230	155.196	-50.571	-8191	255	
2241.566	1	1	0	0	0.10733	0.2299	0.16255	0.11316	0.1492	0.22189	0.24513	0.21713	0.19534	0.11241	0.13834	0.40244	0.12643	0.19169	0.24754	0.151	-2.3042	-2.8917	-2.8042	-2.7229	-2.9521	-2.8688	-2.875	-2.9875	-2.7271	-2.9688	-2.975	-2.6437	-3.0417	-2.4938	-2.8417	-2.975	17.093	80.021	-77.401	219.534	64.314	202.980	232.429	79.337	135.488	108.772	73.466	-71.698	236.134	92.608	236.090	173.201	8.446e-05	3.7709e-05	3.3493e-05	384.68	4.3304e-07	1.2596e-06	589.8	57.467	1.0748e-06	1.9368e-06	127.54	36.121	13.381	2.9626	5.4674e-07	11.885	3.7911e-05	1.3635e-05	4.3828e-06	360.94	2.3828e-07	1.7987e-07	553.04	53.609	2.3666e-07	1.6353e-07	113.71	33.973	12.57	2.7884	1.6078e-07	11.363	109.219	-15.702	1.803	-65.729	162.702	1.940	-66.149	-61.766	104.309	46.282	-61.801	-55.952	-56.416	-50.075	48.273	-50.709	-8191	255	
2241.664	1	1	0	0	0.16999	0.19353	0.26241	0.1765	0.019465	0.2096	0.026081	0.070299	0.21142	0.38577	0.36421	0.21916	0.1419	0.068443	0.10285	0.15607	-2.0958	-2.9146	-3.0042	-2.6708	-3.0958	-2.6583	-2.7771	-2.9917	-2.5396	-3.0062	-2.9479	-2.7083	-2.9313	-2.8063	-2.8083	-2.7979	150.284	165.912	29.688	70.895	180.028	135.300	41.763	107.568	197.297	128.664	120.349	138.238	123.321	112.015	-21.758	196.317	8.6303e-05	0.00010059	3.3014e-05	385.71	2.0295e-06	1.1531e-06	586.24	56.422	7.4668e-07	1.8541e-06	125.16	35.81	13.33	2.9178	4.4675e-07	12.143	3.4034e-05	1.3889e-05	5.0061e-06	361.1	2.0049e-07	1.8508e-07	549.82	53.08	2.8441e-07	1.6691e-07	111.88	34.098	12.547	2.7817	1.8182e-07	11.513	104.803	0.144	13.870	-66.036	41.916	85.322	-65.927	-61.590	-27.898	76.866	-61.051	-55.757	-56.380	-51.334	-27.236	-50.448	-8191	255	
2241.783	1	1	0	0	0.25149	0.19492	0.073065	0.1275	0.20112	0.04884	0.21768	0.11565	0.12857	0.096827	0.20297	0.1049	0.24081	0.21721	0.16599	0.13839	-2.2	-2.7958	-2.7771	-2.6792	-3.0062	-2.9938	-2.9813	-3.175	-2.7938	-3.025	-2.8979	-2.6146	-3.0583	-2.8479	-2.7875	-3.0667	34.935	231.149	178.363	-74.093	219.606	134.192	215.020	130.222	78.847	153.793	111.212	209.451	-40.037	174.711	-22.730	184.935	5.4904e-05	0.00021428	3.1418e-05	385.44	1.5e-07	8.0524e-07	585.7	56.179	1.3658e-06	1.7072e-06	128.03	36.042	13.279	2.9891	7.8069e-07	12.195	4.0407e-05	1.6246e-05	4.6159e-06	360.29	2.1162e-07	1.7527e-07	550.89	52.847	2.4529e-07	1.3866e-07	113.84	34.279	12.643	2.821	1.7949e-07	11.668	104.589	18.557	35.030	-65.805	81.943	67.854	-65.901	-60.999	56.954	65.562	-59.618	-55.542	-56.273	-50.970	76.796	-50.919	-8191	255	
2241.879	1	1	0	0	0.095337	0.23003	0.052462	0.11982	0.047289	0.12568	0.14155	0.26845	0.18959	0.105	0.12912	0.030896	0.052598	0.11122	0.06193	0.11755	-2.2896	-2.5854	-3.0104	-2.725	-3.0521	-2.9562	-2.6083	-3.0979	-2.6375	-2.9938	-2.9292	-2.7229	-2.9375	-2.9313	-2.7167	-2.9271	210.623	137.629	-76.107	-44.377	120.177	229.798	267.012	204.833	245.191	-15.564	140.007	90.650	233.350	16.178	17.471	105.323	6.1281e-05	0.00015974	4.1105e-05	383.43	1.3056e-06	3.3449e-07	585.53	56.722	1.9223e-06	7.1708e-07	127.58	36.685	13.476	3.0596	1.7702e-06	12.185	4.0199e-05	2.0343e-05	4.2764e-06	360.09	1.932e-07	2.361e-07	549.72	53.059	2.7502e-07	1.7248e-07	114.81	34.692	12.728	2.8645	2.5413e-07	11.696	102.399	43.905	44.501	-65.843	78.446	11.639	-65.769	-60.987	81.926	44.513	-60.881	-55.977	-55.891	-50.494	29.438	-50.565	-8191	255	
2241.975	1	1	0	0	0.15674	0.028187	0.42643	0.078262	0.090915	0.09903	0.28923	0.12715	0.38212	0.065594	0.23854	0.28134	0.20362	0.24841	0.14073	0.22619	-2.3042	-2.8854	-2.9083	-2.75	-2.8646	-3.05	-2.8833	-3.0167	-2.8104	-2.8521	-2.975	-2.7792	-3.0563	-2.9896	-2.6042	-3.0208	177.045	157.970	133.237	136.816	112.974	119.884	-46.431	208.323	25.980	280.692	248.997	-14.950	246.585	69.996	167.339	223.447	7.0165e-05	1.7219e-05	2.5307e-05	384.25	1.0291e-06	1.0583e-06	587.6	55.662	7.5095e-07	1.2913e-06	128.7	35.939	13.256	2.9626	9.5866e-07	11.906	3.9991e-05	2.3516e-05	3.6127e-06	360.35	2.4442e-07	2.1269e-07	550.13	52.843	3.2488e-07	1.9019e-07	114.74	34.102	12.563	2.8149	2.3815e-07	11.471	102.388	31.034	67.913	-66.514	51.469	94.936	-66.314	-60.883	59.321	73.559	-61.336	-55.841	-57.337	-50.738	50.537	-50.164	-8191	255	
2242.071	1	1	0	0	0.06437	0.10778	0.074786	0.1383	0.41843	0.063201	0.18933	0.18283	0.013392	0.23026	0.20443	0.31862	0.12276	0.16014	0.050884	0.030614	-2.4333	-2.6896	-3.0125	-2.7188	-2.9708	-3.1083	-2.8646	-2.9167	-2.8833	-2.5917	-3.0333	-2.8792	-2.8646	-2.8979	-2.8625	-2.9833	114.217	40.644	-4.897	278.181	258.317	25.161	223.414	22.102	22.752	108.292	241.402	148.054	277.487	248.332	31.597	170.792	5.69e-05	8.1543e-05	3.3518e-05	388.52	1.7325e-06	1.6054e-06	587.34	56.364	6.0499e-07	1.2451e-06	124.68	36.576	13.144	3.0192	2.5924e-06	12.267	3.7287e-05	2.5783e-05	5.4165e-06	360.79	2.6169e-07	2.0769e-07	552.49	53.08	2.125e-07	1.8601e-07	113.33	34.206	12.526	2.8247	2.2431e-07	11.587	102.701	-13.309	84.640	-66.082	-47.727	56.175	-66.111	-61.601	63.172	73.935	-61.624	-55.667	-56.652	-49.782	57.142	-50.849	-8191	255	
2242.192	1	1	0	0	0.060355	0.017968	0.2471	0.074722	0.079331	0.14982	0.047251	0.15161	0.24185	0.071941	0.23762	0.133	0.13234	0.095835	0.028326	0.2168	-2.4271	-2.8104	-2.95	-2.7583	-2.6813	-3.0438	-2.8833	-2.6833	-2.9771	-2.7562	-2.9708	-2.7188	-2.7021	-3.0646	-2.6792	-2.9479	52.537	191.331	238.103	83.850	-11.176	182.526	-32.262	-1.811	61.365	216.291	7.024	216.101	57.290	14.621	177.344	85.412	4.5276e-05	0.00019789	4.8144e-05	386.73	4.8233e-07	7.2994e-07	590.27	56.851	7.1671e-07	1.5456e-06	128.25	36.471	13.55	2.9889	2.4235e-06	12.445	4.2992e-05	2.1848e-05	5.8015e-06	362.22	2.663e-07	2.0789e-07	554.56	53.198	3.4636e-07	2.5325e-07	115.11	34.536	12.764	2.8577	3.048e-07	11.764	77.219	65.617	5.577	-65.993	73.192	80.946	-66.243	-61.819	15.011	49.594	-61.785	-55.770	-57.033	-50.873	36.736	-51.066	-8191	255	
2242.264	1	1	0	0	0.18775	0.23862	0.26486	0.17736	0.086113	0.080246	0.17848	0.14675	0.20692	0.29798	0.12467	0.15674	0.044563	0.02201	0.10472	0.15743	-2.425	-2.7208	-3.05	-2.9042	-2.8146	-2.9479	-2.8021	-2.7396	-3.0229	-2.7188	-2.8937	-2.7583	-2.8479	-3.0271	-2.8667	-2.8312	39.287	133.431	272.485	86.120	-40.242	120.362	268.127	-55.257	64.648	257.952	129.212	-47.147	-67.928	122.408	172.674	231.355	7.6513e-05	0.00024668	3.3191e-05	389.31	1.1156e-06	8.2807e-07	596.69	57.473	6.4016e-07	1.8839e-06	130.9	36.997	13.432	3.0751	6.6808e-07	12.435	4.5027e-05	2.7904e-05	5.5279e-06	365.29	3.8448e-07	2.335e-07	560.01	54.044	3.4617e-07	3.0498e-07	118.32	34.938	12.851	2.8936	3.0187e-07	11.787	102.183	38.991	-39.416	-66.141	70.018	71.922	-66.291	-61.387	85.814	112.313	-62.145	-55.565	-56.343	-51.659	145.506	-50.707	-8191	255	
2242.384	1	1	0	0	0.10916	0.16524	0.14765	0.14229	0.13414	0.078149	0.27397	0.18543	0.22287	0.24568	0.13763	0.068991	0.015382	0.09874	0.036	0.075358	-2.5042	-2.6167	-2.8438	-2.9375	-2.6917	-3.075	-2.7938	-2.9313	-2.9667	-2.8667	-2.9188	-2.7458	-2.7979	-3.0062	-2.6625	-2.8542	46.045	157.858	128.097	101.074	278.409	115.033	-46.368	-71.221	29.961	164.346	217.311	-65.727	81.951	220.306	150.858	144.125	7.3003e-05	9.3137e-05	7.3939e-06	390.11	1.4123e-06	6.5199e-07	596.17	58.092	7.6185e-07	1.9679e-06	129.95	36.524	13.486	3.0241	7.4604e-07	12.176	4.8979e-05	3.0733e-05	7.6459e-06	365.94	4.1556e-07	2.481e-07	559.52	54.327	3.5269e-07	3.7978e-07	116.06	34.482	12.804	2.8566	3.4319e-07	11.622	87.458	20.274	102.171	-65.959	62.771	-33.129	-66.219	-60.770	220.594	26.005	-61.044	-56.258	-56.201	-51.324	-33.250	-50.727	-8191	255	
2242.479	1	1	0	0	0.15622	0.19093	0.04692	0.19517	0.053955	0.16177	0.2949	0.085402	0.055622	0.03281	0.047386	0.16597	0.13082	0.18942	0.24915	0.13154	-2.4688	-2.7021	-2.8708	-3.0938	-2.8604	-3.0854	-2.9917	-2.8042	-3.0583	-2.8375	-2.875	-2.9917	-2.7313	-2.9604	-2.9146	-2.8021	173.037	204.501	-25.207	228.402	159.543	161.530	129.820	-28.087	110.773	165.639	-63.914	-14.165	-50.749	-8.552	-29.234	261.649	7.9567e-05	8.6586e-05	3.9337e-05	391.31	1.2347e-06	1.7325e-06	597.89	57.205	1.9815e-06	2.1007e-06	130.43	36.67	13.401	3.0005	2.0016e-06	12.328	4.4923e-05	3.5846e-05	7.803e-06	366.06	3.768e-07	2.535e-07	560.41	54.143	3.0915e-07	3.5431e-07	118.1	34.562	12.836	2.8427	3.0343e-07	11.664	89.877	56.535	-51.999	-66.310	73.653	79.004	-66.286	-60.934	47.154	67.998	-61.483	-55.998	-56.350	-50.613	16.396	-50.295	-8191	255	
2242.575	1	1	0	0	0.21141	0.099768	0.054156	0.31572	0.30229	0.055863	0.16555	0.2715	0.10025	0.12794	0.10692	0.050828	0.020112	0.049139	0.0093405	0.14264	-2.5583	-2.725	-2.6188	-3.0521	-2.7854	-3.1646	-2.9167	-2.6729	-3.1458	-2.8458	-2.8625	-3.1021	-2.5979	-3.1271	-2.9854	-2.7104	65.672	-67.063	182.674	266.516	87.618	98.838	190.314	5.781	52.732	190.450	64.749	-55.791	274.855	31.273	152.583	182.449	7.7751e-05	0.00018191	3.7554e-05	390.31	1.4139e-06	5.4971e-07	603.09	57.973	5.1728e-07	7.2351e-07	133.52	36.713	13.548	3.028	3.9165e-07	12.413	3.9679e-05	2.814e-05	7.4837e-06	366.46	3.321e-07	2.2889e-07	565.03	54.69	3.2757e-07	3.3104e-07	117.37	34.718	12.826	2.86	3.1337e-07	11.724	98.202	17.868	49.036	-65.962	33.682	89.233	-66.111	-61.497	234.382	59.418	-61.311	-56.474	-58.217	-50.140	134.976	-50.470	-8191	255	
2242.671	1	1	0	0	0.095609	0.12885	0.27549	0.27644	0.11231	0.11074	0.23617	0.20771	0.19698	0.23015	0.13908	0.10228	0.16128	0.12382	0.19878	0.18337	-2.4708	-2.9188	-2.8812	-3.0167	-2.725	-2.9896	-3.0396	-2.8375	-3.0687	-2.95	-2.8417	-2.9917	-2.6458	-2.9813	-3.0187	-2.7271	256.314	-60.067	231.642	263.462	105.286	152.517	249.354	82.039	168.369	242.198	118.400	231.689	97.052	-1.113	30.011	71.872	8.8165e-05	0.00011088	2.117e-05	397.85	8.0662e-07	1.0108e-06	604.73	59.335	1.5338e-06	2.4425e-06	133.1	37.202	13.768	3.0731	1.3075e-06	12.328	4.3556e-05	3.3307e-05	7.1848e-06	370.68	4.2016e-07	2.9092e-07	567.17	55.696	3.011e-07	3.2268e-07	119.61	35.058	13.1	2.8959	3.5956e-07	11.633	105.981	5.486	83.021	-66.033	33.622	64.347	-66.210	-61.268	-27.882	100.968	-61.687	-55.603	-56.102	-50.143	82.533	-50.475	-8191	255	
2242.792	1	1	0	0	0.26759	0.25858	0.16682	0.3285	0.27273	0.25693	0.29926	0.090326	0.09315	0.13179	0.11589	0.1307	0.034977	0.1287	0.128	0.13032	-2.6396	-2.9917	-2.8396	-2.9729	-2.6188	-2.9875	-2.9479	-2.6771	-3.0625	-2.8583	-2.8229	-2.9333	-2.6667	-2.9896	-2.9708	-2.7708	30.738	60.327	207.364	233.369	49.973	-50.358	136.794	167.099	252.281	44.627	48.768	-74.002	134.756	137.737	120.321	110.905	9.4546e-05	0.00020301	3.0939e-05	396.61	6.397e-07	3.0149e-07	604.15	59.075	1.1781e-06	8.1364e-07	127.6	36.202	13.472	2.9373	2.6228e-07	11.835	4.271e-05	3.0424e-05	9.1558e-06	371.46	3.7642e-07	2.3089e-07	567.73	55.546	3.0378e-07	2.9742e-07	116.27	34.196	12.969	2.7933	2.9778e-07	11.33	115.413	32.219	46.745	-66.206	200.558	144.107	-66.566	-61.734	42.137	24.419	-61.889	-55.583	-56.267	-49.948	-40.871	-51.124	-8191	255	
2242.863	1	1	0	0	0.19333	0.19424	0.2284	0.19407	0.31551	0.16182	0.28203	0.2368	0.11355	0.11874	0.25501	0.084849	0.055443	0.090567	0.12424	0.018588	-2.4667	-2.8917	-2.6021	-3.1208	-2.825	-2.8479	-3.1667	-2.7313	-3.0146	-2.8479	-2.6437	-2.9646	-2.7583	-2.7854	-3.0417	-2.8042	16.547	213.545	117.426	208.765	14.502	121.695	83.446	267.378	236.648	-12.854	31.109	187.061	101.153	198.627	-11.172	-57.069	8.3196e-05	0.00021615	3.455e-05	399.13	1.3805e-06	4.7458e-07	601.01	59.021	1.4605e-06	1.5186e-06	128.4	35.912	13.464	2.9309	3.4576e-07	11.89	3.9382e-05	3.1349e-05	8.1678e-06	371.04	4.2573e-07	3.0553e-07	566.85	55.439	3.4157e-07	3.4775e-07	115.84	34.046	12.817	2.7815	2.6153e-07	11.318	98.695	-35.061	-64.979	-66.185	92.447	73.461	-66.167	-61.545	94.070	91.887	-61.929	-56.221	-56.889	-52.078	273.481	-51.001	-8191	255	
2242.959	1	1	0	0	0.10849	0.23131	0.16394	0.067508	0.10529	0.19017	0.2685	0.12399	0.076911	0.019854	0.077138	0.29755	0.06154	0.076779	0.12933	0.20652	-2.5146	-2.825	-2.7146	-3.0062	-2.75	-2.9125	-3.0771	-2.7062	-2.8625	-3.1167	-2.7833	-2.9146	-2.7313	-2.7396	-2.8292	-2.775	-62.007	59.356	261.100	78.088	192.211	190.545	233.025	83.248	122.511	168.840	239.946	-44.191	176.274	247.170	-51.686	198.826	5.8551e-05	9.8661e-05	9.9787e-06	393	1.6783e-06	1.9413e-06	600.8	58.036	1.1896e-06	1.0072e-06	128.34	36.343	13.452	2.977	9.0275e-07	11.976	4.372e-05	2.8194e-05	9.6828e-06	367.69	4.0999e-07	3.6235e-07	566.16	54.892	3.7532e-07	3.7063e-07	116.15	34.317	12.922	2.8001	3.1512e-07	11.508	105.703	-1.887	32.041	-66.085	67.786	78.070	-66.158	-60.882	59.335	106.977	-63.145	-55.879	-57.430	-51.030	25.480	-51.364	-8191	255	
2243.056	1	1	0	0	0.080757	0.12719	0.23993	0.075302	0.23273	0.17876	0.062411	0.28437	0.053351	0.035438	0.25362	0.22089	0.16319	0.20836	0.26573	0.042762	-2.4833	-2.8854	-2.8229	-2.8833	-2.9188	-2.6896	-3.0354	-2.8438	-2.8604	-2.875	-2.6146	-3.0792	-2.8563	-2.9313	-2.9813	-2.7042	242.461	-77.130	-22.452	215.877	59.691	229.107	-67.629	279.192	-44.515	248.916	171.995	224.732	73.985	117.238	54.746	-67.684	8.5035e-05	0.0001428	3.1251e-05	391.39	1.2736e-06	2.7407e-06	600.49	58.437	4.1373e-07	1.4014e-06	132.48	36.654	13.78	2.9825	3.5454e-07	12.261	4.9305e-05	3.1766e-05	9.3382e-06	365.56	4.9998e-07	3.8936e-07	562.87	54.796	4.1713e-07	3.5968e-07	117.82	34.805	13.161	2.8412	4.0126e-07	11.625	103.991	-29.420	6.735	-66.135	77.463	74.362	-65.918	-61.359	116.641	44.845	-60.105	-56.593	-57.483	-49.673	82.427	-50.775	-8191	255	
2243.152	1	1	0	0	0.17875	0.096035	0.23655	0.25734	0.13649	0.085514	0.058722	0.34336	0.27104	0.11194	0.21745	0.15392	0.18114	0.11967	0.20768	0.10161	-2.2354	-2.9938	-2.8	-3.0479	-3.0208	-2.6437	-3.0604	-2.7833	-2.875	-3.0042	-2.725	-2.9458	-2.9021	-2.5979	-3.0062	-2.9125	140.024	114.190	273.458	262.698	-9.837	251.997	214.532	11.672	277.027	1.034	93.363	-23.082	158.683	164.653	137.015	33.312	6.2623e-05	2.4456e-05	2.138e-05	393.74	5.7887e-07	2.2448e-06	603.98	58.513	6.5302e-07	1.0836e-06	133.14	36.294	13.622	2.9323	5.6331e-07	11.877	5.0598e-05	3.4903e-05	1.2191e-05	367.02	5.0036e-07	4.2658e-07	565.75	55.303	4.1694e-07	4.4821e-07	118.86	34.416	12.912	2.7819	2.7595e-07	11.308	115.276	97.037	13.710	-66.279	210.560	54.268	-66.288	-61.312	146.024	70.231	-61.271	-55.754	-57.244	-51.934	122.419	-51.241	-8191	255	
2243.271	1	1	0	0	0.16575	0.061318	0.15181	0.24286	0.27161	0.055135	0.15918	0.037369	0.24225	0.11115	0.14605	0.14359	0.067259	0.020766	0.32295	0.22218	-2.2458	-3.0396	-2.7062	-2.9313	-2.7333	-2.7875	-3.0292	-2.7562	-2.8146	-3.1354	-2.7208	-2.8979	-2.95	-2.7625	-2.9729	-2.8417	138.246	222.728	142.502	247.427	-7.517	-31.241	-22.960	268.209	-39.259	-27.085	-59.007	-6.764	160.169	-23.305	63.476	265.878	6.7508e-05	5.7503e-05	4.4247e-05	395.64	7.2557e-07	1.4829e-06	604.97	59.455	4.0401e-07	1.9762e-06	133.61	35.851	13.63	2.9276	2.1864e-06	11.801	4.8399e-05	3.1875e-05	9.3281e-06	370.24	3.9599e-07	3.4094e-07	569.13	55.696	4.0524e-07	3.193e-07	119.86	34.128	13.014	2.7722	3.7164e-07	11.35	118.532	41.101	3.925	-65.853	30.620	84.538	-66.446	-61.601	-39.419	105.294	-62.072	-55.697	-56.944	-50.751	77.057	-50.815	-8191	255	
2243.367	1	1	0	0	0.13177	0.1841	0.025533	0.26512	0.11448	0.034662	0.25746	0.12457	0.23178	0.39163	0.21742	0.13288	0.2126	0.099322	0.12698	0.087429	-2.3396	-2.9771	-2.85	-2.9542	-3.15	-2.9125	-2.9667	-2.8937	-2.7604	-2.8917	-2.6375	-2.6604	-3.0042	-2.6771	-2.8333	-3.0729	225.996	183.503	164.189	5.239	242.266	151.601	186.459	74.500	-18.018	162.506	52.705	-69.998	272.260	216.069	78.229	-17.312	8.5087e-05	0.00015837	2.1223e-05	395.09	5.0152e-07	7.6007e-07	607.71	58.699	9.6014e-07	9.685e-08	131.45	37.032	13.711	2.9485	2.9041e-07	12.034	4.7909e-05	2.8231e-05	9.0747e-06	369.79	4.0558e-07	3.9916e-07	569.29	55.524	3.8548e-07	3.1751e-07	119.51	34.776	13.034	2.8159	3.6755e-07	11.486	115.315	30.462	77.035	-65.736	137.687	87.739	-65.919	-61.611	-16.697	58.595	-60.860	-56.350	-57.004	-50.475	105.523	-50.574	-8191	255	
2243.465	1	1	0	0	0.29215	0.30703	0.11666	0.051761	0.31013	0.18651	0.3713	0.14683	0.068298	0.22249	0.24762	0.08791	0.063414	0.060514	0.19506	0.094971	-2.5146	-2.9313	-2.7271	-2.9458	-3.0125	-2.8229	-2.9875	-2.9646	-2.7667	-3.0854	-2.7729	-2.6937	-3.0521	-2.7521	-2.7479	-3.025	247.539	268.558	91.429	174.753	41.436	261.154	217.642	252.308	-65.621	128.436	148.949	117.250	197.632	164.028	85.911	66.090	7.6171e-05	0.00017714	2.3601e-05	397.59	6.2531e-07	7.7491e-07	609.43	58.961	1.4203e-06	1.4438e-06	131.86	37.405	13.997	3.0361	5.7964e-07	12.354	5.2321e-05	2.6291e-05	1.0362e-05	370.5	3.9541e-07	3.6675e-07	571.17	55.7	4.8483e-07	3.4815e-07	118.99	35.172	13.181	2.8692	3.5839e-07	11.653	88.380	17.061	52.935	-66.071	19.088	146.055	-66.169	-61.591	29.920	68.454	-62.958	-56.258	-57.775	-51.597	-14.814	-50.984	-8191	255	
2243.559	1	1	0	0	0.094488	0.34525	0.18917	0.13092	0.13339	0.1674	0.20366	0.029585	0.13321	0.095799	0.192	0.18896	0.22755	0.21933	0.02933	0.10326	-2.3083	-3.05	-2.675	-2.7375	-3.0187	-2.8875	-2.8063	-3.1083	-2.4979	-2.8708	-2.9	-2.6604	-2.9896	-2.75	-2.8063	-2.8458	203.717	-75.753	279.072	61.492	237.630	8.276	-68.644	-54.792	-44.832	250.505	208.497	196.850	172.662	239.467	-75.139	251.175	7.3073e-05	8.7278e-05	3.6547e-05	394.51	2.5973e-07	2.079e-06	606.88	59.353	1.3833e-06	1.2118e-06	133.77	36.568	13.878	3.0067	1.7179e-06	12.123	5.0033e-05	2.3516e-05	9.1305e-06	369.14	3.4304e-07	3.6635e-07	570.13	55.749	4.085e-07	2.8986e-07	117.67	34.68	13.069	2.8117	3.235e-07	11.494	92.783	-5.132	-14.974	-65.870	267.802	41.620	-66.664	-61.505	47.874	43.325	-61.084	-55.969	-56.755	-51.323	87.202	-50.987	-8191	255	
2243.655	1	1	0	0	0.072605	0.23354	0.19379	0.14233	0.20265	0.14874	0.20139	0.032399	0.22716	0.27145	0.10272	0.21474	0.072483	0.13438	0.12163	0.19417	-2.2208	-3.0854	-2.8479	-2.7417	-2.9396	-2.8146	-2.8021	-3.1125	-2.7812	-2.8417	-2.9208	-2.5792	-2.9708	-2.8771	-2.8521	-3.0458	193.319	193.178	87.607	-35.629	164.061	-18.314	263.106	-76.154	255.830	263.611	178.508	103.895	129.678	270.090	-38.169	125.696	6.0145e-05	6.3849e-05	3.0484e-05	397.17	2.3266e-07	1.0884e-06	604.03	58.656	8.6957e-07	1.1319e-06	130.1	36.612	13.542	2.972	1.2248e-06	12.131	5.137e-05	3.0696e-05	9.3889e-06	369.87	3.8064e-07	3.4454e-07	568.88	55.511	3.8357e-07	2.7533e-07	117.49	34.644	12.899	2.8167	3.7047e-07	11.572	81.171	44.909	-21.716	-66.145	-18.520	29.278	-66.604	-61.278	59.503	122.610	-60.866	-56.111	-57.648	-51.316	28.264	-50.930	-8191	255	
2243.751	1	1	0	0	0.13114	0.16212	0.21242	0.23437	0.37871	0.19596	0.29278	0.13334	0.049413	0.24632	0.081478	0.10241	0.10569	0.2393	0.22788	0.2273	-2.2792	-2.7125	-3	-2.6646	-3.05	-2.8667	-2.8271	-2.9979	-2.5958	-2.7708	-2.9646	-2.7167	-3.0375	-2.8937	-2.7604	-3.1292	11.463	116.148	234.691	161.877	-45.552	202.544	251.156	84.248	131.123	224.036	201.949	216.991	17.063	-74.928	-15.251	272.700	8.8468e-05	6.2335e-05	3.638e-05	392.05	1.6002e-06	1.9969e-06	602.84	58.278	1.8092e-06	1.8214e-06	134.35	36.662	13.39	2.99	9.6264e-07	12.406	4.5829e-05	2.6472e-05	8.1779e-06	367.75	3.4457e-07	3.1573e-07	568.01	55.152	4.0179e-07	2.9841e-07	118.32	34.83	12.855	2.8458	3.2039e-07	11.771	91.938	1.676	0.241	-66.319	73.768	72.863	-66.257	-61.082	107.760	102.002	-61.315	-56.120	-57.095	-50.871	55.645	-50.562	-8191	255	
2243.872	1	1	0	0	0.21446	0.15936	0.12083	0.17814	0.081413	0.19588	0.11212	0.223	0.17398	0.1521	0.1254	0.117	0.16803	0.1817	0.10126	0.083852	-2.2396	-2.8521	-2.9417	-2.8021	-2.9188	-2.9646	-2.8271	-3.0208	-2.9646	-2.8875	-3.1354	-2.6437	-2.8875	-2.8729	-2.7188	-3.1271	148.482	273.216	176.936	100.803	273.879	203.403	230.744	-56.483	207.593	-10.018	-2.431	-31.068	221.166	-1.346	21.780	214.470	8.4709e-05	2.1848e-05	4.3376e-05	392.49	1.0909e-06	1.8697e-06	601.52	57.83	1.7257e-06	1.0174e-06	130.5	37.147	13.571	3.049	9.6216e-07	12.425	4.782e-05	2.7125e-05	7.6662e-06	366.03	3.4054e-07	3.3554e-07	563.95	54.513	3.3313e-07	3.2706e-07	116.75	35.034	12.886	2.8665	3.3851e-07	11.749	111.462	38.317	-1.088	-66.106	0.724	97.132	-65.918	-61.804	-21.846	23.767	-60.738	-56.495	-57.516	-51.186	88.385	-50.571	-8191	255	
2243.968	1	1	0	0	0.089411	0.092046	0.10152	0.05129	0.33449	0.2674	0.10166	0.10354	0.29959	0.089383	0.090955	0.11138	0.17669	0.24839	0.25777	0.093837	-2.3542	-2.6437	-3.0396	-2.6958	-2.8479	-2.9542	-2.7188	-2.8958	-2.8812	-2.8	-2.8688	-2.7042	-2.8937	-2.9688	-2.8021	-3.0917	41.234	51.489	44.122	138.482	204.768	192.585	209.475	10.859	230.657	276.170	104.697	-61.024	65.802	7.889	88.046	206.766	6.2914e-05	0.00016108	3.9922e-05	391.26	1.0379e-06	1.4615e-06	597.69	57.507	1.235e-06	9.9836e-07	132.29	36.508	13.574	2.9949	8.5874e-07	12.197	4.4938e-05	2.6526e-05	7.0227e-06	365.93	3.3575e-07	2.6831e-07	562.04	54.392	3.6324e-07	3.1771e-07	116.9	34.562	12.831	2.8375	3.3637e-07	11.548	108.092	-26.032	40.766	-66.006	124.688	103.322	-66.051	-61.692	35.506	64.613	-61.426	-56.093	-57.131	-51.105	43.434	-50.899	-8191	255	
2244.064	1	1	0	0	0.24925	0.26688	0.10848	0.099216	0.06684	0.12861	0.10501	0.19491	0.068057	0.2008	0.074507	0.13045	0.10492	0.12924	0.092267	0.17441	-2.3063	-2.8104	-3.0833	-2.7687	-2.9792	-3.1208	-2.8292	-3.2062	-2.8875	-2.7104	-2.8917	-3.0229	-2.8875	-2.8667	-2.7021	-3.0708	271.996	259.559	70.699	250.311	87.038	144.828	170.229	207.390	249.854	274.484	-5.458	-21.023	140.107	1.925	18.672	176.910	8.3147e-05	0.00013186	4.2324e-05	390.37	1.6726e-06	1.949e-06	594.03	57.773	1.115e-06	5.0142e-07	134.21	36.601	13.48	3.0157	1.6753e-06	12.27	4.6958e-05	3.1331e-05	6.896e-06	364.96	3.5321e-07	2.9232e-07	560.23	54.322	3.6688e-07	2.9543e-07	118.43	34.658	12.781	2.8284	3.1785e-07	11.647	96.884	19.354	24.201	-66.066	67.405	88.482	-66.432	-61.607	-18.169	20.773	-62.742	-55.731	-57.560	-51.195	30.779	-50.465	-8191	255	
2244.160	1	1	0	0	0.20004	0.1639	0.18466	0.033235	0.23488	0.12577	0.12169	0.24909	0.081301	0.17745	0.12749	0.10395	0.23027	0.16601	0.06759	0.26884	-2.5021	-2.7687	-3.0812	-2.8271	-2.7188	-3.1562	-3.0854	-2.7771	-2.8979	-2.7042	-3.1271	-2.9271	-2.8187	-3.0396	-2.8771	-2.9729	8.563	-16.641	-8.373	61.681	-42.480	92.704	-48.526	184.109	219.615	-59.866	78.201	-24.268	-73.981	38.910	167.335	202.236	9.6999e-05	9.7895e-05	1.4909e-05	391.44	9.2413e-07	5.0082e-07	598.72	57.536	4.7986e-07	1.466e-06	132.53	36.936	13.578	2.983	5.4788e-07	12.282	4.3898e-05	2.8031e-05	7.3571e-06	365.24	3.8736e-07	2.6631e-07	561.81	54.278	3.2277e-07	3.2646e-07	117.59	34.776	12.863	2.8414	2.6075e-07	11.699	107.813	54.278	-5.318	-65.818	47.736	165.295	-66.322	-60.965	191.010	76.763	-62.539	-56.149	-56.766	-52.391	-8.904	-50.229	-8191	255	
#DATA ENDS
