BOXY.EXE: ISS Imagent and Oximeter Data Acquisition Program Version 0.80
Ascii Record File

#ACQ INFORMATION
2  Detector Channels 
16  External MUX Channels 
1  Auxiliary Channels 
5000  Waveform (CCF) Frequency (Hz)
1  Waveforms Skipped 
30  Waveforms Averaged 
1  Cycles Averaged 
16  Acquisitions per Waveform 
10.0806  Updata Rate (Hz) 

#FILE INFORMATION
TRUE -- External MUX Channel results are PARSED.
FALSE -- AC DC and Phase are NOT grouped.
TRUE -- Companion Program Settings File CREATED.
FALSE -- AC data not excluded
FALSE -- DC data not excluded
FALSE -- Phase data not excluded
FALSE -- Auxillary Chn. data not excluded
Tab delimiters

#CALIBRATION STATE
TRUE -- Waveform Calibration Values APPLIED.


#AUX CALIBRATION VALUES
Val Type	aux-1	

Term	1.0000e+00	
Factor	0.0000e+00	


#WF CALIBRATION VALUES
A = Detector Channel
Val Type	A-AC1	A-AC2	A-AC3	A-AC4	A-AC5	A-AC6	A-AC7	A-AC8	A-AC9	A-AC10	A-AC11	A-AC12	A-AC13	A-AC14	A-AC15	A-AC16	A-DC1	A-DC2	A-DC3	A-DC4	A-DC5	A-DC6	A-DC7	A-DC8	A-DC9	A-DC10	A-DC11	A-DC12	A-DC13	A-DC14	A-DC15	A-DC16	A-Ph1	A-Ph2	A-Ph3	A-Ph4	A-Ph5	A-Ph6	A-Ph7	A-Ph8	A-Ph9	A-Ph10	A-Ph11	A-Ph12	A-Ph13	A-Ph14	A-Ph15	A-Ph16	

Term	0.00000e+00	0.00000e+00	0.00000e+00	0.00000e+00	0.00000e+00	0.00000e+00	0.00000e+00	0.00000e+00	0.00000e+00	0.00000e+00	0.00000e+00	0.00000e+00	0.00000e+00	0.00000e+00	0.00000e+00	0.00000e+00	0.00000e+00	0.00000e+00	0.00000e+00	0.00000e+00	0.00000e+00	0.00000e+00	0.00000e+00	0.00000e+00	0.00000e+00	0.00000e+00	0.00000e+00	0.00000e+00	0.00000e+00	0.00000e+00	0.00000e+00	0.00000e+00	0.00000e+00	0.00000e+00	0.00000e+00	0.00000e+00	0.00000e+00	0.00000e+00	0.00000e+00	0.00000e+00	0.00000e+00	0.00000e+00	0.00000e+00	0.00000e+00	0.00000e+00	0.00000e+00	0.00000e+00	0.00000e+00	
Factor	1.00000e+00	1.00000e+00	1.00000e+00	1.00000e+00	1.00000e+00	1.00000e+00	1.00000e+00	1.00000e+00	1.00000e+00	1.00000e+00	1.00000e+00	1.00000e+00	1.00000e+00	1.00000e+00	1.00000e+00	1.00000e+00	1.00000e+00	1.00000e+00	1.00000e+00	1.00000e+00	1.00000e+00	1.00000e+00	1.00000e+00	1.00000e+00	1.00000e+00	1.00000e+00	1.00000e+00	1.00000e+00	1.00000e+00	1.00000e+00	1.00000e+00	1.00000e+00	X	X	X	X	X	X	X	X	X	X	X	X	X	X	X	X	

B = Detector Channel
Val Type	B-AC1	B-AC2	B-AC3	B-AC4	B-AC5	B-AC6	B-AC7	B-AC8	B-AC9	B-AC10	B-AC11	B-AC12	B-AC13	B-AC14	B-AC15	B-AC16	B-DC1	B-DC2	B-DC3	B-DC4	B-DC5	B-DC6	B-DC7	B-DC8	B-DC9	B-DC10	B-DC11	B-DC12	B-DC13	B-DC14	B-DC15	B-DC16	B-Ph1	B-Ph2	B-Ph3	B-Ph4	B-Ph5	B-Ph6	B-Ph7	B-Ph8	B-Ph9	B-Ph10	B-Ph11	B-Ph12	B-Ph13	B-Ph14	B-Ph15	B-Ph16	

Term	0.00000e+00	0.00000e+00	0.00000e+00	0.00000e+00	0.00000e+00	0.00000e+00	0.00000e+00	0.00000e+00	0.00000e+00	0.00000e+00	0.00000e+00	0.00000e+00	0.00000e+00	0.00000e+00	0.00000e+00	0.00000e+00	0.00000e+00	0.00000e+00	0.00000e+00	0.00000e+00	0.00000e+00	0.00000e+00	0.00000e+00	0.00000e+00	0.00000e+00	0.00000e+00	0.00000e+00	0.00000e+00	0.00000e+00	0.00000e+00	0.00000e+00	0.00000e+00	-1.99800e+02	-1.32036e+02	-1.16888e+02	-1.84163e+02	-8.14992e+01	-6.94175e+01	-1.57306e+02	-1.62015e+02	-8.64931e+01	-6.67769e+01	-1.77797e+02	-1.71882e+02	-1.81595e+02	-1.77192e+02	-7.35172e+01	-1.50103e+02	
Factor	3.79814e-05	1.92844e-04	5.09745e-05	1.70467e-01	1.91118e-06	1.87975e-06	1.61549e-01	5.09297e-02	1.97878e-06	1.84182e-06	9.46997e-01	2.66704e-02	2.93344e-02	8.92146e-03	1.95588e-06	1.25256e-02	7.13065e-06	8.70306e-06	2.43209e-06	8.69350e-02	9.20906e-08	9.60395e-08	7.77383e-02	2.60149e-02	9.20560e-08	9.54915e-08	4.40650e-01	1.32784e-02	1.50708e-02	4.60272e-03	9.35434e-08	6.26721e-03	X	X	X	X	X	X	X	X	X	X	X	X	X	X	X	X	



#DISTANCE SETTINGS
A = Detector Channel
A-1	A-2	A-3	A-4	A-5	A-6	A-7	A-8	A-9	A-10	A-11	A-12	A-13	A-14	A-15	A-16	

2.5000e+00	3.0000e+00	2.5000e+00	3.0000e+00	2.0000e+00	3.0000e+00	1.5000e+00	3.0000e+00	3.0000e+00	3.0000e+00	3.0000e+00	3.0000e+00	3.0000e+00	3.0000e+00	1.5000e+00	3.0000e+00	

B = Detector Channel
B-1	B-2	B-3	B-4	B-5	B-6	B-7	B-8	B-9	B-10	B-11	B-12	B-13	B-14	B-15	B-16	

1.0000e+01	1.0000e+01	1.0000e+01	1.4400e+00	1.0000e+01	1.0000e+01	1.5100e+00	1.9400e+00	1.0000e+01	1.0000e+01	1.9900e+00	2.4900e+00	2.4100e+00	2.9000e+00	1.0000e+01	2.9800e+00	




#DATA BEGINS
time	group	step	mark	flag	A-AC1	A-AC2	A-AC3	A-AC4	A-AC5	A-AC6	A-AC7	A-AC8	A-AC9	A-AC10	A-AC11	A-AC12	A-AC13	A-AC14	A-AC15	A-AC16	A-DC1	A-DC2	A-DC3	A-DC4	A-DC5	A-DC6	A-DC7	A-DC8	A-DC9	A-DC10	A-DC11	A-DC12	A-DC13	A-DC14	A-DC15	A-DC16	A-Ph1	A-Ph2	A-Ph3	A-Ph4	A-Ph5	A-Ph6	A-Ph7	A-Ph8	A-Ph9	A-Ph10	A-Ph11	A-Ph12	A-Ph13	A-Ph14	A-Ph15	A-Ph16	B-AC1	B-AC2	B-AC3	B-AC4	B-AC5	B-AC6	B-AC7	B-AC8	B-AC9	B-AC10	B-AC11	B-AC12	B-AC13	B-AC14	B-AC15	B-AC16	B-DC1	B-DC2	B-DC3	B-DC4	B-DC5	B-DC6	B-DC7	B-DC8	B-DC9	B-DC10	B-DC11	B-DC12	B-DC13	B-DC14	B-DC15	B-DC16	B-Ph1	B-Ph2	B-Ph3	B-Ph4	B-Ph5	B-Ph6	B-Ph7	B-Ph8	B-Ph9	B-Ph10	B-Ph11	B-Ph12	B-Ph13	B-Ph14	B-Ph15	B-Ph16	aux-1	digaux	

2035.107	1	1	0	768	0.15391	0.25139	0.12431	0.063847	0.097184	0.1177	0.21474	0.26005	0.25837	0.12518	0.3035	0.11939	0.18349	0.13893	0.10894	0.19547	-2.4792	-3.0021	-2.5812	-2.8542	-2.8479	-2.7562	-3.1896	-2.8208	-2.8208	-2.9313	-2.5896	-3.0354	-2.8688	-2.6875	-2.8604	-2.9021	460.849	335.744	382.175	370.934	258.603	343.406	416.031	469.567	404.263	421.870	477.178	446.693	412.926	464.412	406.096	158.005	0.002271	0.00065378	0.00022549	700.47	1.3354e-05	9.4929e-06	985.71	211.08	7.1357e-06	1.0987e-05	433.18	204.81	95.606	41.507	6.2501e-06	108.33	0.0022714	0.00242	0.00067999	688.16	2.5212e-05	2.6039e-05	955.84	206.5	2.407e-05	2.5303e-05	503.2	199.79	93.717	41.084	2.37e-05	106.05	475.832	235.791	225.658	151.646	271.275	314.253	151.672	157.085	258.668	289.549	157.470	160.768	160.035	164.777	299.869	164.182	-8191	255	
2035.203	1	1	0	0	0.40947	0.16996	0.29907	0.17638	0.14206	0.22347	0.18972	0.33838	0.34201	0.10086	0.043779	0.2192	0.065814	0.2093	0.16855	0.14057	-2.2646	-2.8729	-2.6354	-2.9458	-2.9917	-2.6	-3.0938	-2.7333	-2.7625	-2.8104	-2.5854	-2.8875	-2.9813	-2.7687	-2.85	-2.9042	148.618	179.004	422.601	185.696	232.349	233.107	345.075	480.967	196.800	293.824	216.988	435.510	315.733	207.518	440.716	156.493	0.0023789	0.00080488	0.00011297	699.22	5.1021e-06	5.4934e-06	982.16	206.7	7.4417e-06	6.4822e-06	430.9	197.34	90.958	39.706	4.3907e-06	103.55	0.0021072	0.0022531	0.00062593	684.12	2.4183e-05	2.5178e-05	951.38	203.06	2.4597e-05	2.5557e-05	503.9	192.98	89.741	39.289	2.6011e-05	101.42	477.068	219.606	203.654	151.628	195.132	285.157	152.024	157.143	256.602	250.622	157.917	160.749	159.982	165.103	292.854	164.383	-8191	255	
2035.299	1	1	0	0	0.19041	0.3728	0.2067	0.16622	0.073078	0.31155	0.21991	0.28059	0.07532	0.1431	0.10424	0.16209	0.10734	0.1337	0.11375	0.50909	-2.3604	-2.8667	-2.5167	-2.9729	-2.9583	-2.6521	-3.1583	-2.75	-2.5604	-3.1688	-2.6896	-2.9667	-3.0292	-2.7875	-2.7438	-2.9979	217.273	482.015	427.893	455.634	147.460	183.705	431.175	490.178	233.363	293.083	191.647	475.836	330.363	348.430	299.109	434.846	0.0024366	0.00063367	0.0005509	673.92	7.4585e-06	4.4667e-06	936.91	197.27	1.1702e-05	6.5357e-06	406.91	189.61	87.546	38.319	4.6254e-06	100.75	0.0022869	0.0024785	0.00069178	665.5	2.6742e-05	2.7813e-05	917.05	194.52	2.7221e-05	2.8833e-05	498.8	185.18	86.784	38.038	2.7825e-05	99.08	474.038	173.331	231.180	151.689	314.263	266.378	151.653	157.147	286.167	344.841	156.631	160.725	160.050	164.649	263.191	164.404	-8191	255	
2035.396	1	1	0	0	0.16489	0.19206	0.097822	0.15854	0.014018	0.078449	0.1693	0.25889	0.18883	0.16166	0.17148	0.28257	0.17249	0.11836	0.036299	0.27542	-2.1688	-3.0208	-2.7375	-2.7646	-2.775	-2.6875	-3.0687	-2.8729	-2.6917	-2.9917	-2.8063	-2.9229	-2.8896	-2.675	-2.9188	-3.1875	194.563	203.388	156.612	463.794	461.741	292.755	269.255	408.630	222.100	425.392	356.656	381.999	389.630	376.546	168.402	401.284	0.002263	0.00093917	0.00038641	670.63	1.0369e-05	8.6351e-06	941.06	197.5	1.0564e-05	6.7497e-06	426.6	192.78	89.428	39.383	1.0267e-05	103.82	0.0024458	0.0026015	0.00072132	661.42	2.6269e-05	2.7166e-05	916.62	194.99	2.496e-05	2.5317e-05	489.74	188.09	87.738	38.911	2.3304e-05	101.64	478.351	201.055	254.977	151.734	267.841	200.120	151.554	157.075	203.399	393.241	157.077	160.703	159.895	164.849	253.822	164.261	-8191	255	
2035.490	1	1	0	0	0.15389	0.082945	0.26495	0.15053	0.17607	0.090396	0.18754	0.18884	0.14387	0.090612	0.38309	0.17058	0.22913	0.060932	0.058828	0.10134	-2.1771	-2.8542	-2.9062	-2.8021	-3.1021	-2.6396	-3.0521	-2.9688	-2.6792	-2.875	-2.6937	-2.9708	-3.0979	-2.775	-3	-3.0375	342.127	468.228	263.839	342.404	418.666	342.338	184.382	410.253	306.955	381.816	259.297	425.177	455.647	486.085	303.006	490.257	0.0023156	0.00028561	0.00012259	681.31	8.7763e-06	2.8047e-06	958.94	203.68	8.563e-06	8.3655e-06	420.3	197.52	91.177	40.26	5.9275e-06	106.13	0.0020653	0.0020945	0.00060261	665.7	2.2319e-05	2.3354e-05	930.31	198.54	2.247e-05	2.2825e-05	490.26	192.54	89.459	39.672	2.2921e-05	103.79	473.506	201.423	270.817	151.676	304.427	295.486	151.835	156.863	295.109	231.963	156.571	160.779	160.278	164.877	296.949	164.157	-8191	255	
2035.588	1	1	0	0	0.29694	0.22355	0.096232	0.12375	0.13532	0.11019	0.17321	0.35436	0.29483	0.17162	0.22154	0.11949	0.084198	0.2701	0.26656	0.12866	-2.3438	-2.9875	-2.7896	-2.8542	-2.9729	-2.9646	-2.9292	-3.0187	-2.6437	-2.9979	-2.8083	-2.8146	-3.0729	-2.7896	-2.8125	-3.05	470.566	297.059	458.845	394.488	301.487	294.756	446.869	142.718	184.916	179.646	419.677	471.682	455.076	394.436	140.901	422.814	0.0023124	0.00085849	0.00023016	687.5	1.2882e-05	4.2565e-06	968.55	203.95	9.9299e-06	8.2192e-06	416.19	195.59	90.933	39.881	4.0803e-06	104.63	0.0021251	0.0021493	0.00063492	674.14	2.3804e-05	2.4967e-05	939.82	199.98	2.4414e-05	2.4909e-05	496.64	191.75	89.587	39.49	2.3768e-05	102.52	475.999	205.527	224.170	151.402	279.156	365.983	151.718	157.031	295.041	286.821	157.242	160.841	160.105	164.816	298.568	164.251	-8191	255	
2035.707	1	1	0	0	0.22659	0.30647	0.20333	0.072016	0.25593	0.10467	0.22307	0.1281	0.10685	0.10433	0.10325	0.46565	0.094735	0.14988	0.17495	0.44531	-2.1729	-2.7188	-2.9208	-2.7146	-3.0417	-2.675	-2.8333	-2.9729	-2.6208	-2.9854	-2.8604	-2.8833	-3.0042	-3.0042	-2.8042	-3.0062	360.037	387.924	342.542	313.770	306.789	242.647	476.853	495.690	249.881	484.523	316.111	433.131	479.177	448.626	437.498	452.101	0.0021967	0.00075639	7.2027e-06	677.25	8.815e-06	5.0889e-06	953.77	202.11	3.9755e-06	4.7589e-06	414.76	196.48	92.09	40.481	1.1803e-05	106.54	0.0021435	0.0021464	0.00060957	662.4	2.2331e-05	2.3104e-05	921.26	197.61	2.127e-05	2.1545e-05	476.09	191.68	89.652	39.761	2.0394e-05	103.74	477.654	276.455	330.128	151.649	235.619	321.169	151.788	157.124	275.063	257.011	156.749	160.823	160.259	164.922	260.169	164.003	-8191	255	
2035.803	1	1	0	0	0.19405	0.12361	0.26556	0.18128	0.18063	0.29735	0.28092	0.12235	0.17379	0.24208	0.11707	0.12247	0.21992	0.26821	0.091318	0.11427	-2.3625	-2.8667	-2.9125	-2.6521	-2.8896	-2.7021	-2.7687	-3.0187	-2.8312	-2.675	-2.9125	-2.8583	-2.9542	-2.8229	-2.6021	-3.0354	286.274	292.187	415.953	391.866	351.504	476.528	407.354	399.840	411.990	362.061	438.894	434.412	439.761	453.943	436.375	363.538	0.0022744	0.00075541	0.00012257	685.48	7.3559e-06	1.2093e-05	965.91	206.2	7.1612e-06	9.269e-06	435.38	202.44	94.801	41.663	1.0703e-05	109.02	0.0018339	0.0018007	0.00051313	665.73	1.8617e-05	1.9332e-05	933.87	200.61	1.7965e-05	1.7927e-05	470.29	196.52	91.474	40.822	1.7462e-05	106.16	477.268	253.064	235.296	151.606	326.280	297.118	151.486	156.841	242.979	306.794	156.777	160.813	159.954	164.837	268.920	163.987	-8191	255	
2035.899	1	1	0	0	0.13218	0.27052	0.14669	0.15628	0.075951	0.18536	0.071445	0.28445	0.12675	0.097671	0.14207	0.23115	0.29763	0.3416	0.12656	0.21672	-2.3083	-2.6771	-2.825	-2.75	-2.8563	-2.9917	-2.8458	-2.8604	-2.75	-2.7625	-3.0146	-2.7375	-2.8688	-2.8417	-2.7854	-2.9875	406.673	298.019	157.880	447.573	467.461	426.082	181.896	159.250	415.222	348.467	380.446	416.527	457.144	426.234	174.541	437.370	0.0024405	0.0011385	0.00028722	693.83	6.5062e-06	6.5036e-06	974.84	208.09	9.985e-06	5.8185e-06	427.12	201.47	93.577	41.293	9.3018e-06	108.08	0.0016251	0.0015816	0.00045728	672.54	1.6991e-05	1.812e-05	944.5	202.16	1.7907e-05	1.8267e-05	475.52	195.72	90.826	40.588	1.9345e-05	105.4	476.527	228.689	221.644	151.711	314.542	278.674	151.878	157.163	284.119	302.037	156.005	160.769	159.898	164.739	291.908	164.138	-8191	255	
2035.995	1	1	0	0	0.37778	0.13029	0.39397	0.17194	0.19103	0.3029	0.25145	0.12992	0.30402	0.080259	0.1124	0.16456	0.10297	0.35076	0.16541	0.17451	-2.2458	-2.65	-2.9229	-2.7646	-2.9458	-2.8146	-2.7021	-3.1063	-2.6813	-2.5792	-2.9042	-2.9313	-2.9	-3.0646	-2.6604	-2.9188	401.799	336.190	375.550	409.306	211.083	497.096	462.305	452.292	287.330	453.260	306.922	155.933	489.530	295.445	449.881	270.217	0.0023311	0.0011454	0.00042645	694.4	8.9862e-06	6.5987e-06	976.07	206.02	1.5804e-05	5.3226e-06	432.84	197.65	90.553	40.248	7.7001e-06	105.29	0.001808	0.0018632	0.00053072	675.95	1.9961e-05	2.1686e-05	945.57	200.5	2.1179e-05	2.1515e-05	483.79	192.47	88.927	39.684	2.1928e-05	102.67	479.510	232.509	256.272	151.454	280.521	241.749	151.474	156.953	271.425	362.618	156.990	160.703	159.708	164.859	254.642	164.090	-8191	255	
2036.091	1	1	0	0	0.14054	0.24394	0.086583	0.2755	0.16299	0.087878	0.38554	0.2056	0.1357	0.094051	0.12946	0.21251	0.047349	0.16945	0.061414	0.25933	-2.4167	-2.6271	-3.0146	-2.7896	-2.8292	-3.0708	-2.7521	-3.0563	-2.8292	-2.625	-3.0229	-2.8667	-2.9625	-3.0729	-2.7438	-3.1146	455.677	245.846	169.460	344.194	253.126	413.996	454.766	489.899	232.602	156.665	355.576	410.700	168.055	418.337	150.686	451.054	0.0022979	0.00015462	0.00033778	674.75	2.0582e-06	1.2378e-05	946.32	200.36	9.324e-06	7.9067e-06	411.43	194.68	90.724	40.211	1.2722e-05	105.2	0.0019195	0.0019875	0.00055848	657.21	2.0678e-05	2.1952e-05	917.43	195.45	2.0733e-05	2.1155e-05	470.16	189.34	88.305	39.561	1.9874e-05	102.76	476.759	264.406	214.351	151.592	238.715	288.242	151.666	156.895	270.613	302.226	156.877	160.422	160.344	164.736	280.891	163.792	-8191	255	
2036.188	1	1	0	0	0.096124	0.052848	0.14802	0.20599	0.26565	0.13854	0.26204	0.015623	0.17189	0.046107	0.12223	0.30052	0.28929	0.22849	0.27585	0.11285	-2.4833	-2.6542	-2.9542	-2.9667	-2.7708	-3.0062	-2.8458	-2.8417	-2.7167	-2.65	-2.9042	-3.0646	-2.8375	-3.1042	-2.6063	-2.9833	243.298	235.704	479.008	266.173	205.487	478.542	415.326	340.626	277.599	381.677	145.584	433.281	189.940	423.144	228.046	302.901	0.0023173	0.0005209	0.00029099	681.51	6.7667e-06	8.9718e-06	963.14	206.19	4.8603e-06	1.1479e-05	428.99	202.3	94.704	41.934	6.4752e-06	108.67	0.0017736	0.0017818	0.0004853	661.56	1.8386e-05	1.9371e-05	928.82	199.72	1.8548e-05	1.8759e-05	467.98	195.65	91.758	40.978	1.826e-05	105.96	476.704	273.267	278.649	151.652	248.899	321.283	151.606	157.066	315.089	270.776	156.954	160.502	160.166	164.924	275.432	164.080	-8191	255	
2036.308	1	1	0	0	0.075367	0.32849	0.19073	0.21504	0.21457	0.15478	0.17637	0.11037	0.12874	0.25254	0.10192	0.27064	0.32597	0.22478	0.18895	0.24513	-2.6292	-2.5812	-2.9917	-2.8979	-2.6042	-3.0458	-2.8208	-2.9354	-2.9562	-2.6083	-2.85	-2.8667	-2.6937	-2.9771	-2.6937	-2.9188	205.224	482.492	227.063	373.710	254.995	213.750	398.882	433.273	448.927	271.206	472.910	400.546	431.337	143.754	397.440	383.678	0.0024089	0.00072899	0.00014305	689.13	4.5638e-06	5.3367e-06	976.51	209.25	4.5665e-06	6.4985e-06	436.63	205.46	96.315	42.57	1.0494e-05	111.31	0.0016683	0.0016405	0.0004518	671.63	1.7226e-05	1.8029e-05	940.02	202.6	1.733e-05	1.7322e-05	467.38	199.53	93.342	41.701	1.6536e-05	108.05	476.514	277.860	290.509	151.723	357.657	290.861	151.571	156.807	298.699	294.774	156.336	160.646	159.909	164.426	295.292	163.864	-8191	255	
2036.403	1	1	0	0	0.1602	0.19635	0.11526	0.44832	0.14421	0.063005	0.24199	0.14357	0.21244	0.088314	0.15325	0.29068	0.46055	0.097418	0.2639	0.18569	-2.4292	-2.4	-2.8812	-2.6771	-2.5438	-2.8438	-2.8667	-2.9521	-2.9083	-2.7	-2.8854	-2.9917	-2.7125	-3.1479	-2.6625	-2.7979	313.937	387.588	251.965	162.294	351.820	234.469	449.374	388.237	336.342	259.578	461.682	430.146	472.937	384.733	385.837	405.906	0.0025199	0.0010551	0.00027808	698.44	5.6751e-06	2.0727e-06	986.07	211.44	1.0308e-05	3.7722e-06	431.43	208.29	96.912	42.915	7.405e-06	111.18	0.00156	0.0014986	0.00040507	676.96	1.5548e-05	1.595e-05	949.78	204.72	1.537e-05	1.5882e-05	461.3	201.85	93.965	41.858	1.5435e-05	107.84	475.452	233.281	235.429	151.403	323.762	298.574	151.628	156.982	236.243	340.482	156.331	160.551	159.900	164.978	297.350	163.811	-8191	255	
2036.499	1	1	0	0	0.16082	0.25117	0.18061	0.20675	0.094259	0.073043	0.4016	0.20551	0.15242	0.11586	0.31519	0.13041	0.052872	0.13173	0.11118	0.22131	-2.5333	-2.7646	-2.9479	-2.8979	-2.4146	-3.0438	-2.8854	-2.7104	-2.8438	-2.7729	-2.8208	-3.0771	-2.5812	-2.9583	-2.7458	-2.8125	404.760	244.796	359.272	453.037	392.502	210.641	465.800	469.174	381.383	251.477	465.625	154.952	415.622	451.891	341.189	455.505	0.0024811	0.0005972	0.00025044	695.55	7.8957e-06	9.2922e-06	968.31	205.54	2.7517e-06	8.3995e-06	416.02	199.38	92.704	40.563	3.0772e-06	105.4	0.0015262	0.00149	0.00040946	672.16	1.6144e-05	1.6673e-05	932.83	199.36	1.7216e-05	1.8245e-05	459.51	193.51	89.874	39.787	1.9433e-05	103.01	476.847	170.675	265.294	151.693	287.098	266.722	151.732	156.922	228.564	289.204	156.131	160.559	159.992	164.884	321.965	163.938	-8191	255	
2036.595	1	1	0	0	0.1168	0.12874	0.25224	0.08951	0.14396	0.018988	0.22761	0.15389	0.14772	0.25101	0.27487	0.25424	0.15769	0.21281	0.038879	0.20416	-2.6688	-2.6875	-2.7354	-2.8875	-2.6167	-2.9	-2.9104	-2.6833	-2.8625	-2.7438	-2.8146	-2.9229	-2.5667	-2.9521	-2.9562	-2.9021	245.445	321.915	462.774	281.987	440.319	420.317	421.112	465.569	189.925	467.822	413.921	459.649	163.581	378.644	413.236	452.918	0.0022352	0.00064136	3.513e-05	683.25	6.3286e-06	6.1036e-06	950.79	200.67	4.7836e-06	3.4449e-06	408.6	192.74	89.467	39.356	1.0378e-05	102.57	0.0018139	0.0018738	0.00052499	664.47	2.1051e-05	2.1689e-05	919.27	196.41	2.2151e-05	2.3433e-05	474.65	188.51	87.929	38.839	2.487e-05	100.45	474.261	278.693	466.023	151.747	278.461	269.471	151.577	157.052	279.058	211.785	156.436	160.795	159.677	164.712	218.019	164.260	-8191	255	
2036.668	1	1	0	0	0.20122	0.24028	0.22868	0.12537	0.30462	0.1153	0.32893	0.093685	0.17179	0.022172	0.14233	0.20067	0.13014	0.19633	0.24147	0.13592	-2.35	-2.8438	-2.675	-3.1271	-2.6562	-2.8854	-3.1312	-2.8229	-2.8479	-2.6437	-2.6417	-3.1562	-2.8438	-2.7729	-2.775	-2.7938	247.333	340.368	445.571	202.012	480.820	305.416	401.825	183.695	396.934	430.678	287.842	437.602	477.293	160.300	347.277	460.328	0.0021124	0.0010867	6.0458e-05	676.35	4.9702e-06	7.6237e-06	942.66	199.4	7.452e-06	7.2291e-06	414.77	194.59	90.035	39.946	5.6095e-06	104.81	0.0021804	0.0023114	0.00064249	662.95	2.4534e-05	2.447e-05	917.21	195.28	2.3007e-05	2.3834e-05	479.34	189.29	88.574	39.272	2.2728e-05	102.54	477.405	229.928	176.790	151.576	237.616	281.987	151.587	157.072	243.377	255.290	156.236	160.531	159.606	164.789	334.919	164.271	-8191	255	
2036.787	1	1	0	0	0.24638	0.22918	0.03099	0.080513	0.16811	0.21617	0.29738	0.22059	0.038357	0.055517	0.19253	0.24164	0.13594	0.1784	0.069064	0.18035	-2.4104	-2.7438	-2.6917	-2.9042	-2.5167	-2.8667	-3.2479	-2.6063	-2.8021	-2.8042	-2.6771	-3.0042	-2.8187	-2.6562	-3.0104	-3.0396	254.484	473.721	444.554	239.165	262.686	493.961	454.333	384.444	363.874	276.448	385.612	465.737	177.894	172.782	305.707	419.113	0.0022713	0.00027109	0.00016287	689.9	8.659e-06	9.9289e-06	961.92	203.47	9.9517e-06	6.9777e-06	432.31	198.49	93.191	40.71	6.5167e-06	106.2	0.0019474	0.0020483	0.00055633	668.96	2.0992e-05	2.1679e-05	930.86	199.23	2.0697e-05	2.1735e-05	479.42	193.58	90.676	40.038	2.1354e-05	103.61	477.960	477.797	269.928	151.716	222.653	287.466	151.705	157.109	262.023	274.645	156.089	160.586	159.683	164.798	338.735	164.081	-8191	255	
2036.883	1	1	0	0	0.16899	0.0269	0.095829	0.15386	0.041143	0.20189	0.50222	0.16006	0.20509	0.059997	0.24068	0.228	0.061026	0.12984	0.21466	0.10377	-2.2729	-2.9667	-2.5417	-2.8167	-2.8104	-2.7625	-2.9958	-2.7667	-2.8812	-2.7479	-2.5958	-3.0146	-2.7583	-2.9896	-2.8125	-2.7729	145.444	414.676	282.238	452.577	475.974	173.651	397.503	387.724	384.335	478.005	397.149	467.585	246.698	317.664	229.651	425.779	0.0023555	0.0014606	0.00011226	685.36	9.9875e-06	6.4762e-06	950.18	201.26	1.3127e-05	8.7297e-06	411.86	197.67	92.577	41.033	8.6715e-06	105.93	0.0018765	0.0019748	0.00053985	666.97	2.0876e-05	2.1177e-05	920.12	197.38	1.9972e-05	2.0819e-05	468.57	192.52	90.381	40.099	1.9779e-05	103.62	477.504	169.402	221.279	151.692	323.338	328.125	151.881	157.038	272.212	290.518	157.096	160.680	159.844	164.571	309.973	163.991	-8191	255	
2036.979	1	1	0	0	0.27304	0.21706	0.25841	0.22885	0.12347	0.10652	0.25879	0.14574	0.073367	0.045941	0.084394	0.44109	0.15096	0.12916	0.1645	0.1977	-2.3979	-2.825	-2.6208	-3.0521	-2.8958	-2.775	-3.225	-2.8021	-3.0458	-2.9396	-2.6417	-3.0896	-2.7562	-2.7458	-2.9104	-2.6188	219.568	342.024	190.097	456.210	406.900	275.742	436.995	139.501	315.998	382.369	139.617	434.824	329.448	154.719	434.704	458.957	0.0022654	0.00070609	0.0003272	689.28	5.5922e-06	3.8073e-06	955.08	205.98	7.3189e-06	6.4207e-06	421.82	200.91	93.744	41.504	4.6655e-06	107.67	0.0017673	0.0018465	0.00051487	667.45	1.9693e-05	1.9609e-05	928.62	200.1	1.902e-05	1.9989e-05	470.23	194.89	91.473	40.697	1.9457e-05	104.97	476.287	254.445	231.156	151.592	301.434	350.267	151.783	157.014	289.197	330.450	156.032	160.671	159.995	164.883	333.944	163.814	-8191	255	
2037.100	1	1	0	0	0.096904	0.3723	0.19354	0.19688	0.047015	0.16385	0.17158	0.19088	0.12211	0.20098	0.091419	0.20187	0.028243	0.15933	0.206	0.24826	-2.4333	-2.9771	-2.5146	-2.8229	-2.5958	-2.7729	-3.1833	-3.025	-2.7729	-2.8958	-2.7208	-2.9417	-2.9229	-2.7667	-2.9813	-2.9292	426.019	229.964	147.725	437.038	266.146	297.065	427.737	457.079	256.463	223.435	388.300	412.302	335.784	485.889	374.969	416.498	0.0024142	0.00081861	0.00015127	688.47	1.2221e-05	5.181e-06	959.07	204.96	1.6021e-05	2.3396e-06	429.91	197.89	91.831	40.708	1.3559e-05	105.97	0.0017677	0.0018227	0.00050657	668.51	1.9828e-05	2.062e-05	931.32	199.87	2.0524e-05	2.174e-05	479.43	192.61	90.276	40.118	2.2001e-05	103.69	477.637	234.353	273.901	151.522	260.953	273.252	151.835	157.307	261.459	328.583	157.574	160.823	160.050	164.468	301.232	164.199	-8191	255	
2037.196	1	1	0	0	0.071269	0.070093	0.23045	0.19313	0.032335	0.051856	0.053915	0.11111	0.23234	0.048151	0.22174	0.29683	0.13687	0.19141	0.07757	0.28321	-2.3667	-3.1063	-2.6854	-3	-3.0812	-2.7271	-3.2792	-2.8271	-2.6375	-3.0438	-2.6437	-2.8083	-2.9917	-2.75	-2.8479	-2.9938	174.882	456.838	407.506	272.920	311.322	239.836	259.989	145.542	409.490	237.912	275.564	489.971	487.483	489.217	173.306	426.081	0.002273	0.0020079	0.00014505	683.21	7.7139e-06	1.0222e-05	954.14	201.79	7.3458e-06	3.769e-06	418.36	193.91	89.854	39.712	1.074e-05	103.08	0.0020104	0.0021191	0.00060572	668.17	2.3266e-05	2.431e-05	928.07	198.23	2.3532e-05	2.4528e-05	490.87	189.81	88.63	39.291	2.5172e-05	101.06	475.075	239.467	266.117	151.477	284.148	251.132	151.714	157.082	261.651	251.272	154.958	160.701	160.233	164.843	297.290	164.141	-8191	255	
2037.268	1	1	0	0	0.14246	0.084974	0.1434	0.22117	0.15141	0.089654	0.25303	0.27839	0.027765	0.029259	0.11977	0.29114	0.22728	0.19037	0.31691	0.25977	-2.2687	-2.8208	-2.7333	-2.8688	-2.9167	-2.7208	-2.9062	-2.7146	-2.6667	-3.0417	-2.7896	-3.0563	-2.9813	-2.7271	-2.9021	-2.8771	364.933	404.435	376.218	408.176	444.772	164.175	151.702	467.385	312.325	213.281	200.323	145.892	174.711	425.081	200.101	165.273	0.002315	0.0009003	0.00020881	667.83	5.5432e-06	8.7492e-06	924.03	193.22	7.8127e-06	1.214e-05	402.44	187.19	86.985	37.963	6.2287e-06	99.393	0.002256	0.0024007	0.00066963	655.92	2.6649e-05	2.7355e-05	902.33	191.47	2.6296e-05	2.7615e-05	488.74	182.94	86.065	37.753	2.7652e-05	97.74	479.100	212.017	231.366	151.587	308.605	257.248	151.986	156.895	207.491	331.688	157.111	160.621	160.072	164.761	306.522	164.271	-8191	255	
2037.389	1	1	0	0	0.089244	0.14264	0.10427	0.26516	0.30737	0.31607	0.2768	0.31002	0.10153	0.21159	0.082431	0.19895	0.15853	0.36372	0.36997	0.29835	-2.1896	-2.9417	-2.8375	-2.8187	-2.9104	-2.7396	-3.1396	-2.8042	-2.6542	-3.0104	-2.7875	-2.8521	-2.9354	-2.9208	-2.9625	-3.0917	148.892	346.611	413.602	371.814	199.705	389.971	491.486	446.899	293.676	298.584	399.500	477.749	405.584	387.701	405.040	422.076	0.0021269	0.0013798	0.00023866	661.31	1.088e-05	5.1382e-06	919.64	192.33	6.1629e-06	4.7356e-06	399.49	184.47	85.761	37.268	5.7263e-06	98.96	0.0024874	0.0026752	0.00076571	654.5	2.9709e-05	3.1108e-05	898.31	190.62	3.0786e-05	3.2012e-05	506.69	181.44	85.791	37.576	3.1663e-05	97.259	472.896	194.652	281.800	151.905	229.750	441.452	151.827	156.938	185.156	379.860	157.460	160.609	159.962	165.049	249.070	164.091	-8191	255	
2037.483	1	1	0	0	0.10874	0.14156	0.30049	0.32159	0.10491	0.1608	0.30353	0.075155	0.16865	0.12922	0.18277	0.42177	0.14091	0.095534	0.24755	0.28044	-2.1958	-2.9604	-2.6437	-2.5708	-3.0042	-2.7167	-3.0146	-2.9896	-2.6417	-3.0208	-2.5729	-2.8458	-3.0563	-2.6542	-2.775	-3.1375	196.094	312.380	424.516	325.824	259.004	332.591	403.959	379.554	436.504	342.873	430.865	433.344	185.597	413.050	281.501	464.630	0.0022341	0.00020993	0.00012572	663.79	6.4949e-07	7.5186e-06	917.3	192.42	4.4087e-06	5.1735e-06	402.69	185.67	85.344	37.744	1.0668e-05	99.303	0.0027153	0.0029075	0.00082392	657.68	3.122e-05	3.2541e-05	898.72	191.86	3.0996e-05	3.1714e-05	510.34	182.16	85.77	37.823	3.1777e-05	97.86	482.876	473.911	242.066	151.471	387.555	303.390	151.656	157.071	238.947	317.531	155.903	160.830	159.921	165.277	229.069	164.087	-8191	255	
2037.579	1	1	0	0	0.21995	0.22905	0.12855	0.093712	0.19314	0.32717	0.21568	0.10037	0.27629	0.13107	0.12619	0.13612	0.075679	0.27833	0.034091	0.2239	-2.2583	-2.8292	-2.7083	-2.7313	-2.9021	-2.7292	-2.8833	-3.1375	-2.625	-2.8521	-2.7229	-2.775	-3.125	-2.6958	-2.8354	-3.225	262.277	221.553	300.747	384.437	292.089	463.872	373.095	485.156	489.797	202.562	217.630	437.028	435.103	481.152	242.701	204.166	0.0022255	0.00085846	0.00018581	669.86	1.1676e-05	1.975e-06	925.94	194.51	8.1511e-06	6.5985e-06	400.04	186.67	86.314	37.876	6.0811e-06	98.907	0.0027617	0.0029621	0.00086323	664.97	3.1992e-05	3.3786e-05	906.43	193.43	3.2633e-05	3.2878e-05	516.95	183.26	86.155	37.793	3.2728e-05	97.422	474.638	494.209	177.119	151.940	261.218	157.839	151.331	157.212	180.778	494.333	157.918	160.685	159.892	165.016	399.837	164.254	-8191	255	
2037.700	1	1	0	0	0.29167	0.1732	0.17638	0.072976	0.04276	0.086677	0.26301	0.11201	0.11662	0.20515	0.055355	0.21736	0.53438	0.1585	0.21986	0.21306	-2.1896	-2.9333	-2.7896	-2.6583	-3.0354	-2.675	-2.8292	-3.0458	-2.6813	-2.9437	-2.7042	-2.6167	-2.9354	-2.8604	-2.7917	-3.0729	295.748	151.105	462.571	224.425	498.685	340.855	469.633	402.702	346.035	480.408	353.166	176.114	425.084	462.462	450.686	488.237	0.0022849	0.00078718	0.00019594	660.13	8.4866e-06	5.9788e-06	910.7	190.56	1.5037e-05	5.3e-06	398.53	182.33	84.769	37.12	9.5189e-06	97.268	0.002844	0.0030226	0.00085961	657.15	3.2099e-05	3.3735e-05	894.07	189.42	3.2049e-05	3.2397e-05	507.92	179.58	84.628	37.114	3.3005e-05	95.796	477.069	252.621	270.838	151.560	255.988	261.254	151.498	157.301	236.520	211.717	156.271	160.704	160.143	164.625	274.226	164.178	-8191	255	
2037.796	1	1	0	0	0.047065	0.11057	0.12253	0.21164	0.024507	0.13013	0.23892	0.23451	0.21336	0.28222	0.32463	0.117	0.11021	0.16294	0.069484	0.22445	-2.1292	-2.8812	-2.8958	-2.7521	-3.0396	-2.9292	-2.7604	-3.0708	-2.8625	-2.6792	-2.8812	-2.7729	-2.8771	-2.9021	-2.7583	-3.05	276.157	315.482	347.381	427.266	346.037	273.200	171.852	145.358	488.687	441.725	182.081	148.279	399.940	394.457	337.309	352.846	0.0020939	0.00083377	0.00021102	655.03	1.8603e-05	1.1765e-05	909.38	190.31	2.6474e-06	2.2955e-06	389.51	181.68	83.78	36.86	5.2601e-06	97.263	0.0028416	0.0031813	0.00090531	655.17	3.41e-05	3.6887e-05	894.1	189.96	3.5513e-05	3.6071e-05	522.4	179.46	84.743	37.172	3.6313e-05	96.062	477.592	258.717	234.421	151.673	263.720	324.105	151.827	156.754	337.195	361.841	156.322	161.040	160.074	165.039	230.663	164.196	-8191	255	
2037.892	1	1	0	0	0.12688	0.17205	0.13798	0.080218	0.25613	0.16704	0.15238	0.14263	0.11497	0.13096	0.28923	0.1513	0.17292	0.014529	0.23687	0.34673	-2.4271	-2.7562	-2.7625	-2.7812	-2.7687	-2.8812	-2.7042	-3.0396	-2.7125	-2.8229	-2.9188	-2.8854	-2.9854	-2.7271	-2.5708	-3.15	179.863	437.884	325.125	461.152	239.113	242.267	146.420	472.265	158.585	301.066	290.597	193.509	167.399	329.521	283.379	430.666	0.0021967	0.0015708	5.4151e-05	659.2	4.0517e-06	5.806e-06	914.27	191.48	1.1155e-05	5.5442e-06	393.9	183.27	84.795	37.613	1.0708e-05	98.245	0.0030164	0.0033231	0.00094257	658.11	3.4108e-05	3.6273e-05	896.77	190.34	3.4015e-05	3.4583e-05	512.97	180.8	85.326	37.64	3.3352e-05	97	474.998	166.698	253.259	151.667	255.144	256.964	151.909	157.375	215.664	225.209	157.112	160.720	160.222	164.669	289.143	164.299	-8191	255	
2037.964	1	1	0	0	0.26215	0.1392	0.097478	0.22585	0.17153	0.19334	0.071935	0.31503	0.016232	0.20436	0.17089	0.37393	0.17497	0.12972	0.14424	0.27254	-2.3812	-2.7646	-2.8271	-2.5917	-2.8312	-2.8812	-2.7667	-2.9875	-2.8708	-2.6375	-2.9521	-2.9333	-2.9083	-3.0187	-2.4708	-3.1021	375.144	197.465	214.145	244.156	193.042	240.233	143.294	354.678	328.181	370.607	167.631	423.002	254.105	451.072	326.230	413.975	0.0021834	0.00094368	6.2588e-05	665.64	8.5013e-06	1.4493e-05	919.77	193.73	1.418e-05	1.8788e-06	407.21	186.91	85.448	37.944	6.8377e-06	99.292	0.0028089	0.0030559	0.00085655	658.06	3.1798e-05	3.4024e-05	903.3	192.27	3.1862e-05	3.2233e-05	507.32	183.39	86.218	38.053	3.1184e-05	97.725	474.734	196.258	190.258	151.782	238.891	275.486	151.553	157.270	247.570	361.982	156.545	160.652	159.922	165.140	353.928	164.302	-8191	255	
2038.084	1	1	0	0	0.081027	0.34093	0.33953	0.16675	0.16036	0.17892	0.41939	0.41018	0.20843	0.095658	0.070199	0.35889	0.03352	0.31052	0.15688	0.17332	-2.2167	-2.6458	-3.0125	-2.8771	-2.775	-3.0104	-2.7729	-2.9062	-3.0708	-2.6208	-2.9521	-2.7958	-2.8771	-2.8812	-2.7625	-3.1479	357.944	347.991	475.957	174.965	389.423	476.176	459.283	403.769	494.019	247.232	451.477	469.310	178.534	477.286	344.407	452.407	0.0021102	0.0011254	0.00025435	659.29	5.4433e-06	1.2089e-05	915.35	191.22	1.8397e-05	1.7507e-05	386.92	182.84	84.833	37.182	1.3331e-05	96.907	0.0026502	0.002895	0.00080208	653.71	3.0468e-05	3.2699e-05	893.74	189.3	3.1575e-05	3.22e-05	502.02	179.41	84.811	37.286	3.3339e-05	95.581	478.589	243.132	276.802	151.511	463.455	290.770	151.784	157.007	289.580	257.071	156.421	160.503	160.047	164.904	235.353	164.081	-8191	255	
2038.180	1	1	0	0	0.25643	0.21517	0.17757	0.058587	0.16583	0.13774	0.38484	0.16186	0.11463	0.0256	0.0018777	0.25445	0.2123	0.098702	0.10863	0.4222	-2.3604	-2.5687	-2.8604	-3.0938	-2.6708	-2.8438	-2.7562	-3.0125	-2.7562	-2.675	-2.875	-2.925	-2.7208	-2.9813	-2.6333	-3.0271	177.212	222.454	289.481	203.657	496.314	446.702	478.814	475.372	457.866	272.201	180.000	384.998	403.490	182.846	257.430	440.476	0.0022478	0.0008416	0.00020824	660.15	3.3719e-06	8.9428e-06	909.88	190.15	1.0386e-05	3.6563e-06	389.5	182.2	83.843	37.039	7.8806e-06	97.004	0.002823	0.0030419	0.00085854	653.54	3.2463e-05	3.4556e-05	892.36	189.68	3.4163e-05	3.5339e-05	514.13	179.61	84.773	37.27	3.5937e-05	95.931	475.312	264.239	203.231	151.724	303.313	429.425	151.625	157.139	320.545	257.599	156.681	160.892	160.255	165.082	366.049	164.433	-8191	255	
2038.277	1	1	0	0	0.15959	0.14875	0.10673	0.080715	0.05279	0.14229	0.088524	0.16094	0.23036	0.18578	0.099409	0.15053	0.15619	0.19099	0.23221	0.32835	-2.3271	-2.5583	-3.025	-2.7604	-2.5187	-2.7812	-2.8937	-2.9146	-2.9104	-2.7396	-2.8333	-2.8583	-2.7188	-2.8875	-2.7812	-3.0417	151.477	195.361	178.316	416.335	253.139	155.173	143.229	455.889	345.775	161.496	334.677	390.345	161.268	312.292	263.003	485.205	0.0017698	0.00050462	0.00034193	660.23	1.2357e-05	1.9115e-05	914.74	191.91	6.5544e-06	4.3502e-06	396.93	183.53	85.998	37.792	1.1786e-05	99.001	0.0030535	0.0034123	0.00094325	658.77	3.5972e-05	3.7312e-05	897.01	191.15	3.5122e-05	3.6329e-05	516.48	181.16	86.096	37.878	3.3434e-05	97.611	474.564	158.184	191.269	151.529	245.635	275.346	152.041	157.327	338.614	352.040	156.992	161.072	159.875	165.043	274.712	164.363	-8191	255	
2038.373	1	1	0	0	0.29152	0.056267	0.052847	0.12832	0.28326	0.17812	0.03916	0.20628	0.24211	0.16547	0.2914	0.23712	0.1441	0.33895	0.25678	0.1384	-2.2833	-2.7333	-2.8312	-2.9813	-2.6229	-3.1875	-2.8312	-2.7396	-2.9625	-2.6604	-2.9646	-3.0167	-2.6813	-2.9708	-2.625	-2.9313	356.832	426.721	336.600	464.134	365.869	217.426	317.133	312.444	349.617	417.743	440.857	473.743	406.596	427.561	422.802	374.297	0.0020902	0.00074625	0.00013661	672.65	1.187e-05	1.4655e-06	926.71	195.38	9.8036e-06	3.3019e-06	409.38	189.02	87.164	39.084	1.2317e-05	101.5	0.0027724	0.0030048	0.00080906	662.87	3.0691e-05	3.1419e-05	906.15	193.67	3.0186e-05	3.0713e-05	501.03	185.3	87.392	38.73	2.9248e-05	99.459	472.650	289.245	240.991	151.681	211.352	312.023	151.728	157.290	382.456	324.970	157.172	160.871	160.064	164.935	259.622	164.052	-8191	255	
2038.492	1	1	0	0	0.15911	0.18148	0.19387	0.16124	0.13826	0.047919	0.036769	0.28539	0.2102	0.11586	0.030781	0.083658	0.13384	0.040187	0.32131	0.155	-2.4271	-2.475	-2.9625	-3.0125	-2.4771	-3.0125	-2.9437	-2.7375	-2.9792	-2.5812	-2.7979	-3.0687	-2.6604	-2.9604	-2.8042	-2.8583	156.408	361.520	468.334	428.906	439.672	497.433	188.411	324.098	484.063	442.685	440.122	478.583	480.911	210.615	436.932	364.453	0.0021456	0.0012595	0.00010884	667.96	8.1023e-06	5.0685e-06	923.05	193.25	1.1342e-05	8.3142e-06	394.23	186.61	87.436	38.592	1.0556e-05	100.28	0.0024841	0.0026845	0.00073599	658.19	2.871e-05	2.9497e-05	896.2	191.36	2.8631e-05	2.9174e-05	484.94	182.93	86.4	38.299	2.7241e-05	98.343	473.822	233.969	246.318	151.754	385.538	480.230	151.509	157.053	237.157	300.523	156.526	160.715	160.159	164.759	191.947	164.106	-8191	255	
2038.563	1	1	0	0	0.26036	0.09152	0.35077	0.20293	0.10262	0.19372	0.20239	0.077206	0.032943	0.078831	0.11965	0.20705	0.17513	0.20831	0.095743	0.56028	-2.3979	-2.6917	-2.7729	-3.0125	-2.7042	-3.0042	-2.9396	-2.8333	-3.0833	-2.7479	-2.8042	-3.0146	-2.6354	-2.9667	-2.9146	-2.8771	389.106	458.247	350.162	464.907	405.201	188.672	472.755	467.814	157.669	215.758	454.873	424.267	309.907	437.672	426.857	453.488	0.0022095	0.00080538	8.5876e-05	665.12	8.8846e-06	1.0926e-05	923.56	195.45	7.4424e-06	8.9933e-06	411.95	190.11	88.529	39.492	1.1636e-05	102.76	0.0023176	0.0024798	0.00067398	653.33	2.5725e-05	2.6299e-05	899.52	192.76	2.5227e-05	2.6024e-05	481.11	186.3	87.625	38.983	2.5215e-05	100.44	477.148	228.797	284.398	151.670	233.170	303.059	151.721	156.720	314.681	289.093	156.035	160.606	160.031	164.732	288.179	164.126	-8191	255	
2038.661	1	1	0	0	0.28348	0.14523	0.28373	0.12258	0.076827	0.090405	0.30201	0.06497	0.20976	0.25851	0.21018	0.2449	0.081518	0.24164	0.2373	0.14489	-2.3688	-2.8583	-2.6813	-2.9729	-2.45	-2.9104	-3.0396	-2.6875	-3.0479	-2.7729	-2.6646	-3.1229	-2.7792	-2.9938	-2.9375	-2.9229	318.837	158.896	254.555	429.435	230.909	305.525	441.783	157.421	188.077	210.221	463.762	238.379	448.198	445.048	332.617	405.419	0.0022804	0.0014657	0.00025305	673.49	1.0226e-05	5.0745e-06	937.54	198.94	1.0335e-05	7.6221e-06	417.37	192.85	90.81	40.164	1.7392e-05	104.32	0.0021363	0.0022949	0.00062786	657.82	2.4038e-05	2.4643e-05	911.09	196.04	2.3228e-05	2.4726e-05	481.57	188.9	89.138	39.607	2.4694e-05	101.9	474.234	260.891	293.147	151.862	214.811	394.581	151.702	157.143	269.096	262.807	157.535	160.815	159.830	164.723	246.841	164.328	-8191	255	
2038.780	1	1	0	0	0.058716	0.25859	0.17358	0.16096	0.08639	0.17671	0.30546	0.11606	0.090835	0.10694	0.061828	0.17826	0.1057	0.32768	0.10321	0.13473	-2.3979	-2.8646	-2.8312	-3.025	-2.8187	-2.9417	-3.0521	-2.6792	-2.9521	-2.6583	-2.5875	-3.15	-2.6521	-2.8312	-3.05	-2.7375	180.528	274.599	302.331	146.841	245.727	308.472	445.956	341.459	442.439	452.725	465.279	498.046	484.292	167.456	326.940	487.563	0.0022658	0.0009879	0.00034217	677.87	6.811e-06	1.1174e-05	942.17	202.24	1.4553e-05	9.6652e-06	424.13	195.07	91.871	41.054	3.5841e-06	106.05	0.0021349	0.0022883	0.00063466	663.45	2.4165e-05	2.4282e-05	917.78	198.19	2.2866e-05	2.4123e-05	482.71	191	90.043	40.374	2.2999e-05	103.6	477.683	213.379	233.722	151.135	273.310	210.538	151.542	156.946	266.180	299.523	156.859	160.641	159.943	164.998	255.758	164.360	-8191	255	
2038.876	1	1	0	0	0.23294	0.085965	0.10493	0.085028	0.09287	0.22806	0.18169	0.04546	0.31585	0.18697	0.19871	0.31811	0.17802	0.27958	0.29881	0.044363	-2.2083	-2.6958	-2.5271	-3.0958	-2.7625	-2.7625	-3.0104	-2.5687	-2.8708	-2.8604	-2.7521	-2.9958	-2.8167	-2.8812	-2.9188	-2.9562	253.166	306.710	390.573	162.912	214.153	460.290	446.445	243.406	190.356	444.488	256.274	443.776	452.514	476.527	298.598	325.166	0.0024075	0.0013207	0.00010835	680.97	8.0043e-06	8.9691e-06	941.37	200.62	9.7946e-06	3.7477e-06	411.29	194.44	91.615	40.478	2.5859e-06	104.26	0.0019794	0.0020809	0.00057706	662.19	2.1914e-05	2.2219e-05	912.38	196.18	2.1227e-05	2.2227e-05	470.37	189.4	89.223	39.831	2.1331e-05	101.96	476.272	221.319	232.443	151.533	201.488	282.300	151.374	157.157	271.808	297.450	157.598	160.780	160.164	164.630	310.240	164.201	-8191	255	
2038.972	1	1	0	0	0.10539	0.16903	0.24583	0.14364	0.16606	0.14923	0.30993	0.20456	0.15363	0.067614	0.12857	0.16122	0.22333	0.077088	0.19995	0.18297	-2.4833	-2.7271	-2.5563	-2.9771	-2.7729	-2.8458	-3.0333	-2.7479	-2.8042	-2.9625	-2.7562	-3.0833	-2.8604	-2.7667	-2.7896	-2.8792	380.600	445.690	206.668	345.483	326.529	454.964	476.047	449.294	141.943	382.481	460.894	392.852	418.470	176.102	177.353	159.485	0.0023051	0.00067685	0.00016289	669.13	7.3507e-06	8.7624e-06	937.89	199.62	2.5949e-06	1.6575e-05	411.25	194.15	91.47	40.502	1.0312e-05	104.7	0.0019072	0.0020075	0.00055456	654.44	2.1195e-05	2.1832e-05	910.34	195.84	2.1438e-05	2.2763e-05	473.35	189.62	89.477	40.074	2.3023e-05	102.25	477.387	203.178	176.781	151.756	151.012	294.513	151.780	157.307	357.567	278.161	157.614	160.662	160.120	165.163	265.562	163.983	-8191	255	
2039.069	1	1	0	0	0.052057	0.19891	0.14254	0.37384	0.23743	0.2232	0.0888	0.24045	0.04791	0.097791	0.087635	0.1184	0.21452	0.25302	0.13753	0.29814	-2.3229	-2.8083	-2.5521	-2.8521	-2.9583	-2.6396	-2.9646	-2.7458	-2.6167	-2.9604	-2.5271	-3.0021	-2.7854	-2.7979	-2.925	-2.7417	360.409	452.094	190.925	471.156	280.258	177.192	451.706	483.006	358.042	456.764	170.454	360.540	181.840	469.449	358.107	437.541	0.0022164	0.00021735	0.0002099	673.83	9.8675e-06	8.4522e-06	938.72	199.89	1.3983e-05	6.2381e-06	412.28	193.45	90.891	40.457	7.7678e-06	103.94	0.0020425	0.0021917	0.0006164	658.11	2.3725e-05	2.4609e-05	911.44	196.42	2.3814e-05	2.4893e-05	488.27	188.96	89.385	40.056	2.4623e-05	101.98	479.333	220.513	257.834	151.875	322.921	218.385	151.912	157.036	294.054	279.723	156.646	160.841	159.960	165.008	284.458	164.189	-8191	255	
2039.165	1	1	0	0	0.024606	0.18661	0.051061	0.23826	0.08521	0.14491	0.20604	0.16834	0.14599	0.07015	0.071318	0.10103	0.14777	0.32202	0.18676	0.051681	-2.3167	-2.9542	-2.575	-2.8187	-2.7896	-2.9042	-3.0917	-2.7771	-2.6854	-2.8812	-2.6625	-3.0375	-2.9083	-2.7208	-2.9854	-2.9729	484.109	150.866	260.988	447.036	423.889	449.610	409.099	263.120	279.624	376.464	463.450	407.696	477.339	479.027	259.925	422.052	0.0024947	0.00064946	1.9239e-05	674.02	8.2977e-06	1.0806e-05	941.43	201.09	1.1058e-05	5.04e-06	413.51	195.56	91.542	40.512	1.2069e-05	105.05	0.0021643	0.002283	0.00063723	659.46	2.4341e-05	2.5627e-05	915.34	197.21	2.4029e-05	2.4983e-05	483.85	190.18	89.733	40.203	2.3353e-05	102.93	478.289	245.975	179.960	151.616	285.872	308.650	151.658	157.115	233.590	232.521	156.070	160.630	160.270	164.919	271.545	164.169	-8191	255	
2039.261	1	1	0	0	0.040695	0.018065	0.24828	0.14438	0.17657	0.11008	0.23438	0.13584	0.11274	0.091226	0.059453	0.09845	0.07232	0.12652	0.079275	0.082541	-2.3667	-2.8792	-2.5771	-2.9188	-2.9125	-2.6875	-2.9417	-2.8125	-2.5729	-2.7	-2.8271	-3.0729	-2.825	-2.7979	-2.9021	-3.0146	259.230	195.018	318.646	140.118	366.432	179.748	390.492	483.378	213.408	317.535	334.973	146.038	326.446	429.507	468.055	332.094	0.0025675	0.0004238	9.4898e-05	669.96	1.1743e-05	1.4112e-05	931.93	199.64	1.5043e-05	1.0735e-05	411.7	191.13	89.723	39.841	9.0526e-06	102.6	0.002099	0.0021727	0.00061367	657.2	2.3043e-05	2.4156e-05	907.28	195.04	2.3067e-05	2.3581e-05	477.23	186.21	88.289	39.315	2.3258e-05	100.43	475.024	320.447	151.711	151.738	278.303	268.254	151.705	157.317	264.035	348.097	156.853	160.742	159.901	164.860	315.040	164.059	-8191	255	
2039.381	1	1	0	0	0.036592	0.20438	0.12871	0.17957	0.25024	0.25395	0.025797	0.16156	0.10641	0.31627	0.10453	0.11553	0.12248	0.31979	0.30039	0.17993	-2.175	-2.9188	-2.6729	-2.9479	-2.8854	-2.7417	-2.8271	-2.8792	-2.8167	-3.0042	-2.5875	-2.9896	-3.1937	-2.8083	-2.9542	-2.9729	333.793	242.902	467.614	428.195	479.161	373.657	394.175	383.673	363.302	280.936	142.450	391.269	491.313	213.162	327.024	426.466	0.0022787	0.0017895	0.00029947	665.03	5.6133e-06	1.1041e-05	928.86	197.58	7.1388e-06	8.0633e-06	410.5	190.64	89.305	39.608	2.9557e-06	102.33	0.0020534	0.0021781	0.00061919	649.85	2.3154e-05	2.4051e-05	900.45	194.21	2.3302e-05	2.3741e-05	478.17	186.3	87.946	39.239	2.3873e-05	100.31	480.142	221.228	207.984	151.547	344.187	274.042	151.697	157.185	262.445	346.826	157.180	160.620	160.337	164.745	324.739	164.130	-8191	255	
2039.478	1	1	0	0	0.31295	0.059489	0.081014	0.24413	0.24433	0.13993	0.096449	0.22369	0.044901	0.043971	0.26761	0.29203	0.13309	0.042902	0.25547	0.25521	-2.1625	-2.7646	-2.75	-2.8875	-2.95	-2.6312	-3.1979	-3.0542	-2.8604	-3.1646	-2.7979	-3.0354	-3.1042	-2.6896	-2.9479	-2.9979	237.236	473.630	313.594	178.872	282.729	372.962	255.370	387.190	439.081	365.499	302.935	443.777	190.583	340.238	204.737	173.870	0.0020451	0.00074095	0.00032003	666.89	1.9434e-06	7.583e-07	929.91	197.57	3.1724e-06	4.207e-06	397.87	190.17	89.474	39.353	8.5052e-06	102.02	0.0021505	0.0022571	0.00064841	652.89	2.458e-05	2.5472e-05	902.83	194.1	2.4831e-05	2.5296e-05	480.59	185.68	87.898	38.994	2.5233e-05	99.881	475.076	229.158	275.841	151.655	305.442	144.044	151.913	157.099	453.998	287.683	156.463	160.645	160.163	164.912	273.482	164.226	-8191	255	
2039.572	1	1	0	0	0.082656	0.19398	0.065564	0.098789	0.15486	0.10889	0.14899	0.13538	0.1618	0.11542	0.14382	0.33772	0.077443	0.056533	0.069176	0.10267	-2.1083	-2.8396	-2.9021	-2.7687	-2.9083	-2.6667	-2.8812	-3.0208	-2.575	-3.0479	-2.7146	-2.9062	-3.0208	-2.8667	-2.7146	-2.9917	454.863	459.108	452.135	166.128	201.513	387.902	155.038	470.896	477.444	409.908	140.003	480.970	458.397	209.315	228.525	433.291	0.0022946	0.00081472	0.0001687	664.7	4.3279e-06	9.382e-06	933.27	196.79	7.3847e-06	2.1083e-06	409.27	190.48	89.816	39.79	1.1091e-05	102.65	0.0023049	0.0023882	0.00069859	656.25	2.6131e-05	2.7407e-05	907.37	194.29	2.5926e-05	2.6395e-05	488.43	186.65	88.424	39.318	2.5386e-05	100.85	477.428	205.530	218.143	151.803	337.255	264.344	151.912	157.061	229.451	261.265	156.912	160.727	160.419	164.825	297.295	164.022	-8191	255	
2039.668	1	1	0	0	0.22183	0.29498	0.18169	0.091292	0.11202	0.025337	0.031991	0.063956	0.21665	0.18343	0.060709	0.28093	0.2816	0.31786	0.094325	0.077877	-2.3563	-2.7062	-2.7729	-2.675	-2.8333	-2.8854	-2.7146	-3.0812	-2.5792	-3.1146	-2.9875	-2.9333	-2.8688	-2.8708	-2.5875	-3.1562	144.596	496.009	320.156	162.853	144.956	298.430	462.133	423.323	329.913	250.251	205.062	253.860	157.406	164.693	335.189	298.733	0.0022911	0.00061805	0.00011738	673.64	7.0031e-06	6.9951e-06	928.04	196.09	1.064e-05	8.9907e-06	408.7	189.19	87.394	38.95	6.3551e-06	100.63	0.0022439	0.002328	0.00066923	658.1	2.448e-05	2.5936e-05	902.68	193.17	2.5546e-05	2.6042e-05	483.96	184.17	86.576	38.541	2.6121e-05	98.707	478.815	244.845	166.752	151.701	295.759	314.247	151.751	157.187	270.704	268.236	156.431	160.478	160.206	165.036	263.108	164.183	-8191	255	
2039.789	1	1	0	0	0.17518	0.33631	0.16982	0.095135	0.27821	0.14411	0.1709	0.063353	0.099464	0.10651	0.20159	0.20529	0.23438	0.071299	0.15686	0.19616	-2.4771	-2.8729	-2.75	-2.6271	-2.8979	-2.7479	-2.7938	-3.0208	-2.625	-2.7938	-2.7854	-2.8042	-2.9146	-2.8854	-2.5917	-3.1937	423.754	191.349	262.256	430.764	382.280	337.904	468.547	467.095	141.144	342.487	259.563	481.700	156.395	464.654	489.415	460.852	0.0022764	0.00092327	0.00021967	662.37	1.8681e-05	9.1817e-06	926.34	196.55	1.2583e-05	7.8018e-06	403.53	188.38	88.521	39.311	9.686e-06	101.35	0.0023069	0.0023907	0.00067655	650.05	2.5049e-05	2.6412e-05	898.51	192.97	2.5701e-05	2.5945e-05	482.82	184.59	87.47	38.875	2.6052e-05	99.634	478.121	234.098	295.071	151.680	225.027	209.704	151.430	157.067	273.326	267.059	157.340	160.760	159.995	164.923	254.655	164.234	-8191	255	
2039.860	1	1	0	0	0.29632	0.11522	0.087731	0.26999	0.066206	0.071331	0.3004	0.20532	0.21882	0.10344	0.13273	0.40777	0.015056	0.017957	0.0442	0.22364	-2.3875	-2.8458	-2.825	-2.6854	-3.0146	-2.8042	-2.6792	-3.1104	-2.75	-2.5979	-2.9521	-2.7583	-2.8729	-3.0229	-2.6625	-3.0375	491.181	247.337	496.677	347.835	410.696	445.837	176.115	460.757	241.866	298.158	419.913	495.492	398.696	417.981	230.849	443.958	0.0023231	0.0011067	0.00014033	667.73	7.1596e-06	8.8763e-06	927.7	197.94	7.1425e-06	4.9381e-06	409.04	191.36	90.07	39.981	6.6258e-06	103.15	0.0022983	0.0024186	0.0006816	654.52	2.5075e-05	2.6706e-05	903.16	194.69	2.5337e-05	2.528e-05	483.01	186.82	88.603	39.551	2.4502e-05	101.28	477.672	247.165	364.413	151.561	220.469	291.602	151.904	157.231	222.274	270.582	156.599	160.673	160.272	164.694	305.114	163.907	-8191	255	
2039.957	1	1	0	0	0.039857	0.17606	0.18708	0.16343	0.11024	0.11644	0.30131	0.1002	0.057679	0.11423	0.14559	0.22653	0.10299	0.23558	0.24438	0.15346	-2.2042	-2.6896	-2.9792	-2.7896	-2.7938	-2.95	-2.8146	-2.9646	-2.7625	-2.7917	-2.9833	-2.7167	-2.8646	-3.0833	-2.3958	-3.0417	242.685	498.403	382.545	467.594	289.785	268.719	384.743	143.262	217.718	226.338	256.785	169.208	280.613	475.016	444.344	460.894	0.0022804	0.00075788	9.1493e-05	672.76	1.5809e-05	9.0358e-06	936.09	199.38	4.0545e-06	5.5795e-06	412.79	192.45	89.786	39.952	5.9752e-06	103.8	0.0021537	0.0022302	0.00062008	657.44	2.353e-05	2.5065e-05	911.2	195.65	2.4524e-05	2.5174e-05	484.29	187.98	88.342	39.62	2.5965e-05	101.61	474.090	243.851	216.068	151.553	246.888	280.278	151.615	157.128	255.424	298.745	156.637	160.727	160.012	164.920	241.276	164.279	-8191	255	
2040.053	1	1	0	0	0.21452	0.041459	0.053074	0.17902	0.2165	0.11625	0.22432	0.15572	0.084466	0.13517	0.20637	0.26927	0.2539	0.16443	0.14428	0.18095	-2.5687	-2.6979	-2.8958	-2.7896	-2.7667	-2.9167	-2.6604	-2.9104	-2.6583	-2.625	-2.9167	-2.9062	-2.8375	-3.1604	-2.7292	-3.1458	151.375	378.844	393.336	330.299	292.215	327.360	412.745	495.313	312.190	269.535	279.302	479.621	215.651	149.948	217.888	465.095	0.0022995	0.00029459	0.0003462	668.69	9.5867e-06	6.8349e-06	926.92	193.98	8.3341e-06	6.4652e-06	402.84	186.97	87.103	39.067	1.0076e-05	100.36	0.0022897	0.0024387	0.00068327	656.33	2.5947e-05	2.7622e-05	902.21	192.64	2.6967e-05	2.7819e-05	487.06	183.19	86.262	38.746	2.7504e-05	98.436	474.543	325.410	277.415	151.242	255.861	292.624	151.627	157.103	227.852	288.307	156.866	160.831	159.951	164.694	264.036	163.921	-8191	255	
2040.149	1	1	0	0	0.17947	0.22655	0.16874	0.3274	0.18133	0.05822	0.13778	0.19658	0.05479	0.28703	0.088265	0.25863	0.31121	0.3592	0.11552	0.55406	-2.4708	-2.5354	-2.9167	-2.8396	-2.7292	-3.0792	-2.8771	-2.725	-2.7938	-2.8021	-2.8688	-2.9333	-2.725	-3.0125	-2.6729	-3.25	222.028	243.480	329.364	395.966	446.446	401.560	459.746	438.651	200.649	145.704	394.986	448.918	398.407	470.302	450.534	442.962	0.0022044	0.00063518	0.00022461	655.95	7.557e-06	1.2807e-05	914.73	192.79	5.1094e-06	1.076e-05	401.77	184.88	86.165	38.508	1.1428e-05	100.06	0.0024242	0.0025957	0.00072693	647.27	2.8513e-05	3.0496e-05	893.99	190.96	3.0843e-05	3.1462e-05	505.3	181.78	86.286	38.505	3.2119e-05	98.117	476.324	376.832	194.027	151.479	241.739	248.827	151.497	157.375	309.206	285.914	155.979	160.755	160.231	165.166	274.665	164.254	-8191	255	
2040.270	1	1	0	0	0.16903	0.11908	0.17264	0.13184	0.35021	0.12012	0.4753	0.28893	0.0063007	0.19905	0.092708	0.3516	0.15357	0.13631	0.21697	0.13806	-2.3667	-2.7292	-3.1354	-2.9375	-2.825	-2.8958	-2.7562	-2.8354	-2.9542	-2.7042	-3.1729	-2.9667	-2.9313	-3.1333	-2.8438	-3.1813	263.862	308.411	457.912	414.964	332.544	236.223	410.872	421.733	345.286	232.475	479.350	437.181	392.088	437.421	368.429	490.841	0.0023776	0.0017472	0.00014548	656.23	7.6309e-06	6.0343e-07	916.5	193.43	8.8408e-06	7.9783e-06	407.03	186.86	87.815	39.308	9.8845e-06	101.52	0.002707	0.0029167	0.00081531	650.59	3.0294e-05	3.177e-05	895.59	191.7	3.0012e-05	3.0542e-05	497.33	183.56	87.18	39.098	2.8506e-05	99.882	476.274	220.776	222.254	151.463	265.192	331.920	151.756	157.079	289.970	314.169	157.273	160.613	160.221	164.856	239.643	164.275	-8191	255	
2040.366	1	1	0	0	0.31803	0.12246	0.24152	0.1146	0.23838	0.28761	0.1657	0.085583	0.1063	0.13532	0.071087	0.20835	0.1711	0.35747	0.19662	0.071006	-2.3521	-2.7604	-2.975	-2.8688	-2.6708	-3.0875	-2.8604	-2.8521	-2.9771	-2.8729	-3.0479	-3.1312	-2.8	-3.05	-2.8083	-2.7271	285.034	360.317	317.677	297.127	169.352	162.556	487.694	347.908	289.167	169.251	258.627	485.096	348.727	144.187	179.048	446.987	0.0021762	0.00044668	0.00034302	660.4	7.9218e-06	7.7363e-06	930.46	195.4	7.8363e-06	1.0694e-05	414.24	187.01	87.375	39.31	1.0215e-05	100.63	0.0024532	0.0025901	0.00070949	650	2.7326e-05	2.8413e-05	903.08	193.66	2.874e-05	2.9824e-05	501.5	184.14	86.954	39.084	3.1788e-05	99.224	474.098	438.450	213.610	151.417	288.666	300.014	151.643	156.923	231.660	270.993	156.887	160.847	159.907	165.002	325.718	164.124	-8191	255	
2040.462	1	1	0	0	0.10237	0.054491	0.11927	0.32176	0.14355	0.10854	0.18174	0.1783	0.30996	0.18879	0.12861	0.19949	0.2008	0.10011	0.12397	0.29041	-2.6125	-2.7229	-2.8708	-2.9562	-2.8333	-2.9292	-3.0417	-2.7583	-3.0833	-2.7458	-3.0646	-2.7271	-2.7854	-2.9583	-2.8896	-2.8667	330.372	305.192	473.098	491.051	496.407	499.059	482.976	415.878	209.479	209.012	341.475	497.306	293.400	481.113	149.575	434.557	0.0023416	0.00076412	0.00020973	657.61	1.7454e-05	6.8308e-06	905.85	190.38	1.0031e-05	6.411e-06	385.68	179.69	83.083	37.098	4.6368e-06	95.614	0.0027019	0.0029241	0.00081097	651.05	3.0508e-05	3.1929e-05	888.91	188.76	3.1836e-05	3.3532e-05	501.1	177.58	83.882	37.234	3.7399e-05	94.946	478.297	144.053	144.989	151.947	272.862	298.121	151.933	157.113	281.079	367.729	156.649	160.763	160.106	164.912	234.825	164.178	-8191	255	
2040.556	1	1	0	0	0.3844	0.28575	0.20137	0.18519	0.17056	0.26044	0.093829	0.076552	0.1417	0.15282	0.030136	0.23247	0.18912	0.1516	0.047404	0.27344	-2.5	-2.7354	-2.8604	-2.9146	-2.6937	-2.8667	-2.9437	-2.7229	-2.9625	-2.8312	-2.6229	-3.1083	-2.7375	-2.7021	-2.7167	-2.8167	405.815	178.432	491.588	489.300	327.939	380.184	317.862	345.437	144.479	427.401	330.240	421.323	497.778	170.114	348.012	462.217	0.0022282	0.00023435	9.7693e-05	662.41	1.6217e-05	3.5608e-06	903.75	185.81	1.4516e-05	9.392e-06	376.23	176.95	82.348	36.28	8.2953e-06	94.83	0.0033316	0.0038721	0.0011004	663.92	4.4878e-05	4.6755e-05	894.74	189.27	4.7469e-05	4.9969e-05	568.75	176.74	85.03	37.141	4.7436e-05	94.602	477.909	272.129	294.039	151.888	305.404	164.400	151.709	157.137	285.205	316.855	156.242	160.894	159.883	165.228	299.819	164.208	-8191	255	
2040.652	1	1	0	0	0.15303	0.22424	0.42462	0.31544	0.070568	0.144	0.30526	0.098795	0.22486	0.17463	0.013617	0.23002	0.23734	0.19163	0.15897	0.14262	-2.5479	-2.6604	-2.7271	-2.8146	-2.6792	-2.8875	-2.9792	-2.6854	-3.0333	-2.6562	-2.7667	-3.0917	-2.7583	-2.8375	-2.8438	-2.7833	349.789	381.097	269.225	368.537	473.477	160.911	490.446	452.746	471.835	421.206	156.315	489.986	220.581	158.978	446.732	417.137	0.0022241	0.00048519	0.0003015	656.59	5.3134e-06	3.9486e-06	908.17	189.11	1.9935e-06	7.043e-06	392.08	182.52	85.189	38.496	3.7309e-06	100.02	0.0036928	0.0041025	0.0011132	661.37	4.0404e-05	4.017e-05	891.71	189.55	3.5786e-05	3.6181e-05	513.67	179.99	85.276	38.253	3.1394e-05	98.306	480.098	239.657	213.846	151.696	217.068	204.416	151.745	157.142	308.960	332.625	157.336	160.603	160.450	164.739	231.845	164.088	-8191	255	
2040.749	1	1	0	0	0.1922	0.21021	0.1535	0.17349	0.044485	0.21702	0.18676	0.19256	0.11467	0.098992	0.15046	0.31849	0.070959	0.19511	0.21079	0.15971	-2.1146	-2.5938	-2.5979	-2.9729	-2.675	-2.8937	-2.8563	-2.8604	-3.0687	-2.7458	-2.6521	-3.0083	-2.7125	-2.8021	-2.7542	-2.8417	359.056	183.209	359.916	185.275	237.623	334.640	426.050	371.850	238.683	444.714	179.428	164.952	433.699	387.940	346.525	312.295	0.0020253	0.00061695	0.00027804	656.76	3.9775e-06	1.2538e-05	924.49	195.63	1.5287e-05	3.0448e-06	406.05	190.02	88.347	40.332	7.3756e-06	103.65	0.0025096	0.0027564	0.00074516	648.58	2.8079e-05	2.8371e-05	900.02	194.1	2.7778e-05	2.9393e-05	501.35	185.95	88.235	40.028	3.0451e-05	101.66	475.835	205.123	173.420	151.408	316.476	235.047	151.636	157.014	257.203	411.989	157.741	160.809	160.064	164.888	241.530	163.952	-8191	255	
2040.869	1	1	0	0	0.099174	0.18349	0.17243	0.060403	0.038788	0.16174	0.11684	0.072947	0.15501	0.11253	0.21537	0.15157	0.14421	0.14156	0.063055	0.31283	-2.5292	-2.725	-2.5646	-2.9771	-2.6396	-2.7354	-3.0687	-2.7125	-2.8979	-2.8833	-2.825	-3.1146	-2.8187	-2.8667	-3.0104	-2.7708	389.236	302.492	148.773	376.159	174.498	455.065	397.371	380.613	464.908	313.598	314.746	159.887	185.802	403.041	299.130	477.952	0.0024982	0.0015113	0.00019174	662.64	4.778e-06	7.3652e-06	928.11	199.14	9.9457e-06	1.3329e-05	409.9	189.24	89.289	40.471	9.443e-06	102.95	0.0025485	0.002799	0.00076768	654.39	2.8962e-05	2.9382e-05	907.87	197.22	2.8425e-05	3.0161e-05	504.73	185.82	88.725	40.184	2.9712e-05	101.05	475.555	235.361	433.742	151.595	164.424	319.234	151.723	157.337	251.661	278.160	157.891	160.648	160.479	164.737	479.343	163.978	-8191	255	
2040.965	1	1	0	0	0.15571	0.23599	0.11621	0.042378	0.15053	0.20289	0.10261	0.26005	0.28403	0.28685	0.15654	0.22062	0.11584	0.13452	0.12789	0.26999	-2.3521	-2.9042	-2.7062	-3.0604	-2.7562	-2.8354	-3.3333	-2.8396	-2.8646	-2.8458	-2.6896	-3.05	-2.825	-2.7833	-2.8646	-2.8979	331.317	253.716	261.864	486.130	388.643	376.019	475.660	471.210	496.469	365.681	490.224	277.414	452.270	440.751	257.547	406.838	0.0021444	0.00019586	0.00026527	662.68	1.827e-06	7.1001e-06	931.29	199.15	1.0303e-05	1.3532e-05	409.62	188.51	89.783	40.247	3.145e-06	102.52	0.0025146	0.0027459	0.00075468	653.45	2.8898e-05	2.9839e-05	908.41	197.73	2.9238e-05	3.1367e-05	511.68	185.93	89.322	40.312	3.372e-05	101.08	475.967	300.805	265.498	151.774	377.374	270.219	151.654	157.230	326.416	266.978	156.659	160.945	160.436	164.489	250.288	164.088	-8191	255	
2041.061	1	1	0	0	0.021673	0.19209	0.28863	0.10587	0.19786	0.13095	0.32643	0.23197	0.1796	0.26425	0.17019	0.27122	0.12017	0.21424	0.13194	0.32422	-2.3604	-2.8083	-2.55	-3.1771	-2.7771	-2.7125	-3.0167	-2.6521	-2.7646	-2.8396	-2.85	-3.0896	-2.75	-2.7833	-2.9229	-2.9458	313.135	394.989	471.938	430.575	246.149	172.268	388.098	386.667	348.108	326.249	300.303	465.358	405.729	484.393	457.311	437.612	0.002147	0.00090475	9.583e-05	670.63	1.496e-05	3.4036e-06	930.89	200.69	5.4108e-06	4.603e-06	407.41	187.19	89.011	39.974	9.4631e-06	100.89	0.0029549	0.0033842	0.00096458	669.61	3.7698e-05	3.9462e-05	918.59	201.08	3.8113e-05	4.0502e-05	552.95	185.46	89.921	40.266	3.9556e-05	100.07	481.468	170.736	154.741	151.588	267.301	481.922	151.807	157.124	340.595	276.046	156.794	160.714	160.184	164.891	209.325	164.107	-8191	255	
2041.158	1	1	0	0	0.12843	0.10897	0.24811	0.092158	0.19179	0.080127	0.15284	0.38758	0.26576	0.19444	0.29878	0.13047	0.23987	0.076346	0.26644	0.54083	-2.4396	-3.0792	-2.5542	-2.8896	-2.8354	-2.8646	-3.1521	-2.7708	-2.8167	-3.0979	-2.5646	-3.1188	-2.8292	-2.6542	-2.8792	-2.8271	321.207	374.012	292.350	490.756	373.913	389.892	400.159	445.022	284.417	420.988	334.458	480.202	443.726	445.210	472.671	465.477	0.0021004	0.00089186	0.00039759	668.94	6.7541e-06	5.2692e-06	935.97	200.18	8.4572e-06	7.3412e-06	414.85	188.78	89.938	40.523	3.0584e-06	102.58	0.0033238	0.0037882	0.00106	670.89	3.9896e-05	4.1535e-05	920.45	201.46	3.9003e-05	4.016e-05	549.63	186.59	90.412	40.617	3.3919e-05	101.67	474.789	228.069	227.529	151.574	295.267	259.851	151.867	157.499	285.179	363.720	156.609	160.750	160.180	164.883	360.913	164.188	-8191	255	
2041.254	1	1	0	0	0.18926	0.21022	0.10013	0.36286	0.23099	0.18796	0.097832	0.42378	0.10068	0.18008	0.037072	0.1474	0.10867	0.11393	0.058689	0.15369	-2.3354	-2.75	-2.5708	-2.6896	-2.825	-2.5875	-2.8604	-2.7729	-2.7083	-3.0625	-2.6	-3.0167	-2.9875	-2.8896	-2.9292	-3.0229	369.159	150.671	317.058	472.243	173.488	438.093	429.223	395.560	378.764	308.395	488.755	461.824	145.783	404.411	264.835	423.541	0.0023393	0.0013746	0.00025098	676.28	9.152e-06	9.0149e-06	948.18	206.65	1.2792e-05	2.8254e-06	421.45	196.67	94.454	42.627	4.1662e-06	107.34	0.0026895	0.0028507	0.00077238	662.55	2.7281e-05	2.6933e-05	920.88	202.82	2.3719e-05	2.3962e-05	485.41	191.35	92.098	41.962	2.0637e-05	104.92	478.797	212.365	239.122	151.838	292.939	302.018	151.826	156.976	286.811	187.123	157.575	160.693	159.759	164.606	325.088	164.051	-8191	255	
2041.350	1	1	0	0	0.20395	0.090419	0.25878	0.19959	0.045106	0.22007	0.14082	0.098012	0.23902	0.16452	0.042768	0.30107	0.18048	0.098977	0.3	0.34419	-2.0583	-2.8563	-2.7438	-2.8146	-3.0333	-2.5854	-3.1042	-2.7979	-2.6979	-2.8271	-2.8229	-2.7854	-3.0187	-2.5563	-2.9646	-2.8979	485.923	349.392	378.877	275.874	439.029	497.471	358.439	419.032	274.479	266.140	382.926	469.073	454.435	452.528	341.878	476.768	0.0023798	0.0012079	0.00037915	684.21	9.1998e-06	4.1809e-06	960.65	212.92	1.0415e-05	7.8311e-06	432.82	203	97.198	44.004	5.3843e-06	109.59	0.0018204	0.0018503	0.00050345	661.59	1.8844e-05	1.9108e-05	926.34	206.87	1.8261e-05	1.8478e-05	475.19	196.52	94.346	43.159	1.8269e-05	106.83	476.977	245.289	289.940	151.510	271.784	247.611	151.798	157.273	266.974	334.691	156.234	160.560	159.756	164.762	312.848	163.768	-8191	255	
2041.446	1	1	0	0	0.28145	0.14621	0.15023	0.2049	0.19252	0.21832	0.38343	0.18868	0.20762	0.23787	0.1283	0.26147	0.25477	0.20229	0.18178	0.031891	-2.0354	-2.9292	-2.6146	-2.7313	-2.925	-2.6312	-2.9771	-3.0417	-2.5312	-2.9292	-2.8646	-2.8958	-2.9188	-2.8688	-2.8042	-3.0792	302.970	142.831	158.766	143.421	355.047	444.688	414.500	302.130	305.509	424.096	184.478	428.317	158.020	456.837	239.678	180.171	0.0024267	0.00032866	3.9549e-05	688.61	6.2077e-06	2.1823e-06	961.46	213.05	6.6277e-06	3.6907e-06	427.7	197.31	93.889	42.796	6.6714e-06	106.5	0.0017735	0.0018282	0.00051554	669.49	2.0459e-05	2.1958e-05	931.56	207.19	2.2701e-05	2.347e-05	493.72	192.67	92.757	42.213	2.5422e-05	104.39	476.594	275.655	218.633	151.659	253.552	325.170	151.738	157.150	245.203	310.732	156.549	160.921	159.871	164.800	273.551	164.052	-8191	255	
2041.565	1	1	0	0	0.12348	0.30827	0.19892	0.1394	0.14675	0.07191	0.17435	0.26213	0.29313	0.032247	0.12226	0.068293	0.064512	0.25339	0.07663	0.29175	-2.1937	-2.8042	-2.5625	-2.7687	-2.8646	-2.5854	-2.9521	-2.8187	-2.7562	-2.9375	-2.8354	-2.8583	-2.7229	-2.8104	-2.6792	-3.1667	306.801	190.301	203.145	490.305	228.933	312.043	444.741	491.434	430.651	183.162	224.057	154.679	203.717	490.942	272.318	406.614	0.0023672	0.00073432	0.00030469	678.02	1.0372e-05	7.0161e-06	953.12	207.9	7.4598e-06	2.5062e-06	419.53	192.61	91.732	41.466	1.3763e-05	104.41	0.0024031	0.0025406	0.00074933	671.5	2.9517e-05	3.13e-05	927.31	205.29	3.1839e-05	3.3405e-05	527.3	189.34	91.799	41.471	3.407e-05	102.92	477.670	260.487	218.131	151.919	275.012	270.946	151.486	157.460	253.475	217.061	156.775	160.705	160.070	164.953	259.415	164.128	-8191	255	
2041.661	1	1	0	0	0.23324	0.061258	0.24708	0.15257	0.18366	0.12561	0.1957	0.28838	0.10971	0.23497	0.085913	0.35018	0.048548	0.11493	0.14274	0.35425	-2.1333	-2.7604	-2.6729	-2.8563	-2.8812	-2.7021	-2.9875	-2.975	-2.6042	-2.9	-2.9292	-3.025	-2.9125	-2.5271	-2.6458	-3.0938	439.763	429.610	425.518	453.192	340.540	179.415	463.760	454.506	184.485	389.357	177.690	455.229	168.139	427.957	333.077	449.938	0.0023263	0.0013397	0.00024855	675.42	9.6793e-06	3.8657e-06	934.67	203.87	1.0871e-05	1.0138e-05	415.76	189.77	90.237	40.858	1.5313e-05	103.17	0.0029034	0.0031792	0.00090555	669.69	3.4353e-05	3.611e-05	919.08	202.39	3.3776e-05	3.4915e-05	533.24	186.3	89.845	40.68	3.2198e-05	101.18	478.293	196.359	242.018	151.864	327.911	479.577	151.710	157.409	231.615	494.855	157.245	161.114	160.010	164.577	268.596	164.039	-8191	255	
2041.733	1	1	0	0	0.046436	0.18517	0.12799	0.14524	0.048805	0.1951	0.10566	0.10007	0.13336	0.43662	0.13194	0.19946	0.22591	0.1357	0.24383	0.24251	-2.3083	-2.8438	-2.9125	-2.5875	-2.8042	-2.8812	-2.7771	-2.8312	-2.6625	-2.8667	-2.7167	-2.6688	-3.1	-2.7417	-2.6479	-3.2313	477.365	308.578	362.628	203.983	462.188	196.121	452.727	433.045	340.944	477.125	457.833	408.152	237.379	448.469	407.543	413.027	0.0021925	0.00058306	0.00028526	664.46	1.4388e-05	3.7625e-06	938.67	204.59	1.6445e-05	1.3414e-05	418.69	193.43	93.356	42.261	7.6555e-06	105.8	0.0026616	0.0027993	0.00078847	658.45	2.8048e-05	2.9176e-05	910.8	202.06	2.6627e-05	2.6685e-05	498.37	189.69	91.526	41.702	2.5252e-05	103.75	475.815	219.159	272.917	151.524	344.266	287.395	151.852	157.010	290.912	327.467	155.832	160.734	160.264	164.868	286.849	164.068	-8191	255	
2041.829	1	1	0	0	0.067664	0.28982	0.090631	0.062482	0.12507	0.13272	0.16278	0.20122	0.16532	0.17196	0.076446	0.23081	0.075493	0.38139	0.18682	0.34836	-2.1125	-2.6688	-2.9333	-2.6458	-2.8688	-2.7958	-2.8958	-3.0583	-2.7771	-2.8271	-2.8708	-2.7521	-2.8958	-2.7938	-2.6188	-3.1854	397.878	465.310	355.847	430.819	154.326	375.197	400.350	410.207	293.093	197.100	340.720	487.175	318.712	469.605	203.494	411.090	0.0023823	0.00047002	0.00024379	674.17	7.5013e-06	1.1185e-05	950.8	209.8	7.4992e-06	9.0878e-06	429.29	198.13	95.012	43.111	7.1139e-06	107.64	0.0022425	0.0023251	0.00067001	661.85	2.4946e-05	2.6293e-05	922.75	205.42	2.5291e-05	2.5716e-05	501.06	192.8	93.471	42.599	2.4809e-05	105.51	479.076	245.774	287.807	151.809	317.665	328.378	151.804	157.250	256.887	310.162	156.608	160.818	159.825	164.641	255.714	163.858	-8191	255	
2041.950	1	1	0	0	0.06571	0.17263	0.088637	0.40053	0.1272	0.086229	0.094888	0.11036	0.11915	0.068954	0.072636	0.41151	0.16891	0.12373	0.078527	0.089328	-2.3396	-2.7271	-2.85	-2.675	-2.9479	-2.8063	-2.6917	-3.0062	-2.6063	-2.8375	-2.8833	-2.8187	-2.95	-2.9729	-2.6104	-3.075	249.443	156.104	272.505	463.914	360.302	270.044	401.486	459.530	466.657	438.319	239.759	494.866	476.123	250.234	464.645	459.263	0.0023855	0.00085881	5.0923e-05	688.74	6.1803e-06	6.1647e-06	965.48	217.47	8.0593e-06	8.7337e-06	437.92	204.68	100.13	45.62	3.0583e-06	111.84	0.002168	0.0021848	0.00061863	674.27	2.2589e-05	2.3124e-05	940.59	212.22	2.2353e-05	2.2784e-05	496.79	199.21	97.489	44.697	2.2243e-05	109.25	479.712	211.573	242.428	151.525	272.259	249.449	151.755	157.069	244.858	249.657	156.228	160.719	160.260	164.645	190.699	164.027	-8191	255	
2042.046	1	1	0	0	0.11944	0.17787	0.39398	0.23581	0.088081	0.085113	0.020669	0.15019	0.15845	0.27983	0.036757	0.23631	0.10441	0.06387	0.1275	0.15285	-2.1042	-2.5479	-2.7667	-2.6125	-3.0292	-2.8208	-2.6188	-2.9521	-2.7604	-2.675	-2.9354	-2.8083	-2.7562	-2.9083	-2.7458	-3.0271	265.014	443.462	497.912	176.330	370.238	329.236	420.271	214.546	149.948	255.336	331.839	150.308	252.084	219.539	369.260	406.973	0.0025213	0.00079804	0.00022494	708.04	1.1087e-05	1.0128e-05	983.75	222.39	9.0242e-06	8.6965e-06	435.8	203.99	100.12	45.29	8.2987e-06	109.65	0.001998	0.0020321	0.00057345	692.8	2.1566e-05	2.2361e-05	956.82	216.54	2.1572e-05	2.2493e-05	495.82	199.14	97.942	44.473	2.2603e-05	107.39	476.969	201.568	298.068	151.736	257.685	241.113	151.860	157.466	271.469	310.379	157.326	160.699	160.207	164.666	189.236	163.960	-8191	255	
2042.142	1	1	0	0	0.25754	0.151	0.082975	0.26685	0.060424	0.12989	0.10683	0.11655	0.19325	0.091208	0.047509	0.090733	0.11369	0.20525	0.24602	0.19876	-2.3333	-2.5062	-2.8771	-2.65	-2.8583	-2.9938	-2.7938	-2.9562	-2.7938	-2.6521	-2.9375	-2.7833	-2.925	-2.8708	-2.4083	-2.8875	436.023	197.131	199.851	462.961	393.563	279.954	444.287	465.250	218.668	349.906	497.880	417.323	212.832	427.875	157.908	405.996	0.0024723	0.0014721	0.0001861	696.18	4.2613e-06	1.1438e-05	966.54	217.62	6.4355e-06	8.3529e-06	440.01	202.68	100.32	45.063	9.3137e-06	110.36	0.0020648	0.0021355	0.00059081	682.41	2.2164e-05	2.3618e-05	937.54	213.09	2.2542e-05	2.3343e-05	497.02	197.73	97.363	44.244	2.2254e-05	107.64	479.344	245.757	199.003	151.857	219.706	322.533	151.710	157.341	270.288	322.729	157.435	160.529	159.920	164.601	290.515	163.620	-8191	255	
2042.261	1	1	0	0	0.10099	0.23423	0.16993	0.080016	0.15452	0.21903	0.145	0.071284	0.15	0.10221	0.18957	0.25567	0.20927	0.11049	0.08735	0.20486	-2.3521	-2.5875	-2.9792	-2.9104	-2.6229	-2.9437	-2.9437	-2.9896	-2.8729	-2.7021	-2.9604	-2.9542	-2.6729	-3.1208	-2.7729	-2.9271	276.781	310.122	141.215	246.191	467.939	215.826	486.215	317.428	190.488	350.541	338.005	459.396	194.949	160.891	222.706	467.258	0.0022905	0.0013342	0.00028899	702.69	3.8191e-06	6.9397e-06	975.21	222.72	4.5556e-06	1.0056e-05	435.72	208.47	102.72	46.5	9.7305e-06	113.82	0.0019489	0.0019587	0.00053619	681.79	1.9789e-05	2.0696e-05	945.09	215.7	1.8979e-05	1.9377e-05	481.21	202.58	99.753	45.603	1.8052e-05	110.97	473.747	216.078	146.641	151.597	281.272	348.781	151.670	157.095	368.347	258.690	156.262	160.681	159.751	164.639	290.978	163.845	-8191	255	
2042.334	1	1	0	0	0.074597	0.18956	0.038362	0.1324	0.19263	0.23927	0.15473	0.25173	0.25831	0.12577	0.35622	0.56425	0.089312	0.14999	0.15185	0.23933	-2.4583	-2.5646	-2.8625	-2.7167	-2.5875	-2.9625	-2.8021	-2.8854	-2.9083	-2.5667	-2.7396	-2.9938	-2.7375	-2.8021	-2.8521	-3.0312	265.470	351.240	350.433	155.526	244.067	496.857	147.133	428.727	393.289	184.108	268.034	429.968	358.465	413.334	250.159	474.360	0.0025811	0.0013433	0.0002084	719.96	4.6052e-06	6.002e-06	1001.1	226.32	9.7084e-06	8.9635e-06	444.67	211.75	104.9	46.924	3.1443e-06	114.87	0.0016858	0.0016276	0.0004418	695.64	1.7231e-05	1.7888e-05	964.94	218.55	1.817e-05	1.8516e-05	485.3	205.59	101.26	45.922	1.8795e-05	111.62	474.842	210.366	278.957	151.610	247.772	327.525	151.576	157.126	238.805	263.160	156.798	160.386	159.794	164.888	326.985	163.800	-8191	255	
2042.430	1	1	0	0	0.13897	0.011455	0.077172	0.13962	0.15624	0.13782	0.1664	0.23261	0.19873	0.25449	0.30743	0.18825	0.28972	0.08837	0.15958	0.36041	-2.3937	-2.6396	-2.8333	-2.9417	-2.7729	-2.9625	-2.8979	-2.7687	-2.9458	-2.7417	-2.7854	-3.1854	-2.7146	-3.1375	-2.6312	-2.8688	339.511	362.827	328.417	386.930	292.860	464.260	372.367	177.393	336.950	235.784	333.858	169.097	454.468	487.453	350.993	435.047	0.0025952	0.0010868	0.00014544	717.94	1.6172e-05	5.4699e-06	995.75	224.3	7.3807e-06	1.2585e-05	448.19	211.03	103.29	46.77	9.6214e-06	113.99	0.0017434	0.0016931	0.00046874	697.8	1.784e-05	1.8108e-05	966.05	217.31	1.7443e-05	1.7906e-05	480.8	204.96	100.2	45.674	1.7136e-05	111.13	477.316	230.825	298.749	151.980	258.263	226.279	151.941	157.043	253.678	309.969	155.901	160.562	159.937	164.238	291.057	163.939	-8191	255	
2042.549	1	1	0	0	0.15058	0.078148	0.13498	0.13144	0.22158	0.049833	0.14685	0.15668	0.13476	0.1687	0.22331	0.61608	0.11581	0.1248	0.12407	0.2011	-2.6479	-2.6021	-2.9313	-3.0083	-2.6813	-2.8583	-3.0146	-2.9062	-2.8812	-2.7375	-2.7875	-2.925	-2.7792	-3.0646	-2.6146	-2.7917	199.845	195.200	282.917	379.488	311.256	363.064	418.434	469.810	439.593	173.735	143.643	477.771	156.737	170.422	435.020	368.564	0.0025501	0.00073872	0.00024356	713.31	9.9118e-06	4.7939e-06	990.15	222.97	1.0867e-05	2.4391e-06	446.57	213.31	105.25	47.947	5.8864e-06	116.14	0.0015978	0.0015245	0.00042417	690.52	1.6053e-05	1.6278e-05	956.34	215.72	1.5727e-05	1.5897e-05	469.21	206.67	101.62	46.401	1.4782e-05	113.17	478.985	227.321	221.894	151.507	299.144	350.811	151.766	157.327	226.160	213.885	157.300	160.497	159.795	164.307	289.818	163.692	-8191	255	
2042.645	1	1	0	0	0.15746	0.11987	0.21301	0.18501	0.059653	0.11089	0.085559	0.28294	0.083498	0.15764	0.14848	0.26116	0.26461	0.3406	0.217	0.14194	-2.5458	-2.5479	-2.6604	-2.9833	-2.6833	-2.8187	-2.9	-2.8812	-2.8833	-2.825	-2.7687	-3.1625	-2.7313	-2.825	-2.8146	-2.9646	360.213	301.032	415.819	291.966	442.682	295.742	476.983	463.730	266.609	319.412	487.700	481.430	435.432	186.623	154.370	410.981	0.0024326	0.0005724	0.00020278	733.35	9.0921e-06	5.1434e-06	1018.2	230.94	1.0443e-05	1.0308e-05	460.89	221.19	109.26	49.018	1.2899e-05	119.35	0.0014187	0.0013599	0.00037029	705.48	1.4265e-05	1.396e-05	978.43	222.01	1.3832e-05	1.39e-05	472.56	213.61	104.99	47.711	1.384e-05	115.71	480.283	246.707	234.069	151.925	281.182	224.485	151.830	157.039	217.242	307.626	158.408	160.577	159.648	164.511	232.321	163.535	-8191	255	
2042.741	1	1	0	0	0.059354	0.25183	0.11419	0.21884	0.12816	0.30011	0.19952	0.19962	0.15323	0.2615	0.12626	0.071134	0.10938	0.19147	0.1055	0.39595	-2.3979	-2.6562	-2.6813	-3.0833	-2.6396	-2.9229	-2.9688	-2.7521	-2.8688	-2.7354	-2.7208	-3.1188	-2.7	-2.7313	-2.9104	-2.8271	297.070	439.602	234.029	450.563	456.143	269.324	409.137	396.454	422.325	342.622	290.893	460.148	177.282	462.473	360.334	439.074	0.002565	0.0013395	0.00027739	739.65	6.134e-06	1.0485e-05	1026.5	232.45	1.0681e-05	9.1642e-06	465.01	220.6	108.98	49.219	1.0082e-05	119.38	0.0013605	0.0013001	0.00036044	712.57	1.4256e-05	1.4493e-05	987.57	224.35	1.4315e-05	1.4914e-05	481.94	213.92	105.45	47.944	1.5346e-05	116.03	478.161	211.735	215.669	151.882	251.447	297.344	151.856	157.103	265.030	271.525	156.003	160.637	159.406	164.567	320.461	163.785	-8191	255	
2042.862	1	1	0	0	0.11496	0.13165	0.27478	0.11002	0.25947	0.27317	0.38182	0.30676	0.19769	0.13784	0.13717	0.27196	0.26605	0.23377	0.13495	0.31635	-2.4917	-2.6042	-2.5729	-3.0312	-2.6604	-2.6708	-3.0375	-2.8792	-2.8708	-2.9667	-2.6083	-3.1312	-2.7521	-2.8312	-2.875	-2.8417	383.729	447.427	233.591	461.437	348.486	222.067	444.187	445.186	411.675	158.728	494.733	486.867	496.103	449.886	453.842	425.986	0.0026341	0.0010953	0.00024314	734.6	5.3636e-06	7.9359e-06	1019.3	228.69	1.2184e-05	4.9741e-06	449.43	216.71	106.32	47.859	1.0528e-05	115.74	0.0015213	0.0014577	0.00041348	710.36	1.6134e-05	1.6392e-05	982.29	221.1	1.5773e-05	1.6914e-05	480.61	209.57	102.74	46.712	1.6472e-05	112.96	476.128	206.715	268.746	151.572	283.833	293.166	152.080	157.102	249.835	292.061	157.322	160.473	159.895	164.470	277.659	163.682	-8191	255	
2042.958	1	1	0	0	0.33772	0.032667	0.15467	0.062388	0.03368	0.20622	0.22359	0.12103	0.089177	0.29414	0.19701	0.12722	0.094839	0.16352	0.21234	0.30816	-2.5042	-2.7708	-2.6354	-3.0833	-2.6604	-2.6708	-3.0646	-2.775	-2.7917	-2.7083	-2.65	-3.0125	-2.8667	-2.8312	-2.875	-2.7938	422.101	483.939	317.479	225.195	202.772	419.903	435.496	272.355	352.614	411.872	408.620	487.531	311.922	417.480	398.375	405.159	0.0024862	0.0010573	0.00024657	717.44	9.0684e-06	5.6964e-06	993.4	222.07	3.2691e-06	5.4455e-06	447.32	209.41	103.22	46.712	7.1931e-06	114.38	0.0015809	0.0015657	0.00043988	693.31	1.6923e-05	1.7774e-05	955.52	214.34	1.6962e-05	1.7927e-05	477.74	203.86	99.701	45.624	1.7682e-05	111.33	478.227	195.843	272.052	151.979	286.541	294.772	151.772	157.193	317.746	241.350	156.115	160.482	159.977	164.505	301.308	163.829	-8191	255	
2043.030	1	1	0	0	0.20899	0.15133	0.060453	0.087314	0.050391	0.26302	0.14525	0.25527	0.039492	0.26712	0.13652	0.33367	0.17231	0.096547	0.12501	0.26495	-2.4104	-2.8208	-2.6813	-3.0375	-2.7333	-2.6875	-3.1896	-2.7083	-2.8667	-2.8417	-2.5792	-2.9958	-2.7958	-2.8021	-2.9813	-3.05	215.723	177.322	493.532	445.440	254.874	171.452	402.059	413.235	348.952	360.433	430.468	417.591	308.022	342.837	225.783	476.415	0.0026874	0.00087927	0.00034251	710.25	1.2481e-05	5.3328e-06	994.47	221.97	1.6461e-05	5.0991e-06	435.71	212.24	104.27	47.271	8.9207e-06	115.75	0.0016525	0.0016315	0.00045728	688.08	1.7239e-05	1.8008e-05	958.74	214.87	1.709e-05	1.7891e-05	476.57	205.79	100.77	46.212	1.7311e-05	112.83	479.909	213.674	221.921	152.017	309.199	281.593	151.726	157.080	278.310	344.045	156.601	160.490	159.922	164.676	250.946	163.801	-8191	255	
2043.126	1	1	0	0	0.074085	0.23281	0.20576	0.1905	0.058436	0.11656	0.2843	0.1213	0.10427	0.14326	0.30842	0.32915	0.28421	0.14682	0.33602	0.10579	-2.3167	-2.9313	-2.5375	-2.9542	-2.9104	-2.5896	-3.0708	-2.8229	-2.8167	-3.0146	-2.5792	-2.9458	-2.7167	-2.5292	-2.8646	-2.9542	401.162	321.857	227.174	294.084	162.272	496.314	383.668	215.620	327.512	235.066	295.196	476.861	410.802	384.762	356.727	473.790	0.0024581	0.00067152	0.00020229	717.48	1.0007e-05	1.5247e-05	1005.5	224.58	1.0123e-05	9.6323e-06	466.26	219.34	108.14	49.057	1.5088e-05	120.51	0.0016273	0.0015756	0.00044828	694.3	1.6425e-05	1.6468e-05	966.76	218.07	1.5045e-05	1.5756e-05	480.44	212.4	104.29	47.886	1.4778e-05	117.04	475.561	247.157	241.352	152.230	274.551	287.865	151.874	157.152	292.548	282.278	157.447	160.669	159.807	164.429	257.796	163.834	-8191	255	
2043.247	1	1	0	0	0.26821	0.35425	0.052731	0.18822	0.13455	0.26897	0.27956	0.31415	0.3646	0.12919	0.19635	0.081406	0.093244	0.19955	0.22796	0.27184	-2.2729	-2.8167	-2.7	-2.7646	-2.7729	-2.6292	-3.0354	-2.8	-2.7979	-2.9708	-2.7792	-2.8708	-2.9562	-2.9521	-2.9437	-2.7146	249.733	279.752	396.993	469.340	472.880	313.321	438.334	439.383	189.749	210.978	412.134	437.337	174.713	143.291	454.774	442.497	0.0027369	0.0014754	0.00012112	732.87	1.0633e-05	1.4861e-05	1026.4	232.01	7.4172e-06	3.1319e-06	461.46	225.49	111.7	50.422	1.2797e-05	121.25	0.0014389	0.0013229	0.00037136	706.63	1.3769e-05	1.4258e-05	986.03	223.57	1.3332e-05	1.3841e-05	475.67	218.15	107.01	48.852	1.3271e-05	117.48	475.643	239.077	274.361	151.905	251.155	281.751	151.965	157.271	218.711	149.432	157.422	160.660	159.474	164.371	314.147	163.962	-8191	255	
2043.343	1	1	0	0	0.25355	0.27968	0.16353	0.13185	0.18859	0.18694	0.21801	0.45906	0.20901	0.12995	0.087118	0.15757	0.19285	0.37416	0.14847	0.42362	-2.2146	-2.8625	-2.5854	-2.8708	-2.8708	-2.6729	-2.9771	-2.8208	-2.4958	-2.8396	-2.7792	-2.9562	-2.8125	-2.8917	-2.9021	-3.1	218.488	431.865	231.834	447.924	498.784	258.187	429.885	471.921	154.544	266.218	388.982	419.111	145.683	462.804	171.710	444.418	0.0027215	0.0011448	9.2315e-05	731.42	1.185e-05	9.4045e-06	1020.4	229.97	4.7064e-06	5.7864e-06	457.55	223.46	111.4	49.766	1.0661e-05	120.49	0.0013374	0.0012168	0.00033838	705.02	1.3082e-05	1.3697e-05	979.55	221.7	1.3256e-05	1.3589e-05	474.44	216.43	106.8	48.361	1.4192e-05	116.9	477.595	241.571	253.650	151.907	243.715	290.630	151.839	157.266	280.847	332.601	156.304	160.592	159.733	164.944	245.217	163.784	-8191	255	
2043.437	1	1	0	0	0.043438	0.1329	0.13563	0.22982	0.15782	0.21001	0.34287	0.26792	0.17789	0.16645	0.21806	0.17133	0.1794	0.15442	0.27714	0.52023	-2.0979	-2.8771	-2.6833	-2.9271	-2.8458	-2.5625	-2.9292	-3.0062	-2.5958	-3.0542	-2.7146	-2.9	-2.9146	-2.9229	-2.8042	-3.2396	351.647	140.662	377.171	476.147	259.910	349.489	426.737	421.154	311.845	407.923	424.629	489.075	492.585	161.040	142.859	445.532	0.00264	0.00065973	0.000202	724.2	7.798e-06	3.7044e-06	1011.2	227.43	1.1855e-05	4.871e-06	459.26	220.16	109.63	49.543	1.1315e-05	120.04	0.0014723	0.0013502	0.00038957	702.71	1.5011e-05	1.597e-05	974.19	220	1.5627e-05	1.5887e-05	486.31	213.94	105.3	48.111	1.5732e-05	116.57	474.748	178.845	239.843	152.069	314.629	234.338	151.884	157.061	270.497	280.105	157.410	160.680	159.704	164.716	290.728	163.886	-8191	255	
2043.558	1	1	0	0	0.11388	0.05354	0.21488	0.33752	0.014108	0.19697	0.14821	0.086253	0.2931	0.047018	0.066634	0.36155	0.25119	0.33784	0.24548	0.12161	-2.1354	-2.9625	-2.7167	-2.7625	-2.95	-2.6729	-3.0938	-2.9	-2.6604	-3.0563	-2.8792	-2.9313	-3.0125	-2.875	-2.8708	-3.2188	192.287	342.965	380.280	429.307	424.344	309.083	467.458	148.642	442.035	390.005	397.553	470.066	437.407	483.018	139.300	466.953	0.0026994	0.0005248	0.00014031	729.43	5.1155e-06	2.2431e-06	1019.3	229.2	7.1838e-06	6.9834e-06	465.86	225.95	111.79	50.188	6.6786e-06	122.37	0.0015529	0.0014363	0.00040182	704	1.5101e-05	1.5855e-05	979.15	221.34	1.5072e-05	1.4766e-05	484.54	218.19	107.66	48.921	1.4494e-05	118.98	477.722	283.329	205.284	151.659	290.644	255.943	151.876	157.060	243.993	264.956	157.716	160.640	160.066	164.436	273.041	163.945	-8191	255	
2043.630	1	1	0	0	0.15871	0.050918	0.19504	0.23282	0.2031	0.17987	0.11728	0.2057	0.13398	0.25501	0.073099	0.14323	0.11634	0.18453	0.042395	0.19314	-2.4042	-2.8333	-2.8958	-2.6333	-2.9604	-2.6813	-2.95	-2.8708	-2.7583	-3.1229	-2.65	-2.8229	-2.9854	-2.7771	-2.575	-3.0625	317.923	488.817	378.354	164.688	482.993	189.682	439.770	363.782	235.473	148.455	152.249	497.959	243.308	397.301	486.161	445.965	0.002781	0.00047989	0.00023837	738.47	7.2743e-06	5.1319e-06	1025.3	233.56	9.2639e-06	8.8992e-06	461.9	229.49	113.91	50.624	1.2167e-05	122.12	0.0014746	0.0013364	0.00038058	712.36	1.422e-05	1.4553e-05	990.29	225.17	1.4317e-05	1.4158e-05	480.53	222.53	109.43	49.364	1.4291e-05	118.76	476.460	180.345	265.585	151.836	288.390	305.648	151.822	157.354	262.851	305.644	157.294	160.591	159.948	164.934	288.518	164.086	-8191	255	
2043.726	1	1	0	0	0.15653	0.15623	0.18153	0.14088	0.1882	0.16043	0.11632	0.2363	0.1096	0.1183	0.26155	0.22306	0.080579	0.2265	0.15303	0.22562	-2.1167	-2.8458	-2.7521	-2.7313	-3.0563	-2.7625	-2.775	-3.2146	-2.7687	-3.0208	-2.7458	-3.0167	-2.9313	-2.9021	-2.8042	-3.0917	363.858	387.465	277.613	161.755	483.932	180.985	172.141	488.497	139.262	242.963	451.413	472.015	140.188	493.216	378.274	432.428	0.002559	0.0004512	0.00025849	733.26	5.4224e-06	4.0562e-06	1015.3	231.92	7.0845e-06	5.6605e-06	468.5	230.75	115.04	51.288	9.9286e-06	124.09	0.0014438	0.0012958	0.00037267	709.16	1.3688e-05	1.418e-05	981.34	224.36	1.3415e-05	1.28e-05	477.26	223.37	110.35	49.796	1.3074e-05	120.29	478.369	240.769	271.574	151.943	244.972	285.442	151.970	157.023	271.712	269.789	156.590	160.585	159.954	164.482	317.847	163.916	-8191	255	
2043.822	1	1	0	0	0.086821	0.10004	0.073742	0.31832	0.21886	0.10322	0.29718	0.035531	0.093645	0.28651	0.20371	0.23245	0.16979	0.26612	0.27054	0.31543	-2.2792	-2.9125	-2.9062	-2.85	-2.9604	-2.8104	-2.7042	-3.2146	-2.8312	-2.7167	-2.9354	-2.7958	-2.8396	-2.9458	-2.6271	-3.1271	255.721	260.665	480.685	467.086	261.937	252.401	141.448	162.736	429.123	446.830	409.663	478.033	150.097	490.473	207.987	461.555	0.0026701	0.00058687	0.00033193	747.14	9.7498e-06	4.9348e-06	1036.2	236.82	5.4572e-06	4.8601e-06	471.88	231.71	115.74	51.509	5.536e-06	123.56	0.0013306	0.0011753	0.0003414	717.62	1.2913e-05	1.3702e-05	994.78	229.22	1.3683e-05	1.3753e-05	487.61	224.32	111.45	50.139	1.472e-05	120.03	478.297	222.494	210.069	151.846	276.879	203.731	151.971	156.966	297.482	226.900	157.324	160.604	160.131	164.697	249.294	163.980	-8191	255	
2043.942	1	1	0	0	0.1328	0.44869	0.17122	0.24436	0.24489	0.14695	0.19215	0.24205	0.107	0.2923	0.3056	0.32968	0.1603	0.14039	0.12555	0.18626	-2.3021	-2.7292	-2.7687	-2.6708	-2.8167	-2.8458	-2.9396	-2.9396	-2.6688	-2.775	-3.0604	-2.8063	-2.6854	-2.7854	-2.7646	-3.0208	269.687	346.355	264.576	445.659	144.574	235.419	497.876	424.323	202.817	429.332	162.614	464.300	419.006	457.203	319.788	409.454	0.0027313	0.0011421	0.00032849	745.13	1.0786e-05	4.742e-06	1030.3	237.09	9.8914e-06	7.2376e-06	470	229.18	114.99	51.072	1.0606e-05	123	0.001518	0.0013863	0.00039981	718.96	1.5226e-05	1.6201e-05	993.65	229.09	1.616e-05	1.6413e-05	496.8	222.08	110.85	49.822	1.6472e-05	119.74	476.970	198.312	250.666	151.947	272.207	265.791	151.741	157.062	265.320	164.451	157.396	160.512	159.894	164.740	275.738	163.876	-8191	255	
2044.039	1	1	0	0	0.047515	0.13589	0.16266	0.12888	0.088569	0.17669	0.18729	0.19585	0.081458	0.20611	0.21889	0.39709	0.16862	0.2007	0.18035	0.27764	-2.375	-2.6979	-2.9917	-2.65	-2.8396	-2.9375	-2.9104	-2.8458	-2.6917	-2.6813	-3.0333	-2.9083	-2.7458	-2.9521	-2.6667	-3.2625	423.455	239.383	236.845	478.923	263.862	168.030	388.031	431.561	158.322	388.330	410.992	452.021	480.827	403.551	267.253	435.407	0.0026491	0.00089448	0.00019898	739.58	1.0128e-05	3.7793e-06	1037.3	236.65	8.5359e-06	1.3108e-05	470.61	226.39	112.75	50.371	1.7041e-05	120.01	0.0016135	0.0014877	0.00042207	717.87	1.5438e-05	1.6569e-05	997.44	228.63	1.6129e-05	1.6852e-05	497.34	219.95	108.7	49.176	1.777e-05	116.83	478.286	212.211	247.528	152.104	284.396	264.371	152.013	157.155	301.180	278.337	156.350	160.619	159.645	164.792	262.500	163.932	-8191	255	
2044.135	1	1	0	0	0.17681	0.2103	0.14359	0.10612	0.063092	0.1626	0.13482	0.25246	0.21489	0.033736	0.11528	0.19797	0.16629	0.21121	0.13355	0.065427	-2.3563	-2.625	-2.8958	-2.725	-2.8937	-3.0021	-2.9688	-2.8542	-2.8646	-2.7542	-2.9958	-2.9562	-2.8438	-3.0271	-2.5625	-2.9854	154.078	291.994	173.950	154.716	375.835	388.701	415.705	197.391	397.391	140.172	169.656	397.777	178.449	446.929	168.430	166.493	0.0025351	0.00054278	0.00031981	723.94	1.0002e-05	4.9382e-06	986.93	223.87	9.9251e-07	7.8402e-06	449.52	210.44	103.72	46.469	6.7177e-06	112.65	0.0017314	0.0017229	0.00049004	700.87	1.9504e-05	2.095e-05	958.27	217.98	2.1971e-05	2.3429e-05	507.36	204.77	101.58	45.88	2.7875e-05	110.25	478.084	222.211	246.038	151.517	303.794	346.300	152.172	157.308	208.066	264.535	156.590	160.681	160.077	164.965	220.717	164.088	-8191	255	
2044.231	1	1	0	0	0.092866	0.14946	0.24587	0.37178	0.10322	0.068407	0.24126	0.16166	0.13947	0.16323	0.041743	0.044489	0.20136	0.16996	0.12833	0.093359	-2.3083	-2.6417	-2.9813	-2.7521	-2.7042	-2.9875	-2.6729	-3.0958	-3.0146	-2.8396	-2.9958	-2.9729	-2.8104	-3.0938	-2.6479	-2.8229	212.987	311.078	317.404	470.488	145.883	281.128	437.592	471.343	443.320	225.844	160.717	339.006	147.823	174.487	298.935	467.371	0.0023918	0.0012186	0.00029399	700.05	8.5265e-06	1.8817e-05	964.99	215.3	1.8547e-05	1.4834e-05	435.04	202.78	100.2	44.917	1.676e-05	109.93	0.0025409	0.0028011	0.00079925	692.73	3.163e-05	3.4054e-05	949.04	214.45	3.4327e-05	3.6533e-05	555.56	199.72	100.03	44.854	3.7567e-05	108.2	477.818	238.126	219.774	151.630	306.137	283.406	151.765	157.410	279.870	310.949	157.383	161.037	159.899	164.717	274.443	164.267	-8191	255	
2044.327	1	1	0	0	0.06483	0.024006	0.055558	0.19325	0.24745	0.22214	0.40215	0.16285	0.37631	0.16374	0.22922	0.24241	0.040552	0.32267	0.14197	0.28327	-2.4979	-2.7687	-2.9146	-2.925	-2.6188	-2.9646	-2.7354	-2.9271	-2.9271	-2.6958	-2.9104	-2.8438	-2.6021	-3.0604	-2.7604	-3.0583	344.032	395.932	142.908	422.286	487.508	415.978	455.647	143.043	488.159	145.026	140.586	146.298	152.293	497.261	142.021	401.293	0.002374	0.00042117	0.00021364	699.2	6.6496e-06	5.8836e-06	969.95	217.35	1.6521e-05	8.036e-06	431.14	204.46	100.75	45.442	1.2444e-05	111.21	0.0031882	0.0035029	0.0009668	696.85	3.6718e-05	3.8439e-05	954.28	216.27	3.6734e-05	3.6751e-05	554.48	201.27	101.02	45.313	3.5032e-05	109.68	476.897	304.466	191.256	151.715	269.722	287.775	152.009	157.350	282.215	311.086	157.314	160.634	160.276	164.847	298.790	164.085	-8191	255	
2044.423	1	1	0	0	0.1617	0.09994	0.12817	0.47468	0.37287	0.2839	0.33973	0.14044	0.11287	0.38094	0.1286	0.32725	0.16322	0.30133	0.20931	0.23194	-2.3375	-2.5708	-2.875	-2.8896	-2.4292	-3.125	-2.8125	-2.7875	-2.8333	-2.5812	-2.7	-2.9583	-2.6813	-3.0646	-2.8354	-3.0292	174.379	471.113	379.274	480.537	183.900	467.291	436.597	496.859	220.023	386.304	211.022	482.302	456.706	449.395	484.612	396.512	0.0025109	0.00061046	5.273e-05	706.37	6.0443e-06	1.1658e-06	977.28	220.14	9.708e-06	2.4622e-06	450.86	206.57	103.04	45.875	2.2665e-05	110.94	0.0030247	0.0033261	0.00092186	701.6	3.6418e-05	3.7902e-05	962.62	219.76	3.6821e-05	3.7911e-05	562.97	203.99	102.63	45.731	3.5498e-05	109.27	478.264	282.291	222.405	151.791	264.051	242.784	151.879	157.220	195.529	385.058	157.565	160.932	159.960	165.029	277.542	164.069	-8191	255	
2044.542	1	1	0	0	0.16727	0.20358	0.092759	0.15328	0.078498	0.10115	0.19322	0.10289	0.2792	0.083683	0.24615	0.45105	0.032731	0.23821	0.25107	0.21921	-2.5021	-2.5958	-2.6833	-2.9667	-2.5812	-2.8792	-2.9667	-2.8104	-2.9688	-2.7854	-2.7646	-2.9313	-2.5792	-3.0375	-2.7458	-2.8958	452.076	345.656	178.374	257.860	281.497	498.228	463.962	392.830	264.699	262.592	348.933	435.225	392.262	494.934	427.730	428.784	0.0023178	0.00046947	0.00030015	702.49	7.4546e-06	2.409e-06	969.27	217.53	9.2354e-06	5.7576e-06	433.16	203.95	101.31	45.06	1.3851e-05	109.03	0.0030474	0.0033303	0.00093399	696.78	3.622e-05	3.8072e-05	951.45	216.93	3.7573e-05	3.9013e-05	562.93	200.58	101.19	44.985	3.6707e-05	107.62	478.383	143.222	273.839	151.658	215.514	410.729	151.732	157.456	241.251	321.036	157.637	160.872	160.005	164.756	268.894	164.247	-8191	255	
2044.638	1	1	0	0	0.076108	0.13362	0.22975	0.07843	0.18925	0.10675	0.2516	0.1119	0.15087	0.45998	0.27597	0.1021	0.26982	0.23011	0.15463	0.023675	-2.3875	-2.5771	-2.8167	-2.8625	-2.5646	-2.8063	-2.9542	-2.7562	-2.9688	-2.8208	-2.6958	-3.1	-2.7208	-2.8875	-2.8937	-2.8125	466.010	360.223	406.471	454.482	351.499	316.359	469.449	480.152	198.742	415.483	408.832	467.074	147.784	399.139	180.590	141.397	0.0023148	0.00084404	9.1638e-05	688.48	4.9366e-06	6.4006e-06	956.31	214.43	1.1134e-05	1.4746e-06	428.97	199.62	97.696	43.676	9.8753e-06	106.32	0.0030552	0.0033524	0.00091292	687.03	3.5422e-05	3.6038e-05	941.26	214.08	3.6729e-05	3.8437e-05	564.58	197.07	98.65	43.967	4.3224e-05	105.64	474.356	447.264	308.618	151.949	250.553	313.869	151.870	157.286	235.693	319.507	157.530	160.691	159.938	165.125	331.783	164.241	-8191	255	
2044.734	1	1	0	0	0.23179	0.045424	0.26417	0.17643	0.12266	0.021417	0.22599	0.19617	0.07554	0.063556	0.076211	0.43387	0.12602	0.032991	0.29802	0.2308	-2.4813	-2.7625	-2.6625	-3.1312	-2.55	-2.9437	-2.9437	-2.7562	-2.9125	-2.7083	-2.6292	-3.3354	-2.7646	-3.025	-2.9437	-2.9229	215.511	352.349	176.778	454.655	181.145	289.676	407.936	440.662	266.384	293.423	304.796	465.497	376.235	145.155	462.827	406.727	0.0021875	0.00093959	0.00020439	686.11	1.7057e-05	6.8038e-06	952.06	209.09	1.2749e-05	4.6502e-06	416.98	193.17	93.806	42.122	1.9815e-05	103.72	0.0036953	0.0042511	0.0011963	691.23	4.7387e-05	4.9123e-05	943.99	212.61	4.8814e-05	5.0747e-05	612.24	192.78	96.7	42.775	5.2061e-05	103.68	477.832	245.251	222.794	151.847	294.054	274.965	151.818	157.178	248.960	276.680	157.497	160.952	160.001	164.913	300.134	164.272	-8191	255	
2044.831	1	1	0	0	0.1409	0.068531	0.089933	0.20564	0.1744	0.20425	0.089616	0.072486	0.1292	0.22575	0.19709	0.063553	0.11736	0.046779	0.16407	0.36075	-2.5833	-2.7792	-2.8917	-2.9437	-2.6854	-2.9854	-3.0958	-2.7854	-2.9542	-2.9979	-2.7333	-3.0896	-2.8604	-2.8146	-2.9854	-2.8083	147.338	425.054	265.205	431.525	163.591	284.040	162.988	217.408	343.008	220.489	160.848	472.032	488.276	149.347	268.855	409.325	0.0023609	0.00023751	0.00027925	677.7	1.5251e-05	1.5303e-05	944.23	207.56	2.337e-05	9.7857e-06	422.08	192	92.463	41.013	1.3878e-05	102.08	0.0042515	0.0049214	0.0013707	693.74	5.3017e-05	5.4485e-05	941.72	211.55	5.2187e-05	5.4552e-05	624.95	190.9	95.236	41.998	5.3905e-05	101.8	478.129	162.552	478.135	151.913	265.081	292.112	151.816	157.190	285.182	309.153	156.648	160.913	160.110	164.960	266.607	164.161	-8191	255	
2044.927	1	1	0	0	0.16786	0.29644	0.13758	0.040416	0.25376	0.091634	0.12772	0.081313	0.1654	0.034394	0.021151	0.19813	0.14457	0.15885	0.085478	0.33203	-2.6063	-2.8104	-2.7604	-3.0062	-2.7542	-2.8417	-3.1688	-2.9	-3.0708	-2.9042	-2.8354	-2.9646	-2.9083	-3.0833	-2.9	-2.7729	321.624	397.680	258.095	471.674	183.306	213.598	399.869	348.484	389.233	181.604	191.864	448.555	470.144	478.654	386.973	456.077	0.0021631	0.00020784	5.3651e-05	663.86	1.8116e-05	1.4153e-05	924.86	204.16	1.6702e-05	6.4532e-06	409.59	189.48	91.289	41.054	1.5289e-05	102.43	0.004258	0.0049313	0.0013568	679.44	4.972e-05	5.1447e-05	921.29	206.75	4.6364e-05	4.8549e-05	588.43	188.13	93.351	41.498	4.4333e-05	101.61	472.823	237.567	176.557	152.002	258.306	277.088	151.768	157.201	313.853	310.383	156.828	160.950	160.443	164.827	228.081	164.203	-8191	255	
#DATA ENDS
