BOXY.EXE: ISS Imagent and Oximeter Data Acquisition Program Version 0.80
Ascii Record File

#ACQ INFORMATION
2  Detector Channels 
16  External MUX Channels 
1  Auxiliary Channels 
5000  Waveform (CCF) Frequency (Hz)
1  Waveforms Skipped 
30  Waveforms Averaged 
1  Cycles Averaged 
16  Acquisitions per Waveform 
10.0806  Updata Rate (Hz) 

#FILE INFORMATION
TRUE -- External MUX Channel results are PARSED.
FALSE -- AC DC and Phase are NOT grouped.
TRUE -- Companion Program Settings File CREATED.
FALSE -- AC data not excluded
FALSE -- DC data not excluded
FALSE -- Phase data not excluded
FALSE -- Auxillary Chn. data not excluded
Tab delimiters

#CALIBRATION STATE
TRUE -- Waveform Calibration Values APPLIED.


#AUX CALIBRATION VALUES
Val Type	aux-1	

Term	1.0000e+00	
Factor	0.0000e+00	


#WF CALIBRATION VALUES
A = Detector Channel
Val Type	A-AC1	A-AC2	A-AC3	A-AC4	A-AC5	A-AC6	A-AC7	A-AC8	A-AC9	A-AC10	A-AC11	A-AC12	A-AC13	A-AC14	A-AC15	A-AC16	A-DC1	A-DC2	A-DC3	A-DC4	A-DC5	A-DC6	A-DC7	A-DC8	A-DC9	A-DC10	A-DC11	A-DC12	A-DC13	A-DC14	A-DC15	A-DC16	A-Ph1	A-Ph2	A-Ph3	A-Ph4	A-Ph5	A-Ph6	A-Ph7	A-Ph8	A-Ph9	A-Ph10	A-Ph11	A-Ph12	A-Ph13	A-Ph14	A-Ph15	A-Ph16	

Term	0.00000e+00	0.00000e+00	0.00000e+00	0.00000e+00	0.00000e+00	0.00000e+00	0.00000e+00	0.00000e+00	0.00000e+00	0.00000e+00	0.00000e+00	0.00000e+00	0.00000e+00	0.00000e+00	0.00000e+00	0.00000e+00	0.00000e+00	0.00000e+00	0.00000e+00	0.00000e+00	0.00000e+00	0.00000e+00	0.00000e+00	0.00000e+00	0.00000e+00	0.00000e+00	0.00000e+00	0.00000e+00	0.00000e+00	0.00000e+00	0.00000e+00	0.00000e+00	0.00000e+00	0.00000e+00	0.00000e+00	0.00000e+00	0.00000e+00	0.00000e+00	0.00000e+00	0.00000e+00	0.00000e+00	0.00000e+00	0.00000e+00	0.00000e+00	0.00000e+00	0.00000e+00	0.00000e+00	0.00000e+00	
Factor	1.00000e+00	1.00000e+00	1.00000e+00	1.00000e+00	1.00000e+00	1.00000e+00	1.00000e+00	1.00000e+00	1.00000e+00	1.00000e+00	1.00000e+00	1.00000e+00	1.00000e+00	1.00000e+00	1.00000e+00	1.00000e+00	1.00000e+00	1.00000e+00	1.00000e+00	1.00000e+00	1.00000e+00	1.00000e+00	1.00000e+00	1.00000e+00	1.00000e+00	1.00000e+00	1.00000e+00	1.00000e+00	1.00000e+00	1.00000e+00	1.00000e+00	1.00000e+00	X	X	X	X	X	X	X	X	X	X	X	X	X	X	X	X	

B = Detector Channel
Val Type	B-AC1	B-AC2	B-AC3	B-AC4	B-AC5	B-AC6	B-AC7	B-AC8	B-AC9	B-AC10	B-AC11	B-AC12	B-AC13	B-AC14	B-AC15	B-AC16	B-DC1	B-DC2	B-DC3	B-DC4	B-DC5	B-DC6	B-DC7	B-DC8	B-DC9	B-DC10	B-DC11	B-DC12	B-DC13	B-DC14	B-DC15	B-DC16	B-Ph1	B-Ph2	B-Ph3	B-Ph4	B-Ph5	B-Ph6	B-Ph7	B-Ph8	B-Ph9	B-Ph10	B-Ph11	B-Ph12	B-Ph13	B-Ph14	B-Ph15	B-Ph16	

Term	0.00000e+00	0.00000e+00	0.00000e+00	0.00000e+00	0.00000e+00	0.00000e+00	0.00000e+00	0.00000e+00	0.00000e+00	0.00000e+00	0.00000e+00	0.00000e+00	0.00000e+00	0.00000e+00	0.00000e+00	0.00000e+00	0.00000e+00	0.00000e+00	0.00000e+00	0.00000e+00	0.00000e+00	0.00000e+00	0.00000e+00	0.00000e+00	0.00000e+00	0.00000e+00	0.00000e+00	0.00000e+00	0.00000e+00	0.00000e+00	0.00000e+00	0.00000e+00	-1.99800e+02	-1.32036e+02	-1.16888e+02	-1.84163e+02	-8.14992e+01	-6.94175e+01	-1.57306e+02	-1.62015e+02	-8.64931e+01	-6.67769e+01	-1.77797e+02	-1.71882e+02	-1.81595e+02	-1.77192e+02	-7.35172e+01	-1.50103e+02	
Factor	3.79814e-05	1.92844e-04	5.09745e-05	1.70467e-01	1.91118e-06	1.87975e-06	1.61549e-01	5.09297e-02	1.97878e-06	1.84182e-06	9.46997e-01	2.66704e-02	2.93344e-02	8.92146e-03	1.95588e-06	1.25256e-02	7.13065e-06	8.70306e-06	2.43209e-06	8.69350e-02	9.20906e-08	9.60395e-08	7.77383e-02	2.60149e-02	9.20560e-08	9.54915e-08	4.40650e-01	1.32784e-02	1.50708e-02	4.60272e-03	9.35434e-08	6.26721e-03	X	X	X	X	X	X	X	X	X	X	X	X	X	X	X	X	



#DISTANCE SETTINGS
A = Detector Channel
A-1	A-2	A-3	A-4	A-5	A-6	A-7	A-8	A-9	A-10	A-11	A-12	A-13	A-14	A-15	A-16	

2.5000e+00	3.0000e+00	2.5000e+00	3.0000e+00	2.0000e+00	3.0000e+00	1.5000e+00	3.0000e+00	3.0000e+00	3.0000e+00	3.0000e+00	3.0000e+00	3.0000e+00	3.0000e+00	1.5000e+00	3.0000e+00	

B = Detector Channel
B-1	B-2	B-3	B-4	B-5	B-6	B-7	B-8	B-9	B-10	B-11	B-12	B-13	B-14	B-15	B-16	

1.0000e+01	1.0000e+01	1.0000e+01	1.4400e+00	1.0000e+01	1.0000e+01	1.5100e+00	1.9400e+00	1.0000e+01	1.0000e+01	1.9900e+00	2.4900e+00	2.4100e+00	2.9000e+00	1.0000e+01	2.9800e+00	




#DATA BEGINS
time	group	step	mark	flag	A-AC1	A-AC2	A-AC3	A-AC4	A-AC5	A-AC6	A-AC7	A-AC8	A-AC9	A-AC10	A-AC11	A-AC12	A-AC13	A-AC14	A-AC15	A-AC16	A-DC1	A-DC2	A-DC3	A-DC4	A-DC5	A-DC6	A-DC7	A-DC8	A-DC9	A-DC10	A-DC11	A-DC12	A-DC13	A-DC14	A-DC15	A-DC16	A-Ph1	A-Ph2	A-Ph3	A-Ph4	A-Ph5	A-Ph6	A-Ph7	A-Ph8	A-Ph9	A-Ph10	A-Ph11	A-Ph12	A-Ph13	A-Ph14	A-Ph15	A-Ph16	B-AC1	B-AC2	B-AC3	B-AC4	B-AC5	B-AC6	B-AC7	B-AC8	B-AC9	B-AC10	B-AC11	B-AC12	B-AC13	B-AC14	B-AC15	B-AC16	B-DC1	B-DC2	B-DC3	B-DC4	B-DC5	B-DC6	B-DC7	B-DC8	B-DC9	B-DC10	B-DC11	B-DC12	B-DC13	B-DC14	B-DC15	B-DC16	B-Ph1	B-Ph2	B-Ph3	B-Ph4	B-Ph5	B-Ph6	B-Ph7	B-Ph8	B-Ph9	B-Ph10	B-Ph11	B-Ph12	B-Ph13	B-Ph14	B-Ph15	B-Ph16	aux-1	digaux	

504.981	1	1	0	256	0.19084	0.24774	0.14969	0.17052	0.10413	0.36081	0.12719	0.20698	0.070621	0.20889	0.23814	0.25022	0.40843	0.34763	0.10349	0.24084	-2.6375	-3.0208	-3.1333	-3.1333	-3.2979	-3.125	-3.2646	-3.6375	-2.9083	-3.1667	-3.3312	-3.0604	-3.3354	-3.4313	-2.9083	-3.2917	-46.585	-94.380	-84.491	189.407	13.701	181.521	125.988	-134.212	-73.950	59.130	-11.104	214.358	-129.664	-138.789	111.275	62.765	0.00092292	0.00065146	0.00019179	1604.4	5.1722e-06	4.4597e-06	1594.8	432.04	7.6445e-06	6.5757e-06	483.33	165.15	145.35	49.172	5.2922e-06	60.337	0.00043724	0.00035887	0.00010114	1627.3	3.929e-06	3.9678e-06	1614.3	438.74	4.2075e-06	3.8682e-06	478.67	168.29	148.14	50.39	3.9762e-06	61.834	132.531	-78.222	-45.844	-125.422	-21.254	-16.854	-125.508	-121.122	-55.209	10.793	-121.348	-117.091	-116.968	-111.791	-23.065	-112.684	-8191	255	
505.077	1	1	0	0	0.16465	0.24223	0.19998	0.05028	0.10824	0.10573	0.34857	0.15707	0.10014	0.092639	0.06911	0.28879	0.33329	0.17055	0.1117	0.096313	-2.7542	-3.0125	-3.1542	-3.4625	-3.2542	-3.3	-3.1063	-3.4979	-3.1729	-3.0875	-3.2417	-3.0458	-3.1562	-3.3542	-3.1021	-3.5125	174.161	126.854	133.271	-60.553	-109.457	-30.823	135.753	-53.898	199.243	61.807	197.083	82.508	185.224	-77.754	211.610	97.242	0.00088483	0.00072682	0.00013598	1606.6	5.6699e-06	3.7416e-06	1587.5	430.86	3.7068e-06	6.3436e-06	485.08	164.16	145.42	49.165	4.757e-06	60.387	0.00044192	0.00035273	0.00010166	1625.5	4.0434e-06	3.9312e-06	1613.1	438.22	4.1876e-06	3.8493e-06	481.07	168.12	148.29	50.393	4.1025e-06	61.753	128.170	-44.970	-35.850	-125.289	-26.974	57.863	-125.484	-121.048	-44.346	8.164	-121.283	-117.038	-117.070	-111.890	-5.200	-112.922	-8191	255	
505.173	1	1	0	0	0.097836	0.10022	0.17493	0.2544	0.10553	0.15793	0.2328	0.27048	0.097043	0.23866	0.1125	0.094159	0.28348	0.08259	0.11584	0.13688	-2.5229	-3.0479	-3.2021	-3.1437	-3.1542	-3.375	-3.2313	-3.3729	-3.2896	-2.9188	-3.5333	-3.0917	-3.1583	-3.2792	-2.9896	-3.4021	28.304	-4.953	58.823	180.800	35.020	175.490	164.302	168.685	-37.843	3.865	53.373	130.448	127.744	-116.821	-27.888	202.390	0.00085488	0.00076967	0.00018673	1612.7	6.2657e-06	6.5917e-06	1591	429.36	7.496e-06	6.9406e-06	487.98	164.71	145.32	49.126	5.0058e-06	60.198	0.00044715	0.0003546	9.7856e-05	1628	4.0244e-06	3.9658e-06	1613.5	437.88	4.0618e-06	3.8292e-06	480.66	168.32	148.19	50.345	4.0689e-06	61.747	129.861	-52.915	-36.477	-125.271	-28.714	19.617	-125.506	-121.019	-26.943	-9.222	-121.172	-116.984	-117.109	-111.820	-20.862	-112.763	-8191	255	
505.268	1	1	0	0	0.1001	0.19794	0.078076	0.26692	0.27569	0.23042	0.24599	0.039171	0.1533	0.083093	0.080299	0.15204	0.23787	0.14424	0.15749	0.26596	-2.6479	-3.0042	-3.1333	-3.2479	-3.0729	-3.3563	-3.2458	-3.3021	-3.2375	-3.0042	-3.3208	-3.2833	-3.0729	-3.3125	-3.1667	-3.1958	-132.578	-87.145	-74.954	173.503	4.836	182.803	157.651	21.160	183.250	107.086	151.219	137.939	187.045	171.100	170.124	203.443	0.00083776	0.00067866	0.00017339	1612.1	5.0461e-06	3.7632e-06	1588	431.46	6.8128e-06	6.4643e-06	487.05	164.75	145.59	49.35	2.5601e-06	60.022	0.00042705	0.00036199	9.6595e-05	1626.8	4.0111e-06	3.8088e-06	1609.5	438.81	4.1072e-06	3.9014e-06	480.03	168.11	148.06	50.387	4.0832e-06	61.572	125.244	-52.575	-21.014	-125.225	-28.589	31.746	-125.506	-121.003	-49.795	6.890	-121.392	-116.987	-116.931	-111.916	-27.683	-112.755	-8191	255	
505.364	1	1	0	0	0.16139	0.1233	0.22362	0.13721	0.17882	0.18357	0.42737	0.1084	0.2174	0.18532	0.071499	0.16926	0.21212	0.14733	0.087071	0.20979	-2.8146	-2.8042	-3.1688	-3.3937	-2.9479	-3.3292	-3.1229	-3.4271	-3.0604	-2.9542	-3.275	-3.4396	-3.1542	-3.3583	-2.9813	-3.1521	-50.197	42.540	136.599	184.729	83.972	94.380	144.528	163.082	166.262	-108.475	140.616	-76.455	190.147	125.654	-28.423	151.826	0.00085635	0.00067221	0.00012201	1606.7	3.2881e-06	4.9028e-06	1588.3	431.38	5.824e-06	4.8307e-06	481.35	164.45	145.07	49.112	5.8196e-06	60.141	0.00043221	0.00035402	9.4274e-05	1624.7	3.953e-06	3.774e-06	1610.9	438.07	4.0854e-06	3.8976e-06	478.52	168.07	147.87	50.334	3.8957e-06	61.66	129.655	-57.550	-54.599	-125.357	-23.905	22.820	-125.427	-120.968	-61.702	39.611	-121.450	-116.876	-116.991	-111.948	-29.143	-112.558	-8191	255	
505.485	1	1	0	0	0.1753	0.22215	0.1009	0.41515	0.045047	0.10845	0.17022	0.12373	0.27439	0.16185	0.16051	0.15783	0.16317	0.26582	0.11035	0.43587	-2.8646	-2.9396	-3.1875	-3.3292	-2.85	-3.4708	-3.2938	-3.3354	-3.4167	-3.0271	-3.2375	-3.3083	-3.1437	-3.5021	-2.9771	-3.0875	-0.645	-132.314	-24.265	166.112	112.554	-51.143	149.411	53.292	98.619	-49.541	-82.343	149.721	197.172	188.046	-112.861	198.574	0.00086985	0.00083504	0.00016567	1603	5.3008e-06	3.7453e-06	1584.1	430.04	6.0522e-06	4.5283e-06	490.15	165.01	145.41	48.902	6.0653e-06	60.004	0.00043495	0.00035271	9.434e-05	1620	3.9743e-06	3.7199e-06	1607.5	437.5	4.0217e-06	3.9193e-06	479.54	168.11	147.88	50.271	4.0021e-06	61.623	130.541	-49.927	-20.131	-125.279	-27.498	24.781	-125.490	-120.881	-59.812	41.544	-121.007	-116.968	-116.983	-111.972	-5.507	-112.703	-8191	255	
505.581	1	1	0	0	0.10497	0.23596	0.14223	0.29253	0.18309	0.043476	0.072569	0.26168	0.23469	0.071383	0.068662	0.24433	0.16791	0.19005	0.18594	0.21485	-2.9083	-2.9021	-3.0458	-3.4208	-2.8979	-3.3979	-3.3729	-3.2896	-3.4521	-3.3583	-3.0708	-3.4354	-3.1521	-3.3063	-3.35	-3.0479	193.639	-112.238	146.556	199.180	33.002	135.680	89.419	200.500	-112.600	130.208	124.228	-136.416	13.651	175.034	66.890	220.848	0.00088702	0.0005305	0.00014916	1605.2	3.4792e-06	4.5955e-06	1584.9	430.37	6.1269e-06	6.4567e-06	485.28	164.32	144.65	49.037	6.3859e-06	60.068	0.00042793	0.00035485	9.5556e-05	1621.6	4.0019e-06	3.7589e-06	1607.3	437.12	3.944e-06	3.8881e-06	479.63	168.18	147.64	50.291	3.9171e-06	61.581	130.151	-20.977	-52.282	-125.207	-22.249	13.212	-125.544	-120.934	-69.098	11.674	-121.325	-117.024	-117.361	-111.877	-20.111	-112.607	-8191	255	
505.677	1	1	0	0	0.074093	0.097416	0.05969	0.25074	0.30136	0.12636	0.31775	0.085137	0.28926	0.2181	0.16762	0.17932	0.28037	0.28325	0.073714	0.31002	-2.7229	-2.9646	-3.1208	-3.4417	-2.8854	-3.2396	-3.3563	-3.2208	-3.5083	-3.0521	-3.0646	-3.5021	-3.0479	-3.4271	-3.3146	-3.0333	-9.941	73.059	90.860	202.665	-40.451	-132.009	193.962	168.170	-62.912	44.536	14.098	188.947	179.375	11.398	134.626	134.068	0.00083702	0.00031726	0.00011269	1601	3.4403e-06	4.9348e-06	1580	430.52	6.0157e-06	4.8017e-06	482.93	164.12	144.74	49.01	6.0603e-06	60.043	0.00041549	0.00035955	9.4928e-05	1619.1	3.8774e-06	3.5865e-06	1604.3	436.91	3.8899e-06	3.7411e-06	478.06	167.64	147.4	50.186	3.8538e-06	61.584	127.386	-55.337	-35.621	-125.213	-48.250	42.977	-125.525	-121.038	-56.221	4.781	-121.056	-116.949	-116.883	-111.853	6.085	-112.585	-8191	255	
505.748	1	1	0	0	0.1265	0.2479	0.22748	0.090492	0.084625	0.14372	0.077047	0.40352	0.049768	0.1345	0.080096	0.20191	0.042419	0.27344	0.22751	0.20563	-2.9583	-3.2521	-2.9708	-3.3542	-3.0812	-3.0208	-3.7417	-3.1229	-3.1729	-3.1604	-2.9813	-3.3479	-3.0021	-3.1958	-3.3312	-3.0083	-3.429	9.711	88.900	216.174	-101.256	-135.495	137.917	193.671	112.477	194.383	101.315	182.765	-127.820	218.970	92.044	144.358	0.00088194	0.00058086	0.00019208	1599.6	6.1903e-06	3.4652e-06	1575.9	429.02	7.3572e-06	5.8726e-06	485.6	164.32	144.39	48.932	4.9901e-06	59.822	0.00041636	0.00035365	9.515e-05	1616.9	3.9229e-06	3.6639e-06	1600	435.79	3.871e-06	3.7293e-06	477.13	167.44	147.26	50.128	3.816e-06	61.407	129.769	-67.102	-41.429	-125.172	-29.718	15.793	-125.628	-120.994	-59.611	3.398	-121.299	-116.852	-117.181	-111.945	0.198	-112.528	-8191	255	
505.869	1	1	0	0	0.13505	0.19916	0.18982	0.20844	0.28366	0.16526	0.48453	0.31039	0.08192	0.1053	0.31119	0.11561	0.072398	0.1583	0.35081	0.036664	-2.7833	-3.0958	-3.0229	-3.6625	-3.0896	-3.1021	-3.4521	-2.9938	-3.3937	-3.3396	-2.8271	-3.3833	-3.0396	-3.2313	-3.2479	-3.05	-127.363	-75.509	8.141	107.441	8.682	100.275	194.915	175.833	181.032	-77.266	70.826	168.159	-34.067	155.636	130.653	-135.258	0.00085685	0.00062134	0.000178	1594.2	2.24e-06	4.8428e-06	1581.6	429.41	7.0665e-06	2.8697e-06	486.98	164.28	144.37	48.786	4.9608e-06	59.803	0.00040062	0.00033723	9.2739e-05	1610.7	3.8747e-06	3.4912e-06	1601.2	435.59	3.8056e-06	3.8664e-06	478.17	167.61	147.32	50.093	3.9569e-06	61.415	128.389	-59.052	-18.909	-125.179	-72.617	7.619	-125.657	-121.024	-26.157	2.816	-121.723	-117.052	-116.979	-111.889	-4.996	-112.551	-8191	255	
505.965	1	1	0	0	0.089112	0.10657	0.12284	0.12106	0.15027	0.20797	0.49193	0.22785	0.29466	0.15373	0.20493	0.086529	0.098538	0.20073	0.17838	0.13212	-2.9313	-3.2229	-3.0208	-3.3354	-3.0583	-3.1542	-3.4333	-3.2875	-3.2938	-3.0938	-2.9375	-3.4896	-3.1583	-3.2479	-3.3937	-3.15	13.173	171.131	-100.885	131.033	135.246	90.958	161.878	100.874	2.557	103.446	190.170	72.440	-8.804	136.945	34.063	202.752	0.00087215	0.00048202	0.0001352	1597.5	5.7922e-06	6.7372e-06	1574.3	429.43	6.4506e-06	5.7834e-06	484.55	163.62	144.63	48.972	5.9645e-06	59.464	0.00041652	0.00034729	9.4157e-05	1614.9	3.8248e-06	3.5525e-06	1599.7	435.62	3.67e-06	3.4958e-06	475.41	167.25	147.07	50.139	3.4701e-06	61.293	129.922	-63.176	-39.535	-125.323	-26.687	17.061	-125.426	-121.011	-60.633	25.035	-121.431	-117.013	-116.862	-111.991	-12.982	-112.521	-8191	255	
506.061	1	1	0	0	0.041043	0.048411	0.13846	0.31048	0.19163	0.21931	0.081001	0.24595	0.099723	0.14692	0.18099	0.19232	0.17041	0.27265	0.20513	0.11399	-2.6667	-3.1333	-2.875	-3.3208	-3.125	-3.0042	-3.5333	-3.2354	-3.0563	-3.3875	-3.0083	-3.3187	-3.2583	-3.1208	-3.2375	-3.0708	112.707	168.255	14.878	164.351	0.454	-96.430	164.525	148.936	60.047	26.934	99.027	166.758	150.903	-94.508	94.381	135.973	0.00090011	0.0005723	9.061e-05	1585.5	4.4614e-06	5.9113e-06	1569.8	427.55	7.648e-06	5.0567e-06	484.59	163.77	143.9	48.963	5.9923e-06	59.718	0.00038908	0.00031859	8.9653e-05	1604.6	3.4856e-06	3.323e-06	1592	434.35	3.6203e-06	3.3585e-06	474.9	167.06	146.72	50.003	3.6651e-06	61.315	128.740	-45.647	-51.647	-125.190	-26.754	26.634	-125.465	-120.931	-49.961	6.040	-121.210	-117.129	-117.082	-111.923	-14.861	-112.629	-8191	255	
506.180	1	1	0	0	0.33569	0.24676	0.22369	0.18062	0.27666	0.03261	0.3262	0.3107	0.27071	0.028028	0.099838	0.12232	0.080892	0.10778	0.073027	0.28057	-2.6875	-3.3312	-2.9646	-3.35	-3.0958	-3.0458	-3.4792	-3.3854	-2.9708	-3.3438	-2.8833	-3.1729	-3.2854	-3.1083	-3.2146	-3.1354	13.508	-64.164	113.214	186.892	-122.002	134.087	160.645	208.924	196.143	127.037	121.374	66.619	202.474	163.789	-8.384	207.951	0.00088641	0.00072984	0.00012461	1587.1	5.4959e-06	5.7096e-06	1564.2	427.32	7.6469e-06	4.7433e-06	479.04	163.49	144.06	48.828	5.0215e-06	59.678	0.00039802	0.00032352	8.9602e-05	1604.7	3.6894e-06	3.3718e-06	1590.3	433.89	3.6253e-06	3.347e-06	473.16	166.95	146.69	49.977	3.3442e-06	61.23	128.207	-51.774	-52.303	-125.308	-42.839	10.474	-125.447	-120.830	-50.697	17.969	-121.163	-116.974	-117.080	-111.934	3.361	-112.566	-8191	255	
506.276	1	1	0	0	0.049935	0.40427	0.088125	0.2533	0.22737	0.048802	0.28949	0.24792	0.12231	0.20637	0.17091	0.047622	0.08903	0.051944	0.27998	0.18515	-2.525	-3.3208	-3.0792	-3.2687	-3.1792	-2.9833	-3.4437	-3.3125	-2.7687	-3.5125	-3.0687	-3.3521	-3.3	-2.8583	-3.1396	-3.3125	184.018	-113.049	173.177	166.806	84.977	198.404	98.032	182.317	-117.931	50.895	64.340	186.955	206.927	147.865	102.778	148.390	0.00089569	0.00062119	0.00016013	1579.3	5.3573e-06	4.9748e-06	1554.6	426.04	2.8245e-06	2.7284e-06	489.55	162.7	143.86	48.466	4.0899e-06	59.54	0.00039667	0.0003004	8.5392e-05	1596.8	3.4852e-06	3.323e-06	1578.3	432.12	3.3965e-06	3.1411e-06	473.93	166.31	146.24	49.793	3.2699e-06	61.01	127.459	-51.495	-38.566	-125.203	-6.345	29.819	-125.632	-120.811	-24.557	45.620	-121.637	-117.077	-116.884	-111.805	10.899	-112.624	-8191	255	
506.348	1	1	0	0	0.088831	0.06822	0.14252	0.23024	0.050322	0.048052	0.075034	0.22161	0.15766	0.20188	0.23888	0.20183	0.037779	0.21671	0.35238	0.10831	-2.5333	-3.2542	-2.9688	-3.1646	-3.25	-2.9104	-3.3917	-3.2583	-2.8417	-3.3979	-3.0312	-3.0542	-3.3625	-3.0667	-3.1021	-3.3042	128.483	120.199	117.276	154.890	-115.624	107.866	-137.488	147.594	208.287	-56.678	-20.725	200.039	-126.016	167.486	-107.588	214.297	0.00088866	0.00065971	0.00013038	1571.9	5.8452e-06	5.4939e-06	1559.8	427.56	4.5677e-06	6.5374e-06	488.06	162.94	143.78	48.702	4.8907e-06	59.695	0.00038942	0.00029746	8.7682e-05	1592.8	3.6067e-06	3.4328e-06	1582.4	432.43	3.7549e-06	3.3804e-06	475.28	166.49	146.44	49.862	3.4903e-06	61.072	130.271	-57.238	-23.887	-125.131	-37.190	39.324	-125.437	-120.983	-54.398	20.294	-121.070	-117.208	-116.867	-111.961	12.255	-112.427	-8191	255	
506.446	1	1	0	0	0.28174	0.15436	0.11944	0.4204	0.15007	0.16904	0.071723	0.17091	0.13409	0.17632	0.066178	0.45579	0.13809	0.046005	0.37547	0.26086	-2.5938	-3.0646	-2.7125	-3.3187	-3.1708	-2.9708	-3.4604	-3.3854	-3.0083	-3.1875	-3.1771	-3.1854	-3.2729	-3.1437	-2.975	-3.4062	72.217	202.063	-124.784	144.523	183.969	-108.419	149.127	162.999	88.612	53.531	155.970	170.110	155.411	64.155	-87.995	136.139	0.00087932	0.00080161	0.00012128	1574.7	4.386e-06	7.1496e-06	1559.6	425.92	7.6419e-06	4.1163e-06	483.22	162.55	143.58	48.417	4.8346e-06	59.569	0.00039643	0.00030296	8.5047e-05	1592.3	3.3805e-06	3.2187e-06	1580	431.92	3.4065e-06	3.0122e-06	470.53	165.7	145.97	49.731	3.1602e-06	61	131.038	-62.823	-54.070	-125.087	5.479	28.279	-125.454	-120.807	-46.428	17.793	-121.311	-116.886	-116.925	-111.788	-22.414	-112.636	-8191	255	
506.565	1	1	0	0	0.24845	0.23054	0.038804	0.51317	0.15381	0.090434	0.20932	0.18689	0.1472	0.045167	0.099023	0.14985	0.1301	0.096039	0.12866	0.1521	-2.5187	-3.4583	-2.9813	-3.1688	-3.5208	-3.0417	-3.4979	-3.475	-2.9	-3.3292	-3.0896	-3.0625	-3.4813	-3.0229	-2.9708	-3.3854	-44.138	188.604	120.930	176.019	-47.672	67.705	159.471	204.847	130.702	49.011	116.624	-105.820	-89.741	172.170	154.272	138.955	0.00088968	0.00075552	0.00017051	1567.3	5.3214e-06	4.8983e-06	1553.6	424.53	6.7756e-06	4.9857e-06	483.25	162.55	143.65	48.603	6.0323e-06	59.605	0.00037874	0.0002886	8.2995e-05	1586.3	3.4428e-06	3.34e-06	1576.8	431.69	3.6521e-06	3.339e-06	473.99	166.15	146.27	49.831	3.5161e-06	61.058	130.695	-55.579	-40.056	-125.084	-39.647	8.592	-125.552	-120.802	-41.681	28.697	-121.132	-116.886	-117.040	-111.799	-9.228	-112.413	-8191	255	
506.661	1	1	0	0	0.08958	0.081962	0.10383	0.26281	0.10961	0.1202	0.18577	0.30385	0.07674	0.10084	0.059121	0.22667	0.073817	0.22524	0.12454	0.13376	-2.3229	-3.2812	-3.0146	-3.1208	-3.3646	-2.8479	-3.3896	-3.3688	-3.0604	-3.2771	-3.1521	-3.1917	-3.4875	-3.0354	-3.0667	-3.3563	-83.304	-25.418	-46.304	213.397	-37.202	-67.103	137.755	167.265	174.018	-26.344	156.849	201.940	199.186	197.335	-125.306	169.832	0.00081632	0.00041505	0.00016832	1580.6	6.3182e-06	5.2743e-06	1564.9	426.51	4.7276e-06	3.7649e-06	477.83	162.89	144.1	48.307	5.1748e-06	59.602	0.00040862	0.00031857	9.2789e-05	1597.6	3.5503e-06	3.6889e-06	1584.6	433.14	3.8483e-06	3.4242e-06	473.45	166.49	146.57	49.726	3.5786e-06	61.127	128.047	-81.649	-28.523	-125.162	2.931	28.968	-125.404	-120.980	-67.077	2.145	-121.134	-116.880	-117.228	-111.911	2.107	-112.641	-8191	255	
506.757	1	1	0	0	0.13767	0.25405	0.24523	0.12848	0.13539	0.21692	0.33951	0.095802	0.31762	0.18579	0.0039276	0.27524	0.05763	0.25673	0.16514	0.17483	-2.6771	-2.9458	-3.1646	-3.0625	-3.325	-3.025	-3.1625	-3.6167	-2.975	-3.1396	-3.3937	-3.1312	-3.1854	-3.1688	-3.0146	-3.3167	78.601	-112.249	123.400	187.201	40.753	-85.487	156.665	188.533	173.326	42.076	-100.820	-118.596	-100.995	175.644	179.093	135.062	0.00091441	0.00071319	0.00018504	1579.3	4.0559e-06	6.2226e-06	1556.4	426.76	6.9829e-06	3.992e-06	474.34	162.73	143.31	48.589	5.9921e-06	59.536	0.00040276	0.00030635	8.8665e-05	1593.6	3.4851e-06	3.3264e-06	1579.6	432.24	3.6145e-06	3.3058e-06	469.92	165.99	145.78	49.74	3.4991e-06	60.947	130.595	-53.824	-49.922	-125.120	-26.766	0.877	-125.399	-120.899	-57.232	17.415	-120.833	-116.905	-116.922	-111.959	-19.808	-112.552	-8191	255	
506.878	1	1	0	0	0.16859	0.068631	0.067964	0.16819	0.073195	0.19204	0.3652	0.1922	0.12609	0.11639	0.10239	0.26109	0.22778	0.33333	0.10403	0.3299	-2.4188	-3.0667	-3.075	-3.1708	-3.3354	-3.1396	-3.15	-3.5667	-3.0604	-3.2021	-3.3021	-3.1042	-3.3229	-3.0729	-3.0438	-3.375	-20.894	159.169	-124.654	165.620	14.141	207.366	153.613	166.607	-1.072	174.342	-87.476	162.992	43.604	179.243	-51.778	144.761	0.0008963	0.00056819	0.00020933	1573.9	6.9291e-06	5.1087e-06	1559.8	423.94	5.3386e-06	3.2108e-06	487.21	162.83	143.32	48.612	6.618e-06	59.522	0.0003904	0.00030417	8.6957e-05	1591.5	3.3632e-06	3.3192e-06	1581.7	431.43	3.5008e-06	3.1948e-06	474.53	166.11	146.03	49.752	3.4656e-06	61.024	129.920	-65.165	-33.144	-125.210	-22.185	20.253	-125.347	-120.744	-47.104	39.590	-120.865	-117.107	-116.996	-111.902	-5.207	-112.674	-8191	255	
506.949	1	1	0	0	0.15324	0.11268	0.095244	0.36273	0.16141	0.20403	0.24898	0.18948	0.12698	0.23638	0.19951	0.094818	0.40781	0.11184	0.072897	0.31391	-2.7958	-3.2	-3.3604	-3.1771	-3.2375	-3.15	-3.1042	-3.3625	-3.0812	-2.9833	-3.3167	-3.2583	-3.2875	-3.2708	-3.0271	-3.5021	203.365	-105.687	145.105	201.773	175.713	153.756	124.366	51.269	-131.623	76.709	-125.215	55.275	193.073	159.905	-59.836	178.592	0.00089243	0.00068329	0.00017407	1574.4	7.5747e-06	4.3128e-06	1555.4	425.02	6.6552e-06	4.0295e-06	485.97	162.09	143.44	48.663	7.7554e-06	59.469	0.00039465	0.00030272	8.3634e-05	1591.1	3.4396e-06	3.3208e-06	1578.2	430.84	3.5689e-06	3.1645e-06	472.86	165.59	145.79	49.749	3.5671e-06	60.969	130.046	-63.763	-31.145	-125.117	-26.616	1.563	-125.567	-120.755	-38.612	1.424	-121.227	-116.947	-116.818	-111.939	-31.383	-112.468	-8191	255	
507.046	1	1	0	0	0.088414	0.10735	0.088762	0.30582	0.17367	0.12921	0.1233	0.2105	0.16694	0.13161	0.10412	0.10962	0.10698	0.12016	0.053977	0.055434	-2.7208	-2.8604	-3.3438	-3.2313	-3.0563	-3.2729	-3.2938	-3.1813	-3.1458	-3.0625	-3.2542	-2.9562	-3.3396	-3.5583	-2.9396	-3.3604	-32.545	29.644	169.061	193.206	165.483	-85.177	130.788	159.785	-34.901	42.436	31.991	150.517	219.126	203.046	83.928	134.656	0.0008788	0.00043806	0.00011581	1575.2	6.2889e-06	4.2823e-06	1563.1	427.44	6.66e-06	4.3651e-06	479.47	163.41	143.64	48.653	3.4687e-06	59.465	0.0003999	0.00032187	8.7175e-05	1592.9	3.5656e-06	3.5427e-06	1583.2	433.03	3.8876e-06	3.536e-06	473.51	166.42	146.43	49.843	3.695e-06	61.094	132.226	-62.125	-44.505	-125.271	-25.520	-0.311	-125.421	-120.889	-43.102	24.397	-121.834	-116.838	-116.908	-111.818	-27.343	-112.738	-8191	255	
507.166	1	1	0	0	0.32238	0.38362	0.11193	0.2027	0.053549	0.024824	0.39836	0.20452	0.31113	0.17404	0.06215	0.12823	0.18412	0.1103	0.18877	0.12625	-2.6937	-2.8937	-3.2542	-3.2229	-3.1708	-3.3604	-3.0604	-3.4542	-3.0062	-3.1688	-3.2438	-3.1521	-3.1708	-3.4583	-3.1333	-3.3333	149.152	23.079	173.539	210.651	-119.888	-108.250	180.431	141.763	80.270	-62.184	-75.048	-73.400	67.529	142.924	194.217	99.975	0.0008581	0.00057923	0.00012216	1578.7	4.7846e-06	6.0785e-06	1560.1	425.85	7.2703e-06	6.4624e-06	481.23	162.02	143.29	48.726	6.1802e-06	59.594	0.00040358	0.00032045	8.9759e-05	1597.9	3.642e-06	3.4818e-06	1583.4	432.64	3.6941e-06	3.3919e-06	475.35	165.84	146.24	49.85	3.5383e-06	61.059	130.467	-45.781	-31.909	-125.202	1.026	-3.720	-125.541	-121.047	-28.460	19.140	-120.600	-116.916	-116.931	-111.766	4.311	-112.677	-8191	255	
507.261	1	1	0	0	0.089914	0.14851	0.096117	0.18424	0.074501	0.15851	0.41049	0.13251	0.13886	0.082492	0.42856	0.1925	0.23397	0.1591	0.20831	0.22925	-2.9917	-2.7646	-3.1937	-3.2542	-3.0875	-3.1604	-3.5375	-3.4104	-3.1271	-3.0417	-3.3042	-3.1375	-3.2208	-3.5979	-3.0917	-3.2625	66.001	-0.749	-10.183	206.221	-87.102	162.607	170.012	190.282	174.643	-79.235	-93.043	175.758	168.954	105.815	-54.723	200.192	0.00084331	0.00063801	0.00017301	1574.9	5.5136e-06	4.6939e-06	1557.9	424.89	7.4983e-06	4.2439e-06	477.77	162.55	143.69	48.642	4.3272e-06	59.336	0.00039774	0.00030736	8.5032e-05	1592.7	3.5111e-06	3.2759e-06	1579.5	431.46	3.7001e-06	3.4303e-06	471.88	166	146.22	49.72	3.684e-06	60.98	132.580	-34.936	-30.229	-125.229	-26.078	14.938	-125.432	-120.889	-42.278	0.755	-121.038	-117.032	-116.881	-111.853	-0.203	-112.633	-8191	255	
507.357	1	1	0	0	0.40427	0.14142	0.052898	0.096961	0.22314	0.093313	0.18643	0.1822	0.12031	0.18035	0.2916	0.27894	0.12971	0.11165	0.048724	0.20676	-2.7458	-3.0062	-3.2458	-3.3396	-2.9625	-3.1312	-3.3312	-3.2167	-3.3187	-2.9479	-3.0875	-3.1458	-3.1917	-3.4313	-2.9583	-3.175	177.436	12.175	-15.911	-4.280	185.663	-3.149	219.999	203.391	42.448	-59.757	177.550	157.514	4.943	145.410	148.843	163.228	0.00092023	0.00067387	0.00020235	1571	7.1977e-06	4.0285e-06	1555.6	425.02	7.9088e-06	7.7605e-06	483.46	162.62	143.33	48.491	6.6378e-06	59.223	0.0004014	0.00031922	8.5787e-05	1591.1	3.6602e-06	3.4182e-06	1580.2	431.9	3.544e-06	3.3987e-06	471.74	166.07	145.83	49.639	3.7139e-06	60.847	130.332	-66.558	-27.633	-125.083	-34.069	6.395	-125.523	-120.974	-57.007	-1.849	-121.145	-116.938	-116.973	-111.910	-23.560	-112.522	-8191	255	
507.453	1	1	0	0	0.026232	0.13092	0.022394	0.35161	0.2932	0.08914	0.23617	0.010204	0.019657	0.015179	0.055696	0.13226	0.21742	0.34942	0.05505	0.24701	-2.8104	-3.0187	-3.1458	-3.175	-3.0125	-3.2354	-3.1875	-3.325	-3.2833	-3.0125	-3.0583	-3.1458	-3.0833	-3.3063	-3.1958	-3.0708	-31.484	-89.066	-36.692	-121.089	104.946	-101.255	171.977	-137.908	14.469	94.557	112.497	36.948	-128.973	216.859	-120.024	218.393	0.00089884	0.0003623	0.00022226	1572	5.1541e-06	4.537e-06	1553.2	426.01	7.5992e-06	4.254e-06	483.99	162.87	142.9	48.49	5.9747e-06	59.36	0.00039828	0.00031552	8.678e-05	1590.2	3.5367e-06	3.3458e-06	1577.6	431.61	3.5723e-06	3.421e-06	472.68	165.78	145.58	49.727	3.434e-06	60.888	130.593	-69.254	-26.586	-125.200	-13.597	-3.310	-125.660	-120.899	-75.606	18.770	-121.321	-117.003	-117.094	-111.760	-36.213	-112.531	-8191	255	
507.574	1	1	0	0	0.12375	0.070392	0.13619	0.29401	0.33218	0.12663	0.09139	0.32669	0.11617	0.25932	0.15501	0.23612	0.35736	0.19155	0.17835	0.19358	-2.6125	-3.1292	-3.1437	-3.3354	-3.0479	-3.3792	-3.3438	-3.0833	-3.3458	-3.0875	-3.0667	-3.3229	-3.0812	-3.2979	-2.8729	-3.1208	86.937	112.173	-7.555	204.655	38.965	145.124	149.915	170.282	-3.821	181.992	96.594	210.710	151.191	-105.162	-3.863	116.271	0.00090752	0.00050727	0.00015446	1565	3.9983e-06	4.3871e-06	1553.1	423.8	4.5798e-06	5.2191e-06	484.85	162.37	143.05	48.57	6.2511e-06	59.395	0.00038222	0.00030301	8.2387e-05	1585.1	3.4382e-06	3.1481e-06	1573.6	430.51	3.4178e-06	3.3002e-06	469.57	165.57	145.74	49.696	3.4687e-06	60.902	132.826	-50.402	-43.057	-125.194	-42.587	5.427	-125.616	-120.861	-34.260	30.403	-121.702	-116.959	-116.948	-111.764	-10.889	-112.700	-8191	255	
507.645	1	1	0	0	0.14949	0.22509	0.24855	0.21414	0.20866	0.12861	0.53548	0.27266	0.068372	0.063448	0.045287	0.20042	0.20602	0.12901	0.1628	0.16071	-3.0979	-3.0646	-3.1333	-3.2875	-3.0979	-3.3104	-3.4146	-3.2	-3.3625	-3.1229	-2.9125	-3.4396	-3.2104	-3.3063	-3.2125	-3.1375	-37.244	168.816	118.108	-136.980	90.235	-79.579	174.458	108.842	139.580	216.964	-101.387	161.531	-69.950	-113.085	124.716	140.331	0.00088885	0.00065173	0.00018253	1572.5	4.742e-06	5.7565e-06	1556.7	422.99	4.215e-06	5.5568e-06	484.61	162.41	143.53	48.495	5.7367e-06	59.402	0.00037883	0.00031641	8.3644e-05	1587.4	3.5532e-06	3.2721e-06	1578.8	430.43	3.4444e-06	3.2676e-06	472.31	165.64	145.89	49.659	3.3859e-06	60.877	131.686	-45.974	-36.404	-125.026	-21.773	-15.442	-125.418	-120.987	-55.921	30.873	-121.766	-116.816	-116.846	-111.839	-0.657	-112.708	-8191	255	
507.741	1	1	0	0	0.17404	0.041418	0.24612	0.30526	0.11322	0.12857	0.45468	0.28874	0.2194	0.14398	0.09133	0.047816	0.17235	0.33937	0.11903	0.34529	-2.9292	-3.0792	-2.9208	-3.4313	-3.2021	-3.3	-3.4625	-2.8563	-3.2292	-3.2188	-3.175	-3.625	-3.1188	-3.1854	-3.15	-3.175	18.327	-19.029	216.675	179.389	90.609	57.487	121.988	162.459	77.310	135.550	129.668	191.552	191.607	141.500	133.841	110.089	0.00086744	0.00081649	0.00021765	1573.4	3.9353e-06	5.0681e-06	1554.8	424.86	6.1433e-06	3.5735e-06	483.78	162.72	143.11	48.714	5.6657e-06	59.318	0.00038754	0.00031255	8.2939e-05	1588.5	3.577e-06	3.2623e-06	1577.8	431.36	3.5261e-06	3.3203e-06	471.92	165.84	145.67	49.636	3.4855e-06	60.846	128.261	-57.846	-42.024	-125.109	-19.276	15.601	-125.540	-120.949	-56.069	-1.359	-121.142	-116.942	-116.870	-111.915	-33.333	-112.431	-8191	255	
507.838	1	1	0	0	0.077727	0.12006	0.19315	0.12846	0.30392	0.26946	0.2457	0.20695	0.097988	0.069257	0.22853	0.1974	0.32706	0.12497	0.13537	0.016982	-2.8604	-3.1625	-2.9938	-3.4917	-2.9813	-3.3146	-3.5	-3.4125	-3.2271	-3.1417	-3.0625	-3.6292	-3.1146	-3.0854	-3.1604	-3.2271	9.016	9.118	164.682	169.032	105.992	126.149	205.958	124.772	172.227	66.117	-8.306	205.566	-71.849	136.181	191.579	199.782	0.00093862	0.0005421	0.00014835	1565.3	4.2895e-06	3.1692e-06	1552.1	422.45	3.4409e-06	5.752e-06	479.57	162.77	143.34	48.567	4.8465e-06	59.475	0.00038419	0.00031146	8.5645e-05	1586.5	3.6669e-06	3.3124e-06	1577.1	430.05	3.5188e-06	3.4783e-06	472.34	165.9	145.92	49.711	3.4545e-06	60.875	126.853	-48.622	-43.039	-125.248	7.763	5.323	-125.464	-120.819	-31.253	28.097	-120.874	-117.252	-116.898	-111.814	-0.691	-112.628	-8191	255	
507.958	1	1	0	0	0.1087	0.21127	0.11712	0.21684	0.095359	0.32405	0.096217	0.084713	0.29558	0.2075	0.099085	0.21476	0.083385	0.36211	0.089162	0.12677	-2.7917	-3.0417	-2.95	-3.4313	-2.9521	-3.2375	-3.6229	-3.1271	-3.1146	-3.1396	-3.0563	-3.3792	-3.3521	-3.2917	-3.1083	-3.1042	104.508	174.371	-124.840	158.073	5.298	118.012	175.463	107.563	158.876	69.302	-118.099	183.762	-125.057	185.991	-115.936	219.985	0.00081784	0.000459	0.00015556	1573.3	5.0099e-06	5.5785e-06	1556.4	425.73	5.7623e-06	6.9707e-06	474.48	162.01	143.46	48.442	4.5204e-06	59.575	0.00039109	0.00031703	8.6354e-05	1590.1	3.6263e-06	3.3848e-06	1576.7	431.86	3.6113e-06	3.3985e-06	471.82	165.59	145.92	49.699	3.5352e-06	60.991	130.331	-55.595	-15.681	-125.151	-18.644	15.982	-125.505	-120.939	-54.771	0.372	-120.826	-116.889	-117.002	-111.822	5.899	-112.528	-8191	255	
508.054	1	1	0	0	0.064316	0.25037	0.32038	0.29114	0.078763	0.060134	0.32179	0.25973	0.23675	0.15059	0.10413	0.083464	0.27112	0.19186	0.1128	0.17299	-2.8146	-3.2646	-2.7313	-3.4938	-3.1188	-3.0875	-3.3583	-3.1937	-3.2771	-3.3479	-3.0417	-3.5	-3.1792	-3.1104	-3.3063	-3.1125	-14.444	132.749	61.248	184.963	-101.682	106.608	192.490	142.089	204.762	156.695	-7.723	126.113	125.515	207.804	146.970	188.612	0.00088467	0.00058815	0.00019499	1576.5	3.4896e-06	4.6115e-06	1553.7	424.74	5.4126e-06	5.6799e-06	477.1	162.46	143.24	48.53	5.1195e-06	59.475	0.00039912	0.00032261	8.8645e-05	1592.2	3.6307e-06	3.4256e-06	1577	431.11	3.5746e-06	3.3629e-06	472.14	165.79	145.86	49.726	3.4463e-06	60.957	129.930	-68.038	-39.333	-124.973	-3.603	-2.891	-125.430	-121.024	-48.825	23.817	-121.623	-116.976	-116.859	-111.732	3.663	-112.808	-8191	255	
508.149	1	1	0	0	0.26374	0.13307	0.14295	0.2206	0.11677	0.11389	0.09354	0.053373	0.11574	0.074653	0.23613	0.12473	0.095293	0.2499	0.14206	0.21804	-2.6875	-3.1583	-2.8042	-3.3563	-3.1937	-3.1604	-3.5833	-3.2667	-2.9875	-3.2271	-3.0292	-3.4958	-3.2375	-3.0042	-3.2208	-3.0292	14.946	212.418	72.356	193.463	153.784	-95.156	167.102	109.547	-90.508	185.681	36.202	17.429	199.654	195.245	55.028	98.631	0.00094149	0.00078303	0.00018204	1568.5	7.0672e-06	5.3229e-06	1552.4	425.3	7.6468e-06	5.445e-06	477.08	162.57	142.97	48.226	6.6437e-06	59.329	0.00038969	0.00030916	8.6152e-05	1587.9	3.6349e-06	3.4126e-06	1577.4	431.19	3.501e-06	3.3235e-06	470.01	165.7	145.56	49.567	3.3724e-06	60.932	132.388	-47.765	-27.273	-125.171	-15.698	-0.122	-125.484	-121.076	-52.618	4.443	-121.881	-116.911	-116.857	-111.767	19.213	-112.628	-8191	255	
508.247	1	1	0	0	0.11234	0.039457	0.067229	0.39312	0.093498	0.084492	0.264	0.24021	0.20437	0.2655	0.13186	0.12635	0.1162	0.091907	0.091859	0.10545	-2.7604	-3.3875	-3.0563	-3.4646	-3.1	-2.9271	-3.5333	-3.2417	-3.2542	-3.5292	-2.8438	-3.3042	-3.425	-2.9479	-3.3563	-3.2708	-88.621	219.760	-130.415	-123.552	-29.924	-90.806	150.605	127.117	147.501	183.316	176.787	179.538	219.959	202.175	90.675	-66.946	0.00086423	0.00049674	0.00016532	1569.4	5.1033e-06	4.5507e-06	1557.7	425.14	4.946e-06	4.6083e-06	477.06	162.36	143.38	48.404	4.2587e-06	59.567	0.00039823	0.00030637	8.6511e-05	1587.9	3.6541e-06	3.4544e-06	1578.5	431.08	3.5603e-06	3.3896e-06	472.47	165.61	145.79	49.684	3.4102e-06	60.944	131.547	-28.266	-61.441	-125.159	-2.606	29.311	-125.665	-120.974	-52.314	10.659	-122.000	-116.889	-117.013	-111.824	-29.055	-112.721	-8191	255	
508.341	1	1	0	0	0.21692	0.10093	0.14844	0.25561	0.06018	0.079731	0.10106	0.25826	0.1821	0.10591	0.08739	0.2382	0.21368	0.24735	0.17609	0.33854	-2.5458	-3.4125	-2.9313	-3.3729	-3.4792	-3.1063	-3.4938	-3.3396	-3.1271	-3.2812	-3.0708	-3.4313	-3.3417	-2.9313	-3.2958	-3.2479	88.084	-98.886	-45.963	158.287	13.817	186.875	184.639	129.969	136.722	111.734	92.906	164.351	163.564	149.934	153.096	143.002	0.00092698	0.0005635	0.00016381	1576.6	5.7161e-06	4.7258e-06	1559.2	424.34	6.1108e-06	6.436e-06	483.41	162.58	142.86	48.546	5.1923e-06	59.433	0.0003984	0.00030861	9.0094e-05	1592.3	3.6516e-06	3.4968e-06	1579.9	431.25	3.6456e-06	3.4011e-06	475.4	165.77	145.9	49.665	3.5246e-06	60.954	131.765	-44.245	-48.105	-125.353	-15.663	25.393	-125.650	-121.009	-70.986	10.400	-121.481	-116.842	-116.880	-112.132	12.961	-112.474	-8191	255	
508.437	1	1	0	0	0.071905	0.17953	0.16497	0.16009	0.158	0.056208	0.35021	0.072819	0.27282	0.10253	0.15873	0.19823	0.14606	0.093799	0.11516	0.27695	-2.5104	-3.1708	-3.0979	-3.3979	-3.2687	-2.9375	-3.5479	-3.2625	-2.8812	-3.4833	-3.275	-3.0958	-3.3167	-3.1271	-3.1583	-3.25	-62.988	126.407	105.274	177.539	10.412	177.106	176.556	217.001	128.250	-27.676	-130.601	175.474	156.052	117.694	-33.715	126.477	0.00088898	0.0006396	0.00012772	1573.8	5.2613e-06	6.1258e-06	1553.5	425.41	6.6485e-06	7.1644e-06	483.54	162.58	143.08	48.539	4.0333e-06	59.281	0.0003973	0.00030992	8.8634e-05	1591.8	3.5898e-06	3.6059e-06	1579.4	431.73	3.7519e-06	3.3217e-06	473.39	165.97	146.05	49.675	3.5654e-06	60.891	129.059	-57.677	-44.755	-125.224	-7.736	19.694	-125.487	-120.962	-37.968	14.219	-121.422	-116.890	-116.963	-111.902	13.752	-112.630	-8191	255	
508.558	1	1	0	0	0.13473	0.21261	0.25039	0.11931	0.16326	0.12859	0.40276	0.38601	0.031609	0.17877	0.43021	0.26125	0.03729	0.31004	0.058677	0.29088	-2.6604	-3.1188	-3.0708	-3.2646	-3.1937	-3.1292	-3.3979	-3.4229	-3.0417	-3.2854	-3.1625	-3.2646	-3.3521	-3.1104	-3.1646	-3.4313	-12.944	-40.116	55.032	-40.521	57.348	132.300	129.118	202.157	182.194	214.267	174.691	174.080	-118.091	-93.644	-129.362	198.496	0.00085159	0.00057563	0.00016191	1576.6	3.4893e-06	3.8729e-06	1556.1	424.34	5.4171e-06	4.2179e-06	480.19	162.38	142.94	48.8	7.1913e-06	59.348	0.00039949	0.00031304	8.833e-05	1592.5	3.679e-06	3.4714e-06	1580.6	431.45	3.8052e-06	3.4397e-06	473.97	165.95	145.93	49.768	3.5989e-06	60.939	132.306	-61.265	-49.119	-125.291	-38.061	14.720	-125.542	-120.846	-46.090	27.620	-120.786	-116.952	-117.011	-111.821	-3.745	-112.638	-8191	255	
508.654	1	1	0	0	0.13522	0.13567	0.10009	0.2939	0.28607	0.13609	0.29269	0.27574	0.050499	0.11436	0.19358	0.089903	0.24421	0.36623	0.18342	0.1349	-2.6458	-3.4125	-3.2062	-3.4333	-3.2687	-3.0792	-3.3708	-3.4667	-3.1208	-3.0854	-3.3854	-3.1	-3.4458	-3.2292	-2.9208	-3.625	61.553	69.050	-85.757	177.364	-71.547	5.278	126.219	163.922	65.234	111.550	-5.613	212.490	-119.046	211.288	80.926	196.274	0.00090453	0.00067072	0.00019021	1575.2	5.7531e-06	5.6057e-06	1561.7	424.94	4.83e-06	7.0796e-06	474.68	162.63	143.54	48.503	5.8939e-06	59.478	0.00040165	0.00031286	9.1746e-05	1593.2	3.6763e-06	3.4992e-06	1583.9	431.95	3.7632e-06	3.3575e-06	473.09	166.09	146.16	49.638	3.5784e-06	60.938	132.705	-50.413	-56.651	-125.092	-29.963	14.050	-125.392	-121.026	-51.642	1.641	-121.179	-117.068	-116.755	-111.906	-8.844	-112.581	-8191	255	
508.750	1	1	0	0	0.19758	0.22279	0.076737	0.40517	0.11981	0.28152	0.26315	0.24274	0.16297	0.058222	0.11852	0.16701	0.20569	0.076264	0.22522	0.35176	-2.7583	-2.9896	-3.2438	-3.0646	-3.1771	-3.0354	-3.5104	-3.4104	-3.1104	-3.2667	-3.2729	-3.1437	-3.3604	-3.2812	-3.1042	-3.5062	-105.410	196.890	152.054	173.308	76.238	146.054	168.238	175.343	203.331	-61.561	60.585	156.822	202.088	-38.066	-109.562	211.135	0.00090248	0.00063072	0.00013534	1577.5	5.2875e-06	6.6764e-06	1556	425.98	9.0096e-06	4.907e-06	484.16	162.73	143.43	48.659	6.126e-06	59.65	0.00040847	0.00031095	8.9405e-05	1594.5	3.6142e-06	3.5839e-06	1581.5	431.5	3.8104e-06	3.5081e-06	473.74	165.74	146.06	49.722	3.6059e-06	61.084	128.647	-38.710	-52.483	-125.343	-45.690	1.291	-125.513	-120.968	-36.574	19.732	-120.569	-117.101	-117.008	-112.086	-16.438	-112.698	-8191	255	
508.846	1	1	0	0	0.14736	0.060235	0.10187	0.025483	0.11438	0.0053275	0.23147	0.15586	0.18804	0.21675	0.12662	0.29175	0.11526	0.043806	0.20151	0.11586	-2.4792	-3.1417	-3.1854	-3.0479	-3.4146	-3.0687	-3.275	-3.4188	-3.2604	-3.1437	-3.05	-3.2167	-3.2708	-3.3104	-3.2354	-3.5979	-128.695	48.741	202.364	181.042	13.223	-52.746	145.197	178.527	-95.869	144.306	158.661	116.318	173.362	12.723	150.990	-23.509	0.00090855	0.00067151	0.00015731	1578.6	3.3003e-06	5.8138e-06	1555.6	425.51	5.5967e-06	5.3765e-06	482.71	162.66	142.83	48.496	3.2781e-06	59.64	0.00040343	0.00031026	9.1183e-05	1593.9	3.4881e-06	3.5166e-06	1580.6	431.77	3.7979e-06	3.5025e-06	472.84	165.8	145.91	49.695	3.6244e-06	61.009	131.237	-30.717	-38.653	-125.196	-12.740	14.303	-125.468	-120.940	-55.366	12.068	-121.067	-116.962	-116.884	-111.769	-8.855	-112.763	-8191	255	
508.942	1	1	0	0	0.31254	0.14208	0.16836	0.44368	0.17087	0.23308	0.26642	0.2295	0.072973	0.23715	0.13686	0.15877	0.093872	0.20045	0.25285	0.098364	-2.5167	-3	-3.4437	-3.2083	-3.2979	-3.0229	-3.4333	-3.4396	-3.225	-2.9771	-3.275	-3.2875	-3.3479	-3.2938	-3.0708	-3.5812	140.946	91.594	32.140	210.473	-84.484	1.273	217.957	141.291	130.730	134.308	-22.634	-121.047	143.292	22.753	53.514	167.846	0.00092481	0.00044868	0.00013283	1575.3	3.9605e-06	5.1375e-06	1556.1	424.37	5.017e-06	4.9701e-06	481.41	163.26	142.93	48.767	4.8226e-06	59.58	0.00041171	0.00031908	8.8488e-05	1593.6	3.5961e-06	3.5371e-06	1583	431.73	3.6972e-06	3.4106e-06	473.57	166.05	145.9	49.743	3.5309e-06	60.963	130.771	-41.722	-42.163	-125.081	-16.428	12.427	-125.483	-121.073	-38.678	-10.179	-121.773	-116.917	-116.801	-111.927	0.762	-112.539	-8191	255	
509.039	1	1	0	0	0.24687	0.19346	0.29311	0.097743	0.25416	0.11696	0.43943	0.18383	0.1975	0.070971	0.14163	0.19884	0.27311	0.30552	0.15074	0.061581	-2.7	-2.8875	-3.3583	-3.25	-3.125	-3.2896	-3.2979	-3.3833	-3.2438	-3.1	-3.2458	-3.1854	-3.2062	-3.2417	-3.0021	-3.4417	-121.667	189.506	-123.121	175.502	125.651	-52.961	197.064	162.872	-49.567	5.868	-86.254	103.594	152.911	192.944	-104.068	97.747	0.00084452	0.00053085	0.00024385	1575.1	5.6228e-06	4.2657e-06	1556.3	424.88	5.0542e-06	6.8563e-06	481.97	162.65	143.46	48.451	6.7797e-06	59.6	0.0003947	0.00031665	8.6628e-05	1592.7	3.57e-06	3.4672e-06	1580.1	431.84	3.7263e-06	3.3462e-06	474.41	165.97	146.04	49.717	3.5983e-06	61.015	131.055	-64.396	-46.521	-125.121	-11.824	-5.469	-125.393	-120.879	-62.785	11.402	-120.632	-116.947	-116.599	-111.668	-15.354	-112.574	-8191	255	
509.135	1	1	0	0	0.24026	0.19569	0.18376	0.18995	0.23251	0.19859	0.36116	0.14695	0.15558	0.13247	0.26232	0.0030354	0.040548	0.19754	0.09829	0.14858	-2.6792	-3.0396	-3.0771	-3.1625	-3.1167	-3.2687	-3.3167	-3.5208	-3.1625	-3.1042	-3.3271	-3.2646	-2.9792	-3.3792	-3.125	-3.2667	179.842	-40.312	140.406	138.795	124.993	132.436	147.082	154.895	100.409	97.150	125.230	-84.545	95.201	-95.750	198.818	200.835	0.00090882	0.00089497	0.00019965	1574.8	6.4306e-06	6.4153e-06	1557.8	425.86	7.3704e-06	4.4243e-06	481.98	162.57	143.34	48.528	4.0466e-06	59.188	0.00040539	0.0003165	8.7114e-05	1591.2	3.5963e-06	3.3788e-06	1581.3	431.7	3.7413e-06	3.49e-06	472.93	165.95	146.04	49.678	3.6155e-06	60.854	130.271	-56.592	-19.667	-125.186	-16.547	8.797	-125.476	-120.863	-47.039	7.653	-121.773	-116.820	-116.957	-111.770	-24.115	-112.584	-8191	255	
509.254	1	1	0	0	0.045498	0.10899	0.069588	0.33851	0.15729	0.12719	0.26159	0.36444	0.070495	0.10362	0.18866	0.15535	0.098735	0.1383	0.028072	0.18855	-2.8729	-2.9688	-3.0583	-3.3271	-3.2062	-3.1083	-3.0833	-3.3396	-3.1604	-3.0479	-3.35	-3.1521	-3.2458	-3.4396	-2.9396	-3.3979	53.727	64.523	-100.990	185.585	-2.205	89.868	199.954	-83.927	211.061	102.872	-119.530	-25.535	-27.048	211.337	-104.178	182.487	0.00081087	0.00067001	0.00016844	1574.9	8.0024e-06	5.2469e-06	1558.2	424.92	6.1063e-06	4.0574e-06	478.19	162.38	143.11	48.622	4.7923e-06	59.313	0.00040169	0.00032609	8.8189e-05	1590.8	3.5816e-06	3.4926e-06	1582.2	431.92	3.7964e-06	3.372e-06	471.59	165.8	145.96	49.687	3.5788e-06	60.84	133.626	-52.816	-33.411	-125.118	-15.985	4.020	-125.460	-120.798	-43.928	17.280	-121.482	-116.905	-116.900	-111.755	-11.520	-112.478	-8191	255	
509.350	1	1	0	0	0.14199	0.071833	0.11803	0.22592	0.088276	0.16305	0.11288	0.3023	0.081306	0.30395	0.16508	0.19707	0.18384	0.12682	0.094105	0.14836	-2.7229	-2.9833	-3.3271	-3.25	-2.9083	-3.2188	-3.2521	-3.3917	-3.375	-2.9479	-3.3896	-3.4062	-2.9667	-3.4958	-3.0062	-3.2	66.639	117.124	109.790	204.225	98.173	-15.368	148.796	152.175	2.874	-5.324	138.785	165.154	215.468	154.370	-27.441	194.926	0.00085709	0.00061111	0.00015282	1569.5	1.3732e-06	4.4336e-06	1555.6	424.55	5.8977e-06	4.5467e-06	480.98	162.74	142.97	48.485	7.2737e-06	59.5	0.00039942	0.00031665	8.4627e-05	1590.4	3.5052e-06	3.3644e-06	1579.8	431.54	3.6299e-06	3.4447e-06	472.39	165.83	145.83	49.668	3.5278e-06	60.918	132.898	-51.727	-34.579	-125.179	-8.550	11.439	-125.498	-120.972	-51.321	15.018	-121.217	-116.909	-116.746	-111.795	-8.654	-112.727	-8191	255	
509.446	1	1	0	0	0.22489	0.096593	0.14238	0.19328	0.15923	0.21896	0.027374	0.36306	0.030857	0.07126	0.090287	0.066067	0.1773	0.28614	0.047963	0.15129	-2.9146	-2.9188	-3.1167	-3.3542	-2.8667	-3.3688	-3.3042	-3.1417	-3.3104	-3.0458	-3.1333	-3.4917	-3.1188	-3.6896	-3.2188	-3.3167	-74.883	-14.815	-106.686	193.821	-119.897	12.392	198.044	158.837	-110.359	57.250	67.951	192.923	-109.699	185.987	214.364	117.715	0.00086415	0.00058056	8.4432e-05	1578.2	4.963e-06	7.0821e-06	1562.5	424.33	7.4723e-06	6.4759e-06	478.9	162.45	143.47	48.685	6.327e-06	59.436	0.0003996	0.00032274	8.8001e-05	1593.3	3.6454e-06	3.3772e-06	1580.9	431.99	3.6815e-06	3.5577e-06	471.7	165.91	146.1	49.762	3.7591e-06	61.066	131.087	-38.777	-31.295	-125.201	-26.323	14.946	-125.388	-120.680	-65.778	10.294	-121.518	-116.851	-116.851	-111.906	-1.418	-112.784	-8191	255	
509.519	1	1	0	0	0.044861	0.09561	0.1576	0.15178	0.029601	0.11821	0.25571	0.1171	0.27135	0.17835	0.2734	0.14211	0.18816	0.060348	0.071125	0.065264	-3.1104	-2.9646	-3.2708	-3.3396	-3.0271	-3.4354	-3.2188	-3.3812	-3.3333	-3.0687	-3.1208	-3.2521	-3.2062	-3.2938	-2.9854	-3.1833	-134.444	-77.444	-19.364	-95.011	-92.363	-73.322	127.500	167.092	146.800	146.991	100.880	-85.311	47.698	68.400	82.418	206.083	0.00088446	0.00057352	0.00013081	1577.4	2.3389e-06	5.7548e-06	1561.7	425.61	5.6917e-06	4.254e-06	479.39	163.45	143.41	48.555	6.7931e-06	59.261	0.00040569	0.00032143	9.0864e-05	1597.2	3.6006e-06	3.4494e-06	1585.8	432.09	3.8391e-06	3.5185e-06	473.05	166.02	146.17	49.694	3.7291e-06	60.886	131.654	-61.265	-36.617	-125.176	-38.676	45.975	-125.516	-120.987	-44.019	3.946	-120.631	-117.036	-116.979	-111.835	6.219	-112.549	-8191	255	
509.638	1	1	0	0	0.26708	0.10712	0.13212	0.12011	0.11843	0.16303	0.29013	0.092975	0.15663	0.16624	0.17662	0.02251	0.37816	0.09641	0.2245	0.22707	-2.6229	-2.9167	-3.0563	-3.3312	-2.8396	-3.3458	-3.3187	-3.2125	-3.2479	-3.0833	-3.0438	-3.1854	-2.9813	-3.4458	-2.9917	-3.0187	124.990	108.461	21.230	99.077	-47.126	218.713	163.623	187.473	-131.486	132.887	181.475	107.963	119.693	128.728	83.528	217.187	0.00089829	0.00058735	0.00020004	1576.2	5.9736e-06	4.5549e-06	1560.8	426.31	6.2929e-06	6.0154e-06	485.42	163.1	143.85	48.546	7.8771e-06	59.538	0.00040272	0.00033001	8.8518e-05	1592.9	3.5967e-06	3.3898e-06	1584.1	431.98	3.594e-06	3.5817e-06	473.5	166.21	146.19	49.746	3.6462e-06	61.017	134.385	-51.945	-34.917	-125.206	-26.179	1.469	-125.594	-120.725	-73.663	-2.588	-121.114	-116.726	-117.263	-111.857	-0.684	-112.580	-8191	255	
509.734	1	1	0	0	0.16178	0.15805	0.10308	0.48245	0.083255	0.15219	0.30481	0.076847	0.13483	0.037517	0.15135	0.094421	0.022023	0.16316	0.21021	0.15436	-2.7521	-3.1021	-3.0646	-3.5583	-3.1312	-3.0146	-3.5604	-3.1771	-3.1854	-2.9437	-3.0271	-3.4167	-3.0792	-3.0812	-3.2521	-3.0083	162.296	204.941	118.442	167.455	-18.278	127.685	168.385	189.338	151.403	117.283	-113.108	121.920	7.732	-133.509	130.135	120.433	0.0008111	0.00066082	0.00015385	1576.9	3.373e-06	5.1723e-06	1559.3	425.78	6.9798e-06	3.945e-06	477.39	162.57	143.57	48.664	2.9828e-06	59.495	0.00039158	0.00032586	8.8908e-05	1593.8	3.6698e-06	3.3504e-06	1580.6	432.03	3.5269e-06	3.4202e-06	472.5	166	146.05	49.787	3.4886e-06	61.021	126.941	-49.434	-28.842	-125.240	-4.951	16.708	-125.480	-120.801	-60.692	14.443	-121.057	-116.987	-116.775	-111.734	21.197	-112.592	-8191	255	
509.831	1	1	0	0	0.057383	0.1638	0.27528	0.26135	0.061761	0.10966	0.20817	0.36795	0.29471	0.14471	0.24138	0.10546	0.068579	0.073546	0.19091	0.18225	-2.6896	-2.9979	-3.15	-3.3875	-3.0354	-3.0208	-3.4667	-3.1667	-3.2	-3.1354	-2.85	-3.5042	-3.2083	-3.025	-3.35	-2.9396	149.495	-72.809	-86.267	141.192	169.475	197.344	-125.326	140.696	182.839	-79.924	-77.494	107.148	100.736	203.002	103.342	79.548	0.00082963	0.00073538	0.00020027	1574.9	4.4064e-06	5.4763e-06	1559.4	424.34	6.7753e-06	4.5842e-06	482.22	162.94	143.85	48.569	5.3827e-06	59.441	0.0003817	0.00031213	8.3091e-05	1589.6	3.4526e-06	3.2803e-06	1580	431.28	3.455e-06	3.3876e-06	471.95	165.82	146.01	49.683	3.4389e-06	61.023	130.074	-54.837	-55.250	-125.104	2.112	11.857	-125.320	-120.838	-42.178	-6.328	-121.252	-117.057	-116.980	-111.801	-15.034	-112.698	-8191	255	
509.927	1	1	0	0	0.125	0.22508	0.061067	0.2407	0.25485	0.18068	0.10789	0.14465	0.15757	0.31173	0.16972	0.24531	0.38989	0.17732	0.12096	0.211	-2.6875	-3.1042	-2.8604	-3.4646	-3.1146	-3.0979	-3.7396	-3.2667	-3.2167	-3.2042	-2.9708	-3.4042	-3.1875	-3.3354	-3.3979	-3.0708	74.876	-58.520	129.893	106.020	220.739	-38.973	207.216	164.910	-94.800	183.079	-67.560	138.920	-64.704	158.555	206.416	154.034	0.00084884	0.00061802	0.00020692	1573.2	4.7687e-06	4.1884e-06	1560.1	424.14	7.3035e-06	4.3245e-06	479.73	162.51	143.33	48.514	6.6813e-06	59.254	0.00038664	0.00030919	8.7667e-05	1591.7	3.5906e-06	3.3824e-06	1580	430.67	3.474e-06	3.3882e-06	473.87	165.67	145.93	49.725	3.4823e-06	60.832	129.494	-51.161	-20.478	-125.114	-7.414	16.780	-125.584	-120.896	-71.852	8.126	-121.287	-117.130	-117.087	-111.915	-13.200	-112.546	-8191	255	
510.046	1	1	0	0	0.0069573	0.13398	0.0085322	0.0687	0.13167	0.077108	0.22107	0.15492	0.24853	0.18511	0.20022	0.30764	0.12113	0.14806	0.16238	0.094486	-2.7833	-3.3792	-3.0396	-3.5375	-2.9458	-3.0271	-3.6271	-3.2729	-3.1583	-3.2646	-3.0729	-3.3271	-3.3812	-3.0146	-3.4229	-3.0958	-91.802	171.918	48.402	210.237	-36.277	204.620	131.696	147.503	67.645	-88.196	210.179	196.416	-64.867	-122.677	-98.987	216.279	0.0008735	0.00068483	0.00012643	1575	5.5279e-06	5.5461e-06	1554.2	424.99	5.8526e-06	5.1007e-06	477.56	162.8	143.75	48.349	5.7886e-06	59.311	0.00038734	0.00031161	8.7631e-05	1590.4	3.7778e-06	3.4746e-06	1578.5	431.12	3.6057e-06	3.6116e-06	472.91	166.02	146.18	49.587	3.7236e-06	61.044	130.171	-47.554	-41.225	-125.226	10.412	15.311	-125.372	-121.088	-43.594	2.206	-121.212	-116.974	-116.867	-111.693	-9.211	-112.606	-8191	255	
510.119	1	1	0	0	0.23008	0.045683	0.12828	0.1559	0.17258	0.22743	0.50294	0.37158	0.11732	0.14332	0.064468	0.36918	0.28451	0.056823	0.10811	0.23997	-2.6604	-3.2208	-2.9646	-3.5458	-3.0896	-2.9813	-3.3312	-3.2729	-3.1583	-3.3083	-2.85	-3.4729	-3.4479	-3.1312	-3.5312	-3.2042	26.487	-90.352	126.884	193.882	92.211	117.143	165.980	168.980	196.036	32.838	-14.460	168.009	166.981	34.776	2.805	186.234	0.0008925	0.00054128	0.00020099	1576.1	6.0003e-06	4.2684e-06	1559.9	425.55	4.7306e-06	3.609e-06	480.29	162.04	143.33	48.532	3.8648e-06	59.421	0.00039899	0.00033302	9.2475e-05	1594.2	3.8141e-06	3.5277e-06	1582.1	431.77	3.5908e-06	3.4771e-06	471.69	165.51	145.81	49.696	3.4818e-06	60.861	130.559	-62.006	-25.673	-125.165	-21.257	-6.881	-125.618	-120.978	-61.791	22.431	-121.667	-116.970	-116.898	-111.914	-0.261	-112.740	-8191	255	
510.240	1	1	0	0	0.31686	0.099088	0.11889	0.31426	0.10993	0.26394	0.2949	0.10403	0.10808	0.34558	0.32943	0.25694	0.11733	0.1554	0.050138	0.054352	-2.7417	-3.4167	-3.0375	-3.3812	-3.2042	-3.0104	-3.4896	-3.4042	-2.9854	-3.4688	-3.1625	-3.2833	-3.2333	-3.1562	-3.3521	-3.0896	219.246	125.443	13.924	210.109	-32.721	77.003	176.352	82.190	76.181	33.914	158.325	189.397	-96.161	115.672	-83.237	122.932	0.00086021	0.00064543	0.00013881	1575.3	8.629e-06	4.3943e-06	1558	425.45	7.5386e-06	4.2338e-06	482.6	163.02	143.03	48.575	4.8642e-06	59.49	0.00039713	0.0003187	8.9161e-05	1593.4	3.6399e-06	3.5166e-06	1580	431.55	3.8242e-06	3.5189e-06	473.34	166.16	145.79	49.773	3.7994e-06	60.995	128.870	-59.722	-51.178	-125.217	-24.256	-4.235	-125.344	-120.926	-39.655	9.445	-121.189	-117.070	-116.828	-111.840	-0.854	-112.574	-8191	255	
510.334	1	1	0	0	0.16561	0.23809	0.093013	0.17187	0.028493	0.054645	0.08873	0.30277	0.19583	0.13177	0.091733	0.043022	0.10411	0.18981	0.054156	0.16919	-2.6604	-3.1521	-2.7375	-3.5229	-3.1312	-3.2125	-3.4938	-3.2375	-3	-3.2729	-3.0646	-3.2292	-3.1625	-3.0812	-3.4083	-3.4396	37.000	86.946	-62.052	194.654	31.551	189.635	186.416	-132.836	33.853	192.767	-10.103	74.829	102.806	-130.585	169.606	181.186	0.00084731	0.00051137	0.00017748	1577.6	3.2421e-06	7.0505e-06	1558.6	425.71	6.5509e-06	3.8712e-06	477.34	161.98	143.59	48.528	4.9088e-06	59.576	0.00041338	0.00034024	9.4938e-05	1597.4	3.9478e-06	3.8372e-06	1583.9	432.34	3.9051e-06	3.7081e-06	474.61	166.13	146.11	49.74	3.672e-06	60.93	130.394	-56.966	-37.271	-125.226	-39.495	-1.503	-125.414	-121.034	-42.631	25.147	-121.304	-117.036	-116.994	-111.801	-12.237	-112.781	-8191	255	
510.430	1	1	0	0	0.19795	0.22786	0.17207	0.29452	0.14606	0.073926	0.39126	0.14864	0.12182	0.25334	0.29038	0.064902	0.056653	0.36993	0.11992	0.12968	-2.6208	-3.2271	-3.0854	-3.2021	-3.1833	-2.8875	-3.3042	-3.275	-2.8167	-3.3187	-3.1875	-3.0958	-3.3771	-3.0042	-3.1562	-3.3646	-68.685	29.905	172.162	192.599	-47.956	71.826	162.959	155.854	3.152	190.256	26.707	177.821	93.049	212.076	-128.722	207.344	0.00084359	0.00058897	0.0001101	1578.1	4.385e-06	5.9992e-06	1563.1	425.66	5.5343e-06	5.7387e-06	476.17	162.59	143.51	48.411	5.6121e-06	59.585	0.00041503	0.0003346	9.584e-05	1596.2	3.8239e-06	3.8028e-06	1585.7	432.53	3.9954e-06	3.7357e-06	474.33	165.99	146.22	49.696	3.8951e-06	60.951	128.093	-29.748	-57.414	-125.181	-42.983	24.509	-125.542	-120.924	-64.432	23.358	-121.562	-117.173	-116.902	-111.770	-10.307	-112.921	-8191	255	
510.526	1	1	0	0	0.040975	0.13984	0.37758	0.29017	0.14356	0.18672	0.23248	0.27096	0.15408	0.26341	0.1262	0.27196	0.37419	0.42478	0.24332	0.23494	-2.5938	-3.2146	-3.0938	-3.5	-3.2417	-3.1729	-3.3688	-3.4229	-2.8167	-3.2854	-3.2396	-3.2687	-3.5	-3.0312	-3.3708	-3.3208	-118.481	-80.181	115.477	172.954	157.960	-72.555	151.148	117.498	109.288	-118.238	36.809	206.165	126.720	-84.801	141.121	133.301	0.00089346	0.00085502	0.00010725	1578.3	3.8976e-06	5.6525e-06	1565.9	426.11	4.4539e-06	4.7822e-06	488.02	162.41	143.54	48.551	5.6877e-06	59.683	0.00042153	0.00035072	9.9655e-05	1598.6	3.9221e-06	3.7655e-06	1587.5	432.65	4.0088e-06	3.7094e-06	476.53	165.92	145.98	49.741	3.8029e-06	61.092	130.776	-50.665	-48.722	-125.156	-2.101	-4.267	-125.535	-120.898	-52.083	24.930	-121.136	-116.954	-117.088	-111.904	-26.372	-112.632	-8191	255	
510.647	1	1	0	0	0.26134	0.053619	0.12241	0.16375	0.052896	0.20949	0.24674	0.31307	0.27956	0.19183	0.20484	0.057431	0.14103	0.17545	0.13262	0.041023	-2.4417	-3.1562	-3.2292	-3.3146	-3.4167	-3.1	-3.2729	-3.5	-3.0687	-3.3229	-3.2417	-3.1813	-3.4	-3.1688	-3.1667	-3.4271	199.471	9.750	-134.815	-138.709	185.909	-19.096	99.952	179.791	120.893	-94.886	78.787	106.862	151.575	78.559	181.808	193.479	0.0008711	0.00064443	0.00010958	1582.1	4.1745e-06	7.4081e-06	1568.9	426.85	6.6308e-06	4.7019e-06	484.18	163	144.05	48.673	4.1463e-06	59.287	0.00042827	0.00033563	9.8849e-05	1600.9	3.9131e-06	3.8622e-06	1590.2	433.28	4.0729e-06	3.6593e-06	476.3	166.12	146.27	49.771	3.7981e-06	60.932	130.463	-49.979	-48.838	-125.148	2.921	31.542	-125.473	-121.109	-82.534	0.433	-121.235	-116.918	-116.888	-111.917	-16.137	-112.674	-8191	255	
510.743	1	1	0	0	0.14689	0.20391	0.32443	0.25436	0.12895	0.27894	0.24716	0.20853	0.091981	0.1826	0.25013	0.15757	0.067444	0.21251	0.15406	0.29241	-2.3375	-3.2333	-3.0667	-3.1104	-3.2062	-3.1063	-3.3187	-3.4375	-3.0167	-3.2521	-3.2396	-3.1021	-3.3083	-3.1458	-3.3604	-3.3854	-78.134	-106.883	-41.025	205.324	4.303	172.440	135.815	139.062	107.661	-37.360	71.203	-81.256	-122.099	185.061	111.503	-125.862	0.00083886	0.00051173	0.00013298	1580.1	3.9354e-06	5.3115e-06	1566.5	427.25	6.6299e-06	8.5047e-06	477.7	162.97	143.98	48.347	5.7389e-06	59.336	0.00042736	0.00033704	9.6498e-05	1598.1	3.7304e-06	3.7685e-06	1587.9	433.2	3.9766e-06	3.6082e-06	474.32	166.07	146.21	49.65	3.7061e-06	61.044	131.637	-39.159	-28.779	-125.173	-26.677	14.852	-125.442	-121.091	-50.730	8.917	-121.886	-117.037	-116.875	-111.816	-32.728	-112.420	-8191	255	
510.815	1	1	0	0	0.27933	0.1509	0.21728	0.16226	0.23253	0.39058	0.20931	0.30725	0.014665	0.075512	0.16663	0.063642	0.16762	0.20152	0.17925	0.11009	-2.5417	-3.2188	-3.0083	-3.0875	-3.1937	-2.9062	-3.425	-3.3604	-2.9604	-3.1479	-3.375	-2.9979	-3.3312	-3.4104	-2.7896	-3.3812	21.966	149.901	173.653	181.188	115.401	66.346	129.383	-119.791	-133.287	-134.910	111.106	-53.483	-76.554	217.428	58.709	27.529	0.00083543	0.00052758	0.00019448	1578.7	3.2691e-06	5.2996e-06	1567.1	426.39	6.0748e-06	6.0828e-06	479.49	162.5	143.58	48.809	4.9302e-06	59.764	0.00041584	0.00033088	9.3038e-05	1600.7	3.7796e-06	3.773e-06	1588.8	433.24	4.0539e-06	3.5877e-06	474.9	166.11	146.26	49.795	3.8105e-06	61.134	130.483	-54.268	-23.126	-125.043	-51.832	29.052	-125.538	-121.025	-44.283	-4.743	-121.485	-116.884	-116.871	-112.028	-4.746	-112.446	-8191	255	
510.935	1	1	0	0	0.11463	0.16221	0.032422	0.38162	0.22679	0.25273	0.12027	0.3466	0.15029	0.18207	0.26395	0.012505	0.26793	0.41305	0.26124	0.28999	-2.7417	-2.9938	-3.125	-3.2458	-3.0625	-3.3208	-3.0708	-3.5	-2.9771	-3.1833	-3.2375	-3.2708	-3.1708	-3.1542	-3.0417	-3.2146	164.786	178.263	-67.297	198.665	-66.372	28.966	129.649	204.900	6.803	161.374	-78.100	-24.276	-117.977	205.047	-100.558	-121.556	0.00091393	0.0007959	0.00014559	1585.5	5.5709e-06	6.2138e-06	1563.1	428.35	7.0665e-06	6.1919e-06	478.24	162.87	144.01	48.73	7.0162e-06	59.5	0.00041581	0.00034223	9.5728e-05	1601.4	3.7584e-06	3.7147e-06	1589	433.4	3.9699e-06	3.6155e-06	473.55	166.29	146.48	49.827	3.7772e-06	61.013	130.246	-51.359	-46.398	-125.224	-6.122	14.130	-125.452	-120.937	-68.154	7.887	-121.398	-116.908	-116.956	-111.698	5.489	-112.567	-8191	255	
511.032	1	1	0	0	0.049178	0.080978	0.21795	0.21566	0.21848	0.10321	0.32179	0.1724	0.26013	0.11402	0.10163	0.23014	0.013434	0.16501	0.18245	0.070895	-2.8438	-3.1083	-3.4354	-2.9688	-3.2687	-3.1	-3.2125	-3.3333	-3.0979	-2.9375	-3.2917	-3.1354	-3.3125	-3.3333	-2.9083	-3.3	-110.331	-85.145	220.584	200.587	188.842	-54.335	207.433	171.117	33.117	-79.478	-18.504	139.266	-96.684	156.162	166.359	103.489	0.00086668	0.00086469	0.0001326	1587.6	4.7956e-06	6.075e-06	1565.5	427.52	3.6219e-06	6.6177e-06	483.05	162.94	143.58	48.608	7.0556e-06	59.579	0.00041652	0.00032401	9.2141e-05	1602.1	3.6723e-06	3.6877e-06	1586.8	433.47	3.9912e-06	3.5535e-06	474.59	166.11	146.44	49.8	3.7513e-06	61.042	128.822	-54.196	-29.874	-125.261	-8.888	-3.820	-125.688	-120.885	-64.257	6.822	-121.922	-116.976	-117.027	-111.893	-24.375	-112.603	-8191	255	
511.126	1	1	0	0	0.16528	0.21959	0.13694	0.37383	0.23346	0.10935	0.16179	0.3725	0.032561	0.16856	0.37194	0.28892	0.27063	0.30398	0.079672	0.23351	-2.7854	-2.9958	-3.3271	-3.0708	-3.275	-3.3583	-3.2438	-3.5771	-3.0312	-3.0167	-3.3604	-3.2042	-3.4562	-3.2646	-3.1042	-3.2708	188.576	200.775	-57.394	158.718	10.086	194.613	145.991	174.286	-43.555	63.854	-93.222	155.198	178.081	195.152	-89.294	133.339	0.00083343	0.00068553	0.00017877	1584.8	3.6175e-06	6.3654e-06	1559.6	426	7.8079e-06	5.339e-06	486.15	162.28	143.76	48.52	5.1964e-06	59.507	0.00041203	0.00032511	8.983e-05	1599.6	3.6443e-06	3.5423e-06	1585.7	433.36	3.8631e-06	3.5503e-06	474.14	166.09	146.38	49.852	3.7277e-06	61.15	130.535	-71.866	-33.840	-125.220	-20.304	23.868	-125.540	-120.988	-48.933	-0.078	-121.203	-116.872	-117.096	-111.806	7.480	-112.653	-8191	255	
511.222	1	1	0	0	0.076642	0.17404	0.13386	0.36835	0.18503	0.073971	0.16897	0.14779	0.10163	0.13787	0.16248	0.20151	0.11135	0.2111	0.028026	0.16969	-2.7396	-3.0854	-3.0854	-3.3125	-3.0792	-3.2417	-3.3292	-3.2979	-3.1271	-3.0854	-3.2667	-3.3479	-3.1312	-3.4104	-3.025	-3.3979	-136.670	-131.640	213.450	190.984	-114.093	145.683	95.522	136.258	84.143	-63.299	141.229	214.391	185.077	208.349	-123.013	174.104	0.0009272	0.00059485	0.0001894	1583.7	5.0175e-06	4.4934e-06	1562.2	427	6.4685e-06	5.8234e-06	484.65	162.98	143.8	48.494	4.5276e-06	59.57	0.0004265	0.0003353	9.3828e-05	1600.6	3.82e-06	3.6997e-06	1587.2	433.74	3.92e-06	3.5885e-06	477.79	166.47	146.38	49.809	3.7659e-06	61.145	133.981	-44.522	-28.104	-125.057	-29.686	5.347	-125.473	-120.905	-50.755	5.034	-120.362	-117.202	-116.822	-111.845	-33.508	-112.615	-8191	255	
511.343	1	1	0	0	0.26164	0.10303	0.33329	0.26233	0.27263	0.033423	0.33332	0.05839	0.11467	0.11678	0.15767	0.21471	0.24542	0.2865	0.23843	0.077699	-2.8187	-3.0979	-3.2979	-3.2917	-3.0833	-3.3187	-3.4292	-3.4417	-3.0646	-3.0667	-3.1083	-3.45	-3.05	-3.475	-2.9083	-3.3604	121.287	216.177	189.953	151.724	159.344	50.927	159.079	-70.414	-88.578	93.976	86.963	165.632	177.073	-119.230	109.837	137.729	0.00087079	0.00050938	0.00023257	1582.5	4.4248e-06	2.7986e-06	1562.1	426.8	6.5285e-06	5.2555e-06	487.38	162.37	142.93	48.594	3.6937e-06	59.4	0.00041558	0.00033177	9.0621e-05	1598.7	3.7537e-06	3.5154e-06	1586.2	432.86	3.7559e-06	3.5008e-06	474.42	165.91	145.97	49.785	3.7226e-06	60.992	133.563	-46.494	-48.301	-125.248	-3.232	26.861	-125.359	-121.025	-65.953	14.410	-120.923	-116.895	-117.091	-111.963	-39.715	-112.757	-8191	255	
511.414	1	1	0	0	0.13587	0.24509	0.065196	0.22593	0.19054	0.17629	0.20489	0.42072	0.25056	0.20791	0.24056	0.18214	0.019812	0.11487	0.19425	0.30491	-2.8917	-2.8896	-3.3063	-3.2771	-3.0792	-3.3063	-3.2646	-3.4229	-3.4833	-2.9417	-3.2917	-3.2313	-3.1354	-3.5208	-3.1333	-3.2625	-37.768	206.762	-28.222	151.324	124.651	96.974	176.500	169.145	-35.643	-22.140	34.888	-131.653	-106.625	171.519	-111.832	156.370	0.00082123	0.00070411	0.00012821	1582.4	3.821e-06	5.698e-06	1558.7	425.22	6.2293e-06	3.654e-06	477.94	162.86	143.27	48.647	4.9244e-06	59.493	0.00040306	0.00031565	8.8979e-05	1596.5	3.5973e-06	3.3974e-06	1583	432.19	3.6872e-06	3.4411e-06	471.16	166.19	145.95	49.736	3.4907e-06	61.008	126.412	-31.754	-33.170	-125.090	-16.665	-7.079	-125.420	-120.896	-58.835	32.252	-121.533	-116.886	-116.954	-111.600	4.953	-112.555	-8191	255	
511.511	1	1	0	0	0.23176	0.1967	0.047567	0.21626	0.11511	0.10578	0.12358	0.35156	0.042814	0.23452	0.27227	0.11304	0.14787	0.093021	0.067336	0.11033	-2.7083	-3.0458	-3.3833	-3.2104	-2.875	-3.3937	-3.2854	-3.3229	-3.4625	-3.1521	-3.2875	-3.3771	-3.1333	-3.4938	-3.2083	-3.2479	148.340	27.432	182.401	207.226	135.669	183.283	130.512	131.632	-64.559	121.416	75.356	135.743	105.789	178.645	-112.745	208.277	0.00085337	0.00033323	0.00016936	1578.3	4.9529e-06	4.0901e-06	1556.5	425.65	8.199e-06	4.2376e-06	474.34	162.67	144.06	48.485	4.2638e-06	59.314	0.00040206	0.0003111	8.5701e-05	1594.7	3.5793e-06	3.2397e-06	1580.1	431.96	3.59e-06	3.3277e-06	472.51	165.95	146.3	49.734	3.5246e-06	60.945	130.683	-26.928	-36.637	-125.111	-32.565	-14.434	-125.399	-120.905	-49.228	-20.666	-121.021	-117.082	-116.960	-111.872	-26.864	-112.637	-8191	255	
511.607	1	1	0	0	0.25224	0.021306	0.093663	0.20288	0.18177	0.040284	0.47672	0.29572	0.18604	0.08481	0.2329	0.078782	0.23442	0.2926	0.049174	0.23942	-2.9271	-3.0604	-3.1646	-3.4729	-3.0604	-3.3521	-3.3708	-3.4167	-3.3271	-3.2646	-3.2	-3.3417	-3.1417	-3.3625	-3.3021	-3.2396	-82.167	-135.902	-32.931	164.552	138.770	30.784	137.563	165.108	68.555	69.665	129.208	-5.467	116.378	215.831	90.548	125.002	0.00089865	0.00059394	0.00015677	1573.1	5.9424e-06	3.6514e-06	1553.2	425.51	6.3822e-06	3.7995e-06	478.67	163.07	143.06	48.582	4.6017e-06	59.365	0.00039315	0.00031195	8.6375e-05	1590.5	3.6113e-06	3.2455e-06	1578.3	431.8	3.5862e-06	3.3504e-06	471.5	165.93	145.99	49.759	3.532e-06	60.94	130.067	-55.740	-52.250	-125.137	-37.590	1.610	-125.574	-120.783	-39.545	8.583	-120.920	-116.664	-117.023	-111.695	-1.692	-112.669	-8191	255	
511.727	1	1	0	0	0.093369	0.2708	0.25145	0.27633	0.17872	0.18245	0.18731	0.19677	0.15515	0.17972	0.20308	0.35196	0.11538	0.28759	0.19793	0.41469	-2.8792	-3.1583	-3.1271	-3.3896	-2.9146	-3.3854	-3.2792	-3.1729	-3.4062	-2.9938	-3.1167	-3.5042	-3.2375	-3.4854	-3.1667	-3.1417	166.555	32.133	216.612	214.608	18.478	-73.204	166.520	172.726	-107.070	143.951	86.514	179.711	204.302	141.959	61.756	120.209	0.00084711	0.00062972	0.00018599	1571.2	5.2657e-06	4.2809e-06	1550.8	424.24	5.3763e-06	5.3595e-06	476.61	162.7	142.98	48.739	4.1643e-06	59.524	0.00039453	0.00030658	8.5964e-05	1590	3.4758e-06	3.1309e-06	1576	430.95	3.4613e-06	3.3364e-06	471.55	165.83	145.82	49.761	3.4849e-06	60.972	131.108	-60.839	-43.526	-125.145	-10.470	17.367	-125.637	-120.840	-45.814	36.868	-121.635	-117.038	-117.030	-111.917	-19.938	-112.735	-8191	255	
511.823	1	1	0	0	0.22604	0.2797	0.10893	0.49025	0.031186	0.19787	0.26627	0.21648	0.17025	0.02072	0.20362	0.15835	0.0765	0.23293	0.14074	0.21294	-2.9938	-3.0458	-3.0542	-3.6458	-2.7146	-3.3021	-3.525	-3.1979	-3.2812	-3.0875	-2.8104	-3.5833	-3.0312	-3.3292	-3.2479	-3.1312	203.267	79.804	-89.528	166.117	-23.031	72.715	145.450	198.908	-90.260	22.938	48.645	173.781	-127.066	94.468	213.453	166.639	0.00082285	0.00042185	0.00014807	1570.4	4.9093e-06	4.6973e-06	1552.1	423.41	6.0258e-06	5.4482e-06	476.23	162.29	143.05	48.456	6.0858e-06	59.123	0.00038188	0.0003072	8.3248e-05	1586.6	3.4603e-06	3.2501e-06	1576.5	430.22	3.3996e-06	3.3488e-06	469.66	165.35	145.66	49.674	3.3338e-06	60.777	127.567	-44.487	-14.045	-125.181	0.265	-2.430	-125.392	-120.625	-53.990	-3.171	-120.509	-116.850	-117.221	-111.662	-22.566	-112.476	-8191	255	
511.920	1	1	0	0	0.22536	0.11554	0.26098	0.16116	0.16105	0.25447	0.36632	0.39363	0.057493	0.14436	0.065332	0.24422	0.089242	0.052005	0.16722	0.12679	-2.7146	-2.9854	-2.8812	-3.4479	-3.0354	-3.2104	-3.45	-3.3771	-3.3521	-3.2375	-3.0542	-3.4396	-3.1188	-3.3208	-3.3625	-3.0687	-38.849	87.557	100.100	-136.497	-40.853	94.678	192.932	188.510	76.852	42.531	58.960	150.015	174.835	16.585	-55.656	150.422	0.00089338	0.00046319	0.00016137	1565.7	6.6087e-06	6.6413e-06	1549.4	424.02	5.6254e-06	5.5848e-06	481.62	162	143.21	48.305	3.6513e-06	59.369	0.00037016	0.00029634	8.3279e-05	1582.9	3.3651e-06	3.0124e-06	1570.7	429.99	3.4055e-06	3.272e-06	469.93	165.56	145.74	49.497	3.3212e-06	60.846	129.987	-69.878	-39.761	-125.130	-20.760	8.574	-125.205	-120.859	-56.024	22.990	-121.284	-116.803	-116.900	-111.878	-3.693	-112.479	-8191	255	
512.040	1	1	0	0	0.22444	0.031598	0.26407	0.23198	0.20473	0.16313	0.23673	0.22188	0.26441	0.20947	0.084279	0.20837	0.18115	0.33587	0.14365	0.20028	-2.8542	-3.4188	-2.9458	-3.5833	-3.1792	-3.0792	-3.6458	-3.0875	-3.4125	-3.1479	-2.9604	-3.4979	-3.3875	-3.05	-3.5792	-3.275	-109.602	-37.534	131.332	151.514	-3.659	-129.584	201.932	151.846	-63.048	-133.498	144.429	-119.232	152.118	168.530	-128.653	173.384	0.00089043	0.00060781	0.00017055	1565.5	5.4198e-06	4.3499e-06	1545.7	423.54	6.7207e-06	5.6624e-06	481.4	162.37	142.4	48.545	5.6818e-06	59.319	0.00037185	0.00029337	8.3411e-05	1581.7	3.4152e-06	3.1423e-06	1571	429.63	3.3508e-06	3.1695e-06	471.86	165.32	145.44	49.714	3.2966e-06	60.835	129.146	-54.482	-36.971	-125.187	-13.254	14.228	-125.446	-120.742	-47.451	29.140	-120.992	-116.893	-117.005	-111.794	-7.603	-112.541	-8191	255	
512.112	1	1	0	0	0.092572	0.12855	0.35804	0.17775	0.22627	0.074882	0.33986	0.33351	0.28774	0.317	0.067594	0.15781	0.059784	0.13848	0.18814	0.17324	-2.8792	-3.0417	-3.1458	-3.4083	-3.1729	-3.2771	-3.5479	-3.2604	-3.0729	-3.1792	-2.8292	-3.2062	-3.2917	-3.1333	-3.225	-3.3333	-74.770	80.843	-21.537	181.559	57.621	-19.017	122.959	141.448	-46.226	-113.853	-112.981	136.462	153.368	-5.782	-123.766	-5.023	0.00083294	0.00061658	0.00012063	1562.3	5.7351e-06	3.2635e-06	1546.8	424.07	7.5398e-06	4.5789e-06	485.64	161.64	143.2	48.338	7.7716e-06	59.025	0.0003772	0.00030004	8.2093e-05	1581.9	3.4428e-06	3.1773e-06	1569.5	430.18	3.3919e-06	3.1727e-06	471.65	165.35	145.38	49.607	3.2081e-06	60.806	128.576	-40.421	-29.241	-125.070	-20.675	11.441	-125.522	-120.909	-61.654	2.048	-121.264	-117.000	-116.753	-111.811	-10.707	-112.546	-8191	255	
512.208	1	1	0	0	0.19098	0.12415	0.15355	0.36241	0.14344	0.24086	0.18932	0.24424	0.34845	0.2231	0.067492	0.22575	0.29606	0.24775	0.18787	0.031369	-2.6729	-3.3812	-3.1375	-3.3771	-3.1479	-2.9146	-3.5229	-3.3521	-3.0938	-3.2667	-3.0521	-3.3958	-3.3354	-3.2458	-3.2146	-3.4417	172.130	208.189	-84.326	171.411	-132.887	45.519	133.149	162.418	185.059	48.812	43.608	141.359	210.480	176.162	39.817	132.368	0.00087745	0.00074424	0.00011802	1562.6	4.342e-06	5.7933e-06	1547	423.51	7.4219e-06	6.1245e-06	475.11	161.66	142.78	48.53	5.7291e-06	59.363	0.00037564	0.00029153	8.0963e-05	1580.7	3.383e-06	3.1557e-06	1569.8	429.94	3.3798e-06	3.0828e-06	468.35	165.12	145.25	49.61	3.2614e-06	60.761	129.367	-52.432	-47.650	-125.077	-36.255	24.302	-125.399	-120.742	-67.184	21.657	-121.561	-116.828	-116.880	-111.672	-21.283	-112.726	-8191	255	
512.327	1	1	0	0	0.12475	0.088928	0.31836	0.15229	0.21433	0.02001	0.22	0.048893	0.36175	0.046491	0.13252	0.10598	0.12907	0.087523	0.25291	0.18657	-2.7083	-3.3854	-3.1667	-3.1562	-3.2083	-3.0375	-3.4375	-3.3937	-2.9813	-3.3146	-3.0583	-3.3708	-3.6167	-3.1833	-3.4521	-3.1188	132.636	174.146	13.852	-100.960	129.332	201.309	166.820	-135.866	37.457	-49.846	118.670	176.474	210.839	2.943	8.465	135.609	0.00091275	0.0004182	0.00018367	1563.5	1.4992e-06	3.7521e-06	1546.9	423.33	5.614e-06	4.5319e-06	481.86	161.86	142.45	48.585	5.5205e-06	59.34	0.00037873	0.00028831	7.9925e-05	1580.2	3.3375e-06	3.1565e-06	1567.6	429.63	3.3501e-06	3.0496e-06	469.81	165.28	145.31	49.605	3.2925e-06	60.743	130.780	-58.248	-52.701	-125.142	-77.112	-13.939	-125.320	-120.843	-62.927	6.421	-121.163	-116.719	-116.770	-111.929	-16.864	-112.553	-8191	255	
512.423	1	1	0	0	0.37735	0.29935	0.2185	0.36547	0.17986	0.0097947	0.15188	0.14819	0.097597	0.20277	0.16889	0.035334	0.24091	0.25845	0.11206	0.245	-2.525	-3.2833	-2.925	-3.5458	-3.2667	-3.0438	-3.5458	-3.5021	-3.0563	-3.3333	-3.0833	-3.2833	-3.4125	-3.0125	-3.1083	-3.1583	-19.578	208.139	193.568	-134.632	80.740	4.918	-122.562	122.748	163.556	-35.407	89.316	205.645	177.130	-129.057	-61.663	160.020	0.00084366	0.00030035	0.00014493	1564.4	5.5022e-06	6.3266e-06	1542.6	423.26	2.9673e-06	5.0455e-06	481.5	162.23	142.27	48.665	3.9359e-06	59.156	0.00037874	0.00029163	8.5914e-05	1581.4	3.3788e-06	3.2487e-06	1570.9	429.96	3.5549e-06	3.1357e-06	471.64	165.42	145.41	49.623	3.398e-06	60.76	131.860	-59.058	-26.763	-125.174	-20.562	14.533	-125.519	-120.832	-49.759	18.165	-121.301	-117.082	-116.699	-111.891	-16.806	-112.417	-8191	255	
512.519	1	1	0	0	0.27314	0.13001	0.13925	0.27697	0.2235	0.0672	0.11927	0.3564	0.12162	0.24717	0.14115	0.30381	0.098857	0.14697	0.16275	0.23209	-2.6083	-3.1937	-3.2042	-3.2708	-3.125	-3.0896	-3.2833	-3.4208	-3.0312	-3.2313	-3.2271	-3.2479	-3.3708	-3.2812	-3.2021	-3.2646	-10.830	109.926	59.313	184.614	50.917	-46.222	202.433	169.454	-6.892	-77.954	-27.391	175.633	-19.413	-105.799	-131.977	191.622	0.00087041	0.00062468	0.00012621	1568.8	5.7138e-06	4.1225e-06	1549.5	423.92	8.2927e-06	3.7778e-06	477.37	162.42	143.09	48.347	3.8162e-06	59.64	0.00038975	0.00029086	8.4318e-05	1584.6	3.4741e-06	3.2303e-06	1572.8	430.15	3.5173e-06	3.1709e-06	471.15	165.35	145.52	49.558	3.3356e-06	60.938	129.219	-66.489	-48.433	-125.054	0.831	16.615	-125.243	-121.005	-53.361	-2.715	-120.782	-116.848	-117.045	-111.797	-0.748	-112.532	-8191	255	
512.640	1	1	0	0	0.10954	0.16366	0.31537	0.15801	0.18379	0.12876	0.33912	0.20532	0.14172	0.21587	0.060903	0.1391	0.050181	0.27643	0.15084	0.14602	-2.7188	-3.0375	-2.9062	-3.2958	-3.3146	-3.1708	-3.3438	-3.4437	-3.0042	-3.1688	-3.2188	-3.2229	-3.35	-3.1896	-3.1604	-3.3979	53.564	-118.147	101.217	215.792	-27.599	-10.816	172.487	79.215	-108.457	97.196	15.460	158.757	181.709	-126.225	-81.463	135.412	0.00086405	0.00069539	0.00019259	1567.8	4.1265e-06	3.5559e-06	1547	424.09	7.2433e-06	3.7609e-06	479.93	162.24	143.14	48.47	5.8067e-06	59.227	0.00038751	0.00029888	8.3223e-05	1583.6	3.3803e-06	3.1825e-06	1573.8	430.57	3.468e-06	3.149e-06	472.89	165.33	145.46	49.581	3.5118e-06	60.784	131.856	-40.164	-31.998	-125.171	-4.962	30.231	-125.276	-120.908	-34.146	14.062	-121.581	-116.993	-116.648	-111.667	-10.599	-112.431	-8191	255	
512.712	1	1	0	0	0.15608	0.20576	0.056904	0.086475	0.083866	0.17827	0.37854	0.1442	0.036719	0.088242	0.23153	0.099457	0.17072	0.17163	0.095962	0.33425	-2.6854	-3.3646	-3.1104	-3.225	-3.4021	-3.275	-3.3458	-3.5417	-2.9688	-3.2583	-3.2292	-3.25	-3.4729	-3.1833	-3.2646	-3.5021	25.189	206.372	58.802	194.432	-92.999	88.150	157.869	171.383	114.331	53.645	-73.366	213.852	179.877	211.372	183.378	190.407	0.00088285	0.00065739	0.00016811	1566.8	5.568e-06	6.4262e-06	1552.9	424.43	5.9828e-06	6.753e-06	481.16	162.21	143.69	48.462	4.0669e-06	59.226	0.00038595	0.00029792	8.5691e-05	1584.5	3.327e-06	3.362e-06	1573.1	430.52	3.4929e-06	3.1626e-06	470.5	165.5	145.79	49.662	3.3134e-06	60.806	127.315	-57.157	-30.585	-125.104	-4.944	14.774	-125.386	-120.843	-70.295	-5.740	-120.949	-116.806	-116.843	-112.035	-20.523	-112.494	-8191	255	
512.808	1	1	0	0	0.042775	0.23228	0.096519	0.197	0.080922	0.20975	0.14589	0.23643	0.16135	0.02543	0.25405	0.10424	0.23825	0.28994	0.22778	0.073402	-2.4875	-3.1542	-3.3	-3.1646	-3.4	-3.15	-3.6	-3.4521	-3.0187	-3.4458	-3.2979	-3.2021	-3.2	-3.2687	-2.8521	-3.5	-120.921	157.788	-19.409	188.738	58.994	172.996	128.267	153.816	-90.635	3.030	134.911	213.387	181.885	-91.511	69.520	191.685	0.00095041	0.00051795	0.00017679	1563.2	3.7531e-06	2.0664e-06	1552.6	423.41	6.5554e-06	5.4412e-06	480.82	162.21	142.41	48.544	5.8979e-06	59.355	0.00039107	0.00029353	8.4936e-05	1582.1	3.3287e-06	3.3492e-06	1572.7	430.27	3.5271e-06	3.1337e-06	472.53	165.48	145.55	49.649	3.4445e-06	60.851	132.036	-49.050	-17.622	-125.143	-16.127	8.798	-125.560	-120.807	-63.033	28.908	-120.894	-116.958	-117.056	-111.885	-14.529	-112.596	-8191	255	
512.904	1	1	0	0	0.28225	0.19216	0.075642	0.29677	0.28496	0.065529	0.17385	0.35859	0.12694	0.022656	0.21392	0.15786	0.14713	0.11518	0.058555	0.089109	-2.4917	-3.0333	-3.1896	-3.1813	-3.2146	-3.1646	-3.2021	-3.4542	-3.0438	-3.0646	-3.3604	-3.1604	-3.3	-3.4417	-2.9875	-3.4458	140.486	62.116	89.374	177.427	180.064	-1.111	167.733	152.249	-97.049	10.329	117.224	-87.561	145.750	186.058	102.545	117.724	0.00088227	0.00065832	0.00015127	1569.3	4.1047e-06	4.9556e-06	1552.6	423.78	5.9999e-06	4.1667e-06	479.2	161.83	143.14	48.452	7.6914e-06	59.247	0.0003869	0.00030051	8.222e-05	1587.4	3.2848e-06	3.3618e-06	1572.9	430.31	3.4579e-06	3.2143e-06	470.08	165.35	145.53	49.555	3.3598e-06	60.836	131.029	-71.467	-37.241	-125.137	-7.787	17.698	-125.523	-120.926	-29.965	13.536	-120.729	-116.870	-116.956	-111.747	-4.674	-112.481	-8191	255	
513.000	1	1	0	0	0.17835	0.32785	0.075101	0.039379	0.1053	0.025358	0.17243	0.12335	0.26395	0.06854	0.133	0.12622	0.23029	0.14517	0.12658	0.12044	-2.5854	-2.8521	-3.325	-3.2479	-3.1417	-3.2604	-3.1833	-3.5563	-2.9562	-3.0729	-3.2521	-3.1	-3.4208	-3.3	-3.0333	-3.3583	-13.680	-29.007	56.427	64.609	162.418	191.199	206.748	166.854	9.153	82.614	176.484	176.651	185.035	-136.825	-41.839	170.135	0.00086975	0.0004224	0.00014802	1568.3	5.1149e-06	5.7737e-06	1550.2	422.75	5.504e-06	3.4958e-06	478.94	161.77	142.45	48.586	5.7786e-06	59.017	0.00038834	0.00029904	8.3897e-05	1583.6	3.3427e-06	3.2585e-06	1572	429.37	3.4559e-06	3.1622e-06	469.79	165.05	145.28	49.611	3.3124e-06	60.694	129.678	-45.707	-23.972	-125.084	-25.508	18.446	-125.530	-120.712	-52.957	4.855	-121.756	-117.107	-116.782	-111.739	-10.043	-112.692	-8191	255	
513.119	1	1	0	0	0.12801	0.045034	0.28425	0.36029	0.11063	0.21854	0.21787	0.14789	0.050791	0.16462	0.063377	0.19339	0.40543	0.16566	0.08476	0.031837	-2.9188	-3.0042	-3.2396	-3.5062	-3.2042	-3.2458	-3.4062	-3.5563	-3.1271	-3.2604	-3.4375	-3.0875	-3.3396	-3.5646	-2.9813	-3.3125	115.111	205.858	-103.393	178.102	52.734	214.777	216.215	2.929	-132.787	18.113	60.157	139.293	216.924	220.355	164.053	-55.599	0.00083289	0.00071402	0.0001353	1563.1	5.4235e-06	4.4107e-06	1542.2	424.38	5.5332e-06	6.342e-06	473.42	162.2	142.83	48.486	5.0006e-06	59.294	0.0003769	0.00029021	8.113e-05	1581.1	3.2838e-06	3.1869e-06	1567.6	430.01	3.4563e-06	3.184e-06	467.25	165.3	145.29	49.521	3.3775e-06	60.787	131.571	-73.575	-40.266	-125.115	-2.043	21.209	-125.485	-120.945	-53.688	37.882	-120.709	-116.895	-116.904	-111.904	-20.735	-112.651	-8191	255	
513.215	1	1	0	0	0.31184	0.2544	0.22758	0.33791	0.025088	0.14445	0.14139	0.21292	0.14404	0.064899	0.16752	0.078537	0.26868	0.15572	0.10644	0.1233	-2.7646	-2.9458	-3.3563	-3.2438	-3.1417	-3.3271	-3.3063	-3.5667	-3.0729	-2.8979	-3.2771	-3.2062	-3.3875	-3.2521	-3.0333	-3.4958	199.560	184.024	-48.006	-126.987	161.274	142.646	-123.825	203.883	-123.807	141.522	-100.116	-58.848	142.788	170.817	78.290	170.002	0.00088181	0.00048758	0.00024314	1564.5	6.0092e-06	6.1073e-06	1546.2	423.33	5.2912e-06	4.6846e-06	478.75	162.39	143.02	48.451	4.1929e-06	59.219	0.00038363	0.00029873	8.0573e-05	1581.6	3.4043e-06	3.2347e-06	1567.2	429.83	3.3625e-06	3.113e-06	472.14	165.38	145.41	49.595	3.3097e-06	60.773	129.542	-71.293	-27.913	-125.200	-7.961	27.144	-125.375	-120.914	-64.540	15.301	-121.234	-116.937	-116.747	-111.893	-38.047	-112.515	-8191	255	
513.288	1	1	0	0	0.082992	0.38462	0.25351	0.24811	0.11444	0.097779	0.21897	0.44028	0.1824	0.028537	0.18078	0.34468	0.34385	0.11622	0.099291	0.29056	-2.7229	-2.9708	-3.3771	-3.1813	-3.1792	-3.425	-3.2417	-3.5208	-3.3	-3.0958	-3.2333	-3.3229	-2.9958	-3.5792	-3.1562	-3.0375	17.145	71.598	17.627	-124.259	-96.209	-53.974	101.445	180.225	98.699	23.201	102.886	169.639	105.935	-20.159	-76.817	199.022	0.00082638	0.00050279	0.00014306	1566.1	3.9202e-06	5.9252e-06	1544.5	423.31	8.4832e-06	4.7493e-06	475.98	161.8	143.07	48.476	5.4465e-06	59.229	0.00037631	0.0002915	7.7979e-05	1581.4	3.3391e-06	3.1309e-06	1569.1	429.75	3.5321e-06	3.1413e-06	469.33	165.17	145.46	49.594	3.449e-06	60.872	129.331	-52.070	-40.539	-125.060	-62.652	-15.352	-125.593	-120.852	-40.902	20.072	-121.483	-117.052	-116.991	-111.715	-20.501	-112.490	-8191	255	
513.407	1	1	0	0	0.042827	0.2066	0.17574	0.029009	0.13752	0.089008	0.22203	0.25779	0.26983	0.11342	0.14371	0.09671	0.18071	0.083665	0.023419	0.25671	-2.8646	-2.9854	-3.1792	-3.375	-3.0375	-3.2313	-3.3896	-3.3937	-3.1188	-3.1521	-3.5	-3.3292	-3.1312	-3.3688	-3.3354	-3.3333	21.375	134.588	-130.458	70.536	83.916	-29.490	171.395	88.909	-104.018	-30.760	162.600	49.414	-136.434	163.671	31.684	53.763	0.00086532	0.00060332	0.00016156	1564.2	2.6965e-06	4.9199e-06	1544.8	423.13	5.7008e-06	5.6291e-06	475.99	161.73	142.44	48.384	4.1893e-06	59.159	0.00038342	0.0002991	8.1019e-05	1582.2	3.3632e-06	3.1449e-06	1569.8	429.54	3.4354e-06	3.152e-06	468.68	165.07	145.17	49.581	3.091e-06	60.753	133.224	-69.946	-42.698	-124.998	-18.991	7.453	-125.555	-120.944	-61.531	10.069	-121.346	-116.908	-116.844	-111.702	2.201	-112.246	-8191	255	
513.503	1	1	0	0	0.13794	0.24395	0.12577	0.4159	0.10808	0.17521	0.36335	0.13524	0.16943	0.16907	0.056449	0.23639	0.23233	0.029412	0.096406	0.31759	-2.6875	-3.0479	-2.9604	-3.4104	-2.7438	-3.2896	-3.4479	-3.3146	-3.4042	-3.1417	-3.2188	-3.65	-2.9729	-3.4083	-3.2792	-3.1729	110.054	102.443	-98.051	-138.583	8.941	120.858	143.294	133.054	65.868	94.123	95.449	-125.902	175.604	64.712	-111.216	103.633	0.00090295	0.00057678	0.00012295	1565	5.3896e-06	4.4395e-06	1543.7	423.45	6.0641e-06	5.5213e-06	479.6	162.18	143.02	48.413	6.4456e-06	59.376	0.0003623	0.00028693	7.3829e-05	1579.2	3.3494e-06	3.0234e-06	1567	429.24	3.3558e-06	3.2055e-06	470.48	165.19	145.52	49.546	3.4301e-06	60.936	132.536	-64.905	-45.050	-125.097	-12.473	20.539	-125.530	-120.782	-45.583	13.482	-119.990	-117.064	-116.863	-111.919	-26.026	-112.460	-8191	255	
513.600	1	1	0	0	0.15049	0.14089	0.22903	0.22301	0.079769	0.12285	0.35883	0.18783	0.1557	0.1273	0.022547	0.12118	0.2756	0.20849	0.0070008	0.10146	-2.9604	-2.8292	-3.1125	-3.3875	-3.0104	-3.4562	-3.2812	-3.2708	-3.35	-3.0396	-3.2208	-3.3625	-2.9792	-3.5583	-3.1521	-2.95	191.745	115.989	-135.916	185.061	46.500	66.036	161.665	155.160	158.389	-113.362	-12.687	214.233	-138.276	177.346	118.824	217.400	0.00089386	0.00061784	0.0001032	1566.4	6.3476e-06	7.1587e-06	1549.9	421.06	3.453e-06	6.0385e-06	481.91	161.85	143.18	48.362	2.3753e-06	59.528	0.00038314	0.00030118	8.2352e-05	1583.8	3.4785e-06	3.1795e-06	1574.1	429.5	3.3978e-06	3.2529e-06	469.02	165.43	145.62	49.594	3.3793e-06	60.975	131.211	-66.666	-71.911	-125.118	-36.127	23.841	-125.377	-120.904	-23.337	18.619	-120.901	-117.114	-116.864	-111.906	13.211	-112.724	-8191	255	
513.720	1	1	0	0	0.24292	0.044259	0.2299	0.13712	0.3002	0.21312	0.32899	0.26522	0.13116	0.26355	0.24605	0.043366	0.21862	0.039064	0.017622	0.10463	-2.9	-2.9583	-3.0521	-3.5042	-2.9938	-3.2375	-3.3375	-3.1729	-3.1667	-3.2042	-3.2083	-3.4708	-3.0354	-3.3854	-3.2062	-3.1	-31.605	67.315	141.775	-138.493	-135.933	210.000	162.284	187.040	-66.800	-14.121	11.580	174.020	148.440	6.629	192.885	208.077	0.00085956	0.00052409	0.00015143	1566.7	6.0729e-06	5.0107e-06	1544.9	424.42	8.289e-06	6.2084e-06	483.64	162.23	143.19	48.532	4.8221e-06	59.372	0.00037351	0.00029953	8.107e-05	1581.2	3.3838e-06	3.2757e-06	1571.4	430.13	3.422e-06	3.3545e-06	471.69	165.47	145.85	49.663	3.4461e-06	60.818	129.249	-47.304	-28.954	-125.094	-23.387	5.878	-125.412	-120.843	-53.821	29.783	-120.714	-116.996	-116.749	-111.932	-9.086	-112.738	-8191	255	
513.816	1	1	0	0	0.12844	0.21087	0.19095	0.067551	0.23432	0.095017	0.35735	0.37351	0.24922	0.0089107	0.17068	0.2165	0.11219	0.16947	0.078947	0.22892	-2.9792	-3.1333	-2.9292	-3.3646	-3.1167	-3.4646	-3.2812	-3.3208	-3.3875	-3.0875	-2.9292	-3.5938	-3.175	-3.3875	-3.4167	-3.1354	-49.729	-127.478	-94.924	-107.609	211.089	53.013	142.736	155.143	173.688	126.696	175.674	-129.483	133.446	194.830	143.153	166.738	0.00083666	0.00063604	0.00015448	1560.9	2.4546e-06	4.5094e-06	1546.2	423.33	3.3235e-06	4.197e-06	478.71	161.55	143.4	48.577	5.2194e-06	59.397	0.00037586	0.00029614	8.1668e-05	1581.2	3.3701e-06	3.1045e-06	1571.3	430.42	3.2317e-06	3.1202e-06	469.93	165.17	145.62	49.651	3.289e-06	60.834	130.876	-77.607	-56.041	-125.063	-42.254	26.860	-125.434	-120.865	-0.252	18.032	-121.541	-116.998	-116.966	-111.828	3.076	-112.493	-8191	255	
513.913	1	1	0	0	0.34012	0.13721	0.19791	0.17994	0.16435	0.079777	0.059086	0.25353	0.14299	0.096858	0.19635	0.14491	0.23646	0.14949	0.1992	0.20195	-3.0062	-3.05	-2.8979	-3.6021	-3.0979	-3.2542	-3.4708	-3.3375	-3.3688	-3.2354	-2.8896	-3.5938	-3.15	-3.2125	-3.525	-3.1458	157.938	209.223	-33.894	167.505	159.213	122.849	-93.632	128.093	-128.044	-81.149	22.607	214.287	182.804	146.068	-103.519	109.739	0.00085574	0.00064084	0.00016877	1563	4.423e-06	5.5758e-06	1545.9	423.41	8.0744e-06	4.0613e-06	481.14	162.38	143.11	48.444	6.6696e-06	59.322	0.00036992	0.00030136	8.0446e-05	1581.5	3.444e-06	3.1929e-06	1568.1	429.71	3.3683e-06	3.2099e-06	470.16	165.37	145.56	49.655	3.3736e-06	60.81	128.404	-71.673	-39.478	-125.147	-43.239	11.349	-125.426	-121.018	-39.891	16.436	-120.546	-116.690	-116.774	-111.960	-8.263	-112.251	-8191	255	
514.009	1	1	0	0	0.16497	0.045305	0.17389	0.15536	0.041849	0.066613	0.20422	0.24457	0.13819	0.025944	0.22699	0.15081	0.29427	0.066443	0.22088	0.19912	-3.0646	-3.0917	-3.0771	-3.5208	-3.0667	-3.1896	-3.5354	-3.1792	-3.3917	-3.2583	-2.9708	-3.3667	-3.3708	-3.2854	-3.4354	-3.1583	161.839	204.487	5.349	139.527	48.459	189.915	132.310	136.439	68.428	-27.436	100.542	206.820	138.111	163.986	174.279	-132.090	0.00086525	0.00081258	0.00011211	1562.7	3.6628e-06	2.8108e-06	1552.8	423.32	8.0727e-06	7.4902e-06	471.75	163.03	143.55	48.446	5.9934e-06	59.262	0.00037537	0.00030279	8.2564e-05	1580.9	3.4734e-06	3.1981e-06	1572.9	429.98	3.4728e-06	3.5004e-06	470.14	165.62	145.75	49.653	3.4395e-06	60.861	130.561	-55.649	-35.244	-125.219	-47.866	2.940	-125.223	-121.002	-52.579	9.607	-120.924	-116.845	-116.857	-111.577	-9.267	-112.607	-8191	255	
514.105	1	1	0	0	0.1524	0.12433	0.12012	0.22149	0.11002	0.34956	0.44168	0.24529	0.2132	0.066042	0.14948	0.12695	0.27223	0.16378	0.038847	0.13603	-2.8458	-3.1729	-3.0062	-3.4958	-3.2167	-3.1021	-3.6104	-3.3833	-3.1875	-3.4854	-2.8271	-3.4229	-3.2708	-3.2646	-3.2521	-3.1958	199.206	-30.668	-15.520	153.173	-22.781	-132.007	140.985	158.412	63.005	62.436	26.603	28.175	-83.278	-110.681	173.759	157.086	0.00082577	0.00073893	0.00017991	1570	6.9435e-06	6.067e-06	1549.2	424.55	4.1481e-06	5.7947e-06	484.03	162.96	142.85	48.412	3.6999e-06	59.458	0.00038858	0.00031714	8.8265e-05	1585.6	3.5612e-06	3.4294e-06	1575.8	430.63	3.5486e-06	3.3617e-06	470.69	165.77	145.74	49.652	3.3956e-06	60.945	129.185	-48.493	-24.729	-125.050	-27.576	22.827	-125.598	-120.910	-29.356	7.666	-121.357	-117.084	-116.905	-111.747	-5.307	-112.593	-8191	255	
514.199	1	1	0	0	0.24661	0.067822	0.31254	0.31672	0.10338	0.20306	0.32923	0.20709	0.21909	0.1313	0.063767	0.2761	0.16266	0.20813	0.014258	0.084055	-2.7812	-3.1292	-2.6229	-3.525	-3.3604	-2.9292	-3.4792	-3.1604	-2.9958	-3.3979	-3.0667	-3.35	-3.25	-3.0271	-3.2604	-3.1854	-73.585	151.516	-130.766	183.059	33.292	5.911	163.893	103.203	196.329	135.660	209.155	126.355	140.233	40.949	-7.579	147.695	0.00087578	0.00043169	0.00015339	1569.9	4.905e-06	3.7815e-06	1550.6	424.21	6.0187e-06	4.9961e-06	482.45	162.58	142.97	48.535	7.162e-06	59.297	0.00038812	0.00030765	8.6131e-05	1584.5	3.6046e-06	3.3356e-06	1575.1	430.68	3.5957e-06	3.3687e-06	471.23	165.97	145.79	49.671	3.4697e-06	60.872	132.457	-30.306	-17.354	-125.116	-16.167	-13.604	-125.497	-120.827	-49.710	2.020	-121.659	-117.003	-117.015	-111.594	-40.561	-112.494	-8191	255	
514.295	1	1	0	0	0.086198	0.24744	0.15948	0.33657	0.091399	0.18863	0.30061	0.46898	0.26111	0.10576	0.15003	0.34873	0.057062	0.079762	0.089973	0.18417	-2.8187	-3.2062	-3.1583	-3.3812	-3.2146	-3.1792	-3.5729	-3.1979	-3.0896	-3.3667	-2.8937	-3.375	-3.3542	-3.0146	-3.4875	-3.25	-12.124	-98.832	-109.347	175.313	-13.577	-0.451	209.762	158.398	180.270	52.786	67.971	157.390	-96.153	137.196	144.152	106.591	0.00087335	0.00064012	0.0002089	1572.7	2.8569e-06	5.2711e-06	1548.8	423.92	6.8004e-06	5.1737e-06	480.86	162.47	143.45	48.637	3.7618e-06	59.409	0.00038552	0.00031362	8.5909e-05	1587.9	3.5967e-06	3.362e-06	1575	431.08	3.6239e-06	3.3657e-06	471.58	165.98	146.15	49.703	3.3621e-06	60.938	129.470	-68.191	-36.859	-125.131	1.502	17.143	-125.398	-120.882	-41.985	9.241	-121.516	-116.836	-116.774	-112.129	-6.297	-112.510	-8191	255	
514.416	1	1	0	0	0.23917	0.19055	0.15713	0.16334	0.13842	0.10665	0.34501	0.38551	0.14101	0.24402	0.35747	0.2177	0.21764	0.37061	0.25967	0.033885	-2.6146	-3.4167	-3.0854	-3.2687	-3.1813	-3.0521	-3.5292	-3.1937	-2.9729	-3.3229	-2.9688	-3.6083	-3.4542	-3.2104	-3.2062	-3.2729	-40.008	74.361	-70.104	183.788	202.087	111.904	164.526	126.813	-82.017	3.402	3.459	-125.404	-136.715	199.055	66.334	88.363	0.00082892	0.00047687	0.00015361	1570.5	6.2571e-06	7.0025e-06	1551.5	424.28	6.3132e-06	4.6317e-06	487.25	162.68	142.98	48.502	5.313e-06	59.785	0.00039392	0.00029764	8.7905e-05	1586	3.721e-06	3.3802e-06	1576.4	430.49	3.6023e-06	3.3372e-06	474.1	165.59	145.9	49.747	3.4141e-06	61.093	128.190	-31.444	-49.575	-125.191	-23.003	22.750	-125.272	-120.916	-57.969	6.092	-121.221	-116.836	-116.824	-111.835	-14.492	-112.579	-8191	255	
514.512	1	1	0	0	0.091538	0.050904	0.19564	0.17059	0.098369	0.24572	0.25805	0.078756	0.039533	0.039824	0.12413	0.16659	0.10699	0.1148	0.11572	0.38121	-2.4833	-3.3292	-3.3042	-3.3875	-3.3458	-3.0625	-3.5354	-3.3333	-2.9917	-3.1542	-3.2042	-3.4229	-3.4333	-2.9729	-3.3042	-3.3167	77.080	157.184	-29.283	-113.726	59.033	99.181	176.621	-39.425	3.881	-86.203	-82.381	107.519	-116.214	123.648	166.901	210.446	0.00089125	0.00044952	0.00022168	1575.3	3.8945e-06	8.7837e-06	1556.2	424.08	6.7426e-06	5.3486e-06	477.28	162.39	143.27	48.62	3.8945e-06	59.492	0.00039994	0.00030281	8.8878e-05	1588.6	3.5572e-06	3.4734e-06	1578.2	431.58	3.684e-06	3.3798e-06	472.13	165.71	146	49.792	3.4549e-06	61.047	128.128	-62.611	-19.854	-125.027	-46.107	12.640	-125.346	-120.694	-46.908	3.548	-121.584	-116.781	-117.134	-112.080	-25.719	-112.542	-8191	255	
514.584	1	1	0	0	0.12608	0.10599	0.26024	0.16654	0.04362	0.059751	0.28315	0.15095	0.22898	0.080626	0.25713	0.055752	0.23818	0.15653	0.21619	0.1553	-2.6063	-3.2417	-2.9667	-3.3521	-3.3312	-3.0021	-3.5312	-3.4875	-3.0229	-3.175	-3.1063	-3.2583	-3.4396	-3.1042	-3.2375	-3.4167	-78.452	-63.864	-97.311	203.206	127.872	197.056	125.340	159.828	68.804	110.158	-53.489	-97.146	174.740	162.661	-72.714	-102.620	0.00089197	0.00059759	0.00011878	1571.7	3.6428e-06	5.0775e-06	1557.4	425.72	6.4289e-06	5.2283e-06	487.32	162.49	143.73	48.748	4.7755e-06	59.626	0.00039412	0.0003037	8.941e-05	1587.9	3.6326e-06	3.5653e-06	1578.7	431.75	3.7553e-06	3.4502e-06	472.43	165.66	146.15	49.729	3.5695e-06	61.035	131.118	-59.119	-18.832	-125.178	6.501	16.460	-125.392	-120.887	-51.029	5.709	-121.588	-116.786	-117.073	-111.827	-10.505	-112.648	-8191	255	
514.680	1	1	0	0	0.083358	0.023343	0.15123	0.32711	0.1331	0.36436	0.2876	0.13582	0.15946	0.12946	0.088144	0.10384	0.11611	0.33408	0.14294	0.0884	-2.5875	-3.2271	-3.1521	-3.2854	-3.1896	-3.1625	-3.2729	-3.5083	-2.9958	-3.1521	-3.0396	-3.1271	-3.4604	-3.0875	-3.0979	-3.3771	189.229	-76.073	-41.637	170.427	31.575	56.523	186.695	146.213	-104.464	17.402	97.539	-113.459	194.878	162.641	-121.945	-73.761	0.00090752	0.00057982	0.00013045	1573.3	3.2258e-06	5.5106e-06	1557.6	424.44	6.2876e-06	7.2738e-06	482.92	161.93	143.8	48.465	5.6447e-06	59.347	0.00039676	0.00030105	8.827e-05	1589.9	3.4833e-06	3.5126e-06	1579.7	431.44	3.6195e-06	3.3577e-06	474.71	165.75	146.02	49.678	3.517e-06	60.969	129.479	-43.351	-66.156	-125.206	-37.018	20.276	-125.415	-121.063	-56.767	5.268	-120.950	-117.028	-116.672	-111.863	-18.451	-112.379	-8191	255	
514.801	1	1	0	0	0.047105	0.075949	0.079535	0.2535	0.067457	0.18506	0.31055	0.15542	0.19063	0.20708	0.19756	0.37869	0.18064	0.13695	0.21858	0.26562	-2.5479	-2.9771	-3.2271	-3.175	-3.2021	-3.3708	-3.4146	-3.2854	-3.1458	-3.1021	-3.1646	-3.2458	-3.3708	-3.1688	-3.0896	-3.4979	159.707	148.917	83.519	156.852	101.713	-127.557	129.889	138.205	78.436	219.873	84.514	158.095	142.805	-82.606	-85.713	140.028	0.00090441	0.00056358	0.00010456	1569.1	4.7354e-06	4.3687e-06	1554.1	424.37	7.7393e-06	4.3289e-06	483.57	162.79	143.02	48.604	6.5327e-06	59.554	0.00039978	0.00030328	8.6765e-05	1586.9	3.3321e-06	3.3524e-06	1577.5	431.36	3.6774e-06	3.2797e-06	473.62	166.02	146.08	49.752	3.5057e-06	61.019	132.402	-51.035	-70.130	-125.125	-9.088	17.556	-125.385	-120.664	-64.998	28.133	-121.521	-116.958	-116.797	-111.807	-32.644	-112.849	-8191	255	
#DATA ENDS
