BOXY.EXE: ISS Imagent and Oximeter Data Acquisition Program Version 0.80
Ascii Record File

#ACQ INFORMATION
2  Detector Channels 
16  External MUX Channels 
1  Auxiliary Channels 
5000  Waveform (CCF) Frequency (Hz)
1  Waveforms Skipped 
30  Waveforms Averaged 
1  Cycles Averaged 
16  Acquisitions per Waveform 
10.0806  Updata Rate (Hz) 

#FILE INFORMATION
TRUE -- External MUX Channel results are PARSED.
FALSE -- AC DC and Phase are NOT grouped.
TRUE -- Companion Program Settings File CREATED.
FALSE -- AC data not excluded
FALSE -- DC data not excluded
FALSE -- Phase data not excluded
FALSE -- Auxillary Chn. data not excluded
Tab delimiters

#CALIBRATION STATE
TRUE -- Waveform Calibration Values APPLIED.


#AUX CALIBRATION VALUES
Val Type	aux-1	

Term	1.0000e+00	
Factor	0.0000e+00	


#WF CALIBRATION VALUES
A = Detector Channel
Val Type	A-AC1	A-AC2	A-AC3	A-AC4	A-AC5	A-AC6	A-AC7	A-AC8	A-AC9	A-AC10	A-AC11	A-AC12	A-AC13	A-AC14	A-AC15	A-AC16	A-DC1	A-DC2	A-DC3	A-DC4	A-DC5	A-DC6	A-DC7	A-DC8	A-DC9	A-DC10	A-DC11	A-DC12	A-DC13	A-DC14	A-DC15	A-DC16	A-Ph1	A-Ph2	A-Ph3	A-Ph4	A-Ph5	A-Ph6	A-Ph7	A-Ph8	A-Ph9	A-Ph10	A-Ph11	A-Ph12	A-Ph13	A-Ph14	A-Ph15	A-Ph16	

Term	0.00000e+00	0.00000e+00	0.00000e+00	0.00000e+00	0.00000e+00	0.00000e+00	0.00000e+00	0.00000e+00	0.00000e+00	0.00000e+00	0.00000e+00	0.00000e+00	0.00000e+00	0.00000e+00	0.00000e+00	0.00000e+00	0.00000e+00	0.00000e+00	0.00000e+00	0.00000e+00	0.00000e+00	0.00000e+00	0.00000e+00	0.00000e+00	0.00000e+00	0.00000e+00	0.00000e+00	0.00000e+00	0.00000e+00	0.00000e+00	0.00000e+00	0.00000e+00	0.00000e+00	0.00000e+00	0.00000e+00	0.00000e+00	0.00000e+00	0.00000e+00	0.00000e+00	0.00000e+00	0.00000e+00	0.00000e+00	0.00000e+00	0.00000e+00	0.00000e+00	0.00000e+00	0.00000e+00	0.00000e+00	
Factor	1.00000e+00	1.00000e+00	1.00000e+00	1.00000e+00	1.00000e+00	1.00000e+00	1.00000e+00	1.00000e+00	1.00000e+00	1.00000e+00	1.00000e+00	1.00000e+00	1.00000e+00	1.00000e+00	1.00000e+00	1.00000e+00	1.00000e+00	1.00000e+00	1.00000e+00	1.00000e+00	1.00000e+00	1.00000e+00	1.00000e+00	1.00000e+00	1.00000e+00	1.00000e+00	1.00000e+00	1.00000e+00	1.00000e+00	1.00000e+00	1.00000e+00	1.00000e+00	X	X	X	X	X	X	X	X	X	X	X	X	X	X	X	X	

B = Detector Channel
Val Type	B-AC1	B-AC2	B-AC3	B-AC4	B-AC5	B-AC6	B-AC7	B-AC8	B-AC9	B-AC10	B-AC11	B-AC12	B-AC13	B-AC14	B-AC15	B-AC16	B-DC1	B-DC2	B-DC3	B-DC4	B-DC5	B-DC6	B-DC7	B-DC8	B-DC9	B-DC10	B-DC11	B-DC12	B-DC13	B-DC14	B-DC15	B-DC16	B-Ph1	B-Ph2	B-Ph3	B-Ph4	B-Ph5	B-Ph6	B-Ph7	B-Ph8	B-Ph9	B-Ph10	B-Ph11	B-Ph12	B-Ph13	B-Ph14	B-Ph15	B-Ph16	

Term	0.00000e+00	0.00000e+00	0.00000e+00	0.00000e+00	0.00000e+00	0.00000e+00	0.00000e+00	0.00000e+00	0.00000e+00	0.00000e+00	0.00000e+00	0.00000e+00	0.00000e+00	0.00000e+00	0.00000e+00	0.00000e+00	0.00000e+00	0.00000e+00	0.00000e+00	0.00000e+00	0.00000e+00	0.00000e+00	0.00000e+00	0.00000e+00	0.00000e+00	0.00000e+00	0.00000e+00	0.00000e+00	0.00000e+00	0.00000e+00	0.00000e+00	0.00000e+00	6.18343e+01	-1.31059e+02	-1.28480e+02	-1.84124e+02	-6.87911e+01	-6.82456e+01	-1.56911e+02	-1.62015e+02	-7.40016e+01	-6.54156e+01	-1.77697e+02	-1.71319e+02	-1.80631e+02	-1.77165e+02	-6.37371e+01	-1.49825e+02	
Factor	5.72416e-05	1.94192e-04	5.38199e-05	1.68864e-01	2.83546e-06	2.03816e-06	1.62166e-01	5.20289e-02	3.35572e-06	1.96407e-06	9.52225e-01	2.70685e-02	2.82943e-02	8.99284e-03	2.49629e-06	1.25482e-02	1.20680e-05	1.63461e-05	4.57917e-06	8.64489e-02	1.66670e-07	1.82106e-07	7.82106e-02	2.66752e-02	1.65207e-07	1.81697e-07	4.60311e-01	1.35287e-02	1.46057e-02	4.65260e-03	1.72611e-07	6.31523e-03	X	X	X	X	X	X	X	X	X	X	X	X	X	X	X	X	



#DISTANCE SETTINGS
A = Detector Channel
A-1	A-2	A-3	A-4	A-5	A-6	A-7	A-8	A-9	A-10	A-11	A-12	A-13	A-14	A-15	A-16	

2.5000e+00	3.0000e+00	2.5000e+00	3.0000e+00	2.0000e+00	3.0000e+00	1.5000e+00	3.0000e+00	3.0000e+00	3.0000e+00	3.0000e+00	3.0000e+00	3.0000e+00	3.0000e+00	1.5000e+00	3.0000e+00	

B = Detector Channel
B-1	B-2	B-3	B-4	B-5	B-6	B-7	B-8	B-9	B-10	B-11	B-12	B-13	B-14	B-15	B-16	

1.0000e+01	1.0000e+01	1.0000e+01	1.4400e+00	1.0000e+01	1.0000e+01	1.5100e+00	1.9400e+00	1.0000e+01	1.0000e+01	1.9900e+00	2.4900e+00	2.4100e+00	2.9000e+00	1.0000e+01	2.9800e+00	




#DATA BEGINS
time	group	step	mark	flag	A-AC1	A-AC2	A-AC3	A-AC4	A-AC5	A-AC6	A-AC7	A-AC8	A-AC9	A-AC10	A-AC11	A-AC12	A-AC13	A-AC14	A-AC15	A-AC16	A-DC1	A-DC2	A-DC3	A-DC4	A-DC5	A-DC6	A-DC7	A-DC8	A-DC9	A-DC10	A-DC11	A-DC12	A-DC13	A-DC14	A-DC15	A-DC16	A-Ph1	A-Ph2	A-Ph3	A-Ph4	A-Ph5	A-Ph6	A-Ph7	A-Ph8	A-Ph9	A-Ph10	A-Ph11	A-Ph12	A-Ph13	A-Ph14	A-Ph15	A-Ph16	B-AC1	B-AC2	B-AC3	B-AC4	B-AC5	B-AC6	B-AC7	B-AC8	B-AC9	B-AC10	B-AC11	B-AC12	B-AC13	B-AC14	B-AC15	B-AC16	B-DC1	B-DC2	B-DC3	B-DC4	B-DC5	B-DC6	B-DC7	B-DC8	B-DC9	B-DC10	B-DC11	B-DC12	B-DC13	B-DC14	B-DC15	B-DC16	B-Ph1	B-Ph2	B-Ph3	B-Ph4	B-Ph5	B-Ph6	B-Ph7	B-Ph8	B-Ph9	B-Ph10	B-Ph11	B-Ph12	B-Ph13	B-Ph14	B-Ph15	B-Ph16	aux-1	digaux	

8035.147	1	1	0	768	0.14804	0.20779	0.069069	0.098385	0.2016	0.038529	0.25488	0.33438	0.32112	0.10803	0.030601	0.18763	0.030746	0.25443	0.16358	0.15098	-2.5646	-2.6708	-2.9938	-2.9583	-2.7646	-2.8604	-3.0458	-2.6771	-2.8479	-2.6562	-3.0042	-2.9333	-2.8042	-3.0604	-2.7354	-2.8521	309.455	213.865	99.890	104.498	293.887	288.451	303.042	265.213	314.436	357.518	171.891	283.109	161.808	6.662	349.212	9.141	0.00042831	0.00028047	8.3988e-05	1062.7	4.5898e-06	3.0548e-06	1131.3	227.07	5.6844e-06	2.0489e-06	292.95	83.539	64.846	18.793	2.6922e-06	27.032	0.00020121	0.00015556	4.333e-05	1048.8	1.9976e-06	1.7076e-06	1118.7	225.75	1.8156e-06	1.7098e-06	285.82	83.551	64.808	18.959	1.8009e-06	27.248	335.381	108.132	90.768	9.563	189.259	182.332	10.033	17.001	137.528	158.833	16.178	22.934	24.037	30.476	155.297	29.739	-8191	255	
8035.244	1	1	0	0	0.19176	0.24969	0.1086	0.15774	0.33746	0.20206	0.18607	0.18396	0.17812	0.38657	0.12668	0.089444	0.18463	0.27782	0.16834	0.2084	-2.65	-2.8937	-2.9354	-3.1437	-2.8063	-3.0125	-2.8708	-2.725	-3.0542	-2.8187	-2.7896	-2.9083	-2.8021	-2.7812	-2.9021	-2.8042	97.674	26.670	125.047	354.322	41.705	144.307	258.659	308.123	333.310	131.796	282.290	275.373	16.536	278.184	81.086	231.906	0.00045006	0.00037699	7.0873e-05	1056.2	3.7845e-06	2.8365e-06	1126.9	227.23	6.3076e-06	2.4649e-06	294.27	82.902	64.759	18.686	2.5854e-06	26.776	0.00019688	0.00015733	4.3588e-05	1040.7	1.8427e-06	1.5206e-06	1113	225.41	1.7371e-06	1.7136e-06	286.06	83.188	64.652	18.95	1.7495e-06	27.123	336.258	98.128	94.459	9.667	174.847	167.081	10.100	16.864	160.231	164.989	16.769	23.346	24.206	30.524	168.880	30.224	-8191	255	
8035.342	1	1	0	0	0.28916	0.15437	0.13489	0.15578	0.49759	0.19719	0.27219	0.17902	0.20633	0.28057	0.2408	0.23999	0.06657	0.060258	0.091045	0.13054	-2.5354	-2.8354	-2.7458	-3.1229	-2.8292	-3.1104	-3.0521	-2.9083	-2.9375	-2.8667	-2.8208	-2.9313	-2.8729	-2.9	-2.9354	-2.5938	74.915	303.994	243.082	263.464	199.904	55.914	195.747	226.107	102.613	262.824	183.320	322.409	262.581	50.190	30.731	302.660	0.00036815	0.00037135	9.1304e-05	1054.3	4.4575e-06	3.0654e-06	1119.4	225.68	5.3514e-06	2.9556e-06	289.53	82.965	64.426	18.682	2.7765e-06	26.679	0.00019364	0.00016084	4.043e-05	1038.6	1.8056e-06	1.6826e-06	1108.6	224.73	1.7175e-06	1.7011e-06	285.97	83.367	64.65	18.886	1.638e-06	27.123	340.817	76.520	106.653	9.922	175.730	142.406	10.054	16.916	157.979	143.077	16.827	23.500	23.691	30.792	153.302	29.825	-8191	255	
8035.438	1	1	0	0	0.040954	0.14099	0.050378	0.27151	0.20347	0.22593	0.10713	0.28213	0.14127	0.15951	0.15538	0.080815	0.13095	0.1377	0.10741	0.27009	-2.5125	-2.5708	-2.7021	-3.1917	-2.6833	-2.7438	-2.9083	-2.8146	-2.9375	-2.8187	-2.8083	-2.9896	-2.9708	-2.7729	-2.8063	-2.7167	233.910	339.787	41.905	307.410	68.405	352.508	322.480	323.949	153.312	64.985	302.276	77.043	334.943	130.438	281.741	130.043	0.00044214	0.00019386	5.3438e-05	1046.7	3.6126e-06	2.6243e-06	1122.3	225.5	4.2096e-06	3.1119e-06	286.03	82.939	64.671	18.641	3.0521e-06	26.79	0.00019867	0.00015096	4.4294e-05	1035.1	1.9212e-06	1.6803e-06	1106.1	224.29	1.7147e-06	1.7303e-06	282.62	83.151	64.722	18.849	1.6207e-06	27.123	331.594	102.533	92.430	9.942	167.474	144.551	9.894	17.086	173.868	145.236	17.534	22.910	23.585	30.592	186.744	30.013	-8191	255	
8035.532	1	1	0	0	0.11687	0.069108	0.23405	0.30921	0.34775	0.15359	0.22404	0.068862	0.069058	0.24702	0.28926	0.1814	0.12615	0.14031	0.20898	0.19124	-2.625	-2.7146	-2.5667	-3.1146	-2.6646	-2.8438	-3.2313	-2.8771	-3.0417	-2.8104	-2.7	-3.2188	-2.6271	-2.7875	-3.1604	-2.8979	351.851	307.427	61.909	352.400	290.769	251.868	311.589	284.106	51.082	337.154	341.618	203.193	5.788	259.655	345.835	39.746	0.00043694	0.0002838	0.00010636	1049.8	5.3803e-06	2.1452e-06	1118.3	225.7	6.3697e-06	1.7916e-06	284.95	82.986	64.62	18.584	5.091e-06	26.704	0.0001997	0.00015849	4.3903e-05	1035.8	1.865e-06	1.7338e-06	1105	224.3	1.7956e-06	1.6822e-06	283.61	83.202	64.655	18.827	1.706e-06	27.02	337.007	75.602	101.924	10.008	184.083	137.906	10.051	17.023	158.888	178.925	16.287	23.729	23.984	30.680	163.320	29.862	-8191	255	
8035.628	1	1	0	0	0.35105	0.27594	0.32525	0.27772	0.078044	0.33087	0.15167	0.086627	0.23265	0.17374	0.16376	0.15219	0.1053	0.3032	0.058298	0.21486	-2.5979	-2.9167	-2.8792	-3.0167	-2.625	-2.725	-3.1562	-2.6625	-3.0312	-2.8646	-2.6688	-2.8729	-2.8646	-2.9417	-3.0625	-2.875	186.743	299.001	198.849	271.854	12.573	263.369	257.701	266.750	28.316	200.361	168.376	1.610	345.934	52.327	327.085	173.117	0.00044331	0.00027966	7.6817e-05	1042.2	5.141e-06	4.2474e-06	1126.7	224.68	6.0081e-06	2.9055e-06	289.68	82.636	64.34	18.555	4.4601e-06	26.715	0.00020211	0.00016084	4.1709e-05	1033.2	1.9518e-06	1.7399e-06	1107	223.94	1.8121e-06	1.6992e-06	281.94	83.12	64.38	18.818	1.647e-06	27.056	337.777	100.963	98.928	9.856	176.377	142.498	9.911	17.246	174.236	153.497	16.674	23.331	23.780	30.853	165.198	30.080	-8191	255	
8035.749	1	1	0	0	0.19333	0.14642	0.27509	0.18213	0.27321	0.34217	0.1478	0.10755	0.092972	0.25646	0.26122	0.1743	0.29156	0.053635	0.23477	0.28802	-2.5021	-2.8479	-2.5729	-3.1063	-2.9125	-2.7604	-3.1917	-2.9208	-2.8688	-2.9813	-2.7021	-3.125	-2.6896	-2.6771	-2.8458	-2.7021	182.649	155.558	310.036	258.798	338.351	211.685	203.254	348.964	170.596	264.548	6.933	29.373	315.900	262.182	328.492	279.082	0.00048122	0.00014191	6.05e-05	1045.2	5.1077e-06	2.5528e-06	1114.4	225.21	2.9152e-06	1.6328e-06	290.05	82.711	64.435	18.784	3.3369e-06	26.681	0.00020455	0.00015563	4.2596e-05	1034.6	1.9695e-06	1.7232e-06	1103.5	224.19	1.7392e-06	1.6372e-06	284.85	83.066	64.378	18.882	1.6258e-06	27.036	332.179	40.843	118.262	9.966	148.652	146.071	9.922	17.302	139.283	149.979	15.717	23.087	23.995	30.886	191.550	29.964	-8191	255	
8035.845	1	1	0	0	0.085938	0.20739	0.18526	0.12267	0.016731	0.15393	0.14905	0.081323	0.15842	0.079767	0.095791	0.21607	0.079559	0.072094	0.086462	0.19418	-2.6063	-3.0792	-2.7729	-2.9917	-2.75	-2.6437	-3.3063	-2.9854	-2.6979	-2.9396	-2.8396	-2.9729	-2.8292	-2.7625	-3.0187	-2.8396	121.859	234.016	157.937	288.655	94.654	175.916	299.369	259.251	77.261	154.816	177.807	291.786	246.290	353.161	97.189	23.971	0.00047365	0.00041227	8.3835e-05	1048.8	4.8173e-06	2.1095e-06	1118	224.33	4.0192e-06	2.5912e-06	287.39	82.427	64.312	18.529	4.1715e-06	26.555	0.00020463	0.00014797	4.1995e-05	1032.9	1.8674e-06	1.6723e-06	1103.2	223.53	1.7171e-06	1.5168e-06	283.31	82.847	64.35	18.809	1.6693e-06	26.939	335.554	93.371	109.289	9.922	158.747	138.972	9.853	17.427	169.698	166.325	16.503	23.154	23.767	30.855	167.474	30.033	-8191	255	
8035.941	1	1	0	0	0.26607	0.1267	0.3861	0.0099682	0.32172	0.2735	0.29968	0.13626	0.25817	0.14989	0.2061	0.16064	0.29716	0.12956	0.27447	0.15867	-2.3875	-2.9562	-2.7417	-3.0625	-2.9562	-2.8146	-3.3354	-2.9333	-2.6583	-3.0542	-2.8	-2.9	-2.9583	-2.5833	-2.9167	-2.8604	29.933	96.119	16.130	238.996	4.330	58.843	272.291	297.157	334.599	262.209	15.957	286.027	67.857	353.272	176.478	59.709	0.00049139	0.00021688	9.1365e-05	1043.5	5.3809e-06	2.366e-06	1116	223.49	6.7313e-06	2.5556e-06	291.38	82.589	64.567	18.614	2.6393e-06	26.433	0.00020772	0.00014095	4.3827e-05	1029.8	1.8407e-06	1.5517e-06	1100.9	223.46	1.8341e-06	1.597e-06	284.67	82.97	64.493	18.817	1.6488e-06	26.884	338.985	83.264	102.366	10.040	170.292	139.838	9.894	17.253	161.524	118.699	16.574	23.142	23.584	30.444	191.697	29.923	-8191	255	
8036.037	1	1	0	0	0.10516	0.10603	0.18444	0.33581	0.22876	0.20556	0.28624	0.37776	0.36183	0.14213	0.33106	0.090675	0.17516	0.099083	0.1284	0.14877	-2.5125	-2.9729	-2.7667	-3.1583	-2.85	-2.6958	-3.2771	-2.8563	-2.9083	-3.0667	-2.8583	-2.7521	-2.8875	-2.7062	-2.9917	-2.8375	226.526	324.373	44.567	351.465	194.425	234.245	319.230	319.403	137.138	205.481	192.185	1.630	163.570	137.404	76.301	259.104	0.00040743	0.00033916	6.6468e-05	1040.2	5.8958e-06	2.9726e-06	1114.9	225.26	3.5396e-06	3.383e-06	291.55	82.799	64.641	18.626	3.6221e-06	26.509	0.0002033	0.00015597	4.52e-05	1028.6	1.8761e-06	1.7759e-06	1100.5	223.84	1.8489e-06	1.7136e-06	283.66	82.955	64.357	18.813	1.6855e-06	26.92	333.938	107.421	103.862	9.853	162.541	157.960	10.143	17.056	186.618	177.404	17.823	23.241	23.980	30.619	153.247	29.756	-8191	255	
8036.133	1	1	0	0	0.060641	0.029338	0.15727	0.29895	0.26547	0.29388	0.26087	0.074136	0.04255	0.096506	0.21029	0.26238	0.35105	0.076272	0.087048	0.30176	-2.1958	-2.8417	-2.6771	-2.9667	-2.7979	-2.7	-3.0521	-2.7667	-2.8667	-3.0167	-2.7792	-2.8708	-2.9208	-2.8208	-2.9813	-2.9813	271.723	30.129	15.608	304.792	325.964	265.013	277.395	197.220	278.623	179.953	303.944	340.960	145.458	351.602	139.768	328.902	0.00045297	0.00040794	0.00011461	1045.7	5.0072e-06	1.5953e-06	1113.9	225.23	5.472e-06	2.3851e-06	290.32	82.81	64.435	18.507	4.2069e-06	26.39	0.00020636	0.00016196	4.6536e-05	1031.5	1.9118e-06	1.8389e-06	1101.6	223.9	1.8641e-06	1.5811e-06	285.44	82.86	64.277	18.736	1.7542e-06	26.906	330.490	97.642	90.246	9.931	152.854	129.685	9.987	17.223	150.052	134.557	15.855	23.280	23.900	30.558	164.853	29.989	-8191	255	
8036.228	1	1	0	0	0.13067	0.028807	0.073914	0.19692	0.11505	0.25604	0.22019	0.15151	0.087106	0.082956	0.22416	0.071074	0.14101	0.20766	0.065791	0.12935	-2.4188	-2.9583	-2.7104	-2.8187	-2.9313	-2.6396	-2.9437	-2.8375	-2.7854	-2.9458	-2.8125	-2.6458	-3.1417	-2.5542	-2.7896	-3.0708	252.538	268.711	163.862	9.109	295.353	243.500	324.734	277.237	184.424	274.714	229.822	208.646	206.076	111.309	351.856	352.654	0.00055267	0.0002874	8.834e-05	1045.7	3.8678e-06	3.0051e-06	1111.8	224.06	4.2789e-06	2.5874e-06	291.81	82.361	64.297	18.633	5.1912e-06	26.36	0.00021137	0.00016591	4.2128e-05	1031.2	1.9167e-06	1.8029e-06	1098.7	223.42	1.7863e-06	1.7208e-06	282.96	82.755	64.351	18.771	1.7934e-06	26.822	335.994	101.216	102.028	9.862	155.204	181.876	9.986	17.016	178.908	157.714	16.954	23.215	23.885	30.571	164.874	29.798	-8191	255	
8036.349	1	1	0	0	0.24422	0.13603	0.2631	0.093473	0.075215	0.11892	0.30161	0.22024	0.058933	0.27591	0.12835	0.15471	0.31009	0.38954	0.12284	0.31347	-2.2958	-3.0083	-2.7646	-2.8979	-3.0333	-2.6688	-2.9354	-3.0396	-2.5563	-3.025	-2.8146	-2.8542	-3.0458	-2.8792	-2.7833	-2.9688	263.190	341.313	123.013	1.702	112.162	51.593	331.837	332.597	34.687	309.754	125.064	97.613	17.893	78.978	233.406	170.900	0.00044991	0.00027492	8.8671e-05	1049.3	4.2908e-06	2.3359e-06	1117	224.4	5.3857e-06	4.3529e-06	293.6	82.017	64.335	18.606	3.5869e-06	26.371	0.00021534	0.00015144	4.5048e-05	1032.8	1.923e-06	1.7243e-06	1101	223.48	1.872e-06	1.6194e-06	284.75	82.589	64.342	18.769	1.7721e-06	26.872	334.321	68.104	67.852	9.951	163.535	134.475	10.221	17.529	148.331	170.805	15.832	23.412	23.856	31.021	193.844	30.010	-8191	255	
8036.445	1	1	0	0	0.23775	0.058089	0.085768	0.37924	0.12377	0.16689	0.27845	0.50044	0.12507	0.092743	0.03798	0.25894	0.20779	0.15716	0.098543	0.17927	-2.2417	-2.9688	-2.9021	-2.7333	-3.1146	-2.9167	-2.8792	-3.0917	-2.7042	-2.9104	-2.9437	-2.7229	-3.0292	-2.675	-2.7521	-2.9792	66.651	289.444	120.444	16.719	60.605	131.010	291.165	13.498	212.184	156.168	153.877	350.038	338.915	309.167	60.120	174.726	0.00042145	0.00025937	8.6506e-05	1040.8	3.4541e-06	2.917e-06	1110.6	225.47	5.5594e-06	5.2451e-06	289.18	81.928	64.186	18.489	1.6482e-06	26.542	0.00020262	0.00015638	4.6288e-05	1028.6	1.8497e-06	1.7846e-06	1098.4	223.31	1.9488e-06	1.7269e-06	282.41	82.469	64.207	18.694	1.7067e-06	26.909	330.808	62.379	79.227	9.979	131.840	163.575	10.131	17.077	170.725	154.746	16.877	23.417	23.646	30.586	165.038	30.070	-8191	255	
8036.541	1	1	0	0	0.13719	0.035071	0.13862	0.10665	0.068314	0.16147	0.3654	0.085198	0.2022	0.024709	0.18614	0.2992	0.19975	0.424	0.053387	0.053354	-2.2896	-2.8042	-3.0271	-2.5438	-3.0438	-2.8167	-2.7979	-3.1854	-2.7229	-2.9792	-2.8563	-2.8125	-2.9313	-2.9125	-2.6063	-2.9146	75.353	222.272	212.815	296.564	329.074	23.522	287.528	160.968	50.261	128.898	55.502	343.309	289.398	344.354	228.197	227.124	0.00043659	0.00036872	7.0202e-05	1043.5	4.1544e-06	2.175e-06	1109.4	223.96	4.7726e-06	4.2736e-06	286.04	81.875	64.154	18.475	4.6628e-06	26.497	0.00021086	0.00015733	4.3502e-05	1027.4	1.8643e-06	1.7846e-06	1099.2	222.75	1.9901e-06	1.6656e-06	282.67	82.554	63.841	18.654	1.7445e-06	26.707	334.643	107.180	98.843	9.993	159.725	119.258	10.226	17.461	182.870	145.464	16.709	23.379	23.758	30.952	161.850	30.242	-8191	255	
8036.637	1	1	0	0	0.083364	0.077897	0.13318	0.28981	0.11812	0.065092	0.19436	0.32431	0.13438	0.29983	0.20653	0.28523	0.23464	0.10967	0.31742	0.15589	-2.2646	-2.75	-2.7687	-2.8604	-2.7188	-2.9875	-2.8042	-3.0438	-2.6458	-2.6896	-2.9833	-2.6792	-2.7438	-2.7792	-2.9813	-3.025	180.502	67.858	207.771	290.026	293.240	206.158	306.615	347.540	316.448	205.396	0.337	89.992	276.529	2.654	278.646	190.516	0.00046828	0.00037797	6.1149e-05	1038.3	3.8809e-06	2.9337e-06	1114.1	222.49	5.053e-06	4.0179e-06	286.07	81.903	63.361	18.317	1.9822e-06	26.002	0.00020787	0.00015951	4.0516e-05	1025	2.0174e-06	1.8309e-06	1097.9	222.38	2.1535e-06	1.8578e-06	279.7	82.158	63.719	18.532	1.9271e-06	26.424	331.521	78.971	110.048	9.871	180.796	130.782	10.151	16.937	165.342	156.380	15.692	23.258	24.228	31.129	167.296	29.837	-8191	255	
8036.709	1	1	0	0	0.1853	0.24034	0.20517	0.30239	0.16717	0.22527	0.21758	0.17464	0.097215	0.056941	0.042244	0.077113	0.12408	0.27285	0.21637	0.18105	-2.3063	-2.7646	-2.8	-2.6	-2.8146	-2.925	-2.8312	-3.0167	-2.8333	-2.8646	-2.9104	-2.7625	-2.9208	-2.9917	-2.6688	-3.0521	288.032	270.040	3.296	21.432	35.489	7.380	232.605	306.193	74.050	129.461	88.571	306.224	319.810	344.576	336.423	16.689	0.00040107	0.00031722	6.862e-05	1043	4.0409e-06	1.9576e-06	1114.1	223.3	6.0495e-06	2.9685e-06	286.47	81.144	63.377	18.199	1.9125e-06	26.135	0.00022954	0.00018182	4.8167e-05	1029.1	2.1344e-06	1.9068e-06	1101.8	222.65	1.9763e-06	1.7095e-06	280.68	81.6	63.365	18.357	1.912e-06	26.41	330.290	73.080	99.136	9.890	157.585	93.721	10.036	17.368	159.796	138.773	17.803	23.479	23.871	30.457	159.102	30.207	-8191	255	
8036.829	1	1	0	0	0.10247	0.16419	0.20784	0.098842	0.31411	0.25039	0.23583	0.29895	0.11045	0.37633	0.131	0.18741	0.060609	0.22604	0.10426	0.036574	-2.3292	-2.6937	-3.0104	-2.8792	-2.8958	-2.9833	-2.7479	-3.1083	-2.7958	-2.7979	-2.8208	-2.7375	-2.9646	-2.8063	-2.75	-3.0333	96.001	154.013	345.997	34.833	310.713	92.820	260.979	267.650	325.438	5.454	120.895	102.222	273.037	291.542	255.610	44.361	0.00046838	0.00046232	9.0774e-05	1036.8	5.3939e-06	2.5604e-06	1109	221.63	4.191e-06	3.0584e-06	284.96	81.434	63.299	18.033	5.8483e-06	25.855	0.00020206	0.00016179	4.3483e-05	1022.3	1.9771e-06	1.6003e-06	1095.7	220.61	1.9274e-06	1.6182e-06	280.42	81.493	63.429	18.295	1.8531e-06	26.283	329.977	100.938	116.111	9.934	167.169	131.155	10.179	16.974	156.035	172.870	16.577	23.367	24.400	30.853	189.015	30.446	-8191	255	
8036.925	1	1	0	0	0.2448	0.39046	0.17737	0.055665	0.074804	0.17376	0.20434	0.12786	0.090476	0.26508	0.14194	0.18144	0.16454	0.089387	0.20121	0.24255	-2.4146	-2.6542	-3.0417	-2.8292	-2.9333	-2.9104	-2.8771	-2.8667	-2.9271	-2.7125	-3.0208	-2.8479	-2.8958	-2.9021	-2.7104	-3.1104	50.457	159.668	349.312	324.654	155.624	277.945	337.692	44.041	191.715	258.142	4.698	211.085	233.743	27.934	343.250	146.340	0.00041702	0.00026672	0.00010293	1033.5	4.7932e-06	2.6132e-06	1111.2	221.99	6.5998e-06	1.9417e-06	287.6	80.808	63.617	18.168	4.3789e-06	25.945	0.00020038	0.00015648	4.5038e-05	1015.6	1.9504e-06	1.683e-06	1096.3	220.52	1.9911e-06	1.7738e-06	279.75	81.432	63.387	18.285	2.0062e-06	26.359	343.311	72.710	63.201	9.911	165.281	102.956	10.041	17.194	168.037	189.100	16.831	23.012	24.206	30.415	183.507	30.075	-8191	255	
8037.022	1	1	0	0	0.12914	0.16004	0.17401	0.27075	0.10491	0.22035	0.2274	0.27659	0.16496	0.11945	0.24333	0.17798	0.1661	0.30761	0.11234	0.31172	-2.4437	-2.7667	-3.0542	-2.8792	-2.7062	-3.1729	-2.8208	-2.9479	-2.8583	-2.5938	-2.9958	-2.8063	-2.6167	-3.0125	-2.7	-2.9292	28.372	317.115	69.049	325.306	336.843	336.851	313.374	253.451	81.105	321.516	28.271	330.948	27.425	333.456	148.349	315.710	0.00046845	0.00046009	9.3166e-05	1025.5	3.5567e-06	2.5749e-06	1113.6	221.33	1.8683e-06	3.5876e-06	286.98	81.291	63.424	18.036	2.1598e-06	25.951	0.00021544	0.00018202	4.7509e-05	1015	1.9973e-06	1.7365e-06	1096.2	220.98	1.9281e-06	1.7727e-06	280.37	81.497	63.33	18.311	1.9484e-06	26.352	331.356	102.202	90.250	10.090	156.514	132.840	10.092	17.318	240.477	144.953	16.050	23.259	24.287	30.440	182.039	30.137	-8191	255	
8037.142	1	1	0	0	0.032943	0.20773	0.18597	0.22215	0.030516	0.090003	0.068674	0.12474	0.097802	0.052162	0.11718	0.11953	0.15923	0.057412	0.21375	0.16845	-2.4229	-2.5479	-2.7771	-2.825	-2.6312	-2.95	-2.9396	-3.0062	-3.0104	-2.6312	-2.9604	-2.9354	-2.55	-3.1146	-2.6854	-2.7271	317.419	168.557	136.330	234.043	227.373	58.144	355.755	273.521	240.274	44.411	207.134	163.780	61.524	283.097	50.325	62.454	0.00048745	0.00033815	7.865e-05	1032.4	5.7594e-06	4.1961e-06	1114.9	221.7	6.0483e-06	3.7847e-06	288.66	80.737	63.479	18.068	4.3121e-06	25.875	0.00021778	0.00018039	4.6393e-05	1018.2	2.0688e-06	1.8264e-06	1095.7	220.55	1.9381e-06	1.8681e-06	280.17	81.38	63.376	18.348	1.9832e-06	26.295	330.088	100.106	92.879	9.853	185.301	151.563	9.837	17.248	159.099	159.595	16.529	23.090	23.852	30.827	142.798	30.177	-8191	255	
8037.237	1	1	0	0	0.10965	0.20984	0.08819	0.38028	0.14472	0.10064	0.12399	0.18422	0.072217	0.2572	0.096049	0.13139	0.12893	0.058236	0.099423	0.39481	-2.5896	-2.4854	-2.8792	-3.0167	-2.7062	-2.9875	-2.8083	-2.8104	-2.9417	-2.7417	-2.7646	-2.9208	-2.7188	-2.8354	-2.9125	-2.7333	291.411	191.102	308.429	342.423	301.988	179.450	289.149	313.324	240.584	219.178	191.420	59.708	255.253	350.512	35.788	223.341	0.00050202	0.00035413	6.4313e-05	1034.5	4.837e-06	3.048e-06	1113.6	221.03	5.7355e-06	2.7885e-06	288.37	81.15	63.522	18.122	6.1712e-06	25.759	0.00021996	0.00018062	4.811e-05	1018.9	2.1316e-06	1.9068e-06	1098.1	221.21	2.0396e-06	1.9987e-06	281.84	81.671	63.511	18.38	2.1192e-06	26.32	332.295	79.726	83.851	9.882	156.874	140.572	9.649	17.495	136.787	158.006	17.899	23.417	23.908	30.640	146.902	30.121	-8191	255	
8037.310	1	1	0	0	0.093279	0.23136	0.043029	0.38098	0.11868	0.12098	0.23026	0.16054	0.071163	0.13933	0.11615	0.16313	0.029308	0.023396	0.25352	0.1074	-2.4521	-2.6542	-2.9125	-2.9979	-2.7562	-2.8979	-2.8688	-2.6958	-2.9562	-2.7396	-2.7396	-2.7562	-2.6688	-2.9625	-2.7896	-2.6396	236.717	118.867	19.177	323.554	82.997	145.806	322.612	24.872	16.025	308.339	295.502	14.356	299.852	103.970	170.460	359.254	0.00044522	0.00025365	8.6092e-05	1033.5	6.3241e-06	4.6988e-06	1114.8	222.48	5.2198e-06	2.6037e-06	278.32	80.774	63.416	18.186	2.8053e-06	26.073	0.00021441	0.000195	4.437e-05	1022.1	2.1612e-06	1.933e-06	1101.2	221.79	2.0964e-06	2.0127e-06	279.79	81.494	63.477	18.369	1.7729e-06	26.387	339.505	101.688	93.777	9.889	181.257	152.142	10.042	17.240	158.477	148.724	16.244	23.455	23.888	30.785	158.666	30.245	-8191	255	
8037.429	1	1	0	0	0.21134	0.1027	0.16194	0.2067	0.11602	0.10038	0.36954	0.11909	0.19962	0.15526	0.24672	0.22044	0.070133	0.32243	0.043515	0.32977	-2.6146	-2.8042	-2.7083	-3.2687	-2.675	-2.9042	-3.0708	-2.6437	-2.9604	-2.7833	-2.7125	-2.8292	-2.7896	-2.9042	-3.0271	-2.5812	87.306	166.691	255.654	113.461	101.653	238.275	281.445	302.328	297.337	98.923	217.615	265.494	232.515	18.346	17.620	7.624	0.00045159	0.00026356	0.00011632	1033.3	4.5195e-06	3.4673e-06	1109.8	222.29	4.5747e-06	1.7499e-06	279.15	80.992	62.89	18.089	2.2175e-06	25.757	0.0001995	0.00016074	4.003e-05	1018.7	1.6855e-06	1.4144e-06	1096.8	221.28	1.5943e-06	1.5338e-06	276.46	80.955	63.075	18.148	1.8703e-06	26.244	335.999	86.242	93.916	9.757	189.027	134.921	9.974	17.268	174.442	155.843	17.157	23.340	23.579	30.519	145.999	30.216	-8191	255	
8037.525	1	1	0	0	0.18496	0.12349	0.24308	0.13565	0.13926	0.10753	0.12044	0.098021	0.18084	0.12627	0.067989	0.10803	0.099178	0.2657	0.14539	0.10708	-2.3479	-2.6958	-2.6417	-3.1188	-2.7729	-2.8271	-2.9792	-2.7562	-3.1229	-2.8187	-2.825	-3.2667	-3.0042	-2.9542	-2.7687	-2.875	214.730	330.755	317.912	327.776	55.299	40.211	347.212	303.241	272.384	238.095	316.294	347.334	107.875	332.677	281.207	136.262	0.00046554	0.00026713	6.8067e-05	1037.9	3.5982e-06	2.5301e-06	1122.5	223.8	4.8436e-06	8.5079e-07	291.03	81.293	63.593	18.038	2.9204e-06	25.993	0.00021501	0.00018641	4.9903e-05	1023.5	2.3889e-06	2.1576e-06	1105.8	222.22	2.3965e-06	2.3473e-06	283.71	81.459	63.545	18.253	2.5528e-06	26.335	337.097	77.359	53.681	9.861	164.145	135.579	9.731	16.969	187.564	215.194	16.757	23.159	23.822	30.592	187.926	29.611	-8191	255	
8037.621	1	1	0	0	0.09098	0.24545	0.19263	0.28399	0.10469	0.17167	0.33319	0.22781	0.21441	0.049821	0.03101	0.18642	0.054053	0.11513	0.12917	0.23368	-2.3792	-2.7583	-2.6125	-3.0854	-2.6667	-3.0417	-3.2896	-2.7167	-2.9042	-2.9354	-2.9292	-2.9896	-2.8125	-2.7021	-2.9271	-2.7104	34.480	268.184	33.514	326.506	91.891	330.671	251.367	286.289	17.219	285.148	148.122	37.930	130.127	75.806	41.469	279.711	0.00041679	0.00031358	0.00010596	1048.3	5.6653e-06	3.4537e-06	1130.2	223.77	5.6876e-06	3.2365e-06	280.69	81.069	63.144	17.952	3.6723e-06	25.855	0.00024639	0.00023385	6.2868e-05	1037.1	2.7608e-06	2.3833e-06	1112.3	223.42	2.3669e-06	2.3624e-06	281.53	81.397	63.216	18.209	2.3993e-06	26.301	336.279	81.846	105.455	9.960	129.908	114.768	9.980	16.772	163.828	131.878	16.642	23.311	23.959	30.440	179.411	29.926	-8191	255	
8037.742	1	1	0	0	0.1183	0.13383	0.055635	0.29173	0.13886	0.20774	0.3224	0.22906	0.047975	0.098768	0.17737	0.18417	0.22204	0.19687	0.33421	0.064292	-2.5979	-2.6417	-2.5563	-2.9479	-2.7667	-2.8917	-3.0917	-2.7333	-2.8229	-2.7938	-2.725	-2.9646	-2.6667	-2.8458	-2.8896	-2.8021	122.195	204.891	346.328	272.996	268.822	285.759	301.984	260.122	44.140	264.227	228.758	189.448	334.616	227.998	112.486	167.825	0.00042554	0.00022921	9.1967e-05	1033.5	4.8189e-06	1.5479e-06	1113.8	222.53	3.6198e-06	2.499e-06	288.32	81.117	63.412	17.843	5.0114e-06	25.882	0.00024325	0.0002221	6.2639e-05	1020	2.6001e-06	2.2778e-06	1100.8	221.83	2.4251e-06	2.272e-06	281.92	81.132	63.191	18.114	2.4939e-06	26.296	340.495	74.184	83.160	9.841	157.287	165.009	9.756	17.078	204.527	158.602	16.594	23.050	23.639	30.728	152.583	29.928	-8191	255	
8037.838	1	1	0	0	0.09917	0.10335	0.11968	0.010078	0.28342	0.022937	0.14956	0.37522	0.17201	0.09174	0.15583	0.21979	0.36597	0.18326	0.20785	0.10724	-2.4208	-2.7708	-2.5542	-3.0083	-2.6771	-2.6542	-2.9646	-2.7104	-2.7938	-2.9167	-2.5646	-2.9292	-3.0167	-2.7354	-2.8833	-2.7604	162.905	223.842	288.060	346.189	219.607	234.239	290.354	298.946	211.008	249.868	74.504	246.000	354.975	113.595	309.955	20.993	0.00041129	0.0003733	0.00010065	1038.5	2.4062e-06	3.1601e-06	1116.3	222.68	4.2385e-06	3.681e-06	281.04	80.849	62.788	17.91	4.4375e-06	25.886	0.00025403	0.00022204	6.367e-05	1024.2	2.5771e-06	2.3746e-06	1102.3	221.63	2.3676e-06	2.4313e-06	283.11	81.322	63.246	18.165	2.4475e-06	26.233	331.843	88.070	69.790	9.819	116.265	125.645	9.902	17.163	188.717	135.948	15.860	22.933	23.940	30.598	151.167	29.591	-8191	255	
8037.934	1	1	0	0	0.063671	0.066687	0.12098	0.26963	0.10472	0.10761	0.20962	0.13575	0.19461	0.15995	0.043988	0.074017	0.16315	0.096814	0.16236	0.3498	-2.4188	-3	-2.5604	-3.1188	-2.7313	-2.7375	-3.0563	-2.8125	-2.7687	-3.1354	-2.7333	-2.8396	-2.8083	-2.6937	-2.8417	-2.6708	269.336	357.071	151.672	260.136	84.143	326.602	272.899	276.538	113.869	212.906	334.259	273.898	350.032	111.505	329.062	292.379	0.00040278	0.00024235	8.7335e-05	1041.2	6.4469e-06	2.7488e-06	1115	223.24	4.3254e-06	2.6597e-06	289.14	81.046	63.407	18.1	1.044e-06	25.917	0.00024656	0.00022473	6.4347e-05	1025.5	2.4823e-06	2.3681e-06	1104.5	222.49	2.3518e-06	2.3988e-06	282.22	81.439	63.432	18.216	2.3705e-06	26.318	328.770	20.654	89.451	9.913	163.487	139.021	9.936	17.017	178.575	147.378	15.822	23.373	24.078	30.859	199.073	29.908	-8191	255	
8038.006	1	1	0	0	0.19086	0.074549	0.11375	0.32075	0.13488	0.27052	0.21971	0.22543	0.063255	0.040298	0.22167	0.20641	0.11336	0.18824	0.15573	0.16517	-2.1792	-2.8229	-2.7354	-2.8937	-2.9604	-2.5479	-3.1021	-2.7646	-2.775	-3.025	-2.75	-2.8708	-2.7333	-2.6292	-2.9479	-2.7354	221.544	28.656	19.220	306.283	16.054	14.525	299.766	348.682	249.141	134.990	70.385	299.456	128.125	86.961	338.474	271.207	0.00037024	0.00029879	6.602e-05	1032.3	2.933e-06	3.5916e-06	1115	222.25	6.2083e-06	1.2557e-06	285.63	80.931	63.844	18.059	2.8758e-06	25.706	0.00024956	0.0002094	6.117e-05	1021.5	2.648e-06	2.3465e-06	1101.7	221.63	2.4974e-06	2.4457e-06	283.13	81.193	63.334	18.228	2.5342e-06	26.329	324.268	64.423	62.655	9.760	171.808	144.014	9.982	17.071	169.365	160.197	16.364	23.188	24.078	30.675	167.291	29.663	-8191	255	
8038.126	1	1	0	0	0.083491	0.067407	0.046847	0.22935	0.21072	0.094263	0.23494	0.22397	0.15949	0.18476	0.32021	0.12801	0.11783	0.20086	0.099107	0.040901	-2.2396	-2.9208	-2.6479	-2.9104	-2.9437	-2.6396	-2.9833	-2.9583	-2.6937	-3.0687	-2.725	-2.9437	-3.0187	-2.65	-2.825	-2.8771	43.166	328.883	299.252	302.222	323.002	245.686	285.048	288.127	356.750	262.335	305.057	161.615	38.489	353.870	217.694	162.118	0.00044455	0.00022782	0.00012134	1037.6	4.3849e-06	3.1283e-06	1123.5	224.46	5.2165e-06	4.1769e-06	285.01	81.141	63.269	18.117	4.0914e-06	26.103	0.00025954	0.00023174	6.9527e-05	1026.9	2.7528e-06	2.5605e-06	1108.9	222.89	2.5098e-06	2.5244e-06	282.3	81.579	63.461	18.252	2.2644e-06	26.418	329.263	53.753	82.269	9.764	185.260	143.620	9.705	17.163	149.953	154.869	15.596	23.327	23.619	30.746	156.881	30.326	-8191	255	
8038.223	1	1	0	0	0.081799	0.024027	0.11429	0.13075	0.1561	0.19767	0.051766	0.12173	0.16362	0.10304	0.2652	0.22685	0.16861	0.097787	0.10436	0.14184	-2.3708	-3.0604	-2.7458	-3.0563	-2.9458	-2.575	-2.9229	-2.8271	-2.7229	-2.9854	-2.9167	-2.9375	-2.9125	-2.5417	-2.7021	-2.8646	15.199	227.203	111.328	355.121	325.569	260.968	249.860	295.491	99.871	112.993	319.903	295.630	260.064	75.110	81.117	232.128	0.00047025	0.00020999	0.0001211	1040.1	4.4691e-06	1.8001e-06	1122	223.92	6.755e-06	3.0612e-06	286.21	81.149	63.462	18.057	2.9868e-06	25.896	0.00026044	0.00021689	5.9386e-05	1027.6	2.4691e-06	2.496e-06	1106.7	222.75	2.5277e-06	2.431e-06	282.51	81.662	63.635	18.285	2.35e-06	26.447	327.254	96.842	94.506	9.868	150.802	158.059	9.930	17.238	193.157	147.234	16.077	23.091	23.853	30.284	169.369	29.844	-8191	255	
8038.317	1	1	0	0	0.17648	0.26681	0.16869	0.25107	0.1894	0.2368	0.31096	0.079382	0.067396	0.055311	0.063222	0.11509	0.116	0.19808	0.040112	0.11166	-2.1188	-2.9062	-2.6896	-2.8187	-2.925	-2.7062	-2.9688	-3.0792	-2.5687	-3.1708	-2.7479	-2.625	-2.8854	-2.7917	-2.725	-2.9958	102.273	280.251	342.911	274.142	140.539	330.987	16.026	339.522	290.520	72.724	16.779	21.848	222.533	243.663	61.237	112.268	0.00049764	0.00035754	7.0604e-05	1042.4	6.2181e-06	1.0716e-06	1121.9	224.41	9.2925e-06	1.5351e-06	283.22	81.401	63.78	18.139	4.4298e-06	25.89	0.00025614	0.00021836	6.3374e-05	1030	2.6219e-06	2.4778e-06	1107.5	222.91	2.4399e-06	2.2284e-06	280.95	81.773	63.681	18.332	2.1709e-06	26.386	332.358	93.844	100.045	9.827	161.903	120.369	9.844	17.055	162.613	145.070	16.158	23.081	23.568	30.496	130.749	29.868	-8191	255	
8038.413	1	1	0	0	0.1054	0.17133	0.034261	0.16398	0.25202	0.12315	0.25335	0.13425	0.17212	0.31559	0.16325	0.051391	0.21644	0.2861	0.083912	0.1346	-2.2854	-2.7667	-2.9542	-2.7333	-2.9146	-2.8292	-2.9125	-2.8729	-2.7625	-2.8979	-2.7104	-2.9188	-2.7729	-2.7771	-2.7521	-3.1063	295.813	220.065	114.126	21.587	31.349	223.239	313.060	294.645	305.902	222.508	20.837	226.684	324.429	322.235	258.740	9.302	0.00044215	0.00019404	0.0001075	1034.4	4.5198e-06	1.6988e-06	1117.8	223.76	4.6583e-06	2.1831e-06	288.88	81.147	63.77	18.068	5.2108e-06	26.239	0.00024586	0.00020695	5.4807e-05	1024.8	2.3591e-06	2.3366e-06	1103.9	222.37	2.4069e-06	2.2031e-06	282.38	81.672	63.641	18.319	2.2022e-06	26.448	334.958	80.070	82.821	9.675	156.813	155.481	9.956	17.226	165.859	148.460	17.223	23.171	23.794	30.543	185.122	30.030	-8191	255	
8038.534	1	1	0	0	0.049448	0.012501	0.083734	0.14812	0.10841	0.18293	0.14184	0.2517	0.34505	0.10392	0.051079	0.12495	0.043187	0.21539	0.14066	0.1315	-2.0958	-2.7896	-2.7604	-2.8792	-2.9708	-2.7875	-3.075	-3.0625	-2.8063	-2.8521	-2.95	-2.7021	-2.9833	-2.9292	-2.8438	-3.05	195.714	278.967	318.772	58.508	168.118	314.419	305.730	48.422	18.350	59.507	21.675	297.255	321.911	164.565	31.282	21.008	0.0004448	0.00036014	0.00010362	1040.1	5.3252e-06	1.6839e-06	1120.9	222.93	4.787e-06	1.0773e-06	289.46	81.241	63.657	18.14	3.7232e-06	26	0.00024523	0.00020279	5.93e-05	1027.1	2.3653e-06	2.3188e-06	1105.3	222.15	2.623e-06	2.3946e-06	283.18	81.827	63.808	18.395	2.5561e-06	26.389	340.736	124.832	101.322	9.987	168.209	220.868	9.737	17.210	204.080	165.502	16.941	23.082	23.737	30.367	202.564	29.526	-8191	255	
8038.605	1	1	0	0	0.067532	0.21623	0.26519	0.11667	0.19722	0.068964	0.22174	0.28823	0.18202	0.074525	0.099998	0.25614	0.067448	0.096664	0.049584	0.23249	-2.1396	-2.8708	-2.9167	-2.7979	-3.0146	-2.7042	-2.9604	-3.0458	-2.7854	-3.0354	-2.7875	-2.775	-3.0458	-2.7458	-2.7062	-2.8438	16.516	343.435	277.136	335.850	145.085	215.164	243.768	306.498	291.526	178.403	165.613	9.709	29.106	5.500	281.567	328.067	0.00042334	0.00036826	5.2276e-05	1044.7	5.62e-06	2.5304e-06	1120	223.18	5.9674e-06	3.3174e-06	283.88	81.321	63.748	18.229	3.3791e-06	25.828	0.00024604	0.00019731	5.6648e-05	1027.8	2.4601e-06	2.2923e-06	1108.3	222.68	2.3349e-06	2.2265e-06	283.35	81.782	63.788	18.409	2.2022e-06	26.348	337.125	77.325	85.199	9.801	176.997	117.730	9.959	16.800	156.862	170.764	17.332	23.159	23.974	30.601	160.649	30.186	-8191	255	
8038.702	1	1	0	0	0.15371	0.22963	0.046465	0.27589	0.413	0.19265	0.022709	0.12966	0.25579	0.052476	0.16307	0.18738	0.25462	0.21309	0.14348	0.12739	-2.2396	-2.8187	-3.0438	-2.825	-2.9167	-2.9604	-2.8271	-2.8354	-2.6	-2.8479	-2.7771	-2.7313	-2.8958	-2.9146	-2.6917	-2.9562	251.821	2.352	99.904	327.682	226.524	106.302	99.304	-0.585	127.669	188.626	60.590	115.232	275.371	315.629	58.148	272.575	0.0005046	0.00028996	8.4502e-05	1036.7	3.9795e-06	5.351e-06	1117.5	223.82	6.0835e-06	2.2276e-06	286.13	81.522	63.472	18.338	5.0612e-06	25.943	0.00023962	0.00018716	5.4693e-05	1024.9	2.2525e-06	2.2843e-06	1104.3	222.4	2.2437e-06	2.2159e-06	283.17	81.935	63.666	18.487	2.2044e-06	26.429	332.727	111.910	87.507	9.914	187.564	161.560	9.972	16.933	172.460	137.583	16.114	22.864	23.970	30.423	193.068	30.018	-8191	255	
8038.822	1	1	0	0	0.082251	0.22275	0.18508	0.33672	0.14872	0.13499	0.17259	0.14568	0.20212	0.093738	0.11853	0.29979	0.16693	0.2738	0.099563	0.18422	-2.2104	-2.5583	-2.8646	-2.7083	-2.7833	-2.8875	-2.7604	-2.9583	-2.8542	-2.6604	-2.9104	-2.9	-2.8229	-2.9813	-2.8625	-3.0312	183.701	164.092	207.324	122.167	89.133	47.801	196.630	218.918	37.006	294.532	328.713	340.830	162.424	285.712	126.940	315.358	0.00043964	0.00032246	8.6241e-05	1041.2	5.2812e-06	2.7396e-06	1115.2	223.19	5.2764e-06	3.5163e-06	282.88	80.933	63.584	18.273	3.8552e-06	25.891	0.00023716	0.00021151	5.7039e-05	1025.1	2.2844e-06	2.2672e-06	1103.3	222.25	2.3625e-06	2.2523e-06	281.12	81.643	63.759	18.477	2.3187e-06	26.35	339.311	66.243	105.317	9.919	174.765	133.443	9.820	16.960	147.344	139.668	16.835	23.539	24.271	30.750	164.594	29.995	-8191	255	
8038.918	1	1	0	0	0.1258	0.13897	0.18838	0.28681	0.081151	0.29365	0.21571	0.3229	0.055925	0.20277	0.1261	0.28765	0.12929	0.2019	0.15586	0.14059	-2.375	-2.5979	-3.0167	-2.8917	-2.9125	-2.9021	-2.8937	-3.0396	-2.7458	-2.7104	-2.9458	-2.8021	-2.8479	-3.0729	-2.7146	-2.8667	30.469	304.593	155.508	287.497	104.892	278.862	321.825	117.045	145.929	31.980	277.578	41.041	343.219	304.094	19.242	302.040	0.00047622	0.00026837	8.4974e-05	1039	3.4096e-06	2.3364e-06	1115.1	223.24	3.7095e-06	2.5079e-06	287.69	81.877	64.021	18.396	3.7491e-06	25.928	0.00024951	0.00020974	5.6801e-05	1024.7	2.3539e-06	2.2778e-06	1103.7	222.41	2.3019e-06	2.3284e-06	282.44	81.888	63.902	18.469	2.2166e-06	26.327	334.739	105.293	97.542	9.857	205.367	168.573	9.888	17.344	149.681	147.820	17.160	23.303	23.790	30.740	120.889	30.100	-8191	255	
8039.014	1	1	0	0	0.11971	0.24417	0.1765	0.22581	0.17846	0.10667	0.20684	0.22873	0.22553	0.018748	0.23965	0.27924	0.17952	0.25362	0.091031	0.27986	-2.4	-2.75	-2.9458	-3.0062	-2.6396	-2.8125	-2.9896	-2.9667	-2.9437	-2.6604	-3.0187	-2.9625	-2.9271	-2.8563	-2.7417	-2.9417	169.046	200.041	119.683	348.532	227.605	306.773	309.465	13.112	148.314	236.268	147.710	116.308	321.199	306.290	84.126	329.879	0.00043507	0.00028608	4.9495e-05	1036.4	5.6523e-06	2.8849e-06	1122.9	223.25	6.9802e-06	2.8566e-06	291.41	81.465	63.816	18.354	3.1966e-06	26.1	0.00024526	0.00020242	5.6123e-05	1021.8	2.3292e-06	2.2555e-06	1103.6	222.47	2.2809e-06	2.2458e-06	282.48	82.035	63.718	18.497	2.2044e-06	26.469	332.335	58.618	116.762	9.617	194.267	137.866	10.078	17.138	173.063	101.231	15.717	23.553	23.807	30.464	178.176	30.218	-8191	255	
8039.111	1	1	0	0	0.10688	0.060848	0.036036	0.24165	0.10037	0.13755	0.11215	0.21542	0.10301	0.064879	0.054129	0.14631	0.086443	0.39555	0.14704	0.15249	-2.5771	-2.7271	-2.9875	-2.8187	-2.5875	-2.9646	-2.7896	-2.8417	-2.95	-2.7812	-3.0646	-2.9771	-2.8812	-2.9104	-2.6188	-2.8187	104.114	153.835	71.578	275.718	280.170	341.289	101.553	293.710	146.824	290.562	157.337	129.721	116.707	331.170	79.796	289.116	0.00041136	0.00016782	6.4414e-05	1037.4	5.6308e-06	4.0781e-06	1119.5	223.84	6.7314e-06	3.881e-06	286.01	81.418	63.891	18.334	2.9635e-06	26.135	0.00023832	0.00020378	5.4006e-05	1024	2.3632e-06	2.2008e-06	1104	222.76	2.4468e-06	2.3163e-06	282.51	81.924	63.775	18.508	2.2375e-06	26.473	338.190	82.638	93.617	9.764	162.163	157.305	9.943	16.890	180.872	157.435	16.722	23.162	23.743	30.547	158.454	30.377	-8191	255	
8039.207	1	1	0	0	0.076165	0.22621	0.14733	0.4268	0.059897	0.042028	0.13614	0.02497	0.15341	0.18556	0.18792	0.255	0.1067	0.20102	0.13936	0.10022	-2.3438	-2.6271	-2.9333	-2.7687	-2.7729	-3.0875	-2.8604	-2.9437	-3.0208	-2.6917	-2.9188	-2.9604	-2.5438	-2.9479	-2.8479	-2.5771	183.376	332.632	82.755	316.271	334.637	84.253	270.804	136.700	238.356	91.338	325.017	290.523	326.357	49.749	338.268	63.132	0.00044569	0.00036951	7.4402e-05	1036.9	4.2112e-06	3.1018e-06	1115.5	223.77	7.699e-06	2.2331e-06	282.01	81.907	63.864	18.305	3.4538e-06	26.042	0.00024428	0.00021267	5.2861e-05	1025.9	2.3629e-06	2.1382e-06	1102.5	222.72	2.2258e-06	2.208e-06	280.14	81.993	63.735	18.546	2.0749e-06	26.497	333.760	106.116	93.763	9.962	189.392	145.681	9.893	17.094	153.543	169.391	16.323	23.562	23.891	30.860	173.828	29.681	-8191	255	
8039.301	1	1	0	0	0.029351	0.15023	0.25339	0.40786	0.18672	0.10635	0.21672	0.17073	0.1666	0.15449	0.19897	0.16139	0.093488	0.13317	0.18133	0.11157	-2.4208	-2.7562	-2.9479	-2.8646	-2.4542	-3.0271	-2.8167	-2.7625	-3.0917	-2.6354	-2.7229	-2.9854	-2.6604	-2.9708	-2.8688	-2.8625	154.650	108.449	334.980	20.633	295.065	258.232	325.936	210.361	100.743	146.427	304.690	332.970	192.276	287.660	20.990	304.171	0.00044386	0.00020616	5.9659e-05	1036	1.6344e-06	2.6767e-06	1116.5	224.04	6.7368e-06	2.205e-06	284.14	81.319	63.287	18.506	5.8142e-06	26.099	0.00022979	0.00018614	4.8616e-05	1024	2.2448e-06	1.9489e-06	1103.4	222.73	2.083e-06	1.8385e-06	280.03	81.874	63.616	18.533	1.7222e-06	26.475	332.361	84.283	126.088	9.965	159.635	158.357	9.994	17.008	162.201	169.377	16.446	23.294	23.527	30.681	179.635	30.035	-8191	255	
8039.422	1	1	0	0	0.11468	0.094507	0.025418	0.091471	0.16361	0.089642	0.20143	0.1808	0.11535	0.39028	0.2792	0.12619	0.025473	0.13526	0.24293	0.20335	-2.5083	-2.6083	-2.6896	-2.9313	-2.5833	-2.8292	-2.7958	-2.5	-2.8688	-2.6688	-2.8521	-3.0167	-2.6521	-2.95	-2.8167	-2.4583	265.816	98.994	0.781	275.098	27.767	75.230	345.519	38.645	166.140	45.190	322.840	239.123	56.971	349.412	342.835	251.917	0.0004128	0.00031378	3.6311e-05	1029.5	5.81e-06	2.726e-06	1106	221.29	4.277e-06	3.5324e-06	286.96	80.998	63.604	18.255	3.0124e-06	25.98	0.00019988	0.00015835	4.3101e-05	1012.2	1.974e-06	1.6344e-06	1092.7	220.66	2.0193e-06	1.7734e-06	280.37	81.264	63.456	18.46	1.8469e-06	26.394	329.846	99.404	80.185	9.719	170.653	157.064	10.025	16.861	160.381	164.484	16.890	23.471	23.975	30.683	165.709	29.976	-8191	255	
8039.518	1	1	0	0	0.18057	0.095493	0.17346	0.2433	0.40349	0.091079	0.19248	0.12304	0.12426	0.095266	0.12856	0.055361	0.063584	0.16726	0.33692	0.21868	-2.5479	-2.6167	-2.6771	-3.0542	-2.6292	-2.9938	-2.8458	-2.6146	-2.9688	-2.8021	-2.7604	-2.9458	-2.6708	-2.8563	-2.8583	-2.7083	145.319	227.977	326.326	268.679	117.275	51.475	355.997	332.735	257.531	194.230	293.424	309.382	239.769	281.947	73.150	278.791	0.00054042	0.0001695	9.2993e-05	1024.3	4.5873e-06	4.0426e-06	1105.1	220.89	7.944e-06	3.624e-06	288.91	81.542	63.14	18.338	3.6571e-06	26.001	0.00020925	0.00015144	4.2844e-05	1011.6	2.0337e-06	1.7577e-06	1092.3	220.54	1.8421e-06	1.8102e-06	279.04	81.607	63.259	18.44	1.8584e-06	26.388	335.782	98.975	99.555	9.918	171.563	154.833	10.005	17.090	149.321	153.306	15.784	22.963	24.040	30.404	145.911	29.819	-8191	255	
8039.614	1	1	0	0	0.12428	0.12353	0.079247	0.42645	0.24725	0.065657	0.13352	0.2656	0.12828	0.1017	0.26907	0.31048	0.025253	0.19229	0.24479	0.050565	-2.425	-2.6792	-2.5938	-3.0542	-2.6188	-2.7583	-3.0333	-2.7854	-2.9688	-2.7854	-2.6771	-2.8375	-2.7687	-2.8812	-2.8458	-2.9313	331.892	332.551	229.585	349.993	118.772	89.414	283.269	50.507	81.630	290.175	32.850	130.127	33.489	200.423	164.223	91.486	0.00047071	0.00029473	0.00013559	1025.8	5.4026e-06	1.7469e-06	1106.3	221.83	5.9407e-06	2.13e-06	281.09	81.173	63.958	18.344	2.7338e-06	25.997	0.00019681	0.00015985	4.3388e-05	1011.4	2.0094e-06	1.6765e-06	1092.8	220.74	1.8063e-06	1.8124e-06	278.27	81.576	63.617	18.506	1.8674e-06	26.382	342.446	114.249	89.212	9.933	194.497	164.257	9.879	17.129	144.627	143.107	16.995	22.993	23.888	30.962	127.246	30.062	-8191	255	
8039.710	1	1	0	0	0.12245	0.10232	0.29475	0.19467	0.33719	0.047121	0.043234	0.035453	0.19481	0.13613	0.095175	0.10129	0.066437	0.13495	0.055819	0.17776	-2.5	-2.6562	-2.7167	-3.1146	-2.5104	-2.7917	-3.0604	-2.9125	-2.7354	-2.8958	-2.5458	-3.0062	-2.6688	-2.7	-2.9729	-2.8125	140.350	58.884	255.466	321.321	73.556	174.679	162.690	333.415	129.964	123.292	165.186	297.817	147.035	331.358	317.211	357.198	0.00043967	0.00020345	9.9382e-05	1024.2	4.42e-06	2.3071e-06	1110.4	222.32	3.1611e-06	1.7689e-06	283.43	81.331	63.508	18.442	3.7708e-06	25.876	0.00019807	0.00016782	4.4647e-05	1011.1	1.9681e-06	1.8097e-06	1092.8	220.84	1.8517e-06	1.8476e-06	279.43	81.665	63.337	18.503	1.8786e-06	26.43	334.895	62.744	92.833	10.069	175.921	144.744	10.041	17.059	164.252	141.231	15.468	23.210	23.723	30.541	169.994	30.105	-8191	255	
8039.831	1	1	0	0	0.23696	0.10286	0.14711	0.044651	0.15896	0.24829	0.075435	0.13037	0.26293	0.088665	0.21806	0.1276	0.2503	0.12983	0.092896	0.038313	-2.4062	-2.675	-2.5667	-3.0021	-2.7292	-2.7896	-3.2646	-2.8271	-2.7708	-2.6437	-2.4083	-2.9062	-2.7125	-2.7417	-3.0229	-2.6271	213.354	240.766	14.794	32.804	35.707	97.133	259.144	278.137	47.964	143.863	124.318	303.460	343.529	299.912	193.845	235.601	0.00047843	0.00026929	9.9495e-05	1022.1	4.3323e-06	4.1054e-06	1112.7	222.09	4.9323e-06	8.9587e-07	284.41	81.376	63.567	18.437	3.5073e-06	26.1	0.00021001	0.00017058	4.5143e-05	1012.9	1.9382e-06	1.7566e-06	1095.4	220.96	1.839e-06	1.7428e-06	278.59	81.707	63.45	18.533	1.8264e-06	26.485	334.501	75.236	110.218	9.913	173.346	136.555	9.998	16.888	178.156	146.881	16.760	23.084	24.293	30.412	164.779	29.637	-8191	255	
8039.903	1	1	0	0	0.13337	0.20316	0.21574	0.14147	0.23868	0.13957	0.17432	0.163	0.2314	0.34497	0.15614	0.11334	0.14843	0.061598	0.10156	0.071609	-2.5104	-2.6896	-2.5938	-2.9125	-2.6417	-2.6083	-2.9792	-2.8021	-2.6417	-2.8458	-2.675	-2.9729	-2.9521	-2.7396	-3.0938	-2.8667	207.758	144.661	254.732	225.890	152.249	302.342	112.588	322.113	211.034	175.176	289.775	37.518	254.716	309.025	107.591	116.986	0.00046053	0.00036702	8.8194e-05	1027.4	3.9495e-06	1.6053e-06	1108.3	222.28	6.7925e-06	1.6591e-06	288.11	81.667	63.632	18.405	1.948e-06	26.055	0.00020312	0.00016149	4.3865e-05	1015.3	1.9348e-06	1.7224e-06	1095.6	220.95	1.8448e-06	1.7685e-06	279.43	81.741	63.559	18.54	1.6549e-06	26.528	334.005	70.762	111.697	10.029	164.033	172.285	10.019	17.482	160.324	148.505	18.068	23.007	23.866	30.956	159.176	30.127	-8191	255	
8039.999	1	1	0	0	0.065159	0.27039	0.10316	0.070676	0.16568	0.26979	0.18004	0.066822	0.21843	0.19409	0.16098	0.20178	0.10763	0.14585	0.18531	0.12126	-2.3146	-2.7146	-2.5438	-3.0646	-2.8104	-2.7333	-3.1375	-2.9188	-2.8333	-2.8438	-2.7375	-3.0458	-2.8896	-2.8229	-2.9271	-2.8021	43.159	88.652	142.573	263.222	237.163	342.380	262.099	171.772	23.683	209.482	289.505	2.445	350.457	80.083	152.294	270.174	0.00050063	0.00035931	8.2175e-05	1027.1	7.1999e-06	2.3866e-06	1107.5	221.7	5.0921e-06	3.2121e-06	283.88	81.842	63.894	18.38	3.2018e-06	26.023	0.00021396	0.00016414	4.2376e-05	1013.9	2.074e-06	1.6712e-06	1094	221.04	1.8796e-06	1.6061e-06	280.35	81.745	63.594	18.509	1.7042e-06	26.473	332.709	83.864	116.509	9.974	147.139	152.375	10.093	17.128	151.635	118.498	15.801	23.486	23.638	30.783	176.265	29.878	-8191	255	
8040.095	1	1	0	0	0.17122	0.29002	0.077031	0.29504	0.36526	0.19057	0.12715	0.11222	0.01134	0.318	0.22951	0.1267	0.18995	0.23575	0.152	0.13336	-2.3729	-2.8812	-2.65	-2.8958	-2.9729	-2.5458	-3.0729	-2.8833	-2.6854	-2.8479	-2.55	-2.8854	-2.7125	-2.8417	-2.8438	-2.8375	32.359	275.236	353.811	317.587	135.696	185.114	11.399	228.488	233.255	302.227	189.522	34.746	18.655	79.576	93.542	326.847	0.00045705	0.00036392	8.4865e-05	1028.4	4.5683e-06	3.7004e-06	1109.7	222.02	6.6415e-06	3.2115e-06	285.63	81.283	63.443	18.393	3.0426e-06	26.185	0.00020234	0.00015587	4.6545e-05	1013	1.9882e-06	1.705e-06	1093.5	221.16	1.9735e-06	1.6996e-06	278.86	81.728	63.561	18.543	1.6754e-06	26.526	336.683	73.446	81.443	10.062	170.014	150.418	10.040	17.267	160.347	169.022	16.839	23.290	24.016	30.106	143.186	30.173	-8191	255	
8040.191	1	1	0	0	0.12721	0.25011	0.35726	0.15706	0.081934	0.06689	0.13839	0.25256	0.18871	0.36905	0.078525	0.16071	0.076949	0.30198	0.091472	0.11843	-2.1333	-2.9083	-2.5812	-2.9479	-2.9021	-2.6375	-3.0354	-2.7458	-2.6979	-2.95	-2.5917	-2.8167	-2.8167	-2.6667	-2.8458	-2.8104	143.360	171.556	241.089	321.196	126.834	133.851	350.256	245.777	109.974	12.538	24.698	267.204	173.876	274.748	19.514	299.203	0.00045415	0.00024787	5.5168e-05	1029	3.6738e-06	3.9479e-06	1110.8	223.11	4.4895e-06	4.0527e-06	284.87	82.074	63.284	18.441	2.705e-06	26.161	0.0002127	0.00016012	4.4876e-05	1013.1	2.015e-06	1.8268e-06	1094.4	221.19	1.8407e-06	1.6803e-06	279.5	81.863	63.598	18.581	1.6999e-06	26.596	337.826	78.131	110.503	9.849	139.175	155.407	10.232	17.191	171.501	166.127	16.827	23.462	24.058	30.533	151.991	30.086	-8191	255	
8040.310	1	1	0	0	0.15518	0.10501	0.15096	0.22353	0.17265	0.25597	0.16936	0.10533	0.37472	0.19356	0.21914	0.17401	0.23171	0.12552	0.23016	0.43081	-2.2896	-2.8167	-2.6292	-2.8917	-3.1625	-2.7104	-2.9562	-2.8729	-2.7667	-2.9958	-2.6813	-2.8396	-2.8458	-2.4771	-2.9729	-2.8	359.103	132.081	358.394	324.646	24.455	286.290	208.770	288.239	353.144	118.303	121.767	282.838	225.978	18.121	356.152	348.862	0.00044602	0.00019126	5.1147e-05	1031.9	6.0605e-06	2.1581e-06	1103.8	222.18	3.5632e-06	2.831e-06	283.26	81.301	63.692	18.432	4.4763e-06	25.994	0.00020536	0.00014688	5.059e-05	1016.3	2.0021e-06	1.8537e-06	1093.4	221.46	1.9123e-06	1.6909e-06	280.62	81.85	63.695	18.631	1.693e-06	26.534	337.493	93.135	89.291	9.922	148.242	168.128	10.238	17.252	169.207	168.256	16.928	23.554	23.589	30.764	158.800	29.927	-8191	255	
8040.406	1	1	0	0	0.057071	0.056174	0.043404	0.22285	0.35436	0.10919	0.19808	0.14524	0.04718	0.33581	0.14184	0.11042	0.049566	0.26639	0.37073	0.19148	-2.2	-2.8458	-2.8875	-2.5979	-2.9667	-2.5604	-2.9437	-3	-2.6042	-2.8146	-2.6708	-2.5896	-2.8417	-2.6625	-2.8312	-2.9167	132.925	277.450	137.208	320.816	5.709	8.560	310.009	314.117	304.649	22.849	276.994	42.251	323.609	338.144	341.546	289.922	0.0004716	0.00022913	7.2138e-05	1032	4.722e-06	1.9943e-06	1113	222.94	8.2051e-06	2.1513e-06	285.72	81.902	64.008	18.302	3.6747e-06	26.238	0.00021167	0.00014667	4.5038e-05	1017.4	1.8702e-06	1.6894e-06	1097.2	221.94	1.9556e-06	1.6031e-06	280.58	82.069	63.754	18.576	1.756e-06	26.624	335.304	66.940	85.866	9.685	176.602	112.193	10.045	17.430	149.106	156.175	16.934	23.116	24.007	30.753	179.754	30.176	-8191	255	
8040.502	1	1	0	0	0.15735	0.24005	0.046374	0.14758	0.071376	0.027685	0.072537	0.30137	0.058241	0.063834	0.093778	0.12899	0.29623	0.40528	0.27106	0.040356	-2.0792	-3.0646	-2.7604	-2.8604	-2.875	-2.5958	-2.7979	-3.0167	-2.675	-2.8063	-2.7562	-2.8479	-2.975	-2.5792	-2.8312	-2.7542	220.131	232.394	155.253	308.074	182.383	215.753	219.751	270.960	281.676	200.876	322.806	202.520	322.112	71.628	105.439	242.897	0.00050441	0.00024151	8.9605e-05	1028	7.3096e-06	2.8659e-06	1111.5	223.53	3.3262e-06	3.4358e-06	287.47	81.779	63.649	18.458	4.2419e-06	26.326	0.00021627	0.00015038	4.3817e-05	1018.2	2.0591e-06	1.6185e-06	1097.6	221.61	1.9653e-06	1.7352e-06	280.46	81.974	63.748	18.661	1.8336e-06	26.621	334.558	74.819	81.228	9.841	160.784	160.145	9.954	17.388	197.676	149.516	15.928	23.181	23.929	30.554	185.320	30.007	-8191	255	
8040.598	1	1	0	0	0.15532	0.12592	0.18016	0.074887	0.19504	0.16334	0.077302	0.23589	0.037729	0.21177	0.22714	0.11585	0.11742	0.29308	0.089188	0.056621	-2.1833	-2.8896	-2.7812	-2.7917	-3.0312	-2.875	-2.8646	-3.025	-2.7833	-2.8125	-2.9333	-2.75	-3.0438	-2.8417	-2.6542	-2.9917	357.141	295.161	273.211	347.706	263.682	4.453	296.063	265.810	169.907	221.183	96.392	354.682	266.520	17.689	58.721	224.725	0.00047941	0.0002148	6.3676e-05	1035.5	4.2745e-06	2.1658e-06	1115	223.51	5.4113e-06	3.0425e-06	289.41	82.134	64.205	18.462	2.5118e-06	26.41	0.00020709	0.00016094	4.6164e-05	1021.8	1.9865e-06	1.7569e-06	1099.5	222.41	1.7629e-06	1.6644e-06	282.15	82.381	64.058	18.68	1.7423e-06	26.737	338.301	89.330	46.722	9.947	192.549	118.045	9.955	16.923	158.074	163.144	16.329	23.280	24.054	30.433	176.289	30.140	-8191	255	
8040.694	1	1	0	0	0.039302	0.33364	0.31894	0.14464	0.2833	0.051996	0.2857	0.40017	0.041968	0.34437	0.11178	0.25546	0.094981	0.32337	0.12561	0.13442	-2.2229	-2.775	-2.6937	-2.7417	-2.875	-2.75	-2.6562	-3.0438	-2.8042	-2.9437	-2.9479	-2.7896	-3.0438	-2.7812	-2.6625	-2.9833	107.654	342.365	306.362	56.106	185.220	303.577	14.735	337.515	111.767	205.226	34.161	311.354	176.569	323.239	203.543	39.138	0.00046808	0.00027365	7.9708e-05	1033.6	4.8648e-06	2.4401e-06	1118.3	223.04	4.0759e-06	2.9507e-06	284.62	81.658	64.053	18.441	2.4499e-06	26.401	0.00020508	0.00014814	4.2644e-05	1020	1.915e-06	1.6947e-06	1100.6	222.11	1.8479e-06	1.7435e-06	280.76	82.188	64.152	18.688	1.6902e-06	26.723	334.301	116.754	74.108	9.833	163.664	155.455	9.940	17.134	167.096	160.957	16.650	23.354	23.993	30.807	178.204	29.993	-8191	255	
8040.791	1	1	0	0	0.30662	0.1637	0.074134	0.21885	0.28073	0.41562	0.26927	0.30311	0.28683	0.19234	0.10008	0.12057	0.23854	0.33266	0.11011	0.067155	-2.2062	-2.6063	-2.7146	-2.7313	-2.8208	-2.825	-2.8917	-2.95	-2.6708	-2.9188	-2.9437	-2.7458	-2.9688	-2.9521	-2.6063	-2.9479	231.910	125.370	231.363	257.543	37.134	308.442	323.412	321.535	115.373	280.900	271.256	280.130	201.719	338.096	158.862	25.614	0.00049418	0.00041255	7.2205e-05	1034.6	3.1521e-06	3.2873e-06	1114	222.25	3.1399e-06	2.4724e-06	283.7	82.065	64.261	18.505	4.1486e-06	26.34	0.00021124	0.00015539	4.1852e-05	1020.3	1.8695e-06	1.6655e-06	1100.3	222.12	1.8844e-06	1.6478e-06	280.14	82.317	64.163	18.747	1.8257e-06	26.767	338.276	69.568	103.860	9.840	123.550	132.689	9.933	17.127	157.710	162.171	17.770	22.901	24.112	30.262	170.180	30.085	-8191	255	
8040.911	1	1	0	0	0.3409	0.04321	0.16389	0.048512	0.19836	0.073011	0.24967	0.26952	0.086737	0.20978	0.18172	0.25333	0.14792	0.031993	0.3889	0.20888	-2.2667	-2.6146	-2.8875	-2.7521	-2.7396	-2.7083	-2.7771	-3.1417	-2.8042	-2.6562	-2.7479	-2.6625	-2.9979	-2.8917	-2.6188	-2.9979	106.797	270.650	342.660	234.751	94.518	64.934	326.649	320.817	213.786	203.471	37.726	345.882	123.070	191.930	24.559	245.788	0.00046447	0.00044428	5.3482e-05	1033.5	5.6931e-06	2.359e-06	1115.3	224.08	7.7867e-06	3.223e-06	287.15	82.171	63.866	18.534	3.8912e-06	26.482	0.0002042	0.00015246	4.2071e-05	1021.4	1.8257e-06	1.7258e-06	1098.7	222.64	1.766e-06	1.7114e-06	280.41	82.398	64.099	18.721	1.8034e-06	26.755	338.529	110.791	101.105	10.124	190.337	142.473	10.058	17.122	166.808	145.836	16.760	23.152	23.965	30.594	143.480	29.643	-8191	255	
8041.007	1	1	0	0	0.4328	0.17622	0.21786	0.23227	0.084373	0.11719	0.17866	0.37285	0.17224	0.23663	0.16841	0.24441	0.16375	0.051735	0.23495	0.29951	-2.1604	-2.5521	-2.7771	-2.8354	-2.7687	-2.9062	-2.925	-2.8271	-2.6875	-2.6958	-2.9062	-2.6833	-2.8271	-2.9813	-2.7812	-2.8708	309.512	60.815	201.378	227.879	15.618	324.547	235.132	12.861	238.116	128.327	53.663	331.288	207.164	155.710	165.622	348.011	0.00046414	0.00035581	7.8938e-05	1036	4.5311e-06	3.8784e-06	1113.9	223.62	1.4615e-06	1.0854e-06	287.05	82.802	63.546	18.534	4.1975e-06	26.262	0.00020785	0.0001653	4.1289e-05	1020.9	1.9608e-06	1.8184e-06	1100.6	222.84	1.8878e-06	1.7178e-06	280.44	82.491	63.854	18.732	1.8523e-06	26.709	334.934	70.687	64.841	9.867	160.984	155.613	9.908	17.390	153.897	187.908	16.189	23.431	24.019	30.428	167.879	29.948	-8191	255	
8041.104	1	1	0	0	0.17846	0.14673	0.16775	0.14091	0.11113	0.39794	0.10579	0.18553	0.053098	0.06136	0.24017	0.20119	0.1119	0.084616	0.072065	0.39834	-2.4708	-2.6167	-2.7375	-2.8563	-2.8583	-2.9188	-2.6979	-2.8542	-2.7167	-2.6771	-3.0271	-2.8375	-2.7458	-2.9042	-2.6104	-2.8458	338.632	1.706	38.273	17.240	247.523	19.556	356.593	247.521	208.355	107.752	31.779	199.933	259.761	245.227	199.685	312.520	0.00041398	0.00035863	9.2197e-05	1034.7	6.002e-06	3.0797e-06	1114.9	223.27	9.275e-06	2.0881e-06	286.14	81.965	64.136	18.651	2.941e-06	26.367	0.00021448	0.00017211	4.5296e-05	1023.6	2.0646e-06	1.7501e-06	1101.1	222.63	2.1133e-06	2.0255e-06	282.51	82.229	64.041	18.739	1.9153e-06	26.681	328.043	79.068	95.938	9.873	160.224	154.106	10.057	17.253	151.737	142.821	15.649	23.097	24.066	30.514	170.214	30.234	-8191	255	
8041.200	1	1	0	0	0.10064	0.12338	0.10219	0.23329	0.091144	0.069862	0.23158	0.09612	0.13112	0.10234	0.064924	0.22756	0.14306	0.18828	0.12953	0.10085	-2.4667	-2.6646	-2.7604	-2.7938	-2.8083	-3.0979	-2.65	-2.7917	-2.8417	-2.475	-2.9125	-2.9417	-2.6875	-2.7833	-2.6458	-2.7792	31.769	107.338	293.330	45.394	223.144	324.137	256.409	241.347	187.817	93.342	145.143	246.254	267.646	234.567	339.182	199.321	0.00042227	0.00026978	7.4691e-05	1036.2	5.2865e-06	2.2298e-06	1111.9	224.54	7.7461e-06	3.084e-06	286.52	81.844	63.746	18.529	3.8801e-06	26.488	0.00020971	0.00016854	4.5696e-05	1024.2	2.0514e-06	1.8032e-06	1101	222.92	2.0875e-06	1.8404e-06	282.24	82.404	64.117	18.711	1.8987e-06	26.795	329.463	124.605	78.085	9.778	173.015	145.186	9.883	17.129	173.203	157.595	16.721	23.064	23.885	30.594	178.605	29.809	-8191	255	
8041.294	1	1	0	0	0.098473	0.19921	0.084743	0.29759	0.1349	0.0086828	0.16967	0.073496	0.054005	0.081776	0.10748	0.12322	0.15908	0.25466	0.0039302	0.14713	-2.3646	-2.5917	-2.8688	-3.0333	-2.7146	-2.9417	-2.7375	-2.7208	-2.9104	-2.7125	-2.7521	-2.9208	-2.7	-2.9271	-2.6562	-2.8937	119.611	165.489	185.136	348.168	87.827	74.921	234.897	273.370	13.442	311.325	321.175	329.299	-0.187	183.959	280.040	183.675	0.00042225	0.00030006	8.7198e-05	1039.9	6.6272e-06	2.3543e-06	1118.5	223.36	5.302e-06	2.0385e-06	289.2	81.832	64.554	18.571	3.2932e-06	26.547	0.00022014	0.00017048	5.0123e-05	1029.2	2.132e-06	1.8552e-06	1103.9	223.25	1.9684e-06	1.8166e-06	283.84	82.487	64.309	18.716	2.0454e-06	26.797	333.376	84.417	124.918	9.729	159.905	137.782	9.926	17.431	149.516	106.213	17.862	23.109	23.777	30.465	156.088	29.908	-8191	255	
8041.390	1	1	0	0	0.052798	0.1648	0.056887	0.31319	0.27857	0.19789	0.25108	0.15011	0.3742	0.26558	0.19251	0.31054	0.092807	0.15769	0.030115	0.3746	-2.4854	-2.5333	-2.9146	-2.9521	-2.5083	-2.8812	-2.9354	-2.6688	-2.8187	-2.8083	-2.85	-2.8375	-2.7	-2.9375	-2.8958	-2.9104	248.402	111.143	4.879	263.999	261.650	256.513	352.898	-0.079	20.721	306.305	260.939	300.965	264.559	345.293	171.869	358.191	0.00045552	0.00033334	5.7469e-05	1046.5	3.6253e-06	3.8933e-06	1120.2	224.78	4.1149e-06	2.6306e-06	294	82.313	64.781	18.558	2.1427e-06	26.44	0.00022152	0.0001717	4.6555e-05	1031.7	2.0719e-06	1.8013e-06	1107.6	223.59	1.8063e-06	1.8045e-06	284.16	82.562	64.415	18.773	1.8347e-06	26.873	338.543	69.439	128.324	9.857	141.861	199.445	9.764	17.090	131.307	130.619	17.128	23.252	24.004	30.610	145.062	29.959	-8191	255	
8041.511	1	1	0	0	0.11107	0.18438	0.099581	0.20326	0.1916	0.026393	0.29036	0.40603	0.14388	0.06689	0.04087	0.11947	0.3077	0.064418	0.12839	0.23653	-2.4958	-2.5812	-2.8	-2.9792	-2.7188	-2.8563	-2.8063	-2.7396	-2.8208	-2.675	-2.7792	-2.9688	-2.6833	-2.8354	-2.8521	-2.9396	287.397	41.505	278.121	322.620	13.279	255.766	266.890	284.230	286.443	60.080	35.261	332.958	99.992	282.699	62.102	222.170	0.00041951	0.0003227	3.9746e-05	1042.7	3.0836e-06	2.2171e-06	1123.4	225.02	3.3677e-06	2.3169e-06	288.94	82.24	64.557	18.447	4.8941e-06	26.434	0.00021335	0.00016945	4.6879e-05	1030.6	2.0316e-06	1.6962e-06	1107.9	223.83	1.9309e-06	1.976e-06	284.59	82.659	64.447	18.776	1.9537e-06	26.835	334.033	100.558	59.807	9.951	164.489	148.370	10.059	17.088	212.841	158.893	16.993	23.218	23.939	30.480	181.739	29.919	-8191	255	
8041.607	1	1	0	0	0.030638	0.0485	0.20342	0.21863	0.18137	0.070334	0.033723	0.18307	0.38799	0.14102	0.13991	0.13708	0.23921	0.065921	0.16736	0.12808	-2.4042	-2.7083	-2.6937	-3.0542	-2.4458	-2.9354	-2.9396	-2.6958	-2.8604	-2.7583	-2.8187	-2.8333	-2.5604	-2.7958	-2.8	-2.7167	355.326	134.630	250.957	58.972	354.118	69.966	269.239	132.052	222.690	252.633	77.493	333.054	348.800	312.519	100.040	359.385	0.00043381	0.0003029	8.9928e-05	1043.3	1.7541e-06	2.9928e-06	1121.3	225.32	4.2884e-06	3.3797e-06	288.91	82.38	64.659	18.532	3.5158e-06	26.654	0.00021589	0.00017691	4.9827e-05	1033.3	2.1684e-06	1.8662e-06	1108.1	224.3	2.0407e-06	2.0589e-06	284.07	82.694	64.551	18.742	2.053e-06	26.891	336.497	104.986	74.650	9.823	159.208	130.637	10.007	17.393	176.592	166.593	16.295	22.997	23.833	30.410	165.534	30.204	-8191	255	
8041.703	1	1	0	0	0.24076	0.15158	0.16928	0.136	0.17695	0.21916	0.10938	0.25357	0.2192	0.13909	0.17876	0.16639	0.24954	0.15894	0.46274	0.22075	-2.3688	-2.4958	-2.7146	-3.1312	-2.65	-2.9104	-2.925	-2.8458	-2.8708	-2.8438	-2.7208	-3.0333	-2.6708	-2.8063	-2.9	-2.6021	303.389	117.746	28.221	281.768	342.689	187.842	70.527	338.031	116.270	164.485	163.511	96.217	99.842	330.887	79.035	231.009	0.00042944	0.0003197	5.4932e-05	1050.8	3.2481e-06	4.779e-06	1128.7	225.89	7.6131e-06	1.3956e-06	292.84	82.915	64.372	18.372	2.0401e-06	26.346	0.00021524	0.00019159	5.0066e-05	1038.5	2.3025e-06	2.0445e-06	1113.5	224.92	2.0603e-06	2.1312e-06	286.37	82.946	64.484	18.703	2.204e-06	26.749	334.624	104.107	102.831	9.730	164.867	167.676	9.875	17.080	173.242	157.406	16.941	23.003	24.180	30.423	145.554	29.818	-8191	255	
8041.775	1	1	0	0	0.077814	0.21016	0.13209	0.29075	0.058208	0.18991	0.31304	0.12277	0.21371	0.21463	0.25863	0.2617	0.20224	0.22324	0.19424	0.15864	-2.4646	-2.7708	-2.8896	-3.0896	-2.7438	-2.8083	-3.0771	-2.9396	-3.0042	-2.9417	-2.5375	-3.0833	-2.7521	-2.7479	-3.0083	-2.775	334.494	202.761	160.718	323.249	85.484	94.505	286.702	29.358	156.496	153.025	351.216	281.633	307.450	314.559	158.796	279.282	0.00044581	0.00022466	0.00010298	1053.4	4.2886e-06	2.3112e-06	1131.4	227.12	7.7994e-06	3.1237e-06	290.49	82.4	64.428	18.5	3.1261e-06	26.386	0.00022436	0.00020436	5.4931e-05	1042.5	2.3372e-06	2.1807e-06	1117.2	225.67	2.2472e-06	2.18e-06	286.44	82.821	64.41	18.739	2.1224e-06	26.761	335.111	90.428	112.357	9.625	148.703	165.740	9.614	17.323	182.295	153.046	16.165	23.181	23.796	30.420	168.651	29.790	-8191	255	
8041.871	1	1	0	0	0.19562	0.22809	0.29482	0.19506	0.22484	0.33735	0.23011	0.29361	0.15456	0.1443	0.13832	0.20535	0.035301	0.30134	0.26818	0.13872	-2.6104	-2.8479	-2.6063	-3.2	-2.6271	-2.7229	-3.0292	-2.9042	-2.8479	-2.9167	-2.6083	-2.8937	-2.725	-2.6354	-2.9021	-2.7062	226.005	125.852	267.052	26.458	210.273	-0.695	271.945	151.596	353.108	183.601	211.220	267.962	277.333	323.699	75.192	209.811	0.00046199	0.00032608	3.7912e-05	1061	2.0486e-06	3.1234e-06	1124.6	226.39	7.1463e-06	3.7595e-06	295.04	82.592	64.803	18.447	3.6179e-06	26.364	0.00022406	0.00018573	5.2117e-05	1043.7	2.3858e-06	2.0745e-06	1116.9	225.56	2.1591e-06	2.0615e-06	287.32	82.895	64.612	18.725	1.98e-06	26.751	336.864	40.490	109.899	9.651	177.575	161.866	9.607	17.018	182.978	160.998	16.097	23.143	24.030	30.882	154.856	29.569	-8191	255	
8041.992	1	1	0	0	0.17443	0.12125	0.15886	0.097763	0.1009	0.14452	0.34061	0.062177	0.30718	0.13707	0.26521	0.28359	0.02976	0.051649	0.088342	0.18534	-2.3125	-2.8312	-2.6021	-2.9875	-2.8354	-2.8583	-3.075	-2.7188	-2.7938	-2.8104	-2.7708	-2.9646	-2.6958	-2.65	-2.9688	-2.6021	154.457	91.196	2.115	338.424	44.607	342.569	268.631	269.399	69.736	295.103	174.530	331.102	170.375	59.908	6.049	316.635	0.00042962	0.00030216	7.3947e-05	1053.5	5.0525e-06	3.3148e-06	1129	225.85	5.8842e-06	2.2902e-06	288.48	81.794	64.677	18.537	3.317e-06	26.359	0.00022203	0.00017215	5.0476e-05	1041.2	2.3528e-06	2.0559e-06	1116.3	225.14	2.1794e-06	1.9438e-06	284.3	82.544	64.493	18.751	2.0609e-06	26.781	336.292	90.280	89.453	10.069	172.309	155.358	10.072	17.083	172.066	104.256	17.390	23.119	24.071	30.463	193.368	29.752	-8191	255	
8042.088	1	1	0	0	0.20608	0.2446	0.10897	0.32629	0.085158	0.15855	0.04826	0.40279	0.18027	0.17623	0.15534	0.17472	0.078727	0.093012	0.10421	0.075599	-2.3708	-2.7896	-2.4896	-3.0042	-2.7229	-2.6333	-3.0125	-2.7542	-3.0646	-2.8896	-2.6396	-2.7687	-2.7625	-2.7146	-3.1146	-2.8479	247.548	174.766	141.977	283.617	175.985	248.496	44.666	17.278	196.119	127.962	44.776	35.962	250.742	50.824	129.462	312.663	0.00044639	0.00021058	7.4295e-05	1057.3	5.1732e-06	3.6216e-06	1132.2	226.79	5.1921e-06	3.4229e-06	289.85	82.284	64.457	18.492	4.4674e-06	26.322	0.00023007	0.00018454	5.7516e-05	1044.2	2.4511e-06	2.0999e-06	1117.7	225.34	2.1594e-06	2.1857e-06	285.61	82.832	64.356	18.66	2.0857e-06	26.707	336.139	94.873	85.852	9.870	153.128	154.016	9.692	17.253	163.778	115.429	16.897	23.295	23.577	30.595	177.066	29.742	-8191	255	
8042.184	1	1	0	0	0.13621	0.10607	0.086088	0.34665	0.057108	0.03424	0.25911	0.12485	0.048915	0.12566	0.30763	0.129	0.052277	0.26207	0.1934	0.13973	-2.3146	-3.1417	-2.7708	-3.0167	-2.8479	-2.7729	-3.15	-2.8125	-2.8771	-2.9396	-2.4854	-2.8479	-2.7521	-2.7021	-2.9437	-2.7188	281.747	181.799	194.844	327.309	235.281	106.397	303.015	60.729	335.963	172.884	337.510	148.072	46.099	39.319	124.639	333.524	0.0003924	0.00033434	9.7605e-05	1058.3	5.4215e-06	1.5798e-06	1135.4	226.96	1.4275e-05	3.6956e-06	294.33	82.06	64.225	18.573	3.8642e-06	26.435	0.00022726	0.00019179	6.0083e-05	1046.1	2.4639e-06	2.3329e-06	1120.4	226.32	2.8047e-06	2.2826e-06	288.7	82.938	64.568	18.746	2.3508e-06	26.761	336.607	97.953	90.161	9.680	161.129	203.138	9.897	16.869	85.582	162.531	16.624	23.053	23.695	30.475	180.806	29.880	-8191	255	
8042.303	1	1	0	0	0.28351	0.060708	0.20257	0.28858	0.10476	0.096183	0.076401	0.20824	0.14489	0.2514	0.10322	0.21202	0.037179	0.23537	0.25201	0.092446	-2.3563	-2.7042	-2.6125	-2.9271	-2.9208	-2.7083	-3.0854	-2.7771	-2.8042	-2.9458	-2.7354	-2.7917	-2.8958	-2.6208	-3.0187	-2.8208	72.152	206.733	94.147	341.947	258.496	332.667	314.926	322.175	242.584	37.346	186.372	339.794	9.035	344.376	13.153	258.218	0.000429	0.00041864	2.1896e-05	1069.8	4.7575e-06	2.1027e-06	1143.7	227.83	3.8586e-06	2.2922e-06	297.27	83.236	65.086	18.757	5.3914e-06	26.491	0.0002494	0.00021774	6.4099e-05	1056.4	2.6928e-06	2.5768e-06	1129.9	227.54	2.5876e-06	2.5131e-06	291.24	83.355	65.271	18.833	2.6456e-06	26.97	337.564	124.679	19.677	9.720	180.580	173.755	10.003	17.167	144.014	147.178	16.094	23.009	23.770	30.414	169.212	29.982	-8191	255	
8042.375	1	1	0	0	0.10588	0.10484	0.15207	0.18185	0.24952	0.067655	0.10123	0.31579	0.32804	0.15769	0.22157	0.095614	0.052914	0.23768	0.132	0.13622	-2.3083	-2.9437	-2.6896	-2.8563	-2.9813	-2.6542	-3.2292	-2.8521	-2.5979	-3.1667	-2.5917	-2.7583	-2.9583	-2.6354	-2.8708	-2.7479	20.659	271.693	248.690	120.614	145.102	333.745	2.381	14.379	172.400	268.641	44.622	241.928	100.446	340.207	193.252	320.754	0.00051501	0.0003222	9.3619e-05	1085.6	5.3908e-06	1.5671e-06	1159.7	230.89	4.4133e-06	3.0716e-06	291.5	84.096	65.926	18.761	4.5313e-06	26.668	0.00026633	0.00023896	7.2294e-05	1069.5	2.9386e-06	2.6622e-06	1145.4	230.24	2.7383e-06	2.7618e-06	291.72	84.225	65.771	19.006	2.8265e-06	27.057	335.399	64.126	87.592	9.814	191.048	121.225	9.897	16.818	154.826	168.360	17.127	23.103	23.729	30.473	174.034	30.190	-8191	255	
8042.472	1	1	0	0	0.32616	0.34416	0.18862	0.41005	0.077423	0.052944	0.11349	0.28585	0.15087	0.043628	0.074351	0.12815	0.095715	0.15324	0.1327	0.0507	-2.2708	-2.9938	-2.6646	-2.8875	-3.05	-2.6667	-3.0687	-2.9625	-2.4583	-2.8688	-2.7375	-2.7667	-2.9021	-2.7354	-2.8292	-2.6396	177.718	78.317	3.134	275.715	240.884	158.880	241.291	288.210	215.993	276.116	115.857	211.510	92.112	-0.051	299.195	104.399	0.00044873	0.00019709	5.226e-05	1092.7	5.3051e-06	4.3826e-06	1169.2	233.49	5.3534e-06	2.223e-06	299.72	84.322	66.27	18.969	2.866e-06	26.883	0.00028196	0.00026048	7.3295e-05	1081.6	2.9907e-06	2.8397e-06	1154.6	232.39	2.7696e-06	2.981e-06	293.53	84.728	66.403	19.155	2.9179e-06	27.305	328.345	50.811	114.035	9.682	143.507	163.671	9.852	16.813	134.042	142.574	16.550	22.980	23.812	30.295	166.753	29.754	-8191	255	
8042.591	1	1	0	0	0.17099	0.0078916	0.036246	0.33218	0.15866	0.13145	0.3372	0.37509	0.29824	0.13974	0.22862	0.31044	0.19048	0.22437	0.1957	0.048382	-2.3	-2.8354	-2.7333	-2.9083	-2.9646	-2.8104	-2.9875	-2.7833	-2.7083	-2.8646	-2.875	-2.6521	-3.0021	-2.5958	-2.8354	-2.6854	277.868	25.344	37.002	344.346	228.901	38.601	328.810	272.852	341.320	180.848	151.920	21.028	301.056	25.309	289.539	271.716	0.00052081	0.0002239	9.6046e-05	1106.2	2.0157e-06	3.1626e-06	1177.6	234.7	5.9573e-06	2.4793e-06	307.29	84.841	66.79	18.973	4.1418e-06	27.034	0.00028953	0.00025289	7.8189e-05	1094.4	3.065e-06	3.0029e-06	1163.9	233.65	3.1066e-06	2.8246e-06	298.38	85.112	66.693	19.147	2.883e-06	27.368	336.122	81.323	63.461	9.526	175.221	178.480	9.755	16.773	160.682	168.479	16.130	22.738	23.793	29.902	169.879	29.721	-8191	255	
8042.687	1	1	0	0	0.098792	0.22505	0.12076	0.21882	0.096444	0.12548	0.14913	0.12479	0.072112	0.088747	0.049539	0.19107	0.11184	0.17971	0.053715	0.16259	-2.15	-2.85	-2.8771	-2.7292	-2.8917	-2.7229	-2.7271	-2.9625	-2.5521	-2.9729	-2.8229	-2.6	-2.7812	-2.6729	-2.6333	-2.8375	34.559	10.404	128.106	19.612	46.096	251.226	255.017	270.580	189.476	18.255	127.895	29.926	189.903	256.024	186.610	277.291	0.00047249	0.00045321	9.7071e-05	1113.7	4.4567e-06	1.3801e-06	1187.1	235.45	5.1189e-06	4.56e-06	303.76	84.825	66.364	19.001	5.5648e-06	26.785	0.00029428	0.00027288	7.8008e-05	1100.4	3.0792e-06	3.0374e-06	1170	234.1	3.0742e-06	2.9234e-06	298.28	85.39	66.486	19.165	2.8787e-06	27.353	336.981	101.603	43.628	9.716	153.255	202.024	9.902	16.871	183.041	162.586	15.998	23.360	23.633	30.395	166.684	29.626	-8191	255	
8042.784	1	1	0	0	0.097902	0.2075	0.14855	0.14733	0.22415	0.11562	0.45294	0.088255	0.21596	0.11941	0.20977	0.14528	0.16295	0.010276	0.46096	0.039745	-2.2354	-2.9125	-2.7104	-2.7562	-2.7625	-2.7812	-2.95	-2.9875	-2.5792	-2.9646	-2.9104	-2.7938	-3.0625	-2.8604	-2.5438	-3.0146	136.610	47.936	200.806	308.937	47.385	355.778	328.846	313.606	237.870	183.205	169.711	1.434	274.263	201.620	95.507	283.204	0.00045533	0.00044149	4.3279e-05	1116.8	6.521e-06	9.5964e-07	1184.4	235.68	5.2748e-06	5.0929e-06	303.6	84.539	66.705	18.895	2.0278e-06	27.163	0.00028201	0.00025711	7.2399e-05	1101.7	3.0622e-06	2.8109e-06	1169.2	234.53	2.9696e-06	2.8818e-06	298.81	85.291	66.783	19.119	2.8046e-06	27.482	337.929	87.633	99.585	9.718	155.517	154.330	9.859	16.991	191.822	138.041	15.840	22.903	23.767	30.696	219.811	29.509	-8191	255	
8042.904	1	1	0	0	0.25809	0.34978	0.069621	0.24056	0.043979	0.09763	0.09662	0.11388	0.10088	0.080619	0.16013	0.072619	0.093477	0.36281	0.28139	0.10888	-2.2125	-2.7292	-2.975	-2.7	-2.9333	-2.9938	-2.95	-3.0229	-2.6333	-2.9479	-2.8292	-2.7438	-2.9958	-2.8521	-2.7396	-3.0354	122.519	330.029	184.193	338.451	191.004	333.767	218.945	314.641	54.508	352.742	151.647	158.666	28.605	337.663	32.581	314.969	0.00050771	0.00024463	7.3638e-05	1115.5	6.9641e-06	4.4193e-06	1181.8	236.2	8.1969e-06	4.2005e-06	300.81	85.166	66.992	18.958	4.8911e-06	27.028	0.00028682	0.00026273	7.113e-05	1101.3	2.9855e-06	2.8173e-06	1170.4	234.8	3.1544e-06	2.8572e-06	296.62	85.417	66.766	19.137	2.9585e-06	27.387	329.637	87.914	53.235	9.520	191.452	189.820	9.884	16.801	151.160	168.206	16.767	22.927	23.709	30.415	177.733	29.784	-8191	255	
8043.000	1	1	0	0	0.21811	0.10959	0.14399	0.18835	0.17854	0.25619	0.11842	0.15534	0.059681	0.24678	0.13866	0.15883	0.24262	0.16388	0.21449	0.19216	-2.2375	-2.7979	-2.8833	-2.7375	-2.8875	-2.8104	-2.7938	-2.9271	-2.7646	-2.6667	-2.7938	-2.7729	-2.9062	-2.8042	-2.6646	-2.8542	278.446	256.260	356.188	309.380	-0.193	317.257	125.704	101.311	354.926	158.305	308.679	96.519	4.638	303.964	174.745	137.130	0.00039895	0.00027681	0.00010881	1118.9	6.351e-06	4.3565e-06	1184	236.13	7.0294e-06	2.479e-06	305.1	84.898	66.654	18.802	3.6572e-06	27.015	0.00029318	0.00027111	7.2284e-05	1103.8	3.0584e-06	3.0336e-06	1169.7	235.16	3.0698e-06	3.0071e-06	298.62	85.29	66.778	19.114	3.0782e-06	27.406	336.765	118.403	84.146	9.527	142.680	133.368	9.853	16.878	138.981	135.063	16.527	22.678	23.618	30.215	155.092	29.839	-8191	255	
8043.072	1	1	0	0	0.080793	0.321	0.27075	0.13765	0.21549	0.16094	0.16446	0.08471	0.077473	0.17037	0.24462	0.070086	0.14403	0.27597	0.19271	0.046675	-2.1958	-2.7292	-2.9688	-2.6937	-2.7375	-2.825	-2.6479	-3.0625	-2.8396	-2.7146	-2.9792	-2.8042	-2.8042	-2.8917	-2.7479	-3.0292	199.308	299.248	347.791	285.623	338.693	216.095	326.903	200.987	100.155	153.891	255.725	269.652	341.387	307.184	208.863	75.660	0.00049293	0.00027834	7.5542e-05	1112.5	5.3271e-06	3.59e-06	1187.7	236.4	2.7885e-06	2.1018e-06	302.94	85.283	66.561	18.995	3.564e-06	27.212	0.00030512	0.00026464	7.7254e-05	1102.7	3.1091e-06	2.9088e-06	1174.6	235.47	3.0075e-06	2.9075e-06	298.29	85.518	66.69	19.126	2.997e-06	27.486	335.323	73.952	61.645	9.677	160.121	132.560	9.784	16.916	152.992	157.481	16.798	23.076	23.580	30.275	122.492	29.861	-8191	255	
8043.168	1	1	0	0	0.161	0.2127	0.33862	0.30062	0.1315	0.11519	0.18999	0.28527	0.16432	0.12231	0.15417	0.055857	0.091156	0.078947	0.075283	0.10172	-2.3396	-2.6813	-2.85	-2.8375	-2.8583	-3.0771	-3.0354	-3.1333	-2.7917	-2.525	-2.8812	-2.8729	-2.8729	-2.8583	-2.5458	-2.9104	305.796	129.520	100.657	341.176	271.663	145.600	308.475	321.305	203.341	331.419	201.330	337.296	161.442	356.880	99.827	224.929	0.00051034	0.00027719	7.8362e-05	1120.6	4.1492e-06	4.9131e-06	1188.1	236.53	4.6432e-06	3.5077e-06	306.56	84.728	66.947	18.837	3.6758e-06	27.041	0.00029373	0.0002674	7.6921e-05	1107	2.998e-06	2.8807e-06	1175	235.09	2.8822e-06	2.9988e-06	299.29	85.295	66.785	19.067	2.9463e-06	27.482	337.264	72.786	104.671	9.641	171.238	177.071	9.812	16.912	172.439	125.767	16.404	22.752	23.932	29.918	166.627	29.296	-8191	255	
8043.287	1	1	0	0	0.18726	0.090895	0.23428	0.084686	0.15736	0.14479	0.17676	0.056436	0.068297	0.10265	0.20057	0.37699	0.15416	0.13926	0.09775	0.22439	-2.3896	-2.7729	-2.8333	-2.6583	-2.8083	-3.0708	-2.8917	-2.8063	-3.0417	-2.7188	-2.8312	-2.7583	-2.7333	-2.8688	-2.6937	-3.0896	160.142	328.018	346.609	2.554	249.424	265.542	316.996	221.013	182.267	337.440	286.693	276.375	98.177	64.139	122.840	265.190	0.00038673	0.00034417	0.00011111	1119.8	6.7475e-06	2.8459e-06	1187.4	236.36	6.6433e-06	3.0003e-06	303.91	84.86	66.917	18.787	5.5111e-06	27.063	0.00029275	0.00026923	7.3591e-05	1107.5	3.0792e-06	2.9346e-06	1173.9	235.4	3.0921e-06	3.1505e-06	300.12	85.353	66.951	19.114	3.1415e-06	27.504	331.924	102.429	117.147	9.581	166.854	165.641	10.007	16.882	172.663	151.082	16.414	22.833	23.747	29.877	166.241	29.725	-8191	255	
8043.383	1	1	0	0	0.14202	0.28808	0.081496	0.25751	0.15173	0.1196	0.29781	0.089362	0.1659	0.11019	0.30708	0.20829	0.054381	0.16978	0.24911	0.2446	-2.3375	-2.5896	-2.8271	-2.9	-2.5896	-2.8979	-2.8396	-2.7833	-2.5812	-2.5729	-2.775	-2.7188	-2.5583	-3.0625	-2.7208	-2.9104	66.537	316.829	121.663	313.310	280.673	346.989	343.911	301.043	162.443	244.271	114.877	320.820	16.242	320.026	328.974	301.957	0.00046896	0.00033999	0.00012439	1125.1	6.9572e-06	2.7109e-06	1194.5	236.69	4.976e-06	9.7819e-07	300.41	85.291	67.188	18.945	3.1395e-06	27.039	0.00027462	0.00028255	7.6863e-05	1109.5	3.1608e-06	2.7248e-06	1177.8	235.41	3.036e-06	3.0377e-06	298.79	85.661	67.026	19.178	3.0063e-06	27.437	333.123	69.700	114.886	9.441	167.191	158.084	9.859	16.795	124.940	175.598	15.577	22.905	23.755	30.427	184.210	29.706	-8191	255	
8043.479	1	1	0	0	0.26374	0.1215	0.15223	0.2009	0.14159	0.065874	0.40586	0.15636	0.34344	0.10006	0.029449	0.092569	0.20295	0.11745	0.36692	0.15138	-2.3937	-2.4104	-2.7604	-2.9688	-2.6562	-2.9583	-2.8229	-2.7354	-2.8208	-2.4333	-2.8146	-2.8167	-2.7333	-3.0271	-2.7021	-2.7396	252.383	355.526	273.459	302.459	217.280	19.786	291.458	39.820	220.054	100.231	275.088	158.541	320.590	159.980	256.496	281.403	0.00049185	0.00039671	1.7956e-05	1124.6	5.2561e-06	1.4496e-06	1195.9	237.35	2.4329e-06	3.1811e-06	303.63	85.222	66.884	18.88	3.9665e-06	27.219	0.00029262	0.00027397	7.2532e-05	1109.9	3.1692e-06	2.9061e-06	1178.6	236.02	3.0495e-06	3.0805e-06	297.93	85.693	66.947	19.158	2.9639e-06	27.597	338.955	76.876	316.543	9.589	179.644	116.547	9.675	17.061	137.457	167.042	17.261	22.957	23.281	30.354	132.666	29.977	-8191	255	
8043.576	1	1	0	0	0.056399	0.25966	0.26929	0.30491	0.26338	0.11679	0.24332	0.26808	0.21371	0.18548	0.07643	0.10006	0.21552	0.1363	0.13396	0.034407	-2.4104	-2.6333	-2.7125	-2.875	-2.6375	-2.8937	-2.8937	-2.7188	-2.95	-2.6229	-2.8875	-2.975	-2.6396	-2.8937	-2.8812	-2.9	244.247	8.519	38.191	344.984	197.464	283.855	275.108	311.216	207.844	219.576	175.229	283.347	38.542	74.162	194.889	298.665	0.00039346	0.00048613	9.5602e-05	1121.6	4.5715e-06	3.8332e-06	1189.6	236.51	3.504e-06	3.5959e-06	297.85	85.316	66.961	18.841	5.4451e-06	27	0.00028619	0.0002802	7.6682e-05	1111	3.1278e-06	2.9277e-06	1178.5	236.27	3.0143e-06	2.9435e-06	297.41	85.598	66.965	19.139	2.7992e-06	27.466	342.405	79.058	91.375	9.433	165.468	148.621	9.581	16.995	170.015	153.725	16.942	23.049	23.958	30.096	150.349	30.038	-8191	255	
8043.672	1	1	0	0	0.10095	0.14226	0.19687	0.16202	0.24669	0.24763	0.08492	0.26699	0.14504	0.090484	0.33358	0.2408	0.11095	0.013701	0.39599	0.17548	-2.5396	-2.7062	-2.7313	-3.0458	-2.7292	-2.9688	-3.0354	-2.7583	-2.9396	-2.5729	-2.8917	-3.0208	-2.6937	-2.9313	-2.6708	-2.7438	91.466	176.405	106.422	353.852	356.646	232.347	48.129	273.246	115.647	340.388	205.156	19.043	243.495	71.838	42.198	164.955	0.00047118	0.00045595	7.485e-05	1121.8	4.5437e-06	4.1976e-06	1189.3	236.63	4.9932e-06	2.523e-06	302.94	85.165	66.981	18.76	1.8691e-06	27.135	0.00027598	0.00025977	7.279e-05	1107.6	3.0296e-06	2.7824e-06	1174.7	235.36	2.7834e-06	2.786e-06	299.77	85.43	66.691	19.049	2.7834e-06	27.449	337.683	89.907	122.615	9.493	196.017	157.797	9.837	16.628	181.438	136.766	16.738	22.995	23.983	30.451	128.160	29.919	-8191	255	
8043.768	1	1	0	0	0.17708	0.13237	0.34875	0.23414	0.2495	0.21762	0.35358	0.10487	0.10812	0.20996	0.14086	0.1077	0.21312	0.09779	0.11266	0.10796	-2.5667	-2.7229	-2.7167	-2.9229	-2.5479	-2.9271	-3.0167	-2.6458	-2.9188	-2.7062	-2.7021	-3.0833	-2.7562	-2.85	-2.6771	-2.6458	202.343	264.519	221.697	345.784	322.916	83.738	320.291	324.961	5.446	156.367	280.262	321.422	271.450	35.224	272.729	83.176	0.00047836	0.00025725	9.8797e-05	1120.1	4.803e-06	4.2038e-06	1186.5	236.43	5.6548e-06	2.0356e-06	303.61	84.353	66.789	18.94	1.6214e-06	27.075	0.00027573	0.0002565	6.5005e-05	1106.4	3.0518e-06	2.8583e-06	1171	235.04	2.8247e-06	2.8182e-06	297.56	84.996	66.67	19.088	2.8035e-06	27.476	332.689	93.449	101.435	9.670	164.172	155.444	9.697	17.217	168.171	167.506	16.521	23.061	23.882	30.410	136.234	30.002	-8191	255	
8043.864	1	1	0	0	0.06088	0.29928	0.20156	0.083937	0.21714	0.057447	0.14185	0.15368	0.25025	0.10762	0.044257	0.16548	0.16592	0.2116	0.24794	0.034633	-2.6271	-2.6	-2.7396	-2.8688	-2.775	-3.0812	-2.9771	-2.8979	-2.8479	-2.825	-2.7875	-2.9938	-2.6396	-2.9333	-2.8854	-2.6833	62.625	241.171	149.363	37.525	276.692	45.002	7.596	350.603	290.026	240.882	264.997	13.775	340.848	293.501	186.087	155.931	0.00044793	0.00032501	7.1347e-05	1114.8	3.5618e-06	3.1888e-06	1180.5	235.13	5.1909e-06	3.0593e-06	298.68	84.85	66.864	18.775	5.0242e-06	26.741	0.00026205	0.00027015	7.071e-05	1100.5	2.9476e-06	2.7251e-06	1167	233.93	2.7555e-06	2.7519e-06	296.02	84.957	66.554	19.015	2.8959e-06	27.285	336.654	81.089	90.155	9.710	187.038	145.593	9.726	16.771	178.725	145.783	17.418	23.247	23.747	30.326	184.794	30.069	-8191	255	
8043.985	1	1	0	0	0.098093	0.21212	0.20679	0.076615	0.28531	0.21441	0.093581	0.27998	0.22706	0.085266	0.20879	0.21182	0.28744	0.12207	0.15458	0.098257	-2.5292	-2.6729	-2.7812	-2.7854	-2.6771	-2.6896	-2.8896	-2.5938	-2.9562	-2.8646	-2.5875	-3.0542	-2.6521	-2.8417	-2.8312	-2.7062	7.997	35.047	191.866	325.026	171.370	0.492	261.116	338.512	83.935	231.687	241.466	308.164	323.587	272.588	70.049	195.482	0.00045366	0.00022776	0.00011379	1115.7	7.6636e-06	3.5207e-06	1183	234.63	3.4595e-06	2.8571e-06	300.91	85.099	66.634	18.886	5.5517e-06	27.002	0.00028043	0.00025922	7.1817e-05	1100.9	3.089e-06	2.7149e-06	1168.6	234.15	2.7328e-06	2.7656e-06	297.76	85.151	66.616	19.035	2.7769e-06	27.41	331.208	116.492	45.891	9.743	185.068	160.740	9.734	16.917	170.001	161.387	16.223	22.598	23.548	30.264	165.270	29.717	-8191	255	
8044.081	1	1	0	0	0.38365	0.053808	0.30283	0.16842	0.22375	0.15127	0.12738	0.40976	0.095299	0.099862	0.065447	0.14335	0.1188	0.11316	0.22867	0.14603	-2.4333	-2.7083	-2.5729	-3.0521	-2.7042	-2.7062	-3.1146	-2.8812	-2.7542	-2.75	-2.7417	-2.9062	-2.8833	-2.6167	-3.0312	-2.7104	31.006	280.913	113.092	211.183	219.465	319.994	153.628	282.810	67.294	199.662	248.244	8.336	302.226	313.903	282.210	110.723	0.00048437	0.00041622	6.7877e-05	1117.2	4.2609e-06	2.588e-06	1183.3	235.56	4.3064e-06	3.6867e-06	304.11	84.525	66.45	18.848	4.0525e-06	26.843	0.00027555	0.0002535	6.9222e-05	1100.8	2.8987e-06	2.7107e-06	1168.1	234.69	2.8581e-06	2.733e-06	298.77	85.041	66.482	19.095	2.7413e-06	27.323	335.867	66.122	78.974	9.673	144.681	140.636	10.037	16.970	176.195	132.084	16.537	23.275	23.501	30.155	158.830	29.967	-8191	255	
8044.177	1	1	0	0	0.17643	0.015321	0.18696	0.090027	0.3203	0.078429	0.066785	0.33903	0.25572	0.43819	0.077134	0.22496	0.11543	0.18438	0.14619	0.38275	-2.4875	-2.6604	-2.4813	-2.9979	-2.7812	-2.6542	-3.2021	-2.7208	-2.8458	-2.8688	-2.6521	-2.8896	-2.9604	-2.7042	-2.9	-2.7667	242.720	268.517	74.644	75.470	143.408	124.205	322.118	263.917	67.618	178.555	139.869	342.424	140.169	108.005	30.197	338.767	0.00048172	0.0003192	8.1418e-05	1111.9	4.8153e-06	1.1185e-06	1180.4	235.43	4.6184e-06	4.341e-06	301.86	84.816	66.463	18.746	2.2188e-06	26.992	0.0002712	0.00025302	6.7352e-05	1100.6	2.8817e-06	2.6925e-06	1167.5	234.1	2.7645e-06	2.6978e-06	297.74	85.167	66.529	19.022	2.7532e-06	27.32	333.477	71.888	57.487	9.766	166.322	141.686	10.033	16.866	136.341	167.238	15.980	23.033	23.668	29.735	174.298	29.818	-8191	255	
8044.273	1	1	0	0	0.22614	0.1949	0.15761	0.32417	0.09024	0.0094517	0.26559	0.14285	0.045502	0.17996	0.12576	0.41318	0.23801	0.075307	0.25771	0.13364	-2.25	-2.825	-2.5042	-3.1854	-2.8125	-2.6875	-3.0812	-2.8208	-2.7271	-2.9146	-2.5438	-2.9375	-2.75	-2.6917	-3.025	-2.7021	5.393	219.032	334.149	333.783	60.715	255.957	309.495	314.157	122.614	240.922	241.552	304.206	271.182	295.773	135.105	60.180	0.00048244	0.00026747	0.0001089	1115.5	5.5374e-06	2.2581e-06	1179.3	236.34	6.0604e-06	3.3253e-06	293.67	84.523	66.52	18.892	3.5349e-06	26.905	0.00027789	0.0002519	7.2322e-05	1100.9	2.9789e-06	2.8674e-06	1168.7	234.91	2.7283e-06	2.7943e-06	294.97	85.087	66.537	19.025	2.5352e-06	27.385	333.068	81.200	79.995	9.553	170.661	148.439	9.853	16.914	145.555	152.239	16.907	22.883	23.723	30.382	177.637	29.602	-8191	255	
8044.367	1	1	0	0	0.06108	0.15209	0.31163	0.085546	0.19684	0.089019	0.2334	0.21058	0.1661	0.14062	0.17301	0.13983	0.26923	0.2449	0.17237	0.26041	-2.3396	-2.7417	-2.6458	-3.1375	-2.6854	-2.5354	-3.0563	-2.7146	-2.7167	-2.9875	-2.7167	-3.025	-2.9188	-2.7	-3.0062	-2.6708	47.225	163.051	166.096	323.835	192.513	72.977	327.974	340.784	72.708	200.041	334.339	49.843	43.631	54.486	44.270	107.627	0.00043524	0.00036361	0.00010225	1119.1	7.2427e-06	4.16e-06	1184.3	235.95	5.9305e-06	2.5089e-06	305.71	84.845	66.914	18.797	4.8285e-06	26.998	0.00027631	0.00024386	7.4183e-05	1103.6	2.9685e-06	2.8587e-06	1169.4	234.58	2.8192e-06	2.7243e-06	298.68	85.172	66.613	19.027	2.5856e-06	27.405	330.039	66.465	93.056	9.614	158.861	142.198	9.580	16.721	177.023	155.924	15.557	22.975	23.646	30.482	149.076	30.009	-8191	255	
8044.465	1	1	0	0	0.19025	0.18761	0.19192	0.1813	0.18826	0.11207	0.085814	0.088671	0.20518	0.10114	0.16869	0.050662	0.19875	0.1295	0.1177	0.11606	-2.025	-3.1167	-2.6896	-2.8292	-2.8	-2.6729	-3.1708	-2.9625	-2.6208	-2.7792	-2.6688	-2.6937	-2.8312	-2.7167	-3.0021	-2.8271	102.552	101.124	125.068	293.856	352.946	331.843	250.198	301.013	211.322	98.786	35.534	21.205	305.171	14.888	323.236	275.402	0.00049056	0.00034057	8.5884e-05	1115.6	2.5843e-06	5.7709e-06	1183.8	235.45	5.657e-06	2.2898e-06	302.68	84.048	66.076	18.829	4.4262e-06	27.025	0.00028413	0.00024591	7.4097e-05	1103.4	2.9876e-06	2.7183e-06	1168	234.3	2.8429e-06	2.6649e-06	297.7	84.922	66.495	19.081	2.6978e-06	27.382	335.356	84.781	85.381	9.770	187.258	152.699	9.838	16.982	162.885	128.700	15.436	23.020	23.533	30.179	131.666	29.521	-8191	255	
8044.584	1	1	0	0	0.21521	0.1565	0.19643	0.33644	0.15272	0.22316	0.20146	0.1157	0.072621	0.085211	0.087127	0.12837	0.12077	0.056108	0.22475	0.081952	-2.2146	-2.8417	-2.7313	-2.7562	-2.8917	-2.5708	-2.9875	-2.7	-2.7333	-2.8375	-2.75	-2.625	-2.8771	-2.5042	-2.9437	-2.8708	210.494	358.245	7.282	329.446	70.042	198.605	279.715	282.118	344.841	351.716	112.981	26.675	47.814	101.633	46.771	-0.952	0.00046101	0.00029419	7.109e-05	1116.2	3.7807e-06	4.1613e-06	1185.9	234.91	8.5858e-06	4.2028e-06	300.13	85.059	66.927	18.836	3.6368e-06	26.921	0.00027814	0.00023944	6.9317e-05	1102.3	2.8695e-06	2.655e-06	1168.2	234.53	2.8509e-06	2.6751e-06	297.22	85.185	66.699	19.092	2.7262e-06	27.364	338.646	105.373	78.491	9.798	147.178	156.280	9.858	16.927	190.894	103.796	16.387	22.802	23.379	30.278	172.596	29.732	-8191	255	
8044.680	1	1	0	0	0.31505	0.23829	0.061104	0.34841	0.14153	0.14731	0.30567	0.082486	0.13674	0.088497	0.12697	0.152	0.10664	0.20469	0.32905	0.067268	-2.1958	-2.9958	-2.7583	-2.7333	-3.1312	-2.6458	-2.8937	-2.7875	-2.6771	-2.8479	-2.6292	-2.7042	-2.6896	-2.7417	-2.7479	-2.85	148.860	227.079	84.232	118.685	207.260	228.795	297.336	250.279	57.778	244.948	246.825	124.473	123.737	163.187	341.729	227.132	0.00043737	0.0003575	6.0348e-05	1115.2	2.7907e-06	4.252e-06	1181.8	236.52	7.6692e-06	1.8114e-06	299.16	84.954	66.307	18.705	3.4001e-06	26.994	0.00027726	0.00025217	7.0958e-05	1103.1	2.9136e-06	2.7301e-06	1169.5	234.63	2.8884e-06	2.6513e-06	296.32	85.34	66.46	19.047	2.5701e-06	27.386	328.757	112.557	65.895	9.797	176.420	121.239	9.722	16.807	150.873	152.111	16.438	23.053	23.601	30.201	188.788	29.383	-8191	255	
8044.777	1	1	0	0	0.23861	0.35129	0.12282	0.30516	0.17176	0.19638	0.1637	0.13465	0.090521	0.24976	0.15772	0.15409	0.19858	0.084414	0.072164	0.25657	-2.1729	-2.9479	-2.8438	-2.6021	-2.7417	-2.8	-2.9146	-2.975	-2.6479	-2.9125	-2.8646	-2.6813	-2.925	-2.8	-2.8417	-2.9625	28.768	66.476	275.368	344.155	29.929	346.052	245.805	257.274	338.201	335.797	169.101	293.249	161.129	293.758	155.288	66.927	0.00047996	0.00035264	8.0265e-05	1118.7	4.6373e-06	2.6118e-06	1186.5	234.39	2.512e-06	3.0378e-06	302.45	84.702	66.471	18.892	3.7383e-06	27.01	0.0002714	0.00023028	6.8106e-05	1102.6	2.8955e-06	2.6534e-06	1170.1	234.18	2.6777e-06	2.4052e-06	296.15	84.952	66.523	19.066	2.5827e-06	27.287	340.512	71.141	77.664	9.516	172.573	125.730	9.922	16.998	148.578	157.357	16.848	23.127	23.743	30.326	199.594	29.495	-8191	255	
8044.873	1	1	0	0	0.17084	0.22086	0.15162	0.27151	0.24205	0.036424	0.25896	0.14897	0.14663	0.11336	0.13004	0.028576	0.11946	0.28044	0.2035	0.09778	-2.1917	-2.8479	-2.7792	-2.7333	-2.9354	-2.7292	-2.8708	-3.0625	-2.6521	-2.8167	-2.8854	-2.7104	-2.9125	-2.7625	-2.7229	-2.8771	286.628	317.438	30.915	340.477	351.388	236.616	238.636	298.570	226.951	257.089	34.443	99.188	83.813	243.341	90.398	207.386	0.00045508	0.00016405	4.8758e-05	1115.3	4.4027e-06	3.0273e-06	1181.6	236.1	3.8076e-06	3.4726e-06	298.07	84.993	66.221	18.696	5.2305e-06	26.781	0.00028015	0.00023555	6.4824e-05	1102.7	2.8983e-06	2.5992e-06	1167.8	234.36	2.7411e-06	2.4431e-06	297.73	85.219	66.498	19.034	2.5874e-06	27.237	332.855	76.056	131.741	9.690	163.311	185.542	9.575	16.950	174.222	162.480	16.391	23.238	23.465	30.553	167.100	29.387	-8191	255	
8044.969	1	1	0	0	0.041936	0.17807	0.026405	0.34754	0.2814	0.16716	0.24387	0.15102	0.11707	0.071253	0.099332	0.10129	0.23859	0.16002	0.07066	0.09553	-2.1479	-2.8937	-2.8042	-2.6583	-2.9958	-2.8604	-2.9604	-3.0208	-2.7208	-2.8479	-2.9354	-2.6854	-2.7708	-2.9729	-2.5333	-2.9979	104.025	233.189	285.507	268.775	278.821	25.156	269.890	356.118	194.850	192.767	150.031	214.669	332.746	332.422	59.114	8.107	0.00044477	0.00035024	0.00010546	1111.4	3.3941e-06	4.1718e-06	1173.3	233.76	6.5824e-06	1.9673e-06	298.51	84.416	66.598	18.824	2.4662e-06	26.901	0.00026595	0.00022738	6.4786e-05	1097.9	2.5605e-06	2.5647e-06	1162.8	232.77	2.5177e-06	2.3935e-06	293.5	84.662	66.188	18.953	2.4773e-06	27.188	333.162	98.649	81.755	9.788	163.761	132.088	9.623	16.963	174.069	155.304	16.423	23.113	23.913	29.997	135.193	30.186	-8191	255	
#DATA ENDS
