BOXY.EXE: ISS Imagent and Oximeter Data Acquisition Program Version 0.80
Ascii Record File

#ACQ INFORMATION
2  Detector Channels 
16  External MUX Channels 
1  Auxiliary Channels 
5000  Waveform (CCF) Frequency (Hz)
1  Waveforms Skipped 
30  Waveforms Averaged 
1  Cycles Averaged 
16  Acquisitions per Waveform 
10.0806  Updata Rate (Hz) 

#FILE INFORMATION
TRUE -- External MUX Channel results are PARSED.
FALSE -- AC DC and Phase are NOT grouped.
TRUE -- Companion Program Settings File CREATED.
FALSE -- AC data not excluded
FALSE -- DC data not excluded
FALSE -- Phase data not excluded
FALSE -- Auxillary Chn. data not excluded
Tab delimiters

#CALIBRATION STATE
TRUE -- Waveform Calibration Values APPLIED.


#AUX CALIBRATION VALUES
Val Type	aux-1	

Term	1.0000e+00	
Factor	0.0000e+00	


#WF CALIBRATION VALUES
A = Detector Channel
Val Type	A-AC1	A-AC2	A-AC3	A-AC4	A-AC5	A-AC6	A-AC7	A-AC8	A-AC9	A-AC10	A-AC11	A-AC12	A-AC13	A-AC14	A-AC15	A-AC16	A-DC1	A-DC2	A-DC3	A-DC4	A-DC5	A-DC6	A-DC7	A-DC8	A-DC9	A-DC10	A-DC11	A-DC12	A-DC13	A-DC14	A-DC15	A-DC16	A-Ph1	A-Ph2	A-Ph3	A-Ph4	A-Ph5	A-Ph6	A-Ph7	A-Ph8	A-Ph9	A-Ph10	A-Ph11	A-Ph12	A-Ph13	A-Ph14	A-Ph15	A-Ph16	

Term	0.00000e+00	0.00000e+00	0.00000e+00	0.00000e+00	0.00000e+00	0.00000e+00	0.00000e+00	0.00000e+00	0.00000e+00	0.00000e+00	0.00000e+00	0.00000e+00	0.00000e+00	0.00000e+00	0.00000e+00	0.00000e+00	0.00000e+00	0.00000e+00	0.00000e+00	0.00000e+00	0.00000e+00	0.00000e+00	0.00000e+00	0.00000e+00	0.00000e+00	0.00000e+00	0.00000e+00	0.00000e+00	0.00000e+00	0.00000e+00	0.00000e+00	0.00000e+00	0.00000e+00	0.00000e+00	0.00000e+00	0.00000e+00	0.00000e+00	0.00000e+00	0.00000e+00	0.00000e+00	0.00000e+00	0.00000e+00	0.00000e+00	0.00000e+00	0.00000e+00	0.00000e+00	0.00000e+00	0.00000e+00	
Factor	1.00000e+00	1.00000e+00	1.00000e+00	1.00000e+00	1.00000e+00	1.00000e+00	1.00000e+00	1.00000e+00	1.00000e+00	1.00000e+00	1.00000e+00	1.00000e+00	1.00000e+00	1.00000e+00	1.00000e+00	1.00000e+00	1.00000e+00	1.00000e+00	1.00000e+00	1.00000e+00	1.00000e+00	1.00000e+00	1.00000e+00	1.00000e+00	1.00000e+00	1.00000e+00	1.00000e+00	1.00000e+00	1.00000e+00	1.00000e+00	1.00000e+00	1.00000e+00	X	X	X	X	X	X	X	X	X	X	X	X	X	X	X	X	

B = Detector Channel
Val Type	B-AC1	B-AC2	B-AC3	B-AC4	B-AC5	B-AC6	B-AC7	B-AC8	B-AC9	B-AC10	B-AC11	B-AC12	B-AC13	B-AC14	B-AC15	B-AC16	B-DC1	B-DC2	B-DC3	B-DC4	B-DC5	B-DC6	B-DC7	B-DC8	B-DC9	B-DC10	B-DC11	B-DC12	B-DC13	B-DC14	B-DC15	B-DC16	B-Ph1	B-Ph2	B-Ph3	B-Ph4	B-Ph5	B-Ph6	B-Ph7	B-Ph8	B-Ph9	B-Ph10	B-Ph11	B-Ph12	B-Ph13	B-Ph14	B-Ph15	B-Ph16	

Term	0.00000e+00	0.00000e+00	0.00000e+00	0.00000e+00	0.00000e+00	0.00000e+00	0.00000e+00	0.00000e+00	0.00000e+00	0.00000e+00	0.00000e+00	0.00000e+00	0.00000e+00	0.00000e+00	0.00000e+00	0.00000e+00	0.00000e+00	0.00000e+00	0.00000e+00	0.00000e+00	0.00000e+00	0.00000e+00	0.00000e+00	0.00000e+00	0.00000e+00	0.00000e+00	0.00000e+00	0.00000e+00	0.00000e+00	0.00000e+00	0.00000e+00	0.00000e+00	6.18343e+01	-1.31059e+02	-1.28480e+02	-1.84124e+02	-6.87911e+01	-6.82456e+01	-1.56911e+02	-1.62015e+02	-7.40016e+01	-6.54156e+01	-1.77697e+02	-1.71319e+02	-1.80631e+02	-1.77165e+02	-6.37371e+01	-1.49825e+02	
Factor	5.72416e-05	1.94192e-04	5.38199e-05	1.68864e-01	2.83546e-06	2.03816e-06	1.62166e-01	5.20289e-02	3.35572e-06	1.96407e-06	9.52225e-01	2.70685e-02	2.82943e-02	8.99284e-03	2.49629e-06	1.25482e-02	1.20680e-05	1.63461e-05	4.57917e-06	8.64489e-02	1.66670e-07	1.82106e-07	7.82106e-02	2.66752e-02	1.65207e-07	1.81697e-07	4.60311e-01	1.35287e-02	1.46057e-02	4.65260e-03	1.72611e-07	6.31523e-03	X	X	X	X	X	X	X	X	X	X	X	X	X	X	X	X	



#DISTANCE SETTINGS
A = Detector Channel
A-1	A-2	A-3	A-4	A-5	A-6	A-7	A-8	A-9	A-10	A-11	A-12	A-13	A-14	A-15	A-16	

2.5000e+00	3.0000e+00	2.5000e+00	3.0000e+00	2.0000e+00	3.0000e+00	1.5000e+00	3.0000e+00	3.0000e+00	3.0000e+00	3.0000e+00	3.0000e+00	3.0000e+00	3.0000e+00	1.5000e+00	3.0000e+00	

B = Detector Channel
B-1	B-2	B-3	B-4	B-5	B-6	B-7	B-8	B-9	B-10	B-11	B-12	B-13	B-14	B-15	B-16	

1.0000e+01	1.0000e+01	1.0000e+01	1.4400e+00	1.0000e+01	1.0000e+01	1.5100e+00	1.9400e+00	1.0000e+01	1.0000e+01	1.9900e+00	2.4900e+00	2.4100e+00	2.9000e+00	1.0000e+01	2.9800e+00	




#DATA BEGINS
time	group	step	mark	flag	A-AC1	A-AC2	A-AC3	A-AC4	A-AC5	A-AC6	A-AC7	A-AC8	A-AC9	A-AC10	A-AC11	A-AC12	A-AC13	A-AC14	A-AC15	A-AC16	A-DC1	A-DC2	A-DC3	A-DC4	A-DC5	A-DC6	A-DC7	A-DC8	A-DC9	A-DC10	A-DC11	A-DC12	A-DC13	A-DC14	A-DC15	A-DC16	A-Ph1	A-Ph2	A-Ph3	A-Ph4	A-Ph5	A-Ph6	A-Ph7	A-Ph8	A-Ph9	A-Ph10	A-Ph11	A-Ph12	A-Ph13	A-Ph14	A-Ph15	A-Ph16	B-AC1	B-AC2	B-AC3	B-AC4	B-AC5	B-AC6	B-AC7	B-AC8	B-AC9	B-AC10	B-AC11	B-AC12	B-AC13	B-AC14	B-AC15	B-AC16	B-DC1	B-DC2	B-DC3	B-DC4	B-DC5	B-DC6	B-DC7	B-DC8	B-DC9	B-DC10	B-DC11	B-DC12	B-DC13	B-DC14	B-DC15	B-DC16	B-Ph1	B-Ph2	B-Ph3	B-Ph4	B-Ph5	B-Ph6	B-Ph7	B-Ph8	B-Ph9	B-Ph10	B-Ph11	B-Ph12	B-Ph13	B-Ph14	B-Ph15	B-Ph16	aux-1	digaux	

8111.120	1	1	0	256	0.10574	0.08826	0.078399	0.044776	0.18705	0.27614	0.20241	0.27316	0.051463	0.059118	0.049751	0.27183	0.12105	0.1691	0.32426	0.13875	-2.2979	-2.4208	-2.4	-2.8771	-2.6729	-2.4292	-2.9625	-2.4271	-2.5875	-2.6542	-2.5354	-2.8187	-2.7146	-2.5104	-2.6312	-2.5271	265.860	66.812	-41.763	-71.254	106.860	175.138	221.782	-54.617	94.102	172.211	127.756	246.032	248.296	135.543	206.655	198.489	0.00026579	0.00050856	0.00012691	1307	3.4463e-07	2.2088e-06	1373.5	275.66	4.8123e-06	4.6712e-06	344.75	97.615	77.072	22.295	3.5777e-06	31.111	0.0002611	0.00024264	6.9098e-05	1283.9	2.9153e-06	2.7028e-06	1357.5	273.67	2.7748e-06	2.6626e-06	339.78	97.874	76.852	22.508	2.6798e-06	31.461	22.026	-35.589	8.452	-82.148	50.257	63.080	-81.972	-75.254	58.109	72.058	-75.486	-69.083	-68.690	-61.996	74.316	-62.397	-8191	255	
8111.216	1	1	0	0	0.16709	0.17422	0.13998	0.18948	0.0089386	0.040233	0.33155	0.2125	0.065441	0.25145	0.10938	0.14339	0.38011	0.11564	0.09429	0.11765	-2.1396	-2.7042	-2.2896	-2.8042	-2.575	-2.5167	-2.8667	-2.8083	-2.6542	-2.7083	-2.4479	-2.6604	-2.7	-2.5729	-2.6875	-2.5958	41.196	259.171	114.284	264.726	207.901	-52.894	196.576	208.117	264.327	-70.412	-42.274	157.825	260.873	116.281	4.591	-9.650	0.00031978	0.00029166	1.8658e-05	1301	4.3966e-06	4.093e-06	1378.4	275.09	7.4016e-06	2.8069e-06	347.36	97.859	76.83	22.305	3.1323e-06	31.05	0.00026612	0.00024366	6.5606e-05	1281.1	2.8337e-06	2.5738e-06	1359.1	273.2	2.6925e-06	2.6433e-06	339.91	98.04	76.889	22.54	2.6647e-06	31.524	18.897	10.215	-33.736	-82.139	39.388	77.377	-82.135	-74.988	51.805	69.933	-75.897	-68.994	-68.396	-61.418	92.306	-61.982	-8191	255	
8111.312	1	1	0	0	0.15818	0.39363	0.22588	0.26178	0.23357	0.077476	0.23295	0.18169	0.089642	0.35624	0.12968	0.11591	0.43171	0.15566	0.14292	0.11523	-2.2979	-2.7292	-2.4542	-2.85	-2.6625	-2.4083	-2.7625	-2.8375	-2.425	-2.7958	-2.4771	-2.5833	-2.6292	-2.5292	-2.6896	-2.5104	75.797	90.474	161.109	200.608	219.557	93.217	197.709	-79.316	30.982	241.598	103.848	22.189	-27.492	37.948	91.162	38.136	0.0002792	0.00032983	9.8526e-05	1304.5	2.5358e-06	3.0695e-06	1376.6	275	2.8345e-06	2.5371e-06	345.08	97.987	77.003	22.263	3.4764e-06	31.298	0.00027497	0.00024059	6.8831e-05	1282.8	2.7657e-06	2.5874e-06	1357.1	272.72	2.7407e-06	2.5646e-06	339.04	97.996	76.95	22.478	2.7589e-06	31.501	6.249	-17.628	11.664	-82.069	42.643	85.709	-81.938	-75.201	57.184	86.501	-75.899	-68.910	-68.832	-61.815	66.673	-62.135	-8191	255	
8111.431	1	1	0	0	0.10993	0.15873	0.15495	0.3379	0.14753	0.13461	0.12374	0.35643	0.086377	0.10286	0.13945	0.17412	0.2715	0.12942	0.074363	0.026533	-2.0146	-2.7438	-2.3292	-2.6167	-2.6146	-2.5396	-2.8521	-2.7188	-2.6958	-2.9104	-2.5771	-2.65	-2.8208	-2.4062	-2.7687	-2.7146	99.161	75.210	-85.753	-93.344	24.380	21.173	189.772	217.544	158.695	192.320	-54.308	84.244	157.147	-77.408	136.267	40.015	0.00029181	0.00028226	0.00013015	1299.7	3.4764e-06	3.7748e-06	1377.4	275.47	6.0566e-06	3.7028e-06	342.34	97.899	77.06	22.456	3.4546e-06	31.199	0.00026185	0.00024097	6.781e-05	1283	2.9442e-06	2.7331e-06	1357.8	273.05	2.8677e-06	2.7243e-06	338.85	98.052	77.002	22.484	2.5924e-06	31.553	15.804	9.678	8.719	-81.999	73.444	67.287	-82.091	-75.489	13.173	47.776	-75.829	-68.775	-68.638	-61.919	46.976	-61.875	-8191	255	
8111.527	1	1	0	0	0.061522	0.21855	0.15705	0.15423	0.17109	0.25543	0.19263	0.045272	0.037909	0.078684	0.18636	0.22688	0.11913	0.23461	0.13957	0.06799	-2.0187	-2.7979	-2.4417	-2.6292	-2.6667	-2.4458	-2.9104	-2.6437	-2.5833	-2.6875	-2.2667	-2.5583	-2.7646	-2.5083	-2.575	-2.675	-84.206	98.452	208.157	191.351	166.778	-39.815	221.544	63.914	259.533	44.716	-32.211	222.892	261.338	197.407	38.863	58.188	0.00029355	0.00054516	0.00010572	1299.9	7.2141e-07	2.9164e-06	1377.8	274.78	1.5353e-06	3.1462e-06	343.35	97.582	76.765	22.207	6.1198e-06	30.957	0.00026451	0.00024478	6.7362e-05	1281.6	2.8778e-06	2.6534e-06	1360.1	272.6	2.7775e-06	2.4866e-06	336.75	97.779	76.552	22.386	2.6165e-06	31.389	23.140	-12.459	-7.186	-82.091	-37.049	35.032	-81.916	-75.179	-17.921	45.820	-74.980	-69.132	-68.797	-61.531	66.251	-61.696	-8191	255	
8111.624	1	1	0	0	0.23085	0.13343	0.090764	0.076135	0.036522	0.27643	0.44009	0.047434	0.15713	0.14739	0.16553	0.23483	0.082373	0.19218	0.063083	0.12881	-2.0958	-2.6979	-2.4333	-2.775	-2.7938	-2.6542	-2.9354	-2.7708	-2.6083	-2.6271	-2.3375	-2.3396	-2.7	-2.4	-2.6583	-2.7188	161.418	55.322	150.726	-0.179	214.327	103.920	207.403	93.720	20.366	20.954	-63.745	189.851	-54.795	230.920	-26.778	-56.401	0.00035794	0.00032576	7.8108e-05	1307	8.4161e-07	3.7146e-06	1377.2	271.84	1.4596e-06	3.575e-06	340.24	97.55	76.642	22.185	3.6308e-06	31.023	0.00027696	0.00024281	7.3582e-05	1284.5	3.0199e-06	2.9201e-06	1359.3	270.65	3.0302e-06	2.8023e-06	337.88	97.232	76.519	22.326	2.8118e-06	31.332	10.399	6.350	8.996	-82.156	256.849	96.240	-82.055	-75.173	38.330	60.809	-75.702	-68.724	-68.718	-61.707	28.244	-61.943	-8191	255	
8111.720	1	1	0	0	0.26783	0.4326	0.082055	0.40844	0.14973	0.18486	0.18869	0.27546	0.14575	0.29438	0.12771	0.17196	0.03356	0.060617	0.016926	0.10648	-2.0958	-2.8104	-2.5917	-2.6312	-2.8208	-2.5042	-2.8375	-2.8229	-2.4625	-2.7271	-2.5021	-2.4813	-2.7521	-2.4938	-2.5958	-2.8583	233.566	232.061	-70.230	196.392	188.639	51.008	145.811	219.144	206.608	185.111	33.397	-64.985	253.190	61.252	194.639	39.030	0.00030386	0.0004422	7.9555e-05	1308.1	2.1403e-06	4.5718e-06	1385.2	272.07	5.0881e-06	3.6155e-06	344.1	97.486	76.824	22.157	2.782e-06	30.691	0.00029418	0.00025929	7.5986e-05	1287.4	3.0737e-06	2.7737e-06	1362.9	270.69	3.0226e-06	2.6993e-06	338.07	97.469	76.676	22.372	2.856e-06	31.329	13.194	-18.174	20.819	-82.449	56.913	51.847	-82.087	-75.065	2.249	62.387	-75.081	-68.857	-68.407	-61.724	86.052	-61.969	-8191	255	
8111.816	1	1	0	0	0.23286	0.2345	0.16645	0.2556	0.1968	0.082886	0.21514	0.40442	0.17081	0.14033	0.11198	0.19652	0.24184	0.28512	0.24235	0.19802	-1.9271	-2.4125	-2.5896	-2.5042	-2.6437	-2.4333	-2.6771	-2.7375	-2.2979	-2.7083	-2.55	-2.6646	-2.7458	-2.5958	-2.6562	-2.8521	-23.832	143.219	131.027	194.552	212.059	250.897	247.748	218.571	206.018	250.116	9.339	-86.844	16.000	208.787	12.730	191.153	0.00035151	0.00037445	5.5929e-05	1312.6	2.4518e-06	3.6834e-06	1381.4	271.94	4.2962e-06	1.9361e-06	336.98	97.681	76.48	22.146	5.3049e-06	30.95	0.00028677	0.00024529	7.1683e-05	1290.1	2.9466e-06	2.8887e-06	1363.6	270.67	3.0426e-06	2.7943e-06	335.77	97.464	76.4	22.346	2.9682e-06	31.382	25.207	10.626	15.194	-82.062	82.624	30.712	-82.107	-75.358	30.185	51.006	-74.329	-68.932	-68.645	-61.959	54.154	-62.388	-8191	255	
8111.912	1	1	0	0	0.14428	0.047378	0.23328	0.36016	0.19615	0.047849	0.2392	0.24943	0.13649	0.22924	0.18374	0.30808	0.19832	0.064075	0.05935	0.3145	-2.0958	-2.4437	-2.5938	-2.5312	-2.6562	-2.4958	-2.6979	-2.8	-2.4542	-2.8875	-2.4958	-2.6333	-2.6625	-2.5187	-2.5854	-2.8208	153.094	-49.967	89.609	-88.535	232.039	142.357	211.751	178.410	45.223	-36.564	136.915	191.812	-45.203	166.493	157.345	199.616	0.00035749	0.00041007	8.0831e-05	1311.5	1.0885e-06	5.2559e-06	1389.6	272.31	2.6639e-06	2.6002e-06	344.55	97.513	76.456	22.291	3.9656e-06	30.964	0.0002889	0.00026573	7.7369e-05	1292	3.0178e-06	3.0226e-06	1371	271.13	3.0539e-06	2.8776e-06	337.22	97.774	76.662	22.452	2.9671e-06	31.433	14.752	-23.325	-25.144	-81.877	14.236	44.629	-82.260	-75.150	43.857	54.352	-75.620	-68.690	-68.548	-61.456	51.618	-61.880	-8191	255	
8112.033	1	1	0	0	0.43371	0.14822	0.13748	0.28644	0.090618	0.38054	0.2776	0.18328	0.20379	0.18474	0.1918	0.24567	0.091386	0.16433	0.17697	0.12138	-2.0375	-2.5854	-2.7354	-2.6979	-2.7729	-2.7083	-2.6667	-2.7521	-2.5604	-2.6292	-2.6063	-2.4771	-2.7021	-2.6833	-2.4688	-2.7271	201.551	210.563	181.677	218.030	-58.245	-13.646	238.014	140.065	218.255	210.158	118.678	108.238	-72.780	227.660	-37.597	-29.467	0.000288	0.00033458	8.4565e-05	1310.6	3.9002e-06	5.307e-06	1387.9	272.66	2.0244e-06	3.1807e-06	341.86	97.263	77.021	22.235	5.3849e-06	30.989	0.00028144	0.00025115	7.0328e-05	1293.2	2.9254e-06	2.9031e-06	1369	270.84	2.8292e-06	2.7955e-06	337.39	97.444	76.638	22.399	2.8373e-06	31.378	25.180	-17.547	-2.227	-82.066	52.728	69.661	-82.030	-75.182	28.376	68.414	-75.427	-69.020	-68.333	-61.248	34.977	-62.075	-8191	255	
8112.129	1	1	0	0	0.07007	0.1083	0.20073	0.18954	0.10818	0.12011	0.042064	0.10865	0.14496	0.34434	0.13251	0.12283	0.080546	0.11119	0.26342	0.20723	-1.9208	-2.5542	-2.6375	-2.7167	-2.7104	-2.5792	-2.5896	-2.9542	-2.4792	-2.5187	-2.9062	-2.5375	-2.7021	-2.6208	-2.5062	-2.75	111.552	-36.697	119.751	261.862	-77.426	-84.123	204.583	54.508	-60.599	179.530	-32.660	222.875	156.122	20.699	-34.500	-77.423	0.00033009	0.00040157	0.00012582	1313.5	2.1896e-06	2.3877e-06	1387.3	271.99	1.5456e-06	2.9002e-06	345.82	97.301	76.421	22.147	3.3893e-06	30.799	0.00027621	0.00025844	7.2981e-05	1290.7	2.9615e-06	2.7752e-06	1366.9	270.28	2.9483e-06	2.8163e-06	337.61	97.447	76.534	22.395	2.8661e-06	31.373	24.660	23.807	-10.644	-82.353	31.941	61.000	-82.188	-75.288	-10.677	43.543	-75.483	-68.932	-68.399	-61.507	99.748	-61.941	-8191	255	
8112.225	1	1	0	0	0.18238	0.18922	0.18315	0.343	0.092947	0.16012	0.16578	0.21419	0.085925	0.14932	0.21411	0.088566	0.052935	0.15137	0.19007	0.063401	-2.0146	-2.4771	-2.7208	-2.4938	-2.6063	-2.6604	-2.4646	-2.8333	-2.7354	-2.4938	-2.7604	-2.65	-2.7042	-2.675	-2.5542	-2.6979	123.686	6.194	207.139	235.896	188.730	206.798	148.742	180.018	129.130	169.060	68.244	92.010	264.919	92.539	257.183	53.551	0.00037609	0.00048133	0.00011249	1309.2	3.9377e-06	5.2386e-06	1388.9	272.63	5.4182e-06	3.9351e-06	342.2	97.253	76.505	22.209	4.8565e-06	30.912	0.00029192	0.00025102	7.0128e-05	1289	2.949e-06	2.9638e-06	1367	269.96	2.9744e-06	2.8579e-06	336.08	97.342	76.371	22.35	2.8369e-06	31.343	29.476	20.713	-4.921	-82.116	51.031	64.109	-82.132	-75.199	14.754	36.169	-75.763	-68.898	-68.774	-61.593	34.968	-61.915	-8191	255	
8112.319	1	1	0	0	0.32655	0.28831	0.21126	0.13131	0.040101	0.079291	0.087441	0.16789	0.063495	0.074574	0.14083	0.030438	0.30861	0.21309	0.16423	0.27584	-2.2687	-2.6417	-2.8271	-2.6083	-2.5438	-2.9271	-2.7229	-2.8542	-2.7375	-2.4375	-2.8104	-2.3937	-2.6312	-2.8063	-2.5542	-2.6708	79.121	142.115	245.418	240.219	-62.511	-50.490	175.188	264.556	75.704	213.042	207.182	116.924	186.022	204.439	-13.071	-87.688	0.0002407	0.00041746	7.425e-05	1306.4	3.276e-06	2.4231e-06	1374.6	271.49	4.044e-06	2.5897e-06	340.39	96.725	75.901	22.025	4.9127e-06	30.846	0.00027113	0.00025071	6.8344e-05	1283.9	2.9556e-06	2.5673e-06	1356.7	268.88	2.6598e-06	2.4029e-06	333.51	96.995	75.846	22.207	2.4068e-06	31.21	23.264	-7.895	-2.797	-82.408	39.730	67.049	-82.093	-75.305	9.094	84.308	-74.812	-68.753	-68.602	-61.452	50.588	-61.642	-8191	255	
8112.416	1	1	0	0	0.14393	0.24346	0.16254	0.21882	0.14079	0.17605	0.43983	0.068038	0.29334	0.16494	0.13675	0.20648	0.28287	0.098266	0.15224	0.13682	-2.2292	-2.3542	-2.7021	-2.8042	-2.5187	-2.6396	-2.6188	-2.6667	-2.5854	-2.5938	-2.7729	-2.7521	-2.4479	-2.8479	-2.4208	-2.7562	103.089	-54.288	153.195	222.961	141.370	105.688	227.885	265.300	157.993	217.823	89.805	-62.288	266.529	-83.967	132.190	105.781	0.0003132	0.00030693	0.00012602	1295.8	2.83e-06	3.6002e-06	1364.2	270.16	2.3773e-06	2.4644e-06	339.89	97.087	75.518	22.081	3.7076e-06	30.787	0.00026059	0.00021042	6.0197e-05	1271.2	2.5726e-06	2.3275e-06	1345.2	267.53	2.4344e-06	2.3904e-06	332.29	96.783	75.672	22.249	2.4432e-06	31.202	29.318	-17.041	-16.327	-82.064	42.470	49.446	-82.069	-74.952	-54.059	58.938	-74.878	-68.707	-68.461	-61.264	74.593	-62.193	-8191	255	
8112.512	1	1	0	0	0.30025	0.1352	0.094414	0.55447	0.15724	0.0794	0.32204	0.028599	0.33303	0.39463	0.042661	0.14085	0.22056	0.12973	0.25094	0.2188	-2.1625	-2.3417	-2.6375	-2.7146	-2.4604	-2.7583	-2.7833	-2.6521	-2.6979	-2.7042	-2.6958	-2.6813	-2.6437	-2.8479	-2.5979	-2.6833	-21.238	88.178	72.495	239.622	224.583	108.540	139.261	-67.457	-86.164	239.705	-82.293	-91.539	-12.828	53.897	215.384	124.453	0.00034213	0.00033691	9.2954e-05	1291.8	2.9123e-06	2.569e-06	1362.6	268.23	1.3011e-06	2.0044e-06	342.2	95.923	75.913	21.922	3.0489e-06	30.785	0.00024795	0.00022629	5.9005e-05	1271.1	2.8851e-06	2.392e-06	1346	266.59	2.7917e-06	2.3867e-06	332.53	96.482	75.873	22.142	2.5097e-06	31.244	21.610	2.662	-10.710	-82.078	135.969	84.444	-81.975	-75.210	58.454	59.361	-75.361	-68.877	-68.365	-61.329	60.240	-62.113	-8191	255	
8112.608	1	1	0	0	0.25754	0.076237	0.24887	0.38776	0.083976	0.10176	0.061436	0.077809	0.41301	0.11051	0.16824	0.21485	0.15168	0.25776	0.30118	0.32194	-2.3812	-2.4854	-2.7875	-2.7521	-2.4979	-2.7875	-2.6833	-2.5542	-2.8187	-2.4417	-2.7917	-2.9021	-2.4292	-2.9313	-2.5958	-2.5625	-85.598	113.082	-81.826	248.670	2.525	-43.591	174.468	185.675	261.548	189.092	154.914	202.243	218.919	225.419	151.793	186.572	0.00036238	0.00041575	5.5225e-05	1290.1	1.4148e-06	5.1773e-06	1359.8	267.34	2.5149e-06	5.0544e-06	339.15	96.431	75.488	21.832	3.0266e-06	30.593	0.00025524	0.00021577	6.2687e-05	1268.6	2.6497e-06	2.2168e-06	1338.6	265.75	2.3793e-06	2.2807e-06	329.56	96.203	75.303	22.039	2.2199e-06	30.953	22.485	-3.191	6.558	-82.082	126.009	45.604	-81.951	-74.997	22.720	74.760	-75.631	-68.478	-68.190	-61.306	29.547	-61.900	-8191	255	
8112.729	1	1	0	0	0.27254	0.22102	0.1333	0.20819	0.16622	0.16749	0.24433	0.23428	0.24353	0.14416	0.19627	0.13427	0.14612	0.11271	0.15538	0.34409	-2.3375	-2.4792	-2.4833	-2.7083	-2.475	-2.7896	-2.8	-2.4917	-2.5438	-2.4833	-2.5354	-2.7542	-2.6021	-2.7062	-2.6042	-2.6771	-41.922	75.748	208.607	263.061	-14.865	235.145	204.766	67.326	222.465	228.706	-40.471	263.033	189.717	35.207	188.555	260.756	0.00033556	0.00035315	5.9918e-05	1268.7	2.2554e-06	4.2077e-06	1346.4	266.46	4.4549e-06	3.6375e-06	330.93	96.068	74.791	21.846	3.6807e-06	30.322	0.00023095	0.00020123	5.3118e-05	1253	2.4119e-06	2.0373e-06	1327.6	264.24	2.3604e-06	2.3405e-06	327.38	95.941	74.832	21.911	2.3677e-06	30.889	13.455	-2.689	5.078	-82.069	80.447	67.421	-81.916	-75.077	-0.352	61.902	-74.747	-68.774	-68.418	-61.124	54.300	-61.863	-8191	255	
8112.800	1	1	0	0	0.040324	0.093308	0.13981	0.058385	0.21656	0.20845	0.26801	0.39071	0.20814	0.12174	0.24959	0.11832	0.30504	0.20229	0.075239	0.10895	-2.2062	-2.3646	-2.6208	-2.8917	-2.6063	-2.7313	-2.6979	-2.725	-2.7771	-2.5896	-2.6833	-2.8896	-2.5833	-2.7229	-2.6125	-2.7188	43.251	-41.733	43.779	32.783	54.942	262.229	221.197	-74.924	58.295	12.470	130.946	-11.497	243.170	124.774	-78.805	141.356	0.00027916	0.00024959	7.6131e-05	1274.9	3.9022e-06	3.5146e-06	1348.7	264.71	1.5049e-06	3.9819e-06	331.48	96.167	75.046	21.615	3.0173e-06	30.357	0.00024367	0.00020491	5.8881e-05	1251.8	2.5299e-06	2.2797e-06	1328	263.56	2.3704e-06	2.2106e-06	327.95	95.621	74.855	21.875	2.3576e-06	30.84	24.570	15.434	5.222	-82.229	42.380	49.687	-82.038	-75.120	86.471	69.437	-75.106	-68.696	-68.284	-61.428	47.067	-61.943	-8191	255	
8112.896	1	1	0	0	0.19189	0.032138	0.24853	0.38082	0.17079	0.20273	0.30956	0.20913	0.15955	0.1594	0.11519	0.13786	0.18647	0.20408	0.095624	0.262	-2.4729	-2.6063	-2.5771	-2.8667	-2.4083	-2.7417	-2.7646	-2.6208	-2.8792	-2.7771	-2.7271	-2.875	-2.775	-2.6896	-2.6854	-2.5417	37.423	-78.031	209.629	-57.417	227.838	229.160	237.918	121.618	-86.720	4.729	185.334	-25.064	232.396	233.978	261.525	169.165	0.00036957	0.00052475	7.7124e-05	1271.4	5.6388e-06	4.0314e-06	1338.5	265.38	3.1999e-06	3.6909e-06	335.92	95.4	74.656	21.634	2.6169e-06	30.356	0.00023653	0.00021274	5.847e-05	1250.5	2.4632e-06	2.0434e-06	1324.6	263.45	2.401e-06	2.1482e-06	328.96	95.497	74.874	21.944	2.381e-06	30.804	12.636	12.673	-12.267	-81.986	89.377	81.214	-81.792	-75.013	28.094	71.447	-74.623	-68.804	-68.715	-61.578	93.258	-62.167	-8191	255	
8112.992	1	1	0	0	0.10628	0.13788	0.021704	0.13852	0.19147	0.17101	0.20696	0.39752	0.11968	0.22825	0.18577	0.09329	0.21802	0.16946	0.17278	0.069441	-2.2542	-2.4146	-2.5396	-2.9437	-2.5	-2.7021	-2.8292	-2.4062	-2.5917	-2.7167	-2.3604	-2.8917	-2.5021	-2.6979	-2.8604	-2.7208	216.349	38.273	-26.452	240.888	-62.750	107.844	162.403	-69.008	219.765	133.065	55.432	41.001	181.816	266.422	19.101	124.342	0.00038784	0.0003842	7.4765e-05	1272.6	1.197e-06	1.9716e-06	1340.8	264.89	2.0806e-06	3.6435e-06	337.52	95.597	74.696	21.822	3.0619e-06	30.18	0.000239	0.00019466	5.6476e-05	1249.2	2.5153e-06	2.1299e-06	1321.5	263.26	2.2984e-06	2.1561e-06	328.55	95.627	74.779	21.959	2.2087e-06	30.764	9.253	-12.005	-6.146	-81.970	8.577	96.624	-82.120	-74.963	18.669	80.407	-75.599	-68.943	-68.146	-61.593	66.929	-62.064	-8191	255	
8113.113	1	1	0	0	0.037031	0.10787	0.23602	0.17011	0.048101	0.17084	0.25328	0.17036	0.085503	0.18969	0.040438	0.30433	0.20691	0.10515	0.21422	0.23606	-2.425	-2.5708	-2.5833	-2.9188	-2.5333	-2.5583	-2.9604	-2.5958	-2.6833	-2.7854	-2.55	-2.7604	-2.6979	-2.7042	-2.875	-2.7333	116.206	128.878	126.890	-81.305	34.764	111.874	185.772	-37.198	167.594	226.838	39.784	-81.102	234.551	27.916	52.800	173.625	0.00027636	0.00035903	0.00010405	1269.2	4.1724e-06	3.5812e-06	1337.2	265.71	1.6137e-06	4.1949e-06	332.58	95.14	74.59	21.799	4.0586e-06	30.513	0.00022592	0.00020256	5.5437e-05	1247.4	2.4639e-06	2.2259e-06	1321	263.11	2.2214e-06	2.1679e-06	325.82	95.72	74.706	21.884	2.1771e-06	30.792	20.565	-5.874	10.703	-81.997	89.086	46.130	-81.922	-74.901	26.035	66.661	-75.367	-68.907	-68.410	-61.107	67.369	-62.265	-8191	255	
8113.209	1	1	0	0	0.33604	0.093262	0.22432	0.1724	0.090553	0.22244	0.1689	0.075103	0.17113	0.052511	0.1427	0.079284	0.030075	0.22934	0.25501	0.26459	-2.2812	-2.6833	-2.4604	-2.9917	-2.5896	-2.675	-2.7667	-2.5167	-2.7271	-2.8417	-2.6542	-2.7938	-2.7083	-2.5583	-2.8563	-2.6083	38.406	134.808	157.160	-40.968	206.934	18.000	223.189	186.262	154.919	90.592	-73.010	137.764	-44.422	-79.470	7.589	-38.761	0.00034742	0.00045071	0.0001071	1269.6	1.4691e-06	4.0834e-06	1336	264.25	4.719e-06	3.8276e-06	335.94	94.904	74.411	21.878	4.4116e-06	30.056	0.00023269	0.0001951	5.7564e-05	1246.5	2.5435e-06	2.1936e-06	1320.1	263.25	2.3776e-06	2.3102e-06	327.78	95.211	74.669	21.933	2.1781e-06	30.72	21.768	-4.203	13.036	-82.048	24.325	68.509	-81.860	-75.007	43.540	55.672	-76.293	-68.712	-68.394	-61.379	58.594	-61.973	-8191	255	
8113.305	1	1	0	0	0.04324	0.044933	0.061501	0.31321	0.12687	0.14842	0.33168	0.2382	0.23497	0.037563	0.12399	0.058033	0.0601	0.14824	0.12936	0.15821	-2.2146	-2.6521	-2.2333	-2.7625	-2.5125	-2.625	-2.7833	-2.5479	-2.7188	-2.9125	-2.4167	-2.7687	-2.725	-2.4417	-2.8646	-2.7917	199.141	36.647	240.662	240.477	265.889	-44.927	192.835	137.785	-92.242	-70.233	193.152	176.796	-76.031	-26.797	199.480	219.763	0.00034859	0.00037736	9.4501e-05	1266.7	4.9065e-06	5.0528e-06	1341.3	265.24	2.5344e-06	2.6035e-06	334.24	95.553	75.308	21.788	4.1096e-06	30.303	0.00024978	0.00020119	5.7001e-05	1245.5	2.448e-06	2.2767e-06	1321.3	262.98	2.442e-06	2.2905e-06	327.45	95.403	74.979	21.91	2.1594e-06	30.796	21.429	8.955	-13.755	-81.918	110.594	58.235	-81.943	-74.858	68.997	53.035	-74.918	-68.892	-68.458	-61.399	52.695	-61.950	-8191	255	
8113.424	1	1	0	0	0.23382	0.15475	0.15683	0.45316	0.095735	0.029154	0.21979	0.32132	0.27077	0.15212	0.13873	0.29836	0.11403	0.072731	0.32209	0.30641	-2.0958	-2.8708	-2.5062	-2.9562	-2.6771	-2.6063	-3.0187	-2.6542	-2.4958	-2.7917	-2.4958	-2.7229	-2.8333	-2.6083	-2.625	-2.6917	-4.011	121.700	144.629	-43.684	60.360	79.153	196.955	220.807	251.523	50.804	123.871	223.597	252.324	196.824	11.278	203.806	0.00036444	0.00031735	7.9386e-05	1273.3	1.7557e-06	4.0554e-06	1337.3	265.42	3.5217e-06	3.1116e-06	330.53	94.84	74.676	21.863	3.1762e-06	30.338	0.00023558	0.00020126	5.579e-05	1248.8	2.5285e-06	2.1697e-06	1321.9	263.19	2.389e-06	2.1463e-06	329.25	95.227	74.613	21.981	2.2504e-06	30.725	29.793	-12.980	1.685	-81.960	23.797	77.397	-82.016	-75.176	-3.613	52.456	-74.978	-68.935	-68.396	-61.228	62.937	-61.888	-8191	255	
8113.496	1	1	0	0	0.32567	0.39491	0.14817	0.27894	0.15861	0.038622	0.39057	0.34847	0.18822	0.19787	0.28259	0.19687	0.24136	0.11137	0.15677	0.041585	-2.0958	-2.8979	-2.5646	-2.8417	-2.775	-2.55	-2.8438	-2.7875	-2.5146	-2.8458	-2.4625	-2.8812	-2.6896	-2.4167	-2.6521	-2.5542	-59.814	127.354	-4.745	246.272	55.381	-25.374	206.817	241.574	41.848	121.230	147.422	251.073	44.289	101.576	25.510	142.731	0.00031282	0.00028279	0.00012588	1266.2	3.2942e-06	5.5017e-06	1339.5	264.87	3.0046e-06	3.1356e-06	335.53	95.573	74.754	21.758	3.3575e-06	30.449	0.00023512	0.0001954	5.8089e-05	1246.9	2.6334e-06	2.2077e-06	1322.4	263.11	2.4196e-06	2.1065e-06	327.22	95.49	74.782	21.915	2.217e-06	30.8	20.417	-11.598	-4.768	-81.911	68.971	46.766	-82.154	-75.073	30.630	59.753	-75.535	-68.692	-68.459	-61.297	59.942	-62.165	-8191	255	
8113.594	1	1	0	0	0.15328	0.32491	0.20797	0.25314	0.21786	0.043861	0.37463	0.2779	0.27285	0.27829	0.17111	0.27498	0.26942	0.12505	0.12318	0.21184	-1.9229	-2.725	-2.4542	-2.7812	-2.6583	-2.6042	-3.0479	-2.7354	-2.6167	-2.6708	-2.5146	-2.6917	-2.8521	-2.6167	-2.6937	-2.7604	55.458	-41.595	-7.560	233.902	-52.535	94.039	211.330	-87.658	-60.791	69.180	-18.944	-73.825	-36.358	266.879	15.699	-56.234	0.00034789	0.0003282	9.409e-05	1271.2	2.9346e-06	2.4877e-06	1339.2	265.75	5.2773e-06	1.5885e-06	340.81	95.429	74.827	21.879	1.1887e-06	30.401	0.0002312	0.00020552	6.1008e-05	1248.7	2.4695e-06	2.2634e-06	1322.2	262.92	2.4798e-06	2.0827e-06	329.26	95.559	74.617	21.92	2.1418e-06	30.707	13.323	10.067	-18.179	-82.143	56.621	27.235	-81.964	-75.008	-6.971	61.058	-75.599	-68.752	-68.415	-61.495	31.022	-61.858	-8191	255	
8113.713	1	1	0	0	0.10345	0.15584	0.29578	0.20617	0.17584	0.0089902	0.28914	0.19306	0.067634	0.063429	0.036112	0.35104	0.29507	0.083922	0.19286	0.13284	-2.0292	-2.625	-2.6167	-2.8729	-2.7708	-2.2896	-2.8125	-2.6729	-2.5167	-2.7854	-2.5146	-2.675	-2.7521	-2.4833	-2.7062	-2.675	229.558	251.379	204.228	221.551	-1.904	130.544	263.673	212.336	45.168	33.663	-17.691	214.723	-44.394	112.785	158.667	167.800	0.00031645	0.00021673	9.6593e-05	1269.3	4.039e-06	4.0002e-06	1345.2	266.05	2.8855e-06	1.6136e-06	334.67	95.371	74.864	21.598	3.4011e-06	30.467	0.00024639	0.00019888	5.8985e-05	1247.6	2.4608e-06	2.1462e-06	1323.9	263.35	2.4671e-06	2.2069e-06	327.76	95.475	74.858	21.84	2.2921e-06	30.816	22.399	19.206	18.186	-82.001	64.033	69.410	-82.246	-74.969	52.113	58.800	-74.762	-68.501	-68.159	-61.423	33.392	-61.603	-8191	255	
8113.809	1	1	0	0	0.27378	0.23133	0.10702	0.24632	0.21728	0.2719	0.2694	0.29991	0.078328	0.068596	0.28029	0.21482	0.2996	0.30882	0.0094081	0.24178	-2.1958	-2.6063	-2.6604	-2.5979	-2.8438	-2.5438	-2.7958	-2.8667	-2.5375	-2.7104	-2.5417	-2.5833	-2.8771	-2.5208	-2.5062	-2.6667	6.929	219.190	154.178	246.918	165.180	0.738	142.626	213.298	261.002	-53.727	-49.948	-6.003	229.813	161.639	-44.316	74.263	0.00031188	0.00023708	0.00010951	1266.7	5.144e-06	3.0118e-06	1339.7	263.43	3.1052e-06	4.2069e-06	335.67	95.194	75.16	21.768	3.067e-06	30.534	0.00024181	0.00019935	5.7469e-05	1247.5	2.5278e-06	2.2797e-06	1322.1	262.43	2.2554e-06	2.0573e-06	327.92	95.534	74.931	21.945	2.1533e-06	30.895	14.226	35.952	4.411	-82.002	59.164	47.978	-81.956	-75.201	-13.326	67.052	-74.867	-69.051	-68.459	-61.542	35.162	-61.774	-8191	255	
8113.905	1	1	0	0	0.27422	0.24143	0.11201	0.1651	0.13699	0.29547	0.06622	0.15395	0.24996	0.30133	0.05512	0.091315	0.13385	0.25106	0.24532	0.30244	-2.1417	-2.5687	-2.5667	-2.5271	-2.7104	-2.5271	-2.6479	-2.8792	-2.5229	-2.6688	-2.5729	-2.5187	-2.8063	-2.4667	-2.5104	-2.6958	197.024	157.050	96.947	238.770	-87.087	-86.129	233.733	232.579	-49.308	255.609	66.757	175.810	143.477	-81.524	216.638	206.203	0.00030667	0.00033708	0.0001044	1266	2.1111e-06	4.509e-06	1335.8	265.12	4.6026e-06	3.827e-06	334.3	95.818	74.795	21.732	2.2717e-06	30.487	0.00023885	0.0001873	5.3767e-05	1247.7	2.2348e-06	2.2441e-06	1322.2	263.18	2.3119e-06	2.1031e-06	327.83	95.716	74.801	21.886	2.2738e-06	30.78	17.938	5.881	24.689	-81.966	61.175	61.903	-82.076	-74.956	14.959	39.712	-75.369	-68.730	-68.428	-61.698	85.955	-61.980	-8191	255	
8114.026	1	1	0	0	0.13274	0.26794	0.14751	0.24625	0.23914	0.18172	0.11234	0.42233	0.035343	0.30965	0.098792	0.35248	0.23611	0.18911	0.14646	0.28883	-2.0958	-2.7188	-2.3792	-2.6188	-2.7521	-2.5687	-2.8375	-2.7646	-2.675	-2.8417	-2.7562	-2.6271	-2.7708	-2.7646	-2.3917	-2.9333	1.827	107.571	-91.328	152.948	96.430	137.308	231.811	146.175	167.751	174.742	206.964	-6.222	-42.972	67.659	101.474	211.495	0.000296	0.00025823	0.00011172	1265.6	2.9448e-06	3.0267e-06	1342.1	264.48	4.3989e-06	4.9727e-06	334.57	96.222	75.368	21.756	3.5717e-06	30.6	0.00023553	0.00019697	5.3452e-05	1245.5	2.3924e-06	2.2346e-06	1324.4	263.01	2.3143e-06	2.1724e-06	326.4	95.942	75.039	21.987	2.2756e-06	30.87	15.899	-4.936	-1.007	-82.118	96.782	64.036	-82.196	-75.116	75.952	54.029	-75.088	-68.694	-68.501	-61.720	88.605	-62.018	-8191	255	
8114.097	1	1	0	0	0.1323	0.043066	0.10547	0.14737	0.1447	0.054718	0.303	0.11384	0.052555	0.18196	0.092926	0.10866	0.17951	0.32314	0.21634	0.27255	-2.0938	-2.5333	-2.6312	-2.6917	-2.675	-2.7271	-2.6521	-3.0375	-2.6542	-2.5042	-2.7896	-2.55	-2.9479	-2.6354	-2.3771	-2.6083	-22.923	-80.550	220.165	233.708	-2.879	33.506	229.617	206.635	78.706	252.570	-91.430	200.749	237.050	134.397	32.516	209.297	0.00032864	0.00045443	0.00010261	1267	3.6698e-06	4.8161e-06	1346	265.24	2.9111e-06	1.5513e-06	336.3	95.598	75.028	21.958	1.6709e-06	30.531	0.00023583	0.00018502	5.3281e-05	1248.1	2.4483e-06	2.1515e-06	1324.3	263.44	2.3656e-06	2.2553e-06	327.57	95.692	75.012	22.038	2.2152e-06	30.884	19.153	0.693	11.020	-82.075	69.795	54.355	-81.796	-74.957	30.182	84.563	-74.439	-68.597	-68.264	-61.484	13.535	-61.475	-8191	255	
8114.193	1	1	0	0	0.36823	0.038455	0.17981	0.34065	0.054031	0.26816	0.40251	0.20812	0.10028	0.11272	0.061617	0.22538	0.16277	0.090309	0.21548	0.30134	-2.1458	-2.3542	-2.5438	-2.7146	-2.5146	-2.5521	-2.5812	-2.7875	-2.5542	-2.5875	-2.9146	-2.65	-2.8417	-2.6021	-2.5	-2.8833	111.890	142.241	-8.975	-56.333	128.807	-19.313	199.935	221.011	161.621	149.730	-53.583	192.717	176.709	158.682	158.167	182.326	0.00031669	0.00049436	0.00013224	1271.3	4.032e-06	2.4779e-06	1346.9	264.41	1.1806e-06	2.0654e-06	340.88	95.547	74.886	21.743	2.553e-06	30.543	0.00023774	0.00019101	5.1649e-05	1248.2	2.3855e-06	2.0157e-06	1324.3	262.94	2.3201e-06	2.2159e-06	328.52	95.741	74.845	21.914	2.2357e-06	30.838	16.965	-3.878	-5.646	-82.145	48.221	31.902	-82.160	-74.931	-0.624	61.707	-75.465	-69.067	-68.851	-61.547	77.735	-62.459	-8191	255	
8114.290	1	1	0	0	0.27233	0.19661	0.17283	0.23306	0.11502	0.15739	0.17688	0.21551	0.022136	0.14751	0.22857	0.15641	0.23785	0.21423	0.11792	0.046636	-2.2292	-2.4958	-2.6771	-2.6792	-2.7542	-2.6979	-2.6104	-3.0042	-2.5521	-2.5396	-2.725	-2.6542	-2.7542	-2.8021	-2.6104	-2.8646	13.184	100.128	97.957	215.626	230.720	-85.305	237.167	217.482	193.523	51.963	149.364	139.538	253.181	215.453	-92.786	110.390	0.00028733	0.0004176	0.00010699	1265.6	3.3389e-06	2.9919e-06	1345	264.91	4.8354e-06	3.3405e-06	330.84	95.406	75.009	21.857	3.9066e-06	30.534	0.0002404	0.00020017	5.2737e-05	1246.3	2.3862e-06	2.2023e-06	1323.1	263.19	2.3119e-06	2.1595e-06	328.8	95.784	74.959	21.934	2.2101e-06	30.881	18.362	4.939	-9.585	-82.000	73.641	41.355	-81.889	-75.139	0.119	62.957	-75.844	-68.690	-68.441	-61.513	57.156	-62.016	-8191	255	
8114.409	1	1	0	0	0.16061	0.19006	0.13555	0.27248	0.063577	0.16004	0.067089	0.13094	0.15329	0.028219	0.19253	0.28407	0.13969	0.13981	0.14363	0.16073	-2.2875	-2.5396	-2.8417	-2.5208	-2.6792	-2.7708	-2.6375	-2.8458	-2.6625	-2.4146	-2.8875	-2.6604	-2.6021	-2.8937	-2.6562	-2.7	-24.733	159.005	244.652	235.305	71.295	169.247	230.845	-77.820	-26.976	177.848	-58.500	-34.434	94.083	241.518	125.700	-66.047	0.00032988	0.00047073	0.00011157	1264.4	4.4557e-06	4.3116e-06	1336.3	264.99	3.0037e-06	2.5039e-06	335.13	95.319	75.193	21.841	4.5022e-06	30.403	0.00023477	0.0001999	5.3195e-05	1244.1	2.3539e-06	2.1549e-06	1318.3	263.18	2.2778e-06	2.0255e-06	327.83	95.541	74.933	21.989	2.1267e-06	30.825	20.176	-6.193	2.057	-81.999	66.920	67.160	-81.949	-75.143	36.164	59.517	-75.005	-69.016	-68.207	-61.390	60.634	-61.990	-8191	255	
8114.505	1	1	0	0	0.12301	0.23188	0.28544	0.21014	0.19547	0.12359	0.38935	0.18888	0.1551	0.26228	0.12859	0.28908	0.35599	0.080775	0.35631	0.038587	-2.3937	-2.3667	-2.7771	-2.7229	-2.8667	-2.8625	-2.5542	-2.7208	-2.6437	-2.5771	-2.7854	-2.6854	-2.8563	-2.9125	-2.6729	-2.7438	23.052	245.177	-83.823	-19.242	38.170	118.454	151.509	198.393	27.078	170.780	217.432	-38.510	199.731	217.949	160.811	104.960	0.00028412	0.00036747	7.8447e-05	1257.8	2.0645e-06	2.7049e-06	1336.3	264.92	2.0765e-06	3.0976e-06	335.48	95.926	74.867	21.711	2.7487e-06	30.422	0.0002259	0.00018277	4.9245e-05	1239.7	2.2948e-06	1.9622e-06	1317.1	262.46	2.1656e-06	1.901e-06	325.76	95.623	74.727	21.893	2.1364e-06	30.845	25.523	8.112	-24.362	-82.067	90.715	83.526	-81.858	-75.082	-30.405	56.970	-74.756	-68.649	-68.169	-61.604	69.201	-61.965	-8191	255	
8114.601	1	1	0	0	0.23903	0.096695	0.28441	0.48249	0.12826	0.24228	0.16171	0.33753	0.17522	0.3051	0.071317	0.14771	0.057976	0.24665	0.093747	0.1256	-2.4333	-2.4062	-2.8625	-2.6688	-2.5708	-2.8708	-2.5625	-2.9208	-2.7875	-2.5521	-2.625	-2.6063	-2.6083	-2.8146	-2.5687	-2.7812	28.749	256.137	110.592	-83.245	-78.654	222.850	153.665	240.886	92.639	172.219	141.490	197.585	-89.815	-50.634	214.179	260.250	0.00026334	0.00053632	5.9254e-05	1260.4	2.4809e-06	3.3344e-06	1337.2	264.67	3.2336e-07	4.333e-06	337.9	95.34	75.162	21.652	3.5986e-06	30.474	0.00022524	0.00019241	4.8301e-05	1240.5	2.241e-06	1.9759e-06	1317.3	262.51	2.1659e-06	2.113e-06	329.68	95.437	74.749	21.848	2.1634e-06	30.803	20.198	7.277	1.328	-82.138	97.643	52.925	-81.865	-74.644	2.853	54.241	-75.265	-68.962	-68.671	-61.625	41.537	-61.642	-8191	255	
8114.697	1	1	0	0	0.15827	0.20476	0.35311	0.34767	0.051493	0.20202	0.29497	0.23989	0.058335	0.16265	0.23186	0.19748	0.11452	0.10139	0.14091	0.10659	-2.1083	-2.5438	-2.5979	-2.8479	-2.5417	-2.8063	-2.8104	-2.6021	-3.0021	-2.6396	-2.8688	-2.6875	-2.6292	-2.7417	-2.4083	-2.6667	244.678	217.830	110.798	258.194	245.215	37.535	213.461	254.660	143.792	199.491	58.521	127.531	214.456	-1.698	-20.271	-66.701	0.00033282	0.00024134	0.00012025	1260.9	2.8195e-07	2.9835e-06	1331.2	264.93	2.6068e-06	3.5184e-06	336.82	95.086	75.324	21.774	2.5608e-06	30.48	0.00022298	0.00018965	5.2403e-05	1241.3	2.232e-06	1.8829e-06	1314.3	262.49	2.0393e-06	1.999e-06	328.17	95.229	74.82	21.905	2.0886e-06	30.8	5.170	-10.349	-13.361	-82.121	-36.273	45.447	-82.068	-74.973	-8.664	63.520	-75.347	-68.480	-68.569	-61.362	36.193	-61.776	-8191	255	
8114.793	1	1	0	0	0.25637	0.21519	0.24005	0.18576	0.25438	0.11235	0.30959	0.15549	0.15138	0.29651	0.13388	0.27257	0.059313	0.076265	0.126	0.31383	-2.4042	-2.6813	-2.6937	-2.9208	-2.5271	-2.7583	-2.7479	-2.6958	-2.7062	-2.5292	-2.7917	-2.8646	-2.65	-2.8271	-2.5938	-2.6625	213.567	233.120	162.071	244.660	144.323	198.861	160.007	243.489	200.975	81.393	230.940	195.778	-54.878	20.541	120.181	209.385	0.00031895	0.00031016	4.9762e-05	1261.2	4.3287e-06	3.4809e-06	1333.3	264.91	3.1671e-06	3.0763e-06	337.59	95.245	74.709	21.877	4.038e-06	30.283	0.00022069	0.00018475	5.0056e-05	1235.1	2.2178e-06	2.0115e-06	1314.3	262.45	2.1233e-06	2.0146e-06	326.39	95.333	74.779	21.894	2.1163e-06	30.697	18.716	-4.861	-29.991	-81.969	72.153	40.417	-81.688	-75.144	69.199	59.416	-74.771	-68.687	-68.533	-61.540	81.519	-62.012	-8191	255	
8114.889	1	1	0	0	0.19334	0.032006	0.13683	0.23105	0.093821	0.078885	0.32667	0.32771	0.25852	0.15524	0.26783	0.15475	0.10239	0.022465	0.051705	0.51232	-2.3979	-2.4708	-2.6813	-2.8479	-2.5187	-2.7042	-2.6854	-2.575	-2.8021	-2.4521	-2.7146	-2.6833	-2.4604	-2.8708	-2.5708	-2.4938	-71.528	30.696	72.576	-85.395	236.039	4.479	198.190	207.042	95.559	-46.197	163.593	157.417	-43.534	256.444	84.041	43.989	0.00034018	0.00038984	0.00010852	1256.2	1.9897e-06	3.6168e-06	1333	265.66	2.7371e-06	3.4772e-06	334.1	95.003	74.521	21.648	3.9978e-06	30.304	0.0002176	0.00018332	5.059e-05	1237	2.3188e-06	1.8321e-06	1312.6	262.47	2.1067e-06	2.1122e-06	328.49	95.361	74.461	21.825	2.0792e-06	30.712	20.034	-14.355	-12.964	-81.814	30.178	85.315	-81.971	-74.925	68.009	40.615	-75.734	-68.557	-68.140	-61.620	83.192	-61.734	-8191	255	
8114.985	1	1	0	0	0.1089	0.21568	0.057699	0.21852	0.39689	0.12784	0.24203	0.20408	0.13696	0.012663	0.17197	0.1876	0.2344	0.28915	0.088372	0.50329	-2.5146	-2.5812	-2.6021	-2.8458	-2.4458	-2.6562	-2.8521	-2.5938	-2.8583	-2.6542	-2.6167	-2.8604	-2.4	-2.7479	-2.6312	-2.6208	-15.252	231.829	253.816	-86.339	4.360	39.569	228.529	154.326	116.011	195.440	-60.914	-42.493	178.018	-70.551	-23.250	-61.633	0.00034865	0.00034225	7.3641e-05	1259.8	4.9996e-06	2.9304e-06	1328.4	263.63	5.3764e-06	2.9519e-06	337.97	94.991	74.593	21.731	5.0251e-06	30.542	0.00021893	0.00019554	5.0896e-05	1238.7	2.3709e-06	2.0851e-06	1313	262.38	2.2434e-06	2.1925e-06	328.05	95.335	74.748	21.902	2.1346e-06	30.82	18.860	-6.707	6.321	-82.096	47.936	31.836	-82.150	-75.088	19.746	25.852	-75.711	-68.567	-68.483	-61.371	55.258	-61.883	-8191	255	
8115.106	1	1	0	0	0.13284	0.26292	0.17028	0.31357	0.16522	0.042841	0.22896	0.12817	0.18434	0.20861	0.1755	0.18398	0.13787	0.28718	0.12396	0.12602	-2.4146	-2.4313	-2.525	-2.9854	-2.6937	-2.6875	-2.8708	-2.6417	-2.85	-2.6792	-2.5854	-3.0104	-2.5271	-2.7729	-2.7229	-2.6104	116.770	136.658	246.043	217.456	140.332	50.853	209.540	193.875	211.467	-18.778	-77.895	-37.562	101.447	260.581	206.374	113.341	0.00026944	0.00032995	0.00010264	1256.3	4.7311e-06	3.7515e-06	1333.3	264.23	2.8566e-06	3.3168e-06	336.87	94.793	74.357	21.766	3.5143e-06	30.197	0.00022399	0.00020201	5.4177e-05	1237.2	2.3584e-06	2.0536e-06	1316.1	262.57	2.2286e-06	2.0884e-06	327.58	95.336	74.714	21.883	2.2083e-06	30.775	18.438	-9.140	-8.637	-81.933	89.169	53.262	-81.865	-75.035	51.489	71.260	-75.439	-68.697	-68.344	-61.774	74.662	-62.207	-8191	255	
8115.202	1	1	0	0	0.068217	0.11325	0.076603	0.14042	0.12768	0.11333	0.36217	0.098371	0.04003	0.10836	0.029668	0.051438	0.21237	0.14682	0.14614	0.15283	-2.3708	-2.5646	-2.4188	-3.025	-2.5187	-2.6312	-3.0104	-2.5646	-2.7021	-2.8292	-2.3896	-2.8604	-2.5625	-2.6625	-2.6813	-2.5083	228.501	-44.590	121.039	249.029	98.944	56.636	219.503	-47.083	36.689	71.345	197.656	-13.878	188.315	184.231	-53.903	65.728	0.00032225	0.00031917	9.29e-05	1263	3.2813e-06	2.4995e-06	1338.3	265.35	2.7481e-06	2.5451e-06	333.84	95.191	74.739	21.745	4.8303e-06	30.455	0.00023153	0.00018662	5.4311e-05	1241.8	2.4053e-06	2.1143e-06	1317.9	263.33	2.2888e-06	2.01e-06	326.55	95.488	74.767	21.918	2.2148e-06	30.786	10.027	-3.457	-18.601	-81.962	48.702	71.700	-81.848	-75.085	56.379	60.767	-75.494	-68.838	-68.519	-61.290	62.353	-61.884	-8191	255	
8115.297	1	1	0	0	0.10744	0.018089	0.12189	0.20093	0.2184	0.085554	0.38913	0.068289	0.12636	0.1098	0.15709	0.12895	0.17868	0.10782	0.31747	0.092956	-2.2667	-2.5417	-2.2396	-3.0458	-2.5729	-2.6083	-2.9917	-2.7417	-2.5	-2.775	-2.4729	-2.825	-2.6479	-2.5125	-2.7958	-2.5958	49.731	252.195	9.188	200.225	178.513	246.551	155.240	64.298	11.736	162.379	166.462	-52.939	225.630	-90.754	-72.992	25.141	0.00031337	0.00036357	9.9727e-05	1261.3	4.6289e-06	3.6873e-06	1335.9	264.47	3.3816e-06	3.4575e-06	342.17	95.547	75.268	21.777	2.9727e-06	30.482	0.00023877	0.00019152	5.5771e-05	1241.1	2.4816e-06	2.1648e-06	1319.2	263.26	2.2974e-06	2.194e-06	329.96	95.454	74.876	21.937	2.0692e-06	30.832	17.576	-25.424	-34.358	-81.911	74.176	60.942	-81.915	-74.998	58.613	76.098	-75.509	-68.627	-68.791	-61.227	82.017	-62.055	-8191	255	
8115.394	1	1	0	0	0.079209	0.13399	0.32704	0.38426	0.028265	0.01078	0.090665	0.21671	0.091309	0.17266	0.16564	0.25738	0.12775	0.13143	0.11281	0.090966	-2.2313	-2.6771	-2.4604	-2.8208	-2.6708	-2.6354	-2.9479	-2.5	-2.7271	-2.8917	-2.35	-2.9333	-2.6229	-2.6625	-2.6792	-2.7854	48.070	-80.685	245.552	215.422	105.144	262.830	203.145	200.341	-23.334	-36.907	87.072	265.178	43.810	117.732	18.564	2.483	0.00034415	0.00035604	0.00012735	1268	1.0921e-06	2.5784e-06	1342.2	264.78	3.6275e-06	3.1971e-06	331.38	95.565	75.21	21.888	3.9201e-06	30.483	0.00023907	0.0002015	5.6028e-05	1244.9	2.3466e-06	2.1758e-06	1321.6	263.52	2.3841e-06	2.1281e-06	328.64	95.61	74.988	21.966	2.153e-06	30.78	18.260	-26.710	-0.830	-81.897	49.066	41.879	-82.040	-75.000	48.860	67.011	-75.960	-68.859	-68.338	-61.330	60.702	-61.936	-8191	255	
8115.489	1	1	0	0	0.40913	0.15036	0.038828	0.21911	0.091323	0.19285	0.1063	0.028887	0.081022	0.22379	0.071752	0.093065	0.29548	0.1261	0.13426	0.11804	-2.1312	-2.6458	-2.4188	-2.8729	-2.7917	-2.5042	-2.9313	-2.6646	-2.7792	-2.8396	-2.4562	-2.8729	-2.4542	-2.4875	-2.7854	-2.7229	163.209	110.193	41.050	-0.041	241.626	66.198	207.753	96.700	26.157	244.772	-55.484	66.784	-85.542	180.766	120.098	-82.637	0.00027935	0.00045961	7.5048e-05	1267.1	5.6122e-06	4.212e-06	1335.3	265.28	3.4321e-06	3.7651e-06	338.6	95.393	74.917	21.607	3.7844e-06	30.503	0.00023354	0.00018737	5.4874e-05	1244.7	2.4226e-06	2.2653e-06	1320.6	263.7	2.3174e-06	2.0312e-06	329.6	95.64	74.89	21.907	2.2806e-06	30.776	24.432	-11.506	-13.882	-82.157	82.719	76.980	-81.996	-75.047	-7.744	45.426	-75.210	-68.685	-68.450	-61.681	74.715	-61.829	-8191	255	
8115.585	1	1	0	0	0.24096	0.14293	0.12729	0.14637	0.11142	0.014597	0.082161	0.087052	0.10285	0.3459	0.1927	0.14861	0.18156	0.043287	0.148	0.21692	-2.2292	-2.8688	-2.4313	-2.8146	-2.6021	-2.3688	-2.95	-2.7375	-2.4771	-2.7854	-2.4021	-2.6917	-2.7812	-2.6333	-2.7104	-2.5062	153.123	99.740	-82.526	199.180	28.673	-60.082	152.959	28.661	47.898	183.409	-10.725	96.698	177.763	0.671	-27.900	195.745	0.00030182	0.0003981	8.1649e-05	1268.9	1.6227e-06	2.9465e-06	1340.2	264.47	1.298e-06	2.4734e-06	337.58	94.993	74.888	21.735	4.4092e-06	30.478	0.00022909	0.000195	5.4731e-05	1245.9	2.3372e-06	2.1231e-06	1322	263.23	2.2957e-06	1.9566e-06	329.48	95.584	74.823	21.929	2.185e-06	30.867	16.870	-9.313	-22.746	-81.972	115.593	61.345	-81.937	-74.951	33.206	23.361	-75.734	-68.758	-68.469	-61.424	74.975	-61.881	-8191	255	
8115.706	1	1	0	0	0.1895	0.19562	0.18237	0.11701	0.20785	0.12818	0.25478	0.11139	0.17439	0.34425	0.11841	0.16119	0.17917	0.37497	0.14356	0.22563	-2.0187	-2.6667	-2.4458	-2.6625	-2.7833	-2.5438	-2.8104	-2.6396	-2.4396	-2.8146	-2.5917	-2.5833	-2.7438	-2.5312	-2.7833	-2.7542	137.363	149.917	-2.116	0.193	200.232	65.256	231.587	148.588	-61.008	2.093	-91.732	235.945	236.497	246.000	-66.808	256.903	0.0003199	0.0002851	7.316e-05	1269.3	1.8264e-06	2.825e-06	1340.6	266.95	2.3583e-06	2.9329e-06	329.44	95.79	74.798	21.62	3.7198e-06	30.47	0.00023389	0.00019418	5.7984e-05	1247.8	2.3837e-06	2.1139e-06	1321.7	264.08	2.3188e-06	1.8847e-06	327.89	95.9	74.869	21.924	2.1479e-06	30.829	8.202	-6.584	-22.712	-81.952	58.421	57.445	-82.007	-75.171	-2.787	71.872	-74.652	-68.828	-68.171	-61.742	79.111	-61.993	-8191	255	
8115.802	1	1	0	0	0.19582	0.047204	0.16215	0.144	0.18761	0.18758	0.10856	0.2221	0.15862	0.2254	0.082336	0.028251	0.12422	0.23432	0.099603	0.19858	-2.0292	-2.675	-2.3625	-2.6917	-2.7146	-2.6146	-2.7812	-2.8104	-2.4854	-2.6208	-2.65	-2.6729	-2.8312	-2.5312	-2.7729	-2.7604	25.434	23.089	-33.211	202.508	-43.773	210.694	196.537	216.906	-14.419	170.965	167.004	147.088	-7.391	-48.637	25.753	169.365	0.00032653	0.00036102	0.00012403	1266.4	4.6336e-06	3.6577e-06	1344	265.81	3.1783e-06	3.3579e-06	334.57	95.406	75.361	21.838	2.9834e-06	30.485	0.00023241	0.00019196	5.5408e-05	1247.4	2.4441e-06	2.2118e-06	1324.3	263.96	2.254e-06	2.1486e-06	327.77	95.816	75.129	22	2.1415e-06	30.872	6.776	-0.291	-4.933	-81.995	24.645	56.132	-81.951	-75.160	32.724	72.110	-75.531	-68.992	-68.502	-61.518	46.821	-61.785	-8191	255	
8115.898	1	1	0	0	0.066961	0.054256	0.10128	0.02919	0.1447	0.20218	0.13849	0.075784	0.2927	0.21867	0.21378	0.25667	0.18745	0.20741	0.038466	0.11747	-2.0417	-2.6542	-2.6229	-2.6083	-2.5458	-2.3604	-3.075	-2.6667	-2.5146	-2.8729	-2.5458	-2.5125	-2.8042	-2.4104	-2.5583	-2.8167	162.044	50.023	-26.736	-54.044	-24.084	127.080	223.099	146.784	136.429	146.042	-73.513	217.589	-59.919	249.524	215.484	-49.827	0.00031155	0.00041068	0.00010355	1273.9	3.2181e-06	4.1029e-06	1349	266.65	4.0011e-06	3.3101e-06	340.83	95.668	75.305	21.831	3.7303e-06	30.45	0.00023085	0.00018321	5.1621e-05	1249.3	2.3931e-06	2.1322e-06	1324	264.22	2.4984e-06	1.993e-06	329	95.796	75.04	22.042	2.1821e-06	30.849	18.149	-23.650	11.755	-81.926	70.590	46.234	-81.945	-75.343	34.800	71.821	-75.549	-68.885	-68.525	-61.345	43.150	-61.960	-8191	255	
8115.970	1	1	0	0	0.097296	0.34825	0.28835	0.077065	0.27883	0.13601	0.34493	0.15326	0.17919	0.12279	0.2174	0.26762	0.22307	0.15841	0.11208	0.27757	-2.075	-2.7583	-2.6771	-2.4813	-2.8021	-2.5083	-2.7771	-2.7188	-2.3958	-2.625	-2.6188	-2.7687	-2.7646	-2.6396	-2.55	-2.6688	177.371	19.858	202.547	43.842	96.665	177.442	212.170	216.914	121.794	160.209	-85.379	89.844	30.224	93.862	175.699	222.202	0.00029976	0.00040828	0.00010461	1272.6	4.8659e-06	3.5708e-06	1343.8	265.19	4.3073e-06	3.0115e-06	334.5	95.922	74.866	21.863	4.2029e-06	30.43	0.00023776	0.00018774	5.5112e-05	1250.1	2.4632e-06	2.2456e-06	1323.8	264.07	2.4616e-06	2.1561e-06	327.16	95.916	75.069	22.018	2.1893e-06	30.911	28.453	3.876	-4.342	-82.052	49.128	64.179	-81.904	-74.956	41.806	87.578	-74.832	-68.892	-68.531	-61.633	84.308	-61.639	-8191	255	
8116.066	1	1	0	0	0.15592	0.12558	0.18847	0.26661	0.17697	0.15055	0.1002	0.2514	0.16455	0.068656	0.020431	0.25867	0.31328	0.2284	0.076456	0.071539	-1.9979	-2.6188	-2.6375	-2.6646	-2.7208	-2.5479	-2.6188	-2.7188	-2.5604	-2.65	-2.6083	-2.7375	-2.6979	-2.4542	-2.6688	-2.6854	243.909	177.438	179.135	253.651	-10.371	120.096	202.035	147.226	179.216	55.504	41.867	244.485	209.490	-63.876	0.188	124.030	0.00032698	0.00028812	9.5416e-05	1269.1	1.9331e-06	1.7624e-06	1343.3	266.35	3.8389e-06	1.9965e-06	342.97	96.043	75.624	21.978	1.8111e-06	30.699	0.00024674	0.00019602	5.5189e-05	1250.3	2.3e-06	2.2164e-06	1325.7	264.66	2.4581e-06	2.1872e-06	330.58	96.114	75.371	22.047	2.295e-06	30.959	13.686	-19.767	13.882	-81.971	46.304	39.823	-82.082	-75.133	-38.316	62.932	-75.524	-68.779	-68.230	-61.474	34.849	-62.105	-8191	255	
8116.186	1	1	0	0	0.24991	0.093902	0.37233	0.33388	0.20034	0.034123	0.34733	0.27716	0.21067	0.074038	0.21716	0.055402	0.14238	0.24292	0.099691	0.12664	-1.9354	-2.6042	-2.5771	-2.3563	-2.7625	-2.4896	-2.6354	-2.725	-2.3458	-2.6917	-2.5208	-2.3646	-2.7938	-2.6479	-2.5417	-2.8958	-89.247	256.917	235.207	213.045	77.768	167.839	221.896	-41.982	32.016	248.690	-78.822	73.564	85.038	-77.950	83.344	72.748	0.00025658	0.00022049	0.00010849	1273.3	3.3223e-06	2.4073e-06	1345.4	267.76	4.1785e-06	3.5446e-06	339.17	95.896	75.267	21.771	3.4622e-06	30.76	0.00024669	0.00019486	5.7927e-05	1252.8	2.391e-06	2.1834e-06	1328.8	265.33	2.4822e-06	2.1853e-06	331.11	96.13	75.28	22.02	2.2217e-06	31.021	13.803	9.815	13.698	-82.058	85.382	57.110	-82.048	-75.070	35.750	59.926	-74.701	-68.674	-68.224	-61.483	75.374	-62.285	-8191	255	
8116.283	1	1	0	0	0.036549	0.11153	0.10832	0.21857	0.34191	0.091801	0.26991	0.24516	0.085381	0.13475	0.23826	0.040198	0.024247	0.31183	0.27476	0.14404	-2.1354	-2.5229	-2.6917	-2.5854	-2.6	-2.775	-2.6271	-2.95	-2.6458	-2.4188	-2.7125	-2.7292	-2.6958	-2.4875	-2.5312	-2.8021	262.454	190.800	28.751	246.752	37.083	146.948	188.025	197.047	131.561	111.005	-45.771	164.491	188.911	142.435	-22.503	220.546	0.0003433	0.00031029	7.2819e-05	1279.5	3.0913e-06	2.2189e-06	1356.4	268.29	3.1944e-06	3.7619e-06	339.18	96.547	75.537	21.979	3.37e-06	30.656	0.00023814	0.00018526	5.5084e-05	1255.6	2.5004e-06	2.1523e-06	1332.9	265.8	2.4248e-06	2.1274e-06	329.87	96.591	75.483	22.133	2.2943e-06	31.051	7.714	15.438	12.529	-82.225	145.655	34.988	-82.029	-74.989	64.630	52.947	-76.373	-68.727	-68.445	-61.834	66.315	-61.978	-8191	255	
8116.379	1	1	0	0	0.090403	0.078246	0.094934	0.52009	0.033786	0.12474	0.094561	0.05269	0.23858	0.33086	0.12508	0.22433	0.16	0.32738	0.33498	0.049787	-1.9292	-2.475	-2.6146	-2.6875	-2.6604	-2.7708	-2.6375	-2.7438	-2.7021	-2.5229	-2.7708	-2.6583	-2.7146	-2.7229	-2.4417	-2.875	55.600	68.990	213.601	233.058	132.269	-49.928	183.868	229.016	-90.978	-34.522	-8.022	202.528	93.787	262.059	178.216	39.345	0.00034767	0.00045377	0.00011334	1283.7	4.0899e-06	3.5151e-06	1344.3	268.74	2.5987e-06	2.7883e-06	337.21	95.691	75.667	21.984	4.9126e-06	30.667	0.00023565	0.00020313	5.6973e-05	1257.6	2.4459e-06	2.2039e-06	1330.5	266.24	2.4458e-06	2.2091e-06	328.8	96.19	75.461	22.125	2.3997e-06	31.125	12.823	-16.145	-0.395	-82.147	52.707	69.093	-81.777	-75.308	62.156	56.256	-75.476	-68.740	-68.293	-61.632	71.673	-61.863	-8191	255	
8116.498	1	1	0	0	0.11146	0.14457	0.15624	0.35528	0.12943	0.11962	0.30094	0.15527	0.26504	0.13291	0.18587	0.23272	0.057215	0.21833	0.32113	0.071632	-2.2313	-2.5229	-2.5438	-2.6146	-2.7729	-2.8625	-2.5917	-2.9875	-2.5667	-2.5375	-2.8083	-2.6354	-2.4021	-2.8771	-2.5417	-2.5229	59.449	77.998	55.352	203.273	240.859	-46.530	178.851	259.022	110.854	245.126	159.792	234.091	186.650	259.426	241.232	115.112	0.00029923	0.00027964	0.00010427	1282.5	9.7657e-07	2.8944e-06	1355.5	269.14	1.2938e-06	2.984e-06	338.15	96.17	75.643	21.871	4.4162e-06	30.878	0.00025476	0.00020961	6.1905e-05	1261.4	2.6237e-06	2.3704e-06	1338	266.54	2.5821e-06	2.3995e-06	333.16	96.418	75.568	22.111	2.4867e-06	31.077	19.862	-6.888	4.580	-81.991	85.526	45.197	-82.072	-75.036	24.999	65.691	-75.593	-68.796	-68.399	-61.411	56.479	-62.187	-8191	255	
8116.594	1	1	0	0	0.0020567	0.11267	0.051461	0.24236	0.17443	0.15281	0.072259	0.022782	0.06425	0.034551	0.32219	0.18002	0.20345	0.1564	0.078079	0.22389	-2.025	-2.4083	-2.6125	-2.6833	-2.55	-2.7167	-2.6167	-2.9521	-2.7625	-2.2167	-2.8521	-2.6813	-2.5021	-2.8125	-2.5292	-2.7771	180.000	227.132	189.257	190.435	-9.074	176.342	214.504	265.998	43.511	-84.879	175.330	152.643	-33.681	-63.363	67.207	220.513	0.00029709	0.00030187	6.5454e-05	1287.2	3.1685e-06	3.7724e-06	1359.4	269.7	2.76e-06	3.3407e-06	337.26	96.159	75.779	21.955	3.5205e-06	30.697	0.00026265	0.00023242	6.1609e-05	1266.4	2.5313e-06	2.4812e-06	1342.1	267.18	2.6313e-06	2.4631e-06	331.87	96.492	75.821	22.215	2.4547e-06	31.128	19.856	-9.125	-30.400	-82.200	47.325	40.538	-81.970	-75.189	22.556	63.275	-75.605	-68.836	-68.345	-61.521	72.235	-61.888	-8191	255	
8116.667	1	1	0	0	0.096846	0.28447	0.13553	0.10121	0.16692	0.15077	0.28919	0.11599	0.088315	0.21099	0.29373	0.26657	0.038921	0.13008	0.0059313	0.22767	-1.9188	-2.5021	-2.7354	-2.6875	-2.6229	-2.8396	-2.7875	-2.9792	-2.6771	-2.6146	-2.6875	-2.6417	-2.5667	-2.9	-2.425	-2.7375	98.469	58.859	14.552	257.960	-82.752	227.032	-91.227	-69.360	38.800	4.120	72.315	-76.026	83.028	-85.432	17.738	123.990	0.00034115	0.00039867	8.8472e-05	1290.5	4.8482e-06	3.9242e-06	1357.6	270.28	5.6658e-06	5.0963e-06	342.72	96.864	75.373	21.954	5.1896e-06	30.76	0.000249	0.00020991	5.7488e-05	1267.1	2.5351e-06	2.1633e-06	1342.2	267.6	2.5617e-06	2.2508e-06	333.88	96.633	75.729	22.185	2.5395e-06	31.053	25.344	-2.832	-7.211	-82.118	46.968	63.091	-81.956	-75.170	14.389	51.220	-76.415	-68.807	-68.580	-61.529	41.420	-62.023	-8191	255	
8116.786	1	1	0	0	0.20189	0.16369	0.081373	0.1598	0.17592	0.32978	0.24723	0.28217	0.11782	0.1516	0.14145	0.20896	0.14317	0.059739	0.13258	0.16593	-2.1708	-2.5396	-2.8083	-2.55	-2.375	-2.6979	-2.7458	-2.8729	-2.6771	-2.6562	-2.8667	-2.7521	-2.5021	-2.9917	-2.5042	-2.7375	264.428	138.783	233.151	157.539	240.774	29.745	158.056	202.309	-22.018	233.235	157.824	-64.850	236.509	116.666	234.952	230.562	0.00033393	0.00030732	5.5892e-05	1288.3	2.4428e-06	3.5984e-06	1359.5	269.39	3.6487e-06	2.1308e-06	338.18	96.703	76.347	22.065	3.2218e-06	30.922	0.00024775	0.00021945	5.848e-05	1267.1	2.7126e-06	2.2342e-06	1341.2	267.2	2.5122e-06	2.4041e-06	330.97	96.721	75.982	22.195	2.4176e-06	31.144	19.523	-5.981	-56.230	-82.289	57.639	67.547	-82.154	-75.177	70.608	36.058	-75.322	-68.615	-68.579	-61.578	55.178	-61.794	-8191	255	
8116.882	1	1	0	0	0.14781	0.22111	0.24891	0.25504	0.16879	0.18039	0.12706	0.23427	0.11863	0.11975	0.32232	0.043349	0.14068	0.24587	0.18291	0.095776	-2.2542	-2.4	-2.525	-2.9583	-2.4229	-2.8125	-2.7562	-2.6542	-2.8042	-2.4979	-2.65	-2.7188	-2.4375	-2.9188	-2.6542	-2.4896	-28.994	17.670	-39.646	159.984	110.099	214.664	195.897	247.029	118.505	165.586	39.503	22.795	-58.229	-75.356	61.549	-52.345	0.00028496	0.00028085	8.3229e-05	1285.3	4.3245e-06	3.4444e-06	1360.9	270.01	3.3587e-06	4.0061e-06	341.08	96.832	76.167	22.171	4.884e-06	30.928	0.00024581	0.00020671	5.7478e-05	1267.3	2.6532e-06	2.1872e-06	1341.6	267.69	2.5397e-06	2.3242e-06	332.01	96.823	76.096	22.248	2.4791e-06	31.249	29.167	5.344	1.420	-82.135	51.310	51.632	-82.013	-75.008	21.924	74.185	-76.005	-68.961	-68.449	-61.825	53.739	-61.758	-8191	255	
8116.978	1	1	0	0	0.18466	0.22521	0.1494	0.056107	0.044232	0.17371	0.36016	0.19297	0.22811	0.044756	0.18997	0.045117	0.17133	0.19912	0.21694	0.31632	-2.3833	-2.3958	-2.6708	-2.7458	-2.5312	-2.65	-2.8937	-2.575	-2.7875	-2.5083	-2.6667	-2.7542	-2.5875	-2.7542	-2.6458	-2.4604	-7.683	167.404	-11.394	113.812	-83.871	171.278	-90.442	213.674	232.507	234.535	18.148	193.707	-33.933	-84.111	242.790	-19.400	0.00030799	0.0004605	9.0276e-05	1287.9	3.3022e-06	2.553e-06	1366.2	268.85	1.5422e-06	2.9205e-06	344.86	97.135	76.528	21.99	3.7297e-06	30.923	0.00025189	0.00022507	5.9262e-05	1268.8	2.7549e-06	2.3928e-06	1345.7	267.3	2.5421e-06	2.5207e-06	336.09	96.937	76.166	22.221	2.4842e-06	31.231	26.952	-34.658	-6.284	-82.067	63.085	58.849	-82.078	-75.485	47.112	21.595	-75.910	-68.711	-68.306	-61.446	56.068	-61.978	-8191	255	
8117.074	1	1	0	0	0.14727	0.18552	0.20822	0.26999	0.10706	0.31011	0.35717	0.2455	0.081529	0.10664	0.16438	0.11294	0.13242	0.19317	0.1166	0.13148	-2.25	-2.3312	-2.5833	-2.7229	-2.4562	-2.5479	-2.7125	-2.5729	-2.7125	-2.5583	-2.6854	-2.8521	-2.4688	-2.7646	-2.7188	-2.6104	237.371	-46.721	-42.896	257.319	46.994	-38.816	162.661	259.318	130.821	-66.603	170.277	146.053	237.367	231.047	37.722	258.125	0.00034793	0.00028955	7.5078e-05	1289.1	2.6398e-06	4.2188e-06	1365.5	269.7	1.6196e-06	2.4521e-06	337	97.529	76.052	22.051	5.5882e-06	30.738	0.00024812	0.00022905	5.9214e-05	1269.8	2.5924e-06	2.32e-06	1344	267.36	2.4967e-06	2.3624e-06	332.07	97.038	76.11	22.249	2.4914e-06	31.217	16.050	21.470	25.194	-82.017	96.579	55.394	-82.059	-75.468	-37.833	48.550	-74.955	-68.736	-68.551	-61.191	53.690	-62.175	-8191	255	
8117.195	1	1	0	0	0.13675	0.14496	0.23108	0.12015	0.20644	0.43814	0.33063	0.18615	0.10667	0.093904	0.15861	0.10355	0.18611	0.1724	0.23255	0.054754	-2.2271	-2.6146	-2.5687	-2.8896	-2.4833	-2.6542	-2.7521	-2.4896	-2.8333	-2.6437	-2.7167	-2.9146	-2.5917	-2.8625	-2.5604	-2.5542	253.133	117.872	50.506	234.092	-23.504	-2.902	202.939	-66.499	-62.081	43.357	54.052	251.767	-41.429	95.346	99.458	50.906	0.00029418	0.00055753	9.794e-05	1290.7	2.1128e-06	4.2668e-06	1365.1	270.77	2.3866e-06	3.9282e-06	338	96.863	76.373	22.154	3.8296e-06	30.88	0.00024503	0.00021284	6.0044e-05	1269.3	2.5556e-06	2.304e-06	1346.6	268.25	2.4203e-06	2.3087e-06	331.12	97.111	76.227	22.37	2.3389e-06	31.257	27.381	-2.238	10.883	-82.108	93.844	93.547	-82.050	-75.115	35.088	57.437	-74.749	-68.803	-68.576	-61.731	67.333	-61.792	-8191	255	
8117.267	1	1	0	0	0.056242	0.04608	0.34423	0.27459	0.19651	0.2307	0.3866	0.099635	0.19629	0.27726	0.31128	0.084559	0.1452	0.01736	0.21614	0.17368	-2.2771	-2.5854	-2.7479	-2.8396	-2.6437	-2.6125	-2.8417	-2.5208	-2.9229	-2.45	-2.4688	-2.8563	-2.5646	-2.8125	-2.8292	-2.3042	38.862	38.590	-25.062	210.187	-75.105	-54.953	189.496	206.309	219.606	186.308	-43.697	241.883	-76.256	-91.986	190.922	-22.936	0.0002824	0.00034388	5.9239e-05	1287.4	1.5118e-06	3.712e-06	1364.3	271.08	4.0369e-06	4.7704e-06	340.52	97.19	76.091	22.192	4.0673e-06	31.034	0.00024219	0.00020794	5.8489e-05	1268.5	2.5799e-06	2.1921e-06	1345.1	268.89	2.4196e-06	2.3079e-06	335.01	97.343	76.101	22.359	2.3022e-06	31.266	21.053	-6.559	-31.257	-82.092	64.679	56.650	-81.950	-75.251	44.456	73.584	-75.685	-68.803	-68.572	-61.560	41.132	-62.172	-8191	255	
8117.387	1	1	0	0	0.18387	0.10009	0.31056	0.13266	0.22943	0.24725	0.14865	0.28883	0.091297	0.27165	0.21366	0.1859	0.21316	0.11684	0.10222	0.1495	-2.2896	-2.6562	-2.5417	-2.8688	-2.4979	-2.5333	-2.8271	-2.6271	-2.7583	-2.6521	-2.425	-2.8604	-2.5438	-2.6521	-2.8646	-2.7271	78.914	36.163	167.561	207.169	220.033	166.728	-87.232	149.616	260.168	41.428	220.192	205.842	4.595	30.537	-51.966	152.215	0.00030174	0.00037137	6.0561e-05	1286.6	4.2669e-06	4.0802e-06	1361.3	270.98	3.2587e-06	5.023e-06	339.11	97.21	76.282	22.194	3.59e-06	31.065	0.00023341	0.00020872	5.7679e-05	1266.7	2.4577e-06	2.3313e-06	1344	268.74	2.3952e-06	2.2898e-06	333.65	97.199	76.135	22.34	2.1936e-06	31.327	25.661	8.203	3.090	-81.971	56.955	44.218	-82.055	-74.971	-9.365	46.240	-76.340	-68.760	-68.565	-61.665	44.556	-61.885	-8191	255	
8117.482	1	1	0	0	0.16337	0.06826	0.15615	0.15003	0.18439	0.10664	0.44518	0.13767	0.076635	0.14873	0.25817	0.14077	0.16597	0.14142	0.15458	0.17434	-2.2458	-2.7792	-2.3417	-2.8875	-2.5625	-2.6063	-2.9729	-2.4688	-2.7062	-2.8625	-2.5875	-2.9333	-2.7833	-2.4542	-2.7938	-2.4688	133.549	-28.506	95.723	250.094	28.404	-45.549	210.024	123.609	180.084	72.590	222.592	-45.354	241.200	131.385	-20.970	184.782	0.00037594	0.00015946	8.4416e-05	1290.5	3.8251e-06	3.9104e-06	1362.5	269.66	3.4089e-06	2.4921e-06	342.22	97.125	76.538	22.27	3.8862e-06	30.84	0.00024239	0.00021141	5.806e-05	1267.3	2.5185e-06	2.2839e-06	1343.7	268.84	2.3267e-06	2.3303e-06	333.22	97.279	76.242	22.325	2.2619e-06	31.256	22.918	24.914	-25.059	-82.077	58.963	27.194	-81.998	-74.941	65.895	65.557	-74.755	-68.608	-68.365	-61.290	80.264	-62.041	-8191	255	
8117.578	1	1	0	0	0.14452	0.11966	0.067362	0.21408	0.05882	0.05467	0.14723	0.038809	0.16221	0.2102	0.044924	0.092605	0.27843	0.14322	0.068167	0.066406	-2.225	-2.6833	-2.4521	-2.85	-2.4062	-2.6688	-3.0396	-2.625	-2.575	-2.8417	-2.5292	-2.9917	-2.7729	-2.5438	-2.8063	-2.5667	123.960	110.290	251.740	218.175	82.807	-61.962	249.667	180.004	256.314	125.597	187.395	249.333	259.837	-45.326	15.729	129.873	0.00033882	0.00043486	0.00011193	1286.4	4.464e-06	1.8601e-06	1359.7	270.49	3.5633e-06	3.1365e-06	336.62	97.23	76.349	22.164	3.8583e-06	30.819	0.00023583	0.00021454	5.6248e-05	1266.6	2.5306e-06	2.0809e-06	1339.7	268.28	2.3828e-06	2.2023e-06	333.35	97.242	76.413	22.366	2.2184e-06	31.242	18.865	2.723	11.195	-81.829	33.771	90.497	-81.948	-75.142	54.060	62.417	-74.859	-68.797	-68.639	-61.577	61.298	-61.808	-8191	255	
8117.674	1	1	0	0	0.36302	0.012985	0.12707	0.23295	0.095593	0.10984	0.15857	0.098735	0.15901	0.20001	0.22339	0.28657	0.10598	0.17255	0.18873	0.073238	-2.0958	-2.7375	-2.4958	-3.0938	-2.7604	-2.5396	-2.9417	-2.6792	-2.4979	-2.8646	-2.6688	-2.8479	-2.5521	-2.625	-2.8396	-2.6604	123.813	164.707	241.184	235.582	-33.367	-45.047	211.725	203.065	223.143	-64.085	2.787	247.299	39.531	-5.426	-67.908	49.227	0.00037352	0.00047775	0.00010972	1287.4	2.5444e-06	3.7744e-06	1356.9	269.4	2.9944e-06	4.6905e-06	340.46	97.163	75.814	22.092	4.7676e-06	30.976	0.00023839	0.00019479	5.7745e-05	1264.2	2.4945e-06	2.3253e-06	1339.5	267.91	2.4396e-06	2.1171e-06	332.38	97.28	75.98	22.29	2.2303e-06	31.306	13.536	-7.293	1.443	-82.095	29.608	36.093	-82.109	-75.432	77.698	69.433	-76.091	-68.746	-68.532	-61.235	46.611	-61.613	-8191	255	
8117.770	1	1	0	0	0.024953	0.20384	0.23088	0.28808	0.081117	0.067132	0.33959	0.27344	0.075758	0.0096703	0.050883	0.32636	0.28625	0.038746	0.13142	0.12057	-2.1437	-2.7958	-2.4229	-2.8271	-2.6708	-2.5271	-2.8083	-2.6437	-2.5521	-2.9437	-2.4125	-2.7354	-2.7687	-2.5333	-2.5938	-2.6771	-45.722	236.372	113.217	261.910	-49.764	-53.284	183.374	-85.891	173.562	-31.421	17.732	-75.931	-64.274	13.290	241.848	236.833	0.00035332	0.00031323	0.00010902	1286.3	4.1451e-06	3.9042e-06	1357.8	270.96	1.0502e-06	2.6323e-06	344.94	97.084	76.401	22.051	2.5965e-06	31.047	0.00024123	0.00020365	5.7707e-05	1264.5	2.5108e-06	2.3533e-06	1339.4	268.96	2.4612e-06	2.0305e-06	334.85	97.131	76.203	22.305	2.1853e-06	31.34	20.376	12.783	-9.255	-82.089	51.158	61.690	-82.034	-75.266	60.703	54.585	-75.445	-68.938	-68.742	-61.672	71.450	-61.974	-8191	255	
8117.891	1	1	0	0	0.3435	0.23742	0.018241	0.25532	0.17477	0.01804	0.37772	0.046335	0.21805	0.13441	0.098626	0.076676	0.22741	0.18095	0.17968	0.041119	-2.1167	-2.7812	-2.6813	-2.5	-2.5333	-2.5396	-2.8479	-2.5729	-2.5	-2.7562	-2.4958	-2.7083	-2.8208	-2.5646	-2.9104	-2.7646	177.872	67.286	46.835	235.714	39.450	116.859	-82.687	-63.318	41.745	259.080	-70.607	-80.557	110.626	-89.290	241.717	-67.870	0.00033098	0.00041872	0.00013671	1282.6	1.2183e-06	1.8646e-06	1359.1	270.48	3.513e-06	4.3988e-06	337.8	96.803	75.932	22.237	4.5317e-06	30.788	0.00023369	0.00018287	5.6343e-05	1262.8	2.4066e-06	2.2319e-06	1338	268.6	2.2785e-06	2.2205e-06	331.29	97.129	76.089	22.33	2.0649e-06	31.258	24.381	-6.794	-16.937	-82.087	-11.762	60.566	-81.985	-74.986	21.091	51.072	-74.442	-68.539	-68.477	-61.370	58.520	-61.861	-8191	255	
8117.963	1	1	0	0	0.063275	0.10867	0.12175	0.26565	0.083687	0.19695	0.19335	0.058095	0.18792	0.103	0.15737	0.064025	0.29775	0.16065	0.10733	0.37599	-2.0646	-2.7896	-2.625	-2.7854	-2.6396	-2.7875	-2.8479	-2.7188	-2.5	-2.7333	-2.6	-2.6271	-2.9313	-2.5479	-2.8625	-2.9062	88.150	105.359	187.351	191.276	91.218	161.255	215.546	-32.071	81.709	161.318	21.200	181.703	-39.960	144.684	14.385	206.362	0.00039478	0.00035622	6.1678e-05	1281.1	1.4879e-06	4.0886e-06	1357	271.8	5.8001e-06	3.0871e-06	343.45	96.878	76.201	22.209	5.1733e-06	30.831	0.0002394	0.00018369	5.287e-05	1261.2	2.3886e-06	2.1432e-06	1337.4	269.37	2.3466e-06	1.9903e-06	334.58	97.108	76.081	22.303	2.203e-06	31.235	20.822	16.400	18.763	-82.039	-23.549	57.010	-81.932	-75.342	30.592	65.041	-74.393	-69.069	-68.669	-61.469	43.077	-62.158	-8191	255	
8118.059	1	1	0	0	0.20821	0.27215	0.042852	0.119	0.36307	0.088409	0.23915	0.10384	0.088702	0.13132	0.22312	0.18923	0.1053	0.17348	0.19818	0.13087	-1.9771	-2.7458	-2.5125	-2.4688	-2.8375	-2.5667	-2.8208	-2.8583	-2.4437	-2.8125	-2.6417	-2.4104	-2.7021	-2.5563	-2.6167	-2.6833	125.898	91.141	79.222	219.934	103.111	42.397	196.879	-84.076	29.619	151.011	237.503	254.463	200.248	-56.829	89.738	77.956	0.00032739	0.00037513	0.00011036	1282	3.9402e-06	2.4111e-06	1354.8	271.52	2.7015e-06	3.2087e-06	342.09	96.821	76.659	22.103	2.847e-06	30.8	0.00024048	0.00019408	5.3357e-05	1260.9	2.4848e-06	2.1086e-06	1336.1	269.37	2.2499e-06	1.9998e-06	333.2	96.959	76.393	22.252	2.1558e-06	31.27	20.869	7.125	-18.643	-82.053	51.397	75.488	-82.129	-75.362	-21.333	58.036	-75.515	-68.652	-68.260	-61.653	43.774	-62.043	-8191	255	
8118.155	1	1	0	0	0.05891	0.12899	0.020882	0.35348	0.25764	0.25019	0.15902	0.14929	0.079887	0.26119	0.12123	0.032538	0.13461	0.10606	0.33111	0.19071	-1.9625	-2.8937	-2.5062	-2.5687	-2.7917	-2.5229	-2.8958	-2.8708	-2.6271	-2.7958	-2.6292	-2.7042	-2.8396	-2.6583	-2.5271	-2.7917	87.793	-25.103	174.471	235.254	-33.255	125.461	243.438	151.165	143.858	223.563	35.949	130.667	-23.557	262.285	102.900	225.979	0.00032299	0.00043942	6.2221e-05	1284.6	3.0043e-06	2.848e-06	1351.2	271.41	3.2189e-06	3.2922e-06	338.9	96.896	75.858	22.132	6.3919e-06	30.876	0.00024289	0.0001919	5.495e-05	1259.6	2.29e-06	2.0407e-06	1335.3	269.11	2.358e-06	2.0221e-06	332.13	97.125	76.138	22.282	2.3022e-06	31.161	24.082	-10.667	-27.235	-81.866	40.016	58.545	-82.151	-75.190	46.027	44.809	-75.798	-68.751	-68.501	-61.443	49.822	-61.799	-8191	255	
8118.275	1	1	0	0	0.18665	0.18153	0.2263	0.2804	0.20372	0.099647	0.16412	0.24241	0.29579	0.27339	0.17244	0.017774	0.19307	0.20258	0.1538	0.10762	-2.1312	-2.5604	-2.75	-2.575	-2.8146	-2.475	-2.775	-2.8875	-2.5833	-2.9125	-2.8292	-2.7	-2.875	-2.8208	-2.6292	-2.9125	244.921	196.881	-25.773	256.505	132.337	23.325	195.883	-63.031	151.265	54.017	181.245	240.088	-89.681	26.424	-11.717	206.727	0.00034759	0.00046132	9.4602e-05	1281.7	3.9105e-06	3.7316e-06	1354	271.25	3.1613e-06	3.3255e-06	342.33	96.838	76.214	22.096	6.0363e-06	30.986	0.00023749	0.00019595	5.3586e-05	1261.8	2.325e-06	2.2175e-06	1335.2	269.04	2.3033e-06	2.0774e-06	333.09	97.041	76.045	22.271	2.2004e-06	31.288	17.665	-31.070	-15.140	-81.886	49.507	89.723	-81.984	-75.096	39.847	57.465	-74.862	-69.010	-68.462	-61.557	75.521	-62.239	-8191	255	
8118.370	1	1	0	0	0.1371	0.22255	0.26402	0.30334	0.030385	0.16734	0.28086	0.14374	0.061224	0.21163	0.14294	0.11222	0.16562	0.12471	0.04923	0.12545	-2.1813	-2.9125	-2.825	-2.6688	-2.7458	-2.5438	-2.7854	-2.8583	-2.5646	-2.7438	-2.8208	-2.4271	-2.8604	-2.6875	-2.5521	-2.8646	-10.656	173.385	106.021	216.332	-13.013	63.892	187.458	-80.457	229.467	-4.686	-88.171	92.587	-62.984	185.491	4.383	236.425	0.00030951	0.00045933	2.9474e-05	1275.6	2.1948e-06	3.5507e-06	1355.4	271.06	2.0904e-06	4.6803e-06	344.23	97.38	75.654	22.159	3.0204e-06	30.869	0.00023329	0.00019122	5.8508e-05	1257.4	2.2487e-06	2.164e-06	1335.7	269.51	2.3583e-06	2.1346e-06	333.74	97.307	75.986	22.335	2.1066e-06	31.195	18.851	-5.105	3.536	-81.956	61.341	54.830	-81.905	-75.083	6.314	66.990	-74.046	-68.864	-68.433	-61.430	70.968	-61.970	-8191	255	
8118.468	1	1	0	0	0.27168	0.20596	0.17306	0.24207	0.18912	0.13775	0.17672	0.10099	0.2813	0.32544	0.030224	0.13876	0.16233	0.36726	0.075469	0.023247	-2.0938	-2.4917	-2.7708	-2.7229	-2.5583	-2.5958	-2.7729	-2.8667	-2.6042	-2.775	-2.7292	-2.4896	-2.7958	-2.6063	-2.3229	-2.7542	35.571	16.877	261.710	-76.578	177.824	243.141	259.948	-82.078	221.063	158.906	193.800	-53.119	-58.571	234.434	65.108	14.025	0.00032315	0.00034104	7.2259e-05	1281.6	2.9872e-06	2.1171e-06	1357.2	272.15	1.2981e-06	3.188e-06	344.14	97.027	76.113	22.185	4.704e-06	30.795	0.00024523	0.00020937	5.6324e-05	1260.6	2.2365e-06	2.1932e-06	1337.3	269.89	2.3322e-06	2.0195e-06	335.53	97.128	76.066	22.294	2.2353e-06	31.258	19.303	-35.638	7.080	-81.745	55.230	62.647	-82.207	-75.145	45.869	45.913	-74.637	-68.762	-68.358	-61.599	56.471	-61.966	-8191	255	
8118.562	1	1	0	0	0.19965	0.24846	0.074144	0.32884	0.22508	0.1653	0.046849	0.049357	0.18864	0.090572	0.063872	0.086873	0.1648	0.049789	0.19268	0.17532	-2.3604	-2.6229	-2.6958	-2.5417	-2.7292	-2.6833	-2.7438	-2.7521	-2.7458	-2.5208	-2.9792	-2.6208	-2.5792	-2.8604	-2.4083	-2.8354	-76.400	-15.900	-68.671	191.849	174.831	197.695	-39.581	118.383	166.840	73.817	35.778	-1.571	-82.322	125.847	242.399	-25.643	0.00033704	0.00045145	9.9279e-05	1275.4	2.4281e-06	2.015e-06	1359	271.77	5.3853e-06	3.2239e-06	341.6	97.478	76.755	22.222	4.8792e-06	31.077	0.00023623	0.00020256	5.1592e-05	1258.3	2.2344e-06	2.065e-06	1337.6	269.71	2.3384e-06	2.1255e-06	334.58	97.229	76.423	22.33	2.1033e-06	31.368	13.121	-8.878	13.253	-82.152	60.707	63.169	-82.005	-75.114	42.684	49.922	-75.025	-68.611	-68.602	-61.831	43.890	-61.976	-8191	255	
8118.658	1	1	0	0	0.16393	0.03004	0.23481	0.19979	0.16312	0.064962	0.21919	0.23367	0.084818	0.13601	0.24132	0.094844	0.1297	0.12922	0.25461	0.28842	-2.1333	-2.5312	-2.7687	-2.6979	-2.7104	-2.8333	-2.6875	-2.8208	-2.7021	-2.5896	-2.7792	-2.6125	-2.5854	-2.7062	-2.5625	-2.6333	22.413	118.576	254.308	248.382	-20.798	97.743	184.314	212.879	228.855	17.913	-73.136	245.829	155.293	-73.818	92.312	208.283	0.00033145	0.00039262	7.3786e-05	1279.4	2.6896e-06	2.9446e-06	1361.4	272.09	2.7413e-06	5.8727e-06	347.46	97.045	76.068	22.081	1.3735e-06	30.963	0.00022585	0.00018713	5.2527e-05	1259.1	2.2695e-06	2.095e-06	1336.6	269.91	2.3329e-06	2.0623e-06	336.86	97.148	76.24	22.291	2.1936e-06	31.261	22.802	0.334	-19.798	-82.134	52.165	77.576	-81.985	-75.088	-15.218	72.288	-75.255	-68.652	-68.249	-61.332	69.854	-62.000	-8191	255	
8118.754	1	1	0	0	0.16872	0.088718	0.29981	0.25502	0.2409	0.13332	0.15919	0.048293	0.09182	0.14742	0.31128	0.035007	0.26511	0.29549	0.15059	0.15049	-2.2479	-2.3479	-2.7542	-2.8104	-2.6333	-2.9833	-2.7396	-2.7917	-2.8333	-2.475	-2.7	-2.6083	-2.4729	-2.9354	-2.4062	-2.7146	135.979	192.017	174.842	205.098	-46.533	170.014	-43.265	123.312	3.427	-8.914	132.241	108.588	246.168	236.765	106.515	-92.130	0.00037628	0.00021934	0.00014527	1282	3.6354e-06	1.9604e-06	1356.3	271.91	3.3847e-06	3.0732e-06	346.04	97.434	76.856	22.302	1.6386e-06	30.769	0.00023271	0.00019026	5.5198e-05	1258.9	2.3132e-06	2.0191e-06	1336.5	270.38	2.2843e-06	2.0638e-06	334.42	97.385	76.472	22.44	2.1663e-06	31.212	22.530	-18.149	4.550	-81.996	57.996	78.576	-81.967	-75.124	-13.924	44.738	-75.604	-68.668	-68.276	-61.470	92.335	-62.094	-8191	255	
8118.875	1	1	0	0	0.10087	0.18934	0.20784	0.38055	0.32997	0.1452	0.33514	0.19531	0.34199	0.21348	0.24413	0.29029	0.2015	0.098504	0.012435	0.1934	-2.2438	-2.6146	-2.6958	-2.6188	-2.5542	-2.8146	-2.7375	-2.8396	-2.6333	-2.4646	-2.7896	-2.6125	-2.675	-2.8917	-2.6688	-2.7333	108.431	88.622	65.348	214.834	246.336	-86.670	249.658	154.857	-35.595	-33.142	-83.186	231.144	97.061	-71.826	176.352	-39.902	0.00031075	0.00034498	0.00010421	1278.1	3.6197e-06	2.2736e-06	1349.2	273.05	2.5305e-06	2.8842e-06	342.94	96.639	76.233	22.152	5.2606e-06	31.065	0.00022527	0.00019775	5.0571e-05	1258.8	2.3639e-06	1.9641e-06	1333.2	270.67	2.2434e-06	2.1084e-06	336.84	97.235	76.193	22.296	2.1666e-06	31.282	26.266	0.730	41.656	-82.187	97.694	27.667	-81.797	-75.134	-20.392	49.015	-75.427	-69.045	-68.041	-61.573	66.716	-62.017	-8191	255	
8118.971	1	1	0	0	0.15336	0.10687	0.14804	0.3932	0.082651	0.25864	0.10973	0.12757	0.11209	0.23391	0.095753	0.20337	0.077038	0.017408	0.021656	0.10598	-2.4354	-2.4208	-2.5687	-2.8604	-2.4188	-2.9375	-2.8167	-2.8396	-2.7542	-2.7438	-2.7104	-2.7521	-2.5	-2.925	-2.5833	-2.7	219.643	-59.483	-49.769	214.600	40.331	225.009	191.769	24.896	77.449	259.846	80.462	244.648	79.599	164.331	172.568	152.843	0.00030619	0.00033758	9.1176e-05	1276	3.5738e-06	4.3765e-06	1349.2	272.24	2.5727e-06	2.9809e-06	339.93	97.024	76.03	22.093	4.1717e-06	30.906	0.00022492	0.00018427	5.0447e-05	1254.8	2.382e-06	1.9755e-06	1330.9	270.24	2.3194e-06	2.0929e-06	333.95	97.349	76.017	22.236	2.121e-06	31.239	17.982	1.984	-0.047	-82.098	33.025	64.478	-82.021	-74.881	-31.474	73.555	-75.558	-68.919	-68.277	-61.451	44.251	-62.238	-8191	255	
8119.067	1	1	0	0	0.2128	0.26668	0.31621	0.49326	0.060526	0.19577	0.32583	0.23806	0.24745	0.070007	0.13038	0.19123	0.18	0.3106	0.19655	0.2978	-2.5375	-2.4729	-2.7521	-2.7875	-2.5187	-2.7542	-2.6417	-2.7271	-2.8292	-2.5062	-2.6729	-2.925	-2.7083	-2.8667	-2.7521	-2.4562	50.543	57.997	-61.621	220.915	30.890	28.919	201.913	236.733	3.013	95.510	161.319	-64.832	-51.329	126.673	-66.847	233.671	0.00032631	0.00029605	0.00010835	1278.5	3.5167e-06	4.0495e-06	1352.4	272.21	2.7449e-06	3.5523e-06	336.27	97.215	76.155	22.11	5.966e-06	30.646	0.00023475	0.00019374	5.0199e-05	1257.6	2.4629e-06	1.9895e-06	1332.4	270.23	2.3814e-06	2.1319e-06	334.99	97.23	76.139	22.289	2.3245e-06	31.193	23.352	-7.321	2.168	-82.170	70.617	49.749	-82.003	-75.303	12.692	68.426	-75.143	-68.637	-68.504	-61.489	58.156	-61.904	-8191	255	
8119.164	1	1	0	0	0.086703	0.081788	0.088829	0.10045	0.087335	0.12414	0.11337	0.12446	0.064918	0.073781	0.16721	0.17733	0.055475	0.24173	0.14806	0.33737	-2.2771	-2.5187	-2.7104	-2.8104	-2.6813	-2.8583	-2.8042	-2.7833	-2.8208	-2.5854	-2.7042	-2.8063	-2.575	-2.7792	-2.6125	-2.5354	50.505	130.956	181.633	-8.641	-6.145	-61.475	96.822	239.523	8.226	153.502	228.965	-5.227	156.455	-62.994	100.738	134.758	0.0003252	0.0003785	5.4521e-05	1279.9	2.555e-06	3.4863e-06	1357.2	271.63	2.8974e-06	2.7564e-06	342.4	96.591	75.896	22.189	4.3976e-06	30.81	0.00022205	0.00019976	5.2613e-05	1258.5	2.498e-06	2.1428e-06	1335	270.06	2.3246e-06	2.1652e-06	335.64	96.9	75.9	22.297	2.2544e-06	31.202	21.799	8.952	20.565	-82.353	104.199	48.020	-82.165	-75.268	-21.854	51.842	-75.968	-68.731	-68.055	-61.535	54.360	-61.940	-8191	255	
8119.260	1	1	0	0	0.095215	0.15572	0.092651	0.27262	0.19064	0.17516	0.39342	0.1106	0.20191	0.26684	0.057173	0.14349	0.12084	0.21974	0.19416	0.3205	-2.3771	-2.6646	-2.5354	-2.8396	-2.4646	-2.825	-2.8417	-2.7125	-2.6458	-2.5917	-2.5062	-2.7854	-2.5583	-2.6146	-2.6833	-2.5125	259.401	69.673	233.056	198.889	17.665	95.551	222.387	218.247	125.283	230.173	123.146	-52.041	-9.101	-13.475	20.657	213.824	0.00034167	0.00037808	0.00016169	1283.7	2.7998e-06	2.6808e-06	1358	272.67	3.2157e-06	3.1553e-06	342.65	96.878	76.326	22.114	3.479e-06	30.822	0.00023605	0.00020606	5.8623e-05	1260.6	2.408e-06	2.3219e-06	1336.8	270.21	2.3422e-06	2.2969e-06	335.24	97.028	76.142	22.259	2.4241e-06	31.221	24.311	6.962	-11.183	-82.119	47.611	48.626	-82.035	-75.008	-14.093	81.163	-74.819	-68.707	-68.528	-61.809	66.331	-61.963	-8191	255	
8119.356	1	1	0	0	0.027502	0.43843	0.034673	0.1835	0.26586	0.33893	0.16028	0.024045	0.15454	0.25488	0.13695	0.16719	0.11571	0.12378	0.13412	0.13584	-2.2792	-2.5917	-2.4854	-2.9896	-2.5792	-2.8104	-2.8271	-2.6771	-2.7083	-2.5938	-2.5312	-2.8333	-2.625	-2.7458	-2.8167	-2.6542	236.631	-73.954	-34.909	235.749	-45.064	259.358	250.554	236.514	235.617	245.821	196.536	-14.150	-69.581	222.103	4.850	188.272	0.00032156	0.00038171	0.00013743	1279.5	2.1141e-06	4.7813e-06	1356.6	271.38	2.701e-06	5.5795e-06	347.38	96.998	76.137	22.061	1.0393e-06	30.778	0.00024674	0.00021209	5.8814e-05	1259.4	2.4428e-06	2.1151e-06	1337.1	269.57	2.3408e-06	2.2356e-06	334.61	97.034	76.218	22.255	2.2947e-06	31.214	21.290	-30.495	-5.780	-82.012	45.316	51.643	-81.970	-75.127	-4.611	47.543	-75.350	-68.643	-68.592	-61.528	58.260	-62.245	-8191	255	
8119.475	1	1	0	0	0.15967	0.042647	0.070796	0.27124	0.15772	0.18194	0.28821	0.10861	0.049084	0.15007	0.1885	0.14814	0.25787	0.30666	0.21127	0.4351	-2.2562	-2.5771	-2.4604	-2.9229	-2.4271	-2.5479	-2.8312	-2.6771	-2.6771	-2.5833	-2.4667	-2.7417	-2.4938	-2.6583	-2.7125	-2.6104	52.021	253.579	-51.175	243.647	264.844	-91.531	202.193	256.561	53.821	41.070	259.542	-31.978	227.358	-50.066	140.143	214.172	0.00030123	0.00045435	9.673e-05	1280.4	4.6969e-06	2.1788e-06	1350.2	271.57	2.313e-06	1.902e-06	344.4	97.423	76.413	22.086	3.712e-06	30.742	0.00023475	0.00020106	5.6438e-05	1261.1	2.5789e-06	2.1576e-06	1335.8	269.65	2.3528e-06	2.325e-06	335.37	97.109	76.203	22.175	2.2558e-06	31.235	27.055	7.784	-2.338	-81.938	80.680	65.222	-81.926	-75.311	59.028	84.723	-75.531	-68.839	-68.404	-61.330	62.738	-61.679	-8191	255	
8119.571	1	1	0	0	0.089918	0.062934	0.11225	0.33458	0.076123	0.20884	0.24028	0.28665	0.3064	0.27488	0.24245	0.064377	0.15616	0.10726	0.17659	0.052544	-2.175	-2.7708	-2.4313	-2.9542	-2.5917	-2.4229	-3.0479	-2.7021	-2.6333	-2.6833	-2.5625	-2.875	-2.7313	-2.5729	-2.8271	-2.5771	130.604	210.391	193.545	230.517	137.334	164.252	191.845	216.256	122.502	226.049	-21.274	5.777	144.591	-69.340	-34.016	155.147	0.00027002	0.00037858	0.00010089	1278.7	8.0253e-07	3.357e-06	1354	270.87	1.6347e-06	5.2006e-06	346.33	97.235	76.499	22.097	1.9654e-06	31.071	0.0002389	0.00020273	5.9424e-05	1260.9	2.5591e-06	2.3226e-06	1335.8	269.4	2.389e-06	2.3405e-06	335.55	97.208	76.118	22.273	2.2184e-06	31.329	16.865	-21.545	-9.739	-81.977	-14.700	60.279	-82.070	-75.103	29.565	56.906	-74.704	-68.927	-68.471	-62.001	51.083	-61.888	-8191	255	
8119.667	1	1	0	0	0.21816	0.13232	0.039546	0.33488	0.3511	0.017656	0.33734	0.15836	0.15887	0.081039	0.15685	0.15567	0.14011	0.40518	0.22081	0.20835	-2.2896	-2.7	-2.3375	-2.8792	-2.6229	-2.5312	-2.9229	-2.6604	-2.6354	-2.8417	-2.5396	-2.9104	-2.5792	-2.4938	-2.7667	-2.4437	-42.116	159.317	77.868	222.315	176.316	157.729	192.626	190.891	257.873	203.746	8.193	123.536	0.783	-71.135	183.064	-84.882	0.00024811	0.00037619	9.2023e-05	1286.9	4.3246e-06	3.1371e-06	1352.5	270.82	2.1114e-06	2.7164e-06	349.86	96.86	76.375	22.299	2.8062e-06	30.661	0.00023781	0.0001919	5.6734e-05	1263.5	2.573e-06	2.2987e-06	1338.9	269.75	2.4282e-06	2.2534e-06	336.37	97.156	76.077	22.353	2.3457e-06	31.184	4.658	4.316	-12.296	-81.976	95.608	86.709	-82.122	-75.277	19.188	57.051	-75.062	-68.926	-68.466	-61.971	55.177	-62.085	-8191	255	
8119.763	1	1	0	0	0.27762	0.086873	0.1712	0.13184	0.063761	0.13908	0.17364	0.23691	0.17555	0.18775	0.067361	0.070312	0.48558	0.096271	0.38077	0.12891	-2.2354	-2.5583	-2.2271	-3.05	-2.7	-2.5271	-2.9521	-2.5167	-2.6896	-2.7458	-2.5229	-2.8458	-2.8104	-2.5208	-2.7438	-2.4958	81.755	4.833	112.456	-12.428	201.983	14.943	172.968	201.102	-18.443	167.166	84.071	9.432	239.062	8.189	-76.411	-79.382	0.0003263	0.00052133	7.4052e-05	1282.4	4.854e-06	2.8555e-06	1359.5	270.78	3.8394e-06	3.5979e-06	341.2	97.124	75.84	21.986	3.9906e-06	30.95	0.00024365	0.00021052	5.9138e-05	1263.4	2.5521e-06	2.3788e-06	1339.3	269.27	2.5253e-06	2.2053e-06	333.52	97.042	75.917	22.219	2.2346e-06	31.283	18.154	-15.545	17.150	-82.245	47.717	26.875	-81.969	-75.300	53.158	38.473	-75.701	-68.769	-68.579	-61.252	66.467	-61.980	-8191	255	
8119.835	1	1	0	0	0.01617	0.036222	0.28601	0.20077	0.094149	0.11804	0.22702	0.19953	0.22613	0.064216	0.060659	0.13365	0.12086	0.31213	0.22124	0.074185	-2.1479	-2.5333	-2.4562	-2.8208	-2.9062	-2.55	-2.8896	-2.7229	-2.55	-2.9854	-2.6229	-2.7062	-2.7917	-2.7125	-2.7667	-2.6729	123.919	48.744	56.708	-71.104	16.919	191.813	168.706	-86.918	188.794	198.573	-35.453	212.068	249.025	246.011	57.497	131.782	0.00027726	0.00035346	7.7913e-05	1291.7	2.8332e-06	3.3912e-06	1361.7	271.81	1.7141e-06	2.5946e-06	343.28	96.774	75.968	22.264	1.824e-06	30.789	0.00024604	0.00020273	6.2868e-05	1263.8	2.5862e-06	2.2259e-06	1340.8	269.44	2.4464e-06	2.3367e-06	336.66	97.261	76.241	22.348	2.2105e-06	31.209	22.325	13.229	9.550	-82.090	61.620	50.430	-82.057	-75.202	-41.012	66.536	-76.314	-68.947	-68.437	-61.476	40.246	-61.888	-8191	255	
8119.956	1	1	0	0	0.07893	0.048991	0.020165	0.11023	0.14686	0.12039	0.18997	0.072497	0.096219	0.072286	0.33006	0.094199	0.13988	0.13641	0.36201	0.16597	-2.1354	-2.6063	-2.4396	-2.9771	-2.7271	-2.4625	-2.9229	-2.625	-2.6979	-2.7833	-2.5083	-2.6063	-2.8583	-2.6	-2.6333	-2.6104	160.150	-27.133	-58.879	246.524	159.927	163.126	193.412	237.764	-73.545	215.472	-36.857	114.712	169.608	-12.361	201.317	264.366	0.000307	0.00033123	0.0001117	1284	3.5729e-06	3.2398e-06	1357.9	271.36	3.9038e-06	4.388e-06	340.76	97.002	76.094	22.111	3.6287e-06	30.899	0.00024282	0.00019949	5.9386e-05	1264	2.541e-06	2.3469e-06	1341.1	269.96	2.4647e-06	2.1838e-06	335.13	97.134	76.179	22.285	2.1922e-06	31.263	11.622	-10.940	-1.308	-82.211	39.454	56.025	-81.903	-75.208	75.608	59.885	-75.439	-68.812	-68.856	-61.542	86.824	-61.977	-8191	255	
8120.052	1	1	0	0	0.14577	0.075085	0.34469	0.13385	0.31211	0.18779	0.5155	0.037425	0.036076	0.25642	0.022898	0.13426	0.079464	0.081405	0.13765	0.14872	-2.0979	-2.7604	-2.4646	-2.8708	-3.0229	-2.475	-3.0479	-2.7667	-2.6542	-2.7687	-2.6312	-2.7667	-2.8646	-2.5	-2.7438	-2.7375	145.060	9.105	263.895	181.436	88.457	84.282	-74.061	174.747	197.598	175.148	-84.030	211.020	167.689	235.539	188.419	247.810	0.00027567	0.0003004	6.5239e-05	1281.8	5.0527e-06	3.7982e-06	1358.2	272.01	5.7363e-06	3.5534e-06	348.28	97.264	76.864	22.093	3.4229e-06	30.912	0.00024978	0.00019823	5.9653e-05	1263.5	2.5886e-06	2.4296e-06	1340.4	269.94	2.3132e-06	2.2288e-06	335.48	97.326	76.407	22.284	2.267e-06	31.3	14.548	-6.060	-11.983	-82.089	42.294	76.060	-81.968	-75.108	35.179	36.874	-76.100	-68.744	-68.656	-61.374	39.896	-62.061	-8191	255	
8120.148	1	1	0	0	0.15935	0.045759	0.12583	0.1721	0.18659	0.028813	0.20879	0.13263	0.18011	0.12168	0.19446	0.071344	0.14732	0.20127	0.11676	0.022652	-1.9813	-2.8854	-2.6583	-2.6979	-2.7917	-2.5875	-2.9417	-2.6917	-2.5271	-2.95	-2.6333	-2.5792	-2.9104	-2.6271	-2.7667	-2.7542	-19.345	166.161	126.416	262.785	42.601	1.769	166.449	223.512	173.791	18.463	264.832	198.689	172.911	-86.594	53.251	-44.001	0.00027774	0.00030058	0.00012559	1286.9	6.4922e-06	4.486e-06	1360.2	271.26	3.8915e-06	5.393e-06	338.68	97.079	76.374	22.176	3.8374e-06	30.888	0.00024314	0.00019217	6.096e-05	1265.1	2.4546e-06	2.3503e-06	1341.5	269.64	2.5087e-06	2.2246e-06	334.58	97.334	76.428	22.336	2.2292e-06	31.234	16.235	-10.955	0.475	-82.195	43.230	62.732	-81.962	-75.154	48.523	73.539	-75.552	-68.824	-68.572	-61.561	84.476	-61.927	-8191	255	
8120.268	1	1	0	0	0.1199	0.20031	0.23896	0.28363	0.17819	0.10427	0.33841	0.066816	0.12973	0.29368	0.064145	0.064293	0.2669	0.15284	0.10234	0.46352	-2.0625	-2.7167	-2.5542	-2.7604	-2.9896	-2.5125	-2.8146	-2.8917	-2.5896	-2.6083	-2.5833	-2.5729	-2.7854	-2.55	-2.6833	-2.75	186.738	129.056	162.219	215.758	-62.625	183.035	163.679	-64.315	109.857	35.431	73.525	43.701	-72.124	-83.876	63.209	217.528	0.00028888	0.00042225	8.9383e-05	1283.5	5.4019e-07	4.0645e-06	1363.2	271.01	3.2807e-06	4.1217e-06	339.17	97.328	76.585	22.106	3.3347e-06	30.885	0.00023414	0.00021189	6.1084e-05	1266.5	2.4626e-06	2.2832e-06	1342.6	269.58	2.5001e-06	2.2599e-06	334.78	97.43	76.403	22.267	2.295e-06	31.318	20.000	-5.132	-15.931	-82.037	61.485	60.305	-82.085	-74.946	-36.168	58.231	-74.420	-68.769	-68.505	-61.554	72.576	-62.392	-8191	255	
8120.363	1	1	0	0	0.20782	0.075255	0.27555	0.22327	0.16254	0.2362	0.18399	0.29974	0.34644	0.096106	0.32522	0.142	0.14948	0.29973	0.031748	0.18945	-1.9042	-2.6708	-2.5542	-2.6667	-2.8521	-2.7208	-2.7917	-2.8167	-2.4625	-2.7021	-2.575	-2.375	-2.8021	-2.4729	-2.6312	-2.95	-91.317	96.211	228.912	-67.628	-45.433	52.994	226.900	243.835	211.693	-92.227	182.431	232.923	116.700	-76.833	97.881	172.808	0.00033815	0.000319	0.00010978	1283.2	4.2285e-06	2.4838e-06	1358.1	272.15	5.7499e-06	3.3154e-06	347.98	97.408	76.475	22.198	3.5626e-06	30.933	0.00025013	0.00020906	6.0359e-05	1266	2.5695e-06	2.5465e-06	1340	269.66	2.4454e-06	2.2088e-06	336.86	97.161	76.056	22.353	2.2637e-06	31.303	25.116	-9.967	-0.145	-82.075	44.361	84.978	-82.071	-75.021	54.282	70.492	-75.378	-68.863	-68.754	-61.610	64.704	-61.590	-8191	255	
8120.436	1	1	0	0	0.22569	0.10301	0.14363	0.098753	0.16683	0.14649	0.098057	0.35602	0.17008	0.22492	0.064399	0.44352	0.12353	0.083944	0.23585	0.050929	-1.975	-2.5021	-2.5417	-2.6292	-2.75	-2.8083	-2.8958	-2.8417	-2.7083	-2.8125	-2.8729	-2.7479	-2.6583	-2.6125	-2.5792	-2.7958	216.039	134.809	115.944	156.854	205.702	172.249	-84.954	233.265	152.959	165.983	-72.223	147.636	239.091	27.197	-45.847	-25.388	0.00031653	0.00037434	8.371e-05	1288.4	2.6582e-06	4.8277e-06	1360.1	271.85	3.8156e-06	3.7701e-06	337.36	97.04	76.52	22.096	5.1557e-06	30.991	0.00026039	0.00021577	5.8575e-05	1265.9	2.4129e-06	2.2945e-06	1340.3	270.3	2.5129e-06	2.2852e-06	335.34	97.234	76.354	22.333	2.4108e-06	31.301	24.234	1.806	-1.213	-82.034	42.724	100.347	-82.041	-75.261	-6.351	68.097	-75.503	-68.763	-68.725	-61.773	52.136	-61.897	-8191	255	
8120.555	1	1	0	0	0.21711	0.17636	0.14757	0.21636	0.13156	0.23226	0.14127	0.13068	0.24138	0.14492	0.057615	0.43126	0.23083	0.08421	0.32447	0.02534	-2.1021	-2.7167	-2.7208	-2.6625	-2.7854	-2.6813	-2.8229	-2.8	-2.6146	-2.5042	-2.7167	-2.5938	-2.7104	-2.5438	-2.6229	-2.9208	248.982	49.378	231.096	241.111	250.345	-0.970	229.813	213.599	186.767	17.638	176.342	225.812	221.023	2.145	147.704	146.847	0.00028525	0.00030776	0.00013715	1289.5	2.1136e-06	1.306e-06	1358.7	272.98	3.1084e-06	4.5783e-06	337.98	96.818	75.945	22.282	4.6285e-06	31.009	0.00025033	0.00020514	5.9663e-05	1265.8	2.5063e-06	2.2782e-06	1342.3	270.24	2.5294e-06	2.2561e-06	334.11	97.19	76.236	22.362	2.3008e-06	31.292	16.214	-5.652	14.314	-82.103	50.387	54.742	-81.848	-75.281	79.072	69.704	-75.353	-68.581	-68.627	-61.542	74.222	-62.119	-8191	255	
8120.651	1	1	0	0	0.16369	0.12172	0.28993	0.1816	0.1172	0.36222	0.16193	0.056429	0.2648	0.10406	0.15699	0.20297	0.24555	0.24678	0.18757	0.081792	-2.125	-2.5729	-2.7938	-2.6833	-2.7208	-2.6437	-2.7854	-2.9062	-2.5354	-2.5521	-2.8125	-2.7104	-2.8688	-2.5958	-2.5125	-2.8521	14.745	144.810	81.261	266.171	243.758	-67.333	232.404	220.988	-72.468	223.282	170.855	6.142	-61.610	206.706	3.511	194.127	0.00033992	0.00023001	0.00012123	1287.1	1.779e-06	3.368e-06	1359.3	272.03	3.6004e-06	3.9046e-06	343.5	96.862	76.122	22.187	3.1513e-06	31.124	0.00025473	0.00019517	5.3796e-05	1265.7	2.4376e-06	2.3537e-06	1341.7	270.11	2.5294e-06	2.2803e-06	335.94	97.265	76.226	22.305	2.3781e-06	31.422	23.335	18.009	18.590	-82.197	29.494	55.509	-81.990	-74.975	9.224	76.493	-75.437	-68.877	-68.376	-61.614	53.729	-62.486	-8191	255	
8120.747	1	1	0	0	0.045322	0.20502	0.13026	0.31202	0.099332	0.12937	0.26697	0.24215	0.30045	0.17646	0.21293	0.11604	0.057998	0.10074	0.096598	0.045402	-2.1771	-2.5125	-2.6292	-2.6271	-2.5958	-2.6521	-2.5979	-2.7542	-2.4792	-2.5021	-2.7562	-2.5667	-2.6708	-2.8479	-2.6104	-2.775	12.367	-22.471	224.360	254.103	166.105	-20.265	-56.075	228.239	186.884	260.229	-79.667	192.264	13.640	166.395	143.426	205.201	0.00035651	0.00031816	9.183e-05	1286.5	4.0945e-06	2.9766e-06	1357	272.96	4.3157e-06	2.8469e-06	341.9	96.905	76.33	22.119	2.9499e-06	31.116	0.00024262	0.00020995	5.6896e-05	1266	2.5935e-06	2.2426e-06	1340.9	270.32	2.455e-06	2.2648e-06	334.08	97.279	76.32	22.313	2.331e-06	31.284	18.288	-17.243	-10.769	-82.020	50.774	46.363	-82.026	-75.309	-6.380	85.240	-75.270	-68.905	-68.694	-61.435	25.698	-61.912	-8191	255	
8120.868	1	1	0	0	0.048702	0.11056	0.31525	0.23239	0.10821	0.015956	0.35762	0.18003	0.090308	0.18168	0.2069	0.21636	0.20285	0.14231	0.25996	0.30349	-2.1271	-2.5938	-2.65	-2.8563	-2.4854	-2.8063	-2.5312	-2.9062	-2.5438	-2.4771	-2.6833	-2.5521	-2.5917	-2.8396	-2.6354	-2.9083	4.287	186.567	32.736	213.710	53.925	225.726	199.633	175.484	-64.426	9.469	49.674	266.760	159.817	203.237	-29.845	245.379	0.0002699	0.00035781	8.2865e-05	1288.4	3.0238e-06	3.5952e-06	1365.1	270.92	5.1469e-07	3.0292e-06	343.09	97.18	76.162	22.195	2.3687e-06	30.843	0.00024757	0.00020729	5.8785e-05	1266.6	2.5879e-06	2.2304e-06	1343	269.8	2.4513e-06	2.3458e-06	335.03	97.449	76.327	22.404	2.4094e-06	31.256	10.773	-8.052	-5.402	-82.253	85.960	77.876	-82.145	-74.876	263.630	70.121	-75.066	-68.892	-68.761	-61.734	59.078	-62.037	-8191	255	
8120.964	1	1	0	0	0.21925	0.0523	0.12611	0.30509	0.04617	0.013526	0.089248	0.17136	0.024835	0.084844	0.19229	0.1605	0.11465	0.303	0.30275	0.032525	-2.2792	-2.4771	-2.6479	-2.4292	-2.5979	-2.6208	-2.6354	-2.7854	-2.7188	-2.5292	-2.6958	-2.8812	-2.4208	-2.9	-2.5229	-2.7542	213.088	-13.734	-30.429	242.603	172.218	70.815	230.490	194.923	54.033	-37.413	228.869	35.534	-21.292	-23.570	215.881	-66.481	0.00032785	0.00033011	9.6242e-05	1290.1	1.8405e-06	2.6356e-06	1362.9	272.43	2.9723e-06	2.8365e-06	347.4	97.634	76.296	22.209	5.038e-06	31.148	0.0002448	0.0002108	5.6705e-05	1268.6	2.4837e-06	2.2217e-06	1344.4	270.6	2.4316e-06	2.3178e-06	335.59	97.594	76.434	22.334	2.3986e-06	31.337	18.686	21.517	0.004	-82.111	26.915	50.832	-82.163	-75.053	90.846	71.520	-74.835	-68.774	-68.692	-61.632	58.794	-62.170	-8191	255	
#DATA ENDS
