BOXY.EXE: ISS Imagent and Oximeter Data Acquisition Program Version 0.80
Ascii Record File

#ACQ INFORMATION
2  Detector Channels 
16  External MUX Channels 
1  Auxiliary Channels 
5000  Waveform (CCF) Frequency (Hz)
1  Waveforms Skipped 
30  Waveforms Averaged 
1  Cycles Averaged 
16  Acquisitions per Waveform 
10.0806  Updata Rate (Hz) 

#FILE INFORMATION
TRUE -- External MUX Channel results are PARSED.
FALSE -- AC DC and Phase are NOT grouped.
TRUE -- Companion Program Settings File CREATED.
FALSE -- AC data not excluded
FALSE -- DC data not excluded
FALSE -- Phase data not excluded
FALSE -- Auxillary Chn. data not excluded
Tab delimiters

#CALIBRATION STATE
TRUE -- Waveform Calibration Values APPLIED.


#AUX CALIBRATION VALUES
Val Type	aux-1	

Term	1.0000e+00	
Factor	0.0000e+00	


#WF CALIBRATION VALUES
A = Detector Channel
Val Type	A-AC1	A-AC2	A-AC3	A-AC4	A-AC5	A-AC6	A-AC7	A-AC8	A-AC9	A-AC10	A-AC11	A-AC12	A-AC13	A-AC14	A-AC15	A-AC16	A-DC1	A-DC2	A-DC3	A-DC4	A-DC5	A-DC6	A-DC7	A-DC8	A-DC9	A-DC10	A-DC11	A-DC12	A-DC13	A-DC14	A-DC15	A-DC16	A-Ph1	A-Ph2	A-Ph3	A-Ph4	A-Ph5	A-Ph6	A-Ph7	A-Ph8	A-Ph9	A-Ph10	A-Ph11	A-Ph12	A-Ph13	A-Ph14	A-Ph15	A-Ph16	

Term	0.00000e+00	0.00000e+00	0.00000e+00	0.00000e+00	0.00000e+00	0.00000e+00	0.00000e+00	0.00000e+00	0.00000e+00	0.00000e+00	0.00000e+00	0.00000e+00	0.00000e+00	0.00000e+00	0.00000e+00	0.00000e+00	0.00000e+00	0.00000e+00	0.00000e+00	0.00000e+00	0.00000e+00	0.00000e+00	0.00000e+00	0.00000e+00	0.00000e+00	0.00000e+00	0.00000e+00	0.00000e+00	0.00000e+00	0.00000e+00	0.00000e+00	0.00000e+00	0.00000e+00	0.00000e+00	0.00000e+00	0.00000e+00	0.00000e+00	0.00000e+00	0.00000e+00	0.00000e+00	0.00000e+00	0.00000e+00	0.00000e+00	0.00000e+00	0.00000e+00	0.00000e+00	0.00000e+00	0.00000e+00	
Factor	1.00000e+00	1.00000e+00	1.00000e+00	1.00000e+00	1.00000e+00	1.00000e+00	1.00000e+00	1.00000e+00	1.00000e+00	1.00000e+00	1.00000e+00	1.00000e+00	1.00000e+00	1.00000e+00	1.00000e+00	1.00000e+00	1.00000e+00	1.00000e+00	1.00000e+00	1.00000e+00	1.00000e+00	1.00000e+00	1.00000e+00	1.00000e+00	1.00000e+00	1.00000e+00	1.00000e+00	1.00000e+00	1.00000e+00	1.00000e+00	1.00000e+00	1.00000e+00	X	X	X	X	X	X	X	X	X	X	X	X	X	X	X	X	

B = Detector Channel
Val Type	B-AC1	B-AC2	B-AC3	B-AC4	B-AC5	B-AC6	B-AC7	B-AC8	B-AC9	B-AC10	B-AC11	B-AC12	B-AC13	B-AC14	B-AC15	B-AC16	B-DC1	B-DC2	B-DC3	B-DC4	B-DC5	B-DC6	B-DC7	B-DC8	B-DC9	B-DC10	B-DC11	B-DC12	B-DC13	B-DC14	B-DC15	B-DC16	B-Ph1	B-Ph2	B-Ph3	B-Ph4	B-Ph5	B-Ph6	B-Ph7	B-Ph8	B-Ph9	B-Ph10	B-Ph11	B-Ph12	B-Ph13	B-Ph14	B-Ph15	B-Ph16	

Term	0.00000e+00	0.00000e+00	0.00000e+00	0.00000e+00	0.00000e+00	0.00000e+00	0.00000e+00	0.00000e+00	0.00000e+00	0.00000e+00	0.00000e+00	0.00000e+00	0.00000e+00	0.00000e+00	0.00000e+00	0.00000e+00	0.00000e+00	0.00000e+00	0.00000e+00	0.00000e+00	0.00000e+00	0.00000e+00	0.00000e+00	0.00000e+00	0.00000e+00	0.00000e+00	0.00000e+00	0.00000e+00	0.00000e+00	0.00000e+00	0.00000e+00	0.00000e+00	-2.12444e+02	-1.41062e+02	-1.70892e+02	-1.83732e+02	-1.12109e+02	-1.05118e+02	-1.55012e+02	-1.62015e+02	-9.09407e+01	-9.85453e+01	-1.70533e+02	-1.70350e+02	-1.84933e+02	-1.77024e+02	-9.26801e+01	-1.49740e+02	
Factor	3.86930e-05	3.87587e-05	1.11420e-05	1.84525e-01	4.76322e-07	4.00243e-07	1.77227e-01	5.92448e-02	4.03067e-07	4.33660e-07	9.47737e-02	3.35258e-02	3.39684e-02	1.07113e-02	3.85728e-07	1.51601e-02	1.41076e-07	1.41361e-07	3.93248e-08	7.31989e-02	1.55024e-09	1.55026e-09	6.73368e-02	2.26348e-02	1.55356e-09	1.55040e-09	3.24457e-02	1.12648e-02	1.11019e-02	3.63347e-03	1.55221e-09	4.80811e-03	X	X	X	X	X	X	X	X	X	X	X	X	X	X	X	X	



#DISTANCE SETTINGS
A = Detector Channel
A-1	A-2	A-3	A-4	A-5	A-6	A-7	A-8	A-9	A-10	A-11	A-12	A-13	A-14	A-15	A-16	

2.5000e+00	3.0000e+00	2.5000e+00	3.0000e+00	2.0000e+00	3.0000e+00	1.5000e+00	3.0000e+00	3.0000e+00	3.0000e+00	3.0000e+00	3.0000e+00	3.0000e+00	3.0000e+00	1.5000e+00	3.0000e+00	

B = Detector Channel
B-1	B-2	B-3	B-4	B-5	B-6	B-7	B-8	B-9	B-10	B-11	B-12	B-13	B-14	B-15	B-16	

1.0000e+01	1.0000e+01	1.0000e+01	1.4400e+00	1.0000e+01	1.0000e+01	1.5100e+00	1.9400e+00	1.0000e+01	1.0000e+01	1.9900e+00	2.4900e+00	2.4100e+00	2.9000e+00	1.0000e+01	2.9800e+00	




#DATA BEGINS
time	group	step	mark	flag	A-AC1	A-AC2	A-AC3	A-AC4	A-AC5	A-AC6	A-AC7	A-AC8	A-AC9	A-AC10	A-AC11	A-AC12	A-AC13	A-AC14	A-AC15	A-AC16	A-DC1	A-DC2	A-DC3	A-DC4	A-DC5	A-DC6	A-DC7	A-DC8	A-DC9	A-DC10	A-DC11	A-DC12	A-DC13	A-DC14	A-DC15	A-DC16	A-Ph1	A-Ph2	A-Ph3	A-Ph4	A-Ph5	A-Ph6	A-Ph7	A-Ph8	A-Ph9	A-Ph10	A-Ph11	A-Ph12	A-Ph13	A-Ph14	A-Ph15	A-Ph16	B-AC1	B-AC2	B-AC3	B-AC4	B-AC5	B-AC6	B-AC7	B-AC8	B-AC9	B-AC10	B-AC11	B-AC12	B-AC13	B-AC14	B-AC15	B-AC16	B-DC1	B-DC2	B-DC3	B-DC4	B-DC5	B-DC6	B-DC7	B-DC8	B-DC9	B-DC10	B-DC11	B-DC12	B-DC13	B-DC14	B-DC15	B-DC16	B-Ph1	B-Ph2	B-Ph3	B-Ph4	B-Ph5	B-Ph6	B-Ph7	B-Ph8	B-Ph9	B-Ph10	B-Ph11	B-Ph12	B-Ph13	B-Ph14	B-Ph15	B-Ph16	aux-1	digaux	

2016.909	1	1	0	256	0.08871	0.055918	0.037987	0.1859	0.22402	0.053735	0.31712	0.13236	0.2899	0.10562	0.12504	0.029932	0.27944	0.084011	0.16851	0.13803	-3.5896	-4.1542	-4.2667	-4.0646	-4.4708	-4.1896	-4.3187	-4.6229	-3.9583	-4.1958	-4.2333	-4.0104	-4.4833	-4.1396	-3.9542	-4.5167	250.340	65.441	-62.145	126.332	224.189	-30.704	218.633	253.821	269.805	40.893	184.518	230.781	268.474	88.584	-13.439	283.868	0.00021828	0.00017717	8.6334e-05	1346.1	2.3208e-06	6.7189e-07	1417.2	283.38	1.7442e-06	2.1779e-06	351.46	96.006	76.726	21.847	5.6671e-06	30.669	0.00014696	0.00016902	4.6171e-05	1121.1	1.6261e-06	1.894e-06	1199.9	238.36	1.7019e-06	1.9851e-06	282	79.293	62.513	19.54	1.9032e-06	25.325	88.158	138.298	244.153	-60.680	160.562	52.888	-60.853	-54.091	191.694	162.368	-54.174	-47.569	-47.347	-40.659	44.242	-40.983	-8191	255	
2017.029	1	1	0	0	0.29117	0.067239	0.23058	0.38117	0.14486	0.23757	0.28521	0.1047	0.32471	0.23637	0.20186	0.096405	0.084612	0.12967	0.1668	0.165	-3.5521	-4.2604	-4.2521	-4.1521	-4.2021	-4.1979	-4.1937	-4.5333	-4.0646	-4.2562	-4.4688	-3.8688	-4.3458	-4.2479	-3.8312	-4.5083	154.455	104.004	174.777	254.886	85.779	192.305	234.875	272.246	11.720	276.473	-56.198	183.184	259.299	-49.281	118.013	105.813	0.00050244	0.00018961	5.1904e-05	1343.9	3.9946e-06	1.7629e-06	1401.9	281.8	3.5521e-06	2.9803e-06	344.46	94.999	74.918	21.512	1.2108e-06	30.154	0.0001666	0.00018803	4.7817e-05	1121.2	1.8255e-06	2.03e-06	1191.2	236.65	1.8281e-06	1.9645e-06	276.54	77.474	61.852	18.883	1.7083e-06	24.388	36.903	-41.329	-26.968	-60.907	135.668	56.881	-60.731	-54.045	173.189	14.502	-54.279	-47.684	-47.002	-40.824	178.294	-41.417	-8191	255	
2017.101	1	1	0	0	0.24852	0.27529	0.075855	0.3041	0.20981	0.11943	0.30361	0.27289	0.073962	0.084146	0.1651	0.05787	0.21916	0.085186	0.051852	0.023382	-3.5771	-3.9354	-4.2438	-4.0479	-4.1917	-4.1687	-4.0625	-4.3625	-4.0854	-3.7396	-4.2792	-4.0979	-4.25	-4.3938	-3.7542	-4.275	244.551	138.975	-3.223	218.162	-56.498	171.611	229.271	218.736	245.083	139.512	281.346	273.993	266.768	77.410	91.648	49.248	0.00052601	0.00016651	4.241e-05	1322.4	4.3984e-06	4.1631e-07	1394.8	275.68	1.9816e-06	1.8925e-06	341.33	93.895	74.223	21.36	1.6912e-06	29.902	0.00015881	0.00016197	4.0567e-05	1094.1	1.6577e-06	1.6402e-06	1164.3	228.34	1.5955e-06	1.5521e-06	265.81	74.708	59.525	17.899	1.4261e-06	23.705	98.355	50.564	-50.231	-60.564	176.562	-9.427	-60.688	-53.851	178.108	23.205	-54.128	-47.523	-47.471	-40.546	42.085	-41.045	-8191	255	
2017.197	1	1	0	0	0.18195	0.15245	0.019757	0.32165	0.072973	0.13697	0.084954	0.055063	0.12005	0.139	0.098342	0.30147	0.092328	0.16695	0.072928	0.15471	-3.7521	-3.9771	-4.3021	-3.7646	-4.2208	-4.3313	-3.9729	-4.3875	-4.1146	-3.9167	-4.4396	-3.825	-4.0875	-4.2958	-3.8104	-4.4833	191.931	161.216	160.822	248.779	272.830	143.608	210.169	-47.253	-30.704	163.861	264.831	232.143	7.571	277.123	183.521	131.460	0.00026606	0.00010744	6.1088e-05	1325.9	2.0258e-06	1.5157e-06	1400.4	277.93	2.5574e-06	1.6035e-06	342.19	94.183	75.456	21.382	1.4837e-06	29.82	0.00014912	0.00014247	3.7029e-05	1094.4	1.7149e-06	1.6116e-06	1168.1	232.18	1.8175e-06	1.687e-06	271.3	77.368	62.231	18.525	1.6585e-06	24.975	40.813	263.688	3.581	-60.725	69.845	-44.027	-60.793	-53.913	-1.615	30.582	-53.669	-47.440	-47.470	-40.740	28.228	-41.221	-8191	255	
2017.318	1	1	0	0	0.04151	0.096282	0.22512	0.33747	0.11498	0.1831	0.30919	0.43339	0.06268	0.16137	0.077737	0.049498	0.042371	0.048416	0.098259	0.033864	-3.7729	-3.8292	-4.5229	-4.1104	-4.0833	-4.3354	-3.9625	-4.3833	-4.075	-3.9062	-4.4313	-4.1042	-4.1833	-4.3229	-3.7979	-4.3812	3.343	-48.138	26.953	226.374	253.512	47.815	206.910	-39.215	-47.406	248.869	159.033	10.789	244.046	110.205	-29.217	16.855	0.00016209	0.00016004	1.2381e-05	1331	2.3891e-06	9.8857e-07	1398.6	279.77	1.7659e-06	1.4709e-06	343.62	94.777	76.168	21.877	1.1505e-06	30.461	0.00017807	0.00016443	4.2701e-05	1117.2	1.9917e-06	1.8233e-06	1179.8	238.56	2.004e-06	1.8639e-06	275.57	80.281	63.943	19.077	1.8322e-06	26.299	-12.015	-38.002	159.759	-60.732	11.230	287.559	-60.721	-53.950	-19.830	72.271	-53.950	-47.443	-47.560	-41.267	237.132	-41.065	-8191	255	
2017.412	1	1	0	0	0.16612	0.28244	0.19298	0.17643	0.2393	0.13796	0.15142	0.20574	0.27044	0.096575	0.16179	0.18387	0.070169	0.2604	0.21817	0.2671	-3.6479	-3.7521	-4.4083	-4.2771	-3.9521	-4.4437	-4.0437	-4.2833	-4.3	-3.85	-4.3125	-4.1521	-4.1562	-4.4458	-3.7979	-4.275	227.283	-44.460	-17.159	258.607	203.084	36.170	224.579	265.596	-1.363	277.888	160.570	270.129	129.800	231.679	41.092	203.892	0.00030917	0.00024931	1.846e-05	1338.2	2.8647e-06	4.1046e-06	1406.7	284.03	4.2083e-06	3.1544e-06	347.25	96.268	77.163	21.942	2.4685e-07	30.782	0.00019307	0.00017973	4.7842e-05	1141	2.1379e-06	1.9909e-06	1198.2	246.55	2.129e-06	1.9684e-06	282.47	82.924	65.009	19.371	2.022e-06	27.043	244.336	8.380	-52.843	-60.731	27.119	27.443	-60.762	-53.928	25.800	4.318	-53.941	-47.829	-47.731	-41.373	-38.293	-41.255	-8191	255	
2017.508	1	1	0	0	0.032839	0.25911	0.21459	0.25018	0.07278	0.11104	0.38333	0.11278	0.19073	0.099933	0.31628	0.13593	0.24497	0.17648	0.17135	0.13466	-3.825	-3.9146	-4.2312	-4.325	-3.7771	-4.3042	-4.0521	-4.2562	-4.4354	-3.9354	-4.3438	-4.2271	-3.9021	-4.2875	-3.9604	-4.2229	19.973	75.673	263.026	277.333	-58.374	-35.349	254.714	219.966	194.928	36.733	-71.428	275.885	269.552	-51.399	147.969	1.821	0.00019069	0.00038718	9.8033e-05	1348.2	1.0927e-06	3.5465e-06	1415.7	286.61	4.0055e-06	3.1504e-06	351.67	97.535	78.021	22.086	3.4032e-06	30.554	0.00019467	0.0001835	5.3703e-05	1158	2.2048e-06	2.066e-06	1219.1	251.82	2.2562e-06	2.1002e-06	292.19	84.945	66.265	19.764	2.3275e-06	27.346	135.117	17.035	107.972	-60.542	-39.117	30.913	-60.514	-53.811	3.600	31.571	-54.357	-47.878	-47.750	-41.236	188.569	-41.537	-8191	255	
2017.604	1	1	0	0	0.056371	0.033922	0.10708	0.061438	0.20515	0.13077	0.11495	0.17589	0.071273	0.14198	0.11972	0.064392	0.16193	0.20877	0.14417	0.19231	-4.0167	-3.85	-4.2417	-4.3854	-3.925	-4.6125	-4.2292	-4.1625	-4.3542	-3.8646	-4.4521	-4.2729	-4.0375	-4.3417	-4.1687	-4.0729	95.648	12.537	-37.679	91.562	237.358	149.779	172.405	196.766	153.187	150.659	28.386	-66.646	246.506	272.575	-11.486	269.122	0.00024789	9.8065e-05	4.361e-05	1341.8	4.4793e-06	3.3913e-06	1411.5	283.89	1.738e-06	1.8002e-06	346.14	96.464	76.605	21.819	4.0528e-07	30.271	0.00019976	0.00018656	5.8818e-05	1147.8	2.1339e-06	2.0026e-06	1213.8	246.45	2.0523e-06	1.9478e-06	287.69	81.718	63.548	19.029	2.1408e-06	25.952	75.817	0.523	42.331	-60.585	270.129	139.953	-60.667	-53.808	-31.426	216.540	-54.100	-47.774	-47.335	-40.654	139.275	-40.898	-8191	255	
2017.700	1	1	0	0	0.095198	0.06884	0.14346	0.2105	0.22232	0.19718	0.16919	0.11516	0.18033	0.16619	0.19134	0.16255	0.23274	0.2665	0.021402	0.077193	-4.0312	-3.7958	-4.0542	-4.2729	-3.7833	-4.2896	-4.1667	-4.0208	-4.4104	-3.9604	-4.2021	-4.3083	-3.725	-4.3438	-4.0083	-3.9542	128.495	231.556	26.262	227.621	92.468	27.363	233.177	25.107	120.386	284.515	153.748	262.575	-0.562	263.389	283.927	-51.461	2.9305e-05	0.00039928	9.2419e-05	1330.1	1.6415e-06	3.0814e-06	1394.3	278.94	2.0556e-06	2.1349e-06	344.99	95.642	76.021	21.617	1.918e-06	29.982	0.00016953	0.00016664	5.3252e-05	1119.6	1.7989e-06	1.8204e-06	1193.1	237.48	1.7641e-06	1.8409e-06	281.85	79.513	61.775	19.002	2.0641e-06	25.504	54.600	181.124	175.511	-60.588	193.672	143.113	-60.734	-53.832	262.699	44.193	-53.875	-47.833	-47.392	-40.966	-2.043	-41.082	-8191	255	
2017.797	1	1	0	0	0.055286	0.14706	0.073481	0.14519	0.10959	0.25	0.095081	0.10927	0.076262	0.20643	0.21466	0.043786	0.041772	0.16239	0.18408	0.052834	-4.0792	-3.7479	-4.0938	-4.4583	-3.7396	-4.3	-4.4542	-3.9604	-4.4271	-4.0021	-4.0938	-4.4417	-4.0375	-4.1625	-4.0646	-3.7896	38.812	161.820	17.228	266.967	48.469	9.310	231.784	226.488	123.328	147.280	193.593	220.524	150.689	122.639	188.129	81.303	6.9007e-05	0.00027379	9.0113e-05	1327.7	3.9923e-06	2.1825e-06	1395.4	278.99	3.5368e-06	2.9256e-06	345.56	95.061	75.841	21.672	1.9019e-06	30.149	0.00016134	0.00017511	5.1581e-05	1114.9	1.7228e-06	1.9142e-06	1191.3	236.26	1.6991e-06	1.9316e-06	279.93	78.716	61.13	19.14	1.9275e-06	25.145	204.132	48.799	3.183	-60.747	-12.128	155.727	-60.738	-53.599	73.264	80.572	-53.732	-47.882	-47.457	-40.832	13.410	-41.139	-8191	255	
2017.893	1	1	0	0	0.12081	0.42807	0.14244	0.27719	0.061844	0.022964	0.070334	0.11695	0.17401	0.092027	0.38165	0.085937	0.11444	0.094686	0.097527	0.14999	-4.0021	-4.0333	-4.0771	-4.6417	-3.8542	-4.2854	-4.4167	-4.0833	-4.2854	-4.1062	-4.1521	-4.3958	-4.0917	-4.2479	-4.225	-3.8979	69.997	73.853	205.066	223.589	158.623	13.967	232.908	215.125	248.066	26.950	-41.490	280.959	267.063	-20.602	147.942	54.601	0.00033013	0.00036348	4.9031e-05	1329.3	3.0488e-06	1.7802e-06	1394.8	279.88	1.9464e-06	2.5941e-06	343.36	94.872	75.281	21.629	1.1635e-06	30.014	0.00015461	0.00017819	4.7901e-05	1109.8	1.6866e-06	1.9362e-06	1183.4	234.55	1.6775e-06	1.9102e-06	275.42	77.379	60.765	18.979	1.7545e-06	24.657	128.090	99.823	-65.960	-60.664	175.294	192.457	-60.543	-53.878	58.569	84.287	-53.910	-47.553	-46.887	-40.703	43.697	-41.107	-8191	255	
2017.989	1	1	0	0	0.095927	0.13478	0.2506	0.31135	0.28818	0.18208	0.21853	0.16173	0.25461	0.16032	0.23604	0.03312	0.16326	0.2503	0.15326	0.16897	-4.1146	-4.0687	-3.7875	-4.6188	-3.9521	-4	-4.5437	-4.025	-4.2979	-4.1458	-3.9417	-4.4479	-4.0542	-4.2229	-4.3729	-4.0417	211.021	26.799	188.102	262.387	-1.682	130.152	175.796	-37.459	135.205	0.314	-66.397	138.621	205.380	187.186	172.475	256.667	0.0004439	0.00041158	4.9234e-05	1322.9	4.1583e-06	3.716e-06	1397.4	279.23	2.5798e-06	2.7498e-06	341.75	95.041	75.62	21.535	1.5377e-06	30.052	0.00015631	0.00017318	4.4696e-05	1101.3	1.7498e-06	1.915e-06	1179.5	233	1.7732e-06	1.8733e-06	273.62	76.99	61.627	18.829	1.7014e-06	24.457	76.101	4.364	46.300	-60.764	185.837	280.259	-60.666	-53.925	175.811	57.661	-53.974	-47.661	-46.936	-41.114	15.817	-41.335	-8191	255	
2018.108	1	1	0	0	0.19267	0.19316	0.18906	0.15434	0.24212	0.091371	0.14924	0.13922	0.063447	0.026385	0.25735	0.26452	0.22312	0.076011	0.28573	0.049795	-4.0458	-4.1271	-3.8854	-4.4875	-4.15	-4.2458	-4.6417	-4.0333	-4.3438	-4.1562	-3.9813	-4.4083	-4.1687	-4.05	-4.4229	-3.9917	254.770	96.936	5.036	209.466	262.413	195.087	230.764	-56.691	185.063	264.771	230.591	197.334	117.327	271.549	114.700	119.138	0.00035511	0.00017206	9.6676e-05	1320	4.4675e-06	1.875e-06	1397.5	277.39	3.5256e-06	1.7856e-06	343.36	95.316	75.136	21.73	1.2557e-06	29.925	0.00016756	0.00016916	4.386e-05	1099.6	1.877e-06	1.8759e-06	1175.7	233.38	1.9395e-06	1.8773e-06	274	77.69	63.12	18.944	1.7465e-06	24.934	72.227	8.429	-58.269	-60.473	187.776	-7.416	-60.604	-53.773	132.288	54.308	-54.170	-47.516	-47.550	-40.904	-55.264	-40.772	-8191	255	
2018.204	1	1	0	0	0.038508	0.13753	0.35292	0.079018	0.12044	0.056491	0.1723	0.137	0.092177	0.06404	0.16704	0.053308	0.14515	0.27711	0.098458	0.045364	-3.9813	-4.1813	-3.7771	-4.3875	-4.1958	-4.0354	-4.5979	-4.2063	-4.2667	-4.3833	-3.9083	-4.4917	-4.1062	-3.9792	-4.5437	-3.9771	173.015	60.132	48.211	137.316	190.938	202.865	-41.302	151.627	179.538	192.461	176.475	248.288	162.112	240.386	57.432	56.672	0.00030145	0.00026122	7.5532e-05	1324.1	1.9544e-06	3.9739e-06	1393.1	278.46	1.654e-06	3.6808e-06	343.71	94.204	76.087	21.839	1.1329e-06	29.888	0.00018407	0.00017044	4.417e-05	1109.4	1.9945e-06	1.8351e-06	1176.7	235.45	1.9567e-06	1.7762e-06	272.5	78.372	62.686	18.619	1.598e-06	25.003	109.493	267.601	89.777	-60.437	-48.324	30.062	-60.622	-53.663	191.331	47.861	-53.854	-47.515	-47.692	-40.867	-68.526	-41.035	-8191	255	
2018.300	1	1	0	0	0.04699	0.072131	0.25829	0.16838	0.15749	0.11013	0.27816	0.2014	0.0088189	0.1016	0.212	0.16198	0.095341	0.12042	0.1262	0.0061508	-3.7667	-4.3042	-3.8312	-4.5396	-4.3313	-3.9125	-4.6208	-4.0146	-4.1417	-4.3063	-3.9688	-4.3167	-4.3396	-3.9667	-4.3833	-4.0167	171.037	-31.364	169.107	282.053	151.949	39.722	-53.806	225.544	-2.606	70.468	255.975	168.289	-70.046	-16.001	49.514	137.407	4.9689e-05	6.7797e-05	8.1307e-05	1326.3	1.0261e-06	2.5222e-06	1402.4	278.31	2.3803e-06	2.1307e-06	344.1	95.212	75.783	21.795	7.5962e-07	30.165	0.00016899	0.00015248	3.9608e-05	1111.2	1.792e-06	1.6589e-06	1174.9	236.12	1.7743e-06	1.633e-06	271.19	78.705	61.551	18.351	1.5442e-06	25.163	-27.801	154.906	37.600	-60.559	64.425	45.301	-60.605	-54.115	-38.212	35.420	-53.921	-47.842	-47.308	-40.987	163.050	-40.950	-8191	255	
2018.396	1	1	0	0	0.032514	0.27133	0.1899	0.12904	0.14174	0.21871	0.32806	0.017377	0.060357	0.086078	0.19639	0.13588	0.26042	0.10002	0.027052	0.15967	-3.6729	-4.3333	-3.7083	-4.3562	-4.1646	-3.925	-4.4979	-4.1458	-3.9313	-4.5083	-4.1646	-4.3792	-4.3042	-3.8187	-4.4729	-4.3104	280.829	196.249	-60.543	263.472	143.034	30.759	229.449	146.454	-38.495	16.045	-65.647	-7.049	272.919	268.337	-39.842	246.037	8.4079e-05	5.1401e-05	6.8736e-05	1334.2	1.6477e-06	8.3379e-07	1401.1	279.76	5.3147e-07	3.2355e-06	343.23	95.392	75.744	21.771	4.1434e-06	30.183	0.00015772	0.00014494	3.9228e-05	1116.5	1.6877e-06	1.5701e-06	1176.3	236.99	1.6737e-06	1.5511e-06	271.68	78.794	60.841	18.2	1.6007e-06	25.141	278.304	43.783	40.818	-60.381	35.842	-8.455	-60.587	-53.746	3.850	44.284	-53.792	-47.378	-47.657	-40.727	173.657	-41.198	-8191	255	
2018.492	1	1	0	0	0.18931	0.32203	0.12356	0.23872	0.15805	0.082345	0.10041	0.041786	0.15833	0.094665	0.10369	0.32743	0.14719	0.087693	0.21121	0.13869	-3.7042	-4.4688	-4.0375	-4.3875	-4.2896	-3.9896	-4.5771	-4.2583	-3.9667	-4.5062	-4.0729	-4.1729	-4.4729	-3.9083	-4.2667	-4.1896	-49.541	-11.182	196.268	221.021	-47.501	287.164	244.543	254.618	32.866	110.533	200.425	258.771	0.799	37.938	172.265	99.417	8.3841e-05	0.00017666	2.2098e-05	1328.5	4.5533e-06	1.9578e-06	1396.5	279.67	2.7627e-06	1.599e-06	346.46	94.977	75.929	21.906	2.6164e-06	30.185	0.0001501	0.00013853	4.1063e-05	1114.1	1.6238e-06	1.5142e-06	1177.2	235.72	1.6211e-06	1.5043e-06	274.23	78.454	60.444	18.131	1.6956e-06	24.98	56.685	-54.083	78.225	-60.610	14.278	-33.719	-60.717	-53.662	3.796	29.635	-53.865	-47.955	-47.571	-40.981	217.808	-41.433	-8191	255	
2018.589	1	1	0	0	0.15637	0.054063	0.15708	0.1282	0.027413	0.30265	0.23788	0.15732	0.12368	0.10225	0.14455	0.072124	0.13254	0.14476	0.071264	0.13402	-3.5917	-4.5792	-4.0125	-4.25	-4.3729	-3.9167	-4.4854	-4.2604	-3.8812	-4.3917	-4.2083	-4.2188	-4.4417	-3.8521	-4.0521	-4.375	137.539	271.302	117.488	250.554	56.662	192.708	283.055	-25.237	241.015	108.132	238.554	30.628	-40.323	221.991	-58.443	167.671	0.00019416	0.00020056	3.8808e-05	1331.8	4.2398e-06	7.9108e-07	1403.6	281.55	2.6123e-06	2.0264e-06	345.8	95.749	76.883	21.73	1.3569e-06	30.558	0.0001443	0.00013586	4.3512e-05	1111.4	1.563e-06	1.4882e-06	1185.8	235.88	1.562e-06	1.5158e-06	276.88	78.134	60.572	18.302	1.7782e-06	24.83	61.154	-61.770	47.325	-60.651	12.882	191.243	-60.715	-53.666	20.365	67.775	-53.838	-47.569	-47.822	-40.799	47.393	-41.446	-8191	255	
2018.709	1	1	0	0	0.030785	0.08231	0.20167	0.16464	0.07602	0.10984	0.42922	0.06239	0.10208	0.23487	0.20553	0.39998	0.096529	0.40359	0.063604	0.31316	-3.5042	-4.2667	-4.0292	-4.0771	-4.2646	-3.9729	-4.1146	-4.3229	-3.9208	-4.2542	-4.1771	-3.8563	-4.4542	-4.0104	-4.0667	-4.3187	38.525	192.411	151.462	255.128	3.844	142.862	224.812	-50.077	-62.542	45.006	192.430	223.675	183.081	197.172	73.223	248.633	0.00026927	0.00020993	2.8485e-05	1335.9	1.762e-06	3.3873e-06	1412.9	282.36	2.2161e-06	2.8305e-06	346.77	96.133	76.673	21.95	1.7827e-06	30.416	0.00014052	0.0001417	4.4928e-05	1110.3	1.5011e-06	1.5539e-06	1190.2	235.06	1.4793e-06	1.5659e-06	276.29	77.507	59.761	18.388	1.6785e-06	24.408	237.852	101.104	64.150	-60.544	-46.283	186.932	-60.553	-53.913	2.934	252.878	-54.033	-47.435	-47.473	-40.909	2.087	-41.571	-8191	255	
2018.804	1	1	0	0	0.13843	0.081415	0.046585	0.031787	0.27289	0.23264	0.12937	0.27495	0.1453	0.24806	0.18111	0.093198	0.12651	0.26503	0.20044	0.080151	-3.4167	-4.1562	-4.0979	-4.0813	-4.4167	-3.8896	-4.1229	-4.3938	-3.9	-4.2188	-4.1708	-3.8167	-4.3708	-4.1687	-4.0396	-4.3771	-24.591	149.219	-67.370	180.232	30.150	152.694	76.076	246.226	177.724	278.055	-34.099	-49.580	258.116	220.145	154.299	244.388	0.00024106	0.00017222	3.6338e-05	1335.8	4.3063e-06	1.3838e-06	1406.9	281.97	3.9117e-07	1.7412e-06	345.3	96.022	76.185	21.876	1.4212e-06	30.253	0.00012978	0.00014375	4.1474e-05	1105.9	1.3958e-06	1.5935e-06	1183.2	233.43	1.4002e-06	1.6032e-06	273.14	76.767	59.412	18.484	1.5854e-06	24.17	58.121	50.829	281.317	-60.524	110.095	198.001	-60.604	-53.878	280.040	13.931	-53.970	-47.654	-47.351	-40.832	27.924	-41.014	-8191	255	
2018.900	1	1	0	0	0.20799	0.25569	0.053811	0.23939	0.16593	0.15519	0.040497	0.1469	0.29173	0.24956	0.08763	0.26935	0.1965	0.014802	0.19167	0.23596	-3.6333	-4.1896	-4.1104	-3.9562	-4.3729	-4.0938	-4.1667	-4.5583	-3.9396	-4.1896	-4.3708	-3.9313	-4.2812	-4.1438	-4.0021	-4.5	239.339	267.949	145.335	224.901	21.704	237.824	220.450	219.658	73.605	26.986	-62.652	-10.180	59.422	225.822	273.849	255.818	0.0002261	5.6586e-05	6.7475e-05	1336.1	2.7499e-06	1.2806e-06	1404.9	281.06	1.858e-06	2.3385e-06	344.53	95.121	75.921	21.652	3.4884e-06	30.256	0.00013008	0.00015075	3.9756e-05	1100.5	1.4432e-06	1.6634e-06	1176.5	232.01	1.4702e-06	1.6709e-06	271.38	76.142	59.852	18.545	1.5224e-06	24.043	80.274	257.461	-35.971	-60.661	118.959	145.633	-60.612	-53.981	200.216	128.252	-53.897	-47.881	-47.368	-41.002	24.574	-41.222	-8191	255	
2018.973	1	1	0	0	0.13749	0.15437	0.14895	0.084867	0.12322	0.21827	0.17899	0.11753	0.19425	0.097946	0.26206	0.19336	0.15596	0.06245	0.1905	0.048067	-3.5792	-4.0521	-4.3646	-3.8979	-4.1625	-4.0729	-3.9688	-4.4208	-3.9729	-4.0875	-4.4854	-4.0042	-4.2	-4.1979	-3.8583	-4.4083	42.022	180.501	66.011	151.412	155.630	-61.690	144.057	199.371	245.343	-41.358	218.326	177.978	256.838	-52.771	243.953	59.000	0.00042974	0.00029658	6.5413e-06	1329.6	4.2672e-06	3.1058e-06	1396.8	279.21	1.36e-06	3.0427e-06	344.29	95.218	75.826	21.929	2.9654e-06	30.186	0.00013915	0.00015236	3.8665e-05	1096.4	1.5445e-06	1.6422e-06	1171.1	230.63	1.5495e-06	1.5987e-06	269.53	75.529	60.124	18.273	1.4299e-06	23.751	95.072	-42.029	98.177	-60.488	197.317	60.337	-60.498	-53.721	119.944	-11.226	-53.796	-47.989	-47.629	-40.895	75.738	-41.263	-8191	255	
2019.092	1	1	0	0	0.18376	0.4974	0.1777	0.11816	0.17712	0.11607	0.39548	0.35268	0.19388	0.21333	0.091763	0.13837	0.059838	0.21836	0.082448	0.13446	-3.7875	-4.0896	-4.3917	-4.1625	-4.2292	-4.3042	-3.9479	-4.3583	-3.8438	-3.9688	-4.4417	-4.0042	-4.2208	-4.3	-3.7729	-4.2188	219.077	222.712	93.775	251.787	74.119	239.859	234.805	282.544	115.295	34.997	75.936	146.794	251.802	236.132	174.690	128.273	0.00037209	0.00032856	7.5831e-05	1329.7	2.2414e-06	3.8736e-06	1399.2	279.07	3.5995e-06	3.2316e-06	345.51	94.997	76.234	21.894	3.2517e-06	30.009	0.00014176	0.00014127	3.5889e-05	1091.1	1.5748e-06	1.5229e-06	1167.6	230.47	1.6038e-06	1.5211e-06	268.4	76.116	60.887	18.216	1.4108e-06	24.089	36.590	-11.206	278.708	-60.500	119.066	18.100	-60.634	-53.917	120.358	16.055	-54.227	-47.610	-47.449	-40.812	23.720	-41.141	-8191	255	
2019.188	1	1	0	0	0.10965	0.062704	0.25465	0.25458	0.087759	0.20198	0.24999	0.14232	0.20854	0.1937	0.10799	0.14826	0.13494	0.20161	0.13485	0.27844	-3.7146	-3.8208	-4.4688	-3.9667	-4.1542	-4.2104	-3.8875	-4.3375	-4.1979	-3.9104	-4.4271	-3.95	-4.3104	-4.4583	-3.7917	-4.4125	-45.336	284.500	105.765	245.546	-39.805	-1.300	199.516	180.253	28.677	-2.484	-28.086	-36.825	268.251	241.705	248.349	129.755	0.00034424	0.00016064	8.9645e-05	1332.7	2.7088e-06	3.7854e-06	1403.9	281.52	2.8803e-06	4.1959e-06	345.13	95.567	76.511	21.806	1.3796e-06	30	0.00014954	0.00013747	3.5575e-05	1101.1	1.633e-06	1.4922e-06	1169.9	232.68	1.6244e-06	1.4783e-06	267.94	76.705	60.701	18.039	1.3437e-06	24.292	50.060	228.244	-50.764	-60.595	124.380	-32.673	-60.687	-53.701	100.914	34.842	-54.165	-47.353	-47.765	-41.092	272.892	-41.028	-8191	255	
2019.284	1	1	0	0	0.19052	0.45451	0.12482	0.095125	0.076435	0.23412	0.20547	0.18461	0.11323	0.11498	0.08602	0.39017	0.23583	0.094997	0.22147	0.15935	-3.7729	-3.7396	-4.2646	-4.3417	-4.2625	-4.2708	-4.1542	-4.3812	-4.3521	-3.9417	-4.4104	-4.1917	-4.25	-4.3625	-3.9104	-4.1625	135.226	-60.104	167.543	221.026	161.199	170.893	181.825	-55.989	97.871	-55.363	59.774	227.956	211.011	194.655	-28.472	247.228	0.00028143	0.00011183	2.9682e-05	1327.4	3.3521e-06	1.7018e-06	1397.5	278.93	2.7555e-06	1.1635e-06	344.8	95.804	75.361	21.746	5.5023e-07	29.955	0.0001431	0.00013051	3.3662e-05	1098.7	1.5373e-06	1.3919e-06	1161.7	232.23	1.5065e-06	1.3905e-06	266.26	77.011	59.676	17.817	1.337e-06	24.355	165.059	-22.063	285.129	-60.600	6.620	9.628	-60.572	-53.760	34.075	73.005	-54.254	-47.686	-47.426	-40.797	196.735	-40.962	-8191	255	
2019.405	1	1	0	0	0.13878	0.1207	0.16986	0.11276	0.12574	0.085454	0.35285	0.10624	0.071375	0.16915	0.1773	0.22388	0.20615	0.077773	0.11391	0.088103	-3.9333	-3.8833	-4.3542	-4.1229	-4.1271	-4.4896	-4.0583	-4.5104	-4.1833	-3.7104	-4.4792	-4.125	-3.9458	-4.4187	-3.85	-4.0417	228.876	226.898	-52.632	264.009	216.729	-21.211	136.785	-41.613	65.785	103.972	232.970	-65.392	-62.155	25.594	-66.999	96.731	7.9565e-05	6.0968e-05	4.5304e-05	1324.1	4.8764e-06	8.7778e-07	1387	277.7	1.1689e-06	1.8181e-06	341.02	94.66	74.817	21.567	1.2447e-06	29.953	0.00013406	0.00012351	3.3944e-05	1098.2	1.4256e-06	1.3169e-06	1158.3	230.88	1.3749e-06	1.2702e-06	264.27	75.876	57.958	17.266	1.295e-06	23.821	176.848	-50.804	107.462	-60.707	-63.602	11.623	-60.650	-53.708	177.642	72.937	-53.752	-47.651	-47.360	-40.547	31.557	-40.944	-8191	255	
2019.501	1	1	0	0	0.25273	0.20505	0.19223	0.0075066	0.19505	0.27136	0.19522	0.16538	0.12669	0.13609	0.28736	0.16842	0.11636	0.27485	0.12613	0.070419	-3.8937	-3.6646	-4.4	-4.225	-3.9313	-4.4062	-3.9896	-4.2146	-4.1562	-3.8563	-4.3	-4.3854	-3.8625	-4.5021	-4.0229	-4.1417	149.050	-19.366	229.867	213.093	252.261	44.385	238.746	248.040	60.973	285.089	256.952	173.919	34.116	276.726	84.121	59.017	0.00015329	0.00028237	2.41e-05	1315	3.2193e-06	5.2292e-07	1380.2	273.78	1.1728e-06	1.9844e-06	337.69	93.566	73.833	21.298	1.0354e-06	29.529	0.00011822	0.00011002	3.3242e-05	1083.3	1.2763e-06	1.1822e-06	1149.3	226.19	1.2314e-06	1.1484e-06	261.35	74.079	56.436	16.892	1.285e-06	23.079	38.233	-3.464	47.721	-60.979	-47.643	46.875	-60.576	-53.837	31.889	143.002	-54.147	-47.465	-47.482	-40.851	115.757	-40.949	-8191	255	
2019.573	1	1	0	0	0.049097	0.093501	0.087399	0.14628	0.046629	0.074114	0.11747	0.073155	0.32797	0.11199	0.18574	0.13165	0.080081	0.17749	0.15896	0.05558	-4.0583	-3.6646	-4.0813	-4.1771	-3.8417	-4.5583	-4.2146	-4.0604	-4.3458	-3.6521	-4.3833	-4.2208	-3.9583	-4.4458	-4.0208	-4.1062	187.712	171.695	171.715	230.823	195.395	146.949	188.965	-23.712	221.676	184.678	88.956	284.346	-41.922	-18.664	99.068	242.819	0.00028703	0.00019221	7.2979e-05	1294.8	6.8061e-07	6.298e-07	1355.4	269.39	6.8912e-07	2.3129e-06	333.85	92.437	72.542	20.648	8.5589e-07	29.067	0.00010516	0.00010016	3.1915e-05	1057.3	1.1139e-06	1.0682e-06	1128	219.19	1.063e-06	1.0455e-06	255.21	71.334	54.063	16.332	1.1536e-06	22.093	104.208	143.923	60.314	-60.804	65.471	40.406	-60.778	-53.682	94.496	104.702	-53.960	-47.511	-47.487	-40.334	154.437	-41.077	-8191	255	
2019.669	1	1	0	0	0.20149	0.020098	0.14329	0.14551	0.19931	0.10201	0.21198	0.075003	0.20028	0.13249	0.29637	0.0097521	0.23168	0.071086	0.10975	0.097273	-3.8667	-3.8208	-4.0958	-4.3667	-3.9146	-4.2688	-4.2333	-3.9521	-4.4021	-3.9	-4.3187	-4.5375	-3.7104	-4.2958	-4.0833	-3.8563	-21.470	207.449	29.733	251.093	-33.591	125.168	237.153	-29.114	105.868	-5.493	49.066	16.279	12.062	222.670	136.076	66.238	7.2911e-05	0.00031144	3.9039e-05	1271	1.2405e-06	1.366e-06	1345.5	264.05	2.0853e-06	1.6753e-06	327.59	91.164	71.907	20.641	3.1714e-06	28.958	8.9598e-05	9.2675e-05	2.8957e-05	1032.6	9.6085e-07	1.0155e-06	1107.6	213.53	9.395e-07	1.0273e-06	249.42	69.767	52.944	16.235	1.0584e-06	21.7	98.175	102.713	-34.963	-60.639	279.966	143.002	-60.745	-53.754	56.307	145.107	-53.988	-47.518	-47.374	-40.341	-32.059	-40.618	-8191	255	
2019.790	1	1	0	0	0.076301	0.21145	0.023941	0.34864	0.16198	0.12872	0.14195	0.070248	0.23059	0.31477	0.17034	0.050099	0.039801	0.20584	0.16584	0.015903	-4.0604	-3.8688	-4.1146	-4.4354	-3.9792	-4.475	-4.3125	-3.8583	-4.3646	-4.0521	-3.9667	-4.4167	-4.0188	-4.4104	-4.2167	-3.8917	19.985	129.689	141.551	229.463	-3.298	155.421	230.916	0.450	132.842	192.109	277.098	-1.797	135.546	-38.863	203.006	267.036	0.00019849	0.00028089	4.5467e-05	1257.6	2.539e-06	8.8948e-07	1325.5	260.8	1.9684e-07	5.9329e-07	323.18	90.051	70.417	20.393	1.4789e-06	28.465	8.2277e-05	9.2111e-05	2.6048e-05	1016.9	8.8465e-07	1.0095e-06	1090.5	209.83	8.6341e-07	9.9868e-07	244.46	68.42	51.917	16.042	9.3143e-07	21.12	71.554	87.812	11.927	-60.663	70.477	96.208	-60.507	-53.635	223.295	172.073	-53.954	-47.036	-46.731	-40.026	-8.745	-40.582	-8191	255	
2019.884	1	1	0	0	0.34335	0.15471	0.10858	0.055595	0.11409	0.17588	0.12092	0.22248	0.13388	0.13542	0.30083	0.17658	0.15176	0.10567	0.10186	0.17918	-4.0021	-4.1104	-4.0188	-4.4521	-3.8875	-4.2333	-4.3792	-3.8771	-4.3667	-3.9375	-4.0646	-4.3792	-3.8917	-4.1188	-4.35	-3.9583	-43.413	242.334	191.090	-26.287	122.326	103.736	267.504	184.549	78.790	129.950	144.638	-65.902	104.353	241.364	-7.006	142.854	0.00018542	8.0022e-05	8.1719e-05	1243.5	1.2715e-06	8.6286e-07	1316.8	257.66	2.2866e-06	5.4519e-07	319.96	89.509	70.536	20.295	1.3371e-06	28.445	7.7513e-05	8.8588e-05	2.263e-05	1001.5	8.4017e-07	9.5919e-07	1075.4	205.86	8.5456e-07	9.606e-07	240.78	67.501	51.876	15.844	8.7495e-07	20.916	38.400	20.971	12.514	-60.476	77.108	20.864	-60.717	-53.523	175.833	188.169	-53.547	-47.253	-47.041	-40.136	61.481	-40.618	-8191	255	
2019.982	1	1	0	0	0.072827	0.19217	0.077955	0.25896	0.24988	0.099329	0.097594	0.028519	0.13622	0.2057	0.093245	0.089599	0.14449	0.056041	0.13945	0.11725	-3.8104	-3.9458	-3.8937	-4.6188	-3.875	-4.1625	-4.4375	-3.9667	-4.3479	-4.1042	-3.9896	-4.4437	-3.9271	-4.1062	-4.2792	-3.9208	180.678	32.035	17.782	262.418	66.858	124.708	218.024	252.309	187.277	159.409	70.916	210.419	250.026	92.927	-64.959	-23.739	0.00022412	0.00013562	6.5043e-05	1238.7	1.8027e-06	2.368e-06	1310.6	257.53	1.5916e-06	1.8131e-06	320.82	89.101	70.416	20.361	1.9192e-06	28.456	8.2012e-05	8.7429e-05	2.2246e-05	999.6	9.2234e-07	9.5977e-07	1073.1	205.5	9.3394e-07	9.464e-07	240.31	67.426	52.226	15.789	8.4411e-07	20.896	83.409	106.555	-7.260	-60.711	244.151	40.122	-60.508	-53.797	198.943	31.472	-53.444	-47.326	-46.781	-40.094	63.747	-41.025	-8191	255	
2020.101	1	1	0	0	0.1267	0.10459	0.09734	0.30168	0.12143	0.29067	0.27307	0.21622	0.068511	0.14984	0.16976	0.1657	0.098113	0.17078	0.19435	0.070354	-3.8958	-4.1021	-3.8604	-4.4896	-4.0542	-4.2	-4.6167	-3.8542	-4.3146	-4.2812	-3.8979	-4.4333	-3.9542	-3.8375	-4.3583	-3.9646	-18.687	110.404	128.788	219.095	184.921	-50.124	270.505	-56.051	175.575	277.317	208.000	283.272	94.548	105.063	7.309	272.926	0.00031005	0.00030389	9.5342e-05	1238.3	1.3257e-06	1.8789e-06	1304.7	256.51	5.6527e-07	5.7858e-07	318.32	88.656	70.378	20.325	1.444e-06	28.38	8.6453e-05	8.3079e-05	2.1345e-05	997.38	9.5006e-07	8.9007e-07	1069	204.82	9.3808e-07	8.6938e-07	237.92	67.223	51.977	15.582	7.8791e-07	20.849	85.058	-60.838	-61.779	-60.583	183.976	-30.819	-60.552	-53.280	175.141	94.378	-53.778	-47.568	-46.891	-40.102	238.887	-40.617	-8191	255	
2020.197	1	1	0	0	0.065191	0.21455	0.10334	0.19989	0.14828	0.36279	0.31898	0.072167	0.083823	0.27883	0.13258	0.054494	0.21055	0.22997	0.091385	0.25474	-3.775	-4.3208	-3.8812	-4.3667	-4.05	-3.9042	-4.5604	-3.9562	-4.0896	-4.1375	-3.8979	-4.3063	-4.35	-3.9479	-4.1813	-3.9667	231.408	86.850	14.588	275.319	-32.558	128.399	243.195	-27.449	46.804	44.801	-23.158	241.941	-29.731	257.565	94.862	117.041	0.00013174	0.00020452	4.4386e-05	1236.1	5.767e-07	3.7626e-06	1297.9	255.28	2.0936e-06	1.0635e-06	316.54	88.754	69.865	20.167	1.2847e-06	28.195	8.4112e-05	7.5031e-05	1.9569e-05	992.82	8.9115e-07	8.1645e-07	1060	203.99	8.8457e-07	8.0016e-07	235.72	67.207	51.421	15.409	7.5459e-07	20.968	66.287	49.068	-51.006	-60.490	220.712	17.361	-60.385	-53.521	25.782	-49.630	-53.567	-47.271	-47.356	-40.106	84.336	-40.544	-8191	255	
2020.269	1	1	0	0	0.1561	0.12576	0.056825	0.36119	0.039642	0.097076	0.20082	0.12171	0.087758	0.27474	0.16053	0.09676	0.070676	0.037054	0.13486	0.15626	-3.7646	-4.3708	-3.8667	-4.5146	-4.1208	-3.9708	-4.4396	-4.0396	-3.95	-4.4729	-3.9271	-4.2021	-4.3625	-3.7646	-4.45	-4.0437	158.976	223.904	112.900	286.527	219.664	190.514	75.929	165.324	4.517	29.772	210.396	129.929	36.872	20.482	-60.683	69.302	9.9406e-05	3.2189e-05	5.3014e-05	1236.9	1.2836e-06	3.1245e-06	1304.4	255.17	9.6492e-07	1.0616e-06	317.59	89.1	70.136	20.24	5.7079e-07	28.296	8.0418e-05	7.3262e-05	1.9474e-05	996.95	8.8192e-07	8.1741e-07	1063.3	205.52	8.8727e-07	8.1849e-07	236.89	67.971	51.551	15.47	8.0963e-07	21.246	-11.615	43.246	-9.776	-60.450	23.164	14.855	-60.510	-53.566	-9.376	69.960	-53.749	-47.174	-47.173	-40.169	213.049	-40.776	-8191	255	
2020.389	1	1	0	0	0.3267	0.040459	0.064077	0.072258	0.30037	0.062763	0.16787	0.083967	0.099626	0.12359	0.1044	0.17458	0.11881	0.10085	0.050695	0.2054	-3.5396	-4.5646	-3.9604	-4.3063	-4.2792	-3.8604	-4.4646	-4.1708	-3.9354	-4.3479	-3.9562	-4.15	-4.3229	-3.8187	-4.3917	-4.075	20.968	140.697	247.753	57.037	77.906	-61.331	249.250	-54.027	89.612	97.519	282.824	22.707	-41.076	29.042	275.916	218.060	0.00019433	0.00014842	2.1605e-05	1237.7	3.4149e-06	1.0422e-06	1303.9	256.07	1.0191e-07	1.313e-06	318.92	89.155	70.091	20.229	1.235e-06	28.494	8.0423e-05	7.4221e-05	2.0981e-05	1000.4	8.6523e-07	8.1012e-07	1067.3	206.09	8.6651e-07	7.9643e-07	238.49	68.176	51.287	15.438	8.748e-07	21.326	53.774	33.549	9.396	-60.453	-6.739	30.418	-60.460	-53.499	189.608	94.932	-53.829	-47.012	-47.057	-40.101	102.054	-40.552	-8191	255	
2020.485	1	1	0	0	0.085933	0.1848	0.16538	0.32622	0.10305	0.11005	0.30306	0.22719	0.1217	0.074603	0.084833	0.26351	0.36412	0.090879	0.098793	0.18066	-3.5417	-4.4708	-3.8688	-4.3229	-4.3938	-3.7562	-4.2438	-4.1333	-3.9479	-4.3854	-3.9667	-4.1833	-4.3083	-4.0625	-4.1521	-4.3083	-21.436	230.260	121.103	234.936	225.326	117.188	179.257	202.622	39.490	275.214	277.279	239.952	200.468	-11.694	173.685	197.564	0.00024006	9.5463e-05	2.6647e-05	1237.6	2.2714e-06	6.6361e-07	1303.4	255.73	3.364e-07	3.4886e-06	317.68	89.098	69.908	20.197	1.2815e-06	28.511	7.8644e-05	7.2475e-05	2.2491e-05	1001.1	8.4725e-07	7.9328e-07	1070.8	205.57	8.49e-07	7.916e-07	239.73	67.834	51.248	15.469	9.3283e-07	21.193	126.670	-21.995	7.238	-60.534	25.618	-2.436	-60.576	-53.461	219.810	99.770	-53.780	-47.539	-47.305	-40.371	142.787	-40.605	-8191	255	
2020.581	1	1	0	0	0.29815	0.15587	0.045741	0.1806	0.26525	0.27723	0.038888	0.059661	0.17726	0.19374	0.31283	0.16073	0.080046	0.20306	0.036864	0.056423	-3.4417	-4.525	-3.9437	-4.2812	-4.2625	-3.85	-4.3646	-4.2104	-3.7687	-4.2833	-4.125	-4.0021	-4.575	-3.9604	-4.1271	-4.4	213.507	-61.413	3.413	274.150	221.891	207.329	231.103	-46.439	-10.664	-71.466	206.243	168.008	3.082	-29.675	224.176	-34.930	0.00010139	0.00018867	1.4666e-05	1234.9	2.9163e-06	1.4453e-06	1308.5	256.56	6.8037e-07	1.9822e-06	317.42	89.011	70	20.205	9.978e-07	28.523	7.7282e-05	7.3877e-05	2.4104e-05	998.37	8.4279e-07	8.3589e-07	1075	205.61	8.4828e-07	8.5456e-07	241	67.987	51.28	15.64	9.7849e-07	21.191	113.157	109.492	-45.348	-60.535	285.246	30.837	-60.564	-53.757	68.062	199.405	-53.959	-47.300	-47.692	-40.411	225.131	-40.863	-8191	255	
2020.702	1	1	0	0	0.26364	0.085043	0.28159	0.18128	0.25728	0.28815	0.12138	0.16441	0.073668	0.17038	0.13416	0.17477	0.13477	0.082844	0.024706	0.072147	-3.5187	-4.2937	-4.2333	-4.1375	-4.5521	-4.2229	-4.2812	-4.4437	-3.9062	-4.2917	-4.2479	-3.9583	-4.325	-4.0667	-4.0479	-4.4125	32.155	73.464	213.780	233.069	-50.891	221.782	232.641	42.545	223.773	161.269	246.128	235.783	170.380	-48.843	84.412	41.489	0.00012574	0.00011719	7.2496e-05	1237.1	2.2113e-06	9.1113e-07	1310.8	256.74	1.164e-06	5.2121e-07	322.08	89.336	69.989	20.332	1.5476e-06	28.53	7.6452e-05	8.1117e-05	2.4842e-05	1001.8	8.3769e-07	9.0703e-07	1077.7	205.78	8.3563e-07	9.2275e-07	242.09	67.894	51.327	15.839	9.5508e-07	21.15	-44.253	251.780	-8.245	-60.519	49.928	267.004	-60.666	-53.459	67.249	107.649	-54.016	-47.276	-46.837	-40.034	23.940	-40.587	-8191	255	
2020.796	1	1	0	0	0.1999	0.18226	0.12585	0.099676	0.099146	0.26043	0.24699	0.27506	0.060308	0.26321	0.16339	0.054645	0.25814	0.10456	0.16845	0.066394	-3.4958	-4.3604	-4.2229	-4.0667	-4.3396	-3.9833	-4.3021	-4.3583	-4.1188	-4.2833	-4.2583	-3.9354	-4.4396	-4.1146	-3.9458	-4.5875	275.631	260.242	-14.780	-19.964	257.212	258.932	252.995	134.945	287.696	236.124	268.076	-10.841	-60.278	47.962	-10.932	71.254	0.00021339	0.00012724	5.5207e-05	1241	7.2171e-07	1.1793e-06	1308.7	256.28	1.2926e-06	2.1339e-06	318.53	89.288	69.994	20.364	2.1189e-06	28.501	7.5579e-05	8.6199e-05	2.3858e-05	1000.9	8.2591e-07	9.5333e-07	1074.4	205.23	8.3299e-07	9.6206e-07	240.7	67.774	51.505	15.963	9.1684e-07	21.084	74.541	203.232	261.429	-60.523	112.247	-23.207	-60.608	-53.738	112.920	89.891	-53.697	-47.440	-47.055	-40.203	29.058	-40.678	-8191	255	
2020.870	1	1	0	0	0.25212	0.11592	0.064197	0.23461	0.10156	0.029334	0.2864	0.082243	0.11982	0.053419	0.13814	0.16	0.061926	0.07511	0.20942	0.17931	-3.5979	-4.2083	-4.2021	-4.0167	-4.4083	-4.0792	-4.0896	-4.5479	-3.95	-4.3125	-4.4708	-4.0188	-4.3375	-4.2458	-3.8979	-4.3688	195.332	273.480	55.405	163.970	237.925	-26.827	255.901	269.472	6.540	278.687	156.672	151.487	134.445	276.766	-63.326	64.843	0.00035375	0.00019658	2.3053e-05	1242.1	1.3717e-06	1.6065e-06	1310.3	255.01	2.217e-06	1.6761e-06	320.43	89.577	70.053	20.279	2.5424e-06	28.542	7.9524e-05	9.0184e-05	2.3054e-05	1000.6	8.7262e-07	9.8468e-07	1074.6	204.88	8.9315e-07	9.7946e-07	240.58	67.574	51.879	15.899	8.8492e-07	20.952	70.792	14.067	-27.426	-60.404	79.892	61.636	-60.474	-53.618	229.076	19.065	-53.992	-47.431	-46.926	-40.063	3.445	-40.030	-8191	255	
2020.964	1	1	0	0	0.22195	0.17698	0.19936	0.035531	0.11926	0.16338	0.080854	0.29414	0.077204	0.020281	0.16531	0.24954	0.10553	0.12361	0.081125	0.11637	-3.6021	-4.1396	-4.2354	-3.9917	-4.3021	-4.1729	-4.0083	-4.4083	-3.9938	-4.175	-4.4229	-4.0208	-4.3646	-4.2917	-3.7708	-4.475	213.626	-65.879	121.188	-40.536	135.031	156.001	288.343	221.042	184.394	107.877	270.567	-56.592	254.025	128.312	200.368	4.159	0.00026289	0.00017001	5.6219e-05	1239.6	1.3383e-06	1.4632e-06	1308.2	257.54	5.1215e-07	6.7272e-07	320.06	89.538	70.367	20.362	2.0743e-06	28.439	8.3584e-05	8.7776e-05	2.2164e-05	997.92	9.3818e-07	9.57e-07	1072.8	204.93	9.4529e-07	9.3615e-07	239.64	67.577	52.202	15.804	8.4821e-07	21.009	66.238	284.655	263.328	-60.402	251.289	50.938	-60.566	-53.662	284.761	100.422	-53.693	-47.325	-47.149	-40.363	12.940	-40.613	-8191	255	
2021.062	1	1	0	0	0.20551	0.076108	0.11912	0.12642	0.13917	0.15521	0.37917	0.154	0.18116	0.16305	0.22956	0.15694	0.24116	0.026099	0.047344	0.27957	-3.7771	-4.0229	-4.5292	-3.9521	-4.2438	-4.2583	-4.0271	-4.3333	-4.2125	-4.0354	-4.4354	-3.8146	-4.2375	-4.275	-3.8479	-4.3458	283.739	210.274	106.953	224.166	280.732	-34.645	190.624	278.269	65.635	-46.116	258.854	-57.844	-30.849	65.230	255.189	257.919	0.00027446	8.9567e-05	1.4149e-05	1234.7	3.3136e-06	5.1559e-07	1315.8	256.55	1.3294e-06	5.4411e-07	321.81	89.024	70.425	20.444	3.0759e-06	28.558	8.7735e-05	8.3609e-05	2.1489e-05	999.8	9.7277e-07	9.1283e-07	1073.5	205.81	9.8967e-07	9.0918e-07	239.95	67.933	52.676	15.797	8.4848e-07	21.294	71.052	3.027	-24.980	-60.480	103.216	123.185	-60.767	-53.545	-4.951	39.446	-53.688	-47.413	-47.006	-40.023	37.036	-40.749	-8191	255	
2021.181	1	1	0	0	0.10886	0.14086	0.1321	0.24992	0.27513	0.21285	0.24257	0.19012	0.16205	0.24499	0.11789	0.087238	0.21965	0.12976	0.046444	0.1531	-3.8625	-4.0542	-4.3	-3.9854	-4.1312	-4.2229	-4.075	-4.4104	-4.2292	-3.9292	-4.5958	-4.0125	-3.9771	-4.3521	-3.7708	-4.2875	17.031	-66.021	80.163	54.388	129.023	-8.974	272.483	274.210	112.866	-57.533	3.652	-33.739	104.154	127.857	74.699	96.094	8.2933e-05	0.00019041	5.6784e-05	1243.4	1.0449e-06	2.3974e-06	1311.9	256.69	1.5938e-06	8.3359e-07	322.26	89.622	70.533	20.524	8.1478e-07	28.709	9.115e-05	8.3835e-05	2.1661e-05	1008.2	1.0155e-06	9.2183e-07	1076.8	207.55	1.0142e-06	9.2196e-07	240.47	68.83	52.822	15.902	8.6936e-07	21.647	105.738	2.864	130.451	-60.893	29.062	86.265	-60.687	-53.831	-3.690	242.189	-53.806	-47.382	-47.412	-40.315	79.287	-40.711	-8191	255	
2021.277	1	1	0	0	0.1985	0.078589	0.077696	0.034693	0.22303	0.20384	0.075277	0.34089	0.059273	0.087273	0.072069	0.042599	0.07305	0.21799	0.16836	0.2685	-3.8708	-3.8604	-4.5021	-4.1542	-3.9562	-4.4313	-4.0062	-4.3083	-4.1146	-3.8812	-4.4083	-3.9938	-4.0042	-4.3917	-3.8875	-4.2521	23.853	42.675	109.989	144.202	236.921	193.189	92.246	159.092	258.560	-53.906	59.807	-16.204	-69.438	76.117	149.508	-45.949	4.0899e-05	0.00010831	5.9245e-05	1250.2	2.4291e-06	1.1006e-06	1313.3	258.15	2.5377e-07	1.8809e-06	321.6	89.769	70.643	20.444	1.1494e-06	28.821	9.1444e-05	8.37e-05	2.2082e-05	1015.3	9.8403e-07	8.9597e-07	1077.3	208.74	9.5688e-07	8.8765e-07	240.98	69.136	52.516	15.77	8.8205e-07	21.682	241.705	19.832	161.243	-60.390	14.357	-23.939	-60.462	-53.566	247.955	23.687	-53.977	-47.339	-46.938	-40.395	89.874	-40.714	-8191	255	
2021.373	1	1	0	0	0.065303	0.1085	0.14471	0.095538	0.16053	0.12138	0.11537	0.22153	0.18879	0.13596	0.28767	0.17795	0.093296	0.062713	0.065568	0.11401	-4.0188	-3.8792	-4.6354	-4.3542	-3.9188	-4.4146	-4.0563	-4.2833	-4.0813	-3.9562	-4.3125	-4.1896	-4.0479	-4.4583	-3.8438	-4.275	-19.096	-34.411	179.957	284.747	116.175	-28.512	168.462	189.216	112.244	93.953	226.626	-17.996	235.135	160.552	139.072	241.256	0.00012963	0.00027459	5.0664e-05	1249.7	9.1909e-07	1.7445e-06	1313.5	258.05	2.2983e-06	1.8482e-06	321.63	89.773	70.823	20.434	2.7482e-06	28.552	8.5667e-05	7.9705e-05	2.2832e-05	1013.4	9.3233e-07	8.5943e-07	1077.2	208.8	9.1201e-07	8.5531e-07	242.15	69.038	52.324	15.674	9.4767e-07	21.587	119.433	14.516	223.078	-60.675	-26.922	-10.759	-60.735	-53.681	41.955	19.652	-53.721	-47.264	-47.120	-40.037	160.598	-40.662	-8191	255	
2021.470	1	1	0	0	0.11961	0.28222	0.15084	0.038278	0.12154	0.22475	0.16273	0.3147	0.10389	0.17416	0.11982	0.14172	0.24034	0.13776	0.027898	0.12222	-4.0875	-3.8312	-4.3438	-4.3542	-3.9813	-4.5	-4.2708	-4.3104	-4.4625	-4.025	-4.5083	-4.3021	-3.8563	-4.3333	-4.1042	-4.0625	36.405	262.825	116.420	271.633	-21.562	175.952	185.335	252.736	186.209	66.610	272.968	174.918	-43.396	163.763	-22.842	218.871	0.00017468	0.00013856	5.3607e-05	1241.7	3.1684e-06	1.2773e-06	1311.6	257.27	3.0774e-06	1.0369e-06	320.8	90.29	70.273	20.358	1.9332e-06	28.489	8.2394e-05	7.6367e-05	2.4182e-05	1009.1	8.8934e-07	8.2816e-07	1079.3	207.59	8.8284e-07	8.4293e-07	242.85	68.724	51.921	15.711	9.9904e-07	21.462	80.591	165.525	58.329	-60.495	37.392	69.727	-60.624	-53.506	95.109	152.053	-53.851	-47.053	-46.842	-40.117	98.309	-40.807	-8191	255	
2021.566	1	1	0	0	0.21283	0.271	0.2146	0.069648	0.18063	0.13071	0.11863	0.19071	0.15977	0.089091	0.17671	0.16038	0.073772	0.31401	0.077459	0.094464	-4.0896	-3.9542	-4.4125	-4.4896	-3.825	-4.3833	-4.2792	-4.1792	-4.4292	-3.7625	-4.3042	-4.2875	-3.9521	-4.4208	-4.0938	-4.0521	273.720	93.228	86.369	267.378	242.477	-58.756	198.596	256.009	153.671	117.074	-51.574	133.797	-12.761	-39.771	78.387	176.750	0.00017866	0.00011055	8.6568e-06	1247	3.0831e-06	1.1654e-06	1309.3	256.95	7.9416e-07	8.0959e-07	319.81	89.918	70.483	20.38	2.8656e-06	28.481	8.0798e-05	7.945e-05	2.5733e-05	1009.1	8.8196e-07	8.7782e-07	1080.6	207.22	8.7614e-07	9.0292e-07	243.76	68.537	51.868	15.816	1.0085e-06	21.334	82.536	-58.973	46.313	-60.444	38.585	108.768	-60.613	-53.425	174.702	121.802	-54.011	-47.042	-46.723	-40.373	67.738	-40.529	-8191	255	
2021.662	1	1	0	0	0.24049	0.17097	0.091392	0.22612	0.23991	0.1522	0.13462	0.22823	0.070271	0.11454	0.23421	0.085612	0.22033	0.20575	0.21254	0.13887	-4.1271	-3.9646	-4.1229	-4.3104	-3.8292	-4.3479	-4.3438	-4.2479	-4.3521	-3.9479	-4.2562	-4.3792	-4.0062	-4.3208	-4.2667	-3.9062	244.980	275.879	251.229	243.079	118.188	220.641	-7.134	207.675	205.602	269.178	204.876	-25.980	102.495	33.389	272.578	153.065	0.00041109	0.00032115	5.8392e-05	1243.1	1.2454e-06	7.6208e-07	1308.1	257.71	5.4674e-07	1.0742e-06	319.19	89.511	70.587	20.282	1.8108e-06	28.559	7.8307e-05	8.4099e-05	2.5245e-05	1005.4	8.5053e-07	9.3299e-07	1078.6	206.45	8.3885e-07	9.4385e-07	242.08	68.001	51.448	15.926	9.6323e-07	21.186	111.826	138.688	-35.186	-60.521	-24.113	206.482	-60.726	-53.441	40.148	60.605	-53.809	-47.595	-46.894	-40.057	6.182	-40.919	-8191	255	
2021.782	1	1	0	0	0.19194	0.15419	0.18261	0.17347	0.10927	0.20687	0.26573	0.084986	0.1242	0.16892	0.11597	0.17353	0.12147	0.23739	0.11611	0.18601	-3.9979	-4.0542	-3.9896	-4.4646	-3.9813	-4.2479	-4.3354	-3.8396	-4.4458	-4.0208	-4.1312	-4.4354	-3.9417	-4.1521	-4.2208	-4.0042	178.004	195.868	43.253	224.773	116.372	115.677	263.322	15.342	182.807	222.040	127.801	1.055	93.363	167.988	163.202	271.982	0.00025072	0.00015693	0.00010816	1245.4	2.2669e-06	1.5899e-06	1309.4	257.35	9.9071e-07	7.9056e-07	320.93	89.342	70.548	20.298	4.0954e-07	28.401	7.7162e-05	8.92e-05	2.411e-05	1001.7	8.5234e-07	9.8181e-07	1074.5	205.8	8.483e-07	9.8572e-07	241.11	67.716	51.676	15.986	9.0779e-07	21.067	113.015	111.967	279.027	-60.636	60.615	57.945	-60.627	-53.535	281.106	163.738	-53.723	-47.607	-46.793	-40.163	13.651	-40.583	-8191	255	
2021.877	1	1	0	0	0.13146	0.19191	0.34276	0.082257	0.14602	0.22899	0.18517	0.25372	0.050129	0.017857	0.1825	0.057463	0.21726	0.21135	0.10798	0.044981	-4.0458	-4.0938	-4.0625	-4.5375	-3.9188	-4.1875	-4.4771	-4.0479	-4.4021	-4.0437	-4.0646	-4.55	-3.9417	-4.0604	-4.4229	-3.9396	15.390	30.090	19.309	20.283	174.717	235.067	247.501	-23.669	-63.482	183.895	33.649	286.907	62.693	214.033	31.732	205.921	0.00023177	0.00018584	8.313e-05	1241.9	2.2803e-06	3.7409e-07	1309.8	256.71	1.8751e-06	4.9454e-07	319.84	89.92	70.578	20.376	2.3238e-06	28.307	8.0465e-05	8.9845e-05	2.2829e-05	998.43	8.8612e-07	9.8151e-07	1073.1	205.5	9.0836e-07	9.6567e-07	240.13	67.773	52.074	15.934	8.7854e-07	21.014	62.564	-38.579	275.297	-60.453	46.262	94.285	-60.511	-53.384	155.758	-70.142	-53.841	-47.151	-47.653	-39.859	98.341	-40.790	-8191	255	
2021.973	1	1	0	0	0.12509	0.19173	0.31453	0.17688	0.11312	0.072236	0.34853	0.10765	0.26404	0.23844	0.092715	0.1145	0.20079	0.15219	0.14448	0.12516	-3.8458	-4.2125	-3.9396	-4.5167	-3.9604	-3.9708	-4.5312	-3.9104	-4.275	-4.2854	-3.8479	-4.4146	-3.9562	-4.0417	-4.4125	-3.9042	271.571	-18.121	184.490	244.196	-57.690	71.937	214.765	259.562	229.600	-70.856	198.826	-67.959	118.996	-19.130	236.006	216.569	0.00027494	0.00015768	3.3755e-05	1243	2.4392e-06	5.3903e-07	1308.4	256.15	1.2521e-06	1.4376e-06	321.13	89.307	70.366	20.311	2.9267e-07	28.322	8.6063e-05	8.732e-05	2.2231e-05	1000.1	9.5596e-07	9.5355e-07	1071.7	205.24	9.7187e-07	9.4526e-07	240.22	67.686	52.49	15.85	8.6423e-07	21.11	80.518	255.523	-37.711	-60.556	116.676	-14.911	-60.550	-53.577	236.044	34.882	-53.755	-47.436	-47.468	-39.700	110.337	-40.443	-8191	255	
2022.069	1	1	0	0	0.04383	0.29812	0.16032	0.072613	0.24655	0.030838	0.099745	0.03639	0.12794	0.19844	0.214	0.11356	0.1734	0.15566	0.17248	0.026924	-3.8771	-4.1625	-3.8083	-4.5792	-4.0771	-3.9083	-4.525	-4.0375	-4.0875	-4.3812	-3.9042	-4.4313	-4.2083	-4.0604	-4.2958	-4.0625	264.304	33.233	-65.666	282.768	220.448	110.114	197.121	279.206	-70.604	154.691	258.302	278.363	200.271	23.236	43.527	218.209	0.00015475	0.00013206	2.1766e-05	1242.5	9.104e-07	2.4966e-06	1308.6	256.86	2.2777e-06	2.3721e-07	321.53	89.297	70.22	20.406	1.6368e-06	28.54	9.0775e-05	8.4912e-05	2.188e-05	1002.2	1.0013e-06	9.2375e-07	1070.6	206.4	1.0068e-06	9.1304e-07	240.02	68.158	52.542	15.767	8.4718e-07	21.297	-3.750	-66.258	233.017	-60.484	213.050	80.468	-60.618	-53.793	44.625	20.972	-53.872	-47.354	-46.587	-40.542	57.668	-41.282	-8191	255	
2022.165	1	1	0	0	0.1609	0.14706	0.13833	0.079864	0.33913	0.061894	0.36708	0.14441	0.097935	0.01129	0.085676	0.27909	0.25417	0.17178	0.13362	0.13962	-3.8021	-4.325	-3.9979	-4.4042	-4.025	-3.9104	-4.5875	-4.0167	-4.1958	-4.35	-3.9042	-4.3833	-4.2312	-3.9021	-4.4708	-4.0354	-64.822	10.090	270.581	247.656	285.352	156.199	165.948	177.375	-49.071	33.914	-17.246	89.647	-70.361	281.665	37.166	-67.554	0.00010531	6.0245e-05	4.8146e-05	1242.7	3.9248e-06	1.014e-06	1308.2	257.09	1.2352e-06	1.9539e-06	320.84	88.897	70.962	20.409	9.4913e-07	28.357	9.1202e-05	8.2258e-05	2.1497e-05	1005.2	9.937e-07	9.0715e-07	1070.9	207.4	9.906e-07	8.9743e-07	239.79	68.637	52.545	15.792	8.5955e-07	21.526	65.874	280.636	-27.372	-60.476	24.650	101.080	-60.538	-53.775	253.516	220.811	-53.890	-47.754	-47.338	-40.048	174.867	-40.891	-8191	255	
2022.261	1	1	0	0	0.063052	0.1388	0.067191	0.16856	0.16836	0.13629	0.12939	0.32518	0.3295	0.11765	0.097217	0.19484	0.19104	0.11766	0.056505	0.040935	-3.6271	-4.675	-3.8292	-4.4729	-4.2792	-4.0563	-4.4292	-4.1375	-3.9188	-4.3896	-3.9917	-4.1792	-4.2458	-3.8937	-4.3521	-4.2021	-22.323	287.931	103.021	269.364	-70.769	197.509	159.236	270.452	196.171	14.383	13.117	268.417	8.946	-22.769	107.153	91.546	0.00017045	6.1878e-05	1.217e-05	1240	1.7188e-06	2.5853e-06	1309.6	257.26	1.6587e-06	1.3577e-06	320.23	89.779	70.561	20.447	1.1105e-06	28.623	8.8928e-05	8.2264e-05	2.1859e-05	1009.3	9.576e-07	8.8706e-07	1073.5	208.5	9.5582e-07	8.7858e-07	240.73	69.258	52.368	15.721	9.1435e-07	21.686	133.004	-18.467	102.388	-60.645	54.815	35.676	-60.655	-53.464	-23.531	256.359	-53.661	-47.413	-46.943	-40.592	182.065	-40.700	-8191	255	
2022.358	1	1	0	0	0.073685	0.11012	0.13827	0.043993	0.11536	0.1808	0.18868	0.10108	0.16729	0.14027	0.13673	0.0048718	0.073173	0.24829	0.17169	0.059903	-3.7479	-4.4313	-3.8042	-4.2542	-4.2292	-3.7854	-4.3979	-4.1833	-4.0125	-4.4625	-4.0188	-4.0667	-4.3708	-3.9	-4.2833	-4.3958	263.494	-33.789	-5.388	161.444	236.019	172.295	-33.905	278.893	54.487	261.054	-62.155	0.840	74.969	195.256	228.745	203.609	0.00011265	0.00015903	3.4455e-05	1243.9	2.5137e-06	6.6402e-07	1306.1	257.48	1.867e-06	1.0712e-06	320.11	89.497	70.58	20.311	1.1069e-06	28.568	8.7098e-05	8.0107e-05	2.3573e-05	1011.4	9.3587e-07	8.7246e-07	1077.5	208.63	9.3638e-07	8.5694e-07	242.5	69.019	52.185	15.732	9.8593e-07	21.624	209.316	287.816	107.543	-60.729	288.373	-70.752	-60.485	-53.552	51.576	-42.497	-53.766	-47.320	-46.958	-40.285	181.744	-40.751	-8191	255	
2022.478	1	1	0	0	0.058896	0.22256	0.0079974	0.386	0.24338	0.22734	0.22423	0.10917	0.14084	0.10162	0.022074	0.18777	0.19141	0.086774	0.25095	0.07816	-3.4396	-4.5042	-4.0104	-3.9729	-4.3688	-4	-4.4396	-4.2417	-3.8688	-4.5104	-4.0167	-4.025	-4.4271	-3.925	-4.175	-4.3375	-4.972	270.704	55.261	-63.553	-43.479	-27.034	236.470	177.255	275.671	174.895	189.520	172.815	279.311	263.633	136.190	203.998	6.0972e-05	0.00022718	2.0874e-05	1245.3	2.1851e-06	2.9385e-06	1304.5	258.82	8.3571e-07	2.162e-06	320.23	89.553	70.797	20.498	1.809e-06	28.412	8.4691e-05	7.9327e-05	2.5346e-05	1010.4	9.151e-07	8.663e-07	1078.2	208.17	9.0539e-07	8.683e-07	243.4	68.758	51.942	15.792	1.0225e-06	21.442	-2.905	-34.047	216.967	-60.557	24.052	49.486	-60.503	-53.303	-5.997	88.990	-53.770	-47.519	-47.224	-40.171	252.750	-40.681	-8191	255	
2022.574	1	1	0	0	0.14993	0.089926	0.15256	0.057257	0.34819	0.024239	0.12472	0.023221	0.16194	0.16864	0.13435	0.18864	0.20426	0.21296	0.14188	0.18156	-3.4625	-4.2562	-4.1167	-4.1333	-4.3604	-3.9542	-4.3292	-4.1937	-3.9354	-4.4667	-4.1062	-3.8521	-4.4083	-3.8917	-4.0437	-4.3187	74.640	-14.178	30.832	215.591	64.197	224.751	217.860	60.670	222.334	242.522	-43.158	196.696	212.761	-48.071	202.937	239.980	0.00014224	0.00045118	3.9816e-05	1249	1.7193e-06	2.384e-06	1312.5	257.52	1.511e-06	9.7472e-07	321.33	89.437	70.635	20.346	2.9097e-06	28.453	8.1321e-05	8.1627e-05	2.6135e-05	1009.2	8.7753e-07	9.0758e-07	1080.4	207.47	8.8341e-07	9.252e-07	244.03	68.451	51.846	15.877	1.0213e-06	21.356	188.768	54.972	32.996	-60.470	103.192	150.384	-60.476	-53.461	283.502	179.082	-53.941	-47.025	-46.970	-40.140	24.688	-40.975	-8191	255	
2022.671	1	1	0	0	0.078048	0.079864	0.11437	0.24886	0.38418	0.15381	0.071691	0.12583	0.096583	0.40202	0.038109	0.022124	0.24643	0.093886	0.21304	0.04845	-3.5271	-4.3688	-4.2729	-3.9229	-4.3479	-3.8812	-4.2562	-4.4271	-3.9333	-4.2125	-4.3917	-3.8833	-4.3229	-4.0229	-4.1021	-4.5021	34.276	25.516	144.053	-70.297	45.668	155.811	284.284	236.595	212.436	191.207	-71.085	275.845	215.892	245.403	283.306	73.966	6.1911e-05	0.0001249	5.5674e-05	1247.1	1.6451e-06	9.9799e-07	1312.8	257	4.7826e-07	1.5297e-06	320.55	89.558	70.63	20.345	1.3136e-06	28.511	7.9281e-05	8.71e-05	2.5469e-05	1006.2	8.5932e-07	9.6793e-07	1079.9	206.76	8.5886e-07	9.7816e-07	242.36	68.237	51.652	16.005	9.7069e-07	21.237	169.570	43.548	35.252	-60.486	271.923	187.843	-60.562	-53.513	181.593	172.857	-53.597	-47.497	-47.159	-40.057	55.054	-40.418	-8191	255	
2022.742	1	1	0	0	0.23239	0.14614	0.11755	0.4188	0.093324	0.24266	0.28724	0.18208	0.12216	0.093787	0.26811	0.20441	0.1073	0.071791	0.052068	0.17686	-3.5333	-4.1875	-4.3083	-4.0521	-4.4854	-4.0312	-4.0479	-4.5771	-3.775	-4.1479	-4.1542	-3.8833	-4.3708	-4.0417	-3.9396	-4.6229	227.324	104.628	-34.047	184.314	92.541	139.929	253.281	275.500	112.456	56.122	279.728	-40.432	-60.506	-63.489	-57.413	265.963	0.00024271	3.6516e-05	5.219e-05	1241.6	8.812e-07	1.8753e-06	1310.8	257.68	5.4908e-07	9.5972e-07	320.94	89.337	70.355	20.292	2.2147e-06	28.658	7.9026e-05	9.1798e-05	2.4335e-05	1003.3	8.7902e-07	1.0286e-06	1077	206.68	9.0878e-07	1.0406e-06	242.33	68.155	52.143	16.159	9.6208e-07	21.25	50.426	223.623	281.030	-60.582	95.242	-16.593	-60.523	-53.772	165.529	64.307	-53.750	-47.384	-47.502	-40.242	-9.918	-41.294	-8191	255	
2022.861	1	1	0	0	0.17371	0.15254	0.024169	0.27266	0.085063	0.32631	0.28248	0.23336	0.045914	0.042544	0.21223	0.048326	0.27896	0.086467	0.048534	0.10352	-3.625	-4.1667	-4.3229	-3.9625	-4.1771	-4.0667	-4.0083	-4.4875	-4.0208	-4.275	-4.3167	-3.8521	-4.4542	-4.0875	-3.9938	-4.3812	70.167	189.580	252.056	206.666	154.528	-4.867	201.306	245.617	37.852	52.463	218.013	2.260	-42.460	-57.748	178.044	20.699	0.00018214	0.00010802	4.6313e-05	1247.3	1.3519e-06	1.6496e-06	1312.7	257.23	1.3728e-06	1.3802e-06	320.82	89.329	70.017	20.548	1.967e-06	28.614	8.6271e-05	9.5456e-05	2.4068e-05	1004.1	9.5131e-07	1.0284e-06	1077.1	206.43	9.6735e-07	1.0198e-06	241.66	67.933	52.566	16.086	9.2434e-07	21.211	90.181	42.735	-59.532	-60.584	216.076	32.956	-60.627	-53.833	178.728	76.185	-53.897	-47.282	-46.813	-40.601	36.975	-40.659	-8191	255	
2022.957	1	1	0	0	0.12024	0.1159	0.048681	0.13199	0.27204	0.25079	0.21331	0.018858	0.17426	0.1181	0.041615	0.064765	0.23163	0.28686	0.33372	0.1064	-3.5833	-4.0938	-4.3938	-4.0521	-4.1833	-4.15	-4.1083	-4.5396	-4.0104	-3.9104	-4.5	-3.8563	-4.2167	-4.4062	-3.8937	-4.4563	177.832	9.074	-16.739	166.490	-38.124	-50.119	244.548	225.576	31.231	-26.849	56.771	-60.049	278.346	-45.511	90.892	8.908	0.00022375	0.00020266	2.579e-05	1244.3	2.4745e-06	1.6318e-06	1309.5	257.29	4.6044e-07	2.6377e-06	320.79	88.951	70.375	20.565	1.0989e-06	28.435	9.1146e-05	9.1286e-05	2.3285e-05	1002.9	1.0092e-06	9.8524e-07	1074	206.55	1.0207e-06	9.7043e-07	240.98	67.98	52.906	15.945	8.9109e-07	21.239	34.676	-63.566	6.655	-60.564	84.615	257.641	-60.371	-53.527	44.087	1.555	-53.870	-47.520	-47.014	-40.378	40.872	-40.722	-8191	255	
2023.053	1	1	0	0	0.13067	0.36048	0.054226	0.026454	0.11521	0.12402	0.039491	0.15287	0.070272	0.12651	0.14585	0.075458	0.29114	0.26274	0.095035	0.14614	-3.8229	-4.0708	-4.375	-3.9688	-4.1708	-4.3104	-3.9188	-4.4771	-4.0583	-4.0854	-4.4792	-4.0833	-4.1833	-4.3375	-3.8292	-4.3438	-69.138	196.185	131.242	208.901	-59.092	14.964	36.320	-4.774	35.449	155.054	2.169	-52.125	236.970	-16.437	134.992	-38.412	6.934e-05	0.00011485	3.8181e-05	1245.5	2.0603e-06	3.2418e-06	1310.7	257.15	1.6592e-06	7.5206e-07	319.17	89.777	70.176	20.365	6.5467e-07	28.376	9.4042e-05	8.6616e-05	2.2511e-05	1005.1	1.0352e-06	9.3154e-07	1073.2	206.85	1.0198e-06	9.2476e-07	240.05	68.491	52.821	15.794	8.6142e-07	21.416	106.142	8.808	-54.618	-60.477	134.179	43.335	-60.326	-53.516	27.505	80.204	-53.910	-47.435	-47.182	-40.461	1.811	-40.191	-8191	255	
2023.150	1	1	0	0	0.10403	0.15806	0.084927	0.075928	0.17906	0.10555	0.21931	0.035061	0.16868	0.16558	0.24	0.24427	0.2218	0.081477	0.049073	0.20017	-3.7604	-3.8083	-4.4646	-4.3583	-4.2562	-4.3958	-4.0792	-4.1687	-4.125	-3.9729	-4.3208	-4.1729	-4.0208	-4.5563	-3.9104	-4.3063	-42.468	83.605	34.575	-59.721	248.766	283.259	157.876	232.832	183.712	-19.258	-20.059	-70.262	-30.131	58.661	79.173	173.384	4.4891e-05	0.00026429	4.1892e-05	1243.5	3.6037e-06	3.8536e-07	1307.9	257.43	1.5992e-06	1.9186e-06	319.97	89.198	70.602	20.408	8.0149e-07	28.51	9.1796e-05	8.3224e-05	2.1611e-05	1006.7	9.8228e-07	8.9019e-07	1071.1	207.68	9.7482e-07	8.8172e-07	239.51	68.57	52.355	15.735	8.4223e-07	21.528	40.097	55.305	286.158	-60.453	59.667	-5.600	-60.681	-53.510	-9.767	-20.915	-53.665	-46.955	-46.975	-40.318	180.847	-40.186	-8191	255	
2023.270	1	1	0	0	0.073807	0.18286	0.27589	0.085212	0.13292	0.037887	0.14108	0.31259	0.13181	0.27383	0.13193	0.20784	0.029766	0.14372	0.119	0.31186	-3.8354	-3.8187	-4.2438	-4.25	-3.9771	-4.5062	-4.2917	-4.4396	-4.3333	-4.1562	-4.4187	-4.0875	-4.0708	-4.3646	-3.9667	-4.2208	22.414	47.214	-55.188	95.023	-31.455	151.691	220.069	213.139	56.700	-15.497	156.163	77.486	-12.750	185.685	132.015	265.856	0.00010025	1.4102e-05	2.5453e-05	1241.7	2.4996e-06	2.22e-06	1305.2	256.57	3.8823e-07	1.714e-06	318.55	89.721	70.817	20.376	6.8995e-07	28.336	8.5896e-05	7.8943e-05	2.1321e-05	1005.8	9.2478e-07	8.4953e-07	1069.8	207.65	8.9983e-07	8.4382e-07	239.92	68.637	52.06	15.611	8.8427e-07	21.489	58.675	214.873	251.613	-60.486	1.845	1.300	-60.543	-53.631	31.194	67.412	-54.026	-47.197	-47.115	-40.513	161.239	-40.452	-8191	255	
2023.366	1	1	0	0	0.068827	0.16798	0.15306	0.044508	0.12723	0.08026	0.26335	0.41998	0.18134	0.19173	0.15253	0.18749	0.073736	0.062451	0.13393	0.12984	-3.8667	-3.8563	-4.3688	-4.1708	-4.05	-4.5104	-4.1646	-4.2	-4.2937	-3.7188	-4.3396	-4.2312	-3.9688	-4.5854	-4.0167	-4.2896	55.118	49.479	-64.303	252.315	248.705	279.038	219.469	261.814	132.787	102.811	-38.527	143.864	165.582	36.404	161.340	74.629	0.00012931	0.00018225	2.4017e-05	1240.5	1.297e-06	3.675e-06	1309.5	258.26	1.5782e-06	5.8493e-07	320.09	89.015	70.269	20.305	8.2277e-07	28.623	8.1375e-05	7.5653e-05	2.2685e-05	1004.8	8.7869e-07	8.2236e-07	1074.3	207.94	8.7183e-07	8.1792e-07	241.16	68.317	51.718	15.539	9.3595e-07	21.381	73.269	-30.806	108.303	-60.586	-9.433	39.614	-60.646	-53.461	176.412	45.982	-53.524	-47.464	-46.832	-40.415	28.056	-40.430	-8191	255	
2023.462	1	1	0	0	0.091498	0.1963	0.025941	0.10854	0.073807	0.12902	0.29691	0.12609	0.12316	0.051188	0.1865	0.2915	0.10999	0.24984	0.097195	0.11421	-4.1208	-3.9125	-4.2417	-4.3042	-3.8083	-4.2875	-4.1687	-4.1167	-4.3104	-3.85	-4.4104	-4.3458	-3.8625	-4.4	-4.25	-4.0833	38.917	63.133	32.866	224.271	239.261	-3.342	192.237	249.309	286.883	250.641	-68.368	246.431	-61.337	129.655	47.037	85.792	6.8094e-05	0.00033157	2.5308e-05	1240.8	2.1553e-06	1.3013e-06	1306.3	256.37	3.253e-07	1.7782e-06	320.27	89.19	70.349	20.263	7.7619e-07	28.287	7.8426e-05	7.4445e-05	2.3879e-05	1003	8.5913e-07	8.1468e-07	1075	206.26	8.3825e-07	8.2039e-07	241.52	67.871	51.535	15.591	9.6427e-07	21.198	135.953	73.103	54.310	-60.512	63.593	-1.751	-60.451	-53.869	70.452	83.821	-53.445	-47.638	-47.193	-40.115	12.381	-41.602	-8191	255	
2023.559	1	1	0	0	0.061006	0.076607	0.16712	0.089786	0.26737	0.10956	0.13779	0.24153	0.11182	0.19337	0.1107	0.18563	0.12797	0.12161	0.047662	0.097293	-3.9521	-3.8833	-4.3479	-4.2896	-3.8438	-4.3667	-4.3167	-3.9	-4.6208	-3.8542	-4.2188	-4.525	-3.85	-4.3625	-4.0563	-4.0958	-39.147	10.512	210.876	-21.053	192.816	255.874	278.731	123.632	278.476	208.054	201.161	270.479	280.624	81.976	265.333	76.642	0.0001917	0.00018393	4.6789e-05	1239.7	1.642e-06	1.8221e-06	1310.4	257.39	1.4183e-06	1.7313e-06	319.06	89.598	70.624	20.284	1.2005e-06	28.375	7.5431e-05	7.7753e-05	2.4438e-05	1000.5	8.1928e-07	8.5716e-07	1075.9	205.96	8.1071e-07	8.6873e-07	241.58	67.665	51.191	15.7	9.3564e-07	21.011	32.689	76.990	18.505	-60.439	79.666	160.932	-60.438	-53.393	100.732	128.627	-53.927	-47.621	-46.983	-40.214	100.319	-40.595	-8191	255	
2023.655	1	1	0	0	0.27689	0.15377	0.053564	0.17372	0.16771	0.16807	0.14114	0.15082	0.16354	0.13965	0.079225	0.11181	0.15881	0.24627	0.073427	0.18178	-3.925	-3.7542	-4.2229	-4.4458	-3.7521	-4.3063	-4.3375	-3.9062	-4.4	-4.0479	-4.2021	-4.5646	-4.0437	-4.3854	-4.4146	-4.0687	-64.206	199.620	160.057	181.344	234.438	135.398	221.023	49.273	140.907	-58.533	249.089	170.484	215.097	262.377	139.937	194.962	0.00032392	0.0002322	4.0262e-05	1240.4	1.4221e-06	1.8822e-06	1310.1	256.26	9.2517e-07	1.1472e-06	319.76	89.219	70.229	20.339	8.8745e-07	28.445	7.2678e-05	8.1508e-05	2.3407e-05	998.1	7.9847e-07	9.0787e-07	1072	205.02	7.9761e-07	9.2761e-07	240.69	67.323	51.13	15.81	8.8293e-07	20.902	67.856	117.790	-19.354	-60.539	-28.805	178.093	-60.364	-53.502	33.256	188.822	-53.757	-47.321	-46.757	-40.463	158.827	-40.986	-8191	255	
2023.751	1	1	0	0	0.07658	0.10872	0.12009	0.10637	0.10984	0.28053	0.11852	0.27028	0.1724	0.078339	0.28325	0.092851	0.25863	0.13918	0.042595	0.29249	-4.1167	-4.0312	-3.9729	-4.5375	-3.9521	-4.25	-4.55	-3.9917	-4.4271	-4.0229	-4.2021	-4.4417	-3.9417	-4.0083	-4.3125	-3.9125	123.232	170.452	195.529	-31.343	202.294	-28.466	166.440	254.906	-34.083	7.952	224.510	256.593	202.996	-18.863	109.087	279.992	0.00013661	0.00015192	5.0868e-05	1238.5	9.9514e-07	1.9217e-06	1303.9	255.21	1.1367e-06	1.2587e-06	318.4	88.916	70.002	20.204	4.2543e-07	28.577	7.3371e-05	8.4514e-05	2.2144e-05	995.74	8.1475e-07	9.3032e-07	1069.1	204.3	8.2799e-07	9.3358e-07	239.13	67.128	51.354	15.828	8.6397e-07	20.875	115.427	40.169	278.084	-60.500	162.406	32.785	-60.556	-53.527	270.590	151.075	-53.707	-47.178	-46.850	-40.297	181.904	-40.780	-8191	255	
2023.872	1	1	0	0	0.13331	0.045629	0.10155	0.14207	0.16268	0.18343	0.1087	0.21714	0.13434	0.090988	0.31795	0.27028	0.15661	0.14169	0.073812	0.046805	-4.0708	-4.2188	-3.8375	-4.3812	-3.8771	-4.3083	-4.5188	-3.8375	-4.2833	-4.3375	-4.0312	-4.5271	-3.95	-4.2083	-4.4187	-3.9021	-1.655	91.298	264.932	268.780	94.044	-42.552	203.373	253.873	146.662	129.946	260.719	6.425	140.445	203.077	-59.516	277.023	0.00036229	9.0033e-05	2.3593e-05	1234.8	3.0891e-06	1.8168e-06	1304.8	257.05	2.5837e-06	2.6387e-06	319.5	89.237	70.184	20.301	5.1341e-07	28.382	7.9155e-05	8.5349e-05	2.1664e-05	993.77	8.7582e-07	9.3078e-07	1067	204.28	8.958e-07	9.2038e-07	238.98	67.113	51.82	15.782	8.3362e-07	20.895	73.012	281.682	-6.751	-60.343	188.583	-4.187	-60.631	-53.454	207.290	52.022	-53.609	-47.166	-47.092	-40.496	110.591	-40.753	-8191	255	
2023.966	1	1	0	0	0.018604	0.034061	0.029363	0.10082	0.11105	0.090811	0.044228	0.24939	0.086514	0.19481	0.16753	0.16511	0.20938	0.13904	0.18024	0.10919	-4.0583	-4.2312	-3.9562	-4.5792	-4.1646	-4.075	-4.5521	-4.0708	-4.2208	-4.3167	-3.8854	-4.3771	-4.0938	-3.9979	-4.3896	-4.0521	-19.390	209.417	42.759	230.224	250.435	170.948	235.279	263.107	-18.506	102.655	87.507	245.372	66.161	35.840	-60.006	2.250	0.00025836	0.00026208	2.3344e-05	1239.4	1.5179e-06	3.5775e-06	1301.7	256.95	2.5002e-07	6.1452e-07	319.26	88.757	70.208	20.363	2.7751e-06	28.239	8.4411e-05	8.2584e-05	2.1243e-05	995.69	9.3645e-07	9.014e-07	1066.8	204.88	9.5003e-07	8.8571e-07	237.98	67.288	52.155	15.68	8.1567e-07	20.916	114.929	67.459	213.759	-60.645	175.123	36.147	-60.526	-53.602	65.247	144.231	-53.830	-47.287	-47.028	-40.112	18.240	-40.394	-8191	255	
2024.038	1	1	0	0	0.13975	0.086632	0.054104	0.094485	0.091651	0.21982	0.25369	0.35725	0.21179	0.13822	0.053069	0.052715	0.1705	0.056426	0.23093	0.19739	-3.875	-4.4375	-4.0146	-4.425	-4.1729	-4.0708	-4.7375	-4.0813	-4.2083	-4.2583	-4.1062	-4.35	-4.2333	-4.1	-4.4667	-4.0563	179.728	-45.229	77.174	32.408	108.920	68.494	-65.264	206.450	202.603	131.963	-11.049	229.111	176.443	-42.209	59.467	67.848	0.00011315	0.00018963	3.3446e-05	1236.1	8.8428e-07	2.6345e-06	1307.3	256.23	4.2983e-07	7.977e-07	319.18	89.009	70.131	20.397	4.742e-07	28.296	8.6937e-05	7.9343e-05	2.0419e-05	997.43	9.4941e-07	8.5997e-07	1065.7	205.22	9.452e-07	8.6029e-07	237.89	67.767	52.116	15.634	7.9853e-07	21.203	63.733	-29.447	37.251	-60.493	52.021	76.594	-60.475	-53.424	45.608	35.686	-53.849	-47.312	-47.037	-40.360	-69.189	-40.651	-8191	255	
2024.158	1	1	0	0	0.061421	0.098157	0.050839	0.038392	0.22711	0.13465	0.14711	0.33407	0.21865	0.039432	0.056357	0.15751	0.15171	0.088602	0.11658	0.12853	-3.8958	-4.3292	-3.8542	-4.4625	-4.2229	-4.1292	-4.4729	-4.1729	-4.1104	-4.4271	-3.9062	-4.3542	-4.3292	-3.8792	-4.5208	-4.2396	-60.013	245.204	133.834	60.313	63.155	60.084	270.199	-68.862	176.050	107.353	91.075	146.673	-39.972	212.720	145.222	147.149	0.00022494	8.3942e-05	6.5672e-05	1236.3	1.6651e-06	1.8573e-06	1307.5	255.85	2.4283e-06	3.3946e-06	319.45	88.762	69.876	20.316	1.072e-06	28.096	8.5251e-05	7.6743e-05	2.0139e-05	998.89	9.1743e-07	8.3921e-07	1065.4	206.14	9.0796e-07	8.2389e-07	237.9	67.87	51.666	15.545	7.9249e-07	21.183	145.148	259.239	-16.510	-60.303	20.641	57.707	-60.648	-53.437	73.096	40.506	-53.484	-47.122	-47.043	-40.293	153.504	-40.603	-8191	255	
2024.254	1	1	0	0	0.076213	0.2411	0.23059	0.20728	0.089456	0.26044	0.26645	0.24887	0.049019	0.12325	0.059827	0.033843	0.14317	0.094251	0.19132	0.087991	-3.6146	-4.4542	-3.9521	-4.3458	-4.3146	-3.8375	-4.5687	-4.2208	-4.0813	-4.525	-3.9458	-4.3042	-4.2688	-4.0312	-4.3542	-4.1375	28.126	221.864	180.146	157.210	104.861	12.726	219.487	-63.926	124.530	134.600	109.537	164.057	241.599	218.822	223.003	-13.618	0.00026975	0.00022308	5.1273e-05	1233.5	8.3435e-07	1.0466e-06	1297.9	255.81	6.5754e-07	1.2966e-06	318.92	88.851	69.829	20.277	1.4021e-06	28.437	8.0211e-05	7.3539e-05	2.0242e-05	998.02	8.6148e-07	8.0139e-07	1061.9	205.42	8.5292e-07	7.8617e-07	238.26	67.821	51.172	15.437	8.4733e-07	21.206	-5.139	57.099	278.926	-60.448	54.557	73.783	-60.581	-53.531	139.023	0.142	-53.699	-47.292	-47.187	-40.095	194.877	-40.547	-8191	255	
2024.351	1	1	0	0	0.2187	0.032576	0.1039	0.32494	0.28111	0.14673	0.17508	0.089123	0.11394	0.13185	0.19704	0.3938	0.12989	0.16046	0.13285	0.11645	-3.5938	-4.3562	-3.8333	-4.3521	-4.3438	-3.9604	-4.45	-4.3667	-3.8583	-4.4854	-3.9604	-4.1333	-4.3167	-4.0167	-4.2625	-4.2875	49.206	219.780	20.761	266.616	30.430	79.672	235.954	261.631	23.051	147.980	189.745	170.733	4.383	23.961	-47.858	82.845	0.00028773	0.00019343	1.4317e-05	1231.1	2.194e-06	4.9343e-07	1296.6	256.82	1.2002e-06	3.0743e-07	317.72	88.871	69.595	20.382	1.0753e-06	28.238	7.7065e-05	7.1439e-05	2.1946e-05	996	8.3596e-07	7.8333e-07	1066	205.83	8.3732e-07	7.8747e-07	239.44	67.952	51.15	15.448	9.1814e-07	21.154	107.229	-57.612	232.883	-60.482	36.252	279.259	-60.432	-53.602	14.107	48.225	-53.670	-47.259	-47.135	-40.208	279.054	-40.470	-8191	255	
2024.447	1	1	0	0	0.23238	0.025989	0.16518	0.23459	0.20132	0.14462	0.32284	0.22974	0.10311	0.028422	0.21574	0.19513	0.21156	0.083433	0.25771	0.24231	-3.6625	-4.55	-4.1479	-4.1875	-4.5375	-3.9667	-4.3938	-4.3458	-3.8917	-4.3479	-4.2208	-4.1146	-4.2937	-4.0375	-4.1479	-4.3604	-12.749	155.579	263.639	-38.197	75.135	-23.809	212.862	131.988	227.518	-17.241	236.987	163.843	278.979	-55.833	218.492	-4.886	0.00017068	0.00014513	4.6541e-05	1233.9	1.84e-06	2.4736e-07	1300	255.83	1.4902e-06	1.4922e-06	317.9	88.407	69.472	20.159	2.1062e-06	28.32	7.6021e-05	7.2256e-05	2.3344e-05	995.49	8.2108e-07	7.9955e-07	1067.5	205.02	8.1882e-07	8.0703e-07	239.93	67.357	50.851	15.495	9.3487e-07	20.976	14.206	-25.774	33.255	-60.568	129.424	132.836	-60.477	-53.433	261.287	201.552	-53.461	-47.288	-46.778	-40.127	146.189	-40.727	-8191	255	
2024.543	1	1	0	0	0.16051	0.23465	0.028682	0.20532	0.15008	0.15492	0.012777	0.25725	0.13243	0.2348	0.40673	0.20065	0.078127	0.055582	0.1554	0.0077561	-3.5229	-4.3729	-4.1042	-4.2688	-4.5125	-3.8312	-4.3583	-4.2083	-3.7667	-4.2688	-4.0646	-4.0125	-4.5208	-3.9854	-4.2396	-4.4958	16.457	213.034	41.688	-55.715	161.691	40.763	285.681	260.494	115.685	29.122	253.673	-6.208	-41.325	201.375	97.635	-70.748	0.0002297	0.00022405	4.0918e-05	1232.2	1.1206e-06	3.4848e-06	1295.4	255.98	9.0649e-07	1.1766e-06	317.98	89.803	69.979	20.333	1.4978e-06	28.37	7.3583e-05	7.5771e-05	2.3616e-05	992.66	7.8737e-07	8.4199e-07	1065.1	204.11	7.8755e-07	8.5513e-07	239.94	67.404	50.751	15.631	9.0202e-07	20.905	157.023	46.224	-21.663	-60.397	287.490	180.870	-60.477	-53.523	-42.044	208.907	-53.757	-47.229	-47.125	-39.837	159.371	-40.792	-8191	255	
2024.663	1	1	0	0	0.075256	0.02456	0.047436	0.18931	0.042482	0.051865	0.22808	0.13042	0.30223	0.2277	0.15377	0.18472	0.13321	0.19141	0.070026	0.077089	-3.7062	-4.2104	-4.125	-3.9062	-4.6	-4.0646	-4.1979	-4.4583	-3.7625	-4.2312	-4.3521	-4.0271	-4.4458	-3.8875	-4.0708	-4.6021	61.521	251.875	172.352	265.558	264.840	157.710	197.380	261.606	-14.423	-36.087	142.567	-14.906	-41.097	35.982	175.142	252.140	0.00037569	5.6914e-05	3.548e-05	1229.3	2.156e-06	2.6746e-06	1294.9	254.93	1.3025e-06	1.4336e-06	316.81	88.602	69.303	20.294	4.6507e-07	28.302	7.1862e-05	8.0454e-05	2.2721e-05	989.65	7.7401e-07	8.8283e-07	1062.2	203.32	7.7521e-07	9.0101e-07	238.19	66.947	50.645	15.711	8.6076e-07	20.749	111.057	194.396	-12.402	-60.461	109.561	98.376	-60.368	-53.561	83.739	101.578	-53.959	-47.115	-47.052	-40.352	-15.301	-40.741	-8191	255	
2024.735	1	1	0	0	0.043188	0.16357	0.094286	0.081148	0.065401	0.096085	0.18687	0.24842	0.046852	0.089426	0.18452	0.088768	0.1105	0.076064	0.16867	0.030784	-3.4479	-4.1708	-4.3	-3.9333	-4.375	-4.1125	-4.1792	-4.4313	-3.975	-4.2646	-4.4083	-3.6958	-4.3917	-4.1125	-3.9542	-4.6	-9.409	19.506	2.695	235.681	189.621	-59.406	253.276	241.858	108.584	149.662	148.870	236.271	172.908	50.109	188.039	8.819	0.00010677	0.0001023	1.8642e-05	1226.5	4.6599e-07	1.1301e-06	1293.6	255.74	2.1656e-06	1.7266e-06	318.58	88.913	69.422	20.337	5.3119e-07	28.295	7.2262e-05	8.2999e-05	2.135e-05	985.79	7.9881e-07	9.1463e-07	1059.5	202.93	8.118e-07	9.0909e-07	237.31	66.636	50.936	15.728	8.2941e-07	20.691	94.952	14.929	-33.001	-60.488	-53.357	44.912	-60.574	-53.537	177.725	80.667	-53.716	-47.265	-47.030	-40.109	115.592	-40.804	-8191	255	
2024.831	1	1	0	0	0.14203	0.087408	0.17182	0.1969	0.15507	0.067995	0.021736	0.326	0.11301	0.014644	0.072859	0.20453	0.11345	0.23679	0.22995	0.081791	-3.6521	-4.1896	-4.3812	-3.9313	-4.1396	-4.2104	-3.9417	-4.5437	-3.9208	-3.9979	-4.3667	-3.9542	-4.4125	-4.2417	-3.7708	-4.3625	78.626	19.822	91.751	222.605	191.501	-51.356	232.206	217.581	87.417	193.280	271.373	270.568	177.692	214.492	228.985	-0.416	0.00039704	0.00012886	1.341e-05	1227.1	1.9338e-06	1.9532e-06	1296.7	253.7	2.9119e-06	7.9845e-07	317.23	88.318	69.958	20.328	5.3902e-07	28.217	7.8031e-05	8.2953e-05	2.0943e-05	986.75	8.6562e-07	9.0469e-07	1060.6	202.9	8.8781e-07	8.9921e-07	237.17	66.681	51.67	15.695	8.2617e-07	20.767	63.813	-23.314	270.258	-60.366	122.093	-22.745	-60.487	-53.462	141.942	120.314	-53.603	-47.321	-46.834	-40.187	58.219	-40.631	-8191	255	
2024.950	1	1	0	0	0.16164	0.058592	0.060656	0.10453	0.16472	0.18279	0.23432	0.10938	0.058207	0.16739	0.2099	0.26784	0.14404	0.2441	0.13513	0.19591	-3.7542	-4.0896	-4.3729	-3.9854	-4.2792	-4.2771	-4.0833	-4.3521	-4.0167	-4.0292	-4.5042	-3.9917	-4.3458	-4.2312	-3.9229	-4.3042	-67.029	130.522	62.033	-4.638	60.742	71.844	221.893	102.176	100.448	221.373	234.356	-66.447	90.909	279.893	-66.625	89.218	0.00032339	0.0002403	5.2391e-05	1226.4	2.1201e-06	1.4379e-06	1293.9	255.81	8.9377e-07	2.1587e-06	318.12	88.566	69.432	20.326	1.9434e-06	28.444	8.3357e-05	8.0448e-05	2.057e-05	988.09	9.2588e-07	8.7914e-07	1060.8	203.67	9.3297e-07	8.684e-07	237.12	67.105	51.97	15.629	8.1332e-07	21.012	95.156	-37.157	276.711	-60.381	189.543	57.059	-60.520	-53.592	-35.549	153.986	-53.999	-47.440	-46.830	-40.215	84.880	-40.808	-8191	255	
2025.046	1	1	0	0	0.039951	0.16793	0.15687	0.2471	0.10813	0.076367	0.10805	0.035166	0.081421	0.059686	0.17398	0.14112	0.1145	0.19862	0.137	0.14388	-3.6042	-3.9	-4.4833	-3.9896	-4.1	-4.3771	-3.8875	-4.4729	-4.05	-4.0625	-4.5292	-4.0979	-4.1188	-4.3812	-3.9375	-4.4146	36.498	180.575	211.580	240.741	-9.674	196.807	268.443	39.393	130.186	29.982	273.613	193.732	134.784	201.077	162.012	-30.043	0.00015929	0.00015064	4.7785e-05	1227.5	2.6876e-06	1.6183e-06	1294.7	255.02	2.4157e-06	2.8142e-06	316.4	88.609	69.832	20.232	1.7787e-07	28.229	8.6791e-05	7.8807e-05	2.0638e-05	990.64	9.5057e-07	8.6252e-07	1059.4	204.65	9.4607e-07	8.5154e-07	236.69	67.618	51.718	15.613	8.0204e-07	21.199	94.243	-37.538	260.827	-60.548	146.609	-3.020	-60.503	-53.621	41.435	61.030	-53.735	-47.509	-46.812	-40.434	36.759	-40.528	-8191	255	
2025.142	1	1	0	0	0.25158	0.21312	0.16224	0.22399	0.094008	0.17316	0.16974	0.16145	0.14359	0.16432	0.097863	0.28021	0.17644	0.1236	0.16608	0.24834	-3.9313	-3.7458	-4.3688	-4.15	-3.9875	-4.3729	-4.0896	-4.3021	-4.3375	-3.8729	-4.5729	-4.0479	-4.0646	-4.4729	-3.8333	-4.2292	30.134	-27.093	101.832	272.104	-5.336	-63.729	264.595	272.419	78.412	-37.872	47.601	199.633	216.179	267.552	206.172	210.894	0.0001328	6.5899e-05	3.0215e-05	1230.3	4.9892e-07	6.2979e-07	1295.7	254.7	1.8684e-06	1.2301e-06	315.7	88.687	70.364	20.31	2.2009e-06	28.182	8.5322e-05	7.8159e-05	2.0382e-05	995.38	9.2004e-07	8.4767e-07	1058.7	205.79	9.1713e-07	8.4018e-07	237.32	68.177	51.777	15.558	8.3114e-07	21.342	209.364	46.682	159.804	-60.386	223.750	-59.939	-60.472	-53.654	69.105	18.691	-53.792	-47.500	-47.129	-40.862	182.201	-40.592	-8191	255	
2025.263	1	1	0	0	0.20117	0.12986	0.036034	0.048978	0.25415	0.11699	0.31746	0.24607	0.12529	0.096129	0.118	0.21366	0.16666	0.19897	0.10739	0.09796	-3.9417	-3.8771	-4.3729	-4.1771	-3.9521	-4.3271	-4.1521	-4.3271	-4.3375	-3.8083	-4.3417	-4.0563	-3.9604	-4.3229	-3.8458	-4.1604	-19.727	19.911	115.380	18.920	-18.744	-40.878	-47.509	245.249	37.390	154.689	-21.337	-19.863	272.837	138.011	191.728	179.364	0.00010803	0.00023987	1.3859e-05	1227.5	1.376e-06	2.1191e-06	1297	255.03	1.1123e-06	1.5486e-06	317.02	88.683	69.754	20.409	1.8422e-06	28.304	8.1935e-05	7.5882e-05	2.155e-05	996.72	8.9054e-07	8.2931e-07	1063.2	205.91	8.8542e-07	8.3064e-07	238.8	68.226	51.468	15.566	9.0086e-07	21.379	24.396	285.543	116.765	-60.512	-11.797	255.063	-60.416	-53.521	73.024	-5.556	-53.419	-47.263	-47.041	-40.307	252.193	-40.905	-8191	255	
2025.335	1	1	0	0	0.055346	0.2164	0.14628	0.082493	0.14464	0.16114	0.37879	0.20418	0.19267	0.069224	0.12299	0.02538	0.18519	0.043161	0.18038	0.11056	-4.0479	-3.8417	-4.1875	-4.2604	-3.7646	-4.3667	-4.15	-4.1687	-4.3187	-3.9	-4.375	-4.3854	-3.9521	-4.4021	-4.0333	-4.2167	70.683	-13.092	133.331	182.948	47.502	239.086	232.649	-9.996	146.585	219.418	165.760	72.701	20.017	19.203	93.079	197.462	0.00018906	8.4949e-05	1.5958e-05	1231.4	8.5731e-07	7.2141e-07	1295.6	254.78	2.5942e-06	1.6372e-06	318.13	89.177	69.394	20.235	1.1564e-06	28.215	8.0491e-05	7.4146e-05	2.3052e-05	997.01	8.7215e-07	8.1726e-07	1065	205.47	8.6619e-07	8.0909e-07	239.79	67.868	51.178	15.474	9.3326e-07	21.156	125.635	167.549	248.815	-60.601	242.966	41.962	-60.575	-53.520	34.017	64.173	-53.558	-47.526	-46.996	-40.059	155.853	-40.796	-8191	255	
2025.431	1	1	0	0	0.035076	0.16557	0.11835	0.06356	0.24927	0.018823	0.14607	0.024784	0.14926	0.0024916	0.31967	0.03808	0.057935	0.13547	0.36163	0.073453	-3.9417	-3.7875	-4.2292	-4.2604	-3.7938	-4.3187	-4.1667	-4.1771	-4.3167	-3.8063	-4.2896	-4.1104	-3.8333	-4.4563	-4.1438	-4.1562	106.270	167.169	79.817	246.725	-66.164	223.619	261.166	96.256	238.512	-6.311	209.151	227.555	188.425	-71.488	123.929	56.867	0.00015789	4.9979e-05	3.6658e-05	1228.1	5.0187e-07	1.0437e-06	1293.3	255.45	1.1243e-06	8.9175e-07	316.65	89.139	70.143	20.13	1.241e-06	28.29	7.6576e-05	7.4463e-05	2.4037e-05	991.34	8.3419e-07	8.1859e-07	1064.8	204.8	8.2629e-07	8.3379e-07	240.26	67.618	51.011	15.532	9.5298e-07	21.015	162.253	-48.639	53.362	-60.720	-34.547	201.894	-60.369	-53.573	-3.421	254.231	-53.969	-47.277	-47.089	-39.835	45.925	-40.504	-8191	255	
2025.552	1	1	0	0	0.24288	0.1764	0.16958	0.18043	0.081282	0.11643	0.30296	0.051907	0.10333	0.17973	0.060569	0.12766	0.065524	0.1284	0.16944	0.2496	-4.0229	-3.9833	-4.1167	-4.4146	-3.7229	-4.2792	-4.2771	-3.9792	-4.4646	-3.9896	-4.2521	-4.3333	-3.9813	-4.2937	-4.0687	-3.9313	-47.858	150.359	-18.269	207.419	238.279	36.352	-69.566	205.537	24.636	-69.838	-57.820	-55.420	174.889	55.240	95.557	46.297	0.00015434	8.4389e-05	5.5119e-05	1224.1	1.8005e-06	1.0052e-06	1290.7	255.87	1.0375e-06	2.6573e-06	317.2	88.759	69.703	20.185	2.2913e-06	28.237	7.417e-05	7.8298e-05	2.4079e-05	988.25	8.0638e-07	8.7262e-07	1062.2	204.18	8.054e-07	8.9022e-07	239.24	67.196	50.857	15.695	9.324e-07	20.969	39.838	147.832	57.357	-60.439	36.950	93.853	-60.552	-53.406	251.789	160.266	-54.064	-47.312	-46.953	-40.187	64.353	-40.997	-8191	255	
2025.648	1	1	0	0	0.13772	0.16958	0.07906	0.16815	0.13512	0.13592	0.15194	0.1081	0.07568	0.20723	0.20034	0.13328	0.35279	0.17047	0.0086117	0.24242	-4.1312	-3.8292	-3.95	-4.5396	-4.0021	-4.2083	-4.3771	-3.8937	-4.3938	-4.0917	-4.1625	-4.3667	-3.9729	-4.2167	-4.3625	-3.8896	52.288	245.233	0.765	252.435	-21.988	142.464	249.737	272.523	108.833	262.533	-44.624	51.138	276.113	281.125	-28.548	272.920	0.00010057	4.4284e-05	4.6734e-05	1228.6	3.7687e-08	1.3907e-06	1293.4	254.36	8.8156e-07	1.4312e-06	318.92	88.709	70.13	20.257	3.1618e-06	28.27	7.3698e-05	8.4098e-05	2.3292e-05	988.76	8.0505e-07	9.3403e-07	1062	203.74	8.146e-07	9.4686e-07	239.58	67.114	51.065	15.853	8.9325e-07	20.975	36.794	-46.263	266.154	-60.565	35.246	143.285	-60.438	-53.469	29.573	87.165	-53.828	-47.591	-46.682	-40.242	25.183	-40.657	-8191	255	
2025.744	1	1	0	0	0.20223	0.25839	0.13079	0.14065	0.098185	0.10738	0.16879	0.057146	0.12535	0.15108	0.16628	0.082958	0.041028	0.27145	0.12125	0.21092	-3.8833	-3.9208	-4.0229	-4.5229	-3.8229	-4.1167	-4.3771	-4.0188	-4.4667	-4.2021	-3.9167	-4.3542	-3.9229	-4.175	-4.2771	-4.0417	192.179	198.438	280.703	225.997	19.412	58.608	197.262	194.042	35.190	65.113	284.278	205.272	-20.516	-42.095	89.563	255.127	0.00029768	5.4347e-05	5.6215e-05	1226.2	4.0051e-06	1.6002e-06	1301.7	255.52	1.4075e-06	1.7747e-06	317.41	88.573	69.341	20.107	1.5798e-06	28.325	7.7298e-05	8.8101e-05	2.2641e-05	988.23	8.5727e-07	9.672e-07	1061.9	204.01	8.7554e-07	9.6149e-07	238.64	67.023	51.565	15.832	8.7585e-07	20.875	49.164	242.392	-49.160	-60.580	169.210	185.155	-60.400	-53.372	175.107	-28.807	-53.963	-47.191	-46.944	-40.093	34.475	-40.223	-8191	255	
2025.863	1	1	0	0	0.12182	0.11644	0.23712	0.28113	0.1038	0.26556	0.13517	0.071748	0.26478	0.14146	0.24773	0.12275	0.23199	0.20684	0.15809	0.28593	-3.975	-4.1813	-3.8979	-4.4271	-3.9688	-3.9583	-4.5042	-3.8042	-4.1625	-4.2271	-3.9667	-4.5896	-4.0021	-4.1229	-4.3375	-3.6979	120.324	41.565	246.803	252.064	129.874	1.907	283.564	155.611	62.345	59.645	246.775	185.286	-64.999	251.551	165.150	261.792	0.00033566	0.00017361	1.4957e-05	1229.8	2.0639e-06	3.1929e-06	1298.5	255.94	9.2202e-07	3.5726e-06	317.87	88.411	70.218	20.364	8.7659e-07	28.424	8.2672e-05	8.7294e-05	2.2074e-05	989.62	9.2251e-07	9.4281e-07	1061.7	204.2	9.3773e-07	9.3252e-07	238.45	66.968	52.015	15.797	8.4536e-07	20.943	65.986	75.023	89.086	-60.496	145.095	4.683	-60.515	-53.676	216.345	71.082	-53.823	-47.627	-47.097	-40.268	132.147	-40.544	-8191	255	
2025.934	1	1	0	0	0.22645	0.0994	0.13042	0.21232	0.34439	0.14038	0.19551	0.19771	0.092843	0.14267	0.16915	0.34488	0.1075	0.095517	0.25397	0.17124	-3.7729	-4.3313	-3.7333	-4.5229	-4.0042	-4.1479	-4.4646	-3.9229	-3.9854	-4.2854	-4.0292	-4.3146	-4.05	-4.0312	-4.3708	-4.0458	103.935	97.243	281.881	281.680	-69.728	44.781	185.281	235.706	178.322	-25.849	214.950	249.343	14.195	204.737	-3.663	47.015	0.00024288	0.00015401	4.1145e-05	1229.5	1.613e-06	1.7295e-06	1297.8	255.63	2.1464e-06	8.0926e-07	318	88.812	69.79	20.422	6.3999e-07	28.302	8.7851e-05	8.3479e-05	2.1457e-05	990.59	9.6857e-07	9.1134e-07	1062.3	204.61	9.7605e-07	8.9946e-07	238.23	67.491	52.223	15.734	8.3115e-07	21.142	115.444	-2.791	279.955	-60.540	268.429	-27.024	-60.562	-53.782	122.392	67.836	-53.868	-47.487	-46.679	-39.738	132.360	-40.676	-8191	255	
2026.031	1	1	0	0	0.1117	0.13793	0.20177	0.32811	0.14889	0.059402	0.17151	0.15869	0.1638	0.083774	0.16676	0.096604	0.16002	0.073303	0.25868	0.15709	-3.7792	-4.1958	-3.775	-4.3604	-4.3521	-3.825	-4.6021	-4.0729	-4.125	-4.3187	-3.9938	-4.375	-4.0396	-3.9646	-4.5354	-4.1125	16.377	27.139	206.269	-62.437	-28.504	-25.850	244.974	227.347	88.524	2.440	-44.347	119.635	-39.306	30.242	9.372	72.846	6.5622e-05	5.708e-05	3.2184e-05	1227	3.3207e-06	3.6708e-07	1299.4	255.75	5.8916e-07	3.263e-06	317.83	88.628	70.057	20.346	1.7564e-06	28.489	8.9765e-05	8.0478e-05	2.1051e-05	994.55	9.6856e-07	8.8424e-07	1061.8	205.92	9.6001e-07	8.7602e-07	237.86	68.103	52.142	15.692	8.3163e-07	21.433	92.920	271.510	224.564	-60.537	56.385	83.119	-60.504	-53.468	283.767	52.436	-53.538	-47.329	-46.708	-40.449	69.077	-40.566	-8191	255	
2026.127	1	1	0	0	0.23608	0.26855	0.16023	0.1733	0.26018	0.039183	0.38404	0.13202	0.15095	0.16052	0.17664	0.086988	0.090677	0.18422	0.20966	0.16381	-3.7708	-4.4083	-3.9562	-4.4667	-4.1708	-4.0979	-4.5458	-4.0854	-4.0521	-4.4875	-4.0938	-4.3667	-4.3292	-3.8396	-4.5583	-4.2188	-34.849	37.273	-4.841	201.664	240.786	97.063	203.755	235.009	45.101	4.958	103.936	152.274	183.682	273.485	35.027	218.306	0.00019379	0.0002362	2.8179e-05	1236.9	3.6058e-07	1.4024e-06	1302.1	256.29	1.662e-06	2.504e-06	319.91	88.641	69.668	20.328	1.4119e-06	28.356	8.8124e-05	7.9708e-05	2.1095e-05	1001.6	9.4676e-07	8.6692e-07	1065.8	206.98	9.2974e-07	8.601e-07	238.63	68.524	51.917	15.626	8.5805e-07	21.463	115.248	-47.014	-30.010	-60.420	22.516	-57.590	-60.661	-53.364	79.570	-34.714	-53.506	-47.308	-47.143	-40.552	206.564	-40.499	-8191	255	
2026.247	1	1	0	0	0.18423	0.21866	0.098885	0.25033	0.20659	0.21249	0.11322	0.14723	0.14194	0.10877	0.13658	0.1427	0.37678	0.16623	0.21106	0.12037	-3.8583	-4.4583	-3.9708	-4.3812	-4.3792	-3.9604	-4.6562	-4.2167	-4.025	-4.5708	-4.0771	-4.2375	-4.2562	-3.9667	-4.3104	-4.3438	166.493	100.288	189.364	-51.582	110.059	226.511	192.367	136.423	-14.028	-19.298	94.919	197.905	10.941	234.710	88.530	113.336	9.7557e-05	0.00025185	2.5092e-05	1230.6	2.2063e-06	2.1064e-06	1301.8	256.41	1.3718e-06	1.1949e-06	318.12	89.04	70.454	20.38	5.2949e-07	28.496	8.2727e-05	7.6327e-05	2.1897e-05	1000	8.903e-07	8.3308e-07	1066.4	206.63	8.8464e-07	8.2029e-07	239.7	68.265	51.69	15.567	9.0313e-07	21.384	-8.218	14.230	125.245	-60.570	-31.526	48.108	-60.682	-53.339	11.331	43.465	-53.625	-47.261	-46.844	-40.119	161.670	-40.846	-8191	255	
2026.343	1	1	0	0	0.026908	0.16932	0.27785	0.19367	0.27351	0.23567	0.16232	0.19464	0.20998	0.16201	0.056728	0.2297	0.3431	0.18424	0.10659	0.12161	-3.6229	-4.5542	-4.125	-4.1604	-4.4729	-3.9583	-4.5083	-4.2604	-4.0333	-4.5125	-4.0833	-4.1937	-4.3875	-3.8604	-4.4021	-4.3958	87.830	210.037	15.532	-52.081	-39.579	17.045	171.850	101.584	118.604	192.861	2.721	71.617	-28.085	14.500	225.791	76.375	0.00016792	0.0002392	5.7009e-05	1233.4	3.5673e-07	1.3935e-06	1304.4	254.98	8.095e-07	1.572e-06	318.49	89.151	69.939	20.343	1.3509e-06	28.293	7.961e-05	7.4209e-05	2.3262e-05	998.02	8.638e-07	8.109e-07	1069.2	205.92	8.5556e-07	8.1441e-07	240.91	68.07	51.359	15.558	9.5605e-07	21.22	95.955	-33.731	77.315	-60.585	-37.834	255.205	-60.469	-53.500	-47.382	135.515	-53.682	-47.369	-46.973	-40.233	148.928	-40.699	-8191	255	
2026.440	1	1	0	0	0.07865	0.055896	0.21051	0.25597	0.15196	0.24036	0.13292	0.17581	0.21145	0.26136	0.32295	0.089252	0.17094	0.17411	0.1109	0.15419	-3.5354	-4.3292	-4.1229	-4.3729	-4.5354	-4.0167	-4.4625	-4.4208	-3.95	-4.3646	-4.2708	-4.2792	-4.5312	-4.0375	-4.1958	-4.4104	-62.187	279.832	179.204	-68.134	130.977	29.736	213.979	221.739	-43.615	-4.655	271.847	8.385	202.471	-65.125	90.451	232.821	9.1104e-05	0.00028151	1.872e-05	1235.3	2.8601e-06	8.0615e-07	1300.1	255.68	1.2657e-06	1.5692e-06	316.97	89.194	70.196	20.377	1.1211e-06	28.433	7.7662e-05	7.6105e-05	2.4694e-05	997.89	8.3903e-07	8.4506e-07	1071.6	205.63	8.3539e-07	8.5103e-07	240.98	67.796	51.322	15.673	9.6221e-07	21.083	55.905	17.042	-59.711	-60.501	-66.072	47.758	-60.555	-53.407	40.970	205.477	-53.707	-47.045	-46.733	-40.337	-18.382	-40.779	-8191	255	
2026.536	1	1	0	0	0.062659	0.14949	0.19031	0.052556	0.080537	0.22867	0.3949	0.24652	0.028223	0.11719	0.24083	0.032388	0.042456	0.22867	0.077693	0.16268	-3.5042	-4.3646	-4.4854	-4.2063	-4.4021	-3.9062	-4.3271	-4.4396	-4.0208	-4.5188	-4.3375	-4.1271	-4.4437	-4.3917	-4.1417	-4.3646	45.074	204.237	-34.837	-62.639	38.928	60.196	177.403	58.258	97.120	144.301	-57.228	-23.677	40.371	163.708	141.624	177.700	7.6372e-05	0.00024446	3.3434e-05	1232	6.0918e-07	1.606e-06	1296.4	255.93	9.4674e-07	1.2271e-06	318.5	89.052	69.943	20.263	1.6692e-06	28.187	7.4675e-05	8.0542e-05	2.4249e-05	995.09	8.147e-07	8.9766e-07	1068.4	205.15	8.1445e-07	9.1812e-07	240.42	67.723	50.924	15.788	9.2754e-07	20.963	53.972	146.563	-57.130	-60.488	173.144	80.425	-60.503	-53.854	109.260	173.274	-53.649	-47.277	-46.895	-40.298	-70.521	-40.610	-8191	255	
2026.632	1	1	0	0	0.1118	0.1353	0.19132	0.10474	0.23938	0.23808	0.1994	0.26222	0.063915	0.15982	0.26095	0.068596	0.1336	0.22452	0.176	0.097176	-3.4813	-4.4042	-4.2312	-3.9188	-4.4833	-3.9875	-4.3646	-4.5687	-4.0521	-4.35	-4.4	-4.0188	-4.4771	-4.2375	-4.0958	-4.5271	261.736	152.449	-7.161	-66.249	99.194	255.843	222.721	100.721	166.418	176.596	249.061	53.994	112.780	76.763	-23.706	261.956	0.00020162	0.00020837	2.3973e-05	1231.5	2.2068e-06	6.2584e-07	1298.1	256.57	1.2469e-06	4.6228e-07	319.08	89.297	70.044	20.387	2.4058e-06	28.343	7.3993e-05	8.5958e-05	2.3317e-05	991.85	8.1905e-07	9.5104e-07	1065.6	204.79	8.2732e-07	9.5352e-07	239.63	67.286	51.207	15.901	8.8684e-07	20.924	62.055	45.116	-43.896	-60.442	92.882	73.937	-60.442	-53.604	218.951	112.470	-53.645	-47.683	-47.231	-40.410	21.616	-40.586	-8191	255	
2026.728	1	1	0	0	0.085129	0.28127	0.10775	0.091347	0.16442	0.19789	0.30237	0.13171	0.27571	0.092643	0.29572	0.10729	0.051652	0.23981	0.048978	0.13986	-3.5979	-4.3125	-4.5167	-4.0521	-4.5062	-4.1604	-3.9917	-4.6083	-3.9729	-4.1479	-4.4625	-3.9	-4.5875	-4.0687	-4.05	-4.3458	65.356	259.539	-63.684	191.200	148.655	227.208	257.878	130.235	20.079	25.214	228.376	82.420	-14.080	135.279	288.128	189.018	0.00039968	0.000143	7.0802e-05	1231.7	1.8304e-06	1.8374e-06	1300.7	255.27	1.7593e-06	4.969e-07	318.49	88.749	70.378	20.472	5.4498e-07	28.301	7.7227e-05	8.7073e-05	2.2097e-05	990.52	8.6345e-07	9.5414e-07	1064.3	204.1	8.7842e-07	9.4982e-07	238.35	67.145	51.748	15.864	8.5731e-07	20.871	56.636	61.612	240.063	-60.549	144.536	-17.599	-60.614	-53.423	192.175	138.956	-53.972	-47.173	-47.169	-40.295	6.278	-40.661	-8191	255	
#DATA ENDS
