BOXY.EXE: ISS Imagent and Oximeter Data Acquisition Program Version 0.80
Ascii Record File

#ACQ INFORMATION
2  Detector Channels 
16  External MUX Channels 
1  Auxiliary Channels 
5000  Waveform (CCF) Frequency (Hz)
1  Waveforms Skipped 
30  Waveforms Averaged 
1  Cycles Averaged 
16  Acquisitions per Waveform 
10.0806  Updata Rate (Hz) 

#FILE INFORMATION
TRUE -- External MUX Channel results are PARSED.
FALSE -- AC DC and Phase are NOT grouped.
TRUE -- Companion Program Settings File CREATED.
FALSE -- AC data not excluded
FALSE -- DC data not excluded
FALSE -- Phase data not excluded
FALSE -- Auxillary Chn. data not excluded
Tab delimiters

#CALIBRATION STATE
TRUE -- Waveform Calibration Values APPLIED.


#AUX CALIBRATION VALUES
Val Type	aux-1	

Term	1.0000e+00	
Factor	0.0000e+00	


#WF CALIBRATION VALUES
A = Detector Channel
Val Type	A-AC1	A-AC2	A-AC3	A-AC4	A-AC5	A-AC6	A-AC7	A-AC8	A-AC9	A-AC10	A-AC11	A-AC12	A-AC13	A-AC14	A-AC15	A-AC16	A-DC1	A-DC2	A-DC3	A-DC4	A-DC5	A-DC6	A-DC7	A-DC8	A-DC9	A-DC10	A-DC11	A-DC12	A-DC13	A-DC14	A-DC15	A-DC16	A-Ph1	A-Ph2	A-Ph3	A-Ph4	A-Ph5	A-Ph6	A-Ph7	A-Ph8	A-Ph9	A-Ph10	A-Ph11	A-Ph12	A-Ph13	A-Ph14	A-Ph15	A-Ph16	

Term	0.00000e+00	0.00000e+00	0.00000e+00	0.00000e+00	0.00000e+00	0.00000e+00	0.00000e+00	0.00000e+00	0.00000e+00	0.00000e+00	0.00000e+00	0.00000e+00	0.00000e+00	0.00000e+00	0.00000e+00	0.00000e+00	0.00000e+00	0.00000e+00	0.00000e+00	0.00000e+00	0.00000e+00	0.00000e+00	0.00000e+00	0.00000e+00	0.00000e+00	0.00000e+00	0.00000e+00	0.00000e+00	0.00000e+00	0.00000e+00	0.00000e+00	0.00000e+00	0.00000e+00	0.00000e+00	0.00000e+00	0.00000e+00	0.00000e+00	0.00000e+00	0.00000e+00	0.00000e+00	0.00000e+00	0.00000e+00	0.00000e+00	0.00000e+00	0.00000e+00	0.00000e+00	0.00000e+00	0.00000e+00	
Factor	1.00000e+00	1.00000e+00	1.00000e+00	1.00000e+00	1.00000e+00	1.00000e+00	1.00000e+00	1.00000e+00	1.00000e+00	1.00000e+00	1.00000e+00	1.00000e+00	1.00000e+00	1.00000e+00	1.00000e+00	1.00000e+00	1.00000e+00	1.00000e+00	1.00000e+00	1.00000e+00	1.00000e+00	1.00000e+00	1.00000e+00	1.00000e+00	1.00000e+00	1.00000e+00	1.00000e+00	1.00000e+00	1.00000e+00	1.00000e+00	1.00000e+00	1.00000e+00	X	X	X	X	X	X	X	X	X	X	X	X	X	X	X	X	

B = Detector Channel
Val Type	B-AC1	B-AC2	B-AC3	B-AC4	B-AC5	B-AC6	B-AC7	B-AC8	B-AC9	B-AC10	B-AC11	B-AC12	B-AC13	B-AC14	B-AC15	B-AC16	B-DC1	B-DC2	B-DC3	B-DC4	B-DC5	B-DC6	B-DC7	B-DC8	B-DC9	B-DC10	B-DC11	B-DC12	B-DC13	B-DC14	B-DC15	B-DC16	B-Ph1	B-Ph2	B-Ph3	B-Ph4	B-Ph5	B-Ph6	B-Ph7	B-Ph8	B-Ph9	B-Ph10	B-Ph11	B-Ph12	B-Ph13	B-Ph14	B-Ph15	B-Ph16	

Term	0.00000e+00	0.00000e+00	0.00000e+00	0.00000e+00	0.00000e+00	0.00000e+00	0.00000e+00	0.00000e+00	0.00000e+00	0.00000e+00	0.00000e+00	0.00000e+00	0.00000e+00	0.00000e+00	0.00000e+00	0.00000e+00	0.00000e+00	0.00000e+00	0.00000e+00	0.00000e+00	0.00000e+00	0.00000e+00	0.00000e+00	0.00000e+00	0.00000e+00	0.00000e+00	0.00000e+00	0.00000e+00	0.00000e+00	0.00000e+00	0.00000e+00	0.00000e+00	-2.12444e+02	-1.41062e+02	-1.70892e+02	-1.83732e+02	-1.12109e+02	-1.05118e+02	-1.55012e+02	-1.62015e+02	-9.09407e+01	-9.85453e+01	-1.70533e+02	-1.70350e+02	-1.84933e+02	-1.77024e+02	-9.26801e+01	-1.49740e+02	
Factor	3.86930e-05	3.87587e-05	1.11420e-05	1.84525e-01	4.76322e-07	4.00243e-07	1.77227e-01	5.92448e-02	4.03067e-07	4.33660e-07	9.47737e-02	3.35258e-02	3.39684e-02	1.07113e-02	3.85728e-07	1.51601e-02	1.41076e-07	1.41361e-07	3.93248e-08	7.31989e-02	1.55024e-09	1.55026e-09	6.73368e-02	2.26348e-02	1.55356e-09	1.55040e-09	3.24457e-02	1.12648e-02	1.11019e-02	3.63347e-03	1.55221e-09	4.80811e-03	X	X	X	X	X	X	X	X	X	X	X	X	X	X	X	X	



#DISTANCE SETTINGS
A = Detector Channel
A-1	A-2	A-3	A-4	A-5	A-6	A-7	A-8	A-9	A-10	A-11	A-12	A-13	A-14	A-15	A-16	

2.5000e+00	3.0000e+00	2.5000e+00	3.0000e+00	2.0000e+00	3.0000e+00	1.5000e+00	3.0000e+00	3.0000e+00	3.0000e+00	3.0000e+00	3.0000e+00	3.0000e+00	3.0000e+00	1.5000e+00	3.0000e+00	

B = Detector Channel
B-1	B-2	B-3	B-4	B-5	B-6	B-7	B-8	B-9	B-10	B-11	B-12	B-13	B-14	B-15	B-16	

1.0000e+01	1.0000e+01	1.0000e+01	1.4400e+00	1.0000e+01	1.0000e+01	1.5100e+00	1.9400e+00	1.0000e+01	1.0000e+01	1.9900e+00	2.4900e+00	2.4100e+00	2.9000e+00	1.0000e+01	2.9800e+00	




#DATA BEGINS
time	group	step	mark	flag	A-AC1	A-AC2	A-AC3	A-AC4	A-AC5	A-AC6	A-AC7	A-AC8	A-AC9	A-AC10	A-AC11	A-AC12	A-AC13	A-AC14	A-AC15	A-AC16	A-DC1	A-DC2	A-DC3	A-DC4	A-DC5	A-DC6	A-DC7	A-DC8	A-DC9	A-DC10	A-DC11	A-DC12	A-DC13	A-DC14	A-DC15	A-DC16	A-Ph1	A-Ph2	A-Ph3	A-Ph4	A-Ph5	A-Ph6	A-Ph7	A-Ph8	A-Ph9	A-Ph10	A-Ph11	A-Ph12	A-Ph13	A-Ph14	A-Ph15	A-Ph16	B-AC1	B-AC2	B-AC3	B-AC4	B-AC5	B-AC6	B-AC7	B-AC8	B-AC9	B-AC10	B-AC11	B-AC12	B-AC13	B-AC14	B-AC15	B-AC16	B-DC1	B-DC2	B-DC3	B-DC4	B-DC5	B-DC6	B-DC7	B-DC8	B-DC9	B-DC10	B-DC11	B-DC12	B-DC13	B-DC14	B-DC15	B-DC16	B-Ph1	B-Ph2	B-Ph3	B-Ph4	B-Ph5	B-Ph6	B-Ph7	B-Ph8	B-Ph9	B-Ph10	B-Ph11	B-Ph12	B-Ph13	B-Ph14	B-Ph15	B-Ph16	aux-1	digaux	

3093.595	1	1	0	256	0.30526	0.17605	0.24283	0.043299	0.17	0.32134	0.20667	0.14592	0.21313	0.098088	0.19595	0.16507	0.13564	0.27796	0.082185	0.27883	-4.05	-3.8708	-3.8458	-4.3729	-3.8438	-4.2646	-4.3458	-3.8083	-4.2812	-4.075	-4.1083	-4.3875	-3.9896	-4.2604	-4.2	-3.9562	182.121	-40.620	45.248	114.150	-30.060	287.967	-23.692	276.741	231.944	67.162	217.772	-55.449	64.294	248.288	191.824	263.577	0.0003673	7.7648e-05	2.4489e-05	651.85	7.6501e-07	1.1543e-06	708.86	248.16	4.625e-07	6.0839e-07	324.44	158.69	113.92	59.274	5.3375e-07	78.604	2.1822e-05	2.3222e-05	6.5933e-06	510.86	2.2598e-07	2.6524e-07	566.05	188.26	2.2722e-07	2.7034e-07	227.43	108.94	74.358	39.764	2.5757e-07	50.817	92.162	4.700	-38.656	-58.569	61.092	59.568	-59.342	-52.909	-34.814	69.387	-55.378	-51.834	-49.601	-46.280	61.539	-48.722	-8191	255	
3093.691	1	1	0	0	0.074028	0.093864	0.2046	0.18224	0.10122	0.16535	0.066093	0.051925	0.12215	0.063793	0.083032	0.15783	0.13399	0.047845	0.18703	0.09887	-4.1021	-4.0167	-3.9396	-4.4208	-3.8771	-4.0875	-4.25	-3.9521	-4.2083	-4.1188	-3.95	-4.3604	-4.0125	-4.3167	-4.2937	-3.8583	48.300	147.881	-18.900	-41.418	49.702	266.180	33.024	178.485	109.413	83.373	102.566	277.024	285.127	262.095	-28.424	96.320	0.0004349	8.7043e-05	3.6562e-05	655.94	1.6681e-06	1.1139e-06	712	247.48	2.1596e-06	1.1505e-06	318.19	151.1	110.35	57.168	7.7582e-07	76.123	2.3084e-05	2.444e-05	6.2075e-06	513.03	2.3124e-07	2.6721e-07	567.62	187.45	2.4136e-07	2.6784e-07	222.35	104	72.158	38.413	2.4039e-07	49.075	86.895	52.801	-47.336	-58.462	81.472	1.960	-59.606	-52.959	95.503	32.828	-54.972	-51.452	-49.210	-46.095	47.864	-48.509	-8191	255	
3093.810	1	1	0	0	0.27884	0.088715	0.16455	0.094319	0.10393	0.12178	0.14811	0.25776	0.14414	0.33419	0.1591	0.23942	0.14726	0.0040965	0.20199	0.10638	-4.1271	-4.125	-3.8292	-4.3562	-3.9042	-4.0083	-4.3979	-3.9437	-4.2271	-3.9958	-4.0021	-4.4542	-4.0396	-4.0771	-4.4583	-3.9521	205.201	-42.023	60.239	-56.478	-34.058	198.377	70.817	265.361	110.277	79.953	219.035	149.185	142.753	218.039	266.286	63.356	0.0004865	0.00018459	4.0182e-05	672.55	5.6466e-07	9.9071e-07	720.4	251.27	1.9149e-06	2.3722e-07	323.75	154.95	111.91	58.542	1.4709e-06	78.788	2.3942e-05	2.294e-05	5.5949e-06	524.19	2.3452e-07	2.34e-07	572.5	189.55	2.2569e-07	2.1989e-07	225.45	106.16	73.108	39.127	2.0211e-07	50.675	88.945	5.462	-46.293	-58.292	35.236	57.792	-59.591	-53.229	55.654	15.392	-55.253	-51.563	-49.932	-46.286	-51.775	-48.896	-8191	255	
3093.907	1	1	0	0	0.10515	0.2644	0.075039	0.30636	0.12643	0.1232	0.17441	0.1779	0.16092	0.29364	0.24583	0.13434	0.051048	0.1316	0.26021	0.14665	-4.0458	-4.2063	-3.925	-4.3208	-3.9292	-3.8646	-4.4771	-3.9104	-4.2833	-4.1479	-3.9104	-4.3917	-4.1813	-4.1729	-4.3292	-4.1375	230.905	240.693	-8.865	251.771	269.181	285.805	-44.946	216.557	-55.260	120.881	203.526	220.033	182.930	192.896	132.878	271.744	0.00041537	0.00010333	5.5513e-05	648.63	2.1767e-06	6.4345e-07	709.11	250.06	8.7731e-07	1.8954e-06	331.13	161.42	114.99	59.888	1.7761e-06	80.716	2.3039e-05	2.0048e-05	5.162e-06	508.22	2.4552e-07	2.3501e-07	566	188.91	2.9297e-07	2.7966e-07	232.16	111.4	75.591	40.298	2.6793e-07	52.158	87.910	15.231	-23.096	-58.319	87.004	6.098	-59.529	-53.345	14.830	29.383	-55.203	-51.863	-49.967	-46.515	50.104	-48.865	-8191	255	
3094.003	1	1	0	0	0.16893	0.070198	0.068088	0.32594	0.15262	0.15591	0.059961	0.082178	0.078597	0.17652	0.057618	0.073434	0.22068	0.079917	0.21721	0.30597	-3.7333	-4.1229	-3.8021	-4.4271	-4.0062	-3.9854	-4.4208	-4.1292	-4.1375	-4.1646	-3.7354	-4.3167	-4.2208	-3.9875	-4.4125	-3.9604	48.890	71.328	218.235	-55.306	285.698	228.447	-69.688	-3.145	255.584	159.194	152.889	263.683	62.886	233.227	57.843	261.072	0.00043613	0.00014057	4.2313e-05	640.81	2.7792e-06	8.8709e-07	710.54	251.27	1.4682e-06	1.6908e-06	334.93	165.81	117.89	61.423	7.5378e-07	82.207	3.147e-05	2.5626e-05	6.4026e-06	503.69	2.9705e-07	2.6194e-07	566.38	190.86	2.7964e-07	2.4491e-07	234.21	113.43	76.952	41.034	2.0622e-07	52.92	91.438	-29.511	-68.035	-58.496	29.689	6.589	-59.526	-53.303	37.162	79.983	-55.422	-51.841	-50.421	-46.630	66.047	-48.789	-8191	255	
3094.099	1	1	0	0	0.23518	0.093787	0.29383	0.16462	0.081632	0.14316	0.0085333	0.14024	0.093053	0.12627	0.1852	0.21412	0.16933	0.071979	0.077123	0.18074	-3.625	-4.2312	-3.6729	-4.2083	-4.1896	-3.9	-4.3917	-3.9667	-3.9146	-4.3396	-3.8479	-4.1521	-4.2771	-4.0354	-4.2167	-4.2104	55.047	-47.900	-68.094	145.592	137.755	129.436	266.490	180.958	-55.008	256.559	286.173	240.734	261.886	229.667	249.377	199.168	0.00049778	0.00013047	4.2565e-05	646.69	1.3697e-06	1.5366e-06	722.25	254.99	1.7861e-06	2.4714e-06	340.56	166.09	119.41	61.96	4.9981e-07	83.064	2.3764e-05	1.9308e-05	5.132e-06	508.88	2.3665e-07	2.1153e-07	572.78	193.39	2.3447e-07	2.0896e-07	236.85	114.52	77.942	41.415	2.0438e-07	53.544	81.188	11.168	-4.198	-58.532	45.119	7.985	-59.666	-53.682	50.030	37.854	-55.500	-51.870	-50.078	-46.385	143.466	-48.690	-8191	255	
3094.195	1	1	0	0	0.062259	0.12156	0.019859	0.1149	0.31094	0.16757	0.12405	0.51173	0.18941	0.045744	0.11083	0.39768	0.045401	0.083143	0.14005	0.20349	-3.5958	-4.2292	-3.7833	-4.2146	-4.1542	-3.8958	-4.4563	-4.2125	-3.9562	-4.3354	-4.0271	-4.2521	-4.1917	-3.9833	-4.2562	-4.1937	59.114	-31.648	237.366	172.805	225.874	-13.337	-35.611	204.860	145.040	280.279	-43.842	222.282	238.634	12.464	109.221	263.887	0.00045462	0.000129	1.8208e-05	649.92	2.3158e-06	1.3406e-06	716.33	256.16	1.3909e-06	5.3474e-07	339.07	167.4	119.08	62.725	6.7425e-07	83.952	2.2023e-05	1.7636e-05	5.0938e-06	509.33	2.0976e-07	1.8826e-07	572.33	193.24	2.075e-07	1.8496e-07	236.44	114.87	77.366	41.701	2.1134e-07	53.955	103.585	8.613	33.130	-58.557	55.538	25.460	-59.683	-53.491	43.685	44.935	-55.124	-51.709	-50.022	-46.598	51.669	-48.877	-8191	255	
3094.291	1	1	0	0	0.11489	0.067612	0.15156	0.11299	0.14309	0.099915	0.080991	0.18644	0.019764	0.21178	0.13118	0.25415	0.17907	0.16819	0.10975	0.16741	-3.5438	-4.3292	-4.0021	-4.0583	-4.2146	-3.8021	-4.3875	-4.1896	-3.8479	-4.4604	-4.0292	-4.1312	-4.4896	-3.9479	-4.1979	-4.2625	245.699	241.741	-59.923	-57.236	-28.980	67.276	241.487	214.429	98.059	135.640	252.303	227.447	93.720	281.014	149.136	156.985	0.00048856	0.00010421	4.8307e-05	652.88	2.2422e-06	1.5527e-06	724.7	255.04	1.0941e-06	6.1875e-07	336.8	166.6	117.86	62.412	5.5583e-07	83.356	2.0333e-05	1.6307e-05	5.2295e-06	511.66	1.9006e-07	1.736e-07	575.27	192.95	1.8985e-07	1.7309e-07	235.13	113.75	76.755	41.517	2.2109e-07	53.489	90.811	17.739	-21.110	-58.735	59.463	17.720	-59.752	-53.352	42.773	96.017	-55.196	-51.757	-49.937	-46.676	34.821	-48.947	-8191	255	
3094.387	1	1	0	0	0.20975	0.095458	0.046598	0.13528	0.13318	0.17471	0.10544	0.10993	0.18707	0.10153	0.061178	0.19662	0.13482	0.21539	0.062174	0.097744	-3.3708	-4.3521	-3.9875	-4.0813	-4.3271	-3.8167	-4.2812	-4.3313	-3.9771	-4.2438	-4.1917	-4.1333	-4.1625	-4.0042	-4.1396	-4.4	-68.541	-53.892	-4.118	226.510	-40.972	223.159	210.352	76.662	42.531	-42.667	-38.992	267.805	-55.854	16.752	235.964	66.884	0.00042837	0.00010395	5.0879e-05	652.24	1.0907e-06	1.521e-06	718.17	253.92	8.4578e-07	1.5313e-06	338.75	165.95	118.66	62.441	5.9617e-07	83.371	1.9426e-05	1.664e-05	5.6181e-06	509.82	1.8309e-07	1.8204e-07	571.13	191.8	1.7889e-07	1.77e-07	234.62	113.69	76.944	41.649	2.101e-07	53.443	97.062	-35.330	7.139	-58.459	43.115	53.636	-59.700	-53.542	32.615	38.152	-55.305	-51.912	-50.088	-46.495	66.777	-48.811	-8191	255	
3094.483	1	1	0	0	0.15547	0.31941	0.12782	0.077247	0.19105	0.22979	0.17596	0.041717	0.16744	0.22475	0.37219	0.24752	0.095958	0.2369	0.087917	0.36899	-3.3646	-4.3833	-4.225	-3.9854	-4.2896	-3.7646	-4.0875	-4.4563	-3.7833	-4.3604	-4.0542	-3.8917	-4.2958	-3.7854	-4.0271	-4.3938	174.289	103.683	94.767	93.444	-27.785	-53.384	222.631	167.691	95.374	215.237	-55.424	266.490	239.370	221.049	-29.361	219.533	0.00038952	0.00010862	3.6999e-05	651.8	8.2316e-07	1.0885e-06	715.87	255.13	5.5529e-07	1.0072e-06	337.87	166.82	119.44	63.372	1.545e-06	84.218	1.8087e-05	1.7405e-05	5.2832e-06	509.98	1.7333e-07	1.9041e-07	571.43	192.68	1.7372e-07	1.9375e-07	235.39	114.48	77.338	42.235	1.9849e-07	54.125	94.467	-33.817	-17.881	-58.798	-12.919	69.283	-59.582	-53.529	121.403	61.967	-55.359	-51.779	-50.366	-46.679	35.023	-49.000	-8191	255	
3094.602	1	1	0	0	0.13342	0.058067	0.03965	0.32743	0.14709	0.17023	0.15634	0.19171	0.13303	0.22559	0.05942	0.17893	0.14623	0.32165	0.24222	0.081912	-3.3729	-4.1	-4.1708	-3.8479	-4.3875	-3.9521	-4.1833	-4.4646	-3.8354	-4.2688	-4.3083	-3.85	-4.3896	-4.0813	-4.0896	-4.5479	-63.680	165.192	-48.364	269.355	220.737	95.524	262.007	-71.060	156.072	265.333	-38.281	259.625	75.699	279.053	-16.267	256.870	0.00048402	0.00010424	3.2677e-05	655.54	1.6209e-06	2.029e-06	721.98	257.6	5.7718e-07	1.8923e-06	340.35	168.86	119.87	63.861	7.342e-07	84.896	1.7103e-05	1.7778e-05	4.9827e-06	511.08	1.6875e-07	2.007e-07	573.64	193.58	1.7604e-07	2.0768e-07	236.77	115.11	78.016	42.511	1.9512e-07	54.448	95.852	-1.522	-49.208	-58.454	46.782	55.435	-59.399	-53.374	85.501	50.215	-55.494	-51.868	-50.060	-46.799	44.255	-48.967	-8191	255	
3094.698	1	1	0	0	0.24425	0.1466	0.12464	0.10006	0.26801	0.13338	0.035986	0.27586	0.22247	0.07927	0.049764	0.21844	0.20626	0.1859	0.10364	0.15762	-3.4646	-4.1188	-4.2146	-3.9917	-4.3583	-3.9604	-4.0208	-4.55	-4.0208	-4.1958	-4.1875	-3.9208	-4.3708	-4.0729	-3.9354	-4.4563	284.538	261.819	-54.795	-47.143	9.779	280.629	-37.355	208.033	206.433	103.348	-31.924	-12.174	71.365	-56.588	244.848	-7.461	0.0004626	0.00010642	3.1211e-05	657.81	1.1042e-06	2.7814e-07	728.43	258.73	1.2566e-06	1.5672e-06	342.67	169.6	120.43	64.027	9.9303e-07	85.546	1.8017e-05	1.8806e-05	4.7277e-06	512.19	1.7828e-07	2.0414e-07	576.98	195.16	1.8518e-07	2.0366e-07	238.06	115.87	78.519	42.711	1.9362e-07	54.719	93.398	-4.874	-17.546	-58.736	39.180	51.130	-59.722	-53.220	78.343	-18.980	-55.535	-52.287	-49.879	-46.624	49.722	-48.901	-8191	255	
3094.796	1	1	0	0	0.091689	0.07417	0.11814	0.11728	0.19006	0.11203	0.13509	0.17659	0.16612	0.16781	0.22232	0.19622	0.06957	0.065398	0.087944	0.072524	-3.6354	-4.0312	-4.2688	-3.95	-4.1062	-4.225	-3.9542	-4.3313	-3.8917	-4.1271	-4.3708	-3.8396	-4.2125	-4.2625	-3.9771	-4.45	37.945	-46.435	214.616	226.439	-35.101	237.250	187.426	-43.797	-27.180	72.662	288.434	-44.600	158.916	228.655	160.982	78.874	0.0003988	0.00017537	3.637e-05	655.9	5.4381e-07	1.6313e-06	725.28	258.15	9.3175e-07	1.3334e-06	339.79	167.9	119.17	63.146	8.6692e-07	83.646	2.0492e-05	1.9528e-05	4.7974e-06	512.27	2.0639e-07	2.0373e-07	575.48	194.46	2.0548e-07	1.996e-07	236.03	114.67	77.798	42.058	1.8593e-07	53.622	97.504	3.620	-34.106	-58.730	9.100	22.889	-59.456	-53.365	-46.358	-11.257	-55.457	-52.022	-49.832	-46.764	50.805	-49.013	-8191	255	
3094.892	1	1	0	0	0.32053	0.15597	0.018065	0.20339	0.17423	0.19295	0.031618	0.086026	0.14133	0.047687	0.20625	0.19534	0.054707	0.077297	0.14577	0.099924	-3.6	-3.8	-4.1854	-3.9625	-4.1125	-4.1458	-3.6917	-4.4625	-4.1667	-3.9688	-4.5167	-4.0542	-4.3146	-4.2979	-3.7917	-4.3187	184.412	99.617	17.944	184.791	32.276	40.436	-30.845	-41.348	91.711	110.068	238.116	194.679	32.004	-46.673	154.059	162.395	0.00049615	0.00014923	4.1903e-05	651.96	2.0296e-06	1.422e-06	715.67	255.47	7.591e-07	1.4111e-06	335.62	165.55	118.75	62.275	2.9045e-07	82.199	2.1513e-05	1.8482e-05	4.6402e-06	509.38	2.1615e-07	2.0274e-07	568.53	192.48	2.2332e-07	1.9463e-07	232.8	113.26	77.195	41.525	1.7891e-07	52.897	96.362	-8.533	-15.735	-58.405	76.836	25.791	-59.700	-53.451	80.659	17.362	-55.795	-52.026	-50.118	-46.563	64.079	-48.988	-8191	255	
3094.987	1	1	0	0	0.1858	0.11444	0.052209	0.067621	0.29532	0.084649	0.15111	0.1765	0.30126	0.34081	0.45997	0.15355	0.15165	0.22445	0.2509	0.033109	-3.7125	-4.0083	-4.4792	-3.9625	-3.9354	-4.1604	-3.8042	-4.4688	-4.1292	-3.7979	-4.4521	-4.0646	-4.175	-4.375	-3.85	-4.3875	148.757	-47.899	25.216	57.457	264.253	231.826	76.597	286.150	-34.317	187.113	263.601	248.943	21.545	242.942	34.987	13.656	0.00037635	7.5874e-05	3.6999e-05	650.64	1.5525e-06	1.0929e-06	717.02	255.16	1.5415e-06	1.469e-06	336.73	165.15	118.34	62.316	9.7815e-07	82.733	2.1794e-05	1.7274e-05	4.3912e-06	509.06	2.1637e-07	1.8973e-07	567.44	192.75	2.2126e-07	1.9185e-07	233.05	113.25	77.113	41.471	1.7606e-07	53.039	90.184	45.259	-2.489	-58.690	-11.971	9.960	-59.574	-53.295	29.973	87.244	-55.481	-52.035	-50.009	-46.632	53.428	-49.090	-8191	255	
3095.083	1	1	0	0	0.1304	0.085861	0.11223	0.15556	0.076521	0.16001	0.22627	0.25509	0.076256	0.26537	0.20391	0.19821	0.21754	0.34858	0.079414	0.1256	-3.8042	-3.9083	-4.3104	-4	-3.9708	-4.4521	-4.1146	-4.2729	-4.0917	-3.8792	-4.5083	-4.2354	-4.0625	-4.5667	-3.9021	-4.3542	186.073	154.477	63.548	250.420	-0.972	189.925	177.503	251.625	250.497	246.934	248.993	234.794	258.561	112.076	-39.449	187.962	0.00046847	0.00017453	3.5614e-05	649.51	1.3511e-06	1.1106e-06	715.89	255.44	5.8545e-07	1.5748e-06	335.41	165.52	117.77	62.427	1.4156e-06	82.719	2.1055e-05	1.7013e-05	4.3946e-06	509.77	2.0192e-07	1.8145e-07	568.83	192.96	2.0512e-07	1.84e-07	233.4	113.52	76.95	41.606	1.9605e-07	53.239	101.173	17.632	-16.389	-58.355	88.314	37.254	-59.714	-53.689	13.998	33.711	-55.595	-51.892	-50.220	-46.651	62.087	-49.186	-8191	255	
3095.204	1	1	0	0	0.1219	0.063617	0.25576	0.078825	0.039252	0.17985	0.16915	0.15242	0.16667	0.028613	0.12924	0.19018	0.31763	0.30148	0.24368	0.11459	-3.9083	-3.8604	-4.3542	-4.1833	-3.9875	-4.2292	-3.9167	-4.2438	-4.1583	-3.8375	-4.3792	-4.0208	-4	-4.3979	-3.8458	-4.1271	158.569	52.994	128.902	284.981	-2.263	14.312	281.199	254.731	-26.599	206.459	213.872	279.164	276.101	259.338	-49.382	-29.003	0.00047808	0.00013778	1.5936e-05	650.99	1.1573e-06	1.8407e-06	717.41	256.49	1.0879e-06	1.5429e-06	337.45	166.75	119.35	62.312	1.2119e-06	82.052	2.1191e-05	1.7364e-05	5.0291e-06	511.88	2.093e-07	1.9025e-07	571.6	193.75	2.0999e-07	1.9014e-07	235.58	114.52	77.799	41.545	2.2501e-07	52.978	95.675	3.562	31.378	-58.561	-19.419	-0.210	-59.794	-53.631	34.663	58.758	-55.410	-51.919	-50.274	-46.671	99.059	-48.781	-8191	255	
3095.300	1	1	0	0	0.10635	0.23751	0.16482	0.2837	0.22991	0.15177	0.078011	0.18237	0.20174	0.21864	0.20575	0.076538	0.098597	0.10379	0.046814	0.25449	-3.9479	-3.775	-4.2396	-4.1229	-3.9167	-4.4521	-4.0625	-4.2292	-4.3896	-3.7771	-4.3688	-4.1396	-4.0208	-4.475	-3.9771	-4.15	136.462	33.471	212.476	-31.117	83.012	103.661	202.612	208.125	234.953	214.897	277.612	12.099	172.340	17.097	44.561	243.637	0.00045659	0.00018407	3.3815e-05	650.12	1.1333e-06	1.2731e-06	713.06	255.51	1.3078e-06	1.139e-06	337.61	166.66	120.14	61.515	8.4207e-07	80.216	2.1792e-05	1.8196e-05	5.893e-06	509.51	2.1862e-07	1.9929e-07	569.14	193.63	2.1865e-07	1.9707e-07	235.69	113.94	77.924	41.059	2.4448e-07	51.91	98.134	44.881	-27.986	-58.503	12.398	37.419	-59.490	-53.380	47.923	22.691	-55.534	-52.202	-50.296	-46.570	86.682	-48.857	-8191	255	
3095.396	1	1	0	0	0.041534	0.16535	0.063314	0.066099	0.0095496	0.098922	0.32587	0.22411	0.13972	0.016588	0.2902	0.17913	0.30964	0.29456	0.093945	0.041706	-4.0062	-3.8729	-4.1104	-4.3229	-3.9771	-4.3021	-4.0729	-3.9437	-4.2917	-3.8958	-4.0333	-4.1479	-3.8125	-4.3917	-3.9604	-4.1542	286.137	77.679	165.100	165.021	122.384	231.862	228.261	271.280	187.649	-31.173	280.001	205.320	214.203	-67.159	25.770	226.245	0.00049332	9.7193e-05	2.9281e-05	644.22	1.3248e-06	5.9211e-07	709.1	254.49	5.5745e-07	8.4948e-07	337.43	165.18	119.78	61.344	1.1816e-06	80.324	2.1309e-05	1.8746e-05	6.3051e-06	505.55	2.1403e-07	2.1518e-07	566.15	192.99	2.1413e-07	2.1881e-07	236.01	113.64	78.082	40.907	2.5344e-07	51.693	89.560	-24.564	-53.698	-58.909	76.780	101.597	-59.647	-53.410	42.682	72.746	-55.311	-51.923	-50.095	-46.261	104.175	-48.959	-8191	255	
3095.492	1	1	0	0	0.18681	0.22536	0.20414	0.24539	0.18342	0.011934	0.27056	0.058079	0.20399	0.15895	0.088074	0.13293	0.24039	0.12578	0.11363	0.16801	-3.9458	-3.9583	-4.1167	-4.2917	-3.7646	-4.2833	-4.2667	-3.9833	-4.2729	-3.8854	-4.1625	-4.4062	-3.9229	-4.3917	-4.1479	-3.9729	173.385	229.993	21.273	-31.732	-70.917	232.687	244.033	233.498	140.497	130.483	-2.317	-59.496	272.967	-45.502	94.253	126.194	0.00039631	0.00017218	3.2918e-05	645.95	1.2238e-06	1.4457e-06	708.77	255.29	1.7796e-06	7.3892e-07	339.39	165.93	120.66	61.249	7.0788e-07	80.529	2.0848e-05	2.0393e-05	6.2633e-06	505.11	2.0264e-07	2.314e-07	566.82	193.41	2.0981e-07	2.3801e-07	237.03	113.97	78.507	40.984	2.5278e-07	51.796	77.961	10.923	-63.381	-58.546	47.651	90.251	-59.772	-53.315	94.693	47.421	-55.301	-51.988	-50.263	-46.256	18.791	-48.642	-8191	255	
3095.588	1	1	0	0	0.080555	0.21455	0.1038	0.20168	0.065195	0.125	0.24392	0.059034	0.11155	0.028236	0.15835	0.16504	0.10279	0.2333	0.11954	0.19751	-3.9938	-4.0042	-4.2333	-4.3833	-3.8812	-4.2458	-4.1937	-4.0167	-4.4021	-4.0854	-4.15	-4.4729	-3.8333	-4.3688	-4.0854	-3.8	214.344	144.422	51.254	-52.922	17.586	214.694	-49.036	109.392	230.798	-42.537	182.728	195.940	234.479	270.945	-12.006	191.624	0.00044348	6.8526e-05	4.2722e-05	642.8	1.8975e-06	2.6206e-07	712.77	257.15	2.0527e-07	1.1474e-06	340.95	167.43	121.64	61.49	1.2931e-06	80.749	2.1119e-05	2.2658e-05	6.1826e-06	503.63	2.1087e-07	2.5054e-07	568.39	194.78	2.1313e-07	2.5532e-07	239.2	114.84	79.2	41.154	2.3954e-07	51.942	95.740	74.100	-20.999	-58.924	41.858	19.558	-59.500	-53.459	117.827	67.902	-55.284	-52.116	-50.026	-46.423	40.869	-48.656	-8191	255	
3095.684	1	1	0	0	0.11828	0.10336	0.25253	0.25559	0.022506	0.26367	0.13415	0.39822	0.2049	0.12433	0.3449	0.03934	0.26063	0.38782	0.27198	0.079441	-3.8937	-3.9458	-3.9688	-4.4333	-3.8146	-4.0604	-4.325	-3.9833	-4.2292	-4.0687	-4.1292	-4.4042	-4.025	-4.175	-4.3271	-3.7938	22.148	144.279	-31.732	138.458	13.912	-45.475	284.619	236.454	261.535	-18.488	56.958	163.664	227.616	-14.833	-55.347	188.033	0.00045019	0.00014273	4.2147e-05	643.59	4.8454e-07	4.6598e-07	716.45	259.06	8.4593e-07	1.27e-06	343.35	168.72	121.58	61.376	1.413e-06	80.541	2.2279e-05	2.3841e-05	6.0547e-06	504.68	2.3075e-07	2.6205e-07	570.06	195.45	2.4008e-07	2.657e-07	240.02	115.44	79.391	41.032	2.3122e-07	51.724	91.986	-48.850	-56.417	-58.777	80.922	84.553	-59.643	-53.281	89.020	21.663	-55.546	-52.132	-50.177	-46.248	43.589	-48.504	-8191	255	
3095.779	1	1	0	0	0.20107	0.15541	0.21888	0.10394	0.22929	0.075202	0.24444	0.10771	0.055364	0.1609	0.19115	0.082166	0.18177	0.38131	0.14812	0.22047	-3.8	-4.025	-3.7938	-4.4604	-3.9625	-4.1	-4.2271	-4.0042	-4.1896	-4.1188	-3.9583	-4.4	-4.0646	-4.3104	-4.3458	-3.8875	188.874	-21.183	164.749	-13.761	156.604	99.031	206.278	141.166	-15.774	33.487	259.007	41.888	272.046	239.344	245.874	223.469	0.00039097	0.00011351	1.6156e-05	637.28	8.2581e-07	9.892e-07	706.58	254.88	2.4373e-07	1.2608e-06	336.68	165.14	120.38	60.043	1.6633e-06	78.909	2.4067e-05	2.3136e-05	5.7118e-06	501.65	2.4653e-07	2.5303e-07	562.54	192.41	2.5386e-07	2.5137e-07	234.88	113.23	78.417	40.252	2.247e-07	50.761	99.448	19.002	-3.692	-58.400	93.622	-34.425	-59.498	-53.121	96.527	18.975	-55.230	-51.792	-49.965	-46.426	115.360	-48.732	-8191	255	
3095.899	1	1	0	0	0.19766	0.025296	0.25121	0.048017	0.2664	0.07622	0.11666	0.33358	0.23164	0.044556	0.16377	0.2823	0.083926	0.21749	0.069627	0.11099	-3.9792	-4.2042	-3.8208	-4.4979	-4.0708	-3.9437	-4.4021	-3.9521	-4.1937	-4.2937	-3.9104	-4.3833	-4.1687	-3.9896	-4.4542	-4.2063	81.310	96.111	262.968	168.069	170.687	124.951	145.328	-2.218	-71.211	141.519	116.751	198.831	263.100	226.287	33.142	276.221	0.00043009	7.34e-05	5.2669e-05	635.56	2.041e-06	1.1661e-06	705.96	252.66	1.4788e-06	1.1459e-06	335.24	163.74	118.91	59.768	3.9849e-07	78.433	2.5171e-05	2.1575e-05	5.4744e-06	497.48	2.5498e-07	2.338e-07	559.5	191.22	2.5881e-07	2.324e-07	233.68	112.48	77.929	39.959	2.1687e-07	50.635	96.660	-9.241	-49.229	-58.481	47.090	51.036	-59.554	-53.233	43.646	19.793	-55.379	-51.919	-50.057	-46.093	89.493	-48.780	-8191	255	
3095.996	1	1	0	0	0.092868	0.11073	0.13155	0.17724	0.068365	0.0066783	0.22732	0.032257	0.060119	0.08125	0.18695	0.10871	0.12557	0.17452	0.23975	0.151	-3.925	-4.2417	-3.8292	-4.1396	-3.9833	-3.8854	-4.4646	-4.1042	-4.0646	-4.3333	-3.6833	-4.2438	-4.3833	-4	-4.3542	-4.1604	152.517	258.705	145.923	260.344	-5.992	113.769	283.190	103.354	285.761	-27.240	-63.642	105.791	73.767	275.127	77.901	195.288	0.00038828	0.00017826	5.4186e-05	635.85	2.0708e-06	1.5345e-06	704.56	254.27	1.0998e-06	1.2132e-06	339.14	165.85	121.04	60.241	6.5088e-07	79.252	2.6001e-05	2.1249e-05	5.4983e-06	499.81	2.5942e-07	2.295e-07	560.03	192.79	2.6242e-07	2.305e-07	236.24	114.04	79.212	40.185	2.2387e-07	51.097	100.135	-5.772	-27.296	-58.582	23.487	4.425	-59.509	-53.072	110.754	32.172	-55.166	-51.959	-49.967	-46.330	54.730	-48.784	-8191	255	
3096.067	1	1	0	0	0.12145	0.1656	0.059898	0.14499	0.030838	0.191	0.27405	0.31348	0.10697	0.13079	0.16992	0.20292	0.18223	0.23402	0.10905	0.14502	-3.6271	-4.3021	-3.9146	-4.3854	-4.1896	-3.8688	-4.625	-3.9021	-4.0833	-4.3604	-4.0687	-4.3104	-4.1896	-4.0146	-4.3458	-4.1917	108.043	165.212	104.364	280.314	278.818	-21.426	274.728	272.357	268.577	254.972	204.753	229.576	-65.016	167.738	226.570	240.977	0.0004063	0.00019261	7.4547e-05	633.9	1.9954e-06	1.6247e-06	703.75	256.35	1.9136e-06	1.5007e-06	339.83	167.66	121.82	60.229	5.5868e-07	79.942	2.6734e-05	2.2153e-05	5.8524e-06	499.9	2.7061e-07	2.3893e-07	561.41	194.73	2.637e-07	2.3696e-07	237.78	115.09	79.592	40.248	2.3576e-07	51.461	91.187	5.928	-20.085	-58.461	24.159	22.530	-59.374	-53.224	42.486	53.259	-55.193	-51.917	-49.716	-46.283	95.171	-48.491	-8191	255	
3096.163	1	1	0	0	0.05136	0.091086	0.21786	0.25548	0.10754	0.30699	0.029805	0.30899	0.04575	0.23586	0.23084	0.037285	0.30371	0.14673	0.12238	0.2036	-3.5521	-4.4604	-3.9604	-4.2083	-4.1521	-3.9521	-4.4521	-4.1625	-3.9083	-4.3313	-3.9938	-4.2562	-4.4729	-3.9458	-4.4229	-4.2042	105.902	20.465	46.675	-54.717	184.376	116.000	273.099	250.492	142.268	79.293	267.939	57.606	-61.479	-36.302	63.741	233.991	0.00034667	0.00011232	2.9154e-05	636.64	2.5317e-06	1.0693e-06	706.84	256.61	1.4868e-06	1.8169e-06	340.16	167.45	121.52	60.122	1.2123e-06	79.341	2.4986e-05	2.1019e-05	6.152e-06	502.87	2.5741e-07	2.3435e-07	566.14	194.8	2.5846e-07	2.3552e-07	238.48	115.31	79.351	40.251	2.6478e-07	51.208	98.595	26.930	-16.138	-58.469	19.062	55.904	-59.619	-53.222	-21.786	68.027	-55.168	-51.743	-50.067	-46.207	47.438	-48.714	-8191	255	
3096.284	1	1	0	0	0.31782	0.047252	0.097967	0.15446	0.016464	0.20063	0.23202	0.14015	0.071942	0.10669	0.14439	0.19672	0.097598	0.28542	0.15494	0.19529	-3.6146	-4.3271	-3.9437	-4.1542	-4.4313	-3.8958	-4.3938	-4.1354	-4.025	-4.2875	-4.1875	-4.1333	-4.425	-4.0563	-4.275	-4.2708	-28.669	14.542	191.341	-15.336	184.180	230.088	222.797	234.761	-16.715	268.104	22.240	192.687	223.958	243.386	-10.588	250.731	0.00040695	0.00019506	3.719e-05	636.19	1.876e-06	1.0678e-06	710.2	255.66	1.3711e-06	1.3891e-06	340.65	164.02	119.35	58.253	1.0398e-06	75.912	2.4993e-05	2.1055e-05	6.8936e-06	501.63	2.554e-07	2.3928e-07	567.33	195.04	2.6068e-07	2.4416e-07	239.35	112.99	78.048	39.094	3.0544e-07	49.228	97.370	30.258	-8.898	-58.870	30.858	69.178	-59.858	-53.364	91.139	45.008	-55.484	-51.749	-49.806	-46.062	123.953	-48.307	-8191	255	
3096.380	1	1	0	0	0.25546	0.24141	0.29551	0.23547	0.024449	0.16734	0.12668	0.12788	0.091049	0.18486	0.039507	0.16758	0.14171	0.21007	0.067845	0.1504	-3.5479	-4.3292	-4.0687	-4.1687	-4.3354	-3.9042	-4.2375	-4.2979	-3.7979	-4.2438	-4.1854	-4.1375	-4.4083	-4.0625	-3.9333	-4.3458	-47.286	211.633	49.170	-63.799	284.492	115.147	-66.186	168.801	-60.146	22.058	205.706	25.119	266.992	251.482	-64.810	-69.993	0.00045242	6.6885e-05	1.917e-05	636.21	2.0419e-06	1.1239e-06	706	257.48	1.632e-06	1.1295e-06	339.41	164.23	119.14	59.203	2.6198e-07	77.376	2.5565e-05	2.2962e-05	7.5427e-06	502.07	2.4816e-07	2.4508e-07	567.43	194.84	2.3956e-07	2.4494e-07	238.58	112.76	77.915	39.557	2.9116e-07	49.883	89.343	-26.847	-56.917	-58.590	-12.321	45.772	-59.561	-53.352	58.169	46.304	-55.330	-51.877	-50.190	-46.193	281.347	-48.551	-8191	255	
3096.476	1	1	0	0	0.274	0.20674	0.24922	0.10841	0.10729	0.068145	0.19544	0.1297	0.12318	0.084977	0.084112	0.064359	0.1989	0.25781	0.2054	0.2151	-3.5062	-4.3021	-4.1917	-3.9042	-4.425	-3.9437	-4.1792	-4.4708	-3.8729	-4.3562	-4.0479	-3.9875	-4.4833	-4.1937	-4.0333	-4.3479	113.099	-31.430	79.972	276.258	207.932	269.393	-16.249	-36.400	111.346	250.052	128.577	90.972	200.686	214.355	-30.634	186.788	0.00037923	0.0001555	1.3022e-05	639.23	8.6308e-07	8.7278e-07	707.81	256.73	1.4869e-06	1.3191e-06	339.18	163.6	119.53	59.727	1.2148e-06	78.286	2.366e-05	2.4102e-05	7.2999e-06	503.71	2.3216e-07	2.5977e-07	567.91	194.13	2.2754e-07	2.5689e-07	237.47	112.51	77.629	39.939	2.622e-07	50.425	98.952	33.374	-40.855	-58.747	53.574	24.187	-59.590	-53.223	15.961	49.705	-55.181	-52.008	-50.126	-46.412	27.464	-48.909	-8191	255	
3096.597	1	1	0	0	0.16593	0.1256	0.27385	0.24561	0.10391	0.18017	0.093441	0.13256	0.053944	0.25056	0.098219	0.39661	0.23631	0.22738	0.24869	0.24066	-3.5396	-4.3083	-4.2562	-3.9417	-4.4375	-4.1562	-4.1312	-4.6021	-3.9062	-4.2625	-4.3854	-4	-4.325	-4.0896	-4.1021	-4.4	62.898	155.284	25.922	265.892	174.367	-28.877	238.488	167.034	-7.560	219.809	203.225	255.814	-45.455	-70.503	250.377	192.135	0.00048439	3.8313e-05	6.002e-05	647.45	1.3037e-06	1.1078e-06	716.65	257.12	1.0692e-06	1.7809e-06	339.05	166.33	120.18	60.794	1.3428e-06	79.975	2.1751e-05	2.3391e-05	6.3775e-06	506.29	2.1432e-07	2.5507e-07	570.71	194.25	2.1522e-07	2.4995e-07	237.07	113.46	78.064	40.603	2.2913e-07	51.409	89.763	-6.086	-44.025	-58.713	96.452	34.419	-59.444	-53.536	38.452	9.144	-55.433	-51.879	-50.120	-46.417	47.005	-48.755	-8191	255	
3096.693	1	1	0	0	0.27257	0.34328	0.074845	0.045992	0.20875	0.048182	0.1312	0.17118	0.13739	0.072482	0.15828	0.10437	0.24572	0.21237	0.14498	0.18173	-3.5292	-4.1229	-4.2312	-3.7708	-4.4417	-4.1312	-3.9646	-4.4417	-3.7812	-4.2333	-4.3896	-3.8375	-4.3396	-4.1833	-4.1312	-4.5854	21.349	-21.495	42.278	-31.539	107.625	208.418	248.555	190.881	284.709	-52.277	118.335	72.228	-32.262	205.277	83.645	110.597	0.00050612	0.00012967	6.9398e-05	644.61	9.4015e-07	1.3857e-06	715.51	256.14	3.0379e-07	1.4446e-06	337.01	164.25	118.63	60.419	1.2475e-06	79.357	2.1384e-05	2.2409e-05	5.6241e-06	505.99	2.1331e-07	2.459e-07	568.62	193.23	2.2375e-07	2.4573e-07	234.78	112.53	77.396	40.435	2.2149e-07	51.018	77.868	41.514	-15.798	-58.506	27.818	40.688	-59.741	-53.346	-43.029	76.573	-55.636	-51.820	-50.001	-46.441	25.365	-48.921	-8191	255	
3096.765	1	1	0	0	0.23248	0.16064	0.099718	0.40444	0.13763	0.040206	0.16931	0.18527	0.11653	0.21973	0.16374	0.040958	0.18843	0.15174	0.10498	0.23441	-3.5458	-4.0396	-4.3583	-3.9479	-4.3729	-4.2354	-3.9458	-4.4521	-3.9792	-4.1604	-4.3583	-3.9458	-4.2771	-4.2708	-3.9437	-4.4854	280.327	107.990	83.942	106.804	153.705	200.765	177.793	244.091	185.028	-53.375	56.037	231.523	288.373	157.043	225.659	-26.941	0.00045521	0.00024534	3.754e-05	643.87	3.9547e-07	9.6889e-07	706.86	252.28	7.9951e-07	2.0055e-06	330.47	162.4	117.77	60.56	6.0171e-07	79.508	2.2753e-05	2.1547e-05	5.3894e-06	502.73	2.3212e-07	2.3521e-07	562.35	190.56	2.3876e-07	2.3608e-07	230.64	111.5	76.844	40.397	2.1887e-07	51.055	83.328	9.820	-64.694	-58.604	-6.396	-5.367	-59.643	-53.438	8.891	-12.364	-55.453	-51.863	-49.902	-46.530	63.433	-49.043	-8191	255	
3096.884	1	1	0	0	0.11337	0.055197	0.18287	0.18183	0.15228	0.019993	0.077134	0.18495	0.14812	0.10652	0.052104	0.068862	0.31639	0.27097	0.085726	0.27084	-3.5375	-4.0479	-4.2354	-3.8875	-3.9917	-4.3146	-3.925	-4.3313	-3.9583	-4.0229	-4.4812	-3.9417	-4.2083	-4.2521	-3.7083	-4.5542	145.919	209.888	239.550	265.651	204.956	113.024	14.993	213.634	257.293	95.712	221.763	123.873	221.798	249.116	142.916	157.361	0.00055482	0.00029047	5.4542e-05	640.19	1.0487e-06	1.8905e-06	701.15	249.23	2.2957e-06	9.1874e-07	328.65	161.58	116.48	60.434	1.1458e-06	80.011	2.4767e-05	2.1196e-05	5.2771e-06	500.74	2.5054e-07	2.3145e-07	556.99	188.66	2.568e-07	2.2615e-07	228.34	110.57	76.193	40.369	2.1183e-07	51.347	94.108	-7.090	-54.312	-58.354	-24.409	51.527	-59.520	-53.063	76.995	59.564	-55.105	-52.086	-50.067	-46.600	42.026	-49.071	-8191	255	
3096.980	1	1	0	0	0.21394	0.34223	0.054315	0.10321	0.11479	0.2239	0.045195	0.12344	0.089524	0.20488	0.053911	0.15908	0.16379	0.061927	0.016861	0.25213	-3.7438	-3.7812	-4.3396	-3.9646	-4.1333	-4.2208	-4.0458	-4.3417	-4.1062	-3.7729	-4.3896	-4.0542	-4.1604	-4.2438	-3.9667	-4.5292	85.215	63.660	211.415	175.001	22.979	-17.813	173.632	199.392	133.510	196.866	193.315	277.354	193.285	254.362	-65.683	191.740	0.00038704	0.00016177	3.2686e-05	638.76	1.1363e-06	1.1671e-06	703.83	250.35	1.4133e-06	2.3293e-06	332.3	164.26	119.61	61.218	1.7128e-07	80.551	2.5674e-05	2.1338e-05	5.4847e-06	501.92	2.6138e-07	2.3308e-07	558.96	190.04	2.6545e-07	2.321e-07	232.42	113.36	78.102	40.92	2.2143e-07	52.062	107.695	-15.145	4.646	-58.679	51.740	50.768	-59.467	-53.381	32.494	47.749	-55.288	-51.940	-50.067	-46.611	9.363	-48.679	-8191	255	
3097.076	1	1	0	0	0.030267	0.29892	0.10253	0.1795	0.10486	0.27085	0.14772	0.094622	0.069322	0.086411	0.11883	0.10746	0.14732	0.10409	0.06993	0.24628	-3.9125	-3.8042	-4.2167	-3.8729	-4.0333	-4.2833	-3.9104	-4.4062	-4.2688	-4.0229	-4.35	-3.9313	-4.0625	-4.4187	-3.8708	-4.3313	258.719	1.005	-45.239	194.774	195.534	234.492	197.575	85.280	217.778	154.207	48.049	270.040	146.877	-4.216	195.573	264.330	0.00037235	9.9428e-05	4.38e-05	639.83	1.4588e-06	1.5179e-06	705.02	255.5	3.8799e-07	2.3416e-06	338.86	166.29	119.98	60.334	1.1615e-06	79.336	2.6076e-05	2.1221e-05	5.708e-06	504.28	2.6598e-07	2.4282e-07	563.96	194.36	2.7267e-07	2.4442e-07	236.66	114.25	78.834	40.385	2.4845e-07	51.2	98.805	66.846	-43.819	-58.580	45.771	47.240	-59.384	-53.269	85.983	71.793	-55.402	-51.887	-50.021	-46.264	107.459	-48.889	-8191	255	
3097.197	1	1	0	0	0.15801	0.12305	0.2409	0.012998	0.21505	0.094215	0.071669	0.093245	0.11459	0.12742	0.12486	0.21755	0.15239	0.16842	0.21243	0.18409	-3.7938	-3.9167	-4.2958	-4.075	-3.8833	-4.2604	-3.8708	-3.9917	-4.3	-3.8042	-4.375	-4.1896	-3.8917	-4.5021	-3.9125	-4.2625	67.159	140.286	-6.629	17.837	142.689	163.228	280.592	0.072	-51.861	20.983	-39.978	229.386	71.092	240.854	-41.909	114.852	0.00035312	9.3073e-05	1.6167e-05	639.55	2.5413e-06	1.8712e-06	702.49	252.17	1.534e-06	1.7224e-06	332.66	162.7	118.21	59.363	1.0977e-06	77.698	2.5317e-05	2.1314e-05	6.1696e-06	504.16	2.5444e-07	2.3276e-07	561.4	192.43	2.5997e-07	2.327e-07	233.64	111.9	77.465	39.803	2.6825e-07	50.197	87.728	20.893	-19.205	-58.713	31.512	22.837	-59.493	-53.348	73.578	68.100	-55.216	-51.913	-50.319	-46.271	114.091	-48.724	-8191	255	
3097.293	1	1	0	0	0.15533	0.17383	0.14988	0.12885	0.074373	0.10527	0.20673	0.11747	0.072553	0.16845	0.11252	0.1866	0.13174	0.17298	0.064242	0.113	-4.0146	-3.7833	-4.3063	-4.1583	-3.875	-4.3333	-4.0708	-4.1125	-4.3187	-3.8604	-4.35	-4.3458	-3.8375	-4.3604	-3.9542	-4.1646	99.792	109.107	131.844	72.036	1.477	106.421	-60.760	276.056	253.225	13.080	60.080	-22.422	206.877	277.806	-50.659	196.401	0.00033976	0.0001279	3.0749e-05	636.33	2.7991e-06	1.8848e-06	696.77	251.4	8.4912e-07	4.2533e-07	331.27	162	118.83	59.624	1.029e-06	77.984	2.4617e-05	2.09e-05	6.6742e-06	501.68	2.4561e-07	2.2863e-07	557.89	191.2	2.4862e-07	2.3275e-07	231.88	111.57	77.506	39.917	2.955e-07	50.418	98.151	-16.555	-15.667	-58.695	43.338	10.710	-59.437	-53.463	62.862	-23.905	-55.191	-51.987	-49.897	-46.428	102.555	-48.779	-8191	255	
3097.364	1	1	0	0	0.25535	0.11183	0.29959	0.039267	0.13568	0.048295	0.17792	0.16573	0.063799	0.17554	0.17516	0.31879	0.11408	0.12275	0.17304	0.09883	-4.0813	-3.8333	-4.1375	-4.2937	-3.7938	-4.3562	-4.1542	-4.0979	-4.4229	-3.8667	-4.3438	-4.3479	-3.7667	-4.5104	-4.0458	-3.9562	92.775	115.899	-47.794	-15.397	119.335	201.011	225.046	-58.162	144.968	-44.599	211.175	240.761	-42.127	-50.711	87.473	228.047	0.00031744	0.0001436	1.5372e-05	634.6	2.0019e-06	1.6601e-06	695.4	250.6	9.972e-07	1.0104e-06	331.74	162.93	118.88	59.548	1.172e-06	77.996	2.5135e-05	2.288e-05	7.6404e-06	499.4	2.5372e-07	2.5266e-07	556.89	190.63	2.5239e-07	2.5591e-07	233.11	111.73	77.617	39.898	2.9429e-07	50.408	99.642	25.275	110.225	-58.614	54.180	109.327	-59.509	-53.353	57.250	55.484	-55.236	-51.951	-50.010	-46.381	144.413	-48.736	-8191	255	
3097.461	1	1	0	0	0.12822	0.076453	0.14075	0.064177	0.071587	0.17734	0.097583	0.054504	0.14843	0.17179	0.4163	0.19817	0.13589	0.16913	0.16867	0.19384	-4.0375	-3.9792	-4.1875	-4.2271	-3.9208	-4.3688	-4.2979	-4.0896	-4.5146	-3.975	-4.2292	-4.3917	-3.8021	-4.4	-4.0854	-4.1937	278.866	109.495	202.906	-14.573	197.806	194.366	67.558	69.772	254.137	22.583	182.832	217.150	-45.764	175.339	182.459	226.765	0.00041792	0.00012467	4.3248e-05	631.19	6.4006e-07	2.1111e-06	697.15	252.66	8.1349e-07	2.0474e-06	335.11	163.81	119.46	59.745	1.2301e-06	78.718	2.3777e-05	2.4107e-05	7.389e-06	496.77	2.3875e-07	2.6964e-07	557.72	191.81	2.3527e-07	2.7292e-07	234.34	112.51	78.001	40.083	2.7684e-07	50.762	95.091	45.258	-44.767	-58.560	269.718	55.986	-59.813	-53.428	61.396	79.931	-55.113	-51.867	-50.173	-46.272	30.372	-48.659	-8191	255	
3097.557	1	1	0	0	0.15497	0.017078	0.20775	0.046477	0.24792	0.18538	0.24611	0.07327	0.1889	0.16894	0.032016	0.16617	0.15188	0.33988	0.072581	0.22019	-4.1042	-4.1771	-4.0146	-4.3979	-3.9021	-4.2771	-4.4125	-3.9938	-4.3583	-4.0396	-4.1583	-4.4021	-3.9521	-4.2146	-4.0333	-4.0833	226.128	94.174	282.766	249.211	238.530	85.553	196.916	219.711	9.104	-41.202	-65.696	197.795	3.514	-37.318	109.463	-45.298	0.00053445	0.00011685	7.4296e-05	633.19	7.5899e-07	1.1909e-06	702.41	254.52	9.987e-07	1.9619e-06	335.66	163.92	120.51	59.59	4.302e-07	77.518	2.2912e-05	2.5523e-05	6.8686e-06	497.79	2.3683e-07	2.8306e-07	559.66	193.05	2.4771e-07	2.9404e-07	235.97	112.99	78.95	39.948	2.8052e-07	49.981	92.474	-22.529	-19.397	-58.431	79.576	28.301	-59.739	-53.124	44.928	44.146	-55.297	-51.795	-49.976	-46.316	92.485	-48.553	-8191	255	
3097.676	1	1	0	0	0.21391	0.035453	0.22887	0.18359	0.17481	0.2239	0.1022	0.057313	0.13625	0.010214	0.18785	0.1835	0.20058	0.36244	0.03102	0.2135	-3.7938	-4.0083	-4.0083	-4.525	-3.9417	-4.1979	-4.4313	-4.0396	-4.3438	-4.1125	-4.0188	-4.475	-4.1125	-4.1375	-4.2562	-3.9146	183.241	26.822	55.606	198.086	7.846	149.028	2.722	209.612	17.496	67.020	207.605	192.231	-30.567	267.979	173.545	239.420	0.00047837	0.00014948	3.6703e-05	628.74	1.7851e-06	6.6847e-07	702.68	257.56	1.516e-06	2.1656e-06	339.85	164.62	121.75	59.45	7.9824e-07	77.537	2.5778e-05	2.7901e-05	6.8903e-06	494.81	2.645e-07	2.913e-07	559.92	194.46	2.6544e-07	2.8852e-07	237.24	113.13	79.386	39.899	2.5529e-07	49.995	96.838	43.738	-53.417	-58.678	25.250	59.451	-59.576	-53.269	128.978	61.572	-55.676	-52.207	-50.204	-46.489	7.667	-48.644	-8191	255	
3097.772	1	1	0	0	0.061625	0.18781	0.19048	0.18355	0.084674	0.17557	0.10039	0.12278	0.22497	0.12755	0.19449	0.073487	0.094594	0.11069	0.1614	0.23693	-4.1188	-4.0833	-3.9208	-4.2979	-3.8083	-4.0312	-4.3396	-4.0333	-4.2146	-4.0583	-3.9604	-4.3396	-4.0208	-4.0917	-4.3167	-4.0417	244.826	-53.160	246.662	144.295	194.756	233.369	128.044	269.047	285.582	271.874	274.670	275.706	172.380	36.600	193.281	219.368	0.0004696	0.00012167	5.183e-05	634.14	5.0593e-07	1.8789e-06	701.43	257.73	9.1413e-07	1.8106e-06	342.06	165.96	121.47	59.769	7.6478e-07	78.089	2.7013e-05	2.5853e-05	6.3876e-06	498.73	2.7436e-07	2.7739e-07	560.91	195.14	2.8695e-07	2.8069e-07	238.62	113.92	79.692	40.089	2.4998e-07	50.334	93.088	-69.882	-5.402	-58.578	64.466	44.912	-59.588	-53.325	45.352	41.749	-55.362	-51.855	-50.262	-46.322	59.045	-48.566	-8191	255	
3097.868	1	1	0	0	0.15714	0.073581	0.14882	0.12579	0.21239	0.14165	0.14888	0.11503	0.086685	0.077878	0.1125	0.089532	0.021358	0.28193	0.064548	0.21682	-3.6792	-4.0833	-3.7646	-4.2937	-4.0208	-4.0583	-4.5312	-3.9625	-4.0729	-4.3646	-3.825	-4.4521	-4.2604	-4.0542	-4.5	-4.0208	-67.288	197.224	162.549	201.322	-66.977	233.589	247.523	260.587	257.047	102.027	185.011	26.196	-70.803	252.304	223.620	-66.944	0.00034028	0.0001922	2.6128e-05	639.91	9.9915e-07	9.4646e-07	707.45	256.94	1.9301e-06	1.0219e-06	342.49	167.35	122.21	61.221	4.6643e-07	79.796	2.7942e-05	2.4215e-05	6.1221e-06	502.15	2.8523e-07	2.5965e-07	563.83	195.18	2.8811e-07	2.5495e-07	238.42	115.06	80.09	40.904	2.3258e-07	51.62	89.599	-16.642	-41.922	-58.669	3.570	46.702	-59.611	-53.561	26.873	12.039	-55.631	-51.804	-50.234	-46.032	86.124	-48.618	-8191	255	
3097.964	1	1	0	0	0.020136	0.18344	0.092517	0.15006	0.2219	0.31357	0.20606	0.19331	0.078395	0.045342	0.13346	0.21881	0.44085	0.11851	0.12468	0.21931	-3.875	-4.2375	-3.8708	-4.4	-4.0813	-3.9042	-4.5333	-4.1687	-4.0396	-4.3729	-3.9021	-4.5208	-4.2542	-4.0167	-4.3896	-4.1167	179.387	-66.252	108.313	200.985	229.708	182.604	141.146	21.870	-3.079	141.540	-50.003	245.713	253.488	-60.957	4.787	176.590	0.00045775	8.5606e-05	1.7997e-05	643.62	2.2008e-06	1.6053e-06	708.64	258.68	6.6831e-07	1.8883e-06	342.91	169.02	123.78	61.223	6.6335e-07	80.366	2.7456e-05	2.2951e-05	5.8981e-06	504.99	2.8272e-07	2.5514e-07	565.44	196.36	2.9121e-07	2.554e-07	239.79	116.22	80.748	41.054	2.4162e-07	51.986	88.618	-12.243	-17.831	-58.514	33.375	21.400	-59.559	-53.410	69.283	32.072	-55.372	-52.083	-50.125	-46.228	-45.727	-48.528	-8191	255	
3098.060	1	1	0	0	0.17099	0.021982	0.15487	0.15631	0.16792	0.20789	0.095476	0.086602	0.34241	0.067748	0.23032	0.15682	0.13078	0.28023	0.079214	0.10569	-3.6146	-4.4292	-3.7875	-4.3146	-4.1062	-3.8375	-4.4833	-4.1438	-4.1208	-4.4146	-4.0021	-4.2271	-4.4292	-3.9542	-4.4021	-4.1646	206.565	-50.466	19.394	40.139	65.270	230.882	177.834	159.721	5.628	286.179	208.864	233.028	-43.755	271.598	222.334	175.123	0.00043581	4.5409e-05	3.2273e-05	634.4	2.1193e-06	1.1629e-06	701.07	257.12	6.1278e-07	2.1819e-06	340.32	166.78	122.02	60.483	1.405e-07	79.265	2.7745e-05	2.2809e-05	5.9025e-06	500.99	2.7191e-07	2.4511e-07	560.89	195.59	2.7266e-07	2.4368e-07	237.64	115.1	80.078	40.61	2.5951e-07	51.339	98.169	-12.036	-48.699	-58.549	8.276	36.453	-59.763	-53.341	138.148	36.710	-55.442	-51.956	-50.295	-46.301	222.372	-48.803	-8191	255	
3098.156	1	1	0	0	0.10393	0.097949	0.10897	0.2015	0.20835	0.066617	0.083284	0.18607	0.16728	0.10913	0.052449	0.16343	0.13254	0.074553	0.089493	0.26694	-3.7479	-4.4625	-3.9938	-4.2167	-4.3187	-3.8125	-4.3708	-4.1792	-3.9458	-4.5021	-4	-4.1854	-4.3	-4.0771	-4.125	-4.2354	16.087	264.099	-64.121	124.431	28.565	176.950	8.177	155.289	184.623	11.778	197.603	257.138	-26.385	84.913	168.924	205.461	0.00049993	0.00022244	5.1294e-05	632.03	1.7187e-06	2.0138e-06	698.83	255.8	8.3418e-07	1.9111e-06	339.55	166.34	121.6	60.573	1.2887e-06	79.733	2.6427e-05	2.2164e-05	6.5711e-06	499.32	2.682e-07	2.4031e-07	558.42	194.43	2.6176e-07	2.3454e-07	237.3	114.53	79.6	40.575	2.7819e-07	51.488	91.150	-7.623	-51.003	-58.497	-6.909	29.240	-59.581	-53.198	-43.158	21.759	-55.460	-52.055	-50.151	-46.541	96.266	-48.721	-8191	255	
3098.277	1	1	0	0	0.10654	0.45659	0.14402	0.084743	0.23784	0.09761	0.093707	0.12015	0.027881	0.36405	0.13763	0.24558	0.036028	0.16227	0.16465	0.049029	-3.6188	-4.3812	-3.8833	-4.2708	-4.3708	-3.8646	-4.3292	-4.25	-3.9042	-4.4062	-4.0604	-4.1896	-4.4062	-4.1312	-4.3	-4.2396	281.937	-36.731	-60.515	271.403	50.952	272.862	41.908	42.760	257.539	-43.356	273.245	197.055	155.517	284.852	281.123	-47.445	0.00042419	7.6553e-05	3.0112e-05	628.69	1.4792e-06	2.0138e-06	697.09	256.98	8.6385e-07	6.8185e-07	340.03	166.88	122.57	60.615	6.425e-07	79.568	2.5952e-05	2.1983e-05	7.3279e-06	497.88	2.644e-07	2.4549e-07	559.26	194.97	2.6106e-07	2.436e-07	238.82	115.16	80.195	40.637	3.0247e-07	51.452	98.144	41.394	36.222	-58.533	44.519	0.560	-59.403	-53.270	24.531	-23.464	-55.347	-51.948	-50.134	-46.233	46.879	-48.636	-8191	255	
3098.373	1	1	0	0	0.19664	0.099315	0.094154	0.13985	0.12849	0.1291	0.18086	0.18937	0.43572	0.19233	0.13893	0.19839	0.27506	0.091502	0.19003	0.2725	-3.5667	-4.3521	-4.1562	-4.0687	-4.225	-3.5729	-4.2208	-4.2167	-3.8187	-4.2354	-4.1958	-4.0333	-4.3063	-4.0771	-4.2854	-4.3271	47.425	210.439	84.706	262.865	-10.640	211.590	254.568	211.537	-31.683	158.584	230.361	156.077	123.357	-44.504	193.310	247.709	0.00037794	0.00013914	5.9792e-05	635.89	1.5585e-06	1.6546e-06	702.73	257.18	2.5702e-06	1.2486e-06	341.96	168	123.04	60.442	1.3457e-06	79.259	2.5489e-05	2.3487e-05	7.8104e-06	500.51	2.605e-07	2.7031e-07	564.43	196.02	2.6705e-07	2.7701e-07	241.1	115.59	80.442	40.532	3.2137e-07	51.174	95.212	-10.471	-10.385	-58.792	56.284	54.699	-59.505	-53.284	29.760	127.350	-55.110	-52.119	-49.913	-46.174	111.790	-48.597	-8191	255	
3098.469	1	1	0	0	0.11354	0.080478	0.25791	0.22849	0.14456	0.16452	0.23962	0.30198	0.015841	0.12935	0.080968	0.14182	0.076109	0.21958	0.207	0.25011	-3.5021	-4.15	-4.1229	-3.9583	-4.4833	-3.9958	-4.1792	-4.2979	-3.7	-4.2979	-4.3229	-3.925	-4.5979	-3.9896	-4.1292	-4.3854	32.396	222.474	148.262	-36.822	173.967	-10.938	226.677	239.400	-31.510	113.345	238.991	-13.543	66.913	-51.630	-67.953	241.729	0.00047524	5.8367e-05	3.2895e-05	634.01	4.3447e-07	1.4845e-06	704.86	257.73	1.4166e-06	8.0481e-07	340.06	166.66	121.67	59.506	4.7101e-07	77.912	2.5242e-05	2.6414e-05	7.9245e-06	500.6	2.5155e-07	2.9144e-07	564.68	195.63	2.5146e-07	2.9097e-07	238.79	114.16	79.389	40.011	2.9708e-07	50.193	95.863	56.700	-19.472	-58.433	288.304	63.816	-59.546	-53.328	32.277	51.753	-55.406	-52.034	-50.176	-46.122	45.985	-48.651	-8191	255	
3098.565	1	1	0	0	0.073562	0.24666	0.19289	0.031837	0.19966	0.15968	0.21242	0.34386	0.12533	0.1702	0.2053	0.096294	0.17567	0.18207	0.14212	0.36134	-3.5271	-4.1188	-3.9125	-3.9375	-4.4938	-4.0896	-4.0542	-4.3896	-3.9188	-4.4458	-4.3625	-3.8125	-4.2625	-4.2688	-3.9813	-4.5583	-16.991	270.632	288.538	254.181	47.926	129.905	93.084	191.614	-15.164	-22.129	266.100	162.404	42.825	270.282	86.007	283.318	0.00044722	6.3635e-05	4.014e-05	635.19	1.4552e-06	7.6176e-07	700.25	253.87	1.326e-06	1.1828e-06	335.06	164.72	120.29	59.999	1.1677e-06	78.146	2.4304e-05	2.6865e-05	7.1217e-06	499.36	2.4303e-07	2.9012e-07	560.02	193.03	2.4741e-07	2.896e-07	234.54	113.04	78.516	40.259	2.7015e-07	50.374	106.695	0.507	-65.936	-58.587	64.597	163.938	-59.603	-53.258	54.576	65.470	-55.767	-52.191	-50.268	-46.428	39.680	-48.915	-8191	255	
3098.662	1	1	0	0	0.18542	0.018195	0.18403	0.050015	0.25092	0.14341	0.11926	0.2072	0.17261	0.27961	0.097316	0.22254	0.086869	0.25074	0.15631	0.22653	-3.2917	-4.0792	-4.2354	-3.9292	-4.1687	-4.0813	-4.0625	-4.4125	-3.9583	-4.0958	-4.3521	-4.0312	-4.3792	-4.2854	-3.7938	-4.4458	-10.662	-5.635	51.560	121.900	224.466	-25.213	206.040	84.523	52.407	-42.815	223.513	163.357	259.057	180.900	277.469	245.683	0.00049069	0.00016899	4.8995e-05	633.31	1.3368e-06	1.31e-06	695.71	252.26	1.6882e-06	2.048e-06	332.09	162.59	119.86	59.873	1.0095e-06	77.989	2.541e-05	2.7674e-05	6.8827e-06	496.77	2.7029e-07	3.0783e-07	555.72	191.14	2.7654e-07	2.9743e-07	232.28	111.93	78.256	40.14	2.5293e-07	50.259	89.132	0.435	-45.337	-58.607	98.050	80.820	-59.727	-53.382	75.032	25.201	-55.469	-51.876	-50.177	-46.604	103.451	-48.855	-8191	255	
3098.756	1	1	0	0	0.10334	0.15393	0.049098	0.11078	0.15023	0.27269	0.17272	0.12741	0.088072	0.14824	0.25472	0.17866	0.27444	0.34798	0.15712	0.11796	-3.4083	-4.0583	-4.2833	-3.8979	-4.3688	-4.1958	-3.9042	-4.3812	-4.075	-3.9854	-4.35	-3.9208	-4.3521	-4.1562	-3.7188	-4.5208	94.389	125.139	10.678	-2.577	204.379	132.765	-54.789	61.677	38.434	-14.699	130.081	46.194	253.501	-63.920	249.717	224.166	0.00046416	0.00012604	1.0107e-05	630.49	5.8223e-07	9.8167e-07	692.63	250.25	1.3501e-06	1.3102e-06	327.47	162.23	118.5	59.912	1.5019e-06	78.742	2.6149e-05	2.5175e-05	6.2367e-06	494.34	2.7117e-07	2.7118e-07	553.21	189.49	2.8269e-07	2.6852e-07	229.95	111.66	77.73	40.169	2.3733e-07	50.752	84.473	288.513	219.189	-58.520	141.689	28.365	-59.583	-53.282	107.384	67.923	-55.243	-51.885	-50.257	-46.440	52.288	-48.906	-8191	255	
3098.877	1	1	0	0	0.041135	0.083686	0.083622	0.14733	0.12703	0.29851	0.16396	0.14803	0.2495	0.024614	0.29404	0.24139	0.10449	0.18196	0.33014	0.1197	-3.6437	-3.8187	-4.375	-4.0042	-4.0625	-4.1375	-3.6937	-4.1646	-3.8583	-4.0646	-4.3354	-3.9292	-3.9896	-4.3979	-3.8187	-4.4437	127.820	248.518	136.704	253.125	-57.098	-17.236	209.106	192.689	142.202	-35.539	286.780	13.396	210.123	-58.143	-42.101	217.082	0.00037199	0.00015817	2.8434e-05	635.9	2.3488e-06	1.4489e-06	698.18	250.96	4.8807e-07	1.3442e-06	331.68	164.94	119.72	60.989	1.5847e-06	80.111	2.6934e-05	2.2817e-05	5.7507e-06	496.73	2.6954e-07	2.4104e-07	555.68	190.39	2.7426e-07	2.4551e-07	231.42	113.03	78.308	40.8	2.2709e-07	51.518	85.375	4.533	0.249	-58.814	-3.065	1.676	-59.756	-53.321	41.707	40.018	-55.355	-51.955	-50.192	-46.454	52.938	-48.868	-8191	255	
3098.973	1	1	0	0	0.050767	0.13155	0.058918	0.095328	0.21773	0.19197	0.14987	0.40371	0.22638	0.096711	0.11253	0.11463	0.081427	0.20494	0.077078	0.0072288	-3.6833	-3.9083	-4.3146	-3.7792	-3.9604	-4.2729	-3.9396	-4.2375	-4.2312	-3.7896	-4.2063	-4.0229	-4.1146	-4.4437	-3.7	-4.2083	169.064	228.800	61.757	275.123	232.595	222.458	183.279	194.814	39.441	275.644	256.065	160.257	14.832	255.511	149.361	262.904	0.00045034	0.00015045	2.9619e-05	635.88	8.3753e-07	9.5926e-07	699.28	253.08	2.4626e-06	1.8644e-06	333.87	164.69	120.05	60.37	6.1743e-07	79.134	2.7483e-05	2.281e-05	5.8595e-06	499.84	2.77e-07	2.4684e-07	558.49	192.43	2.794e-07	2.4628e-07	233.31	113.09	78.436	40.492	2.3102e-07	51.087	96.370	-27.500	4.271	-58.684	-10.659	22.726	-59.482	-53.585	67.929	8.756	-55.237	-52.015	-50.158	-46.502	59.347	-48.576	-8191	255	
3099.069	1	1	0	0	0.1812	0.034454	0.17638	0.23577	0.15786	0.19024	0.23494	0.16677	0.078661	0.21035	0.041623	0.076385	0.16832	0.21875	0.10809	0.1084	-3.7833	-3.8354	-4.3729	-4.0958	-4.1771	-4.3854	-3.8896	-4.2333	-4.1396	-3.9458	-4.2917	-4.0563	-3.9167	-4.5729	-3.9042	-4.2417	118.768	238.351	-44.256	115.284	-28.014	107.879	193.654	234.501	62.923	-15.491	-19.140	-46.555	-51.846	-41.541	105.831	287.727	0.00033688	0.00012142	2.4254e-05	633.49	1.5042e-06	1.2908e-06	700.67	253.47	1.7852e-06	1.2092e-06	332.9	164.17	119.61	60.625	8.9144e-07	79.283	2.652e-05	2.2145e-05	5.9201e-06	500.07	2.7222e-07	2.4471e-07	556.52	192.59	2.6947e-07	2.4068e-07	232.84	113.01	78.407	40.467	2.4426e-07	51.272	100.103	6.476	34.277	-58.653	27.645	41.569	-59.846	-53.291	78.921	64.962	-55.487	-52.062	-50.255	-46.615	72.434	-48.864	-8191	255	
3099.165	1	1	0	0	0.14958	0.075887	0.15705	0.16847	0.13331	0.14489	0.12897	0.25581	0.059268	0.20809	0.078117	0.089213	0.20358	0.2021	0.2016	0.055466	-3.9229	-3.6833	-4.1604	-4.0167	-3.9583	-4.4667	-3.9437	-4.3	-4.2271	-3.8021	-4.3125	-3.9979	-3.8104	-4.4792	-3.8917	-4.1667	222.239	143.639	-37.116	-63.186	130.493	272.680	167.386	271.148	102.510	242.753	112.455	221.795	-22.526	218.378	70.542	94.398	0.00042356	9.8748e-05	2.7206e-05	631.68	1.2639e-06	8.765e-07	699.08	252.88	1.178e-06	2.2422e-06	333.44	164.46	119.69	60.796	4.785e-07	80.223	2.526e-05	2.1149e-05	6.2691e-06	500.67	2.5305e-07	2.3038e-07	558.11	192.04	2.5273e-07	2.2945e-07	232.91	113.18	78.141	40.676	2.6585e-07	51.691	80.793	-28.974	37.830	-58.383	11.497	45.198	-59.812	-53.400	39.060	25.081	-55.465	-51.967	-50.160	-46.572	142.502	-48.960	-8191	255	
3099.237	1	1	0	0	0.21274	0.046313	0.089026	0.064583	0.33594	0.14558	0.085654	0.18366	0.1493	0.24825	0.18034	0.06512	0.20808	0.26647	0.21515	0.094957	-3.9583	-3.7542	-4.3063	-4.1937	-3.9146	-4.2125	-3.9646	-4.0604	-4.1833	-3.7188	-4.2271	-4.0979	-3.8104	-4.3438	-3.9292	-4.1417	286.011	166.637	187.158	9.578	58.239	37.828	276.256	-39.589	-13.245	45.579	236.839	251.885	227.627	25.084	-63.988	233.458	0.00037715	6.4677e-05	4.8167e-05	638.63	2.0331e-06	1.6614e-06	700.79	253.71	1.8085e-06	9.9538e-07	333.79	166.33	119.98	61.726	1.3068e-06	81.036	2.4022e-05	2.0417e-05	6.6429e-06	501.48	2.4078e-07	2.1833e-07	560.75	192.45	2.3648e-07	2.2714e-07	234.19	113.75	78.298	41.191	2.7822e-07	52.178	101.030	1.032	6.468	-58.741	8.091	28.436	-59.635	-53.824	2.748	20.509	-55.541	-51.989	-50.057	-46.544	83.135	-48.860	-8191	255	
3099.357	1	1	0	0	0.32696	0.13799	0.080794	0.15806	0.22788	0.095403	0.30791	0.20811	0.060024	0.091294	0.14508	0.137	0.13418	0.18834	0.064901	0.18996	-3.9083	-3.825	-4.175	-4.2188	-3.6375	-4.2854	-4.25	-3.9688	-4.2792	-3.8812	-4.1062	-4.325	-3.8625	-4.4396	-4.0729	-3.9917	171.318	97.427	276.605	11.147	162.271	55.860	216.108	-17.781	253.329	-31.993	258.669	237.676	-60.287	233.636	162.934	256.139	0.000326	0.00015341	2.6673e-05	640.87	1.655e-06	6.5658e-07	703.96	253.85	1.0107e-06	1.8526e-06	334.32	166.02	120.32	61.535	1.2529e-06	80.69	2.3311e-05	2.0925e-05	7.0118e-06	502.98	2.274e-07	2.2839e-07	562.54	192.96	2.2299e-07	2.3428e-07	234.29	113.6	78.275	41.203	2.7197e-07	51.998	101.048	-0.210	-0.488	-58.724	45.701	33.480	-59.644	-53.428	67.329	24.777	-55.440	-51.862	-50.210	-46.499	43.118	-49.034	-8191	255	
3099.454	1	1	0	0	0.26203	0.069383	0.16199	0.15141	0.10653	0.18944	0.11931	0.23199	0.12451	0.072088	0.41103	0.22546	0.24245	0.32111	0.25748	0.16904	-3.9604	-3.7333	-4.0813	-4.1729	-3.7042	-4.2188	-4.2417	-3.9542	-4.35	-3.9167	-3.925	-4.3063	-3.8208	-4.3479	-4.0458	-4.0208	190.038	-37.248	261.398	209.012	168.303	240.578	180.344	256.980	30.434	-24.414	287.458	215.873	262.137	227.345	210.808	-58.851	0.0004527	7.2067e-05	7.6169e-06	638.93	2.2898e-06	1.0859e-06	696.46	254.17	1.4244e-06	7.9046e-07	333.45	165.77	119.71	62.118	6.025e-07	81.582	2.1977e-05	2.2792e-05	6.7768e-06	500.29	2.1869e-07	2.4722e-07	559.08	191.93	2.1328e-07	2.4552e-07	233.68	113.53	78.199	41.584	2.5034e-07	52.398	86.679	35.152	209.158	-58.407	40.345	120.667	-59.785	-53.445	118.427	60.640	-55.375	-52.078	-50.163	-46.488	66.852	-49.015	-8191	255	
3099.550	1	1	0	0	0.13014	0.066523	0.21838	0.17802	0.030025	0.24803	0.22107	0.20978	0.061864	0.067341	0.10668	0.10519	0.20562	0.28108	0.18431	0.19383	-4.0042	-3.7812	-3.8	-4.1687	-3.7271	-3.9604	-4.0146	-3.7292	-4.3042	-4.0271	-3.9479	-4.3604	-3.9042	-4.0729	-3.975	-3.8521	285.187	20.727	-24.484	287.559	20.378	161.809	-12.050	-59.315	97.767	105.524	-1.122	153.517	202.872	-26.772	-28.242	260.848	0.00042153	0.00010603	6.3261e-05	636.08	7.4943e-07	1.6294e-06	706.85	255.98	9.7869e-07	7.6939e-07	336.72	165.98	120.41	62.485	1.9072e-06	82.001	2.142e-05	2.3325e-05	6.3092e-06	499.75	2.2033e-07	2.6104e-07	562.65	193.57	2.2539e-07	2.6347e-07	236.02	113.89	78.416	41.683	2.3588e-07	52.655	80.770	-37.264	-7.677	-59.015	26.937	49.081	-59.844	-53.589	111.597	56.307	-55.602	-52.045	-50.232	-46.658	43.945	-48.818	-8191	255	
3099.646	1	1	0	0	0.10553	0.044045	0.28877	0.17882	0.13107	0.13143	0.14511	0.16963	0.27538	0.17888	0.052141	0.18991	0.056127	0.10713	0.065991	0.095175	-3.9604	-3.9688	-3.7792	-4.3042	-3.6979	-4.0417	-4.2479	-3.775	-4.2542	-3.9437	-4.0062	-4.3688	-4.05	-4.0938	-4.1917	-3.9625	162.251	219.192	176.681	159.908	265.546	55.289	200.780	-63.617	256.494	-14.019	153.874	233.932	151.944	-26.335	152.548	174.165	0.00054262	7.3498e-05	4.91e-05	644.23	1.411e-06	2.0362e-06	713.69	256.49	1.4433e-06	1.5763e-06	340.08	167.84	121.05	62.861	1.3872e-06	82.776	2.2334e-05	2.3341e-05	5.7742e-06	503.2	2.2956e-07	2.5405e-07	566.4	194.33	2.3613e-07	2.5326e-07	236.76	114.77	79.059	42.023	2.2925e-07	53.104	90.531	42.995	-29.687	-58.604	23.351	73.307	-59.719	-53.426	98.532	10.619	-55.686	-52.092	-50.138	-46.531	10.131	-49.147	-8191	255	
3099.765	1	1	0	0	0.12765	0.062164	0.17486	0.10642	0.17969	0.18897	0.058395	0.11901	0.094593	0.19871	0.22854	0.10832	0.11174	0.13209	0.10592	0.25607	-3.9542	-4.0437	-3.7917	-4.375	-4.0813	-4.1271	-4.3167	-3.8167	-4.2729	-4.4167	-3.7917	-4.2917	-4.175	-3.8438	-4.1396	-3.9896	77.735	172.027	216.243	152.098	96.253	175.275	212.501	279.204	243.263	170.546	228.705	243.633	265.024	240.764	-15.062	244.399	0.00051874	9.7468e-05	6.8901e-05	645.76	1.2936e-06	1.6644e-06	712.92	259.37	5.6867e-07	2.1102e-06	340.4	168.46	122.13	62.789	1.6343e-06	81.551	2.4272e-05	2.2678e-05	5.6251e-06	504.45	2.4813e-07	2.4172e-07	567.63	195.52	2.487e-07	2.368e-07	238.05	115.79	80.017	41.981	2.2682e-07	52.653	88.442	-4.700	-36.736	-58.815	46.725	54.523	-59.793	-53.553	169.034	13.600	-55.519	-52.296	-50.135	-46.619	41.774	-48.912	-8191	255	
3099.861	1	1	0	0	0.17517	0.27325	0.19151	0.11504	0.17008	0.002293	0.21616	0.34741	0.089143	0.08832	0.13565	0.24822	0.22934	0.26918	0.069739	0.3617	-3.6875	-4.0604	-3.6333	-4.2729	-4.0125	-3.9917	-4.4938	-3.975	-4.2083	-4.1021	-3.8792	-4.4708	-4.0104	-4.1167	-4.1729	-3.9854	51.693	209.962	-38.349	-36.946	59.283	180.000	216.153	-66.074	169.342	277.972	234.749	264.039	131.870	231.885	223.823	212.264	0.00039723	0.00016753	3.9168e-05	635.58	9.6411e-07	1.4748e-06	707.67	258.64	1.5777e-06	1.2984e-06	340.4	166.11	120.58	61.126	1.1582e-06	79.716	2.6707e-05	2.2742e-05	5.8291e-06	500.86	2.7515e-07	2.4274e-07	564.46	195.68	2.7606e-07	2.3857e-07	237.47	114.18	79.113	40.865	2.1896e-07	51.396	80.048	12.550	-32.231	-58.623	21.478	28.145	-59.739	-53.544	79.603	68.280	-55.440	-52.118	-50.167	-46.663	37.882	-49.125	-8191	255	
3099.957	1	1	0	0	0.17043	0.065109	0.12185	0.26148	0.061161	0.30044	0.059739	0.13319	0.33817	0.021167	0.14545	0.12764	0.23159	0.14518	0.23585	0.17322	-3.7146	-4.2646	-3.7146	-4.2896	-3.9646	-3.8146	-4.375	-4.0542	-3.85	-4.125	-3.6729	-4.2979	-4.2771	-4.0167	-4.2188	-4.1104	238.264	21.266	282.256	-58.145	217.090	288.126	96.357	239.601	221.366	-55.093	37.692	-55.895	208.924	269.443	-64.910	225.193	0.00037509	9.8857e-05	4.3511e-05	636.33	1.3719e-06	1.1675e-06	703.48	258.13	7.2569e-07	1.3631e-06	342.44	166.72	122.37	60.922	8.3477e-07	79.377	2.5944e-05	2.1324e-05	5.4271e-06	500.14	2.6442e-07	2.3164e-07	561.09	195.92	2.5996e-07	2.2599e-07	237.92	114.71	79.487	40.75	2.1553e-07	51.411	89.754	-55.684	-45.090	-58.956	43.254	14.190	-59.975	-53.445	58.512	39.029	-55.569	-52.119	-50.085	-46.411	109.065	-48.780	-8191	255	
3100.053	1	1	0	0	0.064379	0.21651	0.22282	0.15204	0.25058	0.073092	0.094052	0.16236	0.24532	0.050995	0.26649	0.10067	0.42653	0.10547	0.19953	0.24482	-3.6021	-4.0958	-3.8021	-4.2271	-4.2521	-3.7521	-4.225	-4.0437	-3.8063	-4.2125	-4.0083	-4.1708	-4.2125	-3.95	-4.1438	-4.1979	204.543	242.554	96.958	6.524	-58.438	149.418	52.147	274.258	30.224	87.805	261.420	18.156	207.971	-58.556	138.742	288.058	0.00040762	8.7861e-05	3.5449e-05	641.16	3.2158e-07	1.7584e-06	707.85	258.27	1.3953e-06	1.6364e-06	340.15	166.96	121.81	61.529	1.7455e-06	80.783	2.4291e-05	2.0019e-05	5.4253e-06	502.55	2.4094e-07	2.1985e-07	563.4	196.1	2.4185e-07	2.171e-07	237.67	115.19	79.525	41.143	2.2499e-07	52.119	105.110	13.662	-38.756	-58.697	41.330	34.294	-59.783	-53.435	38.339	34.463	-55.341	-52.171	-50.663	-46.645	50.877	-48.909	-8191	255	
3100.149	1	1	0	0	0.13056	0.24126	0.19728	0.21136	0.065516	0.11394	0.16845	0.082128	0.15051	0.094025	0.090066	0.13199	0.060633	0.069699	0.23252	0.22277	-3.4521	-4.3854	-3.7458	-4.1937	-4.1042	-3.9521	-4.3313	-4.0625	-3.8958	-4.3021	-3.95	-4.2375	-4.2896	-4.0833	-4.2125	-4.3313	242.791	209.467	156.855	279.711	221.807	-33.482	279.157	262.156	193.574	204.842	267.850	272.306	129.356	274.695	204.789	178.944	0.00045102	0.00012189	3.2635e-05	640.38	1.3728e-06	1.3704e-06	709.83	259.96	5.3387e-07	1.3965e-06	342.59	168.84	122.27	62.177	7.7109e-07	82.072	2.2812e-05	1.9001e-05	5.746e-06	504.85	2.2599e-07	2.072e-07	567.07	196.38	2.24e-07	2.0226e-07	238.89	115.98	79.621	41.503	2.4262e-07	52.816	91.012	21.117	24.654	-58.909	42.807	40.437	-59.672	-53.544	49.899	7.366	-55.491	-52.047	-50.012	-46.262	54.907	-48.740	-8191	255	
3100.245	1	1	0	0	0.20384	0.033999	0.10571	0.083775	0.042875	0.10498	0.17402	0.11062	0.014925	0.24409	0.096137	0.29056	0.36681	0.11145	0.1334	0.16165	-3.4792	-4.2667	-3.7625	-4.1396	-4.125	-3.9646	-4.0583	-4.3	-3.6917	-4.3396	-4.1562	-4.025	-4.4375	-3.9313	-4.1813	-4.2229	193.423	214.148	96.367	-38.973	11.362	184.827	173.257	-26.121	276.874	220.175	-14.596	158.635	232.630	216.196	65.866	141.140	0.00031788	0.00020072	3.603e-05	642.33	1.455e-06	1.4532e-06	711.56	259.07	1.3227e-06	1.6694e-06	341.53	168.62	122.73	62.33	1.3897e-06	81.942	2.2305e-05	1.8611e-05	6.1908e-06	504.62	2.1848e-07	2.0631e-07	567.87	195.99	2.191e-07	2.0465e-07	238.59	115.84	79.673	41.633	2.5406e-07	52.805	87.141	16.261	11.273	-58.465	18.345	62.817	-59.693	-53.460	93.398	54.276	-55.500	-52.080	-49.943	-46.474	41.280	-49.054	-8191	255	
3100.366	1	1	0	0	0.12819	0.3799	0.11697	0.069287	0.1671	0.28015	0.038104	0.25414	0.11796	0.30135	0.31801	0.18527	0.15227	0.21331	0.17598	0.097105	-3.3937	-4.2688	-3.9833	-4.0875	-4.2729	-3.8542	-4.3292	-4.3104	-3.6542	-4.3792	-4.0146	-3.9688	-4.325	-4.025	-4.0062	-4.3271	-61.001	26.356	45.423	-33.531	-25.180	-38.859	134.238	206.943	19.638	25.286	216.469	228.966	-69.491	-55.426	250.874	-49.255	0.00046023	8.2714e-05	3.0995e-05	640.15	1.1262e-06	8.1742e-07	707.33	257.21	1.3594e-06	3.8967e-07	338.37	168.19	122.45	62.265	1.2151e-06	82.066	2.168e-05	1.947e-05	6.545e-06	501.96	2.155e-07	2.2127e-07	564.72	194.85	2.142e-07	2.2941e-07	237.63	115.58	79.575	41.577	2.5574e-07	52.681	94.396	12.775	10.177	-58.844	0.548	85.224	-59.637	-53.527	75.667	-66.021	-55.443	-52.094	-50.232	-46.503	63.474	-48.809	-8191	255	
3100.462	1	1	0	0	0.10652	0.028892	0.18476	0.13918	0.28604	0.066008	0.18097	0.1871	0.21957	0.069129	0.094702	0.14622	0.19704	0.048612	0.17031	0.15514	-3.3604	-4.2729	-4.2063	-3.9333	-4.3646	-3.8167	-3.95	-4.2417	-3.8708	-4.2188	-4.0958	-4.025	-4.5271	-4.1312	-4.075	-4.4333	9.664	-1.464	61.923	263.311	70.006	-33.084	86.655	-71.655	172.164	261.543	284.314	-40.555	273.547	49.633	-41.313	188.885	0.00047952	6.4721e-05	3.1909e-05	640.28	1.2557e-06	3.6615e-07	709.45	257.71	1.4736e-06	9.8319e-07	340.94	169.33	122.12	62.892	1.024e-06	83.284	2.0681e-05	2.1518e-05	6.32e-06	501.56	2.0487e-07	2.3868e-07	564.71	194.75	2.1076e-07	2.474e-07	238.14	116.24	79.715	42.099	2.5336e-07	53.405	94.693	-61.237	-28.473	-58.879	67.605	148.443	-59.785	-53.714	40.367	81.228	-55.396	-52.093	-50.422	-46.623	89.225	-48.831	-8191	255	
3100.534	1	1	0	0	0.17609	0.24228	0.25782	0.1569	0.22837	0.061278	0.039858	0.19754	0.27373	0.14648	0.04314	0.20778	0.24211	0.055947	0.14254	0.19412	-3.3063	-4.0708	-4.0312	-3.9042	-4.2583	-4.0708	-3.9062	-4.1146	-3.8875	-4.2146	-4.2438	-3.9625	-4.4771	-4.1021	-3.8375	-4.5125	273.920	271.462	171.022	148.050	204.458	79.443	139.159	260.529	60.057	270.422	247.625	249.166	263.102	75.786	153.259	216.494	0.00046728	0.00022004	3.1576e-05	637.04	1.7211e-06	1.5369e-06	710.2	257.48	2.7581e-07	1.0338e-06	343.81	171.72	124.12	62.831	1.3761e-06	82.648	2.1733e-05	2.3624e-05	6.2421e-06	499.95	2.1988e-07	2.6216e-07	565.59	195.08	2.2262e-07	2.6357e-07	240.19	117.45	80.656	42.093	2.5117e-07	53.143	91.812	21.070	-32.131	-58.519	69.450	58.004	-59.614	-53.249	130.612	33.561	-55.442	-52.415	-50.147	-46.503	56.892	-48.779	-8191	255	
3100.655	1	1	0	0	0.16298	0.24778	0.093916	0.29238	0.17495	0.067773	0.17381	0.085194	0.24147	0.12832	0.19278	0.12137	0.09977	0.1725	0.17022	0.22692	-3.5167	-4.0458	-4.2063	-3.7917	-4.0833	-4.0667	-3.9729	-4.2583	-3.7583	-4.0875	-4.3583	-3.8063	-4.2021	-4.125	-3.7729	-4.5417	80.018	-3.177	-56.848	-68.636	110.166	23.167	210.035	209.963	62.995	-58.801	179.017	145.372	5.954	264.018	112.592	275.852	0.00051035	7.9339e-05	4.1148e-05	641.12	1.1936e-06	1.3255e-06	711.85	260.41	5.4046e-07	1.5959e-06	345.71	172.92	124.32	62.739	1.0319e-06	82.667	2.4302e-05	2.5785e-05	6.4795e-06	502.5	2.5728e-07	2.845e-07	568.78	196.91	2.6092e-07	2.7715e-07	241.19	117.77	81.229	42.044	2.4508e-07	53.074	90.827	30.616	-59.130	-58.625	73.371	59.312	-59.584	-53.294	53.697	32.313	-55.632	-51.980	-50.315	-46.650	61.778	-48.975	-8191	255	
3100.749	1	1	0	0	0.119	0.2264	0.023567	0.13139	0.014366	0.070935	0.10219	0.33987	0.15624	0.12656	0.26542	0.21074	0.10431	0.27578	0.22951	0.18621	-3.3896	-3.9688	-4.2688	-3.8667	-4.1917	-4.0563	-3.9979	-4.5146	-4.0896	-4.1958	-4.3688	-3.8	-4.1833	-4.2708	-3.8125	-4.3479	160.696	1.947	72.580	184.917	153.482	187.327	227.103	246.527	104.890	85.835	155.919	142.384	264.433	239.003	-26.158	251.121	0.00052011	0.00016129	5.3781e-05	635.78	6.8432e-07	1.4163e-06	708.01	256.08	1.0392e-06	1.2907e-06	340.47	168.57	122.5	61.454	1.8397e-06	80.836	2.6394e-05	2.462e-05	6.1946e-06	500.07	2.8103e-07	2.7237e-07	563.15	194.62	2.8467e-07	2.6752e-07	237.51	115.68	80.343	41.219	2.3369e-07	52.054	84.496	-5.127	-44.287	-58.651	-47.066	58.118	-59.670	-53.262	87.879	55.571	-55.427	-52.106	-50.331	-46.355	16.059	-48.503	-8191	255	
3100.845	1	1	0	0	0.14167	0.093886	0.22252	0.11433	0.16104	0.17326	0.18037	0.18435	0.10742	0.085662	0.26225	0.16613	0.15719	0.23375	0.16569	0.19817	-3.6021	-4.0188	-4.45	-3.8646	-4.1917	-4.0792	-3.8979	-4.3021	-4.1021	-3.8812	-4.4	-3.8583	-4.2583	-4.3042	-3.7875	-4.225	271.612	14.574	198.983	214.854	215.360	37.074	234.538	286.628	242.035	-1.500	-62.213	259.356	282.661	183.819	125.532	158.854	0.00039798	0.00018493	3.2618e-05	636.55	1.0417e-06	1.4677e-06	702.35	255.95	1.266e-06	2.2372e-06	337.13	167.93	121.24	61.345	6.5926e-07	80.331	2.6988e-05	2.2597e-05	5.7762e-06	498.63	2.7028e-07	2.429e-07	559.17	193.6	2.7205e-07	2.4405e-07	235.36	115.06	79.611	40.994	2.2607e-07	51.879	77.030	-43.992	-30.863	-58.609	44.150	7.521	-59.640	-53.488	36.893	59.578	-55.338	-51.956	-50.044	-46.539	36.965	-48.802	-8191	255	
3100.941	1	1	0	0	0.2048	0.1792	0.15898	0.1765	0.025201	0.11127	0.11624	0.17366	0.27052	0.21994	0.21679	0.044799	0.11613	0.18801	0.04759	0.16591	-3.7313	-3.7167	-4.3938	-3.9396	-4.1188	-4.2063	-3.9062	-4.3542	-4.1167	-3.9604	-4.4167	-4.1521	-3.9458	-4.3458	-3.7146	-4.2604	164.249	180.738	234.096	12.083	180.766	88.893	253.632	264.129	145.487	154.219	252.950	190.554	228.821	264.635	67.383	222.797	0.00037143	0.00020113	2.9292e-05	635.82	1.7807e-06	1.2374e-06	701.26	255.27	7.0732e-07	8.8529e-07	335.04	167.74	121.19	61.518	1.0724e-06	80.913	2.6959e-05	2.1819e-05	5.6116e-06	499.45	2.6392e-07	2.3291e-07	559.2	193.88	2.5859e-07	2.2956e-07	234.1	114.95	79.201	41.129	2.2497e-07	52.208	106.202	6.404	-35.508	-58.803	-18.120	16.122	-59.673	-53.511	68.464	55.783	-55.525	-51.942	-50.114	-46.483	80.729	-48.753	-8191	255	
3101.062	1	1	0	0	0.033561	0.3006	0.20742	0.052995	0.041769	0.068631	0.24682	0.23748	0.094274	0.12997	0.28432	0.14751	0.28953	0.20657	0.21297	0.20883	-3.6354	-3.7083	-4.2792	-3.9167	-3.9125	-4.3875	-4.0875	-4.2708	-4.1104	-3.6125	-4.3896	-4.0771	-4.0708	-4.4917	-3.8792	-4.2104	125.808	284.098	55.596	-43.512	-20.513	233.845	246.780	212.543	282.541	14.130	193.242	183.358	205.991	254.252	207.300	199.979	0.00041526	0.000134	1.8337e-05	636.27	1.0238e-06	7.9982e-07	703.07	255.31	1.0664e-06	1.94e-06	336.3	167.29	121.06	62.013	1.0024e-06	82.387	2.5767e-05	2.1278e-05	5.7851e-06	501.35	2.5721e-07	2.3195e-07	560.43	193.7	2.4718e-07	2.2387e-07	234.76	115.38	78.986	41.444	2.3225e-07	53.04	107.913	-18.505	76.207	-58.451	12.709	69.146	-59.978	-53.202	41.433	92.493	-55.583	-51.931	-50.240	-46.659	76.775	-48.884	-8191	255	
3101.158	1	1	0	0	0.17527	0.064013	0.13846	0.13903	0.19749	0.081622	0.22179	0.029021	0.23974	0.10514	0.26303	0.1359	0.02873	0.26372	0.11192	0.098601	-3.8854	-3.7938	-4.3083	-4.1083	-3.9833	-4.3396	-3.9229	-4.1062	-4.225	-3.8438	-4.3875	-4.1979	-3.8146	-4.4604	-3.9958	-4.2458	238.150	-10.953	146.060	228.443	135.033	148.080	195.169	188.264	119.067	-42.621	238.003	76.993	259.810	269.959	177.797	249.980	0.00031782	0.00017387	1.1157e-05	637.73	1.0205e-06	1.2039e-06	701.43	255.78	4.2851e-07	4.5526e-07	336.02	166.96	120.88	61.614	4.0707e-07	81.593	2.3708e-05	1.9572e-05	5.9494e-06	503.5	2.4001e-07	2.1574e-07	562.21	193.48	2.3981e-07	2.1867e-07	234.44	114.52	78.505	41.215	2.5818e-07	52.539	92.553	21.673	16.164	-58.676	5.482	26.579	-59.676	-53.602	-20.549	57.275	-55.769	-51.942	-50.466	-46.698	34.964	-48.936	-8191	255	
3101.230	1	1	0	0	0.095773	0.065235	0.38042	0.025332	0.085758	0.17138	0.3636	0.33651	0.10418	0.1096	0.17156	0.2446	0.097883	0.13281	0.2032	0.15549	-3.8812	-3.8063	-4.0771	-4.3146	-3.875	-4.1937	-3.9979	-4.0542	-4.1771	-3.7792	-4.1521	-4.1021	-3.8542	-4.475	-3.9708	-3.9229	35.646	-30.881	-13.748	275.269	-10.408	133.775	167.174	253.900	190.367	55.662	34.742	130.955	-55.300	287.080	-43.200	-58.188	0.00037335	0.00017065	2.8572e-05	633.96	1.9862e-06	4.9425e-07	697.19	252.71	9.6729e-07	1.8427e-06	330.11	165.58	119.64	61.597	5.9296e-07	81.104	2.2982e-05	1.9449e-05	6.4495e-06	497.39	2.2765e-07	2.1292e-07	555.93	191.22	2.2717e-07	2.1627e-07	231.7	113.53	77.966	41.123	2.7289e-07	52.242	98.739	-16.289	-14.451	-58.651	19.775	60.055	-59.994	-53.153	85.518	19.546	-55.556	-52.010	-50.367	-46.495	47.178	-48.802	-8191	255	
3101.326	1	1	0	0	0.16376	0.28055	0.082944	0.20354	0.15906	0.20052	0.15811	0.12151	0.15014	0.094275	0.05206	0.037576	0.046402	0.13078	0.10914	0.26758	-3.8125	-3.7938	-4.1625	-4.2542	-3.8542	-4.2396	-4.1167	-4.0062	-4.2146	-3.7146	-4.0604	-4.1229	-3.925	-4.2875	-4.2333	-4.0708	-56.033	167.945	65.444	-68.046	235.239	4.772	179.830	175.525	-59.324	54.478	249.151	-17.084	-44.044	250.671	124.573	268.762	0.00048094	4.9322e-05	4.6833e-05	632.72	3.5687e-07	1.699e-06	693.81	248.89	1.2265e-06	1.0852e-06	330.32	165.52	119.99	61.952	9.5291e-07	82.045	2.2284e-05	2.0901e-05	6.8723e-06	495.89	2.2393e-07	2.3222e-07	555.22	189.73	2.2054e-07	2.4043e-07	231.75	113.66	78.053	41.576	2.6646e-07	52.897	86.553	29.519	-33.060	-58.534	117.872	63.037	-59.596	-53.348	37.860	51.197	-55.351	-52.047	-50.202	-46.534	50.373	-48.910	-8191	255	
3101.446	1	1	0	0	0.097253	0.19114	0.12601	0.20273	0.069209	0.046099	0.11712	0.17946	0.21333	0.056761	0.16378	0.047136	0.058107	0.19092	0.114	0.059432	-3.9896	-3.8979	-3.9896	-4.2583	-3.7875	-4.1708	-4.1729	-3.9104	-4.1792	-3.8563	-4.2167	-4.5167	-3.8167	-4.2771	-3.9833	-4.0396	146.668	67.931	97.356	252.210	-62.311	237.164	139.217	-48.589	254.065	18.604	-19.493	199.175	143.972	-6.901	-62.439	-21.186	0.00048742	0.0001855	2.4252e-05	633.17	2.7222e-06	1.6981e-06	699.3	252.77	4.0537e-07	8.6683e-07	334.99	167.17	120.07	63.541	1.5358e-06	83.988	2.1737e-05	2.212e-05	6.5147e-06	497.06	2.1528e-07	2.4949e-07	558.82	190.82	2.1175e-07	2.5132e-07	233.86	114.69	78.336	42.357	2.4324e-07	53.983	95.217	-46.845	-48.279	-58.845	26.267	78.779	-59.807	-53.360	19.606	23.148	-55.446	-52.124	-50.049	-46.587	28.697	-48.906	-8191	255	
3101.543	1	1	0	0	0.024434	0.13155	0.18062	0.097388	0.25489	0.15356	0.25805	0.046612	0.20358	0.10491	0.086308	0.20804	0.19966	0.095678	0.12285	0.16292	-3.9479	-3.8187	-3.9458	-4.2833	-3.6854	-4.0854	-4.325	-4.0104	-4.3104	-3.8458	-3.9417	-4.3521	-3.9708	-4.2438	-4.1771	-4.0771	51.597	-49.612	-19.722	49.395	104.185	183.196	211.423	-39.604	81.756	187.075	-18.999	199.983	-4.091	165.424	-64.947	204.962	0.00048026	0.00011428	5.34e-05	635.78	9.4587e-07	1.7214e-06	704.43	255.17	9.0517e-07	1.0082e-06	338.65	169.57	120.98	63.174	1.0214e-06	83.301	2.1076e-05	2.2955e-05	5.9488e-06	498.07	2.1343e-07	2.5388e-07	562.37	193.04	2.2183e-07	2.5984e-07	236.37	115.8	79.103	42.254	2.3743e-07	53.555	85.632	35.900	-28.605	-58.652	23.936	38.360	-59.556	-53.450	118.319	32.440	-55.512	-52.006	-50.265	-46.595	-4.397	-48.855	-8191	255	
3101.639	1	1	0	0	0.13008	0.20977	0.23076	0.070096	0.13892	0.13179	0.13956	0.15581	0.14444	0.045171	0.11994	0.11323	0.055535	0.22094	0.25005	0.16016	-3.9583	-4	-3.8042	-4.3417	-3.8479	-4.05	-4.2542	-3.8896	-4.3292	-3.9688	-4.0104	-4.5	-4.0604	-4.2417	-4.0396	-3.8854	-59.284	130.251	139.263	254.658	-21.859	20.069	230.408	-28.345	244.282	28.573	168.214	-69.687	259.233	176.067	120.890	221.956	0.00052741	0.0002248	2.9315e-05	632.71	1.4529e-06	2.4046e-06	700.26	256.47	5.4571e-07	2.0675e-06	337.57	168.64	121.76	62.692	8.5116e-07	82.655	2.3242e-05	2.4026e-05	6.0381e-06	496.14	2.3717e-07	2.5775e-07	560.22	193.39	2.4054e-07	2.5348e-07	235.81	115.47	79.5	41.902	2.3697e-07	52.983	93.095	-47.195	-42.015	-58.858	45.099	44.317	-59.698	-53.667	34.998	42.521	-55.463	-52.222	-50.232	-46.563	57.615	-48.905	-8191	255	
3101.758	1	1	0	0	0.16906	0.22512	0.10571	0.23073	0.086606	0.14681	0.13665	0.30107	0.18283	0.067233	0.22506	0.17605	0.097124	0.11386	0.1739	0.16218	-3.8958	-4.1833	-3.7562	-4.3313	-3.9604	-3.9875	-4.2333	-3.7938	-4.0792	-4.025	-3.7146	-4.275	-4.2104	-4	-4.2188	-3.8521	205.934	-19.867	192.095	222.562	34.818	-10.155	202.384	275.659	89.024	-53.668	17.135	91.626	202.742	-66.318	238.430	233.876	0.00042869	0.00013467	3.0127e-05	631.28	1.2111e-06	2.129e-06	699.41	255.17	2.0094e-06	1.6599e-06	337.19	168.46	121.89	62.406	1.5567e-06	81.679	2.5749e-05	2.3973e-05	5.9339e-06	495.26	2.6118e-07	2.5264e-07	557.78	193.01	2.6254e-07	2.4307e-07	234.69	115.25	79.604	41.636	2.2607e-07	52.706	96.323	-25.189	-57.640	-58.677	20.259	31.589	-59.602	-53.493	81.950	46.639	-55.664	-52.085	-50.243	-46.563	43.914	-48.835	-8191	255	
3101.829	1	1	0	0	0.21925	0.24694	0.23542	0.21764	0.14116	0.039078	0.20657	0.085887	0.15191	0.18601	0.1295	0.16253	0.17079	0.28748	0.068585	0.26969	-3.7854	-4.1083	-3.7604	-4.2667	-4.0479	-3.8208	-4.3708	-3.925	-4.1208	-4.2292	-4.0792	-4.2021	-4.0479	-3.9875	-4.45	-3.9792	-45.685	34.574	100.933	174.860	-6.980	152.059	255.850	181.743	134.912	-26.751	19.353	217.214	-49.351	202.141	61.348	29.069	0.00049822	0.00013707	2.926e-05	633.5	8.1213e-07	1.8602e-06	698.03	255.43	1.5714e-06	1.2853e-06	337.68	168.06	121.66	62.653	1.0979e-06	82.293	2.6175e-05	2.2155e-05	5.5637e-06	498.04	2.6773e-07	2.3805e-07	556.69	192.77	2.6461e-07	2.2648e-07	235.03	115.37	79.352	41.82	2.0816e-07	53.118	86.298	-22.897	-51.888	-58.619	46.302	64.800	-59.839	-53.312	28.583	57.339	-55.375	-52.068	-50.268	-46.641	41.754	-49.053	-8191	255	
3101.927	1	1	0	0	0.12301	0.22162	0.27472	0.11972	0.16407	0.051429	0.024846	0.18111	0.21243	0.085877	0.23705	0.19136	0.17669	0.089589	0.06852	0.095881	-3.8042	-4.0729	-3.75	-4.2396	-3.9396	-3.7292	-4.2333	-4.0354	-3.9646	-4.1708	-3.9437	-4.2125	-4.0938	-3.9458	-4.2708	-3.9979	-44.713	-8.686	285.669	-66.507	51.220	86.432	191.966	286.445	215.866	187.575	284.923	277.639	89.298	72.378	27.039	231.764	0.00043004	5.0152e-05	3.2566e-05	634.99	5.0122e-07	1.5221e-06	704.94	254.16	1.4459e-06	1.0355e-06	337.28	169.44	121.45	62.537	1.3688e-06	82.972	2.5087e-05	2.0085e-05	5.2134e-06	499.1	2.5071e-07	2.25e-07	559.47	193.07	2.5698e-07	2.2975e-07	235.44	116	79.454	41.781	2.2313e-07	53.334	95.834	-15.336	7.588	-58.599	101.917	34.119	-59.430	-53.514	40.363	7.822	-55.522	-51.968	-49.964	-46.514	70.044	-48.773	-8191	255	
3102.046	1	1	0	0	0.14221	0.14142	0.30919	0.19772	0.053646	0.27758	0.11873	0.15619	0.12409	0.17937	0.10853	0.28222	0.23344	0.053511	0.19113	0.095283	-3.4896	-4.1917	-3.65	-4.25	-4.1188	-3.7271	-4.3854	-4.0896	-3.9396	-4.2521	-3.9771	-4.3271	-4.2417	-3.8	-4.1708	-4.1208	282.600	207.487	257.299	-26.085	68.983	266.555	270.520	220.520	-50.069	136.569	22.296	274.869	-66.992	110.613	282.439	174.039	0.00045828	0.00014238	3.8836e-05	630.51	2.0412e-06	3.7207e-07	701	254.51	1.6385e-06	1.1575e-06	335.7	166.9	120.16	62.027	1.461e-06	81.337	2.4795e-05	2.0223e-05	5.5223e-06	498.35	2.401e-07	2.1312e-07	559.05	193.03	2.3514e-07	2.1063e-07	234.35	114.85	78.42	41.368	2.2779e-07	52.554	74.767	23.347	-11.646	-58.507	2.723	88.699	-59.866	-53.494	67.558	57.113	-55.628	-52.203	-50.051	-46.618	42.525	-48.822	-8191	255	
3102.142	1	1	0	0	0.12343	0.14098	0.17443	0.33337	0.10413	0.1282	0.21175	0.049081	0.26849	0.25752	0.3186	0.27872	0.097602	0.29346	0.21891	0.047876	-3.4208	-4.2104	-3.8292	-4.1646	-4.1562	-3.7729	-4.2875	-4.0896	-3.9167	-4.3958	-3.9708	-4.2271	-4.2854	-3.8604	-4.2292	-4.1958	-47.293	220.971	72.983	208.015	-22.823	-6.739	283.765	229.008	-49.708	218.621	220.879	285.427	210.803	257.168	-8.231	-63.311	0.00042544	0.00010285	2.0441e-05	631.13	1.5466e-06	7.4965e-07	701.09	253.39	1.5676e-06	1.7214e-06	333.3	166.67	119.64	62.645	6.5326e-07	82.592	2.3162e-05	1.9177e-05	5.9462e-06	497.65	2.2877e-07	2.0413e-07	558.08	192.04	2.1996e-07	1.9666e-07	233.2	114.45	78.076	41.766	2.342e-07	53.222	81.685	9.622	-12.124	-58.570	40.507	59.499	-59.783	-53.485	44.863	11.464	-55.353	-52.236	-50.236	-46.721	107.046	-49.206	-8191	255	
3102.238	1	1	0	0	0.14395	0.23561	0.16662	0.0694	0.0748	0.1011	0.075037	0.058739	0.068444	0.023092	0.12803	0.17847	0.054565	0.42128	0.078413	0.28956	-3.4521	-4.2	-3.9396	-4.1646	-4.2646	-3.9042	-4.1458	-4.1792	-3.7583	-4.2604	-3.9188	-4.0792	-4.325	-3.9542	-4.1125	-4.3333	106.257	94.167	231.993	250.401	229.555	158.465	162.122	143.894	-22.294	-61.497	-10.088	103.603	106.971	267.745	91.692	162.145	0.00039988	5.9194e-05	2.0987e-05	633.26	1.4951e-06	8.5864e-07	700.93	254.16	1.4109e-06	1.9846e-06	337.19	168.68	121.12	62.662	1.4431e-07	82.315	2.1643e-05	1.8441e-05	6.1573e-06	498.78	2.1721e-07	2.0709e-07	560.21	192.9	2.2202e-07	2.0934e-07	236.1	115.49	78.91	41.858	2.6354e-07	53.26	93.544	21.362	224.486	-58.713	24.436	31.621	-59.644	-53.609	50.948	136.999	-55.569	-52.182	-50.260	-46.579	89.433	-49.079	-8191	255	
3102.357	1	1	0	0	0.10658	0.092066	0.096467	0.055903	0.19834	0.030982	0.13476	0.17603	0.12467	0.096221	0.11998	0.082222	0.090661	0.28681	0.1202	0.094069	-3.3625	-4.3104	-3.9875	-4.1188	-4.3125	-3.8187	-4.0708	-4.3146	-3.7792	-4.3625	-4.2937	-3.8833	-4.1958	-3.9125	-4.0167	-4.2625	177.108	70.193	166.263	100.705	263.065	133.472	99.720	190.806	109.684	144.111	281.418	133.784	287.341	219.138	104.733	4.747	0.00051795	0.00014217	2.929e-05	635.95	1.436e-06	3.8129e-07	704.23	255.57	1.0487e-06	1.638e-06	335.8	168.1	121.06	62.761	1.4895e-06	83.338	2.1308e-05	2.0035e-05	6.5858e-06	499.32	2.1067e-07	2.2252e-07	563.97	193.04	2.1383e-07	2.3256e-07	235.36	115.2	78.538	41.98	2.5646e-07	53.539	83.593	53.601	-6.104	-58.568	56.272	46.268	-59.575	-53.488	78.855	111.996	-55.545	-52.211	-50.168	-46.693	30.273	-49.183	-8191	255	
3102.429	1	1	0	0	0.11711	0.24964	0.25566	0.15852	0.17269	0.027965	0.23459	0.069008	0.048688	0.15867	0.19067	0.19123	0.24242	0.27532	0.10435	0.17956	-3.2646	-4.2438	-4.0771	-3.9271	-4.2896	-3.7812	-3.9771	-4.3688	-3.7146	-4.1375	-4.3063	-3.9479	-4.2063	-4.1292	-3.9146	-4.5542	77.760	174.781	128.845	-21.637	-66.268	198.831	196.283	-66.750	1.562	255.838	1.253	-17.993	32.039	244.619	278.484	106.558	0.00049948	0.00012502	6.8727e-05	634.75	1.8094e-06	6.5747e-07	702.88	254.54	1.6202e-06	4.6045e-07	334.6	167.2	120	62.486	9.6513e-07	82.111	2.1125e-05	2.2304e-05	6.4208e-06	498.86	2.0894e-07	2.4541e-07	561.22	192.05	2.1323e-07	2.5019e-07	233.93	114.48	78.257	41.79	2.5172e-07	52.863	97.665	-18.768	-41.146	-58.759	34.805	44.996	-59.559	-53.630	69.358	12.783	-55.531	-51.905	-50.169	-46.556	95.763	-48.918	-8191	255	
3102.525	1	1	0	0	0.07466	0.22947	0.14735	0.12462	0.10327	0.059955	0.1262	0.13262	0.060742	0.12881	0.13832	0.25969	0.045387	0.17306	0.13638	0.30104	-3.3146	-4.1229	-4.0542	-4.0208	-4.1479	-3.8812	-3.9833	-4.4292	-3.7042	-3.9396	-4.0771	-3.7562	-4.3083	-4.2812	-3.9313	-4.3875	46.845	-15.121	-58.442	218.778	118.886	262.580	-48.315	202.085	93.606	71.792	212.955	238.167	131.099	285.843	218.939	226.910	0.00046495	9.6378e-05	3.9888e-05	630.65	1.9393e-06	1.3497e-06	694.79	251.94	1.2191e-06	1.4927e-06	333.29	166.43	119.88	62.265	1.3595e-06	81.698	2.1987e-05	2.4069e-05	6.2867e-06	495.13	2.2399e-07	2.6598e-07	555.86	190.51	2.2729e-07	2.6277e-07	233.06	114.07	78.318	41.615	2.3741e-07	52.576	89.325	20.802	-8.413	-58.688	64.934	20.905	-59.668	-53.583	141.836	18.950	-55.534	-52.154	-50.340	-46.446	50.589	-48.864	-8191	255	
3102.621	1	1	0	0	0.21401	0.12768	0.029487	0.21349	0.095008	0.18961	0.14453	0.19813	0.27408	0.019352	0.1888	0.091926	0.054486	0.08852	0.06572	0.22492	-3.6625	-4.1104	-4.1104	-3.7854	-4.2333	-4.1021	-3.9062	-4.4104	-3.8083	-4.0583	-4.4271	-3.875	-4.2542	-4.1771	-3.9333	-4.3187	88.285	135.737	80.366	-39.491	54.821	0.859	212.523	149.669	-69.830	242.709	288.187	237.988	-49.442	226.463	258.836	191.796	0.00039658	0.00018584	4.064e-05	633.63	1.0567e-06	1.7814e-06	700.71	254.46	6.1114e-07	1.1299e-06	337.24	167.21	120.06	61.776	9.6076e-07	81.531	2.3556e-05	2.4322e-05	5.9951e-06	495.1	2.4776e-07	2.716e-07	559.07	191.97	2.5848e-07	2.678e-07	235.18	114.67	78.734	41.428	2.3135e-07	52.662	86.091	18.144	-39.352	-58.878	42.394	28.695	-59.296	-53.465	28.045	-1.293	-55.728	-51.949	-50.052	-46.513	63.603	-48.792	-8191	255	
3102.742	1	1	0	0	0.1269	0.12277	0.21792	0.28563	0.096473	0.030487	0.42226	0.098265	0.050433	0.094789	0.099915	0.015865	0.037781	0.21388	0.11695	0.14406	-3.4229	-4.0729	-4.0771	-3.6979	-4.1333	-4.0312	-3.9437	-4.3417	-3.9313	-3.9708	-4.3688	-3.7333	-4.1833	-4.0979	-3.8542	-4.25	56.300	240.789	-33.809	165.559	77.932	167.441	192.568	210.493	-5.087	133.439	22.033	-62.602	-63.137	-39.966	55.801	-57.545	0.00049516	0.00012127	7.8137e-05	631.85	6.2997e-07	1.5501e-06	708.7	255.82	9.7172e-07	1.3759e-06	338.95	168.64	121.73	62.05	1.2412e-06	82.004	2.5084e-05	2.3122e-05	5.7475e-06	495.59	2.5816e-07	2.4782e-07	562.22	193.51	2.6509e-07	2.5035e-07	237.49	115.7	79.649	41.478	2.3442e-07	52.847	91.839	62.250	-29.037	-58.641	79.699	27.065	-59.571	-53.414	10.936	56.939	-55.596	-52.006	-49.927	-46.396	32.190	-48.710	-8191	255	
3102.838	1	1	0	0	0.087548	0.17493	0.089225	0.14635	0.10905	0.12529	0.099475	0.38805	0.076517	0.070794	0.15273	0.27871	0.49649	0.11133	0.076638	0.1349	-3.6333	-3.9021	-4.2937	-3.9771	-4.0833	-3.975	-3.7458	-4.2812	-4.1417	-3.8042	-4.3521	-3.9188	-4.1083	-4.3708	-3.7375	-4.1687	242.158	80.582	67.923	140.845	-28.741	-11.479	288.505	236.426	263.907	-19.023	236.573	229.877	246.742	219.901	17.609	228.276	0.00041533	9.5615e-05	4.3653e-05	634.09	1.1604e-06	9.4357e-07	708.85	258.31	1.235e-06	1.5066e-06	342.25	170.12	122.15	62.281	6.8809e-07	81.895	2.7635e-05	2.3067e-05	5.8224e-06	497.63	2.799e-07	2.4722e-07	564.37	195.29	2.7869e-07	2.4158e-07	239.22	117	80.249	41.624	2.3468e-07	53.042	85.714	-20.912	-55.590	-58.655	29.240	-4.982	-59.765	-53.365	74.758	83.865	-55.477	-51.960	-50.170	-46.510	57.004	-48.844	-8191	255	
3102.934	1	1	0	0	0.10684	0.25774	0.11215	0.051249	0.13271	0.124	0.072136	0.23248	0.31757	0.085096	0.13868	0.12182	0.10273	0.13044	0.12516	0.38373	-3.5792	-3.825	-4.2896	-3.8167	-3.9708	-4.2104	-3.7708	-4.2396	-4.05	-3.6896	-4.4792	-3.9146	-4.0375	-4.2396	-3.8646	-4.2625	36.767	270.820	187.986	187.740	174.956	212.444	-10.792	282.403	210.136	198.957	-56.097	288.612	256.686	105.814	63.779	220.773	0.00032822	0.00010591	1.9126e-05	629.29	2.0441e-06	2.838e-07	703.74	257.2	6.6764e-07	1.8617e-06	340.89	168.92	121.96	61.652	1.0231e-06	81.457	2.7788e-05	2.3113e-05	5.8075e-06	497.72	2.804e-07	2.5394e-07	561.07	194.91	2.7571e-07	2.4579e-07	237.92	116.16	79.596	41.184	2.2876e-07	52.431	94.325	26.893	-27.392	-58.447	29.731	65.625	-59.607	-53.163	2.239	58.411	-55.489	-51.961	-50.121	-46.486	112.244	-48.783	-8191	255	
3103.030	1	1	0	0	0.45545	0.11091	0.063779	0.031569	0.19215	0.094795	0.073757	0.21046	0.24895	0.099013	0.37285	0.12247	0.14605	0.22333	0.10234	0.1054	-3.9292	-3.7417	-4.225	-3.85	-3.9625	-4.375	-3.925	-4.2479	-4.0729	-3.825	-4.3979	-4.05	-3.9667	-4.3229	-3.7792	-4.2729	203.211	206.940	49.991	269.022	160.487	8.839	247.160	211.902	261.635	200.208	-35.900	-11.303	-70.109	212.616	52.985	164.240	0.00043962	0.00014634	4.2228e-05	629.41	1.6784e-06	2.3844e-06	702.09	256.4	1.3463e-06	1.1843e-06	340.87	168.8	121.4	61.809	1.7193e-06	81.52	2.5586e-05	2.085e-05	5.7431e-06	496.65	2.5518e-07	2.308e-07	559.87	194.58	2.567e-07	2.3235e-07	237.8	116.1	79.604	41.195	2.5229e-07	52.638	91.930	0.183	-0.222	-58.715	41.830	15.576	-59.579	-53.502	19.624	86.689	-55.447	-52.162	-50.371	-46.492	89.791	-48.881	-8191	255	
3103.126	1	1	0	0	0.24057	0.12154	0.093423	0.059998	0.065733	0.079878	0.23709	0.14207	0.10929	0.17578	0.27439	0.13585	0.10978	0.22789	0.28065	0.23419	-3.8958	-3.7833	-4.1854	-4.0229	-3.7438	-4.175	-3.8771	-4.0708	-4.2188	-3.725	-4.275	-4.0563	-3.8417	-4.3292	-3.8917	-4.125	172.925	232.783	12.021	106.729	5.345	240.933	249.826	228.064	86.016	273.900	274.931	1.308	199.825	283.249	53.447	187.749	0.00040105	0.00017157	3.0653e-05	630.38	3.0148e-07	1.3675e-06	704.37	255.99	9.0238e-07	1.6582e-06	340.93	167.5	120.74	60.677	5.7477e-07	79.829	2.462e-05	2.061e-05	6.3845e-06	497.52	2.4946e-07	2.2444e-07	562.95	194.68	2.5245e-07	2.2708e-07	238.73	115.29	78.997	40.509	2.7907e-07	51.728	91.547	14.157	14.756	-58.720	22.620	41.498	-59.720	-53.531	38.797	26.422	-55.622	-52.111	-50.058	-46.458	80.694	-48.485	-8191	255	
3103.221	1	1	0	0	0.11738	0.17082	0.21973	0.20961	0.22233	0.18525	0.14552	0.1422	0.17448	0.11091	0.071534	0.16559	0.21751	0.13069	0.17287	0.23616	-3.9938	-3.7354	-4.1604	-4.0917	-3.7313	-4.1438	-3.9875	-3.9979	-4.1229	-3.8146	-4.3313	-4.1542	-3.7417	-4.3	-4.0625	-4.0125	69.406	112.509	76.921	172.445	228.330	266.434	119.464	204.292	-1.099	91.085	246.317	225.557	280.511	250.962	175.386	183.507	0.00039066	3.4979e-05	5.3737e-05	631.38	1.9394e-06	5.3726e-07	706.81	257.74	1.2773e-06	3.4473e-07	342.42	168.57	121.54	61.097	5.8887e-07	80.449	2.4454e-05	2.1359e-05	7.1388e-06	497.27	2.4507e-07	2.3272e-07	565.41	195.29	2.425e-07	2.3323e-07	240.05	115.94	79.395	40.806	2.7907e-07	51.971	90.756	139.955	19.957	-58.874	31.261	79.660	-59.596	-53.473	46.802	158.922	-55.459	-52.105	-50.001	-46.540	0.173	-48.688	-8191	255	
3103.319	1	1	0	0	0.26055	0.11145	0.13601	0.20275	0.15274	0.1086	0.40704	0.1254	0.17627	0.070219	0.18673	0.15205	0.10861	0.28841	0.10487	0.16337	-3.8396	-3.7646	-4.0854	-4.3708	-3.7479	-4.175	-3.9479	-3.8021	-4.4479	-3.9813	-4.2896	-4.3542	-3.8563	-4.1729	-4.0729	-3.9854	239.942	247.102	29.582	272.933	-61.631	259.949	220.866	272.598	205.352	274.984	163.434	228.635	249.730	261.492	-44.266	-64.839	0.00048925	0.00015209	2.8932e-05	634.33	1.3985e-06	2.6523e-07	707.48	255.79	1.6197e-06	1.803e-06	340.15	167.3	120.17	60.408	9.3335e-07	79.695	2.3335e-05	2.2175e-05	7.2829e-06	497.56	2.352e-07	2.5133e-07	565.77	194.18	2.3158e-07	2.5202e-07	238.45	114.66	78.469	40.471	2.7085e-07	51.484	86.529	5.499	-34.536	-58.472	36.424	139.057	-59.758	-53.549	13.584	23.473	-55.488	-52.098	-50.028	-46.356	30.816	-48.772	-8191	255	
3103.438	1	1	0	0	0.052144	0.16822	0.18201	0.098828	0.12057	0.17898	0.18135	0.13934	0.12713	0.095479	0.27645	0.12136	0.066245	0.11736	0.098422	0.039126	-3.9396	-3.8021	-3.9958	-4.2604	-3.6583	-4.1229	-4.1312	-3.9146	-4.1854	-3.8708	-4.1521	-4.3229	-3.9875	-4.1729	-4.1	-3.8771	40.374	-18.686	152.174	-28.728	227.528	255.635	263.703	38.730	9.067	201.430	174.943	-56.228	127.896	246.675	190.131	9.329	0.00043412	0.00010249	5.3237e-05	630.29	1.7229e-06	1.1341e-06	705.96	254.39	1.2823e-06	8.2152e-07	336.37	165.72	119.64	60.386	2.0426e-06	79.702	2.1942e-05	2.3328e-05	6.6935e-06	495.83	2.1924e-07	2.5726e-07	562.51	192.79	2.2287e-07	2.6535e-07	235.91	113.51	78.013	40.531	2.5785e-07	51.393	103.129	30.337	15.727	-58.903	39.916	12.807	-59.726	-53.475	73.505	62.127	-55.334	-52.034	-50.262	-46.390	24.527	-48.971	-8191	255	
#DATA ENDS
