BOXY.EXE: ISS Imagent and Oximeter Data Acquisition Program Version 0.80
Ascii Record File

#ACQ INFORMATION
2  Detector Channels 
16  External MUX Channels 
1  Auxiliary Channels 
5000  Waveform (CCF) Frequency (Hz)
1  Waveforms Skipped 
30  Waveforms Averaged 
1  Cycles Averaged 
16  Acquisitions per Waveform 
10.0806  Updata Rate (Hz) 

#FILE INFORMATION
TRUE -- External MUX Channel results are PARSED.
FALSE -- AC DC and Phase are NOT grouped.
TRUE -- Companion Program Settings File CREATED.
FALSE -- AC data not excluded
FALSE -- DC data not excluded
FALSE -- Phase data not excluded
FALSE -- Auxillary Chn. data not excluded
Tab delimiters

#CALIBRATION STATE
TRUE -- Waveform Calibration Values APPLIED.


#AUX CALIBRATION VALUES
Val Type	aux-1	

Term	1.0000e+00	
Factor	0.0000e+00	


#WF CALIBRATION VALUES
A = Detector Channel
Val Type	A-AC1	A-AC2	A-AC3	A-AC4	A-AC5	A-AC6	A-AC7	A-AC8	A-AC9	A-AC10	A-AC11	A-AC12	A-AC13	A-AC14	A-AC15	A-AC16	A-DC1	A-DC2	A-DC3	A-DC4	A-DC5	A-DC6	A-DC7	A-DC8	A-DC9	A-DC10	A-DC11	A-DC12	A-DC13	A-DC14	A-DC15	A-DC16	A-Ph1	A-Ph2	A-Ph3	A-Ph4	A-Ph5	A-Ph6	A-Ph7	A-Ph8	A-Ph9	A-Ph10	A-Ph11	A-Ph12	A-Ph13	A-Ph14	A-Ph15	A-Ph16	

Term	0.00000e+00	0.00000e+00	0.00000e+00	0.00000e+00	0.00000e+00	0.00000e+00	0.00000e+00	0.00000e+00	0.00000e+00	0.00000e+00	0.00000e+00	0.00000e+00	0.00000e+00	0.00000e+00	0.00000e+00	0.00000e+00	0.00000e+00	0.00000e+00	0.00000e+00	0.00000e+00	0.00000e+00	0.00000e+00	0.00000e+00	0.00000e+00	0.00000e+00	0.00000e+00	0.00000e+00	0.00000e+00	0.00000e+00	0.00000e+00	0.00000e+00	0.00000e+00	0.00000e+00	0.00000e+00	0.00000e+00	0.00000e+00	0.00000e+00	0.00000e+00	0.00000e+00	0.00000e+00	0.00000e+00	0.00000e+00	0.00000e+00	0.00000e+00	0.00000e+00	0.00000e+00	0.00000e+00	0.00000e+00	
Factor	1.00000e+00	1.00000e+00	1.00000e+00	1.00000e+00	1.00000e+00	1.00000e+00	1.00000e+00	1.00000e+00	1.00000e+00	1.00000e+00	1.00000e+00	1.00000e+00	1.00000e+00	1.00000e+00	1.00000e+00	1.00000e+00	1.00000e+00	1.00000e+00	1.00000e+00	1.00000e+00	1.00000e+00	1.00000e+00	1.00000e+00	1.00000e+00	1.00000e+00	1.00000e+00	1.00000e+00	1.00000e+00	1.00000e+00	1.00000e+00	1.00000e+00	1.00000e+00	X	X	X	X	X	X	X	X	X	X	X	X	X	X	X	X	

B = Detector Channel
Val Type	B-AC1	B-AC2	B-AC3	B-AC4	B-AC5	B-AC6	B-AC7	B-AC8	B-AC9	B-AC10	B-AC11	B-AC12	B-AC13	B-AC14	B-AC15	B-AC16	B-DC1	B-DC2	B-DC3	B-DC4	B-DC5	B-DC6	B-DC7	B-DC8	B-DC9	B-DC10	B-DC11	B-DC12	B-DC13	B-DC14	B-DC15	B-DC16	B-Ph1	B-Ph2	B-Ph3	B-Ph4	B-Ph5	B-Ph6	B-Ph7	B-Ph8	B-Ph9	B-Ph10	B-Ph11	B-Ph12	B-Ph13	B-Ph14	B-Ph15	B-Ph16	

Term	0.00000e+00	0.00000e+00	0.00000e+00	0.00000e+00	0.00000e+00	0.00000e+00	0.00000e+00	0.00000e+00	0.00000e+00	0.00000e+00	0.00000e+00	0.00000e+00	0.00000e+00	0.00000e+00	0.00000e+00	0.00000e+00	0.00000e+00	0.00000e+00	0.00000e+00	0.00000e+00	0.00000e+00	0.00000e+00	0.00000e+00	0.00000e+00	0.00000e+00	0.00000e+00	0.00000e+00	0.00000e+00	0.00000e+00	0.00000e+00	0.00000e+00	0.00000e+00	-2.12444e+02	-1.41062e+02	-1.70892e+02	-1.83732e+02	-1.12109e+02	-1.05118e+02	-1.55012e+02	-1.62015e+02	-9.09407e+01	-9.85453e+01	-1.70533e+02	-1.70350e+02	-1.84933e+02	-1.77024e+02	-9.26801e+01	-1.49740e+02	
Factor	3.86930e-05	3.87587e-05	1.11420e-05	1.84525e-01	4.76322e-07	4.00243e-07	1.77227e-01	5.92448e-02	4.03067e-07	4.33660e-07	9.47737e-02	3.35258e-02	3.39684e-02	1.07113e-02	3.85728e-07	1.51601e-02	1.41076e-07	1.41361e-07	3.93248e-08	7.31989e-02	1.55024e-09	1.55026e-09	6.73368e-02	2.26348e-02	1.55356e-09	1.55040e-09	3.24457e-02	1.12648e-02	1.11019e-02	3.63347e-03	1.55221e-09	4.80811e-03	X	X	X	X	X	X	X	X	X	X	X	X	X	X	X	X	



#DISTANCE SETTINGS
A = Detector Channel
A-1	A-2	A-3	A-4	A-5	A-6	A-7	A-8	A-9	A-10	A-11	A-12	A-13	A-14	A-15	A-16	

2.5000e+00	3.0000e+00	2.5000e+00	3.0000e+00	2.0000e+00	3.0000e+00	1.5000e+00	3.0000e+00	3.0000e+00	3.0000e+00	3.0000e+00	3.0000e+00	3.0000e+00	3.0000e+00	1.5000e+00	3.0000e+00	

B = Detector Channel
B-1	B-2	B-3	B-4	B-5	B-6	B-7	B-8	B-9	B-10	B-11	B-12	B-13	B-14	B-15	B-16	

1.0000e+01	1.0000e+01	1.0000e+01	1.4400e+00	1.0000e+01	1.0000e+01	1.5100e+00	1.9400e+00	1.0000e+01	1.0000e+01	1.9900e+00	2.4900e+00	2.4100e+00	2.9000e+00	1.0000e+01	2.9800e+00	




#DATA BEGINS
time	group	step	mark	flag	A-AC1	A-AC2	A-AC3	A-AC4	A-AC5	A-AC6	A-AC7	A-AC8	A-AC9	A-AC10	A-AC11	A-AC12	A-AC13	A-AC14	A-AC15	A-AC16	A-DC1	A-DC2	A-DC3	A-DC4	A-DC5	A-DC6	A-DC7	A-DC8	A-DC9	A-DC10	A-DC11	A-DC12	A-DC13	A-DC14	A-DC15	A-DC16	A-Ph1	A-Ph2	A-Ph3	A-Ph4	A-Ph5	A-Ph6	A-Ph7	A-Ph8	A-Ph9	A-Ph10	A-Ph11	A-Ph12	A-Ph13	A-Ph14	A-Ph15	A-Ph16	B-AC1	B-AC2	B-AC3	B-AC4	B-AC5	B-AC6	B-AC7	B-AC8	B-AC9	B-AC10	B-AC11	B-AC12	B-AC13	B-AC14	B-AC15	B-AC16	B-DC1	B-DC2	B-DC3	B-DC4	B-DC5	B-DC6	B-DC7	B-DC8	B-DC9	B-DC10	B-DC11	B-DC12	B-DC13	B-DC14	B-DC15	B-DC16	B-Ph1	B-Ph2	B-Ph3	B-Ph4	B-Ph5	B-Ph6	B-Ph7	B-Ph8	B-Ph9	B-Ph10	B-Ph11	B-Ph12	B-Ph13	B-Ph14	B-Ph15	B-Ph16	aux-1	digaux	

3212.937	1	1	0	256	0.070147	0.090318	0.086249	0.24846	0.21994	0.29808	0.17906	0.17563	0.28873	0.10006	0.05462	0.17206	0.19201	0.25146	0.082765	0.16491	-3.7062	-3.9625	-3.5854	-4.1562	-3.7438	-3.7958	-4.0354	-3.6771	-3.9896	-3.9	-3.6396	-4.1521	-3.7792	-3.8354	-4.075	-3.6562	266.146	296.094	249.887	122.073	389.799	211.768	368.507	375.221	377.352	207.993	310.310	335.340	139.336	96.093	342.353	222.787	0.0012193	0.00058167	2.9722e-05	594.92	4.6719e-06	2.2991e-06	591.04	207	4.6996e-06	7.7137e-07	244.97	97.221	77.931	34.524	9.8397e-07	48.78	0.00030113	0.00030878	7.4808e-05	592.12	3.1563e-06	3.1612e-06	588.14	193.57	3.0244e-06	2.9202e-06	224.59	84.067	70.828	29.657	2.5167e-06	38.865	87.111	287.687	376.832	95.160	158.663	202.244	93.937	101.302	175.222	243.847	98.851	103.876	106.097	111.095	222.027	107.509	-8191	255	
3213.033	1	1	0	0	0.16444	0.1196	0.2618	0.03085	0.24917	0.21161	0.046991	0.10542	0.066683	0.081223	0.089218	0.16572	0.083172	0.072503	0.051886	0.25555	-3.6229	-3.7313	-3.6854	-4.2292	-3.8375	-3.8604	-4.1792	-3.65	-3.8729	-3.9292	-3.7396	-4.3	-3.9208	-3.7562	-4.3187	-3.8229	293.966	135.377	181.314	175.909	199.773	271.607	166.122	232.475	100.354	167.918	289.818	390.882	116.986	386.745	339.164	91.575	0.0010026	0.00020927	7.9532e-05	602.28	3.5243e-06	2.23e-06	592.33	208.53	2.8472e-06	5.1265e-06	244.31	96.786	77.246	34.026	2.4331e-06	47.931	0.00026678	0.00024619	6.1314e-05	580.43	2.8138e-06	2.5823e-06	575.03	192.94	2.9374e-06	2.6816e-06	221.22	84.052	70.891	29.09	2.4277e-06	38.728	96.361	182.552	345.454	95.004	167.751	95.056	93.806	101.290	148.244	326.936	99.079	104.128	106.315	110.970	120.159	107.346	-8191	255	
3213.129	1	1	0	0	0.15259	0.10577	0.027731	0.1142	0.25407	0.2356	0.15993	0.22964	0.069272	0.19746	0.17974	0.070084	0.25	0.13396	0.20479	0.093202	-3.4688	-4.1396	-3.6833	-4.0563	-3.9042	-3.75	-4.2167	-3.8333	-3.9938	-3.9708	-3.7333	-3.8417	-4.0646	-3.6729	-4.0938	-3.8604	309.252	307.466	259.027	275.020	133.091	404.380	98.027	86.353	209.472	369.958	269.142	417.743	84.609	147.908	376.059	264.389	0.00071683	0.00034437	1.0712e-05	601.65	1.3095e-06	4.1239e-06	590.93	208.91	1.1698e-06	6.0137e-07	243.08	95.995	75.917	33.722	9.8234e-07	47.35	0.0002667	0.00023431	5.9121e-05	588.26	2.8258e-06	2.4822e-06	567.58	193.14	2.6651e-06	2.3142e-06	212.76	82.632	66.818	27.758	2.0721e-06	37.921	430.589	317.185	387.602	95.045	318.029	331.804	93.886	101.287	343.788	192.742	98.917	104.042	106.350	110.994	272.398	107.565	-8191	255	
3213.250	1	1	0	0	0.046521	0.03227	0.17921	0.17929	0.19918	0.12894	0.27804	0.10186	0.21605	0.045494	0.23343	0.085597	0.35721	0.11851	0.09644	0.083118	-3.5354	-4.1021	-3.6333	-3.8979	-3.8937	-3.6646	-4.0833	-4.0208	-3.7812	-4.0896	-3.5229	-4.1312	-3.9521	-3.8167	-3.9958	-3.9542	400.062	204.282	291.898	145.077	135.282	148.187	406.567	388.154	253.866	125.567	283.673	409.558	327.912	320.614	287.853	157.472	0.00048864	8.826e-05	0.00014373	597.74	1.1565e-06	1.2998e-06	590.1	206.26	1.6173e-06	4.5466e-06	243.16	95.646	76.461	33.924	3.2668e-06	47.879	0.00022668	0.00020372	5.3213e-05	582.33	2.476e-06	2.2075e-06	556.44	191.63	2.3603e-06	2.1054e-06	210.64	82.104	64.071	27.006	1.8602e-06	37.355	93.115	157.352	140.533	95.262	355.141	439.651	93.675	101.351	296.174	397.997	99.503	104.029	106.124	111.160	228.502	106.965	-8191	255	
3213.322	1	1	0	0	0.23576	0.1123	0.24085	0.1422	0.070219	0.20346	0.012259	0.1522	0.094863	0.079514	0.23814	0.12139	0.20028	0.087015	0.037616	0.078132	-3.3438	-3.9583	-3.575	-3.9271	-3.9542	-3.6708	-4.1229	-3.875	-3.7167	-4.1771	-3.6271	-3.9458	-4.0458	-3.7062	-4.1229	-4.0021	124.679	245.203	377.415	336.180	102.674	398.231	232.997	437.574	104.106	439.874	340.089	107.366	325.872	435.024	346.739	389.905	0.00062241	0.00020242	0.00010073	590.05	4.9407e-07	2.4541e-06	590.53	204.23	9.9828e-07	1.8703e-06	245.33	95.334	75.598	33.487	6.4993e-06	46.72	0.00017636	0.00015996	4.5684e-05	559.7	1.9062e-06	1.7617e-06	547.76	186.27	2.0191e-06	1.8835e-06	211.85	81.638	63.102	26.808	2.1533e-06	37.592	112.066	170.034	113.166	94.926	319.639	237.261	93.624	101.375	362.478	402.768	99.242	104.004	105.896	110.811	189.032	107.535	-8191	255	
3213.418	1	1	0	0	0.21109	0.12323	0.21108	0.089663	0.078872	0.13858	0.12057	0.18545	0.042688	0.13374	0.27974	0.31168	0.17202	0.24779	0.1879	0.24819	-3.3958	-4.3021	-3.7833	-3.8521	-4.0833	-3.675	-4.1708	-3.9896	-3.7229	-4.0854	-3.7208	-3.7583	-4.2083	-3.7021	-4.0958	-3.9479	141.701	435.927	361.963	129.001	123.397	103.950	158.921	413.319	293.458	120.762	401.387	363.131	111.912	101.209	439.686	404.790	0.0009197	0.00023462	0.00017621	590.08	2.7379e-06	2.1037e-06	588.29	204.27	9.9335e-07	1.485e-06	242.1	94.245	74.661	33.284	1.5788e-06	46.612	0.00019412	0.0001818	5.8225e-05	575.68	2.2113e-06	2.0752e-06	570.64	190.9	2.3021e-06	2.1633e-06	221	82.834	64.755	27.381	2.6657e-06	38.118	85.393	358.412	102.213	95.325	366.178	112.096	93.917	101.458	154.905	268.238	99.172	104.196	106.204	110.951	190.870	107.405	-8191	255	
3213.538	1	1	0	0	0.17364	0.12681	0.074698	0.097058	0.080484	0.054148	0.19097	0.04051	0.13671	0.17686	0.19111	0.084773	0.18733	0.19633	0.067278	0.10063	-3.1458	-4.1687	-3.8354	-3.7854	-4.1417	-3.7521	-4.2896	-4.1062	-3.5917	-4.0875	-3.8812	-3.7167	-4.1062	-3.5896	-3.8812	-4.2021	165.447	140.315	158.398	191.120	322.084	383.576	437.377	440.478	246.444	272.098	249.160	426.762	406.231	435.850	323.779	93.712	0.00087288	0.0001722	0.00014047	588.07	3.349e-06	2.2981e-06	587.25	202.62	3.0578e-06	4.8365e-06	246.9	94.777	75.679	33.277	2.0554e-06	46.913	0.00021563	0.00021077	7.0317e-05	582.97	2.3779e-06	2.3512e-06	585.81	191.25	2.327e-06	2.3494e-06	227.22	83.105	65.169	27.915	2.8642e-06	38.227	437.413	183.521	96.013	95.114	442.864	324.853	93.883	101.523	186.883	182.798	99.101	104.492	106.087	110.900	250.158	107.420	-8191	255	
3213.633	1	1	0	0	0.20364	0.15746	0.17047	0.08986	0.10769	0.17339	0.097387	0.40119	0.239	0.082911	0.057297	0.16293	0.14601	0.1541	0.16173	0.27611	-3.3958	-4.0021	-3.7417	-3.9521	-4.1167	-3.6688	-4.0312	-4.0292	-3.4875	-4	-3.9667	-3.7833	-4.2354	-3.7313	-3.7646	-4.0583	343.146	386.206	229.109	239.239	137.242	365.780	396.871	412.051	101.566	277.217	250.918	284.462	248.085	383.696	203.817	418.736	0.00076075	0.00061669	9.8053e-05	593.31	2.1719e-06	6.6536e-06	590.85	203.27	3.2943e-06	2.7635e-06	242.19	94.614	74.432	32.868	3.2991e-06	46.193	0.00021716	0.00023499	7.449e-05	582.77	2.3974e-06	2.6478e-06	594.94	191.24	2.4191e-06	2.7166e-06	230.5	83.126	65.193	28.417	2.8759e-06	37.575	100.808	151.659	179.142	95.127	288.868	157.441	93.861	101.117	270.119	164.149	99.125	104.451	105.986	110.695	415.632	107.151	-8191	255	
3213.729	1	1	0	0	0.070563	0.12666	0.21922	0.12354	0.13174	0.097765	0.27664	0.14094	0.034021	0.10559	0.10765	0.11384	0.26423	0.062697	0.18257	0.2658	-3.1542	-3.9958	-3.9333	-3.8625	-4.1583	-3.6583	-3.9188	-4.0292	-3.6771	-3.9896	-3.8667	-3.6167	-4.1646	-3.9354	-3.9146	-4.175	145.607	357.169	140.464	104.671	111.051	201.983	121.015	380.506	89.434	200.725	328.388	296.819	127.300	387.761	126.360	332.226	0.00093231	0.00046873	7.3461e-05	585.87	4.1845e-07	3.254e-06	587.42	201.34	2.6728e-06	7.4883e-06	239.43	94.68	74.744	32.892	2.4787e-06	45.913	0.0002166	0.00025294	7.1972e-05	577.39	2.3965e-06	2.8428e-06	585.99	188.33	2.3724e-06	2.8299e-06	223.8	81.663	64.355	28.309	2.5573e-06	36.774	91.058	135.313	229.007	95.070	207.155	140.585	93.776	101.213	169.936	214.896	99.041	104.166	106.310	111.437	369.880	107.351	-8191	255	
3213.825	1	1	0	0	0.12916	0.12348	0.14417	0.20419	0.15864	0.041538	0.10798	0.2035	0.24039	0.17421	0.20986	0.075298	0.080515	0.12568	0.20837	0.15873	-3.2354	-4.0042	-3.9188	-3.7208	-4.0396	-3.7229	-3.7021	-4.1604	-3.7188	-3.9396	-4.0792	-3.7625	-4.2354	-3.875	-3.625	-4.1813	300.955	222.245	105.113	433.462	221.054	411.370	398.496	208.153	396.326	160.006	135.853	128.610	164.656	113.827	250.480	399.505	0.0010315	0.00031674	7.6771e-05	583.93	2.9118e-06	2.2482e-06	584.74	202.88	3.4658e-06	4.078e-06	241.34	94.702	75.793	32.761	1.8401e-06	46.087	0.00020662	0.0002422	6.0619e-05	557.3	2.2052e-06	2.5865e-06	564.23	182.73	2.1734e-06	2.4899e-06	213.61	78.706	63.306	27.566	2.0952e-06	35.662	438.713	156.459	240.238	95.210	149.543	178.857	93.754	101.666	207.479	323.489	99.243	104.244	106.748	111.272	322.773	107.446	-8191	255	
3213.899	1	1	0	0	0.0549	0.087959	0.16414	0.23454	0.056046	0.065549	0.18764	0.10936	0.1019	0.12497	0.22812	0.096522	0.12207	0.16485	0.1393	0.14187	-3.3375	-3.875	-3.9896	-3.6417	-4.0083	-3.9437	-3.7354	-4.0333	-3.5146	-3.8292	-4.175	-3.6375	-3.875	-3.8521	-3.5292	-4.3104	194.839	252.694	365.639	179.346	438.222	441.475	383.971	84.309	211.199	333.635	87.857	290.574	265.343	390.333	139.938	412.717	0.0012242	0.00018918	2.6013e-05	588.28	3.5689e-06	4.7029e-06	586.67	202.24	1.4448e-06	4.2269e-06	243.38	95.164	75.035	32.957	7.891e-08	46.942	0.00019138	0.00020608	5.0351e-05	542.5	2.0385e-06	2.1574e-06	547.92	177.95	2.0275e-06	2.0895e-06	207.48	76.997	62.454	26.683	1.7367e-06	35.175	85.387	351.175	324.315	95.480	172.365	288.253	93.798	101.341	181.640	329.975	99.165	104.398	106.386	111.092	214.911	107.281	-8191	255	
3214.017	1	1	0	0	0.18931	0.16962	0.083832	0.02823	0.208	0.078377	0.088167	0.1767	0.25901	0.19804	0.11764	0.17702	0.15997	0.091024	0.04139	0.19305	-3.3812	-3.8146	-4.0771	-3.6542	-4.0979	-4.1458	-3.6104	-4.225	-3.7646	-3.8208	-4.2542	-3.7812	-3.9833	-4.1146	-3.5292	-4.2812	85.457	392.760	348.909	441.638	389.575	380.470	409.592	353.145	237.293	274.194	354.572	84.208	104.765	323.984	400.176	343.615	0.0010967	0.00040551	6.905e-05	592.93	3.4314e-06	1.6401e-06	600.56	204.66	4.2348e-06	4.9898e-07	248.11	96.324	75.919	33.476	7.3026e-07	47.993	0.00017663	0.00016829	4.1892e-05	534.61	1.8914e-06	1.7892e-06	541.57	176.65	1.8654e-06	1.7005e-06	203.6	76.657	61.591	26.111	1.4582e-06	35.199	85.444	285.045	111.684	95.388	176.323	415.947	93.871	101.623	161.378	228.289	99.250	104.099	106.297	111.160	219.235	107.384	-8191	255	
3214.114	1	1	0	0	0.12673	0.059519	0.16446	0.098765	0.13425	0.11312	0.10534	0.23564	0.26578	0.10753	0.34224	0.23219	0.075902	0.11571	0.11017	0.1473	-3.55	-3.7354	-4.1625	-3.7458	-3.7917	-3.9729	-3.6167	-3.9479	-3.8542	-3.6063	-4.2271	-3.7188	-3.9292	-4.1333	-3.575	-4.0271	133.496	272.578	205.988	389.493	331.287	431.274	261.545	88.859	382.785	393.969	358.042	320.612	145.578	121.892	284.646	91.691	0.00076286	0.0001762	3.5132e-05	603.11	2.9016e-06	7.5215e-07	602.67	207.29	2.8843e-06	1.6387e-06	251.64	98.002	75.97	33.639	1.4519e-06	48.337	0.0001599	0.00013907	3.5394e-05	535.03	1.6634e-06	1.4477e-06	536.49	176.57	1.5946e-06	1.3996e-06	201.34	77.115	60.15	25.706	1.2545e-06	35.435	86.581	277.009	261.487	95.242	311.646	86.834	93.930	101.840	91.774	350.233	99.047	104.486	106.301	110.949	262.673	107.482	-8191	255	
3214.210	1	1	0	0	0.20815	0.076572	0.26253	0.36495	0.047332	0.1109	0.059959	0.12684	0.20425	0.12465	0.26763	0.099073	0.22578	0.036685	0.22269	0.23219	-3.5229	-3.6292	-4.1208	-3.6604	-3.8604	-4.1562	-3.8021	-4.1146	-3.9313	-3.7708	-4.0771	-3.7458	-3.8667	-4.1271	-3.6125	-3.95	137.440	395.272	189.855	419.886	114.092	122.196	348.104	439.408	434.625	120.892	344.699	315.115	194.315	429.365	342.773	303.379	0.00058173	0.00015688	3.7205e-05	597.39	1.1525e-06	1.7615e-06	603.97	205.42	8.287e-07	1.3595e-06	249.62	97.432	75.403	33.634	1.9936e-06	47.886	0.00013924	0.00011997	3.121e-05	531.07	1.4581e-06	1.2894e-06	527.68	175.51	1.4093e-06	1.2594e-06	197.78	76.609	58.651	25.364	1.2165e-06	35.293	84.906	329.024	199.421	95.104	430.939	418.621	94.019	101.342	311.569	357.725	99.499	104.287	106.338	111.130	164.339	107.438	-8191	255	
3214.330	1	1	0	0	0.0062713	0.16191	0.17529	0.19318	0.19693	0.3456	0.36796	0.24514	0.068921	0.10153	0.062648	0.16124	0.11195	0.16848	0.24731	0.12881	-3.7292	-3.4688	-4.1146	-3.8208	-3.7896	-4.0938	-3.8083	-4.0208	-3.9333	-3.6042	-4.1042	-3.8937	-3.7292	-4.1958	-3.6375	-4.1271	169.674	436.336	224.239	322.077	381.724	197.312	335.397	433.791	107.677	275.726	93.466	170.625	414.132	326.719	126.488	131.613	0.00054828	7.1554e-05	6.4743e-05	593.46	3.4582e-06	1.9899e-06	602.89	205.13	2.6164e-06	8.9228e-07	247.66	96.699	75.984	33.306	4.1762e-06	47.587	0.00012623	0.00011177	3.0904e-05	529.42	1.3249e-06	1.2085e-06	526.99	175.37	1.3001e-06	1.1882e-06	197.74	76.299	57.773	25.067	1.2616e-06	35.107	94.546	334.477	97.036	95.219	379.038	237.316	93.907	101.425	390.093	324.807	99.538	104.465	106.388	111.061	195.211	107.605	-8191	255	
3214.426	1	1	0	0	0.13817	0.201	0.12819	0.03093	0.27741	0.18817	0.2213	0.24264	0.13309	0.19094	0.087629	0.3366	0.22771	0.19091	0.27466	0.14628	-3.8104	-3.6292	-3.9958	-3.8688	-3.625	-4.2812	-3.6479	-4.0833	-4.075	-3.5687	-4.125	-3.9667	-3.6875	-4.0542	-3.5729	-3.8021	104.310	172.371	308.262	296.010	131.179	150.410	393.823	407.446	149.333	381.923	86.169	402.063	99.011	316.991	426.803	348.524	0.00076602	0.00017644	5.4784e-05	593.48	1.5073e-06	1.4776e-06	602.92	204.9	7.8758e-07	3.7933e-07	248.07	97.033	75.576	33.383	3.3883e-06	47.812	0.00011781	0.00010636	3.2873e-05	529.44	1.2555e-06	1.1673e-06	531.26	174.48	1.231e-06	1.1329e-06	198.97	75.857	57.178	24.953	1.3229e-06	34.68	92.992	329.897	84.247	95.340	149.680	356.765	93.997	101.408	378.362	325.403	99.217	104.186	106.455	111.000	169.616	107.793	-8191	255	
3214.521	1	1	0	0	0.071476	0.1891	0.095907	0.18239	0.21833	0.080962	0.091232	0.13423	0.14559	0.15246	0.11557	0.099517	0.051764	0.25326	0.18409	0.15485	-3.7188	-3.5167	-4.0604	-3.8063	-3.5771	-4.2229	-3.7125	-3.7729	-4.025	-3.7271	-4.1667	-3.9583	-3.5333	-4.1875	-3.8125	-3.8167	373.882	225.701	160.614	433.845	132.163	200.240	407.663	258.496	296.964	383.083	352.589	392.275	363.427	435.685	379.574	257.460	0.00076388	0.00018647	9.3758e-05	594.52	1.2305e-06	1.3645e-06	603.26	204.46	2.0725e-06	2.9021e-06	249.05	96.601	76.121	33.254	1.5322e-06	47.81	0.00011079	0.00010143	3.4071e-05	524.42	1.1782e-06	1.1313e-06	533	173.19	1.1807e-06	1.1457e-06	201.38	75.137	57.13	24.984	1.4057e-06	34.559	88.916	402.628	161.733	95.385	376.052	214.009	94.362	101.323	189.511	203.855	99.552	104.177	106.071	111.402	329.616	107.615	-8191	255	
3214.619	1	1	0	0	0.18067	0.061485	0.10317	0.21036	0.32507	0.073062	0.24842	0.1739	0.060801	0.25905	0.038115	0.17269	0.13854	0.23398	0.23616	0.22216	-3.6042	-3.6854	-3.9229	-4.0375	-3.4771	-4.1646	-3.8563	-3.7875	-4.0792	-3.6792	-3.9583	-4.1771	-3.6625	-4.1708	-3.8604	-3.7667	324.832	356.231	395.384	401.895	185.242	301.710	337.740	374.263	230.414	123.568	164.541	403.200	192.595	435.856	288.258	398.274	0.0009594	0.00022318	9.4916e-05	598.89	1.1747e-06	3.0206e-06	606.26	205.94	2.4935e-06	3.9269e-06	249.86	96.976	75.968	33.541	7.3899e-07	47.591	0.00010889	0.0001081	3.571e-05	523.69	1.1549e-06	1.2132e-06	537.7	173.05	1.1658e-06	1.2566e-06	202.75	75.316	57.103	25.398	1.4377e-06	34.62	102.683	429.487	125.392	95.652	282.685	180.338	93.940	101.451	215.540	186.631	99.127	104.114	106.127	111.091	323.021	107.586	-8191	255	
3214.713	1	1	0	0	0.098611	0.063792	0.15694	0.14678	0.1807	0.16641	0.082747	0.12726	0.11339	0.39608	0.12882	0.17672	0.19572	0.19826	0.054748	0.33078	-3.7333	-3.7542	-3.6729	-4.1208	-3.6667	-4.025	-3.9396	-3.6333	-3.9708	-3.7625	-3.8	-4.1792	-3.7313	-4.0146	-3.8729	-3.5604	103.233	217.323	398.624	361.639	311.857	297.913	318.040	397.229	399.404	149.067	169.929	116.730	363.505	101.348	234.146	400.095	0.00090526	0.0004058	3.8764e-05	591.14	3.1759e-06	3.8375e-06	597.76	202.9	2.8856e-06	3.442e-06	245.39	95.759	75.238	33.113	2.5783e-06	47.038	0.00010918	0.0001201	3.5705e-05	517.41	1.1385e-06	1.3286e-06	529.62	170.47	1.1371e-06	1.3323e-06	198.54	73.999	56.252	25.325	1.3624e-06	33.959	90.372	149.363	262.370	95.201	215.567	172.557	93.869	101.361	193.191	171.570	99.581	104.125	105.964	111.040	345.603	107.080	-8191	255	
3214.809	1	1	0	0	0.066709	0.082505	0.022995	0.351	0.11293	0.034502	0.11784	0.17206	0.17221	0.088291	0.093684	0.084147	0.28741	0.03968	0.1309	0.069375	-3.7	-3.8063	-3.775	-4.1521	-3.7646	-3.95	-3.9125	-3.6958	-4.1021	-3.7396	-3.7792	-4.1604	-3.6875	-4.0333	-4.025	-3.6396	92.837	286.561	126.566	389.582	206.126	289.732	354.052	305.719	387.780	179.199	151.371	210.466	209.110	316.504	401.170	359.015	0.00088675	0.00019205	5.0836e-05	586.1	2.1361e-06	2.0859e-06	589.54	200.75	3.6449e-06	1.2733e-06	242.84	95.384	75.03	32.95	2.5253e-07	46.841	0.00011006	0.00012998	3.4227e-05	514.43	1.196e-06	1.4295e-06	523.82	168.69	1.1978e-06	1.4126e-06	195.22	73.044	56.345	25.186	1.2218e-06	33.653	437.398	163.528	400.353	95.233	163.955	181.000	93.916	101.638	170.301	233.844	99.230	104.056	106.578	111.002	420.999	107.354	-8191	255	
3214.930	1	1	0	0	0.22144	0.20527	0.14732	0.17231	0.17167	0.085094	0.26901	0.076442	0.21401	0.18993	0.16215	0.31245	0.075069	0.23559	0.12755	0.17885	-3.7146	-3.9188	-3.7208	-3.9979	-3.6771	-3.8479	-4.0021	-3.5312	-4.0271	-3.8208	-3.7438	-4.2208	-3.7188	-3.9854	-4.1146	-3.7104	343.196	84.746	364.769	379.524	373.617	265.177	379.329	409.815	389.123	132.344	383.405	390.660	299.891	115.496	408.749	428.058	0.0011594	7.195e-05	5.3336e-05	584.38	5.2521e-06	5.7988e-07	592.77	201.07	3.1042e-06	8.6384e-07	244.86	95.662	74.658	32.925	1.4889e-06	47.027	0.00011023	0.00012464	3.0555e-05	508.06	1.215e-06	1.3633e-06	520.23	167.77	1.2365e-06	1.3331e-06	193.64	72.687	56.555	25.017	1.1137e-06	33.385	442.889	107.248	259.359	95.450	198.809	385.763	94.020	101.763	170.986	91.159	99.414	104.217	106.178	111.197	362.266	107.514	-8191	255	
3215.026	1	1	0	0	0.023034	0.22748	0.20464	0.070088	0.22914	0.2579	0.34108	0.17358	0.060551	0.26825	0.078355	0.1359	0.19637	0.11413	0.19999	0.030345	-3.7687	-3.8292	-3.5708	-4.1937	-3.8146	-3.9333	-4.1542	-3.6042	-4.1292	-3.9313	-3.8125	-4.15	-3.8083	-3.8438	-4.0875	-3.6583	103.070	377.307	387.005	97.224	189.312	187.402	387.919	94.190	250.783	85.533	203.312	395.523	431.599	135.030	325.227	360.100	0.00098248	0.0002186	3.1915e-05	588.87	3.1109e-06	7.1471e-07	596.74	203.04	3.1818e-06	2.6015e-06	247.13	96.583	75.42	33.031	8.3644e-07	47.281	0.00011099	0.00011131	2.7076e-05	504.36	1.2131e-06	1.1959e-06	516.3	167.57	1.2391e-06	1.1992e-06	193.98	73.296	57.456	24.889	1.0655e-06	33.55	442.016	297.923	359.326	95.435	248.444	355.223	93.960	101.324	219.516	344.580	99.374	104.397	106.440	111.000	334.524	107.498	-8191	255	
3215.122	1	1	0	0	0.058072	0.077962	0.12354	0.15191	0.16818	0.12601	0.078569	0.12365	0.051597	0.078325	0.11579	0.042128	0.22589	0.13012	0.093212	0.17042	-3.6646	-3.9813	-3.6958	-4.0437	-3.9146	-3.8208	-4.3313	-3.65	-3.7979	-4.0042	-3.5917	-4.1833	-3.8833	-3.7271	-4.1646	-3.75	420.748	410.629	391.122	372.052	258.576	214.806	414.166	292.283	119.461	399.577	315.405	412.104	332.375	426.911	372.871	352.080	0.00085402	0.00023497	3.1239e-05	592.12	1.3126e-06	5.1467e-07	601.19	204.96	1.5549e-06	1.0366e-06	249.51	97.353	76.029	32.984	1.4003e-06	47.544	0.00011509	0.00010493	2.5904e-05	508.49	1.2279e-06	1.0962e-06	518.45	168.89	1.2302e-06	1.0816e-06	193.29	74.073	57.543	24.684	1.018e-06	33.957	441.623	260.505	285.870	95.518	209.231	418.579	94.201	101.848	430.164	186.051	99.271	104.178	106.172	111.439	129.008	107.341	-8191	255	
3215.218	1	1	0	0	0.058821	0.3944	0.091065	0.14161	0.1098	0.23197	0.21527	0.16947	0.20245	0.067219	0.15234	0.14939	0.29118	0.080741	0.24739	0.2035	-3.5187	-4.1813	-3.5833	-4.0875	-3.9729	-3.5708	-4.2063	-3.7188	-3.8167	-4.2208	-3.7396	-4.0854	-3.9	-3.6333	-4.1021	-3.7771	321.688	391.801	438.918	382.459	283.553	317.644	303.831	109.001	214.275	414.063	112.316	392.381	374.635	306.624	130.533	234.665	0.00075434	0.00015411	5.6177e-05	588.77	6.1646e-07	8.9194e-07	597.93	203.59	1.642e-06	6.0793e-07	246.51	96.17	75.201	32.856	2.1941e-06	46.956	0.00011508	0.00010001	2.5249e-05	512.48	1.2038e-06	1.0554e-06	513.83	169.32	1.1763e-06	1.0273e-06	190.6	73.668	56.347	24.351	9.6803e-07	33.758	90.319	194.372	240.502	95.168	255.479	228.703	94.080	101.534	426.170	112.562	99.349	104.090	106.462	110.952	187.803	107.368	-8191	255	
3215.315	1	1	0	0	0.16977	0.072073	0.12327	0.040879	0.20519	0.091696	0.1647	0.18018	0.098834	0.27053	0.17961	0.088544	0.038763	0.29286	0.12654	0.21627	-3.5	-4.0312	-3.7313	-4.0771	-3.7396	-3.5938	-4.1312	-3.7729	-3.6854	-4.1292	-3.6813	-4.0583	-4.1188	-3.7229	-4	-3.8812	440.026	247.523	209.346	383.767	115.307	381.814	376.408	443.252	278.737	375.395	158.841	253.589	364.157	403.010	95.929	103.443	0.000889	0.0002211	5.8584e-05	590.96	1.5148e-06	4.4293e-07	595.49	203.52	2.1368e-06	6.4605e-07	245.93	96.044	75.189	32.766	2.773e-06	47.102	0.00010467	9.2665e-05	2.4351e-05	511.66	1.1109e-06	9.9506e-07	511.9	168.98	1.0853e-06	9.7429e-07	190.46	73.81	55.729	24.187	9.9238e-07	33.833	104.181	213.347	117.635	95.307	259.773	88.425	94.195	101.451	208.658	313.004	99.571	104.301	106.050	110.949	168.793	107.204	-8191	255	
3215.411	1	1	0	0	0.26733	0.18313	0.16931	0.16567	0.16825	0.13269	0.17261	0.14889	0.14026	0.11927	0.036424	0.29762	0.15812	0.093226	0.032083	0.052472	-3.3771	-4.0708	-3.5979	-3.9667	-4.0167	-3.6437	-4.15	-3.8896	-3.7146	-4.2354	-3.8771	-4.0896	-4.1792	-3.5542	-4.3521	-3.8667	417.130	437.982	441.616	408.967	105.146	264.881	421.952	440.803	109.371	129.100	403.659	383.268	335.456	279.017	432.849	437.833	0.00094052	9.7995e-05	9.3665e-05	589.42	1.4919e-06	5.3975e-07	598.53	202.5	2.7523e-06	8.1366e-08	247.33	96.217	75.221	32.897	1.9535e-06	47.098	9.7037e-05	8.8437e-05	2.5597e-05	513.39	1.0504e-06	9.595e-07	516.99	169.71	1.0546e-06	9.754e-07	193.68	74.348	55.861	24.282	1.1107e-06	33.881	84.551	365.613	94.752	95.288	200.373	165.833	94.183	101.437	354.582	158.949	99.416	104.114	106.503	111.123	223.831	107.665	-8191	255	
3215.507	1	1	0	0	0.23581	0.13177	0.04633	0.22878	0.21766	0.029028	0.1098	0.15944	0.12195	0.1382	0.083318	0.14144	0.1421	0.083441	0.043788	0.16327	-3.2167	-4.2708	-3.7729	-3.7917	-4.1583	-3.5479	-4.0312	-3.9604	-3.675	-4.2125	-3.8312	-3.9521	-3.9542	-3.6	-3.9521	-4.0229	118.332	298.295	199.505	146.419	363.145	263.795	163.036	261.244	368.196	283.461	283.348	409.505	413.743	164.990	402.100	297.101	0.00083963	5.0139e-05	4.7674e-05	590.38	1.6354e-06	1.9336e-06	601.3	203.75	1.3931e-06	1.8104e-06	250.5	97.012	75.805	33.169	1.854e-07	47.531	9.6152e-05	8.8103e-05	2.834e-05	512.71	1.0279e-06	9.5975e-07	523.56	169.91	1.0218e-06	9.7763e-07	196.64	74.242	55.929	24.47	1.2133e-06	34.034	93.573	371.394	131.146	95.300	361.611	207.946	94.018	101.524	85.860	138.755	99.355	103.917	106.561	111.076	285.639	107.428	-8191	255	
3215.601	1	1	0	0	0.28838	0.30867	0.083681	0.047576	0.038739	0.14082	0.13682	0.14045	0.30119	0.11599	0.15358	0.057777	0.12294	0.19181	0.08815	0.1698	-3.2021	-4.1125	-3.675	-3.6813	-3.9583	-3.6521	-3.9125	-4.0396	-3.5354	-4.1417	-3.8271	-3.7708	-4.1021	-3.7729	-3.8688	-4.0896	345.143	423.871	157.612	118.427	321.390	319.729	408.986	356.312	217.041	322.040	153.021	178.241	156.401	249.504	427.736	373.741	0.00074327	0.00027042	1.4439e-05	592.9	4.517e-07	5.5512e-07	606.54	204.91	1.2585e-06	5.0217e-06	250.64	98.257	75.764	33.425	1.0178e-06	47.593	9.6578e-05	9.2932e-05	3.0973e-05	515.36	1.022e-06	1.0251e-06	530.34	169.82	9.962e-07	1.0133e-06	198.73	74.296	55.779	24.657	1.18e-06	33.969	85.805	181.563	340.015	95.581	256.664	175.620	94.233	101.522	273.011	224.196	99.271	104.504	106.388	111.121	281.505	107.849	-8191	255	
3215.722	1	1	0	0	0.23038	0.0098056	0.033723	0.19109	0.18173	0.16557	0.099044	0.16338	0.20781	0.082315	0.020265	0.17332	0.22791	0.11956	0.10384	0.055162	-3.3667	-4.0542	-3.8271	-3.7062	-4.1937	-3.6063	-3.9958	-4.0854	-3.5208	-4.1521	-3.9208	-3.7229	-4.1	-3.8771	-3.6896	-4.1646	280.119	331.696	386.072	439.321	314.651	414.823	161.252	381.477	367.903	416.615	253.629	146.386	383.664	441.480	217.489	344.691	0.00052212	0.0002037	5.2443e-05	598.25	1.3567e-06	4.9957e-06	613.85	205.68	1.2705e-06	1.4276e-06	252.6	98.535	75.999	33.452	6.4086e-07	47.751	8.7808e-05	9.4923e-05	2.941e-05	512.26	9.4568e-07	1.0577e-06	531.98	169.7	9.4341e-07	1.0802e-06	198.07	74.088	55.323	24.783	1.0899e-06	33.713	91.541	147.746	154.394	95.389	127.394	183.406	94.112	101.599	113.491	171.027	99.445	104.346	106.390	111.157	422.668	107.276	-8191	255	
3215.818	1	1	0	0	0.31535	0.11675	0.09921	0.22426	0.074069	0.11036	0.33947	0.1756	0.046476	0.24459	0.036042	0.31375	0.13584	0.14732	0.20504	0.15994	-3.2083	-3.8833	-3.9417	-3.675	-4.1542	-3.8625	-3.9979	-4.1562	-3.6437	-3.8958	-3.8479	-3.6125	-4.1292	-3.8458	-3.8063	-4.1917	426.526	228.297	99.562	104.738	98.115	432.469	389.636	128.174	289.487	112.353	404.591	394.614	400.031	336.930	310.766	285.609	0.0007793	0.00027279	8.539e-05	592.84	2.2917e-06	1.0999e-06	602.03	204.97	1.624e-06	3.3226e-06	249.18	97.413	75.939	33.164	9.2875e-07	47.453	8.3174e-05	9.598e-05	2.6562e-05	503.91	8.8825e-07	1.061e-06	520.72	167.53	9.0826e-07	1.0974e-06	194.45	73.08	55.164	24.77	1.0285e-06	33.366	90.398	182.583	177.076	95.146	175.861	188.855	93.955	101.750	230.966	184.305	99.375	104.336	106.108	110.851	199.385	107.394	-8191	255	
3215.890	1	1	0	0	0.1508	0.097427	0.15237	0.0883	0.18989	0.043985	0.058057	0.24146	0.025614	0.10987	0.19106	0.13111	0.12944	0.075843	0.15985	0.15122	-3.3604	-3.8438	-3.8271	-3.7125	-4.0479	-3.7562	-3.7646	-4.2562	-3.7292	-3.6396	-3.9813	-3.6521	-4.0729	-3.9521	-3.5062	-4.2063	291.555	95.774	168.964	240.168	239.735	386.878	124.159	439.692	348.781	415.803	370.450	390.959	300.004	111.459	154.116	313.311	0.00094964	6.2701e-05	2.7679e-05	589.36	1.8963e-06	1.1313e-06	598.54	203.41	1.8695e-06	1.3331e-06	248.96	97.347	75.998	33.107	4.5714e-07	47.881	8.7238e-05	0.00010128	2.5341e-05	500.49	9.3683e-07	1.0876e-06	515.26	165.48	9.3329e-07	1.0541e-06	191.94	72.491	55.36	24.674	9.379e-07	33.296	85.788	149.303	342.387	95.341	199.285	246.375	93.765	101.552	152.459	194.731	99.225	104.480	106.430	111.123	313.155	107.582	-8191	255	
3216.010	1	1	0	0	0.21297	0.026116	0.21671	0.079476	0.056657	0.068186	0.063951	0.08311	0.029967	0.15754	0.24479	0.06632	0.12994	0.27526	0.1071	0.14792	-3.4375	-3.7354	-4.0312	-3.5104	-4.0354	-3.9792	-3.675	-4.1792	-3.5354	-3.7458	-4.225	-3.7542	-3.9979	-3.8792	-3.7208	-3.9958	95.017	421.264	382.560	230.976	277.028	320.705	163.741	326.254	158.872	418.404	390.271	368.759	209.016	90.329	258.457	248.738	0.00086648	0.00019655	1.6597e-05	593.06	1.6991e-06	9.5733e-07	603.03	203.58	1.2623e-06	6.4397e-07	248.69	97.688	76.041	33.123	1.8089e-06	47.993	9.2473e-05	9.7413e-05	2.4265e-05	501.12	1.0205e-06	1.0689e-06	516.79	166.01	1.0294e-06	1.058e-06	192.08	72.549	56.13	24.612	9.3447e-07	33.374	437.289	151.407	355.107	95.308	165.286	230.188	94.002	101.627	300.008	367.696	99.670	104.203	106.369	111.195	127.649	107.561	-8191	255	
3216.106	1	1	0	0	0.044413	0.07126	0.34351	0.13263	0.32398	0.19672	0.18447	0.054404	0.19807	0.10328	0.17331	0.041489	0.2188	0.15027	0.28867	0.15344	-3.4271	-3.6958	-4.0646	-3.5771	-3.9083	-3.9333	-3.6437	-4.0458	-3.7458	-3.8542	-4.1	-3.5479	-3.8625	-4.0583	-3.5042	-4.1083	153.119	407.154	191.725	428.385	375.523	342.823	376.628	95.566	84.440	279.008	357.288	118.820	401.036	96.987	190.654	340.995	0.00084837	0.00024968	2.3558e-05	592.02	1.7094e-06	1.9713e-06	604.84	204.33	2.7743e-06	2.3471e-06	251.57	97.859	76.158	33.26	8.8145e-07	48.231	9.9622e-05	9.4384e-05	2.3627e-05	503.94	1.0949e-06	1.0319e-06	517.76	167.19	1.12e-06	1.0211e-06	192.7	73.477	56.799	24.624	9.3435e-07	33.821	89.718	108.822	382.058	95.341	229.233	324.386	93.824	101.514	257.405	435.381	99.418	104.359	106.341	111.166	244.087	107.475	-8191	255	
3216.203	1	1	0	0	0.2099	0.075873	0.064491	0.24582	0.10539	0.058929	0.085391	0.18031	0.13241	0.17248	0.054671	0.25173	0.14996	0.19077	0.15178	0.051123	-3.4729	-3.6083	-4.1167	-3.675	-3.8104	-3.9875	-3.6	-4.1771	-3.8083	-3.6312	-4.2417	-3.4979	-3.875	-4.0583	-3.5604	-4.1771	363.090	155.561	239.545	397.527	279.697	111.543	354.777	402.556	377.263	426.975	211.271	385.529	98.966	434.965	189.414	287.318	0.0010928	8.6108e-05	5.6961e-05	595.02	2.4357e-06	1.5122e-06	607.33	206.58	4.5278e-07	1.2636e-06	252.51	99.131	76.389	33.41	7.5089e-07	48.346	0.00010573	9.1441e-05	2.352e-05	510	1.1346e-06	9.9313e-07	520.67	169.25	1.1242e-06	9.8908e-07	193.76	74.678	56.824	24.637	9.1153e-07	34.255	90.503	291.467	94.575	95.353	206.424	233.296	94.215	101.583	104.163	258.451	99.614	104.112	106.372	111.064	142.045	107.678	-8191	255	
3216.299	1	1	0	0	0.27173	0.033587	0.13751	0.14977	0.25056	0.21002	0.15724	0.12298	0.14274	0.15616	0.18583	0.13119	0.20187	0.161	0.14498	0.20056	-3.5687	-3.6375	-4.1312	-3.7667	-3.675	-4.0417	-3.6854	-3.9729	-3.8021	-3.5708	-4.1562	-3.7062	-3.5875	-4.0375	-3.6063	-4.0083	219.962	112.802	171.731	176.303	217.751	392.988	385.532	219.128	335.119	292.019	261.235	379.554	378.194	410.529	147.123	324.913	0.00061055	0.00018647	2.8132e-05	590.82	1.4259e-06	2.2942e-06	603.54	203.4	1.1019e-06	8.0882e-07	248.52	97.607	75.741	33.188	7.1641e-07	47.821	0.00010224	8.8463e-05	2.3071e-05	510.09	1.0729e-06	9.5003e-07	515.35	168.58	1.0511e-06	9.3375e-07	191.49	74.295	55.77	24.334	9.1322e-07	34.065	90.854	400.978	182.227	95.346	337.761	228.247	93.789	101.581	428.409	141.798	99.427	104.392	106.242	110.979	115.707	107.443	-8191	255	
3216.419	1	1	0	0	0.14588	0.20262	0.14629	0.17853	0.14417	0.016272	0.2115	0.088234	0.050277	0.092109	0.11881	0.20088	0.16605	0.062835	0.082794	0.17796	-3.4083	-3.5146	-4.0021	-3.8375	-3.8125	-4.0479	-3.625	-3.875	-4.0062	-3.6229	-4.2438	-3.9104	-3.7625	-4.1917	-3.6354	-3.8542	395.553	134.965	126.631	274.222	237.257	116.080	158.129	393.049	348.487	103.408	190.139	338.975	112.889	413.165	372.896	93.929	0.00055485	0.00010353	4.6645e-05	587.71	1.9009e-06	6.7945e-07	600.77	203	1.2359e-06	2.9473e-07	249.43	96.693	75.182	32.815	5.4885e-06	47.755	9.5239e-05	8.4976e-05	2.3713e-05	509.45	1.0173e-06	9.3204e-07	513.84	168.83	1.0048e-06	9.261e-07	191.99	74.134	55.501	24.211	1.014e-06	34.073	91.117	389.518	119.403	95.306	184.969	404.596	93.930	101.512	301.578	394.576	99.268	104.418	106.612	111.099	161.049	107.392	-8191	255	
3216.491	1	1	0	0	0.12604	0.047995	0.094167	0.22756	0.13585	0.13097	0.11978	0.15523	0.10512	0.21774	0.17261	0.065003	0.15943	0.17867	0.11911	0.19955	-3.5479	-3.4458	-4.1104	-3.8458	-3.7313	-4.1917	-3.8438	-4.0229	-4.0917	-3.5854	-4.1979	-3.925	-3.75	-4.1708	-3.5687	-3.7458	434.570	113.303	110.477	434.823	173.711	360.963	370.921	348.424	275.370	420.861	147.336	126.389	413.444	431.157	113.882	88.048	0.00071912	0.00011371	9.9996e-05	587.84	2.1007e-06	1.2288e-06	596.86	201.73	5.9842e-07	1.3007e-06	248.46	96.988	75.14	33.07	3.8304e-06	47.93	9.4395e-05	8.5626e-05	2.688e-05	511.25	1.019e-06	9.4642e-07	518.58	169.09	1.0223e-06	9.4341e-07	195.2	74.39	55.505	24.304	1.1139e-06	34.132	442.923	148.089	101.334	95.057	351.426	173.551	94.148	101.495	393.082	189.711	99.570	104.132	106.456	111.025	209.949	107.515	-8191	255	
3216.612	1	1	0	0	0.1882	0.24595	0.066918	0.1877	0.28283	0.033717	0.15076	0.2933	0.014803	0.30756	0.29494	0.35395	0.085685	0.22419	0.27917	0.21276	-3.6437	-3.5396	-3.875	-3.9688	-3.6229	-4.1333	-3.6458	-3.7875	-4.1312	-3.7458	-4.0021	-3.8896	-3.6	-4.0938	-3.75	-3.7458	137.844	279.527	426.711	109.386	90.153	258.861	111.122	384.407	364.406	347.212	159.070	395.670	197.636	219.868	401.020	124.545	0.00077947	0.00017155	6.7979e-05	591.8	1.7953e-06	4.224e-06	601.57	204.27	1.1082e-06	4.0593e-06	251.71	98.428	75.915	33.367	1.0004e-06	48.109	9.2295e-05	8.6431e-05	2.8926e-05	511.62	1.0008e-06	9.7344e-07	526.35	169.61	1.0256e-06	1.011e-06	198.97	74.884	55.779	24.623	1.2211e-06	34.338	96.183	169.873	153.001	95.232	179.946	202.397	93.997	101.735	241.671	253.673	99.437	104.080	106.474	111.710	261.911	107.351	-8191	255	
3216.706	1	1	0	0	0.22897	0.08571	0.079275	0.14286	0.049486	0.30123	0.37875	0.026052	0.14445	0.076616	0.32511	0.12182	0.10142	0.018849	0.077016	0.19481	-3.8396	-3.6271	-3.95	-4.0479	-3.6688	-4.1438	-3.8375	-3.6063	-4.0813	-3.7146	-3.7979	-4.0188	-3.6979	-4.0854	-3.6312	-3.5896	374.152	319.732	219.566	394.307	414.909	294.523	329.757	152.183	398.755	152.447	368.074	117.078	443.290	267.536	156.734	100.399	0.00074836	0.00034281	6.3327e-05	589.35	2.6545e-06	2.2382e-06	605.83	204.32	3.598e-07	5.183e-06	252.83	98.939	75.969	33.371	3.9736e-07	48.554	9.3436e-05	9.5233e-05	3.0941e-05	512.33	1.0026e-06	1.0711e-06	531.8	169.71	1.0086e-06	1.1158e-06	200.77	75.142	55.981	25.015	1.251e-06	34.601	96.924	149.998	182.865	95.392	284.016	185.318	94.146	101.571	376.156	173.783	99.224	103.857	106.195	111.233	233.704	107.311	-8191	255	
3216.802	1	1	0	0	0.12373	0.18601	0.0097076	0.24997	0.092262	0.15823	0.071614	0.33306	0.14849	0.3364	0.1669	0.13589	0.26497	0.23769	0.066577	0.077742	-3.6354	-3.7083	-3.8646	-4.0208	-3.5	-4.1604	-4.0354	-3.6021	-4.0687	-3.6083	-3.8146	-4.1208	-3.5417	-3.8583	-3.9292	-3.8271	191.854	252.651	115.123	358.824	340.616	399.537	365.855	419.704	278.999	237.833	396.435	194.187	98.274	403.861	249.306	338.218	0.00074858	0.00032798	2.5357e-06	589.98	1.3403e-06	5.1457e-06	600.72	203.76	1.3508e-06	2.2182e-06	249.07	97.778	75.717	33.076	3.027e-06	47.656	9.6116e-05	0.00010736	3.1389e-05	511.65	1.012e-06	1.1886e-06	527.18	168.71	1.008e-06	1.1994e-06	198.04	74.057	55.671	24.995	1.1885e-06	34.017	89.920	178.160	413.233	95.514	200.684	194.670	93.909	101.652	202.061	210.804	99.575	104.378	106.325	110.893	377.947	107.460	-8191	255	
3216.898	1	1	0	0	0.24196	0.29948	0.084647	0.17793	0.12986	0.063619	0.11493	0.094104	0.12199	0.1687	0.13676	0.19809	0.12626	0.11778	0.16391	0.092213	-3.8042	-3.8208	-3.6896	-3.9792	-3.6063	-4.0521	-4.0625	-3.6167	-4.0396	-3.875	-3.8229	-4.1125	-3.5687	-4	-4.0813	-3.5312	318.179	434.451	344.390	139.327	135.297	117.813	391.328	152.066	189.102	430.343	167.892	124.789	385.442	128.406	153.671	329.464	0.00090034	0.00014387	3.3926e-05	582.26	3.9085e-06	1.4483e-06	594.38	201.56	1.2042e-06	1.7481e-06	248.08	96.161	75.475	32.692	2.2253e-06	47.544	9.7676e-05	0.00011619	3.0392e-05	506.59	1.0759e-06	1.2927e-06	521.38	167.05	1.0911e-06	1.285e-06	195.45	73.265	55.949	24.943	1.1443e-06	33.711	100.958	435.525	298.812	95.366	107.940	176.024	93.982	101.541	230.796	130.518	99.179	104.219	106.343	110.909	298.818	107.366	-8191	255	
3217.019	1	1	0	0	0.14775	0.15691	0.19404	0.15604	0.085395	0.17987	0.074788	0.092235	0.096306	0.14829	0.083389	0.072806	0.10253	0.1436	0.0336	0.10502	-3.7292	-3.9396	-3.7458	-4.2354	-3.6667	-3.8646	-4.0938	-3.5938	-3.8812	-3.7979	-3.7229	-4.0625	-3.6125	-3.8937	-3.9979	-3.4417	303.577	408.677	255.222	285.914	430.079	260.745	207.482	337.719	145.593	420.140	316.762	268.039	145.135	376.446	144.678	280.559	0.00088609	0.00028465	5.6552e-05	586.13	3.7865e-06	2.0069e-06	594.81	201.37	3.7713e-06	2.4523e-06	248.75	96.364	75.379	33.032	9.7367e-07	47.604	0.00010422	0.00011665	2.8668e-05	503.77	1.1414e-06	1.276e-06	519.67	166.57	1.1797e-06	1.2681e-06	194.5	73.357	56.679	24.953	1.1079e-06	33.797	435.034	172.779	132.695	95.625	179.810	369.359	94.192	101.557	175.306	182.629	99.195	104.412	106.298	111.161	282.402	107.158	-8191	255	
3217.091	1	1	0	0	0.046635	0.15079	0.056981	0.094767	0.17257	0.17658	0.30185	0.23653	0.11472	0.092064	0.093406	0.25889	0.12137	0.11963	0.057354	0.19861	-3.6479	-3.875	-3.5938	-4.0333	-3.7354	-3.6958	-4.1687	-3.6396	-3.9479	-3.9437	-3.5979	-4.0896	-3.7708	-3.8187	-4.1479	-3.4729	231.311	330.256	208.986	349.338	363.504	397.839	90.104	384.793	256.751	434.818	371.776	253.827	163.906	402.059	185.436	174.929	0.00099824	0.00025392	2.6401e-05	586.97	5.6138e-06	2.1494e-06	599.27	202.68	1.6238e-06	9.4315e-07	249.02	98.263	75.287	33.127	3.1746e-06	48.253	0.00011321	0.00011153	2.7481e-05	503.94	1.2278e-06	1.1986e-06	519.05	167.07	1.2453e-06	1.1839e-06	194.53	73.991	57.338	24.906	1.0617e-06	34.224	92.016	324.578	152.809	95.485	141.346	338.717	94.108	101.554	256.108	357.882	99.244	104.337	105.900	111.590	112.543	107.395	-8191	255	
3217.187	1	1	0	0	0.088897	0.25509	0.20615	0.10093	0.23772	0.1344	0.16215	0.18513	0.15574	0.10158	0.053998	0.10126	0.12166	0.054431	0.13116	0.12238	-3.5146	-3.8354	-3.6646	-4.0687	-3.8458	-3.6167	-4.1396	-3.9125	-3.9479	-3.9708	-3.6292	-3.9854	-4.0687	-3.8042	-3.9958	-3.6729	212.469	333.857	238.656	367.413	188.534	89.942	383.361	294.811	334.644	294.470	406.175	156.484	390.646	254.687	374.682	365.271	0.0008552	8.1094e-05	2.662e-05	590.77	3.1169e-06	2.1047e-06	603.19	203.64	6.8489e-07	6.0523e-07	250.98	98.882	75.786	33.287	1.9208e-06	48.756	0.00011807	0.00010575	2.681e-05	508.13	1.2739e-06	1.1311e-06	521.49	168.96	1.2672e-06	1.1215e-06	195.45	75.105	57.494	24.874	1.0123e-06	34.685	84.440	406.922	259.773	95.503	212.820	321.214	93.872	101.564	299.212	244.616	99.375	104.180	106.251	111.093	209.099	107.426	-8191	255	
3217.283	1	1	0	0	0.14368	0.033608	0.37108	0.18991	0.32966	0.050515	0.22158	0.20959	0.072798	0.11071	0.029145	0.16535	0.17711	0.035823	0.19602	0.18637	-3.4521	-4.0375	-3.5667	-4.0292	-3.8083	-3.6813	-4.2562	-3.8688	-3.9375	-4.1729	-3.7458	-4.1646	-3.8917	-3.8	-4.0625	-3.8604	125.108	121.316	314.866	404.740	157.232	197.643	442.492	289.406	227.958	421.210	84.902	375.742	360.145	429.444	165.946	340.640	0.00086039	2.4332e-05	2.0425e-05	591.7	1.9866e-06	6.4282e-07	604.77	203.99	3.2514e-06	1.6258e-06	251.81	99.111	75.846	33.142	1.7348e-06	48.449	0.00011467	0.00010015	2.5714e-05	514.99	1.2395e-06	1.0891e-06	521.77	170.57	1.2133e-06	1.0712e-06	194.83	75.634	56.919	24.66	9.8878e-07	34.743	95.486	369.951	173.764	95.478	246.947	342.545	93.931	101.624	363.244	433.980	99.630	103.961	106.415	111.239	200.814	107.453	-8191	255	
3217.404	1	1	0	0	0.25638	0.1454	0.055716	0.1346	0.17494	0.15061	0.12642	0.17224	0.10025	0.25672	0.15982	0.10458	0.098888	0.25842	0.21495	0.17203	-3.3646	-4.0854	-3.4917	-4.2104	-4.0292	-3.6854	-4.3	-3.7271	-3.7021	-4.0563	-3.6312	-4.0938	-4.0062	-3.7292	-3.9729	-3.9354	159.190	419.211	222.486	230.199	155.612	172.235	388.555	432.229	146.391	315.286	159.765	405.483	418.368	99.631	434.824	430.493	0.00065941	0.00019194	7.1011e-05	589.77	6.528e-07	3.9298e-06	599.79	202.28	2.0644e-06	1.1125e-06	249.92	98.08	74.883	33.014	3.0847e-06	47.877	0.00010748	9.5201e-05	2.5454e-05	513.45	1.1547e-06	1.0416e-06	516.97	170.71	1.1594e-06	1.0493e-06	194.52	75.553	56.489	24.596	1.0827e-06	34.784	107.192	255.679	416.891	95.397	353.596	91.366	94.204	101.518	205.051	272.877	99.165	104.327	106.192	111.134	232.723	107.303	-8191	255	
3217.498	1	1	0	0	0.22566	0.25157	0.20108	0.12705	0.26821	0.081758	0.14907	0.058795	0.067669	0.12709	0.15606	0.099653	0.01168	0.13998	0.23782	0.15794	-3.4271	-4.0917	-3.6646	-3.9479	-4.0292	-3.6813	-4.1167	-3.8875	-3.7875	-4.1417	-3.9292	-3.9375	-4.1937	-3.6833	-4.1396	-4.1188	318.769	314.965	194.850	206.021	365.712	86.724	364.495	211.544	188.236	215.421	244.323	272.580	108.608	249.369	302.040	95.158	0.00083846	5.2508e-05	7.0747e-05	583.13	8.5012e-07	9.7762e-07	598.58	201.83	5.167e-07	2.3662e-06	249.46	97.18	75.446	33.366	4.1509e-06	48.434	0.0001055	9.4914e-05	2.8246e-05	513.73	1.136e-06	1.0458e-06	520.63	170.49	1.1415e-06	1.0617e-06	197.01	75.702	56.631	24.748	1.2284e-06	35.108	91.592	193.253	119.846	95.066	189.079	402.830	93.917	101.715	312.623	402.636	99.327	104.242	105.957	111.010	193.184	107.387	-8191	255	
3217.594	1	1	0	0	0.28196	0.11248	0.30684	0.12367	0.15462	0.35921	0.268	0.095486	0.19815	0.22145	0.1338	0.038527	0.27801	0.31145	0.14168	0.029807	-3.4188	-4.1604	-3.7292	-3.9437	-4.1354	-3.6896	-4.1062	-4.2458	-3.6354	-4.2354	-3.7104	-3.6979	-4.1479	-3.6813	-4.1458	-3.9625	191.712	439.248	287.270	344.829	393.069	93.894	120.659	373.918	377.584	153.993	295.567	250.991	260.639	436.310	246.094	181.143	0.00066577	0.00026706	6.8109e-05	582.48	3.6479e-06	1.8135e-06	596.16	202.1	1.2193e-06	2.1845e-06	246.95	97.498	75.252	33.286	1.4553e-06	48.441	0.00010603	9.6606e-05	3.1636e-05	513.46	1.1277e-06	1.0571e-06	524.57	169.92	1.1104e-06	1.0628e-06	198.27	75.407	56.25	24.813	1.3117e-06	34.944	84.101	200.615	100.726	95.069	187.466	147.282	94.187	101.512	342.457	244.433	99.324	104.388	106.319	110.994	160.088	107.439	-8191	255	
3217.692	1	1	0	0	0.2119	0.085222	0.17052	0.19409	0.14816	0.099887	0.15114	0.20953	0.25742	0.078323	0.16953	0.16164	0.16563	0.068093	0.11991	0.23383	-3.3438	-4.2104	-3.7833	-3.8542	-4.1813	-3.65	-4.0563	-4.175	-3.5771	-4.1417	-3.7083	-3.5563	-4.1792	-3.8458	-3.9333	-4.1583	407.452	228.901	161.304	334.580	129.059	307.734	386.194	234.245	212.253	155.092	435.339	367.411	198.326	340.329	114.041	394.330	0.00074297	6.6713e-05	6.2104e-05	587.63	7.7313e-07	4.4063e-06	594.61	202.8	5.5833e-07	2.3011e-06	248.38	98.137	75.311	33.5	2.3156e-07	48.552	0.00010401	0.00010092	3.3898e-05	511.95	1.1239e-06	1.1416e-06	528.97	169.94	1.1147e-06	1.1499e-06	200.36	75.366	56.145	25.138	1.3461e-06	34.957	99.780	251.636	113.462	95.194	303.776	209.669	94.474	101.664	437.599	133.919	99.387	104.210	106.598	111.273	168.048	107.519	-8191	255	
3217.786	1	1	0	0	0.08022	0.15159	0.18714	0.098364	0.074429	0.22208	0.19804	0.20898	0.25467	0.15751	0.13079	0.19165	0.10147	0.13493	0.2998	0.23294	-3.0917	-3.9771	-3.8312	-3.6979	-4.1438	-3.6562	-3.9688	-4.1167	-3.8104	-4.0771	-3.9042	-3.7333	-4.1167	-3.6729	-3.9458	-4.1125	313.406	234.300	365.636	324.830	110.527	250.520	315.862	93.937	243.497	193.358	84.673	155.568	361.908	337.502	293.374	198.855	0.00092296	0.00026986	6.1584e-05	583.05	2.7627e-06	1.2899e-06	602.55	203.12	3.8438e-07	3.0833e-06	250.63	98.509	75.439	33.489	2.7792e-06	48.594	0.0001011	0.00010869	3.4012e-05	509.88	1.0925e-06	1.2298e-06	532.13	169.7	1.1009e-06	1.2733e-06	201	75.363	56.114	25.329	1.297e-06	34.827	91.379	140.617	295.771	95.403	205.559	186.332	94.106	101.546	340.439	186.451	99.461	104.329	106.333	111.246	93.042	107.531	-8191	255	
3217.883	1	1	0	0	0.14196	0.11027	0.18841	0.37869	0.077964	0.24436	0.20709	0.16283	0.26902	0.12783	0.26303	0.14927	0.069566	0.087975	0.27606	0.15366	-3.3125	-4.05	-4.0021	-3.7667	-4.1625	-3.8375	-3.9125	-4.2667	-3.7604	-4.0042	-4.0375	-3.8333	-4.05	-3.8792	-3.8146	-4.2375	153.184	420.457	389.105	378.051	431.304	159.875	438.151	98.463	403.392	100.406	369.561	348.260	228.609	175.229	141.288	414.398	0.00081329	0.00031095	7.0711e-05	578.55	2.3765e-06	2.5969e-06	592.31	200.39	2.594e-06	3.9981e-06	248.06	97.154	75.077	33.304	2.2994e-06	48.49	0.00010113	0.00011799	3.2339e-05	504.54	1.0855e-06	1.3063e-06	521.89	167.56	1.1175e-06	1.351e-06	197.84	74.49	56.297	25.466	1.2907e-06	34.584	440.376	109.185	268.893	95.326	166.167	164.179	94.067	101.173	203.534	225.112	99.499	104.338	106.094	110.740	416.873	107.739	-8191	255	
3217.979	1	1	0	0	0.1002	0.052951	0.29529	0.10716	0.19856	0.069108	0.15154	0.039188	0.10242	0.13638	0.11735	0.13767	0.26171	0.03044	0.10441	0.24648	-3.2292	-3.9521	-4.0542	-3.5354	-3.9562	-3.8875	-3.9021	-4.1813	-3.7729	-4.0687	-3.9646	-3.6312	-4.2312	-3.8604	-3.6729	-4.0792	281.463	313.590	358.461	279.938	390.490	318.259	439.037	297.410	330.271	260.116	348.473	365.954	159.967	386.348	291.229	84.383	0.00096139	3.0859e-05	2.7365e-05	576.29	1.7604e-06	1.2233e-06	586.11	199.79	3.6005e-06	2.4145e-06	246.57	96.666	74.845	33.176	3.0883e-07	48.1	0.00011257	0.00013066	3.2597e-05	503.4	1.236e-06	1.4402e-06	518.91	167.21	1.2553e-06	1.4122e-06	196.5	74.29	56.944	25.457	1.2488e-06	34.484	89.559	186.498	174.944	95.426	144.439	195.590	94.239	101.257	178.375	398.939	99.256	104.063	105.959	110.796	292.691	107.328	-8191	255	
3218.099	1	1	0	0	0.1976	0.29317	0.14776	0.28611	0.24288	0.095438	0.27745	0.22508	0.10197	0.069491	0.24333	0.13639	0.098335	0.39136	0.11829	0.25847	-3.2875	-3.7083	-4.0292	-3.7396	-4.025	-3.925	-3.5771	-4.1021	-3.6896	-3.85	-4.0583	-3.6854	-4.0729	-3.8979	-3.6167	-4.1458	167.246	280.778	411.262	386.766	401.943	426.665	334.074	373.859	277.157	143.654	374.369	407.628	429.731	441.648	221.758	187.144	0.0010664	7.5783e-05	4.7951e-05	579.17	2.1729e-06	2.4018e-06	592.73	199.49	3.4284e-06	2.2187e-06	245.46	97.216	74.992	33.259	1.1261e-06	47.963	0.00012176	0.00013007	3.1933e-05	504.03	1.3655e-06	1.4248e-06	520.96	167.65	1.3971e-06	1.4045e-06	196.57	74.608	58.091	25.379	1.2343e-06	34.618	92.813	196.586	136.797	95.047	146.430	273.186	93.791	101.572	171.240	285.231	99.389	104.133	106.256	111.078	292.211	107.320	-8191	255	
3218.196	1	1	0	0	0.1723	0.2514	0.097067	0.11533	0.070723	0.16204	0.19552	0.39829	0.1671	0.093557	0.047589	0.16906	0.14917	0.21461	0.36743	0.11573	-3.4021	-3.7	-3.9813	-3.4437	-3.9125	-3.9646	-3.5542	-4.2625	-3.8729	-3.8771	-4.0271	-3.6896	-3.9271	-4.0625	-3.6229	-4.1854	309.798	330.993	395.444	120.065	357.209	268.145	354.299	399.429	108.629	260.051	132.296	223.884	409.088	181.840	207.933	125.504	0.00094142	0.00019212	5.2197e-05	582.7	6.0116e-06	7.8424e-07	594.84	201.26	2.4561e-06	2.2933e-06	247.8	97.829	74.714	33.286	7.027e-07	48.905	0.00013035	0.00012347	3.0719e-05	506.69	1.4403e-06	1.3404e-06	521.01	168.96	1.477e-06	1.335e-06	197.51	75.582	58.723	25.369	1.2075e-06	35.265	441.693	279.618	196.296	95.262	186.607	288.404	94.225	101.216	221.344	329.269	99.227	104.254	106.205	110.782	144.312	107.416	-8191	255	
3218.292	1	1	0	0	0.17842	0.072801	0.15308	0.066954	0.065894	0.28717	0.091575	0.11875	0.15098	0.072921	0.14688	0.24165	0.15023	0.19002	0.27413	0.50246	-3.3979	-3.625	-4.0792	-3.7042	-3.8937	-3.9688	-3.8187	-4.2562	-3.9333	-3.7396	-4.275	-3.6854	-3.9833	-4.1104	-3.55	-4.0542	197.332	87.563	309.113	369.076	86.410	213.292	421.003	290.631	330.458	286.496	161.831	366.782	141.716	125.040	124.859	389.733	0.00097059	0.00010696	4.7287e-05	582.8	1.8568e-06	1.1127e-06	594.69	203.05	2.3892e-06	1.6614e-06	251.58	99.166	75.702	33.637	5.9195e-07	49.255	0.00013519	0.00011872	3.0282e-05	514.18	1.4436e-06	1.2691e-06	521.29	171.23	1.4153e-06	1.2326e-06	197.51	76.635	58.361	25.286	1.1331e-06	35.646	104.029	331.525	349.112	95.385	265.765	284.249	94.082	101.610	382.584	377.442	99.335	104.228	106.281	110.844	114.541	107.589	-8191	255	
3218.388	1	1	0	0	0.10361	0.17273	0.2084	0.25961	0.21819	0.27231	0.19393	0.019374	0.11062	0.058672	0.082358	0.18204	0.074365	0.042729	0.023435	0.10268	-3.4354	-3.6167	-4.2042	-3.6854	-3.8604	-4.0813	-3.6583	-4.0333	-3.95	-3.4896	-4.0771	-3.7667	-3.9688	-4.1458	-3.6417	-4.0979	158.828	120.587	95.361	102.568	170.121	209.082	355.499	340.464	233.608	301.295	89.709	396.851	208.226	131.738	415.842	427.341	0.00076907	6.9902e-05	5.5412e-05	580.86	1.1177e-06	8.928e-07	595.62	201.95	2.0494e-06	1.2089e-06	247.79	97.796	75.053	33.29	3.8204e-06	48.596	0.00012601	0.00010997	2.8748e-05	515.29	1.3518e-06	1.2129e-06	517.52	171.16	1.3392e-06	1.191e-06	194.99	76.275	57.234	24.933	1.1605e-06	35.425	441.749	220.701	151.029	95.348	380.340	328.261	93.935	101.817	280.436	156.917	99.802	104.349	106.111	110.855	205.759	107.272	-8191	255	
3218.484	1	1	0	0	0.21963	0.19878	0.22196	0.2157	0.18168	0.07746	0.18216	0.11581	0.2334	0.041766	0.23658	0.037684	0.16128	0.22347	0.037576	0.056925	-3.4458	-3.6312	-4.1625	-3.9188	-3.9062	-4.1458	-3.7854	-4.0354	-3.9854	-3.6458	-4.2792	-3.8854	-3.7708	-4.1667	-3.5229	-3.9646	431.029	438.590	145.448	208.686	404.567	415.882	410.592	416.642	314.457	89.613	89.722	401.045	162.527	419.036	426.069	151.036	0.00063077	8.8328e-05	7.0526e-05	577.28	1.9168e-07	1.4444e-06	589.56	199.89	2.6195e-06	1.3054e-06	244.59	96.048	74.3	32.865	2.2615e-06	48.307	0.00011867	0.00010665	2.9847e-05	516.28	1.2757e-06	1.1707e-06	517.33	170.41	1.2647e-06	1.151e-06	194.81	75.691	56.369	24.737	1.238e-06	35.205	436.624	238.807	128.945	95.097	426.800	323.828	93.799	101.235	283.803	395.016	99.250	104.303	106.591	111.080	192.049	107.615	-8191	255	
3218.580	1	1	0	0	0.2799	0.0764	0.19691	0.072831	0.17391	0.028553	0.094315	0.076732	0.19396	0.1707	0.2377	0.48916	0.092362	0.23749	0.14083	0.14246	-3.6875	-3.7562	-4.1521	-3.9396	-3.6333	-4.2333	-3.6354	-3.85	-3.9458	-3.3833	-4.0708	-3.9813	-3.8	-4.1729	-3.6437	-3.7542	420.118	316.581	219.294	245.783	211.275	217.462	393.821	441.927	403.887	275.418	438.481	430.028	121.654	352.811	273.852	395.382	0.00074566	3.5291e-05	8.9858e-05	574.33	6.6578e-07	2.2691e-06	588.53	199.94	2.1288e-06	1.0075e-06	246.16	96.233	74.46	33.048	3.5884e-06	48.126	0.0001129	0.00010246	3.2057e-05	512.93	1.2164e-06	1.1252e-06	521.02	169.99	1.2211e-06	1.1238e-06	197.48	75.304	56.206	24.673	1.3317e-06	35.012	83.559	333.631	125.676	94.810	280.030	192.831	93.846	101.289	340.715	163.935	99.461	104.335	106.326	111.169	215.574	107.361	-8191	255	
3218.699	1	1	0	0	0.29073	0.23012	0.25689	0.1153	0.15123	0.089649	0.19613	0.28518	0.027763	0.061546	0.24417	0.097666	0.1276	0.10673	0.12647	0.25982	-3.6167	-3.6063	-3.8563	-3.8521	-3.4875	-4.1104	-3.975	-3.8521	-4.0667	-3.4396	-4.0437	-4.0375	-3.7208	-4.1521	-3.7687	-3.7792	286.432	348.882	106.480	173.740	300.568	432.925	431.701	323.108	332.154	111.281	378.723	328.163	439.721	288.345	325.272	341.712	0.00069797	3.5444e-05	4.2199e-05	576.12	2.8108e-06	2.3821e-06	589.29	199.37	1.2473e-06	2.9921e-06	245.94	96.789	74.175	33.27	1.1337e-06	48.491	0.00010929	0.00010255	3.4298e-05	510.37	1.1647e-06	1.1359e-06	524.3	168.78	1.162e-06	1.1364e-06	199.24	74.982	55.87	24.861	1.3827e-06	34.971	84.784	173.969	404.643	94.969	304.115	216.322	93.693	101.416	317.114	207.758	99.336	104.068	106.290	110.844	160.346	107.575	-8191	255	
3218.795	1	1	0	0	0.027177	0.23863	0.25114	0.22425	0.20655	0.051803	0.039616	0.10201	0.11671	0.031429	0.031611	0.13574	0.10714	0.17997	0.10868	0.050862	-3.7542	-3.675	-3.8146	-3.9542	-3.6625	-4.2146	-3.8771	-3.7104	-4.1979	-3.6896	-4.0771	-4.0479	-3.8417	-4.0208	-3.9958	-3.7875	354.219	101.075	116.383	350.649	413.894	322.987	321.955	228.041	244.687	236.409	399.303	436.060	88.330	425.367	153.941	393.854	0.00075129	0.00022161	1.2513e-05	576.13	1.2957e-06	3.6351e-06	592.38	199.61	2.4119e-06	4.6074e-06	246.37	97.32	75.105	33.353	9.8709e-07	48.535	0.00010553	0.00010826	3.5145e-05	507.3	1.1264e-06	1.1981e-06	526.47	168.07	1.1133e-06	1.2136e-06	199.6	75.01	55.826	25.139	1.3622e-06	34.898	87.030	130.506	271.188	95.298	178.551	184.758	93.917	101.487	443.265	186.310	99.266	104.309	106.392	111.129	425.915	107.573	-8191	255	
3218.891	1	1	0	0	0.15819	0.11439	0.1542	0.15036	0.20612	0.19436	0.1626	0.19626	0.19243	0.10167	0.14536	0.078472	0.26803	0.13303	0.26629	0.1425	-3.8479	-3.7708	-3.9104	-4.0208	-3.4771	-4.0208	-3.8271	-3.5979	-4.15	-3.7917	-3.8375	-4.0437	-3.6458	-4.0833	-3.9729	-3.7583	396.638	208.233	230.932	104.055	368.063	275.319	302.240	216.762	157.067	258.592	156.261	110.802	91.452	419.600	115.666	345.175	0.0008827	0.00026379	1.4061e-05	576.97	2.0596e-06	3.0283e-06	589.5	198.93	1.9519e-06	3.039e-06	244.21	96.113	73.979	32.994	1.1133e-06	48.125	0.00010396	0.00011834	3.4714e-05	506.4	1.1314e-06	1.3351e-06	523.37	166.73	1.1382e-06	1.3494e-06	197.45	74.098	55.379	25.159	1.2917e-06	34.438	439.404	108.430	325.864	95.237	179.939	213.505	93.909	101.467	267.533	165.513	99.675	104.167	106.621	110.800	401.453	107.387	-8191	255	
3218.987	1	1	0	0	0.22453	0.14574	0.032342	0.10975	0.15742	0.194	0.18388	0.25313	0.12623	0.082272	0.033834	0.22635	0.17368	0.077548	0.21053	0.33866	-3.8521	-3.7333	-3.9188	-4.2396	-3.6229	-4	-4.1438	-3.7583	-3.9229	-3.95	-3.8771	-4.2875	-3.6917	-3.9458	-4.0292	-3.5958	428.294	143.389	387.495	133.342	359.658	138.425	136.208	319.185	110.883	375.989	236.499	403.734	244.120	230.620	388.802	344.370	0.00092459	0.00037424	2.5148e-05	574.82	1.2029e-06	2.3684e-06	588.6	198.19	1.98e-06	1.1527e-06	243.47	95.943	74.118	32.788	2.108e-06	47.863	0.00010546	0.00012477	3.2267e-05	499.63	1.149e-06	1.3813e-06	517.35	165.41	1.1903e-06	1.4009e-06	194.99	73.509	55.953	25.16	1.2523e-06	34.198	437.642	169.376	269.029	95.283	232.732	139.616	93.922	101.428	224.580	178.775	99.221	104.312	106.301	111.253	361.067	107.500	-8191	255	
3219.059	1	1	0	0	0.11731	0.18116	0.23827	0.13911	0.03172	0.059146	0.040827	0.09813	0.15845	0.071307	0.13293	0.081884	0.10212	0.21265	0.05041	0.040937	-3.7521	-3.8229	-3.7396	-4.1417	-3.8083	-3.9146	-4.2583	-3.6854	-4.125	-3.8521	-3.725	-4.2063	-3.8438	-3.8312	-4.0542	-3.8229	277.892	288.735	318.413	343.753	219.674	86.141	241.014	372.924	199.842	356.058	405.811	436.568	188.122	213.742	329.567	200.363	0.001048	0.00019851	1.2263e-05	572.01	5.1758e-06	7.1191e-07	586.61	197.78	2.1108e-06	9.5221e-07	244.17	95.987	74.298	32.895	1.7425e-06	47.655	0.00011522	0.00012887	3.1538e-05	498.21	1.2632e-06	1.3964e-06	514.56	165.47	1.2994e-06	1.3965e-06	194.9	73.58	57.113	25.203	1.2493e-06	34.34	439.475	162.246	371.149	95.039	153.984	214.493	93.949	101.369	193.169	233.432	99.475	104.209	106.145	111.088	286.574	107.225	-8191	255	
3219.180	1	1	0	0	0.11767	0.12329	0.089312	0.21928	0.084276	0.15191	0.14289	0.11104	0.12526	0.136	0.24162	0.21004	0.099875	0.26333	0.023619	0.1195	-3.6375	-3.9479	-3.7479	-4.1521	-3.8021	-3.7875	-3.9458	-3.7375	-3.9875	-4.0792	-3.7146	-4.1417	-3.8083	-3.825	-4.125	-3.8417	179.955	105.582	347.506	343.563	382.309	363.616	300.064	333.863	419.410	345.721	407.396	370.191	200.501	175.636	277.510	288.067	0.001225	0.00019429	5.2492e-05	571.23	1.7931e-06	7.5004e-07	583.62	199.03	2.5427e-06	2.5628e-06	245.17	96.286	73.924	32.792	9.2295e-07	48.303	0.00012876	0.00012799	3.16e-05	501.16	1.4206e-06	1.3901e-06	516.13	166.57	1.4364e-06	1.3707e-06	195.27	74.362	57.83	25.141	1.2134e-06	34.808	440.620	277.435	127.856	95.549	107.036	190.117	94.129	101.411	182.094	377.314	99.320	104.418	106.564	110.825	245.332	107.461	-8191	255	
3219.276	1	1	0	0	0.28861	0.17527	0.048071	0.095474	0.21353	0.33829	0.12184	0.15355	0.15434	0.041783	0.30945	0.19973	0.30567	0.12411	0.1592	0.20232	-3.6917	-3.975	-3.7146	-4.1958	-3.9188	-3.7646	-4.2438	-3.7542	-3.9646	-4.0938	-3.6833	-4.1667	-3.8271	-3.5479	-4.2562	-3.85	233.429	168.758	368.547	366.806	424.968	408.736	392.795	307.628	409.190	253.809	386.481	119.662	94.588	395.482	414.485	304.424	0.00061108	0.00029567	1.9654e-05	578.07	2.2856e-06	1.4625e-06	591.6	199.59	2.1216e-06	1.7411e-06	250.2	97.524	74.527	33.058	3.0961e-06	48.784	0.00013439	0.00012027	3.0611e-05	506.27	1.4597e-06	1.3063e-06	518.48	168.13	1.4203e-06	1.253e-06	195.78	75.477	57.653	24.992	1.1192e-06	35.199	98.511	353.799	144.610	95.432	101.680	254.911	93.990	101.449	288.855	349.758	99.353	104.335	106.316	111.067	257.949	107.548	-8191	255	
3219.372	1	1	0	0	0.042595	0.18685	0.13737	0.14611	0.17222	0.070623	0.18928	0.14559	0.36128	0.087355	0.15642	0.20481	0.05589	0.098504	0.20855	0.17565	-3.5896	-4.075	-3.6667	-4.0417	-4.0333	-3.6042	-4.1292	-3.75	-3.9375	-4.075	-3.7021	-4.0563	-4.0104	-3.7667	-4.1562	-3.8958	436.994	140.747	98.911	438.516	205.794	204.153	420.411	413.009	337.899	373.130	438.150	399.037	271.612	137.902	143.577	361.996	0.00084268	4.2309e-05	3.302e-05	577.44	3.2532e-07	1.6095e-07	595.18	200.35	1.4235e-06	9.2013e-07	247.44	97.124	74.164	32.935	1.7263e-06	48.395	0.00012384	0.00010754	2.7485e-05	507.2	1.3104e-06	1.1436e-06	514.16	168.37	1.2714e-06	1.1341e-06	193.34	75.236	56.525	24.664	1.0681e-06	34.989	95.499	384.936	236.325	95.164	127.805	327.780	93.928	101.318	324.343	388.705	99.275	104.215	106.311	111.230	261.233	107.245	-8191	255	
3219.491	1	1	0	0	0.26138	0.20398	0.21223	0.39416	0.11488	0.15799	0.14994	0.34936	0.25699	0.13037	0.14975	0.15083	0.17649	0.056039	0.1382	0.080202	-3.4479	-4.0083	-3.4396	-4.0458	-4.0646	-3.6375	-4.2937	-3.9333	-3.7833	-4.0979	-3.6375	-4.0792	-4.0354	-3.5917	-4.1396	-3.9813	208.978	420.023	433.737	400.225	384.106	279.991	328.759	428.687	330.481	321.875	438.311	419.030	313.811	434.183	301.534	137.926	0.00073504	2.7724e-06	8.1111e-05	576.78	1.6734e-06	7.0672e-07	586.33	199.17	2.3947e-06	1.8436e-06	244.75	96.491	73.995	32.794	3.7013e-06	48.072	0.00011382	9.986e-05	2.6817e-05	506.12	1.2009e-06	1.0853e-06	509.32	167.89	1.1836e-06	1.0759e-06	192.14	74.813	55.646	24.417	1.0904e-06	34.776	107.975	409.752	140.170	95.049	390.214	422.237	93.879	101.387	255.119	255.008	99.033	104.302	105.826	110.973	205.101	107.680	-8191	255	
3219.587	1	1	0	0	0.25024	0.17993	0.097685	0.19217	0.11464	0.18874	0.27655	0.24073	0.21342	0.11221	0.1429	0.12416	0.19411	0.18674	0.17193	0.27002	-3.4437	-4.1479	-3.6625	-3.925	-3.9458	-3.5979	-4.1667	-4.0083	-3.6188	-4.3646	-3.7104	-4.0062	-4.1917	-3.6312	-3.9583	-4.0104	236.417	387.105	200.271	324.012	399.775	394.717	344.189	404.435	309.089	361.565	113.690	438.999	401.461	171.366	174.640	390.509	0.00065997	0.00011705	0.00011885	570.08	3.3376e-06	7.1906e-07	588.6	198.43	1.299e-06	1.006e-06	246.12	96.853	74.149	32.681	3.125e-06	48.168	0.00010425	9.4026e-05	2.8046e-05	505.08	1.1129e-06	1.0186e-06	512.36	167.75	1.0997e-06	1.0245e-06	194.37	74.895	55.45	24.366	1.1864e-06	34.842	91.596	295.653	106.930	95.497	311.357	425.765	93.948	101.299	252.609	341.141	99.237	104.230	106.064	111.036	176.035	107.286	-8191	255	
3219.661	1	1	0	0	0.22156	0.13996	0.053722	0.18337	0.16373	0.096215	0.061597	0.21842	0.12456	0.11507	0.1649	0.26334	0.16001	0.14307	0.043735	0.26577	-3.3729	-4.1792	-3.8625	-3.9708	-4.1917	-3.6604	-4.1188	-3.9521	-3.5333	-4.1813	-3.8	-3.9021	-4.0771	-3.8521	-3.8896	-3.9229	280.908	165.445	304.255	353.385	163.939	168.312	432.994	207.908	423.101	350.606	403.175	372.872	412.444	349.974	408.584	379.370	0.00068023	0.0001848	5.5548e-05	574.75	3.1565e-06	2.1909e-06	589.98	199.27	5.7496e-07	3.4012e-06	246.77	96.948	74.157	33.056	1.9395e-06	48.417	0.00010254	9.4241e-05	3.0873e-05	504.66	1.0998e-06	1.0335e-06	518.04	167.68	1.0846e-06	1.0332e-06	197.05	74.698	55.205	24.474	1.2593e-06	34.795	99.298	168.427	109.494	95.223	315.897	142.101	93.817	101.326	139.293	147.311	99.250	104.194	105.890	110.921	240.869	107.441	-8191	255	
3219.779	1	1	0	0	0.17839	0.12725	0.14527	0.15909	0.24844	0.25362	0.23302	0.12603	0.16362	0.10426	0.24477	0.159	0.029354	0.06146	0.31902	0.1754	-3.2375	-4.075	-3.6396	-3.8688	-4.0687	-3.675	-4.0146	-3.9938	-3.5583	-4.1083	-3.9208	-3.6542	-4.15	-3.6479	-3.925	-4.1708	92.752	175.503	203.108	307.815	413.918	365.508	352.035	416.545	178.494	136.530	385.140	121.032	97.838	258.757	403.278	141.278	0.00071416	0.00023835	4.5512e-05	574.53	1.5438e-06	3.065e-06	595.23	199.24	9.2737e-07	5.2868e-06	250.02	98.381	74.856	33.509	8.3101e-07	49.045	9.8659e-05	9.4699e-05	3.1654e-05	502.28	1.035e-06	1.0442e-06	522.95	166.42	1.0087e-06	1.0472e-06	198.68	74.716	54.969	24.749	1.219e-06	34.829	112.432	125.986	100.596	95.349	182.162	186.457	94.051	101.306	301.851	193.147	99.129	104.101	105.953	111.084	342.033	107.407	-8191	255	
3219.876	1	1	0	0	0.06138	0.048463	0.089309	0.36025	0.16292	0.14694	0.13652	0.17993	0.22092	0.12938	0.3772	0.21707	0.14378	0.038852	0.041126	0.22121	-3.2771	-4.0771	-3.6917	-3.6	-4.15	-3.825	-3.9396	-4.0771	-3.4437	-4.05	-3.9917	-3.8354	-4.325	-3.7458	-3.825	-4.3104	431.955	155.651	221.478	112.936	427.438	98.181	350.681	100.155	97.106	286.357	359.346	324.854	429.215	391.528	333.025	366.564	0.00071099	0.00048363	7.3841e-05	577.75	1.547e-06	3.8994e-06	594.72	200.74	2.3534e-07	6.4475e-06	249.32	98.556	74.179	33.301	3.6155e-07	48.531	9.2434e-05	9.9425e-05	3.0809e-05	501.01	9.8539e-07	1.1096e-06	521.91	166.08	9.6415e-07	1.1177e-06	196.87	74.162	54.619	24.818	1.1554e-06	34.406	102.394	118.041	142.197	95.246	382.026	183.766	93.870	101.478	90.806	191.872	99.204	104.351	106.113	110.785	439.030	107.048	-8191	255	
3219.972	1	1	0	0	0.097198	0.17226	0.1563	0.24283	0.18489	0.20666	0.20644	0.12764	0.18801	0.089239	0.14772	0.073666	0.11282	0.18569	0.060112	0.22995	-3.2729	-4.0312	-4.0021	-3.7646	-4.1083	-3.9167	-3.9188	-4.1083	-3.5812	-3.9354	-4.0938	-3.5417	-4.1042	-3.75	-3.725	-4.1896	347.197	198.176	247.742	436.004	231.622	286.179	423.651	251.271	405.365	197.566	392.891	410.818	403.123	427.054	85.334	154.945	0.0008675	0.00022169	9.7394e-06	570.97	3.2545e-06	1.1964e-06	586.76	198.43	2.6604e-06	2.7599e-06	245.24	96.52	73.842	32.774	1.5928e-06	47.864	9.0721e-05	0.00010655	2.9215e-05	493.77	9.9821e-07	1.2058e-06	515.36	164.36	1.0231e-06	1.2467e-06	194.42	73.217	54.861	24.895	1.176e-06	34.019	90.782	194.458	307.814	95.233	222.414	215.395	94.048	101.330	198.554	198.054	99.309	104.175	106.102	110.778	302.384	107.071	-8191	255	
3220.092	1	1	0	0	0.093873	0.057782	0.303	0.15225	0.11597	0.012003	0.20307	0.10592	0.11783	0.042156	0.06928	0.2214	0.11582	0.088804	0.23919	0.15891	-2.9521	-3.8333	-3.9188	-3.6333	-4.1021	-3.9167	-3.7542	-4.3396	-3.6583	-3.9104	-4.0979	-3.6708	-3.9688	-4.1396	-3.7438	-4.2312	209.917	358.846	236.128	343.712	146.945	265.237	392.069	127.391	246.943	114.356	400.268	429.642	93.129	143.754	280.245	368.164	0.0010419	0.00023789	7.4902e-05	571.59	6.2704e-06	6.5574e-07	585.45	198.16	2.861e-06	2.6681e-06	245.07	96.232	74.073	32.73	2.1114e-06	48.019	0.00010147	0.00011719	2.9102e-05	494.96	1.1114e-06	1.2834e-06	511.5	164.06	1.1329e-06	1.2701e-06	192.79	72.89	55.413	24.807	1.1152e-06	33.988	441.813	200.821	225.189	95.386	158.684	342.394	94.040	101.566	218.075	183.203	99.303	104.110	106.033	110.760	206.315	107.227	-8191	255	
3220.188	1	1	0	0	0.26006	0.18555	0.025389	0.32226	0.13386	0.22526	0.050526	0.20675	0.19859	0.11154	0.089402	0.16967	0.033333	0.060534	0.19265	0.20684	-3.2396	-3.7562	-4.0833	-3.7896	-3.9125	-3.8542	-3.7125	-4.1104	-3.6625	-3.7021	-4.1729	-3.5812	-4.0271	-4.0437	-3.7917	-4.1917	230.943	157.509	265.214	416.011	109.109	356.559	267.739	116.421	365.561	348.647	129.545	83.857	302.883	196.770	418.333	294.764	0.00097335	0.00011571	5.3878e-05	570.92	2.8488e-06	1.6719e-06	587.4	198.83	2.901e-06	5.1997e-07	246.18	97.208	74.076	32.844	1.1924e-06	48.573	0.00010869	0.00011429	2.7975e-05	492.86	1.2199e-06	1.2624e-06	512.18	164.61	1.2592e-06	1.2524e-06	194.28	73.594	56.481	24.832	1.1141e-06	34.382	438.831	311.390	351.956	95.416	191.223	403.672	94.033	101.030	176.284	254.086	99.135	104.306	106.002	110.969	407.292	107.615	-8191	255	
3220.260	1	1	0	0	0.28039	0.14886	0.19628	0.18674	0.1381	0.088335	0.18813	0.21289	0.04309	0.10289	0.066522	0.19534	0.090964	0.1164	0.2106	0.15123	-3.3542	-3.9188	-4.1083	-3.5771	-4.0604	-3.9437	-3.7167	-4.1042	-3.7604	-3.8396	-4.2125	-3.6542	-3.9292	-3.8646	-3.4667	-4.0354	183.657	296.120	344.017	95.623	156.508	366.948	282.053	374.345	291.134	113.209	406.894	102.351	277.470	300.446	89.370	403.294	0.00081325	0.00019883	3.8643e-05	574.88	5.6378e-06	1.0986e-06	589.02	198.91	7.8542e-07	3.6494e-07	246.68	97.744	74.581	32.911	1.5485e-06	48.758	0.00011984	0.00011175	2.8204e-05	498.05	1.316e-06	1.2164e-06	514.07	166.2	1.3406e-06	1.212e-06	194.84	74.692	57.217	24.882	1.1093e-06	34.968	95.088	291.025	104.724	95.313	163.045	367.049	94.144	101.459	196.802	259.992	99.460	104.359	106.271	110.716	249.282	107.347	-8191	255	
3220.381	1	1	0	0	0.089588	0.2214	0.22581	0.15198	0.20272	0.12684	0.054517	0.21807	0.11324	0.17859	0.040397	0.09821	0.14096	0.17401	0.037374	0.15657	-3.6729	-3.6271	-4.1042	-3.7771	-4.0208	-4.0813	-3.7021	-4.0146	-4.0396	-3.8729	-4.325	-3.8958	-3.7917	-4.0375	-3.6042	-4.0375	140.900	438.917	269.233	431.246	295.153	278.602	88.512	339.637	218.308	296.859	259.507	200.554	99.455	410.319	157.596	329.508	0.00082079	0.00028326	5.2376e-05	577.96	1.3286e-06	7.5288e-07	592.08	199.53	6.9359e-07	2.8439e-06	248.15	97.895	74.266	33.066	1.2841e-06	48.835	0.0001263	0.0001101	2.8243e-05	506.16	1.3738e-06	1.21e-06	517.99	168.74	1.391e-06	1.2202e-06	195.86	75.921	57.336	24.916	1.139e-06	35.313	440.021	169.811	206.218	95.635	167.502	337.009	94.031	101.534	139.735	320.793	99.484	104.192	106.367	110.821	89.956	107.215	-8191	255	
3220.477	1	1	0	0	0.21849	0.28307	0.067797	0.026321	0.08404	0.11733	0.2075	0.067082	0.074761	0.10183	0.21391	0.078942	0.19083	0.13499	0.062708	0.0818	-3.5083	-3.45	-4.0771	-3.775	-3.8229	-4.0417	-3.8	-3.875	-3.7521	-3.5687	-4.1375	-3.7958	-3.8688	-4.1604	-3.7479	-4.0479	238.870	377.850	342.537	111.549	218.775	218.544	370.858	403.008	218.686	100.194	107.254	282.809	391.033	90.055	93.626	263.930	0.00067783	6.424e-05	5.8045e-05	571.03	3.3365e-06	1.1619e-06	590.34	198.61	1.6369e-06	1.7416e-06	244.77	96.31	73.456	32.752	2.0524e-06	47.992	0.00012571	0.00010937	2.8721e-05	507.8	1.3337e-06	1.1972e-06	513.74	168.87	1.344e-06	1.1941e-06	194.05	75.707	56.479	24.608	1.1823e-06	35.157	92.423	85.840	441.659	95.013	294.461	166.570	94.038	101.464	339.868	96.420	99.333	103.870	106.280	111.044	199.615	107.324	-8191	255	
3220.571	1	1	0	0	0.15157	0.085172	0.12633	0.20248	0.090393	0.0065821	0.25258	0.39898	0.074495	0.16475	0.10799	0.06869	0.13326	0.24217	0.27477	0.058294	-3.6917	-3.6	-4.2042	-3.9208	-3.7708	-4.0833	-3.7042	-3.95	-3.9646	-3.5062	-4.0125	-3.8292	-3.6937	-4.1542	-3.6583	-3.9	365.631	305.188	193.812	373.107	178.387	177.819	367.926	416.310	399.085	136.420	291.563	381.315	146.363	347.246	439.288	356.846	0.00072901	2.0062e-05	3.7739e-05	569.99	1.7228e-06	4.3404e-07	584.39	197.97	1.7189e-06	2.3013e-07	245.19	95.838	73.213	32.642	2.394e-06	48.234	0.00011916	0.00010651	2.9957e-05	508.69	1.2507e-06	1.1372e-06	512.12	168.64	1.2337e-06	1.1199e-06	194.19	75.151	55.681	24.381	1.2213e-06	35.05	86.737	105.146	120.239	95.436	347.953	145.739	93.861	101.435	317.065	198.124	99.280	104.033	106.004	111.038	208.908	107.335	-8191	255	
3220.667	1	1	0	0	0.15273	0.16678	0.15855	0.38447	0.12255	0.17385	0.070055	0.067582	0.17514	0.20254	0.22618	0.085056	0.16922	0.16146	0.21144	0.14247	-3.7542	-3.6896	-3.9896	-3.8875	-3.5792	-4.1	-3.7438	-3.7521	-4.0042	-3.7146	-4.0167	-4.0396	-3.7208	-4.1687	-3.6688	-3.9771	233.358	273.783	266.352	119.158	418.574	236.505	239.805	156.605	156.686	366.454	351.839	85.746	319.607	85.502	331.340	137.438	0.00070553	0.00010837	9.634e-05	570.93	4.3851e-07	2.2621e-06	584.45	197.03	5.9644e-07	1.5368e-06	245.01	96.818	73.911	32.754	1.606e-06	48.287	0.00010981	9.8431e-05	3.0872e-05	505.06	1.1386e-06	1.0528e-06	514.73	167.03	1.1256e-06	1.0342e-06	195.63	74.659	54.938	24.268	1.233e-06	34.733	96.062	305.158	138.103	95.358	397.365	207.083	94.094	101.576	229.113	208.222	99.469	104.017	105.944	110.830	166.912	107.368	-8191	255	
3220.764	1	1	0	0	0.14982	0.23712	0.18446	0.12204	0.0487	0.22796	0.31102	0.011994	0.1433	0.17953	0.087801	0.20265	0.12663	0.296	0.078453	0.097667	-3.7833	-3.6167	-4.0875	-4.05	-3.6188	-4.1333	-3.9083	-3.8354	-4.0875	-3.5917	-4.0583	-4.1458	-3.6271	-4.2	-3.8667	-3.7021	215.191	276.688	331.425	248.280	120.102	316.536	387.738	131.937	314.371	153.026	418.098	246.411	91.022	398.292	189.991	341.055	0.00066207	0.00015853	3.7005e-05	573.86	1.9249e-06	4.8482e-07	593.78	199.71	1.0741e-06	4.7332e-06	248.5	97.298	74.038	33.226	2.3399e-06	48.84	9.8862e-05	9.2601e-05	3.0691e-05	500.98	1.0393e-06	1.0102e-06	520.56	166.45	1.0283e-06	1.0153e-06	197.51	74.35	54.785	24.533	1.2157e-06	34.774	439.748	236.787	157.461	95.075	227.183	223.878	94.166	101.540	198.838	192.755	99.586	104.379	106.168	110.948	178.330	107.381	-8191	255	
3220.884	1	1	0	0	0.24164	0.21881	0.3072	0.076904	0.058723	0.14207	0.11942	0.19461	0.081597	0.0049946	0.072489	0.35795	0.10723	0.075723	0.21236	0.13426	-3.8125	-3.5646	-4.0208	-4.0354	-3.4958	-4.1	-3.9167	-3.6708	-4.2875	-3.7687	-3.925	-3.9042	-3.625	-4.1687	-4.2042	-3.7771	413.562	438.201	371.747	339.361	441.952	363.280	122.544	352.980	408.443	140.383	401.808	348.441	160.311	294.645	274.730	206.902	0.00071142	0.00024605	3.8374e-05	577.32	7.5577e-07	1.9827e-06	599.89	200.68	4.1614e-06	2.7778e-06	252.59	98.329	74.057	33.278	1.8759e-06	49.163	9.2039e-05	9.4667e-05	3.031e-05	499.81	9.6888e-07	1.038e-06	524.17	166.24	9.5461e-07	1.0629e-06	198.32	74.381	54.541	24.726	1.1658e-06	34.715	83.455	152.400	178.953	95.280	331.335	171.605	94.017	101.344	189.294	167.191	99.087	104.469	106.278	110.906	153.005	107.413	-8191	255	
3220.956	1	1	0	0	0.10263	0.10762	0.085842	0.25502	0.079906	0.090802	0.13388	0.029017	0.083212	0.18364	0.11987	0.27928	0.25184	0.13995	0.18921	0.11812	-3.7083	-3.6354	-3.9188	-3.9771	-3.5354	-4.0104	-3.8812	-3.6104	-4.0125	-3.9188	-3.7875	-4.2354	-3.7104	-4.025	-4.0188	-3.6896	286.334	84.789	317.438	372.132	169.398	380.740	125.225	112.606	137.905	251.875	288.933	332.328	306.594	428.723	266.618	399.086	0.00079831	0.00027029	3.0958e-05	575.48	8.5799e-07	1.4648e-06	592.28	198.89	8.0597e-07	1.449e-06	247.73	96.757	74.364	32.97	6.1567e-07	48.363	8.7999e-05	0.00010007	2.8796e-05	494.13	9.4547e-07	1.1126e-06	516.16	164.16	9.5111e-07	1.1365e-06	194.74	73.27	54.212	24.678	1.0868e-06	34.144	95.033	165.925	128.357	95.363	347.666	171.079	93.885	101.285	436.297	194.099	99.308	104.134	106.473	110.969	160.197	107.111	-8191	255	
3221.052	1	1	0	0	0.12669	0.1057	0.16519	0.31287	0.21633	0.16334	0.13644	0.13337	0.15491	0.19466	0.034174	0.091939	0.1683	0.19583	0.13918	0.16816	-3.775	-3.7667	-3.7354	-4.25	-3.65	-3.8563	-4.0021	-3.7667	-4.1188	-3.8583	-3.8042	-4.3	-3.7479	-4.1896	-4.1042	-3.6208	110.671	354.281	154.737	371.385	362.017	151.120	280.965	282.638	230.568	334.435	191.783	414.158	413.610	433.867	117.222	335.911	0.00097982	0.00022086	9.3105e-05	574.8	3.2972e-06	1.275e-06	588.19	197.52	2.0789e-06	1.7407e-06	245.67	96.745	74.036	32.735	2.7816e-06	48.134	8.9112e-05	0.00010573	2.7292e-05	490.96	9.6831e-07	1.1669e-06	510.77	162.45	9.994e-07	1.179e-06	191.84	72.615	54.53	24.617	1.0454e-06	33.856	84.804	169.419	278.810	95.063	150.661	147.649	93.952	101.315	150.184	398.845	99.346	103.972	106.276	111.043	277.876	107.353	-8191	255	
3221.173	1	1	0	0	0.2363	0.22448	0.14727	0.074877	0.18857	0.12689	0.080472	0.20462	0.084297	0.14987	0.050909	0.10587	0.26818	0.035438	0.22345	0.11863	-3.6979	-3.8896	-3.8021	-4.1937	-3.7375	-4.0271	-4.1021	-3.5438	-4.1021	-3.9521	-3.5938	-4.1208	-3.675	-3.9458	-4.0583	-3.7354	191.287	240.700	128.908	266.624	370.067	339.512	365.247	356.093	107.106	434.828	436.222	397.616	351.089	385.233	274.062	399.281	0.0010028	0.00018713	3.387e-05	572.25	2.1761e-06	8.5927e-08	585.7	197.03	2.416e-06	1.0786e-06	246.68	96.375	73.491	32.714	1.9892e-06	48.236	9.6549e-05	0.00010749	2.6364e-05	489.42	1.0642e-06	1.1675e-06	508.01	162.45	1.0976e-06	1.1487e-06	191.63	72.387	55.022	24.575	1.0131e-06	33.88	443.273	158.585	292.450	95.088	175.071	144.987	94.104	101.292	214.435	125.517	99.310	104.089	106.173	111.039	182.137	107.242	-8191	255	
3221.269	1	1	0	0	0.12144	0.061052	0.095876	0.023866	0.042459	0.17519	0.040959	0.1999	0.12973	0.12554	0.25132	0.16995	0.12451	0.12896	0.11877	0.041103	-3.7354	-3.9604	-3.5521	-4.3313	-3.8896	-3.85	-4.1	-3.7604	-3.9896	-4.125	-3.5875	-4.0896	-3.8958	-3.8208	-4.1417	-3.7729	212.159	425.008	143.666	354.911	198.771	318.143	330.192	111.782	389.884	282.836	426.023	422.601	144.490	108.328	348.211	306.255	0.0010313	0.00018709	7.379e-05	572.84	3.2195e-06	8.804e-07	592.93	198.38	4.1814e-06	1.0415e-06	247.47	97.945	74.23	33.032	2.8175e-07	48.702	0.00010493	0.00010209	2.5024e-05	489.57	1.1283e-06	1.097e-06	508.75	163.1	1.1441e-06	1.0788e-06	191.94	73.22	55.764	24.572	9.6933e-07	34.327	440.952	180.465	83.919	95.108	200.989	353.723	94.115	101.393	191.797	108.329	99.005	103.754	106.262	110.878	248.367	107.181	-8191	255	
3221.365	1	1	0	0	0.057558	0.23742	0.048823	0.088635	0.23952	0.045188	0.18835	0.20206	0.12436	0.2181	0.046289	0.17408	0.31909	0.077155	0.36726	0.1173	-3.5021	-4.0292	-3.7229	-4.0542	-3.6979	-3.8042	-4.225	-3.7188	-4.1271	-4.1042	-3.8	-4.0729	-3.9375	-3.975	-4.25	-3.6875	298.578	415.802	331.255	377.986	301.842	229.353	231.317	238.275	257.652	88.519	111.894	384.153	427.714	287.680	251.205	328.528	0.00081188	0.00010092	5.0074e-05	574.93	1.6607e-06	1.0102e-06	595.53	200.59	1.0163e-06	1.1391e-06	250.43	98.432	74.497	33.429	2.266e-06	49.254	0.00010843	9.5392e-05	2.4094e-05	494.26	1.1534e-06	1.0269e-06	511.67	164.96	1.1525e-06	1.0241e-06	193.03	74.509	56.215	24.677	9.6078e-07	34.995	91.804	282.585	158.816	95.142	141.201	297.241	94.037	101.649	218.672	195.148	99.214	104.108	105.914	111.164	208.944	107.299	-8191	255	
3221.461	1	1	0	0	0.20576	0.13388	0.11785	0.10444	0.20982	0.15082	0.13949	0.21393	0.1004	0.11211	0.069113	0.072916	0.025412	0.15784	0.13636	0.23122	-3.6063	-4.0125	-3.5896	-4.1646	-3.7562	-3.8042	-4.2771	-3.7083	-3.9	-4.1125	-3.8	-4.1208	-3.9521	-3.7417	-4.1312	-3.9188	380.124	355.411	124.805	383.959	410.103	223.029	141.092	321.204	172.349	343.378	308.864	405.760	404.038	155.247	308.233	424.094	0.00069342	0.00016217	1.0494e-05	577.52	5.184e-07	7.6988e-07	591.24	197.88	2.5521e-06	1.2458e-06	246.99	97.256	73.145	32.947	2.3302e-06	48.472	0.00010816	9.3487e-05	2.4207e-05	498.18	1.1523e-06	1.0147e-06	508.12	165.41	1.1404e-06	1.0085e-06	190.56	74.258	55.287	24.294	9.6238e-07	34.655	95.415	355.902	107.677	95.426	327.054	162.742	93.838	101.478	342.147	195.229	99.119	104.059	106.451	110.880	184.692	107.432	-8191	255	
3221.557	1	1	0	0	0.13514	0.12179	0.13106	0.071582	0.11668	0.14735	0.19349	0.049615	0.18701	0.075546	0.043492	0.086975	0.15732	0.089778	0.12702	0.068972	-3.3729	-4.2292	-3.7542	-3.9813	-3.9125	-3.6083	-4.2833	-3.7708	-3.95	-4.0792	-3.8542	-3.975	-3.9333	-3.6104	-4.15	-4.0104	234.563	205.044	155.792	364.401	309.391	123.265	408.740	396.121	218.770	223.470	348.597	128.575	289.169	353.114	365.387	376.246	0.00074806	9.257e-05	8.4373e-05	571.28	8.5738e-07	1.0079e-06	586.02	197.19	2.379e-06	1.3232e-06	243.55	95.791	73.576	32.607	3.3111e-06	48.144	0.00010301	9.0936e-05	2.4538e-05	498.26	1.106e-06	1.0015e-06	505.84	165.55	1.0921e-06	9.9499e-07	190.15	73.953	54.741	24.045	1.0244e-06	34.562	96.901	190.214	138.630	94.947	187.170	85.925	93.954	101.311	286.392	397.893	99.509	104.059	106.226	110.551	203.595	107.305	-8191	255	
3221.652	1	1	0	0	0.1071	0.2918	0.076113	0.084154	0.20589	0.25266	0.13428	0.27233	0.069636	0.23739	0.13347	0.053447	0.085319	0.18623	0.17394	0.38477	-3.35	-4.0917	-3.6396	-3.8375	-4.1125	-3.5771	-4.1062	-3.8854	-3.5458	-4.2125	-3.7021	-3.8979	-4.0271	-3.725	-4.0188	-3.9917	208.303	140.636	104.470	264.123	409.395	153.597	89.078	435.063	102.164	145.078	334.398	127.852	91.473	126.287	322.370	143.832	0.00069517	8.4203e-05	0.00014313	570.75	1.0159e-06	1.2032e-06	586.21	197.57	1.9325e-06	9.7873e-07	244.91	96.385	73.457	32.553	3.6406e-06	48.151	9.9453e-05	8.9638e-05	2.6919e-05	500.21	1.0711e-06	9.9011e-07	509.56	166.06	1.072e-06	9.8655e-07	193.24	74.147	54.508	24.065	1.1323e-06	34.523	98.045	344.124	130.878	95.125	376.529	121.591	94.139	101.702	134.672	220.994	99.073	104.191	106.214	110.689	192.541	107.098	-8191	255	
3221.772	1	1	0	0	0.10551	0.24297	0.073608	0.14565	0.093375	0.13901	0.22883	0.30557	0.076335	0.036052	0.23612	0.070984	0.11661	0.15692	0.14165	0.20921	-3.5563	-4.1854	-3.6083	-3.8792	-3.9646	-3.5646	-4.0687	-4.0417	-3.5542	-4.1188	-3.8646	-3.8896	-4.0312	-3.6083	-3.9813	-4.0083	342.134	208.497	201.165	95.148	375.970	151.836	96.923	86.549	303.219	112.004	428.083	190.706	147.898	237.565	372.850	366.239	0.00093951	0.00011788	4.3494e-05	572.55	1.6727e-06	1.1124e-06	588.83	197.82	1.8343e-06	2.4363e-06	247.06	97.159	73.784	32.955	2.7002e-06	48.583	9.6797e-05	8.7844e-05	2.9062e-05	499.11	1.0207e-06	9.7321e-07	514.98	165.4	1.0288e-06	9.8697e-07	195.71	74.273	54.502	24.289	1.2216e-06	34.72	442.678	283.325	429.167	95.601	176.073	162.271	93.880	101.535	418.231	179.302	99.499	104.079	105.961	110.908	203.630	107.378	-8191	255	
3221.868	1	1	0	0	0.14764	0.13597	0.219	0.20426	0.17358	0.34449	0.2135	0.088504	0.22993	0.086989	0.16585	0.12397	0.22195	0.1221	0.21116	0.21769	-3.3396	-4.1562	-3.8667	-3.9583	-4.1833	-3.6729	-3.8854	-4	-3.7125	-4.2354	-3.9604	-3.8542	-4.125	-3.7458	-3.8083	-4.0125	195.433	236.513	108.283	106.072	305.970	243.088	317.881	342.376	303.742	281.433	436.010	439.850	430.724	242.644	140.841	420.792	0.000696	0.00023066	9.07e-05	575.07	2.8879e-06	1.3797e-06	595.29	199.47	1.2569e-06	2.2242e-06	249.26	98.352	74.147	33.261	3.2624e-07	49.271	9.664e-05	9.4498e-05	3.1522e-05	499.5	1.031e-06	1.0586e-06	523.49	166.18	1.0303e-06	1.0752e-06	198.36	74.582	54.873	24.675	1.2563e-06	34.896	86.868	117.079	105.911	95.009	178.791	132.713	94.269	101.326	309.096	140.601	99.302	104.046	106.291	111.146	102.279	107.641	-8191	255	
3221.965	1	1	0	0	0.054093	0.043324	0.21227	0.34226	0.15307	0.077033	0.029345	0.29789	0.15949	0.21835	0.26637	0.13419	0.19385	0.23913	0.23555	0.46291	-3.1688	-3.9333	-3.9021	-3.8229	-4.2021	-3.7438	-3.9292	-4.1625	-3.5812	-4.05	-3.9729	-3.6667	-4.0917	-3.7104	-3.8042	-4.0813	168.663	120.977	242.177	389.521	155.267	425.744	275.945	388.922	435.900	353.478	396.574	344.190	127.819	382.939	121.290	437.758	0.00088018	0.00027257	3.322e-05	578.45	2.2134e-06	4.7853e-06	593.19	199.23	9.9627e-07	2.7806e-06	246.59	97.312	74.236	32.996	6.7494e-07	48.404	9.5107e-05	0.00010319	3.1547e-05	501.02	1.009e-06	1.1516e-06	523.92	165.93	1.0112e-06	1.1797e-06	197.09	73.908	54.67	24.838	1.2257e-06	34.47	93.504	153.026	223.851	95.483	265.771	180.862	93.851	101.355	128.892	162.896	99.029	104.251	106.019	110.870	379.704	107.319	-8191	255	
3222.061	1	1	0	0	0.22443	0.20609	0.060351	0.044619	0.051926	0.149	0.1317	0.042608	0.11624	0.047363	0.10155	0.13165	0.08576	0.20601	0.14185	0.088648	-3.2604	-4.1396	-4.1083	-3.5917	-3.9729	-3.8521	-3.9875	-4.1917	-3.5062	-3.8521	-4.0625	-3.7229	-4.0667	-3.7646	-3.7438	-4.1542	420.561	394.874	324.725	122.377	208.110	94.220	93.109	151.262	412.540	248.603	189.639	381.464	101.120	440.162	178.642	372.991	0.00090241	0.00037214	4.7374e-05	572.25	1.8399e-06	4.9832e-06	584.36	198.2	1.7546e-06	3.518e-06	243.82	96.093	73.435	32.761	1.1459e-06	47.785	9.6493e-05	0.00011409	3.0754e-05	495.59	1.054e-06	1.2621e-06	514.93	163.94	1.0574e-06	1.2818e-06	193.51	72.96	54.454	24.792	1.1626e-06	33.944	91.945	143.154	273.092	95.151	169.641	143.518	93.810	101.395	238.737	158.082	99.209	104.040	105.870	110.945	338.659	107.188	-8191	255	
3222.181	1	1	0	0	0.15325	0.28228	0.17567	0.30644	0.14577	0.13436	0.17859	0.083491	0.049219	0.074987	0.10963	0.37258	0.10179	0.16481	0.20073	0.21435	-3.3146	-3.9979	-3.9771	-3.6583	-4.1583	-3.925	-3.7562	-4.0104	-3.7125	-3.9458	-4.1833	-3.7333	-4.0396	-4.0563	-3.8021	-4.1375	207.046	124.845	365.134	423.716	263.676	169.412	351.759	432.878	391.456	256.707	326.884	388.213	306.604	199.295	166.294	403.446	0.00082641	0.0001634	1.3565e-05	566.78	3.5208e-06	2.9946e-06	582.68	196.23	3.949e-06	2.6415e-06	242.7	95.907	73.483	32.525	1.7168e-06	47.989	0.00010154	0.00011761	2.9007e-05	490.38	1.1042e-06	1.2708e-06	510.11	162.73	1.1267e-06	1.2598e-06	191.83	72.498	54.998	24.682	1.0897e-06	33.895	441.497	111.370	240.756	95.113	165.683	406.197	94.016	101.512	210.041	169.212	99.503	103.913	106.125	110.900	311.074	107.393	-8191	255	
3222.253	1	1	0	0	0.23118	0.15192	0.19597	0.084072	0.15396	0.1625	0.21013	0.090931	0.23064	0.15393	0.172	0.21418	0.3099	0.23051	0.15963	0.11103	-3.2979	-3.8312	-3.8688	-3.6542	-4.1583	-3.8667	-3.7062	-4.1667	-3.7479	-3.9167	-4.1396	-3.5625	-3.8771	-3.9854	-3.6875	-4.0958	442.977	296.279	431.638	427.165	83.825	437.858	309.178	185.004	127.114	174.063	408.926	373.605	375.867	377.290	197.267	88.978	0.00099867	0.000142	2.6415e-05	567.58	2.9209e-06	2.6847e-06	584.18	197.49	4.9899e-06	6.9242e-07	245.06	96.572	73.408	32.769	1.3638e-06	48.485	0.0001073	0.00011095	2.7125e-05	489.89	1.1797e-06	1.1995e-06	508.48	162.96	1.1954e-06	1.1866e-06	191.87	72.794	55.719	24.643	1.0536e-06	34.134	89.258	207.200	385.358	95.332	183.311	344.904	94.015	101.417	220.088	185.050	99.445	103.926	105.990	110.854	189.999	107.443	-8191	255	
3222.349	1	1	0	0	0.20372	0.072806	0.093569	0.17072	0.050205	0.19483	0.11622	0.28276	0.16491	0.16099	0.23373	0.085417	0.17033	0.13721	0.21337	0.12054	-3.4542	-3.8521	-3.9813	-3.6229	-3.9542	-4.0021	-3.6667	-4.1229	-3.8333	-3.8	-4.1979	-3.6813	-3.8917	-4.2417	-3.7083	-4.1729	229.111	84.467	397.294	337.641	435.781	369.933	403.103	368.939	269.141	325.714	346.686	164.198	316.245	419.664	439.462	380.702	0.0010445	0.00016379	5.1393e-06	572.95	2.9133e-06	1.9895e-06	587.2	198.01	8.5781e-07	2.374e-06	246.32	96.934	73.76	32.741	1.546e-06	48.833	0.00011314	0.00010535	2.6376e-05	492.7	1.2405e-06	1.1197e-06	508.57	163.72	1.2365e-06	1.1135e-06	191.62	73.468	56.152	24.532	1.0246e-06	34.537	440.665	259.228	145.276	95.364	173.717	326.952	94.048	101.681	250.510	333.028	99.192	104.223	106.052	110.994	162.152	107.400	-8191	255	
3222.445	1	1	0	0	0.021439	0.1107	0.12793	0.027582	0.16062	0.27717	0.11159	0.15112	0.11891	0.063473	0.11892	0.25251	0.077661	0.10228	0.095398	0.14379	-3.4437	-3.7354	-4.0917	-3.775	-3.85	-4.0958	-3.5271	-4.1104	-3.6396	-3.7271	-4.2438	-3.6333	-4.0188	-4.0604	-3.3875	-3.9875	99.674	392.699	332.433	264.627	378.376	307.268	190.607	85.832	104.004	332.893	341.732	372.890	237.471	124.959	261.247	309.673	0.00084974	0.00020518	4.0457e-05	574.37	2.0848e-06	2.1741e-06	591.53	198.77	3.7084e-06	1.1663e-06	246.56	97.581	73.716	32.946	1.0822e-06	48.078	0.00011635	0.00010104	2.5855e-05	498.77	1.2513e-06	1.0895e-06	509.63	165.95	1.2368e-06	1.0776e-06	191.69	74.413	55.881	24.389	1.0009e-06	34.614	97.830	336.322	255.221	95.073	369.060	193.508	94.060	101.529	310.642	360.338	99.166	104.305	106.032	111.128	324.324	107.275	-8191	255	
3222.564	1	1	0	0	0.13224	0.010075	0.25687	0.093507	0.16433	0.082718	0.17858	0.25798	0.18682	0.11917	0.14924	0.24714	0.017007	0.11499	0.034963	0.22506	-3.6021	-3.6167	-4.0917	-3.7021	-3.8083	-4.0312	-3.7979	-4.0396	-3.9021	-3.7146	-4.1229	-3.6562	-3.8167	-4.0625	-3.6437	-3.9625	348.429	134.454	91.588	441.548	288.042	199.518	435.695	335.194	92.795	271.480	337.699	367.846	338.811	169.651	109.815	338.125	0.00057951	3.4483e-05	6.3396e-05	573.35	1.9331e-06	1.454e-06	584.76	195.7	1.9627e-06	2.1603e-06	243.07	96.267	72.835	32.493	2.8439e-06	47.64	0.00011049	9.5902e-05	2.5289e-05	498.82	1.168e-06	1.0368e-06	503.36	164.81	1.1369e-06	1.0251e-06	189.2	73.773	54.881	24.018	1.0133e-06	34.347	437.560	90.543	431.429	95.204	289.653	165.010	93.806	101.461	381.867	321.542	99.708	104.033	106.005	110.851	236.201	107.156	-8191	255	
3222.660	1	1	0	0	0.13815	0.12946	0.15899	0.15371	0.080891	0.15194	0.11035	0.13752	0.21666	0.067256	0.091678	0.13629	0.21639	0.13979	0.18419	0.17738	-3.5771	-3.6312	-4	-3.7583	-3.7771	-4.1083	-3.6604	-3.8563	-3.8688	-3.6437	-4.2188	-3.9396	-3.7	-4.1771	-3.6458	-3.8729	292.331	351.644	319.177	376.518	420.975	152.322	121.092	353.591	319.873	379.851	311.421	337.317	416.001	441.132	215.789	433.561	0.00083748	0.00013634	6.5765e-05	567.01	2.6191e-06	1.3888e-06	581.18	194.83	1.7191e-06	6.811e-07	242.55	95.185	72.939	32.315	2.5256e-06	47.496	0.0001035	9.2124e-05	2.6409e-05	498.16	1.1106e-06	1.0158e-06	503.16	164.82	1.1035e-06	1.0062e-06	190.07	73.614	54.352	23.934	1.1074e-06	34.311	89.885	312.939	126.805	95.090	252.348	357.050	93.868	101.397	426.985	289.183	98.935	103.999	106.102	110.590	129.029	107.296	-8191	255	
3222.757	1	1	0	0	0.15157	0.15265	0.065179	0.019743	0.067845	0.19612	0.12833	0.22135	0.22359	0.14799	0.11156	0.085767	0.029654	0.14608	0.19244	0.14997	-3.7792	-3.6979	-3.9604	-3.7229	-3.7083	-4.0771	-3.5729	-3.7875	-4.0625	-3.7583	-3.9271	-3.9188	-3.7458	-4.3417	-3.7375	-3.8937	146.663	171.461	150.373	263.421	174.467	353.309	440.360	430.607	401.918	118.265	421.865	376.074	381.811	281.054	410.457	104.211	0.0008195	0.00020881	9.7053e-05	565.17	1.5807e-06	9.8167e-07	578.36	195.92	2.8579e-06	2.8853e-06	245	95.173	72.962	32.735	3.2517e-06	47.834	9.8972e-05	8.9516e-05	2.8353e-05	496.57	1.063e-06	9.8736e-07	507.86	164.8	1.0702e-06	1.0027e-06	193.3	73.529	54.463	24.083	1.2176e-06	34.419	86.553	311.828	417.381	95.165	383.882	185.235	93.840	101.385	226.446	184.134	99.213	104.260	105.885	110.832	232.229	106.754	-8191	255	
#DATA ENDS
