BOXY.EXE: ISS Imagent and Oximeter Data Acquisition Program Version 0.80
Ascii Record File

#ACQ INFORMATION
2  Detector Channels 
16  External MUX Channels 
1  Auxiliary Channels 
5000  Waveform (CCF) Frequency (Hz)
1  Waveforms Skipped 
30  Waveforms Averaged 
1  Cycles Averaged 
16  Acquisitions per Waveform 
10.0806  Updata Rate (Hz) 

#FILE INFORMATION
TRUE -- External MUX Channel results are PARSED.
FALSE -- AC DC and Phase are NOT grouped.
TRUE -- Companion Program Settings File CREATED.
FALSE -- AC data not excluded
FALSE -- DC data not excluded
FALSE -- Phase data not excluded
FALSE -- Auxillary Chn. data not excluded
Tab delimiters

#CALIBRATION STATE
TRUE -- Waveform Calibration Values APPLIED.


#AUX CALIBRATION VALUES
Val Type	aux-1	

Term	1.0000e+00	
Factor	0.0000e+00	


#WF CALIBRATION VALUES
A = Detector Channel
Val Type	A-AC1	A-AC2	A-AC3	A-AC4	A-AC5	A-AC6	A-AC7	A-AC8	A-AC9	A-AC10	A-AC11	A-AC12	A-AC13	A-AC14	A-AC15	A-AC16	A-DC1	A-DC2	A-DC3	A-DC4	A-DC5	A-DC6	A-DC7	A-DC8	A-DC9	A-DC10	A-DC11	A-DC12	A-DC13	A-DC14	A-DC15	A-DC16	A-Ph1	A-Ph2	A-Ph3	A-Ph4	A-Ph5	A-Ph6	A-Ph7	A-Ph8	A-Ph9	A-Ph10	A-Ph11	A-Ph12	A-Ph13	A-Ph14	A-Ph15	A-Ph16	

Term	0.00000e+00	0.00000e+00	0.00000e+00	0.00000e+00	0.00000e+00	0.00000e+00	0.00000e+00	0.00000e+00	0.00000e+00	0.00000e+00	0.00000e+00	0.00000e+00	0.00000e+00	0.00000e+00	0.00000e+00	0.00000e+00	0.00000e+00	0.00000e+00	0.00000e+00	0.00000e+00	0.00000e+00	0.00000e+00	0.00000e+00	0.00000e+00	0.00000e+00	0.00000e+00	0.00000e+00	0.00000e+00	0.00000e+00	0.00000e+00	0.00000e+00	0.00000e+00	0.00000e+00	0.00000e+00	0.00000e+00	0.00000e+00	0.00000e+00	0.00000e+00	0.00000e+00	0.00000e+00	0.00000e+00	0.00000e+00	0.00000e+00	0.00000e+00	0.00000e+00	0.00000e+00	0.00000e+00	0.00000e+00	
Factor	1.00000e+00	1.00000e+00	1.00000e+00	1.00000e+00	1.00000e+00	1.00000e+00	1.00000e+00	1.00000e+00	1.00000e+00	1.00000e+00	1.00000e+00	1.00000e+00	1.00000e+00	1.00000e+00	1.00000e+00	1.00000e+00	1.00000e+00	1.00000e+00	1.00000e+00	1.00000e+00	1.00000e+00	1.00000e+00	1.00000e+00	1.00000e+00	1.00000e+00	1.00000e+00	1.00000e+00	1.00000e+00	1.00000e+00	1.00000e+00	1.00000e+00	1.00000e+00	X	X	X	X	X	X	X	X	X	X	X	X	X	X	X	X	

B = Detector Channel
Val Type	B-AC1	B-AC2	B-AC3	B-AC4	B-AC5	B-AC6	B-AC7	B-AC8	B-AC9	B-AC10	B-AC11	B-AC12	B-AC13	B-AC14	B-AC15	B-AC16	B-DC1	B-DC2	B-DC3	B-DC4	B-DC5	B-DC6	B-DC7	B-DC8	B-DC9	B-DC10	B-DC11	B-DC12	B-DC13	B-DC14	B-DC15	B-DC16	B-Ph1	B-Ph2	B-Ph3	B-Ph4	B-Ph5	B-Ph6	B-Ph7	B-Ph8	B-Ph9	B-Ph10	B-Ph11	B-Ph12	B-Ph13	B-Ph14	B-Ph15	B-Ph16	

Term	0.00000e+00	0.00000e+00	0.00000e+00	0.00000e+00	0.00000e+00	0.00000e+00	0.00000e+00	0.00000e+00	0.00000e+00	0.00000e+00	0.00000e+00	0.00000e+00	0.00000e+00	0.00000e+00	0.00000e+00	0.00000e+00	0.00000e+00	0.00000e+00	0.00000e+00	0.00000e+00	0.00000e+00	0.00000e+00	0.00000e+00	0.00000e+00	0.00000e+00	0.00000e+00	0.00000e+00	0.00000e+00	0.00000e+00	0.00000e+00	0.00000e+00	0.00000e+00	-2.12444e+02	-1.41062e+02	-1.70892e+02	-1.83732e+02	-1.12109e+02	-1.05118e+02	-1.55012e+02	-1.62015e+02	-9.09407e+01	-9.85453e+01	-1.70533e+02	-1.70350e+02	-1.84933e+02	-1.77024e+02	-9.26801e+01	-1.49740e+02	
Factor	3.86930e-05	3.87587e-05	1.11420e-05	1.84525e-01	4.76322e-07	4.00243e-07	1.77227e-01	5.92448e-02	4.03067e-07	4.33660e-07	9.47737e-02	3.35258e-02	3.39684e-02	1.07113e-02	3.85728e-07	1.51601e-02	1.41076e-07	1.41361e-07	3.93248e-08	7.31989e-02	1.55024e-09	1.55026e-09	6.73368e-02	2.26348e-02	1.55356e-09	1.55040e-09	3.24457e-02	1.12648e-02	1.11019e-02	3.63347e-03	1.55221e-09	4.80811e-03	X	X	X	X	X	X	X	X	X	X	X	X	X	X	X	X	



#DISTANCE SETTINGS
A = Detector Channel
A-1	A-2	A-3	A-4	A-5	A-6	A-7	A-8	A-9	A-10	A-11	A-12	A-13	A-14	A-15	A-16	

2.5000e+00	3.0000e+00	2.5000e+00	3.0000e+00	2.0000e+00	3.0000e+00	1.5000e+00	3.0000e+00	3.0000e+00	3.0000e+00	3.0000e+00	3.0000e+00	3.0000e+00	3.0000e+00	1.5000e+00	3.0000e+00	

B = Detector Channel
B-1	B-2	B-3	B-4	B-5	B-6	B-7	B-8	B-9	B-10	B-11	B-12	B-13	B-14	B-15	B-16	

1.0000e+01	1.0000e+01	1.0000e+01	1.4400e+00	1.0000e+01	1.0000e+01	1.5100e+00	1.9400e+00	1.0000e+01	1.0000e+01	1.9900e+00	2.4900e+00	2.4100e+00	2.9000e+00	1.0000e+01	2.9800e+00	




#DATA BEGINS
time	group	step	mark	flag	A-AC1	A-AC2	A-AC3	A-AC4	A-AC5	A-AC6	A-AC7	A-AC8	A-AC9	A-AC10	A-AC11	A-AC12	A-AC13	A-AC14	A-AC15	A-AC16	A-DC1	A-DC2	A-DC3	A-DC4	A-DC5	A-DC6	A-DC7	A-DC8	A-DC9	A-DC10	A-DC11	A-DC12	A-DC13	A-DC14	A-DC15	A-DC16	A-Ph1	A-Ph2	A-Ph3	A-Ph4	A-Ph5	A-Ph6	A-Ph7	A-Ph8	A-Ph9	A-Ph10	A-Ph11	A-Ph12	A-Ph13	A-Ph14	A-Ph15	A-Ph16	B-AC1	B-AC2	B-AC3	B-AC4	B-AC5	B-AC6	B-AC7	B-AC8	B-AC9	B-AC10	B-AC11	B-AC12	B-AC13	B-AC14	B-AC15	B-AC16	B-DC1	B-DC2	B-DC3	B-DC4	B-DC5	B-DC6	B-DC7	B-DC8	B-DC9	B-DC10	B-DC11	B-DC12	B-DC13	B-DC14	B-DC15	B-DC16	B-Ph1	B-Ph2	B-Ph3	B-Ph4	B-Ph5	B-Ph6	B-Ph7	B-Ph8	B-Ph9	B-Ph10	B-Ph11	B-Ph12	B-Ph13	B-Ph14	B-Ph15	B-Ph16	aux-1	digaux	

3266.019	1	1	0	512	0.020642	0.19555	0.29643	0.19281	0.23307	0.1495	0.046568	0.25176	0.23198	0.072736	0.053294	0.2029	0.08919	0.25393	0.14803	0.1078	-3.6875	-3.6542	-4.2604	-3.7812	-3.8583	-3.975	-3.9125	-4.2167	-3.9979	-3.9583	-4.1229	-4.0708	-4.0271	-4.3396	-3.6521	-4.2271	-81.736	27.232	95.764	226.504	130.924	65.362	237.380	242.704	205.432	109.614	159.296	-13.486	-68.066	106.153	97.243	-66.805	0.00084094	0.00038713	0.00024086	550.23	1.1159e-05	3.9288e-06	618.56	189.44	7.55e-06	8.6011e-06	219.93	86.019	70.048	30.186	1.0264e-05	40.822	0.0014379	0.001465	0.00038435	1135.9	1.5854e-05	1.5763e-05	1115.3	360.56	1.5105e-05	1.5124e-05	446.35	162.89	153.59	55.864	1.3505e-05	72.405	101.300	-13.696	-76.225	-77.602	136.124	216.688	-78.853	-71.636	265.417	36.773	-73.820	-69.017	-66.397	-61.857	-13.443	-64.677	-8191	255	
3266.140	1	1	0	0	0.042205	0.089506	0.15826	0.28172	0.083797	0.076017	0.1763	0.1363	0.079657	0.054171	0.2375	0.12142	0.094473	0.11596	0.088831	0.19783	-3.6917	-3.7292	-4.1937	-3.8375	-3.9271	-4.1917	-3.7417	-3.9792	-3.9271	-3.6167	-4.325	-3.8333	-3.8521	-4.1479	-3.6375	-4.0625	235.090	234.448	-32.600	201.800	74.122	143.333	-62.712	221.662	-46.006	246.506	266.702	194.404	-21.443	252.142	172.999	208.910	0.0008552	0.0010537	9.056e-05	554.53	1.0733e-05	8.8386e-06	610.24	189.95	3.0759e-06	1.0243e-05	218.48	87.212	70.059	30.634	3.6728e-06	41.202	0.0013649	0.0013748	0.00035313	1131.7	1.5261e-05	1.5089e-05	1077.1	361.92	1.4897e-05	1.4443e-05	435.49	163.75	149.86	53.612	1.2803e-05	71.339	47.603	-33.725	253.696	-77.193	63.545	-4.426	-78.774	-71.713	237.325	16.961	-73.572	-69.291	-67.096	-62.463	140.814	-65.105	-8191	255	
3266.236	1	1	0	0	0.074055	0.037955	0.24434	0.1265	0.25219	0.20611	0.16446	0.17021	0.060711	0.099789	0.12006	0.29328	0.0807	0.20019	0.16195	0.047478	-3.6667	-3.6708	-4.0437	-3.9646	-3.8396	-4.1417	-3.8021	-4.0146	-4.0875	-3.6063	-4.1375	-3.9292	-3.6854	-4.1375	-3.6729	-4.1062	-9.556	-0.496	143.529	-59.527	173.522	200.998	75.092	214.782	-28.324	87.483	232.370	101.270	100.466	231.016	138.716	71.255	0.00062113	0.00075032	0.00018846	553.61	7.4471e-06	1.7091e-05	599.88	190.41	6.0941e-06	1.8823e-05	217.58	87.511	69.992	30.754	1.0819e-05	41.879	0.0012917	0.0012367	0.00033136	1094.7	1.4173e-05	1.3561e-05	1046.1	352.23	1.4152e-05	1.313e-05	431.72	162.55	147.61	51.87	1.3076e-05	71.838	111.996	-70.690	48.655	-77.513	-8.385	-16.850	-79.187	-71.337	-11.883	21.940	-73.009	-68.717	-65.993	-62.011	243.859	-65.046	-8191	255	
3266.332	1	1	0	0	0.40457	0.18404	0.16174	0.13861	0.041721	0.052428	0.097254	0.213	0.10279	0.22959	0.0536	0.10782	0.17834	0.20602	0.093114	0.11646	-3.6729	-3.7208	-3.9521	-3.8917	-3.8	-4.2917	-3.7188	-3.9437	-3.9854	-3.6896	-4.1333	-4.1292	-3.6958	-4.2521	-3.6229	-3.9146	85.224	-77.848	96.836	-77.874	-20.207	147.639	-84.063	-82.224	119.431	27.057	214.313	225.684	1.952	266.272	-7.475	158.239	0.00061477	0.0010682	0.00041754	561.07	6.5525e-06	1.4557e-05	613.84	191.71	8.7077e-06	3.1873e-06	221.25	87.209	70.788	30.293	8.6125e-06	41.599	0.0013146	0.0012021	0.00035359	1133.5	1.475e-05	1.3635e-05	1104.7	362.69	1.4669e-05	1.3035e-05	451.38	165.03	147.12	50.78	1.3432e-05	70.61	108.886	-21.305	100.907	-77.475	36.420	1.405	-78.840	-71.339	82.927	-13.363	-73.934	-68.792	-66.519	-61.907	181.821	-64.788	-8191	255	
3266.428	1	1	0	0	0.1515	0.062426	0.12014	0.18566	0.083856	0.27544	0.17351	0.10471	0.096733	0.1785	0.070444	0.25249	0.13055	0.095284	0.1362	0.033981	-3.7	-3.725	-4.0375	-3.9729	-3.5646	-4.0896	-3.9792	-3.9604	-4.1521	-3.7646	-4.0646	-4.1146	-3.6333	-4.3729	-4.0833	-3.8458	153.405	137.970	65.507	191.399	-48.741	117.186	196.062	-26.255	208.146	213.008	142.712	267.580	13.420	136.129	210.743	-58.714	0.00067506	0.00047984	0.00017531	554.53	9.586e-06	9.2265e-07	607.08	190.89	1.2815e-05	5.1959e-06	220.02	86.364	70.001	29.992	6.0945e-06	41.047	0.0012535	0.0011217	0.0003474	1100.1	1.362e-05	1.2951e-05	1102.4	358.95	1.4172e-05	1.3043e-05	461.17	166.98	145.04	52.006	1.4123e-05	71.224	240.121	-77.870	152.821	-77.537	6.613	83.189	-79.152	-71.920	-2.022	226.155	-74.371	-68.992	-67.167	-62.223	76.369	-65.251	-8191	255	
3266.524	1	1	0	0	0.083986	0.034546	0.16241	0.03581	0.089299	0.08741	0.27235	0.057269	0.17995	0.20505	0.12959	0.14806	0.13232	0.17756	0.09302	0.089261	-3.9917	-3.7875	-4.1021	-3.9792	-3.6688	-4.2479	-3.8917	-3.7646	-4.1375	-3.725	-4.1312	-4.3771	-3.7708	-4.1312	-3.9458	-3.8104	210.379	-76.557	177.026	115.410	-36.874	2.854	210.869	146.093	125.066	104.436	134.462	200.100	196.226	244.151	267.229	-11.159	0.0013111	0.00035242	0.00018107	555.63	1.3043e-05	7.4665e-06	608.48	188.98	1.3475e-05	1.0162e-05	217.65	86.233	69.927	29.963	1.1728e-05	41.469	0.0012172	0.0011448	0.00034529	1078.2	1.2255e-05	1.2378e-05	1054.5	337.03	1.2176e-05	1.2067e-05	428.54	156.04	130.35	49.949	1.2837e-05	67.287	223.349	105.249	75.709	-77.394	21.044	178.375	-78.719	-71.574	23.329	145.674	-73.465	-68.707	-67.152	-61.767	188.940	-64.912	-8191	255	
3266.619	1	1	0	0	0.14321	0.20874	0.011083	0.10467	0.13819	0.12079	0.15624	0.13873	0.077821	0.063582	0.068542	0.097023	0.031977	0.18195	0.08047	0.063295	-3.8833	-3.4688	-3.9354	-4.0042	-3.5729	-4.0354	-3.9729	-3.7062	-4.1396	-3.7375	-3.85	-4.1188	-3.5708	-4.1188	-3.9354	-3.7771	213.597	-71.196	265.849	214.381	0.995	145.965	97.124	96.118	-51.707	138.809	-25.326	-75.290	69.558	171.815	-80.537	-69.472	0.00071478	0.0010305	3.0405e-05	558.65	3.6012e-06	3.5835e-06	600.36	189.79	3.4868e-06	1.1571e-05	219.37	87.122	69.412	30.288	5.8537e-06	42.189	0.0010831	0.0011163	0.00032679	1047.1	1.1313e-05	1.2254e-05	1029	322.18	1.1168e-05	1.1755e-05	412.38	148.38	124.35	49.315	1.2285e-05	64.031	225.760	152.433	34.665	-77.790	204.561	174.523	-78.841	-71.211	46.080	161.269	-73.364	-68.840	-66.572	-61.365	133.113	-64.981	-8191	255	
3266.715	1	1	0	0	0.10684	0.15679	0.1925	0.091894	0.075844	0.1481	0.25678	0.29434	0.15353	0.057675	0.007659	0.067112	0.13561	0.17614	0.14157	0.1116	-3.7208	-3.7625	-3.7042	-4.0813	-3.7542	-4.0396	-4.1438	-3.6583	-4.1521	-3.7708	-3.8063	-4.1875	-3.7854	-4.0604	-4.0042	-3.6458	-30.571	-85.126	-27.261	249.911	4.250	-46.411	239.166	252.689	-34.218	28.104	156.459	178.423	-43.388	168.178	-73.571	-9.544	0.00085102	0.00055008	0.00011526	562.82	5.8336e-06	4.8515e-06	605.95	189.61	4.6025e-06	3.2311e-06	221.06	87.875	68.755	30.489	5.4071e-06	42.455	0.0010206	0.0010798	0.00030862	995.82	1.0851e-05	1.196e-05	1012.5	309.22	1.1049e-05	1.1635e-05	405.48	143	125.08	49.411	1.2235e-05	62.23	99.316	77.482	-45.166	-77.813	188.725	-89.315	-78.978	-71.451	248.863	-83.403	-73.454	-68.856	-66.975	-61.825	150.884	-64.733	-8191	255	
3266.835	1	1	0	0	0.12271	0.12096	0.19255	0.19772	0.14392	0.23167	0.19218	0.21755	0.067255	0.16862	0.094704	0.27355	0.076754	0.070915	0.29979	0.056293	-3.6417	-3.8604	-3.6437	-4.3333	-3.7687	-3.8208	-4.1813	-3.7708	-4.1375	-3.9062	-3.8667	-4.1958	-3.9521	-3.7875	-4.1208	-3.5167	2.290	126.730	261.039	-75.149	-78.280	226.280	220.499	86.851	45.442	171.966	125.732	-73.607	116.503	269.089	133.388	167.573	0.001613	0.00051169	0.00014532	563	5.2151e-06	3.1131e-06	609.87	191	9.9775e-06	2.5663e-06	220.59	87.462	69.255	30.544	3.3448e-06	41.723	0.0010449	0.0010864	0.00030482	965.39	1.1151e-05	1.1952e-05	1013.3	302.38	1.1527e-05	1.1842e-05	404.2	140.04	127.74	49.267	1.2086e-05	60.813	83.745	220.322	-27.870	-77.426	193.201	169.718	-78.677	-71.265	174.222	234.962	-73.358	-69.100	-66.411	-61.835	189.811	-65.062	-8191	255	
3266.931	1	1	0	0	0.095686	0.050827	0.13742	0.058682	0.017983	0.079719	0.06139	0.21332	0.072355	0.16906	0.053937	0.11258	0.036259	0.16143	0.097388	0.21662	-3.9062	-3.8208	-3.7333	-4.1646	-3.7521	-3.8479	-4.0979	-3.7167	-3.9896	-4.1125	-3.675	-4.0563	-3.9021	-3.8021	-4.2542	-3.8354	-81.486	109.899	207.308	-86.867	-85.049	97.426	184.614	212.685	269.163	170.797	174.725	98.168	42.597	242.183	143.456	39.170	0.0016102	0.00054488	0.00039216	551.97	7.0409e-06	3.8559e-06	605.12	187.44	7.885e-06	1.936e-06	220.03	85.652	68.63	30.211	8.2761e-06	40.912	0.0010839	0.001105	0.00030259	962.72	1.1706e-05	1.2138e-05	999.18	300.27	1.178e-05	1.1848e-05	391.71	139.09	128.97	48.738	1.1506e-05	60.654	98.412	168.836	-71.303	-77.018	166.995	44.219	-78.834	-71.926	177.421	203.677	-73.817	-68.791	-66.935	-62.251	-6.631	-65.189	-8191	255	
3267.028	1	1	0	0	0.027102	0.11716	0.10834	0.19582	0.15496	0.16646	0.1161	0.19527	0.21239	0.076746	0.14665	0.31017	0.15349	0.15383	0.17827	0.010898	-3.675	-4.0667	-3.4625	-4.2125	-4.0208	-3.7687	-4.4167	-3.7104	-3.9	-4.1417	-3.5917	-4.1146	-3.9208	-3.7604	-4.225	-3.8354	225.080	-44.667	167.073	-39.881	85.945	-83.193	202.228	203.649	89.656	15.346	245.209	-84.011	-3.174	119.464	147.523	-84.044	0.00087573	0.00031503	0.0003907	553.25	3.5208e-06	5.0624e-06	610.1	186.36	5.1828e-06	5.5876e-06	219.98	84.382	69.207	30.315	1.1684e-05	40.782	0.0010981	0.0011052	0.00028721	976.7	1.1994e-05	1.2193e-05	984.14	307.27	1.2118e-05	1.2144e-05	384.52	143.2	130.91	48.813	1.1072e-05	61.824	79.899	257.593	-46.381	-77.230	97.115	269.622	-78.566	-71.656	88.507	132.521	-73.733	-68.782	-66.636	-62.261	15.741	-64.902	-8191	255	
3267.124	1	1	0	0	0.1882	0.19881	0.16531	0.10535	0.11931	0.081681	0.1586	0.030924	0.11984	0.13242	0.21769	0.077305	0.1158	0.14272	0.19121	0.14241	-3.5896	-4.0292	-3.6063	-4.0479	-3.8458	-3.6437	-4.2063	-3.7354	-3.9583	-4.075	-3.6417	-3.9	-4.0208	-3.7146	-4.1271	-3.8875	118.376	-42.593	196.689	-65.053	8.410	121.440	59.995	-36.125	130.687	211.089	248.017	81.669	235.057	245.335	13.004	140.212	0.00014061	0.00031713	0.00015618	546.33	4.0524e-06	5.6874e-06	603.84	187.09	8.1872e-06	1.036e-05	217.27	84.963	68.761	30.646	4.1834e-06	41.115	0.0010908	0.0010908	0.00027074	984.66	1.1847e-05	1.183e-05	961.08	311.3	1.1949e-05	1.1789e-05	373.96	143.83	129.19	47.188	1.054e-05	61.815	-8.840	44.974	239.878	-77.284	99.059	24.908	-78.421	-71.608	191.264	-7.760	-73.937	-68.737	-66.798	-62.170	163.300	-65.253	-8191	255	
3267.220	1	1	0	0	0.13319	0.1374	0.11972	0.14838	0.094173	0.071476	0.25347	0.41921	0.2551	0.18688	0.18914	0.1005	0.19745	0.31442	0.070459	0.087241	-3.5	-4.2479	-3.7333	-4.2604	-4.0729	-3.5958	-4.1833	-3.6917	-3.8792	-4.2229	-3.7875	-4.1	-4.2417	-3.8083	-4.2354	-3.9833	-42.267	-16.554	-19.327	262.372	45.574	23.332	-80.918	205.451	236.633	11.177	15.501	197.014	208.618	19.466	256.077	136.020	0.0010213	0.00073581	0.00013109	550.21	8.0092e-06	1.0382e-05	599.17	188.86	8.8399e-06	2.1181e-05	218.39	86.35	69.327	30.845	5.1399e-06	41.85	0.00105	0.001021	0.00026029	978.36	1.1558e-05	1.102e-05	953.22	311.79	1.1704e-05	1.1154e-05	376.45	145.33	129.8	46.109	1.0893e-05	62.758	105.959	-45.488	114.268	-77.345	159.289	-5.829	-78.712	-71.459	9.932	20.550	-73.476	-68.785	-66.105	-62.054	127.187	-65.439	-8191	255	
3267.316	1	1	0	0	0.27382	0.13156	0.1569	0.185	0.14768	0.10139	0.18237	0.093375	0.21262	0.093661	0.059043	0.16834	0.12262	0.1897	0.13404	0.19207	-3.3396	-4.0563	-3.5812	-3.9729	-4.1188	-3.7167	-4.0417	-4.0771	-3.5604	-4.2188	-3.7062	-4.0021	-4.0917	-3.7438	-4.0146	-3.9708	-7.175	269.233	6.945	-2.707	-53.537	4.723	-83.551	-9.535	95.363	148.814	25.267	102.267	263.497	167.492	-20.525	198.514	0.00033562	0.0010803	6.4817e-05	555.69	3.5572e-06	1.3455e-05	598.86	189.53	8.075e-06	1.1245e-05	216	86.244	69.786	30.434	7.4292e-06	41.148	0.0010513	0.00098201	0.00027049	985.7	1.162e-05	1.0512e-05	974.23	315.13	1.1788e-05	1.0937e-05	392.68	149.04	133.96	46.761	1.2193e-05	65.768	18.012	-33.200	175.925	-77.641	129.816	-3.685	-79.146	-71.556	-22.891	11.958	-74.066	-68.734	-67.132	-61.950	178.332	-65.267	-8191	255	
3267.435	1	1	0	0	0.14611	0.21282	0.10295	0.052407	0.16526	0.044836	0.24057	0.17863	0.10523	0.12055	0.041363	0.37451	0.15521	0.20993	0.089084	0.28877	-3.2875	-4.2438	-3.7479	-4.0062	-4.1375	-3.7979	-4.0563	-3.9021	-3.5854	-4.1062	-3.8917	-3.8792	-4.0729	-3.7833	-4.0437	-3.9729	228.266	-5.671	0.815	91.673	269.514	-64.819	185.259	138.326	216.528	-28.415	267.119	242.749	-82.012	250.897	-54.220	-56.241	0.0002359	0.00074414	0.00023401	551.63	1.5326e-05	4.8133e-06	603.22	189.58	1.2884e-05	1.9577e-06	216.86	85.89	69.748	29.862	4.4909e-06	40.879	0.0011231	0.0010426	0.00030526	1035.7	1.2356e-05	1.1136e-05	1028.3	328.15	1.2134e-05	1.154e-05	413.63	152.81	134.83	47.721	1.2961e-05	67.48	-80.617	-54.489	152.521	-77.218	-1.931	96.643	-78.640	-71.934	0.083	199.852	-73.766	-68.912	-66.278	-61.658	166.236	-65.506	-8191	255	
3267.531	1	1	0	0	0.14923	0.076283	0.19691	0.13112	0.16528	0.12934	0.18798	0.26611	0.17113	0.10796	0.18024	0.081152	0.16722	0.26039	0.19224	0.058763	-3.4083	-4.1625	-3.7604	-3.7708	-4.1312	-3.7104	-4.0896	-4.0625	-3.6437	-4.1333	-3.8438	-4.0229	-4.225	-3.7396	-4.0563	-4.1708	108.167	39.173	195.890	175.652	77.531	67.293	189.266	-31.059	-53.743	-5.930	-79.374	52.663	5.808	38.506	87.131	144.089	0.0015885	0.00064822	2.5689e-05	557.04	1.3777e-05	1.1064e-05	606.55	188.93	1.2347e-05	6.9366e-06	215.45	84.815	69.059	30.056	5.7386e-06	40.809	0.0011257	0.0011094	0.00032684	1063.1	1.2337e-05	1.182e-05	1051.3	331.12	1.152e-05	1.166e-05	405.76	146.77	124.5	46.311	1.1708e-05	63.017	244.852	100.033	180.021	-77.305	-30.770	128.845	-78.698	-71.647	15.619	171.773	-73.444	-68.746	-66.447	-62.019	70.845	-64.952	-8191	255	
3267.627	1	1	0	0	0.25554	0.3455	0.23516	0.2699	0.12483	0.075899	0.18878	0.22036	0.057736	0.10128	0.40977	0.14997	0.29441	0.1959	0.10216	0.12728	-3.3563	-4.0646	-3.8146	-3.8854	-4.0312	-3.7979	-4.0104	-4.2896	-3.8542	-4.0979	-4.0083	-3.7771	-4.1667	-3.7188	-3.8521	-4.2417	200.980	73.905	117.685	207.382	24.007	163.178	267.001	204.789	77.455	-74.522	215.836	146.531	220.590	-68.681	264.308	229.588	0.00051882	0.0010017	6.345e-05	548.72	5.8893e-06	9.2308e-06	598.84	187.96	3.9409e-06	8.0589e-06	215.59	86.379	68.086	30.188	1.8301e-06	41.72	0.0009464	0.0010115	0.00028873	974.98	1.0434e-05	1.0824e-05	980.5	308.5	9.9536e-06	1.0858e-05	382.64	137.44	116.32	45.226	1.0822e-05	59.919	265.410	79.794	-60.587	-77.532	61.427	137.650	-78.680	-71.328	115.230	196.645	-73.879	-68.731	-66.699	-62.109	93.283	-65.071	-8191	255	
3267.699	1	1	0	0	0.18899	0.12582	0.041614	0.037648	0.13769	0.090575	0.12031	0.26247	0.083867	0.11558	0.15666	0.3399	0.10122	0.0474	0.20576	0.21138	-3.225	-3.8896	-4.0104	-3.675	-3.9917	-3.7896	-3.7104	-4.15	-3.5125	-4.2063	-3.9813	-3.725	-4.25	-3.875	-3.8271	-4.1687	156.243	245.840	151.081	201.718	-23.271	181.549	208.706	-33.114	128.633	-57.418	232.422	188.251	194.260	-37.246	177.988	163.236	0.00031558	0.00096383	0.00011779	554.21	5.0993e-06	8.932e-06	601.74	190.84	8.2741e-06	3.6742e-06	217.86	87.685	69.492	30.536	1.9715e-06	42.104	0.0008691	0.00096853	0.00027227	920.87	9.8893e-06	1.0551e-05	959.07	299.29	9.9467e-06	1.1074e-05	390.03	136.71	121.3	47.029	1.133e-05	60.483	-30.574	184.060	114.478	-77.626	179.047	202.536	-78.417	-71.485	203.080	132.345	-73.180	-69.038	-66.676	-61.739	-76.055	-64.944	-8191	255	
3267.820	1	1	0	0	0.16552	0.18691	0.23334	0.10174	0.10617	0.20117	0.20001	0.28677	0.33175	0.059069	0.10494	0.11509	0.060107	0.25908	0.15027	0.1524	-3.3583	-4.0146	-3.9354	-3.7313	-4.0833	-3.9271	-3.7917	-4.3562	-3.7021	-3.975	-4.2208	-3.5229	-4.1813	-3.9542	-3.5438	-4.2854	256.960	219.179	176.883	206.128	14.058	159.295	146.931	176.039	179.851	222.823	53.178	-10.156	-38.167	5.175	250.628	267.840	0.0012492	0.00028837	4.7867e-05	559.24	1.345e-05	3.6162e-06	605.02	190.37	5.4927e-06	7.5699e-06	222.48	87.424	69.615	30.883	8.9773e-06	41.56	0.00094208	0.0010253	0.00028602	923.31	1.0683e-05	1.1135e-05	982.71	299.42	1.0799e-05	1.1646e-05	404.14	138.07	129.16	49.01	1.2003e-05	61.685	86.451	-79.062	135.717	-77.585	195.942	187.205	-78.328	-71.423	229.936	66.297	-73.539	-68.667	-66.525	-61.906	14.021	-65.261	-8191	255	
3267.916	1	1	0	0	0.039079	0.22732	0.2053	0.038322	0.17054	0.21149	0.1067	0.13544	0.13221	0.18039	0.17767	0.3667	0.16315	0.17651	0.072433	0.21621	-3.5042	-3.8167	-4.2312	-3.8417	-4.2104	-4.0229	-3.7229	-4.0396	-3.7562	-3.95	-4.2792	-3.7375	-3.9854	-3.9917	-3.6604	-4.025	136.568	136.311	88.602	225.570	77.479	185.982	181.692	93.021	139.051	139.274	111.552	-50.435	-65.570	251.821	228.390	218.543	0.00087516	8.6655e-05	3.4507e-05	556.45	6.9314e-06	5.2236e-06	614.97	189.92	7.3247e-06	2.95e-06	222.04	85.512	70.011	30.314	1.1781e-05	40.896	0.0010579	0.0011172	0.0003082	952.9	1.1922e-05	1.2084e-05	1005.2	307.25	1.1675e-05	1.2073e-05	400.99	137.4	130.94	48.678	1.14e-05	61.096	90.260	1.451	252.186	-77.143	215.696	167.762	-78.660	-71.467	257.599	81.674	-73.402	-68.983	-66.558	-61.825	7.540	-65.137	-8191	255	
3268.012	1	1	0	0	0.1168	0.11295	0.075164	0.21301	0.10927	0.035065	0.13094	0.20306	0.094459	0.0604	0.23015	0.082735	0.14343	0.26135	0.051168	0.1394	-3.3833	-3.7646	-4.1146	-3.7812	-4.0104	-4.0667	-3.7562	-4.0813	-3.7792	-3.6813	-4.1958	-3.7667	-3.8521	-3.8521	-3.5604	-4.0771	-73.978	-45.311	-78.724	-87.311	79.083	-13.806	253.199	194.497	130.278	136.987	269.718	-71.165	164.284	250.403	11.517	169.035	0.00085053	0.00053397	0.00030079	552.75	7.9485e-06	2.6034e-06	611.7	188.22	7.5167e-06	1.0137e-05	219.95	83.644	69.096	30.284	1.1467e-05	40.769	0.0010689	0.0011039	0.00029363	958.18	1.215e-05	1.2188e-05	982.29	311.45	1.1871e-05	1.1994e-05	386.91	138.66	129.8	48.129	1.0531e-05	61.108	87.898	54.288	254.228	-77.632	175.777	139.347	-78.606	-71.445	182.261	2.348	-73.871	-69.064	-66.463	-61.949	18.714	-65.132	-8191	255	
3268.108	1	1	0	0	0.098284	0.11741	0.20254	0.27501	0.14916	0.066802	0.074416	0.27085	0.52473	0.081242	0.18796	0.1331	0.12228	0.14084	0.12143	0.15477	-3.5687	-3.6125	-4.0625	-3.8708	-3.8292	-4.05	-3.5375	-4.0813	-3.8187	-3.7917	-4.0938	-3.8292	-3.7729	-4.1229	-3.6667	-4.025	195.017	7.229	242.149	227.091	-5.732	18.146	141.084	75.357	138.681	119.084	225.986	-19.377	-67.997	193.600	-29.327	257.806	0.00055306	0.00054712	0.00016432	552.15	2.8548e-06	4.4593e-06	606.7	188.74	1.0901e-05	1.0394e-05	220.55	84.64	68.993	30.529	8.2355e-06	40.987	0.0010356	0.0010475	0.00026844	949.74	1.1581e-05	1.1631e-05	941.76	312.06	1.1652e-05	1.1553e-05	377.53	140.83	129.59	47.677	1.0326e-05	62.327	44.360	-63.377	252.571	-77.233	87.478	14.456	-78.545	-71.416	130.091	1.921	-73.795	-68.984	-66.724	-62.348	-3.515	-64.904	-8191	255	
3268.229	1	1	0	0	0.26204	0.054108	0.069297	0.14875	0.061864	0.30021	0.27348	0.036931	0.042618	0.3231	0.016071	0.088601	0.18789	0.15146	0.13661	0.16976	-3.7625	-3.4604	-4.1687	-3.8688	-3.9771	-4.2063	-3.6458	-4.2312	-3.9562	-3.6542	-4.2479	-3.8646	-3.8771	-4.2771	-3.6396	-3.9979	196.275	137.964	0.009	175.359	126.827	-2.111	177.166	23.647	-46.546	-66.466	158.662	-70.618	-29.453	-58.342	125.435	187.903	0.00031969	0.0013507	0.00017912	550.29	5.7857e-06	1.0009e-05	601.75	189.7	2.0793e-06	1.288e-05	220.98	85.725	69.79	30.84	5.3819e-06	41.898	0.0010476	0.0010138	0.00026518	961.38	1.1423e-05	1.1059e-05	930.68	311.91	1.1459e-05	1.0869e-05	379.97	143.29	130.7	47.295	1.0834e-05	64.383	98.016	-2.334	78.281	-77.540	20.234	1.586	-78.647	-71.268	221.244	-24.784	-73.291	-68.941	-66.222	-61.796	211.417	-65.205	-8191	255	
3268.300	1	1	0	0	0.23869	0.15311	0.19977	0.19271	0.048953	0.17804	0.13171	0.15709	0.075955	0.081769	0.10745	0.14202	0.26247	0.12022	0.092622	0.06905	-3.725	-3.6667	-4.2125	-3.9083	-3.6771	-4.0667	-3.8146	-4.0396	-3.9354	-3.6208	-4.1917	-4.0021	-3.8458	-4.2125	-3.7542	-3.9521	223.378	198.805	180.079	195.648	224.962	71.857	167.751	184.442	-73.869	52.684	243.066	174.010	249.000	175.875	134.836	133.384	0.0006262	0.0011203	0.00013786	553.91	2.2845e-06	1.1452e-05	611.73	190.94	2.7574e-06	3.6928e-06	219.53	86.95	70.606	30.768	7.7435e-06	41.705	0.0010984	0.0010121	0.00028837	1004.4	1.2107e-05	1.125e-05	982.1	323.92	1.2213e-05	1.0958e-05	403.42	149.33	135.22	47.86	1.197e-05	67.016	137.887	-43.895	88.273	-77.555	196.968	-14.979	-78.668	-71.582	56.458	-24.511	-73.393	-68.767	-66.581	-62.113	175.104	-65.120	-8191	255	
3268.396	1	1	0	0	0.10192	0.13161	0.049207	0.064382	0.16784	0.047617	0.13113	0.083203	0.18154	0.052866	0.10784	0.040644	0.1307	0.050196	0.26984	0.12382	-3.7042	-3.6813	-4.0854	-3.8833	-3.6396	-4.1354	-3.8125	-3.9729	-4.0396	-3.6688	-3.9792	-3.8646	-3.8354	-4.1687	-3.8708	-3.9292	109.787	94.182	-13.768	-75.519	250.351	-24.474	239.186	65.623	80.664	19.380	94.328	41.847	118.026	180.593	160.445	114.477	0.00081134	0.00032101	0.00025858	564	6.67e-06	2.688e-06	612.77	191.56	1.6615e-05	4.5896e-06	217.21	85.326	69.783	30.045	6.418e-06	40.571	0.0011721	0.0010528	0.00032147	1057.7	1.2753e-05	1.1805e-05	1038	335.76	1.267e-05	1.1404e-05	421.81	152.84	134.38	48.265	1.2491e-05	66.938	119.162	245.365	135.822	-77.498	-5.922	-43.350	-78.935	-71.419	46.394	208.835	-73.711	-69.256	-66.602	-61.717	197.769	-65.105	-8191	255	
3268.517	1	1	0	0	0.1281	0.16321	0.14533	0.10334	0.25601	0.19475	0.045698	0.23693	0.13321	0.21058	0.12117	0.16743	0.31432	0.13835	0.19391	0.048226	-3.8167	-3.6708	-3.95	-4.1458	-3.6021	-3.9396	-4.1583	-3.9229	-4.1021	-3.6521	-3.8187	-4.125	-3.6958	-4.0208	-3.8875	-3.6646	166.890	-72.213	-42.557	-54.656	143.390	49.491	-35.220	65.746	218.093	-82.707	258.524	224.388	-85.822	-34.297	249.706	148.520	0.0009103	0.00065078	8.325e-05	557.94	1.5114e-05	8.0679e-06	615.39	191.82	1.9452e-05	5.3745e-06	220.53	84.213	69.941	30.353	5.0631e-06	41.053	0.0011345	0.0010595	0.00032693	1058.8	1.2207e-05	1.2114e-05	1056.7	338.78	1.2371e-05	1.189e-05	426.86	153	129.18	48.589	1.2278e-05	65.021	264.254	139.108	69.526	-77.412	-4.446	131.300	-79.195	-71.419	20.489	219.896	-73.786	-69.073	-67.111	-61.715	141.033	-64.844	-8191	255	
3268.611	1	1	0	0	0.093857	0.09252	0.27298	0.14049	0.24471	0.12898	0.20202	0.087295	0.080001	0.18696	0.19612	0.14569	0.19375	0.20442	0.11533	0.31159	-3.7083	-3.8729	-3.9813	-4.125	-3.6208	-4.1208	-3.9958	-3.6667	-4.2271	-3.7687	-3.7687	-4.1917	-3.6854	-4.0104	-3.8042	-3.7458	147.582	43.316	165.123	54.378	-44.394	-18.232	166.976	-0.336	160.451	-83.798	236.538	251.902	252.916	121.188	51.529	222.035	0.00044596	0.00072813	0.00013801	558.21	7.4817e-06	6.4555e-06	611.22	191.44	5.0678e-06	5.6549e-06	220.84	85.469	69.731	30.244	2.0845e-06	41.463	0.0010278	0.0010262	0.00030504	1007.1	1.0699e-05	1.1523e-05	1010.1	321.09	1.1138e-05	1.1642e-05	414.64	149.09	124.81	49.079	1.2239e-05	64.002	176.773	119.070	198.355	-77.642	16.833	166.022	-78.159	-70.825	-27.258	171.629	-73.668	-68.920	-67.421	-62.024	202.409	-64.949	-8191	255	
3268.708	1	1	0	0	0.070437	0.10226	0.034416	0.068882	0.06815	0.1815	0.042846	0.17642	0.04491	0.08218	0.14177	0.1262	0.069383	0.085593	0.18941	0.20002	-3.9188	-3.7062	-3.7792	-4.025	-3.7812	-4.0854	-4.2333	-3.7812	-4.0292	-3.8333	-3.8708	-4.0875	-3.6667	-4.1333	-3.9479	-3.6667	241.123	270.978	258.530	215.314	18.836	86.423	-30.256	106.775	-7.259	49.891	193.650	88.934	215.141	209.896	118.477	36.936	0.0010595	0.0005433	0.00010211	558.65	9.3854e-06	3.2054e-06	609.73	191.98	5.1031e-06	7.4289e-06	220.67	87.674	69.83	30.64	4.2843e-06	42.265	0.0010025	0.0010518	0.000301	979.72	1.0375e-05	1.1473e-05	996.52	308.15	1.0729e-05	1.142e-05	403.36	142.97	123.11	48.976	1.2075e-05	62.427	99.874	97.644	163.085	-77.559	181.915	204.182	-78.916	-70.838	131.250	127.648	-73.398	-68.480	-66.126	-62.111	173.759	-64.679	-8191	255	
3268.828	1	1	0	0	0.017372	0.039242	0.16945	0.11127	0.1827	0.20836	0.058785	0.15132	0.20011	0.089935	0.070559	0.37875	0.14264	0.064574	0.14872	0.087602	-3.8438	-3.8896	-3.7458	-4.1167	-3.6479	-3.9958	-4.1375	-3.8	-4.2958	-4.0271	-3.6979	-4.2854	-3.8312	-4.0208	-4.0833	-3.7708	265.510	198.473	221.123	232.939	156.210	11.451	239.827	42.148	111.361	-31.871	196.284	219.987	179.204	181.511	39.983	134.004	0.00071595	0.00053275	0.00019658	568.98	1.453e-05	3.0601e-06	617.99	194.1	5.559e-06	5.2939e-06	223.56	87.334	69.952	31.017	1.0162e-06	41.93	0.0010319	0.0010919	0.00031089	989.09	1.1299e-05	1.2266e-05	1033.2	309.03	1.1523e-05	1.1842e-05	407.14	139.78	125.44	48.71	1.1745e-05	60.129	90.264	70.748	192.251	-77.444	145.909	154.015	-78.545	-71.649	167.374	121.758	-73.577	-68.629	-66.251	-61.512	215.385	-64.664	-8191	255	
3268.924	1	1	0	0	0.14631	0.061929	0.092026	0.20362	0.17687	0.23215	0.16247	0.10322	0.058656	0.13195	0.18073	0.1423	0.12672	0.22376	0.23164	0.087422	-3.6958	-3.7792	-3.6937	-4.3375	-3.6333	-3.9958	-4.2021	-3.6125	-3.9437	-3.9271	-3.7917	-4.2438	-3.7687	-3.7958	-4.1104	-3.9104	11.537	-16.708	40.846	269.918	-67.489	188.634	259.450	81.338	7.734	174.044	173.080	265.299	61.507	231.724	92.337	73.195	0.0014006	0.0003037	0.00019019	560.09	1.7639e-06	3.5748e-06	616.08	191.11	6.6546e-06	8.4982e-06	222.03	85.75	69.486	30.677	1.2402e-05	41.607	0.0010377	0.001066	0.00029706	954.31	1.1407e-05	1.2102e-05	1018.6	304.35	1.1867e-05	1.1921e-05	397.63	138.48	127.4	48.238	1.1256e-05	59.22	85.478	8.485	-87.058	-77.387	149.405	-84.734	-78.580	-71.353	204.952	113.755	-73.797	-69.156	-66.760	-61.352	3.340	-65.159	-8191	255	
3268.996	1	1	0	0	0.11491	0.27923	0.13718	0.29947	0.041807	0.23365	0.31548	0.18713	0.10836	0.10972	0.15219	0.10811	0.12789	0.30767	0.11903	0.25684	-3.6729	-3.9896	-3.7229	-4.2562	-3.8375	-3.7833	-4.1312	-3.8333	-3.8292	-3.9958	-3.7229	-4.0333	-3.8208	-3.8563	-4.1917	-3.7812	261.662	78.204	259.734	-78.933	-71.489	-87.385	205.111	156.401	0.355	192.519	200.920	39.229	181.808	243.456	-53.002	175.997	0.00093455	0.00060511	0.00010988	549.77	9.5046e-06	8.5358e-06	614.64	188.34	5.9288e-06	5.8903e-06	222.81	85.278	69.541	30.52	8.231e-06	40.483	0.0010425	0.0010519	0.00027991	948.49	1.1434e-05	1.1839e-05	983.97	304.15	1.1915e-05	1.1955e-05	386.43	140.87	129.51	48.548	1.0957e-05	60.575	78.733	216.458	-74.425	-77.298	173.319	17.791	-78.362	-71.266	229.273	2.302	-73.499	-68.972	-66.369	-62.007	17.678	-65.220	-8191	255	
3269.117	1	1	0	0	0.21475	0.096396	0.0773	0.16527	0.23786	0.056864	0.12812	0.22315	0.30763	0.1719	0.16936	0.0056241	0.10249	0.15635	0.17783	0.047023	-3.4375	-4.2229	-3.5021	-4.0958	-3.8271	-3.6875	-4.4417	-3.8354	-3.7875	-4.1583	-3.7104	-4.2333	-4.1083	-3.775	-4.1813	-3.8	252.293	133.340	158.592	223.547	200.625	228.908	53.341	242.274	-39.889	240.281	31.090	66.699	-33.706	198.258	85.057	31.942	0.0003549	0.00054856	0.00046661	548.99	6.5355e-06	4.4812e-06	608.52	189.8	2.3118e-06	2.2329e-06	221.08	84.852	70.067	31.031	2.2965e-06	40.921	0.0010577	0.0010551	0.0002631	955.1	1.1238e-05	1.131e-05	937.65	301.68	1.1336e-05	1.1313e-05	366.73	140.09	126.71	46.914	1.0225e-05	60.53	85.860	-46.119	-85.926	-77.358	221.272	88.441	-78.813	-71.315	55.190	14.456	-73.379	-69.094	-66.892	-62.272	201.168	-65.151	-8191	255	
3269.213	1	1	0	0	0.22709	0.38237	0.057667	0.13616	0.023393	0.07766	0.072657	0.045615	0.077998	0.036404	0.14418	0.18779	0.13475	0.22098	0.061548	0.15671	-3.7146	-4.0938	-3.6458	-4.0521	-4.0229	-3.7375	-4.2812	-3.8708	-3.8646	-4.1958	-3.8312	-4.1021	-4.25	-3.8042	-4.2458	-3.9604	-59.670	-44.405	107.051	-65.142	119.893	54.220	196.332	-25.926	180.464	16.268	24.995	153.408	44.401	189.019	-82.461	161.963	0.00044565	0.00067679	0.00024066	547.75	4.1186e-06	7.1127e-06	600.38	188.96	1.0004e-06	1.2846e-05	219.22	85.997	70.304	31.345	1.2847e-05	41.759	0.0010229	0.0010052	0.00025221	954.05	1.1026e-05	1.0615e-05	923.44	300.84	1.0927e-05	1.0485e-05	359.32	138.83	124.27	45.018	1.0104e-05	60.67	185.545	-16.137	125.153	-77.275	109.933	-32.026	-78.724	-71.244	179.528	-44.198	-73.425	-69.007	-67.306	-62.108	158.878	-65.244	-8191	255	
3269.309	1	1	0	0	0.31503	0.26391	0.24171	0.26989	0.13248	0.20655	0.22592	0.23283	0.15402	0.28036	0.26831	0.01713	0.10863	0.12063	0.10875	0.25376	-3.4146	-4.2354	-3.85	-4.1583	-4.1229	-3.8271	-4.2604	-4.1729	-3.7188	-4.1708	-3.6979	-3.9354	-4.0542	-3.5708	-4.075	-3.9354	164.321	-35.404	18.406	162.702	-66.919	55.533	151.595	197.261	166.979	-69.261	200.115	142.178	109.714	232.086	29.755	132.427	0.00075422	0.00088836	4.0422e-05	551.33	4.1099e-06	6.3716e-06	600.88	190.91	3.2344e-06	5.2745e-06	219.79	86.656	71.504	31.257	7.8001e-06	42.421	0.00099573	0.00094179	0.00025301	953.78	1.0943e-05	9.9721e-06	936.22	302.87	1.082e-05	9.945e-06	364.76	138.31	122.64	43.396	1.0102e-05	59.87	127.180	-32.822	29.858	-77.660	2.832	9.509	-78.660	-71.454	120.480	33.433	-73.422	-68.679	-66.536	-62.228	214.429	-65.044	-8191	255	
3269.403	1	1	0	0	0.046378	0.24233	0.088696	0.21963	0.21419	0.21874	0.16352	0.015738	0.17259	0.07102	0.16315	0.18236	0.38055	0.14384	0.054501	0.19405	-3.4229	-4.2312	-3.575	-3.9	-4.0687	-3.6562	-4.1188	-4.1458	-3.5833	-4.1146	-3.9354	-3.8854	-4.1042	-3.7979	-3.8979	-4.0646	35.497	251.376	2.926	93.791	265.728	173.707	160.479	-6.513	153.222	-52.211	-88.902	146.329	-9.672	227.454	117.081	253.347	0.00038904	0.00081274	0.00017192	551.02	9.5589e-06	7.9154e-07	607.94	190.18	6.086e-06	6.203e-06	219.5	86.529	72.433	30.75	2.9334e-06	41.652	0.00094731	0.00087609	0.0002549	942.78	1.0679e-05	9.6161e-06	952.07	304.41	1.064e-05	9.8375e-06	371.56	137.85	120.37	42.819	1.029e-05	59.478	162.536	-62.560	91.381	-77.220	-52.596	128.938	-78.617	-71.285	17.538	131.751	-73.663	-68.831	-67.158	-61.885	131.679	-64.905	-8191	255	
3269.500	1	1	0	0	0.14341	0.10908	0.14648	0.16378	0.14486	0.111	0.050319	0.056901	0.1479	0.16812	0.081279	0.016355	0.12674	0.29685	0.15895	0.074931	-3.4062	-4.2833	-3.8458	-3.9375	-4.1667	-3.8021	-4.0771	-3.9875	-3.65	-4.15	-3.8646	-3.7708	-4.175	-3.5229	-3.9229	-4.1833	-56.591	255.298	11.530	179.037	-6.177	202.714	-80.902	255.053	-65.354	253.238	-13.575	99.496	20.455	136.008	176.124	167.560	0.0011426	0.00065332	3.5341e-05	545.31	1.3814e-05	4.6856e-06	598.95	189.82	1.2846e-05	7.1402e-06	219.26	85.054	70.15	30.301	2.5269e-06	41.219	0.00090533	0.00087179	0.00025997	938.84	1.027e-05	9.7665e-06	962.28	307.5	1.0381e-05	1.0408e-05	384.6	141.32	120.97	44.616	1.1033e-05	61.251	216.455	95.017	128.048	-77.263	-12.650	205.379	-78.935	-71.398	16.040	158.368	-74.191	-69.213	-67.385	-61.385	87.204	-65.134	-8191	255	
3269.596	1	1	0	0	0.25891	0.16366	0.058855	0.2159	0.020647	0.099726	0.33043	0.20438	0.050304	0.20485	0.11752	0.086768	0.17847	0.080509	0.16094	0.34915	-3.2229	-4.1542	-3.9375	-3.7917	-4.1646	-3.6917	-4.0167	-4.0062	-3.7417	-4.1042	-4.1229	-3.7708	-4.2729	-3.7687	-3.8563	-4.2896	39.537	208.794	-49.047	48.184	82.448	86.016	205.011	217.137	135.105	269.579	32.511	-23.441	186.517	-43.504	24.420	205.952	0.00062786	0.00059746	0.00016795	547.8	4.1375e-06	1.4421e-05	596.59	190.86	9.4868e-06	3.7644e-06	219.55	85.547	69.59	30.351	5.9586e-06	41.202	0.0009063	0.00093998	0.0002688	935.73	9.6776e-06	9.8149e-06	937.56	297.14	9.2949e-06	1.0069e-05	370.84	135	114.49	44.321	1.0623e-05	59.646	-53.572	171.597	70.762	-77.619	-15.998	169.134	-78.637	-71.353	21.398	199.276	-73.306	-68.595	-66.583	-61.847	232.768	-65.079	-8191	255	
3269.692	1	1	0	0	0.30109	0.17573	0.16473	0.11709	0.11805	0.20641	0.032734	0.24409	0.11784	0.19114	0.19708	0.19937	0.14157	0.1211	0.16107	0.10928	-3.3354	-4.1042	-4.0687	-3.8187	-4.1542	-3.8479	-3.9708	-4.25	-3.7583	-4.125	-4.0875	-3.85	-4.1708	-3.9583	-3.8021	-4.2771	-60.286	210.832	-86.143	245.568	199.772	-46.594	111.746	168.115	122.655	142.815	81.544	265.038	-53.146	-45.357	124.209	255.801	0.00024077	0.00066083	8.9745e-05	548.41	9.5905e-06	3.2053e-06	592.29	189.09	5.9771e-06	3.5669e-06	216.01	85.589	69.358	30.591	2.4513e-06	42.077	0.00085997	0.0009528	0.00026722	917.42	9.5258e-06	1.0029e-05	927.89	287.53	8.8818e-06	9.7125e-06	355.15	125.29	108.36	42.523	9.4205e-06	54.971	81.970	136.886	108.156	-77.277	199.126	163.280	-78.609	-71.384	208.197	200.475	-73.673	-69.176	-66.521	-61.928	-75.106	-65.065	-8191	255	
3269.788	1	1	0	0	0.0097348	0.073675	0.15027	0.20022	0.19897	0.23876	0.30003	0.093737	0.1181	0.18639	0.29397	0.23275	0.10252	0.2031	0.28723	0.098462	-3.3854	-3.9292	-4.125	-3.8542	-4.2125	-4.0417	-3.8333	-4.1667	-3.7667	-3.9083	-4.2979	-3.6542	-4.0229	-3.975	-3.7646	-4.2042	106.950	37.433	99.894	-77.902	-75.846	-39.861	171.072	196.693	240.558	-27.576	-56.284	186.064	-54.345	178.597	223.299	72.981	0.00069784	0.00041303	3.0032e-05	545.55	9.321e-06	4.5063e-06	591.49	188.83	7.2155e-06	6.2236e-06	218.39	87.241	70.129	31.349	5.3716e-06	42.617	0.00077264	0.00084511	0.00023368	828.04	8.503e-06	8.8857e-06	867.29	264.58	8.0773e-06	8.6197e-06	332.12	115.31	103.28	40.3	8.175e-06	51.034	53.745	35.842	-6.939	-77.451	202.123	237.250	-78.516	-71.420	171.657	59.003	-73.325	-68.763	-66.631	-62.001	114.348	-65.181	-8191	255	
3269.909	1	1	0	0	0.15371	0.077354	0.19918	0.30713	0.17571	0.18519	0.16735	0.17072	0.087935	0.2133	0.24579	0.12738	0.12503	0.088919	0.11315	0.21052	-3.3896	-3.8896	-4.1083	-3.575	-4.1646	-4.0083	-3.7292	-4.0854	-3.8958	-3.8021	-4.0646	-3.7917	-4.1458	-3.9583	-3.7083	-4.1562	62.978	249.040	-85.147	243.935	-55.916	-71.899	156.888	263.797	209.692	-36.245	-84.911	23.149	137.233	128.500	152.910	-61.797	0.00073383	0.00035828	4.7192e-05	542.78	3.3615e-06	7.4068e-07	591.93	187.96	5.633e-06	1.333e-06	218.95	86.01	69.721	31.255	8.6045e-06	41.99	0.00070368	0.00075294	0.00020968	776.64	8.1003e-06	8.2309e-06	829.34	253.66	7.8898e-06	8.2516e-06	323.69	113.75	105.02	40.595	8.0403e-06	51.175	96.699	32.890	30.939	-77.538	232.220	206.954	-78.130	-71.440	81.714	-54.623	-73.064	-68.561	-66.201	-61.907	4.611	-64.668	-8191	255	
3270.005	1	1	0	0	0.28664	0.13514	0.089758	0.1052	0.10488	0.13153	0.18019	0.28537	0.073978	0.23246	0.20999	0.13603	0.067463	0.023588	0.15356	0.34935	-3.4938	-3.7188	-4.1896	-3.7458	-3.8	-3.9792	-3.8208	-4.175	-3.9396	-3.7896	-4.1813	-3.8104	-4.0792	-4	-3.65	-4.1687	-73.239	155.731	81.673	239.775	212.389	-12.481	163.555	269.588	-11.318	53.702	-83.638	160.277	9.320	218.294	77.497	76.669	0.0010026	0.00061454	0.00019503	537.09	1.0292e-05	3.8636e-06	590.55	187.82	2.4659e-06	2.7627e-06	217.71	85.477	70.386	31.086	4.7437e-06	41.833	0.0007345	0.0007592	0.00020237	774.61	8.1357e-06	8.0961e-06	801.86	252.6	7.8463e-06	7.9617e-06	309.33	112.47	102.85	39.64	7.3245e-06	50.897	32.563	60.032	267.646	-77.299	191.736	-81.559	-78.332	-71.231	236.760	127.235	-73.741	-68.833	-66.626	-61.958	32.187	-64.972	-8191	255	
3270.101	1	1	0	0	0.33999	0.19074	0.025004	0.043562	0.11434	0.07592	0.076387	0.071294	0.15417	0.17681	0.22753	0.13741	0.057082	0.11902	0.17126	0.049354	-3.5312	-3.8208	-4.1354	-3.9292	-3.9104	-4.1917	-3.8167	-4.1958	-3.9229	-3.6854	-4.4437	-3.9313	-3.8917	-4.1229	-3.4479	-3.9646	76.698	81.839	33.145	162.291	214.241	231.876	189.923	183.340	127.193	133.524	96.153	140.668	-77.729	131.639	19.145	-56.489	0.00045766	0.0003613	0.00022794	538.55	1.9299e-06	2.8123e-06	592.35	188.9	6.6892e-06	4.0991e-06	219.79	86.859	70.796	31.293	1.1873e-06	42.315	0.00072463	0.00074467	0.00019282	790.82	8.328e-06	8.3411e-06	800.22	261.79	8.1593e-06	8.0481e-06	305.96	114.9	102.91	39.305	6.8405e-06	50.969	109.263	0.680	265.563	-77.262	-82.557	6.862	-78.319	-71.447	242.091	72.272	-73.948	-68.743	-66.785	-62.196	15.090	-64.878	-8191	255	
3270.197	1	1	0	0	0.19311	0.056608	0.16773	0.081015	0.2781	0.09215	0.28984	0.1937	0.091323	0.19609	0.14982	0.030338	0.068824	0.056177	0.074346	0.25973	-3.5625	-3.575	-4.2104	-3.8125	-3.8208	-4.2146	-3.7167	-4	-3.9104	-3.5792	-4.2229	-3.8896	-3.875	-4.1625	-3.6063	-3.8854	54.851	95.374	265.448	36.566	172.129	165.178	122.871	-80.013	142.478	204.235	258.292	110.281	208.800	58.123	265.985	267.737	0.00077788	0.00033416	0.00010292	545.04	3.5565e-06	2.3842e-06	588.97	191.43	7.1845e-06	8.77e-06	218.16	87.733	71.812	31.909	7.1611e-06	42.927	0.00069164	0.00068417	0.00017693	778.71	7.7434e-06	7.638e-06	778.4	260.23	7.8758e-06	7.6012e-06	306.68	116.83	103.45	39.012	6.9825e-06	51.91	97.795	267.880	235.260	-77.308	-64.948	26.341	-78.213	-71.159	269.212	31.476	-73.105	-69.084	-66.725	-62.032	233.098	-64.712	-8191	255	
3270.293	1	1	0	0	0.10501	0.13356	0.17434	0.20029	0.14193	0.09419	0.13795	0.04139	0.17078	0.055915	0.18325	0.16057	0.15103	0.09416	0.085961	0.20399	-3.3563	-3.5854	-4.0792	-3.9562	-3.7	-4.2021	-3.7292	-3.9875	-4.0542	-3.5	-4.2	-4.0083	-3.6521	-4.1229	-3.8417	-4.0437	-57.364	131.405	117.638	216.581	114.416	59.777	256.191	-0.212	-77.723	251.262	201.992	201.190	155.211	233.982	130.406	257.069	0.00014131	0.00073087	0.0002198	548.77	5.776e-06	6.0234e-06	592.77	192.46	5.9007e-06	1.4233e-05	219.69	88.556	72.466	32.118	6.5598e-06	43.389	0.00069676	0.00064971	0.0001793	784.17	7.6161e-06	7.1598e-06	782.24	259.51	7.7636e-06	7.115e-06	311.88	118.13	103.73	38.542	7.261e-06	52.463	-1.633	-36.857	103.458	-76.842	69.684	24.127	-78.457	-70.771	-79.201	8.581	-72.986	-68.868	-66.334	-61.700	217.482	-64.853	-8191	255	
3270.389	1	1	0	0	0.043495	0.16258	0.1296	0.20656	0.022226	0.12194	0.060312	0.038885	0.23218	0.14401	0.3072	0.20196	0.17746	0.073737	0.17078	0.2076	-3.8083	-3.6562	-3.9708	-4.0354	-3.6813	-4.1333	-3.8875	-3.9562	-4.2396	-3.6458	-4.0917	-3.8979	-3.6521	-4.2063	-3.8187	-3.8688	-62.636	71.857	88.247	155.227	181.297	184.208	222.830	61.049	210.603	150.067	241.994	147.982	-79.144	-49.092	10.194	109.910	0.00010556	0.00091751	0.00014765	548.93	7.4492e-06	6.4803e-06	594.46	193.18	5.8991e-06	1.9607e-06	221.59	89.764	73.15	31.954	1.879e-06	43.133	0.00070129	0.00062597	0.00018575	784.96	7.4109e-06	6.8071e-06	789.41	257.75	7.5287e-06	6.8254e-06	316.74	119.27	103.25	38.806	7.7891e-06	53.573	78.526	-8.910	149.514	-77.715	21.504	40.586	-78.554	-71.297	-7.938	47.677	-73.321	-68.721	-66.400	-61.859	255.062	-65.089	-8191	255	
3270.508	1	1	0	0	0.18515	0.18453	0.1487	0.11322	0.10194	0.20652	0.18395	0.11652	0.12254	0.20805	0.061382	0.24884	0.2219	0.062635	0.12137	0.16345	-3.7354	-3.6521	-3.9958	-4.0667	-3.4813	-4.0437	-3.7708	-3.8375	-4.1312	-3.7062	-4.0354	-3.9542	-3.5667	-3.9729	-3.8438	-3.75	-72.722	216.316	-35.008	195.641	44.619	131.337	162.883	-13.879	-48.671	173.915	60.366	-81.145	251.469	175.532	-75.758	165.147	0.00088159	0.00042712	0.0002119	547.54	1.1536e-05	7.834e-06	595.39	193.03	5.8039e-06	5.1021e-06	221.71	88.217	72.379	31.309	3.5994e-06	42.309	0.00072771	0.00066768	0.00020651	819.85	7.7968e-06	7.5113e-06	825.47	266.4	7.7628e-06	7.3521e-06	326.9	121.21	102.4	39.766	8.3252e-06	54.376	196.065	107.506	133.438	-77.390	-4.116	244.238	-78.813	-71.091	5.899	140.336	-73.030	-68.708	-66.682	-61.608	245.798	-65.285	-8191	255	
3270.604	1	1	0	0	0.068519	0.064253	0.22752	0.063316	0.1181	0.055888	0.046659	0.077798	0.11355	0.23719	0.38697	0.24835	0.20197	0.10933	0.2892	0.25862	-3.8479	-3.5042	-4.025	-4.175	-3.4771	-4.0083	-3.9271	-3.8125	-4.2396	-3.7396	-3.925	-4.1438	-3.6583	-4.1458	-3.9771	-3.6146	-31.289	-18.642	-34.928	-69.550	77.300	0.397	-83.087	55.218	135.088	160.102	237.176	178.758	233.563	245.537	6.083	217.993	0.00079966	0.00032391	0.00010885	548.79	4.4263e-06	7.7607e-06	594.29	191.74	4.7283e-06	5.5776e-06	219.84	87.215	71.497	31.092	2.693e-06	42.636	0.00073393	0.00072913	0.00022056	845.19	7.8325e-06	8.1341e-06	841.31	267.7	7.5291e-06	7.6039e-06	323.44	119.03	97.828	39.304	7.8495e-06	52.062	222.719	73.975	23.898	-77.071	1.895	146.512	-78.496	-71.689	0.441	175.674	-73.646	-68.184	-67.032	-61.875	-36.680	-64.814	-8191	255	
3270.701	1	1	0	0	0.032919	0.16753	0.1468	0.091829	0.081453	0.17466	0.19529	0.2495	0.1076	0.20388	0.067747	0.18568	0.22016	0.19794	0.1091	0.22018	-3.8187	-3.8646	-3.8583	-4.0521	-3.6104	-3.9667	-4.0958	-3.7792	-4.2708	-3.725	-3.8229	-4.1438	-3.5729	-4.0958	-4.0229	-3.6833	242.680	-57.179	120.617	218.213	-68.473	141.090	174.580	269.914	-24.378	229.787	104.772	166.019	265.504	270.194	26.283	197.044	0.00039185	0.0008592	0.00011465	552.25	7.8156e-06	5.1569e-06	595.83	192.27	4.8924e-06	4.2626e-06	221.05	88.174	71.594	31.264	1.3918e-06	42.835	0.00066287	0.00069999	0.00020668	816.44	7.3326e-06	8.1778e-06	842.23	265.41	7.6656e-06	8.0883e-06	330.4	119.17	99.403	40.199	8.0893e-06	51.385	117.745	162.876	-79.199	-76.875	-15.805	201.468	-78.619	-71.000	200.432	171.036	-73.578	-68.879	-66.399	-62.002	53.824	-64.769	-8191	255	
3270.797	1	1	0	0	0.02307	0.22897	0.21703	0.17394	0.071162	0.030732	0.16855	0.31051	0.12792	0.14726	0.1886	0.11252	0.14985	0.15997	0.11308	0.18582	-3.7896	-3.825	-3.7313	-4.2104	-3.8104	-3.9292	-4	-3.6396	-4.2292	-3.7188	-3.8	-4.2271	-3.7125	-4.0271	-4.0813	-3.7979	38.425	-69.902	188.481	236.022	74.900	239.034	242.761	113.066	128.062	262.181	63.273	-25.942	210.497	199.218	148.296	-44.704	0.00042932	0.00016166	0.00018214	549.82	1.9605e-06	1.9326e-06	597.37	193.83	6.9695e-06	4.7578e-06	221.36	88.452	71.153	31.456	1.8243e-06	43.181	0.00067431	0.00071006	0.00020289	790.37	7.2782e-06	8.0623e-06	837.93	258.1	7.9051e-06	8.3179e-06	335.33	119.1	103.92	41.483	8.6129e-06	51.813	77.863	174.611	120.848	-77.133	121.724	94.368	-78.536	-71.368	210.168	47.002	-72.822	-68.759	-66.268	-62.083	237.250	-64.970	-8191	255	
3270.893	1	1	0	0	0.053262	0.14759	0.15217	0.19066	0.22735	0.050126	0.14239	0.12744	0.1365	0.080279	0.25913	0.14096	0.28727	0.16438	0.075574	0.12284	-3.7708	-3.8354	-3.6854	-4.1312	-3.7917	-3.8563	-4.1104	-3.6125	-3.9583	-4.0917	-3.7333	-4.1042	-3.8812	-3.9375	-4.1479	-3.6229	84.064	174.188	263.795	1.061	23.445	2.319	39.822	178.356	129.903	97.790	163.660	215.525	-85.343	-14.745	4.875	124.326	0.0011607	4.3805e-05	0.00023225	547.32	2.8255e-06	4.1508e-06	599.41	191.69	8.2595e-06	7.7817e-06	223.66	88.598	71.262	31.667	3.0867e-06	42.893	0.00074378	0.00075923	0.00021116	792.08	7.8102e-06	8.2445e-06	837.69	253.29	8.0328e-06	8.1834e-06	327.13	116.79	104.67	41.29	8.3547e-06	51.387	69.362	-75.511	260.193	-77.544	175.076	91.042	-78.565	-71.265	162.934	116.617	-73.612	-68.779	-66.473	-61.790	-37.143	-65.314	-8191	255	
3270.989	1	1	0	0	0.21721	0.064946	0.23432	0.079877	0.050288	0.16089	0.15085	0.25837	0.13059	0.043866	0.17289	0.083795	0.065725	0.16742	0.046368	0.20156	-3.6813	-3.9354	-3.5833	-4.1937	-3.7042	-3.6625	-4.2896	-3.7771	-3.95	-3.9375	-3.7021	-4.0563	-3.8167	-3.7812	-4.1104	-3.7271	118.646	114.565	-50.527	150.726	250.024	161.951	137.495	-54.456	123.820	66.496	102.946	151.693	233.519	99.106	235.977	99.056	0.00087359	0.00051373	7.2537e-05	549.17	8.2858e-06	3.3319e-06	599.56	189.59	5.0836e-06	2.501e-06	221.04	86.767	71.152	31.38	7.1282e-06	42.131	0.00076557	0.00077781	0.00020885	800.81	8.2594e-06	8.5179e-06	833.97	256.02	8.2398e-06	8.1696e-06	312.9	114.97	102.95	40.113	7.6158e-06	50.597	34.455	86.469	-66.062	-77.373	153.131	111.209	-78.458	-71.159	236.037	183.023	-72.962	-68.721	-66.326	-61.761	-0.775	-65.288	-8191	255	
3271.085	1	1	0	0	0.23776	0.18032	0.073425	0.14674	0.10255	0.23826	0.15663	0.31198	0.16399	0.032424	0.0817	0.11809	0.1481	0.28126	0.12624	0.047069	-3.5729	-4.0333	-3.6063	-4.1854	-3.7687	-3.6583	-4.1208	-3.7687	-3.8875	-4.1021	-3.5104	-4.2292	-3.9813	-3.6417	-4.2167	-3.7396	41.544	-41.004	-23.706	-45.898	232.772	-40.975	-70.245	117.126	-60.454	43.332	114.675	210.440	258.927	-39.761	127.279	-14.310	0.00037503	0.00038477	0.00023425	540.33	7.844e-06	5.7945e-06	603.34	190.36	5.2966e-06	5.8023e-06	221.68	86.375	71.178	31.243	4.7558e-06	42.154	0.00074584	0.00076235	0.00019739	817.6	8.5983e-06	8.9186e-06	842.83	269.27	9.0416e-06	9.0619e-06	323.09	122.87	109.04	41.381	7.8813e-06	52.647	63.510	72.234	-61.289	-77.328	242.465	-60.886	-78.468	-71.596	-79.651	-31.204	-73.239	-68.752	-67.005	-62.027	34.834	-64.887	-8191	255	
3271.181	1	1	0	0	0.13394	0.032532	0.076625	0.1152	0.071849	0.095527	0.20873	0.16379	0.24817	0.10588	0.20229	0.10023	0.10381	0.068693	0.24074	0.15528	-3.5	-4.0979	-3.6312	-4.1188	-3.7917	-3.5625	-4.1833	-3.8583	-3.85	-3.95	-3.6479	-4.0125	-4.0167	-3.6083	-3.9708	-3.9333	103.412	-53.087	26.490	-78.409	232.067	4.163	218.466	266.171	-82.457	-72.448	-57.329	104.572	-60.733	182.226	86.102	252.970	0.00068649	0.00074875	0.00010892	543.76	5.6799e-06	9.5264e-06	594.64	191.77	5.8458e-06	6.4765e-06	220.92	86.325	71.182	31.522	1.3762e-06	42.294	0.00077213	0.00076565	0.00019052	823.74	8.4269e-06	8.3798e-06	821.42	268.74	8.7696e-06	8.605e-06	319.28	123.76	109.32	40.623	7.9314e-06	53.544	89.073	17.075	62.137	-77.022	28.587	-43.309	-78.479	-71.560	201.221	-15.534	-73.660	-68.913	-66.418	-62.053	183.989	-64.640	-8191	255	
3271.300	1	1	0	0	0.11832	0.32189	0.21509	0.084668	0.19952	0.13326	0.20044	0.25013	0.13421	0.019716	0.035326	0.33485	0.13343	0.096921	0.12528	0.11315	-3.3292	-4.1208	-3.65	-3.8417	-4.0958	-3.6042	-4.2354	-3.8937	-3.7729	-4.2104	-3.7	-3.9229	-4.0104	-3.5583	-3.9417	-4.0021	79.407	168.671	47.150	164.882	85.581	121.850	207.881	168.878	243.113	-27.465	-71.189	-84.570	-39.244	118.743	170.079	156.337	0.00038501	0.00057559	5.3728e-05	549.04	5.9128e-07	5.6274e-06	593.6	191.51	1.0959e-06	1.0782e-05	219.47	88.216	72.265	31.754	5.1084e-06	43.056	0.00077465	0.00073628	0.00019076	823.86	8.2728e-06	7.7617e-06	820.64	267.33	8.467e-06	7.9492e-06	319.71	123.83	109.38	39.904	8.276e-06	54.612	124.120	-51.299	74.806	-77.433	59.599	-5.285	-78.527	-71.395	258.424	14.632	-73.268	-68.951	-66.430	-61.915	147.346	-64.924	-8191	255	
3271.396	1	1	0	0	0.1369	0.12222	0.059755	0.11321	0.047273	0.11165	0.081951	0.12754	0.085194	0.22885	0.023617	0.11416	0.25918	0.13799	0.14361	0.2037	-3.2521	-4.2375	-3.5833	-3.9479	-4.0604	-3.825	-4.1354	-3.9062	-3.6333	-4.2354	-3.7104	-3.8625	-4.1521	-3.6146	-4.1	-4.05	-83.467	201.339	1.801	224.880	260.137	-33.594	141.720	99.226	-63.832	198.898	11.067	135.609	-5.250	17.836	161.245	214.665	0.00014759	0.0010085	0.0001216	550.98	3.0631e-06	3.5781e-06	595.44	192.17	2.1079e-06	3.0554e-06	221.32	88.887	72.868	31.591	1.1378e-06	42.96	0.00078775	0.0007274	0.00020553	845.13	8.5808e-06	7.5802e-06	838.22	268.07	8.2061e-06	7.5414e-06	322.6	122.36	107.23	39.114	8.4107e-06	54.847	207.010	-42.865	122.017	-77.191	-87.858	1.990	-78.473	-71.384	2.942	157.442	-73.405	-68.590	-66.714	-61.764	188.346	-64.678	-8191	255	
3271.470	1	1	0	0	0.12908	0.066112	0.14182	0.10812	0.10957	0.2807	0.06654	0.22869	0.12624	0.19513	0.19652	0.058293	0.1155	0.071922	0.25075	0.122	-3.3	-4.2562	-3.7708	-3.7667	-4.1042	-3.6708	-4.0958	-3.9646	-3.6646	-4.05	-3.9208	-3.8063	-4.1521	-3.8438	-3.9417	-4.1687	79.352	-37.836	53.406	173.313	-86.047	114.374	-25.026	253.825	134.732	158.132	148.758	221.408	-81.603	235.328	261.446	232.004	0.00070722	0.00046097	0.00015064	551.71	1.0359e-05	9.334e-07	601.02	191.55	1.8804e-05	7.6102e-06	220.78	88.093	72.068	31.382	5.5206e-06	42.42	0.00077107	0.00073214	0.00021638	855.95	8.6686e-06	7.9655e-06	870.62	276.19	8.3094e-06	7.9861e-06	330.97	122.58	104.16	38.905	8.2621e-06	53.547	228.905	120.057	127.705	-77.083	-10.661	197.733	-78.408	-71.524	20.517	176.562	-73.793	-68.695	-66.488	-61.703	90.596	-64.801	-8191	255	
3271.589	1	1	0	0	0.087817	0.152	0.22001	0.19662	0.12191	0.27081	0.26386	0.242	0.37209	0.19324	0.078159	0.15285	0.29407	0.13999	0.21435	0.20889	-3.2958	-4.175	-3.8	-3.6896	-4.175	-3.8042	-4.0667	-4.1875	-3.7104	-4.1188	-4.0375	-3.7521	-4.2937	-3.6813	-3.8271	-4.1958	219.192	-19.757	81.764	25.647	224.332	133.226	223.934	147.934	107.680	175.464	100.703	-56.658	183.164	225.377	83.179	209.849	0.00070523	0.00065776	5.4565e-05	551.68	8.2153e-06	2.2694e-06	601.46	191.85	6.0262e-06	4.8912e-06	219.41	87.867	71.619	31.104	3.3062e-06	42.338	0.0007017	0.00071715	0.00021006	839.19	8.0483e-06	8.0458e-06	864.09	275.73	7.9191e-06	8.3684e-06	334.1	122.67	102.25	39.686	8.2849e-06	53.181	213.514	121.745	52.825	-77.588	2.428	202.651	-78.865	-71.520	4.193	206.677	-73.853	-68.514	-66.554	-61.781	136.689	-64.761	-8191	255	
3271.685	1	1	0	0	0.10258	0.23112	0.23511	0.11617	0.09108	0.088306	0.098431	0.095943	0.025777	0.17425	0.057876	0.12022	0.14448	0.10146	0.15179	0.20995	-3.2875	-3.8771	-3.9813	-3.8812	-4.0813	-3.7396	-3.9521	-4.2604	-3.725	-4.0354	-4.1021	-3.6917	-4.1479	-3.9708	-3.8	-4.1937	-57.905	-30.256	48.162	13.000	-84.737	103.440	216.039	14.358	222.871	-73.330	235.168	132.002	239.590	121.802	-25.083	-11.019	0.00027675	0.00058444	0.00022208	552.06	2.0134e-06	4.5669e-06	597.27	194.14	4.177e-06	6.4827e-06	220.97	88	71.429	31.186	3.2102e-06	42.602	0.00066231	0.0007208	0.00020323	810.97	7.4093e-06	7.8152e-06	842.5	267.41	7.5011e-06	8.3646e-06	334.94	121	103.56	40.816	8.6945e-06	53.664	-1.062	175.052	135.273	-77.412	48.097	184.941	-78.731	-71.259	246.867	192.694	-73.274	-68.679	-66.803	-61.790	88.050	-65.125	-8191	255	
3271.781	1	1	0	0	0.19849	0.11529	0.19937	0.39031	0.084244	0.27538	0.15943	0.33944	0.26136	0.11831	0.20858	0.11854	0.13533	0.17188	0.10886	0.27384	-3.2687	-3.8604	-3.8812	-3.6354	-4.1562	-3.85	-3.9875	-4.2458	-3.5938	-3.8458	-4.0563	-3.6729	-4.2604	-4.0083	-3.5646	-4.1375	-76.161	149.646	214.665	248.163	34.956	126.761	166.214	211.213	140.198	184.052	98.813	24.111	-3.462	-28.124	24.487	210.556	0.00056922	0.0006933	0.00010012	552.98	1.0346e-05	2.6997e-06	602.21	193.9	7.1536e-06	3.9622e-06	222.7	88.177	71.364	31.335	1.0773e-06	42.951	0.0007083	0.000787	0.00021977	821.18	8.0121e-06	8.4016e-06	859.53	265.78	7.7091e-06	8.4233e-06	334.17	117.31	104.14	40.72	8.4993e-06	52.474	89.051	216.419	214.372	-76.858	144.311	131.746	-78.299	-71.186	227.489	-28.014	-73.744	-69.062	-66.433	-61.627	125.409	-64.856	-8191	255	
3271.877	1	1	0	0	0.11985	0.20897	0.30953	0.094848	0.041466	0.11959	0.27887	0.14878	0.18915	0.072845	0.049966	0.29032	0.11017	0.26563	0.044582	0.050043	-3.3854	-3.8917	-4.1583	-3.525	-3.9854	-3.8646	-3.8292	-4.1062	-3.5396	-3.7917	-4.1646	-3.5896	-4.0771	-3.7687	-3.5854	-4.0563	248.893	15.128	253.418	88.616	-71.220	188.692	166.351	265.507	159.432	-18.987	84.040	267.696	-49.216	102.182	248.457	263.661	0.0010868	0.00033089	0.00016784	555.19	1.086e-05	3.8103e-06	605.99	193.1	6.7511e-06	4.6089e-06	223.29	88.349	71.278	31.435	8.8635e-06	42.584	0.00072248	0.00078593	0.00021989	803.47	8.3375e-06	8.5332e-06	859.36	262.45	8.0868e-06	8.5268e-06	334.47	115.9	106.45	41.019	8.2908e-06	51.738	83.712	-19.541	256.317	-77.248	203.584	-55.888	-78.292	-71.861	192.891	132.287	-73.765	-68.843	-66.458	-62.006	43.428	-65.020	-8191	255	
3271.998	1	1	0	0	0.043026	0.19147	0.11006	0.17533	0.10681	0.22182	0.11878	0.14794	0.054373	0.12705	0.093871	0.16557	0.27574	0.10724	0.1828	0.044	-3.3354	-3.6396	-4.1417	-3.55	-3.8937	-4.0667	-3.7229	-4.075	-3.8021	-3.7125	-4.1292	-3.5583	-4.1083	-4.0396	-3.4854	-4.0271	184.197	266.014	193.611	74.553	189.782	129.391	-67.760	249.865	85.577	171.536	-58.280	-83.940	179.855	58.457	-36.034	227.719	0.00082072	0.00028135	0.00020838	548.17	8.7652e-06	1.7744e-06	601.69	190.83	4.2119e-06	3.7663e-06	221.34	86.068	71.095	31.135	5.6915e-06	41.735	0.00073825	0.00077411	0.00021205	790.98	8.4492e-06	8.5214e-06	840.05	261.95	8.3537e-06	8.6475e-06	329.15	116.72	108.46	41.449	8.0572e-06	52.25	77.263	121.136	-63.543	-77.331	160.217	132.470	-78.301	-71.489	131.334	-57.942	-73.393	-69.021	-66.844	-61.798	10.375	-65.276	-8191	255	
3272.094	1	1	0	0	0.23301	0.19333	0.023941	0.12954	0.15084	0.14469	0.19632	0.13251	0.17318	0.3528	0.18117	0.082582	0.16567	0.1103	0.14585	0.2286	-3.3396	-3.5458	-4.2167	-3.5708	-3.8042	-3.9771	-3.7417	-4.0583	-3.7979	-3.6125	-4.0792	-3.7417	-4.1167	-4.0771	-3.6708	-4.0542	-76.083	98.375	65.150	174.464	133.434	95.142	169.106	-45.015	119.223	64.092	-49.099	-20.675	153.725	245.305	217.946	-51.480	0.00011877	0.00084517	0.0002278	547.36	3.5691e-06	3.2261e-06	602.01	190.81	6.8897e-06	8.655e-07	221.19	86.561	70.859	31.052	5.02e-06	41.688	0.00076157	0.00077869	0.00020301	800.48	8.5198e-06	8.6002e-06	821.24	265.61	8.4624e-06	8.6056e-06	320.63	118.46	108.31	41.292	7.6866e-06	53.29	211.255	-54.038	-24.428	-77.165	115.765	-84.512	-78.351	-71.397	125.884	63.920	-73.253	-69.346	-66.780	-62.148	44.218	-64.882	-8191	255	
3272.190	1	1	0	0	0.19948	0.14768	0.24697	0.11163	0.10441	0.070192	0.05709	0.099875	0.031875	0.16249	0.27454	0.14103	0.1649	0.040957	0.21344	0.21537	-3.5187	-3.7812	-4.1396	-3.7875	-3.8	-4.1687	-3.7646	-4.1167	-4.0312	-3.775	-4.1542	-3.9021	-3.9292	-4.1521	-3.7271	-4.0729	57.642	13.997	39.175	241.339	208.596	-9.271	-6.064	80.110	22.277	176.453	195.101	-75.369	123.679	245.400	74.237	84.348	0.00046614	3.7611e-05	8.1037e-05	545.83	7.3131e-06	8.7157e-06	598.86	190.89	3.7236e-06	9.6186e-06	219.8	85.845	70.95	31.421	1.2095e-06	42.251	0.00076985	0.00077126	0.0001975	816.1	8.5476e-06	8.4977e-06	813.38	270.18	8.6082e-06	8.4608e-06	322.02	121.91	110.34	41.499	7.978e-06	55.225	87.233	32.719	244.634	-77.298	-0.538	-28.450	-78.310	-71.503	199.607	-15.523	-73.472	-68.723	-66.388	-61.804	-1.065	-65.056	-8191	255	
3272.286	1	1	0	0	0.068477	0.12285	0.11196	0.064708	0.09844	0.22528	0.099986	0.047948	0.071327	0.11102	0.20011	0.035406	0.085246	0.13551	0.3039	0.095359	-3.5667	-3.5875	-4.2292	-3.8479	-3.8646	-4.0958	-3.7562	-3.9604	-4.1708	-3.6375	-4.0687	-3.85	-3.7292	-4.1646	-3.8312	-3.8604	18.173	11.539	32.791	213.722	24.466	83.265	257.553	180.243	136.795	244.521	246.532	-22.691	-35.529	175.383	-88.191	248.495	0.00095971	0.00078978	0.00010617	548.91	2.1124e-06	9.6676e-06	600.75	193.83	1.8853e-06	7.5489e-06	221.44	87.064	71.84	31.634	5.182e-06	42.743	0.00082323	0.00079198	0.00021515	861.9	9.3117e-06	8.8685e-06	852.76	283.75	9.3409e-06	8.638e-06	339.14	126.78	113.05	41.37	8.3812e-06	56.04	160.404	-35.678	112.370	-77.186	87.992	-13.987	-78.898	-71.426	122.335	61.266	-73.036	-68.709	-67.284	-62.246	147.229	-65.048	-8191	255	
3272.382	1	1	0	0	0.09775	0.25895	0.049302	0.1453	0.11871	0.058195	0.12609	0.27834	0.090289	0.040996	0.059209	0.1129	0.090654	0.030902	0.22328	0.26327	-3.6104	-3.5375	-4.0083	-3.9375	-3.7562	-4.1792	-4.0083	-3.9625	-4.1271	-3.6667	-4.0458	-4	-3.6417	-4.0938	-3.8292	-4.0333	212.406	-16.269	64.588	19.790	162.625	-20.141	42.060	165.393	241.548	241.180	26.414	172.128	36.158	0.373	0.979	150.445	0.00054583	0.00092851	0.00024249	551	5.7029e-06	8.8008e-06	601.76	192.99	7.9581e-06	4.6007e-06	223.17	87.949	71.973	31.275	1.2837e-05	42.612	0.00082625	0.0007436	0.00021732	853.32	8.8893e-06	8.1451e-06	846.47	275.81	8.7392e-06	7.7704e-06	334.08	123.73	108.53	39.912	8.3323e-06	55.145	-36.589	-20.018	133.255	-77.295	127.238	-9.777	-78.666	-71.293	42.434	-10.320	-73.617	-68.848	-66.143	-61.874	199.517	-64.814	-8191	255	
3272.477	1	1	0	0	0.071981	0.10513	0.056445	0.31959	0.26206	0.10321	0.052061	0.14669	0.21838	0.11037	0.069001	0.032581	0.26766	0.1589	0.11604	0.10303	-3.7479	-3.5521	-4.1062	-3.9667	-3.6125	-4.1479	-3.8229	-3.9292	-4.1292	-3.7188	-4.0312	-4.0542	-3.6375	-4.1875	-3.7458	-3.7938	135.288	122.666	216.577	215.691	-65.562	93.524	-8.310	-79.598	-11.879	177.022	220.610	71.743	217.505	-74.903	119.119	223.909	0.00043542	0.00042916	0.0002304	549.44	1.3734e-05	3.9595e-06	595.12	191.97	9.2007e-06	7.5359e-06	221.19	86.991	72.238	31.039	6.4504e-06	41.799	0.00079245	0.00071672	0.00022162	854.94	8.6308e-06	8.2296e-06	864.14	280.53	8.8416e-06	8.1273e-06	345.11	126.56	108.29	40.836	8.8356e-06	55.665	186.271	-84.942	54.626	-76.920	-27.443	227.757	-78.386	-71.793	-11.757	126.981	-73.399	-68.826	-66.466	-61.574	159.652	-64.741	-8191	255	
3272.597	1	1	0	0	0.227	0.14163	0.20882	0.12514	0.27614	0.13569	0.023954	0.10995	0.094726	0.10072	0.14915	0.13948	0.14016	0.23918	0.11825	0.095229	-3.8083	-3.7167	-3.9875	-3.9437	-3.6604	-4.1521	-3.9625	-3.7875	-4.2146	-3.6375	-3.8167	-4.0938	-3.6229	-4.0167	-3.9979	-3.7333	-70.271	53.483	12.146	-71.411	28.981	-12.796	194.192	229.849	77.815	81.825	23.761	169.850	-88.400	-89.259	230.975	109.751	0.00065154	0.00064795	0.00015252	548.84	1.3971e-05	8.2976e-06	601.67	193.01	9.6584e-06	1.052e-05	219.64	86.158	71.758	31.052	3.0468e-06	42.076	0.00078303	0.0007476	0.00022912	866.44	8.3816e-06	8.6015e-06	877.26	282.49	8.6431e-06	8.6306e-06	352.61	129.12	107.55	42.207	9.2504e-06	56.374	242.175	121.029	192.585	-76.859	-10.105	163.352	-78.565	-71.302	12.306	171.293	-73.691	-69.144	-67.031	-61.922	109.141	-64.876	-8191	255	
3272.694	1	1	0	0	0.33788	0.10176	0.080818	0.062286	0.26934	0.16178	0.094184	0.040126	0.064708	0.12754	0.26592	0.21507	0.12056	0.27293	0.23006	0.1624	-4.05	-3.8229	-3.9813	-4.0687	-3.6521	-4.1188	-3.9271	-3.7687	-4.0792	-3.7188	-3.9708	-4.1167	-3.7313	-4.1292	-3.9396	-3.5062	239.781	-87.335	99.624	186.535	187.480	247.666	138.000	209.443	-51.247	6.550	-83.202	145.972	233.562	184.377	262.789	145.501	0.00035603	0.00056115	9.8482e-05	553.33	5.1323e-06	8.4358e-06	598.47	193.51	3.7712e-06	4.86e-06	220.54	87.738	71.138	31.154	1.5095e-06	42.362	0.00077461	0.0007926	0.00023188	864.66	8.0073e-06	8.7174e-06	865.69	272.87	7.9612e-06	8.302e-06	337.87	122.34	101.69	41.208	8.6212e-06	53.34	104.469	98.023	31.347	-77.454	-31.092	215.359	-78.593	-71.541	-36.568	176.328	-73.176	-68.954	-66.946	-62.170	223.111	-65.150	-8191	255	
3272.765	1	1	0	0	0.15471	0.18901	0.035667	0.11661	0.25155	0.36581	0.026048	0.19049	0.21544	0.18121	0.016628	0.1743	0.26556	0.12208	0.27284	0.14245	-3.8458	-3.7833	-3.7792	-4.1521	-3.675	-3.9667	-4.0646	-3.8021	-4.0458	-3.8563	-3.7625	-4.3187	-3.7125	-4.0312	-4.0437	-3.7521	93.756	137.243	244.293	204.194	6.314	196.416	81.690	114.404	97.440	28.758	164.428	249.059	233.197	-76.249	43.932	180.117	0.0010579	0.00016404	6.0481e-05	558.78	5.7441e-06	1.9661e-06	600.56	194.17	6.1636e-06	5.8571e-06	223.37	87.984	71.081	31.594	3.7728e-06	42.946	0.00071564	0.00075105	0.00021437	818.75	7.4778e-06	8.2816e-06	845.11	260.53	7.6428e-06	7.9797e-06	328.02	116.96	100.45	40.495	8.2044e-06	51.201	49.959	-47.153	134.708	-77.301	145.405	-41.130	-78.580	-71.252	176.546	211.584	-73.198	-68.591	-66.647	-61.819	168.151	-65.052	-8191	255	
3272.861	1	1	0	0	0.063115	0.017997	0.18652	0.059725	0.20994	0.17032	0.082896	0.13671	0.10449	0.19651	0.046113	0.13518	0.15209	0.31448	0.12289	0.17072	-3.8125	-3.9229	-3.7521	-4.2792	-3.7271	-3.8292	-4.1458	-3.625	-3.9917	-3.9146	-3.9146	-4.2208	-3.9437	-3.8542	-4.0271	-3.7938	235.199	121.981	223.812	116.801	19.749	59.765	-32.262	239.552	251.865	126.146	106.669	83.685	115.874	248.134	53.105	207.951	0.00082869	0.00037552	6.5189e-05	554.07	5.4022e-06	3.0268e-06	603.64	193.75	3.437e-06	5.204e-06	223.33	88.029	71.051	31.541	1.0393e-06	42.366	0.00070846	0.00074226	0.00021108	799.23	7.7289e-06	8.2899e-06	848.03	256.3	7.998e-06	8.1723e-06	328.81	116.1	103.27	40.749	8.2562e-06	50.628	62.263	-72.507	91.245	-77.260	145.760	226.346	-78.412	-71.239	212.630	200.414	-73.228	-69.035	-66.449	-61.933	-29.470	-65.169	-8191	255	
3272.982	1	1	0	0	0.093613	0.13667	0.14028	0.12054	0.29697	0.18104	0.11653	0.15545	0.12587	0.12496	0.10493	0.14736	0.039664	0.22242	0.079425	0.24555	-3.7687	-3.925	-3.6896	-4.1687	-3.5438	-3.8396	-4.4083	-3.7625	-3.9458	-3.9396	-3.7125	-3.9917	-3.8812	-3.6937	-4.1646	-3.7146	221.439	-74.580	179.748	221.267	181.972	106.581	168.053	-22.912	0.660	220.068	143.858	19.592	184.475	253.116	252.221	234.543	0.00067652	0.00045323	0.00024169	548.19	2.7038e-06	2.9032e-06	603.03	190.55	2.9755e-06	5.3372e-06	222.21	86.753	71.328	31.127	7.1458e-06	41.622	0.00073862	0.00074679	0.00020292	784.17	7.7701e-06	8.0838e-06	825.15	250.84	7.921e-06	7.9893e-06	316.16	114.29	103.36	40.318	7.8833e-06	50.394	84.405	100.231	-85.870	-77.277	231.440	-87.809	-78.322	-71.174	185.348	-71.286	-73.875	-69.464	-66.734	-61.670	-9.869	-65.199	-8191	255	
3273.078	1	1	0	0	0.13128	0.17151	0.1776	0.088348	0.21802	0.26179	0.19276	0.077892	0.063123	0.16102	0.17513	0.2319	0.034871	0.42406	0.1553	0.18649	-3.575	-3.8896	-3.6458	-4.1833	-3.8792	-3.9396	-4.2312	-3.6917	-3.85	-3.9729	-3.7146	-4.1562	-3.7792	-3.7875	-4.1396	-3.7771	213.651	14.058	259.434	239.395	182.145	92.349	270.802	52.954	29.877	-27.356	208.546	212.946	95.270	159.124	13.994	34.720	9.8963e-05	0.00039147	0.00029198	547.25	7.4173e-07	4.1153e-06	604.13	191.03	1.3545e-06	3.0716e-06	221.07	86.627	71.166	31.195	5.2883e-06	41.919	0.00075297	0.00076034	0.00019692	802	8.1913e-06	8.3943e-06	823.89	257.82	8.23e-06	8.2076e-06	308.67	115.82	102.53	39.482	7.1689e-06	49.856	220.697	156.482	-67.892	-77.186	223.522	-74.595	-78.346	-71.207	141.876	41.747	-73.487	-69.146	-66.793	-61.794	257.709	-65.002	-8191	255	
3273.174	1	1	0	0	0.084126	0.060831	0.11585	0.086495	0.1683	0.11908	0.066343	0.06684	0.031423	0.012565	0.21212	0.18956	0.1011	0.1348	0.023735	0.058611	-3.5042	-4.0083	-3.6167	-4.0563	-3.9917	-3.6813	-4.2125	-3.9313	-3.9167	-4.0396	-3.5771	-4.05	-3.9167	-3.7271	-4.0625	-3.8812	1.454	176.052	180.256	259.777	141.033	167.718	67.416	-34.307	-30.792	15.464	38.229	-80.464	173.616	-43.020	226.704	133.564	0.00025907	0.00026892	8.7761e-05	549.02	5.4348e-06	4.2155e-06	599.61	191.62	2.0491e-06	8.8316e-06	220.95	86.489	71.201	31.303	6.8851e-06	41.801	0.00070112	0.00070058	0.00017339	784.66	7.5991e-06	7.6623e-06	789.71	255.49	7.8989e-06	7.8509e-06	301.73	116.66	102.68	38.802	7.0701e-06	50.365	109.126	-31.651	-73.140	-77.250	108.642	29.476	-78.843	-71.241	24.676	-11.692	-73.373	-68.758	-66.801	-61.749	217.601	-65.136	-8191	255	
3273.270	1	1	0	0	0.24848	0.071493	0.31464	0.16752	0.02495	0.17847	0.2069	0.17884	0.27172	0.26012	0.070441	0.17935	0.17675	0.064143	0.009259	0.13082	-3.3	-3.9875	-3.6625	-3.9417	-3.9792	-3.6188	-4.2438	-3.7875	-3.7854	-4.1021	-3.675	-3.9	-3.9604	-3.5417	-4.0979	-4.1375	-39.893	16.608	144.397	-52.986	145.216	-18.550	117.061	-66.471	-30.473	258.037	174.457	171.978	-10.784	116.505	7.996	78.110	0.00065966	0.00056833	0.00016613	549.16	7.2239e-06	7.6574e-06	593.03	192.86	2.7853e-06	9.867e-06	221.92	87.273	71.818	31.437	5.7986e-06	42.476	0.0006931	0.00067109	0.00016913	781.88	7.3893e-06	6.9885e-06	775.51	252.25	7.4634e-06	7.1207e-06	298.49	115.96	102.46	38.019	7.3096e-06	51.701	89.914	3.218	107.229	-76.898	69.730	-13.949	-78.332	-71.557	258.027	5.421	-72.941	-68.976	-66.405	-62.116	171.872	-64.840	-8191	255	
3273.389	1	1	0	0	0.26659	0.20712	0.21749	0.039352	0.26405	0.11994	0.26949	0.2081	0.10521	0.099715	0.04126	0.072453	0.08394	0.17621	0.1344	0.048036	-3.4104	-3.9729	-3.6375	-4.025	-4.0146	-3.75	-4.2	-3.95	-3.7	-4.1271	-3.6979	-3.8063	-3.8812	-3.5938	-3.9479	-3.9229	-42.267	267.977	-31.609	111.306	163.247	190.870	175.003	261.595	-12.629	120.332	108.213	-7.043	188.534	180.077	253.401	230.096	0.00019375	0.00058298	0.00011577	550.24	2.2133e-06	7.2253e-06	597.13	191.9	3.4034e-06	9.0866e-06	221.06	88.191	72.337	31.516	3.2038e-06	42.604	0.00071322	0.00066464	0.0001826	800.8	7.7268e-06	6.8885e-06	795.23	254.51	7.3637e-06	6.7043e-06	300.15	114.73	100.33	36.987	7.4065e-06	51.598	137.817	-47.717	0.313	-77.260	-20.052	-30.620	-78.627	-71.430	76.946	-17.472	-73.381	-68.760	-66.616	-61.805	238.932	-65.107	-8191	255	
3273.463	1	1	0	0	0.2767	0.26355	0.045112	0.31378	0.33968	0.24775	0.27517	0.20638	0.23161	0.12613	0.061211	0.063421	0.084119	0.091898	0.074497	0.11633	-3.4271	-4.0479	-3.8146	-3.8917	-4.1729	-3.5646	-3.9583	-3.9417	-3.6958	-4.175	-3.7687	-3.6729	-4.1396	-3.75	-3.9125	-3.9229	116.303	207.460	173.792	-69.596	-15.591	-52.203	195.420	88.227	131.341	182.636	47.040	126.777	189.376	11.114	189.481	208.956	0.00037108	0.00030831	0.00016595	553.95	7.7098e-06	3.1781e-06	598.42	191.38	7.4038e-06	1.1e-05	218.26	87.114	71.671	31.223	3.6159e-06	42.05	0.00070718	0.00066432	0.00019663	823.73	8.1351e-06	7.3564e-06	837.87	266.05	7.8648e-06	7.3508e-06	316.1	117.71	100.7	37.339	7.6857e-06	51.517	154.901	-16.241	62.604	-77.139	-1.859	251.692	-78.787	-71.159	-11.279	130.431	-73.308	-68.683	-66.667	-61.906	139.889	-65.094	-8191	255	
3273.559	1	1	0	0	0.18807	0.069223	0.17197	0.23889	0.20285	0.22012	0.12168	0.046127	0.061075	0.10915	0.027412	0.13788	0.057959	0.16724	0.12474	0.095375	-3.3688	-4.0375	-3.6917	-3.5938	-3.8917	-3.6979	-3.9271	-4.0979	-3.5687	-4.1583	-3.8396	-3.725	-4.2521	-3.7729	-3.6646	-4.0979	253.411	96.669	169.125	218.429	-6.039	180.130	269.074	-10.942	-68.053	-12.930	-80.897	234.130	48.433	136.783	52.404	-5.989	0.00044442	0.00035849	6.4469e-05	547.23	7.2123e-06	7.0316e-06	601.3	192.39	5.5317e-06	5.497e-06	219.49	86.592	71.946	30.789	7.0179e-06	41.933	0.00066756	0.00066304	0.00019557	811.64	7.6088e-06	7.4078e-06	838.43	267.29	7.5486e-06	7.7357e-06	323.22	119.95	100.67	38.516	7.9635e-06	52.07	199.027	226.593	18.198	-76.971	-62.528	173.057	-78.640	-71.260	0.492	236.271	-73.692	-68.591	-66.667	-62.026	188.107	-65.119	-8191	255	
3273.678	1	1	0	0	0.068973	0.17792	0.16161	0.21694	0.13819	0.22611	0.35553	0.07414	0.23751	0.14879	0.10784	0.12141	0.17804	0.17975	0.20934	0.1117	-3.3375	-4.0167	-4.0312	-3.7	-4.0938	-3.7729	-3.9229	-4.1646	-3.5896	-4.2396	-3.9375	-3.7146	-4.0604	-3.8417	-3.8083	-4.1	224.078	-36.734	129.672	195.908	24.025	219.541	204.888	-8.986	-73.843	231.018	165.524	138.200	4.707	116.495	229.887	104.774	0.00014329	0.00066051	6.4985e-05	552.05	4.1591e-06	3.6699e-06	600.28	193.05	6.7887e-06	5.8793e-06	222.9	87.557	71.714	31.045	1.6477e-06	42.119	0.00064289	0.00069247	0.0001979	810.49	7.3343e-06	7.6504e-06	841.82	267.83	7.4155e-06	8.1795e-06	332.05	120.8	102.27	40.156	8.5085e-06	53.409	175.773	158.599	102.570	-77.255	-46.562	116.381	-78.486	-71.148	57.975	147.763	-73.372	-68.979	-66.581	-61.772	243.964	-65.037	-8191	255	
3273.774	1	1	0	0	0.16433	0.23301	0.11995	0.24842	0.20641	0.15604	0.045055	0.20847	0.11029	0.04245	0.15711	0.21939	0.071588	0.078157	0.070436	0.11108	-3.2396	-4.0458	-3.9917	-3.7667	-3.9729	-3.9938	-3.7438	-4.0687	-3.5583	-3.9917	-4.0792	-3.6667	-4.0479	-3.9625	-3.8438	-4.3167	-66.250	43.187	52.583	250.384	37.128	160.314	107.889	179.492	-54.893	10.378	192.726	257.774	258.249	131.972	129.009	-18.822	0.00050562	0.00020338	5.754e-05	555.37	6.7002e-06	8.4262e-06	605.14	194.62	2.5585e-06	4.2094e-06	222.69	88.875	72.022	31.238	6.3276e-06	42.705	0.00068696	0.00076187	0.0002125	816.18	7.6407e-06	8.0449e-06	847.84	264	7.4592e-06	8.2724e-06	332.6	118.64	104.12	40.866	8.6253e-06	53.077	104.693	265.011	224.418	-77.243	189.939	148.263	-78.357	-71.287	172.106	107.484	-73.430	-68.794	-66.285	-62.279	110.791	-64.864	-8191	255	
3273.870	1	1	0	0	0.2168	0.1678	0.36236	0.37508	0.1701	0.22799	0.13897	0.12408	0.32294	0.11548	0.21777	0.19482	0.12885	0.14214	0.27831	0.15161	-3.4667	-3.9	-4.075	-3.7917	-4.1708	-3.8187	-4.0437	-4.2312	-3.75	-3.9562	-4.0458	-3.7875	-3.9583	-3.9354	-3.5938	-4.1396	-76.952	74.865	138.726	268.873	-48.479	-32.372	250.996	-55.793	163.419	-86.549	180.903	103.202	-43.701	44.641	-73.578	210.196	0.00096417	0.00030781	0.00010118	561.76	1.0541e-05	2.4853e-06	608.82	195.8	9.1831e-06	7.1815e-06	226.01	88.978	72.978	31.622	7.5135e-06	42.674	0.00072187	0.00078727	0.00021884	806.78	8.0165e-06	8.1981e-06	848.7	258.32	7.5407e-06	8.0439e-06	327.68	114.55	104.18	40.443	8.1806e-06	51.334	54.192	264.784	8.430	-77.153	185.038	126.493	-78.501	-71.143	198.357	-16.880	-73.537	-68.934	-66.766	-61.677	32.841	-64.725	-8191	255	
3273.991	1	1	0	0	0.14506	0.074786	0.21014	0.10899	0.089819	0.093021	0.11951	0.17676	0.10085	0.19578	0.055242	0.12802	0.25684	0.16719	0.070327	0.25909	-3.3833	-3.8375	-4.1	-3.6167	-3.8917	-3.9813	-3.6479	-4.1833	-3.7729	-3.8208	-4.2146	-3.7229	-4.0104	-4.0354	-3.5542	-4.1458	-73.933	59.696	-58.897	254.638	101.711	139.334	81.623	222.688	225.635	-5.090	164.597	157.126	-87.185	-89.347	254.159	-77.154	0.00053872	0.00016405	0.0001794	552.85	5.9031e-06	2.8991e-06	612.58	193.3	8.7858e-06	1.3015e-06	223.94	86.919	71.76	31.057	9.6747e-06	41.8	0.00072259	0.00077122	0.00021495	798.62	8.4514e-06	8.6232e-06	859.6	264.46	8.4291e-06	8.8014e-06	335.83	117.63	109.32	41.542	8.3225e-06	52.347	141.351	170.197	-67.532	-76.872	163.715	147.358	-78.421	-71.519	200.888	238.010	-73.797	-69.096	-66.471	-61.934	1.241	-65.033	-8191	255	
3274.062	1	1	0	0	0.25786	0.10187	0.049489	0.10734	0.048391	0.12326	0.23689	0.096621	0.049378	0.13892	0.23305	0.18473	0.10293	0.29361	0.15626	0.28292	-3.5667	-3.7083	-4.0167	-3.7708	-3.8167	-3.9375	-3.6521	-4.0938	-3.6979	-3.8667	-4.1687	-3.725	-3.9792	-4.2104	-3.5917	-4.0875	202.966	49.901	-76.087	-23.323	212.360	-25.571	224.517	258.403	172.674	158.175	-79.301	-76.288	235.529	-34.872	197.469	217.455	0.00026306	0.00050245	0.00017952	548.46	4.5197e-06	1.9734e-06	611.63	191.65	5.0984e-06	7.5155e-06	223.25	86.019	71.856	31.117	6.2008e-06	41.134	0.00077818	0.00080803	0.00021399	816.89	8.886e-06	9.0384e-06	857.33	272.84	8.9682e-06	9.2132e-06	336.61	121.79	112.39	42.313	8.1451e-06	53.347	135.764	229.762	-50.602	-77.772	-45.088	168.810	-78.522	-70.996	237.725	33.144	-73.491	-68.805	-66.341	-62.160	-24.702	-65.225	-8191	255	
3274.158	1	1	0	0	0.18236	0.22872	0.036943	0.058313	0.22167	0.20853	0.25368	0.2072	0.16271	0.07677	0.066667	0.14462	0.16696	0.13086	0.20539	0.081318	-3.5021	-3.8417	-4.1417	-3.7833	-3.7583	-4.0729	-3.6146	-4.0646	-3.8479	-3.7417	-4.1271	-3.8375	-3.8854	-4.1604	-3.7229	-4.0854	-89.031	84.866	14.328	18.366	-67.520	73.207	-81.878	237.847	141.521	96.810	147.510	-60.092	20.793	253.412	-29.095	23.803	0.00077633	0.00024649	0.00010741	553.37	3.1202e-06	3.5989e-06	606.07	193.26	6.3367e-06	8.5824e-06	221.7	86.711	71.481	31.114	7.0175e-08	41.532	0.00078548	0.00079138	0.00019986	816.16	8.4844e-06	8.4802e-06	818.81	268.9	8.507e-06	8.59e-06	323.84	122.57	112.28	42.262	8.2036e-06	55.42	70.737	168.437	269.669	-77.090	112.425	221.566	-78.680	-71.337	260.842	-9.800	-73.493	-69.301	-66.765	-62.106	69.737	-65.453	-8191	255	
3274.279	1	1	0	0	0.088503	0.18798	0.072178	0.24585	0.1763	0.10727	0.2176	0.23689	0.099191	0.16984	0.17553	0.19879	0.18779	0.34448	0.13376	0.11266	-3.6333	-3.7042	-4.1917	-3.9292	-3.7938	-4.1396	-3.7917	-3.925	-4.1438	-3.6167	-4.1083	-3.9083	-3.8479	-4.0625	-3.7542	-4.0146	88.175	145.886	94.872	231.870	105.912	200.241	229.550	161.221	43.436	-15.947	9.037	267.644	250.459	229.071	188.153	197.473	0.00096695	0.00079926	0.00021491	553.73	1.5862e-06	1.1614e-05	608.36	193.56	5.7875e-07	1.4696e-05	219.68	86.442	71.759	31.196	7.8023e-06	41.664	0.00083827	0.00081663	0.00021339	859.68	9.1215e-06	8.7663e-06	839.83	278	8.9522e-06	8.4864e-06	330.89	124.52	112.4	41.316	8.3831e-06	56.14	103.609	-39.073	117.859	-77.153	52.184	-20.214	-78.503	-71.330	51.206	-15.767	-73.785	-68.972	-66.865	-61.934	205.770	-64.890	-8191	255	
3274.374	1	1	0	0	0.12247	0.16226	0.3309	0.16127	0.11016	0.13515	0.044387	0.047971	0.21907	0.043707	0.015301	0.15109	0.19015	0.24308	0.17755	0.13743	-3.7104	-3.5458	-4.2354	-3.85	-3.8479	-4.175	-4.0104	-3.9833	-4.0229	-3.4854	-4.0354	-4.0062	-3.7208	-4.2521	-3.6979	-3.8292	-86.837	239.093	132.925	176.454	-2.027	25.706	205.615	-70.837	217.082	228.210	242.899	69.385	207.895	217.732	134.365	225.905	0.0002381	0.00091438	0.00019073	563.68	1.8802e-06	1.6601e-05	615.92	195.6	4.5443e-06	9.9879e-06	221.8	87.272	72.603	30.898	7.5376e-06	41.605	0.00086202	0.00079926	0.00022925	893.91	9.7631e-06	9.0359e-06	886.52	289.58	9.5881e-06	8.5639e-06	348.06	128.31	114.91	41.219	8.907e-06	56.907	246.082	-65.057	133.832	-77.544	42.239	17.159	-78.822	-71.689	124.301	30.010	-73.611	-69.385	-66.570	-61.519	131.414	-65.080	-8191	255	
3274.470	1	1	0	0	0.16173	0.13993	0.028644	0.16261	0.049849	0.20699	0.05389	0.082602	0.077715	0.17376	0.10983	0.061208	0.036297	0.21069	0.074345	0.044829	-3.7938	-3.5083	-4.0521	-3.9646	-3.7438	-4.0771	-3.9313	-3.925	-4.1312	-3.6688	-4.1146	-3.9958	-3.8312	-4.0708	-3.7458	-3.7062	-22.479	-11.357	-5.938	156.212	-55.836	207.568	-8.476	-74.416	176.225	-50.314	169.349	35.692	261.223	235.823	241.271	104.169	0.00057422	0.00018649	0.00013883	558.49	7.6196e-06	2.9995e-06	616.03	192.7	3.3187e-06	2.5576e-06	221.79	86.232	71.71	30.388	1.9036e-06	40.948	0.0008743	0.00078586	0.00024108	903.21	9.6772e-06	8.9943e-06	909.26	294.1	9.7204e-06	8.7541e-06	358.77	130.26	113.01	41.274	9.2208e-06	56.55	177.834	31.722	157.760	-77.341	-10.105	-26.683	-78.967	-71.368	-73.345	-45.995	-73.411	-68.956	-67.121	-61.667	105.389	-65.612	-8191	255	
3274.566	1	1	0	0	0.29593	0.1563	0.24217	0.24657	0.16343	0.11102	0.17647	0.27317	0.14557	0.18877	0.05092	0.068416	0.1073	0.29309	0.043814	0.31006	-3.8521	-3.5583	-3.8979	-4.075	-3.7146	-4.0479	-3.9	-3.7521	-4.2521	-3.7292	-3.9688	-4.0625	-3.7521	-4.2146	-3.9125	-3.8	26.601	-78.783	-46.340	210.918	-89.239	257.293	232.239	207.688	-4.388	91.595	-6.974	196.022	-38.481	241.046	212.257	-45.827	0.00078264	0.00028348	6.3391e-05	558.84	1.0175e-05	6.4969e-06	609.49	193.87	3.9965e-06	4.1675e-06	221.15	85.38	71.607	30.339	4.6153e-06	41.033	0.00083709	0.00078333	0.00024213	897.22	9.0704e-06	9.0392e-06	910.75	293.27	9.3576e-06	9.0769e-06	363.84	132.01	111.62	42.653	9.6966e-06	57.222	212.519	-67.354	253.714	-76.931	-7.607	175.957	-78.970	-71.420	26.450	134.486	-73.496	-68.958	-66.839	-62.199	187.975	-65.173	-8191	255	
3274.639	1	1	0	0	0.099615	0.064613	0.30048	0.14654	0.1443	0.18364	0.19645	0.15905	0.12807	0.12202	0.14833	0.1361	0.11386	0.069722	0.16042	0.29484	-3.7875	-3.6708	-3.7708	-4.125	-3.7208	-4.1813	-4.0667	-3.8146	-4.0583	-3.7062	-3.8604	-4.0604	-3.65	-4.1854	-3.9104	-3.5687	-65.023	5.928	200.953	110.251	107.353	150.781	212.282	217.285	244.537	32.178	214.130	-0.140	234.628	114.010	83.633	180.654	0.00019307	0.00060919	0.00011579	558.77	8.2597e-06	4.8386e-06	613.64	194.11	4.2045e-06	9.4981e-06	220.25	86.543	70.943	30.456	3.2361e-06	41.506	0.00082243	0.00082388	0.0002457	899.15	8.627e-06	9.2415e-06	904.1	287	8.681e-06	8.9982e-06	355.6	128.49	107.23	42.601	9.4393e-06	55.636	250.496	112.509	207.354	-77.153	7.989	124.224	-78.849	-71.492	-87.768	184.128	-73.895	-69.126	-66.748	-61.512	43.460	-64.884	-8191	255	
3274.758	1	1	0	0	0.032298	0.22764	0.32842	0.21987	0.15548	0.042219	0.23662	0.1063	0.14198	0.17712	0.27713	0.242	0.26624	0.10031	0.083454	0.17959	-3.9813	-3.725	-3.9021	-4.0792	-3.6104	-4.0437	-4.0687	-3.7083	-4.0792	-3.9104	-4.0146	-4.2125	-3.6854	-3.9917	-4.0917	-3.7271	113.787	113.296	-32.304	221.746	110.881	173.556	-51.272	-8.029	-56.781	-2.185	198.818	268.757	-69.400	160.578	-25.229	231.445	0.00029861	0.00053347	0.00017119	561.83	7.1735e-06	3.2188e-06	613.53	195.14	6.6734e-06	5.9291e-06	220.24	86.795	71.194	30.39	4.2399e-06	41.602	0.0007886	0.00083049	0.00024175	880.25	8.4894e-06	9.4569e-06	911.88	283.42	8.9424e-06	9.486e-06	361.91	128.04	110.14	43.605	9.71e-06	55.01	79.901	154.841	129.921	-77.329	152.424	196.799	-78.988	-71.461	207.485	177.096	-73.727	-68.982	-66.934	-61.850	-35.836	-65.049	-8191	255	
3274.854	1	1	0	0	0.021743	0.1712	0.043425	0.27484	0.19169	0.11451	0.17294	0.1714	0.10422	0.036105	0.23059	0.055016	0.16644	0.13149	0.15754	0.10492	-3.7604	-3.7687	-3.6437	-4.3	-3.5958	-3.8312	-4.0708	-3.7333	-3.9667	-3.9667	-3.8625	-4.1667	-3.7875	-3.9979	-4.1917	-3.7333	134.581	167.090	89.288	202.582	248.851	168.199	192.664	182.454	150.791	90.238	257.290	260.455	270.854	-80.312	169.091	171.143	0.0011632	0.0002516	0.00021946	563.3	8.9457e-06	3.0968e-06	616.34	196.53	7.8241e-06	2.6777e-06	223.36	87.185	70.665	31.009	5.5802e-06	41.541	0.00082429	0.00086464	0.00024689	873.41	8.9724e-06	9.7815e-06	928.44	280.89	9.4465e-06	9.7627e-06	366.3	126.88	113.58	44.14	9.8375e-06	54.289	83.063	52.126	244.830	-77.299	151.238	146.835	-78.561	-71.066	190.779	95.734	-73.555	-69.209	-66.400	-62.051	3.090	-64.796	-8191	255	
3274.950	1	1	0	0	0.095192	0.18753	0.3418	0.083329	0.13057	0.18977	0.11026	0.040131	0.30727	0.22233	0.18986	0.20959	0.14861	0.066039	0.13189	0.21709	-3.7896	-3.9417	-3.6208	-4.2167	-3.8187	-4.0375	-4.2646	-3.725	-3.9625	-4.0646	-3.7583	-4.2042	-3.8167	-3.9542	-4.2292	-3.7562	255.583	36.325	146.680	216.643	126.862	-43.882	177.832	-4.489	216.624	139.097	134.970	54.644	-72.384	134.541	-80.908	110.458	0.00067933	0.0005653	0.00010697	559.39	7.6681e-06	3.1985e-06	615.85	194.18	2.9133e-06	2.5787e-06	223.7	85.614	70.969	30.459	9.0712e-06	40.905	0.00086316	0.00088225	0.00024547	862.18	9.2746e-06	9.7805e-06	918.57	276.26	9.6789e-06	9.8223e-06	357.63	125.92	115.98	44.29	9.7356e-06	54.579	22.251	162.179	-87.691	-77.366	255.918	68.094	-78.587	-71.595	169.147	103.543	-73.272	-69.431	-66.540	-62.147	19.316	-64.886	-8191	255	
3275.071	1	1	0	0	0.085734	0.11635	0.11518	0.17019	0.15293	0.097817	0.19185	0.13239	0.21911	0.13682	0.086325	0.20796	0.055528	0.40266	0.21148	0.048049	-3.6708	-4.0042	-3.6854	-4.0854	-3.9104	-3.9146	-4.3292	-3.7292	-3.95	-4.0167	-3.7125	-4.1521	-3.7854	-3.9229	-4.1687	-3.9146	257.314	212.202	259.993	-17.125	35.254	103.425	-46.880	-12.610	16.719	262.143	-13.171	245.454	118.979	211.961	136.787	48.587	0.0005497	0.00030678	0.00038649	557.9	6.7716e-06	7.3356e-06	611.48	191.81	5.3716e-06	3.4065e-06	224.52	84.925	71.063	30.371	1.1977e-05	40.657	0.0009054	0.00091283	0.00024015	876.04	9.6348e-06	9.8986e-06	900.53	278.89	9.8488e-06	9.9075e-06	347.82	127.77	116.42	44.027	9.2302e-06	54.97	81.149	-13.658	-72.606	-77.207	179.878	2.724	-78.407	-71.582	100.926	234.423	-73.484	-68.683	-66.907	-62.350	6.815	-65.211	-8191	255	
3275.167	1	1	0	0	0.026449	0.099914	0.17981	0.24229	0.18174	0.077956	0.039073	0.20801	0.302	0.091809	0.13967	0.087971	0.13152	0.24909	0.10872	0.25582	-3.5625	-4.1354	-3.7146	-4.1646	-4.125	-3.6792	-4.2812	-3.7854	-3.9271	-4.1458	-3.5896	-4.1167	-4.0687	-3.8292	-4.0958	-3.7583	-65.303	177.970	84.583	123.658	112.673	-22.865	-39.077	-53.161	80.116	-17.890	222.310	-60.552	-71.936	207.001	137.536	-71.422	0.0006476	0.0005404	0.00036092	554.37	7.2606e-06	4.5904e-06	618.86	193.57	2.9668e-06	6.395e-06	224.13	85.67	71.142	30.665	1.381e-06	40.734	0.00089784	0.00090813	0.00022666	892.13	9.8268e-06	9.9771e-06	897.78	287.85	1.0115e-05	1.0143e-05	346.43	131.95	118.94	43.987	9.176e-06	56.369	1.430	112.172	-83.179	-77.124	177.349	-27.794	-78.486	-71.549	256.717	12.629	-73.375	-69.291	-66.290	-62.088	216.042	-65.392	-8191	255	
3275.263	1	1	0	0	0.1334	0.15998	0.0064616	0.26293	0.055697	0.099004	0.17233	0.17019	0.19978	0.14609	0.078803	0.23728	0.09516	0.14497	0.21107	0.068415	-3.4771	-4.1854	-3.7208	-4.0521	-3.9542	-3.65	-4.1813	-3.7667	-3.8479	-3.9813	-3.8104	-3.9833	-4.0458	-3.6146	-4.0833	-3.7771	74.948	60.381	-47.924	-14.759	151.449	10.792	228.989	239.482	91.324	1.623	-42.194	-79.047	227.969	193.825	-35.290	267.901	0.00059882	0.0006713	8.0019e-05	560.66	6.0979e-06	8.7989e-06	612.89	193.63	1.8712e-06	1.6748e-05	220.77	86.687	71.396	30.828	7.6036e-07	41.407	0.00090381	0.00088698	0.00022161	901.49	9.7905e-06	9.5005e-06	894.01	290.36	1.006e-05	9.7521e-06	347.95	133.3	119.56	42.86	9.1985e-06	56.694	100.181	-32.473	157.895	-77.557	-64.876	-13.677	-78.430	-71.741	152.549	4.181	-73.747	-69.096	-66.776	-62.030	151.092	-64.831	-8191	255	
3275.359	1	1	0	0	0.16889	0.2102	0.14082	0.16842	0.1526	0.086328	0.094988	0.20763	0.14013	0.056175	0.059858	0.081154	0.086197	0.11877	0.16591	0.18047	-3.4896	-4.2396	-3.7167	-4.0104	-4.0417	-3.5646	-4.2458	-3.8792	-3.6271	-4.2375	-3.8708	-4.05	-4.0938	-3.6188	-4.1146	-4.1042	186.689	-16.976	12.321	-81.142	120.918	230.082	253.378	210.244	-38.450	146.628	223.963	144.599	166.282	116.051	14.806	-53.945	0.00017971	0.0011165	0.00020161	564.14	3.2133e-06	9.5489e-06	610.94	194.77	1.162e-06	9.9637e-06	222.99	87.553	72.559	30.895	4.4699e-06	41.559	0.00088497	0.00082555	0.00022054	892.71	9.5157e-06	8.6854e-06	888.04	286.76	9.7053e-06	9.0596e-06	349.61	133.07	119.75	42.217	9.7994e-06	58.367	40.952	-61.846	113.440	-77.173	132.433	5.913	-79.246	-71.592	-12.530	7.252	-73.688	-68.981	-66.379	-62.136	207.945	-65.571	-8191	255	
3275.456	1	1	0	0	0.12418	0.22023	0.11677	0.098442	0.119	0.12358	0.052632	0.12776	0.23409	0.27101	0.04923	0.09004	0.14094	0.03042	0.14733	0.12074	-3.4333	-4.2833	-3.6458	-3.9167	-4.125	-3.6604	-4.0938	-4.0896	-3.6792	-4.0208	-3.9521	-3.9396	-4.2417	-3.7354	-4.0208	-4.0271	-8.849	95.569	241.428	198.373	243.244	219.119	109.835	66.401	80.511	116.934	53.362	223.944	-85.469	252.011	243.494	-51.479	0.00016921	0.00065161	0.00020539	563.57	8.5401e-06	3.6635e-06	615.24	194.23	6.803e-06	3.2807e-06	222.27	86.285	72.425	30.561	2.5133e-06	40.387	0.00092222	0.00084951	0.00024355	922.68	9.9929e-06	8.8864e-06	920.2	293.18	9.6746e-06	9.0153e-06	355.94	132.38	117.18	41.623	9.9743e-06	58.269	118.640	-43.588	60.682	-77.265	-7.157	-80.981	-78.787	-71.546	23.398	151.182	-73.625	-69.011	-66.479	-62.223	-36.466	-64.740	-8191	255	
3275.550	1	1	0	0	0.20183	0.28276	0.049611	0.1613	0.26866	0.15717	0.095322	0.090414	0.22057	0.14887	0.13232	0.055601	0.11368	0.26113	0.067319	0.072544	-3.2521	-4.1042	-3.775	-3.8229	-4.0771	-3.7687	-4.0917	-4.2	-3.6125	-4.1271	-4.0437	-3.8021	-4.1792	-3.7771	-3.9562	-4.0167	-5.308	8.240	124.684	211.893	206.184	118.914	55.325	178.702	-1.093	-22.689	138.210	-41.710	-66.110	249.546	127.641	113.239	0.00065218	0.00054427	0.00016822	563.47	8.0919e-06	3.155e-06	618.6	193.48	1.345e-05	1.3944e-05	222.57	85.131	71.766	30.056	2.4416e-06	40.52	0.00089688	0.00087132	0.0002571	943.69	1.0088e-05	9.5073e-06	954.96	303.16	9.7861e-06	9.7758e-06	370.23	135.28	116.16	42.45	1.0135e-05	57.801	252.402	151.549	31.523	-77.429	-9.048	161.489	-78.594	-71.404	29.081	167.284	-73.836	-69.187	-66.533	-62.452	62.140	-65.218	-8191	255	
3275.671	1	1	0	0	0.37	0.2753	0.037283	0.32498	0.062581	0.1528	0.11545	0.069122	0.057833	0.14928	0.20398	0.039486	0.023062	0.13783	0.26127	0.013385	-3.3396	-4.2312	-3.8458	-3.8167	-4.1917	-3.8354	-4.0458	-4.2729	-3.6396	-4.075	-4.0708	-3.8854	-4.2771	-3.9938	-3.8021	-4.1771	-59.533	127.487	252.642	-48.192	-26.786	220.720	85.055	-89.148	229.982	21.212	186.056	112.981	-48.290	254.918	156.171	129.591	0.0005671	0.0010275	0.000114	562.08	1.6459e-05	8.5802e-06	616.82	194.43	6.0847e-06	5.5248e-06	221.4	86.009	70.903	30.066	4.3347e-06	40.808	0.00082772	0.00086986	0.00025097	922.86	9.3956e-06	9.5974e-06	945.67	300.17	9.2365e-06	9.9562e-06	368.45	132.5	112.32	42.706	9.8239e-06	56.372	232.367	158.344	-20.359	-76.841	-16.730	180.816	-78.346	-71.648	48.947	143.847	-73.497	-69.139	-67.082	-61.948	193.453	-65.260	-8191	255	
3275.767	1	1	0	0	0.17381	0.065678	0.14989	0.15311	0.21973	0.16252	0.12933	0.34422	0.011044	0.11833	0.12049	0.17023	0.1706	0.28624	0.079466	0.14854	-3.4667	-4.1625	-4.1521	-3.7292	-4.0896	-3.9896	-3.9292	-4.2104	-3.7583	-4.0312	-3.9437	-3.7396	-4.2542	-3.9375	-3.7292	-4.2854	-14.084	-56.887	-25.767	-30.682	199.672	94.727	255.988	237.979	247.877	220.628	204.467	205.817	138.209	270.378	105.427	204.253	0.00035495	0.00050646	0.00010261	561.4	4.2515e-06	2.8537e-06	612.95	194.24	3.5374e-06	4.5968e-06	221.22	85.618	70.352	30.234	3.3884e-06	41.155	0.00077589	0.00085045	0.00023982	877.79	8.7119e-06	9.2638e-06	917.69	288	8.8807e-06	9.9493e-06	369.32	129.88	114.37	43.973	1.0256e-05	56.621	126.675	75.469	153.178	-77.310	204.453	207.582	-78.669	-71.609	-51.780	53.642	-74.136	-69.312	-66.205	-61.804	25.896	-65.264	-8191	255	
3275.863	1	1	0	0	0.21917	0.097103	0.07711	0.077562	0.13431	0.22494	0.17709	0.19723	0.061008	0.1618	0.16872	0.053232	0.04634	0.20235	0.054976	0.11638	-3.3688	-3.9583	-4.0333	-3.65	-4.0917	-3.9375	-3.9604	-4.1625	-3.9292	-4.0062	-4.0687	-3.7667	-4.3063	-4.1937	-3.8083	-4.2646	-43.369	213.189	245.653	111.862	18.342	96.752	136.062	51.217	1.424	195.228	179.536	232.587	127.317	257.571	23.054	-84.972	0.0012299	0.00028052	3.4555e-05	557.87	3.3122e-06	6.0175e-06	609.95	193.44	1.7551e-06	3.1936e-06	218.73	86.382	71.284	30.71	6.5187e-06	41.212	0.00082779	0.00089925	0.00024911	860.12	8.9637e-06	9.2704e-06	902.59	274.75	8.6329e-06	9.3089e-06	351.73	120.84	110.38	42.06	9.2174e-06	53.034	83.543	104.199	163.806	-77.056	92.155	139.140	-78.554	-71.316	257.079	181.610	-73.201	-68.980	-66.596	-61.915	22.970	-65.031	-8191	255	
#DATA ENDS
