BOXY.EXE: ISS Imagent and Oximeter Data Acquisition Program Version 0.80
Ascii Record File

#ACQ INFORMATION
2  Detector Channels 
16  External MUX Channels 
1  Auxiliary Channels 
5000  Waveform (CCF) Frequency (Hz)
1  Waveforms Skipped 
30  Waveforms Averaged 
1  Cycles Averaged 
16  Acquisitions per Waveform 
10.0806  Updata Rate (Hz) 

#FILE INFORMATION
TRUE -- External MUX Channel results are PARSED.
FALSE -- AC DC and Phase are NOT grouped.
TRUE -- Companion Program Settings File CREATED.
FALSE -- AC data not excluded
FALSE -- DC data not excluded
FALSE -- Phase data not excluded
FALSE -- Auxillary Chn. data not excluded
Tab delimiters

#CALIBRATION STATE
TRUE -- Waveform Calibration Values APPLIED.


#AUX CALIBRATION VALUES
Val Type	aux-1	

Term	1.0000e+00	
Factor	0.0000e+00	


#WF CALIBRATION VALUES
A = Detector Channel
Val Type	A-AC1	A-AC2	A-AC3	A-AC4	A-AC5	A-AC6	A-AC7	A-AC8	A-AC9	A-AC10	A-AC11	A-AC12	A-AC13	A-AC14	A-AC15	A-AC16	A-DC1	A-DC2	A-DC3	A-DC4	A-DC5	A-DC6	A-DC7	A-DC8	A-DC9	A-DC10	A-DC11	A-DC12	A-DC13	A-DC14	A-DC15	A-DC16	A-Ph1	A-Ph2	A-Ph3	A-Ph4	A-Ph5	A-Ph6	A-Ph7	A-Ph8	A-Ph9	A-Ph10	A-Ph11	A-Ph12	A-Ph13	A-Ph14	A-Ph15	A-Ph16	

Term	0.00000e+00	0.00000e+00	0.00000e+00	0.00000e+00	0.00000e+00	0.00000e+00	0.00000e+00	0.00000e+00	0.00000e+00	0.00000e+00	0.00000e+00	0.00000e+00	0.00000e+00	0.00000e+00	0.00000e+00	0.00000e+00	0.00000e+00	0.00000e+00	0.00000e+00	0.00000e+00	0.00000e+00	0.00000e+00	0.00000e+00	0.00000e+00	0.00000e+00	0.00000e+00	0.00000e+00	0.00000e+00	0.00000e+00	0.00000e+00	0.00000e+00	0.00000e+00	0.00000e+00	0.00000e+00	0.00000e+00	0.00000e+00	0.00000e+00	0.00000e+00	0.00000e+00	0.00000e+00	0.00000e+00	0.00000e+00	0.00000e+00	0.00000e+00	0.00000e+00	0.00000e+00	0.00000e+00	0.00000e+00	
Factor	1.00000e+00	1.00000e+00	1.00000e+00	1.00000e+00	1.00000e+00	1.00000e+00	1.00000e+00	1.00000e+00	1.00000e+00	1.00000e+00	1.00000e+00	1.00000e+00	1.00000e+00	1.00000e+00	1.00000e+00	1.00000e+00	1.00000e+00	1.00000e+00	1.00000e+00	1.00000e+00	1.00000e+00	1.00000e+00	1.00000e+00	1.00000e+00	1.00000e+00	1.00000e+00	1.00000e+00	1.00000e+00	1.00000e+00	1.00000e+00	1.00000e+00	1.00000e+00	X	X	X	X	X	X	X	X	X	X	X	X	X	X	X	X	

B = Detector Channel
Val Type	B-AC1	B-AC2	B-AC3	B-AC4	B-AC5	B-AC6	B-AC7	B-AC8	B-AC9	B-AC10	B-AC11	B-AC12	B-AC13	B-AC14	B-AC15	B-AC16	B-DC1	B-DC2	B-DC3	B-DC4	B-DC5	B-DC6	B-DC7	B-DC8	B-DC9	B-DC10	B-DC11	B-DC12	B-DC13	B-DC14	B-DC15	B-DC16	B-Ph1	B-Ph2	B-Ph3	B-Ph4	B-Ph5	B-Ph6	B-Ph7	B-Ph8	B-Ph9	B-Ph10	B-Ph11	B-Ph12	B-Ph13	B-Ph14	B-Ph15	B-Ph16	

Term	0.00000e+00	0.00000e+00	0.00000e+00	0.00000e+00	0.00000e+00	0.00000e+00	0.00000e+00	0.00000e+00	0.00000e+00	0.00000e+00	0.00000e+00	0.00000e+00	0.00000e+00	0.00000e+00	0.00000e+00	0.00000e+00	0.00000e+00	0.00000e+00	0.00000e+00	0.00000e+00	0.00000e+00	0.00000e+00	0.00000e+00	0.00000e+00	0.00000e+00	0.00000e+00	0.00000e+00	0.00000e+00	0.00000e+00	0.00000e+00	0.00000e+00	0.00000e+00	6.18343e+01	-1.31059e+02	-1.28480e+02	-1.84124e+02	-6.87911e+01	-6.82456e+01	-1.56911e+02	-1.62015e+02	-7.40016e+01	-6.54156e+01	-1.77697e+02	-1.71319e+02	-1.80631e+02	-1.77165e+02	-6.37371e+01	-1.49825e+02	
Factor	5.72416e-05	1.94192e-04	5.38199e-05	1.68864e-01	2.83546e-06	2.03816e-06	1.62166e-01	5.20289e-02	3.35572e-06	1.96407e-06	9.52225e-01	2.70685e-02	2.82943e-02	8.99284e-03	2.49629e-06	1.25482e-02	1.20680e-05	1.63461e-05	4.57917e-06	8.64489e-02	1.66670e-07	1.82106e-07	7.82106e-02	2.66752e-02	1.65207e-07	1.81697e-07	4.60311e-01	1.35287e-02	1.46057e-02	4.65260e-03	1.72611e-07	6.31523e-03	X	X	X	X	X	X	X	X	X	X	X	X	X	X	X	X	



#DISTANCE SETTINGS
A = Detector Channel
A-1	A-2	A-3	A-4	A-5	A-6	A-7	A-8	A-9	A-10	A-11	A-12	A-13	A-14	A-15	A-16	

2.5000e+00	3.0000e+00	2.5000e+00	3.0000e+00	2.0000e+00	3.0000e+00	1.5000e+00	3.0000e+00	3.0000e+00	3.0000e+00	3.0000e+00	3.0000e+00	3.0000e+00	3.0000e+00	1.5000e+00	3.0000e+00	

B = Detector Channel
B-1	B-2	B-3	B-4	B-5	B-6	B-7	B-8	B-9	B-10	B-11	B-12	B-13	B-14	B-15	B-16	

1.0000e+01	1.0000e+01	1.0000e+01	1.4400e+00	1.0000e+01	1.0000e+01	1.5100e+00	1.9400e+00	1.0000e+01	1.0000e+01	1.9900e+00	2.4900e+00	2.4100e+00	2.9000e+00	1.0000e+01	2.9800e+00	




#DATA BEGINS
time	group	step	mark	flag	A-AC1	A-AC2	A-AC3	A-AC4	A-AC5	A-AC6	A-AC7	A-AC8	A-AC9	A-AC10	A-AC11	A-AC12	A-AC13	A-AC14	A-AC15	A-AC16	A-DC1	A-DC2	A-DC3	A-DC4	A-DC5	A-DC6	A-DC7	A-DC8	A-DC9	A-DC10	A-DC11	A-DC12	A-DC13	A-DC14	A-DC15	A-DC16	A-Ph1	A-Ph2	A-Ph3	A-Ph4	A-Ph5	A-Ph6	A-Ph7	A-Ph8	A-Ph9	A-Ph10	A-Ph11	A-Ph12	A-Ph13	A-Ph14	A-Ph15	A-Ph16	B-AC1	B-AC2	B-AC3	B-AC4	B-AC5	B-AC6	B-AC7	B-AC8	B-AC9	B-AC10	B-AC11	B-AC12	B-AC13	B-AC14	B-AC15	B-AC16	B-DC1	B-DC2	B-DC3	B-DC4	B-DC5	B-DC6	B-DC7	B-DC8	B-DC9	B-DC10	B-DC11	B-DC12	B-DC13	B-DC14	B-DC15	B-DC16	B-Ph1	B-Ph2	B-Ph3	B-Ph4	B-Ph5	B-Ph6	B-Ph7	B-Ph8	B-Ph9	B-Ph10	B-Ph11	B-Ph12	B-Ph13	B-Ph14	B-Ph15	B-Ph16	aux-1	digaux	

8509.670	1	1	0	256	0.3515	0.15378	0.26039	0.27438	0.07814	0.1255	0.43796	0.42943	0.13372	0.06711	0.19063	0.23167	0.31388	0.047431	0.087697	0.24496	-2.1208	-2.0979	-2.3479	-2.5896	-2.3021	-2.5771	-2.6042	-2.5021	-2.5417	-2.4313	-2.5229	-2.7979	-2.2917	-2.5917	-2.3708	-2.4875	355.160	252.539	248.755	477.623	240.356	410.034	462.042	417.397	406.834	207.904	434.106	163.089	274.573	337.835	204.670	426.738	0.0042504	0.00084701	0.00015401	838.6	1.1709e-05	1.0896e-05	1153.1	256.39	1.6364e-05	8.2339e-06	486.69	239.54	111.59	53.136	1.1978e-05	133.6	0.0008203	0.00026266	6.7123e-05	784.55	2.9025e-06	2.6864e-06	1082.5	240.52	2.8811e-06	2.6872e-06	451.37	225.66	103.83	50.252	2.7636e-06	127.16	376.672	231.225	229.989	151.106	266.941	287.032	151.250	155.925	276.816	302.503	156.013	159.263	158.983	162.437	283.642	161.430	-8191	255	
8509.764	1	1	0	0	0.020006	0.38761	0.1559	0.2698	0.20652	0.08025	0.31609	0.11025	0.15254	0.082425	0.10928	0.35985	0.12274	0.15788	0.14271	0.021807	-2.0563	-2.2583	-2.1917	-2.6479	-2.3312	-2.5167	-2.6292	-2.3187	-2.4125	-2.3125	-2.2354	-2.8583	-2.3646	-2.4562	-2.375	-2.4229	353.143	365.781	291.405	161.497	159.546	202.944	353.682	400.115	178.878	469.966	171.164	455.482	339.341	167.441	152.190	315.095	0.0042845	0.00072603	0.0002364	825.69	1.1259e-05	8.5238e-06	1152.8	255.58	1.6683e-05	7.9059e-06	493.34	238.06	109.92	52.736	1.0969e-05	132.8	0.00081122	0.0002611	6.9975e-05	775.54	2.9271e-06	2.6182e-06	1076.3	239.42	2.876e-06	2.7425e-06	457.31	224.89	102.44	49.651	2.9926e-06	126.32	379.575	218.947	215.668	151.224	292.427	291.284	151.166	155.928	283.761	288.535	155.515	159.230	158.975	162.444	285.810	161.599	-8191	255	
8509.862	1	1	0	0	0.095374	0.073564	0.032978	0.26858	0.12885	0.01511	0.03879	0.2678	0.22112	0.061649	0.070256	0.2545	0.036444	0.30379	0.16299	0.23003	-2.0979	-2.2625	-2.2646	-2.5646	-2.1854	-2.4104	-2.7188	-2.2646	-2.5375	-2.4542	-2.3917	-2.8417	-2.3979	-2.6167	-2.4625	-2.5167	268.404	225.351	251.075	433.856	316.711	261.931	210.350	419.008	145.106	384.789	459.877	414.457	340.274	416.319	161.239	432.442	0.0044084	0.00076098	0.00021076	817.3	9.872e-06	8.9867e-06	1136.4	251.23	1.5091e-05	6.7472e-06	491.77	234.47	108.69	51.976	1.132e-05	130.95	0.00083598	0.00024533	7.6816e-05	766.12	2.8518e-06	2.5734e-06	1065.8	235.75	2.7294e-06	2.5778e-06	450.7	222	101.19	49.005	2.9919e-06	124.56	377.602	224.381	216.501	151.343	269.820	282.469	151.553	155.622	270.244	307.923	155.310	159.308	158.744	162.517	274.368	161.507	-8191	255	
8509.957	1	1	0	0	0.12778	0.089962	0.24285	0.17511	0.12211	0.1532	0.18153	0.15489	0.17619	0.10473	0.20528	0.32509	0.23691	0.14813	0.049778	0.38127	-2.15	-2.1708	-2.1833	-2.6375	-2.35	-2.3771	-2.7562	-2.4854	-2.5563	-2.25	-2.3083	-2.5375	-2.4625	-2.5083	-2.4417	-2.5917	200.501	369.864	484.725	425.122	352.816	159.997	432.768	485.885	428.673	307.215	442.693	429.067	434.174	249.554	424.061	426.322	0.0040748	0.00058325	0.00024605	817.05	1.216e-05	4.168e-06	1131.4	249.92	1.6717e-05	6.1517e-06	488.96	232.23	108.27	51.374	1.3539e-05	130.05	0.00080282	0.00024788	7.3925e-05	766.1	2.7369e-06	2.5078e-06	1059.8	234.14	2.7397e-06	2.6497e-06	448.07	219.99	100.4	48.474	3.08e-06	123.65	378.170	209.570	230.041	151.225	284.178	264.265	151.019	155.763	274.043	286.733	155.908	159.538	158.877	162.411	281.715	161.559	-8191	255	
8510.053	1	1	0	0	0.060611	0.29847	0.083159	0.23429	0.33185	0.18444	0.12872	0.11542	0.19671	0.17362	0.12046	0.14718	0.37047	0.040848	0.049241	0.29398	-2.0625	-2.3479	-2.1521	-2.6333	-2.1833	-2.2146	-2.6646	-2.5042	-2.3042	-2.6854	-2.1021	-2.7521	-2.3958	-2.4479	-2.6312	-2.5771	176.016	424.270	219.369	353.741	444.355	357.805	390.835	296.434	367.438	204.638	419.370	451.699	485.754	194.442	310.034	386.109	0.0042535	0.0007547	0.00021536	813.3	8.3349e-06	6.5968e-06	1124	249.47	1.4519e-05	6.5437e-06	490.53	232.65	107.1	50.907	1.071e-05	130.46	0.00079928	0.00025902	7.5528e-05	761.76	2.5594e-06	2.7206e-06	1055.3	232.94	2.6932e-06	2.9601e-06	449.83	219.41	99.652	48.204	3.0452e-06	123.83	377.427	209.379	206.895	151.199	289.860	257.885	151.179	155.911	278.802	268.400	155.074	159.189	158.818	162.167	284.187	161.394	-8191	255	
8510.149	1	1	0	0	0.21995	0.19583	0.052445	0.21837	0.25686	0.39549	0.17784	0.30918	0.014405	0.080518	0.24111	0.21923	0.096088	0.048776	0.085517	0.21001	-1.9229	-2.5292	-2.2979	-2.625	-2.2979	-2.2458	-2.7625	-2.4313	-2.4542	-2.5458	-2.0854	-2.7562	-2.3458	-2.4271	-2.7062	-2.4917	447.930	221.479	345.160	162.621	173.684	443.023	411.894	403.428	348.109	300.477	491.936	137.811	156.641	468.554	409.676	475.008	0.0042639	0.00077822	0.00025908	810.97	1.0046e-05	8.6048e-06	1129.4	247.2	1.3359e-05	6.9465e-06	490.36	232.57	105.81	50.645	1.1146e-05	129.44	0.00079722	0.00026634	7.0968e-05	758.72	2.7073e-06	2.9801e-06	1057.5	231.96	2.7934e-06	2.948e-06	447.39	218.97	98.603	47.718	3.0455e-06	123.03	378.251	220.580	215.852	151.208	274.805	279.323	150.976	155.515	263.110	282.636	156.215	159.540	159.184	162.731	293.783	161.519	-8191	255	
8510.270	1	1	0	0	0.17582	0.14339	0.059434	0.13321	0.18736	0.10782	0.24721	0.039524	0.39034	0.046086	0.187	0.31142	0.37729	0.12385	0.074428	0.18723	-1.9542	-2.4979	-2.3229	-2.6688	-2.5042	-2.3042	-2.6167	-2.3417	-2.3021	-2.6437	-2.2354	-2.6875	-2.7396	-2.3667	-2.8083	-2.6375	280.473	399.243	359.683	382.108	321.342	466.932	458.516	170.719	370.862	257.981	408.266	447.402	427.361	482.986	455.492	360.282	0.0042666	0.00084099	0.00025076	804.43	1.1931e-05	7.8264e-06	1114.5	244.45	1.6628e-05	6.2876e-06	480.69	228.93	105.33	49.785	1.0296e-05	126.85	0.00080853	0.00027669	7.3877e-05	752.75	2.8605e-06	2.8651e-06	1048.7	229.29	2.9156e-06	2.7145e-06	441	215.68	97.543	46.966	2.8323e-06	120.6	377.997	212.066	220.601	151.258	275.976	308.564	151.301	155.819	262.761	278.503	155.675	159.200	158.721	162.399	282.887	161.344	-8191	255	
8510.366	1	1	0	0	0.31575	0.12536	0.21218	0.22998	0.10661	0.28435	0.18982	0.095846	0.20322	0.17382	0.33705	0.26053	0.15554	0.083258	0.13414	0.3771	-1.6708	-2.4021	-2.2854	-2.5833	-2.3354	-2.2583	-2.7083	-2.425	-2.2958	-2.55	-2.2646	-2.4417	-2.5333	-2.2625	-2.4562	-2.5563	399.920	480.560	299.006	456.259	386.635	302.629	409.160	398.297	193.360	304.752	302.708	447.497	331.825	453.126	422.879	426.576	0.0041092	0.00058309	0.00021437	799.99	1.1274e-05	8.3018e-06	1110.7	243.66	1.604e-05	7.7258e-06	479.03	227.73	104.55	49.843	1.2364e-05	127.44	0.00079925	0.00025309	7.1693e-05	750.04	2.8806e-06	2.8223e-06	1039.7	228.28	2.9779e-06	2.5237e-06	442.78	214.98	96.997	46.99	2.9581e-06	121.28	379.097	221.938	216.922	151.242	284.359	284.111	150.975	155.667	276.595	290.955	154.925	159.434	158.857	162.338	284.832	161.577	-8191	255	
8510.462	1	1	0	0	0.11137	0.19875	0.09536	0.088018	0.3374	0.22889	0.069514	0.24299	0.074873	0.066181	0.076334	0.44319	0.15544	0.094755	0.10391	0.34091	-1.9208	-2.3458	-2.1958	-2.4458	-2.3854	-2.2687	-2.6813	-2.475	-2.2229	-2.6229	-2.3833	-2.6208	-2.6292	-2.3271	-2.5271	-2.6125	264.293	353.882	177.484	278.864	474.897	356.799	463.609	351.157	313.605	186.276	373.983	461.926	375.050	154.601	236.758	462.257	0.0040731	0.00072852	0.00023988	798.64	1.3505e-05	4.3695e-06	1112.3	244.08	1.6802e-05	8.5458e-06	480.54	226.76	103.51	49.427	1.0428e-05	127.91	0.00080036	0.00024792	7.0634e-05	748.91	2.8244e-06	2.7202e-06	1040.5	227.62	2.9128e-06	2.7372e-06	442.47	214.34	96.491	46.745	2.651e-06	121.36	378.352	220.670	219.584	151.304	279.919	270.366	151.084	155.566	272.862	289.760	155.948	159.314	159.103	162.186	280.286	161.317	-8191	255	
8510.558	1	1	0	0	0.16645	0.087308	0.14344	0.31571	0.17943	0.19195	0.21289	0.13889	0.028066	0.14975	0.14709	0.17097	0.029926	0.22064	0.22246	0.34132	-1.875	-2.4792	-2.1625	-2.4583	-2.4979	-2.3833	-2.6583	-2.6042	-2.2833	-2.4688	-2.325	-2.6417	-2.8396	-2.4458	-2.4375	-2.8604	363.091	421.647	273.796	149.617	263.848	286.030	472.479	451.173	300.932	451.505	342.596	227.678	221.002	394.367	333.046	453.836	0.0040255	0.0010063	0.00024712	791.16	1.1669e-05	5.9513e-06	1109.3	243.44	1.5897e-05	7.1771e-06	471.9	228.71	104.68	49.98	1.0057e-05	128.76	0.00078535	0.00026385	6.8697e-05	744	2.7976e-06	2.6758e-06	1039.1	228.17	2.8877e-06	2.7103e-06	441.74	216.47	97.147	47.155	2.7643e-06	122.43	377.913	229.602	226.953	151.169	273.982	293.630	150.760	155.672	276.179	295.134	155.937	159.164	159.030	162.465	287.349	161.500	-8191	255	
8510.654	1	1	0	0	0.11213	0.031815	0.19003	0.14221	0.44646	0.083568	0.2661	0.26926	0.077518	0.079603	0.041078	0.27042	0.27602	0.10325	0.12918	0.20149	-1.7958	-2.4958	-2.575	-2.3542	-2.5792	-2.3312	-2.6813	-2.6229	-2.1354	-2.7083	-2.2042	-2.6271	-2.5625	-2.475	-2.425	-2.7104	413.203	429.087	388.971	262.079	381.047	305.142	458.767	457.110	400.743	302.552	266.270	470.848	141.346	299.249	152.542	457.510	0.0039132	0.0007738	0.00030017	795.74	1.1778e-05	8.7667e-06	1112.9	243.61	1.4201e-05	8.4299e-06	483.61	228.21	104.78	50.069	9.2426e-06	127.84	0.00077934	0.00024826	7.195e-05	745.57	2.7188e-06	2.6474e-06	1041.7	228.81	2.8467e-06	2.4355e-06	446.18	216.29	97.518	47.358	2.8103e-06	121.82	377.544	217.083	221.861	151.106	279.171	281.060	151.014	155.707	276.071	284.514	155.234	159.347	159.050	162.371	277.212	161.535	-8191	255	
8510.750	1	1	0	0	0.21792	0.35061	0.15396	0.26847	0.20801	0.13541	0.20927	0.23044	0.056718	0.16614	0.1589	0.24927	0.30128	0.12441	0.26221	0.32187	-1.9833	-2.4125	-2.4917	-2.4875	-2.6229	-2.2	-2.5021	-2.5271	-2.2542	-2.525	-2.4771	-2.6583	-2.7042	-2.2479	-2.4521	-2.8896	273.071	204.756	420.653	158.618	320.978	196.879	493.824	414.650	319.900	375.398	265.638	438.756	162.390	469.648	376.305	449.298	0.0039495	0.00071566	0.00021834	804.37	1.1531e-05	7.3635e-06	1116.4	243.81	1.6177e-05	7.9542e-06	483.52	230.2	105.67	50.125	8.7318e-06	128.81	0.00078741	0.00024111	6.8869e-05	753.28	2.6751e-06	2.521e-06	1048.6	229.89	2.8595e-06	2.501e-06	444.19	216.96	98.238	47.494	2.8452e-06	122.39	377.768	228.814	224.726	151.067	272.682	298.086	151.270	155.721	286.422	287.169	155.300	159.110	159.291	162.358	270.657	161.393	-8191	255	
8510.846	1	1	0	0	0.19196	0.10376	0.14667	0.23779	0.1752	0.065211	0.20677	0.31807	0.18419	0.14644	0.33702	0.097375	0.21281	0.088335	0.14503	0.16324	-1.9167	-2.325	-2.45	-2.4625	-2.5375	-2.4229	-2.5083	-2.8063	-2.1542	-2.5521	-2.5542	-2.4271	-2.7229	-2.3417	-2.3812	-2.9521	152.905	253.408	232.324	392.742	429.472	252.114	421.483	362.160	231.203	252.485	393.275	463.595	386.811	448.444	281.793	441.323	0.004045	0.00086698	0.00023267	804.68	1.2988e-05	7.91e-06	1125.6	247.68	1.8401e-05	6.335e-06	481.98	231.56	106.32	51.033	1.2243e-05	130.66	0.00078105	0.00023988	7.1721e-05	756.39	2.658e-06	2.7047e-06	1055	231.39	2.7331e-06	2.529e-06	445.08	218.8	98.848	48.135	3.134e-06	124.19	379.789	222.793	230.445	151.340	270.755	278.806	151.124	155.809	266.717	289.506	155.709	159.237	158.878	162.084	277.664	161.538	-8191	255	
8510.943	1	1	0	0	0.067829	0.20533	0.33619	0.2003	0.24606	0.20338	0.18708	0.27446	0.24208	0.22802	0.33871	0.41174	0.29771	0.18994	0.12958	0.36036	-1.9417	-2.4354	-2.4042	-2.3729	-2.4188	-2.3854	-2.4708	-2.6625	-2.2479	-2.4375	-2.5729	-2.45	-2.6188	-2.6562	-2.3187	-2.8312	199.957	377.669	352.065	457.239	408.735	454.068	151.272	467.412	244.857	181.281	298.991	459.145	386.708	467.438	235.495	450.622	0.0043036	0.00082336	0.00019531	811.77	9.5323e-06	1.0499e-05	1133.8	248.83	1.6125e-05	7.6409e-06	486.07	233.95	106.72	50.791	1.1457e-05	130.64	0.00081942	0.00024478	7.1197e-05	759.38	2.5771e-06	2.8689e-06	1059.4	232.7	2.6588e-06	2.7262e-06	449.8	220.56	99.199	48.093	2.9459e-06	124.14	378.734	212.205	228.479	151.193	301.979	268.928	151.250	155.839	271.530	291.766	155.887	159.179	159.041	162.527	287.644	161.574	-8191	255	
8511.061	1	1	0	0	0.395	0.14333	0.11448	0.17356	0.20762	0.34745	0.23957	0.16772	0.12834	0.076176	0.020541	0.22797	0.090439	0.12342	0.36138	0.20793	-2.05	-2.4625	-2.5687	-2.5167	-2.4542	-2.4437	-2.3229	-2.5729	-2.3146	-2.0396	-2.5146	-2.5375	-2.4708	-2.7438	-2.4125	-2.7104	191.200	453.195	334.670	482.014	316.592	163.123	410.705	441.680	394.815	340.793	158.876	434.395	469.436	260.558	412.778	438.272	0.0042572	0.00080864	0.00023384	809.88	1.2108e-05	5.6167e-06	1123	247.02	1.7561e-05	6.0675e-06	488.66	230.02	105.45	50.661	1.0778e-05	128.43	0.00080508	0.00025067	6.6827e-05	757.54	2.6605e-06	2.7566e-06	1052.2	231.12	2.6956e-06	2.6785e-06	444.52	217.44	98.597	47.802	2.9053e-06	122.34	380.161	228.918	225.850	151.442	292.955	287.907	151.064	155.860	292.154	303.219	155.547	159.324	159.266	162.162	296.359	161.446	-8191	255	
8511.158	1	1	0	0	0.14779	0.14342	0.048663	0.11672	0.047651	0.13795	0.2078	0.053647	0.28199	0.19468	0.1563	0.14303	0.16363	0.29291	0.20034	0.24251	-1.9917	-2.2021	-2.3667	-2.3187	-2.5375	-2.4188	-2.4562	-2.5042	-2.3312	-2.3354	-2.5333	-2.5896	-2.4958	-2.7875	-2.3083	-2.7146	180.108	291.081	384.213	388.390	311.066	378.883	451.990	442.824	348.971	180.501	382.251	165.745	294.823	456.403	468.831	432.304	0.004279	0.0005556	0.0002073	807.75	1.2551e-05	7.1501e-06	1119.7	245.72	1.7398e-05	4.1403e-06	486.49	230.88	106.42	50.735	1.2814e-05	129.75	0.00080466	0.00026116	6.761e-05	756.18	2.7334e-06	2.8082e-06	1048.7	230.68	2.919e-06	2.6743e-06	445.87	217.79	98.803	47.884	2.9369e-06	123.26	377.821	219.949	220.655	151.217	276.078	280.301	151.177	155.981	281.994	287.220	154.938	159.104	158.941	162.558	274.100	161.420	-8191	255	
8511.254	1	1	0	0	0.19555	0.06901	0.3597	0.094864	0.086075	0.11927	0.17969	0.20388	0.12328	0.13886	0.10451	0.29922	0.28507	0.20464	0.0083596	0.29646	-1.9021	-2.2479	-2.5812	-2.3979	-2.1479	-2.7667	-2.4062	-2.6479	-2.3312	-2.2229	-2.4437	-2.5104	-2.5375	-2.675	-2.1917	-2.7	440.906	323.267	390.398	478.567	459.448	469.570	443.331	203.097	281.729	446.678	375.465	468.371	419.375	461.416	163.003	459.972	0.0040684	0.00079066	0.00025274	809.98	9.5838e-06	6.9069e-06	1129.9	248.46	1.4778e-05	7.3467e-06	486.49	233.58	107.66	51.15	1.1704e-05	130.69	0.0008039	0.00024839	7.0262e-05	757.92	2.8299e-06	2.5741e-06	1058.5	232.85	3.0257e-06	2.6656e-06	446.51	220.38	100.04	48.366	2.902e-06	124.22	377.751	226.179	216.079	151.045	281.695	296.425	151.046	156.035	279.136	259.800	155.722	159.122	159.140	162.203	300.253	161.575	-8191	255	
8511.350	1	1	0	0	0.15699	0.039261	0.16125	0.26557	0.24921	0.16658	0.22329	0.28015	0.22451	0.10774	0.037258	0.26273	0.22749	0.39431	0.0751	0.38521	-2.1708	-2.2687	-2.5771	-2.3354	-2.2229	-2.6063	-2.4021	-2.7083	-2.5146	-2.3292	-2.6688	-2.5542	-2.4062	-2.6333	-2.275	-2.7479	193.206	202.138	439.176	431.035	213.710	351.910	445.635	421.810	197.578	216.653	422.566	389.637	198.122	441.063	218.134	430.388	0.0041996	0.00085284	0.00015062	817.2	1.1577e-05	5.7961e-06	1143.9	250.58	1.4028e-05	7.3807e-06	489.22	233.87	108.41	51.542	1.021e-05	130.72	0.00081104	0.00022837	6.7152e-05	765.35	2.8192e-06	2.6785e-06	1069.3	234.85	2.9214e-06	2.6986e-06	454.37	221.49	100.52	48.577	2.7093e-06	124.4	377.880	240.742	235.000	151.290	286.959	268.836	151.113	155.699	269.637	311.442	155.979	159.294	158.755	162.417	292.146	161.720	-8191	255	
8511.446	1	1	0	0	0.12213	0.35457	0.36226	0.1081	0.07593	0.3147	0.24455	0.12033	0.17288	0.091303	0.20684	0.35709	0.22535	0.095689	0.063509	0.18269	-2.0438	-2.1708	-2.4479	-2.2729	-2.2979	-2.6188	-2.4917	-2.625	-2.5479	-2.3375	-2.4437	-2.6229	-2.3729	-2.7	-2.1958	-2.6188	470.058	294.286	242.790	307.925	251.495	347.108	384.870	461.545	405.752	440.424	276.150	425.877	164.097	492.177	245.955	452.473	0.0041061	0.00088745	0.00023587	817.95	1.0165e-05	5.9081e-06	1140.8	249.52	1.4937e-05	8.4712e-06	488.6	231.22	107.43	50.933	9.4675e-06	129.03	0.00078339	0.00027536	6.5597e-05	767.5	2.8587e-06	2.5673e-06	1068.5	234.22	2.7576e-06	2.669e-06	448.41	218.86	99.923	48.143	2.7585e-06	122.45	378.311	233.487	220.578	151.127	275.538	289.422	151.253	155.806	285.897	276.732	154.693	158.942	158.768	162.782	282.811	161.505	-8191	255	
8511.542	1	1	0	0	0.26239	0.054103	0.15046	0.10305	0.1886	0.038939	0.098785	0.22026	0.17217	0.18354	0.17761	0.2396	0.18236	0.22079	0.15927	0.28877	-2.0375	-2.1479	-2.2667	-2.5521	-2.0958	-2.5	-2.5354	-2.3792	-2.5896	-2.2583	-2.475	-2.6458	-2.2	-2.6354	-2.4583	-2.65	166.336	159.684	226.296	154.082	188.628	186.381	334.839	480.925	279.484	325.093	188.202	428.599	479.049	437.661	368.838	452.953	0.0041154	0.00093116	0.00025188	815.92	1.0404e-05	6.2996e-06	1133.3	249.06	1.2663e-05	7.1394e-06	488.36	232.6	107.89	51.315	1.002e-05	130.55	0.00079764	0.00025677	6.8344e-05	764.62	2.7383e-06	2.4482e-06	1063.5	232.94	2.645e-06	2.6463e-06	447.71	219.96	100.59	48.453	2.8984e-06	124.25	379.094	222.855	222.986	151.313	265.799	287.696	151.333	155.805	255.184	280.432	154.998	159.214	159.057	162.235	270.510	161.497	-8191	255	
8511.663	1	1	0	0	0.13802	0.087503	0.31733	0.30118	0.30596	0.091219	0.16835	0.24649	0.17345	0.21219	0.054494	0.16671	0.074084	0.26218	0.21765	0.033696	-2.0708	-2.2938	-2.5146	-2.5708	-2.4458	-2.4833	-2.5187	-2.3688	-2.7083	-2.3312	-2.4854	-2.7792	-2.4208	-2.7167	-2.3896	-2.6562	289.989	407.623	231.708	442.079	282.198	365.024	147.624	449.178	209.027	313.518	373.649	421.058	170.321	148.074	482.153	240.457	0.0042	0.00087317	0.00024201	827.25	8.5756e-06	5.8887e-06	1148.8	251.1	1.6815e-05	7.0263e-06	483.88	235.04	108.87	51.643	9.554e-06	132.1	0.00079455	0.00024615	6.7419e-05	774.14	2.9199e-06	2.3329e-06	1075.7	235.46	2.664e-06	2.5244e-06	446.76	222.24	101.29	48.813	2.9768e-06	125.34	377.018	225.154	217.292	151.258	301.962	294.413	151.468	155.802	263.611	294.571	155.354	159.143	158.738	162.428	273.776	161.365	-8191	255	
8511.757	1	1	0	0	0.15833	0.05725	0.1213	0.12299	0.014718	0.13842	0.1455	0.15229	0.056929	0.35442	0.12866	0.29954	0.27797	0.23916	0.28423	0.32694	-2.1979	-2.2833	-2.4958	-2.7229	-2.2229	-2.5812	-2.6542	-2.4083	-2.4979	-2.4771	-2.3979	-2.8083	-2.4479	-2.4646	-2.4583	-2.4146	271.226	379.547	302.440	251.391	296.439	204.490	388.426	382.968	290.701	436.497	297.720	167.353	420.425	198.052	487.121	469.038	0.0041102	0.00090635	0.00026646	822.61	1.2204e-05	6.0793e-06	1151.6	249.66	1.4134e-05	6.3832e-06	490.88	236.12	108.25	51.437	9.5807e-06	131.4	0.00079282	0.00024254	7.319e-05	771.98	2.5806e-06	2.4766e-06	1079.2	234.44	2.6932e-06	2.7273e-06	448.8	222.74	101.06	48.772	2.8549e-06	124.8	378.092	226.430	235.905	151.065	271.028	280.506	150.906	155.902	272.024	271.439	155.771	159.166	158.774	162.506	273.162	161.483	-8191	255	
8511.853	1	1	0	0	0.14887	0.20255	0.27301	0.13194	0.29897	0.091974	0.18474	0.20985	0.39101	0.1505	0.14858	0.46631	0.01988	0.23311	0.062424	0.47743	-2.025	-2.2438	-2.3729	-2.7833	-2.3083	-2.5	-2.5687	-2.4437	-2.6167	-2.4292	-2.325	-2.7271	-2.2167	-2.6833	-2.4708	-2.5521	378.820	456.976	188.511	494.906	226.610	180.383	440.815	194.268	187.401	181.103	486.808	450.190	496.501	496.267	372.539	450.435	0.0041896	0.00088106	0.00024882	831.03	1.1487e-05	4.8157e-06	1153.6	251.47	1.5902e-05	7.5981e-06	480.07	233.89	108.6	51.411	1.1614e-05	130.22	0.00079251	0.00025875	7.0071e-05	774.89	2.4973e-06	2.4971e-06	1081.5	234.57	2.4846e-06	2.655e-06	444.71	220.49	100.74	48.603	2.9833e-06	123.8	377.864	222.612	228.833	151.105	283.518	292.766	151.131	155.421	271.201	294.878	155.276	159.280	158.868	162.429	294.323	161.516	-8191	255	
8511.927	1	1	0	0	0.2986	0.042599	0.13516	0.27611	0.27786	0.054817	0.12227	0.11322	0.30551	0.16266	0.32836	0.081545	0.14802	0.17748	0.22189	0.33921	-2.1188	-2.2125	-2.2333	-2.6354	-2.3646	-2.5062	-2.6271	-2.4667	-2.4208	-2.5958	-2.3771	-2.8208	-2.4104	-2.3771	-2.5146	-2.4646	302.031	450.847	190.648	454.520	248.607	355.881	219.617	381.698	171.973	392.423	397.953	476.957	446.071	426.980	340.729	424.237	0.0041461	0.00084321	0.00018164	821.74	1.3166e-05	7.8254e-06	1148.4	249.64	1.8404e-05	8.4633e-06	487.94	233.31	109.01	51.367	9.1739e-06	131.26	0.00077763	0.00026024	7.3858e-05	770.65	2.558e-06	2.6201e-06	1076	233.32	2.74e-06	2.7398e-06	443.77	220.86	100.96	48.615	2.8164e-06	124.56	377.702	219.133	236.331	151.319	278.483	282.373	151.161	156.024	281.185	278.337	154.571	159.061	159.002	162.480	289.859	161.534	-8191	255	
8512.046	1	1	0	0	0.12547	0.22638	0.084579	0.05475	0.042366	0.03399	0.11339	0.23879	0.040719	0.091255	0.18019	0.23015	0.16341	0.23647	0.11013	0.50173	-2.0938	-2.3021	-2.2708	-2.6896	-2.1833	-2.3604	-2.7188	-2.2333	-2.5104	-2.5187	-2.3167	-2.6667	-2.4083	-2.4313	-2.4229	-2.5729	207.744	390.250	432.935	148.246	292.013	252.186	415.832	183.612	326.873	348.115	191.469	476.262	489.744	476.397	214.125	462.943	0.0040759	0.00091644	0.00020091	827.75	1.1896e-05	9.5302e-06	1150.4	250.5	1.5289e-05	7.5565e-06	488.89	235.92	108.96	52.019	1.2724e-05	132.48	0.00077441	0.00026317	7.3267e-05	772.53	2.7935e-06	2.6652e-06	1078.5	234.66	2.792e-06	2.6721e-06	450.21	222.24	101.39	49.006	3.0322e-06	125.64	378.537	228.659	225.890	151.284	286.376	284.748	151.101	155.586	269.513	305.520	155.569	159.451	158.846	162.361	293.328	161.621	-8191	255	
8512.142	1	1	0	0	0.14265	0.15906	0.1591	0.27875	0.05164	0.12759	0.2436	0.10993	0.11049	0.10272	0.17085	0.13037	0.036048	0.11	0.20947	0.38543	-2.0729	-2.3792	-2.1562	-2.5125	-2.3542	-2.3187	-2.6583	-2.2604	-2.4375	-2.4292	-2.1312	-2.7687	-2.4437	-2.3812	-2.5438	-2.4625	496.129	231.392	238.567	380.147	490.498	403.432	473.340	392.084	164.206	244.438	384.741	435.861	447.489	439.382	308.702	448.706	0.0042743	0.00089497	0.00019111	827.22	1.2896e-05	6.5473e-06	1158.1	252.75	1.8558e-05	6.8685e-06	483.2	234.96	109.08	51.537	1.1661e-05	130.1	0.00080265	0.00025207	6.9117e-05	776.31	2.7976e-06	2.6402e-06	1084.8	236.41	2.7751e-06	2.5718e-06	448.88	222.07	101.1	48.671	2.737e-06	124.23	378.482	206.483	218.303	151.310	281.220	297.556	151.297	155.647	263.131	298.578	155.717	159.196	158.995	162.509	275.840	161.469	-8191	255	
8512.238	1	1	0	0	0.0346	0.13582	0.09843	0.30068	0.106	0.14442	0.30801	0.21828	0.11805	0.17008	0.12184	0.11882	0.072453	0.18671	0.072805	0.21072	-1.9146	-2.3229	-2.2708	-2.6271	-2.4917	-2.2229	-2.7208	-2.2521	-2.2812	-2.5229	-2.0687	-2.7083	-2.5563	-2.2521	-2.6271	-2.5187	245.180	422.309	249.012	440.560	378.258	289.900	471.268	396.127	402.364	224.420	373.430	477.371	240.017	148.336	200.900	445.727	0.0042216	0.00085904	0.00024801	828.88	1.2036e-05	7.6677e-06	1149.3	250.87	1.774e-05	5.6106e-06	484.87	231.84	108.47	50.907	1.0235e-05	128.71	0.00080534	0.00024458	6.5778e-05	773.57	2.8004e-06	2.6504e-06	1075.2	235.39	3.0371e-06	2.6687e-06	446.67	219.39	100.39	48.186	2.6039e-06	122.7	379.654	224.207	232.403	151.143	283.064	288.747	151.313	156.051	272.141	269.836	155.482	159.234	158.515	162.533	284.170	161.330	-8191	255	
8512.334	1	1	0	0	0.13666	0.18418	0.3749	0.27937	0.09751	0.13876	0.15694	0.40925	0.16139	0.23687	0.17556	0.34993	0.29321	0.1852	0.065931	0.15964	-1.9104	-2.4646	-2.3563	-2.4313	-2.3146	-2.3646	-2.7292	-2.2979	-2.3458	-2.5167	-2.3875	-2.6167	-2.5146	-2.2021	-2.4646	-2.5208	456.413	249.873	449.087	488.365	363.043	253.139	454.076	413.439	461.370	171.152	493.759	451.498	463.974	184.558	290.677	411.927	0.0040249	0.00086508	0.0002437	827.51	1.3173e-05	8.123e-06	1148.9	253.03	1.7681e-05	7.4208e-06	485.65	233.01	109.01	51.366	9.7925e-06	130.88	0.00079799	0.00023555	5.9472e-05	773.72	2.8445e-06	2.6117e-06	1075.7	236.59	2.7404e-06	2.6505e-06	448.02	220.31	101.08	48.493	2.7201e-06	124.17	378.898	217.391	221.524	150.941	288.810	278.499	151.164	155.829	263.858	297.094	155.409	159.180	158.804	162.497	269.644	161.325	-8191	255	
8512.455	1	1	0	0	0.31544	0.27379	0.081944	0.18369	0.079318	0.1152	0.3464	0.18225	0.1143	0.20799	0.15756	0.15534	0.31388	0.10966	0.24179	0.16213	-1.8062	-2.5375	-2.1188	-2.5292	-2.5896	-2.3396	-2.7896	-2.5687	-2.3917	-2.6479	-2.4458	-2.8063	-2.6792	-2.5667	-2.5771	-2.6792	429.357	392.767	470.944	462.652	296.049	321.528	378.010	150.056	154.891	468.538	167.185	479.924	391.125	143.124	459.947	480.070	0.0042361	0.00089315	0.00021665	829.45	1.4448e-05	1.0255e-05	1155.4	252.45	1.6411e-05	7.9668e-06	493.76	234.79	109.28	51.677	9.9057e-06	131.12	0.00081238	0.00023736	6.4471e-05	775.89	2.8212e-06	2.6625e-06	1080.7	237.1	2.7283e-06	2.2932e-06	451.99	221.76	101.71	48.805	2.8794e-06	124.74	378.814	221.474	206.189	151.077	284.023	285.924	151.212	156.063	276.717	270.131	156.055	159.388	159.059	162.381	275.643	161.590	-8191	255	
8512.526	1	1	0	0	0.04441	0.17411	0.055726	0.18559	0.21881	0.44519	0.16421	0.35279	0.14231	0.2746	0.35185	0.36383	0.017492	0.28397	0.22999	0.34519	-1.9062	-2.5208	-2.2	-2.3479	-2.7271	-2.1854	-2.7646	-2.4854	-2.3646	-2.5896	-2.3854	-2.75	-2.6417	-2.2271	-2.6146	-2.6542	218.395	495.324	247.627	163.829	477.322	147.897	478.588	422.422	420.886	425.804	288.924	399.842	324.736	433.597	248.909	410.183	0.0042236	0.00066727	0.00024536	837.14	1.2636e-05	6.2262e-06	1159.1	256.88	1.8051e-05	6.8875e-06	489.71	235.44	110.35	51.507	9.9628e-06	130.55	0.00080101	0.00023181	6.8306e-05	781.77	2.6893e-06	2.4907e-06	1090.8	239.99	2.6791e-06	2.3386e-06	454.29	222.62	102.08	48.686	2.7675e-06	124.16	378.652	221.871	225.488	151.453	282.561	298.288	151.091	155.793	270.301	304.447	155.159	159.382	158.888	162.362	286.134	161.534	-8191	255	
8512.623	1	1	0	0	0.1947	0.10137	0.18692	0.11131	0.1864	0.087478	0.072547	0.2331	0.10641	0.0063606	0.15269	0.41838	0.39468	0.19827	0.11466	0.087578	-1.775	-2.2729	-2.2229	-2.3646	-2.6	-2.2333	-2.625	-2.5604	-2.1937	-2.5354	-2.4875	-2.5208	-2.5917	-2.3396	-2.4958	-2.7313	198.902	164.232	270.113	467.624	361.946	240.825	379.424	426.934	180.539	410.955	302.630	421.537	152.011	472.926	151.982	184.784	0.0042541	0.00084274	0.00028826	832.63	1.2244e-05	8.386e-06	1153	254.32	1.4175e-05	7.0545e-06	489.56	231.06	108.49	51.028	1.088e-05	129.13	0.00080795	0.00022779	7.0386e-05	782.93	2.5511e-06	2.5688e-06	1082.6	238.1	2.6953e-06	2.5332e-06	449.22	218.92	100.56	48.076	2.8071e-06	122.61	377.881	222.196	216.893	151.310	283.722	293.207	151.117	155.738	268.270	293.146	155.292	159.269	158.866	162.553	286.437	161.335	-8191	255	
8512.743	1	1	0	0	0.055277	0.28757	0.35072	0.26478	0.43673	0.10075	0.091712	0.15505	0.18489	0.26242	0.25318	0.18631	0.23024	0.33264	0.16121	0.14584	-1.6771	-2.375	-2.4	-2.3042	-2.575	-2.475	-2.5938	-2.6542	-2.1771	-2.4042	-2.3917	-2.3563	-2.8	-2.3583	-2.475	-2.5646	251.440	317.504	466.149	421.450	422.455	307.455	369.133	379.769	311.570	443.070	347.676	493.999	457.536	178.007	371.691	416.626	0.0043088	0.00080492	0.00019771	834	1.0675e-05	7.5112e-06	1150.9	254.54	1.7832e-05	7.6908e-06	479.94	232.35	108.22	51.077	1.348e-05	129.49	0.00079241	0.00023712	6.9346e-05	778.2	2.4872e-06	2.6671e-06	1079.5	238.07	2.5731e-06	2.61e-06	446.73	219.75	100.88	48.382	2.9545e-06	123.23	378.638	216.270	236.129	151.451	270.082	279.142	151.023	155.791	278.920	286.151	155.621	159.558	158.901	162.323	291.496	161.340	-8191	255	
8512.838	1	1	0	0	0.012491	0.058095	0.28051	0.37634	0.12246	0.11552	0.43815	0.064225	0.055641	0.23832	0.18535	0.27148	0.21779	0.16602	0.16021	0.12792	-2.0167	-2.4	-2.3688	-2.2792	-2.6979	-2.4437	-2.5938	-2.9292	-2.4062	-2.4917	-2.3646	-2.5604	-2.5771	-2.5375	-2.3271	-2.875	318.466	496.778	173.166	430.349	490.425	306.513	407.285	149.509	144.040	229.141	481.594	466.925	144.937	420.378	423.805	419.451	0.0040439	0.00060217	0.00017763	828.27	1.5029e-05	9.1717e-06	1160	255.58	1.5488e-05	8.3283e-06	491.89	234.86	109.54	51.673	1.0332e-05	131.01	0.00077793	0.00023852	6.4938e-05	778.47	2.4688e-06	2.6417e-06	1084.5	239.64	2.538e-06	2.6895e-06	454.45	221.83	101.72	48.793	2.8067e-06	124.74	378.828	225.007	233.516	151.063	288.975	273.128	151.119	155.965	257.791	286.219	155.426	159.200	158.898	162.199	282.440	161.353	-8191	255	
8512.935	1	1	0	0	0.15337	0.066394	0.16566	0.25926	0.17318	0.26222	0.18769	0.27937	0.27737	0.096287	0.21113	0.099062	0.088084	0.19515	0.249	0.28807	-1.8708	-2.3125	-2.4979	-2.4979	-2.4938	-2.4167	-2.575	-2.5771	-2.2687	-2.3625	-2.3937	-2.45	-2.5667	-2.5083	-2.3042	-2.8438	489.783	311.418	409.030	449.031	155.598	207.787	451.006	357.835	179.551	437.321	378.535	143.841	203.153	148.171	486.471	442.006	0.0041152	0.00095351	0.00021574	837.56	1.0585e-05	9.7068e-06	1166.2	255.98	1.6862e-05	7.2629e-06	496.92	235.17	109.26	51.405	8.6234e-06	129.98	0.00078849	0.00025473	6.8306e-05	782.2	2.4584e-06	2.6811e-06	1090.2	240.14	2.6781e-06	2.5207e-06	456.57	222.25	101.71	48.76	2.8082e-06	123.89	379.037	228.722	224.027	151.309	283.720	268.023	151.315	155.541	268.542	287.818	155.799	159.221	158.697	162.324	303.593	161.710	-8191	255	
8513.054	1	1	0	0	0.12556	0.075159	0.10999	0.2051	0.065929	0.36029	0.25824	0.14531	0.15793	0.12568	0.24595	0.49127	0.17764	0.1625	0.32092	0.30561	-1.7021	-2.3958	-2.4771	-2.3083	-2.3812	-2.4458	-2.5646	-2.5542	-2.4229	-2.275	-2.5333	-2.4458	-2.6188	-2.4292	-2.2375	-2.6729	360.926	481.619	300.775	156.596	153.705	208.739	482.162	408.666	470.719	272.665	191.009	430.410	399.403	405.753	341.895	445.460	0.0042862	0.00069642	0.00025952	822.92	7.8026e-06	7.2744e-06	1153.3	253.66	1.6608e-05	7.4162e-06	480.22	231.09	107.59	50.762	8.4139e-06	128.81	0.00081067	0.00023692	6.7104e-05	774.1	2.5813e-06	2.7122e-06	1079.1	237.91	2.9548e-06	2.5123e-06	446.27	218.44	100.04	47.996	2.678e-06	122.24	378.462	229.953	236.310	151.387	306.841	291.568	151.227	155.939	278.383	289.061	155.754	159.249	159.200	162.351	289.081	161.429	-8191	255	
8513.126	1	1	0	0	0.20818	0.20721	0.20214	0.15376	0.044816	0.081205	0.31758	0.12934	0.19878	0.19739	0.35554	0.060937	0.10599	0.22346	0.27584	0.22149	-1.7958	-2.3271	-2.3438	-2.2208	-2.3458	-2.5	-2.5125	-2.5354	-2.3979	-2.2354	-2.3521	-2.4896	-2.4729	-2.7104	-2.4396	-2.8208	210.953	383.578	169.482	353.331	237.571	431.154	416.879	174.050	411.842	339.936	309.603	384.528	205.222	472.234	154.300	457.990	0.0039756	0.0006974	0.00020718	825.91	1.175e-05	7.1077e-06	1146	253.95	1.8461e-05	6.3015e-06	482.12	232.32	107.47	50.938	1.2709e-05	129.7	0.00078794	0.00023276	6.3841e-05	773.28	2.7851e-06	2.5825e-06	1073.9	237.51	2.7535e-06	2.462e-06	446.93	219.47	100.2	48.172	2.7327e-06	123.23	378.339	229.690	219.671	151.183	273.484	285.080	151.129	155.716	272.537	285.458	154.752	159.027	159.000	162.432	279.045	161.349	-8191	255	
8513.222	1	1	0	0	0.24557	0.17016	0.42843	0.18538	0.091759	0.015496	0.18502	0.37848	0.12145	0.070193	0.14504	0.1278	0.23329	0.21981	0.048609	0.32432	-2.0167	-2.1937	-2.6833	-2.4271	-2.5604	-2.3521	-2.5271	-2.7333	-2.4604	-2.2646	-2.4292	-2.4083	-2.5167	-2.7333	-2.1604	-2.6479	262.560	264.364	342.588	305.892	483.235	372.722	488.489	449.951	291.237	304.346	443.503	390.613	427.990	475.280	378.795	464.407	0.004099	0.00087765	0.00020442	828.9	1.3577e-05	6.5182e-06	1154.8	254.09	1.8973e-05	7.9777e-06	483	232.94	107.72	50.867	9.4119e-06	129.91	0.00079033	0.00025074	6.1991e-05	774.99	2.7681e-06	2.5317e-06	1080	237.29	2.9066e-06	2.6308e-06	447.88	220.08	100.31	48.033	2.4507e-06	123.45	379.001	213.619	217.983	151.173	273.974	292.253	151.022	155.834	275.761	288.390	155.495	159.228	158.936	162.188	275.668	161.619	-8191	255	
8513.343	1	1	0	0	0.16123	0.17242	0.12691	0.32101	0.089673	0.09648	0.34785	0.16127	0.25337	0.1648	0.056821	0.28413	0.090891	0.23336	0.2179	0.26741	-2.0479	-2.2646	-2.3896	-2.3125	-2.2271	-2.4771	-2.2125	-2.5021	-2.4479	-2.3583	-2.5792	-2.4292	-2.3646	-2.9042	-2.2313	-2.8	437.733	272.892	407.997	456.884	298.537	194.412	393.565	445.587	494.276	232.730	157.464	437.289	225.774	481.763	221.074	457.397	0.0042096	0.00082834	0.00021133	827.68	1.1893e-05	7.8806e-06	1161.1	254.51	1.4991e-05	8.0817e-06	494.2	233.08	108.04	50.55	1.0159e-05	129.32	0.00080348	0.00023719	5.8718e-05	779.1	2.574e-06	2.5643e-06	1088.1	238.26	2.7562e-06	2.4041e-06	454.09	220.09	100.28	47.869	2.6622e-06	122.77	377.516	223.681	230.053	151.265	277.360	289.465	151.282	155.770	276.364	283.900	155.203	159.388	158.694	162.399	283.397	161.520	-8191	255	
8513.439	1	1	0	0	0.15087	0.26568	0.11134	0.084541	0.086667	0.1156	0.19515	0.043545	0.29669	0.1258	0.082055	0.1165	0.27452	0.38024	0.23634	0.26923	-2.0312	-2.4375	-2.475	-2.4646	-2.2938	-2.5125	-2.3979	-2.3688	-2.4729	-2.2625	-2.5896	-2.5854	-2.4458	-2.8292	-2.1271	-2.4062	482.766	212.869	440.581	193.416	423.049	330.160	437.806	391.782	224.212	396.634	153.776	154.644	476.817	163.476	148.221	419.471	0.0043004	0.00074693	0.00022746	830.89	1.1812e-05	7.1524e-06	1155.2	251.35	1.6536e-05	7.0731e-06	491.15	231.47	107.43	50.286	1.2479e-05	128.48	0.00080913	0.00022708	6.3116e-05	778.33	2.6202e-06	2.3655e-06	1080.8	236.42	2.6857e-06	2.3352e-06	445.17	218.27	100.03	47.688	2.8161e-06	122.01	377.778	238.525	219.994	151.048	276.920	292.722	151.017	155.587	252.181	292.596	155.159	159.087	159.184	162.368	285.075	161.409	-8191	255	
8513.535	1	1	0	0	0.27764	0.12322	0.013555	0.18558	0.22319	0.13272	0.17106	0.20069	0.24389	0.18534	0.13091	0.45174	0.032896	0.063941	0.080193	0.18305	-1.7917	-2.1792	-2.5417	-2.4125	-2.4479	-2.6	-2.5896	-2.1937	-2.5042	-2.0979	-2.5333	-2.6167	-2.375	-2.6604	-2.2979	-2.6917	465.046	315.468	469.054	219.002	455.552	395.071	447.537	440.724	238.118	184.117	468.759	428.078	461.443	178.639	436.692	449.257	0.0041482	0.00081296	0.00019011	829.27	1.3743e-05	8.7705e-06	1154.7	253.25	1.7747e-05	7.7778e-06	485.53	232.77	107.73	50.924	1.0811e-05	128.87	0.000786	0.00022353	6.8001e-05	777.82	2.6261e-06	2.2236e-06	1081.4	236.43	2.4957e-06	2.4968e-06	446.82	219.4	100.54	48.062	2.9916e-06	122.77	378.528	227.210	217.538	151.349	277.479	269.259	151.091	155.785	271.479	281.957	156.604	159.125	158.730	162.199	287.445	161.516	-8191	255	
8513.631	1	1	0	0	0.098426	0.10935	0.016875	0.3882	0.11956	0.31261	0.47756	0.31953	0.29989	0.11686	0.32023	0.20998	0.17838	0.29662	0.099706	0.4514	-2.0938	-2.325	-2.4354	-2.5	-2.1542	-2.5875	-2.5187	-2.2062	-2.5417	-2.3271	-2.45	-2.6667	-2.5021	-2.6688	-2.3542	-2.5896	477.436	497.651	315.322	451.482	442.747	317.054	457.755	319.164	423.867	231.993	301.456	460.780	145.650	493.759	247.931	402.541	0.004164	0.00067277	0.00020219	832.45	9.8663e-06	8.8067e-06	1157.3	253.39	1.5434e-05	7.3438e-06	482.85	234.14	109.24	51.235	1.0676e-05	130.61	0.00078273	0.00023954	6.9451e-05	778.77	2.4365e-06	2.4888e-06	1085.1	237.11	2.4017e-06	2.6373e-06	447.1	221.15	101.37	48.438	2.7528e-06	124.36	379.011	230.452	232.047	151.359	274.353	284.405	151.052	155.962	290.509	264.700	154.820	159.105	159.020	162.342	281.271	161.503	-8191	255	
8513.750	1	1	0	0	0.30466	0.12049	0.14762	0.20465	0.11968	0.13369	0.24051	0.10178	0.0393	0.23648	0.13296	0.25533	0.17467	0.14371	0.014893	0.14711	-2.0833	-2.3375	-2.3604	-2.5896	-2.2625	-2.5667	-2.5312	-2.4125	-2.5083	-2.4104	-2.3688	-2.7792	-2.2375	-2.7083	-2.4854	-2.6292	177.973	454.136	319.155	496.494	495.499	448.516	172.237	142.623	203.997	151.091	369.406	412.517	192.537	480.244	244.678	478.118	0.0041541	0.00083211	0.00018059	836.18	9.9898e-06	7.7308e-06	1176.3	251.44	1.6128e-05	6.977e-06	477.54	232.25	107.61	50.304	1.1047e-05	127.48	0.00077315	0.00023596	6.7915e-05	782.87	2.3678e-06	2.5836e-06	1096.6	236.13	2.4616e-06	2.4506e-06	439.9	219.24	100.11	47.419	2.7017e-06	121.12	376.955	212.642	218.924	151.399	271.409	290.757	150.936	155.696	266.567	289.326	156.464	159.171	159.082	162.332	279.152	161.544	-8191	255	
8513.824	1	1	0	0	0.14937	0.14781	0.20648	0.20222	0.37438	0.11505	0.25844	0.29511	0.19404	0.21456	0.14086	0.22228	0.071589	0.32053	0.085659	0.13336	-2.1	-2.1854	-2.3646	-2.5062	-2.4479	-2.45	-2.7271	-2.4167	-2.7229	-2.4979	-2.4208	-2.7708	-2.2729	-2.8167	-2.4917	-2.5167	292.550	393.977	317.386	450.631	347.318	364.371	420.862	372.382	493.294	241.209	334.297	164.669	337.572	459.029	338.525	393.029	0.0040646	0.00076903	0.00015308	834.93	1.3615e-05	7.5987e-06	1160.8	244.88	1.5084e-05	8.662e-06	461.65	223.06	104.49	47.725	1.2677e-05	122.71	0.00075613	0.00023739	5.9835e-05	780.44	2.4032e-06	2.2748e-06	1085.5	228.42	2.3848e-06	2.3439e-06	425.63	210.49	96.828	44.999	2.5439e-06	116.48	378.401	228.965	237.098	151.493	270.429	283.030	151.012	155.829	282.481	289.826	155.484	159.055	158.923	162.249	278.882	161.283	-8191	255	
8513.920	1	1	0	0	0.12889	0.079629	0.15911	0.055167	0.192	0.087254	0.14084	0.14341	0.065727	0.088394	0.1239	0.1531	0.28008	0.31869	0.10489	0.10613	-2.1146	-2.4167	-2.3771	-2.6562	-2.5875	-2.6521	-2.6688	-2.6271	-2.5625	-2.4875	-2.3417	-2.9354	-2.4417	-2.5542	-2.45	-2.4396	224.850	352.875	161.363	273.952	347.915	241.580	427.887	422.440	374.096	421.954	299.525	440.102	466.157	442.271	292.346	465.489	0.0038628	0.00083212	0.00018712	829.59	1.2929e-05	8.0945e-06	1155	242.04	1.9611e-05	8.5084e-06	462.31	224.44	105.19	47.871	8.4972e-06	122.86	0.00072785	0.00022336	5.9281e-05	776.22	2.5264e-06	2.1906e-06	1082.6	226.9	2.6048e-06	2.3378e-06	424.48	211.64	97.957	45.244	2.5324e-06	116.8	378.397	232.734	217.855	151.294	271.163	297.009	151.029	155.829	267.894	295.919	155.086	159.110	159.051	162.455	282.669	161.372	-8191	255	
8514.016	1	1	0	0	0.17561	0.15347	0.19004	0.079825	0.032448	0.1458	0.10465	0.30633	0.10021	0.18574	0.07066	0.18133	0.08107	0.098868	0.16429	0.30447	-2.1021	-2.5187	-2.2917	-2.7979	-2.3708	-2.4667	-2.825	-2.4188	-2.6104	-2.3688	-2.3917	-2.6375	-2.5187	-2.5854	-2.4708	-2.5042	354.976	418.931	402.529	446.186	465.265	412.264	266.615	337.582	433.245	376.019	466.280	396.566	483.321	168.368	410.835	390.814	0.0039296	0.00083266	0.00020603	833.72	1.1091e-05	8.2696e-06	1159.1	242.52	1.2304e-05	7.3488e-06	462.3	223.64	104.65	47.183	9.8728e-06	122.09	0.00074681	0.00021951	5.7869e-05	782.1	2.3091e-06	2.0851e-06	1086.4	226.61	2.4478e-06	2.2644e-06	423.34	210.97	97.506	44.748	2.3338e-06	116.22	378.691	233.702	216.188	151.330	274.362	292.134	150.967	155.460	272.543	288.202	154.157	159.100	158.675	162.404	281.804	161.606	-8191	255	
8514.135	1	1	0	0	0.066393	0.21928	0.11791	0.19689	0.33804	0.062655	0.17112	0.15186	0.20988	0.25234	0.086973	0.19187	0.23687	0.091705	0.085483	0.050664	-2.0375	-2.3833	-2.4583	-2.6583	-2.3063	-2.275	-2.8354	-2.4667	-2.5604	-2.5479	-2.1208	-2.7938	-2.4542	-2.6333	-2.5333	-2.55	358.647	491.888	303.455	452.249	159.448	255.963	234.918	382.955	420.526	385.055	294.951	430.012	146.137	138.895	401.234	341.184	0.0039294	0.00090251	0.00017967	835.29	8.2066e-06	8.2495e-06	1161.6	243.15	1.6512e-05	7.4188e-06	458.34	222.93	105.31	47.167	1.2063e-05	121.6	0.0007413	0.00021594	5.7392e-05	783.59	2.2521e-06	2.2843e-06	1091.4	227.73	2.4372e-06	2.2345e-06	423.19	210.82	97.582	44.551	2.3364e-06	115.39	378.299	226.636	220.997	151.376	293.347	271.437	151.046	155.717	284.182	295.934	155.803	159.157	158.509	162.253	277.588	161.512	-8191	255	
8514.231	1	1	0	0	0.10687	0.079651	0.11393	0.22629	0.15264	0.086299	0.28291	0.12378	0.20494	0.14853	0.1552	0.25994	0.10517	0.1407	0.051428	0.091815	-1.95	-2.3375	-2.2417	-2.5	-2.3021	-2.3979	-2.6583	-2.3417	-2.3833	-2.6312	-2.2313	-2.5187	-2.6063	-2.5042	-2.5417	-2.5958	343.646	457.279	323.584	492.864	412.284	358.436	469.252	452.856	476.088	331.537	258.349	459.938	479.546	265.090	405.829	143.265	0.0039056	0.00083322	0.00024013	834.6	1.6122e-05	9.4026e-06	1160.2	241.4	1.5486e-05	6.8259e-06	456.54	218.73	103.13	46.341	1.4239e-05	119.45	0.00073665	0.00021247	5.5284e-05	782.09	2.4448e-06	2.2194e-06	1085.7	226.21	2.3246e-06	2.0573e-06	420.45	206.87	95.645	43.84	2.5928e-06	113.31	376.667	218.956	225.118	151.292	277.022	290.105	150.982	155.694	274.360	270.461	155.149	159.189	159.018	162.251	296.563	161.388	-8191	255	
8514.327	1	1	0	0	0.20528	0.25577	0.22923	0.14697	0.31137	0.18183	0.21324	0.31964	0.16473	0.057568	0.1174	0.1764	0.3547	0.040167	0.30422	0.3331	-2.1646	-2.4708	-2.2458	-2.7125	-2.4625	-2.5021	-2.6229	-2.4083	-2.5854	-2.6083	-2.3979	-2.8917	-2.6167	-2.4562	-2.6292	-2.65	429.930	387.030	218.705	435.937	304.928	446.286	458.463	391.781	347.968	291.952	478.660	348.648	159.752	338.418	245.661	434.582	0.0037658	0.00070077	0.00018396	814.44	1.3561e-05	7.8678e-06	1126.6	242.83	1.4471e-05	6.9071e-06	474.34	218.12	100.08	44.778	1.0377e-05	115.74	0.000715	0.00020637	5.8947e-05	761.97	2.3125e-06	2.224e-06	1058.4	227.36	2.5621e-06	1.8495e-06	438.09	206.07	93.401	42.392	2.6089e-06	109.96	378.868	229.472	228.617	151.118	266.875	288.566	151.085	155.693	276.615	282.669	155.720	159.377	159.117	162.592	286.748	161.620	-8191	255	
8514.423	1	1	0	0	0.07268	0.068958	0.17017	0.064438	0.24757	0.1776	0.017917	0.13266	0.13469	0.065023	0.10709	0.26516	0.059434	0.17718	0.23192	0.055754	-1.9479	-2.6146	-2.2396	-2.6292	-2.4854	-2.4417	-2.6333	-2.4062	-2.4979	-2.7708	-2.3104	-2.7708	-2.5125	-2.275	-2.5438	-2.7271	235.010	365.822	461.179	462.434	192.031	250.545	176.801	142.320	170.489	377.667	355.614	435.998	209.395	215.616	156.971	260.164	0.0035722	0.00073897	0.00016602	809.65	1.1931e-05	8.1405e-06	1145.7	247.57	1.7523e-05	6.4836e-06	494.62	214.45	96.967	42.543	9.1889e-06	110.29	0.00068966	0.00021042	6.0769e-05	757.89	2.3726e-06	2.3852e-06	1071.7	232.02	2.5425e-06	2.1762e-06	453.16	202.43	90.482	40.374	2.4993e-06	104.88	378.838	225.024	222.048	151.247	275.307	281.248	151.136	156.074	273.932	306.143	155.204	159.552	159.091	162.772	282.585	161.843	-8191	255	
8514.519	1	1	0	0	0.18303	0.12997	0.19403	0.0024109	0.069727	0.22518	0.077343	0.29321	0.23095	0.28094	0.22718	0.1868	0.17585	0.20694	0.19987	0.16682	-1.8292	-2.4646	-2.4792	-2.5146	-2.4417	-2.35	-2.8542	-2.65	-2.2417	-2.6583	-2.2729	-2.7104	-2.7792	-2.4083	-2.7083	-2.7271	292.787	284.016	459.413	174.636	259.327	278.283	197.444	210.658	229.894	206.995	435.018	444.515	181.153	360.333	239.418	457.166	0.0034957	0.0007613	0.00022223	816.89	1.0644e-05	5.7262e-06	1149.9	241.74	1.2878e-05	7.7517e-06	486.35	204.79	93.049	39.827	9.4922e-06	104.13	0.00066321	0.00020348	6.45e-05	763.99	2.2212e-06	2.3329e-06	1077.1	227.01	2.3769e-06	2.2042e-06	444.82	193.58	86.265	37.582	2.5363e-06	99.228	378.008	218.077	235.806	151.346	269.772	293.235	151.078	155.657	274.536	277.126	155.219	159.279	158.946	162.723	291.004	161.847	-8191	255	
8514.616	1	1	0	0	0.22802	0.18698	0.11276	0.18727	0.23949	0.15089	0.34626	0.26298	0.21676	0.099515	0.21574	0.23021	0.3076	0.088318	0.21077	0.020059	-1.8687	-2.5062	-2.2417	-2.475	-2.7083	-2.4604	-2.7458	-2.7021	-2.3729	-2.6917	-2.3729	-2.4479	-2.8354	-2.5208	-2.6458	-2.7687	379.064	410.159	275.180	151.701	187.136	200.376	424.825	458.858	211.206	214.298	324.141	449.330	412.761	161.728	248.905	382.251	0.00343	0.00076873	0.00012972	802.72	1.1822e-05	6.913e-06	1139.5	235.4	1.4291e-05	6.7634e-06	466.17	197.47	89.551	37.802	8.3164e-06	101.09	0.00064823	0.000203	6.1208e-05	755.45	2.0851e-06	2.3207e-06	1062.8	221.29	2.2998e-06	2.1395e-06	430.28	186.63	83.106	35.72	2.2454e-06	95.745	379.426	235.255	236.328	151.020	280.427	278.667	150.973	155.382	262.611	272.560	155.324	159.332	159.021	162.913	292.067	161.900	-8191	255	
8514.736	1	1	0	0	0.26418	0.10326	0.12574	0.12137	0.12946	0.06616	0.21358	0.21294	0.10429	0.12416	0.060779	0.22809	0.20621	0.23563	0.27	0.31485	-1.9104	-2.5958	-2.3542	-2.4396	-2.6604	-2.4146	-2.7042	-2.7521	-2.3521	-2.8146	-2.4896	-2.4521	-2.6583	-2.35	-2.525	-2.8458	439.488	485.558	210.933	348.089	306.910	468.298	412.237	474.533	348.909	436.830	176.851	446.309	435.954	495.574	422.677	440.935	0.0033407	0.00069691	0.00017868	798.81	1.0584e-05	6.7164e-06	1118.7	232.9	1.305e-05	8.1304e-06	470	195.69	88.33	37.659	7.9383e-06	101.18	0.00064704	0.00021015	5.8861e-05	748.22	2.2323e-06	2.3317e-06	1051.2	218.7	2.4537e-06	2.1486e-06	427.62	184.96	82.338	35.625	2.2648e-06	96.473	377.260	230.156	238.510	150.943	279.051	276.854	150.815	155.671	272.422	269.282	154.303	159.460	159.118	163.017	279.928	162.119	-8191	255	
8514.831	1	1	0	0	0.11269	0.18898	0.033743	0.17102	0.26448	0.17753	0.15979	0.27906	0.037419	0.20122	0.090492	0.095496	0.13416	0.13599	0.18584	0.20646	-1.9646	-2.5854	-2.4	-2.325	-2.7562	-2.5021	-2.7896	-2.6437	-2.3417	-2.525	-2.5375	-2.5	-2.6229	-2.4771	-2.5167	-2.7958	324.520	265.983	392.037	145.156	240.534	290.611	163.506	433.920	220.665	396.149	230.783	144.583	454.196	372.488	185.297	174.309	0.0033417	0.00067715	0.00024279	809.51	1.1431e-05	7.621e-06	1136.5	238.05	1.434e-05	6.3934e-06	471.11	199.95	91.293	38.84	8.3135e-06	105.09	0.00064471	0.00022149	5.9701e-05	755.91	2.3629e-06	2.5571e-06	1062.6	222.65	2.4495e-06	2.3216e-06	433.84	188.83	84.841	36.779	2.4522e-06	99.674	377.892	225.874	225.006	151.413	279.825	286.634	150.797	155.790	273.649	284.577	153.635	159.293	158.601	162.958	273.566	161.871	-8191	255	
8514.927	1	1	0	0	0.1264	0.22061	0.15639	0.18898	0.20159	0.2115	0.18771	0.046827	0.17213	0.10705	0.25219	0.33293	0.085393	0.21406	0.24198	0.15619	-1.8917	-2.3333	-2.4771	-2.4375	-2.6	-2.4188	-2.4938	-2.8208	-2.4125	-2.6167	-2.5729	-2.5208	-2.5479	-2.4542	-2.2042	-2.7333	182.757	285.106	299.740	400.253	179.540	192.604	345.964	373.919	350.137	398.718	379.790	460.828	142.309	181.782	172.624	464.747	0.0034203	0.00064657	0.00016729	819.13	9.4427e-06	9.5582e-06	1146.1	241.51	1.3922e-05	8.274e-06	472.53	201.02	91.529	39.503	8.4777e-06	105.13	0.00067488	0.00020695	5.8432e-05	765.57	2.5237e-06	2.436e-06	1073.2	225.73	2.6051e-06	2.1966e-06	436.55	189.48	85.137	37.217	2.354e-06	99.951	379.134	219.796	211.308	151.209	270.745	284.040	150.874	155.505	266.243	280.436	155.700	159.172	158.921	162.616	278.908	161.806	-8191	255	
8515.025	1	1	0	0	0.31477	0.10264	0.16702	0.17309	0.084344	0.12313	0.31926	0.20955	0.11017	0.058165	0.14335	0.13321	0.21441	0.16989	0.16503	0.19287	-1.8438	-2.625	-2.5583	-2.3958	-2.6458	-2.5396	-2.4979	-2.8187	-2.225	-2.3	-2.6875	-2.3479	-2.7292	-2.6604	-2.4667	-2.5563	138.864	320.647	187.941	474.184	497.666	345.984	418.953	472.985	172.596	358.616	475.056	420.498	424.761	416.229	306.733	453.564	0.0033428	0.00082559	0.00020582	821.5	1.1088e-05	5.3915e-06	1142.5	241.77	1.566e-05	6.3887e-06	472.41	199.65	92.523	39.327	1.0421e-05	105.18	0.0006657	0.00022067	5.4817e-05	766.15	2.3466e-06	2.3287e-06	1067.7	227	2.5635e-06	2.1474e-06	434.11	188.72	85.696	37.313	2.3846e-06	99.776	378.406	220.978	215.672	151.270	269.058	284.960	151.001	155.838	270.194	298.544	154.943	159.304	158.873	163.091	281.691	161.952	-8191	255	
8515.119	1	1	0	0	0.15782	0.087558	0.072511	0.21746	0.11195	0.23518	0.17447	0.27269	0.17954	0.084792	0.12914	0.16349	0.057277	0.20872	0.16726	0.28066	-1.8458	-2.5292	-2.5333	-2.3937	-2.5667	-2.6312	-2.4375	-2.8063	-2.5312	-2.4854	-2.7438	-2.5646	-2.75	-2.6312	-2.3417	-2.8187	407.103	331.446	354.983	205.962	290.809	425.216	194.912	417.568	480.206	320.934	276.731	427.302	497.841	164.136	438.625	411.999	0.0033055	0.00071331	0.00021116	826.98	1.2269e-05	7.2182e-06	1145.5	244.22	1.7141e-05	4.5475e-06	475.55	201.15	92.655	39.784	1.2166e-05	105.74	0.00065906	0.00020732	5.7411e-05	773.31	2.3299e-06	2.2145e-06	1072.3	228.82	2.5201e-06	2.1228e-06	435.72	190.19	86.437	37.656	2.5158e-06	100.42	378.712	217.159	219.133	151.260	282.840	295.254	151.081	156.091	272.050	300.323	155.078	159.520	158.854	163.086	276.425	162.017	-8191	255	
8515.215	1	1	0	0	0.25438	0.20543	0.24329	0.12279	0.11466	0.20078	0.10113	0.28878	0.18686	0.24104	0.13691	0.14605	0.31228	0.15826	0.16626	0.29672	-1.8917	-2.3958	-2.6417	-2.5354	-2.5187	-2.6917	-2.4875	-2.6937	-2.4271	-2.2917	-2.5396	-2.5708	-2.5187	-2.5438	-2.4854	-2.7958	198.789	143.137	200.396	472.439	373.644	445.203	139.571	395.589	411.934	375.426	156.311	187.049	473.848	150.906	204.910	145.950	0.0034754	0.00072151	0.00023084	828.4	1.1985e-05	5.7188e-06	1146.5	245.66	1.0183e-05	5.0487e-06	484.61	203	93.274	40.11	8.6714e-06	107.22	0.00066643	0.00020555	5.8089e-05	775.22	2.3698e-06	2.1416e-06	1076.1	229.31	2.5173e-06	2.1444e-06	442.96	191.26	86.683	37.948	2.4712e-06	101.61	378.988	224.650	217.790	150.817	272.887	276.683	151.010	155.971	280.073	304.010	155.920	159.266	159.093	162.905	277.124	162.041	-8191	255	
8515.311	1	1	0	0	0.18661	0.15322	0.23272	0.1548	0.22573	0.17522	0.18063	0.2202	0.18613	0.13175	0.22066	0.30616	0.076183	0.18678	0.26103	0.11497	-2.0438	-2.2042	-2.4062	-2.4167	-2.6146	-2.7604	-2.475	-2.6396	-2.6688	-2.1792	-2.5854	-2.5708	-2.3354	-2.7271	-2.3333	-2.8375	164.799	493.512	151.107	149.989	276.007	156.126	423.449	156.896	449.689	399.938	238.274	494.532	468.424	496.751	295.711	141.957	0.0034179	0.00062085	0.00017916	835.77	1.1133e-05	5.7199e-06	1159.8	246.49	1.2834e-05	7.002e-06	484.71	202.98	93.651	40.109	1.0507e-05	105.84	0.00066135	0.00019394	5.7688e-05	780.43	2.3393e-06	2.0145e-06	1087.4	231.12	2.3249e-06	2.1743e-06	442.79	191.52	87.012	37.873	2.5737e-06	100.68	378.288	209.818	223.946	151.148	283.293	278.879	150.630	155.435	274.783	295.153	155.481	159.232	159.220	162.789	277.843	161.954	-8191	255	
8515.432	1	1	0	0	0.081031	0.30368	0.39107	0.35454	0.033285	0.17314	0.31561	0.11758	0.19194	0.13977	0.034139	0.24784	0.18267	0.27213	0.11063	0.44838	-1.9792	-2.2229	-2.6583	-2.5271	-2.5021	-2.7958	-2.3417	-2.7292	-2.5563	-2.3438	-2.5812	-2.775	-2.4313	-2.6458	-2.3646	-2.625	463.174	423.117	424.531	417.930	148.476	184.139	444.801	422.691	308.385	184.082	375.073	451.753	147.706	362.350	336.231	476.578	0.0034483	0.00063357	0.00017816	828.81	1.2187e-05	8.0409e-06	1144.1	246.04	1.2286e-05	6.9702e-06	476.18	199.78	93.329	39.82	8.8279e-06	104.76	0.00065781	0.00021134	5.9138e-05	778.7	2.2077e-06	2.2479e-06	1074.7	229.4	2.1652e-06	2.177e-06	435.06	188.68	86.192	37.619	2.5374e-06	99.892	377.356	219.272	214.980	151.265	284.729	275.728	151.042	156.022	268.290	296.802	154.760	159.357	159.462	162.991	280.328	161.899	-8191	255	
8515.528	1	1	0	0	0.28581	0.066593	0.083108	0.29763	0.20372	0.10917	0.32828	0.2164	0.12017	0.33373	0.070767	0.27776	0.2195	0.070788	0.24055	0.15909	-2.1437	-2.4979	-2.6292	-2.6063	-2.45	-2.7729	-2.4292	-2.5292	-2.6625	-2.4375	-2.5875	-2.6396	-2.2958	-2.7021	-2.3625	-2.6125	267.732	244.034	306.301	161.173	343.475	285.424	442.053	452.427	238.366	459.546	277.153	415.728	433.410	426.871	368.472	447.259	0.0033213	0.0007582	0.00015386	832.12	9.9397e-06	5.5219e-06	1153.8	246.45	1.4699e-05	5.5127e-06	482.13	202.47	93.553	40.303	1.0191e-05	106.73	0.00063161	0.00020783	5.4444e-05	779.26	2.1191e-06	2.2133e-06	1080.6	231.02	2.3817e-06	2.1724e-06	439.7	191.04	86.869	38.126	2.3914e-06	101.38	378.920	227.477	218.188	150.978	281.302	280.088	151.155	155.697	274.390	294.675	154.215	158.955	158.900	162.632	276.253	161.877	-8191	255	
8515.624	1	1	0	0	0.16434	0.16475	0.17004	0.13065	0.18795	0.018508	0.41976	0.28653	0.14705	0.07396	0.12084	0.24088	0.16151	0.20962	0.047166	0.10204	-2.1625	-2.35	-2.5167	-2.6125	-2.4188	-2.7354	-2.5083	-2.7083	-2.5167	-2.4146	-2.4437	-2.8083	-2.3563	-2.5458	-2.3667	-2.5417	454.679	376.173	456.168	392.599	210.603	157.733	428.489	487.275	382.772	282.230	490.314	483.178	377.732	140.526	187.828	374.024	0.0034808	0.0005086	0.00017915	832.25	9.9607e-06	6.9916e-06	1157.2	246.16	1.5424e-05	6.0614e-06	480.82	203.99	94.018	40.369	9.5351e-06	107.41	0.00066894	0.00022241	5.6877e-05	780.57	2.2174e-06	2.1219e-06	1085.2	230.92	2.348e-06	2.3435e-06	441.88	192.26	87.544	38.1	2.4543e-06	101.72	379.445	216.959	208.303	151.580	265.758	291.089	151.021	155.751	268.813	288.998	155.136	159.499	159.005	162.881	276.998	161.915	-8191	255	
8515.696	1	1	0	0	0.18606	0.12549	0.33909	0.29019	0.11614	0.33267	0.24029	0.37523	0.097469	0.17751	0.24405	0.09391	0.17426	0.36866	0.13675	0.17887	-2.2438	-2.2479	-2.5833	-2.6875	-2.1854	-2.5	-2.5271	-2.4667	-2.4875	-2.6104	-2.5229	-2.6063	-2.5229	-2.65	-2.4896	-2.3771	231.928	440.037	224.045	168.393	339.038	486.489	447.234	440.514	487.759	445.794	411.690	414.450	390.093	452.592	401.025	400.197	0.0034528	0.00062482	0.00014293	839.76	1.1411e-05	7.4033e-06	1170	248.32	1.5908e-05	5.373e-06	469.71	201.02	93.095	39.839	7.8807e-06	105.18	0.00065914	0.00021642	5.6953e-05	786.15	2.3636e-06	2.3192e-06	1095.2	232.51	2.3941e-06	2.2428e-06	438.64	190.51	86.777	37.594	2.3195e-06	99.855	378.416	240.945	232.593	151.144	277.499	285.092	150.814	155.546	272.075	277.105	155.539	159.246	159.103	163.140	281.256	161.888	-8191	255	
8515.817	1	1	0	0	0.036501	0.056562	0.15142	0.30275	0.21278	0.34314	0.057175	0.12483	0.23262	0.11451	0.37199	0.1252	0.2414	0.19371	0.17486	0.19017	-2.1875	-2.2271	-2.2979	-2.6771	-2.3937	-2.6208	-2.7021	-2.4354	-2.8187	-2.5812	-2.4875	-2.7646	-2.4938	-2.7479	-2.5771	-2.4792	152.115	446.051	222.490	141.358	375.493	459.984	156.678	463.875	197.894	477.391	254.694	391.884	150.349	459.784	438.885	403.720	0.0034594	0.00056133	0.00017087	841.3	5.4752e-06	5.2948e-06	1163.7	245.7	1.5064e-05	8.0922e-06	468.15	199.29	91.949	39.33	9.4343e-06	104.44	0.00066442	0.00020988	5.1134e-05	786.64	2.2355e-06	2.0062e-06	1088.1	231.06	2.3298e-06	2.272e-06	434.36	188.92	85.963	37.296	2.2867e-06	99.297	376.680	218.461	230.216	151.071	271.095	289.249	150.989	155.784	274.836	271.627	154.748	159.223	158.832	162.928	300.547	161.737	-8191	255	
8515.913	1	1	0	0	0.064021	0.18479	0.16493	0.12359	0.17294	0.074219	0.24461	0.18367	0.11417	0.13527	0.11678	0.28653	0.090175	0.32873	0.35458	0.32916	-1.9625	-2.4188	-2.4375	-2.6437	-2.1792	-2.6104	-2.8417	-2.5792	-2.5646	-2.4792	-2.3063	-2.7458	-2.3812	-2.5146	-2.5563	-2.5208	235.260	150.874	193.829	468.700	182.607	245.044	444.230	150.992	405.047	410.734	393.315	427.496	403.483	423.305	379.495	441.346	0.0034675	0.00084701	0.0001417	845	7.6473e-06	5.0585e-06	1169.1	249.91	1.5064e-05	5.7741e-06	487.63	200.79	93.739	39.67	9.118e-06	104.46	0.00064946	0.00022292	5.1916e-05	792.39	2.2841e-06	2.1231e-06	1096	233.92	2.3621e-06	2.0312e-06	441.35	190.11	87.151	37.464	2.1321e-06	99.54	377.630	212.348	226.748	151.385	289.309	286.859	151.200	155.526	265.283	290.063	154.882	159.421	159.307	162.678	276.844	162.090	-8191	255	
8516.007	1	1	0	0	0.08419	0.38374	0.067179	0.14536	0.094285	0.13014	0.096265	0.089641	0.24701	0.11308	0.06991	0.36229	0.12937	0.2382	0.11164	0.056927	-2.0979	-2.3417	-2.3187	-2.6625	-2.225	-2.5563	-2.8667	-2.4437	-2.4021	-2.4813	-2.5208	-2.6562	-2.3563	-2.6104	-2.7375	-2.5104	167.233	387.298	184.450	421.487	259.313	326.844	403.607	339.356	459.663	247.528	275.585	474.958	489.151	486.875	322.072	362.790	0.0033326	0.00065618	0.00019025	855.92	7.7475e-06	5.8388e-06	1185.7	251.84	1.2512e-05	6.9872e-06	477.43	203.08	94.499	39.531	8.3195e-06	104.97	0.00064853	0.00018955	5.268e-05	801.14	2.2903e-06	2.0328e-06	1110.6	236.47	2.2971e-06	2.1168e-06	442.37	191.69	88.129	37.639	2.2235e-06	99.876	378.754	211.570	222.636	151.163	275.606	294.021	150.841	155.876	264.457	290.686	156.086	159.459	158.852	163.071	279.417	162.092	-8191	255	
8516.105	1	1	0	0	0.29385	0.35218	0.070061	0.09767	0.057462	0.12646	0.30741	0.092608	0.1991	0.37247	0.28275	0.44637	0.2425	0.34869	0.065151	0.20137	-2.1021	-2.4125	-2.2917	-2.5333	-2.5312	-2.4896	-2.7917	-2.3937	-2.55	-2.6083	-2.2875	-2.95	-2.5083	-2.5417	-2.5542	-2.5396	308.402	412.373	307.260	391.225	184.981	416.604	393.839	435.727	267.798	477.787	460.811	438.100	274.405	478.761	178.471	385.963	0.0033274	0.00058045	0.00019126	868.98	1.24e-05	6.3428e-06	1196.8	252.69	1.1915e-05	5.8815e-06	480.1	201.67	94.417	39.428	8.0245e-06	102.82	0.00065278	0.0001936	5.3233e-05	814.04	2.4251e-06	1.911e-06	1123.2	237.95	2.2516e-06	1.9619e-06	441.93	190.25	88.059	37.243	2.1882e-06	97.828	378.715	228.952	221.355	151.423	278.657	277.659	150.816	155.879	277.447	285.193	155.504	159.565	159.155	163.169	274.700	162.020	-8191	255	
8516.224	1	1	0	0	0.17411	0.28836	0.18486	0.20711	0.18873	0.091307	0.18827	0.18987	0.2776	0.14539	0.17606	0.10183	0.10169	0.21461	0.29571	0.030118	-2.1833	-2.4604	-2.1604	-2.7667	-2.4271	-2.4313	-2.7625	-2.3146	-2.55	-2.7771	-2.2479	-2.6208	-2.3167	-2.3729	-2.4667	-2.6562	357.690	212.613	248.600	461.472	157.370	156.143	394.829	432.278	240.717	479.580	343.306	435.638	395.017	314.705	246.992	385.352	0.0033018	0.00065549	0.00018937	866.22	1.1467e-05	6.2879e-06	1182	251.25	1.5645e-05	8.165e-06	472.13	198.48	93.068	39.116	8.5842e-06	101.85	0.00063312	0.00018253	6.0512e-05	811.03	2.166e-06	2.0419e-06	1111.3	235.9	2.1694e-06	2.0248e-06	438.72	187.58	86.993	36.9	2.4363e-06	96.906	379.035	227.160	229.567	151.337	290.221	275.326	151.093	155.918	271.063	289.894	155.535	159.563	159.202	162.923	297.252	162.081	-8191	255	
8516.296	1	1	0	0	0.15026	0.20662	0.17007	0.37886	0.072301	0.052762	0.22727	0.093109	0.24051	0.24132	0.23001	0.284	0.078091	0.44226	0.16546	0.21276	-1.9896	-2.5563	-2.3229	-2.6458	-2.5042	-2.2833	-2.8812	-2.3667	-2.3042	-2.6125	-2.0646	-2.7396	-2.5625	-2.6146	-2.5542	-2.4771	400.322	450.677	413.287	459.588	204.570	221.378	423.034	324.140	482.578	463.097	460.517	456.516	475.514	477.472	346.467	430.434	0.0032865	0.00066521	0.00022737	869.57	1.2742e-05	5.266e-06	1184.8	252.41	1.2799e-05	8.165e-06	479.35	198.44	94.825	39.403	8.9053e-06	102.7	0.00063007	0.00019122	6.2229e-05	812.06	2.0657e-06	2.0589e-06	1113.1	236.97	2.136e-06	2.0263e-06	439.65	188.51	87.989	37.169	2.3702e-06	97.576	378.340	221.973	227.067	151.300	266.119	279.673	151.033	155.624	278.161	299.428	155.312	159.509	159.118	163.299	288.150	162.403	-8191	255	
8516.416	1	1	0	0	0.083747	0.097596	0.19784	0.040369	0.20925	0.20897	0.30473	0.14341	0.11152	0.27556	0.10964	0.14156	0.060075	0.052021	0.24277	0.32368	-1.9188	-2.5604	-2.3042	-2.7146	-2.6	-2.3771	-2.7125	-2.5479	-2.425	-2.6937	-2.4625	-2.5229	-2.4979	-2.3667	-2.5875	-2.575	312.806	222.983	161.268	307.707	290.858	168.250	456.723	481.448	431.802	342.192	172.459	164.960	154.310	366.404	291.119	442.409	0.0033958	0.00066763	0.00016602	873.34	1.1169e-05	5.8465e-06	1195.6	255.34	1.0928e-05	7.1282e-06	482.12	202.02	95.469	39.637	9.1476e-06	103.68	0.00063983	0.00018584	5.5065e-05	815.39	2.0928e-06	2.0085e-06	1121.7	239.16	2.1305e-06	2.2201e-06	444.51	190.63	88.606	37.464	2.2921e-06	98.44	379.492	224.514	230.500	151.293	286.973	281.349	151.195	155.930	272.974	283.774	155.346	159.829	159.381	163.061	288.235	162.381	-8191	255	
8516.512	1	1	0	0	0.018881	0.17547	0.29455	0.31467	0.10804	0.33286	0.2514	0.015992	0.3909	0.17929	0.20664	0.23869	0.1591	0.12667	0.11248	0.27437	-1.9542	-2.5896	-2.2854	-2.8937	-2.575	-2.3208	-2.7792	-2.5771	-2.3333	-2.5708	-2.3708	-2.6083	-2.7729	-2.2667	-2.6437	-2.6625	427.669	272.402	303.499	475.819	336.094	485.783	410.403	224.952	220.819	217.931	365.831	485.111	424.963	209.609	277.063	443.230	0.0035277	0.00082442	0.00022313	876.84	8.7746e-06	6.0936e-06	1198.9	255.91	1.5749e-05	5.2647e-06	476.74	201.71	94.371	39.416	9.5913e-06	102.65	0.00065031	0.00021206	6.0207e-05	818.71	2.1643e-06	2.279e-06	1126.7	238.5	2.3305e-06	2.2148e-06	438.61	189.89	87.845	37.349	2.304e-06	97.626	378.858	229.522	226.804	151.338	279.248	288.606	150.859	155.782	269.969	294.581	155.479	159.615	159.030	163.165	289.164	162.187	-8191	255	
8516.608	1	1	0	0	0.1787	0.11174	0.012567	0.24462	0.2421	0.11385	0.25966	0.11338	0.15682	0.15177	0.10664	0.10267	0.23861	0.12996	0.19839	0.22253	-1.7979	-2.6479	-2.4229	-2.5979	-2.75	-2.4167	-2.5979	-2.5292	-2.3208	-2.6417	-2.4125	-2.4021	-2.55	-2.3521	-2.5187	-2.6708	376.287	254.396	274.415	145.221	245.378	144.649	427.428	434.331	366.186	168.026	444.931	159.058	153.618	476.457	189.425	474.885	0.0032409	0.00063831	0.00019944	861.7	1.0475e-05	7.4715e-06	1184	252.69	1.5261e-05	6.1699e-06	478.74	198.04	93.919	39.529	9.8948e-06	102.16	0.0006303	0.00021454	5.847e-05	807.37	2.2296e-06	2.2915e-06	1108.1	236.43	2.3786e-06	2.1611e-06	437.39	187.45	87.298	37.252	2.3216e-06	97.068	379.873	224.635	227.131	151.298	272.510	281.199	151.060	155.922	284.338	298.807	154.883	159.408	159.251	162.908	284.970	162.333	-8191	255	
8516.705	1	1	0	0	0.1529	0.059606	0.073832	0.22471	0.088119	0.20075	0.12111	0.22852	0.36542	0.11737	0.19183	0.21082	0.22225	0.34644	0.1795	0.1434	-1.7646	-2.4375	-2.4708	-2.6104	-2.7792	-2.4271	-2.7146	-2.5021	-2.2646	-2.4479	-2.325	-2.4958	-2.7042	-2.4562	-2.5792	-2.875	160.056	450.608	379.383	416.100	140.172	446.513	450.638	202.010	396.337	316.234	477.562	486.341	466.036	425.985	148.858	371.197	0.0034368	0.00063239	0.0002085	862.07	1.105e-05	6.9168e-06	1179.1	253.21	1.6891e-05	8.2817e-06	477.9	199.9	94.371	39.463	9.0102e-06	102.55	0.00065962	0.00019387	5.8718e-05	806.08	2.331e-06	2.2092e-06	1104.2	236.93	2.453e-06	2.152e-06	439.5	188.21	87.439	37.275	2.1616e-06	97.315	377.791	228.987	214.156	151.697	284.820	288.904	150.992	156.011	273.695	305.011	155.257	159.710	159.409	163.318	280.329	162.286	-8191	255	
8516.825	1	1	0	0	0.34696	0.10472	0.221	0.033677	0.26236	0.18191	0.12454	0.2882	0.36946	0.14636	0.21507	0.25609	0.18062	0.34795	0.18368	0.028698	-1.7708	-2.5917	-2.5542	-2.5021	-2.6583	-2.325	-2.7271	-2.8333	-2.2646	-2.5542	-2.3187	-2.4146	-2.8667	-2.3021	-2.5042	-2.7958	383.437	224.085	463.976	192.609	147.083	391.598	302.101	151.859	393.914	197.301	409.737	467.144	495.457	457.191	419.475	306.295	0.0031987	0.00062792	0.00016306	863.09	1.0674e-05	6.7383e-06	1186	253.55	1.3073e-05	8.5756e-06	471.07	200.11	95.087	39.894	8.8048e-06	103.23	0.0006345	0.00020072	5.7058e-05	809.66	2.215e-06	2.2528e-06	1111.3	237.82	2.5827e-06	2.1221e-06	441.77	189.49	88.059	37.642	2.2634e-06	98.133	377.742	213.852	215.421	151.449	281.839	274.917	151.260	155.633	267.267	273.591	154.568	159.592	159.196	163.185	277.563	162.308	-8191	255	
8516.920	1	1	0	0	0.36283	0.047085	0.33509	0.24025	0.31556	0.23092	0.37328	0.2188	0.18348	0.094728	0.052032	0.11315	0.14406	0.062281	0.16936	0.16993	-1.5521	-2.5687	-2.3208	-2.3833	-2.7271	-2.4062	-2.6833	-2.8979	-2.3958	-2.5542	-2.6479	-2.5708	-2.6375	-2.5396	-2.4292	-2.8854	430.475	253.027	249.768	357.583	450.148	406.107	447.642	368.440	158.417	493.610	230.948	387.415	424.430	361.048	494.651	365.996	0.0031948	0.0008039	0.00015869	865.34	8.1574e-06	5.2985e-06	1202.3	254.25	1.2526e-05	6.3103e-06	473.71	199.3	94.16	39.215	7.7609e-06	101.04	0.00063985	0.00019101	5.4712e-05	812.8	2.3528e-06	2.2369e-06	1122.3	238.4	2.3033e-06	2.0142e-06	438.91	188.34	87.375	37.036	2.1832e-06	96.242	379.547	211.933	216.090	151.614	271.446	277.843	151.368	156.013	267.387	292.769	155.950	159.599	159.639	163.445	279.820	162.501	-8191	255	
8516.993	1	1	0	0	0.12248	0.068135	0.23138	0.29627	0.21914	0.16862	0.33235	0.15879	0.18521	0.084884	0.31849	0.19393	0.30757	0.13581	0.024669	0.33352	-1.8604	-2.5875	-2.7062	-2.5208	-2.6083	-2.4562	-2.5375	-2.6875	-2.3271	-2.5146	-2.7	-2.4042	-2.6229	-2.5417	-2.5146	-2.7417	470.424	192.138	478.831	465.671	432.482	245.457	428.079	478.423	277.390	199.747	403.744	164.123	365.303	463.782	266.002	443.423	0.0032073	0.00062425	0.00012062	860.24	8.1671e-06	4.553e-06	1181.6	251.46	1.0537e-05	5.4339e-06	467.53	195.73	93.034	38.49	9.6202e-06	100.43	0.00063103	0.00020085	5.4549e-05	804.39	2.2816e-06	2.1697e-06	1103.8	235.79	2.4846e-06	1.9271e-06	435.04	185.14	86.276	36.537	2.4407e-06	95.397	378.917	222.584	238.618	151.189	277.714	297.711	151.086	155.871	262.191	297.515	155.161	159.722	159.482	163.206	287.684	162.323	-8191	255	
8517.112	1	1	0	0	0.050258	0.16078	0.095371	0.15341	0.20342	0.1221	0.22497	0.074218	0.16764	0.34886	0.15939	0.23753	0.050554	0.19915	0.057658	0.17353	-1.9083	-2.3688	-2.75	-2.6562	-2.4917	-2.5625	-2.6	-2.7542	-2.35	-2.4771	-2.6021	-2.4646	-2.6125	-2.6083	-2.3042	-2.6271	334.797	218.569	490.175	460.901	461.694	348.436	404.599	301.569	206.946	450.661	231.411	146.983	428.514	173.714	333.664	452.532	0.0032974	0.00073024	0.0001964	859.74	1.1355e-05	7.2458e-06	1177.1	251.67	1.0578e-05	5.3562e-06	476.79	196.92	92.848	39.17	1.0712e-05	100.37	0.00063923	0.00017824	5.9377e-05	803.85	2.1813e-06	2.0828e-06	1102.3	235.56	2.2375e-06	1.9786e-06	437.93	185.96	86.597	36.777	2.2673e-06	95.855	378.701	224.317	235.900	151.401	264.252	293.742	151.072	156.045	286.639	291.541	155.267	159.373	159.810	163.314	286.067	162.298	-8191	255	
8517.208	1	1	0	0	0.079764	0.098205	0.13847	0.31301	0.26136	0.082198	0.25142	0.22001	0.23047	0.10563	0.17077	0.28552	0.24509	0.25321	0.20643	0.43695	-2.0271	-2.3396	-2.6729	-2.3208	-2.5125	-2.6417	-2.4792	-2.5833	-2.4271	-2.5521	-2.475	-2.6792	-2.6458	-2.5	-2.3125	-2.7875	370.770	184.865	339.008	375.887	283.561	486.543	421.632	422.805	276.287	374.033	172.423	174.330	383.835	437.321	352.068	416.283	0.0033557	0.00067388	0.00020258	858	9.3426e-06	5.7004e-06	1177.5	251.48	1.171e-05	6.6927e-06	476.1	197.83	93.321	38.845	8.2069e-06	101.59	0.00064149	0.00019953	6.0483e-05	801.23	2.0914e-06	2.1397e-06	1103.2	235.72	2.1811e-06	2.074e-06	438.38	187.26	86.67	36.71	2.4849e-06	96.482	377.994	223.906	223.196	151.284	281.967	262.213	150.928	155.769	274.177	290.018	154.289	159.619	159.453	163.233	297.549	162.301	-8191	255	
8517.304	1	1	0	0	0.13278	0.090668	0.054664	0.14152	0.15144	0.22048	0.25409	0.22284	0.26089	0.26092	0.16955	0.37672	0.30016	0.11696	0.16368	0.29786	-2.05	-2.2521	-2.4875	-2.3354	-2.575	-2.5396	-2.5104	-2.8063	-2.5062	-2.5125	-2.5375	-2.5208	-2.3563	-2.775	-2.5021	-2.8458	196.140	297.395	247.484	223.112	146.912	314.535	435.919	330.474	254.701	404.475	268.949	468.717	202.123	451.740	448.914	457.189	0.0032763	0.00050995	0.00017485	859.21	9.1748e-06	5.7719e-06	1177.6	252.63	1.3047e-05	4.5181e-06	475.59	196.85	91.835	38.408	1.0661e-05	100.03	0.00063754	0.00019554	5.7659e-05	802.27	2.0764e-06	2.3772e-06	1104.4	235.62	2.1112e-06	2.166e-06	438.89	185.88	86.094	36.477	2.5338e-06	95.118	379.071	227.693	236.428	151.232	280.525	291.974	151.063	155.769	264.865	279.422	155.336	159.453	159.558	163.167	277.720	162.568	-8191	255	
8517.400	1	1	0	0	0.088388	0.15464	0.068502	0.21663	0.17442	0.17157	0.059049	0.2422	0.33536	0.45541	0.12898	0.047698	0.050418	0.13791	0.068339	0.14919	-2.0771	-2.275	-2.6896	-2.4833	-2.4667	-2.5625	-2.3771	-2.6146	-2.35	-2.3375	-2.5833	-2.6083	-2.3375	-2.7417	-2.1667	-2.7229	306.140	401.230	192.090	426.201	184.404	489.197	481.656	384.360	315.030	324.451	439.512	384.947	287.261	424.219	205.553	386.841	0.0032751	0.00069784	0.00019693	853.41	1.0638e-05	4.775e-06	1167	250.54	1.1779e-05	4.9113e-06	476.35	194.53	92.766	38.427	1.0309e-05	99.171	0.00062789	0.00020947	5.371e-05	798.96	2.2053e-06	2.1644e-06	1094.6	234.35	2.2372e-06	2.1251e-06	436.23	183.77	85.999	36.287	2.3651e-06	94.254	379.133	209.419	224.631	151.210	284.426	282.821	151.125	155.930	270.909	271.267	155.722	159.455	159.786	163.602	281.513	162.538	-8191	255	
8517.521	1	1	0	0	0.27408	0.35958	0.16611	0.026238	0.057075	0.2998	0.075347	0.17475	0.087146	0.23839	0.11611	0.19061	0.13438	0.18777	0.21833	0.16187	-2.1458	-2.3771	-2.6792	-2.4625	-2.575	-2.7438	-2.6479	-2.6	-2.6125	-2.3563	-2.7208	-2.7021	-2.3833	-2.8167	-2.4292	-2.9062	420.341	332.426	273.468	180.251	197.920	429.776	153.770	401.768	271.689	324.717	451.685	482.821	490.472	471.077	494.923	494.556	0.0031946	0.0007043	0.0001552	862.12	1.069e-05	7.8858e-06	1170.4	250.96	1.417e-05	6.7234e-06	479.05	194.28	92.723	38.477	8.8644e-06	99.79	0.00062085	0.00020242	5.4263e-05	804.25	2.2389e-06	2.0734e-06	1098.2	235.36	2.3225e-06	2.133e-06	437.85	184.04	86.247	36.515	2.2529e-06	95.037	378.892	224.850	227.981	151.723	279.302	282.600	150.930	156.050	261.243	298.945	154.948	159.653	159.557	163.420	266.905	162.599	-8191	255	
8517.593	1	1	0	0	0.13346	0.17296	0.14785	0.02698	0.28322	0.096773	0.058001	0.093701	0.057312	0.15366	0.1087	0.12199	0.12301	0.22463	0.064034	0.20167	-2.0479	-2.3396	-2.5854	-2.6979	-2.4667	-2.5542	-2.4083	-2.4437	-2.6771	-2.5687	-2.7917	-2.4833	-2.3542	-2.6437	-2.3958	-2.6604	246.664	190.884	328.789	457.009	283.160	262.768	350.450	394.779	373.018	443.873	246.004	420.865	453.729	415.645	166.683	490.140	0.0032257	0.00046825	0.00017726	860.62	9.9536e-06	6.8629e-06	1173.7	251.31	1.597e-05	5.1043e-06	479.18	195.58	92.055	38.581	1.0692e-05	100.54	0.00062251	0.000203	5.5494e-05	805.17	2.4369e-06	2.1747e-06	1103.5	235.88	2.453e-06	2.1576e-06	437.54	185.21	86.131	36.485	2.3669e-06	95.481	378.882	224.953	231.520	151.311	293.146	283.648	150.884	155.845	257.858	298.077	155.261	159.737	159.383	163.233	280.925	162.453	-8191	255	
8517.689	1	1	0	0	0.23603	0.23536	0.17336	0.271	0.12009	0.065886	0.1864	0.28568	0.33194	0.39984	0.16704	0.19146	0.25476	0.28021	0.35418	0.022779	-2.1042	-2.225	-2.3812	-2.6583	-2.1583	-2.6354	-2.6375	-2.3625	-2.7396	-2.3208	-2.5208	-2.6729	-2.4417	-2.6292	-2.5354	-2.4667	450.054	305.727	489.697	383.797	196.935	212.475	479.022	479.263	340.923	243.111	401.358	415.502	461.725	470.389	341.390	478.611	0.0031879	0.00073456	0.00021916	864.55	1.1338e-05	7.7516e-06	1180.8	250.86	1.3126e-05	5.3949e-06	458.2	194.09	91.743	38.237	7.8815e-06	98.759	0.00061393	0.00020753	5.204e-05	805.39	2.632e-06	2.1117e-06	1103.8	234.77	2.3821e-06	2.2716e-06	431.04	183.26	85.539	36.018	2.1807e-06	93.566	378.165	215.158	219.601	151.444	279.454	292.135	151.172	155.807	276.923	287.166	155.957	159.621	158.969	163.436	280.482	162.071	-8191	255	
8517.785	1	1	0	0	0.059193	0.12713	0.093255	0.30866	0.067367	0.13867	0.42218	0.080973	0.18463	0.10121	0.10865	0.17249	0.13841	0.28361	0.16917	0.20554	-2.1125	-2.5208	-2.5042	-2.65	-2.3812	-2.3812	-2.7167	-2.425	-2.6833	-2.5208	-2.4979	-2.8583	-2.5208	-2.6896	-2.5042	-2.6312	260.383	465.737	343.085	173.354	338.326	152.051	436.898	140.976	385.149	242.500	440.540	421.151	152.136	492.059	214.607	140.855	0.003056	0.00065011	0.00021842	854.47	9.387e-06	6.7358e-06	1161	247.05	1.6534e-05	5.2036e-06	454.48	191.37	90.95	37.716	7.0953e-06	97.36	0.0006085	0.00020617	5.0924e-05	799.14	2.3355e-06	1.9652e-06	1087.4	231.89	2.2534e-06	2.1224e-06	426.73	181.16	84.991	35.663	2.1073e-06	92.555	377.119	227.063	225.744	151.677	275.876	303.377	150.999	155.954	274.101	308.182	155.678	159.580	159.166	163.177	292.613	162.378	-8191	255	
8517.906	1	1	0	0	0.12406	0.27936	0.27618	0.26723	0.14123	0.083379	0.25033	0.21778	0.18582	0.076132	0.078169	0.29283	0.23516	0.052977	0.17858	0.26774	-2.2583	-2.4667	-2.4708	-2.5792	-2.3396	-2.55	-2.5396	-2.3021	-2.6	-2.325	-2.4833	-2.8083	-2.325	-2.7958	-2.7062	-2.5354	165.539	483.938	256.275	476.345	241.851	378.180	426.558	408.054	353.324	419.697	185.969	490.735	464.610	271.736	356.585	473.178	0.0030167	0.00048942	0.00015513	859.62	1.1326e-05	6.5476e-06	1174.7	250.94	1.1821e-05	5.5001e-06	476.82	192.13	91.302	37.523	7.5089e-06	97.417	0.00060755	0.00020096	5.6009e-05	805.63	2.2782e-06	1.9831e-06	1096.4	234.51	2.1308e-06	2.0358e-06	432.38	181.62	85.046	35.605	2.2961e-06	92.764	378.300	225.738	213.425	151.044	289.293	296.471	151.041	155.837	274.143	297.423	155.382	159.698	159.757	163.234	285.153	162.589	-8191	255	
8518.000	1	1	0	0	0.10058	0.20582	0.22995	0.35897	0.20838	0.047169	0.22201	0.066521	0.20394	0.14513	0.056543	0.17186	0.47009	0.13019	0.24533	0.34348	-2.2917	-2.5583	-2.3458	-2.8	-2.2917	-2.5542	-2.7292	-2.4646	-2.6958	-2.4833	-2.3187	-2.9021	-2.525	-2.5479	-2.7167	-2.5542	231.487	355.059	213.119	483.432	426.576	451.556	413.199	149.083	186.364	171.111	461.527	156.413	486.689	151.438	145.779	416.428	0.0032086	0.00079033	0.00018515	859.19	1.3342e-05	6.734e-06	1177	249.55	1.3813e-05	6.9751e-06	469.53	193.25	92.056	37.814	8.8539e-06	97.74	0.00062218	0.00019173	5.7593e-05	805.9	2.2792e-06	1.947e-06	1102	234.52	2.2048e-06	1.8609e-06	432.26	182.26	85.479	35.711	2.3802e-06	92.956	377.862	228.711	230.813	151.137	282.021	293.361	151.115	155.830	273.212	276.896	154.585	159.838	159.378	163.519	282.664	162.468	-8191	255	
8518.096	1	1	0	0	0.11864	0.093785	0.28131	0.12191	0.017991	0.13405	0.21906	0.19136	0.10273	0.22799	0.1154	0.054233	0.19011	0.13461	0.046235	0.30304	-2.2562	-2.3875	-2.1813	-2.7979	-2.4062	-2.4604	-2.8708	-2.3958	-2.7021	-2.5687	-2.4875	-2.7667	-2.4688	-2.4708	-2.5854	-2.5354	330.029	209.980	485.746	154.412	207.088	285.670	447.513	432.554	428.311	396.056	421.693	418.533	474.453	387.510	425.109	407.989	0.0033041	0.00054859	0.00015747	863.45	1.0406e-05	5.0136e-06	1183.7	251.21	1.5225e-05	3.7599e-06	468.19	192.98	91.255	37.105	9.4452e-06	95.914	0.00062525	0.00019064	5.4473e-05	808.2	2.2105e-06	1.9034e-06	1108	234.64	2.1095e-06	1.8961e-06	427.33	181.41	84.831	35.067	2.3662e-06	91.281	378.365	229.470	228.252	151.518	282.571	303.274	150.938	155.781	274.408	271.175	155.558	159.611	159.525	163.589	291.913	162.806	-8191	255	
8518.217	1	1	0	0	0.081283	0.29826	0.18012	0.34879	0.15146	0.19258	0.16741	0.20868	0.11828	0.29465	0.16047	0.12604	0.047227	0.62927	0.18977	0.20178	-2.125	-2.4583	-2.3625	-2.7875	-2.5271	-2.3917	-2.6188	-2.6417	-2.5917	-2.4062	-2.3292	-2.7417	-2.5271	-2.4979	-2.6646	-2.4458	492.355	399.881	194.142	483.820	407.763	329.018	486.311	379.572	387.482	449.110	250.313	194.229	486.913	469.469	331.128	381.701	0.0031244	0.00060556	0.00020939	859.34	6.9029e-06	6.5043e-06	1166.9	248.07	1.3033e-05	5.5885e-06	465.91	191.28	90.838	37.271	9.5856e-06	96.978	0.00058444	0.00018621	5.5141e-05	806.59	2.0983e-06	2.1504e-06	1095.1	231.98	2.0121e-06	2.1607e-06	426.67	180.36	84.461	35.122	2.3249e-06	91.811	377.960	223.741	219.132	151.187	266.422	285.639	150.747	155.935	289.147	281.390	154.769	159.678	159.732	163.544	282.683	162.360	-8191	255	
8518.288	1	1	0	0	0.13275	0.27683	0.10078	0.31517	0.088209	0.10176	0.38296	0.26525	0.19717	0.16372	0.065853	0.30253	0.18675	0.085316	0.090836	0.33507	-2.0167	-2.5729	-2.1104	-2.6604	-2.5042	-2.4188	-2.8417	-2.4854	-2.4521	-2.5521	-2.3563	-2.725	-2.4667	-2.375	-2.5083	-2.6625	280.532	466.147	482.096	148.703	424.090	174.447	431.236	393.885	292.061	481.070	189.896	387.015	448.848	457.021	374.819	427.525	0.003141	0.00083067	0.00022519	859.03	6.0952e-06	6.1281e-06	1172.7	247.26	1.2397e-05	4.012e-06	475.89	192.72	92.022	37.464	9.7579e-06	97.003	0.00059953	0.00020807	5.7202e-05	804.76	2.2407e-06	2.1614e-06	1097.9	232.73	2.1807e-06	2.035e-06	431.61	181.98	85.382	35.357	2.1717e-06	92.418	378.544	223.771	217.452	151.229	282.779	293.700	151.230	156.184	266.286	272.322	155.207	159.566	159.707	163.292	277.214	162.557	-8191	255	
8518.385	1	1	0	0	0.30419	0.3297	0.30826	0.11961	0.16071	0.098369	0.21897	0.19465	0.17003	0.11207	0.034245	0.18893	0.14635	0.098394	0.11237	0.15125	-2.075	-2.675	-2.1667	-2.6271	-2.5979	-2.3083	-2.7625	-2.4729	-2.4854	-2.4667	-2.4167	-2.7	-2.6396	-2.3688	-2.7146	-2.4708	451.918	332.947	341.736	476.348	383.149	204.465	437.625	398.658	322.300	302.260	362.242	449.749	306.823	397.806	356.887	449.064	0.0031122	0.00062181	0.00017147	858.53	9.6922e-06	6.4083e-06	1185.5	250.06	1.205e-05	7.1344e-06	471.1	194.6	92.069	37.818	1.0597e-05	98.432	0.00060946	0.00020416	5.4139e-05	807.6	2.2914e-06	2.2156e-06	1106.6	234.75	2.296e-06	2.1785e-06	430.99	183.79	85.972	35.697	2.2159e-06	93.42	378.175	237.130	238.395	151.137	284.542	271.854	150.994	155.981	264.365	287.435	155.170	159.879	159.421	163.724	292.240	162.688	-8191	255	
8518.505	1	1	0	0	0.2843	0.32062	0.14826	0.16938	0.13962	0.11829	0.1889	0.092984	0.063171	0.15577	0.1684	0.40448	0.06819	0.32919	0.084842	0.18978	-1.9354	-2.5667	-2.2	-2.5896	-2.5854	-2.2438	-2.8021	-2.6208	-2.3583	-2.5458	-2.4625	-2.7646	-2.6146	-2.2333	-2.5958	-2.55	465.682	431.695	497.189	467.213	210.086	255.859	478.710	383.579	267.063	398.208	357.516	471.869	476.240	143.529	279.069	470.422	0.003082	0.00070288	0.00017118	870.07	1.3871e-05	6.7466e-06	1188.2	251.17	1.5509e-05	7.2433e-06	465.23	193.59	92.096	37.418	8.7517e-06	97.02	0.00061798	0.0002014	5.7087e-05	814.05	2.5039e-06	2.0783e-06	1112.8	235.77	2.4007e-06	2.1929e-06	429.31	182.34	85.742	35.374	2.1522e-06	91.902	379.181	222.167	242.875	151.662	287.613	282.399	151.061	155.736	268.361	289.555	155.832	159.860	159.542	163.265	271.817	162.602	-8191	255	
8518.601	1	1	0	0	0.095605	0.13295	0.36688	0.21502	0.1602	0.13177	0.26627	0.13332	0.09339	0.29145	0.19771	0.24166	0.26934	0.10544	0.21466	0.25342	-1.9479	-2.6521	-2.3896	-2.8021	-2.6688	-2.3229	-2.7562	-2.5146	-2.3667	-2.8208	-2.4188	-2.7	-2.6229	-2.6271	-2.5771	-2.7833	361.501	177.528	224.476	447.280	448.097	219.971	459.115	290.584	496.016	174.900	344.312	482.517	190.573	180.201	266.629	373.578	0.00312	0.00069585	0.00018541	869.24	1.0908e-05	5.3026e-06	1178	249.92	1.5429e-05	7.0643e-06	460.69	190.7	92.269	36.907	9.4692e-06	95.965	0.00061682	0.00020361	5.4769e-05	811.95	2.2386e-06	2.0195e-06	1102.1	233.88	2.3731e-06	2.0695e-06	422.05	180.3	85.498	35.144	1.9124e-06	91.317	378.312	224.901	219.275	151.296	286.835	291.298	151.100	155.927	269.782	289.670	154.798	159.802	159.568	163.568	285.633	162.624	-8191	255	
8518.698	1	1	0	0	0.15043	0.079276	0.30749	0.11795	0.045438	0.25773	0.20707	0.32919	0.091749	0.085298	0.22467	0.15495	0.19896	0.2666	0.30383	0.084571	-1.9583	-2.4562	-2.5021	-2.4042	-2.4938	-2.2833	-2.6417	-2.475	-2.4208	-2.4167	-2.4437	-2.5792	-2.8438	-2.3271	-2.6104	-2.7	495.705	238.883	461.267	382.131	485.565	184.439	413.045	445.191	286.503	160.607	287.851	145.938	466.571	444.362	426.802	340.273	0.0030061	0.0007126	0.00014764	869.43	1.1999e-05	5.2261e-06	1185	248.96	1.1138e-05	6.6505e-06	462.73	192.4	92.395	37.351	9.9856e-06	96.113	0.00058587	0.00019609	5.1535e-05	814.89	2.2035e-06	2.1367e-06	1109.5	233.79	2.3194e-06	1.8961e-06	426.15	181.58	85.812	35.239	2.2008e-06	91.569	378.407	221.187	216.766	151.479	279.967	293.095	151.277	156.120	272.613	287.815	155.392	159.876	159.520	163.650	283.544	162.483	-8191	255	
8518.818	1	1	0	0	0.1483	0.16384	0.34599	0.2056	0.090108	0.22357	0.19351	0.20981	0.060635	0.061403	0.21054	0.29998	0.19267	0.011989	0.35656	0.13691	-1.9167	-2.5833	-2.4313	-2.7104	-2.5042	-2.4583	-2.5333	-2.5771	-2.3083	-2.6063	-2.4604	-2.4958	-2.6667	-2.4188	-2.5875	-2.6271	478.686	164.429	432.145	197.760	267.308	155.592	450.257	379.105	279.903	356.931	182.621	424.395	479.985	458.033	157.854	180.207	0.0030122	0.00061832	0.00014828	874.74	9.3526e-06	5.9526e-06	1187.9	249.62	1.3698e-05	5.2539e-06	469.22	193.29	91.689	37.167	1.0058e-05	96.729	0.00059789	0.00019237	5.1573e-05	819.09	2.1021e-06	2.0195e-06	1113.6	234.58	2.2633e-06	1.8726e-06	428.3	181.97	85.738	35.189	2.3205e-06	91.934	378.380	228.766	227.980	151.668	292.535	294.877	151.162	155.772	280.584	296.381	154.917	159.782	159.575	163.453	282.955	162.469	-8191	255	
8518.890	1	1	0	0	0.23698	0.14545	0.23821	0.031412	0.12823	0.32246	0.21692	0.35017	0.19224	0.2243	0.015872	0.1919	0.16978	0.16895	0.076701	0.37471	-1.9396	-2.4875	-2.3771	-2.3812	-2.5479	-2.3292	-2.4521	-2.5062	-2.4354	-2.6125	-2.3646	-2.4479	-2.475	-2.4479	-2.4271	-2.8083	285.616	404.948	220.589	478.852	329.794	359.353	421.539	493.858	434.367	341.394	195.052	162.380	147.664	305.440	273.737	459.857	0.0032299	0.00054727	0.00015359	875.69	9.8573e-06	5.0951e-06	1186.5	249.79	1.3362e-05	5.3137e-06	459.44	189.94	91.719	36.824	1.0375e-05	94.695	0.00061743	0.00017916	5.9978e-05	818.04	2.0966e-06	1.881e-06	1108.7	234.02	2.3559e-06	1.8514e-06	422.68	179.87	85.083	34.771	2.4295e-06	90.169	378.246	235.876	215.867	151.640	276.145	290.876	151.154	155.929	278.682	303.042	155.998	159.873	159.552	163.676	299.445	162.413	-8191	255	
8518.984	1	1	0	0	0.22568	0.072456	0.24401	0.3269	0.162	0.28566	0.33736	0.15543	0.17129	0.11634	0.14316	0.24022	0.23286	0.24779	0.13432	0.26183	-1.8292	-2.4896	-2.5042	-2.5542	-2.5	-2.5229	-2.6896	-2.7583	-2.2083	-2.5396	-2.6063	-2.4625	-2.6333	-2.4417	-2.3271	-2.5604	233.038	267.195	420.267	416.221	430.232	412.599	421.316	433.647	303.445	176.402	493.217	245.255	373.806	494.149	309.591	374.610	0.0031733	0.00060839	0.00013574	871.56	9.8489e-06	5.8249e-06	1169	247.28	8.9616e-06	5.3258e-06	450.21	189.12	90.762	36.684	8.9854e-06	94.663	0.00060491	0.00018107	5.702e-05	812.19	2.0566e-06	1.9125e-06	1094.4	231.29	2.1811e-06	2.0233e-06	416.41	178.01	84.301	34.608	2.272e-06	89.721	378.305	230.195	221.405	151.365	256.560	287.930	151.249	156.124	272.986	279.644	155.634	159.939	159.552	163.201	273.025	162.681	-8191	255	
8519.080	1	1	0	0	0.25808	0.16046	0.078504	0.21574	0.064704	0.076545	0.10201	0.16773	0.27059	0.092849	0.2041	0.045988	0.085943	0.17163	0.16413	0.4015	-1.9479	-2.525	-2.4646	-2.3688	-2.5396	-2.6	-2.4271	-2.6917	-2.4271	-2.4125	-2.5521	-2.3521	-2.6792	-2.6896	-2.25	-2.6562	232.930	299.428	146.242	449.328	413.010	295.667	390.444	456.661	148.230	403.142	390.785	329.616	452.256	461.374	379.752	455.128	0.0029302	0.00061093	0.00019893	865.4	1.0893e-05	5.6672e-06	1164.7	247.45	1.2308e-05	7.6901e-06	446.64	189.38	90.949	37.099	7.3968e-06	95.561	0.00057685	0.00019026	5.7545e-05	806.6	2.0587e-06	2.2065e-06	1091.2	231.45	2.0723e-06	2.3125e-06	416.98	178.97	84.816	34.984	2.3813e-06	90.907	379.439	225.963	229.413	151.749	283.931	288.464	151.296	156.076	280.801	278.710	155.765	159.653	159.354	163.629	264.603	162.676	-8191	255	
8519.178	1	1	0	0	0.15899	0.13213	0.087667	0.24199	0.16026	0.016121	0.37561	0.26381	0.022718	0.14712	0.22919	0.37115	0.10777	0.14259	0.17091	0.21369	-1.7229	-2.4021	-2.5792	-2.3146	-2.2854	-2.4688	-2.6167	-2.5521	-2.2667	-2.4208	-2.55	-2.5833	-2.5229	-2.4583	-2.0312	-2.8729	142.536	192.997	232.102	171.845	207.393	371.248	393.436	421.920	335.034	200.928	304.107	176.264	145.958	236.825	275.474	494.634	0.0031412	0.00063734	0.00016252	863.2	1.2504e-05	5.3542e-06	1174.5	248.01	1.0158e-05	6.2575e-06	466.13	192.14	92.083	37.285	1.124e-05	96.539	0.00061303	0.00021563	5.3033e-05	806.61	2.2136e-06	2.2354e-06	1098.8	232.52	2.3177e-06	2.0725e-06	423.77	181.17	85.361	35.211	2.491e-06	91.7	376.840	218.058	229.025	151.323	276.754	272.119	151.387	156.123	279.270	291.240	155.401	159.882	159.937	163.837	282.201	162.905	-8191	255	
8519.297	1	1	0	0	0.1172	0.19259	0.17981	0.22809	0.09294	0.13374	0.24918	0.14279	0.37364	0.1271	0.32264	0.23814	0.015459	0.081788	0.16507	0.31368	-1.8208	-2.325	-2.6	-2.55	-2.4708	-2.7229	-2.5292	-2.5583	-2.5396	-2.3417	-2.6042	-2.5438	-2.4833	-2.6604	-2.2604	-2.6479	284.793	156.161	252.503	141.358	408.447	292.146	484.469	437.528	491.933	155.577	409.842	139.251	359.478	230.078	275.999	444.034	0.0031666	0.00051884	0.00020608	871.51	1.2667e-05	6.1281e-06	1177.4	247.61	1.3835e-05	3.5938e-06	465.85	191.06	91.342	36.779	9.7496e-06	94.895	0.00060833	0.00021689	5.7841e-05	811.64	2.2487e-06	2.1291e-06	1102.9	232.68	2.2861e-06	2.1452e-06	422.92	179.92	84.976	34.876	2.4259e-06	90.299	378.525	228.442	231.189	151.535	281.133	278.695	151.342	156.013	266.767	288.606	155.869	159.796	160.162	163.724	279.403	162.812	-8191	255	
8519.393	1	1	0	0	0.17851	0.083079	0.18888	0.090775	0.31454	0.2753	0.1423	0.17869	0.090277	0.015978	0.13362	0.30272	0.24723	0.23409	0.01604	0.091441	-2.0104	-2.4271	-2.4458	-2.5271	-2.3646	-2.6854	-2.4562	-2.6	-2.4562	-2.2812	-2.5771	-2.4917	-2.5667	-2.5938	-2.4479	-2.7375	462.525	193.384	288.584	483.678	226.928	331.164	353.949	440.286	442.274	190.631	150.981	490.379	403.451	395.677	468.684	456.693	0.003039	0.00076612	0.00014316	862.59	9.249e-06	6.5577e-06	1164.7	247	1.0841e-05	6.4141e-06	455.43	189.84	91.147	37.074	1.055e-05	94.962	0.00060468	0.00021097	5.6372e-05	805.51	2.4021e-06	2.2585e-06	1091.5	230.94	2.3081e-06	2.1614e-06	419.31	179.27	84.649	34.924	2.2447e-06	90.351	379.697	225.508	243.182	151.522	282.567	291.932	151.315	156.150	282.483	307.460	155.687	159.896	159.683	163.489	269.293	162.403	-8191	255	
8519.465	1	1	0	0	0.178	0.13463	0.079606	0.3862	0.17288	0.2317	0.24968	0.22485	0.14622	0.34129	0.10404	0.26443	0.27297	0.017475	0.080086	0.34975	-2.1688	-2.4229	-2.4958	-2.6771	-2.3875	-2.6625	-2.6417	-2.6292	-2.7104	-2.4021	-2.5312	-2.4292	-2.6229	-2.6937	-2.4021	-2.5354	214.091	366.311	450.016	479.855	477.617	428.220	453.360	438.018	415.216	178.290	243.556	443.790	418.266	460.132	493.446	446.518	0.0031243	0.00069719	0.00014177	865.36	9.3089e-06	6.7986e-06	1171	247.61	1.198e-05	6.015e-06	460.13	190.79	91.48	37.023	9.8352e-06	95.787	0.00061665	0.00022323	4.955e-05	807.21	2.3202e-06	2.0513e-06	1095.4	232.05	2.3294e-06	2.1868e-06	420.96	180.17	85.121	35.052	2.2159e-06	91.009	378.797	222.014	224.576	151.272	287.692	294.487	151.132	156.059	272.468	288.939	156.176	159.782	159.719	163.809	285.655	162.872	-8191	255	
#DATA ENDS
