BOXY.EXE: ISS Imagent and Oximeter Data Acquisition Program Version 0.80
Ascii Record File

#ACQ INFORMATION
2  Detector Channels 
16  External MUX Channels 
1  Auxiliary Channels 
5000  Waveform (CCF) Frequency (Hz)
1  Waveforms Skipped 
30  Waveforms Averaged 
1  Cycles Averaged 
16  Acquisitions per Waveform 
10.0806  Updata Rate (Hz) 

#FILE INFORMATION
TRUE -- External MUX Channel results are PARSED.
FALSE -- AC DC and Phase are NOT grouped.
TRUE -- Companion Program Settings File CREATED.
FALSE -- AC data not excluded
FALSE -- DC data not excluded
FALSE -- Phase data not excluded
FALSE -- Auxillary Chn. data not excluded
Tab delimiters

#CALIBRATION STATE
TRUE -- Waveform Calibration Values APPLIED.


#AUX CALIBRATION VALUES
Val Type	aux-1	

Term	1.0000e+00	
Factor	0.0000e+00	


#WF CALIBRATION VALUES
A = Detector Channel
Val Type	A-AC1	A-AC2	A-AC3	A-AC4	A-AC5	A-AC6	A-AC7	A-AC8	A-AC9	A-AC10	A-AC11	A-AC12	A-AC13	A-AC14	A-AC15	A-AC16	A-DC1	A-DC2	A-DC3	A-DC4	A-DC5	A-DC6	A-DC7	A-DC8	A-DC9	A-DC10	A-DC11	A-DC12	A-DC13	A-DC14	A-DC15	A-DC16	A-Ph1	A-Ph2	A-Ph3	A-Ph4	A-Ph5	A-Ph6	A-Ph7	A-Ph8	A-Ph9	A-Ph10	A-Ph11	A-Ph12	A-Ph13	A-Ph14	A-Ph15	A-Ph16	

Term	0.00000e+00	0.00000e+00	0.00000e+00	0.00000e+00	0.00000e+00	0.00000e+00	0.00000e+00	0.00000e+00	0.00000e+00	0.00000e+00	0.00000e+00	0.00000e+00	0.00000e+00	0.00000e+00	0.00000e+00	0.00000e+00	0.00000e+00	0.00000e+00	0.00000e+00	0.00000e+00	0.00000e+00	0.00000e+00	0.00000e+00	0.00000e+00	0.00000e+00	0.00000e+00	0.00000e+00	0.00000e+00	0.00000e+00	0.00000e+00	0.00000e+00	0.00000e+00	0.00000e+00	0.00000e+00	0.00000e+00	0.00000e+00	0.00000e+00	0.00000e+00	0.00000e+00	0.00000e+00	0.00000e+00	0.00000e+00	0.00000e+00	0.00000e+00	0.00000e+00	0.00000e+00	0.00000e+00	0.00000e+00	
Factor	1.00000e+00	1.00000e+00	1.00000e+00	1.00000e+00	1.00000e+00	1.00000e+00	1.00000e+00	1.00000e+00	1.00000e+00	1.00000e+00	1.00000e+00	1.00000e+00	1.00000e+00	1.00000e+00	1.00000e+00	1.00000e+00	1.00000e+00	1.00000e+00	1.00000e+00	1.00000e+00	1.00000e+00	1.00000e+00	1.00000e+00	1.00000e+00	1.00000e+00	1.00000e+00	1.00000e+00	1.00000e+00	1.00000e+00	1.00000e+00	1.00000e+00	1.00000e+00	X	X	X	X	X	X	X	X	X	X	X	X	X	X	X	X	

B = Detector Channel
Val Type	B-AC1	B-AC2	B-AC3	B-AC4	B-AC5	B-AC6	B-AC7	B-AC8	B-AC9	B-AC10	B-AC11	B-AC12	B-AC13	B-AC14	B-AC15	B-AC16	B-DC1	B-DC2	B-DC3	B-DC4	B-DC5	B-DC6	B-DC7	B-DC8	B-DC9	B-DC10	B-DC11	B-DC12	B-DC13	B-DC14	B-DC15	B-DC16	B-Ph1	B-Ph2	B-Ph3	B-Ph4	B-Ph5	B-Ph6	B-Ph7	B-Ph8	B-Ph9	B-Ph10	B-Ph11	B-Ph12	B-Ph13	B-Ph14	B-Ph15	B-Ph16	

Term	0.00000e+00	0.00000e+00	0.00000e+00	0.00000e+00	0.00000e+00	0.00000e+00	0.00000e+00	0.00000e+00	0.00000e+00	0.00000e+00	0.00000e+00	0.00000e+00	0.00000e+00	0.00000e+00	0.00000e+00	0.00000e+00	0.00000e+00	0.00000e+00	0.00000e+00	0.00000e+00	0.00000e+00	0.00000e+00	0.00000e+00	0.00000e+00	0.00000e+00	0.00000e+00	0.00000e+00	0.00000e+00	0.00000e+00	0.00000e+00	0.00000e+00	0.00000e+00	-1.24300e+02	-1.28936e+02	-1.25786e+02	-1.80882e+02	-6.46333e+01	-6.76369e+01	-1.58204e+02	-1.62015e+02	-6.86811e+01	-6.72667e+01	-1.70070e+02	-1.70195e+02	-1.81532e+02	-1.76543e+02	-6.86300e+01	-1.49130e+02	
Factor	1.95114e-05	1.80757e-04	4.88250e-05	1.62200e-01	1.36971e-06	1.85736e-06	1.78799e-01	6.38948e-02	1.40704e-06	1.88919e-06	9.91400e-02	3.46957e-02	2.98902e-02	1.03702e-02	1.64392e-06	1.46973e-02	1.56519e-05	3.35321e-05	9.35577e-06	8.14376e-02	3.17657e-07	3.77349e-07	8.46948e-02	3.22503e-02	3.29454e-07	3.77731e-07	4.85529e-02	1.71225e-02	1.52666e-02	5.27655e-03	3.44806e-07	7.25726e-03	X	X	X	X	X	X	X	X	X	X	X	X	X	X	X	X	



#DISTANCE SETTINGS
A = Detector Channel
A-1	A-2	A-3	A-4	A-5	A-6	A-7	A-8	A-9	A-10	A-11	A-12	A-13	A-14	A-15	A-16	

2.5000e+00	3.0000e+00	2.5000e+00	3.0000e+00	2.0000e+00	3.0000e+00	1.5000e+00	3.0000e+00	3.0000e+00	3.0000e+00	3.0000e+00	3.0000e+00	3.0000e+00	3.0000e+00	1.5000e+00	3.0000e+00	

B = Detector Channel
B-1	B-2	B-3	B-4	B-5	B-6	B-7	B-8	B-9	B-10	B-11	B-12	B-13	B-14	B-15	B-16	

1.0000e+01	1.0000e+01	1.0000e+01	1.4400e+00	1.0000e+01	1.0000e+01	1.5100e+00	1.9400e+00	1.0000e+01	1.0000e+01	1.9900e+00	2.4900e+00	2.4100e+00	2.9000e+00	1.0000e+01	2.9800e+00	




#DATA BEGINS
time	group	step	mark	flag	A-AC1	A-AC2	A-AC3	A-AC4	A-AC5	A-AC6	A-AC7	A-AC8	A-AC9	A-AC10	A-AC11	A-AC12	A-AC13	A-AC14	A-AC15	A-AC16	A-DC1	A-DC2	A-DC3	A-DC4	A-DC5	A-DC6	A-DC7	A-DC8	A-DC9	A-DC10	A-DC11	A-DC12	A-DC13	A-DC14	A-DC15	A-DC16	A-Ph1	A-Ph2	A-Ph3	A-Ph4	A-Ph5	A-Ph6	A-Ph7	A-Ph8	A-Ph9	A-Ph10	A-Ph11	A-Ph12	A-Ph13	A-Ph14	A-Ph15	A-Ph16	B-AC1	B-AC2	B-AC3	B-AC4	B-AC5	B-AC6	B-AC7	B-AC8	B-AC9	B-AC10	B-AC11	B-AC12	B-AC13	B-AC14	B-AC15	B-AC16	B-DC1	B-DC2	B-DC3	B-DC4	B-DC5	B-DC6	B-DC7	B-DC8	B-DC9	B-DC10	B-DC11	B-DC12	B-DC13	B-DC14	B-DC15	B-DC16	B-Ph1	B-Ph2	B-Ph3	B-Ph4	B-Ph5	B-Ph6	B-Ph7	B-Ph8	B-Ph9	B-Ph10	B-Ph11	B-Ph12	B-Ph13	B-Ph14	B-Ph15	B-Ph16	aux-1	digaux	

39631.172	1	1	0	256	0.28319	0.1927	0.17662	0.25543	0.093922	0.12886	0.23863	0.11756	0.14467	0.2067	0.091089	0.032896	0.1373	0.13986	0.056914	0.075465	-2.8729	-2.1729	-3.0833	-3.0917	-2.3021	-3.2875	-2.8521	-2.6917	-3.2375	-2.4333	-2.9667	-3.1271	-2.3	-3.1146	-2.6792	-2.4375	112.391	340.998	63.793	46.517	182.911	335.674	301.532	182.163	354.083	54.117	333.735	387.775	369.402	294.030	83.921	247.455	0.0002369	0.00052375	7.4232e-05	1181.3	3.776e-06	2.5144e-06	1279.3	244.26	2.7829e-06	2.3836e-06	309.1	84.085	67.45	19.34	2.7566e-06	26.834	0.00041543	0.00062817	0.00015946	1160.2	6.5279e-06	6.6138e-06	1260.2	242.55	6.077e-06	6.7197e-06	306.99	84.88	67.441	19.589	6.3236e-06	27.211	161.460	143.334	142.560	55.379	228.363	211.994	55.415	62.888	223.944	191.729	62.308	68.956	69.506	76.639	181.922	76.230	-8191	255	
39631.266	1	1	0	0	0.22839	0.13223	0.045715	0.21496	0.15927	0.083139	0.27727	0.30993	0.058749	0.067366	0.18551	0.15945	0.21661	0.17257	0.095296	0.23105	-3.0042	-2.5146	-2.7208	-3.2375	-2.2917	-3.1104	-2.9396	-2.2958	-3.2687	-2.4396	-2.8458	-3.2167	-2.4167	-3.0938	-2.9333	-2.575	376.070	355.465	256.783	135.684	144.293	366.827	323.972	314.414	244.015	316.438	62.566	319.677	154.037	330.093	48.143	145.301	0.00021346	0.00043637	0.00010227	1178.7	4.0084e-06	3.1566e-06	1280.2	244.61	2.5315e-06	2.3799e-06	309.12	84.738	67.057	19.329	3.7172e-06	26.853	0.00040134	0.00060749	0.00016152	1159.4	6.3518e-06	5.9959e-06	1260.9	242.7	6.0935e-06	6.408e-06	307.21	84.949	67.412	19.581	6.1167e-06	27.239	161.263	131.214	127.305	55.328	216.993	187.018	55.406	62.913	203.770	194.245	62.525	69.579	69.443	76.564	209.628	76.318	-8191	255	
39631.363	1	1	0	0	0.36443	0.14517	0.061688	0.13032	0.13578	0.36376	0.24332	0.080635	0.25411	0.15259	0.16722	0.079047	0.28663	0.1656	0.27883	0.051927	-2.9771	-2.4813	-2.65	-3.4604	-2.4062	-2.9146	-3.2083	-2.2729	-3.1375	-2.5667	-2.5833	-3.3312	-2.3292	-2.9458	-3.0833	-2.2313	396.337	245.657	347.921	398.257	133.371	248.148	330.942	134.974	184.291	321.570	72.546	318.311	379.104	255.453	215.379	153.339	0.00022378	0.00038511	6.3041e-05	1179.5	3.6658e-06	3.339e-06	1278.8	245.5	3.7779e-06	3.4897e-06	309.65	84.901	67.439	19.593	2.8476e-06	27.171	0.00039208	0.00059799	0.00015842	1158.3	6.5563e-06	6.5407e-06	1259.9	243.91	6.0873e-06	6.9093e-06	308.16	85.459	67.795	19.769	6.315e-06	27.425	161.563	142.447	147.530	55.236	213.827	179.511	55.354	62.806	201.154	195.583	62.523	69.268	69.654	76.765	182.149	76.241	-8191	255	
39631.461	1	1	0	0	0.34504	0.029645	0.10278	0.2284	0.21126	0.068581	0.05006	0.051747	0.27491	0.16946	0.21202	0.30242	0.29837	0.088134	0.21306	0.12447	-2.7562	-2.7021	-2.4875	-3.3812	-2.3458	-2.8042	-3.2687	-2.5208	-3.0917	-2.6896	-2.4667	-3.4083	-2.3937	-2.8896	-3.0812	-2.3583	334.598	306.134	166.225	47.388	250.866	392.786	332.340	367.414	369.793	58.081	240.712	392.733	73.879	53.535	71.996	222.647	0.00023788	0.00019409	7.3842e-05	1183.2	3.1749e-06	3.4562e-06	1281.8	247.46	1.978e-06	2.3296e-06	311.35	85.278	67.829	19.516	1.8926e-06	27.225	0.00041709	0.00062488	0.00017501	1163.7	6.7575e-06	7.1248e-06	1264.4	246.41	6.8842e-06	7.4877e-06	310.47	85.872	68.063	19.869	6.6009e-06	27.594	161.260	141.373	115.313	55.478	188.825	179.743	55.402	62.729	204.650	231.574	62.461	69.048	69.381	76.415	200.204	75.442	-8191	255	
39631.578	1	1	0	0	0.29521	0.107	0.031649	0.25639	0.15574	0.078407	0.31272	0.20698	0.2226	0.088507	0.19096	0.19116	0.13029	0.096247	0.18774	0.10853	-2.6479	-2.6896	-2.3583	-3.3896	-2.4521	-2.8792	-3.2667	-2.2958	-2.9479	-2.9979	-2.4229	-3.2083	-2.4667	-2.6875	-3.3354	-2.4104	216.288	100.879	257.817	66.890	331.505	149.730	366.321	326.101	282.137	72.311	67.649	45.961	114.339	86.735	85.062	392.955	0.00021459	0.00034299	9.8587e-05	1187.6	2.8021e-06	3.066e-06	1284.6	249.71	3.1153e-06	6.1494e-06	313.14	85.03	68.366	19.688	2.4073e-06	27.045	0.0004466	0.00067113	0.00018604	1166.1	7.1453e-06	7.5847e-06	1267.5	248.08	7.1045e-06	7.3838e-06	311.66	86.034	68.34	19.896	6.4903e-06	27.5	162.791	133.826	86.664	55.264	204.234	154.199	55.192	62.870	178.922	199.478	62.487	69.115	69.430	76.306	194.227	76.043	-8191	255	
39631.652	1	1	0	0	0.25555	0.16355	0.39102	0.22961	0.29912	0.16072	0.23952	0.13095	0.037534	0.040283	0.12262	0.093646	0.11028	0.088709	0.094491	0.21415	-2.6312	-2.825	-2.2875	-3.4979	-2.55	-2.5667	-3.3625	-2.4146	-3.1229	-2.9229	-2.5812	-3.2313	-2.6458	-2.5042	-3.2167	-2.55	121.239	67.155	96.726	362.229	372.460	344.179	349.376	177.811	158.896	391.158	343.414	63.338	71.586	357.016	224.553	293.492	0.00021548	0.00036542	0.00011144	1181.9	4.4144e-06	2.8464e-06	1289.9	248.61	3.2168e-06	2.2034e-06	312.36	85.276	68.1	19.728	1.8886e-06	27.176	0.00043952	0.0006295	0.00019248	1165	6.9448e-06	7.264e-06	1267	247.4	7.0606e-06	7.0045e-06	311.77	86.126	68.379	20	6.8954e-06	27.569	164.341	147.307	152.051	55.085	209.172	217.413	55.293	62.823	230.625	181.085	62.482	69.256	69.509	76.164	194.093	75.796	-8191	255	
39631.746	1	1	0	0	0.24137	0.25019	0.11784	0.15283	0.21259	0.13457	0.13514	0.23639	0.089526	0.17338	0.023617	0.104	0.15082	0.4078	0.076303	0.15362	-2.4979	-3.0958	-2.2438	-3.1375	-2.8396	-2.4625	-3.4813	-2.5167	-2.8125	-2.9313	-2.3521	-3.0021	-2.9979	-2.5896	-3.2625	-2.4042	170.899	294.725	172.443	359.732	243.327	50.504	366.748	55.182	149.531	164.607	267.821	384.426	83.549	399.760	132.884	53.067	0.00020729	0.00018364	0.00010401	1184.9	2.5005e-06	3.6102e-06	1287	251.07	3.463e-06	5.0855e-06	313.26	85.672	68.086	19.685	3.148e-06	27.376	0.00044001	0.00063669	0.00019442	1165.9	7.0593e-06	7.3819e-06	1268.6	249.6	6.9515e-06	6.8676e-06	312.3	86.459	68.569	19.985	6.4019e-06	27.628	154.621	166.145	155.437	55.226	210.608	222.534	55.154	62.444	209.985	191.722	62.186	69.338	69.392	76.286	189.617	75.436	-8191	255	
39631.844	1	1	0	0	0.32974	0.13197	0.12822	0.27088	0.14596	0.016245	0.12752	0.12802	0.059932	0.173	0.28333	0.28223	0.24385	0.2719	0.2061	0.14407	-2.3937	-3.1708	-2.4354	-3.2708	-2.9396	-2.5083	-3.3333	-2.5333	-2.8312	-3.3417	-2.4688	-2.8792	-2.9229	-2.3063	-3.2375	-2.7313	366.841	292.949	96.718	369.375	187.480	388.776	307.664	339.849	98.979	177.811	350.943	318.402	268.871	367.142	69.609	265.896	0.00022527	0.00039021	9.8406e-05	1186	4.2074e-06	3.4078e-06	1290.8	249.3	4.4084e-06	2.2731e-06	312.7	85.583	68.446	19.789	3.3356e-06	27.384	0.00042593	0.00060295	0.0001801	1165.1	6.7502e-06	7.0061e-06	1269.1	248.57	6.644e-06	6.763e-06	311.51	86.415	68.682	20.034	6.5671e-06	27.722	157.875	101.246	150.149	55.151	204.658	184.068	55.330	62.265	207.403	205.017	62.083	69.022	69.127	76.327	208.613	75.762	-8191	255	
39631.961	1	1	0	0	0.25308	0.17481	0.13307	0.20098	0.1757	0.17305	0.35745	0.24282	0.11096	0.19509	0.21177	0.079864	0.1304	0.24379	0.1274	0.1312	-2.1083	-3.1479	-2.3146	-3.0729	-3.125	-2.4417	-3.3896	-2.625	-2.6437	-3.1917	-2.5583	-2.9875	-3.1667	-2.4542	-3.225	-2.8146	350.306	129.314	104.077	319.318	72.699	325.918	332.231	383.823	172.764	399.425	110.881	199.230	289.703	398.195	51.508	154.503	0.00018772	0.00026497	0.00012861	1191.3	3.7477e-06	3.9327e-06	1295.7	251.57	2.3239e-06	2.4527e-06	315.04	85.821	68.592	19.887	2.6533e-06	27.334	0.00043773	0.00064319	0.00019016	1171.4	6.8448e-06	7.5981e-06	1273	249.92	7.3551e-06	7.3854e-06	313.7	86.477	68.958	20.093	7.432e-06	27.803	167.168	141.892	137.685	55.321	233.550	215.395	55.156	62.323	216.915	213.516	61.962	68.889	68.835	76.323	226.808	75.920	-8191	255	
39632.059	1	1	0	0	0.27984	0.1227	0.16033	0.12441	0.043413	0.21127	0.23691	0.037777	0.076894	0.1446	0.32946	0.12378	0.019606	0.22876	0.11504	0.12284	-2.0708	-3.1792	-2.5125	-3.0396	-3.0854	-2.3937	-3.2292	-2.8312	-2.4292	-3.3563	-2.5542	-2.675	-3.2479	-2.3063	-3.0854	-2.9792	318.608	100.567	170.323	313.989	343.601	227.770	317.607	130.624	348.378	205.191	249.797	169.646	113.142	397.193	378.443	302.955	0.00021331	0.00025912	9.035e-05	1189.6	2.332e-06	4.3025e-06	1293.4	250.31	4.019e-06	3.3184e-06	313.31	85.914	67.999	19.78	2.2458e-06	27.254	0.00045938	0.00065737	0.00019616	1172.8	7.2558e-06	7.83e-06	1274.3	249.94	7.5465e-06	7.3059e-06	313.09	86.48	68.661	20.066	7.0369e-06	27.66	158.546	154.135	117.890	55.103	181.502	181.824	55.239	62.451	204.872	174.948	62.156	68.953	69.241	76.066	203.099	75.373	-8191	255	
39632.156	1	1	0	0	0.23446	0.20813	0.25935	0.17644	0.23664	0.13673	0.081346	0.26898	0.23206	0.13598	0.077854	0.23193	0.050592	0.21131	0.12334	0.14362	-2.0021	-3.3812	-2.6083	-2.8479	-3.2771	-2.2687	-3.2021	-2.9813	-2.425	-3.0646	-2.7771	-2.6229	-3.3292	-2.2771	-2.7729	-3.1208	217.569	306.849	241.447	63.960	53.642	281.381	327.402	52.638	184.238	266.375	58.119	345.435	268.592	217.337	297.559	230.550	0.00021435	0.00058359	0.00011575	1188.9	2.7879e-06	2.1805e-06	1294.3	251.89	3.5518e-06	2.4031e-06	313.69	85.377	68.079	19.617	2.4974e-06	27.295	0.00044552	0.00066114	0.00018236	1168.9	6.6761e-06	7.1633e-06	1271.5	249.57	6.9508e-06	6.6575e-06	311.82	86.281	68.41	19.923	6.478e-06	27.622	160.931	180.638	140.102	55.020	215.750	204.456	55.349	62.598	191.256	200.738	61.962	69.114	69.720	76.146	198.497	75.224	-8191	255	
39632.250	1	1	0	0	0.056034	0.081307	0.20189	0.41508	0.083801	0.1712	0.24483	0.25091	0.12243	0.061369	0.21554	0.11405	0.24841	0.1568	0.21441	0.12375	-2.0375	-3.1437	-2.4333	-2.6854	-3.3937	-2.3646	-3.025	-3.2021	-2.5	-3.0354	-2.9167	-2.5854	-3.225	-2.5625	-2.6229	-3.2583	126.509	321.500	287.509	361.444	325.389	234.835	358.636	322.972	202.844	242.030	123.941	337.577	366.740	382.472	360.793	366.388	0.00021786	0.00042888	0.00013619	1187.9	3.7801e-06	3.5091e-06	1291.8	250.42	3.592e-06	2.6853e-06	314.94	85.433	68.447	19.703	2.7093e-06	27.135	0.00043731	0.00062789	0.00017341	1167.8	6.7224e-06	6.7766e-06	1270.6	248.41	6.6282e-06	6.7881e-06	312	86.267	68.552	19.924	6.3408e-06	27.523	160.279	137.567	133.126	55.048	204.348	204.436	55.375	62.478	231.653	191.471	62.072	68.886	69.649	75.978	185.883	75.258	-8191	255	
39632.348	1	1	0	0	0.2888	0.12219	0.28595	0.12284	0.19031	0.080817	0.22215	0.23559	0.099951	0.26605	0.14579	0.21151	0.18474	0.098472	0.11455	0.15929	-1.8458	-3.1208	-3.0333	-2.6708	-3.2792	-2.675	-2.9146	-3.3104	-2.4875	-3.1	-3.1146	-2.4396	-3.2938	-2.5667	-2.8438	-3.3563	93.693	270.803	97.477	61.673	373.194	208.318	349.819	89.258	74.477	365.311	55.999	375.947	350.082	197.278	51.222	362.647	0.00021397	0.00028191	0.00011705	1186.8	1.8632e-06	5.6647e-07	1289	249.23	2.798e-06	3.11e-06	313.96	85.799	68.429	19.742	2.7287e-06	27.088	0.00042482	0.00059617	0.00016482	1168.9	6.3062e-06	7.036e-06	1271.2	248.31	6.4793e-06	6.8944e-06	311.38	86.335	68.414	19.952	6.3775e-06	27.534	164.116	143.975	136.214	55.286	212.573	246.876	55.193	62.729	198.308	204.063	62.281	68.786	69.210	75.933	228.291	75.705	-8191	255	
39632.441	1	1	0	0	0.16479	0.22075	0.13534	0.10944	0.058573	0.34238	0.16904	0.10011	0.090843	0.034032	0.28569	0.18254	0.10316	0.1779	0.077814	0.071448	-1.9708	-2.9458	-2.95	-2.6437	-3.3583	-2.7146	-2.6917	-3.3167	-2.3521	-2.8917	-3.1958	-2.3021	-3.3354	-2.8312	-2.6208	-3.2896	352.702	270.487	262.217	257.965	332.855	116.851	307.008	88.397	139.628	362.580	275.750	163.032	63.503	164.806	224.554	213.851	0.00022444	0.00039484	6.7211e-05	1185.3	3.2869e-06	3.1367e-06	1289.7	249.73	3.033e-06	3.3203e-06	314.31	85.686	68.263	19.692	3.2161e-06	27.117	0.00044278	0.00058737	0.00016955	1170.3	6.5199e-06	7.1115e-06	1270.8	248.7	6.9975e-06	6.733e-06	312.12	86.354	68.465	20.026	6.6174e-06	27.619	160.554	154.102	138.077	55.276	206.546	194.177	55.382	62.460	194.763	194.940	62.366	69.268	69.273	76.358	196.099	75.706	-8191	255	
39632.562	1	1	0	0	0.20074	0.10713	0.2503	0.16157	0.22372	0.17316	0.16335	0.31292	0.013462	0.11662	0.17693	0.073362	0.19082	0.30939	0.19459	0.064352	-1.9937	-2.8479	-2.9833	-2.55	-3.1083	-2.6958	-2.7313	-3.2083	-2.3521	-2.825	-3.1896	-2.3417	-3.1771	-2.9021	-2.4813	-3.4042	162.059	396.050	402.330	292.691	376.866	182.012	368.018	320.157	309.362	230.182	229.789	98.001	374.662	247.536	135.097	364.095	0.00021497	0.00027892	0.00012222	1189.2	4.8013e-06	3.5594e-06	1293.3	249.32	2.4468e-06	2.9236e-06	312.37	85.725	68.206	19.746	4.6273e-06	27.318	0.00041647	0.00060539	0.0001616	1170.8	6.5133e-06	6.5344e-06	1272.9	248.75	6.6316e-06	6.4891e-06	311.59	86.217	68.565	19.986	6.7345e-06	27.671	166.875	89.064	138.799	55.157	213.062	181.465	55.302	62.573	191.002	164.566	62.389	69.326	69.404	76.067	197.973	75.574	-8191	255	
39632.660	1	1	0	0	0.22689	0.025155	0.06882	0.18218	0.033626	0.16037	0.13696	0.18591	0.054811	0.088541	0.40165	0.016102	0.36017	0.21957	0.20792	0.34435	-2.0687	-2.6333	-3.1958	-2.5	-3.0979	-3	-2.525	-3.3208	-2.6125	-2.6917	-3.3375	-2.3604	-3.1354	-3.1458	-2.375	-3.5229	284.701	208.497	167.799	359.867	262.100	240.362	299.697	374.377	45.933	321.440	364.543	225.715	394.890	163.835	144.274	335.965	0.00020939	0.00035802	3.5568e-05	1189.1	3.2386e-06	3.7494e-06	1292.3	252.32	2.0276e-06	3.5262e-06	314.74	86.156	68.339	19.831	1.6807e-06	27.607	0.00042377	0.00064277	0.00017283	1172.6	6.8965e-06	7.0611e-06	1274.5	249.75	6.9343e-06	7.0911e-06	313.1	86.735	68.893	20.072	7.3307e-06	27.837	162.140	126.845	117.934	55.269	223.606	192.159	55.318	62.544	232.495	168.532	62.042	69.424	69.583	76.164	184.248	76.137	-8191	255	
39632.754	1	1	0	0	0.16456	0.18733	0.2925	0.14391	0.15278	0.12025	0.16218	0.096059	0.16526	0.029176	0.022248	0.065998	0.087883	0.17731	0.26854	0.1672	-2.3229	-2.55	-3.3479	-2.575	-2.7979	-3.0896	-2.625	-3.3438	-2.6917	-2.3667	-3.3167	-2.5812	-2.8688	-3.1875	-2.3354	-3.225	291.901	322.970	363.621	315.737	150.806	52.761	262.317	248.033	247.373	268.785	67.290	126.966	354.664	79.896	300.843	268.749	0.00023177	0.00038059	7.6685e-05	1201.7	3.8689e-06	3.606e-06	1298.7	252.67	2.6789e-06	3.0508e-06	314.78	86.207	68.624	19.822	4.1915e-06	27.429	0.00045791	0.00066107	0.00018628	1178	7.0857e-06	7.4684e-06	1279.6	250.88	6.8073e-06	7.0809e-06	313.67	86.765	68.945	20.019	6.9852e-06	27.784	156.718	146.511	115.301	55.112	207.669	207.660	55.440	62.367	206.015	196.707	62.103	69.327	69.560	75.984	204.698	75.429	-8191	255	
39632.852	1	1	0	0	0.069746	0.30912	0.15471	0.27706	0.029639	0.20246	0.12988	0.11983	0.063748	0.35896	0.16527	0.18093	0.16558	0.15004	0.33132	0.18338	-2.4979	-2.4583	-3.0542	-2.6917	-2.8021	-3.2917	-2.4417	-3.1792	-2.7729	-2.4271	-3.5083	-2.5354	-2.7687	-3.2208	-2.4729	-3.3229	337.648	83.849	193.292	342.754	319.567	263.182	282.934	91.138	137.383	214.687	70.719	108.890	265.812	47.817	301.021	395.012	0.00022626	0.00027176	8.1941e-05	1203	3.4257e-06	2.6203e-06	1296.4	250.67	3.6123e-06	1.9529e-06	317.25	85.329	68.743	19.755	4.467e-06	27.223	0.00043753	0.00064899	0.00017577	1179	6.9792e-06	6.878e-06	1279	250.16	6.7401e-06	7.2461e-06	313.95	86.335	68.993	20.096	7.1978e-06	27.655	160.417	153.678	131.449	55.129	237.360	172.105	55.132	62.575	195.597	160.561	62.454	69.104	69.435	75.947	195.896	76.001	-8191	255	
39632.945	1	1	0	0	0.24807	0.17129	0.20491	0.1071	0.118	0.18861	0.23892	0.17898	0.077446	0.062584	0.30155	0.18398	0.19337	0.19471	0.27601	0.18232	-2.6688	-2.2583	-3.2229	-2.8771	-2.5708	-3.3521	-2.5812	-3.1146	-3.1896	-2.5146	-3.3604	-2.7875	-2.6021	-3.1479	-2.3417	-3	101.801	234.149	63.634	88.965	378.675	119.799	340.943	318.948	338.855	231.605	322.647	320.719	338.559	155.487	118.312	144.961	0.00022732	0.00024885	9.4933e-05	1198.1	1.7221e-06	2.2707e-06	1297.3	251.07	2.3305e-06	2.592e-06	315.48	86.06	67.999	19.744	2.3081e-06	27.27	0.00043682	0.00063997	0.00017597	1177.9	6.8793e-06	6.7011e-06	1278.9	249.72	6.7476e-06	7.4358e-06	313.29	86.711	68.527	20.031	7.0958e-06	27.709	162.824	128.218	146.238	55.295	213.082	192.861	55.204	62.412	198.527	201.194	62.138	68.956	69.426	76.132	197.110	75.861	-8191	255	
39633.043	1	1	0	0	0.076515	0.14702	0.066182	0.22492	0.073564	0.35912	0.31111	0.37896	0.080762	0.03796	0.040786	0.1539	0.17195	0.23978	0.36378	0.089845	-2.7958	-2.4229	-3.2542	-2.9083	-2.6562	-3.3229	-2.5583	-3.0479	-3.1417	-2.2875	-3.2021	-2.9479	-2.5062	-3.2417	-2.5687	-2.9813	401.153	77.589	217.192	53.122	236.898	273.671	322.506	324.092	226.903	293.618	227.112	299.828	343.205	358.563	238.719	248.910	0.00023088	0.00033861	4.3034e-05	1196.7	3.0129e-06	3.339e-06	1297.6	251.94	2.3965e-06	3.9467e-06	314.4	86.165	68.757	19.789	2.4124e-06	27.19	0.00042371	0.0006719	0.0001825	1176.7	6.9262e-06	7.0226e-06	1277.6	249.94	6.6426e-06	7.3193e-06	313.3	86.417	68.656	20.026	6.7101e-06	27.632	155.044	130.514	139.620	55.068	182.815	178.262	55.279	62.670	176.534	209.398	62.441	69.077	69.209	75.918	242.528	75.891	-8191	255	
39633.141	1	1	0	0	0.37574	0.11082	0.21957	0.38409	0.13616	0.13369	0.12037	0.018999	0.089973	0.066409	0.11623	0.18881	0.24244	0.29044	0.22309	0.19805	-2.8458	-2.4938	-2.9958	-2.9167	-2.5583	-3.2917	-2.7188	-2.7854	-3.0062	-2.4729	-3.25	-2.8771	-2.4437	-3.3875	-2.5792	-2.6708	273.967	254.178	67.620	343.720	197.662	146.450	373.926	174.405	272.294	139.266	396.707	300.816	303.521	45.633	359.653	350.909	0.00022772	0.00025489	9.9566e-05	1196.3	3.2663e-06	3.0848e-06	1303.3	252.44	2.7259e-06	2.5805e-06	315.39	85.971	68.808	19.819	1.8919e-06	27.181	0.00042743	0.0006865	0.00018751	1177.5	7.0546e-06	7.0163e-06	1278.6	250.34	6.8561e-06	7.6199e-06	313.29	86.654	69.013	20.046	7.0053e-06	27.781	159.556	123.890	139.679	55.034	234.503	216.649	55.131	62.420	210.740	198.006	62.485	69.087	69.573	75.997	197.791	76.050	-8191	255	
39633.262	1	1	0	0	0.19069	0.03973	0.022315	0.37906	0.051414	0.069958	0.25772	0.090405	0.13993	0.189	0.0818	0.05646	0.18663	0.076342	0.30475	0.084544	-2.9583	-2.4333	-3.1229	-3.2438	-2.4437	-3.1813	-2.7333	-2.7271	-3.2479	-2.4875	-3.1063	-3.075	-2.4771	-3.1312	-2.7062	-2.5312	273.421	174.765	337.878	45.745	235.503	314.154	101.166	312.929	149.516	46.971	277.777	193.663	387.328	175.771	223.646	245.119	0.00018745	0.0003261	0.00010825	1194.1	3.2177e-06	3.5627e-06	1295.9	251.94	2.5501e-06	3.0947e-06	316.08	86.129	68.633	19.712	1.7977e-06	27.374	0.00043235	0.00067916	0.00017797	1175.6	7.0685e-06	7.2097e-06	1277.5	250.34	6.6399e-06	7.5098e-06	313.73	86.847	69.044	20.09	6.8559e-06	27.762	159.884	134.111	140.537	54.965	227.685	195.947	55.333	62.650	205.413	161.085	62.100	68.781	69.284	76.426	222.849	75.825	-8191	255	
39633.355	1	1	0	0	0.076182	0.12968	0.2748	0.15991	0.30441	0.25398	0.11793	0.031255	0.19656	0.037621	0.15924	0.22117	0.078003	0.11791	0.44747	0.092152	-2.9229	-2.3563	-2.9125	-3.1479	-2.3479	-3.1833	-2.8979	-2.5854	-3.2562	-2.6583	-2.8396	-3.2062	-2.3708	-3.2	-2.7042	-2.5187	186.039	331.985	259.516	184.544	113.570	196.208	293.855	102.857	393.775	315.421	63.422	394.063	384.977	216.220	290.962	76.657	0.00021111	0.00020222	0.00011153	1200.5	3.4902e-06	3.2889e-06	1300.9	252.28	4.4107e-06	2.5352e-06	316.13	86.408	68.855	19.801	2.6513e-06	27.31	0.00043359	0.00067889	0.00017815	1178.3	7.2671e-06	7.2978e-06	1279.9	250.84	6.8039e-06	7.6475e-06	314.61	86.892	69.196	20.109	6.8351e-06	27.757	164.708	141.214	107.838	55.104	219.459	166.643	55.213	62.457	200.223	234.186	62.589	68.937	69.631	76.107	195.025	75.463	-8191	255	
39633.453	1	1	0	0	0.25069	0.19011	0.075819	0.22793	0.31863	0.17553	0.2969	0.21414	0.26057	0.15298	0.37735	0.090224	0.28635	0.29787	0.084577	0.10592	-3.0333	-2.4396	-2.7375	-3.1792	-2.4542	-3.0729	-3.2667	-2.2271	-3.2917	-2.675	-2.625	-3.0875	-2.5125	-3.1063	-2.9667	-2.5187	247.939	306.717	340.167	295.253	304.452	268.713	366.519	266.145	367.842	212.522	209.001	63.896	110.036	106.815	72.042	376.182	0.00023158	0.00028195	5.6186e-05	1200.7	3.753e-06	3.2324e-06	1301	252.25	3.1616e-06	2.9732e-06	315.06	85.797	68.618	19.841	4.0571e-06	27.239	0.00044549	0.00070564	0.00018174	1181.4	7.3465e-06	7.3607e-06	1283.8	250.85	6.9014e-06	7.3453e-06	313.82	86.489	68.908	20.095	6.7999e-06	27.685	160.735	156.891	133.998	55.198	220.505	222.471	55.216	62.406	186.137	207.366	62.631	68.958	69.691	76.215	194.910	75.273	-8191	255	
39633.523	1	1	0	0	0.098054	0.19824	0.0071107	0.21177	0.12963	0.12168	0.011815	0.014733	0.32868	0.039433	0.30864	0.21452	0.010404	0.21558	0.19297	0.16107	-2.7208	-2.7687	-2.5875	-3.4479	-2.3812	-2.8979	-3.1625	-2.4917	-3.4458	-2.6167	-2.5875	-3.3125	-2.4208	-3.0708	-3.1063	-2.5708	68.000	104.157	66.747	380.803	137.148	270.228	370.169	386.352	205.959	313.548	57.933	292.115	324.707	249.710	79.109	307.729	0.00021538	0.00017366	7.243e-05	1203.2	3.808e-06	3.1838e-06	1304.5	251.95	4.4336e-06	3.8832e-06	317.25	86.013	69.061	19.749	3.1893e-06	27.327	0.00045237	0.00068287	0.0001862	1183.3	7.2181e-06	7.2435e-06	1285	251.27	7.2665e-06	7.7466e-06	314.78	86.714	69.08	20.058	6.7323e-06	27.703	160.372	167.070	140.051	55.097	200.824	210.490	55.256	62.502	214.873	202.042	62.278	68.869	69.282	76.138	192.329	75.482	-8191	255	
39633.641	1	1	0	0	0.15257	0.20168	0.13435	0.24012	0.1862	0.097262	0.077451	0.039409	0.090026	0.19195	0.21017	0.088814	0.28669	0.19168	0.11	0.23695	-2.6146	-2.725	-2.4188	-3.2479	-2.4313	-2.6688	-3.3208	-2.4	-3.0979	-2.9437	-2.6167	-3.2604	-2.7188	-2.6354	-3.2396	-2.3833	299.190	133.617	60.467	379.391	178.040	61.934	75.768	372.208	363.569	77.176	377.481	338.902	134.209	56.855	59.390	385.126	0.00023196	0.00036251	0.00013235	1197	3.8444e-06	2.4213e-06	1303.2	250.44	2.7841e-06	2.0938e-06	314.81	86.475	68.396	19.635	3.9782e-06	27.254	0.00045371	0.00067204	0.00018464	1180.6	7.2267e-06	7.3748e-06	1284.3	249.9	7.0215e-06	7.6357e-06	314	86.703	68.873	20.051	7.1389e-06	27.601	160.565	117.706	132.743	54.904	229.597	192.310	55.224	62.583	225.498	192.826	62.487	69.282	69.515	75.825	207.754	75.676	-8191	255	
39633.738	1	1	0	0	0.17074	0.19937	0.26004	0.048284	0.14747	0.055792	0.17298	0.22344	0.2389	0.11095	0.15018	0.18022	0.15513	0.095897	0.21349	0.094454	-2.7771	-3.0229	-2.5021	-3.4708	-2.4854	-2.7417	-3.4542	-2.5083	-3.175	-3	-2.3958	-3.2562	-2.6958	-2.825	-3.3917	-2.3396	314.467	370.789	133.775	196.405	392.372	110.383	328.018	357.721	174.806	112.745	348.808	155.613	217.391	317.138	362.221	350.882	0.00022312	0.0002446	7.8233e-05	1206.1	2.8548e-06	4.1502e-06	1310.3	252.42	1.9499e-06	4.5553e-06	316.51	85.814	68.447	19.607	2.7858e-06	27.283	0.00045645	0.0006872	0.00019698	1185.4	7.6476e-06	7.5423e-06	1288.4	251.03	7.4697e-06	7.9009e-06	314.64	86.624	69.032	20.044	7.3329e-06	27.721	159.855	124.162	139.393	54.990	208.118	188.649	55.281	62.333	186.649	202.764	62.135	69.125	69.356	75.623	192.696	75.357	-8191	255	
39633.836	1	1	0	0	0.13505	0.21322	0.17268	0.11575	0.1382	0.12464	0.19024	0.32849	0.03158	0.1972	0.10873	0.25289	0.1588	0.25128	0.14701	0.1576	-2.5583	-2.8542	-2.2562	-3.3125	-2.8	-2.5104	-3.4208	-2.4917	-2.9625	-3.1375	-2.5458	-3.1875	-2.8354	-2.4479	-3.3146	-2.5833	300.256	178.569	180.696	314.143	252.696	55.702	304.104	349.275	177.337	326.512	374.504	272.119	292.050	294.971	333.483	385.217	0.00022506	0.00052022	8.749e-05	1206.2	5.3775e-06	3.317e-06	1306.3	253.17	3.536e-06	3.0221e-06	315.87	86.071	68.523	19.72	3.799e-06	27.254	0.00046832	0.00066652	0.00019552	1184.7	7.3213e-06	7.5918e-06	1287.8	251.4	7.1622e-06	7.5231e-06	314.49	86.574	68.914	20.065	6.8782e-06	27.629	170.455	139.892	106.483	55.330	191.241	150.805	55.256	62.652	196.770	227.222	62.071	69.023	69.128	75.737	213.912	75.484	-8191	255	
39633.930	1	1	0	0	0.17435	0.42319	0.092049	0.26877	0.11792	0.15604	0.072208	0.091201	0.19169	0.18814	0.33391	0.27931	0.28408	0.1211	0.014487	0.089452	-2.3479	-3.0563	-2.1917	-3.4125	-2.6937	-2.55	-3.3542	-2.7729	-2.7687	-3.1104	-2.5104	-3.2792	-2.9042	-2.5208	-3.4021	-2.525	344.584	261.595	92.763	376.222	60.860	115.134	385.830	201.791	218.557	341.897	224.894	306.686	395.710	149.914	129.372	392.779	0.00021363	0.00021716	0.00010899	1204.7	3.2368e-06	3.7094e-06	1310.1	253.58	2.3085e-06	3.0799e-06	316.35	85.95	69.134	19.816	2.8597e-06	27.497	0.00045501	0.00064668	0.00019244	1185.1	6.8151e-06	7.8654e-06	1289.2	251.56	6.841e-06	7.1462e-06	314.2	86.731	69.173	20.121	6.9866e-06	27.812	158.016	139.312	121.368	55.029	217.286	215.226	55.123	62.240	240.573	201.123	61.833	69.028	69.157	76.139	234.186	75.556	-8191	255	
39634.051	1	1	0	0	0.12723	0.22357	0.12845	0.11813	0.15444	0.1562	0.14751	0.33501	0.32589	0.21289	0.1041	0.06784	0.26419	0.18593	0.068945	0.1852	-2.325	-3.1875	-2.3812	-3.3	-3.0458	-2.3417	-3.4417	-2.6146	-2.5563	-3.2792	-2.3583	-3.0438	-3.3417	-2.3	-3.2333	-2.8312	197.602	238.905	58.858	65.588	47.714	120.639	358.199	210.106	323.297	219.133	339.944	103.644	280.887	187.827	360.047	104.849	0.00021909	0.00027591	0.00011159	1210.2	1.3382e-06	3.3356e-06	1308	252.28	3.5291e-06	3.4902e-06	314.98	85.979	69.01	19.897	2.5708e-06	27.537	0.00045501	0.00063704	0.00019277	1186.7	7.1559e-06	7.933e-06	1289.8	251.05	7.3001e-06	7.5829e-06	314.09	86.858	69.202	20.163	7.3516e-06	27.776	155.298	110.656	149.634	55.015	231.489	198.149	55.106	62.207	193.013	213.130	62.090	68.745	69.074	76.020	192.820	75.574	-8191	255	
39634.148	1	1	0	0	0.19369	0.026986	0.099626	0.35234	0.16809	0.14649	0.064805	0.031643	0.096822	0.1581	0.14753	0.043841	0.13024	0.24637	0.16717	0.084166	-2.1417	-3.2417	-2.35	-3.0812	-3.1125	-2.5021	-3.3187	-2.9542	-2.5521	-3.1708	-2.5687	-2.9792	-3.1667	-2.3646	-3.1729	-3	65.457	116.721	273.320	55.312	323.415	376.409	301.369	333.330	392.521	168.589	279.310	328.921	211.489	396.939	239.625	328.132	0.00019552	0.00053708	0.00011071	1207.3	2.4363e-06	3.7035e-06	1310.3	253.17	3.2121e-06	3.7602e-06	314.9	86.312	68.624	19.942	2.8262e-06	27.313	0.00046447	0.00068133	0.00018899	1187.8	7.0771e-06	7.819e-06	1289.2	251.91	7.0977e-06	7.2249e-06	314.41	86.958	69.234	20.194	7.0333e-06	27.713	157.734	130.935	122.643	54.926	212.955	195.914	55.221	62.356	196.306	202.157	62.234	68.861	69.147	76.000	197.743	75.180	-8191	255	
39634.242	1	1	0	0	0.20945	0.25993	0.056512	0.20253	0.084002	0.12262	0.16453	0.052421	0.13229	0.037512	0.28348	0.23847	0.070884	0.10021	0.15086	0.1299	-1.9979	-3.1688	-2.4875	-2.9521	-3.2458	-2.4562	-3.2542	-2.9292	-2.4188	-3.3271	-2.5292	-2.8438	-3.1958	-2.4229	-3.0042	-3.225	192.671	107.643	223.055	380.178	79.181	242.815	392.933	387.407	168.790	112.767	61.260	45.190	398.704	332.302	319.967	393.169	0.00022375	0.00046417	9.8753e-05	1209.4	4.1048e-06	2.8368e-06	1305.6	252.53	2.5388e-06	4.0054e-06	314.5	86.189	68.73	19.872	2.1107e-06	27.324	0.0004423	0.00066156	0.00018914	1187.4	7.2995e-06	7.5596e-06	1287.6	251.32	7.0627e-06	7.0518e-06	313.88	86.928	69.28	20.148	7.052e-06	27.723	160.083	122.517	140.205	54.907	197.526	200.895	54.980	62.228	203.141	196.977	61.906	68.756	69.194	75.493	191.574	75.656	-8191	255	
39634.340	1	1	0	0	0.27191	0.15262	0.29526	0.16791	0.13891	0.049108	0.018992	0.084503	0.10863	0.054938	0.13408	0.4368	0.11257	0.26919	0.113	0.2268	-2.0563	-3.3563	-2.7167	-2.6458	-3.4229	-2.4042	-3.1354	-3.1271	-2.4021	-3.3792	-2.8417	-2.6521	-3.4042	-2.5396	-2.9604	-3.2875	399.183	205.271	63.499	375.290	246.481	395.762	281.577	88.783	402.648	119.528	250.026	72.841	402.211	333.791	387.122	359.226	0.00019621	0.00035442	4.4146e-05	1206.5	4.1926e-06	2.331e-06	1306.3	252.82	5.2818e-06	1.8771e-06	315.5	86.22	68.653	19.878	2.0582e-06	27.324	0.00043965	0.00063837	0.00017495	1186.7	6.9547e-06	7.4802e-06	1289.9	251.47	7.0407e-06	6.9432e-06	314.37	86.763	69.127	20.178	6.6849e-06	27.674	166.015	155.969	115.146	55.108	190.941	181.107	54.970	62.244	201.433	176.055	61.931	68.930	69.430	75.999	225.977	75.094	-8191	255	
39634.438	1	1	0	0	0.29371	0.12985	0.12022	0.22635	0.19298	0.15793	0.082753	0.13503	0.089718	0.052128	0.10436	0.27012	0.2668	0.38334	0.12617	0.066509	-1.8625	-3.0229	-2.8167	-2.6354	-3.2771	-2.8021	-2.9333	-3.2792	-2.3563	-3.1354	-2.9979	-2.3604	-3.2687	-2.4146	-2.7854	-3.2229	100.418	387.237	366.645	64.328	140.567	360.775	298.787	236.829	239.870	124.511	187.031	136.488	70.304	400.731	126.745	393.134	0.00023957	0.00031229	9.8353e-05	1207.4	3.3344e-06	2.0975e-06	1308.6	252.49	2.4665e-06	2.5801e-06	316.68	86.138	69.274	19.905	2.7379e-06	27.251	0.00045433	0.00066533	0.00018123	1186.5	6.9018e-06	7.264e-06	1290	251.75	7.3551e-06	7.2469e-06	315.15	87.039	69.259	20.189	7.1317e-06	27.728	160.605	119.227	107.000	55.136	198.706	205.897	55.203	62.166	230.549	172.225	61.949	69.231	69.125	75.618	173.393	75.449	-8191	255	
39634.531	1	1	0	0	0.36408	0.10358	0.21925	0.40545	0.155	0.12602	0.2103	0.15364	0.15112	0.043709	0.21765	0.035296	0.139	0.25546	0.074289	0.147	-1.9979	-2.9792	-2.8729	-2.4333	-3.2125	-2.7188	-2.8271	-3.3604	-2.3979	-3.3125	-3.1583	-2.3917	-3.3979	-2.8021	-2.5208	-3.325	158.217	75.506	369.270	386.817	115.045	360.680	312.654	326.604	228.165	229.692	208.613	48.801	75.531	319.092	348.125	204.943	0.00024095	0.00048073	7.272e-05	1208.2	4.7613e-06	5.3591e-06	1308.8	251.67	3.2511e-06	4.7856e-06	314.77	86.018	68.595	19.792	3.215e-06	27.115	0.00046528	0.00065716	0.00017616	1188.2	7.273e-06	7.3261e-06	1288.6	251.01	7.0956e-06	7.2328e-06	313.62	86.542	68.942	20.066	6.7137e-06	27.591	157.943	143.874	120.033	55.151	216.337	195.200	55.318	62.332	209.524	166.868	61.834	68.944	69.410	76.008	181.855	75.497	-8191	255	
39634.652	1	1	0	0	0.13563	0.12809	0.097658	0.087013	0.18587	0.27036	0.11734	0.11664	0.085863	0.39131	0.14486	0.067491	0.087504	0.27762	0.099887	0.15798	-2.075	-3.0021	-3.0396	-2.5354	-3.1542	-2.675	-2.6	-3.4708	-2.4458	-2.8521	-3.2042	-2.5979	-3.225	-2.7667	-2.5604	-3.3771	357.022	298.108	71.876	178.241	227.344	257.625	226.833	75.938	223.305	273.313	66.248	174.698	345.607	391.449	169.000	124.391	0.00022128	0.00036415	0.00012524	1198.6	3.6227e-06	3.2476e-06	1299.8	250.15	2.879e-06	2.6789e-06	311.49	84.983	67.862	19.677	3.57e-06	26.884	0.00044141	0.00063341	0.00017037	1179.2	6.7482e-06	6.8984e-06	1280	248.11	6.4985e-06	6.6079e-06	310.03	85.595	68.224	19.879	6.7905e-06	27.371	152.700	114.086	129.175	55.091	205.882	197.079	55.155	62.466	208.851	200.880	62.384	69.072	69.309	76.155	204.719	75.803	-8191	255	
39634.746	1	1	0	0	0.15112	0.26793	0.27838	0.28966	0.22995	0.1196	0.23005	0.19903	0.2573	0.22163	0.22684	0.16228	0.10693	0.075972	0.12356	0.14619	-2.0208	-2.925	-3.1125	-2.6063	-2.9708	-2.9708	-2.5438	-3.2646	-2.4062	-2.675	-3.4521	-2.4688	-3.2354	-2.9229	-2.5104	-3.4813	99.660	280.936	264.451	374.275	259.888	166.158	368.473	67.329	300.169	106.261	225.874	340.505	350.599	196.544	228.749	266.666	0.00020542	0.00031299	6.7369e-05	1194.3	3.1486e-06	3.4957e-06	1293.8	249.48	3.5957e-06	1.666e-06	312.61	84.741	67.73	19.541	1.4393e-06	26.933	0.00043153	0.00060183	0.0001679	1177.9	6.6463e-06	6.4857e-06	1279.3	248.21	6.6241e-06	6.6748e-06	311.38	85.425	68.113	19.828	6.5822e-06	27.362	158.423	140.562	145.708	55.007	191.872	180.215	55.119	62.290	198.766	197.730	62.109	69.127	69.707	76.018	257.505	75.761	-8191	255	
39634.820	1	1	0	0	0.17548	0.18986	0.11751	0.3589	0.24218	0.090592	0.36906	0.18446	0.11682	0.14925	0.34358	0.14962	0.1484	0.27287	0.27266	0.21035	-2.1937	-2.5396	-3.2771	-2.6604	-3.0625	-3.1229	-2.5708	-3.3896	-2.8042	-2.6208	-3.2646	-2.6521	-2.9354	-3.1646	-2.3	-3.3312	126.742	353.974	182.023	313.983	86.637	309.569	332.096	276.071	61.062	79.584	318.888	373.024	83.082	65.679	287.926	196.941	0.00021815	0.00025731	8.6579e-05	1190.7	2.3435e-06	5.1271e-06	1289	248.06	3.2009e-06	2.8192e-06	309.13	84.237	66.839	19.266	2.3929e-06	26.885	0.00040675	0.00060141	0.00016661	1174.1	6.2545e-06	5.9425e-06	1271.7	245.49	6.1594e-06	6.3624e-06	307.16	84.69	67.261	19.518	5.9924e-06	27.049	158.681	140.782	121.865	54.951	207.043	192.160	55.226	62.572	199.237	188.132	62.417	68.722	69.424	76.048	210.859	75.812	-8191	255	
39634.914	1	1	0	0	0.082563	0.10551	0.12657	0.1511	0.15809	0.22545	0.19837	0.18223	0.096249	0.16601	0.090574	0.15632	0.11501	0.039803	0.16654	0.16366	-2.2958	-2.6125	-3.1354	-2.5792	-3	-2.9979	-2.65	-3.2146	-2.7458	-2.4813	-3.3563	-2.5229	-2.9229	-3.2104	-2.2104	-3.1833	338.019	281.245	187.397	271.419	311.970	108.202	385.862	246.730	103.103	48.112	220.612	80.475	308.279	388.743	387.274	245.586	0.00020041	0.00030036	5.943e-05	1182.4	4.3775e-06	3.9692e-06	1273.5	241.64	2.2635e-06	2.418e-06	306.73	83.054	66.354	19.108	2.8969e-06	26.537	0.00038497	0.00055887	0.00014718	1162.4	5.921e-06	5.8906e-06	1260.1	241.55	5.8403e-06	5.8776e-06	304.74	83.81	66.665	19.373	6.0413e-06	26.86	162.046	126.801	132.269	55.166	191.723	198.066	55.239	62.403	192.162	192.276	62.386	69.170	69.266	76.026	195.446	75.970	-8191	255	
39635.035	1	1	0	0	0.26944	0.29378	0.14811	0.32539	0.061274	0.16053	0.23283	0.080281	0.35546	0.2366	0.064257	0.10399	0.21025	0.096982	0.19596	0.13226	-2.6042	-2.4938	-3.1688	-2.8229	-2.7687	-3.1979	-2.5625	-3.0563	-2.8979	-2.4	-3.4146	-2.7417	-2.6521	-3.3604	-2.3729	-3.1437	125.247	51.886	144.254	378.138	211.232	160.223	273.439	292.976	177.605	265.700	340.594	239.588	300.248	77.560	73.787	368.203	0.00022112	0.00030818	0.00010039	1177.7	3.6214e-06	2.1706e-06	1277.8	241.85	2.911e-06	2.6366e-06	304.88	83.029	66.059	18.957	3.3308e-06	26.265	0.00038585	0.00056893	0.00014759	1157.7	5.9461e-06	5.7774e-06	1258.3	240.57	5.7256e-06	6.3128e-06	302.76	83.53	66.25	19.252	5.9917e-06	26.657	165.103	124.764	121.853	55.043	210.280	207.153	55.103	62.725	212.674	187.286	62.503	69.185	69.663	76.694	221.657	75.869	-8191	255	
39635.133	1	1	0	0	0.15769	0.2267	0.19133	0.10437	0.1513	0.35552	0.15057	0.09043	0.11141	0.21402	0.093116	0.14542	0.10924	0.23466	0.21923	0.18656	-2.5875	-2.3542	-3.3521	-2.9208	-2.6458	-3.375	-2.6604	-3.0792	-3.1542	-2.1646	-3.3979	-2.6417	-2.575	-3.4729	-2.4896	-3.0208	201.960	275.653	375.069	59.255	263.648	135.229	343.120	365.118	330.800	164.741	342.662	325.294	312.645	306.590	117.467	329.001	0.0002061	0.00046912	6.5665e-05	1178.5	3.969e-06	2.5654e-06	1273.3	242.06	2.1092e-06	2.9922e-06	303.59	82.461	65.774	18.976	3.597e-06	26.267	0.0003837	0.00053854	0.00014835	1158.6	5.8237e-06	5.6021e-06	1255.6	240.01	5.5527e-06	5.9548e-06	302.22	83.164	66.194	19.183	5.8639e-06	26.589	156.571	156.438	114.833	55.154	230.141	190.128	55.140	62.564	196.491	190.460	62.449	69.054	69.420	76.299	186.827	75.821	-8191	255	
39635.227	1	1	0	0	0.21989	0.25175	0.19563	0.19469	0.177	0.17536	0.19743	0.15781	0.23832	0.22454	0.078147	0.215	0.18586	0.0049268	0.20501	0.14251	-2.8	-2.5563	-3.0792	-2.9229	-2.3812	-3.4292	-2.8292	-2.9625	-3.1417	-2.4708	-3.0812	-2.7875	-2.4313	-3.5521	-2.6583	-2.7667	207.606	184.849	390.488	343.447	194.227	338.708	344.186	65.278	359.344	312.072	381.709	347.185	285.184	220.579	92.257	88.144	0.0001987	0.00024409	0.00011215	1175.2	3.4123e-06	4.3392e-06	1271.8	239.73	2.7889e-06	2.2283e-06	303.24	82.131	66.135	18.866	2.9864e-06	26.136	0.00036097	0.00053588	0.00014698	1155	5.778e-06	5.7656e-06	1252.1	238.74	5.4422e-06	6.1082e-06	301.41	82.968	66.147	19.148	5.8387e-06	26.507	161.561	145.046	122.012	54.967	197.748	204.443	55.196	62.753	222.233	188.658	62.111	69.078	69.842	76.297	190.718	75.511	-8191	255	
39635.324	1	1	0	0	0.043275	0.1269	0.15986	0.33093	0.072548	0.1822	0.11146	0.40715	0.25301	0.049852	0.1273	0.21148	0.13361	0.25782	0.2494	0.23115	-2.8917	-2.4417	-3.0604	-3.1146	-2.4188	-3.2562	-2.6958	-2.7833	-3.0958	-2.2542	-3.2083	-3.2833	-2.3875	-3.1021	-2.6104	-2.6083	161.811	345.344	136.680	349.882	322.557	171.706	298.870	349.100	324.435	372.825	185.445	390.366	65.440	376.097	137.396	227.095	0.00023185	0.0002352	8.1992e-05	1177.7	4.1515e-06	4.5492e-06	1271.8	239.21	2.3176e-06	2.9338e-06	302.9	82.089	66.022	18.823	3.9916e-06	25.976	0.00039042	0.00056907	0.0001463	1156.2	5.9217e-06	5.6744e-06	1254.2	238.87	5.5959e-06	6.3238e-06	301.55	82.893	66.222	19.111	5.7719e-06	26.503	161.756	146.963	103.681	55.058	209.979	176.558	55.021	62.476	221.814	196.917	62.087	69.212	69.551	76.349	192.915	75.837	-8191	255	
39635.422	1	1	0	0	0.039023	0.086112	0.09023	0.19473	0.33493	0.045293	0.20779	0.058723	0.15636	0.22335	0.067936	0.070205	0.1109	0.055238	0.12625	0.069426	-3.1083	-2.3333	-2.9917	-3.3312	-2.4417	-3.3583	-2.8042	-2.6521	-3.2812	-2.4167	-3.0417	-3.1292	-2.4396	-3.2958	-2.6021	-2.5021	236.758	360.346	389.929	59.048	263.834	259.103	392.030	93.517	241.990	284.806	173.225	310.768	62.093	294.093	162.052	62.046	0.00019233	0.00035488	7.2929e-05	1177.6	3.0948e-06	3.357e-06	1270.7	240.35	3.8784e-06	1.7771e-06	301.58	82.462	65.925	18.809	3.6476e-06	26.027	0.00038448	0.00054098	0.0001502	1155.5	6.0064e-06	6.0447e-06	1253.2	239.08	5.6261e-06	5.8871e-06	301.49	83.009	65.984	19.051	5.5909e-06	26.456	159.753	138.110	150.184	54.866	229.143	193.278	55.148	62.391	222.484	214.992	62.336	68.911	69.121	76.623	210.356	75.911	-8191	255	
39635.516	1	1	0	0	0.084058	0.066572	0.10445	0.076306	0.060206	0.1447	0.16105	0.20423	0.2161	0.19265	0.22182	0.19887	0.39562	0.19443	0.18456	0.1912	-3.1333	-2.2896	-2.6833	-3.35	-2.3208	-3.2021	-3.2458	-2.6021	-3.1979	-2.65	-2.8271	-3.4083	-2.3708	-3.2875	-3.1625	-2.5125	321.662	387.460	86.283	365.183	214.671	374.651	318.813	354.399	386.895	260.059	388.098	322.004	68.002	381.077	278.547	198.865	0.00020049	0.00030104	7.9185e-05	1178	3.6041e-06	3.1478e-06	1271.4	240.25	3.659e-06	2.0852e-06	302.54	82.113	65.906	18.903	3.4383e-06	26.065	0.00036779	0.00053463	0.00014462	1155.4	5.9177e-06	5.6783e-06	1252.5	238.43	5.6975e-06	6.1318e-06	300.89	83.148	66.176	19.11	5.6505e-06	26.483	165.553	136.495	149.929	54.989	203.483	204.961	55.054	62.356	213.231	198.348	62.223	69.108	69.179	76.315	184.604	75.685	-8191	255	
39635.613	1	1	0	0	0.16798	0.05162	0.16323	0.36479	0.13362	0.10245	0.21399	0.13059	0.18647	0.17806	0.24245	0.068783	0.31371	0.14772	0.037766	0.26655	-3.0458	-2.4146	-2.6417	-3.3792	-2.4813	-3.0917	-3.1917	-2.3292	-3.2458	-2.5438	-2.6229	-3.325	-2.4917	-3.0625	-2.9583	-2.4104	401.381	166.837	351.616	361.520	395.514	335.000	361.950	333.995	68.996	294.103	383.881	340.340	365.909	394.052	178.320	279.412	0.00021134	0.00016781	9.7496e-05	1176.3	3.0884e-06	1.5169e-06	1272.5	240.13	3.7376e-06	3.8281e-06	303.7	82.218	65.572	18.895	3.2558e-06	26.095	0.00038474	0.00054741	0.00015086	1156.3	5.8396e-06	5.8293e-06	1253.8	238.49	5.7524e-06	5.9933e-06	301.94	82.908	66.028	19.127	5.6706e-06	26.465	166.482	148.105	133.414	54.988	200.351	228.133	54.961	62.612	203.512	188.233	62.162	68.988	69.623	76.258	198.358	75.731	-8191	255	
39635.734	1	1	0	0	0.12334	0.24023	0.10633	0.24597	0.12346	0.19938	0.34636	0.25533	0.0068282	0.20634	0.27308	0.055525	0.27965	0.038775	0.26258	0.024326	-2.8812	-2.7646	-2.4958	-3.3917	-2.2083	-2.7917	-3.3229	-2.5604	-3.2521	-2.6458	-2.4979	-3.3333	-2.3521	-2.875	-3.2479	-2.4542	400.748	119.544	362.154	388.888	149.135	135.103	306.767	233.381	232.004	353.706	247.496	158.247	114.285	82.716	102.937	161.624	0.00023433	0.00037058	9.5158e-05	1174.9	3.3972e-06	2.3058e-06	1271.6	240.52	3.2212e-06	2.1229e-06	301.33	82.039	65.423	18.952	1.4786e-06	26.114	0.00038285	0.00052911	0.00014197	1155.9	5.8416e-06	5.8646e-06	1254.2	238.78	5.6501e-06	5.8477e-06	300.83	82.973	65.969	19.141	5.2583e-06	26.457	158.621	124.136	143.386	55.050	200.478	185.005	54.984	62.702	200.868	189.662	62.412	69.385	69.380	76.224	156.253	75.750	-8191	255	
39635.828	1	1	0	0	0.15906	0.056678	0.27971	0.35466	0.30892	0.11407	0.32677	0.026425	0.1484	0.066909	0.2925	0.098381	0.22027	0.077773	0.27609	0.22355	-2.7625	-2.8042	-2.525	-3.4979	-2.5958	-2.8521	-3.3271	-2.3875	-3.0583	-2.7667	-2.625	-3.3021	-2.7875	-2.5354	-3.2417	-2.4021	88.288	392.864	55.522	367.624	179.769	385.747	352.752	376.443	132.583	278.374	326.974	54.283	119.712	175.368	193.345	258.568	0.00020455	0.00030693	8.5037e-05	1172.1	3.8844e-06	4.0252e-06	1271.8	240.51	2.887e-06	2.3763e-06	302.67	82.487	65.604	18.914	3.1507e-06	26.255	0.00037656	0.00053169	0.00014897	1155.4	5.6775e-06	5.922e-06	1254.3	238.51	5.6481e-06	5.6549e-06	301.15	83.104	66.056	19.191	5.2511e-06	26.577	160.018	128.602	143.364	54.895	207.534	193.544	54.934	62.447	194.297	210.317	61.787	69.250	69.185	76.410	203.569	75.635	-8191	255	
39635.926	1	1	0	0	0.21914	0.11754	0.28062	0.18402	0.2119	0.31817	0.21726	0.20734	0.17716	0.06509	0.31305	0.14067	0.32218	0.28209	0.15454	0.28719	-2.6375	-2.8604	-2.4479	-3.3438	-2.7833	-2.4958	-3.4458	-2.5604	-3.0896	-3.0938	-2.4271	-3.2979	-2.7438	-2.6021	-3.2521	-2.4042	272.120	209.481	294.375	105.547	95.665	203.113	329.385	365.499	139.550	140.823	336.188	399.361	333.797	236.915	381.621	291.527	0.00021571	0.00034554	9.9733e-05	1179.4	2.971e-06	2.6571e-06	1276.1	239.2	4.1351e-06	2.4432e-06	303.24	82.636	65.992	18.872	3.0219e-06	26.065	0.00039192	0.00054008	0.00015971	1157.2	5.8733e-06	5.9346e-06	1254.7	238.21	5.5925e-06	5.7683e-06	301.19	83.187	66.185	19.147	5.491e-06	26.512	163.958	132.717	135.786	55.003	227.540	215.401	55.046	62.645	217.822	195.940	62.233	68.917	68.922	76.574	199.221	75.433	-8191	255	
39636.043	1	1	0	0	0.047269	0.29901	0.13243	0.16223	0.15731	0.20124	0.27648	0.18879	0.16399	0.10291	0.31225	0.14729	0.15645	0.086798	0.1649	0.17278	-2.4646	-3.1188	-2.2146	-3.2625	-2.7812	-2.4833	-3.5458	-2.3604	-2.8833	-3.2604	-2.5833	-3.2375	-2.8667	-2.4625	-3.3021	-2.6708	309.139	45.767	182.593	64.553	257.751	366.922	394.907	394.249	96.708	392.872	396.024	72.684	402.841	242.957	220.861	80.238	0.00020541	0.00033238	8.4843e-05	1177.7	3.0653e-06	2.2324e-06	1276.2	239.75	3.3047e-06	4.8029e-06	303.31	82.702	65.967	18.836	2.4213e-06	26.238	0.00037372	0.00055028	0.00015622	1157.1	5.8839e-06	5.9755e-06	1257.4	238.7	5.6659e-06	5.9768e-06	302.02	83.072	66.229	19.181	5.6807e-06	26.544	160.937	158.481	151.303	55.231	220.765	172.113	55.081	62.341	208.837	204.782	62.182	69.355	69.711	76.342	193.366	75.844	-8191	255	
39636.117	1	1	0	0	0.24094	0.079021	0.078199	0.32029	0.062128	0.30811	0.13684	0.28023	0.20245	0.10141	0.25228	0.23094	0.1349	0.14799	0.084127	0.054002	-2.3604	-3.1729	-2.1479	-3.375	-2.975	-2.3563	-3.5438	-2.6667	-2.7313	-3.0979	-2.5396	-3.1792	-2.9875	-2.3292	-2.9979	-2.8083	102.377	138.389	359.497	327.746	240.289	320.662	259.484	292.925	392.370	390.117	322.763	252.849	195.383	348.973	356.595	235.256	0.00023102	0.00035121	8.6344e-05	1178.3	4.2814e-06	2.5842e-06	1270.2	240.1	2.7785e-06	3.4238e-06	306.05	83.061	66.25	19.042	2.5761e-06	26.128	0.00038993	0.00053072	0.00016277	1158	5.8495e-06	6.0234e-06	1255.5	239.12	5.891e-06	6.1287e-06	302.2	83.421	66.248	19.232	5.4127e-06	26.598	162.204	122.560	142.184	54.991	200.855	207.760	55.150	62.512	177.255	224.269	62.293	69.218	69.271	76.110	195.490	75.481	-8191	255	
39636.211	1	1	0	0	0.22289	0.025294	0.34701	0.18333	0.1799	0.060775	0.23878	0.25189	0.099696	0.051518	0.11368	0.095353	0.18742	0.13309	0.1111	0.14155	-2.25	-3.1896	-2.3	-3.2646	-2.8667	-2.3083	-3.5292	-2.7979	-2.6417	-3.4354	-2.4854	-2.9688	-3.2104	-2.375	-3.3187	-2.7146	65.192	168.502	103.596	94.059	188.650	165.751	308.555	344.831	259.745	382.342	331.586	121.668	121.988	119.623	180.500	128.063	0.00020013	0.00050605	0.000122	1178.2	2.7568e-06	1.6522e-06	1276.2	240.62	3.523e-06	4.4459e-06	303.97	82.448	66.171	19.05	2.3896e-06	26.217	0.00038288	0.00053127	0.00015076	1159.6	5.8297e-06	6.2939e-06	1256.8	239.46	5.8732e-06	5.6416e-06	301.8	83.274	66.429	19.232	5.7044e-06	26.659	160.756	108.427	119.497	55.121	228.411	224.120	55.043	62.627	209.752	197.152	62.148	69.465	69.460	76.077	227.739	75.722	-8191	255	
39636.332	1	1	0	0	0.18072	0.20035	0.12447	0.24234	0.090393	0.15689	0.19535	0.09482	0.093162	0.077578	0.17506	0.28414	0.13979	0.1629	0.1118	0.10144	-2.1125	-3.3896	-2.3667	-3.0187	-3.2188	-2.4854	-3.3375	-3.0854	-2.4417	-3.3479	-2.6917	-2.9354	-3.1479	-2.4833	-3.0812	-2.8917	243.253	82.518	161.955	392.138	400.205	90.534	401.065	99.424	168.091	101.807	45.086	297.275	375.431	378.655	45.530	310.679	0.0002162	0.00043509	7.4513e-05	1179.7	3.6327e-06	3.5075e-06	1273.9	241.97	2.4582e-06	3.7719e-06	304.26	82.419	66.536	19.001	3.1826e-06	26.37	0.0003955	0.00053889	0.00015427	1161.1	5.9031e-06	6.6123e-06	1257.8	239.75	5.9473e-06	5.9776e-06	302.2	83.338	66.526	19.279	5.6405e-06	26.684	159.705	116.713	139.875	55.076	214.890	188.045	55.250	62.194	206.706	183.384	61.990	69.294	69.384	75.993	213.347	75.813	-8191	255	
39636.430	1	1	0	0	0.35324	0.14799	0.14673	0.15134	0.033406	0.19075	0.29391	0.13955	0.36609	0.026264	0.24859	0.18323	0.071001	0.24406	0.34018	0.1849	-2.075	-3.2521	-2.5604	-2.825	-3.2958	-2.3646	-3.1521	-2.9417	-2.4604	-3.1479	-2.6854	-2.6021	-3.2354	-2.4646	-2.8042	-3.1896	369.128	62.168	170.003	389.464	392.033	330.943	347.836	263.491	244.340	262.781	58.099	362.026	307.648	356.901	261.999	383.940	0.00022054	0.00036314	0.00010487	1178.6	2.0516e-06	1.9902e-06	1275.2	240.86	3.4338e-06	2.5716e-06	303.07	83.254	66.013	18.892	2.3651e-06	26.44	0.00038996	0.00054392	0.00015308	1159.9	5.7436e-06	6.2467e-06	1257.6	239.61	6.0304e-06	6.0767e-06	302.24	83.47	66.361	19.235	5.6634e-06	26.753	159.261	120.117	134.071	55.086	182.479	209.224	55.004	62.503	219.342	175.120	62.252	69.194	69.072	76.240	213.499	76.342	-8191	255	
39636.523	1	1	0	0	0.093145	0.11396	0.18029	0.23674	0.082332	0.16861	0.13776	0.3254	0.069065	0.073722	0.046431	0.12405	0.37953	0.13562	0.013934	0.12574	-1.9104	-3.3604	-2.7917	-2.7542	-3.3771	-2.4917	-3.1042	-3.1354	-2.4708	-3.25	-2.8833	-2.5667	-3.5625	-2.675	-3.0875	-3.0583	323.166	325.370	374.099	387.917	369.012	159.620	341.782	330.898	221.550	397.900	237.289	330.764	54.483	382.352	350.025	176.973	0.00021423	0.00019363	7.4322e-05	1177	3.3988e-06	3.874e-06	1273.4	241.97	3.0792e-06	5.113e-06	302.97	82.989	66.145	19.022	2.5705e-06	26.268	0.00039994	0.0005458	0.00015108	1159.1	5.7139e-06	6.0344e-06	1257.2	239.78	5.937e-06	5.9367e-06	301.91	83.472	66.525	19.287	5.4831e-06	26.681	160.152	131.482	119.764	55.163	202.395	221.737	55.174	62.458	213.697	200.715	62.091	68.955	69.632	76.080	161.465	75.604	-8191	255	
39636.621	1	1	0	0	0.097428	0.19748	0.22971	0.26882	0.25875	0.063757	0.19303	0.24319	0.081042	0.076334	0.2536	0.26959	0.11126	0.25713	0.065523	0.094802	-2.1229	-3.3042	-2.6979	-2.5729	-3.1312	-2.4646	-3.0625	-3.4562	-2.4917	-3.2062	-2.8875	-2.5708	-3.5021	-2.4729	-2.7979	-3.3063	296.361	93.140	273.343	375.784	127.734	131.968	338.696	284.935	232.710	190.498	352.314	358.939	48.060	169.430	113.598	151.066	0.00023744	0.00032251	7.5456e-05	1178.2	4.7064e-06	4.6445e-06	1272.2	239.91	3.8325e-06	4.2909e-06	304.46	82.343	65.846	18.994	1.8219e-06	26.474	0.00038543	0.00054266	0.00015084	1157.6	5.7192e-06	6.0871e-06	1256	239.82	5.9741e-06	5.9799e-06	302.76	83.469	66.264	19.258	5.6828e-06	26.707	160.480	144.122	158.052	55.029	219.503	187.809	55.262	62.396	196.674	180.183	61.932	68.886	69.519	75.959	218.470	75.535	-8191	255	
39636.715	1	1	0	0	0.12715	0.19538	0.2283	0.10645	0.098281	0.20221	0.15924	0.11414	0.1567	0.21867	0.07	0.18167	0.10467	0.18189	0.16459	0.076825	-2.0146	-2.9792	-3.0292	-2.5646	-3.2375	-2.7062	-2.85	-3.325	-2.4042	-3.1021	-3.1896	-2.45	-3.1792	-2.6562	-2.5146	-3.4	91.595	159.064	212.006	91.065	150.079	93.302	338.439	191.500	117.299	401.353	306.315	164.832	246.864	345.749	244.539	128.693	0.00020093	0.00022097	7.5429e-05	1177.2	3.6329e-06	4.3016e-06	1276.9	240.98	1.2375e-06	1.8066e-06	302.64	83.088	66.239	19.03	2.2597e-06	26.209	0.00038566	0.00051304	0.00013977	1158.1	5.6291e-06	5.7782e-06	1255.9	239.81	5.7627e-06	5.7352e-06	301.75	83.453	66.335	19.236	5.4293e-06	26.644	159.159	116.835	137.571	55.124	204.590	191.300	55.067	62.618	194.588	191.046	61.854	69.367	69.241	76.393	201.839	75.725	-8191	255	
39636.812	1	1	0	0	0.30443	0.17706	0.12718	0.19645	0.072837	0.036375	0.2967	0.19357	0.10714	0.30963	0.23106	0.20452	0.20339	0.18121	0.24804	0.079575	-2.1063	-2.9583	-3.0667	-2.6333	-3.4313	-2.8438	-2.8563	-3.4792	-2.3167	-2.8625	-3.1604	-2.3854	-3.1271	-3.0271	-2.5271	-3.325	368.649	64.660	97.592	356.734	203.834	390.827	274.488	369.889	267.465	66.825	333.937	228.847	392.384	396.289	154.705	99.290	0.00020044	0.00042725	5.7624e-05	1179.3	3.3884e-06	2.8202e-06	1273.3	241.72	3.522e-06	1.7638e-06	304.46	83.024	66.255	18.993	3.0163e-06	26.137	0.00038174	0.00052799	0.0001434	1158.4	5.4392e-06	5.6878e-06	1254.6	239.74	5.6803e-06	5.5282e-06	302.4	83.337	66.405	19.243	5.6512e-06	26.615	163.528	112.592	125.533	55.201	206.166	196.304	55.132	62.234	226.518	198.481	62.300	69.194	69.707	76.380	185.703	75.679	-8191	255	
39636.906	1	1	0	0	0.24777	0.11542	0.21235	0.018069	0.32599	0.21779	0.33164	0.23107	0.049844	0.2472	0.15198	0.14573	0.085584	0.27545	0.06765	0.12055	-2.1562	-2.7417	-3.1792	-2.5812	-3.0354	-2.9646	-2.6292	-3.3563	-2.5833	-2.7062	-3.4208	-2.4875	-3.2104	-2.9875	-2.2875	-3.4688	229.517	340.361	94.029	279.501	120.212	200.322	337.640	377.184	270.216	55.815	218.590	53.261	174.737	125.667	156.839	383.013	0.0002151	0.00021634	0.00010327	1174.1	3.0921e-06	2.2252e-06	1269.7	240.85	3.0886e-06	2.9851e-06	302.8	82.298	66.055	18.882	3.3679e-06	26.484	0.00037587	0.00049097	0.00013702	1155.1	5.5789e-06	5.6115e-06	1252.3	239.25	5.5582e-06	5.5039e-06	302.35	83.268	66.267	19.235	5.6347e-06	26.694	160.454	151.249	148.899	55.163	206.532	178.474	55.080	62.389	216.127	213.046	62.515	69.130	69.556	76.372	202.434	76.144	-8191	255	
39637.004	1	1	0	0	0.17641	0.029142	0.1317	0.10591	0.3841	0.21211	0.23966	0.23967	0.32972	0.10535	0.096182	0.070261	0.021747	0.32584	0.15051	0.081672	-2.2167	-2.6667	-3.1104	-2.5458	-3.1083	-3.0625	-2.6292	-3.4021	-2.7875	-2.6646	-3.1979	-2.4833	-2.9167	-2.9771	-2.3875	-3.0833	294.200	205.893	238.662	393.688	310.772	340.718	311.635	324.336	190.428	91.424	82.086	226.753	209.341	376.016	182.814	105.475	0.0002103	0.00026112	0.0001023	1172.4	2.767e-06	2.4993e-06	1269.8	241.87	2.4671e-06	3.4492e-06	303.77	82.613	65.914	18.956	2.2572e-06	26.269	0.0003701	0.0005099	0.00013661	1154	5.4941e-06	5.1917e-06	1252.7	239.32	5.4847e-06	5.7809e-06	301.75	83.137	66.27	19.206	5.4946e-06	26.715	164.100	112.268	157.348	55.023	206.718	165.278	55.203	62.561	208.763	188.078	62.282	69.083	69.626	76.144	194.270	75.922	-8191	255	
39637.125	1	1	0	0	0.35968	0.13478	0.035774	0.27345	0.20608	0.14362	0.072776	0.14365	0.11861	0.10704	0.2157	0.17211	0.19628	0.17676	0.036151	0.16054	-2.4292	-2.4917	-3.1312	-2.7375	-2.7812	-3.0187	-2.4333	-3.2479	-2.7646	-2.4938	-3.4313	-2.525	-2.7583	-3.3479	-2.4417	-3.2562	64.393	357.745	141.128	377.096	54.007	118.637	256.589	115.489	189.912	174.531	81.665	127.410	56.269	103.610	227.248	318.135	0.00021131	0.00027863	0.00011941	1175.5	2.9892e-06	1.8238e-06	1273.8	239.97	2.7699e-06	4.4654e-06	304.96	82.976	65.973	18.981	2.762e-06	26.354	0.00036687	0.00051975	0.0001378	1155.2	5.4663e-06	5.3937e-06	1253.4	238.97	5.5259e-06	5.9359e-06	302.09	83.319	66.329	19.189	5.4609e-06	26.734	160.636	154.076	121.303	54.746	206.281	207.990	55.182	62.690	222.834	181.880	62.289	69.015	69.571	76.252	195.619	75.739	-8191	255	
39637.223	1	1	0	0	0.077344	0.054447	0.10197	0.25703	0.096933	0.16802	0.29244	0.28531	0.2063	0.1329	0.12678	0.10146	0.18942	0.13546	0.10646	0.20227	-2.5792	-2.4521	-3.2188	-2.6979	-2.5542	-3.2812	-2.3771	-3.1333	-2.7562	-2.475	-3.2438	-2.7854	-2.6958	-3.2125	-2.4646	-2.9458	49.312	80.361	170.002	55.297	125.142	319.499	335.203	45.701	109.341	178.952	396.630	398.262	259.677	361.522	381.780	396.060	0.00022467	0.00027059	9.9041e-05	1173.7	2.4575e-06	2.8348e-06	1271.8	241.06	3.9942e-06	2.9654e-06	301.68	82.919	65.942	19.005	2.2238e-06	26.371	0.00035764	0.00052289	0.0001365	1155.3	5.5927e-06	5.4763e-06	1253.2	239.45	5.3289e-06	6.0602e-06	301.65	83.46	66.222	19.261	5.6175e-06	26.662	165.926	150.490	150.127	55.187	185.913	203.863	55.166	62.621	220.941	201.095	62.222	68.962	69.716	76.540	190.212	76.355	-8191	255	
39637.316	1	1	0	0	0.26132	0.12071	0.23248	0.032901	0.039121	0.16734	0.18514	0.061133	0.25343	0.1716	0.21705	0.11062	0.18508	0.075285	0.36011	0.026159	-2.7792	-2.4813	-3.2646	-2.5833	-2.5021	-3.3146	-2.6104	-3.0104	-3.0604	-2.4562	-3.3458	-2.8375	-2.4896	-3.3396	-2.3333	-2.8271	398.965	177.780	381.968	67.583	334.418	298.597	332.209	108.799	183.937	67.452	402.945	399.268	240.494	273.913	123.682	97.951	0.00020421	0.00043481	4.1416e-05	1174.6	4.0671e-06	1.8748e-06	1271.5	240.97	2.3272e-06	3.1947e-06	303.37	82.869	65.787	19.008	4.1836e-06	26.357	0.00034979	0.00053477	0.00013336	1155.1	5.5147e-06	5.1257e-06	1253.3	239.4	5.4991e-06	5.987e-06	301.35	83.341	66.198	19.242	5.4939e-06	26.743	159.970	127.849	162.692	55.015	209.684	219.024	55.095	62.635	196.622	195.722	62.443	69.254	69.728	76.384	215.981	75.458	-8191	255	
39637.414	1	1	0	0	0.15607	0.09537	0.26311	0.095556	0.083205	0.27674	0.10267	0.32031	0.22945	0.14953	0.027717	0.088598	0.23199	0.19062	0.10933	0.33675	-2.8937	-2.5917	-3.075	-2.7729	-2.4667	-3.3521	-2.6667	-2.7042	-3.2938	-2.3354	-3.2208	-2.925	-2.4875	-3.2396	-2.7625	-2.8354	296.593	398.630	232.093	393.735	168.596	297.810	50.105	353.415	243.603	72.346	313.114	325.673	97.883	100.616	224.065	327.463	0.00023162	0.00034519	7.2836e-05	1176.7	3.2391e-06	2.4605e-06	1269.7	241.53	4.0786e-06	3.0725e-06	303.63	82.637	65.944	19.015	2.7688e-06	26.349	0.0003673	0.00052932	0.00013476	1154	5.4657e-06	5.3387e-06	1254.2	239.67	5.3701e-06	5.6565e-06	302.21	83.431	66.124	19.232	5.3459e-06	26.695	157.918	119.334	133.078	55.008	193.538	185.988	55.119	62.433	198.490	178.123	62.280	69.260	69.559	76.436	185.053	75.924	-8191	255	
39637.508	1	1	0	0	0.11803	0.071676	0.1041	0.14601	0.2383	0.15279	0.12139	0.1776	0.32004	0.23125	0.16502	0.18141	0.11651	0.17584	0.032997	0.18811	-2.9229	-2.1896	-3.1271	-2.9979	-2.5833	-3.3104	-2.8604	-2.6396	-3.2146	-2.5563	-3.1354	-3.2854	-2.4708	-3.0104	-2.5354	-2.6104	319.001	201.275	376.277	360.429	204.662	102.792	307.507	373.451	275.618	313.794	347.614	373.741	399.134	395.879	225.448	45.501	0.00021157	0.00034952	0.00011116	1174.8	2.7925e-06	3.5238e-06	1274.3	240.98	3.471e-06	2.044e-06	304.43	82.558	65.943	19.046	2.4605e-06	26.31	0.00036332	0.00053931	0.00013299	1155.3	5.5471e-06	5.3804e-06	1254.8	239.59	5.3015e-06	5.8643e-06	302.15	83.398	66.271	19.263	5.2798e-06	26.645	157.894	139.308	135.334	55.045	199.956	217.698	55.266	62.612	216.635	214.805	62.174	69.135	69.399	76.637	189.811	75.542	-8191	255	
39637.605	1	1	0	0	0.18602	0.18751	0.17272	0.24688	0.25476	0.18591	0.15326	0.15925	0.41138	0.24705	0.18701	0.065312	0.096783	0.2582	0.16279	0.23413	-2.9083	-2.3438	-2.9125	-3.2062	-2.3187	-3.1792	-2.8917	-2.4938	-3.3	-2.5417	-2.7812	-3.1354	-2.4792	-3.1958	-2.9167	-2.4229	386.696	112.309	209.063	394.869	123.940	345.114	378.297	329.648	235.480	208.832	126.115	92.439	243.144	101.399	251.746	63.300	0.0002157	0.00035954	0.00010164	1171.8	3.5109e-06	2.8147e-06	1270.3	241.47	2.675e-06	1.9402e-06	302.58	82.928	66.032	18.974	3.4051e-06	26.316	0.00036257	0.00052198	0.00013952	1153.8	5.8144e-06	5.6304e-06	1252.5	239.17	5.1511e-06	5.6368e-06	301.61	83.274	66.293	19.268	5.4645e-06	26.682	159.582	142.100	132.035	55.012	219.435	193.903	55.043	62.769	224.171	229.153	62.176	69.386	69.472	76.387	200.318	75.937	-8191	255	
39637.723	1	1	0	0	0.27135	0.20517	0.077804	0.26085	0.24482	0.11348	0.16141	0.080576	0.14542	0.089791	0.20305	0.18949	0.048219	0.1082	0.13376	0.11004	-2.9125	-2.3208	-2.6833	-3.1625	-2.4917	-3.1917	-3.2021	-2.4646	-3.2708	-2.6646	-2.8583	-3.3354	-2.4792	-2.9708	-2.9396	-2.5375	328.798	300.820	203.838	345.418	256.263	250.259	394.485	170.909	327.978	401.348	380.148	54.071	209.601	91.284	380.156	279.944	0.00021286	0.00037077	8.6606e-05	1175.1	2.8307e-06	4.3304e-06	1274.7	241.14	3.1768e-06	2.2449e-06	302.87	82.926	66.05	19.008	2.3999e-06	26.213	0.00035295	0.0005268	0.00014503	1154.8	5.8859e-06	5.2514e-06	1253.4	239.4	5.5822e-06	5.4936e-06	301.81	83.443	66.259	19.25	5.2619e-06	26.696	159.429	147.258	133.594	55.159	214.575	192.987	55.154	62.490	203.276	193.318	61.807	68.577	68.931	75.639	202.399	75.508	-8191	255	
39637.820	1	1	0	0	0.24055	0.33844	0.25216	0.052606	0.31417	0.08378	0.26211	0.12632	0.11076	0.13774	0.071243	0.21985	0.12749	0.12228	0.18145	0.19444	-2.8063	-2.7104	-2.6771	-3.4417	-2.2458	-3.0167	-3.3604	-2.5312	-3.325	-2.9646	-2.7125	-3.2708	-2.6104	-2.9062	-3.2229	-2.3937	347.541	329.150	152.520	313.149	82.052	164.959	343.807	297.807	116.085	299.183	354.990	103.396	383.925	310.399	291.379	337.089	0.00020781	0.00033456	4.3448e-05	1172.9	3.4316e-06	3.0303e-06	1268.5	241.11	2.7204e-06	3.3068e-06	304.9	82.64	66.103	19.067	2.1329e-06	26.233	0.00034956	0.00050019	0.0001357	1153.9	5.6258e-06	5.481e-06	1252.2	239.49	5.2431e-06	5.4102e-06	302.09	83.337	66.259	19.261	4.9034e-06	26.694	156.702	127.764	126.893	54.684	192.457	205.955	54.769	61.706	205.946	173.603	61.843	68.685	68.842	75.826	195.418	75.551	-8191	255	
39637.918	1	1	0	0	0.14199	0.19774	0.16314	0.1291	0.14916	0.10851	0.13122	0.026527	0.11196	0.05674	0.1985	0.13294	0.063382	0.23782	0.033831	0.057556	-2.8812	-2.5542	-2.4292	-3.2812	-2.25	-2.8104	-3.2979	-2.1833	-2.9667	-2.8771	-2.4688	-3.3458	-2.525	-2.7542	-3.0521	-2.4437	218.672	114.134	329.611	232.317	85.769	301.175	276.566	357.110	173.770	325.363	324.228	177.970	153.854	395.621	129.694	354.165	0.00020445	0.00018864	0.00012232	1176.7	4.9578e-06	1.7584e-06	1269.6	241.04	2.4718e-06	4.1831e-06	303.62	82.435	66.068	18.87	2.8093e-06	26.323	0.00034953	0.000496	0.00014392	1156.6	5.5795e-06	5.5337e-06	1253.4	239.77	5.4888e-06	5.5912e-06	302.44	83.36	66.323	19.255	5.4264e-06	26.708	162.152	165.200	136.547	54.709	217.788	224.054	54.672	62.243	169.089	177.234	62.050	68.899	69.061	76.213	192.223	75.360	-8191	255	
39638.012	1	1	0	0	0.032765	0.19201	0.20676	0.20701	0.16563	0.12154	0.24675	0.29589	0.14362	0.27847	0.10678	0.14608	0.10544	0.11584	0.13525	0.061671	-2.8458	-2.7854	-2.3625	-3.2708	-2.7729	-2.6125	-3.4896	-2.2708	-3.0396	-3.0542	-2.35	-3.1208	-2.6854	-2.6042	-3.2958	-2.4417	228.788	380.009	334.989	390.316	397.667	197.926	334.931	327.515	313.252	99.536	274.681	65.994	47.660	377.706	153.063	95.677	0.00021588	0.00050472	8.3944e-05	1175	3.9453e-06	2.2252e-06	1270.1	241.03	2.8789e-06	3.4479e-06	301.68	82.719	65.879	18.892	2.3118e-06	26.334	0.0003688	0.00051262	0.00014252	1156.1	5.4981e-06	5.7522e-06	1252.1	239.62	5.2349e-06	5.3646e-06	301.07	83.253	66.176	19.182	5.2669e-06	26.648	165.083	125.605	137.436	54.488	206.934	208.522	54.731	62.132	225.307	209.037	61.702	68.648	69.070	75.535	214.648	75.471	-8191	255	
39638.109	1	1	0	0	0.035756	0.036249	0.11153	0.23409	0.36484	0.14576	0.20604	0.14621	0.14411	0.20528	0.27311	0.30672	0.12491	0.17378	0.25456	0.1258	-2.6104	-3.0458	-2.3229	-3.2896	-2.575	-2.6583	-3.4625	-2.3667	-2.8354	-3.2583	-2.5354	-3.2729	-2.8729	-2.4792	-3.3771	-2.5583	247.195	392.096	335.203	378.109	93.183	331.324	329.409	346.717	356.886	251.613	384.200	59.617	94.238	163.817	152.423	335.914	0.00021749	0.00031843	7.2829e-05	1174.2	2.5626e-06	3.2623e-06	1271.9	240.52	3.0168e-06	4.6612e-06	302.36	82.677	65.91	19.057	2.5362e-06	26.219	0.00036205	0.00048698	0.00014774	1153.9	5.4154e-06	5.6115e-06	1252	239.06	5.3982e-06	5.8021e-06	301.5	83.355	66.294	19.266	5.4048e-06	26.702	158.114	147.382	126.901	54.812	216.265	191.001	54.797	62.085	200.053	208.249	61.595	68.755	69.112	75.664	197.705	75.455	-8191	255	
39638.203	1	1	0	0	0.27306	0.24086	0.12208	0.16314	0.065194	0.19149	0.21922	0.11291	0.40521	0.13416	0.22767	0.22704	0.22693	0.12674	0.27032	0.33784	-2.5104	-3.1292	-2.3417	-3.3833	-2.7562	-2.5417	-3.5	-2.4354	-2.8542	-3.1333	-2.5521	-3.2917	-2.9083	-2.4042	-3.2938	-2.5958	275.871	74.952	90.474	353.359	177.894	335.092	392.496	76.047	396.975	294.664	346.756	339.164	51.430	107.807	288.292	162.264	0.00022378	0.00047429	8.8685e-05	1171.8	4.0024e-06	2.4665e-06	1271.4	240.97	4.1063e-06	3.4208e-06	303.34	83.12	66.21	18.998	2.8859e-06	26.356	0.00037248	0.00052939	0.00014872	1153.6	5.6457e-06	6.0274e-06	1252.7	239.6	5.6481e-06	5.8021e-06	302.2	83.491	66.318	19.279	5.3625e-06	26.736	165.149	130.283	149.974	54.813	203.225	186.889	54.684	62.112	203.602	230.228	61.845	68.611	68.779	75.847	192.983	75.394	-8191	255	
39638.301	1	1	0	0	0.14004	0.075186	0.34428	0.33003	0.068511	0.12337	0.19565	0.12715	0.18297	0.095789	0.20868	0.3578	0.1912	0.19383	0.14995	0.17235	-2.3917	-3.1292	-2.275	-3.0687	-3.0021	-2.3563	-3.2583	-2.7042	-2.5375	-3.3229	-2.6667	-3.2229	-3.0146	-2.3521	-3.1542	-2.5667	303.143	107.994	177.256	323.899	365.426	234.548	56.865	395.239	377.152	356.964	335.552	260.498	86.204	339.029	67.390	236.012	0.00021078	0.00037597	8.0022e-05	1176.1	3.5115e-06	2.922e-06	1273.2	241.32	3.4742e-06	2.1216e-06	303.03	82.762	66.419	19.119	3.3464e-06	26.313	0.00038494	0.00054189	0.00014924	1156.8	5.5934e-06	6.1186e-06	1253.7	239.63	5.6131e-06	5.5786e-06	302.65	83.41	66.472	19.291	5.5126e-06	26.659	162.095	125.575	132.312	54.733	199.011	176.701	54.907	62.345	207.892	213.622	61.556	68.466	69.096	75.731	233.337	75.359	-8191	255	
39638.422	1	1	0	0	0.2296	0.25935	0.13822	0.24562	0.018593	0.017806	0.28587	0.19562	0.12234	0.12235	0.33369	0.11293	0.095911	0.062748	0.15414	0.11319	-2.1437	-3.3208	-2.4896	-3.1125	-3.0104	-2.4708	-3.2917	-2.7708	-2.5729	-3.2771	-2.5708	-2.9125	-3.2729	-2.3417	-3.3479	-2.8729	225.996	71.635	245.463	375.539	274.305	350.788	339.872	118.491	342.466	58.105	55.179	403.217	250.753	243.722	51.949	203.433	0.00019839	0.00042912	9.7824e-05	1175.6	4.0288e-06	1.539e-06	1271.1	240.74	2.2374e-06	3.2022e-06	304.4	82.694	65.938	19.011	2.843e-06	26.221	0.0003702	0.00050619	0.00014574	1155.3	5.5954e-06	5.8395e-06	1253.3	239.49	5.8203e-06	5.5377e-06	302.2	83.31	66.256	19.281	5.6132e-06	26.642	159.242	126.906	128.420	54.751	227.071	191.919	54.660	62.303	194.465	208.677	61.800	68.797	69.209	76.110	198.658	75.107	-8191	255	
39638.520	1	1	0	0	0.078515	0.16804	0.27828	0.29461	0.18224	0.28411	0.35897	0.19023	0.17825	0.017794	0.13402	0.13023	0.17236	0.12861	0.19553	0.15695	-2.0646	-3.2313	-2.3521	-2.7792	-3.1583	-2.3375	-3.3146	-2.9271	-2.4021	-3.4437	-2.6708	-2.7146	-3.25	-2.4708	-3.0875	-2.9313	264.417	304.109	248.752	377.741	218.440	183.006	330.435	374.644	162.882	187.271	116.911	299.785	126.741	79.296	257.173	343.693	0.00021423	0.00027261	9.5573e-05	1176.9	2.5713e-06	3.0359e-06	1270.3	240.19	2.7102e-06	3.5712e-06	304.72	82.684	66.353	18.982	3.0484e-06	26.539	0.00038546	0.0005011	0.00014482	1155.7	5.5041e-06	5.801e-06	1252.9	239.88	5.714e-06	5.8186e-06	302.92	83.519	66.397	19.282	5.1613e-06	26.716	158.370	123.480	157.460	54.900	211.054	196.268	54.898	62.143	207.040	195.065	61.693	68.672	68.877	76.084	234.272	75.563	-8191	255	
39638.590	1	1	0	0	0.067322	0.033723	0.072876	0.3267	0.11817	0.11987	0.3025	0.25327	0.1964	0.224	0.26135	0.11334	0.02485	0.15295	0.16575	0.25079	-2.2021	-3.1771	-2.6104	-2.8208	-3.2104	-2.2979	-3.1458	-3.0875	-2.3896	-3.3063	-2.9021	-2.5604	-3.5187	-2.5292	-3.1292	-3	314.414	143.051	383.504	300.986	281.600	335.721	355.287	106.596	105.133	323.713	382.564	168.338	257.283	244.939	100.405	75.802	0.0002013	0.00030909	9.8426e-05	1175.8	3.0092e-06	2.3871e-06	1276.2	240.98	2.5146e-06	3.4405e-06	304.19	82.259	65.933	19.029	2.4103e-06	26.312	0.00037529	0.00051877	0.00013977	1156.8	5.4816e-06	5.8387e-06	1254.4	239.53	5.7524e-06	5.5881e-06	301.74	83.396	66.32	19.306	5.0873e-06	26.757	159.725	139.378	144.507	54.949	225.628	181.797	55.020	62.281	218.396	179.777	62.065	68.644	69.050	76.019	212.958	75.348	-8191	255	
39638.688	1	1	0	0	0.029017	0.21896	0.051561	0.073454	0.34948	0.14629	0.097764	0.24043	0.26128	0.1329	0.18114	0.27995	0.33977	0.24993	0.058589	0.24526	-1.9979	-3.3104	-2.7938	-2.5375	-3.2271	-2.4854	-3.2417	-3.4333	-2.375	-3.2229	-2.8958	-2.5604	-3.4854	-2.6458	-2.9521	-3.2042	294.622	264.390	139.827	51.258	138.571	170.420	364.673	336.925	396.310	92.725	215.893	325.793	304.482	48.701	136.527	214.360	0.00021303	0.00047592	8.6747e-05	1177.5	2.8954e-06	3.1407e-06	1272.9	240.41	2.7634e-06	3.9297e-06	304.6	82.489	66.379	19.041	4.0525e-06	26.29	0.00037666	0.00049704	0.0001447	1155.4	5.6503e-06	5.6241e-06	1254.2	239.87	5.749e-06	5.4519e-06	302.57	83.269	66.3	19.25	5.4731e-06	26.698	159.904	133.199	136.835	54.853	218.421	185.799	55.000	62.186	209.561	205.426	61.887	68.846	69.185	75.662	198.266	75.347	-8191	255	
39638.809	1	1	0	0	0.29569	0.15648	0.18943	0.19432	0.10741	0.24901	0.14282	0.034398	0.20854	0.0975	0.20172	0.22847	0.12447	0.24801	0.082944	0.10068	-2.0271	-3.1208	-3.0646	-2.4583	-3.2792	-2.725	-2.9938	-3.325	-2.3646	-3.1625	-3.4271	-2.5271	-3.3354	-2.7333	-2.5292	-3.3604	273.846	389.028	254.090	384.392	108.999	308.860	344.019	383.420	108.417	57.372	223.712	311.961	387.357	309.981	291.397	66.918	0.00020572	0.00017775	6.4739e-05	1171.9	1.9546e-06	3.0446e-06	1272.8	240.29	2.8773e-06	2.0055e-06	304.36	82.596	65.899	19.066	2.0207e-06	26.122	0.00037672	0.00049753	0.00013928	1153.2	5.3585e-06	5.7271e-06	1253.5	239.39	5.6831e-06	5.3748e-06	301.96	83.448	66.282	19.271	5.4752e-06	26.714	161.287	179.054	119.172	54.687	218.513	198.308	54.992	62.095	203.724	193.080	61.832	68.561	69.053	75.736	185.774	75.339	-8191	255	
39638.902	1	1	0	0	0.10441	0.18683	0.3533	0.070317	0.06279	0.34322	0.18152	0.28716	0.074906	0.2086	0.41519	0.27606	0.24928	0.078802	0.14244	0.062314	-2.1771	-3.1312	-3.0625	-2.6292	-3.1583	-2.5771	-2.8688	-3.3771	-2.5	-3.0812	-3.1792	-2.3187	-3.2146	-2.7812	-2.4688	-3.575	59.600	136.397	180.229	331.546	122.782	106.422	346.579	59.310	226.454	48.895	359.072	352.430	310.498	391.342	51.197	363.788	0.00020961	0.00036601	9.4829e-05	1175.1	3.4792e-06	2.8199e-06	1274.3	240.77	2.9038e-06	3.0024e-06	303.97	82.663	65.928	19.058	1.4311e-06	26.491	0.00038259	0.00050592	0.00014334	1156.8	5.6179e-06	5.6429e-06	1255.8	239.93	5.8265e-06	5.5857e-06	302.48	83.524	66.397	19.291	5.4594e-06	26.756	159.448	141.048	124.894	54.751	219.188	222.311	54.628	62.054	216.305	218.358	61.690	69.078	69.097	75.773	195.433	75.765	-8191	255	
39638.996	1	1	0	0	0.087967	0.091255	0.07493	0.1712	0.24738	0.047186	0.17484	0.16773	0.1576	0.22576	0.34177	0.13733	0.275	0.062539	0.16705	0.23879	-2.2229	-2.9125	-3.0542	-2.5	-3.1771	-2.8	-2.7417	-3.3333	-2.4979	-2.8271	-3.1312	-2.3771	-3.1646	-2.925	-2.425	-3.2583	169.431	284.080	215.863	314.874	187.466	404.258	354.967	227.662	148.211	286.112	51.483	274.612	287.760	220.680	210.697	276.323	0.00022072	0.00032211	8.1443e-05	1177.7	2.9727e-06	2.044e-06	1273.2	241.08	1.9345e-06	4.3257e-06	303.88	82.112	66.376	19.038	2.8346e-06	26.478	0.00038438	0.00049306	0.00014256	1154.8	5.6358e-06	5.7043e-06	1253.7	240.14	5.7304e-06	6.1326e-06	302.65	83.199	66.584	19.338	5.912e-06	26.746	159.213	139.214	137.122	54.712	215.126	195.089	54.920	62.287	213.570	191.613	61.634	68.602	69.231	75.839	178.253	75.554	-8191	255	
39639.094	1	1	0	0	0.18401	0.1579	0.28438	0.41261	0.31821	0.15175	0.23649	0.20816	0.10791	0.056121	0.052705	0.15375	0.14642	0.11516	0.11889	0.25743	-2.025	-2.6688	-3.2125	-2.4396	-3.2	-2.8854	-2.5438	-3.3438	-2.6896	-2.6625	-3.3979	-2.4625	-3.1854	-3.1646	-2.5958	-3.2938	189.412	168.684	292.787	402.133	381.406	357.833	309.026	65.128	235.352	359.110	48.084	197.765	87.139	362.506	284.487	379.833	0.00021047	0.00032258	2.7666e-05	1173.8	3.0099e-06	3.9403e-06	1275	241.66	4.199e-06	2.6547e-06	303.58	82.5	66.275	19.051	3.084e-06	26.431	0.00038334	0.0005414	0.00014192	1156.4	5.7615e-06	5.6791e-06	1255	240.21	5.7737e-06	6.0091e-06	302.51	83.486	66.64	19.287	5.667e-06	26.748	157.685	153.556	125.034	54.684	207.268	206.321	54.903	62.134	205.607	218.287	62.005	68.676	68.933	75.967	229.482	75.461	-8191	255	
39639.215	1	1	0	0	0.31021	0.1725	0.044765	0.28058	0.22676	0.2302	0.33962	0.33341	0.32683	0.23487	0.36151	0.42668	0.048758	0.089992	0.26687	0.16994	-2.2417	-2.5854	-3.3646	-2.6479	-2.8042	-3.1437	-2.5604	-3.3479	-2.7917	-2.5229	-3.4292	-2.4771	-2.9833	-3.1417	-2.2875	-3.3458	113.848	127.188	221.762	368.120	327.835	387.312	368.249	300.991	47.857	326.041	315.500	346.224	324.765	141.776	181.439	197.258	0.00020728	0.00031088	7.5936e-05	1175.8	2.6175e-06	3.7537e-06	1273.1	241.66	2.9111e-06	3.9509e-06	304.24	83.166	66.466	19.046	2.6792e-06	26.453	0.00037711	0.0005551	0.00014517	1155.9	5.7516e-06	5.6901e-06	1254.7	240.59	5.5753e-06	6.1066e-06	302.79	83.615	66.534	19.327	6.06e-06	26.774	163.155	135.376	152.238	54.813	213.641	179.989	54.786	62.234	181.247	196.525	61.939	68.847	69.348	75.741	202.064	75.652	-8191	255	
39639.285	1	1	0	0	0.10809	0.35795	0.084271	0.20572	0.36376	0.18539	0.16301	0.058382	0.045088	0.15409	0.26407	0.38452	0.20629	0.1442	0.21465	0.17665	-2.5833	-2.2854	-3.3688	-2.6292	-2.7333	-3.275	-2.6875	-3.2979	-2.8167	-2.2729	-3.4833	-2.5292	-2.8167	-3.2479	-2.3625	-3.1646	347.150	53.547	316.315	388.819	215.292	97.377	309.136	150.131	389.195	403.271	374.205	316.268	118.531	149.618	150.550	376.649	0.00022075	0.00028541	9.9451e-05	1176.9	2.7505e-06	2.5527e-06	1269.8	242.56	3.7271e-06	2.9431e-06	305.18	83.211	66.516	19.256	2.4799e-06	26.577	0.00037816	0.00056006	0.00014402	1158	5.8542e-06	6.0179e-06	1254.8	241.05	5.8615e-06	6.2774e-06	302.88	83.7	66.615	19.387	5.9472e-06	26.807	161.030	111.013	136.014	54.653	222.602	211.635	54.747	62.227	187.356	180.870	61.846	68.749	68.899	76.287	206.121	75.622	-8191	255	
39639.406	1	1	0	0	0.079163	0.058522	0.20327	0.28528	0.10379	0.20488	0.29303	0.1234	0.18728	0.1043	0.087878	0.18173	0.3697	0.18791	0.26058	0.23545	-2.5958	-2.3875	-3.3646	-2.6104	-2.5187	-3.3208	-2.6729	-2.9562	-3.1583	-2.5062	-3.3021	-2.7542	-2.4562	-3.2604	-2.5312	-3.1437	247.048	389.092	315.526	377.365	222.220	194.669	398.220	191.857	80.325	302.617	354.298	384.581	87.169	321.336	118.280	232.675	0.00021425	0.00022242	9.4794e-05	1176.8	2.8612e-06	4.2951e-06	1278.2	242.04	3.3454e-06	3.8357e-06	303.74	83.732	66.48	19.057	2.3423e-06	26.284	0.0003822	0.00056634	0.00014667	1158.8	5.7873e-06	5.9228e-06	1256.5	240.98	5.5211e-06	6.1452e-06	302.62	83.895	66.64	19.341	5.7777e-06	26.694	158.856	153.952	106.964	54.778	232.525	167.734	54.748	62.203	210.613	227.617	61.977	68.217	68.802	75.906	186.764	75.675	-8191	255	
39639.504	1	1	0	0	0.22786	0.19171	0.23195	0.39002	0.043232	0.22892	0.088802	0.13402	0.23643	0.24266	0.092521	0.11641	0.20837	0.12927	0.13779	0.15901	-2.8688	-2.35	-3.1625	-3.0146	-2.5146	-3.3	-2.6917	-2.9562	-3.2125	-2.2542	-3.2313	-2.8354	-2.6833	-3.4875	-2.5458	-2.825	101.315	162.532	318.485	106.513	218.356	148.475	359.618	376.178	48.972	340.167	127.327	191.812	46.130	160.026	208.687	382.407	0.00021254	0.00028625	8.1655e-05	1180.5	2.3122e-06	2.7695e-06	1275.9	241.51	3.5752e-06	3.2453e-06	304.4	82.975	66.174	19.066	3.6695e-06	26.498	0.00037516	0.00054699	0.0001456	1158.3	5.7536e-06	5.8033e-06	1255.1	240.27	5.7469e-06	6.1413e-06	303.44	83.852	66.435	19.332	5.7367e-06	26.793	161.072	136.024	131.021	54.736	207.452	192.962	54.771	62.345	217.661	221.011	61.977	68.723	69.054	75.551	173.000	75.579	-8191	255	
39639.598	1	1	0	0	0.11207	0.14063	0.20918	0.21678	0.052953	0.11594	0.26057	0.10025	0.088859	0.060325	0.098696	0.16411	0.12471	0.022121	0.46546	0.16996	-2.8208	-2.5833	-3.1937	-3.0896	-2.2833	-3.3208	-2.7625	-2.9021	-3.3083	-2.4708	-3.1625	-3.2542	-2.6375	-3.4667	-2.6312	-2.6604	185.496	289.461	112.399	70.406	299.922	306.788	346.751	269.909	305.158	369.732	370.943	54.350	275.612	285.603	92.712	304.430	0.0002025	0.00032203	9.3051e-05	1177.6	3.149e-06	2.7673e-06	1278.4	241.47	2.8396e-06	3.0593e-06	306.12	83.34	66.112	19.151	2.5129e-06	26.486	0.00037137	0.0005449	0.00014211	1157.4	6.0606e-06	5.8953e-06	1258.4	240.89	5.7648e-06	6.5741e-06	304.02	83.689	66.548	19.416	5.5169e-06	26.77	161.855	133.801	149.033	54.603	196.336	178.528	54.834	62.373	238.437	201.149	62.151	68.844	68.864	75.770	210.074	75.761	-8191	255	
39639.695	1	1	0	0	0.11525	0.1567	0.095433	0.12611	0.15077	0.23882	0.26283	0.11922	0.23933	0.13246	0.25968	0.29027	0.25576	0.20188	0.16474	0.1329	-3.0896	-2.3417	-3.1729	-3.4167	-2.4729	-3.4708	-2.9854	-2.7292	-3.4208	-2.4833	-2.875	-3.1354	-2.4208	-3.1604	-2.7771	-2.6521	293.749	363.720	403.799	361.004	397.387	205.636	253.793	332.185	150.851	283.823	310.146	249.708	148.964	288.488	372.744	369.096	0.00019519	0.00050244	8.7029e-05	1179.2	3.1388e-06	2.6261e-06	1274.3	242.42	3.2586e-06	3.1948e-06	304.41	83.22	66.188	19.116	2.9943e-06	26.375	0.00037731	0.00054245	0.00014422	1158.3	6.1506e-06	5.7404e-06	1256.1	241.16	5.447e-06	6.109e-06	303.56	83.766	66.567	19.352	5.5011e-06	26.776	157.523	128.106	153.129	54.775	220.705	183.735	54.820	62.383	211.245	224.681	61.961	68.414	69.170	75.625	206.357	75.831	-8191	255	
39639.812	1	1	0	0	0.13582	0.34738	0.10544	0.33632	0.24323	0.34015	0.28777	0.12341	0.082804	0.08998	0.15748	0.20245	0.073542	0.25538	0.012817	0.031152	-3.05	-2.5646	-2.9104	-3.3146	-2.4062	-3.2792	-3.1646	-2.5875	-3.4688	-2.5312	-2.9958	-3.2729	-2.5229	-3.1708	-3.1333	-2.5187	129.614	390.115	210.339	101.202	86.548	314.439	383.132	266.788	325.209	167.866	284.087	365.406	145.396	58.685	109.309	288.171	0.00019604	0.00031496	7.8049e-05	1175.7	2.8259e-06	2.7544e-06	1276	242	2.1248e-06	3.596e-06	304.52	83.184	66.428	19.195	1.7747e-06	26.459	0.00037238	0.00053637	0.00014314	1157.6	5.9342e-06	5.6115e-06	1256.3	240.76	5.3481e-06	6.1279e-06	303.13	83.733	66.623	19.373	5.5147e-06	26.825	163.508	123.266	120.277	54.818	200.352	188.968	54.659	62.302	222.420	191.663	62.333	68.841	69.213	76.056	210.987	75.711	-8191	255	
39639.887	1	1	0	0	0.055373	0.034157	0.084841	0.25355	0.13775	0.028756	0.16594	0.15639	0.12309	0.047967	0.22113	0.20666	0.25541	0.25408	0.18973	0.27725	-3.0646	-2.6521	-2.6708	-3.4938	-2.2458	-3.2333	-3.1479	-2.5542	-3.3708	-2.7625	-2.7083	-3.4729	-2.45	-2.9542	-3.025	-2.5896	146.045	160.213	223.861	74.123	373.902	231.719	332.284	317.167	299.034	326.447	305.857	320.798	342.966	51.807	304.040	369.295	0.00020595	0.00030665	0.00011951	1179.7	3.702e-06	3.706e-06	1277.6	243.33	2.3239e-06	2.1289e-06	304.65	83.695	66.467	19.093	3.2682e-06	26.241	0.00036309	0.00055258	0.00015028	1158.8	6.0031e-06	5.7129e-06	1259.4	241.11	5.4785e-06	5.8729e-06	303.96	83.884	66.664	19.387	5.3366e-06	26.779	162.479	123.754	137.815	54.593	206.588	186.478	54.867	62.258	216.275	193.858	61.775	68.958	69.276	75.691	219.903	75.750	-8191	255	
39639.980	1	1	0	0	0.25952	0.079425	0.17495	0.15639	0.062432	0.18151	0.066004	0.13478	0.072758	0.20864	0.19605	0.027023	0.16884	0.083015	0.05651	0.14071	-2.9521	-2.7104	-2.4625	-3.5542	-2.4562	-2.7854	-3.1708	-2.3292	-3.1417	-2.7875	-2.6562	-3.3521	-2.5417	-2.9042	-3.2208	-2.4167	195.175	320.493	224.008	402.474	52.532	122.875	148.656	292.153	214.711	112.448	361.414	270.190	75.150	162.830	175.637	264.305	0.00023072	0.00039792	8.3928e-05	1180.3	2.9943e-06	2.6112e-06	1274.3	243.55	2.1289e-06	4.1594e-06	304.43	83.218	66.666	19.076	2.6747e-06	26.557	0.00037754	0.00054881	0.00015069	1159.6	6.0381e-06	5.8096e-06	1255.7	241.67	5.6364e-06	6.0122e-06	303.84	83.853	66.764	19.371	5.5837e-06	26.904	157.936	114.789	163.334	54.814	212.599	205.007	55.004	61.815	209.900	212.353	61.585	68.657	69.117	75.847	176.605	75.581	-8191	255	
39640.078	1	1	0	0	0.05847	0.28562	0.15529	0.14856	0.096611	0.051613	0.22846	0.28523	0.13199	0.16828	0.35307	0.22899	0.19167	0.11464	0.31268	0.36062	-2.8271	-3.0333	-2.5812	-3.5187	-2.4604	-2.8125	-3.3646	-2.4146	-2.9896	-3.0417	-2.5563	-3.3646	-2.5062	-2.625	-3.0187	-2.3292	151.552	319.715	299.371	232.587	306.568	393.169	67.152	369.722	284.755	386.921	348.236	386.421	134.474	67.427	242.851	83.294	0.00021674	0.00036527	7.2889e-05	1182.3	2.432e-06	2.8359e-06	1277	242.42	2.742e-06	1.6414e-06	306.02	83.721	66.325	19.192	2.7347e-06	26.246	0.0003838	0.00053588	0.0001554	1159.8	5.8992e-06	5.9763e-06	1258.3	241.47	5.4017e-06	5.8281e-06	303.91	84.177	66.748	19.388	5.6304e-06	26.796	161.543	122.741	141.968	54.681	237.340	171.620	54.886	62.074	213.094	256.526	62.032	68.966	69.141	76.068	194.025	75.675	-8191	255	
39640.199	1	1	0	0	0.13496	0.090935	0.21271	0.44397	0.23065	0.088891	0.28452	0.19398	0.075702	0.20551	0.32777	0.12226	0.26217	0.15739	0.15608	0.12667	-2.6833	-3.0062	-2.3146	-3.3729	-2.5896	-2.5479	-3.3896	-2.7271	-3.0875	-3.1667	-2.3312	-3.3292	-2.7708	-2.5979	-3.2271	-2.6083	93.541	354.761	49.031	363.368	353.527	279.077	378.005	333.019	162.138	144.871	354.503	272.480	98.489	271.107	237.533	298.556	0.00022276	0.0002906	8.5308e-05	1178.8	1.9031e-06	3.8727e-06	1274.5	242.99	2.7368e-06	3.1152e-06	304.72	83.946	66.667	19.135	2.074e-06	26.408	0.00037144	0.0005275	0.00015343	1159.8	5.5927e-06	5.9377e-06	1257.9	241.62	5.6639e-06	5.8359e-06	303.68	84.32	66.893	19.404	5.5665e-06	26.836	161.659	138.926	154.143	54.756	187.104	181.430	54.753	62.394	222.184	199.789	61.746	68.559	69.043	75.496	221.445	75.346	-8191	255	
39640.293	1	1	0	0	0.08685	0.17308	0.23678	0.27912	0.040943	0.08061	0.10702	0.072979	0.20888	0.16986	0.14143	0.16235	0.17241	0.13138	0.19514	0.29424	-2.6771	-3.0604	-2.3354	-3.3688	-2.8458	-2.6104	-3.4729	-2.6146	-2.8312	-3.1813	-2.3729	-3.3667	-2.85	-2.3688	-3.35	-2.5958	232.322	359.593	149.194	340.179	78.987	247.301	318.798	339.388	98.882	301.292	295.697	207.466	344.728	390.502	89.748	97.767	0.00021548	0.00031782	5.018e-05	1181.3	4.2323e-06	2.1982e-06	1280.3	243.44	3.4082e-06	3.4261e-06	305.93	83.097	66.305	19.179	1.729e-06	26.466	0.00038507	0.00051067	0.00015211	1161	5.7317e-06	6.0006e-06	1260	241.74	5.7517e-06	5.8454e-06	304.36	84.037	66.812	19.409	5.4968e-06	26.869	164.187	117.277	115.602	54.853	204.561	203.171	54.925	61.922	215.958	163.017	61.790	68.841	68.835	75.782	220.210	75.642	-8191	255	
39640.391	1	1	0	0	0.2276	0.059525	0.0020515	0.30744	0.080165	0.2608	0.093398	0.2093	0.21603	0.17003	0.10637	0.080405	0.34743	0.27399	0.22816	0.090109	-2.4833	-3.2313	-2.3271	-3.3771	-3.0458	-2.4646	-3.5958	-2.6604	-2.675	-3.3104	-2.6	-3.1021	-3.0542	-2.4479	-3.3833	-2.6042	262.699	159.532	180.000	365.571	381.625	255.104	317.786	379.868	286.358	131.966	109.736	121.244	59.466	384.443	358.983	336.151	0.00020759	0.00032277	8.1671e-05	1181.7	2.5041e-06	2.4994e-06	1275.6	244.04	3.4076e-06	3.4729e-06	305.46	83.434	66.411	19.239	3.3923e-06	26.444	0.00037039	0.00054273	0.00015419	1161.7	5.3909e-06	5.9865e-06	1259.8	241.94	5.7805e-06	5.8045e-06	304.42	84.142	66.727	19.457	5.4831e-06	26.866	163.131	102.642	140.487	54.776	215.813	172.265	54.896	62.056	201.766	190.820	61.811	68.560	69.074	75.978	207.910	75.593	-8191	255	
39640.508	1	1	0	0	0.083122	0.12177	0.20407	0.21399	0.14666	0.32731	0.14485	0.37667	0.1123	0.19346	0.12555	0.1602	0.15763	0.11639	0.030234	0.092052	-2.3812	-3.3458	-2.3354	-3.1875	-3.2854	-2.4833	-3.3125	-2.9458	-2.7979	-3.4021	-2.4875	-2.9604	-3.2021	-2.4437	-3.1521	-2.7313	152.711	202.253	99.635	376.782	379.034	239.502	51.435	389.586	303.639	73.308	391.571	351.181	383.940	311.337	112.293	183.554	0.00021935	0.00021859	0.00011122	1177.8	2.3227e-06	4.159e-06	1280	244.54	2.3713e-06	2.812e-06	307.17	83.424	66.459	19.173	2.1916e-06	26.502	0.00038445	0.00052436	0.00016098	1160.1	5.5008e-06	6.341e-06	1259.8	242.18	5.9233e-06	5.9406e-06	304.68	84.16	67.006	19.47	5.8366e-06	26.891	160.267	141.639	107.426	54.790	234.445	207.382	54.942	62.357	203.217	214.920	61.530	69.051	69.235	76.102	214.416	75.106	-8191	255	
39640.582	1	1	0	0	0.027082	0.19516	0.32888	0.041904	0.07255	0.33178	0.055975	0.069492	0.11232	0.23053	0.22378	0.27896	0.058024	0.21272	0.1863	0.18003	-2.1396	-3.3083	-2.5062	-2.9583	-3.1208	-2.3937	-3.3271	-3.0958	-2.4479	-3.4437	-2.6021	-2.975	-3.2188	-2.4333	-3.1875	-2.9813	165.299	234.661	337.212	355.357	154.228	235.945	122.478	383.211	238.241	173.759	209.486	134.738	299.020	73.991	95.140	343.834	0.00022828	0.00033909	8.076e-05	1179.7	3.7762e-06	2.4916e-06	1282.8	243.94	4.0837e-06	1.5565e-06	306.84	83.538	66.71	19.172	4.029e-06	26.563	0.00040424	0.00054594	0.00014478	1160.5	5.8502e-06	6.1681e-06	1259.4	242.41	6.2109e-06	5.8792e-06	304.67	84.18	67.083	19.463	5.6031e-06	26.93	158.529	127.984	160.939	54.619	209.107	208.113	54.794	62.166	193.806	180.251	61.952	68.845	68.745	75.934	202.364	75.221	-8191	255	
39640.676	1	1	0	0	0.099492	0.20455	0.11179	0.38223	0.018988	0.52684	0.33791	0.18779	0.11765	0.11439	0.19843	0.13393	0.34737	0.16012	0.15081	0.13965	-1.9562	-3.3646	-2.5354	-2.7979	-3.2792	-2.3979	-3.3208	-3.0542	-2.3958	-3.3792	-2.8896	-2.5375	-3.3854	-2.375	-3.0521	-3.0667	103.266	183.943	244.221	344.372	358.687	246.497	304.977	264.896	399.486	169.502	353.694	51.060	261.704	271.875	89.991	400.036	0.00020788	0.00037811	9.0791e-05	1180.1	3.638e-06	3.3727e-06	1273.4	244.94	1.783e-06	2.6606e-06	306.07	83.888	66.441	19.191	3.717e-06	26.554	0.00039185	0.00053281	0.00014798	1161.1	5.8006e-06	6.3009e-06	1259	243.35	5.8711e-06	5.795e-06	304.96	84.349	66.91	19.459	5.6103e-06	26.939	163.856	104.343	172.092	54.957	193.141	195.940	55.121	62.160	214.042	183.026	61.566	69.193	68.951	76.073	204.317	75.544	-8191	255	
39640.773	1	1	0	0	0.21571	0.01574	0.13149	0.37554	0.23404	0.1809	0.19671	0.075013	0.22332	0.13625	0.2355	0.06157	0.056728	0.24198	0.39076	0.34849	-2.0917	-3.2333	-2.675	-2.7562	-3.4625	-2.4021	-3.05	-3.4021	-2.3875	-3.4229	-2.8354	-2.5917	-3.5229	-2.5563	-2.9083	-3.1063	352.994	160.577	371.464	326.122	264.385	264.173	287.255	206.797	348.087	281.413	400.541	309.656	216.802	321.386	135.520	381.730	0.00021515	0.00032704	0.00010307	1183.7	3.7627e-06	3.0803e-06	1282	244.05	3.4916e-06	3.6204e-06	307.74	83.225	66.864	19.245	3.055e-06	26.7	0.00039192	0.00050459	0.00015032	1163.3	5.7e-06	6.1987e-06	1261.8	243.09	5.9569e-06	5.5526e-06	305.29	84.247	67.089	19.51	5.5212e-06	26.967	160.834	114.439	157.596	54.730	219.040	180.526	54.813	62.034	214.156	160.128	61.618	68.942	69.126	75.821	212.356	75.704	-8191	255	
39640.895	1	1	0	0	0.090296	0.28045	0.23111	0.036322	0.072276	0.036632	0.10075	0.13601	0.17596	0.24456	0.15202	0.069163	0.034444	0.34115	0.052472	0.10005	-1.925	-3.3	-2.9333	-2.5604	-3.35	-2.6958	-3.025	-3.3063	-2.1854	-3.225	-3.0833	-2.4396	-3.3271	-2.5938	-2.7792	-3.3625	177.327	283.047	157.504	329.337	169.358	89.826	46.757	147.941	109.621	381.981	384.441	292.466	289.138	386.433	279.012	133.506	0.00022165	0.00039415	7.4889e-05	1184.9	3.5824e-06	2.5417e-06	1280	245.45	2.5072e-06	2.2662e-06	306.26	83.551	67.082	19.203	3.2894e-06	26.542	0.0003987	0.00052373	0.00013997	1164.9	5.6768e-06	5.7483e-06	1263.2	244.06	5.7737e-06	6.0445e-06	305.25	84.359	67.105	19.48	5.7726e-06	26.958	162.489	151.983	100.840	54.955	211.815	238.125	55.277	61.986	213.577	215.923	61.786	68.900	68.993	75.652	198.204	75.526	-8191	255	
39640.988	1	1	0	0	0.29555	0.17324	0.13375	0.13118	0.17417	0.081201	0.091652	0.018866	0.069846	0.09808	0.25279	0.05197	0.16141	0.11294	0.077167	0.27231	-2.0042	-3.0479	-3.0167	-2.6021	-3.2812	-2.6521	-2.8125	-3.2687	-2.3063	-2.925	-3.1146	-2.2979	-3.3646	-2.6875	-2.4667	-3.3271	234.701	344.954	64.748	347.529	387.513	312.801	377.798	400.030	222.999	63.150	337.054	96.640	247.608	372.805	366.579	257.365	0.00018112	0.00031108	9.0853e-05	1183.7	4.2116e-06	2.5042e-06	1279.2	245.59	3.0219e-06	4.19e-06	307.52	83.845	66.635	19.215	3.2959e-06	26.521	0.00038357	0.00052163	0.00014186	1163.3	5.7814e-06	5.7027e-06	1262.5	243.53	5.959e-06	5.4842e-06	305.48	84.267	67	19.484	6.1203e-06	26.903	162.713	124.586	153.759	54.715	218.633	220.407	54.816	62.266	218.045	195.075	61.805	68.828	69.248	75.588	221.814	75.620	-8191	255	
#DATA ENDS
