BOXY.EXE: ISS Imagent and Oximeter Data Acquisition Program Version 0.80
Ascii Record File

#ACQ INFORMATION
2  Detector Channels 
16  External MUX Channels 
1  Auxiliary Channels 
5000  Waveform (CCF) Frequency (Hz)
1  Waveforms Skipped 
30  Waveforms Averaged 
1  Cycles Averaged 
16  Acquisitions per Waveform 
10.0806  Updata Rate (Hz) 

#FILE INFORMATION
TRUE -- External MUX Channel results are PARSED.
FALSE -- AC DC and Phase are NOT grouped.
TRUE -- Companion Program Settings File CREATED.
FALSE -- AC data not excluded
FALSE -- DC data not excluded
FALSE -- Phase data not excluded
FALSE -- Auxillary Chn. data not excluded
Tab delimiters

#CALIBRATION STATE
TRUE -- Waveform Calibration Values APPLIED.


#AUX CALIBRATION VALUES
Val Type	aux-1	

Term	1.0000e+00	
Factor	0.0000e+00	


#WF CALIBRATION VALUES
A = Detector Channel
Val Type	A-AC1	A-AC2	A-AC3	A-AC4	A-AC5	A-AC6	A-AC7	A-AC8	A-AC9	A-AC10	A-AC11	A-AC12	A-AC13	A-AC14	A-AC15	A-AC16	A-DC1	A-DC2	A-DC3	A-DC4	A-DC5	A-DC6	A-DC7	A-DC8	A-DC9	A-DC10	A-DC11	A-DC12	A-DC13	A-DC14	A-DC15	A-DC16	A-Ph1	A-Ph2	A-Ph3	A-Ph4	A-Ph5	A-Ph6	A-Ph7	A-Ph8	A-Ph9	A-Ph10	A-Ph11	A-Ph12	A-Ph13	A-Ph14	A-Ph15	A-Ph16	

Term	0.00000e+00	0.00000e+00	0.00000e+00	0.00000e+00	0.00000e+00	0.00000e+00	0.00000e+00	0.00000e+00	0.00000e+00	0.00000e+00	0.00000e+00	0.00000e+00	0.00000e+00	0.00000e+00	0.00000e+00	0.00000e+00	0.00000e+00	0.00000e+00	0.00000e+00	0.00000e+00	0.00000e+00	0.00000e+00	0.00000e+00	0.00000e+00	0.00000e+00	0.00000e+00	0.00000e+00	0.00000e+00	0.00000e+00	0.00000e+00	0.00000e+00	0.00000e+00	0.00000e+00	0.00000e+00	0.00000e+00	0.00000e+00	0.00000e+00	0.00000e+00	0.00000e+00	0.00000e+00	0.00000e+00	0.00000e+00	0.00000e+00	0.00000e+00	0.00000e+00	0.00000e+00	0.00000e+00	0.00000e+00	
Factor	1.00000e+00	1.00000e+00	1.00000e+00	1.00000e+00	1.00000e+00	1.00000e+00	1.00000e+00	1.00000e+00	1.00000e+00	1.00000e+00	1.00000e+00	1.00000e+00	1.00000e+00	1.00000e+00	1.00000e+00	1.00000e+00	1.00000e+00	1.00000e+00	1.00000e+00	1.00000e+00	1.00000e+00	1.00000e+00	1.00000e+00	1.00000e+00	1.00000e+00	1.00000e+00	1.00000e+00	1.00000e+00	1.00000e+00	1.00000e+00	1.00000e+00	1.00000e+00	X	X	X	X	X	X	X	X	X	X	X	X	X	X	X	X	

B = Detector Channel
Val Type	B-AC1	B-AC2	B-AC3	B-AC4	B-AC5	B-AC6	B-AC7	B-AC8	B-AC9	B-AC10	B-AC11	B-AC12	B-AC13	B-AC14	B-AC15	B-AC16	B-DC1	B-DC2	B-DC3	B-DC4	B-DC5	B-DC6	B-DC7	B-DC8	B-DC9	B-DC10	B-DC11	B-DC12	B-DC13	B-DC14	B-DC15	B-DC16	B-Ph1	B-Ph2	B-Ph3	B-Ph4	B-Ph5	B-Ph6	B-Ph7	B-Ph8	B-Ph9	B-Ph10	B-Ph11	B-Ph12	B-Ph13	B-Ph14	B-Ph15	B-Ph16	

Term	0.00000e+00	0.00000e+00	0.00000e+00	0.00000e+00	0.00000e+00	0.00000e+00	0.00000e+00	0.00000e+00	0.00000e+00	0.00000e+00	0.00000e+00	0.00000e+00	0.00000e+00	0.00000e+00	0.00000e+00	0.00000e+00	0.00000e+00	0.00000e+00	0.00000e+00	0.00000e+00	0.00000e+00	0.00000e+00	0.00000e+00	0.00000e+00	0.00000e+00	0.00000e+00	0.00000e+00	0.00000e+00	0.00000e+00	0.00000e+00	0.00000e+00	0.00000e+00	-1.24300e+02	-1.28936e+02	-1.25786e+02	-1.80882e+02	-6.46333e+01	-6.76369e+01	-1.58204e+02	-1.62015e+02	-6.86811e+01	-6.72667e+01	-1.70070e+02	-1.70195e+02	-1.81532e+02	-1.76543e+02	-6.86300e+01	-1.49130e+02	
Factor	1.95114e-05	1.80757e-04	4.88250e-05	1.62200e-01	1.36971e-06	1.85736e-06	1.78799e-01	6.38948e-02	1.40704e-06	1.88919e-06	9.91400e-02	3.46957e-02	2.98902e-02	1.03702e-02	1.64392e-06	1.46973e-02	1.56519e-05	3.35321e-05	9.35577e-06	8.14376e-02	3.17657e-07	3.77349e-07	8.46948e-02	3.22503e-02	3.29454e-07	3.77731e-07	4.85529e-02	1.71225e-02	1.52666e-02	5.27655e-03	3.44806e-07	7.25726e-03	X	X	X	X	X	X	X	X	X	X	X	X	X	X	X	X	



#DISTANCE SETTINGS
A = Detector Channel
A-1	A-2	A-3	A-4	A-5	A-6	A-7	A-8	A-9	A-10	A-11	A-12	A-13	A-14	A-15	A-16	

2.5000e+00	3.0000e+00	2.5000e+00	3.0000e+00	2.0000e+00	3.0000e+00	1.5000e+00	3.0000e+00	3.0000e+00	3.0000e+00	3.0000e+00	3.0000e+00	3.0000e+00	3.0000e+00	1.5000e+00	3.0000e+00	

B = Detector Channel
B-1	B-2	B-3	B-4	B-5	B-6	B-7	B-8	B-9	B-10	B-11	B-12	B-13	B-14	B-15	B-16	

1.0000e+01	1.0000e+01	1.0000e+01	1.4400e+00	1.0000e+01	1.0000e+01	1.5100e+00	1.9400e+00	1.0000e+01	1.0000e+01	1.9900e+00	2.4900e+00	2.4100e+00	2.9000e+00	1.0000e+01	2.9800e+00	




#DATA BEGINS
time	group	step	mark	flag	A-AC1	A-AC2	A-AC3	A-AC4	A-AC5	A-AC6	A-AC7	A-AC8	A-AC9	A-AC10	A-AC11	A-AC12	A-AC13	A-AC14	A-AC15	A-AC16	A-DC1	A-DC2	A-DC3	A-DC4	A-DC5	A-DC6	A-DC7	A-DC8	A-DC9	A-DC10	A-DC11	A-DC12	A-DC13	A-DC14	A-DC15	A-DC16	A-Ph1	A-Ph2	A-Ph3	A-Ph4	A-Ph5	A-Ph6	A-Ph7	A-Ph8	A-Ph9	A-Ph10	A-Ph11	A-Ph12	A-Ph13	A-Ph14	A-Ph15	A-Ph16	B-AC1	B-AC2	B-AC3	B-AC4	B-AC5	B-AC6	B-AC7	B-AC8	B-AC9	B-AC10	B-AC11	B-AC12	B-AC13	B-AC14	B-AC15	B-AC16	B-DC1	B-DC2	B-DC3	B-DC4	B-DC5	B-DC6	B-DC7	B-DC8	B-DC9	B-DC10	B-DC11	B-DC12	B-DC13	B-DC14	B-DC15	B-DC16	B-Ph1	B-Ph2	B-Ph3	B-Ph4	B-Ph5	B-Ph6	B-Ph7	B-Ph8	B-Ph9	B-Ph10	B-Ph11	B-Ph12	B-Ph13	B-Ph14	B-Ph15	B-Ph16	aux-1	digaux	

40276.734	1	1	0	256	0.19556	0.096434	0.16306	0.18422	0.23362	0.16113	0.04834	0.156	0.21299	0.16189	0.16579	0.1985	0.15499	0.09841	0.24649	0.084454	-2.8438	-2.4437	-2.8667	-3.15	-2.2604	-3.2458	-2.8542	-2.3396	-3.2708	-2.4229	-2.7708	-3.2042	-2.2083	-3.2562	-2.7708	-2.3104	69.692	137.334	123.895	127.512	42.743	-109.417	-135.725	-160.419	91.630	31.172	144.567	-158.481	181.671	88.601	-71.345	164.263	0.00032583	0.00038298	6.0176e-05	634.99	2.0399e-06	3.6922e-06	567.14	264.51	3.9031e-06	2.9256e-06	223.61	77.438	86.085	37.306	3.6024e-06	34.631	0.00036293	0.00038848	0.00010461	668.98	3.9575e-06	3.9464e-06	597.27	279.99	4.0543e-06	4.107e-06	236.56	82.606	91.987	39.922	4.3115e-06	37.027	-154.678	-84.573	-57.263	-154.691	-12.435	-23.062	-156.534	-151.060	-63.649	-31.960	-153.619	-150.617	-146.980	-142.676	-36.533	-146.063	-8191	255	
40276.828	1	1	0	0	0.17589	0.105	0.1316	0.089919	0.16246	0.10946	0.27502	0.15819	0.32928	0.13983	0.019939	0.33364	0.16727	0.40798	0.20383	0.14926	-2.7333	-2.3312	-2.7396	-3.3875	-2.3354	-3.0812	-2.9896	-2.4437	-2.9979	-2.7021	-2.5729	-3.5187	-2.375	-3.1146	-3.0625	-2.4875	67.183	173.509	124.123	-110.971	129.089	163.805	130.562	-85.678	-93.373	95.563	-119.027	82.680	177.385	147.131	-158.211	27.485	0.00031396	0.00035414	0.00011869	629.11	2.1759e-06	3.406e-06	559.15	259.19	2.5621e-06	3.7183e-06	220.42	76.2	84.425	36.604	2.8318e-06	33.914	0.0003509	0.00036571	0.00010784	664.13	4.0117e-06	3.8513e-06	589.95	275.87	4.0694e-06	3.9882e-06	231.93	81.233	90.351	39.276	4.1492e-06	36.266	-154.895	-73.875	-77.635	-154.842	-27.030	-19.486	-156.358	-150.951	-33.915	-32.583	-153.297	-150.592	-147.022	-142.647	-43.391	-146.218	-8191	255	
40276.926	1	1	0	0	0.17772	0.065363	0.182	0.30161	0.14167	0.16472	0.21626	0.038807	0.04018	0.049328	0.077494	0.3072	0.19266	0.1743	0.084839	0.1179	-2.9458	-2.6271	-2.4688	-3.3896	-2.4958	-3.0146	-3.2396	-2.5563	-3.1	-2.75	-2.4979	-3.4146	-2.425	-2.85	-3.0146	-2.4083	35.375	76.395	116.818	-1.452	50.467	25.796	133.444	149.492	102.439	-67.889	-103.817	19.409	-3.456	-51.563	134.326	59.454	0.00030427	0.00026791	0.00010685	625.74	1.6446e-06	3.8421e-06	551.16	255.53	3.8687e-06	3.6893e-06	215.55	75.274	83.329	35.765	3.4436e-06	33.391	0.00035523	0.00036361	0.00011322	657.89	3.7821e-06	3.7798e-06	582.75	271.29	4.1449e-06	4.1645e-06	228.81	80.388	89.192	38.415	4.1772e-06	35.784	-154.523	-86.512	-68.529	-154.899	-30.799	-22.421	-156.688	-151.144	-49.983	-30.314	-153.252	-150.241	-147.053	-142.421	-40.973	-146.047	-8191	255	
40277.020	1	1	0	0	0.21297	0.089441	0.30447	0.072193	0.098093	0.17089	0.23354	0.14979	0.11324	0.16255	0.15666	0.15409	0.20939	0.10885	0.15786	0.15333	-2.7354	-2.7812	-2.5458	-3.3875	-2.5667	-2.9396	-3.3708	-2.4854	-3.0917	-3.1229	-2.5563	-3.3083	-2.7667	-2.6937	-2.9729	-2.1875	52.378	-55.909	144.028	100.858	31.804	-58.040	59.424	148.658	131.368	78.973	151.056	122.312	111.384	-79.041	43.181	10.929	0.00029885	0.00029244	9.4305e-05	619.74	2.5226e-06	3.5872e-06	548.54	252.83	3.2029e-06	2.8909e-06	214.52	74.502	82.757	35.204	2.5641e-06	33.093	0.00035856	0.00037256	0.0001074	651.58	4.0468e-06	4.0824e-06	579.93	268.82	4.1017e-06	4.0535e-06	227.26	79.978	88.551	37.785	4.1499e-06	35.455	-157.332	-91.681	-91.139	-154.868	-34.320	-14.339	-156.539	-151.017	-52.898	-6.326	-152.857	-150.222	-147.082	-142.282	-28.769	-145.808	-8191	255	
40277.141	1	1	0	0	0.14249	0.20539	0.22147	0.057178	0.016129	0.27266	0.29979	0.34331	0.12165	0.081774	0.09277	0.21871	0.019165	0.17274	0.20631	0.071106	-2.7687	-2.8979	-2.4021	-3.2667	-2.4604	-2.7062	-3.125	-2.4417	-2.8	-3.1021	-2.4354	-3.3354	-2.7646	-2.5271	-3.3708	-2.4208	101.157	-14.429	44.401	187.238	-49.974	-89.028	30.187	166.507	-62.844	101.565	181.206	47.606	177.026	168.208	-141.038	-27.988	0.00030774	0.00030692	9.8639e-05	617.42	2.7936e-06	2.101e-06	547.37	253.23	3.3428e-06	3.6168e-06	214.63	75.607	83.166	34.928	2.8981e-06	32.562	0.00035461	0.00039903	0.00010825	649.16	4.0978e-06	4.1988e-06	578.64	268.46	4.4195e-06	4.1377e-06	226.81	80.404	88.979	37.513	4.1082e-06	34.794	-157.141	-72.263	-90.062	-154.835	-31.887	-9.562	-156.634	-150.819	-49.744	-20.355	-153.341	-150.394	-147.112	-142.120	-24.414	-145.808	-8191	255	
40277.238	1	1	0	0	0.076084	0.11704	0.18808	0.27586	0.18631	0.39062	0.15017	0.1122	0.056738	0.25344	0.22717	0.29142	0.19942	0.18347	0.20453	0.20696	-2.4938	-2.9833	-2.2458	-3.1875	-2.8354	-2.5708	-3.3458	-2.6167	-2.8312	-2.8812	-2.2812	-3.1271	-2.8729	-2.5958	-3.3312	-2.5979	123.070	4.034	-21.160	164.543	-22.216	-23.359	-149.864	23.775	99.232	27.434	122.127	173.043	105.696	181.614	167.142	-151.695	0.00029557	0.00040431	7.8205e-05	612.26	1.5712e-06	3.0097e-06	542.73	251.42	3.3975e-06	2.149e-06	212.95	75.313	83.216	35.017	3.2094e-06	32.403	0.00035438	0.00036906	0.00011065	645.74	3.9131e-06	4.2884e-06	574.19	267.24	4.274e-06	4.0039e-06	225.18	80.204	88.964	37.578	4.073e-06	34.71	-156.536	-87.602	-87.090	-154.720	-54.724	-18.097	-156.506	-150.852	-56.596	-12.995	-153.184	-150.402	-146.983	-142.205	-36.441	-145.765	-8191	255	
40277.332	1	1	0	0	0.19872	0.11987	0.085727	0.27366	0.22244	0.20105	0.20661	0.13795	0.096466	0.14407	0.10383	0.15253	0.31082	0.13806	0.15571	0.21818	-2.5042	-3.1792	-2.2396	-3.1562	-2.8667	-2.5708	-3.3667	-2.5208	-2.8187	-3.225	-2.3	-2.9896	-2.9458	-2.325	-3.1583	-2.6083	134.012	161.029	-53.867	167.553	-89.777	43.989	91.021	143.597	189.929	169.237	60.368	-25.147	123.285	-110.252	106.319	129.727	0.00028672	0.000282	9.2085e-05	615.55	1.8331e-06	3.559e-06	540.65	252.04	2.9497e-06	2.9824e-06	212.37	74.824	83.262	34.688	3.6504e-06	32.377	0.00035409	0.00037311	0.00011336	647.46	3.8827e-06	4.4622e-06	573.16	266.83	4.3831e-06	3.9504e-06	224.83	79.924	88.902	37.21	4.1413e-06	34.545	-152.963	-105.830	-70.759	-154.465	-37.788	-5.602	-156.322	-150.621	-41.624	-9.195	-153.311	-149.975	-147.034	-142.185	-49.691	-146.063	-8191	255	
40277.406	1	1	0	0	0.025803	0.31114	0.18258	0.13075	0.057414	0.20985	0.20333	0.23436	0.12314	0.221	0.23592	0.17962	0.1608	0.17711	0.14922	0.25362	-2.3917	-3.2292	-2.4646	-3.1854	-3.0521	-2.4229	-3.2958	-2.575	-2.6063	-3.2812	-2.6104	-2.925	-3.1146	-2.4646	-3.2833	-2.7375	79.869	108.736	-22.188	-55.779	-41.485	1.497	164.050	92.039	164.585	-159.975	104.956	152.542	171.124	-137.614	-130.310	96.821	0.00030862	0.00029848	9.5912e-05	614.01	2.8822e-06	2.9435e-06	543.9	251.39	3.547e-06	2.5358e-06	214.97	75.866	84.103	34.904	4.0355e-06	32.532	0.0003627	0.00035949	0.00011219	646.08	4.1448e-06	4.187e-06	574.73	267.2	4.4833e-06	4.0095e-06	226.89	80.949	89.838	37.397	4.2627e-06	34.831	-154.387	-68.698	-67.030	-154.622	-32.264	-21.718	-156.399	-150.986	-51.489	-13.886	-153.199	-150.101	-147.003	-142.170	-50.395	-145.661	-8191	255	
40277.527	1	1	0	0	0.23842	0.27753	0.121	0.21253	0.13979	0.3192	0.19171	0.028054	0.086632	0.084851	0.17547	0.16477	0.16629	0.15516	0.10083	0.17112	-2.2938	-3.2333	-2.3812	-3.0687	-3.1583	-2.4125	-3.4729	-2.9521	-2.3354	-3.2708	-2.6042	-2.7375	-3.1979	-2.3146	-3.2438	-2.875	83.510	26.750	-33.076	177.206	128.304	123.060	67.397	-33.345	-152.737	-84.712	97.910	-126.276	-68.201	98.708	149.305	-5.909	0.00029332	0.00035564	0.00010634	615.06	2.2519e-06	3.4531e-06	548.01	254.53	2.4641e-06	3.7689e-06	217.42	76.914	84.975	35.049	2.7102e-06	32.548	0.00036573	0.00035593	0.00011141	648.48	3.8787e-06	4.518e-06	578.85	269.81	4.4161e-06	3.978e-06	229.66	82.033	91.008	37.567	4.2188e-06	34.824	-157.613	-63.747	-75.534	-154.461	-35.350	-12.450	-156.327	-150.921	-47.735	-19.359	-153.225	-149.969	-147.183	-141.989	-51.513	-145.688	-8191	255	
40277.621	1	1	0	0	0.14187	0.25604	0.098028	0.2468	0.12614	0.22113	0.16191	0.030056	0.078003	0.26618	0.21384	0.10173	0.14141	0.020674	0.23285	0.083331	-2.175	-3.1917	-2.5	-2.8312	-3.1188	-2.4	-3.1542	-2.8958	-2.3417	-3.2417	-2.4854	-2.5958	-3.1708	-2.6771	-3.0229	-2.9354	-137.563	-2.306	-60.203	-160.436	-1.143	183.590	176.511	-58.899	-118.788	85.206	66.413	-98.116	63.619	-89.212	189.090	-111.455	0.00029748	0.00030832	9.1564e-05	615.62	2.2389e-06	2.414e-06	544.11	253.14	2.863e-06	2.5293e-06	214.47	76.067	84.333	34.87	4.2369e-06	32.331	0.00036485	0.00038576	0.00011617	649.07	3.9065e-06	4.5738e-06	575.55	268.9	4.4758e-06	4.0866e-06	227.22	81.051	90.254	37.43	4.29e-06	34.547	-157.103	-85.435	-82.486	-154.545	-10.732	-49.190	-156.296	-150.675	-55.263	-0.782	-153.130	-150.416	-146.825	-142.376	-27.095	-145.891	-8191	255	
40277.715	1	1	0	0	0.10697	0.080905	0.022526	0.27892	0.17107	0.048921	0.093789	0.41102	0.11936	0.2628	0.38687	0.25152	0.1306	0.33818	0.20352	0.14262	-1.8771	-3.1167	-2.5625	-2.7125	-3.3187	-2.2479	-2.9479	-3.0292	-2.2146	-3.1042	-2.5854	-2.375	-3.0812	-2.4562	-2.7562	-3.0833	-2.876	51.347	-57.587	-124.442	-121.330	-139.230	-133.693	156.073	91.270	159.834	-35.986	20.781	119.688	156.180	112.858	51.357	0.00028971	0.00029953	0.00010089	615.31	2.5691e-06	3.6495e-06	543.02	250.5	2.8925e-06	2.8095e-06	211.13	74.432	82.693	34.191	3.6347e-06	31.85	0.00036616	0.00038471	0.00011391	647.58	4.0395e-06	4.3442e-06	573.31	266.53	4.6535e-06	4.0527e-06	223.83	79.576	88.489	36.724	4.499e-06	34.059	-154.770	-93.025	-87.259	-154.654	-37.079	-7.518	-156.363	-150.770	-57.664	-22.895	-153.285	-150.193	-147.045	-141.969	-32.493	-145.919	-8191	255	
40277.812	1	1	0	0	0.13275	0.25976	0.15356	0.12763	0.21287	0.16073	0.1864	0.2459	0.19662	0.026364	0.17879	0.030604	0.03105	0.18908	0.21502	0.11374	-1.9062	-3.2208	-2.75	-2.4167	-3.3896	-2.375	-2.7625	-3.2521	-2.4167	-3.2812	-2.8812	-2.4771	-3.1562	-2.4646	-2.8563	-3.1104	92.763	-38.407	73.510	153.392	83.093	118.229	-80.756	119.769	87.908	-86.563	123.627	160.750	86.155	-120.910	-139.550	-14.348	0.00030329	0.00030972	0.00010426	610.14	2.1665e-06	3.1265e-06	540.62	247.95	2.9361e-06	2.646e-06	209.94	73.942	81.495	33.427	2.4187e-06	31.386	0.0003717	0.00037856	0.00011492	642.54	3.8787e-06	4.3977e-06	570.94	263.43	4.3364e-06	4.2369e-06	221.88	78.813	87.141	35.942	4.5536e-06	33.516	-155.312	-82.410	-83.389	-154.573	-27.899	-47.191	-156.353	-150.823	-51.890	-13.235	-153.099	-150.321	-146.702	-142.012	-44.589	-145.776	-8191	255	
40277.934	1	1	0	0	0.20515	0.12308	0.20691	0.017927	0.15375	0.3012	0.11358	0.14245	0.27834	0.11958	0.27067	0.1287	0.095604	0.19765	0.075156	0.020519	-1.6812	-3.1896	-2.8667	-2.3333	-3.3729	-2.5979	-2.4104	-3.25	-2.4146	-2.9021	-3.0979	-2.3521	-3.2646	-2.7062	-2.3729	-3.2292	90.760	-148.610	146.349	-66.906	-91.553	-99.098	-14.008	-45.574	-107.023	-92.771	-29.654	-166.572	34.713	-142.716	128.405	-70.703	0.00027452	0.00029249	8.984e-05	604.61	2.308e-06	3.2163e-06	536.88	243.26	2.3098e-06	4.0784e-06	205.85	71.778	79.073	32.148	2.6612e-06	30.284	0.00035699	0.0003866	0.00011139	636.57	4.0673e-06	4.514e-06	567.04	258.28	4.4126e-06	4.421e-06	217.56	76.439	84.547	34.662	4.6829e-06	32.414	-156.553	-87.042	-88.883	-154.616	-16.116	-32.710	-156.153	-150.888	-66.094	-26.576	-153.089	-150.103	-146.831	-141.701	-47.282	-145.835	-8191	255	
40278.004	1	1	0	0	0.125	0.053685	0.08513	0.13158	0.099856	0.14413	0.17354	0.075575	0.10338	0.25197	0.14018	0.19213	0.37823	0.097197	0.32901	0.14951	-2.0354	-2.9583	-2.8979	-2.525	-3.1646	-2.7917	-2.45	-3.2333	-2.3896	-2.9042	-3.1271	-2.2812	-3.1375	-2.7146	-2.5146	-3.3542	-53.450	5.455	-121.480	69.994	-5.956	-21.906	135.670	-82.531	184.074	30.110	18.507	-110.528	-162.180	164.557	-0.324	116.965	0.0002702	0.00025827	5.5258e-05	596.5	2.0107e-06	2.8874e-06	527.16	236.71	2.2678e-06	3.1815e-06	198.42	68.866	76.265	30.981	3.5827e-06	28.811	0.00036074	0.00041482	0.00010864	626.83	4.0779e-06	4.4173e-06	556.44	250.99	4.751e-06	4.6067e-06	209.32	73.566	81.545	33.382	4.9006e-06	31.023	-154.627	-68.336	-70.860	-154.595	-25.619	-29.546	-156.421	-150.712	-45.308	-17.402	-153.119	-150.250	-146.578	-141.722	-41.735	-145.154	-8191	255	
40278.125	1	1	0	0	0.17091	0.079302	0.14294	0.049292	0.21223	0.095905	0.16849	0.1163	0.16708	0.20279	0.12535	0.016202	0.19735	0.062206	0.092698	0.11133	-2.175	-2.8563	-3.0938	-2.3479	-3.1937	-2.9042	-2.5104	-3.3396	-2.3792	-2.475	-3.4646	-2.4562	-3.1167	-3.0833	-2.3583	-3.2917	-6.088	-99.307	139.416	-0.685	-17.344	140.796	72.025	-52.473	181.865	57.650	-161.087	124.186	134.193	172.230	24.502	169.560	0.0002649	0.00030706	9.851e-05	584.01	2.3272e-06	3.3854e-06	516.28	230.22	1.9719e-06	2.3261e-06	190.75	67.054	73.604	30.335	3.207e-06	28.175	0.00035846	0.00040651	0.00011621	614.97	4.1765e-06	4.3883e-06	546.03	244.4	4.6837e-06	4.7193e-06	202.68	71.322	78.795	32.517	4.7914e-06	30.202	-153.085	-78.038	-91.482	-154.426	-37.928	-12.419	-156.145	-150.687	-47.513	-41.580	-152.961	-149.875	-146.651	-141.605	-13.035	-145.310	-8191	255	
40278.223	1	1	0	0	0.23071	0.034789	0.18576	0.17465	0.085982	0.18953	0.068258	0.16078	0.10082	0.19536	0.016733	0.11969	0.16903	0.19373	0.2737	0.090474	-2.175	-2.5729	-3.0646	-2.3354	-3.0438	-2.8917	-2.3688	-3.35	-2.5167	-2.5771	-3.3396	-2.4458	-3.0542	-3.0708	-2.3646	-3.4125	-100.216	55.032	66.338	-154.337	-21.740	-148.395	-50.545	102.653	-120.358	18.294	-157.181	-121.642	-157.768	-157.145	-45.691	-7.019	0.00025735	0.00035854	7.287e-05	576.06	1.9214e-06	2.5552e-06	506.79	225.23	2.7269e-06	2.776e-06	186.7	65.216	71.933	29.18	2.2073e-06	27.583	0.00035161	0.0004056	0.00011211	607.03	4.1726e-06	4.4244e-06	537.41	238.99	4.7414e-06	4.8531e-06	198.24	69.438	76.767	31.507	4.8955e-06	29.475	-154.468	-72.800	-82.697	-154.576	-22.617	-33.885	-156.479	-150.660	-53.359	-18.217	-153.007	-149.831	-146.371	-141.156	-33.346	-145.180	-8191	255	
40278.316	1	1	0	0	0.31419	0.25449	0.20902	0.34837	0.076418	0.21587	0.29559	0.06762	0.031854	0.10388	0.17764	0.078438	0.28911	0.11689	0.26949	0.20683	-2.2687	-2.4146	-3.1813	-2.4792	-2.8187	-3.0812	-2.5646	-3.1979	-2.9646	-2.5104	-3.4833	-2.4833	-2.8396	-3.0417	-2.2854	-3.1458	-103.545	175.979	-98.736	138.368	185.354	82.030	113.067	55.851	136.754	-34.264	126.249	-34.417	130.950	16.968	21.570	188.503	0.00024679	0.00032421	7.815e-05	566.54	1.5796e-06	2.2313e-06	500.1	218.06	2.9181e-06	3.1876e-06	182.19	62.691	69.184	28.166	1.9098e-06	26.686	0.00035654	0.00042725	0.00011632	596.63	4.4459e-06	4.6548e-06	527.59	231.59	5.0317e-06	4.9113e-06	191.86	67.028	73.978	30.278	5.0184e-06	28.647	-154.429	-72.638	-75.720	-154.536	-27.284	-42.068	-156.195	-150.474	-45.171	-33.245	-153.147	-149.593	-146.018	-141.038	-41.165	-144.685	-8191	255	
40278.414	1	1	0	0	0.048863	0.10368	0.15862	0.11314	0.037017	0.066514	0.15147	0.075112	0.12301	0.10194	0.10235	0.22957	0.2406	0.34334	0.10348	0.17532	-2.5375	-2.3271	-3.3583	-2.5667	-2.5125	-3.1875	-2.3021	-3.1729	-2.9458	-2.3208	-3.3354	-2.6604	-2.5667	-3.0083	-2.3396	-3.0708	87.312	22.159	15.077	142.203	-15.881	40.296	42.006	-123.709	60.866	-82.157	146.456	-157.662	-144.151	-72.435	-78.719	-2.908	0.00023572	0.00015089	5.7361e-05	558.43	2.4046e-06	2.7306e-06	494.89	214.32	2.5693e-06	2.7114e-06	179.42	62.171	68.277	27.587	2.698e-06	26.073	0.00034851	0.00047182	0.00011636	587.78	4.6232e-06	4.7059e-06	522.75	227.74	4.8848e-06	5.2198e-06	189.87	66.114	73.066	29.739	4.8668e-06	28.024	-155.649	-110.136	-67.307	-154.396	-24.790	4.276	-156.217	-150.225	-32.105	-38.976	-152.777	-149.699	-146.403	-140.879	-33.806	-144.590	-8191	255	
40278.535	1	1	0	0	0.094759	0.019813	0.14005	0.077863	0.26565	0.28079	0.089688	0.27047	0.13503	0.12477	0.19245	0.21256	0.25004	0.14529	0.12645	0.17866	-2.6833	-2.4125	-3.3417	-2.6104	-2.6708	-3.3854	-2.5563	-2.9771	-3.0667	-2.3	-3.3896	-2.7687	-2.6333	-3.2896	-2.4333	-3.1917	68.724	4.957	-43.455	128.960	-42.222	-138.158	-121.653	-130.286	189.038	76.746	-162.881	87.787	52.664	-18.333	-60.577	46.353	0.00022834	0.00022796	8.3856e-05	552.34	2.542e-06	1.6151e-06	487	208.44	2.6206e-06	2.4979e-06	170.69	58.74	64.679	26.49	2.0002e-06	24.87	0.00034656	0.00043808	0.00011461	582.7	4.3876e-06	4.562e-06	513.79	221.5	4.5993e-06	4.927e-06	180.91	62.854	69.169	28.386	4.971e-06	26.67	-155.385	-76.479	-84.423	-154.570	-38.365	2.183	-156.129	-150.338	-39.274	-22.177	-152.338	-149.304	-146.029	-140.673	-50.254	-144.183	-8191	255	
40278.629	1	1	0	0	0.078689	0.40131	0.079301	0.093255	0.17735	0.14959	0.10879	0.15232	0.073647	0.098551	0.1985	0.24235	0.32621	0.17963	0.25727	0.29384	-2.7333	-2.1833	-3.1958	-2.7604	-2.6396	-3.2167	-2.4896	-2.7333	-3.1729	-2.5292	-3.3	-3.0521	-2.4104	-3.4646	-2.5292	-2.7583	27.090	17.067	62.878	138.691	113.996	101.258	60.405	-151.119	-131.914	-143.602	113.010	90.396	176.950	168.561	48.420	129.360	0.00022384	0.00024327	6.6557e-05	535.3	2.2388e-06	2.4422e-06	472.62	195.98	1.8031e-06	2.2988e-06	162.12	55.75	61.163	25.409	2.5209e-06	24.353	0.00033215	0.00045017	0.00011578	564.86	4.6451e-06	4.5683e-06	498.41	207.96	4.5911e-06	5.0191e-06	171.21	59.392	65.489	27.319	4.851e-06	26.08	-155.482	-68.386	-73.059	-154.496	-52.828	-20.361	-156.027	-149.984	-39.203	-22.630	-152.688	-149.320	-145.658	-140.450	-36.708	-143.820	-8191	255	
40278.703	1	1	0	0	0.19869	0.096559	0.24949	0.15061	0.083095	0.087398	0.26162	0.22832	0.17985	0.1939	0.11518	0.30837	0.10678	0.045763	0.12808	0.26453	-2.8979	-2.4104	-3.1708	-3.0896	-2.3229	-3.4125	-2.6396	-2.5729	-3.2729	-2.4292	-3.1688	-3.0479	-2.35	-3.3125	-2.8083	-2.4625	180.243	-84.140	-106.078	106.377	-94.924	-27.316	168.740	124.402	-147.433	-130.049	-106.928	170.038	34.156	107.989	-31.553	-153.345	0.00023662	0.0003276	6.5735e-05	528.17	1.7219e-06	2.2872e-06	468.36	192.55	2.4283e-06	2.6583e-06	159.45	54.532	60.047	24.983	2.4366e-06	23.866	0.00033286	0.0004457	0.00011706	559.01	4.5597e-06	4.7483e-06	495.74	205.05	4.6281e-06	4.9782e-06	168.66	58.346	64.179	26.914	4.7396e-06	25.705	-156.490	-74.140	-103.667	-154.273	-12.832	-26.192	-156.023	-150.198	-34.450	-24.305	-152.401	-149.504	-145.389	-140.101	-40.330	-143.933	-8191	255	
40278.820	1	1	0	0	0.069955	0.15494	0.18906	0.40106	0.32328	0.082626	0.16865	0.0022725	0.060889	0.0011933	0.019074	0.13631	0.088803	0.21956	0.15193	0.32717	-2.85	-2.3812	-2.8833	-3.05	-2.4458	-3.2979	-2.7271	-2.5167	-3.3208	-2.3125	-2.8271	-3.2021	-2.2896	-3.1542	-2.7229	-2.4437	79.902	33.948	85.683	151.866	80.425	-79.218	78.183	95.839	50.186	180.000	-2.583	-152.235	-25.416	58.098	76.999	84.803	0.00022056	0.00029368	5.8171e-05	525.15	2.5861e-06	1.7781e-06	461.29	186.81	2.685e-06	2.406e-06	153.93	52.36	57.536	24.228	3.0144e-06	23.21	0.00033899	0.00045583	0.00012383	552.84	4.8059e-06	4.7279e-06	488.14	198.06	4.5375e-06	5.0876e-06	162.74	56.105	61.381	26.033	4.7583e-06	24.983	-155.550	-82.357	-99.539	-154.317	-19.645	-19.217	-155.909	-149.983	-30.702	-36.396	-152.702	-148.848	-145.657	-139.538	-53.909	-143.477	-8191	255	
40278.918	1	1	0	0	0.22497	0.15006	0.24489	0.26307	0.16539	0.34902	0.49222	0.17057	0.32825	0.29722	0.18332	0.26546	0.030052	0.043661	0.10013	0.21383	-2.9771	-2.3854	-2.9042	-3.1417	-2.4083	-3.2521	-2.6833	-2.4	-3.1042	-2.5458	-2.6833	-3.1833	-2.3083	-3.0458	-2.9583	-2.4125	109.462	77.885	-65.907	56.566	104.274	9.910	146.211	64.795	-115.824	-57.188	-121.217	95.772	3.688	80.119	125.527	73.583	0.00021797	0.00023887	5.3377e-05	517.71	2.1662e-06	3.0997e-06	454.46	183.19	2.3876e-06	1.8024e-06	150.26	51.258	56.326	24.013	2.2956e-06	23.185	0.00031975	0.00044521	0.00012149	543.84	4.6444e-06	4.7577e-06	479.06	193.99	4.6151e-06	4.8609e-06	158.73	54.928	60.485	25.823	4.7167e-06	24.72	-154.726	-84.287	-78.255	-154.350	-41.795	-18.546	-155.925	-150.077	-46.987	-18.549	-152.667	-149.107	-145.326	-139.751	-30.240	-143.683	-8191	255	
40279.012	1	1	0	0	0.12542	0.22744	0.035493	0.35864	0.059047	0.23965	0.13023	0.15914	0.076428	0.13156	0.052944	0.065377	0.072925	0.059032	0.14014	0.15488	-3.0708	-2.7	-2.7313	-3.1562	-2.25	-3.0708	-3.0938	-2.5042	-3.1604	-2.7313	-2.7438	-3.2167	-2.3917	-2.9688	-3.0438	-2.4562	124.471	-130.987	-25.124	164.069	160.283	-11.433	46.620	-33.241	-35.875	121.326	-118.025	-74.849	-105.032	-45.528	-124.591	-7.074	0.00022171	0.00020526	6.344e-05	513.57	1.3516e-06	2.1748e-06	449.8	180.58	1.9247e-06	2.0385e-06	147.36	51.17	55.678	23.937	1.1245e-06	22.981	0.00032122	0.00043969	0.00012619	540.68	4.5048e-06	4.643e-06	475.71	191.72	4.3865e-06	4.942e-06	156.64	54.413	59.786	25.772	4.5852e-06	24.71	-156.995	-71.421	-93.350	-154.084	-38.401	-16.979	-156.131	-149.729	-30.593	-23.935	-152.657	-148.882	-145.325	-139.510	-11.798	-143.674	-8191	255	
40279.109	1	1	0	0	0.1833	0.23723	0.15805	0.043818	0.094327	0.14922	0.16848	0.11854	0.2136	0.15802	0.2972	0.19872	0.064221	0.27187	0.069332	0.20697	-2.8167	-2.6688	-2.5146	-3.2375	-2.4125	-2.8896	-3.1021	-2.2417	-3.1125	-2.8667	-2.5917	-3.2667	-2.3438	-2.7771	-3.1604	-2.3146	163.846	120.184	135.072	74.506	-10.392	107.579	135.839	21.021	163.116	31.360	190.857	-112.008	-100.659	-53.191	-46.550	49.282	0.00020876	0.00020765	8.3175e-05	512.33	2.0854e-06	2.2212e-06	446.71	180.62	2.5195e-06	2.4566e-06	147.77	51.242	56.07	24.038	2.0784e-06	23.306	0.00032377	0.00042544	0.00012893	539.34	4.5372e-06	4.9849e-06	473.64	191.3	4.4174e-06	4.8444e-06	156.48	54.651	60.19	25.97	4.3711e-06	25.076	-154.651	-88.615	-82.229	-154.178	-37.344	-10.190	-155.884	-150.117	-49.697	-8.372	-152.500	-149.242	-145.773	-139.856	-33.475	-143.659	-8191	255	
40279.230	1	1	0	0	0.11771	0.097021	0.15346	0.21728	0.097312	0.24558	0.1394	0.062203	0.12947	0.20138	0.21492	0.37082	0.10927	0.16845	0.17488	0.38638	-2.8937	-2.8458	-2.4	-3.2792	-2.5229	-2.7417	-3.3063	-2.3229	-3.1854	-3.0062	-2.4979	-3.3563	-2.4437	-2.5062	-3.2708	-2.4708	-41.131	-11.318	-76.008	180.733	-79.892	26.688	35.370	-121.188	-97.320	148.055	-79.710	145.206	-165.910	141.854	130.605	70.712	0.00020091	0.00019898	3.9494e-05	514.72	2.2096e-06	2.7386e-06	452.26	182.48	2.3757e-06	2.1016e-06	150.32	52.258	57.737	24.807	2.0346e-06	24.016	0.00032621	0.00044269	0.00012761	542.55	4.5504e-06	4.8128e-06	478.95	194.11	4.5636e-06	4.75e-06	159.72	55.88	61.725	26.608	4.517e-06	25.786	-152.049	-65.226	-87.478	-154.214	-30.074	-0.109	-156.040	-150.119	-63.916	-7.068	-152.323	-148.820	-145.743	-139.769	-31.500	-143.694	-8191	255	
40279.301	1	1	0	0	0.31801	0.12794	0.30497	0.12801	0.26082	0.078462	0.11438	0.14868	0.15033	0.17894	0.15963	0.21696	0.22431	0.2084	0.1194	0.18469	-2.7333	-2.8854	-2.3792	-3.3854	-2.6229	-2.6625	-3.4062	-2.4521	-2.8063	-3.0354	-2.4958	-3.1042	-2.6708	-2.4479	-3.3354	-2.4146	35.210	188.286	-85.524	24.419	91.410	121.857	-35.600	130.884	-146.923	-149.400	-140.570	161.407	-166.478	-117.809	-45.253	-67.239	0.00022313	0.00019452	8.4001e-05	522.24	2.0329e-06	3.1778e-06	458.73	187	2.0038e-06	2.6015e-06	153.19	52.941	58.24	25.107	1.416e-06	24.186	0.00032771	0.00044046	0.00012371	551.01	4.5352e-06	4.7892e-06	484.21	198.67	4.5767e-06	4.6012e-06	162.2	56.661	62.648	27.051	4.4616e-06	25.893	-153.970	-98.057	-68.141	-154.034	-9.568	-30.386	-155.993	-150.225	-38.072	-41.414	-152.415	-149.014	-145.643	-139.978	-53.249	-144.248	-8191	255	
40279.398	1	1	0	0	0.12412	0.10465	0.19082	0.18752	0.19185	0.1429	0.26506	0.089498	0.13605	0.19388	0.14378	0.038754	0.089485	0.14287	0.071478	0.1928	-2.6979	-3.0396	-2.4292	-3.1542	-3.0146	-2.6229	-3.4125	-2.4792	-2.725	-3.2083	-2.4521	-3.1354	-2.8271	-2.3833	-3.3604	-2.6229	138.545	-32.199	171.276	104.874	-154.976	118.016	-110.821	-151.711	131.817	-104.407	71.405	-48.278	127.049	108.872	37.404	116.544	0.00021512	0.00024191	3.6292e-05	525.28	7.422e-07	2.3623e-06	458.5	187.96	1.7664e-06	2.8392e-06	153.22	52.957	58.599	25.095	2.2227e-06	24.198	0.00033436	0.00041489	0.00011927	552.85	4.1904e-06	4.7098e-06	484.38	199.25	4.6089e-06	4.5524e-06	162.02	56.616	62.736	27.09	4.4703e-06	25.862	-156.590	-95.231	-102.424	-154.060	-52.807	-26.747	-155.915	-149.901	-60.208	-26.318	-152.637	-149.286	-145.819	-140.095	-59.501	-143.870	-8191	255	
40279.492	1	1	0	0	0.048694	0.058449	0.19825	0.25026	0.10675	0.16992	0.21843	0.076861	0.071089	0.030271	0.14016	0.15217	0.10918	0.22494	0.23852	0.15229	-2.4229	-3.0167	-2.625	-3.0208	-2.9229	-2.5125	-3.3708	-2.5771	-2.6458	-3.2667	-2.3771	-3.1167	-2.9833	-2.3896	-3.1042	-2.725	92.714	54.291	-110.480	114.979	46.192	138.147	120.853	-106.067	93.387	-142.033	-36.753	80.613	-101.943	164.053	-77.721	-122.452	0.00021885	0.0002913	5.6695e-05	524.22	2.0578e-06	1.6432e-06	457.11	188.52	2.3961e-06	2.1581e-06	153.58	53.401	58.794	25.128	1.316e-06	24.32	0.0003297	0.00041133	0.0001201	552.09	4.1984e-06	4.9055e-06	483.79	199.44	4.7922e-06	4.4061e-06	162.97	57.225	63.046	27.033	4.351e-06	26.031	-153.217	-79.530	-99.520	-154.090	-15.564	-13.860	-155.705	-150.208	-39.547	-11.019	-152.495	-149.207	-145.872	-140.164	-38.288	-143.556	-8191	255	
40279.613	1	1	0	0	0.28447	0.137	0.26996	0.13976	0.17892	0.20429	0.067253	0.26147	0.23309	0.17258	0.099007	0.19095	0.11072	0.15618	0.17584	0.14677	-2.2479	-3.2521	-2.4354	-3.0479	-2.9417	-2.3917	-3.2313	-2.8125	-2.3396	-3.2375	-2.375	-2.7667	-3.1729	-2.3063	-3.2542	-2.85	117.425	56.419	179.017	-99.339	118.567	-26.441	-92.195	-11.853	-47.584	-106.418	109.206	74.208	106.552	-154.447	-163.145	158.403	0.00020455	0.00014796	6.3556e-05	523.18	1.441e-06	1.8409e-06	460.16	188.02	3.5783e-06	3.248e-06	155.07	54.238	59.445	25.285	2.0041e-06	24.503	0.00034633	0.00041566	0.00012063	550.97	4.3109e-06	4.7703e-06	484.68	199.64	4.8004e-06	4.5556e-06	164.63	57.813	63.595	27.182	4.4695e-06	26.334	-157.353	-88.445	-83.218	-154.097	-49.001	5.519	-156.031	-150.223	-60.006	-1.883	-152.336	-148.647	-145.583	-139.774	-23.920	-143.853	-8191	255	
40279.711	1	1	0	0	0.22384	0.048103	0.27147	0.22756	0.16693	0.1159	0.071946	0.13231	0.10975	0.096366	0.15229	0.18366	0.24853	0.23303	0.069171	0.12445	-2.2604	-3.3625	-2.2375	-2.6875	-3.2229	-2.2833	-3.1292	-2.9562	-2.4104	-3.2062	-2.4	-2.9542	-3.1271	-2.4167	-3.1958	-2.9062	94.870	162.201	-104.611	-87.153	144.699	-44.183	57.286	63.767	-26.468	-63.470	174.754	52.475	-77.988	-158.621	60.434	84.175	0.00021449	0.0002125	5.132e-05	524.14	2.0509e-06	2.5988e-06	461.78	189.71	1.9119e-06	1.8341e-06	157.16	54.681	60.471	25.673	2.1178e-06	24.571	0.00034463	0.00041901	0.00012428	553.43	4.3612e-06	4.6972e-06	487.34	201.52	4.7551e-06	4.5493e-06	165.66	58.622	64.585	27.559	4.6463e-06	26.413	-152.950	-93.803	-69.938	-154.036	-30.132	-43.657	-156.155	-150.067	-53.750	-16.405	-152.712	-149.100	-145.910	-140.017	-62.976	-144.183	-8191	255	
40279.809	1	1	0	0	0.066153	0.046503	0.23137	0.073143	0.099278	0.086022	0.047368	0.27188	0.09768	0.059727	0.24175	0.11293	0.33674	0.15243	0.13356	0.11586	-1.9438	-3.3	-2.4979	-2.7042	-3.3896	-2.3604	-3.1437	-3.1688	-2.4333	-3.3083	-2.5979	-2.4708	-3.4104	-2.4854	-3.0771	-3.0333	-95.166	-157.435	-131.830	130.620	84.492	21.205	-67.322	162.197	61.379	74.806	111.820	120.491	119.309	179.166	-10.282	104.561	0.00022009	0.0002926	6.2565e-05	531.45	2.2826e-06	1.5347e-06	463.29	191.01	2.2885e-06	2.0426e-06	156.67	55.054	60.704	25.884	2.0731e-06	24.779	0.00034105	0.00040755	0.0001232	558.21	4.3016e-06	4.8599e-06	489.12	203.75	4.7695e-06	4.4887e-06	166.12	58.757	65.004	27.849	4.6355e-06	26.578	-158.389	-81.168	-59.555	-154.295	-22.927	-40.309	-155.902	-150.220	-46.609	-46.384	-152.606	-149.191	-145.947	-140.179	-15.072	-144.138	-8191	255	
40279.926	1	1	0	0	0.044978	0.1486	0.12245	0.29314	0.2151	0.25279	0.10473	0.076533	0.22254	0.1422	0.1725	0.25094	0.092236	0.24876	0.20222	0.025353	-1.8687	-3.1813	-2.5854	-2.6417	-3.3688	-2.4708	-3.1396	-3.2396	-2.3708	-3.2812	-2.8833	-2.4313	-3.1833	-2.5771	-2.7333	-3.1271	35.810	64.807	9.581	97.613	85.312	91.159	2.651	135.526	76.983	101.835	97.716	63.225	161.946	-150.573	-161.122	160.749	0.00021953	0.00019213	5.1256e-05	530.41	2.1563e-06	2.4187e-06	464.51	192.36	1.8933e-06	1.9774e-06	157.13	55.145	60.894	26.128	2.5522e-06	25.127	0.00034545	0.00040483	0.00011923	559.34	4.1858e-06	4.7381e-06	489.85	204.21	4.6824e-06	4.5839e-06	166.85	59.104	65.395	28.073	4.7109e-06	26.881	-154.810	-96.046	-76.967	-154.149	-11.700	1.734	-155.934	-150.355	-53.400	-27.767	-152.811	-149.055	-145.913	-140.294	-58.059	-144.276	-8191	255	
40279.996	1	1	0	0	0.13405	0.050536	0.17401	0.075381	0.016969	0.23977	0.1688	0.25621	0.0412	0.058567	0.13827	0.075344	0.052178	0.13181	0.2057	0.11056	-1.9229	-3.225	-2.8	-2.3771	-3.2792	-2.4083	-2.8312	-3.1417	-2.4562	-3.2646	-3.0354	-2.3979	-3.3625	-2.8208	-2.5396	-3.1583	-85.493	142.571	111.458	171.568	148.965	159.548	-116.271	114.435	-163.268	-97.450	30.554	-114.702	-114.397	177.514	-71.584	-24.850	0.00023602	0.00027266	8.1347e-05	534.62	1.4156e-06	2.1824e-06	466.31	194.26	2.5681e-06	1.6945e-06	158.09	55.924	61.343	26.15	2.6014e-06	25.155	0.00034806	0.00041943	0.0001179	562.37	4.1315e-06	4.9024e-06	493.18	205.91	4.7146e-06	4.5611e-06	167.74	59.637	65.929	28.13	4.999e-06	26.911	-157.867	-109.540	-102.361	-154.116	-30.499	-34.645	-156.009	-150.231	-53.119	-27.165	-152.946	-149.768	-145.727	-140.149	-31.056	-144.074	-8191	255	
40280.094	1	1	0	0	0.18234	0.19328	0.39785	0.10408	0.23041	0.1047	0.20621	0.087009	0.373	0.096513	0.11905	0.17237	0.22292	0.21104	0.12229	0.26467	-2.0646	-3.125	-2.9833	-2.4688	-3.1833	-2.4833	-2.7146	-3.2083	-2.3542	-3.1042	-3.0625	-2.3021	-3.2062	-2.7958	-2.6	-3.3854	-97.512	123.733	81.233	169.346	51.117	-166.809	11.018	145.611	122.768	37.926	180.426	125.500	78.154	154.795	154.860	112.353	0.00019871	0.00030939	8.7093e-05	534.53	1.6361e-06	3.4026e-06	467.04	194.57	2.2827e-06	1.4472e-06	158.76	56.266	61.579	26.157	2.0398e-06	24.845	0.00035122	0.00042774	0.0001179	563.49	4.2712e-06	4.8411e-06	492.17	206.37	4.8258e-06	4.7862e-06	168.65	60.137	66.192	28.077	4.8697e-06	26.656	-154.341	-83.260	-89.089	-154.049	-55.534	-23.835	-156.076	-150.257	-45.952	-27.035	-153.006	-149.526	-145.600	-140.203	-29.337	-144.390	-8191	255	
40280.215	1	1	0	0	0.18364	0.16631	0.16614	0.20993	0.14119	0.15816	0.079691	0.33014	0.04801	0.074465	0.21643	0.094202	0.041926	0.27766	0.12148	0.27615	-2.0104	-3.0292	-2.8396	-2.3146	-3.275	-2.8563	-2.5396	-3.3812	-2.3375	-2.8021	-3.2	-2.4167	-3.125	-2.9042	-2.475	-3.3896	30.359	-133.434	-107.908	-96.243	-155.243	172.075	85.941	130.056	-156.908	-160.988	-130.551	166.075	165.579	13.206	-41.016	-116.291	0.00021522	0.0003004	7.0783e-05	531.68	1.2522e-06	2.0169e-06	461.98	192.85	2.476e-06	1.935e-06	157.24	56.108	61.589	25.932	1.6448e-06	24.563	0.00034271	0.00044165	0.0001172	559.56	4.4161e-06	4.8112e-06	487.78	205	4.9377e-06	4.8263e-06	166.64	59.846	65.979	27.854	4.971e-06	26.407	-156.484	-76.654	-99.755	-154.151	-56.886	-23.417	-156.039	-149.987	-45.014	-6.658	-152.581	-148.969	-145.631	-140.161	-31.516	-144.061	-8191	255	
40280.309	1	1	0	0	0.099673	0.12778	0.088434	0.16448	0.2945	0.12551	0.017778	0.15847	0.01379	0.13109	0.17203	0.12237	0.10447	0.10561	0.16923	0.067003	-2.2125	-2.6833	-3.2667	-2.2583	-3.1437	-2.8771	-2.4917	-3.3854	-2.3958	-2.6271	-3.3063	-2.3812	-3.2167	-2.8167	-2.2979	-3.2604	-91.277	-63.543	-162.187	160.195	111.296	23.484	-75.945	162.673	-142.854	121.629	58.293	170.110	-131.770	-159.882	-75.809	92.788	0.00020934	0.00036147	7.5471e-05	529.42	1.8793e-06	2.5071e-06	458.64	192.31	2.72e-06	2.4879e-06	157.3	55.761	61.395	25.668	3.0325e-06	24.463	0.0003434	0.00045178	0.00012094	557.37	4.3645e-06	4.8599e-06	484.72	203.74	4.8752e-06	5.0718e-06	165.7	59.348	65.586	27.599	5.1304e-06	26.313	-156.986	-102.124	-77.856	-154.190	-49.563	1.565	-156.012	-150.300	-49.542	-11.870	-152.856	-148.929	-145.669	-140.131	-35.193	-143.985	-8191	255	
40280.406	1	1	0	0	0.11925	0.21504	0.29467	0.17245	0.062474	0.2849	0.1367	0.1924	0.045913	0.052103	0.24487	0.088516	0.20206	0.21762	0.20845	0.16156	-2.3875	-2.8729	-3.2604	-2.3708	-2.9979	-3.2646	-2.4813	-3.4188	-2.8104	-2.5875	-3.3979	-2.3563	-3.0021	-3.0875	-2.225	-3.1625	-161.577	-64.170	136.133	181.445	37.970	91.833	87.135	34.805	24.160	-159.541	76.343	128.220	-162.429	180.357	165.433	-70.771	0.00022769	0.00036023	8.7311e-05	525.8	1.6944e-06	1.649e-06	459.69	190.99	2.5911e-06	2.1817e-06	157.88	55.762	61.324	25.525	1.3961e-06	24.71	0.00034558	0.00046421	0.00011636	554.76	4.4578e-06	4.7357e-06	485.1	202.74	4.7215e-06	4.9994e-06	166.31	59.456	65.587	27.53	4.9781e-06	26.422	-154.361	-87.794	-65.754	-154.294	-35.213	2.539	-155.956	-150.160	-61.291	8.737	-153.040	-149.300	-145.709	-140.398	-35.951	-143.939	-8191	255	
40280.527	1	1	0	0	0.23925	0.03535	0.026996	0.28875	0.20834	0.21309	0.13474	0.16704	0.20037	0.19148	0.051741	0.057883	0.098699	0.19137	0.15058	0.031837	-2.3667	-2.4938	-3.2708	-2.5146	-2.9521	-3.1042	-2.3104	-3.1646	-2.8083	-2.525	-3.2167	-2.6146	-2.7	-3.1354	-2.3063	-3.0875	-139.990	-5.815	187.415	111.223	63.191	-132.821	171.693	-54.382	27.380	171.093	-40.850	-44.763	-142.129	43.998	-102.934	20.236	0.00022529	0.00028309	5.6871e-05	529.24	1.4515e-06	1.3044e-06	461.04	192.24	2.3761e-06	2.1167e-06	159.02	55.968	61.633	25.481	1.8662e-06	24.537	0.00034532	0.00045834	0.00011779	556.27	4.5491e-06	4.6705e-06	486	203.66	4.6583e-06	5.2017e-06	168.15	59.859	65.953	27.525	5.1139e-06	26.37	-155.741	-90.289	-62.384	-154.089	-48.568	-12.617	-156.345	-150.196	-47.658	-13.365	-152.872	-149.472	-145.648	-140.161	-24.059	-143.937	-8191	255	
40280.598	1	1	0	0	0.15217	0.17593	0.041504	0.30982	0.032806	0.14508	0.47737	0.1369	0.32091	0.13296	0.050613	0.21012	0.10421	0.10579	0.10726	0.1138	-2.5875	-2.4125	-3.1292	-2.6583	-2.7708	-3.1583	-2.3875	-3.1771	-2.8542	-2.2271	-3.3167	-2.5	-2.6771	-3.425	-2.2833	-2.9938	-99.402	164.486	-108.069	-127.061	99.620	-43.644	94.160	155.703	74.007	43.312	55.543	127.653	-118.579	143.477	-33.851	125.893	0.00022386	0.00026664	7.5171e-05	526.25	1.2765e-06	2.5105e-06	461.93	190.17	2.2115e-06	2.47e-06	155.62	55.095	60.767	25.356	2.7145e-06	24.294	0.00034382	0.00045611	0.00012161	555.14	4.5458e-06	4.7232e-06	484.6	202.5	4.8814e-06	5.0805e-06	165.46	58.924	65.13	27.273	4.9738e-06	25.953	-153.991	-98.679	-66.744	-154.043	-21.207	1.067	-155.839	-150.194	-57.152	-21.661	-152.723	-149.178	-145.629	-140.108	-30.933	-143.628	-8191	255	
40280.695	1	1	0	0	0.09432	0.12824	0.0074771	0.1656	0.23318	0.1671	0.073568	0.11681	0.15147	0.12552	0.27649	0.038159	0.12073	0.16099	0.054051	0.18008	-2.7979	-2.2	-3.1646	-2.7792	-2.6125	-3.3042	-2.625	-3.05	-3.0146	-2.3688	-3.2875	-2.7833	-2.4583	-3.2583	-2.2938	-2.8833	-135.652	-112.681	-27.294	-87.526	40.615	9.441	124.509	190.466	72.667	81.105	-125.084	-51.249	30.356	-125.279	-135.533	174.931	0.00021273	0.00024579	6.1055e-05	524.01	1.1592e-06	1.5846e-06	456.47	188.46	2.8138e-06	1.2701e-06	153.85	54.534	59.976	25.161	3.1443e-06	24.184	0.00034274	0.00046554	0.00012034	552.66	4.559e-06	4.639e-06	481.11	200.6	4.6975e-06	5.2174e-06	162.85	58.175	64.319	27.146	4.9343e-06	25.855	-155.982	-67.051	-72.538	-154.463	-14.874	-23.064	-156.104	-149.921	-36.646	-11.162	-152.273	-149.333	-145.576	-139.964	-51.409	-143.363	-8191	255	
40280.789	1	1	0	0	0.16048	0.1223	0.057652	0.33176	0.19101	0.055241	0.25607	0.25395	0.10132	0.18726	0.081134	0.10642	0.22651	0.1304	0.13111	0.26272	-2.7833	-2.4062	-3.4146	-3.0146	-2.5771	-3.1479	-2.6979	-2.7646	-3.1458	-2.3354	-3.1896	-2.8104	-2.4688	-3.3729	-2.5438	-2.6958	-159.956	48.540	80.036	118.578	55.973	56.415	96.303	171.362	-59.025	-161.779	-96.659	131.885	-142.663	177.679	-51.962	-126.911	0.00022545	0.00019992	4.6143e-05	523.87	1.2522e-06	2.7857e-06	453.58	188.49	2.5047e-06	3.4997e-06	154.55	54.286	59.955	25.088	2.515e-06	23.982	0.00033355	0.00046533	0.00011968	551.61	4.7172e-06	4.5966e-06	480.44	199.96	4.6364e-06	5.1356e-06	163.43	58.047	64.259	26.959	4.8804e-06	25.78	-153.302	-102.895	-47.655	-154.317	-37.488	-16.039	-156.292	-150.234	-54.721	-49.267	-152.729	-149.314	-145.684	-139.886	-49.948	-144.162	-8191	255	
40280.910	1	1	0	0	0.21005	0.28136	0.041777	0.17841	0.19547	0.14522	0.22766	0.21523	0.26186	0.16143	0.22933	0.18414	0.21216	0.075876	0.10428	0.12416	-2.5687	-2.2458	-2.95	-2.9583	-2.4396	-3.2625	-2.6771	-2.4417	-3.1688	-2.4979	-3.2167	-2.9938	-2.4854	-3.2771	-2.8417	-2.7708	157.849	96.693	-89.485	150.445	-71.809	182.951	16.376	97.006	148.936	-62.183	138.745	129.142	-161.459	116.879	-14.063	138.530	0.00022334	0.0002888	5.6135e-05	524.67	1.8625e-06	2.4227e-06	455.26	188.7	1.836e-06	2.1017e-06	156.1	54.584	60.309	25.204	2.4888e-06	24.287	0.00032973	0.00046386	0.00012096	552.7	4.7338e-06	4.7177e-06	481.94	200.51	4.552e-06	4.9774e-06	164.91	58.485	64.602	27.035	5.0141e-06	26.04	-152.780	-110.385	-78.893	-154.148	-23.825	-49.421	-155.989	-150.173	-78.222	-9.232	-152.399	-149.137	-145.509	-139.868	-47.947	-143.704	-8191	255	
40281.008	1	1	0	0	0.19133	0.31342	0.1431	0.146	0.11578	0.20517	0.12273	0.1358	0.21528	0.11683	0.14723	0.065713	0.029893	0.094621	0.22508	0.18948	-2.9083	-2.3187	-2.925	-3.1146	-2.4062	-3.2125	-2.8583	-2.5438	-3.3583	-2.4521	-2.8812	-3.0896	-2.4604	-3.2687	-2.85	-2.5917	-130.947	-132.542	165.560	171.967	-78.968	-86.957	4.321	-88.225	87.636	100.784	-24.607	-28.673	-126.477	-141.311	87.116	-131.473	0.00022793	0.00029558	6.0885e-05	526.38	1.994e-06	2.816e-06	455.75	188.3	2.8849e-06	1.3776e-06	154.7	54.334	59.885	24.911	2.1744e-06	23.684	0.00033133	0.00046156	0.00012032	552.57	4.5888e-06	4.7978e-06	481.2	200.1	4.565e-06	4.9664e-06	163.62	58.093	64.043	26.826	4.8151e-06	25.439	-153.092	-59.876	-67.144	-154.183	-31.788	-31.018	-156.092	-149.838	-65.133	-20.584	-152.186	-149.169	-145.678	-139.852	-62.657	-143.904	-8191	255	
40281.102	1	1	0	0	0.17369	0.17266	0.24967	0.20103	0.091206	0.28503	0.15734	0.17185	0.046058	0.032079	0.19739	0.1904	0.12013	0.17672	0.28889	0.11069	-2.9125	-2.4292	-2.9771	-3.2062	-2.3625	-3.2583	-2.925	-2.5042	-3.2313	-2.5958	-2.7729	-3.3354	-2.3833	-3.0271	-2.9062	-2.3792	-154.611	-99.839	-7.496	36.488	32.156	4.486	-161.295	-138.114	187.474	75.141	112.835	-144.303	-45.356	-138.924	-0.682	-43.816	0.00021784	0.00025779	6.0913e-05	520.2	1.7111e-06	2.8485e-06	448.22	183.65	2.5555e-06	3.6182e-06	148.58	52.69	57.868	24.429	1.849e-06	23.22	0.00032562	0.00044807	0.00012309	548.2	4.4757e-06	4.8041e-06	473.64	195.38	4.5417e-06	4.9774e-06	157.84	56.225	62.08	26.245	4.8352e-06	24.893	-156.206	-85.893	-45.196	-153.886	-17.966	-50.713	-156.100	-150.116	-51.004	-16.530	-152.367	-149.204	-145.730	-139.776	-24.984	-143.447	-8191	255	
40281.176	1	1	0	0	0.22871	0.18716	0.021496	0.15179	0.066386	0.040426	0.2661	0.3612	0.13497	0.17881	0.11692	0.011057	0.34099	0.061432	0.11088	0.18266	-3.0312	-2.7625	-2.7188	-3.1958	-2.3271	-3.3063	-3	-2.35	-3.3667	-2.7	-2.6625	-3.225	-2.4521	-2.9479	-3.1479	-2.3271	-33.512	15.849	-15.249	-148.814	161.268	37.601	163.834	-56.384	112.842	-72.677	111.280	-77.602	-133.807	33.247	-62.569	-106.868	0.00021265	0.00028099	6.2311e-05	515.16	2.5036e-06	2.9251e-06	445.85	182.33	1.7612e-06	3.5141e-06	147.89	52.165	57.815	24.21	1.5406e-06	23.243	0.00033081	0.00044591	0.00012568	543.71	4.5882e-06	4.8285e-06	470.96	193.59	4.4058e-06	4.8924e-06	156.92	55.999	61.901	26.115	4.6441e-06	24.93	-156.497	-70.887	-90.816	-154.140	-31.152	-9.836	-156.173	-149.985	-59.637	-28.202	-152.241	-149.111	-145.373	-139.678	-13.210	-143.943	-8191	255	
40281.297	1	1	0	0	0.23775	0.058236	0.3588	0.12892	0.11533	0.40527	0.20117	0.087458	0.19297	0.044211	0.1126	0.18962	0.2798	0.032772	0.17991	0.21687	-2.9854	-2.7333	-2.5083	-3.325	-2.5917	-2.9188	-3.3396	-2.3958	-3.2708	-2.9396	-2.7021	-3.3354	-2.5104	-2.9437	-3.4354	-2.4333	-134.146	176.953	-123.107	182.894	30.145	-118.736	115.093	26.565	-16.747	-137.009	107.680	191.502	-64.765	-123.397	-99.275	-136.591	0.00019586	0.00025829	4.5028e-05	514.93	7.6137e-07	2.6823e-06	446.88	182.65	2.2053e-06	3.6088e-06	148.26	52.782	57.999	24.275	3.4734e-06	23.22	0.00032266	0.00043166	0.00012513	542.86	4.5875e-06	4.8332e-06	471.74	193.9	4.5389e-06	4.9428e-06	157.49	56.198	61.984	26.171	4.6951e-06	25.03	-153.640	-96.939	-81.231	-154.290	-30.449	-28.129	-156.158	-150.182	-52.940	-23.526	-152.600	-148.971	-145.363	-139.326	-55.121	-143.647	-8191	255	
40281.391	1	1	0	0	0.051221	0.11405	0.10807	0.18949	0.1781	0.18897	0.10284	0.066522	0.16871	0.16029	0.052591	0.17599	0.13348	0.025067	0.23619	0.32059	-2.9104	-2.7667	-2.4562	-3.475	-2.6	-2.8917	-3.4208	-2.4062	-3.1813	-3.0938	-2.525	-3.225	-2.5438	-2.9833	-3.4583	-2.6354	18.269	-116.339	10.190	104.120	-94.394	123.524	54.559	166.053	129.070	-15.390	37.214	163.665	66.955	146.881	-114.988	159.416	0.00021086	0.0001423	8.2892e-05	517.79	1.7422e-06	2.3102e-06	447.06	183.25	2.0021e-06	2.6678e-06	150.39	52.758	57.907	24.231	2.5691e-06	23.178	0.00032872	0.0004304	0.00012997	542.88	4.6854e-06	5.0651e-06	472.14	194.56	4.7702e-06	4.8428e-06	158.71	56.341	62.223	26.059	4.4703e-06	24.837	-154.400	-110.861	-75.275	-154.008	-40.797	-12.596	-156.207	-149.752	-42.400	-44.227	-152.407	-149.197	-145.587	-139.650	-36.151	-143.603	-8191	255	
40281.488	1	1	0	0	0.086931	0.19801	0.16281	0.26077	0.31347	0.051904	0.13708	0.078899	0.21804	0.065296	0.058708	0.073263	0.20501	0.027263	0.18655	0.22111	-2.8458	-3.0417	-2.3479	-3.4792	-2.6917	-2.8042	-3.4083	-2.4208	-3.0167	-3.2812	-2.4813	-3.425	-2.7354	-2.4854	-3.2646	-2.7167	185.008	46.172	-47.623	115.705	129.885	-119.902	171.165	125.069	71.632	64.558	-168.002	-157.373	30.772	155.952	-83.773	108.684	0.00021013	0.00034689	4.7172e-05	514.03	2.4423e-06	1.5088e-06	443.59	182.29	2.1044e-06	2.4041e-06	147.58	51.896	57.358	24.028	2.2066e-06	22.862	0.00032928	0.00043291	0.00012239	541.41	4.6087e-06	4.959e-06	468.38	193.41	4.7222e-06	4.8995e-06	156.08	55.585	61.511	25.911	4.8417e-06	24.578	-153.031	-55.493	-80.807	-154.081	-23.744	2.625	-156.213	-150.071	-25.882	-29.261	-152.410	-148.901	-145.282	-139.672	-26.421	-144.079	-8191	255	
40281.609	1	1	0	0	0.027216	0.075905	0.164	0.024169	0.19139	0.11555	0.24785	0.12002	0.16083	0.050641	0.14361	0.059141	0.20876	0.22796	0.087998	0.097388	-2.5687	-3.1667	-2.4833	-3.3167	-2.9042	-2.6083	-3.2333	-2.6375	-3.0271	-3.2188	-2.35	-3.3187	-2.9583	-2.5417	-3.4875	-2.7396	1.956	24.115	130.625	64.981	79.263	191.069	127.359	146.829	107.688	-81.997	49.760	-41.472	78.566	15.195	-63.394	-134.962	0.00017863	0.00029737	5.2831e-05	512.25	6.3008e-07	2.3371e-06	443.36	181.53	1.5889e-06	2.1912e-06	145.98	51.643	57.117	23.966	2.6988e-06	22.957	0.00033048	0.0004267	0.00012923	538.92	4.526e-06	5.1123e-06	465.99	191.78	4.7544e-06	4.8932e-06	154.95	55.226	61.247	25.856	4.6384e-06	24.603	-156.656	-71.162	-72.562	-154.246	-12.448	-36.365	-155.686	-150.010	-63.135	-12.207	-152.126	-149.206	-145.496	-139.413	-34.470	-143.904	-8191	255	
40281.703	1	1	0	0	0.03887	0.094988	0.16908	0.12733	0.18214	0.22074	0.23942	0.30248	0.34798	0.1185	0.045553	0.14892	0.038988	0.060025	0.13514	0.063917	-2.3333	-3.3396	-2.4875	-3.4	-2.9042	-2.4271	-3.3312	-2.4688	-2.7354	-3.2208	-2.4875	-3.1167	-2.9729	-2.2542	-3.2729	-2.6354	-92.294	171.108	58.459	7.904	15.911	138.266	191.757	-126.973	53.699	-150.989	34.825	-164.302	40.211	-38.548	-110.805	35.882	0.0002109	0.00038911	5.9332e-05	510.93	2.1968e-06	3.5962e-06	444.02	180.26	1.9585e-06	2.6083e-06	147.2	51.611	57.179	23.932	1.8313e-06	22.87	0.00033466	0.00042928	0.00012833	539.51	4.5617e-06	5.0966e-06	467.45	191.68	4.9308e-06	4.746e-06	155.68	55.295	61.193	25.746	4.7231e-06	24.57	-154.010	-87.274	-58.859	-154.147	-28.736	1.629	-155.813	-149.730	-26.552	5.209	-152.438	-148.731	-144.952	-139.288	-26.231	-143.793	-8191	255	
40281.797	1	1	0	0	0.21736	0.22819	0.17703	0.17135	0.23485	0.065432	0.33476	0.099902	0.16309	0.15303	0.038125	0.18873	0.20073	0.022139	0.050483	0.1359	-2.125	-3.1979	-2.4354	-3.1125	-3.1875	-2.3854	-3.35	-2.8688	-2.6708	-3.3688	-2.3563	-2.9771	-3.1646	-2.4979	-3.0896	-2.8479	-69.427	170.444	126.128	-97.117	106.318	-51.659	66.247	-92.292	-134.657	159.271	20.960	11.319	39.147	-56.390	12.058	-152.163	0.00020003	0.0002699	8.8575e-05	510.41	2.3315e-06	3.153e-06	442.07	180.96	2.4982e-06	2.2498e-06	147.96	51.871	57.176	23.771	3.6738e-06	22.626	0.00034248	0.00043494	0.0001266	537.98	4.5015e-06	5.2711e-06	467.53	191.82	5.0551e-06	5.0207e-06	156.88	55.35	61.036	25.586	5.0169e-06	24.376	-153.628	-72.696	-69.457	-153.989	-24.202	1.040	-155.810	-149.915	-63.794	0.028	-152.460	-148.516	-145.226	-139.401	-30.053	-143.656	-8191	255	
40281.895	1	1	0	0	0.38989	0.19315	0.032102	0.23553	0.074675	0.20179	0.10971	0.17418	0.27277	0.15025	0.24035	0.057494	0.18913	0.027824	0.12601	0.26107	-2.1292	-3.1604	-2.6417	-2.9042	-3.25	-2.3958	-3.2229	-2.8438	-2.5708	-3.3792	-2.525	-2.6708	-3.2083	-2.2958	-3.0708	-3.0333	-1.391	-145.315	-19.260	189.128	69.347	-76.172	79.573	127.962	-24.136	29.143	-156.003	21.903	66.387	182.799	20.171	82.317	0.00021744	0.00030633	4.0987e-05	505.76	1.9281e-06	2.7636e-06	438.73	178.34	2.4623e-06	1.7683e-06	145.07	51.021	56.138	23.581	1.3989e-06	22.453	0.00034626	0.00043717	0.00013194	535.57	4.5901e-06	5.3426e-06	463.66	189.66	5.1086e-06	4.7327e-06	153.92	54.406	60.331	25.352	5.0313e-06	24.037	-157.143	-101.188	-66.091	-153.838	-40.306	-36.165	-156.094	-149.783	-50.576	-28.345	-152.348	-148.370	-145.628	-139.255	-58.809	-143.632	-8191	255	
40281.992	1	1	0	0	0.15859	0.081082	0.16961	0.019142	0.068844	0.12914	0.26811	0.11423	0.030863	0.011264	0.086966	0.11182	0.14372	0.20582	0.2782	0.1455	-2.0729	-3.3542	-2.6354	-2.8229	-3.2667	-2.2938	-3.025	-2.8937	-2.5062	-3.3229	-2.7729	-2.5229	-3.2667	-2.4083	-2.9479	-3.3396	171.842	92.956	-11.144	-158.977	-128.275	16.267	145.755	24.147	182.396	84.159	87.775	8.925	-145.664	119.470	-66.397	125.226	0.00019581	0.00023295	7.0416e-05	505.98	2.2082e-06	2.7512e-06	435.69	177.69	2.4409e-06	1.9978e-06	143.07	50.491	55.879	23.491	2.7758e-06	22.348	0.00034248	0.00045087	0.00012736	533.23	4.4856e-06	5.3104e-06	460.71	188.52	4.9336e-06	4.9294e-06	152.21	53.895	59.932	25.293	4.8962e-06	24.037	-156.235	-71.297	-93.559	-154.043	-57.181	-23.734	-156.028	-150.028	-54.778	-30.858	-152.420	-148.708	-145.402	-139.546	-54.923	-143.443	-8191	255	
40282.086	1	1	0	0	0.14037	0.1134	0.14291	0.11167	0.17681	0.30099	0.14226	0.27022	0.12937	0.089886	0.17542	0.064533	0.20537	0.052297	0.14597	0.19194	-2.1042	-3.2958	-2.6521	-2.7583	-3.2667	-2.2917	-3.0542	-3.2479	-2.3875	-3.2021	-2.8667	-2.5104	-3.25	-2.5396	-2.875	-3.0229	-43.830	46.468	38.447	111.719	158.450	26.393	-54.332	76.686	-62.231	47.049	137.265	-18.623	92.866	33.922	64.378	69.180	0.00019981	0.00020963	3.2627e-05	507.23	1.9208e-06	2.4395e-06	435.36	178.06	2.5057e-06	1.2979e-06	145.24	50.847	56.407	23.551	1.1971e-06	22.523	0.00034499	0.00043375	0.00013026	534.41	4.4909e-06	5.1948e-06	460.77	189.21	5.1189e-06	4.9396e-06	154.05	54.469	60.432	25.337	4.9824e-06	24.198	-156.181	-98.974	-59.868	-153.959	-0.981	-36.335	-155.901	-149.847	-64.032	-40.716	-152.383	-149.157	-145.255	-139.463	-9.204	-143.546	-8191	255	
40282.207	1	1	0	0	0.080222	0.07247	0.26947	0.0038359	0.11935	0.24492	0.034516	0.046244	0.19204	0.081195	0.050502	0.19954	0.13795	0.18448	0.031444	0.17542	-1.9062	-3.1937	-2.7479	-2.4333	-3.1937	-2.5187	-2.7938	-3.2479	-2.3833	-3.1854	-3.0583	-2.3271	-3.3875	-2.6917	-2.725	-3.4375	-7.886	94.944	119.648	99.273	148.667	124.289	137.876	-143.945	188.337	183.253	109.580	-138.322	124.508	22.038	96.357	-49.656	0.00019847	0.00027473	9.0058e-05	506.84	1.4765e-06	1.5252e-06	436.99	178.26	2.8453e-06	1.7529e-06	145.6	50.746	56.409	23.541	2.0708e-06	22.738	0.0003434	0.00046952	0.00013133	533.79	4.6477e-06	5.1406e-06	461.89	189.27	5.1916e-06	5.1143e-06	154.63	54.47	60.441	25.298	5.1398e-06	24.281	-158.158	-79.459	-54.732	-154.050	-45.975	-16.022	-155.820	-149.840	-48.616	-24.136	-152.146	-149.151	-144.969	-139.247	-18.037	-143.521	-8191	255	
40282.305	1	1	0	0	0.24942	0.19258	0.090716	0.28295	0.20096	0.18462	0.27074	0.2044	0.085886	0.087118	0.14837	0.2127	0.1289	0.1798	0.43485	0.031943	-1.775	-3.0312	-2.9229	-2.4667	-3.3667	-2.7375	-2.7396	-3.3896	-2.4771	-3.1771	-3.1854	-2.3312	-3.2104	-2.6229	-2.5542	-3.3542	109.060	33.227	135.133	-38.289	73.363	190.395	80.666	28.882	61.329	-76.927	-149.197	101.888	13.470	151.570	-24.441	143.594	0.00019251	0.00028413	4.2022e-05	504.26	1.6579e-06	2.0998e-06	436.29	177.91	1.5029e-06	2.4481e-06	143.42	50.39	55.437	23.297	1.4694e-06	22.278	0.00035119	0.00046337	0.00013307	531.45	4.6007e-06	4.9676e-06	461.21	188.52	5.0887e-06	5.1631e-06	152.13	53.809	59.63	25.062	5.1469e-06	23.793	-154.297	-88.922	-66.024	-153.922	-10.465	21.567	-155.861	-149.748	-49.435	2.291	-152.253	-148.753	-144.972	-139.480	-31.317	-143.416	-8191	255	
40282.398	1	1	0	0	0.067399	0.033394	0.10271	0.11414	0.19731	0.087697	0.12771	0.16	0.17402	0.038219	0.13603	0.2191	0.11411	0.30884	0.14347	0.23295	-1.9167	-2.8271	-3.1354	-2.4708	-3.2646	-2.7333	-2.575	-3.4188	-2.3896	-2.7479	-3.1708	-2.3187	-3.1312	-2.9521	-2.4521	-3.1604	26.072	-111.742	121.244	-135.129	-82.008	98.167	124.840	-5.760	-51.595	-44.851	164.457	-51.741	-72.927	19.712	107.037	63.245	0.00020494	0.00024698	7.4961e-05	502.43	3.7979e-07	2.8315e-07	431.84	175.03	1.9991e-06	2.1876e-06	141.3	49.184	54.725	22.943	1.4384e-06	21.896	0.0003386	0.00047189	0.0001255	529.15	4.5954e-06	5.1202e-06	455.51	185.3	5.0853e-06	5.2363e-06	149.01	52.625	58.571	24.721	5.2181e-06	23.482	-154.806	-80.207	-66.659	-153.926	-39.589	27.226	-155.872	-149.657	-70.648	-42.726	-152.508	-148.910	-145.155	-139.239	-65.521	-143.407	-8191	255	
40282.473	1	1	0	0	0.19701	0.15025	0.13761	0.027936	0.13107	0.12232	0.1214	0.097053	0.13769	0.21259	0.13506	0.18115	0.19001	0.078446	0.20821	0.10663	-2.2396	-2.7417	-3.1896	-2.3229	-3.0354	-2.9542	-2.4354	-3.3896	-2.6437	-2.6813	-3.1958	-2.4917	-2.9708	-2.9396	-2.4542	-3.4417	178.621	-2.571	58.709	-125.115	-40.922	-15.224	9.074	-79.061	105.829	78.859	116.166	2.867	-95.729	-53.780	-19.785	160.437	0.00017898	0.00013368	7.0679e-05	500.58	1.406e-06	2.2319e-06	427.86	172.94	2.5003e-06	2.5753e-06	140.16	48.884	54.556	22.892	1.3935e-06	21.868	0.00034111	0.00045673	0.000122	525.99	4.5306e-06	5.1673e-06	453.3	183.46	5.066e-06	5.2111e-06	148.26	52.437	58.35	24.605	5.2059e-06	23.523	-158.446	-100.388	-75.134	-154.256	-35.689	-27.503	-155.939	-149.643	-61.779	-26.930	-152.077	-148.835	-145.113	-139.235	-29.948	-143.496	-8191	255	
40282.566	1	1	0	0	0.099778	0.030285	0.1593	0.057563	0.026188	0.0825	0.18727	0.24893	0.16873	0.19692	0.20745	0.19887	0.16012	0.1756	0.13837	0.08339	-2.2938	-2.4604	-3.3187	-2.3333	-2.9833	-3.1771	-2.2625	-3.25	-2.8438	-2.7313	-3.2271	-2.3812	-3.0771	-3.2417	-2.4583	-3.3771	80.695	-13.110	57.800	-89.257	12.853	-139.462	-3.889	121.302	-48.400	-56.022	-164.679	121.854	136.058	161.373	31.650	145.002	0.00017963	0.00022697	7.1451e-05	498.26	1.6337e-06	5.8556e-07	430.93	172.47	1.7647e-06	6.1536e-07	141.07	49.333	54.488	22.832	1.9924e-06	22.085	0.0003432	0.00048056	0.00012389	525.3	4.5835e-06	5.0455e-06	453.43	183.59	5.0001e-06	5.2331e-06	149.36	52.78	58.526	24.643	5.1024e-06	23.719	-153.719	-85.405	-61.263	-154.102	-19.631	-36.107	-155.731	-149.949	-42.616	7.511	-152.247	-148.703	-145.102	-139.140	-29.473	-143.617	-8191	255	
40282.688	1	1	0	0	0.20895	0.1544	0.13133	0.14672	0.12835	0.046784	0.10623	0.1407	0.062782	0.25475	0.27371	0.14491	0.14307	0.20968	0.19507	0.12103	-2.3729	-2.2521	-3.4333	-2.3896	-2.8563	-3.0667	-2.2958	-3.1396	-2.6917	-2.3333	-3.2583	-2.3458	-2.6958	-3.1708	-2.3792	-3.0667	-146.741	-38.909	-1.414	45.656	-15.209	124.259	-164.959	-124.544	-116.843	-127.232	73.671	103.844	100.136	-63.929	87.000	-58.546	0.00019409	0.00029693	6.3807e-05	498.29	1.4129e-06	2.183e-06	430.4	173.75	3.1177e-06	3.4986e-06	140.61	49.233	54.427	22.769	1.7061e-06	21.845	0.00034176	0.00046924	0.00012921	525.09	4.7126e-06	4.9283e-06	453.98	184.38	5.0619e-06	5.3732e-06	149.14	52.682	58.4	24.52	5.0378e-06	23.454	-154.920	-79.656	-76.763	-153.944	-32.032	-12.487	-155.514	-149.704	-52.340	-13.420	-151.899	-148.589	-145.039	-139.176	-56.040	-143.146	-8191	255	
40282.781	1	1	0	0	0.15388	0.081591	0.13391	0.15814	0.071679	0.098719	0.088853	0.20624	0.051508	0.016493	0.17803	0.32354	0.27261	0.119	0.30496	0.156	-2.5896	-2.4437	-3.3896	-2.6042	-2.7354	-3.2646	-2.3792	-3.2188	-3.1104	-2.3292	-3.25	-2.5667	-2.5208	-3.2708	-2.4458	-2.9917	174.323	-94.468	-93.659	135.909	53.187	-13.676	124.087	189.164	-60.305	-70.835	37.764	120.712	183.874	143.184	174.435	148.886	0.00019007	0.00017825	6.1477e-05	496.4	2.031e-06	3.4502e-06	427.89	171.69	2.1472e-06	2.344e-06	138.6	48.948	53.931	22.873	2.0444e-06	21.81	0.00033423	0.00048782	0.00012502	523.95	4.79e-06	4.9283e-06	451.7	182.86	4.8052e-06	5.3598e-06	147.42	52.285	58.05	24.555	5.1161e-06	23.447	-153.640	-88.910	-86.709	-154.073	-47.873	-35.354	-155.859	-149.709	-39.157	-0.211	-152.225	-148.635	-144.895	-139.064	-30.460	-143.432	-8191	255	
40282.879	1	1	0	0	0.18946	0.17894	0.1549	0.14153	0.15848	0.31325	0.043791	0.018171	0.21471	0.061011	0.17214	0.25964	0.23756	0.076483	0.047078	0.33685	-2.7542	-2.3417	-3.2896	-2.7583	-2.3958	-3.2313	-2.4146	-2.8396	-3.0208	-2.5312	-3.3146	-2.8542	-2.575	-3.5042	-2.4708	-2.7417	-18.834	48.442	21.000	122.012	171.221	-160.722	86.366	13.752	71.657	67.789	150.063	78.572	-153.877	188.502	156.878	152.161	0.00018986	0.00016965	8.9256e-05	496.81	1.4813e-06	1.8725e-06	427.33	172.5	2.8795e-06	1.8648e-06	139.94	48.975	54.313	22.897	2.0817e-06	21.952	0.00033231	0.00047839	0.00012808	523.71	4.9257e-06	4.981e-06	451.42	183.18	4.7887e-06	5.3071e-06	148.13	52.397	58.219	24.673	5.3912e-06	23.537	-153.995	-84.009	-79.654	-154.003	-2.622	-33.799	-155.816	-149.662	-18.896	13.955	-152.566	-148.850	-145.118	-138.871	-17.731	-143.149	-8191	255	
40282.977	1	1	0	0	0.055409	0.28814	0.099809	0.4086	0.30945	0.28269	0.11944	0.23925	0.048283	0.090732	0.25153	0.099377	0.13821	0.17795	0.091357	0.15966	-2.8271	-2.3958	-3.1875	-3.0667	-2.3771	-3.4625	-2.4938	-2.7833	-3.1917	-2.2521	-3.0979	-2.85	-2.5521	-3.1708	-2.5396	-2.6354	91.577	136.864	76.619	107.839	58.030	-138.598	91.567	-167.469	-57.418	105.782	10.602	-51.741	89.240	98.243	11.427	189.727	0.00020796	0.00021862	3.0273e-05	497.79	1.7996e-06	1.1974e-06	432.15	173.17	2.1743e-06	1.5526e-06	140.29	49.269	54.719	22.977	2.4368e-06	22.032	0.00033932	0.00049215	0.00012743	525.21	4.9826e-06	5.0667e-06	454.72	184.1	4.8931e-06	5.278e-06	149.15	52.638	58.505	24.696	5.2087e-06	23.712	-154.190	-94.723	-74.175	-153.932	-30.994	-11.546	-156.116	-149.752	-57.054	-31.437	-152.102	-148.787	-144.786	-138.938	-52.021	-143.066	-8191	255	
40283.094	1	1	0	0	0.13596	0.22339	0.066645	0.092464	0.12228	0.25542	0.24033	0.34488	0.1621	0.08653	0.17736	0.30323	0.17904	0.21011	0.25195	0.096426	-2.9417	-2.3896	-3.0021	-3.0875	-2.3167	-3.2167	-2.6792	-2.8021	-3.3187	-2.3875	-3.1417	-2.9958	-2.4167	-3.1813	-2.6979	-2.7042	-77.434	-24.189	-123.162	43.941	83.605	-80.952	120.663	151.426	-145.512	25.520	5.819	155.081	-67.529	158.108	-37.764	162.178	0.00019971	0.00027502	8.1116e-05	501.16	1.7299e-06	3.0569e-06	431.5	174.74	1.7138e-06	1.5508e-06	142.41	49.585	54.909	22.949	1.6411e-06	21.931	0.00032817	0.00047853	0.00013644	526.73	4.9508e-06	4.9519e-06	455.61	185.19	4.81e-06	5.3118e-06	150.5	52.97	58.904	24.659	5.3057e-06	23.549	-155.359	-92.214	-78.575	-154.039	-36.024	-28.017	-156.156	-149.870	-24.130	-11.183	-152.397	-148.477	-145.214	-139.080	-37.185	-142.951	-8191	255	
40283.168	1	1	0	0	0.15409	0.17109	0.18116	0.086604	0.049711	0.13329	0.18642	0.099325	0.092334	0.088077	0.16327	0.20159	0.1455	0.090565	0.066112	0.15258	-3.0687	-2.2875	-2.9896	-3.3604	-2.3542	-3.225	-2.7583	-2.575	-3.425	-2.4667	-3.0271	-3.2229	-2.3312	-3.1958	-2.9354	-2.5438	-140.811	-24.375	122.096	-162.967	6.084	-64.507	106.165	146.151	113.722	169.763	188.411	179.395	-110.236	38.342	44.926	113.768	0.00019421	0.00027852	4.7059e-05	500.4	9.649e-07	1.5704e-06	428.95	171.73	2.5629e-06	9.6059e-07	138.4	48.707	54.101	22.705	1.9589e-06	21.67	0.0003403	0.00048796	0.00012876	526.1	4.9449e-06	5.0604e-06	452.94	182.92	4.8141e-06	5.4071e-06	147.32	52.108	57.88	24.489	5.1857e-06	23.336	-153.902	-102.636	-84.255	-153.875	-53.821	-12.845	-155.646	-149.656	-37.971	-28.214	-151.935	-148.808	-144.766	-138.927	-77.067	-143.261	-8191	255	
40283.289	1	1	0	0	0.060246	0.24484	0.2333	0.23354	0.15524	0.16234	0.048664	0.085301	0.19635	0.14191	0.10512	0.26817	0.21614	0.14966	0.21594	0.052206	-3.0271	-2.6167	-2.6729	-3.2583	-2.4458	-3.1292	-2.9042	-2.4479	-3.3521	-2.4875	-2.65	-3.3646	-2.4062	-3.0917	-2.8417	-2.4896	139.040	144.910	-64.877	177.085	6.281	-74.807	103.559	-13.223	-130.841	158.412	-119.295	117.108	-111.082	-32.010	-43.507	135.614	0.00019687	0.00021497	5.0702e-05	496.73	1.224e-06	1.0924e-06	426.48	170.49	2.4518e-06	2.2929e-06	137.41	48.245	53.303	22.588	2.2499e-06	21.675	0.00032677	0.00047539	0.00013028	522.82	4.829e-06	5.0691e-06	449.93	180.91	4.9226e-06	5.2261e-06	145.6	51.61	57.296	24.37	5.0169e-06	23.311	-156.578	-75.272	-64.095	-154.069	-10.938	-31.256	-155.773	-149.701	-34.080	-58.691	-152.097	-148.720	-144.780	-138.933	-48.157	-143.341	-8191	255	
40283.383	1	1	0	0	0.10182	0.039649	0.1333	0.22066	0.31113	0.096635	0.30325	0.19062	0.15546	0.35012	0.17647	0.21181	0.23899	0.20633	0.094083	0.10026	-3.1021	-2.6708	-2.5938	-3.4292	-2.3708	-2.9833	-3.1396	-2.2729	-3.1688	-2.5938	-2.5146	-3.5667	-2.4646	-2.8729	-3.1229	-2.3896	87.366	-2.606	112.291	136.445	63.194	97.112	160.032	52.381	-116.059	-149.467	6.945	-78.630	-49.174	23.538	-155.076	-96.391	0.00019885	0.00022537	4.9153e-05	495.33	2.2419e-06	1.664e-06	423.25	169.35	1.6386e-06	3.4061e-06	137.16	47.907	53.233	22.677	1.6988e-06	21.892	0.00032559	0.0004918	0.00013515	521.3	5.0838e-06	5.2978e-06	448.14	180.33	4.8855e-06	5.3921e-06	145.49	51.427	57.191	24.336	5.0888e-06	23.353	-156.148	-76.083	-77.352	-153.950	-36.898	-28.158	-155.664	-149.607	-56.383	-0.234	-152.017	-148.689	-144.880	-139.018	-48.436	-143.008	-8191	255	
40283.480	1	1	0	0	0.11475	0.088531	0.12122	0.22606	0.07959	0.049276	0.13886	0.15086	0.096291	0.21033	0.21211	0.32503	0.079856	0.22761	0.20917	0.41703	-2.9271	-2.6875	-2.5521	-3.2021	-2.3958	-2.8521	-3.0771	-2.4896	-3.2042	-2.8438	-2.4938	-3.2833	-2.4708	-2.6958	-3.1104	-2.2354	71.845	151.350	-42.020	23.302	189.786	113.411	-154.619	166.447	2.361	158.899	69.385	133.134	-149.743	174.655	63.093	157.283	0.00019789	0.00020523	8.2212e-05	493.85	1.5955e-06	1.9205e-06	423.78	170.54	2.0827e-06	2.2667e-06	137.16	47.871	53.211	22.619	2.5133e-06	21.629	0.00034754	0.00048461	0.00013936	520.86	4.8549e-06	5.275e-06	447.93	180.15	4.9507e-06	5.3614e-06	145.85	51.376	57.106	24.277	5.2727e-06	23.299	-158.589	-82.187	-77.949	-153.713	-14.349	-3.929	-155.975	-149.856	-66.122	-28.048	-152.171	-148.620	-144.936	-138.882	-48.613	-143.204	-8191	255	
40283.574	1	1	0	0	0.35434	0.11172	0.10687	0.047062	0.13034	0.21089	0.17541	0.18878	0.077634	0.1864	0.26172	0.30388	0.22576	0.27239	0.16866	0.19314	-2.6521	-2.6312	-2.15	-3.1833	-2.5229	-2.6542	-3.3937	-2.4854	-3.1813	-3.1083	-2.2146	-3.1979	-2.6646	-2.6833	-3.3125	-2.3563	-45.504	-0.464	73.240	48.551	65.519	-153.195	108.292	87.837	77.358	157.898	-125.561	-104.787	-58.907	56.398	-72.786	95.888	0.00018627	0.00033563	5.9047e-05	493.73	1.205e-06	2.241e-06	421.92	168.47	2.2925e-06	1.7623e-06	135.31	47.496	52.872	22.272	2.0586e-06	21.265	0.00034183	0.00048622	0.00014067	519.53	4.9329e-06	5.3922e-06	445.64	178.83	5.0132e-06	5.3795e-06	144.04	50.909	56.528	24.007	5.0126e-06	22.916	-153.126	-69.113	-85.251	-153.945	-43.788	-21.625	-155.722	-149.925	-26.410	9.541	-152.429	-148.463	-144.771	-138.911	-46.355	-143.099	-8191	255	
40283.695	1	1	0	0	0.18145	0.05515	0.19153	0.35456	0.15213	0.045372	0.038202	0.23097	0.18587	0.097536	0.04352	0.22754	0.093194	0.19874	0.039885	0.20576	-2.6396	-2.8792	-2.5396	-3.2646	-2.7604	-2.6458	-3.4417	-2.5354	-2.9604	-3.0729	-2.4479	-3.2521	-2.7979	-2.4542	-3.3521	-2.4958	-30.126	17.273	-52.634	-124.096	121.379	174.108	82.064	-99.136	40.413	92.421	161.415	153.482	1.851	177.608	-88.977	-136.195	0.00017972	0.0003174	7.0978e-05	490.99	1.8669e-06	1.2263e-06	422.02	166.92	2.2635e-06	1.5444e-06	133.26	47.286	52.056	22.028	1.5859e-06	21.236	0.00033726	0.00048789	0.00013997	516.6	4.8436e-06	5.3662e-06	443.78	177.35	5.2061e-06	5.2418e-06	141.88	50.362	55.875	23.814	4.9573e-06	22.845	-156.177	-88.106	-83.813	-153.855	-11.427	-9.635	-155.838	-149.694	-19.388	-33.169	-152.176	-148.763	-144.895	-138.715	-26.727	-143.090	-8191	255	
40283.770	1	1	0	0	0.19746	0.077912	0.077937	0.070488	0.087271	0.10103	0.047018	0.17055	0.19529	0.12718	0.30546	0.16171	0.086606	0.0050158	0.29524	0.22005	-2.4979	-3.0083	-2.3187	-3.2396	-2.6958	-2.5792	-3.3667	-2.4375	-2.6562	-3.125	-2.4813	-3.0875	-2.925	-2.3354	-3.3604	-2.6708	-129.648	134.052	52.760	-143.935	-17.717	10.143	72.652	-146.383	41.553	46.349	138.498	-123.906	-28.119	99.343	146.738	150.432	0.00020407	0.00018237	2.6279e-05	488.38	9.7287e-07	2.0392e-06	418.87	166.22	2.5548e-06	1.2754e-06	134.93	47.404	52.231	22.022	1.478e-06	21.348	0.00033736	0.00045911	0.00013457	514.16	4.7728e-06	5.4818e-06	441.9	176.55	5.0118e-06	5.0466e-06	142.93	50.677	56.016	23.723	5.0026e-06	22.929	-155.023	-53.567	-116.877	-153.807	-40.343	-10.578	-156.000	-149.594	-59.026	16.726	-151.906	-148.566	-144.705	-138.654	-34.032	-143.016	-8191	255	
40283.863	1	1	0	0	0.21176	0.12811	0.30433	0.10515	0.22884	0.13761	0.44775	0.25907	0.14693	0.073955	0.077064	0.13839	0.34765	0.095693	0.18734	0.037148	-2.2729	-3.35	-2.3979	-3.2208	-2.9208	-2.4167	-3.1396	-2.8417	-2.5854	-3.2812	-2.3958	-2.9771	-3.1167	-2.2771	-3.2313	-2.7208	62.110	26.961	118.517	-92.387	189.377	71.052	127.951	41.021	-28.634	-116.255	108.650	106.044	109.629	144.304	182.272	-92.319	0.0001848	0.00024593	8.2499e-05	488.07	2.2901e-06	2.4089e-06	420.58	165.57	1.8781e-06	2.6566e-06	136.09	47.507	52.291	21.865	3.4041e-06	21.445	0.00034395	0.00046086	0.00013445	514.31	4.7013e-06	5.4307e-06	442.5	176.24	5.0894e-06	5.263e-06	143.52	50.766	55.971	23.638	5.2181e-06	22.944	-154.243	-67.478	-93.000	-153.842	-20.158	-0.351	-155.770	-149.762	-46.318	15.242	-151.964	-148.387	-144.892	-138.637	-41.686	-143.183	-8191	255	
40283.984	1	1	0	0	0.24301	0.16499	0.20718	0.19048	0.18458	0.20815	0.083627	0.26166	0.14809	0.20946	0.10557	0.3061	0.15286	0.055551	0.041337	0.11844	-2.3146	-3.3833	-2.3542	-2.9646	-3.0875	-2.3229	-3.2625	-2.8792	-2.4958	-3.3187	-2.5458	-2.9208	-3.1167	-2.3708	-3.3521	-3.025	24.924	190.031	189.247	-165.313	-122.190	116.393	29.633	164.533	-64.179	-30.108	-77.629	166.462	157.716	-127.327	-150.208	168.254	0.00018783	0.00021499	9.7972e-05	487.35	9.477e-07	2.5693e-07	419.58	165.41	1.0771e-06	1.9806e-06	135.37	47.202	51.98	21.911	1.2837e-06	21.194	0.00034943	0.00048216	0.00013928	512.78	4.9124e-06	5.2907e-06	441.59	175.75	5.2301e-06	5.2505e-06	142.87	50.49	55.71	23.603	5.0737e-06	22.739	-156.425	-77.380	-84.264	-153.818	-7.043	57.153	-155.796	-149.485	-17.365	-0.769	-152.437	-148.589	-144.953	-138.561	-35.030	-142.873	-8191	255	
40284.078	1	1	0	0	0.03141	0.19965	0.098943	0.057943	0.15058	0.097681	0.19179	0.054471	0.070173	0.025295	0.12522	0.24364	0.25738	0.19507	0.19348	0.17695	-2.225	-3.3604	-2.4188	-2.8125	-3.1417	-2.425	-3.1667	-2.9042	-2.5604	-3.2833	-2.4583	-2.6292	-3.1771	-2.2396	-3.1937	-3.0271	86.866	-104.008	-75.617	56.023	6.074	-88.840	-61.706	-132.438	-140.773	-23.866	-16.927	-39.534	-75.909	177.090	-45.152	127.753	0.00019288	0.00027764	7.1646e-05	484.68	1.3883e-06	2.1943e-06	415.77	164.84	2.5247e-06	2.3075e-06	133.01	46.618	51.64	21.85	2.4554e-06	21.278	0.00034705	0.00046617	0.00013932	510.63	4.7113e-06	5.4676e-06	438.12	174.27	5.1903e-06	5.3661e-06	140.62	49.892	55.251	23.556	5.1067e-06	22.769	-158.037	-87.209	-78.549	-153.962	-33.665	-23.720	-155.729	-149.521	-68.712	-8.673	-152.392	-148.692	-144.910	-138.620	-52.802	-143.122	-8191	255	
40284.176	1	1	0	0	0.20136	0.14955	0.37897	0.23339	0.12404	0.066477	0.2012	0.17809	0.20836	0.11227	0.073054	0.3226	0.14477	0.26096	0.17124	0.24902	-2.1562	-3.2687	-2.4292	-2.7021	-3.2333	-2.4125	-2.9375	-3.0021	-2.3583	-3.0833	-2.8312	-2.6	-3.3979	-2.3167	-2.9104	-3.0229	130.031	-119.922	-118.444	-129.772	-22.518	-155.926	150.258	175.633	-151.478	-22.308	131.272	-155.240	78.066	153.191	-159.582	-6.883	0.00019281	0.00028182	5.8735e-05	485.89	1.5555e-06	1.76e-06	415.31	163.47	2.6922e-06	1.7502e-06	132.46	46.765	51.685	21.801	1.8359e-06	21.166	0.00034979	0.000467	0.000137	510.71	4.6868e-06	5.5871e-06	437.29	173.69	5.147e-06	5.0569e-06	140.4	49.84	55.159	23.528	5.2274e-06	22.751	-153.159	-68.205	-79.137	-154.054	-22.552	-54.840	-155.941	-150.000	-34.632	-28.187	-152.501	-148.594	-144.879	-138.892	-20.892	-142.947	-8191	255	
40284.273	1	1	0	0	0.13584	0.085875	0.21107	0.22075	0.1711	0.12324	0.11493	0.17836	0.11806	0.18835	0.26293	0.057769	0.11114	0.28618	0.084771	0.17666	-2.025	-3.1562	-2.6583	-2.5625	-3.3438	-2.6333	-2.9458	-3.0938	-2.4313	-3.3187	-2.8417	-2.4062	-3.3542	-2.4646	-2.7625	-3.2812	130.372	-138.988	-63.798	90.349	91.407	-49.650	-36.662	79.750	-107.473	107.319	170.801	-156.030	152.570	-152.236	-125.420	22.349	0.00018685	0.00016853	3.4066e-05	484.35	1.6948e-06	1.6212e-06	416.43	163.85	2.9451e-06	2.0502e-06	132.87	46.977	51.471	21.863	1.579e-06	21.217	0.00035376	0.00048209	0.00013482	509.97	4.8238e-06	5.2766e-06	438.51	174	5.215e-06	5.145e-06	141.11	50.089	55.292	23.529	5.2123e-06	22.827	-154.007	-107.843	-60.134	-153.809	-2.844	-6.974	-155.845	-149.737	-55.770	-15.590	-152.254	-148.445	-144.917	-138.664	-50.420	-143.333	-8191	255	
40284.367	1	1	0	0	0.35681	0.037933	0.17881	0.16614	0.23604	0.2635	0.17418	0.11944	0.22843	0.094568	0.16828	0.14843	0.22739	0.24188	0.078547	0.025268	-1.9312	-3.1688	-2.7938	-2.5375	-3.2229	-2.6688	-2.7687	-3.2333	-2.2854	-2.9875	-2.9062	-2.2646	-3.3583	-2.5417	-2.5771	-3.2208	-94.951	15.742	54.823	121.350	72.269	-116.993	-132.634	-89.363	128.209	-5.587	188.977	-31.103	142.616	70.945	31.575	39.693	0.0002016	0.00020444	2.9451e-05	483.55	1.8188e-06	1.7728e-06	414.25	164.46	1.9714e-06	1.2078e-06	133.27	46.498	51.373	21.76	1.0832e-06	21.032	0.00034953	0.00048831	0.0001348	509.79	4.8741e-06	5.4786e-06	438.17	174.38	5.1649e-06	5.4181e-06	141.11	50.005	55.107	23.448	5.4846e-06	22.645	-155.076	-63.090	-67.669	-153.905	-40.500	24.999	-155.544	-149.848	-51.597	-54.067	-152.113	-148.335	-144.584	-138.721	-39.843	-143.041	-8191	255	
40284.465	1	1	0	0	0.077445	0.069857	0.22954	0.18583	0.07074	0.12238	0.089629	0.37539	0.18295	0.11474	0.2534	0.16321	0.11015	0.15996	0.024245	0.2851	-1.9875	-2.9271	-2.9792	-2.2875	-3.2417	-2.7062	-2.6437	-3.2562	-2.6375	-3.0042	-3.2083	-2.175	-3.2458	-2.7146	-2.4938	-3.3292	130.448	-66.693	-70.579	114.243	-105.958	-33.532	-83.891	186.727	83.637	66.449	86.687	-75.410	-107.574	24.506	56.157	108.530	0.00018462	0.00025985	4.2642e-05	479.12	1.0451e-06	1.3545e-06	410.76	161.73	1.5447e-06	2.1614e-06	130.1	46.175	50.65	21.747	1.216e-06	20.804	0.00035422	0.00047092	0.00013297	506.32	4.6484e-06	5.4252e-06	433.99	171.66	5.3296e-06	5.3811e-06	138.58	49.175	54.378	23.256	5.5657e-06	22.363	-157.173	-59.766	-56.469	-153.898	-23.282	-6.850	-155.843	-149.643	-56.136	-27.290	-152.039	-147.995	-144.575	-138.403	-40.366	-142.625	-8191	255	
40284.559	1	1	0	0	0.085959	0.085391	0.028753	0.22242	0.22857	0.096492	0.19166	0.13352	0.27683	0.18725	0.11681	0.21618	0.063334	0.30496	0.12715	0.18641	-2.0396	-2.7396	-3.0792	-2.4396	-3.1937	-2.9625	-2.625	-3.1458	-2.3875	-2.7729	-3.1	-2.5229	-3.2458	-2.8875	-2.3646	-3.4896	-7.577	-149.128	90.515	-90.765	95.832	-66.487	122.305	155.433	-69.714	-111.663	-39.120	-53.511	29.941	56.811	-96.413	113.244	0.000189	0.00028072	6.284e-05	478.41	1.4301e-06	1.4325e-06	411.49	160.41	1.918e-06	1.3684e-06	129.87	45.876	50.492	21.498	3.0063e-06	21.005	0.00035354	0.00049662	0.00013484	503.98	4.6696e-06	5.4606e-06	432.13	170.68	5.3914e-06	5.3842e-06	137.92	49.063	54.277	23.216	5.4285e-06	22.477	-151.725	-75.778	-111.904	-153.798	-16.090	-36.778	-155.426	-149.536	-31.734	-45.795	-152.334	-148.535	-144.728	-138.698	-37.475	-142.922	-8191	255	
40284.656	1	1	0	0	0.17393	0.1755	0.15005	0.12745	0.050201	0.17082	0.24829	0.18965	0.16298	0.25359	0.16441	0.15847	0.2464	0.17152	0.27277	0.16875	-2.2104	-2.6667	-3.1458	-2.275	-3.1354	-2.9042	-2.3875	-3.2604	-2.6604	-2.6146	-3.3917	-2.3604	-2.8458	-2.9708	-2.3333	-3.3521	123.481	-50.393	-5.550	-96.910	156.577	-19.183	191.798	170.349	119.488	-74.587	111.737	89.192	152.066	131.513	-109.712	-109.429	0.00018443	0.00026397	9.3512e-05	479.31	1.723e-06	1.3235e-06	410.41	161.35	2.2655e-06	2.091e-06	130.73	45.748	50.924	21.54	2.0493e-06	21.116	0.0003415	0.00051081	0.00013388	504.66	4.9303e-06	5.2247e-06	432.71	171.43	5.1402e-06	5.5896e-06	138.62	49.177	54.611	23.225	5.4113e-06	22.584	-153.826	-99.808	-72.819	-153.876	-0.923	-17.696	-155.475	-149.277	-61.993	-15.088	-151.903	-148.371	-144.456	-138.540	-21.840	-142.954	-8191	255	
40284.773	1	1	0	0	0.18596	0.16549	0.10479	0.31363	0.20515	0.24225	0.073777	0.035598	0.36126	0.2156	0.44772	0.074438	0.082162	0.13692	0.091763	0.23938	-2.3292	-2.4708	-3.2083	-2.3646	-2.85	-3.0854	-2.5312	-3.3563	-2.6312	-2.5729	-3.2896	-2.5083	-2.7562	-3.0563	-2.2313	-3.0521	84.940	182.750	-1.525	40.082	113.366	157.200	62.344	45.604	19.364	148.730	110.368	-113.754	87.711	40.299	-13.398	28.594	0.00018954	0.00017379	4.8294e-05	480.17	1.5306e-06	2.3614e-06	412.94	162.25	2.0909e-06	2.4832e-06	133.35	46.46	51.393	21.616	1.6971e-06	21.276	0.00034825	0.00049488	0.00013235	505.79	5.0097e-06	5.4047e-06	435.1	172.61	5.1045e-06	5.6203e-06	141.3	49.751	54.996	23.331	5.6512e-06	22.679	-150.987	-36.825	-79.967	-154.038	-27.915	-24.016	-155.554	-149.314	-56.981	-32.146	-152.041	-148.342	-144.541	-138.541	-55.400	-142.486	-8191	255	
40284.871	1	1	0	0	0.1319	0.15303	0.081396	0.26887	0.16098	0.30386	0.23252	0.1668	0.11958	0.0094601	0.12506	0.20589	0.36896	0.070895	0.11461	0.11966	-2.5208	-2.3292	-3.3917	-2.6312	-2.7292	-3.175	-2.55	-3.2062	-2.8292	-2.4292	-3.3896	-2.6708	-2.7417	-3.1875	-2.4437	-3.0521	43.390	84.745	71.489	-103.967	-114.693	-123.632	110.354	79.491	174.288	-38.030	-98.182	-127.018	-103.545	-158.409	-53.393	-68.008	0.00019081	6.5819e-05	7.5713e-05	481.26	2.7037e-06	2.0673e-06	412	162.5	2.692e-06	1.7501e-06	132	46.077	50.703	21.572	1.7237e-06	20.904	0.00034884	0.00052352	0.00013379	505.76	5.1533e-06	5.367e-06	433.89	172.41	5.0551e-06	5.7029e-06	139.68	49.293	54.542	23.263	5.4989e-06	22.465	-155.121	-138.325	-85.735	-153.891	-42.285	14.719	-155.782	-149.587	-43.726	-35.681	-152.475	-148.032	-144.612	-138.758	-38.632	-142.983	-8191	255	
40284.969	1	1	0	0	0.084623	0.23964	0.27268	0.10245	0.059435	0.17481	0.25657	0.12297	0.054854	0.18853	0.21384	0.14985	0.011417	0.14801	0.097678	0.48185	-2.7542	-2.3104	-3.1229	-2.6979	-2.5312	-3.3125	-2.3125	-3.1979	-3.0771	-2.2938	-3.3875	-2.6437	-2.5146	-3.275	-2.4167	-2.8833	-7.935	102.764	82.439	-114.003	111.089	148.434	-122.548	-125.634	158.698	71.628	103.428	-2.698	127.998	21.859	-21.779	176.247	0.0001908	0.00018585	5.3353e-05	478.46	6.0723e-07	2.4742e-06	408.16	161.71	1.8719e-06	3.1963e-06	130.63	46.24	50.748	21.617	2.4197e-06	21.073	0.00034851	0.00050501	0.00013741	504.37	5.0236e-06	5.3906e-06	431.54	171.4	5.0674e-06	5.6046e-06	138.3	49.119	54.481	23.276	5.4336e-06	22.592	-155.528	-65.730	-66.935	-153.613	-52.728	-25.618	-155.717	-149.519	-34.824	-7.308	-152.150	-148.456	-144.366	-138.754	-44.061	-142.928	-8191	255	
40285.062	1	1	0	0	0.195	0.20969	0.040402	0.12219	0.13408	0.15248	0.10989	0.058455	0.031069	0.38034	0.23215	0.0598	0.2116	0.18278	0.11636	0.41064	-2.65	-2.2667	-3.3917	-2.8042	-2.4271	-3.3583	-2.5583	-2.6958	-3.2	-2.4562	-3.1292	-2.9042	-2.4	-3.375	-2.6646	-2.8896	10.223	-110.380	188.804	-146.345	-86.210	166.055	177.376	158.898	-143.467	-108.539	135.476	43.528	169.220	62.808	92.795	-128.029	0.00019065	0.00033865	4.8059e-05	480.77	2.077e-06	3.1751e-06	412.67	162.84	2.122e-06	7.4193e-07	133.35	46.693	51.772	21.984	2.1222e-06	21.306	0.00033844	0.00053141	0.00013527	506.39	5.1434e-06	5.2939e-06	435.39	173.21	5.2088e-06	5.8643e-06	140.88	50.022	55.367	23.598	5.4314e-06	22.9	-157.332	-102.910	-137.930	-154.081	-56.770	-34.496	-155.859	-149.637	-53.871	7.929	-152.028	-148.384	-144.416	-138.821	-43.586	-143.115	-8191	255	
40285.160	1	1	0	0	0.1961	0.11988	0.29443	0.12219	0.073483	0.12002	0.072123	0.28484	0.14615	0.036793	0.18733	0.18208	0.083481	0.026445	0.10245	0.05446	-2.7667	-2.3125	-3.05	-2.8104	-2.4437	-3.3	-2.6229	-2.8688	-3.1875	-2.2375	-2.9042	-2.8958	-2.3187	-3.25	-2.6917	-2.575	-98.901	165.014	77.823	-146.804	-103.003	-39.903	-56.451	165.450	-74.198	142.212	-135.935	97.339	-151.535	27.346	-131.240	73.188	0.00018947	0.00025679	5.5684e-05	481.61	1.7658e-06	1.9074e-06	413.86	164.31	2.5722e-06	2.3467e-06	134.33	47.221	51.643	21.895	1.9636e-06	21.379	0.00034936	0.00052059	0.00013778	508.22	5.158e-06	5.2923e-06	438	174.25	5.2452e-06	5.6723e-06	142.26	50.481	55.578	23.649	5.4508e-06	22.985	-154.768	-90.160	-66.825	-153.847	-17.597	-30.381	-155.786	-149.187	-61.278	-21.107	-152.356	-148.499	-144.804	-138.729	-22.327	-142.668	-8191	255	
40285.258	1	1	0	0	0.22658	0.15509	0.07027	0.34573	0.13474	0.11577	0.15596	0.1897	0.093057	0.12417	0.21109	0.14409	0.15441	0.028333	0.31201	0.098917	-2.8833	-2.3625	-3.1771	-2.9625	-2.2771	-3.2708	-2.825	-2.7458	-3.5104	-2.4313	-2.8667	-3.0979	-2.4562	-3.1688	-2.8792	-2.5417	-130.027	-155.780	98.009	-157.221	172.436	-158.494	166.734	27.247	-37.781	90.255	-115.688	-4.716	98.241	78.197	-45.179	110.401	0.00020086	0.00027956	9.7472e-05	481.84	2.1755e-06	2.2778e-06	415.22	163.6	1.6164e-06	2.1689e-06	132.52	46.757	51.193	21.767	2.4814e-06	20.989	0.00034607	0.00051591	0.00014188	508.47	5.2837e-06	5.3599e-06	437.27	173.54	4.9645e-06	5.8832e-06	140.43	49.85	54.904	23.425	5.4616e-06	22.54	-157.413	-68.659	-91.353	-153.882	-75.453	-18.620	-155.852	-149.326	-65.611	-8.279	-152.183	-148.330	-144.761	-138.887	-22.957	-142.800	-8191	255	
40285.379	1	1	0	0	0.24309	0.20043	0.058647	0.2006	0.0943	0.020085	0.16828	0.051726	0.14922	0.19148	0.13874	0.037861	0.22346	0.23905	0.1715	0.066363	-2.8729	-2.3812	-2.6583	-3.1646	-2.3625	-3.1937	-2.9062	-2.3563	-3.3042	-2.4708	-2.8896	-3.1604	-2.2396	-3.1437	-2.9708	-2.3979	111.120	80.281	128.254	98.429	2.319	34.709	136.359	181.599	60.759	-62.849	-45.374	18.215	6.884	120.120	-142.967	21.579	0.00019466	0.00015048	7.5653e-05	478.66	2.1371e-06	2.1875e-06	410.94	162.23	1.8834e-06	2.5837e-06	130.82	45.862	50.853	21.652	1.0177e-06	20.919	0.00034509	0.00051046	0.00013615	505.14	5.0157e-06	5.312e-06	433.76	171.89	5.0942e-06	5.8218e-06	138.58	49.186	54.54	23.304	5.3811e-06	22.474	-152.810	-95.192	-92.185	-153.913	-45.584	-40.580	-155.968	-149.455	-27.430	-14.716	-152.107	-148.424	-144.476	-138.543	-46.403	-142.670	-8191	255	
40285.473	1	1	0	0	0.28592	0.20863	0.024982	0.18188	0.14503	0.11299	0.13851	0.22446	0.11021	0.13492	0.070577	0.24793	0.14191	0.19555	0.14504	0.09011	-2.7896	-2.5771	-2.6104	-3.1562	-2.3979	-3.0979	-3.0812	-2.4146	-3.3	-2.5812	-2.6729	-3.0979	-2.3229	-2.8875	-3.0438	-2.3917	174.978	124.704	-27.710	154.134	97.662	29.075	73.457	-166.119	137.350	111.022	-4.800	178.485	-52.995	78.645	115.506	45.121	0.00018173	0.00028338	6.4585e-05	479.47	8.7005e-07	3.0645e-06	409.96	161.13	1.6085e-06	2.5732e-06	131.01	45.847	50.855	21.646	1.6654e-06	20.948	0.00033453	0.00051234	0.00014201	504.65	5.0349e-06	5.4912e-06	433.57	171.32	5.0914e-06	5.603e-06	138.49	49.11	54.502	23.317	5.5119e-06	22.585	-157.948	-58.018	-67.030	-154.229	-81.262	-0.261	-155.928	-149.217	-42.396	-35.024	-152.215	-148.145	-144.620	-138.656	-38.611	-143.209	-8191	255	
40285.570	1	1	0	0	0.21126	0.22638	0.023176	0.28173	0.17372	0.099456	0.15814	0.16647	0.1871	0.18719	0.060286	0.019122	0.16217	0.11428	0.079819	0.028018	-2.8063	-2.6604	-2.5521	-3.1937	-2.4979	-2.9688	-3.1646	-2.4333	-3.2562	-2.6562	-2.5021	-3.2854	-2.5354	-2.9375	-3.0854	-2.3792	2.662	-157.127	173.038	141.241	154.489	131.158	86.559	88.606	155.583	9.021	-162.455	110.712	132.576	158.394	-68.128	-26.755	0.00018826	0.00015591	7.711e-05	479.49	2.4627e-06	6.7624e-07	410.49	161.75	2.3432e-06	1.3946e-06	131.26	46.113	50.94	21.565	2.1389e-06	21.045	0.00034499	0.00050116	0.00014535	505.25	5.3115e-06	5.4448e-06	433.81	171.69	4.9281e-06	5.5542e-06	139.26	49.462	54.64	23.291	5.4206e-06	22.657	-156.863	-70.599	-52.089	-153.986	-46.487	-38.005	-155.667	-149.538	-30.657	-13.234	-151.923	-148.510	-144.571	-138.480	-74.469	-142.922	-8191	255	
40285.664	1	1	0	0	0.18087	0.11507	0.097581	0.16507	0.11033	0.1024	0.25449	0.071505	0.043772	0.046958	0.30467	0.19978	0.084913	0.19546	0.23938	0.09338	-2.7896	-2.6542	-2.3833	-3.35	-2.4979	-2.8021	-3.1333	-2.3125	-3.2271	-3.0104	-2.3167	-3.3646	-2.575	-2.7313	-3.15	-2.2812	-114.622	-60.015	74.868	-94.892	-68.026	173.032	52.141	136.599	100.267	94.564	120.124	44.898	-65.213	153.418	118.624	22.404	0.00019786	0.0002431	7.8452e-05	479.5	1.3006e-06	2.1101e-06	412.57	162.78	2.6529e-06	2.7692e-06	133.35	46.216	51.067	21.699	2.1389e-06	21.072	0.00033834	0.00049558	0.00014262	505.74	5.1566e-06	5.5203e-06	435.29	172.5	5.1724e-06	5.4739e-06	140.63	49.782	54.841	23.34	5.1541e-06	22.598	-155.926	-83.649	-93.374	-154.069	-30.221	-23.771	-155.782	-149.302	-45.636	-23.587	-151.880	-148.184	-144.651	-138.496	-61.358	-143.130	-8191	255	
40285.762	1	1	0	0	0.059098	0.15968	0.15556	0.19048	0.16572	0.27645	0.20607	0.098194	0.18799	0.049815	0.10085	0.078041	0.21305	0.087356	0.18567	0.11911	-2.6937	-2.9208	-2.3104	-3.175	-2.2938	-2.6646	-3.3167	-2.3	-3.0833	-2.9958	-2.1937	-3.2938	-2.5812	-2.6521	-3.1583	-2.5125	148.713	138.535	-35.543	145.276	-83.082	-72.032	14.699	-76.117	90.416	82.013	-110.067	95.765	-10.047	-149.801	119.248	107.329	0.00019372	0.00017628	7.6554e-05	480.54	1.7746e-06	1.1598e-06	412.01	162.16	1.5474e-06	1.6983e-06	131.3	46.444	51.039	21.63	1.9737e-06	20.95	0.00034431	0.00049034	0.00014472	505.87	4.9773e-06	5.4723e-06	433.8	172.27	5.3358e-06	5.5164e-06	139.47	49.396	54.635	23.238	4.9695e-06	22.413	-156.045	-35.619	-68.422	-154.229	-43.936	12.317	-155.691	-149.341	-65.485	-31.936	-151.985	-148.030	-144.676	-138.590	-44.083	-142.917	-8191	255	
40285.855	1	1	0	0	0.17741	0.073618	0.061258	0.26531	0.12848	0.2337	0.48197	0.11816	0.17996	0.12586	0.16144	0.18879	0.019555	0.32016	0.1344	0.21238	-2.7875	-3.0917	-2.3542	-3.2604	-2.5729	-2.5833	-3.4833	-2.4688	-2.8396	-3.2667	-2.35	-3.0167	-2.8896	-2.4333	-3.1792	-2.5646	-138.924	65.903	163.217	108.638	-89.930	-159.455	-14.969	-113.519	131.570	-44.768	80.689	-31.637	105.511	170.396	12.979	36.918	0.00018525	0.00020953	3.4373e-05	479.76	1.1329e-06	1.6816e-06	409.65	161.2	7.367e-07	2.0237e-06	130.5	46.228	50.886	21.479	1.8507e-06	20.893	0.00035363	0.00048894	0.00014359	503.96	5.0574e-06	5.683e-06	432.1	171.18	5.1024e-06	5.2646e-06	138.41	49.252	54.457	23.197	5.0557e-06	22.479	-158.801	-63.441	-48.216	-153.683	-38.021	5.049	-155.772	-149.616	-59.699	-5.261	-152.069	-148.072	-144.881	-138.758	-35.030	-142.820	-8191	255	
40285.953	1	1	0	0	0.21889	0.20441	0.16365	0.073225	0.07081	0.087686	0.04827	0.26301	0.037909	0.10488	0.049229	0.19972	0.085429	0.20186	0.067658	0.12539	-2.4604	-3.1083	-2.2896	-3.1354	-2.9542	-2.4188	-3.2938	-2.5375	-2.8063	-3.1708	-2.3896	-2.8812	-2.7792	-2.5042	-3.2375	-2.4917	179.916	-49.335	69.829	-56.024	-116.738	-134.022	187.763	134.161	-41.647	-61.897	-149.943	67.781	-126.703	174.205	147.574	-114.222	0.0001845	0.00017878	6.9796e-05	478.01	1.9167e-06	2.3205e-06	411.01	162.28	2.1562e-06	2.0361e-06	132.99	46.636	51.35	21.547	1.5149e-06	20.989	0.00034799	0.00049362	0.00014404	504.61	4.9151e-06	5.7271e-06	434	172.38	5.3577e-06	5.4204e-06	140.71	49.865	54.957	23.239	5.2152e-06	22.629	-156.942	-98.403	-97.851	-153.880	-46.795	-45.324	-156.003	-149.445	-54.691	-37.142	-152.227	-148.368	-144.631	-138.599	-54.223	-142.493	-8191	255	
40286.074	1	1	0	0	0.0607	0.14698	0.2667	0.13022	0.184	0.075674	0.16154	0.099757	0.089788	0.18842	0.075444	0.22592	0.035171	0.29595	0.24515	0.13802	-2.3063	-3.2958	-2.2438	-3.0479	-3.0625	-2.2667	-3.2917	-2.7646	-2.6917	-3.2104	-2.4521	-2.875	-3.0208	-2.4604	-3.3104	-2.7896	69.722	-86.843	116.388	-122.812	-92.831	-9.640	127.143	-156.630	119.897	173.814	129.081	-131.788	29.339	145.886	-155.496	119.412	0.00020207	0.00024557	5.8224e-05	481.67	1.2767e-06	1.4994e-06	412.76	163.56	1.9072e-06	1.4079e-06	134.5	46.957	51.646	21.644	2.0345e-06	21.047	0.00035497	0.00049865	0.00014831	505.98	5.1024e-06	5.7365e-06	436.16	173.64	5.3385e-06	5.6132e-06	142.13	50.174	55.222	23.341	5.44e-06	22.618	-152.491	-59.011	-106.553	-153.945	-31.262	-27.097	-155.320	-149.622	-71.688	-27.283	-152.221	-148.044	-144.677	-138.354	-30.061	-142.861	-8191	255	
40286.168	1	1	0	0	0.17466	0.37791	0.076217	0.21776	0.33198	0.078888	0.22485	0.22729	0.1847	0.13405	0.23968	0.097554	0.15069	0.047639	0.18078	0.14842	-2.0333	-3.2042	-2.3625	-2.8833	-3.1562	-2.5292	-3.2875	-2.8812	-2.4333	-3.3	-2.4521	-2.7521	-3.1875	-2.3646	-3.1417	-2.8167	-2.115	141.969	189.076	109.121	138.648	74.561	-101.506	188.027	-84.590	-77.346	177.112	-59.597	45.719	-92.978	-103.478	122.896	0.00019171	0.00015434	6.9736e-05	480.22	1.1652e-06	1.5431e-06	411.2	162.65	7.0036e-07	3.2631e-06	132.16	46.221	51.214	21.546	1.7052e-06	20.979	0.00035797	0.00049041	0.00014492	506.45	4.9819e-06	5.7271e-06	434.71	172.76	5.333e-06	5.4732e-06	140.45	49.553	54.651	23.222	5.366e-06	22.441	-153.702	-60.807	-78.780	-153.716	-43.504	21.326	-155.695	-149.717	-57.068	-33.207	-152.264	-148.099	-144.624	-138.682	-32.722	-143.114	-8191	255	
40286.266	1	1	0	0	0.12198	0.087008	0.091895	0.1191	0.29665	0.16647	0.16895	0.098201	0.065923	0.11444	0.13677	0.12462	0.046086	0.075297	0.12109	0.13285	-2.1292	-3.3104	-2.4333	-2.825	-3.2542	-2.4	-3.0125	-2.9813	-2.4979	-3.2375	-2.5312	-2.8833	-3.1729	-2.3354	-3.0521	-3.0083	-121.873	124.735	37.489	-29.061	-57.756	150.745	-100.549	136.894	89.530	26.036	31.338	62.452	170.832	-133.611	136.412	139.362	0.00017964	0.00039172	7.4985e-05	478.38	6.9153e-07	2.886e-06	409.88	161.6	2.264e-06	2.8044e-06	130.04	45.701	50.655	21.396	1.9539e-06	20.945	0.00036195	0.0004939	0.00014427	503.72	5.0382e-06	5.6728e-06	432.97	171.37	5.4895e-06	5.3299e-06	138.32	49.063	54.182	23.067	5.3567e-06	22.417	-155.852	-108.039	-65.147	-153.783	-23.999	-23.853	-155.730	-149.692	-50.444	-27.223	-152.316	-148.456	-144.826	-138.679	-40.536	-142.985	-8191	255	
40286.336	1	1	0	0	0.17557	0.052893	0.028983	0.095372	0.27805	0.2407	0.25615	0.30501	0.12916	0.097345	0.095531	0.064772	0.1521	0.14102	0.12978	0.11852	-2.0521	-3.2146	-2.7687	-2.6167	-3.325	-2.3729	-2.9813	-3.1104	-2.2917	-3.3042	-2.7979	-2.5146	-3.3021	-2.2229	-3.0146	-2.9875	-40.587	97.845	96.907	-18.722	-15.187	182.301	54.105	12.053	150.093	-145.364	-135.947	74.883	-160.214	-159.408	-112.244	88.818	0.00018331	0.00023507	8.055e-05	477.27	1.6823e-06	1.4735e-06	408.54	162.15	1.9581e-06	4.7472e-07	130.81	45.815	50.758	21.351	2.1961e-06	20.89	0.00035849	0.00049271	0.00014088	503.03	5.0077e-06	5.8127e-06	432.37	171.48	5.4689e-06	5.3945e-06	138.81	49.242	54.452	23.151	5.5894e-06	22.466	-155.589	-68.527	-78.333	-153.825	-30.036	-32.322	-155.537	-149.578	-64.518	7.584	-152.184	-147.933	-144.604	-138.801	-48.539	-142.535	-8191	255	
40286.457	1	1	0	0	0.033182	0.1307	0.093061	0.17333	0.14633	0.059621	0.13566	0.26645	0.0073685	0.14132	0.20743	0.22272	0.16078	0.14716	0.076831	0.20297	-2.025	-3.225	-2.8229	-2.3958	-3.2438	-2.4688	-2.9188	-3.325	-2.1354	-3.1375	-2.9583	-2.4583	-3.4042	-2.55	-2.7917	-3.2458	-57.337	28.239	120.721	-142.038	-95.657	38.853	146.082	-112.641	-146.073	110.899	78.643	-159.658	179.613	0.678	-144.471	44.298	0.00018614	0.00031099	7.3757e-05	476.71	1.2654e-06	2.0257e-06	410.99	162.08	1.8901e-06	1.6548e-06	131.65	46.286	50.987	21.452	2.0253e-06	21.212	0.00036766	0.00051625	0.00014683	503.26	5.1229e-06	5.9574e-06	434.39	171.87	5.7126e-06	5.7029e-06	139.84	49.619	54.618	23.198	5.606e-06	22.701	-153.488	-84.638	-89.737	-153.583	-38.241	-68.420	-155.666	-149.460	-23.280	1.001	-152.520	-148.095	-144.536	-138.525	-16.401	-142.653	-8191	255	
40286.555	1	1	0	0	0.18859	0.11337	0.21337	0.24064	0.18308	0.14701	0.13696	0.082468	0.28992	0.3972	0.14356	0.36472	0.17683	0.10762	0.032109	0.12747	-2.1646	-3.0438	-2.9542	-2.4958	-3.4708	-2.6542	-2.7562	-3.3708	-2.3417	-3.1167	-3.0208	-2.3875	-3.3146	-2.6083	-2.625	-3.4833	-58.607	-32.731	121.330	164.636	8.906	32.165	50.021	-48.719	141.936	95.883	174.381	-143.680	94.959	146.051	39.898	-149.071	0.00018785	0.00024976	4.5121e-05	477.84	1.9593e-06	1.9626e-06	411.71	161.96	1.8995e-06	2.8022e-06	132.04	46.08	50.943	21.327	1.7763e-06	20.763	0.00036244	0.00051136	0.00014371	503.26	5.1103e-06	5.8961e-06	434.31	172.28	5.6762e-06	5.8052e-06	139.91	49.488	54.564	23.063	5.6246e-06	22.348	-157.262	-84.765	-50.347	-153.770	-16.641	-24.607	-155.572	-149.369	-52.152	-29.730	-152.054	-148.368	-144.875	-138.735	-28.976	-142.896	-8191	255	
#DATA ENDS
