BOXY.EXE: ISS Imagent and Oximeter Data Acquisition Program Version 0.80
Ascii Record File

#ACQ INFORMATION
2  Detector Channels 
16  External MUX Channels 
1  Auxiliary Channels 
5000  Waveform (CCF) Frequency (Hz)
1  Waveforms Skipped 
30  Waveforms Averaged 
1  Cycles Averaged 
16  Acquisitions per Waveform 
10.0806  Updata Rate (Hz) 

#FILE INFORMATION
TRUE -- External MUX Channel results are PARSED.
FALSE -- AC DC and Phase are NOT grouped.
TRUE -- Companion Program Settings File CREATED.
FALSE -- AC data not excluded
FALSE -- DC data not excluded
FALSE -- Phase data not excluded
FALSE -- Auxillary Chn. data not excluded
Tab delimiters

#CALIBRATION STATE
TRUE -- Waveform Calibration Values APPLIED.


#AUX CALIBRATION VALUES
Val Type	aux-1	

Term	1.0000e+00	
Factor	0.0000e+00	


#WF CALIBRATION VALUES
A = Detector Channel
Val Type	A-AC1	A-AC2	A-AC3	A-AC4	A-AC5	A-AC6	A-AC7	A-AC8	A-AC9	A-AC10	A-AC11	A-AC12	A-AC13	A-AC14	A-AC15	A-AC16	A-DC1	A-DC2	A-DC3	A-DC4	A-DC5	A-DC6	A-DC7	A-DC8	A-DC9	A-DC10	A-DC11	A-DC12	A-DC13	A-DC14	A-DC15	A-DC16	A-Ph1	A-Ph2	A-Ph3	A-Ph4	A-Ph5	A-Ph6	A-Ph7	A-Ph8	A-Ph9	A-Ph10	A-Ph11	A-Ph12	A-Ph13	A-Ph14	A-Ph15	A-Ph16	

Term	0.00000e+00	0.00000e+00	0.00000e+00	0.00000e+00	0.00000e+00	0.00000e+00	0.00000e+00	0.00000e+00	0.00000e+00	0.00000e+00	0.00000e+00	0.00000e+00	0.00000e+00	0.00000e+00	0.00000e+00	0.00000e+00	0.00000e+00	0.00000e+00	0.00000e+00	0.00000e+00	0.00000e+00	0.00000e+00	0.00000e+00	0.00000e+00	0.00000e+00	0.00000e+00	0.00000e+00	0.00000e+00	0.00000e+00	0.00000e+00	0.00000e+00	0.00000e+00	0.00000e+00	0.00000e+00	0.00000e+00	0.00000e+00	0.00000e+00	0.00000e+00	0.00000e+00	0.00000e+00	0.00000e+00	0.00000e+00	0.00000e+00	0.00000e+00	0.00000e+00	0.00000e+00	0.00000e+00	0.00000e+00	
Factor	1.00000e+00	1.00000e+00	1.00000e+00	1.00000e+00	1.00000e+00	1.00000e+00	1.00000e+00	1.00000e+00	1.00000e+00	1.00000e+00	1.00000e+00	1.00000e+00	1.00000e+00	1.00000e+00	1.00000e+00	1.00000e+00	1.00000e+00	1.00000e+00	1.00000e+00	1.00000e+00	1.00000e+00	1.00000e+00	1.00000e+00	1.00000e+00	1.00000e+00	1.00000e+00	1.00000e+00	1.00000e+00	1.00000e+00	1.00000e+00	1.00000e+00	1.00000e+00	X	X	X	X	X	X	X	X	X	X	X	X	X	X	X	X	

B = Detector Channel
Val Type	B-AC1	B-AC2	B-AC3	B-AC4	B-AC5	B-AC6	B-AC7	B-AC8	B-AC9	B-AC10	B-AC11	B-AC12	B-AC13	B-AC14	B-AC15	B-AC16	B-DC1	B-DC2	B-DC3	B-DC4	B-DC5	B-DC6	B-DC7	B-DC8	B-DC9	B-DC10	B-DC11	B-DC12	B-DC13	B-DC14	B-DC15	B-DC16	B-Ph1	B-Ph2	B-Ph3	B-Ph4	B-Ph5	B-Ph6	B-Ph7	B-Ph8	B-Ph9	B-Ph10	B-Ph11	B-Ph12	B-Ph13	B-Ph14	B-Ph15	B-Ph16	

Term	0.00000e+00	0.00000e+00	0.00000e+00	0.00000e+00	0.00000e+00	0.00000e+00	0.00000e+00	0.00000e+00	0.00000e+00	0.00000e+00	0.00000e+00	0.00000e+00	0.00000e+00	0.00000e+00	0.00000e+00	0.00000e+00	0.00000e+00	0.00000e+00	0.00000e+00	0.00000e+00	0.00000e+00	0.00000e+00	0.00000e+00	0.00000e+00	0.00000e+00	0.00000e+00	0.00000e+00	0.00000e+00	0.00000e+00	0.00000e+00	0.00000e+00	0.00000e+00	-1.24300e+02	-1.28936e+02	-1.25786e+02	-1.80882e+02	-6.46333e+01	-6.76369e+01	-1.58204e+02	-1.62015e+02	-6.86811e+01	-6.72667e+01	-1.70070e+02	-1.70195e+02	-1.81532e+02	-1.76543e+02	-6.86300e+01	-1.49130e+02	
Factor	1.95114e-05	1.80757e-04	4.88250e-05	1.62200e-01	1.36971e-06	1.85736e-06	1.78799e-01	6.38948e-02	1.40704e-06	1.88919e-06	9.91400e-02	3.46957e-02	2.98902e-02	1.03702e-02	1.64392e-06	1.46973e-02	1.56519e-05	3.35321e-05	9.35577e-06	8.14376e-02	3.17657e-07	3.77349e-07	8.46948e-02	3.22503e-02	3.29454e-07	3.77731e-07	4.85529e-02	1.71225e-02	1.52666e-02	5.27655e-03	3.44806e-07	7.25726e-03	X	X	X	X	X	X	X	X	X	X	X	X	X	X	X	X	



#DISTANCE SETTINGS
A = Detector Channel
A-1	A-2	A-3	A-4	A-5	A-6	A-7	A-8	A-9	A-10	A-11	A-12	A-13	A-14	A-15	A-16	

2.5000e+00	3.0000e+00	2.5000e+00	3.0000e+00	2.0000e+00	3.0000e+00	1.5000e+00	3.0000e+00	3.0000e+00	3.0000e+00	3.0000e+00	3.0000e+00	3.0000e+00	3.0000e+00	1.5000e+00	3.0000e+00	

B = Detector Channel
B-1	B-2	B-3	B-4	B-5	B-6	B-7	B-8	B-9	B-10	B-11	B-12	B-13	B-14	B-15	B-16	

1.0000e+01	1.0000e+01	1.0000e+01	1.4400e+00	1.0000e+01	1.0000e+01	1.5100e+00	1.9400e+00	1.0000e+01	1.0000e+01	1.9900e+00	2.4900e+00	2.4100e+00	2.9000e+00	1.0000e+01	2.9800e+00	




#DATA BEGINS
time	group	step	mark	flag	A-AC1	A-AC2	A-AC3	A-AC4	A-AC5	A-AC6	A-AC7	A-AC8	A-AC9	A-AC10	A-AC11	A-AC12	A-AC13	A-AC14	A-AC15	A-AC16	A-DC1	A-DC2	A-DC3	A-DC4	A-DC5	A-DC6	A-DC7	A-DC8	A-DC9	A-DC10	A-DC11	A-DC12	A-DC13	A-DC14	A-DC15	A-DC16	A-Ph1	A-Ph2	A-Ph3	A-Ph4	A-Ph5	A-Ph6	A-Ph7	A-Ph8	A-Ph9	A-Ph10	A-Ph11	A-Ph12	A-Ph13	A-Ph14	A-Ph15	A-Ph16	B-AC1	B-AC2	B-AC3	B-AC4	B-AC5	B-AC6	B-AC7	B-AC8	B-AC9	B-AC10	B-AC11	B-AC12	B-AC13	B-AC14	B-AC15	B-AC16	B-DC1	B-DC2	B-DC3	B-DC4	B-DC5	B-DC6	B-DC7	B-DC8	B-DC9	B-DC10	B-DC11	B-DC12	B-DC13	B-DC14	B-DC15	B-DC16	B-Ph1	B-Ph2	B-Ph3	B-Ph4	B-Ph5	B-Ph6	B-Ph7	B-Ph8	B-Ph9	B-Ph10	B-Ph11	B-Ph12	B-Ph13	B-Ph14	B-Ph15	B-Ph16	aux-1	digaux	

39895.445	1	1	0	512	0.15669	0.44897	0.07051	0.26373	0.092487	0.18353	0.047614	0.37756	0.088695	0.0096449	0.07518	0.064918	0.22653	0.31704	0.10015	0.16084	-3.0583	-2.3937	-2.7292	-3.2938	-2.0729	-3.2708	-2.825	-2.5417	-2.9708	-2.5396	-2.8875	-3.2458	-2.4688	-3.1979	-2.9021	-2.5125	-48.362	111.493	-17.714	268.615	-25.728	182.398	247.609	255.209	71.519	168.182	112.603	252.759	255.724	246.140	6.510	-12.374	0.00022724	0.00067824	0.0001263	1343.3	5.3079e-06	1.0871e-05	955.72	485.14	7.0443e-06	1.0241e-05	388.09	153.01	177.05	94.336	6.806e-06	83.146	0.009642	0.019865	0.0055647	1338.7	0.00018845	0.00022299	969.82	489.2	0.00019571	0.00022296	403.06	160.03	182.61	95.576	0.00020909	85.393	179.607	8.318	197.976	-46.337	86.156	82.917	-47.440	-40.850	9.213	75.972	-43.483	-38.962	-35.966	-31.091	260.237	-34.888	-8191	255	
39895.543	1	1	0	0	0.15539	0.15608	0.11345	0.22746	0.19122	0.13956	0.19683	0.29092	0.15169	0.059654	0.18857	0.16711	0.21878	0.25006	0.13554	0.10884	-2.9417	-2.5	-2.5	-3.3917	-2.125	-2.9396	-3.1771	-2.2917	-3.2146	-2.5312	-2.8542	-3.3708	-2.2792	-3.2396	-2.9979	-2.2208	133.051	108.225	140.932	278.776	108.342	104.802	268.238	260.172	282.828	30.395	258.120	274.038	-4.660	261.797	-23.464	284.338	0.00023415	0.001421	0.0002266	1341.1	5.8011e-06	6.9357e-06	949.09	485.27	9.0904e-06	4.2537e-06	387.84	152.16	177.84	94.418	6.2097e-06	82.933	0.0098105	0.020633	0.0058699	1337.4	0.00019926	0.0002388	969.03	492.24	0.00021152	0.00024209	405.7	160.11	183.23	95.819	0.00022266	85.291	154.163	86.317	13.044	-45.892	104.636	120.521	-47.547	-40.865	150.115	21.566	-43.297	-39.159	-35.639	-31.183	243.756	-34.941	-8191	255	
39895.660	1	1	0	0	0.082968	0.15623	0.083659	0.11047	0.061908	0.044069	0.20186	0.38082	0.19604	0.27739	0.33418	0.16318	0.20199	0.081655	0.060931	0.38621	-2.7458	-2.5292	-2.4771	-3.3563	-2.3979	-3.1979	-3.1625	-2.6688	-3.1792	-2.7625	-2.7229	-3.3563	-2.675	-2.925	-3.0271	-2.6042	-57.576	148.036	245.995	266.713	190.144	-42.957	-46.459	224.408	-0.867	264.178	221.031	215.966	-49.524	-41.886	62.001	202.731	0.00019721	0.0013956	4.7279e-05	1340	2.6234e-06	4.9999e-06	952.2	485.14	5.9777e-06	1.3972e-05	386.88	151.49	175.35	93.931	1.3494e-05	82.526	0.010137	0.02134	0.0060392	1337.6	0.00020283	0.00024492	968.34	490.36	0.0002096	0.00024271	404.41	159.26	181.86	95.381	0.0002206	85.102	184.089	30.872	-32.215	-46.257	-0.106	63.986	-47.696	-40.904	133.679	53.731	-43.567	-39.181	-35.682	-31.145	48.970	-35.067	-8191	255	
39895.758	1	1	0	0	0.064777	0.20672	0.10518	0.35235	0.20383	0.024351	0.23291	0.2439	0.1709	0.12853	0.26419	0.22043	0.17281	0.33529	0.16935	0.15417	-3.0354	-2.6146	-2.4625	-3.325	-2.325	-2.6979	-3.3542	-2.5646	-3.025	-2.9625	-2.4313	-3.4583	-2.7062	-2.7938	-3.1667	-2.5542	-26.720	125.994	147.610	210.493	256.070	110.300	284.492	262.211	230.602	-52.505	-57.093	-56.992	116.813	284.633	193.335	240.421	0.00014452	0.0017784	0.00021198	1337.1	8.4562e-06	1.4453e-05	957.28	485.68	5.0313e-06	8.2438e-06	387.67	153.18	175.55	93.84	5.1932e-06	83.382	0.010267	0.021485	0.0061021	1335.9	0.00020793	0.00024823	971.54	491.63	0.00022179	0.00025655	408.08	160.9	182.9	95.654	0.00022968	85.811	187.354	84.919	120.086	-46.128	99.131	41.872	-47.680	-40.924	145.245	88.804	-43.569	-38.980	-36.111	-31.033	-46.643	-35.068	-8191	255	
39895.855	1	1	0	0	0.062007	0.14445	0.094269	0.20392	0.097422	0.29494	0.16723	0.14235	0.28506	0.26699	0.10855	0.068315	0.19604	0.2334	0.067462	0.17673	-2.7583	-2.95	-2.3625	-3.2896	-2.6688	-2.7479	-3.3333	-2.4167	-2.9708	-3.0354	-2.5687	-3.3292	-2.6042	-2.6167	-3.3271	-2.5625	228.901	138.998	192.827	249.774	-45.670	153.743	-38.724	279.427	291.517	-4.843	201.248	85.097	199.003	272.626	274.657	204.406	0.00026917	0.0011604	0.00026086	1335.8	6.212e-06	2.6235e-06	946.81	483.86	4.3115e-06	1.4697e-05	386.23	152.14	175.5	93.99	8.5458e-06	83.094	0.010604	0.022285	0.0062033	1337	0.00020912	0.00025129	968.66	489.53	0.00021882	0.0002512	406.01	159.99	182.36	95.357	0.00023	85.115	165.896	30.890	19.580	-46.248	79.422	298.598	-47.456	-40.792	124.343	197.254	-43.580	-39.125	-35.760	-31.338	57.578	-35.276	-8191	255	
39895.949	1	1	0	0	0.27265	0.04675	0.22379	0.10981	0.15709	0.1286	0.19779	0.16262	0.23721	0.1421	0.17063	0.14333	0.20751	0.18243	0.11719	0.15681	-2.5896	-2.9667	-2.3312	-3.2333	-2.8229	-2.4354	-3.4229	-2.4292	-2.7396	-3.1188	-2.3042	-3.1583	-2.975	-2.4708	-3.2417	-2.6688	-34.980	178.733	209.900	263.658	264.457	108.056	236.165	236.801	174.680	214.474	140.383	214.285	255.185	253.740	29.414	198.293	0.00034024	0.00031398	0.00041724	1336	8.9468e-06	1.959e-06	944.97	481.47	3.527e-06	9.3531e-06	384.88	150.91	174.85	93.49	2.2358e-06	82.287	0.010631	0.022331	0.0062165	1336.7	0.00021006	0.00024835	965.46	487.63	0.00021487	0.00024538	403	158.75	181.19	94.953	0.00021709	84.564	151.551	9.729	19.426	-45.981	87.446	90.075	-47.629	-40.941	178.526	124.157	-43.246	-39.036	-35.965	-31.097	140.806	-35.322	-8191	255	
39896.047	1	1	0	0	0.10936	0.14646	0.26708	0.19944	0.048352	0.28945	0.10757	0.30777	0.091062	0.47704	0.040926	0.11879	0.32417	0.44184	0.19705	0.20532	-2.2083	-3.2208	-2.3542	-3.0687	-2.975	-2.3167	-3.3146	-2.7396	-2.4313	-3.1437	-2.3563	-3.0208	-3.1625	-2.5125	-3.2812	-2.7229	68.824	-49.037	55.156	268.874	121.293	173.271	194.690	229.548	-22.949	-33.179	30.745	228.494	276.418	298.548	244.947	289.905	0.00024861	0.0012169	0.00022491	1336	9.4694e-06	7.9657e-06	944.41	480.82	7.4609e-06	1.2231e-05	385.69	150.65	174.51	92.658	8.1906e-06	81.834	0.010047	0.02104	0.0057555	1332.2	0.00019454	0.00022953	961.49	486.39	0.00019469	0.00021792	399.8	157.24	179.6	93.923	0.00018666	83.49	149.839	-58.626	53.951	-46.108	35.610	86.470	-47.696	-41.089	88.249	92.172	-43.353	-38.975	-35.607	-31.257	77.108	-35.170	-8191	255	
39896.145	1	1	0	0	0.27564	0.065396	0.037664	0.42156	0.099952	0.12488	0.042558	0.32179	0.35475	0.19892	0.21456	0.11115	0.18631	0.48325	0.12952	0.15925	-2.2771	-3.3833	-2.2271	-3.3229	-2.9292	-2.3958	-3.3979	-2.6917	-2.5729	-3.0875	-2.4833	-2.8729	-2.9792	-2.5625	-3.1854	-2.9125	299.422	-22.483	10.237	284.705	89.123	244.012	-15.676	226.521	237.962	215.744	236.470	225.072	101.788	294.882	217.959	295.297	0.00022171	0.00032382	9.6969e-05	1331.1	5.8864e-06	6.628e-06	956.06	475.44	1.2567e-05	1.3726e-05	386.28	150.15	173.64	92.292	1.3707e-05	82.041	0.0086766	0.017963	0.004969	1324.1	0.00016991	0.00020109	963.37	481.16	0.00017811	0.00020313	398.62	156.69	178.58	93.413	0.00018956	83.944	164.021	80.107	-7.781	-46.153	123.503	99.226	-47.560	-40.765	-10.196	112.760	-43.271	-38.945	-35.782	-31.153	135.333	-35.260	-8191	255	
39896.266	1	1	0	0	0.11153	0.10852	0.19598	0.126	0.1047	0.16391	0.18802	0.021292	0.16043	0.075448	0.20404	0.22065	0.083143	0.32185	0.21587	0.28086	-1.9083	-3.1625	-2.3688	-2.9854	-3.1937	-2.3667	-3.1854	-2.8563	-2.1375	-3.2042	-2.5625	-2.8021	-3.3417	-2.3063	-2.9271	-2.8292	59.721	25.565	-18.685	196.242	166.072	9.949	17.472	105.435	-11.292	-5.281	-56.574	271.955	291.168	230.187	151.743	267.634	0.00019496	0.0013359	0.00011303	1343.1	1.0544e-05	8.5341e-06	964.88	479.5	2.1826e-06	9.6256e-06	387.91	151.96	174.7	92.523	7.6269e-06	82.141	0.0091136	0.018756	0.0052874	1334.4	0.00017992	0.00021479	973.52	484.24	0.00019097	0.00021502	401.06	158.35	179.82	93.857	0.00019691	84.268	166.185	83.465	18.802	-46.164	96.928	104.298	-47.550	-41.056	209.596	112.137	-43.451	-38.755	-35.852	-31.163	98.224	-35.191	-8191	255	
39896.359	1	1	0	0	0.1232	0.20014	0.060272	0.15138	0.17064	0.074496	0.28938	0.04734	0.096376	0.013355	0.19157	0.086194	0.073496	0.19645	0.13445	0.35838	-1.8271	-3.1583	-2.4979	-2.8708	-3.3875	-2.4625	-3.1292	-3.2833	-2.3208	-3.3417	-2.8354	-2.7104	-3.2146	-2.5479	-2.9333	-3.2479	199.656	233.568	117.009	-55.959	32.895	26.348	270.318	124.884	-14.744	130.835	293.811	229.830	229.170	-23.089	199.018	300.329	0.00021366	0.00073357	0.0001877	1336	3.7933e-06	9.8686e-06	958.93	479.88	5.4613e-06	3.609e-06	383.93	150.68	174.17	92.726	1.5158e-05	82.769	0.009244	0.019081	0.0053444	1331.8	0.00018263	0.00021755	967.71	483.49	0.00019139	0.00021687	399.16	157.47	179.74	94.034	0.00020084	84.372	143.200	19.818	93.627	-46.235	206.426	70.962	-47.644	-40.938	240.087	77.818	-43.315	-39.002	-35.836	-31.081	166.286	-35.131	-8191	255	
39896.453	1	1	0	0	0.27387	0.18476	0.19593	0.41196	0.31827	0.28406	0.14998	0.13968	0.22713	0.080856	0.074447	0.23176	0.22571	0.21986	0.16704	0.24097	-1.8292	-3.1479	-2.6854	-2.5687	-3.2833	-2.55	-2.9792	-3.1104	-2.3604	-2.95	-2.8292	-2.5083	-3.3646	-2.625	-2.775	-3.3521	119.730	4.119	88.804	273.517	60.829	94.306	197.430	242.651	35.618	272.136	48.084	244.236	3.712	-36.432	57.111	231.324	0.00013078	0.0016534	8.7391e-05	1338.8	6.292e-06	1.5099e-05	956.76	480.54	3.2751e-06	7.8901e-06	387.53	151.88	175.16	93.426	3.0187e-06	82.52	0.0093393	0.019363	0.0054355	1334.1	0.00018352	0.00021932	968.35	485.77	0.00019147	0.00021784	401.54	158.26	180.26	94.426	0.00019741	84.542	155.523	-10.045	-33.981	-46.282	118.207	93.744	-47.451	-40.903	134.335	41.661	-43.409	-38.815	-35.752	-31.089	188.229	-34.979	-8191	255	
39896.551	1	1	0	0	0.13162	0.1594	0.099894	0.10642	0.12478	0.13661	0.090624	0.019554	0.26919	0.034344	0.28127	0.22657	0.29855	0.3437	0.11404	0.3285	-1.925	-3.225	-2.9729	-2.4708	-3.3604	-2.4833	-2.7562	-3.375	-2.2604	-3.1083	-3.0646	-2.5125	-3.5208	-2.7042	-2.6937	-3.4292	-1.303	-33.293	219.614	-37.718	-38.378	-43.808	-53.260	40.450	253.937	289.079	239.262	199.448	234.234	-20.486	68.849	223.744	0.0002611	0.0017725	0.00032374	1337.7	9.5162e-06	3.6342e-06	954.83	482.64	1.199e-05	1.3052e-05	391.03	152.51	176.68	93.182	2.2985e-06	83.265	0.0091314	0.019004	0.005341	1330.9	0.00017927	0.0002124	966.99	486.26	0.00018282	0.00020938	403.5	158.31	180.51	94.43	0.00018915	84.832	173.093	20.559	-4.096	-46.193	123.868	77.119	-47.432	-41.027	89.225	115.713	-43.531	-38.785	-35.722	-30.978	171.871	-35.242	-8191	255	
39896.648	1	1	0	0	0.16946	0.082566	0.057566	0.26141	0.12298	0.067865	0.10293	0.30157	0.27753	0.16278	0.16264	0.097738	0.13637	0.46953	0.1543	0.2309	-2.0479	-2.9021	-2.9271	-2.5417	-3.2521	-2.7833	-2.6813	-3.5708	-2.5646	-3.1417	-3.325	-2.5354	-3.3563	-3.0187	-2.3438	-3.5646	69.570	-46.187	197.826	217.901	259.500	225.487	265.675	284.918	50.189	246.912	300.157	-20.673	187.106	269.767	254.000	239.719	0.00030145	0.00091362	0.00032622	1336.6	8.1195e-06	9.024e-06	955.42	482.28	3.39e-06	1.1225e-05	389.88	152.94	174.37	92.754	9.4348e-06	82.701	0.008673	0.017873	0.005023	1326.9	0.00016783	0.00020028	965.73	485	0.00017313	0.00020052	402.71	158.17	179.1	93.77	0.00018309	84.448	150.148	14.691	-4.565	-46.292	34.739	73.217	-47.297	-40.749	81.536	96.455	-43.494	-39.179	-35.683	-31.054	151.717	-35.247	-8191	255	
39896.742	1	1	0	0	0.18022	0.23129	0.24307	0.4632	0.19298	0.10217	0.13118	0.30056	0.096681	0.27324	0.12705	0.11803	0.12369	0.5005	0.081991	0.20052	-2.325	-2.8896	-3.075	-2.4271	-3.1729	-2.9938	-2.7854	-3.4375	-2.5458	-2.7104	-3.2438	-2.5854	-3.1188	-2.975	-2.5396	-3.3729	141.327	240.625	79.884	254.788	147.550	263.391	231.391	-55.997	101.040	105.290	175.957	87.930	-43.775	285.629	300.441	251.493	0.00015418	0.0013247	0.00035649	1331.3	1.6243e-06	1.2689e-05	952.04	476.86	5.7151e-06	6.3756e-06	384.57	149.51	171.38	91.138	6.4757e-06	81.284	0.0084482	0.017758	0.0049746	1321	0.00016611	0.00019747	958.58	479.12	0.00017108	0.00019749	395.7	154.95	176.13	91.905	0.000178	82.694	163.762	27.857	38.197	-46.312	102.238	108.736	-47.271	-40.902	124.507	23.239	-43.645	-38.860	-35.686	-31.147	88.008	-35.029	-8191	255	
39896.840	1	1	0	0	0.10318	0.12122	0.12576	0.27774	0.096218	0.053991	0.33377	0.14998	0.14481	0.012087	0.10923	0.22626	0.1468	0.21277	0.18793	0.3105	-2.0792	-2.5563	-3.2271	-2.3458	-3.1396	-2.9813	-2.6417	-3.4292	-2.4958	-2.5125	-3.2021	-2.4104	-2.9333	-3.3396	-2.3417	-3.2292	237.161	122.889	133.027	280.041	35.683	-35.434	252.131	41.794	173.463	250.514	134.166	295.253	196.012	193.929	52.817	225.918	0.00028308	0.0017331	0.00029462	1326.4	4.5351e-06	2.4304e-06	949.74	474.61	5.9696e-06	2.0447e-05	383.21	148.55	170.87	90.165	7.1794e-06	80.367	0.0082351	0.017151	0.0047281	1314.6	0.00016151	0.00019328	955.7	475.65	0.00016575	0.00018797	393.24	153.82	174.62	91.039	0.00016454	81.826	154.196	31.799	-12.557	-46.293	159.657	-55.455	-47.415	-40.956	85.538	109.939	-43.463	-39.060	-35.669	-31.083	128.416	-34.851	-8191	255	
39896.934	1	1	0	0	0.059099	0.28536	0.22375	0.33159	0.11208	0.16307	0.095741	0.3207	0.031992	0.1582	0.093796	0.17116	0.1432	0.30086	0.19727	0.22951	-2.3208	-2.4271	-3.1688	-2.6583	-2.8792	-3	-2.6146	-3.3125	-2.7771	-2.5354	-3.2812	-2.5625	-2.8542	-3.3458	-2.3	-3.2167	177.343	251.912	61.403	265.057	-11.803	121.224	289.875	-33.772	215.236	119.521	295.171	-0.993	289.583	268.911	29.997	-46.214	0.00014961	0.0013775	0.00015188	1330.2	8.9348e-06	7.4496e-06	953.33	473.06	3.9796e-06	3.6776e-06	386.16	149.64	170	89.733	1.3605e-05	80.445	0.0076506	0.015799	0.004336	1312.1	0.00014825	0.00017633	953.25	474.06	0.00015172	0.0001729	394.4	153.6	173.72	90.572	0.00015326	81.679	180.961	16.292	66.810	-46.118	76.662	118.422	-47.422	-40.917	63.159	0.189	-43.238	-39.042	-35.423	-31.024	137.769	-35.000	-8191	255	
39897.055	1	1	0	0	0.10836	0.19159	0.15166	0.2847	0.19785	0.062521	0.12283	0.079999	0.20054	0.17609	0.14216	0.17454	0.12427	0.069194	0.14694	0.4244	-2.525	-2.3104	-3.4625	-2.5417	-2.8063	-3.2458	-2.4708	-3.0271	-2.9375	-2.4771	-3.4104	-2.6562	-2.7083	-3.3438	-2.5042	-3.1396	111.704	151.794	-28.670	248.204	214.226	191.210	-44.972	-53.858	60.419	-51.803	273.706	-16.161	246.976	280.141	157.246	297.871	0.00014017	0.00052292	0.00050593	1326.4	5.1038e-06	1.4471e-05	956.07	474.13	9.0058e-07	3.7867e-06	389.41	150.32	170.65	90.078	8.4274e-06	81.352	0.0072059	0.014899	0.0040785	1310.8	0.00013832	0.00016607	953.77	473.9	0.00014483	0.00016523	396.94	154.7	174.12	90.544	0.0001505	82.309	164.448	-3.839	53.003	-46.292	59.948	126.058	-47.466	-40.783	38.982	153.528	-43.001	-39.037	-35.715	-30.968	102.190	-34.857	-8191	255	
39897.152	1	1	0	0	0.11114	0.037594	0.059343	0.2446	0.26031	0.13693	0.24102	0.43831	0.12861	0.38571	0.25496	0.1584	0.065726	0.23457	0.12059	0.19461	-2.7083	-2.425	-3.0167	-2.8083	-2.525	-3.2042	-2.5875	-3.1979	-3.0917	-2.3042	-3.3229	-2.7896	-2.6271	-3.5187	-2.4562	-3.0896	240.166	84.781	-21.993	284.003	38.285	295.587	153.944	247.130	243.275	145.550	255.847	279.031	253.266	290.731	-0.703	118.270	0.0002263	0.00077936	0.00014281	1329.5	5.678e-06	1.302e-05	958.32	475.59	5.7465e-06	7.7991e-06	389.77	150.02	169.9	89.465	4.4816e-06	80.834	0.0072236	0.014949	0.0041672	1313.5	0.00014255	0.00016788	957.64	474.52	0.00014919	0.00017067	397.88	154.12	174.02	90.206	0.00015535	81.831	182.602	153.444	92.696	-46.204	103.679	98.502	-47.341	-40.677	74.011	97.657	-43.266	-39.051	-35.520	-30.652	83.034	-34.894	-8191	255	
39897.223	1	1	0	0	0.31721	0.095137	0.14478	0.14923	0.28199	0.18094	0.061764	0.10974	0.22533	0.18136	0.13921	0.15964	0.21634	0.10996	0.24939	0.1663	-2.7292	-2.3187	-3.1875	-3.0375	-2.3521	-3.1896	-2.5646	-2.8833	-3.2438	-2.4667	-3.2792	-2.75	-2.4583	-3.4333	-2.5875	-2.85	151.406	194.090	27.514	10.603	-13.728	213.154	288.438	228.202	68.003	43.321	-52.289	185.447	-2.461	1.167	74.214	220.024	0.00019922	0.00035132	0.00041473	1328.4	2.8748e-06	4.4504e-06	952.87	473.81	4.9933e-06	9.4954e-06	389.11	149.59	170.33	89.485	4.7081e-06	80.736	0.0073004	0.015156	0.0042146	1313	0.00014532	0.00017022	955.32	473.52	0.000151	0.00017166	397.09	154.5	173.87	90.271	0.00015912	81.912	163.336	125.172	28.813	-46.094	20.073	77.384	-47.518	-40.858	2.853	112.530	-43.395	-39.175	-35.568	-30.741	75.762	-34.651	-8191	255	
39897.344	1	1	0	0	0.0788	0.031385	0.15826	0.1946	0.23032	0.078977	0.30124	0.25088	0.061848	0.24992	0.17681	0.088969	0.066732	0.19906	0.15508	0.25486	-2.7042	-2.2729	-3.0167	-3.0458	-2.3458	-3.2792	-2.7812	-2.725	-3.3146	-2.3688	-3.0687	-3.1208	-2.4333	-3.4375	-2.5687	-2.7333	211.293	295.737	49.086	-53.274	48.247	45.162	262.361	260.209	-55.933	153.589	156.665	-37.336	201.336	217.549	259.060	270.062	0.00015959	0.0013203	0.00034722	1329.8	6.4279e-06	8.4251e-06	955.89	474.59	1.8629e-06	4.6339e-06	391.62	151.17	170.77	89.713	7.3683e-06	81.195	0.0074891	0.015536	0.00432	1315.9	0.00014555	0.00017176	957.43	474.89	0.00014982	0.00016983	399.48	155.43	174.2	90.263	0.00015619	82.426	153.750	34.245	62.409	-46.185	36.366	54.369	-47.489	-40.626	149.748	30.323	-43.146	-39.131	-35.795	-30.997	97.083	-34.731	-8191	255	
39897.438	1	1	0	0	0.11055	0.28828	0.28863	0.18736	0.30414	0.090711	0.1623	0.084023	0.16728	0.10595	0.32823	0.14566	0.16554	0.2666	0.14607	0.20467	-2.8875	-2.4396	-2.7896	-3.1375	-2.1604	-3.2521	-2.8521	-2.5542	-3.3812	-2.1042	-2.95	-3.1875	-2.35	-3.3312	-2.7479	-2.625	27.328	-24.205	-51.088	246.639	252.957	285.950	227.746	229.634	173.795	157.668	263.672	187.035	260.016	280.895	103.195	194.903	0.00023005	0.001377	0.00015417	1334.1	1.2129e-06	1.447e-05	961.32	475.95	2.3931e-06	7.6127e-06	393.89	152.01	171.23	90.276	1.3628e-05	81.975	0.0073219	0.01512	0.0042571	1315.7	0.00014366	0.00016908	960.79	475.77	0.00014722	0.00016994	402.76	156.16	174.47	90.841	0.00015675	83.118	153.019	80.854	44.807	-46.227	37.850	94.354	-47.562	-40.756	252.352	16.023	-43.538	-39.052	-35.610	-30.794	89.105	-34.699	-8191	255	
39897.535	1	1	0	0	0.1601	0.10858	0.090643	0.36182	0.074217	0.068143	0.12545	0.2685	0.23479	0.10256	0.22523	0.33828	0.17028	0.37477	0.13106	0.173	-2.8604	-2.3646	-2.6625	-3.3438	-2.3167	-2.9917	-3.0958	-2.6292	-3.2833	-2.5167	-2.7062	-3.3333	-2.4521	-3.2812	-2.9375	-2.5125	299.503	6.395	-13.542	283.187	285.766	162.445	176.670	242.573	161.357	252.753	67.054	239.604	-26.769	295.324	26.540	296.870	0.0002108	0.00072894	0.00029247	1331.7	5.6965e-06	5.858e-06	966.17	477.22	4.6768e-06	7.0763e-06	396.17	152.71	171.49	90.084	7.5517e-06	82.18	0.0072867	0.015042	0.0042485	1318.2	0.00014266	0.00016911	964.13	477.39	0.00014833	0.00017001	403.95	156.62	174.65	90.68	0.00015903	83.065	159.367	21.266	44.690	-46.240	132.691	74.515	-47.572	-40.701	57.674	57.378	-43.189	-39.007	-35.840	-30.916	11.313	-34.983	-8191	255	
39897.656	1	1	0	0	0.20898	0.29737	0.16334	0.22831	0.14706	0.12697	0.22691	0.32532	0.15736	0.080056	0.052402	0.13597	0.13839	0.301	0.33743	0.21913	-2.7521	-2.6521	-2.5479	-3.3583	-2.1354	-2.8792	-3.0854	-2.3083	-3.3167	-2.6917	-2.4417	-3.0917	-2.5625	-3.0333	-2.975	-2.4271	68.429	45.453	271.369	224.161	52.144	109.250	-52.896	241.166	239.653	264.567	81.778	213.011	130.728	272.848	148.258	-45.400	0.0002334	0.0013713	0.0001594	1330.3	5.2164e-06	7.9144e-06	953.76	473.44	1.0157e-06	6.3168e-06	390.1	151.5	170.97	90.036	3.4996e-06	81.71	0.0074237	0.015621	0.0044084	1314.6	0.00014692	0.00017617	958.91	474.88	0.0001535	0.00017679	399.63	155.74	174.4	90.815	0.00016413	82.92	163.953	22.133	22.811	-46.218	117.014	47.614	-47.729	-40.685	139.804	129.717	-43.399	-38.927	-35.937	-30.871	156.556	-34.735	-8191	255	
39897.750	1	1	0	0	0.15217	0.27563	0.26898	0.16581	0.17391	0.083952	0.055571	0.22021	0.30905	0.10831	0.093156	0.060428	0.24852	0.31871	0.065201	0.32055	-2.8792	-2.6958	-2.375	-3.4271	-2.2687	-2.8792	-3.2458	-2.4313	-3.125	-2.5687	-2.5854	-3.4062	-2.3937	-2.8792	-3.1479	-2.3875	21.857	23.265	298.982	-44.206	72.614	-27.987	-15.820	256.273	101.198	-44.589	244.576	286.923	-45.433	231.700	223.570	273.338	0.00020223	0.000646	0.0001497	1326.1	2.9097e-06	4.9436e-06	959.18	474.07	2.6978e-06	1.102e-05	387.11	151.03	170.23	89.932	6.573e-06	81.726	0.0076825	0.015988	0.0044872	1312.8	0.00015208	0.00018155	959.58	473.09	0.00015809	0.00018114	398.99	155.59	174.03	90.591	0.00016442	82.854	155.193	14.533	81.555	-46.188	191.541	149.891	-47.307	-40.886	-38.435	85.578	-43.199	-38.821	-35.645	-30.604	111.087	-34.919	-8191	255	
39897.824	1	1	0	0	0.16552	0.0898	0.07067	0.15761	0.059264	0.14983	0.27973	0.22155	0.14936	0.27852	0.23385	0.1701	0.1084	0.43469	0.16645	0.09806	-2.5458	-2.7271	-2.3042	-3.4271	-2.7729	-2.6542	-3.2542	-2.4979	-2.8792	-2.8896	-2.3396	-3.3312	-2.6271	-2.8042	-3.3812	-2.5479	-20.723	280.238	206.011	221.917	-20.021	194.884	229.012	223.371	238.851	-19.909	-49.142	257.817	211.163	250.477	259.358	270.527	0.00023435	0.00076228	0.00014446	1332.6	4.1454e-06	6.1249e-06	957.35	470.98	6.5775e-06	1.3962e-05	393.82	151.57	169.6	89.008	1.0743e-05	81.53	0.007661	0.016062	0.0044811	1315.1	0.00015183	0.00018231	961.78	472.22	0.00015903	0.00018369	402.13	156.24	173.52	89.923	0.00016748	82.587	158.391	-30.288	97.265	-46.109	139.971	96.231	-47.448	-40.852	134.833	66.505	-43.301	-39.110	-35.725	-30.934	116.154	-34.898	-8191	255	
39897.945	1	1	0	0	0.1091	0.17824	0.19587	0.14883	0.094947	0.22116	0.044719	0.39376	0.1835	0.092293	0.17348	0.13629	0.30355	0.23992	0.062161	0.091958	-2.6083	-3.1	-2.35	-3.1958	-2.5854	-2.575	-3.4979	-2.4354	-2.7771	-3.3	-2.5229	-3.1771	-2.7625	-2.7687	-3.1958	-2.7333	292.706	36.015	16.742	-41.910	144.462	96.260	250.386	233.377	213.284	94.135	185.751	297.039	-22.466	282.588	-42.499	-29.821	0.00021048	0.0014577	0.00015855	1328.9	2.9377e-06	8.0382e-06	959.91	472.65	4.8705e-06	9.1827e-06	396.72	151.48	167.93	87.368	7.5316e-06	80.193	0.0077797	0.01629	0.0044878	1314.6	0.00015199	0.00018083	963.43	472.31	0.00015592	0.00017857	404.6	155.9	171.97	88.207	0.00015601	81.063	128.518	65.090	14.125	-46.255	280.705	13.803	-47.259	-40.991	227.584	114.992	-43.249	-38.886	-35.541	-30.868	123.781	-35.009	-8191	255	
39898.039	1	1	0	0	0.20676	0.17578	0.36746	0.25452	0.22224	0.25748	0.10064	0.094076	0.16085	0.18433	0.22513	0.1857	0.15063	0.3478	0.044586	0.16523	-2.5104	-2.9062	-2.3792	-3.2687	-2.8625	-2.5375	-3.2271	-2.8417	-2.7667	-3.3812	-2.5479	-3.1	-3.0917	-2.5958	-3.2812	-2.8396	-48.515	192.568	-38.718	276.665	166.975	55.771	219.184	247.141	-35.371	103.337	247.735	-37.857	242.763	295.788	45.540	-15.216	0.00023114	0.00076497	0.00021167	1328.6	8.0233e-06	4.8975e-06	965.08	473.49	2.5016e-06	8.3106e-06	400.08	151.69	168.97	85.914	7.5712e-06	78.097	0.0072975	0.015061	0.0041316	1308.2	0.00013925	0.0001679	962.07	472.51	0.00014843	0.00016914	408.03	155.81	172	86.408	0.0001494	79.164	155.258	18.453	-14.632	-46.171	119.624	-55.168	-47.158	-40.834	204.844	111.626	-43.231	-38.884	-35.654	-30.680	142.716	-34.671	-8191	255	
39898.137	1	1	0	0	0.10754	0.20548	0.072848	0.21999	0.16666	0.22398	0.32912	0.29185	0.17804	0.20671	0.1992	0.055528	0.19792	0.25713	0.086199	0.027451	-2.4604	-3.1437	-2.3667	-3.3979	-2.9521	-2.4062	-3.5333	-2.7417	-2.6813	-3.2417	-2.3688	-3.1792	-3.2417	-2.5458	-3.1979	-2.7188	131.970	47.893	99.607	287.794	-47.594	47.730	257.246	216.159	129.152	-58.696	28.212	240.295	13.303	266.124	30.308	79.044	0.00012372	0.0010173	0.00021917	1323.2	4.0727e-06	5.4855e-06	967.07	472.75	4.4658e-06	3.7734e-06	401.58	151.38	167.04	85.22	7.3524e-06	78.026	0.0070705	0.014801	0.0040353	1306.5	0.00013964	0.0001633	961.39	471.48	0.00014369	0.00016427	409.17	155.49	170.83	85.699	0.00014915	79.042	169.655	19.154	150.270	-45.990	124.101	76.531	-47.263	-40.835	-3.467	36.742	-43.435	-39.040	-35.575	-30.758	76.199	-34.739	-8191	255	
39898.230	1	1	0	0	0.22747	0.12879	0.17186	0.11951	0.13063	0.11601	0.13443	0.38355	0.1104	0.20008	0.27363	0.19922	0.18233	0.15053	0.23979	0.093057	-2.1208	-3.3354	-2.5583	-2.85	-3.0479	-2.3208	-3.4271	-2.9271	-2.45	-3.4792	-2.5625	-2.9313	-3.2333	-2.5604	-3.1125	-2.9708	94.137	9.281	71.129	227.231	289.776	9.206	256.233	281.239	244.942	22.052	274.628	227.340	225.173	-47.541	35.929	-9.347	0.00023594	0.00056808	0.00016363	1325.2	3.4595e-06	4.6289e-06	964.94	472.86	4.0423e-06	9.2441e-06	404.35	151.38	166.43	84.953	4.4725e-06	78.281	0.0070135	0.014507	0.0040542	1309.7	0.00013811	0.00016371	963.59	471.26	0.00014475	0.00016521	411.07	156	170.48	85.628	0.00015222	79.47	182.564	25.277	-40.184	-46.037	220.498	73.405	-47.329	-40.776	95.912	68.481	-43.636	-38.974	-35.594	-30.539	161.975	-34.522	-8191	255	
39898.352	1	1	0	0	0.18258	0.087504	0.095784	0.54913	0.13679	0.15923	0.17807	0.22341	0.14947	0.10736	0.22991	0.10642	0.10102	0.22581	0.15576	0.28789	-2.0479	-3.2146	-2.4958	-2.9375	-3.3833	-2.4458	-2.9917	-3.0563	-2.35	-3.1521	-2.7229	-2.7188	-3.3688	-2.5958	-2.9437	-3.1625	41.745	198.347	186.270	244.752	187.539	214.652	10.184	149.460	209.261	283.853	18.635	222.985	236.297	276.937	268.649	165.156	0.00023944	0.00082961	0.00022938	1330.7	4.1758e-06	6.4236e-06	970.57	472.29	2.9485e-06	3.343e-06	407	153.57	168.3	85.749	5.2627e-06	79.436	0.0072112	0.014904	0.0041329	1313.4	0.00014222	0.00016727	972.16	473.4	0.00014735	0.00016834	415.2	157.38	171.81	86.449	0.00015465	80.564	158.206	12.514	76.559	-46.142	171.380	166.044	-47.260	-40.974	251.488	66.668	-43.189	-38.976	-35.481	-30.729	-57.744	-34.793	-8191	255	
39898.445	1	1	0	0	0.083571	0.14377	0.15909	0.31391	0.17145	0.068778	0.16514	0.18132	0.13347	0.32199	0.071146	0.17635	0.15837	0.19028	0.13681	0.26704	-1.9375	-3.125	-2.5417	-2.6562	-3.2229	-2.2417	-3.05	-3.4062	-2.2167	-3.05	-2.8792	-2.6479	-3.4021	-2.5792	-2.8542	-3.2313	12.730	62.286	152.772	260.616	-46.374	95.822	223.610	242.884	5.488	-19.101	-10.388	292.968	272.431	-35.371	109.478	212.775	0.0002309	0.0011691	0.00022022	1330.1	6.0512e-06	5.1256e-06	975.65	475.99	1.7621e-06	5.4328e-06	406.09	153.47	170.19	86.897	5.3221e-06	80.254	0.0072756	0.015062	0.0042118	1314.1	0.00014409	0.00016939	970.7	475.73	0.00015057	0.00017246	414.81	158.26	173.3	87.522	0.00016173	81.408	133.534	7.561	58.828	-46.256	73.389	116.597	-47.326	-40.889	47.957	116.653	-43.413	-38.880	-35.727	-30.834	90.901	-34.753	-8191	255	
39898.520	1	1	0	0	0.1265	0.11099	0.10134	0.17434	0.17303	0.21964	0.24055	0.12337	0.22492	0.016321	0.12109	0.20313	0.21473	0.12278	0.11476	0.2513	-1.9521	-2.9708	-2.8271	-2.6437	-3.2792	-2.2917	-2.675	-3.3187	-2.3083	-3.0708	-2.8292	-2.4271	-3.3667	-2.4417	-2.6854	-3.3833	4.491	123.635	290.506	-21.038	95.228	184.684	243.291	204.375	-39.699	72.181	123.607	279.868	0.708	91.118	-8.807	180.498	0.00017855	6.3088e-05	0.0002094	1331.3	3.9957e-06	4.276e-06	968.86	477.15	6.8845e-06	4.7884e-06	408.39	154.98	170.66	87.488	6.6622e-06	80.925	0.0076309	0.015806	0.0044974	1318.5	0.00015116	0.00017904	971.98	478.27	0.0001558	0.0001783	416.62	159.61	174.32	88.277	0.00016565	82.101	196.220	158.887	45.634	-46.075	92.468	80.220	-47.422	-40.926	-2.692	147.993	-43.432	-39.165	-35.733	-30.823	94.221	-35.109	-8191	255	
39898.617	1	1	0	0	0.090061	0.15735	0.14179	0.1882	0.16789	0.16465	0.12208	0.3291	0.12157	0.13695	0.17536	0.18357	0.055316	0.26287	0.096602	0.14981	-2.0187	-3.0896	-2.9062	-2.525	-3.3	-2.7167	-2.7167	-3.3521	-2.2708	-2.9313	-3.1917	-2.4729	-3.4729	-2.9396	-2.6937	-3.3563	-17.547	76.121	285.859	150.640	41.017	-5.239	269.517	-43.006	235.626	-14.374	94.844	196.437	288.689	279.697	-50.807	258.454	0.00028786	0.00079886	0.00043122	1335	5.399e-06	1.2509e-05	964.44	476.71	7.8821e-06	6.6181e-06	407.18	155.5	170.76	88.269	9.8308e-06	81.916	0.0076278	0.016081	0.0044581	1318.8	0.00015049	0.00017763	969.3	477.51	0.00015312	0.00017469	415.25	159.79	174.6	89.11	0.00015937	83.001	158.602	68.146	6.759	-46.136	26.757	68.115	-47.405	-40.881	122.484	118.630	-43.624	-38.872	-35.644	-31.057	127.745	-34.827	-8191	255	
39898.734	1	1	0	0	0.25731	0.21664	0.095308	0.24581	0.14943	0.077502	0.1686	0.188	0.24113	0.12252	0.26054	0.26579	0.18088	0.12557	0.097303	0.40697	-2.1042	-2.7125	-3.0521	-2.5271	-3.2583	-2.65	-2.7146	-3.5333	-2.3521	-2.8146	-3.3521	-2.5438	-3.275	-2.9708	-2.5187	-3.3479	-3.960	-1.780	208.426	226.296	-42.592	48.436	216.273	32.849	84.542	175.054	112.944	226.196	272.541	284.398	231.562	266.296	0.00028475	0.00083304	0.00014865	1327	8.566e-07	9.1499e-06	964.97	475.87	8.202e-06	9.1303e-06	408.87	155.39	171.48	89.364	3.2368e-06	82.287	0.0073471	0.01531	0.004294	1311	0.00014303	0.00017159	963.99	476.13	0.0001457	0.00016836	413.64	159.24	174.39	89.632	0.00015185	83.338	155.564	25.916	21.571	-46.286	100.756	78.724	-47.262	-41.036	134.003	84.095	-43.329	-38.732	-35.513	-30.887	184.366	-34.913	-8191	255	
39898.832	1	1	0	0	0.19599	0.076296	0.022953	0.39381	0.21813	0.09463	0.24339	0.37044	0.4033	0.11455	0.045885	0.098563	0.16508	0.066746	0.062646	0.080289	-2.1333	-2.5417	-3.1521	-2.3937	-3.0938	-2.8292	-2.4229	-3.5729	-2.5396	-2.625	-3.3625	-2.4375	-2.9854	-3.0854	-2.4062	-3.2979	243.597	260.928	228.926	296.726	218.072	138.004	202.132	265.975	229.058	266.074	237.403	218.516	-52.531	155.336	-57.616	-30.828	0.00023192	0.00070221	0.00023118	1324.2	5.8938e-06	6.0706e-06	959.55	473.25	6.0283e-06	3.484e-06	402.51	153.34	170.37	88.592	4.551e-06	81.423	0.0070831	0.014648	0.004113	1304	0.00013652	0.00016193	958.33	472.97	0.00013919	0.00016066	408.09	157.01	173.41	89.046	0.00014331	82.201	168.610	49.168	31.238	-46.133	38.769	66.746	-47.457	-40.952	89.235	-3.708	-43.675	-38.799	-35.794	-31.046	103.104	-35.116	-8191	255	
39898.930	1	1	0	0	0.2142	0.20868	0.23823	0.14095	0.19849	0.10168	0.14716	0.22968	0.10754	0.16051	0.050258	0.18484	0.32894	0.34087	0.039887	0.18202	-2.3646	-2.3458	-3.0854	-2.3458	-2.9292	-3.0604	-2.3812	-3.4542	-2.5146	-2.5042	-3.6271	-2.5229	-3.0979	-3.425	-2.35	-3.3417	161.681	207.329	251.645	214.521	189.331	74.345	134.450	211.985	75.216	211.600	254.465	2.607	263.478	-38.424	-26.337	201.130	0.0002688	0.00088676	0.0003489	1310.5	6.5383e-06	1.3816e-05	955.99	470.34	4.9645e-06	1.0377e-05	395.89	151.78	169.7	88.156	1.0416e-05	81.067	0.006644	0.013559	0.0037549	1292.8	0.00012748	0.00014997	948.48	468.3	0.00012739	0.00014372	400.16	154.93	171.7	88.398	0.00012498	81.312	165.957	85.729	54.278	-46.282	75.804	77.687	-47.306	-40.866	101.067	110.833	-43.551	-38.860	-35.700	-30.784	81.719	-34.558	-8191	255	
39899.023	1	1	0	0	0.36192	0.14819	0.179	0.18381	0.018911	0.031632	0.097871	0.12906	0.14506	0.18275	0.13972	0.1654	0.14985	0.32987	0.13059	0.11681	-2.2812	-2.4104	-3.1667	-2.725	-2.7458	-3.1583	-2.4479	-3.2729	-2.7854	-2.4708	-3.2771	-2.5771	-2.7771	-3.3021	-2.4833	-3.075	89.276	206.985	21.725	252.973	73.839	261.484	252.235	240.697	48.061	288.392	70.367	187.608	288.035	-57.329	102.358	225.231	0.00019524	0.00090588	0.00021391	1308.3	6.5862e-06	8.6525e-06	950.23	467.86	7.6854e-06	3.1974e-06	392.22	151.69	168.7	87.772	7.6954e-06	80.419	0.0057693	0.01185	0.0032623	1281.9	0.00010987	0.00012788	938.9	463.88	0.00010589	0.00011878	393.68	152.92	169.17	87.348	9.3892e-05	80.04	160.492	88.155	11.784	-46.151	124.892	103.235	-47.546	-40.736	118.282	98.325	-43.050	-39.275	-35.571	-30.814	76.343	-34.681	-8191	255	
39899.121	1	1	0	0	0.15461	0.17629	0.24404	0.20506	0.11785	0.33995	0.20759	0.27951	0.28193	0.19789	0.16076	0.1759	0.40009	0.09362	0.11926	0.085108	-2.4958	-2.3438	-3.2958	-2.7	-2.7938	-3.1979	-2.4646	-3.1729	-2.9125	-2.2938	-3.275	-2.7417	-2.7375	-3.4208	-2.4146	-3.0833	107.878	-39.401	227.229	253.825	163.390	192.177	277.581	223.585	-31.405	162.362	56.118	184.035	-54.156	288.592	177.770	-51.691	0.0001663	0.00060622	0.00016027	1293.9	1.0373e-05	4.1797e-06	941.7	463.22	2.1577e-07	7.7737e-06	391.8	150.21	166.47	87.121	4.5169e-06	80.655	0.0043204	0.008609	0.0023433	1262.3	7.922e-05	9.1951e-05	924.36	456.29	8.0825e-05	9.3314e-05	389.01	150.8	166.8	86.619	7.9547e-05	79.682	163.631	31.334	7.150	-46.118	114.788	54.278	-47.640	-40.706	234.046	112.086	-43.223	-38.975	-35.678	-30.926	107.667	-34.964	-8191	255	
39899.215	1	1	0	0	0.26464	0.25322	0.036595	0.11071	0.20337	0.27129	0.34888	0.18193	0.20069	0.16393	0.323	0.13291	0.21332	0.13865	0.044859	0.13413	-2.6562	-2.2792	-3.2604	-2.9313	-2.3521	-3.1833	-2.475	-2.8875	-3.0438	-2.4188	-3.4729	-2.8479	-2.6458	-3.4583	-2.4875	-2.875	271.581	67.484	282.596	278.274	257.034	246.704	192.793	191.711	94.090	91.132	283.046	239.242	287.047	-29.932	166.057	147.714	0.00017896	0.00036838	0.00026379	1285.6	7.0277e-06	5.1468e-06	936.39	461.57	1.9104e-06	8.0958e-06	388.19	149.27	166.91	87.17	7.597e-06	80.063	0.0037856	0.0075558	0.0020666	1253	7.1691e-05	8.4681e-05	918.13	453.07	7.5952e-05	8.6652e-05	385.49	150	166.96	86.733	7.9223e-05	79.471	167.996	24.821	24.416	-46.111	94.724	127.617	-47.231	-40.942	79.796	72.245	-43.182	-39.019	-35.607	-30.730	63.281	-34.825	-8191	255	
39899.336	1	1	0	0	0.038777	0.33411	0.16957	0.31253	0.15312	0.13767	0.22772	0.24164	0.22197	0.16751	0.25998	0.14973	0.21202	0.067867	0.12162	0.21968	-2.7271	-2.3354	-3.0563	-2.8417	-2.2562	-3.4188	-2.6	-2.9833	-3.1937	-2.4729	-3.2292	-2.9188	-2.4792	-3.1771	-2.5958	-2.5875	87.591	-29.291	187.933	283.915	284.609	167.415	184.847	276.934	183.137	201.240	245.843	43.953	206.019	216.917	141.308	248.111	0.00026675	0.00088885	9.781e-05	1288.1	1.7424e-06	2.2611e-06	932.41	459.8	8.0709e-06	8.7802e-06	382.98	147.25	165.49	86.828	5.2024e-06	79.304	0.0038454	0.007701	0.0021536	1251.8	7.4324e-05	8.6829e-05	913.57	451.64	7.8004e-05	8.7628e-05	379.9	148.39	165.87	86.321	8.3883e-05	78.859	174.729	13.320	-36.492	-46.201	132.072	215.399	-47.496	-40.782	91.965	43.491	-43.174	-39.055	-35.376	-30.737	115.279	-34.814	-8191	255	
39899.434	1	1	0	0	0.14151	0.082335	0.13654	0.14266	0.29225	0.1782	0.061816	0.47075	0.05552	0.16062	0.24741	0.11221	0.16053	0.26869	0.1485	0.28797	-2.8563	-2.4792	-2.9146	-3.1167	-2.1792	-3.1396	-2.7438	-2.8354	-3.3521	-2.2792	-2.9042	-3.0687	-2.4708	-3.3583	-2.6917	-2.575	116.336	37.443	179.895	-36.608	150.262	107.250	-38.759	194.737	78.150	239.209	203.801	-3.079	7.050	264.289	191.696	220.151	0.00022454	0.00035067	0.00013539	1284.7	8.4368e-06	4.8823e-06	934.21	456.68	4.1665e-06	4.9772e-06	381.6	147.3	165.3	86.788	2.3103e-06	79.051	0.0039976	0.0080378	0.0022364	1253.7	7.5418e-05	8.7746e-05	914.92	450.03	7.6792e-05	8.6605e-05	379.56	148.17	165.27	85.917	7.9848e-05	78.414	174.355	48.529	28.921	-46.130	72.113	111.397	-47.505	-40.549	53.877	96.031	-43.096	-39.137	-35.725	-30.824	-9.580	-34.859	-8191	255	
39899.527	1	1	0	0	0.41691	0.18055	0.34055	0.036359	0.1553	0.18923	0.045363	0.082735	0.18055	0.10289	0.215	0.19817	0.19611	0.24182	0.12405	0.30077	-2.9479	-2.475	-2.6813	-3.2542	-2.3896	-3.2104	-2.8708	-2.6937	-3.1937	-2.4354	-2.8812	-3.1354	-2.3896	-3.175	-2.7333	-2.5729	46.172	34.098	206.211	283.821	34.637	-32.980	5.793	209.512	113.735	143.339	51.524	-31.839	56.102	-47.845	142.708	225.792	0.00029104	0.0012847	0.00012576	1284.1	7.9761e-06	1.2653e-05	932.87	458.96	9.467e-06	5.2502e-06	387.82	149.71	167.07	87.262	3.8386e-06	80.327	0.0038727	0.0079421	0.0022143	1253.1	7.5677e-05	8.8933e-05	918.21	453.46	8.1313e-05	9.177e-05	386.19	150.38	167.2	86.78	9.1601e-05	79.728	147.971	61.537	14.136	-46.165	59.946	110.594	-47.204	-40.838	0.998	89.743	-43.391	-38.912	-35.657	-30.701	64.981	-34.751	-8191	255	
39899.625	1	1	0	0	0.17277	0.079494	0.12134	0.12052	0.077597	0.14016	0.13679	0.12934	0.14607	0.22723	0.22767	0.083006	0.10339	0.11172	0.14103	0.09272	-2.7667	-2.4333	-2.6417	-3.2854	-2.35	-2.9375	-3.1437	-2.4979	-3.2562	-2.5146	-2.7792	-3.3917	-2.3688	-3.2146	-3.0896	-2.3583	-56.987	104.195	27.999	151.573	122.330	58.521	182.103	18.922	127.652	243.094	270.961	-43.538	-7.962	-53.390	13.294	278.789	0.00021652	0.00088853	0.0002848	1301.5	7.874e-06	3.4528e-06	948.89	466.74	4.9991e-06	7.7992e-06	393.98	151.21	168.03	87.913	7.5725e-06	80.541	0.0043347	0.0089902	0.0025481	1270.4	8.828e-05	0.0001058	934.72	460.6	9.5315e-05	0.00010901	393.58	152.65	169.12	87.656	0.00010377	80.323	173.730	52.604	20.382	-46.249	74.238	78.992	-47.185	-40.931	40.450	91.888	-43.109	-38.799	-35.606	-30.848	56.958	-34.810	-8191	255	
39899.742	1	1	0	0	0.046556	0.13434	0.12148	0.21547	0.29333	0.20981	0.22696	0.1895	0.15236	0.12089	0.23378	0.23921	0.19287	0.18977	0.13502	0.19822	-2.8729	-2.6083	-2.3917	-3.5	-2.4562	-2.8229	-3.0792	-2.5021	-3.0438	-2.7271	-2.65	-3.2708	-2.5542	-3.0417	-3.1167	-2.5854	49.619	-57.426	-46.708	249.572	123.917	-7.124	211.403	218.818	10.044	228.749	287.972	283.397	279.175	-37.895	138.239	256.150	0.00023275	0.0016866	0.00020179	1306	8.0155e-06	9.0526e-06	945.55	465.29	8.4178e-06	7.0713e-06	391.12	149.93	167.84	87.586	7.2329e-06	80.043	0.0049662	0.010117	0.002853	1277.9	9.6641e-05	0.00011553	935.76	460.73	0.00010242	0.00011791	392.69	152.04	168.96	87.342	0.00011098	80.002	162.747	20.263	11.096	-45.876	88.710	78.218	-47.384	-40.697	164.626	120.895	-43.506	-39.052	-35.668	-30.695	75.264	-34.803	-8191	255	
39899.816	1	1	0	0	0.20361	0.26724	0.19679	0.14391	0.038294	0.31803	0.22609	0.086621	0.10989	0.15666	0.4292	0.15608	0.22096	0.063661	0.052126	0.20975	-2.8479	-2.8375	-2.4604	-3.4875	-2.3771	-2.7604	-3.2729	-2.5938	-2.9979	-2.8667	-2.4104	-3.2521	-2.7792	-2.9396	-3.2229	-2.4146	15.017	230.968	-39.948	68.576	-20.295	297.398	236.744	-51.213	172.346	164.133	294.872	255.551	268.508	284.751	220.655	214.082	0.00032525	0.00052441	0.00020748	1312	1.8791e-06	7.6254e-06	947.95	466.6	4.9283e-06	7.3968e-06	392.42	150.48	168.44	87.891	4.6248e-06	80.418	0.0052917	0.010889	0.0030571	1284.2	0.0001035	0.00012386	939.7	462.42	0.00010959	0.00012459	394.9	152.84	170.07	87.638	0.00011638	80.434	168.304	61.106	18.395	-45.836	73.189	55.963	-47.265	-40.931	45.369	58.204	-42.945	-38.950	-35.726	-30.889	111.749	-34.909	-8191	255	
39899.910	1	1	0	0	0.061393	0.028591	0.17678	0.051397	0.086189	0.085561	0.15484	0.096687	0.161	0.033277	0.048438	0.28896	0.067883	0.20871	0.19048	0.1369	-2.5417	-3.0271	-2.3167	-3.25	-2.7125	-2.7208	-3.4375	-2.5229	-2.8708	-2.9958	-2.3521	-3.3563	-2.8021	-2.6208	-3.2	-2.5875	130.128	43.006	200.093	70.990	-46.058	59.929	-4.606	-17.120	47.513	137.949	-57.072	178.844	35.327	265.092	97.329	-52.135	0.00024551	0.00054082	0.00029948	1311.6	2.6594e-06	1.9904e-06	957.97	468.19	4.9117e-06	5.7391e-06	394.49	150.87	167.7	86.704	4.7378e-06	80.015	0.005494	0.011306	0.00318	1288.8	0.00010866	0.00012927	945.61	464.88	0.00011236	0.00012744	396.98	153.22	169.15	86.738	0.00011005	79.735	168.499	67.312	23.656	-45.987	135.401	44.744	-47.482	-40.913	19.269	27.843	-43.270	-39.091	-35.801	-30.674	92.556	-34.704	-8191	255	
39900.031	1	1	0	0	0.036356	0.32453	0.1214	0.07875	0.14724	0.11565	0.041894	0.18218	0.16366	0.2189	0.2554	0.30649	0.096605	0.11956	0.31902	0.084539	-2.4542	-2.9688	-2.2687	-3.1688	-2.6125	-2.3646	-3.2917	-2.4917	-2.8292	-3.1625	-2.4729	-3.2313	-2.9083	-2.6604	-3.2833	-2.6604	224.885	133.598	132.456	176.265	18.969	234.214	28.949	183.489	164.913	-15.196	257.658	257.909	159.775	231.760	237.151	298.060	0.0002169	0.00037867	0.00032965	1314.7	2.895e-06	7.3328e-06	956.82	467.28	5.4313e-06	1.0759e-05	397.94	151.01	167.09	86.2	6.5682e-06	79.715	0.0051926	0.010608	0.0029579	1287.9	9.9215e-05	0.00011632	944.26	462.55	0.00010065	0.00011316	399.13	152.76	168.33	86.245	0.00010024	79.402	169.332	47.405	43.131	-46.083	72.370	95.530	-47.522	-40.855	134.363	80.294	-43.008	-38.686	-35.372	-30.616	150.806	-34.863	-8191	255	
39900.129	1	1	0	0	0.16557	0.33581	0.085647	0.1338	0.10411	0.065897	0.12095	0.12698	0.097347	0.23783	0.089449	0.1755	0.21179	0.086255	0.25045	0.14464	-2.3167	-3.3521	-2.3167	-3.2792	-2.8917	-2.2208	-3.3458	-2.65	-2.625	-3.1979	-2.2604	-2.9729	-3.0625	-2.6375	-3.1833	-2.7771	299.996	-47.645	32.018	266.015	241.514	93.180	166.525	259.285	154.538	116.486	17.899	151.085	246.432	236.665	45.928	222.304	0.00018253	0.00072895	4.6048e-05	1314.4	4.0409e-06	6.4679e-06	950.22	466.79	2.2834e-06	8.4585e-06	398.7	150.81	168.79	86.483	2.76e-06	79.866	0.0048166	0.0098334	0.0027367	1283.3	9.3236e-05	0.00011026	939.75	462.86	9.9383e-05	0.0001125	398.58	152.59	169.52	86.655	0.00010823	79.7	152.481	85.761	-0.310	-45.941	85.249	72.854	-47.591	-40.870	121.483	87.121	-43.297	-38.780	-35.610	-30.676	43.662	-34.645	-8191	255	
39900.227	1	1	0	0	0.13919	0.040257	0.093694	0.37875	0.21484	0.11666	0.18054	0.074818	0.19462	0.14331	0.11802	0.033261	0.14564	0.063713	0.033972	0.17048	-2.1312	-3.2062	-2.5375	-2.925	-3.0979	-2.3104	-3.4167	-2.8167	-2.5062	-3.1854	-2.4792	-2.9042	-3.2604	-2.5458	-3.1729	-2.8979	140.089	213.496	300.385	240.415	33.008	207.819	206.214	183.791	153.064	19.711	67.967	273.162	281.421	255.025	-26.540	221.041	0.00019785	0.0010616	0.00027646	1324.2	7.4591e-06	1.4429e-05	953.4	471.38	5.8941e-06	7.2943e-06	400.16	152.21	169.38	87.164	9.2703e-07	79.978	0.0053667	0.010973	0.0030636	1294.4	0.00010628	0.0001258	947.27	467.11	0.00011367	0.00012981	401.8	154.41	170.97	87.321	0.0001219	80.239	152.885	45.743	43.647	-46.149	48.278	102.313	-47.228	-40.864	92.230	96.869	-43.035	-38.739	-35.575	-30.864	-38.274	-34.719	-8191	255	
39900.320	1	1	0	0	0.15469	0.18927	0.23035	0.22219	0.16067	0.29286	0.22884	0.25998	0.1123	0.1239	0.16897	0.20911	0.16266	0.073299	0.020483	0.30266	-2.0604	-3.1271	-2.6396	-2.7333	-3.2271	-2.3458	-3.2146	-3.175	-2.2271	-3.3417	-2.6688	-2.8438	-3.3125	-2.6063	-3.1375	-3.1688	-26.039	-50.654	192.620	297.935	-19.222	105.536	99.180	223.816	41.029	0.848	260.583	189.551	261.919	171.593	291.584	216.287	0.00018035	0.0011028	0.00032804	1323.9	7.7855e-06	8.6092e-06	957.86	467.62	5.0699e-06	6.8075e-06	401.83	152.16	169.75	87.238	4.8468e-06	80.179	0.005876	0.011927	0.0033725	1295.2	0.00011494	0.00013551	950.74	467.28	0.0001188	0.00013378	403.15	154.77	170.82	87.248	0.0001197	80.373	167.762	57.145	66.861	-46.020	86.051	59.673	-47.491	-40.598	95.726	65.428	-43.379	-38.726	-35.752	-30.802	158.069	-34.807	-8191	255	
39900.418	1	1	0	0	0.046544	0.14003	0.13631	0.26825	0.17991	0.066366	0.32319	0.14114	0.17117	0.034959	0.12764	0.41078	0.078653	0.036171	0.16708	0.32178	-1.9813	-3.3083	-2.6083	-2.7667	-3.1604	-2.4479	-3.1979	-3.0771	-2.325	-3.0396	-2.7646	-2.5958	-3.4292	-2.5333	-3.0938	-3.1417	243.167	272.602	97.287	248.501	-50.934	0.266	181.762	293.326	270.424	299.029	-45.890	257.433	244.210	-30.922	296.638	250.951	0.00019067	0.00073184	0.00027384	1324.1	6.5469e-06	4.682e-06	958.43	472.53	7.5832e-06	9.8215e-06	404.08	153.02	169.32	87.576	5.6763e-06	80.64	0.0057155	0.011587	0.0032456	1295.9	0.00011019	0.00012989	949.74	468.11	0.00011364	0.00012724	404.94	155.28	170.96	87.503	0.00011522	80.616	152.840	39.073	60.161	-46.077	124.143	110.615	-47.086	-40.835	117.781	104.824	-43.194	-38.848	-35.612	-30.977	115.992	-34.774	-8191	255	
39900.512	1	1	0	0	0.097029	0.034096	0.12378	0.16614	0.053714	0.14086	0.22039	0.5335	0.16149	0.098719	0.067082	0.16222	0.14552	0.45171	0.1158	0.31653	-1.9979	-3.1667	-2.6083	-2.6792	-3.2562	-2.5229	-2.9146	-3.2521	-2.3479	-3.4729	-2.7854	-2.5375	-3.2167	-2.5521	-2.7812	-3.0625	-50.359	260.765	118.533	197.117	124.257	22.459	210.225	251.692	156.425	7.927	-50.233	226.011	240.499	293.004	-40.883	263.989	0.0002241	0.0009013	0.00021957	1320.4	5.8963e-06	1.5002e-05	956.83	470.86	2.9664e-06	8.8896e-06	400.03	152.35	168.82	86.946	8.2621e-06	79.791	0.0054174	0.011059	0.0030757	1293	0.00010387	0.00012128	946.87	467.88	0.00010679	0.00012088	402.34	154.04	170.12	86.896	0.00011027	79.622	134.227	46.988	43.415	-46.041	76.890	107.243	-47.364	-40.963	147.341	45.537	-43.250	-39.140	-35.691	-30.842	80.877	-34.977	-8191	255	
39900.609	1	1	0	0	0.22516	0.049077	0.2797	0.33718	0.23729	0.18366	0.053831	0.2795	0.26369	0.21778	0.065226	0.27792	0.14101	0.36209	0.13525	0.10662	-2.0542	-3.1604	-2.7083	-2.5958	-3.1188	-2.4813	-2.9979	-3.2896	-2.4375	-3.1125	-3.0458	-2.3	-3.2896	-2.7396	-2.8083	-3.4562	88.405	173.320	32.413	283.928	278.065	96.278	231.986	219.739	218.228	-40.255	31.012	219.787	255.967	278.090	194.225	-13.298	0.00025008	0.0011287	0.00032737	1314.9	5.3814e-06	1.1322e-05	951.53	470.52	5.195e-06	6.9091e-06	398.7	150.88	168.15	86.594	2.0836e-06	79.329	0.0051417	0.010457	0.0029443	1285.7	9.8161e-05	0.00011591	939.4	465.33	0.00010159	0.00011663	398.69	152.78	169.61	86.506	0.00010727	79.117	169.713	22.763	52.428	-46.168	116.949	75.728	-47.130	-40.782	71.907	87.216	-43.498	-39.080	-35.647	-30.746	236.339	-34.590	-8191	255	
39900.703	1	1	0	0	0.13465	0.072185	0.0039262	0.082232	0.25048	0.085843	0.24019	0.20912	0.077666	0.1441	0.077711	0.15771	0.16479	0.18009	0.10792	0.068628	-1.9375	-2.95	-3.0312	-2.6688	-3.0875	-2.7667	-2.7812	-3.2521	-2.4833	-2.9375	-3.2417	-2.4854	-3.3646	-2.9146	-2.6333	-3.2667	142.178	146.301	-12.598	281.195	124.106	285.288	191.574	195.880	194.390	208.435	260.998	5.781	151.132	286.994	211.434	192.582	0.00017848	0.0012719	0.00019653	1318.7	4.8559e-06	1.3048e-05	950.34	470.1	1.087e-05	4.5812e-06	399.21	151.61	168.93	86.908	7.5088e-06	79.391	0.0049408	0.010099	0.0028212	1284.8	9.423e-05	0.00011151	937.68	465.17	9.6666e-05	0.00011032	398.28	152.74	169.54	86.681	0.00010151	79.246	166.074	33.008	14.496	-45.975	158.375	134.251	-47.445	-40.669	96.336	66.756	-43.644	-39.005	-35.337	-30.795	91.213	-34.955	-8191	255	
39900.824	1	1	0	0	0.37486	0.16209	0.24905	0.23752	0.14174	0.095332	0.10371	0.1025	0.17448	0.25554	0.28042	0.029803	0.12229	0.37301	0.087727	0.26028	-2.0542	-2.9771	-3.1375	-2.5563	-3.1437	-2.725	-2.7042	-3.3625	-2.4313	-2.6813	-3.2417	-2.3708	-3.1729	-3.2062	-2.3396	-3.3979	7.375	234.955	-14.199	273.374	214.838	-15.724	206.850	292.106	23.352	196.161	271.721	119.985	-51.290	262.351	208.942	170.497	0.00023939	0.0016052	0.00018864	1316.7	4.9926e-06	8.3694e-06	955.52	471.72	4.5487e-06	2.7259e-06	399.55	150.9	168.1	86.308	6.9043e-06	79.185	0.0048071	0.0097949	0.0027084	1284.4	9.1469e-05	0.00010925	939.82	465.1	9.3375e-05	0.00010722	398.34	152.37	168.97	86.189	9.7929e-05	79.078	156.339	58.658	55.178	-46.208	54.152	97.434	-47.303	-40.878	149.904	187.916	-43.176	-38.590	-35.573	-30.545	103.281	-34.725	-8191	255	
39900.922	1	1	0	0	0.13601	0.078956	0.057156	0.17612	0.17266	0.26912	0.18077	0.29096	0.015226	0.054991	0.2989	0.27191	0.22692	0.20322	0.18262	0.10034	-2.1771	-2.5979	-3.3812	-2.5187	-3.1625	-2.8729	-2.5792	-3.3604	-2.6854	-2.5187	-3.1333	-2.5896	-3.1542	-3.0833	-2.4125	-3.4375	130.505	298.698	242.263	290.414	259.941	170.625	297.435	268.604	127.140	271.440	-56.518	37.508	260.651	297.913	46.692	243.354	0.00019767	0.00066187	0.0001285	1314.9	5.5935e-06	7.6515e-06	957.36	470.42	8.5166e-07	1.1836e-05	398.88	150.86	169.05	86.72	3.788e-06	79.079	0.0046014	0.0095523	0.0026447	1284.2	8.9336e-05	0.00010679	940.81	464.76	9.3491e-05	0.00010667	398.84	152.55	169.49	86.319	9.7223e-05	78.935	158.532	51.953	51.982	-46.152	121.097	33.445	-47.499	-40.547	20.489	105.526	-43.162	-38.944	-35.581	-30.767	26.589	-34.831	-8191	255	
39901.016	1	1	0	0	0.26578	0.10748	0.12971	0.24471	0.15861	0.27249	0.23078	0.2472	0.14219	0.10516	0.11723	0.25909	0.25362	0.26119	0.14547	0.044936	-2.4583	-2.5271	-3.1667	-2.6354	-2.9021	-3.2771	-2.4542	-3.3104	-2.8979	-2.4708	-3.2417	-2.6208	-3.0625	-3.3312	-2.2875	-3.2625	90.964	-42.266	289.109	-27.512	251.875	274.606	265.176	272.309	105.656	261.286	153.411	241.774	32.964	-24.592	70.286	190.911	0.00024887	0.00075442	0.00028308	1314.5	3.9415e-06	6.3906e-06	951.14	470.66	8.5068e-06	7.3275e-06	399.87	150.25	168.55	87.103	1.1053e-05	78.896	0.0046584	0.0096351	0.0026103	1281.7	9.2234e-05	0.00010794	935.86	465.07	9.7079e-05	0.00011099	398.27	152.08	169.84	86.63	0.00010295	78.846	158.747	41.231	20.115	-46.254	118.814	64.175	-47.367	-40.657	110.224	112.318	-43.242	-39.047	-35.677	-30.832	77.434	-34.748	-8191	255	
39901.113	1	1	0	0	0.11168	0.26402	0.16652	0.14378	0.47349	0.20236	0.15377	0.36371	0.064138	0.15045	0.029372	0.20809	0.24215	0.31569	0.1409	0.31211	-2.4917	-2.3438	-3.2292	-2.4813	-2.75	-3.1771	-2.3854	-3.2417	-2.8563	-2.4771	-3.3833	-2.6292	-2.7875	-3.4833	-2.3083	-3.4083	80.737	-15.320	80.573	208.730	-5.791	106.445	240.026	238.699	239.668	186.123	-15.327	234.245	233.722	264.696	271.982	280.369	0.00020089	0.0011275	0.00015759	1315.9	5.7294e-06	1.043e-05	947.41	471.35	4.0592e-06	9.2613e-06	396.03	150.8	169.08	86.718	7.3433e-06	79.088	0.0048619	0.010006	0.0027576	1284.8	9.5531e-05	0.0001124	935.52	464.86	9.9166e-05	0.00011332	397.22	152.62	170.01	86.679	0.00010288	78.967	141.481	-29.567	17.317	-46.274	83.830	66.355	-47.511	-40.621	118.086	42.046	-43.190	-39.093	-35.586	-31.022	60.623	-34.657	-8191	255	
39901.211	1	1	0	0	0.25003	0.18022	0.086284	0.092484	0.18866	0.23303	0.26087	0.2974	0.21754	0.27343	0.060456	0.15184	0.23709	0.3697	0.20548	0.29334	-2.5792	-2.2521	-3.2375	-2.7896	-2.6333	-3.1458	-2.4917	-3.1479	-2.9146	-2.3667	-3.3896	-2.7792	-2.7313	-3.4104	-2.5979	-3.0167	239.243	-15.689	40.435	219.025	-48.800	114.961	194.292	241.066	70.331	257.080	45.814	105.431	-15.660	271.747	-32.837	235.703	0.00028538	0.0010912	0.00025738	1312.6	4.1498e-06	5.9307e-06	950.6	471.08	3.0971e-06	5.6194e-06	397.51	151.76	169.36	87.278	3.6209e-06	79.413	0.0049146	0.010027	0.0027601	1283.3	9.6369e-05	0.00011171	936.66	465.52	9.8824e-05	0.0001132	397.71	152.78	170.14	87.091	0.00010342	79.388	161.508	30.407	22.276	-46.116	77.032	14.437	-47.526	-40.812	100.795	83.579	-43.274	-38.971	-35.448	-30.825	110.507	-34.707	-8191	255	
39901.305	1	1	0	0	0.39195	0.24979	0.2	0.18895	0.22521	0.15671	0.12622	0.18735	0.19156	0.15361	0.031817	0.077298	0.12956	0.39651	0.066963	0.051416	-2.575	-2.3021	-3.2188	-2.9542	-2.3771	-3.3146	-2.5812	-2.9062	-3.2	-2.2687	-3.3458	-3.0042	-2.6021	-3.4562	-2.5458	-2.975	83.619	-50.184	29.234	285.819	-36.364	96.093	229.392	202.963	185.320	179.163	155.751	-27.325	213.764	-50.341	275.189	299.416	0.00022597	0.00060889	0.00011548	1317.6	3.5379e-06	1.1336e-05	951.56	470.2	4.073e-06	4.8295e-06	398.98	151.59	168.16	87.158	2.6398e-06	79.086	0.0048049	0.0098942	0.002745	1285.6	9.5028e-05	0.00011084	940.66	465.31	9.7842e-05	0.0001104	399.1	153.02	169.58	86.741	0.00010091	79.177	146.423	46.017	-7.128	-46.163	123.284	89.420	-47.440	-40.590	106.606	61.693	-43.169	-39.049	-35.676	-30.734	107.111	-34.805	-8191	255	
39901.426	1	1	0	0	0.050506	0.16366	0.18562	0.16174	0.092997	0.27058	0.26083	0.27288	0.17366	0.14455	0.083006	0.12726	0.16014	0.29434	0.10094	0.23401	-2.7167	-2.2	-3.0667	-3.1875	-2.5646	-3.4188	-2.75	-2.8146	-3.2438	-2.4542	-3.3021	-2.9229	-2.65	-3.4354	-2.6896	-2.7458	128.080	228.318	145.768	219.728	-57.878	282.906	248.653	251.331	230.924	231.036	192.339	70.339	245.608	252.099	94.558	-19.457	0.00023693	0.00044776	0.00014381	1306.4	8.1006e-07	9.1313e-06	945.78	467.35	7.8283e-06	1.5495e-05	392.86	149.93	166.84	85.961	5.2529e-07	77.727	0.0048285	0.0098658	0.0027795	1279.4	9.5141e-05	0.00011186	932.55	461.89	9.8282e-05	0.00011378	392.2	150.91	168.32	85.842	0.00010699	77.678	157.345	25.214	30.247	-46.076	63.207	85.401	-47.525	-40.748	86.250	107.781	-42.861	-39.071	-35.511	-30.595	65.615	-34.604	-8191	255	
39901.520	1	1	0	0	0.21731	0.29636	0.30947	0.35233	0.11014	0.078195	0.40563	0.13433	0.16991	0.14841	0.17898	0.25701	0.16842	0.17575	0.21669	0.0079884	-2.9083	-2.3271	-2.8688	-3.1729	-2.3896	-3.15	-2.7229	-2.7687	-3.3875	-2.5812	-2.9354	-3.2417	-2.6396	-3.2646	-2.7833	-2.7146	252.342	84.773	273.480	262.531	-18.484	90.786	-44.645	243.254	46.037	55.552	215.964	150.086	239.606	271.343	9.310	219.192	0.00012601	0.0012968	0.00015921	1305.2	5.9754e-06	5.6546e-06	941.49	464.54	4.9163e-06	4.4129e-06	388.29	148.84	166.48	86.324	7.3353e-06	77.72	0.0049391	0.01024	0.0028671	1276.1	9.7421e-05	0.00011483	930.53	458.59	0.00010249	0.00011605	389.12	150.63	168.35	85.811	0.00010918	77.667	159.208	48.004	78.612	-45.920	85.185	80.587	-47.275	-40.747	129.363	-10.164	-43.114	-39.079	-35.541	-30.513	98.606	-34.720	-8191	255	
39901.617	1	1	0	0	0.19432	0.17651	0.36254	0.13131	0.30406	0.16435	0.25916	0.35613	0.10783	0.073988	0.17868	0.17852	0.29784	0.10497	0.19249	0.20826	-2.8125	-2.5312	-2.7083	-3.5208	-2.3542	-3.2167	-3.1042	-2.5792	-3.4333	-2.6958	-2.6354	-3.475	-2.4583	-3.1854	-2.9625	-2.6542	272.115	266.202	80.437	220.804	2.087	9.754	144.639	249.473	194.406	5.987	204.629	233.427	283.576	237.262	117.276	247.385	0.00025955	0.00096581	0.00014032	1306.2	6.8258e-06	1.109e-05	943.42	462.24	4.3572e-06	2.4874e-06	391.31	148.24	166.76	85.98	9.3343e-06	77.391	0.0051203	0.010414	0.0029534	1278.2	9.9051e-05	0.00011667	931.85	459.27	0.00010207	0.00011654	391.22	150.53	168.12	85.744	0.00010702	77.668	135.823	15.879	43.793	-46.028	94.700	76.796	-47.273	-40.524	82.580	-15.163	-43.089	-38.906	-35.370	-30.583	112.290	-34.534	-8191	255	
39901.688	1	1	0	0	0.11322	0.17549	0.14046	0.25823	0.21655	0.16619	0.33119	0.07147	0.10155	0.098906	0.19931	0.12952	0.11907	0.072924	0.2152	0.085145	-2.9604	-2.5542	-2.6604	-3.4333	-2.2208	-3.0458	-3.0979	-2.5833	-3.1937	-2.8708	-2.7229	-3.4792	-2.5375	-3.0583	-3.1625	-2.4771	141.064	276.733	85.904	243.202	234.568	54.001	216.289	-3.779	-38.104	247.982	-53.162	265.249	270.252	134.654	84.148	177.940	0.00016961	0.00058002	0.00026654	1302	3.2295e-06	7.1128e-06	941.69	462.54	7.9281e-06	6.9587e-06	393.71	149.64	166.4	85.623	1.6632e-06	78.108	0.005025	0.010463	0.0029314	1277.1	9.8523e-05	0.00011707	932.17	459.29	0.00010351	0.00011898	394.17	151.2	167.87	85.604	0.00011073	77.945	146.825	62.435	30.233	-46.047	111.626	94.771	-47.123	-40.616	71.880	77.729	-43.108	-38.957	-35.713	-30.741	-19.653	-35.079	-8191	255	
39901.809	1	1	0	0	0.10738	0.28762	0.051197	0.28512	0.15525	0.20691	0.27019	0.10901	0.12772	0.28075	0.20242	0.26594	0.052195	0.49558	0.10657	0.25577	-2.9979	-2.5312	-2.2875	-3.4354	-2.4167	-2.8042	-3.3042	-2.4979	-3.0938	-2.7854	-2.6896	-3.1167	-2.5396	-2.9813	-3.1292	-2.5958	245.714	72.693	49.967	298.167	246.711	274.202	126.965	2.783	224.254	274.891	273.253	-34.574	252.969	280.954	212.842	-39.192	0.00021914	0.0010948	0.00028597	1302	4.75e-06	9.0213e-06	943.55	463.32	1.2666e-06	4.6011e-06	390.63	148.54	166.66	85.518	7.7746e-06	77.293	0.0051698	0.010747	0.003022	1275.8	0.00010251	0.00012166	932.34	459.39	0.00010602	0.00012264	392.96	150.47	167.91	85.531	0.00011278	77.463	152.887	11.506	15.073	-46.068	158.746	85.275	-47.086	-40.440	-24.162	77.891	-42.938	-38.675	-35.779	-30.546	173.845	-34.808	-8191	255	
39901.906	1	1	0	0	0.11039	0.17599	0.13314	0.23941	0.17409	0.24309	0.072312	0.10755	0.019918	0.1024	0.19737	0.28403	0.16279	0.339	0.20257	0.23479	-2.7917	-2.6917	-2.4062	-3.5062	-2.4437	-2.625	-3.3	-2.375	-2.9125	-2.7646	-2.5292	-3.3187	-2.7896	-2.6604	-3.4208	-2.5208	-53.753	151.819	266.323	284.894	101.556	233.082	217.055	227.820	258.973	198.845	-40.952	224.479	104.486	278.429	70.297	285.889	0.00018333	0.00027247	0.00033343	1309.3	7.1483e-06	9.2556e-06	946.41	464.8	4.849e-06	1.0089e-05	393.12	149.07	168.22	86.465	3.2756e-06	77.707	0.0054212	0.011209	0.0031484	1281.1	0.00010586	0.00012755	932.91	461.72	0.00011231	0.00012837	394.11	151.56	169.9	86.543	0.00011888	77.974	177.360	143.703	33.517	-45.932	84.386	84.433	-47.438	-40.826	119.997	74.689	-43.286	-38.875	-35.715	-30.726	69.079	-34.486	-8191	255	
39902.000	1	1	0	0	0.19437	0.13515	0.2768	0.21013	0.065499	0.11946	0.14292	0.18136	0.046635	0.11244	0.22239	0.18004	0.22133	0.43439	0.20127	0.16644	-2.5979	-3.175	-2.2438	-3.3187	-2.6833	-2.5021	-3.4417	-2.45	-2.9646	-3.0833	-2.3792	-3.2562	-2.9208	-2.7729	-3.2729	-2.575	133.032	225.405	276.915	224.492	284.743	187.470	248.373	300.211	250.923	-50.884	160.028	153.299	240.247	251.101	153.669	-27.536	0.00018135	0.0010476	0.00030422	1311.2	7.9443e-06	1.3046e-05	943.09	466.56	5.4539e-06	1.0816e-05	393.27	149.64	168.43	86.748	4.972e-06	78.033	0.0056922	0.011723	0.0032964	1285.8	0.00011294	0.00013538	935.16	464.06	0.00011869	0.00013502	395.29	152.08	170.71	86.839	0.00012578	78.466	164.713	8.111	1.431	-45.954	72.643	76.626	-47.271	-40.545	151.243	60.364	-42.965	-38.836	-35.499	-30.494	103.460	-34.983	-8191	255	
39902.098	1	1	0	0	0.087506	0.078064	0.092811	0.20927	0.19728	0.26478	0.1113	0.21145	0.23787	0.20504	0.18484	0.18782	0.17918	0.14966	0.081643	0.29821	-2.3542	-3.1354	-2.2542	-3.2396	-2.8	-2.3812	-3.3583	-2.8646	-2.7396	-3.1417	-2.3667	-3.1958	-2.9979	-2.6229	-3.1167	-2.6562	113.673	93.957	107.913	240.948	31.704	19.774	152.094	204.012	264.342	23.819	294.519	257.984	-45.375	276.942	115.376	197.004	0.00018612	0.00049903	0.00015984	1306.4	3.0009e-06	9.1792e-06	943.59	465.58	3.6207e-06	8.6784e-06	391.59	149.22	168.38	86.648	7.6735e-06	77.926	0.0059844	0.012089	0.0033927	1285.3	0.00011483	0.0001372	935.55	463.48	0.00011918	0.00013446	394.73	152.36	170.07	86.719	0.00012226	78.322	161.124	70.508	41.963	-45.729	160.110	81.279	-47.001	-40.714	123.432	118.762	-43.135	-38.755	-35.733	-30.600	91.679	-34.570	-8191	255	
39902.215	1	1	0	0	0.22854	0.23541	0.069797	0.20104	0.31236	0.041326	0.27396	0.14072	0.16109	0.12311	0.12582	0.055605	0.26104	0.155	0.1772	0.22265	-2.2792	-3.2792	-2.4021	-3.1833	-3.05	-2.2833	-3.2792	-2.8187	-2.6583	-3.2792	-2.3229	-3.0521	-3.0875	-2.4208	-3.35	-2.8125	-38.261	107.559	119.415	290.437	59.324	130.034	-40.536	247.907	16.800	-46.245	267.379	209.292	263.277	-53.636	221.832	232.710	0.00017383	0.00063289	0.0004704	1307.1	6.4645e-06	5.9521e-06	946.12	464.54	2.1529e-06	5.3424e-06	391.46	149.25	166.63	85.888	9.5401e-06	77.504	0.0059027	0.011928	0.0033005	1282.5	0.00011448	0.0001349	934.95	462.13	0.00011795	0.00013481	394.59	151.62	169.17	86.116	0.00012196	77.75	143.159	281.188	3.231	-45.584	56.946	36.322	-47.052	-40.307	96.876	120.945	-43.210	-38.520	-35.670	-30.562	75.955	-34.759	-8191	255	
39902.289	1	1	0	0	0.11436	0.17139	0.23928	0.21374	0.13761	0.27497	0.24145	0.1761	0.23433	0.26654	0.16215	0.075235	0.1756	0.18531	0.073563	0.1146	-2.2917	-3.1458	-2.4208	-3.1312	-3.1125	-2.1937	-3.2292	-2.9667	-2.5583	-3.3417	-2.6083	-2.9521	-3.2667	-2.3167	-3.0979	-2.9417	106.672	-43.693	253.775	-53.937	108.981	74.502	301.314	286.986	103.808	158.219	178.134	297.360	281.732	255.653	187.778	273.704	0.00020312	0.00089602	0.00022183	1298.7	6.1973e-06	1.0041e-05	938.33	463.87	9.0502e-06	5.7377e-06	387.09	147.36	167.34	85.802	2.5241e-06	76.505	0.0059035	0.011835	0.0033586	1277.4	0.00011384	0.00013478	929.72	460.7	0.00011929	0.00013373	390.72	150.22	169.04	85.688	0.00012322	76.994	179.060	78.378	6.046	-45.823	87.979	86.018	-47.039	-40.696	44.016	69.118	-42.802	-38.711	-35.684	-30.832	-36.641	-34.865	-8191	255	
39902.387	1	1	0	0	0.035833	0.056872	0.25979	0.301	0.083946	0.064412	0.3385	0.2188	0.14621	0.12749	0.04983	0.063954	0.3181	0.22114	0.2873	0.11681	-2.1479	-3.2188	-2.3917	-2.9375	-3.3354	-2.3292	-3.2771	-3.0583	-2.3812	-3.3646	-2.7146	-2.8042	-3.2292	-2.5917	-2.9792	-3.0438	-29.485	-49.051	49.544	275.737	221.016	30.005	217.591	286.455	75.417	13.621	117.876	247.004	291.022	287.495	149.879	282.966	0.00011219	0.00089573	7.6298e-05	1303.3	2.4816e-06	1.5183e-06	935.67	463.59	1.0126e-05	1.0815e-05	388.86	148.83	168.21	86.194	1.0509e-05	77.245	0.0058399	0.011918	0.003341	1276	0.00011355	0.00013371	926.83	460.5	0.00011813	0.000134	391.21	151.07	169.84	86.337	0.00012448	77.617	143.364	12.006	4.732	-46.139	161.749	227.510	-47.405	-40.621	32.817	108.761	-43.135	-39.028	-35.543	-30.723	144.902	-34.902	-8191	255	
39902.508	1	1	0	0	0.23892	0.31088	0.35726	0.23589	0.23631	0.12939	0.18902	0.28047	0.20617	0.17886	0.20005	0.035319	0.14076	0.22319	0.13848	0.013848	-2.1271	-3.0917	-2.4729	-2.8417	-3.2896	-2.4875	-3.0854	-3.15	-2.3521	-3.3229	-2.7833	-2.575	-3.475	-2.6125	-2.7583	-3.3583	266.787	165.507	-22.143	227.954	299.891	36.550	276.646	236.776	5.084	227.740	-58.503	136.480	189.054	-27.797	154.930	-25.890	0.00018504	0.00021618	0.00027811	1301.5	4.5455e-06	1.3384e-06	940.04	466.86	6.3645e-06	6.0499e-06	391.25	150.03	169.24	87.7	2.754e-06	78.454	0.0058631	0.012151	0.0033701	1280.9	0.00011548	0.0001377	933.67	463.91	0.0001216	0.00013799	394.86	153.27	171.83	87.532	0.00012995	78.885	186.371	89.083	58.824	-45.928	107.899	82.492	-47.180	-40.682	67.449	78.877	-43.175	-38.771	-35.806	-30.839	75.505	-35.052	-8191	255	
39902.602	1	1	0	0	0.13626	0.12303	0.096926	0.29491	0.11749	0.17957	0.18511	0.23555	0.20097	0.13242	0.15737	0.21523	0.12572	0.34368	0.15366	0.044761	-1.9208	-3.25	-2.7833	-2.75	-3.2854	-2.4104	-2.7687	-3.3063	-2.4688	-3.1521	-2.8937	-2.7083	-3.3583	-2.7708	-2.6625	-3.4042	268.217	158.632	58.570	238.904	12.142	136.664	206.591	265.053	223.868	250.691	125.195	252.526	-27.144	-55.162	121.548	288.125	0.00022387	0.001636	0.00030176	1309	8.0096e-06	2.5719e-06	946.79	469.98	2.065e-06	9.8484e-06	392.3	150.43	170.21	87.574	9.4208e-06	78.13	0.0061219	0.012465	0.003543	1286.8	0.00011886	0.00014066	937.72	466.77	0.00012319	0.00014014	396.65	153.75	172.12	87.682	0.00013044	78.835	162.537	8.432	6.499	-45.883	111.390	8.180	-47.102	-40.725	102.829	57.172	-43.173	-38.807	-35.530	-30.778	87.727	-34.911	-8191	255	
39902.695	1	1	0	0	0.19002	0.30864	0.12843	0.33057	0.082256	0.12529	0.21077	0.12033	0.11779	0.18601	0.04425	0.071416	0.070629	0.19274	0.24706	0.19884	-2.0938	-3.0146	-2.7646	-2.7042	-3.3854	-2.6375	-2.5229	-3.3354	-2.3771	-3.0938	-3.1729	-2.5167	-3.2896	-2.7708	-2.4854	-3.3271	89.993	268.383	261.516	295.392	142.004	7.359	188.266	159.869	51.013	-49.786	109.795	207.400	238.080	-48.176	209.148	282.959	0.00021218	0.0018322	0.00023442	1310.5	1.5092e-06	4.7066e-06	939.95	465.73	8.368e-06	7.8438e-06	388.24	149.42	168.88	87.055	3.854e-06	77.733	0.0061211	0.012818	0.0035671	1286.4	0.00012009	0.00014379	933.86	463.4	0.00012557	0.00014502	390.86	151.98	171.01	87.117	0.00013277	78.3	176.295	17.852	29.245	-45.910	108.838	94.005	-47.147	-40.534	43.985	96.536	-43.055	-38.642	-35.516	-30.612	-6.864	-34.936	-8191	255	
39902.816	1	1	0	0	0.16933	0.13963	0.08429	0.26725	0.12023	0.12535	0.16368	0.0066895	0.05687	0.085874	0.25008	0.07289	0.096814	0.18327	0.096519	0.174	-1.9833	-2.875	-3.1292	-2.5208	-3.15	-2.8396	-2.7042	-3.5938	-2.4479	-3.075	-3.2729	-2.3854	-3.2896	-2.9854	-2.4854	-3.3729	222.364	264.652	167.630	266.089	-35.095	13.381	122.346	105.374	113.179	118.872	-25.348	46.655	257.708	283.105	75.889	281.537	0.00023994	0.0013148	0.00029234	1309.4	8.9049e-06	1.3949e-05	935.75	464.18	2.8219e-06	4.8314e-06	387.11	149.53	169.01	87.303	1.2481e-05	77.473	0.0061748	0.012806	0.0036031	1282.2	0.00012028	0.00014376	929.87	462.6	0.00012467	0.00014406	389.26	152.1	171.19	87.402	0.00013028	78.168	163.597	-1.271	30.444	-45.926	56.499	75.908	-47.454	-40.620	143.784	135.341	-42.992	-38.957	-35.395	-30.985	103.752	-34.744	-8191	255	
39902.914	1	1	0	0	0.021004	0.052003	0.29303	0.38067	0.19206	0.080629	0.16377	0.26112	0.13865	0.060154	0.044997	0.36305	0.060392	0.30287	0.24929	0.27053	-2.125	-2.6188	-3.0333	-2.4792	-3.0917	-2.8312	-2.3187	-3.3854	-2.5229	-2.6583	-3.1458	-2.3833	-3.3187	-3.0354	-2.3167	-3.4979	166.949	39.261	290.405	241.402	65.323	250.351	276.047	289.078	199.799	-26.590	8.430	270.120	201.697	-44.024	102.404	189.383	0.00019454	0.00040089	0.00021461	1306.1	9.5334e-06	7.6044e-06	938.06	465.46	4.1657e-06	5.371e-06	386.34	149.92	170.36	87.418	9.1619e-06	78.449	0.0060705	0.012638	0.0035171	1281.9	0.00011923	0.00014182	930.6	463.42	0.00012492	0.00014323	390.57	152.69	172.24	87.736	0.00013445	79.066	147.577	-22.774	74.822	-45.960	88.352	108.384	-47.020	-40.675	115.246	147.409	-43.348	-38.923	-35.334	-30.601	122.163	-34.796	-8191	255	
39902.984	1	1	0	0	0.099425	0.079792	0.1357	0.2614	0.1976	0.24553	0.012423	0.067948	0.038998	0.10461	0.23158	0.25883	0.23527	0.39159	0.10464	0.22105	-2.2125	-2.6729	-3.2271	-2.4083	-2.8563	-3.0187	-2.5542	-3.4396	-2.6333	-2.4917	-3.375	-2.475	-3.0083	-3.2125	-2.2792	-3.2917	299.549	233.218	29.791	223.349	12.230	283.536	286.577	287.506	120.165	281.612	2.423	182.853	242.282	283.231	20.001	292.836	0.00023554	0.00046764	6.3478e-05	1302.4	9.4546e-06	7.0252e-06	939.67	466.25	6.4569e-06	3.8916e-06	388.13	150.79	170.45	87.741	5.5176e-06	78.593	0.0063948	0.013431	0.0037621	1283	0.00012854	0.00015218	935.27	464.9	0.0001342	0.00015323	393.51	154.08	173.1	88.029	0.00013842	79.407	154.026	42.268	218.624	-46.004	74.975	42.458	-47.463	-40.441	64.254	63.785	-43.204	-38.803	-35.484	-30.707	57.266	-34.920	-8191	255	
39903.105	1	1	0	0	0.058556	0.10451	0.4436	0.27486	0.1487	0.12977	0.064377	0.34606	0.11436	0.26602	0.16953	0.28387	0.13504	0.13215	0.19363	0.12686	-2.3521	-2.4375	-3.2375	-2.6042	-2.7896	-3.1458	-2.4667	-3.1917	-2.7729	-2.6042	-3.3396	-2.5938	-2.9437	-3.3125	-2.45	-3.3542	243.832	298.772	205.180	-36.528	-48.470	269.823	264.769	287.199	16.238	260.434	217.299	278.545	164.458	-7.256	43.272	226.950	0.0002416	0.00055434	0.00015378	1300.6	4.326e-06	1.308e-05	933.77	467.18	2.5492e-06	6.0626e-06	385.23	149.32	169.8	87.513	7.653e-06	78.242	0.0064706	0.01341	0.0036938	1283.8	0.00012495	0.00014668	930.41	464.02	0.00012778	0.00014502	388.59	152.34	172.06	87.713	0.00013299	78.566	163.577	5.712	8.462	-45.955	175.598	93.973	-47.285	-40.452	91.034	10.306	-43.109	-38.751	-35.228	-30.652	115.780	-34.724	-8191	255	
39903.203	1	1	0	0	0.10212	0.23062	0.071189	0.076007	0.080919	0.14407	0.15327	0.20533	0.036697	0.030595	0.25838	0.22976	0.19486	0.32583	0.053634	0.086604	-2.75	-2.3542	-3.2396	-2.7521	-2.7708	-3.2208	-2.5521	-3.2562	-2.9521	-2.4333	-3.2479	-2.7	-2.6979	-3.1979	-2.4146	-3.0667	129.963	215.818	136.735	197.301	26.102	-39.297	242.370	275.606	172.201	255.845	256.053	292.499	250.277	225.612	40.802	263.493	0.00026176	0.00096652	0.00018106	1295.7	9.6225e-06	5.0891e-06	930.45	464.44	4.4308e-06	9.5366e-06	380.74	149.09	170.42	88.041	5.8895e-06	78.293	0.006221	0.0129	0.0035749	1277	0.0001238	0.00014509	925.3	462.7	0.00012948	0.00014826	385.45	152.35	172.75	88.272	0.00014258	79.11	157.582	57.430	54.804	-45.902	86.438	54.126	-47.175	-40.458	88.970	148.591	-42.880	-38.635	-35.306	-30.703	29.750	-34.605	-8191	255	
39903.297	1	1	0	0	0.17228	0.14925	0.07842	0.22083	0.084806	0.069896	0.25585	0.13191	0.060513	0.075625	0.04934	0.11765	0.3074	0.39484	0.11385	0.097948	-2.7833	-2.2792	-3.2771	-2.6437	-2.5625	-3.3292	-2.5812	-3.0812	-3.0896	-2.3479	-3.1188	-2.7833	-2.6208	-3.4729	-2.425	-2.9938	166.461	30.198	117.109	295.259	231.087	238.804	239.881	179.733	61.257	-8.058	39.240	301.374	248.109	300.256	152.010	192.939	0.00025635	0.00088963	0.00040196	1308.5	7.2763e-06	9.2786e-06	933.64	465.83	2.8798e-06	6.7639e-06	382.44	149.82	170.79	88.11	9.4913e-06	78.69	0.0068491	0.014326	0.0040163	1287.4	0.00013909	0.00016366	932.37	466.28	0.00014624	0.00016437	389.76	153.92	173.99	88.845	0.00014766	79.577	141.207	18.608	50.232	-45.920	110.684	52.107	-47.209	-40.210	138.517	-5.560	-42.880	-38.606	-35.205	-30.620	60.478	-34.520	-8191	255	
39903.395	1	1	0	0	0.063039	0.20415	0.10556	0.25222	0.15342	0.19775	0.094063	0.2863	0.081829	0.077964	0.068753	0.24953	0.25397	0.048436	0.1274	0.16245	-2.7083	-2.4271	-3.0792	-3.1104	-2.5708	-3.475	-2.5583	-2.8312	-3.0521	-2.425	-3.05	-3.0229	-2.6167	-3.3542	-2.5375	-2.8125	80.973	298.094	257.178	273.210	232.012	197.777	207.439	270.837	239.049	80.846	-21.549	290.037	222.238	129.260	87.254	-30.367	0.00019615	0.00099236	9.3884e-05	1300.5	4.7403e-06	6.4402e-06	934.7	466.93	3.1249e-06	5.8035e-06	384.72	150.34	171.4	88.354	6.3641e-06	79.132	0.0070163	0.014238	0.0040028	1283.5	0.00013706	0.00016012	931.69	466.09	0.00014136	0.00015974	390.45	154.05	173.67	88.617	0.00014433	79.811	181.418	1.262	51.516	-46.004	47.106	132.325	-47.239	-40.442	207.066	117.392	-42.974	-38.799	-35.246	-30.680	35.310	-34.648	-8191	255	
39903.512	1	1	0	0	0.068638	0.16346	0.18161	0.32067	0.087459	0.24105	0.21135	0.087641	0.062063	0.18819	0.13445	0.25587	0.10684	0.27893	0.14939	0.23219	-2.7708	-2.325	-2.9896	-3.0938	-2.325	-3.4604	-2.8021	-2.7667	-3.3521	-2.3125	-3.1583	-3.3167	-2.3063	-3.5167	-2.7333	-2.5167	87.181	167.178	-38.860	268.440	232.709	-34.347	223.128	238.302	84.418	217.714	44.668	7.876	8.160	-42.136	5.294	175.332	0.00013655	0.00052811	0.00026551	1303.9	7.4527e-06	7.2346e-06	928.6	465.94	5.4893e-06	1.3493e-05	382.94	149.18	169.91	87.795	5.5908e-06	78.023	0.0067612	0.013885	0.0039175	1283.1	0.00013201	0.00015732	928.31	464.32	0.0001403	0.0001595	388.81	153.21	172.86	88.18	0.00014851	79.076	185.707	46.537	72.523	-45.804	21.318	151.304	-46.947	-40.351	25.986	104.736	-42.882	-38.547	-35.275	-30.529	78.618	-34.841	-8191	255	
39903.586	1	1	0	0	0.15976	0.0097493	0.16962	0.36316	0.13831	0.047551	0.23674	0.49485	0.053848	0.23593	0.18293	0.14697	0.033788	0.21972	0.31361	0.12481	-2.9104	-2.3312	-2.8771	-3.2708	-2.1792	-3.1771	-2.8667	-2.6083	-3.1458	-2.4604	-2.8875	-3.2208	-2.4646	-3.1854	-2.8563	-2.3667	175.366	-8.774	281.865	275.910	56.219	-14.591	243.518	256.066	226.855	168.376	203.412	53.651	16.641	-2.961	174.001	15.035	0.00012811	0.0012376	0.0001591	1292.4	2.4152e-06	1.026e-05	927.84	460.47	8.2368e-06	5.9415e-06	377.1	148.68	168.45	87.283	1.9193e-06	78.108	0.0069576	0.01454	0.0040915	1277.9	0.00013927	0.00016681	927.74	461.46	0.00015058	0.00017388	386.71	152.75	172.68	88.149	0.00016461	79.256	154.037	8.860	10.265	-45.902	96.989	59.133	-47.012	-40.689	-1.110	50.112	-42.964	-38.908	-35.512	-30.660	163.439	-34.500	-8191	255	
39903.680	1	1	0	0	0.13422	0.15555	0.20931	0.37562	0.32278	0.08717	0.089792	0.10824	0.12062	0.33596	0.11609	0.095957	0.30599	0.013865	0.14186	0.10384	-2.9958	-2.4208	-2.5917	-3.3521	-2.3688	-2.9458	-3.0854	-2.4854	-3.3396	-2.4646	-2.7083	-3.4271	-2.3896	-3.1854	-2.9792	-2.5083	220.332	92.771	272.955	268.472	259.817	119.017	14.939	214.256	136.243	51.586	-22.130	10.186	293.479	65.565	122.917	255.312	0.00017471	0.00048237	0.00026818	1297.8	7.0787e-06	6.1145e-06	927.57	464.43	5.7389e-06	7.441e-06	378.01	149.59	170.42	88.363	1.2007e-06	78.649	0.0077691	0.016305	0.0045899	1285	0.00015507	0.00018467	932.28	465.36	0.00016342	0.00018592	389.76	154.68	174.45	89.21	0.00017203	79.937	180.136	-17.321	16.339	-45.905	127.692	6.885	-46.857	-40.459	249.387	109.330	-43.464	-38.803	-35.320	-30.618	177.862	-34.395	-8191	255	
39903.777	1	1	0	0	0.3107	0.06187	0.11528	0.1174	0.012554	0.076869	0.067225	0.14176	0.14369	0.17543	0.37839	0.216	0.29121	0.45194	0.068914	0.081202	-2.925	-2.6437	-2.5833	-3.475	-2.4104	-2.6604	-3.0708	-2.4625	-3.0146	-2.7438	-2.5667	-3.3354	-2.5812	-2.9458	-3.2687	-2.6229	42.331	254.999	-42.819	-15.457	109.327	-18.662	231.920	-42.770	275.173	244.633	227.527	-10.179	215.001	262.993	63.269	98.843	0.00022888	0.00095615	0.00029176	1298.2	7.0513e-06	6.163e-06	931.18	463.79	7.8768e-06	1.5054e-05	380.52	150.46	170.42	88.416	1.7119e-06	79.159	0.0079513	0.016477	0.0046696	1286.3	0.00015592	0.00018719	935.35	466	0.0001618	0.00018721	392.62	155.3	174.44	89.239	0.00017234	80.492	168.314	-12.772	31.921	-46.087	159.611	20.479	-47.178	-40.674	78.286	54.918	-42.701	-38.661	-35.654	-30.563	205.015	-34.702	-8191	255	
39903.898	1	1	0	0	0.15674	0.12132	0.03009	0.39044	0.1327	0.11713	0.25237	0.22702	0.09924	0.33195	0.44921	0.34271	0.2074	0.11792	0.18838	0.072752	-2.8292	-2.8104	-2.5375	-3.4021	-2.5792	-2.7417	-3.3292	-2.5292	-3.2729	-2.8208	-2.3917	-3.3146	-2.5854	-2.7021	-3.2188	-2.4354	-53.456	108.438	-27.772	246.570	-29.225	167.164	77.911	128.076	-30.747	-8.088	-54.127	260.230	-10.696	222.808	-4.495	104.482	0.00019901	0.00054801	0.00025152	1302	8.4985e-06	1.4417e-05	931.95	466.47	6.865e-06	1.3011e-05	385.56	150.39	170.32	87.964	7.7984e-06	78.806	0.0079029	0.016513	0.0046165	1289.6	0.0001535	0.00018209	934.67	467.03	0.00015522	0.00017884	393.11	155.06	173.93	88.839	0.00016244	80.07	124.704	28.420	30.250	-45.728	121.428	157.999	-47.213	-40.540	96.868	71.994	-43.009	-38.712	-35.450	-30.648	105.221	-34.650	-8191	255	
39903.992	1	1	0	0	0.20562	0.2473	0.29169	0.20672	0.14532	0.082602	0.17213	0.17556	0.30211	0.18831	0.16639	0.26826	0.057579	0.24176	0.073345	0.13898	-2.8479	-2.8479	-2.45	-3.3667	-2.6604	-2.8	-3.4625	-2.5875	-2.9813	-2.9896	-2.3937	-3.3542	-2.7062	-2.7125	-3.3563	-2.5854	254.709	150.557	-34.166	265.059	238.752	36.014	19.829	258.818	276.819	205.477	223.247	183.428	59.516	243.166	215.594	237.498	0.00018463	0.0011432	0.00019118	1290.4	9.9993e-06	8.0384e-06	920.34	461.14	2.5317e-06	5.2316e-06	378.47	149.02	169.29	87.747	1.3637e-05	78.333	0.0075856	0.01581	0.004397	1278.4	0.00014844	0.00017492	925.14	461.83	0.0001519	0.00017437	386.12	153.14	172.44	88.398	0.00016022	79.454	190.553	52.003	-12.562	-45.731	138.032	280.086	-47.451	-40.790	156.572	30.882	-43.204	-38.717	-35.606	-30.667	94.120	-34.887	-8191	255	
39904.090	1	1	0	0	0.10594	0.023224	0.093528	0.16305	0.18269	0.11937	0.28992	0.40298	0.099066	0.12221	0.24857	0.26362	0.26958	0.26687	0.042488	0.1897	-2.7208	-2.9688	-2.4646	-3.4437	-2.8208	-2.4146	-3.3083	-2.7208	-2.9354	-3.0646	-2.4646	-3.3354	-3.0187	-2.5083	-3.3333	-2.7313	177.449	-30.646	14.757	-23.048	188.522	126.226	189.464	228.796	186.877	269.278	242.921	-17.403	240.467	254.936	134.411	239.128	0.00016014	0.0007454	0.0002925	1296.4	7.6382e-06	4.307e-06	922.45	463.19	7.2372e-06	4.8505e-06	381.05	149.27	170.15	88.077	1.7302e-06	78.519	0.0074666	0.015607	0.0043475	1278.7	0.00014796	0.00017629	923.96	463.13	0.0001538	0.00017383	387.8	153.83	173.55	88.689	0.00015523	79.749	171.053	9.160	29.283	-45.965	142.281	112.111	-47.236	-40.631	55.878	61.926	-43.316	-38.785	-35.740	-30.776	177.933	-34.738	-8191	255	
39904.188	1	1	0	0	0.33795	0.10825	0.16717	0.21652	0.29898	0.21219	0.085008	0.11496	0.012078	0.12298	0.18693	0.19829	0.24095	0.44859	0.10419	0.18244	-2.375	-3.2687	-2.4771	-3.375	-3.1333	-2.4437	-3.6146	-2.9104	-2.7687	-3.5042	-2.6396	-3.3396	-3.2938	-2.7438	-3.5812	-2.9208	252.776	153.610	-32.896	268.091	157.430	263.571	8.210	251.877	274.939	236.230	182.697	-57.956	-57.079	-42.349	161.586	69.158	0.00021422	0.00086423	4.6457e-05	1295.1	7.7893e-06	1.0835e-05	922.31	462.64	2.5083e-06	1.5057e-05	379.34	150.46	170.19	88.408	1.1508e-05	79.057	0.007343	0.015257	0.0041983	1277.7	0.00014365	0.00017086	923.71	463.64	0.00015039	0.00017218	387.68	154.61	173.86	89.191	0.00016087	80.436	162.151	33.924	0.771	-45.870	142.946	126.748	-47.342	-40.844	253.589	106.936	-43.267	-38.897	-35.633	-30.646	118.436	-34.869	-8191	255	
39904.281	1	1	0	0	0.28552	0.18425	0.37314	0.11928	0.14917	0.1301	0.16253	0.088845	0.46331	0.22054	0.22433	0.15528	0.21411	0.29611	0.17889	0.12133	-2.575	-3.5458	-2.6146	-3.3312	-3.2542	-2.5396	-3.5146	-3.0021	-2.575	-3.4333	-2.7625	-3.2313	-3.5771	-2.9146	-3.2708	-3.0854	229.511	67.293	212.166	195.393	-56.627	274.314	1.972	-48.179	45.314	257.446	226.529	231.448	215.981	-18.750	128.966	-1.885	0.00014388	0.0012862	0.00047262	1287.9	2.738e-06	3.8977e-06	924.62	464.06	5.1033e-06	5.3685e-06	380.59	150.92	170.19	88.721	8.0927e-06	79.278	0.00769	0.016089	0.0044305	1275.4	0.00015253	0.00018066	925.11	465.21	0.00015686	0.00017771	388.64	155.01	174.09	89.08	0.00015829	80.27	164.857	-40.005	41.243	-45.591	289.548	83.237	-47.115	-40.651	-1.357	71.043	-43.156	-38.817	-35.683	-30.552	90.402	-34.807	-8191	255	
39904.379	1	1	0	0	0.16713	0.14493	0.15127	0.43027	0.065902	0.18234	0.32701	0.057225	0.29483	0.39487	0.18113	0.26767	0.20299	0.034006	0.092685	0.17735	-2.3396	-3.4271	-2.6146	-3.1583	-3.2042	-2.6562	-3.4083	-3.0146	-2.5896	-3.5812	-2.95	-3.0062	-3.5042	-2.6312	-3.1813	-3.2708	269.514	223.215	226.192	-43.053	79.538	96.972	167.032	293.387	-47.055	181.169	-39.305	-7.482	239.252	203.328	209.226	-46.238	0.00019184	0.00021411	4.4588e-05	1281.8	6.2502e-06	1.4482e-05	917.65	458.86	5.6604e-06	6.1822e-06	373.07	147.05	167.11	86.586	5.5347e-06	77.314	0.0074832	0.015178	0.0042814	1268.9	0.00014652	0.00017176	917.08	458.6	0.00015304	0.00017399	380.91	151.63	170.82	87.244	0.00016084	78.442	197.423	292.141	-44.898	-45.757	122.279	117.032	-47.211	-40.804	50.540	91.270	-42.994	-38.944	-35.603	-30.496	87.058	-34.632	-8191	255	
39904.496	1	1	0	0	0.056433	0.1249	0.28498	0.14607	0.11744	0.261	0.33146	0.023633	0.21959	0.22467	0.18522	0.034977	0.10108	0.14492	0.32343	0.46295	-2.0958	-3.4229	-2.5979	-2.9625	-3.425	-2.5292	-3.2854	-3.1542	-2.5687	-3.4437	-2.9104	-2.7583	-3.4729	-2.6104	-3.0563	-3.2542	239.942	45.198	258.995	234.760	289.850	257.190	249.787	-49.239	251.496	111.542	251.570	206.926	13.364	205.456	295.411	240.135	0.00028748	0.00057368	0.00037061	1275.3	2.9525e-06	7.1132e-06	907.81	452.91	4.4467e-06	4.2726e-06	369.96	146.01	166.2	86.339	4.4212e-06	76.868	0.0076745	0.015815	0.0044366	1263.6	0.00015295	0.00017936	912.51	455.32	0.00016509	0.00018737	379.56	151.65	171.15	87.338	0.00018287	78.796	173.204	-5.078	51.671	-45.982	74.676	211.666	-47.316	-40.721	65.696	72.107	-43.883	-38.874	-35.597	-30.835	28.410	-34.850	-8191	255	
39904.594	1	1	0	0	0.25845	0.12322	0.18689	0.174	0.068102	0.089399	0.18319	0.19163	0.11938	0.23165	0.29241	0.18836	0.32536	0.1922	0.20383	0.080829	-2.0458	-3.6	-2.8854	-2.7208	-3.2958	-2.5417	-3.2062	-3.3479	-2.5792	-3.3167	-3.0479	-2.5125	-3.5438	-2.7979	-2.9167	-3.35	151.161	152.950	85.273	274.543	-24.973	-48.931	263.132	156.024	-33.277	39.860	274.096	292.758	270.778	202.070	175.027	170.107	0.00020171	0.00045064	0.00013777	1276.1	6.7326e-06	5.2822e-06	913.5	452.33	1.2179e-05	1.2891e-05	366.88	146.07	165.27	86.056	5.1804e-06	76.849	0.0086656	0.01794	0.0050885	1269.8	0.00017321	0.00020586	920.95	456.03	0.00018047	0.00020766	380.28	151.85	170.85	87.188	0.0001931	78.759	140.456	-5.531	9.802	-46.035	70.825	92.029	-47.246	-40.719	107.773	70.357	-43.587	-39.079	-35.727	-30.886	255.414	-35.106	-8191	255	
39904.691	1	1	0	0	0.1032	0.20635	0.15377	0.3407	0.14253	0.051769	0.26927	0.10455	0.13997	0.079057	0.16631	0.092322	0.28448	0.31985	0.11127	0.34017	-2.1917	-3.2687	-2.8979	-2.5625	-3.5062	-2.6625	-2.7375	-3.5979	-2.5563	-3.2188	-3.0563	-2.7146	-3.4396	-2.95	-2.7542	-3.6583	36.062	-52.157	146.088	228.119	99.252	150.634	218.458	6.722	288.602	75.638	85.425	82.323	-10.392	260.207	255.345	248.964	0.00023811	0.0012869	6.576e-05	1275.2	2.8239e-06	1.0685e-05	908.28	452.18	7.7134e-06	5.9167e-06	366.74	145.82	165.52	85.951	6.2954e-06	77.191	0.0088964	0.018648	0.0051651	1267.9	0.00017457	0.00020667	919.99	455.78	0.00018002	0.00020708	380.43	152.28	170.97	87.19	0.0001904	79.016	183.652	24.139	-19.364	-46.081	85.917	-45.413	-47.158	-41.015	126.811	79.979	-43.512	-38.733	-35.549	-30.867	177.137	-34.909	-8191	255	
39904.785	1	1	0	0	0.32455	0.080668	0.045919	0.23121	0.090781	0.1032	0.13597	0.083275	0.14759	0.28258	0.19397	0.16484	0.24856	0.15188	0.16172	0.027091	-2.1667	-3.0708	-3.1625	-2.3792	-3.3958	-2.825	-2.9	-3.65	-2.6104	-3.1583	-3.3375	-2.5604	-3.4562	-3.1042	-2.6729	-3.5812	41.366	43.591	284.937	259.098	105.096	-18.877	246.499	128.682	111.524	102.709	253.508	271.075	258.507	185.279	203.393	300.142	0.00026241	0.00050178	0.00013236	1276.6	1.4108e-06	7.0532e-06	914.29	452.77	2.0778e-06	1.2786e-05	368.57	145.78	166.72	86.212	9.2232e-06	76.925	0.0088072	0.018467	0.0052688	1270.8	0.0001795	0.00021485	924.85	456.04	0.00018994	0.00022118	383.08	152.84	171.81	87.617	0.00020802	79.019	155.684	67.155	131.968	-46.044	183.434	140.808	-47.351	-40.616	80.208	38.936	-43.355	-38.747	-35.705	-30.800	142.565	-34.877	-8191	255	
39904.883	1	1	0	0	0.018902	0.25261	0.27351	0.34719	0.21237	0.16981	0.18172	0.26951	0.11519	0.17237	0.15642	0.20557	0.097121	0.049838	0.14336	0.32317	-2.3333	-2.9646	-3.1625	-2.7042	-3.3021	-2.9646	-2.8021	-3.4354	-2.7417	-2.8708	-3.4708	-2.5354	-3.3667	-3.2938	-2.6792	-3.4729	253.564	96.646	152.376	297.069	154.346	212.262	296.900	272.775	55.210	-57.125	200.802	127.225	-10.271	66.915	223.417	217.613	0.00019	0.00044821	0.00038153	1278.7	3.7954e-06	1.0755e-05	912.73	454.28	4.7748e-06	1.9814e-05	366.19	146.63	167.66	87.584	1.7958e-06	77.886	0.0096426	0.020504	0.0057584	1277.3	0.00019956	0.00024131	930.98	460.3	0.0002153	0.00025118	387.15	155.02	175.05	89.143	0.00023837	80.571	167.154	97.618	2.323	-45.769	71.734	109.300	-47.137	-40.637	131.491	66.990	-43.112	-38.716	-35.341	-30.910	52.799	-34.687	-8191	255	
39904.977	1	1	0	0	0.12109	0.17788	0.11705	0.30707	0.26761	0.11232	0.27512	0.27165	0.12684	0.036055	0.39928	0.10153	0.1388	0.074281	0.10489	0.23729	-2.4333	-2.8292	-3.3146	-2.7625	-3.2271	-3.1104	-2.7167	-3.5125	-2.6854	-2.8375	-3.2896	-2.7208	-3.2604	-3.1312	-2.3563	-3.2687	34.010	218.104	221.138	194.364	18.772	104.749	278.061	228.583	22.878	227.993	277.376	-40.589	294.319	41.412	266.841	257.902	0.00020174	0.0013258	0.00024985	1276.7	8.94e-06	6.2237e-06	913.29	451.9	5.0811e-06	1.7836e-05	367.64	146.7	166.87	86.603	7.6356e-06	77.615	0.011134	0.023649	0.0065747	1286	0.0002243	0.00026828	939.46	462.16	0.00023407	0.00027548	389.66	155.88	174.71	88.77	0.00025223	80.523	156.701	119.775	28.831	-45.856	168.326	65.104	-47.075	-40.453	13.878	137.878	-43.037	-38.653	-35.433	-30.817	78.315	-34.679	-8191	255	
39905.074	1	1	0	0	0.26497	0.079623	0.074244	0.12775	0.18796	0.11814	0.17322	0.26266	0.036034	0.085105	0.097976	0.27046	0.22945	0.07748	0.21199	0.19102	-2.4375	-2.5083	-3.3625	-2.8271	-3.0458	-3.3063	-2.7146	-3.2562	-2.9125	-2.5271	-3.5667	-2.7396	-3.1375	-3.4146	-2.3875	-3.4708	-22.831	137.355	96.931	176.221	24.104	298.170	20.899	241.818	157.915	271.484	266.386	112.943	275.725	234.420	-25.761	257.185	0.00018488	0.00098624	0.00047665	1275.7	8.1065e-06	1.0338e-05	907.93	446.84	1.1565e-05	5.6847e-06	365.5	143.99	162.54	84.351	2.3112e-06	75.831	0.011563	0.02432	0.0067269	1282.2	0.00022327	0.00026237	930.62	455.5	0.00021928	0.00024889	382.17	152	169.14	85.753	0.00021801	77.869	158.522	73.716	-1.387	-46.047	106.696	83.233	-47.263	-40.447	183.785	66.748	-43.165	-38.858	-35.542	-30.649	44.996	-34.592	-8191	255	
39905.195	1	1	0	0	0.27786	0.18985	0.058867	0.063638	0.14119	0.14106	0.14908	0.33518	0.06566	0.23549	0.13785	0.34122	0.17704	0.37529	0.22181	0.29739	-2.5583	-2.7021	-3.3229	-2.8479	-2.6937	-3.275	-2.7021	-3.4167	-3.0458	-2.5312	-3.4604	-2.8604	-3.1312	-3.4042	-2.5021	-3.2708	-2.147	264.549	174.111	205.334	152.486	101.580	-37.616	203.878	79.624	261.335	30.973	294.313	230.443	301.241	205.228	264.167	0.00024474	0.0006469	0.00020327	1261.9	8.7671e-06	6.5571e-06	902.08	436.5	2.1491e-06	1.0653e-05	358.58	140.83	158.29	81.112	2.0181e-06	72.959	0.0099933	0.020932	0.0058117	1260.7	0.00019642	0.00023312	917.49	443.42	0.00020601	0.00023402	374.98	148.85	164.44	82.917	0.00022115	75.835	189.436	-4.772	7.837	-46.088	146.313	-51.904	-47.479	-40.614	34.799	92.805	-42.929	-38.630	-35.638	-30.863	265.950	-34.706	-8191	255	
39905.289	1	1	0	0	0.13229	0.17113	0.22823	0.26832	0.18291	0.20825	0.21554	0.1022	0.030824	0.16638	0.17662	0.26089	0.097134	0.10054	0.25437	0.2203	-2.875	-2.4479	-3.3521	-2.9354	-2.7812	-3.4792	-2.5458	-3.1458	-3.2604	-2.5958	-3.5687	-2.9729	-2.7562	-3.5917	-2.4354	-3	-1.075	44.233	142.501	255.692	-48.444	285.582	-9.934	179.746	201.427	227.993	260.479	29.252	246.759	-37.679	156.700	181.922	0.00016414	0.0014063	0.00031325	1235.4	3.5308e-06	4.8971e-06	889.45	421.92	4.8797e-06	1.1018e-05	348.52	136.58	153.67	78.743	4.2687e-06	71.528	0.01053	0.022262	0.0061711	1244.3	0.00021454	0.00025446	910.75	430.28	0.00022354	0.00025495	368.04	145.34	160.76	80.585	0.00023283	74.524	178.964	29.581	57.588	-46.272	127.852	102.056	-47.242	-40.794	78.274	73.477	-43.101	-39.053	-35.594	-30.782	160.989	-34.704	-8191	255	
#DATA ENDS
