BOXY.EXE: ISS Imagent and Oximeter Data Acquisition Program Version 0.80
Ascii Record File

#ACQ INFORMATION
2  Detector Channels 
16  External MUX Channels 
1  Auxiliary Channels 
5000  Waveform (CCF) Frequency (Hz)
1  Waveforms Skipped 
30  Waveforms Averaged 
1  Cycles Averaged 
16  Acquisitions per Waveform 
10.0806  Updata Rate (Hz) 

#FILE INFORMATION
TRUE -- External MUX Channel results are PARSED.
FALSE -- AC DC and Phase are NOT grouped.
TRUE -- Companion Program Settings File CREATED.
FALSE -- AC data not excluded
FALSE -- DC data not excluded
FALSE -- Phase data not excluded
FALSE -- Auxillary Chn. data not excluded
Tab delimiters

#CALIBRATION STATE
TRUE -- Waveform Calibration Values APPLIED.


#AUX CALIBRATION VALUES
Val Type	aux-1	

Term	1.0000e+00	
Factor	0.0000e+00	


#WF CALIBRATION VALUES
A = Detector Channel
Val Type	A-AC1	A-AC2	A-AC3	A-AC4	A-AC5	A-AC6	A-AC7	A-AC8	A-AC9	A-AC10	A-AC11	A-AC12	A-AC13	A-AC14	A-AC15	A-AC16	A-DC1	A-DC2	A-DC3	A-DC4	A-DC5	A-DC6	A-DC7	A-DC8	A-DC9	A-DC10	A-DC11	A-DC12	A-DC13	A-DC14	A-DC15	A-DC16	A-Ph1	A-Ph2	A-Ph3	A-Ph4	A-Ph5	A-Ph6	A-Ph7	A-Ph8	A-Ph9	A-Ph10	A-Ph11	A-Ph12	A-Ph13	A-Ph14	A-Ph15	A-Ph16	

Term	0.00000e+00	0.00000e+00	0.00000e+00	0.00000e+00	0.00000e+00	0.00000e+00	0.00000e+00	0.00000e+00	0.00000e+00	0.00000e+00	0.00000e+00	0.00000e+00	0.00000e+00	0.00000e+00	0.00000e+00	0.00000e+00	0.00000e+00	0.00000e+00	0.00000e+00	0.00000e+00	0.00000e+00	0.00000e+00	0.00000e+00	0.00000e+00	0.00000e+00	0.00000e+00	0.00000e+00	0.00000e+00	0.00000e+00	0.00000e+00	0.00000e+00	0.00000e+00	0.00000e+00	0.00000e+00	0.00000e+00	0.00000e+00	0.00000e+00	0.00000e+00	0.00000e+00	0.00000e+00	0.00000e+00	0.00000e+00	0.00000e+00	0.00000e+00	0.00000e+00	0.00000e+00	0.00000e+00	0.00000e+00	
Factor	1.00000e+00	1.00000e+00	1.00000e+00	1.00000e+00	1.00000e+00	1.00000e+00	1.00000e+00	1.00000e+00	1.00000e+00	1.00000e+00	1.00000e+00	1.00000e+00	1.00000e+00	1.00000e+00	1.00000e+00	1.00000e+00	1.00000e+00	1.00000e+00	1.00000e+00	1.00000e+00	1.00000e+00	1.00000e+00	1.00000e+00	1.00000e+00	1.00000e+00	1.00000e+00	1.00000e+00	1.00000e+00	1.00000e+00	1.00000e+00	1.00000e+00	1.00000e+00	X	X	X	X	X	X	X	X	X	X	X	X	X	X	X	X	

B = Detector Channel
Val Type	B-AC1	B-AC2	B-AC3	B-AC4	B-AC5	B-AC6	B-AC7	B-AC8	B-AC9	B-AC10	B-AC11	B-AC12	B-AC13	B-AC14	B-AC15	B-AC16	B-DC1	B-DC2	B-DC3	B-DC4	B-DC5	B-DC6	B-DC7	B-DC8	B-DC9	B-DC10	B-DC11	B-DC12	B-DC13	B-DC14	B-DC15	B-DC16	B-Ph1	B-Ph2	B-Ph3	B-Ph4	B-Ph5	B-Ph6	B-Ph7	B-Ph8	B-Ph9	B-Ph10	B-Ph11	B-Ph12	B-Ph13	B-Ph14	B-Ph15	B-Ph16	

Term	0.00000e+00	0.00000e+00	0.00000e+00	0.00000e+00	0.00000e+00	0.00000e+00	0.00000e+00	0.00000e+00	0.00000e+00	0.00000e+00	0.00000e+00	0.00000e+00	0.00000e+00	0.00000e+00	0.00000e+00	0.00000e+00	0.00000e+00	0.00000e+00	0.00000e+00	0.00000e+00	0.00000e+00	0.00000e+00	0.00000e+00	0.00000e+00	0.00000e+00	0.00000e+00	0.00000e+00	0.00000e+00	0.00000e+00	0.00000e+00	0.00000e+00	0.00000e+00	-1.07286e+02	-1.33750e+02	-1.30724e+02	-1.82363e+02	-6.19824e+01	-6.62161e+01	-1.57848e+02	-1.62015e+02	-5.98885e+01	-6.91183e+01	-1.70843e+02	-1.70945e+02	-1.83296e+02	-1.76809e+02	-6.51458e+01	-1.49940e+02	
Factor	1.60289e-05	1.47158e-04	4.35422e-05	1.53391e-01	1.14493e-06	1.53336e-06	1.58280e-01	4.76737e-02	1.01461e-06	1.45935e-06	8.23878e-02	2.72771e-02	2.23222e-02	8.72536e-03	1.20848e-06	1.24093e-02	9.10509e-06	1.43128e-05	4.00729e-06	8.10904e-02	1.47627e-07	1.59585e-07	7.86080e-02	2.53910e-02	1.46793e-07	1.59995e-07	4.23457e-02	1.41041e-02	1.20320e-02	4.67646e-03	1.51879e-07	6.42207e-03	X	X	X	X	X	X	X	X	X	X	X	X	X	X	X	X	



#DISTANCE SETTINGS
A = Detector Channel
A-1	A-2	A-3	A-4	A-5	A-6	A-7	A-8	A-9	A-10	A-11	A-12	A-13	A-14	A-15	A-16	

2.5000e+00	3.0000e+00	2.5000e+00	3.0000e+00	2.0000e+00	3.0000e+00	1.5000e+00	3.0000e+00	3.0000e+00	3.0000e+00	3.0000e+00	3.0000e+00	3.0000e+00	3.0000e+00	1.5000e+00	3.0000e+00	

B = Detector Channel
B-1	B-2	B-3	B-4	B-5	B-6	B-7	B-8	B-9	B-10	B-11	B-12	B-13	B-14	B-15	B-16	

1.0000e+01	1.0000e+01	1.0000e+01	1.4400e+00	1.0000e+01	1.0000e+01	1.5100e+00	1.9400e+00	1.0000e+01	1.0000e+01	1.9900e+00	2.4900e+00	2.4100e+00	2.9000e+00	1.0000e+01	2.9800e+00	




#DATA BEGINS
time	group	step	mark	flag	A-AC1	A-AC2	A-AC3	A-AC4	A-AC5	A-AC6	A-AC7	A-AC8	A-AC9	A-AC10	A-AC11	A-AC12	A-AC13	A-AC14	A-AC15	A-AC16	A-DC1	A-DC2	A-DC3	A-DC4	A-DC5	A-DC6	A-DC7	A-DC8	A-DC9	A-DC10	A-DC11	A-DC12	A-DC13	A-DC14	A-DC15	A-DC16	A-Ph1	A-Ph2	A-Ph3	A-Ph4	A-Ph5	A-Ph6	A-Ph7	A-Ph8	A-Ph9	A-Ph10	A-Ph11	A-Ph12	A-Ph13	A-Ph14	A-Ph15	A-Ph16	B-AC1	B-AC2	B-AC3	B-AC4	B-AC5	B-AC6	B-AC7	B-AC8	B-AC9	B-AC10	B-AC11	B-AC12	B-AC13	B-AC14	B-AC15	B-AC16	B-DC1	B-DC2	B-DC3	B-DC4	B-DC5	B-DC6	B-DC7	B-DC8	B-DC9	B-DC10	B-DC11	B-DC12	B-DC13	B-DC14	B-DC15	B-DC16	B-Ph1	B-Ph2	B-Ph3	B-Ph4	B-Ph5	B-Ph6	B-Ph7	B-Ph8	B-Ph9	B-Ph10	B-Ph11	B-Ph12	B-Ph13	B-Ph14	B-Ph15	B-Ph16	aux-1	digaux	

916.591	1	1	0	256	0.035232	0.046162	0.25908	0.23877	0.17113	0.133	0.080067	0.41374	0.23381	0.019018	0.39216	0.10595	0.08075	0.32016	0.33975	0.28168	-3.275	-4.0917	-3.25	-4.1667	-3.9188	-3.2771	-4.2417	-3.6708	-3.5938	-4.1813	-3.4958	-4.0708	-3.8479	-3.2708	-4.0646	-3.475	344.785	115.130	217.921	404.424	366.042	175.908	369.745	442.326	297.034	144.242	438.886	126.489	97.429	352.289	160.297	435.281	0.0004727	0.00045148	0.00016581	1340.1	4.8731e-06	5.5956e-06	1335.3	363.96	4.5474e-06	3.1144e-06	417.33	139.07	121.31	41.459	5.3948e-06	51.598	0.00033524	0.00021344	6.2247e-05	1354.9	2.6487e-06	2.4433e-06	1354.5	371.06	2.7313e-06	2.2933e-06	424.68	142.47	124.03	42.435	2.5756e-06	52.729	190.204	161.254	163.568	96.165	247.586	248.698	96.270	100.796	243.988	241.044	100.063	104.786	105.237	109.592	221.691	108.918	-8191	255	
916.710	1	1	0	0	0.092282	0.11972	0.2737	0.14402	0.1351	0.26318	0.32862	0.16854	0.21655	0.10703	0.097238	0.16399	0.28922	0.49214	0.17549	0.12305	-3.1792	-3.95	-3.2229	-3.9313	-3.9667	-3.1875	-4.1292	-3.75	-3.5563	-4.1292	-3.4771	-3.9	-4.0667	-3.1854	-3.9375	-3.9896	111.265	197.088	126.394	384.044	293.148	94.433	412.460	369.596	315.767	168.545	372.954	432.394	388.187	397.491	227.139	348.371	0.00048012	0.00047493	0.00013045	1339.1	4.98e-06	4.477e-06	1336.2	363.82	4.0643e-06	4.982e-06	418.49	139.71	120.79	41.601	4.6288e-06	51.529	0.00033613	0.00020306	6.208e-05	1354.6	2.6314e-06	2.4633e-06	1354.1	371.65	2.7349e-06	2.2833e-06	425.73	142.67	123.97	42.521	2.4794e-06	52.74	192.486	165.834	173.347	96.249	239.814	227.080	96.048	100.655	241.468	221.814	100.211	104.647	105.010	109.283	231.666	108.593	-8191	255	
916.782	1	1	0	0	0.17564	0.1852	0.15998	0.26876	0.16011	0.1384	0.13811	0.26746	0.24023	0.16017	0.26349	0.22043	0.16692	0.15851	0.045518	0.17374	-3.1396	-3.9562	-3.45	-3.7583	-4.0479	-3.2729	-4.0771	-3.9542	-3.3854	-4.1333	-3.7417	-3.6583	-4.0687	-3.3875	-4.1167	-3.7458	219.778	153.500	274.179	385.473	159.396	85.016	409.607	418.145	100.402	105.981	371.880	385.539	194.083	126.980	216.519	237.910	0.00047686	0.00048225	0.00017219	1339.5	4.191e-06	5.0469e-06	1337.2	364.7	5.1307e-06	3.8109e-06	417.59	139.76	121.76	41.311	5.6452e-06	51.384	0.00033945	0.00021323	6.056e-05	1355	2.5472e-06	2.5198e-06	1354.6	371.78	2.6836e-06	2.2433e-06	424.89	142.73	124.4	42.435	2.4475e-06	52.665	189.949	173.283	165.720	95.924	235.807	227.223	95.989	100.536	253.287	230.289	100.172	104.599	105.064	109.569	238.361	108.902	-8191	255	
916.878	1	1	0	0	0.18012	0.16201	0.057659	0.16593	0.3264	0.17283	0.14684	0.16804	0.024898	0.10918	0.05341	0.3001	0.25456	0.096901	0.17248	0.041089	-2.8875	-3.9104	-3.6021	-3.8	-3.9958	-3.275	-4.0563	-3.9125	-3.1833	-4.1125	-3.7229	-3.6396	-4.0729	-3.5896	-3.7604	-4.1583	359.787	295.085	93.299	413.014	345.035	282.491	336.255	388.413	202.976	92.071	181.316	321.535	301.990	107.816	297.390	97.443	0.00046358	0.00046088	0.00017968	1336.3	4.985e-06	4.5893e-06	1340.1	366.11	3.2638e-06	4.437e-06	418.5	139.59	120.97	41.641	4.854e-06	51.438	0.00032412	0.00020673	6.1345e-05	1356.2	2.5155e-06	2.3276e-06	1356.3	371.97	2.6722e-06	2.1553e-06	425.19	142.64	124.14	42.575	2.4956e-06	52.671	190.977	175.949	179.688	96.001	241.300	232.319	95.944	100.372	250.862	224.283	100.073	104.550	104.738	109.414	235.856	108.912	-8191	255	
916.974	1	1	0	0	0.20975	0.068346	0.096721	0.26236	0.046628	0.24686	0.052679	0.25155	0.32804	0.28407	0.13892	0.083174	0.19794	0.34391	0.24381	0.10239	-2.8208	-4.2354	-3.7042	-3.6688	-4.0687	-3.4062	-4.0042	-4.2	-3.1667	-4.1167	-3.9458	-3.5854	-4.3125	-3.5292	-3.6875	-4.1396	392.656	104.882	153.844	406.805	137.951	173.511	379.477	351.611	283.414	315.513	152.577	310.011	417.143	98.703	378.135	417.845	0.00044029	0.0005557	0.00010487	1338.4	4.9698e-06	4.0212e-06	1339.7	363.75	4.7151e-06	3.2857e-06	417.49	139.18	121.1	41.556	4.5513e-06	51.359	0.00032302	0.00020897	5.7346e-05	1354.5	2.5533e-06	2.2186e-06	1356.3	371.07	2.6294e-06	2.2126e-06	424.73	142.52	123.98	42.463	2.3775e-06	52.69	193.174	168.981	163.837	95.876	243.933	228.609	95.944	100.673	242.891	238.994	99.751	104.985	104.771	109.444	237.734	108.580	-8191	255	
917.093	1	1	0	0	0.27564	0.060262	0.11595	0.26661	0.16384	0.11993	0.087323	0.033038	0.23208	0.078807	0.20263	0.21602	0.13336	0.33855	0.23204	0.10447	-3.0583	-3.9521	-3.7729	-3.475	-4.1271	-3.4562	-3.8458	-4.1479	-3.2146	-3.9437	-3.95	-3.3833	-4.1396	-3.6521	-3.5062	-4.2	309.014	314.500	342.796	382.276	342.683	207.726	391.519	397.981	267.311	322.258	390.059	299.774	409.139	320.883	197.031	326.165	0.00046603	0.00045274	0.00015299	1335.4	4.0689e-06	5.1927e-06	1335.1	363.63	4.7148e-06	5.6311e-06	417.63	139.15	121.08	41.3	4.8051e-06	51.34	0.00032276	0.00020944	5.9483e-05	1353.6	2.5776e-06	2.2561e-06	1353.3	370.84	2.7343e-06	2.2393e-06	424.91	142.4	123.93	42.418	2.5364e-06	52.618	193.039	159.634	183.646	95.913	241.430	240.019	95.939	100.702	252.320	239.413	99.652	104.402	104.836	109.558	219.931	108.822	-8191	255	
917.189	1	1	0	0	0.17041	0.14757	0.22039	0.1902	0.12423	0.44259	0.31203	0.36214	0.14267	0.16317	0.22774	0.21311	0.031785	0.21443	0.15056	0.014877	-3.0458	-3.9271	-3.8979	-3.4	-4.0896	-3.4792	-3.6271	-4.1229	-3.2313	-3.7083	-4.2	-3.3292	-3.9896	-3.725	-3.4583	-4.3521	141.155	130.592	263.949	392.371	197.938	371.888	419.801	368.496	412.156	335.376	274.505	368.287	286.993	384.474	174.090	380.638	0.00047677	0.00043029	0.00017381	1332.3	3.1122e-06	4.3543e-06	1335	364.21	3.8496e-06	3.3366e-06	415.88	139.99	120.91	41.418	4.6577e-06	51.213	0.00032583	0.00020029	5.8607e-05	1351	2.4817e-06	2.3532e-06	1351.3	370.85	2.6001e-06	2.2253e-06	424.16	142.53	123.87	42.399	2.569e-06	52.572	191.935	174.988	157.540	95.919	235.762	230.173	95.912	100.668	248.129	226.999	100.012	104.554	104.913	109.605	236.862	108.632	-8191	255	
917.285	1	1	0	0	0.03215	0.078666	0.014137	0.31708	0.25341	0.24632	0.40956	0.33937	0.18292	0.31457	0.17405	0.085859	0.065163	0.11731	0.067299	0.39397	-2.9979	-3.7083	-4.0188	-3.4417	-4.0437	-3.6896	-3.5354	-4.2812	-3.3646	-3.7083	-4.1479	-3.425	-4.0396	-3.8729	-3.275	-4.1562	215.135	337.070	113.731	384.533	295.174	430.139	321.331	349.564	289.544	134.522	419.780	330.986	277.631	406.304	380.980	399.148	0.00044603	0.00044568	0.0001737	1329.7	5.3276e-06	4.7019e-06	1329.9	364.06	4.4532e-06	5.6509e-06	416.33	138.44	121.12	41.213	4.4026e-06	51.295	0.00032866	0.00020232	5.7338e-05	1348.3	2.4392e-06	2.2226e-06	1348.6	370.63	2.6554e-06	2.2966e-06	423.61	142.09	123.83	42.321	2.5193e-06	52.58	191.501	176.218	160.681	95.926	245.708	255.272	96.006	100.699	246.288	248.974	100.017	104.660	104.941	109.730	238.006	108.951	-8191	255	
917.382	1	1	0	0	0.047817	0.17051	0.18919	0.29988	0.13759	0.19374	0.24624	0.01694	0.012038	0.22194	0.29531	0.23723	0.12416	0.032611	0.15465	0.13981	-3.1896	-3.4542	-4.1104	-3.5438	-3.9625	-3.9896	-3.6542	-4.2167	-3.6104	-3.5896	-4.1687	-3.3958	-3.8563	-3.8979	-3.1542	-4.0833	436.589	400.027	394.323	374.807	287.360	310.945	361.380	376.155	149.551	284.952	435.655	369.777	349.319	370.699	322.966	346.259	0.0004901	0.00049496	0.00016842	1331.3	5.0353e-06	6.0629e-06	1330.5	363.07	5.3507e-06	4.2721e-06	415.48	139.09	121.28	41.329	3.8327e-06	51.53	0.00032697	0.00021705	5.5267e-05	1348.8	2.497e-06	2.2418e-06	1348.6	370.02	2.5105e-06	2.3529e-06	423.38	142.15	123.72	42.335	2.5753e-06	52.703	189.919	162.968	169.055	96.203	241.303	235.671	96.238	100.756	239.451	221.711	100.521	104.736	105.246	109.621	222.076	108.711	-8191	255	
917.478	1	1	0	0	0.1737	0.20523	0.19151	0.37912	0.194	0.073544	0.21368	0.25347	0.1298	0.28598	0.013256	0.48984	0.20516	0.018301	0.31207	0.23317	-3.0875	-3.3625	-4.1375	-3.4958	-3.6437	-3.9792	-3.5	-4.2729	-3.7854	-3.3854	-4.2604	-3.5667	-3.8438	-4.1104	-3.3167	-4.0896	97.417	242.954	108.793	106.107	219.957	284.162	104.366	433.101	277.084	188.941	189.814	390.922	148.639	349.961	302.763	388.175	0.00045795	0.00041229	0.00016671	1334.3	4.9021e-06	3.6848e-06	1330.9	363.85	4.8895e-06	4.472e-06	418.7	139.08	120.48	41.145	5.1459e-06	51.208	0.00032297	0.00021448	5.8899e-05	1347.5	2.5527e-06	2.2601e-06	1348.1	370.3	2.5276e-06	2.3393e-06	424.26	142.05	123.5	42.294	2.5085e-06	52.619	188.706	170.079	159.356	96.075	244.113	232.845	96.027	100.818	237.827	233.847	100.116	104.497	105.243	109.784	221.092	108.977	-8191	255	
917.574	1	1	0	0	0.064803	0.27104	0.14512	0.10191	0.08719	0.056538	0.049839	0.26588	0.076938	0.21565	0.13007	0.086537	0.21586	0.047205	0.066314	0.048223	-3.4354	-3.3917	-3.9125	-3.6375	-3.5354	-4	-3.5083	-4.0687	-3.8271	-3.3063	-4.3229	-3.7396	-3.5812	-4.1396	-3.3458	-3.9542	174.466	156.710	390.809	409.305	340.628	169.312	288.984	438.755	308.236	291.414	394.396	100.571	94.716	393.093	229.131	275.448	0.00044818	0.00048931	0.00014659	1333.4	5.3615e-06	3.1891e-06	1332.2	364.32	4.9542e-06	3.5773e-06	416.66	138.89	120.85	41.227	4.0314e-06	51.288	0.00031517	0.00021517	5.6695e-05	1348	2.6437e-06	2.1448e-06	1348.2	370.56	2.5108e-06	2.2786e-06	423.38	141.94	123.67	42.31	2.3386e-06	52.481	190.681	171.834	174.518	96.137	246.044	251.209	96.286	101.038	238.365	226.505	100.337	104.816	105.457	109.783	227.438	108.868	-8191	255	
917.670	1	1	0	0	0.23165	0.23658	0.13253	0.21189	0.12243	0.024781	0.19964	0.22728	0.13128	0.15559	0.032722	0.35194	0.14712	0.26267	0.043884	0.13504	-3.5333	-3.3208	-4.2104	-3.7208	-3.4604	-4.0563	-3.5792	-4.05	-3.9375	-3.4313	-4.2146	-3.6958	-3.5917	-4.1021	-3.4229	-3.8333	281.492	95.973	228.760	413.837	133.972	392.620	118.499	409.067	423.791	357.377	411.016	430.028	320.466	411.364	398.543	232.832	0.00044842	0.00043483	0.00014106	1326.8	4.7382e-06	4.9502e-06	1329.1	361.5	5.0701e-06	4.7968e-06	416.6	139.06	120.99	41.218	5.2065e-06	51.711	0.00031583	0.00020986	5.5843e-05	1344.8	2.5275e-06	2.2113e-06	1344.6	368.93	2.4401e-06	2.3176e-06	423.23	141.86	123.55	42.238	2.4782e-06	52.588	192.169	173.232	171.602	96.198	245.730	226.793	96.156	100.915	243.750	227.873	100.426	104.709	105.304	109.746	221.320	109.091	-8191	255	
917.791	1	1	0	0	0.1879	0.055428	0.15348	0.10257	0.12261	0.1372	0.21813	0.22317	0.1252	0.17861	0.082047	0.13662	0.13342	0.093144	0.072388	0.23958	-3.6354	-3.3146	-4.1042	-4.0167	-3.4875	-4.1146	-3.6917	-3.9896	-4.0125	-3.375	-4.1854	-3.9542	-3.5396	-4.2	-3.5458	-3.65	398.424	271.382	404.424	405.054	386.326	261.951	412.436	408.812	441.469	317.282	343.674	413.465	275.886	185.733	135.864	367.223	0.00045651	0.00051678	0.00016347	1331.7	5.1895e-06	5.1595e-06	1326.2	363.98	4.9708e-06	4.4917e-06	417.22	138.92	120.45	41.113	3.8733e-06	51.133	0.00031553	0.00021571	5.52e-05	1344.9	2.5832e-06	2.053e-06	1343.1	369.71	2.4539e-06	2.2266e-06	423.36	141.83	123.13	42.246	2.3943e-06	52.462	192.567	163.851	175.250	96.068	250.025	226.419	96.261	101.029	235.244	232.968	100.351	104.801	105.359	109.880	228.890	109.600	-8191	255	
917.887	1	1	0	0	0.14143	0.047641	0.1901	0.22403	0.070373	0.036671	0.17731	0.099563	0.18158	0.25656	0.099124	0.032886	0.067952	0.1767	0.13442	0.24368	-3.6167	-3.2021	-3.8146	-4.0146	-3.4313	-4.2375	-3.6479	-3.5583	-4.1021	-3.3208	-4.0375	-3.9292	-3.4354	-4.15	-3.5312	-3.4583	388.094	260.374	212.472	353.957	98.251	398.949	397.791	313.476	424.978	86.412	114.029	226.955	319.793	362.812	278.057	294.564	0.00048686	0.00036671	0.00013718	1324.8	5.1209e-06	5.8817e-06	1325.1	362.11	5.0074e-06	3.8497e-06	414.41	138.84	121.08	41.158	4.8932e-06	51.326	0.00032372	0.000205	5.6344e-05	1341.9	2.601e-06	2.0962e-06	1340.4	369.07	2.371e-06	2.2369e-06	422.44	141.67	123.4	42.26	2.3487e-06	52.455	194.125	179.965	174.692	96.402	228.072	250.137	96.254	101.188	239.399	216.491	100.281	104.755	105.326	110.031	242.859	109.022	-8191	255	
917.983	1	1	0	0	0.042567	0.22572	0.059869	0.19569	0.058731	0.035429	0.1081	0.14418	0.29164	0.13174	0.080874	0.23818	0.31689	0.15252	0.050321	0.11201	-3.8083	-3.45	-3.6958	-4.1833	-3.2646	-3.9792	-3.9062	-3.4667	-4.0104	-3.35	-3.8604	-4.2458	-3.4958	-4.0708	-3.8333	-3.6333	246.021	344.164	394.434	420.359	258.390	183.825	148.444	114.142	160.140	175.309	264.543	403.896	95.204	286.785	281.940	174.760	0.000453	0.00057864	0.00013211	1321.1	5.0127e-06	4.8862e-06	1318.8	362.93	5.0612e-06	4.433e-06	416.46	138.69	120.74	41.094	4.5407e-06	51.035	0.00031149	0.00020369	5.4925e-05	1340.8	2.5136e-06	2.1079e-06	1339.9	369.22	2.3224e-06	2.0926e-06	422.2	141.87	123.26	42.15	2.3991e-06	52.358	192.835	162.805	173.419	96.089	234.051	237.018	96.395	101.268	239.915	230.325	100.723	105.138	105.667	110.129	244.034	109.598	-8191	255	
918.079	1	1	0	0	0.036192	0.054289	0.24562	0.12361	0.19097	0.11768	0.12031	0.20359	0.12712	0.095218	0.056877	0.11151	0.15261	0.058885	0.12027	0.13363	-3.7625	-3.425	-3.6667	-4.3125	-3.2792	-4.0062	-4.2042	-3.5021	-4.2229	-3.4688	-3.575	-4.3167	-3.3458	-3.9646	-3.6667	-3.4833	285.549	341.191	123.403	409.460	327.511	280.201	98.217	412.080	117.368	419.973	182.198	393.777	392.449	204.077	106.974	347.346	0.00047758	0.00041647	0.00018131	1322.8	4.6669e-06	5.2348e-06	1324.7	362.14	4.7753e-06	5.6024e-06	415.3	138.57	120.04	41.281	4.8609e-06	51.003	0.0003169	0.00019767	5.6695e-05	1340.6	2.4675e-06	2.1065e-06	1341.3	368.58	2.3943e-06	2.0749e-06	422.28	141.81	122.97	42.19	2.281e-06	52.42	190.032	167.791	172.703	96.661	238.678	224.722	96.241	101.063	248.006	224.350	100.430	105.073	105.509	110.381	240.187	109.569	-8191	255	
918.174	1	1	0	0	0.24453	0.052539	0.16976	0.086568	0.10264	0.13745	0.055185	0.095541	0.20915	0.056691	0.1747	0.23832	0.29979	0.20919	0.22515	0.12506	-3.7417	-3.5479	-3.3917	-4.1458	-3.1979	-3.7854	-4.2604	-3.4938	-4.0917	-3.6917	-3.6375	-4.1208	-3.4458	-4	-4.0229	-3.3812	121.248	390.307	213.111	380.399	271.373	282.345	390.394	389.022	123.448	441.960	195.059	427.457	425.025	137.340	430.653	418.621	0.00044128	0.00051795	0.00014632	1321.1	4.3421e-06	6.2618e-06	1323.3	362.64	4.4487e-06	5.2312e-06	414.43	138.94	120.19	41.092	4.5709e-06	51.322	0.00030921	0.00020539	5.49e-05	1339.5	2.5441e-06	2.1737e-06	1341.5	368.36	2.4083e-06	2.1609e-06	422.03	141.72	123	42.153	2.3734e-06	52.447	194.477	172.810	160.836	96.570	242.445	237.015	96.651	101.442	240.560	234.198	100.955	105.268	105.722	110.497	237.194	109.763	-8191	255	
918.270	1	1	0	0	0.051758	0.17524	0.070729	0.23802	0.17059	0.043773	0.24263	0.11622	0.27857	0.27745	0.1775	0.13614	0.16931	0.33534	0.1622	0.31757	-3.5875	-3.6146	-3.3729	-4.3833	-3.5208	-3.6396	-4.3521	-3.4688	-4.0146	-3.7042	-3.4854	-4.2375	-3.6	-3.6833	-4.0979	-3.2875	333.723	98.207	111.672	400.587	378.205	414.114	385.167	412.116	291.947	151.359	357.471	381.936	364.343	118.243	369.362	432.019	0.00045001	0.00050663	0.00015461	1325.8	6.4114e-06	3.849e-06	1325.3	362.06	4.6447e-06	5.6552e-06	414.96	139.01	120.64	41.189	3.9892e-06	51.191	0.00031189	0.00019176	5.8014e-05	1341.9	2.482e-06	2.1218e-06	1341.9	369.19	2.2964e-06	1.9979e-06	422.32	141.84	123.39	42.178	2.2541e-06	52.418	192.037	153.027	175.275	96.755	239.431	234.794	96.310	100.934	236.269	221.629	100.595	105.152	105.244	110.144	230.071	109.359	-8191	255	
918.390	1	1	0	0	0.078751	0.063608	0.098498	0.16492	0.14464	0.25404	0.33105	0.29321	0.10473	0.18607	0.076643	0.078587	0.11271	0.098505	0.17434	0.17394	-3.6958	-3.7333	-3.4062	-4.2833	-3.4646	-3.5354	-4.3417	-3.4604	-3.925	-3.8771	-3.4979	-4.1479	-3.5646	-3.5854	-4.1562	-3.4396	215.650	261.034	389.183	129.560	112.754	108.214	369.788	103.222	167.810	149.324	88.925	342.933	108.223	331.515	256.248	319.089	0.00046116	0.00038919	0.00015925	1328.5	5.1156e-06	4.3157e-06	1324.9	362.66	4.4261e-06	4.2854e-06	417.01	138.88	120.77	41.308	4.5318e-06	51.397	0.00030586	0.00019549	5.4992e-05	1343.1	2.4229e-06	2.1504e-06	1344.6	368.85	2.3166e-06	2.0239e-06	423.32	141.82	123.14	42.252	2.1836e-06	52.438	191.496	157.667	172.312	96.753	239.303	234.389	96.592	101.284	253.597	245.179	100.725	105.154	105.505	110.133	243.793	109.628	-8191	255	
918.486	1	1	0	0	0.10328	0.11972	0.094836	0.32371	0.1739	0.050302	0.27108	0.30885	0.26646	0.14191	0.18194	0.065146	0.2711	0.1854	0.11359	0.030092	-3.475	-3.7875	-3.3083	-4.075	-3.8063	-3.4229	-4.2625	-3.6646	-3.7604	-4.025	-3.5146	-4.0792	-3.7979	-3.4292	-4.175	-3.5604	193.140	280.191	335.492	428.141	416.170	170.152	418.145	365.935	335.927	356.835	211.786	260.579	407.223	365.109	395.909	91.958	0.00044759	0.00059375	0.00012778	1329.1	4.3509e-06	4.0117e-06	1321.3	362.63	4.4709e-06	4.0993e-06	415.34	139.62	120.36	41.397	5.6857e-06	51.129	0.0003091	0.00018842	5.4725e-05	1344.2	2.4014e-06	2.1926e-06	1341	369	2.4175e-06	2.0166e-06	422.06	142.02	123.11	42.238	2.1791e-06	52.401	192.411	169.786	185.195	96.681	256.632	242.307	96.584	101.463	245.088	239.773	100.722	105.442	106.013	110.445	250.652	109.524	-8191	255	
918.583	1	1	0	0	0.16821	0.096314	0.10905	0.23106	0.10144	0.040349	0.1567	0.26718	0.17776	0.097095	0.35871	0.22012	0.15323	0.30668	0.15846	0.16937	-3.3979	-4.1021	-3.3125	-4.0833	-3.8667	-3.375	-4.2812	-3.6542	-3.4958	-4.0292	-3.4396	-4.1542	-4.0979	-3.5938	-4.1958	-3.7771	369.174	422.775	130.952	381.501	347.994	271.374	228.496	431.851	160.726	301.294	372.969	431.572	414.821	387.995	269.689	84.335	0.00045491	0.00056526	0.00011836	1326.8	5.3688e-06	4.8239e-06	1327.7	362.01	4.4698e-06	4.9528e-06	414.03	139.19	120.3	41.264	5.4968e-06	51.047	0.00030751	0.00018308	5.3539e-05	1342.3	2.4039e-06	2.1108e-06	1342.6	368.32	2.4502e-06	2.0393e-06	421.58	142	123.05	42.194	2.2282e-06	52.361	193.636	176.674	172.013	96.890	243.513	233.372	96.738	101.105	246.158	234.238	100.232	105.292	105.614	110.024	231.523	109.083	-8191	255	
918.679	1	1	0	0	0.18755	0.082018	0.048287	0.25219	0.20079	0.19593	0.11036	0.2963	0.20627	0.086632	0.1205	0.30301	0.12057	0.1235	0.076942	0.11527	-3.2167	-4.1167	-3.3479	-4.1417	-3.9958	-3.3917	-4.2833	-3.7833	-3.6063	-4.0729	-3.5146	-4.0521	-4.0687	-3.4167	-4.0375	-3.5729	387.287	212.344	372.390	422.678	246.085	330.889	421.272	345.452	311.757	159.373	131.704	342.004	379.617	254.570	154.910	379.896	0.00045789	0.00044339	0.00012724	1324.5	3.9721e-06	3.3312e-06	1327.4	360.85	3.6591e-06	4.1137e-06	416.03	138.99	120.36	41.214	5.0762e-06	50.975	0.00032006	0.00017155	5.4282e-05	1343	2.2796e-06	2.1241e-06	1343.1	368.83	2.3572e-06	1.9746e-06	422.64	141.92	123.12	42.242	2.225e-06	52.451	193.600	168.344	176.064	96.668	234.560	259.851	96.647	100.869	239.881	216.339	100.718	105.138	105.465	110.107	243.292	109.537	-8191	255	
918.750	1	1	0	0	0.088951	0.1508	0.14819	0.16	0.055428	0.13223	0.11012	0.069962	0.13863	0.18463	0.30212	0.050611	0.087316	0.1394	0.2136	0.27256	-3.0146	-4.1708	-3.4313	-3.7958	-4.0563	-3.3521	-4.1875	-3.9771	-3.475	-4.2292	-3.5333	-3.7271	-4.2688	-3.4604	-4.0938	-3.9375	370.633	332.668	439.385	84.671	407.588	263.776	323.301	321.623	102.135	335.912	362.392	195.709	137.241	389.945	205.461	433.162	0.00046101	0.00038549	0.00015255	1324.4	5.1728e-06	4.6118e-06	1325.5	362.53	4.1529e-06	5.3247e-06	415.62	138.75	120.19	41.208	3.9783e-06	51.047	0.00031217	0.00019072	5.2946e-05	1340.2	2.3503e-06	2.1188e-06	1341.9	369.03	2.4557e-06	1.9259e-06	422.27	141.84	123.11	42.187	2.1548e-06	52.33	192.853	164.922	170.423	96.352	242.453	246.021	96.697	101.086	249.322	232.842	100.604	105.320	105.810	110.191	238.060	109.288	-8191	255	
918.871	1	1	0	0	0.13405	0.070084	0.24648	0.20654	0.15226	0.083493	0.13639	0.054896	0.045089	0.11712	0.39958	0.10807	0.057092	0.16805	0.030023	0.30993	-2.8708	-4.1833	-3.6167	-3.8812	-4.0458	-3.45	-4.1458	-4.2354	-3.3729	-4.1583	-3.8167	-3.6375	-4.3542	-3.2583	-4.0417	-4.0333	254.925	261.498	293.694	286.075	218.828	350.757	375.088	348.935	117.603	239.407	96.327	318.986	261.852	399.538	365.249	426.244	0.00046042	0.00041079	0.00017524	1321.6	4.353e-06	4.4884e-06	1329.3	361.38	5.5716e-06	3.2942e-06	415.27	139.4	120.43	41.087	4.8037e-06	51.255	0.00031999	0.00017918	5.7663e-05	1338.9	2.3537e-06	2.0856e-06	1342.5	368.24	2.5092e-06	1.9336e-06	421.98	142.06	123.05	42.254	2.2681e-06	52.383	189.780	180.321	177.446	96.672	226.953	211.471	96.415	101.126	246.057	230.941	100.811	105.174	105.611	109.958	239.837	108.961	-8191	255	
918.967	1	1	0	0	0.088605	0.083688	0.12693	0.17894	0.25982	0.15557	0.17859	0.23804	0.087786	0.17027	0.26276	0.19285	0.28567	0.13108	0.1957	0.17167	-3.0938	-4.3271	-3.625	-3.6063	-4.2417	-3.3396	-4.0083	-4.1062	-3.4458	-4.225	-3.9188	-3.5604	-4.2854	-3.4896	-3.7542	-4.2854	360.798	112.992	376.820	394.527	103.999	102.927	429.179	420.922	304.640	301.944	441.103	415.801	97.963	301.313	131.094	415.903	0.00043709	0.00058183	0.00013641	1322.7	5.2563e-06	4.3804e-06	1324	362.08	4.2798e-06	4.2566e-06	414.85	139.32	120.76	41.315	4.1652e-06	51.161	0.00030483	0.00018195	5.03e-05	1340	2.3436e-06	2.0593e-06	1340.4	368.75	2.3912e-06	1.9719e-06	421.86	142	123.42	42.268	2.2355e-06	52.342	191.976	149.870	163.112	96.400	235.598	239.070	96.538	100.824	238.473	229.936	100.500	105.003	105.322	110.032	228.220	108.936	-8191	255	
919.063	1	1	0	0	0.045818	0.13073	0.21499	0.15518	0.090783	0.16314	0.18332	0.10367	0.21235	0.21718	0.23569	0.089949	0.24251	0.031165	0.1511	0.16983	-2.8646	-3.7167	-3.7833	-3.5354	-4.2625	-3.45	-3.7521	-4.3187	-3.2104	-3.9479	-3.7146	-3.4229	-4.1542	-3.525	-3.5396	-4.175	120.868	286.437	384.736	100.100	217.111	400.069	117.702	337.832	349.598	441.448	425.919	260.354	366.905	240.097	84.755	401.376	0.00045237	0.00060694	0.00013586	1325.2	4.7775e-06	5.2137e-06	1324.7	362.29	5.198e-06	5.154e-06	414.96	138.94	120.7	41.078	4.8815e-06	51.077	0.00031115	0.00018496	5.1277e-05	1339.7	2.3396e-06	2.1118e-06	1340	368.42	2.4511e-06	1.9766e-06	421.58	141.91	123.34	42.135	2.2946e-06	52.355	191.348	168.078	177.242	96.229	242.976	228.921	96.374	100.903	241.942	228.297	100.193	104.939	105.207	109.878	238.934	109.095	-8191	255	
919.184	1	1	0	0	0.15038	0.1639	0.16963	0.21957	0.24678	0.21462	0.21449	0.058413	0.30378	0.25088	0.067077	0.26211	0.12144	0.1771	0.096903	0.12673	-2.7896	-4.0708	-4.0062	-3.3167	-4.0583	-3.4396	-3.6208	-4.35	-3.4188	-3.9271	-4.1104	-3.4458	-4.25	-3.6437	-3.4375	-4.2708	350.195	438.653	379.077	414.935	350.256	115.563	367.993	366.486	135.722	351.735	408.328	414.049	378.380	435.094	379.243	111.348	0.00046442	0.00055736	0.00012039	1325.2	4.2075e-06	5.7107e-06	1320.6	362.19	4.8879e-06	4.8123e-06	415.04	138.73	120.85	41.141	4.1777e-06	51.342	0.00031316	0.00017772	4.9432e-05	1340.3	2.3596e-06	2.0846e-06	1338.7	368.72	2.4135e-06	2.0296e-06	421.89	141.9	123.41	42.211	2.2934e-06	52.42	189.052	168.883	162.514	96.340	238.158	260.074	96.211	101.130	261.363	231.180	100.374	104.870	105.595	110.059	240.946	109.213	-8191	255	
919.278	1	1	0	0	0.16786	0.053902	0.03043	0.032895	0.25913	0.046784	0.19898	0.37605	0.25656	0.30357	0.08571	0.13989	0.12206	0.048496	0.17613	0.1274	-3.1667	-4.0312	-4.0208	-3.5229	-4.0396	-3.7833	-3.6375	-4.2146	-3.525	-3.8146	-4.2354	-3.4292	-3.8542	-3.8625	-3.3604	-4.2271	96.845	276.878	163.521	435.362	182.802	434.038	288.605	343.806	86.601	395.323	327.932	427.614	406.643	345.980	390.231	264.922	0.00046301	0.00053506	0.00018184	1322.6	5.2159e-06	6.4184e-06	1319.6	362.98	4.6007e-06	4.3618e-06	413.95	138.49	120.79	41.251	5.9261e-06	51.246	0.00030874	0.00018231	5.106e-05	1338.8	2.2492e-06	2.0946e-06	1341.2	368.97	2.4028e-06	1.9196e-06	421.62	141.88	123.39	42.214	2.2019e-06	52.394	190.691	170.340	185.823	96.449	237.160	244.618	96.565	101.470	248.890	252.133	100.449	105.137	105.999	110.299	232.978	109.250	-8191	255	
919.352	1	1	0	0	0.13923	0.139	0.10587	0.26566	0.12653	0.10126	0.29947	0.16802	0.19152	0.20674	0.37397	0.16574	0.48989	0.18436	0.22621	0.18837	-3.0146	-3.6958	-4.0646	-3.6771	-3.9583	-3.9125	-3.525	-4.3562	-3.4229	-3.6312	-4.2458	-3.2479	-3.8875	-3.9792	-3.3625	-4.2146	307.051	100.175	400.266	442.122	420.482	361.196	388.496	438.783	402.970	185.403	392.572	370.435	390.937	422.197	379.223	100.547	0.00046373	0.00052868	0.00018469	1325.3	4.8328e-06	4.9452e-06	1321.3	362.91	5.0103e-06	5.0779e-06	416.11	138.46	120.82	41.078	4.2757e-06	51.321	0.00030565	0.00018213	4.8797e-05	1339.7	2.2381e-06	1.8728e-06	1339.7	368.49	2.3147e-06	2.0686e-06	421.76	141.66	123.32	42.133	2.2665e-06	52.423	191.468	179.302	155.114	96.378	243.493	245.645	96.465	101.201	251.366	228.352	100.560	105.027	105.644	109.757	243.210	109.280	-8191	255	
919.471	1	1	0	0	0.12044	0.20555	0.091582	0.29602	0.16902	0.17334	0.1928	0.33897	0.23273	0.20122	0.24815	0.21164	0.17893	0.19738	0.1646	0.44077	-3.2375	-3.5062	-4.0125	-3.5375	-3.7583	-3.8563	-3.6562	-4.3396	-3.6521	-3.5854	-4.2063	-3.3812	-3.8854	-4.0458	-3.4667	-4.0896	118.729	348.894	419.798	388.059	201.276	365.499	383.648	398.972	435.233	143.226	263.047	388.241	108.329	84.097	151.279	386.500	0.00045573	0.00058815	0.000165	1321.8	4.8212e-06	6.3557e-06	1325.5	363.59	4.41e-06	4.5999e-06	416.01	139.04	120.43	41.195	5.0615e-06	51.083	0.00030593	0.00019185	4.6969e-05	1338.4	2.2329e-06	1.8898e-06	1340.6	368.64	2.2783e-06	2.0386e-06	421.94	141.76	123.14	42.104	2.3487e-06	52.415	191.681	176.948	157.357	96.264	230.028	239.401	96.462	101.031	239.556	231.805	100.567	104.985	105.755	109.921	242.519	109.237	-8191	255	
919.567	1	1	0	0	0.089323	0.18328	0.28229	0.29124	0.070962	0.14243	0.41605	0.22405	0.050273	0.059556	0.14759	0.14926	0.41616	0.26534	0.13468	0.18638	-3.2	-3.5021	-4.1188	-3.3833	-3.725	-3.9292	-3.6312	-4.1083	-3.7604	-3.3458	-4.225	-3.525	-3.6667	-4.2104	-3.2687	-4.2667	356.749	381.714	152.152	435.882	361.066	320.399	363.526	99.790	166.231	95.268	370.421	410.846	375.208	380.331	164.729	89.533	0.00046513	0.0005196	0.00015507	1323.2	4.3828e-06	5.1699e-06	1325.7	362.08	4.593e-06	4.431e-06	416.9	138.54	120.94	41.217	4.4033e-06	51.062	0.00030764	0.00018944	5.0133e-05	1339.1	2.2799e-06	1.9616e-06	1343.2	368.69	2.308e-06	2.0553e-06	422.56	141.63	123.28	42.248	2.2573e-06	52.359	190.525	163.657	171.130	96.102	246.060	241.934	96.299	101.284	244.474	235.965	99.972	104.811	105.058	109.806	227.715	108.862	-8191	255	
919.663	1	1	0	0	0.20678	0.26322	0.066359	0.22539	0.17663	0.11197	0.23565	0.1888	0.20717	0.20048	0.25819	0.29677	0.13313	0.13871	0.08479	0.22052	-3.5312	-3.225	-4.0958	-3.7146	-3.7438	-4.1021	-3.6688	-4.0938	-3.9417	-3.3458	-4.125	-3.6146	-3.6417	-4.2583	-3.3187	-3.9375	351.922	376.048	328.383	384.350	412.970	125.333	384.721	408.186	387.511	417.376	379.375	427.820	97.363	371.339	395.263	362.398	0.0004496	0.0005093	0.00014444	1322.5	5.1048e-06	5.2152e-06	1322.6	361.97	5.6622e-06	3.5527e-06	415.3	138.87	120.36	41.141	4.9524e-06	51.153	0.00030493	0.00019263	5.2562e-05	1340.1	2.4051e-06	1.9177e-06	1339.9	368.68	2.3887e-06	2.2243e-06	422.81	141.81	123.22	42.108	2.3326e-06	52.354	190.510	169.214	161.314	96.174	232.000	234.768	96.065	100.603	241.682	237.333	100.158	104.625	105.065	109.733	236.657	108.957	-8191	255	
919.784	1	1	0	0	0.11514	0.1953	0.13714	0.29031	0.13486	0.093392	0.14763	0.041912	0.053318	0.073179	0.12895	0.088588	0.073451	0.13249	0.076498	0.071768	-3.5667	-3.3312	-4.0646	-3.6979	-3.4375	-4.1875	-3.7146	-3.7917	-3.8854	-3.4125	-4.1292	-3.7313	-3.4479	-4.1229	-3.5021	-3.6646	113.857	228.935	186.811	424.531	278.794	86.700	350.464	354.117	287.945	105.779	259.846	193.494	379.628	440.089	201.367	229.428	0.00045945	0.00057783	0.0001431	1320.1	4.0876e-06	5.6493e-06	1316.9	362.54	4.5445e-06	6.1388e-06	413.64	138.71	120.56	40.956	4.5153e-06	51.038	0.00030145	0.00020098	5.0575e-05	1336.9	2.4118e-06	1.9862e-06	1336.2	368.98	2.2233e-06	2.2149e-06	421.53	141.71	123.21	42.115	2.2807e-06	52.326	193.723	164.764	167.788	96.058	246.398	237.393	96.072	100.962	237.989	230.797	100.013	104.400	105.184	109.562	238.374	108.940	-8191	255	
919.880	1	1	0	0	0.1047	0.074127	0.10835	0.12488	0.14858	0.1506	0.21662	0.28893	0.081715	0.09527	0.12274	0.11151	0.12555	0.053159	0.20386	0.1917	-3.6771	-3.1625	-4.0188	-3.9313	-3.3417	-4.1396	-3.7229	-3.6771	-3.8729	-3.1333	-4.0333	-3.9771	-3.3354	-4.0813	-3.5167	-3.7021	333.678	352.876	239.601	206.665	250.898	187.051	421.003	359.063	136.570	403.464	149.633	439.858	427.611	112.145	171.643	341.978	0.00045252	0.00048776	0.00014446	1317.6	4.2699e-06	4.1447e-06	1323.2	361.19	4.9837e-06	4.2112e-06	416.73	138.36	120.04	41.159	3.9928e-06	51.133	0.00030259	0.00019212	5.2145e-05	1336.9	2.3273e-06	1.9662e-06	1338.8	367.98	2.3609e-06	2.1209e-06	422.76	141.6	122.89	42.137	2.2165e-06	52.306	192.635	170.972	162.895	96.008	237.396	223.102	96.085	100.937	249.532	222.355	100.260	104.471	105.312	109.766	242.808	108.874	-8191	255	
919.951	1	1	0	0	0.092411	0.30063	0.042961	0.28224	0.051895	0.22587	0.24836	0.15553	0.10337	0.12226	0.14065	0.0407	0.41162	0.33062	0.030001	0.11636	-3.5812	-3.4167	-3.6896	-3.8979	-3.3083	-4.0938	-3.8688	-3.4979	-4.1792	-3.4333	-3.8854	-4.0167	-3.3958	-4.0958	-3.6	-3.3771	405.875	274.477	279.349	392.026	257.056	337.803	422.065	391.500	148.187	220.839	387.996	263.489	397.020	363.175	386.054	423.334	0.00045794	0.00053517	0.00017574	1317.8	4.9212e-06	3.8545e-06	1320	362.52	4.9883e-06	5.5487e-06	413.8	138.66	119.98	41.023	3.189e-06	51.12	0.00031291	0.0001951	5.2295e-05	1337	2.4897e-06	1.9297e-06	1337.8	368.46	2.3533e-06	2.1743e-06	422.36	141.6	123.05	42.131	2.2057e-06	52.311	190.621	162.136	171.074	95.957	234.511	241.028	96.036	100.698	248.482	238.611	100.429	104.776	105.211	109.729	245.898	108.944	-8191	255	
920.072	1	1	0	0	0.054365	0.093451	0.17432	0.28263	0.033321	0.30538	0.1807	0.28825	0.19256	0.18965	0.1552	0.072727	0.25068	0.35082	0.29172	0.11325	-3.7146	-3.3396	-3.6375	-4.1729	-3.1479	-3.9833	-3.9729	-3.3937	-4.1083	-3.425	-3.6688	-4.1104	-3.2583	-4.0771	-3.7708	-3.5042	156.099	154.920	308.406	329.393	88.861	161.306	384.640	91.386	198.576	309.172	328.548	178.345	83.379	377.374	194.340	90.672	0.00045017	0.00059767	0.0001673	1321.1	4.1529e-06	5.0363e-06	1318.8	361.44	4.1024e-06	4.5907e-06	415.22	139.12	119.75	41.218	4.2482e-06	51.006	0.00030098	0.0001909	5.2295e-05	1337.1	2.4328e-06	2.0643e-06	1335.8	368.01	2.1881e-06	1.9979e-06	421.52	141.73	122.62	42.16	2.1804e-06	52.322	190.501	155.267	173.654	95.855	236.865	234.382	95.755	100.914	245.658	230.069	100.093	104.352	104.910	109.833	234.411	108.990	-8191	255	
920.166	1	1	0	0	0.19308	0.024156	0.071824	0.21366	0.18942	0.029441	0.36027	0.20144	0.093635	0.2072	0.20341	0.12646	0.23683	0.11524	0.10735	0.14034	-3.7979	-3.6396	-3.5417	-4.2312	-3.3583	-3.9646	-4.0646	-3.5187	-4.2063	-3.5458	-3.5833	-4.2292	-3.4375	-4.0312	-3.9188	-3.3312	238.652	297.106	204.610	394.991	341.674	153.048	411.436	403.006	265.518	252.436	383.276	404.424	212.947	351.647	439.724	119.634	0.00045249	0.00049299	0.00012983	1318.9	4.2758e-06	3.8588e-06	1318.5	361.36	3.8974e-06	4.4926e-06	414.9	138.71	120	41.103	4.6134e-06	50.953	0.00029279	0.00019543	5.2629e-05	1335.7	2.3045e-06	1.9466e-06	1335.2	367.97	2.2845e-06	2.0096e-06	421.54	141.4	122.86	42.089	2.1418e-06	52.28	189.787	169.813	175.633	95.978	236.607	231.411	95.782	100.520	247.442	231.366	99.675	104.384	104.961	109.561	233.252	108.865	-8191	255	
920.263	1	1	0	0	0.098886	0.018332	0.18581	0.23273	0.26073	0.042526	0.25414	0.31336	0.024599	0.12974	0.034232	0.082913	0.17614	0.10837	0.031792	0.19539	-3.7458	-3.5042	-3.5062	-4.2937	-3.3958	-3.6188	-4.2375	-3.5417	-4.1042	-3.6167	-3.5542	-4.1125	-3.5208	-3.8688	-4	-3.4167	113.843	281.497	241.970	430.900	355.604	157.768	384.919	417.034	387.900	341.731	117.948	307.110	397.932	130.180	393.527	118.020	0.00043009	0.00055928	0.00015019	1317.4	4.8785e-06	5.621e-06	1314	361.73	5.2161e-06	5.1624e-06	413.93	138.03	120.19	41.241	4.4355e-06	51.377	0.00030028	0.00018404	4.9306e-05	1334.2	2.3999e-06	1.9729e-06	1334.2	367.75	2.2994e-06	2.0033e-06	421.88	141.42	122.98	42.115	2.1883e-06	52.309	191.239	164.686	171.212	96.030	243.589	227.247	95.947	100.485	237.780	237.093	100.226	104.690	105.003	109.635	229.200	108.675	-8191	255	
920.359	1	1	0	0	0.19545	0.11148	0.061289	0.2264	0.091288	0.3385	0.1588	0.14233	0.21165	0.19101	0.15701	0.31258	0.055069	0.065688	0.13706	0.17061	-3.6271	-3.6354	-3.2938	-4.2042	-3.3896	-3.5708	-4.3521	-3.5438	-3.9729	-3.8896	-3.4083	-4.1854	-3.7354	-3.85	-4.2042	-3.5708	423.427	125.546	97.164	409.647	158.473	284.893	277.220	250.501	255.025	417.276	437.168	389.521	230.863	158.363	165.638	88.516	0.00046116	0.00053873	0.00016053	1316.8	4.6491e-06	5.5428e-06	1316.6	360.65	4.7372e-06	4.8595e-06	412.72	138.64	120.03	40.943	5.0973e-06	51.119	0.0003024	0.00018007	5.2754e-05	1333.8	2.4011e-06	1.8808e-06	1334.2	367.14	2.1805e-06	1.9636e-06	420.14	141.44	122.84	42.048	2.0599e-06	52.179	193.950	161.869	174.384	95.786	231.588	226.369	95.779	100.722	229.513	213.160	99.721	104.237	104.944	109.613	225.172	108.489	-8191	255	
920.455	1	1	0	0	0.19695	0.20986	0.17641	0.25019	0.14924	0.099019	0.11086	0.068195	0.12577	0.12198	0.12946	0.1396	0.16841	0.1515	0.13138	0.11515	-3.5333	-4.0333	-3.3563	-4.3708	-3.5521	-3.5792	-4.5479	-3.5229	-3.9	-4.0333	-3.4	-4.1708	-3.9208	-3.6125	-4.1021	-3.4813	146.748	357.585	104.723	378.092	321.388	132.057	271.414	380.776	219.271	348.189	358.751	90.951	86.059	137.621	409.216	88.564	0.00044354	0.00055666	0.00013735	1312.7	5.5031e-06	5.0603e-06	1314.7	360.47	4.3206e-06	4.4128e-06	414.37	137.92	119.5	40.957	4.6085e-06	51.169	0.00030013	0.00017936	5.1393e-05	1332.9	2.2519e-06	2.0696e-06	1332.2	367.26	2.338e-06	1.8719e-06	420.65	141.24	122.61	42.028	2.0383e-06	52.236	193.478	172.347	169.853	95.884	241.699	235.713	95.740	100.635	240.250	238.146	99.862	104.439	104.870	109.386	232.829	108.772	-8191	255	
920.576	1	1	0	0	0.12712	0.20262	0.15569	0.19714	0.2281	0.068328	0.085667	0.35665	0.16886	0.079753	0.36103	0.17682	0.3926	0.077679	0.21527	0.24251	-3.2625	-4.0146	-3.3958	-4.1	-3.6875	-3.5271	-4.2042	-3.625	-3.6688	-4.1146	-3.4792	-3.9938	-3.9292	-3.3833	-4.1562	-3.7708	336.529	418.085	389.855	110.209	153.027	274.765	441.602	358.647	218.794	432.852	409.343	383.883	427.674	279.917	164.472	416.491	0.00045717	0.000465	0.00014976	1316.8	5.1329e-06	5.9458e-06	1309.4	360.82	4.521e-06	4.8398e-06	413.62	138.49	120.14	40.938	4.103e-06	50.792	0.00030493	0.00017593	5.0993e-05	1332	2.2239e-06	2.0138e-06	1331.1	367.28	2.3881e-06	1.9589e-06	419.76	141.14	122.63	42.015	2.1703e-06	52.146	193.443	175.402	149.050	95.985	245.460	240.558	95.965	100.562	245.636	221.242	100.244	104.788	104.660	109.547	234.717	108.851	-8191	255	
920.647	1	1	0	0	0.1675	0.044358	0.24676	0.23477	0.12165	0.062949	0.18908	0.30425	0.23694	0.10042	0.155	0.065355	0.18409	0.11704	0.1528	0.23259	-3.2646	-4.25	-3.2979	-4.2667	-3.9333	-3.4208	-4.3375	-3.7229	-3.6458	-4.1354	-3.4708	-4.0396	-4.0625	-3.5042	-4.0417	-3.8146	268.682	313.635	380.070	100.166	93.286	389.203	388.626	129.333	135.905	248.676	82.770	364.006	85.163	404.188	342.357	279.844	0.00046624	0.00049721	0.00014479	1318	5.1504e-06	4.674e-06	1315	360.17	4.8234e-06	3.7078e-06	412.03	137.95	120.51	41.025	4.1957e-06	50.921	0.00031026	0.00017387	5.4608e-05	1332.7	2.271e-06	2.0563e-06	1331.8	366.93	2.4013e-06	1.8749e-06	419.5	141.36	122.72	42.013	1.9918e-06	52.169	188.788	157.730	180.616	96.045	238.079	238.424	95.905	100.477	249.406	223.068	99.957	104.588	104.824	109.367	236.660	108.740	-8191	255	
920.743	1	1	0	0	0.15439	0.24994	0.071303	0.25622	0.23288	0.011965	0.058141	0.30157	0.10751	0.17568	0.041513	0.15726	0.15369	0.12716	0.21364	0.20815	-3.0187	-4.1937	-3.325	-4.0146	-4.0708	-3.2729	-4.1917	-3.7208	-3.5062	-4.1937	-3.475	-3.8646	-4.3583	-3.4833	-4.1312	-3.7396	206.210	106.561	186.444	366.556	115.405	152.733	337.070	370.002	210.821	122.319	137.793	321.450	379.110	412.384	383.377	111.984	0.0004712	0.00058832	0.00016962	1316.8	5.0524e-06	5.3349e-06	1313.7	360.62	4.6341e-06	4.8915e-06	413.31	138.66	120	40.913	3.8057e-06	50.997	0.00031416	0.00017453	5.1293e-05	1329.8	2.2768e-06	1.9692e-06	1332	366.82	2.4092e-06	1.9459e-06	420	141.43	122.78	41.964	2.1269e-06	52.171	192.095	170.701	182.552	96.117	239.422	241.022	96.050	100.531	238.423	218.858	99.776	104.285	104.887	109.666	242.409	108.608	-8191	255	
920.864	1	1	0	0	0.12386	0.30028	0.029888	0.25687	0.19193	0.12994	0.40659	0.21915	0.10349	0.099681	0.10657	0.11064	0.039577	0.099374	0.096215	0.069319	-3.0979	-4.1562	-3.5563	-3.9062	-4.0563	-3.3021	-4.0833	-4.0521	-3.3792	-4.3646	-3.4646	-3.8896	-4.1875	-3.3729	-3.8187	-4.0938	312.693	379.983	180.603	395.790	171.643	285.943	387.244	414.705	279.783	161.051	353.650	136.994	270.848	173.444	283.198	389.007	0.00045379	0.00037722	0.00018576	1318.7	5.1756e-06	4.3633e-06	1310.3	359.42	5.0309e-06	4.0626e-06	412.07	138.73	119.75	40.924	4.7063e-06	50.966	0.00031526	0.00016832	5.3965e-05	1330.8	2.251e-06	1.9656e-06	1329.4	366.39	2.3297e-06	1.9173e-06	419.55	141.29	122.62	41.947	2.0621e-06	52.195	192.964	167.760	154.909	96.015	236.376	221.492	95.861	100.776	241.159	232.268	99.635	104.349	104.976	109.202	232.275	108.709	-8191	255	
920.960	1	1	0	0	0.20115	0.21276	0.17427	0.06363	0.16289	0.11133	0.19688	0.061077	0.29917	0.14222	0.26812	0.11737	0.12114	0.1549	0.060946	0.081658	-2.8917	-4.0583	-3.6875	-3.7167	-4.2937	-3.4167	-4.1188	-4.2021	-3.3625	-4.1188	-3.8333	-3.5458	-4.3333	-3.4813	-3.8812	-4.0708	230.558	165.186	166.611	328.417	121.059	320.211	438.520	311.477	266.340	134.001	370.710	131.268	407.628	124.401	111.211	434.781	0.00046439	0.00054933	0.00016027	1311.4	4.8397e-06	4.7832e-06	1309.8	359.85	4.9942e-06	3.6755e-06	413.29	138.26	119.83	40.811	3.7834e-06	50.475	0.00030739	0.00017414	5.2913e-05	1328.7	2.2126e-06	2.0753e-06	1327.8	366.35	2.3453e-06	1.8733e-06	419.92	141.31	122.52	41.979	2.1317e-06	52.01	192.558	169.907	148.087	95.913	246.795	237.381	95.955	100.571	234.431	250.762	99.848	104.537	104.993	109.620	227.342	108.621	-8191	255	
921.056	1	1	0	0	0.12334	0.10564	0.30654	0.2423	0.29428	0.22935	0.21761	0.25172	0.10049	0.10252	0.099321	0.066832	0.24469	0.10028	0.050741	0.17462	-2.7333	-4.1312	-3.6604	-3.5458	-4.2708	-3.4042	-4.0458	-4.1854	-3.2958	-4.0979	-3.7771	-3.5083	-4.1312	-3.4958	-3.6188	-4.0583	244.655	140.952	431.426	434.460	223.669	402.922	352.548	389.267	388.836	260.087	140.487	93.226	316.270	331.721	119.347	377.107	0.0004593	0.00056282	0.00015302	1311.6	4.7626e-06	4.7628e-06	1309.2	359.69	4.7405e-06	4.371e-06	410.19	138.04	120.17	40.824	4.7057e-06	51.2	0.00030952	0.00018282	5.1268e-05	1325.8	2.1852e-06	1.9799e-06	1326.9	366.19	2.3346e-06	1.9813e-06	418.44	140.98	122.69	41.932	2.2178e-06	52.191	192.562	170.097	181.020	96.104	227.307	222.231	95.918	100.553	243.419	237.524	99.869	104.412	104.820	109.447	232.363	108.761	-8191	255	
921.152	1	1	0	0	0.18119	0.079108	0.19388	0.33384	0.058674	0.012013	0.26459	0.055126	0.15839	0.16252	0.073943	0.15108	0.11288	0.20819	0.17108	0.32829	-2.8937	-4.0021	-3.7896	-3.5375	-4.1125	-3.5646	-3.8271	-4.4708	-3.4208	-3.9354	-4.0563	-3.3688	-4.0687	-3.8042	-3.4979	-4.1521	83.929	123.203	142.763	436.641	277.734	82.656	407.855	259.216	108.227	365.770	133.697	430.645	385.374	409.343	327.127	92.963	0.00046411	0.0003737	0.00014278	1305.6	5.1028e-06	3.3483e-06	1309	358.84	4.1914e-06	3.9945e-06	412.36	137.72	119.91	40.762	3.4498e-06	51.124	0.00031295	0.00017697	5.3489e-05	1323.9	2.2501e-06	1.9383e-06	1325.8	365.89	2.2484e-06	2.0033e-06	419.91	140.91	122.41	41.87	2.1791e-06	52.124	191.608	161.876	165.650	95.882	246.516	213.138	95.844	100.613	253.337	223.034	99.590	104.361	105.027	109.164	246.169	108.838	-8191	255	
921.247	1	1	0	0	0.17289	0.20597	0.060597	0.30191	0.17876	0.11199	0.35061	0.13065	0.040015	0.08467	0.19387	0.24358	0.034506	0.3324	0.059932	0.18855	-3.0646	-3.8979	-4.0792	-3.4104	-4.2542	-3.6937	-3.7438	-4.2583	-3.4125	-3.7625	-4.025	-3.4417	-4.1813	-3.7167	-3.2917	-4.2417	373.617	96.734	177.478	84.339	363.199	383.376	352.814	281.201	161.287	199.660	428.541	130.840	193.382	94.193	356.087	105.514	0.00043805	0.00057241	0.00012848	1308.2	5.0488e-06	4.3086e-06	1311	359.39	4.505e-06	4.4199e-06	411.05	138.23	119.64	41.072	5.2679e-06	50.575	0.0003003	0.00018798	4.8613e-05	1322.6	2.2439e-06	2.0872e-06	1326.1	365.73	2.3496e-06	1.8826e-06	418.65	141.06	122.47	41.931	2.2389e-06	52.064	189.668	176.832	175.362	95.859	243.550	250.698	95.853	100.451	241.046	217.193	99.618	104.553	104.923	109.176	235.707	108.890	-8191	255	
921.343	1	1	0	0	0.092347	0.070289	0.027903	0.25697	0.19755	0.044278	0.30816	0.11559	0.098261	0.072627	0.18213	0.015909	0.18776	0.075121	0.14924	0.025399	-2.9938	-3.7271	-3.9688	-3.4292	-3.8104	-3.7167	-3.5729	-4.325	-3.475	-3.6688	-4.025	-3.2958	-3.9208	-3.925	-3.3042	-4.3333	164.106	232.071	419.518	420.930	290.177	301.565	332.907	366.468	397.048	241.178	413.650	423.215	366.128	307.368	296.547	379.306	0.00045733	0.00048124	0.0001477	1307.8	4.7948e-06	4.8488e-06	1309.6	360.57	5.0892e-06	3.9586e-06	412.56	137.8	119.47	40.858	5.5997e-06	50.913	0.00030741	0.000192	4.9373e-05	1323.8	2.2593e-06	1.8392e-06	1324.4	366.08	2.4426e-06	2.0729e-06	418.92	141.06	122.53	41.952	2.1573e-06	52.225	192.531	165.543	167.565	95.886	236.500	231.582	95.969	100.645	236.070	224.324	99.590	104.241	105.049	109.223	232.821	108.588	-8191	255	
921.464	1	1	0	0	0.095716	0.089598	0.24438	0.23835	0.058757	0.065727	0.35356	0.38279	0.15863	0.043206	0.19702	0.22861	0.35241	0.11272	0.044601	0.07695	-3.1375	-3.4875	-4.2417	-3.4604	-3.8042	-3.8104	-3.6208	-4.1813	-3.6208	-3.5	-4.3021	-3.4917	-4.0396	-3.8833	-3.35	-4.0958	198.078	356.700	277.486	436.024	321.603	282.621	401.248	402.270	141.131	179.371	404.094	382.371	393.563	153.277	209.639	182.398	0.00044043	0.00038284	0.00014224	1307.6	3.9531e-06	5.6174e-06	1307.8	359.45	4.0872e-06	3.9596e-06	411.88	137.74	119.34	40.93	4.4415e-06	51.028	0.00030145	0.00017963	4.9624e-05	1324.3	2.2064e-06	1.8489e-06	1324.8	365.97	2.3361e-06	1.9819e-06	418.85	140.8	122.46	41.965	2.2456e-06	52.204	189.761	169.888	173.420	95.742	236.255	231.923	95.859	100.541	240.560	238.913	99.511	104.483	104.999	109.391	224.723	108.811	-8191	255	
921.560	1	1	0	0	0.056887	0.14616	0.19524	0.28076	0.052151	0.17611	0.28876	0.18721	0.22439	0.034454	0.31287	0.29883	0.25116	0.26677	0.26147	0.30889	-3.1854	-3.5312	-4.0292	-3.7146	-3.6646	-4.1792	-3.4396	-4.0542	-3.8042	-3.4771	-4.3604	-3.5708	-3.9042	-4.2063	-3.2917	-4.0729	230.189	420.828	207.890	410.378	343.577	104.411	389.311	380.879	104.105	187.597	426.170	380.156	419.180	386.388	397.974	383.462	0.00048386	0.00040024	0.00011789	1306.8	4.837e-06	4.3164e-06	1310	358.71	3.9975e-06	4.3387e-06	412.72	137.82	119.87	41.02	4.399e-06	50.866	0.00031253	0.00017065	4.8213e-05	1324.4	2.2424e-06	1.8558e-06	1325.8	365.69	2.3108e-06	2.0479e-06	418.82	140.79	122.41	41.968	2.2111e-06	52.107	192.787	181.296	172.857	95.864	245.594	219.286	96.193	100.591	238.055	236.198	99.958	104.082	104.988	109.339	233.232	108.760	-8191	255	
921.656	1	1	0	0	0.15525	0.16385	0.085174	0.23412	0.092841	0.26095	0.36183	0.10595	0.30545	0.13423	0.13609	0.15464	0.17257	0.14717	0.039444	0.18714	-3.4146	-3.2771	-4.1125	-3.6667	-3.6667	-4.0312	-3.6271	-4.0938	-3.9542	-3.4313	-4.1687	-3.7521	-3.6562	-4.325	-3.3792	-3.9396	358.570	304.599	135.252	438.034	347.657	301.080	370.710	118.404	415.539	315.837	434.847	431.633	83.917	430.564	359.701	379.907	0.00045913	0.00060556	0.00016601	1305.9	4.8242e-06	6.4757e-06	1307.4	359.7	4.2973e-06	4.8708e-06	412.23	137.95	119.38	40.713	3.7327e-06	50.962	0.00030352	0.00018613	4.9407e-05	1324.2	2.3703e-06	1.9533e-06	1324.5	365.93	2.1835e-06	2.0953e-06	418.45	140.84	122.29	41.903	2.3177e-06	52.112	191.594	168.746	171.517	95.833	234.174	238.465	95.880	100.676	243.606	241.771	100.213	104.391	105.008	109.513	243.753	108.533	-8191	255	
921.752	1	1	0	0	0.1437	0.1381	0.25626	0.24022	0.15063	0.14982	0.13336	0.26001	0.31285	0.15736	0.18917	0.2674	0.091243	0.057427	0.045986	0.29264	-3.5812	-3.3375	-4.075	-3.8271	-3.6146	-4.1896	-3.5812	-3.975	-4.0771	-3.2521	-4.1521	-3.8771	-3.5875	-4.2125	-3.4604	-3.7354	134.549	347.753	187.340	440.357	352.477	267.011	319.972	346.489	415.168	399.149	439.098	414.179	112.766	265.969	89.769	402.714	0.00044958	0.00054352	0.00011888	1306.7	5.2612e-06	4.6704e-06	1302.3	358.44	3.7417e-06	3.5648e-06	412.65	137.49	119.63	40.877	4.2331e-06	50.887	0.00029855	0.00019412	4.8547e-05	1322.8	2.3891e-06	1.8711e-06	1321.6	364.95	2.2037e-06	2.1169e-06	418.81	140.6	122.31	41.854	2.1409e-06	52.05	190.740	153.371	183.515	95.841	252.971	230.738	95.855	100.501	240.870	233.698	99.617	104.291	105.059	109.147	239.206	108.876	-8191	255	
921.873	1	1	0	0	0.19472	0.23447	0.13001	0.2272	0.11203	0.31026	0.11456	0.21781	0.080244	0.13743	0.22679	0.26508	0.25221	0.056151	0.25998	0.34196	-3.6	-3.3417	-3.9	-3.9167	-3.4333	-4.0771	-3.6083	-3.9625	-4.0021	-3.5146	-4.1458	-3.9062	-3.5438	-4.275	-3.6229	-3.7812	424.744	199.490	308.318	407.296	87.932	312.034	388.322	377.453	154.962	150.029	365.788	403.041	403.053	137.622	239.450	372.079	0.00044736	0.00042378	0.0001271	1308.3	5.2552e-06	5.0482e-06	1304.5	359.44	4.8675e-06	3.8899e-06	411.3	137.62	119.97	41.078	4.9496e-06	50.958	0.00030134	0.00019394	4.9532e-05	1324.1	2.4115e-06	1.9193e-06	1323.7	365.54	2.2551e-06	1.9926e-06	418.5	140.79	122.47	41.973	2.1833e-06	52.182	192.438	179.175	175.506	95.834	242.766	238.140	95.930	100.889	242.603	240.913	100.107	104.406	104.953	109.536	238.440	108.969	-8191	255	
921.944	1	1	0	0	0.033242	0.074065	0.25318	0.29176	0.060795	0.15023	0.046348	0.16205	0.11773	0.018997	0.10445	0.36444	0.2129	0.1797	0.13252	0.043512	-3.8375	-3.4562	-3.9688	-3.9896	-3.3792	-4.0125	-3.7958	-3.7333	-4.0625	-3.3854	-4.1188	-4.0312	-3.4521	-4.1979	-3.6833	-3.7062	312.790	424.572	384.034	420.844	297.834	386.760	124.467	371.864	176.335	122.638	434.697	358.709	142.802	336.007	118.069	344.072	0.00046124	0.00053255	0.0001661	1306.1	4.8331e-06	4.2183e-06	1302.6	359.44	4.3581e-06	4.1958e-06	410.59	137.65	119.76	40.792	5.1685e-06	51.058	0.00030405	0.00019787	4.9373e-05	1322.8	2.347e-06	1.921e-06	1323	365.43	2.2181e-06	2.1099e-06	418.48	140.6	122.31	41.879	2.2427e-06	52.133	192.050	172.480	164.199	96.127	246.162	229.315	96.098	100.632	239.181	211.498	100.286	104.430	105.101	109.348	224.251	108.589	-8191	255	
922.041	1	1	0	0	0.24174	0.13607	0.061372	0.34255	0.24698	0.10653	0.27026	0.26789	0.067284	0.13791	0.28973	0.17625	0.11336	0.17451	0.11713	0.10819	-3.6792	-3.3604	-3.9021	-4.3042	-3.3854	-4.0271	-3.9167	-3.5771	-4.2812	-3.5312	-3.8646	-4.1792	-3.3958	-4.1104	-3.8187	-3.2896	205.406	197.700	261.782	432.194	172.822	285.581	95.240	397.827	330.160	275.062	436.898	422.490	441.153	131.650	434.161	288.110	0.00046523	0.00052665	0.00013222	1302.8	4.766e-06	5.3103e-06	1303.8	358.23	3.8626e-06	4.1899e-06	412.78	137.77	119.77	40.978	4.5151e-06	50.953	0.00029946	0.00018669	4.9707e-05	1321.3	2.4106e-06	1.915e-06	1323.4	364.76	2.2713e-06	2.0063e-06	417.87	140.68	122.28	41.938	2.1864e-06	52.146	191.646	184.300	158.160	96.093	239.603	220.184	96.177	100.917	238.905	233.349	100.254	104.594	105.082	109.662	236.506	108.697	-8191	255	
922.137	1	1	0	0	0.032493	0.14878	0.10793	0.19737	0.10353	0.065551	0.17415	0.3031	0.089695	0.039056	0.18012	0.092573	0.13802	0.24225	0.18661	0.1172	-3.6625	-3.3833	-3.6729	-4.2604	-3.4104	-3.9208	-3.9333	-3.4917	-4.1625	-3.6	-3.6292	-4.1792	-3.3937	-4.0437	-4.0604	-3.5417	392.026	323.878	316.626	85.284	339.324	346.507	402.894	357.965	141.226	393.106	234.295	307.212	135.159	397.804	246.562	97.267	0.00044105	0.0004069	0.00015135	1304.9	5.2341e-06	5.006e-06	1304.9	358.26	4.219e-06	5.0175e-06	411.72	137.96	119.48	41.043	4.5443e-06	50.928	0.00030026	0.00018455	5.3623e-05	1320.4	2.4088e-06	1.9336e-06	1322.8	364.86	2.1973e-06	1.9489e-06	418.64	140.88	122.18	41.957	2.1336e-06	52.068	188.988	152.222	158.063	96.200	235.255	222.826	95.931	100.969	243.355	235.252	100.211	104.719	105.269	109.905	235.518	108.738	-8191	255	
922.256	1	1	0	0	0.15473	0.17066	0.1509	0.23813	0.23281	0.1471	0.32044	0.16359	0.12752	0.098268	0.13209	0.17625	0.19107	0.23366	0.091444	0.099097	-3.9625	-3.5896	-3.6083	-4.2833	-3.4417	-3.9792	-4.0792	-3.4146	-4.0708	-3.6042	-3.6979	-4.3604	-3.5875	-3.9875	-4.1521	-3.425	288.515	359.410	172.771	353.761	247.868	240.874	414.062	319.198	195.176	441.352	105.919	84.171	415.502	101.014	323.233	98.165	0.00046909	0.00060183	0.00016731	1305.1	5.5673e-06	4.8039e-06	1304.3	358.95	4.4168e-06	5.0048e-06	410.37	137.7	119.62	40.919	4.9178e-06	50.906	0.00030625	0.0001948	5.2821e-05	1322.7	2.3636e-06	1.9945e-06	1323	365.37	2.1802e-06	1.9819e-06	418.11	140.75	122.65	41.954	2.1886e-06	52.11	189.736	175.070	165.671	96.159	242.295	224.200	95.957	100.686	240.954	232.412	100.052	104.775	105.021	109.916	234.014	108.740	-8191	255	
922.352	1	1	0	0	0.26831	0.16485	0.084595	0.13621	0.11753	0.28964	0.076591	0.064055	0.048386	0.15674	0.3218	0.15491	0.18572	0.10673	0.097576	0.25185	-3.675	-3.7188	-3.4021	-4.4708	-3.5125	-3.65	-4.2125	-3.4938	-4.1521	-3.8208	-3.4896	-4.3146	-3.6083	-3.7667	-4.1271	-3.4188	343.101	196.583	414.453	375.549	278.733	150.868	390.501	370.100	188.570	109.784	440.285	342.451	416.075	180.103	236.584	127.293	0.00043166	0.00042681	0.0001644	1302.3	4.7798e-06	3.9591e-06	1310.2	359.42	4.0343e-06	3.9872e-06	413.54	137.95	119.85	40.875	4.6883e-06	51.028	0.00029798	0.00017635	5.5067e-05	1321.9	2.4189e-06	1.9263e-06	1323.8	365.57	2.175e-06	1.9779e-06	419.53	140.75	122.45	41.916	2.0608e-06	52.096	192.384	162.493	157.543	96.256	245.183	227.481	95.917	100.849	246.321	236.126	100.061	104.490	105.151	109.448	237.915	108.892	-8191	255	
922.448	1	1	0	0	0.21632	0.20464	0.13811	0.12022	0.24823	0.093238	0.14261	0.3184	0.15167	0.18395	0.17338	0.15534	0.20223	0.064193	0.2167	0.047759	-3.7917	-3.8667	-3.4188	-4.3688	-3.5771	-3.6562	-4.375	-3.5771	-3.8812	-3.9062	-3.5625	-4.1875	-3.9146	-3.6708	-4.1583	-3.6208	345.837	87.895	168.442	376.474	429.188	327.045	351.093	424.312	335.079	126.461	357.325	402.073	375.162	402.917	301.085	352.520	0.0004512	0.00044077	0.00018205	1304.6	5.0498e-06	3.3768e-06	1311.4	359.72	5.0623e-06	4.2409e-06	411.02	137.77	119.4	40.81	5.3536e-06	50.947	0.00030339	0.00018467	5.3656e-05	1322.6	2.3254e-06	1.934e-06	1325.8	365.4	2.2695e-06	1.9056e-06	418.84	140.95	122.22	41.998	2.2089e-06	52.107	189.511	164.451	182.099	96.109	236.357	223.466	96.089	100.935	241.613	231.269	99.966	104.905	105.267	109.623	245.385	108.983	-8191	255	
922.544	1	1	0	0	0.16948	0.12752	0.10694	0.28157	0.13467	0.037939	0.41663	0.2709	0.039788	0.22772	0.28439	0.18723	0.19545	0.057725	0.03749	0.064174	-3.425	-3.8333	-3.2979	-4.1292	-3.6521	-3.3208	-4.3438	-3.6979	-3.8896	-4.0708	-3.4875	-4.0583	-3.7667	-3.5187	-4.1896	-3.6167	238.454	193.546	416.601	350.670	413.247	175.703	388.822	315.946	159.354	204.168	352.360	323.611	103.603	327.627	201.187	298.656	0.0004511	0.00028339	0.00013307	1309.2	5.5338e-06	4.8372e-06	1305.7	358.72	4.2587e-06	5.2008e-06	408.85	137.57	119.76	40.865	3.6695e-06	50.796	0.0003062	0.0001748	5.1118e-05	1321.9	2.3629e-06	1.8834e-06	1321.2	365.19	2.3123e-06	1.8993e-06	417.89	140.77	122.35	41.874	2.0159e-06	51.972	191.609	169.616	149.653	96.352	236.214	249.892	96.132	100.870	235.020	227.942	100.023	104.705	105.103	109.997	243.806	108.615	-8191	255	
922.640	1	1	0	0	0.17025	0.080913	0.026977	0.2548	0.072451	0.092536	0.3561	0.35836	0.3036	0.1453	0.04626	0.14254	0.14836	0.14529	0.19572	0.17973	-3.2292	-4.0708	-3.375	-4.1896	-3.8958	-3.2917	-4.4917	-3.6458	-3.7417	-4.1208	-3.3167	-4.1813	-3.9021	-3.4813	-4.2354	-3.6958	386.874	385.325	121.133	429.568	131.283	87.144	381.080	413.182	350.561	157.925	325.654	425.124	419.814	357.434	221.050	152.900	0.0004504	0.00063756	0.00012759	1303	3.6888e-06	5.3061e-06	1307.9	358.21	4.519e-06	4.9034e-06	411.14	137.84	119.79	40.721	5.2539e-06	50.845	0.00030174	0.00017694	5.1318e-05	1321.9	2.1723e-06	2.0716e-06	1323.8	364.96	2.2753e-06	1.9576e-06	418.39	140.85	122.25	41.881	2.1124e-06	52.017	191.606	163.698	164.479	96.185	235.021	222.195	96.201	100.749	250.042	231.239	100.204	105.000	105.118	109.631	236.316	108.991	-8191	255	
922.736	1	1	0	0	0.14747	0.21183	0.24596	0.025893	0.058123	0.069058	0.15059	0.17773	0.15009	0.16638	0.16362	0.18266	0.044712	0.074233	0.082776	0.12842	-3.2604	-4.075	-3.3312	-4.1375	-3.9437	-3.3563	-4.1604	-3.6667	-3.3875	-4.2042	-3.3271	-3.7729	-4.0437	-3.3479	-4.2479	-3.8167	218.785	421.701	350.254	268.488	337.024	354.695	305.864	349.610	123.654	121.945	430.794	344.258	392.008	414.429	432.255	409.434	0.00045371	0.00031446	0.00017723	1301.6	4.4103e-06	4.7008e-06	1304.5	358.11	4.4924e-06	4.6914e-06	411.25	138.32	119.3	40.905	5.1664e-06	50.848	0.00030422	0.00017733	5.2788e-05	1321.5	2.3408e-06	1.9336e-06	1323.6	364.47	2.352e-06	1.7883e-06	417.92	141.06	122.21	41.954	2.0842e-06	52.149	193.140	156.696	168.616	96.313	230.573	250.040	96.178	100.711	241.026	222.405	100.494	104.795	105.189	109.735	228.150	109.074	-8191	255	
922.832	1	1	0	0	0.22977	0.098455	0.17882	0.085132	0.14479	0.12792	0.16651	0.26308	0.0811	0.212	0.19022	0.3244	0.25057	0.17383	0.17874	0.033404	-3.1625	-4.075	-3.375	-3.925	-4.0437	-3.4646	-4.125	-3.8292	-3.3563	-4.0687	-3.4667	-3.8729	-4.1896	-3.4437	-3.8208	-4.0062	418.390	293.832	428.171	91.167	244.029	273.625	389.344	380.755	411.095	430.462	352.862	392.622	424.159	137.303	232.727	245.571	0.00045234	0.00048796	0.00020976	1303.9	3.4635e-06	5.1467e-06	1305.7	358.68	4.4678e-06	4.9412e-06	413.08	137.32	119.72	40.736	5.1225e-06	50.744	0.00030034	0.00017948	5.1644e-05	1320.6	2.1304e-06	2.0706e-06	1324.1	365.16	2.3924e-06	1.8483e-06	418.26	140.56	122.1	41.837	2.1681e-06	52.018	191.435	165.522	170.254	96.186	235.383	248.111	96.408	101.112	236.713	225.535	100.268	104.870	105.541	109.825	234.994	109.209	-8191	255	
922.953	1	1	0	0	0.1462	0.20966	0.12057	0.3021	0.089755	0.24892	0.18293	0.16207	0.055019	0.095606	0.17972	0.10134	0.16148	0.29322	0.050883	0.12535	-2.925	-4.0542	-3.4437	-3.7896	-4.0792	-3.3458	-3.9604	-4.0104	-3.3292	-4.1667	-3.6521	-3.7	-4.2188	-3.575	-4.0604	-4.2167	213.853	430.354	171.651	399.451	159.678	189.469	377.161	394.461	383.485	306.557	392.825	163.258	335.820	364.543	335.293	258.257	0.00045367	0.00049193	0.00016451	1302.6	4.5724e-06	4.6889e-06	1306.8	359.38	5.3208e-06	4.9883e-06	410.27	138.11	119.25	40.925	4.0444e-06	50.84	0.00030899	0.00017512	5.1669e-05	1318.4	2.2335e-06	2.0543e-06	1321.9	364.73	2.3793e-06	1.9126e-06	417.34	140.8	122.1	41.952	2.0906e-06	52.095	191.921	173.741	177.601	96.350	230.705	250.599	96.213	100.824	247.804	239.552	100.338	104.945	104.995	109.728	224.431	109.105	-8191	255	
923.049	1	1	0	0	0.18915	0.22975	0.072818	0.23405	0.16289	0.075917	0.069717	0.21153	0.21023	0.078411	0.35629	0.27615	0.19838	0.17046	0.19087	0.21366	-2.9021	-4.0188	-3.5208	-3.5854	-4.0292	-3.5125	-3.9271	-4.0604	-3.2125	-3.8979	-3.6479	-3.5229	-4.2229	-3.5792	-3.5792	-4.075	417.824	400.982	343.149	84.728	200.272	439.849	354.422	357.087	117.661	172.229	408.593	330.365	409.271	428.780	305.227	406.859	0.000447	0.00049131	0.00011265	1306.1	4.7387e-06	4.69e-06	1302	356.78	4.6958e-06	4.8513e-06	410.71	136.67	119.65	40.741	4.6124e-06	51.085	0.00030474	0.00018455	5.1961e-05	1320.6	2.3134e-06	2.0354e-06	1320.9	363.85	2.4053e-06	1.9319e-06	418.02	140.37	122.17	41.819	2.1551e-06	52.105	192.226	174.653	187.289	96.312	241.124	220.522	96.270	100.914	246.357	228.417	100.345	105.052	104.933	109.889	244.097	108.867	-8191	255	
923.145	1	1	0	0	0.29346	0.16847	0.18562	0.2737	0.10721	0.18466	0.12303	0.045604	0.24055	0.097825	0.34686	0.22009	0.17755	0.29435	0.20032	0.2727	-3	-3.9625	-3.6979	-3.6	-4.3229	-3.4167	-3.7792	-4.2625	-3.2208	-3.9375	-3.9542	-3.4604	-4.1583	-3.5833	-3.4854	-4.1333	101.887	136.715	194.621	371.056	97.083	141.848	108.515	358.554	360.228	410.971	441.916	405.027	114.587	341.822	351.536	399.401	0.00043966	0.00043921	0.0001434	1302	4.7727e-06	4.7276e-06	1302.1	358.67	4.1815e-06	4.1296e-06	411.86	137.48	119.65	40.948	5.2382e-06	50.974	0.00029967	0.00017417	4.9073e-05	1318.1	2.2082e-06	2.044e-06	1318.5	364.63	2.3291e-06	1.9336e-06	417.73	140.49	122.07	41.951	2.2003e-06	52.073	191.551	166.537	165.605	96.282	247.483	231.105	96.478	101.051	240.136	223.706	100.171	104.915	105.500	109.915	240.376	109.034	-8191	255	
923.240	1	1	0	0	0.10142	0.17587	0.071391	0.41699	0.14534	0.32261	0.24612	0.18637	0.18472	0.12647	0.088149	0.23559	0.1219	0.18717	0.15622	0.19144	-2.9208	-3.9146	-3.8563	-3.25	-4.1333	-3.6771	-3.7	-4.1375	-3.3604	-3.6854	-4.0271	-3.3063	-4.2375	-3.6833	-3.5979	-4.2417	397.940	136.528	199.476	87.578	213.815	405.778	381.446	352.729	205.819	193.906	117.715	417.123	401.274	426.072	170.798	260.804	0.00045192	0.00055609	0.00014436	1296.5	5.732e-06	2.3594e-06	1307.4	358.58	3.2375e-06	5.907e-06	410.2	137.03	119.54	40.899	5.3577e-06	50.865	0.00030536	0.00017909	4.8839e-05	1315.2	2.2064e-06	1.9692e-06	1321	364.06	2.3316e-06	1.9449e-06	417.54	140.47	122.32	41.92	2.2377e-06	52.09	190.199	176.972	172.422	96.057	236.269	223.810	96.165	101.069	245.066	226.264	100.271	104.896	105.390	110.109	242.854	109.279	-8191	255	
923.336	1	1	0	0	0.095747	0.099582	0.14193	0.37303	0.094415	0.12302	0.066406	0.15353	0.095595	0.090656	0.023137	0.26693	0.17334	0.17236	0.18926	0.063822	-2.9625	-3.6063	-4.0604	-3.5979	-4.0146	-3.7729	-3.5521	-4.2562	-3.3583	-3.6792	-4.1438	-3.3979	-4.1333	-3.7521	-3.3479	-4.1771	342.369	187.894	189.299	381.052	336.893	341.558	103.852	360.612	437.895	358.069	395.679	391.432	364.096	398.026	165.258	388.271	0.00045683	0.00047264	0.00013703	1296.3	4.546e-06	5.4101e-06	1303.5	357.87	5.088e-06	5.255e-06	410.53	137.62	119.46	40.733	4.0061e-06	50.967	0.00030436	0.00017769	4.8012e-05	1314.2	2.1935e-06	1.8785e-06	1317.9	364.46	2.3588e-06	2.0449e-06	417.66	140.61	121.9	41.83	2.2465e-06	51.959	191.551	177.497	168.568	96.305	237.699	240.022	96.136	101.034	240.610	226.881	100.248	104.929	105.504	109.941	226.272	109.095	-8191	255	
923.432	1	1	0	0	0.14586	0.30525	0.076405	0.13979	0.12629	0.1443	0.26686	0.26463	0.075427	0.019959	0.14155	0.12906	0.29802	0.18793	0.1452	0.15005	-3.1146	-3.5563	-4.1021	-3.5958	-3.8688	-3.7958	-3.5083	-4.2771	-3.5458	-3.5708	-4.2292	-3.5125	-4.0938	-3.9917	-3.2458	-4.1375	343.911	389.212	281.862	366.557	215.694	417.313	423.392	358.747	255.264	436.595	96.947	368.588	420.486	360.444	319.455	340.081	0.00046794	0.0003675	0.00015387	1297.6	4.986e-06	4.3468e-06	1296.9	357.78	4.5593e-06	5.7076e-06	410.87	137.02	119.26	40.873	4.8944e-06	50.833	0.00030595	0.0001889	4.9064e-05	1314	2.2199e-06	1.8538e-06	1315.5	364.19	2.2842e-06	1.9333e-06	417.29	140.18	122.07	41.86	2.3086e-06	52.116	191.435	168.047	166.330	96.174	237.483	230.856	96.586	101.224	237.511	236.243	100.290	104.701	105.171	109.580	225.474	109.052	-8191	255	
923.553	1	1	0	0	0.26059	0.093312	0.12775	0.093182	0.26448	0.23537	0.18969	0.079252	0.1444	0.15383	0.097853	0.30492	0.14466	0.19258	0.16583	0.18728	-3.1375	-3.4104	-4.0896	-3.6813	-3.7396	-4.0042	-3.4813	-4.2438	-3.6292	-3.5667	-4.2667	-3.5312	-3.7292	-4.1	-3.2833	-4.1854	292.323	220.582	283.173	439.369	121.019	218.489	363.576	84.573	154.716	274.037	395.087	400.413	359.486	296.153	202.461	337.340	0.00043465	0.0005317	0.00015103	1297.9	5.032e-06	4.411e-06	1302.4	358.72	3.9635e-06	4.3363e-06	409.98	136.96	119.48	40.896	3.8188e-06	50.938	0.00029169	0.00019558	4.691e-05	1314	2.2218e-06	1.8864e-06	1319.1	364.34	2.2059e-06	1.9493e-06	417.6	140.17	121.97	41.921	2.1681e-06	51.997	192.349	163.041	169.654	96.094	237.355	222.894	96.081	100.833	249.267	249.302	100.265	104.742	105.307	109.798	228.760	109.075	-8191	255	
923.649	1	1	0	0	0.19577	0.43222	0.17236	0.23057	0.11313	0.32691	0.12363	0.19541	0.040623	0.10979	0.17551	0.15925	0.16347	0.06041	0.25629	0.14081	-3.2625	-3.4375	-4.0708	-3.6604	-3.8833	-4.1917	-3.5417	-4.1	-3.875	-3.3875	-4.2604	-3.7021	-3.8563	-4.025	-3.425	-4.1125	392.523	224.893	370.179	424.057	85.787	207.711	417.542	404.941	366.418	100.706	354.261	392.776	375.516	194.341	191.987	110.012	0.00045092	0.00041189	0.00014803	1298.2	4.187e-06	3.0539e-06	1297.6	358.51	4.482e-06	4.6195e-06	409.46	137.81	119.19	40.8	4.2228e-06	50.634	0.00030259	0.00018693	4.5892e-05	1314.9	2.2747e-06	1.8944e-06	1316.5	364.5	2.1881e-06	2.0089e-06	417.39	140.52	121.88	41.83	2.1155e-06	51.977	191.254	154.096	171.248	96.396	235.963	223.709	95.970	100.975	249.478	236.882	100.336	104.984	105.427	109.676	238.168	109.205	-8191	255	
923.745	1	1	0	0	0.1745	0.13849	0.05053	0.1859	0.17363	0.14232	0.47428	0.10052	0.115	0.096922	0.20742	0.11048	0.2086	0.20749	0.059835	0.10227	-3.5958	-3.425	-4.3083	-3.7417	-3.5042	-4.0104	-3.5812	-3.9	-4.0208	-3.3	-4.0979	-3.6375	-3.7417	-4.1792	-3.4583	-3.8396	403.584	344.669	87.823	82.794	400.211	164.517	410.079	358.489	254.744	354.809	85.105	389.221	353.120	433.024	91.767	410.051	0.00045415	0.00059686	0.00011687	1297.4	4.1923e-06	3.7146e-06	1300	357.43	4.6617e-06	4.7858e-06	411.07	137.77	119.37	40.871	4.351e-06	50.823	0.00030049	0.00018866	4.747e-05	1315.2	2.2458e-06	1.9549e-06	1318	364.18	2.249e-06	2.1116e-06	417.36	140.55	122.01	41.867	2.108e-06	52.016	191.209	170.392	190.690	96.216	237.373	251.463	95.997	100.753	232.525	229.874	100.231	104.718	105.271	109.691	228.271	109.295	-8191	255	
923.817	1	1	0	0	0.148	0.2176	0.10146	0.43185	0.31989	0.030794	0.24483	0.32172	0.049109	0.21438	0.058181	0.15592	0.20512	0.12201	0.11464	0.099685	-3.6813	-3.3792	-4.1188	-4.0146	-3.5187	-4.1146	-3.6646	-3.8812	-3.7938	-3.3354	-4.175	-3.6875	-3.6292	-4.2396	-3.4125	-3.8125	357.436	157.091	307.926	425.668	316.603	274.126	369.558	367.858	338.646	421.015	307.357	369.619	101.838	348.049	362.721	394.649	0.00045272	0.00058241	0.00013425	1297	4.4273e-06	5.0533e-06	1301.6	357.42	4.443e-06	5.1678e-06	412.16	137.19	119.57	40.9	4.802e-06	50.966	0.00030629	0.00018645	4.8814e-05	1314.9	2.2879e-06	1.8658e-06	1317.5	364.53	2.26e-06	2.1249e-06	418.11	140.56	122.13	41.9	2.1507e-06	51.994	189.149	171.085	162.206	96.233	241.675	236.025	96.269	100.884	247.165	226.434	100.452	104.712	105.368	109.976	235.746	108.965	-8191	255	
923.937	1	1	0	0	0.19101	0.13	0.036927	0.40241	0.16645	0.28555	0.041904	0.38649	0.14803	0.16945	0.044507	0.10033	0.28683	0.1197	0.23069	0.16561	-3.7271	-3.2062	-3.8812	-3.9833	-3.3979	-4.1167	-3.6854	-3.5917	-4.0708	-3.4021	-4.0042	-4.1917	-3.3646	-4.2667	-3.5438	-3.7604	202.742	424.440	194.261	441.090	376.749	141.855	305.746	323.404	369.442	158.122	372.074	442.672	442.719	436.813	109.102	90.590	0.00047295	0.00051492	0.00013316	1300.6	4.0692e-06	5.1756e-06	1299.8	358.2	4.0203e-06	4.3918e-06	413.15	137.61	119.95	41.026	5.1464e-06	50.977	0.00030804	0.00019215	4.5616e-05	1316.9	2.3928e-06	1.9044e-06	1317.9	364.07	2.1976e-06	1.9386e-06	418.45	140.39	122.25	41.963	2.1896e-06	52.148	187.920	180.599	174.913	96.131	237.569	226.243	96.303	101.312	250.610	239.025	100.289	104.754	105.628	109.901	242.203	109.087	-8191	255	
924.033	1	1	0	0	0.34142	0.15022	0.11222	0.27538	0.053838	0.027374	0.31091	0.09663	0.12256	0.027892	0.018859	0.26283	0.18729	0.10646	0.15972	0.19749	-3.8688	-3.2646	-3.6937	-4.1542	-3.3937	-4.1542	-3.8104	-3.6625	-4.1312	-3.425	-3.8125	-4.0979	-3.4125	-4.1625	-3.7313	-3.4562	417.429	144.027	303.463	95.117	245.055	424.015	405.796	93.542	92.344	168.746	144.546	82.990	421.871	402.226	254.233	394.292	0.00043255	0.000446	0.00012833	1302.8	5.3452e-06	4.2595e-06	1303.2	358.89	4.3309e-06	4.7754e-06	408.99	137.45	119.41	41.034	4.1557e-06	50.534	0.00029639	0.00018472	4.9098e-05	1317.7	2.4528e-06	1.8233e-06	1318.8	364.59	2.2166e-06	1.9536e-06	417.39	140.32	122.01	41.906	2.0766e-06	51.947	191.366	163.417	164.197	96.442	233.357	216.407	96.302	100.963	223.010	239.706	100.222	104.685	105.323	109.912	238.482	108.922	-8191	255	
924.130	1	1	0	0	0.13672	0.24234	0.090638	0.16452	0.08429	0.10395	0.23057	0.18955	0.20753	0.10879	0.041933	0.26488	0.089515	0.13419	0.098687	0.26109	-3.8146	-3.3979	-3.7729	-4.2063	-3.2167	-4.0146	-3.8208	-3.6625	-4.1583	-3.4771	-3.7771	-4.2688	-3.6083	-4.0583	-3.9021	-3.4562	345.879	100.320	428.631	105.984	201.672	294.164	360.870	398.786	99.385	125.853	328.209	83.209	409.270	436.107	116.000	147.049	0.00047112	0.0004939	0.00015225	1298	4.5151e-06	4.9505e-06	1299.5	358.42	4.4976e-06	5.8101e-06	412.86	137.08	119.62	40.996	3.8639e-06	50.871	0.00030358	0.0001838	5.0458e-05	1315.4	2.3119e-06	2.0646e-06	1317.9	365	2.2196e-06	1.9443e-06	419.01	140.63	122.08	41.924	2.0209e-06	52.155	192.728	175.811	164.438	95.994	228.057	239.464	95.994	101.003	245.573	234.715	100.308	104.606	105.047	109.698	249.870	108.896	-8191	255	
924.226	1	1	0	0	0.17636	0.21602	0.073512	0.11077	0.10236	0.32715	0.19874	0.26081	0.15016	0.13067	0.11388	0.04026	0.30684	0.28804	0.092782	0.14093	-3.7396	-3.4958	-3.6437	-4.1396	-3.4458	-3.975	-4.1917	-3.2854	-3.9854	-3.6708	-3.6937	-4.2562	-3.5062	-4.0208	-3.9583	-3.4313	332.970	225.199	374.027	406.398	89.174	277.274	123.314	352.467	266.856	367.904	362.001	403.626	376.663	129.386	199.323	265.940	0.00047273	0.000527	0.00016249	1303.6	5.0421e-06	5.1004e-06	1305.5	358.88	3.8245e-06	4.818e-06	412.71	138.71	119.45	41.1	4.532e-06	51.021	0.00030512	0.00018467	5.0241e-05	1320.3	2.2279e-06	1.9546e-06	1321.6	365.54	2.2098e-06	1.8859e-06	418.87	141.21	122.15	42.087	2.0361e-06	52.174	191.382	161.413	172.436	96.083	238.630	234.627	96.248	100.911	258.015	224.077	100.480	104.567	105.272	109.723	235.000	109.209	-8191	255	
924.345	1	1	0	0	0.10155	0.14748	0.031676	0.11682	0.30856	0.20006	0.29667	0.14907	0.16149	0.20559	0.1745	0.18283	0.067054	0.13425	0.16015	0.21748	-3.7104	-3.6042	-3.5417	-4.2312	-3.4771	-3.9125	-4.2063	-3.5563	-3.9375	-3.8292	-3.4562	-4.4938	-3.6312	-3.8208	-4.0292	-3.3917	298.355	264.474	236.753	88.173	432.869	208.142	397.480	385.933	415.660	238.104	94.436	352.993	117.671	90.085	215.107	377.888	0.00043644	0.00047841	0.00012215	1307.1	5.5621e-06	5.2347e-06	1303.7	357.84	5.1395e-06	4.7176e-06	412.48	137.38	119.75	40.923	3.8996e-06	50.992	0.00029377	0.00017524	5.212e-05	1321.5	2.2571e-06	1.9855e-06	1322.4	364.55	2.2083e-06	1.9609e-06	418.3	140.67	122.37	41.966	2.1083e-06	52.136	191.312	158.501	170.994	96.541	232.019	248.704	96.410	101.275	246.205	242.209	100.642	105.044	105.713	110.254	223.777	109.377	-8191	255	
924.416	1	1	0	0	0.068793	0.24197	0.069319	0.26837	0.13449	0.1408	0.34529	0.28465	0.028189	0.16456	0.16176	0.13282	0.23785	0.12748	0.11135	0.21617	-3.5729	-3.8563	-3.2812	-4.2542	-3.5667	-3.6229	-4.4042	-3.3708	-4.0229	-3.8042	-3.4313	-4.2312	-3.6125	-3.6688	-3.9792	-3.5438	149.302	103.003	334.101	340.072	129.575	259.746	334.100	428.873	198.485	388.940	137.108	436.969	148.894	89.090	127.193	384.974	0.00044942	0.00056589	0.00016263	1307.3	5.2288e-06	4.1846e-06	1305	360.26	4.4615e-06	4.1763e-06	412.33	138.39	119.03	41.019	3.938e-06	51.071	0.00030199	0.00017757	5.1861e-05	1320.5	2.3254e-06	1.8658e-06	1320.4	365.76	2.1973e-06	1.9113e-06	418.91	141.14	122.05	42.05	2.0826e-06	52.146	191.802	166.835	158.530	97.018	231.594	242.725	96.870	101.514	249.483	234.374	100.864	105.613	105.760	110.461	244.324	109.268	-8191	255	
924.512	1	1	0	0	0.13469	0.28635	0.2569	0.075204	0.217	0.19618	0.12606	0.21128	0.19178	0.22196	0.075277	0.068479	0.041687	0.074905	0.067452	0.17436	-3.6521	-3.7938	-3.4021	-4.3187	-3.5396	-3.4562	-4.2937	-3.5521	-3.6708	-3.9208	-3.5563	-4.3375	-3.9229	-3.5458	-4.1521	-3.4229	379.387	333.001	135.923	273.358	226.393	360.426	371.853	360.032	282.379	235.330	176.346	295.648	392.585	404.099	381.498	367.306	0.00045012	0.00045414	0.00014028	1303.1	4.5142e-06	6.9361e-06	1305.1	358.59	3.5032e-06	3.5395e-06	413.19	138.17	119.99	41.131	4.6972e-06	51.12	0.00029779	0.00019251	5.2103e-05	1320.7	2.2396e-06	2.0071e-06	1322.2	365.82	2.2533e-06	1.9493e-06	419.29	141.15	122.48	42.027	2.0507e-06	52.205	189.978	156.964	168.361	96.471	234.396	245.743	96.816	101.448	246.628	238.022	101.034	105.601	105.941	110.623	232.116	109.925	-8191	255	
924.633	1	1	0	0	0.15624	0.096001	0.26639	0.19309	0.20851	0.21761	0.25825	0.23405	0.029063	0.1489	0.15182	0.032759	0.35679	0.36031	0.15841	0.14259	-3.325	-3.9458	-3.3083	-4.2833	-3.8292	-3.2479	-4.0479	-3.4417	-3.6896	-3.9875	-3.5729	-4.0521	-3.9542	-3.325	-4.1583	-3.5646	196.952	314.684	408.471	427.045	249.591	362.286	429.670	387.161	158.126	101.346	185.031	83.840	416.269	390.671	141.185	269.244	0.00046563	0.00044244	0.00017077	1307.4	4.4439e-06	4.4581e-06	1302.1	358.83	4.9589e-06	4.467e-06	413.74	139.29	119.65	41.173	3.2005e-06	50.978	0.00031046	0.00017366	5.1252e-05	1320.8	2.2516e-06	1.9676e-06	1323.7	365.68	2.3248e-06	1.9156e-06	419.16	141.33	122.28	42.036	2.0991e-06	52.169	190.666	147.837	174.334	96.801	242.686	231.813	96.950	101.545	257.164	237.273	101.034	105.540	106.120	110.697	242.001	109.744	-8191	255	
924.729	1	1	0	0	0.0817	0.10706	0.11197	0.18866	0.11603	0.11985	0.3481	0.22847	0.12399	0.18577	0.21024	0.17349	0.24071	0.30723	0.049363	0.19219	-3.3604	-4.0437	-3.175	-4.0771	-3.7938	-3.2729	-4.2937	-3.725	-3.5271	-4.2438	-3.4833	-3.9729	-4.1	-3.4792	-4.175	-3.6458	139.244	165.700	371.641	324.429	118.408	98.639	415.076	357.284	130.099	103.853	385.332	135.939	415.515	401.770	161.348	392.696	0.00044712	0.00043038	0.00016805	1310.6	4.8522e-06	5.3e-06	1312.2	360.12	3.8905e-06	3.9517e-06	413.33	138.62	119.82	41.158	4.765e-06	51.146	0.00030616	0.00017846	5.4123e-05	1323.2	2.3144e-06	1.9835e-06	1327	366.37	2.3692e-06	1.8336e-06	419.71	141.58	122.43	42.093	2.1121e-06	52.264	192.362	168.995	180.208	97.023	239.322	225.281	96.969	101.604	241.428	232.499	101.177	106.009	106.147	110.769	240.783	109.845	-8191	255	
924.825	1	1	0	0	0.079469	0.15071	0.2731	0.27631	0.071214	0.18435	0.16941	0.26186	0.027721	0.50155	0.11111	0.28918	0.022658	0.28643	0.13704	0.313	-3.2229	-4.2104	-3.5396	-4.0958	-4.1208	-3.3833	-4.3146	-3.9854	-3.3771	-4.1479	-3.7438	-3.7562	-4.1292	-3.7521	-4.0229	-3.8875	340.380	291.679	230.197	393.257	329.434	417.005	346.661	89.766	385.311	141.439	102.424	370.473	274.811	421.220	338.931	410.780	0.00046141	0.00042902	0.00016312	1309.8	5.4397e-06	5.5449e-06	1313.8	360.92	5.4961e-06	3.786e-06	413.94	137.81	120.3	41.14	5.2005e-06	50.968	0.00030942	0.00017682	5.1277e-05	1325.2	2.263e-06	2.0719e-06	1329	366.74	2.3098e-06	1.9403e-06	419.8	141.08	122.7	42.131	2.1171e-06	52.252	191.723	178.616	162.158	96.756	233.567	228.102	97.110	101.215	245.593	232.925	100.627	105.507	105.877	110.420	247.379	109.281	-8191	255	
924.946	1	1	0	0	0.2187	0.13701	0.12783	0.0451	0.24896	0.22229	0.21713	0.06273	0.11145	0.31138	0.22342	0.30821	0.14589	0.30382	0.14559	0.15992	-3.1583	-4.3729	-3.6521	-3.7875	-4.1792	-3.4688	-4.125	-4.0875	-3.4208	-4.1312	-3.6063	-3.7083	-4.2375	-3.3229	-4.0312	-3.9708	391.841	322.908	358.870	87.589	364.938	305.871	362.318	96.030	112.328	283.834	374.132	99.894	335.858	419.867	279.650	393.433	0.00047246	0.00050618	0.00018039	1310.9	4.3108e-06	5.017e-06	1313.4	359.68	4.9089e-06	4.5791e-06	414.47	137.89	120.29	40.965	4.3862e-06	51.054	0.00031507	0.00017867	5.3222e-05	1325.7	2.271e-06	2.1301e-06	1329.8	367.07	2.3998e-06	1.8943e-06	419.73	141.05	122.74	42.018	2.108e-06	52.247	191.930	167.059	171.425	96.775	242.789	246.800	96.991	101.563	247.100	216.359	100.947	105.474	105.691	110.528	229.838	109.623	-8191	255	
925.040	1	1	0	0	0.13783	0.064058	0.098081	0.060344	0.23407	0.24457	0.16985	0.11126	0.12787	0.078756	0.016766	0.15991	0.2095	0.11455	0.25889	0.24237	-3.0271	-4.0833	-3.8146	-3.8125	-4.1229	-3.4521	-4.1562	-4.0792	-3.2979	-4.3	-3.8083	-3.5625	-4.2167	-3.3333	-3.8333	-4.0062	178.779	247.819	216.805	428.866	117.956	406.964	361.877	421.608	391.341	199.216	245.925	425.839	109.862	428.919	239.475	423.612	0.00045745	0.00057237	0.00013676	1312.1	4.0159e-06	4.1145e-06	1316.6	361.11	4.9492e-06	4.704e-06	411.75	138.28	119.73	41.133	6.0859e-06	50.941	0.0003087	0.00018711	5.1185e-05	1324.9	2.2381e-06	1.939e-06	1329	366.02	2.3576e-06	2.0409e-06	419.22	141.11	122.55	42.021	2.3108e-06	52.133	191.206	166.600	168.224	96.940	241.316	245.366	96.910	101.213	238.654	232.116	100.319	105.193	105.586	109.771	223.228	109.205	-8191	255	
925.114	1	1	0	0	0.030862	0.094875	0.1672	0.37752	0.2209	0.11522	0.088481	0.08025	0.20585	0.14493	0.10153	0.071653	0.17715	0.054265	0.13078	0.3833	-3.0042	-3.9875	-3.7104	-3.4604	-4.2417	-3.5354	-3.9688	-4.1625	-3.2708	-4.0792	-4.0875	-3.5938	-4.2583	-3.5354	-3.5958	-4.1667	133.161	225.478	246.041	88.844	417.403	187.412	105.311	420.240	200.658	405.436	195.440	343.038	117.035	310.741	135.006	338.177	0.00045838	0.00040561	0.00014162	1305.4	5.4336e-06	5.1191e-06	1315.3	360.75	4.8376e-06	4.9022e-06	414.24	138.55	119.91	40.961	3.8461e-06	51.081	0.00032107	0.00017316	5.3113e-05	1323.4	2.2827e-06	2.0297e-06	1329.7	366.8	2.4068e-06	2.0053e-06	419.75	141.15	122.61	42.054	2.1937e-06	52.264	191.821	182.157	175.607	96.497	246.298	226.122	96.706	101.018	233.707	233.541	100.300	105.026	105.633	110.260	222.746	109.432	-8191	255	
925.234	1	1	0	0	0.087365	0.01045	0.20581	0.032419	0.20311	0.16078	0.20326	0.23721	0.085175	0.37569	0.081381	0.015388	0.15447	0.23536	0.17171	0.18284	-3.0458	-3.875	-3.7958	-3.6792	-4.0938	-3.6437	-3.75	-4.1646	-3.2583	-3.8875	-4.0979	-3.4854	-4.0729	-3.6333	-3.5917	-4.2521	143.137	430.456	193.595	309.471	320.116	97.339	372.857	439.171	347.812	208.093	381.730	441.128	143.584	436.133	284.560	228.767	0.0004647	0.00037681	0.00015122	1303.6	4.5916e-06	4.6845e-06	1312.2	359.97	5.1602e-06	4.9887e-06	412.53	137.45	119.69	40.947	4.5456e-06	50.871	0.00030534	0.00016701	4.8488e-05	1322.8	2.2818e-06	2.048e-06	1327.5	366.34	2.3453e-06	1.9883e-06	418.48	140.87	122.35	41.94	2.3269e-06	52.163	192.983	162.336	173.002	96.459	238.470	242.163	96.207	101.100	250.141	228.510	100.834	104.979	105.819	110.166	237.719	109.558	-8191	255	
925.329	1	1	0	0	0.18079	0.06418	0.18356	0.15697	0.08521	0.073489	0.35681	0.1772	0.040805	0.20946	0.27688	0.11055	0.16669	0.17611	0.074681	0.28898	-2.9583	-3.8063	-3.8896	-3.5375	-4.0875	-3.6354	-3.6542	-4.2917	-3.3208	-3.8521	-4.0542	-3.4583	-4.1	-3.65	-3.4146	-4.2292	429.139	97.348	397.524	438.241	142.363	196.673	396.017	408.471	251.738	442.946	387.287	89.413	432.736	232.676	144.139	374.880	0.00045553	0.00042725	0.00014395	1305.4	3.6838e-06	5.1736e-06	1310.3	360.18	5.0109e-06	3.504e-06	410.58	138.05	119.47	40.951	5.1951e-06	51.167	0.00031026	0.00018437	4.9014e-05	1322.5	2.2504e-06	2.042e-06	1326.8	365.55	2.3365e-06	1.9436e-06	418.86	140.91	122.41	41.978	2.2526e-06	52.272	191.964	169.108	168.372	96.681	239.851	219.718	97.035	101.502	249.540	237.490	100.856	105.417	105.868	110.202	237.514	109.363	-8191	255	
925.425	1	1	0	0	0.072578	0.1949	0.10262	0.05091	0.13	0.20159	0.067151	0.16444	0.22973	0.069568	0.30653	0.35004	0.10897	0.24513	0.11102	0.11153	-3.0604	-3.6083	-4.0813	-3.4188	-4.0271	-3.9021	-3.5604	-4.2	-3.4021	-3.7521	-4.1104	-3.2812	-4.1625	-4.1	-3.5187	-4.1687	376.784	373.802	156.218	239.989	302.042	120.659	250.408	351.890	124.451	258.823	114.237	406.926	415.773	418.550	196.025	162.263	0.00046376	0.00049548	0.00013613	1304.5	4.876e-06	4.4573e-06	1312.3	359.93	4.714e-06	5.0862e-06	412.24	138.2	119.33	40.955	4.4171e-06	51.17	0.00031043	0.00019233	4.9181e-05	1322.5	2.2984e-06	1.9662e-06	1326.8	366.08	2.4337e-06	2.1169e-06	419.23	140.94	122.44	41.956	2.3193e-06	52.217	189.720	174.423	172.486	96.367	236.494	230.192	96.629	101.352	253.847	225.581	100.145	104.758	105.158	109.875	247.286	108.893	-8191	255	
925.521	1	1	0	0	0.075203	0.068647	0.22513	0.12274	0.26896	0.24163	0.1029	0.20372	0.22613	0.28739	0.095166	0.18721	0.05265	0.083633	0.27099	0.20954	-2.9979	-3.4896	-4.2229	-3.6063	-3.9521	-3.9354	-3.4646	-4.1854	-3.5375	-3.45	-4.2063	-3.2896	-3.9437	-4.1229	-3.2021	-4.0896	379.504	296.390	258.039	372.016	221.012	137.677	313.241	414.259	142.060	270.539	380.628	366.627	409.801	148.183	154.176	300.123	0.00047334	0.0004644	0.00014731	1309.7	5.1284e-06	4.8525e-06	1309.7	359.5	4.2697e-06	5.1126e-06	412.76	137.91	119.67	41.173	5.1781e-06	51.018	0.00030764	0.00019039	5.05e-05	1324.7	2.2615e-06	2.0078e-06	1328.2	366.27	2.2851e-06	1.9839e-06	419.58	141.09	122.52	42.079	2.1491e-06	52.313	189.876	175.785	166.187	95.886	238.623	231.689	96.133	100.730	251.432	236.288	100.345	104.675	105.274	109.739	233.855	108.868	-8191	255	
925.642	1	1	0	0	0.18813	0.23727	0.17699	0.2329	0.061703	0.21111	0.3226	0.17222	0.12522	0.1091	0.05942	0.18112	0.22613	0.29707	0.25642	0.11005	-3.3375	-3.4583	-4.1604	-3.5208	-3.6708	-4.1854	-3.6	-4.1625	-3.7104	-3.4188	-4.2312	-3.5438	-3.7	-4.1188	-3.3771	-4.0646	301.882	226.106	115.037	364.238	128.038	233.325	288.491	326.408	166.596	380.043	403.004	377.165	414.182	111.252	241.373	415.885	0.00044595	0.00066013	0.0001431	1311.2	4.8906e-06	5.1347e-06	1313.1	359.79	4.3238e-06	5.6902e-06	412.86	138.23	120.02	40.928	5.2672e-06	51.16	0.00030157	0.00020223	4.964e-05	1325.8	2.3482e-06	1.8578e-06	1328.5	366.43	2.3254e-06	2.1613e-06	419.81	141.08	122.85	42.038	2.2003e-06	52.424	194.725	161.021	176.393	96.083	237.021	225.505	96.129	100.933	242.262	226.802	99.944	104.658	105.317	109.559	229.882	109.130	-8191	255	
925.713	1	1	0	0	0.086278	0.16459	0.16174	0.28222	0.092206	0.17851	0.33322	0.27647	0.041751	0.087634	0.15251	0.3389	0.21417	0.31122	0.23482	0.11289	-3.6271	-3.5042	-4.0188	-3.6625	-3.5104	-3.9646	-3.6354	-4.0146	-3.9813	-3.2792	-4.1104	-3.7333	-3.6271	-4.1646	-3.525	-4.0021	235.207	339.994	185.424	203.708	140.705	255.331	293.463	102.788	318.807	321.905	377.473	357.025	149.299	391.283	210.015	137.898	0.00047226	0.00051106	0.00014482	1313.3	4.5604e-06	5.5209e-06	1313.3	360.52	5.0794e-06	4.0516e-06	412.09	138.23	120.15	41.068	5.0871e-06	50.715	0.00030705	0.00019179	5.1986e-05	1329	2.3359e-06	2.1132e-06	1330.1	367.06	2.3903e-06	2.0376e-06	419.77	141.23	122.69	42.071	2.2336e-06	52.173	192.763	168.952	162.614	96.063	241.847	227.231	96.145	100.715	233.466	242.501	100.258	104.590	105.233	109.488	229.784	108.703	-8191	255	
925.810	1	1	0	0	0.19851	0.30286	0.15812	0.32258	0.35844	0.077155	0.15171	0.33964	0.096397	0.086565	0.048795	0.10933	0.1825	0.22717	0.12949	0.10523	-3.4271	-3.2396	-4.1042	-3.7604	-3.6083	-4.1687	-3.6437	-4.0854	-3.7938	-3.3667	-4.0708	-3.6813	-3.6083	-4.2125	-3.4896	-3.8083	214.721	206.970	237.797	84.886	311.547	148.866	344.555	364.808	136.163	261.351	227.532	128.893	274.794	441.378	158.069	367.445	0.00045263	0.00045977	0.00016229	1304	4.2184e-06	4.4402e-06	1308.6	360.71	3.8324e-06	3.7653e-06	412.72	138.15	120.04	41.229	4.2372e-06	51.074	0.00030312	0.00018696	5.1552e-05	1325.9	2.319e-06	1.9217e-06	1329.8	366.83	2.282e-06	2.0563e-06	420.33	141.14	122.72	42.11	2.1918e-06	52.287	193.115	174.270	160.303	95.936	241.734	233.894	96.077	100.922	232.707	220.084	100.346	104.602	105.390	109.708	233.513	109.025	-8191	255	
925.906	1	1	0	0	0.058862	0.19591	0.12902	0.1775	0.17086	0.083824	0.32977	0.1714	0.35398	0.11368	0.15778	0.12763	0.27462	0.082918	0.034604	0.19371	-3.4646	-3.2271	-3.975	-3.9375	-3.4333	-4.2208	-3.6437	-3.9104	-4.1375	-3.3667	-4.0687	-3.9083	-3.6063	-4.325	-3.5396	-3.6604	232.873	196.920	260.192	104.250	213.543	109.664	333.724	368.906	261.811	260.748	352.657	358.277	385.884	192.783	165.933	427.020	0.00045874	0.00028189	0.00016249	1315.1	5.2753e-06	3.7256e-06	1314	360.81	5.4495e-06	5.2419e-06	413.64	137.86	119.93	40.991	4.0216e-06	50.958	0.00030891	0.00018022	5.202e-05	1330.3	2.3811e-06	2.0613e-06	1332.2	367.16	2.375e-06	2.0306e-06	419.98	141.02	122.59	42.066	2.1301e-06	52.183	191.320	151.398	168.490	95.959	238.495	237.039	95.935	101.075	244.246	228.662	99.803	104.654	105.165	109.880	230.649	108.895	-8191	255	
926.026	1	1	0	0	0.070891	0.21267	0.17947	0.36801	0.20582	0.021657	0.19372	0.23048	0.14567	0.10529	0.070571	0.26662	0.156	0.044181	0.099972	0.13389	-3.8958	-3.3917	-3.8833	-4.1875	-3.2083	-3.9208	-3.65	-3.825	-4.0604	-3.4021	-4.1167	-3.9125	-3.3417	-4.1917	-3.6937	-3.6375	249.636	306.446	236.708	416.671	315.084	292.906	417.482	316.692	402.207	267.488	394.059	434.898	311.910	154.111	326.812	322.716	0.00046798	0.00050784	0.00015959	1314.8	5.2947e-06	3.8518e-06	1314.1	359.96	5.1198e-06	5.3264e-06	413.4	137.65	119.7	41.143	5.2953e-06	51.136	0.00030432	0.00019999	5.2946e-05	1330	2.3691e-06	1.9323e-06	1330.6	366.82	2.2169e-06	2.0866e-06	420.8	141.11	122.51	42.097	2.1719e-06	52.285	192.395	162.651	167.526	96.095	234.784	222.122	95.952	100.843	244.261	235.557	100.293	104.651	105.180	109.436	237.155	108.807	-8191	255	
926.121	1	1	0	0	0.062383	0.20874	0.22111	0.20191	0.090939	0.23154	0.37064	0.1236	0.15592	0.1418	0.12627	0.18321	0.25678	0.061533	0.22399	0.14558	-3.7062	-3.5229	-3.8354	-4.2396	-3.2708	-4.0667	-3.8292	-3.4313	-4.0563	-3.5521	-3.8375	-4.1604	-3.55	-4.0375	-3.9583	-3.5417	197.953	216.787	367.209	376.667	352.782	166.161	357.899	357.079	345.232	237.901	333.107	401.454	344.489	341.215	105.573	110.874	0.00045694	0.00060422	0.00016763	1311.7	4.4731e-06	5.5576e-06	1316	360.84	4.7586e-06	3.7149e-06	415.24	138.38	119.89	40.937	3.9609e-06	51.227	0.00029741	0.00019701	5.3264e-05	1328.5	2.3885e-06	2.0297e-06	1330.7	367.1	2.1848e-06	2.1016e-06	420.75	141.22	122.8	42.077	2.2032e-06	52.299	192.204	159.545	167.469	96.058	226.944	246.386	96.017	100.611	234.183	220.847	100.118	104.564	104.891	109.504	240.143	108.737	-8191	255	
926.217	1	1	0	0	0.067523	0.12176	0.16616	0.18022	0.12323	0.1108	0.1841	0.1414	0.29518	0.13755	0.30906	0.22131	0.086456	0.070843	0.15384	0.34185	-3.8583	-3.4562	-3.5333	-4.3688	-3.325	-4.0542	-4.0667	-3.4208	-4.0625	-3.4958	-3.75	-4.125	-3.6125	-3.9125	-3.9021	-3.3563	400.136	386.499	286.862	392.512	320.625	395.566	389.667	437.618	430.977	141.050	403.565	376.868	413.280	97.382	153.905	396.550	0.00045874	0.00031648	0.00014056	1311.6	4.2688e-06	3.7691e-06	1317.5	360.6	3.3475e-06	4.5601e-06	411.62	138.07	119.71	41.093	5.1324e-06	51.261	0.00029622	0.00018467	5.4908e-05	1328.1	2.3088e-06	1.9559e-06	1331.9	366.86	2.2774e-06	1.9776e-06	420.19	141.27	122.61	42.21	2.0554e-06	52.261	192.208	188.907	179.134	95.717	241.627	226.030	95.835	100.742	241.072	243.417	99.780	104.643	105.045	109.612	231.838	108.838	-8191	255	
926.315	1	1	0	0	0.10778	0.19034	0.21556	0.091994	0.11339	0.16443	0.32799	0.27014	0.29058	0.13202	0.19486	0.17857	0.12513	0.033872	0.035566	0.12145	-3.5438	-3.5021	-3.4854	-4.2979	-3.3354	-3.7854	-4	-3.3292	-4.1438	-3.6375	-3.5479	-4.2667	-3.3167	-3.9708	-4.1188	-3.3937	220.202	204.143	154.701	255.076	378.899	140.763	149.423	419.812	194.263	439.394	355.754	102.447	332.433	90.301	234.859	390.166	0.00046909	0.00051497	0.00011735	1311.4	5.3322e-06	4.3103e-06	1313.2	360.97	4.216e-06	4.6088e-06	412.94	138.09	120.24	41.102	4.3662e-06	51.125	0.00030206	0.00018413	5.2896e-05	1329.5	2.3322e-06	1.9769e-06	1329.5	367.12	2.2768e-06	1.9523e-06	420.08	141.22	122.85	42.113	2.2329e-06	52.312	191.743	154.316	149.981	95.919	234.159	244.735	95.804	100.441	244.779	224.611	99.807	104.651	104.680	109.407	250.164	108.608	-8191	255	
926.409	1	1	0	0	0.25543	0.19448	0.16071	0.29465	0.028154	0.0018567	0.27737	0.16641	0.064895	0.28495	0.23949	0.1152	0.026898	0.049145	0.22562	0.37578	-3.6354	-3.7104	-3.175	-4.3625	-3.3625	-3.8187	-4.1708	-3.5146	-4.0312	-3.8167	-3.3438	-4.2458	-3.8208	-3.5125	-4.1292	-3.3646	320.573	408.871	232.260	83.442	371.221	180.000	371.543	140.537	403.367	124.350	381.680	295.712	325.302	230.414	165.457	392.569	0.00045348	0.0004876	0.00013915	1311.2	5.2378e-06	4.9673e-06	1313.8	359.75	5.0594e-06	5.1518e-06	413.47	138.5	120.08	41.208	3.7804e-06	51.223	0.00029973	0.00018583	5.3489e-05	1329	2.3506e-06	1.937e-06	1330	366.68	2.338e-06	1.8919e-06	420.16	141.4	122.81	42.137	2.1681e-06	52.306	190.561	171.899	148.251	95.892	240.862	241.273	96.025	100.667	250.152	238.198	100.174	104.441	105.078	109.604	230.810	108.613	-8191	255	
#DATA ENDS
