BOXY.EXE: ISS Imagent and Oximeter Data Acquisition Program Version 0.80
Ascii Record File

#ACQ INFORMATION
2  Detector Channels 
16  External MUX Channels 
1  Auxiliary Channels 
5000  Waveform (CCF) Frequency (Hz)
1  Waveforms Skipped 
30  Waveforms Averaged 
1  Cycles Averaged 
16  Acquisitions per Waveform 
10.0806  Updata Rate (Hz) 

#FILE INFORMATION
TRUE -- External MUX Channel results are PARSED.
FALSE -- AC DC and Phase are NOT grouped.
TRUE -- Companion Program Settings File CREATED.
FALSE -- AC data not excluded
FALSE -- DC data not excluded
FALSE -- Phase data not excluded
FALSE -- Auxillary Chn. data not excluded
Tab delimiters

#CALIBRATION STATE
TRUE -- Waveform Calibration Values APPLIED.


#AUX CALIBRATION VALUES
Val Type	aux-1	

Term	1.0000e+00	
Factor	0.0000e+00	


#WF CALIBRATION VALUES
A = Detector Channel
Val Type	A-AC1	A-AC2	A-AC3	A-AC4	A-AC5	A-AC6	A-AC7	A-AC8	A-AC9	A-AC10	A-AC11	A-AC12	A-AC13	A-AC14	A-AC15	A-AC16	A-DC1	A-DC2	A-DC3	A-DC4	A-DC5	A-DC6	A-DC7	A-DC8	A-DC9	A-DC10	A-DC11	A-DC12	A-DC13	A-DC14	A-DC15	A-DC16	A-Ph1	A-Ph2	A-Ph3	A-Ph4	A-Ph5	A-Ph6	A-Ph7	A-Ph8	A-Ph9	A-Ph10	A-Ph11	A-Ph12	A-Ph13	A-Ph14	A-Ph15	A-Ph16	

Term	0.00000e+00	0.00000e+00	0.00000e+00	0.00000e+00	0.00000e+00	0.00000e+00	0.00000e+00	0.00000e+00	0.00000e+00	0.00000e+00	0.00000e+00	0.00000e+00	0.00000e+00	0.00000e+00	0.00000e+00	0.00000e+00	0.00000e+00	0.00000e+00	0.00000e+00	0.00000e+00	0.00000e+00	0.00000e+00	0.00000e+00	0.00000e+00	0.00000e+00	0.00000e+00	0.00000e+00	0.00000e+00	0.00000e+00	0.00000e+00	0.00000e+00	0.00000e+00	0.00000e+00	0.00000e+00	0.00000e+00	0.00000e+00	0.00000e+00	0.00000e+00	0.00000e+00	0.00000e+00	0.00000e+00	0.00000e+00	0.00000e+00	0.00000e+00	0.00000e+00	0.00000e+00	0.00000e+00	0.00000e+00	
Factor	1.00000e+00	1.00000e+00	1.00000e+00	1.00000e+00	1.00000e+00	1.00000e+00	1.00000e+00	1.00000e+00	1.00000e+00	1.00000e+00	1.00000e+00	1.00000e+00	1.00000e+00	1.00000e+00	1.00000e+00	1.00000e+00	1.00000e+00	1.00000e+00	1.00000e+00	1.00000e+00	1.00000e+00	1.00000e+00	1.00000e+00	1.00000e+00	1.00000e+00	1.00000e+00	1.00000e+00	1.00000e+00	1.00000e+00	1.00000e+00	1.00000e+00	1.00000e+00	X	X	X	X	X	X	X	X	X	X	X	X	X	X	X	X	

B = Detector Channel
Val Type	B-AC1	B-AC2	B-AC3	B-AC4	B-AC5	B-AC6	B-AC7	B-AC8	B-AC9	B-AC10	B-AC11	B-AC12	B-AC13	B-AC14	B-AC15	B-AC16	B-DC1	B-DC2	B-DC3	B-DC4	B-DC5	B-DC6	B-DC7	B-DC8	B-DC9	B-DC10	B-DC11	B-DC12	B-DC13	B-DC14	B-DC15	B-DC16	B-Ph1	B-Ph2	B-Ph3	B-Ph4	B-Ph5	B-Ph6	B-Ph7	B-Ph8	B-Ph9	B-Ph10	B-Ph11	B-Ph12	B-Ph13	B-Ph14	B-Ph15	B-Ph16	

Term	0.00000e+00	0.00000e+00	0.00000e+00	0.00000e+00	0.00000e+00	0.00000e+00	0.00000e+00	0.00000e+00	0.00000e+00	0.00000e+00	0.00000e+00	0.00000e+00	0.00000e+00	0.00000e+00	0.00000e+00	0.00000e+00	0.00000e+00	0.00000e+00	0.00000e+00	0.00000e+00	0.00000e+00	0.00000e+00	0.00000e+00	0.00000e+00	0.00000e+00	0.00000e+00	0.00000e+00	0.00000e+00	0.00000e+00	0.00000e+00	0.00000e+00	0.00000e+00	-1.07286e+02	-1.33750e+02	-1.30724e+02	-1.82363e+02	-6.19824e+01	-6.62161e+01	-1.57848e+02	-1.62015e+02	-5.98885e+01	-6.91183e+01	-1.70843e+02	-1.70945e+02	-1.83296e+02	-1.76809e+02	-6.51458e+01	-1.49940e+02	
Factor	1.60289e-05	1.47158e-04	4.35422e-05	1.53391e-01	1.14493e-06	1.53336e-06	1.58280e-01	4.76737e-02	1.01461e-06	1.45935e-06	8.23878e-02	2.72771e-02	2.23222e-02	8.72536e-03	1.20848e-06	1.24093e-02	9.10509e-06	1.43128e-05	4.00729e-06	8.10904e-02	1.47627e-07	1.59585e-07	7.86080e-02	2.53910e-02	1.46793e-07	1.59995e-07	4.23457e-02	1.41041e-02	1.20320e-02	4.67646e-03	1.51879e-07	6.42207e-03	X	X	X	X	X	X	X	X	X	X	X	X	X	X	X	X	



#DISTANCE SETTINGS
A = Detector Channel
A-1	A-2	A-3	A-4	A-5	A-6	A-7	A-8	A-9	A-10	A-11	A-12	A-13	A-14	A-15	A-16	

2.5000e+00	3.0000e+00	2.5000e+00	3.0000e+00	2.0000e+00	3.0000e+00	1.5000e+00	3.0000e+00	3.0000e+00	3.0000e+00	3.0000e+00	3.0000e+00	3.0000e+00	3.0000e+00	1.5000e+00	3.0000e+00	

B = Detector Channel
B-1	B-2	B-3	B-4	B-5	B-6	B-7	B-8	B-9	B-10	B-11	B-12	B-13	B-14	B-15	B-16	

1.0000e+01	1.0000e+01	1.0000e+01	1.4400e+00	1.0000e+01	1.0000e+01	1.5100e+00	1.9400e+00	1.0000e+01	1.0000e+01	1.9900e+00	2.4900e+00	2.4100e+00	2.9000e+00	1.0000e+01	2.9800e+00	




#DATA BEGINS
time	group	step	mark	flag	A-AC1	A-AC2	A-AC3	A-AC4	A-AC5	A-AC6	A-AC7	A-AC8	A-AC9	A-AC10	A-AC11	A-AC12	A-AC13	A-AC14	A-AC15	A-AC16	A-DC1	A-DC2	A-DC3	A-DC4	A-DC5	A-DC6	A-DC7	A-DC8	A-DC9	A-DC10	A-DC11	A-DC12	A-DC13	A-DC14	A-DC15	A-DC16	A-Ph1	A-Ph2	A-Ph3	A-Ph4	A-Ph5	A-Ph6	A-Ph7	A-Ph8	A-Ph9	A-Ph10	A-Ph11	A-Ph12	A-Ph13	A-Ph14	A-Ph15	A-Ph16	B-AC1	B-AC2	B-AC3	B-AC4	B-AC5	B-AC6	B-AC7	B-AC8	B-AC9	B-AC10	B-AC11	B-AC12	B-AC13	B-AC14	B-AC15	B-AC16	B-DC1	B-DC2	B-DC3	B-DC4	B-DC5	B-DC6	B-DC7	B-DC8	B-DC9	B-DC10	B-DC11	B-DC12	B-DC13	B-DC14	B-DC15	B-DC16	B-Ph1	B-Ph2	B-Ph3	B-Ph4	B-Ph5	B-Ph6	B-Ph7	B-Ph8	B-Ph9	B-Ph10	B-Ph11	B-Ph12	B-Ph13	B-Ph14	B-Ph15	B-Ph16	aux-1	digaux	

900.024	1	1	0	768	0.15597	0.10661	0.11228	0.20487	0.12372	0.06764	0.090064	0.11923	0.20877	0.10422	0.063077	0.086087	0.35952	0.036602	0.12974	0.22609	-3.5542	-3.75	-3.4271	-4.1729	-3.4396	-3.7167	-4.1604	-3.3167	-4.0687	-3.9042	-3.5938	-4.1208	-3.5438	-3.7042	-4.0667	-3.4917	203.425	208.199	250.304	379.920	91.985	256.775	124.986	403.696	370.378	111.727	111.843	272.551	104.920	410.850	382.585	166.725	0.00023168	0.00024304	8.5343e-05	974.68	1.8506e-06	2.6789e-06	1066.3	206.74	2.9863e-06	3.8548e-06	264.65	74.947	58.402	17.224	2.3708e-06	24.261	0.00017019	0.00011256	3.8286e-05	965.9	1.5445e-06	1.2657e-06	1056.2	206.26	1.4951e-06	1.2306e-06	264.5	75.291	58.605	17.45	1.365e-06	24.606	197.492	181.810	177.362	98.580	243.167	225.501	98.720	106.371	218.923	225.204	105.924	112.873	113.526	120.408	245.671	119.503	-8191	255	
900.120	1	1	0	0	0.05183	0.13324	0.13339	0.2221	0.057037	0.20914	0.070113	0.12659	0.25567	0.10523	0.3158	0.24047	0.10906	0.15268	0.067576	0.24773	-3.6479	-3.8375	-3.2958	-4.35	-3.5979	-3.5563	-4.2646	-3.5625	-3.8917	-3.7917	-3.5375	-4.225	-3.575	-3.5	-4.175	-3.4313	204.931	292.320	425.807	410.700	186.687	366.875	278.755	119.149	400.589	321.159	326.406	439.723	343.650	439.464	117.484	99.735	0.00022074	0.00018453	7.1853e-05	976.7	2.9608e-06	2.7095e-06	1062.5	207.07	2.5918e-06	1.8761e-06	263.39	74.736	57.782	17.118	2.1323e-06	24.304	0.00016814	0.00011901	3.7435e-05	965.8	1.5375e-06	1.4014e-06	1054.1	206.52	1.3783e-06	1.2976e-06	264.12	75.401	58.51	17.417	1.3144e-06	24.576	194.441	166.160	159.875	98.469	245.087	235.865	98.702	106.184	234.731	222.099	105.914	112.914	113.208	120.345	260.283	119.609	-8191	255	
900.216	1	1	0	0	0.091213	0.16743	0.1802	0.22496	0.044097	0.19622	0.29076	0.16479	0.065408	0.36	0.18325	0.076845	0.048388	0.11302	0.13311	0.12348	-3.3312	-3.9396	-3.2812	-4.2521	-3.7958	-3.4708	-4.3438	-3.4604	-3.6937	-4.0396	-3.375	-3.9292	-3.8521	-3.4229	-4.0208	-3.6063	421.490	350.405	263.272	336.468	180.319	298.907	330.646	425.334	314.785	173.429	413.004	168.115	140.674	441.009	433.522	355.101	0.00022183	0.00029339	7.3126e-05	973.72	2.3785e-06	1.9759e-06	1060.1	206.93	1.7841e-06	2.8239e-06	265.06	74.851	58.657	17.088	2.7381e-06	24.127	0.00016531	0.00010961	3.7785e-05	964.94	1.5116e-06	1.412e-06	1053.7	206.19	1.5563e-06	1.2573e-06	264.76	75.473	58.862	17.391	1.3552e-06	24.432	193.294	188.027	160.044	98.502	255.084	226.303	98.638	106.252	245.584	235.110	105.919	112.670	113.351	120.343	247.974	119.499	-8191	255	
900.312	1	1	0	0	0.17203	0.082051	0.12795	0.43629	0.29838	0.10968	0.099958	0.071754	0.15171	0.074018	0.10312	0.10099	0.18167	0.18997	0.19823	0.14864	-3.3812	-3.9708	-3.4146	-4.0958	-3.9896	-3.45	-4.3354	-3.7958	-3.4792	-4.1083	-3.4479	-3.9875	-4.0042	-3.4958	-4.0083	-3.6229	417.999	387.740	343.203	370.875	204.939	289.777	418.638	429.332	385.130	252.111	374.653	323.437	386.251	418.920	257.744	373.299	0.00021335	0.00027974	6.1351e-05	976.74	3.3131e-06	1.3954e-06	1069.7	205.75	2.2348e-06	2.002e-06	265.8	75.784	57.763	17.105	1.5442e-06	23.921	0.00017121	0.00011349	3.4104e-05	966.3	1.5805e-06	1.4017e-06	1055.3	206.24	1.5536e-06	1.1873e-06	264.83	75.6	58.517	17.404	1.4558e-06	24.473	196.122	162.975	154.092	98.742	237.982	220.601	98.726	106.480	238.003	231.249	105.348	112.837	112.779	120.069	251.366	119.620	-8191	255	
900.408	1	1	0	0	0.17598	0.065591	0.1428	0.11729	0.21191	0.13043	0.16412	0.04411	0.20192	0.31098	0.13146	0.27494	0.46751	0.20637	0.14844	0.30369	-3.1104	-4.0875	-3.4437	-4.0792	-4.0396	-3.2896	-4.3396	-3.675	-3.7229	-4.2271	-3.6333	-3.8375	-4.025	-3.4479	-3.9917	-4.0125	103.461	224.075	209.732	115.015	136.263	361.385	329.911	383.502	123.129	100.869	326.319	148.783	419.850	373.533	399.262	375.399	0.00023591	0.00015917	7.4236e-05	976.27	3.4478e-06	8.9693e-07	1060.4	206.71	2.54e-06	1.7125e-06	264.38	74.3	58.145	17.326	1.8244e-06	23.827	0.00016903	0.00011319	3.4029e-05	965.8	1.5713e-06	1.3807e-06	1054.4	206.27	1.5863e-06	1.2516e-06	263.95	75.204	58.634	17.449	1.3194e-06	24.433	196.248	185.400	161.206	98.822	243.001	241.794	98.800	106.266	228.954	236.666	105.362	112.592	113.018	120.339	251.749	119.422	-8191	255	
900.505	1	1	0	0	0.31129	0.037093	0.20543	0.18946	0.29802	0.15229	0.14322	0.11806	0.21444	0.081946	0.20219	0.14254	0.20587	0.27631	0.39564	0.13119	-3.0625	-4.2146	-3.4875	-3.7021	-4.0771	-3.2604	-4.0687	-3.8979	-3.3875	-4.1687	-3.6667	-3.7708	-4.1188	-3.3292	-3.9229	-3.9938	92.408	348.510	161.493	392.470	154.536	234.303	392.038	121.933	289.651	104.269	377.769	140.758	283.141	352.150	171.027	297.816	0.00021919	0.0002957	6.108e-05	976.15	2.5094e-06	3.248e-06	1061.6	206.68	2.5201e-06	2.239e-06	263.63	74.417	58.048	17.103	2.5791e-06	24.172	0.00017501	0.00011009	3.3678e-05	964.6	1.5181e-06	1.4486e-06	1054	206.1	1.6114e-06	1.1126e-06	263.84	75.435	58.535	17.412	1.4058e-06	24.556	197.892	199.392	161.926	98.800	244.498	241.733	98.823	106.242	253.181	249.088	106.048	112.824	113.250	119.990	254.006	119.620	-8191	255	
900.625	1	1	0	0	0.18368	0.30138	0.077801	0.13838	0.13166	0.21995	0.19996	0.11856	0.20592	0.090528	0.086795	0.15518	0.1666	0.065735	0.16147	0.10644	-3.0979	-4.1917	-3.7438	-3.7083	-4.1438	-3.2604	-4.0479	-4.0583	-3.2812	-4.0667	-3.7438	-3.6292	-4.1896	-3.5312	-3.8479	-4.1229	319.901	293.687	375.769	365.665	203.555	96.433	376.803	381.604	187.645	142.025	326.252	321.202	444.726	373.764	105.061	446.065	0.00022961	0.00021658	6.4707e-05	974.68	3.608e-06	2.2394e-06	1066.2	207.11	2.7686e-06	2.4716e-06	264.99	75.098	58.146	17.224	3.1089e-06	24.1	0.00017668	0.0001103	3.2409e-05	963.8	1.5003e-06	1.2913e-06	1054.7	206.31	1.5098e-06	1.311e-06	264.57	75.423	58.625	17.45	1.4141e-06	24.572	194.161	203.082	187.910	98.803	226.429	245.404	98.789	106.465	247.957	258.312	105.261	112.607	112.711	120.593	257.727	119.640	-8191	255	
900.720	1	1	0	0	0.29993	0.047639	0.085809	0.10953	0.23271	0.13641	0.058521	0.15963	0.13442	0.22154	0.26657	0.13764	0.20402	0.30313	0.14144	0.1554	-3.0062	-4.0417	-3.7229	-3.5958	-4.0458	-3.4333	-3.9771	-4.125	-3.3146	-4.075	-3.8479	-3.625	-4.3354	-3.5083	-3.7542	-4.0917	280.107	283.697	258.917	390.750	290.140	250.115	396.568	356.479	377.853	154.884	205.779	203.546	445.009	414.751	258.470	366.646	0.0002297	0.00025108	0.00010349	974.99	2.4876e-06	2.5923e-06	1065.1	206.5	1.72e-06	2.4543e-06	265.82	74.714	58.073	17.303	1.536e-06	24.189	0.00016873	0.00011728	3.3945e-05	965.2	1.4606e-06	1.3581e-06	1055.1	206.23	1.5523e-06	1.2406e-06	265	75.395	58.601	17.455	1.384e-06	24.534	196.804	156.981	187.710	98.686	237.868	239.839	98.770	106.319	236.096	248.762	105.440	112.651	112.889	120.162	227.367	119.308	-8191	255	
900.816	1	1	0	0	0.099397	0.24479	0.26745	0.20388	0.18663	0.23151	0.1717	0.10491	0.087284	0.1576	0.1871	0.21685	0.15871	0.10327	0.085032	0.12647	-3.0979	-3.9646	-3.7083	-3.5417	-4.3146	-3.4625	-3.7812	-4.1	-3.5979	-3.85	-3.9708	-3.525	-4.0667	-3.6063	-3.5333	-4.1	356.034	378.903	310.717	105.982	101.126	438.041	374.661	296.466	320.762	409.841	256.312	400.405	316.941	237.017	397.029	191.154	0.00023341	0.00012498	7.5126e-05	973.94	2.219e-06	9.7809e-07	1062.4	206.98	2.7395e-06	3.162e-06	264.31	74.712	57.903	17.205	2.5747e-06	24.117	0.00017738	0.0001165	3.3686e-05	963.19	1.4338e-06	1.1919e-06	1053.8	206.47	1.5425e-06	1.2206e-06	264.56	75.327	58.47	17.427	1.4508e-06	24.542	196.338	138.016	190.683	98.767	255.249	277.332	98.961	106.347	234.735	249.135	105.912	113.074	113.181	120.492	238.691	119.475	-8191	255	
900.912	1	1	0	0	0.021935	0.23796	0.1098	0.18803	0.13116	0.033898	0.15505	0.087273	0.148	0.21435	0.1607	0.12822	0.28768	0.16189	0.28837	0.15375	-3.1188	-3.8667	-3.8812	-3.4271	-4.1542	-3.5563	-3.575	-4.2688	-3.175	-3.6646	-4.1771	-3.4813	-4.0604	-3.8333	-3.5667	-4.4313	442.747	178.639	344.760	426.797	419.499	343.368	94.875	157.989	195.983	251.882	294.771	279.244	171.722	165.325	390.059	421.903	0.00021825	0.00020006	5.7127e-05	977.1	2.6453e-06	2.7689e-06	1062.9	207.03	2.7959e-06	2.9589e-06	264.32	74.61	58.392	17.103	3.316e-06	24.187	0.00017241	0.00012014	3.2476e-05	963.73	1.4698e-06	1.3618e-06	1054.9	206.06	1.6297e-06	1.257e-06	264.31	75.369	58.699	17.364	1.4194e-06	24.567	197.031	176.128	177.864	98.811	252.256	227.529	99.182	106.291	246.848	232.909	105.317	113.292	113.173	120.247	259.160	119.668	-8191	255	
901.008	1	1	0	0	0.14899	0.19602	0.11609	0.068567	0.084869	0.19201	0.22765	0.070492	0.10478	0.10097	0.1351	0.18824	0.29922	0.18528	0.16366	0.18769	-3.1417	-3.7417	-4.1375	-3.25	-3.9854	-3.8375	-3.5167	-4.2521	-3.5563	-3.8021	-4.2208	-3.4375	-4.1562	-3.95	-3.5479	-4.1562	237.108	416.048	445.365	260.149	424.074	294.319	394.981	383.092	385.159	256.346	195.782	378.627	105.230	107.564	373.277	215.361	0.00021241	0.00041001	8.9707e-05	978.36	3.5052e-06	2.2919e-06	1064.4	206.48	2.9488e-06	3.0986e-06	264.67	74.658	58.458	17.224	2.5945e-06	24.213	0.00016421	0.00012157	2.9019e-05	963.46	1.6116e-06	1.3126e-06	1054.6	206.15	1.5438e-06	1.3603e-06	264.46	75.31	58.686	17.474	1.502e-06	24.524	195.302	175.722	181.145	98.585	237.788	226.813	98.971	106.146	257.939	233.461	105.437	112.869	113.078	120.388	244.433	119.592	-8191	255	
901.104	1	1	0	0	0.07143	0.18735	0.17364	0.075239	0.067548	0.12545	0.11364	0.082117	0.046273	0.157	0.12059	0.15761	0.16997	0.29554	0.12967	0.19364	-3.1396	-3.6063	-4.1771	-3.6229	-3.9917	-4.0875	-3.5521	-4.2771	-3.5812	-3.5917	-4.1625	-3.4417	-3.8458	-4.1646	-3.4167	-4.2875	339.109	208.747	368.335	111.773	231.043	312.586	364.572	271.052	211.295	284.300	289.142	96.015	410.397	102.204	164.397	96.297	0.00021544	0.00023875	0.00011014	972.32	3.1225e-06	2.8297e-06	1064.4	206.58	2.4777e-06	2.1629e-06	264.64	74.641	58.442	17.161	9.8353e-07	24.024	0.00016805	0.00012554	3.3269e-05	963.85	1.5762e-06	1.3106e-06	1053.5	206.49	1.5744e-06	1.484e-06	263.95	75.364	58.675	17.425	1.4773e-06	24.407	198.975	187.430	182.608	98.900	239.274	273.550	98.777	106.277	246.564	240.957	105.795	112.899	113.129	120.247	257.675	120.147	-8191	255	
901.225	1	1	0	0	0.1283	0.099222	0.10703	0.15829	0.034854	0.099735	0.32169	0.22054	0.18155	0.18931	0.17698	0.26815	0.1437	0.28225	0.2361	0.16053	-3.3104	-3.5083	-4.1625	-3.4938	-3.7958	-4.0813	-3.4771	-4.025	-3.7687	-3.3521	-4.275	-3.3417	-3.7771	-4.1188	-3.35	-3.9542	105.718	299.726	429.354	424.706	303.376	431.495	366.991	390.533	251.788	346.396	380.668	95.031	338.057	423.690	103.174	212.708	0.00020849	0.00023554	5.1625e-05	972.64	3.0122e-06	2.3893e-06	1066.2	206.08	2.5789e-06	2.7823e-06	265.62	75.037	58.053	17.128	1.8259e-06	24.046	0.00017127	0.00013016	3.1933e-05	963.34	1.5993e-06	1.3033e-06	1051.8	206.18	1.4795e-06	1.4533e-06	264.81	75.3	58.605	17.397	1.5511e-06	24.482	193.184	154.538	159.795	98.699	259.418	236.193	98.882	106.289	255.113	233.368	105.673	112.854	113.044	120.361	253.521	119.323	-8191	255	
901.321	1	1	0	0	0.17073	0.16225	0.046808	0.13929	0.08842	0.02883	0.078777	0.38167	0.088834	0.051693	0.042692	0.12167	0.10145	0.34327	0.11991	0.13657	-3.3896	-3.2979	-4.1417	-3.5938	-3.6771	-4.0333	-3.5521	-3.9625	-3.8854	-3.5667	-4.1667	-3.7	-3.575	-4.0875	-3.3875	-3.8563	416.831	410.368	211.676	151.106	389.064	135.938	353.151	444.540	325.864	422.601	385.286	112.043	405.526	133.969	90.640	150.619	0.00024756	0.00029445	7.4984e-05	972.9	2.3907e-06	2.5332e-06	1063.4	206.16	3.2937e-06	3.4297e-06	264.79	74.743	58.078	17.156	2.4988e-06	24.36	0.00017818	0.00012321	2.9838e-05	963.53	1.5824e-06	1.2827e-06	1053.8	206.14	1.5484e-06	1.4036e-06	264.74	75.266	58.617	17.42	1.4226e-06	24.528	197.561	182.824	183.759	98.460	242.210	226.332	98.866	106.618	258.592	241.515	105.635	112.955	113.431	120.679	252.807	119.909	-8191	255	
901.417	1	1	0	0	0.17221	0.19429	0.089998	0.25539	0.16099	0.14873	0.2714	0.20756	0.13646	0.070091	0.099704	0.22836	0.11896	0.13859	0.027567	0.078713	-3.8021	-3.3208	-4.0583	-3.5771	-3.45	-4.1167	-3.5792	-3.8792	-4.0208	-3.4938	-4.3917	-3.6229	-3.5979	-4.2604	-3.4042	-3.6958	369.441	111.157	169.180	424.532	247.897	331.310	342.315	353.136	333.960	359.419	440.388	440.902	254.949	376.778	413.099	122.804	0.00022692	0.00018258	0.00011165	972.41	2.806e-06	2.7176e-06	1060.9	207.23	2.8339e-06	2.4503e-06	265.82	74.864	58.135	17.205	1.8426e-06	24.235	0.00016418	0.00013353	3.1591e-05	961.13	1.6008e-06	1.2215e-06	1051.9	206.56	1.5104e-06	1.3696e-06	264.55	75.328	58.642	17.403	1.4232e-06	24.577	188.480	177.631	165.758	98.554	235.028	230.921	98.815	106.488	257.386	228.537	106.061	112.623	113.179	120.510	243.132	119.738	-8191	255	
901.513	1	1	0	0	0.21281	0.10597	0.14314	0.12192	0.16759	0.29217	0.15817	0.10383	0.10393	0.086018	0.14843	0.19785	0.14182	0.12224	0.20604	0.18472	-3.6917	-3.3542	-4.0208	-3.9042	-3.4583	-3.9958	-3.6396	-3.7146	-4.0813	-3.2604	-4.0917	-3.8312	-3.4479	-4.0062	-3.6021	-3.6896	309.952	104.281	137.206	233.434	215.204	299.623	415.910	324.213	305.862	277.556	128.799	427.726	282.925	426.049	174.820	129.659	0.00020619	0.00028996	4.5375e-05	971.3	1.7543e-06	1.8233e-06	1058.8	206.11	2.0876e-06	1.7499e-06	264.45	74.405	58.136	17.171	2.163e-06	24.121	0.0001585	0.00012476	3.3394e-05	963.12	1.5215e-06	1.1337e-06	1051.4	205.99	1.4107e-06	1.2846e-06	264.28	75.268	58.653	17.39	1.2856e-06	24.529	195.981	193.153	170.071	98.505	231.008	264.700	98.804	106.386	265.753	253.454	105.644	112.766	112.950	120.364	243.572	119.975	-8191	255	
901.585	1	1	0	0	0.22934	0.17378	0.16569	0.13289	0.18412	0.078065	0.17448	0.29956	0.023981	0.13013	0.0073341	0.22991	0.12147	0.17928	0.24217	0.077966	-3.8583	-3.4417	-3.9271	-4.1	-3.5167	-4.1479	-3.6958	-3.3979	-4.0167	-3.3896	-3.9354	-4.1229	-3.2833	-4.1146	-3.5729	-3.7521	334.705	264.644	110.055	441.643	263.575	124.560	407.869	403.273	360.062	395.567	405.763	106.851	91.721	344.894	111.080	439.023	0.00022942	0.00016383	0.0001013	971.65	2.8689e-06	1.8781e-06	1058.5	206.96	2.4539e-06	2.2573e-06	264.4	74.909	58.149	17.084	2.257e-06	24.271	0.00016456	0.00012264	3.276e-05	962.67	1.6374e-06	1.2597e-06	1051.8	206.68	1.4138e-06	1.2673e-06	264.22	75.347	58.496	17.365	1.316e-06	24.513	194.200	183.088	160.918	98.650	257.602	259.691	98.622	106.601	253.582	195.763	105.975	112.766	113.317	120.230	232.175	119.887	-8191	255	
901.704	1	1	0	0	0.28153	0.20094	0.041718	0.22845	0.095721	0.29434	0.1232	0.20626	0.14803	0.11601	0.028253	0.083393	0.08146	0.19024	0.27469	0.073427	-3.8146	-3.2521	-3.9125	-4.0208	-3.4104	-4.1646	-4.0479	-3.4979	-4.05	-3.6792	-3.7625	-4.2229	-3.4854	-3.9667	-3.8958	-3.5125	169.363	271.300	269.204	444.593	292.990	292.487	95.987	385.826	381.093	224.149	134.363	214.468	415.931	431.025	408.959	140.773	0.00023421	0.00027818	0.00011071	967.67	3.642e-06	2.659e-06	1055.7	207.46	2.1887e-06	2.527e-06	263.8	74.888	58.139	17.213	2.6522e-06	23.945	0.00015837	0.00012515	3.4396e-05	961.26	1.6516e-06	1.1577e-06	1049.3	206.62	1.4383e-06	1.276e-06	263.8	75.368	58.509	17.419	1.3726e-06	24.401	193.750	164.760	166.356	98.410	252.045	251.136	98.857	106.629	250.211	222.561	105.869	112.217	113.409	120.467	254.947	119.693	-8191	255	
901.800	1	1	0	0	0.27874	0.34194	0.13416	0.035606	0.050392	0.18052	0.077675	0.080265	0.15347	0.11133	0.2956	0.013792	0.043148	0.070289	0.14478	0.2814	-3.7125	-3.4104	-3.6396	-4.1958	-3.3	-4.1083	-3.9417	-3.3542	-4.1833	-3.5542	-3.6833	-4.0375	-3.3083	-3.9229	-3.8438	-3.3937	328.462	439.181	302.664	332.099	421.956	130.234	347.635	254.751	414.144	137.375	108.348	331.167	235.555	301.238	430.767	155.244	0.0002287	0.00031444	7.6537e-05	968.8	2.6639e-06	3.4159e-06	1061.1	207.21	3.118e-06	2.4284e-06	265.22	74.839	58.471	17.152	2.8166e-06	24.128	0.00016571	0.00011823	3.22e-05	961.54	1.6706e-06	1.1946e-06	1052.7	206.15	1.4594e-06	1.4193e-06	263.9	75.477	58.621	17.431	1.3353e-06	24.466	199.175	152.559	201.510	98.528	248.081	242.224	98.701	106.623	253.701	251.128	106.123	113.028	112.954	120.417	223.613	120.221	-8191	255	
901.896	1	1	0	0	0.2862	0.16471	0.20091	0.053627	0.18721	0.12502	0.25029	0.28634	0.11079	0.071708	0.091275	0.075367	0.093488	0.062003	0.13005	0.17868	-3.8104	-3.6542	-3.6437	-4.2083	-3.3458	-3.9729	-4.0458	-3.425	-4.1167	-3.5604	-3.6229	-4.2	-3.4604	-3.7292	-3.9479	-3.5187	191.438	188.803	297.583	415.499	350.439	342.993	366.078	402.400	443.777	333.806	102.229	316.063	95.291	410.164	176.337	115.163	0.00023778	0.00027858	5.4387e-05	972.78	2.1648e-06	2.0803e-06	1059.2	206.27	1.624e-06	3.3632e-06	265.22	75.072	58.299	17.258	2.5699e-06	24.22	0.00017311	0.00012828	3.5656e-05	960.72	1.6476e-06	1.3405e-06	1050.8	205.88	1.4404e-06	1.423e-06	264.26	75.519	58.487	17.419	1.3476e-06	24.473	192.221	165.842	147.283	98.970	236.895	221.745	98.822	106.395	248.665	214.972	105.721	112.970	113.440	120.823	254.039	120.033	-8191	255	
902.017	1	1	0	0	0.19823	0.14606	0.050486	0.2326	0.28925	0.066312	0.068634	0.054272	0.20455	0.094789	0.1196	0.2227	0.22815	0.14221	0.18766	0.03718	-3.7875	-3.9708	-3.5687	-4.2479	-3.4167	-3.8146	-4.2771	-3.4271	-3.9813	-3.6917	-3.4917	-4.25	-3.4625	-3.5729	-4.0917	-3.275	147.857	269.786	237.356	392.212	364.776	246.021	368.486	389.558	147.084	89.019	181.503	428.688	324.956	367.613	159.766	214.008	0.00022467	0.00022127	5.5435e-05	973.36	3.5322e-06	1.3728e-06	1060.6	206.52	2.4549e-06	5.019e-07	264.56	74.802	58.126	17.032	2.0461e-06	23.94	0.00017292	0.00012097	3.5139e-05	963.48	1.5682e-06	1.3418e-06	1051.6	205.77	1.4783e-06	1.2616e-06	264.31	75.359	58.544	17.361	1.34e-06	24.455	198.697	162.485	213.700	99.068	243.473	269.046	98.916	106.759	251.947	291.217	106.111	112.910	113.248	120.654	245.659	120.271	-8191	255	
902.113	1	1	0	0	0.051958	0.25654	0.24654	0.048614	0.12459	0.13086	0.23763	0.27965	0.24921	0.11016	0.18659	0.078245	0.21545	0.088584	0.12434	0.2761	-3.6625	-3.8	-3.3229	-4.2354	-3.4792	-3.7188	-4.275	-3.3104	-3.8521	-3.8604	-3.5604	-4.075	-3.5458	-3.5042	-3.9583	-3.2479	392.497	394.743	175.202	440.464	389.264	365.881	362.307	361.592	192.189	203.448	90.820	377.966	254.238	274.643	268.193	342.165	0.00022309	0.00033873	7.6509e-05	966.84	3.5845e-06	2.5169e-06	1057.1	207.12	1.9909e-06	2.0236e-06	265.46	74.878	58.421	17.172	2.6086e-06	24.114	0.0001601	0.00010866	3.574e-05	960.61	1.6014e-06	1.27e-06	1050.1	206.3	1.3918e-06	1.2003e-06	264.56	75.421	58.695	17.451	1.3055e-06	24.509	194.351	162.952	170.523	98.972	257.545	259.418	99.047	106.729	243.190	252.996	105.893	113.056	113.435	120.565	240.730	120.048	-8191	255	
902.185	1	1	0	0	0.11914	0.19033	0.07357	0.17368	0.11127	0.2027	0.26965	0.051474	0.066277	0.096988	0.11967	0.16988	0.16455	0.027384	0.18011	0.10013	-3.5333	-4.0687	-3.3292	-4.075	-3.7208	-3.6146	-4.2438	-3.4771	-3.6937	-4.0188	-3.5396	-4.2333	-3.8	-3.425	-4.2104	-3.4125	335.029	271.902	417.970	423.321	409.299	331.584	390.205	200.381	137.006	94.941	295.089	325.706	150.621	305.810	141.202	392.458	0.00022011	0.00021005	0.00011328	971.97	2.4921e-06	2.4587e-06	1063.5	206.31	2.358e-06	2.4467e-06	265.79	74.404	58.17	17.153	2.829e-06	23.983	0.00016981	0.00012258	3.6934e-05	961.97	1.5775e-06	1.3452e-06	1052.8	205.94	1.4719e-06	1.329e-06	264.49	75.201	58.633	17.399	1.2796e-06	24.511	193.782	176.294	168.172	98.864	273.427	242.546	99.015	106.641	258.552	216.368	105.752	113.449	113.340	120.758	252.935	119.395	-8191	255	
902.305	1	1	0	0	0.3262	0.13248	0.19056	0.29386	0.011716	0.2207	0.38864	0.32433	0.21053	0.067085	0.14274	0.10999	0.065673	0.12458	0.18109	0.13363	-3.4396	-4.0146	-3.2854	-4.1687	-3.6917	-3.4104	-4.1208	-3.45	-3.5	-4.1646	-3.4604	-4.1771	-3.9042	-3.3063	-4.1146	-3.5812	353.628	268.272	267.154	93.970	404.150	265.822	413.743	358.219	299.828	239.499	396.702	435.645	395.529	438.719	226.843	233.571	0.00022578	0.00036463	9.0144e-05	973.62	2.0473e-06	2.2787e-06	1065.6	205.43	3.291e-06	1.933e-06	265.61	75.247	58.055	17.11	2.7503e-06	24.049	0.00016664	0.00011215	3.3077e-05	961.83	1.5239e-06	1.4469e-06	1052.3	205.54	1.5505e-06	1.2423e-06	264.47	75.526	58.493	17.364	1.2204e-06	24.475	194.536	173.227	190.245	98.861	238.745	240.005	99.057	106.677	265.928	254.596	105.899	113.195	113.406	120.826	227.548	119.874	-8191	255	
902.401	1	1	0	0	0.17184	0.16017	0.10354	0.22987	0.11288	0.0419	0.2242	0.12947	0.20427	0.13931	0.066526	0.1433	0.056887	0.1579	0.18609	0.067501	-3.1125	-4.1625	-3.3167	-3.9479	-3.8167	-3.3667	-4.1146	-3.4375	-3.625	-4.2917	-3.4562	-3.9854	-3.9875	-3.5833	-4.1125	-3.6792	117.181	224.588	259.783	405.611	191.233	309.347	418.227	368.877	134.242	400.887	153.007	415.407	152.576	434.506	261.934	353.875	0.00021637	0.00027474	8.9981e-05	978.06	3.0178e-06	3.6119e-06	1057.6	206.63	2.2808e-06	2.0113e-06	264.39	74.689	58.271	17.11	2.3379e-06	24.152	0.0001707	0.00011429	3.3636e-05	964.35	1.5175e-06	1.3475e-06	1050.8	205.88	1.4921e-06	1.1453e-06	263.48	75.119	58.649	17.412	1.3204e-06	24.506	196.649	161.157	185.673	98.910	246.045	208.578	99.241	106.377	241.946	286.950	106.002	113.365	112.950	120.566	259.908	119.561	-8191	255	
902.498	1	1	0	0	0.068013	0.13928	0.16038	0.28705	0.10862	0.12538	0.12257	0.22582	0.2237	0.20899	0.10893	0.06681	0.1249	0.21608	0.075983	0.22115	-2.9688	-4.1521	-3.3417	-3.8312	-4.1271	-3.2896	-4.3208	-3.7938	-3.475	-4.2208	-3.75	-3.7854	-4.1854	-3.4354	-4.0667	-3.8125	335.004	239.288	167.046	373.779	358.255	103.676	330.594	131.352	445.290	437.577	303.918	235.150	416.171	369.559	161.186	396.151	0.0002379	0.00023723	3.6582e-05	971.31	3.0178e-06	2.1045e-06	1069.1	207.4	2.9861e-06	2.5398e-06	264.07	74.598	58.032	17.14	2.9669e-06	24.28	0.00018229	0.0001049	3.2309e-05	961.4	1.4535e-06	1.3541e-06	1052.3	206.33	1.4248e-06	1.2126e-06	263.7	75.19	58.409	17.377	1.2853e-06	24.54	196.960	146.631	162.655	99.032	266.537	222.262	99.028	106.377	247.325	236.469	105.721	113.266	113.074	120.828	243.728	120.200	-8191	255	
902.616	1	1	0	0	0.21493	0.1285	0.060779	0.27806	0.1122	0.29416	0.20518	0.10052	0.15052	0.050128	0.069393	0.19339	0.073978	0.069077	0.18041	0.086252	-3.0646	-4.0563	-3.3271	-3.5958	-4.125	-3.1813	-4.1562	-4.125	-3.3625	-4.0542	-3.6854	-3.6417	-4.2063	-3.5458	-4.0333	-4	244.174	173.979	197.779	409.623	212.210	92.548	356.171	101.657	199.190	369.632	234.686	393.724	134.079	272.068	319.632	275.825	0.00021752	0.00026089	7.8902e-05	973.23	2.5933e-06	2.6974e-06	1062.4	206.29	1.6462e-06	2.1557e-06	263.5	75.009	58.598	17.242	2.0491e-06	24.099	0.00016951	0.0001162	3.2935e-05	962.36	1.5559e-06	1.4373e-06	1052	205.95	1.475e-06	1.1463e-06	263.4	75.221	58.616	17.419	1.3365e-06	24.44	194.082	155.849	185.196	98.891	250.599	244.547	99.068	106.735	262.428	267.650	105.783	113.033	113.442	120.659	267.681	120.033	-8191	255	
902.713	1	1	0	0	0.03424	0.14769	0.13055	0.47386	0.13975	0.17706	0.15174	0.071716	0.21881	0.043774	0.14879	0.29902	0.14005	0.17617	0.18652	0.093018	-3.0146	-3.9708	-3.6729	-3.6583	-4.0104	-3.5083	-4.0729	-4.1354	-3.2812	-3.9979	-3.8104	-3.3833	-4.1167	-3.5104	-3.7583	-4.225	416.171	351.587	397.387	382.937	182.257	329.970	344.653	410.269	188.865	332.340	409.630	332.963	106.271	230.954	132.650	295.077	0.0002375	0.00025968	8.351e-05	968.34	3.4025e-06	3.3742e-06	1061.7	205.51	2.1206e-06	2.1221e-06	264.78	74.711	58.719	17.165	2.15e-06	23.986	0.00016825	0.00012246	3.2158e-05	960.1	1.4658e-06	1.3758e-06	1049.8	205.62	1.5551e-06	1.2473e-06	264.52	75.297	58.621	17.395	1.4226e-06	24.483	197.361	177.782	169.128	99.265	268.073	231.213	99.249	106.662	279.388	276.046	106.154	113.454	113.580	120.567	229.274	120.094	-8191	255	
902.809	1	1	0	0	0.073448	0.085127	0.27113	0.11765	0.091176	0.24417	0.10313	0.22546	0.18405	0.062171	0.13974	0.085815	0.25854	0.32941	0.12793	0.12939	-2.9521	-3.9771	-3.7146	-3.6104	-4.0896	-3.3167	-3.8583	-4.3	-3.3917	-3.8542	-3.8187	-3.3104	-4.0833	-3.55	-3.5854	-4.2	125.605	185.116	339.533	89.078	384.795	158.382	367.244	356.389	412.605	319.807	197.524	129.350	414.648	445.376	162.652	425.776	0.00023651	0.00022377	7.85e-05	971.7	2.4721e-06	1.6633e-06	1062.8	206.33	2.5385e-06	1.9795e-06	263.11	74.567	58.071	17.206	1.3285e-06	24.209	0.00016805	0.0001174	3.3094e-05	961.07	1.4717e-06	1.3089e-06	1049.7	206.01	1.6086e-06	1.096e-06	264.22	75.273	58.597	17.373	1.3394e-06	24.49	196.167	152.493	178.844	98.947	238.644	242.434	99.173	106.680	255.746	244.440	106.358	113.153	113.424	121.120	269.250	120.002	-8191	255	
902.880	1	1	0	0	0.021712	0.10825	0.32516	0.23481	0.086087	0.18492	0.26831	0.052886	0.26802	0.20405	0.27601	0.17605	0.18149	0.025766	0.078087	0.2785	-2.9604	-3.9708	-3.8958	-3.5479	-4.1667	-3.4917	-3.5646	-4.1042	-3.3646	-3.925	-4.0333	-3.4146	-4.2083	-3.7125	-3.4708	-4.2792	117.001	101.533	397.328	108.585	357.698	163.127	418.894	347.564	127.130	169.511	370.745	435.531	119.070	124.366	111.279	435.705	0.00022516	0.00039373	0.00011327	973.42	2.2408e-06	3.2951e-06	1061	205.41	2.7265e-06	3.0441e-06	264.99	74.796	58.412	17.087	2.6031e-06	24.142	0.00016215	0.0001125	2.907e-05	962.3	1.3791e-06	1.2973e-06	1051.8	205.74	1.5355e-06	1.301e-06	264.05	75.22	58.61	17.352	1.4688e-06	24.462	199.888	211.480	166.940	99.165	242.614	242.106	99.273	106.723	233.436	229.310	105.967	112.839	113.503	120.721	225.126	120.091	-8191	255	
903.001	1	1	0	0	0.23214	0.18859	0.12552	0.21012	0.1667	0.073111	0.18712	0.074032	0.17454	0.12265	0.092723	0.21825	0.16453	0.26925	0.19733	0.14654	-2.9708	-3.925	-3.8958	-3.4604	-4.0521	-3.7375	-3.7771	-4.1542	-3.4333	-3.7229	-4.1167	-3.4271	-4.0125	-3.6771	-3.4417	-4.2333	220.739	258.830	350.224	414.418	180.710	336.509	430.187	411.038	236.475	411.999	98.440	359.750	429.212	392.097	259.921	90.861	0.00022998	0.00035476	4.1495e-05	969.41	2.0705e-06	3.0147e-06	1058.1	205.48	2.8236e-06	2.096e-06	266.45	74.838	58.48	17.087	1.7056e-06	24.003	0.00016772	0.0001159	2.8493e-05	960.83	1.507e-06	1.3817e-06	1049.8	205.92	1.5068e-06	1.2933e-06	264.43	75.181	58.611	17.341	1.3533e-06	24.474	192.002	193.696	136.255	98.990	253.647	243.735	99.077	106.738	252.149	234.452	106.512	113.157	113.883	120.728	242.996	120.078	-8191	255	
903.097	1	1	0	0	0.027247	0.1817	0.17575	0.084088	0.21511	0.16924	0.1385	0.30895	0.18499	0.21738	0.34678	0.28697	0.016954	0.077249	0.039557	0.11223	-3.0458	-3.5812	-4.0542	-3.3917	-4.1542	-3.8771	-3.4896	-4.1188	-3.475	-3.5917	-4.2375	-3.4542	-3.9188	-4.0292	-3.4083	-4.2375	223.962	433.153	301.164	386.136	171.730	431.522	339.126	409.837	341.893	253.037	376.745	111.950	403.045	328.653	188.525	351.622	0.00024353	0.00041869	6.1053e-05	968.97	2.8418e-06	4.1022e-06	1057.6	206	2.2446e-06	3.0262e-06	264.54	74.743	58.426	17.175	2.8092e-06	24.026	0.00017188	0.00011734	3.1441e-05	960.11	1.4883e-06	1.288e-06	1048.9	205.79	1.4211e-06	1.349e-06	263.94	75.219	58.67	17.412	1.3821e-06	24.507	192.754	175.950	153.779	99.004	228.164	235.705	99.345	107.068	257.068	226.676	106.203	113.138	113.604	120.738	236.879	120.312	-8191	255	
903.193	1	1	0	0	0.1231	0.12336	0.16527	0.15946	0.12365	0.04163	0.28782	0.20053	0.22109	0.19538	0.18177	0.079302	0.15223	0.11228	0.19496	0.048355	-3.0854	-3.4896	-4.05	-3.4333	-3.8292	-4.0667	-3.4562	-4.1667	-3.5958	-3.5125	-4.3375	-3.475	-3.7646	-4.0146	-3.4146	-4.0458	322.490	325.851	139.736	432.295	243.400	362.992	353.022	430.442	295.937	160.698	431.275	380.870	424.675	208.280	342.799	292.097	0.00022612	0.00035539	5.587e-05	974.92	3.382e-06	3.9043e-06	1058.4	206.94	1.8972e-06	1.8693e-06	263.85	74.887	58.117	17.183	7.8051e-07	24.011	0.00017159	0.00012234	2.9771e-05	959.67	1.5833e-06	1.2697e-06	1049.7	206.07	1.4181e-06	1.29e-06	263.75	75.296	58.514	17.37	1.4299e-06	24.439	196.765	168.306	162.952	99.246	238.504	234.745	99.406	106.882	241.761	261.274	105.979	112.939	113.402	120.680	281.429	120.340	-8191	255	
903.289	1	1	0	0	0.086934	0.038403	0.21223	0.10975	0.082627	0.032695	0.36541	0.28709	0.22751	0.25415	0.32339	0.073538	0.083593	0.21995	0.1687	0.10392	-3.4	-3.5333	-4.1667	-3.5833	-3.9688	-4.0396	-3.4875	-4.2396	-3.7667	-3.4479	-4.1854	-3.6937	-3.6042	-4.2562	-3.2604	-4.2167	435.964	334.762	211.848	365.621	372.641	358.788	355.316	301.278	213.699	157.211	413.052	105.564	232.991	90.831	246.141	355.300	0.00023053	0.00022153	0.00010017	972.67	2.8166e-06	2.5691e-06	1061	205.98	2.6529e-06	3.163e-06	265.65	74.722	58.311	17.104	2.1203e-06	24.098	0.0001619	0.00011862	3.0172e-05	959.38	1.468e-06	1.0453e-06	1049.3	205.83	1.4248e-06	1.309e-06	264.72	75.066	58.828	17.326	1.3394e-06	24.453	200.530	187.011	157.404	99.131	244.132	258.344	99.432	107.058	227.858	227.125	106.504	113.284	114.048	120.455	249.596	120.466	-8191	255	
903.410	1	1	0	0	0.17641	0.083853	0.12415	0.31238	0.27109	0.33109	0.13717	0.1353	0.089109	0.27121	0.059527	0.20928	0.33727	0.24673	0.16184	0.23163	-3.5167	-3.3125	-4.25	-3.5917	-3.5375	-4.0958	-3.4875	-3.9229	-3.9208	-3.3312	-4.2979	-3.6021	-3.5229	-4.15	-3.6521	-3.7083	247.556	408.902	425.506	424.810	198.201	196.776	388.723	433.795	115.371	140.589	425.687	105.222	210.257	126.452	164.447	438.453	0.00022007	0.00023852	6.232e-05	970.7	2.6257e-06	2.9892e-06	1059.3	206.39	2.8442e-06	2.9745e-06	265.67	74.853	58.242	17.13	2.3643e-06	24.084	0.00016264	0.00011954	2.9679e-05	960.56	1.4803e-06	1.2002e-06	1049.7	206.14	1.4236e-06	1.4456e-06	264.59	75.158	58.613	17.399	1.3846e-06	24.465	195.672	185.664	200.513	98.885	237.541	236.564	99.337	106.961	243.753	215.704	106.089	113.003	113.524	120.948	237.662	119.993	-8191	255	
903.482	1	1	0	0	0.20861	0.089975	0.047165	0.30932	0.073957	0.11112	0.072214	0.11079	0.082049	0.28177	0.15184	0.11515	0.21298	0.25092	0.096125	0.044781	-3.5625	-3.1771	-4.075	-3.8917	-3.4229	-4.125	-3.7104	-3.9792	-3.9938	-3.4437	-4.1937	-3.7562	-3.4125	-4.2167	-3.5125	-3.6854	273.195	309.804	333.019	103.168	327.253	109.537	259.194	377.295	415.010	390.019	432.240	207.598	229.390	323.907	230.013	146.838	0.00022321	0.00035394	5.4584e-05	974.49	3.2251e-06	2.8344e-06	1055.4	206.59	2.3714e-06	3.1875e-06	266.7	74.473	57.863	16.986	2.8526e-06	24.034	0.00016778	0.00012643	3.2292e-05	960.98	1.6251e-06	1.1447e-06	1048.1	206	1.4765e-06	1.3973e-06	263.95	75.091	58.416	17.319	1.3618e-06	24.455	191.255	186.032	165.063	99.259	262.327	250.882	99.228	107.140	245.990	247.917	106.237	113.053	113.474	120.375	250.611	120.384	-8191	255	
903.578	1	1	0	0	0.14613	0.17903	0.14716	0.13804	0.050416	0.11383	0.23667	0.26263	0.19585	0.10783	0.22811	0.067339	0.2671	0.28168	0.098472	0.050066	-3.6354	-3.2146	-4.0458	-3.9562	-3.4917	-4.0667	-3.5938	-3.6833	-4.1562	-3.3688	-3.9437	-3.9813	-3.3438	-4.1042	-3.5708	-3.6146	377.207	224.234	258.687	186.020	146.526	360.524	407.256	383.334	187.214	111.422	211.136	97.929	230.453	369.067	396.065	392.394	0.0002222	0.00041136	6.6518e-05	975.83	3.1518e-06	3.0528e-06	1059.2	206.58	2.1676e-06	2.5352e-06	266.27	74.933	58.158	17.311	1.7899e-06	24.035	0.00016926	0.00012667	3.2234e-05	962.41	1.591e-06	1.1856e-06	1048.9	206.1	1.3997e-06	1.3993e-06	264.65	75.26	58.594	17.411	1.3694e-06	24.47	194.779	167.831	176.091	98.768	238.936	253.257	98.951	106.754	260.074	226.071	106.099	113.072	114.256	120.737	249.704	120.574	-8191	255	
903.699	1	1	0	0	0.15237	0.17305	0.18074	0.27185	0.13357	0.040663	0.097493	0.26574	0.2058	0.093537	0.058959	0.26754	0.20562	0.10769	0.12412	0.060564	-3.6896	-3.4125	-3.7771	-3.8292	-3.3187	-4.1896	-3.8083	-3.6375	-4.0021	-3.2458	-3.8729	-3.9625	-3.2438	-3.9542	-3.65	-3.5521	148.336	301.682	112.683	407.266	289.562	127.363	381.472	348.124	149.880	238.230	99.197	407.092	114.308	272.469	320.658	262.675	0.00022776	0.00027023	5.7477e-05	974.19	2.9043e-06	2.7563e-06	1056.7	205.92	2.5774e-06	1.4486e-06	264.99	74.565	58.32	17.173	1.8713e-06	24.238	0.00016712	0.00012279	3.3394e-05	960.74	1.4812e-06	1.1251e-06	1047.9	205.6	1.3487e-06	1.216e-06	264.39	75.112	58.519	17.422	1.2498e-06	24.495	195.757	160.669	174.187	99.060	245.976	245.994	99.368	106.816	257.589	244.077	105.766	112.898	113.087	120.512	243.785	119.539	-8191	255	
903.793	1	1	0	0	0.089633	0.25525	0.14846	0.16498	0.17867	0.14036	0.060732	0.11487	0.25145	0.18632	0.078424	0.14571	0.20841	0.15777	0.28487	0.199	-3.8812	-3.4437	-3.7958	-4.2167	-3.3729	-3.8542	-3.7667	-3.5271	-4.3625	-3.3125	-3.7354	-4.1021	-3.475	-3.8271	-3.6208	-3.475	182.864	430.193	111.090	200.201	366.931	90.617	316.844	380.459	135.991	377.224	406.051	393.530	147.960	370.828	226.340	172.887	0.000222	0.00037091	7.4619e-05	970.53	2.8024e-06	2.532e-06	1057.9	206.29	2.1179e-06	2.0762e-06	265.83	74.712	58.179	17.164	2.3396e-06	24.128	0.00015566	0.00011969	3.1883e-05	958.86	1.5615e-06	1.1653e-06	1049	205.9	1.3893e-06	1.2876e-06	264.08	75.171	58.597	17.365	1.2103e-06	24.443	195.646	161.645	178.651	98.432	249.560	234.671	98.312	106.323	259.569	241.239	105.678	112.522	112.530	119.947	262.362	119.450	-8191	255	
903.889	1	1	0	0	0.21777	0.13992	0.1438	0.097175	0.34483	0.17277	0.10668	0.19332	0.054977	0.16599	0.10177	0.085913	0.17618	0.085102	0.25918	0.20105	-3.8167	-3.5583	-3.6	-4.1354	-3.3646	-3.7646	-4.0167	-3.3896	-4.2063	-3.4708	-3.6167	-4.1083	-3.3708	-3.7583	-3.775	-3.1896	139.598	171.095	422.840	371.970	368.513	393.001	333.535	422.441	211.559	153.454	162.099	97.864	418.049	416.142	184.414	208.181	0.00022127	0.00029202	8.3145e-05	971.29	2.5546e-06	3.2971e-06	1056	205.23	2.0724e-06	2.5357e-06	263.15	74.39	57.896	17.218	2.7219e-06	24.168	0.00016017	0.00011474	3.0697e-05	958.33	1.5541e-06	1.2474e-06	1050.2	205.88	1.3453e-06	1.1996e-06	263.47	75.087	58.365	17.417	1.3204e-06	24.448	192.686	170.440	183.612	98.331	243.504	231.207	98.346	105.858	247.950	212.401	105.477	112.145	112.819	119.462	223.924	119.735	-8191	255	
903.985	1	1	0	0	0.24174	0.099898	0.10552	0.21516	0.25795	0.093567	0.092144	0.10685	0.11762	0.16917	0.22051	0.0090447	0.021301	0.034653	0.19703	0.31774	-3.6875	-3.5083	-3.3583	-4.0958	-3.4062	-3.6437	-4.0479	-3.4229	-4.0083	-3.7146	-3.475	-4.0979	-3.3	-3.8958	-4.0708	-3.4021	102.634	236.456	298.537	107.485	282.139	302.711	277.753	254.687	342.240	351.062	434.893	179.902	109.175	168.404	326.468	119.093	0.00022134	0.00032373	4.6282e-05	970.59	3.3267e-06	1.9572e-06	1053.6	205.59	2.1056e-06	3.0472e-06	263.42	74.694	58.208	17.057	1.5966e-06	24.207	0.00016207	0.00011641	3.1941e-05	959.96	1.5661e-06	1.1926e-06	1046.1	205.8	1.3823e-06	1.2486e-06	263.15	75.312	58.451	17.403	1.2717e-06	24.515	195.523	174.916	165.174	98.116	242.303	242.209	98.338	106.127	233.577	238.755	105.411	112.161	112.238	120.326	260.262	119.200	-8191	255	
904.081	1	1	0	0	0.087861	0.27004	0.22981	0.14935	0.086235	0.083989	0.17696	0.013319	0.18943	0.031229	0.15821	0.052112	0.23447	0.20527	0.12984	0.098734	-3.6813	-3.5667	-3.3417	-4.4062	-3.3438	-3.6146	-4.3167	-3.3958	-3.9188	-3.9479	-3.5042	-4.1625	-3.5208	-3.5833	-4.175	-3.45	361.030	269.497	221.738	441.198	441.558	166.265	365.811	114.260	370.728	210.756	328.236	132.265	381.771	310.311	220.077	393.018	0.00022233	0.00048052	7.7025e-05	971.11	3.688e-06	2.7946e-06	1058.5	206.8	2.9593e-06	2.9839e-06	262.73	74.395	57.986	17.049	1.9872e-06	24.232	0.00016308	0.00011528	3.2885e-05	958.85	1.5735e-06	1.2424e-06	1049.6	205.92	1.4138e-06	1.238e-06	263.95	75.109	58.411	17.3	1.4052e-06	24.507	195.833	176.414	200.110	98.059	227.457	237.871	98.246	105.917	238.362	265.268	105.166	112.340	112.691	119.905	247.771	119.267	-8191	255	
904.178	1	1	0	0	0.10026	0.2149	0.13402	0.18407	0.17075	0.21827	0.15418	0.097537	0.081423	0.16465	0.10446	0.084135	0.09162	0.14728	0.064966	0.097493	-3.4896	-3.7687	-3.1771	-4.2083	-3.6625	-3.6167	-4.2021	-3.3875	-3.9062	-3.8354	-3.1792	-4.1271	-3.7854	-3.6604	-4.2	-3.3896	408.114	148.422	101.446	355.243	148.616	346.399	346.383	445.557	258.790	187.915	398.209	409.448	350.604	176.935	419.499	104.654	0.00023	0.00028328	7.9321e-05	969.23	2.3772e-06	2.0432e-06	1060.8	205.97	2.5398e-06	3.7221e-06	262.89	74.958	58.135	17.009	2.3972e-06	24.003	0.00016655	0.00011242	3.3753e-05	957.15	1.5738e-06	1.2747e-06	1049.6	205.65	1.4695e-06	1.2436e-06	263.61	75.324	58.347	17.364	1.2704e-06	24.463	196.351	186.344	174.204	98.041	247.308	254.471	98.403	105.670	235.902	223.784	105.253	112.398	112.461	120.368	248.322	119.460	-8191	255	
904.298	1	1	0	0	0.13171	0.22625	0.37509	0.14322	0.15663	0.062874	0.43068	0.177	0.055304	0.26113	0.16525	0.12913	0.23619	0.0069222	0.077211	0.283	-3.3021	-3.9917	-3.225	-4.1146	-3.4688	-3.35	-4.2458	-3.5646	-3.6625	-4.1562	-3.3708	-4.0583	-3.8063	-3.3708	-4.0458	-3.6437	211.053	215.546	399.104	357.045	118.651	194.888	406.852	382.041	262.822	399.236	429.311	290.181	96.500	371.833	437.748	443.913	0.00021026	0.00027708	6.9341e-05	969.75	2.9168e-06	3.426e-06	1052.9	205.92	2.7073e-06	1.8021e-06	263.97	74.898	57.947	17.238	3.1867e-06	24.09	0.00016184	0.00010654	3.2918e-05	959.23	1.5507e-06	1.3262e-06	1047.9	205.83	1.5398e-06	1.1786e-06	263.82	75.299	58.533	17.422	1.3008e-06	24.449	192.485	189.199	161.953	98.150	241.241	236.669	98.415	106.007	240.088	211.570	105.425	112.191	112.512	119.964	236.263	119.257	-8191	255	
904.394	1	1	0	0	0.030189	0.012628	0.27533	0.078831	0.19762	0.2981	0.10512	0.072477	0.21224	0.16586	0.15042	0.13419	0.17381	0.12946	0.28202	0.17614	-3.2208	-4.0417	-3.4104	-3.9	-3.7083	-3.3271	-4.1583	-3.6771	-3.3104	-4.1771	-3.45	-3.9813	-3.9333	-3.4104	-4.1333	-3.6	248.673	319.777	253.421	420.987	374.151	344.357	386.635	435.610	215.316	433.532	300.933	119.656	89.196	347.401	187.444	87.973	0.00023323	0.00031494	9.4417e-05	970.82	2.9108e-06	1.5965e-06	1059.3	205.19	2.199e-06	2.2916e-06	263.98	74.717	57.794	17.229	2.8496e-06	24.06	0.00016674	0.00011602	3.3728e-05	959.97	1.4901e-06	1.28e-06	1048	205.46	1.4832e-06	1.117e-06	263.7	75.123	58.506	17.4	1.3245e-06	24.492	195.358	182.536	177.075	98.288	246.365	216.400	98.339	105.510	241.932	224.176	105.558	112.450	112.730	119.866	226.433	119.179	-8191	255	
904.491	1	1	0	0	0.33114	0.061151	0.072137	0.064444	0.032114	0.35832	0.13383	0.23578	0.083477	0.059523	0.16996	0.071075	0.11899	0.20427	0.28335	0.16906	-3.1521	-3.9417	-3.2438	-3.9021	-3.9146	-3.2438	-4.275	-3.6562	-3.5583	-4.1687	-3.3563	-3.7771	-3.9354	-3.4021	-4.075	-3.6708	296.394	130.092	220.902	436.613	248.761	313.934	382.575	360.529	181.805	296.502	287.835	312.893	96.326	292.712	263.545	270.737	0.00022432	0.00037547	6.3161e-05	972.17	1.9252e-06	1.7044e-06	1061.6	205.92	2.6472e-06	1.9787e-06	265.32	74.706	58.309	17.093	3.5144e-06	24.23	0.00017059	0.00010535	3.3511e-05	961.12	1.4732e-06	1.2817e-06	1049	205.64	1.4667e-06	1.1216e-06	263.98	75.457	58.51	17.398	1.1432e-06	24.491	197.167	161.418	201.912	98.294	242.693	250.834	98.385	105.862	248.668	252.961	105.254	112.248	112.341	120.045	247.792	119.232	-8191	255	
904.585	1	1	0	0	0.089478	0.15451	0.13172	0.21326	0.12512	0.18806	0.16578	0.17432	0.069128	0.18699	0.16944	0.15967	0.24555	0.19196	0.22172	0.26727	-2.9396	-4.1854	-3.4208	-3.6771	-3.9417	-3.275	-4.1792	-3.5458	-3.3	-4.1708	-3.3729	-3.6958	-4.0104	-3.3292	-3.8396	-3.75	250.276	139.976	236.597	435.385	277.795	289.956	339.451	250.106	298.472	287.839	204.051	161.275	436.513	124.458	250.037	319.526	0.000239	0.00020246	6.6718e-05	970.93	2.6037e-06	2.5447e-06	1058.2	205.91	3.2091e-06	3.8153e-06	264.2	74.549	58.206	17.14	1.1146e-06	24.06	0.00017006	9.7387e-05	3.2217e-05	959.35	1.4972e-06	1.2757e-06	1050.4	205.85	1.374e-06	1.151e-06	263.85	75.246	58.581	17.343	1.266e-06	24.432	193.842	200.083	167.879	98.081	251.322	226.206	98.627	105.970	266.440	234.912	105.162	112.511	112.473	119.724	229.079	119.063	-8191	255	
904.706	1	1	0	0	0.18588	0.084732	0.031995	0.1848	0.28776	0.084487	0.16943	0.16061	0.3056	0.16302	0.067689	0.18228	0.17468	0.072061	0.11046	0.27768	-3.0604	-4.1167	-3.3708	-3.5646	-4.1521	-3.1958	-4.2042	-3.9271	-3.4646	-4.1042	-3.6708	-3.6792	-4.0729	-3.35	-3.9021	-3.9646	193.836	339.184	287.050	359.879	425.112	249.242	330.423	440.595	340.091	307.179	372.481	150.108	367.146	447.171	152.404	387.208	0.00022869	0.00025085	8.3038e-05	970.53	3.1196e-06	2.4052e-06	1057.6	206.02	1.4094e-06	2.5867e-06	265.1	74.655	58.398	17.208	2.8019e-06	24.039	0.00016323	9.6462e-05	2.9612e-05	958.06	1.3517e-06	1.2258e-06	1049.2	205.96	1.3086e-06	1.109e-06	263.95	75.322	58.473	17.402	1.2666e-06	24.423	192.001	186.388	188.681	98.355	237.469	256.731	98.594	105.966	253.130	222.245	105.690	112.568	113.173	119.964	248.949	119.069	-8191	255	
904.777	1	1	0	0	0.17069	0.052471	0.34254	0.16898	0.3232	0.25879	0.30095	0.062347	0.27884	0.062924	0.11346	0.32417	0.24844	0.15424	0.12241	0.14392	-3.0375	-4.2312	-3.675	-3.5125	-4.2438	-3.4375	-4.0354	-4.1875	-3.4833	-3.9104	-3.9021	-3.5125	-4.0958	-3.5646	-3.8271	-4.1417	149.809	440.923	277.701	350.266	179.434	117.632	361.415	261.064	132.367	409.163	312.929	324.484	120.932	409.615	295.465	441.071	0.00023464	0.00020127	9.1659e-05	967.43	2.4371e-06	3.3052e-06	1057.6	205.77	2.9525e-06	2.6049e-06	262.59	74.872	57.988	17.099	1.9179e-06	24.034	0.00016916	9.8788e-05	3.2133e-05	958.16	1.3778e-06	1.2424e-06	1050.2	205.54	1.4802e-06	1.141e-06	263.46	75.299	58.423	17.343	1.3166e-06	24.473	194.891	178.163	166.566	98.409	244.200	280.210	98.257	105.858	236.865	232.394	105.365	112.264	113.099	119.650	252.514	119.314	-8191	255	
904.873	1	1	0	0	0.047817	0.1852	0.17412	0.094508	0.26914	0.04404	0.17238	0.18332	0.37567	0.066386	0.2186	0.22024	0.35616	0.15544	0.19788	0.084495	-2.8646	-3.825	-3.9208	-3.4042	-4.2146	-3.4646	-3.7625	-4.0417	-3.4875	-3.9792	-3.9938	-3.3667	-4.2208	-3.6562	-3.5167	-4.1958	423.847	167.438	140.468	426.973	403.704	188.843	108.900	412.287	268.492	266.305	394.654	396.584	132.868	172.572	290.491	375.292	0.00024831	0.00019192	5.4309e-05	975.52	2.8167e-06	2.4414e-06	1058.9	206.44	2.6595e-06	2.8389e-06	263.05	75.037	58.238	17.12	2.5537e-06	24	0.00017053	0.00010135	2.7592e-05	961.06	1.4314e-06	1.1833e-06	1048.4	205.72	1.4719e-06	1.1696e-06	263.74	75.253	58.62	17.355	1.3264e-06	24.439	195.206	178.330	160.596	98.310	243.850	248.030	98.817	105.835	235.300	232.451	105.040	112.356	112.852	119.611	259.047	119.278	-8191	255	
904.970	1	1	0	0	0.11739	0.07987	0.26086	0.17351	0.1643	0.19242	0.041721	0.06735	0.26646	0.10403	0.047615	0.11075	0.30785	0.088974	0.080567	0.11169	-3.0625	-3.7729	-3.9458	-3.5708	-4.1312	-3.9	-3.4896	-4.1833	-3.4271	-3.6854	-3.9625	-3.2604	-4.1188	-3.5854	-3.4146	-4.2271	177.228	379.661	294.885	432.889	224.518	435.773	439.845	414.875	415.503	150.330	155.664	445.942	129.636	106.489	284.009	309.389	0.00021681	0.00020522	8.897e-05	971.35	2.9062e-06	2.911e-06	1056.8	206.11	2.3821e-06	2.366e-06	262.96	75.048	58.202	16.993	2.2782e-06	24.225	0.00016803	0.00010696	2.9554e-05	960.39	1.4741e-06	1.1806e-06	1049.2	205.46	1.4055e-06	1.218e-06	263.56	75.311	58.503	17.342	1.3378e-06	24.524	193.206	164.344	158.691	98.280	250.874	239.349	98.689	106.116	256.077	245.981	105.591	112.944	112.966	120.738	218.728	119.378	-8191	255	
905.090	1	1	0	0	0.21765	0.16576	0.20144	0.2479	0.22804	0.2028	0.23086	0.054821	0.22369	0.15353	0.31354	0.34856	0.12117	0.067889	0.10902	0.15815	-3.1958	-3.6042	-4.0104	-3.2354	-3.9625	-3.6771	-3.575	-4.3354	-3.4896	-3.6854	-4.0167	-3.4292	-3.9229	-3.7313	-3.4083	-4.1792	416.845	315.409	336.508	348.904	417.748	252.349	376.286	360.282	237.514	438.464	401.048	405.564	333.151	417.218	421.085	425.673	0.00021295	0.00031182	6.6985e-05	976.11	2.42e-06	3.7155e-06	1058.4	206.44	2.4435e-06	1.9497e-06	264.28	74.691	57.928	17.153	2.0654e-06	24.005	0.00015816	0.00010469	2.8168e-05	961.96	1.4065e-06	1.1853e-06	1049.2	205.89	1.3496e-06	1.2056e-06	263.89	75.067	58.339	17.365	1.2976e-06	24.482	197.736	179.238	177.298	98.784	241.223	231.121	98.526	106.122	249.274	220.463	105.571	112.848	112.986	120.198	252.737	120.069	-8191	255	
905.186	1	1	0	0	0.25636	0.20858	0.23941	0.19528	0.27625	0.10652	0.11883	0.14218	0.14929	0.13171	0.12677	0.060056	0.19725	0.16232	0.22246	0.091876	-3.1167	-3.5229	-4.1062	-3.475	-3.8792	-3.9437	-3.3854	-4.025	-3.6625	-3.4708	-4.1896	-3.3812	-3.8333	-3.9313	-3.1771	-4.2417	434.518	271.207	191.906	441.799	152.453	214.386	370.099	317.829	127.658	292.824	358.387	310.136	131.135	395.877	208.844	152.877	0.00023029	0.00019558	9.8135e-05	973.42	3.1577e-06	1.8126e-06	1058.2	206.3	2.2348e-06	2.4657e-06	264.35	74.735	58.263	17.099	2.3067e-06	23.793	0.00016215	0.00011206	2.659e-05	962.19	1.5006e-06	1.1966e-06	1047.6	205.79	1.4753e-06	1.2366e-06	263.49	75.237	58.612	17.377	1.2926e-06	24.344	196.854	160.033	188.069	98.673	238.025	232.773	99.086	106.290	266.341	241.353	105.481	112.502	113.369	120.122	235.924	119.611	-8191	255	
905.282	1	1	0	0	0.10919	0.10871	0.11854	0.18497	0.14773	0.062545	0.27018	0.041704	0.040756	0.17096	0.20817	0.2249	0.19461	0.097669	0.16528	0.09175	-3.4375	-3.4458	-3.9729	-3.65	-3.8	-4.0625	-3.5375	-4.0271	-3.875	-3.375	-4.4062	-3.5854	-3.9021	-4.2063	-3.55	-4.025	173.562	417.933	419.528	377.988	326.991	118.274	428.187	219.711	259.876	390.529	330.439	339.113	125.651	155.645	222.645	430.189	0.00022627	0.00037325	4.0437e-05	971.27	2.842e-06	1.9436e-06	1057.4	206.79	2.7586e-06	5.8267e-07	264.01	74.754	58.357	17.073	2.0962e-06	23.781	0.00016382	0.00012252	2.7275e-05	958.73	1.4354e-06	1.0985e-06	1048.6	205.79	1.3661e-06	1.308e-06	263.75	75.226	58.623	17.36	1.3223e-06	24.415	199.942	166.200	204.759	98.595	238.531	270.316	98.642	106.425	253.014	219.798	105.417	112.158	112.770	119.897	242.084	118.912	-8191	255	
905.379	1	1	0	0	0.20573	0.16987	0.2738	0.12211	0.30875	0.27761	0.3269	0.064961	0.15515	0.11574	0.2113	0.23567	0.1024	0.059448	0.23622	0.23974	-3.3521	-3.4458	-4.0542	-3.7042	-3.5396	-4.1021	-3.4188	-4.1083	-3.6937	-3.3583	-4.1833	-3.5812	-3.6125	-3.9708	-3.3646	-3.9042	277.318	355.396	195.475	419.551	193.083	391.246	379.881	440.109	313.850	275.803	392.734	311.728	356.879	319.810	404.025	132.131	0.00020969	0.00034792	0.00011189	967.53	2.4396e-06	1.9362e-06	1057.2	205.84	2.1218e-06	2.4329e-06	265.9	74.269	58.192	16.987	2.229e-06	24.187	0.00015623	0.00010985	3.0272e-05	958.11	1.492e-06	1.1966e-06	1047.6	205.78	1.4422e-06	1.228e-06	264.44	75.349	58.561	17.307	1.2492e-06	24.517	195.556	171.185	180.139	98.050	246.409	255.575	98.207	105.960	244.840	247.069	105.670	112.199	112.899	119.822	243.266	118.926	-8191	255	
905.475	1	1	0	0	0.11035	0.33043	0.17008	0.060048	0.073142	0.078656	0.13001	0.17395	0.047917	0.12366	0.092301	0.042672	0.1345	0.25024	0.20693	0.10765	-3.4208	-3.3375	-4.0417	-3.6458	-3.5625	-4.0563	-3.4854	-3.8104	-3.8521	-3.2938	-4.225	-3.7354	-3.5396	-4.0938	-3.4208	-3.8333	342.420	320.153	323.739	130.238	147.986	269.606	430.286	92.676	172.090	380.263	393.786	283.076	219.452	338.098	109.578	112.913	0.00023407	0.00029581	5.1916e-05	972.47	2.8842e-06	3.0905e-06	1056	205.59	2.297e-06	4.04e-06	263.88	74.862	58.135	17.1	2.4653e-06	23.965	0.00015869	0.00011933	3.0622e-05	958.63	1.5455e-06	1.0456e-06	1047.8	205.48	1.412e-06	1.1803e-06	263.71	75.329	58.636	17.342	1.3141e-06	24.449	195.886	190.770	148.835	98.166	237.052	253.617	97.984	105.933	260.300	250.077	105.367	112.228	112.580	120.230	246.813	119.136	-8191	255	
905.571	1	1	0	0	0.16404	0.12284	0.23668	0.13843	0.12258	0.088236	0.20829	0.13158	0.19009	0.2648	0.049715	0.17771	0.29172	0.15673	0.16594	0.28536	-3.5396	-3.3854	-4.0583	-3.8625	-3.3438	-4.0479	-3.5604	-3.675	-4.0083	-3.4313	-3.875	-3.8271	-3.3271	-4.1271	-3.5687	-3.6937	248.094	116.237	269.737	387.035	347.247	431.404	393.243	98.782	285.160	247.383	328.765	375.637	99.443	432.693	302.015	99.987	0.00023859	0.00028273	8.2872e-05	972.18	3.5669e-06	2.798e-06	1057.6	205.3	2.2053e-06	2.2247e-06	266.16	74.526	58.062	17.143	1.3475e-06	24.202	0.00015998	0.0001213	3.0739e-05	959.49	1.4474e-06	1.2059e-06	1047.4	205.29	1.3419e-06	1.2576e-06	264.53	75.093	58.497	17.373	1.284e-06	24.478	197.079	180.554	201.328	98.183	231.065	228.967	98.192	106.372	238.641	229.932	105.193	112.485	112.967	120.183	237.035	119.522	-8191	255	
905.667	1	1	0	0	0.053744	0.15362	0.14751	0.17176	0.10187	0.15164	0.07899	0.12748	0.22434	0.11069	0.19522	0.30774	0.05716	0.1238	0.13117	0.075675	-3.7771	-3.0979	-4.0458	-3.8771	-3.2979	-4.0604	-3.5167	-3.7062	-4.1708	-3.3333	-3.925	-3.9708	-3.1562	-4.0375	-3.6667	-3.575	246.524	369.161	163.962	156.657	130.361	306.456	294.313	126.045	253.803	309.388	394.397	92.526	375.363	344.507	313.095	96.195	0.00022381	0.0002596	9.2692e-05	975.1	3.4465e-06	2.4063e-06	1059.9	206.97	3.4858e-06	2.464e-06	265.19	74.629	58.233	17.191	3.3535e-06	24.176	0.0001582	0.00012017	3.0639e-05	960.27	1.4981e-06	1.1227e-06	1048.2	206.09	1.3771e-06	1.1566e-06	263.72	75.115	58.598	17.403	1.2653e-06	24.48	194.217	172.360	180.184	97.996	234.067	244.736	98.311	106.091	249.712	242.648	105.469	112.200	112.725	120.435	247.372	119.525	-8191	255	
905.786	1	1	0	0	0.14967	0.17376	0.15582	0.1918	0.19884	0.0060077	0.14616	0.039261	0.21271	0.1614	0.19413	0.031303	0.33439	0.048274	0.14023	0.12975	-3.7042	-3.375	-3.8583	-4.0375	-3.3417	-4.0542	-3.875	-3.4875	-4.1833	-3.425	-3.8583	-4.075	-3.2396	-4.0792	-3.7625	-3.3854	299.728	139.261	220.472	401.947	256.850	435.046	422.010	383.043	277.431	274.755	167.962	147.932	107.081	171.747	234.802	345.930	0.00023007	0.00020555	9.2087e-05	968.91	3.7651e-06	2.8368e-06	1055.6	207.34	2.9591e-06	3.1215e-06	264.69	74.869	57.929	17.06	1.8507e-06	24.029	0.00015858	0.00011009	3.2108e-05	958.83	1.4498e-06	1.0829e-06	1047.4	206.29	1.3373e-06	1.2543e-06	263.74	75.201	58.428	17.36	1.2508e-06	24.461	193.885	171.424	176.706	98.265	230.417	244.341	98.598	106.377	255.994	269.525	105.463	112.602	112.818	120.630	246.565	119.026	-8191	255	
905.882	1	1	0	0	0.19861	0.25951	0.081447	0.047577	0.10073	0.013306	0.1216	0.06155	0.31655	0.14547	0.01299	0.047353	0.14684	0.21071	0.20726	0.16549	-3.925	-3.4458	-3.7708	-4.125	-3.2875	-4.0354	-4.1438	-3.3937	-4.1521	-3.3688	-3.8208	-4.1896	-3.3312	-3.9375	-3.9417	-3.3042	287.055	187.259	306.788	126.723	219.585	295.012	287.346	352.491	343.339	225.231	376.641	159.880	333.481	422.072	391.713	341.231	0.00021531	0.00035246	7.2738e-05	965.64	2.5453e-06	2.0449e-06	1057.2	207.37	3.5112e-06	2.4523e-06	265.05	74.566	57.992	17.14	3.0953e-06	23.941	0.00016162	0.00011456	2.9078e-05	957.29	1.5695e-06	1.2002e-06	1047.7	206.07	1.3392e-06	1.266e-06	264.07	75.188	58.542	17.392	1.2318e-06	24.438	195.221	168.334	151.934	98.191	255.649	240.924	98.510	106.194	252.167	227.596	105.420	112.123	112.575	120.926	253.641	119.221	-8191	255	
905.978	1	1	0	0	0.12971	0.058095	0.078047	0.17779	0.25567	0.25471	0.11911	0.13738	0.17948	0.18266	0.15193	0.01953	0.10954	0.0063864	0.098715	0.29317	-3.7979	-3.6813	-3.5687	-4.1854	-3.3417	-3.8688	-3.9792	-3.3688	-4.0437	-3.6604	-3.5896	-4.0646	-3.4833	-3.8458	-3.9271	-3.2667	223.105	146.549	334.748	430.812	431.065	256.463	271.811	444.135	255.644	235.665	374.994	124.414	160.164	433.087	236.871	348.924	0.00023332	0.00037975	6.5379e-05	973.71	2.9628e-06	1.6574e-06	1063.2	205.53	2.1252e-06	1.7882e-06	264.18	74.965	58.108	17.157	1.91e-06	24.171	0.00015951	0.00010979	3.281e-05	960.39	1.5765e-06	1.1533e-06	1048.9	205.51	1.3884e-06	1.1443e-06	263.96	75.289	58.489	17.411	1.2619e-06	24.496	191.916	163.244	165.431	98.309	256.936	271.257	98.643	106.264	271.539	242.683	105.691	113.077	112.914	120.095	238.620	119.498	-8191	255	
906.074	1	1	0	0	0.15224	0.13751	0.064008	0.13064	0.17657	0.28684	0.11756	0.14513	0.14234	0.20125	0.25453	0.066891	0.035418	0.077422	0.096576	0.16439	-3.5521	-3.7667	-3.4458	-4.2125	-3.4271	-3.7438	-4.1229	-3.3771	-3.8688	-3.6896	-3.5	-4.3	-3.4292	-3.7958	-4.1375	-3.0833	283.664	187.950	140.864	417.403	218.409	439.002	104.329	166.423	402.515	318.989	432.343	149.105	299.697	175.192	389.831	166.025	0.0002225	0.00022954	5.8756e-05	969.01	3.2061e-06	2.8032e-06	1056.4	206.7	2.4745e-06	2.2408e-06	265.62	74.837	58.084	17.195	2.4562e-06	24.017	0.00015964	0.00010499	3.0948e-05	958.24	1.6307e-06	1.2338e-06	1047.4	205.58	1.2575e-06	1.2276e-06	264.13	75.451	58.549	17.383	1.1565e-06	24.41	196.507	150.413	197.176	98.370	238.943	254.252	98.408	105.943	241.753	253.111	105.076	112.502	112.903	120.065	247.068	119.429	-8191	255	
906.171	1	1	0	0	0.2516	0.2791	0.12131	0.18311	0.1361	0.061173	0.25465	0.27917	0.10925	0.085491	0.14895	0.089859	0.03537	0.40574	0.27721	0.19507	-3.5396	-3.7646	-3.3625	-4.2167	-3.5208	-3.7083	-4.2896	-3.325	-3.8875	-4.0146	-3.5312	-4.1604	-3.7646	-3.6771	-4.1458	-3.4021	233.680	180.723	166.248	384.495	291.778	93.981	398.702	420.814	301.080	372.124	315.068	382.379	404.057	375.786	358.596	130.190	0.00022474	0.00025247	8.2893e-05	972.12	3.9175e-06	3.7928e-06	1061.6	205.89	1.9018e-06	2.8036e-06	266.13	75.423	57.744	17.185	2.0426e-06	24.127	0.00016816	0.00010851	3.3494e-05	959	1.4987e-06	1.3049e-06	1050.5	205.18	1.3266e-06	1.1193e-06	264.7	75.408	58.262	17.402	1.1938e-06	24.47	195.227	180.245	172.346	98.007	236.564	243.145	98.411	105.976	256.081	217.704	105.439	112.316	112.970	120.421	256.295	119.058	-8191	255	
906.267	1	1	0	0	0.12816	0.069691	0.091724	0.21688	0.17011	0.11349	0.19171	0.13729	0.069984	0.17754	0.1269	0.15428	0.16181	0.036655	0.10357	0.1499	-3.5187	-4.0062	-3.3146	-4.2875	-3.5958	-3.2917	-4.3187	-3.3083	-3.6792	-4.125	-3.4625	-4.2	-3.5812	-3.4083	-4.1062	-3.3875	290.557	328.055	398.877	396.219	368.320	91.413	413.538	270.324	441.980	395.449	396.379	416.503	287.543	159.428	99.896	177.575	0.00022741	0.00026502	8.1365e-05	969	3.1496e-06	1.7117e-06	1063.2	205.18	2.6349e-06	2.2919e-06	264.39	74.809	57.991	17.156	1.8858e-06	24.109	0.00016034	9.6582e-05	3.0155e-05	957.68	1.4704e-06	1.2468e-06	1047.3	205.44	1.3945e-06	1.1646e-06	263.41	75.133	58.264	17.363	1.2125e-06	24.451	195.725	165.569	176.929	98.472	230.321	243.186	98.464	105.912	257.497	228.257	105.530	112.658	113.128	120.010	240.388	119.137	-8191	255	
906.363	1	1	0	0	0.087433	0.24424	0.086167	0.069313	0.13619	0.11474	0.090616	0.040472	0.27237	0.15602	0.06429	0.038292	0.14197	0.35204	0.13381	0.14531	-3.3104	-4.1479	-3.4208	-3.8604	-3.8063	-3.4188	-4.225	-3.4979	-3.5979	-4.0437	-3.2687	-3.9667	-3.8417	-3.2333	-4.2438	-3.5375	260.269	307.002	396.216	352.317	180.115	105.074	105.190	347.909	444.422	373.408	394.873	258.722	121.288	321.638	338.698	98.194	0.00025891	0.00031659	0.00010565	970.68	2.7082e-06	2.0855e-06	1061	205.7	2.464e-06	3.2978e-06	264	74.393	58.482	17.057	2.7207e-06	24.083	0.00017275	9.7685e-05	3.1691e-05	959.03	1.4889e-06	1.2601e-06	1046.7	205.4	1.4178e-06	1.1486e-06	264.02	75.1	58.49	17.358	1.2907e-06	24.433	197.104	184.289	182.824	98.439	229.033	231.750	98.385	105.892	256.510	237.949	105.644	112.413	112.661	120.287	247.301	119.075	-8191	255	
906.482	1	1	0	0	0.16551	0.10692	0.17774	0.3712	0.10334	0.17083	0.13949	0.16957	0.099654	0.1774	0.22067	0.14209	0.070407	0.23002	0.079025	0.067881	-3.1083	-4.1667	-3.5125	-4.0188	-3.875	-3.4208	-4.3208	-3.7229	-3.4646	-4.1042	-3.4146	-3.8375	-4.0396	-3.1417	-4.0979	-3.6896	192.955	111.128	387.572	431.815	441.040	208.199	407.586	359.453	148.556	369.352	121.029	183.361	324.263	440.370	128.396	245.222	0.00023414	0.00020555	7.383e-05	971.47	2.62e-06	2.6517e-06	1055.2	204.59	3.018e-06	3.0711e-06	263.8	74.912	57.794	17.224	2.6028e-06	23.932	0.00016867	0.00011069	3.1925e-05	959.27	1.4563e-06	1.3475e-06	1046.7	205.35	1.4175e-06	1.1406e-06	263.27	75.365	58.427	17.429	1.2808e-06	24.367	196.277	192.995	193.035	98.122	250.049	234.539	98.361	105.948	269.716	218.101	105.464	112.211	112.757	119.778	246.704	119.207	-8191	255	
906.578	1	1	0	0	0.14023	0.23806	0.13865	0.035699	0.19863	0.056547	0.20935	0.14112	0.16577	0.20901	0.23125	0.05507	0.17169	0.19402	0.24453	0.23256	-3.0104	-4.1708	-3.3542	-3.8479	-4.0417	-3.2562	-4.15	-3.7083	-3.4271	-4.0646	-3.4562	-3.6271	-3.9875	-3.2438	-3.8729	-3.7812	421.842	131.725	329.208	152.099	139.084	149.305	434.689	340.752	227.156	95.463	377.355	95.219	147.914	109.037	162.407	377.692	0.00022197	0.00033186	6.1944e-05	967.53	2.7737e-06	1.7842e-06	1062.6	206.04	3.4541e-06	2.0929e-06	263.6	74.844	57.926	17.28	2.1541e-06	23.841	0.00016871	0.00011006	3.1165e-05	957.83	1.4615e-06	1.288e-06	1049.6	205.4	1.4817e-06	1.251e-06	263.6	75.353	58.493	17.378	1.2796e-06	24.405	191.026	164.192	188.112	98.414	251.799	242.983	98.369	105.953	240.771	209.834	105.171	111.795	112.247	120.092	228.269	118.543	-8191	255	
906.651	1	1	0	0	0.062308	0.11246	0.29893	0.06875	0.1882	0.02615	0.1679	0.19637	0.079842	0.098478	0.11404	0.10169	0.15404	0.14104	0.13379	0.22996	-2.9667	-4.1479	-3.5208	-3.8917	-4.0354	-3.5104	-3.9875	-3.9083	-3.1979	-4.1583	-3.5375	-3.6083	-4.2021	-3.425	-3.7229	-3.8708	288.476	262.716	102.363	432.329	408.174	126.908	427.037	343.540	334.359	370.757	427.156	236.443	203.567	425.964	419.795	171.234	0.00022584	0.00035775	7.8132e-05	971.24	3.6345e-06	2.6988e-06	1061.1	205.79	2.3622e-06	1.6045e-06	266.2	74.965	57.918	17.211	2.7764e-06	24.145	0.00017112	0.00011423	3.2367e-05	959.48	1.5372e-06	1.3907e-06	1048.3	205.6	1.471e-06	1.1486e-06	264.15	75.288	58.445	17.391	1.4074e-06	24.515	195.082	153.724	182.335	98.459	223.450	237.801	98.689	106.046	239.306	237.578	105.186	112.451	112.740	119.953	248.834	119.243	-8191	255	
906.747	1	1	0	0	0.10969	0.065085	0.11733	0.093999	0.35241	0.15554	0.29595	0.14684	0.16083	0.19043	0.25	0.13677	0.070759	0.33965	0.2465	0.20922	-3.0292	-4.025	-3.6479	-3.3979	-4.1417	-3.4958	-3.7833	-4.1458	-3.275	-4.175	-3.6813	-3.475	-4.0792	-3.4125	-3.6729	-3.9083	337.341	440.621	222.537	333.998	297.748	131.677	426.669	151.570	182.589	338.826	377.876	103.668	207.034	329.431	193.163	427.481	0.00022531	0.00033813	8.107e-05	965.27	2.6911e-06	2.5781e-06	1058.8	205	2.9527e-06	3.4964e-06	265.04	74.614	58.501	17.126	2.3771e-06	24.019	0.00016514	0.00011215	3.1958e-05	957.41	1.3895e-06	1.3329e-06	1049.4	205.55	1.5621e-06	1.092e-06	263.95	75.098	58.571	17.354	1.3669e-06	24.407	193.837	189.151	182.138	97.902	258.519	219.856	98.073	105.919	243.921	243.777	104.849	112.032	112.443	119.000	232.355	118.950	-8191	255	
906.866	1	1	0	0	0.25998	0.14191	0.00019954	0.10686	0.20412	0.17218	0.090861	0.080081	0.28025	0.14536	0.017432	0.094131	0.30879	0.10257	0.14596	0.09734	-2.9375	-3.9521	-3.8542	-3.5833	-4.1771	-3.4125	-3.7604	-4.0542	-3.3729	-3.9667	-4.0062	-3.2792	-4.0354	-3.4542	-3.4208	-4.1813	310.288	138.175	180.000	128.867	403.127	285.437	309.073	370.152	97.517	354.030	338.860	234.215	150.150	172.515	396.257	227.923	0.00020434	0.00020106	0.0001161	965.77	2.2308e-06	2.0159e-06	1056.3	205.58	2.4073e-06	3.3854e-06	264.24	73.987	58.044	16.953	2.683e-06	24.21	0.00016607	0.00012211	3.1432e-05	957.76	1.4569e-06	1.2847e-06	1048.2	205.7	1.4698e-06	1.324e-06	263.59	75.034	58.339	17.309	1.4141e-06	24.496	197.240	169.707	187.481	97.906	233.805	244.212	98.249	105.557	261.983	248.737	104.596	111.816	112.358	119.633	254.472	118.488	-8191	255	
906.962	1	1	0	0	0.092613	0.10118	0.045456	0.15877	0.10965	0.22017	0.063782	0.14685	0.27157	0.18031	0.12999	0.34363	0.034829	0.060742	0.11799	0.05867	-2.9458	-3.825	-3.8667	-3.5604	-4.1438	-3.5354	-3.7417	-4.2	-3.3646	-3.8875	-3.9458	-3.3167	-4.0542	-3.65	-3.45	-4.1125	420.049	213.640	223.237	391.127	189.829	419.986	380.349	399.841	125.239	233.264	169.036	423.054	421.922	398.324	267.272	440.259	0.00022828	0.00032617	7.1308e-05	972.97	2.4645e-06	2.2725e-06	1054.2	205.44	2.4635e-06	2.5322e-06	263.09	74.268	57.951	16.933	2.5185e-06	24.062	0.0001686	0.00013177	3.1841e-05	959.81	1.4852e-06	1.3242e-06	1047	205.24	1.4566e-06	1.409e-06	262.63	75.067	58.424	17.325	1.4248e-06	24.432	195.556	167.399	160.343	97.777	220.259	252.096	97.902	105.273	242.901	220.411	104.709	112.036	111.991	119.166	231.008	118.886	-8191	255	
907.059	1	1	0	0	0.095662	0.14686	0.078328	0.13141	0.11272	0.095562	0.1206	0.26257	0.21707	0.13493	0.10467	0.17193	0.097985	0.092201	0.12486	0.14142	-3.0438	-3.7625	-3.9167	-3.3396	-3.9062	-3.725	-3.6083	-4.2937	-3.3958	-3.5104	-4.0833	-3.3646	-4.1208	-3.7438	-3.5167	-4.0667	271.077	314.199	117.009	232.679	216.705	171.605	314.556	416.794	403.327	148.506	285.614	320.345	336.677	175.708	170.077	135.999	0.00021872	0.00038001	8.6866e-05	968.35	2.6054e-06	3.555e-06	1057.8	205.96	2.9058e-06	2.5882e-06	261.27	74.728	57.74	17.048	3.1921e-06	24.212	0.00016856	0.00011397	3.367e-05	957.33	1.5372e-06	1.3229e-06	1047.4	205.64	1.397e-06	1.2923e-06	263.03	75.204	58.392	17.349	1.3163e-06	24.487	197.139	196.279	172.324	98.025	234.260	231.699	98.045	105.544	251.511	206.299	104.800	112.126	112.279	119.361	241.623	118.557	-8191	255	
907.179	1	1	0	0	0.17834	0.067368	0.15719	0.04627	0.16482	0.18403	0.30081	0.14479	0.12575	0.14877	0.24431	0.17025	0.25153	0.13332	0.15771	0.17131	-3.1813	-3.7021	-4.1917	-3.5521	-3.8958	-3.8292	-3.5812	-4.1208	-3.4979	-3.4333	-4.1229	-3.2979	-3.8458	-3.8167	-3.275	-4.175	267.960	115.554	123.664	202.482	408.816	198.551	381.777	357.095	98.949	177.015	396.828	126.951	297.822	396.833	367.268	221.605	0.00021708	0.00030043	7.6307e-05	969.51	2.542e-06	1.6665e-06	1062.1	206.3	2.041e-06	3.2226e-06	264.25	74.79	58.462	17.041	2.5839e-06	24.198	0.0001663	0.00011167	3.3043e-05	959.19	1.4707e-06	1.2102e-06	1051.6	205.91	1.4997e-06	1.3856e-06	263.72	75.478	58.702	17.38	1.322e-06	24.469	196.197	164.749	193.801	97.802	242.676	284.703	97.711	105.511	249.203	226.676	104.765	111.853	112.565	119.359	250.465	118.932	-8191	255	
907.251	1	1	0	0	0.29448	0.15576	0.15086	0.1257	0.13015	0.1218	0.21432	0.25213	0.053188	0.18876	0.17043	0.076839	0.11602	0.11579	0.32202	0.092843	-3.3083	-3.4	-4.0917	-3.4146	-3.6604	-4.0312	-3.4042	-4.0917	-3.5896	-3.4854	-4.1917	-3.4833	-3.7333	-3.9146	-3.3771	-4.0333	165.373	446.184	111.011	100.613	244.492	100.493	349.276	333.871	129.980	248.775	113.886	382.355	89.373	120.782	190.133	325.166	0.00024102	0.00022178	7.0658e-05	969.01	2.635e-06	1.1601e-06	1056.9	205.67	2.4714e-06	3.1054e-06	262.96	74.407	57.962	17.136	2.056e-06	24.148	0.00017197	0.00011787	2.9003e-05	958.13	1.5169e-06	1.1557e-06	1047.5	205.87	1.5233e-06	1.2496e-06	263.81	75.092	58.394	17.379	1.3505e-06	24.551	195.185	166.335	153.248	97.881	251.560	217.674	97.866	105.627	237.549	209.679	104.723	111.525	111.965	119.544	262.108	118.791	-8191	255	
907.347	1	1	0	0	0.12843	0.20808	0.14685	0.29912	0.16443	0.15798	0.2206	0.20433	0.20964	0.27481	0.055564	0.15393	0.34185	0.15273	0.074382	0.15406	-3.4021	-3.35	-4.0896	-3.5354	-3.5792	-4.1458	-3.3604	-4.0271	-3.725	-3.2917	-4.2229	-3.4583	-3.7083	-4.1104	-3.3438	-3.8771	370.718	413.239	264.309	371.647	402.049	362.588	422.758	378.159	191.256	438.640	411.345	305.057	447.517	103.937	417.930	419.363	0.00023767	0.00018702	5.3004e-05	972.3	2.623e-06	3.5964e-06	1060.7	206.66	2.2469e-06	1.418e-06	262.13	74.979	58.157	17.086	2.1826e-06	24.313	0.00016408	0.00011936	3.0464e-05	959.32	1.5215e-06	1.1078e-06	1049	206.19	1.3909e-06	1.2916e-06	263.09	75.396	58.441	17.357	1.315e-06	24.542	194.158	159.624	178.102	97.751	242.536	252.923	97.841	105.514	231.758	228.908	104.866	111.458	112.108	119.659	253.791	118.936	-8191	255	
907.468	1	1	0	0	0.26306	0.32209	0.083935	0.053142	0.094866	0.058199	0.089687	0.10451	0.1247	0.22797	0.096384	0.22285	0.20464	0.21006	0.1	0.11191	-3.45	-3.4	-4.1813	-3.6958	-3.5563	-4.1833	-3.5167	-3.9896	-4.0167	-3.2229	-4.1479	-3.6688	-3.4958	-4.2667	-3.3063	-3.8104	185.821	294.018	270.739	172.888	110.726	100.418	380.655	306.680	293.520	414.229	430.521	100.045	138.672	406.140	410.210	269.864	0.00022726	0.00019613	8.788e-05	967.82	2.5778e-06	1.8944e-06	1055.5	207.39	1.8668e-06	2.4132e-06	264.56	75.017	57.986	17.238	1.272e-06	23.963	0.00016778	0.0001202	2.8986e-05	958.37	1.4956e-06	1.1969e-06	1047.1	206.26	1.4123e-06	1.236e-06	264.25	75.414	58.587	17.429	1.36e-06	24.414	192.361	167.472	181.622	97.740	239.180	234.774	97.883	105.543	257.694	270.657	104.835	111.688	112.398	119.363	250.818	119.272	-8191	255	
907.564	1	1	0	0	0.04248	0.13832	0.09542	0.13972	0.18861	0.23275	0.11441	0.25087	0.073426	0.093572	0.21966	0.1938	0.16801	0.090905	0.17049	0.10614	-3.675	-3.3042	-3.9917	-3.7458	-3.3833	-4.0188	-3.4542	-3.7708	-4.1792	-3.2438	-4.0229	-3.7583	-3.5417	-4.1771	-3.3063	-3.6417	358.460	365.007	409.441	437.430	218.298	209.372	109.954	441.610	110.330	368.097	137.752	354.026	371.577	446.298	362.369	116.833	0.00023458	0.00021792	9.5777e-05	971.06	2.7742e-06	2.8072e-06	1055.9	206.37	3.2599e-06	3.3058e-06	264.17	74.663	58.187	17.144	1.9348e-06	24.105	0.00016806	0.0001244	3.2568e-05	959.38	1.5184e-06	1.1912e-06	1049	205.94	1.3893e-06	1.3936e-06	263.67	75.138	58.595	17.328	1.3628e-06	24.453	193.712	182.282	186.498	97.655	254.346	268.901	98.085	105.708	260.300	217.130	104.912	111.783	112.215	119.570	235.267	118.955	-8191	255	
907.658	1	1	0	0	0.36141	0.07052	0.15132	0.13687	0.086836	0.10708	0.27231	0.17325	0.12391	0.20009	0.20104	0.1617	0.11772	0.27181	0.085303	0.11082	-3.7188	-3.3146	-3.8812	-3.8917	-3.3667	-4.2208	-3.4542	-3.6937	-3.9417	-3.4271	-3.9375	-3.8979	-3.2479	-4.2208	-3.5021	-3.5604	445.300	332.347	211.265	206.101	262.468	329.227	374.064	382.337	291.919	122.356	373.325	354.752	348.382	116.799	102.837	333.525	0.00020993	0.00027503	7.1426e-05	969.32	3.2951e-06	1.8597e-06	1062.5	206.27	2.3342e-06	1.3481e-06	263.61	74.269	58.247	17.126	1.9009e-06	24.147	0.00015378	0.00011835	3.1633e-05	958.61	1.5239e-06	1.2248e-06	1048.9	205.67	1.4104e-06	1.4036e-06	263.41	75.135	58.485	17.399	1.3666e-06	24.473	198.670	224.965	186.126	97.537	237.338	230.277	98.109	105.753	249.829	241.165	104.803	111.709	112.160	119.536	237.266	118.601	-8191	255	
907.779	1	1	0	0	0.085993	0.11797	0.12374	0.29587	0.12788	0.1227	0.16818	0.15112	0.17484	0.17617	0.13903	0.094457	0.2031	0.2127	0.050027	0.18134	-3.7417	-3.2458	-3.8646	-3.9354	-3.4208	-3.9333	-3.7646	-3.35	-4.025	-3.3604	-3.9229	-3.8812	-3.2167	-4.0146	-3.7	-3.4042	192.479	105.202	173.392	93.308	121.227	305.026	383.238	388.343	319.431	284.009	435.061	170.542	433.211	89.888	182.368	328.737	0.00025028	0.00025295	5.2504e-05	966.3	3.7602e-06	2.1401e-06	1055.2	205.06	2.3778e-06	1.2182e-06	265.36	75.12	58.206	17.095	2.0599e-06	23.991	0.0001733	0.00012607	3.0631e-05	959.43	1.6137e-06	1.1939e-06	1046.8	205.57	1.3566e-06	1.2423e-06	264.37	75.343	58.472	17.365	1.3555e-06	24.388	194.346	174.204	176.788	97.873	242.993	245.717	97.799	105.756	254.991	223.974	105.232	112.002	112.310	119.296	259.566	118.935	-8191	255	
907.875	1	1	0	0	0.16719	0.2066	0.066508	0.058573	0.10192	0.055716	0.22734	0.18438	0.16057	0.31316	0.12485	0.24288	0.1569	0.027532	0.12834	0.29164	-3.6875	-3.2125	-3.8083	-3.9896	-3.3604	-4.025	-3.7708	-3.3146	-4.1521	-3.6042	-3.8812	-4.0271	-3.2917	-3.8208	-3.6146	-3.4458	372.172	338.172	386.310	292.386	131.720	209.986	406.141	349.224	177.525	177.401	103.872	176.188	324.880	403.754	399.420	344.816	0.00024085	0.00031129	8.7724e-05	971.88	3.3757e-06	2.92e-06	1051.9	206.06	1.807e-06	2.6685e-06	264.73	74.801	57.678	17.187	1.0366e-06	23.93	0.00016319	0.00011608	3.498e-05	960.19	1.5215e-06	1.1327e-06	1048.3	205.73	1.412e-06	1.2886e-06	264.48	75.134	58.297	17.351	1.1954e-06	24.404	195.337	164.753	174.056	97.649	273.520	232.724	98.108	105.513	254.017	225.394	104.929	111.658	112.479	119.498	210.353	119.082	-8191	255	
907.947	1	1	0	0	0.33752	0.20682	0.048513	0.089624	0.12943	0.15213	0.21735	0.1564	0.20245	0.2751	0.050896	0.22404	0.12798	0.15327	0.17908	0.13596	-3.7438	-3.2396	-3.5479	-4.2063	-3.1146	-3.85	-3.9917	-3.4042	-4.1021	-3.6417	-3.6979	-4.1438	-3.3229	-3.8542	-3.8438	-3.4354	437.528	90.039	394.717	384.104	271.180	412.316	407.793	213.927	346.725	198.176	319.682	143.825	356.607	314.519	101.884	376.151	0.00022638	0.00029341	0.00010105	965.98	2.6631e-06	3.5292e-06	1058.1	205.9	2.6005e-06	2.0092e-06	262.87	74.559	58.096	17.192	1.6462e-06	24.066	0.0001605	0.00011119	3.2309e-05	957.77	1.5596e-06	1.1946e-06	1048.5	205.77	1.337e-06	1.2236e-06	263.13	75.235	58.57	17.423	1.2365e-06	24.471	193.947	175.919	177.921	97.816	224.078	237.168	98.096	105.967	247.780	233.967	105.079	112.087	112.248	119.978	229.385	119.122	-8191	255	
908.043	1	1	0	0	0.054331	0.28919	0.18212	0.07049	0.14324	0.20964	0.1852	0.17714	0.18145	0.06217	0.21069	0.066627	0.073091	0.12841	0.17519	0.16425	-3.7104	-3.6771	-3.6708	-4.3458	-3.2812	-3.8438	-4.0854	-3.2646	-4.0417	-3.8979	-3.7083	-4.175	-3.4479	-3.7708	-4.1062	-3.3187	160.879	393.416	279.376	239.596	101.562	260.621	352.390	335.470	388.492	312.077	379.987	375.544	443.363	299.095	239.501	358.194	0.00021584	0.00024393	8.3001e-05	970.15	2.3099e-06	2.5723e-06	1054.4	205.65	2.1768e-06	2.1886e-06	264.25	75.15	57.859	17.037	1.9386e-06	24.179	0.0001622	0.00011438	3.2284e-05	957.68	1.4833e-06	1.1351e-06	1047.7	205.7	1.3704e-06	1.2443e-06	263.79	75.406	58.435	17.374	1.2432e-06	24.485	196.016	177.043	153.423	97.918	250.673	238.061	98.207	105.629	256.125	192.475	105.020	112.409	112.733	119.680	266.720	118.564	-8191	255	
908.163	1	1	0	0	0.24925	0.1303	0.17308	0.28524	0.10503	0.046159	0.083199	0.090062	0.099609	0.24639	0.082625	0.16837	0.14509	0.2332	0.19903	0.054361	-3.4938	-3.6854	-3.3312	-4.0333	-3.675	-3.7562	-4.0437	-3.3521	-3.9875	-3.7687	-3.5312	-4.1458	-3.5583	-3.6896	-4.0354	-3.4333	143.702	391.110	353.021	403.631	272.655	437.220	402.523	393.979	432.596	337.914	371.903	94.187	360.568	318.301	328.910	150.957	0.00023052	0.0002495	0.0001126	970.76	1.9247e-06	3.3147e-06	1054.9	205.59	1.7753e-06	3.3773e-06	264.19	75.062	57.752	17.091	2.592e-06	24.15	0.00016619	0.0001137	3.3219e-05	958.45	1.5624e-06	1.2218e-06	1049.7	205.31	1.2646e-06	1.1186e-06	263.75	75.332	58.455	17.404	1.2948e-06	24.448	192.891	189.565	171.954	98.056	240.145	259.522	98.132	105.516	200.758	228.747	104.988	112.005	112.271	119.430	253.471	119.413	-8191	255	
908.260	1	1	0	0	0.35529	0.077274	0.11598	0.074718	0.17019	0.30495	0.30849	0.18406	0.099474	0.13282	0.094474	0.073409	0.040827	0.25275	0.17665	0.23567	-3.4625	-3.8854	-3.1604	-4.0479	-3.525	-3.5125	-4.0917	-3.4625	-3.7083	-4.0375	-3.3625	-3.9354	-3.7229	-3.4417	-4.0312	-3.3333	338.760	277.185	440.215	197.946	243.265	208.719	390.977	369.493	231.602	107.974	434.304	345.102	313.184	401.760	410.867	383.096	0.00023774	0.00028031	6.2487e-05	967.11	2.244e-06	2.218e-06	1053.2	205.29	2.6376e-06	2.6187e-06	265.52	74.538	57.862	17.153	2.2624e-06	23.903	0.00016679	0.00011265	3.3119e-05	958.09	1.4e-06	1.2404e-06	1047.4	205.46	1.4792e-06	1.23e-06	264.34	75.244	58.416	17.369	1.285e-06	24.436	196.506	168.605	187.500	97.979	240.077	265.798	97.966	105.597	251.119	254.766	105.008	111.978	112.322	119.531	233.297	119.095	-8191	255	
908.356	1	1	0	0	0.22217	0.064607	0.29305	0.21158	0.13146	0.16428	0.16352	0.27241	0.44223	0.121	0.11392	0.14128	0.042974	0.052553	0.21115	0.20009	-3.6188	-3.875	-3.2979	-4.2438	-3.7396	-3.4104	-4.1687	-3.4688	-3.7667	-3.9104	-3.2229	-4.1146	-3.6979	-3.4729	-4.2479	-3.4667	363.760	298.446	256.039	417.157	177.479	432.467	387.499	413.226	313.386	105.679	268.431	100.722	133.335	444.844	382.262	346.465	0.00021927	0.00031993	0.00010332	968.94	3.2608e-06	3.4229e-06	1056.8	206.64	2.3557e-06	2.9202e-06	263.18	74.612	57.803	17.016	2.0166e-06	24.228	0.00016556	0.00010427	3.392e-05	957.97	1.5212e-06	1.276e-06	1047.6	206.15	1.3716e-06	1.297e-06	263.76	75.26	58.379	17.339	1.1941e-06	24.472	191.943	165.876	189.411	98.068	246.131	234.349	98.182	105.814	244.703	248.812	105.063	112.201	112.462	119.528	217.576	119.040	-8191	255	
908.452	1	1	0	0	0.25227	0.068881	0.13582	0.34025	0.19347	0.020623	0.32463	0.15733	0.05302	0.06568	0.097853	0.3274	0.18879	0.19569	0.17231	0.23665	-3.1771	-3.975	-3.2812	-4.0188	-3.875	-3.2729	-4.1917	-3.5292	-3.4375	-4.1646	-3.4667	-4.0229	-4.0687	-3.35	-4.0333	-3.6104	176.748	425.233	134.887	110.051	92.446	264.615	384.943	387.098	330.453	114.700	406.492	100.514	444.317	93.325	186.636	411.285	0.00023592	0.00021695	7.5604e-05	968.25	3.1072e-06	3.032e-06	1057.5	204.61	2.1924e-06	2.1787e-06	265.57	74.285	58.058	17.237	1.7186e-06	24.15	0.00016801	0.0001038	3.1941e-05	958.73	1.4249e-06	1.2202e-06	1047.7	205.29	1.3866e-06	1.185e-06	263.98	75.326	58.471	17.4	1.2603e-06	24.446	197.034	145.707	182.515	98.146	231.048	248.595	98.143	105.540	237.389	212.162	104.777	111.883	112.165	119.751	273.200	119.069	-8191	255	
908.548	1	1	0	0	0.081282	0.063951	0.023023	0.073383	0.086367	0.19823	0.12781	0.13146	0.13485	0.086847	0.18063	0.28725	0.27793	0.12262	0.19205	0.20308	-3.0833	-4.0979	-3.3479	-3.8563	-3.9875	-3.1208	-4.1625	-3.7687	-3.3604	-4.1854	-3.2729	-3.8167	-3.8896	-3.2583	-3.8917	-3.8708	439.275	102.017	185.421	147.285	211.759	230.243	393.574	436.900	89.267	112.159	394.455	344.755	427.100	427.355	124.311	364.144	0.00022815	0.0002212	7.6207e-05	969.81	3.3223e-06	3.7138e-06	1052.1	206.89	2.7356e-06	2.7056e-06	264.13	74.481	57.5	17.091	2.3173e-06	23.992	0.00017074	0.00011042	3.0472e-05	959.84	1.5319e-06	1.3445e-06	1046.7	205.65	1.4652e-06	1.1996e-06	263.59	75.337	58.342	17.353	1.2122e-06	24.433	197.074	156.680	193.015	97.992	255.455	244.973	98.301	105.649	235.866	251.551	104.931	112.718	112.398	119.880	224.586	119.171	-8191	255	
908.644	1	1	0	0	0.11371	0.14808	0.046175	0.053801	0.18876	0.10619	0.32856	0.21991	0.17132	0.21938	0.21354	0.25347	0.11769	0.31618	0.10308	0.13842	-2.7687	-3.9771	-3.2875	-3.8021	-3.9333	-3.2	-4.1396	-3.8771	-3.4042	-4.2792	-3.4792	-3.5646	-4.1667	-3.3979	-3.9146	-3.8604	265.751	407.825	150.120	383.272	425.421	88.385	386.387	123.310	363.838	221.676	102.612	335.045	102.083	403.314	420.086	380.807	0.00023212	0.00030043	0.00011348	971.79	2.8724e-06	2.5197e-06	1058.7	205.67	2.2419e-06	1.8972e-06	263.67	74.172	57.837	17.11	2.4068e-06	24.07	0.00016482	0.0001063	3.0464e-05	959.16	1.2834e-06	1.2514e-06	1048.9	205.24	1.4728e-06	1.1766e-06	264.03	75.144	58.322	17.399	1.2932e-06	24.42	197.017	151.296	192.177	98.207	231.206	241.446	98.126	105.669	244.383	244.174	104.987	111.977	112.115	119.395	235.902	119.313	-8191	255	
908.740	1	1	0	0	0.15063	0.16852	0.08517	0.12878	0.21778	0.19822	0.11054	0.20042	0.099268	0.44693	0.1047	0.10523	0.181	0.017505	0.2081	0.25833	-2.9521	-3.9958	-3.45	-3.75	-4.2333	-3.4562	-4.1208	-3.975	-3.3375	-3.9437	-3.6167	-3.5771	-4.0792	-3.2729	-3.8042	-3.8979	281.806	412.713	289.373	380.714	430.653	250.375	93.447	321.034	144.077	126.477	160.021	357.655	110.799	93.148	210.305	277.260	0.0002004	0.00024235	8.097e-05	974.29	2.7296e-06	2.9723e-06	1053.1	206.59	2.2445e-06	1.7714e-06	264.9	74.242	57.931	17.117	2.6283e-06	24.148	0.00016207	0.00010693	2.7842e-05	960.33	1.3926e-06	1.2521e-06	1047.1	205.88	1.452e-06	1.0253e-06	263.6	75.164	58.563	17.335	1.2549e-06	24.477	196.634	192.783	168.861	98.108	246.718	255.333	98.125	105.759	239.217	232.208	104.865	112.092	112.454	119.538	240.674	118.813	-8191	255	
908.859	1	1	0	0	0.23647	0.14248	0.087792	0.49195	0.091549	0.15758	0.086851	0.090677	0.14875	0.14351	0.12997	0.12331	0.033745	0.045884	0.26861	0.13241	-2.8479	-4.1229	-3.8292	-3.4938	-4.2312	-3.3854	-3.8521	-4.0479	-3.1188	-4.0167	-3.7812	-3.4583	-4.1458	-3.3833	-3.4062	-3.9833	220.351	317.371	250.502	413.178	96.768	113.552	341.922	385.414	443.570	248.314	371.980	211.340	422.330	210.817	205.058	355.195	0.00023208	0.00031553	9.4e-05	972.35	2.147e-06	2.5547e-06	1057	206.66	2.4502e-06	1.9043e-06	265.08	74.762	58.305	17.121	2.6033e-06	23.946	0.00016922	0.0001097	3.0873e-05	959.3	1.4012e-06	1.3402e-06	1048.4	205.97	1.478e-06	1.135e-06	263.67	75.383	58.441	17.364	1.2435e-06	24.407	197.404	169.392	175.325	97.979	229.725	275.104	98.349	105.926	268.356	250.608	105.160	111.948	112.902	119.894	244.298	119.081	-8191	255	
908.955	1	1	0	0	0.13108	0.093442	0.17191	0.19393	0.19493	0.16141	0.26699	0.082213	0.084022	0.061353	0.15974	0.14158	0.12374	0.16034	0.037697	0.096196	-2.8	-3.8792	-3.7542	-3.5146	-4.1312	-3.3292	-3.7958	-4.075	-3.3333	-3.9667	-3.9208	-3.4125	-4.1771	-3.3979	-3.7	-4.1771	377.536	403.080	376.529	346.510	397.408	382.362	378.984	302.441	399.351	384.334	434.150	353.995	93.261	401.061	241.104	161.082	0.00022836	0.00040111	0.00011788	967.47	3.3613e-06	2.0211e-06	1053.9	205.21	3.2674e-06	1.795e-06	263.87	74.433	57.972	17.077	1.2224e-06	24.203	0.00017059	0.00010982	2.9646e-05	957.08	1.3622e-06	1.2062e-06	1047.3	205.23	1.4581e-06	1.2436e-06	263.52	75.08	58.488	17.36	1.2644e-06	24.521	192.677	181.286	190.364	98.253	254.367	217.935	98.320	105.905	244.402	237.998	105.071	112.004	112.866	119.858	224.935	119.805	-8191	255	
909.052	1	1	0	0	0.10662	0.10124	0.16369	0.44944	0.20226	0.19579	0.19018	0.30327	0.066136	0.12077	0.091449	0.15692	0.26821	0.1229	0.11433	0.063255	-3.0042	-3.9625	-3.9188	-3.4833	-3.9833	-3.55	-3.7146	-4.0417	-3.3521	-3.7708	-3.9	-3.3396	-3.8271	-3.5812	-3.3896	-4.2458	92.361	406.222	168.097	415.681	122.780	370.611	414.323	101.591	316.393	431.400	378.716	285.281	419.709	402.350	106.251	124.016	0.00022049	0.00031473	8.3244e-05	969.25	2.5704e-06	3.2813e-06	1060.5	206.73	2.1955e-06	2.4375e-06	264.95	74.534	57.893	17.228	1.4589e-06	24.048	0.00016693	0.00011665	2.9946e-05	958.32	1.4197e-06	1.3049e-06	1048.7	205.55	1.4612e-06	1.174e-06	263.65	75.105	58.41	17.406	1.402e-06	24.442	201.383	190.447	196.555	98.012	230.418	213.713	97.914	105.876	250.505	221.222	104.704	111.953	112.362	119.770	278.919	118.863	-8191	255	
909.148	1	1	0	0	0.20859	0.45526	0.30167	0.23799	0.20153	0.13227	0.11309	0.3788	0.08608	0.14381	0.11873	0.1728	0.16536	0.14358	0.20476	0.048337	-3.0312	-3.6854	-4.1729	-3.425	-3.8875	-3.7646	-3.4417	-4.2292	-3.2062	-3.5625	-3.9979	-3.2792	-4.0333	-3.8646	-3.3917	-4.1104	383.014	358.426	332.898	98.051	205.790	219.764	372.132	364.952	105.804	384.847	204.117	112.886	287.877	320.013	163.140	391.271	0.0002131	0.00025587	0.00011872	966.19	3.7583e-06	2.179e-06	1056.9	205.76	2.3258e-06	3.2875e-06	263.19	74.558	58.118	17.231	1.7878e-06	24.104	0.000167	0.00010827	3.1349e-05	956.19	1.4996e-06	1.2418e-06	1047.5	205.3	1.4649e-06	1.3036e-06	263.43	75.097	58.413	17.38	1.3887e-06	24.494	198.141	192.116	183.270	97.794	249.056	274.547	98.060	105.810	244.690	253.156	104.984	112.150	112.302	119.153	256.265	118.986	-8191	255	
909.244	1	1	0	0	0.19347	0.079086	0.10326	0.21047	0.18241	0.054001	0.17962	0.031002	0.065143	0.064371	0.22292	0.40559	0.10236	0.235	0.27607	0.32086	-3.175	-3.5604	-3.9708	-3.4229	-3.9437	-3.9021	-3.5646	-4.2146	-3.5917	-3.425	-4.1854	-3.35	-3.7875	-3.8958	-3.3417	-4.1292	101.534	261.299	176.712	143.608	209.467	104.836	395.827	366.720	264.642	311.151	404.691	153.639	158.321	95.895	333.597	423.222	0.00022597	0.00038103	9.5696e-05	967.81	2.1692e-06	2.6492e-06	1052.4	205.25	2.8203e-06	2.397e-06	261.85	74.487	58.041	17.112	2.3577e-06	23.988	0.00017176	0.00012121	3.1825e-05	958.3	1.5722e-06	1.2667e-06	1046.1	205.32	1.5783e-06	1.3346e-06	263.01	74.989	58.395	17.361	1.4574e-06	24.422	194.664	180.569	208.233	97.698	255.871	239.208	98.304	105.518	254.770	230.520	105.032	111.983	112.759	119.735	257.032	118.809	-8191	255	
909.340	1	1	0	0	0.034253	0.1814	0.16098	0.20904	0.098681	0.28076	0.30893	0.17507	0.15966	0.17612	0.14042	0.17293	0.21163	0.14581	0.11	0.19576	-3.3021	-3.5167	-4.3083	-3.4854	-3.8312	-4.0583	-3.4021	-4.0312	-3.4958	-3.5271	-3.9875	-3.5542	-3.8271	-4.0396	-3.2812	-4.0062	318.592	405.685	304.210	407.785	375.344	282.344	265.769	365.849	294.040	180.896	172.254	374.984	93.622	382.995	273.795	374.773	0.00024149	0.00036523	7.4871e-05	967.36	2.4626e-06	2.6381e-06	1054.5	206.48	3.3248e-06	2.6299e-06	264.11	74.746	57.844	17.185	3.0384e-06	23.948	0.00017127	0.00011417	3.1365e-05	954.86	1.4557e-06	1.1198e-06	1045.3	205.23	1.5175e-06	1.3673e-06	263.18	75.193	58.189	17.323	1.3906e-06	24.336	191.736	184.588	180.603	97.943	243.332	212.486	98.010	105.706	244.653	237.068	105.202	112.184	112.486	119.597	244.314	118.903	-8191	255	
909.461	1	1	0	0	0.31591	0.20234	0.22724	0.34229	0.067027	0.19762	0.14064	0.060172	0.053751	0.25073	0.1329	0.028795	0.19687	0.22492	0.21604	0.13129	-3.4188	-3.3458	-4.125	-3.7062	-3.5979	-4.025	-3.4833	-3.9437	-3.7729	-3.3625	-4.1062	-3.4646	-3.5292	-4.1833	-3.375	-4.0417	138.923	143.657	432.436	416.316	182.966	363.527	365.990	89.939	333.391	340.781	408.678	213.072	333.582	96.005	112.693	383.502	0.00023303	0.00015283	0.00011141	968.81	3.4451e-06	2.2684e-06	1055.1	206.06	1.9988e-06	2.0365e-06	264.14	74.764	58.244	17.062	1.629e-06	24.158	0.00017432	0.00012932	3.4087e-05	956.93	1.5338e-06	1.2182e-06	1046	205.94	1.4955e-06	1.4456e-06	263.71	75.062	58.411	17.307	1.397e-06	24.563	195.083	171.940	205.897	97.806	256.610	221.166	98.206	106.005	242.564	232.157	105.123	111.987	112.190	119.563	236.125	119.337	-8191	255	
909.557	1	1	0	0	0.037028	0.17567	0.18668	0.28598	0.046599	0.077086	0.31161	0.034792	0.10749	0.098036	0.0052938	0.038494	0.22719	0.1386	0.14614	0.17782	-3.6042	-3.2771	-4.1271	-3.7354	-3.4708	-4.0938	-3.5354	-3.9562	-3.8292	-3.3125	-4.0458	-3.6708	-3.1833	-4.0813	-3.3771	-3.8812	408.133	269.140	401.145	427.418	443.298	94.516	213.019	176.837	301.926	402.721	148.607	338.414	91.076	363.198	257.508	368.483	0.00022548	0.00024097	7.6318e-05	969.23	2.2229e-06	2.694e-06	1053.2	206.7	2.8304e-06	1.5957e-06	263.73	73.52	58.329	17.207	2.7974e-06	24.034	0.00017197	0.00011927	3.3678e-05	958.16	1.5873e-06	1.138e-06	1045.1	205.85	1.4239e-06	1.343e-06	263.86	74.874	58.638	17.368	1.3299e-06	24.441	196.990	142.664	173.636	97.884	250.274	219.035	98.187	105.700	248.060	209.170	105.125	111.950	112.850	119.597	251.453	119.028	-8191	255	
909.651	1	1	0	0	0.16596	0.2832	0.064529	0.22662	0.14216	0.078345	0.093613	0.37186	0.29704	0.15886	0.095376	0.25575	0.36736	0.23087	0.12929	0.037884	-3.5833	-3.2271	-3.9979	-3.8125	-3.5	-4.2792	-3.6188	-3.6917	-3.8854	-3.4417	-3.9479	-3.8563	-3.4396	-4.2167	-3.3417	-3.7875	218.698	257.243	167.376	403.836	285.819	362.691	403.879	432.085	218.373	249.348	300.682	430.270	341.677	299.858	294.468	443.029	0.00023347	0.00021661	0.00011127	964.19	2.6802e-06	2.1151e-06	1055.4	206.35	2.3732e-06	1.7346e-06	263.01	74.64	57.789	17.153	1.6731e-06	24.117	0.00016501	0.00012682	2.8878e-05	955.37	1.6002e-06	1.2541e-06	1047.1	205.34	1.3841e-06	1.3506e-06	263.38	75.092	58.406	17.351	1.3963e-06	24.422	192.930	203.923	164.543	97.871	246.077	271.275	98.069	106.236	250.351	190.797	105.076	112.217	112.538	120.162	256.990	119.266	-8191	255	
909.747	1	1	0	0	0.01245	0.17403	0.066657	0.21245	0.11288	0.16075	0.26423	0.18544	0.13025	0.085279	0.089074	0.19766	0.24045	0.18258	0.12799	0.069427	-3.6917	-3.325	-4	-3.8563	-3.2104	-4.0396	-3.7021	-3.5042	-4.1104	-3.2208	-3.9083	-3.9729	-3.3375	-4.025	-3.4938	-3.3917	222.620	168.442	424.621	401.651	207.122	309.894	321.771	385.700	325.254	391.929	394.395	356.867	172.933	340.944	215.157	445.825	0.00023566	0.00024906	6.6277e-05	968.54	2.4545e-06	4.1046e-06	1056.3	205.04	2.0533e-06	1.598e-06	264.75	74.619	57.618	17.267	2.4776e-06	24.134	0.00016391	0.00011134	3.0898e-05	957.03	1.4504e-06	1.1503e-06	1045.6	205.47	1.341e-06	1.275e-06	264.08	75.089	58.355	17.398	1.2473e-06	24.492	197.034	182.573	187.321	98.156	249.484	259.094	98.387	106.037	256.180	226.093	105.426	112.029	112.833	119.888	233.352	119.201	-8191	255	
909.843	1	1	0	0	0.055534	0.24339	0.098284	0.084538	0.072557	0.12291	0.22038	0.27048	0.29408	0.32802	0.22319	0.12521	0.15604	0.076916	0.22124	0.11911	-3.6229	-3.4562	-3.6979	-3.9417	-3.2521	-3.9938	-3.7833	-3.4958	-4.0125	-3.3979	-3.7667	-4	-3.325	-4.05	-3.7	-3.2792	382.789	379.198	171.482	229.979	273.354	279.164	374.379	416.125	299.085	309.002	96.000	122.914	379.483	128.705	324.975	430.396	0.00022167	0.00027569	8.6027e-05	971.94	3.7451e-06	2.9055e-06	1054.7	205.46	3.0069e-06	2.9281e-06	263.96	74.859	57.763	17.053	2.1774e-06	24.294	0.00016074	0.00010827	2.9303e-05	958.52	1.4391e-06	1.1114e-06	1045.4	205.59	1.2991e-06	1.178e-06	264.09	75.334	58.461	17.371	1.2789e-06	24.534	193.827	186.873	190.650	98.230	246.936	217.850	98.179	105.856	244.538	254.440	105.648	112.004	112.694	120.004	236.234	119.290	-8191	255	
#DATA ENDS
